BOXY.EXE: ISS Imagent and Oximeter Data Acquisition Program Version 0.80
Ascii Record File

#ACQ INFORMATION
2  Detector Channels 
16  External MUX Channels 
1  Auxiliary Channels 
5000  Waveform (CCF) Frequency (Hz)
1  Waveforms Skipped 
30  Waveforms Averaged 
1  Cycles Averaged 
16  Acquisitions per Waveform 
10.0806  Updata Rate (Hz) 

#FILE INFORMATION
TRUE -- External MUX Channel results are PARSED.
FALSE -- AC DC and Phase are NOT grouped.
TRUE -- Companion Program Settings File CREATED.
FALSE -- AC data not excluded
FALSE -- DC data not excluded
FALSE -- Phase data not excluded
FALSE -- Auxillary Chn. data not excluded
Tab delimiters

#CALIBRATION STATE
TRUE -- Waveform Calibration Values APPLIED.


#AUX CALIBRATION VALUES
Val Type	aux-1	

Term	1.0000e+00	
Factor	0.0000e+00	


#WF CALIBRATION VALUES
A = Detector Channel
Val Type	A-AC1	A-AC2	A-AC3	A-AC4	A-AC5	A-AC6	A-AC7	A-AC8	A-AC9	A-AC10	A-AC11	A-AC12	A-AC13	A-AC14	A-AC15	A-AC16	A-DC1	A-DC2	A-DC3	A-DC4	A-DC5	A-DC6	A-DC7	A-DC8	A-DC9	A-DC10	A-DC11	A-DC12	A-DC13	A-DC14	A-DC15	A-DC16	A-Ph1	A-Ph2	A-Ph3	A-Ph4	A-Ph5	A-Ph6	A-Ph7	A-Ph8	A-Ph9	A-Ph10	A-Ph11	A-Ph12	A-Ph13	A-Ph14	A-Ph15	A-Ph16	

Term	0.00000e+00	0.00000e+00	0.00000e+00	0.00000e+00	0.00000e+00	0.00000e+00	0.00000e+00	0.00000e+00	0.00000e+00	0.00000e+00	0.00000e+00	0.00000e+00	0.00000e+00	0.00000e+00	0.00000e+00	0.00000e+00	0.00000e+00	0.00000e+00	0.00000e+00	0.00000e+00	0.00000e+00	0.00000e+00	0.00000e+00	0.00000e+00	0.00000e+00	0.00000e+00	0.00000e+00	0.00000e+00	0.00000e+00	0.00000e+00	0.00000e+00	0.00000e+00	0.00000e+00	0.00000e+00	0.00000e+00	0.00000e+00	0.00000e+00	0.00000e+00	0.00000e+00	0.00000e+00	0.00000e+00	0.00000e+00	0.00000e+00	0.00000e+00	0.00000e+00	0.00000e+00	0.00000e+00	0.00000e+00	
Factor	1.00000e+00	1.00000e+00	1.00000e+00	1.00000e+00	1.00000e+00	1.00000e+00	1.00000e+00	1.00000e+00	1.00000e+00	1.00000e+00	1.00000e+00	1.00000e+00	1.00000e+00	1.00000e+00	1.00000e+00	1.00000e+00	1.00000e+00	1.00000e+00	1.00000e+00	1.00000e+00	1.00000e+00	1.00000e+00	1.00000e+00	1.00000e+00	1.00000e+00	1.00000e+00	1.00000e+00	1.00000e+00	1.00000e+00	1.00000e+00	1.00000e+00	1.00000e+00	X	X	X	X	X	X	X	X	X	X	X	X	X	X	X	X	

B = Detector Channel
Val Type	B-AC1	B-AC2	B-AC3	B-AC4	B-AC5	B-AC6	B-AC7	B-AC8	B-AC9	B-AC10	B-AC11	B-AC12	B-AC13	B-AC14	B-AC15	B-AC16	B-DC1	B-DC2	B-DC3	B-DC4	B-DC5	B-DC6	B-DC7	B-DC8	B-DC9	B-DC10	B-DC11	B-DC12	B-DC13	B-DC14	B-DC15	B-DC16	B-Ph1	B-Ph2	B-Ph3	B-Ph4	B-Ph5	B-Ph6	B-Ph7	B-Ph8	B-Ph9	B-Ph10	B-Ph11	B-Ph12	B-Ph13	B-Ph14	B-Ph15	B-Ph16	

Term	0.00000e+00	0.00000e+00	0.00000e+00	0.00000e+00	0.00000e+00	0.00000e+00	0.00000e+00	0.00000e+00	0.00000e+00	0.00000e+00	0.00000e+00	0.00000e+00	0.00000e+00	0.00000e+00	0.00000e+00	0.00000e+00	0.00000e+00	0.00000e+00	0.00000e+00	0.00000e+00	0.00000e+00	0.00000e+00	0.00000e+00	0.00000e+00	0.00000e+00	0.00000e+00	0.00000e+00	0.00000e+00	0.00000e+00	0.00000e+00	0.00000e+00	0.00000e+00	-1.28747e+02	-1.33826e+02	-1.28549e+02	-1.80942e+02	-7.62500e+01	-8.09811e+01	-1.54237e+02	-1.62015e+02	-7.58400e+01	-9.44173e+01	-1.75125e+02	-1.69314e+02	-1.81664e+02	-1.76960e+02	-5.94591e+01	-1.48622e+02	
Factor	1.82771e-05	1.44101e-04	3.88608e-05	1.54363e-01	1.25011e-06	1.75893e-06	1.64846e-01	6.58057e-02	1.31588e-06	1.62697e-06	1.48855e-01	2.74170e-02	2.93441e-02	8.95402e-03	1.40154e-06	1.27922e-02	1.80991e-06	1.93471e-06	5.39634e-07	7.75589e-02	2.11008e-08	2.13558e-08	7.78935e-02	3.28511e-02	2.11968e-08	2.13614e-08	7.05007e-02	1.33727e-02	1.48024e-02	4.49870e-03	2.12343e-08	6.21207e-03	X	X	X	X	X	X	X	X	X	X	X	X	X	X	X	X	



#DISTANCE SETTINGS
A = Detector Channel
A-1	A-2	A-3	A-4	A-5	A-6	A-7	A-8	A-9	A-10	A-11	A-12	A-13	A-14	A-15	A-16	

2.5000e+00	3.0000e+00	2.5000e+00	3.0000e+00	2.0000e+00	3.0000e+00	1.5000e+00	3.0000e+00	3.0000e+00	3.0000e+00	3.0000e+00	3.0000e+00	3.0000e+00	3.0000e+00	1.5000e+00	3.0000e+00	

B = Detector Channel
B-1	B-2	B-3	B-4	B-5	B-6	B-7	B-8	B-9	B-10	B-11	B-12	B-13	B-14	B-15	B-16	

1.0000e+01	1.0000e+01	1.0000e+01	1.4400e+00	1.0000e+01	1.0000e+01	1.5100e+00	1.9400e+00	1.0000e+01	1.0000e+01	1.9900e+00	2.4900e+00	2.4100e+00	2.9000e+00	1.0000e+01	2.9800e+00	




#DATA BEGINS
time	group	step	mark	flag	A-AC1	A-AC2	A-AC3	A-AC4	A-AC5	A-AC6	A-AC7	A-AC8	A-AC9	A-AC10	A-AC11	A-AC12	A-AC13	A-AC14	A-AC15	A-AC16	A-DC1	A-DC2	A-DC3	A-DC4	A-DC5	A-DC6	A-DC7	A-DC8	A-DC9	A-DC10	A-DC11	A-DC12	A-DC13	A-DC14	A-DC15	A-DC16	A-Ph1	A-Ph2	A-Ph3	A-Ph4	A-Ph5	A-Ph6	A-Ph7	A-Ph8	A-Ph9	A-Ph10	A-Ph11	A-Ph12	A-Ph13	A-Ph14	A-Ph15	A-Ph16	B-AC1	B-AC2	B-AC3	B-AC4	B-AC5	B-AC6	B-AC7	B-AC8	B-AC9	B-AC10	B-AC11	B-AC12	B-AC13	B-AC14	B-AC15	B-AC16	B-DC1	B-DC2	B-DC3	B-DC4	B-DC5	B-DC6	B-DC7	B-DC8	B-DC9	B-DC10	B-DC11	B-DC12	B-DC13	B-DC14	B-DC15	B-DC16	B-Ph1	B-Ph2	B-Ph3	B-Ph4	B-Ph5	B-Ph6	B-Ph7	B-Ph8	B-Ph9	B-Ph10	B-Ph11	B-Ph12	B-Ph13	B-Ph14	B-Ph15	B-Ph16	aux-1	digaux	

2148.650	1	1	0	768	0.15028	0.2655	0.19508	0.29649	0.18712	0.33026	0.16886	0.14436	0.21704	0.091357	0.21021	0.11725	0.13318	0.3037	0.34729	0.14684	-2.5083	-2.7833	-2.6542	-3.0938	-2.85	-2.8417	-3.1646	-2.7042	-2.8167	-2.9833	-2.5042	-2.9771	-2.9313	-2.7438	-3.0312	-2.525	383.072	422.083	217.653	374.112	331.467	359.798	221.615	136.957	307.467	296.709	406.783	153.017	210.800	189.784	115.317	87.431	8.7982e-06	4.5756e-05	0.0043191	15.006	3.1943e-06	2.7386e-06	20.969	28.782	2.7935e-07	9.8386e-07	6.5763	2.3269	8.4716	0.39884	1.2943e-07	1.0056	4.6681e-05	4.8239e-05	0.001549	18.086	1.2339e-06	7.3758e-07	24.572	157.19	5.3124e-07	5.2887e-07	11.182	2.8291	47.07	0.56686	5.2382e-07	1.4508	160.973	185.206	91.352	140.132	310.934	336.134	139.893	103.046	179.045	278.889	143.401	149.237	192.577	155.264	251.325	151.814	-8191	255	
2148.746	1	1	0	0	0.19701	0.17541	0.014436	0.21073	0.015972	0.039003	0.036987	0.1072	0.12838	0.14461	0.045316	0.15069	0.061928	0.082036	0.22909	0.13863	-2.4146	-3.0312	-2.7687	-2.8667	-2.7708	-2.7729	-2.9021	-2.7062	-2.725	-3.1417	-2.6208	-3.05	-2.8688	-2.8187	-3.0938	-2.725	323.397	102.988	441.862	129.832	314.531	352.164	415.582	243.617	408.083	224.235	289.165	183.374	337.213	193.689	393.442	133.471	1.2998e-05	3.4094e-05	0.014998	15.05	1.9297e-06	2.9616e-06	21.216	20.709	1.942e-06	2.817e-07	6.3582	2.3345	9.0988	2.5554	4.2102e-07	0.99158	4.6141e-05	4.7356e-05	0.0024838	18.191	9.1177e-07	6.7694e-07	24.745	106.87	5.7717e-07	5.2567e-07	12.15	2.8331	35.422	7.6787	5.2471e-07	1.336	173.238	414.923	372.990	139.525	338.638	292.953	139.902	110.333	189.023	122.656	142.349	149.256	235.130	155.261	421.661	152.443	-8191	255	
2148.842	1	1	0	0	0.24585	0.21293	0.21212	0.19218	0.11776	0.050308	0.30099	0.095388	0.20517	0.17542	0.22874	0.15169	0.2255	0.14437	0.10544	0.19954	-2.3583	-3.2167	-2.6042	-2.9875	-2.9167	-2.7625	-3.0646	-2.8187	-2.8187	-3.1354	-2.8063	-2.925	-2.875	-2.7604	-3.0146	-2.8958	378.764	342.518	146.639	174.652	290.400	133.998	431.655	94.826	252.923	150.474	335.738	173.108	179.290	236.212	156.912	451.689	3.2658e-05	3.9273e-05	0.010282	14.997	3.1146e-06	4.2142e-06	21.256	29.144	2.4552e-06	5.8034e-07	6.6784	2.3283	1.0799	1.6818	1.9303e-07	0.9869	5.7895e-05	4.732e-05	0.0016834	18.211	6.6037e-07	1.1923e-06	24.806	156.71	7.2873e-07	5.3012e-07	11.218	2.8403	1.502	13.926	5.2466e-07	1.397	186.444	253.774	378.608	139.479	346.333	309.634	139.971	112.462	214.660	394.202	142.385	149.248	149.797	158.427	160.913	152.542	-8191	255	
2148.939	1	1	0	0	0.27458	0.10911	0.12204	0.22099	0.27712	0.033845	0.046103	0.14754	0.24507	0.074946	0.087458	0.12485	0.095095	0.11322	0.31664	0.23081	-2.4417	-2.9229	-2.7208	-2.7396	-3.0438	-2.7104	-3.0396	-2.8042	-2.6896	-3.0938	-2.6229	-2.9542	-3.0229	-2.7896	-3.0042	-2.7917	112.252	307.062	219.390	256.345	270.095	329.047	370.418	227.546	294.233	334.636	184.036	223.786	204.878	325.396	254.650	297.593	4.3017e-05	3.5353e-05	0.015206	15.067	1.8311e-07	5.1425e-06	21.093	21.321	1.6339e-06	5.4315e-07	6.4193	2.2989	1.0526	3.648	3.1315e-07	0.95023	6.3392e-05	4.7541e-05	0.0025029	18.161	5.1758e-07	1.1465e-06	24.649	107.23	6.824e-07	5.2567e-07	12.132	2.8162	1.4792	21.292	5.2334e-07	1.2872	168.442	166.007	384.059	139.419	204.779	322.857	139.843	118.952	240.803	224.768	141.189	149.068	150.364	213.727	310.904	153.039	-8191	255	
2149.035	1	1	0	0	0.028175	0.077088	0.14981	0.13805	0.22973	0.11408	0.10243	0.06534	0.17523	0.1242	0.19502	0.08474	0.10334	0.22891	0.27316	0.1344	-2.1354	-2.9562	-2.8438	-2.8604	-2.9313	-2.5896	-2.9167	-2.9917	-2.7	-3.1146	-2.9437	-2.8042	-3.2542	-2.8021	-2.8396	-2.8583	310.021	271.903	396.511	341.007	219.212	237.501	388.940	308.789	212.403	142.321	311.769	244.106	218.465	346.205	400.302	439.106	7.1131e-05	2.5979e-05	0.010297	14.896	2.0674e-07	8.2317e-06	21.054	1.1122	0.00057453	5.7425e-08	6.7612	2.3017	1.061	2.522	2.222e-07	0.95245	6.0647e-05	4.7413e-05	0.0016827	18.314	5.1873e-07	1.4403e-06	24.583	74.209	3.8773e-05	5.238e-07	10.684	2.9115	1.4854	14.517	5.2413e-07	1.2151	176.076	243.143	389.827	139.286	221.127	333.695	140.080	102.788	209.165	127.588	143.127	148.439	150.467	216.844	442.695	152.926	-8191	255	
2149.131	1	1	0	0	0.21139	0.15567	0.22416	0.11954	0.17557	0.32083	0.18347	0.2305	0.15552	0.1344	0.23385	0.083628	0.19653	0.13575	0.15965	0.18438	-2.1125	-2.925	-2.8958	-2.7542	-3.1042	-2.7062	-2.9313	-2.7479	-2.7833	-2.9083	-2.6688	-2.4688	-2.8146	-2.8312	-2.8708	-3.0062	487.436	382.877	132.924	452.298	335.762	163.719	438.887	388.964	369.860	134.612	220.272	441.005	463.087	205.242	230.130	319.758	9.657e-05	1.9146e-05	0.015098	14.769	3.9252e-07	5.6837e-06	21.227	4.4269	0.00035068	2.3301e-07	6.7554	2.304	1.088	3.6125	4.4891e-07	0.96585	0.00010468	4.7703e-05	0.0024975	18.842	5.1965e-07	1.148e-06	24.76	5.5572	6.6265e-05	5.2064e-07	11.483	2.9669	1.4954	21.322	5.2471e-07	1.1896	172.837	136.593	395.279	138.874	207.693	341.237	139.925	145.474	206.489	145.757	143.258	148.210	149.463	224.588	290.840	152.878	-8191	255	
2149.250	1	1	0	0	0.17295	0.11275	0.11198	0.12888	0.13422	0.36991	0.1818	0.13391	0.18703	0.31178	0.16584	0.10287	0.11132	0.12443	0.10911	0.14995	-2.3688	-2.8271	-2.8187	-2.8458	-3.0646	-2.7729	-2.8187	-2.8292	-2.5479	-2.9062	-2.9229	-2.8104	-2.9313	-2.8521	-2.8417	-3.1188	298.545	218.969	410.341	305.813	127.817	407.576	455.923	335.639	128.526	135.078	483.723	315.661	358.807	275.503	214.025	292.182	6.6303e-05	2.7276e-05	0.010283	14.934	3.2625e-07	8.9183e-06	21.128	4.4369	0.00051453	4.0149e-07	6.8712	2.3405	1.0855	2.4652	1.7524e-06	0.96346	9.8915e-05	4.7582e-05	0.0016886	18.764	5.1451e-07	1.4117e-06	24.822	5.5786	9.8374e-05	5.2665e-07	10.329	2.9786	1.5005	14.541	6.1137e-07	1.1954	179.221	156.413	401.326	139.290	486.562	371.526	139.927	145.108	215.706	244.399	145.233	147.357	150.174	227.522	275.255	153.138	-8191	255	
2149.346	1	1	0	0	0.20126	0.42079	0.23119	0.14548	0.1332	0.17728	0.074675	0.18814	0.091262	0.065424	0.22839	0.15775	0.060608	0.1014	0.17947	0.2452	-2.2833	-2.8354	-2.7562	-2.6417	-2.9292	-2.7021	-2.4667	-3.0271	-2.875	-2.8917	-2.9958	-2.5875	-2.9813	-2.8104	-2.7083	-3.1188	483.601	314.307	379.028	378.738	173.670	140.904	177.135	183.061	136.619	281.750	356.085	469.291	412.354	184.834	479.885	133.310	9.5543e-05	3.7087e-05	0.013937	49.021	5.8599e-07	3.7765e-06	21.035	4.4297	0.0003528	2.9163e-07	6.7041	2.316	1.0616	3.5396	2.5063e-06	0.9529	0.00012284	4.7155e-05	0.00103	175.43	5.12e-07	1.0077e-06	25.307	5.5494	6.6956e-05	5.2416e-07	9.4066	3.2922	1.4862	21.495	7.2095e-07	1.1764	179.392	215.959	361.153	433.603	162.024	348.072	140.257	145.194	221.579	454.144	145.066	146.562	150.585	235.738	382.580	153.066	-8191	255	
2149.442	1	1	0	0	0.091318	0.12284	0.096638	0.28431	0.13939	0.068855	0.036062	0.18533	0.18864	0.17448	0.21311	0.15017	0.19038	0.061744	0.25803	0.21116	-2.4333	-2.8729	-2.8542	-2.7333	-3.1083	-2.8354	-2.6021	-2.9104	-2.8979	-3.0146	-2.8604	-2.6562	-3.0521	-2.8458	-2.8187	-2.9333	147.922	338.396	417.253	347.943	370.701	463.701	425.441	277.793	205.407	458.931	219.653	418.450	475.462	455.337	328.488	334.472	6.7937e-05	2.0456e-05	9.8743e-06	31.629	2.9073e-07	5.1223e-06	20.906	4.428	0.00051897	4.4288e-07	7.0265	2.2693	1.0624	2.3055	1.4351e-06	0.94524	9.887e-05	4.7497e-05	1.2966e-05	262.37	5.1394e-07	1.2408e-06	25.368	5.5078	9.958e-05	5.234e-07	9.0743	3.2105	1.4838	14.492	6.8007e-07	1.1721	187.777	241.998	360.425	377.822	184.856	347.596	140.321	145.266	227.215	285.381	144.876	147.202	150.094	253.643	393.622	153.001	-8191	255	
2149.538	1	1	0	0	0.18539	0.11305	0.04828	0.057413	0.059754	0.10626	0.22555	0.24219	0.098138	0.059502	0.17216	0.068865	0.30576	0.10489	0.22974	0.087165	-2.4417	-2.8375	-2.9854	-2.6937	-2.9313	-2.8229	-2.7875	-2.9458	-2.9771	-2.9021	-2.9854	-2.625	-2.8729	-2.9292	-2.7271	-3.0458	464.925	441.747	435.082	458.851	444.086	197.371	403.521	410.504	136.606	217.905	445.562	179.018	436.950	172.639	287.305	336.339	6.4421e-05	1.068e-05	9.4238e-06	51.633	5.3933e-07	3.5136e-06	21.026	4.3689	0.00035327	3.5335e-06	6.9975	2.2609	1.0528	3.4529	0.00012559	0.93282	0.00011936	4.7247e-05	1.2988e-05	381.71	5.1587e-07	8.5392e-07	25.448	5.4748	6.7183e-05	6.359e-07	9.0552	3.3899	1.4764	8.1364	4.8484e-05	1.1607	228.180	278.253	189.815	377.585	384.265	356.967	139.857	145.081	232.583	196.623	145.055	146.011	150.141	259.866	284.038	152.989	-8191	255	
2149.634	1	1	0	0	0.10668	0.15602	0.1735	0.13141	0.11689	0.068404	0.24805	0.30959	0.19737	0.2028	0.23456	0.25363	0.24967	0.28816	0.18679	0.19962	-2.4667	-2.7875	-2.9208	-2.7188	-3.1167	-3.0708	-2.8479	-2.9458	-2.9938	-2.6854	-3.0625	-2.6437	-2.8646	-2.9042	-2.7083	-3.0729	147.019	418.510	200.786	238.400	214.849	454.048	463.778	150.366	242.299	208.845	230.601	399.334	349.924	253.454	485.466	305.865	4.3923e-05	0.00015542	1.033e-05	34.256	1.4871e-07	4.7e-06	20.967	4.3925	0.0005178	2.7952e-06	7.0712	2.2769	1.0567	0.38026	0.00037722	0.9396	8.7679e-05	6.0004e-05	1.3106e-05	262.99	5.178e-07	5.6001e-07	27.579	5.5106	9.9396e-05	7.2789e-07	9.0905	3.2097	1.4867	0.52405	6.7461e-05	1.1675	184.296	214.052	477.170	391.697	285.628	361.982	139.800	145.354	237.762	250.128	144.555	147.178	149.692	154.792	376.128	152.956	-8191	255	
2149.730	1	1	0	0	0.089849	0.10713	0.11705	0.063133	0.18647	0.052567	0.077738	0.18109	0.25819	0.1761	0.15808	0.28054	0.25601	0.073544	0.13282	0.042411	-2.3937	-2.4813	-3.0187	-2.6958	-2.8104	-3.0875	-2.7396	-2.8854	-3.0417	-2.625	-3.0792	-2.7521	-3.0875	-2.8688	-2.8479	-3.0542	300.408	315.035	473.629	413.043	290.467	252.954	460.270	267.860	430.966	223.855	363.553	226.774	428.214	379.967	173.520	385.903	5.8748e-05	0.00024018	1.3413e-05	53.768	2.1296e-07	2.8665e-07	20.836	4.4119	9.7863e-05	2.4218e-06	7.0645	2.2888	1.0607	0.38572	0.00055139	0.94387	0.000107	6.551e-05	1.3245e-05	382.13	5.1824e-07	5.1832e-07	27.19	5.5439	6.3227e-05	6.902e-07	9.0974	3.3447	1.4828	0.52266	9.9418e-05	1.1671	193.273	206.081	379.526	390.539	367.206	271.733	140.479	145.507	324.696	230.521	144.972	147.482	150.459	154.198	381.700	152.811	-8191	255	
2149.827	1	1	0	0	0.1876	0.2523	0.10042	0.17588	0.068191	0.053884	0.1602	0.10283	0.1634	0.076503	0.18959	0.27027	0.079667	0.10245	0.046693	0.071451	-2.4	-2.7417	-3.0062	-2.7604	-2.8833	-3.1792	-2.8438	-2.8312	-2.9083	-2.8208	-2.9562	-2.7667	-2.6792	-3.0917	-2.6688	-2.9292	413.892	298.712	202.267	336.944	413.956	197.719	376.655	274.459	320.587	244.134	458.205	328.174	394.585	277.266	157.663	187.964	1.6958e-05	0.00043149	3.6437e-06	36.757	2.0471e-06	7.4343e-08	20.492	4.4192	0.00016971	0.00063826	7.0316	2.3108	1.0716	0.39151	0.00037413	0.95122	7.1748e-05	6.8739e-05	1.3133e-05	261.47	6.4854e-07	5.1121e-07	28.205	5.565	3.1619e-05	5.2908e-05	9.1181	3.1338	1.5896	0.52781	6.6912e-05	1.179	216.023	199.156	175.823	403.601	153.632	321.227	140.254	144.939	329.604	211.350	144.576	147.661	148.436	154.218	387.178	153.000	-8191	255	
2149.945	1	1	0	0	0.1641	0.13246	0.22282	0.23079	0.21052	0.21505	0.27221	0.27146	0.072498	0.13504	0.32443	0.092859	0.13402	0.16423	0.016658	0.12566	-2.5563	-2.7062	-2.9625	-2.9	-2.7687	-3.0542	-2.8167	-2.8292	-3.1125	-2.7146	-2.8875	-2.7438	-2.825	-3.1042	-2.9375	-2.9437	428.891	279.026	456.264	485.260	399.664	153.979	145.958	221.705	205.454	199.862	207.302	205.135	217.953	417.597	363.418	169.033	2.5736e-05	0.00055245	3.4385e-06	56.544	1.8782e-06	2.5737e-07	20.713	4.4445	7.6055e-08	0.00043444	7.05	2.3185	1.0745	0.38775	0.00054524	0.94849	4.6424e-05	0.00011969	1.3271e-05	377.35	7.2195e-07	5.2237e-07	27.124	5.5555	5.2056e-07	6.7091e-05	9.1223	3.2851	1.6368	0.52914	9.8573e-05	1.1763	234.427	200.548	434.049	402.627	148.753	439.876	140.193	145.372	149.658	236.273	144.378	147.368	147.544	154.698	393.155	152.839	-8191	255	
2150.042	1	1	0	0	0.1364	0.22263	0.16299	0.15328	0.19077	0.29552	0.12245	0.18051	0.12583	0.079359	0.11255	0.13271	0.18322	0.14375	0.32726	0.1124	-2.7271	-2.6437	-2.8896	-2.9437	-2.7875	-3.1104	-2.7417	-2.8417	-3.0917	-2.8042	-2.8375	-2.9771	-2.5563	-2.8708	-2.8625	-2.8479	128.179	334.604	300.489	221.578	302.007	433.769	427.668	229.616	199.896	137.644	390.416	365.695	307.044	225.529	146.973	464.391	1.5281e-05	0.00040062	3.9802e-06	12.508	2.2251e-06	1.5106e-07	20.471	4.4781	1.6305e-07	0.00063489	7.0395	2.2929	1.111	0.39292	0.00037113	0.94894	4.5587e-05	0.00010422	1.329e-05	234.36	6.9663e-07	5.2486e-07	27.814	5.6006	5.1945e-07	9.8983e-05	9.1686	3.0221	1.6812	0.5338	6.6121e-05	1.2275	183.161	213.499	212.250	333.719	183.699	253.916	139.828	146.102	169.010	241.594	144.473	149.021	145.527	154.424	398.747	152.425	-8191	255	
2150.138	1	1	0	0	0.22401	0.46215	0.064804	0.16905	0.098492	0.14445	0.070039	0.14486	0.3376	0.12834	0.14221	0.3042	0.26523	0.089817	0.15158	0.16777	-2.6042	-2.7687	-2.9271	-2.9125	-2.7938	-3.0229	-2.8833	-2.7604	-3.0125	-2.8	-2.7625	-2.9437	-2.6896	-2.9479	-2.8812	-2.6167	431.735	185.385	351.511	320.881	387.289	328.470	313.231	302.344	433.783	391.219	389.210	354.305	216.843	227.721	285.355	440.176	1.2618e-05	0.0006905	6.1294e-06	22.587	0.00048929	6.0235e-07	21.197	4.3355	6.9202e-08	0.0004269	7.0877	2.3208	1.1283	0.39031	0.00054324	0.93286	4.607e-05	0.0001304	1.3463e-05	115.06	5.614e-05	5.2682e-07	26.774	5.7912	5.233e-07	6.675e-05	9.2005	2.8451	2.0808	0.53079	9.8727e-05	1.238	179.011	220.012	233.070	331.831	180.600	241.790	139.987	145.600	209.995	247.196	144.042	148.876	143.871	153.854	404.296	152.422	-8191	255	
2150.211	1	1	0	0	0.20691	0.30292	0.14206	0.27821	0.1171	0.11804	0.061668	0.11179	0.21729	0.15201	0.19108	0.17255	0.041124	0.17782	0.070977	0.24297	-2.7938	-2.6083	-2.7479	-3.0146	-2.6771	-2.8833	-2.8	-2.6729	-3.0292	-2.9146	-2.9354	-2.875	-2.8708	-3.0292	-2.9875	-2.6208	230.489	167.561	160.074	211.338	212.851	256.201	259.559	296.990	466.219	261.954	217.580	448.047	327.318	271.527	154.150	200.904	1.0098e-05	0.00046284	7.2901e-06	15.124	0.00033489	5.9802e-07	20.594	4.2942	2.5553e-07	0.00064481	7.0218	2.2975	1.0676	0.38426	0.00040627	1.053	4.65e-05	0.00010599	1.3575e-05	18.256	6.6627e-05	5.4319e-07	27.384	5.8534	5.3235e-07	0.00010063	9.1194	2.8011	1.9257	0.52756	5.721e-05	1.2639	166.461	226.733	152.921	139.925	149.240	271.453	139.904	145.144	433.526	252.830	144.160	148.821	145.543	154.378	401.150	159.312	-8191	255	
2150.330	1	1	0	0	0.28571	0.34189	0.37134	0.069224	0.15769	0.13209	0.067182	0.21838	0.10852	0.17754	0.27665	0.23613	0.046447	0.24218	0.18229	0.21695	-2.5875	-2.8979	-2.5687	-3.0792	-2.8479	-2.9958	-2.9375	-2.5687	-3.2	-2.8458	-2.6188	-3.0312	-2.7146	-2.9729	-3.0104	-2.5896	178.680	147.657	191.424	357.118	400.124	166.230	213.912	171.555	348.287	356.430	209.374	291.040	402.009	325.957	452.780	148.311	8.0799e-06	0.00063277	0.00012086	15.018	0.00049582	1.4246e-07	20.704	4.2634	2.0224e-07	0.00043898	7.1004	2.2797	1.0634	0.38076	0.00059497	1.5968	4.7439e-05	0.00011955	1.4832e-05	18.16	9.9584e-05	5.4328e-07	25.665	5.9592	5.4268e-07	6.7619e-05	9.5436	2.7983	2.1364	0.52604	2.3094e-05	19.307	165.636	271.783	169.475	140.086	154.731	243.361	139.955	144.300	293.824	258.518	145.700	148.834	143.299	154.327	403.222	466.302	-8191	255	
2150.426	1	1	0	0	0.098584	0.22191	0.10254	0.031305	0.1317	0.054882	0.21588	0.041896	0.098051	0.060536	0.10975	0.05751	0.22589	0.21329	0.1413	0.14993	-2.6208	-3.0292	-2.7812	-3.0667	-2.8104	-2.8125	-2.9271	-2.6208	-3.0125	-2.9813	-2.6188	-3.1167	-2.6604	-2.8479	-3.025	-2.6958	299.200	234.161	322.440	256.382	297.860	306.398	193.344	282.916	396.700	393.154	443.094	463.055	153.879	296.494	332.105	236.118	1.247e-05	0.00027968	4.9533e-05	15.061	0.00033385	3.2892e-07	21.204	4.2837	6.4614e-08	0.00064427	7.0402	2.2905	1.0749	0.38631	2.3445e-07	2.4846	4.7469e-05	9.3833e-05	1.7249e-05	18.179	6.7108e-05	5.4773e-07	24.758	6.9116	5.4162e-07	0.00010091	9.8207	2.8144	1.9375	0.52874	5.4112e-07	20.791	181.590	241.705	251.078	139.946	160.664	211.105	139.988	143.957	326.586	263.626	145.707	149.155	145.308	154.511	292.847	331.747	-8191	255	
2150.522	1	1	0	0	0.28717	0.1274	0.12204	0.22718	0.23512	0.14568	0.14056	0.14001	0.081998	0.028094	0.18607	0.22104	0.090635	0.24773	0.25008	0.062282	-2.4708	-2.6312	-2.7875	-2.9604	-3.0208	-2.8521	-3.0271	-2.7833	-3.025	-2.8438	-2.7021	-3.0062	-2.6167	-2.6375	-3.0979	-2.7	279.329	427.604	472.470	181.024	243.468	167.966	448.834	303.438	359.981	211.450	474.627	335.511	147.221	285.531	429.588	294.315	1.506e-05	0.00042026	6.0256e-05	14.998	0.00049459	6.9439e-07	21.255	4.192	1.9526e-07	0.00028633	37.54	2.3044	1.0868	0.38961	4.7134e-07	4.1307	4.8204e-05	0.0001153	1.8855e-05	18.232	9.9745e-05	5.5356e-07	24.831	6.5506	5.4321e-07	5.4632e-05	18.329	2.8316	2.0184	0.54586	5.3864e-07	30.353	184.084	232.493	269.742	139.870	166.082	193.457	139.899	144.461	237.252	319.499	148.084	149.279	147.589	151.125	279.369	338.968	-8191	255	
2150.619	1	1	0	0	0.16426	0.06094	0.063455	0.19231	0.24008	0.16535	0.23499	0.12702	0.098613	0.042688	0.027176	0.11303	0.33853	0.27109	0.057183	0.18079	-2.4771	-2.8667	-2.6667	-2.9	-2.9354	-2.9396	-3.0083	-2.5583	-2.9979	-2.9021	-2.7792	-2.8208	-2.7625	-2.8292	-3.1562	-2.7583	377.022	213.938	181.600	160.533	339.375	264.364	221.496	395.474	316.379	274.994	223.161	198.305	428.188	295.632	202.224	283.336	1.05e-05	0.0002567	8.158e-05	15.091	0.00033559	1.6752e-06	21.004	4.0842	2.209e-07	0.00043705	50.253	2.2629	1.0593	0.38618	2.5916e-07	2.5159	4.7586e-05	7.1048e-05	2.1502e-05	18.202	6.6685e-05	6.7516e-07	24.692	6.9728	5.4365e-07	1.863e-05	228.37	2.7953	1.8194	0.55064	5.3387e-07	20.645	184.139	274.177	229.116	139.801	171.848	198.883	140.013	144.587	197.100	321.929	150.248	148.510	146.906	153.174	199.121	346.807	-8191	255	
2150.739	1	1	0	0	0.10024	0.33002	0.23045	0.17985	0.31404	0.25698	0.10365	0.033198	0.11907	0.18128	0.16523	0.2475	0.18942	0.2916	0.20228	0.10305	-2.4938	-3.0583	-2.6021	-2.8625	-2.8521	-2.5229	-3.1021	-2.7292	-2.8187	-2.9188	-2.6021	-2.975	-2.8937	-2.7396	-3.0104	-2.7083	183.980	346.119	229.074	474.602	252.008	148.991	465.668	160.753	211.277	160.974	377.387	452.544	377.316	369.183	244.168	421.715	1.5419e-05	3.0225e-05	0.00011815	14.873	0.00049208	3.0085e-06	21.01	4.1442	2.6375e-07	2.0406e-07	43.973	2.2798	1.0836	0.39168	2.0485e-07	4.1243	4.7307e-05	4.8928e-05	3.6714e-05	18.053	9.8845e-05	7.4937e-07	24.606	6.4813	5.448e-07	5.3893e-07	229.81	2.7916	1.9917	0.56549	5.4037e-07	30.224	204.060	264.330	242.983	139.989	177.069	192.016	139.843	144.224	387.914	192.524	192.731	149.104	146.013	152.741	134.187	351.899	-8191	255	
2150.811	1	1	0	0	0.21726	0.11196	0.15883	0.26623	0.15777	0.066933	0.13411	0.062106	0.089369	0.2262	0.27043	0.18783	0.33386	0.050943	0.14339	0.15943	-2.2979	-3.0583	-2.6667	-2.8438	-2.9042	-2.7812	-3.0354	-2.8708	-2.5812	-2.9625	-2.8271	-2.8771	-2.9583	-2.7229	-2.8729	-2.9625	210.261	473.586	406.502	317.515	478.112	201.739	454.943	433.265	242.080	171.738	253.868	425.393	419.430	388.146	351.472	310.196	1.1223e-05	2.515e-05	0.00011754	14.816	0.00010401	0.00051402	21.103	4.1843	2.7764e-07	3.1836e-07	62.652	2.2841	1.0372	0.40214	9.2034e-08	2.5426	4.78e-05	4.8521e-05	2.9773e-05	18.11	5.0611e-05	6.3127e-06	24.625	6.6354	6.5343e-07	5.3818e-07	338.67	2.7982	1.6431	0.59299	5.4413e-07	20.6	194.104	361.516	262.475	139.942	442.821	194.327	139.947	144.506	196.088	304.547	200.058	148.728	149.904	151.725	290.574	362.135	-8191	255	
2150.931	1	1	0	0	0.070474	0.10125	0.17542	0.22368	0.15473	0.12879	0.3142	0.18652	0.11593	0.21607	0.14831	0.15581	0.073732	0.084632	0.018042	0.1087	-2.3208	-3.0875	-2.85	-2.8917	-2.875	-2.7687	-2.9271	-2.9688	-2.8604	-3.125	-2.8208	-2.8979	-2.9437	-2.7083	-2.9875	-3.0583	137.479	182.092	242.567	215.017	323.354	373.782	269.915	344.955	201.791	357.636	181.686	286.214	332.138	180.567	243.861	396.510	1.7913e-05	3.523e-05	0.00017835	15.069	0.00012582	0.00077527	21.029	4.2618	1.4098e-06	1.7078e-07	43.272	2.2939	1.0557	0.41151	3.7748e-07	4.197	5.9746e-05	4.9105e-05	3.7237e-05	18.173	1.4054e-05	7.1599e-05	24.706	6.2885	6.7834e-07	5.4329e-07	231.22	2.8059	1.4899	0.72314	5.4523e-07	30.33	423.512	167.771	270.317	140.224	442.840	196.655	139.533	144.600	466.490	148.332	202.866	149.055	150.675	150.161	147.931	365.334	-8191	255	
2151.028	1	1	0	0	0.065854	0.053048	0.16553	0.37541	0.1037	0.25455	0.11832	0.13684	0.062585	0.15941	0.26086	0.29658	0.18654	0.25569	0.25827	0.032555	-2.3271	-2.8625	-2.6083	-2.8375	-3.0896	-2.725	-2.8771	-2.9562	-2.6688	-3.1188	-2.7562	-2.75	-3.1646	-2.7229	-2.9521	-2.9896	381.791	173.874	484.301	418.712	262.392	259.237	255.170	198.682	450.535	401.107	207.303	243.679	148.978	445.895	160.592	438.463	1.9213e-05	2.2083e-05	0.00011943	15.101	5.9277e-08	0.00047307	21.142	4.1885	2.0648e-06	4.5497e-07	60.9	2.2724	1.0479	0.40128	3.5694e-07	2.5264	6.5621e-05	4.9327e-05	2.9809e-05	18.219	5.3697e-07	6.7664e-05	24.737	6.6607	7.4723e-07	5.4374e-07	340.18	2.8028	1.4855	0.65824	5.4957e-07	15.056	425.026	273.761	277.660	139.875	390.317	189.478	139.629	144.420	453.307	379.210	210.771	148.932	150.352	152.412	295.860	331.091	-8191	255	
2151.122	1	1	0	0	0.08751	0.10312	0.19263	0.13435	0.037858	0.20821	0.19562	0.1341	0.36307	0.12165	0.046633	0.045216	0.15172	0.11503	0.22848	0.078813	-2.2667	-3.2417	-2.8104	-2.8438	-3.0708	-2.7958	-2.925	-3.0625	-2.5625	-3.0125	-2.9417	-2.5958	-2.9833	-2.6833	-2.8875	-3.0354	190.322	265.612	406.155	469.703	337.707	234.483	399.803	163.172	206.170	308.990	302.494	372.856	219.917	334.014	147.565	148.579	0.0027992	5.3254e-05	0.00011572	15.325	2.1778e-07	0.00069461	20.995	4.2395	3.198e-06	2.032e-07	42.008	2.2752	1.0493	0.41693	1.4777e-07	3.9211	0.00079521	4.9887e-05	3.2241e-05	18.707	5.3728e-07	0.00010042	24.637	5.8513	8.9406e-07	5.5348e-07	229.23	2.8879	1.4856	0.72121	5.501e-07	3.859	459.024	145.192	268.558	140.245	192.996	194.520	139.334	145.688	135.890	186.076	212.959	149.214	150.643	151.036	136.892	335.076	-8191	255	
2151.220	1	1	0	0	0.070964	0.28575	0.064908	0.14882	0.14901	0.22412	0.068197	0.16416	0.19924	0.15724	0.1719	0.17082	0.045623	0.20165	0.065799	0.24493	-2.275	-2.9833	-2.8	-2.5542	-3.0583	-2.7708	-2.8729	-2.95	-2.65	-2.9917	-2.9604	-2.5833	-3.0396	-2.6542	-2.7771	-2.9854	479.346	202.036	239.997	384.211	202.891	461.683	130.419	484.915	272.917	274.063	212.318	389.623	270.530	128.234	413.036	484.356	0.0044689	3.8637e-05	7.1579e-05	14.955	5.3411e-07	0.0004705	21.007	4.3587	5.798e-06	3.5877e-07	59.704	2.2465	1.0463	0.40658	1.9175e-07	0.9196	0.0064356	5.0661e-05	2.6365e-05	18.684	5.4475e-07	6.7335e-05	24.657	5.5226	1.4694e-06	5.5357e-07	337.35	2.9269	1.4846	0.65835	5.4891e-07	1.1603	460.499	239.189	270.694	140.596	371.225	200.647	139.600	145.356	462.702	437.754	221.002	149.983	149.744	152.451	197.175	153.286	-8191	255	
2151.339	1	1	0	0	0.21893	0.26645	0.22262	0.1784	0.33741	0.24914	0.17345	0.065083	0.13324	0.016978	0.10418	0.19103	0.070912	0.10721	0.19464	0.26651	-2.2625	-2.8542	-2.7313	-2.5667	-3.1562	-2.8688	-2.6646	-2.9271	-2.6104	-2.9437	-2.7875	-2.5625	-2.7812	-2.6417	-2.7562	-2.8979	323.298	445.930	155.981	381.810	163.676	474.988	292.288	450.063	404.142	429.713	195.833	238.438	321.419	251.928	168.997	462.586	0.0048528	3.2986e-05	0.00010099	14.931	4.4189e-07	0.00069053	21.008	4.3276	3.7061e-06	1.4315e-07	34.764	5.1575	1.0423	0.40589	4.7685e-06	0.92876	0.0057006	5.0145e-05	3.1963e-05	18.983	5.4959e-07	0.00010016	24.675	5.5208	1.1781e-06	5.5709e-07	156.46	10.243	1.4987	0.68115	7.2949e-07	1.1625	396.479	301.117	303.815	141.375	172.586	205.989	139.385	145.404	469.234	300.688	247.120	162.066	150.207	152.438	214.755	153.518	-8191	255	
2151.435	1	1	0	0	0.34956	0.2379	0.099219	0.16993	0.052373	0.21636	0.19573	0.065931	0.22263	0.14145	0.11534	0.079351	0.094806	0.22493	0.076912	0.069314	-2.4333	-2.7042	-2.9646	-2.5854	-3.0521	-2.9833	-2.7625	-3.0521	-2.7729	-2.8479	-3.0875	-2.7104	-2.8917	-2.8604	-2.6583	-2.8937	232.667	448.857	454.150	197.825	127.118	439.132	177.848	307.062	248.723	253.796	350.904	176.354	271.911	337.313	142.910	157.297	0.0071811	2.4575e-05	6.2696e-05	14.986	3.0592e-07	0.00046746	21.164	4.3518	5.8266e-06	6.964e-07	51.756	6.0905	1.0547	0.3956	1.9854e-06	0.92327	0.0085147	5.0669e-05	1.8532e-05	19.649	5.5174e-07	6.7279e-05	25.227	5.5431	1.4797e-06	5.6078e-07	25.477	53.009	1.491	0.62797	6.906e-07	1.1589	402.049	235.358	295.190	140.764	271.027	211.034	139.966	145.049	470.677	258.159	252.640	164.815	149.910	153.446	255.240	152.776	-8191	255	
2151.507	1	1	0	0	0.12521	0.20466	0.22552	0.19823	0.20768	0.23808	0.15075	0.30892	0.24956	0.23623	0.069243	0.084462	0.15788	0.14498	0.048731	0.080099	-2.5104	-2.8167	-2.9708	-2.6396	-2.9875	-2.9104	-2.4979	-3.0854	-3.1	-2.7417	-2.8854	-2.6375	-2.8146	-2.8646	-2.5229	-2.775	320.841	278.820	366.190	215.950	338.249	217.254	428.151	220.145	391.072	327.123	252.693	377.015	376.115	249.149	238.594	459.365	0.0048814	2.6522e-05	6.5313e-06	14.65	3.2359e-07	0.00069272	21.003	4.3244	3.9381e-06	6.2815e-07	6.9134	7.2631	1.0386	0.3798	2.4785e-06	0.91289	0.0057237	5.071e-05	1.4014e-05	21.589	5.5737e-07	0.00010064	25.35	5.5023	1.1872e-06	5.6354e-07	9.0551	44.851	1.4906	0.66895	7.6895e-07	1.1525	407.541	165.426	143.540	142.366	142.429	216.716	139.988	145.319	483.437	398.702	144.769	233.099	149.877	154.477	279.442	153.237	-8191	255	
2151.627	1	1	0	0	0.054162	0.12232	0.087277	0.15832	0.22932	0.04498	0.2719	0.3122	0.09133	0.019331	0.20647	0.22546	0.26149	0.11405	0.15898	0.20889	-2.4833	-2.6375	-2.9646	-2.6375	-2.9083	-2.8667	-2.5458	-2.8833	-2.65	-2.8208	-2.9771	-2.7083	-2.7333	-2.9854	-2.4708	-3.0812	441.471	482.322	268.494	253.294	479.208	382.776	400.928	438.944	468.327	467.442	259.165	305.112	453.825	151.883	308.921	270.653	0.0072423	4.2208e-05	1.3791e-05	14.624	1.5828e-07	7.2007e-05	68.187	4.2351	3.5603e-06	2.985e-06	6.7541	10.69	1.0183	0.36687	4.4338e-06	0.885	0.0086116	5.2221e-05	1.4493e-05	20.457	5.7803e-07	4.2756e-05	79.766	5.4829	1.3179e-06	7.9981e-07	9.0181	67.168	1.4888	0.55052	9.9155e-07	1.1305	413.127	256.348	331.742	141.480	299.369	331.706	141.392	145.555	481.746	477.771	145.278	244.427	150.180	154.774	267.028	153.109	-8191	255	
2151.723	1	1	0	0	0.13916	0.057425	0.14789	0.066316	0.15094	0.18439	0.23217	0.06012	0.088309	0.17609	0.21802	0.37038	0.10608	0.23113	0.12575	0.056173	-2.4437	-2.6042	-3.0667	-2.6688	-2.7479	-2.9417	-2.7208	-3.0417	-2.725	-2.7438	-3.1542	-2.6312	-2.7021	-2.8688	-2.7333	-2.9417	396.383	396.158	315.338	244.785	353.611	432.043	296.626	264.810	415.946	409.381	401.911	228.825	186.370	241.184	461.245	188.950	0.0048997	0.0001815	4.1949e-06	14.237	3.1349e-07	0.00014715	89.648	4.1607	2.7946e-06	1.628e-06	6.6621	6.8104	0.99534	0.35186	6.6799e-06	0.85057	0.0057483	6.6695e-05	1.5073e-05	21.456	5.9702e-07	1.5076e-06	337.47	5.4194	1.0885e-06	7.5005e-07	8.9755	44.978	1.4751	0.50619	1.5834e-06	1.1012	419.052	444.393	453.023	142.543	247.268	308.975	143.454	145.375	480.645	132.125	145.231	244.824	149.630	154.554	266.218	153.483	-8191	255	
2151.820	1	1	0	0	0.021318	0.07678	0.09005	0.32402	0.016838	0.12353	0.12454	0.022911	0.40769	0.17984	0.22136	0.039542	0.12575	0.12465	0.1585	0.15138	-2.7333	-2.7021	-3.1188	-2.8271	-2.9167	-3.0729	-2.7021	-3.0521	-2.9354	-2.7292	-3.0021	-2.7958	-2.6958	-2.9333	-2.5354	-2.8771	144.909	155.947	315.979	461.149	423.983	169.235	429.305	205.035	137.665	284.456	341.501	482.847	395.701	223.052	254.839	420.216	0.0075677	0.00023675	1.094e-05	14.201	2.7678e-07	6.8289e-07	65.071	4.0681	3.1063e-06	2.7573e-06	6.4651	10.692	1.0046	0.33924	4.5887e-06	0.81057	0.0090019	7.9307e-05	1.644e-05	20.399	6.4485e-07	6.4882e-07	277.01	5.3763	1.3254e-06	8.6825e-07	8.9364	69.418	1.4811	0.49951	1.3008e-06	1.0686	424.364	452.761	411.894	141.585	404.159	210.264	154.292	145.094	412.033	133.743	145.125	257.394	150.389	154.861	277.469	153.418	-8191	255	
2151.916	1	1	0	0	0.21876	0.30662	0.17666	0.12679	0.23776	0.15709	0.14477	0.41967	0.3118	0.12673	0.21342	0.043739	0.13632	0.17961	0.079496	0.15675	-2.5333	-2.5333	-2.8438	-2.7583	-2.8021	-3.2	-2.7771	-2.8646	-2.8979	-2.8604	-2.9437	-2.8542	-2.6875	-3.0333	-2.8208	-2.8083	160.094	240.032	370.817	387.801	313.824	228.937	348.406	262.897	425.707	372.909	168.761	161.605	170.793	249.745	175.779	308.757	0.0039636	0.035388	5.8519e-06	14.03	2.4159e-06	2.803e-07	86.815	3.9644	2.0402e-06	5.2035e-06	6.3852	6.3123	0.9217	0.33693	6.1412e-06	0.81631	0.0034257	0.0017359	1.6389e-05	20.529	8.5168e-07	6.4464e-07	405.92	5.2608	7.6781e-07	1.0584e-06	8.8067	43.948	1.549	0.49639	1.5654e-06	1.0709	371.540	473.401	192.792	141.301	387.244	289.603	160.601	144.841	421.114	150.636	144.765	256.862	150.682	154.848	277.446	152.925	-8191	255	
2152.035	1	1	0	0	0.17638	0.13607	0.099305	0.28873	0.22402	0.072763	0.3404	0.24884	0.2141	0.066431	0.24992	0.18452	0.15789	0.14853	0.057221	0.060335	-2.6333	-2.5875	-2.9042	-2.9813	-2.7542	-3.1604	-2.7958	-2.6396	-3.1083	-2.65	-2.8708	-3.1042	-2.5104	-3.1417	-2.6917	-2.7521	356.159	355.371	377.576	486.402	158.278	198.399	313.223	422.514	442.080	203.647	305.664	370.940	264.707	411.330	127.781	195.672	1.2111e-05	0.052551	1.0852e-05	14.073	1.7097e-06	7.1618e-08	62.488	3.9969	2.7504e-07	7.4763e-06	6.4054	9.6242	0.93214	0.32556	4.7e-06	0.80227	5.4855e-05	0.0082122	1.6196e-05	19.478	7.6895e-07	6.3743e-07	268.87	5.2616	6.1899e-07	1.5464e-06	8.7287	64.841	1.5894	0.48043	1.206e-06	1.0402	190.618	474.757	255.889	140.866	388.173	479.137	162.113	145.140	421.798	130.552	144.763	268.516	151.220	154.088	285.561	153.244	-8191	255	
2152.106	1	1	0	0	0.35071	0.12091	0.17357	0.15086	0.12275	0.18687	0.54037	0.2664	0.16962	0.086469	0.2457	0.12871	0.14731	0.11754	0.14447	0.2593	-2.6562	-2.7958	-2.8292	-2.9271	-2.5667	-2.8917	-2.7729	-2.7438	-2.9854	-2.8042	-2.8417	-3.1125	-2.6896	-3.0021	-2.9396	-2.7229	397.145	153.181	248.071	333.021	177.812	401.919	289.494	295.489	404.969	128.063	196.760	477.751	252.077	134.703	418.206	149.238	1.1783e-05	0.037243	6.0344e-06	13.862	2.084e-06	4.2549e-07	82.739	4.1635	6.0874e-07	5.0899e-06	6.4084	6.6406	1.2867	0.31864	4.1364e-06	0.7986	5.1515e-05	0.005881	1.5214e-05	19.711	7.8236e-07	5.8413e-07	392.7	5.2213	5.656e-07	1.1964e-06	8.5614	25.005	16.08	0.46276	1.316e-06	1.0715	166.987	436.413	232.037	141.560	393.575	468.109	169.098	144.328	265.616	128.211	144.808	270.899	127.923	154.344	288.189	154.935	-8191	255	
2152.202	1	1	0	0	0.13075	0.15439	0.17168	0.0048324	0.1578	0.086406	0.19389	0.090222	0.10365	0.10503	0.11378	0.085461	0.1245	0.26071	0.17007	0.17017	-2.7896	-2.7479	-2.8646	-2.9083	-2.6583	-3.0792	-2.9146	-2.5479	-3.0438	-2.6729	-2.8229	-2.9771	-2.6896	-2.8896	-2.9313	-2.6771	137.974	342.161	331.562	433.649	321.361	184.651	137.893	382.371	336.265	397.274	293.329	244.436	426.628	276.845	301.318	330.813	1.2696e-05	0.061072	9.8734e-06	13.866	1.5316e-06	3.9745e-07	63.379	3.9466	5.8169e-08	7.9328e-06	6.194	2.0023	1.0917	0.30383	2.8857e-06	0.753	4.7676e-05	0.009838	1.3769e-05	17.692	1.0016e-06	5.4885e-07	285.39	5.2603	5.4992e-07	1.5697e-06	8.4038	2.5124	70.683	0.44887	1.0847e-06	1.0139	163.717	441.281	450.442	140.947	437.272	205.689	170.511	145.991	212.811	136.246	144.948	149.210	451.225	153.735	298.520	154.549	-8191	255	
2152.300	1	1	0	0	0.18532	0.1725	0.1633	0.046565	0.084297	0.0038224	0.18277	0.05353	0.25427	0.17378	0.18853	0.32769	0.18156	0.17746	0.081099	0.17845	-2.5375	-2.8458	-2.7646	-3.0292	-2.7333	-2.9146	-3.0917	-2.5812	-2.9688	-2.825	-2.9021	-2.8854	-2.8417	-2.8083	-2.9708	-2.7521	198.197	300.966	134.960	441.333	477.206	374.494	446.043	192.486	149.664	477.044	221.303	162.695	422.854	161.908	373.712	291.719	1.1008e-05	0.039002	2.1021e-06	13.884	5.6645e-06	8.8436e-07	80.111	3.8851	1.4619e-07	4.8137e-06	6.1095	1.9333	7.0664	0.29178	1.9764e-06	0.76172	5.2174e-05	0.0062064	1.5431e-05	17.326	1.5661e-06	6.453e-07	393.94	5.4843	6.8187e-07	1.3155e-06	8.7607	2.5459	46.624	0.47324	1.333e-06	1.0701	185.790	447.011	153.632	140.010	395.052	181.973	177.793	145.983	427.317	144.960	144.997	149.108	277.755	154.677	342.686	155.942	-8191	255	
2152.419	1	1	0	0	0.082046	0.075976	0.084484	0.18242	0.23919	0.098216	0.039464	0.084828	0.041557	0.069879	0.16153	0.048526	0.11021	0.21054	0.22086	0.10733	-2.7188	-2.8146	-2.7104	-2.8958	-2.6667	-2.8979	-2.8396	-2.5563	-2.8771	-3.025	-2.7188	-3.025	-2.8229	-2.5854	-2.975	-2.6396	390.470	264.293	410.343	411.270	411.206	477.104	153.043	387.047	288.628	468.185	309.055	365.209	475.224	192.708	477.524	348.129	1.1446e-05	0.056689	9.0745e-05	13.785	3.7592e-06	6.1648e-07	22.466	18.175	3.2641e-07	4.1421e-06	6.1513	1.9279	10.369	0.28949	1.6699e-06	0.72303	6.763e-05	0.00906	2.2521e-05	17.922	1.4094e-06	8.3693e-07	135.74	40.17	8.4845e-07	1.5517e-06	9.8153	2.6042	67.45	0.49298	9.5599e-07	1.1448	208.422	453.033	471.135	139.953	397.355	268.333	202.486	152.729	253.763	137.792	142.941	149.218	285.546	154.182	361.004	155.135	-8191	255	
2152.515	1	1	0	0	0.10633	0.16784	0.22117	0.081062	0.095468	0.089578	0.14504	0.16191	0.12753	0.23418	0.17034	0.040573	0.2322	0.057392	0.055711	0.097751	-2.5271	-2.9208	-2.6292	-2.9958	-2.8667	-2.8625	-3.1188	-2.7333	-2.9479	-2.8438	-2.6063	-2.8563	-2.7229	-2.6562	-3.0667	-2.6292	139.777	428.287	310.751	209.323	282.502	309.087	182.396	342.258	329.044	429.973	447.902	408.407	169.840	259.777	425.235	493.263	1.2567e-05	0.035192	4.5816e-05	13.894	4.8107e-06	1.6349e-07	19.418	23.128	2.3445e-07	2.9885e-06	6.1155	1.911	6.1506	0.28728	2.765e-07	0.72956	7.7064e-05	0.0056281	2.5888e-05	18.271	1.7586e-06	9.167e-07	24.21	143.47	9.0899e-07	1.3562e-06	9.7513	2.636	41.987	0.50431	9.1936e-07	1.2787	175.192	458.529	489.211	140.163	413.808	322.534	140.097	155.923	426.292	150.097	143.586	149.176	289.371	154.111	219.211	157.294	-8191	255	
2152.611	1	1	0	0	0.16299	0.07424	0.029656	0.1319	0.092744	0.18903	0.1246	0.10433	0.047939	0.24739	0.28926	0.22391	0.14868	0.095397	0.253	0.16718	-2.3625	-3.0021	-2.7313	-2.8854	-2.7896	-2.6667	-2.8792	-2.625	-2.8646	-2.9313	-2.7021	-3.0667	-2.9771	-2.5979	-3.1354	-2.5958	319.843	352.793	323.561	182.347	326.093	308.164	419.303	298.464	290.137	376.634	214.955	304.989	330.512	515.947	175.454	338.018	7.9548e-06	0.049476	7.2277e-05	13.686	3.7143e-06	3.6305e-07	19.357	17.18	4.2787e-07	1.8235e-06	6.4356	1.9052	8.9434	0.28307	4.245e-07	0.70147	8.0688e-05	0.0079249	2.8722e-05	18.394	1.4566e-06	9.5149e-07	24.355	90.399	9.5637e-07	1.4231e-06	10.256	2.6721	59.378	0.53203	9.7572e-07	1.1923	188.097	463.803	491.347	499.692	419.745	351.217	499.781	187.380	330.988	411.869	500.467	509.014	297.196	514.151	251.836	515.894	-8191	255	
2152.708	1	1	0	0	0.30216	0.097916	0.15636	0.10044	0.2582	0.21813	0.043325	0.092792	0.5137	0.064297	0.045669	0.084075	0.11808	0.14641	0.098248	0.13668	-2.5354	-2.9167	-2.7062	-2.7979	-2.9313	-2.6	-2.9125	-2.7062	-2.75	-3.0625	-2.7479	-3.0146	-2.9125	-2.6854	-3.2687	-2.7125	281.643	204.849	301.436	286.798	240.468	388.459	503.881	501.352	415.949	412.003	268.306	398.685	381.917	263.419	350.596	336.651	6.2727e-06	0.013402	0.0088725	13.8	2.7814e-06	2.5968e-06	19.137	22.824	2.4277e-07	1.1195e-06	6.1863	1.8761	4.8078	0.27056	8.3069e-08	0.68755	8.4892e-05	0.0022282	0.00056929	18.49	1.5515e-06	1.1499e-06	24.363	126.55	9.8525e-07	1.0343e-06	10.673	2.6385	34.5	0.5198	9.5793e-07	1.2131	517.289	383.606	499.420	500.177	414.345	414.834	500.181	195.419	291.083	396.707	502.079	509.758	301.371	514.015	360.687	517.106	-8191	255	
2152.804	1	1	0	0	0.11019	0.098522	0.11695	0.24677	0.068543	0.25446	0.12047	0.0223	0.25728	0.10952	0.19076	0.083252	0.17365	0.22325	0.23113	0.066257	-2.3354	-3.0563	-2.5396	-2.7646	-2.8896	-2.6271	-3.1063	-2.7479	-2.7979	-3.05	-2.8187	-2.8646	-2.7687	-2.5521	-3.1542	-2.8479	199.969	387.030	186.516	350.907	231.152	193.161	489.836	188.649	452.158	373.557	430.300	427.821	342.519	333.274	182.283	183.333	9.8587e-06	3.7859e-05	0.01085	13.606	1.6688e-06	1.4919e-06	19.096	14.212	8.3102e-08	8.1137e-07	6.2261	1.8508	7.4695	0.26553	5.723e-07	0.66298	8.1906e-05	8.6324e-05	0.0017791	18.192	1.2791e-06	1.0421e-06	24.046	76.257	9.4123e-07	9.5018e-07	11.545	2.6102	49.943	0.52859	9.5068e-07	1.1348	523.821	408.606	480.185	500.099	417.494	433.397	500.142	195.613	258.875	329.000	500.771	509.105	309.221	514.357	390.267	515.188	-8191	255	
2152.900	1	1	0	0	0.18997	0.23639	0.11531	0.23799	0.34295	0.26898	0.2749	0.067332	0.27258	0.092683	0.042599	0.27283	0.11991	0.22234	0.15797	0.23074	-2.3063	-2.95	-2.8125	-2.8708	-2.9146	-2.675	-2.7812	-2.8063	-2.7271	-3.0229	-2.7771	-2.7	-2.9917	-2.475	-2.9604	-2.7812	31.634	-22.226	137.018	177.220	152.765	100.494	63.070	-141.600	-169.063	-94.168	-63.312	115.806	-79.473	-132.037	17.921	80.329	2.3891e-06	1.8298e-05	0.0074184	13.481	2.6941e-06	3.7495e-06	19.038	21.252	2.8845e-06	2.5414e-07	6.1202	1.8607	5.576	0.74537	3.7853e-07	0.68626	8.1378e-05	8.6022e-05	0.0012247	18.082	1.3163e-06	1.174e-06	23.972	121.78	1.0573e-06	9.5975e-07	10.959	2.6067	15.411	5.2531	9.5041e-07	1.1725	167.411	55.258	126.462	140.208	27.258	108.275	140.052	-155.047	-121.709	158.843	142.684	148.787	-73.025	65.982	30.937	156.254	-8191	255	
2153.021	1	1	0	0	0.17232	0.086125	0.10042	0.19918	0.20326	0.16432	0.031091	0.18786	0.078014	0.24951	0.12419	0.2155	0.21204	0.20065	0.10277	0.38575	-2.3146	-2.9188	-2.9083	-2.7292	-2.9354	-2.7646	-2.9667	-2.9042	-2.7667	-3.1854	-2.7792	-2.7667	-2.9292	-2.8438	-2.9062	-2.8875	-12.744	102.570	160.836	-34.948	-95.176	-85.318	129.931	-150.416	-124.587	9.394	106.616	118.524	-98.011	112.339	-118.147	106.652	2.7039e-05	3.4916e-05	0.01113	13.512	2.0563e-06	2.5217e-06	18.929	13.279	8.3642e-07	4.9009e-07	6.2598	1.8655	0.86233	2.0584	3.0556e-07	0.66765	9.4523e-05	8.6586e-05	0.0018403	18.107	9.7226e-07	1.3067e-06	24.044	74.042	1.0421e-06	9.6491e-07	11.507	2.6292	1.5772	14.248	9.6864e-07	1.1017	-108.069	150.771	131.655	140.262	44.965	107.264	139.806	-155.346	-49.762	69.586	142.013	149.254	150.262	-33.835	93.530	154.572	-8191	255	
2153.115	1	1	0	0	0.026702	0.20877	0.17202	0.098689	0.083249	0.22617	0.24049	0.16419	0.094517	0.091667	0.06383	0.29567	0.13799	0.07749	0.10329	0.079862	-2.1583	-3.0042	-2.7875	-2.7167	-2.9375	-2.6458	-2.8625	-2.9521	-2.5479	-2.8417	-2.7021	-2.775	-3.2	-2.4771	-2.7146	-3.0354	171.966	-41.969	-31.919	118.058	-44.511	133.866	-39.300	65.159	49.109	-92.157	-60.838	-115.552	-47.959	-118.020	194.692	131.676	1.9806e-05	1.2846e-05	0.0065636	13.638	2.2642e-07	4.7097e-06	19.071	12.021	1.3773e-06	8.4027e-08	6.0979	1.8537	0.85731	1.1991	2.0057e-07	0.6442	9.0763e-05	8.8582e-05	0.001076	18.215	9.6329e-07	1.57e-06	24.139	97.806	1.1121e-06	9.7956e-07	10.591	2.6132	1.575	8.9877	9.6112e-07	1.0811	-110.813	-123.516	137.452	139.914	72.176	81.690	140.026	-113.915	-44.156	-94.845	144.864	149.520	150.248	-27.935	94.006	155.464	-8191	255	
2153.211	1	1	0	0	0.11167	0.099459	0.30838	0.171	0.1002	0.14692	0.024641	0.31665	0.30828	0.07417	0.26554	0.042997	0.052633	0.18346	0.10322	0.14617	-2.2542	-2.8396	-2.7292	-2.4313	-3.0083	-2.8167	-2.8146	-2.9292	-2.7271	-2.85	-2.95	-2.6583	-3.1083	-2.8312	-2.8458	-3.0104	-34.848	-32.713	67.811	92.508	32.745	163.258	113.340	4.204	85.943	-120.993	-2.238	21.069	104.621	218.250	-12.034	-102.239	2.4863e-05	5.6627e-05	0.009444	13.584	4.4092e-07	3.8835e-06	18.998	7.6538	0.00011083	6.9804e-07	6.1166	1.8997	0.85595	1.842	4.0302e-07	0.65957	0.00010038	8.788e-05	0.0015483	18.439	9.52e-07	1.3354e-06	23.927	26.223	1.9715e-05	9.5027e-07	10.791	2.6889	1.5654	12.844	9.3789e-07	0.99956	-118.168	-82.302	143.084	138.904	182.005	90.104	140.030	-120.632	-99.497	-137.574	143.934	148.994	150.194	-21.201	-103.489	154.693	-8191	255	
2153.332	1	1	0	0	0.32351	0.23036	0.19446	0.038332	0.10918	0.13504	0.14127	0.085889	0.13996	0.096959	0.13535	0.084657	0.05811	0.13542	0.080563	0.14174	-2.375	-2.925	-2.9562	-2.5979	-3.1021	-2.775	-2.7562	-3.0354	-2.8375	-2.9104	-2.775	-2.7646	-3.0729	-2.7708	-2.6562	-3.1542	174.101	217.759	353.281	221.892	161.040	452.746	475.877	240.989	450.061	215.868	360.499	368.920	379.788	169.547	243.307	307.989	1.9714e-05	2.4137e-05	0.0059797	13.514	2.3618e-07	4.8876e-06	18.983	3.6379	0.00031081	3.3874e-07	6.0437	1.8929	0.86317	1.1549	3.626e-07	0.67245	0.00010829	8.6276e-05	0.00098541	18.207	9.4088e-07	1.508e-06	23.883	5.3724	5.8951e-05	9.6465e-07	10.329	2.6896	1.5911	8.6776	9.5298e-07	1.0041	234.163	181.029	148.304	139.553	268.524	451.973	139.999	145.696	323.198	286.429	143.473	149.081	150.329	346.135	269.807	153.582	-8191	255	
2153.403	1	1	0	0	0.033619	0.36459	0.15443	0.079701	0.12567	0.17208	0.22902	0.1374	0.26084	0.22247	0.20723	0.30269	0.10702	0.053499	0.11292	0.26221	-2.4271	-3.025	-2.8583	-2.7438	-2.9354	-2.8521	-2.7	-3.2208	-2.65	-2.9583	-2.9042	-2.6896	-2.9167	-2.7708	-2.6396	-3.1521	302.901	297.285	154.473	435.547	180.139	388.723	190.491	348.565	237.981	384.564	162.245	238.286	154.380	260.335	188.421	195.664	4.5762e-05	4.581e-05	0.00096313	13.615	1.4447e-07	3.3197e-06	19.037	3.6964	0.00020614	5.8907e-07	6.0996	2.0705	0.91405	1.9047	1.4105e-06	0.68129	0.00013215	8.7667e-05	0.0014201	18.613	9.6325e-07	1.2912e-06	24.003	5.4764	3.9259e-05	9.7448e-07	10.506	2.8914	1.6539	13.222	1.1065e-06	1.0133	271.798	400.598	369.917	139.408	445.130	457.348	139.982	145.611	328.588	154.191	144.435	148.216	150.687	351.396	144.878	153.337	-8191	255	
2153.500	1	1	0	0	0.18711	0.12763	0.14992	0.14036	0.17568	0.049419	0.22857	0.13161	0.057787	0.10671	0.0092921	0.19486	0.02333	0.12605	0.23098	0.1793	-2.2771	-2.5583	-2.7771	-2.4854	-2.7833	-2.8625	-2.45	-2.9354	-2.6562	-2.6792	-2.9479	-2.6292	-2.6208	-2.9333	-2.5667	-2.7938	435.152	359.818	207.293	166.010	205.837	397.718	421.819	421.098	191.792	212.101	456.339	486.753	458.883	405.966	432.243	350.056	1.3115e-05	5.3329e-05	6.738e-06	0.033773	2.1103e-07	3.7722e-07	0.014269	0.012218	3.8368e-07	4.3811e-07	0.013221	0.0015407	0.0036013	0.00043167	1.0491e-07	0.00061933	-5.8916e-05	-7.1185e-05	-1.5787e-05	-1.7111	-4.2144e-07	-3.7253e-07	-1.1572	-0.44561	-2.5454e-07	-2.3702e-07	-0.73791	-0.12406	-0.13199	-0.037274	-1.6253e-07	-0.047238	180.289	220.922	187.080	492.591	415.162	375.196	211.605	171.316	437.938	468.821	209.398	327.527	183.514	319.158	465.823	490.637	-8191	255	
2153.596	1	1	0	0	0.16471	0.16464	0.11769	0.13811	0.22409	0.090462	0.042571	0.29029	0.2769	0.17443	0.079246	0.070851	0.2732	0.13049	0.20875	0.065334	-2.1917	-2.4729	-2.7021	-2.4708	-2.8042	-2.7146	-2.6688	-2.8667	-2.6792	-2.6917	-2.9271	-2.6562	-2.6688	-2.8312	-2.575	-2.8375	-77.574	-126.272	117.601	155.595	-114.770	-80.542	-47.665	39.932	73.351	200.043	94.388	-123.364	97.259	152.934	219.801	88.054	1.8619e-06	3.2991e-05	7.8005e-06	0.0099834	2.2536e-07	1.6478e-07	0.017844	0.011929	3.8118e-08	1.5859e-07	0.0084719	0.0083432	0.006865	0.002079	2.4781e-07	0.0026362	-1.2213e-05	-1.287e-05	-3.5537e-06	-0.466	-1.3012e-07	-1.3085e-07	-0.42825	-0.18862	-1.1058e-07	-1.0788e-07	-0.3666	-0.064328	-0.070527	-0.022044	-9.6351e-08	-0.028653	-128.982	145.139	226.107	207.712	51.578	-6.933	135.138	-111.402	226.972	30.789	106.046	211.636	-26.903	102.773	-62.159	58.748	-8191	255	
2153.716	1	1	0	0	0.178	0.038117	0.066169	0.35718	0.1182	0.13569	0.23115	0.18839	0.18133	0.21906	0.13106	0.17984	0.12114	0.38006	0.25087	0.21766	-2.3729	-2.5917	-2.8937	-2.5875	-2.9646	-2.9375	-2.6813	-2.6146	-2.9208	-2.4792	-2.7854	-2.5187	-2.7958	-2.8875	-2.5062	-2.7833	73.419	162.149	409.690	150.026	103.846	106.806	274.260	256.186	169.684	214.368	373.085	378.325	314.106	395.468	326.421	405.958	1.2311e-06	1.4176e-05	4.8425e-06	0.010874	3.1084e-07	2.0961e-07	0.018892	0.01135	4.0107e-07	3.4528e-07	0.016108	0.0016637	0.0030582	0.0020339	1.3657e-07	0.0039501	-7.6808e-06	-7.8436e-06	-2.443e-06	-0.3146	-8.603e-08	-8.8004e-08	-0.29291	-0.13086	-8.3595e-08	-7.9215e-08	-0.28318	-0.049312	-0.053721	-0.016636	-7.547e-08	-0.023023	184.448	192.551	116.821	193.893	68.295	392.306	329.535	81.134	205.471	176.921	108.663	360.349	247.219	65.863	104.769	351.834	-8191	255	
2153.812	1	1	0	0	0.20517	0.11618	0.19052	0.23296	0.1713	0.13859	0.13082	0.45473	0.065438	0.33721	0.15171	0.091959	0.048658	0.064183	0.18797	0.082917	-2.2875	-2.5292	-2.8042	-2.5958	-2.6667	-2.9625	-2.6271	-2.8292	-2.7375	-2.4813	-2.7854	-2.5708	-2.475	-2.9271	-2.7062	-2.7354	28.706	-7.438	102.346	14.590	160.647	202.332	118.668	19.142	221.794	149.848	216.695	-59.155	27.112	-16.524	146.689	223.240	1.9663e-06	8.2516e-06	6.9027e-06	0.012325	1.3387e-07	1.1572e-07	0.030861	0.011469	3.039e-07	1.4755e-07	0.010115	0.0048217	0.0032878	0.0015316	2.499e-07	0.0010564	-6.0783e-06	-6.2515e-06	-2.0135e-06	-0.2742	-7.3457e-08	-7.8572e-08	-0.25981	-0.10868	-7.7633e-08	-6.8357e-08	-0.25189	-0.043684	-0.046967	-0.015886	-6.4897e-08	-0.020461	-15.011	-84.518	-2.658	-41.164	-120.606	-34.416	-89.489	-109.843	-48.519	213.730	-20.160	3.706	141.539	34.585	-50.376	-4.066	-8191	255	
2153.909	1	1	0	0	0.20072	0.065715	0.17038	0.21402	0.027089	0.16617	0.055134	0.27022	0.16332	0.19242	0.16263	0.18598	0.038085	0.060308	0.17947	0.10751	-2.1917	-2.4104	-2.6896	-2.7083	-2.4833	-2.9667	-2.6771	-2.7708	-2.8333	-2.4375	-2.8979	-2.7542	-2.7062	-2.9813	-2.7333	-2.6229	219.357	213.192	-26.973	39.163	204.700	201.155	-55.527	-28.903	164.879	41.060	219.821	97.804	-38.527	63.223	-120.209	102.646	5.5779e-06	2.1643e-05	1.0753e-05	0.038246	2.3169e-07	3.7696e-08	0.033904	0.0045802	5.3204e-07	4.3878e-07	0.0085196	0.0040923	0.0026097	0.00053474	2.4436e-07	0.0023707	-5.5051e-06	-6.0903e-06	-1.81e-06	-0.25804	-6.128e-08	-7.5769e-08	-0.2551	-0.10382	-7.0435e-08	-6.5775e-08	-0.23339	-0.044213	-0.043606	-0.014902	-6.5428e-08	-0.019244	11.144	106.020	7.704	-105.280	-72.210	-10.143	-80.015	-106.023	-4.591	69.752	-109.149	149.507	29.761	23.716	115.637	105.354	-8191	255	
2153.980	1	1	0	0	0.098159	0.077257	0.15975	0.34556	0.094167	0.16188	0.16696	0.15136	0.23481	0.16454	0.02546	0.18376	0.098747	0.38349	0.1366	0.0038394	-2.4479	-2.4771	-2.7687	-2.7417	-2.5271	-2.7812	-2.6896	-2.6729	-3.0667	-2.7083	-2.8146	-2.7333	-2.6521	-2.9437	-2.5979	-2.7833	184.454	220.355	312.289	205.803	294.326	281.073	186.781	320.646	154.366	152.014	-17.233	172.758	69.549	324.248	254.928	267.750	1.2385e-06	9.571e-06	4.9501e-06	0.012448	1.2416e-07	1.2973e-07	0.01344	0.0081622	9.5142e-08	1.8285e-07	0.024492	0.0048093	0.0023919	0.001147	5.3168e-08	0.0018907	-5.5014e-06	-5.5945e-06	-1.7538e-06	-0.24625	-6.172e-08	-7.0652e-08	-0.22751	-0.094926	-7.1053e-08	-5.9056e-08	-0.21826	-0.044186	-0.040275	-0.014546	-6.4676e-08	-0.018584	41.015	201.185	287.499	269.539	255.436	278.942	257.167	-1.273	111.169	125.039	189.182	162.561	154.156	102.481	330.766	235.868	-8191	255	
2154.101	1	1	0	0	0.12929	0.15032	0.13114	0.26036	0.065562	0.069701	0.10467	0.12242	0.19777	0.2438	0.15147	0.29673	0.048273	0.30018	0.058493	0.37674	-2.5312	-2.5583	-2.8979	-2.8	-2.5625	-2.9542	-2.7833	-2.5062	-2.9792	-2.5812	-2.6958	-2.875	-2.5	-2.8167	-2.7958	-2.6958	232.653	495.057	247.029	215.450	433.227	281.434	314.440	261.917	234.478	371.522	320.776	205.563	416.677	361.260	228.121	365.147	3.9961e-06	3.1256e-05	6.3717e-06	0.015048	9.8604e-08	1.8883e-07	0.012137	0.0031157	2.0258e-07	2.8119e-07	0.010103	0.0034121	0.0051725	0.0015253	1.134e-07	0.0041479	-5.0527e-06	-5.5945e-06	-1.6234e-06	-0.25223	-5.961e-08	-6.6604e-08	-0.23758	-0.094652	-7.4012e-08	-5.9501e-08	-0.20621	-0.042598	-0.042896	-0.014162	-6.6313e-08	-0.01839	261.022	347.664	181.173	350.787	230.965	464.240	407.552	156.004	362.008	399.471	273.717	273.491	144.001	327.134	234.416	443.416	-8191	255	
2154.195	1	1	0	0	0.28894	0.24389	0.12138	0.21135	0.12963	0.18591	0.17976	0.035801	0.086102	0.036204	0.2655	0.034149	0.25916	0.18835	0.21349	0.18267	-2.4229	-2.5875	-2.7604	-2.8812	-2.6667	-2.9604	-2.825	-2.3896	-2.8688	-2.7438	-2.8187	-2.9042	-2.5417	-2.8792	-2.8042	-2.5417	435.678	117.439	174.702	294.012	363.669	131.934	304.421	318.468	285.352	102.099	113.120	322.950	431.388	206.112	255.401	432.102	3.5694e-06	4.6809e-05	8.325e-06	0.020298	1.5731e-07	4.7316e-07	0.052701	0.0028342	3.0447e-07	1.6711e-07	0.019599	0.00072969	0.0049714	0.0019259	2.9338e-07	0.00082175	-5.1658e-06	-5.6026e-06	-1.5301e-06	-0.24366	-5.8774e-08	-6.6025e-08	-0.24569	-0.094447	-7.0921e-08	-6.2749e-08	-0.20225	-0.040787	-0.041539	-0.013552	-6.6888e-08	-0.017911	416.259	177.803	413.265	437.019	273.603	408.675	264.392	106.364	345.018	285.590	187.192	357.216	190.660	430.709	193.652	371.850	-8191	255	
2154.293	1	1	0	0	0.084029	0.27117	0.15095	0.09035	0.14657	0.18599	0.26027	0.12473	0.1414	0.046816	0.13067	0.12551	0.16107	0.23696	0.039413	0.028472	-2.4375	-2.6458	-2.6958	-2.9938	-2.6083	-2.9917	-2.8812	-2.4292	-2.9042	-2.6958	-2.5917	-2.8396	-2.5208	-2.725	-2.8333	-2.525	240.977	169.978	249.546	86.075	113.332	100.689	418.505	123.205	308.487	89.359	360.846	261.033	397.504	112.689	222.145	122.332	2.7099e-06	1.1635e-05	4.6059e-07	0.025142	1.2328e-07	2.0019e-07	0.045394	0.0077995	1.5366e-07	2.3463e-07	0.031169	0.0016953	0.0060805	0.0016303	1.0885e-07	0.0012103	-5.03e-06	-5.6913e-06	-1.547e-06	-0.25627	-5.8335e-08	-6.776e-08	-0.2439	-0.088698	-6.8095e-08	-6.177e-08	-0.19858	-0.04218	-0.042619	-0.012962	-6.4942e-08	-0.015724	281.490	342.415	287.239	362.806	352.652	358.537	277.234	94.002	109.979	82.691	375.725	276.189	167.996	180.068	172.995	165.034	-8191	255	
2154.412	1	1	0	0	0.059906	0.15062	0.14921	0.23543	0.1523	0.090641	0.18147	0.093265	0.1469	0.064861	0.045426	0.30701	0.10329	0.18915	0.060419	0.24632	-2.3292	-2.7188	-2.5917	-2.8458	-2.5896	-2.85	-2.8021	-2.7625	-3.0187	-2.8667	-2.4375	-2.8625	-2.4938	-2.8	-2.9583	-2.4	-95.659	-60.739	62.662	183.292	-136.776	172.791	70.024	-46.108	34.641	127.436	-69.148	170.387	55.191	-55.963	50.022	31.216	3.5833e-06	1.1825e-05	4.6279e-06	0.044733	1.7979e-07	5.1869e-07	0.018111	0.027229	1.4831e-07	1.0394e-07	0.011085	0.0036128	0.008982	0.0013668	3.724e-07	0.0032834	-5.211e-06	-6.0218e-06	-1.3851e-06	-0.23752	-6.0709e-08	-6.558e-08	-0.24601	-0.089108	-6.7035e-08	-6.8312e-08	-0.1974	-0.043266	-0.041632	-0.012746	-6.8304e-08	-0.016824	-109.450	16.249	61.110	31.895	1.285	48.402	135.052	-137.773	0.944	66.547	42.685	38.077	145.656	159.922	196.463	32.044	-8191	255	
2154.508	1	1	0	0	0.15023	0.18344	0.29238	0.11266	0.049935	0.12612	0.29231	0.15101	0.10998	0.24011	0.093413	0.17653	0.35464	0.18268	0.081361	0.11141	-2.1958	-2.8854	-2.5458	-2.6937	-2.6542	-2.7396	-2.9771	-2.4938	-2.8292	-2.9313	-2.6063	-2.8521	-2.6125	-2.525	-2.8458	-2.7958	88.929	12.062	256.588	229.036	226.424	139.197	98.220	-18.297	159.389	73.357	270.143	166.702	199.066	218.598	-41.940	40.888	1.452e-06	1.0506e-05	8.9677e-06	0.013775	1.5003e-07	2.5964e-07	0.0072849	0.0037193	5.2552e-08	1.5462e-07	0.021927	0.0021545	0.0034436	0.0016831	1.7868e-07	0.0014789	-4.5323e-06	-5.913e-06	-1.3401e-06	-0.24415	-6.0225e-08	-5.9307e-08	-0.24634	-0.09253	-6.2398e-08	-6.5152e-08	-0.20122	-0.039756	-0.043544	-0.012503	-6.649e-08	-0.016566	-68.949	-50.770	105.558	40.974	214.570	-34.975	173.020	-52.058	263.735	192.739	103.828	107.367	284.990	82.134	6.207	247.871	-8191	255	
2154.604	1	1	0	0	0.091104	0.067803	0.16483	0.13993	0.12123	0.10498	0.14433	0.17584	0.27208	0.089371	0.2625	0.1381	0.18291	0.14462	0.12688	0.27311	-2.375	-3.0021	-2.6521	-2.8208	-2.7104	-2.4125	-2.9896	-2.4833	-2.8438	-2.8625	-2.4604	-2.8375	-2.7167	-2.625	-2.8604	-2.6375	125.704	311.565	205.048	167.791	178.805	178.225	407.618	218.097	428.399	346.659	357.921	348.370	467.190	219.418	412.381	332.923	1.5854e-06	5.2265e-05	1.1688e-05	0.017027	1.7952e-07	3.431e-07	0.031684	0.0041929	4.1738e-07	5.8412e-07	0.037736	0.0034158	0.0037114	0.0012609	4.1028e-07	0.0044414	-4.2344e-06	-6.1185e-06	-1.4177e-06	-0.23365	-6.0313e-08	-5.9307e-08	-0.23547	-0.092599	-5.732e-08	-6.9202e-08	-0.18683	-0.04062	-0.043667	-0.012353	-6.5428e-08	-0.017446	204.536	137.313	415.244	239.573	453.223	147.994	153.989	135.723	317.927	206.841	338.552	351.276	463.899	371.807	455.928	224.730	-8191	255	
2154.701	1	1	0	0	0.10009	0.14923	0.005177	0.13062	0.1629	0.070853	0.03308	0.15195	0.056364	0.21134	0.13108	0.13712	0.072619	0.25478	0.12227	0.17132	-2.1604	-2.8812	-2.3521	-2.8708	-2.7313	-2.7208	-2.9208	-2.7938	-2.7167	-2.9729	-2.6604	-2.8937	-2.6833	-2.4167	-2.9	-2.6312	-54.766	157.686	34.393	-84.597	-51.671	-56.947	73.470	84.183	0.679	108.393	143.755	48.450	-49.578	19.180	28.567	56.587	2.4423e-06	1.5452e-05	7.0296e-06	0.028519	1.2798e-07	2.9935e-07	0.01984	0.012524	5.914e-08	3.0669e-07	0.01085	0.0014482	0.0080029	0.0015377	2.4089e-07	0.0012106	-4.1138e-06	-5.8444e-06	-1.4626e-06	-0.23494	-6.4182e-08	-5.7794e-08	-0.24536	-0.10006	-6.0941e-08	-6.8446e-08	-0.19417	-0.03853	-0.042896	-0.011472	-6.3349e-08	-0.016889	104.196	204.756	185.873	117.093	156.290	3.582	-63.437	-120.762	9.888	-91.074	-135.553	108.728	-47.588	-102.134	38.578	82.767	-8191	255	
2154.797	1	1	0	0	0.038496	0.11859	0.14208	0.095618	0.2289	0.21484	0.35174	0.14169	0.1555	0.044638	0.21473	0.24263	0.2916	0.098185	0.11947	0.19266	-2.1146	-3.0354	-2.6771	-2.8312	-2.9229	-2.5958	-2.8187	-2.6208	-2.6229	-2.9021	-2.5812	-2.6583	-2.8167	-2.4813	-2.7896	-2.8792	-85.573	185.996	197.505	-96.692	-14.112	116.743	12.339	127.307	197.051	-133.222	-128.127	96.970	-33.130	-38.230	-27.456	-100.253	3.055e-06	1.8566e-05	3.3396e-06	0.020418	1.4059e-07	3.326e-07	0.032598	0.0048983	2.8951e-07	4.0917e-07	0.01222	0.0024426	0.0025982	0.00084333	3.3534e-07	0.0014662	-4.3815e-06	-5.8203e-06	-1.5031e-06	-0.23171	-6.2863e-08	-5.7216e-08	-0.23595	-0.10081	-5.4891e-08	-6.7956e-08	-0.20181	-0.036218	-0.04376	-0.01134	-6.4278e-08	-0.01654	-36.352	202.720	196.020	-112.277	-53.207	-155.677	62.182	-138.276	200.360	-68.922	18.405	81.756	22.923	1.300	129.360	-17.615	-8191	255	
2154.893	1	1	0	0	0.19197	0.26377	0.17078	0.080355	0.083619	0.1029	0.19969	0.20406	0.10562	0.3939	0.063104	0.25934	0.24968	0.15846	0.11814	0.11132	-2.0563	-2.8688	-2.5646	-2.6896	-2.9521	-2.5979	-2.8	-2.7896	-2.6042	-3.1	-2.7458	-2.6771	-2.9333	-2.6167	-2.8104	-2.7458	106.835	188.851	62.206	181.600	79.574	349.209	176.260	86.714	359.469	343.325	128.858	128.912	106.602	278.284	302.667	318.497	3.4461e-06	1.9901e-05	1.055e-05	0.052833	4.0345e-07	6.6372e-07	0.019538	0.0061369	1.5142e-07	2.6796e-07	0.02977	0.0025072	0.0094549	0.0018639	7.7525e-08	0.0027049	-4.2043e-06	-5.8888e-06	-1.4458e-06	-0.21959	-6.594e-08	-5.6548e-08	-0.23336	-0.094721	-5.4803e-08	-6.5241e-08	-0.1977	-0.037666	-0.043328	-0.011547	-6.0473e-08	-0.018119	85.601	329.028	395.166	323.500	86.264	387.839	209.649	54.376	343.560	81.636	48.064	167.023	75.918	39.171	177.710	234.813	-8191	255	
2155.013	1	1	0	0	0.15209	0.30697	0.31585	0.21683	0.07265	0.12112	0.18903	0.026585	0.26997	0.31731	0.072355	0.02666	0.11869	0.078047	0.068188	0.091203	-1.9958	-2.875	-2.5667	-2.7542	-2.9417	-2.5438	-2.7667	-2.8937	-2.4021	-2.9104	-2.8167	-2.5771	-2.9979	-2.4354	-2.8833	-2.7188	248.162	86.584	151.181	138.954	-3.821	177.410	11.292	169.423	63.549	-8.320	185.088	19.889	159.623	2.116	83.115	247.790	4.3466e-06	4.6704e-05	6.4227e-06	0.0070216	3.2945e-07	2.9902e-07	0.016098	0.010904	3.9149e-08	5.9787e-08	0.023131	0.0035002	0.0063448	0.0011827	1.614e-07	0.0021372	-3.9629e-06	-5.4615e-06	-1.4514e-06	-0.21248	-6.6643e-08	-6.3222e-08	-0.21518	-0.09561	-5.6834e-08	-6.4218e-08	-0.20475	-0.034713	-0.046504	-0.012184	-6.096e-08	-0.018209	73.906	229.345	175.339	242.885	49.944	-24.497	-62.697	-65.449	174.582	14.686	-38.765	16.015	230.936	240.640	9.779	5.859	-8191	255	
2155.108	1	1	0	0	0.33541	0.10296	0.19259	0.076393	0.11321	0.072068	0.27259	0.086312	0.21484	0.18897	0.17668	0.048472	0.21735	0.1974	0.069113	0.10112	-2.2083	-2.7062	-2.7042	-2.4813	-2.8042	-2.7521	-2.9792	-2.8312	-2.675	-2.8583	-2.8167	-2.6667	-2.9062	-2.7771	-2.9208	-2.8542	221.078	250.910	270.031	226.994	187.641	85.978	1.598	249.231	212.063	124.212	231.371	-21.519	227.505	292.548	286.470	197.707	7.4443e-06	3.4065e-05	9.4659e-06	0.017627	3.7094e-07	2.6674e-07	0.0080468	0.008091	1.3416e-07	4.2133e-07	0.035539	0.0019789	0.0019316	0.0010656	4.0463e-07	0.0015048	-3.9026e-06	-5.9049e-06	-1.5649e-06	-0.19907	-6.3786e-08	-5.8862e-08	-0.22784	-0.10074	-5.5951e-08	-6.3506e-08	-0.19035	-0.035187	-0.043575	-0.011978	-5.751e-08	-0.018235	201.890	113.101	174.494	159.887	171.477	-16.257	203.641	-5.206	300.953	160.079	-13.268	131.718	248.309	228.259	135.817	161.175	-8191	255	
2155.204	1	1	0	0	0.10514	0.18581	0.14784	0.1473	0.19051	0.047605	0.19821	0.24501	0.22653	0.12172	0.045248	0.16065	0.14999	0.094016	0.13979	0.27109	-2.1188	-2.6208	-2.7438	-2.6	-2.6833	-2.5208	-2.6458	-2.8021	-2.6271	-2.8083	-2.5771	-2.5292	-2.8021	-2.6792	-2.8542	-2.7021	158.447	281.948	256.747	126.759	212.136	395.794	141.297	317.697	289.563	205.680	308.116	216.516	250.467	411.075	250.292	393.615	8.2289e-07	7.3372e-06	5.575e-06	0.047912	8.5646e-08	5.6437e-07	0.01204	0.022466	2.0933e-07	2.6821e-07	0.012874	0.0024391	0.007082	0.0022851	9.7862e-08	0.0050322	-4.1703e-06	-5.6993e-06	-1.5885e-06	-0.196	-6.4138e-08	-5.2678e-08	-0.2194	-0.097321	-5.732e-08	-6.0213e-08	-0.20519	-0.03254	-0.04342	-0.013243	-5.7421e-08	-0.018131	388.010	392.052	255.578	127.766	477.985	347.706	378.620	139.626	253.044	255.713	394.258	169.681	171.377	233.080	391.105	445.576	-8191	255	
2155.276	1	1	0	0	0.29827	0.029008	0.13981	0.25528	0.26481	0.098626	0.21402	0.1936	0.30357	0.24557	0.23039	0.49144	0.10473	0.18856	0.07788	0.12937	-2.1792	-2.6188	-2.6458	-2.4396	-2.7958	-2.5896	-2.6146	-2.8312	-2.45	-2.6854	-2.5833	-2.45	-2.9375	-2.7125	-2.4979	-2.8021	92.508	202.939	270.803	58.693	276.958	31.222	106.587	368.370	286.730	88.248	220.073	309.381	383.324	281.699	153.468	131.173	2.528e-06	1.537e-05	5.9144e-06	0.012096	1.5856e-07	1.8064e-07	0.035053	0.0052041	2.6995e-07	2.8432e-07	0.024106	0.0054762	0.0011731	0.0018699	3.5679e-07	0.0015747	-3.8423e-06	-5.3809e-06	-1.5425e-06	-0.19406	-5.7412e-08	-5.9707e-08	-0.20009	-0.10033	-5.9395e-08	-6.0791e-08	-0.21194	-0.034156	-0.044315	-0.011678	-5.6448e-08	-0.018533	273.427	274.073	367.973	296.289	112.144	336.481	202.084	43.002	360.884	92.125	356.254	212.280	129.540	355.804	75.112	201.559	-8191	255	
2155.396	1	1	0	0	0.14741	0.080487	0.076143	0.065225	0.16565	0.14953	0.1242	0.12321	0.26637	0.18936	0.13835	0.18136	0.27024	0.05888	0.038255	0.13795	-2.1354	-2.6167	-2.6063	-2.3854	-2.9458	-2.7667	-2.3646	-2.7812	-2.5458	-2.6104	-2.8812	-2.4479	-2.8792	-2.5604	-2.4542	-2.8458	196.895	267.615	449.665	465.630	324.526	238.212	374.376	282.378	156.680	466.119	395.974	216.609	268.921	324.517	201.440	343.528	5.4733e-06	3.8478e-05	5.0369e-06	0.022957	3.0666e-07	3.8169e-07	0.016413	0.0052829	2.8248e-07	9.2772e-08	0.024808	0.00722	0.0048936	0.0014893	1.8025e-07	0.0011403	-4.2797e-06	-5.5744e-06	-1.6178e-06	-0.19471	-5.8423e-08	-6.0775e-08	-0.20204	-0.10204	-5.8026e-08	-5.8566e-08	-0.2187	-0.034853	-0.041046	-0.011922	-5.2511e-08	-0.017096	188.665	275.841	413.825	125.135	457.120	480.431	386.892	139.820	454.181	132.883	384.419	336.984	480.486	283.178	202.247	357.026	-8191	255	
2155.492	1	1	0	0	0.25135	0.16092	0.20681	0.034436	0.17086	0.1516	0.20238	0.26872	0.072895	0.29868	0.0949	0.2788	0.089532	0.11153	0.031313	0.23116	-1.9521	-2.5396	-2.7708	-2.4667	-2.7979	-2.6208	-2.3792	-2.7292	-2.575	-2.6583	-2.8312	-2.5	-2.6625	-2.6896	-2.45	-2.7729	218.142	173.358	433.583	177.342	203.308	414.472	110.034	427.323	450.944	426.881	332.133	341.357	460.298	396.944	275.119	159.432	5.7727e-06	2.396e-05	7.4719e-06	0.03715	7.5715e-08	3.2168e-07	0.011457	0.0082506	1.187e-07	3.3575e-07	0.0097445	0.00079747	0.0009195	0.0014967	3.1522e-07	0.0037083	-3.8008e-06	-4.9698e-06	-1.683e-06	-0.19309	-6.1808e-08	-6.1487e-08	-0.1863	-0.092873	-5.6525e-08	-5.6029e-08	-0.21532	-0.033682	-0.044099	-0.013131	-5.3528e-08	-0.01839	338.009	415.827	398.748	136.720	186.109	203.765	285.280	121.629	189.256	343.276	333.907	361.587	286.243	194.937	202.823	438.647	-8191	255	
2155.589	1	1	0	0	0.18397	0.27854	0.18876	0.047757	0.41704	0.31629	0.057588	0.12651	0.13912	0.063263	0.087251	0.1928	0.062106	0.18284	0.15891	0.31579	-2.4021	-2.5354	-2.9146	-2.375	-2.7438	-2.8083	-2.3812	-3.0604	-2.8646	-2.7458	-2.7479	-2.6458	-2.7021	-2.6771	-2.4771	-2.9062	214.639	157.623	65.385	46.847	24.978	145.285	6.373	-6.080	61.074	328.522	250.523	228.831	26.368	265.489	292.633	310.868	1.8972e-06	2.2299e-05	2.8671e-06	0.023305	1.2219e-07	4.209e-07	0.024049	0.0095848	2.1392e-07	3.5189e-07	0.0065501	0.0043244	0.0039927	0.00070646	3.5112e-07	0.00049985	-4.3476e-06	-4.6151e-06	-1.5953e-06	-0.20214	-5.6445e-08	-6.2421e-08	-0.18711	-0.096363	-5.7938e-08	-5.198e-08	-0.21165	-0.035493	-0.041323	-0.012953	-5.3351e-08	-0.016915	34.365	282.123	303.341	59.735	135.377	140.566	146.648	-4.858	155.811	134.035	-21.858	320.090	8.716	-16.703	179.085	303.319	-8191	255	
2155.685	1	1	0	0	0.22216	0.2009	0.22548	0.14492	0.089062	0.17211	0.10885	0.085866	0.26322	0.088878	0.2358	0.21292	0.12405	0.13186	0.22356	0.075004	-2.4292	-2.5312	-2.8396	-2.7167	-2.6604	-2.8083	-2.3104	-2.9167	-2.6354	-2.5333	-2.7854	-2.6063	-2.7042	-2.7167	-2.7646	-2.65	242.283	354.242	195.492	453.067	400.056	302.220	497.245	431.147	480.027	293.975	279.130	405.346	271.356	342.695	253.290	361.027	1.8584e-06	3.2168e-05	3.2282e-06	0.0089866	2.0932e-07	4.2197e-07	0.046868	0.01206	1.268e-07	1.7185e-07	0.0023375	0.0014258	0.0057588	0.0021472	8.4486e-08	0.0034069	-4.3513e-06	-4.5627e-06	-1.6436e-06	-0.20052	-5.6664e-08	-5.9618e-08	-0.18532	-0.093283	-5.8424e-08	-5.376e-08	-0.2118	-0.035243	-0.040182	-0.013365	-5.6094e-08	-0.01764	488.510	459.276	376.405	409.518	247.436	484.687	334.921	156.186	464.991	153.214	343.582	187.602	218.560	149.561	449.998	441.152	-8191	255	
2155.781	1	1	0	0	0.028079	0.12255	0.3085	0.21087	0.16314	0.018957	0.15993	0.15516	0.12987	0.10586	0.20447	0.10382	0.12322	0.14872	0.073722	0.11079	-2.3729	-2.2354	-2.8312	-2.5521	-2.7875	-2.8063	-2.6208	-2.5854	-2.7313	-2.6792	-2.7396	-2.5125	-2.6	-2.7604	-2.5021	-2.8063	180.163	217.478	401.874	453.716	168.332	410.800	408.172	419.235	474.971	156.751	238.128	287.505	267.602	425.342	501.062	346.275	5.3123e-06	2.6383e-05	1.0894e-06	0.03071	3.5386e-08	4.6399e-08	0.055607	0.0027997	3.5346e-07	3.4202e-07	0.03297	0.0068037	0.003778	0.0025527	1.2591e-07	0.0037442	-4.6718e-06	-4.74e-06	-1.6301e-06	-0.20101	-5.6576e-08	-6.3623e-08	-0.18954	-0.086782	-6.1117e-08	-5.1223e-08	-0.20034	-0.036385	-0.036204	-0.013431	-5.6094e-08	-0.016488	419.369	250.161	479.522	462.282	373.280	407.097	186.150	170.942	174.628	237.233	495.002	472.692	472.000	378.000	462.646	339.099	-8191	255	
2155.877	1	1	0	0	0.25854	0.19537	0.2661	0.14355	0.29483	0.32782	0.17839	0.2417	0.10385	0.016546	0.068335	0.084836	0.22983	0.14133	0.19516	0.081832	-2.4167	-2.3604	-2.7958	-2.8833	-2.6792	-2.6708	-2.5062	-2.6458	-2.85	-2.4354	-2.6604	-2.6792	-2.3438	-2.8604	-2.5563	-2.7	497.520	185.795	262.468	426.978	310.936	180.177	423.987	432.957	419.331	498.854	365.422	270.885	422.921	215.405	330.156	473.835	9.7383e-07	3.0064e-05	4.8472e-06	0.034562	2.2904e-07	6.0219e-07	0.013511	0.008847	1.4251e-07	1.8443e-07	0.019565	0.0027618	0.0042721	0.0017016	3.1063e-07	0.00072303	-4.6869e-06	-4.8368e-06	-1.5593e-06	-0.21038	-5.6752e-08	-6.518e-08	-0.20739	-0.086782	-5.9528e-08	-5.5228e-08	-0.19535	-0.037555	-0.034354	-0.013937	-5.6713e-08	-0.015828	258.250	357.264	224.745	265.008	185.817	441.474	307.222	189.955	471.444	463.531	513.072	449.097	207.859	270.932	246.440	247.639	-8191	255	
2155.973	1	1	0	0	0.051203	0.086061	0.22494	0.02172	0.21521	0.060592	0.26746	0.1413	0.14006	0.23155	0.10691	0.24032	0.10973	0.16307	0.12476	0.16182	-2.4646	-2.4938	-2.825	-2.7083	-2.6229	-2.7646	-2.7646	-2.3875	-2.875	-2.4792	-2.9479	-2.6813	-2.5271	-2.6646	-2.6104	-2.5792	363.135	297.821	96.453	36.795	124.324	305.494	248.337	181.988	321.283	351.793	38.003	78.367	193.700	74.358	354.107	328.435	2.4445e-06	4.4791e-05	7.6817e-06	0.015024	1.8756e-07	2.4903e-07	0.022908	0.011078	1.8143e-07	1.5173e-07	0.033703	0.0024268	0.0026106	0.0012228	2.819e-07	0.0022831	-4.5474e-06	-5.0302e-06	-1.5402e-06	-0.21458	-5.2708e-08	-6.2733e-08	-0.22443	-0.083633	-6.2354e-08	-5.7809e-08	-0.20049	-0.038447	-0.036821	-0.013927	-6.0872e-08	-0.016358	315.385	226.389	226.355	263.211	371.940	252.470	151.185	32.071	125.898	247.592	181.797	82.163	164.902	16.060	81.724	55.655	-8191	255	
2156.094	1	1	0	0	0.14713	0.095589	0.15188	0.13452	0.34985	0.14125	0.080548	0.17961	0.18977	0.11765	0.040816	0.14923	0.10061	0.11434	0.17058	0.19085	-2.5563	-2.5875	-2.625	-2.6542	-2.5146	-2.925	-2.4646	-2.4813	-2.9083	-2.5375	-2.5625	-2.6562	-2.5146	-2.8271	-2.6937	-2.5312	200.659	337.696	425.909	223.841	211.277	270.228	181.075	330.277	244.671	509.413	285.538	514.365	304.556	302.098	504.337	499.676	1.3617e-06	3.7351e-05	5.2255e-07	0.032947	1.9274e-07	6.0273e-07	0.035882	0.0191	6.1775e-08	1.3464e-07	0.019847	0.0060309	0.005374	0.0026855	2.7733e-07	0.0021635	-4.8566e-06	-5.002e-06	-1.4593e-06	-0.23381	-4.9763e-08	-6.2955e-08	-0.20999	-0.085207	-6.2266e-08	-5.8032e-08	-0.18565	-0.038112	-0.036513	-0.012746	-6.0341e-08	-0.014689	294.528	316.853	341.285	222.763	314.432	215.981	492.711	176.839	180.353	510.104	303.738	493.437	178.245	512.019	440.406	313.880	-8191	255	
2156.188	1	1	0	0	0.091055	0.19066	0.14416	0.13372	0.156	0.18524	0.11346	0.24953	0.32851	0.13349	0.12356	0.33668	0.10758	0.1742	0.096586	0.15638	-2.4979	-2.5187	-2.5938	-2.9062	-2.5208	-2.7	-2.6083	-2.325	-2.9229	-2.7646	-2.7354	-2.8625	-2.5062	-2.6958	-2.7708	-2.3083	-106.445	-18.547	70.476	-2.712	116.211	-85.435	-97.306	246.431	-17.997	89.088	-33.776	244.405	31.521	-76.600	50.832	57.732	6.1546e-06	8.6898e-06	7.2366e-06	0.03729	1.4699e-07	2.5891e-07	0.02678	0.019718	3.8258e-08	2.2609e-07	0.0297	0.0050026	0.0018761	0.0039683	1.1632e-07	0.0049662	-4.3589e-06	-5.3205e-06	-1.4952e-06	-0.23203	-5.2884e-08	-6.1309e-08	-0.22135	-0.079595	-6.0455e-08	-5.4071e-08	-0.18947	-0.040787	-0.039288	-0.011903	-6.0872e-08	-0.01566	188.123	196.359	-51.836	91.997	16.514	-24.912	86.053	-95.366	173.699	51.798	10.890	186.090	201.661	196.130	213.750	209.680	-8191	255	
2156.284	1	1	0	0	0.18827	0.11538	0.14527	0.10881	0.19404	0.1	0.16388	0.15414	0.12909	0.15156	0.12812	0.14389	0.3304	0.23369	0.23943	0.13334	-2.4938	-2.4938	-2.5271	-2.8021	-2.5021	-2.6562	-2.6271	-2.525	-2.85	-2.7979	-2.5	-2.9292	-2.4437	-2.6771	-2.8854	-2.4146	467.937	409.176	399.895	377.158	122.729	235.368	214.946	273.135	161.144	371.763	379.403	385.331	315.160	204.845	428.779	237.156	1.174e-06	3.1874e-05	1.4059e-05	0.020636	1.1917e-07	4.6775e-07	0.020529	0.010746	2.3249e-07	2.961e-07	0.029796	0.0033723	0.003745	0.0013614	4.3362e-08	0.0011143	-4.7058e-06	-5.1874e-06	-1.3525e-06	-0.22169	-5.3719e-08	-6.0864e-08	-0.22703	-0.080622	-6.3855e-08	-6.0257e-08	-0.18609	-0.040926	-0.036636	-0.011875	-6.1668e-08	-0.015517	433.490	237.491	440.257	135.349	158.565	439.847	274.890	139.124	262.293	316.755	130.159	373.750	400.579	384.315	230.411	347.786	-8191	255	
2156.381	1	1	0	0	0.32019	0.13155	0.33934	0.14949	0.12369	0.20493	0.037994	0.18055	0.090663	0.21448	0.1199	0.16845	0.10208	0.11902	0.20653	0.013225	-2.4146	-2.4	-2.35	-2.8417	-2.6729	-2.8042	-2.8583	-2.2917	-2.7687	-2.6437	-2.4917	-2.8146	-2.5729	-2.5208	-2.8542	-2.3208	201.208	167.161	85.984	-103.567	17.471	-98.164	-41.085	149.648	-90.360	147.723	168.727	-35.417	91.477	101.977	-86.371	-48.070	4.6689e-06	2.5842e-05	4.7499e-06	0.017336	1.4501e-07	2.0861e-07	0.047324	0.0017516	1.7461e-07	1.9832e-07	0.019756	0.0018505	0.0050113	0.0027622	1.8057e-07	0.0022675	-4.3815e-06	-5.3809e-06	-1.3581e-06	-0.23155	-5.662e-08	-6.0553e-08	-0.23401	-0.080964	-5.8335e-08	-5.9812e-08	-0.16626	-0.038725	-0.038918	-0.01135	-6.273e-08	-0.015698	73.076	106.126	225.539	73.042	-50.061	-36.467	221.970	-104.061	196.964	144.156	184.653	1.839	-24.760	-45.262	-32.352	143.501	-8191	255	
2156.501	1	1	0	0	0.20405	0.15989	0.19488	0.10845	0.27779	0.13981	0.16659	0.062112	0.21075	0.21186	0.016225	0.28755	0.051718	0.25778	0.26997	0.15278	-2.3354	-2.7917	-2.5833	-2.7104	-2.6896	-2.5333	-2.9979	-2.4292	-2.8625	-2.8208	-2.3958	-2.875	-2.5312	-2.3792	-2.6792	-2.6667	24.659	68.139	-67.657	-5.522	-34.560	6.346	117.819	201.147	199.910	228.165	-111.000	152.664	-11.240	8.455	14.428	54.006	6.7045e-07	2.2176e-05	2.9898e-06	0.019366	3.5343e-07	4.8016e-08	0.017959	0.0040403	2.1197e-07	1.4547e-07	0.024258	0.0028601	0.0040267	0.00179	2.3012e-07	0.0041722	-4.6115e-06	-5.1794e-06	-1.3659e-06	-0.20666	-5.6928e-08	-5.8417e-08	-0.21794	-0.086645	-5.6922e-08	-6.0435e-08	-0.17934	-0.04048	-0.038795	-0.011762	-6.3216e-08	-0.01685	223.731	34.925	32.925	-112.221	91.324	-79.659	111.047	-111.498	35.868	161.713	-104.689	203.795	-119.636	116.340	129.912	-35.460	-8191	255	
2156.573	1	1	0	0	0.30267	0.13433	0.16916	0.14949	0.18878	0.26487	0.14157	0.20394	0.085657	0.21096	0.12973	0.19084	0.25293	0.13096	0.14608	0.16821	-2.3312	-2.5938	-2.5	-2.7104	-2.6562	-2.5354	-2.8021	-2.3625	-2.7417	-2.6896	-2.5062	-2.8187	-2.6583	-2.4813	-2.8417	-2.5979	416.612	408.294	164.995	221.361	133.822	282.687	314.727	391.454	166.623	130.516	105.618	211.859	275.993	290.768	183.025	347.191	1.6185e-06	2.1292e-05	6.0672e-06	0.017669	2.2433e-07	6.9929e-07	0.020585	0.0066465	2.3224e-07	6.8501e-07	0.0069543	0.0046388	0.0042807	0.0010808	2.3041e-07	0.0017432	-4.2307e-06	-5.6832e-06	-1.3322e-06	-0.21636	-5.7368e-08	-5.6104e-08	-0.23092	-0.086645	-5.6878e-08	-6.4396e-08	-0.18169	-0.036162	-0.04009	-0.011256	-5.8615e-08	-0.015142	318.150	266.450	221.822	198.032	97.913	124.515	128.203	83.593	265.039	323.399	188.657	269.918	322.039	337.353	69.391	290.428	-8191	255	
2156.693	1	1	0	0	0.11787	0.13966	0.27665	0.31848	0.16319	0.2262	0.16464	0.24859	0.27778	0.075856	0.16743	0.28288	0.35209	0.23408	0.45097	0.11321	-2.2562	-2.8979	-2.3167	-2.8292	-2.7479	-2.5438	-2.8854	-2.6437	-2.6396	-3.2062	-2.4729	-2.85	-2.8333	-2.5333	-2.8688	-2.6146	70.988	188.238	-150.921	187.770	73.425	-48.601	146.657	117.415	57.938	-3.887	-134.613	24.077	33.704	-80.643	64.541	136.675	2.1919e-06	1.966e-05	1.0594e-05	0.01441	7.2459e-08	2.4469e-07	0.045617	0.0041885	8.5134e-07	2.9149e-06	0.51645	1.318	3.6951	0.29688	6.1766e-07	0.80044	-4.0798e-06	-5.7034e-06	-1.3345e-06	-0.21603	-5.917e-08	-5.1654e-08	-0.21372	-0.08555	6.529e-07	3.5098e-06	3.6209	1.8507	22.416	0.45647	6.3575e-07	1.1232	-22.451	-122.831	-153.148	-19.872	-144.175	-68.676	99.403	-150.786	39.703	130.694	70.672	114.268	59.635	150.343	-119.843	151.917	-8191	255	
2156.790	1	1	0	0	0.080151	0.13047	0.11748	0.25084	0.1657	0.19365	0.07765	0.05454	0.30831	0.17575	0.028917	0.072885	0.18771	0.16072	0.1945	0.068378	-2.4333	-2.9583	-2.7042	-2.8292	-2.9854	-2.6271	-2.7833	-2.8167	-2.8333	-2.9583	-2.6937	-2.9208	-3.0187	-2.5708	-2.9375	-2.8292	62.654	99.607	25.360	172.896	-52.446	-22.670	112.869	272.743	82.283	196.405	135.485	69.452	172.145	193.509	71.455	168.276	6.212e-06	0.0066119	1.0279e-05	10.405	1.1569e-06	2.0975e-07	16.273	6.173	1.2718e-07	5.6352e-07	5.5543	2.0634	2.6184	0.31122	3.092e-07	0.82119	5.334e-05	0.0018645	1.6418e-05	13.367	8.7071e-07	5.726e-07	19.756	57.324	5.4767e-07	6.4574e-07	7.7934	2.5577	16.148	0.45189	5.2444e-07	1.1625	163.741	272.638	243.979	139.596	167.999	36.588	139.734	-56.889	14.793	-52.587	145.334	148.360	71.595	152.746	-41.247	152.540	-8191	255	
2156.886	1	1	0	0	0.12532	0.14468	0.15935	0.1144	0.082525	0.096112	0.17285	0.14522	0.24783	0.026311	0.15408	0.12279	0.24915	0.090534	0.2221	0.19606	-2.1854	-3.1729	-2.6521	-2.7167	-3.1604	-2.6667	-2.9646	-2.6458	-2.7583	-3.0229	-2.7083	-2.7354	-2.9854	-2.4813	-2.9583	-2.8958	133.319	186.354	225.119	130.293	-6.929	-62.248	159.428	98.136	204.156	-18.049	33.931	119.822	-52.034	-28.407	115.710	271.322	7.4217e-06	0.012138	0.0044544	10.589	8.5061e-07	7.8127e-07	16.556	2.7068	3.1511e-07	1.0366e-06	5.7478	2.0817	4.2102	0.31511	2.9305e-07	0.82852	4.5859e-05	0.0011232	0.00046368	13.353	6.8389e-07	5.7171e-07	19.745	37.699	5.3239e-07	5.4819e-07	8.5655	2.5909	25.496	0.46743	5.6337e-07	1.1293	182.758	275.949	191.618	140.130	174.266	199.278	140.176	-53.067	172.104	-51.335	145.493	148.677	70.403	152.540	196.877	152.834	-8191	255	
2156.982	1	1	0	0	0.12326	0.18107	0.12138	0.32988	0.16039	0.16465	0.22572	0.1345	0.24371	0.19202	0.061476	0.18496	0.046659	0.25079	0.10691	0.31887	-2.2229	-2.8438	-2.8146	-2.5167	-2.8083	-2.6562	-2.7146	-2.7979	-2.6729	-2.9104	-2.7896	-2.7604	-3.0229	-2.6292	-2.6958	-2.8125	173.662	216.452	246.369	153.269	268.315	286.990	71.246	168.681	162.076	195.834	271.388	299.461	82.832	143.325	246.387	248.135	7.4875e-06	7.4313e-06	0.0034241	10.363	1.3124e-06	1.3027e-06	16.182	6.1993	4.0292e-07	5.0345e-07	5.3409	2.005	0.31227	0.29657	2.1344e-07	0.75693	5.0625e-05	5.3467e-05	0.00055177	13.484	8.6786e-07	6.857e-07	19.652	58.173	6.1956e-07	6.3813e-07	8.3035	2.562	14.854	0.45759	6.4583e-07	1.1191	156.847	108.134	233.333	139.950	173.176	185.856	140.093	-39.352	53.213	294.207	145.737	149.311	7.258	153.449	293.784	151.907	-8191	255	
2157.101	1	1	0	0	0.14171	0.29538	0.27863	0.21124	0.18621	0.18819	0.322	0.30196	0.26245	0.049315	0.24981	0.2312	0.061125	0.014672	0.084425	0.10402	-2.3688	-2.9437	-2.8354	-2.7208	-2.9479	-2.8167	-2.7396	-2.85	-2.5021	-2.8312	-2.6708	-2.5917	-3.0583	-2.8708	-2.8312	-3.0458	218.852	221.020	129.708	69.617	199.480	30.739	107.727	195.784	305.421	260.947	-9.374	239.611	9.916	159.586	164.178	257.316	1.0851e-05	2.3245e-05	0.0056293	10.217	4.8485e-07	2.3942e-06	15.83	2.834	1.0579e-06	5.5751e-07	5.3136	1.9619	0.80758	1.5893	2.454e-08	0.76603	5.5971e-05	5.8549e-05	0.00091616	13.398	7.3694e-07	7.2396e-07	19.435	38.042	6.7446e-07	6.3973e-07	8.7437	2.5166	8.7339	4.7167	6.3234e-07	1.0705	193.965	248.456	239.223	140.019	47.191	192.530	140.076	-29.430	79.810	277.604	147.976	149.207	-11.616	103.717	272.497	153.250	-8191	255	
2157.174	1	1	0	0	0.15275	0.074309	0.067349	0.03251	0.2655	0.10687	0.20492	0.22374	0.086159	0.261	0.26051	0.37559	0.15443	0.27012	0.13144	0.085628	-2.1083	-3.0396	-2.7667	-2.4729	-2.9813	-2.7604	-3.0125	-2.9688	-2.6875	-2.9646	-2.8563	-2.5271	-2.8542	-2.8729	-2.6771	-2.9396	40.704	248.843	213.580	229.743	185.648	97.646	290.520	245.844	296.875	105.607	66.766	20.545	187.514	27.375	153.398	195.496	6.4122e-06	4.8892e-05	0.0036126	10.244	2.3798e-07	3.2797e-06	16.004	7.059	1.0337e-06	1.2108e-07	5.3452	1.964	0.80487	0.96752	3.1846e-07	0.76401	5.9177e-05	5.7783e-05	0.00058924	13.449	6.2414e-07	9.4113e-07	19.505	62.279	6.9163e-07	6.1432e-07	8.2606	2.5102	1.273	5.378	5.9009e-07	1.1028	136.177	273.823	244.484	140.412	109.610	195.439	139.898	-23.236	60.254	12.001	146.167	149.289	150.841	95.759	67.300	152.689	-8191	255	
2157.269	1	1	0	0	0.079028	0.15251	0.17913	0.11152	0.022543	0.14927	0.048396	0.11516	0.21121	0.36029	0.19655	0.14944	0.036108	0.052743	0.15725	0.12806	-2.2771	-2.9229	-2.9521	-2.6562	-2.9979	-2.8937	-2.9208	-3.225	-2.5646	-2.8396	-2.8833	-2.825	-2.8917	-2.7542	-2.7583	-3.1562	-15.251	189.857	119.773	-35.932	-62.191	29.754	99.832	93.069	51.587	-31.976	51.787	209.563	-19.664	-39.049	161.379	207.942	8.366e-06	3.3632e-05	0.0061998	10.494	5.7258e-07	2.0449e-06	16.427	3.862	1.182e-06	7.5468e-08	5.2984	2.1059	0.8556	1.6326	4.4012e-07	0.8263	5.774e-05	5.2822e-05	0.0010125	13.491	5.7328e-07	8.077e-07	19.744	37.49	6.3718e-07	5.6336e-07	8.6243	2.5994	1.2974	9.0954	5.5957e-07	1.1001	82.232	177.486	250.515	139.860	223.487	199.423	140.194	-54.666	248.812	144.352	147.745	149.019	149.428	95.724	38.237	152.979	-8191	255	
2157.365	1	1	0	0	0.18147	0.1283	0.17999	0.064046	0.18791	0.082131	0.12987	0.095078	0.20251	0.16555	0.026412	0.19845	0.044096	0.026614	0.24571	0.21353	-2.4042	-2.7833	-2.9417	-2.6813	-2.9458	-2.9479	-2.7021	-2.8708	-2.7062	-2.6958	-2.9833	-2.725	-2.9083	-2.8854	-2.5312	-2.9	196.029	-29.906	65.560	280.211	56.576	-24.815	152.752	239.084	255.976	56.759	266.677	-26.039	186.900	180.149	167.636	-38.513	1.8995e-05	2.3813e-05	0.00398	10.766	4.0514e-07	3.7004e-06	16.583	7.7859	0.00010634	4.7035e-07	5.3522	2.072	0.83395	1.0738	1.1466e-07	0.84218	5.7517e-05	5.0512e-05	0.00064802	13.855	5.4695e-07	9.3943e-07	19.929	19.381	2.4186e-05	5.5718e-07	8.1017	2.6064	1.2749	5.5919	5.4519e-07	1.0655	112.033	177.073	255.508	140.343	57.102	185.691	139.913	-48.233	150.114	-1.144	145.665	149.262	149.755	105.841	290.678	152.573	-8191	255	
2157.461	1	1	0	0	0.059286	0.21503	0.23848	0.11455	0.16258	0.11098	0.084992	0.095204	0.18335	0.08221	0.038404	0.21544	0.34658	0.16741	0.083687	0.14483	-2.3958	-2.7458	-3.0438	-2.7854	-3.0208	-3.1021	-2.7125	-3.0521	-2.7958	-2.6188	-3.0208	-2.6979	-2.8479	-2.9729	-2.6458	-3.1562	454.358	151.505	237.585	442.620	415.482	167.642	221.167	422.462	452.509	364.738	360.573	448.086	256.020	369.295	457.930	174.386	2.3047e-05	3.2501e-05	0.0061258	10.767	3.6092e-07	2.1366e-06	16.623	3.1787	0.00013082	4.9071e-07	5.45	2.0491	0.84196	1.5885	9.1527e-08	0.8485	7.7374e-05	4.9912e-05	0.0010005	13.969	5.4858e-07	7.8928e-07	19.937	4.2615	2.4558e-05	5.5998e-07	8.4416	2.6159	1.2758	8.6118	5.5315e-07	1.0799	454.010	358.897	261.282	140.486	219.379	213.970	140.087	145.424	435.996	284.465	146.922	149.324	149.596	466.199	360.631	153.128	-8191	255	
2157.582	1	1	0	0	0.024742	0.21523	0.1428	0.20766	0.26771	0.092053	0.10324	0.20885	0.061483	0.078257	0.087992	0.075188	0.15542	0.13686	0.31181	0.14996	-2.4104	-2.7438	-3.0271	-2.6854	-2.8729	-3.0792	-2.6229	-2.9417	-2.9771	-2.5854	-2.9521	-2.8021	-2.7354	-3.2042	-2.7292	-2.9229	354.046	313.512	436.834	394.624	204.800	341.538	187.399	379.911	473.377	462.521	386.578	161.710	401.138	330.184	468.330	235.621	1.0497e-05	1.7375e-05	0.0032757	18.301	3.1954e-07	1.9495e-06	16.866	3.1838	0.00020515	5.5239e-07	5.3929	2.0219	0.83929	1.101	3.3007e-07	0.82865	6.7808e-05	5.0311e-05	0.00051198	16.108	5.4787e-07	8.5606e-07	20.092	4.2639	3.879e-05	5.4868e-07	7.7615	2.6076	1.2599	5.5386	5.8646e-07	1.0568	435.207	356.788	297.834	146.824	406.502	236.267	139.805	145.447	441.632	403.440	145.959	149.309	150.156	475.368	249.230	152.934	-8191	255	
2157.678	1	1	0	0	0.10657	0.18604	0.23577	0.080185	0.099843	0.22498	0.10606	0.1496	0.23919	0.18362	0.2871	0.1436	0.090178	0.093483	0.064427	0.23555	-2.4521	-2.6312	-2.8646	-2.8104	-2.9458	-2.8979	-2.6312	-2.875	-2.8458	-2.5958	-3.1125	-2.6979	-2.7854	-2.9688	-2.8458	-2.8937	270.885	273.851	361.597	231.209	229.391	306.648	193.179	261.993	335.126	238.367	154.505	403.225	285.650	329.438	403.619	443.516	2.7587e-05	1.5779e-05	0.0054854	22.281	1.4189e-07	8.9404e-07	16.912	3.1646	0.00013287	9.0591e-07	5.217	1.9487	0.78909	1.6543	1.2266e-06	0.78881	7.9519e-05	4.9448e-05	0.00021325	105.81	5.4524e-07	7.4136e-07	20.33	4.2531	2.5251e-05	5.4708e-07	7.3525	2.6742	1.2213	8.8085	6.3141e-07	1.0188	417.693	216.880	300.490	149.116	379.778	181.805	140.037	145.506	447.043	219.903	144.306	149.793	150.311	475.112	260.109	153.397	-8191	255	
2157.774	1	1	0	0	0.20461	0.14575	0.071803	0.071457	0.30721	0.099256	0.15184	0.081564	0.041689	0.16451	0.038369	0.061443	0.24443	0.20487	0.19862	0.11461	-2.6021	-2.6396	-2.8354	-2.7021	-2.6229	-2.9542	-2.6667	-2.6562	-2.8354	-2.5833	-3.0854	-2.8646	-2.5146	-3.0854	-2.8	-2.7354	389.476	197.563	325.320	306.871	297.045	358.733	259.880	415.796	472.830	150.320	188.109	446.209	353.617	464.702	164.942	240.819	1.9116e-05	1.7226e-05	1.1425e-05	20.044	3.3222e-07	1.7074e-06	17.051	3.1214	0.0002131	6.5077e-07	5.2048	1.882	0.78025	0.25443	0.00015055	0.77556	6.8279e-05	4.9521e-05	1.3935e-05	104.88	5.4638e-07	8.5548e-07	20.529	4.2047	4.0211e-05	5.4908e-07	7.2429	2.5496	1.2058	4.4799	2.326e-06	0.99666	451.100	207.578	324.297	192.015	482.491	196.345	139.857	145.530	452.960	225.417	145.060	149.718	149.771	161.996	230.724	152.947	-8191	255	
2157.870	1	1	0	0	0.12562	0.087952	0.15177	0.23155	0.097475	0.073104	0.34031	0.33672	0.10152	0.25339	0.10906	0.050237	0.07357	0.084802	0.25531	0.12223	-2.4625	-2.8521	-2.9021	-2.825	-2.5833	-3.0208	-2.5792	-2.7313	-3.0854	-2.6063	-2.9771	-3.2438	-2.675	-2.9792	-2.7896	-2.6771	253.258	464.924	424.358	413.147	346.370	398.885	223.921	257.231	462.884	456.770	163.129	171.130	358.593	377.191	451.459	482.923	1.8697e-05	2.6986e-05	7.6473e-06	26.949	2.7617e-07	6.3384e-07	17.091	3.0767	0.00013245	4.5792e-07	5.201	1.85	0.76101	0.29104	0.00023914	0.76473	7.2649e-05	5.3035e-05	1.3746e-05	158.39	5.3398e-07	6.3311e-07	20.581	4.1427	2.5142e-05	5.9078e-07	7.1764	2.5984	1.1884	1.7194	2.7891e-05	0.98113	439.304	449.254	384.708	206.986	199.638	467.141	139.934	145.405	458.657	432.160	144.412	150.790	149.789	180.548	233.168	153.224	-8191	255	
2157.966	1	1	0	0	0.1306	0.40052	0.11884	0.20773	0.32036	0.16854	0.093043	0.20504	0.1499	0.09942	0.23422	0.11233	0.16975	0.082128	0.14749	0.22461	-2.6521	-2.7875	-2.9833	-2.9396	-2.7438	-3.1021	-2.6521	-2.6979	-3.0146	-2.5833	-2.9562	-2.8417	-2.6188	-2.8312	-2.7875	-2.5625	208.336	409.211	163.057	406.100	278.545	219.869	374.384	393.418	357.466	242.152	309.063	254.296	279.707	451.790	473.633	140.321	1.6896e-05	0.00010969	6.2944e-06	18.088	6.1212e-08	1.8318e-07	17.197	3.058	0.00021713	8.184e-07	5.2035	1.8468	0.77629	0.2762	0.00014847	0.7574	6.3818e-05	5.4768e-05	1.3962e-05	105.11	5.4194e-07	5.5636e-07	21.567	4.1446	4.0883e-05	6.3857e-07	7.2152	2.5233	1.2039	0.4144	2.6575e-05	0.98531	457.399	412.738	131.874	199.707	303.392	165.341	140.200	144.594	463.880	478.900	145.502	150.021	149.742	154.650	241.944	153.272	-8191	255	
2158.062	1	1	0	0	0.25068	0.19151	0.38806	0.3515	0.20908	0.25473	0.10816	0.27295	0.038502	0.15198	0.10157	0.1279	0.32037	0.044103	0.227	0.27018	-2.4813	-2.7875	-2.7708	-3.1437	-2.5583	-3.1312	-2.8229	-2.7729	-3.2062	-2.8417	-2.8104	-2.825	-2.775	-2.9771	-2.8083	-2.4708	409.741	440.415	378.454	476.118	475.373	343.691	209.221	477.440	238.381	417.824	159.146	341.762	314.849	408.087	365.988	426.198	1.9531e-05	0.00013816	7.291e-06	26.419	4.9718e-07	2.1202e-07	17.27	3.1315	0.00012196	0.00013606	5.3052	1.8753	0.81255	0.282	0.00024098	0.77761	7.72e-05	5.9363e-05	1.4552e-05	168.17	5.5631e-07	5.6584e-07	21.434	4.2295	1.9655e-05	3.6433e-06	7.3284	2.6103	1.2618	0.41955	4.2539e-05	0.99705	444.300	422.625	350.644	217.446	292.021	242.918	140.451	144.921	420.659	146.554	144.615	149.779	150.264	154.242	247.719	152.605	-8191	255	
2158.181	1	1	0	0	0.15872	0.18771	0.14776	0.13003	0.11552	0.10505	0.24381	0.074622	0.3295	0.059142	0.25655	0.17533	0.057965	0.21082	0.1816	0.20175	-2.5583	-2.7062	-2.8208	-3.0229	-2.7958	-2.9104	-2.9146	-2.4313	-2.8979	-2.9417	-2.7354	-3.0771	-2.6542	-2.925	-3.025	-2.6	190.836	331.219	129.155	269.805	424.565	429.921	369.130	341.419	206.606	361.044	416.552	270.530	235.422	428.198	228.740	415.811	5.8864e-06	0.00014959	3.5861e-06	16.65	1.1015e-07	4.5574e-07	17.491	3.1538	0.00018246	0.00022627	5.3434	1.9362	0.80069	0.29162	0.00014823	0.7982	5.4139e-05	6.0669e-05	1.3585e-05	108.95	5.8045e-07	5.3523e-07	21.969	4.1936	5.1044e-06	3.1148e-05	7.3144	2.565	1.263	0.42632	2.6249e-05	1.0207	389.249	463.754	311.828	207.883	390.156	454.424	140.454	144.557	422.515	149.556	145.005	149.112	149.954	153.956	253.926	152.953	-8191	255	
2158.277	1	1	0	0	0.15621	0.13864	0.1185	0.059493	0.26485	0.085616	0.055135	0.055167	0.12051	0.24285	0.074576	0.16702	0.24765	0.1933	0.12625	0.083567	-2.3187	-2.6292	-2.6604	-2.9333	-2.6854	-2.9271	-2.875	-2.6271	-2.95	-2.9125	-2.7292	-2.9792	-2.7104	-2.9354	-2.9979	-2.7354	253.024	486.312	445.195	185.522	244.021	147.421	235.599	246.546	358.254	234.165	426.722	392.228	168.921	366.576	306.508	476.239	1.2153e-05	0.0002871	1.647e-05	23.434	7.7729e-07	3.3349e-07	17.239	3.1845	2.6093e-07	0.00017048	5.3654	1.9904	0.81242	0.30028	0.00023559	0.82477	4.5998e-05	8.3741e-05	1.3182e-05	164.27	6.0177e-07	5.1939e-07	21.261	4.1908	5.199e-07	2.6379e-05	7.3366	2.6861	1.2916	0.43295	4.2206e-05	1.0437	167.952	437.654	267.821	227.517	379.157	373.033	140.583	144.723	148.802	462.578	144.615	150.110	151.666	153.770	258.808	153.132	-8191	255	
2158.373	1	1	0	0	0.046117	0.13266	0.22448	0.18577	0.2015	0.16532	0.11618	0.062388	0.22458	0.19145	0.30248	0.094023	0.094002	0.22035	0.12549	0.071438	-2.5292	-2.9875	-2.6354	-3.0062	-2.7625	-2.825	-3.1688	-2.7396	-3.0708	-3.0292	-2.7333	-2.8083	-3.0021	-2.9396	-3.1083	-2.7687	135.576	306.618	465.471	345.232	309.911	223.182	483.637	316.254	460.137	467.926	264.535	480.896	265.664	290.499	153.253	462.795	1.2846e-05	0.00015522	1.0829e-05	13.934	1.6411e-05	1.0627e-07	17.369	3.2567	2.3833e-07	0.00028297	5.4132	1.9837	0.82381	0.2994	0.00015123	0.81736	4.6386e-05	7.1588e-05	1.3547e-05	80.032	4.7771e-06	5.472e-07	21.657	4.3559	5.4732e-07	4.3495e-05	7.4773	2.5488	1.3622	0.43548	2.7033e-05	1.0528	185.826	447.607	203.701	225.960	260.065	251.696	140.525	144.554	325.557	467.498	144.556	149.325	150.686	154.772	264.264	153.831	-8191	255	
2158.470	1	1	0	0	0.11966	0.20456	0.19921	0.046986	0.11885	0.17652	0.11013	0.23726	0.20854	0.1198	0.085024	0.1365	0.13972	0.14454	0.27112	0.18541	-2.5646	-2.9	-2.6792	-3.0312	-3.05	-2.7833	-3.0312	-2.7375	-2.9125	-3.0896	-2.7938	-2.9042	-2.75	-2.6021	-3.0625	-2.6229	292.852	419.136	323.288	313.143	435.807	385.260	347.916	342.959	459.085	161.696	213.615	464.807	309.737	332.467	415.937	182.809	1.2779e-05	0.00033046	1.0337e-05	22.504	1.9381e-05	2.5218e-07	17.16	3.1749	1.6325e-07	0.00017268	5.3542	1.9378	0.75672	0.2912	0.00023571	0.80024	4.8238e-05	8.7864e-05	1.3816e-05	24.14	3.3253e-05	5.4911e-07	21.076	4.2908	5.4162e-07	2.6682e-05	7.3146	2.4384	1.5103	0.42484	4.1864e-05	1.0353	190.230	441.788	381.398	245.980	239.999	144.670	140.255	145.909	455.061	472.931	144.947	148.765	152.500	154.142	270.123	153.038	-8191	255	
#DATA ENDS
