BOXY.EXE: ISS Imagent and Oximeter Data Acquisition Program Version 0.80
Ascii Record File

#ACQ INFORMATION
2  Detector Channels 
16  External MUX Channels 
1  Auxiliary Channels 
5000  Waveform (CCF) Frequency (Hz)
1  Waveforms Skipped 
30  Waveforms Averaged 
1  Cycles Averaged 
16  Acquisitions per Waveform 
10.0806  Updata Rate (Hz) 

#FILE INFORMATION
TRUE -- External MUX Channel results are PARSED.
FALSE -- AC DC and Phase are NOT grouped.
TRUE -- Companion Program Settings File CREATED.
FALSE -- AC data not excluded
FALSE -- DC data not excluded
FALSE -- Phase data not excluded
FALSE -- Auxillary Chn. data not excluded
Tab delimiters

#CALIBRATION STATE
TRUE -- Waveform Calibration Values APPLIED.


#AUX CALIBRATION VALUES
Val Type	aux-1	

Term	1.0000e+00	
Factor	0.0000e+00	


#WF CALIBRATION VALUES
A = Detector Channel
Val Type	A-AC1	A-AC2	A-AC3	A-AC4	A-AC5	A-AC6	A-AC7	A-AC8	A-AC9	A-AC10	A-AC11	A-AC12	A-AC13	A-AC14	A-AC15	A-AC16	A-DC1	A-DC2	A-DC3	A-DC4	A-DC5	A-DC6	A-DC7	A-DC8	A-DC9	A-DC10	A-DC11	A-DC12	A-DC13	A-DC14	A-DC15	A-DC16	A-Ph1	A-Ph2	A-Ph3	A-Ph4	A-Ph5	A-Ph6	A-Ph7	A-Ph8	A-Ph9	A-Ph10	A-Ph11	A-Ph12	A-Ph13	A-Ph14	A-Ph15	A-Ph16	

Term	0.00000e+00	0.00000e+00	0.00000e+00	0.00000e+00	0.00000e+00	0.00000e+00	0.00000e+00	0.00000e+00	0.00000e+00	0.00000e+00	0.00000e+00	0.00000e+00	0.00000e+00	0.00000e+00	0.00000e+00	0.00000e+00	0.00000e+00	0.00000e+00	0.00000e+00	0.00000e+00	0.00000e+00	0.00000e+00	0.00000e+00	0.00000e+00	0.00000e+00	0.00000e+00	0.00000e+00	0.00000e+00	0.00000e+00	0.00000e+00	0.00000e+00	0.00000e+00	0.00000e+00	0.00000e+00	0.00000e+00	0.00000e+00	0.00000e+00	0.00000e+00	0.00000e+00	0.00000e+00	0.00000e+00	0.00000e+00	0.00000e+00	0.00000e+00	0.00000e+00	0.00000e+00	0.00000e+00	0.00000e+00	
Factor	1.00000e+00	1.00000e+00	1.00000e+00	1.00000e+00	1.00000e+00	1.00000e+00	1.00000e+00	1.00000e+00	1.00000e+00	1.00000e+00	1.00000e+00	1.00000e+00	1.00000e+00	1.00000e+00	1.00000e+00	1.00000e+00	1.00000e+00	1.00000e+00	1.00000e+00	1.00000e+00	1.00000e+00	1.00000e+00	1.00000e+00	1.00000e+00	1.00000e+00	1.00000e+00	1.00000e+00	1.00000e+00	1.00000e+00	1.00000e+00	1.00000e+00	1.00000e+00	X	X	X	X	X	X	X	X	X	X	X	X	X	X	X	X	

B = Detector Channel
Val Type	B-AC1	B-AC2	B-AC3	B-AC4	B-AC5	B-AC6	B-AC7	B-AC8	B-AC9	B-AC10	B-AC11	B-AC12	B-AC13	B-AC14	B-AC15	B-AC16	B-DC1	B-DC2	B-DC3	B-DC4	B-DC5	B-DC6	B-DC7	B-DC8	B-DC9	B-DC10	B-DC11	B-DC12	B-DC13	B-DC14	B-DC15	B-DC16	B-Ph1	B-Ph2	B-Ph3	B-Ph4	B-Ph5	B-Ph6	B-Ph7	B-Ph8	B-Ph9	B-Ph10	B-Ph11	B-Ph12	B-Ph13	B-Ph14	B-Ph15	B-Ph16	

Term	0.00000e+00	0.00000e+00	0.00000e+00	0.00000e+00	0.00000e+00	0.00000e+00	0.00000e+00	0.00000e+00	0.00000e+00	0.00000e+00	0.00000e+00	0.00000e+00	0.00000e+00	0.00000e+00	0.00000e+00	0.00000e+00	0.00000e+00	0.00000e+00	0.00000e+00	0.00000e+00	0.00000e+00	0.00000e+00	0.00000e+00	0.00000e+00	0.00000e+00	0.00000e+00	0.00000e+00	0.00000e+00	0.00000e+00	0.00000e+00	0.00000e+00	0.00000e+00	-1.28747e+02	-1.33826e+02	-1.28549e+02	-1.80942e+02	-7.62500e+01	-8.09811e+01	-1.54237e+02	-1.62015e+02	-7.58400e+01	-9.44173e+01	-1.75125e+02	-1.69314e+02	-1.81664e+02	-1.76960e+02	-5.94591e+01	-1.48622e+02	
Factor	1.82771e-05	1.44101e-04	3.88608e-05	1.54363e-01	1.25011e-06	1.75893e-06	1.64846e-01	6.58057e-02	1.31588e-06	1.62697e-06	1.48855e-01	2.74170e-02	2.93441e-02	8.95402e-03	1.40154e-06	1.27922e-02	1.80991e-06	1.93471e-06	5.39634e-07	7.75589e-02	2.11008e-08	2.13558e-08	7.78935e-02	3.28511e-02	2.11968e-08	2.13614e-08	7.05007e-02	1.33727e-02	1.48024e-02	4.49870e-03	2.12343e-08	6.21207e-03	X	X	X	X	X	X	X	X	X	X	X	X	X	X	X	X	



#DISTANCE SETTINGS
A = Detector Channel
A-1	A-2	A-3	A-4	A-5	A-6	A-7	A-8	A-9	A-10	A-11	A-12	A-13	A-14	A-15	A-16	

2.5000e+00	3.0000e+00	2.5000e+00	3.0000e+00	2.0000e+00	3.0000e+00	1.5000e+00	3.0000e+00	3.0000e+00	3.0000e+00	3.0000e+00	3.0000e+00	3.0000e+00	3.0000e+00	1.5000e+00	3.0000e+00	

B = Detector Channel
B-1	B-2	B-3	B-4	B-5	B-6	B-7	B-8	B-9	B-10	B-11	B-12	B-13	B-14	B-15	B-16	

1.0000e+01	1.0000e+01	1.0000e+01	1.4400e+00	1.0000e+01	1.0000e+01	1.5100e+00	1.9400e+00	1.0000e+01	1.0000e+01	1.9900e+00	2.4900e+00	2.4100e+00	2.9000e+00	1.0000e+01	2.9800e+00	




#DATA BEGINS
time	group	step	mark	flag	A-AC1	A-AC2	A-AC3	A-AC4	A-AC5	A-AC6	A-AC7	A-AC8	A-AC9	A-AC10	A-AC11	A-AC12	A-AC13	A-AC14	A-AC15	A-AC16	A-DC1	A-DC2	A-DC3	A-DC4	A-DC5	A-DC6	A-DC7	A-DC8	A-DC9	A-DC10	A-DC11	A-DC12	A-DC13	A-DC14	A-DC15	A-DC16	A-Ph1	A-Ph2	A-Ph3	A-Ph4	A-Ph5	A-Ph6	A-Ph7	A-Ph8	A-Ph9	A-Ph10	A-Ph11	A-Ph12	A-Ph13	A-Ph14	A-Ph15	A-Ph16	B-AC1	B-AC2	B-AC3	B-AC4	B-AC5	B-AC6	B-AC7	B-AC8	B-AC9	B-AC10	B-AC11	B-AC12	B-AC13	B-AC14	B-AC15	B-AC16	B-DC1	B-DC2	B-DC3	B-DC4	B-DC5	B-DC6	B-DC7	B-DC8	B-DC9	B-DC10	B-DC11	B-DC12	B-DC13	B-DC14	B-DC15	B-DC16	B-Ph1	B-Ph2	B-Ph3	B-Ph4	B-Ph5	B-Ph6	B-Ph7	B-Ph8	B-Ph9	B-Ph10	B-Ph11	B-Ph12	B-Ph13	B-Ph14	B-Ph15	B-Ph16	aux-1	digaux	

1378.342	1	1	0	256	0.16942	0.11988	0.068166	0.20293	0.096594	0.26271	0.10791	0.19011	0.22809	0.08287	0.28513	0.093321	0.18351	0.073519	0.21394	0.11232	-2.8021	-3.2146	-3.3312	-3.4542	-3.4125	-3.2583	-3.375	-3.5104	-3.2687	-3.2521	-3.4521	-3.225	-3.7979	-3.4104	-3.1562	-3.4813	118.784	-70.464	114.486	79.019	-21.217	100.854	136.631	177.559	10.137	-145.452	-81.987	-166.252	-108.679	148.863	2.616	-161.359	0.00051213	0.00072999	0.00010866	1399.9	3.3837e-06	9.3423e-06	1406.1	365.18	2.7366e-06	5.0288e-06	416.03	141.36	129.19	42.801	3.4459e-06	52.575	0.00055427	0.00055416	0.00015521	1415.5	6.0931e-06	6.1283e-06	1426	370.64	6.1255e-06	6.2156e-06	424.23	144.8	131.68	43.84	6.2399e-06	54.084	-156.783	-67.561	-123.015	-157.611	-33.212	29.221	-157.739	-153.418	-43.071	-38.900	-153.442	-149.633	-148.607	-143.963	-29.103	-144.696	-8191	255	
1378.438	1	1	0	0	0.134	0.14801	0.14512	0.22141	0.12723	0.1914	0.21414	0.18929	0.018885	0.23402	0.042949	0.08397	0.14277	0.15114	0.3366	0.14872	-2.7417	-3.4958	-3.575	-3.425	-3.3979	-3.2542	-3.5354	-3.8417	-3.35	-3.4271	-3.5167	-3.3833	-3.4854	-3.3563	-3.1937	-3.5438	-92.059	46.120	16.150	160.443	-20.281	142.339	115.286	122.592	8.766	-74.302	97.588	79.658	124.597	137.529	-142.634	156.698	0.0005329	0.00021339	8.7749e-05	1396.9	3.9807e-06	5.4657e-06	1406.7	364.01	5.1504e-06	9.947e-06	414.99	141.91	128.59	42.81	2.2578e-06	52.866	0.00056661	0.00056444	0.00015765	1413.3	6.2631e-06	6.2294e-06	1425.1	370.19	6.2387e-06	6.2502e-06	424.07	144.93	131.39	43.858	6.1561e-06	54.218	-160.873	-122.715	-56.503	-157.517	-76.673	-27.666	-157.767	-153.377	-39.495	-9.862	-153.229	-149.363	-148.698	-143.982	16.889	-144.744	-8191	255	
1378.558	1	1	0	0	0.033325	0.071877	0.073067	0.14479	0.32046	0.24991	0.061081	0.16959	0.226	0.29145	0.21126	0.19807	0.29293	0.14674	0.10997	0.20737	-2.8937	-3.5333	-3.4354	-3.3417	-3.4813	-3.3812	-3.6	-3.6833	-3.2708	-3.2396	-3.5583	-3.2771	-3.6396	-3.5563	-3.1604	-3.6208	169.772	-31.490	-112.452	155.348	-84.031	17.434	143.257	145.722	-20.178	-142.994	158.127	155.881	108.596	95.767	-117.031	95.867	0.00050584	0.00043494	0.00018556	1398.4	4.147e-06	1.2506e-05	1398.7	364.55	5.4635e-06	2.5382e-06	416.99	142.39	129.19	43.32	8.6126e-06	52.999	0.00055182	0.00054736	0.00015234	1409.9	5.8327e-06	5.8286e-06	1420.8	369.51	5.6949e-06	5.6527e-06	423.6	144.89	131.75	44.055	5.5353e-06	54.293	-158.036	-57.805	-50.649	-157.301	-54.977	-50.644	-157.895	-153.148	-57.873	57.747	-153.493	-149.291	-148.461	-144.030	4.250	-144.559	-8191	255	
1378.630	1	1	0	0	0.12939	0.15357	0.15168	0.065416	0.21339	0.12606	0.37957	0.10152	0.061166	0.28427	0.23855	0.33216	0.15899	0.067251	0.10704	0.16933	-2.9458	-3.4958	-3.4604	-3.4062	-3.425	-3.6083	-3.5646	-3.65	-3.225	-3.3646	-3.7625	-3.4354	-3.525	-3.6125	-3.4104	-3.7292	56.437	-38.718	87.376	-109.704	-52.898	-159.016	61.987	-73.884	-117.276	93.232	44.868	153.936	74.622	-26.033	-120.919	89.202	0.00046861	0.00046411	0.00011142	1400.1	2.5614e-06	6.1955e-06	1403.1	366.25	2.1051e-06	4.9109e-06	419.12	142.51	130.33	43.595	5.6595e-06	53.648	0.00050432	0.00050351	0.00013878	1410.3	5.5351e-06	5.4357e-06	1421.2	371.25	5.4177e-06	5.4341e-06	423.03	145.26	132.18	44.32	5.3868e-06	54.698	-161.531	-21.905	-97.430	-157.505	-89.445	-71.469	-157.627	-153.393	-81.884	-83.905	-153.307	-149.063	-148.789	-144.310	4.452	-144.874	-8191	255	
1378.726	1	1	0	0	0.25409	0.057253	0.12865	0.23224	0.16721	0.13841	0.14001	0.31875	0.16785	0.23791	0.085515	0.10568	0.31809	0.28999	0.18822	0.073085	-3.0125	-3.1708	-3.5375	-3.6875	-3.5083	-3.7167	-3.4854	-3.8854	-3.4917	-3.4	-3.6937	-3.5042	-3.6083	-3.5812	-3.1854	-3.6312	89.554	181.451	-63.158	186.129	-48.121	-114.132	135.561	136.555	-160.039	-156.183	-162.538	-85.661	166.608	130.558	148.355	91.593	0.00051165	0.00031023	0.00026314	1397.5	3.8984e-06	7.5761e-06	1407.3	366.91	7.0816e-07	8.947e-06	422.77	143.99	131.17	43.821	1.5022e-06	54.141	0.00049168	0.00048959	0.00013634	1410.5	5.2875e-06	5.2738e-06	1422.2	371.22	5.1638e-06	5.1455e-06	425.91	146.4	133.07	44.643	5.0834e-06	55.086	-162.011	186.207	-86.018	-157.478	-11.271	-29.155	-157.625	-153.423	-71.586	-66.108	-153.261	-149.129	-148.706	-144.203	-32.532	-144.471	-8191	255	
1378.847	1	1	0	0	0.13575	0.20365	0.015112	0.10962	0.33483	0.13816	0.26615	0.27725	0.066029	0.20654	0.36473	0.14125	0.079075	0.2706	0.029197	0.1697	-3.2396	-3.475	-3.5792	-3.375	-3.2896	-3.6417	-3.2333	-3.7083	-3.4979	-3.3063	-3.5646	-3.4625	-3.5625	-3.6771	-3.1813	-3.5021	-34.342	71.319	-137.019	-126.812	-153.844	-126.211	95.329	59.252	125.401	164.054	177.280	34.543	148.571	185.606	47.837	-132.424	0.00048157	0.00045373	8.0595e-05	1404.4	2.2918e-06	4.2498e-06	1411.8	369.36	7.7082e-06	3.238e-06	424.64	144.29	132.02	44.269	5.2195e-06	54.51	0.00046856	0.0004626	0.0001284	1414.5	5.0355e-06	5.0196e-06	1427.3	373.16	4.9868e-06	4.9256e-06	427.79	146.94	133.74	44.887	4.7622e-06	55.339	-161.447	-76.483	-140.440	-157.560	-37.257	-93.350	-157.790	-153.134	-60.655	-5.475	-153.556	-149.370	-148.476	-144.119	-6.879	-144.791	-8191	255	
1378.943	1	1	0	0	0.16382	0.16186	0.25507	0.20373	0.12613	0.037628	0.33705	0.20252	0.23975	0.046168	0.20773	0.29451	0.15473	0.20222	0.071088	0.053009	-3.2062	-3.1437	-3.5021	-3.7292	-3.4521	-3.7271	-3.6771	-3.6583	-3.3646	-3.2438	-3.8417	-3.5104	-3.2667	-3.6437	-3.3917	-3.5563	-50.156	-50.557	0.854	52.496	144.037	-97.141	128.031	129.889	-24.132	-161.623	147.893	-155.182	148.338	117.277	-140.324	-4.081	0.00050092	0.00096278	0.00020056	1404.5	2.9255e-06	8.0407e-06	1413.7	373.06	5.3186e-06	2.9021e-06	428.47	146.71	133.13	44.839	4.6533e-06	54.567	0.0004355	0.00042626	0.00011733	1413.1	4.6127e-06	4.5606e-06	1425	376.19	4.4035e-06	4.41e-06	430.13	148.32	134.57	45.245	4.3459e-06	55.57	-162.827	-81.062	-53.104	-157.641	-88.226	-19.725	-157.618	-153.225	-83.522	-27.217	-153.796	-149.447	-148.860	-144.229	-3.828	-144.885	-8191	255	
1379.037	1	1	0	0	0.34778	0.2442	0.27235	0.29936	0.056398	0.03663	0.24993	0.19117	0.21838	0.068684	0.10311	0.33737	0.25819	0.094961	0.29541	0.26729	-3.1854	-3.2979	-3.2708	-3.6792	-3.6292	-3.7125	-3.4167	-3.7042	-3.6854	-3.1833	-3.7646	-3.7021	-3.2771	-3.8917	-3.3396	-3.3812	-159.365	45.790	108.699	116.810	31.513	83.486	46.126	139.653	-122.228	-8.371	-90.584	-148.985	137.649	168.106	-121.056	151.143	0.00048179	0.00051873	2.3392e-05	1405.4	6.7735e-06	8.3441e-06	1417.1	376.09	5.1137e-06	9.8532e-06	429.41	145.99	132.86	44.583	5.3761e-06	54.385	0.00040627	0.0003931	0.00010996	1412.9	4.3169e-06	4.2961e-06	1424.5	377.71	4.3e-06	4.2792e-06	429.01	148	134.46	45.195	4.2588e-06	55.403	-164.117	-75.230	-83.335	-157.621	-39.786	-43.581	-157.809	-153.300	-79.205	-57.361	-153.231	-149.519	-149.067	-144.010	7.358	-144.765	-8191	255	
1379.134	1	1	0	0	0.17729	0.08693	0.18296	0.27505	0.35898	0.144	0.18241	0.1666	0.23177	0.18092	0.27816	0.14898	0.13445	0.1634	0.25381	0.0093001	-3.2083	-3.2521	-3.5146	-3.5708	-3.1542	-3.7417	-3.4833	-3.3708	-3.7146	-3.3937	-3.4375	-3.5042	-3.4958	-3.6729	-3.3187	-3.375	-158.198	-110.633	-97.113	128.951	98.723	146.610	156.319	-166.357	128.987	23.541	98.690	119.357	-21.645	161.341	127.369	-79.498	0.00050424	0.00078547	0.00012534	1404.8	3.463e-06	1.2375e-05	1408.1	374.97	5.1094e-06	3.2943e-06	429.79	146.68	133.47	44.73	6.6052e-06	54.859	0.00039305	0.00038745	0.000108	1411.2	4.2296e-06	4.2324e-06	1422.1	377.5	4.1249e-06	4.1243e-06	430.24	148.34	134.69	45.292	4.0353e-06	55.747	-165.605	-67.710	-78.973	-157.599	-32.430	-19.640	-157.661	-153.257	-45.429	-54.553	-153.399	-149.457	-148.832	-144.195	-40.305	-144.692	-8191	255	
1379.254	1	1	0	0	0.15236	0.087927	0.158	0.1519	0.099718	0.25171	0.21949	0.075568	0.13709	0.11564	0.17669	0.32992	0.13184	0.18577	0.14805	0.23674	-3.1292	-3.1771	-3.3854	-3.4938	-3.1208	-3.6875	-3.7479	-3.3063	-3.5438	-3.5208	-3.5167	-3.7271	-3.2667	-3.5187	-3.3521	-3.4458	161.696	42.757	46.338	93.091	-150.747	3.447	74.832	93.143	132.112	-167.288	174.105	113.265	177.413	-127.981	-31.486	-86.439	0.00047324	0.00025492	9.8295e-05	1404.9	1.6766e-06	3.4295e-06	1409.7	375.94	4.5396e-06	4.8005e-06	430.99	146.77	133.14	44.575	3.081e-06	54.904	0.0003773	0.00036477	0.00010103	1410	4.0299e-06	4.0133e-06	1422.6	377.79	4.1061e-06	4.0853e-06	430.5	148.39	134.58	45.129	4.2205e-06	55.569	-162.669	-125.068	-128.756	-157.558	-99.662	-39.114	-157.784	-153.215	-75.874	-94.275	-153.145	-149.629	-148.800	-144.467	-74.888	-144.857	-8191	255	
1379.326	1	1	0	0	0.16058	0.055823	0.072661	0.092607	0.20979	0.04116	0.28981	0.091294	0.18973	0.23886	0.099396	0.096738	0.20186	0.074347	0.24069	0.16773	-3.2083	-3.1417	-3.4375	-3.7438	-3.1833	-3.5625	-3.7333	-3.2104	-3.4792	-3.3667	-3.5542	-3.4354	-3.4917	-3.4396	-3.5062	-3.4021	70.167	145.628	-160.109	-82.521	137.366	-82.760	99.225	154.019	46.892	-151.318	173.392	183.334	136.230	65.994	-150.779	83.516	0.00050919	0.00060102	1.6106e-05	1406	3.2359e-06	9.5275e-06	1412.8	376.57	5.7409e-06	4.7647e-06	428.25	146.01	132.89	44.345	8.1626e-06	54.452	0.00039258	0.00038459	0.00010816	1414.1	4.2401e-06	4.2833e-06	1425.6	378.71	4.2686e-06	4.2821e-06	430.38	148.02	134.38	45.073	4.3473e-06	55.385	-160.550	-103.016	172.136	-157.549	-7.905	-33.180	-157.813	-153.241	-62.401	-5.086	-153.590	-149.399	-148.682	-144.104	-5.135	-144.639	-8191	255	
1379.422	1	1	0	0	0.38972	0.253	0.31881	0.23221	0.23843	0.22334	0.27104	0.30798	0.099222	0.059111	0.14497	0.1256	0.2014	0.16834	0.19264	0.2656	-3.0521	-3.3542	-3.2292	-3.6188	-3.1271	-3.5625	-3.5229	-3.4667	-3.5646	-3.3042	-3.425	-3.5604	-3.2292	-3.675	-3.7146	-3.3583	-74.852	-43.057	88.947	161.010	-0.444	131.041	108.979	118.514	-45.770	175.545	-132.041	166.390	-170.028	73.118	56.684	119.480	0.00051486	0.00031109	0.00016155	1406.3	5.7023e-06	5.8019e-06	1415.2	376.34	5.8729e-06	4.0011e-06	429.33	145.63	132.7	44.468	3.2049e-06	54.344	0.00041151	0.00039961	0.00011106	1413.6	4.4629e-06	4.3753e-06	1426.1	377.8	4.4379e-06	4.4267e-06	430.36	147.86	134.11	45.04	4.4358e-06	55.423	-163.186	-76.834	-77.545	-157.626	-19.971	-72.529	-157.844	-153.488	-39.553	6.561	-153.467	-149.439	-148.802	-144.012	-4.047	-144.814	-8191	255	
1379.518	1	1	0	0	0.072736	0.23359	0.19671	0.071865	0.12681	0.10623	0.20846	0.37386	0.043839	0.10859	0.061805	0.25984	0.22197	0.27086	0.049452	0.068925	-3.2271	-3.2271	-3.2812	-3.9208	-3.3625	-3.5208	-3.7917	-3.4521	-3.6	-3.3625	-3.4417	-3.8604	-3.2125	-3.7125	-3.525	-3.1771	128.952	12.092	-75.383	122.747	59.025	-168.122	114.934	129.674	-116.513	-131.749	-0.747	100.642	39.817	175.866	-168.923	126.799	0.00050215	0.00084056	9.8803e-05	1405.1	3.788e-06	7.1296e-06	1411.6	375.52	2.0272e-06	4.74e-06	427.99	145.5	132.95	44.503	5.329e-06	54.563	0.00041267	0.00040776	0.00011299	1414.5	4.5317e-06	4.4871e-06	1426.9	377.99	4.6184e-06	4.5328e-06	430.69	147.93	134.5	45.089	4.6328e-06	55.484	-159.472	-68.137	-81.634	-157.408	-74.263	-67.601	-157.754	-153.388	39.969	-28.743	-153.652	-149.308	-148.701	-144.260	-34.182	-144.676	-8191	255	
1379.639	1	1	0	0	0.020605	0.25809	0.19737	0.27774	0.10882	0.13243	0.018604	0.19584	0.20461	0.076413	0.20996	0.10521	0.2567	0.33166	0.18639	0.0066181	-3.2292	-3.4875	-3.3396	-3.6771	-3.2771	-3.3167	-3.8271	-3.3625	-3.6604	-3.5208	-3.2188	-3.9042	-3.5333	-3.3125	-3.3812	-3.3896	-156.738	26.392	-10.965	118.342	11.370	-108.543	117.221	111.496	-108.984	114.313	-129.840	120.879	-116.057	-161.110	36.860	49.396	0.00049608	0.00038892	0.00015556	1407.8	5.8622e-06	2.0426e-06	1412	375.09	5.0909e-06	8.3075e-06	427.88	145.62	132.71	44.206	3.6011e-06	54.358	0.00043007	0.00041882	0.00011792	1417.3	4.6136e-06	4.6396e-06	1428.5	377.98	4.641e-06	4.6094e-06	429.56	147.91	134.3	45.015	4.6749e-06	55.347	-162.298	-64.022	-112.237	-157.529	-68.582	-61.045	-157.914	-153.216	-78.877	-41.640	-153.526	-149.481	-148.842	-144.003	-1.629	-144.422	-8191	255	
1379.735	1	1	0	0	0.2407	0.21728	0.040741	0.39646	0.21661	0.054946	0.17797	0.071369	0.2064	0.042124	0.19769	0.12267	0.26373	0.081947	0.084653	0.13346	-3.2062	-3.3604	-3.2292	-3.6875	-3.5333	-3.375	-3.7854	-3.4854	-3.4958	-3.3854	-3.1042	-3.55	-3.2875	-3.5208	-3.5875	-3.4604	75.211	0.998	179.993	140.226	-83.606	75.356	59.581	162.766	-98.691	162.084	177.228	163.543	-170.514	-7.053	140.625	-1.267	0.0004842	3.3992e-05	4.8917e-05	1414.1	5.2443e-06	8.5314e-06	1421.3	374.74	6.5916e-06	5.5365e-06	429.75	145.61	132.14	44.267	4.3728e-06	54.443	0.00043428	0.00042634	0.00011991	1421.3	4.7906e-06	4.7331e-06	1432.3	377.81	4.8629e-06	4.8762e-06	431.13	148.04	134.16	44.943	4.9015e-06	55.288	-159.168	-76.993	-16.600	-157.471	-81.879	-56.469	-157.828	-153.169	-41.188	-28.607	-153.556	-149.364	-148.823	-143.915	9.605	-145.063	-8191	255	
1379.831	1	1	0	0	0.054637	0.083861	0.049113	0.12002	0.20024	0.047949	0.12491	0.10876	0.0164	0.21095	0.085543	0.04806	0.28734	0.13942	0.20393	0.16077	-3.1833	-3.5833	-3.2458	-3.725	-3.4875	-3.1104	-3.9021	-3.4479	-3.3479	-3.4833	-3.3208	-3.6937	-3.3375	-3.3563	-3.7812	-3.3875	-164.557	-82.194	-115.260	79.079	158.448	179.211	103.817	-24.458	174.605	147.124	100.321	-154.654	178.818	114.110	1.218	-81.424	0.00050514	0.00028315	0.00016041	1408.9	5.5663e-06	7.0271e-06	1413.2	373.5	8.3212e-06	1.9993e-06	427.81	145.72	132.25	44.158	5.0155e-06	54.291	0.0004535	0.0004467	0.00012529	1419	4.9009e-06	4.9356e-06	1429.2	377.04	4.9307e-06	4.8427e-06	430.8	147.7	134.12	44.915	4.9548e-06	55.309	-158.350	-141.827	-116.867	-157.445	-34.461	-55.154	-157.888	-153.300	-91.788	-10.629	-153.537	-149.357	-148.664	-144.058	-17.115	-144.808	-8191	255	
1379.927	1	1	0	0	0.22636	0.062079	0.26691	0.059433	0.2802	0.1279	0.17868	0.16957	0.18057	0.43245	0.18575	0.088371	0.12483	0.15159	0.23006	0.17305	-3.0667	-3.5604	-3.125	-3.7188	-3.5125	-3.2917	-3.7938	-3.3729	-3.4062	-3.5396	-3.4208	-3.4792	-3.4208	-3.2313	-3.6063	-3.3	-93.654	-77.712	66.688	142.541	-155.123	-72.924	113.928	158.629	109.661	73.450	-92.477	171.506	154.888	95.693	-133.996	87.042	0.00051263	0.00079168	9.7119e-05	1409.7	4.9131e-06	4.2694e-06	1418.6	373.48	1.9301e-06	6.219e-06	428.57	145.71	132.46	44.303	8.2736e-06	54.413	0.00045626	0.00045498	0.00012658	1420.9	5.0095e-06	4.984e-06	1431.9	377.65	4.9856e-06	4.9755e-06	430.53	147.97	134.22	44.991	4.9493e-06	55.385	-156.025	-131.622	-136.736	-157.646	-66.092	-71.719	-157.534	-153.323	-90.028	-79.814	-153.363	-149.417	-148.752	-143.980	-9.111	-144.710	-8191	255	
1380.023	1	1	0	0	0.19635	0.17517	0.18059	0.28283	0.036058	0.1035	0.051508	0.21094	0.22126	0.0061718	0.22686	0.19954	0.15599	0.10408	0.13772	0.15913	-2.7104	-3.6771	-3.2458	-3.6917	-3.6417	-3.1562	-3.8854	-3.4417	-3.3063	-3.7875	-3.3729	-3.4313	-3.5812	-3.4229	-3.4479	-3.3688	-39.757	-94.866	45.519	-137.408	115.902	-146.796	171.956	170.209	85.583	-46.246	-86.705	97.719	123.640	-160.144	-149.693	-72.396	0.00045523	0.00044294	8.3961e-05	1415	2.8285e-06	7.4168e-06	1415.5	372.63	5.5545e-06	6.4353e-06	427.98	145.59	132.2	44.227	7.9504e-06	54.33	0.0004606	0.00044804	0.00012389	1421.7	4.9212e-06	4.9542e-06	1431.1	376.8	4.9111e-06	4.9205e-06	430.3	148.11	134.29	44.978	4.955e-06	55.382	-161.710	-91.578	-9.248	-157.530	-49.837	-61.596	-157.853	-153.230	-66.799	-9.037	-153.406	-149.487	-148.725	-144.159	1.161	-144.839	-8191	255	
1380.119	1	1	0	0	0.063892	0.038207	0.13604	0.37539	0.10814	0.053344	0.18925	0.18679	0.1404	0.095786	0.12023	0.23724	0.14293	0.089809	0.038938	0.19391	-2.9979	-3.4854	-3.3271	-3.6604	-3.6146	-3.2833	-3.7521	-3.6479	-3.4896	-3.4292	-3.4729	-3.6167	-3.6437	-3.2938	-3.6833	-3.6104	-73.851	162.163	42.350	167.432	127.679	97.554	123.836	80.313	106.723	-62.362	-24.878	110.707	-109.316	-44.033	-163.633	100.402	0.00050561	0.00031032	3.1696e-05	1411.8	1.452e-06	3.8355e-06	1416.6	372.81	3.0451e-06	3.4007e-06	429.08	145.92	132.41	44.091	1.8905e-06	54.21	0.00045638	0.0004528	0.00012503	1420.6	4.995e-06	4.9519e-06	1431.6	377.4	4.9327e-06	4.9456e-06	431.12	148.4	134.18	44.914	4.9824e-06	55.245	-157.964	-44.352	166.042	-157.546	-155.423	-87.311	-157.717	-153.375	-78.984	-56.787	-153.490	-149.269	-148.710	-144.191	9.114	-144.584	-8191	255	
1380.238	1	1	0	0	0.11483	0.15516	0.13647	0.43703	0.24511	0.011247	0.21693	0.15602	0.037253	0.086508	0.18707	0.050261	0.22793	0.072833	0.2898	0.16629	-2.8937	-3.6188	-3.1771	-3.4625	-3.6208	-3.3292	-3.6437	-3.6063	-3.2958	-3.6042	-3.5479	-3.3458	-3.6729	-3.5271	-3.6208	-3.6167	-116.823	6.892	135.675	135.430	171.021	-156.226	92.240	147.314	-146.161	174.969	59.521	-124.694	-155.723	-41.774	-140.645	173.737	0.00053194	0.00024553	0.00018448	1415.3	6.7505e-06	4.1311e-06	1417.4	372.15	7.4833e-06	7.1747e-06	427.4	145.85	132.76	44.408	2.4558e-06	54.474	0.00045966	0.00045188	0.00012456	1420.5	4.8757e-06	4.8343e-06	1431.1	377.32	4.8013e-06	4.7827e-06	430.43	148.07	134.29	45.034	4.7748e-06	55.447	-164.416	-26.103	-75.321	-157.451	-44.365	-21.388	-157.902	-153.153	-46.501	-40.985	-153.555	-149.529	-148.833	-143.869	-70.522	-144.796	-8191	255	
1380.335	1	1	0	0	0.13388	0.30683	0.10439	0.16071	0.20731	0.11936	0.16705	0.082567	0.07158	0.070879	0.084955	0.31386	0.064364	0.12746	0.3059	0.2165	-2.8063	-3.6604	-3.4667	-3.4958	-3.6146	-3.3917	-3.5458	-3.6625	-3.45	-3.5687	-3.4062	-3.4062	-3.5979	-3.4979	-3.5729	-3.7188	53.908	19.477	167.568	-156.791	39.630	58.097	-170.527	-47.227	178.629	-30.776	-72.711	167.782	101.241	-160.960	110.604	92.946	0.00048037	0.00028483	0.00012807	1406.7	4.0885e-06	6.7706e-06	1416.6	373.73	5.2753e-06	6.3232e-06	429.65	145.58	132.78	44.348	6.358e-06	54.496	0.00044284	0.00042841	0.00011923	1417.8	4.7577e-06	4.842e-06	1431.4	377.19	4.8411e-06	4.7998e-06	431.14	147.95	134.28	45.036	4.8106e-06	55.448	-158.415	-99.924	-62.657	-157.436	62.413	-90.973	-157.834	-153.355	-45.034	-41.360	-153.701	-149.276	-148.725	-144.047	-49.905	-144.938	-8191	255	
1380.431	1	1	0	0	0.074525	0.29296	0.11033	0.26347	0.11694	0.1128	0.09382	0.16096	0.24909	0.10836	0.18151	0.1686	0.0085117	0.12636	0.11985	0.10912	-2.7146	-3.4896	-3.7229	-3.5292	-3.7854	-3.25	-3.375	-3.4833	-3.3	-3.8021	-3.7292	-3.2521	-3.6229	-3.4583	-3.4188	-3.6688	168.239	0.980	-96.284	164.263	128.333	-169.077	154.406	-133.819	-127.439	163.036	47.196	97.625	94.889	-162.615	-101.897	184.485	0.00050345	0.0004872	0.00015931	1412	3.0344e-06	1.0813e-05	1413.9	373.71	5.3129e-06	7.5649e-06	429.13	145.82	132.01	44.183	2.9515e-06	54.185	0.00044163	0.00043309	0.00012137	1419.5	4.7788e-06	4.7098e-06	1430.2	377.56	4.7154e-06	4.7495e-06	431.33	148.01	134.2	45.004	4.7084e-06	55.332	-159.967	-76.377	-67.921	-157.521	-2.303	-64.045	-157.878	-153.453	-73.306	-10.573	-153.137	-149.368	-148.653	-144.246	-0.586	-144.672	-8191	255	
1380.527	1	1	0	0	0.062907	0.065657	0.27134	0.31089	0.13961	0.19117	0.26667	0.16844	0.12288	0.1031	0.15848	0.12517	0.19157	0.14815	0.14136	0.094464	-2.8333	-3.4354	-3.4875	-3.4167	-3.7979	-3.4437	-3.6042	-3.7667	-3.1813	-3.4313	-3.5625	-3.3729	-3.6292	-3.4792	-3.3479	-3.7604	-130.116	159.566	34.104	124.375	158.711	-89.718	129.622	148.116	136.450	-128.550	87.470	-155.433	103.568	95.104	-10.537	133.978	0.00048919	0.00053046	0.00015033	1409.4	4.1021e-06	7.8455e-06	1416.8	374.07	4.685e-06	2.6383e-06	429.13	146.29	133.23	44.507	4.7971e-06	54.459	0.00043039	0.00042249	0.00011763	1418.4	4.6105e-06	4.6093e-06	1431.3	377.65	4.5742e-06	4.5443e-06	430.34	148.46	134.55	45.107	4.5885e-06	55.439	-160.609	-48.483	-114.116	-157.548	-119.162	-9.235	-157.777	-153.238	4.368	1.039	-153.620	-149.395	-148.662	-144.138	-10.819	-144.739	-8191	255	
1380.623	1	1	0	0	0.24644	0.060447	0.078083	0.28561	0.15776	0.14413	0.25039	0.14208	0.23278	0.1025	0.14097	0.28576	0.074498	0.12515	0.24093	0.25031	-2.7229	-3.3937	-3.5604	-3.5729	-3.6813	-3.5187	-3.5104	-3.7479	-3.3167	-3.4042	-3.7938	-3.3438	-3.5687	-3.55	-3.3438	-3.7917	82.705	-71.150	-152.619	167.121	-152.373	125.229	156.544	116.966	-128.973	183.676	-90.732	170.041	-7.700	124.556	67.260	-113.376	0.00054851	0.00042295	8.9135e-05	1409.9	3.7393e-06	3.9865e-06	1413.9	373.86	3.2064e-06	3.6443e-07	430.47	145.19	132.82	44.31	6.0457e-06	54.543	0.0004227	0.0004165	0.00011649	1417.9	4.6436e-06	4.6703e-06	1429.7	377.49	4.7075e-06	4.6725e-06	431.61	148.02	134.47	44.969	4.7355e-06	55.492	-160.247	-111.083	-89.278	-157.599	-35.851	-89.692	-157.718	-153.073	-36.841	-80.150	-153.588	-149.224	-148.751	-143.762	-3.593	-144.957	-8191	255	
1380.719	1	1	0	0	0.21916	0.1111	0.18174	0.21569	0.29506	0.089808	0.29652	0.2419	0.13217	0.14191	0.096489	0.24407	0.088422	0.1332	0.078358	0.077436	-2.9042	-3.4208	-3.5938	-3.4	-3.4583	-3.5354	-3.4375	-3.7396	-3.1833	-3.3438	-3.6958	-3.4354	-3.6042	-3.5542	-3.1167	-3.7854	-46.142	75.403	-97.634	123.228	-22.853	23.220	147.957	66.184	-91.292	186.908	37.146	131.064	116.251	-136.038	37.278	-100.950	0.00052414	0.00071057	7.6838e-05	1410.6	4.9446e-06	5.71e-06	1416.4	374	1.8606e-06	5.2603e-06	427.42	145.94	131.2	44.107	3.0779e-06	54.034	0.00043987	0.00042732	0.00012039	1417.5	4.7351e-06	4.6921e-06	1428.8	377.06	4.8085e-06	4.7742e-06	429.65	147.77	133.75	44.815	4.9497e-06	55.175	-162.385	-53.300	-40.954	-157.448	-29.060	-40.886	-157.598	-153.525	-62.438	-77.625	-153.692	-149.404	-148.810	-144.212	7.179	-144.671	-8191	255	
1380.815	1	1	0	0	0.097597	0.14751	0.13881	0.35653	0.089169	0.18186	0.28535	0.37545	0.085686	0.2057	0.39267	0.12209	0.075335	0.024681	0.084713	0.043942	-2.9958	-3.3292	-3.6188	-3.3854	-3.4313	-3.5271	-3.4083	-3.8375	-3.4333	-3.1667	-3.6771	-3.3396	-3.6583	-3.8146	-3.1542	-3.6104	128.075	3.446	-153.512	-165.764	32.928	39.625	109.766	131.119	73.585	-71.655	148.572	41.156	-8.077	39.264	-109.487	-89.816	0.00050842	0.00044719	6.9961e-05	1409.1	4.4345e-06	3.0748e-06	1412.7	372.03	5.329e-06	7.6996e-06	422.63	144.94	131.91	43.966	5.0643e-06	53.814	0.00045993	0.00045687	0.00012695	1417.8	5.0636e-06	5.0914e-06	1430.6	376.03	5.0983e-06	5.1352e-06	428.83	147.36	133.85	44.725	5.0479e-06	55.082	-160.704	-98.133	-82.445	-157.503	-97.777	-38.212	-157.637	-153.308	-32.361	-88.825	-153.417	-149.402	-148.687	-144.145	-4.449	-144.770	-8191	255	
1380.934	1	1	0	0	0.20154	0.30513	0.15951	0.18435	0.21178	0.15788	0.3878	0.43291	0.080214	0.16408	0.17632	0.23113	0.03361	0.19337	0.041408	0.22018	-3.1917	-3.2875	-3.6292	-3.5646	-3.4958	-3.7729	-3.4313	-3.6896	-3.3521	-3.5187	-3.775	-3.1792	-3.5	-3.6979	-3.25	-3.6979	21.434	116.043	-27.511	107.444	21.679	28.011	116.982	166.227	-85.488	-108.077	177.325	166.925	29.134	172.824	159.352	-123.430	0.00052857	0.00058714	3.17e-05	1407.2	2.5158e-06	6.0736e-06	1414.5	369.97	6.1636e-06	7.0795e-06	424.77	144.61	131.02	44.115	3.8953e-06	53.828	0.00045952	0.00045711	0.00012727	1414.9	5.0087e-06	5.0403e-06	1428	374.98	5.0265e-06	5.0012e-06	428.93	147.31	133.6	44.696	5.0719e-06	55.041	-159.466	-55.915	17.285	-157.530	-83.225	17.122	-157.665	-153.409	-68.448	-112.993	-153.611	-149.317	-148.398	-144.128	-32.809	-144.859	-8191	255	
1381.030	1	1	0	0	0.13959	0.23569	0.12008	0.25741	0.15222	0.2306	0.076761	0.09319	0.14924	0.13945	0.41207	0.097251	0.07593	0.13919	0.17357	0.30988	-3.1146	-3.3729	-3.4521	-3.6729	-3.5521	-3.5479	-3.65	-3.6021	-3.4708	-3.4792	-3.6146	-3.5438	-3.6063	-3.6333	-3.3438	-3.4458	-84.820	61.049	-52.175	152.809	-41.273	147.527	43.058	116.573	-165.108	37.408	122.194	-22.836	-137.199	-99.107	138.057	180.791	0.00044245	0.00052741	0.00020476	1402.8	6.2208e-06	1.0929e-05	1409.5	369.81	6.8529e-06	4.9657e-06	425.12	144.54	131.85	43.918	4.0372e-06	53.758	0.00046764	0.00046321	0.00012902	1415.9	5.1078e-06	5.1295e-06	1427.5	374.52	5.1493e-06	5.1933e-06	429.16	147.14	133.52	44.684	5.1846e-06	55.013	-168.998	-101.855	-91.822	-157.516	-100.001	-27.807	-157.806	-153.024	-47.700	-165.461	-153.647	-149.235	-149.083	-143.977	-26.853	-144.734	-8191	255	
1381.126	1	1	0	0	0.13724	0.060994	0.12052	0.33176	0.057521	0.066657	0.11795	0.2574	0.2083	0.10802	0.093656	0.19893	0.12482	0.17021	0.13914	0.53347	-3.0708	-3.2896	-3.5187	-3.4562	-3.1271	-3.6	-3.6271	-3.65	-3.6021	-3.1583	-3.4833	-3.6312	-3.2271	-3.6917	-3.2104	-3.375	-106.996	-123.867	-147.202	187.683	33.703	136.013	52.316	87.928	79.215	9.633	86.740	131.283	79.790	-137.915	-22.086	100.631	0.00052778	0.00049575	0.00019076	1405.4	4.3132e-06	3.8882e-06	1408.1	370.69	2.7532e-06	4.7237e-07	423.83	144.91	130.53	43.839	4.0875e-06	53.783	0.00047549	0.00046905	0.00013154	1416.7	5.193e-06	5.228e-06	1427.2	374.51	5.2309e-06	5.1881e-06	427.63	146.82	133.15	44.63	5.1813e-06	54.909	-158.999	-101.059	-116.154	-157.701	-57.418	-90.062	-157.799	-153.274	-38.480	37.669	-153.464	-149.262	-148.626	-144.046	-104.384	-144.858	-8191	255	
1381.200	1	1	0	0	0.31638	0.086593	0.49098	0.093873	0.15728	0.2067	0.25405	0.107	0.2016	0.29018	0.10891	0.41222	0.051115	0.20746	0.16901	0.25774	-3.15	-3.2229	-3.2854	-3.8583	-3.1646	-3.5396	-3.5708	-3.3229	-3.6333	-3.225	-3.5167	-3.4521	-3.2333	-3.7458	-3.2604	-3.5771	41.716	-12.359	-63.564	105.478	-12.215	-133.604	153.566	-121.004	-2.210	-29.354	-165.385	137.606	153.999	185.669	135.278	188.181	0.00045217	0.00041341	0.00015795	1404	1.6045e-06	5.5545e-06	1407.5	368.32	3.6984e-06	6.839e-07	424.35	143.04	130.73	43.732	4.4891e-06	53.618	0.00047343	0.00046643	0.00012987	1412.5	5.1477e-06	5.1671e-06	1423.8	373.37	5.2457e-06	5.2838e-06	427.77	146.18	133.01	44.433	5.322e-06	54.715	-164.945	-72.819	-87.537	-157.583	-52.879	-32.623	-157.559	-153.309	-57.914	31.346	-153.459	-149.512	-148.488	-143.712	-16.871	-144.834	-8191	255	
1381.319	1	1	0	0	0.3683	0.10066	0.13048	0.14713	0.18608	0.14105	0.14195	0.15913	0.20889	0.24209	0.25519	0.13138	0.1917	0.1204	0.22627	0.085412	-3.1396	-3.0583	-3.4437	-3.7458	-3.2229	-3.5938	-3.725	-3.5375	-3.7687	-3.2604	-3.6333	-3.4562	-3.1875	-3.6937	-3.5271	-3.325	159.910	78.862	147.397	172.787	-36.985	167.079	76.035	177.711	-22.761	-129.852	-102.700	140.964	117.012	-69.409	97.110	27.781	0.00047786	0.00017865	0.00012755	1398.8	5.3798e-06	3.1457e-06	1403.5	368.39	1.8164e-06	4.6917e-06	422.18	143.05	130.41	43.603	2.67e-06	53.435	0.0004871	0.00048374	0.00013423	1409.9	5.3209e-06	5.3236e-06	1421.6	372.67	5.2956e-06	5.3437e-06	426.71	146.06	132.78	44.378	5.348e-06	54.679	-160.964	-98.356	-103.746	-157.564	-153.727	-105.465	-157.856	-153.250	-51.720	-97.473	-153.419	-149.278	-148.608	-143.819	-16.394	-144.469	-8191	255	
1381.415	1	1	0	0	0.25367	0.14415	0.23755	0.19839	0.24916	0.23446	0.14803	0.23439	0.17378	0.20427	0.097281	0.22957	0.12453	0.28058	0.13444	0.27971	-3.2854	-3.3625	-3.4333	-3.8	-3.4188	-3.4792	-3.6042	-3.5729	-3.7646	-3.2812	-3.5438	-3.6042	-3.3896	-3.4896	-3.5896	-3.25	26.725	-15.206	72.098	145.885	117.124	-101.276	175.502	85.230	13.679	-38.240	44.607	155.309	-123.031	154.441	-84.902	139.845	0.00046745	0.00034084	0.00013009	1399.2	4.631e-06	8.8437e-06	1409.8	369.39	3.568e-06	4.4422e-06	421.62	143.24	130.26	43.524	5.1154e-06	53.568	0.00048975	0.00048381	0.00013552	1410	5.3387e-06	5.3676e-06	1423.2	372.46	5.2935e-06	5.2765e-06	426.58	146.03	132.73	44.368	5.4398e-06	54.73	-155.871	-15.787	-120.103	-157.526	-96.406	-24.197	-157.786	-153.158	-65.443	-34.067	-153.250	-149.387	-148.741	-143.787	-4.161	-144.755	-8191	255	
1381.511	1	1	0	0	0.21231	0.29216	0.19884	0.10406	0.2277	0.17069	0.22315	0.24777	0.045751	0.19529	0.24843	0.26845	0.18907	0.072617	0.14406	0.11208	-3.0875	-3.3667	-3.2313	-3.7729	-3.4208	-3.5125	-3.6292	-3.325	-3.5312	-3.4833	-3.4813	-3.8	-3.4188	-3.7417	-3.4792	-3.3479	163.276	-27.747	141.758	111.584	37.590	-56.931	141.674	86.125	-69.990	145.200	126.229	139.308	-142.472	-62.304	160.370	-32.000	0.00048358	0.00021651	9.5877e-05	1400.2	2.5007e-06	3.6198e-06	1401.3	368.08	6.2936e-06	4.9324e-06	421.17	142.6	130.27	43.337	4.0327e-06	53.117	0.00050158	0.00049797	0.00014001	1412.9	5.5177e-06	5.5535e-06	1421.9	372.46	5.5646e-06	5.6016e-06	426.38	145.79	132.71	44.218	5.6658e-06	54.547	-160.133	-77.895	-126.294	-157.455	-69.775	-91.966	-157.808	-153.368	-108.829	0.408	-153.649	-149.375	-148.608	-144.010	-1.556	-144.712	-8191	255	
1381.607	1	1	0	0	0.18751	0.10529	0.16433	0.24229	0.0017608	0.052941	0.16073	0.22754	0.046172	0.15264	0.19341	0.15407	0.15179	0.063057	0.20088	0.16601	-3.425	-3.4271	-3.2792	-3.7604	-3.3438	-3.5125	-3.6792	-3.1625	-3.5792	-3.3917	-3.2562	-3.7396	-3.4437	-3.4062	-3.5521	-3.4458	-98.233	156.899	82.539	173.027	180.000	114.007	142.966	169.875	53.403	75.234	-160.986	105.807	156.275	39.113	22.087	178.211	0.00055364	0.0010322	0.00015762	1402.8	2.4636e-06	2.5557e-06	1404.4	366.09	7.8327e-06	3.2504e-06	422.2	141.94	130.04	43.192	5.3888e-06	53.299	0.00051331	0.0005161	0.00014485	1412.1	5.7693e-06	5.785e-06	1424.3	372.12	5.842e-06	5.8685e-06	427.16	145.72	132.53	44.172	5.8935e-06	54.581	-161.840	-80.487	-108.178	-157.626	-113.218	-13.120	-157.687	-153.271	-62.589	-48.153	-153.599	-149.468	-148.564	-143.965	-4.084	-144.708	-8191	255	
1381.728	1	1	0	0	0.17231	0.15894	0.0095663	0.33633	0.057814	0.23325	0.054659	0.19676	0.25145	0.2749	0.10576	0.16347	0.31755	0.1558	0.24808	0.30994	-3.1854	-3.4437	-3.2104	-3.8104	-3.2042	-3.1771	-3.7292	-3.4167	-3.5875	-3.4854	-3.3333	-3.6042	-3.3125	-3.3646	-3.5792	-3.1021	-148.360	6.600	-109.327	168.910	176.802	-2.661	-166.465	126.271	60.092	11.387	25.951	-154.306	-134.517	160.395	104.842	74.447	0.00050719	0.00050582	0.00022091	1399.9	1.2256e-06	5.4912e-06	1398.5	366.02	6.2909e-06	5.0041e-06	418.87	143.01	129.61	43.07	4.2313e-06	53.098	0.00054561	0.00053469	0.00015183	1411.9	6.0619e-06	6.0708e-06	1422.5	371.72	6.0825e-06	6.0935e-06	427.04	145.65	132.42	44.056	6.045e-06	54.505	-170.267	-101.406	-55.201	-157.663	69.054	-60.094	-157.707	-153.091	-40.963	33.721	-153.585	-149.450	-148.659	-144.128	-39.596	-144.646	-8191	255	
1381.799	1	1	0	0	0.11856	0.11517	0.070483	0.35193	0.05419	0.11292	0.29889	0.13343	0.15503	0.22777	0.18268	0.27915	0.19675	0.10127	0.15164	0.062874	-3.1625	-3.4208	-3.125	-3.6521	-3.5021	-3.225	-3.6208	-3.3354	-3.5542	-3.4188	-3.2583	-3.6146	-3.3083	-3.3229	-3.65	-3.4146	161.228	166.959	-19.549	164.163	71.209	-122.385	153.332	139.252	116.539	-55.159	23.913	131.508	-160.020	56.363	-50.643	33.829	0.00055598	0.00056916	8.4713e-05	1396.9	3.0305e-06	3.926e-06	1400.7	368.41	8.2644e-06	6.011e-06	419.52	142.48	130.35	43.242	3.4925e-06	53.26	0.00054583	0.00054836	0.00015094	1411.9	5.9662e-06	6.0741e-06	1422.7	372.43	6.0085e-06	6.0487e-06	426.57	145.46	132.69	44.167	6.0301e-06	54.541	-154.138	-103.902	-138.287	-157.553	-136.188	-5.034	-157.766	-153.196	-83.843	-89.634	-153.420	-149.248	-148.537	-144.107	-67.442	-144.360	-8191	255	
1381.920	1	1	0	0	0.079468	0.10948	0.14635	0.16666	0.20058	0.15413	0.25581	0.14475	0.17868	0.31294	0.088655	0.15554	0.1697	0.24797	0.22475	0.084381	-2.9854	-3.4396	-3.35	-3.5854	-3.3708	-3.2438	-3.7438	-3.3125	-3.2104	-3.5563	-3.3667	-3.5333	-3.3292	-3.1292	-3.5812	-3.4125	-90.921	127.051	106.013	118.727	-11.780	19.140	124.771	131.800	44.905	107.559	170.138	75.145	-53.453	147.618	18.703	61.215	0.00051223	0.00054093	0.00013513	1396.8	4.7491e-06	6.3044e-06	1406.6	365.86	2.3742e-06	2.1966e-06	418.92	142.65	129.72	43.207	1.9952e-06	53.284	0.00054778	0.00054316	0.00015083	1412.2	5.9974e-06	5.9084e-06	1424.8	371.33	5.8437e-06	5.8445e-06	426.09	145.61	132.21	44.15	5.7399e-06	54.489	-161.396	-126.861	-51.799	-157.527	-16.854	-16.129	-157.558	-153.171	-50.723	-72.551	-153.528	-149.440	-148.609	-143.990	-153.208	-144.765	-8191	255	
1382.016	1	1	0	0	0.035824	0.24682	0.14349	0.32725	0.17378	0.1402	0.28123	0.07784	0.23839	0.15081	0.17608	0.031429	0.075721	0.16141	0.24008	0.11198	-2.8479	-3.4479	-2.9604	-3.4833	-3.3146	-3.3771	-3.8542	-3.4271	-3.2646	-3.5208	-3.3979	-3.6188	-3.5396	-3.1688	-3.4104	-3.2125	173.862	90.072	-85.201	108.782	88.566	-148.409	89.711	-29.387	42.232	106.245	119.030	186.328	61.439	89.318	28.069	-151.077	0.00048079	0.00078269	0.00015578	1397.7	4.0439e-06	7.2152e-06	1402.2	366.16	1.1481e-05	5.8736e-06	418.47	142.64	130.24	43.084	4.1321e-06	53.031	0.00052019	0.00051435	0.00014449	1408.7	5.6599e-06	5.6637e-06	1421.3	371.28	5.6414e-06	5.6658e-06	425.56	145.38	132.34	44.045	5.6913e-06	54.395	-164.505	-64.185	-117.924	-157.524	-66.885	-51.588	-157.834	-153.470	-63.883	-23.977	-153.589	-149.406	-148.860	-143.871	-1.378	-144.870	-8191	255	
1382.111	1	1	0	0	0.16311	0.13534	0.16669	0.46318	0.15765	0.11073	0.24281	0.21767	0.083265	0.10775	0.16636	0.17012	0.29375	0.31788	0.21716	0.1738	-2.8563	-3.6208	-2.9271	-3.5187	-3.3979	-3.3833	-3.5979	-3.1292	-3.2104	-3.6354	-3.2792	-3.5167	-3.7229	-3.2771	-3.35	-3.3604	60.666	158.198	-156.522	186.097	-28.571	56.041	178.412	116.996	24.078	-120.129	-161.765	-2.767	110.698	81.015	-61.212	83.939	0.00050544	0.00031048	9.6124e-05	1393.9	5.691e-06	1.0544e-05	1402.5	365.56	6.7566e-06	4.4229e-06	418.11	142.48	129.96	43.102	4.8197e-06	52.905	0.00051908	0.00052229	0.00014569	1409.1	5.8532e-06	5.8313e-06	1420.5	371.04	5.7878e-06	5.8599e-06	425.44	145.5	132.37	44.051	5.9804e-06	54.36	-167.080	-77.693	-78.537	-157.480	-84.163	-39.029	-157.661	-153.059	-95.880	-11.232	-153.250	-149.197	-148.592	-143.898	-30.506	-144.621	-8191	255	
1382.209	1	1	0	0	0.27413	0.29419	0.092411	0.27658	0.14016	0.087618	0.22449	0.26648	0.21132	0.26316	0.070711	0.20382	0.21506	0.13354	0.15169	0.16733	-2.7771	-3.5125	-3.2354	-3.4813	-3.4479	-3.2604	-3.8667	-3.5229	-3.3563	-3.6063	-3.35	-3.5542	-3.6646	-3.2917	-3.675	-3.4896	-128.919	44.706	-149.368	150.824	-141.206	-91.644	58.636	125.862	173.127	121.527	174.770	29.702	164.798	159.278	-136.865	89.106	0.00045052	0.00061236	0.00010811	1402.3	3.3057e-06	3.152e-06	1400.9	365.79	1.0142e-07	3.4082e-06	420.4	142.32	129.69	43.164	7.0015e-06	52.912	0.00055006	0.00055426	0.00015333	1411.7	6.0665e-06	6.0734e-06	1420.9	371.1	6.0629e-06	6.0989e-06	426.76	145.44	132.15	44.123	5.9911e-06	54.393	-154.945	-93.614	-70.405	-157.414	-38.470	-131.032	-157.913	-153.168	78.291	6.498	-153.469	-149.368	-148.939	-143.873	-16.089	-144.872	-8191	255	
1382.327	1	1	0	0	0.28221	0.081278	0.11304	0.33118	0.098768	0.17506	0.33275	0.19061	0.046653	0.1102	0.074173	0.32524	0.13417	0.35454	0.071443	0.21222	-2.775	-3.6854	-3.2521	-3.4708	-3.6813	-3.0333	-3.6917	-3.4437	-3.3	-3.6896	-3.3208	-3.4708	-3.8312	-3.3958	-3.3875	-3.5458	-162.996	-122.682	-12.407	172.673	125.681	-168.964	105.296	13.654	-51.210	-147.393	49.275	125.450	67.397	162.446	-78.971	71.282	0.0004293	0.00084096	0.00011993	1394	1.6818e-06	1.1041e-05	1405.1	366.48	7.7211e-06	5.6844e-06	420.81	142.77	129.38	43.536	4.4329e-06	53.405	0.00054386	0.00054367	0.00015289	1410.3	5.8514e-06	5.9136e-06	1422.1	371.2	5.9288e-06	5.835e-06	425.78	145.8	132.39	44.226	5.7569e-06	54.559	-158.633	-100.177	-22.709	-157.489	-38.533	-23.683	-157.664	-153.402	-36.677	-22.996	-153.696	-149.230	-148.726	-144.105	-47.098	-144.397	-8191	255	
1382.424	1	1	0	0	0.045588	0.21926	0.23491	0.38373	0.1151	0.11429	0.43078	0.14654	0.2638	0.13436	0.19711	0.25261	0.21943	0.085094	0.062069	0.43738	-2.8354	-3.4979	-3.3375	-3.4208	-3.5563	-3.3542	-3.7125	-3.5771	-3.1458	-3.6792	-3.5563	-3.3812	-3.7	-3.3229	-3.4271	-3.4688	14.640	-18.268	-2.197	163.511	-28.525	-121.976	130.820	93.254	-18.486	-144.248	86.988	164.248	-116.623	-103.849	-68.988	115.669	0.00047247	0.00057644	0.00016775	1396.6	2.6922e-06	4.8516e-06	1402.7	365.27	5.8998e-06	6.1889e-06	421.67	142.13	129.63	43.198	4.2228e-06	53.043	0.00051651	0.00052275	0.00014508	1409.8	5.7341e-06	5.7269e-06	1420.5	370.72	5.7509e-06	5.8033e-06	425.79	145.28	132.16	44.125	5.7857e-06	54.487	-158.204	-120.704	-42.093	-157.482	-107.464	-105.042	-157.875	-153.206	-89.812	-9.011	-153.462	-149.237	-148.766	-144.240	1.977	-144.717	-8191	255	
1382.495	1	1	0	0	0.20987	0.093098	0.14496	0.26672	0.10771	0.092889	0.1813	0.20326	0.086455	0.18322	0.17398	0.18945	0.23045	0.21	0.11821	0.17791	-2.7604	-3.5271	-3.1813	-3.4271	-3.3812	-3.3979	-3.5542	-3.7458	-3.1542	-3.5062	-3.5167	-3.3521	-3.6333	-3.4958	-3.225	-3.6458	-77.778	2.486	66.209	162.471	-47.806	181.717	122.562	158.082	-169.997	25.918	-31.958	103.557	183.209	110.540	-77.459	-110.873	0.00049028	0.0007738	8.1413e-05	1398.6	6.8579e-06	5.3229e-06	1401.2	365.4	6.2084e-06	9.2317e-06	419.96	142.52	129.38	43.202	4.1681e-06	52.869	0.00053191	0.00052838	0.00014824	1409.2	5.8985e-06	5.8713e-06	1420.6	371.25	5.9665e-06	5.9459e-06	426.48	145.56	132.35	44.127	5.8848e-06	54.409	-158.191	-98.856	-130.178	-157.487	-21.787	-47.866	-157.774	-153.365	-78.495	-44.754	-153.182	-149.307	-148.561	-143.940	-35.474	-144.756	-8191	255	
1382.616	1	1	0	0	0.19036	0.079896	0.099506	0.14265	0.17636	0.092547	0.13759	0.12984	0.18755	0.12325	0.28049	0.30894	0.1924	0.043991	0.12028	0.23442	-2.8271	-3.3187	-3.4521	-3.3104	-3.4708	-3.2458	-3.3375	-3.6458	-3.3604	-3.4646	-3.4208	-3.4	-3.55	-3.3271	-3.3042	-3.7104	110.050	179.255	-120.461	158.569	83.859	-1.118	123.505	-113.674	33.012	-99.321	137.062	83.193	188.066	-57.878	-156.913	50.147	0.00050667	0.00041487	0.00012902	1397.5	4.2977e-06	4.8958e-06	1398.5	365.13	1.9611e-06	1.0528e-05	418.22	142.72	129.53	43.039	9.0803e-06	52.957	0.00053637	0.00053958	0.00015075	1410.8	6.0014e-06	5.9548e-06	1421.5	370.99	6.0567e-06	6.0324e-06	425.31	145.41	131.97	44.051	5.9663e-06	54.321	-162.552	-95.966	-95.683	-157.496	-115.154	-42.608	-157.721	-153.254	-71.303	-19.153	-153.410	-149.378	-148.724	-144.140	-77.829	-144.720	-8191	255	
1382.712	1	1	0	0	0.14012	0.28173	0.16696	0.22907	0.22584	0.20218	0.39412	0.10794	0.12675	0.20406	0.19895	0.055445	0.32138	0.16897	0.26976	0.17429	-2.9	-3.2792	-3.5542	-3.5458	-3.4062	-3.7208	-3.4188	-3.5271	-3.3979	-3.4313	-3.5396	-3.4833	-3.7125	-3.6	-3.2708	-3.7792	178.119	-130.875	49.422	118.565	72.598	-79.873	186.096	-120.602	33.468	121.448	95.258	148.397	179.944	-41.614	109.717	-120.433	0.00047697	0.00031212	0.00020697	1398	1.8542e-06	1.0163e-05	1399.3	364.54	3.4615e-06	8.1796e-06	419.84	141.94	129.84	43.158	3.063e-06	53.224	0.00054256	0.0005425	0.00015149	1410.1	5.9797e-06	5.9429e-06	1419.8	370.74	5.9243e-06	5.8629e-06	426.01	145.11	132.07	43.957	5.7976e-06	54.405	-163.691	-72.603	-74.934	-157.350	2.046	-72.514	-157.849	-153.250	-91.934	-42.715	-153.494	-149.360	-148.547	-144.091	-1.776	-144.522	-8191	255	
1382.808	1	1	0	0	0.23487	0.094074	0.069672	0.12998	0.19307	0.14998	0.030256	0.029711	0.053989	0.11604	0.23632	0.067961	0.1704	0.18867	0.19545	0.12785	-2.8708	-3.1583	-3.6229	-3.5438	-3.2792	-3.6021	-3.4125	-3.4729	-3.5375	-3.2375	-3.6104	-3.4688	-3.4979	-3.55	-3.1833	-3.5708	132.129	-167.866	7.555	-115.949	171.199	-154.859	-147.661	-154.641	-58.509	-74.839	-161.373	-91.869	-130.555	181.311	119.409	99.626	0.00050725	0.00028457	0.00023456	1394.1	5.1871e-06	3.7994e-06	1401.9	365.59	3.881e-06	4.1586e-06	418.41	141.93	129.49	43.077	6.983e-06	53.039	0.00052865	0.00052785	0.00014729	1408.7	5.8238e-06	5.8424e-06	1420.2	370.23	5.8174e-06	5.7898e-06	424.98	144.8	131.83	43.997	5.8687e-06	54.329	-156.314	-132.612	-104.424	-157.369	-80.884	-11.068	-157.747	-153.129	-71.482	1.562	-153.353	-149.417	-148.523	-143.880	-22.584	-144.534	-8191	255	
1382.904	1	1	0	0	0.16581	0.11624	0.10272	0.32885	0.11931	0.14449	0.17265	0.089775	0.11253	0.12937	0.032356	0.44657	0.32225	0.39187	0.057076	0.24182	-2.9375	-3.3146	-3.5583	-3.3917	-3.2396	-3.6688	-3.3937	-3.6333	-3.3833	-3.1583	-3.6208	-3.4083	-3.4771	-3.7708	-3.1021	-3.3958	163.995	-76.738	-119.468	160.495	43.216	-157.619	178.423	83.543	98.364	-70.522	-105.228	132.765	80.478	161.663	-128.717	88.485	0.00043671	4.8681e-05	6.504e-05	1394.1	6.1385e-06	5.0767e-06	1396.8	365.12	3.5182e-06	6.9112e-06	418.88	142.52	129.57	43.027	4.8522e-06	52.757	0.00052737	0.00052995	0.00014704	1405.1	5.8051e-06	5.8273e-06	1417.6	370.24	5.7224e-06	5.7909e-06	425.19	145.24	132	43.883	5.7893e-06	54.216	-165.432	-105.432	-63.352	-157.438	-38.206	7.191	-157.725	-153.139	-50.311	-10.246	-153.359	-149.456	-148.583	-144.107	-14.341	-144.225	-8191	255	
1383.023	1	1	0	0	0.09594	0.10961	0.21013	0.3359	0.053583	0.23426	0.37743	0.40789	0.12617	0.052158	0.1637	0.1732	0.10846	0.1416	0.35432	0.28445	-3.1417	-3.2896	-3.5146	-3.4042	-3.1979	-3.5896	-3.4146	-3.6521	-3.3917	-3.4271	-3.4854	-3.4479	-3.2313	-3.7167	-3.2479	-3.5021	-124.656	-116.687	16.330	151.877	70.048	-64.941	166.073	151.421	152.873	-122.611	-113.429	141.359	-147.822	-129.947	73.542	144.548	0.00048048	0.0005724	8.4936e-05	1392	4.5626e-06	3.1331e-06	1395	363.64	8.8318e-06	3.2403e-06	417.4	141.91	129.51	43.055	3.6741e-06	52.793	0.00052852	0.00053223	0.00014935	1404.5	5.9237e-06	5.8857e-06	1416.4	370.02	5.8946e-06	5.9219e-06	424.53	144.89	131.71	43.943	5.9118e-06	54.22	-158.116	-52.112	-74.850	-157.474	-57.721	-157.790	-157.724	-153.125	-66.008	-3.027	-153.187	-149.499	-148.464	-144.020	-64.187	-144.627	-8191	255	
1383.097	1	1	0	0	0.1909	0.093436	0.048702	0.18755	0.098767	0.17871	0.26628	0.032531	0.13438	0.20861	0.1714	0.058006	0.34823	0.1296	0.11289	0.089622	-3.0542	-3.2125	-3.6229	-3.5479	-3.3667	-3.5625	-3.5583	-3.5104	-3.2792	-3.3	-3.5917	-3.5625	-3.2812	-3.825	-3.2417	-3.5292	-139.585	12.747	13.728	91.373	-75.084	-3.178	-162.459	98.600	61.389	69.600	-1.230	-7.636	-140.444	-128.208	70.282	107.310	0.00044993	0.00028452	0.00010682	1389.8	5.1746e-06	6.2949e-06	1395.6	365.68	6.6592e-06	5.3516e-06	417.39	141.49	129.33	42.908	6.8234e-06	52.728	0.00053372	0.00053515	0.00014864	1403.7	5.8674e-06	5.8418e-06	1414.9	370.15	5.839e-06	5.8004e-06	423.75	144.67	131.49	43.809	5.8615e-06	54.147	-157.903	-86.342	-16.566	-157.328	-31.862	-75.271	-157.673	-153.130	-57.142	-103.688	-153.162	-149.456	-148.674	-143.962	-51.839	-144.517	-8191	255	
1383.191	1	1	0	0	0.28526	0.32176	0.11689	0.1842	0.23404	0.13185	0.26254	0.20921	0.072395	0.16107	0.020241	0.17363	0.29042	0.13092	0.24301	0.29793	-3.0604	-3.3104	-3.3187	-3.6667	-3.225	-3.5729	-3.4896	-3.5167	-3.3479	-3.1875	-3.6479	-3.5146	-3.1854	-3.6396	-3.375	-3.3417	97.030	144.057	-81.477	116.878	-10.533	25.107	108.333	110.222	-27.175	-85.476	-141.544	54.370	117.810	166.670	-158.640	93.315	0.00050384	0.00043472	0.00018203	1390.8	1.5311e-06	4.7033e-06	1398	364.54	8.1564e-06	5.0872e-06	418.5	141.25	128.81	43.053	5.3331e-06	53.057	0.00053685	0.00054309	0.00015035	1403.9	5.8909e-06	5.9071e-06	1415.4	369.92	5.8769e-06	5.8473e-06	424.72	144.72	131.42	43.925	5.8009e-06	54.261	-166.825	-134.173	-142.952	-157.483	-38.646	-62.225	-157.792	-153.153	-73.429	-85.852	-153.441	-149.308	-148.561	-143.900	-63.615	-144.324	-8191	255	
1383.289	1	1	0	0	0.17487	0.019878	0.17091	0.27534	0.19937	0.089491	0.076011	0.28805	0.19537	0.18356	0.20349	0.18598	0.20175	0.29761	0.045075	0.22926	-3.0792	-3.1417	-3.7062	-3.5125	-3.2354	-3.6125	-3.6458	-3.4271	-3.5833	-3.2896	-3.6396	-3.7208	-3.4292	-3.7917	-3.2042	-3.6854	-0.462	3.555	-89.254	162.157	-170.808	-55.797	-60.072	173.553	-144.042	-35.607	177.871	73.623	139.311	-165.069	0.275	-168.481	0.00047263	0.00034533	8.8524e-05	1390.9	3.0022e-06	5.2092e-06	1395.7	365.19	3.3405e-06	1.2368e-06	418.3	142.38	129.3	42.914	5.4879e-06	52.775	0.00052592	0.00053285	0.00014821	1405.4	5.749e-06	5.8257e-06	1414.4	369.82	5.8451e-06	5.9237e-06	425.21	145	131.84	43.928	5.8956e-06	54.319	-161.099	-98.236	-86.825	-157.332	-167.654	-51.398	-158.007	-153.404	-37.057	-71.349	-153.289	-149.165	-148.473	-143.993	-23.463	-144.559	-8191	255	
1383.408	1	1	0	0	0.12714	0.072676	0.27229	0.31164	0.023565	0.1348	0.39975	0.11817	0.13585	0.35109	0.28105	0.19025	0.25654	0.31362	0.12097	0.24627	-2.9979	-3.1562	-3.5208	-3.65	-3.4313	-3.4729	-3.7167	-3.3896	-3.3708	-3.3667	-3.6479	-3.4771	-3.3604	-3.5458	-3.2458	-3.4354	24.629	127.325	142.084	149.438	-53.463	112.745	78.428	55.567	22.957	92.593	101.801	91.947	106.854	104.298	-13.816	182.343	0.00052305	0.00079143	5.6209e-05	1390	3.4578e-06	4.5831e-06	1395.7	364.88	5.8161e-06	2.2547e-06	416.48	141.99	129.05	43.206	1.724e-06	53.059	0.00053638	0.00053097	0.00015	1404.1	5.882e-06	5.879e-06	1416.2	370.31	5.8506e-06	5.8444e-06	423.44	144.99	131.81	44.035	5.8266e-06	54.368	-163.533	-103.612	-96.053	-157.453	-55.266	-14.661	-157.807	-153.065	-19.130	-59.772	-153.518	-149.146	-148.759	-143.810	-26.889	-144.838	-8191	255	
1383.504	1	1	0	0	0.2354	0.066098	0.047224	0.18906	0.16128	0.1081	0.48034	0.099143	0.15113	0.12001	0.10483	0.054534	0.12266	0.12582	0.1192	0.12448	-3.2062	-3.3646	-3.3125	-3.7917	-3.2438	-3.5646	-3.5208	-3.475	-3.5958	-3.1917	-3.4083	-3.6917	-3.3979	-3.6688	-3.5917	-3.3479	-97.332	26.026	1.756	185.168	-29.537	31.160	146.228	31.061	-60.609	-30.670	-47.285	33.986	121.562	-107.190	-121.662	71.613	0.00049207	0.00080375	6.4912e-05	1391.6	4.8804e-06	5.8023e-06	1402.9	366.07	3.3698e-06	8.4098e-06	418.02	142.12	129.53	43.003	2.9629e-06	52.976	0.00053174	0.00052794	0.00014639	1403.8	5.7792e-06	5.772e-06	1417.1	370.53	5.7642e-06	5.7846e-06	424.21	145.38	132.02	44.046	5.7552e-06	54.313	-159.013	-66.602	-97.715	-157.548	-67.121	-13.912	-157.681	-153.118	27.942	1.796	-153.581	-149.437	-148.804	-143.843	-24.437	-144.755	-8191	255	
1383.600	1	1	0	0	0.25571	0.063903	0.26935	0.2509	0.25452	0.1391	0.21476	0.18086	0.2395	0.15154	0.17222	0.12944	0.11887	0.29575	0.12454	0.17922	-2.9938	-3.3583	-3.4479	-3.8271	-3.2542	-3.6229	-3.6646	-3.3542	-3.6333	-3.4396	-3.3521	-3.5812	-3.4604	-3.6396	-3.525	-3.2229	-70.480	129.930	7.539	169.550	84.414	-99.921	115.866	93.080	-163.395	-159.110	172.113	119.147	183.456	167.392	-46.590	-163.393	0.000473	0.00076474	0.00012418	1390.4	1.2563e-06	1.1398e-05	1398	365	4.9571e-06	5.7814e-06	418.22	142.76	129.83	43.038	4.4916e-06	52.964	0.00052997	0.00052173	0.00014446	1403.4	5.7455e-06	5.7638e-06	1415.3	370.12	5.7676e-06	5.7017e-06	424.54	145.37	132.18	44.039	5.7853e-06	54.453	-164.052	-99.442	-20.062	-157.477	-113.913	-82.535	-157.765	-153.237	-133.439	-78.844	-153.434	-149.122	-148.716	-143.840	-61.619	-144.476	-8191	255	
1383.721	1	1	0	0	0.2021	0.10411	0.098745	0.30662	0.1758	0.27916	0.12791	0.17566	0.098656	0.11952	0.3018	0.0087633	0.17602	0.26582	0.18884	0.14455	-3.1396	-3.5625	-3.1979	-3.7958	-3.4	-3.1729	-3.8104	-3.2021	-3.4854	-3.4188	-3.4521	-3.5333	-3.1063	-3.4813	-3.5	-3.3229	184.559	39.536	120.599	-158.407	115.233	-4.533	175.188	119.408	157.213	77.330	-120.737	-53.664	47.949	-143.154	-76.841	154.016	0.0004794	0.00033762	0.00024142	1390.5	1.7657e-06	4.0456e-06	1393.8	365.94	5.5204e-06	5.8295e-06	416.78	142.64	129.82	43.139	8.3141e-06	53.171	0.00052556	0.00052823	0.00014607	1404.3	5.7283e-06	5.8221e-06	1416.2	370.46	5.7816e-06	5.7907e-06	424.21	145.27	132.12	44.114	5.7245e-06	54.415	-163.174	-125.162	-85.642	-157.671	-28.322	-60.730	-157.716	-153.066	-99.107	-33.050	-153.510	-149.266	-148.882	-143.917	-3.251	-144.734	-8191	255	
1383.792	1	1	0	0	0.090031	0.10741	0.21132	0.10972	0.066495	0.39057	0.4137	0.17157	0.058678	0.2057	0.26212	0.09879	0.2121	0.20568	0.076363	0.092709	-3.0604	-3.4167	-3.0438	-3.9667	-3.4604	-3.3521	-3.5312	-3.4	-3.5417	-3.325	-3.1937	-3.8271	-3.4062	-3.5521	-3.6688	-3.25	45.812	-54.750	-163.480	171.330	10.729	-12.461	153.958	146.996	14.882	48.191	-158.676	77.616	128.048	39.588	181.982	84.854	0.00049189	0.000347	5.497e-05	1395.7	4.8638e-06	4.6998e-06	1396.1	365.54	5.4605e-06	5.7816e-06	419.1	142.33	129.59	43.202	5.8071e-06	53.393	0.00052454	0.00051269	0.00014603	1406.3	5.6595e-06	5.6338e-06	1415.2	370.88	5.6784e-06	5.6485e-06	425.16	145.36	132.16	44.154	5.7255e-06	54.528	-157.099	-88.660	-89.737	-157.401	-50.621	-4.145	-157.728	-153.132	-63.480	1.703	-153.566	-149.266	-148.513	-144.109	-19.090	-144.913	-8191	255	
1383.889	1	1	0	0	0.2094	0.059057	0.25383	0.22213	0.20327	0.027011	0.31505	0.1068	0.12243	0.11118	0.1145	0.071534	0.10501	0.20373	0.22003	0.29681	-2.9542	-3.5312	-3.1333	-3.5979	-3.45	-3.2542	-3.6208	-3.3479	-3.4188	-3.5792	-3.3292	-3.6583	-3.5625	-3.35	-3.5521	-3.4417	34.478	-90.370	-148.473	157.802	108.844	-0.594	138.889	-14.747	66.242	-44.830	-3.344	100.913	111.248	152.471	28.616	120.495	0.00047894	0.00013005	0.00010975	1394.3	5.4695e-06	6.0481e-06	1398.1	365.36	3.8052e-06	2.0193e-06	419.5	142.71	129.24	43.448	7.5908e-06	53.161	0.00052319	0.00052121	0.00014551	1405.8	5.6935e-06	5.7203e-06	1417.4	370.57	5.7383e-06	5.6952e-06	424.62	145.64	132.16	44.302	5.6877e-06	54.486	-154.291	30.545	-120.416	-157.479	-5.678	-68.320	-157.754	-153.423	-20.367	-166.518	-153.608	-149.346	-149.040	-143.986	7.650	-144.707	-8191	255	
1384.009	1	1	0	0	0.31241	0.081998	0.039717	0.26806	0.088148	0.18315	0.18801	0.17167	0.12688	0.1015	0.27263	0.15706	0.14869	0.078597	0.13624	0.10345	-2.975	-3.3146	-3.3542	-3.7021	-3.3187	-3.3958	-3.8729	-3.3937	-3.3375	-3.5375	-3.1562	-3.7062	-3.3875	-3.3521	-3.6146	-3.2938	69.514	-86.602	13.984	124.705	-155.756	-54.301	135.315	103.344	-130.797	25.047	131.186	-150.610	87.470	-76.360	112.278	62.402	0.00055635	0.00013305	5.2363e-05	1391.6	8.0851e-06	9.0874e-06	1402.6	365.21	6.0366e-06	3.6743e-06	420.57	142.91	129.57	43.32	8.4654e-06	53.356	0.00051325	0.00050459	0.00014071	1402.4	5.551e-06	5.6205e-06	1417	370.33	5.6485e-06	5.6433e-06	425.67	145.67	132.33	44.174	5.6871e-06	54.557	-157.458	104.030	-4.412	-157.464	-56.210	-77.610	-157.829	-152.983	-36.839	-83.903	-153.438	-149.324	-148.582	-144.123	-20.928	-144.835	-8191	255	
1384.104	1	1	0	0	0.023944	0.28108	0.32773	0.20816	0.22654	0.24934	0.29325	0.23636	0.20725	0.19973	0.22951	0.25628	0.10261	0.090664	0.060542	0.033825	-2.925	-3.5167	-3.1708	-3.8271	-3.5083	-3.3229	-3.7812	-3.3792	-3.2979	-3.6854	-2.975	-3.6063	-3.4104	-3.2708	-3.5979	-3.2687	127.838	8.441	-166.412	136.725	-131.615	162.140	75.630	133.599	30.795	67.251	104.436	160.690	172.840	94.593	-32.065	187.595	0.00049956	0.00043885	0.00015859	1392.5	4.3847e-06	7.1596e-06	1393.3	364.72	3.7693e-06	7.7614e-06	418.84	143.06	129.8	43.275	4.7727e-06	53.312	0.00051843	0.00051671	0.00014377	1404.5	5.6094e-06	5.6861e-06	1415.1	370.25	5.6504e-06	5.6279e-06	424.18	145.92	132.25	44.194	5.6392e-06	54.539	-160.349	-109.966	-106.118	-157.589	-0.795	5.073	-157.610	-153.174	-37.285	-37.002	-153.510	-149.373	-148.695	-144.043	-56.112	-144.672	-8191	255	
1384.200	1	1	0	0	0.19857	0.027128	0.16403	0.14344	0.18895	0.12758	0.41731	0.34005	0.23171	0.15329	0.081717	0.28097	0.20253	0.2497	0.090246	0.25134	-2.7729	-3.6292	-3.2042	-3.6667	-3.725	-3.275	-3.8042	-3.5396	-3.1792	-3.6542	-3.5458	-3.3979	-3.5542	-3.3479	-3.5	-3.6333	85.121	35.991	-8.517	-98.262	22.984	42.840	128.532	131.330	-63.169	41.656	88.080	182.297	-136.115	170.003	-30.638	175.823	0.00046867	0.00060415	0.00011349	1390.3	4.6366e-06	5.236e-06	1396.7	365.34	6.1477e-06	1.5909e-06	421.75	142.71	130.07	43.331	6.2059e-06	53.347	0.00050949	0.00050493	0.00014075	1402.7	5.5674e-06	5.6548e-06	1416.4	370.07	5.6089e-06	5.6157e-06	425.44	145.65	132.47	44.262	5.6297e-06	54.555	-159.669	-104.004	-72.214	-157.531	-102.895	-27.104	-157.667	-153.239	-39.231	7.058	-153.306	-149.016	-148.486	-144.109	-32.299	-144.750	-8191	255	
1384.320	1	1	0	0	0.20011	0.14813	0.16327	0.3002	0.15997	0.065151	0.14183	0.099069	0.16566	0.21535	0.043553	0.22944	0.22403	0.24154	0.088309	0.14452	-2.9646	-3.3854	-3.4	-3.5875	-3.4562	-3.3312	-3.7313	-3.4208	-3.4521	-3.6083	-3.3958	-3.4708	-3.6896	-3.1937	-3.3771	-3.4604	84.436	-129.035	-45.076	-142.987	-164.175	-7.760	132.923	-63.028	58.352	98.541	98.952	138.566	118.354	-155.184	-125.480	-168.734	0.00048188	0.00055006	0.00010075	1388.8	2.3809e-06	2.4456e-06	1397.3	366.22	3.8894e-06	2.6427e-06	419.53	142.34	129.09	43.28	9.9713e-06	53.054	0.00051438	0.00051313	0.00014385	1404	5.6169e-06	5.6433e-06	1417	370.46	5.6527e-06	5.6616e-06	425.08	145.74	132.06	44.184	5.6316e-06	54.493	-162.812	-113.755	-128.947	-157.446	26.771	-50.309	-157.768	-153.212	-23.230	-137.825	-153.377	-149.583	-148.748	-143.856	-45.548	-144.749	-8191	255	
1384.392	1	1	0	0	0.22966	0.098658	0.15799	0.072404	0.081967	0.25713	0.078144	0.15241	0.22374	0.14251	0.10673	0.27859	0.23599	0.10035	0.055681	0.037331	-2.7979	-3.5667	-3.1875	-3.3771	-3.5625	-3.0812	-3.3833	-3.6813	-3.2583	-3.5854	-3.5042	-3.4229	-3.5104	-3.3125	-3.3646	-3.5354	141.811	-128.363	-118.725	-139.043	-40.041	7.400	158.577	117.691	75.375	77.133	-159.211	170.984	154.222	113.823	-20.675	96.218	0.0004737	0.00091537	0.00020027	1387.9	4.5404e-06	7.6417e-06	1396.4	365.49	2.5865e-06	1.3167e-06	421.77	143.21	130.11	43.432	3.9521e-06	53.451	0.0005125	0.00051225	0.00014044	1403.1	5.5627e-06	5.5701e-06	1416.3	370.26	5.5778e-06	5.5496e-06	425.46	145.93	132.39	44.267	5.6108e-06	54.621	-161.097	-117.483	-83.329	-157.432	-55.950	-62.972	-157.572	-153.143	35.433	-160.915	-153.473	-149.291	-148.645	-144.099	10.318	-144.757	-8191	255	
1384.488	1	1	0	0	0.07529	0.069594	0.15179	0.063626	0.27008	0.23625	0.11899	0.21319	0.11924	0.086576	0.09007	0.1277	0.22473	0.093877	0.066978	0.15101	-2.7292	-3.2917	-3.1396	-3.4	-3.7208	-3.2313	-3.5062	-3.7479	-3.2542	-3.5563	-3.5833	-3.1854	-3.5875	-3.475	-3.3771	-3.6833	-104.085	148.852	-127.803	120.720	-14.558	107.614	-158.217	166.755	-92.219	-95.231	104.055	-58.986	52.904	88.241	58.136	133.232	0.00051084	0.00022228	9.4604e-05	1391.8	6.3932e-06	3.6229e-06	1399.2	366.2	2.5648e-06	5.2792e-06	419.9	143.35	130.09	43.309	5.873e-06	53.307	0.00050323	0.00050078	0.00013921	1403.7	5.5047e-06	5.5639e-06	1416.3	370.43	5.5869e-06	5.5552e-06	426.2	146.08	132.5	44.291	5.6909e-06	54.552	-161.823	-42.046	-111.959	-157.483	-26.218	-150.970	-157.617	-153.325	-80.551	-47.841	-153.638	-149.271	-148.563	-144.025	6.647	-144.793	-8191	255	
1384.584	1	1	0	0	0.1341	0.095762	0.14902	0.35375	0.12809	0.17123	0.18464	0.20009	0.1843	0.21098	0.095227	0.3396	0.13911	0.10345	0.19324	0.18233	-2.7833	-3.3604	-3.4146	-3.1917	-3.8312	-3.4646	-3.4979	-3.7	-3.4271	-3.5125	-3.5292	-3.2604	-3.7667	-3.4854	-3.2167	-3.875	-56.370	153.163	-169.222	154.497	-122.234	71.465	80.848	-161.256	115.201	65.244	-128.657	121.938	-150.564	-114.115	108.223	109.002	0.00045662	0.00066101	0.00013791	1396.7	5.1565e-06	8.6618e-06	1398.3	366	7.6665e-06	3.0244e-06	418.89	143.07	129.8	43.547	5.2481e-06	53.476	0.00051438	0.00051094	0.00014201	1406.8	5.6131e-06	5.6444e-06	1417.3	370.79	5.5989e-06	5.6195e-06	425.46	145.77	132.4	44.322	5.5209e-06	54.627	-164.910	-87.855	-51.562	-157.542	-66.428	-64.633	-157.761	-153.042	-40.075	-162.366	-153.113	-149.264	-148.438	-143.996	-12.937	-144.744	-8191	255	
1384.681	1	1	0	0	0.23665	0.048047	0.21493	0.36869	0.27083	0.25032	0.14694	0.13818	0.10141	0.25652	0.18924	0.14632	0.078229	0.24444	0.085176	0.2807	-2.9104	-3.3417	-3.4313	-3.2625	-3.3896	-3.3583	-3.4854	-3.6146	-3.3458	-3.4479	-3.5521	-3.2	-3.7167	-3.4104	-3.2146	-3.7958	58.268	100.433	56.560	-163.951	-143.132	-167.434	93.011	43.729	-9.164	81.942	71.198	-170.447	78.057	143.301	-81.682	23.331	0.00048987	0.0006345	0.00022561	1390.2	5.161e-06	6.967e-06	1399.8	365.52	4.9676e-06	1.1397e-06	420.85	142.49	130.41	43.346	3.6021e-06	53.2	0.00050513	0.00050616	0.00014165	1403.3	5.5511e-06	5.5732e-06	1415.9	370.61	5.5698e-06	5.5582e-06	426.04	145.62	132.49	44.237	5.6052e-06	54.553	-156.880	-123.479	-15.254	-157.719	13.970	-9.241	-157.738	-153.048	-44.709	-85.478	-153.246	-149.397	-148.696	-143.948	-15.304	-144.773	-8191	255	
1384.801	1	1	0	0	0.065309	0.24153	0.2984	0.20059	0.10879	0.15278	0.25605	0.13217	0.12107	0.35313	0.33426	0.33018	0.26163	0.18644	0.20091	0.17412	-2.6208	-3.4896	-3.5833	-3.325	-3.4583	-3.5896	-3.3208	-3.5563	-3.4333	-3.2812	-3.6146	-3.4708	-3.6708	-3.2333	-3.15	-3.7458	102.280	159.278	145.233	183.496	-31.715	-22.634	119.859	152.063	118.679	131.869	105.109	106.951	127.761	98.211	9.589	-121.101	0.00047768	0.00023173	0.00015238	1389.8	6.7497e-06	1.3294e-05	1401.9	365.38	4.6774e-06	6.0791e-06	416.59	142.25	129.21	43.524	7.3033e-06	53.208	0.00051079	0.00051575	0.0001427	1401.5	5.6816e-06	5.6625e-06	1415.9	370.69	5.6502e-06	5.6472e-06	424.11	145.59	132.29	44.262	5.6216e-06	54.6	-165.629	-78.832	-62.644	-157.487	-26.241	-13.898	-157.692	-153.158	-46.388	-92.732	-153.233	-149.422	-148.849	-143.882	1.058	-144.704	-8191	255	
1384.897	1	1	0	0	0.16862	0.15764	0.14724	0.39239	0.21815	0.29462	0.10868	0.22118	0.10032	0.27454	0.23655	0.29266	0.31231	0.11506	0.24399	0.20627	-3.0896	-3.25	-3.5312	-3.3271	-3.4688	-3.3833	-3.3271	-3.7125	-3.3125	-3.3854	-3.5833	-3.2958	-3.5271	-3.6833	-3.4167	-3.5104	113.549	-145.891	-160.328	145.769	96.793	41.840	84.177	110.947	87.372	27.855	57.937	80.363	180.118	95.469	-19.392	139.359	0.0004363	0.00060776	0.00012528	1389	2.1703e-06	3.3801e-06	1398.5	364.87	9.6081e-06	6.6087e-06	420.77	142.86	130.02	43.438	5.4022e-06	53.26	0.00051329	0.00051727	0.0001429	1402	5.6759e-06	5.6998e-06	1414.9	370.53	5.6674e-06	5.708e-06	425.88	145.73	132.25	44.265	5.6636e-06	54.5	-161.741	-70.338	134.352	-157.340	-76.152	-56.235	-157.601	-153.264	-22.850	-53.757	-153.523	-149.427	-148.565	-143.902	12.362	-144.845	-8191	255	
1384.969	1	1	0	0	0.16434	0.13061	0.014444	0.16191	0.1811	0.10441	0.25996	0.18922	0.064401	0.2252	0.10422	0.097635	0.18571	0.24986	0.13629	0.033049	-2.9958	-3.2208	-3.5646	-3.3417	-3.425	-3.5208	-3.3812	-3.7104	-3.3479	-3.0875	-3.6146	-3.4375	-3.4125	-3.5125	-3.3208	-3.8146	-20.435	49.835	25.624	152.515	2.418	-74.252	102.041	-112.608	29.723	46.456	125.418	183.159	171.578	158.025	135.349	-52.806	0.00047374	0.00045655	9.0546e-05	1392.7	5.1484e-06	1.0263e-05	1397.9	364.64	3.4886e-06	7.6971e-06	418.83	142.36	129.01	43.421	4.2306e-06	53.196	0.00051784	0.00051483	0.00014405	1402.2	5.612e-06	5.6886e-06	1415.8	370.31	5.7109e-06	5.6847e-06	425.56	145.74	132.23	44.243	5.6713e-06	54.5	-159.848	-121.681	-56.487	-157.599	-90.980	-41.254	-157.827	-153.133	-46.849	-60.997	-153.585	-149.222	-148.637	-143.871	21.825	-144.719	-8191	255	
1385.090	1	1	0	0	0.077181	0.21446	0.10465	0.29118	0.12148	0.15942	0.088809	0.19261	0.2216	0.21636	0.2239	0.50524	0.24848	0.076479	0.14465	0.21272	-3.2792	-3.1437	-3.7083	-3.3104	-3.275	-3.5938	-3.4	-3.7333	-3.4771	-3.0729	-3.6146	-3.2792	-3.5542	-3.6229	-3.1896	-3.7479	-146.095	7.006	156.142	132.681	101.328	160.267	-144.637	184.577	-22.696	86.237	167.808	187.155	93.927	71.425	67.990	96.891	0.00050032	0.00048493	0.00015389	1388.2	5.2872e-06	2.8345e-06	1398.9	364.72	2.4002e-06	1.6558e-06	419.06	143.14	129.9	43.326	3.7685e-06	53.129	0.00051809	0.00051474	0.00014494	1401.4	5.679e-06	5.69e-06	1416.3	370.7	5.696e-06	5.7126e-06	425.33	145.73	132.29	44.192	5.7124e-06	54.539	-162.299	-101.314	-89.969	-157.538	-98.768	13.107	-157.666	-152.972	35.472	-48.392	-153.359	-149.417	-148.654	-143.994	-2.804	-144.536	-8191	255	
1385.184	1	1	0	0	0.137	0.18416	0.23495	0.36464	0.19408	0.1952	0.28411	0.26621	0.18693	0.14258	0.18037	0.075425	0.12879	0.35807	0.13701	0.054354	-3.0187	-3.2625	-3.6917	-3.3604	-3.4333	-3.5729	-3.2812	-3.7188	-3.6	-3.1979	-3.6271	-3.4437	-3.2917	-3.6958	-3.2417	-3.5667	155.633	8.151	172.264	152.458	6.660	61.087	88.483	100.703	158.819	56.415	-129.679	48.555	130.570	-148.496	150.488	101.344	0.00051665	0.00070748	0.00013685	1389.4	2.1003e-06	5.6896e-06	1392.5	365.23	6.6285e-06	5.3609e-06	420.03	142.72	130.22	43.347	6.8945e-06	53.129	0.00052072	0.00052077	0.00014508	1402.4	5.7094e-06	5.7299e-06	1412.1	370.1	5.6953e-06	5.6792e-06	425.43	145.65	132.31	44.193	5.6396e-06	54.477	-161.273	-75.306	101.279	-157.417	-103.480	-48.546	-157.702	-153.231	-79.809	-61.830	-153.364	-149.527	-148.762	-143.880	-31.457	-144.524	-8191	255	
1385.282	1	1	0	0	0.17544	0.1207	0.30694	0.20747	0.2321	0.095719	0.28544	0.23694	0.086388	0.16339	0.08695	0.13576	0.20886	0.35434	0.13671	0.24456	-3.0812	-3.1208	-3.4958	-3.6333	-3.3708	-3.5625	-3.6167	-3.5625	-3.5438	-3.4875	-3.5438	-3.4958	-3.2479	-3.5354	-3.2646	-3.5292	-0.754	108.338	163.313	108.748	121.704	-131.899	72.907	122.579	43.005	84.301	169.753	122.135	168.518	-167.074	-169.053	16.629	0.00051762	0.00067262	0.0001969	1385.5	4.7258e-06	1.8836e-06	1393.7	363.95	5.5868e-06	8.558e-06	420.87	142.7	130.5	43.427	1.2116e-06	53.179	0.00050963	0.00051266	0.00014048	1400.1	5.5343e-06	5.5158e-06	1413.1	369.55	5.4683e-06	5.4624e-06	424.34	145.65	132.3	44.279	5.4252e-06	54.545	-162.737	-84.089	-93.501	-157.556	172.624	-57.754	-157.770	-153.159	-51.889	-53.794	-153.329	-149.091	-148.602	-144.016	-43.433	-144.528	-8191	255	
1385.401	1	1	0	0	0.062297	0.1849	0.16043	0.26238	0.096904	0.059745	0.14533	0.061517	0.18434	0.14435	0.1428	0.14667	0.28076	0.27039	0.074093	0.25184	-3.3021	-3.3146	-3.4833	-3.7146	-3.35	-3.4729	-3.45	-3.4583	-3.4521	-3.2833	-3.5979	-3.5062	-3.2729	-3.7438	-3.1604	-3.4229	-106.877	110.218	164.167	139.070	-68.418	15.117	41.135	146.419	176.997	119.553	-79.436	148.202	86.320	82.869	115.338	66.493	0.00050305	6.1929e-05	0.0001862	1391.3	5.2881e-06	4.3599e-06	1395.9	366.88	3.6876e-06	8.2504e-06	418.09	143.57	129.73	43.446	4.634e-06	53.358	0.00050344	0.00050406	0.00014051	1400.3	5.4764e-06	5.5554e-06	1413.1	370.7	5.5134e-06	5.5473e-06	425.03	145.9	132.26	44.346	5.5743e-06	54.483	-163.228	-136.462	-42.171	-157.685	-77.864	-39.466	-157.654	-153.276	-12.467	-26.501	-153.734	-149.560	-148.473	-143.873	-5.138	-144.436	-8191	255	
1385.497	1	1	0	0	0.027644	0.070356	0.29098	0.16759	0.029478	0.084846	0.13063	0.31246	0.18142	0.18734	0.086209	0.41516	0.1064	0.37075	0.065995	0.16932	-3.1417	-3.1833	-3.3271	-3.8125	-3.1312	-3.6479	-3.5396	-3.2562	-3.6562	-3.0708	-3.5625	-3.5979	-3.3229	-3.5208	-3.2396	-3.4813	-15.264	-143.044	-77.503	145.471	-103.216	86.350	67.208	164.060	-64.759	-0.651	-135.208	101.441	57.395	173.067	-4.008	52.646	0.00053051	0.00032634	0.00010056	1392.1	3.241e-06	4.6626e-06	1397.3	365.98	3.8689e-06	6.489e-06	418.73	143.25	129.94	43.417	7.6384e-06	53.044	0.00051149	0.00050348	0.00014169	1402.7	5.5348e-06	5.5533e-06	1413.9	370.64	5.6077e-06	5.5246e-06	424.56	145.8	132.51	44.25	5.581e-06	54.504	-160.577	183.091	-74.637	-157.346	-74.847	3.947	-157.646	-153.230	-44.538	11.088	-153.461	-149.266	-148.544	-144.140	-98.734	-144.837	-8191	255	
1385.593	1	1	0	0	0.2505	0.17298	0.041649	0.359	0.12524	0.23087	0.19297	0.38633	0.2782	0.052546	0.026061	0.14336	0.045882	0.026342	0.2334	0.30966	-3.2	-3.4208	-3.3438	-3.5062	-3.1688	-3.4604	-3.6688	-3.2333	-3.5771	-3.2583	-3.4208	-3.7917	-3.2521	-3.6	-3.3542	-3.3646	123.338	32.518	49.363	171.759	110.522	178.621	113.167	146.316	-72.498	-30.592	-46.528	144.951	152.090	83.105	-40.136	122.765	0.00050395	0.00093044	4.865e-05	1388.1	1.2791e-06	4.908e-06	1395.9	365.77	1.006e-05	2.4831e-06	419.56	143.29	129.67	43.39	4.5649e-06	53.221	0.00051211	0.00050805	0.00014153	1400.2	5.5286e-06	5.5495e-06	1414	370.33	5.5078e-06	5.5465e-06	425.23	145.84	132.26	44.282	5.5614e-06	54.586	-158.906	-87.302	141.243	-157.361	-45.834	-59.090	-157.645	-153.343	-26.917	-3.920	-153.437	-149.206	-148.612	-143.928	-56.172	-144.632	-8191	255	
1385.689	1	1	0	0	0.11208	0.3298	0.10301	0.23964	0.17601	0.1261	0.20602	0.27947	0.15198	0.10087	0.080943	0.066504	0.13978	0.13148	0.20852	0.30476	-2.9771	-3.2292	-3.2479	-3.6917	-3.2292	-3.3625	-3.7229	-3.2875	-3.5208	-3.3187	-3.3396	-3.6167	-3.4042	-3.4292	-3.4125	-3.3667	171.715	-121.896	-99.642	154.423	165.012	-150.284	130.198	-168.818	-118.900	11.326	129.085	-24.203	155.155	188.511	-150.695	-17.092	0.00051226	0.00028227	8.6872e-05	1385.9	6.7008e-06	3.2572e-06	1391.8	364.92	6.4398e-06	7.0649e-06	419.22	143.3	130.13	43.734	2.8047e-06	53.374	0.00050576	0.00050118	0.00013872	1399.8	5.5218e-06	5.4562e-06	1410.2	369.98	5.4246e-06	5.43e-06	424.65	146.06	132.31	44.403	5.4715e-06	54.627	-162.939	-38.299	27.797	-157.596	-71.960	-41.695	-157.656	-152.972	-54.680	-102.217	-153.369	-149.167	-148.615	-144.036	37.541	-144.516	-8191	255	
1385.785	1	1	0	0	0.13031	0.1295	0.032278	0.24216	0.19071	0.18305	0.17381	0.097142	0.090411	0.18734	0.026332	0.28268	0.058342	0.11989	0.071979	0.18757	-3.1188	-3.5792	-3.1771	-3.8271	-3.225	-3.4938	-3.6896	-3.3312	-3.2792	-3.4062	-3.3563	-3.5208	-3.4188	-3.5042	-3.5312	-3.4396	-94.361	15.562	-77.781	178.379	-129.852	-90.532	127.231	118.235	20.786	27.236	-83.307	149.765	178.978	118.771	155.112	94.917	0.00048685	0.00067205	5.2595e-05	1391.2	3.2548e-06	1.562e-06	1393.9	364.95	9.185e-06	5.3192e-06	422.1	143.43	130.43	43.273	7.1807e-06	53.547	0.00050079	0.00049741	0.00013854	1401.4	5.4614e-06	5.4624e-06	1412.8	370.42	5.4549e-06	5.3875e-06	425.94	146.16	132.57	44.4	5.4938e-06	54.694	-156.586	-79.880	-15.593	-157.509	28.141	-148.781	-157.673	-153.008	-70.908	12.561	-153.301	-149.111	-148.796	-143.715	-73.204	-144.572	-8191	255	
1385.882	1	1	0	0	0.17801	0.13229	0.042705	0.16875	0.17207	0.19024	0.19791	0.12326	0.14856	0.1941	0.13287	0.23318	0.19001	0.27147	0.3167	0.23131	-3.2062	-3.6271	-3.1937	-3.7771	-3.5833	-3.4896	-3.7396	-3.6625	-3.4417	-3.3708	-3.4792	-3.7042	-3.1917	-3.4542	-3.8021	-3.3229	-114.600	10.429	53.926	139.107	38.347	111.774	159.010	-91.284	181.405	-115.998	-149.105	166.251	-87.436	175.996	86.112	140.859	0.0005063	0.00015735	9.1026e-05	1391.9	3.18e-06	3.7412e-06	1396.9	365.43	4.2608e-06	5.0221e-06	419.99	143.28	130.53	43.507	7.6637e-06	53.469	0.00049892	0.00049894	0.00014148	1400.5	5.5351e-06	5.4649e-06	1414.2	370.01	5.5876e-06	5.6043e-06	426.6	146.17	132.7	44.376	5.6378e-06	54.712	-157.935	22.513	-88.895	-157.611	-53.056	-71.201	-157.553	-153.102	-64.241	-49.112	-153.571	-149.007	-148.584	-144.023	-40.440	-144.863	-8191	255	
1386.002	1	1	0	0	0.22603	0.048499	0.054269	0.14228	0.1442	0.13181	0.029573	0.069437	0.11261	0.14734	0.23253	0.12427	0.093301	0.051031	0.12541	0.24087	-3.0104	-3.4188	-3.2521	-3.7188	-3.5687	-3.3583	-3.7687	-3.4146	-3.4583	-3.4375	-3.2854	-3.7083	-3.6042	-3.3271	-3.725	-3.4854	-70.487	49.309	-39.290	-154.004	-156.787	-157.212	-165.151	85.190	64.996	41.420	130.383	144.783	155.724	-161.669	-108.320	89.812	0.00051685	0.00011946	6.8528e-05	1387.9	2.504e-06	1.2687e-05	1398.2	367.63	5.406e-06	3.8737e-06	421.44	143.44	130.06	43.377	7.3608e-06	53.581	0.00051591	0.00050991	0.00014165	1401.2	5.5903e-06	5.5699e-06	1414.6	371.4	5.6099e-06	5.5624e-06	426	146.17	132.66	44.353	5.5874e-06	54.745	-158.744	-51.674	-89.606	-157.440	22.006	-63.834	-157.565	-153.188	-14.700	-62.099	-153.415	-149.243	-148.829	-143.898	-89.363	-144.626	-8191	255	
1386.097	1	1	0	0	0.31606	0.12554	0.07438	0.15945	0.29772	0.17669	0.29617	0.080499	0.16939	0.18053	0.13892	0.064483	0.038417	0.15565	0.055406	0.30051	-3.0917	-3.5146	-3.2604	-3.7083	-3.4417	-3.2333	-3.8187	-3.4313	-3.2333	-3.7021	-3.2208	-3.5229	-3.5312	-3.2417	-3.5021	-3.4208	19.851	49.096	128.791	100.150	169.666	77.357	120.229	165.938	96.061	67.487	169.567	104.683	149.633	-118.850	97.982	35.547	0.00046171	0.00063242	0.00023827	1394.8	5.4987e-06	4.0436e-06	1393.1	365.92	3.6499e-06	3.1117e-06	423.71	143.35	130.62	43.528	5.38e-06	53.496	0.00050426	0.00050845	0.00014286	1403.4	5.6248e-06	5.5987e-06	1413.8	371.01	5.5294e-06	5.557e-06	427.71	146.37	132.92	44.459	5.5697e-06	54.818	-160.518	-108.188	-130.573	-157.478	-80.989	-18.106	-157.582	-153.029	62.428	-102.348	-153.577	-149.049	-148.661	-143.904	-47.048	-144.561	-8191	255	
1386.193	1	1	0	0	0.12182	0.092648	0.14887	0.28503	0.24587	0.017948	0.38543	0.2683	0.079907	0.11392	0.16486	0.26762	0.43832	0.21084	0.11067	0.055998	-2.7771	-3.625	-3.1646	-3.7917	-3.6833	-3.1104	-3.6125	-3.4896	-3.3792	-3.3312	-3.2833	-3.7458	-3.5312	-3.1479	-3.5521	-3.4125	-62.011	185.528	84.494	152.097	-144.908	-120.636	132.850	132.673	73.181	-16.209	-129.444	81.881	174.473	121.715	-95.432	42.221	0.0005143	0.00041206	0.00016792	1394.8	3.2561e-06	4.2292e-06	1400.6	368.31	7.5454e-06	4.9568e-06	424.28	143.86	130.86	43.76	6.9077e-06	53.679	0.00050693	0.00049926	0.00014	1405.5	5.472e-06	5.477e-06	1418	372.47	5.4831e-06	5.495e-06	427.52	146.83	133.21	44.573	5.478e-06	54.928	-159.025	-67.766	-103.135	-157.602	-30.720	-21.708	-157.724	-153.307	-71.086	-7.048	-153.502	-149.084	-148.729	-143.880	-59.188	-144.543	-8191	255	
1386.264	1	1	0	0	0.29472	0.20136	0.089522	0.24824	0.051377	0.12415	0.38389	0.21263	0.23278	0.041498	0.057808	0.17986	0.027047	0.062544	0.13632	0.28306	-2.7438	-3.6333	-3.2438	-3.5708	-3.5125	-3.3396	-3.6875	-3.5146	-3.2896	-3.7396	-3.2875	-3.3479	-3.8021	-3.1604	-3.5396	-3.5062	-17.096	92.913	10.301	167.131	-133.051	-167.466	181.063	133.546	138.996	152.481	-41.831	-125.567	-64.544	37.571	112.189	133.853	0.00053792	0.0005023	0.00012707	1397.2	2.2622e-06	5.1302e-06	1397	367.32	6.228e-06	4.6974e-06	422.78	143.92	131.38	43.93	6.7689e-06	54	0.00049506	0.00048689	0.00013535	1404.1	5.2545e-06	5.2225e-06	1415.3	372	5.1336e-06	5.1689e-06	427.29	146.66	133.46	44.602	5.071e-06	55.027	-157.968	-55.310	-20.409	-157.439	-45.406	109.676	-157.729	-153.156	-22.235	80.442	-153.586	-149.421	-148.608	-143.924	-19.906	-144.461	-8191	255	
1386.362	1	1	0	0	0.082289	0.07897	0.24101	0.37468	0.14481	0.23729	0.19994	0.03912	0.34633	0.032576	0.09452	0.21858	0.26924	0.1097	0.072242	0.31929	-2.8229	-3.5187	-3.3146	-3.3646	-3.6375	-3.1833	-3.7896	-3.75	-3.2021	-3.7188	-3.2229	-3.4271	-3.6437	-3.4479	-3.6437	-3.5417	-161.164	40.773	-101.595	164.304	89.518	119.363	152.428	-152.559	-156.207	30.867	-149.503	25.884	114.269	-18.313	-0.640	173.669	0.00051622	0.00071644	7.7089e-05	1392.9	3.3328e-06	3.3787e-06	1403.6	368.83	5.4501e-06	3.4622e-06	424.22	144.46	131.35	43.962	5.9426e-06	53.832	0.0004592	0.00045409	0.00012659	1404.2	5.039e-06	5.0215e-06	1417.7	372.75	5.0855e-06	5.0351e-06	427.6	146.98	133.44	44.703	5.0723e-06	55.097	-157.588	-68.324	-84.162	-157.450	-42.653	11.361	-157.651	-153.197	-27.728	-32.852	-153.567	-149.440	-148.609	-143.668	-51.267	-144.694	-8191	255	
1386.481	1	1	0	0	0.12314	0.17062	0.44031	0.18194	0.092463	0.054326	0.14908	0.1167	0.21079	0.12474	0.11408	0.066718	0.15733	0.088486	0.088625	0.25085	-2.9917	-3.4562	-3.5042	-3.4729	-3.6646	-3.2729	-3.3979	-3.5563	-3.125	-3.5062	-3.35	-3.4125	-3.6937	-3.2625	-3.5479	-3.6292	184.966	38.982	174.370	34.388	-153.751	-149.313	92.434	175.750	88.379	-58.139	152.043	54.291	159.505	179.006	-52.379	186.413	0.00048526	0.00062643	0.00021639	1400.9	9.58e-07	8.1794e-06	1408.4	368.84	4.9648e-06	3.2797e-06	425.87	145.05	132.54	44.165	4.8912e-07	54.145	0.00046291	0.00045442	0.00012727	1407.5	4.9855e-06	4.9574e-06	1420.4	374.15	4.9353e-06	4.8269e-06	428.1	147.62	133.9	44.894	4.796e-06	55.186	-160.286	-67.349	-93.589	-157.475	-0.371	-6.558	-157.695	-153.257	-68.732	-61.243	-153.412	-149.272	-148.587	-144.067	-77.066	-144.455	-8191	255	
1386.577	1	1	0	0	0.078177	0.073635	0.27238	0.17835	0.15753	0.2462	0.070244	0.15467	0.08487	0.097152	0.099557	0.092593	0.2919	0.048163	0.13455	0.23338	-2.95	-3.3479	-3.3958	-3.2875	-3.5479	-3.3208	-3.5958	-3.5604	-3.3896	-3.5542	-3.3833	-3.375	-3.525	-3.4667	-3.2958	-3.5687	98.992	127.488	132.578	176.572	-22.311	-32.108	163.446	111.636	-30.809	186.956	-132.209	170.215	134.017	-132.503	-30.870	-7.859	0.00052374	0.00059256	0.00018368	1391.1	5.3448e-06	3.5859e-06	1393.5	367.73	2.8308e-06	6.2731e-06	423.02	143.45	130.39	43.475	3.1005e-06	53.451	0.00044684	0.00044379	0.00012455	1399.7	5.1816e-06	5.3042e-06	1412.7	372.88	5.5952e-06	5.7045e-06	427.43	146.43	133.02	44.442	6.0095e-06	54.877	-160.207	-80.139	-110.437	-157.528	-0.671	-7.696	-157.599	-153.290	-90.552	-67.978	-153.646	-149.463	-148.626	-143.891	-39.189	-144.565	-8191	255	
1386.673	1	1	0	0	0.21482	0.18404	0.12296	0.23091	0.18891	0.020288	0.29492	0.027511	0.14799	0.15729	0.32086	0.15379	0.13498	0.085674	0.062815	0.32038	-2.9146	-3.5	-3.5979	-3.2208	-3.7708	-3.3792	-3.4958	-3.7229	-3.2812	-3.5396	-3.4813	-3.2333	-3.6354	-3.5521	-3.25	-3.55	10.783	-53.127	-106.507	146.118	157.619	-118.538	97.791	-106.454	-76.366	65.794	-96.616	154.398	158.703	34.728	86.927	106.003	0.00052701	0.00029674	0.00012783	1391.4	4.1314e-06	7.2628e-06	1397.9	365.46	1.5479e-06	6.7142e-06	420.8	142.7	130.47	43.449	5.0414e-06	53.535	0.00055191	0.00056151	0.00015472	1404.5	6.2284e-06	6.1978e-06	1416.6	371.96	6.1212e-06	6.0275e-06	427.28	146.27	133.14	44.488	6.0024e-06	54.899	-160.406	-49.332	-81.132	-157.608	-85.642	-52.998	-157.551	-153.122	22.999	-0.007	-153.290	-149.293	-148.622	-143.892	-21.592	-144.783	-8191	255	
1386.770	1	1	0	0	0.15638	0.018518	0.16697	0.072152	0.12212	0.12528	0.21772	0.17262	0.1651	0.20945	0.041113	0.18166	0.2937	0.095134	0.23768	0.16478	-2.9208	-3.3937	-3.3125	-3.3979	-3.6021	-3.5583	-3.5938	-3.5354	-3.4146	-3.4417	-3.5917	-3.1792	-3.6146	-3.4104	-3.5146	-3.3979	-89.094	-159.210	114.009	108.543	-119.899	-158.693	103.269	31.608	0.884	26.997	-22.271	-145.033	-143.119	-25.090	91.866	-154.672	0.00054253	0.00048173	3.0356e-05	1396	3.2536e-06	6.3688e-06	1403.8	367.35	4.1917e-06	3.5265e-06	422.12	143.37	130.89	43.501	9.9555e-07	53.361	0.00054512	0.00054788	0.00015441	1407.6	6.1894e-06	6.2384e-06	1422.3	373.29	6.327e-06	6.4434e-06	429.76	146.89	133.96	44.555	6.6651e-06	55.008	-163.494	-66.031	-85.798	-157.424	-102.876	-118.709	-157.632	-153.303	-38.422	-157.998	-153.680	-149.468	-148.451	-144.055	6.514	-144.778	-8191	255	
1386.890	1	1	0	0	0.056499	0.083124	0.074499	0.52565	0.19788	0.19372	0.20062	0.16087	0.3075	0.046754	0.24232	0.10803	0.050133	0.30127	0.087902	0.17582	-3.0312	-3.3375	-3.6021	-3.2708	-3.4625	-3.4167	-3.3833	-3.8854	-3.2271	-3.5896	-3.7125	-3.3333	-3.5646	-3.5271	-3.3021	-3.5687	64.779	22.561	-44.344	183.117	48.294	-129.624	99.332	153.047	-63.737	-79.420	102.224	-3.811	144.645	167.668	122.896	174.862	0.00048945	0.0005187	0.0001724	1397.8	2.9197e-06	9.5147e-06	1410.3	369.89	4.6874e-06	1.029e-05	421.04	143.5	130.63	43.546	1.2465e-06	53.577	0.0006042	0.00060658	0.00017363	1413.4	6.7219e-06	6.7807e-06	1427.7	375.19	6.6931e-06	6.6769e-06	430.65	147.21	133.92	44.665	6.5044e-06	55.083	-158.616	-111.003	-43.600	-157.470	-100.296	-44.985	-157.630	-153.189	-25.167	-43.885	-153.606	-149.293	-148.689	-143.749	187.858	-144.705	-8191	255	
1386.962	1	1	0	0	0.23541	0.14086	0.093121	0.16621	0.076326	0.066719	0.24915	0.28886	0.15821	0.40308	0.12517	0.20456	0.13096	0.32622	0.13375	0.093909	-2.9479	-3.3146	-3.4646	-3.5062	-3.3167	-3.5583	-3.4021	-3.6125	-3.4604	-3.0521	-3.5458	-3.2625	-3.3958	-3.6375	-3.3563	-3.6229	-144.417	-141.087	63.576	116.106	-55.530	153.127	166.865	186.792	112.264	-3.148	119.267	28.769	13.051	-165.412	7.606	-98.700	0.00047803	0.00054514	0.00010039	1397.9	4.3012e-06	4.3654e-06	1404.1	367.33	4.9283e-06	7.4538e-06	423.6	144.25	131.49	43.689	7.7294e-06	53.903	0.00057638	0.00057085	0.00015901	1410.1	6.1608e-06	6.1056e-06	1423.5	374.14	6.0237e-06	5.9769e-06	430.7	147.54	134.05	44.762	5.8731e-06	55.188	-157.221	-47.843	-59.846	-157.556	-52.719	-36.497	-157.853	-153.470	-27.824	-102.882	-153.372	-149.533	-148.753	-144.196	3.507	-144.509	-8191	255	
1387.083	1	1	0	0	0.2914	0.14697	0.022595	0.30173	0.19268	0.1256	0.1054	0.16398	0.051935	0.13113	0.2485	0.059008	0.11856	0.2323	0.2372	0.10908	-3.0417	-3.1333	-3.5208	-3.3125	-3.3979	-3.5396	-3.3583	-3.5625	-3.45	-3.1688	-3.5896	-3.3625	-3.5458	-3.4375	-3.3583	-3.5625	122.198	-114.557	-111.444	141.659	-86.749	89.095	135.548	60.641	-65.337	-102.919	89.158	11.021	-139.103	-121.282	-157.559	134.222	0.00045674	0.00036562	9.9139e-05	1399	3.7854e-06	3.1197e-06	1407.7	369.94	5.1666e-06	4.8853e-06	424.29	145.31	131.72	44.118	1.2731e-06	54.342	0.00052938	0.00052989	0.00014741	1411.5	5.7209e-06	5.7443e-06	1424.4	375.56	5.5588e-06	5.5598e-06	430.45	147.98	134.38	44.984	5.4057e-06	55.528	-159.542	-41.427	-70.838	-157.450	-91.415	-56.786	-157.671	-153.100	-81.409	-66.769	-153.540	-149.326	-148.793	-144.080	-101.433	-144.559	-8191	255	
1387.177	1	1	0	0	0.097803	0.20708	0.049334	0.10768	0.1876	0.037567	0.19618	0.10339	0.2234	0.034096	0.051011	0.1038	0.15323	0.31207	0.038241	0.13657	-3.0583	-3.1771	-3.3875	-3.4604	-3.2208	-3.4896	-3.5062	-3.5917	-3.3646	-3.2146	-3.7146	-3.2292	-3.3063	-3.6437	-3.3604	-3.5021	81.741	-124.834	-18.519	-170.186	138.074	161.522	55.524	37.627	-68.187	-86.304	-71.323	124.562	163.018	140.052	177.726	73.812	0.00052091	0.00035393	0.00012006	1401.7	2.1008e-06	7.1474e-06	1405.6	373.82	4.4821e-06	5.6477e-06	428.11	145.11	132.55	44.222	7.0173e-06	54.344	0.00049486	0.00048696	0.00013529	1412.1	5.3043e-06	5.3031e-06	1424.6	377.44	5.2777e-06	5.3125e-06	432.08	148.13	134.64	44.991	5.3262e-06	55.46	-160.623	-35.559	-140.117	-157.464	-27.509	-18.323	-157.821	-153.281	-24.378	-6.880	-153.558	-149.490	-148.584	-144.026	-12.413	-144.536	-8191	255	
1387.273	1	1	0	0	0.19666	0.17434	0.033525	0.10198	0.0076262	0.20034	0.45973	0.093237	0.18145	0.22519	0.043609	0.28326	0.2179	0.22647	0.2379	0.10148	-3.175	-3.0333	-3.5167	-3.3917	-3.4146	-3.625	-3.3688	-3.4979	-3.4667	-3.1437	-3.5375	-3.4062	-3.2313	-3.5938	-3.1937	-3.3937	-139.178	128.229	-102.391	-155.507	39.073	182.032	105.153	-158.344	-156.432	103.674	-161.648	115.859	155.888	167.233	-117.049	150.202	0.00052524	0.00045784	0.00012882	1397.2	2.8188e-06	1.1677e-05	1411.5	371.21	3.8718e-06	6.7655e-06	426.66	145.05	131.74	44.143	7.4753e-06	53.932	0.00048157	0.00047746	0.00013341	1410.3	5.2316e-06	5.275e-06	1425	376.53	5.2968e-06	5.3546e-06	431.78	147.84	134.33	44.925	5.458e-06	55.308	-163.607	-51.104	-110.410	-157.383	-0.383	-25.949	-157.806	-153.223	-85.225	-103.221	-153.162	-149.328	-148.565	-144.113	-51.048	-144.689	-8191	255	
1387.369	1	1	0	0	0.25951	0.12117	0.10507	0.52496	0.078311	0.11428	0.31844	0.2059	0.12807	0.13438	0.216	0.25594	0.17988	0.17611	0.33584	0.38294	-3.1312	-3.0208	-3.6042	-3.4104	-3.1542	-3.7333	-3.3958	-3.4188	-3.5604	-3.2396	-3.4583	-3.45	-3.2562	-3.3083	-3.4229	-3.3958	-149.539	-33.779	-111.938	126.207	-154.547	-132.094	134.424	109.912	-161.798	-146.445	169.406	77.698	-162.200	-14.631	-51.364	139.540	0.00049075	0.00088724	7.0272e-05	1395.6	5.1251e-06	3.7099e-06	1405.7	371.3	5.9049e-06	3.1587e-06	425.74	144.68	131.76	44.136	6.7005e-06	53.938	0.00050158	0.00049724	0.00013978	1410.3	5.4784e-06	5.5593e-06	1422.4	376.19	5.5152e-06	5.5308e-06	431.37	147.59	134.14	44.891	5.5099e-06	55.176	-159.250	-71.067	-79.641	-157.530	-42.844	-57.507	-157.780	-153.192	-20.057	-93.327	-153.275	-149.264	-148.430	-143.968	-24.331	-144.515	-8191	255	
1387.490	1	1	0	0	0.34449	0.24919	0.17525	0.25191	0.16803	0.18017	0.32833	0.17753	0.18929	0.19776	0.17962	0.33833	0.14868	0.23508	0.068116	0.32243	-3.2125	-3.3646	-3.2687	-3.6979	-3.2438	-3.5708	-3.5729	-3.5021	-3.5875	-3.1542	-3.5604	-3.7313	-3.1792	-3.7292	-3.375	-3.5229	74.082	-2.715	15.307	177.836	146.459	-162.155	86.800	111.092	13.060	116.112	137.898	140.223	-153.063	-126.329	148.634	120.359	0.00044158	0.00017033	0.00014871	1401.2	3.5479e-06	5.1384e-06	1404	372.04	9.4097e-06	4.724e-06	427.39	144.56	132	44.06	2.0221e-06	54.122	0.00051061	0.00050269	0.00013944	1412.3	5.4635e-06	5.5219e-06	1423	376.27	5.5152e-06	5.544e-06	431.33	147.82	134.31	44.958	5.6629e-06	55.302	-156.061	-160.293	-120.087	-157.545	-11.334	-29.096	-157.730	-153.076	-51.293	-67.476	-153.681	-149.195	-148.511	-144.155	-107.745	-144.969	-8191	255	
1387.562	1	1	0	0	0.21805	0.10585	0.092306	0.27953	0.066177	0.14546	0.25588	0.27753	0.18863	0.26921	0.066127	0.12325	0.086852	0.18414	0.12695	0.14607	-3.1188	-3.1312	-3.5396	-3.5604	-3.3208	-3.3875	-3.4917	-3.2729	-3.8063	-3.2479	-3.4083	-3.725	-3.2083	-3.6021	-3.4896	-3.4188	86.010	-57.148	-151.883	-140.328	-75.020	-69.436	127.122	126.188	-157.943	54.726	-43.240	21.344	34.202	71.865	22.552	114.985	0.00047746	0.00081146	0.00018243	1399.8	3.9676e-06	8.9378e-06	1409.1	372.06	4.539e-06	6.0241e-06	422.98	144.1	131.13	43.758	3.2557e-06	53.89	0.00052176	0.00053201	0.00014764	1413.2	5.8791e-06	5.9532e-06	1427.8	376.64	6.0939e-06	6.095e-06	430.32	147.51	134.1	44.809	6.1556e-06	55.273	-161.797	-44.262	-107.028	-157.573	-22.097	-56.349	-157.846	-153.105	-103.625	-42.691	-153.384	-149.290	-148.497	-143.998	-37.725	-144.757	-8191	255	
1387.658	1	1	0	0	0.086264	0.22237	0.084363	0.16016	0.22664	0.12114	0.26477	0.12227	0.099764	0.16237	0.11105	0.11203	0.11124	0.065769	0.17623	0.16742	-3.1604	-3.0979	-3.4979	-3.7625	-3.0917	-3.4792	-3.5875	-3.3917	-3.4958	-3.3833	-3.3792	-3.4542	-3.4458	-3.5333	-3.4771	-3.3958	184.887	-26.214	-73.614	87.858	124.995	138.240	86.523	-10.595	-33.083	69.455	132.841	174.530	164.941	8.696	-166.832	168.326	0.00049782	0.00051575	2.8045e-05	1397.6	2.3434e-06	9.769e-06	1404.5	370.43	4.944e-06	1.1224e-06	424.44	144.69	131.59	43.741	8.1909e-06	53.951	0.00056217	0.00056235	0.00015786	1413.3	6.0784e-06	6.0886e-06	1426.2	375.86	6.035e-06	6.0186e-06	431.93	147.71	134.2	44.822	6.1544e-06	55.405	-157.323	-90.602	-136.361	-157.554	-23.536	-90.815	-157.660	-153.096	-0.801	185.371	-153.102	-149.235	-148.547	-143.852	-56.125	-144.799	-8191	255	
1387.778	1	1	0	0	0.090254	0.10322	0.26772	0.14825	0.23204	0.35118	0.078402	0.021266	0.19823	0.12987	0.01378	0.25983	0.36048	0.16913	0.10108	0.067438	-3.1521	-3.2042	-3.2479	-3.7958	-3.2542	-3.3917	-3.5583	-3.1229	-3.5625	-3.3583	-3.3312	-3.6562	-3.3375	-3.5042	-3.4375	-3.0833	111.442	14.340	102.655	91.613	-135.926	124.300	94.911	82.330	158.827	-32.374	29.880	155.898	-127.847	-152.416	5.351	120.867	0.00048685	0.00070473	0.00011735	1397.4	3.6199e-06	3.2766e-06	1406.7	370.67	5.5384e-06	4.1049e-06	424.16	145.01	131.15	44.222	1.9875e-06	53.892	0.00056059	0.00056135	0.00015808	1413.5	6.1417e-06	6.1855e-06	1425.6	376.52	6.0197e-06	6.1259e-06	431.42	147.93	134.16	44.97	5.9079e-06	55.352	-154.514	-68.347	-90.912	-157.432	-40.532	-93.268	-157.702	-153.144	-38.425	-94.699	-153.244	-149.169	-148.653	-143.963	-101.766	-144.674	-8191	255	
1387.874	1	1	0	0	0.30252	0.081164	0.095767	0.29685	0.19376	0.081018	0.19141	0.16199	0.059991	0.11753	0.15354	0.14094	0.2751	0.2329	0.20509	0.12519	-2.9562	-3.2708	-3.2667	-3.6917	-3.1708	-3.2729	-3.6375	-3.4625	-3.4646	-3.3792	-3.3625	-3.5187	-3.6125	-3.3937	-3.5354	-3.2687	168.157	69.261	-162.458	148.471	-87.753	6.379	140.465	127.739	-118.209	82.851	77.806	-121.303	175.797	177.860	-128.111	177.347	0.00046599	0.00047947	2.3303e-05	1403.5	6.7122e-06	2.233e-06	1402.3	370.84	7.4922e-06	1.065e-05	424.36	144.68	131.58	43.98	4.4847e-06	53.983	0.00053839	0.00053741	0.00015181	1414.7	6.0375e-06	6.106e-06	1423.9	376.92	6.2277e-06	6.2377e-06	432.54	147.98	134.12	44.939	6.2176e-06	55.397	-160.579	-42.036	9.826	-157.517	-24.563	63.577	-157.841	-153.323	-43.561	-19.424	-153.685	-149.286	-148.669	-143.933	3.189	-144.800	-8191	255	
1387.971	1	1	0	0	0.24732	0.11123	0.11868	0.45383	0.067147	0.35718	0.09665	0.33266	0.26827	0.33303	0.27604	0.24102	0.12344	0.1092	0.091433	0.24426	-3.0875	-3.3937	-3.0708	-3.8771	-3.4021	-3.3312	-3.75	-3.1312	-3.4167	-3.4229	-3.4	-3.5979	-3.2625	-3.3458	-3.6292	-3.2062	-112.121	148.450	161.826	178.886	-89.797	-106.867	152.376	139.123	-43.443	-118.702	99.518	13.522	68.271	-31.838	74.255	86.052	0.00046678	0.00061802	0.0001425	1402.2	5.1199e-06	2.6769e-06	1405.2	370.19	3.5227e-06	5.8105e-06	424.85	145.01	132.01	44.096	2.6686e-06	54.213	0.00056196	0.00055914	0.00015449	1415.6	6.03e-06	5.9982e-06	1426.2	376.4	5.8593e-06	5.7566e-06	432.07	148.09	134.41	45.028	5.4715e-06	55.505	-157.349	-87.036	-122.876	-157.384	-46.735	-51.390	-157.790	-153.147	-67.568	-31.690	-153.494	-149.208	-148.832	-144.101	21.114	-144.664	-8191	255	
1388.067	1	1	0	0	0.24426	0.061229	0.057399	0.37497	0.02562	0.09613	0.17189	0.22555	0.075318	0.11909	0.10129	0.1038	0.10553	0.20151	0.20715	0.22048	-3.1708	-3.3146	-3.1	-3.6688	-3.3021	-3.3125	-3.7208	-3.3083	-3.55	-3.5104	-3.2708	-3.6771	-3.5604	-3.375	-3.3917	-3.2875	-160.920	-113.139	-9.349	128.607	-126.542	58.137	121.014	-165.992	135.393	165.485	76.361	-111.464	-55.911	173.029	-29.050	59.867	0.00050581	0.00046854	0.00010095	1401.5	4.9933e-06	2.8188e-06	1410.2	373.26	4.8109e-06	2.3498e-06	426.95	146.29	132.58	44.371	3.7178e-06	54.573	0.0004948	0.00048192	0.00013441	1412.5	5.1515e-06	5.0927e-06	1424.8	377.31	5.1002e-06	5.1062e-06	431.07	148.58	134.82	45.16	5.1441e-06	55.553	-155.458	-83.287	-65.010	-157.334	-50.870	-38.920	-157.665	-153.259	-60.681	-40.834	-153.628	-149.291	-148.575	-143.967	-30.507	-144.578	-8191	255	
1388.161	1	1	0	0	0.17945	0.10901	0.053825	0.065738	0.21241	0.10264	0.15294	0.10333	0.277	0.13019	0.11	0.25044	0.079243	0.25587	0.15743	0.29763	-2.9375	-3.5396	-3.1688	-3.8563	-3.2854	-3.4083	-3.7854	-3.5792	-3.45	-3.6396	-3.3458	-3.5083	-3.3167	-3.2917	-3.4167	-3.3187	-156.590	32.316	30.902	129.542	45.367	-108.984	174.967	167.775	25.640	-53.438	49.769	185.179	-159.924	188.391	84.814	142.125	0.00051283	0.00026768	8.7233e-05	1401.8	2.527e-06	6.2186e-06	1406.8	374.16	2.5443e-06	5.79e-06	428.26	146.29	133.33	44.405	5.926e-06	54.665	0.00047233	0.00046355	0.00012921	1412.4	5.0562e-06	5.1296e-06	1423.7	378.18	5.1073e-06	5.0633e-06	431.73	148.71	135.01	45.237	5.0083e-06	55.773	-160.264	-18.195	71.479	-157.490	-14.280	-66.767	-157.635	-153.201	-54.472	-44.106	-153.585	-149.307	-148.600	-144.132	-16.723	-144.593	-8191	255	
#DATA ENDS
