BOXY.EXE: ISS Imagent and Oximeter Data Acquisition Program Version 0.80
Ascii Record File

#ACQ INFORMATION
2  Detector Channels 
16  External MUX Channels 
1  Auxiliary Channels 
5000  Waveform (CCF) Frequency (Hz)
1  Waveforms Skipped 
30  Waveforms Averaged 
1  Cycles Averaged 
16  Acquisitions per Waveform 
10.0806  Updata Rate (Hz) 

#FILE INFORMATION
TRUE -- External MUX Channel results are PARSED.
FALSE -- AC DC and Phase are NOT grouped.
TRUE -- Companion Program Settings File CREATED.
FALSE -- AC data not excluded
FALSE -- DC data not excluded
FALSE -- Phase data not excluded
FALSE -- Auxillary Chn. data not excluded
Tab delimiters

#CALIBRATION STATE
TRUE -- Waveform Calibration Values APPLIED.


#AUX CALIBRATION VALUES
Val Type	aux-1	

Term	1.0000e+00	
Factor	0.0000e+00	


#WF CALIBRATION VALUES
A = Detector Channel
Val Type	A-AC1	A-AC2	A-AC3	A-AC4	A-AC5	A-AC6	A-AC7	A-AC8	A-AC9	A-AC10	A-AC11	A-AC12	A-AC13	A-AC14	A-AC15	A-AC16	A-DC1	A-DC2	A-DC3	A-DC4	A-DC5	A-DC6	A-DC7	A-DC8	A-DC9	A-DC10	A-DC11	A-DC12	A-DC13	A-DC14	A-DC15	A-DC16	A-Ph1	A-Ph2	A-Ph3	A-Ph4	A-Ph5	A-Ph6	A-Ph7	A-Ph8	A-Ph9	A-Ph10	A-Ph11	A-Ph12	A-Ph13	A-Ph14	A-Ph15	A-Ph16	

Term	0.00000e+00	0.00000e+00	0.00000e+00	0.00000e+00	0.00000e+00	0.00000e+00	0.00000e+00	0.00000e+00	0.00000e+00	0.00000e+00	0.00000e+00	0.00000e+00	0.00000e+00	0.00000e+00	0.00000e+00	0.00000e+00	0.00000e+00	0.00000e+00	0.00000e+00	0.00000e+00	0.00000e+00	0.00000e+00	0.00000e+00	0.00000e+00	0.00000e+00	0.00000e+00	0.00000e+00	0.00000e+00	0.00000e+00	0.00000e+00	0.00000e+00	0.00000e+00	0.00000e+00	0.00000e+00	0.00000e+00	0.00000e+00	0.00000e+00	0.00000e+00	0.00000e+00	0.00000e+00	0.00000e+00	0.00000e+00	0.00000e+00	0.00000e+00	0.00000e+00	0.00000e+00	0.00000e+00	0.00000e+00	
Factor	1.00000e+00	1.00000e+00	1.00000e+00	1.00000e+00	1.00000e+00	1.00000e+00	1.00000e+00	1.00000e+00	1.00000e+00	1.00000e+00	1.00000e+00	1.00000e+00	1.00000e+00	1.00000e+00	1.00000e+00	1.00000e+00	1.00000e+00	1.00000e+00	1.00000e+00	1.00000e+00	1.00000e+00	1.00000e+00	1.00000e+00	1.00000e+00	1.00000e+00	1.00000e+00	1.00000e+00	1.00000e+00	1.00000e+00	1.00000e+00	1.00000e+00	1.00000e+00	X	X	X	X	X	X	X	X	X	X	X	X	X	X	X	X	

B = Detector Channel
Val Type	B-AC1	B-AC2	B-AC3	B-AC4	B-AC5	B-AC6	B-AC7	B-AC8	B-AC9	B-AC10	B-AC11	B-AC12	B-AC13	B-AC14	B-AC15	B-AC16	B-DC1	B-DC2	B-DC3	B-DC4	B-DC5	B-DC6	B-DC7	B-DC8	B-DC9	B-DC10	B-DC11	B-DC12	B-DC13	B-DC14	B-DC15	B-DC16	B-Ph1	B-Ph2	B-Ph3	B-Ph4	B-Ph5	B-Ph6	B-Ph7	B-Ph8	B-Ph9	B-Ph10	B-Ph11	B-Ph12	B-Ph13	B-Ph14	B-Ph15	B-Ph16	

Term	0.00000e+00	0.00000e+00	0.00000e+00	0.00000e+00	0.00000e+00	0.00000e+00	0.00000e+00	0.00000e+00	0.00000e+00	0.00000e+00	0.00000e+00	0.00000e+00	0.00000e+00	0.00000e+00	0.00000e+00	0.00000e+00	0.00000e+00	0.00000e+00	0.00000e+00	0.00000e+00	0.00000e+00	0.00000e+00	0.00000e+00	0.00000e+00	0.00000e+00	0.00000e+00	0.00000e+00	0.00000e+00	0.00000e+00	0.00000e+00	0.00000e+00	0.00000e+00	-1.03808e+02	-1.77211e+02	-1.31083e+02	-1.82823e+02	-9.80098e+01	-7.53848e+01	-1.56825e+02	-1.62015e+02	-7.17826e+01	-7.41865e+01	-1.74633e+02	-1.70805e+02	-1.86096e+02	-1.78665e+02	-8.12713e+01	-1.50289e+02	
Factor	1.71126e-05	7.94423e-05	2.53507e-05	1.83103e-01	8.15524e-07	1.04195e-06	1.75314e-01	6.14070e-02	7.26767e-07	9.63578e-07	1.53302e-01	2.98187e-02	4.30704e-02	9.63236e-03	9.86742e-07	1.34724e-02	4.16114e-07	4.22285e-07	1.17545e-07	8.55281e-02	4.63013e-09	4.62660e-09	7.79135e-02	2.83533e-02	4.62896e-09	4.62280e-09	6.15121e-02	1.31213e-02	1.81129e-02	4.31750e-03	4.62780e-09	5.78296e-03	X	X	X	X	X	X	X	X	X	X	X	X	X	X	X	X	



#DISTANCE SETTINGS
A = Detector Channel
A-1	A-2	A-3	A-4	A-5	A-6	A-7	A-8	A-9	A-10	A-11	A-12	A-13	A-14	A-15	A-16	

2.5000e+00	3.0000e+00	2.5000e+00	3.0000e+00	2.0000e+00	3.0000e+00	1.5000e+00	3.0000e+00	3.0000e+00	3.0000e+00	3.0000e+00	3.0000e+00	3.0000e+00	3.0000e+00	1.5000e+00	3.0000e+00	

B = Detector Channel
B-1	B-2	B-3	B-4	B-5	B-6	B-7	B-8	B-9	B-10	B-11	B-12	B-13	B-14	B-15	B-16	

1.0000e+01	1.0000e+01	1.0000e+01	1.4400e+00	1.0000e+01	1.0000e+01	1.5100e+00	1.9400e+00	1.0000e+01	1.0000e+01	1.9900e+00	2.4900e+00	2.4100e+00	2.9000e+00	1.0000e+01	2.9800e+00	




#DATA BEGINS
time	group	step	mark	flag	A-AC1	A-AC2	A-AC3	A-AC4	A-AC5	A-AC6	A-AC7	A-AC8	A-AC9	A-AC10	A-AC11	A-AC12	A-AC13	A-AC14	A-AC15	A-AC16	A-DC1	A-DC2	A-DC3	A-DC4	A-DC5	A-DC6	A-DC7	A-DC8	A-DC9	A-DC10	A-DC11	A-DC12	A-DC13	A-DC14	A-DC15	A-DC16	A-Ph1	A-Ph2	A-Ph3	A-Ph4	A-Ph5	A-Ph6	A-Ph7	A-Ph8	A-Ph9	A-Ph10	A-Ph11	A-Ph12	A-Ph13	A-Ph14	A-Ph15	A-Ph16	B-AC1	B-AC2	B-AC3	B-AC4	B-AC5	B-AC6	B-AC7	B-AC8	B-AC9	B-AC10	B-AC11	B-AC12	B-AC13	B-AC14	B-AC15	B-AC16	B-DC1	B-DC2	B-DC3	B-DC4	B-DC5	B-DC6	B-DC7	B-DC8	B-DC9	B-DC10	B-DC11	B-DC12	B-DC13	B-DC14	B-DC15	B-DC16	B-Ph1	B-Ph2	B-Ph3	B-Ph4	B-Ph5	B-Ph6	B-Ph7	B-Ph8	B-Ph9	B-Ph10	B-Ph11	B-Ph12	B-Ph13	B-Ph14	B-Ph15	B-Ph16	aux-1	digaux	

2322.684	1	1	0	768	0.17463	0.12202	0.04593	0.16509	0.048272	0.23113	0.14114	0.19587	0.11805	0.16721	0.079895	0.14547	0.09981	0.12521	0.24922	0.03503	-2.4125	-2.6854	-3.0312	-2.9667	-2.8396	-3.1354	-2.9958	-2.8604	-3.1458	-2.7625	-2.9875	-3.1083	-2.7125	-3.2667	-2.8187	-3.1312	289.772	300.954	441.567	461.451	233.742	415.640	399.820	510.435	228.812	403.134	409.082	465.399	357.379	160.886	515.857	309.573	0.0006652	0.00037812	4.4884e-05	1373.5	2.8117e-06	2.6432e-06	1364	366.81	4.5741e-06	2.0247e-06	423.51	140.35	121.55	41.892	3.9688e-06	51.89	0.00056812	0.00056797	0.00015863	1392.1	6.1938e-06	6.2182e-06	1382.6	374.89	6.2116e-06	6.2057e-06	430.72	143.93	125.46	43.108	6.2258e-06	53.541	214.839	238.789	251.197	171.112	227.691	165.092	171.032	175.832	394.775	455.830	175.328	179.407	179.716	184.945	199.372	183.708	-8191	255	
2322.780	1	1	0	0	0.1117	0.16943	0.17388	0.35047	0.13644	0.044585	0.14062	0.24986	0.18057	0.39701	0.21655	0.2497	0.047422	0.22947	0.17243	0.11953	-2.7625	-2.5833	-2.9833	-3.1375	-2.7021	-3.1542	-3.1646	-2.9521	-3.1542	-2.7083	-2.975	-3.0083	-2.7208	-3.3042	-2.7604	-3.1125	449.179	409.283	352.326	462.347	323.169	304.515	456.552	452.931	503.932	252.519	420.013	517.027	443.969	488.315	506.769	222.709	0.00058932	0.00021978	0.00010934	1369.9	2.4322e-06	6.1547e-06	1358.8	367.17	3.6066e-06	5.6661e-06	421.95	140.23	121.65	42.047	4.4582e-06	51.84	0.00056826	0.00056712	0.00015855	1391.4	6.1986e-06	6.2317e-06	1380.8	374.82	6.1895e-06	6.1811e-06	429.9	143.9	125.21	43.21	6.2174e-06	53.455	213.037	341.696	494.372	171.302	344.110	330.201	171.176	175.861	376.706	362.975	175.174	179.782	179.770	184.635	343.493	184.105	-8191	255	
2322.876	1	1	0	0	0.12507	0.15672	0.013048	0.13177	0.10194	0.10009	0.16057	0.082024	0.14105	0.061158	0.15039	0.25515	0.070761	0.25694	0.1317	0.12474	-2.6917	-2.65	-2.8083	-3.025	-2.6396	-2.8583	-3.0521	-2.9771	-2.9667	-2.8812	-2.9437	-3.1354	-2.7687	-3.1542	-3.0104	-2.8396	361.665	257.712	369.476	453.831	477.395	506.360	406.060	167.933	247.141	299.481	333.846	177.398	511.093	447.588	184.339	433.674	0.00058145	0.00015873	7.4343e-05	1375.1	4.6873e-06	7.2142e-06	1358.9	367.7	7.9438e-06	4.8022e-06	419.85	139.97	121.58	41.883	2.2178e-06	51.842	0.00056748	0.00056816	0.00015864	1393.1	6.2114e-06	6.2269e-06	1382.2	374.86	6.1994e-06	6.2051e-06	429.77	143.77	125.24	43.148	6.2296e-06	53.462	219.142	493.092	282.420	171.192	329.952	246.604	171.173	175.873	339.882	267.827	175.413	179.630	179.841	184.865	263.024	183.941	-8191	255	
2322.972	1	1	0	0	0.19059	0.21711	0.16478	0.30566	0.2004	0.21497	0.30073	0.062436	0.28666	0.093324	0.31998	0.21388	0.18062	0.25407	0.060418	0.066168	-2.525	-2.8104	-2.8167	-3.1354	-2.7542	-3.0083	-3.2188	-2.9354	-3.1146	-2.8896	-3.0229	-3.0312	-2.8063	-3.0354	-3.0812	-2.9188	158.746	378.910	177.595	432.037	381.424	307.853	444.724	463.535	239.946	300.345	407.665	505.189	487.582	187.862	473.341	295.350	0.00047553	0.00049002	7.7522e-05	1371.1	1.523e-06	6.1891e-06	1358.3	366.82	2.8162e-06	1.5089e-06	419.62	140.58	121.54	42.043	6.0519e-06	52.074	0.0005667	0.00056964	0.00015788	1391.9	6.2413e-06	6.2307e-06	1380.6	374.57	6.2044e-06	6.1704e-06	429.23	143.88	125.08	43.154	6.1934e-06	53.401	212.199	243.345	299.779	171.139	188.386	350.740	171.115	175.807	417.830	398.832	175.368	179.529	180.062	184.819	264.234	184.123	-8191	255	
2323.068	1	1	0	0	0.11776	0.15249	0.29725	0.29695	0.1282	0.24592	0.19974	0.17959	0.057812	0.072262	0.1373	0.31175	0.15505	0.02615	0.14745	0.10855	-2.8063	-2.6417	-2.9125	-3.2083	-2.6771	-2.9583	-3.1188	-2.8125	-2.9083	-2.8438	-2.8229	-3.2646	-2.7417	-3.0187	-3.0042	-2.9	454.481	453.518	485.760	426.103	435.009	476.142	451.200	472.477	418.587	227.912	403.349	167.770	195.336	303.573	310.494	288.208	0.00048158	0.00038001	0.00020886	1375	3.2253e-06	9.2733e-06	1361.9	368.8	9.2905e-06	7.039e-06	420.6	140.48	121.23	41.857	5.5037e-06	51.969	0.00056547	0.00056354	0.00015742	1393.1	6.1822e-06	6.2203e-06	1379.8	375.03	6.239e-06	6.1929e-06	430.05	143.93	125.23	43.101	6.2177e-06	53.414	225.173	188.885	230.541	171.239	513.510	442.633	170.914	175.715	329.330	162.514	175.167	179.696	179.693	184.831	203.779	184.122	-8191	255	
2323.164	1	1	0	0	0.12918	0.049412	0.19803	0.21726	0.073031	0.14117	0.077173	0.14445	0.1242	0.12667	0.091768	0.14182	0.17746	0.079323	0.18011	0.22157	-2.9875	-2.8958	-2.7208	-3.0938	-2.7729	-2.9813	-3.2542	-2.9688	-3.0812	-2.9208	-2.8125	-3.2833	-2.8792	-2.975	-3.1083	-2.7708	277.475	280.456	445.887	464.482	467.479	306.932	354.996	334.816	405.439	345.314	186.994	491.652	254.786	316.496	306.299	459.035	0.00055127	0.00051986	0.00013059	1373.1	2.9151e-06	6.0549e-06	1358.5	366.04	8.6291e-06	5.5589e-06	422.38	140.25	121.74	41.923	3.6302e-06	51.7	0.00056638	0.00056827	0.00015828	1392	6.2097e-06	6.2018e-06	1381.2	374.55	6.2299e-06	6.2463e-06	430.13	143.96	125.22	43.156	6.2075e-06	53.351	223.911	209.160	398.800	171.258	291.219	267.335	171.046	175.865	313.659	427.827	175.600	179.368	179.750	184.646	372.339	183.927	-8191	255	
2323.285	1	1	0	0	0.10329	0.15384	0.095002	0.1331	0.10881	0.32856	0.0367	0.047371	0.035097	0.13347	0.33944	0.2694	0.29819	0.09916	0.16321	0.21898	-2.5687	-2.825	-2.8208	-3.1083	-2.9646	-3.025	-3.1771	-2.9625	-2.975	-3.0438	-2.8208	-3.1729	-2.8625	-2.9938	-3.1229	-2.9396	214.719	432.435	246.691	452.040	222.689	274.241	294.048	232.874	294.479	242.603	507.000	498.311	404.655	183.014	289.903	160.837	0.00045469	8.6076e-05	0.00016909	1373.9	7.1723e-06	7.437e-06	1361.5	367.58	3.9511e-06	3.4383e-06	423.19	139.79	121.63	41.903	3.8054e-06	51.922	0.00056878	0.00056916	0.00015815	1391.1	6.2356e-06	6.2578e-06	1383	374.69	6.2627e-06	6.2494e-06	430.79	143.98	125.24	43.153	6.2375e-06	53.47	218.284	187.601	422.535	171.181	224.028	176.190	171.124	175.746	319.237	362.008	174.957	179.467	180.155	184.920	450.966	184.191	-8191	255	
2323.381	1	1	0	0	0.062215	0.18162	0.39774	0.15228	0.28569	0.095791	0.16484	0.20865	0.098632	0.27496	0.23025	0.11571	0.15213	0.14797	0.084094	0.35291	-2.5583	-2.8563	-2.6979	-3.2812	-2.8458	-2.8875	-3.1854	-2.9917	-3.0104	-3.1188	-2.8063	-3.2479	-3.0021	-2.9917	-2.9958	-3.0292	502.904	442.190	171.352	424.739	302.277	261.720	159.355	440.528	437.266	376.970	480.730	310.205	513.670	473.692	483.219	252.588	0.00043647	0.00012158	9.1996e-05	1371.4	8.0116e-06	2.3635e-06	1362.8	368.06	6.7903e-06	2.2627e-06	420.98	139.86	120.58	41.967	5.4392e-06	51.617	0.00056736	0.00056963	0.00015803	1393	6.2695e-06	6.2313e-06	1381.2	375.12	6.2104e-06	6.2092e-06	430.41	143.69	125.06	43.092	6.2192e-06	53.39	225.216	298.799	264.830	171.014	207.983	485.695	170.934	175.706	386.675	322.579	175.222	179.615	180.158	184.851	310.155	184.368	-8191	255	
2323.477	1	1	0	0	0.1902	0.27817	0.089634	0.27692	0.05174	0.36516	0.20843	0.11953	0.15185	0.17925	0.058615	0.090551	0.043188	0.19011	0.16471	0.20139	-2.5375	-3.05	-2.6854	-3.1146	-2.9437	-2.8396	-3.2562	-2.9167	-2.8208	-3.0812	-2.8625	-3.125	-3.0312	-3.0938	-3.0333	-2.8396	174.735	344.891	371.616	485.510	215.544	376.845	445.774	162.202	238.389	433.082	221.370	348.743	255.308	380.176	383.211	468.881	0.00046739	8.3693e-05	0.00020848	1377.7	5.8078e-06	4.7137e-06	1360.1	367.93	4.0646e-06	3.5609e-06	422.13	140.14	121.48	41.955	6.9404e-06	52.218	0.00056565	0.00056676	0.00015825	1393.2	6.2111e-06	6.2339e-06	1380.9	375.21	6.1971e-06	6.2007e-06	430.74	143.8	125.11	43.1	6.1914e-06	53.388	228.317	382.105	219.624	171.493	307.300	321.427	171.003	175.753	251.314	269.869	175.273	179.442	179.844	184.699	297.228	183.892	-8191	255	
2323.574	1	1	0	0	0.15872	0.4776	0.20722	0.23479	0.14647	0.28642	0.16471	0.14763	0.17211	0.19333	0.1973	0.28157	0.031705	0.24518	0.06367	0.14352	-2.45	-3.0104	-2.9521	-3.275	-2.9646	-2.8312	-3.3396	-2.8438	-2.8875	-3.1937	-2.9062	-3.1417	-3.0021	-2.9396	-3.0563	-3.0354	259.447	262.326	239.055	463.324	166.450	298.543	444.897	371.778	294.697	403.685	185.620	222.863	447.639	181.346	500.299	448.832	0.00057081	0.00016651	0.00016116	1372.9	3.3386e-06	6.5083e-06	1361.2	367.73	8.821e-06	1.3654e-06	422.58	139.5	121.53	41.902	6.3163e-06	51.772	0.00056622	0.00056732	0.00015754	1391.6	6.2007e-06	6.187e-06	1380.5	374.65	6.2164e-06	6.1881e-06	430.69	143.62	125.06	43.136	6.2317e-06	53.373	217.279	462.167	282.321	171.303	339.235	260.163	171.153	175.851	313.921	206.885	175.419	179.614	179.959	184.859	283.926	184.220	-8191	255	
2323.670	1	1	0	0	0.28708	0.1477	0.14904	0.20605	0.12603	0.12265	0.22487	0.16321	0.053587	0.062763	0.12197	0.25789	0.1989	0.21762	0.21062	0.30868	-2.5667	-3.2417	-2.8208	-3.0083	-2.9917	-2.9333	-3.3083	-3.2188	-2.8583	-3.1312	-2.8229	-3.1333	-3.1958	-2.8854	-3.1312	-3.0625	290.430	208.068	425.708	515.074	389.428	311.667	504.077	472.804	425.673	272.919	464.384	419.542	191.260	160.634	184.728	412.256	0.00061057	0.00069622	0.00011513	1373.1	4.875e-06	9.1486e-06	1362.3	366.72	1.9981e-06	1.8758e-06	422.16	140.02	121.67	41.973	4.7709e-06	51.559	0.00056601	0.00056729	0.00015744	1392.3	6.1968e-06	6.2174e-06	1381.6	374.43	6.1811e-06	6.1686e-06	429.8	143.57	125	43.107	6.1435e-06	53.234	222.990	206.447	210.846	171.090	514.012	504.993	170.895	175.587	215.218	192.371	175.403	179.736	179.669	184.813	362.408	184.053	-8191	255	
2323.766	1	1	0	0	0.17722	0.035803	0.082709	0.23746	0.3967	0.15946	0.068902	0.17614	0.14651	0.30387	0.35452	0.17679	0.12093	0.1445	0.093852	0.25353	-2.4146	-3.1875	-2.9375	-3	-3.1708	-2.5083	-3.1833	-3.0771	-2.8083	-3.1437	-2.9875	-3.1458	-3.125	-2.9208	-3.1396	-3.3063	478.655	323.479	391.829	467.819	478.620	374.960	431.443	430.206	166.490	391.971	329.176	507.705	433.447	482.458	213.766	446.280	0.00049206	0.00035026	0.00027725	1374.4	3.9345e-06	2.5413e-06	1353.2	367.8	9.8258e-06	8.9988e-06	420.27	139.84	120.85	41.833	4.0768e-06	51.519	0.00056245	0.00056226	0.00015662	1390.8	6.1532e-06	6.1495e-06	1376.9	374.62	6.1533e-06	6.1466e-06	428.82	143.62	124.46	43.028	6.1363e-06	53.242	208.609	434.823	274.722	171.234	291.275	458.437	170.986	175.633	284.685	268.050	175.480	179.415	179.595	184.647	346.828	184.062	-8191	255	
2323.885	1	1	0	0	0.12722	0.17352	0.30541	0.070966	0.22379	0.10335	0.15409	0.35151	0.15657	0.11058	0.36781	0.13683	0.19209	0.21591	0.18678	0.28494	-2.475	-3.1229	-2.7917	-2.9062	-3.2521	-2.8583	-3.3042	-3.1792	-2.8271	-3.1937	-3.0771	-2.9375	-3.3375	-2.9	-3.125	-3.2792	361.689	167.815	317.361	285.921	403.051	264.878	454.665	496.629	193.600	296.316	512.495	422.004	514.745	437.122	181.960	165.220	0.00053709	0.00051145	2.6857e-05	1378.2	5.4883e-06	6.3092e-06	1361.6	366.98	1.7751e-08	3.156e-06	422.13	139.97	120.68	41.941	2.3625e-06	51.522	0.00055981	0.00056177	0.00015575	1390.7	6.1208e-06	6.1213e-06	1378.8	373.93	6.1326e-06	6.1137e-06	428.97	143.55	124.52	43.007	6.1369e-06	53.208	220.294	493.810	179.668	171.087	174.128	205.518	171.149	175.720	314.324	409.321	174.916	179.500	180.008	185.034	420.968	184.260	-8191	255	
2323.981	1	1	0	0	0.24707	0.17159	0.12367	0.38012	0.035848	0.33267	0.25015	0.31413	0.15432	0.22406	0.14065	0.29076	0.22622	0.04461	0.24457	0.18205	-2.3583	-3.2625	-3.0625	-2.9021	-3.3583	-2.9104	-3.1521	-3.225	-2.8375	-3.2875	-2.9813	-2.9708	-3.3042	-2.8292	-3.0167	-3.1604	346.766	459.606	290.016	476.828	239.914	396.671	458.212	497.388	319.493	330.654	428.694	353.177	512.439	159.704	421.603	167.648	0.00051079	0.00022163	5.52e-05	1373.1	2.9216e-06	5.3692e-06	1356.7	367.67	4.4294e-06	7.3521e-06	421.82	140.26	121.67	42.038	2.1047e-06	51.736	0.00055653	0.00056181	0.00015465	1390	6.0999e-06	6.1207e-06	1376.7	373.73	6.108e-06	6.1258e-06	428.63	143.45	124.51	43.068	6.1242e-06	53.28	207.200	250.590	230.597	171.231	293.275	298.137	171.199	175.681	276.090	392.736	175.282	179.659	179.828	184.942	266.028	183.758	-8191	255	
2324.077	1	1	0	0	0.11118	0.098304	0.14581	0.3546	0.081369	0.16985	0.24216	0.30759	0.17328	0.24718	0.19886	0.23515	0.067143	0.10641	0.2287	0.18536	-2.4813	-2.9917	-3.2604	-2.8667	-3.2188	-3.0312	-3.1396	-3.2771	-2.9292	-3.1188	-3.0187	-3.2333	-3.1667	-3.0333	-2.9458	-3.2729	215.976	443.959	159.211	474.860	298.775	432.507	433.106	158.677	459.600	226.375	459.469	232.924	443.596	401.984	507.640	497.346	0.00041601	0.00048846	0.00017603	1378.5	3.0539e-06	4.694e-06	1359.4	368.27	2.6556e-06	3.8931e-06	420.97	140.01	121.2	41.912	8.6868e-06	51.85	0.00055859	0.00056145	0.00015583	1391.8	6.1315e-06	6.0942e-06	1377.7	374.24	6.0938e-06	6.0927e-06	428.71	143.29	124.84	42.993	6.1051e-06	53.207	215.042	409.359	507.549	171.299	486.640	329.889	171.099	175.857	234.473	272.875	175.268	179.517	179.774	184.654	219.998	184.243	-8191	255	
2324.173	1	1	0	0	0.073663	0.11363	0.17511	0.071145	0.45439	0.069556	0.3486	0.29538	0.21424	0.20732	0.22216	0.2037	0.065268	0.23627	0.20004	0.077052	-2.3917	-2.9542	-3.2354	-2.9792	-3.1042	-2.9542	-3.125	-3.1583	-2.6708	-3.0646	-3.1333	-2.9521	-3.1854	-3.05	-2.8354	-3.2042	456.019	274.785	283.786	245.544	321.329	350.260	440.827	475.302	377.070	463.672	193.159	170.757	214.936	196.344	467.173	434.180	0.00053155	0.00038866	2.7125e-05	1374.7	4.7935e-07	7.3492e-06	1357.1	366.92	2.5677e-06	7.363e-06	420.39	140.33	121.45	41.854	2.7442e-06	51.895	0.00055439	0.00055721	0.00015456	1390.6	6.0877e-06	6.0703e-06	1377.8	373.88	6.0686e-06	6.0746e-06	427.31	143.11	124.41	42.894	6.0316e-06	53.21	223.697	329.813	423.638	171.273	330.037	251.324	170.981	176.073	285.955	338.178	175.359	179.825	179.550	184.794	308.755	184.099	-8191	255	
2324.269	1	1	0	0	0.19828	0.26603	0.25315	0.085409	0.15976	0.22547	0.17876	0.28385	0.23952	0.05055	0.11593	0.08206	0.14079	0.034911	0.01717	0.1049	-2.45	-3.0292	-3.0833	-2.9729	-3.0167	-2.8021	-3.1146	-3.2396	-2.8646	-2.925	-3.3042	-3.1083	-3.0854	-3.1833	-2.8979	-3.3542	420.337	338.790	274.171	515.513	384.325	444.361	393.775	440.375	181.064	219.752	482.665	235.774	459.551	402.251	224.962	499.573	0.00045439	0.00038285	0.00029049	1375.1	2.8622e-06	8.7398e-06	1353.7	366.52	6.4663e-06	1.4469e-06	421.11	139.94	121.54	41.99	5.6913e-06	51.726	0.00055319	0.00055646	0.00015415	1388.5	6.0983e-06	6.1099e-06	1374.9	373.56	6.0874e-06	6.073e-06	427.76	143.05	124.41	42.995	6.0783e-06	53.231	237.371	190.018	196.501	171.078	465.742	280.135	171.237	175.792	259.756	454.400	175.535	179.504	179.782	184.747	352.614	184.167	-8191	255	
2324.365	1	1	0	0	0.012788	0.22643	0.3253	0.33012	0.095554	0.24351	0.22926	0.14885	0.14161	0.1169	0.41508	0.15105	0.080739	0.3279	0.12717	0.090441	-2.6083	-2.9875	-3.2917	-2.9917	-3.2604	-2.9604	-3.1271	-3.4292	-3.0521	-3.0312	-3.3187	-3	-2.9979	-3.3021	-2.8667	-3.2208	421.015	160.721	329.784	168.499	449.078	250.727	505.423	479.557	202.706	289.521	457.219	476.780	253.072	485.825	374.314	339.784	0.00042347	0.0002144	0.00010645	1375.3	2.1728e-06	7.9769e-06	1361.3	368.31	4.0053e-06	2.7093e-06	420.97	140.11	121.98	42.097	3.9023e-06	51.532	0.00055719	0.00055877	0.00015476	1390.8	6.1088e-06	6.1036e-06	1377.1	374.33	6.0952e-06	6.0973e-06	428.04	143.57	124.69	43.038	6.1289e-06	53.145	241.339	478.106	308.661	171.172	213.664	295.725	170.908	175.804	229.884	331.267	175.553	179.527	180.086	184.507	394.601	183.830	-8191	255	
2324.462	1	1	0	0	0.27341	0.22116	0.29277	0.43411	0.21757	0.15377	0.44287	0.2101	0.15031	0.13712	0.36704	0.16782	0.10892	0.17947	0.26179	0.038747	-2.8583	-2.9396	-3.3458	-3.0167	-3.1917	-2.9729	-2.95	-3.2687	-2.9292	-2.8667	-3.3479	-3.0917	-2.9292	-3.2917	-2.8958	-3.2812	461.262	494.489	321.815	162.653	501.434	176.150	424.498	400.063	450.540	179.227	183.280	461.144	432.906	487.283	417.553	273.448	0.00050236	0.00060913	0.00011968	1375.3	7.0832e-06	7.1852e-07	1351.8	366.91	6.8953e-06	6.7027e-06	418.59	139.81	121.75	41.98	3.064e-06	51.885	0.00055638	0.00055534	0.00015549	1391.4	6.0469e-06	6.0392e-06	1372.1	373.57	6.0152e-06	6.0238e-06	426.35	143.07	124.46	42.969	6.0657e-06	53.208	214.634	232.069	393.825	171.154	317.335	454.410	170.858	175.872	304.229	410.750	175.096	179.301	180.184	184.723	208.966	183.950	-8191	255	
2324.558	1	1	0	0	0.15018	0.15029	0.26646	0.16867	0.096966	0.16232	0.15537	0.19926	0.086329	0.28682	0.20206	0.57255	0.021724	0.16912	0.3069	0.07506	-2.7167	-2.9042	-3.15	-3.2542	-3.0667	-3.3167	-3.0667	-3.3625	-3.1792	-2.7938	-3.175	-3.2	-3.0354	-3.2979	-2.8167	-3.1896	340.359	381.078	297.797	161.452	294.311	250.949	233.962	170.764	163.425	225.528	185.060	479.019	356.634	515.280	241.876	280.753	0.00053187	0.00069091	0.00019615	1376.1	5.9598e-06	3.9156e-06	1350.3	366.36	4.3425e-06	3.274e-06	419.05	140.37	120.85	41.805	4.6079e-06	51.217	0.00055398	0.00055159	0.00015457	1390.3	6.0711e-06	6.0416e-06	1372.8	372.92	6.0543e-06	6.0449e-06	426.38	142.79	123.96	42.824	6.0236e-06	53.036	229.761	200.540	215.060	171.266	187.319	463.381	171.128	175.747	281.765	384.848	175.336	179.690	179.973	185.062	484.399	184.141	-8191	255	
2324.654	1	1	0	0	0.040368	0.045894	0.14417	0.27834	0.22743	0.042894	0.094482	0.22298	0.18845	0.14704	0.13131	0.054764	0.19373	0.092684	0.1271	0.14256	-2.6312	-2.9208	-3.4083	-3.0479	-3.1312	-3.3	-3.0583	-3.0125	-3.1854	-2.7438	-3.325	-2.9729	-2.9208	-3.3396	-2.8667	-3.3083	193.026	256.998	346.004	514.191	288.991	393.790	462.696	405.412	383.340	236.590	193.625	428.117	485.120	430.003	509.516	380.667	0.00053393	0.0009342	0.00016772	1376.8	1.7995e-06	4.9739e-06	1349.4	366.15	3.7038e-06	6.3584e-06	418.29	139.38	121.22	41.922	4.0874e-06	51.684	0.00055093	0.00054958	0.0001531	1387.8	6.0068e-06	6.0369e-06	1368.3	372.55	5.9849e-06	6.0316e-06	426.09	142.83	124.09	42.851	6.0566e-06	53.103	218.586	456.748	186.841	171.405	178.307	238.504	171.059	175.652	348.978	379.043	175.131	179.663	179.943	184.837	320.482	184.105	-8191	255	
2324.773	1	1	0	0	0.21661	0.12943	0.05265	0.37971	0.21376	0.11606	0.37846	0.26302	0.164	0.046813	0.13632	0.37523	0.13935	0.074925	0.021619	0.40785	-2.8438	-2.9625	-3.1333	-3.1562	-2.9896	-3.2313	-3.0979	-3.1771	-3.1917	-2.9542	-3.2542	-3.2625	-2.8958	-3.3396	-2.8646	-2.9813	274.674	253.243	399.357	490.453	417.205	199.420	443.870	160.427	390.938	312.985	437.021	159.801	416.481	487.004	196.518	479.870	0.00050519	0.00052623	7.4583e-05	1376.3	3.6198e-06	1.0188e-05	1353.2	367.81	6.8403e-06	1.1895e-05	420.37	139.71	122.11	41.78	2.4316e-06	51.719	0.00055275	0.00055317	0.00015472	1390.6	6.0779e-06	6.106e-06	1375.9	374.18	6.111e-06	6.1275e-06	428.23	143.51	125.09	43.12	6.1396e-06	53.38	224.179	173.765	310.896	171.199	512.224	304.929	171.189	175.802	328.421	274.357	175.432	179.244	179.948	185.082	509.471	184.329	-8191	255	
2324.846	1	1	0	0	0.3568	0.071564	0.15886	0.23643	0.11394	0.14135	0.096051	0.1616	0.038159	0.097693	0.16761	0.40064	0.0072349	0.26315	0.11523	0.15702	-2.7938	-3.0021	-3.1	-3.2917	-2.8167	-3.225	-3.1646	-2.9646	-3.2583	-2.9833	-3.1333	-3.3458	-2.7604	-3.3937	-3.1792	-3.1312	489.444	162.875	488.258	448.457	370.463	264.966	350.202	467.057	274.059	345.335	363.550	513.066	448.578	259.547	410.647	450.624	0.00051428	0.00082995	3.909e-05	1380.6	5.3349e-06	8.0558e-06	1362.7	367.48	3.3571e-06	7.2591e-06	422	140.86	122.48	41.755	7.3452e-06	51.785	0.0005603	0.00055912	0.00015554	1397	6.1133e-06	6.1181e-06	1383.3	374.65	6.1668e-06	6.1771e-06	431.34	143.98	125.41	43.139	6.1418e-06	53.49	214.721	215.485	501.145	171.265	296.683	323.675	171.188	175.696	301.140	279.263	175.233	179.569	180.137	184.746	336.125	184.130	-8191	255	
2324.965	1	1	0	0	0.17242	0.16842	0.13452	0.2975	0.051331	0.14822	0.052507	0.30336	0.19697	0.15102	0.25466	0.1335	0.12918	0.42682	0.087574	0.28443	-3.0187	-2.8354	-3.0583	-3.2854	-2.7292	-3.2167	-3.1792	-3.2271	-3.3812	-3.0792	-3.1396	-3.3458	-2.9521	-3.2708	-3.1021	-2.9833	399.959	290.925	448.817	167.555	192.839	471.789	196.287	472.224	345.038	395.701	364.103	467.071	199.012	502.777	355.844	302.395	0.00057402	0.00025405	8.6257e-05	1388.3	6.2023e-07	5.9557e-06	1367.9	369.44	4.5274e-06	5.4814e-06	423.82	141.44	122.15	41.991	5.9164e-06	52.368	0.00056402	0.00056506	0.00015777	1403.4	6.1986e-06	6.2087e-06	1389.2	376	6.231e-06	6.2333e-06	432.77	144.3	125.54	43.184	6.1988e-06	53.526	213.749	342.684	436.670	171.325	458.969	338.685	170.960	175.584	408.472	261.176	175.220	179.511	180.013	184.871	189.487	183.992	-8191	255	
2325.061	1	1	0	0	0.12528	0.15346	0.14052	0.088306	0.059437	0.17016	0.24274	0.18743	0.049173	0.20424	0.092174	0.16262	0.26719	0.12472	0.34432	0.16911	-2.7333	-2.725	-3.0062	-3.4521	-2.9667	-3.225	-3.3083	-2.9667	-3.1604	-2.9646	-3.1979	-3.3833	-2.9062	-3.325	-3.0792	-2.9625	234.729	422.303	230.193	418.276	362.863	358.594	468.084	458.715	301.362	276.811	325.304	416.818	484.745	426.886	168.542	492.602	0.00043811	0.00039629	6.7568e-05	1386.6	2.6576e-06	5.7018e-06	1368.6	368.75	5.9588e-06	6.3345e-06	422.97	140.12	122.61	42.216	5.603e-06	51.997	0.0005674	0.00056701	0.00015801	1405.1	6.2061e-06	6.2416e-06	1388.5	375.91	6.2344e-06	6.1966e-06	432.4	144.07	125.6	43.203	6.2006e-06	53.508	211.586	474.315	311.465	171.411	305.161	314.456	170.917	175.688	318.134	485.620	175.133	179.436	179.919	184.668	291.062	183.807	-8191	255	
2325.157	1	1	0	0	0.18413	0.014326	0.031953	0.18698	0.16592	0.11892	0.29674	0.13993	0.1362	0.29013	0.30017	0.19463	0.1125	0.13955	0.066023	0.16367	-2.8771	-3.1562	-3.0125	-3.4562	-3.0917	-3.0604	-3.3375	-2.9375	-3.2271	-2.9938	-3.2188	-3.2125	-2.9938	-3.1104	-3.1937	-3.0438	229.197	329.618	446.367	158.405	246.841	456.127	509.999	466.177	276.714	420.743	507.437	474.148	467.205	203.600	461.049	457.327	0.00054802	0.00020137	6.8595e-05	1385.2	1.6644e-06	6.9233e-06	1363.1	368.44	3.2374e-06	4.3988e-06	423.52	140.56	121.84	42.209	4.1451e-06	51.932	0.00056427	0.00056074	0.00015649	1400.9	6.1005e-06	6.1173e-06	1382.2	374.63	6.058e-06	6.0468e-06	428.74	143.56	124.76	43.125	6.0638e-06	53.283	222.534	480.555	255.229	171.129	287.073	225.463	171.014	175.875	391.665	384.477	175.164	179.620	179.896	184.869	236.026	184.225	-8191	255	
2325.254	1	1	0	0	0.20637	0.12473	0.18559	0.41984	0.24484	0.0073403	0.13052	0.22989	0.081818	0.17949	0.3029	0.061315	0.05225	0.15716	0.1595	0.39788	-2.9833	-3.1583	-2.8958	-3.475	-2.9542	-3.0812	-3.3937	-3.0312	-3.2229	-2.9938	-2.8333	-3.2167	-3.1229	-3.1625	-3.3312	-3.0771	415.879	416.275	222.365	510.679	231.032	284.031	475.900	497.567	201.060	381.515	177.490	485.629	160.675	212.272	393.403	430.188	0.00047733	0.00049926	0.0001095	1380.4	7.9818e-06	4.2955e-06	1358.1	366.95	4.0052e-06	4.5737e-06	421.52	140.45	121.28	42.08	1.0876e-06	51.83	0.00055398	0.00055424	0.00015395	1397.5	6.0697e-06	6.0548e-06	1379.5	374.21	6.0791e-06	6.0697e-06	429.08	143.45	124.57	42.998	6.0566e-06	53.3	226.491	502.066	195.422	171.227	351.546	281.328	171.042	175.558	388.645	490.460	175.322	179.544	179.848	184.540	247.639	184.016	-8191	255	
2325.374	1	1	0	0	0.14836	0.12138	0.025741	0.23056	0.20726	0.084262	0.26116	0.31063	0.021555	0.049817	0.21055	0.086961	0.15003	0.19068	0.16262	0.11167	-2.9021	-3.1021	-2.8333	-3.3917	-3.0042	-2.9854	-3.2979	-3.15	-3.3208	-3.1604	-3.1646	-3.2167	-3.0229	-3.0938	-3.3229	-3.0271	393.536	239.965	428.287	469.614	384.375	356.510	422.973	470.910	467.684	348.406	163.798	455.201	218.189	478.757	219.018	460.097	0.00054765	0.00032726	0.00013089	1382.2	3.6909e-06	5.3431e-06	1360	367.99	6.7451e-06	4.6897e-06	421.99	140.83	122.1	42.104	4.3886e-06	52.031	0.00055337	0.00055314	0.0001536	1396.6	6.0481e-06	6.03e-06	1380.8	374.45	6.0248e-06	6.0036e-06	428.57	143.37	124.53	43.013	6.0455e-06	53.338	217.533	206.672	508.275	171.392	240.684	275.176	171.010	175.776	331.634	281.546	175.774	179.480	179.855	184.530	402.432	184.179	-8191	255	
2325.470	1	1	0	0	0.051936	0.18905	0.1315	0.12136	0.15289	0.080799	0.29365	0.099545	0.030353	0.21078	0.27378	0.132	0.25575	0.2458	0.038361	0.212	-2.6854	-3.1208	-2.8917	-3.2104	-3.2271	-2.9917	-3.4542	-3.0125	-3.0729	-3.4042	-2.9042	-3.2438	-3.0854	-3.2438	-3.2917	-2.8438	344.469	172.122	486.842	190.824	468.848	350.056	407.301	342.762	363.518	356.072	445.621	246.436	515.066	512.868	252.452	421.528	0.00060528	0.00028373	9.8307e-05	1381.4	1.2993e-06	3.6688e-06	1362.4	368.08	2.442e-06	5.1121e-06	424.57	140.24	121.8	42.085	7.1571e-06	52.028	0.00054936	0.00055017	0.00015305	1396.9	6.0171e-06	6.0174e-06	1379.8	374.4	6.0313e-06	6.037e-06	429.33	143.65	124.69	43.046	6.0585e-06	53.331	214.062	226.279	364.561	171.199	185.088	466.618	171.042	175.737	371.107	318.326	175.364	179.316	179.880	184.654	492.484	184.094	-8191	255	
2325.542	1	1	0	0	0.1283	0.11681	0.10121	0.14321	0.030815	0.040232	0.36113	0.34723	0.23252	0.13022	0.13722	0.18152	0.1378	0.21915	0.10173	0.025418	-2.6271	-3.1021	-2.8354	-3.3333	-3.0896	-3.0021	-3.2542	-3.0958	-3.1604	-3.175	-2.9583	-3.1792	-3.1479	-2.9833	-3.2604	-3.1792	384.497	433.967	287.766	470.031	400.495	305.045	418.627	463.304	496.976	250.936	400.602	340.873	172.525	444.278	512.533	423.733	0.00051321	0.00075657	0.00015368	1387.1	2.4754e-06	5.5142e-06	1357	367.28	4.8205e-06	7.2727e-06	423.8	140.83	121.71	42.08	5.0544e-06	52.049	0.00055226	0.0005509	0.00015413	1397.1	6.0786e-06	6.0789e-06	1380.9	374.42	6.0895e-06	6.0993e-06	430.03	143.93	124.81	43.029	6.1081e-06	53.448	221.565	263.346	251.106	171.276	314.025	369.599	171.311	175.845	301.159	401.083	175.049	179.562	179.995	184.921	290.390	183.923	-8191	255	
2325.663	1	1	0	0	0.15186	0.21195	0.14932	0.1742	0.062451	0.14994	0.18313	0.23527	0.14066	0.21357	0.17932	0.041282	0.23394	0.345	0.067478	0.05527	-2.4646	-3.3479	-2.8625	-3.3667	-3.15	-2.9313	-3.525	-2.9771	-3.15	-3.2625	-3.1542	-3.2104	-3.2458	-2.8458	-3.2438	-3.0708	268.965	441.858	316.228	414.033	212.647	343.594	469.398	422.187	301.246	331.271	387.650	256.749	213.303	161.669	252.545	496.658	0.00064584	0.00030025	2.9313e-05	1384.6	5.4934e-06	7.7191e-06	1359.8	369.36	2.0477e-06	8.8542e-07	422.99	140.51	121.88	42.134	2.5935e-06	51.895	0.00055785	0.00055815	0.00015472	1399.5	6.1114e-06	6.0804e-06	1380.9	374.78	6.0884e-06	6.0762e-06	428.85	143.51	124.74	43.119	6.101e-06	53.367	210.265	407.224	167.863	171.191	361.165	331.308	171.187	175.556	240.584	315.085	175.298	179.774	179.856	184.770	384.481	184.030	-8191	255	
2325.757	1	1	0	0	0.21848	0.28321	0.14459	0.15608	0.16811	0.059658	0.032673	0.060127	0.40009	0.27837	0.40043	0.061747	0.077046	0.11121	0.077627	0.24191	-2.6875	-3.2792	-3.0979	-3.3021	-3.1417	-2.9313	-3.3563	-3.0458	-2.8375	-3.0833	-3.0271	-3.1375	-3.1792	-2.8937	-3.1542	-3.3896	194.559	229.358	442.904	185.381	509.481	346.775	308.306	263.491	213.803	183.096	442.346	504.132	459.008	459.571	492.136	449.767	0.00063674	0.00031521	0.00021416	1386.8	4.2459e-06	4.3802e-06	1364.1	368.96	3.1251e-06	5.7293e-06	424.2	140.52	122.04	41.894	8.99e-06	52.241	0.00055675	0.00055819	0.0001555	1401	6.129e-06	6.1536e-06	1384.1	374.87	6.1321e-06	6.1557e-06	431.73	143.81	125.15	43.079	6.1212e-06	53.526	208.037	216.195	226.746	171.372	213.853	281.830	170.988	175.704	310.384	504.289	174.947	179.176	179.745	184.846	291.974	184.182	-8191	255	
2325.853	1	1	0	0	0.14966	0.2179	0.10969	0.13463	0.20353	0.25899	0.33385	0.32184	0.14493	0.074928	0.19229	0.22552	0.19085	0.13997	0.23731	0.14369	-2.5687	-3.2062	-2.8125	-3.1458	-3.1083	-2.8438	-3.2208	-3.1479	-2.8292	-3.2167	-3.0729	-3.0187	-3.1354	-3.1104	-3.0875	-3.1604	218.878	392.355	206.170	345.933	195.196	317.524	504.780	506.462	184.852	238.911	161.585	207.219	490.762	366.683	501.488	391.946	0.00048259	0.00028442	0.00010509	1384.2	7.7447e-06	1.0804e-05	1362.8	367.29	2.4962e-06	2.8414e-06	423.22	141.18	121.66	41.922	4.9362e-06	51.94	0.00056144	0.00056163	0.00015598	1400	6.1563e-06	6.1668e-06	1384	374.83	6.1584e-06	6.1477e-06	431.13	144.04	125.01	43.113	6.2076e-06	53.525	222.006	223.081	400.369	171.149	315.271	289.739	171.045	175.625	242.461	161.331	175.222	179.576	179.860	184.856	272.429	184.025	-8191	255	
2325.949	1	1	0	0	0.20018	0.35954	0.070325	0.43856	0.22362	0.30346	0.14121	0.17411	0.16528	0.1049	0.014754	0.11404	0.21806	0.31872	0.081415	0.064608	-2.3875	-3.0771	-2.8854	-2.9917	-3.1771	-2.8958	-3.1688	-3.2604	-2.7771	-3.1771	-3.025	-3.0354	-3.2021	-3	-3.0687	-3.3458	293.110	324.197	430.287	472.509	403.471	168.306	404.348	413.202	414.294	259.799	159.366	478.562	511.770	398.674	332.651	366.789	0.00054707	0.00035225	0.00017505	1385.5	6.7931e-06	8.545e-06	1366.5	367.3	2.7221e-06	4.1972e-06	424.17	140.41	121.24	41.996	6.0458e-06	51.949	0.00056722	0.00056873	0.00015823	1399.9	6.1861e-06	6.1829e-06	1382.3	374.36	6.1294e-06	6.132e-06	431.49	143.5	124.63	43.026	6.0871e-06	53.336	223.359	287.022	184.907	171.342	402.636	367.680	171.280	175.728	241.744	284.499	174.978	179.495	179.837	184.771	224.062	184.015	-8191	255	
2326.070	1	1	0	0	0.21935	0.018811	0.1129	0.25192	0.14619	0.16396	0.47286	0.077519	0.28977	0.11085	0.20238	0.27098	0.14591	0.14028	0.17602	0.11406	-2.3875	-3.1083	-2.8563	-2.9625	-3.1312	-2.9917	-3.2521	-3.1792	-2.8792	-3.0583	-3.2625	-3.0042	-3.3063	-2.9188	-3.0167	-3.4083	252.352	325.466	211.088	460.124	359.984	176.494	489.721	214.372	267.242	304.081	174.017	457.021	388.554	457.829	270.595	516.298	0.00053532	0.00054101	2.6289e-05	1381.2	3.7485e-06	2.5692e-06	1358.8	366.35	6.16e-06	3.9957e-06	422.27	139.98	121.53	41.908	4.4052e-06	51.896	0.00055799	0.00055572	0.00015403	1397.8	6.0744e-06	6.0451e-06	1377.7	373.32	5.9961e-06	5.9998e-06	428.17	143.01	124	42.873	6.0053e-06	53.211	207.912	255.945	357.086	171.428	304.597	420.998	171.023	175.667	192.873	333.184	175.320	179.370	179.854	184.621	278.720	184.188	-8191	255	
2326.142	1	1	0	0	0.14979	0.24551	0.27078	0.1051	0.23832	0.1074	0.22526	0.13555	0.074407	0.23323	0.20624	0.21226	0.10609	0.0090955	0.25544	0.2111	-2.475	-3.0438	-3.05	-2.9396	-3.4479	-2.9354	-3.0375	-3.2583	-2.6604	-2.9896	-3.0333	-2.8688	-3.1333	-2.9917	-2.9042	-3.0833	298.216	378.229	420.985	287.759	220.828	418.870	442.921	456.510	431.018	354.803	162.977	491.018	505.908	516.829	516.330	451.234	0.00033923	0.00059135	0.00017258	1385.2	7.1758e-06	7.6226e-06	1355.4	366.53	2.1588e-06	1.8936e-06	424.25	140.39	121.27	41.929	2.4345e-06	51.784	0.00054818	0.00055286	0.0001547	1397.8	6.0992e-06	6.0936e-06	1378.9	373.43	6.0309e-06	6.0582e-06	429.73	143.1	124.31	42.974	5.9798e-06	53.127	210.176	479.283	229.097	171.228	271.459	279.933	171.096	175.685	322.338	303.377	175.120	179.489	179.896	184.845	481.495	184.179	-8191	255	
2326.238	1	1	0	0	0.15645	0.27533	0.23331	0.40097	0.11137	0.076135	0.28615	0.083395	0.14691	0.04651	0.28584	0.20947	0.27174	0.31354	0.19195	0.051016	-2.1667	-2.9938	-2.8625	-2.9771	-3.2021	-2.7792	-3.0625	-3.1125	-2.8271	-2.8896	-3.2042	-2.7646	-2.8312	-2.9396	-2.8771	-3.3292	484.801	421.713	398.292	413.076	432.985	509.969	473.152	219.612	514.722	336.374	499.599	500.092	460.992	422.673	479.706	505.949	0.00040215	0.00032529	0.00023354	1381.6	2.5351e-06	3.9822e-06	1362.9	366.94	4.5179e-06	5.0444e-07	421.78	140.43	121.94	41.963	5.8147e-06	52.05	0.00054541	0.00054421	0.00015183	1397.3	6.0009e-06	5.9772e-06	1378.4	373.23	5.9852e-06	5.9888e-06	428.88	143.16	124.26	42.909	5.9881e-06	53.232	210.558	487.740	462.724	171.017	191.419	188.693	171.122	175.744	265.905	256.533	175.406	179.736	179.750	184.975	168.080	183.895	-8191	255	
2326.334	1	1	0	0	0.070027	0.091011	0.21151	0.1709	0.22911	0.2285	0.32876	0.19439	0.11001	0.25477	0.27751	0.046999	0.12894	0.30762	0.13184	0.35217	-2.4708	-2.9104	-3.0333	-2.875	-3.1562	-2.9396	-3.0021	-3.0708	-3.0792	-2.8458	-3.1625	-2.7812	-3.1375	-2.9479	-2.8479	-3.1583	385.266	230.449	330.602	449.419	282.485	179.905	424.483	483.379	476.873	266.071	412.295	208.886	169.893	458.867	457.039	431.230	0.00045015	0.00032913	7.8091e-05	1386.4	3.9891e-06	5.8841e-06	1360.7	367.16	5.4141e-06	8.1422e-06	419.58	140.21	121.33	41.898	4.1982e-06	51.977	0.00054879	0.00054867	0.00015383	1396.7	6.0445e-06	6.0373e-06	1378.3	373.54	6.0453e-06	6.0379e-06	428.17	142.97	124.15	42.895	6.0163e-06	53.182	218.841	257.510	331.558	171.129	279.425	313.513	170.894	175.614	294.915	297.895	175.121	179.660	180.234	184.757	317.439	184.216	-8191	255	
2326.455	1	1	0	0	0.29392	0.33261	0.073406	0.109	0.11157	0.068755	0.049954	0.16114	0.13838	0.1579	0.1156	0.26149	0.10152	0.38057	0.16196	0.17504	-2.5187	-2.9208	-3.1042	-2.8771	-3.0229	-3.0375	-3.0229	-3.1667	-2.7271	-2.8563	-3.1521	-2.8958	-3.1042	-3.0396	-2.6896	-3.1083	391.550	250.971	284.214	477.470	472.644	319.987	451.672	381.160	407.347	282.480	200.233	420.359	249.177	493.700	480.308	491.049	0.00044542	0.00061216	0.00011075	1379.3	1.6936e-06	1.0673e-05	1356.5	366.36	6.0912e-06	9.5384e-06	423.43	139.99	121.22	41.739	7.4419e-06	51.743	0.00054771	0.00055035	0.00015323	1393.8	6.056e-06	6.0633e-06	1377	372.83	6.0342e-06	6.016e-06	428.28	143.1	123.97	42.897	6.0174e-06	53.111	222.714	169.545	515.842	171.152	198.666	285.661	171.206	175.675	315.247	304.415	175.286	179.616	179.890	184.841	516.935	184.183	-8191	255	
2326.551	1	1	0	0	0.073395	0.058704	0.15221	0.17404	0.099962	0.048364	0.19475	0.23284	0.089834	0.11408	0.30452	0.24637	0.10083	0.079043	0.21494	0.084419	-2.5979	-2.6583	-3.1312	-2.9688	-2.9792	-3.1562	-3.0208	-3.1625	-2.8812	-2.7333	-3.1333	-3.0854	-2.8542	-3.2146	-2.8083	-3.2229	273.307	391.996	511.218	408.186	459.035	491.776	482.596	427.476	178.411	232.885	508.177	460.014	484.172	406.550	444.498	426.020	0.00045872	0.00064274	4.7767e-05	1380	8.8165e-06	7.1154e-06	1352.7	365.24	1.8894e-06	9.2496e-07	420.33	140.06	121.29	41.882	5.0102e-06	51.716	0.00054954	0.00054427	0.00015184	1391	5.9189e-06	5.936e-06	1368.1	371.81	5.8969e-06	5.9005e-06	425.69	142.46	123.45	42.72	5.8835e-06	52.837	217.465	343.305	232.566	171.345	259.988	460.776	171.002	175.707	175.150	240.795	175.529	179.532	179.885	184.837	241.399	184.226	-8191	255	
2326.647	1	1	0	0	0.15123	0.050731	0.13815	0.12273	0.11756	0.083109	0.15314	0.37261	0.23593	0.10947	0.11546	0.078723	0.33304	0.1358	0.28344	0.10731	-2.5896	-2.7208	-2.975	-3.0042	-2.9583	-3.1333	-3.0438	-3.1396	-3.0667	-2.8604	-3.1875	-3.1104	-2.8833	-3.0979	-2.7875	-3.1375	172.438	431.118	504.040	496.889	364.044	329.604	448.257	439.345	488.973	470.183	348.628	250.678	469.660	435.025	218.456	164.434	0.00048861	0.00039557	0.00010156	1372.3	3.0735e-06	4.5368e-06	1352	366.08	5.1309e-06	5.2129e-07	421.01	139.09	120.19	41.701	3.9228e-06	51.861	0.00053498	0.00053576	0.0001491	1387	5.8669e-06	5.8524e-06	1365.6	370.93	5.8627e-06	5.865e-06	424.34	142.18	123.06	42.611	5.8736e-06	53.013	209.033	493.690	168.357	171.247	325.738	323.312	171.376	175.786	205.123	188.695	175.540	179.501	180.012	184.761	198.119	183.914	-8191	255	
2326.743	1	1	0	0	0.21844	0.037992	0.19047	0.23171	0.27418	0.1815	0.30844	0.10277	0.14128	0.10607	0.22179	0.37846	0.02688	0.21204	0.10531	0.14091	-2.5521	-2.7313	-3.0125	-2.9646	-2.7375	-3.1646	-2.9021	-3.0458	-2.7604	-2.6542	-2.9646	-2.8125	-2.8083	-2.9813	-2.9146	-3.0125	294.676	210.105	177.833	471.544	374.310	305.087	424.943	447.538	446.126	431.759	432.700	510.154	197.948	459.533	188.526	512.945	0.00042929	0.00082672	0.00020064	1376.2	3.1293e-06	5.3388e-06	1351.2	365.47	4.4951e-06	5.8909e-06	420.07	139.63	120.53	41.69	8.9302e-07	51.714	0.00053812	0.00053569	0.00014964	1386.1	5.8806e-06	5.8504e-06	1364	370.88	5.8335e-06	5.8431e-06	423.97	141.94	122.91	42.613	5.7957e-06	52.729	214.355	184.542	296.569	171.209	417.776	297.300	171.079	176.048	279.235	355.213	175.295	179.588	180.107	184.891	261.076	184.210	-8191	255	
2326.837	1	1	0	0	0.22329	0.22384	0.034216	0.35162	0.17374	0.077908	0.16414	0.23031	0.30525	0.16601	0.0080551	0.41814	0.058489	0.38982	0.22315	0.20586	-2.4729	-2.625	-3.0771	-2.975	-2.6979	-3.2417	-2.8646	-2.9604	-3.0396	-2.7542	-3.1813	-2.8354	-2.8396	-3.2271	-2.9188	-2.925	183.472	237.133	283.196	432.830	189.190	471.143	464.735	267.764	206.457	201.892	273.691	438.588	378.140	458.781	465.805	457.167	0.00060932	0.00087397	0.00013708	1375	4.1449e-06	3.8722e-06	1344.5	364.02	3.7741e-06	5.88e-06	418.5	139.29	120.84	41.714	6.304e-06	51.344	0.00053079	0.00053223	0.00014797	1383.2	5.8323e-06	5.7972e-06	1363	369.56	5.7588e-06	5.7456e-06	422.3	141.42	122.32	42.455	5.7273e-06	52.524	228.742	209.826	189.455	171.254	233.963	433.007	171.208	175.854	273.393	217.686	175.216	179.537	180.411	184.885	183.620	183.866	-8191	255	
2326.935	1	1	0	0	0.19744	0.17017	0.2707	0.065833	0.17155	0.10969	0.2885	0.17877	0.14475	0.35775	0.18396	0.13791	0.14336	0.048164	0.033078	0.15954	-2.6958	-2.7854	-3.0563	-2.9979	-2.6437	-3.3375	-2.975	-3.0333	-3.2938	-2.8688	-3.0938	-3.0708	-2.6542	-3.3521	-2.8146	-2.925	289.397	356.544	463.815	482.033	465.477	397.112	424.663	477.496	234.491	440.035	468.243	515.362	478.400	431.037	481.935	397.233	0.00043536	0.00029394	7.8271e-05	1370.2	3.3613e-06	5.9503e-06	1339.4	364.36	4.4104e-06	6.6141e-06	414.77	138.52	120.78	41.591	5.938e-06	51.377	0.00052353	0.00052045	0.00014498	1375.6	5.6769e-06	5.6501e-06	1354.3	368.3	5.6344e-06	5.6171e-06	418.55	140.53	121.63	42.202	5.5813e-06	52.208	216.447	226.200	430.757	171.221	294.944	325.272	170.927	175.965	312.156	334.835	175.713	179.611	179.967	184.923	275.136	183.938	-8191	255	
2327.054	1	1	0	0	0.085117	0.2805	0.113	0.19331	0.054769	0.15537	0.24029	0.13691	0.27578	0.091612	0.096388	0.28192	0.055943	0.12507	0.39781	0.15455	-2.7479	-2.7583	-2.8167	-3.125	-2.7646	-2.9292	-3.0458	-2.8333	-3.0812	-2.7229	-3.0542	-3.1292	-2.7771	-3.1521	-2.9437	-2.8479	438.614	252.445	332.898	494.738	510.877	300.441	424.335	431.907	364.292	462.188	494.064	243.936	515.757	165.766	221.975	326.601	0.00051344	0.00034342	0.0001775	1365.1	9.3326e-06	4.6834e-06	1340.4	363.57	2.4368e-06	2.3326e-06	418.16	138.14	119.53	41.511	9.1248e-06	51.471	0.00050929	0.00050868	0.00014174	1372.1	5.5727e-06	5.5689e-06	1350.4	367.17	5.5546e-06	5.5508e-06	419.1	140.44	121.3	42.202	5.6004e-06	52.237	200.599	195.483	189.511	171.413	232.014	164.361	171.305	175.829	339.506	435.730	175.338	179.524	180.067	184.873	277.084	183.834	-8191	255	
2327.150	1	1	0	0	0.021317	0.092479	0.11476	0.073772	0.1086	0.044843	0.084493	0.15839	0.093333	0.23036	0.16043	0.048869	0.12991	0.32977	0.18583	0.19419	-2.5479	-2.8542	-2.9208	-3.2062	-2.625	-3.1937	-3.2646	-2.9188	-3.0187	-2.7854	-2.9708	-3.1188	-2.6292	-2.85	-3.0375	-2.8104	231.057	396.437	486.752	432.595	230.886	333.578	163.088	358.135	219.781	419.689	451.722	441.933	323.581	472.815	304.455	386.640	0.0005113	0.00042885	3.1373e-05	1365.5	2.6525e-06	3.3637e-06	1337.9	363.06	2.8289e-06	1.6271e-06	419.02	138.89	119.65	41.657	1.1249e-06	51.349	0.00051233	0.00051462	0.0001436	1371.3	5.6258e-06	5.6609e-06	1350.8	367.52	5.5728e-06	5.5749e-06	419.08	140.48	121.34	42.213	5.5243e-06	52.099	226.655	305.752	475.565	171.467	379.708	441.601	171.199	175.917	370.924	362.291	175.427	179.492	180.052	185.091	289.642	184.042	-8191	255	
2327.247	1	1	0	0	0.11759	0.13619	0.1108	0.13875	0.15359	0.063631	0.074274	0.22451	0.22201	0.12053	0.13806	0.32546	0.20312	0.37708	0.24339	0.018	-2.7292	-2.6979	-2.9188	-3.1375	-2.5896	-2.8792	-3.2521	-2.8417	-3.1271	-3.0312	-2.8896	-3.2479	-2.8458	-2.9688	-2.9604	-2.75	397.929	254.384	307.426	171.127	214.190	341.991	498.317	428.556	279.461	452.876	193.708	483.062	424.880	160.712	385.186	227.296	0.00044946	0.00034825	0.00014721	1365.6	4.6312e-06	1.4851e-06	1343.3	362.87	1.3548e-06	9.9782e-06	416	138.79	120.06	41.647	7.0783e-06	51.298	0.00050362	0.00050305	0.00014007	1369.9	5.491e-06	5.5035e-06	1351.3	366.92	5.533e-06	5.5326e-06	418.83	140.61	121.39	42.241	5.5547e-06	52.18	214.602	263.500	257.047	171.247	309.251	212.854	171.044	175.857	167.155	228.667	175.360	179.670	180.105	184.963	237.379	184.044	-8191	255	
2327.367	1	1	0	0	0.47955	0.18463	0.096411	0.1176	0.18673	0.19191	0.45546	0.17038	0.16906	0.089879	0.06053	0.064169	0.23354	0.071043	0.12329	0.15808	-2.675	-2.9229	-2.8208	-3.1271	-2.8042	-3.0271	-3.3896	-2.8604	-3.0021	-3.0917	-2.9313	-3.125	-2.9104	-2.9875	-2.9917	-2.8958	515.124	310.578	444.725	159.365	357.815	256.266	473.727	200.039	215.433	199.782	201.924	175.854	449.492	433.097	438.357	304.540	0.000545	0.00071255	8.5063e-05	1366.9	8.9207e-06	5.4634e-06	1342.2	362.69	4.3246e-06	7.2284e-06	419.89	138.58	120.67	41.439	3.1823e-06	51.55	0.00050624	0.00050749	0.00014088	1374.1	5.5264e-06	5.5466e-06	1353.1	366.38	5.5547e-06	5.5612e-06	419.92	140.71	121.56	42.147	5.6e-06	52.335	211.949	463.698	215.719	171.370	257.338	304.181	171.016	175.883	340.189	301.254	174.919	179.525	179.765	184.945	283.959	183.949	-8191	255	
2327.439	1	1	0	0	0.21303	0.23773	0.2774	0.30521	0.09732	0.12841	0.25709	0.12221	0.10398	0.014986	0.32659	0.033787	0.27808	0.15778	0.26035	0.11536	-2.5667	-3.0708	-2.6229	-3.2375	-2.6875	-2.9021	-3.475	-2.9167	-2.9	-2.9083	-2.8146	-3.0563	-2.8292	-2.8667	-3.0458	-2.8833	452.781	190.393	509.808	477.130	459.786	181.199	460.354	426.127	200.804	185.886	160.028	290.476	478.289	163.269	188.297	437.159	0.00051429	0.00013209	0.00020781	1366.8	1.159e-06	2.2305e-06	1346.5	363.74	3.6322e-07	5.4313e-06	417.68	138.94	119.8	41.717	1.2882e-06	51.271	0.00050931	0.00050972	0.00014194	1374	5.5865e-06	5.5945e-06	1356.5	366.97	5.559e-06	5.5512e-06	419.11	140.76	121.36	42.215	5.5408e-06	52.227	214.396	195.221	258.432	171.286	359.211	253.711	171.267	175.678	169.862	385.900	175.368	179.550	180.436	184.866	352.816	184.186	-8191	255	
2327.535	1	1	0	0	0.15669	0.13983	0.075124	0.2012	0.30973	0.12125	0.43619	0.31331	0.061392	0.14413	0.18655	0.28261	0.096924	0.32893	0.18375	0.1301	-2.5354	-2.9313	-2.7458	-3.0833	-2.7396	-2.6229	-3.175	-2.7812	-2.9562	-2.9437	-2.6333	-3.1083	-2.9938	-2.6792	-3.0979	-2.8438	389.901	484.618	385.218	471.674	360.982	394.989	468.147	468.259	418.778	161.106	185.504	436.973	243.334	181.777	406.739	488.163	0.0005126	0.00048898	8.8018e-05	1372.9	1.7186e-06	5.5284e-06	1343.9	364.86	4.5444e-06	1.8284e-06	419	138.87	119.93	41.81	5.9151e-06	51.497	0.0005092	0.00050746	0.0001418	1377.4	5.5674e-06	5.5659e-06	1353.8	367.69	5.5439e-06	5.5376e-06	419.44	140.77	121.44	42.275	5.4939e-06	52.336	229.115	299.460	517.426	171.198	309.916	302.059	171.203	175.944	326.833	355.778	175.495	179.466	180.429	185.075	215.894	183.917	-8191	255	
2327.631	1	1	0	0	0.096357	0.19363	0.12661	0.070689	0.10523	0.18809	0.33989	0.13762	0.087549	0.13262	0.23101	0.10187	0.20539	0.075445	0.14047	0.31938	-2.4437	-2.9417	-2.6708	-3.1875	-2.975	-2.7896	-3.3021	-2.9375	-2.9146	-3.1458	-2.8583	-3.0333	-2.9771	-2.5833	-2.9146	-2.9521	300.256	510.371	432.648	443.879	511.996	193.562	410.455	457.986	346.464	350.123	451.270	466.870	485.034	473.766	353.426	444.694	0.00055608	0.00042713	4.0277e-05	1369.3	6.4238e-07	3.7743e-06	1342.7	364.43	3.8562e-06	4.3856e-06	421.21	138.58	120.19	41.879	5.3711e-06	51.377	0.00050267	0.00050351	0.00013985	1375.2	5.5098e-06	5.5087e-06	1355.3	367.89	5.5069e-06	5.4695e-06	418.75	140.37	121.15	42.175	5.4292e-06	52.15	210.609	347.301	346.159	171.276	395.992	310.556	170.836	175.804	264.880	355.084	175.285	179.584	179.954	184.781	279.788	183.872	-8191	255	
2327.750	1	1	0	0	0.14254	0.11685	0.40835	0.27848	0.17981	0.25875	0.22247	0.11645	0.24296	0.05447	0.24502	0.23277	0.21088	0.08049	0.11542	0.34493	-2.3771	-3.1063	-2.5812	-3.1625	-3.1583	-2.6937	-3.2313	-2.9188	-2.8042	-3.1063	-2.8312	-2.8896	-3.0958	-2.925	-2.9958	-3.0167	205.801	441.362	425.680	516.430	468.830	226.416	167.304	233.906	383.452	334.989	440.378	184.721	241.242	170.497	301.632	474.426	0.00050077	0.00039128	0.00012565	1372.6	5.786e-06	8.692e-06	1348	364.91	5.3466e-06	5.1596e-06	419.47	139.4	120.03	41.753	5.6332e-06	51.595	0.00049932	0.00049666	0.00013854	1375.6	5.439e-06	5.4383e-06	1353.8	367.23	5.4267e-06	5.4156e-06	417.86	140.51	120.92	42.131	5.4107e-06	52.185	226.941	197.013	238.792	171.317	266.425	343.225	171.063	175.637	264.300	434.418	175.482	179.909	180.051	184.593	297.754	183.896	-8191	255	
2327.846	1	1	0	0	0.31157	0.34266	0.15214	0.28961	0.14226	0.27321	0.16478	0.32802	0.28191	0.20603	0.1401	0.11251	0.10978	0.072294	0.36277	0.25279	-2.5687	-3.1542	-2.5604	-3.0417	-3.0271	-2.6896	-3.3854	-2.8604	-2.6396	-3.0146	-2.8667	-3	-3.1333	-2.8563	-3.1104	-3.1104	390.902	448.588	446.010	461.168	257.702	217.009	452.502	367.023	259.554	201.071	238.843	210.888	234.594	304.603	388.685	391.180	0.00052379	0.00025506	0.00020177	1370.7	4.4448e-06	5.8394e-06	1341.5	364.24	5.4165e-06	2.6736e-06	416.93	139.53	120.21	41.704	2.6508e-06	51.432	0.0004945	0.000496	0.00013782	1374.1	5.452e-06	5.4189e-06	1351.9	367.21	5.4437e-06	5.4177e-06	417.67	140.45	120.87	42.055	5.4341e-06	52.039	219.514	396.720	254.383	171.420	186.310	253.264	171.046	175.691	352.829	303.996	175.683	179.527	179.762	184.859	166.362	184.311	-8191	255	
2327.942	1	1	0	0	0.15914	0.17993	0.21817	0.19773	0.12239	0.17119	0.12173	0.088602	0.039978	0.072463	0.25171	0.18704	0.097824	0.1237	0.15999	0.17625	-2.325	-2.9958	-2.7458	-2.9979	-3.0333	-2.7625	-3.3042	-3.1271	-2.7938	-3.1729	-3.0604	-2.9833	-3.1375	-2.9125	-3.1875	-3.0938	439.354	221.878	357.831	447.274	497.388	517.574	159.045	455.545	279.565	239.807	284.548	517.395	183.026	512.351	303.013	476.785	0.0003124	0.00070123	8.4313e-05	1368.2	6.7405e-06	9.2726e-06	1342.4	362.96	2.8928e-06	1.3751e-06	419.55	139.3	120.09	41.632	2.2004e-06	51.512	0.00049033	0.00049283	0.00013652	1371.4	5.4101e-06	5.3796e-06	1351.5	366.51	5.4038e-06	5.4037e-06	418.03	140.42	120.88	42.082	5.4391e-06	52.27	232.445	517.403	403.474	171.336	290.165	424.409	171.252	175.730	303.878	249.122	175.521	179.633	180.141	184.835	276.666	184.364	-8191	255	
2328.016	1	1	0	0	0.07236	0.19845	0.17785	0.12714	0.054793	0.10208	0.1794	0.31001	0.13669	0.11114	0.23844	0.16974	0.2207	0.13535	0.031302	0.062906	-2.3375	-3.0083	-2.625	-2.9333	-3.0563	-2.6271	-3.0604	-3.1854	-2.7313	-3.1625	-3.0354	-2.9813	-3.2188	-2.9271	-2.9604	-3.2771	230.700	338.145	381.461	488.205	284.371	203.612	502.781	484.952	468.621	417.438	186.840	452.715	449.345	447.461	498.190	492.570	0.0005077	0.00040088	9.0098e-05	1377.3	2.9393e-06	8.1425e-06	1342	363.7	4.2914e-06	7.0954e-06	419.15	139.48	121.16	41.771	3.7659e-06	51.637	0.00049764	0.00049781	0.00013884	1376.2	5.4491e-06	5.4544e-06	1352.4	366.83	5.4718e-06	5.458e-06	419.28	140.71	121.31	42.182	5.4802e-06	52.321	223.023	176.064	301.386	171.297	201.068	337.896	171.084	175.904	502.698	335.531	175.450	179.858	180.166	184.558	277.026	183.924	-8191	255	
2328.135	1	1	0	0	0.099169	0.20739	0.19508	0.26426	0.12622	0.28174	0.19228	0.42875	0.28929	0.25939	0.075573	0.11798	0.1292	0.21208	0.13922	0.19341	-2.3042	-3.1542	-2.8937	-2.8979	-3.0854	-2.7125	-3.1354	-3.0125	-2.8833	-3.0312	-2.9938	-2.8438	-3.1688	-2.8063	-2.8833	-3.0521	360.598	272.929	318.468	514.039	439.226	399.352	382.205	500.824	445.555	478.850	442.044	506.296	504.712	231.284	511.322	467.292	0.00054363	0.00070289	0.00012352	1376.7	2.469e-06	6.6987e-06	1350.6	365.17	1.4048e-06	1.4079e-06	419.59	139.6	120.94	41.509	6.8452e-06	51.579	0.00050262	0.00050229	0.00014026	1380.7	5.5235e-06	5.5299e-06	1357.2	367.92	5.4927e-06	5.5189e-06	420.4	140.94	121.69	42.244	5.5064e-06	52.338	211.938	272.940	264.318	171.307	334.000	247.997	171.117	175.780	497.672	352.615	175.531	179.725	180.069	184.968	262.679	183.846	-8191	255	
2328.231	1	1	0	0	0.043176	0.10528	0.048146	0.12737	0.25238	0.043197	0.22614	0.17585	0.086402	0.32784	0.078653	0.30098	0.21893	0.36151	0.13649	0.17802	-2.4542	-2.975	-3.0479	-2.9396	-3.1063	-2.9479	-2.9688	-3.1312	-2.6896	-3.0667	-2.9896	-2.9146	-3.1375	-2.9562	-2.8563	-3.1146	159.322	226.735	465.672	502.373	331.248	412.932	422.548	189.992	316.516	507.864	500.040	515.676	320.754	169.301	477.668	221.844	0.00058245	0.00021045	0.00022816	1374.9	6.2364e-06	2.9316e-06	1345.2	365.06	5.2065e-06	3.6497e-06	422.26	140.22	120.62	41.827	8.3013e-06	51.752	0.00050361	0.00050448	0.00014027	1379.8	5.5032e-06	5.5372e-06	1356.2	367.82	5.4745e-06	5.4994e-06	421.02	141.11	121.43	42.234	5.4843e-06	52.392	213.331	461.484	218.260	171.493	317.573	334.873	171.161	175.631	295.966	484.552	175.366	179.598	180.045	184.655	303.120	184.125	-8191	255	
2328.327	1	1	0	0	0.16528	0.057942	0.18575	0.39776	0.10784	0.23341	0.037652	0.16035	0.10651	0.077765	0.10594	0.1545	0.037019	0.073435	0.19838	0.18805	-2.2771	-2.9833	-3.0479	-2.7417	-2.9917	-3.0292	-3.0583	-3.1813	-2.8146	-2.9333	-3.0333	-2.7687	-3.1792	-2.9437	-2.6854	-3.1979	268.376	391.121	192.455	472.409	306.551	277.126	243.365	509.279	305.680	407.740	307.234	207.679	336.775	498.563	477.796	416.773	0.00053519	0.00042965	5.2785e-05	1374	5.6313e-06	2.9593e-06	1347.8	364.25	6.1429e-06	5.0201e-06	418.17	139.48	120.6	41.653	7.8805e-06	51.57	0.00050202	0.00050177	0.00013928	1378.6	5.4638e-06	5.4489e-06	1356	367.37	5.4481e-06	5.4355e-06	419.1	140.73	121.08	42.259	5.4442e-06	52.243	207.342	415.977	170.319	171.273	241.731	516.042	171.057	175.683	331.138	200.694	175.294	179.345	179.914	184.747	241.156	184.053	-8191	255	
2328.448	1	1	0	0	0.15229	0.16611	0.10408	0.54146	0.21275	0.04654	0.42513	0.28826	0.010322	0.15454	0.039875	0.16852	0.24625	0.16994	0.28939	0.18526	-2.2938	-2.9854	-3.1021	-2.875	-2.8292	-2.8604	-3.0708	-3.2333	-2.8396	-2.8271	-3.0625	-2.7208	-2.9833	-2.7979	-2.5479	-3.2458	171.345	183.782	410.678	499.836	389.226	409.557	451.292	496.629	342.119	491.938	390.921	300.771	291.437	165.906	256.137	336.840	0.00042071	0.00074089	0.00018785	1378.7	2.0169e-06	4.7507e-06	1343.3	364.31	3.8174e-06	5.9534e-06	418.62	139.49	119.96	41.487	3.7839e-06	51.447	0.00049712	0.00049733	0.00013839	1379.4	5.4105e-06	5.3942e-06	1352.4	366	5.379e-06	5.3699e-06	417.12	139.99	120.63	41.941	5.3617e-06	52.031	229.505	226.175	165.978	171.194	203.313	413.125	171.092	176.090	280.639	340.951	175.719	179.546	179.779	184.542	205.470	184.415	-8191	255	
2328.544	1	1	0	0	0.032467	0.14494	0.18619	0.049362	0.16799	0.092489	0.24975	0.18448	0.17302	0.30997	0.18495	0.23789	0.30516	0.093496	0.1082	0.29002	-2.4229	-2.7229	-3.0875	-2.8896	-3.0938	-2.9688	-2.8979	-3.2104	-3.0125	-2.7562	-3.0938	-3.0146	-2.9	-2.9125	-2.6792	-3.025	340.638	169.348	458.721	303.693	401.405	284.397	425.669	513.241	283.130	230.783	451.439	360.149	483.690	506.881	211.967	480.635	0.00047082	0.00044954	3.1859e-05	1370.6	5.2288e-06	4.7484e-07	1340.2	363.22	6.3587e-06	5.9668e-06	417.11	138.56	119.7	41.615	1.1781e-05	51.404	0.00048951	0.00048883	0.00013683	1371.4	5.4323e-06	5.4438e-06	1349.8	365.63	5.433e-06	5.3925e-06	415.9	140.04	120.69	42.042	5.3856e-06	52.059	214.764	206.254	246.767	171.226	250.196	400.106	170.989	175.893	314.861	228.632	175.372	179.636	179.939	184.603	376.231	184.132	-8191	255	
2328.640	1	1	0	0	0.087778	0.015951	0.15154	0.17559	0.23402	0.18504	0.18363	0.067636	0.04237	0.050008	0.048748	0.26084	0.10756	0.097777	0.22063	0.066036	-2.6458	-2.5042	-2.8833	-2.9479	-2.8646	-2.9896	-2.7562	-3.0687	-2.8958	-2.6125	-3.0042	-2.5896	-2.8292	-3.3229	-2.5979	-2.9583	343.162	426.563	346.043	159.010	433.927	457.600	458.717	437.994	458.947	311.765	351.226	178.691	384.987	462.174	502.546	244.237	0.00042699	0.00023153	0.00016897	1364.3	2.6391e-06	3.597e-06	1340.1	363.81	1.1986e-06	6.1482e-06	417.81	139.03	119.78	41.6	7.9251e-06	51.546	0.00049154	0.00048986	0.00013689	1368.4	5.3908e-06	5.4034e-06	1348.9	366.7	5.4354e-06	5.4555e-06	416.92	140.4	120.61	42.039	5.406e-06	52.215	216.785	206.791	505.936	171.242	288.016	297.061	171.056	175.964	167.051	302.999	175.351	179.494	179.886	184.688	256.961	184.073	-8191	255	
2328.736	1	1	0	0	0.034444	0.047083	0.13078	0.15868	0.1952	0.17397	0.22928	0.25322	0.19463	0.14162	0.052503	0.3784	0.067271	0.25913	0.042712	0.16616	-2.5542	-2.4813	-3.1479	-3.0104	-2.875	-3.0458	-2.8563	-3.0958	-2.9417	-2.6917	-2.9458	-2.8125	-2.7646	-3.1167	-2.7292	-2.9854	420.735	483.481	362.218	473.592	401.610	469.844	479.741	397.898	173.811	493.849	336.130	470.521	444.574	506.156	429.469	465.745	0.00057955	0.00064155	0.00033136	1367.3	5.8464e-06	5.2107e-06	1337.8	364.4	5.1199e-06	8.4095e-06	417.19	138.95	120.04	41.526	2.9008e-06	51.68	0.00049685	0.00048957	0.00013785	1370.5	5.4642e-06	5.4517e-06	1348.9	366.68	5.4324e-06	5.4735e-06	416.74	140.44	121.26	42.138	5.5323e-06	52.388	209.345	218.979	249.667	171.453	317.059	283.562	171.088	175.876	287.140	341.932	175.205	179.488	179.877	184.803	496.913	183.878	-8191	255	
2328.830	1	1	0	0	0.10886	0.3338	0.23134	0.1607	0.12864	0.1436	0.21286	0.048783	0.12563	0.16145	0.31346	0.12607	0.084572	0.2677	0.17376	0.32232	-2.5604	-2.7271	-2.9271	-2.9875	-2.7438	-3.1333	-2.9125	-3.0458	-2.9813	-2.7083	-2.9062	-3.1063	-2.8104	-3.1583	-2.8875	-2.8646	164.099	516.828	305.787	437.307	336.796	449.407	458.923	497.867	302.232	195.807	265.139	167.059	502.008	517.190	304.758	423.795	0.00042081	0.0004507	0.00022778	1378.7	6.3091e-06	6.3069e-06	1343.1	365.79	4.6529e-06	7.5759e-06	421.12	139.64	120.63	41.689	8.0788e-06	52.086	0.0005102	0.00050965	0.0001433	1383.2	5.6716e-06	5.6747e-06	1359.2	369.11	5.6896e-06	5.6932e-06	423.26	141.87	122.47	42.526	5.7624e-06	52.862	234.020	271.769	221.185	171.191	279.558	297.470	170.897	175.858	274.148	367.215	175.187	179.281	179.971	184.933	275.161	183.745	-8191	255	
2328.927	1	1	0	0	0.14135	0.1417	0.092984	0.17635	0.058321	0.21883	0.19634	0.16915	0.043804	0.22781	0.23051	0.20844	0.20713	0.10656	0.1279	0.14703	-2.6208	-2.7729	-2.9458	-3.0104	-2.925	-3.1562	-3.0396	-2.9333	-2.8792	-2.7979	-2.9104	-2.9938	-2.8438	-3.1229	-2.7125	-2.725	483.017	430.716	419.548	198.931	498.126	398.418	493.960	264.995	193.474	379.225	194.271	177.625	186.652	264.441	342.840	417.715	0.00053442	0.0001883	0.00020715	1381.5	2.4485e-06	4.4454e-06	1355.3	367.89	3.8878e-06	4.4746e-06	425.03	140.81	121.06	42.004	1.7101e-06	52.002	0.00052893	0.00052999	0.00014818	1393.2	5.8289e-06	5.8797e-06	1373.2	372.76	5.9558e-06	6.0081e-06	431.08	143.52	124.82	43.138	6.1926e-06	53.606	223.904	171.269	281.294	171.398	264.637	442.977	171.218	175.822	309.354	165.675	175.284	179.381	179.880	184.791	343.195	184.039	-8191	255	
2329.047	1	1	0	0	0.14676	0.21823	0.018546	0.14184	0.071803	0.21673	0.065078	0.049456	0.094642	0.081077	0.16244	0.11195	0.34246	0.048404	0.12866	0.19996	-2.7896	-2.7938	-2.8937	-3.1271	-2.7812	-3.2625	-3.0604	-2.9437	-2.9625	-2.8292	-2.9667	-3.2146	-2.7729	-3.1854	-2.8667	-2.7792	501.749	215.453	430.931	450.895	302.053	259.258	430.695	233.774	309.446	171.959	428.350	189.605	463.190	390.482	246.693	392.630	0.00061351	0.00021512	8.6399e-05	1393.5	4.976e-06	3.1227e-06	1362.5	370.28	7.6033e-06	9.4639e-07	425.22	141.65	123	42.229	3.7531e-06	52.375	0.00057188	0.00057317	0.00016049	1415.3	6.3158e-06	6.3462e-06	1391.4	378.19	6.3695e-06	6.385e-06	438	145.29	127.14	43.598	6.5073e-06	54.268	220.686	279.095	343.653	171.419	357.373	319.807	170.875	175.925	279.194	289.833	175.441	179.447	179.856	184.660	230.295	183.980	-8191	255	
2329.143	1	1	0	0	0.10085	0.099873	0.15962	0.091917	0.13772	0.1485	0.13793	0.2369	0.16306	0.16668	0.1127	0.11038	0.074641	0.19662	0.33959	0.18183	-2.6729	-2.7479	-2.7833	-3.1833	-2.8312	-3.0104	-3.1104	-2.9083	-2.9062	-2.9333	-2.9875	-3.2229	-2.8125	-3.1333	-3.0479	-2.9021	231.051	345.995	218.803	243.429	447.121	409.243	476.019	465.642	222.013	197.279	375.421	390.543	499.502	211.133	474.627	483.686	0.00044432	0.00029299	0.0001765	1406.5	6.302e-06	7.6565e-06	1373.1	372.91	7.2703e-06	5.8749e-06	429.53	141.14	123.22	42.44	4.8967e-06	52.516	0.00059426	0.00059306	0.00016633	1429.6	6.501e-06	6.5162e-06	1400.9	381.04	6.5138e-06	6.5312e-06	441.27	145.67	127.52	43.777	6.5205e-06	54.381	213.436	499.481	216.792	171.307	509.251	298.250	170.931	175.765	264.753	410.446	174.936	179.292	180.269	184.850	314.177	183.929	-8191	255	
2329.239	1	1	0	0	0.3829	0.20225	0.1136	0.29696	0.12882	0.13847	0.099177	0.14788	0.17778	0.097716	0.091309	0.013757	0.16132	0.15921	0.11307	0.098696	-2.7917	-2.6979	-2.7917	-3.2833	-2.7479	-3.0062	-3.175	-2.7583	-3.1333	-2.9417	-2.8917	-3.2854	-2.7583	-3.1083	-2.9604	-2.7896	186.062	285.107	211.266	460.594	187.679	288.295	260.334	503.756	176.998	167.720	334.660	331.201	161.335	181.661	262.679	345.111	0.0005489	0.00041896	0.00012266	1409.3	9.7639e-06	8.4837e-06	1368.4	372.69	1.6688e-07	4.9265e-06	426.81	142.16	122.71	42.265	1.2252e-05	52.544	0.00059293	0.00059169	0.00016503	1428.8	6.4909e-06	6.4963e-06	1398.1	380.87	6.5033e-06	6.5027e-06	439.53	146.01	127.25	43.659	6.4455e-06	54.278	221.266	291.633	254.888	171.211	280.384	456.897	170.815	175.533	390.150	212.829	175.455	179.416	179.922	184.912	280.086	183.878	-8191	255	
2329.311	1	1	0	0	0.27167	0.16321	0.22852	0.19564	0.094164	0.3391	0.283	0.26876	0.12457	0.31375	0.12843	0.32624	0.40521	0.24163	0.14403	0.13637	-2.6813	-2.9813	-2.7646	-3.25	-2.7313	-2.9646	-3.2313	-2.9437	-3.0229	-2.7583	-2.8583	-3.2188	-2.7979	-3.075	-3.0438	-2.8583	278.415	188.996	335.295	509.413	422.692	286.835	408.726	435.373	182.959	298.771	310.410	425.844	221.402	350.634	486.774	443.694	0.00050029	0.00033554	0.00013799	1407.9	8.1863e-06	7.1741e-06	1377.2	372.55	3.0731e-06	4.5198e-06	429.1	141.57	122.4	42.396	3.2338e-06	52.35	0.00058836	0.00059138	0.00016483	1426	6.4727e-06	6.4502e-06	1400.5	379.81	6.4631e-06	6.4887e-06	439.21	145.66	127.35	43.708	6.5153e-06	54.308	208.746	262.393	238.214	171.255	257.656	322.160	171.094	175.811	303.356	416.711	175.197	179.498	179.832	184.637	374.610	184.304	-8191	255	
2329.407	1	1	0	0	0.20201	0.28021	0.14765	0.21955	0.37078	0.11972	0.22591	0.32978	0.21225	0.054725	0.19001	0.015796	0.21059	0.20306	0.12906	0.2426	-2.4646	-2.8417	-2.8688	-3.1667	-2.725	-2.8625	-3.3021	-2.8771	-3.0458	-2.975	-2.8708	-3.0042	-2.8333	-2.9375	-3.1021	-2.6896	193.902	363.515	414.134	485.292	397.634	179.688	455.141	453.429	432.348	460.800	161.693	174.279	488.791	441.961	280.779	426.878	0.0005886	0.00032835	0.00019105	1402.6	6.2606e-06	4.2898e-06	1371.7	372.03	5.6377e-06	4.1068e-06	430.17	142.32	122.63	42.157	6.2659e-06	52.143	0.0005911	0.0005911	0.00016433	1424.2	6.4594e-06	6.4344e-06	1396.6	379.24	6.4314e-06	6.4296e-06	438.37	145.84	126.81	43.498	6.3396e-06	54.018	217.324	237.076	277.535	171.283	216.946	262.977	170.979	175.741	263.824	431.443	175.158	179.334	180.221	184.853	166.254	184.130	-8191	255	
2329.528	1	1	0	0	0.070785	0.18349	0.023697	0.064573	0.11622	0.13393	0.2653	0.17708	0.095225	0.21612	0.14768	0.21691	0.12096	0.2	0.21226	0.032347	-2.5563	-2.8458	-2.6688	-3.1396	-2.7542	-2.8417	-3.1167	-2.8563	-3.0083	-3.0771	-2.8104	-3.0979	-2.825	-2.9708	-3.0729	-2.8417	300.201	453.779	351.778	168.759	221.338	395.359	494.770	209.020	239.045	251.622	278.594	495.535	474.896	239.931	224.715	218.425	0.00055538	0.00018443	6.9272e-05	1406.9	7.3196e-06	8.6961e-06	1373.5	371.19	2.0675e-06	4.547e-06	430.08	141.33	122.58	42.234	8.3695e-06	51.891	0.00057398	0.00057145	0.00015898	1421.5	6.287e-06	6.2717e-06	1395.8	378.5	6.3236e-06	6.3205e-06	438.08	145.27	126.76	43.502	6.3473e-06	53.961	215.935	415.991	275.403	171.501	179.559	365.885	171.194	175.774	215.751	179.843	175.170	179.405	179.836	184.729	316.694	184.106	-8191	255	
2329.624	1	1	0	0	0.062666	0.10576	0.16234	0.23998	0.10319	0.14703	0.3729	0.36488	0.10307	0.12637	0.12778	0.3875	0.18121	0.29286	0.18882	0.30513	-2.5542	-2.9542	-2.8167	-3.225	-2.8854	-2.7	-3.4	-2.8104	-2.9521	-3.0438	-2.8583	-3.0354	-2.9917	-2.5625	-3.1063	-3.1562	328.458	442.593	170.014	514.620	444.943	258.675	461.735	409.701	357.763	165.017	453.073	453.683	496.562	500.820	343.426	445.005	0.00057467	0.0001023	0.00020842	1402.7	7.43e-06	6.0056e-07	1372.5	369.48	3.0618e-06	2.4556e-06	426.4	141.82	123.51	42.108	3.5023e-06	52.465	0.00057678	0.00057669	0.00016082	1423.6	6.3252e-06	6.3018e-06	1394.9	377.71	6.27e-06	6.2595e-06	435.23	145.08	125.98	43.409	6.2097e-06	53.87	219.889	183.907	223.361	171.218	305.931	486.420	170.967	175.776	243.479	216.883	175.545	179.455	180.075	184.644	275.580	183.907	-8191	255	
2329.720	1	1	0	0	0.052158	0.048817	0.13597	0.17537	0.23083	0.18647	0.27906	0.14847	0.061369	0.09216	0.17048	0.19288	0.19852	0.30861	0.22194	0.1655	-2.4	-3.1354	-2.6979	-3.2021	-2.9479	-2.7896	-3.2771	-3.0021	-2.8417	-3.0729	-2.8146	-3.1188	-2.8708	-2.8708	-2.9542	-2.9396	324.882	374.607	474.336	406.013	285.523	337.903	158.640	467.742	402.633	501.401	183.678	484.013	449.602	477.149	436.671	419.004	0.0005573	8.8009e-05	8.9437e-05	1398.5	6.4482e-07	2.5063e-06	1368.6	370	9.6879e-07	9.8903e-07	430.9	141.17	122.85	42.315	5.062e-06	52.273	0.00056748	0.00056918	0.00015865	1418.3	6.2844e-06	6.3115e-06	1393.6	378.12	6.3228e-06	6.2804e-06	438.39	145.18	126.71	43.469	6.2855e-06	53.946	220.913	421.328	202.225	171.349	400.188	454.953	170.869	175.712	274.313	285.475	175.265	179.595	180.139	184.778	262.746	184.148	-8191	255	
2329.816	1	1	0	0	0.24235	0.12602	0.13707	0.13348	0.18167	0.08877	0.030488	0.17015	0.23719	0.085292	0.1749	0.14781	0.13303	0.1939	0.16762	0.40159	-2.3729	-3.0521	-2.6625	-3.0854	-2.9	-2.7542	-3.1729	-3.0042	-2.8667	-3.05	-2.7	-3.0479	-2.975	-2.75	-3.0979	-3.0292	473.965	466.782	420.579	415.887	238.010	459.488	434.894	474.890	465.753	412.248	453.024	379.059	222.938	415.445	516.084	420.052	0.00050388	0.00014106	3.5648e-05	1406.7	6.8658e-06	2.9831e-06	1371.9	370.92	1.125e-06	5.8162e-06	429.6	142.23	123.3	42.257	4.5798e-06	52.604	0.00057022	0.0005688	0.00015736	1419.6	6.1817e-06	6.1649e-06	1392.9	377.37	6.1404e-06	6.1189e-06	434.96	144.85	125.98	43.305	6.1673e-06	53.86	219.229	296.761	317.596	171.386	206.693	277.952	170.993	175.680	426.904	473.576	174.753	179.554	179.666	184.719	179.621	184.219	-8191	255	
2329.911	1	1	0	0	0.043549	0.060006	0.30406	0.13018	0.10783	0.19172	0.17428	0.15742	0.18183	0.11572	0.19956	0.25905	0.18697	0.060347	0.20759	0.065582	-2.3021	-2.9917	-2.7687	-3.0563	-3.0792	-2.6562	-3.1396	-3.0292	-2.8833	-3.2167	-2.7438	-3.0021	-3.2083	-2.8063	-3.0354	-3.0458	317.532	477.901	171.710	404.862	406.502	375.260	450.629	447.523	402.214	292.888	401.316	414.031	436.231	325.280	224.024	443.735	0.00047291	0.00055741	3.8084e-05	1403.9	4.5581e-06	6.651e-06	1367.5	369.94	1.1882e-06	3.6403e-06	427.62	141.55	123.32	42.281	1.6023e-06	52.368	0.00056038	0.00056196	0.00015615	1416.9	6.1075e-06	6.103e-06	1388.1	376.63	6.0832e-06	6.0493e-06	433.49	144.4	125.55	43.176	6.0415e-06	53.639	217.274	184.224	281.567	171.252	199.980	269.522	170.886	175.712	445.029	332.375	175.429	179.492	179.961	184.950	170.898	183.769	-8191	255	
2330.009	1	1	0	0	0.19396	0.27367	0.18268	0.30301	0.051843	0.085149	0.28755	0.17693	0.10955	0.23701	0.24704	0.29298	0.054928	0.097614	0.18687	0.24645	-2.2021	-3.0792	-2.6104	-3.0125	-3.0125	-2.7896	-3.1688	-3.1833	-2.5979	-3.2292	-2.8604	-2.8688	-2.9708	-2.8979	-2.9042	-2.9542	213.286	418.166	402.666	495.091	286.392	431.401	428.045	441.138	253.808	490.428	210.200	508.186	158.279	441.012	308.585	426.576	0.0004311	0.00069846	6.0548e-05	1398.5	9.3884e-06	2.5471e-06	1368.5	370.32	2.9316e-06	5.2734e-06	426.16	141.59	121.62	42.226	4.6096e-06	52.413	0.00054733	0.00054539	0.0001527	1412.7	5.9572e-06	5.9837e-06	1387.6	375.69	5.99e-06	5.9853e-06	432.34	144.18	125.21	43.128	6.0045e-06	53.594	210.393	202.433	351.047	171.268	249.940	264.132	170.993	175.749	180.203	315.434	175.379	179.393	179.950	184.733	313.838	183.922	-8191	255	
2330.128	1	1	0	0	0.054013	0.1104	0.049145	0.246	0.10332	0.11158	0.24722	0.34094	0.071288	0.22055	0.28515	0.12088	0.13594	0.21622	0.16104	0.15616	-2.2771	-3.0167	-2.8521	-2.9437	-3.2771	-2.7458	-3.2021	-3.1813	-2.6437	-2.9771	-3.0146	-2.7667	-3.1958	-2.7917	-2.8125	-3.1208	226.459	193.932	458.019	186.754	209.394	490.076	417.763	494.348	482.517	226.409	433.213	451.691	498.936	368.701	365.854	466.788	0.00045974	0.00049569	0.00010032	1405.1	3.0477e-06	1.3151e-05	1369.5	369.56	4.9952e-06	6.1981e-06	429.76	140.36	123.12	42.204	1.4111e-05	52.442	0.00054323	0.00054404	0.0001517	1413	5.9628e-06	5.9635e-06	1386.8	375.31	5.9626e-06	5.9463e-06	432.82	143.95	124.99	43.099	5.9457e-06	53.529	211.394	193.451	295.610	171.302	221.915	357.791	171.011	175.725	204.487	344.352	175.486	179.391	180.215	184.797	307.250	183.758	-8191	255	
2330.224	1	1	0	0	0.13828	0.073301	0.2408	0.2618	0.18047	0.15811	0.37325	0.12799	0.062432	0.17226	0.19664	0.26586	0.10116	0.29256	0.15037	0.21646	-2.4062	-3.1063	-2.9917	-3.1083	-3.0542	-2.8771	-2.9875	-3.0104	-2.8833	-3.0771	-2.9583	-2.8229	-3.0604	-2.8792	-2.8688	-3.1583	260.370	386.149	517.496	466.362	455.225	196.783	439.504	489.826	388.039	158.262	393.702	487.890	188.735	514.618	290.544	513.710	0.00059564	3.9276e-05	0.00016791	1405.3	3.9201e-06	4.2039e-06	1369.8	370.77	9.7617e-06	2.7849e-06	428.1	141.73	122.9	42.194	1.5932e-06	52.556	0.00054343	0.00054331	0.00015139	1414.3	5.9565e-06	5.9632e-06	1387.9	376.09	5.9993e-06	5.9808e-06	433.15	144.23	125.25	43.159	6.0252e-06	53.711	216.603	301.900	217.073	171.200	177.339	285.220	171.184	175.916	267.048	454.947	175.337	179.439	179.933	184.682	222.303	183.856	-8191	255	
2330.320	1	1	0	0	0.29848	0.11486	0.085375	0.22943	0.23127	0.15116	0.11609	0.1227	0.098065	0.14227	0.11969	0.093579	0.23069	0.1436	0.14772	0.091416	-2.375	-2.8937	-2.9729	-3.0417	-2.9417	-2.7875	-3.0625	-3.3146	-2.8229	-3.0833	-3.0708	-2.8542	-3.0208	-2.8438	-2.7292	-3.0938	354.702	429.699	208.591	442.943	422.875	334.160	161.963	399.501	186.251	221.572	473.771	461.971	444.098	381.980	472.845	362.768	0.0004561	0.00069812	0.00021913	1406.3	3.0851e-06	4.3766e-06	1373.1	370.51	7.0519e-06	4.2014e-06	426.34	141.4	122.35	42.291	9.4997e-06	52.48	0.00054824	0.00055266	0.00015331	1418.3	6.1089e-06	6.1345e-06	1392.8	377.18	6.1297e-06	6.161e-06	434.97	144.7	125.77	43.423	6.1483e-06	53.876	206.865	190.549	246.251	171.336	254.981	346.719	171.031	175.612	293.331	478.470	175.307	179.591	179.821	184.691	183.495	184.089	-8191	255	
2330.416	1	1	0	0	0.10762	0.1809	0.030205	0.28209	0.1593	0.099528	0.35653	0.17855	0.070321	0.30819	0.25969	0.25523	0.13208	0.12082	0.17176	0.20205	-2.4104	-2.9667	-2.875	-2.9604	-3.0021	-2.9771	-2.9958	-3.2583	-3.0458	-2.9604	-3.1896	-2.8167	-3.0938	-3.1396	-2.8479	-3.2896	302.828	232.135	386.177	474.031	431.145	382.916	452.169	452.231	225.986	331.838	416.210	183.988	402.940	176.890	258.343	449.029	0.000529	0.00042197	2.5504e-05	1404.3	1.737e-06	7.1268e-06	1371.1	369.5	5.0302e-06	4.6571e-06	427	141.43	122.74	42.261	2.3872e-06	52.426	0.00055958	0.00056048	0.00015649	1417.2	6.1441e-06	6.0964e-06	1389.7	376.74	6.1206e-06	6.0822e-06	434.66	144.71	125.72	43.236	6.0556e-06	53.732	210.362	209.187	497.842	171.289	297.998	401.030	171.142	175.810	261.639	325.749	174.948	179.605	179.916	184.834	320.448	184.020	-8191	255	
2330.537	1	1	0	0	0.091232	0.08406	0.15435	0.24138	0.29288	0.2537	0.37298	0.12677	0.25764	0.18686	0.26897	0.21904	0.071799	0.20599	0.118	0.19407	-2.4437	-2.8833	-3.1375	-2.8563	-3.0563	-3.0062	-3.1	-3.1375	-2.7833	-2.8104	-3.1479	-2.8354	-3.0271	-2.9625	-2.6646	-3.2271	400.637	213.384	377.795	490.298	281.139	170.782	495.500	436.077	400.896	351.343	173.052	441.869	165.926	458.299	259.608	262.487	0.00051748	0.00026399	0.00010809	1401.3	9.762e-06	8.5253e-06	1374	369.95	4.9423e-06	1.5212e-06	426.34	141	122.56	42.144	4.2217e-06	52.304	0.0005536	0.00055226	0.00015386	1414.8	6.0426e-06	6.0362e-06	1386.9	376.25	6.0605e-06	6.0183e-06	433.04	144.14	125.42	43.178	6.017e-06	53.633	204.904	476.100	221.371	171.269	276.894	334.449	171.123	175.670	241.071	404.516	175.442	179.344	179.780	184.786	325.763	184.101	-8191	255	
2330.608	1	1	0	0	0.33483	0.17038	0.12989	0.33408	0.13647	0.15013	0.21803	0.33207	0.072182	0.1576	0.13235	0.26275	0.069361	0.14514	0.07655	0.083071	-2.3937	-2.5958	-3.1479	-2.7333	-3.0583	-2.8771	-3.0104	-3.0375	-2.7812	-2.8292	-3.2521	-2.9833	-3.0563	-3.3458	-2.5479	-3.1354	178.483	165.039	509.238	474.534	284.391	419.158	448.191	479.495	406.796	419.755	483.023	451.436	336.725	290.750	325.594	458.337	0.00032325	0.00053014	0.00014066	1403.7	8.8461e-06	7.8223e-06	1366.6	369.05	1.7414e-06	1.1223e-05	428.75	141.59	122.56	42.251	6.7137e-06	52.436	0.00054822	0.00054523	0.00015256	1414.9	6.003e-06	5.987e-06	1388.1	375.8	5.9592e-06	5.9829e-06	433.11	144.07	125.15	43.178	5.9887e-06	53.561	222.255	182.499	227.627	171.159	235.431	216.975	170.958	175.843	344.535	244.316	175.229	179.376	179.925	184.760	299.805	183.711	-8191	255	
2330.729	1	1	0	0	0.0663	0.1195	0.20382	0.24289	0.14775	0.19982	0.090328	0.15196	0.045208	0.052837	0.094012	0.26907	0.065352	0.27606	0.10649	0.055453	-2.4708	-2.8521	-3.175	-2.6854	-2.85	-3.0771	-2.8083	-3.0396	-2.9854	-2.8542	-3.0271	-2.9313	-2.6979	-3.2146	-2.7604	-3.1125	500.051	185.335	368.897	174.713	390.341	261.849	392.884	373.427	512.658	271.299	379.240	475.553	434.317	415.236	236.024	485.830	0.00051289	0.00041514	0.0001196	1403.4	7.4731e-06	9.0778e-06	1374	369.13	8.2189e-06	8.3135e-06	425.64	140.84	122.54	42.142	4.3624e-06	52.356	0.00054439	0.00054208	0.00015034	1411.2	5.9075e-06	5.8731e-06	1385	375.06	5.8773e-06	5.8554e-06	430.21	143.41	124.47	43.004	5.831e-06	53.435	202.696	448.570	307.619	171.226	264.517	308.399	171.142	175.666	336.516	336.312	175.214	179.420	180.052	184.774	209.134	184.274	-8191	255	
2330.823	1	1	0	0	0.18864	0.22109	0.13228	0.099354	0.18216	0.0951	0.14054	0.11552	0.081647	0.17087	0.047268	0.12659	0.199	0.17391	0.10785	0.11343	-2.5521	-2.6917	-3.0354	-2.9958	-2.8812	-3.2104	-2.8792	-3.1625	-3.0167	-2.6896	-3.0979	-3.0229	-2.8979	-3.1729	-2.7625	-3.1125	457.095	416.676	183.837	190.269	411.627	173.957	492.197	435.198	268.646	241.882	296.665	516.597	465.411	477.408	371.605	489.784	0.00037998	0.00063578	5.0401e-05	1401	2.1041e-06	2.5016e-06	1366.2	371	3.4072e-06	8.8656e-06	426.92	141.37	122.54	42.239	8.8415e-06	52.743	0.00053469	0.00053248	0.00014911	1410.1	5.8397e-06	5.838e-06	1384.2	375.1	5.8815e-06	5.8559e-06	430.55	143.69	124.67	43.085	5.8774e-06	53.554	212.962	215.070	355.396	171.071	161.431	168.062	170.907	175.677	344.232	249.892	175.414	179.318	179.728	184.789	227.169	183.913	-8191	255	
2330.919	1	1	0	0	0.046083	0.028624	0.060036	0.088222	0.10067	0.23352	0.099991	0.28735	0.092333	0.19278	0.14388	0.04236	0.1921	0.29049	0.13254	0.221	-2.5229	-2.7313	-3.075	-3.1146	-2.7667	-3.1688	-3.0187	-3.2438	-3.0812	-2.7646	-3.1562	-2.8479	-2.9	-3.1854	-2.9313	-3.0687	465.750	382.409	208.207	286.524	451.370	471.582	315.956	493.931	287.717	415.516	266.467	366.982	479.002	501.804	199.167	411.752	0.00053542	0.00055924	0.00010759	1400.4	1.8254e-06	9.4964e-06	1368.8	368.84	5.9329e-06	3.2129e-06	428.2	141.09	123.04	42.226	3.1888e-06	52.331	0.00053633	0.00053579	0.00014993	1411.7	5.875e-06	5.8648e-06	1384.3	374.49	5.8343e-06	5.7963e-06	430.22	143.46	124.4	42.946	5.7737e-06	53.359	231.738	184.578	434.278	171.094	233.245	263.649	170.932	175.798	328.576	163.114	175.144	179.373	179.987	185.083	312.967	183.908	-8191	255	
2331.016	1	1	0	0	0.072783	0.1643	0.13815	0.055196	0.23841	0.11699	0.085334	0.15184	0.18981	0.12086	0.15167	0.29811	0.16816	0.14033	0.2859	0.14827	-2.6167	-2.8896	-2.9729	-3.1146	-2.5667	-3.0417	-3.1604	-3.0021	-3.0208	-2.5333	-2.9292	-2.9646	-2.6896	-3.0604	-2.9229	-2.9146	207.952	443.679	282.471	305.376	381.829	417.927	441.955	482.973	258.842	441.753	159.992	503.945	248.032	379.174	404.595	384.857	0.00041943	0.00029806	8.0569e-05	1401.9	6.1559e-06	5.7987e-06	1369	369.28	4.3439e-06	6.9728e-06	427.32	141.69	122.87	42.133	3.1893e-06	52.228	0.0005239	0.00052433	0.00014587	1407	5.7105e-06	5.7281e-06	1381.9	374.21	5.7485e-06	5.7411e-06	429.1	143.49	124.34	42.883	5.7702e-06	53.279	217.935	257.785	498.349	171.158	430.447	253.816	171.090	175.814	477.571	328.809	175.377	179.409	179.942	184.598	275.112	183.972	-8191	255	
2331.112	1	1	0	0	0.26204	0.13062	0.29146	0.1727	0.097368	0.091691	0.15465	0.4022	0.2017	0.17514	0.11387	0.1238	0.18207	0.24832	0.23905	0.15894	-2.5104	-2.7583	-2.8063	-3.1167	-2.6042	-3.1125	-3.0875	-2.9958	-3.0938	-2.7875	-2.9667	-3.0396	-2.8583	-3	-2.9062	-2.6646	440.475	354.484	432.301	162.719	325.470	511.983	505.630	484.308	480.791	237.534	330.741	255.530	197.562	438.236	201.658	423.304	0.00057911	0.00044034	0.00016525	1399.8	4.2811e-06	6.0905e-06	1365.9	369.13	4.2391e-07	1.0024e-05	427.94	141.6	122.45	42.21	1.826e-06	52.426	0.00052641	0.00052349	0.00014665	1407.4	5.7375e-06	5.7197e-06	1378.5	374.14	5.7094e-06	5.7107e-06	428.99	143.12	124.12	42.884	5.6915e-06	53.178	203.415	413.805	301.929	171.556	228.295	309.130	171.115	176.088	258.613	293.544	175.225	179.408	180.063	184.980	292.098	183.821	-8191	255	
2331.208	1	1	0	0	0.071513	0.35738	0.04012	0.12148	0.21133	0.17028	0.25539	0.25189	0.11761	0.18295	0.17582	0.15013	0.10751	0.25692	0.1817	0.25194	-2.6083	-2.7438	-2.7917	-3.2167	-2.6042	-3.0333	-3.0208	-2.9437	-3.0458	-2.9104	-2.9542	-3.2583	-2.8312	-3.0208	-2.7646	-2.9188	270.861	440.796	367.408	436.884	330.694	326.742	437.393	431.472	241.396	235.451	392.370	454.944	379.150	173.435	447.473	454.905	0.00052449	0.00032538	0.00014343	1404.4	2.996e-06	2.3584e-06	1368.7	369.93	6.4972e-06	1.823e-06	429.94	141.62	122.08	42.196	6.0354e-06	52.333	0.00052137	0.00052074	0.00014489	1409.4	5.7038e-06	5.6877e-06	1380.6	373.88	5.7173e-06	5.7388e-06	429.26	143.42	124.07	42.959	5.767e-06	53.217	224.758	220.255	333.211	171.126	183.299	401.068	171.024	175.691	339.407	196.270	175.289	179.509	179.963	184.731	227.193	184.095	-8191	255	
2331.304	1	1	0	0	0.16542	0.014709	0.13618	0.23247	0.076322	0.06608	0.11284	0.23125	0.09596	0.10811	0.21015	0.15423	0.067982	0.1655	0.080096	0.081272	-2.5146	-2.7125	-2.7062	-3.2958	-2.7229	-3.1437	-3.1667	-2.9083	-2.9	-2.9583	-2.9354	-3.1583	-2.8583	-2.9313	-2.9083	-2.8	303.416	388.070	279.721	469.332	384.278	417.019	473.811	495.773	419.665	423.636	437.770	472.448	249.930	517.740	177.598	425.288	0.00047437	0.00033515	9.2663e-05	1403.6	2.5359e-06	4.8527e-06	1370.9	369.73	1.7224e-06	1.0438e-05	426.16	141.5	122.52	42.022	4.9164e-06	52.074	0.00052562	0.00052576	0.00014644	1410.5	5.7915e-06	5.7692e-06	1383.1	374.65	5.7598e-06	5.7307e-06	428.11	143.52	123.91	42.76	5.6488e-06	53.078	216.066	412.387	289.017	171.287	303.735	317.605	170.998	175.847	279.754	324.312	175.161	179.588	180.091	184.855	305.825	184.020	-8191	255	
2331.400	1	1	0	0	0.47434	0.021708	0.15179	0.082484	0.22963	0.12959	0.22809	0.5464	0.15054	0.083712	0.24823	0.21256	0.30399	0.1874	0.17164	0.15341	-2.5	-2.9042	-2.6396	-3.2792	-2.7604	-2.8021	-3.1479	-2.7062	-3.0979	-2.8896	-2.8438	-3.2062	-2.9583	-3.0396	-2.9792	-2.6333	310.721	293.840	185.154	415.673	249.502	256.567	473.451	471.646	298.123	491.145	469.950	222.442	473.889	495.871	448.971	450.362	0.00042699	0.00055385	0.00011136	1406.6	3.3398e-06	2.4199e-06	1369.7	370.43	4.9025e-06	2.2181e-06	427.1	141.71	122.98	42.313	1.8694e-06	52.294	0.00051497	0.00051207	0.00014284	1406.9	5.6385e-06	5.6584e-06	1378.7	373.11	5.6783e-06	5.6712e-06	427.99	143.32	123.95	42.903	5.7206e-06	53.199	226.094	302.953	280.784	171.244	512.437	172.384	171.072	175.744	189.050	236.258	174.962	179.350	180.020	184.901	398.121	183.889	-8191	255	
2331.496	1	1	0	0	0.28387	0.026085	0.26957	0.083071	0.089927	0.066834	0.29845	0.14682	0.1062	0.098472	0.19565	0.25221	0.10236	0.12418	0.13968	0.33726	-2.5604	-2.7708	-2.6458	-3.1625	-2.6646	-2.9229	-3.1833	-2.7292	-2.9729	-3.0062	-2.9104	-3.1896	-2.8563	-2.8375	-3.05	-2.7458	221.339	474.590	496.011	433.694	196.823	279.561	482.679	486.766	385.212	252.424	174.806	221.486	206.680	179.357	467.472	489.894	0.00055429	0.0003676	8.8544e-05	1396.9	4.3414e-06	2.4669e-06	1365.4	370.36	7.729e-06	5.4105e-06	426.35	141.29	122.33	42.187	2.145e-06	52.401	0.00052229	0.00052377	0.00014652	1406.2	5.7743e-06	5.7603e-06	1379.8	374.24	5.7952e-06	5.7987e-06	429.35	143.51	124.39	42.977	5.8224e-06	53.382	218.416	235.911	220.272	171.232	233.306	259.225	170.932	175.884	277.980	169.736	175.377	179.502	180.114	184.503	302.718	184.272	-8191	255	
2331.617	1	1	0	0	0.39999	0.18621	0.12276	0.21956	0.23891	0.17505	0.13766	0.20453	0.13936	0.10506	0.18913	0.13144	0.087633	0.43041	0.51674	0.13073	-2.5375	-2.8625	-2.6896	-3.2042	-2.7604	-2.7708	-3.1479	-3.0417	-2.8729	-2.9646	-2.8229	-3.1625	-2.9375	-2.7583	-3.1229	-2.8917	398.489	231.386	208.503	516.807	285.922	389.841	158.216	482.914	240.150	350.269	327.093	457.372	239.069	516.084	496.514	504.823	0.00049691	0.00072571	0.00013607	1397.7	5.0213e-06	7.1098e-06	1362.1	369.62	3.7805e-06	9.1569e-06	428.17	141.05	122.12	42.122	3.9661e-06	52.016	0.00053317	0.00053302	0.00014849	1409.3	5.8824e-06	5.851e-06	1379.6	374.92	5.8661e-06	5.8241e-06	430.03	143.65	124.32	42.999	5.8333e-06	53.337	220.415	166.526	243.197	171.255	316.844	286.181	171.116	175.619	218.121	272.895	175.122	179.229	179.958	184.868	298.672	183.903	-8191	255	
2331.713	1	1	0	0	0.21329	0.078978	0.05832	0.10659	0.30995	0.1334	0.36756	0.26269	0.099838	0.050474	0.081375	0.15893	0.20352	0.16955	0.0477	0.22351	-2.4437	-3.0583	-2.7542	-3.0687	-3.0062	-2.8104	-3.3333	-2.8063	-2.8792	-2.9333	-2.7292	-3.1021	-3.0229	-2.8229	-3.0167	-2.7792	363.810	158.594	350.707	193.574	512.817	240.972	439.191	505.983	209.252	476.890	477.006	354.058	445.178	160.547	247.478	165.675	0.00039144	0.00079394	3.9815e-05	1399.2	3.774e-06	5.3902e-06	1369.6	369.76	2.5026e-06	8.3632e-06	427.45	141.17	122.32	41.992	1.3263e-06	52.509	0.00053459	0.00053495	0.0001489	1408	5.8567e-06	5.8026e-06	1383.9	374.5	5.8259e-06	5.8076e-06	430.51	143.48	124.18	42.969	5.8489e-06	53.429	215.973	205.328	380.004	171.345	310.489	227.794	170.920	175.782	388.364	241.418	175.419	179.584	179.835	184.973	306.743	183.966	-8191	255	
2331.809	1	1	0	0	0.38859	0.085446	0.36926	0.33006	0.099795	0.15838	0.034604	0.19683	0.24111	0.095066	0.19462	0.23768	0.035289	0.2426	0.12225	0.31295	-2.3792	-3.1	-2.6146	-3.1271	-2.8604	-2.6146	-3.4271	-2.8604	-2.8521	-3.0771	-2.7479	-3.0979	-2.9708	-2.7458	-3.1083	-2.9625	482.407	196.731	171.506	490.188	438.288	424.702	206.673	326.505	437.394	304.683	402.328	373.654	319.290	448.127	456.321	286.680	0.00055373	0.00038707	0.00019778	1398.5	4.6258e-06	1.9156e-06	1370	370.41	6.0295e-06	6.8182e-06	427.71	141.06	122.51	42.14	8.5719e-06	52.559	0.00053334	0.0005348	0.00014846	1410.4	5.8637e-06	5.8555e-06	1384.3	375.09	5.8766e-06	5.89e-06	430.64	143.72	124.6	43.01	5.8902e-06	53.486	230.075	222.803	200.076	171.374	196.783	219.138	170.988	175.826	177.246	394.672	175.419	179.629	180.064	184.772	311.148	183.964	-8191	255	
2331.904	1	1	0	0	0.30949	0.061797	0.091144	0.3368	0.30938	0.098048	0.059267	0.29145	0.1565	0.17831	0.129	0.27572	0.11793	0.35285	0.21784	0.23412	-2.3937	-2.9375	-2.8521	-3.0521	-2.7917	-2.6917	-3.2062	-3.1958	-2.7313	-3.1833	-2.9771	-2.9771	-3.0563	-2.8771	-3.0583	-3.1229	250.542	342.512	432.053	503.671	192.520	235.017	157.988	165.327	235.466	176.771	195.784	503.393	428.445	432.816	485.581	473.477	0.00051191	0.00064756	0.00019183	1407.5	7.1686e-06	5.4504e-06	1367.8	368.64	9.9017e-07	1.9891e-06	427.32	141.23	122.31	42.188	5.5178e-06	52.399	0.00053535	0.00053493	0.00014901	1411.3	5.8572e-06	5.8566e-06	1383.4	374.11	5.8369e-06	5.8319e-06	430.43	143.85	124.51	43.051	5.8825e-06	53.496	210.219	199.457	221.138	171.262	294.172	467.576	171.145	175.526	180.614	373.104	175.372	179.417	180.104	184.736	272.290	183.841	-8191	255	
2332.000	1	1	0	0	0.22668	0.20838	0.1123	0.29377	0.21724	0.12172	0.20044	0.12066	0.04621	0.05958	0.055992	0.14975	0.18957	0.098439	0.14554	0.33112	-2.2333	-3.0667	-2.9396	-2.9583	-3.0458	-2.6021	-3.2771	-3.0333	-2.7604	-3.1354	-2.7938	-2.8354	-3.1646	-2.8708	-3.0271	-3.0354	371.236	474.009	162.408	492.052	472.561	320.727	444.335	482.281	508.010	490.391	364.356	462.374	404.062	230.522	346.191	446.693	0.00046045	1.5541e-05	0.00013339	1403.7	7.1412e-06	2.1894e-06	1371.8	369.61	2.2425e-06	2.4342e-06	427.37	142.16	121.92	42.233	6.7815e-06	51.95	0.00053796	0.00053895	0.00015094	1412.8	5.927e-06	5.9367e-06	1384.5	375.68	5.9892e-06	5.9997e-06	432.6	144.27	125.09	43.198	6.0756e-06	53.635	220.189	300.593	230.291	171.225	314.201	228.167	171.141	175.682	193.384	456.505	175.549	179.458	180.022	184.658	291.950	183.987	-8191	255	
2332.096	1	1	0	0	0.19585	0.18313	0.25305	0.14747	0.216	0.15309	0.33146	0.37771	0.18116	0.14215	0.37561	0.25471	0.10947	0.33067	0.047635	0.19387	-2.3375	-2.9479	-2.7292	-2.9938	-3.1312	-2.8271	-3.1604	-3.1063	-2.7083	-3.1437	-2.8875	-2.7917	-3.1896	-3.0021	-2.8542	-3.2042	285.548	281.461	164.729	482.831	178.959	282.297	461.756	454.971	389.169	436.991	459.786	477.927	475.908	184.077	179.982	225.624	0.00042735	8.6524e-05	0.00016533	1399	3.3212e-06	4.9923e-06	1369.5	369.99	5.8736e-06	1.9515e-06	428.52	141.15	122.3	42.174	4.6409e-06	52.138	0.00055037	0.00054882	0.00015326	1412.1	5.9676e-06	5.9667e-06	1384.2	375.49	5.9841e-06	5.9664e-06	431.98	144.1	124.72	43.029	5.9312e-06	53.454	232.411	345.941	270.335	171.384	427.634	327.213	171.003	175.839	296.733	361.152	175.366	179.438	179.819	184.894	309.787	183.986	-8191	255	
2332.217	1	1	0	0	0.1944	0.25214	0.24758	0.068225	0.11634	0.074222	0.090925	0.14054	0.082315	0.10032	0.2447	0.033097	0.14208	0.19996	0.17502	0.15239	-2.2146	-2.9729	-2.9437	-2.8312	-3.1396	-2.8812	-3.0125	-3.1833	-2.7854	-2.8542	-2.9396	-2.7396	-3.0396	-2.9813	-3.0167	-3.325	500.058	170.689	294.060	406.330	342.126	278.636	360.146	401.249	223.321	348.778	395.772	180.114	441.529	447.319	306.801	490.874	0.00050972	0.00020876	0.00023609	1396.8	1.3085e-06	9.0864e-06	1368.6	371.15	2.7827e-06	6.4928e-06	427.11	141.07	122.07	42.37	2.4287e-06	52.341	0.00054198	0.00053958	0.00015046	1408.7	5.8719e-06	5.8516e-06	1382.4	374.54	5.8219e-06	5.828e-06	429.58	143.37	124.03	42.993	5.7628e-06	53.234	210.499	205.023	227.269	171.215	502.714	282.422	171.185	175.832	362.218	366.096	175.307	179.650	180.029	184.631	340.938	184.149	-8191	255	
2332.313	1	1	0	0	0.20385	0.081705	0.32687	0.18355	0.23486	0.071071	0.47783	0.34877	0.23821	0.26611	0.12634	0.17925	0.17611	0.13965	0.19222	0.13117	-2.3	-2.8937	-2.9146	-2.7604	-3.0958	-3.0792	-2.9354	-3.2375	-2.7562	-2.9729	-3.0167	-2.8125	-3.1292	-2.9396	-2.85	-3.1375	322.618	449.625	369.903	467.308	414.672	446.986	491.078	434.504	274.387	284.319	472.463	389.982	158.228	482.703	396.482	182.292	0.00041634	0.00037133	0.0001033	1400.2	6.6129e-06	5.0888e-06	1369.1	369.72	3.0287e-06	4.6585e-06	425.26	140	122.33	42.158	8.1403e-06	52.496	0.00052542	0.00052504	0.00014553	1407.9	5.7275e-06	5.7246e-06	1382.2	374.42	5.7649e-06	5.7506e-06	428.83	143.13	124.11	42.857	5.7496e-06	53.306	218.216	225.932	402.987	171.276	332.312	329.104	171.054	175.939	176.722	259.177	175.423	179.524	179.839	184.861	285.769	183.956	-8191	255	
2332.409	1	1	0	0	0.13438	0.20972	0.15973	0.20241	0.11261	0.20611	0.13956	0.32812	0.13794	0.076601	0.21791	0.24447	0.07045	0.13317	0.1314	0.16188	-2.2896	-2.8937	-3.0917	-2.9688	-2.9688	-2.8229	-2.8312	-3.1208	-2.6688	-3.0146	-3.3417	-2.8937	-3.0646	-2.8875	-2.6188	-3.2021	311.818	201.143	422.692	160.758	501.475	341.135	165.557	479.744	203.616	213.670	377.036	467.981	270.083	485.287	399.093	415.982	0.0005178	0.00017236	0.00034064	1404.5	7.7765e-06	5.0375e-06	1371	371.15	4.3032e-06	9.4013e-07	428.39	140.96	123.41	42.244	3.5505e-06	52.423	0.00052201	0.00052178	0.00014507	1408.1	5.6748e-06	5.675e-06	1379.2	374.2	5.6715e-06	5.6814e-06	429.56	143.41	124.24	42.984	5.7394e-06	53.37	219.250	218.791	174.198	171.303	268.313	333.293	171.010	175.756	207.066	286.428	175.185	179.240	179.867	184.894	186.287	183.885	-8191	255	
2332.505	1	1	0	0	0.096651	0.12274	0.093136	0.48489	0.09528	0.12012	0.21193	0.043768	0.13836	0.22349	0.064411	0.16293	0.19189	0.29572	0.20469	0.050969	-2.2708	-2.8583	-3.0438	-2.9437	-2.8	-2.8458	-2.9062	-3.1229	-2.8	-2.9021	-3.0375	-2.8354	-2.9688	-2.8271	-2.675	-3.2562	452.106	414.515	478.049	208.572	162.623	387.951	489.339	402.436	318.201	476.630	180.469	161.141	268.224	192.595	229.526	379.227	0.00059093	0.00033146	0.0001263	1406.7	3.4523e-06	8.0814e-06	1373.8	370.98	7.3013e-06	4.3126e-06	425.88	141.54	122.6	42.273	8.1533e-06	52.691	0.00052705	0.00052607	0.00014618	1410.4	5.7962e-06	5.7713e-06	1382.7	374.83	5.767e-06	5.7793e-06	429.85	143.77	124.45	42.974	5.7854e-06	53.465	214.900	258.444	270.192	171.172	499.931	230.703	170.951	175.885	307.900	224.251	175.566	179.412	179.832	184.680	192.472	183.998	-8191	255	
#DATA ENDS
