BOXY.EXE: ISS Imagent and Oximeter Data Acquisition Program Version 0.80
Ascii Record File

#ACQ INFORMATION
2  Detector Channels 
16  External MUX Channels 
1  Auxiliary Channels 
5000  Waveform (CCF) Frequency (Hz)
1  Waveforms Skipped 
30  Waveforms Averaged 
1  Cycles Averaged 
16  Acquisitions per Waveform 
10.0806  Updata Rate (Hz) 

#FILE INFORMATION
TRUE -- External MUX Channel results are PARSED.
FALSE -- AC DC and Phase are NOT grouped.
TRUE -- Companion Program Settings File CREATED.
FALSE -- AC data not excluded
FALSE -- DC data not excluded
FALSE -- Phase data not excluded
FALSE -- Auxillary Chn. data not excluded
Tab delimiters

#CALIBRATION STATE
TRUE -- Waveform Calibration Values APPLIED.


#AUX CALIBRATION VALUES
Val Type	aux-1	

Term	1.0000e+00	
Factor	0.0000e+00	


#WF CALIBRATION VALUES
A = Detector Channel
Val Type	A-AC1	A-AC2	A-AC3	A-AC4	A-AC5	A-AC6	A-AC7	A-AC8	A-AC9	A-AC10	A-AC11	A-AC12	A-AC13	A-AC14	A-AC15	A-AC16	A-DC1	A-DC2	A-DC3	A-DC4	A-DC5	A-DC6	A-DC7	A-DC8	A-DC9	A-DC10	A-DC11	A-DC12	A-DC13	A-DC14	A-DC15	A-DC16	A-Ph1	A-Ph2	A-Ph3	A-Ph4	A-Ph5	A-Ph6	A-Ph7	A-Ph8	A-Ph9	A-Ph10	A-Ph11	A-Ph12	A-Ph13	A-Ph14	A-Ph15	A-Ph16	

Term	0.00000e+00	0.00000e+00	0.00000e+00	0.00000e+00	0.00000e+00	0.00000e+00	0.00000e+00	0.00000e+00	0.00000e+00	0.00000e+00	0.00000e+00	0.00000e+00	0.00000e+00	0.00000e+00	0.00000e+00	0.00000e+00	0.00000e+00	0.00000e+00	0.00000e+00	0.00000e+00	0.00000e+00	0.00000e+00	0.00000e+00	0.00000e+00	0.00000e+00	0.00000e+00	0.00000e+00	0.00000e+00	0.00000e+00	0.00000e+00	0.00000e+00	0.00000e+00	0.00000e+00	0.00000e+00	0.00000e+00	0.00000e+00	0.00000e+00	0.00000e+00	0.00000e+00	0.00000e+00	0.00000e+00	0.00000e+00	0.00000e+00	0.00000e+00	0.00000e+00	0.00000e+00	0.00000e+00	0.00000e+00	
Factor	1.00000e+00	1.00000e+00	1.00000e+00	1.00000e+00	1.00000e+00	1.00000e+00	1.00000e+00	1.00000e+00	1.00000e+00	1.00000e+00	1.00000e+00	1.00000e+00	1.00000e+00	1.00000e+00	1.00000e+00	1.00000e+00	1.00000e+00	1.00000e+00	1.00000e+00	1.00000e+00	1.00000e+00	1.00000e+00	1.00000e+00	1.00000e+00	1.00000e+00	1.00000e+00	1.00000e+00	1.00000e+00	1.00000e+00	1.00000e+00	1.00000e+00	1.00000e+00	X	X	X	X	X	X	X	X	X	X	X	X	X	X	X	X	

B = Detector Channel
Val Type	B-AC1	B-AC2	B-AC3	B-AC4	B-AC5	B-AC6	B-AC7	B-AC8	B-AC9	B-AC10	B-AC11	B-AC12	B-AC13	B-AC14	B-AC15	B-AC16	B-DC1	B-DC2	B-DC3	B-DC4	B-DC5	B-DC6	B-DC7	B-DC8	B-DC9	B-DC10	B-DC11	B-DC12	B-DC13	B-DC14	B-DC15	B-DC16	B-Ph1	B-Ph2	B-Ph3	B-Ph4	B-Ph5	B-Ph6	B-Ph7	B-Ph8	B-Ph9	B-Ph10	B-Ph11	B-Ph12	B-Ph13	B-Ph14	B-Ph15	B-Ph16	

Term	0.00000e+00	0.00000e+00	0.00000e+00	0.00000e+00	0.00000e+00	0.00000e+00	0.00000e+00	0.00000e+00	0.00000e+00	0.00000e+00	0.00000e+00	0.00000e+00	0.00000e+00	0.00000e+00	0.00000e+00	0.00000e+00	0.00000e+00	0.00000e+00	0.00000e+00	0.00000e+00	0.00000e+00	0.00000e+00	0.00000e+00	0.00000e+00	0.00000e+00	0.00000e+00	0.00000e+00	0.00000e+00	0.00000e+00	0.00000e+00	0.00000e+00	0.00000e+00	-1.03808e+02	-1.77211e+02	-1.31083e+02	-1.82823e+02	-9.80098e+01	-7.53848e+01	-1.56825e+02	-1.62015e+02	-7.17826e+01	-7.41865e+01	-1.74633e+02	-1.70805e+02	-1.86096e+02	-1.78665e+02	-8.12713e+01	-1.50289e+02	
Factor	1.71126e-05	7.94423e-05	2.53507e-05	1.83103e-01	8.15524e-07	1.04195e-06	1.75314e-01	6.14070e-02	7.26767e-07	9.63578e-07	1.53302e-01	2.98187e-02	4.30704e-02	9.63236e-03	9.86742e-07	1.34724e-02	4.16114e-07	4.22285e-07	1.17545e-07	8.55281e-02	4.63013e-09	4.62660e-09	7.79135e-02	2.83533e-02	4.62896e-09	4.62280e-09	6.15121e-02	1.31213e-02	1.81129e-02	4.31750e-03	4.62780e-09	5.78296e-03	X	X	X	X	X	X	X	X	X	X	X	X	X	X	X	X	



#DISTANCE SETTINGS
A = Detector Channel
A-1	A-2	A-3	A-4	A-5	A-6	A-7	A-8	A-9	A-10	A-11	A-12	A-13	A-14	A-15	A-16	

2.5000e+00	3.0000e+00	2.5000e+00	3.0000e+00	2.0000e+00	3.0000e+00	1.5000e+00	3.0000e+00	3.0000e+00	3.0000e+00	3.0000e+00	3.0000e+00	3.0000e+00	3.0000e+00	1.5000e+00	3.0000e+00	

B = Detector Channel
B-1	B-2	B-3	B-4	B-5	B-6	B-7	B-8	B-9	B-10	B-11	B-12	B-13	B-14	B-15	B-16	

1.0000e+01	1.0000e+01	1.0000e+01	1.4400e+00	1.0000e+01	1.0000e+01	1.5100e+00	1.9400e+00	1.0000e+01	1.0000e+01	1.9900e+00	2.4900e+00	2.4100e+00	2.9000e+00	1.0000e+01	2.9800e+00	




#DATA BEGINS
time	group	step	mark	flag	A-AC1	A-AC2	A-AC3	A-AC4	A-AC5	A-AC6	A-AC7	A-AC8	A-AC9	A-AC10	A-AC11	A-AC12	A-AC13	A-AC14	A-AC15	A-AC16	A-DC1	A-DC2	A-DC3	A-DC4	A-DC5	A-DC6	A-DC7	A-DC8	A-DC9	A-DC10	A-DC11	A-DC12	A-DC13	A-DC14	A-DC15	A-DC16	A-Ph1	A-Ph2	A-Ph3	A-Ph4	A-Ph5	A-Ph6	A-Ph7	A-Ph8	A-Ph9	A-Ph10	A-Ph11	A-Ph12	A-Ph13	A-Ph14	A-Ph15	A-Ph16	B-AC1	B-AC2	B-AC3	B-AC4	B-AC5	B-AC6	B-AC7	B-AC8	B-AC9	B-AC10	B-AC11	B-AC12	B-AC13	B-AC14	B-AC15	B-AC16	B-DC1	B-DC2	B-DC3	B-DC4	B-DC5	B-DC6	B-DC7	B-DC8	B-DC9	B-DC10	B-DC11	B-DC12	B-DC13	B-DC14	B-DC15	B-DC16	B-Ph1	B-Ph2	B-Ph3	B-Ph4	B-Ph5	B-Ph6	B-Ph7	B-Ph8	B-Ph9	B-Ph10	B-Ph11	B-Ph12	B-Ph13	B-Ph14	B-Ph15	B-Ph16	aux-1	digaux	

2348.183	1	1	0	256	0.34574	0.17031	0.10135	0.20612	0.073634	0.2476	0.14522	0.1586	0.14935	0.076135	0.091725	0.081595	0.25101	0.063795	0.36154	0.21066	-2.4688	-3.125	-2.8042	-3.0792	-3.0625	-2.6937	-3.3396	-3.0229	-2.9458	-3.2417	-2.8563	-2.8875	-3.0396	-2.9083	-2.9062	-3.1521	375.137	473.979	400.867	191.215	445.290	242.420	422.822	402.911	191.447	373.604	209.810	260.421	339.743	286.218	322.944	471.367	0.00036445	0.0006386	0.00014076	1367.3	9.3665e-07	5.3265e-06	1365.6	264.3	2.5783e-06	6.4304e-06	339.93	90.417	71.914	20.739	5.6889e-06	28.328	0.00031813	0.00031785	8.7906e-05	1293.5	3.4329e-06	3.4036e-06	1305.3	257.01	3.35e-06	3.3277e-06	315.58	89.06	71.713	21.17	3.3647e-06	28.728	184.907	273.342	181.401	172.761	340.290	270.724	172.731	179.453	441.455	340.939	179.396	185.554	186.180	193.256	189.816	192.615	-8191	255	
2348.302	1	1	0	0	0.067213	0.13653	0.17408	0.26019	0.1933	0.051827	0.27899	0.22111	0.02452	0.039645	0.057883	0.3232	0.17201	0.12709	0.076618	0.13025	-2.3563	-3.1854	-2.9042	-2.9583	-2.9688	-2.6875	-3.1604	-3.0875	-2.8542	-3.0021	-2.8021	-2.8833	-3.0812	-2.8583	-3.1188	-3.1167	289.086	459.680	513.565	521.466	163.403	319.273	472.772	361.951	511.697	286.084	325.459	380.753	489.924	466.016	428.011	171.902	0.00024315	0.00017052	0.00010411	1353.9	1.7443e-06	6.7504e-06	1364.8	266.48	4.6348e-06	8.918e-07	336.26	90.568	71.892	20.735	4.474e-06	28.454	0.00030589	0.00030498	8.5838e-05	1281.7	3.41e-06	3.4075e-06	1301.7	257.39	3.4007e-06	3.4004e-06	316.1	89.384	72.071	21.279	3.3794e-06	28.798	247.030	172.963	268.100	172.769	393.137	376.610	172.943	179.994	236.303	257.249	179.366	185.729	186.475	193.178	516.128	192.654	-8191	255	
2348.373	1	1	0	0	0.22666	0.036554	0.062227	0.37465	0.16346	0.045843	0.19783	0.21265	0.16618	0.054954	0.11326	0.27177	0.23736	0.38995	0.17144	0.29157	-2.3333	-3.1396	-2.9854	-2.8833	-3.1021	-2.8083	-3.2042	-3.0812	-2.6146	-3.15	-2.9521	-2.8646	-3.1521	-2.7687	-3.1562	-2.9417	236.298	406.440	392.345	487.176	287.995	380.782	178.913	453.521	510.139	268.227	245.690	437.738	293.271	469.807	318.547	232.558	0.00028987	0.0002326	8.5212e-05	1353.7	1.3206e-06	2.4341e-06	1366.1	264.52	3.7592e-06	7.1288e-06	336.08	90.235	72.241	20.678	4.6659e-07	28.314	0.00031198	0.00030946	8.6345e-05	1281.2	3.3962e-06	3.3804e-06	1300.4	256.95	3.3856e-06	3.3576e-06	315.19	89.058	71.736	21.217	3.376e-06	28.728	226.318	365.277	230.927	173.017	189.077	229.465	172.644	179.721	227.136	346.111	179.203	185.838	186.224	193.155	273.171	193.116	-8191	255	
2348.469	1	1	0	0	0.18924	0.053533	0.085208	0.23472	0.1014	0.037772	0.08691	0.22405	0.055829	0.26848	0.21142	0.15161	0.13997	0.068856	0.077473	0.14919	-2.3563	-3.0292	-2.8958	-2.9792	-3.1208	-2.8688	-3.1396	-3.0729	-2.7313	-3.075	-3.0771	-2.8563	-3.0896	-2.9604	-3.0729	-3.2438	285.067	415.278	200.215	176.679	373.289	166.200	516.595	489.437	344.326	240.539	368.012	505.486	243.093	517.193	199.277	254.068	0.00028649	0.00087778	0.00013826	1352	3.3012e-06	3.9493e-06	1362.4	265.58	1.6975e-06	7.3088e-06	334.75	90.928	71.968	20.696	6.5767e-06	28.403	0.00030949	0.0003098	8.6456e-05	1281.1	3.3876e-06	3.3943e-06	1299	257.07	3.4235e-06	3.4378e-06	315.37	89.47	72.117	21.273	3.5263e-06	28.908	221.259	207.757	450.963	172.695	226.133	356.714	172.597	179.695	198.980	411.153	179.292	185.430	186.239	193.175	304.850	192.576	-8191	255	
2348.567	1	1	0	0	0.24643	0.1301	0.10721	0.26018	0.061847	0.063316	0.40197	0.13741	0.061699	0.096706	0.10633	0.31783	0.19694	0.26221	0.16671	0.12356	-2.3896	-3.0167	-3.0687	-2.8354	-3.2583	-2.7854	-2.9958	-3.2625	-2.5708	-3.0521	-3.0271	-2.75	-3.2125	-3.0104	-3.05	-3.125	472.309	171.936	326.958	500.555	295.383	239.725	441.788	502.585	252.074	388.667	297.338	489.623	176.903	517.361	476.972	397.136	0.00015481	0.00019586	0.00014958	1352.1	6.1205e-06	4.2796e-06	1363.5	265.78	5.1835e-06	5.2441e-06	336.88	90.302	72.48	20.7	2.8648e-06	28.194	0.00031884	0.00031814	8.8762e-05	1284.6	3.4616e-06	3.4508e-06	1301.8	257.41	3.4585e-06	3.4504e-06	315.73	89.3	72.073	21.291	3.4673e-06	28.838	205.408	464.035	213.077	172.782	479.063	198.559	172.767	179.926	268.004	362.426	179.370	186.048	186.047	193.106	195.376	192.871	-8191	255	
2348.686	1	1	0	0	0.16351	0.048669	0.15228	0.17537	0.15445	0.23838	0.093732	0.20648	0.3271	0.043321	0.21674	0.28114	0.20392	0.092976	0.24779	0.033757	-2.3	-3.1458	-2.9188	-2.9125	-3.1792	-2.9625	-2.9396	-3.0875	-2.9062	-3.0708	-3.0771	-2.8271	-2.9229	-3.0354	-2.8958	-3.0854	518.751	235.948	515.629	198.272	168.247	193.843	492.134	175.251	317.168	341.211	482.882	197.760	451.676	167.541	172.709	226.100	0.00035287	0.00040786	0.00026508	1354.4	4.3517e-06	3.1661e-06	1364.8	264.28	3.1044e-06	1.09e-06	334.73	90.384	72.525	20.639	1.701e-06	28.333	0.00031729	0.00031588	8.8317e-05	1286.6	3.5034e-06	3.4891e-06	1303.4	257.59	3.5447e-06	3.5205e-06	316.46	89.569	72.637	21.365	3.5589e-06	28.973	217.685	248.245	192.214	172.937	294.751	462.133	172.763	180.067	450.640	399.196	179.108	185.978	185.770	193.562	233.749	193.094	-8191	255	
2348.782	1	1	0	0	0.13153	0.12567	0.098232	0.21983	0.13113	0.14666	0.35889	0.48583	0.24776	0.06647	0.28451	0.24409	0.28226	0.080587	0.18639	0.10977	-2.425	-2.9688	-3.0458	-2.9917	-3.2354	-3.0396	-2.9062	-3.1063	-2.8625	-2.9104	-3.0146	-2.8292	-3.0833	-2.8396	-2.7167	-3.0917	414.466	237.239	288.869	485.354	349.123	483.474	453.004	477.494	470.777	286.053	458.250	487.031	514.579	390.815	198.980	470.246	0.00021784	0.0004698	9.0411e-05	1354.2	6.0829e-06	1.4882e-06	1361.9	264.4	9.4175e-07	6.1648e-06	335.56	90.417	72.52	20.738	3.3551e-06	28.283	0.0003235	0.00032298	8.9966e-05	1288	3.5333e-06	3.5189e-06	1302.8	257.94	3.4916e-06	3.5169e-06	316.25	89.5	72.572	21.347	3.5458e-06	28.899	222.692	469.894	276.979	172.695	178.854	509.096	172.611	179.801	449.947	172.469	179.496	185.863	186.142	193.436	502.016	192.901	-8191	255	
2348.879	1	1	0	0	0.21803	0.23947	0.2323	0.32809	0.12955	0.097425	0.22882	0.1964	0.10544	0.049818	0.23218	0.12498	0.16228	0.096554	0.16148	0.11185	-2.4062	-2.8208	-2.9521	-2.8792	-3.0042	-3.0417	-3.0687	-3.2333	-2.875	-2.8104	-3.0792	-2.7458	-3.0563	-2.9708	-2.6021	-3.1188	173.480	270.619	439.462	445.914	492.441	234.975	404.189	495.562	379.864	432.490	454.238	454.086	423.529	513.428	472.587	220.193	0.00031699	0.00025717	7.5906e-05	1353.3	6.7731e-06	1.2924e-06	1358.1	263.99	7.693e-06	2.5461e-06	336.29	89.962	71.94	20.54	9.1971e-07	28.217	0.00032064	0.00032289	9.0003e-05	1286.8	3.5555e-06	3.5512e-06	1304.3	257.53	3.5748e-06	3.5659e-06	317.46	89.709	72.492	21.377	3.5462e-06	29.021	228.463	171.684	256.358	172.658	243.165	209.932	172.681	179.831	324.678	287.985	179.146	186.040	185.956	193.232	302.244	192.887	-8191	255	
2348.975	1	1	0	0	0.33138	0.15968	0.066431	0.20217	0.056172	0.24638	0.34186	0.4868	0.22553	0.12855	0.23324	0.2025	0.23314	0.19645	0.20593	0.34736	-2.4271	-2.8729	-3.0354	-2.95	-2.9437	-3.0979	-3.0542	-3.2083	-2.8104	-2.8917	-3.1458	-2.8542	-2.9458	-2.9854	-2.7417	-2.95	411.721	282.618	507.759	469.702	299.041	375.777	428.231	447.796	335.416	246.154	453.362	459.293	264.341	503.940	431.527	452.311	0.00019313	0.00042759	8.4602e-05	1358.7	1.7098e-06	3.1821e-06	1360.9	264.78	1.6907e-06	1.1632e-06	337.8	90.613	71.916	20.668	3.7209e-06	28.428	0.00032888	0.00032784	9.1712e-05	1290.3	3.6347e-06	3.6235e-06	1305.8	258.14	3.6304e-06	3.6151e-06	318.66	89.825	72.764	21.403	3.6052e-06	29.042	240.384	450.232	504.089	172.799	353.479	448.816	173.092	179.633	369.989	435.107	179.354	185.891	186.214	193.216	382.248	192.764	-8191	255	
2349.071	1	1	0	0	0.15997	0.086025	0.28249	0.30865	0.13548	0.12535	0.16588	0.38513	0.18238	0.18995	0.18095	0.069408	0.044282	0.083627	0.07394	0.076701	-2.4146	-2.7875	-2.9646	-2.8979	-2.9625	-3.0667	-2.9188	-3.0854	-2.9646	-2.7562	-3.0792	-2.8312	-2.9146	-3.1271	-2.8375	-3.025	481.684	483.080	413.873	201.228	470.267	309.096	455.386	491.014	360.130	444.412	319.165	182.936	207.444	236.914	275.681	334.329	0.00020865	0.00021077	0.00012982	1360	3.5196e-06	7.2572e-06	1364.2	265.18	1.2727e-06	3.6958e-06	336.2	90.145	72.245	20.736	6.8131e-06	28.362	0.0003272	0.00032934	9.1046e-05	1288.5	3.5835e-06	3.5612e-06	1305.4	258.57	3.575e-06	3.5465e-06	317.48	89.647	72.615	21.353	3.5483e-06	28.907	228.190	500.840	236.808	172.986	292.686	431.263	172.906	179.838	413.237	358.012	179.535	185.745	185.876	193.348	215.490	192.610	-8191	255	
2349.167	1	1	0	0	0.21092	0.11275	0.16609	0.26579	0.071242	0.12386	0.077322	0.10977	0.1153	0.36914	0.18903	0.10571	0.32918	0.2369	0.052058	0.081784	-2.7375	-2.7542	-3.1625	-3.0667	-2.7792	-3.0708	-3.0104	-3.1333	-3.1375	-2.8625	-2.9333	-2.9	-2.7896	-3.2979	-3.0146	-3.0083	286.407	344.499	277.048	463.499	235.144	351.161	394.634	402.793	380.544	270.376	184.825	480.400	482.301	320.940	218.862	492.041	0.00010441	0.00024642	0.00012505	1354.9	7.9232e-06	1.0284e-05	1356	263.63	1.2547e-06	3.6937e-06	334.79	90.405	72.758	20.627	5.049e-07	28.275	0.00032309	0.00032207	8.9906e-05	1284.9	3.5307e-06	3.5532e-06	1302.3	257.37	3.578e-06	3.573e-06	317.68	89.679	72.516	21.381	3.5851e-06	28.966	234.941	182.266	250.422	172.846	172.884	321.255	172.845	179.782	278.659	336.677	179.378	185.749	186.239	193.007	174.032	192.517	-8191	255	
2349.288	1	1	0	0	0.1834	0.32142	0.39178	0.42923	0.29376	0.096354	0.27009	0.16266	0.10314	0.1566	0.14165	0.10761	0.093504	0.1302	0.084487	0.13979	-2.6063	-2.8979	-3.15	-3.025	-2.9521	-3.1792	-2.7792	-3.05	-3.1396	-2.9604	-3.0854	-2.9896	-2.5333	-3.1167	-2.9479	-3.0312	247.978	509.273	449.279	472.617	180.277	317.592	406.851	511.201	419.990	213.139	279.962	489.055	453.806	432.931	324.148	416.987	0.00019188	0.00062899	7.2745e-05	1350.9	4.1818e-06	2.6098e-07	1362.3	265.45	6.7395e-06	3.9e-06	332.96	90.652	72.514	20.73	6.9744e-06	28.16	0.00032431	0.00032511	9.0625e-05	1285.3	3.5559e-06	3.5365e-06	1302.3	258.01	3.5553e-06	3.5612e-06	316.61	89.674	72.656	21.349	3.5733e-06	28.983	221.034	500.599	223.620	172.957	272.895	245.516	172.920	179.936	330.995	236.567	179.589	185.900	186.392	193.590	291.193	192.789	-8191	255	
2349.384	1	1	0	0	0.36993	0.31482	0.25435	0.12973	0.093143	0.12357	0.065799	0.11548	0.13466	0.17748	0.27982	0.07476	0.12643	0.16659	0.16065	0.030017	-2.6292	-2.9042	-2.9417	-3.1417	-2.8187	-3.0271	-3.1125	-2.7771	-3.0646	-2.5521	-2.975	-3.2125	-2.7833	-3.1688	-2.9313	-3.0854	178.830	272.296	371.507	489.147	362.031	219.362	361.242	254.946	490.519	422.932	250.324	379.434	472.712	500.235	262.363	467.134	0.00030434	0.00029394	0.00013581	1352.9	1.2786e-06	6.7625e-06	1365.4	264.87	5.2656e-06	4.8009e-06	333.6	90.224	72.132	20.398	5.9642e-06	28.09	0.00032446	0.00032447	9.051e-05	1284.5	3.5225e-06	3.5196e-06	1302	257.34	3.5094e-06	3.4938e-06	315.59	89.462	72.33	21.237	3.5301e-06	28.963	210.819	192.396	368.849	172.606	320.842	259.712	172.816	179.417	242.159	433.993	179.125	185.877	186.180	193.011	263.385	192.858	-8191	255	
2349.478	1	1	0	0	0.20025	0.16723	0.33893	0.2069	0.1643	0.27712	0.28891	0.20877	0.1597	0.090679	0.23617	0.107	0.24754	0.28362	0.10933	0.056482	-2.6667	-2.8417	-2.8958	-3.0958	-2.7167	-3.0729	-3.2188	-2.9604	-3.1188	-2.8458	-2.9229	-3.1	-2.7333	-3.1729	-2.9146	-2.9208	186.030	343.543	360.479	460.509	326.560	241.174	459.238	485.089	309.596	496.446	381.448	432.820	497.431	493.292	426.338	174.709	0.00026299	0.00032054	0.00015608	1351	3.9407e-06	7.0706e-06	1358	264.37	9.989e-07	6.0356e-06	335.27	89.784	72.033	20.696	2.3444e-06	28.216	0.00032341	0.00032402	9.0358e-05	1283.3	3.5528e-06	3.5616e-06	1299.8	257.83	3.504e-06	3.5205e-06	316.62	89.334	72.241	21.248	3.4608e-06	28.82	235.715	210.606	284.131	172.703	244.368	347.512	172.534	179.796	433.584	375.929	179.915	185.768	186.101	193.135	467.571	193.194	-8191	255	
2349.574	1	1	0	0	0.32422	0.06293	0.24723	0.27412	0.18079	0.24952	0.1328	0.21004	0.076952	0.15068	0.11558	0.15328	0.29896	0.19063	0.085926	0.14595	-2.7562	-2.8896	-2.8583	-3.2687	-2.7458	-2.8438	-3.1937	-2.8583	-3.1	-2.9208	-3.0542	-3.0938	-2.7417	-3.2521	-3.05	-2.6896	258.458	332.281	350.610	477.698	210.698	386.768	441.567	445.084	317.801	397.862	506.916	430.746	509.191	469.656	477.170	367.136	0.00018014	0.00031403	0.000114	1347.9	3.145e-06	2.2268e-06	1360	265.16	2.2003e-06	4.0666e-06	334.94	90.573	72.048	20.608	3.2736e-06	28.34	0.00031422	0.0003123	8.7468e-05	1278.5	3.4565e-06	3.4535e-06	1297.1	256.95	3.4428e-06	3.4381e-06	314.73	89.266	71.899	21.204	3.4341e-06	28.872	221.354	203.369	167.849	172.815	267.469	296.779	172.960	179.552	415.904	196.342	179.197	186.102	186.458	193.215	166.990	192.755	-8191	255	
2349.670	1	1	0	0	0.27908	0.15469	0.16644	0.14639	0.2465	0.23696	0.12847	0.24287	0.060819	0.13998	0.26719	0.22858	0.21213	0.10904	0.09303	0.12558	-2.5896	-2.7729	-2.6604	-3.3354	-2.7042	-3.2271	-3.2021	-2.7667	-3.1958	-2.9917	-2.975	-3.075	-2.9125	-3.05	-2.9813	-2.7062	293.678	299.133	378.831	505.329	244.192	163.589	484.313	449.327	450.211	485.936	304.907	481.768	386.544	187.314	221.931	472.674	0.00018779	2.6429e-05	9.8e-05	1348.8	5.7267e-06	3.0396e-06	1358.1	263.7	2.545e-06	4.4899e-06	334.23	90.255	71.836	20.528	7.0213e-06	28.241	0.00031547	0.00031873	8.8364e-05	1282.2	3.5055e-06	3.49e-06	1301.1	256.64	3.458e-06	3.4241e-06	314.58	89.112	71.434	21.045	3.3496e-06	28.628	202.525	461.985	215.854	172.801	302.129	437.246	173.004	179.862	261.319	202.059	179.122	185.859	186.393	193.471	471.689	192.547	-8191	255	
2349.767	1	1	0	0	0.13696	0.20423	0.19378	0.33411	0.18039	0.14183	0.34547	0.10205	0.17026	0.12721	0.11925	0.14829	0.25879	0.24004	0.045195	0.12123	-2.6646	-2.9354	-2.725	-3.3396	-2.8833	-2.8833	-3.2333	-2.8125	-3.1458	-2.8958	-2.8667	-3.1312	-2.9604	-3.0792	-2.8833	-2.8438	361.371	397.296	402.967	454.844	362.209	352.751	512.077	167.580	433.067	183.507	335.351	459.891	184.960	491.624	170.506	255.470	0.00041877	0.00022114	5.3254e-05	1351.9	8.9252e-07	4.7534e-06	1358	263.74	3.462e-06	3.4949e-06	334.7	90.802	72.414	20.593	4.5407e-06	28.099	0.00030663	0.0003108	8.6588e-05	1280.2	3.4006e-06	3.3899e-06	1295.9	255.59	3.3651e-06	3.3432e-06	313.59	88.81	71.684	21.143	3.3766e-06	28.657	230.121	516.350	302.915	172.794	469.874	313.477	172.792	179.692	311.968	304.257	179.639	186.087	185.786	193.316	384.976	192.912	-8191	255	
2349.863	1	1	0	0	0.37939	0.2148	0.2477	0.24296	0.095171	0.054267	0.051785	0.26756	0.3553	0.10909	0.062681	0.12367	0.087452	0.18417	0.33575	0.072709	-2.6875	-2.9479	-2.6479	-3.3917	-2.775	-2.9938	-3.425	-2.9125	-2.9813	-3.0042	-2.8667	-3.2354	-2.9167	-2.7833	-3.1	-3.0271	420.398	436.492	338.601	453.953	473.624	287.094	492.294	487.805	337.644	244.534	201.118	296.786	478.045	164.069	324.820	477.084	0.00026383	0.0002809	0.00011435	1348.1	4.3104e-06	7.4787e-07	1356.8	263.55	6.1034e-06	2.3613e-06	333.58	90.064	72.38	20.424	3.0805e-06	28.177	0.00030589	0.00030605	8.5143e-05	1278.1	3.3366e-06	3.3358e-06	1293.9	255.59	3.3502e-06	3.3509e-06	313.63	89.076	71.656	21.17	3.4146e-06	28.755	218.669	324.097	244.798	172.986	206.411	296.756	172.875	179.742	251.978	193.263	179.975	185.805	186.281	193.640	298.718	192.484	-8191	255	
2349.983	1	1	0	0	0.16553	0.17372	0.040202	0.31521	0.22186	0.15623	0.017166	0.15312	0.25549	0.079871	0.30199	0.18546	0.20097	0.29567	0.10279	0.029579	-2.6271	-2.9208	-2.7479	-3.2542	-2.9917	-2.7583	-3.3	-2.9146	-2.9167	-2.9292	-2.7375	-3.1625	-2.9292	-2.6271	-3.125	-2.9188	290.921	418.125	387.148	501.237	405.415	195.327	255.106	518.439	425.649	428.711	437.351	170.909	407.251	395.912	236.934	416.092	0.00032448	0.00035957	0.00018363	1353.8	1.2412e-06	2.1943e-06	1360.2	263.49	2.5555e-06	1.7026e-06	335.61	90.183	72.168	20.667	5.3146e-06	28.256	0.00030915	0.00030793	8.5228e-05	1278.6	3.3177e-06	3.2877e-06	1296.4	254.9	3.2947e-06	3.2764e-06	313.43	88.906	71.322	21.052	3.2553e-06	28.562	221.974	232.730	354.249	173.046	171.150	465.874	172.721	179.809	292.631	493.189	179.500	185.842	186.127	193.124	296.854	192.653	-8191	255	
2350.080	1	1	0	0	0.090616	0.066786	0.21068	0.18221	0.1482	0.15768	0.32077	0.22656	0.0902	0.073866	0.016365	0.30153	0.061177	0.16093	0.12476	0.079776	-2.6604	-3.1021	-2.6833	-3.2188	-2.8979	-2.9188	-3.2833	-2.95	-2.8792	-3.1854	-2.7021	-3.0167	-3.0729	-2.9396	-3.2479	-2.7625	514.487	188.765	280.694	387.275	257.855	321.232	165.755	468.450	368.176	425.102	338.161	454.283	477.836	407.844	336.680	392.254	0.00027004	0.0003321	0.00016635	1346.1	4.2279e-06	9.1104e-06	1360	263.72	3.08e-07	6.1512e-06	332.41	90.382	71.383	20.615	4.52e-06	28.212	0.0002977	0.00029742	8.2368e-05	1276.6	3.218e-06	3.2514e-06	1293.6	254.98	3.2369e-06	3.2602e-06	312.38	88.897	71.028	21.063	3.2687e-06	28.567	214.179	438.214	322.571	172.764	511.499	186.091	172.704	179.818	244.717	290.618	179.405	186.060	186.118	193.248	484.005	193.107	-8191	255	
2350.176	1	1	0	0	0.053595	0.16599	0.15253	0.08666	0.30355	0.0063433	0.06712	0.20584	0.29626	0.041899	0.29265	0.18078	0.094736	0.31045	0.028358	0.095087	-2.6542	-3.0354	-2.6063	-3.1229	-3.2	-2.7208	-3.3208	-2.9604	-2.9188	-3.2146	-2.8208	-3.0542	-3.0896	-2.7479	-3.1583	-2.8125	465.040	249.820	192.001	411.391	263.692	467.216	477.990	202.473	171.303	244.948	167.249	176.529	494.483	491.002	485.222	248.654	0.00023565	0.00035777	0.00011552	1348.8	3.6284e-06	2.7249e-06	1360.8	263.52	1.6649e-06	1.8676e-06	335.9	90.064	72.248	20.563	3.8568e-06	28.482	0.0002981	0.00029904	8.3156e-05	1276.9	3.2772e-06	3.3147e-06	1296.2	255.26	3.3048e-06	3.3099e-06	313.33	88.83	71.609	21.067	3.3344e-06	28.748	244.790	500.415	330.690	172.896	484.774	166.172	172.832	179.869	177.533	261.937	179.541	186.224	186.166	193.343	477.049	192.689	-8191	255	
2350.247	1	1	0	0	0.29475	0.20197	0.26338	0.10964	0.096447	0.078713	0.18793	0.12663	0.19809	0.11647	0.25461	0.086084	0.15458	0.16226	0.26269	0.38738	-2.425	-2.9813	-2.8146	-3.0917	-2.9417	-2.7417	-3.2125	-3.1167	-2.8458	-3.1208	-2.8771	-3.0958	-2.9875	-2.8563	-3.1521	-3.1104	507.118	489.056	316.578	304.733	211.554	238.532	513.170	430.688	405.134	457.957	321.999	181.190	342.800	311.000	269.757	175.220	0.00022859	0.00067806	7.2041e-05	1354.6	7.4108e-06	1.8317e-06	1364.1	263.69	1.7093e-06	1.1871e-06	336.83	90.605	72.373	20.786	9.6095e-06	28.28	0.00030184	0.00030517	8.5207e-05	1280.6	3.3644e-06	3.3383e-06	1299.6	255.79	3.3693e-06	3.3482e-06	314.36	89.102	71.552	21.175	3.3361e-06	28.714	230.811	226.885	366.443	173.161	279.548	518.208	172.775	179.598	344.445	508.780	179.171	186.054	186.391	193.342	325.496	192.916	-8191	255	
2350.366	1	1	0	0	0.31731	0.15079	0.27766	0.14159	0.092853	0.094592	0.26816	0.24819	0.11263	0.26758	0.24199	0.1298	0.11804	0.11321	0.14476	0.19352	-2.2917	-3.0938	-2.7521	-3.0771	-2.9646	-2.8833	-3.2833	-2.9875	-2.8563	-3.0563	-2.8167	-2.8979	-3.0708	-2.9083	-2.8292	-3.0729	400.174	284.155	367.532	505.908	463.532	416.142	467.474	464.658	468.484	491.419	321.087	515.298	393.793	179.808	181.202	521.618	0.00021361	0.00034181	0.00017137	1359	7.7989e-06	1.8534e-06	1360.5	263.61	7.5393e-06	3.5153e-06	335.83	90.48	72.359	20.73	4.5992e-06	28.335	0.00030408	0.00030391	8.5498e-05	1280.8	3.3386e-06	3.355e-06	1299.3	256.04	3.3516e-06	3.3484e-06	314.72	89.024	71.568	21.164	3.3306e-06	28.705	230.218	479.647	168.877	172.715	280.245	262.462	172.811	179.908	321.437	256.350	179.141	185.956	186.355	193.740	272.045	192.849	-8191	255	
2350.462	1	1	0	0	0.18467	0.14693	0.096529	0.21971	0.32523	0.20061	0.051232	0.11191	0.091986	0.068271	0.33355	0.31921	0.18054	0.044066	0.24087	0.18171	-2.4333	-3.0167	-2.8688	-2.9333	-3.1063	-2.7583	-3.3125	-3.1021	-2.5104	-3.1229	-3.0604	-2.8396	-3.2562	-2.5646	-2.9896	-3.0229	471.646	385.159	415.804	176.197	405.551	235.854	407.418	433.393	386.638	518.811	466.825	472.610	196.590	479.110	456.225	242.237	0.00027198	0.00032875	0.00011527	1350.1	3.0777e-06	2.1138e-06	1364.4	264.59	1.9148e-06	5.0394e-06	335.29	90.388	72.442	20.713	4.9194e-06	28.518	0.00030421	0.00030269	8.4216e-05	1280.6	3.316e-06	3.2948e-06	1300.3	255.99	3.3087e-06	3.3023e-06	314.23	88.882	71.599	21.11	3.3154e-06	28.712	198.202	489.997	361.301	173.033	260.884	199.995	172.764	179.737	243.521	219.061	179.427	185.736	186.447	193.498	349.276	192.654	-8191	255	
2350.559	1	1	0	0	0.28761	0.20158	0.1046	0.067168	0.26134	0.022455	0.18372	0.13461	0.13558	0.35614	0.17238	0.31826	0.15775	0.24411	0.19668	0.03285	-2.4188	-3.0458	-2.7583	-3.0458	-3.4021	-2.7875	-3.0854	-3.2062	-2.9125	-3.1562	-3.1292	-2.7188	-3.1479	-2.6688	-3.1	-3.1104	238.251	473.606	266.011	168.774	232.239	510.087	436.881	187.487	364.088	206.115	454.012	324.086	207.136	371.688	325.015	298.548	0.00030034	0.00063587	6.5896e-05	1352.8	2.7344e-06	2.0714e-06	1369.3	264.23	1.5834e-06	2.9686e-06	335.51	91.044	72.424	20.721	3.951e-06	28.429	0.00029985	0.00030179	8.3437e-05	1281	3.3145e-06	3.3038e-06	1301	255.73	3.3177e-06	3.3164e-06	314.08	89.183	71.771	21.196	3.3601e-06	28.821	236.444	194.646	320.537	172.779	184.070	356.234	172.919	179.888	508.601	437.857	179.604	185.746	185.815	193.401	327.795	193.187	-8191	255	
2350.655	1	1	0	0	0.10398	0.16117	0.22966	0.12354	0.34483	0.070739	0.19391	0.08984	0.17771	0.05006	0.14456	0.34593	0.18539	0.14803	0.046809	0.049968	-2.3896	-2.9354	-2.9396	-3.0979	-3.2167	-2.8917	-3.1167	-3.2313	-2.7167	-3.1917	-3.0104	-2.8063	-3.0771	-3.0354	-2.9938	-3.2354	180.420	401.552	458.740	484.725	217.883	431.598	425.178	187.434	450.256	510.180	484.381	506.000	256.718	237.390	482.093	265.631	0.00022203	0.00026873	4.2378e-05	1359	9.4599e-06	5.8678e-06	1366.5	265.6	5.1604e-06	8.1918e-06	335.61	90.472	71.977	20.599	1.311e-06	28.477	0.00030716	0.00030862	8.5639e-05	1284.6	3.3761e-06	3.3315e-06	1300.7	256.42	3.3289e-06	3.3389e-06	314.64	89.159	71.92	21.204	3.3573e-06	28.795	208.486	271.015	314.333	172.790	250.472	404.004	172.771	179.786	259.316	224.889	179.705	185.978	186.001	193.035	273.087	192.955	-8191	255	
2350.775	1	1	0	0	0.10978	0.031963	0.29652	0.3166	0.20471	0.1011	0.1857	0.2222	0.08757	0.13637	0.13857	0.13152	0.42874	0.038832	0.24731	0.086812	-2.3104	-2.95	-2.8479	-2.8083	-2.9979	-2.8479	-3.0917	-3.2229	-2.8271	-2.8375	-3.2938	-2.9437	-3.0854	-3.0896	-2.8229	-3.2708	241.734	356.480	182.080	502.935	281.843	425.644	188.362	417.921	262.811	478.620	206.239	191.213	167.088	505.528	169.383	443.995	0.00026704	0.00061709	8.7445e-05	1354.5	1.3667e-06	4.2015e-06	1362.7	264.75	3.4164e-06	3.0703e-06	337.31	90.239	72.345	20.519	9.9503e-06	28.355	0.00030574	0.00030913	8.5303e-05	1282.6	3.3416e-06	3.3366e-06	1300.9	256.11	3.3188e-06	3.3086e-06	314.76	89.11	71.723	21.124	3.3302e-06	28.792	214.276	183.919	304.648	172.703	260.298	174.902	172.802	179.691	285.077	457.246	179.368	185.871	186.338	193.068	308.705	192.862	-8191	255	
2350.871	1	1	0	0	0.20214	0.29043	0.066184	0.070489	0.20473	0.088039	0.20502	0.11547	0.066711	0.070323	0.25773	0.16694	0.3227	0.15827	0.20465	0.2293	-2.4417	-2.8521	-2.925	-3.0187	-3.2271	-3.15	-2.9521	-3.3083	-2.8583	-2.9688	-3.1312	-2.8438	-3.1396	-2.8854	-2.6688	-3.15	172.880	354.440	494.120	219.696	199.840	440.207	492.910	466.347	423.887	265.689	199.666	513.718	418.761	430.922	308.131	498.537	0.00028312	0.00046002	0.00014852	1350	5.5336e-06	2.0267e-06	1365.9	264.88	1.9581e-06	1.8623e-06	333.68	90.769	72.061	20.641	4.5826e-06	28.267	0.00030561	0.00030457	8.5157e-05	1281	3.353e-06	3.3152e-06	1301.2	256.25	3.3207e-06	3.2827e-06	314.26	88.828	71.431	21.141	3.2714e-06	28.625	233.689	517.582	514.126	172.851	491.751	346.423	172.729	179.300	312.250	264.804	179.571	186.056	186.305	193.214	466.736	193.269	-8191	255	
2350.968	1	1	0	0	0.25904	0.24278	0.34303	0.18107	0.16752	0.036382	0.33116	0.14804	0.077276	0.084986	0.18858	0.18849	0.13837	0.22313	0.31496	0.19395	-2.5458	-2.825	-2.9458	-3.025	-2.9521	-2.9958	-3.0812	-3.2458	-3.0125	-3.0042	-3.1354	-2.8167	-2.9042	-2.9375	-2.8083	-3.0896	407.089	432.363	259.133	391.529	521.093	441.628	487.446	501.799	495.998	448.746	469.891	292.607	328.758	470.173	466.282	268.200	0.00037604	0.00024154	0.00012806	1357.1	1.3264e-06	3.5637e-06	1370.8	264.27	2.4769e-06	2.9473e-06	333.32	90.45	72.292	20.642	5.6064e-06	28.481	0.00029588	0.00029508	8.2259e-05	1279.7	3.26e-06	3.2534e-06	1302.5	255.79	3.2922e-06	3.2986e-06	314.14	89.132	71.647	21.1	3.2935e-06	28.793	230.030	186.565	257.674	173.069	447.891	287.398	172.914	179.912	180.621	368.822	179.387	186.039	186.486	192.873	248.054	192.838	-8191	255	
2351.064	1	1	0	0	0.097243	0.23024	0.15333	0.28056	0.14787	0.034453	0.25557	0.1378	0.16443	0.2215	0.1384	0.25157	0.16841	0.031203	0.090264	0.19145	-2.4146	-2.9562	-3.0917	-2.9542	-2.8479	-3.1604	-2.9292	-3.2083	-2.8604	-2.7542	-3.2313	-2.9354	-2.8917	-3.1479	-2.8104	-3.0396	516.438	519.205	469.354	516.180	317.823	382.353	213.234	458.449	345.564	297.086	475.392	477.215	282.230	388.808	166.511	490.656	0.00026294	0.00021378	8.0637e-05	1352	1.785e-06	3.2679e-06	1364.5	265.05	4.4518e-06	2.0821e-06	336.4	91.03	72.806	20.871	4.5498e-06	28.44	0.00030265	0.0003026	8.452e-05	1281.2	3.3553e-06	3.3691e-06	1304.1	256.39	3.4224e-06	3.3848e-06	316.04	89.474	72.051	21.264	3.4022e-06	28.898	226.024	312.804	329.594	172.670	336.555	280.959	172.733	179.660	254.815	333.268	179.648	185.985	185.983	193.530	311.468	193.183	-8191	255	
2351.160	1	1	0	0	0.17628	0.15218	0.12674	0.077961	0.2872	0.1025	0.16846	0.20443	0.068937	0.046114	0.15757	0.1753	0.044176	0.12207	0.098598	0.14153	-2.4896	-2.8375	-3.1396	-3.0167	-3.0625	-3.0979	-3.1688	-3.1583	-3.1	-2.9104	-3.2542	-3.0042	-3.0083	-3.3375	-2.8583	-3.0792	207.401	198.862	282.149	422.286	238.340	443.263	470.462	470.056	257.382	228.702	510.660	459.493	260.411	269.410	166.251	398.615	0.00028873	0.00045815	0.0001097	1355.1	4.5367e-06	6.8825e-06	1363.8	264.47	4.9263e-06	8.0923e-06	337.06	90.658	72.448	20.571	3.6254e-06	28.453	0.00031436	0.00031159	8.7445e-05	1287.3	3.4838e-06	3.5133e-06	1306	257.29	3.5403e-06	3.5749e-06	318.39	90.042	72.687	21.392	3.5676e-06	29.131	217.373	520.528	323.210	172.722	247.863	342.206	172.608	179.909	358.084	315.827	179.445	185.884	186.099	193.300	491.938	192.698	-8191	255	
2351.256	1	1	0	0	0.15414	0.1815	0.28324	0.20105	0.098198	0.13059	0.30504	0.2422	0.04461	0.12435	0.37069	0.25613	0.066134	0.06898	0.1147	0.19672	-2.6708	-2.8208	-3.0583	-3.3187	-3.0458	-3.1063	-3.0521	-2.9833	-3.1875	-2.8229	-3.1792	-2.7458	-2.8708	-3.0458	-2.9708	-3.0125	224.400	335.307	411.206	476.840	296.860	441.618	466.787	468.011	446.710	486.135	459.598	425.651	389.297	183.965	361.000	459.569	0.00014549	0.00024016	0.00015168	1354.9	8.6231e-06	2.8075e-06	1369.1	265.46	1.0329e-06	7.2397e-06	337.39	90.963	73.021	20.788	6.9941e-06	28.348	0.00032728	0.00032604	9.0713e-05	1289.5	3.5657e-06	3.5634e-06	1309.8	257.93	3.6076e-06	3.5892e-06	319.61	90.222	72.955	21.46	3.5847e-06	29.139	227.323	202.852	277.505	172.742	260.644	212.748	172.732	179.779	342.257	342.963	179.217	185.962	186.074	193.098	513.912	192.919	-8191	255	
2351.375	1	1	0	0	0.14284	0.035767	0.04287	0.30489	0.18266	0.21139	0.21312	0.091598	0.16443	0.21265	0.082946	0.17063	0.02908	0.22648	0.11166	0.13854	-2.5833	-2.7062	-3.2167	-3.0458	-2.8729	-3.1688	-3.1271	-3.0125	-3.1375	-2.8208	-3.2083	-2.925	-2.8958	-3.1333	-2.9229	-2.8729	514.028	315.677	441.729	473.081	370.293	326.992	444.136	454.525	327.596	418.707	274.181	253.117	197.797	494.423	169.209	394.574	0.00027582	0.00039704	0.00010877	1357.8	2.1309e-06	2.1621e-06	1361.9	264.83	1.5093e-06	3.7556e-06	338	90.716	73.078	20.981	2.0288e-06	28.505	0.00032303	0.00032517	9.0311e-05	1288.2	3.5389e-06	3.5319e-06	1308.1	257.9	3.5346e-06	3.5135e-06	318.36	89.823	72.539	21.465	3.5578e-06	29.125	205.079	189.899	195.247	172.496	341.964	280.618	172.811	180.127	241.177	509.862	179.467	185.958	185.995	193.344	345.757	192.475	-8191	255	
2351.471	1	1	0	0	0.2947	0.10758	0.044773	0.14862	0.25754	0.20402	0.17159	0.028238	0.23935	0.24752	0.090997	0.14157	0.082882	0.17863	0.18663	0.016878	-2.7396	-2.9437	-3.0083	-3.1792	-2.8521	-3.1833	-3.0542	-2.9146	-3.0583	-2.6521	-3.1521	-3.0958	-2.7979	-3.2875	-2.95	-2.8667	258.938	391.023	343.040	517.552	416.987	456.186	432.548	321.315	391.652	373.869	186.050	375.005	511.351	479.802	168.257	365.220	0.00026115	0.00020751	0.00018813	1357.2	1.8494e-06	7.9638e-06	1370.2	265.36	3.5669e-07	5.7839e-06	336.79	91.037	72.671	20.825	4.7133e-06	28.611	0.00032555	0.00032652	9.0995e-05	1289.5	3.6085e-06	3.604e-06	1312.1	258.49	3.5616e-06	3.5745e-06	319.1	90.271	73.001	21.533	3.6047e-06	29.217	238.449	278.677	354.257	172.876	305.541	330.014	172.841	179.654	377.411	243.964	179.226	185.540	186.470	193.247	308.723	192.728	-8191	255	
2351.543	1	1	0	0	0.26526	0.20335	0.038199	0.12384	0.11433	0.23646	0.14459	0.17172	0.13685	0.12958	0.014879	0.20679	0.23405	0.13852	0.21009	0.20405	-2.6604	-2.7313	-3.0479	-3.0938	-2.775	-3.1729	-2.9979	-3.0208	-3.1312	-2.8417	-2.7958	-3.0583	-2.6625	-3.0542	-2.9688	-2.8688	210.467	194.125	337.864	458.872	201.848	211.392	359.109	450.953	380.078	265.731	478.086	485.582	391.342	317.917	428.301	388.723	0.00029336	0.00088635	8.6237e-05	1364.7	6.0249e-06	2.6936e-06	1373	264.08	1.6914e-06	2.4888e-06	339.27	90.976	73.239	20.64	5.6695e-06	28.558	0.00033135	0.00033094	9.2736e-05	1296	3.6635e-06	3.6581e-06	1317.5	259.18	3.6999e-06	3.6834e-06	321.23	90.714	73.573	21.657	3.7104e-06	29.502	211.023	163.037	351.726	172.573	275.160	175.560	172.847	179.811	259.241	344.488	179.541	186.082	186.625	192.848	344.923	192.795	-8191	255	
2351.639	1	1	0	0	0.16177	0.1282	0.15064	0.20104	0.18087	0.27739	0.22922	0.14229	0.15856	0.20554	0.18983	0.11711	0.24224	0.1874	0.23165	0.13543	-2.7188	-2.8438	-3.0396	-3.0875	-2.7667	-3.0104	-3	-2.8812	-3.0125	-2.8417	-2.9271	-3.0146	-2.8063	-3.075	-3.0187	-2.8167	350.806	383.261	199.496	496.164	396.208	476.883	432.399	454.768	196.037	472.461	329.187	409.837	397.624	425.571	460.322	441.781	0.00037407	0.00046141	0.00017569	1366.3	2.6649e-06	3.442e-06	1387	266.72	1.8083e-06	2.5832e-06	339.41	91.365	73.446	20.814	6.4584e-06	28.583	0.00033852	0.00033838	9.4843e-05	1302	3.7184e-06	3.7024e-06	1323.7	260.27	3.7451e-06	3.7413e-06	323.18	91.066	74.263	21.795	3.848e-06	29.727	217.075	223.069	202.648	172.753	234.780	496.369	172.627	179.755	381.627	343.866	179.438	185.767	186.145	193.168	279.903	192.781	-8191	255	
2351.760	1	1	0	0	0.11428	0.32276	0.12319	0.16306	0.077901	0.19078	0.39111	0.15197	0.092347	0.11175	0.18231	0.049373	0.16121	0.2142	0.27879	0.09958	-2.7833	-2.8458	-2.9167	-3.3146	-2.7979	-2.9813	-3.1937	-2.9333	-3.2417	-2.8187	-2.95	-2.9854	-2.8563	-2.9625	-3.1104	-2.8458	458.675	319.480	317.448	520.649	358.131	246.463	491.710	377.351	510.030	427.948	466.868	462.081	509.583	259.146	240.794	429.787	0.00016899	0.00037898	0.0001304	1374.2	1.2789e-06	2.952e-06	1389.2	268	4.8496e-06	1.164e-06	341.19	91.736	73.872	21.151	1.8315e-06	28.707	0.00035113	0.00035331	9.8149e-05	1310.7	3.8588e-06	3.8289e-06	1332.5	261.88	3.8044e-06	3.7699e-06	325.07	91.445	73.96	21.784	3.738e-06	29.483	209.936	176.731	164.735	172.647	213.793	280.663	172.612	179.694	300.873	378.047	179.527	185.605	185.656	193.383	514.271	193.038	-8191	255	
2351.856	1	1	0	0	0.16531	0.22653	0.1085	0.24522	0.21972	0.026814	0.15518	0.059631	0.24011	0.046512	0.18989	0.22284	0.10353	0.24273	0.1591	0.11157	-2.6771	-2.9313	-2.7917	-3.3083	-2.7521	-2.9	-3.3438	-2.7646	-3.1	-2.9958	-2.8917	-3.1271	-2.9958	-2.8729	-3.1854	-2.7812	180.031	377.619	365.560	454.283	251.242	398.577	437.740	390.072	456.939	337.651	228.281	250.555	426.584	216.565	459.314	391.705	0.00013341	0.00053726	7.202e-06	1374.8	4.3791e-06	3.488e-06	1383.4	268.1	2.8375e-06	5.0418e-06	340.85	92.019	73.365	21	3.722e-06	28.757	0.00033733	0.00033773	9.3513e-05	1307.9	3.6794e-06	3.6763e-06	1326.9	261.11	3.6751e-06	3.6531e-06	323.52	91.266	73.671	21.748	3.6827e-06	29.493	203.248	370.758	267.454	172.640	303.977	283.913	172.838	179.558	268.861	350.238	179.439	185.939	186.216	193.618	389.727	192.830	-8191	255	
2351.952	1	1	0	0	0.17899	0.18625	0.029544	0.14781	0.13469	0.052795	0.25704	0.34331	0.12259	0.15078	0.22872	0.058815	0.089113	0.20861	0.23139	0.10529	-2.5	-3.025	-2.7792	-3.3792	-2.9938	-2.9771	-3.3479	-2.7354	-3.125	-3.0687	-2.8333	-3.1688	-2.9562	-2.8458	-2.9771	-2.9062	355.925	502.616	234.370	514.984	288.066	302.434	488.293	492.611	328.777	300.803	519.828	362.667	424.113	233.553	465.138	230.852	0.00019267	0.00016991	6.3904e-05	1377.2	6.2795e-06	3.3848e-06	1388.8	268.95	1.4168e-06	4.7861e-06	343.29	91.325	73.459	21.014	3.193e-06	28.656	0.00033481	0.00033351	9.33e-05	1309.1	3.6548e-06	3.666e-06	1328.3	261.76	3.6591e-06	3.6505e-06	323.63	91.176	73.759	21.769	3.6476e-06	29.532	222.636	385.835	429.844	172.372	228.368	351.148	172.727	180.003	339.172	400.419	179.390	185.855	186.213	193.203	197.515	192.962	-8191	255	
2352.048	1	1	0	0	0.25256	0.17297	0.14632	0.25927	0.2457	0.17323	0.11603	0.092465	0.30704	0.25197	0.22893	0.13267	0.094688	0.10594	0.10261	0.2304	-2.5542	-3.0438	-2.8125	-3.0812	-2.8708	-2.8896	-3.3563	-2.9188	-3.1208	-3.1562	-2.9396	-3.2979	-3.0292	-2.9708	-3.2208	-3.0187	474.166	434.766	348.136	501.653	183.431	257.909	208.940	370.244	259.851	450.802	518.876	289.521	271.241	367.823	337.082	436.141	0.00024962	0.00053391	8.3256e-05	1377.9	3.0308e-06	1.0643e-05	1390.4	269.45	3.7309e-06	3.1788e-06	340.09	92.028	72.932	21.023	7.2508e-06	28.933	0.00033346	0.00033754	9.3831e-05	1310.8	3.7041e-06	3.6856e-06	1330.9	262.27	3.6754e-06	3.6426e-06	323.96	91.495	73.748	21.741	3.6595e-06	29.486	225.486	173.274	254.173	172.849	294.743	352.446	172.838	179.791	226.468	391.269	179.388	185.861	186.329	193.274	336.544	193.211	-8191	255	
2352.144	1	1	0	0	0.3512	0.21523	0.35134	0.25691	0.28517	0.36721	0.39516	0.17282	0.16274	0.072309	0.13729	0.26962	0.12251	0.2969	0.036002	0.11951	-2.5812	-2.9479	-2.7062	-3.2625	-2.8875	-2.7687	-3.3312	-2.8167	-2.925	-3.0792	-2.7667	-3.0542	-3.2208	-2.7521	-3.1188	-2.8333	379.974	278.723	353.999	456.944	434.226	260.408	469.149	287.534	345.021	512.013	359.444	462.459	335.770	399.245	162.731	333.251	0.00029609	0.0005999	4.5798e-05	1381	3.3607e-06	9.2256e-06	1396.3	269.06	3.3089e-06	2.9592e-06	342.38	91.969	73.423	21.054	4.8196e-06	28.878	0.00033442	0.00033762	9.3798e-05	1312.9	3.689e-06	3.6687e-06	1333.4	261.83	3.6458e-06	3.6559e-06	324.31	91.234	74.043	21.754	3.6796e-06	29.669	210.304	240.774	330.249	172.701	225.509	285.238	172.880	179.336	338.730	300.088	179.247	185.929	185.982	193.483	380.560	192.965	-8191	255	
2352.240	1	1	0	0	0.10599	0.14499	0.094332	0.11884	0.30933	0.11232	0.32417	0.22121	0.23464	0.05945	0.27664	0.191	0.11916	0.10239	0.24773	0.10919	-2.5771	-2.9188	-2.8458	-3.1958	-2.9979	-3.0146	-3.1833	-2.9958	-2.7896	-3.0854	-2.8958	-3.0187	-3.0563	-2.8333	-3.1104	-2.8771	366.677	301.875	440.037	270.483	201.316	200.665	435.259	512.323	431.635	256.984	165.054	490.837	162.468	163.932	257.490	483.396	0.00022111	0.0001784	0.00015758	1381.1	1.1275e-06	3.513e-06	1391	270.12	4.606e-06	4.4876e-06	344.17	92.632	74.305	21.083	2.5504e-06	28.937	0.00033916	0.00033883	9.4555e-05	1314.3	3.7388e-06	3.7471e-06	1335.8	262.99	3.7262e-06	3.7254e-06	325.91	91.927	74.351	21.867	3.6824e-06	29.669	219.555	391.656	326.528	172.783	468.235	405.629	172.801	179.584	244.665	356.047	179.169	185.713	186.078	193.133	404.864	192.882	-8191	255	
2352.336	1	1	0	0	0.20616	0.12119	0.27412	0.35129	0.098902	0.074703	0.080017	0.24539	0.18311	0.19821	0.25222	0.10306	0.22512	0.26153	0.18586	0.22002	-2.2354	-3.1208	-2.8354	-3.0792	-3.1188	-2.6667	-3.3063	-3	-2.8312	-3.1896	-2.875	-3.1625	-2.9354	-2.8479	-3.125	-2.8854	277.498	312.209	435.491	500.156	449.009	327.076	227.366	506.538	332.562	205.933	183.228	201.596	214.579	320.138	409.556	482.998	0.00020887	0.00065953	8.8639e-05	1385.2	4.5902e-06	3.4527e-06	1397.8	268.94	6.4396e-07	9.1784e-07	341.83	92.383	73.958	20.981	1.1822e-05	28.801	0.00033429	0.00033726	9.3869e-05	1316.1	3.7126e-06	3.7057e-06	1337.7	262.81	3.7195e-06	3.7219e-06	325.91	91.924	74.374	21.821	3.7161e-06	29.684	240.633	271.373	411.241	172.838	218.286	289.917	172.852	179.492	412.439	257.671	179.430	185.877	186.193	193.008	290.944	192.536	-8191	255	
2352.455	1	1	0	0	0.32962	0.06833	0.28986	0.23081	0.14768	0.065445	0.33023	0.15	0.13993	0.12533	0.15375	0.23424	0.30564	0.049952	0.03093	0.22595	-2.3187	-2.9	-2.8458	-2.9083	-3.0979	-2.6167	-3.0062	-3.075	-2.8396	-3.0396	-2.7604	-2.8375	-3.1917	-2.7812	-3.0521	-3.0958	449.549	190.048	216.001	168.337	388.342	299.105	477.602	252.078	309.972	468.035	312.874	278.930	408.605	185.133	202.408	345.650	0.00026463	0.00041722	0.00032367	1388	3.5253e-06	9.2131e-06	1399.9	269.88	1.4491e-06	4.0904e-06	343.73	92.214	73.262	21.073	3.0836e-06	28.629	0.00033831	0.00033539	9.4237e-05	1317.3	3.6629e-06	3.6746e-06	1338.2	263.12	3.664e-06	3.6563e-06	325.26	91.538	73.943	21.825	3.6506e-06	29.604	203.457	263.719	278.240	172.690	333.957	281.359	172.635	179.928	418.882	516.894	179.604	186.335	186.176	193.099	248.976	192.995	-8191	255	
2352.551	1	1	0	0	0.18805	0.23226	0.17322	0.32362	0.031205	0.28784	0.2469	0.17685	0.072782	0.09067	0.33984	0.083804	0.18996	0.23002	0.076982	0.12718	-2.4188	-3.025	-2.9917	-2.9708	-3.2771	-2.8125	-3.0438	-3.1896	-2.7667	-3.2708	-2.8187	-2.9375	-3.1958	-2.8063	-2.8354	-3.1167	512.540	383.357	453.690	483.852	401.144	169.846	504.539	403.586	339.796	355.471	443.584	476.737	439.443	487.739	494.857	482.701	0.00020068	0.00017868	0.00013677	1387.3	3.9706e-06	5.7951e-06	1401.4	269.99	5.801e-07	6.4759e-06	342.04	92.378	73.54	21.041	7.6226e-06	28.887	0.00033328	0.00033279	9.3082e-05	1315.8	3.6772e-06	3.6691e-06	1336.1	262.82	3.6926e-06	3.691e-06	325.58	91.81	74.192	21.854	3.7342e-06	29.692	225.503	181.270	345.443	172.784	293.096	274.217	172.749	179.417	306.550	214.485	179.427	185.541	186.306	193.151	399.383	192.342	-8191	255	
2352.648	1	1	0	0	0.17707	0.30023	0.17683	0.064863	0.12061	0.28896	0.14634	0.29022	0.071272	0.099233	0.38863	0.11528	0.39306	0.070403	0.22779	0.12986	-2.4229	-3.0417	-2.8583	-2.9292	-3.1667	-2.7375	-3.2292	-3.2438	-2.8625	-3.0062	-2.8688	-2.8417	-3.2062	-2.7729	-2.9167	-3.0354	193.907	422.013	345.937	483.901	461.079	396.973	475.054	462.221	320.706	203.868	496.364	191.259	496.726	347.258	161.815	459.863	0.00034347	0.00061521	2.5872e-05	1385.7	5.5912e-06	2.998e-06	1400.8	270.23	3.0354e-06	7.7516e-06	344.44	92.792	73.828	21.157	3.6064e-06	28.757	0.00034005	0.00034089	9.5388e-05	1318.3	3.7531e-06	3.7491e-06	1339.4	263.03	3.7105e-06	3.7053e-06	325.35	91.846	74.343	21.875	3.6601e-06	29.628	228.690	170.432	367.616	172.643	492.392	329.735	172.940	179.419	325.861	282.342	179.209	185.623	186.432	192.982	333.690	192.431	-8191	255	
2352.768	1	1	0	0	0.038982	0.19285	0.065923	0.067202	0.21867	0.27611	0.4038	0.19194	0.15188	0.067129	0.18625	0.24767	0.21338	0.24845	0.27874	0.090498	-2.3146	-2.8438	-2.9833	-2.9104	-3.0354	-2.8	-2.9792	-3.2729	-2.725	-2.975	-3.0125	-2.7042	-3.0458	-2.9375	-2.9792	-3.0875	377.427	419.756	253.398	402.310	325.472	326.829	477.818	500.027	471.914	202.922	454.562	519.634	220.647	217.850	245.365	430.283	0.00030416	0.00040155	0.00016449	1387.8	1.4035e-06	1.9264e-06	1401.1	269.34	3.1903e-06	2.6185e-06	343.75	92.207	74.271	20.941	5.6741e-06	28.808	0.00033777	0.0003405	9.3813e-05	1319.5	3.7349e-06	3.7281e-06	1340.2	263.63	3.7042e-06	3.7306e-06	326.56	91.84	74.436	21.878	3.7092e-06	29.702	206.795	277.296	236.833	172.734	253.184	272.968	172.739	179.769	468.924	284.870	179.319	185.695	186.261	192.930	289.506	192.859	-8191	255	
2352.840	1	1	0	0	0.12718	0.20207	0.076506	0.24136	0.11534	0.087396	0.1838	0.18637	0.18935	0.087246	0.037859	0.021682	0.083869	0.13091	0.11531	0.21446	-2.2542	-2.8792	-3.0896	-2.8312	-3.0958	-2.9813	-3.0146	-3.1875	-2.8458	-2.9146	-3.1042	-2.5854	-3.1188	-2.7958	-2.7979	-3.1792	449.446	288.154	404.827	418.598	375.083	192.483	467.877	497.206	435.619	187.658	276.911	187.114	348.643	171.493	241.847	430.151	0.00031143	0.00014252	9.617e-05	1384.6	4.2776e-06	2.0875e-06	1401.6	269.28	2.4652e-06	3.9291e-06	344.25	93.074	73.466	21.179	3.4207e-06	28.92	0.00033565	0.00033909	9.3364e-05	1318.2	3.7144e-06	3.6961e-06	1339.9	262.89	3.6705e-06	3.6941e-06	326.25	92.155	74.038	21.901	3.6912e-06	29.651	225.114	376.647	167.919	172.791	167.948	340.117	172.867	179.468	300.594	370.820	179.223	186.032	186.136	193.407	267.956	193.478	-8191	255	
2352.936	1	1	0	0	0.31087	0.027659	0.19566	0.37142	0.18812	0.084985	0.2602	0.32431	0.18196	0.10855	0.20525	0.36148	0.094493	0.098941	0.10947	0.20484	-2.2604	-2.8167	-2.975	-2.8688	-3.025	-2.9833	-2.9437	-3.1188	-2.8063	-2.8729	-3.0979	-2.7562	-2.95	-2.9396	-2.7542	-3.1312	479.929	308.626	478.583	493.038	413.134	294.702	326.035	404.658	221.982	399.976	380.177	258.109	170.825	416.621	454.267	504.479	0.00013106	0.00018766	0.00013785	1390.4	3.492e-06	1.0184e-05	1401.8	268.78	2.222e-06	3.3139e-06	346.8	92.966	73.795	21.142	1.4677e-06	28.841	0.00033402	0.00033532	9.2955e-05	1320.1	3.6767e-06	3.651e-06	1340.5	263.38	3.6618e-06	3.6683e-06	326.39	91.966	74.277	21.881	3.6582e-06	29.665	219.709	356.540	176.086	172.956	265.363	287.113	172.746	179.657	415.821	296.845	179.618	186.042	185.765	193.384	521.328	192.917	-8191	255	
2353.057	1	1	0	0	0.18206	0.22513	0.11518	0.15612	0.056844	0.1258	0.20694	0.084308	0.20487	0.10666	0.17395	0.18497	0.14691	0.11235	0.14352	0.14077	-2.2229	-2.8396	-3.05	-2.8542	-3.1854	-2.9875	-2.9229	-3.1292	-2.8875	-2.6979	-3.0625	-2.8896	-2.9667	-3.0083	-2.8229	-3.2146	193.954	277.844	431.203	490.145	259.187	220.940	518.038	287.289	389.681	238.464	363.941	269.067	350.081	393.534	283.501	484.325	0.00030365	0.0007838	0.00020067	1388.1	2.1383e-06	2.1191e-06	1404.3	269.58	4.9048e-06	3.801e-06	345.47	92.762	73.814	21.054	6.4571e-06	29.199	0.0003344	0.00033347	9.3362e-05	1318.8	3.6508e-06	3.6521e-06	1340.7	263.21	3.6041e-06	3.6172e-06	324.97	91.614	74.058	21.812	3.6392e-06	29.712	213.110	180.120	201.808	172.697	242.776	290.534	172.818	179.553	171.655	253.688	179.341	186.012	185.957	193.270	341.668	192.731	-8191	255	
2353.153	1	1	0	0	0.20071	0.025677	0.1956	0.12148	0.11915	0.097373	0.23719	0.10939	0.33347	0.21037	0.23304	0.075886	0.24547	0.10792	0.16721	0.14515	-2.4104	-2.7146	-3.2104	-2.9313	-3.0458	-3.3187	-2.9625	-3.1125	-2.8688	-2.8312	-3.1208	-2.9708	-2.9313	-3.1813	-2.8167	-3.0792	482.018	201.660	269.987	387.123	502.049	465.848	481.122	224.195	253.687	380.690	462.938	308.985	435.242	497.794	333.659	215.836	0.00021732	0.00033965	5.3771e-05	1390.5	7.9995e-06	5.6636e-06	1403.8	271.62	3.486e-06	1.9905e-06	342.26	92.093	74.156	21.193	3.4941e-06	28.86	0.00033092	0.0003325	9.2692e-05	1318.3	3.6521e-06	3.6475e-06	1338.3	263.37	3.6047e-06	3.5874e-06	323.87	91.698	74.209	21.821	3.6172e-06	29.607	240.153	445.061	236.278	172.648	280.970	431.529	172.585	179.775	268.823	256.550	179.752	185.898	185.944	193.610	261.729	192.919	-8191	255	
2353.249	1	1	0	0	0.071919	0.28058	0.19005	0.22797	0.19953	0.1566	0.14395	0.069712	0.26824	0.24371	0.058641	0.05893	0.37201	0.1367	0.13756	0.18446	-2.6042	-2.6667	-3.1875	-3.1583	-3.0687	-3.0812	-2.7833	-3.2417	-2.9188	-2.8167	-3.0271	-2.7646	-2.7875	-3.0563	-2.9021	-3.0792	241.233	453.277	484.264	385.080	203.712	281.629	515.336	518.772	169.154	243.172	327.823	450.175	472.612	320.277	446.326	468.126	0.00024281	0.00052341	0.00021998	1381.1	5.7554e-07	5.3591e-06	1403.5	270.04	1.453e-06	7.3174e-06	344.14	92.125	73.988	21.115	5.7394e-06	28.942	0.00032947	0.00033228	9.2526e-05	1316.9	3.6509e-06	3.6589e-06	1339.1	262.95	3.6727e-06	3.6568e-06	326.35	91.87	74.455	21.85	3.6793e-06	29.749	220.966	258.276	518.323	172.727	196.399	402.469	172.773	179.708	507.670	285.460	179.342	185.895	185.897	192.956	277.591	192.920	-8191	255	
2353.343	1	1	0	0	0.12235	0.075355	0.16743	0.033876	0.026574	0.28405	0.14997	0.15967	0.026723	0.096953	0.074776	0.0322	0.081846	0.265	0.18551	0.16186	-2.5333	-2.6688	-2.95	-3.1	-2.95	-3.2104	-3.0062	-3.0667	-2.9229	-2.7354	-3.0479	-3	-2.9646	-3.0812	-2.9917	-3.0917	272.973	443.438	500.884	371.720	444.300	387.198	439.454	169.258	360.720	448.928	520.753	456.115	234.106	480.999	397.517	183.075	0.00017075	8.1277e-05	0.00017517	1387.6	1.9467e-06	2.4187e-06	1405	270.28	8.9765e-06	1.9575e-06	344.4	93.267	73.752	21.221	1.4515e-06	28.914	0.0003372	0.00033714	9.3973e-05	1319.2	3.7052e-06	3.662e-06	1340.3	263.31	3.6656e-06	3.6414e-06	325.96	92.139	74.405	21.93	3.6748e-06	29.68	208.807	443.313	215.619	172.816	460.089	417.711	172.740	179.650	289.593	513.642	179.199	185.950	186.153	193.216	475.233	192.628	-8191	255	
2353.440	1	1	0	0	0.096626	0.12519	0.14221	0.27793	0.16746	0.12033	0.17805	0.31187	0.062247	0.19889	0.13809	0.18688	0.15326	0.28	0.086239	0.20599	-2.7083	-2.8104	-3.0583	-3.1104	-2.9479	-3.0458	-3.0062	-2.9167	-3.1833	-2.9521	-3.2687	-3.1125	-2.825	-3.2875	-3.0479	-2.9375	442.948	197.712	408.313	477.681	336.380	221.785	400.393	485.998	512.342	200.960	411.452	512.050	506.310	499.551	180.152	179.995	0.00018221	0.00058542	0.00018292	1394.7	5.7412e-07	6.1853e-06	1405.6	269.52	3.4223e-06	8.3162e-07	343.34	92.353	73.425	21.027	3.5091e-06	28.884	0.00033233	0.00033295	9.2744e-05	1321.9	3.6539e-06	3.6478e-06	1342.3	263.4	3.6791e-06	3.664e-06	325.98	92.108	74.31	21.919	3.7472e-06	29.831	225.639	295.750	285.441	172.793	184.065	332.857	172.708	179.769	262.994	396.169	179.504	185.618	186.415	193.391	325.525	193.157	-8191	255	
2353.536	1	1	0	0	0.1596	0.22309	0.30713	0.36869	0.097466	0.25557	0.20076	0.29813	0.064614	0.1948	0.21441	0.081166	0.15073	0.3929	0.15744	0.16577	-2.7833	-2.8583	-3.0417	-3.2542	-2.9125	-3.0125	-3.0417	-3.0646	-3.3104	-2.85	-3.1833	-3.1625	-2.7792	-3.0146	-2.9333	-2.95	321.118	410.943	453.452	434.134	295.397	207.660	451.606	491.084	254.054	457.118	410.862	464.539	192.725	508.601	200.825	351.460	0.00042933	3.1761e-05	0.00021928	1388.3	2.7377e-06	5.157e-06	1404.3	269.62	5.67e-06	1.0621e-06	343.2	93.169	74.257	21.088	4.0118e-06	28.991	0.00034064	0.00034103	9.4767e-05	1318.8	3.7096e-06	3.7e-06	1342.4	263.51	3.6871e-06	3.6574e-06	325.62	92.008	74.297	21.853	3.665e-06	29.715	242.704	434.142	197.151	172.796	328.499	283.384	172.759	179.702	340.420	315.401	179.527	185.916	185.689	193.487	302.154	192.969	-8191	255	
2353.632	1	1	0	0	0.15423	0.26455	0.085712	0.18873	0.25224	0.1531	0.21098	0.2772	0.21767	0.22366	0.093059	0.24351	0.087087	0.015862	0.20327	0.24182	-2.7396	-2.8354	-2.9625	-3.3417	-2.6104	-3.175	-3.2354	-2.8208	-3.1458	-2.8292	-2.9396	-3.0417	-2.875	-3.0833	-2.8625	-2.7896	502.092	432.091	384.735	490.440	504.097	304.463	441.551	428.595	264.881	364.468	519.596	442.635	198.495	188.760	363.838	492.634	0.00027009	0.00027632	0.00017619	1389.3	4.0843e-06	5.4357e-06	1400.3	270.03	1.491e-06	5.7766e-06	348.04	92.936	73.302	21.111	4.2714e-06	29.174	0.00033295	0.00033317	9.2436e-05	1320	3.6457e-06	3.6709e-06	1337.7	263.46	3.6564e-06	3.6554e-06	326.55	91.964	74.151	21.817	3.6544e-06	29.78	202.493	299.436	420.384	172.672	233.500	483.221	172.776	179.757	236.437	253.025	179.792	185.831	186.031	193.079	237.818	192.734	-8191	255	
2353.728	1	1	0	0	0.23562	0.22505	0.11933	0.16584	0.072015	0.055584	0.33752	0.20102	0.077155	0.2873	0.074299	0.2675	0.046117	0.12794	0.16198	0.16668	-2.775	-2.6208	-2.9917	-3.35	-2.7625	-2.9521	-2.9667	-2.9854	-3.0708	-2.9292	-2.9479	-3.025	-2.7313	-3.1167	-2.9729	-2.7687	427.212	329.210	185.404	473.422	515.868	444.520	447.088	503.082	311.717	506.496	498.476	185.476	450.433	470.269	348.450	459.777	0.00027162	0.00013278	0.00013924	1386.3	3.6054e-06	5.3934e-06	1396.7	269.54	4.7341e-06	1.4148e-06	344.42	92.549	74.307	21.341	3.535e-06	28.785	0.00033349	0.00033674	9.3718e-05	1319.1	3.7168e-06	3.7244e-06	1340.1	263.61	3.7405e-06	3.7221e-06	327.14	92.155	74.521	21.944	3.6741e-06	29.662	256.466	269.277	345.967	172.903	264.029	350.141	172.736	179.750	318.782	327.187	179.327	185.803	186.488	193.164	512.554	192.866	-8191	255	
2353.849	1	1	0	0	0.067494	0.32775	0.24169	0.29039	0.17511	0.12543	0.19378	0.11974	0.13865	0.1998	0.059805	0.20626	0.19824	0.14494	0.20291	0.12128	-2.6292	-2.8229	-2.8167	-3.2208	-2.7542	-2.8625	-3.2354	-2.8583	-3.0458	-2.8729	-2.8604	-3.3896	-2.8375	-2.75	-3.1729	-2.8708	220.008	282.402	401.530	458.199	404.923	217.110	181.855	473.707	407.253	459.413	242.365	422.352	520.866	398.057	289.777	260.036	0.00024558	0.00024275	5.8765e-05	1384.8	2.738e-06	7.5207e-06	1401.3	269.63	4.605e-06	4.0363e-06	345.43	92.685	73.98	21.237	1.4929e-06	28.842	0.00033692	0.00033465	9.2911e-05	1318.3	3.6693e-06	3.6722e-06	1341.1	263.35	3.6343e-06	3.6226e-06	325.18	91.914	74.392	21.866	3.6571e-06	29.654	208.496	519.079	244.404	172.864	210.199	293.879	172.783	179.433	292.895	397.983	179.199	185.778	186.131	193.236	245.434	192.617	-8191	255	
2353.945	1	1	0	0	0.18811	0.097771	0.21798	0.14772	0.21555	0.25788	0.20408	0.19614	0.033598	0.17048	0.28141	0.10439	0.35104	0.10474	0.19633	0.16003	-2.6083	-2.8104	-2.8208	-3.0875	-2.9667	-2.8729	-3.2562	-2.8271	-2.9292	-2.9979	-2.6396	-3.15	-2.8375	-2.8208	-3.0396	-2.7417	355.155	182.486	197.466	511.914	487.007	254.114	473.227	365.279	404.785	341.235	179.834	314.288	471.305	434.576	225.144	446.848	0.00037363	0.00026105	5.4342e-05	1390.1	1.6644e-06	5.4769e-06	1398.4	271.34	3.4837e-06	1.6955e-06	345.46	92.849	73.85	21.193	2.5467e-06	29.07	0.00033291	0.00033561	9.4397e-05	1322.7	3.7047e-06	3.7114e-06	1341.2	264.08	3.6893e-06	3.7097e-06	326.92	92.316	74.336	21.938	3.6841e-06	29.741	216.339	441.461	277.245	172.927	359.881	288.022	172.608	179.683	270.729	508.781	179.110	185.892	185.888	193.069	178.524	192.877	-8191	255	
2354.041	1	1	0	0	0.072637	0.081104	0.16649	0.28275	0.042403	0.25876	0.21411	0.30299	0.14693	0.068487	0.097081	0.113	0.24819	0.061454	0.11176	0.094054	-2.5375	-2.8896	-2.8	-3.4	-2.8958	-2.85	-3.2083	-2.8917	-2.9208	-3.0479	-2.9083	-3.2875	-2.9521	-2.9833	-3.0083	-2.9313	285.864	368.638	189.356	493.209	335.262	467.566	175.894	486.449	292.126	491.722	214.235	455.364	186.240	274.751	342.799	476.138	0.00025841	0.00067705	8.7363e-05	1390.7	1.3699e-06	5.8015e-06	1398	271.27	4.3544e-06	2.1118e-06	342.72	92.75	74.763	20.978	5.9358e-06	29.086	0.0003355	0.00033665	9.2565e-05	1321.5	3.6742e-06	3.66e-06	1337.9	263.57	3.6567e-06	3.6471e-06	325.94	91.936	74.393	21.847	3.6688e-06	29.755	223.940	202.224	243.128	172.530	395.122	322.218	172.669	179.879	218.839	320.735	179.774	185.857	185.875	193.136	223.189	192.870	-8191	255	
2354.137	1	1	0	0	0.15295	0.096712	0.27845	0.14205	0.23789	0.26027	0.20934	0.30913	0.06839	0.26887	0.28262	0.23269	0.16632	0.16215	0.1729	0.1519	-2.5	-3.0375	-2.6688	-3.2542	-3.0292	-2.7771	-3.3312	-2.9729	-2.8438	-3.1583	-2.7958	-3.2438	-2.9688	-2.75	-3.075	-2.7375	368.479	318.066	425.741	417.745	371.117	180.143	394.223	415.715	376.852	253.112	481.034	170.191	480.143	497.419	479.359	438.648	0.00032394	0.00030849	5.0631e-05	1385	4.3311e-06	5.3788e-06	1405.2	270.12	4.3487e-06	3.6541e-06	346.76	92.532	73.463	21.298	1.8815e-06	28.997	0.00033707	0.00034009	9.4334e-05	1321.2	3.7214e-06	3.7234e-06	1342	263.49	3.7149e-06	3.7363e-06	327.12	92.15	74.588	21.997	3.7602e-06	29.816	211.204	444.368	312.014	172.651	382.872	302.885	172.692	179.497	186.656	290.254	179.589	185.622	185.892	192.759	166.349	192.704	-8191	255	
2354.233	1	1	0	0	0.14937	0.17858	0.049229	0.46173	0.11635	0.13915	0.5429	0.089099	0.10231	0.10045	0.20359	0.15959	0.072793	0.28004	0.0047601	0.28479	-2.4021	-2.9167	-2.7521	-3.0833	-3.1042	-2.8521	-3.3812	-3.0312	-2.925	-3.1688	-2.7812	-3.0958	-3.075	-2.7	-3.1396	-2.9042	272.067	472.742	369.101	474.965	275.541	363.104	433.508	337.254	327.788	273.824	493.826	277.138	361.350	506.151	240.277	165.089	0.00023574	0.00036233	5.7967e-05	1387.5	6.2507e-06	7.3354e-06	1402.9	271.64	2.7633e-06	4.9155e-06	345.11	92.639	73.948	21.128	2.77e-06	29.144	0.00034216	0.00034207	9.4759e-05	1321.4	3.737e-06	3.7241e-06	1343.1	264.14	3.7134e-06	3.7253e-06	328.13	92.174	74.362	21.962	3.6755e-06	29.772	217.992	278.016	484.655	172.809	187.111	384.536	172.670	179.605	276.689	398.045	179.443	185.700	186.001	193.350	423.305	192.416	-8191	255	
2354.329	1	1	0	0	0.16643	0.24642	0.061889	0.24252	0.38736	0.14885	0.2892	0.2222	0.24142	0.097672	0.17463	0.1072	0.035849	0.41534	0.28094	0.13875	-2.4083	-3.0979	-2.8438	-2.9521	-2.9021	-2.85	-3.25	-3.1708	-2.6937	-3.0646	-2.7354	-3.125	-3.1937	-2.8167	-3.025	-2.9729	332.706	404.235	274.442	455.563	355.548	299.623	453.883	224.768	494.361	320.510	213.622	511.697	324.459	458.638	173.119	379.622	0.00035574	0.0005558	3.593e-05	1386.7	3.4786e-06	1.2886e-06	1402	271.07	1.8506e-06	9.4663e-06	346.46	93.151	74.342	21.201	4.0847e-06	28.948	0.00033725	0.00033617	9.3827e-05	1320.1	3.7016e-06	3.6929e-06	1342	263.76	3.7239e-06	3.7051e-06	326.84	92.361	74.648	21.955	3.725e-06	29.78	228.871	481.910	303.301	172.721	282.026	397.742	172.591	179.316	400.835	427.778	179.106	185.600	185.794	193.089	299.924	192.511	-8191	255	
2354.448	1	1	0	0	0.13719	0.11741	0.15429	0.07648	0.1843	0.012938	0.14391	0.42452	0.1514	0.050286	0.31829	0.26801	0.29616	0.05761	0.1079	0.15564	-2.3	-3.1854	-2.7833	-3.0917	-3.15	-2.8604	-3.3021	-3.0938	-2.7396	-3.0667	-2.8479	-2.9354	-3.2188	-2.95	-3.0042	-3.0687	220.588	297.502	454.185	184.770	449.983	257.177	493.254	404.091	385.327	388.995	496.075	291.254	492.951	427.581	352.052	411.662	0.00025925	0.00031881	0.00015648	1391	4.1867e-06	7.3748e-06	1399.7	270.75	1.4922e-06	5.7885e-06	345.09	92.716	73.964	21.122	3.4382e-06	28.747	0.00033721	0.00034008	9.4786e-05	1322.9	3.712e-06	3.7176e-06	1341.1	263.86	3.6505e-06	3.6613e-06	326.13	91.965	74.333	21.869	3.6508e-06	29.703	202.133	207.990	346.436	172.737	426.093	379.723	172.857	179.577	426.989	214.455	179.387	186.112	186.608	193.057	296.487	192.727	-8191	255	
2354.544	1	1	0	0	0.1217	0.12894	0.036657	0.20376	0.12729	0.16808	0.13738	0.20562	0.07541	0.34187	0.1561	0.083893	0.086295	0.2088	0.18742	0.2689	-2.4458	-3.0208	-2.7562	-3.0958	-3.2833	-2.8229	-3.1458	-2.9437	-2.6813	-2.9688	-2.8812	-2.7771	-3.1167	-2.6792	-2.9229	-3.1021	474.237	364.899	298.108	468.177	257.927	451.981	405.853	455.247	172.645	384.040	359.152	354.408	226.337	162.862	362.045	437.609	0.00018374	0.0001363	9.97e-06	1385	6.9111e-06	3.555e-06	1397.7	270.9	2.8002e-06	5.1609e-06	346.9	92.542	74.596	21.153	3.8614e-06	28.923	0.00033478	0.00033761	9.4643e-05	1320.6	3.7159e-06	3.7183e-06	1341.3	264.1	3.709e-06	3.7169e-06	327.72	92.316	74.65	21.974	3.7274e-06	29.803	225.948	223.395	515.976	172.823	322.052	468.156	172.690	179.733	237.530	384.059	179.526	186.199	185.727	193.355	178.159	192.841	-8191	255	
2354.641	1	1	0	0	0.13324	0.10269	0.21749	0.22588	0.1489	0.051505	0.069156	0.31381	0.10317	0.23136	0.031532	0.18937	0.14381	0.1804	0.041832	0.18041	-2.475	-3.1083	-2.8312	-3.0604	-3.125	-2.9479	-3.0687	-3.05	-2.7708	-2.9417	-3.0917	-2.9583	-3.0958	-2.8979	-2.7917	-2.925	310.519	237.526	254.719	479.346	389.509	357.680	401.783	456.869	327.499	338.785	198.980	166.528	205.128	346.643	314.153	476.536	0.00028313	0.00021418	0.00015926	1391.5	3.534e-06	7.0856e-06	1399.9	270.09	1.7119e-06	5.2417e-06	348.56	92.714	74.215	21.333	1.3534e-06	28.999	0.00033666	0.00033966	9.4182e-05	1321.6	3.7102e-06	3.7158e-06	1342.8	264.1	3.7085e-06	3.711e-06	327.42	92.167	74.637	21.939	3.7274e-06	29.707	213.140	330.857	450.611	172.985	312.916	194.747	172.889	179.623	203.038	259.537	179.197	185.679	186.156	193.254	495.106	192.700	-8191	255	
2354.737	1	1	0	0	0.060653	0.18878	0.12996	0.12315	0.26558	0.091332	0.053629	0.18741	0.13357	0.09815	0.027454	0.2854	0.19066	0.15755	0.13661	0.029929	-2.1479	-3.1771	-2.7604	-2.8875	-3.0938	-3.0396	-3.0771	-3.2042	-2.8729	-2.9604	-3.0542	-2.8167	-3.2188	-2.9437	-2.7208	-3.0646	473.654	275.695	417.026	450.905	347.876	385.925	396.210	512.342	388.901	278.342	420.931	400.006	374.716	463.760	347.503	223.154	0.000228	0.00078747	0.00011782	1385.5	3.6112e-06	3.5719e-06	1398.4	270.06	2.4007e-06	2.4387e-06	343.78	92.157	74.277	21.148	4.9519e-06	28.999	0.00033726	0.00033555	9.2701e-05	1318.9	3.6285e-06	3.6268e-06	1337.1	263.07	3.6129e-06	3.5905e-06	325.04	91.553	74.241	21.853	3.6062e-06	29.561	224.895	191.664	448.224	172.554	189.750	271.766	172.683	179.536	303.488	213.847	179.718	185.594	186.253	192.803	255.658	192.424	-8191	255	
2354.833	1	1	0	0	0.1841	0.056512	0.10308	0.15369	0.043211	0.18333	0.18999	0.176	0.24723	0.11655	0.14842	0.072686	0.13773	0.20168	0.12727	0.22763	-2.3396	-3.0458	-2.7458	-2.7687	-3.1875	-3.1	-2.925	-3.1896	-2.8646	-3.0312	-2.9938	-2.8646	-3.1771	-3.0104	-2.6833	-3.3063	464.273	275.211	431.149	489.389	319.263	213.783	495.533	181.127	177.938	173.091	433.608	287.870	494.457	509.575	506.033	471.542	0.00034487	0.00055162	9.8428e-05	1378.4	3.7973e-06	1.3668e-06	1389.7	268.62	1.5589e-06	5.5887e-06	342.17	91.726	73.292	20.936	6.5015e-07	28.69	0.00032803	0.00032955	9.1252e-05	1310.3	3.5302e-06	3.527e-06	1326.1	260.86	3.5234e-06	3.5475e-06	321.9	90.772	73.09	21.537	3.4816e-06	29.232	228.763	208.091	202.853	172.842	255.847	471.320	172.874	179.690	167.126	340.125	179.239	186.111	186.522	193.446	183.602	192.970	-8191	255	
2354.929	1	1	0	0	0.035476	0.2081	0.25883	0.19541	0.26698	0.13621	0.072061	0.068004	0.084032	0.15981	0.21945	0.10452	0.15868	0.16106	0.058753	0.14347	-2.4562	-2.7562	-3.0708	-2.8958	-2.9833	-2.8875	-2.8229	-3.0958	-2.7833	-2.9688	-3.1375	-2.825	-3.1021	-2.9792	-2.9792	-3.0646	490.484	433.194	374.321	495.082	270.351	176.343	465.713	388.157	447.316	307.451	442.258	291.734	443.060	300.168	377.151	164.375	0.00032511	0.0003736	0.00012075	1365.6	1.7219e-06	1.6477e-06	1379.4	267.78	4.9449e-06	2.3701e-06	340.86	91.675	73.145	20.902	2.6959e-06	28.628	0.0003128	0.00031256	8.5614e-05	1295.5	3.3562e-06	3.3133e-06	1316.9	258.36	3.3232e-06	3.3195e-06	319.11	90.095	72.477	21.42	3.3991e-06	29.13	227.200	208.010	195.366	172.807	251.563	311.637	173.054	179.798	515.945	206.110	179.102	185.403	186.427	193.140	276.433	192.970	-8191	255	
2355.025	1	1	0	0	0.23954	0.19128	0.1604	0.20651	0.10111	0.092969	0.10241	0.10577	0.28494	0.29207	0.080169	0.12523	0.12796	0.090454	0.11715	0.12756	-2.6583	-2.9437	-3.2021	-2.7521	-2.8896	-2.9604	-3.0708	-3.1708	-2.9042	-2.9188	-3.0458	-2.7812	-2.8167	-3.0667	-2.7875	-3.2417	345.639	493.367	493.412	512.315	359.350	171.546	520.056	206.256	357.818	379.291	469.599	384.836	317.882	405.307	246.255	509.679	0.00026171	9.1522e-05	6.896e-05	1370.7	4.6886e-06	2.0729e-06	1388.1	266.24	3.1905e-06	2.9112e-06	340.03	91.862	72.866	20.852	3.0662e-06	28.859	0.0003105	0.00031169	8.6005e-05	1299.3	3.3798e-06	3.3987e-06	1321.3	258.9	3.3791e-06	3.3929e-06	319.3	90.352	72.377	21.368	3.3423e-06	28.996	226.543	250.840	452.156	172.709	331.596	219.483	172.715	179.787	276.929	346.933	179.208	185.732	186.723	193.250	266.143	192.440	-8191	255	
2355.146	1	1	0	0	0.13244	0.062764	0.14169	0.34121	0.11594	0.26658	0.14996	0.17772	0.098581	0.32782	0.17557	0.10102	0.13264	0.10949	0.1463	0.054727	-2.5229	-2.7	-3.075	-2.975	-2.9229	-3.0667	-3.0229	-3.1854	-2.9771	-2.8271	-3.1625	-2.9792	-3.1437	-3.0771	-2.8312	-3.1771	351.816	162.415	448.743	517.252	305.012	382.343	462.834	488.432	275.630	442.156	178.991	362.089	377.468	421.241	249.182	433.468	0.0003587	0.00041254	0.00016157	1375.1	3.2167e-06	4.1524e-07	1386	267.62	3.07e-06	3.9898e-06	342.77	91.608	74.156	20.829	1.8877e-06	28.722	0.00030401	0.00030639	8.4153e-05	1296.9	3.3604e-06	3.3575e-06	1321.4	258.56	3.3842e-06	3.3525e-06	319.2	90.267	72.569	21.377	3.3282e-06	29.036	211.660	260.135	360.642	172.777	196.494	370.424	172.656	179.446	339.325	341.818	179.068	185.815	186.457	193.386	291.279	193.189	-8191	255	
2355.240	1	1	0	0	0.12664	0.23976	0.25018	0.074899	0.28768	0.040641	0.20878	0.16423	0.2336	0.082366	0.10936	0.28323	0.17071	0.13206	0.047604	0.25589	-2.4917	-2.8979	-3	-2.9646	-2.9167	-3.0458	-3.0542	-3.0583	-3.025	-2.9479	-3.2146	-2.8604	-2.8896	-3.2021	-2.7354	-2.8875	324.259	417.452	264.015	503.856	198.977	375.776	437.897	476.919	341.299	230.670	326.549	457.102	187.990	460.561	318.542	403.362	0.00022776	4.3171e-05	7.9443e-05	1372.8	6.413e-06	5.952e-06	1383.1	266.82	2.7849e-06	1.4068e-06	342.33	92.272	73.856	20.993	5.8733e-06	28.713	0.00030622	0.00030764	8.5929e-05	1300	3.4157e-06	3.42e-06	1322.7	259.08	3.485e-06	3.4681e-06	321.1	90.914	73.21	21.594	3.4984e-06	29.293	244.396	328.980	356.883	172.816	194.082	313.500	172.673	179.765	206.068	219.870	179.331	185.798	185.642	193.008	298.367	192.612	-8191	255	
2355.314	1	1	0	0	0.30275	0.06132	0.025517	0.32497	0.16277	0.048789	0.38076	0.239	0.026504	0.22865	0.26146	0.14456	0.16474	0.13503	0.29822	0.093835	-2.5833	-2.6604	-2.9062	-2.9979	-2.9396	-2.9729	-2.9958	-3.0604	-3.1	-2.8771	-3.3167	-3.0458	-2.8167	-3.2313	-2.8229	-3.0708	470.995	350.885	251.947	481.285	464.955	520.319	502.417	410.988	366.525	467.042	205.360	362.811	425.852	422.041	494.952	171.068	0.00020827	0.00050416	7.7356e-05	1374.3	1.5426e-06	8.9749e-07	1387.3	268.82	7.3045e-06	3.0889e-06	343.04	92.386	73.583	21.046	3.2365e-06	28.656	0.0003193	0.00031857	8.9053e-05	1303.4	3.4984e-06	3.4873e-06	1325.3	259.85	3.4691e-06	3.4912e-06	321.8	90.887	73.23	21.543	3.4745e-06	29.183	228.012	258.857	377.383	172.881	274.413	502.190	172.676	179.833	278.454	398.841	179.558	185.766	186.731	193.517	289.768	192.807	-8191	255	
2355.410	1	1	0	0	0.10311	0.17982	0.11052	0.13222	0.14953	0.11738	0.28504	0.088484	0.081701	0.20572	0.059193	0.12635	0.11682	0.19466	0.18707	0.12111	-2.5229	-2.6937	-3.0667	-2.8604	-2.75	-3.2583	-3.1104	-3.0729	-3.1292	-2.5375	-3.2521	-3.1208	-2.7896	-3.2375	-2.875	-3.0771	321.560	223.110	394.119	419.052	400.585	199.290	424.909	359.201	440.676	505.225	468.256	244.895	276.292	302.153	170.955	176.425	0.00037032	5.7419e-05	0.00015224	1374	1.7389e-06	1.175e-06	1382.1	268.55	1.2004e-06	4.9062e-06	340.74	92.213	73.343	21.091	9.781e-07	28.72	0.00031441	0.00031547	8.8452e-05	1302	3.4779e-06	3.4709e-06	1324.2	259.94	3.4613e-06	3.4726e-06	320.83	90.763	73.006	21.559	3.4629e-06	29.17	205.472	461.462	310.590	172.956	441.661	464.833	172.922	179.730	441.657	255.523	179.545	186.094	186.348	193.357	510.440	193.024	-8191	255	
2355.529	1	1	0	0	0.10875	0.047331	0.24703	0.399	0.22354	0.076023	0.42068	0.18385	0.1598	0.1264	0.053511	0.077173	0.065844	0.24151	0.12129	0.16411	-2.6437	-2.8042	-3.0229	-3.0938	-2.9083	-3.0833	-2.8812	-2.9333	-2.9646	-2.6708	-2.9333	-2.9271	-2.9375	-3.1604	-2.9042	-2.9417	355.284	466.285	177.361	497.595	191.338	465.552	401.526	211.944	275.673	509.812	194.351	496.480	404.423	420.973	186.606	196.870	0.00030844	0.00013439	7.0113e-05	1373.9	1.7435e-06	4.2373e-06	1385.3	268.82	3.5375e-06	4.2263e-06	339.76	92.422	73.523	20.883	3.5043e-06	28.833	0.00031328	0.00031415	8.7629e-05	1301.3	3.4239e-06	3.4479e-06	1323.2	259.69	3.4506e-06	3.4505e-06	320.35	90.957	73.249	21.565	3.5218e-06	29.313	215.593	231.742	334.840	172.629	286.230	371.882	172.809	179.828	482.578	199.567	179.415	185.935	185.910	193.907	292.103	192.869	-8191	255	
2355.625	1	1	0	0	0.20841	0.11419	0.18719	0.23452	0.080648	0.15717	0.15297	0.06977	0.091339	0.16882	0.21444	0.27283	0.24787	0.10374	0.2368	0.099149	-2.7458	-2.7979	-3.0833	-3.3521	-2.6417	-3.2208	-3.1146	-2.9	-2.9104	-2.7938	-3.1625	-3.0854	-2.8729	-3.2646	-2.9875	-2.75	213.280	290.959	171.877	165.650	233.738	380.999	488.695	484.224	379.174	196.362	194.903	506.235	486.742	202.567	351.330	474.589	0.00030142	0.00024824	0.00019786	1371.7	3.0336e-06	1.0334e-05	1390.7	266.92	2.5162e-06	9.6151e-06	342.54	91.469	73.368	21.041	2.7184e-06	28.759	0.00032137	0.00032168	8.9622e-05	1303	3.519e-06	3.5203e-06	1326.7	259.99	3.4826e-06	3.4767e-06	320.37	90.834	72.885	21.542	3.447e-06	29.206	228.699	420.111	311.409	172.723	274.620	385.011	172.568	179.685	380.125	423.731	179.635	185.794	185.731	193.355	378.785	192.792	-8191	255	
2355.721	1	1	0	0	0.27112	0.024179	0.3228	0.32159	0.2006	0.092048	0.13478	0.098729	0.1907	0.27632	0.23873	0.18554	0.071396	0.071458	0.13571	0.1622	-2.7687	-2.725	-2.9875	-3.275	-2.6562	-3.1375	-3.1958	-2.8333	-3.1667	-2.925	-2.9792	-3.1958	-2.8208	-2.925	-2.8146	-2.7542	337.887	363.645	453.046	162.682	380.062	397.609	491.426	334.789	305.830	316.500	385.944	293.541	388.964	411.100	431.521	320.279	0.00025659	0.00014519	9.0115e-05	1373.4	8.9474e-07	3.8379e-06	1384.9	268.06	1.0223e-05	8.1276e-06	342.3	92.393	73.318	20.908	4.1695e-06	28.916	0.0003164	0.0003166	8.7394e-05	1303	3.4547e-06	3.4611e-06	1325.8	259.77	3.4628e-06	3.4025e-06	321.27	90.86	72.907	21.459	3.3868e-06	29.143	225.814	238.719	292.576	172.980	407.898	350.563	172.716	179.859	318.216	237.855	179.206	186.040	186.356	193.687	214.004	192.769	-8191	255	
2355.817	1	1	0	0	0.062291	0.14993	0.092618	0.29332	0.072269	0.1444	0.15368	0.022	0.16423	0.28528	0.093813	0.22173	0.16233	0.23414	0.069104	0.28508	-2.7083	-2.8125	-3.0396	-3.1562	-2.9375	-3.1229	-3.2896	-2.8833	-3.0396	-3.0146	-2.9062	-3.0187	-2.8229	-2.9625	-3.0625	-2.95	418.138	180.609	425.003	455.050	381.736	260.572	520.319	451.607	311.723	321.370	401.045	216.076	350.507	185.296	292.894	425.946	0.00027759	0.00019749	0.00015232	1375.1	2.0634e-06	3.4331e-06	1390.2	268.6	3.1067e-06	7.8868e-06	341.32	92.223	73.04	20.946	3.0168e-06	29.015	0.00030909	0.00030727	8.5729e-05	1301.2	3.3851e-06	3.3511e-06	1325	259.21	3.365e-06	3.3894e-06	319.51	90.491	72.625	21.44	3.3325e-06	29.117	223.338	237.541	370.300	172.925	369.865	374.735	172.851	179.639	313.365	411.732	179.812	186.058	185.878	193.413	262.188	193.196	-8191	255	
2355.938	1	1	0	0	0.072914	0.035751	0.089161	0.17739	0.028253	0.22891	0.39954	0.14451	0.12774	0.23005	0.04384	0.26036	0.076595	0.10152	0.098366	0.17092	-2.6333	-2.8917	-2.8688	-3.2125	-2.8896	-3.1354	-3.3479	-2.8521	-3.2958	-2.8812	-3.0146	-3.2167	-3	-2.8375	-2.9854	-2.9771	189.675	282.299	432.360	190.024	351.686	336.272	489.783	465.314	257.501	434.116	330.961	459.544	208.025	328.909	517.734	325.475	0.00027853	0.00038554	0.00016451	1375	7.7283e-06	4.6116e-06	1392.7	267.07	2.5782e-06	2.7212e-06	342.04	91.573	73.378	20.984	2.5178e-06	28.543	0.0003035	0.00030217	8.389e-05	1299.8	3.2949e-06	3.2518e-06	1319.5	257.78	3.2427e-06	3.2116e-06	317.33	89.803	71.907	21.163	3.2025e-06	28.801	222.899	507.123	485.153	172.827	256.398	438.428	172.795	179.837	279.667	229.272	179.436	185.921	186.334	193.293	327.749	192.996	-8191	255	
2356.009	1	1	0	0	0.20611	0.073461	0.11276	0.31849	0.1022	0.3131	0.23728	0.25956	0.17295	0.14913	0.1619	0.19821	0.091027	0.083435	0.010986	0.050997	-2.6021	-3.0021	-2.7896	-3.2938	-2.9958	-2.9062	-3.25	-2.8479	-3.0292	-3.1583	-2.7708	-3.1979	-3.0396	-2.8375	-3.1542	-2.8271	402.716	361.586	497.642	498.820	466.415	509.146	399.652	178.752	490.224	203.147	387.869	464.581	278.065	428.933	422.928	334.097	0.00021431	0.00016165	5.8048e-05	1361.7	2.4523e-06	4.9556e-06	1380.7	265.29	2.4312e-06	2.5064e-06	336.07	91.71	72.918	20.786	9.9264e-07	28.777	0.00029257	0.00029369	8.131e-05	1290.4	3.2073e-06	3.209e-06	1309.8	256.59	3.1879e-06	3.1992e-06	314.42	89.355	71.463	21.126	3.1787e-06	28.78	212.576	282.780	519.922	172.733	175.601	284.089	172.823	179.517	495.001	419.811	179.395	186.010	186.693	193.368	199.460	192.913	-8191	255	
2356.130	1	1	0	0	0.075558	0.38723	0.13964	0.16962	0.24515	0.15443	0.20542	0.22194	0.54768	0.20201	0.24499	0.0838	0.20444	0.23691	0.1184	0.12955	-2.6104	-2.9917	-2.8021	-3.2104	-2.8792	-2.8604	-3.3187	-2.9062	-3.1271	-3.0875	-2.7875	-3.1979	-3.0229	-2.95	-3.2292	-2.8854	443.139	424.393	459.428	481.247	236.309	232.482	442.564	410.951	308.990	420.368	509.603	261.036	185.396	453.188	416.158	426.145	0.00022928	0.00027626	0.0001446	1366	5.1135e-06	5.3739e-06	1371.9	265.6	3.5091e-06	3.8281e-06	340.06	90.822	72.509	20.765	1.2805e-06	28.461	0.00029213	0.00029314	8.116e-05	1287.4	3.1718e-06	3.1742e-06	1305.3	255.93	3.1539e-06	3.1483e-06	314.43	88.966	71.003	21.002	3.1084e-06	28.529	218.814	174.679	290.797	172.610	231.544	279.742	172.538	179.626	332.478	504.230	178.970	185.749	186.052	193.381	364.157	192.843	-8191	255	
2356.226	1	1	0	0	0.25274	0.21972	0.06002	0.25685	0.07742	0.045697	0.12943	0.091433	0.040973	0.0818	0.10261	0.11579	0.30712	0.21513	0.20244	0.075224	-2.5458	-3.1854	-2.8375	-3.3646	-2.9875	-2.6917	-3.4	-3.0958	-3.0187	-3.1917	-2.8583	-3.2	-3.0042	-2.7938	-3.25	-3.025	516.948	361.376	361.133	498.354	324.052	271.431	229.230	510.938	489.720	218.430	458.225	341.925	425.035	178.455	237.349	400.748	0.00032948	0.0001832	8.798e-05	1357.1	3.7647e-06	2.9768e-06	1370.7	264.47	5.2942e-06	4.8998e-06	337.89	90.71	72.903	20.761	5.2776e-06	28.103	0.0002865	0.00028473	7.9822e-05	1280.7	3.1707e-06	3.1378e-06	1300.2	255.2	3.1069e-06	3.1135e-06	312.55	88.596	70.962	20.972	3.0725e-06	28.399	212.992	398.039	251.701	173.077	213.751	380.218	172.852	179.816	258.035	364.010	179.409	186.255	186.314	193.370	163.872	193.228	-8191	255	
2356.322	1	1	0	0	0.092296	0.16181	0.039161	0.14201	0.022501	0.19244	0.2634	0.34307	0.15522	0.076149	0.20168	0.16987	0.047441	0.24109	0.089867	0.28046	-2.4729	-3.1312	-2.6646	-3.1417	-2.9792	-2.8271	-3.1271	-3.0729	-3.0208	-3.1312	-2.7958	-3.0083	-3.0375	-2.8771	-3.1375	-2.8917	286.833	415.910	255.432	163.228	442.112	286.110	497.383	189.217	264.464	225.400	476.889	421.413	358.086	292.870	457.413	492.610	0.00038578	0.00037435	8.121e-05	1350.4	6.6825e-06	3.389e-06	1362.4	263.63	5.4103e-06	3.4901e-06	335.08	90.734	72.409	20.7	1.1078e-06	28.404	0.00027916	0.0002799	7.8043e-05	1273.8	3.0786e-06	3.0914e-06	1295.4	254.19	3.083e-06	3.0526e-06	311.02	88.581	70.692	20.872	3.0462e-06	28.369	223.466	188.666	216.223	172.913	229.111	279.029	172.723	179.806	275.875	482.645	179.631	185.844	187.039	193.364	483.085	192.897	-8191	255	
2356.418	1	1	0	0	0.16104	0.18192	0.17332	0.20555	0.12466	0.082275	0.13042	0.17469	0.14837	0.098047	0.26879	0.099318	0.15545	0.095382	0.021914	0.16498	-2.45	-3.1292	-2.8375	-3.3312	-3.1146	-2.7417	-3.1562	-3.0708	-2.9021	-3.2208	-2.8958	-3.025	-3.0563	-2.8438	-2.9583	-2.95	334.700	421.129	469.962	208.699	232.914	476.002	289.781	494.646	387.955	491.516	380.879	398.831	184.885	298.843	414.977	414.064	0.00021109	0.00033816	0.00016645	1346.7	3.1147e-06	5.541e-06	1357	264.78	5.5804e-06	6.0932e-06	337.11	90.387	71.952	20.612	4.6314e-06	28.265	0.00027809	0.00027487	7.6066e-05	1271.1	2.9992e-06	2.9794e-06	1290.4	253.15	2.995e-06	2.9522e-06	309.19	87.869	69.964	20.707	2.9674e-06	28.197	244.156	208.032	359.777	173.028	235.553	250.914	173.008	179.893	302.682	338.357	179.257	185.821	186.218	193.333	329.515	192.838	-8191	255	
2356.537	1	1	0	0	0.13556	0.27252	0.19019	0.42376	0.14424	0.078488	0.30415	0.2333	0.15734	0.23544	0.0033195	0.18763	0.033422	0.031254	0.28919	0.26515	-2.4833	-3.0479	-2.7292	-3.0938	-3.0604	-2.8438	-3.1104	-3.0625	-2.5417	-3.2104	-2.8	-3.0729	-3.1146	-2.8479	-2.8917	-2.9708	394.038	369.899	191.472	489.327	282.175	299.276	453.450	303.757	243.717	463.047	481.261	217.676	213.042	331.480	349.177	471.444	9.0273e-05	0.00027953	6.0017e-05	1343.6	2.727e-06	2.911e-06	1360.5	262.02	3.269e-06	3.0707e-06	338.75	90.574	72.438	20.466	1.16e-06	28.696	0.00027221	0.0002711	7.5567e-05	1267.7	2.9869e-06	2.9757e-06	1291.5	252.3	2.9754e-06	2.9893e-06	310.3	88.025	70.201	20.741	2.9746e-06	28.25	215.553	477.650	479.107	172.929	245.399	309.007	172.877	179.722	234.586	424.682	179.443	186.188	186.417	193.584	395.450	192.991	-8191	255	
2356.609	1	1	0	0	0.24252	0.15361	0.19537	0.14035	0.16721	0.22083	0.20056	0.25702	0.079791	0.039342	0.22638	0.34333	0.23505	0.10656	0.19163	0.12671	-2.3708	-3.2375	-2.8812	-3.2375	-3.0271	-2.8063	-3.0187	-3.0687	-2.7	-3.0792	-3.0875	-3.0229	-3.05	-2.875	-2.9458	-3.2146	369.059	163.127	378.954	168.746	497.759	353.104	445.386	198.065	416.714	425.200	376.513	505.282	493.871	384.439	227.958	317.951	0.00020898	0.00051791	5.7476e-05	1341.3	2.0771e-06	4.9763e-06	1363.3	262.02	2.6465e-06	3.8751e-06	333.7	90.207	71.714	20.454	6.9183e-07	28.197	0.00027187	0.00027352	7.552e-05	1265.6	2.9577e-06	2.9489e-06	1288.4	252.46	2.9536e-06	2.9579e-06	308	87.847	69.843	20.672	2.9482e-06	28.161	236.001	254.746	205.950	173.143	432.181	356.634	172.814	179.818	281.987	424.897	179.191	186.206	186.223	193.655	322.007	193.056	-8191	255	
2356.705	1	1	0	0	0.016958	0.19787	0.085072	0.29101	0.18414	0.059571	0.23499	0.086487	0.20256	0.078544	0.10502	0.19604	0.19645	0.075083	0.077507	0.073304	-2.4354	-3.1312	-3.0604	-2.9771	-3.0646	-2.8396	-2.9729	-3.1063	-2.7562	-3.2479	-3.0083	-2.7792	-3.1708	-2.8792	-2.8667	-3.3083	364.810	503.781	516.440	463.056	217.561	277.080	377.153	370.769	273.756	217.980	433.595	271.829	312.676	378.002	200.233	464.792	0.00034979	0.00045262	0.00012089	1342.6	3.6348e-06	1.4027e-06	1353	261.56	1.0645e-06	6.2108e-06	335.84	90.348	71.656	20.488	7.9774e-06	28.348	0.00027212	0.00027098	7.5378e-05	1264	2.9915e-06	2.985e-06	1285.7	251.73	2.978e-06	2.9699e-06	308.99	87.874	69.887	20.695	2.9568e-06	28.214	213.350	163.626	164.842	173.147	363.489	474.415	172.979	179.617	193.300	269.107	179.067	186.354	186.566	193.748	374.734	193.465	-8191	255	
2356.801	1	1	0	0	0.1295	0.095111	0.34802	0.24685	0.11916	0.12207	0.11239	0.025031	0.22165	0.10146	0.12868	0.22883	0.2798	0.23391	0.062278	0.1768	-2.3729	-2.9688	-2.9354	-2.9208	-3.2125	-3	-3.0583	-3.2583	-2.7229	-3.0979	-3.075	-2.9208	-3.1896	-2.9458	-2.9521	-3.15	185.188	274.682	172.310	419.715	486.291	443.079	192.015	215.850	461.896	230.441	297.125	439.437	434.311	317.091	335.995	217.643	0.00023707	0.00018167	6.5477e-05	1336.5	2.4646e-06	1.3119e-06	1355.8	262.33	1.8457e-06	2.9882e-06	335.58	90.609	72.191	20.579	2.5422e-06	28.404	0.00026885	0.00026725	7.452e-05	1262	2.9268e-06	2.9559e-06	1284.6	252.14	2.9456e-06	2.9452e-06	308.64	87.744	69.785	20.732	2.9308e-06	28.179	195.563	500.446	226.666	172.852	257.233	297.828	173.055	179.825	473.470	447.000	179.538	186.116	185.821	193.540	236.987	192.919	-8191	255	
2356.922	1	1	0	0	0.1034	0.23574	0.21195	0.11113	0.20375	0.37228	0.28925	0.13058	0.04404	0.16818	0.27831	0.19872	0.167	0.20946	0.10685	0.12634	-2.3854	-3.0396	-2.9229	-2.9583	-3.1063	-2.9021	-3.0917	-3.1979	-2.9333	-2.9979	-3.0729	-2.9625	-3.0958	-3.0375	-2.5542	-3.1917	294.001	216.908	235.193	517.740	460.775	367.881	403.187	491.349	335.962	217.971	446.891	474.426	447.901	464.101	457.127	497.774	0.00027218	0.00027513	7.2206e-05	1337.6	2.297e-06	1.4362e-06	1354.2	262.26	1.8146e-06	5.9838e-06	337.22	90.526	71.514	20.491	3.2149e-06	28.488	0.00026802	0.00026674	7.4655e-05	1262.2	2.9342e-06	2.9591e-06	1285.4	252.12	2.9544e-06	2.9437e-06	309.12	87.88	69.734	20.643	2.9589e-06	28.234	220.493	465.454	401.420	172.764	203.510	179.821	172.985	179.847	336.143	268.487	179.634	185.920	186.152	193.415	305.600	192.888	-8191	255	
2357.018	1	1	0	0	0.021626	0.11608	0.16039	0.06981	0.29352	0.084273	0.39383	0.20262	0.06339	0.17168	0.19414	0.046056	0.037692	0.27045	0.059967	0.2394	-2.375	-2.8187	-2.9292	-3.0521	-2.9229	-3.0958	-3.0583	-3.1646	-3.0458	-2.8375	-3.1896	-2.6604	-3.0646	-3.0521	-2.9958	-3.1937	232.145	380.859	512.905	514.010	190.565	362.154	487.002	433.559	521.145	468.777	341.704	389.398	520.026	406.584	406.570	412.899	0.00024517	0.00038645	7.0431e-05	1340.7	3.4066e-06	3.5981e-06	1349.3	262.98	6.2456e-06	3.1024e-06	334.95	90.346	71.886	20.494	5.8757e-06	28.186	0.00027073	0.00026842	7.5343e-05	1263.5	2.9646e-06	2.9575e-06	1282.9	252.03	2.9445e-06	2.9384e-06	308.77	87.766	69.832	20.669	2.956e-06	28.113	242.422	279.326	511.618	172.838	320.417	174.559	173.144	179.401	306.926	265.030	179.700	185.570	186.004	193.411	230.826	192.914	-8191	255	
2357.114	1	1	0	0	0.11595	0.17114	0.10438	0.19047	0.15954	0.14958	0.23804	0.12398	0.16473	0.1982	0.066734	0.025739	0.16997	0.083804	0.043354	0.13777	-2.6375	-2.8292	-3.0187	-2.9771	-3.0896	-3.1063	-2.9313	-3.2333	-2.8354	-2.9521	-3.1875	-2.8812	-2.9125	-3.1292	-2.6646	-2.9875	269.352	389.214	414.984	175.882	304.741	394.081	463.047	174.205	301.189	307.540	175.044	483.763	218.294	508.987	169.246	505.628	0.00040167	0.00051004	0.00013215	1337.5	1.9927e-06	1.3509e-06	1350.8	262.58	4.5686e-06	4.8557e-06	334.64	90.768	72.156	20.497	1.1518e-06	28.381	0.00027079	0.00026947	7.584e-05	1260.4	2.961e-06	2.9389e-06	1284.3	252.3	2.9326e-06	2.9196e-06	308.75	87.87	69.741	20.634	2.9488e-06	28.172	215.958	515.607	301.105	172.661	222.557	477.970	172.829	179.865	252.273	288.394	179.634	186.064	186.396	193.886	392.700	192.818	-8191	255	
2357.233	1	1	0	0	0.13724	0.18584	0.1497	0.17373	0.023947	0.26334	0.26873	0.093951	0.25829	0.19405	0.12972	0.059983	0.13659	0.25094	0.10652	0.23289	-2.5833	-2.7625	-3.0521	-3.0125	-2.9833	-3.0729	-3.0292	-2.9813	-2.8812	-2.9708	-3.1312	-3.0417	-3.0333	-3.2333	-2.6875	-2.9	176.602	284.021	508.805	479.522	474.513	293.102	509.724	472.034	179.955	249.017	468.591	449.827	225.706	415.795	381.470	465.744	0.00025365	0.00079294	0.00015358	1340.9	1.9144e-06	4.2064e-06	1352.1	263.01	2.9966e-06	1.5975e-06	335.03	89.687	71.602	20.509	6.8615e-06	28.425	0.0002678	0.00026859	7.4397e-05	1260.7	2.9291e-06	2.911e-06	1282	251.79	2.9061e-06	2.8966e-06	307.94	87.368	69.407	20.633	2.9025e-06	28.078	234.810	424.344	260.649	172.922	238.806	435.417	172.806	180.080	275.720	267.219	179.450	186.151	186.643	192.936	262.357	193.124	-8191	255	
2357.305	1	1	0	0	0.20621	0.11245	0.04557	0.085768	0.18092	0.15032	0.1999	0.055715	0.37881	0.13553	0.11393	0.025774	0.10298	0.11546	0.14356	0.24383	-2.6146	-2.6208	-3	-3.1271	-2.8	-3.2458	-2.8271	-3.1208	-3.0229	-2.4854	-3.3125	-3.0438	-2.8208	-3.1312	-2.7854	-2.7792	218.528	240.187	306.997	500.295	180.868	356.474	516.097	467.635	205.856	518.448	439.703	335.197	206.408	514.364	517.055	450.829	0.00026529	0.00016171	9.4937e-05	1337.4	2.3147e-06	5.0943e-06	1354.2	262.03	3.2777e-06	7.0622e-06	334.25	89.961	72.03	20.468	1.0417e-05	28.31	0.00026584	0.00026372	7.347e-05	1260.4	2.8966e-06	2.8846e-06	1283.1	251.28	2.8889e-06	2.8584e-06	307.69	87.358	69.416	20.558	2.8747e-06	28.007	219.411	364.896	416.972	172.773	485.630	389.005	173.036	179.942	269.188	287.529	179.330	185.876	186.458	193.318	184.682	192.739	-8191	255	
2357.401	1	1	0	0	0.15883	0.40989	0.15584	0.23307	0.11087	0.17067	0.15814	0.18147	0.22435	0.18165	0.23174	0.30658	0.13517	0.058973	0.090362	0.15212	-2.5979	-2.6146	-3.0396	-3.075	-2.8292	-3.1646	-3.2229	-2.9562	-3.175	-2.7792	-3.1271	-3.1146	-2.8979	-3.0312	-2.925	-3.0375	410.255	250.914	517.379	202.648	345.713	293.884	516.128	343.552	338.667	377.702	406.765	163.650	494.874	346.610	382.274	431.672	0.00028293	0.00047437	7.8433e-05	1331.7	1.5043e-06	7.4928e-06	1348.9	262.49	2.1285e-06	5.5527e-06	334.97	90.032	72.383	20.568	4.0596e-06	28.079	0.00026165	0.0002607	7.2909e-05	1257.2	2.8756e-06	2.8593e-06	1279.5	251.56	2.8565e-06	2.8375e-06	307.57	87.464	69.516	20.582	2.8589e-06	27.955	217.833	214.847	224.838	172.764	261.630	479.327	172.803	179.948	318.063	181.554	179.884	186.168	186.177	193.429	415.191	192.843	-8191	255	
2357.497	1	1	0	0	0.42401	0.19615	0.074189	0.2629	0.20854	0.057338	0.23429	0.24985	0.26197	0.19817	0.091547	0.13121	0.23897	0.11457	0.10729	0.21159	-2.5563	-2.6583	-3.1813	-3.1	-2.7021	-3.0792	-2.9	-2.9688	-3.0812	-2.6833	-3.1021	-2.9708	-2.8625	-3.2146	-2.8229	-2.8438	230.023	336.901	418.168	514.665	514.112	166.805	474.743	452.127	383.115	462.675	395.470	435.311	407.727	211.496	321.692	198.435	0.00035298	0.00039741	6.7619e-05	1331.1	5.6662e-06	2.7112e-06	1347.7	263.35	2.1994e-06	8.6649e-06	334.12	90.218	72.098	20.424	1.3163e-06	28.192	0.00026113	0.00025876	7.2643e-05	1254.5	2.8604e-06	2.8357e-06	1277	250.99	2.8548e-06	2.8467e-06	306.66	87.171	69.327	20.492	2.8829e-06	28	226.596	397.731	374.837	172.986	499.168	419.159	172.849	180.056	225.799	400.858	179.469	185.821	186.305	193.154	228.108	193.067	-8191	255	
2357.618	1	1	0	0	0.1619	0.11496	0.27031	0.21234	0.13029	0.095459	0.077527	0.37775	0.16091	0.23788	0.10187	0.29618	0.20684	0.058119	0.30051	0.15388	-2.65	-2.8771	-2.875	-3.0187	-2.7125	-2.9667	-3.0771	-2.6979	-3.1417	-2.7958	-2.9729	-3.0104	-2.7333	-3.1521	-2.8146	-2.6583	247.447	290.209	481.223	189.131	219.872	224.448	216.816	473.780	222.503	305.207	374.705	513.490	166.897	192.481	394.244	346.720	0.00036074	0.00024361	6.4752e-05	1331	4.6364e-06	1.0217e-06	1348.5	261.02	5.9074e-06	7.2737e-06	331.03	90.026	71.767	20.458	5.9252e-06	28.038	0.00026193	0.00026061	7.295e-05	1254	2.8849e-06	2.8468e-06	1277.5	250.53	2.8306e-06	2.8468e-06	306.14	87.335	69.26	20.503	2.8512e-06	27.964	215.414	258.513	258.259	172.842	418.157	306.763	172.988	179.989	292.540	225.840	179.883	186.103	186.628	193.548	416.288	193.338	-8191	255	
2357.714	1	1	0	0	0.17902	0.12662	0.13602	0.1092	0.10024	0.082201	0.13231	0.16617	0.10363	0.13872	0.057063	0.10159	0.15501	0.060976	0.21762	0.050163	-2.8667	-2.7062	-3	-3.0104	-2.9458	-3.0458	-3.0354	-2.9229	-3.1125	-2.7229	-3.0312	-3.1771	-2.8146	-3.0312	-3.0375	-2.6854	213.342	334.652	332.661	242.625	334.904	303.799	203.118	185.665	265.874	223.903	276.457	463.781	252.312	437.112	436.809	179.383	0.00027073	0.00069853	0.00023416	1335.9	3.0768e-06	3.767e-06	1345.4	263.31	1.3511e-06	1.7283e-06	335.01	90.27	71.72	20.547	4.51e-06	27.889	0.00026305	0.00026358	7.3615e-05	1255.3	2.8968e-06	2.9004e-06	1276.9	251.4	2.8834e-06	2.8801e-06	307.26	87.367	69.361	20.568	2.8849e-06	27.917	219.834	230.265	249.865	173.082	195.953	326.121	173.002	179.595	388.510	164.947	179.437	186.002	186.381	193.801	274.299	193.705	-8191	255	
2357.810	1	1	0	0	0.052201	0.40254	0.076961	0.085704	0.097658	0.13059	0.26056	0.15902	0.18313	0.21036	0.20307	0.17294	0.13899	0.2571	0.11438	0.060851	-2.6625	-2.8	-3.0062	-3.1229	-2.7083	-2.9625	-3.2021	-2.8833	-3.0625	-2.9	-2.7542	-3.1479	-2.8438	-3.0458	-3.0208	-2.7375	411.888	480.631	516.081	208.598	503.541	204.569	428.975	416.311	340.520	162.073	332.433	472.118	465.819	271.786	356.725	304.162	0.00024598	0.00011975	0.00010092	1329	3.8013e-06	2.8837e-06	1348.2	261.34	2.9217e-06	2.6876e-06	332.32	90.111	71.748	20.497	5.6895e-06	28.122	0.00026399	0.00026416	7.3238e-05	1252.2	2.8707e-06	2.8843e-06	1276.5	250.74	2.8606e-06	2.8759e-06	307.14	87.329	69.443	20.525	2.8788e-06	27.957	211.154	304.362	256.279	172.892	226.740	247.889	172.780	179.928	331.432	331.619	180.032	186.168	185.781	193.352	346.111	193.014	-8191	255	
2357.904	1	1	0	0	0.086281	0.14338	0.13869	0.24836	0.17499	0.2257	0.069584	0.21803	0.13024	0.2641	0.17576	0.11033	0.2148	0.18445	0.11973	0.072565	-2.6208	-2.8333	-2.8479	-3.1625	-2.8875	-3.1354	-3.1354	-2.8354	-3.1771	-2.8125	-2.9875	-3.1729	-2.9604	-2.9354	-3.0792	-2.7771	430.917	454.808	395.408	450.334	506.778	518.832	509.499	323.410	356.185	187.086	302.052	250.703	462.681	168.599	195.431	464.226	0.00029383	0.00017471	0.00014108	1333.2	2.5725e-06	3.6628e-06	1346.8	261.93	1.282e-06	4.0553e-06	335.15	90.243	71.881	20.541	5.9127e-07	28.131	0.00026107	0.00026023	7.2717e-05	1254.3	2.8734e-06	2.8682e-06	1276.6	250.73	2.8767e-06	2.8563e-06	307.25	87.335	69.38	20.592	2.8629e-06	27.984	228.776	210.520	474.137	172.865	301.359	305.374	173.010	180.106	310.834	326.009	180.008	186.057	186.571	193.255	235.245	192.940	-8191	255	
2358.001	1	1	0	0	0.068514	0.18559	0.1408	0.28652	0.17776	0.17715	0.097989	0.27544	0.053449	0.22095	0.32129	0.10365	0.22168	0.09515	0.37796	0.23142	-2.7354	-2.8146	-2.7354	-3.1583	-2.7458	-3.0271	-3.2896	-2.8104	-2.9625	-2.9583	-2.9042	-3.3146	-2.7271	-2.7521	-3.2792	-2.8917	454.621	334.685	314.590	439.901	485.917	461.779	347.314	210.883	487.231	239.329	425.363	468.653	191.053	211.355	511.041	194.315	0.00022274	0.00033484	8.773e-05	1333.2	8.1386e-07	9.4633e-06	1345.5	260.98	2.3058e-06	2.6894e-06	336.22	89.59	71.401	20.651	5.2413e-06	27.976	0.00026079	0.00026264	7.2783e-05	1253	2.8444e-06	2.8596e-06	1275.5	250.71	2.8344e-06	2.854e-06	307.13	87.07	69.112	20.587	2.8481e-06	27.942	220.357	489.668	290.841	172.816	264.847	352.082	172.839	180.069	215.979	373.379	179.489	186.047	186.659	193.508	246.209	192.598	-8191	255	
#DATA ENDS
