BOXY.EXE: ISS Imagent and Oximeter Data Acquisition Program Version 0.80
Ascii Record File

#ACQ INFORMATION
2  Detector Channels 
16  External MUX Channels 
1  Auxiliary Channels 
5000  Waveform (CCF) Frequency (Hz)
1  Waveforms Skipped 
30  Waveforms Averaged 
1  Cycles Averaged 
16  Acquisitions per Waveform 
10.0806  Updata Rate (Hz) 

#FILE INFORMATION
TRUE -- External MUX Channel results are PARSED.
FALSE -- AC DC and Phase are NOT grouped.
TRUE -- Companion Program Settings File CREATED.
FALSE -- AC data not excluded
FALSE -- DC data not excluded
FALSE -- Phase data not excluded
FALSE -- Auxillary Chn. data not excluded
Tab delimiters

#CALIBRATION STATE
TRUE -- Waveform Calibration Values APPLIED.


#AUX CALIBRATION VALUES
Val Type	aux-1	

Term	1.0000e+00	
Factor	0.0000e+00	


#WF CALIBRATION VALUES
A = Detector Channel
Val Type	A-AC1	A-AC2	A-AC3	A-AC4	A-AC5	A-AC6	A-AC7	A-AC8	A-AC9	A-AC10	A-AC11	A-AC12	A-AC13	A-AC14	A-AC15	A-AC16	A-DC1	A-DC2	A-DC3	A-DC4	A-DC5	A-DC6	A-DC7	A-DC8	A-DC9	A-DC10	A-DC11	A-DC12	A-DC13	A-DC14	A-DC15	A-DC16	A-Ph1	A-Ph2	A-Ph3	A-Ph4	A-Ph5	A-Ph6	A-Ph7	A-Ph8	A-Ph9	A-Ph10	A-Ph11	A-Ph12	A-Ph13	A-Ph14	A-Ph15	A-Ph16	

Term	0.00000e+00	0.00000e+00	0.00000e+00	0.00000e+00	0.00000e+00	0.00000e+00	0.00000e+00	0.00000e+00	0.00000e+00	0.00000e+00	0.00000e+00	0.00000e+00	0.00000e+00	0.00000e+00	0.00000e+00	0.00000e+00	0.00000e+00	0.00000e+00	0.00000e+00	0.00000e+00	0.00000e+00	0.00000e+00	0.00000e+00	0.00000e+00	0.00000e+00	0.00000e+00	0.00000e+00	0.00000e+00	0.00000e+00	0.00000e+00	0.00000e+00	0.00000e+00	0.00000e+00	0.00000e+00	0.00000e+00	0.00000e+00	0.00000e+00	0.00000e+00	0.00000e+00	0.00000e+00	0.00000e+00	0.00000e+00	0.00000e+00	0.00000e+00	0.00000e+00	0.00000e+00	0.00000e+00	0.00000e+00	
Factor	1.00000e+00	1.00000e+00	1.00000e+00	1.00000e+00	1.00000e+00	1.00000e+00	1.00000e+00	1.00000e+00	1.00000e+00	1.00000e+00	1.00000e+00	1.00000e+00	1.00000e+00	1.00000e+00	1.00000e+00	1.00000e+00	1.00000e+00	1.00000e+00	1.00000e+00	1.00000e+00	1.00000e+00	1.00000e+00	1.00000e+00	1.00000e+00	1.00000e+00	1.00000e+00	1.00000e+00	1.00000e+00	1.00000e+00	1.00000e+00	1.00000e+00	1.00000e+00	X	X	X	X	X	X	X	X	X	X	X	X	X	X	X	X	

B = Detector Channel
Val Type	B-AC1	B-AC2	B-AC3	B-AC4	B-AC5	B-AC6	B-AC7	B-AC8	B-AC9	B-AC10	B-AC11	B-AC12	B-AC13	B-AC14	B-AC15	B-AC16	B-DC1	B-DC2	B-DC3	B-DC4	B-DC5	B-DC6	B-DC7	B-DC8	B-DC9	B-DC10	B-DC11	B-DC12	B-DC13	B-DC14	B-DC15	B-DC16	B-Ph1	B-Ph2	B-Ph3	B-Ph4	B-Ph5	B-Ph6	B-Ph7	B-Ph8	B-Ph9	B-Ph10	B-Ph11	B-Ph12	B-Ph13	B-Ph14	B-Ph15	B-Ph16	

Term	0.00000e+00	0.00000e+00	0.00000e+00	0.00000e+00	0.00000e+00	0.00000e+00	0.00000e+00	0.00000e+00	0.00000e+00	0.00000e+00	0.00000e+00	0.00000e+00	0.00000e+00	0.00000e+00	0.00000e+00	0.00000e+00	0.00000e+00	0.00000e+00	0.00000e+00	0.00000e+00	0.00000e+00	0.00000e+00	0.00000e+00	0.00000e+00	0.00000e+00	0.00000e+00	0.00000e+00	0.00000e+00	0.00000e+00	0.00000e+00	0.00000e+00	0.00000e+00	-1.28747e+02	-1.33826e+02	-1.28549e+02	-1.80942e+02	-7.62500e+01	-8.09811e+01	-1.54237e+02	-1.62015e+02	-7.58400e+01	-9.44173e+01	-1.75125e+02	-1.69314e+02	-1.81664e+02	-1.76960e+02	-5.94591e+01	-1.48622e+02	
Factor	1.82771e-05	1.44101e-04	3.88608e-05	1.54363e-01	1.25011e-06	1.75893e-06	1.64846e-01	6.58057e-02	1.31588e-06	1.62697e-06	1.48855e-01	2.74170e-02	2.93441e-02	8.95402e-03	1.40154e-06	1.27922e-02	1.80991e-06	1.93471e-06	5.39634e-07	7.75589e-02	2.11008e-08	2.13558e-08	7.78935e-02	3.28511e-02	2.11968e-08	2.13614e-08	7.05007e-02	1.33727e-02	1.48024e-02	4.49870e-03	2.12343e-08	6.21207e-03	X	X	X	X	X	X	X	X	X	X	X	X	X	X	X	X	



#DISTANCE SETTINGS
A = Detector Channel
A-1	A-2	A-3	A-4	A-5	A-6	A-7	A-8	A-9	A-10	A-11	A-12	A-13	A-14	A-15	A-16	

2.5000e+00	3.0000e+00	2.5000e+00	3.0000e+00	2.0000e+00	3.0000e+00	1.5000e+00	3.0000e+00	3.0000e+00	3.0000e+00	3.0000e+00	3.0000e+00	3.0000e+00	3.0000e+00	1.5000e+00	3.0000e+00	

B = Detector Channel
B-1	B-2	B-3	B-4	B-5	B-6	B-7	B-8	B-9	B-10	B-11	B-12	B-13	B-14	B-15	B-16	

1.0000e+01	1.0000e+01	1.0000e+01	1.4400e+00	1.0000e+01	1.0000e+01	1.5100e+00	1.9400e+00	1.0000e+01	1.0000e+01	1.9900e+00	2.4900e+00	2.4100e+00	2.9000e+00	1.0000e+01	2.9800e+00	




#DATA BEGINS
time	group	step	mark	flag	A-AC1	A-AC2	A-AC3	A-AC4	A-AC5	A-AC6	A-AC7	A-AC8	A-AC9	A-AC10	A-AC11	A-AC12	A-AC13	A-AC14	A-AC15	A-AC16	A-DC1	A-DC2	A-DC3	A-DC4	A-DC5	A-DC6	A-DC7	A-DC8	A-DC9	A-DC10	A-DC11	A-DC12	A-DC13	A-DC14	A-DC15	A-DC16	A-Ph1	A-Ph2	A-Ph3	A-Ph4	A-Ph5	A-Ph6	A-Ph7	A-Ph8	A-Ph9	A-Ph10	A-Ph11	A-Ph12	A-Ph13	A-Ph14	A-Ph15	A-Ph16	B-AC1	B-AC2	B-AC3	B-AC4	B-AC5	B-AC6	B-AC7	B-AC8	B-AC9	B-AC10	B-AC11	B-AC12	B-AC13	B-AC14	B-AC15	B-AC16	B-DC1	B-DC2	B-DC3	B-DC4	B-DC5	B-DC6	B-DC7	B-DC8	B-DC9	B-DC10	B-DC11	B-DC12	B-DC13	B-DC14	B-DC15	B-DC16	B-Ph1	B-Ph2	B-Ph3	B-Ph4	B-Ph5	B-Ph6	B-Ph7	B-Ph8	B-Ph9	B-Ph10	B-Ph11	B-Ph12	B-Ph13	B-Ph14	B-Ph15	B-Ph16	aux-1	digaux	

1419.926	1	1	0	256	0.25455	0.10999	0.17249	0.26075	0.18292	0.0458	0.29993	0.2776	0.078079	0.22748	0.25838	0.19972	0.13099	0.22514	0.081568	0.27386	-2.8083	-3.4167	-3.2354	-3.5083	-3.3854	-3.3187	-3.3146	-3.6771	-3.3458	-3.4062	-3.2917	-3.2396	-3.3458	-3.3125	-3.0792	-3.8167	-61.164	-19.276	-116.332	-125.417	54.064	79.617	142.214	116.170	-70.045	168.697	143.626	170.743	141.596	156.668	138.363	171.378	0.00048274	0.00065937	9.0678e-05	1442.9	4.6809e-06	4.4892e-06	1470	378.1	5.3488e-06	8.0058e-06	433.93	143.9	129.25	43.425	3.2702e-06	53.266	0.00032646	0.00030803	8.476e-05	1447.1	3.4015e-06	3.3459e-06	1477.9	379.58	3.2766e-06	3.2651e-06	431.57	145.1	130.04	43.72	3.2099e-06	53.824	-154.679	-102.492	-88.224	-157.588	-17.290	-5.287	-158.104	-153.331	-50.978	-27.564	-153.583	-149.326	-148.934	-143.758	-37.794	-144.619	-8191	255	
1420.022	1	1	0	0	0.045136	0.16581	0.045167	0.37998	0.31426	0.070238	0.27408	0.18044	0.19551	0.21065	0.22681	0.30776	0.12387	0.39668	0.20274	0.38265	-2.8583	-3.4854	-3.3479	-3.3854	-3.3667	-3.4333	-3.3271	-3.6833	-3.0979	-3.2542	-3.5521	-3.4	-3.3333	-3.525	-3.1021	-3.6417	-67.203	-87.322	40.054	157.987	-148.009	-104.106	172.724	128.897	69.082	-147.353	-126.207	118.672	-61.949	127.741	-143.019	134.651	0.00053016	0.00059412	8.1847e-05	1435.5	2.6123e-06	6.4247e-06	1466.4	378.99	2.4567e-06	1.0541e-05	436.56	143.84	129.13	43.262	2.422e-06	53.14	0.00030628	0.00028903	7.9794e-05	1441.7	3.2174e-06	3.1628e-06	1472.5	379.32	3.1787e-06	3.1866e-06	431.5	145.06	129.95	43.653	3.2304e-06	53.894	-165.837	-107.544	-63.707	-157.535	-90.341	-36.382	-157.850	-153.113	-65.387	-18.995	-153.681	-149.234	-148.913	-144.010	-25.926	-144.886	-8191	255	
1420.116	1	1	0	0	0.098536	0.20406	0.20228	0.21999	0.24353	0.17566	0.041669	0.10959	0.090934	0.17554	0.17178	0.17657	0.21436	0.15388	0.2089	0.14739	-2.8812	-3.1937	-3.5229	-3.3	-3.275	-3.3875	-3.2521	-3.5604	-3.2146	-3.5104	-3.6396	-3.2396	-3.4688	-3.2125	-3.2354	-3.4104	-9.250	97.116	-24.191	118.027	157.540	23.636	167.756	-125.266	60.738	-5.124	-64.167	166.942	-21.874	-70.114	-12.911	31.636	0.00043673	0.00034662	3.6258e-05	1443.8	4.9631e-06	9.2586e-06	1466.6	378.18	4.5817e-06	8.1231e-06	432.63	143.84	129.43	43.344	5.813e-06	53.274	0.00030939	0.00029401	8.1904e-05	1444.9	3.2373e-06	3.2366e-06	1473.7	379.07	3.2081e-06	3.2021e-06	431.09	145.24	130.35	43.772	3.2625e-06	53.908	-160.577	-127.657	-1.922	-157.577	-3.539	8.851	-158.070	-153.327	-60.222	-43.345	-153.568	-149.545	-148.860	-144.034	-0.838	-144.582	-8191	255	
1420.212	1	1	0	0	0.042925	0.18905	0.061436	0.21414	0.074949	0.07824	0.31147	0.10038	0.20201	0.15792	0.32941	0.16205	0.28285	0.34948	0.16353	0.066179	-2.8583	-3.0771	-3.4271	-3.3937	-3.3771	-3.5917	-3.4771	-3.6208	-3.3396	-3.2313	-3.5604	-3.3271	-3.2146	-3.6312	-3.1667	-3.4562	-104.397	36.506	21.880	145.136	-162.974	-25.466	156.826	162.776	-71.425	48.531	46.974	167.513	-170.800	181.605	-145.169	94.704	0.00049214	0.00043847	0.0001824	1445.8	4.3546e-06	8.1795e-06	1467.9	378.86	5.9204e-06	7.0576e-06	435.11	144.3	129.65	43.395	3.2945e-06	53.279	0.00031296	0.00029873	8.2615e-05	1445.4	3.2886e-06	3.3074e-06	1473.9	379.22	3.2868e-06	3.2259e-06	432.16	145.14	130.21	43.776	3.2583e-06	53.949	-159.330	-95.719	-42.826	-157.325	-44.303	-33.721	-157.960	-153.187	-58.567	-22.030	-153.460	-149.380	-148.582	-144.006	-39.944	-144.981	-8191	255	
1420.333	1	1	0	0	0.20685	0.28043	0.055955	0.28831	0.37548	0.074867	0.09631	0.37304	0.1717	0.1692	0.05699	0.40494	0.13759	0.26792	0.24508	0.21884	-3	-3.0979	-3.3792	-3.2896	-3.2271	-3.5958	-3.3625	-3.6521	-3.3729	-3.3125	-3.4562	-3.6271	-3.2958	-3.7083	-3.1937	-3.6354	22.067	-80.812	17.694	174.427	161.493	-71.947	97.631	164.495	-158.922	22.765	123.263	129.779	-164.565	47.997	-14.894	145.669	0.00049412	0.00025441	9.7589e-05	1441.1	3.6243e-06	6.1781e-06	1460.9	378.6	5.6713e-06	4.1729e-06	435.22	143.95	129.32	43.39	6.3272e-06	53.49	0.00031073	0.00029274	8.2095e-05	1443.3	3.2447e-06	3.1966e-06	1470.4	378.99	3.2285e-06	3.167e-06	430.8	145.06	130.19	43.679	3.2349e-06	53.912	-158.324	-6.024	-40.534	-157.397	-46.370	-5.496	-157.890	-153.268	-56.609	-43.938	-153.576	-149.487	-148.728	-143.885	-51.649	-144.688	-8191	255	
1420.429	1	1	0	0	0.15537	0.14788	0.20906	0.34857	0.17584	0.15324	0.27492	0.14467	0.14522	0.18727	0.22854	0.19868	0.1035	0.39413	0.16399	0.12897	-2.9833	-3.2021	-3.3688	-3.6875	-3.1833	-3.6083	-3.2833	-3.3854	-3.4021	-3.0354	-3.525	-3.3542	-3.3438	-3.4125	-3.3083	-3.4375	-59.460	122.399	-147.066	181.878	-146.240	161.568	145.499	140.167	-20.865	68.564	-105.173	107.600	103.135	174.967	182.443	40.033	0.00048289	0.00037739	0.00011637	1440.1	1.8498e-06	6.17e-06	1459.2	377.13	6.5115e-06	2.8486e-06	433.59	143.61	129.58	43.214	3.7088e-06	53.304	0.00030615	0.00028754	7.9814e-05	1444.2	3.1706e-06	3.1483e-06	1468.6	379.05	3.1917e-06	3.1692e-06	430.9	145.07	130.21	43.668	3.2871e-06	53.978	-160.455	-80.526	-128.442	-157.567	-41.367	-0.989	-157.661	-153.233	-55.151	-52.180	-153.629	-149.355	-148.671	-143.965	11.786	-144.624	-8191	255	
1420.525	1	1	0	0	0.045239	0.093626	0.17639	0.30477	0.11049	0.034032	0.26166	0.25819	0.17512	0.0071944	0.28648	0.17351	0.046954	0.185	0.29709	0.17748	-3.0687	-3.3104	-3.6104	-3.4292	-3.1375	-3.5479	-3.4458	-3.3229	-3.6188	-3.3	-3.6479	-3.4938	-3.1021	-3.3604	-3.1688	-3.5062	94.462	63.399	-128.821	-169.848	79.022	19.358	114.068	184.220	-70.650	-38.474	166.406	110.821	146.327	117.639	-128.810	81.900	0.00049512	0.00055965	0.00020136	1447.2	1.6479e-06	6.8767e-06	1467.7	378.65	5.3535e-06	6.4763e-06	435.19	144.01	129.5	43.115	2.8488e-06	53.447	0.00031722	0.00029961	8.4587e-05	1447.7	3.3628e-06	3.3492e-06	1473.7	379.9	3.4379e-06	3.364e-06	432.43	145.22	130.3	43.639	3.3298e-06	53.954	-162.212	-101.257	-64.896	-157.455	-60.670	-45.795	-157.825	-153.080	-48.884	-18.563	-153.387	-149.079	-148.842	-144.212	-26.772	-144.764	-8191	255	
1420.597	1	1	0	0	0.075125	0.16352	0.097672	0.22973	0.24715	0.093871	0.21533	0.22444	0.11751	0.32846	0.095141	0.27717	0.37815	0.20968	0.13768	0.25307	-3.2188	-3.2188	-3.5354	-3.6708	-3.1417	-3.6625	-3.4729	-3.2667	-3.5167	-3.2333	-3.6542	-3.5604	-3.1042	-3.5354	-3.2458	-3.1854	-12.075	77.978	-86.943	78.291	-30.324	-8.979	153.604	170.720	115.334	132.414	-124.958	150.400	119.424	93.104	-21.973	-150.901	0.00050749	0.00037908	0.00011096	1443.2	3.5916e-06	1.2719e-06	1465.1	378.17	2.3935e-06	1.7783e-06	432.35	143.81	129.58	43.309	5.1373e-06	53.401	0.00031932	0.00030348	8.4246e-05	1446.2	3.3356e-06	3.3261e-06	1471.5	379.3	3.3162e-06	3.3098e-06	430.87	145.02	130.15	43.68	3.3013e-06	54.011	-167.459	-83.659	-42.720	-157.527	-82.061	-43.060	-157.493	-153.179	-69.301	64.891	-153.717	-149.294	-148.713	-143.869	-92.138	-144.573	-8191	255	
1420.718	1	1	0	0	0.067446	0.20805	0.15457	0.21347	0.29625	0.099766	0.28243	0.18025	0.16755	0.05916	0.20872	0.27145	0.31079	0.22984	0.048746	0.12282	-3.125	-3.1333	-3.4417	-3.6708	-3.0187	-3.3583	-3.3958	-3.3312	-3.5333	-3.1437	-3.275	-3.5979	-3.25	-3.5687	-3.3417	-3.5146	56.143	42.491	14.964	-168.177	63.668	-145.508	167.806	125.241	-141.173	-130.723	-159.293	178.630	62.735	91.938	-94.845	-165.642	0.00047844	0.00024994	0.00011854	1439.5	5.911e-06	6.7316e-06	1458.6	376.26	9.0751e-06	5.0205e-06	435.4	142.77	128.67	43.225	3.0271e-06	53.234	0.00031733	0.00030497	8.5424e-05	1445.1	3.3644e-06	3.378e-06	1469.4	378.74	3.3984e-06	3.3667e-06	431.58	144.44	129.78	43.634	3.3645e-06	53.924	-166.318	-86.401	-84.252	-157.404	-25.943	-32.762	-157.751	-153.336	-55.011	-51.238	-153.465	-149.407	-148.635	-144.113	-4.586	-144.604	-8191	255	
1420.814	1	1	0	0	0.10857	0.15106	0.073346	0.23509	0.18698	0.19396	0.3566	0.11987	0.037234	0.093721	0.10848	0.22497	0.10462	0.18114	0.087764	0.079508	-3.0375	-3.1146	-3.1896	-3.6958	-3.1958	-3.4979	-3.6042	-3.45	-3.35	-3.4125	-3.2917	-3.625	-3.3375	-3.5854	-3.3542	-3.2667	-61.454	-153.390	45.268	150.304	10.007	79.305	104.766	-12.009	47.940	-57.561	10.154	58.701	123.649	133.867	-133.465	-153.671	0.00051449	0.00048826	0.00010029	1438.6	5.1097e-06	4.6761e-06	1457.6	376.77	2.7959e-06	5.4954e-06	433.47	143.68	128.3	43.34	3.1008e-06	53.176	0.00031873	0.00030332	8.5777e-05	1443.3	3.3635e-06	3.3449e-06	1469	378.12	3.303e-06	3.2953e-06	430.87	144.88	129.75	43.66	3.3125e-06	53.828	-158.099	-54.050	-104.336	-157.489	-34.215	-49.536	-157.849	-153.184	-70.209	-53.735	-153.438	-149.448	-148.879	-144.111	-30.576	-144.659	-8191	255	
1420.910	1	1	0	0	0.01504	0.25635	0.034912	0.16552	0.31379	0.13432	0.30191	0.14545	0.07498	0.020862	0.05621	0.089885	0.14632	0.16163	0.15981	0.12207	-3.0333	-3.2625	-3.2292	-3.7438	-3.1333	-3.4104	-3.6125	-3.1771	-3.5583	-3.4833	-3.2604	-3.5187	-3.3042	-3.4292	-3.5375	-3.2146	-43.821	135.609	83.209	-98.325	-131.751	-160.473	118.554	168.782	-65.511	5.262	-35.746	-12.812	162.473	152.581	-70.820	46.600	0.00049877	0.00067356	7.1387e-05	1438.2	3.2341e-06	5.8678e-06	1457.9	376.94	5.28e-06	6.1364e-06	436.71	143	128.77	43.406	3.1521e-06	53.176	0.0003153	0.00029845	8.2516e-05	1440.8	3.2278e-06	3.2627e-06	1464.2	377.78	3.227e-06	3.1863e-06	430.77	144.57	130.1	43.658	3.2035e-06	53.825	-155.961	-69.963	-151.916	-157.508	-30.356	-31.274	-157.713	-153.033	-44.384	-69.627	-153.727	-149.489	-148.753	-144.005	-24.489	-144.726	-8191	255	
1421.006	1	1	0	0	0.13987	0.1719	0.13029	0.16764	0.0068843	0.27263	0.15459	0.19372	0.085761	0.080625	0.22671	0.14786	0.18013	0.36848	0.21829	0.12253	-3.0229	-3.1792	-3.3271	-3.75	-3.3125	-3.4292	-3.6188	-3.2583	-3.525	-3.4333	-3.1146	-3.6604	-3.2438	-3.4875	-3.3	-3.2458	-15.075	-1.226	-146.288	-144.125	-71.737	39.896	101.741	126.381	-28.077	112.987	164.017	111.592	-145.723	178.166	-15.091	116.416	0.00048947	0.00069727	0.00014658	1437.3	4.2111e-06	2.6767e-06	1442.7	377.34	3.5765e-06	7.0352e-06	433.76	143.45	129.64	43.444	5.2841e-06	53.125	0.00030554	0.00029438	8.0399e-05	1438.7	3.2129e-06	3.1824e-06	1453.5	378.95	3.1943e-06	3.2044e-06	431.11	144.95	130.18	43.69	3.2093e-06	53.84	-158.865	-64.364	-63.696	-157.545	-70.155	-43.995	-157.870	-153.287	-65.283	-50.622	-153.172	-149.221	-149.001	-143.928	-41.339	-144.677	-8191	255	
1421.125	1	1	0	0	0.16486	0.1921	0.1165	0.25047	0.12872	0.060083	0.23001	0.1804	0.3022	0.21293	0.11727	0.15099	0.20565	0.22222	0.096691	0.20813	-2.9583	-3.3333	-3.1271	-3.7771	-3.1292	-3.3021	-3.6208	-3.3458	-3.3896	-3.5729	-3.3125	-3.6875	-3.2271	-3.4729	-3.4792	-3.3479	-24.791	-2.954	34.113	165.296	-33.397	132.298	40.256	144.470	-41.503	-52.597	66.589	123.753	-21.574	-167.383	87.489	58.727	0.00044073	0.00012605	0.00012588	1439.9	3.411e-06	8.0283e-06	1440.1	376.36	3.9638e-06	6.6139e-07	435.02	143.47	129.38	43.338	3.8442e-06	53.346	0.00031101	0.00029585	8.2766e-05	1440.3	3.3016e-06	3.2361e-06	1449.9	378.12	3.2588e-06	3.237e-06	430.93	144.85	130.14	43.7	3.2519e-06	53.882	-160.691	-129.724	-59.686	-157.402	-77.200	-61.098	-157.732	-153.368	-71.418	-4.813	-153.394	-149.241	-148.682	-143.746	5.334	-144.626	-8191	255	
1421.198	1	1	0	0	0.14871	0.055221	0.13382	0.21322	0.054985	0.14775	0.2078	0.27455	0.12683	0.076203	0.23308	0.34923	0.067959	0.042268	0.2609	0.22658	-2.9417	-3.4646	-3.3063	-3.6521	-3.3854	-3.4062	-3.6146	-3.2062	-3.2583	-3.4062	-3.3229	-3.5667	-3.4792	-3.2042	-3.5062	-3.1292	35.544	-76.090	44.199	-114.029	-7.788	-158.910	108.718	149.624	101.823	91.403	168.859	103.537	-57.018	144.351	-43.819	165.560	0.00051987	0.000187	4.9672e-05	1435	4.7709e-06	4.1396e-06	1442.2	377.2	4.2266e-06	7.4845e-06	433.02	143.3	128.89	43.295	2.318e-06	53.079	0.00030965	0.00029304	8.1449e-05	1438.8	3.2336e-06	3.2529e-06	1449.6	378.02	3.2082e-06	3.2245e-06	430.19	144.72	129.88	43.668	3.208e-06	53.797	-152.838	-52.961	-61.439	-157.390	-54.788	-56.155	-157.807	-153.206	-37.937	-41.225	-153.534	-149.178	-148.664	-144.102	36.579	-144.454	-8191	255	
1421.295	1	1	0	0	0.23183	0.13268	0.20259	0.18436	0.30452	0.16761	0.18601	0.13552	0.058502	0.1217	0.13766	0.231	0.12989	0.085487	0.15744	0.12234	-3.0333	-3.3667	-3.1979	-3.5292	-3.3333	-3.1312	-3.7167	-3.3937	-3.2604	-3.6312	-3.0625	-3.6875	-3.425	-3.4667	-3.4375	-3.3833	160.793	106.021	-72.909	134.086	1.011	144.533	74.859	-143.295	33.848	179.898	-160.124	181.511	-73.589	176.850	12.200	139.637	0.00046872	0.00048318	9.9719e-05	1439.8	6.7475e-06	8.423e-06	1436	377.07	1.7757e-06	3.9602e-06	434.12	143.45	128.84	43.219	3.3309e-06	53.421	0.00030788	0.00029282	8.0085e-05	1440.9	3.2382e-06	3.2494e-06	1448.8	378.64	3.2382e-06	3.2359e-06	431.32	144.86	129.99	43.613	3.2102e-06	53.924	-163.390	-54.551	-45.271	-157.419	-45.903	-33.862	-157.717	-153.245	-64.124	-105.671	-153.483	-149.303	-148.916	-143.949	-31.647	-144.733	-8191	255	
1421.413	1	1	0	0	0.28034	0.26152	0.099566	0.11291	0.13257	0.055412	0.25202	0.1333	0.047012	0.039731	0.28508	0.12711	0.053151	0.20302	0.043765	0.30174	-2.6708	-3.6333	-3.1708	-3.5812	-3.3208	-3.2292	-3.6104	-3.625	-3.2208	-3.5687	-3.1417	-3.6917	-3.4083	-3.4167	-3.3042	-3.5167	-70.567	178.720	34.197	126.986	122.524	71.510	90.632	158.222	81.949	25.154	137.531	-100.753	85.601	181.403	-102.158	141.436	0.0004979	0.00040143	8.5716e-05	1431.6	5.3453e-06	4.5811e-06	1442.1	377.1	4.2122e-06	7.0175e-06	436.07	143.84	129.3	43.308	3.7411e-06	53.004	0.00030702	0.00029304	8.0121e-05	1438	3.2249e-06	3.1752e-06	1450	378.46	3.211e-06	3.1813e-06	431.42	144.8	129.97	43.734	3.2561e-06	53.842	-160.509	-60.086	-34.916	-157.463	-45.248	24.778	-157.777	-153.397	-66.174	-18.417	-153.288	-149.180	-148.653	-144.006	-29.325	-144.520	-8191	255	
1421.510	1	1	0	0	0.089096	0.037419	0.14729	0.38475	0.14594	0.18183	0.087193	0.16464	0.068837	0.029789	0.050206	0.22986	0.3052	0.2406	0.15493	0.2226	-2.7979	-3.5667	-3.0938	-3.6979	-3.4062	-3.1146	-3.8604	-3.3812	-3.2146	-3.5125	-3.1583	-3.3271	-3.5979	-3.2833	-3.5167	-3.4604	108.443	-145.667	169.908	126.113	-59.295	-12.780	34.502	-104.428	140.631	68.595	-63.283	177.179	-143.729	77.981	62.464	-169.198	0.00051112	0.00070533	0.0001116	1437.7	2.7211e-06	5.2003e-06	1441	378.48	5.7574e-06	7.4489e-06	434.16	143.65	129.52	43.374	4.7142e-06	53.353	0.0003142	0.00029547	8.2208e-05	1439.8	3.2851e-06	3.2742e-06	1450.3	378.98	3.3043e-06	3.2868e-06	431.08	145.06	130.23	43.686	3.364e-06	53.958	-167.100	-98.540	-51.159	-157.374	-91.136	-123.787	-157.832	-153.154	-26.499	-43.600	-153.189	-149.321	-148.798	-143.906	-17.523	-144.883	-8191	255	
1421.606	1	1	0	0	0.029145	0.17641	0.071911	0.17955	0.042471	0.14389	0.047134	0.25445	0.15834	0.28593	0.14756	0.25543	0.12481	0.28948	0.13773	0.021421	-2.8333	-3.5792	-3.2062	-3.45	-3.5521	-3.0792	-3.7896	-3.4667	-3.1875	-3.5646	-3.1958	-3.4625	-3.2562	-3.3187	-3.2687	-3.6937	-167.385	51.118	55.147	70.757	-103.227	-24.166	-109.489	144.497	-4.240	-115.750	-27.881	156.712	-45.761	111.435	36.776	91.762	0.00048434	0.00054149	6.4695e-05	1434.9	3.4289e-06	7.5705e-06	1440.9	376.51	3.7432e-06	3.7689e-06	434.66	143.43	129.08	43.186	7.7365e-06	53.265	0.00031485	0.00029795	8.4637e-05	1439.2	3.3793e-06	3.3293e-06	1452.1	378.33	3.4197e-06	3.353e-06	431.8	145.03	129.78	43.635	3.4452e-06	53.939	-157.151	-60.964	-69.693	-157.541	-53.285	-45.858	-157.758	-153.284	-66.112	3.865	-153.167	-149.340	-148.843	-144.088	-31.389	-144.602	-8191	255	
1421.726	1	1	0	0	0.099629	0.24852	0.087798	0.35653	0.11056	0.13185	0.33721	0.41789	0.21477	0.010415	0.037033	0.020816	0.095769	0.029087	0.16156	0.16203	-2.8896	-3.5938	-3.2167	-3.3208	-3.75	-3.0812	-3.5375	-3.4771	-3.0938	-3.5458	-3.4125	-3.3375	-3.6104	-3.2396	-3.4021	-3.4125	67.593	-8.668	-112.747	-169.740	1.622	-107.397	96.034	179.594	-28.306	-5.919	-151.966	-139.738	137.743	166.216	-152.257	19.724	0.00046166	0.00040735	0.00014918	1437.2	4.5708e-06	7.5995e-06	1446.5	376.81	5.9352e-06	2.8678e-06	431.91	143.2	129.08	43.278	2.2987e-06	53.292	0.00032882	0.00031756	8.6666e-05	1437.8	3.4802e-06	3.4495e-06	1452.2	378.71	3.4857e-06	3.4755e-06	430.75	144.79	130.07	43.651	3.4475e-06	53.823	-157.916	-59.985	-43.774	-157.431	-19.410	-31.301	-157.630	-153.210	-58.735	-38.372	-153.633	-148.979	-148.784	-144.054	-37.177	-144.512	-8191	255	
1421.822	1	1	0	0	0.23722	0.061221	0.15916	0.36906	0.19794	0.099408	0.31862	0.23012	0.21675	0.13741	0.071125	0.15065	0.072665	0.083901	0.2239	0.03957	-2.7979	-3.1833	-3.4188	-3.3812	-3.5062	-3.0458	-3.5646	-3.5604	-3.3208	-3.5167	-3.3875	-3.3167	-3.4292	-3.2104	-3.2125	-3.5583	154.487	-145.479	128.676	180.552	162.863	-29.155	111.185	-126.169	-86.704	138.145	16.324	108.877	-58.191	164.314	-75.442	-102.956	0.00050395	0.00049243	0.00015461	1432.9	1.4466e-06	5.6933e-06	1438.7	376.07	4.2966e-06	3.1512e-06	434.08	142.99	129.31	43.168	6.98e-06	52.78	0.0003225	0.00030814	8.6329e-05	1435.5	3.412e-06	3.3551e-06	1449.6	378.08	3.3957e-06	3.3971e-06	431.41	144.75	129.99	43.593	3.4463e-06	53.768	-162.285	-94.783	-103.636	-157.446	-36.848	-9.990	-157.829	-153.169	-57.406	-14.232	-153.456	-149.319	-148.877	-144.136	-23.516	-144.734	-8191	255	
1421.894	1	1	0	0	0.21531	0.15246	0.16583	0.073685	0.12649	0.11761	0.10567	0.16375	0.2033	0.06347	0.13827	0.26717	0.21218	0.26557	0.12503	0.2243	-2.6792	-3.375	-3.3875	-3.4333	-3.5167	-3.2979	-3.4	-3.575	-3.0354	-3.4188	-3.6063	-3.1375	-3.5729	-3.2938	-3.2583	-3.5375	152.350	-55.274	80.541	102.541	-86.702	27.304	174.185	27.902	7.693	-85.351	-140.931	118.372	-152.796	169.382	43.715	92.337	0.00049571	8.5222e-05	9.6116e-05	1435	5.3302e-06	5.3997e-06	1438.7	376.68	4.2824e-06	7.7308e-06	433.89	143.74	128.75	43.21	6.6037e-06	53.375	0.00032579	0.00030897	8.6937e-05	1438.2	3.4496e-06	3.3858e-06	1450.6	378.71	3.4408e-06	3.4125e-06	430.65	144.87	129.93	43.655	3.3905e-06	53.904	-158.661	-3.531	-47.372	-157.428	-56.516	-10.605	-157.733	-153.108	-90.049	-51.287	-153.552	-149.425	-148.539	-143.878	-11.623	-144.653	-8191	255	
1422.015	1	1	0	0	0.062422	0.14694	0.14258	0.16613	0.13197	0.18673	0.30417	0.14169	0.062061	0.30019	0.056973	0.034372	0.21881	0.076886	0.11403	0.21832	-2.7396	-3.575	-3.2604	-3.3292	-3.3875	-3.3937	-3.4208	-3.4542	-3.4146	-3.5354	-3.4562	-3.2979	-3.4979	-3.5708	-3.2313	-3.6146	-60.813	25.740	-8.152	127.648	114.145	93.267	141.375	162.459	-153.126	71.311	-90.991	49.731	168.177	-159.171	-145.771	54.360	0.00047056	0.00039488	0.00017815	1437.1	2.3042e-06	3.5579e-06	1444	377.1	4.6731e-06	2.0956e-06	434.74	142.92	128.55	43.155	5.2146e-06	53.358	0.00032673	0.00030947	8.618e-05	1438.7	3.4562e-06	3.4475e-06	1452.2	378.51	3.4817e-06	3.4724e-06	431.36	144.56	129.82	43.625	3.4935e-06	53.979	-160.818	-81.525	-86.107	-157.501	-85.545	-82.816	-157.936	-153.252	-35.154	-20.795	-153.464	-149.364	-148.719	-143.915	-46.907	-144.715	-8191	255	
1422.109	1	1	0	0	0.20162	0.054341	0.05192	0.14907	0.12622	0.043832	0.24784	0.093575	0.16757	0.10182	0.19353	0.11331	0.11615	0.19918	0.1135	0.23552	-2.8438	-3.2812	-3.4313	-3.4604	-3.3417	-3.4313	-3.4625	-3.7	-3.4104	-3.2917	-3.6292	-3.3583	-3.5917	-3.3771	-3.1937	-3.5062	162.447	-35.144	163.366	102.738	164.215	-109.098	65.837	75.513	-34.084	88.803	67.458	101.812	94.769	-162.148	113.471	110.732	0.00050911	0.00046056	0.00022708	1437.2	2.2823e-06	7.7248e-06	1440.8	375.18	5.3117e-06	9.3762e-06	434.25	143.97	129.65	43.205	4.4721e-06	53.401	0.00033099	0.00031762	8.7296e-05	1441.1	3.4858e-06	3.4677e-06	1453.3	378.27	3.4953e-06	3.5173e-06	431.96	145.07	129.98	43.605	3.5208e-06	53.921	-158.088	-55.891	-76.457	-157.515	16.619	-35.434	-157.701	-153.409	-25.721	-53.915	-153.533	-149.134	-148.829	-144.001	-20.570	-144.804	-8191	255	
1422.205	1	1	0	0	0.11405	0.19458	0.09566	0.32598	0.15018	0.21895	0.3289	0.24109	0.073741	0.16106	0.21952	0.070141	0.092685	0.20622	0.1935	0.12031	-2.8708	-3.2354	-3.6583	-3.3458	-3.4625	-3.3187	-3.2521	-3.5917	-3.3417	-3.4813	-3.5354	-3.4354	-3.4688	-3.5812	-3.1688	-3.5833	-58.115	122.689	-42.789	149.950	-74.915	-140.477	135.282	124.532	29.264	-95.529	182.947	104.794	166.860	-69.520	-76.893	153.391	0.00049667	0.00045364	0.00013907	1432.7	7.0031e-06	1.2467e-05	1442.5	376.98	7.2444e-06	3.9275e-06	432.58	143.65	129.03	43.202	4.4757e-06	53.321	0.00033133	0.00031032	8.7114e-05	1439.4	3.5164e-06	3.4527e-06	1452.7	378.4	3.5084e-06	3.4755e-06	430.73	144.79	129.74	43.632	3.5354e-06	53.928	-164.711	-100.616	-70.808	-157.429	-71.619	-53.043	-157.823	-153.201	-48.650	-110.392	-153.415	-149.326	-148.661	-143.941	-59.957	-144.718	-8191	255	
1422.301	1	1	0	0	0.12532	0.20431	0.1132	0.16438	0.1814	0.1452	0.27069	0.097652	0.084611	0.067016	0.2211	0.21676	0.2017	0.071517	0.22932	0.0046869	-2.8688	-3.2271	-3.5583	-3.4104	-3.4562	-3.5917	-3.3646	-3.5625	-3.3563	-3.1667	-3.6312	-3.3417	-3.5708	-3.3896	-3.1458	-3.6208	110.905	78.551	2.824	169.702	-7.123	51.068	133.068	63.674	59.883	-71.191	99.932	-167.437	112.143	74.050	68.710	151.486	0.00049766	0.00034774	0.00014853	1435.4	4.5875e-06	8.2655e-06	1440.9	375.35	2.9751e-06	6.2276e-06	437.19	143.46	128.82	43.06	4.5523e-06	53.301	0.00033264	0.00032229	8.9628e-05	1438.5	3.5571e-06	3.5257e-06	1453	378.05	3.5655e-06	3.5104e-06	431.89	144.92	129.84	43.602	3.5733e-06	53.902	-165.554	-109.600	-78.873	-157.591	-26.080	-77.194	-157.799	-153.112	-54.779	-50.116	-153.342	-149.394	-148.864	-144.068	-22.279	-144.581	-8191	255	
1422.422	1	1	0	0	0.048681	0.088198	0.071032	0.21486	0.23045	0.10952	0.28796	0.21224	0.056601	0.33249	0.15949	0.016724	0.20855	0.099507	0.069785	0.29269	-2.9625	-3.0542	-3.5521	-3.4313	-3.1479	-3.4729	-3.3937	-3.5187	-3.0271	-3.2354	-3.4354	-3.5187	-3.3958	-3.6292	-3.2083	-3.6229	42.786	-157.991	-152.409	-132.965	131.585	-139.822	96.330	134.376	-37.380	-154.085	-147.544	-133.523	-162.767	-25.345	-41.466	75.113	0.00048522	0.0004991	0.00013081	1436	3.0177e-06	6.2618e-06	1440.8	376.14	5.05e-06	6.3672e-07	433.63	143.6	129.2	43.142	4.9445e-06	53.091	0.00033587	0.00032291	9.145e-05	1439.4	3.591e-06	3.5784e-06	1450.8	378.15	3.6411e-06	3.6101e-06	432.1	144.86	130	43.588	3.6639e-06	53.844	-162.761	-113.771	-62.862	-157.529	-53.388	-45.387	-157.883	-153.388	-75.389	39.543	-153.652	-149.561	-148.600	-144.242	-27.080	-144.811	-8191	255	
1422.494	1	1	0	0	0.14534	0.12108	0.22942	0.29716	0.048997	0.188	0.31783	0.33203	0.18337	0.10316	0.33504	0.12836	0.22453	0.2465	0.19331	0.05538	-3.1292	-3.0958	-3.4958	-3.6583	-3.1312	-3.6333	-3.3875	-3.4521	-3.4396	-3.1417	-3.5646	-3.4125	-3.2208	-3.5333	-3.1771	-3.3375	-86.378	98.863	-97.149	154.866	65.625	-145.331	134.187	116.015	-165.204	24.948	155.413	182.706	144.211	83.807	17.554	77.345	0.00049587	0.0003601	0.00015496	1435.8	3.764e-06	7.0783e-06	1443.1	375.99	5.9638e-06	6.4288e-06	432.66	143.17	128.94	43.059	5.9876e-06	53.184	0.00033786	0.00032335	9.0246e-05	1439.6	3.5817e-06	3.5858e-06	1451.5	378.21	3.6023e-06	3.5742e-06	430.86	144.74	129.88	43.546	3.622e-06	53.835	-154.361	-106.728	-83.483	-157.506	-71.856	-56.700	-157.981	-153.200	-52.400	-26.886	-153.610	-149.384	-148.739	-143.880	-44.162	-144.443	-8191	255	
1422.590	1	1	0	0	0.13765	0.40144	0.16734	0.24238	0.13753	0.085528	0.32529	0.26073	0.20554	0.13821	0.18259	0.16603	0.21902	0.064267	0.23158	0.18844	-3.2271	-3.275	-3.4771	-3.5542	-3.4146	-3.4562	-3.35	-3.3896	-3.4896	-3.275	-3.4479	-3.5938	-3.2208	-3.6021	-3.2104	-3.4729	61.526	-141.117	81.417	125.511	-98.323	-57.380	141.599	-58.557	122.472	-55.084	-135.111	139.569	123.731	-125.530	-85.210	-130.874	0.0004768	0.00053251	0.00016556	1433.9	2.559e-06	2.773e-06	1435.8	376.97	5.8629e-06	2.6579e-06	432.37	143.08	128.93	43.203	6.4568e-06	53.136	0.00034332	0.00033092	9.1323e-05	1438.6	3.6155e-06	3.6219e-06	1448.9	378.91	3.6382e-06	3.588e-06	431.77	144.9	129.92	43.662	3.6252e-06	53.912	-159.148	-129.813	-62.389	-157.294	-116.764	-81.475	-157.828	-153.243	-69.465	-81.764	-153.577	-149.433	-148.636	-143.924	-39.345	-144.509	-8191	255	
1422.686	1	1	0	0	0.24801	0.2255	0.21421	0.27382	0.10176	0.074994	0.24683	0.17595	0.20396	0.1643	0.22561	0.11814	0.080379	0.28996	0.18598	0.23911	-3.1021	-3.0729	-3.4792	-3.5542	-3.0479	-3.5667	-3.5062	-3.4042	-3.5896	-3.1063	-3.3729	-3.5812	-3.2042	-3.4854	-3.3375	-3.3937	-125.985	156.017	-8.632	121.892	-117.565	45.307	101.061	-165.052	122.376	139.239	145.385	126.373	57.541	155.035	64.648	-170.164	0.00047607	0.00057061	9.8402e-05	1433.6	4.1966e-06	8.8322e-06	1441.9	376.86	6.0853e-06	4.3961e-06	433.87	143.04	129.48	43.104	5.4376e-06	53.142	0.00034112	0.0003276	9.1609e-05	1439.2	3.6313e-06	3.5903e-06	1449.8	378.58	3.6334e-06	3.5946e-06	430.58	144.78	129.89	43.573	3.6839e-06	53.884	-160.342	-143.465	-56.218	-157.490	-22.028	-18.937	-157.865	-153.285	-60.417	-10.826	-153.486	-149.397	-148.721	-143.957	-27.957	-144.737	-8191	255	
1422.807	1	1	0	0	0.045952	0.064575	0.16236	0.39325	0.21849	0.17944	0.16648	0.11531	0.10003	0.10523	0.26014	0.15823	0.17574	0.22163	0.094092	0.25701	-3.1271	-3.0854	-3.5333	-3.5417	-3.1625	-3.3729	-3.6417	-3.3646	-3.5542	-3.4667	-3.5062	-3.6375	-3.0938	-3.5812	-3.2542	-3.4062	-110.811	26.549	80.353	121.228	-17.116	76.582	50.151	152.917	-84.541	-159.472	-95.848	10.108	-63.991	177.457	-140.966	88.383	0.00051165	0.00045004	0.0001059	1433.1	3.2742e-06	4.4489e-06	1447	375.72	7.5925e-06	3.5888e-06	432.85	143.16	129.2	43.239	6.448e-06	53.267	0.0003511	0.00033201	9.3663e-05	1439.5	3.7122e-06	3.6915e-06	1454.8	377.95	3.7321e-06	3.7058e-06	430.87	144.8	129.95	43.684	3.7458e-06	53.951	-158.948	-130.647	-111.667	-157.459	-123.372	-61.703	-157.823	-153.327	-36.104	-6.546	-153.672	-149.363	-148.659	-143.751	-3.024	-144.723	-8191	255	
1422.903	1	1	0	0	0.15833	0.12433	0.20345	0.39607	0.16804	0.18504	0.20575	0.11525	0.030227	0.088364	0.13554	0.17897	0.33476	0.096682	0.010872	0.22292	-2.8625	-3.3083	-3.2	-3.6479	-3.1917	-3.4833	-3.55	-3.3375	-3.5729	-3.1229	-3.3833	-3.6688	-3.3604	-3.425	-3.55	-3.4083	-164.492	141.794	3.903	156.456	-48.280	99.393	150.269	74.667	-165.883	23.524	116.117	133.113	-155.192	-148.470	37.987	136.571	0.00049907	0.0004086	0.00020245	1432.7	1.5948e-06	5.6453e-06	1445.9	377.85	2.2273e-06	6.818e-06	430.44	142.92	129.02	43.263	4.3121e-06	53.236	0.000354	0.0003357	9.4854e-05	1439.8	3.7755e-06	3.7372e-06	1454.5	379.3	3.7978e-06	3.7302e-06	431.5	144.71	130.07	43.629	3.8208e-06	53.964	-163.322	-52.133	-140.546	-157.439	1.523	-26.228	-157.998	-153.223	-47.903	-43.506	-153.242	-149.273	-148.631	-143.925	4.871	-144.734	-8191	255	
1422.999	1	1	0	0	0.13006	0.13871	0.1532	0.57649	0.043969	0.052504	0.17816	0.19936	0.14293	0.3295	0.20654	0.25133	0.11056	0.081608	0.22068	0.17582	-3.2812	-3.2708	-3.3271	-3.6875	-3.0229	-3.3167	-3.7625	-3.3125	-3.4833	-3.2438	-3.3146	-3.6188	-3.2854	-3.5104	-3.5312	-3.2438	-55.766	171.684	28.085	154.080	-16.803	141.174	159.087	158.197	-11.372	-3.229	113.785	10.941	-93.982	188.593	-72.107	97.340	0.00048908	0.00076298	0.00015308	1434.5	5.2285e-06	4.2504e-06	1442.6	378.01	4.4595e-06	6.8332e-06	433.35	143.08	128.99	43.007	7.5077e-06	53.272	0.00035742	0.00034333	9.6155e-05	1439.9	3.8221e-06	3.7709e-06	1453.7	378.93	3.8382e-06	3.8356e-06	431.05	144.81	130.01	43.628	3.8418e-06	53.945	-161.581	-28.563	-121.201	-157.365	-37.053	29.209	-157.708	-153.290	-60.224	-58.065	-153.407	-149.434	-148.619	-144.168	-11.436	-144.451	-8191	255	
1423.095	1	1	0	0	0.18673	0.27063	0.195	0.22001	0.31534	0.21926	0.33223	0.29578	0.19363	0.17736	0.14497	0.22523	0.3066	0.12623	0.13409	0.06201	-3.1125	-3.3063	-3.1896	-3.6333	-3.3063	-3.4521	-3.8729	-3.3104	-3.5167	-3.3292	-3.2521	-3.5354	-3.2729	-3.4708	-3.4375	-3.1792	-32.460	-154.865	-72.469	125.842	-119.087	-48.790	106.491	81.424	33.203	49.188	98.947	97.077	156.368	90.065	-153.733	-92.444	0.00047793	0.00062411	0.00010695	1433.8	4.399e-06	1.8514e-06	1443.2	376.56	5.2208e-06	4.7106e-06	435.04	142.73	128.67	42.953	6.0042e-06	53.35	0.00036194	0.000348	9.5968e-05	1439.6	3.8807e-06	3.831e-06	1455.2	378.89	3.8885e-06	3.8708e-06	432.35	144.72	129.83	43.535	3.8658e-06	53.937	-158.971	-82.875	-31.538	-157.449	-62.895	-67.347	-157.878	-153.231	-71.221	-14.055	-153.134	-149.534	-148.680	-143.890	-18.053	-144.308	-8191	255	
1423.191	1	1	0	0	0.22741	0.07886	0.011299	0.090107	0.12657	0.093992	0.047489	0.3816	0.070635	0.049776	0.052425	0.14059	0.28859	0.244	0.13122	0.15229	-3.0375	-3.3354	-3.0354	-3.7313	-3.4604	-3.2146	-3.725	-3.4167	-3.3812	-3.4771	-3.3229	-3.6667	-3.3375	-3.4604	-3.525	-3.3771	117.158	-36.015	-16.908	-162.922	-88.014	-122.784	179.056	120.530	-56.631	-104.236	141.979	-166.027	-157.583	153.549	-130.123	72.652	0.00047484	0.00021769	0.00022506	1436.1	3.9731e-06	6.1319e-06	1445	376.58	6.4082e-06	8.488e-06	430.99	143.55	128.67	43.249	2.747e-06	53.45	0.0003616	0.00035041	9.7181e-05	1441.7	3.8712e-06	3.811e-06	1454.2	378.91	3.8564e-06	3.7948e-06	430.61	144.89	129.88	43.597	3.8128e-06	53.969	-161.896	-157.360	-67.523	-157.457	-39.177	0.478	-157.997	-153.168	-27.164	-60.077	-153.573	-149.448	-148.952	-144.010	-42.545	-144.897	-8191	255	
1423.287	1	1	0	0	0.072274	0.28422	0.23748	0.19808	0.22991	0.11783	0.29942	0.2196	0.32509	0.26811	0.21945	0.016558	0.14945	0.22239	0.013553	0.23099	-2.9313	-3.4313	-3.2021	-3.6813	-3.3854	-3.3875	-3.4938	-3.3187	-3.55	-3.4083	-3.3563	-3.4792	-3.4479	-3.1875	-3.5396	-3.4292	-81.247	-58.241	12.982	-140.406	-7.432	1.412	101.200	-46.858	-116.471	-129.437	-161.102	89.251	18.561	-138.313	-17.922	104.615	0.0005067	0.00062128	0.00010332	1434	5.1684e-06	4.9306e-06	1443.5	377.16	3.6242e-06	2.8366e-06	432.02	142.79	128.63	43.039	6.0971e-06	53.031	0.0003559	0.00035207	9.6432e-05	1438.7	3.8352e-06	3.8157e-06	1452	379.28	3.8639e-06	3.8363e-06	431.79	144.62	129.95	43.567	3.7943e-06	53.844	-160.242	-87.811	-90.204	-157.271	0.695	-12.865	-157.847	-153.268	-67.977	-47.331	-153.324	-149.237	-148.862	-144.039	-22.635	-144.494	-8191	255	
1423.406	1	1	0	0	0.14915	0.21154	0.13944	0.17354	0.20892	0.26077	0.2417	0.39036	0.079631	0.1748	0.012885	0.085871	0.011525	0.13867	0.17982	0.028204	-2.9708	-3.7438	-3.2271	-3.5521	-3.1417	-3.3146	-3.6813	-3.2667	-3.3125	-3.7125	-3.0583	-3.4792	-3.4479	-3.3104	-3.3417	-3.4625	184.037	-66.797	-109.050	169.049	17.579	7.979	146.959	83.130	-111.150	-109.718	-46.843	95.146	40.122	-145.760	165.430	109.765	0.00048156	0.00067238	8.1849e-05	1435.4	3.0349e-06	6.8463e-06	1444.8	375.64	7.6421e-06	6.2229e-06	429.68	142.99	128.6	43.197	4.7154e-06	53.192	0.00035858	0.00034474	9.4664e-05	1441.3	3.7337e-06	3.7003e-06	1452.8	378.43	3.7875e-06	3.7409e-06	431.53	144.73	129.68	43.635	3.7697e-06	53.921	-166.833	-92.333	-111.410	-157.531	-78.811	-37.251	-157.822	-153.271	-71.726	-38.468	-153.390	-149.501	-149.115	-143.970	12.296	-144.511	-8191	255	
1423.501	1	1	0	0	0.10282	0.047364	0.099711	0.24614	0.35422	0.067232	0.25427	0.15903	0.10029	0.032932	0.13848	0.033174	0.28647	0.39837	0.09587	0.2218	-2.7188	-3.4479	-3.2083	-3.6125	-3.4917	-3.1625	-3.8375	-3.3396	-3.0062	-3.425	-3.1229	-3.5646	-3.4292	-3.3271	-3.5312	-3.5396	139.761	-139.399	23.921	177.594	85.991	53.276	115.078	142.122	-162.591	46.459	-151.465	76.563	87.971	159.237	-116.889	-167.035	0.00051243	0.00056517	0.00010283	1435.8	3.6892e-06	3.6213e-06	1447.1	376.29	1.7096e-06	3.8659e-06	433.52	142.9	128.58	43.163	5.2441e-06	53.254	0.00035694	0.00034299	9.5329e-05	1439.6	3.7693e-06	3.7666e-06	1455.8	378.56	3.7588e-06	3.7815e-06	431.57	144.79	129.83	43.628	3.7325e-06	53.969	-160.909	-110.995	-55.160	-157.416	-101.776	37.006	-157.767	-153.377	-105.388	-116.769	-153.770	-149.285	-148.900	-143.921	-1.890	-144.495	-8191	255	
1423.597	1	1	0	0	0.10368	0.12989	0.18068	0.25239	0.23348	0.034226	0.16137	0.17762	0.26757	0.23711	0.1948	0.086952	0.18169	0.29468	0.093985	0.15858	-2.7292	-3.4562	-3.2125	-3.4854	-3.4167	-3.1958	-3.5125	-3.4979	-3.4021	-3.4	-3.4917	-3.3375	-3.6604	-3.225	-3.6917	-3.3708	-26.598	-103.395	-58.887	147.024	-30.863	150.805	107.442	48.507	-138.857	172.538	-70.118	-5.114	-144.875	-139.919	15.448	172.831	0.00052762	0.00061457	0.00011864	1436.2	5.5146e-06	5.4997e-06	1439.9	375.68	2.7718e-06	7.1012e-06	431.66	143.41	129.11	43.251	6.618e-06	53.442	0.00035459	0.0003428	9.6326e-05	1441.3	3.8041e-06	3.777e-06	1455.3	378.61	3.7729e-06	3.7464e-06	431.45	145.24	130.17	43.741	3.8033e-06	54.083	-163.101	-85.750	-101.792	-157.279	0.246	-23.527	-157.664	-153.187	-59.163	-45.366	-153.428	-149.396	-148.753	-143.845	-34.221	-144.772	-8191	255	
1423.718	1	1	0	0	0.12532	0.095491	0.14039	0.13707	0.19225	0.17848	0.40158	0.17851	0.26227	0.084551	0.061242	0.16449	0.38568	0.0448	0.1439	0.12706	-2.8812	-3.4833	-3.2771	-3.5958	-3.3833	-3.2438	-3.6042	-3.6542	-3.2646	-3.625	-3.2958	-3.525	-3.5208	-3.3604	-3.4896	-3.7479	96.264	131.135	-163.728	142.320	-72.420	0.940	154.556	142.284	-83.316	-45.588	-146.165	101.674	167.818	165.184	60.546	-157.209	0.00049113	0.00016996	0.00012554	1436.7	4.2747e-06	3.1342e-06	1444.6	376.86	5.2328e-06	4.9353e-06	434.61	143.2	129.13	43.295	6.4224e-06	53.045	0.00035904	0.00034618	9.6244e-05	1441.6	3.8401e-06	3.806e-06	1454.3	379	3.8444e-06	3.8579e-06	431.7	144.86	130	43.642	3.9095e-06	54.057	-160.200	-36.474	-98.890	-157.572	-51.355	-30.643	-157.943	-153.292	-40.473	-77.010	-153.235	-149.135	-148.709	-143.925	-30.836	-144.818	-8191	255	
1423.789	1	1	0	0	0.21663	0.072723	0.13843	0.16721	0.19298	0.08397	0.14782	0.13508	0.10414	0.14812	0.26806	0.19967	0.068159	0.12476	0.13179	0.16051	-2.6625	-3.3896	-3.1479	-3.5354	-3.5187	-3.1604	-3.6792	-3.4625	-3.1583	-3.6333	-3.3271	-3.425	-3.5479	-3.3104	-3.1854	-3.7	-68.218	-109.666	36.213	181.643	-118.912	31.311	-2.684	100.153	-99.263	73.737	-141.610	26.000	174.301	-120.396	-154.597	138.154	0.00047341	0.00025008	8.3438e-05	1436.6	5.4665e-06	4.3258e-06	1450.1	377.04	2.7774e-06	4.805e-06	434.28	142.94	128.4	43.099	2.6349e-06	53.09	0.0003709	0.00036119	0.00010134	1443.4	4.0635e-06	4.0898e-06	1458.8	380.07	4.1599e-06	4.1985e-06	433.72	145.01	130.1	43.699	4.2119e-06	54.022	-159.819	-130.783	-83.053	-157.564	-12.087	-25.523	-157.739	-153.311	-82.307	14.238	-153.530	-149.426	-148.874	-143.959	-73.504	-144.784	-8191	255	
1423.885	1	1	0	0	0.12748	0.094295	0.23292	0.13233	0.13751	0.052997	0.18684	0.27416	0.13391	0.20915	0.089074	0.029483	0.26248	0.12913	0.15413	0.22476	-2.5875	-3.5167	-3.2104	-3.4396	-3.5104	-3.0833	-3.6354	-3.625	-3.2812	-3.4979	-3.6167	-3.2	-3.4292	-3.3812	-3.3021	-3.6604	-22.059	-6.949	120.948	152.028	-115.815	-104.573	72.003	128.247	-31.816	144.558	114.821	137.392	175.933	15.064	-129.379	117.913	0.0005272	0.00025534	0.00019005	1437.9	5.1431e-06	3.6226e-06	1458.3	377.38	3.9265e-06	2.4036e-06	435.45	143.4	129.12	43.146	2.327e-06	53.213	0.00039682	0.00038776	0.00010811	1446	4.2722e-06	4.2328e-06	1466.4	379.82	4.2708e-06	4.249e-06	434.24	145.12	130.44	43.746	4.2514e-06	54.082	-157.861	-88.306	-111.628	-157.226	-46.399	-49.982	-157.809	-153.211	-71.337	149.136	-153.542	-149.218	-148.779	-144.084	-8.135	-144.814	-8191	255	
1423.981	1	1	0	0	0.48593	0.34259	0.18454	0.14115	0.13547	0.23744	0.26745	0.22918	0.18514	0.14817	0.14311	0.13039	0.14754	0.30312	0.17349	0.16353	-2.5062	-3.3979	-3.3521	-3.1917	-3.5438	-3.2208	-3.5583	-3.55	-3.1958	-3.4562	-3.4188	-3.3063	-3.6417	-3.4625	-3.3	-3.7167	75.854	19.568	161.275	106.694	-104.804	104.885	100.002	122.667	117.200	184.241	-81.857	142.357	-39.561	-123.907	-137.929	68.071	0.00041739	0.00031261	6.4325e-05	1438.7	2.2173e-06	7.983e-07	1456.8	376.44	3.5684e-06	2.6553e-06	434.62	143.11	128.74	43.099	4.1335e-06	53.311	0.00039676	0.00038478	0.00010783	1446.8	4.2914e-06	4.2422e-06	1468.4	380.07	4.2371e-06	4.2556e-06	434.6	145.31	130.36	43.741	4.2583e-06	54.104	-161.887	-64.820	-164.100	-157.490	-58.815	157.082	-157.569	-153.458	-62.408	-54.325	-153.396	-149.473	-148.785	-144.081	-42.774	-144.502	-8191	255	
1424.102	1	1	0	0	0.021442	0.11364	0.10233	0.18923	0.11691	0.15842	0.23245	0.34637	0.075906	0.22461	0.23263	0.037613	0.2076	0.27669	0.10465	0.31778	-2.7854	-3.3875	-3.3021	-3.4562	-3.5771	-3.3292	-3.2917	-3.5854	-3.225	-3.6521	-3.6146	-3.2396	-3.5563	-3.1833	-3.3521	-3.6521	34.488	87.990	147.117	102.749	158.357	-144.132	119.130	-167.394	-145.865	-41.887	144.411	-93.956	-33.684	118.949	17.419	139.949	0.00048944	0.00052653	3.3701e-05	1440.5	4.4341e-06	5.3454e-06	1459.7	376.66	6.706e-06	2.4873e-06	432.86	143.43	129.17	43.233	6.3302e-06	53.135	0.00039611	0.00038848	0.00010829	1448.1	4.3274e-06	4.3024e-06	1470	380.03	4.3245e-06	4.3558e-06	434.49	145.28	130.51	43.763	4.3771e-06	54.191	-160.448	-72.053	-153.899	-157.575	-66.734	-14.804	-157.894	-153.357	-38.037	187.601	-153.257	-149.323	-148.638	-144.110	5.426	-144.727	-8191	255	
1424.198	1	1	0	0	0.29193	0.058574	0.075965	0.22478	0.11984	0.2471	0.22209	0.22141	0.14746	0.27361	0.13467	0.16429	0.11741	0.083448	0.32981	0.041276	-2.7313	-3.2333	-3.4708	-3.3479	-3.5	-3.4854	-3.4792	-3.6646	-3.275	-3.3792	-3.4229	-3.2792	-3.4896	-3.525	-3.0708	-3.6417	-170.459	-4.199	108.631	154.425	96.923	-33.384	66.746	103.490	-16.375	-160.229	-161.607	-166.254	-98.126	-167.821	-112.773	52.059	0.0004564	0.00048288	0.00017882	1440.1	6.8163e-06	3.5543e-06	1456.4	377.18	3.8157e-06	5.4426e-06	434.64	142.68	129.33	43.099	4.1387e-06	53.33	0.00040647	0.00039833	0.00011049	1449.8	4.3951e-06	4.3541e-06	1469.8	380.15	4.3192e-06	4.2994e-06	434.21	145.11	130.59	43.791	4.3675e-06	54.147	-160.407	-119.786	-100.791	-157.442	-70.164	-13.029	-157.892	-153.117	-23.509	-85.564	-153.632	-149.467	-148.933	-143.931	8.583	-144.781	-8191	255	
1424.294	1	1	0	0	0.1094	0.27008	0.038174	0.26527	0.15466	0.16246	0.11927	0.21284	0.042266	0.15803	0.083088	0.19444	0.012741	0.12586	0.16176	0.10041	-2.6792	-3.1667	-3.4854	-3.1292	-3.3458	-3.3333	-3.2729	-3.5542	-3.3542	-3.4125	-3.65	-3.3187	-3.4771	-3.4125	-3.0625	-3.5917	67.418	99.878	10.177	144.481	-58.985	-128.429	113.958	124.014	-47.476	80.726	-167.962	118.201	85.409	55.163	61.747	-163.504	0.00042537	0.00048749	0.00019077	1442.5	5.1405e-06	7.8273e-06	1457.4	378.62	5.5919e-06	2.5251e-06	434.3	143.5	128.94	43.239	2.0918e-06	53.297	0.0004044	0.0003927	0.00010919	1449.4	4.3058e-06	4.3361e-06	1467.8	381.07	4.3328e-06	4.3224e-06	434.6	145.36	130.65	43.776	4.3164e-06	54.143	-161.850	-85.627	-70.025	-157.407	-77.646	-13.851	-157.800	-153.230	-131.934	-32.845	-153.595	-149.146	-148.608	-144.001	-56.135	-144.729	-8191	255	
1424.366	1	1	0	0	0.17519	0.09935	0.24147	0.056144	0.020034	0.19204	0.23751	0.24028	0.10685	0.10074	0.12035	0.16566	0.073085	0.40213	0.1493	0.10174	-2.7604	-3.3167	-3.5083	-3.3542	-3.4854	-3.4104	-3.3708	-3.5	-3.1417	-3.0958	-3.5312	-3.2479	-3.5042	-3.4417	-3.2458	-3.5312	-141.970	-18.222	-99.910	162.391	-8.530	-150.043	107.277	95.376	105.211	72.216	-170.759	59.808	113.078	160.768	96.275	55.261	0.00050732	0.00094101	6.2518e-05	1441.1	5.4132e-06	3.8965e-06	1452.4	378.26	2.3239e-06	4.4435e-06	432.95	143.37	128.88	43.359	5.6306e-06	53.221	0.00040105	0.00039226	0.00010815	1448	4.3207e-06	4.2706e-06	1466.4	380.39	4.3464e-06	4.2867e-06	434.24	145.41	130.55	43.805	4.4097e-06	54.18	-155.065	-73.745	-69.594	-157.433	-67.867	-108.716	-157.825	-153.177	29.224	-125.739	-153.202	-149.180	-148.720	-144.023	-49.721	-144.468	-8191	255	
1424.487	1	1	0	0	0.024551	0.28199	0.13739	0.41645	0.17783	0.29342	0.24229	0.096557	0.078985	0.064402	0.13699	0.36646	0.11109	0.01451	0.13734	0.093053	-2.8729	-3.1979	-3.4437	-3.5896	-3.3667	-3.5396	-3.5208	-3.5875	-3.2833	-3.2167	-3.5396	-3.4479	-3.3354	-3.7229	-3.1542	-3.4	-36.966	156.396	178.151	153.337	-65.725	42.649	116.940	186.708	-82.733	162.042	160.268	99.333	149.740	179.023	120.952	-14.083	0.00050812	0.00045112	8.38e-05	1442.2	3.2535e-06	3.9531e-06	1454.8	378.28	5.4559e-06	3.0964e-06	434.1	142.99	128.59	43.177	8.3434e-06	53.195	0.00040717	0.00039988	0.00011242	1450.2	4.4381e-06	4.3862e-06	1467.4	380.34	4.3992e-06	4.371e-06	434.79	145.22	130.36	43.78	4.3768e-06	54.124	-155.799	-123.778	-68.000	-157.473	-66.213	-37.717	-157.801	-153.090	-64.347	-30.707	-153.502	-149.480	-148.857	-144.175	-39.534	-144.686	-8191	255	
1424.581	1	1	0	0	0.27359	0.17964	0.24868	0.2221	0.12553	0.12668	0.38044	0.318	0.091375	0.12894	0.094358	0.15108	0.23305	0.12552	0.09466	0.098943	-2.8917	-3.0354	-3.3958	-3.4521	-3.4437	-3.5792	-3.4813	-3.4479	-3.275	-3.1188	-3.5958	-3.5021	-3.4729	-3.6771	-3.2792	-3.5021	-113.027	185.826	26.615	135.765	34.602	-114.389	49.861	127.771	-49.882	-164.870	114.356	38.904	140.141	118.916	11.720	25.503	0.00047582	0.00030164	0.00017938	1442.5	1.0089e-05	4.2067e-06	1454.7	377.5	6.5681e-06	5.7309e-06	433.4	143.91	128.55	43.002	3.2689e-06	53.093	0.0004102	0.00040077	0.000109	1448.7	4.3375e-06	4.3535e-06	1467.8	380.04	4.3848e-06	4.3426e-06	434.18	145.44	130.32	43.69	4.4245e-06	54.038	-154.805	-61.020	-114.155	-157.519	-51.377	-160.333	-157.607	-153.215	-77.952	-52.752	-153.547	-149.296	-148.807	-143.833	25.652	-144.653	-8191	255	
1424.679	1	1	0	0	0.23277	0.11258	0.075408	0.40344	0.072142	0.32191	0.17205	0.24723	0.28376	0.14355	0.30064	0.1461	0.17984	0.052338	0.12105	0.14402	-2.7625	-3.1813	-3.625	-3.4271	-3.3896	-3.5375	-3.3271	-3.4354	-3.4854	-3.0625	-3.4875	-3.2938	-3.3375	-3.6063	-3.4542	-3.4938	-135.989	-164.217	-87.622	152.071	-130.671	-135.690	126.637	172.921	-109.891	-168.063	139.361	183.732	-151.357	182.314	8.481	115.236	0.0005457	0.00026588	7.3131e-05	1441.1	7.1382e-06	4.3761e-06	1451.5	377.09	7.0285e-06	3.6043e-06	435.59	143.17	128.66	43.212	4.1577e-06	52.989	0.00040721	0.00040291	0.00011186	1447.1	4.4099e-06	4.4245e-06	1466.7	380.37	4.457e-06	4.4244e-06	435.17	145.27	130.36	43.801	4.4483e-06	54.049	-152.729	-77.718	-70.358	-157.487	-72.936	-67.310	-158.000	-153.152	-43.829	-50.127	-153.552	-149.352	-148.706	-144.013	-62.115	-144.440	-8191	255	
1424.798	1	1	0	0	0.051587	0.10306	0.0474	0.20825	0.19388	0.27704	0.19741	0.23562	0.077322	0.13598	0.11129	0.20312	0.11496	0.20372	0.16804	0.17217	-3.1083	-3.1333	-3.3375	-3.5	-3.3875	-3.6521	-3.3958	-3.4021	-3.5312	-3.2438	-3.5312	-3.5646	-3.1771	-3.7146	-3.2812	-3.2104	-87.608	91.474	50.601	105.000	166.259	-96.572	164.956	156.014	-3.067	69.598	-44.849	-167.530	156.284	120.284	-51.950	-138.403	0.00049264	0.00035102	7.2403e-05	1440.6	5.7359e-06	7.4599e-06	1452.4	378.86	6.5118e-06	4.3481e-06	433.45	143.44	128.57	43.207	5.0044e-06	53.143	0.00041177	0.00039953	0.00011129	1448.3	4.4154e-06	4.4413e-06	1466.2	380.63	4.4574e-06	4.4419e-06	435.25	145.5	130.35	43.836	4.5379e-06	54.084	-162.833	-35.695	-156.958	-157.463	-103.776	-35.225	-157.740	-153.187	-56.284	-63.421	-153.606	-149.238	-148.547	-143.755	-59.804	-144.675	-8191	255	
1424.894	1	1	0	0	0.28156	0.27974	0.23023	0.047072	0.10414	0.1733	0.14114	0.2034	0.24918	0.081552	0.20084	0.15617	0.078334	0.27218	0.36445	0.28106	-3.0083	-3.1833	-3.2833	-3.5583	-2.9604	-3.4833	-3.5708	-3.3479	-3.6396	-3.4313	-3.4333	-3.5104	-3.2	-3.7188	-3.4813	-3.4708	-118.066	133.095	110.271	5.735	136.913	59.862	133.350	137.798	-36.335	188.455	-68.389	-130.130	-23.209	-148.806	88.552	-155.468	0.00051182	0.00053647	0.00011588	1438.2	3.1817e-06	3.7907e-06	1454.5	377.86	7.2326e-06	1.0339e-05	432.53	143.05	129.19	43.096	8.6887e-06	53.129	0.00042094	0.00041398	0.00011569	1447.6	4.5492e-06	4.5821e-06	1468.5	380.77	4.5298e-06	4.5646e-06	434.4	145.12	130.62	43.807	4.5393e-06	54.166	-158.755	-113.957	-111.971	-157.398	-73.083	-55.013	-157.875	-153.091	-42.084	-35.727	-153.526	-149.428	-148.839	-143.885	-58.305	-144.649	-8191	255	
1424.990	1	1	0	0	0.21708	0.033832	0.052382	0.1788	0.3528	0.2545	0.40448	0.33078	0.12677	0.17845	0.1168	0.10444	0.047822	0.20976	0.27829	0.15905	-3	-3.2812	-3.2979	-3.8583	-3.2458	-3.6458	-3.5042	-3.225	-3.5875	-3.125	-3.4479	-3.6562	-3.4125	-3.5	-3.3563	-3.3271	-7.497	-138.792	-169.234	100.156	-147.361	180.586	127.666	115.465	-167.010	-160.843	80.113	58.253	-123.925	142.493	135.656	145.227	0.00047137	0.00027978	5.277e-05	1436.9	7.203e-06	7.6589e-06	1456.9	377.44	4.6026e-06	3.7856e-06	436.33	143.35	128.63	43.239	5.803e-06	53.235	0.00042022	0.00041858	0.00011678	1447.6	4.6432e-06	4.6303e-06	1467.7	380.9	4.6284e-06	4.648e-06	435.82	145.54	130.6	43.805	4.6251e-06	54.182	-160.364	-102.449	84.593	-157.539	-40.529	-26.627	-157.644	-153.282	-8.740	-119.831	-153.696	-149.454	-148.753	-144.023	21.716	-144.469	-8191	255	
1425.086	1	1	0	0	0.20858	0.16968	0.086804	0.16749	0.18299	0.19509	0.14372	0.068206	0.14363	0.12261	0.12632	0.24304	0.079058	0.039561	0.19865	0.056652	-3.1063	-3.3479	-3.2042	-3.775	-3.2	-3.475	-3.6646	-3.2646	-3.5938	-3.1437	-3.2417	-3.7792	-3.3021	-3.6604	-3.4521	-3.3625	-165.615	-87.397	92.223	123.742	41.183	13.280	-26.781	172.974	-148.046	116.723	165.116	138.024	-89.141	175.047	-79.793	29.563	0.00048448	0.00073088	9.6493e-05	1438.3	6.7497e-06	6.7696e-06	1455.4	377.68	2.8391e-06	2.6045e-06	431.75	143.15	129.87	43.063	2.3405e-06	53.082	0.00042718	0.00041789	0.00011646	1449	4.6666e-06	4.5553e-06	1468.4	380.86	4.5963e-06	4.6171e-06	435.7	145.41	131.01	43.792	4.6489e-06	54.206	-158.762	-49.728	-61.067	-157.513	-75.039	-56.013	-157.923	-153.190	-75.676	-80.431	-153.573	-149.565	-149.040	-143.929	-76.655	-144.834	-8191	255	
1425.182	1	1	0	0	0.28039	0.065749	0.14814	0.34734	0.15634	0.15772	0.41074	0.16401	0.1996	0.12211	0.1632	0.14205	0.14211	0.21265	0.074556	0.27227	-3.1104	-3.35	-3.2062	-3.8458	-3.0938	-3.5667	-3.4896	-3.2604	-3.3708	-3.3896	-3.2812	-3.6188	-3.3083	-3.4813	-3.5333	-3.1708	71.422	-20.774	-45.644	156.136	-141.708	-99.304	90.976	55.447	187.796	51.058	-67.704	131.220	154.500	142.831	166.100	71.413	0.0004868	0.00070845	0.00018417	1441.8	2.0041e-06	7.1527e-06	1454.4	377.78	5.0028e-06	7.5935e-06	431.22	143.36	129.11	43.11	8.5404e-07	53.267	0.00043187	0.0004226	0.00011819	1449	4.6615e-06	4.6716e-06	1467.7	380.88	4.6446e-06	4.6199e-06	434.52	145.49	130.72	43.879	4.6815e-06	54.152	-160.351	-107.969	-110.324	-157.471	-44.476	-52.372	-157.744	-152.862	-130.909	4.155	-153.328	-149.551	-148.552	-143.850	12.227	-144.574	-8191	255	
1425.279	1	1	0	0	0.10549	0.03737	0.17487	0.26916	0.037083	0.026514	0.077739	0.17661	0.088933	0.15021	0.22261	0.23129	0.13279	0.25205	0.15998	0.091928	-3.1688	-3.2146	-3.1854	-3.7375	-3.3104	-3.2167	-3.7146	-3.2271	-3.5208	-3.4688	-3.4771	-3.6542	-3.4083	-3.2771	-3.5396	-3.1771	62.711	-156.132	-79.826	150.647	75.310	-84.651	84.056	98.797	58.532	107.702	86.546	-160.728	154.708	-167.922	89.464	98.324	0.00050518	0.00065065	0.00015027	1438.4	7.7091e-06	6.4307e-06	1451.5	377.36	5.9126e-06	3.8207e-06	433.5	143.34	128.98	43.136	4.7581e-06	53.167	0.00042877	0.00041861	0.00011667	1448.5	4.6037e-06	4.5815e-06	1467.1	381.08	4.6384e-06	4.575e-06	434.86	145.61	130.57	43.824	4.6103e-06	54.192	-166.107	-75.667	-100.730	-157.432	-50.795	-76.215	-157.773	-153.210	-45.211	18.038	-153.375	-149.387	-148.813	-143.944	-63.203	-144.686	-8191	255	
1425.375	1	1	0	0	0.22314	0.019753	0.21354	0.12712	0.15899	0.12461	0.32303	0.23021	0.092865	0.16499	0.13606	0.49735	0.078856	0.079121	0.16101	0.077711	-2.8937	-3.1958	-3.2792	-3.6542	-3.3479	-3.2958	-3.6333	-3.2042	-3.4417	-3.5812	-3.2188	-3.6208	-3.4479	-3.3271	-3.5604	-3.3354	23.855	-8.746	148.665	142.931	153.801	48.781	120.509	126.657	-33.782	-134.640	96.498	98.652	-157.699	113.115	-154.256	128.333	0.00052413	0.0002052	4.1927e-05	1435.3	2.7215e-06	6.0885e-06	1452.1	377.35	3.854e-06	2.7145e-06	433.58	142.77	128.19	43.064	4.8185e-06	53.202	0.00042761	0.00042005	0.00011725	1446.9	4.5911e-06	4.5948e-06	1465.1	380.44	4.6905e-06	4.6352e-06	435.05	145.22	130.31	43.783	4.6738e-06	54.22	-160.401	-97.412	-4.165	-157.488	-51.408	-34.098	-157.702	-153.043	-56.836	-7.493	-153.576	-149.434	-149.012	-143.915	-98.823	-144.668	-8191	255	
1425.495	1	1	0	0	0.028336	0.12447	0.1014	0.31691	0.26077	0.033307	0.33128	0.031567	0.099938	0.072396	0.15239	0.060257	0.18822	0.076486	0.25773	0.18381	-3.0021	-3.3396	-3.15	-3.7313	-3.4062	-3.1604	-3.7979	-3.2958	-3.2583	-3.3542	-3.3167	-3.3625	-3.4625	-3.0729	-3.5979	-3.2375	144.406	36.480	-164.444	153.158	-87.373	-11.718	104.902	86.469	114.345	163.368	-170.380	176.434	173.241	99.807	-28.468	119.947	0.00051302	0.00078964	7.4462e-05	1437.6	6.0347e-06	8.7374e-06	1451	378.81	4.0549e-06	4.7561e-06	431.54	143.17	128.59	42.915	7.9434e-06	53.188	0.00043981	0.00042705	0.0001194	1446	4.7133e-06	4.7468e-06	1465.7	381.18	4.7499e-06	4.752e-06	435.56	145.28	130.55	43.747	4.7837e-06	54.186	-165.028	-81.701	184.799	-157.600	-65.642	7.261	-157.847	-153.016	-33.968	-102.319	-153.740	-149.313	-148.768	-143.922	-19.534	-144.685	-8191	255	
1425.590	1	1	0	0	0.25908	0.14885	0.096992	0.14962	0.037114	0.20415	0.13209	0.075005	0.22801	0.11326	0.06728	0.099316	0.10007	0.093404	0.15875	0.055934	-2.8479	-3.4583	-3.1479	-3.7458	-3.2125	-3.3604	-3.6437	-3.4271	-3.2313	-3.5875	-3.4104	-3.4188	-3.5	-3.2292	-3.7062	-3.3937	87.370	-147.633	-126.285	-171.085	-117.397	-69.284	-125.509	126.194	111.093	-86.092	26.729	187.769	89.565	149.262	-117.281	161.995	0.00044962	0.0006204	5.3078e-05	1437.3	5.1356e-06	7.7089e-06	1452	377.52	6.7629e-06	8.0244e-06	433	143.05	128.52	43.044	7.8861e-06	52.879	0.00044042	0.00043383	0.00012244	1445.4	4.8512e-06	4.8431e-06	1465.4	380.56	4.8158e-06	4.8247e-06	435.35	145.58	130.42	43.813	4.8254e-06	54.097	-158.611	-129.264	-166.409	-157.400	-28.291	-12.234	-157.780	-153.178	-23.397	-66.165	-153.607	-149.311	-148.561	-143.964	-16.014	-144.491	-8191	255	
1425.663	1	1	0	0	0.12915	0.11582	0.12063	0.12476	0.088186	0.28554	0.12917	0.1404	0.1785	0.10511	0.18965	0.26075	0.074484	0.17365	0.045326	0.26046	-2.9083	-3.2396	-3.2208	-3.5062	-3.4208	-3.0396	-3.8021	-3.2	-3.2125	-3.5896	-3.2042	-3.5458	-3.3375	-3.3167	-3.6458	-3.3771	134.807	-170.028	-20.171	95.510	-30.574	5.078	180.212	182.317	6.379	9.943	91.835	170.583	56.468	-94.622	62.277	100.083	0.0005435	0.00071194	0.00011668	1437	2.0625e-06	4.7247e-06	1453.8	376.5	4.7513e-06	4.642e-06	432.01	143.3	128.29	43.062	7.2864e-06	53.231	0.00044686	0.00043676	0.00012259	1446.3	4.7963e-06	4.8127e-06	1465.8	380.67	4.8339e-06	4.8556e-06	435.88	145.57	130.48	43.781	4.9192e-06	54.136	-164.650	-79.914	-96.807	-157.509	-19.959	-25.876	-157.694	-153.097	26.177	-72.126	-153.537	-149.338	-148.958	-144.077	-6.349	-144.888	-8191	255	
1425.759	1	1	0	0	0.32994	0.094216	0.14546	0.29282	0.068622	0.11957	0.23382	0.037081	0.27844	0.19494	0.20752	0.2018	0.27143	0.081986	0.23315	0.070725	-2.7604	-3.4771	-3.1854	-3.5917	-3.5646	-3.1875	-3.7667	-3.6063	-3.2062	-3.4708	-3.425	-3.5896	-3.4292	-3.3875	-3.5021	-3.6396	-52.898	114.974	86.621	167.908	139.104	-47.799	100.164	45.571	-34.566	19.850	166.535	-100.143	176.514	-45.506	-65.729	100.232	0.00047464	0.00037073	0.00019152	1435.6	4.3809e-06	3.0152e-06	1455.2	377.24	5.6769e-06	5.0927e-06	433.24	143.84	128.86	42.975	4.8091e-06	52.857	0.00044994	0.00044758	0.00012348	1446.1	4.8536e-06	4.8969e-06	1466.1	380.91	4.9436e-06	4.893e-06	435.42	145.53	130.73	43.799	4.96e-06	54.094	-156.483	-117.695	-118.862	-157.600	-81.871	-141.111	-157.706	-153.200	-41.245	-87.325	-153.559	-149.498	-148.833	-143.872	-3.937	-144.679	-8191	255	
1425.878	1	1	0	0	0.12661	0.071285	0.014254	0.1722	0.19957	0.062773	0.17671	0.19479	0.26096	0.13552	0.1795	0.013076	0.12982	0.069007	0.33832	0.17119	-2.7396	-3.5187	-3.3521	-3.4354	-3.4562	-3.2146	-3.7042	-3.3104	-3.2604	-3.6271	-3.3333	-3.4271	-3.4729	-3.2958	-3.2583	-3.6021	135.350	178.994	12.113	138.959	-103.462	57.193	128.101	134.427	59.835	-108.958	19.884	127.952	-100.915	131.679	180.366	-78.109	0.00049634	0.00048112	7.8451e-05	1433.7	5.9408e-06	5.697e-07	1448.5	375.86	6.6783e-06	6.0919e-06	435.5	142.78	129.14	43.115	5.9619e-06	53.153	0.00045327	0.00044491	0.00012451	1445	4.9806e-06	4.8829e-06	1465.9	380.5	4.9482e-06	4.9469e-06	436.1	145.5	130.91	43.837	4.9648e-06	54.12	-163.380	-118.769	-5.050	-157.492	-88.493	-169.942	-157.748	-153.125	-91.296	-42.150	-153.409	-149.290	-148.941	-143.903	3.872	-144.706	-8191	255	
1425.974	1	1	0	0	0.14151	0.13514	0.19924	0.17106	0.02186	0.20242	0.17648	0.24868	0.26619	0.044587	0.12931	0.17769	0.14253	0.054065	0.075732	0.21924	-2.7188	-3.4792	-3.1833	-3.2104	-3.6167	-3.2792	-3.7875	-3.5438	-3.0146	-3.6896	-3.35	-3.3063	-3.5896	-3.225	-3.2292	-3.5438	12.305	-163.879	-25.008	71.767	-159.931	-131.443	55.901	174.409	2.095	4.014	-92.666	-161.405	134.066	111.521	121.385	127.436	0.00050467	0.00046461	0.00019987	1436.8	3.9886e-06	4.2269e-06	1452.4	377.82	7.4345e-06	7.7657e-06	432.9	143.01	128.8	43.074	5.9803e-07	52.971	0.00045643	0.00045135	0.00012622	1445.2	4.9476e-06	4.9789e-06	1463.9	381.07	4.9418e-06	4.938e-06	435.54	145.57	130.98	43.799	4.9474e-06	54.191	-164.765	-50.236	-105.622	-157.386	18.609	-119.911	-157.914	-152.975	-58.231	-47.648	-153.340	-149.405	-148.855	-143.978	-3.712	-144.707	-8191	255	
1426.071	1	1	0	0	0.34185	0.14084	0.20051	0.17619	0.096663	0.018744	0.22203	0.12388	0.15911	0.11665	0.20794	0.31137	0.077199	0.17104	0.20849	0.19279	-2.5	-3.3729	-3.2229	-3.4854	-3.5563	-3.1417	-3.6875	-3.5375	-3.35	-3.4083	-3.3833	-3.1063	-3.5646	-3.4604	-3.0917	-3.6562	-0.947	-70.993	68.408	54.800	-49.062	-90.918	116.001	152.082	-12.792	156.625	121.347	129.935	62.790	143.502	106.239	150.491	0.00047576	0.00040649	5.2779e-05	1436.4	1.9999e-06	5.9737e-06	1451.4	377.64	5.2721e-06	2.9473e-06	431.17	143.22	128.19	43.099	1.0502e-06	53.033	0.00045807	0.00045161	0.00012645	1447.9	4.9564e-06	5.011e-06	1464.7	381.41	4.9258e-06	5.0052e-06	435.81	145.42	130.53	43.835	4.9448e-06	54.182	-160.316	-37.297	-160.900	-157.335	-38.860	-19.852	-157.724	-153.139	-64.569	-62.557	-153.137	-149.280	-148.868	-144.011	-28.552	-144.564	-8191	255	
1426.167	1	1	0	0	0.087747	0.1274	0.034476	0.15231	0.043184	0.13697	0.27788	0.21692	0.28005	0.059616	0.20322	0.056557	0.12441	0.039616	0.059932	0.10888	-2.6063	-3.3583	-3.225	-3.2833	-3.3937	-2.9938	-3.4188	-3.6896	-3.0208	-3.2062	-3.4604	-3.2979	-3.5021	-3.2771	-3.2354	-3.5896	-140.300	26.154	30.842	-166.757	23.426	-27.655	122.694	118.425	-128.986	130.495	-119.894	124.823	-82.948	87.907	152.111	163.205	0.00046031	0.00045261	0.0001612	1434.7	5.1594e-06	7.5116e-06	1451.9	378.34	6.6078e-06	5.7395e-06	434.85	142.84	128.79	42.935	3.2693e-06	53.12	0.00046025	0.00045643	0.00012686	1447.4	4.9974e-06	4.9759e-06	1465.6	381.22	5.0114e-06	5.0255e-06	436.57	145.55	130.7	43.777	5.0078e-06	54.167	-158.136	-119.994	-62.237	-157.147	-48.155	5.703	-157.802	-153.409	-49.963	-96.368	-153.245	-149.306	-148.830	-143.992	-44.951	-144.789	-8191	255	
1426.263	1	1	0	0	0.26663	0.20033	0.1509	0.15253	0.12277	0.1037	0.19209	0.26076	0.067344	0.18132	0.19615	0.061727	0.13553	0.29202	0.1979	0.046618	-2.6063	-3.4062	-3.4042	-3.2792	-3.6146	-3.4292	-3.4313	-3.725	-3.3	-3.2917	-3.6667	-3.125	-3.6104	-3.3979	-3.2625	-3.5583	-113.725	-74.754	-1.973	144.758	-81.282	83.329	163.157	159.929	148.249	-138.272	30.110	142.215	87.773	180.989	-89.342	95.573	0.00043825	0.00042966	8.5423e-05	1436.8	2.403e-06	8.5033e-06	1449.1	376.1	6.0683e-06	4.8623e-06	433.93	142.45	128.51	43.053	3.4527e-06	53.107	0.00045786	0.00045488	0.0001271	1446.8	5.0277e-06	5.0326e-06	1464.8	380.81	5.0192e-06	5.0824e-06	436.66	145.2	130.92	43.853	5.0814e-06	54.202	-159.153	-49.380	-71.165	-157.508	-81.063	-15.235	-157.688	-153.196	-58.485	-9.372	-153.396	-149.293	-148.804	-143.999	-13.888	-144.669	-8191	255	
1426.359	1	1	0	0	0.19742	0.20352	0.43383	0.08501	0.20365	0.2072	0.22814	0.29869	0.28678	0.17176	0.12845	0.14224	0.080959	0.34205	0.13974	0.023344	-2.9292	-3.2292	-3.4854	-3.3458	-3.2938	-3.3896	-3.3063	-3.6792	-3.2687	-3.2146	-3.75	-3.1875	-3.4667	-3.3833	-3.2188	-3.4167	-124.374	127.253	48.240	-6.070	-83.609	-145.328	110.137	135.662	68.690	-74.272	-129.788	70.667	118.782	-154.875	-0.546	-10.572	0.00048935	0.00025568	6.762e-05	1437.8	5.3738e-06	4.4965e-06	1452.1	377.51	3.6972e-06	3.7648e-06	434.95	143.43	128.7	43.113	2.0956e-06	52.826	0.00046562	0.00045587	0.00012828	1447.3	5.0186e-06	5.0599e-06	1464.7	380.85	5.0658e-06	5.0617e-06	436.57	145.61	130.82	43.817	5.0679e-06	54.212	-154.089	-64.875	-77.904	-157.424	-50.162	-34.213	-157.865	-153.390	-69.960	-64.513	-153.487	-149.216	-148.697	-144.264	-58.770	-144.456	-8191	255	
1426.480	1	1	0	0	0.061364	0.10706	0.18231	0.22787	0.24694	0.101	0.10966	0.065694	0.05588	0.035289	0.10158	0.2213	0.085442	0.11389	0.21447	0.088739	-2.8688	-3.1104	-3.4813	-3.3458	-3.5208	-3.4146	-3.4125	-3.675	-3.3833	-3.3083	-3.6437	-3.5104	-3.6146	-3.6542	-3.1813	-3.5667	-156.490	-146.309	103.795	160.358	141.840	0.453	132.762	-78.203	-30.864	-125.205	-155.575	93.960	-13.832	154.858	-47.332	162.016	0.00055431	0.00040434	0.00017562	1437.1	3.6685e-06	8.4399e-06	1448.3	377.2	3.9169e-06	4.4383e-06	431.86	142.88	128.62	43.057	6.7185e-06	53.085	0.00046484	0.00045993	0.00012674	1446.4	5.041e-06	5.0362e-06	1464.3	380.53	5.0258e-06	5.0904e-06	436.41	145.58	131	43.826	5.0569e-06	54.187	-164.695	-93.655	-144.486	-157.313	-78.740	-59.586	-157.677	-153.120	-23.421	-30.032	-153.444	-149.249	-148.731	-143.954	-25.119	-144.583	-8191	255	
1426.576	1	1	0	0	0.26809	0.26878	0.32147	0.23814	0.21029	0.12613	0.34857	0.079717	0.07526	0.12057	0.14065	0.094311	0.20937	0.33639	0.078515	0.17586	-3.075	-3.25	-3.4583	-3.5875	-3.2104	-3.3688	-3.2438	-3.6479	-3.3896	-3.1396	-3.5396	-3.3021	-3.2292	-3.6229	-2.9062	-3.3854	14.109	-155.132	101.855	153.792	-1.499	89.965	87.479	177.387	-114.976	-56.830	131.555	57.720	166.739	-163.250	-102.822	-94.243	0.00054184	4.6251e-05	8.692e-05	1431.9	7.5496e-06	4.1664e-06	1447.7	377.13	7.551e-06	8.887e-06	433.3	143.36	128.89	43.133	1.7751e-06	53.094	0.00046681	0.00045918	0.00012838	1444.4	5.0604e-06	4.9905e-06	1464.7	381.26	5.046e-06	5.0305e-06	435.76	145.64	130.74	43.844	5.0465e-06	54.229	-160.220	-27.920	-63.431	-157.521	-43.106	-47.016	-157.865	-153.130	-57.111	-10.592	-153.604	-149.415	-148.900	-143.888	-11.546	-144.635	-8191	255	
1426.670	1	1	0	0	0.31832	0.1021	0.14548	0.17631	0.20544	0.064727	0.20097	0.026172	0.14567	0.06808	0.16299	0.19826	0.05931	0.23566	0.073778	0.16444	-2.85	-2.9979	-3.5896	-3.525	-3.2583	-3.5854	-3.3354	-3.55	-3.3896	-3.1146	-3.5458	-3.4854	-3.175	-3.6104	-3.2125	-3.5417	-55.703	-128.265	71.817	121.476	159.658	36.299	136.620	95.701	179.620	120.687	90.248	-152.582	-47.354	68.230	-73.882	81.061	0.00048314	0.00052817	0.00019487	1435.5	4.2345e-06	4.7997e-06	1448.8	376.43	6.8197e-06	3.2417e-06	432.26	142.44	128.5	42.868	5.0251e-06	53.041	0.00046518	0.00046027	0.00012864	1446.1	5.0887e-06	5.0763e-06	1465.7	381.09	5.1101e-06	5.0478e-06	435.85	145.45	130.83	43.781	5.0884e-06	54.156	-160.568	-106.264	-128.032	-157.250	-38.719	-113.422	-157.796	-153.238	-94.325	-19.801	-153.326	-149.231	-148.644	-143.985	-48.010	-144.553	-8191	255	
1426.766	1	1	0	0	0.44373	0.28107	0.24146	0.18751	0.13109	0.15841	0.32093	0.091529	0.098319	0.14881	0.072643	0.13269	0.24838	0.079668	0.35548	0.28842	-2.9479	-3.0896	-3.2958	-3.5042	-3.2687	-3.4333	-3.3917	-3.3063	-3.3208	-3.2313	-3.4062	-3.5	-3.1396	-3.5729	-3.0833	-3.3937	-83.247	51.717	-112.945	159.615	-10.381	-84.617	109.177	121.225	80.716	26.341	-116.809	143.791	-120.542	-107.918	-14.230	97.865	0.00048734	0.00019654	0.00015432	1442.1	4.5112e-06	7.5035e-06	1452.6	375.26	4.9606e-06	3.874e-06	435.06	143.15	128.41	43.129	4.1819e-06	52.929	0.00046575	0.00046072	0.00012972	1449.5	5.1094e-06	5.0833e-06	1466.1	380.67	5.0567e-06	5.0677e-06	436.14	145.42	130.89	43.849	5.0769e-06	54.18	-158.795	-59.164	-59.450	-157.563	-40.954	-33.823	-157.871	-153.465	-80.423	-39.786	-153.351	-149.388	-148.461	-144.111	-4.344	-144.696	-8191	255	
1426.887	1	1	0	0	0.049205	0.17408	0.19675	0.12279	0.25225	0.17185	0.29734	0.20216	0.27842	0.15972	0.088048	0.13987	0.33724	0.2445	0.16022	0.020539	-2.9729	-3.0854	-3.5375	-3.5083	-3.1729	-3.5958	-3.4313	-3.4208	-3.6396	-3.1896	-3.425	-3.6521	-3.1063	-3.6188	-3.225	-3.4771	143.831	-14.721	-35.371	82.741	126.041	61.249	133.397	168.958	177.400	102.585	-72.502	167.111	182.236	154.961	5.644	74.594	0.00049819	0.00073439	0.00013357	1436	1.36e-06	9.1605e-06	1451.1	377.15	3.7188e-06	5.7931e-06	432.7	142.87	128.87	43.13	5.2599e-06	53.08	0.00047021	0.00046317	0.00012867	1445.4	5.0649e-06	5.0747e-06	1464.2	381.13	5.0411e-06	5.0787e-06	435.89	145.39	130.81	43.864	5.0734e-06	54.22	-161.882	-98.565	-121.865	-157.648	-28.734	-102.613	-157.714	-153.331	-107.357	-52.885	-153.420	-149.251	-148.812	-143.842	-26.693	-144.553	-8191	255	
1426.959	1	1	0	0	0.19463	0.056953	0.043532	0.26895	0.17655	0.22729	0.063606	0.24585	0.1395	0.142	0.092468	0.25974	0.29014	0.052322	0.090954	0.27183	-3.0104	-3.1292	-3.5208	-3.5417	-3.2708	-3.4604	-3.5479	-3.3896	-3.3229	-3.3854	-3.4771	-3.5854	-3.2271	-3.6958	-3.3042	-3.2708	116.253	-71.619	-31.519	109.767	11.836	21.212	149.993	176.619	-138.003	183.127	87.610	97.599	-150.949	170.055	123.437	124.092	0.00045423	0.00069986	7.3971e-05	1439.9	1.332e-06	5.6218e-06	1453.5	376.86	4.8189e-06	2.6215e-06	432.4	143.11	128.89	43.019	3.9295e-06	53.293	0.00046705	0.00046063	0.00012809	1445.9	5.0166e-06	5.0589e-06	1466.7	381.07	5.0557e-06	4.9963e-06	436.45	145.61	130.94	43.818	5.102e-06	54.319	-162.654	-65.669	-86.623	-157.300	32.051	-64.808	-157.753	-153.117	-22.176	-46.591	-153.468	-149.216	-148.990	-144.011	-70.492	-144.613	-8191	255	
1427.055	1	1	0	0	0.068695	0.28437	0.19695	0.35473	0.18029	0.099089	0.18735	0.21205	0.090566	0.12564	0.039732	0.12408	0.11982	0.13257	0.14905	0.070062	-3.1625	-3.0979	-3.3542	-3.6208	-3.0833	-3.6708	-3.4938	-3.3875	-3.5312	-3.2167	-3.2833	-3.3896	-3.2229	-3.5604	-3.4208	-3.0875	82.497	32.781	29.432	172.737	143.219	-85.795	129.617	54.497	9.122	33.216	183.441	81.978	72.962	-158.383	44.996	148.240	0.00052726	0.00045252	2.1064e-05	1432.7	3.9459e-06	6.1515e-06	1451.4	376.58	2.3542e-06	7.1433e-06	432.15	142.96	128.76	43.084	5.3898e-06	53.135	0.0004677	0.00046037	0.00012872	1445.6	5.0643e-06	5.0202e-06	1466.8	380.9	5.0387e-06	5.063e-06	436.03	145.76	130.73	43.834	5.0098e-06	54.21	-162.449	-114.992	-90.962	-157.536	-46.979	-36.283	-157.951	-153.256	-68.264	-70.773	-153.529	-149.143	-148.852	-143.893	-16.692	-144.727	-8191	255	
1427.175	1	1	0	0	0.13263	0.1929	0.21953	0.35891	0.1139	0.15323	0.15423	0.15696	0.089537	0.36781	0.0491	0.24721	0.1183	0.069014	0.24156	0.28169	-2.9562	-3.2771	-3.4104	-3.6125	-3.1479	-3.4313	-3.4667	-3.2875	-3.475	-3.3875	-3.3438	-3.6625	-3.2979	-3.4313	-3.475	-3.2604	139.576	12.116	24.804	137.037	83.923	35.995	45.658	-155.866	182.451	25.989	80.514	135.097	-151.695	5.913	-22.082	161.583	0.00050442	0.00042177	0.00014274	1436.6	3.982e-06	4.4467e-06	1450.4	375.99	4.1558e-06	7.9341e-06	432.54	143.14	129.04	42.979	7.143e-07	53.241	0.0004607	0.00046185	0.00012699	1445.2	5.0417e-06	5.0684e-06	1464.9	380.61	5.0456e-06	5.0715e-06	436.38	145.55	130.9	43.769	5.0702e-06	54.142	-160.742	-69.733	-68.614	-157.310	-71.709	-29.385	-157.899	-153.294	-35.517	-115.757	-153.129	-149.357	-148.792	-143.929	61.158	-144.553	-8191	255	
1427.272	1	1	0	0	0.25746	0.16728	0.19928	0.25991	0.3111	0.058345	0.32758	0.30534	0.13752	0.18436	0.13081	0.12204	0.094333	0.055311	0.26268	0.2074	-3.0021	-3.3667	-3.2583	-3.8021	-3.2167	-3.4625	-3.6271	-3.2917	-3.4062	-3.3542	-3.2938	-3.6542	-3.3729	-3.3229	-3.4854	-3.3063	40.710	30.855	-125.383	146.356	-113.026	-102.354	136.393	147.654	107.509	-88.558	128.366	151.377	97.913	112.078	179.725	150.281	0.00044412	0.00052183	0.00012049	1433.7	3.885e-06	5.8569e-06	1452.1	376.13	6.0307e-06	1.6188e-06	434.56	143.18	128.9	42.935	7.436e-06	53.05	0.00046011	0.00045899	0.00012753	1444.4	5.0593e-06	5.0486e-06	1464.3	380.46	5.0455e-06	5.0934e-06	436.25	145.63	130.86	43.861	5.1191e-06	54.159	-161.570	-116.860	-52.382	-157.383	-32.014	-19.009	-157.861	-153.128	-92.875	-54.741	-153.174	-149.263	-148.832	-143.837	-29.494	-144.408	-8191	255	
1427.368	1	1	0	0	0.12494	0.098619	0.10024	0.0045827	0.30032	0.13342	0.11163	0.087723	0.099145	0.32796	0.14315	0.23157	0.19034	0.12219	0.12389	0.11	-3.2458	-3.2812	-3.2854	-3.5792	-3.3063	-3.3854	-3.475	-3.2646	-3.4792	-3.3375	-3.2396	-3.5646	-3.4792	-3.6167	-3.5667	-3.3	84.152	83.300	-161.726	130.319	-120.615	30.036	132.850	96.305	-15.483	88.975	187.715	137.077	172.350	83.709	2.358	-49.467	0.00045122	0.00024883	9.5333e-05	1435.2	6.1743e-06	5.3609e-06	1452.5	377.02	7.8856e-06	6.4639e-06	431.87	143.42	129.15	43.116	6.0962e-06	53.12	0.00046847	0.00046399	0.00012863	1446	5.0765e-06	5.0766e-06	1465.1	380.66	5.0284e-06	5.0131e-06	435.92	145.53	130.8	43.798	4.9917e-06	54.189	-162.253	-114.640	-154.069	-157.397	-45.532	-108.686	-158.010	-153.144	-68.028	-56.397	-153.284	-149.385	-148.758	-143.711	24.103	-144.621	-8191	255	
1427.464	1	1	0	0	0.093272	0.16472	0.30975	0.31223	0.1152	0.043633	0.26781	0.28488	0.20685	0.035143	0.20971	0.32963	0.16412	0.2402	0.14197	0.25005	-3.0938	-3.4813	-3.1771	-3.6958	-3.2812	-3.4917	-3.7375	-3.5125	-3.4688	-3.4604	-3.25	-3.6833	-3.3229	-3.4333	-3.425	-3.3146	143.941	-3.981	80.626	182.460	63.076	8.202	146.826	111.058	-153.406	-120.442	180.814	155.294	171.885	-128.262	-153.576	160.588	0.00052781	0.00012004	0.00013994	1436.5	5.7165e-06	2.405e-06	1450.5	377.64	5.3353e-06	1.1422e-05	434.05	142.63	129.24	42.914	8.1631e-07	53.191	0.00046009	0.0004551	0.00012597	1447.5	5.0115e-06	5.0255e-06	1465.7	380.53	5.0664e-06	5.0551e-06	436.02	145.49	130.88	43.798	5.065e-06	54.2	-160.737	-44.031	-66.399	-157.480	-50.996	-13.501	-157.790	-153.206	-56.551	-52.051	-153.461	-149.265	-148.684	-143.859	-54.011	-144.648	-8191	255	
1427.560	1	1	0	0	0.027421	0.016599	0.15593	0.33272	0.055937	0.25504	0.15316	0.2223	0.045231	0.18359	0.21742	0.26535	0.090573	0.13313	0.2698	0.14824	-2.7896	-3.4437	-3.0729	-3.725	-3.5062	-3.1333	-3.7854	-3.3375	-3.3708	-3.5187	-3.5208	-3.5333	-3.3458	-3.3396	-3.6667	-3.2542	124.595	-69.658	95.488	154.552	-101.443	63.666	74.540	157.232	175.854	13.056	-88.855	165.805	130.490	150.565	176.794	161.166	0.00052867	0.00059193	0.00013537	1439.5	4.8054e-06	2.6721e-06	1448.7	377.69	7.4822e-06	7.9336e-06	433.92	142.96	128.56	43.165	4.4254e-06	52.912	0.00046304	0.00045393	0.00012653	1446.6	5.0186e-06	4.9654e-06	1466.2	381.01	4.9657e-06	4.921e-06	436.02	145.38	130.62	43.836	4.9455e-06	54.163	-157.099	-50.813	-59.057	-157.418	-70.149	-70.575	-157.813	-153.101	-52.454	-47.018	-153.358	-149.372	-148.752	-143.955	-5.560	-144.717	-8191	255	
1427.654	1	1	0	0	0.1887	0.12284	0.085337	0.23679	0.046071	0.10575	0.33744	0.15124	0.095694	0.13928	0.08455	0.11957	0.10563	0.02401	0.089555	0.49734	-3.0083	-3.3104	-3.1792	-3.5917	-3.3042	-3.2687	-3.8042	-3.5625	-3.2292	-3.4542	-3.3875	-3.4021	-3.6417	-3.1813	-3.6833	-3.2667	102.986	147.866	-165.436	124.724	-96.248	186.342	110.433	186.003	165.872	6.719	154.189	74.731	87.496	-10.416	3.745	131.253	0.00047545	0.00044282	6.2253e-05	1437.2	6.6814e-06	2.1772e-06	1447.6	376.42	7.3232e-06	4.1695e-06	435.32	143.17	129.04	43.116	4.6705e-06	53.247	0.00045743	0.0004548	0.00012502	1446.9	4.9277e-06	4.921e-06	1466.5	381.05	5.0161e-06	5.0101e-06	436.77	145.53	130.83	43.744	4.9704e-06	54.213	-161.618	-106.730	172.532	-157.467	-63.798	8.286	-157.853	-153.275	-29.250	-29.730	-153.425	-149.326	-148.760	-144.008	-30.467	-144.704	-8191	255	
1427.751	1	1	0	0	0.26883	0.081451	0.19329	0.35395	0.16792	0.14013	0.21122	0.12601	0.34851	0.17666	0.16348	0.181	0.076426	0.077672	0.23514	0.082429	-2.8896	-3.4875	-3.0146	-3.65	-3.2979	-3.3708	-3.6771	-3.4688	-3.3229	-3.4125	-3.2313	-3.3479	-3.5729	-3.1083	-3.4938	-3.4417	-97.658	-28.116	185.631	153.693	165.315	174.800	-155.877	162.320	-18.147	1.485	178.168	128.967	140.654	-149.669	-1.030	145.966	0.00049539	0.00034931	0.00019139	1435.4	6.0573e-06	3.5933e-06	1452.8	377.4	4.7934e-06	8.5391e-06	433.28	142.54	128.33	43.045	4.0318e-06	53.127	0.00045425	0.00044661	0.00012194	1444.4	4.8196e-06	4.8651e-06	1464.3	381.1	4.8518e-06	4.9035e-06	435.18	145.14	130.53	43.765	4.896e-06	54.165	-162.515	-96.876	-37.314	-157.479	-67.405	-90.523	-157.867	-153.094	37.770	-59.728	-153.399	-149.388	-148.670	-143.881	-76.772	-144.430	-8191	255	
1427.848	1	1	0	0	0.21646	0.07891	0.12275	0.49648	0.22051	0.20332	0.25031	0.15098	0.19822	0.21654	0.059926	0.20145	0.26909	0.10529	0.19355	0.35464	-2.7271	-3.6521	-3.2271	-3.3854	-3.5042	-3.1979	-3.825	-3.3688	-3.2167	-3.6	-3.2833	-3.6375	-3.6417	-3.3729	-3.3771	-3.5438	183.510	100.068	149.309	125.014	141.446	168.611	98.605	170.734	85.244	-66.988	-23.095	131.869	-171.133	144.993	146.110	76.756	0.00048044	0.00061142	0.00015153	1437.3	3.302e-06	6.0319e-06	1451.7	377.32	6.9719e-06	3.6002e-06	431.9	143.04	128.34	43.007	6.783e-06	52.997	0.0004529	0.00044413	0.00012415	1447	4.8781e-06	4.9554e-06	1465.7	380.81	4.8942e-06	4.9067e-06	436.01	145.32	130.66	43.815	4.9249e-06	54.143	-158.983	-125.397	-113.321	-157.480	-95.270	69.387	-157.682	-153.212	-102.511	-80.840	-153.392	-149.417	-148.745	-144.062	-8.545	-144.410	-8191	255	
1427.967	1	1	0	0	0.0273	0.18061	0.31107	0.05478	0.080299	0.18807	0.17942	0.14412	0.12966	0.14217	0.19333	0.31616	0.096775	0.14747	0.025358	0.32214	-2.8	-3.5938	-3.3271	-3.4813	-3.4062	-3.0604	-3.6458	-3.3688	-3.2396	-3.4188	-3.3625	-3.275	-3.7125	-3.2313	-3.5375	-3.4125	103.193	16.288	-6.814	-63.425	24.921	58.015	26.551	177.496	-117.287	111.040	62.858	131.663	164.618	155.333	2.907	117.538	0.00054635	0.00084161	0.00013336	1439.5	4.3041e-06	9.0222e-06	1447.1	377.82	6.7547e-06	2.479e-06	435.24	143.51	128.34	43.037	2.4843e-06	53.157	0.00044917	0.0004398	0.00012455	1445.6	4.8916e-06	4.9127e-06	1462.9	380.5	4.9681e-06	4.8992e-06	436.02	145.53	130.76	43.721	4.9502e-06	54.152	-162.099	-72.870	-112.253	-157.472	-91.083	4.419	-157.717	-153.344	-78.919	-103.953	-153.346	-149.438	-148.849	-143.904	-133.327	-144.481	-8191	255	
1428.063	1	1	0	0	0.079754	0.15917	0.050572	0.080975	0.19421	0.14255	0.24919	0.22443	0.092963	0.1452	0.050203	0.37564	0.1025	0.18741	0.11874	0.13396	-2.8438	-3.5521	-3.1792	-3.4771	-3.6625	-3.2062	-3.5938	-3.4292	-3.2687	-3.4271	-3.5125	-3.4167	-3.5667	-3.3083	-3.3667	-3.5187	26.067	-145.517	-70.654	187.822	33.144	111.890	101.954	76.896	-94.246	-37.899	-77.677	139.102	139.733	-58.680	-9.010	-141.153	0.0004654	0.00067207	0.00012351	1437.8	5.5848e-06	7.5255e-06	1448.1	377.42	2.977e-06	5.4951e-06	434.54	143.38	128.69	43.13	3.6572e-06	52.864	0.00044913	0.00044343	0.00012465	1446.4	4.9387e-06	4.9131e-06	1465.5	380.81	4.9598e-06	4.9285e-06	436.34	145.62	130.74	43.823	4.9933e-06	54.137	-165.625	-106.209	-63.838	-157.289	-79.371	-39.959	-157.880	-153.136	-79.369	-27.235	-153.421	-149.242	-148.534	-144.027	-0.296	-144.758	-8191	255	
1428.160	1	1	0	0	0.16704	0.28783	0.1639	0.1087	0.19173	0.24181	0.24806	0.13294	0.12268	0.32685	0.28184	0.041812	0.076395	0.21249	0.21907	0.26866	-2.8937	-3.4292	-3.4396	-3.3812	-3.7938	-3.1437	-3.5958	-3.4896	-3.2708	-3.4896	-3.4646	-3.2938	-3.5167	-3.5208	-3.1979	-3.5521	32.211	-80.069	72.088	-119.486	3.695	4.377	90.892	-82.565	-160.322	41.078	164.667	129.055	158.906	-69.288	54.456	112.745	0.00049551	0.00027369	9.3003e-05	1436.7	5.3747e-06	9.1141e-06	1454.2	376.03	2.4266e-06	4.2729e-06	435.84	142.7	128.97	42.871	2.2572e-06	53.268	0.00045689	0.00045572	0.0001274	1446	4.9758e-06	5.0138e-06	1465.9	380.46	5.0104e-06	4.9435e-06	436.59	145.2	130.62	43.674	4.9668e-06	54.163	-161.056	-73.222	-36.492	-157.381	-70.442	-36.500	-157.807	-153.091	-61.753	-1.932	-153.396	-149.153	-148.667	-143.827	37.102	-144.532	-8191	255	
1428.256	1	1	0	0	0.24229	0.059273	0.17733	0.31089	0.1291	0.17194	0.051173	0.21883	0.259	0.12712	0.077447	0.17783	0.233	0.16178	0.12439	0.15671	-2.7438	-3.4396	-3.1667	-3.2167	-3.4458	-3.1771	-3.4479	-3.675	-3.3583	-3.4542	-3.3229	-3.4333	-3.5854	-3.3417	-3.2583	-3.6125	109.331	-124.717	-8.437	106.580	-60.513	-32.949	177.378	43.055	-116.698	-20.437	101.176	184.364	153.225	176.691	77.915	-151.607	0.00049831	0.00042182	7.6525e-05	1435.5	8.0366e-06	8.1225e-06	1451.7	374.59	5.2584e-06	6.2205e-06	432.45	142.99	128.36	43.083	2.6387e-06	53.022	0.00045606	0.00044626	0.00012405	1443.2	4.9388e-06	4.9481e-06	1461.9	379.6	4.9833e-06	5.0054e-06	435.89	145.3	130.5	43.746	5.0654e-06	54.141	-158.302	-57.461	12.402	-157.597	-61.260	-27.205	-157.728	-153.244	-78.731	-75.589	-153.425	-149.409	-148.885	-143.957	13.114	-144.646	-8191	255	
1428.352	1	1	0	0	0.28328	0.029739	0.19115	0.11203	0.23013	0.094848	0.18013	0.11295	0.18003	0.17337	0.11694	0.026203	0.072144	0.12384	0.073026	0.065302	-2.7812	-3.3812	-3.1167	-3.45	-3.3792	-3.4104	-3.3479	-3.525	-3.3271	-3.4562	-3.5167	-3.3333	-3.5563	-3.5292	-3.3083	-3.6063	-108.581	-126.695	71.378	-24.448	-5.621	-124.507	119.879	158.490	92.219	19.388	68.375	-120.132	-1.463	88.613	112.282	-120.697	0.00046122	0.00033749	0.0001127	1436.6	3.6875e-06	7.6152e-06	1458.5	378.03	5.6876e-06	3.0944e-06	432.12	143.43	128.85	42.814	2.1224e-06	52.893	0.00047491	0.00047057	0.00013141	1448.8	5.1729e-06	5.2067e-06	1469.5	381.36	5.1631e-06	5.1914e-06	436.16	145.54	130.86	43.682	4.9802e-06	54.093	-161.135	-40.659	-11.888	-157.484	-38.170	-70.619	-157.791	-153.022	-87.269	-53.758	-153.453	-149.428	-148.792	-143.909	65.930	-144.487	-8191	255	
1428.448	1	1	0	0	0.17917	0.16967	0.16789	0.26907	0.19939	0.070643	0.23334	0.14712	0.10187	0.10049	0.045154	0.13155	0.2384	0.2143	0.087093	0.12544	-2.7458	-3.0812	-3.4146	-3.3854	-3.3208	-3.4792	-3.3396	-3.5438	-3.1521	-3.2313	-3.7708	-3.3542	-3.4938	-3.5229	-3.0438	-3.5854	103.405	136.935	-58.507	179.829	-55.696	-61.901	56.247	161.983	101.294	-42.336	-40.282	-144.242	-87.369	166.733	-46.053	-153.759	0.00047575	0.00059161	0.00011657	1440.5	4.1892e-06	3.9119e-06	1450.8	376.48	7.7186e-06	6.5584e-06	433.68	143.08	128.52	43.283	6.5093e-06	53.014	0.0004581	0.00045257	0.0001242	1448.3	4.9463e-06	4.9189e-06	1464.9	380.22	4.8391e-06	4.8181e-06	435.19	145.44	130.71	43.866	4.6514e-06	54.131	-161.280	-92.382	-88.616	-157.436	-11.047	-72.006	-157.754	-153.244	-93.016	-118.534	-153.536	-149.193	-148.606	-143.934	-3.905	-144.578	-8191	255	
1428.569	1	1	0	0	0.1198	0.066437	0.16269	0.41124	0.13724	0.054958	0.4367	0.1784	0.091171	0.097033	0.11944	0.19035	0.26784	0.20587	0.1683	0.22312	-2.8104	-3.1896	-3.4604	-3.3042	-3.4437	-3.2792	-3.3917	-3.6042	-3.2708	-3.3667	-3.5354	-3.3438	-3.3708	-3.5	-3.1292	-3.6583	42.790	115.523	-159.114	128.555	64.634	-69.284	165.766	151.290	90.752	178.144	139.302	135.476	119.130	146.311	19.042	139.734	0.00049594	0.00066248	0.00019142	1433.8	2.4425e-06	2.1983e-06	1453.7	377.12	3.4853e-06	1.4459e-06	434.91	143.54	128.85	43.038	5.2693e-06	53.136	0.00043126	0.00042037	0.0001164	1444.1	4.5924e-06	4.5986e-06	1465.6	380.84	4.6526e-06	4.5791e-06	434.96	145.57	130.86	43.824	4.5137e-06	54.118	-155.105	-84.798	-46.413	-157.453	27.510	6.996	-157.951	-153.157	-63.061	-66.203	-153.379	-149.512	-148.500	-143.935	9.136	-144.449	-8191	255	
1428.663	1	1	0	0	0.064656	0.2047	0.13157	0.30289	0.055855	0.06381	0.25033	0.32353	0.25337	0.29989	0.18242	0.26346	0.10685	0.18452	0.11694	0.26334	-2.8854	-3.2521	-3.4125	-3.4375	-3.4292	-3.3792	-3.2854	-3.6896	-3.2375	-3.3146	-3.375	-3.3604	-3.4854	-3.4771	-3.0938	-3.7646	166.459	-28.348	90.249	158.413	-66.520	147.323	131.680	106.383	-61.441	-89.385	109.056	-57.441	-140.424	107.715	99.095	-109.870	0.00050558	0.00092666	3.9979e-05	1438.8	2.6476e-06	6.598e-06	1450.6	376.58	2.936e-06	5.6874e-06	435.04	143.08	128.68	43.186	2.8519e-06	53.19	0.0004214	0.00041207	0.0001141	1444.9	4.5401e-06	4.5196e-06	1462.8	380.24	4.5426e-06	4.5488e-06	435.34	145.36	130.53	43.831	4.6695e-06	54.143	-163.625	-108.469	79.258	-157.440	-18.399	-56.949	-157.713	-153.297	-106.923	-44.643	-153.420	-149.451	-148.818	-143.961	-23.351	-144.625	-8191	255	
1428.759	1	1	0	0	0.36948	0.084818	0.15908	0.12196	0.28138	0.23008	0.16684	0.34957	0.14485	0.076835	0.16196	0.27888	0.16007	0.24903	0.019535	0.038444	-2.8	-3.1437	-3.4875	-3.4021	-3.2354	-3.4271	-3.3542	-3.4208	-3.4479	-3.1792	-3.6437	-3.3937	-3.3917	-3.5333	-3.1833	-3.4562	-110.975	-139.804	-15.146	136.407	25.596	157.472	134.001	68.281	-141.680	161.461	-151.251	163.493	-152.238	-116.866	1.394	76.604	0.00049796	0.00035132	0.00012755	1438.2	4.0834e-06	5.5208e-06	1449.9	376.3	3.1961e-06	3.702e-06	432.21	143.26	129.38	43.108	2.6421e-06	53.455	0.00042611	0.00042055	0.0001186	1445.2	4.7148e-06	4.6402e-06	1464.3	380.26	4.6975e-06	4.7126e-06	435.67	145.41	130.76	43.825	4.6815e-06	54.218	-160.320	-157.731	-15.613	-157.621	-11.241	-95.964	-157.777	-153.233	-46.950	-24.899	-153.143	-149.196	-148.846	-143.837	-75.959	-144.523	-8191	255	
1428.855	1	1	0	0	0.14276	0.071087	0.12422	0.19381	0.17999	0.15277	0.043939	0.10091	0.18064	0.11282	0.2314	0.34098	0.086918	0.24177	0.13769	0.21427	-3.0458	-3.3083	-3.6146	-3.4313	-3.2292	-3.5229	-3.2375	-3.5333	-3.3917	-2.8771	-3.6479	-3.3688	-3.2583	-3.4938	-3.2542	-3.3854	-86.789	-37.631	-37.175	125.778	2.644	-4.499	-55.345	-47.388	187.185	121.880	-15.420	-167.110	-12.774	148.089	69.756	-114.762	0.00045072	0.00055114	0.00016404	1435.8	5.5277e-06	4.7138e-06	1449.2	377.28	5.9314e-06	7.648e-06	436.08	143.56	128.86	43.079	7.6389e-06	53.334	0.00042843	0.00042771	0.0001183	1445.6	4.6724e-06	4.6296e-06	1464.2	380.56	4.7119e-06	4.7247e-06	435.56	145.54	130.59	43.786	4.7114e-06	54.156	-162.219	-92.379	-33.210	-157.460	-69.088	39.005	-157.715	-153.193	-4.281	-62.158	-153.311	-149.373	-148.546	-143.982	-69.073	-144.437	-8191	255	
1428.952	1	1	0	0	0.21468	0.029215	0.053653	0.078009	0.086689	0.12243	0.26016	0.33682	0.12927	0.20883	0.18782	0.25405	0.33934	0.15041	0.24807	0.136	-3.1021	-2.9479	-3.4458	-3.3854	-3.2667	-3.5521	-3.6208	-3.3708	-3.4208	-3.1229	-3.6021	-3.4208	-3.2062	-3.6958	-3.2333	-3.4375	171.206	33.189	18.428	-115.807	-23.542	-99.600	144.646	158.373	92.312	90.171	-104.055	146.019	165.294	91.042	14.297	-120.211	0.00047981	0.00055624	0.00011899	1429.7	4.3093e-06	4.7548e-06	1449.8	377.98	5.7184e-06	3.1108e-06	432.91	143.58	129.18	43.052	1.3754e-06	53.237	0.00042896	0.00041983	0.00011618	1442.4	4.606e-06	4.6853e-06	1462.1	380.7	4.6042e-06	4.6375e-06	436.15	145.5	130.78	43.739	4.6624e-06	54.225	-158.311	-84.164	-85.891	-157.313	-57.588	-46.442	-157.758	-153.266	-79.637	-32.464	-153.385	-149.327	-148.779	-143.956	28.290	-144.604	-8191	255	
1429.048	1	1	0	0	0.42445	0.11901	0.095792	0.23086	0.11494	0.037824	0.18094	0.028611	0.0089684	0.12345	0.066358	0.21029	0.14156	0.13453	0.2912	0.30625	-2.9813	-3.275	-3.4604	-3.5771	-3.0708	-3.3792	-3.6167	-3.3458	-3.725	-3.1417	-3.7458	-3.4333	-3.225	-3.4292	-3.3354	-3.4104	83.054	-18.640	-150.857	-91.159	-88.915	11.349	-109.957	-146.778	-15.546	-90.933	126.688	-155.386	125.093	103.593	130.721	95.818	0.000505	0.00072852	0.00020249	1434.6	3.0128e-06	8.1054e-06	1447.7	376.75	6.5966e-06	3.3238e-06	431.78	143.54	128.86	43.129	5.0362e-06	53.158	0.00043095	0.00042379	0.00011795	1444.8	4.6388e-06	4.6571e-06	1464.5	380.93	4.7139e-06	4.6807e-06	434.83	145.55	130.66	43.841	4.7155e-06	54.202	-160.288	-97.785	-92.634	-157.385	-104.780	-15.476	-157.934	-153.384	-66.099	-10.844	-153.207	-149.248	-148.663	-143.832	-51.561	-144.558	-8191	255	
1429.144	1	1	0	0	0.11885	0.20016	0.10869	0.44039	0.10562	0.2169	0.38078	0.24064	0.25567	0.2635	0.32001	0.15773	0.16621	0.042622	0.058668	0.034616	-3.2125	-3.1583	-3.2875	-3.6021	-3.2125	-3.4938	-3.35	-3.3979	-3.2812	-3.3771	-3.2104	-3.5583	-3.1354	-3.5083	-3.3937	-3.25	4.926	-166.313	-7.732	144.320	104.607	-9.475	112.518	35.697	-149.679	61.256	158.745	-121.234	-166.421	-164.810	-100.101	-78.440	0.00051564	0.00040436	0.00011221	1437.1	3.9692e-06	3.9513e-06	1448.1	376.92	4.4593e-06	7.2479e-06	434.51	143.32	128.81	43.144	3.9273e-06	53.179	0.00043918	0.00043371	0.00011883	1445.7	4.6376e-06	4.6584e-06	1463.2	380.66	4.6197e-06	4.5802e-06	435.28	145.41	130.56	43.823	4.5392e-06	54.14	-164.781	-127.782	-153.644	-157.539	-33.891	-56.941	-157.869	-153.103	-83.849	-88.098	-153.496	-149.222	-148.687	-143.790	-15.406	-144.610	-8191	255	
1429.264	1	1	0	0	0.20887	0.28212	0.1451	0.16276	0.22915	0.08502	0.24767	0.17879	0.32757	0.1842	0.029874	0.2065	0.026822	0.12051	0.20167	0.094698	-3.0604	-3.2875	-3.3312	-3.5583	-3.1813	-3.5708	-3.4875	-3.5125	-3.5083	-3.2458	-3.4979	-3.6958	-3.3	-3.5875	-3.425	-3.4896	41.903	-154.469	-49.775	126.926	8.998	46.497	-164.201	115.423	106.813	-139.116	108.818	181.191	-72.381	-127.699	-84.265	-136.548	0.00050703	0.00094022	0.00015929	1434.9	3.835e-06	3.6525e-06	1448.1	376.75	6.228e-06	3.217e-06	434.56	143.08	128.57	43.034	7.367e-06	53.041	0.0004176	0.00040769	0.0001137	1442.6	4.4911e-06	4.4503e-06	1462.2	380.3	4.4628e-06	4.4526e-06	436.03	145.29	130.49	43.803	4.4516e-06	54.123	-158.852	-64.447	-73.770	-157.405	-63.761	-44.706	-157.918	-153.114	-52.488	-75.606	-153.346	-149.190	-148.780	-143.986	2.173	-144.591	-8191	255	
1429.361	1	1	0	0	0.11774	0.11161	0.047892	0.23972	0.34529	0.11993	0.18632	0.16776	0.11683	0.26672	0.12297	0.228	0.11269	0.074248	0.12862	0.036448	-3.0563	-3.2729	-3.1583	-3.7583	-2.9771	-3.4146	-3.6188	-3.3958	-3.3771	-3.4271	-3.225	-3.6063	-3.3896	-3.5104	-3.2771	-3.1937	110.108	-133.242	95.828	162.997	-72.752	-106.660	178.514	82.368	-118.033	-169.242	103.013	26.242	144.858	-63.182	89.159	-132.238	0.00051372	0.00066634	0.00021852	1437.8	6.4109e-06	9.0571e-06	1451.3	376.78	3.1891e-06	2.494e-06	432.43	143.04	128.88	43.084	4.1838e-06	53.131	0.00041198	0.00040289	0.00011327	1444.1	4.4301e-06	4.4342e-06	1460.6	379.72	4.4084e-06	4.3527e-06	434.75	145.21	130.63	43.829	4.354e-06	54.184	-161.555	-115.359	-70.763	-157.496	-52.702	-47.840	-157.745	-153.169	-90.299	-168.325	-153.556	-149.302	-148.727	-143.930	-126.141	-144.530	-8191	255	
1429.432	1	1	0	0	0.15495	0.090561	0.11878	0.16377	0.078762	0.14088	0.14594	0.16713	0.091112	0.14924	0.37044	0.16873	0.23472	0.18094	0.054455	0.12263	-3.0187	-3.5271	-3.0833	-3.8021	-3.2854	-3.3521	-3.5479	-3.4271	-3.3729	-3.425	-3.2521	-3.5271	-3.2646	-3.3833	-3.8104	-3.2667	-95.226	171.897	15.462	115.864	-50.915	76.032	143.897	-80.433	1.938	64.161	84.859	-162.645	181.313	-79.399	-87.229	176.114	0.00049473	0.000291	0.0001374	1438.2	3.2025e-06	4.2894e-06	1451.7	377.74	5.0306e-06	6.6731e-06	431.92	143.31	128.92	43.341	5.6524e-06	52.977	0.00040413	0.00039288	0.00011047	1443.7	4.3429e-06	4.3498e-06	1460.3	380.34	4.403e-06	4.3216e-06	434.25	145.52	130.67	43.865	4.3868e-06	54.11	-160.580	-109.968	-66.905	-157.429	-49.545	-5.907	-157.660	-152.881	-93.507	-68.580	-153.690	-149.102	-148.607	-143.983	-1.833	-144.903	-8191	255	
1429.528	1	1	0	0	0.10559	0.15975	0.12051	0.21796	0.22176	0.21112	0.33892	0.19549	0.27845	0.14963	0.062845	0.25071	0.23418	0.15847	0.050775	0.072105	-3.0271	-3.4875	-3.0417	-3.7375	-3.3604	-3.3625	-3.7938	-3.2271	-3.4021	-3.4562	-3.2167	-3.5771	-3.3896	-3.4062	-3.5938	-3.2542	-133.275	-14.775	84.858	169.785	-147.580	131.977	148.040	170.624	135.755	-18.170	-87.470	-158.617	167.641	107.608	133.705	-64.433	0.00049833	0.00025917	0.00019997	1437.9	5.8674e-06	8.7192e-06	1451.1	377.87	2.6403e-06	5.8335e-06	434.27	143.91	129.15	43.142	7.7513e-07	53.139	0.00040651	0.00039716	0.00011091	1445.8	4.3792e-06	4.3477e-06	1463.6	380.65	4.3001e-06	4.3021e-06	434.84	145.65	130.94	43.857	4.3087e-06	54.209	-158.141	177.596	-91.923	-157.460	-51.361	-3.025	-157.780	-153.352	-119.586	-77.382	-153.755	-149.412	-148.728	-143.828	-79.759	-144.532	-8191	255	
1429.647	1	1	0	0	0.13898	0.12324	0.23106	0.52054	0.069477	0.27616	0.12392	0.22055	0.064235	0.06144	0.16783	0.13801	0.3002	0.19698	0.2593	0.072365	-3.0167	-3.4813	-3.1583	-3.4729	-3.2354	-3.0729	-3.825	-3.2542	-3.5229	-3.2979	-3.0792	-3.5958	-3.3229	-3.5083	-3.4604	-3.4333	-86.985	-2.777	158.800	145.085	132.027	143.732	91.530	141.087	86.287	-141.109	159.731	89.982	127.488	37.922	72.137	102.851	0.00047624	0.00095538	0.00014703	1439.4	1.8786e-06	6.1502e-06	1450.9	377.69	3.6078e-06	2.066e-06	433.03	143.7	129.04	43.187	6.1308e-06	53.296	0.00040179	0.00038944	0.00010861	1444.7	4.2769e-06	4.276e-06	1462.4	380.42	4.2935e-06	4.2973e-06	434.07	145.64	130.54	43.841	4.3187e-06	54.148	-164.471	-71.297	1.224	-157.482	-36.007	42.126	-157.732	-153.131	-40.752	163.135	-153.377	-149.299	-148.843	-143.896	17.294	-144.596	-8191	255	
1429.744	1	1	0	0	0.11997	0.23346	0.20504	0.1023	0.058498	0.02633	0.22233	0.13697	0.11304	0.085888	0.20774	0.20346	0.23866	0.014173	0.31226	0.02522	-3.0333	-3.4208	-3.0625	-3.6833	-3.3021	-3.3167	-3.7042	-3.2042	-3.475	-3.4792	-3.3271	-3.6771	-3.3708	-3.3333	-3.4604	-3.5938	-118.279	52.024	-124.789	-160.089	-50.227	96.863	54.789	94.350	-157.989	-57.048	166.268	129.388	-160.576	-95.880	65.803	96.560	0.00045746	0.00065985	0.00011511	1437.9	2.0452e-06	2.0048e-06	1452	378.64	4.1394e-06	2.1318e-06	434.6	143.19	129.11	43.132	4.8142e-06	53.243	0.00040185	0.00038718	0.00010865	1445.1	4.2967e-06	4.3076e-06	1461.2	380.56	4.2991e-06	4.2612e-06	434.56	145.19	130.55	43.805	4.3354e-06	54.152	-161.099	-115.964	-42.808	-157.341	-84.941	-39.252	-157.759	-153.088	-66.958	-19.585	-153.690	-149.275	-148.815	-144.007	1.140	-144.476	-8191	255	
#DATA ENDS
