BOXY.EXE: ISS Imagent and Oximeter Data Acquisition Program Version 0.80
Ascii Record File

#ACQ INFORMATION
2  Detector Channels 
16  External MUX Channels 
1  Auxiliary Channels 
5000  Waveform (CCF) Frequency (Hz)
1  Waveforms Skipped 
30  Waveforms Averaged 
1  Cycles Averaged 
16  Acquisitions per Waveform 
10.0806  Updata Rate (Hz) 

#FILE INFORMATION
TRUE -- External MUX Channel results are PARSED.
FALSE -- AC DC and Phase are NOT grouped.
TRUE -- Companion Program Settings File CREATED.
FALSE -- AC data not excluded
FALSE -- DC data not excluded
FALSE -- Phase data not excluded
FALSE -- Auxillary Chn. data not excluded
Tab delimiters

#CALIBRATION STATE
TRUE -- Waveform Calibration Values APPLIED.


#AUX CALIBRATION VALUES
Val Type	aux-1	

Term	1.0000e+00	
Factor	0.0000e+00	


#WF CALIBRATION VALUES
A = Detector Channel
Val Type	A-AC1	A-AC2	A-AC3	A-AC4	A-AC5	A-AC6	A-AC7	A-AC8	A-AC9	A-AC10	A-AC11	A-AC12	A-AC13	A-AC14	A-AC15	A-AC16	A-DC1	A-DC2	A-DC3	A-DC4	A-DC5	A-DC6	A-DC7	A-DC8	A-DC9	A-DC10	A-DC11	A-DC12	A-DC13	A-DC14	A-DC15	A-DC16	A-Ph1	A-Ph2	A-Ph3	A-Ph4	A-Ph5	A-Ph6	A-Ph7	A-Ph8	A-Ph9	A-Ph10	A-Ph11	A-Ph12	A-Ph13	A-Ph14	A-Ph15	A-Ph16	

Term	0.00000e+00	0.00000e+00	0.00000e+00	0.00000e+00	0.00000e+00	0.00000e+00	0.00000e+00	0.00000e+00	0.00000e+00	0.00000e+00	0.00000e+00	0.00000e+00	0.00000e+00	0.00000e+00	0.00000e+00	0.00000e+00	0.00000e+00	0.00000e+00	0.00000e+00	0.00000e+00	0.00000e+00	0.00000e+00	0.00000e+00	0.00000e+00	0.00000e+00	0.00000e+00	0.00000e+00	0.00000e+00	0.00000e+00	0.00000e+00	0.00000e+00	0.00000e+00	0.00000e+00	0.00000e+00	0.00000e+00	0.00000e+00	0.00000e+00	0.00000e+00	0.00000e+00	0.00000e+00	0.00000e+00	0.00000e+00	0.00000e+00	0.00000e+00	0.00000e+00	0.00000e+00	0.00000e+00	0.00000e+00	
Factor	1.00000e+00	1.00000e+00	1.00000e+00	1.00000e+00	1.00000e+00	1.00000e+00	1.00000e+00	1.00000e+00	1.00000e+00	1.00000e+00	1.00000e+00	1.00000e+00	1.00000e+00	1.00000e+00	1.00000e+00	1.00000e+00	1.00000e+00	1.00000e+00	1.00000e+00	1.00000e+00	1.00000e+00	1.00000e+00	1.00000e+00	1.00000e+00	1.00000e+00	1.00000e+00	1.00000e+00	1.00000e+00	1.00000e+00	1.00000e+00	1.00000e+00	1.00000e+00	X	X	X	X	X	X	X	X	X	X	X	X	X	X	X	X	

B = Detector Channel
Val Type	B-AC1	B-AC2	B-AC3	B-AC4	B-AC5	B-AC6	B-AC7	B-AC8	B-AC9	B-AC10	B-AC11	B-AC12	B-AC13	B-AC14	B-AC15	B-AC16	B-DC1	B-DC2	B-DC3	B-DC4	B-DC5	B-DC6	B-DC7	B-DC8	B-DC9	B-DC10	B-DC11	B-DC12	B-DC13	B-DC14	B-DC15	B-DC16	B-Ph1	B-Ph2	B-Ph3	B-Ph4	B-Ph5	B-Ph6	B-Ph7	B-Ph8	B-Ph9	B-Ph10	B-Ph11	B-Ph12	B-Ph13	B-Ph14	B-Ph15	B-Ph16	

Term	0.00000e+00	0.00000e+00	0.00000e+00	0.00000e+00	0.00000e+00	0.00000e+00	0.00000e+00	0.00000e+00	0.00000e+00	0.00000e+00	0.00000e+00	0.00000e+00	0.00000e+00	0.00000e+00	0.00000e+00	0.00000e+00	0.00000e+00	0.00000e+00	0.00000e+00	0.00000e+00	0.00000e+00	0.00000e+00	0.00000e+00	0.00000e+00	0.00000e+00	0.00000e+00	0.00000e+00	0.00000e+00	0.00000e+00	0.00000e+00	0.00000e+00	0.00000e+00	-1.03808e+02	-1.77211e+02	-1.31083e+02	-1.82823e+02	-9.80098e+01	-7.53848e+01	-1.56825e+02	-1.62015e+02	-7.17826e+01	-7.41865e+01	-1.74633e+02	-1.70805e+02	-1.86096e+02	-1.78665e+02	-8.12713e+01	-1.50289e+02	
Factor	1.71126e-05	7.94423e-05	2.53507e-05	1.83103e-01	8.15524e-07	1.04195e-06	1.75314e-01	6.14070e-02	7.26767e-07	9.63578e-07	1.53302e-01	2.98187e-02	4.30704e-02	9.63236e-03	9.86742e-07	1.34724e-02	4.16114e-07	4.22285e-07	1.17545e-07	8.55281e-02	4.63013e-09	4.62660e-09	7.79135e-02	2.83533e-02	4.62896e-09	4.62280e-09	6.15121e-02	1.31213e-02	1.81129e-02	4.31750e-03	4.62780e-09	5.78296e-03	X	X	X	X	X	X	X	X	X	X	X	X	X	X	X	X	



#DISTANCE SETTINGS
A = Detector Channel
A-1	A-2	A-3	A-4	A-5	A-6	A-7	A-8	A-9	A-10	A-11	A-12	A-13	A-14	A-15	A-16	

2.5000e+00	3.0000e+00	2.5000e+00	3.0000e+00	2.0000e+00	3.0000e+00	1.5000e+00	3.0000e+00	3.0000e+00	3.0000e+00	3.0000e+00	3.0000e+00	3.0000e+00	3.0000e+00	1.5000e+00	3.0000e+00	

B = Detector Channel
B-1	B-2	B-3	B-4	B-5	B-6	B-7	B-8	B-9	B-10	B-11	B-12	B-13	B-14	B-15	B-16	

1.0000e+01	1.0000e+01	1.0000e+01	1.4400e+00	1.0000e+01	1.0000e+01	1.5100e+00	1.9400e+00	1.0000e+01	1.0000e+01	1.9900e+00	2.4900e+00	2.4100e+00	2.9000e+00	1.0000e+01	2.9800e+00	




#DATA BEGINS
time	group	step	mark	flag	A-AC1	A-AC2	A-AC3	A-AC4	A-AC5	A-AC6	A-AC7	A-AC8	A-AC9	A-AC10	A-AC11	A-AC12	A-AC13	A-AC14	A-AC15	A-AC16	A-DC1	A-DC2	A-DC3	A-DC4	A-DC5	A-DC6	A-DC7	A-DC8	A-DC9	A-DC10	A-DC11	A-DC12	A-DC13	A-DC14	A-DC15	A-DC16	A-Ph1	A-Ph2	A-Ph3	A-Ph4	A-Ph5	A-Ph6	A-Ph7	A-Ph8	A-Ph9	A-Ph10	A-Ph11	A-Ph12	A-Ph13	A-Ph14	A-Ph15	A-Ph16	B-AC1	B-AC2	B-AC3	B-AC4	B-AC5	B-AC6	B-AC7	B-AC8	B-AC9	B-AC10	B-AC11	B-AC12	B-AC13	B-AC14	B-AC15	B-AC16	B-DC1	B-DC2	B-DC3	B-DC4	B-DC5	B-DC6	B-DC7	B-DC8	B-DC9	B-DC10	B-DC11	B-DC12	B-DC13	B-DC14	B-DC15	B-DC16	B-Ph1	B-Ph2	B-Ph3	B-Ph4	B-Ph5	B-Ph6	B-Ph7	B-Ph8	B-Ph9	B-Ph10	B-Ph11	B-Ph12	B-Ph13	B-Ph14	B-Ph15	B-Ph16	aux-1	digaux	

2387.744	1	1	0	256	0.16885	0.11371	0.14909	0.13454	0.13904	0.042418	0.34619	0.1461	0.25319	0.10316	0.13058	0.16465	0.28274	0.18244	0.17019	0.136	-2.2812	-2.7208	-2.9292	-2.8542	-3.0083	-2.8167	-2.925	-3.1896	-2.7167	-2.9688	-3.1	-2.6958	-2.9146	-3.0625	-2.6125	-2.975	355.574	313.717	349.170	399.409	140.749	192.434	402.302	459.344	428.352	146.443	144.261	404.183	421.373	449.475	397.395	306.954	0.00030034	8.8178e-05	7.3103e-05	1352.8	1.5179e-06	2.0615e-06	1377.9	260.27	1.5659e-06	2.6163e-06	338.03	89.735	70.448	19.977	1.1153e-06	27.625	8.3056e-05	8.1029e-05	2.2765e-05	1233.2	9.0739e-07	9.1116e-07	1271.8	236.88	9.2021e-07	9.2419e-07	282.54	81.32	61.123	18.27	9.3875e-07	25.131	215.791	259.046	195.171	118.692	211.032	228.811	118.937	125.886	178.972	204.971	125.337	132.092	132.567	139.433	190.708	138.751	-8191	255	
2387.839	1	1	0	0	0.12005	0.138	0.19537	0.30508	0.32885	0.29647	0.094789	0.34023	0.24974	0.11761	0.1638	0.29037	0.28041	0.30557	0.27894	0.12676	-2.275	-2.8271	-2.9396	-2.8375	-3.0271	-2.9562	-2.9708	-3.0812	-2.8896	-2.8708	-3.1146	-2.7938	-3.0479	-2.8271	-2.75	-3.2792	118.756	423.619	225.172	358.159	177.353	418.055	400.642	451.206	163.976	312.309	310.157	448.064	134.382	312.631	184.604	174.428	0.00021227	0.00030812	1.7072e-05	1362.8	2.8509e-06	3.597e-06	1395.9	261.42	2.842e-06	3.3025e-06	338.35	90.666	72.402	20.166	2.1549e-06	27.759	8.8774e-05	8.5925e-05	2.4438e-05	1247.5	9.6535e-07	9.5752e-07	1285.9	238.86	9.7037e-07	9.6893e-07	285.29	82.173	62.186	18.495	9.9067e-07	25.402	213.480	392.468	273.520	118.553	205.037	229.753	118.732	126.070	269.699	316.060	125.639	132.035	132.657	139.003	282.821	139.071	-8191	255	
2387.935	1	1	0	0	0.044889	0.10656	0.28875	0.32816	0.098149	0.075806	0.261	0.26565	0.10086	0.19243	0.23609	0.14614	0.10437	0.23409	0.059561	0.20991	-2.5563	-2.8354	-2.9917	-3.0625	-3.0396	-2.9313	-2.8438	-3.2146	-2.9396	-2.9646	-3.1437	-2.8667	-3.025	-3	-2.7479	-3.2396	449.866	269.430	274.865	423.221	159.874	116.829	352.939	426.855	350.981	289.406	448.415	256.217	189.671	229.790	451.783	398.137	0.00023869	0.00013042	7.4172e-05	1377.2	5.1606e-06	8.7669e-07	1407.3	262.87	2.0186e-06	2.3665e-06	339.59	91.482	72.142	20.221	1.6536e-06	28.089	9.3926e-05	8.9735e-05	2.482e-05	1260.3	1.0054e-06	9.8326e-07	1296.3	240.66	9.9933e-07	9.934e-07	286.34	82.963	62.659	18.617	9.9983e-07	25.545	197.397	149.616	201.535	118.706	170.634	268.478	118.870	125.857	226.351	306.669	125.698	132.115	132.444	139.248	275.103	138.457	-8191	255	
2388.055	1	1	0	0	0.3563	0.37249	0.13591	0.20431	0.060114	0.13811	0.25832	0.20506	0.27009	0.13966	0.11427	0.014098	0.3332	0.2693	0.082434	0.25153	-2.4708	-2.6292	-3.0208	-2.9313	-3.0438	-3.1167	-2.8146	-2.9521	-2.9896	-2.7417	-3.0938	-2.8542	-2.8458	-3.0854	-2.7354	-2.9188	113.656	176.599	165.398	463.966	151.635	184.250	387.692	461.221	161.098	281.577	361.044	433.229	184.064	396.552	428.043	192.509	0.00025218	0.00025422	3.5901e-05	1386	3.2225e-06	1.6648e-06	1416.3	264.65	1.149e-06	2.968e-06	342.21	91.402	73.669	20.384	2.0314e-06	28.173	9.5513e-05	9.2177e-05	2.5596e-05	1269.4	1.0284e-06	1.0379e-06	1306.8	242.62	1.0254e-06	1.0235e-06	289.37	83.451	63.247	18.723	1.0615e-06	25.771	221.643	277.655	228.288	118.827	183.133	224.183	118.846	125.801	254.928	423.873	125.478	132.074	132.593	139.260	191.209	138.834	-8191	255	
2388.152	1	1	0	0	0.14179	0.021467	0.06	0.25806	0.179	0.11315	0.19066	0.18586	0.045358	0.1066	0.16913	0.10873	0.12314	0.23058	0.17355	0.24517	-2.4271	-2.4813	-2.8688	-3.0417	-2.8167	-3.1521	-2.95	-3.1146	-2.8229	-2.65	-3.0833	-2.7729	-2.8312	-2.9562	-2.7438	-2.9708	360.051	119.881	206.939	396.758	146.495	373.389	437.262	400.958	112.428	234.483	236.952	399.163	295.781	454.990	430.020	452.133	0.00024874	0.00026809	0.0001234	1395.3	4.6294e-06	5.5229e-06	1429.2	267.07	1.9969e-06	2.2946e-06	344.73	92.536	73.503	20.536	9.7983e-08	28.448	0.0001004	9.7828e-05	2.7049e-05	1278.6	1.0946e-06	1.0837e-06	1318.9	245.17	1.1106e-06	1.0968e-06	292.4	84.24	63.641	18.951	1.0892e-06	25.965	209.021	167.432	277.896	118.741	186.674	186.108	118.715	125.798	281.845	269.690	125.537	131.962	132.533	139.243	270.800	138.507	-8191	255	
2388.248	1	1	0	0	0.11579	0.16455	0.21089	0.22725	0.061703	0.14241	0.15481	0.31537	0.11333	0.041314	0.18631	0.15039	0.21561	0.22434	0.14007	0.02243	-2.4896	-2.5958	-3	-2.9979	-2.8688	-3.2104	-3.0229	-3.1271	-2.9521	-2.675	-2.9625	-2.9813	-2.7604	-2.8771	-2.8542	-2.9229	155.330	266.044	243.912	373.557	406.156	363.563	381.945	437.134	141.993	305.916	378.332	154.782	230.233	414.614	334.851	434.497	0.00023696	0.00015215	9.1973e-05	1404.5	2.3319e-06	3.0175e-06	1432.5	268.54	4.1796e-06	4.2748e-06	344.23	92.6	73.878	20.642	3.4741e-06	28.469	0.00010274	9.867e-05	2.7633e-05	1284.7	1.0866e-06	1.0793e-06	1321.2	246.21	1.0893e-06	1.0732e-06	291.96	84.248	63.773	18.994	1.0591e-06	25.976	216.068	393.752	201.931	118.526	238.868	335.195	118.709	125.721	285.771	126.537	125.557	132.170	132.306	139.034	167.428	138.934	-8191	255	
2388.344	1	1	0	0	0.065109	0.21523	0.13356	0.11541	0.27822	0.12212	0.18747	0.3236	0.20164	0.031647	0.13349	0.32611	0.20141	0.044231	0.18576	0.061004	-2.6063	-2.575	-2.9562	-3.1625	-2.7021	-3.0687	-2.8229	-2.9188	-3.2667	-2.7313	-3.1646	-2.7771	-2.8771	-2.9938	-2.8625	-2.8187	211.448	436.252	465.558	341.924	351.587	238.827	425.700	357.427	201.691	265.615	333.708	126.564	161.615	160.273	400.449	181.953	0.0003068	0.00020355	0.00012416	1403.6	2.7092e-06	8.4658e-07	1429.1	267.79	1.846e-06	7.5634e-07	344.84	92.454	74.164	20.556	3.8923e-06	28.544	9.9183e-05	9.641e-05	2.7141e-05	1284.9	1.0745e-06	1.0439e-06	1320.8	245.94	1.0445e-06	1.0535e-06	292.15	84.242	63.701	18.965	1.0476e-06	25.998	220.388	150.378	179.216	118.608	281.110	397.820	118.508	125.878	266.281	367.574	125.418	131.698	132.060	139.325	261.158	138.252	-8191	255	
2388.440	1	1	0	0	0.10305	0.34121	0.29665	0.41761	0.10265	0.12562	0.17446	0.21454	0.15813	0.2383	0.13634	0.090663	0.26778	0.089661	0.20282	0.18151	-2.5708	-2.7687	-2.975	-3.1188	-2.8667	-3.2521	-3.0646	-2.9396	-3.0062	-3.0167	-3.1083	-3.0875	-2.7521	-3.0125	-3.0271	-2.975	129.998	294.457	330.121	455.281	451.141	288.336	448.502	410.560	320.411	115.746	442.329	368.529	116.953	434.088	447.210	437.112	0.00023593	0.00021498	8.4995e-05	1405.9	3.2538e-06	2.8211e-06	1430.3	268.48	3.6744e-06	1.2739e-06	345.26	92.732	73.985	20.539	5.2137e-06	28.581	9.9209e-05	9.6138e-05	2.6972e-05	1285.2	1.0691e-06	1.053e-06	1321.5	246.52	1.0582e-06	1.0401e-06	292.45	84.559	63.675	18.935	1.045e-06	25.983	215.701	175.577	176.939	118.609	158.896	289.788	118.737	125.707	187.446	300.375	125.383	131.976	132.113	139.337	245.817	138.429	-8191	255	
2388.536	1	1	0	0	0.066856	0.19006	0.039853	0.32117	0.091835	0.20859	0.22448	0.21883	0.063544	0.18763	0.39426	0.22917	0.18017	0.16039	0.059337	0.033594	-2.65	-2.8292	-3.0438	-3.2687	-2.6479	-3.0125	-3.025	-2.8854	-3.1021	-2.8104	-2.825	-3.1354	-2.6667	-2.9792	-2.9688	-2.6875	421.022	193.457	268.717	439.603	296.398	355.572	398.825	386.119	308.741	239.456	400.466	405.658	145.908	449.043	274.979	412.170	0.0002942	0.00013213	7.7347e-05	1397.1	3.2194e-06	3.2681e-06	1428.2	270.44	2.1916e-06	3.5869e-06	346.7	92.178	73.648	20.673	6.8665e-07	28.613	9.7902e-05	9.3973e-05	2.6328e-05	1282.3	1.0461e-06	1.0455e-06	1317.4	247.1	1.0583e-06	1.0597e-06	292.58	84.402	63.837	19.015	1.0681e-06	26.091	205.075	190.876	197.505	118.493	185.972	382.910	118.832	125.691	287.562	296.561	124.959	132.110	132.637	139.041	262.693	138.680	-8191	255	
2388.632	1	1	0	0	0.066212	0.22049	0.057626	0.20752	0.32117	0.15527	0.23399	0.17752	0.27399	0.10989	0.074718	0.14733	0.19113	0.095898	0.12501	0.13828	-2.7	-2.7313	-2.8688	-3.2292	-2.7542	-2.9771	-3.1896	-2.8	-2.925	-2.8875	-2.9229	-3.0083	-2.5896	-2.9	-2.8979	-2.8542	395.677	226.393	130.856	410.539	223.521	119.827	421.153	333.525	414.134	423.697	285.035	377.606	130.613	270.667	242.860	292.277	0.00030801	0.00029458	0.00010604	1402.1	1.5622e-06	1.2827e-06	1423.5	271.07	3.2903e-06	4.2677e-06	346.16	92.461	73.843	20.535	4.7468e-06	28.398	0.00010102	9.8085e-05	2.7381e-05	1285.6	1.0944e-06	1.0666e-06	1315.4	247.49	1.0654e-06	1.0599e-06	292.29	84.198	63.388	18.843	1.0393e-06	25.802	200.980	446.785	180.439	118.594	139.786	337.366	118.771	125.773	289.762	272.540	125.808	132.301	132.339	139.137	230.806	139.079	-8191	255	
2388.728	1	1	0	0	0.1714	0.18674	0.12072	0.36392	0.04143	0.17782	0.27839	0.24687	0.19869	0.16498	0.036193	0.10038	0.287	0.1612	0.038087	0.31787	-2.6208	-2.7875	-2.9042	-3.2687	-2.6979	-3.0833	-3.2167	-2.8312	-2.8771	-2.8979	-2.7792	-2.9875	-2.7583	-2.8438	-2.9854	-2.6729	250.646	354.946	426.893	444.612	467.638	261.136	456.311	301.709	147.467	216.692	401.846	256.576	175.180	253.596	463.928	144.803	0.00030559	0.00021216	3.0771e-05	1367.5	2.3105e-06	3.1019e-06	1377.6	264.34	2.2065e-06	5.3408e-06	340.39	91.227	72.044	20.073	2.7188e-06	28.1	9.589e-05	9.2079e-05	2.5398e-05	1248.5	1.0014e-06	9.9188e-07	1272.8	242.08	9.9956e-07	9.9913e-07	286.2	82.892	62.355	18.564	1.036e-06	25.63	202.830	114.645	222.155	118.723	191.036	215.563	118.900	125.892	214.927	181.399	125.469	132.407	132.448	139.354	202.460	139.167	-8191	255	
2388.847	1	1	0	0	0.057079	0.18841	0.020459	0.25662	0.17949	0.10517	0.21803	0.36333	0.22464	0.038503	0.11807	0.12212	0.26569	0.27168	0.22378	0.15191	-2.6771	-2.8333	-2.7354	-3.2	-2.7167	-2.7792	-3.3	-2.9083	-3.0354	-3.0292	-2.7479	-3.25	-2.8271	-2.8229	-3.1667	-2.6937	303.815	376.823	129.198	420.545	324.780	153.092	436.405	399.204	410.263	267.381	418.325	447.703	462.889	451.370	163.418	431.435	0.00024684	0.0001919	7.2138e-05	1354.2	2.4585e-06	2.6355e-06	1381.5	265.78	3.5562e-06	2.1704e-06	339.28	91.255	72.651	20.185	2.702e-06	28.06	9.7669e-05	9.4597e-05	2.6004e-05	1241.3	1.0216e-06	1.026e-06	1276	242.14	1.0168e-06	1.0209e-06	286.55	82.834	62.481	18.616	1.0085e-06	25.544	205.700	417.326	266.278	118.829	213.797	186.752	118.738	125.880	250.253	278.021	125.571	132.023	133.235	139.409	186.226	138.805	-8191	255	
2388.943	1	1	0	0	0.25941	0.049134	0.20275	0.18769	0.15633	0.068229	0.039676	0.30755	0.13221	0.20352	0.18161	0.1152	0.11562	0.20345	0.17539	0.14679	-2.5604	-3.0125	-2.6229	-3.1479	-2.9188	-2.725	-3.1583	-2.775	-2.9917	-2.6271	-2.7479	-3.0187	-2.925	-2.7375	-3.1125	-2.7938	179.865	408.488	195.363	150.615	444.854	390.035	360.592	375.993	224.258	168.555	317.667	375.532	139.538	284.989	356.628	196.152	0.00024205	0.00023285	4.7451e-05	1352.7	2.7003e-07	2.1384e-06	1377.8	263.69	3.6279e-06	2.7313e-06	337.65	90.019	72.702	20.212	2.8167e-06	27.96	9.4851e-05	9.0631e-05	2.5179e-05	1236.8	1.0142e-06	9.9609e-07	1273.2	241.14	1.0099e-06	1.0107e-06	285.24	82.406	62.417	18.589	1.0204e-06	25.485	191.240	119.515	403.530	118.870	320.077	436.574	118.876	126.026	224.920	232.986	125.353	132.146	132.819	139.435	208.361	139.058	-8191	255	
2389.017	1	1	0	0	0.28263	0.051204	0.2526	0.34334	0.23612	0.13513	0.37548	0.23909	0.15738	0.1457	0.10537	0.04621	0.17272	0.30331	0.082111	0.020151	-2.5167	-3.0896	-2.5917	-3.1604	-2.7	-2.6729	-3.2	-2.8708	-2.8187	-2.9458	-2.6625	-3.0354	-3.1146	-2.6375	-3.1813	-3.0958	203.349	442.058	153.746	429.443	257.870	149.710	434.184	405.307	276.727	277.975	364.243	224.599	436.055	367.162	377.797	352.661	0.00023539	0.00037746	5.2558e-05	1350.3	3.3983e-06	4.0212e-06	1381.8	263.03	2.1338e-06	6.3357e-06	338.96	91.214	72.658	20.294	1.9428e-06	28.289	9.7659e-05	9.5162e-05	2.6497e-05	1239.9	1.0644e-06	1.0528e-06	1277.7	241.46	1.0692e-06	1.0671e-06	285.98	83.172	62.794	18.735	1.1e-06	25.822	191.161	183.320	265.493	118.774	231.025	409.859	118.906	126.011	261.490	284.508	125.508	132.147	132.510	139.369	230.886	138.833	-8191	255	
2389.136	1	1	0	0	0.17094	0.1179	0.084136	0.092221	0.16796	0.45337	0.1097	0.22383	0.47327	0.27745	0.21182	0.19914	0.16882	0.052026	0.081881	0.28485	-2.3333	-3.1271	-2.5687	-3.0812	-2.9854	-2.6208	-3.1437	-2.7292	-2.75	-3.0479	-2.525	-2.8958	-2.9562	-2.5563	-2.9917	-2.8167	212.095	360.058	140.402	310.249	414.767	375.507	412.547	138.756	460.484	302.074	411.305	118.762	121.250	114.888	183.895	404.052	0.00028134	0.00043119	4.8858e-05	1366.2	2.9474e-06	4.1509e-06	1392.6	265.79	1.8388e-06	3.0344e-06	341.61	91.385	72.279	20.546	5.3777e-06	28.175	0.00010441	0.00010132	2.8032e-05	1251	1.1133e-06	1.0958e-06	1289.6	243.51	1.1356e-06	1.1202e-06	289.27	83.632	63.078	18.917	1.1485e-06	25.959	211.675	444.769	123.960	118.735	290.281	270.889	118.885	125.926	355.468	208.605	125.194	132.041	132.794	139.136	216.406	138.679	-8191	255	
2389.232	1	1	0	0	0.13018	0.21488	0.15884	0.13471	0.063757	0.26676	0.24548	0.17744	0.10051	0.078319	0.096133	0.30803	0.2317	0.0949	0.1404	0.13479	-2.4437	-2.9437	-2.7354	-2.9792	-2.9458	-2.7625	-3.2417	-2.8875	-2.7021	-3.0417	-2.8104	-2.9667	-3.0354	-2.7479	-3.1312	-2.9604	286.731	354.841	157.903	366.080	325.044	354.893	415.352	418.978	446.676	444.022	437.662	447.499	202.059	343.541	292.182	128.849	0.00025793	0.00012107	6.7067e-05	1388.8	2.0908e-06	4.7586e-06	1427.3	269.52	5.4719e-06	2.7357e-06	346.4	92.905	73.543	20.814	4.358e-06	29.256	0.00010848	0.00010788	2.9783e-05	1275.2	1.2053e-06	1.1988e-06	1318.9	246.89	1.2213e-06	1.2269e-06	294.82	85.375	64.662	19.391	1.2518e-06	26.703	201.568	187.141	206.103	118.568	179.345	215.873	118.830	125.432	263.986	264.864	125.167	132.250	132.502	139.262	236.748	138.305	-8191	255	
2389.328	1	1	0	0	0.11661	0.28483	0.16536	0.06688	0.095801	0.16412	0.076569	0.36148	0.13373	0.040697	0.16326	0.19848	0.11417	0.16018	0.099503	0.48494	-2.1688	-2.9479	-2.9208	-3.0958	-2.8812	-2.875	-3.2562	-3.025	-2.8	-3.1042	-2.8063	-2.7313	-2.9979	-2.7562	-2.9542	-3.0687	202.397	232.277	189.644	365.157	155.105	144.792	324.903	299.792	319.824	186.300	373.816	408.759	381.953	401.894	350.755	341.092	0.0002962	9.5934e-05	5.0417e-05	1422.2	3.4535e-06	4.3965e-06	1452.5	272.65	2.3672e-06	2.04e-06	352.53	94.659	75.676	21.276	2.2357e-06	29.32	0.00011942	0.00011608	3.2702e-05	1306.2	1.3171e-06	1.2878e-06	1348.9	251.91	1.3079e-06	1.2921e-06	300.16	87.003	66.259	19.736	1.307e-06	27.024	218.698	134.364	135.004	118.627	334.261	272.053	118.616	125.452	215.198	291.519	125.317	132.047	132.083	138.773	379.018	138.357	-8191	255	
2389.449	1	1	0	0	0.19708	0.079913	0.20667	0.18029	0.18328	0.084489	0.22487	0.25003	0.11408	0.02088	0.04899	0.23294	0.17115	0.16199	0.21916	0.33912	-2.4542	-3.0979	-2.85	-2.9333	-3	-2.6688	-3.1958	-3.0229	-2.5792	-3.0646	-2.9271	-2.9979	-3.125	-2.8625	-2.9917	-2.9521	235.309	148.765	151.921	159.561	386.929	331.953	432.421	443.809	273.104	332.615	307.032	413.659	179.360	412.765	206.994	457.500	0.00028289	0.00012035	5.2356e-05	1444.9	2.4909e-06	1.4808e-06	1472.4	275.8	1.6826e-06	4.0871e-06	354.62	95.329	76.19	21.258	6.2868e-06	29.76	0.00012091	0.00011794	3.3231e-05	1325.7	1.3159e-06	1.2882e-06	1363.9	254.48	1.3227e-06	1.3188e-06	303.18	87.602	66.559	19.958	1.3356e-06	27.316	197.218	128.484	184.372	118.487	249.325	342.268	118.779	125.872	263.047	231.352	124.980	131.864	132.123	138.847	254.229	138.033	-8191	255	
2389.545	1	1	0	0	0.26308	0.13406	0.23309	0.21291	0.11175	0.075296	0.067677	0.14118	0.050262	0.1715	0.11934	0.26543	0.13379	0.065896	0.049602	0.15328	-2.2021	-2.9729	-3.0125	-2.8583	-3.1292	-2.6896	-3.0875	-3.025	-2.8417	-2.8271	-3.1312	-2.7625	-3.0021	-2.6979	-2.7792	-3.1333	347.198	170.576	331.114	413.499	337.289	309.085	391.533	394.780	336.162	355.154	183.781	408.892	190.507	461.319	270.654	451.762	0.00030179	0.0002057	7.2497e-05	1456.6	5.8424e-06	3.0257e-06	1482.1	278.05	1.0693e-06	5.5321e-07	357.79	96.621	77.154	21.433	3.3634e-06	29.781	0.00012576	0.00012348	3.4338e-05	1335.6	1.3736e-06	1.346e-06	1375	256.49	1.3669e-06	1.3619e-06	305.41	88.605	67.292	20.116	1.3687e-06	27.482	205.877	142.604	197.423	118.588	243.340	239.871	118.628	125.624	215.182	352.578	125.109	132.030	132.371	139.023	234.458	138.427	-8191	255	
2389.617	1	1	0	0	0.45243	0.063524	0.10563	0.32555	0.29385	0.18903	0.39436	0.28063	0.14881	0.17487	0.35513	0.13776	0.052751	0.0040302	0.24542	0.084963	-2.2521	-3.0292	-2.9333	-2.9479	-2.9958	-2.8312	-2.9583	-3.1458	-2.6604	-3.0375	-3.0729	-2.7271	-3.1396	-2.775	-2.7292	-3.2771	289.365	171.230	263.360	408.864	311.726	244.356	412.796	119.223	406.733	311.687	386.175	371.622	402.509	433.331	233.868	410.350	0.00028527	0.00015501	2.6096e-05	1467.1	1.3606e-06	3.1798e-06	1501.5	279.52	9.9637e-07	6.9869e-07	362.01	97.086	77.236	21.617	2.428e-06	30.129	0.00012731	0.00012593	3.4982e-05	1349	1.3932e-06	1.3736e-06	1387.3	258.45	1.3924e-06	1.3969e-06	308.39	89.124	67.997	20.329	1.4348e-06	27.77	196.642	140.774	217.479	118.597	192.386	251.240	118.669	125.551	215.026	178.323	124.809	131.695	132.597	138.779	294.591	138.522	-8191	255	
2389.737	1	1	0	0	0.39781	0.084889	0.19204	0.24715	0.27026	0.13359	0.28216	0.21014	0.23386	0.24623	0.12704	0.25677	0.1194	0.18829	0.18182	0.22315	-2.4062	-2.8937	-2.9688	-2.7292	-2.9958	-2.9208	-2.8771	-3.1417	-2.7604	-2.825	-3.0062	-2.7646	-3.0771	-2.8563	-2.8104	-3.05	334.506	246.792	409.730	437.174	307.311	298.596	447.636	456.508	303.879	365.328	164.607	313.632	451.258	354.417	205.658	350.814	0.00038977	8.1001e-05	6.8452e-05	1478.7	4.3652e-06	3.8703e-06	1515.8	283.57	2.1797e-06	4.982e-06	364.33	97.488	77.898	21.913	2.5101e-06	30.406	0.00013448	0.00013152	3.6923e-05	1361.2	1.4806e-06	1.4404e-06	1402.8	261.81	1.4619e-06	1.4494e-06	312.22	89.989	68.803	20.559	1.4744e-06	28.086	206.891	180.148	354.666	118.485	222.877	214.449	118.601	125.583	268.077	297.135	125.057	131.802	132.142	138.616	233.706	138.102	-8191	255	
2389.832	1	1	0	0	0.23547	0.1871	0.095671	0.11877	0.079904	0.12994	0.21586	0.19161	0.084235	0.068532	0.18639	0.21704	0.20186	0.1497	0.1863	0.20116	-2.3646	-2.8917	-2.9562	-2.8812	-3.0354	-2.9792	-2.7562	-3.0875	-2.9021	-2.9479	-3.2021	-2.8063	-2.8875	-2.8708	-2.7812	-3.0542	368.725	405.461	451.088	134.253	196.926	293.713	423.283	366.424	353.262	151.374	422.671	195.543	347.543	158.877	292.850	414.835	0.00033324	0.00032619	5.8592e-05	1491.5	4.258e-06	2.0091e-06	1525.1	285.15	1.0902e-06	3.8234e-06	367.97	98.605	79.234	22.103	1.3743e-06	30.411	0.00013695	0.00013627	3.7293e-05	1375.4	1.5093e-06	1.4814e-06	1414	264.41	1.5073e-06	1.5086e-06	315.92	90.794	69.835	20.748	1.5126e-06	28.221	207.976	180.181	276.291	118.287	161.412	138.145	118.788	125.483	226.512	214.001	125.154	131.516	132.292	138.570	374.878	138.433	-8191	255	
2389.928	1	1	0	0	0.053625	0.29709	0.30065	0.1733	0.15683	0.26316	0.37015	0.096992	0.03263	0.2216	0.08505	0.087603	0.02795	0.11555	0.03267	0.11588	-2.3979	-2.6333	-3.0021	-2.7979	-3.1146	-2.825	-2.9083	-3.1979	-2.7146	-2.8521	-3.2687	-2.7687	-2.9292	-2.9896	-2.625	-3.2208	418.867	144.649	183.265	438.189	367.181	295.053	373.018	171.796	401.093	250.987	235.820	149.249	418.767	135.734	365.561	425.104	0.00028293	0.00045582	4.9413e-05	1501.6	3.8609e-06	2.4125e-06	1529.2	286.49	1.7128e-06	3.6892e-06	369.31	98.755	79.122	22.093	6.8859e-06	30.195	0.00013757	0.00013652	3.8144e-05	1381.4	1.5033e-06	1.49e-06	1420	265.44	1.4971e-06	1.4851e-06	316.34	90.874	69.762	20.714	1.4754e-06	28.11	209.618	180.347	158.398	118.530	220.771	240.927	118.587	125.554	408.584	279.424	125.023	132.000	132.213	138.559	258.380	138.373	-8191	255	
2390.024	1	1	0	0	0.1587	0.16513	0.13459	0.38093	0.17762	0.13745	0.37952	0.28737	0.35464	0.25365	0.13773	0.096776	0.046734	0.18311	0.24362	0.37252	-2.3729	-2.7792	-2.9208	-2.9167	-2.8083	-3.0333	-2.9854	-3.0125	-2.9375	-2.7	-3.1458	-2.8208	-2.8042	-3.0438	-2.75	-3.1562	380.782	383.282	316.860	377.856	319.468	274.346	382.684	432.531	340.825	394.358	191.430	319.100	188.025	398.390	276.431	365.601	0.00022995	0.00024627	0.00013016	1505.6	2.133e-06	2.7093e-06	1532.8	289.23	2.8496e-06	2.8179e-06	370.22	99.319	78.88	22.164	4.5346e-06	30.591	0.00013761	0.00013391	3.7199e-05	1384.6	1.4673e-06	1.4448e-06	1420.1	266.43	1.4538e-06	1.4725e-06	316.96	91.072	69.573	20.737	1.4624e-06	28.282	210.005	123.498	152.136	118.386	210.557	224.509	118.409	125.572	370.750	270.299	125.065	131.532	131.929	138.613	355.793	137.954	-8191	255	
2390.144	1	1	0	0	0.098409	0.14475	0.14894	0.18259	0.17813	0.12938	0.2762	0.085841	0.2213	0.14844	0.042337	0.21611	0.17064	0.10523	0.27266	0.17938	-2.4771	-2.5854	-3.1229	-2.9625	-2.7417	-3.1	-2.9229	-3.0667	-2.7188	-2.4875	-2.9604	-2.5542	-2.7687	-3.0833	-2.5312	-2.8333	116.039	446.058	444.796	397.758	159.308	192.561	467.205	402.550	371.903	237.851	285.831	148.314	315.826	426.122	382.076	260.486	0.00022569	0.00033976	8.4133e-05	1508.5	5.1653e-06	4.2384e-06	1538.1	290.47	1.6559e-06	7.6365e-07	367.38	98.774	79.492	22.236	1.9759e-06	30.683	0.00013717	0.00013427	3.749e-05	1386.7	1.4674e-06	1.4791e-06	1423.5	267.84	1.471e-06	1.471e-06	316.5	90.985	69.722	20.829	1.4759e-06	28.286	201.261	255.865	183.182	118.316	212.738	241.700	118.588	125.630	190.452	424.060	125.090	131.587	132.258	138.480	411.324	138.438	-8191	255	
2390.241	1	1	0	0	0.12602	0.35496	0.11442	0.18186	0.22255	0.14486	0.15401	0.1146	0.32802	0.14777	0.17177	0.11845	0.21227	0.20391	0.16985	0.18895	-2.425	-2.7479	-2.8792	-2.8167	-2.8104	-3.0542	-2.9708	-3.1354	-3.0708	-2.4667	-3.025	-2.8021	-2.7562	-3.0208	-2.7729	-2.8187	390.172	180.347	400.176	120.927	119.232	452.652	365.152	454.179	399.868	152.545	141.348	161.992	436.664	131.423	141.181	317.851	0.00032409	0.00036218	0.00010545	1508.8	3.6241e-06	2.531e-06	1538.9	291.06	1.9795e-06	3.851e-07	372.09	98.692	78.9	22.176	2.115e-06	30.799	0.00013816	0.00013435	3.7268e-05	1389	1.4695e-06	1.4722e-06	1425.9	267.56	1.4635e-06	1.4445e-06	317.93	91.072	69.62	20.8	1.4771e-06	28.367	192.110	165.161	250.012	118.462	235.565	240.650	118.574	125.510	204.035	357.183	125.476	131.613	132.369	138.247	429.260	138.232	-8191	255	
2390.312	1	1	0	0	0.2602	0.16581	0.146	0.11992	0.13506	0.17603	0.36033	0.061632	0.062797	0.37535	0.17556	0.16816	0.052702	0.18001	0.072459	0.24566	-2.4896	-2.7125	-2.9375	-3.0271	-2.7708	-3.1104	-2.9375	-3.0458	-2.9646	-2.65	-3.0646	-2.8563	-2.9104	-3.1083	-2.8854	-2.8292	310.346	315.523	408.117	218.378	269.812	232.219	393.243	427.140	174.183	312.645	439.116	449.988	219.247	274.225	172.211	138.575	0.00030358	0.00036439	5.9925e-05	1509.9	3.3019e-07	2.7232e-06	1543.1	291.67	1.7788e-06	5.33e-07	373.96	98.986	79.58	22.362	3.0997e-06	30.876	0.00013746	0.0001344	3.7628e-05	1392	1.492e-06	1.4809e-06	1431.7	268.65	1.4977e-06	1.4965e-06	319.41	91.304	70.033	20.947	1.5201e-06	28.508	209.922	255.364	135.573	118.327	183.489	240.792	118.543	125.676	196.550	375.925	124.868	131.697	132.198	138.479	302.243	138.268	-8191	255	
2390.408	1	1	0	0	0.052191	0.11099	0.081208	0.040636	0.10105	0.40009	0.37847	0.034554	0.15973	0.2449	0.087531	0.088255	0.24191	0.15218	0.24924	0.1778	-2.7458	-2.6958	-2.85	-3.1562	-2.7938	-2.7771	-3.0521	-3.0542	-3.1792	-2.7104	-3.1813	-3.1437	-2.6708	-3.0312	-2.8667	-2.8375	460.440	222.197	174.589	441.204	377.586	340.036	377.781	353.165	162.866	336.696	337.516	418.280	112.198	419.308	303.885	157.815	0.00025627	9.3558e-05	3.3964e-05	1520.5	5.2564e-06	1.6492e-06	1554.4	292.52	2.0605e-06	1.882e-06	372.84	99.189	79.622	22.385	7.1185e-06	30.796	0.00013942	0.00013732	3.8246e-05	1401.2	1.513e-06	1.5103e-06	1441	270.13	1.5205e-06	1.5245e-06	321.32	91.966	70.52	21.087	1.5293e-06	28.682	205.834	222.876	264.317	118.358	211.873	212.083	118.441	125.378	271.665	347.821	124.825	131.378	131.721	138.716	288.448	138.481	-8191	255	
2390.529	1	1	0	0	0.16567	0.088154	0.062108	0.11708	0.15016	0.1843	0.33608	0.030185	0.066907	0.1337	0.26224	0.11506	0.16383	0.24016	0.22414	0.078295	-2.6437	-2.7313	-2.9708	-3.1417	-2.5479	-2.9458	-3.1083	-2.7667	-3.1208	-2.8438	-3.0167	-3.1854	-2.8521	-3.0167	-2.8042	-2.7125	129.705	353.661	461.496	441.592	223.081	378.312	384.786	392.611	225.599	173.027	172.110	414.860	178.256	404.790	135.248	206.869	0.00035861	8.2434e-05	7.7131e-05	1534.9	3.8938e-06	2.669e-06	1564.3	294.31	4.1869e-06	1.7228e-06	375.46	100.37	80.074	22.59	1.7159e-06	30.97	0.00014475	0.0001411	3.9465e-05	1412.8	1.5807e-06	1.553e-06	1449.1	272.35	1.5671e-06	1.5818e-06	323.26	92.523	71.156	21.217	1.5712e-06	28.836	198.239	356.070	220.199	118.464	181.607	221.446	118.397	125.392	243.055	270.815	124.738	131.516	131.807	138.855	296.874	138.395	-8191	255	
2390.625	1	1	0	0	0.098113	0.065714	0.038278	0.15808	0.22226	0.27922	0.27772	0.023217	0.17405	0.13913	0.17097	0.28852	0.13427	0.17952	0.20681	0.095378	-2.7417	-2.7417	-2.8583	-3.4396	-2.8042	-3.0396	-3.1979	-2.8104	-2.9562	-2.8583	-2.9583	-3.2687	-2.8458	-3.0146	-3.0021	-2.7167	410.508	385.133	422.821	128.753	129.995	168.806	353.720	446.500	132.586	329.150	441.618	404.788	114.653	138.962	137.308	440.105	0.00031534	0.00037518	0.00010477	1538.3	6.2492e-07	2.9744e-06	1570.8	295.95	2.8264e-06	3.0825e-06	378.22	100.49	81.008	22.741	4.0688e-06	31.033	0.00014727	0.00014367	4.0135e-05	1419.7	1.5974e-06	1.6044e-06	1456.6	273.55	1.6177e-06	1.6219e-06	325.3	93.103	71.731	21.323	1.6173e-06	28.943	195.348	169.745	200.354	118.494	171.342	347.333	118.393	125.361	330.853	220.362	124.929	131.824	132.152	138.336	331.142	137.947	-8191	255	
2390.721	1	1	0	0	0.21139	0.08504	0.27623	0.12356	0.18133	0.074003	0.15832	0.20923	0.35915	0.15361	0.087978	0.12227	0.048623	0.13314	0.11755	0.34763	-2.6375	-2.9625	-3.0042	-3.2062	-2.7938	-3.1417	-3.3917	-2.8563	-3.1333	-2.7583	-2.8771	-3.1042	-2.7313	-2.8833	-2.9042	-2.8146	133.502	209.556	253.052	264.103	169.480	252.199	230.250	447.384	269.328	357.997	207.682	163.547	203.214	411.288	257.899	410.224	0.00036766	0.00017925	4.512e-05	1544.3	1.6395e-06	9.564e-07	1566.3	297.01	5.6896e-07	1.8581e-06	379.65	100.78	80.168	22.648	1.8652e-06	31.128	0.00015094	0.00014644	4.0721e-05	1424.5	1.6074e-06	1.5984e-06	1458.2	274.66	1.6262e-06	1.6252e-06	326.4	93.094	71.504	21.336	1.6598e-06	28.994	207.390	120.187	299.479	118.313	445.831	146.162	118.421	125.220	247.072	165.319	124.970	131.660	132.349	138.370	261.750	138.473	-8191	255	
2390.818	1	1	0	0	0.069932	0.03853	0.14537	0.24072	0.13412	0.13378	0.20057	0.1747	0.059999	0.1894	0.20711	0.11823	0.11486	0.22176	0.15558	0.10969	-2.5625	-2.8104	-2.8625	-3.0583	-2.6646	-2.9271	-3.1021	-2.8438	-2.8521	-3.0458	-2.8375	-3.1667	-2.6146	-2.8	-3.0542	-2.7625	416.838	386.024	161.338	375.437	415.062	204.803	380.321	123.455	372.992	140.302	404.349	149.191	332.912	448.190	196.405	207.986	0.00030977	0.00020831	5.8318e-05	1544.5	1.0956e-06	3.3224e-06	1575.1	298.09	3.493e-06	5.4532e-06	375.89	100.08	79.787	22.562	5.4289e-07	30.927	0.00015417	0.0001518	4.1477e-05	1422.7	1.658e-06	1.6472e-06	1459.2	275.09	1.6402e-06	1.6309e-06	325.58	92.759	71.212	21.226	1.5966e-06	28.839	204.336	452.095	367.815	118.311	250.000	165.138	118.381	125.268	240.615	266.112	125.197	131.952	132.094	138.739	144.429	138.527	-8191	255	
2390.912	1	1	0	0	0.052742	0.042877	0.1557	0.26633	0.12298	0.14073	0.2113	0.17573	0.15742	0.025168	0.18655	0.13632	0.028991	0.19992	0.18654	0.22519	-2.5333	-2.8063	-2.6188	-3.3604	-2.7646	-2.8917	-3.3521	-2.675	-3.0021	-3.0542	-2.8229	-3.0167	-2.8917	-2.7792	-2.8875	-2.7938	455.793	289.614	262.020	454.123	143.241	455.661	370.771	232.283	372.055	363.206	151.168	410.541	173.820	392.131	436.537	397.872	0.00019469	0.00023139	3.6997e-05	1538.8	1.1e-06	5.7324e-06	1565.1	293.9	3.621e-06	1.4649e-06	375.92	100.29	80.778	22.359	1.2242e-06	30.995	0.00014697	0.00014692	4.0558e-05	1417.5	1.5878e-06	1.5785e-06	1451.9	272.83	1.5901e-06	1.5805e-06	324.67	92.562	71.101	21.144	1.635e-06	28.85	217.209	229.232	417.368	118.586	153.665	224.189	118.357	125.330	281.015	185.956	125.008	131.337	132.061	138.568	465.321	138.095	-8191	255	
2391.008	1	1	0	0	0.25955	0.18384	0.12803	0.36966	0.062603	0.17307	0.27408	0.15275	0.16982	0.34008	0.35013	0.16538	0.030897	0.13627	0.20146	0.073978	-2.3812	-2.9958	-2.6813	-3.1375	-2.9333	-2.9104	-3.2708	-2.9729	-2.9396	-3.0917	-2.8229	-2.9458	-2.9229	-2.7646	-3.0229	-2.8917	110.892	292.264	199.998	427.304	162.715	273.732	112.513	401.138	328.496	227.896	117.597	154.195	309.535	453.639	119.734	115.229	0.00032546	0.00030189	4.3948e-05	1538.2	2.996e-06	4.72e-06	1555.7	295.16	5.635e-06	4.1103e-06	372.1	98.828	78.336	21.98	4.1917e-06	30.061	0.00015241	0.00014983	4.1688e-05	1416.7	1.6431e-06	1.6176e-06	1445.5	272.31	1.5997e-06	1.563e-06	320.64	91.058	69.481	20.65	1.4629e-06	27.942	196.489	232.423	262.465	118.548	229.703	247.551	118.461	125.622	275.619	255.149	125.083	131.705	132.494	138.822	462.680	138.780	-8191	255	
2391.129	1	1	0	0	0.32704	0.19128	0.19741	0.21808	0.080217	0.13703	0.080908	0.2699	0.21306	0.34647	0.22638	0.24575	0.1779	0.33553	0.12925	0.11933	-2.5375	-2.9896	-2.7229	-3.2479	-2.8333	-2.8187	-3.2396	-2.9583	-2.9	-3.1208	-2.9417	-3.0083	-3.2562	-2.7062	-3.1312	-3.0208	252.581	367.079	420.266	404.556	311.656	418.422	463.560	353.885	260.955	224.183	444.438	177.751	439.663	261.812	387.444	273.344	0.00033735	0.00022895	6.1213e-05	1490.5	3.7649e-06	5.1753e-07	1516	283.06	3.9829e-06	3.6337e-06	360.62	96.352	77.284	21.634	4.6753e-06	30.044	0.00013284	0.00012834	3.5228e-05	1371.7	1.3694e-06	1.3415e-06	1401.5	260.36	1.3285e-06	1.313e-06	308.73	88.621	67.597	20.166	1.3504e-06	27.6	209.077	133.086	285.435	118.492	262.165	269.495	118.556	125.498	316.212	295.844	125.093	131.621	132.164	139.174	224.008	138.755	-8191	255	
2391.225	1	1	0	0	0.1378	0.095257	0.10368	0.038013	0.056994	0.30484	0.2551	0.19214	0.053291	0.25386	0.04718	0.2183	0.048569	0.07923	0.24889	0.12408	-2.475	-2.9292	-2.6937	-3.0354	-2.8292	-2.7208	-3.3104	-3.1458	-3.0417	-3.2417	-2.9396	-3.0604	-2.9167	-2.8729	-3.1688	-2.9938	278.991	301.444	350.537	378.285	299.363	351.175	417.294	408.859	221.742	152.022	235.391	428.706	398.382	121.130	230.505	164.793	0.00028375	0.00056051	5.5499e-05	1479.7	3.9369e-06	2.8646e-06	1511.9	281.79	2.8222e-06	1.9596e-06	362.24	97.079	77.742	21.766	1.9177e-06	29.606	0.00012751	0.00012512	3.5485e-05	1361.8	1.4306e-06	1.4179e-06	1398	260.49	1.4366e-06	1.4146e-06	310.27	89.174	68.111	20.279	1.398e-06	27.564	205.201	132.034	196.149	118.494	251.117	236.025	118.585	125.611	244.001	242.443	125.234	131.707	132.076	138.919	413.707	138.311	-8191	255	
2391.321	1	1	0	0	0.10908	0.11158	0.17674	0.36956	0.069429	0.096278	0.14839	0.2086	0.026638	0.11054	0.060776	0.32702	0.15444	0.27933	0.0095329	0.13961	-2.2313	-2.9667	-2.7604	-3.0042	-3.0542	-2.7042	-3.1813	-2.8625	-2.8208	-3.1917	-2.75	-2.9208	-3.1542	-2.6437	-3.0333	-2.8604	345.243	327.047	366.190	410.384	150.843	268.298	441.613	462.624	192.125	438.165	136.046	190.080	394.642	282.102	370.199	406.372	0.000316	0.00013753	6.324e-05	1474.3	8.9376e-07	1.9379e-06	1496.5	281.06	2.7648e-06	4.2403e-06	360.72	96.621	75.974	21.561	2.9333e-06	29.692	0.0001304	0.00012521	3.5355e-05	1355.2	1.3644e-06	1.347e-06	1386.9	258.71	1.3328e-06	1.3186e-06	308.05	88.508	67.168	20.047	1.3319e-06	27.371	202.789	181.972	275.415	118.449	371.613	225.318	118.641	125.676	257.425	154.354	125.205	131.943	132.327	139.188	245.728	138.673	-8191	255	
2391.417	1	1	0	0	0.16094	0.17605	0.35139	0.1697	0.1886	0.10286	0.33746	0.060895	0.091162	0.16333	0.049779	0.03906	0.23318	0.10381	0.36369	0.19742	-2.4083	-3.0271	-2.75	-2.9875	-3.0646	-2.7667	-3.2042	-3.175	-2.6417	-3.0625	-3.0021	-2.8417	-3.2792	-2.8646	-3.0375	-3.0979	290.867	184.942	127.938	436.932	177.202	357.122	375.726	166.910	191.319	215.457	118.089	371.214	339.034	130.123	270.318	398.208	0.00030094	0.00039328	4.4431e-05	1465.7	1.0343e-06	2.6449e-06	1488.9	280.72	4.5827e-06	1.4606e-06	358.78	96.383	76.688	21.487	3.1962e-06	29.638	0.00012413	0.00012182	3.3584e-05	1345.2	1.3358e-06	1.3314e-06	1380.1	258.12	1.3352e-06	1.3305e-06	306.81	88.37	67.072	19.998	1.3338e-06	27.331	213.412	118.626	247.101	118.484	305.999	244.251	118.529	125.500	251.060	204.265	125.051	131.879	132.174	138.933	244.143	138.906	-8191	255	
2391.538	1	1	0	0	0.15265	0.12146	0.25084	0.15584	0.17119	0.1525	0.097255	0.18839	0.031894	0.19144	0.09341	0.14346	0.27005	0.077852	0.17228	0.15434	-2.35	-3.2229	-2.7812	-3.0125	-3.0167	-2.8229	-3.2354	-3.2083	-2.6229	-3.1208	-2.8063	-2.9188	-3.1542	-2.8792	-2.9771	-3.3521	344.467	202.495	242.363	458.043	245.148	316.146	425.718	369.538	223.189	405.406	145.534	387.738	156.493	252.844	341.300	454.839	0.00025007	0.00019485	7.8474e-05	1464.8	2.9122e-06	4.537e-06	1491.2	280.96	3.8435e-06	1.0349e-06	358.53	96.299	76.693	21.639	4.2614e-06	29.938	0.00012482	0.00012097	3.3603e-05	1345.8	1.3281e-06	1.3141e-06	1382.2	258.16	1.3423e-06	1.324e-06	306.61	88.342	67.133	20.082	1.3154e-06	27.475	211.109	443.499	238.756	118.761	252.358	186.850	118.597	125.463	330.656	246.991	125.095	132.034	132.106	138.734	214.500	138.279	-8191	255	
2391.609	1	1	0	0	0.215	0.06031	0.24495	0.13323	0.17001	0.1097	0.43401	0.27939	0.26665	0.21177	0.20276	0.26549	0.14847	0.16167	0.35464	0.1908	-2.3958	-3.0208	-2.9938	-2.8708	-3.1417	-2.8667	-3.0312	-3.2188	-2.6063	-3.1208	-3.0542	-2.8875	-3.0708	-2.8271	-2.9271	-3.1542	121.733	118.254	347.314	117.181	241.048	228.484	406.605	398.514	416.589	436.915	347.857	145.451	284.366	335.823	279.275	359.769	0.00032326	0.00031751	5.2899e-05	1463.1	3.165e-06	7.3628e-06	1489.2	279.84	5.1922e-07	4.9209e-07	359.02	95.297	76.961	21.414	2.1817e-06	29.845	0.00012341	0.00012059	3.3697e-05	1345.3	1.3204e-06	1.3244e-06	1378.7	257.68	1.3169e-06	1.3086e-06	306.03	88.058	67.107	20.021	1.3251e-06	27.361	205.652	181.937	185.839	118.454	210.238	218.819	118.646	125.746	359.036	275.588	124.999	131.675	132.806	138.939	417.892	138.337	-8191	255	
2391.706	1	1	0	0	0.095912	0.1648	0.2134	0.21367	0.033744	0.075709	0.23221	0.12331	0.27084	0.15043	0.054469	0.050461	0.08651	0.20121	0.094355	0.10654	-2.3229	-2.95	-2.9896	-3.0292	-3.0354	-2.8979	-3.1625	-3.1208	-2.7167	-3.1188	-3.1792	-2.8688	-3.1063	-2.7812	-3	-3.2833	202.789	218.530	293.148	383.263	202.492	272.102	397.168	452.795	265.883	418.027	254.789	213.993	163.061	184.918	315.010	254.551	0.00035837	0.00059609	0.0002072	1461.8	2.1779e-06	6.4846e-07	1488.3	279.38	2.934e-06	3.772e-06	359.4	95.748	76.92	21.431	6.094e-06	29.685	0.00012375	0.00012065	3.3124e-05	1342.7	1.3297e-06	1.3283e-06	1378.4	257.86	1.3162e-06	1.3016e-06	306.79	88.193	67.156	19.972	1.3104e-06	27.354	204.223	127.221	226.818	118.548	112.237	417.328	118.634	125.629	342.626	226.777	125.074	131.839	132.403	138.891	197.205	138.194	-8191	255	
2391.802	1	1	0	0	0.22017	0.14544	0.28421	0.22705	0.20655	0.37241	0.24493	0.12747	0.14186	0.25276	0.16468	0.16632	0.14253	0.069267	0.035111	0.12073	-2.4771	-2.9479	-2.8083	-2.9833	-3.0042	-2.8104	-2.9667	-3.1125	-2.9583	-3.0083	-3.1271	-2.7104	-2.9021	-2.9354	-2.6458	-3.0938	225.595	442.000	149.366	122.245	175.328	140.073	409.395	444.231	168.972	323.818	143.344	405.796	119.090	414.316	436.702	202.368	0.00034508	0.00020891	0.00012627	1461.8	2.9694e-06	5.0502e-06	1488.1	279.99	2.1258e-06	1.5056e-06	360.33	96.219	76.823	21.378	4.534e-06	29.748	0.00012344	0.00012002	3.3483e-05	1343.1	1.3396e-06	1.3175e-06	1378.1	257.75	1.3254e-06	1.3275e-06	307	88.326	67.211	20.03	1.3132e-06	27.386	207.680	377.061	144.873	118.564	225.120	326.448	118.465	125.424	242.767	306.589	125.025	131.752	132.183	139.186	219.098	138.634	-8191	255	
2391.921	1	1	0	0	0.10143	0.15193	0.053083	0.25491	0.15539	0.075264	0.22515	0.24032	0.12834	0.10634	0.17364	0.13523	0.13906	0.15264	0.13909	0.24619	-2.4542	-2.7292	-2.9083	-2.8667	-3.1208	-2.9375	-2.8979	-3.1042	-2.6833	-2.9667	-3.0917	-2.85	-2.9792	-2.9458	-2.75	-2.9667	188.309	241.812	171.605	358.057	283.751	419.214	457.773	339.989	457.875	207.793	413.560	117.951	446.938	374.803	183.915	457.966	0.00031944	0.0001614	0.00010747	1460.2	1.7348e-06	2.1216e-06	1487.1	279.63	3.5521e-06	4.4709e-06	358.14	95.984	76.566	21.543	7.0196e-06	29.58	0.00012459	0.00012149	3.3558e-05	1342.7	1.3442e-06	1.3346e-06	1376.3	257.73	1.3404e-06	1.3212e-06	306.16	88.231	67.255	20.05	1.338e-06	27.369	209.993	181.298	177.877	118.289	242.479	419.272	118.792	125.540	287.843	352.338	125.317	131.655	132.143	138.700	255.062	138.761	-8191	255	
2392.017	1	1	0	0	0.098311	0.10164	0.15196	0.073624	0.32986	0.071792	0.38769	0.25762	0.1277	0.12111	0.35235	0.21531	0.16677	0.14637	0.16434	0.17023	-2.4667	-2.8292	-2.975	-2.7958	-2.9354	-2.9875	-2.9354	-3.2167	-2.9562	-2.7562	-3.125	-2.7854	-2.9396	-2.9604	-2.7	-3.2062	160.148	282.061	421.811	151.958	324.349	297.686	403.911	364.436	373.606	279.650	455.441	209.196	170.405	115.003	133.896	112.990	0.00028946	0.00029919	4.9037e-05	1458.4	3.78e-06	1.4343e-06	1486.2	279.2	3.1827e-06	1.4208e-06	359.05	96.142	77.281	21.589	2.4113e-06	29.381	0.00012368	0.00012071	3.3471e-05	1339.3	1.3571e-06	1.3165e-06	1374.7	257.06	1.3386e-06	1.3307e-06	306.22	88.14	67.148	19.966	1.3341e-06	27.238	212.655	114.411	317.140	118.447	226.190	423.848	118.662	125.623	340.309	211.692	125.010	131.791	132.222	138.918	224.195	138.509	-8191	255	
2392.113	1	1	0	0	0.088273	0.073279	0.28691	0.21049	0.17662	0.058343	0.097449	0.098472	0.15771	0.20172	0.14881	0.14816	0.13756	0.16255	0.11877	0.1483	-2.4562	-2.65	-2.9771	-3.0167	-3.0125	-3.0792	-2.9146	-3.1771	-3.0687	-2.7896	-3.0271	-2.7833	-2.8958	-2.9188	-2.7438	-3.1854	128.327	437.064	317.759	417.538	308.671	270.379	326.136	205.399	459.078	155.258	174.940	364.574	392.268	258.881	242.309	113.843	0.00027164	0.00048112	3.7858e-05	1452.9	3.815e-06	3.8219e-06	1481.2	279.07	3.2565e-06	2.5203e-06	359.69	96.032	76.837	21.457	2.6908e-06	29.702	0.0001243	0.00012087	3.3637e-05	1336	1.3402e-06	1.3331e-06	1372.2	257.29	1.3417e-06	1.3392e-06	307.21	88.4	67.361	20.022	1.34e-06	27.285	220.651	173.007	110.904	118.600	238.195	344.702	118.606	125.397	288.428	232.581	125.618	131.979	132.237	139.097	225.557	138.424	-8191	255	
2392.209	1	1	0	0	0.18481	0.23208	0.20289	0.24603	0.16032	0.15638	0.2866	0.12587	0.25387	0.24428	0.10103	0.13295	0.1763	0.15587	0.074809	0.20038	-2.6813	-2.7917	-3.0729	-2.9833	-3.0021	-3.0687	-2.9042	-3.0542	-2.9583	-2.7042	-3.1229	-2.875	-2.9083	-3.1167	-2.7333	-2.8521	453.712	373.136	390.469	426.604	274.290	133.140	435.382	399.340	340.372	456.087	179.417	179.305	129.730	178.974	338.650	307.658	0.00025207	0.00031393	7.0857e-05	1451.4	2.484e-06	9.8963e-07	1480.4	279.39	2.1476e-06	4.0633e-06	359.16	95.472	76.392	21.312	1.9673e-06	29.641	0.00012633	0.00012212	3.3662e-05	1336.1	1.3422e-06	1.3061e-06	1370.2	256.93	1.2895e-06	1.2806e-06	305.32	87.801	66.738	19.87	1.3025e-06	27.27	212.734	195.613	113.981	118.600	226.668	263.879	118.746	125.928	246.772	262.773	125.174	131.813	132.448	139.284	431.297	138.753	-8191	255	
2392.305	1	1	0	0	0.20248	0.17806	0.078929	0.1678	0.031199	0.21505	0.14582	0.45662	0.19476	0.14254	0.15123	0.35466	0.11408	0.074883	0.14277	0.082705	-2.7146	-2.7646	-3.0479	-2.9792	-2.8292	-3.2667	-2.9521	-3.1646	-2.8875	-2.875	-2.9354	-3.0438	-2.7708	-3.125	-2.8375	-3.1562	403.911	169.273	427.154	402.996	132.479	361.625	344.414	418.611	376.284	454.839	270.532	375.449	420.965	327.539	108.513	451.687	0.0003179	7.6919e-05	7.1784e-05	1450.2	6.0276e-07	2.9841e-06	1478.4	279.13	1.4505e-06	3.1228e-06	359.94	95.312	76.279	21.264	9.7202e-07	29.61	0.00012102	0.00011843	3.3307e-05	1333.3	1.3306e-06	1.305e-06	1369.1	256.8	1.3047e-06	1.2889e-06	305.16	87.729	66.547	19.786	1.2522e-06	27.085	208.098	325.874	269.734	118.656	257.731	110.384	118.544	125.636	298.653	320.814	125.030	132.058	132.189	139.235	171.295	138.458	-8191	255	
2392.401	1	1	0	0	0.023436	0.24653	0.096265	0.16058	0.14148	0.099396	0.097855	0.26935	0.38232	0.18631	0.032944	0.031756	0.063757	0.12699	0.13464	0.052946	-2.6188	-2.7083	-3.0563	-3.1583	-2.8292	-3.1542	-3.075	-3.0208	-3.0458	-2.6896	-3.2188	-3.1583	-2.6271	-3.0917	-2.9729	-3.0563	209.868	206.510	191.051	384.688	292.494	169.033	142.057	434.076	342.468	134.257	330.456	178.780	157.404	192.719	221.586	127.795	0.00026471	0.00015373	8.0488e-05	1438	3.9715e-06	4.2335e-06	1462.9	275.4	2.554e-06	3.5953e-06	354.93	94.721	75.293	21.207	4.0528e-06	29.519	0.0001157	0.00011166	3.1076e-05	1319.2	1.2058e-06	1.1884e-06	1352.9	254.01	1.1929e-06	1.159e-06	300.73	86.782	65.399	19.619	1.1626e-06	26.835	208.970	344.058	126.244	118.705	235.188	255.817	118.699	125.786	298.589	312.300	125.322	132.312	132.602	139.201	220.234	138.703	-8191	255	
2392.498	1	1	0	0	0.31007	0.22997	0.14204	0.23964	0.2351	0.26919	0.37733	0.2517	0.19392	0.18395	0.062487	0.094501	0.42615	0.089733	0.18137	0.27455	-2.6125	-2.6917	-2.9708	-3.3083	-2.5833	-3.0563	-3	-2.7646	-3.1167	-2.7938	-2.9792	-2.8812	-2.8875	-3.0792	-2.8812	-2.8396	237.389	463.527	117.683	113.064	177.331	308.550	415.153	428.259	235.466	196.592	412.972	124.238	186.004	149.843	440.754	359.113	0.00024406	0.00037775	0.00017302	1439.1	2.6707e-06	4.7029e-06	1461.3	277.16	4.2026e-06	3.7028e-06	353.64	95.327	75.62	21.214	8.2e-07	29.523	0.00010912	0.00010597	2.9426e-05	1316.1	1.1867e-06	1.174e-06	1352.4	253.82	1.2045e-06	1.2004e-06	301.43	87.102	65.961	19.749	1.2331e-06	26.975	194.729	157.694	196.102	118.495	198.100	210.204	118.448	125.797	236.161	249.399	125.424	131.871	132.252	139.050	274.547	138.687	-8191	255	
2392.618	1	1	0	0	0.19739	0.066709	0.054173	0.16806	0.15287	0.10321	0.41871	0.29123	0.096881	0.2084	0.014097	0.22326	0.22718	0.23643	0.16343	0.027983	-2.7167	-2.675	-2.9771	-3.0812	-2.7604	-3.1354	-3.0542	-2.7729	-2.9833	-2.7313	-3.0604	-3.0042	-2.7083	-2.925	-2.9021	-2.9062	192.834	302.703	403.899	146.764	384.561	425.354	374.062	352.972	216.392	223.340	210.216	453.688	279.369	371.145	460.041	139.202	0.00026833	0.00047734	5.4788e-05	1436.6	2.8512e-06	5.3435e-06	1467.4	277.26	3.2758e-06	2.6554e-06	356.92	95.191	76.259	21.212	1.1248e-06	29.491	0.00011542	0.00011126	3.1602e-05	1318.1	1.2602e-06	1.2458e-06	1355.8	254.89	1.2607e-06	1.2496e-06	302.79	87.275	66.45	19.788	1.2569e-06	27.062	205.091	183.327	174.499	118.634	229.026	346.858	118.711	125.624	277.187	299.038	125.031	131.911	132.250	138.806	239.183	138.657	-8191	255	
2392.713	1	1	0	0	0.12197	0.049108	0.023009	0.18214	0.055943	0.27593	0.24023	0.034877	0.26739	0.12136	0.21327	0.16099	0.1812	0.11771	0.12839	0.18575	-2.6813	-2.6771	-2.7583	-3.0646	-2.6396	-3.0167	-3.1792	-2.875	-3.025	-2.8917	-2.9354	-2.9396	-2.7167	-3.0687	-2.9292	-2.8042	423.255	162.354	391.408	437.175	338.323	426.158	403.023	308.143	179.234	339.574	137.102	426.875	231.779	159.967	310.782	125.228	0.00031592	0.00023705	8.1237e-05	1435.4	2.3478e-06	1.8941e-06	1464.9	277.07	1.3438e-06	2.7317e-06	355.46	95.437	76.077	21.286	1.7724e-06	29.543	0.00011889	0.00011546	3.2522e-05	1320.1	1.2683e-06	1.269e-06	1357.4	254.69	1.2699e-06	1.2679e-06	302.69	87.381	66.448	19.814	1.2679e-06	27.186	205.042	194.511	281.837	118.622	212.398	281.045	118.776	125.715	266.442	381.980	124.940	131.845	132.350	139.068	136.581	138.765	-8191	255	
2392.810	1	1	0	0	0.026531	0.14111	0.21131	0.14922	0.03214	0.10007	0.27862	0.11315	0.058289	0.069706	0.10877	0.14404	0.20267	0.017456	0.052203	0.33852	-2.6458	-2.8833	-2.9333	-3.1312	-2.7042	-2.8417	-3.1083	-2.7479	-3.0667	-2.9979	-2.9313	-2.9938	-2.7583	-2.9896	-3.0875	-2.8854	340.015	410.772	197.929	458.736	378.300	176.358	383.506	410.893	260.840	251.608	407.773	460.038	382.063	385.568	174.990	432.571	0.00029641	6.3883e-05	0.00011699	1434.7	3.733e-06	4.9605e-06	1469.5	277.39	9.3759e-07	2.1747e-06	357.43	94.931	76.177	21.28	2.9993e-06	29.606	0.0001201	0.0001161	3.2463e-05	1323.2	1.2972e-06	1.2785e-06	1360.1	255.07	1.2892e-06	1.2886e-06	303.85	87.556	66.563	19.827	1.3074e-06	27.178	198.809	458.630	262.091	118.650	199.397	285.503	118.877	125.691	417.824	362.683	125.337	132.122	132.152	139.038	235.686	138.363	-8191	255	
2392.907	1	1	0	0	0.086529	0.28761	0.057797	0.18757	0.28292	0.12101	0.51667	0.30462	0.072091	0.2193	0.11708	0.097867	0.17662	0.21931	0.038238	0.20829	-2.6188	-2.9854	-2.6104	-3.1104	-2.9062	-2.7812	-3.3958	-2.7375	-3.0438	-3.0583	-2.8125	-3.0583	-2.8688	-2.6896	-3.0271	-2.7792	431.638	222.900	149.798	405.672	307.894	176.706	428.290	362.653	405.064	429.699	312.265	145.413	167.036	131.806	264.957	325.652	0.00028169	0.0003519	4.8415e-05	1442.8	4.2813e-06	1.8457e-06	1469.2	277.68	2.2726e-06	1.4286e-06	359.25	95.639	76.166	21.4	2.1583e-06	29.617	0.00012266	0.00011945	3.3243e-05	1325.9	1.3236e-06	1.3043e-06	1362.6	256.01	1.3038e-06	1.2859e-06	305.19	87.764	66.702	19.899	1.2881e-06	27.236	217.152	170.952	135.350	118.590	185.931	312.299	118.730	125.551	302.551	417.181	125.225	131.962	132.947	139.090	270.311	138.544	-8191	255	
2393.001	1	1	0	0	0.086839	0.37947	0.073312	0.1704	0.09484	0.16399	0.29496	0.15335	0.12916	0.20592	0.24325	0.14428	0.25218	0.14119	0.24377	0.19591	-2.4917	-2.8312	-2.5771	-3.1792	-3.0021	-2.95	-3.25	-2.8917	-3.1583	-3.0458	-2.8708	-3.1021	-2.8771	-2.8146	-3.2396	-2.8063	204.273	187.028	409.032	429.957	308.170	243.076	385.902	175.765	463.814	405.469	426.825	315.461	142.267	401.701	173.396	263.147	0.00027914	0.00024725	0.00011631	1446.7	4.1468e-06	4.4098e-06	1475.8	277.5	1.1762e-06	1.2676e-06	355.45	95.847	75.933	21.335	3.4553e-06	29.496	0.00012109	0.00011913	3.2768e-05	1329.7	1.2992e-06	1.2815e-06	1365.5	255.76	1.2964e-06	1.2796e-06	303.87	87.738	66.68	19.89	1.2705e-06	27.126	198.043	166.948	134.448	118.388	216.164	247.806	118.672	125.624	288.269	394.019	124.983	131.802	132.229	138.903	234.629	138.918	-8191	255	
2393.097	1	1	0	0	0.2843	0.068507	0.060519	0.24042	0.37666	0.26231	0.1628	0.2364	0.31314	0.18968	0.25262	0.20154	0.24467	0.1501	0.10956	0.168	-2.6042	-2.9667	-2.8417	-3.2562	-2.8937	-2.7479	-3.2188	-2.8063	-2.9792	-3.0583	-2.7687	-3.1	-2.9708	-2.9042	-3.1542	-2.8125	244.742	111.181	222.907	138.755	140.594	283.418	413.371	221.248	322.797	261.695	460.739	181.344	217.523	420.818	294.756	396.954	0.00026213	0.00016716	0.00011203	1447.1	2.5201e-06	1.2995e-06	1477	276.97	4.5877e-06	8.0692e-07	355.77	95.597	75.733	21.412	9.4707e-07	29.537	0.00012053	0.00011721	3.2636e-05	1327.7	1.2921e-06	1.281e-06	1365.5	255.62	1.2737e-06	1.2509e-06	303.48	87.676	66.335	19.877	1.2554e-06	27.099	215.259	147.511	185.913	118.647	227.035	192.624	118.551	125.875	250.126	271.138	124.934	131.967	132.062	138.993	219.813	138.460	-8191	255	
2393.218	1	1	0	0	0.13426	0.14435	0.051324	0.30577	0.12025	0.071693	0.04831	0.28972	0.13895	0.048829	0.11251	0.069442	0.20308	0.17317	0.11965	0.01636	-2.5542	-3.1958	-2.9167	-3.1625	-2.8354	-2.8083	-3.2583	-2.9	-2.9479	-3.1104	-2.8542	-3.0938	-2.8688	-2.7917	-3.0896	-2.8354	209.260	297.236	161.776	422.180	378.438	153.252	324.074	194.992	144.698	437.661	201.813	233.317	431.391	400.542	137.793	208.142	0.00031997	0.00052137	0.00013133	1447.2	2.1504e-06	2.4647e-06	1474.1	278.44	4.4089e-06	7.3008e-07	354.14	95.483	76.086	21.466	1.4475e-06	29.452	0.00011647	0.00011354	3.1785e-05	1326.7	1.2493e-06	1.2326e-06	1363.7	255.53	1.2388e-06	1.2179e-06	302.19	87.467	66.253	19.838	1.2177e-06	27.061	222.194	464.719	211.856	118.659	211.776	255.426	118.536	125.691	283.520	136.621	125.008	131.876	132.267	138.764	173.043	138.630	-8191	255	
2393.314	1	1	0	0	0.05045	0.19385	0.12756	0.20184	0.12651	0.21233	0.088015	0.18417	0.11897	0.072674	0.18373	0.13744	0.13822	0.11534	0.049095	0.19085	-2.3563	-3.1667	-2.7875	-2.8917	-2.8854	-2.7917	-3.3375	-3.1146	-3.0542	-3.1229	-2.8979	-3.1333	-2.9229	-2.9125	-3.05	-2.9021	223.364	108.611	119.305	112.859	408.034	286.064	245.678	424.151	409.509	107.901	261.481	150.907	341.371	277.480	157.641	401.882	0.00033986	0.00011581	8.8425e-05	1452.5	4.484e-06	2.9207e-06	1477.1	278.57	1.1258e-06	1.9337e-06	357.29	95.377	75.715	21.412	2.1147e-06	29.484	0.00011485	0.00011164	3.109e-05	1329.5	1.2457e-06	1.2265e-06	1366.7	255.68	1.2663e-06	1.2465e-06	303.41	87.642	66.355	19.844	1.2419e-06	27.123	204.156	391.945	242.940	118.646	187.321	378.768	118.484	125.462	121.180	274.802	125.273	132.016	132.250	139.057	289.904	138.534	-8191	255	
2393.410	1	1	0	0	0.13851	0.045705	0.23866	0.078562	0.25769	0.1762	0.12854	0.14483	0.16416	0.084529	0.12701	0.13353	0.08826	0.03996	0.15623	0.18354	-2.4062	-3.1146	-2.8708	-3.1375	-3.0938	-2.75	-3.2958	-3.0417	-2.8771	-2.9083	-2.9792	-2.95	-3.075	-2.8187	-3.0438	-3.0375	253.982	296.611	157.121	321.435	246.456	158.279	130.344	403.874	226.253	126.135	383.358	377.407	464.562	286.105	459.273	184.149	0.00034035	0.00047015	3.9882e-05	1444.8	2.5973e-06	5.1363e-06	1474.1	277.32	3.7162e-06	2.8143e-06	356.74	95.761	76.387	21.552	3.7715e-06	29.42	0.00011586	0.00011318	3.148e-05	1326.7	1.2336e-06	1.2212e-06	1362.4	254.99	1.2389e-06	1.2163e-06	302.91	87.538	66.359	19.834	1.2376e-06	27.107	207.347	187.427	252.241	118.819	260.714	345.116	118.434	125.578	271.088	203.686	125.549	131.891	132.476	138.677	150.805	138.506	-8191	255	
2393.482	1	1	0	0	0.15447	0.087538	0.27669	0.22832	0.072027	0.056897	0.14873	0.15961	0.18559	0.21119	0.2107	0.16077	0.12323	0.22048	0.16534	0.30324	-2.4521	-3.1625	-2.8896	-2.95	-3.025	-2.9062	-3.0687	-3.0563	-2.7354	-3.0354	-3.0312	-2.7521	-3.0479	-2.7167	-2.9458	-3.0708	443.290	247.629	360.689	425.737	335.408	269.866	331.354	390.592	268.349	248.008	337.927	176.126	297.670	337.023	351.827	341.452	0.00023149	0.00032244	0.00010936	1450.4	4.1349e-06	2.7932e-06	1474.7	278.28	3.1354e-06	2.584e-06	357.98	95.096	76.029	21.44	1.9976e-06	29.506	0.00011601	0.00011333	3.1652e-05	1328.1	1.2399e-06	1.2372e-06	1364.7	255.64	1.2399e-06	1.2434e-06	303.45	87.471	66.489	19.891	1.2437e-06	27.067	200.955	164.946	168.521	118.633	250.636	234.317	118.699	125.742	216.769	327.883	125.393	132.160	131.951	139.248	325.796	138.739	-8191	255	
2393.602	1	1	0	0	0.12746	0.056257	0.13021	0.076115	0.06778	0.19759	0.22298	0.070328	0.2244	0.027161	0.016811	0.28415	0.056359	0.10948	0.20151	0.035625	-2.2188	-3.075	-3.0583	-2.9813	-3.0354	-2.8458	-3.3125	-3.1792	-2.7292	-3.1229	-3.0042	-2.7938	-3.1854	-2.8479	-2.9083	-3.0271	142.108	125.500	359.895	449.595	311.231	218.218	350.629	132.323	397.607	112.649	398.401	324.394	207.499	406.981	252.267	218.201	0.00032479	0.00021486	9.7178e-05	1444.9	1.162e-06	5.1056e-06	1474.6	277.61	3.3353e-06	3.868e-06	353.72	95.572	76.204	21.377	2.4337e-06	29.406	0.00011831	0.00011367	3.2124e-05	1327.2	1.2586e-06	1.2456e-06	1363	255.12	1.2523e-06	1.2384e-06	302.87	87.49	66.356	19.854	1.241e-06	27.124	211.297	147.389	151.967	118.520	211.889	267.653	118.557	125.678	206.214	240.117	124.961	131.741	132.604	138.672	228.505	138.802	-8191	255	
2393.699	1	1	0	0	0.22175	0.071055	0.080859	0.068703	0.070814	0.10082	0.15932	0.28039	0.1549	0.053154	0.26858	0.037277	0.1978	0.099962	0.31155	0.066651	-2.1958	-2.825	-2.9062	-2.8521	-3.1312	-2.7854	-3.0146	-2.9979	-2.6021	-2.9562	-2.9792	-2.7979	-3.3021	-2.9021	-2.8208	-3.1833	459.238	292.143	136.034	390.898	253.530	344.145	430.874	452.235	195.722	400.224	437.651	207.859	399.549	248.343	442.138	382.416	0.00023821	0.00020952	8.3075e-05	1454	2.6062e-06	3.5063e-06	1473.8	278.94	1.2871e-06	1.013e-06	355.74	95.606	75.823	21.111	4.2978e-06	29.377	0.00011644	0.0001138	3.1288e-05	1329.8	1.2475e-06	1.2285e-06	1364.3	255.37	1.2453e-06	1.2198e-06	303.01	87.514	66.396	19.738	1.2258e-06	27.073	202.045	146.735	192.917	118.533	191.346	250.347	118.649	125.826	171.396	285.259	125.142	131.707	132.571	139.080	250.960	138.659	-8191	255	
2393.795	1	1	0	0	0.21064	0.18186	0.36369	0.26573	0.30541	0.17498	0.2339	0.056442	0.099912	0.15936	0.17355	0.18368	0.21065	0.36185	0.25703	0.13409	-2.2438	-2.9521	-2.9917	-2.725	-3.0271	-2.9	-3.0917	-2.9688	-2.6958	-2.9833	-2.875	-2.7042	-3.1021	-2.7292	-2.8833	-3.0729	409.524	181.615	462.141	439.022	247.875	200.539	381.916	282.062	390.228	412.117	166.483	111.208	322.644	380.998	421.287	223.389	0.00032815	0.0002721	3.6789e-05	1445.1	2.4426e-06	4.3199e-06	1469.8	277.05	1.3139e-06	2.6397e-06	356.17	95.435	75.899	21.322	5.23e-06	29.387	0.00011555	0.00011185	3.1024e-05	1327.3	1.2363e-06	1.2186e-06	1360.4	255.13	1.2219e-06	1.217e-06	302.97	87.31	66.356	19.79	1.2127e-06	27.055	200.590	251.953	174.340	118.771	287.144	285.821	118.668	125.878	333.305	350.231	124.712	131.963	132.089	139.136	277.837	138.579	-8191	255	
2393.891	1	1	0	0	0.18016	0.21584	0.18178	0.24932	0.012892	0.33432	0.10001	0.22453	0.06988	0.14346	0.21866	0.11643	0.21546	0.15936	0.066041	0.077265	-2.3771	-2.8083	-2.8583	-2.8375	-3.0583	-2.8438	-3.0167	-3.2354	-2.6979	-2.9833	-2.9896	-2.7042	-2.9646	-3.0604	-2.8521	-3.0229	404.494	394.077	142.353	460.435	315.016	453.177	387.618	343.646	363.480	298.199	407.222	406.449	428.872	345.324	193.304	316.998	0.00027301	0.000223	4.7005e-05	1443.3	3.9229e-06	5.9004e-06	1474.4	277.93	5.3911e-06	5.2469e-06	355.05	95.571	75.682	21.296	1.7822e-06	29.558	0.00011433	0.0001104	3.046e-05	1326.2	1.2227e-06	1.1935e-06	1363.9	255.09	1.1938e-06	1.1976e-06	302.83	87.28	66.237	19.743	1.1961e-06	27.038	207.374	444.731	260.683	118.465	230.892	327.659	118.874	125.658	230.117	247.486	125.112	131.702	132.493	138.988	294.556	138.875	-8191	255	
2394.010	1	1	0	0	0.33702	0.08082	0.075789	0.084982	0.10893	0.053108	0.15912	0.19618	0.077745	0.2502	0.27632	0.13802	0.060779	0.101	0.20567	0.19497	-2.5563	-2.825	-3.1229	-2.8125	-3.0875	-2.8937	-2.9083	-2.9021	-2.8646	-3.0042	-3.0354	-2.6958	-2.9146	-2.8708	-2.7104	-3.1604	140.527	267.974	290.373	163.156	183.752	464.864	420.188	145.326	274.725	226.763	394.954	375.137	375.817	212.780	394.924	424.518	0.00032134	0.00026699	8.4933e-05	1445	2.1561e-06	1.8646e-06	1468.6	276.7	2.4188e-07	2.2637e-06	354.76	95.093	75.932	21.302	1.9114e-06	29.354	0.00011111	0.00010855	3.0017e-05	1323.7	1.1988e-06	1.1579e-06	1359.5	254.61	1.1643e-06	1.1573e-06	301.29	87.158	66.079	19.77	1.1588e-06	26.967	204.828	144.336	225.097	118.432	191.892	205.625	118.626	125.572	204.078	229.440	125.418	132.121	132.651	139.382	399.508	138.426	-8191	255	
2394.081	1	1	0	0	0.10196	0.15964	0.14885	0.33002	0.19581	0.20786	0.28181	0.073958	0.18652	0.27624	0.13003	0.32394	0.28748	0.20576	0.06571	0.010805	-2.4542	-2.7917	-2.9521	-2.8896	-2.9	-3.0771	-2.8333	-3.175	-3.0083	-2.9479	-3.2562	-2.9729	-2.8083	-2.8937	-2.775	-2.8771	236.352	247.668	186.513	438.058	152.295	368.370	400.277	348.265	280.032	223.362	238.621	418.234	412.881	202.315	398.029	211.051	0.00026219	0.00029691	9.7471e-05	1440.7	2.9304e-06	4.4622e-06	1472.7	277.92	3.6995e-06	1.5303e-06	355.38	95.076	76.383	21.512	1.1709e-06	29.578	0.00010901	0.00010606	2.9513e-05	1323.8	1.1838e-06	1.1601e-06	1360.8	254.62	1.1631e-06	1.1533e-06	301.21	87.05	66.173	19.792	1.1781e-06	27.044	203.986	178.259	178.290	118.394	223.704	238.308	118.626	125.815	246.166	202.215	124.958	131.937	132.201	139.062	143.131	138.487	-8191	255	
2394.178	1	1	0	0	0.29423	0.078426	0.16066	0.18285	0.16344	0.081529	0.28196	0.16238	0.10554	0.21799	0.020084	0.40223	0.20476	0.098467	0.022814	0.20334	-2.35	-2.6917	-3.2687	-2.9667	-2.8042	-3.0167	-2.8417	-3.1792	-3.0396	-2.6688	-3.1375	-2.7625	-3.0021	-3.075	-2.9125	-3.0958	126.258	158.210	446.945	342.996	222.777	438.624	345.058	411.273	250.558	424.599	416.766	196.414	162.350	197.759	349.068	391.694	0.00023674	0.00033254	4.7221e-05	1443.6	3.4835e-06	2.0492e-06	1471.4	276.41	2.9092e-06	2.8698e-06	354.79	95.646	76.643	21.325	5.5512e-06	29.298	0.00011152	0.0001067	3.0376e-05	1325.8	1.1863e-06	1.1795e-06	1361	254.6	1.1938e-06	1.1753e-06	302.52	87.132	66.103	19.727	1.1712e-06	27.004	200.172	439.976	459.653	118.655	323.878	316.227	118.685	125.790	264.629	267.688	125.455	131.779	132.281	138.663	223.456	138.443	-8191	255	
2394.298	1	1	0	0	0.033565	0.11627	0.11617	0.18131	0.10487	0.41108	0.26041	0.12652	0.22852	0.082439	0.22166	0.090384	0.18806	0.12442	0.086751	0.048357	-2.3646	-2.65	-3.0771	-2.9396	-2.7417	-3.0542	-2.7083	-3.0187	-2.9667	-2.6583	-3.1396	-2.7938	-2.6271	-3.0458	-2.7042	-3.0979	371.387	227.855	451.506	392.629	332.804	267.967	363.273	406.401	346.049	461.895	231.111	377.517	181.886	442.559	464.334	248.995	0.00029573	0.00020095	6.6424e-05	1445	3.0305e-06	4.1236e-06	1477.7	277.31	3.0234e-06	1.2964e-06	356.58	95.675	75.815	21.413	3.1098e-06	29.467	0.00011036	0.00010767	2.9685e-05	1325.9	1.1899e-06	1.1804e-06	1363	255.06	1.188e-06	1.1851e-06	302.27	87.398	66.114	19.751	1.1805e-06	26.961	212.502	177.385	211.945	118.418	173.277	214.332	118.620	125.863	261.478	219.481	125.140	132.064	132.513	138.704	253.544	138.779	-8191	255	
2394.394	1	1	0	0	0.13396	0.13951	0.13713	0.28056	0.23955	0.16064	0.073564	0.19458	0.26684	0.065034	0.31221	0.075336	0.1129	0.10089	0.18755	0.1986	-2.6771	-2.7229	-2.9	-2.8417	-2.7479	-3.2271	-2.9104	-2.9583	-3.1542	-2.8458	-3.075	-3.05	-2.7708	-3.1813	-2.8833	-2.8833	398.207	326.589	435.232	394.327	374.424	152.116	149.024	389.844	285.086	245.029	447.519	150.514	263.545	356.042	412.092	108.305	0.00027482	0.0001243	6.2674e-05	1445.9	4.1483e-06	1.6173e-06	1477.2	277.45	3.3783e-06	2.1485e-06	359.35	95.978	75.96	21.384	1.604e-06	29.46	0.00011009	0.00010848	2.9681e-05	1326.6	1.1834e-06	1.1813e-06	1363.3	255.05	1.1791e-06	1.1779e-06	302.85	87.227	66.139	19.722	1.1633e-06	26.966	201.561	241.154	166.059	118.667	214.841	419.598	118.710	125.680	240.464	385.466	125.382	131.967	132.326	138.721	267.901	138.549	-8191	255	
2394.490	1	1	0	0	0.13259	0.133	0.25451	0.25319	0.077688	0.43532	0.24804	0.32186	0.076616	0.071346	0.2207	0.073142	0.32151	0.052675	0.021184	0.037228	-2.5479	-2.825	-2.9458	-3.2042	-2.7292	-3.0854	-2.9458	-2.8833	-3.025	-2.7	-3.05	-2.8729	-2.6604	-2.8875	-2.8625	-3.0917	212.159	274.507	185.624	424.536	291.084	207.417	426.347	425.187	164.807	312.540	456.876	368.746	151.913	407.654	214.656	427.110	0.00028135	0.00012574	9.8312e-05	1448.1	3.3882e-06	5.3578e-06	1473.9	277.97	2.7426e-06	2.349e-06	352.2	95.232	76.416	21.36	3.0533e-06	29.655	0.0001103	0.00010611	2.9891e-05	1325.4	1.1763e-06	1.1554e-06	1362.7	255.01	1.1728e-06	1.163e-06	301.5	87.099	66.131	19.741	1.1572e-06	27.092	213.540	183.591	223.707	118.631	240.430	241.082	118.598	125.724	259.873	237.034	125.305	132.000	132.759	138.876	199.026	138.310	-8191	255	
2394.611	1	1	0	0	0.075496	0.15683	0.20383	0.23373	0.088231	0.032097	0.41008	0.28355	0.060747	0.37845	0.17031	0.12851	0.24486	0.2736	0.042377	0.2222	-2.625	-2.7771	-2.9875	-2.9708	-2.7458	-3.0563	-2.9917	-2.9042	-2.9521	-2.7271	-3.0521	-3.2167	-2.6625	-2.9583	-2.8187	-2.8708	442.123	361.607	238.213	365.034	218.231	427.393	449.919	455.839	235.150	127.392	448.673	403.924	447.073	143.592	111.178	376.717	0.00028125	0.00040369	8.7061e-05	1448	1.861e-06	2.9341e-06	1475.8	278.49	4.965e-06	3.2824e-06	353.94	94.897	75.885	21.202	3.7768e-07	29.2	0.00010972	0.00010615	2.9111e-05	1326	1.1547e-06	1.1578e-06	1360.7	254.95	1.1708e-06	1.1527e-06	301.87	86.913	66.217	19.737	1.1727e-06	26.96	206.205	123.979	249.715	118.576	241.560	208.595	118.572	125.616	253.966	203.627	125.139	131.848	132.473	139.238	220.671	138.714	-8191	255	
2394.707	1	1	0	0	0.16827	0.1718	0.24396	0.059605	0.1308	0.18451	0.28942	0.14837	0.14118	0.23149	0.059134	0.14885	0.04729	0.18389	0.11256	0.116	-2.5083	-2.7812	-3.0062	-3.1813	-2.7875	-3.1292	-2.9792	-2.7292	-2.9771	-2.8792	-2.7354	-3.1292	-2.7396	-3.0708	-2.9771	-2.5687	410.548	292.609	387.744	461.780	199.996	434.095	402.032	417.592	422.723	354.787	397.803	340.513	416.529	438.168	128.642	172.011	0.0003322	0.00036678	2.7172e-05	1447.2	3.8245e-06	3.2181e-06	1479.8	276.28	1.7145e-06	2.9452e-06	352.9	95.278	75.918	21.383	2.4119e-06	29.6	0.00011021	0.00010644	2.9677e-05	1326.5	1.1755e-06	1.156e-06	1362.4	254.29	1.1491e-06	1.1545e-06	301.38	87.017	65.967	19.747	1.1643e-06	26.948	210.762	125.564	230.075	118.796	133.389	281.090	118.720	125.560	274.645	156.406	124.739	132.061	132.189	138.769	247.865	138.976	-8191	255	
2394.779	1	1	0	0	0.043857	0.15523	0.082565	0.21387	0.12261	0.13556	0.10896	0.18323	0.091614	0.015976	0.21079	0.13517	0.14354	0.42279	0.14538	0.11516	-2.5854	-2.8812	-2.7687	-3.2167	-2.7604	-3.0229	-3.1667	-2.825	-2.9938	-2.8958	-2.7146	-3.05	-2.85	-3.0375	-3.1521	-2.9375	409.579	419.141	118.818	448.777	111.507	428.024	309.299	453.982	451.569	290.282	154.281	464.997	145.038	271.051	446.249	456.822	0.0002939	0.00028608	3.2847e-05	1446.9	2.3605e-06	3.0353e-06	1468.4	278.1	2.0056e-06	1.1322e-06	354.54	95.424	76.462	21.202	2.8342e-06	29.637	0.00010832	0.0001045	2.9063e-05	1326.4	1.1698e-06	1.1497e-06	1361.5	254.7	1.1819e-06	1.1512e-06	301.42	87.244	66.121	19.709	1.1731e-06	27.051	201.860	178.188	279.787	118.543	290.516	251.238	118.892	125.848	233.189	196.095	125.065	131.755	132.029	139.160	254.623	138.932	-8191	255	
2394.900	1	1	0	0	0.045446	0.082748	0.059665	0.21767	0.20531	0.31191	0.13198	0.16636	0.079515	0.03309	0.16834	0.33717	0.1867	0.1119	0.15274	0.17206	-2.4333	-2.7708	-2.8896	-3.2229	-2.75	-3.1479	-3.1771	-2.825	-3.0438	-2.7104	-2.9208	-3.0417	-2.9917	-2.9854	-2.9792	-2.8833	338.824	380.066	257.565	115.600	413.855	346.416	328.034	405.760	387.070	367.040	364.006	235.341	187.344	286.771	209.723	452.628	0.0002829	0.00014114	0.00011389	1445.2	3.4568e-06	4.7966e-06	1475.3	277.79	1.4615e-06	2.9626e-06	355.04	95.193	76.303	21.442	2.1e-06	29.584	0.0001089	0.00010691	2.9761e-05	1326.9	1.168e-06	1.1635e-06	1363.8	255.29	1.1835e-06	1.1635e-06	301.64	87.237	66.117	19.799	1.1683e-06	27.004	202.268	217.372	198.809	118.511	258.837	247.527	118.551	125.745	263.929	290.543	125.263	131.825	132.286	139.159	288.033	138.948	-8191	255	
2394.994	1	1	0	0	0.22906	0.18228	0.20313	0.17681	0.22451	0.25516	0.043093	0.21133	0.22495	0.24465	0.10451	0.2182	0.080388	0.09297	0.017815	0.06111	-2.6104	-2.8354	-2.7479	-3.1479	-2.6667	-3.0146	-3.2333	-2.8646	-2.9958	-3.1625	-2.8729	-3.1354	-2.8979	-3.0062	-3.125	-2.7146	132.831	259.180	267.787	403.395	353.810	433.321	250.268	413.436	346.113	247.381	360.178	396.702	396.075	424.119	211.970	395.015	0.0002701	0.00019144	8.5792e-05	1449.8	8.5934e-07	3.7457e-06	1471.2	278.57	1.3601e-06	1.8899e-06	356.93	96.22	76.102	21.353	2.8152e-06	29.577	0.00010962	0.00010641	2.9527e-05	1328.1	1.1714e-06	1.1483e-06	1362.8	254.77	1.1509e-06	1.1419e-06	302.2	87.471	66.132	19.776	1.1582e-06	27.007	189.684	164.683	193.719	118.450	157.193	302.014	118.835	125.628	281.122	286.840	125.427	131.930	132.062	138.885	278.097	138.492	-8191	255	
2395.090	1	1	0	0	0.14903	0.15675	0.16126	0.42412	0.16863	0.053591	0.40531	0.16991	0.15592	0.13861	0.13978	0.1938	0.085905	0.23784	0.065721	0.21817	-2.5146	-2.9	-2.5271	-3.0687	-2.9083	-2.9042	-3.1688	-2.65	-2.9729	-3.1021	-2.8688	-3.2375	-2.7854	-2.8688	-3.0167	-2.8083	145.872	241.188	247.272	408.999	187.257	190.490	399.490	394.510	306.292	194.023	435.372	404.533	411.112	228.958	387.462	325.805	0.0002706	9.1717e-05	6.0503e-05	1451.1	4.5494e-06	1.7421e-06	1479.4	278.33	1.9031e-06	2.4676e-06	355.2	95.203	76.337	21.481	1.848e-06	29.554	0.00010807	0.00010648	2.9404e-05	1327.9	1.1521e-06	1.1631e-06	1363.5	255.34	1.1671e-06	1.1412e-06	301.75	87.219	66.175	19.788	1.1421e-06	27.008	195.853	149.280	191.735	118.628	243.440	265.586	118.726	125.840	296.902	177.391	125.156	132.040	132.325	139.242	312.741	138.545	-8191	255	
2395.186	1	1	0	0	0.1803	0.083803	0.16646	0.27993	0.039032	0.064907	0.25009	0.37823	0.21819	0.23757	0.10295	0.088881	0.16575	0.22785	0.19718	0.26742	-2.5917	-2.8979	-2.7417	-3.2083	-2.9208	-2.8396	-3.1208	-2.8979	-2.8333	-3.1	-2.8563	-2.9938	-2.7687	-2.6562	-3.1104	-2.8792	214.085	390.373	300.731	415.697	263.671	143.850	393.510	460.962	252.303	132.822	278.909	281.195	409.471	198.581	379.818	359.441	0.00029425	0.00029551	6.2883e-05	1446.7	4.7947e-06	3.1119e-06	1475	276.55	1.8091e-06	2.0166e-06	354.26	95.082	76.518	21.434	2.0233e-06	29.491	0.00010792	0.00010365	2.9164e-05	1326.2	1.1477e-06	1.1334e-06	1362.1	254.28	1.1486e-06	1.1348e-06	300.98	86.92	66.009	19.733	1.1432e-06	26.972	216.420	161.540	392.204	118.476	227.627	310.146	118.534	125.615	226.151	188.904	125.632	131.917	132.773	139.133	123.426	138.217	-8191	255	
2395.307	1	1	0	0	0.12862	0.21212	0.12042	0.34596	0.14649	0.10804	0.27183	0.34056	0.052888	0.10742	0.17793	0.15924	0.18659	0.2088	0.2498	0.19899	-2.4292	-3.0292	-2.7625	-3.1688	-3.0208	-2.6042	-3.2479	-2.7354	-2.7104	-3.0583	-2.9625	-2.9771	-2.9458	-2.8521	-2.9417	-2.6125	388.568	184.437	306.787	383.640	465.266	189.972	401.475	401.556	400.846	227.640	449.417	122.727	413.383	413.673	341.223	109.205	0.00022196	0.00030082	9.8537e-05	1445.9	2.5929e-06	3.4322e-06	1475.6	278.2	2.1541e-06	6.8571e-07	354.01	95.896	76.115	21.392	3.0058e-06	29.715	0.00010682	0.00010299	2.8763e-05	1325.8	1.1368e-06	1.1217e-06	1361.8	254.76	1.1471e-06	1.1334e-06	301.13	87.353	66.132	19.747	1.1517e-06	27.054	200.628	198.197	154.355	118.507	199.287	294.474	118.747	125.632	211.781	279.649	125.304	131.821	132.529	138.993	273.487	138.513	-8191	255	
2395.379	1	1	0	0	0.17617	0.13178	0.052079	0.2622	0.12904	0.13677	0.19027	0.064107	0.17591	0.096301	0.24219	0.11412	0.0045646	0.12446	0.24302	0.26441	-2.3083	-3.0438	-2.6792	-3.1417	-3.0187	-2.7208	-3.1292	-2.8458	-2.9417	-3.2021	-2.7167	-2.9729	-3.1063	-2.6646	-3.0021	-2.6937	446.281	112.783	199.566	370.481	250.046	445.235	428.112	213.281	375.019	316.181	269.691	119.602	253.541	133.076	388.738	431.791	0.00032351	0.00017607	0.00010397	1444.5	5.9948e-07	6.9894e-07	1473	278.03	3.9492e-06	2.8706e-06	356.16	95.356	75.946	21.434	1.7671e-06	29.638	0.00010779	0.00010421	2.9335e-05	1326.5	1.1721e-06	1.1487e-06	1363.1	255.03	1.1583e-06	1.1408e-06	301.82	87.221	66.07	19.786	1.1592e-06	27.041	208.293	457.844	227.879	118.614	205.944	108.519	118.680	125.956	259.024	253.336	125.149	131.999	132.514	139.013	282.235	138.949	-8191	255	
2395.475	1	1	0	0	0.13027	0.087135	0.10858	0.33435	0.28778	0.31028	0.062883	0.06388	0.11207	0.14382	0.19081	0.18135	0.18735	0.044773	0.22716	0.094834	-2.3187	-3.1854	-2.8479	-3.1333	-3.0062	-2.8354	-2.9479	-3.0812	-2.6729	-2.9333	-2.8417	-3.0812	-3.1292	-2.6146	-2.9979	-3.0396	322.650	333.504	438.313	115.882	466.222	389.908	276.237	465.710	287.055	333.663	377.763	327.574	221.218	378.581	159.594	180.633	0.0003389	0.00040771	4.0755e-05	1447.7	7.8192e-07	4.3174e-06	1473.4	277.62	8.96e-07	5.005e-06	356.17	95.32	76.581	21.393	3.8164e-06	29.569	0.00010831	0.00010637	2.9121e-05	1327.3	1.1635e-06	1.1602e-06	1364.2	254.99	1.1598e-06	1.1745e-06	301.75	87.265	66.246	19.753	1.1622e-06	27.05	199.673	197.616	144.550	118.512	291.277	269.560	118.706	125.400	238.544	254.092	124.948	132.173	132.221	139.150	259.759	138.863	-8191	255	
2395.571	1	1	0	0	0.064626	0.063059	0.13439	0.17747	0.16477	0.3492	0.18766	0.041055	0.019307	0.19718	0.085885	0.088291	0.23688	0.25152	0.14696	0.11757	-2.275	-3.0271	-2.7854	-2.9938	-2.9708	-2.7229	-3.2021	-3.0438	-2.6229	-3.1	-2.9437	-3.0292	-3.1583	-2.7292	-2.9688	-2.9958	129.705	327.559	141.455	122.733	398.874	203.140	381.361	159.539	254.441	336.565	342.557	126.626	359.421	426.833	433.324	405.767	0.00028189	0.00022654	0.00012769	1449	4.2461e-06	1.811e-06	1475.3	277.7	1.5479e-06	2.2156e-06	356.56	95.515	76.11	21.332	8.8476e-07	29.75	0.00010864	0.0001066	2.9591e-05	1328.4	1.1673e-06	1.1652e-06	1362.9	254.93	1.1718e-06	1.1589e-06	302.59	87.415	66.095	19.792	1.173e-06	27.1	218.878	145.632	463.298	118.762	251.566	276.702	118.558	125.591	210.508	318.437	125.190	131.682	132.248	139.224	373.957	138.542	-8191	255	
2395.691	1	1	0	0	0.090475	0.26381	0.25776	0.35412	0.13705	0.21847	0.24548	0.11262	0.26858	0.27765	0.063175	0.21791	0.166	0.34963	0.070064	0.28768	-2.45	-2.9292	-2.9604	-2.9188	-3.0229	-3.0062	-3.2146	-3.0958	-2.7438	-3.0875	-2.9396	-2.7708	-3.0187	-2.9583	-3.0125	-3.1833	358.685	303.172	197.184	448.579	326.546	156.818	136.677	403.660	161.191	111.055	438.134	118.563	130.972	190.152	138.119	129.492	0.00027686	0.00015554	6.1006e-05	1451.9	4.6319e-06	3.2221e-06	1474.8	278.41	3.7559e-06	3.3e-06	355.83	95.603	76.476	21.45	1.7257e-06	29.655	0.00010974	0.00010723	2.9547e-05	1329.2	1.1729e-06	1.1701e-06	1365.2	255.31	1.1692e-06	1.1563e-06	302.27	87.453	66.34	19.793	1.1691e-06	27.097	201.368	379.268	350.503	118.728	228.175	202.748	118.554	125.379	220.846	222.723	124.938	131.892	132.064	138.966	137.253	138.112	-8191	255	
2395.786	1	1	0	0	0.33168	0.082838	0.094006	0.27821	0.14162	0.15254	0.48931	0.17006	0.11489	0.045307	0.35147	0.16655	0.1113	0.078102	0.14213	0.45807	-2.2	-3	-2.8729	-2.8729	-3.1167	-2.7667	-3.0333	-3.0979	-2.6521	-2.9688	-3.0062	-2.6021	-3.2917	-2.8146	-2.7708	-3.0375	394.372	408.670	205.345	443.165	389.743	170.714	434.094	324.323	385.741	216.440	423.424	249.750	317.963	431.447	363.707	348.237	0.00034629	0.00024421	6.8812e-05	1444.4	7.7765e-07	5.7555e-06	1474.2	278.78	2.4986e-06	3.6204e-06	358.38	95.366	76.439	21.56	6.7176e-06	29.726	0.00011084	0.00010662	2.9533e-05	1328.1	1.1833e-06	1.1694e-06	1365.6	255.44	1.1755e-06	1.168e-06	302.59	87.24	66.284	19.853	1.1866e-06	27.089	211.286	171.934	453.226	118.631	184.383	242.698	118.770	125.408	212.622	231.026	125.101	131.606	132.528	139.017	260.989	138.577	-8191	255	
2395.882	1	1	0	0	0.36691	0.13891	0.21294	0.23088	0.10989	0.24731	0.24991	0.12723	0.23804	0.17917	0.23495	0.084758	0.20643	0.15256	0.21543	0.17019	-2.3333	-2.8688	-2.9958	-2.8771	-3.0729	-3.0771	-3.0229	-3.1979	-2.7875	-2.8667	-3.0792	-2.6917	-3.1042	-2.9938	-2.7833	-3.1542	464.432	398.353	232.288	378.082	127.541	241.573	393.184	456.165	142.094	342.537	196.985	391.488	148.906	114.891	316.131	402.464	0.00031424	0.00013906	0.00011547	1449	2.6667e-06	6.2534e-07	1478.1	278.42	3.591e-06	1.6217e-06	356.19	95.091	76.87	21.405	3.5064e-06	29.665	0.00010881	0.0001063	2.9445e-05	1328.1	1.1656e-06	1.1525e-06	1364.3	255.47	1.1737e-06	1.1731e-06	301.93	87.237	66.341	19.793	1.1826e-06	27.115	215.714	466.734	191.332	118.779	201.545	347.203	118.647	125.706	215.771	336.329	125.579	131.945	132.282	139.051	217.040	138.790	-8191	255	
2395.980	1	1	0	0	0.12257	0.091876	0.2398	0.39344	0.24927	0.1911	0.11778	0.019066	0.046058	0.11066	0.029736	0.099453	0.051453	0.28929	0.23148	0.10015	-2.3771	-2.8917	-2.8604	-2.95	-2.8688	-2.7958	-2.8187	-3.2542	-2.6542	-2.8625	-3.2146	-2.8875	-3.1708	-3.0292	-2.6917	-3.0479	119.762	117.474	399.151	421.728	152.247	229.705	460.183	330.769	456.153	261.953	384.025	414.200	392.555	296.369	186.475	376.262	0.00026878	0.00015719	0.00015502	1447.6	1.9214e-06	1.2982e-06	1485.7	278.32	1.221e-06	5.9561e-07	354.65	96.014	76.448	21.428	4.2235e-06	29.571	0.0001103	0.00010639	2.9587e-05	1329	1.1824e-06	1.1597e-06	1367	255.42	1.1854e-06	1.1624e-06	302.14	87.51	66.454	19.796	1.1605e-06	27.032	199.808	140.442	248.619	118.746	263.322	281.030	118.866	125.815	348.739	141.171	125.139	131.964	132.093	138.905	202.626	138.670	-8191	255	
2396.074	1	1	0	0	0.091144	0.11987	0.058963	0.017887	0.039467	0.16639	0.27804	0.066798	0.18941	0.23374	0.092678	0.031783	0.15411	0.12794	0.20933	0.22909	-2.375	-3.0292	-2.9896	-2.9167	-2.9646	-2.9333	-3.0396	-3.075	-2.775	-2.8958	-3.1167	-2.8875	-2.8917	-2.9792	-2.7625	-3.0333	422.281	327.365	381.128	280.051	152.327	108.341	418.961	457.582	337.933	417.284	451.773	325.160	364.792	163.411	318.177	406.727	0.00028446	0.00028366	1.5601e-05	1450.8	1.3857e-06	2.8022e-06	1477.7	279.95	3.0026e-06	2.7605e-06	356.74	95.395	76.185	21.381	3.9518e-06	29.709	0.0001105	0.00010721	2.9948e-05	1327.6	1.17e-06	1.1642e-06	1365.7	255.72	1.1773e-06	1.1681e-06	301.96	87.328	66.215	19.785	1.1674e-06	27.102	199.088	168.186	323.598	118.526	230.860	344.960	118.517	125.845	261.900	286.567	125.631	131.973	132.160	139.083	260.460	138.824	-8191	255	
2396.170	1	1	0	0	0.13469	0.20715	0.067928	0.10497	0.096469	0.15334	0.086803	0.019151	0.21011	0.17118	0.07302	0.1684	0.23426	0.073992	0.11825	0.076978	-2.4583	-2.7229	-3.0083	-2.8604	-3.0146	-3.0187	-2.8438	-3.3125	-2.85	-2.8646	-3.0333	-2.9104	-2.9646	-3.1333	-2.7958	-2.8	378.546	135.479	233.649	187.772	209.915	156.422	298.038	202.577	224.833	315.492	261.219	465.637	438.906	255.638	273.797	302.326	0.00032223	0.00014001	1.6376e-05	1448.8	2.347e-06	7.0619e-07	1476.4	277.58	3.3969e-07	3.8686e-06	356.31	95.28	76.265	21.552	2.8673e-07	29.48	0.00010979	0.00010678	2.9897e-05	1330.1	1.1921e-06	1.1854e-06	1366.4	255.79	1.1812e-06	1.1866e-06	302.76	87.451	66.356	19.856	1.1747e-06	27.109	210.844	133.517	179.437	118.654	116.171	408.796	118.560	125.404	375.417	255.664	124.687	131.795	132.619	138.883	201.364	138.596	-8191	255	
2396.291	1	1	0	0	0.18154	0.16945	0.070838	0.35245	0.088555	0.35812	0.23756	0.054474	0.14551	0.16329	0.059665	0.11121	0.031259	0.22521	0.07178	0.20445	-2.5438	-2.7979	-3.0896	-2.9583	-2.9062	-3.0958	-2.9375	-3.0708	-2.9437	-2.5896	-3.0208	-2.9562	-2.9271	-3.0958	-2.7	-2.9979	315.447	262.966	164.576	184.443	189.937	234.718	427.103	431.936	444.837	357.276	236.810	288.557	312.768	110.364	280.582	272.584	0.00032644	0.00020696	1.4156e-05	1452.7	1.9894e-06	2.8284e-06	1481.5	279.14	2.5518e-06	2.7961e-06	356.49	95.823	76.89	21.493	4.9165e-06	29.386	0.00011197	0.00010871	3.0203e-05	1331.9	1.1938e-06	1.1796e-06	1368.5	256.16	1.1938e-06	1.1891e-06	303.24	87.74	66.471	19.862	1.1855e-06	27.13	212.760	247.304	235.689	118.526	190.472	270.257	118.622	125.744	261.877	309.738	125.243	131.738	132.529	138.864	172.361	138.454	-8191	255	
2396.387	1	1	0	0	0.25857	0.13501	0.26306	0.2163	0.11598	0.2303	0.16495	0.14703	0.25024	0.0085955	0.049256	0.12175	0.12101	0.19261	0.063747	0.21909	-2.6562	-2.7875	-2.9875	-3.0854	-2.8	-3.0646	-2.8292	-2.85	-2.8583	-2.7021	-2.9396	-2.6604	-2.8	-2.9792	-2.8479	-2.9729	221.116	451.467	246.130	400.461	307.725	281.749	433.985	448.189	138.256	424.281	179.549	462.311	439.315	430.929	409.090	110.318	0.00027763	0.00016873	0.00011888	1455	3.8517e-06	5.0112e-06	1484.7	279.49	2.7543e-06	4.2357e-07	358.35	95.922	76.48	21.401	3.2617e-06	29.797	0.00011246	0.0001087	3.0057e-05	1330.8	1.2019e-06	1.1826e-06	1372.1	256.07	1.1931e-06	1.1834e-06	304.55	87.567	66.45	19.86	1.179e-06	27.211	210.788	248.379	243.741	118.525	210.403	185.177	118.727	125.567	272.529	364.651	125.374	132.151	132.303	138.941	167.667	138.244	-8191	255	
2396.483	1	1	0	0	0.24425	0.14787	0.24841	0.073316	0.12934	0.11375	0.26711	0.13461	0.29551	0.12178	0.088465	0.28404	0.02753	0.12805	0.18033	0.24344	-2.4396	-2.7792	-2.875	-3.0854	-2.6021	-3.1	-2.9104	-2.9188	-3.0312	-2.5625	-3.0146	-2.95	-2.8375	-3.0896	-2.7313	-2.7979	361.769	234.514	334.058	435.614	333.289	321.605	355.229	428.901	131.196	241.765	424.375	415.296	179.862	308.320	167.072	249.429	0.00034863	0.00036462	3.8812e-05	1453	3.5115e-06	2.0242e-06	1480.3	278.14	3.1402e-06	3.0683e-06	357.68	96.287	76.313	21.524	5.3551e-06	29.501	0.00011129	0.00010823	3.0046e-05	1333	1.1834e-06	1.1709e-06	1369.2	256.25	1.1827e-06	1.168e-06	303.85	87.789	66.473	19.891	1.1795e-06	27.142	200.474	121.345	192.608	118.432	209.706	197.904	118.640	125.466	268.737	292.906	125.560	131.863	132.228	139.118	263.127	138.562	-8191	255	
2396.580	1	1	0	0	0.070213	0.1757	0.012021	0.058726	0.17841	0.21532	0.18537	0.13243	0.14182	0.29412	0.22603	0.20143	0.14664	0.15468	0.12291	0.15633	-2.8208	-2.6417	-2.9688	-3.0687	-2.8229	-2.9771	-3.1688	-2.8396	-3.0938	-2.625	-2.9167	-3.0042	-2.6063	-2.9813	-2.8125	-2.6979	182.680	416.442	450.793	233.179	362.800	396.095	449.405	131.970	242.951	425.539	460.555	372.150	271.595	170.329	134.433	411.937	0.0003149	0.00014796	8.0658e-05	1451.5	3.9554e-06	1.3912e-06	1482.2	278.33	3.2219e-06	3.1016e-06	357.16	96.434	76.585	21.401	6.251e-07	29.644	0.00011121	0.00010741	2.9638e-05	1332.6	1.1738e-06	1.1726e-06	1369.5	255.89	1.1978e-06	1.1786e-06	303.4	87.793	66.488	19.887	1.1984e-06	27.13	209.235	423.356	450.197	118.632	195.030	307.429	118.572	125.505	282.167	144.938	125.265	131.707	132.490	139.117	328.068	138.454	-8191	255	
2396.676	1	1	0	0	0.17559	0.22187	0.23519	0.28179	0.12136	0.21347	0.14578	0.1859	0.12398	0.16684	0.1767	0.15363	0.072743	0.049401	0.13284	0.14897	-2.7354	-2.8417	-2.9396	-3.0958	-2.8271	-2.9833	-2.9562	-2.75	-3.0187	-2.5979	-3.0167	-3.0312	-2.6979	-2.9958	-2.8854	-2.7708	383.579	449.941	321.538	436.729	179.398	307.794	417.471	395.027	238.893	240.249	422.664	137.812	382.520	413.435	209.180	363.087	0.00027535	0.00018849	5.0918e-05	1459.4	2.9549e-06	8.289e-07	1481.9	278.84	1.5915e-06	1.7801e-06	359.39	95.738	77.062	21.494	2.7849e-06	29.532	0.0001106	0.00010819	3.0268e-05	1335.8	1.1923e-06	1.1922e-06	1371.4	256.48	1.1901e-06	1.1813e-06	304.14	87.648	66.676	19.903	1.184e-06	27.216	213.328	400.759	233.846	118.462	230.192	186.992	118.528	125.574	157.525	217.466	125.598	131.867	132.135	139.310	233.524	138.415	-8191	255	
2396.772	1	1	0	0	0.10824	0.14912	0.24091	0.31831	0.14536	0.11401	0.15795	0.15013	0.21497	0.27107	0.10377	0.25336	0.027714	0.18024	0.2036	0.19566	-2.625	-2.6813	-2.8438	-3.0521	-2.6042	-3.1021	-3.1667	-2.7562	-3.05	-2.7542	-3.0708	-3.1396	-2.6937	-2.925	-3.0125	-2.6833	250.998	325.246	198.360	161.149	173.857	293.222	435.775	430.907	452.345	115.059	407.645	199.282	295.380	230.350	460.241	139.601	0.00027876	9.6136e-05	7.5226e-05	1457	3.5704e-06	1.6744e-06	1480.7	280.35	2.1641e-06	4.7818e-06	356.83	96.183	76.91	21.527	4.005e-06	29.694	0.00011241	0.00010895	3.0618e-05	1334.8	1.2238e-06	1.2087e-06	1371.1	256.74	1.2041e-06	1.1749e-06	303.9	87.881	66.707	19.951	1.2076e-06	27.213	209.221	192.490	277.299	118.643	289.423	119.962	118.591	125.769	320.303	269.622	125.062	131.934	132.309	138.923	279.884	138.598	-8191	255	
2396.868	1	1	0	0	0.1394	0.13212	0.11745	0.28261	0.094876	0.14058	0.067525	0.17791	0.26956	0.060946	0.071507	0.030899	0.076417	0.18959	0.28359	0.099982	-2.8	-2.7979	-2.7667	-3.3229	-2.6771	-2.9	-3.225	-2.8479	-3.0854	-2.7854	-2.8729	-3.0396	-2.7292	-3.0104	-3.0729	-2.7667	331.246	455.117	247.542	453.523	465.078	345.288	443.603	428.406	245.378	347.639	297.546	370.959	159.668	112.010	174.969	116.897	0.0003369	0.00026142	9.2016e-05	1458	7.4219e-07	3.1603e-06	1483.6	280.32	3.2474e-06	1.1558e-06	361.03	96.147	77.023	21.415	1.9315e-06	29.728	0.00011363	0.00010943	3.0562e-05	1336.4	1.2016e-06	1.2126e-06	1374.4	257.32	1.2242e-06	1.2127e-06	305.23	88.136	66.861	19.907	1.2126e-06	27.281	202.755	132.976	132.172	118.453	203.257	266.010	118.944	125.798	193.822	460.507	125.254	131.784	132.376	139.161	231.269	138.464	-8191	255	
2396.987	1	1	0	0	0.19251	0.24248	0.22755	0.16615	0.085382	0.047117	0.13366	0.10243	0.25904	0.29384	0.17888	0.34424	0.34545	0.083917	0.19686	0.14766	-2.725	-2.7604	-2.6562	-3.2229	-2.7104	-2.8354	-3.375	-2.6375	-3.025	-2.8583	-2.8896	-3.1208	-2.8187	-2.925	-3.0438	-2.7062	299.691	358.668	298.395	464.372	272.301	174.070	384.769	403.711	218.167	286.513	378.537	147.799	422.323	175.906	224.733	165.670	0.00029103	0.00016873	0.00015629	1456.2	1.9901e-06	9.9418e-07	1484	280.99	4.3102e-06	3.9421e-06	358.57	96.224	76.312	21.447	1.8589e-06	29.889	0.00011404	0.00011039	3.0975e-05	1338.1	1.23e-06	1.2091e-06	1372.9	257.51	1.2178e-06	1.2167e-06	304.74	88.001	66.726	19.958	1.2249e-06	27.356	206.550	199.874	259.971	118.649	267.431	364.511	118.439	125.601	255.235	216.948	125.421	132.137	132.536	139.351	285.169	138.405	-8191	255	
2397.083	1	1	0	0	0.2823	0.16175	0.1199	0.25801	0.26853	0.10787	0.27128	0.17609	0.12375	0.14657	0.12248	0.23936	0.26892	0.061235	0.20791	0.1292	-2.4646	-2.9854	-2.625	-3.1896	-2.7958	-2.7083	-3.2208	-2.9271	-3.025	-2.9021	-2.6375	-3.0396	-2.9042	-2.6979	-2.9833	-2.6354	279.709	313.113	374.042	443.235	190.848	143.303	414.399	390.336	169.900	250.212	133.614	125.218	446.735	237.175	293.668	450.843	0.00033926	5.8676e-05	0.00013099	1455.3	2.9114e-06	1.3032e-06	1487.1	281.03	2.0721e-06	2.1493e-06	362.11	96.158	76.767	21.475	5.6835e-06	29.82	0.00011483	0.00011141	3.1169e-05	1338.4	1.2374e-06	1.2114e-06	1376.1	257.77	1.2418e-06	1.2172e-06	305.36	88.207	66.974	19.974	1.2326e-06	27.384	195.900	229.685	181.848	118.544	221.076	114.775	118.728	125.841	292.093	155.471	124.969	131.925	132.396	139.055	290.781	138.432	-8191	255	
2397.179	1	1	0	0	0.25775	0.23029	0.24758	0.17952	0.082319	0.14698	0.22603	0.048326	0.12391	0.070973	0.188	0.12319	0.1334	0.04459	0.089751	0.24561	-2.5542	-2.7792	-2.6708	-3.2625	-2.8792	-2.575	-3.3729	-2.7188	-2.9604	-3.1917	-2.8563	-2.9458	-2.8792	-2.8875	-3.1562	-2.7396	216.348	420.073	368.112	433.096	148.165	302.385	404.469	271.507	119.365	144.702	350.082	415.956	125.839	377.058	147.664	263.926	0.00037386	0.00030206	2.039e-05	1467.1	5.7392e-06	3.9999e-06	1487.4	280.21	2.5942e-06	1.1395e-06	359.94	96.237	77.164	21.535	4.3737e-07	29.874	0.00011609	0.00011149	3.107e-05	1340.6	1.2324e-06	1.2261e-06	1375.6	257.86	1.243e-06	1.2281e-06	305.59	88.105	67.005	19.982	1.2476e-06	27.337	203.496	184.288	182.027	118.367	175.638	173.316	118.701	125.763	263.104	234.955	124.850	131.643	132.138	138.890	288.479	138.547	-8191	255	
2397.253	1	1	0	0	0.18585	0.082574	0.24077	0.26537	0.065958	0.13134	0.21334	0.15226	0.36173	0.042188	0.29852	0.20857	0.073016	0.18047	0.096886	0.26214	-2.5042	-3.1188	-2.7292	-3.2229	-3.0521	-2.7812	-3.3521	-2.8979	-2.9562	-3.1729	-2.8104	-3.1646	-3.05	-2.7083	-3.075	-2.8187	160.988	169.096	220.888	431.535	335.397	126.779	404.600	118.596	275.223	232.367	400.404	271.340	112.219	125.318	362.193	121.278	0.0002977	3.855e-05	2.3801e-05	1466.2	5.0702e-07	3.1868e-06	1489.9	280.95	2.4112e-06	1.1211e-06	360.31	96.263	76.591	21.486	3.538e-06	29.734	0.00011656	0.00011303	3.172e-05	1341.3	1.2518e-06	1.2401e-06	1378.8	258.09	1.2494e-06	1.2338e-06	305.74	88.232	66.993	20.056	1.2441e-06	27.317	203.170	366.510	227.735	118.555	107.613	216.613	118.552	125.471	206.902	219.171	125.138	131.839	132.057	139.048	218.185	138.898	-8191	255	
2397.371	1	1	0	0	0.056703	0.093246	0.041941	0.095418	0.19607	0.041171	0.17263	0.11541	0.097025	0.12777	0.43466	0.18701	0.1335	0.17707	0.13861	0.23343	-2.2104	-3.1437	-2.7354	-3.0958	-2.9896	-2.7229	-3.275	-2.8271	-2.8042	-3.05	-2.7854	-3.1021	-3.1792	-2.8083	-3.0229	-2.7562	235.976	298.785	267.285	418.808	138.173	177.989	423.215	127.902	467.054	130.908	418.107	388.720	213.541	434.781	237.972	409.880	0.00023296	0.00028179	5.7649e-05	1463.8	3.7893e-06	2.1427e-06	1485.8	279.63	1.8763e-06	5.8547e-06	362.11	96.514	76.875	21.483	1.3492e-06	29.935	0.0001162	0.00011339	3.1633e-05	1342.7	1.2548e-06	1.2243e-06	1377.3	258.23	1.2551e-06	1.2389e-06	306.68	88.434	67	20.014	1.231e-06	27.332	221.809	142.573	178.697	118.445	237.620	465.061	118.530	125.585	137.908	248.285	125.238	131.789	132.458	138.851	250.061	138.313	-8191	255	
2397.468	1	1	0	0	0.31533	0.18691	0.13507	0.049976	0.14122	0.10139	0.27376	0.027963	0.12573	0.12503	0.17819	0.16837	0.090955	0.23744	0.22449	0.38524	-2.3208	-3	-2.6	-3.1021	-3.1021	-2.625	-3.125	-2.8104	-2.8229	-3.0021	-2.6479	-2.9792	-2.9688	-2.6708	-3.0104	-2.8521	211.900	450.074	146.563	118.309	115.495	167.963	465.636	379.823	369.769	167.404	371.709	258.218	449.778	179.036	374.064	127.121	0.00032025	0.00040117	3.3202e-05	1464.3	2.3241e-06	2.3835e-06	1492.6	281.38	1.8495e-06	3.6119e-06	360.44	96.685	76.736	21.625	4.4687e-06	29.803	0.00011696	0.00011475	3.1948e-05	1343	1.2548e-06	1.2505e-06	1379.1	258.93	1.2646e-06	1.253e-06	306.48	88.539	67.07	20.092	1.2509e-06	27.368	201.760	188.399	325.694	118.671	231.750	289.286	118.647	125.489	330.553	142.887	124.957	132.172	132.307	139.010	290.735	138.749	-8191	255	
2397.564	1	1	0	0	0.12267	0.15897	0.23027	0.36231	0.29403	0.11002	0.11815	0.049963	0.17364	0.06435	0.23732	0.23618	0.2205	0.1953	0.12589	0.19486	-2.2396	-3.025	-2.8063	-3.125	-2.9354	-2.7146	-3.3167	-2.9188	-2.6896	-3.2292	-2.7938	-2.9917	-3.0625	-2.5979	-2.8771	-3.0625	112.522	389.109	204.809	417.100	136.891	382.739	377.593	136.105	152.879	380.729	118.258	277.428	193.623	169.031	407.305	331.126	0.00029433	0.00036781	4.0986e-05	1461.2	6.1564e-06	1.1249e-06	1493.8	280.6	6.5011e-07	8.8911e-07	358.83	96.984	77.023	21.59	3.3236e-06	29.732	0.00011499	0.00011293	3.1804e-05	1343.3	1.2548e-06	1.2484e-06	1381.2	258.76	1.2774e-06	1.2748e-06	306.86	88.545	67.307	20.114	1.2789e-06	27.435	215.465	431.054	391.657	118.795	215.626	289.079	118.763	125.510	262.452	110.998	124.985	131.896	132.129	139.000	297.729	138.578	-8191	255	
#DATA ENDS
