BOXY.EXE: ISS Imagent and Oximeter Data Acquisition Program Version 0.80
Ascii Record File

#ACQ INFORMATION
2  Detector Channels 
16  External MUX Channels 
1  Auxiliary Channels 
5000  Waveform (CCF) Frequency (Hz)
1  Waveforms Skipped 
30  Waveforms Averaged 
1  Cycles Averaged 
16  Acquisitions per Waveform 
10.0806  Updata Rate (Hz) 

#FILE INFORMATION
TRUE -- External MUX Channel results are PARSED.
FALSE -- AC DC and Phase are NOT grouped.
TRUE -- Companion Program Settings File CREATED.
FALSE -- AC data not excluded
FALSE -- DC data not excluded
FALSE -- Phase data not excluded
FALSE -- Auxillary Chn. data not excluded
Tab delimiters

#CALIBRATION STATE
TRUE -- Waveform Calibration Values APPLIED.


#AUX CALIBRATION VALUES
Val Type	aux-1	

Term	1.0000e+00	
Factor	0.0000e+00	


#WF CALIBRATION VALUES
A = Detector Channel
Val Type	A-AC1	A-AC2	A-AC3	A-AC4	A-AC5	A-AC6	A-AC7	A-AC8	A-AC9	A-AC10	A-AC11	A-AC12	A-AC13	A-AC14	A-AC15	A-AC16	A-DC1	A-DC2	A-DC3	A-DC4	A-DC5	A-DC6	A-DC7	A-DC8	A-DC9	A-DC10	A-DC11	A-DC12	A-DC13	A-DC14	A-DC15	A-DC16	A-Ph1	A-Ph2	A-Ph3	A-Ph4	A-Ph5	A-Ph6	A-Ph7	A-Ph8	A-Ph9	A-Ph10	A-Ph11	A-Ph12	A-Ph13	A-Ph14	A-Ph15	A-Ph16	

Term	0.00000e+00	0.00000e+00	0.00000e+00	0.00000e+00	0.00000e+00	0.00000e+00	0.00000e+00	0.00000e+00	0.00000e+00	0.00000e+00	0.00000e+00	0.00000e+00	0.00000e+00	0.00000e+00	0.00000e+00	0.00000e+00	0.00000e+00	0.00000e+00	0.00000e+00	0.00000e+00	0.00000e+00	0.00000e+00	0.00000e+00	0.00000e+00	0.00000e+00	0.00000e+00	0.00000e+00	0.00000e+00	0.00000e+00	0.00000e+00	0.00000e+00	0.00000e+00	0.00000e+00	0.00000e+00	0.00000e+00	0.00000e+00	0.00000e+00	0.00000e+00	0.00000e+00	0.00000e+00	0.00000e+00	0.00000e+00	0.00000e+00	0.00000e+00	0.00000e+00	0.00000e+00	0.00000e+00	0.00000e+00	
Factor	1.00000e+00	1.00000e+00	1.00000e+00	1.00000e+00	1.00000e+00	1.00000e+00	1.00000e+00	1.00000e+00	1.00000e+00	1.00000e+00	1.00000e+00	1.00000e+00	1.00000e+00	1.00000e+00	1.00000e+00	1.00000e+00	1.00000e+00	1.00000e+00	1.00000e+00	1.00000e+00	1.00000e+00	1.00000e+00	1.00000e+00	1.00000e+00	1.00000e+00	1.00000e+00	1.00000e+00	1.00000e+00	1.00000e+00	1.00000e+00	1.00000e+00	1.00000e+00	X	X	X	X	X	X	X	X	X	X	X	X	X	X	X	X	

B = Detector Channel
Val Type	B-AC1	B-AC2	B-AC3	B-AC4	B-AC5	B-AC6	B-AC7	B-AC8	B-AC9	B-AC10	B-AC11	B-AC12	B-AC13	B-AC14	B-AC15	B-AC16	B-DC1	B-DC2	B-DC3	B-DC4	B-DC5	B-DC6	B-DC7	B-DC8	B-DC9	B-DC10	B-DC11	B-DC12	B-DC13	B-DC14	B-DC15	B-DC16	B-Ph1	B-Ph2	B-Ph3	B-Ph4	B-Ph5	B-Ph6	B-Ph7	B-Ph8	B-Ph9	B-Ph10	B-Ph11	B-Ph12	B-Ph13	B-Ph14	B-Ph15	B-Ph16	

Term	0.00000e+00	0.00000e+00	0.00000e+00	0.00000e+00	0.00000e+00	0.00000e+00	0.00000e+00	0.00000e+00	0.00000e+00	0.00000e+00	0.00000e+00	0.00000e+00	0.00000e+00	0.00000e+00	0.00000e+00	0.00000e+00	0.00000e+00	0.00000e+00	0.00000e+00	0.00000e+00	0.00000e+00	0.00000e+00	0.00000e+00	0.00000e+00	0.00000e+00	0.00000e+00	0.00000e+00	0.00000e+00	0.00000e+00	0.00000e+00	0.00000e+00	0.00000e+00	-1.03808e+02	-1.77211e+02	-1.31083e+02	-1.82823e+02	-9.80098e+01	-7.53848e+01	-1.56825e+02	-1.62015e+02	-7.17826e+01	-7.41865e+01	-1.74633e+02	-1.70805e+02	-1.86096e+02	-1.78665e+02	-8.12713e+01	-1.50289e+02	
Factor	1.71126e-05	7.94423e-05	2.53507e-05	1.83103e-01	8.15524e-07	1.04195e-06	1.75314e-01	6.14070e-02	7.26767e-07	9.63578e-07	1.53302e-01	2.98187e-02	4.30704e-02	9.63236e-03	9.86742e-07	1.34724e-02	4.16114e-07	4.22285e-07	1.17545e-07	8.55281e-02	4.63013e-09	4.62660e-09	7.79135e-02	2.83533e-02	4.62896e-09	4.62280e-09	6.15121e-02	1.31213e-02	1.81129e-02	4.31750e-03	4.62780e-09	5.78296e-03	X	X	X	X	X	X	X	X	X	X	X	X	X	X	X	X	



#DISTANCE SETTINGS
A = Detector Channel
A-1	A-2	A-3	A-4	A-5	A-6	A-7	A-8	A-9	A-10	A-11	A-12	A-13	A-14	A-15	A-16	

2.5000e+00	3.0000e+00	2.5000e+00	3.0000e+00	2.0000e+00	3.0000e+00	1.5000e+00	3.0000e+00	3.0000e+00	3.0000e+00	3.0000e+00	3.0000e+00	3.0000e+00	3.0000e+00	1.5000e+00	3.0000e+00	

B = Detector Channel
B-1	B-2	B-3	B-4	B-5	B-6	B-7	B-8	B-9	B-10	B-11	B-12	B-13	B-14	B-15	B-16	

1.0000e+01	1.0000e+01	1.0000e+01	1.4400e+00	1.0000e+01	1.0000e+01	1.5100e+00	1.9400e+00	1.0000e+01	1.0000e+01	1.9900e+00	2.4900e+00	2.4100e+00	2.9000e+00	1.0000e+01	2.9800e+00	




#DATA BEGINS
time	group	step	mark	flag	A-AC1	A-AC2	A-AC3	A-AC4	A-AC5	A-AC6	A-AC7	A-AC8	A-AC9	A-AC10	A-AC11	A-AC12	A-AC13	A-AC14	A-AC15	A-AC16	A-DC1	A-DC2	A-DC3	A-DC4	A-DC5	A-DC6	A-DC7	A-DC8	A-DC9	A-DC10	A-DC11	A-DC12	A-DC13	A-DC14	A-DC15	A-DC16	A-Ph1	A-Ph2	A-Ph3	A-Ph4	A-Ph5	A-Ph6	A-Ph7	A-Ph8	A-Ph9	A-Ph10	A-Ph11	A-Ph12	A-Ph13	A-Ph14	A-Ph15	A-Ph16	B-AC1	B-AC2	B-AC3	B-AC4	B-AC5	B-AC6	B-AC7	B-AC8	B-AC9	B-AC10	B-AC11	B-AC12	B-AC13	B-AC14	B-AC15	B-AC16	B-DC1	B-DC2	B-DC3	B-DC4	B-DC5	B-DC6	B-DC7	B-DC8	B-DC9	B-DC10	B-DC11	B-DC12	B-DC13	B-DC14	B-DC15	B-DC16	B-Ph1	B-Ph2	B-Ph3	B-Ph4	B-Ph5	B-Ph6	B-Ph7	B-Ph8	B-Ph9	B-Ph10	B-Ph11	B-Ph12	B-Ph13	B-Ph14	B-Ph15	B-Ph16	aux-1	digaux	

2369.689	1	1	0	768	0.099274	0.14785	0.02536	0.46418	0.15893	0.21107	0.29213	0.25085	0.10881	0.097837	0.27057	0.069005	0.12539	0.41835	0.30882	0.11139	-2.4375	-2.8625	-3.1792	-3.0479	-2.9313	-3.1083	-2.9292	-3.1917	-3.1271	-2.8854	-3.3063	-3.0146	-2.9833	-3.0792	-2.9771	-3.1188	377.031	112.041	348.307	444.382	132.755	397.878	446.508	429.573	127.811	152.192	450.754	239.034	424.919	105.185	142.760	319.539	0.00052297	0.00029874	0.00011562	1609.4	3.1646e-07	1.4955e-06	1547.7	422.3	4.106e-06	4.4463e-06	495.29	160.3	141.91	48.014	2.2784e-06	57.739	0.00017289	0.00016478	4.5559e-05	1526	1.8025e-06	1.7967e-06	1478.9	397.03	1.8173e-06	1.8e-06	430.52	149.04	123.98	44.422	1.8152e-06	53.07	205.183	155.272	191.728	116.878	253.302	437.551	116.773	121.607	235.708	265.334	120.358	125.035	126.084	130.260	267.932	129.510	-8191	255	
2369.785	1	1	0	0	0.063895	0.26977	0.20599	0.10039	0.14237	0.1638	0.34543	0.23778	0.27904	0.13951	0.28816	0.15284	0.23986	0.19916	0.084059	0.11985	-2.4521	-2.8458	-2.9271	-3.2875	-2.9167	-3.2542	-3.1167	-3.0938	-2.9667	-2.8187	-2.9167	-3.1208	-2.8292	-3.0979	-2.8396	-3.0583	181.492	166.836	195.518	177.219	319.804	138.765	108.793	459.154	158.883	393.901	399.565	147.520	434.261	436.316	323.416	304.677	0.00059441	0.00021521	0.00010886	1610.1	3.1623e-06	2.311e-06	1547.8	422.15	4.5621e-06	2.9063e-06	493.11	160.81	140.97	47.936	1.2998e-06	57.791	0.00017084	0.0001647	4.6397e-05	1526	1.8087e-06	1.7957e-06	1478.9	397.33	1.7923e-06	1.788e-06	430.24	149.19	123.57	44.412	1.784e-06	53.127	194.902	122.829	200.364	116.733	177.707	236.528	116.643	121.474	212.160	239.223	120.613	125.156	126.340	130.447	411.987	129.546	-8191	255	
2369.881	1	1	0	0	0.082799	0.046284	0.24129	0.14057	0.037898	0.1931	0.20475	0.072243	0.17846	0.070407	0.12057	0.25743	0.18056	0.074028	0.36118	0.18382	-2.6667	-2.8229	-3.0521	-3.1604	-2.9292	-3.0729	-3.0958	-2.8479	-3.1771	-2.7958	-3.2271	-3.3146	-2.9271	-3.2083	-2.9354	-3.0312	379.024	273.992	455.532	420.804	301.848	285.762	392.667	116.356	332.960	212.175	443.765	146.113	272.389	218.788	133.737	453.813	0.00061789	0.0003861	0.00011683	1605.8	5.3022e-06	4.2878e-06	1550.8	421.86	3.6651e-06	3.88e-06	494.28	160.17	141.44	48.08	6.8015e-06	57.81	0.00016978	0.00016178	4.5422e-05	1524	1.7912e-06	1.7956e-06	1479.3	397.2	1.7987e-06	1.7692e-06	431	149.04	123.72	44.427	1.7861e-06	53.171	199.743	190.689	237.481	116.879	220.129	240.888	116.516	121.319	253.149	318.415	120.779	125.143	125.963	130.473	231.632	129.604	-8191	255	
2369.977	1	1	0	0	0.14532	0.30446	0.060027	0.16812	0.18193	0.17414	0.2986	0.24401	0.26713	0.17439	0.16905	0.1378	0.12558	0.0094765	0.16143	0.17518	-2.6521	-2.85	-3.0563	-3.0958	-2.8854	-3.2062	-3.125	-3.0021	-3.1729	-2.8375	-3.175	-3.1083	-2.6917	-3.2042	-2.8812	-2.9562	250.921	221.660	147.501	350.505	420.767	435.413	409.701	376.096	258.822	190.084	131.733	177.915	347.923	131.035	176.244	414.639	0.00052849	8.7376e-05	8.1067e-05	1605.7	1.4493e-06	7.1377e-06	1546	421.96	4.1317e-06	4.3057e-06	493.2	160.44	141.42	48.164	3.878e-06	57.985	0.00016988	0.00016378	4.5533e-05	1524.2	1.7981e-06	1.7909e-06	1478.1	397.72	1.8015e-06	1.7841e-06	430.73	148.91	123.61	44.423	1.7983e-06	53.123	199.127	347.920	160.480	116.699	228.054	242.747	116.641	121.274	246.710	189.161	120.684	125.262	125.990	130.332	208.952	129.576	-8191	255	
2370.074	1	1	0	0	0.12214	0.21754	0.080521	0.25003	0.084681	0.095444	0.2679	0.15851	0.11021	0.24856	0.1084	0.23446	0.089154	0.10416	0.2244	0.09771	-2.7917	-2.8958	-2.95	-3.1542	-2.6875	-3.0875	-3.1042	-2.9167	-3.1562	-2.8458	-3.05	-3.1896	-2.8479	-3.2229	-3.0812	-2.9437	147.102	317.587	105.656	112.056	155.901	193.413	401.857	358.062	105.743	135.191	283.307	410.046	111.947	365.520	196.891	348.077	0.00053696	0.00041377	0.00013235	1606	3.1421e-06	4.2821e-06	1546.5	422.12	6.4376e-06	4.4906e-06	493.67	160.57	140.82	47.898	5.6491e-06	57.958	0.0001703	0.00016264	4.5544e-05	1524.3	1.7854e-06	1.7917e-06	1477.1	396.67	1.7926e-06	1.7749e-06	430.33	148.92	123.55	44.353	1.7833e-06	53.066	206.254	140.141	224.902	116.918	169.427	274.095	116.639	121.333	250.978	249.831	120.618	125.041	125.954	130.301	157.178	129.430	-8191	255	
2370.170	1	1	0	0	0.31983	0.27858	0.25865	0.388	0.18936	0.12014	0.29782	0.21144	0.12478	0.046774	0.11821	0.2806	0.13167	0.0019592	0.09873	0.18148	-2.7125	-2.8542	-2.9167	-3.3542	-2.9062	-3.0021	-3.2	-2.8708	-3.1292	-2.7104	-2.9458	-3.2687	-2.8979	-2.9354	-2.8937	-2.7583	209.659	286.149	226.892	447.498	300.693	120.878	413.954	458.558	185.353	449.269	275.576	437.012	380.339	180.000	258.683	429.721	0.00054318	0.00043027	9.4936e-05	1601.1	2.4772e-06	4.1211e-06	1544.5	420.35	1.324e-06	4.4135e-06	494.76	160.2	140.59	47.872	8.1537e-06	57.69	0.00016912	0.00016211	4.5353e-05	1523.5	1.7854e-06	1.7737e-06	1478	396.3	1.799e-06	1.7847e-06	430.43	148.8	123.27	44.338	1.7834e-06	53.005	206.300	163.478	162.464	116.749	238.954	253.174	116.693	121.412	228.768	247.402	120.509	125.085	126.139	130.287	244.938	129.613	-8191	255	
2370.290	1	1	0	0	0.033362	0.30939	0.18253	0.27165	0.089705	0.067618	0.15117	0.085957	0.19203	0.3138	0.33929	0.012261	0.2439	0.18076	0.18168	0.38947	-2.6312	-2.9062	-2.9646	-3.35	-2.7729	-3.0521	-3.1604	-2.9021	-3.025	-2.9292	-2.8958	-3.2375	-2.9229	-3.0167	-3.0083	-2.8479	205.508	163.751	118.387	421.146	175.144	146.173	413.649	356.308	389.721	247.253	462.965	443.819	389.862	155.548	424.324	398.459	0.00056437	0.00035137	4.6292e-05	1606.8	6.1638e-06	2.1184e-06	1547.2	419.78	2.6313e-06	3.0443e-06	495.21	159.86	140.71	47.976	7.354e-07	58.179	0.0001695	0.00016178	4.5363e-05	1523.6	1.7774e-06	1.7808e-06	1478.1	396.42	1.7876e-06	1.7747e-06	430.56	148.73	123.35	44.312	1.7801e-06	53.121	203.225	160.382	204.638	116.865	199.526	190.501	116.673	121.382	219.467	181.264	120.745	125.136	126.059	130.500	171.024	129.609	-8191	255	
2370.385	1	1	0	0	0.10251	0.14827	0.27641	0.31332	0.14577	0.12415	0.19739	0.30907	0.14202	0.066194	0.13678	0.040903	0.27706	0.43895	0.14353	0.23711	-2.4958	-2.7479	-2.7479	-3.2229	-2.6583	-2.7604	-3.1771	-2.9646	-2.9729	-2.9833	-2.7938	-3.0417	-2.7938	-2.9813	-3.0833	-2.8271	198.140	441.661	175.432	143.071	295.705	452.315	456.081	444.497	165.718	168.488	385.857	131.230	425.605	116.006	188.584	269.521	0.00055678	0.00060176	0.00013119	1606.4	1.6555e-06	3.7857e-06	1545.5	421.99	1.6487e-06	5.4877e-06	491.06	159.7	141.34	48.029	4.7791e-06	57.952	0.00017044	0.00016169	4.5106e-05	1524.2	1.8046e-06	1.7812e-06	1476	396.07	1.7896e-06	1.7743e-06	429.35	148.69	123.46	44.246	1.7754e-06	53.009	202.942	156.484	220.899	116.919	195.774	254.380	116.784	121.487	215.750	266.599	120.488	125.100	125.648	130.348	244.211	129.664	-8191	255	
2370.481	1	1	0	0	0.019278	0.13855	0.25242	0.17436	0.18091	0.11046	0.092869	0.071442	0.17222	0.13145	0.10327	0.17481	0.20925	0.10314	0.23943	0.15491	-2.6833	-3.0312	-2.7292	-3.2271	-2.6479	-2.9875	-3.1813	-2.9271	-3.0104	-2.975	-2.8	-3.1063	-2.9104	-2.9458	-3.1979	-2.8083	267.286	445.159	219.708	411.576	239.501	113.443	374.539	363.535	235.735	415.189	352.284	416.477	113.257	348.013	286.095	165.723	0.00061221	9.2535e-05	7.0142e-05	1601.6	3.4889e-06	3.1487e-06	1547.6	421.13	4.7763e-06	4.4312e-06	493.5	160.08	140.76	47.664	7.1198e-06	57.842	0.00016943	0.00016213	4.5446e-05	1521.8	1.7952e-06	1.7649e-06	1476.8	396.41	1.7966e-06	1.782e-06	429.46	148.78	123.24	44.225	1.7991e-06	52.937	204.663	140.762	175.698	117.036	197.717	198.973	116.679	121.438	285.328	266.308	120.649	125.109	125.755	130.507	248.558	129.365	-8191	255	
2370.577	1	1	0	0	0.1868	0.12779	0.24512	0.14679	0.069242	0.17395	0.30309	0.21093	0.13247	0.10378	0.090829	0.27381	0.1239	0.16236	0.28787	0.15076	-2.4729	-3.0021	-2.6521	-3.3271	-2.9417	-2.8896	-3.3708	-3.0312	-3	-3.0042	-2.8812	-3.1021	-2.8958	-3.1646	-3.0062	-2.8417	454.050	375.877	183.012	107.797	278.681	154.879	321.024	378.578	221.660	255.145	351.056	434.936	172.363	446.448	108.342	367.120	0.00051115	0.0003466	0.00015771	1602.2	2.486e-06	4.8846e-06	1545.4	421.37	4.1913e-06	1.9047e-06	492.13	159.74	140.69	47.684	1.0481e-06	57.718	0.00017018	0.00016282	4.5783e-05	1523.1	1.8088e-06	1.7766e-06	1477	396.75	1.8129e-06	1.8009e-06	430.16	148.71	123.49	44.262	1.8083e-06	53.022	211.791	110.703	193.013	116.891	191.263	203.067	116.730	121.511	243.841	245.480	120.875	125.287	125.996	130.289	255.405	129.382	-8191	255	
2370.673	1	1	0	0	0.12984	0.31732	0.23893	0.15256	0.23674	0.22188	0.15244	0.13857	0.20986	0.12255	0.041784	0.13464	0.072789	0.17148	0.14375	0.19228	-2.6188	-3.1896	-2.6854	-3.2021	-2.9292	-2.775	-3.3438	-3.0438	-2.9583	-3.0458	-3	-3.2229	-3.1646	-2.8667	-3.1937	-3.0771	275.298	365.075	144.695	412.403	348.538	230.316	393.211	409.111	324.810	322.540	350.505	174.134	390.956	121.532	391.342	454.536	0.00047871	0.00027583	3.39e-05	1607.2	4.3521e-06	1.4725e-06	1552.4	421.03	8.3723e-07	2.7159e-06	494.23	159.8	139.77	47.921	4.2662e-06	57.565	0.00017157	0.00016445	4.5843e-05	1526.3	1.8243e-06	1.8228e-06	1481.3	396.7	1.8233e-06	1.8314e-06	430.51	148.72	123.41	44.32	1.8315e-06	52.892	197.091	439.878	192.259	116.672	199.381	257.844	116.620	121.186	178.262	225.966	120.634	125.289	125.700	130.122	211.090	129.488	-8191	255	
2370.769	1	1	0	0	0.24124	0.29033	0.047107	0.43709	0.077756	0.082368	0.21219	0.16051	0.071881	0.22005	0.21539	0.099415	0.056629	0.2518	0.15971	0.082507	-2.4604	-3.2687	-2.8417	-3.2333	-3.2354	-2.7979	-3.15	-3.3729	-2.6271	-3.1729	-2.9479	-2.9458	-2.9542	-2.8521	-2.9583	-3.0708	342.215	198.588	206.395	450.102	370.035	206.022	432.849	436.203	417.834	245.386	366.270	279.260	393.028	124.010	434.744	327.752	0.00054501	0.00040358	5.6236e-05	1609.9	1.8863e-06	1.1114e-06	1547	422.87	2.6585e-06	2.2539e-06	492.88	160.39	140.61	47.98	4.5424e-06	57.695	0.00017372	0.00016825	4.6401e-05	1527.3	1.8626e-06	1.8349e-06	1481.2	397.36	1.8526e-06	1.859e-06	430.4	149.09	123.45	44.399	1.8733e-06	53.002	200.312	142.898	139.630	116.836	145.039	309.958	116.708	121.335	255.421	305.807	120.617	125.231	125.995	130.433	210.172	129.518	-8191	255	
2370.890	1	1	0	0	0.17688	0.11347	0.13209	0.35091	0.11344	0.17422	0.18874	0.49815	0.10229	0.22595	0.096615	0.13722	0.28456	0.06509	0.18341	0.084874	-2.3979	-3.1875	-2.6292	-3.0958	-2.975	-2.6813	-3.2	-3.0542	-2.8104	-3.0438	-2.8812	-2.9792	-3.0479	-2.7958	-3.0333	-3.0312	267.376	298.441	422.722	109.264	135.437	129.593	327.437	415.559	372.634	295.010	409.340	115.642	456.996	434.525	313.416	339.939	0.00057312	0.00063934	8.2685e-05	1608.7	5.0943e-06	3.2186e-06	1544.5	422.8	6.1025e-06	3.5448e-06	493.54	159.52	140.94	47.724	5.0539e-06	57.657	0.00017697	0.00017041	4.7257e-05	1529.7	1.8598e-06	1.8524e-06	1480.9	397.57	1.8696e-06	1.8601e-06	430.47	148.9	123.7	44.286	1.8516e-06	53.088	206.258	163.555	245.020	116.785	151.029	452.975	116.747	121.343	293.134	262.540	120.831	125.121	125.935	130.691	249.250	129.548	-8191	255	
2370.986	1	1	0	0	0.083601	0.092328	0.31016	0.16747	0.092303	0.13902	0.24793	0.21939	0.14793	0.10198	0.10614	0.17832	0.13049	0.19979	0.088999	0.11558	-2.2958	-3.0354	-2.9229	-3.1792	-3.0521	-2.8083	-3.2021	-3.0146	-2.8896	-3.2042	-2.9	-2.9146	-3.2812	-2.8729	-3.1688	-3.0396	212.302	390.529	291.911	390.020	160.242	333.745	354.766	438.256	370.203	230.403	423.032	132.177	147.717	327.193	364.061	448.984	0.00055725	0.00027269	8.6722e-05	1609.6	1.0367e-06	3.5976e-06	1554.3	423.14	5.2564e-06	3.6863e-06	494.79	159.86	140.91	48.055	7.2568e-06	57.724	0.00017618	0.00016961	4.7253e-05	1531	1.8656e-06	1.8431e-06	1486.2	398.26	1.8474e-06	1.8397e-06	431.51	149.13	123.77	44.457	1.8245e-06	53.112	207.212	233.116	178.616	116.901	220.571	188.867	116.626	121.407	260.988	185.290	120.701	125.159	125.755	130.269	261.769	129.643	-8191	255	
2371.082	1	1	0	0	0.22218	0.18971	0.13481	0.30137	0.13379	0.45052	0.16462	0.20174	0.15119	0.096717	0.22736	0.30962	0.10806	0.16323	0.13156	0.21927	-2.4104	-3.0167	-2.7479	-2.9167	-3.1813	-2.9313	-3.1979	-3.1667	-2.6937	-3.0646	-2.975	-2.8458	-3.1917	-2.7062	-3.0146	-2.9167	398.387	346.466	248.945	454.418	365.051	147.881	403.582	359.741	388.063	435.343	189.808	104.810	151.410	151.645	273.592	437.537	0.00059526	0.00039361	0.00011725	1619.1	6.029e-06	4.0397e-06	1556.2	424.43	3.461e-06	2.7278e-06	495.02	161.54	142.12	48.556	2.7878e-06	58.444	0.00017248	0.00016483	4.5812e-05	1534.3	1.8109e-06	1.7871e-06	1487.3	399.12	1.8012e-06	1.7964e-06	431.16	149.85	124.36	44.724	1.8013e-06	53.477	199.804	457.336	169.211	116.803	224.801	165.480	116.660	121.100	231.279	219.047	120.583	125.231	125.973	130.123	163.402	129.606	-8191	255	
2371.178	1	1	0	0	0.35678	0.08922	0.2085	0.36749	0.16419	0.26942	0.3395	0.32625	0.16609	0.12223	0.089149	0.20488	0.21605	0.083699	0.10113	0.060938	-2.5229	-2.7708	-2.8875	-2.8625	-3.1625	-2.7646	-3.0917	-3.2208	-2.8042	-2.9771	-3.0062	-2.8438	-3.0771	-2.8375	-2.7646	-2.8771	370.672	365.529	288.172	430.125	174.432	198.912	415.041	411.443	419.427	157.740	225.911	428.438	155.953	131.339	324.645	461.467	0.00060398	0.00048215	1.36e-05	1620.1	4.8246e-06	4.0897e-06	1562.2	426.65	4.6506e-06	2.8344e-06	495.6	161.36	141.59	48.223	6.8591e-06	58.022	0.00017188	0.00016212	4.5405e-05	1538	1.7971e-06	1.7867e-06	1489.9	400.17	1.8093e-06	1.7776e-06	431.99	150.06	124.2	44.71	1.7845e-06	53.348	199.941	173.598	254.353	116.675	217.910	247.365	116.658	121.009	192.124	250.449	120.546	125.143	126.146	130.206	223.767	129.427	-8191	255	
2371.250	1	1	0	0	0.25337	0.13408	0.35476	0.28628	0.083605	0.072889	0.41591	0.21843	0.23658	0.40184	0.27185	0.15615	0.14459	0.10321	0.17276	0.28857	-2.2313	-2.8854	-2.8542	-3.0729	-2.9854	-2.9313	-3.0187	-3.1083	-2.7687	-3.0354	-2.9292	-2.8375	-3.3063	-2.8229	-2.7938	-3.0729	350.694	269.273	152.823	330.121	317.285	407.966	388.153	365.012	325.223	449.827	134.406	352.119	125.520	362.394	394.431	192.947	0.0005821	0.00022478	9.1634e-05	1627.6	6.33e-06	3.3674e-06	1558.7	423.3	3.0521e-06	4.2165e-06	493.32	161.57	142.18	48.382	4.3985e-06	58.199	0.00017293	0.00016379	4.5808e-05	1542.8	1.8186e-06	1.8252e-06	1492.9	399.54	1.8256e-06	1.8146e-06	432.09	150.11	124.57	44.671	1.8562e-06	53.434	203.874	138.618	160.430	116.706	220.696	319.550	116.669	121.106	287.901	258.080	120.471	125.104	125.787	130.215	268.074	129.731	-8191	255	
2371.369	1	1	0	0	0.21996	0.077726	0.25021	0.18077	0.051744	0.1174	0.33672	0.21044	0.13841	0.17388	0.11569	0.41268	0.27557	0.10954	0.10733	0.22229	-2.4083	-2.8604	-2.9125	-2.8625	-2.8937	-2.8729	-2.9729	-3.2812	-2.8229	-2.9104	-3.1458	-2.6104	-3.1417	-3.0854	-2.7313	-3.1937	223.917	145.619	169.130	392.339	411.792	351.712	425.500	419.050	132.154	124.287	295.065	379.573	457.999	271.361	231.903	351.655	0.00051401	0.00031491	0.00014104	1623	4.7998e-06	4.2345e-06	1565.1	424.67	4.4048e-06	1.4315e-06	495.95	162.27	142.61	48.238	3.3349e-06	58.332	0.00017447	0.0001699	4.6671e-05	1543.3	1.8648e-06	1.848e-06	1495.7	400.56	1.8633e-06	1.8288e-06	432.78	150.39	124.89	44.796	1.8244e-06	53.604	202.895	118.046	188.993	116.907	211.165	327.245	116.608	121.261	240.497	229.303	120.722	125.072	126.042	130.191	272.507	129.492	-8191	255	
2371.465	1	1	0	0	0.16494	0.1459	0.19033	0.42956	0.16555	0.17968	0.31116	0.24508	0.14457	0.085316	0.096657	0.085198	0.1148	0.21708	0.31674	0.078984	-2.5854	-2.6833	-2.9917	-2.9479	-3.1021	-2.8292	-3.0104	-3.2896	-2.8979	-2.8083	-3.1937	-2.9	-3.0292	-3.1458	-2.7458	-3.0396	166.754	277.998	457.390	440.470	327.550	441.284	398.335	429.190	409.281	363.491	361.633	409.527	317.822	426.375	125.576	277.193	0.00057191	0.0001336	0.0001056	1641.5	6.6135e-06	2.3337e-06	1573.5	426.61	2.1257e-06	4.3075e-06	499.67	163.52	143.55	48.944	1.9421e-06	58.926	0.00017386	0.00016876	4.6279e-05	1552.2	1.8347e-06	1.8151e-06	1503	402.86	1.8372e-06	1.8134e-06	436.02	151.73	125.72	45.223	1.8126e-06	54.083	204.037	125.582	134.277	116.863	190.378	377.533	116.726	121.345	210.519	235.120	120.535	125.379	125.840	130.200	212.300	129.489	-8191	255	
2371.561	1	1	0	0	0.17958	0.28304	0.28769	0.33457	0.21635	0.22171	0.20439	0.3304	0.075808	0.15144	0.10309	0.13273	0.2481	0.24121	0.065361	0.15724	-2.4562	-2.7396	-3.0854	-2.8292	-3.0604	-3.0917	-2.85	-3.2062	-2.8708	-2.7854	-3.3875	-2.7729	-2.9354	-2.9646	-2.5833	-3.1042	340.804	329.338	392.528	431.597	145.493	394.419	126.573	436.458	373.341	295.970	107.651	370.372	108.260	118.737	186.428	357.572	0.00058109	0.00047866	3.2629e-05	1646.5	2.5695e-06	7.965e-06	1588.1	432.53	5.8507e-06	3.6514e-06	504.57	164.54	145.08	49.263	1.9052e-06	59.441	0.00017325	0.00016532	4.6013e-05	1561	1.8026e-06	1.795e-06	1514.3	406.26	1.814e-06	1.817e-06	438.96	152.93	126.89	45.577	1.8294e-06	54.467	197.131	130.913	234.851	116.887	265.190	238.094	116.678	121.218	260.535	256.376	120.551	125.426	125.980	130.210	285.610	129.211	-8191	255	
2371.657	1	1	0	0	0.16304	0.093001	0.18248	0.32686	0.13523	0.037438	0.23408	0.092862	0.10005	0.13116	0.17506	0.13216	0.26096	0.12468	0.16124	0.10147	-2.5854	-2.8667	-3.1229	-2.8563	-2.9667	-3.0187	-3.0833	-3.0729	-2.9833	-2.5062	-3.2146	-2.9833	-2.9354	-3.225	-2.6875	-3.0083	198.176	207.105	234.234	113.961	139.194	197.984	374.128	275.267	355.290	206.868	426.421	434.133	439.232	115.716	153.372	392.933	0.00062121	0.00033327	0.00014539	1654.5	3.4142e-06	2.1488e-06	1595.9	431.88	2.3474e-06	3.9346e-06	504.2	165.79	146.35	49.711	3.9604e-06	59.902	0.00017445	0.0001655	4.5908e-05	1569.2	1.8107e-06	1.7966e-06	1523.6	407.07	1.8134e-06	1.7829e-06	438.99	153.83	127.54	45.872	1.7913e-06	54.78	202.900	144.190	258.113	116.843	208.035	254.126	116.742	121.422	253.218	270.190	120.585	125.134	126.167	130.076	239.455	129.405	-8191	255	
2371.778	1	1	0	0	0.082421	0.19049	0.086389	0.071159	0.14996	0.27063	0.38611	0.21553	0.24157	0.030148	0.1379	0.23696	0.23845	0.19544	0.18885	0.086072	-2.5021	-2.7938	-2.9813	-3.3229	-2.8271	-3.1875	-2.9729	-3.1604	-2.9729	-2.7812	-3.1396	-3.0625	-2.9479	-3.1042	-2.7958	-2.8458	355.811	403.918	108.268	111.959	315.449	373.765	367.671	418.188	318.487	299.446	113.799	407.110	147.869	421.379	439.273	421.104	0.00057034	0.00051177	0.00014009	1660.5	3.0145e-06	1.4724e-06	1601.9	434.51	7.3978e-06	2.8802e-06	504.95	165.92	145.43	49.5	6.1573e-06	59.539	0.00017177	0.00016477	4.6023e-05	1576.5	1.8496e-06	1.8309e-06	1530.7	408.4	1.8734e-06	1.8773e-06	441.35	154.09	127.73	45.794	1.8897e-06	54.654	196.283	117.031	191.654	116.750	182.721	256.796	116.627	121.241	231.219	243.628	120.593	125.057	125.847	130.038	212.372	129.327	-8191	255	
2371.850	1	1	0	0	0.15041	0.06578	0.13139	0.18574	0.15247	0.05985	0.20586	0.07316	0.21882	0.25139	0.056154	0.035169	0.08102	0.15567	0.4072	0.22922	-2.4979	-2.7167	-2.975	-3.1208	-2.9562	-2.9917	-2.8771	-3.2188	-2.85	-2.5917	-3.0521	-3.0062	-2.8937	-3.2521	-2.9375	-2.9542	157.674	312.248	252.885	454.229	264.503	170.670	411.331	335.919	378.044	165.631	312.344	167.020	205.215	361.235	282.015	426.028	0.00052716	0.00040744	3.5974e-05	1666.7	5.4312e-06	3.8253e-06	1604.9	432.43	3.8815e-06	2.6773e-06	504.76	166.35	146.18	49.703	2.3084e-06	59.647	0.00017822	0.00017347	4.8261e-05	1582.3	1.9237e-06	1.894e-06	1534	408.43	1.9125e-06	1.895e-06	441.74	154.35	127.95	45.923	1.9011e-06	54.841	208.840	197.567	155.227	116.777	200.415	261.347	116.549	121.278	259.542	218.558	120.646	124.950	125.793	130.079	162.632	129.571	-8191	255	
2371.970	1	1	0	0	0.054347	0.20889	0.09396	0.64825	0.14289	0.19355	0.1267	0.14989	0.030185	0.19227	0.088256	0.23931	0.15529	0.20431	0.13335	0.10098	-2.7167	-2.8104	-2.8479	-3.1396	-2.825	-3.1479	-3.1354	-3.0875	-3.2021	-2.9042	-3.2083	-2.9917	-2.8417	-3.175	-2.9417	-2.9521	414.407	275.374	364.241	449.365	110.460	378.714	385.004	439.932	444.400	255.431	277.912	435.161	398.695	190.857	250.859	384.257	0.00061796	0.00024543	0.00015861	1676.1	2.7874e-06	8.5513e-07	1613.8	434.72	2.6662e-06	4.1735e-06	508.47	167.31	147.64	49.99	5.8178e-06	60.23	0.00018063	0.00017393	4.814e-05	1587.6	1.8996e-06	1.9092e-06	1540.8	410.02	1.9252e-06	1.9066e-06	443.92	155.26	128.73	46.2	1.917e-06	55.106	200.306	139.936	164.775	116.645	216.150	214.082	116.778	121.166	258.299	168.218	120.475	124.963	125.666	130.285	213.512	129.059	-8191	255	
2372.066	1	1	0	0	0.17153	0.27469	0.22443	0.028999	0.17553	0.1024	0.18556	0.30012	0.08819	0.17952	0.16293	0.067207	0.19878	0.15566	0.27931	0.20592	-2.7	-2.7687	-2.9396	-3.2313	-2.8146	-3.0021	-3.2229	-2.8896	-3.2875	-3.0375	-3.025	-3.1229	-2.8375	-3.1917	-2.7271	-3.0354	354.008	432.749	415.592	315.947	289.391	376.053	322.165	417.819	358.376	403.560	194.953	388.046	307.251	420.870	263.023	160.463	0.00054909	1.8712e-05	1.4384e-05	1678.5	1.4361e-06	5.1895e-06	1616.8	436.08	1.9692e-06	1.8235e-06	508.07	166.92	147.17	49.863	3.063e-06	60.116	0.00018253	0.00017502	4.9201e-05	1592.9	1.9301e-06	1.9328e-06	1545.4	410.78	1.946e-06	1.9276e-06	444.3	155.62	128.74	46.194	1.9046e-06	55.195	197.396	168.690	176.025	116.794	241.574	159.727	116.587	121.180	255.377	145.673	120.408	125.172	126.029	130.226	251.382	129.543	-8191	255	
2372.163	1	1	0	0	0.16035	0.24469	0.11894	0.20608	0.13836	0.40101	0.11915	0.28284	0.20303	0.062747	0.26696	0.12268	0.096759	0.38221	0.072721	0.071188	-2.775	-2.7438	-2.8812	-3.3583	-2.7104	-3.125	-3.2854	-2.8833	-3.0938	-2.8563	-2.9688	-3.1771	-2.8083	-3.3542	-3.0938	-2.7917	294.121	388.604	455.840	435.366	305.749	451.596	463.151	355.609	263.711	221.599	232.556	407.839	374.938	442.461	326.108	403.508	0.00058689	0.00033332	9.5157e-05	1681.9	4.7749e-06	5.0243e-06	1620.6	436.47	5.202e-06	2.9724e-06	510.25	167.51	146.7	50.12	1.954e-06	60.005	0.00018169	0.00017529	4.8912e-05	1594.6	1.929e-06	1.8975e-06	1546.4	411.15	1.9021e-06	1.89e-06	444.86	155.63	128.73	46.298	1.8957e-06	55.158	200.476	139.365	176.514	116.712	230.372	316.827	116.745	121.327	259.887	256.177	120.724	125.021	125.681	130.140	220.651	129.386	-8191	255	
2372.259	1	1	0	0	0.21517	0.30689	0.23488	0.22478	0.36526	0.16468	0.21815	0.20375	0.25367	0.20401	0.17266	0.16086	0.25339	0.23787	0.40036	0.2344	-2.5938	-2.9646	-2.8854	-3.3	-2.6542	-3.0146	-3.3479	-3.0667	-2.9854	-2.8812	-2.9813	-3.3646	-2.8583	-3.2771	-3.0104	-2.825	217.939	396.143	371.698	382.232	209.480	281.006	378.320	432.309	267.350	189.490	311.888	406.915	144.237	443.605	284.307	304.393	0.00053621	0.00021561	7.3301e-05	1680.5	5.1903e-06	2.1622e-06	1618.5	435.89	2.4806e-06	7.4827e-06	510.92	167.87	146.78	50.235	1.823e-06	60.418	0.00017916	0.00017074	4.7702e-05	1595.8	1.8909e-06	1.8672e-06	1548.3	410.95	1.8892e-06	1.8758e-06	444.64	155.59	129.02	46.343	1.8526e-06	55.22	208.160	159.754	212.055	116.540	217.607	213.064	116.534	121.074	246.659	236.855	120.536	125.033	125.560	130.121	239.707	129.214	-8191	255	
2372.378	1	1	0	0	0.038429	0.1846	0.18763	0.26482	0.19435	0.33121	0.12889	0.12838	0.2355	0.1647	0.1957	0.1377	0.050512	0.11245	0.11672	0.12526	-2.8625	-2.7938	-2.8063	-3.3	-2.9188	-3.0708	-3.3563	-2.8375	-3.1188	-3.0604	-2.8438	-3.3396	-2.8875	-3.0542	-3.225	-2.9396	165.365	314.720	133.155	433.551	409.838	255.817	415.619	416.112	441.404	391.267	112.365	458.592	143.236	381.199	202.381	126.224	0.00054566	0.00033725	0.00011943	1683.1	4.7007e-06	2.4675e-06	1622.5	436.71	2.791e-06	6.605e-06	508.27	167.96	148.05	50.361	4.4235e-06	60.389	0.00017558	0.00016801	4.676e-05	1595.6	1.8699e-06	1.844e-06	1547.3	411.61	1.8518e-06	1.8396e-06	444.07	155.87	129.19	46.392	1.8299e-06	55.274	200.253	167.782	194.107	116.716	188.676	309.357	116.593	121.283	188.635	192.976	120.586	125.106	125.901	129.993	233.230	129.617	-8191	255	
2372.474	1	1	0	0	0.12998	0.064772	0.22373	0.51917	0.34994	0.046792	0.15234	0.035215	0.22024	0.16379	0.22676	0.23474	0.17587	0.069593	0.14423	0.10184	-2.6542	-2.9604	-2.7375	-3.1583	-2.8604	-2.8771	-3.2521	-2.8271	-3.0271	-2.9479	-2.7333	-3.3146	-2.9125	-3.0271	-3	-3.0125	275.980	105.921	230.434	400.625	416.406	189.266	414.992	416.759	235.935	146.103	452.830	419.920	433.991	437.853	425.371	248.980	0.00065107	0.00042421	0.00018812	1683.2	2.0766e-06	1.8201e-06	1621.9	436.97	3.3389e-07	4.8931e-07	510.73	168.29	147.39	50.38	3.0642e-06	60.483	0.00017396	0.00016596	4.6164e-05	1595.7	1.8293e-06	1.8314e-06	1548.9	411.53	1.8268e-06	1.807e-06	444.21	155.88	129.03	46.46	1.8127e-06	55.417	205.032	150.595	188.491	116.725	247.665	305.657	116.362	121.313	193.813	355.801	120.572	124.999	125.753	130.067	231.422	129.326	-8191	255	
2372.547	1	1	0	0	0.12237	0.13759	0.26528	0.43863	0.15064	0.022862	0.29431	0.19934	0.23293	0.24744	0.093857	0.16045	0.32752	0.27834	0.20948	0.32826	-2.4917	-2.9646	-2.8292	-3.3021	-2.8583	-2.8542	-3.4437	-2.9667	-2.9146	-3.1167	-2.8396	-3.3312	-2.8083	-2.9208	-3.0833	-2.9458	434.183	438.741	436.937	400.344	296.629	378.994	393.735	109.161	247.970	302.638	439.564	374.441	407.468	431.421	171.973	404.983	0.00056859	0.00024736	7.5343e-05	1682.6	1.34e-06	5.3645e-06	1624	437.45	6.8475e-06	2.0764e-06	509.46	167.97	148.05	50.313	3.6981e-06	60.345	0.00017394	0.0001661	4.6731e-05	1596.7	1.8327e-06	1.8285e-06	1549.3	411.19	1.8379e-06	1.8354e-06	444.68	155.96	129.28	46.374	1.8333e-06	55.274	202.117	153.957	176.518	116.733	211.957	211.509	116.593	121.209	225.169	266.825	120.446	125.082	125.901	130.079	220.057	129.466	-8191	255	
2372.666	1	1	0	0	0.15783	0.23564	0.046599	0.18068	0.19489	0.32087	0.23987	0.18129	0.36959	0.19106	0.25262	0.20942	0.27509	0.04258	0.065859	0.097718	-2.6083	-3.0354	-2.7542	-3.3021	-2.9896	-2.6396	-3.1792	-2.9729	-2.8896	-3.2646	-2.6208	-3.2292	-3.1188	-2.9437	-2.9313	-2.925	164.793	189.057	332.806	441.700	175.869	262.644	407.189	345.922	385.584	456.258	331.134	347.667	445.684	179.710	366.641	307.829	0.00060339	0.00048627	6.1612e-05	1692	6.1908e-06	3.9616e-06	1620.6	436.44	2.3001e-06	5.2271e-06	511.61	168.47	147.63	50.284	4.8103e-06	60.487	0.000173	0.00016762	4.6447e-05	1598.8	1.8255e-06	1.8122e-06	1547.3	411.43	1.8344e-06	1.8194e-06	444.46	156.11	128.88	46.398	1.8249e-06	55.303	204.313	121.129	178.931	116.636	248.566	202.248	116.561	121.152	241.841	268.866	120.563	125.058	125.697	130.014	248.024	129.560	-8191	255	
2372.762	1	1	0	0	0.092605	0.21369	0.14825	0.32223	0.092576	0.25186	0.11158	0.34011	0.059817	0.16973	0.22952	0.3317	0.27936	0.19878	0.16976	0.32526	-2.5375	-3.1771	-2.7208	-3.2521	-2.9562	-2.8458	-3.3354	-2.9583	-2.9	-3.0625	-2.7792	-3.0146	-3.0187	-2.8083	-2.9979	-2.9562	280.420	417.611	430.027	436.643	125.015	362.106	344.069	426.850	353.738	163.826	382.093	435.953	109.162	195.727	304.477	436.665	0.00063041	5.2601e-05	3.5743e-05	1684.5	4.3977e-06	4.7246e-06	1621.7	437.87	3.2e-06	3.7658e-06	508.97	168.46	147.32	50.149	3.216e-06	60.253	0.00017317	0.00016582	4.637e-05	1598.6	1.8388e-06	1.8117e-06	1549.1	411.99	1.8344e-06	1.8179e-06	443.59	155.88	128.86	46.316	1.81e-06	55.255	202.174	251.285	214.998	116.691	194.140	221.127	116.611	121.108	215.698	261.065	120.314	125.057	125.750	130.123	206.937	129.349	-8191	255	
2372.858	1	1	0	0	0.36723	0.20187	0.048978	0.16707	0.25821	0.065827	0.21604	0.14728	0.16192	0.13177	0.046651	0.21661	0.19184	0.19764	0.17904	0.19227	-2.2812	-3.1458	-2.9354	-3.3312	-3.125	-2.8	-3.4646	-3.0938	-2.8042	-3.0167	-2.8417	-3.1	-3.0438	-2.8854	-3.0458	-2.8542	378.531	385.073	290.885	108.050	286.634	350.047	388.173	157.600	341.230	214.051	429.777	460.822	150.522	117.053	126.122	250.229	0.00055203	0.0003786	0.00013337	1688.9	2.9776e-06	4.624e-06	1618.9	437.77	2.8411e-06	1.674e-06	509.95	167.92	147.22	50.452	3.5192e-06	60.126	0.0001727	0.00016354	4.5391e-05	1598.4	1.7881e-06	1.7719e-06	1546.4	411.09	1.7905e-06	1.7967e-06	443.65	155.89	128.71	46.363	1.7946e-06	55.193	196.009	121.680	195.175	116.579	162.063	328.279	116.650	121.355	215.416	217.459	120.788	125.215	125.827	130.198	235.591	129.191	-8191	255	
2372.979	1	1	0	0	0.1752	0.15478	0.35248	0.23738	0.12878	0.099835	0.21182	0.030982	0.22355	0.050905	0.13711	0.060955	0.1607	0.053438	0.24379	0.12561	-2.1979	-3.1188	-2.8833	-3.0312	-3.0438	-2.8958	-3.2667	-3.0979	-2.7396	-3.2854	-2.7854	-2.9979	-3.0667	-2.8125	-2.7854	-2.8896	301.765	190.086	231.258	454.142	373.324	248.695	373.085	401.526	253.399	304.318	440.494	331.449	424.524	202.994	251.492	432.805	0.00053164	0.00054593	6.1231e-05	1683.7	6.8853e-07	6.088e-07	1620	436.78	2.2495e-06	5.3312e-06	507.6	168	147.39	50.123	2.1071e-06	59.889	0.000172	0.00016426	4.6464e-05	1597.9	1.836e-06	1.8156e-06	1546.2	410.97	1.841e-06	1.8347e-06	443.6	155.66	128.95	46.234	1.846e-06	55.041	206.089	125.606	197.019	116.595	371.624	311.046	116.773	121.144	190.511	271.171	120.400	125.260	125.639	129.979	328.621	129.338	-8191	255	
2373.073	1	1	0	0	0.18292	0.021029	0.14238	0.17856	0.077694	0.15468	0.25604	0.21653	0.18529	0.069593	0.083579	0.079292	0.24015	0.29448	0.016048	0.18376	-2.3521	-3.1271	-2.725	-2.9979	-3.0333	-2.7521	-3.0854	-3.225	-2.8542	-3.0021	-2.8833	-2.9542	-3.15	-2.6792	-2.9021	-3.0187	173.644	130.065	147.810	443.242	243.473	221.162	375.581	333.089	120.134	437.134	276.532	366.015	322.647	392.843	105.025	280.819	0.00060035	0.00023508	5.1417e-05	1688.9	2.9283e-06	3.9046e-06	1621.8	436.26	2.5923e-06	6.6017e-06	509.99	167.68	146.99	50.106	6.5871e-06	60.088	0.00017524	0.00016863	4.6839e-05	1598.8	1.8514e-06	1.851e-06	1546.2	410.16	1.8468e-06	1.834e-06	443.14	155.58	128.76	46.277	1.8281e-06	55.15	205.334	155.495	188.545	116.781	223.344	300.315	116.612	121.166	201.689	247.411	120.421	124.974	125.836	130.213	238.510	129.340	-8191	255	
2373.147	1	1	0	0	0.044896	0.2487	0.30002	0.2574	0.36166	0.19855	0.15602	0.23979	0.12156	0.14418	0.42604	0.10871	0.18138	0.30829	0.25479	0.20655	-2.3875	-2.9354	-2.7708	-3.0396	-3.0417	-2.9188	-3.2458	-3.2146	-2.7833	-2.9333	-2.9833	-2.9604	-3.0708	-2.9	-2.8979	-3.2812	342.191	188.200	109.190	448.564	165.127	246.506	377.896	125.741	246.398	264.812	390.503	438.661	195.892	393.603	356.516	337.963	0.00063377	0.0002933	0.00011295	1685.8	3.5146e-06	3.9066e-06	1617.1	435.99	2.1596e-06	1.9089e-06	509.4	167.65	146.91	50.009	5.3473e-06	60.183	0.00017265	0.00016734	4.6586e-05	1597.8	1.8546e-06	1.8269e-06	1545.9	410.75	1.858e-06	1.8327e-06	443.31	155.38	128.76	46.17	1.8476e-06	55.062	202.156	141.362	173.821	116.714	224.571	240.872	116.633	121.237	302.685	163.111	120.800	124.962	125.962	130.363	313.845	129.176	-8191	255	
2373.243	1	1	0	0	0.13567	0.097873	0.23581	0.2817	0.19823	0.14452	0.17107	0.094457	0.22608	0.078505	0.096645	0.088846	0.24602	0.30638	0.15125	0.079294	-2.4625	-2.9167	-2.875	-3.1063	-3.2042	-2.8292	-3.1312	-3.2292	-2.8292	-3.0521	-2.9542	-3.0375	-3.1208	-3.0062	-2.8917	-3.3375	433.600	339.811	400.366	441.535	430.662	309.677	412.511	130.141	200.446	372.442	334.985	177.260	412.790	424.793	282.836	422.940	0.00052188	0.00031212	0.00014938	1690.1	7.2302e-06	4.3545e-06	1624	436.85	3.6574e-06	8.0894e-06	507.94	167.35	146.32	49.974	5.6983e-06	60.133	0.00017569	0.00016805	4.6884e-05	1598.1	1.8766e-06	1.8538e-06	1549.5	410.25	1.8751e-06	1.8642e-06	443.28	155.18	128.45	46.146	1.8692e-06	55.18	204.251	147.290	202.240	116.580	220.236	244.976	116.677	121.130	237.394	210.550	120.303	125.020	125.710	130.147	222.962	129.307	-8191	255	
2373.339	1	1	0	0	0.1798	0.094104	0.089034	0.073957	0.31737	0.18979	0.29284	0.14462	0.091107	0.31221	0.20898	0.21795	0.056808	0.15586	0.20212	0.047469	-2.3187	-2.8792	-2.9354	-3.0625	-2.9771	-2.8333	-2.9833	-3.1625	-3.0125	-2.825	-2.9729	-2.8125	-3.0229	-2.9271	-2.9146	-3.1958	345.495	238.651	148.268	441.867	345.028	200.385	461.964	414.473	328.698	381.688	408.184	114.860	175.219	362.894	181.272	416.004	0.00063103	0.0001203	0.00010131	1684.5	4.6409e-06	7.2842e-06	1616.9	435.56	4.0343e-06	1.6605e-06	506.92	167.11	146.12	49.907	2.6868e-06	59.981	0.00017554	0.00017014	4.6991e-05	1596.4	1.8898e-06	1.8706e-06	1547.7	410.06	1.8704e-06	1.8602e-06	442.79	155.17	128.41	46.116	1.8759e-06	55.119	198.277	144.329	200.200	116.786	248.979	260.406	116.449	121.262	238.231	325.025	120.635	125.247	125.637	130.168	245.243	129.465	-8191	255	
2373.458	1	1	0	0	0.26073	0.20101	0.052948	0.32293	0.14826	0.17041	0.39524	0.18315	0.060376	0.17856	0.18865	0.14122	0.16113	0.18576	0.41114	0.042455	-2.6021	-2.7792	-2.9146	-2.9688	-3.0354	-2.975	-2.9729	-3.2562	-2.7979	-2.95	-3.2938	-2.7083	-3.0792	-3.075	-2.7542	-3.0333	412.160	330.943	232.559	389.832	325.828	294.101	435.643	309.184	320.449	178.011	400.094	405.717	454.225	168.328	458.218	436.454	0.00056485	0.00047682	0.00011663	1685.3	3.8629e-06	3.557e-06	1621.1	437.15	5.3924e-06	2.1751e-06	509.16	167.19	146.73	49.878	5.1776e-06	59.986	0.00017974	0.00017202	4.7688e-05	1599.3	1.881e-06	1.8629e-06	1547.3	410.13	1.8721e-06	1.8841e-06	442.96	155.24	128.59	46.058	1.8776e-06	55.008	200.415	129.537	212.238	116.631	272.535	234.273	116.707	121.168	267.197	403.621	120.194	124.985	125.670	130.045	231.719	129.281	-8191	255	
2373.554	1	1	0	0	0.19257	0.22289	0.10309	0.15208	0.21747	0.081645	0.22296	0.25418	0.11068	0.13519	0.37249	0.31013	0.17481	0.19151	0.21263	0.15066	-2.4083	-2.7771	-3.0438	-2.9229	-3.0312	-3.0979	-2.9062	-3.1542	-2.8917	-2.8688	-3.0812	-2.8792	-2.9146	-3.0208	-2.7708	-3.3187	138.175	198.684	230.684	369.940	306.072	395.618	411.806	108.845	250.294	169.405	351.724	373.186	337.366	410.581	310.197	426.926	0.00061888	0.00027014	6.6597e-05	1689.8	3.6988e-06	5.0623e-06	1619.1	435.15	5.782e-06	2.3091e-06	507.11	166.95	147.08	49.9	6.2979e-07	59.881	0.00017886	0.00017159	4.8139e-05	1600.9	1.9059e-06	1.8722e-06	1547.1	410.12	1.8966e-06	1.8821e-06	443.21	155.38	128.82	46.143	1.8926e-06	55.044	206.722	459.594	243.363	116.850	203.334	298.843	116.562	121.262	238.253	377.935	120.498	125.156	125.797	130.289	215.340	129.421	-8191	255	
2373.650	1	1	0	0	0.17689	0.3137	0.29608	0.47596	0.11218	0.31829	0.38082	0.13092	0.15862	0.084557	0.26082	0.1523	0.23204	0.14575	0.16981	0.1166	-2.5083	-2.8583	-2.9854	-3.025	-2.9917	-3.0667	-2.9854	-3.0104	-2.8042	-2.7438	-3.175	-2.7875	-2.9729	-3.1479	-2.6562	-3.2208	253.963	171.126	130.883	104.459	340.794	316.678	423.436	350.121	408.080	308.944	386.912	342.317	119.542	462.100	129.954	213.392	0.00052163	0.00017991	1.3999e-05	1681.2	1.5475e-06	4.8699e-06	1620.9	434.74	5.6736e-06	7.991e-06	506.96	166.24	147.21	49.721	3.7861e-06	59.925	0.00017921	0.000174	4.8742e-05	1597.4	1.9069e-06	1.8841e-06	1547.6	409.68	1.9149e-06	1.8912e-06	442.85	154.93	128.47	46.03	1.9086e-06	54.983	208.737	435.686	240.859	116.736	195.436	199.136	116.533	121.026	285.931	201.817	120.608	125.198	125.519	130.160	274.488	129.433	-8191	255	
2373.747	1	1	0	0	0.083885	0.17018	0.067106	0.21412	0.1308	0.15326	0.22815	0.18454	0.15833	0.14781	0.070085	0.18617	0.37071	0.074845	0.050488	0.056406	-2.5521	-2.7667	-2.9479	-2.9729	-3.0458	-2.9688	-2.9417	-2.9167	-2.8583	-2.5854	-3.2146	-2.9042	-2.7042	-3.2562	-2.6021	-2.8625	299.643	182.170	361.324	446.466	358.020	233.149	393.352	400.952	196.475	320.022	427.216	121.441	107.623	180.727	328.984	450.735	0.00053921	0.00047419	4.3722e-05	1683.6	6.1788e-06	3.3492e-06	1617.5	435.06	3.3027e-06	2.1561e-06	509.3	166.54	146.19	49.423	2.2089e-06	59.976	0.00018086	0.00017392	4.8542e-05	1598.1	1.9109e-06	1.8862e-06	1548	410.37	1.9172e-06	1.8998e-06	443.2	154.83	128.39	45.913	1.9166e-06	55.025	196.625	127.847	178.795	116.789	248.816	187.529	116.384	121.238	225.411	242.365	120.575	125.016	125.935	130.208	202.965	129.116	-8191	255	
2373.843	1	1	0	0	0.051673	0.31798	0.068568	0.063882	0.14083	0.021431	0.097353	0.088158	0.10493	0.24588	0.092001	0.16425	0.12736	0.21162	0.14946	0.044791	-2.6042	-2.7062	-2.9646	-3.0458	-2.7188	-3.2646	-3.0042	-2.9979	-2.9354	-2.4208	-3.1375	-2.9875	-2.8792	-3.1	-2.7396	-3.1875	247.883	208.786	146.272	399.966	315.771	117.916	437.774	156.533	289.506	253.197	407.645	409.139	136.926	291.525	191.187	414.637	0.00058021	6.3761e-05	8.2551e-05	1685.8	3.9261e-06	3.8237e-06	1621.4	435.24	3.366e-06	1.672e-06	508.96	166.45	145.74	49.831	3.1258e-06	59.657	0.0001828	0.00017388	4.846e-05	1598.4	1.9128e-06	1.9209e-06	1547.8	409.93	1.9374e-06	1.9118e-06	443.26	154.98	128.26	46.065	1.934e-06	54.935	206.395	261.514	202.875	116.585	223.640	207.267	116.528	121.112	250.890	326.612	120.697	124.972	125.582	130.372	216.733	129.401	-8191	255	
2373.939	1	1	0	0	0.26318	0.31626	0.16	0.14652	0.091244	0.043469	0.39023	0.15585	0.34439	0.13217	0.26295	0.25101	0.1788	0.12642	0.17985	0.27986	-2.4667	-2.7583	-2.95	-3.0417	-2.6396	-3.1104	-3.0375	-2.9708	-2.9813	-2.7438	-3.0146	-2.8917	-2.7854	-3.1542	-2.7917	-2.8958	438.574	268.044	243.232	437.113	235.298	141.296	414.974	454.246	108.253	155.635	407.581	403.331	452.746	147.926	147.021	366.068	0.00062556	0.00035033	4.8798e-05	1681.7	5.4206e-06	5.0871e-06	1618.5	434.1	5.1206e-06	4.1154e-06	506.23	166.31	146.36	49.631	4.9657e-06	59.733	0.00018219	0.00017522	4.9006e-05	1596.3	1.9354e-06	1.9174e-06	1548.8	409.58	1.9424e-06	1.9219e-06	442.21	154.9	128.26	45.955	1.9432e-06	54.984	206.995	157.185	191.027	116.723	208.624	215.636	116.582	121.247	247.108	262.791	120.552	125.122	125.710	130.244	266.128	129.697	-8191	255	
2374.059	1	1	0	0	0.05564	0.029058	0.1065	0.30895	0.40137	0.19017	0.19034	0.29786	0.053813	0.18692	0.092743	0.022265	0.31737	0.38137	0.16485	0.32636	-2.6708	-2.6896	-3.0083	-3.1896	-2.6208	-3.0979	-3.0771	-3.0354	-3.1833	-2.8521	-2.9833	-3.0458	-2.5896	-3.1021	-2.8271	-2.8958	376.219	390.123	331.012	450.464	274.609	145.100	382.861	358.176	253.920	350.868	152.707	249.356	383.968	418.480	199.487	122.387	0.00055025	0.00035571	8.2004e-05	1684.2	4.3381e-06	6.6995e-06	1622.3	436.24	4.135e-06	2.3293e-06	503.69	166.41	146.59	49.681	5.1897e-06	59.82	0.00018296	0.00017621	4.9201e-05	1598.6	1.9462e-06	1.9184e-06	1549.5	409.81	1.9335e-06	1.9282e-06	442.63	154.77	128.55	45.997	1.925e-06	54.973	202.540	163.450	202.950	116.732	222.136	224.176	116.581	121.387	222.444	197.311	120.680	125.166	125.828	130.258	221.044	129.344	-8191	255	
2374.156	1	1	0	0	0.053116	0.18744	0.13143	0.24146	0.10632	0.080688	0.45983	0.21018	0.060107	0.051232	0.30168	0.15199	0.041701	0.39375	0.35415	0.11222	-2.7208	-2.9458	-2.95	-3.1854	-2.8917	-3.0229	-3.1167	-2.9021	-3.0854	-2.7708	-2.8875	-3.1833	-2.6958	-3.1104	-2.8917	-2.7812	408.350	297.345	262.657	437.332	408.909	398.317	368.028	396.905	214.106	280.601	274.134	321.646	440.036	418.334	409.752	364.240	0.00056947	0.00043197	0.00011273	1682.8	7.6349e-06	4.988e-06	1618.2	434.13	1.7083e-06	3.2334e-06	504.88	165.9	146.52	49.714	6.2234e-06	59.739	0.00018191	0.0001765	4.8294e-05	1598.4	1.9368e-06	1.9202e-06	1550	409.26	1.9248e-06	1.9415e-06	443.1	154.7	128.39	46.045	1.9464e-06	54.907	206.466	116.240	229.494	116.782	203.893	240.619	116.605	121.332	154.265	263.869	120.351	125.113	125.513	130.117	218.237	129.345	-8191	255	
2374.250	1	1	0	0	0.080347	0.036464	0.45037	0.20347	0.12646	0.20941	0.22867	0.20593	0.17331	0.13855	0.14272	0.3131	0.057507	0.11721	0.24964	0.16557	-2.675	-2.7375	-2.7729	-3.1771	-2.7917	-2.9646	-3.2354	-3.0438	-2.9417	-2.8208	-2.8042	-3.15	-2.7958	-2.9562	-2.9646	-2.7562	343.307	223.575	195.838	429.209	356.953	248.627	432.187	155.794	207.921	219.071	351.366	436.960	376.567	363.148	413.608	441.319	0.00062512	0.00036549	8.6108e-05	1682.2	1.9766e-06	3.3994e-06	1624.8	435.83	1.6757e-06	2.8244e-06	507.51	166.38	146.08	49.363	6.5205e-06	60.069	0.00018341	0.00017673	4.889e-05	1597.9	1.9414e-06	1.9248e-06	1549.8	410.31	1.9451e-06	1.9341e-06	443.11	154.78	128.31	45.856	1.9581e-06	55	199.554	145.620	140.839	116.784	289.085	260.580	116.546	121.122	288.928	229.370	120.514	124.779	125.900	130.431	275.424	129.500	-8191	255	
2374.371	1	1	0	0	0.031022	0.10409	0.22521	0.23794	0.067797	0.13044	0.33995	0.1342	0.12255	0.15113	0.16689	0.34934	0.35945	0.061946	0.22988	0.29463	-2.5083	-2.6771	-2.6646	-3.2875	-2.7271	-3.0646	-3.2021	-2.7687	-2.9188	-2.7542	-2.7583	-3.2167	-2.7938	-2.85	-2.8812	-2.6729	227.995	370.578	400.421	399.508	128.948	310.047	423.721	416.909	387.595	223.232	135.678	376.940	107.971	168.761	233.500	400.219	0.00056814	0.00035551	5.1031e-05	1685.2	4.1887e-06	5.4072e-06	1624.3	434.04	3.6173e-06	2.9133e-06	507.15	165.49	146	49.309	2.4055e-06	59.522	0.00018683	0.00017995	5.0222e-05	1599.4	1.9644e-06	1.9611e-06	1550.8	409.02	1.9748e-06	1.964e-06	443.69	154.46	128.39	45.896	1.9815e-06	54.869	206.596	163.350	277.966	116.719	240.074	234.094	116.423	121.266	241.006	275.951	120.497	125.151	125.622	130.044	276.796	129.259	-8191	255	
2374.442	1	1	0	0	0.23442	0.17389	0.24496	0.12538	0.041798	0.064618	0.037178	0.38353	0.19759	0.1051	0.10467	0.24062	0.39343	0.012466	0.13061	0.24521	-2.6021	-2.8479	-2.4437	-3.2167	-2.6437	-2.9375	-3.3479	-2.8396	-2.8937	-3.0479	-2.7562	-3.1979	-2.8104	-2.8312	-2.925	-2.775	378.148	144.364	288.885	421.954	224.765	233.638	409.429	442.711	200.255	260.596	397.517	140.613	335.372	380.878	259.154	431.392	0.00064994	0.00046138	0.00010029	1684.2	3.7656e-06	2.641e-06	1613.7	433.97	7.232e-06	4.6704e-06	507.89	165.77	144.98	49.285	3.8644e-06	59.202	0.0001892	0.00018258	5.1015e-05	1601.4	2.0038e-06	1.9985e-06	1548.5	409.76	2.0235e-06	2.0134e-06	443.8	154.5	127.9	45.749	2.0511e-06	54.56	203.910	208.240	138.036	116.768	230.373	355.211	116.497	121.357	199.588	235.816	121.035	125.197	125.612	130.277	230.498	129.484	-8191	255	
2374.538	1	1	0	0	0.15469	0.12072	0.16523	0.23393	0.083601	0.1113	0.28012	0.087655	0.20981	0.016621	0.16981	0.25608	0.11219	0.24875	0.12129	0.31594	-2.4896	-2.8667	-2.8312	-3.0896	-2.7708	-2.7479	-3.2854	-2.7812	-2.7917	-2.8646	-2.6833	-3.0104	-2.8021	-2.7771	-3.0625	-2.6604	121.941	452.875	210.000	283.313	439.652	411.781	365.519	441.964	220.651	225.308	431.542	407.458	371.915	401.762	214.320	442.201	0.00054559	0.00017458	2.439e-05	1684	2.3204e-06	3.4223e-06	1621.5	431.7	3.5864e-06	3.5018e-06	506.74	164.68	144.6	48.843	5.1258e-06	59.238	0.00019654	0.00018798	5.298e-05	1599.9	2.1231e-06	2.1208e-06	1551	408.9	2.1599e-06	2.1254e-06	444.92	153.7	127.84	45.553	2.1602e-06	54.596	201.402	147.164	448.892	116.697	165.312	183.939	116.584	121.113	199.581	287.235	120.431	125.084	125.972	130.288	219.368	129.478	-8191	255	
2374.635	1	1	0	0	0.064224	0.21809	0.14621	0.27886	0.23134	0.26391	0.13358	0.29139	0.10267	0.23241	0.17	0.19477	0.22819	0.096108	0.12032	0.16347	-2.3292	-2.7667	-2.6917	-2.9896	-2.6167	-2.7208	-3.2896	-2.9375	-2.8083	-2.9021	-2.6833	-3.1813	-2.9042	-2.8063	-3.1625	-2.8896	294.801	417.162	245.872	444.034	139.565	375.672	378.524	117.128	271.641	410.344	148.326	446.740	391.308	459.331	104.301	387.154	0.00050018	0.00052026	0.00011064	1682.6	1.2311e-06	3.4205e-06	1614.1	431.27	7.0434e-06	6.6033e-06	505.54	164.16	144.53	49.129	4.7393e-06	59.037	0.00020341	0.00019689	5.4954e-05	1602.4	2.1651e-06	2.1604e-06	1552.3	408.87	2.1682e-06	2.1555e-06	443.79	153.73	128.03	45.61	2.1306e-06	54.611	198.910	113.550	171.061	116.509	156.048	273.866	116.400	121.315	246.617	262.408	120.468	125.001	125.943	130.359	264.284	129.217	-8191	255	
2374.755	1	1	0	0	0.066064	0.39635	0.17485	0.31631	0.12633	0.088582	0.053332	0.33755	0.23868	0.072423	0.36791	0.21849	0.19587	0.16047	0.049492	0.020082	-2.4729	-2.9562	-2.5854	-3.2354	-2.8083	-2.7062	-3.1771	-2.8937	-2.7687	-3.0917	-2.8083	-3.0708	-2.9979	-2.7271	-3.0667	-2.8979	403.713	184.491	430.059	459.930	200.739	318.661	126.837	381.510	210.300	225.923	393.353	159.587	441.571	453.963	424.002	293.989	0.00059184	0.00020994	9.604e-05	1683.8	4.3984e-06	3.0872e-06	1619.8	435.11	1.7679e-06	6.8505e-06	504.74	164.66	144.88	49.115	1.1376e-06	59.028	0.00020207	0.00019514	5.4593e-05	1603	2.1408e-06	2.1335e-06	1552.2	409.81	2.1372e-06	2.1398e-06	444.09	153.97	127.96	45.624	2.13e-06	54.581	198.382	163.003	179.360	116.738	196.149	119.697	116.572	121.120	274.394	292.705	120.374	125.102	125.635	130.196	271.247	129.341	-8191	255	
2374.851	1	1	0	0	0.1343	0.1641	0.26485	0.37027	0.17546	0.19219	0.24023	0.29666	0.225	0.25636	0.083372	0.50106	0.13458	0.13409	0.066076	0.10994	-2.3958	-2.9208	-2.5312	-3.1688	-2.9729	-2.6979	-3.1896	-2.9292	-2.7812	-3.0687	-2.5458	-3.125	-3.1104	-2.85	-3.0542	-2.9292	327.313	417.444	132.064	453.776	265.499	400.978	405.794	109.742	223.039	148.244	110.578	381.422	135.396	459.468	371.650	446.562	0.0005805	8.7293e-05	0.00018398	1686.8	3.585e-06	1.8636e-06	1621.7	432.76	2.8003e-06	3.5548e-06	505.69	165.26	145.17	49.08	9.5649e-07	59.167	0.00020113	0.00019356	5.4237e-05	1605.6	2.1444e-06	2.1318e-06	1555.1	408.82	2.1265e-06	2.1373e-06	444.19	154.1	128.13	45.636	2.1533e-06	54.646	207.683	236.417	193.339	116.797	178.682	277.575	116.519	121.188	271.556	212.882	120.428	125.275	125.942	130.271	223.301	129.409	-8191	255	
2374.948	1	1	0	0	0.14707	0.10154	0.062824	0.11291	0.10506	0.082111	0.45302	0.20396	0.15497	0.20249	0.094919	0.24101	0.1225	0.17734	0.12805	0.14679	-2.4646	-3.0542	-2.8208	-3.025	-2.8979	-2.8542	-3.3292	-3.0646	-2.6958	-3.2583	-2.7604	-3.0646	-3.0458	-2.8396	-2.8771	-2.9833	140.993	267.796	182.797	400.208	129.826	207.674	405.688	428.640	279.443	274.817	436.338	391.806	116.714	114.490	182.521	414.995	0.00052254	0.00045006	0.00013999	1687.7	2.6233e-06	6.0968e-06	1623.2	432.52	3.7439e-06	3.0355e-06	505.11	164.76	144.78	48.862	4.6035e-06	59.096	0.00020485	0.00019962	5.5657e-05	1607.2	2.2294e-06	2.2245e-06	1558.7	410	2.2545e-06	2.2528e-06	445.95	154.14	128.27	45.608	2.2666e-06	54.697	201.589	169.952	204.321	116.712	180.965	275.419	116.645	121.182	221.380	285.966	120.576	124.839	125.881	130.243	251.195	129.514	-8191	255	
2375.019	1	1	0	0	0.18722	0.16469	0.11749	0.28469	0.13339	0.098681	0.35616	0.11742	0.20873	0.15093	0.06489	0.24343	0.1649	0.19157	0.30335	0.18072	-2.4521	-2.9	-2.8021	-2.9896	-3.0521	-2.7896	-3.2104	-3.0771	-2.6625	-3.2417	-2.9521	-2.9271	-3.0458	-2.8854	-3.0812	-3.2021	385.138	289.824	363.590	432.954	304.728	452.374	388.834	182.310	248.524	330.336	333.450	142.887	399.926	459.203	166.358	329.545	0.00053353	0.00021191	4.126e-05	1694.6	4.375e-06	4.4403e-06	1628	434.04	5.8356e-06	1.9528e-06	503.36	165.09	144.63	48.967	3.748e-06	58.658	0.0002116	0.00020628	5.7828e-05	1612.9	2.2843e-06	2.2674e-06	1562.5	410.75	2.2742e-06	2.2813e-06	447.07	154.75	128.82	45.732	2.3478e-06	54.731	200.719	131.467	107.235	116.820	195.919	221.488	116.533	120.982	266.396	280.647	120.411	125.168	125.841	130.288	189.067	129.371	-8191	255	
2375.140	1	1	0	0	0.26957	0.23325	0.26741	0.092894	0.31279	0.22694	0.50106	0.29974	0.20622	0.17271	0.078958	0.17432	0.083967	0.27319	0.14529	0.12327	-2.3063	-3.0187	-2.8896	-2.9688	-3.0563	-2.7687	-3.2458	-3.025	-2.5917	-2.9875	-3.1146	-2.9292	-3.1729	-2.7771	-2.9479	-3.1104	105.402	123.294	279.781	355.323	112.216	208.492	410.778	448.776	334.175	455.924	313.117	407.110	443.465	423.665	371.861	305.625	0.0005719	0.00039168	3.1268e-05	1699.3	2.3975e-06	2.4281e-06	1635.3	434.67	4.831e-06	2.4742e-06	506.01	165.11	145.09	48.959	6.5126e-06	59.469	0.00022089	0.00021561	6.002e-05	1620.6	2.3934e-06	2.3836e-06	1573.2	412.78	2.4109e-06	2.4094e-06	449.79	155.25	129.53	45.934	2.4442e-06	55.114	206.128	434.592	172.279	116.726	199.937	249.330	116.500	121.089	249.084	276.860	120.395	124.983	125.697	130.075	261.378	129.197	-8191	255	
2375.236	1	1	0	0	0.047469	0.16432	0.072918	0.28799	0.10173	0.048183	0.079108	0.19804	0.038513	0.15099	0.085592	0.25441	0.2148	0.22355	0.27553	0.33544	-2.1229	-3.0708	-2.6896	-2.7625	-3.1937	-2.8187	-3.0417	-3.3083	-2.6771	-3.0375	-3.1021	-2.8417	-3.1188	-3.0292	-2.8792	-3.1688	295.270	387.594	355.765	458.373	147.524	140.173	458.471	373.379	377.670	421.272	299.992	452.458	107.964	155.863	306.022	335.024	0.00051744	0.00058915	0.00010826	1708	3.1908e-06	5.8936e-06	1645.4	437.51	3.1343e-06	6.2869e-06	510.78	166.24	145.46	49.152	2.3149e-06	59.32	0.00023217	0.00022461	6.1932e-05	1628.9	2.4493e-06	2.4327e-06	1579.5	414.72	2.447e-06	2.4245e-06	452.47	155.71	129.83	46.052	2.4642e-06	55.198	198.052	172.201	149.137	116.753	187.175	213.472	116.330	121.066	277.765	269.139	120.273	124.953	125.782	130.120	226.829	129.246	-8191	255	
2375.332	1	1	0	0	0.044338	0.3254	0.1464	0.33575	0.132	0.053188	0.31798	0.22223	0.13187	0.16179	0.12329	0.19982	0.08044	0.23636	0.08864	0.17201	-2.2875	-2.7958	-2.9188	-2.8187	-2.9479	-2.7771	-3.1021	-3.2792	-2.9188	-2.9208	-2.8187	-2.8542	-3.0979	-2.8125	-2.7812	-3.1354	437.786	377.604	234.017	110.317	400.745	144.305	398.875	456.096	179.273	231.209	115.259	105.670	166.191	447.908	241.294	143.682	0.00069748	0.00026102	0.00021427	1709.5	3.5003e-06	2.3662e-06	1645.7	437.4	2.6966e-06	2.0747e-06	509.59	165.82	145.69	49.193	3.9375e-06	59.749	0.00023076	0.00022402	6.2423e-05	1632.5	2.4636e-06	2.4643e-06	1581.1	414.89	2.4619e-06	2.4685e-06	452.43	155.96	130.09	46.037	2.4541e-06	55.325	205.162	161.646	168.975	116.539	141.020	359.241	116.546	121.137	256.096	324.982	120.594	125.007	125.846	130.174	222.128	129.424	-8191	255	
2375.451	1	1	0	0	0.26439	0.12138	0.16422	0.39356	0.1644	0.12127	0.25631	0.14518	0.055699	0.054434	0.070092	0.24205	0.059468	0.078595	0.16392	0.060763	-2.1604	-2.9354	-2.9083	-2.9062	-3.1646	-2.9625	-3.0417	-3.3229	-2.8354	-2.9271	-3.1896	-2.9583	-2.9125	-3.0312	-2.8104	-3.2042	236.390	222.894	304.957	439.060	288.972	430.989	393.323	421.809	199.308	263.623	217.110	372.106	170.554	117.904	220.460	251.379	0.00055393	0.00035643	0.00016354	1715.7	2.5862e-07	4.1147e-06	1646.1	438.5	5.7244e-06	4.6292e-06	509.77	166.15	146.64	49.157	4.787e-06	59.489	0.00023053	0.00022348	6.217e-05	1635.1	2.4645e-06	2.4528e-06	1582.2	415.75	2.4592e-06	2.4695e-06	452.51	156.3	130.37	46.133	2.4585e-06	55.33	203.928	174.314	205.082	116.798	337.015	212.146	116.457	121.069	249.862	204.857	120.381	125.018	125.909	130.171	253.374	129.342	-8191	255	
2375.547	1	1	0	0	0.19988	0.092053	0.12061	0.28734	0.037589	0.1961	0.34736	0.45071	0.25489	0.096034	0.16824	0.3687	0.11578	0.071754	0.23188	0.31402	-2.2542	-2.8021	-3.0667	-2.8333	-3.0021	-3.0687	-3.2042	-3.1417	-2.8917	-2.8812	-3.125	-2.8958	-3.0792	-3.1771	-2.7021	-3.2625	144.467	245.251	298.287	405.115	298.517	113.323	429.184	433.172	129.430	192.105	124.994	430.145	364.774	425.739	138.569	104.887	0.0006137	3.1938e-05	5.6182e-05	1718.7	6.4358e-06	5.4766e-06	1645	438.11	5.1161e-06	2.7129e-06	510.31	166.26	146.12	49.423	2.9558e-06	59.589	0.00023081	0.00022374	6.247e-05	1638.5	2.464e-06	2.4831e-06	1585.2	416.3	2.4893e-06	2.4746e-06	453.35	156.25	130.42	46.271	2.4802e-06	55.401	197.988	190.207	187.055	116.621	235.699	221.067	116.438	121.281	240.087	274.752	120.380	125.095	125.593	130.439	246.263	129.286	-8191	255	
2375.643	1	1	0	0	0.22176	0.14941	0.063392	0.17363	0.10399	0.14351	0.48424	0.30882	0.1251	0.060532	0.10877	0.14717	0.28716	0.22885	0.17386	0.18258	-2.4854	-2.6813	-2.9917	-3.1542	-3.0187	-2.9646	-3.0146	-3.1063	-2.8042	-2.8167	-3.1167	-2.8167	-3.1458	-3.025	-2.6688	-3.0125	214.004	438.173	224.568	379.545	289.067	327.402	366.229	452.097	118.559	139.373	140.662	160.425	321.510	428.269	384.213	424.894	0.00056832	0.0001252	0.00016091	1714.3	3.2565e-06	6.0279e-06	1654.3	438.81	4.5658e-06	1.3294e-06	512.45	166.32	146.64	49.481	2.9027e-06	59.729	0.0002318	0.00022492	6.2944e-05	1639.8	2.4865e-06	2.4774e-06	1586.9	416.06	2.4941e-06	2.4887e-06	454.05	156.52	130.86	46.303	2.4596e-06	55.501	201.739	130.677	186.972	116.611	275.821	295.459	116.401	121.024	231.506	290.194	120.549	124.959	125.813	130.096	190.823	129.458	-8191	255	
2375.739	1	1	0	0	0.065588	0.043844	0.064094	0.3762	0.15963	0.024606	0.48823	0.28785	0.20478	0.18593	0.22135	0.37942	0.34687	0.15077	0.069684	0.22209	-2.4875	-2.725	-2.8979	-2.8792	-2.8812	-2.9958	-2.9833	-3.1583	-2.8375	-2.7188	-2.9833	-2.9708	-2.8646	-3.075	-2.75	-3.0229	244.337	235.984	225.429	447.644	274.432	278.860	419.649	380.604	366.793	106.574	127.171	115.985	406.607	303.069	323.606	437.503	0.00051487	0.00025517	4.844e-05	1719.9	7.0791e-06	3.7322e-06	1650.8	437.89	1.4892e-06	8.6048e-06	512.05	167.04	146.4	49.56	5.3747e-06	60.033	0.00023175	0.00022433	6.3009e-05	1640.8	2.4641e-06	2.4715e-06	1589	416.26	2.4621e-06	2.4496e-06	454.1	157.05	130.82	46.463	2.459e-06	55.62	209.225	456.360	105.086	116.619	238.847	235.525	116.416	121.086	250.910	233.046	120.560	124.937	126.012	130.098	245.243	129.274	-8191	255	
2375.836	1	1	0	0	0.13182	0.11261	0.23213	0.21712	0.1116	0.15408	0.23152	0.2039	0.067074	0.17182	0.081907	0.3383	0.13106	0.14613	0.094428	0.080833	-2.5375	-2.7667	-2.8875	-3.0021	-2.9979	-3.0646	-3.0896	-3.0542	-2.8583	-2.6104	-3.1125	-2.9229	-2.8542	-3.1042	-2.7875	-3.2	366.874	253.664	306.580	158.150	305.451	232.339	377.622	400.981	282.861	282.500	177.231	460.668	428.580	118.791	414.372	122.228	0.00053772	0.0005668	0.00012298	1722.5	2.7019e-06	5.9241e-06	1656.5	438.07	3.8197e-06	1.7209e-06	511.87	167.29	147.11	49.796	6.3445e-07	59.83	0.00023019	0.00022304	6.2357e-05	1644.3	2.4541e-06	2.4469e-06	1589.3	417.01	2.4459e-06	2.4262e-06	454.32	156.99	130.91	46.533	2.4364e-06	55.618	205.575	460.468	206.474	116.539	220.336	195.976	116.296	121.053	273.651	305.877	120.518	124.764	125.784	130.034	332.873	129.089	-8191	255	
2375.932	1	1	0	0	0.022181	0.19815	0.071589	0.19906	0.12572	0.10614	0.28964	0.33426	0.14038	0.13267	0.36226	0.1573	0.12733	0.21854	0.12174	0.033285	-2.5667	-2.6854	-3.0792	-3.1604	-2.7979	-3.1604	-2.8833	-3.0708	-2.9	-2.7667	-3.0958	-3.0021	-2.8312	-3.1646	-2.625	-2.8875	302.268	231.739	166.231	121.753	387.258	281.996	401.863	427.229	443.838	336.300	418.266	387.976	369.131	449.989	385.388	220.649	0.00056047	7.7711e-05	6.3197e-05	1719.9	5.1689e-06	2.1316e-06	1655.1	440.6	1.8464e-06	1.9961e-06	510.7	167.76	147.14	49.626	3.1498e-06	59.686	0.00022764	0.00022323	6.2044e-05	1643.1	2.4387e-06	2.4233e-06	1591.4	417.39	2.4366e-06	2.4171e-06	454.01	157	130.83	46.358	2.4413e-06	55.454	194.385	313.018	180.440	116.606	189.617	314.822	116.393	121.116	282.865	368.911	120.426	124.977	125.737	130.261	298.219	129.374	-8191	255	
2376.052	1	1	0	0	0.095768	0.20021	0.22857	0.18847	0.17698	0.11185	0.21722	0.14617	0.22122	0.13081	0.15617	0.20385	0.17482	0.15897	0.24734	0.12289	-2.5167	-2.75	-2.9292	-3.1208	-2.7438	-3.1958	-2.9604	-3.0062	-2.9875	-2.7438	-3.0396	-3.0833	-2.7458	-3.2125	-2.6854	-2.9	242.383	315.908	300.212	136.083	277.075	329.053	396.877	454.069	124.462	369.318	378.555	348.965	456.275	429.119	365.191	413.230	0.00052533	0.00011169	1.7593e-05	1721.8	3.129e-06	1.3596e-06	1654.7	439.08	2.4054e-06	1.3014e-06	508.6	167.11	146.79	49.5	5.7315e-06	59.571	0.00022925	0.00022316	6.1764e-05	1643.3	2.4545e-06	2.4435e-06	1590.4	417.05	2.4715e-06	2.4323e-06	453.63	156.71	130.57	46.39	2.4376e-06	55.465	198.695	207.175	284.768	116.566	219.639	232.149	116.436	121.042	244.302	238.607	120.315	125.002	126.062	130.183	245.619	129.156	-8191	255	
2376.149	1	1	0	0	0.16391	0.16426	0.15867	0.49024	0.25085	0.14784	0.13457	0.18129	0.10428	0.082881	0.16327	0.045697	0.12984	0.11717	0.15933	0.2277	-2.5438	-2.6937	-2.8521	-3.0854	-2.6667	-3.1104	-2.9896	-2.9708	-2.9792	-2.725	-2.975	-3.0021	-2.5208	-3.1458	-2.7146	-2.9229	303.764	308.716	236.656	405.080	154.218	449.207	385.574	404.010	286.472	265.583	387.123	132.041	354.874	105.689	399.367	375.956	0.0006034	0.00057026	7.1811e-05	1724.4	1.7753e-06	1.0281e-06	1659.8	439.42	1.5674e-06	4.0937e-06	513.1	166.94	146.63	49.341	3.6636e-06	59.8	0.00022983	0.00022186	6.248e-05	1645.6	2.4453e-06	2.4402e-06	1591.6	417.63	2.4328e-06	2.4182e-06	454.52	156.76	130.6	46.311	2.4428e-06	55.443	200.988	162.983	261.052	116.603	220.076	353.191	116.396	121.141	306.789	227.587	120.388	125.150	125.728	130.219	198.507	129.503	-8191	255	
2376.243	1	1	0	0	0.087771	0.088262	0.18111	0.17066	0.33072	0.24175	0.2307	0.23988	0.089863	0.13678	0.33025	0.069797	0.26646	0.16597	0.10965	0.19383	-2.6042	-2.5729	-2.8563	-3.0729	-2.8667	-3.0583	-3.1625	-2.7917	-3.0833	-2.6917	-2.8229	-3.0583	-2.7854	-2.8646	-2.8229	-2.8771	145.019	162.598	388.025	448.744	109.410	230.932	396.411	414.437	188.031	398.674	338.151	443.772	450.361	435.664	357.847	356.724	0.00061626	0.00040483	0.00012501	1720.6	6.6977e-06	1.8194e-06	1655.5	440.02	1.5982e-06	4.5286e-06	511.14	167.08	146.67	49.573	5.4019e-06	59.838	0.00022822	0.00022081	6.183e-05	1644.3	2.4365e-06	2.423e-06	1591.4	417.32	2.4215e-06	2.422e-06	452.98	156.72	130.75	46.349	2.4344e-06	55.526	210.230	156.308	209.588	116.614	231.822	180.433	116.257	121.206	246.441	270.068	120.521	125.117	125.564	130.086	232.845	129.495	-8191	255	
2376.316	1	1	0	0	0.078497	0.17116	0.14143	0.064523	0.23495	0.37977	0.27784	0.19123	0.21023	0.21395	0.031431	0.23846	0.094612	0.24691	0.11102	0.081598	-2.4479	-2.7229	-2.7125	-3.3979	-2.7833	-2.8937	-3.1792	-2.7833	-3.025	-2.7604	-2.9125	-3.1458	-2.7354	-3.0833	-2.8208	-2.725	277.341	119.502	395.124	401.562	206.215	347.278	399.696	405.425	114.281	216.948	257.327	367.793	269.037	399.727	286.370	410.175	0.00058121	0.0002258	0.00012858	1722.5	7.2187e-06	2.1176e-06	1660.5	437.89	4.8279e-06	4.2987e-06	513.14	166.52	146.74	49.395	7.2727e-06	59.861	0.00022795	0.00022209	6.1959e-05	1644.7	2.4446e-06	2.4331e-06	1591	416.88	2.4315e-06	2.413e-06	454.33	156.45	130.41	46.271	2.3991e-06	55.478	196.093	253.781	189.019	116.640	212.964	309.420	116.436	121.208	221.095	215.132	120.213	124.836	125.529	130.075	249.167	129.351	-8191	255	
2376.435	1	1	0	0	0.21503	0.07411	0.1638	0.22291	0.064192	0.14303	0.20956	0.17095	0.10812	0.17167	0.28738	0.19867	0.15697	0.11032	0.25135	0.15602	-2.5875	-2.5917	-2.6125	-3.2604	-2.6833	-2.9062	-3.2438	-2.8333	-2.9313	-2.8604	-2.85	-3.1083	-2.8979	-2.9854	-2.9292	-2.625	392.673	190.139	307.229	132.525	443.331	282.456	440.586	391.192	126.514	380.231	408.689	138.058	410.797	106.371	372.607	194.526	0.00058403	0.00031606	0.0001198	1719.3	3.2859e-06	2.4991e-06	1652.7	437.81	4.9432e-06	3.5322e-06	510.62	167.18	146.29	49.511	5.9097e-06	59.377	0.00022524	0.00021788	6.1052e-05	1642.9	2.4293e-06	2.3885e-06	1588.7	416.23	2.4177e-06	2.3952e-06	453.04	156.72	130.43	46.278	2.398e-06	55.346	209.381	454.708	170.859	116.556	240.251	290.429	116.497	121.153	246.491	268.777	120.449	125.038	125.701	130.176	238.700	129.452	-8191	255	
2376.531	1	1	0	0	0.16507	0.19036	0.13056	0.33753	0.28513	0.082563	0.3368	0.26186	0.19061	0.19676	0.38571	0.36974	0.11618	0.38528	0.14154	0.014268	-2.5083	-2.8458	-2.7625	-3.1562	-2.8208	-2.8625	-3.1125	-2.8	-2.9125	-2.9188	-2.8271	-3.0187	-2.9646	-3.05	-2.8937	-2.8312	307.416	437.699	328.551	440.831	356.964	186.660	357.146	455.702	427.822	246.613	287.951	119.961	191.818	460.424	200.345	337.817	0.00060892	0.00038116	0.00011162	1720.5	3.6883e-06	3.3963e-06	1653.9	441.06	4.3195e-06	3.3368e-06	510.86	166.78	146.57	49.478	5.1335e-06	59.836	0.00022572	0.0002191	6.0766e-05	1644.4	2.399e-06	2.404e-06	1590.7	417.09	2.3944e-06	2.4078e-06	452.91	156.46	130.54	46.179	2.4094e-06	55.399	201.009	197.424	195.814	116.648	179.308	200.391	116.452	121.091	207.960	234.734	120.538	124.933	125.918	129.980	231.779	129.201	-8191	255	
2376.628	1	1	0	0	0.091251	0.25228	0.091393	0.47465	0.13796	0.090245	0.23315	0.27202	0.070332	0.21739	0.3447	0.27678	0.24019	0.097028	0.10522	0.043399	-2.5708	-2.7687	-2.8187	-3.3792	-2.8021	-2.8688	-3.3187	-2.7833	-2.9292	-2.7625	-2.9125	-3.1417	-2.8333	-2.9229	-3.1063	-2.8104	223.476	171.472	256.758	110.503	262.356	372.057	444.218	375.594	313.039	355.227	142.280	390.327	437.461	239.950	421.309	256.597	0.00054046	0.00011065	5.7551e-05	1722.3	6.078e-06	5.7102e-06	1655.7	438.61	5.5878e-06	1.7258e-06	511.08	166.79	146.02	49.24	3.4433e-06	59.832	0.00022485	0.0002187	6.0523e-05	1643.7	2.4117e-06	2.4059e-06	1590.2	416.21	2.393e-06	2.4023e-06	452.86	156.45	130.22	46.148	2.4113e-06	55.309	207.312	285.112	177.504	116.548	249.393	248.992	116.583	121.181	229.011	242.996	120.381	125.023	125.766	130.095	222.926	129.250	-8191	255	
2376.724	1	1	0	0	0.068639	0.14753	0.12944	0.20321	0.095836	0.16945	0.44124	0.24867	0.083663	0.21854	0.24379	0.13566	0.077847	0.16004	0.13182	0.079617	-2.3854	-2.8688	-2.6875	-3.0708	-3.0146	-2.7313	-3.2438	-2.8937	-2.8958	-3.1021	-2.6583	-3.2375	-2.9271	-2.7833	-3.0167	-2.9208	319.463	456.056	268.484	430.901	194.953	396.537	369.911	387.618	304.477	452.390	334.622	425.823	215.219	405.359	244.767	362.436	0.00054368	0.00045396	0.00019603	1727.2	4.8366e-06	1.0402e-06	1658.6	439.92	3.7273e-06	2.9158e-06	511.82	166.61	146.17	49.342	2.2421e-06	59.672	0.00022572	0.00021753	6.121e-05	1644.5	2.4049e-06	2.4045e-06	1589.1	416.73	2.3975e-06	2.3873e-06	453.2	156.28	130.22	46.11	2.408e-06	55.371	205.206	155.770	212.546	116.526	229.228	413.653	116.314	121.106	259.795	232.591	120.614	125.048	125.737	130.128	181.619	129.490	-8191	255	
2376.820	1	1	0	0	0.12966	0.28287	0.40123	0.29703	0.3392	0.090662	0.16882	0.21785	0.25528	0.051443	0.2834	0.34037	0.0495	0.16949	0.22932	0.36064	-2.4208	-3.0438	-2.7375	-3.1729	-3.0187	-2.7771	-3.1833	-2.8479	-2.9458	-2.9667	-2.8771	-2.8542	-2.9021	-2.7583	-3.0229	-2.8771	300.931	260.491	329.958	458.645	452.185	256.681	413.709	405.858	183.382	111.731	348.915	431.766	174.112	440.757	403.805	330.120	0.00061776	0.00010536	9.3074e-05	1725.5	4.0099e-06	5.5858e-06	1655.4	437.74	4.6502e-06	3.4765e-06	513.31	166.22	146.35	49.411	1.7774e-06	59.272	0.00022489	0.00021673	6.1056e-05	1642.6	2.3998e-06	2.3924e-06	1589.2	415.56	2.4067e-06	2.3689e-06	453.24	156.2	130.25	46.146	2.3803e-06	55.252	211.872	170.850	210.331	116.716	200.947	223.363	116.465	121.158	229.048	326.823	120.295	125.045	125.843	130.033	256.961	129.276	-8191	255	
2376.916	1	1	0	0	0.1388	0.084182	0.054848	0.38937	0.10678	0.14748	0.23241	0.27292	0.092864	0.23226	0.13253	0.18325	0.17351	0.36749	0.075478	0.35114	-2.3104	-2.9521	-2.6604	-3.0458	-2.8375	-2.6854	-3.3312	-2.9062	-2.8187	-2.975	-2.7854	-3.0583	-3.1771	-2.6708	-3.05	-2.8917	142.369	404.708	245.705	423.339	290.410	413.692	416.359	377.814	447.791	107.735	399.001	400.194	143.835	443.396	432.368	431.281	0.00052652	0.00024805	8.1535e-05	1726.1	3.2844e-06	2.5466e-06	1656.2	438.34	5.9384e-06	3.3864e-06	510.74	166.77	146.74	49.296	8.875e-07	59.292	0.00022484	0.00021968	6.0761e-05	1644.1	2.4159e-06	2.3867e-06	1590.5	416.39	2.3912e-06	2.3829e-06	453.22	156.24	130.21	46.117	2.3872e-06	55.184	200.171	133.914	195.677	116.608	227.642	209.807	116.361	121.133	282.824	178.901	120.622	125.176	125.646	129.993	201.922	129.301	-8191	255	
2377.012	1	1	0	0	0.099675	0.17803	0.12732	0.15641	0.36614	0.2071	0.27239	0.33804	0.22055	0.11811	0.15076	0.38937	0.26163	0.2321	0.05387	0.13987	-2.3438	-3.0438	-2.7188	-3.1708	-2.9667	-2.6688	-3.0917	-2.75	-2.6917	-2.9771	-2.8229	-2.8937	-3.0083	-2.8958	-2.9917	-2.8854	444.455	411.440	127.514	424.069	308.547	264.571	410.140	379.974	147.086	267.608	208.237	150.152	462.509	282.641	382.535	311.115	0.00054198	0.00034216	0.00013514	1721.4	1.8142e-06	6.7917e-06	1655.2	437.98	2.5992e-06	2.9144e-06	513.07	166.35	146.41	49.274	3.4971e-06	59.433	0.00022589	0.00021828	6.0975e-05	1642.7	2.3938e-06	2.4116e-06	1590.7	415.76	2.4165e-06	2.4075e-06	453.89	156.1	130.36	46.071	2.4074e-06	55.194	202.885	183.923	175.012	116.641	221.025	228.414	116.548	120.958	241.339	225.726	120.163	124.791	125.562	130.129	304.069	129.234	-8191	255	
2377.133	1	1	0	0	0.10208	0.22434	0.12152	0.40083	0.058229	0.15517	0.19819	0.20765	0.10978	0.24177	0.064473	0.15895	0.3011	0.19875	0.076812	0.28235	-2.1188	-2.8604	-2.7542	-2.8354	-3.0042	-2.6604	-3.0438	-3.1271	-2.5292	-3.0875	-2.7708	-2.7771	-3.1354	-2.7792	-2.8833	-2.9646	223.261	324.470	383.925	393.543	153.933	182.762	439.740	441.650	147.011	338.434	158.908	341.507	462.655	110.283	385.674	393.856	0.00047324	0.00035322	0.00010719	1724.3	4.7418e-06	6.2119e-06	1656.2	437.97	1.3622e-06	5.2556e-07	511.47	166.31	145.85	49.349	8.6217e-06	59.431	0.00022679	0.00022026	6.1563e-05	1644.2	2.4222e-06	2.404e-06	1589.3	415.85	2.395e-06	2.4115e-06	452.7	156.04	130.08	46.062	2.4058e-06	55.182	204.924	163.797	217.282	116.578	132.159	210.932	116.496	120.891	203.956	252.679	120.784	124.853	125.861	129.901	270.545	129.476	-8191	255	
2377.229	1	1	0	0	0.15632	0.031795	0.14006	0.19144	0.27904	0.14783	0.51029	0.16478	0.19883	0.06111	0.1963	0.18286	0.097868	0.1309	0.11369	0.012046	-2.15	-3.0438	-2.8208	-2.9375	-3.0729	-2.7812	-3.125	-3.1125	-2.6458	-2.9792	-3.0312	-2.9	-3.2542	-2.9042	-2.8042	-3.225	116.665	131.372	380.812	123.702	222.412	444.400	443.429	441.613	301.482	347.182	135.010	425.129	350.847	177.370	413.340	111.203	0.00059853	0.00046264	9.6203e-05	1725.5	5.8128e-07	4.2395e-06	1656.7	438.33	3.6402e-06	2.7819e-06	513.55	166.15	145.91	49.374	4.2884e-06	59.557	0.00022528	0.00021939	6.0827e-05	1642.8	2.4129e-06	2.4011e-06	1592.5	416.09	2.4002e-06	2.3969e-06	452.62	155.91	130	46.068	2.4056e-06	55.212	209.171	206.652	211.204	116.636	133.596	263.882	116.502	121.051	272.522	115.988	120.583	124.974	125.629	130.097	251.941	129.344	-8191	255	
2377.323	1	1	0	0	0.25602	0.20125	0.091697	0.14866	0.15634	0.068022	0.22828	0.14408	0.14774	0.0097826	0.20145	0.19369	0.15007	0.10681	0.019254	0.13103	-2.0729	-2.9208	-2.8354	-2.8208	-3.0292	-2.8312	-3.0167	-3.2354	-2.6583	-2.9708	-3.0208	-2.7375	-3.2333	-2.7625	-2.8604	-2.9437	315.281	396.533	266.923	448.459	311.976	227.305	150.103	460.555	372.986	409.177	341.225	388.603	409.414	349.115	428.166	267.415	0.00058274	0.00024659	5.0484e-05	1730.5	5.0223e-06	2.5498e-06	1654.6	438.73	6.8854e-06	4.9827e-06	508.18	166.21	146.41	49.022	7.3441e-06	59.535	0.0002261	0.00021794	6.0695e-05	1644.8	2.4247e-06	2.3929e-06	1588.6	416.17	2.3916e-06	2.39e-06	452.7	155.85	130.28	45.986	2.3927e-06	55.229	207.025	117.387	190.719	116.509	219.395	304.875	116.724	121.101	222.943	209.231	120.562	125.205	125.641	130.260	306.632	129.380	-8191	255	
2377.421	1	1	0	0	0.12823	0.19724	0.27554	0.45051	0.13604	0.072144	0.14563	0.23848	0.090301	0.082009	0.2408	0.17561	0.13416	0.1989	0.23234	0.31013	-2.2458	-2.8521	-2.9333	-2.8146	-3.0312	-2.8625	-3.1146	-3.1375	-2.7083	-2.8417	-2.8979	-2.7042	-3.1208	-3.05	-2.5271	-3.0083	324.294	425.118	252.436	390.330	248.925	268.819	314.988	455.447	449.794	224.313	361.135	337.838	369.648	454.800	129.137	116.442	0.00056255	0.00051935	0.00013368	1726.1	7.6886e-06	2.8168e-06	1653.9	437.91	4.3413e-06	3.1704e-06	509.79	165.63	145.76	49.371	2.3018e-06	59.473	0.00022483	0.00021793	6.0523e-05	1643.5	2.4034e-06	2.3558e-06	1591	415.77	2.388e-06	2.3694e-06	452.86	156	129.9	46.093	2.3743e-06	55.157	205.542	115.995	249.847	116.616	219.952	124.640	116.498	121.053	205.170	215.275	120.405	124.848	125.371	130.001	246.925	129.471	-8191	255	
2377.540	1	1	0	0	0.098261	0.25886	0.11364	0.36105	0.24587	0.085897	0.28175	0.3184	0.075418	0.22267	0.14981	0.3917	0.21969	0.15808	0.080252	0.1084	-2.2229	-2.7771	-3.0354	-2.9375	-2.8771	-2.875	-2.8792	-3.2479	-2.85	-2.9646	-3.0917	-2.8521	-3.1583	-2.8021	-2.65	-3.1042	318.305	256.787	460.529	449.138	140.981	201.714	425.676	392.206	333.763	302.975	433.294	434.680	274.289	388.099	386.271	385.288	0.00052465	0.00032091	0.00014751	1720.9	2.1536e-06	5.8179e-06	1656.4	439.03	2.1187e-06	3.2175e-06	511.24	166.62	145.78	49.298	4.0518e-06	59.271	0.0002235	0.00021751	6.0529e-05	1643.1	2.3814e-06	2.3766e-06	1590.9	416.24	2.3818e-06	2.3761e-06	452.43	156.05	129.84	46.092	2.3654e-06	55.164	199.738	184.971	230.050	116.481	174.368	272.108	116.494	120.983	281.045	238.717	120.493	125.077	125.829	130.082	361.241	129.558	-8191	255	
2377.612	1	1	0	0	0.21752	0.21037	0.15308	0.078442	0.22623	0.034635	0.41145	0.32194	0.21548	0.23987	0.032096	0.036431	0.1438	0.066071	0.22831	0.20706	-2.4104	-2.7687	-2.8854	-2.9625	-3.0833	-2.8646	-3.0563	-3.2687	-2.8208	-2.6542	-3.1104	-2.9396	-2.9	-2.9771	-2.7792	-3.1125	187.667	375.649	456.517	123.162	431.291	369.809	373.945	398.492	364.795	145.715	343.053	312.214	176.995	376.479	322.334	248.259	0.00057437	0.00037308	8.8189e-05	1724.6	4.9788e-06	1.6161e-06	1661.6	438.27	4.069e-06	4.0137e-06	511.33	166.3	145.15	49.23	7.1044e-06	59.38	0.00022411	0.00021673	6.037e-05	1644.3	2.3935e-06	2.3863e-06	1592.5	415.91	2.3867e-06	2.3756e-06	452.4	155.99	129.82	46.006	2.4009e-06	55.115	205.653	462.657	207.271	116.614	219.960	182.917	116.341	121.265	229.108	230.860	120.414	124.907	125.744	129.987	196.793	129.324	-8191	255	
2377.732	1	1	0	0	0.13947	0.024565	0.2382	0.044721	0.019148	0.20055	0.3227	0.55369	0.19374	0.19369	0.10101	0.057336	0.20491	0.48115	0.017791	0.27791	-2.3979	-2.8375	-2.9083	-2.9562	-2.9125	-2.825	-2.8688	-3.2167	-2.9958	-2.8583	-3.1771	-2.8292	-2.8625	-2.9479	-2.7062	-2.9271	234.617	402.675	282.143	456.228	268.275	150.093	368.441	399.502	403.468	460.417	334.319	110.326	221.081	141.983	386.433	410.096	0.00065873	0.00012094	3.7718e-05	1719.5	5.5844e-06	4.8731e-06	1658.4	438.86	5.4219e-06	7.8805e-07	509.56	166.13	146.13	49.367	5.7195e-06	59.35	0.00022478	0.00021875	6.0325e-05	1642.1	2.3817e-06	2.3773e-06	1591.1	415.95	2.4073e-06	2.3767e-06	451.88	155.99	130.15	46.007	2.3929e-06	55.155	201.217	442.308	243.081	116.585	250.796	221.836	116.463	121.056	264.288	300.377	120.185	125.175	125.623	130.037	234.888	129.298	-8191	255	
2377.829	1	1	0	0	0.20393	0.35251	0.16315	0.26295	0.22326	0.1808	0.27672	0.15734	0.037204	0.13631	0.07621	0.42169	0.15214	0.15227	0.059887	0.18706	-2.2958	-2.6396	-3.0938	-2.9917	-2.8604	-2.9604	-2.9854	-3.1104	-2.85	-2.7583	-3.0333	-2.8438	-2.8333	-3.15	-2.7646	-3.0896	170.796	199.258	205.645	427.842	181.090	352.695	352.392	398.209	193.208	160.088	340.159	103.345	282.089	389.225	431.354	416.588	0.00055237	0.00029263	0.00011811	1723.1	4.6534e-06	3.9219e-06	1653.5	438.52	3.1211e-06	4.6932e-06	513.48	166.37	146.98	49.289	5.1503e-06	59.434	0.00022481	0.00021653	6.0612e-05	1643.8	2.4e-06	2.3832e-06	1589.9	416.18	2.3628e-06	2.3687e-06	453.02	155.71	130.07	46.057	2.3861e-06	55.141	197.961	156.882	160.850	116.487	220.269	296.949	116.587	121.032	254.561	233.381	120.902	124.931	125.775	130.025	276.673	129.357	-8191	255	
2377.925	1	1	0	0	0.0546	0.28939	0.27636	0.40667	0.15472	0.17047	0.51518	0.3058	0.10051	0.060161	0.15238	0.18011	0.085759	0.32604	0.1816	0.43297	-2.2896	-2.6458	-2.9042	-2.9688	-2.7417	-3.0146	-2.9521	-2.9833	-2.8917	-2.5479	-3.0312	-2.925	-2.7292	-3.0208	-2.8958	-2.9188	324.137	208.215	153.298	442.332	328.634	172.140	403.209	427.004	368.403	423.076	285.430	410.622	127.650	119.676	232.635	407.352	0.000574	0.00037212	0.00016519	1719.9	4.9416e-06	5.0139e-06	1659.8	438.01	6.0083e-06	3.8843e-06	514.02	166.72	145.95	49.212	1.359e-06	59.545	0.00022551	0.00021739	6.097e-05	1644.5	2.41e-06	2.4013e-06	1592.9	416.02	2.3988e-06	2.3705e-06	452.83	155.99	130.06	46.068	2.4008e-06	55.158	202.861	195.222	219.435	116.599	230.356	223.669	116.516	121.006	227.224	319.242	120.412	124.954	125.905	130.019	244.630	129.310	-8191	255	
2378.021	1	1	0	0	0.054357	0.28956	0.073679	0.43266	0.34012	0.16512	0.049499	0.30194	0.039152	0.16915	0.21526	0.030548	0.21183	0.055764	0.1144	0.1657	-2.5708	-2.5896	-2.7625	-2.9062	-2.6917	-3.1146	-2.9875	-3.0646	-3.0604	-2.6979	-3.1458	-2.9771	-2.7313	-3.1396	-2.9313	-2.9333	209.761	259.231	152.680	428.731	165.832	331.035	283.934	456.967	340.797	146.311	435.439	143.081	453.748	407.848	435.800	105.547	0.00055231	0.00036165	0.00019183	1729.2	7.5026e-06	8.3677e-06	1657.7	438.05	2.2141e-06	2.8276e-06	513.37	165.88	146.07	49.168	4.1655e-06	59.349	0.00022584	0.00021972	6.1042e-05	1647	2.3994e-06	2.4031e-06	1590.9	415.82	2.4064e-06	2.3925e-06	453.55	155.9	129.97	46.05	2.3961e-06	55.102	199.702	449.994	208.310	116.518	228.672	238.496	116.525	121.105	208.865	272.475	120.306	125.243	125.671	130.079	226.632	129.263	-8191	255	
2378.141	1	1	0	0	0.1528	0.30984	0.17271	0.21674	0.1285	0.082237	0.23462	0.19509	0.13062	0.31488	0.12997	0.31463	0.046675	0.2196	0.33425	0.18288	-2.6312	-2.6063	-2.9313	-3.0958	-2.7917	-3.0833	-3.0542	-2.8583	-3.1271	-2.7062	-3.1917	-3.0271	-2.65	-3.0375	-2.8875	-2.8521	431.865	456.495	280.156	154.092	430.892	320.181	416.157	435.446	277.960	331.853	222.226	103.942	262.095	441.213	234.834	356.588	0.00059557	0.00016302	4.178e-05	1722.6	3.6768e-06	3.1718e-06	1659.2	439.14	3.0588e-06	5.9807e-06	509.76	166.19	145.15	49.419	2.3539e-06	59.187	0.00022341	0.00021718	6.1139e-05	1643.8	2.3901e-06	2.3663e-06	1590.4	416.99	2.39e-06	2.3768e-06	452.68	155.81	130.09	46.017	2.3765e-06	55.095	198.689	410.137	217.846	116.614	196.912	322.401	116.626	121.070	235.912	214.882	120.357	125.021	125.921	129.958	263.496	129.461	-8191	255	
2378.213	1	1	0	0	0.27917	0.13443	0.080607	0.085212	0.15278	0.41077	0.048024	0.20159	0.075004	0.090787	0.1225	0.22304	0.2616	0.054001	0.10392	0.11842	-2.7125	-2.8104	-2.925	-3.0187	-2.6	-3.1437	-3.2542	-2.8563	-3.2188	-2.7313	-2.8375	-3.0958	-2.7812	-2.9896	-2.9021	-2.825	413.623	343.858	256.608	149.652	343.504	184.478	414.458	398.508	427.566	119.089	143.562	440.092	108.092	218.559	154.291	392.724	0.00060907	0.00051347	3.8935e-05	1727.3	4.5256e-06	5.3974e-06	1655.1	438.95	4.0259e-06	1.2061e-06	511.47	166.37	146.29	49.192	2.468e-06	59.488	0.00022458	0.00021876	6.0806e-05	1643.8	2.3862e-06	2.3845e-06	1589.7	415.84	2.3792e-06	2.371e-06	452.36	155.8	129.96	45.932	2.3621e-06	55.109	203.066	130.997	339.603	116.631	155.864	290.544	116.501	121.078	267.655	387.177	120.199	125.191	125.647	130.026	245.000	129.394	-8191	255	
2378.309	1	1	0	0	0.098124	0.30993	0.19896	0.18411	0.10558	0.30628	0.27406	0.059525	0.29798	0.28029	0.23434	0.20755	0.11243	0.11355	0.21897	0.17255	-2.6813	-2.6604	-2.8833	-3.0979	-2.7604	-2.9313	-3.0167	-2.9875	-3.1792	-2.7396	-2.7354	-3.1021	-2.6958	-2.9875	-2.9188	-2.7792	273.499	375.775	278.587	410.328	410.320	295.911	417.802	418.227	138.946	339.479	399.756	412.536	303.074	335.156	448.605	170.905	0.00052652	0.00040562	8.9329e-05	1720.7	3.247e-06	1.278e-06	1657.5	437.66	1.7799e-06	2.74e-06	511.8	166	146.17	49.215	2.084e-06	59.422	0.00022206	0.00021647	5.9848e-05	1644.3	2.3745e-06	2.3523e-06	1590.5	415.78	2.3658e-06	2.3534e-06	452.64	155.57	129.75	45.888	2.3589e-06	55.062	200.410	130.053	209.344	116.670	248.936	372.434	116.459	121.055	238.642	294.861	120.457	124.933	125.750	129.909	243.214	129.314	-8191	255	
2378.405	1	1	0	0	0.089206	0.024697	0.042114	0.29092	0.11117	0.20348	0.25673	0.23187	0.17187	0.20279	0.29566	0.14653	0.2926	0.15513	0.216	0.080618	-2.6458	-2.8604	-2.7146	-3.1708	-2.7542	-2.9667	-3.0938	-2.8646	-3.0104	-2.9104	-2.7896	-3.0708	-2.8104	-3.0396	-2.9125	-2.7542	359.720	423.684	227.274	432.000	324.422	206.609	385.349	414.521	142.380	322.586	430.586	127.977	385.074	360.596	129.653	284.636	0.00055781	0.00051622	7.1475e-05	1722.2	4.5641e-06	5.7013e-06	1656.4	437.7	1.9201e-06	4.9831e-06	509.02	165.52	146.24	49.354	5.6371e-06	59.257	0.00022002	0.00021569	6.0276e-05	1643	2.3601e-06	2.358e-06	1589.8	415.27	2.3475e-06	2.3287e-06	452.08	155.37	129.59	46.022	2.34e-06	55.078	208.490	165.791	254.981	116.653	185.246	227.968	116.318	121.164	260.548	123.539	120.542	125.077	125.454	130.010	224.453	129.418	-8191	255	
2378.502	1	1	0	0	0.065455	0.139	0.16474	0.07336	0.26122	0.21358	0.69441	0.10666	0.17192	0.12278	0.22091	0.04077	0.14799	0.089782	0.049732	0.077669	-2.6917	-2.6479	-2.6083	-3.2292	-2.5438	-3.0271	-3.1	-2.6875	-2.9813	-2.9437	-2.9313	-3.2792	-2.9	-2.9292	-3.0229	-2.7667	411.435	255.956	154.167	421.265	303.382	311.375	377.898	403.319	241.549	145.314	405.480	371.839	162.817	336.715	451.883	429.739	0.00060525	0.00018074	0.00011393	1728	2.1943e-06	1.4312e-06	1653.5	438.95	4.4628e-06	6.2196e-06	512.43	165.94	145.4	49.079	4.8437e-06	59.473	0.00021996	0.00021329	5.9534e-05	1644.9	2.3385e-06	2.3251e-06	1588.3	415.44	2.3321e-06	2.3069e-06	452.46	155.61	129.6	45.974	2.3001e-06	55.135	200.377	220.057	138.942	116.517	185.375	228.788	116.486	121.102	286.249	244.105	120.468	125.013	125.870	130.125	271.831	129.136	-8191	255	
2378.620	1	1	0	0	0.22264	0.18178	0.13205	0.28574	0.28691	0.28349	0.19781	0.10308	0.1352	0.32569	0.16878	0.15813	0.19128	0.1276	0.13325	0.13399	-2.7042	-3.0438	-2.6021	-3.3563	-2.9333	-2.9167	-3.3208	-2.7958	-2.9896	-2.825	-2.8396	-3.0833	-2.9104	-3.0354	-2.9354	-3.0708	460.530	417.665	312.392	414.334	313.630	414.575	389.693	385.407	453.861	279.075	338.214	450.720	432.578	341.847	423.784	182.683	0.00059171	0.00043338	0.00020653	1721.1	1.7163e-06	1.112e-05	1655.7	438.13	6.7761e-06	2.5311e-06	509.5	166.4	145.74	49.26	6.5911e-06	59.49	0.00021528	0.00020894	5.8319e-05	1641.4	2.2968e-06	2.2836e-06	1589.2	415.35	2.2824e-06	2.2684e-06	450.94	155.45	129.6	45.865	2.2769e-06	54.955	200.347	156.243	224.506	116.654	195.788	254.043	116.403	120.991	256.650	234.913	120.458	125.013	125.927	129.967	260.573	129.419	-8191	255	
2378.717	1	1	0	0	0.26669	0.23538	0.18361	0.34224	0.072057	0.15263	0.24989	0.17016	0.10972	0.15447	0.23081	0.27447	0.32293	0.28981	0.16341	0.22917	-2.5458	-2.7687	-2.725	-3.2729	-2.9333	-2.8583	-3.1271	-2.9729	-2.9104	-3.0104	-2.7167	-3.0917	-2.9938	-2.8063	-3.0833	-2.9042	439.836	113.918	315.734	438.555	121.108	361.227	407.371	358.151	393.380	140.777	121.607	415.595	454.429	129.519	107.525	396.910	0.00055059	0.00027687	0.00010684	1720.8	3.2013e-06	2.6445e-06	1659.4	438.97	6.5572e-06	4.8423e-06	512.17	166.33	147.01	48.957	3.4994e-06	59.337	0.00021365	0.00020723	5.7501e-05	1641	2.2735e-06	2.2596e-06	1587.7	414.96	2.2435e-06	2.2354e-06	451.11	155.39	129.78	45.812	2.2379e-06	54.901	202.505	209.894	191.003	116.655	249.411	272.774	116.430	121.134	220.352	236.374	120.446	125.045	125.543	130.192	227.086	129.319	-8191	255	
2378.813	1	1	0	0	0.060107	0.1814	0.13117	0.20282	0.29881	0.12766	0.26957	0.26185	0.26867	0.15628	0.11569	0.2261	0.35757	0.19808	0.21734	0.16799	-2.4646	-3.1063	-2.6292	-3.2083	-2.8875	-2.9333	-3.1437	-2.9521	-3.0458	-3.1833	-2.8271	-3.2479	-2.8958	-2.8021	-3.0042	-2.9271	443.641	218.712	283.148	446.242	365.668	327.884	425.506	410.097	375.877	451.620	334.070	399.430	422.822	407.750	454.432	417.189	0.00055186	0.00042631	0.00015875	1726.8	3.9963e-06	8.2998e-07	1654.9	438.59	5.0318e-06	5.4189e-06	509.52	165.89	145.85	49.28	2.6477e-06	59.684	0.00021213	0.00020295	5.6292e-05	1642.8	2.2426e-06	2.213e-06	1586.9	415.05	2.2176e-06	2.2076e-06	450.34	155.28	129.29	45.929	2.2275e-06	54.975	194.490	179.502	194.717	116.679	199.642	208.537	116.476	121.203	260.450	217.334	120.347	125.109	125.598	130.332	257.308	129.446	-8191	255	
2378.909	1	1	0	0	0.020676	0.18516	0.11961	0.15723	0.24735	0.18869	0.10981	0.21267	0.23233	0.020713	0.062252	0.18129	0.14274	0.094724	0.15884	0.1987	-2.3542	-3.0229	-2.6917	-3.1021	-2.9417	-2.6	-3.1854	-2.95	-2.8042	-3.0979	-2.85	-3.1562	-3.0563	-2.8146	-2.9917	-2.8583	328.998	451.367	197.744	435.620	366.305	353.279	417.157	405.079	277.623	343.162	239.742	455.803	432.356	147.151	145.206	230.258	0.00060031	0.00078148	9.8346e-05	1717.4	3.9945e-06	5.4055e-06	1655.2	436.71	3.3433e-06	4.0042e-06	511.75	166.23	146.41	49.127	3.6754e-06	59.154	0.0002101	0.00020446	5.6223e-05	1639.6	2.2328e-06	2.2216e-06	1586.3	414.53	2.2189e-06	2.2203e-06	450.47	155.34	129.4	45.78	2.243e-06	54.937	203.696	148.700	113.562	116.721	246.029	225.648	116.516	121.004	242.594	241.955	120.547	125.207	125.824	129.929	321.581	129.448	-8191	255	
2379.005	1	1	0	0	0.23369	0.16917	0.21763	0.69026	0.24704	0.12781	0.30451	0.077734	0.2701	0.10248	0.12119	0.21697	0.20992	0.2521	0.2307	0.16761	-2.4167	-3.1417	-2.6542	-3.1688	-2.9062	-2.7021	-3.2354	-3.2	-2.8167	-3.1875	-2.9333	-3.025	-2.9875	-2.7812	-2.8937	-3.025	192.319	252.860	304.650	439.937	320.477	279.878	353.001	449.051	154.143	434.262	374.001	420.239	435.748	436.053	202.022	362.714	0.00062664	0.00025281	0.00012232	1721.6	4.5582e-06	3.8601e-06	1655.3	438.95	5.4263e-06	6.1184e-06	506.06	166.45	145.52	49.382	6.7058e-06	59.306	0.00021072	0.00020272	5.6487e-05	1640.3	2.2301e-06	2.2152e-06	1588.1	414.61	2.2222e-06	2.2183e-06	449.75	155.48	129.19	45.884	2.23e-06	54.827	209.960	217.441	163.630	116.541	245.996	232.001	116.559	121.139	274.562	248.639	120.516	125.006	125.722	130.213	255.238	129.376	-8191	255	
2379.101	1	1	0	0	0.07278	0.16006	0.078446	0.2741	0.14894	0.28557	0.26301	0.32015	0.14692	0.047802	0.081422	0.25726	0.20355	0.083045	0.24887	0.20943	-2.2979	-3.1562	-2.6521	-2.9875	-3.125	-2.7938	-3.3479	-3.0917	-2.7667	-3.1333	-2.9062	-2.8292	-3.1125	-2.7729	-2.8438	-3.1937	226.589	258.084	178.448	446.516	382.328	408.755	411.690	411.918	415.811	167.153	400.901	377.808	448.616	393.065	270.251	351.582	0.00061736	0.00019554	0.00012217	1725.9	6.105e-07	2.5867e-06	1657.7	438.41	3.6872e-06	2.2287e-06	508.5	165.92	146.26	49.301	2.6022e-06	59.484	0.00020941	0.00020402	5.7074e-05	1640.2	2.2393e-06	2.217e-06	1588	414.28	2.2349e-06	2.2243e-06	449.9	155.21	129.52	45.822	2.2081e-06	54.936	203.322	171.345	212.556	116.511	133.690	170.603	116.571	121.029	249.426	418.484	120.063	125.060	125.803	130.200	217.152	129.438	-8191	255	
2379.222	1	1	0	0	0.085283	0.30283	0.1287	0.22026	0.14733	0.13531	0.40235	0.0431	0.21624	0.2559	0.1243	0.22132	0.16624	0.065438	0.026968	0.17046	-2.3979	-3.0021	-2.7625	-3.1229	-3.0646	-2.8187	-3.1396	-3.1521	-2.7875	-2.9958	-2.9604	-2.925	-3.1708	-2.8438	-2.8042	-3.2083	193.577	386.640	279.647	431.012	301.189	240.737	354.670	380.675	321.649	344.740	211.124	138.342	131.359	197.059	200.873	373.048	0.0005287	0.00031662	9.1739e-05	1722.3	3.5942e-06	4.8509e-06	1656.7	438.34	2.669e-06	1.5166e-06	511.73	165.27	146.47	49.2	3.0309e-06	59.156	0.00020928	0.00020133	5.6422e-05	1641.7	2.2402e-06	2.2393e-06	1585.8	414.59	2.2445e-06	2.2195e-06	450.34	155.1	129.4	45.831	2.2322e-06	54.786	208.352	163.846	195.948	116.694	246.826	269.530	116.458	121.150	278.598	240.016	120.447	124.953	125.711	129.956	256.595	129.525	-8191	255	
2379.316	1	1	0	0	0.18369	0.20949	0.28817	0.30286	0.24085	0.21137	0.094301	0.14286	0.1125	0.30212	0.13776	0.086455	0.20838	0.21668	0.11118	0.22346	-2.3833	-2.9958	-2.8063	-3.0312	-3.2146	-2.6458	-3.0563	-3.1	-2.7687	-3.0792	-2.9313	-2.8208	-2.9917	-2.8667	-2.8083	-3.1	193.243	381.508	147.488	443.823	162.183	184.656	143.845	449.649	299.822	192.479	387.645	152.716	205.981	429.391	445.762	174.439	0.00062872	0.00036204	5.623e-05	1722	3.4335e-06	4.6641e-06	1653.2	437.94	5.3915e-06	1.8182e-07	509.7	165.5	145.97	49.195	4.3456e-06	59.534	0.0002104	0.00020296	5.6657e-05	1638.9	2.2343e-06	2.2286e-06	1586.3	414.47	2.2202e-06	2.2197e-06	450.18	155.08	129.13	45.818	2.2146e-06	54.851	203.465	442.810	191.545	116.711	189.513	248.655	116.694	121.052	273.853	342.309	120.312	124.784	125.601	129.968	240.961	129.462	-8191	255	
2379.412	1	1	0	0	0.064677	0.13503	0.1557	0.32739	0.045312	0.048291	0.34089	0.15267	0.046358	0.059334	0.093654	0.17951	0.1245	0.089914	0.17284	0.053833	-2.3125	-3.0479	-2.9229	-2.6708	-2.9875	-2.9146	-3.1604	-3.0125	-2.8187	-2.9729	-3.0042	-2.675	-3.1104	-3.0979	-2.8479	-3.1167	134.649	452.863	105.293	445.890	207.581	347.235	394.809	402.701	399.791	210.643	243.511	106.255	334.829	259.820	392.260	460.847	0.00057227	0.00031502	0.00013197	1722.7	3.8731e-06	2.4265e-06	1652.9	438.13	5.3081e-06	3.625e-06	509.59	165.29	146.17	49.091	2.5921e-06	59.174	0.00020888	0.00020186	5.6231e-05	1641.4	2.239e-06	2.2168e-06	1585.5	414.47	2.2342e-06	2.215e-06	449.06	154.9	129.07	45.769	2.2214e-06	54.775	207.774	366.331	231.335	116.625	200.747	216.563	116.530	121.090	294.086	216.001	120.202	125.048	125.966	130.342	225.902	129.211	-8191	255	
2379.509	1	1	0	0	0.085516	0.23658	0.15963	0.18231	0.099012	0.2502	0.28667	0.11384	0.15106	0.39096	0.15599	0.0080445	0.33549	0.17805	0.16236	0.086678	-2.2687	-3.05	-2.8667	-3.0563	-3.0417	-3.1688	-3.0354	-3.2354	-2.625	-2.8729	-3.1083	-2.7208	-3.0062	-3.1646	-2.9042	-3.0958	299.774	369.283	256.673	410.159	450.989	430.359	380.780	132.778	307.381	346.168	340.851	316.680	132.200	430.611	182.485	421.802	0.00063384	2.2861e-05	0.00011321	1720	1.8903e-06	5.0234e-06	1659.4	438.96	1.9897e-06	1.729e-06	512.6	166.02	145.71	48.957	4.6868e-06	59.167	0.0002094	0.00020383	5.6446e-05	1638	2.2385e-06	2.2102e-06	1588.2	414.4	2.2228e-06	2.2031e-06	450.97	155	129.01	45.73	2.2183e-06	54.802	201.595	261.383	202.132	116.824	220.791	275.890	116.550	121.112	299.684	241.870	120.390	125.025	125.715	130.037	219.479	129.466	-8191	255	
#DATA ENDS
