BOXY.EXE: ISS Imagent and Oximeter Data Acquisition Program Version 0.80
Ascii Record File

#ACQ INFORMATION
2  Detector Channels 
16  External MUX Channels 
1  Auxiliary Channels 
5000  Waveform (CCF) Frequency (Hz)
1  Waveforms Skipped 
30  Waveforms Averaged 
1  Cycles Averaged 
16  Acquisitions per Waveform 
10.0806  Updata Rate (Hz) 

#FILE INFORMATION
TRUE -- External MUX Channel results are PARSED.
FALSE -- AC DC and Phase are NOT grouped.
TRUE -- Companion Program Settings File CREATED.
FALSE -- AC data not excluded
FALSE -- DC data not excluded
FALSE -- Phase data not excluded
FALSE -- Auxillary Chn. data not excluded
Tab delimiters

#CALIBRATION STATE
TRUE -- Waveform Calibration Values APPLIED.


#AUX CALIBRATION VALUES
Val Type	aux-1	

Term	1.0000e+00	
Factor	0.0000e+00	


#WF CALIBRATION VALUES
A = Detector Channel
Val Type	A-AC1	A-AC2	A-AC3	A-AC4	A-AC5	A-AC6	A-AC7	A-AC8	A-AC9	A-AC10	A-AC11	A-AC12	A-AC13	A-AC14	A-AC15	A-AC16	A-DC1	A-DC2	A-DC3	A-DC4	A-DC5	A-DC6	A-DC7	A-DC8	A-DC9	A-DC10	A-DC11	A-DC12	A-DC13	A-DC14	A-DC15	A-DC16	A-Ph1	A-Ph2	A-Ph3	A-Ph4	A-Ph5	A-Ph6	A-Ph7	A-Ph8	A-Ph9	A-Ph10	A-Ph11	A-Ph12	A-Ph13	A-Ph14	A-Ph15	A-Ph16	

Term	0.00000e+00	0.00000e+00	0.00000e+00	0.00000e+00	0.00000e+00	0.00000e+00	0.00000e+00	0.00000e+00	0.00000e+00	0.00000e+00	0.00000e+00	0.00000e+00	0.00000e+00	0.00000e+00	0.00000e+00	0.00000e+00	0.00000e+00	0.00000e+00	0.00000e+00	0.00000e+00	0.00000e+00	0.00000e+00	0.00000e+00	0.00000e+00	0.00000e+00	0.00000e+00	0.00000e+00	0.00000e+00	0.00000e+00	0.00000e+00	0.00000e+00	0.00000e+00	0.00000e+00	0.00000e+00	0.00000e+00	0.00000e+00	0.00000e+00	0.00000e+00	0.00000e+00	0.00000e+00	0.00000e+00	0.00000e+00	0.00000e+00	0.00000e+00	0.00000e+00	0.00000e+00	0.00000e+00	0.00000e+00	
Factor	1.00000e+00	1.00000e+00	1.00000e+00	1.00000e+00	1.00000e+00	1.00000e+00	1.00000e+00	1.00000e+00	1.00000e+00	1.00000e+00	1.00000e+00	1.00000e+00	1.00000e+00	1.00000e+00	1.00000e+00	1.00000e+00	1.00000e+00	1.00000e+00	1.00000e+00	1.00000e+00	1.00000e+00	1.00000e+00	1.00000e+00	1.00000e+00	1.00000e+00	1.00000e+00	1.00000e+00	1.00000e+00	1.00000e+00	1.00000e+00	1.00000e+00	1.00000e+00	X	X	X	X	X	X	X	X	X	X	X	X	X	X	X	X	

B = Detector Channel
Val Type	B-AC1	B-AC2	B-AC3	B-AC4	B-AC5	B-AC6	B-AC7	B-AC8	B-AC9	B-AC10	B-AC11	B-AC12	B-AC13	B-AC14	B-AC15	B-AC16	B-DC1	B-DC2	B-DC3	B-DC4	B-DC5	B-DC6	B-DC7	B-DC8	B-DC9	B-DC10	B-DC11	B-DC12	B-DC13	B-DC14	B-DC15	B-DC16	B-Ph1	B-Ph2	B-Ph3	B-Ph4	B-Ph5	B-Ph6	B-Ph7	B-Ph8	B-Ph9	B-Ph10	B-Ph11	B-Ph12	B-Ph13	B-Ph14	B-Ph15	B-Ph16	

Term	0.00000e+00	0.00000e+00	0.00000e+00	0.00000e+00	0.00000e+00	0.00000e+00	0.00000e+00	0.00000e+00	0.00000e+00	0.00000e+00	0.00000e+00	0.00000e+00	0.00000e+00	0.00000e+00	0.00000e+00	0.00000e+00	0.00000e+00	0.00000e+00	0.00000e+00	0.00000e+00	0.00000e+00	0.00000e+00	0.00000e+00	0.00000e+00	0.00000e+00	0.00000e+00	0.00000e+00	0.00000e+00	0.00000e+00	0.00000e+00	0.00000e+00	0.00000e+00	-1.28747e+02	-1.33826e+02	-1.28549e+02	-1.80942e+02	-7.62500e+01	-8.09811e+01	-1.54237e+02	-1.62015e+02	-7.58400e+01	-9.44173e+01	-1.75125e+02	-1.69314e+02	-1.81664e+02	-1.76960e+02	-5.94591e+01	-1.48622e+02	
Factor	1.82771e-05	1.44101e-04	3.88608e-05	1.54363e-01	1.25011e-06	1.75893e-06	1.64846e-01	6.58057e-02	1.31588e-06	1.62697e-06	1.48855e-01	2.74170e-02	2.93441e-02	8.95402e-03	1.40154e-06	1.27922e-02	1.80991e-06	1.93471e-06	5.39634e-07	7.75589e-02	2.11008e-08	2.13558e-08	7.78935e-02	3.28511e-02	2.11968e-08	2.13614e-08	7.05007e-02	1.33727e-02	1.48024e-02	4.49870e-03	2.12343e-08	6.21207e-03	X	X	X	X	X	X	X	X	X	X	X	X	X	X	X	X	



#DISTANCE SETTINGS
A = Detector Channel
A-1	A-2	A-3	A-4	A-5	A-6	A-7	A-8	A-9	A-10	A-11	A-12	A-13	A-14	A-15	A-16	

2.5000e+00	3.0000e+00	2.5000e+00	3.0000e+00	2.0000e+00	3.0000e+00	1.5000e+00	3.0000e+00	3.0000e+00	3.0000e+00	3.0000e+00	3.0000e+00	3.0000e+00	3.0000e+00	1.5000e+00	3.0000e+00	

B = Detector Channel
B-1	B-2	B-3	B-4	B-5	B-6	B-7	B-8	B-9	B-10	B-11	B-12	B-13	B-14	B-15	B-16	

1.0000e+01	1.0000e+01	1.0000e+01	1.4400e+00	1.0000e+01	1.0000e+01	1.5100e+00	1.9400e+00	1.0000e+01	1.0000e+01	1.9900e+00	2.4900e+00	2.4100e+00	2.9000e+00	1.0000e+01	2.9800e+00	




#DATA BEGINS
time	group	step	mark	flag	A-AC1	A-AC2	A-AC3	A-AC4	A-AC5	A-AC6	A-AC7	A-AC8	A-AC9	A-AC10	A-AC11	A-AC12	A-AC13	A-AC14	A-AC15	A-AC16	A-DC1	A-DC2	A-DC3	A-DC4	A-DC5	A-DC6	A-DC7	A-DC8	A-DC9	A-DC10	A-DC11	A-DC12	A-DC13	A-DC14	A-DC15	A-DC16	A-Ph1	A-Ph2	A-Ph3	A-Ph4	A-Ph5	A-Ph6	A-Ph7	A-Ph8	A-Ph9	A-Ph10	A-Ph11	A-Ph12	A-Ph13	A-Ph14	A-Ph15	A-Ph16	B-AC1	B-AC2	B-AC3	B-AC4	B-AC5	B-AC6	B-AC7	B-AC8	B-AC9	B-AC10	B-AC11	B-AC12	B-AC13	B-AC14	B-AC15	B-AC16	B-DC1	B-DC2	B-DC3	B-DC4	B-DC5	B-DC6	B-DC7	B-DC8	B-DC9	B-DC10	B-DC11	B-DC12	B-DC13	B-DC14	B-DC15	B-DC16	B-Ph1	B-Ph2	B-Ph3	B-Ph4	B-Ph5	B-Ph6	B-Ph7	B-Ph8	B-Ph9	B-Ph10	B-Ph11	B-Ph12	B-Ph13	B-Ph14	B-Ph15	B-Ph16	aux-1	digaux	

1336.471	1	1	0	768	0.23875	0.34068	0.18874	0.17001	0.14014	0.26578	0.088375	0.19977	0.015189	0.12427	0.24023	0.10741	0.076766	0.26776	0.039501	0.24468	-2.7271	-3.3479	-3.0417	-3.3354	-3.4271	-3.2333	-3.825	-3.4646	-3.1729	-3.5583	-3.4396	-3.5458	-3.6229	-3.2042	-3.3021	-3.4083	131.717	60.544	5.206	134.145	24.075	-49.301	42.396	148.790	133.658	-46.733	-80.563	-94.594	150.878	154.256	-44.749	23.998	0.00048562	0.00071724	0.00013183	1365.2	1.9861e-06	2.6712e-06	1359	367.77	5.4303e-06	7.3283e-06	420.13	139.92	121.4	41.938	7.1019e-06	51.536	0.00051508	0.00051173	0.00014229	1377.3	5.6537e-06	5.6599e-06	1375.7	373	5.6842e-06	5.6409e-06	425.42	142.9	124.14	42.847	5.6743e-06	52.978	-164.445	-14.547	-86.932	-157.619	-31.981	-39.334	-157.969	-153.753	-48.657	-23.596	-153.503	-149.622	-149.231	-144.313	-75.454	-144.937	-8191	255	
1336.567	1	1	0	0	0.22927	0.082955	0.18302	0.29602	0.07059	0.10017	0.22552	0.32041	0.053699	0.20961	0.15954	0.27401	0.1596	0.2044	0.1624	0.17537	-2.7896	-3.4646	-3.1292	-3.5	-3.3958	-3.3708	-3.7188	-3.4458	-3.1875	-3.4979	-3.3417	-3.4208	-3.775	-3.3458	-3.4167	-3.5438	-162.640	29.936	-13.793	158.699	185.747	-93.801	137.503	130.900	-115.860	58.059	-125.458	69.102	124.398	-116.896	-124.838	80.384	0.00052242	0.00074367	8.0889e-05	1362.5	7.2194e-06	8.4918e-06	1351.5	366.62	2.7837e-06	3.7305e-06	419.98	140.27	121.98	42.057	2.5143e-06	51.569	0.00051898	0.00051269	0.000144	1376.3	5.6211e-06	5.6715e-06	1374.6	372.87	5.6264e-06	5.6576e-06	425.42	142.99	124.25	42.909	5.6658e-06	53.052	-162.523	-133.898	-113.596	-157.831	-27.440	-25.546	-158.163	-153.614	-40.849	-58.742	-153.753	-149.666	-149.234	-144.322	-35.423	-145.058	-8191	255	
1336.663	1	1	0	0	0.18295	0.13403	0.26133	0.072273	0.0012941	0.078913	0.42118	0.1798	0.082481	0.2401	0.076788	0.28197	0.17351	0.20249	0.13774	0.25708	-2.8979	-3.8021	-3.3542	-3.6396	-3.7417	-3.2604	-3.6521	-3.6813	-3.1854	-3.5271	-3.4313	-3.4062	-3.6292	-3.4208	-3.6125	-3.5125	-132.518	153.834	67.755	47.457	180.000	-163.465	117.011	-136.580	-19.729	-82.275	-30.745	98.536	-5.347	64.814	-63.952	66.643	0.00044718	0.00020644	0.00010591	1367.8	5.3825e-06	3.3908e-06	1360.5	369.24	3.3206e-06	5.0873e-06	419.03	140.61	121.42	41.885	4.5344e-06	51.841	0.00051415	0.00050968	0.00014449	1375.6	5.6402e-06	5.6758e-06	1376.6	373.27	5.6607e-06	5.5906e-06	424.69	143.19	124.32	42.877	5.5268e-06	53.12	-158.256	-50.609	-94.990	-157.843	-15.951	11.474	-158.136	-153.526	-44.564	-1.512	-153.966	-149.675	-149.438	-144.327	-7.614	-145.175	-8191	255	
1336.759	1	1	0	0	0.059887	0.13484	0.08505	0.12896	0.036695	0.14735	0.39501	0.34414	0.28901	0.047455	0.21539	0.056775	0.060861	0.12727	0.27866	0.29558	-2.9708	-3.5833	-3.2271	-3.3271	-3.5	-3.3312	-3.5292	-3.8708	-3.2208	-3.6562	-3.7229	-3.2687	-3.6583	-3.4333	-3.3479	-3.4542	158.409	53.652	-96.522	135.497	36.872	158.688	114.576	105.593	76.764	39.370	-126.032	88.275	156.936	97.619	24.165	109.704	0.00044151	0.00047785	0.00012483	1362.1	1.2522e-06	4.0728e-06	1355.6	367.82	1.4446e-06	1.2725e-06	419.49	139.5	121.6	42.077	1.6023e-06	51.767	0.00050602	0.00050838	0.00014159	1375.5	5.5991e-06	5.5454e-06	1375.3	372.92	5.574e-06	5.5765e-06	425.73	142.92	124.19	42.877	5.5874e-06	53.048	-155.289	-73.146	-81.909	-157.786	-101.426	-42.018	-158.102	-153.657	-14.487	-80.109	-153.974	-149.818	-149.498	-144.406	-57.849	-145.073	-8191	255	
1336.855	1	1	0	0	0.15195	0.30201	0.18901	0.30631	0.096414	0.21982	0.16909	0.22835	0.22974	0.093497	0.068228	0.11766	0.038659	0.14831	0.084806	0.42773	-2.6333	-3.5042	-3.3979	-3.4062	-3.5438	-3.2917	-3.4083	-3.5646	-3.1417	-3.3458	-3.5333	-3.2042	-3.4896	-3.4521	-3.2687	-3.6542	-160.023	108.736	140.787	123.656	133.868	120.089	57.435	148.414	86.046	-161.979	95.048	174.965	-167.166	0.761	169.771	135.912	0.00049754	0.00028602	0.0001171	1361.7	5.4952e-06	9.7808e-06	1358.4	368.57	9.101e-06	6.4002e-06	421.51	140.75	121.66	42.032	6.0124e-06	51.872	0.00050372	0.0005058	0.00014199	1377.4	5.5756e-06	5.5884e-06	1375.5	373.73	5.5551e-06	5.5891e-06	426.12	143.17	124.27	42.939	5.4917e-06	53.113	-162.518	-116.216	-96.295	-157.693	-51.764	-11.418	-158.152	-153.459	-58.487	-48.419	-153.808	-149.948	-149.356	-144.348	-64.991	-145.025	-8191	255	
1336.952	1	1	0	0	0.11557	0.20742	0.077608	0.25137	0.15791	0.13605	0.26899	0.13772	0.11244	0.10524	0.067365	0.13989	0.047319	0.06794	0.10344	0.27873	-2.7979	-3.2583	-3.3021	-3.3417	-3.6021	-3.3417	-3.4125	-3.8354	-3.2229	-3.4313	-3.6083	-3.3854	-3.6271	-3.5229	-3.2542	-3.6146	176.498	-54.623	180.798	149.416	-139.767	-47.822	107.483	55.946	87.211	187.401	-25.489	120.753	-51.618	105.552	-25.066	61.030	0.00050543	0.0005489	5.1879e-05	1365	2.4112e-06	2.9267e-06	1356.8	368.9	4.3548e-06	6.9277e-06	419.35	140.62	122.19	42.132	2.1613e-06	51.931	0.00050614	0.00050277	0.00013863	1376.2	5.4842e-06	5.5579e-06	1374.4	373.76	5.5096e-06	5.5124e-06	425.63	143.15	124.35	42.955	5.5424e-06	53.115	-156.285	-114.696	-115.069	-157.739	-171.075	-33.745	-158.099	-153.684	-77.008	-106.214	-153.608	-149.670	-149.420	-144.408	-113.316	-145.017	-8191	255	
1337.070	1	1	0	0	0.12547	0.28787	0.031906	0.12222	0.041717	0.16415	0.061212	0.20991	0.038362	0.12926	0.097362	0.18566	0.21261	0.056739	0.13178	0.15615	-2.9917	-3.2229	-3.4938	-3.3104	-3.5146	-3.0979	-3.4562	-3.4958	-3.1688	-3.0646	-3.5646	-3.1396	-3.4854	-3.5854	-3.1813	-3.5833	-131.126	66.062	106.102	149.460	-30.099	-6.761	157.910	105.189	-45.006	172.006	121.113	115.007	186.534	131.484	99.820	184.538	0.00054263	0.00049142	9.907e-05	1366.4	5.3955e-06	8.4773e-06	1357.9	369.4	6.2402e-06	8.0443e-06	420.7	140.4	122.32	42.238	2.7795e-06	51.898	0.00050405	0.00050764	0.00013976	1376.3	5.4856e-06	5.4777e-06	1375.5	373.45	5.4739e-06	5.4933e-06	425.78	143.09	124.44	42.95	5.4899e-06	53.099	-158.538	-71.350	-84.135	-157.893	-60.328	-4.156	-158.137	-153.626	-40.731	-43.371	-153.852	-149.781	-149.265	-144.292	59.019	-144.944	-8191	255	
1337.167	1	1	0	0	0.12234	0.18703	0.07338	0.29425	0.129	0.15081	0.099455	0.12447	0.1643	0.15447	0.17688	0.16939	0.1287	0.2974	0.088313	0.08627	-3.0542	-3.4813	-3.5083	-3.45	-3.4062	-3.3917	-3.3583	-3.6375	-3.4417	-3.3833	-3.7396	-3.4938	-3.5042	-3.6813	-3.425	-3.5854	80.655	-83.104	36.317	113.481	-72.603	102.805	161.582	-96.637	133.285	-65.556	-109.190	170.828	-76.716	76.569	-157.041	93.226	0.00053268	0.00033393	0.00021924	1364.2	8.2737e-06	1.1915e-05	1358.2	369.88	6.6243e-06	5.6838e-06	420.23	140.53	122	42.104	4.1637e-06	51.992	0.00049857	0.00049846	0.00013774	1376.8	5.4311e-06	5.5106e-06	1373.5	373.54	5.4592e-06	5.4684e-06	425.23	143.1	124.38	43.002	5.4383e-06	53.166	-158.810	159.136	-12.657	-157.924	-66.325	-40.643	-158.090	-153.489	-68.546	-2.776	-153.886	-149.769	-149.420	-144.247	7.533	-145.033	-8191	255	
1337.263	1	1	0	0	0.18671	0.015295	0.13878	0.10149	0.13667	0.15921	0.15065	0.18188	0.076279	0.14525	0.077712	0.12545	0.073263	0.27134	0.29802	0.11308	-2.6917	-3.2104	-3.625	-3.4229	-3.3875	-3.5812	-3.3625	-3.5146	-3.225	-3.1146	-3.4708	-3.1646	-3.3958	-3.6271	-3.2042	-3.7854	46.666	-22.093	89.768	115.969	-36.124	-63.033	48.182	174.771	-90.531	-131.120	168.376	151.260	-115.246	-142.477	51.383	74.990	0.00050709	0.0010581	0.00013291	1364.5	5.0518e-06	7.1469e-06	1358.3	368.25	7.1066e-06	1.074e-06	421.34	140.56	122.15	42.139	5.8191e-06	52.027	0.00049659	0.00048916	0.0001369	1375.6	5.4206e-06	5.454e-06	1372.8	372.63	5.4281e-06	5.4704e-06	425.09	142.95	124.43	42.922	5.3467e-06	53.142	-159.489	-57.659	-155.969	-157.709	-60.934	-45.342	-158.275	-153.590	-34.841	-0.607	-153.852	-149.817	-149.468	-144.327	-20.308	-144.897	-8191	255	
1337.359	1	1	0	0	0.085745	0.34128	0.040997	0.1316	0.16374	0.35064	0.11485	0.22639	0.19115	0.061125	0.32792	0.2342	0.24053	0.24186	0.31904	0.14558	-3.1771	-3.1604	-3.4771	-3.2917	-3.0687	-3.4437	-3.3438	-3.5771	-3.5417	-3.1979	-3.7146	-3.4458	-3.2542	-3.625	-3.2521	-3.6021	-42.529	-18.963	35.402	-163.705	5.957	182.685	66.672	-149.388	153.146	54.891	108.157	134.129	143.392	-154.808	105.834	-148.560	0.00049647	0.00021248	0.00018937	1361.9	2.3217e-06	3.7636e-06	1359.5	369.72	4.1296e-06	1.0577e-05	421.9	140.03	122.33	42.145	2.9693e-06	51.876	0.0004917	0.00048707	0.00013675	1374.5	5.4094e-06	5.3727e-06	1374.2	373.15	5.3765e-06	5.3162e-06	425.67	142.71	124.41	42.915	5.3139e-06	53.046	-156.436	-70.569	-65.048	-157.725	-88.755	-33.743	-158.294	-153.651	-14.347	-25.939	-153.586	-149.422	-149.274	-144.634	-90.148	-145.290	-8191	255	
1337.455	1	1	0	0	0.12457	0.2601	0.10467	0.31905	0.16299	0.078215	0.18375	0.055892	0.11117	0.21047	0.22785	0.2975	0.19223	0.078953	0.10366	0.22112	-3.2438	-3.1708	-3.4396	-3.4271	-3.1604	-3.5271	-3.1917	-3.6042	-3.4208	-3.2	-3.4229	-3.4375	-3.1771	-3.6604	-3.2604	-3.55	18.013	81.444	-169.570	138.710	-144.702	141.782	124.070	157.303	-170.963	49.079	-140.786	89.059	-146.567	-116.930	47.007	186.688	0.00045858	0.00029462	0.00015269	1362.7	2.2449e-06	3.9418e-06	1356.3	368.49	3.7534e-06	1.3686e-06	419.99	139.98	121.59	42.043	5.0749e-06	51.532	0.00048438	0.00048918	0.00013544	1374.2	5.3766e-06	5.3186e-06	1373.1	372.85	5.3182e-06	5.2941e-06	425.17	142.95	124.07	42.887	5.3368e-06	52.927	-170.204	-65.637	-118.754	-157.905	-51.236	-48.681	-158.147	-153.491	-38.084	-1.049	-153.794	-149.548	-149.469	-144.295	4.955	-145.091	-8191	255	
1337.551	1	1	0	0	0.38101	0.24993	0.20012	0.23222	0.2219	0.041937	0.28817	0.20204	0.061898	0.12975	0.051304	0.15315	0.16008	0.30507	0.21724	0.18562	-3.0375	-3.1271	-3.1917	-3.3375	-3.2458	-3.5583	-3.5771	-3.5187	-3.4521	-3.2271	-3.4167	-3.5083	-3.4021	-3.6167	-3.2917	-3.2958	-19.050	8.579	180.599	113.468	-113.867	-23.012	80.604	157.425	-134.524	142.512	-160.211	-111.680	-146.117	-158.342	173.640	-114.581	0.00048449	0.0006519	0.00014104	1361	4.0348e-06	6.3898e-06	1359.2	369.47	2.4724e-06	2.0273e-06	419.14	140.39	121.79	41.996	9.766e-07	51.622	0.00048795	0.00048102	0.0001353	1372.8	5.3872e-06	5.2975e-06	1373.6	373.24	5.3324e-06	5.303e-06	424.73	142.95	124.17	42.889	5.3183e-06	53.038	-167.870	-91.206	-66.463	-157.806	-114.440	-32.197	-157.943	-153.490	-40.922	-20.771	-153.343	-149.637	-149.481	-144.345	-26.914	-145.113	-8191	255	
1337.672	1	1	0	0	0.060276	0.059507	0.13968	0.48375	0.25457	0.060242	0.42184	0.14076	0.1684	0.091482	0.22406	0.16173	0.27052	0.16574	0.20842	0.25874	-3.0667	-3.0438	-3.5292	-3.4604	-2.9667	-3.3646	-3.375	-3.2354	-3.3208	-3.1625	-3.4292	-3.5875	-3.2417	-3.625	-3.4188	-3.5187	-142.347	-79.610	-108.823	120.337	160.258	143.392	102.920	178.923	-3.042	-137.793	167.681	-141.616	-91.536	-168.576	-51.098	142.650	0.00047224	0.00047715	2.3832e-05	1362.8	7.2847e-06	9.1505e-06	1359.9	367.99	3.7915e-06	8.9357e-07	419.83	140.21	121.55	42.157	5.0626e-06	51.793	0.00048149	0.00048258	0.00013409	1373.1	5.268e-06	5.3495e-06	1372.3	372.6	5.2656e-06	5.3825e-06	423.85	142.96	124.04	42.966	5.2775e-06	52.987	-160.555	-53.059	131.053	-157.819	-64.851	-32.749	-158.107	-153.481	1.492	-32.400	-153.833	-149.716	-149.211	-144.455	-17.889	-145.310	-8191	255	
1337.768	1	1	0	0	0.01239	0.076195	0.09634	0.26815	0.14572	0.18274	0.40473	0.29174	0.15096	0.11301	0.24752	0.11114	0.19501	0.26561	0.061564	0.29623	-3.0771	-3.0458	-3.4479	-3.8083	-3.0292	-3.4896	-3.425	-3.2062	-3.5687	-3.3688	-3.425	-3.7333	-3.2562	-3.5417	-3.2333	-3.3271	170.013	-73.247	40.084	125.194	79.055	86.801	147.683	-169.478	13.777	184.330	-171.196	78.872	-122.464	112.430	82.160	89.842	0.00045128	0.00018713	0.00019424	1359	4.246e-06	9.8035e-06	1351.8	367.26	1.7566e-06	8.0011e-06	418.99	140.39	122.3	42.093	4.4756e-06	51.8	0.00048668	0.00048477	0.00013527	1372.3	5.2649e-06	5.3019e-06	1371.5	371.77	5.2712e-06	5.2726e-06	424.38	143.01	124.22	42.977	5.3109e-06	53.123	-160.501	168.073	-117.174	-157.754	-65.639	-35.710	-158.141	-153.338	-1.593	-79.807	-154.191	-149.738	-149.526	-144.125	45.720	-144.807	-8191	255	
1337.864	1	1	0	0	0.17929	0.11809	0.15441	0.29698	0.15877	0.10618	0.30963	0.14831	0.11571	0.26286	0.17569	0.095197	0.22024	0.3044	0.10173	0.30039	-3.05	-3.125	-3.3417	-3.6562	-3.0833	-3.5312	-3.5208	-3.2354	-3.4854	-3.3708	-3.1604	-3.55	-3.2646	-3.6146	-3.5458	-3.1875	172.745	70.220	-65.532	159.810	-22.977	184.224	115.225	-152.386	170.218	139.049	180.407	121.813	33.068	112.692	-41.637	125.443	0.00049209	0.00041343	5.8084e-05	1371.3	5.6298e-06	6.0018e-06	1355.3	367.73	5.5833e-06	4.4037e-06	421.75	140.21	121.61	42.166	3.8025e-06	51.962	0.0004873	0.00049049	0.00013552	1378.5	5.3031e-06	5.4194e-06	1374.4	373.47	5.4591e-06	5.4446e-06	426.08	143.13	124.32	42.957	5.4045e-06	53.189	-151.041	-101.091	-15.044	-157.703	-30.144	-18.492	-158.250	-153.375	-82.778	-84.802	-153.593	-149.590	-149.580	-144.396	26.003	-145.119	-8191	255	
1337.958	1	1	0	0	0.0073197	0.10447	0.12173	0.031932	0.25568	0.042103	0.086206	0.10359	0.13549	0.085179	0.28747	0.12859	0.29082	0.22915	0.082971	0.1983	-3.0187	-3.0604	-3.1917	-3.7854	-3.1229	-3.0438	-3.5771	-3.225	-3.4292	-3.3729	-3.225	-3.5979	-3.2083	-3.3875	-3.3271	-3.1625	142.996	95.008	-1.803	110.060	151.326	-53.691	178.051	110.563	-39.847	138.414	72.924	-46.190	135.377	-92.082	-56.332	115.086	0.00045541	0.00045066	9.3165e-05	1365.6	5.5889e-06	1.9638e-06	1356	369.18	9.1016e-06	6.2978e-06	419.93	140.89	122.11	42.148	6.1074e-06	51.873	0.00049583	0.00048647	0.00013702	1375.3	5.42e-06	5.4027e-06	1373.3	373.29	5.3963e-06	5.4547e-06	424.94	143.01	124.45	42.912	5.519e-06	53.171	-155.110	-123.241	-76.553	-157.798	12.848	-1.528	-158.118	-153.444	-92.741	-29.389	-153.676	-149.700	-149.319	-144.282	-29.256	-145.108	-8191	255	
1338.032	1	1	0	0	0.43574	0.029725	0.28017	0.17937	0.22172	0.097578	0.1401	0.15972	0.13874	0.22136	0.16682	0.21603	0.25527	0.29121	0.053236	0.09324	-3.0458	-3.3208	-3.2458	-3.6333	-3	-3.1146	-3.4271	-3.3187	-3.5979	-3.55	-3.0771	-3.6521	-3.3458	-3.4917	-3.5187	-3.1521	138.203	168.095	-163.475	-153.397	-124.708	178.620	-170.209	105.861	-94.389	1.003	-11.281	151.974	179.951	-157.935	-43.086	135.257	0.00048512	0.00062751	0.00014476	1360.7	6.0195e-06	4.0715e-06	1355.7	368.56	4.1528e-06	6.0094e-06	421.15	140.13	121.8	41.991	4.7631e-06	51.922	0.00050546	0.00050686	0.00014142	1374.3	5.5389e-06	5.5816e-06	1374.6	373.05	5.5836e-06	5.5606e-06	425.92	143	124.22	42.926	5.5685e-06	53.15	-164.018	-112.943	-133.313	-157.786	-13.927	-29.037	-158.243	-153.762	-20.374	22.652	-154.061	-149.720	-149.271	-144.319	-23.768	-144.932	-8191	255	
1338.151	1	1	0	0	0.04475	0.21846	0.21285	0.25939	0.15687	0.20975	0.11699	0.13805	0.19513	0.42548	0.08331	0.21181	0.13461	0.18468	0.040432	0.10564	-3.0521	-3.3333	-3.2042	-3.675	-3.0687	-3.0646	-3.7417	-3.35	-3.3542	-3.3396	-3.1625	-3.6146	-3.4375	-3.5125	-3.5687	-3.4229	85.836	154.999	68.774	-148.554	-122.635	105.861	149.693	124.517	-41.675	154.387	-128.131	155.510	157.381	116.737	96.232	165.955	0.00047496	0.00081092	0.00011375	1366.1	3.7786e-06	5.083e-06	1359.2	367.75	4.9856e-06	3.5322e-06	421.14	139.87	121.96	42.103	5.9425e-06	51.693	0.00051023	0.00051199	0.00014223	1377.2	5.5946e-06	5.5572e-06	1375.3	372.57	5.6152e-06	5.5694e-06	425.31	142.96	124.25	42.95	5.4687e-06	52.988	-157.237	-101.874	-74.619	-157.903	11.711	-7.128	-158.340	-153.605	-13.067	-10.596	-153.732	-149.650	-149.285	-144.327	-111.183	-145.059	-8191	255	
1338.247	1	1	0	0	0.13843	0.16761	0.089686	0.44639	0.068305	0.12793	0.18271	0.22395	0.063926	0.022281	0.08325	0.18698	0.21714	0.1092	0.094853	0.068987	-2.9021	-3.2938	-3.1271	-3.6458	-3.4021	-3.2417	-3.7417	-3.5	-3.3958	-3.525	-3.2542	-3.5375	-3.3104	-3.2854	-3.4042	-3.3333	108.387	-91.428	-12.007	176.506	-58.585	-37.122	133.609	145.106	181.023	-160.664	-106.402	177.199	172.409	94.982	-49.318	95.522	0.00047662	0.00022924	0.00016593	1365.9	3.4277e-06	3.4321e-06	1357.9	368.76	3.6194e-06	2.5367e-06	420.27	140.07	121.75	42.035	5.5167e-06	51.957	0.00050135	0.00049884	0.00013874	1378.7	5.5247e-06	5.5791e-06	1376.3	373.62	5.5279e-06	5.5125e-06	424.98	142.99	124.36	42.939	5.5668e-06	53.067	-157.069	-34.915	-79.450	-157.813	11.884	-48.046	-157.949	-153.485	-46.942	-35.798	-153.915	-149.739	-149.415	-144.160	-20.470	-145.048	-8191	255	
1338.343	1	1	0	0	0.25019	0.22937	0.11553	0.14466	0.1861	0.072088	0.1739	0.11733	0.1169	0.17052	0.14385	0.22312	0.14027	0.17019	0.19434	0.29235	-2.8812	-3.225	-3.1437	-3.6854	-3.5417	-3.1896	-3.4354	-3.3271	-3.3083	-3.4813	-3.1646	-3.4729	-3.5875	-3.2771	-3.525	-3.2292	-86.784	55.200	-129.472	-153.402	-40.510	4.361	73.034	153.886	37.693	97.006	73.876	167.087	-0.190	136.857	-163.420	122.791	0.00048189	0.00084767	0.00024797	1363	4.8045e-06	4.2809e-06	1355	368.79	6.5983e-06	8.2519e-06	416.93	140.4	122.02	41.905	3.849e-06	51.72	0.00050581	0.00050589	0.00014007	1377.3	5.5646e-06	5.5605e-06	1372.7	372.56	5.6203e-06	5.7023e-06	424.84	143.13	124.38	42.896	5.769e-06	53.132	-158.996	-75.578	-62.385	-157.732	-43.382	-20.538	-158.107	-153.537	-48.640	-48.667	-153.630	-149.488	-149.420	-144.289	-5.151	-144.838	-8191	255	
1338.439	1	1	0	0	0.1198	0.1453	0.16342	0.30966	0.072214	0.17989	0.38121	0.091857	0.060246	0.22588	0.25279	0.17033	0.33385	0.10955	0.18245	0.18258	-2.9	-3.4146	-3.2021	-3.7479	-3.4979	-3.1854	-3.7854	-3.5396	-3.3792	-3.5042	-3.1208	-3.5417	-3.3229	-3.1292	-3.3542	-3.5062	-12.303	41.402	-83.647	128.340	1.803	5.951	137.465	104.221	17.529	-108.506	156.160	-142.754	-125.282	165.824	-125.924	135.061	0.00044664	0.00083752	0.00013178	1366	4.7652e-06	5.4897e-06	1355	369.5	2.6675e-06	3.6954e-06	420.08	139.85	121.3	42.13	3.3768e-06	51.841	0.00052537	0.00052824	0.00014561	1377.1	5.691e-06	5.7567e-06	1373.3	373.27	5.6853e-06	5.6138e-06	425.1	142.92	124.12	42.944	5.693e-06	53.15	-163.284	-103.575	-12.864	-157.844	-26.752	-4.716	-158.198	-153.510	-30.308	-93.849	-153.972	-149.723	-149.314	-144.427	-88.535	-145.061	-8191	255	
1338.560	1	1	0	0	0.11393	0.053748	0.33793	0.25495	0.13873	0.30526	0.20998	0.19015	0.095705	0.13586	0.18881	0.088266	0.093457	0.022528	0.20655	0.21424	-2.9313	-3.6792	-3.0917	-3.5833	-3.5292	-3.2021	-3.6708	-3.4354	-3.1458	-3.5604	-3.0729	-3.3417	-3.6333	-3.1958	-3.4958	-3.5771	69.040	156.984	-144.724	162.098	61.867	78.891	64.140	73.937	109.097	26.175	47.340	63.591	-151.162	-66.693	-41.333	150.970	0.00045357	0.00067409	0.00010144	1361.5	6.1523e-07	5.0647e-06	1351	367.18	4.4292e-06	3.2554e-06	419.54	139.84	121.36	42.015	1.2129e-06	51.603	0.00052579	0.00052302	0.00014772	1373.9	5.7488e-06	5.8245e-06	1372.6	372.42	5.8553e-06	5.9294e-06	426.12	142.88	124.42	42.958	5.9437e-06	53.092	-165.352	-93.482	-85.325	-157.789	-145.135	-116.159	-158.238	-153.430	-128.132	-70.843	-154.071	-149.578	-149.293	-144.421	52.804	-145.077	-8191	255	
1338.632	1	1	0	0	0.18656	0.081357	0.18797	0.36192	0.2104	0.17601	0.14277	0.20495	0.20408	0.18721	0.16311	0.080575	0.34105	0.072867	0.099941	0.095851	-2.6875	-3.4833	-3.2687	-3.5208	-3.4437	-3.3375	-3.6896	-3.4062	-3.1458	-3.6521	-3.4042	-3.525	-3.5563	-3.2438	-3.5271	-3.6417	3.877	-25.445	68.744	155.285	-133.684	-153.812	87.194	92.130	148.805	35.494	165.363	99.170	180.427	158.462	39.310	132.079	0.00050936	0.00055472	0.00021002	1363.2	4.5084e-06	8.6278e-06	1357.3	369.04	6.5118e-06	3.9492e-06	418.55	139.61	121.08	42.006	2.4527e-06	51.595	0.00053921	0.00054452	0.0001506	1377.2	5.9322e-06	5.9799e-06	1374.5	373.48	5.9323e-06	5.8714e-06	426.2	142.85	124.06	42.881	5.8794e-06	53.025	-165.056	-62.503	-98.118	-157.595	-83.227	-75.551	-158.233	-153.722	-71.956	-81.115	-153.794	-149.736	-149.173	-144.454	-5.609	-144.959	-8191	255	
1338.752	1	1	0	0	0.15309	0.20066	0.14887	0.20845	0.16539	0.3867	0.27397	0.25206	0.11229	0.1678	0.30629	0.25984	0.34046	0.042078	0.041498	0.076149	-2.8688	-3.3958	-3.3771	-3.4917	-3.5083	-3.175	-3.3063	-3.4458	-3.2083	-3.6188	-3.2812	-3.2104	-3.5563	-3.575	-3.3812	-3.5625	120.232	126.467	67.149	180.337	20.029	2.124	140.381	-141.088	29.404	172.249	180.888	-170.075	-164.646	-160.220	140.579	-122.736	0.00045826	0.00049562	5.3837e-05	1362	4.792e-06	1.0133e-05	1351	367.28	6.5385e-06	5.8388e-06	419.3	139.93	121.68	41.846	1.6559e-06	51.536	0.00052828	0.0005328	0.00014731	1373.2	5.8174e-06	5.9314e-06	1371.2	373.49	5.9561e-06	5.9371e-06	426.41	142.87	124.13	42.814	5.9362e-06	53.146	-161.852	-31.875	5.170	-157.720	-83.111	-49.061	-158.178	-153.452	-66.169	-50.985	-153.739	-149.433	-149.329	-144.572	16.254	-145.225	-8191	255	
1338.848	1	1	0	0	0.053191	0.21862	0.19294	0.1256	0.1719	0.17286	0.27194	0.15892	0.19007	0.17782	0.036789	0.16123	0.27589	0.13693	0.093638	0.015053	-2.6917	-3.4646	-3.3208	-3.5354	-3.5938	-3.2438	-3.5542	-3.6208	-3.1083	-3.5187	-3.325	-3.1354	-3.6312	-3.3583	-3.3542	-3.8208	-61.815	29.343	-52.249	165.876	-134.377	-87.254	167.016	176.400	-37.223	112.086	-46.918	-16.209	163.645	186.658	-132.906	-118.920	0.00052398	0.00057244	0.00011664	1360.2	2.6456e-06	8.1921e-06	1357.7	368.16	2.3668e-06	4.4667e-06	420.72	139.78	121.53	42.058	6.9136e-06	51.632	0.00053798	0.00053982	0.00015014	1374.8	5.826e-06	5.942e-06	1375	373.13	5.8983e-06	5.8615e-06	425.55	143.04	124.46	42.949	5.8635e-06	53.043	-160.813	-104.974	-80.686	-157.803	-94.338	-45.496	-158.117	-153.499	4.825	-78.422	-153.960	-149.843	-149.282	-144.353	-22.300	-145.288	-8191	255	
1338.944	1	1	0	0	0.11375	0.06223	0.13747	0.059238	0.16543	0.17503	0.067796	0.061335	0.22023	0.053253	0.091025	0.28571	0.09255	0.2768	0.069001	0.095709	-2.8521	-3.3937	-3.3208	-3.3271	-3.3583	-3.3812	-3.6396	-3.7792	-3.2833	-3.5271	-3.4375	-2.9313	-3.4917	-3.3208	-3.3208	-3.7646	-12.915	-12.527	86.472	60.827	62.711	-10.509	115.535	122.924	183.508	24.482	-40.503	177.805	113.770	129.496	94.731	-148.716	0.0004946	0.00066089	5.1222e-05	1367.4	2.2743e-06	1.1532e-06	1353.8	369.09	4.4927e-06	4.4993e-06	419.38	140.59	122.17	42.158	1.6422e-06	51.911	0.00053199	0.00053373	0.00014875	1378.9	5.8869e-06	5.8816e-06	1375.8	373.96	5.8988e-06	5.9421e-06	427.71	143.41	125.03	43.043	5.9071e-06	53.219	-159.171	-60.230	-59.608	-157.823	-89.224	-99.081	-157.895	-153.485	-49.765	-82.663	-153.635	-149.545	-149.254	-144.542	31.776	-145.018	-8191	255	
1339.041	1	1	0	0	0.072796	0.24128	0.019253	0.18016	0.17639	0.15092	0.20539	0.19817	0.16967	0.087568	0.27809	0.21068	0.11428	0.18696	0.013562	0.26878	-2.9083	-3.2146	-3.425	-3.3104	-3.4083	-3.1792	-3.2333	-3.5542	-3.2104	-3.3312	-3.6229	-3.5167	-3.3646	-3.2646	-3.1458	-3.8125	-0.323	-118.380	-120.620	125.850	52.540	64.922	182.770	187.177	47.528	-71.513	-144.221	169.337	170.698	-33.594	77.183	122.761	0.00052308	0.00023904	0.00013358	1370.2	4.2866e-06	5.5763e-06	1357.8	368.05	5.999e-06	9.4995e-06	422.43	140.27	122.29	41.889	4.0439e-06	51.948	0.00053219	0.00053772	0.00015065	1380.6	5.8975e-06	5.9074e-06	1378.4	374.69	5.9118e-06	5.9424e-06	428.35	143.37	125.38	42.973	5.8874e-06	53.252	-159.914	131.400	-92.981	-157.736	-32.463	10.273	-158.118	-153.610	-47.608	-36.961	-153.545	-149.791	-149.329	-144.274	-15.770	-144.875	-8191	255	
1339.159	1	1	0	0	0.24025	0.32045	0.14882	0.12767	0.21851	0.15471	0.095496	0.21725	0.1607	0.22016	0.14309	0.18498	0.24461	0.33025	0.23315	0.052931	-2.8896	-3.2271	-3.5167	-3.3	-3.4354	-3.3458	-3.3208	-3.6479	-3.3438	-3.2708	-3.5333	-3.3042	-3.5104	-3.3688	-3.1	-3.3958	-90.510	180.986	-8.192	-169.068	-4.414	145.986	66.202	148.410	-144.943	-96.434	-122.215	167.985	133.532	-163.435	119.406	-132.715	0.00049888	0.00063582	0.00021338	1369.4	2.8012e-06	4.8341e-06	1361.1	369.08	3.0794e-06	5.9527e-06	421.56	140.16	122.8	41.973	7.3083e-06	51.799	0.00054028	0.00053407	0.00015125	1381.2	5.9577e-06	5.983e-06	1378.8	374.32	6.0585e-06	6.0525e-06	427.61	143.45	125.45	42.984	6.1552e-06	53.27	-155.300	-108.634	-64.791	-157.781	-85.931	-66.108	-158.230	-153.416	-3.992	-57.913	-154.057	-149.779	-149.333	-144.391	-58.374	-144.940	-8191	255	
1339.256	1	1	0	0	0.26562	0.15735	0.081806	0.12679	0.14496	0.1071	0.13476	0.14644	0.1717	0.073095	0.018506	0.099966	0.30831	0.17862	0.12527	0.19776	-2.6958	-3.0896	-3.475	-3.2021	-3.2792	-3.3937	-3.4667	-3.6625	-3.3083	-3.1729	-3.5104	-3.0146	-3.2521	-3.3708	-3.2687	-3.5979	43.945	177.139	-98.078	-166.052	-84.171	45.197	140.916	59.429	-76.677	-131.413	-116.598	144.963	-168.984	-161.639	180.123	110.309	0.00049836	0.00038106	0.00020027	1370.6	4.5761e-06	7.944e-06	1361.4	369.81	8.4386e-06	3.3313e-06	421.59	140.78	123.4	42.297	3.1201e-06	51.987	0.00055663	0.00055939	0.0001568	1384	6.1847e-06	6.1872e-06	1381.3	375.43	6.2411e-06	6.1804e-06	427.81	143.9	125.74	43.124	6.1826e-06	53.347	-157.764	-65.507	-36.082	-157.877	-49.647	-36.912	-158.126	-153.600	-55.300	-97.304	-153.847	-149.830	-149.445	-144.198	-0.017	-145.158	-8191	255	
1339.327	1	1	0	0	0.27202	0.10147	0.27214	0.22808	0.17408	0.35591	0.25272	0.051108	0.13128	0.093763	0.24565	0.18373	0.23944	0.25531	0.38039	0.18247	-2.7812	-3.1646	-3.5458	-3.4229	-3.3854	-3.4938	-3.2062	-3.45	-3.2958	-3.2604	-3.6542	-3.3812	-3.4667	-3.6458	-3.0854	-3.475	-29.579	78.182	0.674	99.578	-32.673	-65.250	75.812	-87.585	180.972	28.831	183.215	-140.101	-147.502	-8.167	141.120	-78.349	0.00049576	0.00065343	0.00012552	1375.6	2.6981e-06	5.9265e-06	1362.2	369.29	2.686e-06	2.6279e-06	420.93	140.92	122.97	42.071	4.8888e-06	52.03	0.00055846	0.00055804	0.00015644	1386.9	6.146e-06	6.1806e-06	1384.8	375.76	6.247e-06	6.3445e-06	428.5	144.09	126.17	43.187	6.4819e-06	53.51	-162.340	-62.187	-95.323	-158.010	-54.388	-59.395	-158.201	-153.761	-44.858	-85.506	-153.633	-149.562	-149.084	-144.411	61.316	-144.940	-8191	255	
1339.448	1	1	0	0	0.12722	0.046521	0.24048	0.24243	0.29505	0.15631	0.24646	0.21518	0.24134	0.20421	0.14162	0.099912	0.26104	0.19699	0.23586	0.19314	-2.9896	-3.1583	-3.4667	-3.2687	-3.2292	-3.5687	-3.5271	-3.3208	-3.3146	-3.175	-3.5187	-3.4646	-3.2625	-3.6396	-3.3875	-3.5125	-168.257	-83.430	40.608	136.679	106.437	-123.003	166.769	137.933	-11.265	-29.204	-25.641	-116.980	-154.642	185.661	-47.193	173.716	0.00050229	0.00086078	0.00021644	1379.9	6.7584e-06	5.2824e-06	1367.7	369.69	4.4461e-06	9.6403e-06	423.42	141.07	123.4	42.423	2.303e-06	51.876	0.00059351	0.0006002	0.00016755	1393.8	6.6942e-06	6.6458e-06	1391.1	376.58	6.697e-06	6.7298e-06	431.11	144.68	126.52	43.511	6.7361e-06	53.722	-167.493	-53.290	-68.241	-157.669	-57.350	-54.406	-158.209	-153.683	-24.879	-62.178	-153.893	-149.804	-149.460	-144.296	55.085	-144.976	-8191	255	
1339.544	1	1	0	0	0.1091	0.20415	0.0987	0.045122	0.19573	0.19974	0.088619	0.08947	0.041817	0.17317	0.19386	0.36662	0.065575	0.22368	0.07954	0.21548	-3.0542	-3.1167	-3.5396	-3.3125	-3.1375	-3.6417	-3.375	-3.6479	-3.3854	-3.1104	-3.5292	-3.5604	-3.1667	-3.4854	-3.1479	-3.2292	-159.370	-90.144	-34.063	110.912	-51.328	46.606	86.775	-54.285	-169.306	-71.319	-49.632	128.805	-71.844	130.863	-28.071	75.022	0.00051141	0.00060137	0.00019536	1377.3	4.2107e-06	9.0133e-06	1369	370.02	4.8822e-06	6.5269e-06	422.26	141.25	122.62	42.332	8.2707e-06	51.826	0.00061225	0.00061641	0.00017366	1394.2	6.7503e-06	6.7341e-06	1392.1	377.2	6.7778e-06	6.7889e-06	430.26	144.78	126.31	43.437	6.7838e-06	53.653	-159.813	-115.032	-40.884	-157.839	-51.942	-74.583	-158.067	-153.493	-96.881	-117.358	-153.615	-149.632	-149.514	-144.455	-12.412	-145.093	-8191	255	
1339.640	1	1	0	0	0.20162	0.069512	0.13328	0.13235	0.0053148	0.11062	0.23439	0.10319	0.26546	0.20739	0.14676	0.22839	0.45128	0.16481	0.079971	0.18873	-3.0771	-3.0042	-3.4062	-3.5417	-3.2313	-3.6875	-3.4688	-3.3583	-3.375	-3.0167	-3.4625	-3.4396	-3.3021	-3.6688	-3.3771	-3.4688	-36.659	33.550	28.573	148.159	43.184	138.212	76.601	92.709	-112.899	18.232	114.048	161.695	148.352	143.786	56.628	-25.896	0.00049068	0.00055466	9.4949e-05	1376.7	2.1396e-06	1.4021e-06	1364.9	369.14	5.5996e-06	6.6859e-06	420.82	140.7	122.73	42.174	5.911e-06	52.084	0.00060895	0.00060477	0.0001696	1393.3	6.5943e-06	6.5728e-06	1387.9	376.12	6.5374e-06	6.5311e-06	429.68	144.32	126.14	43.316	6.4104e-06	53.572	-156.001	-100.917	-122.067	-157.869	-56.006	-8.700	-158.173	-153.637	-74.270	-26.970	-153.775	-149.750	-149.223	-144.219	-38.641	-145.125	-8191	255	
1339.736	1	1	0	0	0.03429	0.029044	0.0045722	0.29817	0.22149	0.26524	0.29996	0.27689	0.1713	0.1698	0.11226	0.094893	0.23746	0.083317	0.022983	0.098804	-3.1396	-2.9583	-3.3167	-3.4083	-2.8208	-3.425	-3.3583	-3.3312	-3.3542	-3.0563	-3.3917	-3.6479	-3.3208	-3.5708	-3.4667	-3.2729	-42.526	151.574	67.050	158.463	-4.338	47.959	99.680	-169.441	-82.730	47.888	-167.587	85.413	138.407	174.890	-25.826	121.380	0.00046546	0.00064893	0.00017205	1378.9	3.5584e-06	4.306e-06	1364.4	369.97	6.5605e-06	3.656e-06	419.08	140.82	122.94	42.215	4.8026e-06	51.958	0.00058436	0.00058134	0.00016326	1390.1	6.3581e-06	6.4456e-06	1384.6	375.75	6.4522e-06	6.4447e-06	427.75	144.15	126.22	43.279	6.4334e-06	53.563	-159.827	-122.974	-90.717	-157.740	-118.908	-67.556	-158.050	-153.439	-91.963	-91.749	-153.666	-149.670	-149.369	-144.343	-21.469	-144.975	-8191	255	
1339.855	1	1	0	0	0.14093	0.077373	0.17357	0.46271	0.18507	0.11306	0.21494	0.26153	0.32351	0.11965	0.15426	0.25654	0.159	0.10046	0.25156	0.090383	-3.1875	-2.8792	-3.0708	-3.5333	-3.0396	-3.4333	-3.4396	-3.3708	-3.6813	-3.3021	-3.5167	-3.6271	-3.2167	-3.625	-3.4146	-3.0958	120.077	-85.581	-151.115	179.893	36.704	-64.033	131.700	114.474	-127.642	-104.023	-54.145	93.148	126.043	-138.858	-52.337	56.906	0.00048301	0.00015648	6.5949e-05	1374.1	2.1774e-06	4.8985e-06	1359.7	368.38	6.5506e-06	6.6041e-06	422.23	141.08	123.05	42.183	4.9792e-06	51.928	0.00058454	0.00058414	0.00016315	1386.5	6.3803e-06	6.3203e-06	1382.1	374.95	6.2333e-06	6.2824e-06	428.15	144.07	125.75	43.251	6.244e-06	53.437	-164.751	9.106	-92.614	-157.654	-39.543	-11.433	-158.023	-153.493	-65.498	-49.758	-153.761	-149.713	-149.226	-144.671	38.678	-145.065	-8191	255	
1339.929	1	1	0	0	0.23996	0.15611	0.18597	0.26896	0.18975	0.21548	0.23767	0.17743	0.20855	0.23245	0.16334	0.17786	0.26349	0.39643	0.21664	0.20834	-3.1167	-3.2875	-3.3729	-3.7083	-3.2833	-3.65	-3.7104	-3.2208	-3.625	-3.4833	-3.3208	-3.6688	-3.3937	-3.5896	-3.2833	-3.2812	123.016	-142.312	-123.373	72.489	-161.588	63.874	120.292	29.427	13.409	-130.858	81.141	72.463	-98.513	187.563	101.332	73.736	0.00045182	0.00027341	0.00018257	1371.8	3.3573e-06	7.2913e-06	1361.8	369.37	5.5702e-06	5.6196e-06	421.85	141.17	122.79	42.472	6.4085e-06	52.153	0.00056059	0.00056846	0.00015726	1383.3	6.2017e-06	6.1893e-06	1380.6	374.95	6.1514e-06	6.1786e-06	428.02	143.98	125.89	43.343	6.1606e-06	53.529	-162.917	-101.655	-68.778	-157.747	-46.955	-115.127	-158.067	-153.446	-65.070	-72.588	-153.535	-149.811	-149.346	-144.268	-41.342	-145.266	-8191	255	
1340.025	1	1	0	0	0.14596	0.035992	0.093733	0.25492	0.020715	0.057513	0.46424	0.28262	0.19643	0.28543	0.13566	0.22689	0.23214	0.29601	0.10945	0.29286	-3.2125	-3.3854	-3.3063	-3.6854	-3.3021	-3.5354	-3.5875	-3.1625	-3.4	-3.2687	-3.2667	-3.7	-3.3667	-3.5312	-3.5417	-3.3667	-71.059	-51.836	139.001	123.309	140.244	-28.879	115.940	165.702	-113.739	-149.263	-128.567	107.671	-130.574	157.503	114.680	150.869	0.00047496	0.00046285	3.4208e-05	1370.2	4.6304e-06	9.5061e-06	1359.6	368.12	3.4646e-06	8.7758e-06	420.11	140.7	123.12	42.231	3.7252e-06	52.169	0.00055595	0.00056128	0.00015412	1383.7	6.1266e-06	6.133e-06	1379.6	374.07	6.1821e-06	6.24e-06	428.38	144	125.91	43.249	6.2672e-06	53.592	-160.269	-144.544	-97.282	-157.787	-62.013	-12.740	-158.149	-153.660	-58.047	-33.106	-153.651	-149.649	-149.519	-144.233	-52.180	-144.874	-8191	255	
1340.121	1	1	0	0	0.13338	0.13225	0.31369	0.36944	0.30973	0.21543	0.45634	0.2284	0.16778	0.17021	0.30275	0.10926	0.26072	0.20872	0.28326	0.099333	-3.1833	-3.3792	-3.2625	-3.6937	-3.2083	-3.3667	-3.7062	-3.3125	-3.2812	-3.4062	-3.0396	-3.5292	-3.475	-3.3688	-3.4958	-3.3438	-156.108	-141.746	-3.044	-164.023	146.648	-42.704	127.499	-115.466	72.661	-65.257	-60.133	126.132	134.380	103.600	110.748	72.608	0.0004482	7.1704e-05	7.9419e-05	1367	5.7419e-06	1.6444e-06	1356.3	367.37	4.8833e-06	7.373e-06	419.14	140.43	122.59	42.215	1.025e-05	52.274	0.00057061	0.00057607	0.00015947	1380.1	6.2603e-06	6.3208e-06	1378.4	374.07	6.3433e-06	6.2947e-06	428.01	143.99	125.93	43.274	6.3641e-06	53.635	-164.253	-133.385	-31.765	-157.948	-63.230	-23.995	-158.103	-153.520	-77.641	-123.018	-153.993	-149.706	-149.193	-144.159	-47.068	-145.111	-8191	255	
1340.240	1	1	0	0	0.061544	0.21881	0.17154	0.23585	0.13316	0.11174	0.23104	0.17937	0.23321	0.16917	0.020021	0.10989	0.15892	0.033797	0.03911	0.26669	-3.1792	-3.4979	-3.1917	-3.6667	-3.2854	-3.4292	-3.4521	-3.3521	-3.3708	-3.2333	-3.0625	-3.3917	-3.2333	-3.3208	-3.4875	-3.35	58.197	-138.691	129.275	181.343	177.556	-116.542	154.495	20.870	79.026	-24.996	146.533	102.859	131.614	-153.083	-71.353	138.710	0.00045829	2.5257e-05	3.4935e-05	1372.4	1.0677e-06	2.2836e-06	1362.2	369.44	3.7184e-06	2.9281e-06	420.97	141.38	123.32	42.474	7.7681e-07	52.311	0.00057114	0.00057745	0.00016076	1384.4	6.2725e-06	6.3967e-06	1381.9	375.44	6.3252e-06	6.2999e-06	429.08	144.39	126.09	43.474	6.1561e-06	53.911	-156.902	37.715	-12.545	-157.883	-125.546	-0.469	-158.118	-153.512	-137.494	-43.414	-153.881	-149.785	-149.125	-144.339	-29.744	-144.980	-8191	255	
1340.336	1	1	0	0	0.14234	0.24083	0.13527	0.20165	0.1563	0.033755	0.31773	0.26983	0.064719	0.18372	0.1602	0.26601	0.10468	0.041856	0.19027	0.089109	-3.1042	-3.4479	-3.0375	-3.6833	-3.3396	-3.1917	-3.6312	-3.25	-3.2938	-3.5833	-3.2042	-3.6937	-3.3896	-3.3896	-3.5854	-3.325	24.255	178.927	29.597	150.132	32.093	151.387	105.711	117.274	37.084	-14.488	74.260	167.915	-133.952	108.867	-148.110	-118.815	0.00046506	0.00074494	6.961e-05	1369.9	3.1495e-06	4.2965e-06	1360	370.19	9.3789e-06	5.8245e-06	423.15	140.69	123.88	42.517	1.9946e-06	52.528	0.00055875	0.00055524	0.0001562	1384.2	6.0767e-06	6.0748e-06	1379.6	374.98	6.0905e-06	6.0092e-06	427.71	144.24	126.11	43.526	6.0735e-06	53.949	-159.313	-59.403	-37.488	-157.767	-103.730	-139.059	-158.062	-153.689	-85.762	4.840	-153.718	-149.590	-149.409	-144.485	-10.707	-145.230	-8191	255	
1340.432	1	1	0	0	0.094452	0.057224	0.10252	0.096439	0.0087967	0.4155	0.30125	0.13106	0.1391	0.15435	0.15904	0.18841	0.11224	0.17547	0.16599	0.05905	-2.9729	-3.4646	-3.1208	-3.5812	-3.2604	-3.0833	-3.6958	-3.4667	-3.3688	-3.5292	-3.3958	-3.4854	-3.4167	-3.0417	-3.4354	-3.5	50.066	-144.877	128.804	70.497	-121.367	59.097	121.726	177.594	-60.764	66.189	186.472	127.283	-153.317	145.759	-60.944	124.821	0.00049994	0.00066925	5.1507e-05	1372.9	8.5124e-06	5.5254e-06	1361.9	370.56	3.8205e-06	2.2562e-06	422.39	141.78	123.68	42.614	4.8692e-06	52.606	0.0005507	0.00055459	0.00015391	1386.7	6.0697e-06	6.0609e-06	1383.6	376.18	6.0107e-06	6.0735e-06	428.69	144.64	126.53	43.628	5.8663e-06	53.997	-158.674	-70.034	-25.144	-157.725	-50.194	-78.751	-158.073	-153.440	-106.690	-98.363	-153.537	-149.686	-149.156	-144.315	-64.641	-145.210	-8191	255	
1340.528	1	1	0	0	0.15865	0.17009	0.097193	0.033082	0.069726	0.13903	0.086291	0.13025	0.13055	0.12229	0.11113	0.16862	0.33281	0.31553	0.13872	0.30952	-2.9062	-3.35	-3.4437	-3.6771	-3.3833	-3.1854	-3.7792	-3.4167	-3.0354	-3.4021	-3.2229	-3.4396	-3.6458	-3.2479	-3.5771	-3.3708	118.098	135.432	118.264	170.031	162.116	75.922	-117.431	178.645	83.282	85.943	150.080	-75.941	-150.128	161.425	66.331	96.394	0.00045119	0.00032508	6.8293e-05	1362.7	3.3804e-06	5.619e-06	1358.6	369.34	7.1413e-06	6.7635e-06	422.02	140.88	123.56	42.687	1.5162e-06	52.458	0.00052825	0.00053184	0.00014829	1379.8	5.8654e-06	5.8972e-06	1379.1	375.21	5.8995e-06	5.9084e-06	428.14	144.37	126.11	43.661	6.0136e-06	54.026	-156.896	-37.769	-129.449	-157.776	-130.482	-59.137	-158.070	-153.472	-17.677	-78.683	-153.777	-149.737	-149.498	-144.132	-136.671	-145.107	-8191	255	
1340.624	1	1	0	0	0.061237	0.28743	0.32539	0.26243	0.16825	0.13088	0.13822	0.18794	0.097303	0.081953	0.14506	0.0098478	0.23627	0.33777	0.049914	0.041121	-2.6854	-3.3479	-2.9104	-3.6021	-3.4979	-3.3354	-3.8354	-3.5271	-3.0875	-3.5	-3.2792	-3.4771	-3.4958	-3.1625	-3.5375	-3.4313	79.732	-123.347	-51.301	99.264	132.499	156.593	111.183	153.790	-135.252	-161.347	-142.729	-146.687	158.084	-139.579	-105.021	175.840	0.00049407	0.00095061	0.00011709	1370.9	4.9703e-06	6.9686e-06	1364.7	370.62	2.5903e-06	7.1079e-06	418.71	141.59	123.43	42.645	9.5359e-06	52.624	0.0005481	0.00055428	0.00015312	1384.9	6.0327e-06	6.1787e-06	1382	375.95	6.1465e-06	6.2418e-06	428.01	144.76	126.41	43.704	6.3686e-06	54.134	-162.007	-95.260	-120.985	-157.750	-6.456	-67.525	-158.102	-153.627	-88.507	-31.047	-153.750	-149.563	-149.245	-144.208	-54.551	-145.050	-8191	255	
1340.721	1	1	0	0	0.27746	0.16063	0.16648	0.19373	0.083895	0.16273	0.34544	0.04348	0.071455	0.10818	0.17512	0.26969	0.10421	0.1713	0.12184	0.084142	-2.9625	-3.4729	-3.2854	-3.4542	-3.5	-3.2667	-3.6875	-3.5083	-3.2667	-3.6854	-3.4396	-3.4542	-3.6729	-3.2854	-3.5708	-3.6708	75.627	92.380	184.419	97.756	-77.786	88.393	122.839	86.152	119.423	-156.240	32.125	103.123	-170.487	-126.944	-97.214	-121.595	0.00042053	0.00023341	8.1287e-05	1373.6	3.3429e-06	9.8954e-06	1367.1	371.68	6.4522e-06	6.4802e-06	420.68	141.74	123.76	42.754	5.2499e-06	52.616	0.00057987	0.0005777	0.00016297	1388.3	6.383e-06	6.3853e-06	1387.6	377.2	6.2886e-06	6.3669e-06	429.55	145.16	126.87	43.783	6.3133e-06	54.222	-162.435	-80.185	-57.192	-157.775	-72.424	-43.382	-158.206	-153.557	-51.948	-73.091	-153.530	-149.569	-149.466	-144.519	-32.968	-144.981	-8191	255	
1340.841	1	1	0	0	0.084492	0.046432	0.24929	0.16714	0.011279	0.17463	0.2176	0.33366	0.10784	0.1756	0.15916	0.26518	0.048919	0.19512	0.14323	0.31532	-2.8917	-3.4708	-3.3479	-3.2812	-3.3958	-3.075	-3.6083	-3.4271	-3.1896	-3.3167	-3.5333	-3.3708	-3.5583	-3.375	-3.2479	-3.375	-51.990	71.201	141.684	133.267	-135.386	-168.845	65.725	152.508	-71.163	82.133	-112.714	171.579	178.770	118.964	-28.033	24.769	0.00048738	0.00096739	0.00015395	1374.2	1.6119e-06	7.1992e-06	1367.3	372.24	8.7338e-06	3.5353e-06	422.45	142.03	123.74	42.931	3.4502e-06	52.734	0.00057267	0.00057864	0.00016135	1392	6.325e-06	6.4168e-06	1390.5	377.6	6.3497e-06	6.3042e-06	429.49	145.3	126.92	43.88	6.1143e-06	54.199	-163.864	-95.950	-63.321	-157.671	-6.477	-57.263	-158.138	-153.694	-72.316	50.926	-153.746	-149.792	-149.487	-144.369	-101.855	-145.074	-8191	255	
1340.936	1	1	0	0	0.18815	0.16794	0.23208	0.12269	0.20661	0.086929	0.27463	0.012813	0.073027	0.12032	0.04611	0.24958	0.062221	0.12481	0.13788	0.3159	-2.5062	-3.3875	-3.3604	-3.4083	-3.3771	-3.2479	-3.3208	-3.7104	-3.0854	-3.6542	-3.4479	-3.2812	-3.3812	-3.2875	-3.3854	-3.5979	181.587	81.657	10.953	184.092	-89.126	58.720	102.682	-32.212	-104.876	129.050	42.379	135.076	-49.483	-170.048	88.965	143.882	0.00047705	0.00076449	0.00014529	1380.4	2.9111e-06	5.489e-06	1367.1	372.59	3.9081e-06	3.6885e-06	423.19	141.54	124.09	42.765	5.3234e-06	52.596	0.00054996	0.0005465	0.00014979	1390.7	5.7601e-06	5.5867e-06	1386.1	375.87	5.3449e-06	5.2851e-06	425.75	144.2	126.19	43.55	5.2804e-06	53.848	-164.955	-89.492	-46.499	-157.594	174.523	-101.343	-158.015	-153.327	-87.191	-47.662	-153.607	-149.662	-149.191	-144.439	0.020	-145.011	-8191	255	
1341.032	1	1	0	0	0.10225	0.19755	0.088307	0.2442	0.21823	0.29347	0.38709	0.41135	0.081364	0.091734	0.11162	0.10613	0.11158	0.058158	0.10336	0.073429	-2.9271	-3.4875	-3.2521	-3.1896	-3.5583	-3.3937	-3.425	-3.6625	-3.1271	-3.5875	-3.3021	-3.2333	-3.5438	-3.2604	-3.3729	-3.4458	0.359	-56.502	-92.378	146.702	-122.909	-66.322	153.616	84.194	187.749	170.103	-164.624	59.109	-122.401	-18.632	83.967	63.020	0.00049393	0.00024967	0.00020122	1371.1	2.3525e-06	5.0925e-06	1357.1	369.9	7.4529e-06	5.3716e-06	421.82	141.48	124.11	42.841	3.8504e-06	52.57	0.00049321	0.00049267	0.00014139	1380.6	5.6146e-06	5.6181e-06	1377.5	374.73	5.6755e-06	5.7325e-06	426.75	144.52	126.29	43.678	5.7634e-06	53.915	-163.456	-8.298	-119.541	-157.793	-27.410	-41.411	-158.137	-153.761	-38.282	-47.596	-154.222	-149.564	-149.306	-144.347	40.672	-144.991	-8191	255	
1341.152	1	1	0	0	0.070602	0.19367	0.15004	0.3979	0.067413	0.099677	0.2682	0.068825	0.12227	0.16332	0.10811	0.14664	0.077692	0.17467	0.086397	0.073966	-2.8063	-3.3438	-3.4417	-3.2854	-3.7583	-3.4396	-3.5	-3.7333	-3.35	-3.4271	-3.5042	-3.3667	-3.4333	-3.5354	-3.3646	-3.7146	-108.542	108.581	50.582	150.094	-71.383	54.780	155.895	70.595	21.830	19.261	-123.919	-118.968	127.993	-101.698	-90.660	-22.746	0.00050243	0.00076002	0.00015976	1369.2	5.475e-06	7.0156e-06	1360.8	368.39	5.0396e-06	5.3716e-06	419.83	141.24	123.08	42.668	3.434e-06	52.704	0.00051946	0.00051834	0.00014297	1380.5	5.5978e-06	5.6018e-06	1378.9	373.98	5.6072e-06	5.5827e-06	425.44	144.12	125.87	43.587	5.4637e-06	53.941	-160.586	-68.233	-66.817	-157.746	-72.255	-115.127	-158.233	-153.558	-26.331	-84.652	-154.011	-149.463	-149.227	-144.202	-4.465	-145.189	-8191	255	
1341.224	1	1	0	0	0.12319	0.2311	0.095537	0.081498	0.26278	0.11418	0.21945	0.0062872	0.15115	0.11514	0.30906	0.38714	0.27829	0.12019	0.082266	0.22099	-2.8375	-3.2687	-3.5542	-3.4021	-3.3625	-3.3208	-3.5417	-3.8354	-3.3729	-3.3458	-3.6	-3.2188	-3.6583	-3.6	-3.2542	-3.7104	153.434	-76.243	50.176	120.330	-37.758	40.697	134.037	67.374	174.164	-165.551	116.873	143.419	181.978	186.276	-4.415	25.693	0.00047949	0.00050883	0.00010908	1368	3.4408e-06	2.6461e-06	1369.9	369.71	6.4741e-06	5.7164e-06	423.2	142.71	124.28	43.117	2.0495e-06	53.227	0.00049829	0.00049017	0.00013699	1378	5.3223e-06	5.2805e-06	1383.2	374.21	5.2576e-06	5.2436e-06	426.38	145.08	126.77	43.915	5.4023e-06	54.415	-161.670	-73.989	-125.869	-157.776	-72.524	38.389	-158.036	-153.683	-39.031	-79.499	-153.834	-149.502	-149.591	-144.321	3.586	-145.004	-8191	255	
1341.320	1	1	0	0	0.10856	0.23066	0.076938	0.27699	0.17011	0.15199	0.12956	0.16226	0.19781	0.098727	0.10496	0.082988	0.045548	0.081741	0.2445	0.23843	-2.7458	-3.275	-3.4208	-3.2771	-3.375	-3.4979	-3.2313	-3.5479	-3.3146	-3.3187	-3.5833	-3.4021	-3.625	-3.675	-3.2875	-3.7417	-71.174	-107.035	-93.690	146.996	125.787	7.477	91.128	-128.469	149.650	162.401	-30.001	42.006	-52.256	-16.364	48.371	159.704	0.00044095	0.00036004	0.00013779	1383.5	1.8253e-06	5.5319e-06	1391.4	372	6.3806e-06	7.2613e-06	424.55	143.29	124.98	43.277	4.8404e-06	53.455	0.00050272	0.00049633	0.00013889	1393.3	5.5128e-06	5.5294e-06	1407.1	376.54	5.5655e-06	5.5581e-06	428.94	145.86	127.37	44.178	5.6116e-06	54.564	-167.507	-106.193	-77.140	-157.873	-37.825	-77.317	-158.007	-153.513	-60.699	-49.354	-153.724	-149.599	-149.321	-144.437	-49.963	-145.139	-8191	255	
1341.416	1	1	0	0	0.051783	0.075185	0.19055	0.13964	0.10387	0.15963	0.10156	0.084359	0.28778	0.029184	0.20875	0.27136	0.14812	0.11478	0.11455	0.10924	-3.0208	-3.1562	-3.3979	-3.5792	-3.4417	-3.6542	-3.4583	-3.4625	-3.3271	-3.0187	-3.6167	-3.2687	-3.2021	-3.5708	-3.1583	-3.7333	-35.045	-73.958	77.328	148.328	137.496	-130.152	135.005	-103.004	142.656	22.475	107.623	175.477	-90.285	126.368	162.473	32.524	0.00043652	0.00020704	0.00027461	1386.6	5.7519e-06	3.2463e-06	1397.8	371.05	7.136e-06	6.9863e-06	425.49	144.02	126.01	43.53	1.9077e-06	53.713	0.00051073	0.00051161	0.00014159	1399.3	5.5003e-06	5.4953e-06	1415	376.96	5.486e-06	5.481e-06	430.46	146.77	128.36	44.429	5.4847e-06	54.992	-155.710	-26.777	-68.536	-157.799	-6.094	-52.662	-158.132	-153.392	-55.172	-83.283	-153.523	-149.517	-149.428	-144.323	44.359	-145.073	-8191	255	
1341.537	1	1	0	0	0.077266	0.08683	0.20311	0.23437	0.17156	0.088214	0.065906	0.28356	0.090727	0.18526	0.16263	0.19614	0.16097	0.21532	0.1473	0.2092	-2.9625	-3.0812	-3.4875	-3.425	-3.3479	-3.7104	-3.5625	-3.5292	-3.4875	-3.2458	-3.7313	-3.4313	-3.5583	-3.7083	-3.2458	-3.5646	-6.307	-55.947	-69.284	-144.376	-149.849	-19.333	127.631	103.385	-136.921	178.744	105.997	130.021	187.660	-168.256	-148.233	113.612	0.00049352	0.00078066	0.0001191	1394.7	2.4448e-06	8.8305e-06	1405	374.9	3.3837e-06	2.9647e-06	427.59	145.12	126.68	43.916	3.3094e-06	54.337	0.00050597	0.00049906	0.00013923	1406.8	5.4844e-06	5.5118e-06	1424	379.19	5.5793e-06	5.6149e-06	432.69	147.61	129.16	44.81	5.4609e-06	55.489	-157.354	-72.681	-61.242	-157.898	-127.540	-124.100	-158.131	-153.539	-72.373	-69.610	-153.765	-149.768	-149.225	-144.424	-119.749	-145.334	-8191	255	
1341.633	1	1	0	0	0.06104	0.16715	0.1031	0.14401	0.2638	0.27653	0.12853	0.069957	0.18474	0.14774	0.067023	0.04937	0.18021	0.13291	0.12783	0.13661	-3.0917	-3.2667	-3.5396	-3.4625	-3.3187	-3.6688	-3.3792	-3.3875	-3.4146	-3.4229	-3.6021	-3.5583	-3.4437	-3.5438	-3.1542	-3.4479	34.926	-97.653	139.148	111.062	104.984	126.687	149.208	159.169	-13.156	44.007	-98.670	-157.558	177.619	-135.783	-77.751	157.404	0.00050532	0.00071319	0.00012669	1406.8	1.7663e-06	5.7633e-07	1415	377.34	3.5931e-06	5.878e-06	433.29	146.96	128.42	44.665	9.3227e-06	54.952	0.0004954	0.00048386	0.00013491	1417.3	5.2288e-06	5.2702e-06	1435	382.45	5.1872e-06	5.1845e-06	436.83	149.57	130.57	45.531	4.999e-06	56.089	-161.752	-100.226	-103.957	-157.765	4.919	-81.628	-158.029	-153.642	25.307	-48.413	-153.914	-149.845	-149.504	-144.380	-31.057	-145.123	-8191	255	
1341.729	1	1	0	0	0.26868	0.11264	0.015712	0.21416	0.19688	0.43335	0.20506	0.3672	0.084833	0.17247	0.047923	0.33428	0.44756	0.11408	0.18123	0.075333	-2.9896	-3.075	-3.4604	-3.5333	-3	-3.4104	-3.2396	-3.3583	-3.5187	-3.2667	-3.4125	-3.5167	-3.4938	-3.7167	-3.1875	-3.3625	155.938	-123.239	-47.892	113.943	-47.713	99.241	81.234	151.151	17.475	107.005	-127.968	-121.528	174.176	-72.696	-4.740	97.014	0.00047956	0.00040947	7.9001e-05	1430.9	2.3609e-06	5.1057e-06	1438.6	389.43	4.5751e-06	5.2631e-06	442.54	148.98	130.34	45.239	5.3727e-06	55.475	0.00045755	0.00045197	0.0001259	1440.6	5.0081e-06	4.993e-06	1455.5	392.9	5.028e-06	5.12e-06	444.96	151.61	132.47	46.041	5.0354e-06	56.602	-159.047	-103.364	-49.817	-157.794	-38.854	13.390	-158.194	-153.515	-115.764	-32.649	-153.847	-149.974	-149.525	-144.696	-28.009	-145.040	-8191	255	
1341.801	1	1	0	0	0.12224	0.25052	0.26797	0.24183	0.10959	0.16843	0.32014	0.082266	0.16108	0.029675	0.11542	0.22377	0.27877	0.27269	0.15424	0.073344	-3.2812	-3.3312	-3.4979	-3.6521	-3.1833	-3.5333	-3.5292	-3.625	-3.4667	-3.2396	-3.4792	-3.6188	-3.2146	-3.4479	-3.3187	-3.3604	-155.482	-140.202	-88.526	-170.188	-156.829	-52.296	151.992	145.415	92.810	146.200	94.900	111.618	113.112	127.478	60.497	-66.209	0.00050592	0.0005924	5.2705e-05	1441.8	2.5022e-06	9.0869e-06	1449.5	390.31	8.1799e-06	7.3984e-06	443.68	149.62	131.16	45.407	3.7123e-06	55.335	0.00045867	0.00045774	0.00012911	1452.8	5.1827e-06	5.278e-06	1462.7	394.51	5.3203e-06	5.3472e-06	447.78	152.82	133.62	46.377	5.6125e-06	56.864	-155.340	-65.196	84.596	-157.786	-34.085	-48.127	-158.077	-153.721	-52.138	-92.291	-153.917	-149.674	-149.500	-144.432	-118.091	-145.297	-8191	255	
1341.922	1	1	0	0	0.071128	0.30651	0.17147	0.25532	0.11882	0.10638	0.13418	0.24915	0.33716	0.0079554	0.19573	0.19485	0.24986	0.26918	0.16289	0.24939	-3.1396	-3.1688	-3.5312	-3.4354	-3.0333	-3.5563	-3.7646	-3.2812	-3.5021	-3.2021	-3.3438	-3.7479	-3.3479	-3.6937	-3.6417	-3.0646	-114.208	49.283	155.854	180.676	-80.830	-53.609	121.251	165.947	57.798	-170.553	108.766	114.811	-144.586	-164.485	-85.344	93.839	0.00052665	0.00041667	5.9632e-05	1451.1	3.426e-06	5.7194e-06	1452.5	389.68	6.2455e-06	5.5597e-06	444.02	149.53	131.17	45.444	5.4404e-06	55.811	0.00052973	0.00052611	0.0001464	1462.8	5.8819e-06	5.8752e-06	1471.1	395.32	5.9959e-06	6.1128e-06	450.35	152.82	133.82	46.371	6.4494e-06	57.152	-161.527	-111.360	-86.139	-157.947	-28.414	-28.753	-158.059	-153.723	-59.492	-50.785	-154.096	-149.917	-149.450	-144.313	-61.067	-145.036	-8191	255	
1342.018	1	1	0	0	0.067459	0.12398	0.18686	0.29558	0.090571	0.25126	0.3462	0.19383	0.19458	0.21682	0.080929	0.40775	0.2767	0.18259	0.12752	0.2197	-3.0208	-3.2375	-3.2479	-3.7875	-3.3396	-3.6458	-3.6583	-3.3229	-3.4146	-3.2167	-3.3937	-3.5479	-3.2833	-3.3875	-3.3208	-3.0333	-13.858	149.140	-15.021	163.762	-121.373	-48.660	105.484	-74.294	179.057	-169.535	176.570	146.066	-106.055	-166.190	-105.136	59.118	0.00051921	0.00042826	0.0001475	1452.6	6.7789e-06	5.6737e-06	1457.4	389.3	8.3057e-06	6.8448e-06	444.17	149.66	131.01	45.545	2.5245e-06	55.896	0.00059347	0.00059308	0.00016689	1468	6.6222e-06	6.6554e-06	1478.8	396.87	6.8202e-06	6.8686e-06	452.83	153.65	134.73	46.672	7.1687e-06	57.496	-158.263	-103.813	-46.241	-157.707	-2.321	-67.632	-158.141	-153.638	-52.344	-79.320	-153.710	-150.025	-149.432	-144.405	-157.313	-145.177	-8191	255	
1342.114	1	1	0	0	0.11066	0.026484	0.13262	0.24018	0.18081	0.14699	0.21455	0.095929	0.1945	0.025187	0.17022	0.23703	0.37769	0.18797	0.21513	0.18997	-2.9604	-3.3667	-3.2479	-3.5896	-3.2458	-3.575	-3.8646	-3.2438	-3.4479	-3.2	-3.2979	-3.7313	-3.3563	-3.5604	-3.3937	-3.4083	16.891	79.425	107.905	116.709	-149.395	39.608	75.367	144.816	-31.716	140.010	30.320	165.046	160.172	-154.914	-36.550	-142.735	0.00054235	0.0006216	0.0002337	1460.9	4.7094e-06	6.0509e-06	1462.8	391.54	4.7582e-06	4.834e-06	444.04	150.62	131.58	45.796	4.7892e-06	56.029	0.00063868	0.00064822	0.00017831	1477.3	6.9777e-06	6.9785e-06	1484.7	397.82	7.1015e-06	7.1583e-06	455.02	154.42	135.15	46.931	7.1609e-06	57.698	-166.167	-141.839	-94.325	-157.778	-76.377	-81.551	-158.171	-153.779	-52.051	-131.873	-153.685	-149.685	-149.501	-144.570	-53.123	-145.334	-8191	255	
1342.233	1	1	0	0	0.18288	0.070319	0.17327	0.18472	0.052394	0.27252	0.17046	0.24844	0.15525	0.18461	0.12629	0.13211	0.092886	0.1018	0.19204	0.056124	-3.275	-3.3917	-3.3563	-3.7771	-3.2854	-3.3396	-3.6375	-3.225	-3.4062	-3.2333	-3.2812	-3.5167	-3.2354	-3.0979	-3.5146	-3.4083	-47.243	-1.685	49.048	149.206	157.999	119.037	127.778	170.977	-108.805	75.746	106.598	141.176	50.349	-126.903	-79.283	112.532	0.00056203	0.00029432	0.00018681	1464.1	4.8789e-06	7.2178e-06	1464.8	393.15	1.3817e-06	1.2015e-05	448.21	151.84	133.13	46.063	6.175e-06	56.535	0.00064308	0.00064398	0.00018091	1482.1	7.1701e-06	7.2292e-06	1491	400.12	7.4363e-06	7.4571e-06	457.97	155.73	136.71	47.279	7.2797e-06	58.388	-161.623	-151.715	-88.499	-157.815	-43.357	-5.579	-158.217	-153.688	-120.576	-72.109	-153.874	-149.943	-149.452	-144.743	-67.551	-145.154	-8191	255	
1342.329	1	1	0	0	0.030634	0.039811	0.15476	0.18032	0.11871	0.11632	0.31657	0.12903	0.045116	0.10908	0.12483	0.30433	0.23532	0.2368	0.13152	0.14048	-3.0583	-3.4208	-3.0187	-3.6875	-3.1042	-3.4562	-3.8083	-3.2521	-3.5854	-3.4146	-3.1708	-3.4667	-3.4062	-3.3937	-3.7438	-3.3979	-42.949	-170.245	93.241	176.089	-106.089	96.174	105.375	12.984	-152.895	-115.541	80.130	157.568	113.575	170.323	-66.090	-141.852	0.00053129	0.00020175	0.00013065	1484.5	3.1567e-06	7.5376e-06	1488.7	401.53	3.7583e-06	3.442e-06	456.12	154.31	135.34	46.772	3.0945e-06	57.17	0.00066095	0.00066415	0.00018696	1501.1	7.3495e-06	7.4285e-06	1512.7	408.97	7.5832e-06	7.6275e-06	466.85	158.21	138.8	48.011	7.6397e-06	59.03	-158.428	-81.758	-91.682	-157.796	-112.606	-5.548	-158.136	-154.031	-39.937	-85.791	-154.278	-149.921	-149.541	-144.632	149.682	-145.135	-8191	255	
1342.425	1	1	0	0	0.11677	0.24757	0.24429	0.30241	0.22076	0.1381	0.06692	0.079552	0.19189	0.1313	0.091162	0.1882	0.21323	0.059002	0.23595	0.12062	-3.1729	-3.575	-3.3083	-3.7792	-3.2792	-3.1646	-3.5958	-3.2083	-3.3688	-3.3542	-3.2729	-3.6667	-3.4917	-3.3167	-3.7354	-3.4938	-48.555	-69.518	12.290	92.537	151.912	-88.310	112.904	138.362	129.003	182.585	-112.833	140.894	107.933	94.671	34.426	87.329	0.00050942	0.00039173	0.00017762	1497.2	6.9508e-06	6.2624e-06	1500.8	404.43	4.8039e-06	3.7494e-06	458.74	155	136.04	46.98	6.9428e-06	57.385	0.00069409	0.00070058	0.00019674	1516.3	7.8715e-06	7.9608e-06	1525.2	412.87	8.038e-06	8.1092e-06	472.38	159.74	140.35	48.479	8.2354e-06	59.603	-156.956	-110.152	-69.948	-157.968	-60.905	26.529	-158.070	-153.844	-28.673	-55.138	-153.824	-149.783	-149.569	-144.764	-14.463	-145.328	-8191	255	
1342.521	1	1	0	0	0.12326	0.08612	0.22184	0.19974	0.22489	0.17027	0.40059	0.13835	0.30452	0.34405	0.032221	0.1314	0.1624	0.35287	0.011376	0.048208	-2.9271	-3.4521	-3.1437	-3.7479	-3.3354	-3.3208	-3.85	-3.5354	-3.3563	-3.5458	-3.2979	-3.4583	-3.6292	-3.3208	-3.4646	-3.2938	-130.442	-151.698	6.589	144.969	17.885	9.763	91.496	149.135	-79.541	23.329	-169.293	28.388	70.755	101.106	-7.293	47.223	0.00058591	0.00074965	0.00011486	1516.6	2.0937e-06	8.4667e-06	1510.6	409.59	8.3374e-06	4.4344e-06	466.28	157.05	138.41	47.568	4.7353e-06	57.954	0.00074695	0.00076403	0.00021365	1534.8	8.424e-06	8.4763e-06	1541.9	418.6	8.5168e-06	8.6341e-06	479.55	161.66	141.76	48.948	8.87e-06	60.137	-162.869	-94.952	-140.772	-157.855	-29.950	11.788	-158.332	-153.757	-57.130	-71.461	-154.046	-150.012	-149.775	-144.478	-18.381	-145.117	-8191	255	
1342.617	1	1	0	0	0.070645	0.23062	0.22864	0.032913	0.22152	0.051905	0.47635	0.15116	0.074936	0.085748	0.043526	0.27568	0.32195	0.093776	0.093322	0.12824	-2.8896	-3.5167	-3.0896	-3.5062	-3.3333	-3.1208	-3.5896	-3.2896	-3.1562	-3.4333	-3.1021	-3.4771	-3.6125	-3.3208	-3.5563	-3.6271	-73.259	59.925	-97.363	-109.274	156.321	-125.927	137.211	151.109	44.090	-48.174	15.940	85.616	161.927	116.502	-109.507	133.647	0.0005284	0.00054013	0.00013909	1515.7	2.0643e-06	5.5545e-06	1522.2	410.55	4.3339e-06	4.6547e-06	472.21	157.92	137.32	47.412	7.8641e-06	58.043	0.00079487	0.00080947	0.00022985	1543.7	9.0669e-06	9.2028e-06	1554.5	421.43	9.2815e-06	9.3971e-06	484.68	162.74	142.54	49.182	9.4067e-06	60.49	-167.340	-0.196	-34.863	-157.909	-61.113	-10.215	-158.292	-154.012	-116.692	-125.544	-153.816	-149.903	-149.491	-144.778	-79.283	-145.412	-8191	255	
1342.714	1	1	0	0	0.073765	0.19015	0.09003	0.17646	0.047021	0.048939	0.39421	0.23712	0.20671	0.096294	0.15077	0.076069	0.20133	0.33391	0.2754	0.056172	-2.8146	-3.5604	-3.2458	-3.6479	-3.7208	-3.2771	-3.7208	-3.5458	-3.1021	-3.5542	-3.3292	-3.575	-3.6583	-3.2875	-3.6792	-3.4479	-115.049	-64.210	182.533	105.910	-42.793	-49.357	107.837	-156.983	120.937	-45.009	71.015	-155.111	-137.692	-134.364	-119.437	-41.550	0.00053889	0.0011549	0.00012447	1534	8.1724e-06	5.1893e-06	1536.4	412.78	2.7205e-06	1.137e-06	467.26	157.79	137.98	47.564	4.0836e-06	58.252	0.00085908	0.00087611	0.00024476	1558.4	9.8223e-06	9.9688e-06	1566.4	424.39	9.9371e-06	1.0068e-05	486.23	162.87	143.44	49.351	9.9921e-06	60.887	-156.872	-135.862	-59.332	-158.004	-9.630	-79.103	-158.262	-153.947	-72.340	-71.155	-154.111	-149.860	-149.381	-144.749	-34.902	-145.179	-8191	255	
1342.834	1	1	0	0	0.12179	0.013978	0.10971	0.31779	0.086751	0.08295	0.45377	0.31563	0.11278	0.12754	0.19196	0.1607	0.1827	0.22754	0.058764	0.11144	-2.5854	-3.5875	-3.4417	-3.4646	-3.4833	-3.1875	-3.7104	-3.5083	-2.95	-3.4688	-3.35	-3.1146	-3.675	-3.4292	-3.4	-3.7271	-148.583	-25.517	-20.893	130.776	17.156	187.214	112.337	69.726	-61.881	-142.698	150.324	147.449	111.818	126.338	127.594	84.603	0.00053694	0.00063415	0.00015038	1538.2	3.7674e-06	3.2669e-06	1540.7	411.81	7.4578e-06	4.5287e-06	468.68	157.63	138.14	47.587	1.2104e-05	57.894	0.00089796	0.00091869	0.00025835	1565.3	1.0132e-05	1.0257e-05	1579.1	424.14	1.0254e-05	1.0271e-05	487.28	163.08	143.52	49.443	1.0066e-05	60.713	-156.773	-53.654	-71.616	-158.087	-16.191	30.977	-158.291	-153.562	-61.387	-13.109	-153.922	-149.957	-149.626	-144.801	-35.563	-145.289	-8191	255	
1342.929	1	1	0	0	0.059671	0.19695	0.11826	0.35669	0.13319	0.15402	0.31726	0.15594	0.22208	0.26647	0.071223	0.10975	0.19709	0.39694	0.12644	0.059835	-2.9417	-3.6813	-3.4354	-3.3771	-3.5958	-3.1458	-3.6875	-3.6188	-3.1896	-3.3792	-3.2896	-3.3583	-3.6729	-3.2625	-3.5042	-3.6396	137.093	-35.715	-50.704	182.517	-92.650	146.256	118.964	9.494	40.665	-69.327	85.746	148.942	166.041	-164.083	95.582	184.782	0.0004952	0.00024946	0.00013031	1535.6	6.8878e-06	9.9605e-06	1545.1	411.34	6.3505e-06	2.9943e-06	465.27	156.17	137.98	47.463	4.8657e-07	57.853	0.00089673	0.00091825	0.00025489	1563.3	9.8782e-06	9.9406e-06	1577.9	422.08	9.6678e-06	9.7991e-06	483.07	161.87	142.65	49.13	9.5253e-06	60.394	-159.428	75.067	-102.161	-158.054	-78.669	-16.550	-158.362	-153.849	50.321	-3.980	-153.826	-149.898	-149.488	-144.572	8.533	-145.146	-8191	255	
1343.025	1	1	0	0	0.088476	0.21619	0.28877	0.27527	0.12097	0.12097	0.22137	0.16664	0.088594	0.23788	0.083502	0.15228	0.22302	0.17952	0.4352	0.13517	-2.8729	-3.3292	-3.3125	-3.4062	-3.5542	-3.3729	-3.6729	-3.4854	-2.9583	-3.5375	-3.4083	-3.1312	-3.3479	-3.3375	-3.3312	-3.7479	100.724	-86.270	-113.959	159.108	-143.136	181.180	127.488	183.863	-36.773	-88.675	78.459	184.111	165.184	111.810	57.196	93.816	0.00054203	0.00034742	4.9611e-05	1536.1	2.946e-06	9.2615e-06	1546.3	408.33	7.6255e-06	6.4913e-06	467.13	156.52	138.24	47.483	8.8402e-07	58.007	0.00083198	0.00083267	0.00023042	1560.2	8.7617e-06	8.6391e-06	1573.2	418.39	8.3604e-06	8.223e-06	477.51	160.78	141.5	48.793	7.6e-06	59.832	-161.329	187.804	78.864	-157.933	-141.811	-31.758	-158.276	-153.967	-100.348	-27.999	-153.938	-150.101	-149.318	-144.881	98.483	-145.518	-8191	255	
1343.098	1	1	0	0	0.20575	0.14653	0.11135	0.36165	0.24232	0.090025	0.24476	0.20622	0.085486	0.12205	0.19252	0.041772	0.15188	0.10858	0.18032	0.052203	-2.7979	-3.2458	-3.3042	-3.5312	-3.6042	-3.2208	-3.5438	-3.6729	-3.1896	-3.4083	-3.5479	-3.4542	-3.7604	-3.4083	-3.2875	-3.7125	-102.726	43.100	148.167	161.997	90.145	-127.495	141.053	153.841	65.660	86.104	173.141	70.877	-155.629	170.194	49.349	-93.256	0.00059128	0.00059297	0.00016428	1541	4.277e-06	5.6209e-06	1550.3	411.46	5.7079e-06	3.9308e-06	465	156.99	137.51	47.658	2.7406e-06	58.173	0.00065015	0.00064175	0.00017402	1558.4	6.5301e-06	6.4813e-06	1571.9	415.96	6.0226e-06	5.9788e-06	470.89	159.78	140.13	48.442	5.3993e-06	59.364	-164.135	-56.656	-74.547	-157.978	-77.017	-76.970	-158.253	-154.013	-48.975	-31.368	-154.203	-150.001	-149.706	-144.762	-38.091	-145.426	-8191	255	
1343.217	1	1	0	0	0.10542	0.11376	0.18534	0.23635	0.038355	0.16088	0.30934	0.044949	0.22129	0.031476	0.22585	0.22539	0.19403	0.12178	0.0194	0.10367	-2.8604	-3.3688	-3.4271	-3.2708	-3.5687	-3.5042	-3.5479	-3.5812	-3.3	-3.4333	-3.6312	-3.3479	-3.6021	-3.4583	-3.0375	-3.375	-108.701	130.403	20.920	159.659	-142.002	-138.475	128.295	81.778	40.378	80.259	-119.041	-86.180	126.539	166.740	37.338	69.594	0.00053764	0.00035474	0.00024007	1551	4.5661e-06	5.3218e-06	1556.9	410.65	6.2996e-06	7.7437e-06	467.22	157.03	137.94	47.581	5.0352e-06	58.15	0.00047831	0.00046718	0.00012732	1558.8	4.9244e-06	4.8442e-06	1571	414.17	4.6606e-06	4.6155e-06	467.33	159.35	139.51	48.208	4.4236e-06	59.023	-155.103	-77.118	-36.592	-157.936	-29.459	-6.290	-158.343	-154.004	-78.407	-80.722	-154.057	-150.040	-149.543	-144.521	-31.824	-145.478	-8191	255	
1343.313	1	1	0	0	0.18747	0.19017	0.18528	0.23748	0.13273	0.10342	0.46845	0.24179	0.12109	0.11196	0.09917	0.039113	0.13288	0.14222	0.30706	0.08975	-2.9583	-3.1729	-3.4667	-3.4562	-3.5458	-3.3479	-3.3604	-3.6	-3.2792	-3.2729	-3.3792	-3.0646	-3.4396	-3.5083	-3.1063	-3.4458	42.629	120.657	56.550	154.724	-139.354	82.045	122.197	98.775	-161.822	97.737	93.953	-31.329	-12.933	113.959	-62.018	61.147	0.0004885	0.0003706	5.6982e-05	1552.1	2.7006e-06	9.0661e-06	1558.2	412.82	6.6164e-06	2.0181e-06	466.87	157.2	138.39	47.503	5.8915e-06	57.596	0.00040017	0.0003888	0.00010738	1558.9	4.1442e-06	4.1275e-06	1571.2	413.56	4.0772e-06	4.0674e-06	465.75	158.9	139.18	47.945	4.0808e-06	58.704	-159.241	-51.673	-139.531	-158.045	-92.672	-36.519	-158.324	-153.799	-27.363	-86.701	-154.054	-150.099	-149.844	-144.553	-28.771	-145.336	-8191	255	
1343.409	1	1	0	0	0.19995	0.15961	0.28247	0.36621	0.21311	0.29146	0.20527	0.27094	0.093704	0.11377	0.098191	0.31962	0.3731	0.40681	0.22092	0.085416	-2.6521	-3.1479	-3.3833	-3.225	-3.2125	-3.3625	-3.4625	-3.6021	-3.2854	-3.2438	-3.4771	-3.2917	-3.2583	-3.2604	-2.9542	-3.4146	-8.023	126.138	88.096	144.726	-16.762	21.904	74.175	104.300	89.053	137.083	-24.982	163.766	32.961	178.395	-71.429	1.420	0.0005428	0.00043173	0.00012413	1556.9	3.1883e-06	4.5064e-06	1564.3	410.91	5.2612e-06	3.8279e-06	465.64	156.72	137.13	47.305	2.5384e-06	57.946	0.00038056	0.00036934	0.00010135	1558	3.9956e-06	3.912e-06	1572	412.36	3.9835e-06	3.9546e-06	464.06	158.56	138.33	47.844	3.9754e-06	58.688	-158.638	-95.890	-78.662	-158.147	-47.317	-45.584	-158.386	-153.707	-17.760	2.579	-154.016	-150.044	-149.660	-144.529	-67.480	-145.183	-8191	255	
1343.505	1	1	0	0	0.15547	0.15591	0.21931	0.30436	0.024705	0.04031	0.10958	0.23572	0.13599	0.04775	0.24026	0.21763	0.28764	0.12651	0.13901	0.19784	-2.8021	-3.2167	-3.5083	-3.7375	-3.4188	-3.5479	-3.4271	-3.5583	-3.3229	-3.1354	-3.4938	-3.3333	-3.3208	-3.4313	-3.1937	-3.4604	60.979	-14.504	-157.935	132.831	112.717	73.703	96.891	121.310	2.223	-6.229	169.395	143.865	169.565	144.901	-33.000	169.715	0.00052808	0.00019886	0.00024711	1551.1	5.5091e-06	3.3305e-06	1556.2	410.02	6.0178e-06	4.1464e-06	466.59	156.76	137.48	47.508	4.8023e-06	57.943	0.0003755	0.00036029	0.00010137	1557.6	3.9994e-06	3.9324e-06	1569.5	412.72	4.0309e-06	3.9981e-06	464.9	158.61	138.79	47.846	4.0005e-06	58.734	-160.301	-117.628	-55.591	-158.124	-59.419	-10.967	-158.423	-153.805	-59.800	-94.936	-154.077	-150.183	-149.573	-144.734	-1.520	-145.480	-8191	255	
1343.626	1	1	0	0	0.14443	0.14596	0.012673	0.15813	0.19265	0.12759	0.34371	0.11022	0.11912	0.19292	0.32222	0.26858	0.16714	0.030558	0.068203	0.15052	-3.0042	-3.0875	-3.65	-3.6354	-3.4125	-3.6646	-3.4667	-3.3792	-3.1958	-3.0542	-3.6458	-3.6042	-3.3229	-3.5625	-3.2708	-3.4042	-17.562	-102.744	114.424	174.426	-128.073	-131.785	130.326	161.165	-31.946	-24.939	106.019	-147.134	136.670	-137.537	-122.895	186.554	0.00058766	0.00042954	0.00023842	1557.9	3.6068e-06	5.4158e-06	1555.3	411.33	6.4191e-06	7.9426e-06	466.9	157.19	136.83	47.208	4.1452e-06	57.665	0.0003753	0.00035583	9.9204e-05	1558.7	3.916e-06	3.8433e-06	1567.1	412.81	3.8459e-06	3.8855e-06	464.57	158.2	138.36	47.624	3.8529e-06	58.4	-162.250	-55.168	-54.683	-158.107	-40.198	-73.712	-158.228	-154.080	-55.409	-55.421	-153.920	-150.190	-149.802	-144.418	-32.893	-145.254	-8191	255	
1343.698	1	1	0	0	0.23145	0.039103	0.19215	0.39737	0.10089	0.15371	0.19319	0.15943	0.097681	0.16888	0.15626	0.24353	0.12352	0.12514	0.16202	0.083843	-3.05	-3.0479	-3.7021	-3.4708	-3.1958	-3.4979	-3.5667	-3.5208	-3.5625	-3.125	-3.4979	-3.1792	-3.3375	-3.4042	-3.2458	-3.4562	-8.964	-58.006	-28.572	154.692	163.599	106.444	143.140	-163.685	31.311	-120.221	-3.885	167.339	121.426	-99.282	183.990	36.411	0.00052552	0.00042126	9.3014e-05	1549.6	3.5839e-06	2.292e-06	1547.2	410.94	4.4298e-06	5.392e-06	465.56	156.18	137.27	47.205	1.2774e-06	57.707	0.00036573	0.00034582	9.6927e-05	1550.5	3.7799e-06	3.7908e-06	1559.5	412.23	3.7863e-06	3.7921e-06	464.22	157.95	138.07	47.686	3.7739e-06	58.457	-155.513	-74.406	165.109	-157.982	-40.605	13.955	-158.434	-153.905	-37.244	5.158	-154.117	-149.968	-149.662	-144.711	-16.897	-145.384	-8191	255	
1343.794	1	1	0	0	0.22662	0.039524	0.18872	0.27719	0.069672	0.17731	0.20277	0.10886	0.027889	0.16629	0.077895	0.2777	0.19496	0.27452	0.21443	0.067543	-3.0479	-3.1479	-3.2896	-3.5167	-3.2438	-3.5875	-3.5167	-3.6083	-3.6813	-3.1396	-3.3833	-3.475	-3.3438	-3.7667	-3.1312	-3.1771	-120.633	156.137	16.454	41.193	-9.569	-161.911	175.379	163.894	145.560	-11.837	168.672	122.263	-114.900	125.233	156.363	-132.253	0.00047397	0.0004666	7.3769e-05	1547.2	2.5096e-06	9.2386e-06	1546.2	409.61	6.5876e-06	7.24e-06	467.29	156.62	137.01	47.157	6.3086e-06	57.544	0.00035368	0.00033598	9.4901e-05	1548.2	3.7712e-06	3.6766e-06	1557.8	410.72	3.6721e-06	3.6619e-06	463.65	157.82	137.75	47.513	3.616e-06	58.228	-164.194	-93.802	-135.846	-157.952	-95.377	-24.305	-158.326	-153.949	-64.331	-32.513	-154.174	-149.979	-149.553	-144.549	-24.562	-145.192	-8191	255	
1343.915	1	1	0	0	0.221	0.049881	0.11757	0.12083	0.31536	0.14711	0.34873	0.25007	0.0099406	0.034607	0.21058	0.15957	0.1034	0.32987	0.19795	0.23149	-3.125	-3.1562	-3.4313	-3.6375	-3.1396	-3.5354	-3.55	-3.3125	-3.325	-3.2396	-3.4396	-3.5146	-3.2604	-3.6562	-3.2833	-3.3292	-68.769	178.971	-52.885	150.876	-48.977	186.033	99.970	161.996	75.203	15.872	47.600	-169.962	169.086	150.853	-43.836	129.335	0.00051669	0.00054737	0.00013757	1541.3	5.2784e-06	4.1455e-06	1540.9	410.2	3.9644e-06	1.8385e-06	463.85	156.24	136.43	47.158	5.2631e-06	57.829	0.00034437	0.0003226	9.0718e-05	1543.7	3.5928e-06	3.5149e-06	1552.7	410.73	3.5509e-06	3.4832e-06	461.75	157.71	137.69	47.523	3.5698e-06	58.254	-155.979	-79.899	-117.132	-157.989	-86.140	-14.612	-158.293	-153.806	-51.370	-71.520	-154.078	-149.909	-149.543	-144.399	-35.002	-145.305	-8191	255	
1344.009	1	1	0	0	0.16364	0.11238	0.29903	0.32928	0.16237	0.14052	0.080984	0.11669	0.088883	0.22202	0.23672	0.096723	0.27956	0.28658	0.031826	0.040774	-3.0771	-3.2812	-3.25	-3.6479	-3.1562	-3.3833	-3.4354	-3.2792	-3.4417	-3.1437	-3.5167	-3.5438	-3.3312	-3.6729	-3.425	-3.4188	-61.840	113.969	-58.818	165.294	89.768	169.006	-145.839	107.307	109.036	-128.142	156.834	125.805	-145.341	171.437	-160.281	49.308	0.00054934	0.00089473	0.00011679	1540.7	2.9695e-06	6.8128e-06	1550.4	409.87	2.4469e-06	1.9037e-06	464.35	156.08	136.74	47.184	7.5611e-06	57.714	0.00034234	0.00032548	8.955e-05	1542	3.5593e-06	3.5205e-06	1553.2	410.59	3.5395e-06	3.4906e-06	461.67	157.56	137.7	47.49	3.4834e-06	58.202	-164.722	-115.327	-92.452	-158.115	-81.822	-58.997	-158.091	-154.046	-50.136	170.146	-153.892	-149.871	-149.608	-144.652	-3.350	-145.260	-8191	255	
1344.105	1	1	0	0	0.068393	0.30379	0.068245	0.26656	0.24424	0.22938	0.36182	0.10216	0.33644	0.28573	0.15502	0.14479	0.17848	0.15106	0.20065	0.2624	-3.2333	-3.425	-3.3083	-4.0667	-3.375	-3.5292	-3.575	-3.4625	-3.6646	-3.475	-3.2375	-3.7438	-3.4813	-3.7313	-3.3937	-3.4729	10.308	-16.779	-79.777	133.815	91.326	-107.157	83.357	101.632	185.955	-114.089	176.019	123.863	12.896	-151.015	117.086	152.325	0.00055117	0.00031687	0.00010873	1535.7	5.4361e-06	6.8509e-06	1538.8	408.72	4.836e-06	7.5802e-06	463.74	156.36	136.67	47.209	5.2638e-06	57.558	0.00033585	0.00031629	8.7714e-05	1537.3	3.4629e-06	3.473e-06	1547.7	410	3.4711e-06	3.4228e-06	461.09	157.47	137.6	47.419	3.4599e-06	58.029	-161.990	-73.965	-61.011	-157.962	-47.830	-23.626	-158.295	-153.706	-60.153	-6.517	-153.885	-149.900	-149.608	-144.564	-28.367	-145.446	-8191	255	
1344.203	1	1	0	0	0.094185	0.37734	0.16444	0.29371	0.15259	0.14098	0.29401	0.38005	0.1261	0.18571	0.15302	0.072634	0.072977	0.09864	0.050378	0.11549	-3.2062	-3.225	-3.1875	-3.8438	-3.3167	-3.3625	-3.5917	-3.2021	-3.3458	-3.3042	-3.1708	-3.625	-3.3854	-3.4292	-3.2771	-3.0771	138.152	-22.456	89.877	176.115	157.923	-110.071	149.381	138.257	-121.065	-80.611	-83.595	46.055	51.237	-161.980	-100.621	144.640	0.00055973	0.0007328	0.0001241	1533.1	7.1342e-07	7.9133e-06	1533	408.14	2.0759e-06	3.8181e-06	464.25	156.2	136.63	46.925	5.1049e-06	57.472	0.00033027	0.00031238	8.7392e-05	1534.3	3.3985e-06	3.428e-06	1546.5	409.23	3.4428e-06	3.4022e-06	460.57	157.22	137.36	47.302	3.4799e-06	58.065	-158.348	-42.600	-102.182	-158.005	115.287	-69.225	-158.402	-154.062	-44.439	-31.847	-153.917	-150.221	-149.637	-144.628	-26.846	-145.088	-8191	255	
1344.322	1	1	0	0	0.067788	0.22769	0.15039	0.27299	0.11547	0.16452	0.073946	0.12607	0.015264	0.030405	0.12394	0.092158	0.11203	0.2348	0.034426	0.1435	-3.0854	-3.2354	-3.0667	-3.6604	-3.3312	-3.4229	-3.8625	-3.5583	-3.6021	-3.4854	-3.175	-3.4396	-3.4146	-3.6188	-3.4813	-3.3458	186.824	-40.519	-167.831	144.187	121.120	-164.049	-83.952	183.815	-85.926	-126.144	151.475	53.957	175.091	-160.352	-54.024	82.430	0.00054451	0.00042614	0.0001707	1532.3	5.0599e-06	3.9348e-06	1537.3	406.9	4.614e-06	4.7461e-06	461.71	155.31	136.28	46.621	6.9152e-06	57.206	0.00033221	0.00031822	8.8165e-05	1534	3.5034e-06	3.4936e-06	1543.6	408.03	3.5069e-06	3.4266e-06	459.59	156.69	137.06	47.129	3.5302e-06	57.774	-161.621	-97.599	-98.977	-157.953	-67.574	-17.790	-158.282	-153.857	-36.030	-63.603	-153.890	-150.205	-149.623	-144.391	-47.288	-145.188	-8191	255	
1344.394	1	1	0	0	0.095929	0.20226	0.076338	0.20987	0.16976	0.10802	0.32918	0.11894	0.049036	0.30541	0.128	0.18388	0.20965	0.092084	0.34292	0.20262	-2.9083	-3.4188	-3.1208	-3.8812	-3.2104	-3.325	-3.7938	-3.3146	-3.4667	-3.4833	-3.35	-3.5417	-3.4521	-3.4417	-3.5417	-3.4188	-22.121	-4.219	58.654	154.527	163.390	-107.874	156.765	144.290	-104.107	-3.613	-104.565	46.024	-150.420	137.053	-65.747	123.251	0.00055519	0.00059295	0.00014415	1527.2	5.7569e-06	5.1888e-06	1532.7	406.45	4.5596e-06	5.2401e-06	464.3	155.69	136.04	46.785	3.1884e-06	57.03	0.00033305	0.00031551	8.7801e-05	1529.2	3.5142e-06	3.4536e-06	1541	407.66	3.4795e-06	3.4715e-06	459.71	156.62	136.87	47.116	3.4669e-06	57.786	-160.999	-37.875	-84.570	-157.981	-86.335	-55.290	-158.460	-153.720	-67.163	-74.254	-153.957	-150.158	-149.638	-144.521	-12.550	-145.510	-8191	255	
1344.490	1	1	0	0	0.21604	0.016616	0.15506	0.21836	0.13758	0.15579	0.094398	0.16753	0.13426	0.066496	0.087031	0.17562	0.16314	0.06641	0.14246	0.22605	-3.0479	-3.4958	-3.2938	-3.8667	-3.3146	-3.2125	-3.9729	-3.375	-3.4625	-3.6604	-3.2229	-3.7104	-3.7438	-3.3979	-3.4042	-3.2854	-47.891	120.405	-61.862	122.777	-86.591	-101.847	88.953	69.600	-88.794	4.965	-142.611	108.567	-63.564	176.747	-33.720	170.430	0.00054548	0.00049443	0.00016188	1527.8	3.2149e-06	3.4587e-06	1527.1	406.8	6.3386e-06	3.4588e-06	465.49	155.12	136.3	46.867	6.187e-06	57.183	0.00033241	0.00031684	8.7244e-05	1529	3.4367e-06	3.4506e-06	1539.1	408.21	3.4931e-06	3.4245e-06	460.13	156.57	137.01	47.143	3.404e-06	57.834	-158.550	-100.027	-98.004	-158.061	-47.680	-69.063	-158.173	-153.776	-59.006	-26.926	-153.976	-149.924	-149.654	-144.450	-23.230	-145.383	-8191	255	
1344.610	1	1	0	0	0.13086	0.27603	0.26526	0.26926	0.24765	0.21307	0.20709	0.37289	0.25007	0.25321	0.2303	0.19836	0.25243	0.034018	0.17164	0.18331	-2.8271	-3.2375	-2.9229	-3.575	-3.1125	-3.2667	-3.6583	-3.4625	-3.3479	-3.5458	-3.3646	-3.4562	-3.5854	-3.2313	-3.4562	-3.2875	51.724	-40.637	-167.736	149.797	-128.982	-70.951	111.078	148.300	-156.918	120.554	-21.626	130.605	180.501	105.253	-109.756	74.963	0.00052354	0.00059128	0.00011499	1528.1	3.2639e-06	4.7028e-06	1534.1	408.1	6.1712e-06	7.5031e-06	463.01	155.32	135.9	46.753	2.9312e-06	57.051	0.00033067	0.00030734	8.516e-05	1530.4	3.4313e-06	3.349e-06	1541.9	408.39	3.3936e-06	3.3476e-06	459.8	156.74	136.82	47.149	3.394e-06	57.8	-159.022	-68.157	-65.325	-157.991	-36.899	-33.674	-158.118	-153.857	-68.722	-54.891	-154.034	-149.934	-149.554	-144.634	-15.933	-145.416	-8191	255	
1344.706	1	1	0	0	0.16569	0.14119	0.070258	0.18724	0.16144	0.092406	0.17963	0.064503	0.19784	0.11695	0.062042	0.095335	0.12897	0.11723	0.17252	0.058518	-2.6167	-3.4521	-3.05	-3.375	-3.35	-3.1958	-3.7438	-3.4125	-3.1	-3.7458	-3.2667	-3.4604	-3.5917	-3.2646	-3.6312	-3.3167	-168.864	-37.252	45.268	135.866	10.626	-0.529	-145.414	-105.783	106.120	125.878	171.680	104.221	157.041	154.532	-145.753	-145.767	0.00055065	0.00054121	0.00017918	1525.7	3.802e-06	4.5849e-06	1529.8	407.94	3.5206e-06	4.5901e-06	464.54	154.68	135.88	46.613	5.3227e-06	57.414	0.00032639	0.00031003	8.5651e-05	1529.1	3.4214e-06	3.4121e-06	1539.5	408.27	3.4276e-06	3.416e-06	459.05	156.24	136.81	47.027	3.4626e-06	57.784	-163.676	-40.422	-84.503	-158.091	-30.038	-92.922	-158.303	-153.709	-27.647	-82.120	-153.960	-149.983	-149.513	-144.334	3.108	-145.213	-8191	255	
1344.803	1	1	0	0	0.074373	0.050656	0.14614	0.24435	0.10287	0.10644	0.39099	0.13292	0.041394	0.18998	0.26054	0.22374	0.1758	0.26123	0.10181	0.21022	-2.8125	-3.3625	-3.0167	-3.3333	-3.3604	-3.0896	-3.7125	-3.6771	-3.2646	-3.4833	-3.35	-3.4042	-3.5979	-3.1917	-3.6708	-3.4708	-134.004	-113.706	-150.938	108.793	26.273	54.117	153.827	-46.770	145.048	185.142	164.425	66.469	103.528	-136.182	131.983	117.062	0.00051877	0.00076436	3.0306e-05	1529.1	3.8248e-06	3.5764e-06	1526.3	406.61	4.2794e-06	1.0467e-06	462.85	155.1	135.6	46.6	3.8111e-06	56.789	0.00032995	0.00031261	8.7602e-05	1528.4	3.4375e-06	3.3706e-06	1538.1	407.3	3.4232e-06	3.384e-06	459.04	156.33	136.59	46.968	3.4056e-06	57.592	-163.924	-66.942	-18.294	-158.017	-40.146	-19.213	-158.285	-153.931	-124.468	-82.093	-154.126	-149.877	-149.480	-144.674	21.096	-145.286	-8191	255	
1344.923	1	1	0	0	0.050768	0.13283	0.23344	0.2458	0.18099	0.075703	0.38012	0.14278	0.014801	0.15893	0.25768	0.053595	0.25085	0.030936	0.16063	0.34078	-2.8375	-3.4813	-3.3063	-3.5542	-3.6229	-3.1646	-3.6063	-3.5333	-3.1021	-3.4583	-3.3187	-3.4896	-3.5646	-3.2708	-3.2938	-3.3833	81.525	140.992	156.660	-168.094	-71.771	52.891	69.308	117.302	-167.215	46.017	156.982	11.298	110.754	-154.946	1.229	173.508	0.00054039	0.00052024	0.00015036	1519.9	1.4418e-06	9.361e-06	1530.2	406.02	4.3512e-06	7.0806e-06	463.68	154.8	135.51	46.665	4.0266e-06	57.103	0.00032805	0.0003084	8.5678e-05	1522.3	3.3736e-06	3.3539e-06	1536.3	407.23	3.3966e-06	3.4324e-06	457.98	156.11	136.38	46.961	3.3625e-06	57.602	-159.670	-117.384	-20.600	-158.085	25.206	-46.772	-158.297	-153.578	-25.631	-20.368	-154.039	-149.878	-149.384	-144.536	21.610	-145.208	-8191	255	
1344.995	1	1	0	0	0.21874	0.28173	0.068025	0.15557	0.15469	0.13435	0.21537	0.15766	0.16701	0.07464	0.077545	0.37244	0.17314	0.10975	0.2055	0.13478	-2.7667	-3.4667	-3.3	-3.7083	-3.6583	-3.2396	-3.6	-3.5896	-3.1375	-3.3646	-3.3125	-3.4021	-3.5396	-3.3125	-3.2917	-3.5	41.763	-51.798	-61.808	152.406	45.908	168.185	147.199	164.052	38.022	71.773	-110.287	68.166	141.258	61.565	158.057	115.822	0.00052477	0.00021983	0.00014068	1517.7	3.3039e-06	1.5744e-06	1525.4	405.32	4.0368e-06	5.5048e-06	460.12	154.29	135.69	46.563	2.3076e-06	56.855	0.00032136	0.00030512	8.3576e-05	1521.1	3.3456e-06	3.3065e-06	1532.8	405.88	3.2592e-06	3.2557e-06	456.77	155.58	136.45	46.819	3.237e-06	57.467	-160.339	-98.518	-90.546	-158.040	-57.892	-61.436	-158.455	-153.751	-23.071	14.094	-154.139	-149.984	-149.667	-144.641	-24.388	-145.345	-8191	255	
1345.089	1	1	0	0	0.074426	0.17666	0.1486	0.25198	0.14929	0.31049	0.20007	0.084078	0.18519	0.25401	0.0782	0.071259	0.15614	0.10357	0.10941	0.24753	-2.9125	-3.475	-3.425	-3.5438	-3.5438	-3.3458	-3.7042	-3.6354	-3.2708	-3.3438	-3.4104	-3.3354	-3.4083	-3.1937	-3.075	-3.5708	97.489	-22.656	-49.422	177.792	-30.759	78.325	-162.041	122.801	-60.891	-58.540	131.424	109.838	-61.516	-142.583	77.933	181.314	0.00055231	0.00011645	0.00013372	1515.2	3.9136e-06	3.7895e-06	1520	403.73	3.8281e-06	1.0505e-06	460.23	154.47	137.62	46.375	4.2008e-06	56.569	0.00031027	0.00029119	8.08e-05	1516	3.2596e-06	3.1711e-06	1529	404.85	3.1875e-06	3.1652e-06	454.55	155.37	137.99	46.717	3.1378e-06	57.186	-156.868	-98.484	-105.113	-157.825	-30.936	-20.753	-158.187	-153.739	-78.821	-57.904	-153.907	-149.946	-149.228	-144.557	-52.295	-145.196	-8191	255	
1345.185	1	1	0	0	0.18869	0.075188	0.16786	0.26086	0.096671	0.16936	0.085135	0.12345	0.19338	0.030233	0.10465	0.078502	0.063416	0.25748	0.078418	0.25099	-3.0021	-3.5896	-3.575	-3.5	-3.6208	-3.3958	-3.5625	-3.6583	-3.2917	-3.6417	-3.5708	-3.4667	-3.6104	-3.3771	-3.275	-3.55	63.838	141.506	167.509	-156.034	-155.898	-15.210	91.099	136.207	-12.513	126.843	51.149	187.016	183.860	133.487	104.925	182.889	0.00053318	0.00043064	0.00021459	1501.8	4.2733e-06	1.3088e-06	1509.5	402	5.6312e-06	1.3156e-06	452.72	152.36	135.75	45.735	3.5805e-06	56.051	0.00030261	0.00028277	7.8048e-05	1505.1	3.0776e-06	3.0254e-06	1516.9	401.24	3.036e-06	2.965e-06	448.86	153.14	136	46.025	2.9608e-06	56.43	-160.099	-69.718	-74.050	-157.992	-34.720	21.352	-158.308	-153.640	-2.191	-98.849	-153.865	-149.896	-149.243	-144.658	-25.394	-145.237	-8191	255	
1345.283	1	1	0	0	0.20269	0.038367	0.062782	0.16308	0.049757	0.1909	0.2059	0.21552	0.18201	0.091556	0.048027	0.18615	0.096	0.14133	0.17023	0.10407	-2.6729	-3.55	-3.5312	-3.3646	-3.5521	-3.3104	-3.2833	-3.5292	-3.05	-3.325	-3.5521	-3.2083	-3.4208	-3.3187	-3.1937	-3.5062	-165.649	172.013	-126.753	108.890	25.894	131.125	93.178	-158.983	-97.654	-89.067	-25.696	140.542	-79.029	-164.670	187.456	150.763	0.00052587	0.00049777	0.0001457	1478.2	3.4233e-06	5.3625e-06	1490.2	396.46	5.0846e-06	5.5852e-06	450.8	150.97	134.81	45.336	6.7705e-06	55.567	0.00028563	0.00026246	7.4231e-05	1479.8	2.9241e-06	2.9186e-06	1497	397.14	2.8695e-06	2.8177e-06	445.96	152.24	135.13	45.688	2.8258e-06	56.013	-162.463	-93.766	-87.775	-158.061	-53.824	27.582	-158.224	-153.845	-68.510	-45.466	-153.942	-150.116	-149.306	-144.475	-18.154	-145.141	-8191	255	
1345.402	1	1	0	0	0.088166	0.10268	0.15918	0.15158	0.35883	0.32518	0.42482	0.16923	0.10397	0.25289	0.091684	0.14229	0.18172	0.12623	0.10629	0.080242	-2.8875	-3.2729	-3.4458	-3.4979	-3.3937	-3.3979	-3.5	-3.8	-3.2104	-3.0375	-3.6042	-3.325	-3.6	-3.4521	-3.1479	-3.5187	0.735	1.174	122.461	132.551	-98.719	-47.498	118.184	180.302	77.061	112.925	175.555	-160.523	171.559	-149.685	10.691	166.216	0.00054311	0.00047197	0.00013611	1478	2.7724e-06	2.2069e-06	1483.9	397.41	3.0203e-06	4.9433e-06	451.72	150.96	134.25	45.383	2.8732e-06	55.49	0.00028008	0.00025809	7.1486e-05	1476.1	2.881e-06	2.8723e-06	1493.6	397.66	2.9755e-06	2.8707e-06	446.28	152.15	134.65	45.585	2.8209e-06	55.867	-158.217	-88.587	-70.206	-158.102	-52.610	91.433	-158.409	-153.708	-113.874	-26.254	-153.996	-149.857	-149.277	-144.505	-5.465	-145.296	-8191	255	
1345.498	1	1	0	0	0.15604	0.24414	0.20788	0.2552	0.19586	0.17078	0.27255	0.3149	0.10357	0.20051	0.14367	0.29104	0.078743	0.091567	0.079361	0.21125	-2.9562	-3.1562	-3.4708	-3.3521	-3.4396	-3.5146	-3.4479	-3.6021	-3.4562	-3.2687	-3.7458	-3.4271	-3.4479	-3.5208	-3.1667	-3.6104	91.238	-41.926	-85.036	156.082	0.306	75.783	53.983	151.230	10.399	-32.778	-19.363	166.875	98.669	-129.117	17.095	34.476	0.00048832	0.00039529	3.4596e-05	1469.3	4.1737e-06	1.8463e-06	1478.1	395.92	4.6307e-06	9.8125e-06	452.03	150.35	134.04	45.119	5.4712e-06	55.42	0.00027269	0.0002477	6.9669e-05	1467.8	2.7834e-06	2.7272e-06	1483.7	396.55	2.7511e-06	2.7145e-06	444.71	151.43	134.2	45.373	2.6862e-06	55.791	-159.913	-64.764	-133.375	-157.882	-42.481	-37.173	-158.459	-153.837	-65.762	-41.991	-153.954	-149.925	-149.196	-144.351	-56.922	-145.046	-8191	255	
1345.595	1	1	0	0	0.18126	0.16405	0.074277	0.23121	0.15768	0.1951	0.15378	0.10269	0.11232	0.15198	0.21492	0.35469	0.19973	0.1074	0.16555	0.11096	-3.1292	-3.1688	-3.8125	-3.6479	-3.4625	-3.6312	-3.4292	-3.4479	-3.3625	-3.2292	-3.5771	-3.4417	-3.4562	-3.7042	-3.2521	-3.6188	-113.663	-125.940	-122.356	144.679	159.534	26.572	-101.685	55.094	121.342	63.186	-161.344	131.522	138.244	139.182	95.807	92.127	0.00048783	0.00049862	0.0001047	1458.5	3.8536e-06	3.8281e-06	1471.3	396.18	6.0691e-06	8.8683e-06	451.61	150.92	134.15	45.187	5.723e-06	55.335	0.00026251	0.00024188	6.7433e-05	1460.3	2.7176e-06	2.6737e-06	1479.1	396.31	2.7101e-06	2.628e-06	444.81	151.7	134.38	45.388	2.6568e-06	55.731	-159.359	-84.458	-105.408	-158.069	-28.933	-36.952	-158.208	-153.734	-56.944	-41.817	-154.067	-149.886	-149.061	-144.185	-22.823	-145.201	-8191	255	
1345.691	1	1	0	0	0.20332	0.16955	0.030783	0.34842	0.1229	0.24275	0.28655	0.35187	0.28144	0.1515	0.25492	0.18852	0.26948	0.11631	0.2346	0.11471	-3.1708	-3.375	-3.5646	-3.4521	-3.2021	-3.5687	-3.5042	-3.4979	-3.6562	-3.2958	-3.6958	-3.6521	-3.3521	-3.8812	-3.2583	-3.6583	81.215	29.435	-51.402	103.638	148.906	118.290	167.090	134.540	-16.704	-75.121	12.373	99.883	178.030	-148.036	117.490	187.492	0.00050502	0.00061544	0.00013876	1461.3	3.5322e-06	1.1131e-06	1471.8	398.71	4.0898e-06	5.9095e-06	451.51	150.96	133.92	45.033	5.3513e-06	55.563	0.00026163	0.00024233	6.6835e-05	1462.3	2.7053e-06	2.6692e-06	1479.5	397.92	2.6853e-06	2.6737e-06	445.83	151.82	134.61	45.4	2.6532e-06	55.795	-162.631	-111.591	-99.089	-157.904	-43.930	-115.834	-158.368	-153.770	-33.770	-37.025	-154.129	-150.028	-149.488	-144.411	-53.501	-145.436	-8191	255	
1345.787	1	1	0	0	0.21105	0.18892	0.1501	0.27934	0.19742	0.16474	0.42228	0.041908	0.14543	0.097184	0.13102	0.41411	0.23043	0.3231	0.043366	0.17751	-3.0563	-3.2667	-3.5625	-3.7333	-3.3063	-3.5833	-3.3187	-3.5292	-3.3271	-3.15	-3.5333	-3.5708	-3.1771	-3.6188	-3.1833	-3.4521	-20.002	115.322	153.976	178.794	-142.910	-163.537	114.372	173.182	142.696	-134.090	-169.156	101.309	72.619	165.027	96.561	140.761	0.00050868	0.00063057	0.00014539	1469.1	2.2369e-06	5.3569e-06	1482	399.38	4.4404e-06	2.2872e-06	450.6	150.91	134.62	45.419	7.6128e-06	55.723	0.00025961	0.0002392	6.6843e-05	1466.6	2.6841e-06	2.6368e-06	1485.2	398.85	2.6787e-06	2.6418e-06	446.85	152	134.91	45.494	2.6515e-06	55.969	-162.245	-86.353	-65.601	-157.997	-78.938	0.703	-158.300	-153.753	-28.906	-56.140	-154.227	-149.703	-149.615	-144.528	-36.573	-145.256	-8191	255	
1345.883	1	1	0	0	0.046424	0.13843	0.084965	0.087488	0.19435	0.041971	0.26346	0.13425	0.098406	0.30001	0.08821	0.10555	0.35478	0.13704	0.20087	0.23098	-3.2062	-3.2229	-3.5187	-3.45	-3.1208	-3.6417	-3.5646	-3.475	-3.525	-3.2208	-3.6354	-3.5208	-3.1771	-3.7292	-3.2708	-3.1021	-72.043	188.175	62.838	81.581	135.022	58.777	101.463	177.090	141.126	-105.340	-25.045	128.033	102.989	35.280	119.446	-71.405	0.0005263	0.0005492	0.00010142	1473.4	3.5576e-06	3.95e-06	1488.5	400.62	4.818e-06	3.8747e-06	454.06	151.99	135.05	45.566	4.0176e-06	55.846	0.00026228	0.00023917	6.611e-05	1472.3	2.6001e-06	2.569e-06	1491.9	399.93	2.5458e-06	2.4886e-06	448.16	152.73	135.33	45.662	2.4346e-06	56.12	-163.983	-100.447	-106.156	-157.826	-69.388	-56.290	-158.274	-153.716	-90.088	-77.362	-153.835	-149.849	-149.136	-144.576	-5.058	-145.037	-8191	255	
1346.004	1	1	0	0	0.057184	0.15493	0.32951	0.10383	0.10054	0.033361	0.23955	0.21613	0.11664	0.21577	0.19919	0.13155	0.18072	0.25042	0.21164	0.30941	-3.175	-3.0521	-3.3729	-3.7	-3.0208	-3.6625	-3.5917	-3.2771	-3.5021	-3.1917	-3.3792	-3.4896	-3.325	-3.6979	-3.3833	-3.3125	-46.429	-82.540	66.009	79.672	-36.025	123.243	119.603	-159.706	-30.120	-138.866	-61.382	84.208	150.169	115.142	-16.271	114.241	0.00052025	0.00051375	6.7204e-05	1471.1	2.7892e-06	4.6033e-06	1487.4	401.49	6.7024e-07	2.5503e-06	458.53	152.59	136.41	45.874	2.4376e-06	56.247	0.00024339	0.00022091	6.1015e-05	1470.9	2.4406e-06	2.3878e-06	1491.9	401.19	2.3926e-06	2.3402e-06	451.34	153.52	136.15	46.025	2.3503e-06	56.492	-163.933	-87.344	-117.728	-157.861	-58.397	-24.311	-158.169	-153.635	-3.474	-49.369	-154.028	-149.852	-149.362	-144.507	-49.662	-145.164	-8191	255	
1346.098	1	1	0	0	0.15726	0.1755	0.12169	0.13221	0.24397	0.13132	0.16147	0.097443	0.02196	0.30195	0.11315	0.10219	0.39272	0.10043	0.052355	0.14619	-3.1813	-3.3354	-3.5417	-3.7042	-3.2812	-3.5375	-3.7875	-3.2854	-3.7062	-3.4625	-3.5333	-3.7521	-3.3708	-3.5833	-3.3583	-3.1333	157.218	-48.746	-106.744	147.084	-83.088	-15.021	-1.634	157.365	-165.378	161.445	-98.205	38.468	173.972	150.626	98.896	-168.063	0.00050067	0.00054355	0.00013477	1477.7	6.2907e-06	4.463e-06	1493.3	401.79	3.414e-06	6.6891e-06	457.53	153.05	136.13	45.744	5.1357e-06	56.276	0.00023263	0.00020815	5.8657e-05	1475.6	2.3345e-06	2.2772e-06	1495.1	401.34	2.3161e-06	2.2721e-06	451.57	153.42	135.7	45.881	2.2327e-06	56.375	-160.603	-89.465	-85.374	-157.927	-34.710	-17.446	-158.092	-153.585	-74.308	-18.272	-153.717	-149.843	-149.621	-144.554	-25.401	-145.029	-8191	255	
1346.194	1	1	0	0	0.17511	0.068609	0.1645	0.3042	0.067197	0.098388	0.22208	0.16937	0.16567	0.19395	0.27905	0.034905	0.19707	0.15865	0.25015	0.15876	-3.175	-3.2667	-3.0208	-3.7396	-3.3438	-3.6396	-3.5875	-3.325	-3.6375	-3.4458	-3.4125	-3.7062	-3.4146	-3.5708	-3.4917	-3.2125	-136.316	-103.891	19.419	109.220	-7.891	172.481	147.696	76.467	12.065	-57.916	15.466	-130.123	162.899	154.964	11.740	-123.906	0.00050535	0.00019775	0.00017712	1476.6	2.0804e-06	1.8825e-06	1491.4	402.43	4.9267e-06	8.3404e-06	458.2	152.15	136.15	45.758	2.1534e-06	55.751	0.0002262	0.00019902	5.606e-05	1475	2.2545e-06	2.2099e-06	1494.7	401.4	2.2582e-06	2.1717e-06	451.45	152.94	135.73	45.818	2.1839e-06	56.103	-160.238	-62.199	-66.753	-158.053	-38.941	-104.474	-158.244	-153.990	-47.496	-58.034	-153.940	-149.812	-149.412	-144.375	-82.482	-145.249	-8191	255	
1346.290	1	1	0	0	0.12835	0.13993	0.20181	0.18871	0.31017	0.22964	0.11133	0.31327	0.12199	0.12584	0.18115	0.17584	0.0072855	0.060347	0.14823	0.12001	-3.1583	-3.4625	-3.2771	-3.6604	-3.3021	-3.5729	-3.8521	-3.3229	-3.5146	-3.3688	-3.3583	-3.725	-3.3625	-3.5333	-3.5938	-3.325	106.289	11.980	-94.267	139.067	115.300	86.193	127.831	185.172	68.113	155.801	-113.255	118.127	137.529	84.293	-49.266	148.659	0.00047332	0.00041786	0.00013958	1477.7	5.5313e-06	5.05e-06	1488.3	399.95	5.788e-06	5.3394e-06	458.58	151.68	135.04	45.493	2.3554e-06	55.666	0.00022015	0.00019475	5.4675e-05	1476	2.1842e-06	2.123e-06	1492	400.2	2.2595e-06	2.1597e-06	450.47	152.4	135.25	45.501	2.1851e-06	55.797	-161.990	-101.966	-73.022	-157.814	-70.015	-90.425	-158.035	-153.912	-48.906	-60.181	-153.951	-149.989	-149.351	-144.962	4.130	-145.425	-8191	255	
#DATA ENDS
