BOXY.EXE: ISS Imagent and Oximeter Data Acquisition Program Version 0.80
Ascii Record File

#ACQ INFORMATION
2  Detector Channels 
16  External MUX Channels 
1  Auxiliary Channels 
5000  Waveform (CCF) Frequency (Hz)
1  Waveforms Skipped 
30  Waveforms Averaged 
1  Cycles Averaged 
16  Acquisitions per Waveform 
10.0806  Updata Rate (Hz) 

#FILE INFORMATION
TRUE -- External MUX Channel results are PARSED.
FALSE -- AC DC and Phase are NOT grouped.
TRUE -- Companion Program Settings File CREATED.
FALSE -- AC data not excluded
FALSE -- DC data not excluded
FALSE -- Phase data not excluded
FALSE -- Auxillary Chn. data not excluded
Tab delimiters

#CALIBRATION STATE
TRUE -- Waveform Calibration Values APPLIED.


#AUX CALIBRATION VALUES
Val Type	aux-1	

Term	1.0000e+00	
Factor	0.0000e+00	


#WF CALIBRATION VALUES
A = Detector Channel
Val Type	A-AC1	A-AC2	A-AC3	A-AC4	A-AC5	A-AC6	A-AC7	A-AC8	A-AC9	A-AC10	A-AC11	A-AC12	A-AC13	A-AC14	A-AC15	A-AC16	A-DC1	A-DC2	A-DC3	A-DC4	A-DC5	A-DC6	A-DC7	A-DC8	A-DC9	A-DC10	A-DC11	A-DC12	A-DC13	A-DC14	A-DC15	A-DC16	A-Ph1	A-Ph2	A-Ph3	A-Ph4	A-Ph5	A-Ph6	A-Ph7	A-Ph8	A-Ph9	A-Ph10	A-Ph11	A-Ph12	A-Ph13	A-Ph14	A-Ph15	A-Ph16	

Term	0.00000e+00	0.00000e+00	0.00000e+00	0.00000e+00	0.00000e+00	0.00000e+00	0.00000e+00	0.00000e+00	0.00000e+00	0.00000e+00	0.00000e+00	0.00000e+00	0.00000e+00	0.00000e+00	0.00000e+00	0.00000e+00	0.00000e+00	0.00000e+00	0.00000e+00	0.00000e+00	0.00000e+00	0.00000e+00	0.00000e+00	0.00000e+00	0.00000e+00	0.00000e+00	0.00000e+00	0.00000e+00	0.00000e+00	0.00000e+00	0.00000e+00	0.00000e+00	0.00000e+00	0.00000e+00	0.00000e+00	0.00000e+00	0.00000e+00	0.00000e+00	0.00000e+00	0.00000e+00	0.00000e+00	0.00000e+00	0.00000e+00	0.00000e+00	0.00000e+00	0.00000e+00	0.00000e+00	0.00000e+00	
Factor	1.00000e+00	1.00000e+00	1.00000e+00	1.00000e+00	1.00000e+00	1.00000e+00	1.00000e+00	1.00000e+00	1.00000e+00	1.00000e+00	1.00000e+00	1.00000e+00	1.00000e+00	1.00000e+00	1.00000e+00	1.00000e+00	1.00000e+00	1.00000e+00	1.00000e+00	1.00000e+00	1.00000e+00	1.00000e+00	1.00000e+00	1.00000e+00	1.00000e+00	1.00000e+00	1.00000e+00	1.00000e+00	1.00000e+00	1.00000e+00	1.00000e+00	1.00000e+00	X	X	X	X	X	X	X	X	X	X	X	X	X	X	X	X	

B = Detector Channel
Val Type	B-AC1	B-AC2	B-AC3	B-AC4	B-AC5	B-AC6	B-AC7	B-AC8	B-AC9	B-AC10	B-AC11	B-AC12	B-AC13	B-AC14	B-AC15	B-AC16	B-DC1	B-DC2	B-DC3	B-DC4	B-DC5	B-DC6	B-DC7	B-DC8	B-DC9	B-DC10	B-DC11	B-DC12	B-DC13	B-DC14	B-DC15	B-DC16	B-Ph1	B-Ph2	B-Ph3	B-Ph4	B-Ph5	B-Ph6	B-Ph7	B-Ph8	B-Ph9	B-Ph10	B-Ph11	B-Ph12	B-Ph13	B-Ph14	B-Ph15	B-Ph16	

Term	0.00000e+00	0.00000e+00	0.00000e+00	0.00000e+00	0.00000e+00	0.00000e+00	0.00000e+00	0.00000e+00	0.00000e+00	0.00000e+00	0.00000e+00	0.00000e+00	0.00000e+00	0.00000e+00	0.00000e+00	0.00000e+00	0.00000e+00	0.00000e+00	0.00000e+00	0.00000e+00	0.00000e+00	0.00000e+00	0.00000e+00	0.00000e+00	0.00000e+00	0.00000e+00	0.00000e+00	0.00000e+00	0.00000e+00	0.00000e+00	0.00000e+00	0.00000e+00	-4.66895e+01	-1.71885e+02	-1.35690e+02	-1.82083e+02	-8.59163e+01	-1.14521e+02	-1.56444e+02	-1.62015e+02	-7.42813e+01	-7.05972e+01	-1.70747e+02	-1.70713e+02	-1.80375e+02	-1.77189e+02	-9.09680e+01	-1.49288e+02	
Factor	2.09950e-05	1.03906e-04	2.22609e-05	1.60234e-01	1.01469e-06	8.15002e-07	1.69647e-01	5.29313e-02	7.74735e-07	8.33839e-07	8.72099e-02	3.32138e-02	3.12535e-02	9.37985e-03	8.50403e-07	1.38760e-02	3.92146e-07	3.96808e-07	1.10377e-07	7.58949e-02	4.34622e-09	4.34264e-09	7.54547e-02	2.47655e-02	4.34886e-09	4.34482e-09	3.81876e-02	1.43192e-02	1.37756e-02	4.22282e-03	4.34925e-09	5.90048e-03	X	X	X	X	X	X	X	X	X	X	X	X	X	X	X	X	



#DISTANCE SETTINGS
A = Detector Channel
A-1	A-2	A-3	A-4	A-5	A-6	A-7	A-8	A-9	A-10	A-11	A-12	A-13	A-14	A-15	A-16	

2.5000e+00	3.0000e+00	2.5000e+00	3.0000e+00	2.0000e+00	3.0000e+00	1.5000e+00	3.0000e+00	3.0000e+00	3.0000e+00	3.0000e+00	3.0000e+00	3.0000e+00	3.0000e+00	1.5000e+00	3.0000e+00	

B = Detector Channel
B-1	B-2	B-3	B-4	B-5	B-6	B-7	B-8	B-9	B-10	B-11	B-12	B-13	B-14	B-15	B-16	

1.0000e+01	1.0000e+01	1.0000e+01	1.4400e+00	1.0000e+01	1.0000e+01	1.5100e+00	1.9400e+00	1.0000e+01	1.0000e+01	1.9900e+00	2.4900e+00	2.4100e+00	2.9000e+00	1.0000e+01	2.9800e+00	




#DATA BEGINS
time	group	step	mark	flag	A-AC1	A-AC2	A-AC3	A-AC4	A-AC5	A-AC6	A-AC7	A-AC8	A-AC9	A-AC10	A-AC11	A-AC12	A-AC13	A-AC14	A-AC15	A-AC16	A-DC1	A-DC2	A-DC3	A-DC4	A-DC5	A-DC6	A-DC7	A-DC8	A-DC9	A-DC10	A-DC11	A-DC12	A-DC13	A-DC14	A-DC15	A-DC16	A-Ph1	A-Ph2	A-Ph3	A-Ph4	A-Ph5	A-Ph6	A-Ph7	A-Ph8	A-Ph9	A-Ph10	A-Ph11	A-Ph12	A-Ph13	A-Ph14	A-Ph15	A-Ph16	B-AC1	B-AC2	B-AC3	B-AC4	B-AC5	B-AC6	B-AC7	B-AC8	B-AC9	B-AC10	B-AC11	B-AC12	B-AC13	B-AC14	B-AC15	B-AC16	B-DC1	B-DC2	B-DC3	B-DC4	B-DC5	B-DC6	B-DC7	B-DC8	B-DC9	B-DC10	B-DC11	B-DC12	B-DC13	B-DC14	B-DC15	B-DC16	B-Ph1	B-Ph2	B-Ph3	B-Ph4	B-Ph5	B-Ph6	B-Ph7	B-Ph8	B-Ph9	B-Ph10	B-Ph11	B-Ph12	B-Ph13	B-Ph14	B-Ph15	B-Ph16	aux-1	digaux	

1273.538	1	1	0	768	0.12142	0.068849	0.15527	0.19399	0.092234	0.22277	0.06269	0.23529	0.096539	0.24272	0.15202	0.14843	0.092947	0.20298	0.15211	0.23874	-2.5479	-2.2604	-2.8563	-2.7062	-2.75	-2.8333	-2.6333	-2.5792	-2.8667	-2.5875	-2.6896	-2.9229	-2.4208	-2.9479	-2.5729	-2.7708	164.263	476.215	244.841	308.799	167.759	287.934	495.851	186.545	304.340	393.120	428.799	214.621	450.600	487.079	221.286	448.136	0.00083678	0.00077975	0.00018371	654.19	1.3785e-06	4.1311e-06	897.87	209.15	3.2595e-06	5.5924e-06	362.29	154.28	89.687	42.321	6.0859e-06	72.078	0.00020525	0.00019342	5.2846e-05	615.13	1.9524e-06	1.8781e-06	829.39	194.8	1.7403e-06	1.7212e-06	323.58	134.55	78.572	37.491	1.5847e-06	61.857	266.563	212.046	213.887	156.359	379.937	217.832	156.618	163.046	309.135	264.629	161.804	167.157	168.534	172.071	251.979	170.450	-8191	255	
1273.634	1	1	0	0	0.080425	0.064813	0.086335	0.11352	0.25982	0.048906	0.077339	0.20351	0.12966	0.14543	0.19117	0.27133	0.1178	0.096413	0.15609	0.26146	-2.4167	-2.4458	-2.7646	-2.6292	-2.4042	-2.8083	-2.6292	-2.6437	-2.925	-2.5812	-2.8354	-2.7104	-2.5917	-2.7417	-2.7146	-2.5104	406.343	475.835	497.790	380.070	455.368	224.503	155.041	413.691	273.121	175.243	276.751	170.058	442.180	476.221	210.293	402.818	0.00086342	0.00041014	0.00012191	648.5	3.2866e-06	1.9338e-06	896.16	210.02	1.944e-06	4.1304e-06	361.71	153.96	88.757	41.714	3.3884e-06	71.314	0.00014971	0.00014041	3.9243e-05	606.03	1.5589e-06	1.5513e-06	825.7	193.55	1.6183e-06	1.6255e-06	322.58	134.62	78.232	37.173	1.685e-06	61.31	267.741	199.927	289.629	156.551	267.576	260.402	156.436	162.899	322.923	274.614	161.849	166.990	168.552	171.997	339.128	170.621	-8191	255	
1273.730	1	1	0	0	0.23137	0.11723	0.16572	0.11639	0.08936	0.085407	0.20001	0.12602	0.30604	0.023442	0.1223	0.033768	0.057048	0.17874	0.20121	0.28191	-2.6083	-2.5187	-2.7625	-2.9125	-2.3208	-3.0375	-2.6771	-2.575	-2.8438	-2.5958	-2.8875	-3.0854	-2.5417	-2.8417	-2.6458	-2.5187	276.694	498.756	260.468	180.677	231.254	463.033	450.152	284.001	182.729	155.965	398.293	416.545	310.652	486.507	196.334	162.498	0.00083496	0.00027303	0.00022504	647.95	3.5191e-06	2.3439e-06	890.16	205.03	8.0637e-07	4.7986e-06	352.84	148.91	85.646	39.939	4.4904e-06	68.783	0.00016477	0.00015554	4.3893e-05	605.94	1.7277e-06	1.7812e-06	823.84	190.21	1.8076e-06	1.8326e-06	317.09	130.81	76.065	35.807	1.9016e-06	59.774	265.648	472.864	293.515	156.709	260.423	302.259	156.304	163.146	239.689	410.114	161.921	167.033	168.561	172.467	295.014	170.454	-8191	255	
1273.826	1	1	0	0	0.20622	0.10876	0.22745	0.12266	0.19619	0.26932	0.25439	0.071138	0.11225	0.21899	0.092405	0.017515	0.2466	0.29666	0.19462	0.19699	-2.3937	-2.6917	-2.7167	-3.0583	-2.2979	-2.8187	-2.7792	-2.7146	-2.8771	-2.7042	-2.8563	-3.0687	-2.5542	-2.8271	-2.7729	-2.5875	169.932	147.647	501.531	335.535	223.876	363.876	432.363	491.094	379.470	485.693	173.809	308.828	432.429	340.796	236.472	158.906	0.00074398	0.0005331	8.5755e-05	644.12	5.1919e-06	1.9753e-06	891.21	202.4	3.7205e-06	1.8627e-06	350.38	148.2	85.42	40.262	6.7786e-06	68.588	0.00018248	0.00017589	4.8669e-05	605.92	1.9306e-06	1.9318e-06	825.22	189.25	1.943e-06	1.9391e-06	316.02	130.55	75.947	35.825	1.9276e-06	59.475	267.089	201.980	222.194	156.702	301.136	179.112	156.613	163.030	208.401	159.003	162.125	167.185	168.629	172.165	283.614	170.492	-8191	255	
1273.922	1	1	0	0	0.13971	0.1624	0.15423	0.039741	0.16498	0.16314	0.14671	0.18229	0.11389	0.10345	0.091088	0.13179	0.2108	0.13553	0.15859	0.12812	-2.5	-2.8021	-2.5375	-3.0021	-2.3375	-2.6479	-2.9729	-2.4375	-2.7833	-2.7375	-2.4688	-2.9292	-2.4604	-2.5521	-2.9458	-2.4521	427.824	230.669	405.083	455.043	241.177	288.959	438.206	453.053	360.836	333.853	409.393	158.552	475.040	459.916	222.910	484.814	0.00083011	0.00055182	5.555e-05	643.27	5.7473e-07	5.0421e-06	888.42	202.45	4.3165e-06	1.204e-06	348.72	146.5	83.723	39.248	3.257e-06	67.569	0.00018181	0.0001707	4.7946e-05	606.71	1.8683e-06	1.8153e-06	823.78	188.02	1.8287e-06	1.8034e-06	313.77	128.93	74.765	35.114	1.8372e-06	58.687	271.017	238.384	445.020	156.333	210.657	232.312	156.624	162.935	298.463	238.124	162.046	166.958	168.393	172.318	242.703	170.382	-8191	255	
1274.019	1	1	0	0	0.17082	0.05024	0.26579	0.34455	0.47556	0.20373	0.085255	0.15706	0.17963	0.095446	0.26163	0.018525	0.23599	0.096325	0.12666	0.18919	-2.55	-2.7583	-2.3646	-2.7687	-2.7188	-2.7167	-2.8208	-2.4667	-2.8417	-2.6833	-2.6979	-3.0042	-2.4562	-2.7229	-2.9604	-2.6688	499.296	344.821	352.254	445.634	164.070	496.161	496.311	434.713	194.615	399.767	473.645	359.060	384.486	226.100	474.216	385.049	0.00084825	0.00057419	2.6934e-05	646.22	4.7929e-06	3.2025e-06	894.36	202.08	5.3833e-06	4.3058e-06	347.39	146.34	82.762	39.128	1.8897e-06	67.041	0.00017714	0.00016837	4.7017e-05	609.21	1.8546e-06	1.8519e-06	828.8	188.26	1.888e-06	1.8905e-06	313.32	128.68	74.468	35.031	1.9618e-06	58.396	276.559	187.277	377.860	156.632	288.726	280.894	156.574	162.783	218.544	260.715	161.886	167.226	168.527	172.777	284.449	170.295	-8191	255	
1274.139	1	1	0	0	0.13168	0.18429	0.27917	0.069692	0.1234	0.13598	0.24573	0.10682	0.23743	0.11987	0.041581	0.25159	0.20118	0.14242	0.13025	0.13794	-2.4021	-2.7083	-2.3771	-3.0312	-2.6375	-2.5187	-3.0854	-2.5938	-2.6229	-2.6813	-2.475	-2.8063	-2.6333	-2.6229	-2.7667	-2.5792	371.481	463.586	250.739	385.959	251.366	238.595	421.372	503.096	426.213	292.657	375.994	495.995	250.164	302.418	327.240	198.664	0.0007591	0.00080077	4.4221e-05	645.19	8.4698e-06	2.2094e-06	889.27	200.03	3.9059e-06	1.4675e-06	343.41	142.79	81.519	37.985	4.0927e-06	65.356	0.00018826	0.00018093	5.067e-05	611.28	1.9839e-06	2.0132e-06	826.62	187.73	2.0251e-06	2.0434e-06	310.74	126.37	73.528	34.158	2.1043e-06	57.078	271.349	163.020	494.528	156.710	239.857	156.053	156.495	163.383	302.538	294.795	161.613	166.784	168.821	172.158	283.089	170.421	-8191	255	
1274.234	1	1	0	0	0.060941	0.21664	0.1961	0.36427	0.022701	0.33441	0.12096	0.12369	0.064824	0.2728	0.22477	0.29579	0.3113	0.084648	0.25176	0.15239	-2.4979	-2.7229	-2.4729	-2.9729	-2.7458	-2.4833	-2.8438	-2.6708	-2.8333	-2.8396	-2.6292	-2.7854	-2.7208	-2.4021	-2.8937	-2.6333	197.843	327.456	381.193	454.619	308.910	145.748	151.812	385.440	456.965	319.231	462.802	332.580	152.992	456.639	298.136	450.002	0.00081385	0.0009636	0.00014019	645	4.0091e-06	5.7079e-06	885.06	198.77	1.8533e-06	2.5239e-07	340.6	140.99	80.858	37.452	7.7403e-06	64.891	0.00020219	0.00019471	5.4926e-05	612.54	2.2079e-06	2.2256e-06	825.98	187.22	2.2493e-06	2.2621e-06	310.42	125.8	73.625	33.958	2.3506e-06	56.938	262.143	183.607	299.688	156.252	299.008	291.771	156.406	162.765	212.391	378.772	161.965	166.983	168.680	172.246	306.987	170.574	-8191	255	
1274.330	1	1	0	0	0.15444	0.19449	0.33218	0.15819	0.22237	0.1506	0.27417	0.30949	0.27163	0.14357	0.35176	0.17913	0.13072	0.097532	0.023217	0.30186	-2.2125	-2.7083	-2.4083	-2.6604	-2.4896	-2.5062	-2.7854	-2.5542	-2.55	-2.7458	-2.55	-2.9542	-2.6229	-2.4792	-2.9646	-2.6229	340.761	241.898	437.313	412.745	215.289	286.252	412.657	488.217	324.668	495.051	480.685	298.961	481.338	154.445	163.892	455.961	0.00074606	0.00089003	0.00014797	647.92	3.5892e-06	4.8511e-06	879.88	197.65	6.3496e-06	6.2385e-06	339.96	138.88	79.826	36.516	2.3479e-06	63.819	0.00022413	0.0002173	6.091e-05	618.27	2.4445e-06	2.4384e-06	829.39	188.1	2.4954e-06	2.4885e-06	310.97	124.78	73.182	33.424	2.5437e-06	56.346	272.813	304.895	239.645	156.881	300.551	263.143	156.531	163.217	311.869	245.681	161.839	167.024	168.443	172.153	330.419	170.561	-8191	255	
1274.426	1	1	0	0	0.12461	0.082065	0.13553	0.22159	0.35487	0.13775	0.23021	0.16833	0.1524	0.072803	0.32175	0.07084	0.24929	0.15108	0.16669	0.082538	-2.1937	-2.9521	-2.2313	-2.7604	-2.6208	-2.5458	-2.9333	-2.6833	-2.4229	-3.0625	-2.6375	-2.5333	-3.0812	-2.3688	-2.7375	-2.6958	414.399	349.270	234.510	431.237	286.025	296.004	440.168	481.263	425.650	475.310	417.290	161.121	210.602	445.186	311.158	165.810	0.00076073	0.00011983	0.00013499	649.03	3.9111e-06	3.7828e-06	885.33	198	6.4804e-06	5.0571e-06	339.26	138.45	78.889	35.912	1.0971e-06	62.762	0.00024269	0.00023661	6.6188e-05	621.89	2.6507e-06	2.6602e-06	834.3	189.07	2.7041e-06	2.7065e-06	312.12	124.87	73.389	33.188	2.8493e-06	55.942	267.135	238.288	183.596	156.678	316.729	207.649	156.402	162.967	309.182	291.090	161.591	167.263	168.819	172.226	291.248	170.470	-8191	255	
1274.522	1	1	0	0	0.30012	0.030125	0.25165	0.224	0.063343	0.40476	0.35944	0.25178	0.11751	0.026991	0.11788	0.23081	0.21534	0.20396	0.12867	0.043447	-1.9625	-2.8792	-2.6292	-2.5708	-2.8667	-2.4792	-2.7792	-2.625	-2.2604	-2.9292	-2.6167	-2.6646	-2.9271	-2.3875	-2.6771	-2.7812	230.989	460.131	418.729	446.847	155.420	203.117	373.194	455.932	266.885	334.549	452.469	247.917	410.504	372.270	388.745	324.588	0.0006416	5.8406e-05	6.9743e-05	650.77	4.6342e-06	5.0146e-06	888.33	196.91	3.8469e-06	7.6623e-06	333.96	135.44	77.434	35.178	6.541e-06	61.352	0.00027203	0.00026459	7.4778e-05	631.12	2.9787e-06	2.9697e-06	839.28	190.18	2.9855e-06	3.0021e-06	310.37	123.24	73.193	32.707	3.0325e-06	55.011	261.727	380.168	279.446	156.697	235.895	353.695	156.635	162.843	220.962	311.392	161.573	166.731	168.449	172.346	342.560	170.347	-8191	255	
1274.618	1	1	0	0	0.1794	0.12061	0.039565	0.36284	0.067344	0.21713	0.38938	0.13761	0.17278	0.3312	0.15768	0.19566	0.059895	0.10601	0.1706	0.062575	-2.0229	-2.8229	-2.6104	-2.55	-2.8187	-2.4729	-2.7521	-2.9167	-2.3063	-2.9292	-2.6104	-2.4833	-3.075	-2.425	-2.5563	-3.1083	465.372	346.853	341.526	464.664	237.034	307.499	441.154	229.085	340.776	459.835	455.597	424.119	158.461	426.073	437.051	219.631	0.0007654	0.00058462	0.00023688	645.03	2.9571e-06	6.5324e-06	872.74	196.96	2.2509e-06	1.6819e-06	332.36	135.51	78.539	35.435	4.6625e-06	61.609	0.00028426	0.0002767	7.7956e-05	628.08	3.0465e-06	3.0483e-06	830.59	189.72	3.025e-06	3.0019e-06	309.83	123.45	73.408	32.859	2.9263e-06	55.306	274.013	444.036	224.654	156.552	165.654	255.721	156.366	162.917	433.337	158.124	161.672	167.101	168.254	172.136	277.822	170.418	-8191	255	
1274.739	1	1	0	0	0.23407	0.19638	0.085376	0.17223	0.20769	0.079657	0.11355	0.090854	0.13135	0.15535	0.18269	0.33079	0.12	0.12046	0.14095	0.35098	-1.8667	-2.7625	-2.5583	-2.5125	-2.9125	-2.5292	-2.6917	-2.8625	-2.3625	-2.8792	-2.8333	-2.5646	-2.8333	-2.4813	-2.6958	-2.9271	315.311	505.051	284.754	197.693	268.778	219.134	339.025	249.159	479.709	461.632	209.750	165.921	476.377	312.612	244.792	422.027	0.00063468	0.00019839	6.2883e-05	642.84	3.5516e-06	4.0588e-06	877.19	198.29	3.9917e-06	1.7546e-06	333.72	136.22	77.897	35.109	3.0221e-06	61.478	0.00027397	0.00026586	7.3463e-05	621.73	2.8846e-06	2.8549e-06	831.27	189.77	2.8849e-06	2.9079e-06	310.3	123.72	73.526	32.67	3.0028e-06	55.097	276.533	183.932	204.217	156.694	322.257	190.641	156.648	163.052	271.350	491.354	161.538	167.033	168.888	172.039	415.495	170.308	-8191	255	
1274.835	1	1	0	0	0.061652	0.055829	0.099213	0.31706	0.20279	0.14762	0.19842	0.29764	0.070638	0.13043	0.26792	0.12653	0.095743	0.18156	0.11517	0.3707	-1.8458	-2.4708	-2.8021	-2.6396	-2.8229	-2.3229	-2.6229	-2.9167	-2.5062	-2.6229	-2.7021	-2.4083	-2.875	-2.4396	-2.475	-3.0187	306.306	290.311	497.055	155.840	233.658	396.729	473.596	169.635	331.805	474.920	489.383	247.593	169.647	469.817	401.171	487.548	0.0006672	0.00084325	5.1667e-05	649.73	7.8105e-06	4.294e-06	887.53	198.14	2.7794e-07	4.5651e-06	335.93	134.97	77.768	34.875	3.8199e-06	61.39	0.00028177	0.00027415	7.5414e-05	630.6	2.8942e-06	2.876e-06	840.37	190.34	2.8192e-06	2.8046e-06	310.24	122.52	72.704	32.337	2.8038e-06	54.631	272.426	244.427	317.965	156.743	269.311	213.686	156.553	162.925	350.385	269.321	161.527	167.354	168.611	172.092	346.559	170.530	-8191	255	
1274.931	1	1	0	0	0.20423	0.29755	0.14475	0.26341	0.16627	0.15818	0.21873	0.158	0.15763	0.29932	0.018926	0.23334	0.048532	0.20717	0.22772	0.055857	-2.0229	-2.6521	-2.7625	-2.375	-2.7042	-2.4646	-2.7062	-2.7792	-2.4437	-2.7396	-2.7917	-2.4083	-2.8542	-2.6396	-2.4229	-3.0479	407.867	269.569	503.761	470.547	344.728	242.185	464.671	386.556	348.752	341.221	205.884	467.621	396.077	492.847	206.274	265.343	0.000649	0.00072859	6.8434e-05	659.42	3.9407e-06	5.5548e-06	890.23	201.84	7.7627e-06	3.4012e-07	342.45	139.33	81.529	37.223	2.3788e-06	64.377	0.00025862	0.00025555	7.1032e-05	635	2.8205e-06	2.8244e-06	843.27	193.75	2.8104e-06	2.7665e-06	315.34	125.91	75.318	34.092	2.5832e-06	56.836	264.303	498.811	325.826	157.081	313.111	360.749	156.285	162.600	243.205	350.065	161.335	166.832	168.885	172.209	403.072	170.437	-8191	255	
1275.027	1	1	0	0	0.12843	0.042053	0.2592	0.24904	0.069528	0.075916	0.4021	0.31887	0.069871	0.24249	0.13748	0.16797	0.1623	0.52145	0.27587	0.21809	-2.1188	-2.5396	-2.7917	-2.3896	-2.9813	-2.625	-2.5458	-3.0812	-2.3375	-2.6917	-2.9688	-2.5479	-2.7896	-2.6479	-2.4917	-3.1042	301.146	250.252	460.009	424.412	182.015	288.094	394.328	286.485	283.074	292.744	502.971	501.479	452.953	411.522	407.499	445.025	0.00077148	0.00041565	0.00013754	663.98	4.1163e-06	2.066e-06	898.25	207.81	3.1947e-06	2.8839e-06	351.81	144.76	84.836	38.861	2.2158e-06	67.102	0.00024002	0.00023008	6.3781e-05	632.7	2.4779e-06	2.4517e-06	840.83	196	2.342e-06	2.2992e-06	317.93	128.33	76.697	35.1	2.1437e-06	58.413	276.506	275.749	167.975	156.871	203.550	503.319	156.697	162.634	257.612	156.655	161.695	167.112	168.480	172.330	359.536	170.562	-8191	255	
1275.099	1	1	0	0	0.067589	0.14975	0.44716	0.34171	0.041556	0.16223	0.049405	0.23056	0.15876	0.21056	0.088014	0.12264	0.13082	0.23355	0.090795	0.091292	-1.8104	-2.5458	-2.7583	-2.4125	-2.8271	-2.6688	-2.6229	-2.9896	-2.5729	-2.55	-2.9062	-2.4167	-2.7	-2.5896	-2.2125	-2.9771	472.171	229.647	438.051	460.711	301.749	423.306	322.627	397.296	152.977	390.584	210.135	488.238	372.676	450.697	341.586	502.549	0.00075707	0.00058091	3.7715e-05	661.62	6.1269e-06	4.99e-07	901.56	211.01	6.7862e-06	7.1563e-07	354.48	146.29	86.031	39.644	4.8683e-06	67.562	0.00020389	0.00019535	5.4171e-05	626.8	2.1534e-06	2.1563e-06	838.78	198.27	2.117e-06	2.1117e-06	321.01	129.56	77.096	35.562	2.0245e-06	58.662	272.737	223.999	251.294	156.642	287.041	234.737	156.417	163.038	291.944	290.425	161.678	166.858	168.597	171.661	292.575	170.570	-8191	255	
1275.218	1	1	0	0	0.1169	0.21022	0.14037	0.19803	0.13707	0.1697	0.27683	0.15977	0.1357	0.12143	0.20997	0.28323	0.1113	0.19117	0.20885	0.28104	-2.1937	-2.6083	-2.85	-2.2708	-2.6646	-2.9479	-2.1583	-2.8667	-2.5125	-2.4125	-3.0375	-2.5812	-2.5854	-2.8438	-2.3292	-2.8042	163.622	472.404	482.808	164.187	288.932	345.285	404.301	481.453	307.643	307.540	476.782	496.461	163.885	448.176	181.020	483.195	0.00079461	0.00058137	0.00012381	666.65	1.7905e-06	5.8795e-06	904.26	212.27	5.2913e-06	3.3522e-06	358.27	146.94	86.677	39.508	5.7113e-06	67.124	0.0001931	0.00018379	5.1831e-05	628.43	2.0561e-06	2.0728e-06	841.13	198.81	2.0839e-06	2.0925e-06	322.37	130	77.219	35.47	2.0039e-06	58.287	271.653	484.634	262.801	156.803	312.491	276.544	156.587	162.944	276.810	378.435	161.773	166.964	168.403	172.161	286.186	170.767	-8191	255	
1275.314	1	1	0	0	0.22317	0.13021	0.14389	0.30809	0.23922	0.10498	0.033707	0.22534	0.11376	0.13531	0.090699	0.28257	0.12372	0.14161	0.21974	0.30986	-2.1208	-2.4938	-3.0104	-2.4542	-2.7854	-2.7062	-2.4604	-2.9708	-2.65	-2.4562	-3.0146	-2.5875	-2.6583	-2.8042	-2.4646	-2.6729	185.326	435.177	328.315	444.544	504.364	366.899	234.950	247.223	277.158	505.027	202.392	467.932	395.925	227.993	459.179	441.086	0.00077303	0.00039232	0.00013065	664.39	4.4744e-06	4.709e-06	905.87	207.53	3.4505e-06	5.4532e-06	351.05	143.56	83.77	38.412	4.6683e-06	65.959	0.0001908	0.00018481	5.1423e-05	627.22	2.0508e-06	2.0473e-06	841.23	194.23	2.116e-06	2.1337e-06	316.86	127.35	75.589	34.789	2.2188e-06	57.736	262.944	435.735	211.623	156.728	243.722	220.708	156.460	163.236	258.514	270.929	161.797	167.089	168.472	171.906	239.605	170.580	-8191	255	
1275.410	1	1	0	0	0.06791	0.12828	0.18126	0.36095	0.14397	0.073106	0.17251	0.26651	0.055549	0.2553	0.10629	0.068546	0.21311	0.39389	0.28712	0.20555	-2.3937	-2.3854	-2.8042	-2.7542	-2.3604	-2.8854	-2.4958	-2.6708	-2.7771	-2.5542	-3.025	-2.6083	-2.3646	-2.6729	-2.4875	-2.5021	497.714	205.516	500.851	424.302	206.792	497.821	413.499	416.237	386.664	290.445	152.205	163.727	273.777	400.930	270.676	437.133	0.0007638	0.00059829	0.00013327	661.96	5.4062e-06	2.7892e-06	901.87	205.66	1.0476e-06	3.4875e-06	352.52	146.53	85.938	39.853	2.3629e-06	68.489	0.00021394	0.0002075	5.7726e-05	630.07	2.2902e-06	2.2421e-06	842.3	194.61	2.2122e-06	2.1907e-06	318.57	129.17	77.28	35.919	2.096e-06	59.634	263.643	247.542	356.482	156.683	347.283	222.434	156.667	162.495	364.489	180.054	161.812	167.264	168.532	172.320	184.486	170.489	-8191	255	
1275.506	1	1	0	0	0.092002	0.071204	0.087657	0.13795	0.11983	0.27435	0.19422	0.053565	0.050953	0.049225	0.12711	0.047746	0.2021	0.0092712	0.21437	0.097005	-2.4125	-2.3688	-2.725	-2.6813	-2.5208	-2.8375	-2.6479	-2.7521	-2.6146	-2.4271	-2.9208	-2.4562	-2.4833	-2.8479	-2.2208	-2.8458	318.292	150.727	495.585	437.151	283.316	253.078	457.441	340.433	370.373	175.306	204.118	443.422	461.616	212.080	503.741	337.689	0.0007489	0.00083359	0.00014526	664.81	4.715e-06	4.6648e-06	907.8	212.99	9.4375e-07	2.5292e-06	360.47	151.24	89.393	41.557	5.2311e-06	69.473	0.00019869	0.0001878	5.1795e-05	627.53	2.0535e-06	2.0632e-06	841.4	199.31	2.1181e-06	2.1397e-06	325.07	134.19	79.921	37.358	2.1821e-06	60.622	276.159	280.618	203.920	156.973	293.820	196.980	156.712	163.075	476.929	259.415	161.955	167.061	168.782	172.155	307.929	170.472	-8191	255	
1275.627	1	1	0	0	0.21114	0.17551	0.088444	0.27942	0.080721	0.22137	0.088068	0.05116	0.11984	0.14027	0.018862	0.32892	0.28014	0.26142	0.13266	0.28936	-2.6021	-2.2854	-2.7083	-2.7479	-2.1979	-2.7792	-2.425	-2.6708	-2.7229	-2.3979	-2.8812	-2.6688	-2.2354	-3.1021	-2.5062	-2.5938	478.077	253.040	259.699	425.769	188.080	245.115	221.424	200.949	449.628	180.183	484.657	156.047	167.452	472.525	200.553	438.108	0.00080605	0.00019651	0.00011466	668.26	6.1025e-06	4.9985e-07	903.09	210.91	3.4574e-06	4.0049e-06	356.89	148.59	86.9	41.057	4.167e-06	69.945	0.00020621	0.00019947	5.5568e-05	632.4	2.1891e-06	2.2173e-06	846.6	198.36	2.3464e-06	2.3886e-06	324.65	132.91	79.74	37.429	2.6975e-06	61.562	276.080	193.156	427.124	156.792	265.476	267.380	156.674	162.991	283.412	147.132	161.877	167.031	168.554	172.006	407.569	170.753	-8191	255	
1275.699	1	1	0	0	0.38844	0.27793	0.051429	0.39185	0.040032	0.18271	0.29108	0.11469	0.19818	0.071793	0.077181	0.41397	0.14456	0.27432	0.25693	0.14088	-2.5708	-2.2792	-2.6063	-2.6208	-2.3063	-2.75	-2.6292	-2.4313	-2.9188	-2.425	-2.5479	-2.9104	-2.2333	-2.8729	-2.5604	-2.4521	309.105	481.999	163.641	436.119	283.644	189.658	431.230	423.466	273.816	384.493	402.340	159.873	174.601	504.270	180.343	223.220	0.0009777	0.00015146	0.00016784	672.39	6.9292e-06	6.3308e-06	913.46	215.56	2.02e-06	4.8152e-06	362.29	153	90.377	42.347	5.4639e-06	70.019	0.00026667	0.00026463	7.7821e-05	654.12	3.2509e-06	3.3134e-06	872.85	209.77	3.4257e-06	3.4182e-06	338.64	139.07	84.554	39.054	3.1308e-06	62.144	281.749	159.746	257.842	156.953	337.200	214.772	156.497	163.119	247.291	326.926	161.724	167.142	168.598	172.480	238.376	170.629	-8191	255	
1275.819	1	1	0	0	0.27298	0.19424	0.1734	0.12348	0.10649	0.075542	0.10998	0.35168	0.18761	0.15901	0.2442	0.10027	0.13604	0.18739	0.27454	0.21916	-2.3708	-2.4604	-2.5896	-2.7146	-2.3	-2.8021	-2.7854	-2.4833	-2.7542	-2.5083	-2.5938	-2.8833	-2.4875	-2.7271	-2.5708	-2.6437	175.808	228.895	170.184	444.850	453.378	452.284	451.034	382.898	340.058	170.110	454.565	249.219	210.678	392.052	171.255	164.464	0.00098399	0.00036443	1.2371e-05	674.05	3.1028e-06	2.6217e-06	916.89	213.29	6.3746e-06	8.7678e-06	356.89	149.89	88.136	41.228	3.9975e-06	67.874	0.00027281	0.00026126	7.1193e-05	651.07	2.7824e-06	2.7879e-06	864.73	205.28	3.0389e-06	3.1606e-06	332.73	136.16	82.78	38.293	3.4925e-06	61.325	267.209	155.899	422.390	156.849	289.779	350.822	156.694	163.244	295.902	291.800	161.814	166.901	168.943	172.020	466.667	170.794	-8191	255	
1275.915	1	1	0	0	0.13943	0.054371	0.4996	0.083135	0.084098	0.13255	0.15662	0.070353	0.32254	0.2864	0.14801	0.090078	0.21442	0.39254	0.10214	0.092306	-2.6833	-2.4229	-2.6292	-2.825	-2.3458	-2.5875	-2.8979	-2.5938	-2.8187	-2.5542	-2.7042	-3.0812	-2.5667	-2.6229	-2.5771	-2.4521	502.933	363.128	324.107	433.071	384.274	339.446	293.207	340.014	209.408	412.176	427.564	260.204	166.558	459.846	444.410	263.084	0.00073732	0.00057965	0.00011875	674.97	7.4413e-06	6.0924e-06	919.39	209.14	2.6888e-06	7.0719e-06	351.34	145.39	85.375	39.846	6.8894e-06	66.684	0.00033247	0.00032828	9.1165e-05	663.62	3.5513e-06	3.5263e-06	875.97	204.4	3.4898e-06	3.4956e-06	329.94	133.47	81.289	37.332	3.5324e-06	60.16	277.800	239.323	186.292	156.936	207.536	277.825	156.621	163.234	224.577	328.827	161.990	167.402	169.029	172.410	223.498	170.728	-8191	255	
1276.012	1	1	0	0	0.21533	0.2349	0.13492	0.14902	0.10188	0.15114	0.099683	0.18524	0.22986	0.0095248	0.16605	0.24058	0.19667	0.17991	0.10838	0.17885	-2.5375	-2.625	-2.4667	-3.0417	-2.4771	-2.7562	-2.8208	-2.375	-2.8271	-2.7417	-2.4813	-3.0187	-2.5708	-2.675	-2.7896	-2.3771	185.340	304.352	283.802	313.051	319.090	408.165	457.134	383.071	219.175	147.143	452.414	180.672	480.363	455.528	314.292	481.012	0.00082819	0.00043795	0.00022796	672.8	4.0282e-06	8.2587e-06	915.98	204.82	5.8108e-06	4.7363e-06	342.77	138.37	81.097	37.206	5.675e-06	63.186	0.0003209	0.0003148	8.5621e-05	658.61	3.3011e-06	3.2419e-06	869.41	198.31	3.0864e-06	3.0676e-06	318.5	126.14	76.124	34.396	2.9686e-06	56.526	272.014	178.825	159.503	156.992	195.628	242.600	156.635	163.475	308.822	208.417	162.062	167.455	168.886	172.596	264.330	170.829	-8191	255	
1276.108	1	1	0	0	0.098245	0.035469	0.084766	0.079824	0.22453	0.26474	0.20037	0.28934	0.25874	0.12037	0.15314	0.12786	0.14971	0.36837	0.092207	0.098992	-2.4917	-2.7542	-2.4271	-3.0479	-2.3604	-2.5604	-2.9125	-2.5396	-2.7021	-2.5812	-2.4125	-2.9208	-2.5208	-2.8458	-2.8937	-2.4146	468.279	488.443	305.809	445.489	489.389	393.897	372.651	174.840	313.555	487.455	153.297	198.796	454.202	484.042	356.137	471.003	0.00062338	0.00082468	0.00014359	676.88	6.5489e-06	2.1493e-06	914.32	202.34	4.5742e-06	2.1039e-06	339.9	136.25	78.51	35.449	2.2203e-06	60.901	0.00028066	0.0002734	7.6051e-05	651.92	2.9283e-06	2.8706e-06	864.41	193.87	2.7921e-06	2.7656e-06	312.71	122.84	73	32.824	2.714e-06	54.27	273.966	194.644	152.689	156.663	327.563	269.727	156.529	162.961	489.314	371.645	161.549	167.398	169.075	172.532	305.829	170.876	-8191	255	
1276.228	1	1	0	0	0.064757	0.21097	0.21664	0.17479	0.1404	0.025403	0.26369	0.093064	0.19162	0.099966	0.15049	0.15693	0.18802	0.11782	0.09312	0.084241	-2.4354	-2.4083	-2.4688	-2.9729	-2.2792	-2.6	-3.0771	-2.3229	-2.6396	-2.6896	-2.3542	-2.9979	-2.7542	-2.6292	-2.8646	-2.5417	405.940	311.848	203.535	469.563	234.458	227.733	439.432	486.289	500.235	272.248	500.804	410.362	489.588	479.754	293.302	362.220	0.00087767	0.00053984	9.2009e-05	664.46	6.0233e-06	4.4695e-06	895.11	193.53	2.4061e-06	2.4589e-06	327.77	131.77	73.981	33.501	8.3404e-06	58.84	0.00025148	0.00024463	6.7538e-05	636.2	2.6204e-06	2.6184e-06	846.99	185.24	2.6605e-06	2.65e-06	302.4	118.46	69.533	31.213	2.9135e-06	52.993	282.551	392.214	376.529	156.735	290.509	306.224	156.697	162.853	206.263	275.478	162.048	167.407	169.072	172.994	197.333	170.838	-8191	255	
1276.323	1	1	0	0	0.29153	0.20914	0.11181	0.27968	0.16317	0.24344	0.080575	0.26129	0.21318	0.059398	0.43682	0.30698	0.021942	0.32361	0.29776	0.21612	-2.1604	-2.6333	-2.4125	-2.9792	-2.6167	-2.4604	-3.0917	-2.5438	-2.3625	-2.8333	-2.3708	-2.8563	-2.6333	-2.4729	-2.7313	-2.8521	430.695	472.341	438.562	207.897	263.306	242.482	217.781	497.454	302.600	383.194	452.070	389.311	361.327	445.357	304.047	205.509	0.00082554	0.00070851	0.00012997	651.44	6.7204e-06	7.1723e-07	888.88	189.85	2.9342e-06	1.7483e-06	319.26	125.8	70.479	30.807	5.5403e-06	54.084	0.00028999	0.00029347	8.3675e-05	638.75	3.4993e-06	3.553e-06	856.46	188.66	3.7827e-06	3.8245e-06	306.14	117.99	70.219	30.09	4.019e-06	50.368	271.416	416.196	296.780	156.613	202.189	261.358	156.371	162.865	272.792	448.199	162.000	167.569	168.694	172.871	305.949	171.251	-8191	255	
1276.394	1	1	0	0	0.34031	0.14405	0.089357	0.152	0.25192	0.29213	0.44332	0.13335	0.080996	0.033773	0.075037	0.13577	0.10647	0.2448	0.10324	0.12678	-2.1021	-2.7042	-2.5583	-2.7938	-2.5812	-2.4792	-3.1125	-2.6854	-2.4708	-2.9042	-2.2833	-2.7917	-2.8042	-2.4	-2.9583	-2.6479	251.156	489.133	345.018	441.203	291.464	326.242	453.954	360.020	341.432	420.786	222.047	160.507	321.427	446.280	336.385	486.588	0.00069321	0.00064736	0.00011996	648.84	3.1516e-06	2.9465e-06	884.19	180.95	3.7085e-06	4.7837e-06	304.43	116.44	64.985	28.376	3.6871e-06	51.412	0.00037975	0.00037712	0.00010591	648.98	4.2443e-06	4.273e-06	862.22	184.52	4.3841e-06	4.3805e-06	297.55	112.11	67.293	28.37	4.4197e-06	48.542	262.828	316.223	228.089	156.687	340.363	196.120	156.559	162.843	277.574	315.149	161.944	167.816	168.929	172.898	159.472	171.438	-8191	255	
1276.515	1	1	0	0	0.17334	0.12052	0.27739	0.1795	0.19881	0.28373	0.080309	0.28774	0.15345	0.098539	0.21919	0.1947	0.16797	0.16972	0.16735	0.22651	-1.9625	-2.8812	-2.3854	-2.6188	-2.9292	-2.2125	-2.9292	-2.7229	-2.3	-2.9646	-2.3417	-2.6562	-2.9021	-2.2646	-2.9042	-2.8229	181.910	365.217	167.834	469.976	291.519	184.679	335.572	424.409	224.680	240.320	504.660	444.116	341.529	362.984	371.962	386.118	0.00047595	5.6303e-05	0.00014963	642.21	2.3793e-06	1.8129e-07	879.03	178.69	6.3248e-06	4.9999e-06	302.58	117.24	65.261	28.583	3.2689e-06	51.897	0.00040438	0.00040248	0.00011266	646.84	4.436e-06	4.4174e-06	858.81	182.83	4.4223e-06	4.4447e-06	297.3	112.85	67.575	28.568	4.3842e-06	48.984	266.422	503.703	199.603	156.689	385.208	354.367	156.549	162.725	220.057	321.350	162.085	167.632	169.269	173.372	492.999	171.173	-8191	255	
1276.611	1	1	0	0	0.13456	0.15876	0.15608	0.35686	0.10242	0.12735	0.12553	0.18734	0.11457	0.1194	0.31479	0.19502	0.046539	0.072131	0.13089	0.1329	-2.0042	-2.7313	-2.5646	-2.4896	-2.9396	-2.2917	-2.7979	-2.6188	-2.5	-2.8708	-2.5021	-2.7417	-2.9271	-2.3167	-2.6833	-2.4542	247.030	299.956	372.784	466.111	369.815	189.526	436.762	366.888	338.142	169.251	476.619	406.560	318.703	336.738	307.677	309.630	0.0006105	0.00040073	7.7804e-05	632.04	9.6753e-06	1.9239e-06	870.37	174.89	6.0259e-06	4.2022e-06	298.57	113.74	63.056	27.316	6.9979e-06	50.04	0.00039801	0.00039145	0.00010695	635.46	4.1508e-06	4.1158e-06	846.07	177.54	4.0663e-06	4.0642e-06	290.16	108.74	64.541	27.046	4.074e-06	47.108	280.603	258.769	258.478	156.998	168.921	307.174	156.501	162.593	256.890	157.476	161.839	167.906	169.073	173.471	398.051	171.401	-8191	255	
1276.707	1	1	0	0	0.12194	0.26235	0.26051	0.069032	0.17492	0.06006	0.18962	0.19899	0.19031	0.20062	0.058346	0.039239	0.17012	0.20988	0.31217	0.14067	-1.9229	-2.9021	-2.5167	-2.6063	-2.8875	-2.4229	-2.9271	-2.7812	-2.4062	-2.725	-2.7917	-2.5396	-2.9042	-2.4813	-2.7687	-2.725	303.896	301.716	488.010	301.267	450.902	317.373	442.792	387.080	210.176	296.617	423.750	446.273	378.608	363.713	177.252	405.179	0.00065916	0.00026259	0.00011368	620.51	3.5572e-06	1.1653e-05	862.75	173.04	1.7566e-06	4.8705e-06	298.68	114.73	62.941	27.638	9.4775e-06	50.252	0.00037536	0.00037491	0.00010439	626.09	4.1295e-06	4.1151e-06	840.26	175.8	4.0974e-06	4.1225e-06	290.69	109.81	64.782	27.276	4.0426e-06	47.082	264.206	227.683	286.238	156.992	276.139	187.865	156.637	162.960	266.234	317.708	162.183	167.579	169.200	172.675	231.416	171.364	-8191	255	
1276.803	1	1	0	0	0.14345	0.2311	0.18336	0.24338	0.23018	0.062082	0.1352	0.3007	0.20935	0.14151	0.039851	0.24571	0.20947	0.066471	0.099229	0.41591	-2.0854	-2.9062	-2.3521	-2.6167	-2.775	-2.5375	-2.6792	-2.8708	-2.1312	-2.8063	-2.5667	-2.5771	-2.8625	-2.5708	-2.6375	-3.0229	352.040	406.616	237.912	293.638	484.933	193.005	229.443	456.920	301.268	313.318	212.041	250.953	497.243	254.281	393.155	467.264	0.00048694	0.00083342	0.00012798	613.72	6.3792e-06	2.9973e-06	858.34	170.58	2.9102e-06	1.3499e-06	296.5	113.56	61.983	26.816	1.4419e-06	49.622	0.00036595	0.00035958	0.00010075	615.87	3.9054e-06	3.9247e-06	830.81	172.07	3.9203e-06	3.9003e-06	286.02	108.28	63.555	26.791	4.0036e-06	46.701	273.328	497.098	441.717	156.848	245.876	312.360	156.441	162.860	230.436	483.783	161.736	167.537	169.169	173.275	463.789	171.227	-8191	255	
1276.924	1	1	0	0	0.10016	0.31133	0.21703	0.35025	0.15633	0.071478	0.12761	0.14207	0.20725	0.15872	0.32562	0.13344	0.17741	0.11691	0.30418	0.20017	-1.9792	-2.7125	-2.5812	-2.5771	-2.6354	-2.4896	-2.8229	-2.6458	-2.1271	-2.7958	-2.8625	-2.3583	-2.8271	-2.5938	-2.5104	-2.9896	334.840	276.179	342.563	406.411	189.182	356.553	470.414	161.561	485.082	460.664	173.057	485.611	340.706	168.826	470.018	265.415	0.00064516	0.00058175	0.00015846	614.09	1.6677e-06	8.1356e-07	861.08	168.96	1.5887e-06	7.3749e-06	295.32	113.14	61.588	26.778	4.5376e-06	49.372	0.00036987	0.00037186	0.00010323	618.04	4.0615e-06	4.0742e-06	835.58	172.48	4.1236e-06	4.1139e-06	287.22	108.24	63.667	26.862	4.1812e-06	46.879	275.368	237.328	220.278	156.863	184.518	491.268	156.535	162.819	245.921	263.472	161.743	167.564	169.500	172.837	259.108	171.376	-8191	255	
1276.996	1	1	0	0	0.24063	0.09971	0.13723	0.095284	0.050639	0.12432	0.30573	0.262	0.38239	0.029227	0.1871	0.23136	0.17093	0.12707	0.33508	0.11581	-2.05	-2.4354	-2.4188	-2.4458	-2.6771	-2.6104	-2.5979	-2.9938	-2.4313	-2.5708	-2.9104	-2.3542	-2.8688	-2.7562	-2.3479	-2.8646	464.539	375.707	274.603	259.690	355.640	164.776	432.475	466.248	343.408	499.769	436.569	453.500	309.300	268.210	310.532	232.681	0.00058461	0.00033864	9.5545e-05	617.9	3.9791e-07	8.0036e-06	858.31	169.15	7.2491e-06	2.9012e-06	293.99	112.78	61.421	26.739	4.5989e-06	48.931	0.00039353	0.00039382	0.00011006	624.18	4.3791e-06	4.3742e-06	841.25	173.71	4.368e-06	4.3755e-06	288.19	108.66	64.144	26.969	4.3819e-06	46.703	257.294	488.394	176.643	156.976	488.352	248.524	156.499	162.997	324.270	323.478	161.668	167.512	169.192	173.135	347.649	171.136	-8191	255	
1277.092	1	1	0	0	0.077493	0.31817	0.37197	0.14059	0.19585	0.021638	0.22196	0.18933	0.29578	0.11361	0.12058	0.21182	0.1442	0.16676	0.30736	0.14311	-1.9896	-2.5417	-2.8812	-2.3146	-2.7979	-2.5729	-2.8125	-2.7167	-2.5062	-2.6292	-2.9229	-2.4979	-2.6188	-2.8583	-2.2125	-2.8521	212.954	284.065	391.776	405.811	220.422	401.313	203.010	454.305	315.504	331.523	468.465	464.333	239.699	454.022	321.109	373.851	0.00071298	0.00058104	3.7996e-05	615.86	5.9444e-06	1.411e-06	856.07	168.79	3.8019e-06	2.4477e-06	293.07	111.25	60.702	26.301	2.3344e-06	48.478	0.00040057	0.00039313	0.0001109	625.03	4.3508e-06	4.3221e-06	835.54	172.72	4.323e-06	4.298e-06	286.31	107.18	63.547	26.508	4.2344e-06	45.981	274.567	301.559	489.904	156.912	191.664	264.458	156.520	163.032	253.711	468.539	161.680	167.734	168.962	173.155	213.424	171.427	-8191	255	
1277.188	1	1	0	0	0.10649	0.11427	0.21688	0.16228	0.11605	0.3219	0.20763	0.13134	0.16096	0.16107	0.1654	0.083732	0.18748	0.14874	0.33073	0.138	-2.1813	-2.4708	-2.6042	-2.6604	-2.7271	-2.4688	-2.6937	-2.8979	-2.6271	-2.5062	-3.0646	-2.2958	-2.5979	-2.8187	-2.0312	-3.0479	158.839	211.226	413.069	362.538	485.482	367.227	279.078	218.773	210.647	198.339	494.820	480.663	261.223	198.663	312.285	256.871	0.00057634	0.00019754	0.00012831	617.54	2.9485e-06	1.2608e-06	857.2	169.48	4.8731e-06	2.1511e-06	291.78	109.8	60.545	25.766	8.0671e-06	47.56	0.00038538	0.00038154	0.00010506	619.52	4.1179e-06	4.1021e-06	832.47	172.29	4.0967e-06	4.1009e-06	283.07	105.49	62.559	25.899	4.1239e-06	45.142	266.957	452.481	321.918	156.363	370.539	339.297	156.485	163.001	267.696	351.115	161.832	167.723	169.344	173.306	340.445	171.446	-8191	255	
1277.307	1	1	0	0	0.13569	0.1372	0.015757	0.10319	0.25065	0.067521	0.19377	0.15957	0.19371	0.14795	0.22458	0.26626	0.16464	0.12505	0.028715	0.042756	-1.9688	-2.2875	-3.0042	-2.3958	-2.5833	-2.8729	-2.3021	-2.9188	-2.5604	-2.5896	-2.8771	-2.5187	-2.5833	-2.75	-2.2896	-2.7938	287.535	189.161	201.940	475.993	283.380	166.766	498.530	401.119	161.256	276.172	458.001	411.086	457.473	413.925	209.766	350.682	0.00060175	0.00082532	0.00012823	616.09	1.0399e-05	4.7053e-06	855.24	168.7	4.1847e-06	5.739e-06	290.55	109.76	60.11	25.697	1.7032e-06	47.858	0.00038195	0.00038579	0.00010779	623.08	4.3167e-06	4.3359e-06	837.62	173.6	4.4098e-06	4.4265e-06	285.75	106.68	63.538	26.21	4.4977e-06	45.562	267.838	284.398	225.188	157.122	183.015	224.702	156.667	162.571	324.730	502.959	161.931	167.321	169.745	172.899	263.013	171.131	-8191	255	
1277.403	1	1	0	0	0.25591	0.16219	0.39178	0.14644	0.1959	0.14497	0.28053	0.054531	0.39603	0.16714	0.26303	0.10991	0.096166	0.25579	0.18027	0.057197	-2.3229	-2.3271	-2.8792	-2.6104	-2.6437	-2.8604	-2.5104	-2.7229	-2.5646	-2.2646	-2.9729	-2.525	-2.3937	-2.8146	-2.275	-2.8271	344.931	196.336	488.168	432.559	197.685	343.076	411.056	179.352	304.017	328.221	149.284	392.297	420.590	201.455	470.863	393.692	0.00040507	0.00031551	9.6106e-05	614.78	5.4329e-06	5.753e-06	858.86	168.41	3.3623e-06	3.5404e-06	289.3	108.38	59.367	25.171	5.0122e-06	46.224	0.00041178	0.00041381	0.00011482	628.32	4.5544e-06	4.5508e-06	842.66	174.77	4.7118e-06	4.6889e-06	287.7	106.65	64.1	26.072	4.8812e-06	44.959	263.982	319.476	246.938	156.836	384.488	480.379	156.378	162.779	183.194	410.902	161.733	167.334	169.299	173.337	202.595	170.931	-8191	255	
1277.499	1	1	0	0	0.33163	0.1431	0.052585	0.25678	0.19203	0.013354	0.20542	0.13502	0.22297	0.21492	0.20786	0.13678	0.16617	0.13692	0.31427	0.0546	-2.4437	-2.0708	-2.8792	-2.6417	-2.4625	-2.9604	-2.3646	-2.6083	-2.6354	-2.2771	-3.1229	-2.5375	-2.6188	-3	-2.5292	-2.7188	185.220	238.971	205.026	467.766	375.442	147.781	499.815	314.520	430.354	278.388	278.005	184.862	306.990	242.343	495.106	168.148	0.00063443	0.00017482	8.0584e-05	620.58	7.8482e-06	5.2956e-06	854.06	170.17	6.8223e-06	5.8795e-06	286.91	106.55	58.626	24.865	4.5718e-06	45.836	0.00044954	0.00044978	0.00012537	637.4	4.937e-06	4.9441e-06	847.14	176.4	4.9461e-06	4.9749e-06	288.16	105.28	63.997	25.893	4.9326e-06	44.629	258.950	356.933	233.613	156.510	362.173	293.374	156.270	162.416	319.755	165.683	161.557	166.950	169.070	173.743	287.817	171.535	-8191	255	
1277.595	1	1	0	0	0.15428	0.15508	0.1825	0.34493	0.074307	0.059465	0.26164	0.20569	0.13372	0.048059	0.19343	0.12965	0.01698	0.29314	0.26366	0.17634	-2.35	-2.1875	-2.7875	-2.85	-2.1813	-2.9521	-2.6146	-2.6229	-2.8063	-2.3896	-2.9583	-2.7729	-2.475	-3.0396	-2.6354	-2.7292	430.971	396.680	310.887	418.522	422.776	262.971	499.328	439.129	295.019	153.456	188.310	449.636	463.103	247.145	237.442	449.742	0.00043069	0.00030067	0.00015462	615.83	9.6078e-06	8.7817e-06	851.54	167.99	3.2036e-06	5.5498e-06	288.71	106.66	59.261	24.902	5.5413e-06	45.716	0.00045278	0.00045242	0.0001246	634.44	4.9165e-06	4.8884e-06	845.26	175.61	4.8824e-06	4.8372e-06	286.96	105.35	63.745	25.818	4.8619e-06	44.568	264.065	200.298	285.269	157.051	213.389	233.910	156.659	162.603	233.410	221.659	161.840	167.745	168.894	173.463	386.654	170.952	-8191	255	
1277.692	1	1	0	0	0.15796	0.078064	0.10859	0.084109	0.33416	0.06786	0.068963	0.036377	0.207	0.19836	0.17213	0.15067	0.15099	0.23438	0.073714	0.13331	-2.5396	-2.1458	-2.8042	-2.8375	-2.2167	-2.8417	-2.7271	-2.4271	-2.6292	-2.5021	-2.7625	-2.5312	-2.3312	-3.0104	-2.3521	-2.5979	267.973	285.950	315.173	454.653	291.444	314.944	172.681	145.531	213.427	293.148	408.666	335.874	147.732	430.503	430.853	352.844	0.00055063	0.00061607	7.5864e-05	615.38	2.8565e-06	5.7756e-06	851.93	167.83	5.8951e-06	6.162e-06	287.85	106.61	58.964	24.826	5.6634e-06	45.977	0.00044342	0.00044375	0.00012373	633.45	4.8837e-06	4.8838e-06	844.84	175.17	4.8839e-06	4.8581e-06	286.97	105.65	63.703	25.855	4.8957e-06	44.613	256.071	471.152	405.394	156.657	265.558	209.012	156.628	162.599	326.136	368.977	161.598	167.408	169.271	172.565	453.358	171.216	-8191	255	
1277.788	1	1	0	0	0.17156	0.1013	0.2734	0.25278	0.16183	0.15129	0.26112	0.16989	0.134	0.10212	0.1784	0.15777	0.1205	0.15446	0.34667	0.15276	-2.1875	-2.425	-2.6	-2.7583	-2.3104	-2.7271	-2.7292	-2.6021	-2.8438	-2.5896	-2.675	-2.7938	-2.3417	-2.9875	-2.5229	-2.2917	482.592	491.301	372.306	412.670	233.842	210.227	380.429	447.971	291.307	146.713	401.577	243.915	192.722	415.494	164.367	245.385	0.00043452	1.3395e-05	0.00015689	615.52	7.617e-06	1.7664e-06	852.22	167.85	5.6154e-06	2.5889e-06	284.98	106.42	58.964	24.759	7.2193e-06	45.44	0.00044314	0.00044502	0.00012352	633.12	4.885e-06	4.8667e-06	843.36	174.81	4.8723e-06	4.8499e-06	285.86	104.99	63.455	25.726	4.8311e-06	44.238	285.194	364.360	287.381	156.658	307.189	279.507	156.416	162.677	187.950	263.664	161.726	167.669	169.604	173.058	264.213	171.275	-8191	255	
1277.908	1	1	0	0	0.20788	0.38875	0.1502	0.091154	0.20528	0.13595	0.1568	0.18256	0.22513	0.078412	0.21207	0.10934	0.2506	0.09456	0.12723	0.10772	-2.625	-2.5187	-2.5146	-2.7562	-2.3	-2.5854	-2.7458	-2.3542	-2.8479	-2.3688	-2.4979	-2.9208	-2.3417	-2.7208	-2.7625	-2.4229	247.828	263.940	416.635	409.577	170.907	244.645	170.967	354.367	196.224	241.440	450.934	399.314	394.189	384.684	452.692	411.949	0.00056623	0.00075952	3.9693e-05	613.37	9.1306e-07	9.6078e-07	853.42	167.73	6.1596e-06	6.164e-06	284.72	106.37	59.137	25.023	6.5444e-06	45.905	0.00043987	0.00043624	0.00012141	629.32	4.7509e-06	4.7463e-06	838.7	174.04	4.6376e-06	4.666e-06	283	104.37	62.979	25.611	4.5123e-06	44.134	270.333	293.092	260.483	157.220	493.155	314.132	156.354	162.915	358.969	212.660	161.950	167.327	169.598	173.324	250.611	171.250	-8191	255	
1278.004	1	1	0	0	0.060618	0.36178	0.078451	0.092006	0.18788	0.1628	0.3758	0.051194	0.14809	0.082879	0.18134	0.10023	0.29463	0.12821	0.058802	0.0658	-2.2708	-2.4167	-2.4625	-3.0042	-2.2062	-2.7083	-2.6708	-2.25	-2.7271	-2.5104	-2.5646	-2.6875	-2.5021	-2.7062	-2.6042	-2.1813	415.951	243.029	245.598	278.535	179.129	463.479	460.399	373.302	191.512	474.315	387.779	381.747	357.758	375.985	494.486	420.108	0.0005292	0.00082959	0.00025255	607.59	4.8124e-06	2.9626e-06	843.53	166.8	3.7148e-06	9.7318e-07	288.39	108.74	59.996	25.686	6.9626e-06	47.555	0.00040883	0.0004079	0.000113	618.94	4.4114e-06	4.4308e-06	830.12	171.11	4.3919e-06	4.3555e-06	282.41	105.43	62.795	26.18	4.3417e-06	45.382	265.115	170.914	280.360	156.548	248.733	465.476	156.455	162.840	298.484	319.078	161.879	167.563	168.895	173.148	225.933	171.181	-8191	255	
1278.101	1	1	0	0	0.15417	0.25974	0.22613	0.11873	0.38183	0.29973	0.21695	0.17138	0.22039	0.1609	0.1079	0.17651	0.17928	0.18336	0.21487	0.15522	-2.3958	-2.5771	-2.3271	-2.7708	-2.3583	-2.4771	-2.7687	-2.1771	-2.5833	-2.6833	-2.3167	-2.7687	-2.4062	-2.5396	-2.5708	-2.3833	376.342	443.076	285.916	464.122	231.804	310.620	435.323	336.225	475.703	202.999	418.638	166.539	499.320	435.012	433.410	463.346	0.00053652	0.00057448	0.00023252	603.81	1.1617e-05	3.762e-06	847.23	166.73	5.6958e-06	3.3645e-06	289.31	109.32	59.992	26.086	5.3171e-06	46.789	0.00039678	0.00039572	0.00010885	612.84	4.2814e-06	4.2563e-06	828.21	170.67	4.2328e-06	4.219e-06	282.06	105.27	62.592	26.083	4.1374e-06	44.729	273.210	460.454	220.552	157.109	194.278	222.537	156.558	162.776	270.505	171.911	161.879	167.378	169.267	173.246	228.273	171.192	-8191	255	
1278.219	1	1	0	0	0.085952	0.15277	0.30033	0.26531	0.16096	0.063169	0.21544	0.15285	0.3376	0.21697	0.11691	0.12989	0.031624	0.050491	0.063144	0.12584	-2.1333	-2.4521	-2.1229	-2.6729	-2.4708	-2.4688	-2.6479	-2.0583	-2.5812	-2.4167	-2.2708	-2.8792	-2.2875	-2.4771	-2.85	-2.3583	477.656	173.959	361.899	289.208	360.366	184.879	437.890	183.442	287.150	274.841	315.991	501.233	298.380	464.657	307.155	158.412	0.00055167	0.0011174	0.00014187	609.79	1.1409e-05	4.5834e-06	846.73	165.48	1.6998e-06	5.9065e-06	284.25	107.62	59.155	25.387	6.9137e-06	46.395	0.00038209	0.00037886	0.00010513	613.96	4.1542e-06	4.1472e-06	827.72	169.55	4.1681e-06	4.1654e-06	278.61	103.48	61.477	25.497	4.0896e-06	43.914	267.288	503.967	498.900	156.733	359.083	207.908	156.378	162.665	338.895	359.629	161.679	167.646	168.818	173.369	325.700	171.410	-8191	255	
1278.291	1	1	0	0	0.31114	0.16115	0.23138	0.068329	0.13365	0.1375	0.21741	0.17235	0.45681	0.14582	0.22431	0.19682	0.23958	0.20619	0.2272	0.087895	-2.225	-2.6417	-2.1771	-2.7521	-2.4833	-2.4375	-2.775	-2.3292	-2.7042	-2.7646	-2.1354	-2.7	-2.6083	-2.3875	-2.6333	-2.6104	178.272	283.119	306.127	209.283	376.247	197.981	503.782	483.183	328.229	410.906	504.397	412.551	310.759	380.716	204.112	432.074	0.00046369	0.00057736	6.8453e-05	606.85	5.5278e-06	6.5705e-06	841.8	164.49	3.7017e-06	4.9e-06	282.59	106.89	58.311	25.07	6.6932e-06	45.64	0.00037497	0.0003717	0.00010334	611.24	4.0651e-06	4.0496e-06	822.92	167.64	4.0498e-06	4.0236e-06	275.78	102.06	60.501	25.111	4.0381e-06	43.305	275.672	347.527	265.596	156.328	314.341	285.758	156.308	162.427	289.448	306.072	161.931	167.670	168.962	172.845	314.500	171.360	-8191	255	
1278.387	1	1	0	0	0.20607	0.061177	0.34856	0.30186	0.048792	0.060709	0.21001	0.31583	0.022419	0.29516	0.1958	0.083026	0.027859	0.16965	0.090464	0.2508	-2.2479	-2.5083	-2.3479	-2.7292	-2.4	-2.4104	-2.7958	-2.2604	-2.4437	-2.7854	-2.3104	-2.5583	-2.5854	-2.3854	-2.7854	-2.3792	434.158	426.933	186.350	491.766	405.721	319.107	377.952	446.015	320.088	486.120	423.349	270.405	172.359	350.164	211.544	499.424	0.00060545	0.00017277	0.00029039	607.11	3.6293e-06	4.7902e-06	841.1	164.97	3.5378e-06	6.4077e-06	282.88	105.85	58.245	24.866	4.5549e-06	45.381	0.00037314	0.00037187	0.00010431	613.22	4.1028e-06	4.1191e-06	825.13	168.37	4.1238e-06	4.0949e-06	276.87	101.93	60.497	25.089	4.0611e-06	43.257	280.362	452.320	230.951	157.041	498.501	436.246	156.624	162.624	407.470	331.363	161.912	167.493	168.954	173.191	497.611	170.937	-8191	255	
1278.483	1	1	0	0	0.24701	0.18268	0.26443	0.16813	0.20883	0.17533	0.13724	0.14544	0.13381	0.1798	0.15318	0.098494	0.16298	0.19496	0.19821	0.22374	-2.1229	-2.6521	-2.3292	-2.6583	-2.6104	-2.2417	-2.8583	-2.1896	-2.3	-2.7812	-2.2521	-2.7625	-2.7333	-2.2771	-2.6479	-2.65	194.866	487.129	180.736	467.888	247.062	444.144	321.055	430.467	369.080	194.546	385.399	324.862	216.947	411.677	289.974	451.481	0.00046945	0.00048078	0.00010259	608.25	2.4936e-06	3.2018e-06	848.27	165.32	7.4826e-06	6.817e-06	284.49	106.11	58.769	25.115	2.0819e-06	45.893	0.00036745	0.000366	0.00010131	611.64	3.9824e-06	3.952e-06	823.23	167.93	3.9825e-06	3.9954e-06	276.84	102.23	60.808	25.18	4.0198e-06	43.486	260.000	218.249	147.680	157.020	278.918	158.398	156.361	162.729	326.072	326.848	161.595	167.675	169.379	173.304	279.300	171.032	-8191	255	
1278.604	1	1	0	0	0.09776	0.33019	0.083873	0.056264	0.052028	0.16077	0.095035	0.25433	0.10913	0.30026	0.35386	0.10876	0.10794	0.11069	0.28401	0.058011	-2.025	-2.8583	-2.2979	-2.7729	-2.5146	-2.3521	-2.7229	-2.6604	-2.2896	-2.8396	-2.2562	-2.4479	-2.7458	-2.2542	-2.7188	-2.5896	249.461	495.102	183.071	348.092	444.466	301.101	448.150	253.328	489.093	382.736	158.099	221.925	193.505	440.942	265.087	380.777	0.00054766	0.00072332	0.0001223	609.24	3.6274e-06	5.9574e-06	850.99	165.93	1.7779e-06	1.5961e-06	285.19	105.55	58.718	24.973	2.6897e-06	45.703	0.00036997	0.0003685	0.00010253	613.03	4.0676e-06	4.0657e-06	827.77	169.29	4.1256e-06	4.1301e-06	278.15	102.57	61.205	25.201	4.159e-06	43.385	280.413	193.256	277.499	156.910	501.451	503.635	156.614	162.751	418.224	278.459	161.520	167.652	169.312	173.301	287.024	171.207	-8191	255	
1278.700	1	1	0	0	0.27215	0.067932	0.19381	0.10966	0.32357	0.12416	0.11494	0.28295	0.20507	0.032017	0.096877	0.1242	0.26	0.30493	0.22893	0.09435	-1.8167	-2.7562	-2.2708	-2.5792	-2.8563	-2.225	-2.8917	-2.5542	-2.3875	-2.7729	-2.3667	-2.5958	-2.5271	-2.2083	-2.65	-2.5375	342.590	208.238	328.541	488.730	483.964	441.315	456.465	444.377	423.171	469.221	320.484	471.119	455.410	220.520	266.312	449.557	0.00055295	0.00034083	4.083e-05	612	8.1489e-06	2.0675e-06	849.78	164.38	2.3615e-06	7.005e-06	281.98	104.39	57.834	24.65	4.9101e-06	44.487	0.00037698	0.00037584	0.00010379	615.1	4.0504e-06	4.0535e-06	824.49	167.93	4.0591e-06	4.0667e-06	275.33	101.12	60.414	24.803	4.0833e-06	42.553	273.238	291.020	436.660	156.833	286.684	187.494	156.234	163.123	228.768	274.085	161.598	167.371	169.041	173.317	282.328	171.383	-8191	255	
1278.796	1	1	0	0	0.22727	0.073227	0.36699	0.055546	0.21251	0.13501	0.15336	0.15844	0.20292	0.16519	0.068212	0.1359	0.033859	0.33148	0.24693	0.22854	-1.7417	-2.9125	-2.3187	-2.3479	-2.8417	-2.2562	-2.6771	-2.6354	-2.4562	-2.7354	-2.3229	-2.4854	-2.7562	-2.3042	-2.7313	-2.7687	400.564	316.018	250.241	471.713	368.206	438.088	429.123	437.735	162.044	483.496	395.281	462.063	234.806	426.795	171.616	487.453	0.00071881	0.00085717	0.00016394	608.23	8.3076e-06	6.8338e-06	851.31	164.96	5.5447e-06	1.4185e-06	281.23	103.68	57.098	24.288	6.2452e-06	44.074	0.00037122	0.00036873	0.00010238	612.51	3.9933e-06	4.0192e-06	826.01	167.93	4.0396e-06	4.0247e-06	274.05	100.01	59.756	24.439	3.9948e-06	41.85	269.802	212.616	147.135	156.685	244.749	232.802	156.485	162.492	381.724	313.634	161.923	167.609	169.366	173.202	308.889	171.566	-8191	255	
1278.868	1	1	0	0	0.05743	0.10752	0.17696	0.03707	0.28908	0.15403	0.10317	0.28333	0.26239	0.26533	0.13681	0.10553	0.10975	0.073663	0.12168	0.20156	-1.7542	-2.5958	-2.5479	-2.3479	-2.6896	-2.225	-2.6375	-2.8063	-2.2458	-2.4708	-2.6896	-2.4854	-2.8021	-2.4042	-2.3521	-2.5896	410.938	373.781	219.400	304.451	218.602	221.436	441.620	378.262	382.201	418.720	254.313	446.386	255.763	494.074	358.514	352.387	0.00050097	0.00059469	0.0001144	611.84	6.725e-06	3.4065e-07	852.7	165.31	3.1944e-06	7.4091e-06	280.99	103.68	57.35	23.891	1.7627e-06	43.459	0.00036817	0.00036326	0.00010107	613.68	4.0141e-06	3.9743e-06	824.68	167.91	3.9316e-06	3.9068e-06	272.96	99.215	59.139	24.041	3.853e-06	41.39	288.746	497.865	231.833	156.706	287.277	379.881	156.593	162.569	494.719	302.591	161.850	167.933	169.096	173.261	191.231	171.132	-8191	255	
1278.989	1	1	0	0	0.18575	0.055517	0.3118	0.069376	0.24559	0.087974	0.16272	0.18724	0.33071	0.045208	0.17441	0.082964	0.080746	0.091802	0.10674	0.21125	-1.8687	-2.4688	-2.3104	-2.2458	-2.9104	-2.3708	-2.4479	-2.7146	-2.3417	-2.7313	-2.7042	-2.5042	-2.9542	-2.1771	-2.4604	-2.7833	228.273	145.731	199.989	269.397	442.341	292.965	355.867	450.416	364.504	369.509	350.677	442.925	419.310	425.248	236.676	437.357	0.00046211	0.00010313	0.00015135	616.1	3.7791e-06	8.1559e-06	849.87	165.11	3.1091e-06	2.8366e-06	282.7	103.5	57.146	23.822	3.8654e-06	43.68	0.00035282	0.00035102	9.6973e-05	613.06	3.825e-06	3.799e-06	822.39	167.02	3.8171e-06	3.7898e-06	272.57	98.898	58.833	23.918	3.8195e-06	41.236	272.803	200.394	226.527	156.776	234.846	230.304	156.708	162.553	254.124	215.065	161.656	167.495	169.175	173.314	249.375	171.316	-8191	255	
1279.085	1	1	0	0	0.045815	0.13138	0.24655	0.18082	0.14039	0.13681	0.1388	0.10326	0.24215	0.094185	0.18763	0.17286	0.14194	0.046402	0.084046	0.14743	-1.9	-2.3812	-2.5792	-2.4688	-2.6458	-2.3792	-2.4479	-2.8604	-2.2938	-2.6167	-2.6292	-2.2188	-2.8042	-2.3854	-2.4104	-2.9729	358.769	340.931	271.616	474.707	453.980	392.293	152.090	490.079	165.271	300.947	421.695	368.643	155.684	255.529	154.783	435.402	0.00060445	0.00033765	0.00016163	614.96	6.4959e-06	3.2323e-06	850.7	165.13	5.0422e-06	5.5991e-06	279.55	102.34	57.127	23.796	7.3812e-06	43.025	0.00035263	0.00035155	9.7786e-05	613.71	3.8738e-06	3.857e-06	824.2	167.54	3.9145e-06	3.9125e-06	271.62	98.549	59.008	23.96	3.9536e-06	41.02	275.495	207.879	173.896	156.788	301.770	239.290	156.750	162.478	208.594	156.181	161.542	167.152	169.297	173.261	293.301	171.273	-8191	255	
1279.181	1	1	0	0	0.037893	0.033355	0.27716	0.082531	0.23849	0.08075	0.31738	0.051223	0.18693	0.18064	0.20938	0.080894	0.1135	0.23592	0.049009	0.14521	-1.7479	-2.4146	-2.7354	-2.3854	-2.9062	-2.5979	-2.4813	-2.4562	-2.2646	-2.5542	-2.7938	-2.2896	-2.7458	-2.6146	-2.2729	-2.8604	246.684	410.524	437.342	377.569	184.802	467.339	476.878	440.087	364.900	286.292	358.611	189.974	461.410	346.146	189.086	429.245	0.00066685	0.00049634	0.00019022	613.07	6.0381e-06	4.5672e-06	845.58	165.43	2.7239e-06	2.1611e-06	278.56	101.26	56.511	23.516	9.1889e-06	42.801	0.00036432	0.00036571	0.00010225	616.99	4.0476e-06	4.0463e-06	825.77	168.79	4.0949e-06	4.096e-06	272.95	98.443	59.527	23.976	4.1799e-06	40.863	276.547	430.207	242.524	156.693	332.517	420.223	156.388	162.539	236.791	182.788	161.489	167.491	169.373	173.131	186.779	171.647	-8191	255	
1279.300	1	1	0	0	0.14237	0.12155	0.16122	0.1424	0.12568	0.26616	0.057512	0.13351	0.11564	0.12699	0.12117	0.11295	0.15242	0.15015	0.23579	0.2365	-1.8583	-2.2896	-2.7583	-2.5125	-2.5812	-2.6063	-2.5854	-2.775	-2.3292	-2.3375	-3.0521	-2.1458	-2.5417	-2.6312	-2.4396	-2.9167	270.249	207.006	304.400	433.409	174.658	419.038	213.494	418.254	172.760	258.145	173.152	308.482	255.902	498.276	194.755	438.304	0.00053465	0.00051242	4.0395e-05	619.95	4.0192e-06	5.9585e-06	851.11	165.73	2.5593e-06	5.0079e-06	280.06	101	56.351	23.499	2.0795e-06	42.618	0.00038533	0.0003816	0.00010599	622.87	4.2335e-06	4.2327e-06	830.49	169.93	4.2134e-06	4.2462e-06	274.56	98.502	59.647	23.987	4.2236e-06	41.118	273.569	277.501	471.583	156.960	201.327	299.507	156.545	162.646	159.523	319.920	161.475	167.573	169.441	172.914	278.040	171.483	-8191	255	
1279.396	1	1	0	0	0.18995	0.11372	0.18401	0.3757	0.083025	0.34586	0.25385	0.27525	0.25907	0.20483	0.058614	0.13969	0.20168	0.15163	0.092464	0.2063	-1.9896	-2.1292	-2.5062	-2.2521	-2.4604	-2.6646	-2.4333	-2.7	-2.5	-2.1792	-2.7438	-2.4021	-2.4604	-2.5875	-2.3104	-2.7833	454.234	489.074	271.427	480.002	403.622	192.109	417.725	473.980	425.309	438.831	440.894	267.229	211.248	166.626	440.178	440.608	0.00048873	0.00069016	0.00017276	613.3	9.1091e-06	3.674e-06	850.8	164.96	9.5924e-07	4.4448e-06	278.33	101.29	56.339	23.397	2.6422e-06	42.321	0.00038308	0.00038404	0.00010712	622.12	4.2384e-06	4.2329e-06	832.18	170.19	4.2884e-06	4.3219e-06	275.93	99.039	60.151	24.163	4.4529e-06	41.172	281.375	200.910	213.269	156.953	369.323	317.160	156.474	162.781	324.130	489.135	161.713	167.492	169.092	173.378	256.829	171.711	-8191	255	
1279.492	1	1	0	0	0.3159	0.10376	0.08445	0.18177	0.10424	0.097826	0.17754	0.28523	0.24242	0.26269	0.12409	0.21869	0.25767	0.27382	0.042049	0.084277	-2	-2.1896	-2.5438	-2.5354	-2.5396	-2.6417	-2.5396	-2.7625	-2.8104	-2.2354	-2.8625	-2.3958	-2.5938	-2.7667	-2.2042	-2.7271	213.355	229.481	259.798	340.239	193.040	161.708	321.295	392.557	446.394	384.657	238.530	339.482	425.096	495.147	489.112	215.953	0.00056074	0.00047009	0.00024704	614.28	3.9756e-06	9.21e-06	847.34	166.74	5.1414e-06	5.6268e-06	276.8	99.24	55.444	22.496	1.6976e-06	40.152	0.00040977	0.00041097	0.00011407	628.82	4.531e-06	4.5438e-06	835.03	172.44	4.5865e-06	4.6422e-06	276.13	98.733	60.606	23.766	4.8676e-06	40.056	251.206	179.780	193.904	157.028	497.153	252.376	156.509	162.913	210.851	317.877	161.558	167.701	168.657	173.486	484.234	171.299	-8191	255	
1279.588	1	1	0	0	0.21817	0.14293	0.14359	0.096861	0.13582	0.25754	0.25497	0.11427	0.10355	0.14042	0.2061	0.1161	0.22992	0.20107	0.0055435	0.19661	-2.3146	-2.3292	-2.7313	-2.3458	-2.3979	-2.7812	-2.4437	-2.7229	-2.6604	-2.1792	-2.8333	-2.4729	-2.4333	-3.0187	-2.4396	-2.5625	321.201	428.438	305.263	443.419	161.585	170.100	474.067	398.400	294.255	299.641	479.707	383.460	220.278	391.669	339.628	386.120	0.00046866	0.0012826	0.00013186	621.98	6.4392e-06	9.3653e-06	852.74	165.76	4.7965e-06	1.0308e-05	270.73	94.987	52.863	21.09	4.0968e-06	37.851	0.00045385	0.00045623	0.00012714	640.45	5.0439e-06	5.0559e-06	844.57	174.67	5.1509e-06	5.1808e-06	275.98	96.555	60.42	23.09	5.4848e-06	38.961	289.503	207.018	292.690	157.215	200.314	384.943	156.458	162.357	272.057	320.282	161.359	167.374	169.168	173.469	332.866	171.144	-8191	255	
1279.684	1	1	0	0	0.10182	0.13393	0.23231	0.20073	0.15583	0.1587	0.32075	0.14854	0.071595	0.16216	0.10124	0.30249	0.012584	0.078789	0.090811	0.063304	-2.0854	-2.3604	-2.6917	-2.5958	-2.1792	-2.8604	-2.4333	-2.4104	-2.7208	-2.1021	-2.7167	-2.4625	-2.3292	-2.7146	-2.6021	-2.7521	440.876	381.286	357.233	437.965	289.583	442.333	407.886	229.488	340.895	479.583	440.447	151.696	239.292	482.952	396.526	396.285	0.00051154	0.00037094	0.00012604	634.28	6.5023e-07	7.595e-06	855.8	168.36	5.6207e-06	5.8257e-06	269.23	90.776	51.659	19.478	2.2926e-06	35.64	0.00051321	0.00051687	0.00014583	663.59	5.8265e-06	5.8276e-06	860.52	180.83	5.922e-06	5.959e-06	281.79	95.875	61.613	22.555	6.1611e-06	37.946	253.601	484.172	341.072	156.958	474.274	223.176	156.448	162.773	244.477	494.733	161.641	167.293	168.889	173.403	270.290	171.806	-8191	255	
1279.781	1	1	0	0	0.17315	0.071835	0.18999	0.26327	0.098737	0.19661	0.037542	0.19814	0.05032	0.29921	0.070526	0.076191	0.079903	0.34797	0.093089	0.17168	-2.3042	-2.2833	-2.7125	-2.4292	-2.4188	-2.9437	-2.7062	-2.5542	-2.7625	-2.2667	-2.9104	-2.525	-2.3583	-2.8542	-2.2833	-2.5208	146.561	429.561	327.430	458.646	408.066	338.998	316.227	160.371	164.543	433.326	309.487	225.923	263.410	480.614	295.761	400.921	0.00045029	0.00063664	0.0003821	647.44	9.7054e-06	6.0122e-06	859.87	169.85	8.5534e-06	4.1469e-06	263.91	87.824	50.946	18.905	6.734e-06	33.965	0.00056727	0.00057138	0.00015977	688.89	6.3496e-06	6.3953e-06	876.29	185.73	6.4564e-06	6.4611e-06	282.37	94.936	62.194	22.227	6.4477e-06	37.089	270.237	495.802	228.595	156.686	165.781	421.924	156.409	162.186	316.977	335.792	161.215	167.182	168.804	173.809	427.975	171.596	-8191	255	
1279.901	1	1	0	0	0.10169	0.1479	0.17732	0.0041803	0.083401	0.20245	0.36526	0.010063	0.18377	0.087644	0.024949	0.25432	0.18735	0.17453	0.27227	0.26988	-2.4604	-2.425	-2.5771	-2.725	-2.1312	-2.7188	-2.6125	-2.3917	-2.8875	-2.5187	-2.5333	-2.6188	-2.2542	-2.6063	-2.5062	-2.5292	365.322	450.061	320.819	267.013	407.900	404.094	416.757	196.199	258.686	204.639	496.871	397.992	223.376	364.986	490.351	433.270	0.00041548	0.00030265	0.00019325	654.4	2.0846e-06	2.0766e-06	861	168.45	4.9548e-06	6.2176e-06	260.89	86.943	50.837	18.658	6.6387e-06	33.772	0.00058688	0.00058882	0.0001635	697.26	6.4238e-06	6.4526e-06	874.81	185.29	6.4945e-06	6.4559e-06	279.51	93.848	61.578	21.948	6.3541e-06	36.727	267.899	334.731	226.561	156.471	454.904	235.525	156.397	161.953	334.051	475.019	161.312	167.003	168.503	173.213	381.752	171.253	-8191	255	
1279.997	1	1	0	0	0.36386	0.1709	0.12723	0.15374	0.18666	0.055043	0.32509	0.17375	0.019577	0.11693	0.15923	0.11659	0.12664	0.044763	0.3184	0.2077	-2.3708	-2.475	-2.4417	-2.5979	-2.3354	-2.575	-2.7271	-2.2667	-2.8979	-2.525	-2.4813	-2.5812	-2.1229	-2.6542	-2.3396	-2.375	442.005	468.052	498.529	254.464	167.063	284.970	438.730	482.540	282.593	260.596	316.590	270.574	261.000	417.906	192.343	360.258	0.0004291	0.00052515	9.8983e-05	650.97	5.3194e-06	4.1437e-06	849.58	168.05	4.3964e-06	5.9436e-06	259.72	87.217	50.271	18.639	6.199e-06	34.293	0.0005837	0.00058468	0.00016367	693.67	6.4748e-06	6.4559e-06	870.66	184.53	6.4462e-06	6.4954e-06	278.87	94.179	61.714	22.141	6.3824e-06	37.022	275.433	326.111	232.842	156.943	323.849	489.813	156.166	162.173	221.577	144.530	161.205	167.414	168.351	173.633	252.467	171.376	-8191	255	
1280.092	1	1	0	0	0.13607	0.27154	0.22233	0.13689	0.13209	0.18225	0.24003	0.22555	0.044424	0.20309	0.25279	0.076107	0.2311	0.17565	0.23063	0.099706	-2.3979	-2.6146	-2.45	-2.7646	-2.2167	-2.8229	-2.7792	-2.3	-2.6417	-2.4521	-2.4729	-2.7979	-2.4771	-2.6917	-2.5458	-2.3438	293.170	251.377	443.836	495.348	487.488	229.130	491.583	394.628	398.264	424.933	154.252	348.425	458.476	487.592	454.752	421.424	0.00044242	0.0010751	0.0001516	649.26	4.009e-06	5.1942e-06	843.81	165.64	6.8328e-06	2.2469e-06	259.76	88.244	50.796	19.246	1.1954e-05	35.89	0.00057784	0.00057451	0.00015933	687.92	6.2337e-06	6.1759e-06	861.55	181.21	6.1546e-06	6.1169e-06	275.82	94.36	60.913	22.349	6.0533e-06	37.997	263.119	271.147	176.037	156.580	363.752	204.495	156.095	161.974	373.767	466.675	161.610	166.763	169.273	173.738	222.318	171.404	-8191	255	
1280.165	1	1	0	0	0.14714	0.19076	0.080585	0.19351	0.046423	0.070428	0.23086	0.15168	0.019059	0.22618	0.19853	0.043429	0.099996	0.16471	0.1402	0.20296	-2.2083	-2.4083	-2.375	-2.8917	-2.3167	-2.6521	-2.9062	-2.1729	-2.8146	-2.5354	-2.3563	-2.8333	-2.2687	-2.4833	-2.6792	-2.2896	312.714	264.731	271.182	493.411	189.951	162.403	451.743	388.976	351.083	203.993	176.374	367.390	463.568	173.593	220.317	435.046	0.00045091	0.00069036	0.00020642	634.9	7.8977e-06	1.0528e-06	844.87	163.65	2.1785e-06	1.1271e-06	264.17	90.523	51.535	20.188	5.9546e-07	37.323	0.00054564	0.00054427	0.00015207	672.54	5.9288e-06	5.9526e-06	854.64	177.34	5.8534e-06	5.8817e-06	274.97	95.725	60.834	22.848	5.8956e-06	39.091	274.332	472.764	490.811	156.355	212.360	364.012	156.260	162.246	356.193	328.658	161.263	167.621	168.742	173.599	402.214	171.422	-8191	255	
1280.261	1	1	0	0	0.057402	0.18173	0.25883	0.23986	0.20179	0.1184	0.28384	0.19091	0.11348	0.15965	0.13339	0.11663	0.23692	0.16183	0.27965	0.075954	-2.2646	-2.4917	-2.3063	-2.7917	-2.3875	-2.3292	-2.8042	-2.3542	-2.5146	-2.6417	-2.2979	-2.7167	-2.4604	-2.3771	-2.7458	-2.4167	430.028	373.037	377.875	348.248	440.318	346.061	328.057	194.379	486.782	166.126	312.587	172.818	151.437	480.552	165.003	195.350	0.00047421	0.00084905	0.00017666	634.44	6.6449e-06	7.0238e-06	840.81	163.39	6.7072e-06	7.7182e-06	262.17	90.9	51.243	20.068	4.0224e-06	37.027	0.00054622	0.00055029	0.00015264	670.71	6.0607e-06	6.0473e-06	856.34	178.3	6.1008e-06	6.0872e-06	277.07	96.337	61.431	23.04	6.2181e-06	38.976	269.455	312.260	323.220	156.561	394.024	289.024	156.376	162.628	468.827	186.576	161.325	167.339	168.945	173.749	333.867	171.260	-8191	255	
1280.380	1	1	0	0	0.1839	0.10594	0.16604	0.26621	0.29386	0.32665	0.071249	0.11128	0.30961	0.30463	0.25554	0.44292	0.07242	0.075926	0.16945	0.31597	-2.2812	-2.6708	-2.425	-2.7479	-2.45	-2.3187	-2.8312	-2.175	-2.7958	-2.5458	-2.3688	-2.7333	-2.4146	-2.4125	-2.8312	-2.5125	150.674	293.504	268.788	469.106	146.174	254.275	445.030	441.005	309.315	420.788	157.781	439.958	199.818	326.928	436.282	479.303	0.00049727	0.00072308	0.00010417	639.24	1.2079e-05	2.2026e-06	841.1	163.7	1.1007e-06	2.5289e-06	260.73	89.89	50.305	19.795	5.2341e-06	36.136	0.00056962	0.00057426	0.00016114	678.22	6.2851e-06	6.32e-06	859.2	179.77	6.2803e-06	6.3343e-06	277.28	95.824	61.596	22.904	6.2673e-06	38.5	260.263	248.912	314.691	156.460	182.855	466.398	156.137	162.431	148.265	331.968	161.269	167.313	169.201	174.041	189.022	171.711	-8191	255	
1280.476	1	1	0	0	0.21519	0.040946	0.3893	0.20893	0.092324	0.19812	0.17963	0.15595	0.087421	0.11237	0.17442	0.29448	0.09132	0.030624	0.19114	0.20521	-2.1271	-2.5333	-2.2604	-2.5917	-2.5875	-2.15	-3.0354	-2.275	-2.4813	-2.6333	-2.3729	-2.6271	-2.5271	-2.2979	-2.8104	-2.3771	293.645	482.210	498.734	152.261	307.055	203.490	483.376	315.724	237.288	451.230	426.648	209.599	427.017	187.825	419.625	177.603	0.00040164	0.0014447	7.9452e-05	637.59	1.0631e-05	3.7453e-06	838.26	162.81	8.9127e-06	1.0414e-05	261.18	89.959	51.79	20.098	3.6365e-06	37.054	0.0005598	0.0005587	0.00015502	671.27	5.9995e-06	6.0073e-06	850.79	177.5	5.9885e-06	6.0264e-06	275.33	95.489	61.37	22.928	6.0688e-06	38.93	286.962	229.029	379.103	156.658	208.291	218.849	156.435	162.568	266.821	391.750	161.113	166.836	168.717	173.393	500.570	171.719	-8191	255	
1280.573	1	1	0	0	0.013273	0.15649	0.10923	0.22274	0.15469	0.071478	0.48198	0.1671	0.2002	0.16272	0.19582	0.23524	0.13834	0.26068	0.0924	0.026746	-2.2667	-2.6917	-2.3208	-2.8458	-2.4437	-2.3812	-2.7479	-2.4396	-2.3792	-2.5438	-2.3896	-2.8771	-2.5021	-2.4271	-2.7646	-2.4458	266.095	147.836	503.367	504.177	382.383	280.443	471.861	442.845	427.653	155.614	476.478	147.491	415.491	490.841	412.708	468.586	0.0005004	0.00059778	0.0001842	636.54	7.3245e-06	8.2047e-06	840.08	163.87	1.0821e-05	3.6179e-06	263.12	91.914	51.224	20.6	3.9225e-06	37.828	0.00055898	0.00055958	0.00015579	674.23	6.1229e-06	6.1381e-06	856.1	178.16	6.0891e-06	6.0456e-06	276.29	96.682	61.396	23.216	6.0029e-06	39.366	272.385	166.155	502.437	156.608	238.779	301.910	156.429	162.314	353.839	422.566	161.414	167.062	169.307	173.620	427.469	171.806	-8191	255	
1280.693	1	1	0	0	0.19954	0.026514	0.053559	0.28047	0.23875	0.25096	0.040176	0.12941	0.13956	0.18521	0.28576	0.19234	0.12307	0.11485	0.15798	0.17884	-2.0583	-2.8292	-2.2958	-2.5583	-2.6083	-2.1813	-3	-2.4875	-2.3812	-2.8354	-2.2604	-2.7	-2.7333	-2.55	-2.6396	-2.6854	479.798	366.884	162.508	413.156	348.703	176.129	412.453	467.959	350.291	326.486	457.408	488.244	215.768	153.542	317.565	455.950	0.00041427	0.00050798	7.0308e-05	628.8	7.8132e-06	6.5656e-06	844.46	162.38	3.5719e-06	5.1793e-06	262.95	91.427	51.063	20.271	2.8853e-06	37.337	0.00054624	0.00054433	0.00015163	665.27	6.0596e-06	6.1105e-06	855.17	177.36	6.0174e-06	5.9943e-06	275.93	96.492	61.338	23.131	5.9891e-06	39.05	259.067	408.674	251.112	156.820	415.811	349.767	156.537	162.263	297.838	190.088	161.128	167.680	169.268	173.889	439.288	171.756	-8191	255	
1280.765	1	1	0	0	0.025811	0.1182	0.23861	0.40761	0.21353	0.034127	0.21577	0.073096	0.21514	0.15464	0.25322	0.098631	0.13888	0.1678	0.055866	0.11145	-1.8625	-2.7854	-2.4375	-2.5792	-2.7854	-2.0354	-2.8729	-2.6583	-2.2333	-2.7438	-2.6604	-2.3375	-2.8354	-2.3542	-2.6125	-2.5396	489.136	488.680	182.841	451.211	403.309	371.083	492.166	462.514	337.217	298.442	382.977	182.203	492.498	331.409	326.573	455.172	0.00042114	0.00033027	0.00017104	627.06	1.2515e-05	3.4042e-06	837.27	161.03	6.5051e-06	1.324e-06	261.34	91.396	51.281	20.415	8.1085e-06	37.288	0.00054324	0.00053917	0.00015056	661.26	5.8972e-06	5.8588e-06	846.5	174.64	5.7675e-06	5.7334e-06	271.65	94.844	60.105	22.833	5.7091e-06	38.658	255.624	465.685	233.130	156.383	297.986	280.325	156.296	162.425	297.383	220.326	161.332	167.459	169.349	173.897	287.332	171.640	-8191	255	
1280.861	1	1	0	0	0.13199	0.19498	0.17161	0.074038	0.17946	0.29465	0.21151	0.097159	0.17135	0.090817	0.17731	0.040938	0.20817	0.25488	0.12416	0.048379	-1.9271	-3.0208	-2.4292	-2.6437	-2.7875	-2.3854	-2.8187	-2.8229	-2.1729	-2.9062	-2.6188	-2.3563	-2.8042	-2.3208	-2.5979	-2.6917	411.814	497.938	164.287	494.151	420.641	456.903	328.667	410.739	387.241	243.173	398.575	234.419	474.487	503.328	290.810	339.624	0.0007153	0.00076137	0.00017851	625.33	6.3634e-06	3.8432e-06	836.43	161.3	1.0042e-05	5.5672e-06	260.91	90.026	50.792	20.004	1.6715e-06	36.701	0.00052393	0.00052763	0.00014816	659.22	5.883e-06	5.907e-06	848.14	176.08	6.083e-06	6.1305e-06	276.72	96.194	61.958	23.153	6.3778e-06	39.152	278.797	450.518	217.876	156.586	255.634	310.396	156.522	162.472	246.427	245.455	161.466	167.325	168.710	173.888	325.032	171.730	-8191	255	
1280.982	1	1	0	0	0.16791	0.18631	0.19921	0.18868	0.18902	0.13417	0.15917	0.23555	0.16483	0.1084	0.28343	0.11354	0.068472	0.12884	0.097887	0.33062	-1.8354	-2.8479	-2.4688	-2.4958	-2.8208	-2.2917	-2.675	-2.7042	-2.3917	-2.6229	-2.6479	-2.3729	-2.7792	-2.5896	-2.4833	-2.9125	227.201	472.061	263.456	214.960	335.924	391.208	265.599	431.951	207.657	257.688	453.583	476.904	213.658	246.038	355.002	414.600	0.00036	0.00095905	0.000204	622.29	1.9802e-05	4.3926e-06	835.66	161.87	3.5932e-06	1.8816e-06	260.42	89.88	50.784	19.537	2.6849e-06	36.204	0.00057601	0.00057033	0.00015741	660.97	6.1628e-06	6.1972e-06	851.59	177.63	6.4195e-06	6.5732e-06	279.59	97.52	62.993	23.252	6.7682e-06	38.985	267.362	370.694	471.381	156.914	322.867	257.857	156.202	162.506	240.803	290.456	161.373	167.204	168.892	173.699	373.841	171.671	-8191	255	
1281.078	1	1	0	0	0.12277	0.095834	0.15732	0.25675	0.15032	0.055976	0.1887	0.040805	0.28332	0.11748	0.15823	0.13518	0.12254	0.094071	0.024595	0.20691	-1.9771	-2.7771	-2.6771	-2.5083	-2.8312	-2.3104	-2.8771	-2.7792	-2.1521	-2.8229	-2.75	-2.3625	-3.0062	-2.3708	-2.2458	-2.9417	486.185	332.518	262.417	165.450	416.861	473.270	463.695	464.979	216.423	157.095	423.215	243.417	374.433	463.296	408.995	178.696	0.0006251	0.00033576	8.6627e-05	631.65	9.9139e-06	1.0799e-05	840.04	160.4	4.5175e-06	4.3585e-06	259.65	89.605	50.195	20.035	2.934e-06	36.713	0.00061177	0.0006148	0.00017209	680.08	6.7414e-06	6.6682e-06	864.68	179.71	6.5952e-06	6.5179e-06	278.16	96.35	61.741	23.139	6.4724e-06	39.324	281.996	238.421	452.812	156.848	237.874	230.523	156.288	162.663	233.650	227.564	161.079	167.457	169.456	173.557	307.180	171.660	-8191	255	
1281.174	1	1	0	0	0.13313	0.10036	0.12974	0.27676	0.23873	0.12551	0.16735	0.14158	0.09352	0.13774	0.24905	0.26528	0.10406	0.055034	0.1051	0.13146	-1.8208	-2.6708	-2.8271	-2.3167	-2.7687	-2.3896	-2.7083	-2.9562	-2.2	-2.6104	-2.7396	-2.2896	-2.9271	-2.4979	-2.4979	-2.8792	190.101	215.450	284.789	155.681	217.417	392.692	428.586	480.382	304.946	378.323	470.738	438.122	445.867	213.330	324.463	323.489	0.00034954	0.0014294	0.00010387	628.91	5.837e-06	1.1369e-05	839.05	162.14	5.9515e-06	3.1457e-06	261.93	89.63	50.644	19.893	4.3527e-06	37.002	0.00059577	0.0006012	0.00016916	679.01	6.7335e-06	6.7522e-06	865.86	181.48	6.8197e-06	6.8725e-06	282.26	97.684	62.981	23.486	6.7148e-06	39.564	288.968	239.844	188.742	156.817	312.471	470.984	156.527	162.345	330.928	147.376	161.094	167.401	169.507	173.489	216.072	171.661	-8191	255	
1281.270	1	1	0	0	0.075512	0.065464	0.13929	0.19151	0.22337	0.067192	0.16468	0.22447	0.088841	0.077575	0.044663	0.062081	0.22714	0.22639	0.20547	0.30203	-1.9688	-2.4521	-2.775	-2.5896	-2.6188	-2.4625	-2.375	-2.9042	-2.3646	-2.6542	-2.7458	-2.1792	-2.7604	-2.5979	-2.4313	-3.0396	390.418	461.824	227.641	440.925	470.954	162.777	302.456	379.750	179.890	205.509	172.137	351.601	436.171	469.157	180.649	397.509	0.00051929	0.001117	5.1571e-05	628.95	7.2395e-06	2.3089e-06	830.72	162.21	4.1561e-06	5.6706e-06	257.44	89.552	50.758	20.391	2.8064e-06	37.77	0.00060047	0.00059785	0.00016488	672.79	6.5251e-06	6.5399e-06	858.15	179.25	6.4885e-06	6.3796e-06	274.42	95.662	60.892	23.155	6.0219e-06	39.549	284.662	468.627	375.779	156.817	221.221	293.972	156.120	161.928	384.977	276.094	161.199	167.731	169.588	173.623	178.547	171.613	-8191	255	
1281.389	1	1	0	0	0.11203	0.05214	0.24001	0.052971	0.21417	0.17079	0.078795	0.27346	0.16289	0.18292	0.083884	0.12048	0.16667	0.20629	0.07217	0.17191	-1.9625	-2.4083	-2.6646	-2.4	-2.5521	-2.7812	-2.5187	-2.9583	-2.5479	-2.4562	-2.8021	-2.4167	-2.8396	-2.4896	-2.2208	-2.7812	459.656	417.477	463.283	425.222	502.203	299.029	393.086	394.323	367.573	406.170	268.755	324.006	423.902	420.991	277.113	480.263	0.00043925	0.00063063	0.00024509	620.97	5.4341e-06	3.1917e-06	831.51	159.86	5.352e-07	3.2961e-06	259.43	92.271	50.965	20.622	4.6561e-06	37.855	0.00055769	0.00056893	0.00016174	663.45	6.5307e-06	6.5791e-06	854.69	177.72	6.5564e-06	6.5555e-06	279.78	98.61	63.119	24.058	6.7767e-06	40.855	293.619	216.108	173.351	156.358	265.537	144.814	156.337	162.402	273.753	367.706	161.518	167.407	169.336	173.297	150.145	171.416	-8191	255	
1281.461	1	1	0	0	0.18925	0.1217	0.14491	0.39754	0.14596	0.153	0.33106	0.11679	0.060092	0.17376	0.10949	0.25145	0.33563	0.090473	0.059373	0.02384	-1.9875	-2.4333	-2.7583	-2.375	-2.3583	-2.7438	-2.2792	-2.7875	-2.5042	-2.4479	-2.9479	-2.4229	-2.6688	-2.7667	-2.3063	-2.8229	343.077	465.051	306.732	440.636	399.233	350.941	410.003	294.604	368.074	212.256	304.638	322.435	256.526	501.472	189.743	435.373	0.00052749	0.00031992	0.00014193	618.82	5.9864e-06	7.4085e-06	836.06	160.76	4.6084e-06	1.1442e-05	259.96	91.723	51.146	20.71	3.2133e-06	37.263	0.00062293	0.00062594	0.00017402	673.99	6.8475e-06	6.8204e-06	862.33	179.85	6.7739e-06	6.7264e-06	281.63	99.056	63.305	24.032	6.7654e-06	40.215	278.258	283.184	252.986	156.616	292.163	209.929	156.567	162.210	360.315	260.848	161.416	167.497	169.559	173.426	486.591	171.543	-8191	255	
1281.559	1	1	0	0	0.060622	0.23352	0.10553	0.19626	0.20685	0.083596	0.17698	0.16808	0.18505	0.10012	0.21393	0.21726	0.39206	0.061685	0.081048	0.037022	-2.2313	-2.1813	-2.6937	-2.3937	-2.7542	-2.7062	-2.4333	-2.7729	-2.6333	-2.1208	-3.0312	-2.4125	-2.4708	-2.9292	-2.0271	-2.9104	160.776	285.594	495.618	498.960	235.337	422.774	144.717	486.086	480.431	196.901	178.148	473.053	200.772	344.753	386.629	416.501	0.00057062	0.00035301	9.4961e-05	621.81	1.1488e-05	4.3256e-06	826.14	158.96	4.3961e-07	9.2886e-06	258.54	91.261	50.868	20.515	8.9612e-06	37.757	0.00062172	0.00062404	0.00017359	673.06	6.6042e-06	6.4702e-06	846.09	175.93	6.3507e-06	6.3779e-06	275.58	97.949	62.416	23.774	6.5894e-06	40.183	278.480	189.520	352.603	156.664	297.192	416.843	156.487	161.944	254.279	319.209	161.529	167.393	168.732	173.673	294.088	171.503	-8191	255	
1281.677	1	1	0	0	0.050964	0.083128	0.16844	0.3844	0.086973	0.17003	0.35118	0.14829	0.27721	0.22224	0.096483	0.098397	0.058934	0.16583	0.14116	0.31139	-2.4083	-2.2979	-2.7833	-2.3479	-2.5375	-2.6937	-2.4083	-2.8771	-2.7188	-2.1813	-2.8646	-2.5333	-2.6396	-2.8146	-2.5667	-2.7062	499.091	273.822	375.229	465.706	231.399	397.537	413.352	318.469	494.693	428.113	152.251	390.918	171.165	430.035	389.409	176.154	0.00042711	0.0010027	0.00027167	619.6	2.3857e-06	3.2037e-06	828.49	159.12	5.0359e-06	6.4019e-06	259.3	91.172	50.897	20.759	7.466e-06	37.722	0.00060168	0.00060303	0.00016917	667.16	6.7017e-06	6.7396e-06	855.03	178.96	6.8768e-06	6.8611e-06	280.82	99.081	63.837	24.231	6.9128e-06	40.857	253.950	234.693	200.601	156.954	322.488	336.134	156.116	162.236	385.651	306.930	161.384	167.656	169.128	173.370	498.158	171.472	-8191	255	
1281.774	1	1	0	0	0.17534	0.083434	0.13272	0.34588	0.19048	0.067045	0.17324	0.12734	0.24049	0.2154	0.13661	0.13817	0.22332	0.051666	0.054513	0.45524	-2.3167	-2.0771	-2.7687	-2.4417	-2.5312	-2.8229	-2.5312	-2.5625	-2.6729	-2.1875	-2.725	-2.5438	-2.3292	-2.8479	-2.3667	-2.6	483.882	177.351	314.385	394.788	199.657	318.551	373.188	383.253	415.735	339.540	466.124	189.462	221.700	229.119	207.884	302.339	0.00045641	0.0011786	0.00026485	620.32	4.7092e-06	7.2097e-06	827.28	160.51	1.9862e-06	6.8092e-06	258.27	91.123	51.2	20.587	1.3213e-06	37.804	0.00063505	0.00064103	0.00017865	676.72	7.1425e-06	7.157e-06	864.05	181.96	7.1218e-06	7.0849e-06	282.9	99.054	63.803	24.201	6.8853e-06	40.624	290.291	341.333	284.727	156.675	258.774	390.288	156.157	162.409	327.755	210.099	161.238	167.459	169.334	173.807	183.720	171.876	-8191	255	
1281.870	1	1	0	0	0.20806	0.28772	0.04907	0.23512	0.22047	0.21309	0.26505	0.25591	0.025853	0.15874	0.24307	0.028504	0.10372	0.088807	0.072443	0.060445	-2.225	-2.3354	-2.7333	-2.475	-2.5104	-2.6937	-2.6042	-2.4042	-2.6042	-2.2458	-2.5625	-2.6833	-2.1583	-2.8667	-2.4125	-2.4917	489.747	308.901	172.993	444.839	220.607	435.987	444.580	501.093	476.652	182.432	465.534	203.380	226.500	344.796	189.521	174.259	0.00031699	0.00083815	0.00026987	622.61	7.5975e-06	8.483e-06	831.52	159.81	1.0488e-05	5.7022e-06	259.82	91.567	51.229	20.731	3.9956e-06	38.006	0.0006222	0.00061612	0.00017237	671.86	6.7693e-06	6.7636e-06	854.36	178.44	6.6194e-06	6.5475e-06	278.15	98.278	62.66	24.076	6.695e-06	40.887	299.329	356.866	400.930	156.279	277.184	194.683	156.166	162.098	319.983	454.404	161.384	167.546	168.917	173.976	273.885	171.279	-8191	255	
1281.966	1	1	0	0	0.18352	0.083936	0.10424	0.19331	0.18053	0.068922	0.20092	0.24161	0.3	0.13302	0.071732	0.1421	0.33448	0.11354	0.13943	0.12327	-2.3917	-2.3667	-2.6292	-2.8354	-2.4396	-2.8937	-2.6396	-2.3937	-2.9062	-2.2542	-2.7458	-2.7771	-2.2958	-2.7396	-2.4375	-2.7292	296.169	221.803	226.567	331.030	159.168	228.095	497.997	495.530	417.869	149.724	220.118	454.553	439.605	152.218	272.209	270.411	0.00042198	0.00022437	0.00030837	614.18	6.4256e-06	3.5248e-06	826.35	159.4	6.6225e-06	4.8221e-06	257.99	90.472	50.501	20.335	9.3182e-06	37.211	0.00061571	0.00061731	0.00017169	662.29	6.7018e-06	6.6719e-06	852.07	178.62	6.8722e-06	6.9478e-06	282.14	99.243	64.295	24.262	7.1862e-06	40.612	276.557	430.555	205.586	156.626	378.492	297.408	156.052	162.286	248.431	323.576	161.298	167.443	168.685	173.599	302.760	171.403	-8191	255	
1282.062	1	1	0	0	0.091436	0.17032	0.085252	0.28994	0.23456	0.12489	0.39648	0.18092	0.16699	0.19568	0.1308	0.20963	0.1139	0.088271	0.12367	0.21359	-2.2271	-2.3125	-2.4375	-2.7104	-2.2021	-2.7771	-2.85	-2.325	-3	-2.7375	-2.5375	-2.7604	-2.2792	-2.7125	-2.5354	-2.3833	500.590	254.733	316.647	400.719	300.049	201.943	450.768	480.171	259.795	441.805	246.436	460.485	239.745	447.562	356.720	478.559	0.00043784	0.00037431	8.9406e-05	614.25	5.3733e-06	2.2742e-06	822.58	159.49	5.6995e-06	6.0546e-07	257.57	90.227	50.515	20.354	5.4096e-06	36.843	0.00064165	0.00064028	0.00017668	667.99	6.8114e-06	6.7429e-06	852.17	177.81	6.6254e-06	6.6026e-06	277.11	97.352	62.486	23.716	6.6369e-06	39.767	276.093	181.500	491.761	156.459	448.431	180.828	156.456	162.546	307.540	219.602	161.390	167.413	169.152	173.520	296.822	171.105	-8191	255	
1282.158	1	1	0	0	0.23681	0.059071	0.14331	0.20874	0.11816	0.04231	0.22046	0.14701	0.38941	0.13593	0.10023	0.25572	0.10176	0.13019	0.026897	0.27777	-2.375	-2.4938	-2.5021	-2.8729	-2.3167	-2.7792	-2.6063	-2.3708	-2.7812	-2.4354	-2.4854	-2.6896	-2.5396	-2.6208	-2.6312	-2.3896	455.760	180.705	393.212	237.541	370.307	492.375	492.693	395.992	177.543	178.059	454.311	162.509	397.058	177.226	308.795	342.747	0.00026345	0.00094019	0.00022758	616.51	5.0381e-06	2.8507e-06	819.95	158.74	4.0043e-06	1.2199e-05	259.36	91.73	51.604	20.754	1.5192e-05	38.372	0.00060885	0.00061238	0.00017	664.58	6.5517e-06	6.5111e-06	844.88	175.85	6.5346e-06	6.5905e-06	278.7	99.545	64.509	24.5	7.1137e-06	41.499	285.120	310.652	184.134	156.413	346.993	222.589	156.419	162.530	259.260	275.043	161.673	167.704	169.229	173.826	264.319	171.601	-8191	255	
1282.253	1	1	0	0	0.17896	0.12183	0.19048	0.18828	0.17346	0.058692	0.22391	0.12461	0.25592	0.142	0.15851	0.12153	0.19072	0.1145	0.038018	0.164	-2.3	-2.4417	-2.2479	-2.9313	-2.3187	-2.5812	-2.6896	-2.2917	-2.7875	-2.4917	-2.4562	-2.9042	-2.4146	-2.5146	-2.7292	-2.5292	399.411	194.686	198.831	346.698	481.224	306.671	309.731	150.123	263.410	287.646	161.580	410.105	162.205	220.499	298.762	493.011	0.00050301	0.0004896	8.6454e-05	614.26	4.643e-06	4.7918e-06	827.24	160.17	4.3586e-06	5.1786e-06	259.97	91.811	51.445	20.825	6.2497e-06	37.925	0.00065539	0.00066111	0.00018531	674.23	7.3987e-06	7.453e-06	865.23	183.17	7.6145e-06	7.5791e-06	287.53	101.77	66.058	25.019	7.381e-06	41.725	263.878	211.476	274.563	156.476	237.684	322.980	156.224	161.914	195.374	420.555	161.381	167.324	169.238	173.513	385.392	171.571	-8191	255	
1282.350	1	1	0	0	0.24665	0.26683	0.19145	0.27087	0.15981	0.17629	0.23307	0.073452	0.19019	0.19201	0.14251	0.15467	0.050033	0.14815	0.21497	0.22184	-2.3646	-2.6229	-2.3875	-2.9688	-2.4437	-2.6688	-2.8708	-2.3104	-2.7583	-2.6854	-2.6979	-2.6667	-2.725	-2.7854	-2.8312	-2.5646	341.022	451.304	163.270	159.064	239.399	486.502	464.406	153.616	372.207	189.501	253.434	279.227	313.129	461.802	174.473	282.330	0.00048038	0.00052964	4.2771e-05	615.24	7.8151e-06	5.773e-06	822.99	159.93	3.9142e-06	4.4457e-06	257.54	90.75	51.076	20.352	3.8725e-06	37.611	0.00066815	0.00067389	0.00018831	678.96	7.4494e-06	7.5097e-06	867.67	183.11	7.5573e-06	7.5044e-06	286.1	100.46	65.903	24.746	7.5917e-06	41.577	271.724	440.362	229.782	156.403	229.803	250.706	156.243	161.965	272.774	501.421	161.782	167.261	169.532	173.723	347.368	171.532	-8191	255	
1282.469	1	1	0	0	0.17447	0.14015	0.05395	0.21352	0.065938	0.18504	0.036142	0.24885	0.21439	0.067419	0.085702	0.050421	0.066772	0.16214	0.089813	0.069929	-2.2021	-2.6667	-2.2271	-3.0333	-2.5104	-2.3833	-3.0563	-2.3875	-2.6167	-2.9521	-2.575	-2.6271	-2.6542	-2.5896	-2.7292	-2.4021	223.966	477.734	262.779	486.105	426.479	298.436	436.221	295.445	236.504	489.810	429.639	219.535	498.696	410.601	421.997	378.218	0.00049604	0.00030594	0.00015641	614.45	3.6735e-06	2.7233e-06	824.05	162.34	7.2485e-06	3.267e-06	258.5	90.069	50.853	20.65	3.0314e-06	37.63	0.00069961	0.00070731	0.00019758	687.68	7.8676e-06	7.8439e-06	872.76	186	7.7484e-06	7.6244e-06	286.5	100.62	65.4	24.788	7.5607e-06	41.59	267.485	155.837	408.928	156.637	362.726	206.161	156.164	162.272	233.347	398.728	161.394	167.725	168.676	173.599	306.195	171.796	-8191	255	
1282.565	1	1	0	0	0.25779	0.17171	0.35783	0.068363	0.097846	0.16431	0.20187	0.15545	0.078091	0.13421	0.22866	0.16085	0.16564	0.1627	0.16172	0.033515	-2.1167	-2.675	-2.2854	-2.6271	-2.6063	-2.5333	-2.9083	-2.5396	-2.4562	-2.8667	-2.3208	-2.7438	-2.7021	-2.5042	-2.6042	-2.5333	424.277	429.219	355.393	427.451	282.337	208.070	442.268	421.846	477.340	256.232	418.740	425.766	300.240	424.231	217.407	407.277	0.00039376	0.0007551	0.00016244	614.37	2.9937e-06	1.1075e-05	824.04	160.89	2.3494e-06	5.8554e-06	258.69	90.509	51.07	20.641	4.7422e-06	37.906	0.00069817	0.00070935	0.00019801	683.65	7.9018e-06	7.8999e-06	872.15	185.59	7.9789e-06	7.9667e-06	290.6	102.35	67.5	25.364	8.0666e-06	42.396	285.513	311.492	339.010	156.515	262.538	221.172	156.433	162.019	491.364	430.750	161.598	167.594	168.830	173.376	489.222	171.942	-8191	255	
1282.662	1	1	0	0	0.21278	0.073583	0.10752	0.20199	0.057373	0.054698	0.34169	0.16517	0.23293	0.043862	0.14928	0.094772	0.21765	0.090321	0.033514	0.32505	-2.05	-2.7333	-2.3854	-2.5896	-2.4875	-2.3312	-2.8833	-2.3688	-2.4167	-2.7625	-2.4938	-2.5938	-2.5	-2.2292	-2.7521	-2.4813	484.347	232.655	501.296	310.035	340.092	312.777	421.852	440.861	306.394	157.953	377.742	325.323	144.416	149.270	470.507	164.643	0.00040986	0.0011828	0.00013505	617.02	2.6878e-06	7.1002e-06	821.78	160.32	1.8237e-07	9.9397e-07	260.18	90.124	51.173	20.609	4.5944e-06	37.902	0.00072505	0.00072054	0.00019928	685.69	7.7877e-06	7.7835e-06	869.09	184.29	7.6629e-06	7.6612e-06	288.16	101.1	66.113	24.916	7.6561e-06	41.823	255.827	395.700	151.730	156.207	261.986	272.085	156.303	162.259	302.695	194.076	161.287	167.427	169.033	174.204	359.411	171.229	-8191	255	
1282.758	1	1	0	0	0.34488	0.11118	0.15929	0.062979	0.13735	0.17952	0.29047	0.13412	0.12672	0.23146	0.09189	0.10854	0.077575	0.24359	0.11237	0.033982	-2.0563	-2.5979	-2.3917	-2.6583	-2.6771	-2.1833	-2.9646	-2.5	-2.325	-2.7062	-2.2458	-2.6729	-2.5792	-2.1958	-2.825	-2.5687	150.083	168.788	430.737	187.196	438.319	486.196	481.950	147.440	336.252	291.451	498.637	201.576	498.254	396.100	310.562	240.682	0.00038975	0.00040611	9.0056e-05	616.66	1.4992e-05	1.0196e-05	824.2	160.29	5.3055e-06	4.0844e-06	260.75	89.553	51.469	20.46	7.7601e-06	37.255	0.0006994	0.00070551	0.00019598	684.82	7.6778e-06	7.6809e-06	868.37	185.05	7.699e-06	7.6929e-06	287.72	101.07	66.555	24.869	7.7383e-06	41.432	258.259	197.147	275.789	156.414	216.191	293.377	156.234	162.213	303.286	237.513	161.592	167.033	168.982	173.397	223.915	171.375	-8191	255	
1282.854	1	1	0	0	0.099671	0.16251	0.14049	0.14324	0.086302	0.21578	0.48512	0.2655	0.29053	0.11089	0.24084	0.14127	0.24682	0.10196	0.17241	0.17514	-1.9104	-2.5854	-2.3563	-2.4917	-2.6354	-2.1583	-3.0583	-2.5125	-2.1542	-2.7562	-2.6042	-2.5687	-2.6417	-2.4417	-2.5167	-2.5958	157.677	284.635	363.653	494.691	488.977	356.453	430.601	421.387	241.831	356.850	321.366	380.405	442.801	364.343	460.348	345.713	0.00060018	0.00010204	0.00017661	619.21	8.0663e-06	5.3714e-06	822.83	160.68	3.9332e-06	6.2417e-06	256.51	90.468	50.756	20.286	4.0029e-06	37.041	0.0007048	0.00070881	0.00019697	687.82	7.7575e-06	7.8034e-06	870.34	185.66	7.8024e-06	7.7709e-06	288.04	101	66.756	24.917	7.8675e-06	41.316	279.223	331.828	378.638	156.671	226.668	327.694	156.229	162.354	394.237	166.198	161.203	167.653	169.029	173.608	300.153	171.450	-8191	255	
1282.950	1	1	0	0	0.22232	0.070003	0.25218	0.1907	0.10468	0.14127	0.21128	0.3932	0.25253	0.29592	0.21287	0.076489	0.22986	0.12199	0.039829	0.05708	-1.8333	-2.8063	-2.3	-2.5	-2.5792	-2.4854	-2.8042	-2.7208	-2.2562	-2.8583	-2.5333	-2.6146	-2.4396	-2.375	-2.4313	-2.6188	292.402	435.973	266.703	470.779	174.997	502.731	405.512	437.895	147.179	378.252	283.521	433.081	163.760	462.639	367.129	422.652	0.00055674	0.00014805	0.00019502	618.81	6.2137e-06	5.7838e-06	826.17	160.2	2.9411e-06	2.5421e-06	255.76	88.928	50.772	20.194	2.3688e-06	36.905	0.00071354	0.00070871	0.00019752	686.45	7.713e-06	7.6359e-06	867.75	184.56	7.562e-06	7.5857e-06	284.77	99.734	65.777	24.564	7.6814e-06	41.163	283.842	199.012	280.632	156.586	230.714	396.279	156.115	162.497	443.471	364.087	161.426	167.522	169.467	173.625	397.439	171.593	-8191	255	
1283.071	1	1	0	0	0.11122	0.21235	0.22703	0.12292	0.23942	0.14581	0.32138	0.016148	0.10609	0.22107	0.19999	0.26028	0.23895	0.060088	0.22894	0.14155	-1.7604	-2.7687	-2.5208	-2.4417	-2.7104	-2.4625	-2.6937	-2.8729	-2.2042	-2.7458	-2.4646	-2.3583	-2.8812	-2.3812	-2.5125	-2.5896	470.099	446.387	467.368	245.264	284.945	299.830	430.888	336.720	372.235	305.163	420.613	428.601	374.462	391.426	350.029	166.674	0.00054685	0.00058708	6.0617e-05	615.09	7.0481e-06	6.0772e-06	819.26	161.46	8.2409e-06	3.385e-06	258.01	89.63	51.08	20.01	1.6818e-06	37.095	0.00070073	0.00070842	0.00019883	686.69	7.8767e-06	7.8287e-06	869.17	186.26	7.8251e-06	7.8488e-06	288.11	100.87	66.62	24.761	7.7838e-06	41.241	305.012	283.260	386.990	156.572	501.556	452.839	156.244	162.561	335.155	290.764	161.202	167.411	169.594	173.750	471.758	171.540	-8191	255	
1283.167	1	1	0	0	0.12404	0.025394	0.05599	0.085844	0.31955	0.23754	0.18522	0.13855	0.25163	0.17466	0.21956	0.091317	0.19076	0.22924	0.097041	0.15485	-1.9312	-2.4333	-2.4375	-2.5167	-2.7396	-2.375	-2.5958	-2.9042	-2.2667	-2.8354	-2.7167	-2.1188	-2.8187	-2.5292	-2.2854	-2.9021	189.221	483.288	493.537	204.728	364.476	501.053	182.178	453.985	221.163	209.815	197.713	154.550	218.491	461.245	304.300	283.556	0.00045096	0.00038762	0.00014566	614.99	1.0443e-05	4.8209e-06	820.43	160.28	4.7866e-06	6.7539e-06	255.17	89.141	50.646	20.305	2.2268e-06	36.873	0.00070755	0.00071368	0.00019762	685.42	7.7707e-06	7.7555e-06	866.21	185.9	7.7931e-06	7.8509e-06	286.91	100.5	66.6	24.859	7.8915e-06	41.293	294.542	427.971	330.416	156.836	468.629	324.924	156.262	162.102	167.908	333.058	161.332	167.634	168.501	173.703	235.322	171.375	-8191	255	
1283.261	1	1	0	0	0.21163	0.10748	0.018822	0.15076	0.19005	0.14346	0.15428	0.29866	0.22749	0.021952	0.10448	0.076295	0.12751	0.22017	0.10682	0.20635	-1.7708	-2.6375	-2.6583	-2.4104	-2.7875	-2.2438	-2.8104	-2.5708	-2.3854	-2.6063	-2.7333	-2.4021	-2.6229	-2.55	-2.3875	-2.7979	445.644	248.631	248.994	206.151	264.656	298.657	415.791	484.055	382.719	471.862	421.079	440.494	434.581	391.446	275.444	382.320	0.00035051	0.00047754	0.00015197	612.82	1.1089e-05	2.3805e-06	817.35	160.27	4.8253e-06	4.969e-06	254	88.946	50.287	20.159	1.372e-06	36.978	0.0007176	0.00072411	0.00020087	683.71	7.9153e-06	7.9022e-06	862.78	186	7.8566e-06	7.8871e-06	286.13	100.51	66.765	24.961	7.9243e-06	41.255	252.888	237.145	234.360	156.696	162.671	279.204	156.070	161.972	346.325	454.090	161.279	167.376	169.118	173.932	315.328	171.342	-8191	255	
1283.357	1	1	0	0	0.52067	0.20784	0.11916	0.19967	0.098863	0.13386	0.13949	0.062397	0.015762	0.31834	0.075748	0.27394	0.23598	0.27592	0.24288	0.14479	-1.9062	-2.4917	-2.6167	-2.3937	-2.6604	-2.5292	-2.5729	-2.8563	-2.3292	-2.6875	-2.7146	-2.4583	-2.8042	-2.4375	-2.3083	-2.8958	292.140	376.168	324.870	476.123	400.538	184.119	350.520	381.790	422.572	450.429	486.658	478.355	161.966	376.151	215.173	212.773	0.00030552	0.0010767	0.0002064	608.39	1.1923e-05	5.9207e-06	818.1	159.36	5.5022e-06	3.502e-06	256.7	89.15	50.942	20.502	4.3346e-06	36.882	0.00072655	0.00073169	0.00020382	684.54	8.1093e-06	8.0757e-06	864.99	187.51	8.1374e-06	8.2087e-06	289.43	101.63	67.85	25.334	8.2468e-06	41.787	250.154	228.045	293.847	156.705	243.321	328.230	156.702	162.119	368.414	161.311	161.338	167.450	168.415	173.675	328.715	171.185	-8191	255	
#DATA ENDS
