BOXY.EXE: ISS Imagent and Oximeter Data Acquisition Program Version 0.80
Ascii Record File

#ACQ INFORMATION
2  Detector Channels 
16  External MUX Channels 
1  Auxiliary Channels 
5000  Waveform (CCF) Frequency (Hz)
1  Waveforms Skipped 
30  Waveforms Averaged 
1  Cycles Averaged 
16  Acquisitions per Waveform 
10.0806  Updata Rate (Hz) 

#FILE INFORMATION
TRUE -- External MUX Channel results are PARSED.
FALSE -- AC DC and Phase are NOT grouped.
TRUE -- Companion Program Settings File CREATED.
FALSE -- AC data not excluded
FALSE -- DC data not excluded
FALSE -- Phase data not excluded
FALSE -- Auxillary Chn. data not excluded
Tab delimiters

#CALIBRATION STATE
TRUE -- Waveform Calibration Values APPLIED.


#AUX CALIBRATION VALUES
Val Type	aux-1	

Term	1.0000e+00	
Factor	0.0000e+00	


#WF CALIBRATION VALUES
A = Detector Channel
Val Type	A-AC1	A-AC2	A-AC3	A-AC4	A-AC5	A-AC6	A-AC7	A-AC8	A-AC9	A-AC10	A-AC11	A-AC12	A-AC13	A-AC14	A-AC15	A-AC16	A-DC1	A-DC2	A-DC3	A-DC4	A-DC5	A-DC6	A-DC7	A-DC8	A-DC9	A-DC10	A-DC11	A-DC12	A-DC13	A-DC14	A-DC15	A-DC16	A-Ph1	A-Ph2	A-Ph3	A-Ph4	A-Ph5	A-Ph6	A-Ph7	A-Ph8	A-Ph9	A-Ph10	A-Ph11	A-Ph12	A-Ph13	A-Ph14	A-Ph15	A-Ph16	

Term	0.00000e+00	0.00000e+00	0.00000e+00	0.00000e+00	0.00000e+00	0.00000e+00	0.00000e+00	0.00000e+00	0.00000e+00	0.00000e+00	0.00000e+00	0.00000e+00	0.00000e+00	0.00000e+00	0.00000e+00	0.00000e+00	0.00000e+00	0.00000e+00	0.00000e+00	0.00000e+00	0.00000e+00	0.00000e+00	0.00000e+00	0.00000e+00	0.00000e+00	0.00000e+00	0.00000e+00	0.00000e+00	0.00000e+00	0.00000e+00	0.00000e+00	0.00000e+00	0.00000e+00	0.00000e+00	0.00000e+00	0.00000e+00	0.00000e+00	0.00000e+00	0.00000e+00	0.00000e+00	0.00000e+00	0.00000e+00	0.00000e+00	0.00000e+00	0.00000e+00	0.00000e+00	0.00000e+00	0.00000e+00	
Factor	1.00000e+00	1.00000e+00	1.00000e+00	1.00000e+00	1.00000e+00	1.00000e+00	1.00000e+00	1.00000e+00	1.00000e+00	1.00000e+00	1.00000e+00	1.00000e+00	1.00000e+00	1.00000e+00	1.00000e+00	1.00000e+00	1.00000e+00	1.00000e+00	1.00000e+00	1.00000e+00	1.00000e+00	1.00000e+00	1.00000e+00	1.00000e+00	1.00000e+00	1.00000e+00	1.00000e+00	1.00000e+00	1.00000e+00	1.00000e+00	1.00000e+00	1.00000e+00	X	X	X	X	X	X	X	X	X	X	X	X	X	X	X	X	

B = Detector Channel
Val Type	B-AC1	B-AC2	B-AC3	B-AC4	B-AC5	B-AC6	B-AC7	B-AC8	B-AC9	B-AC10	B-AC11	B-AC12	B-AC13	B-AC14	B-AC15	B-AC16	B-DC1	B-DC2	B-DC3	B-DC4	B-DC5	B-DC6	B-DC7	B-DC8	B-DC9	B-DC10	B-DC11	B-DC12	B-DC13	B-DC14	B-DC15	B-DC16	B-Ph1	B-Ph2	B-Ph3	B-Ph4	B-Ph5	B-Ph6	B-Ph7	B-Ph8	B-Ph9	B-Ph10	B-Ph11	B-Ph12	B-Ph13	B-Ph14	B-Ph15	B-Ph16	

Term	0.00000e+00	0.00000e+00	0.00000e+00	0.00000e+00	0.00000e+00	0.00000e+00	0.00000e+00	0.00000e+00	0.00000e+00	0.00000e+00	0.00000e+00	0.00000e+00	0.00000e+00	0.00000e+00	0.00000e+00	0.00000e+00	0.00000e+00	0.00000e+00	0.00000e+00	0.00000e+00	0.00000e+00	0.00000e+00	0.00000e+00	0.00000e+00	0.00000e+00	0.00000e+00	0.00000e+00	0.00000e+00	0.00000e+00	0.00000e+00	0.00000e+00	0.00000e+00	-4.66895e+01	-1.71885e+02	-1.35690e+02	-1.82083e+02	-8.59163e+01	-1.14521e+02	-1.56444e+02	-1.62015e+02	-7.42813e+01	-7.05972e+01	-1.70747e+02	-1.70713e+02	-1.80375e+02	-1.77189e+02	-9.09680e+01	-1.49288e+02	
Factor	2.09950e-05	1.03906e-04	2.22609e-05	1.60234e-01	1.01469e-06	8.15002e-07	1.69647e-01	5.29313e-02	7.74735e-07	8.33839e-07	8.72099e-02	3.32138e-02	3.12535e-02	9.37985e-03	8.50403e-07	1.38760e-02	3.92146e-07	3.96808e-07	1.10377e-07	7.58949e-02	4.34622e-09	4.34264e-09	7.54547e-02	2.47655e-02	4.34886e-09	4.34482e-09	3.81876e-02	1.43192e-02	1.37756e-02	4.22282e-03	4.34925e-09	5.90048e-03	X	X	X	X	X	X	X	X	X	X	X	X	X	X	X	X	



#DISTANCE SETTINGS
A = Detector Channel
A-1	A-2	A-3	A-4	A-5	A-6	A-7	A-8	A-9	A-10	A-11	A-12	A-13	A-14	A-15	A-16	

2.5000e+00	3.0000e+00	2.5000e+00	3.0000e+00	2.0000e+00	3.0000e+00	1.5000e+00	3.0000e+00	3.0000e+00	3.0000e+00	3.0000e+00	3.0000e+00	3.0000e+00	3.0000e+00	1.5000e+00	3.0000e+00	

B = Detector Channel
B-1	B-2	B-3	B-4	B-5	B-6	B-7	B-8	B-9	B-10	B-11	B-12	B-13	B-14	B-15	B-16	

1.0000e+01	1.0000e+01	1.0000e+01	1.4400e+00	1.0000e+01	1.0000e+01	1.5100e+00	1.9400e+00	1.0000e+01	1.0000e+01	1.9900e+00	2.4900e+00	2.4100e+00	2.9000e+00	1.0000e+01	2.9800e+00	




#DATA BEGINS
time	group	step	mark	flag	A-AC1	A-AC2	A-AC3	A-AC4	A-AC5	A-AC6	A-AC7	A-AC8	A-AC9	A-AC10	A-AC11	A-AC12	A-AC13	A-AC14	A-AC15	A-AC16	A-DC1	A-DC2	A-DC3	A-DC4	A-DC5	A-DC6	A-DC7	A-DC8	A-DC9	A-DC10	A-DC11	A-DC12	A-DC13	A-DC14	A-DC15	A-DC16	A-Ph1	A-Ph2	A-Ph3	A-Ph4	A-Ph5	A-Ph6	A-Ph7	A-Ph8	A-Ph9	A-Ph10	A-Ph11	A-Ph12	A-Ph13	A-Ph14	A-Ph15	A-Ph16	B-AC1	B-AC2	B-AC3	B-AC4	B-AC5	B-AC6	B-AC7	B-AC8	B-AC9	B-AC10	B-AC11	B-AC12	B-AC13	B-AC14	B-AC15	B-AC16	B-DC1	B-DC2	B-DC3	B-DC4	B-DC5	B-DC6	B-DC7	B-DC8	B-DC9	B-DC10	B-DC11	B-DC12	B-DC13	B-DC14	B-DC15	B-DC16	B-Ph1	B-Ph2	B-Ph3	B-Ph4	B-Ph5	B-Ph6	B-Ph7	B-Ph8	B-Ph9	B-Ph10	B-Ph11	B-Ph12	B-Ph13	B-Ph14	B-Ph15	B-Ph16	aux-1	digaux	

1395.086	1	1	0	768	0.057297	0.068073	0.11559	0.10439	0.15823	0.060205	0.095096	0.23336	0.15848	0.11946	0.26742	0.13091	0.062257	0.14571	0.14275	0.13484	-2.2354	-2.5062	-2.5271	-3.1292	-2.5521	-2.6771	-2.9062	-2.4542	-2.8021	-2.6312	-2.4708	-2.9917	-2.4854	-2.8479	-2.6146	-2.6063	-30.117	-50.843	185.748	177.491	0.197	-34.286	161.611	139.040	142.213	-26.695	175.693	-146.680	56.818	-145.798	103.439	117.461	0.00076094	7.0651e-05	0.00015968	701.32	5.2296e-06	3.0721e-06	839.47	215.92	5.4729e-06	3.3589e-06	318.36	140.31	85.908	40.657	3.3237e-06	77.791	0.00011787	0.0001094	3.0708e-05	642.47	1.1887e-06	1.1609e-06	765.82	195.72	1.1617e-06	1.1381e-06	279.7	121.58	74.11	35.436	1.1219e-06	65.758	-73.222	-66.869	-87.119	-161.858	-89.472	-69.000	-162.425	-156.059	-99.027	-43.076	-157.461	-151.728	-149.944	-146.236	-99.430	-148.691	-8191	255	
1395.182	1	1	0	0	0.037895	0.14929	0.16075	0.2051	0.19515	0.15372	0.17902	0.21618	0.12937	0.083878	0.052453	0.15782	0.093019	0.3304	0.31405	0.010443	-2.5896	-2.6396	-2.4792	-3.0521	-2.4042	-2.7396	-2.7917	-2.4729	-2.7625	-2.6958	-2.6437	-3.0062	-2.5187	-2.7	-2.8063	-2.5417	121.932	-56.062	-90.534	164.504	80.349	15.676	138.717	107.310	41.463	-23.037	-30.381	159.471	-69.624	-147.128	-54.503	-84.211	0.00080411	0.00055004	3.242e-05	701.08	1.2866e-06	4.6562e-06	837.59	214.37	1.9625e-06	2.6021e-06	318.02	141.76	86.786	40.93	2.9806e-06	78.056	0.0001094	0.00010129	2.7827e-05	641.3	1.0918e-06	1.0969e-06	763.78	194.66	1.1099e-06	1.0862e-06	279.75	122.08	74.607	35.757	1.0667e-06	65.834	-84.124	-94.949	-60.516	-161.990	-52.567	-52.089	-161.902	-155.778	-43.194	-84.400	-156.818	-152.044	-149.835	-146.398	-104.692	-148.762	-8191	255	
1395.278	1	1	0	0	0.17795	0.12156	0.014011	0.13436	0.096706	0.1654	0.10085	0.2612	0.088654	0.18589	0.24232	0.29382	0.15836	0.16574	0.16674	0.071698	-2.2938	-2.7292	-2.35	-3.0271	-2.3271	-2.7604	-3.0125	-2.4396	-2.7375	-2.8333	-2.6271	-3.2479	-2.5292	-2.7396	-2.9417	-2.4708	-16.311	129.354	-52.855	23.462	72.203	-71.242	-167.022	-42.244	-59.768	128.704	131.774	182.027	185.187	-172.751	-68.925	113.309	0.00076263	0.00042209	5.1626e-05	698.7	3.0645e-06	1.6822e-06	834.77	213.51	4.2236e-06	9.1619e-07	318.52	140.64	85.849	40.355	1.5861e-06	76.23	0.00010489	9.5493e-05	2.6659e-05	638.05	1.0407e-06	1.0292e-06	760.36	193.68	1.0256e-06	1.0198e-06	278.57	121.24	73.829	35.143	1.0248e-06	64.413	-79.272	-57.967	-50.159	-161.692	-31.097	104.183	-162.432	-156.127	-36.940	-117.471	-157.026	-151.954	-149.729	-146.455	-36.248	-149.019	-8191	255	
1395.374	1	1	0	0	0.20009	0.23967	0.19346	0.24511	0.21096	0.13855	0.35962	0.20907	0.1221	0.19834	0.17117	0.24917	0.16863	0.18328	0.23795	0.22105	-2.5312	-2.7812	-2.4104	-2.95	-2.5521	-2.4771	-3.05	-2.625	-2.6813	-2.7854	-2.4062	-2.9542	-2.7562	-2.6188	-2.8792	-2.6271	48.606	-154.560	183.894	-63.187	86.787	-60.540	102.660	15.795	-137.138	138.808	84.856	118.161	164.608	136.209	-92.272	147.696	0.0007099	0.00045099	5.9239e-05	700.44	3.092e-06	2.7968e-06	835.16	212.74	3.857e-06	4.4401e-06	314.98	138.95	84.259	39.419	1.6282e-06	75.208	0.00010127	9.1223e-05	2.5312e-05	637.71	9.7616e-07	9.5979e-07	759.33	191.88	9.7528e-07	9.4856e-07	276.02	119.2	72.255	34.294	9.5997e-07	63.296	-76.048	-145.573	-22.840	-161.826	-30.597	-49.752	-162.114	-155.798	-83.028	-6.786	-157.001	-151.880	-150.014	-146.342	-122.284	-148.763	-8191	255	
1395.469	1	1	0	0	0.14038	0.039991	0.090197	0.14113	0.17227	0.14566	0.32047	0.2081	0.20772	0.11395	0.18044	0.14303	0.12329	0.31501	0.11306	0.06124	-2.2021	-2.8083	-2.2646	-3.0667	-2.6104	-2.4646	-3.1854	-2.6312	-2.7	-2.8125	-2.5604	-2.8812	-2.9125	-2.4938	-2.7938	-2.7354	164.591	122.269	-96.785	44.204	49.637	153.903	125.867	166.775	-68.932	48.533	62.604	133.808	-134.513	153.083	31.018	147.998	0.00077176	0.00060012	0.00015741	702.31	4.1644e-06	2.7781e-06	842.48	211.9	2.8034e-06	2.6503e-06	316.99	136.32	82.809	38.82	6.5528e-07	74.439	9.6471e-05	8.7613e-05	2.4271e-05	640.1	9.5886e-07	9.5373e-07	765.42	191.08	9.6363e-07	9.5332e-07	275.15	117.15	71.104	33.722	9.6683e-07	62.622	-70.542	-143.454	-58.696	-161.719	-28.843	-102.053	-162.352	-155.804	-88.007	-56.712	-157.156	-151.971	-149.789	-146.252	22.014	-148.726	-8191	255	
1395.566	1	1	0	0	0.19171	0.037445	0.042143	0.13957	0.24945	0.16896	0.20253	0.20711	0.15288	0.25617	0.18475	0.17218	0.1394	0.10556	0.073831	0.031657	-2.1167	-3.0021	-2.3542	-2.8875	-2.5583	-2.3271	-2.8021	-2.4813	-2.4958	-2.9875	-2.4021	-2.7125	-2.8104	-2.5312	-2.8604	-2.9792	132.716	86.493	51.555	81.257	-97.293	-171.251	-147.470	177.076	-35.623	143.533	135.279	-112.096	156.057	121.268	-50.965	7.272	0.0006399	0.00032301	8.3677e-05	708.47	3.3305e-06	2.8866e-06	845.73	211.67	2.8357e-06	1.4083e-07	311.63	134.87	82.678	38.834	4.0574e-06	73.736	9.6431e-05	8.754e-05	2.4388e-05	643.69	9.7021e-07	9.9143e-07	768.81	191.1	9.9482e-07	1.0002e-06	274.25	116.76	71.123	33.726	1.0132e-06	62.451	-75.184	-83.061	-68.336	-161.735	-50.601	-69.839	-162.510	-156.019	-60.522	22.262	-156.970	-151.792	-150.331	-146.410	-85.035	-148.575	-8191	255	
1395.685	1	1	0	0	0.11621	0.1183	0.21677	0.19442	0.073653	0.16654	0.13196	0.14061	0.24682	0.057455	0.038663	0.10804	0.02149	0.088681	0.085177	0.078212	-2.0292	-2.9229	-2.525	-2.8979	-2.8333	-2.4354	-2.9875	-2.5771	-2.5583	-3.0583	-2.3583	-2.7938	-2.8917	-2.6146	-2.7958	-2.8312	7.641	-131.017	123.901	176.764	-74.248	141.923	-147.626	-75.221	-67.979	98.337	43.218	108.203	-20.077	183.966	159.816	-87.688	0.00074972	0.00027854	4.9174e-05	709.28	4.2567e-06	5.1176e-06	847.58	213.9	3.2028e-06	3.2478e-06	314.72	135.15	82.982	38.854	4.6421e-06	73.38	0.00010188	9.3924e-05	2.6067e-05	645.74	1.0339e-06	1.0373e-06	766.53	193.08	1.0411e-06	1.024e-06	274.63	116.65	71.437	33.737	1.0166e-06	62.079	-79.256	-104.654	-68.458	-161.943	-112.809	-89.575	-162.460	-155.834	-60.978	-42.176	-157.280	-151.915	-150.159	-146.497	-69.017	-149.034	-8191	255	
1395.781	1	1	0	0	0.26691	0.13789	0.12067	0.11883	0.11168	0.03992	0.36717	0.11154	0.060612	0.17511	0.074709	0.1068	0.085942	0.29318	0.34917	0.10637	-2.2417	-2.8917	-2.6229	-2.8812	-2.525	-2.5479	-2.7792	-2.9313	-2.4146	-2.9854	-2.5521	-2.7854	-2.75	-2.5375	-2.7	-2.8271	57.599	-51.857	-153.812	-46.322	152.915	174.457	147.488	59.956	185.700	-35.252	170.570	108.419	-38.122	130.994	-16.913	-53.884	0.00070239	0.00031553	8.1108e-05	707.58	2.1709e-06	2.5461e-06	841.2	213.57	3.6844e-06	2.2798e-06	312.27	134.45	82.382	38.577	4.3859e-06	72.659	0.00010342	9.2259e-05	2.5859e-05	646.69	1.0219e-06	1.0191e-06	764.06	192.69	1.0228e-06	1.0083e-06	272.91	115.75	70.88	33.455	1.0193e-06	61.182	-85.159	-143.753	-159.803	-162.023	-7.419	-60.502	-162.381	-156.207	21.502	84.771	-157.027	-152.201	-150.055	-146.220	-44.627	-148.947	-8191	255	
1395.878	1	1	0	0	0.21836	0.041903	0.15325	0.29935	0.082477	0.21968	0.3705	0.054891	0.17548	0.026916	0.30618	0.25954	0.11511	0.1645	0.079597	0.095165	-2.0396	-2.8208	-2.55	-2.5708	-2.9896	-2.1479	-2.7438	-2.8146	-2.4813	-2.8792	-2.8937	-2.5875	-2.9896	-2.5854	-2.7375	-2.8729	-62.939	-64.093	102.648	161.485	-145.619	35.630	137.609	178.343	-10.493	-27.971	101.803	100.349	-119.552	102.315	-6.155	139.460	0.00068738	0.00051961	0.00010132	716.24	4.2429e-06	3.8791e-06	841.33	214.02	2.6816e-06	4.0408e-06	310.9	130.36	81.11	36.982	3.6836e-06	70.368	0.00010079	9.245e-05	2.5589e-05	653.13	1.0136e-06	1.0043e-06	766.97	192.77	1.0137e-06	1.0005e-06	271.33	112.44	69.797	32.392	1.0396e-06	59.587	-75.760	-101.470	-99.661	-162.086	-68.973	-95.717	-162.016	-156.268	-55.950	-64.299	-157.613	-151.699	-149.852	-146.139	-96.412	-148.789	-8191	255	
1395.974	1	1	0	0	0.047284	0.13688	0.14523	0.27225	0.065425	0.34408	0.1594	0.2223	0.02813	0.21917	0.11982	0.11636	0.24969	0.20206	0.21454	0.058685	-2.0271	-2.7167	-2.5917	-2.4542	-3.0583	-2.5375	-2.7812	-2.7583	-2.4938	-3.0229	-2.7771	-2.4437	-2.9771	-2.6229	-2.4062	-2.8396	-63.216	148.705	62.089	-171.636	-161.104	-89.469	136.166	95.286	133.527	0.700	79.368	138.734	154.555	80.594	-17.717	103.677	0.00070438	0.00068306	4.5971e-05	737.33	4.0151e-06	4.9756e-06	861.18	217.1	1.3957e-06	2.5491e-06	311.11	128.58	80.499	36.738	3.7353e-06	69.163	0.00010135	9.4938e-05	2.6368e-05	672.35	1.0386e-06	1.0541e-06	784.02	196.05	1.0591e-06	1.0575e-06	272.11	111.18	69.252	32.047	1.077e-06	58.536	-75.019	-117.961	-169.849	-161.878	-60.697	-53.594	-162.373	-156.303	-17.178	-38.215	-157.429	-152.052	-150.132	-146.166	-64.655	-148.786	-8191	255	
1396.070	1	1	0	0	0.14507	0.20642	0.031598	0.16308	0.14394	0.40662	0.11104	0.082487	0.13714	0.14939	0.17968	0.077565	0.26918	0.069175	0.31204	0.17683	-2.0833	-2.7708	-2.5104	-2.5667	-2.8979	-2.6646	-2.6312	-2.8937	-2.3854	-2.7604	-2.8583	-2.5187	-2.8125	-2.4042	-2.5167	-3.0646	-113.581	182.967	147.029	180.764	-73.185	-121.627	50.080	161.165	107.530	52.207	57.765	47.459	137.537	-27.312	-106.063	104.111	0.00060701	0.00023061	4.5939e-05	751.94	2.1795e-06	3.7449e-06	873.64	220.08	1.5678e-06	1.4624e-06	310	125.81	79.134	36.286	2.2664e-06	68.521	0.00010568	9.7535e-05	2.7036e-05	684.23	1.0696e-06	1.0727e-06	794.24	198.17	1.085e-06	1.0823e-06	272.82	109.7	68.601	31.561	1.0862e-06	57.994	-78.277	-143.043	-67.693	-161.840	-80.534	-52.071	-162.847	-156.314	-92.555	91.096	-157.669	-151.860	-149.749	-146.289	-51.964	-148.757	-8191	255	
1396.166	1	1	0	0	0.22759	0.062556	0.30681	0.11733	0.0081895	0.11702	0.22812	0.13298	0.29489	0.12517	0.14048	0.21639	0.15993	0.15634	0.12391	0.087674	-2.0833	-2.6021	-2.6625	-2.6396	-2.7292	-2.6771	-2.6083	-3.0438	-2.3563	-2.7896	-2.8521	-2.3812	-2.9167	-2.6	-2.4875	-3.1063	75.844	120.809	126.204	-141.766	-110.799	-29.260	170.710	66.362	-126.967	114.971	-129.953	-159.768	160.367	153.302	147.069	-1.171	0.00067942	0.00018331	0.0001147	757.35	3.1711e-06	3.0325e-06	873.76	220.38	2.7751e-06	2.2728e-06	313.62	127.32	80.552	36.309	3.8764e-06	68.641	0.00010866	9.9606e-05	2.8069e-05	690.44	1.1021e-06	1.1008e-06	795.7	199.11	1.1129e-06	1.1119e-06	274.21	110.63	69.404	31.883	1.1231e-06	58.474	-76.832	19.118	-95.929	-161.999	-18.284	-167.666	-162.659	-156.298	-83.476	-39.819	-157.631	-151.770	-149.942	-146.474	-92.984	-148.760	-8191	255	
1396.287	1	1	0	0	0.19323	0.24774	0.11914	0.20095	0.12256	0.13771	0.086231	0.28215	0.13536	0.31027	0.22794	0.26335	0.32645	0.019152	0.037883	0.19475	-2.0729	-2.7604	-2.9104	-2.4458	-2.7812	-2.5854	-2.3854	-2.8875	-2.6583	-2.6667	-2.8708	-2.4583	-2.9292	-2.6833	-2.5167	-3	-117.943	46.110	22.009	-174.333	96.493	26.333	141.394	-136.919	-88.901	-160.354	-114.579	167.142	169.939	-100.614	180.688	128.463	0.00074712	0.00054638	4.8687e-05	759.12	3.8603e-06	7.0416e-06	882.79	221.48	2.1744e-06	4.1645e-06	314.95	129.44	81.278	37.379	1.8105e-06	70.271	0.00011096	0.0001022	2.8544e-05	693.02	1.1228e-06	1.122e-06	800.72	200.5	1.118e-06	1.1188e-06	276.36	112.19	70.435	32.618	1.1012e-06	59.617	-82.829	-89.959	-130.061	-161.938	-112.708	-60.689	-162.565	-156.564	-99.035	40.713	-157.295	-152.062	-150.271	-146.202	30.478	-148.879	-8191	255	
1396.381	1	1	0	0	0.1183	0.15428	0.20956	0.19979	0.23316	0.09268	0.31475	0.019743	0.044974	0.10025	0.1139	0.062683	0.12036	0.076429	0.14736	0.082829	-2.1354	-2.4042	-2.7396	-2.65	-2.6958	-2.6729	-2.4313	-3.0354	-2.4875	-2.5667	-3.0646	-2.5896	-2.8125	-2.9792	-2.5833	-2.9313	-77.065	-117.536	30.157	-158.388	-143.236	37.696	181.723	136.873	-39.161	80.984	-167.934	162.108	-138.301	151.540	99.140	-95.585	0.00074783	0.00016429	4.6471e-05	760.24	4.3712e-06	1.5002e-06	881.22	221.95	4.5777e-06	1.3676e-06	316.86	129.38	81.305	37.063	4.0093e-06	69.916	0.00010887	0.00010114	2.7953e-05	694.86	1.0981e-06	1.0905e-06	800.65	201.23	1.0977e-06	1.1135e-06	276.5	111.62	70.334	32.515	1.0897e-06	59.154	-79.175	-112.172	-142.337	-161.844	-67.937	-17.645	-162.644	-156.510	-52.268	-122.393	-157.535	-152.481	-149.701	-146.230	-72.118	-149.078	-8191	255	
1396.477	1	1	0	0	0.10266	0.22913	0.081583	0.37217	0.16582	0.11176	0.085981	0.19631	0.09328	0.11766	0.12172	0.1805	0.04064	0.18028	0.15501	0.06988	-2.4688	-2.4042	-3.0208	-2.5271	-2.5938	-2.9958	-2.5104	-2.8604	-2.5042	-2.5271	-2.9688	-2.5708	-2.7417	-2.9	-2.3063	-2.7771	-58.489	128.027	-14.129	-145.909	97.566	-76.788	168.758	70.412	-105.407	-159.949	172.334	109.516	180.161	124.151	-112.140	39.743	0.00074914	0.00026292	7.616e-05	761.03	1.2013e-06	2.5071e-06	877.55	222.87	2.7321e-06	7.0055e-08	313.02	129.4	81.863	37.585	1.9186e-06	70.362	0.00010753	9.954e-05	2.7583e-05	693.47	1.1022e-06	1.0901e-06	796.87	201.1	1.1084e-06	1.0976e-06	275.53	112.03	70.625	32.734	1.093e-06	59.611	-78.401	-90.860	-161.524	-161.861	137.817	8.483	-162.516	-156.340	-111.666	170.365	-157.681	-152.078	-150.087	-146.427	51.944	-149.057	-8191	255	
1396.573	1	1	0	0	0.14183	0.080109	0.089967	0.15858	0.18414	0.10736	0.14524	0.20746	0.059609	0.16336	0.33881	0.13185	0.14036	0.17914	0.13113	0.15902	-2.4021	-2.2333	-2.9104	-2.4062	-2.6063	-2.95	-2.6354	-2.8438	-2.6583	-2.3479	-3.125	-2.5354	-2.9042	-2.9729	-2.3917	-2.7729	-123.243	-97.835	-32.099	83.398	59.571	185.045	26.805	120.826	153.474	-118.715	104.986	-126.548	118.223	99.366	-151.225	141.148	0.00062194	0.00023163	0.00016668	761.72	2.6486e-06	2.8388e-06	878.64	221.98	3.2485e-06	3.4906e-06	311.86	127.74	81.073	36.76	4.8711e-06	69.23	0.00010765	0.00010045	2.802e-05	692.43	1.102e-06	1.1088e-06	796.79	200.96	1.1118e-06	1.1104e-06	274.78	111.03	70.062	32.217	1.101e-06	58.728	-79.355	-110.230	-118.194	-162.123	-120.173	-40.754	-162.402	-156.418	-114.004	2.450	-157.315	-151.810	-150.094	-146.352	-118.248	-149.030	-8191	255	
1396.647	1	1	0	0	0.086137	0.047503	0.19601	0.14547	0.22891	0.19179	0.15446	0.21392	0.26354	0.1541	0.28861	0.20856	0.10336	0.26045	0.25762	0.097173	-2.275	-2.2292	-2.8937	-2.5542	-2.4938	-2.8937	-2.6937	-2.925	-2.6229	-2.4729	-2.9458	-2.6875	-2.4729	-2.8542	-2.3812	-2.9083	23.289	-162.372	-26.616	147.610	-146.169	163.054	137.869	169.205	-61.355	-18.241	116.584	-173.195	120.787	-117.084	-61.749	57.394	0.00061697	0.00032996	0.0001337	758.14	8.0165e-07	3.0927e-06	874.05	221.83	8.0776e-07	2.6736e-06	314.47	129.72	81.237	37.104	2.4769e-06	69.909	0.00010822	0.00010011	2.7708e-05	690.63	1.1094e-06	1.101e-06	795.57	200.65	1.1153e-06	1.098e-06	275.95	111.87	70.245	32.449	1.1237e-06	59.403	-81.952	-87.897	-78.550	-161.928	-53.723	-39.623	-162.777	-156.159	-152.309	-139.180	-157.094	-152.034	-149.744	-146.045	-92.127	-148.750	-8191	255	
1396.766	1	1	0	0	0.13325	0.2758	0.16229	0.10612	0.34864	0.15137	0.19027	0.086281	0.247	0.234	0.12785	0.13919	0.13424	0.18851	0.21921	0.1561	-2.2667	-2.5083	-2.9437	-2.6396	-2.5521	-2.8896	-2.6854	-2.6562	-2.8771	-2.3312	-2.7396	-2.5667	-2.3063	-2.8042	-2.5271	-2.6229	-107.485	-90.963	-26.517	137.589	-0.069	127.072	144.501	111.773	-135.890	18.866	-141.819	153.399	-174.015	21.177	182.714	65.656	0.0007659	0.00035864	6.9508e-05	753.97	2.328e-06	2.0126e-06	873.04	221.4	5.1931e-06	5.4768e-06	314.54	129.36	80.89	37.068	3.4998e-06	69.832	0.00011075	0.0001025	2.8719e-05	687.14	1.1375e-06	1.1361e-06	793.86	200.5	1.1553e-06	1.1356e-06	275.79	111.89	70.08	32.398	1.1367e-06	59.063	-78.087	-97.499	-124.269	-161.904	-69.750	-66.946	-162.809	-156.714	-64.440	-48.185	-157.481	-152.001	-149.715	-146.322	-103.211	-148.820	-8191	255	
1396.862	1	1	0	0	0.27464	0.1094	0.10035	0.049134	0.1332	0.33383	0.16346	0.34266	0.080651	0.11878	0.27053	0.20588	0.16988	0.069173	0.12121	0.33164	-2.3833	-2.3792	-2.8063	-2.8417	-2.4062	-2.9938	-2.5125	-2.6188	-2.7208	-2.5271	-2.9604	-2.8333	-2.5104	-2.9062	-2.3688	-2.6312	-58.740	61.538	-59.023	-77.488	-163.321	159.217	93.900	134.644	6.259	44.504	140.114	132.784	171.012	135.998	180.551	149.499	0.00064041	0.00027824	7.0873e-05	745.51	1.2477e-06	3.843e-06	856.73	219.22	3.8293e-06	5.3996e-06	314.22	130.64	81.641	37.704	3.003e-06	71.453	0.00011013	0.00010354	2.8312e-05	679.91	1.1377e-06	1.1219e-06	782.19	198.86	1.1477e-06	1.1489e-06	275.44	113.1	70.834	33.122	1.1461e-06	60.547	-74.470	-42.833	-120.671	-161.852	46.505	-49.253	-162.530	-156.452	-32.629	-89.192	-157.249	-152.172	-149.734	-146.255	25.461	-149.116	-8191	255	
1396.958	1	1	0	0	0.21682	0.17875	0.1761	0.17645	0.10344	0.066125	0.36912	0.12856	0.10631	0.23745	0.23398	0.14853	0.057323	0.11207	0.053039	0.21612	-2.4313	-2.4188	-2.6583	-2.8729	-2.15	-2.8125	-2.7458	-2.6167	-2.825	-2.3312	-2.8646	-2.6813	-2.6354	-2.8625	-2.8229	-2.4979	37.930	8.625	99.779	146.703	167.655	166.629	93.146	70.298	126.417	-115.083	14.043	5.698	-173.161	149.236	-159.654	54.788	0.00079871	6.7041e-05	7.9903e-05	727.34	4.3505e-06	8.05e-07	845.73	219.1	1.6758e-06	3.2286e-06	316.82	132.65	83.508	38.803	4.6739e-06	72.737	0.00011304	0.00010192	2.8798e-05	662.58	1.1345e-06	1.1287e-06	769.46	198.31	1.1481e-06	1.1337e-06	276.57	115.31	72.009	33.924	1.1555e-06	61.737	-79.534	-121.406	106.027	-161.864	-29.094	-173.456	-162.441	-156.193	-70.083	-84.335	-157.299	-152.066	-150.140	-146.243	-9.142	-149.015	-8191	255	
1397.054	1	1	0	0	0.11091	0.19202	0.16923	0.31926	0.23082	0.233	0.11029	0.14089	0.17169	0.15113	0.10105	0.17259	0.24135	0.12104	0.12023	0.060956	-2.7125	-2.2604	-2.6958	-2.9271	-2.375	-2.8688	-2.8458	-2.5896	-3.0083	-2.3708	-2.7021	-3.0042	-2.5667	-2.8688	-2.6875	-2.6125	79.830	173.864	-37.018	121.894	-139.784	138.759	56.555	-85.070	-43.674	182.861	-110.828	34.979	50.760	-136.451	-82.292	105.036	0.00070876	0.00052834	6.9263e-05	715.98	4.8089e-06	2.618e-06	839.62	215.87	1.9288e-06	1.4532e-06	312.01	133.67	82.64	38.698	4.5913e-07	73.05	0.00011179	0.00010322	2.8957e-05	653.82	1.15e-06	1.1163e-06	764.18	196.38	1.1228e-06	1.1185e-06	274.93	115.57	71.745	33.938	1.1143e-06	61.814	-74.239	-104.804	-33.090	-161.935	-36.138	-88.082	-162.556	-155.917	-73.042	-53.103	-157.360	-152.336	-149.677	-146.394	57.724	-148.854	-8191	255	
1397.175	1	1	0	0	0.12309	0.11915	0.10425	0.28221	0.11713	0.10314	0.14218	0.11773	0.15926	0.058439	0.2596	0.34965	0.29348	0.09633	0.18443	0.12441	-2.3354	-2.6375	-2.4271	-2.9521	-2.2625	-2.7417	-2.7125	-2.5375	-2.8708	-2.5146	-2.4167	-2.95	-2.4229	-2.9229	-2.8042	-2.7687	-66.608	-106.489	125.801	-31.423	-15.842	89.292	-14.121	70.183	12.880	14.789	-170.515	131.068	169.813	95.250	43.479	88.358	0.00070066	0.000385	7.696e-05	711.46	2.5357e-06	1.8023e-06	838.66	214.59	4.525e-06	3.3262e-06	310.46	131.16	81.493	37.692	3.3551e-06	70.42	0.00011137	0.00010245	2.8647e-05	651.96	1.1212e-06	1.1214e-06	764.2	194.97	1.1099e-06	1.1248e-06	272.37	113.5	70.352	32.867	1.1211e-06	59.678	-77.940	-152.050	1.992	-161.848	-63.702	-168.389	-162.426	-155.858	-28.820	-43.794	-157.415	-151.953	-149.877	-146.383	-109.112	-148.935	-8191	255	
1397.246	1	1	0	0	0.13383	0.033358	0.041065	0.2393	0.054784	0.26644	0.1549	0.15875	0.13392	0.11007	0.083359	0.15929	0.054296	0.1657	0.27313	0.19082	-2.4062	-2.6437	-2.5104	-3.0125	-2.1562	-2.6854	-2.9229	-2.4729	-2.9146	-2.6479	-2.4083	-2.8688	-2.5938	-2.8146	-2.7792	-2.4417	-128.537	-82.448	-26.352	161.260	-97.955	-116.606	157.033	96.094	-123.143	76.064	140.282	184.984	166.537	181.120	146.091	138.463	0.00069985	0.00068077	7.2155e-05	711.61	3.8745e-06	3.5989e-06	832.1	212.98	3.5509e-06	5.7138e-06	304.33	128.29	79.868	36.519	3.8789e-06	68.516	0.00010947	0.00010437	2.8736e-05	649.72	1.1195e-06	1.1159e-06	757.92	192.81	1.1187e-06	1.1186e-06	267.15	110.87	69.106	32.06	1.1016e-06	58.272	-77.064	167.066	-112.985	-161.768	-37.235	-135.044	-162.654	-156.562	-76.946	-4.543	-157.144	-152.097	-149.927	-146.041	-75.671	-148.968	-8191	255	
1397.367	1	1	0	0	0.17888	0.052313	0.13838	0.053628	0.16454	0.021398	0.087562	0.20982	0.11228	0.2586	0.30656	0.29731	0.20715	0.17326	0.094123	0.36751	-2.4458	-2.7729	-2.5333	-2.9875	-2.6521	-2.5625	-3.0542	-2.3771	-2.6979	-2.8542	-2.4125	-3.025	-2.55	-2.6896	-2.6437	-2.6542	-38.155	-79.933	179.343	-130.575	119.776	-146.794	181.818	8.997	-16.165	-23.306	160.227	159.150	-161.525	-129.859	95.881	134.857	0.00063147	0.00048432	9.8745e-05	714.14	2.3071e-06	3.6833e-06	830.24	211.71	3.0096e-06	2.532e-06	302.95	127.14	78.844	36.212	1.6933e-06	67.835	0.00010871	0.00010264	2.8496e-05	650.11	1.1322e-06	1.1283e-06	757.33	192.09	1.1247e-06	1.1212e-06	266.36	109.63	68.305	31.587	1.1137e-06	57.528	-82.164	-156.728	-89.550	-161.814	-85.683	-28.466	-162.677	-156.203	-94.037	16.871	-156.939	-151.958	-149.555	-146.386	133.157	-148.777	-8191	255	
1397.461	1	1	0	0	0.089577	0.23214	0.12666	0.079097	0.24274	0.16493	0.24117	0.14612	0.073638	0.16234	0.040495	0.21398	0.076044	0.15751	0.35388	0.080522	-2.3187	-2.8417	-2.5854	-3.0354	-2.5167	-2.6646	-3.1667	-2.45	-2.6688	-2.8771	-2.525	-2.9229	-2.5875	-2.3833	-2.9354	-2.4625	102.397	176.261	-128.352	-144.917	91.599	-92.142	124.090	-162.259	161.261	15.323	-129.996	63.742	13.540	-129.373	-127.807	103.985	0.00060909	0.00039487	6.9126e-05	708.89	2.5978e-06	4.24e-06	832.45	209.85	2.8353e-06	2.0424e-06	300.61	124.48	78.041	35.547	1.0434e-06	66.629	0.00010996	0.00010065	2.8261e-05	649.23	1.1141e-06	1.1086e-06	757.37	191.01	1.1052e-06	1.1047e-06	264.98	108.19	67.453	30.925	1.1068e-06	56.572	-82.335	122.912	-98.483	-161.940	-69.713	-64.979	-162.572	-156.133	-81.447	-44.867	-157.312	-152.152	-149.990	-146.498	-130.584	-148.694	-8191	255	
1397.558	1	1	0	0	0.05837	0.053888	0.072552	0.087778	0.16928	0.044672	0.14341	0.20654	0.051856	0.040031	0.096926	0.19695	0.094332	0.12438	0.30119	0.1574	-2.1667	-2.7042	-2.5021	-3.0625	-2.6188	-2.25	-2.9313	-2.3854	-2.775	-2.725	-2.5125	-2.8917	-2.5687	-2.3875	-2.9375	-2.4917	-104.263	19.787	67.764	90.867	-31.582	-77.522	134.749	178.713	139.963	122.552	-101.689	136.018	106.185	10.201	-29.993	-135.360	0.00066954	0.00045525	9.199e-05	715.08	4.4583e-06	2.9881e-06	828.95	210.29	1.4383e-06	6.3412e-06	300.85	122.49	76.43	33.982	5.348e-06	64.866	0.00010862	0.00010064	2.7965e-05	651.24	1.099e-06	1.0833e-06	760.21	190.71	1.0937e-06	1.0676e-06	263.83	106.05	65.966	29.901	1.0734e-06	54.933	-72.646	78.045	-45.803	-161.770	-27.715	-95.190	-162.501	-156.309	-83.786	-25.664	-157.264	-151.842	-149.862	-146.051	-55.416	-148.792	-8191	255	
1397.654	1	1	0	0	0.24092	0.239	0.082233	0.085429	0.11188	0.15512	0.19608	0.10852	0.050556	0.12526	0.25739	0.0075205	0.20446	0.21997	0.16586	0.37317	-2.2083	-2.8125	-2.1729	-2.7458	-2.5021	-2.3792	-3.0479	-2.4188	-2.7333	-2.775	-2.4667	-2.6958	-2.8458	-2.4792	-2.9813	-2.6813	-60.007	80.440	153.882	-69.167	48.425	138.805	-80.545	15.594	57.698	-10.917	165.671	-34.429	-7.991	29.043	-76.969	59.289	0.0005394	0.00046247	1.4097e-05	716.52	8.4132e-06	3.1877e-06	831.7	209.78	2.1357e-06	1.8194e-06	295.79	120.3	74.554	33.47	1.463e-06	63.335	0.00010489	9.7402e-05	2.6806e-05	653.15	1.0612e-06	1.0684e-06	760.16	189.82	1.0743e-06	1.0502e-06	260.39	103.86	64.893	29.272	1.0836e-06	53.786	-88.716	-151.339	-53.646	-161.634	-51.744	-96.717	-162.576	-156.432	-8.873	-52.108	-157.386	-152.171	-149.921	-146.319	-55.641	-148.612	-8191	255	
1397.774	1	1	0	0	0.11869	0.18169	0.2144	0.12426	0.15626	0.11058	0.29875	0.052621	0.2287	0.0499	0.36216	0.24406	0.1255	0.19862	0.060418	0.47225	-2.0438	-3.0062	-2.4375	-2.8042	-2.775	-2.5104	-2.8958	-2.5354	-2.3854	-2.9042	-2.4396	-2.9	-2.7604	-2.5187	-2.8271	-2.7438	-90.908	-42.282	-144.733	163.104	-114.527	-69.948	-19.821	131.679	155.775	67.741	110.407	-74.292	147.922	11.798	127.203	137.536	0.00063229	0.0006442	3.8251e-05	721.26	3.2035e-06	1.1458e-06	840.44	209.23	1.622e-06	3.5417e-06	293.05	117.53	72.892	32.265	3.797e-06	61.496	0.00010486	9.7845e-05	2.7152e-05	654.98	1.0766e-06	1.0816e-06	763.7	189.3	1.0767e-06	1.0666e-06	258.4	101.11	63.193	28.212	1.0804e-06	52.065	-84.248	-139.665	-90.460	-161.879	-34.054	-93.844	-162.551	-156.605	33.110	-1.937	-157.693	-152.002	-150.049	-146.114	-45.532	-148.563	-8191	255	
1397.871	1	1	0	0	0.12108	0.25908	0.12463	0.33657	0.10907	0.11907	0.20004	0.14619	0.137	0.22634	0.20488	0.26742	0.35847	0.23154	0.14755	0.093307	-1.9896	-2.9271	-2.4271	-2.9208	-2.8812	-2.3333	-2.9354	-2.6917	-2.375	-2.9729	-2.6083	-2.6479	-2.9354	-2.2208	-2.75	-2.6354	97.787	31.320	-84.340	156.429	-8.796	127.788	85.178	155.280	18.160	-108.979	-127.706	156.726	8.748	-16.382	5.793	-153.546	0.00066239	0.00030709	0.00014801	713.37	1.8322e-06	2.6078e-06	837.61	208.17	2.1406e-06	4.8717e-06	291.17	113.92	70.989	30.884	1.8811e-06	59.688	0.00010414	9.6357e-05	2.6484e-05	654.21	1.0435e-06	1.0459e-06	761.67	188.03	1.058e-06	1.0514e-06	255.8	98.395	61.579	27.228	1.0619e-06	50.693	-75.579	-153.486	-136.708	-162.013	53.747	-64.211	-162.459	-156.575	-29.209	-29.468	-157.294	-151.884	-149.882	-146.045	-22.281	-148.674	-8191	255	
1397.942	1	1	0	0	0.05559	0.25305	0.096865	0.12873	0.035374	0.18218	0.17524	0.14023	0.25656	0.1958	0.29581	0.27464	0.20031	0.064586	0.14785	0.10344	-2.225	-2.6854	-2.5625	-2.6854	-2.6875	-2.3542	-2.7583	-2.7271	-2.1562	-2.9125	-2.7146	-2.5667	-2.9813	-2.5438	-2.6542	-2.8854	108.297	96.274	-32.564	-144.302	98.455	-99.580	26.708	18.676	136.285	32.586	92.710	23.307	137.360	-2.737	-121.438	19.875	0.00057426	0.00013308	3.4202e-05	721.5	2.5749e-06	2.7221e-06	842.63	205.74	1.1808e-06	2.7104e-06	290.03	113	70.676	30.858	1.9962e-06	59.434	0.00010167	9.5481e-05	2.6246e-05	654.97	1.0277e-06	1.0216e-06	763.11	186.62	1.0133e-06	1.0094e-06	253.84	98.096	60.988	27.028	9.9777e-07	50.26	-74.822	-161.917	-71.419	-162.087	123.619	-14.768	-162.340	-156.500	-119.068	16.013	-157.670	-152.166	-149.982	-146.335	-22.470	-148.618	-8191	255	
1398.063	1	1	0	0	0.18402	0.1461	0.27239	0.089665	0.10604	0.058553	0.46026	0.16886	0.21927	0.28929	0.17709	0.18205	0.23341	0.15406	0.19974	0.19811	-1.8917	-2.5938	-2.6562	-2.4771	-2.85	-2.5208	-2.7604	-2.9688	-2.1875	-2.825	-2.6063	-2.4688	-2.7833	-2.5417	-2.575	-2.9083	-112.476	16.935	50.576	114.387	-102.389	-44.603	134.924	104.709	-33.561	-75.878	173.910	185.588	168.459	138.184	115.274	161.374	0.00065243	0.00039559	7.7314e-05	708.16	2.4398e-06	2.6869e-06	824.06	198.04	1.3419e-06	1.3908e-06	285.42	113.37	69.526	30.922	1.0327e-06	59.679	9.6067e-05	8.9568e-05	2.4213e-05	643.46	9.4484e-07	9.263e-07	749.92	179.22	9.2371e-07	8.9928e-07	248.35	97.596	60.004	26.961	8.9055e-07	50.375	-86.545	-132.275	-139.825	-161.812	-115.029	-85.036	-162.525	-156.335	-150.351	-143.796	-157.442	-152.093	-149.687	-146.215	-69.455	-148.398	-8191	255	
1398.159	1	1	0	0	0.12993	0.094463	0.27609	0.12028	0.093538	0.16868	0.08647	0.18581	0.058651	0.19869	0.18386	0.028636	0.23105	0.1906	0.19257	0.21805	-1.7812	-2.9437	-2.7229	-2.6188	-2.8875	-2.525	-2.6292	-2.9729	-2.3354	-2.8417	-2.8375	-2.7521	-2.9729	-2.6833	-2.5271	-2.9688	176.822	-126.626	130.573	122.839	135.188	-119.820	132.338	93.347	18.456	-21.185	-84.811	68.890	57.487	-120.003	-35.651	147.588	0.0006865	0.0002269	9.6845e-05	692.78	1.1071e-06	8.8156e-07	819.23	196.01	5.653e-06	1.5488e-06	284.07	112.74	69.114	30.586	1.4071e-06	58.765	8.8193e-05	7.9277e-05	2.17e-05	629.96	8.7761e-07	8.6461e-07	742.25	176.56	8.657e-07	8.4712e-07	247.74	97.439	59.585	26.608	8.5305e-07	49.709	-80.557	180.480	-138.232	-161.918	-20.425	-120.996	-162.625	-156.224	-76.141	45.177	-157.122	-151.838	-150.278	-145.717	-152.169	-148.499	-8191	255	
1398.255	1	1	0	0	0.064776	0.20165	0.11887	0.067313	0.21497	0.30522	0.30242	0.11421	0.12544	0.21271	0.18503	0.043042	0.073914	0.12743	0.04539	0.26189	-1.9729	-2.65	-2.725	-2.6646	-2.8958	-2.5208	-2.6813	-2.8708	-2.6042	-2.7542	-3.0042	-2.5792	-3.0333	-2.5042	-2.525	-2.9229	63.561	137.039	104.630	43.006	77.170	-134.336	181.420	153.431	-13.417	91.328	-120.735	-133.619	-50.412	99.170	121.804	97.785	0.00059323	0.00020101	6.0829e-05	695.49	3.4595e-06	2.2449e-06	823.89	195.43	6.05e-07	2.4605e-06	284.95	113.69	69.495	30.637	2.4563e-06	59.171	8.4449e-05	7.7013e-05	2.1565e-05	632.08	8.6506e-07	8.4245e-07	747.11	176.79	8.8064e-07	8.5499e-07	248.24	97.829	59.945	26.781	8.4904e-07	50.185	-76.272	-94.183	-115.054	-161.989	-125.494	-8.924	-162.572	-156.378	-72.943	-8.508	-157.424	-151.952	-149.766	-145.802	-105.882	-148.720	-8191	255	
1398.351	1	1	0	0	0.029746	0.27765	0.072814	0.11018	0.035734	0.18231	0.10643	0.045363	0.08889	0.1411	0.2738	0.14906	0.25348	0.12311	0.13911	0.35746	-2.1875	-2.8104	-2.7833	-2.4146	-2.8271	-2.6542	-2.5646	-3.0292	-2.1813	-2.8375	-2.6667	-2.6479	-2.9	-2.7562	-2.5396	-3.0187	-8.318	9.218	72.184	98.082	181.045	53.954	115.676	-2.164	122.876	72.667	38.542	109.323	-116.928	121.610	-51.980	163.506	0.00054472	0.00023877	3.4622e-05	697.24	2.2268e-06	1.7203e-06	821.99	196.79	4.5849e-06	3.1844e-06	286.04	116.94	70.772	32.07	7.3263e-07	61.447	8.5145e-05	7.8428e-05	2.1394e-05	630.06	8.3223e-07	8.4207e-07	745.27	176.71	8.3158e-07	8.2761e-07	249.86	100.23	60.928	27.692	8.1664e-07	51.72	-78.667	167.220	-74.979	-161.642	-12.665	-158.240	-162.271	-156.220	-59.252	-13.034	-157.186	-151.864	-149.867	-146.097	125.417	-148.726	-8191	255	
1398.470	1	1	0	0	0.18097	0.043365	0.14035	0.14961	0.16199	0.10029	0.38086	0.1007	0.11443	0.10281	0.10736	0.21165	0.062638	0.19698	0.34794	0.30445	-2.1188	-2.6688	-2.7458	-2.2521	-2.7229	-2.4604	-2.4979	-3.0208	-2.4437	-2.7021	-2.9208	-2.5792	-2.8854	-2.7521	-2.5104	-3.0854	140.734	31.239	28.451	35.502	119.294	25.695	119.454	35.439	29.602	-147.938	90.876	-123.100	-130.652	130.507	86.504	42.467	0.00062283	0.00042297	0.00010945	692.49	6.2369e-06	3.3632e-06	825.57	196.1	3.4698e-06	3.4122e-06	286.68	116.85	71.16	31.955	3.7186e-06	61.54	8.136e-05	7.355e-05	2.0227e-05	627.42	8.0922e-07	7.9903e-07	746.44	176.82	7.9871e-07	7.9159e-07	249.8	100.17	60.99	27.707	7.8673e-07	51.856	-79.723	-133.744	-89.189	-162.235	-3.837	-146.204	-162.622	-156.186	-15.026	-84.997	-157.046	-151.740	-149.420	-146.011	-122.212	-148.656	-8191	255	
1398.542	1	1	0	0	0.36501	0.1167	0.027846	0.10522	0.01562	0.23307	0.21193	0.2192	0.0847	0.13496	0.022455	0.3763	0.10258	0.06263	0.23502	0.25657	-2.1417	-2.5062	-2.7042	-2.625	-2.7396	-2.6521	-2.3375	-2.9083	-2.4792	-2.7646	-2.9875	-2.5604	-2.825	-2.7438	-2.3312	-3.0958	84.208	61.764	-95.403	144.362	-51.880	-22.952	105.895	-2.980	132.805	90.434	-41.249	-83.186	177.735	-104.304	-111.606	92.783	0.00063041	0.00031992	7.2665e-05	693.55	2.0419e-06	3.2795e-06	819.59	197.01	2.7946e-06	3.4552e-06	287	117.39	71.909	32.094	3.4023e-06	61.699	7.8224e-05	7.0646e-05	2.0113e-05	627.32	7.9898e-07	7.8625e-07	743.53	177.17	7.996e-07	7.88e-07	250.14	100.9	61.607	27.963	8.0612e-07	52.13	-80.183	-167.881	-93.840	-162.055	-97.690	-118.829	-162.442	-156.503	-47.497	-40.525	-157.185	-151.682	-149.625	-146.008	-50.019	-148.676	-8191	255	
1398.638	1	1	0	0	0.43467	0.18317	0.071044	0.21969	0.28155	0.20969	0.048789	0.15513	0.089684	0.14621	0.25987	0.30705	0.30762	0.17597	0.33053	0.13343	-2.1333	-2.5167	-2.7687	-2.5792	-2.5938	-2.8688	-2.5708	-2.775	-2.525	-2.3833	-2.9542	-2.6646	-2.4583	-2.8271	-2.2	-2.7812	4.890	71.450	-104.143	96.205	-128.973	-62.965	73.527	35.197	-74.659	101.076	83.928	-136.060	122.158	70.638	-73.870	106.828	0.00060653	0.00030451	1.5373e-05	691.26	7.6022e-07	1.6081e-06	820.59	196.46	1.4924e-06	1.826e-06	284.91	117.96	72.561	32.147	2.7724e-06	61.834	8.0059e-05	7.3159e-05	2.0026e-05	628.55	8.0051e-07	7.7854e-07	743.14	176.65	7.8504e-07	7.6972e-07	250.22	100.8	61.426	27.904	7.7554e-07	52.164	-77.878	-64.440	169.561	-161.932	22.230	-153.800	-162.424	-156.111	-97.538	8.398	-157.360	-151.719	-149.969	-145.929	-39.953	-148.525	-8191	255	
1398.734	1	1	0	0	0.15094	0.14385	0.12753	0.22803	0.016585	0.36834	0.19049	0.27186	0.078346	0.10216	0.28701	0.071129	0.13584	0.30538	0.30057	0.12421	-2.2458	-2.3167	-2.9292	-2.5229	-2.6125	-2.6063	-2.4688	-2.8167	-2.5375	-2.3729	-2.775	-2.6542	-2.4583	-2.8854	-2.2667	-2.8458	-1.141	-23.785	-41.583	135.053	150.342	56.215	159.351	77.209	74.382	-13.557	-72.657	114.673	-71.138	142.063	173.715	160.421	0.00053408	0.00021599	8.833e-05	695.86	1.1554e-06	1.324e-06	827.92	197.08	4.0029e-06	4.2902e-06	287.85	116.3	70.631	31.613	3.5337e-06	61.578	7.765e-05	7.0017e-05	1.9227e-05	631.64	7.586e-07	7.5732e-07	747.99	176.92	7.5349e-07	7.4763e-07	250.14	99.863	60.58	27.409	7.5807e-07	51.882	-78.371	-160.867	-90.814	-162.172	-88.996	-31.924	-162.820	-156.199	-69.335	-48.212	-157.458	-151.723	-149.634	-145.911	-48.811	-148.535	-8191	255	
1398.855	1	1	0	0	0.13936	0.16191	0.11162	0.065152	0.12591	0.014203	0.088845	0.10174	0.16398	0.053035	0.16841	0.039882	0.096146	0.39324	0.21209	0.16646	-2.3896	-2.4521	-2.7979	-2.475	-2.5208	-2.7542	-2.5125	-2.6896	-2.8417	-2.3708	-2.9688	-2.6083	-2.6333	-2.8438	-2.5062	-2.6813	39.150	-69.237	-136.314	107.778	152.556	-106.552	-3.619	117.592	38.943	-134.926	-158.643	185.310	-141.254	-140.334	-81.980	-37.546	0.0005348	0.0007418	0.00011894	699.05	1.069e-06	4.9338e-06	834.42	197.86	5.6001e-06	2.5516e-06	287.06	116.94	71.109	31.419	2.6801e-06	61.204	7.6545e-05	6.997e-05	1.9277e-05	632.24	7.7089e-07	7.5831e-07	752.91	177.82	7.7104e-07	7.6006e-07	251.06	100.08	60.563	27.317	7.6818e-07	51.391	-77.410	-92.709	-92.753	-161.933	-119.046	-70.775	-162.216	-156.095	-39.011	-0.660	-157.158	-151.894	-149.630	-146.108	-76.704	-148.506	-8191	255	
1398.951	1	1	0	0	0.21773	0.062178	0.25509	0.24497	0.16967	0.12208	0.1926	0.089825	0.087195	0.10621	0.086004	0.31071	0.39096	0.061123	0.18895	0.27718	-2.3958	-2.4792	-2.8271	-2.7229	-2.4542	-2.9375	-2.625	-2.6146	-2.9125	-2.4625	-3.1771	-2.7438	-2.35	-2.9583	-2.5042	-2.6312	-62.997	-100.626	166.806	183.305	14.973	-67.924	150.818	-142.855	37.900	-10.778	129.574	183.881	-161.639	156.069	-20.685	145.380	0.00064643	0.0002692	8.1722e-05	701.77	5.8161e-07	5.2736e-06	830.42	197.18	4.0787e-06	3.9894e-06	288.47	115.11	70.32	30.897	2.3457e-06	60.251	7.7082e-05	6.9259e-05	1.921e-05	634.61	7.5336e-07	7.5347e-07	752.14	177.18	7.6094e-07	7.637e-07	250.24	98.519	59.827	26.916	7.5725e-07	50.712	-83.340	146.321	-69.293	-162.017	-35.283	-73.182	-162.883	-156.484	-82.168	-1.843	-157.403	-152.354	-149.501	-146.213	-66.477	-148.620	-8191	255	
1399.047	1	1	0	0	0.2418	0.17896	0.17089	0.14033	0.29182	0.18354	0.29678	0.21594	0.31604	0.1815	0.17385	0.13941	0.089553	0.30419	0.14698	0.15397	-2.5812	-2.5042	-2.9625	-2.8438	-2.2229	-2.75	-2.7562	-2.6667	-2.8854	-2.5062	-2.8854	-2.8021	-2.2521	-2.8521	-2.6167	-2.5708	-141.066	-134.456	-19.322	-158.554	2.730	-96.117	148.005	93.090	-85.074	105.928	150.089	-22.948	171.599	-152.840	-130.964	154.718	0.00055753	0.00032096	4.8703e-05	701.08	3.6853e-06	1.7812e-06	825.84	197.17	3.3189e-06	3.7751e-06	285.21	114.46	70.359	31.099	3.0006e-06	59.719	7.6767e-05	6.961e-05	1.9348e-05	632.69	7.6925e-07	7.6616e-07	748.03	177.2	7.7411e-07	7.6758e-07	249.17	98.704	60.311	27.081	7.8967e-07	50.567	-82.382	-124.689	-112.895	-161.793	-44.731	-64.567	-162.418	-156.015	-11.933	-9.690	-157.383	-151.750	-149.511	-146.243	-32.932	-148.420	-8191	255	
1399.143	1	1	0	0	0.11531	0.27839	0.28124	0.20161	0.17724	0.27367	0.1007	0.10658	0.15991	0.13861	0.09666	0.16483	0.07305	0.25705	0.064387	0.12868	-2.4875	-2.4062	-2.7333	-2.7896	-2.4146	-2.8667	-2.8208	-2.4854	-2.8646	-2.3729	-2.8917	-2.7021	-2.4875	-2.9667	-2.6542	-2.7542	61.531	125.649	-163.501	-101.054	56.502	-146.030	52.264	98.189	-88.924	156.659	-0.016	112.396	-171.310	-157.984	74.006	122.316	0.00055381	0.00036383	7.009e-05	696	1.7279e-06	2.5691e-06	824	196.33	3.5868e-06	3.076e-06	286.55	115.97	70.321	31.545	1.9497e-06	60.663	7.8832e-05	7.0558e-05	1.953e-05	630.47	7.8524e-07	7.7656e-07	745.48	176.44	7.778e-07	7.8597e-07	249.39	99.482	60.55	27.375	7.9522e-07	51.087	-80.083	-92.496	-50.973	-162.126	-6.997	-124.513	-162.241	-156.057	-77.723	-98.699	-157.558	-151.651	-149.941	-146.367	-87.254	-148.718	-8191	255	
1399.239	1	1	0	0	0.27018	0.30548	0.2979	0.31982	0.060505	0.26655	0.17613	0.096459	0.077961	0.045989	0.41671	0.27405	0.046958	0.12954	0.35158	0.20431	-2.4771	-2.2771	-2.6937	-2.6771	-2.2917	-2.9083	-2.8375	-2.6125	-2.8333	-2.5708	-2.7125	-3.0917	-2.4417	-2.6854	-2.9375	-2.2708	-111.962	-137.535	-165.594	64.377	28.228	147.448	143.909	36.042	135.253	49.309	167.286	121.500	-72.636	159.051	155.202	159.985	0.00060153	0.00020573	8.8908e-05	697.28	3.0471e-06	2.8206e-06	826.45	196.87	1.9874e-06	2.8792e-07	285.49	116.3	71.434	31.35	3.4901e-06	60.319	8.0036e-05	7.3297e-05	2.0125e-05	630.13	8.0723e-07	8.0954e-07	747.45	177.75	8.2128e-07	8.248e-07	250.06	99.839	61.103	27.344	8.3538e-07	51.071	-80.260	-149.090	-106.866	-161.852	-82.241	-39.628	-162.549	-156.238	-80.312	-82.853	-157.281	-151.712	-149.387	-145.935	-72.898	-148.480	-8191	255	
1399.336	1	1	0	0	0.18784	0.22104	0.095862	0.13753	0.10639	0.055916	0.10084	0.074379	0.10901	0.25665	0.13811	0.15166	0.23883	0.11818	0.074078	0.20096	-2.6604	-2.4562	-2.3896	-3.0021	-2.4271	-2.7729	-2.8646	-2.4833	-2.7708	-2.5792	-2.7458	-2.9417	-2.7771	-2.6833	-2.6188	-2.4875	-105.390	181.164	-7.432	-128.078	57.294	-145.867	119.928	180.272	52.417	-150.226	-74.551	158.382	-97.752	106.887	-115.865	130.976	0.00056968	0.00013206	3.1484e-05	697.82	3.181e-06	2.7412e-06	824.34	197.37	2.1594e-06	1.1935e-06	285.42	114.72	70.634	30.793	3.7826e-06	59.159	8.4203e-05	7.6356e-05	2.1471e-05	631.52	8.7315e-07	8.5687e-07	746.08	178.83	8.8707e-07	8.979e-07	250.13	99.067	60.9	26.96	9.0509e-07	49.952	-83.704	-158.780	-97.517	-162.059	2.306	-95.204	-162.489	-156.194	18.302	-59.174	-157.391	-151.986	-149.644	-145.890	-62.023	-148.522	-8191	255	
1399.456	1	1	0	0	0.19994	0.46843	0.22969	0.28125	0.29872	0.19887	0.30125	0.22983	0.096809	0.20499	0.26454	0.34513	0.054414	0.060757	0.25574	0.065431	-2.6125	-2.4958	-2.4896	-2.8521	-2.4104	-2.5583	-2.9208	-2.2687	-2.8792	-2.4979	-2.5583	-2.7562	-2.475	-2.6167	-2.9083	-2.4042	48.845	-47.543	158.993	-151.463	24.816	-110.295	107.771	185.846	132.337	-152.010	-132.574	120.112	-102.446	-77.096	-9.970	5.715	0.00051315	0.00019369	8.0534e-05	699.46	1.0336e-06	2.4518e-06	823.21	197.25	1.7754e-06	4.2952e-06	284	111.63	69.201	30.233	4.8449e-06	57.968	8.8467e-05	8.3684e-05	2.3055e-05	635.68	9.27e-07	9.036e-07	747.96	178.17	9.2564e-07	9.2397e-07	248.02	96.677	59.926	26.342	9.4626e-07	49.093	-78.534	-124.904	-119.987	-162.185	-17.447	-160.580	-162.634	-155.946	6.335	1.117	-157.662	-152.173	-150.053	-145.798	-100.786	-148.517	-8191	255	
1399.551	1	1	0	0	0.051369	0.32864	0.15773	0.1979	0.06189	0.08872	0.11155	0.38977	0.062747	0.17055	0.35524	0.040923	0.31632	0.13947	0.18912	0.24071	-2.4188	-2.3542	-2.2333	-2.8854	-2.5021	-2.5563	-2.8312	-2.2583	-2.7583	-2.5208	-2.4083	-2.8187	-2.5708	-2.6417	-2.7687	-2.5146	-67.778	181.794	-141.532	-121.613	6.861	-133.556	103.068	66.511	163.671	-135.951	86.836	104.873	179.295	171.136	19.757	136.942	0.00051874	0.00025469	5.361e-05	696.53	2.2722e-06	2.469e-06	827.84	198.19	6.3013e-06	3.2378e-06	281.93	111.82	68.805	29.898	2.0598e-06	57.772	9.2764e-05	8.5894e-05	2.3829e-05	635.9	9.6167e-07	9.6466e-07	748.75	179.17	9.9693e-07	9.7963e-07	247.89	96.697	60.018	26.251	1.0216e-06	48.954	-79.261	-57.370	-29.630	-162.224	130.203	-122.455	-162.434	-156.118	-86.456	-36.241	-157.401	-151.919	-149.982	-145.888	17.119	-148.499	-8191	255	
1399.647	1	1	0	0	0.20424	0.082332	0.094115	0.07943	0.10056	0.10677	0.11876	0.21367	0.0040387	0.062476	0.10732	0.15984	0.19554	0.1322	0.24276	0.36897	-2.4125	-2.6833	-2.3354	-2.9792	-2.3875	-2.3542	-2.9396	-2.4979	-2.6708	-2.8042	-2.3146	-3.0104	-2.6146	-2.55	-2.9292	-2.4083	-27.785	-108.682	-119.472	155.576	-76.039	-62.207	64.323	116.319	-90.159	16.141	-50.445	-102.849	-123.580	95.482	138.346	91.735	0.00049309	0.00022973	5.4657e-05	700.16	9.5372e-07	1.7071e-06	829.61	197.93	3.703e-06	4.5756e-06	284.67	112.7	69.818	30.412	7.7208e-07	58.897	0.00010059	9.311e-05	2.5948e-05	640.4	1.0212e-06	1.0077e-06	752.07	179.53	1.0099e-06	1.0059e-06	249.14	97.517	60.458	26.629	1.0163e-06	49.842	-75.976	-170.110	175.776	-161.849	-160.410	-41.063	-162.362	-156.430	-30.554	-33.969	-157.171	-151.914	-149.904	-146.037	23.443	-148.528	-8191	255	
1399.767	1	1	0	0	0.27418	0.075934	0.12562	0.30448	0.098949	0.094675	0.082028	0.33312	0.19916	0.073804	0.18534	0.26928	0.27999	0.41781	0.031125	0.19776	-2.1208	-2.8604	-2.3521	-2.8146	-2.5979	-2.4	-2.9375	-2.3396	-2.6625	-2.875	-2.5438	-2.6396	-2.5875	-2.1354	-2.95	-2.6875	-51.547	52.531	-93.066	-113.062	-144.429	-99.013	164.581	51.502	81.935	109.936	12.765	167.675	156.858	176.625	-118.786	131.802	0.00057155	0.0003463	6.8383e-05	701.14	9.7801e-07	4.0147e-06	829.14	198.61	1.6448e-06	1.5674e-06	285.08	113.94	69.828	30.597	4.0792e-06	58.863	9.8485e-05	9.2689e-05	2.6061e-05	638.46	1.0092e-06	1.0142e-06	753.69	180.05	1.0145e-06	1.0158e-06	251.4	98.861	60.992	26.863	1.0051e-06	49.75	-83.599	-140.386	-81.239	-161.826	175.346	-59.958	-162.387	-156.053	-104.590	-13.150	-157.376	-151.949	-149.616	-146.105	-120.492	-148.552	-8191	255	
1399.839	1	1	0	0	0.098001	0.21701	0.066481	0.14734	0.15321	0.097928	0.1122	0.21995	0.13659	0.22347	0.26616	0.18663	0.033693	0.070811	0.35164	0.26613	-2.1437	-2.7313	-2.2958	-2.6792	-2.5854	-2.4542	-2.8917	-2.5021	-2.475	-2.7687	-2.4271	-2.6417	-2.6875	-2.5083	-2.8958	-2.5729	183.508	-149.749	-129.523	-33.731	-82.005	154.532	29.754	-87.223	52.480	95.519	-172.939	124.885	136.804	160.376	150.949	82.376	0.00055272	0.00049862	0.00010899	706.2	3.4634e-06	1.8271e-06	839.05	198.53	1.5731e-06	3.3441e-06	282.06	108.04	66.81	28.095	5.0443e-06	53.925	9.9045e-05	9.1061e-05	2.5111e-05	644.75	1.0209e-06	9.9257e-07	759.56	179.94	1.003e-06	9.8693e-07	248.05	93.369	57.913	24.698	9.3897e-07	45.835	-74.479	-113.241	-55.759	-162.082	-52.706	-109.514	-162.468	-156.291	-87.009	-35.732	-157.344	-152.147	-149.924	-145.869	-63.001	-148.290	-8191	255	
1399.935	1	1	0	0	0.28574	0.10095	0.092031	0.12111	0.22411	0.17343	0.29095	0.19036	0.028167	0.41409	0.2394	0.13257	0.35847	0.18938	0.19281	0.10015	-2.0333	-2.9729	-2.4229	-2.8667	-2.7667	-2.4229	-2.8646	-2.5917	-2.3875	-2.9062	-2.8229	-2.8354	-2.8812	-2.3438	-2.7833	-2.8125	165.082	-89.484	42.789	116.228	-0.725	145.286	88.045	168.613	-7.566	-138.668	10.851	73.814	176.353	-124.830	-29.345	80.347	0.00056187	0.00043484	7.4476e-05	725.87	2.462e-06	4.1279e-06	850.16	200.33	1.1862e-06	3.2931e-06	276.18	100.73	63.396	25.728	1.1466e-06	49.874	9.1432e-05	8.4128e-05	2.3473e-05	658.24	9.076e-07	8.8551e-07	770.29	180.12	8.7977e-07	8.5374e-07	241.82	87.196	54.478	22.458	8.1192e-07	42.274	-81.703	-122.007	-62.365	-161.998	-116.219	-57.967	-162.458	-156.476	138.561	-49.388	-157.572	-152.163	-149.994	-145.468	92.041	-148.309	-8191	255	
1400.031	1	1	0	0	0.11334	0.049874	0.19625	0.1097	0.16669	0.11145	0.0071514	0.17037	0.11707	0.069008	0.21328	0.25097	0.16717	0.16445	0.17824	0.13003	-2.125	-2.7188	-2.5208	-2.4917	-2.7417	-2.2458	-2.9396	-2.8	-2.3708	-2.8229	-2.5833	-2.7542	-2.7479	-2.3521	-2.7271	-2.7667	-82.501	174.507	-57.050	-155.796	145.461	120.964	40.420	125.930	109.979	10.752	167.596	-168.468	148.504	123.359	112.946	-162.134	0.00045986	0.00025897	9.1958e-05	729.53	3.4463e-06	3.2118e-06	852.35	199.38	2.6869e-06	5.5582e-07	275.91	99.152	62.556	25.101	2.2506e-06	48.859	7.982e-05	7.3622e-05	2.0294e-05	662.28	7.9757e-07	7.7554e-07	770.46	178.73	7.9398e-07	7.7579e-07	239.62	85.897	53.809	21.956	7.7723e-07	41.202	-82.623	-125.773	-99.371	-162.202	-76.028	0.717	-162.664	-156.564	-66.524	181.518	-157.731	-151.924	-150.095	-145.574	-114.685	-148.242	-8191	255	
1400.152	1	1	0	0	0.27193	0.17943	0.042634	0.11632	0.12251	0.24165	0.24018	0.23736	0.023497	0.089335	0.034571	0.10691	0.20103	0.30826	0.033111	0.24455	-1.8083	-2.8292	-2.6479	-2.5062	-2.8896	-2.2479	-2.975	-2.7562	-2.5958	-2.8	-2.5833	-2.4313	-2.8896	-2.2625	-2.6625	-2.7375	-101.669	170.206	18.143	97.619	23.777	-162.311	-20.319	167.337	-116.128	-78.992	-160.139	140.178	-37.200	-167.368	-128.543	51.930	0.00050599	0.00035805	6.237e-05	736.15	4.3922e-06	2.7214e-06	859.79	200.85	2.4709e-06	2.6842e-06	275.22	97.217	61.799	23.744	2.1009e-06	46.075	7.7296e-05	7.0963e-05	1.9684e-05	668.42	7.7012e-07	7.8217e-07	776.99	180.36	7.2736e-07	7.2288e-07	238.78	83.645	52.872	20.681	6.6883e-07	38.795	-80.010	-170.996	-128.224	-161.966	-43.197	-90.826	-162.850	-156.474	-71.236	-45.119	-157.748	-152.308	-150.509	-145.616	-19.230	-148.468	-8191	255	
1400.248	1	1	0	0	0.32931	0.10222	0.11299	0.32327	0.16137	0.23676	0.22211	0.15801	0.068953	0.18269	0.19037	0.06075	0.18982	0.10174	0.14527	0.13054	-2.0167	-2.7854	-2.6562	-2.3479	-2.8708	-2.2417	-2.8167	-2.6958	-2.2521	-2.8625	-2.4667	-2.4313	-2.8125	-2.5229	-2.6188	-2.85	-132.967	16.814	-66.793	154.049	-7.636	56.102	-170.195	124.403	112.375	-123.817	20.508	89.246	77.067	98.449	117.838	129.509	0.00042012	0.00014195	5.3495e-05	752.57	2.7087e-06	1.6017e-06	863.69	201.02	1.8278e-06	2.1304e-06	273.59	96.915	61.493	23.557	1.1229e-06	45.843	6.5595e-05	5.8733e-05	1.6393e-05	676.08	6.6417e-07	6.4805e-07	779.7	180.15	6.658e-07	6.6194e-07	237.35	82.877	52.544	20.572	6.6622e-07	38.712	-82.591	83.895	-103.720	-162.045	-44.949	-60.832	-162.988	-156.720	-63.856	-41.270	-157.554	-152.052	-150.396	-146.148	-98.450	-148.201	-8191	255	
1400.343	1	1	0	0	0.20212	0.1241	0.13817	0.12276	0.058116	0.3724	0.36731	0.26627	0.23167	0.12785	0.28643	0.16489	0.070881	0.10543	0.30988	0.23354	-1.9542	-2.725	-2.7	-2.3542	-2.8688	-2.4792	-2.5604	-2.9	-2.3708	-2.6625	-2.8896	-2.2812	-2.6937	-2.675	-2.4188	-2.9562	-140.504	10.576	-168.826	-47.569	34.379	105.042	112.446	184.511	-38.062	-56.726	-108.292	-140.656	-81.760	59.070	-141.339	77.354	0.00044883	9.117e-05	3.8188e-05	736.29	1.6809e-06	1.2451e-06	849.76	199.28	2.9145e-06	3.019e-06	271.98	98.532	62.619	24.772	3.5868e-06	48.136	6.6889e-05	6.2332e-05	1.7449e-05	667.31	6.9856e-07	7.0328e-07	770.26	178.16	7.2981e-07	7.3146e-07	236.85	84.952	54.02	21.66	8.0374e-07	40.555	-73.554	-18.309	-36.698	-161.965	-51.037	-148.993	-162.794	-156.470	-116.093	3.214	-157.954	-151.844	-149.839	-145.582	-28.589	-148.576	-8191	255	
1400.416	1	1	0	0	0.044108	0.15523	0.23314	0.19743	0.10322	0.044001	0.12345	0.23805	0.38679	0.078752	0.061215	0.1417	0.21732	0.083078	0.19725	0.26963	-2.0229	-2.6042	-2.5938	-2.575	-2.6437	-2.55	-2.5208	-3.0271	-2.5771	-2.6979	-3.0167	-2.4167	-2.8667	-2.5521	-2.3271	-2.8667	185.009	-35.757	-5.496	-89.211	155.228	46.650	154.453	143.948	18.308	142.697	-168.074	141.023	-112.184	-63.659	171.447	181.658	0.00040911	0.00015466	8.834e-05	727.39	6.566e-07	2.8092e-06	839.5	197.43	1.789e-06	2.208e-06	274.03	102.45	64.504	26.374	1.8716e-06	50.823	8.0998e-05	7.6664e-05	2.1461e-05	659.91	8.8124e-07	8.8206e-07	759.85	177.78	9.1037e-07	9.1174e-07	239.25	89.023	56.006	23.154	9.3643e-07	43.173	-70.490	-143.942	14.646	-162.011	-114.821	-164.979	-162.638	-156.331	-34.710	-37.669	-157.572	-151.871	-149.657	-145.806	-24.121	-148.590	-8191	255	
1400.535	1	1	0	0	0.19165	0.22827	0.20448	0.14944	0.088868	0.29356	0.31066	0.22425	0.12701	0.12012	0.028207	0.17069	0.067869	0.27033	0.23342	0.1241	-2.0417	-2.5292	-2.5125	-2.3479	-2.7708	-2.7146	-2.5687	-3.0312	-2.3333	-2.7083	-2.7917	-2.4667	-2.6979	-2.6083	-2.5542	-2.9229	-111.079	185.191	69.272	83.655	12.984	131.981	158.098	163.404	69.513	-154.410	19.965	116.952	27.962	-153.214	27.688	164.140	0.00048134	0.00040706	5.5117e-05	714.58	1.0867e-06	2.1185e-06	832.21	194.44	1.7046e-06	5.3306e-06	274.9	106.18	66.267	27.299	9.5946e-07	52.871	9.0829e-05	8.5007e-05	2.3564e-05	647.57	9.3724e-07	9.4107e-07	755.22	176.13	9.5059e-07	9.4793e-07	241.73	91.615	57.301	24.08	9.3085e-07	44.849	-86.751	-100.799	-108.683	-161.968	41.828	-142.325	-162.820	-156.439	-88.599	-38.637	-157.178	-152.001	-149.556	-145.885	-35.199	-148.049	-8191	255	
1400.631	1	1	0	0	0.090622	0.057517	0.25451	0.14177	0.17821	0.10799	0.091001	0.23677	0.16032	0.39222	0.11678	0.31891	0.13628	0.20378	0.077346	0.32274	-1.9146	-2.6458	-2.8646	-2.3646	-3.0146	-2.7521	-2.4292	-2.9917	-2.5146	-2.4667	-3.0333	-2.4708	-2.825	-2.7271	-2.325	-2.7958	-158.895	36.458	-97.603	131.386	85.989	3.207	142.102	44.234	147.944	93.056	-2.509	145.515	145.024	-163.593	52.520	133.402	0.0006009	0.00050705	0.00010236	707.03	2.453e-06	1.6453e-06	837.57	194.37	2.5952e-06	2.7837e-06	276.43	105.79	66.012	27.286	3.8714e-06	52.359	9.1115e-05	8.418e-05	2.2772e-05	640.39	9.0653e-07	9.0588e-07	759.13	176.12	9.3539e-07	9.3617e-07	243.25	91.733	57.332	23.885	9.4336e-07	44.468	-77.565	-78.601	-76.054	-162.080	-75.576	-158.193	-162.581	-156.305	-44.914	-77.050	-157.379	-151.982	-149.576	-145.843	-39.393	-148.364	-8191	255	
1400.727	1	1	0	0	0.10613	0.039069	0.081637	0.15466	0.15335	0.092129	0.036108	0.27878	0.14951	0.27683	0.38566	0.21375	0.083192	0.2701	0.12269	0.37254	-2.0604	-2.4625	-2.8812	-2.5333	-2.7188	-2.7583	-2.4583	-2.8312	-2.6604	-2.3917	-2.8542	-2.4875	-2.6708	-2.8875	-2.175	-3.0083	99.962	141.222	-3.276	152.559	-148.672	97.610	-22.957	113.023	97.351	-75.496	58.440	-152.734	-82.338	-171.576	-123.831	176.033	0.00055692	0.00021081	8.7349e-05	711.45	7.3214e-07	3.7186e-07	835.19	195.74	8.5052e-07	3.1566e-06	277.62	104.35	65.241	26.68	2.8924e-06	50.998	9.0039e-05	8.3951e-05	2.3042e-05	647.01	8.8801e-07	8.6163e-07	757.77	175.98	8.583e-07	8.5813e-07	241.37	90.263	56.386	23.388	8.6294e-07	43.293	-86.411	125.247	-78.609	-162.200	-122.064	-120.473	-162.858	-156.116	-111.869	-16.998	-157.494	-151.593	-149.379	-145.562	-85.998	-148.387	-8191	255	
1400.848	1	1	0	0	0.15906	0.24639	0.18518	0.25906	0.11907	0.22866	0.23968	0.26145	0.13538	0.18532	0.31717	0.11312	0.095164	0.059697	0.099858	0.071256	-2.3292	-2.2292	-2.8417	-2.3187	-2.6125	-2.9083	-2.3542	-2.7458	-2.7646	-2.4354	-2.9396	-2.6125	-2.7146	-2.7021	-2.3312	-2.9729	97.856	-20.982	-162.303	-140.851	133.890	149.649	104.256	107.939	-111.414	-124.055	-8.589	-32.039	162.668	-56.497	-129.793	-126.795	0.00053109	0.0004558	1.7433e-05	712.11	2.4011e-06	1.4036e-06	840.62	196.57	1.001e-06	9.3089e-07	273.47	102.98	64.181	26.045	3.9066e-06	50.215	8.4471e-05	7.9054e-05	2.1423e-05	646.76	8.5839e-07	8.4844e-07	758.83	176.36	8.3821e-07	8.474e-07	238.61	88.609	55.426	22.847	8.4876e-07	42.683	-79.011	183.343	-36.374	-162.203	-150.030	-98.366	-162.750	-156.221	-57.348	-83.453	-157.448	-151.809	-149.273	-145.984	-71.530	-148.225	-8191	255	
1400.944	1	1	0	0	0.28012	0.09001	0.26178	0.091224	0.24035	0.11099	0.084502	0.3032	0.061543	0.10339	0.15301	0.07714	0.14825	0.17135	0.024417	0.20981	-2.1792	-2.4979	-3.0146	-2.7208	-2.3146	-3.0167	-2.6854	-2.5938	-2.5062	-2.4479	-3.0396	-2.4479	-2.45	-2.8042	-2.4646	-2.6396	-127.963	-76.236	111.458	182.650	149.067	75.799	104.813	117.455	-88.676	-25.096	46.716	-122.662	-132.238	-21.868	-157.086	166.159	0.00049583	0.00026653	0.00013246	708.4	1.8864e-06	8.3694e-07	842.48	194.88	3.3129e-06	5.0205e-06	273.56	101.64	64.001	25.789	2.6992e-06	49.281	8.42e-05	7.8775e-05	2.2142e-05	645.84	8.9721e-07	8.9415e-07	759.79	176.36	9.0931e-07	8.954e-07	239.64	88.567	55.705	22.599	8.7988e-07	41.875	-79.570	-103.927	-38.891	-162.005	-73.449	-126.869	-162.518	-156.045	-106.618	-11.270	-157.713	-152.103	-149.846	-145.968	-122.163	-148.272	-8191	255	
1401.040	1	1	0	0	0.097038	0.10814	0.22826	0.17146	0.12242	0.12009	0.073604	0.27515	0.11339	0.27491	0.15905	0.2713	0.16466	0.21341	0.3157	0.17501	-2.3479	-2.6021	-2.7375	-2.5479	-2.4979	-2.8604	-2.7583	-2.7	-2.5271	-2.3333	-2.7021	-2.5187	-2.3792	-2.8646	-2.5542	-2.5646	-115.730	-160.042	-170.761	125.428	-162.991	-122.264	36.998	122.264	-28.130	60.446	142.414	73.982	-117.761	-138.111	72.651	-76.312	0.00044138	0.00024833	7.1929e-05	718.49	3.1509e-06	1.4904e-06	850.68	197.12	4.3807e-06	1.7782e-06	272.59	98.792	62.932	24.246	7.1433e-07	47.11	8.5235e-05	7.7953e-05	2.1488e-05	654.41	8.3187e-07	8.157e-07	767.44	177.87	7.9791e-07	7.797e-07	237.71	85.05	53.771	21.217	7.6542e-07	39.718	-73.102	143.264	-87.296	-162.028	-43.253	-70.609	-162.649	-156.345	-63.897	124.412	-157.606	-151.902	-150.268	-145.821	118.808	-148.277	-8191	255	
1401.136	1	1	0	0	0.26626	0.094919	0.23074	0.18351	0.21789	0.22928	0.085168	0.18557	0.038917	0.24465	0.29263	0.06355	0.12583	0.064686	0.092659	0.28601	-2.2938	-2.3875	-2.5771	-2.7792	-2.275	-2.8771	-2.5979	-2.7604	-2.7875	-2.45	-2.5958	-2.7938	-2.5354	-2.8979	-2.7062	-2.6458	-0.010	120.349	75.637	-58.807	65.495	19.946	135.688	118.921	98.868	-141.456	-0.664	140.363	142.683	-107.331	100.748	164.887	0.00046354	0.00041128	5.8857e-05	737.42	7.8144e-07	3.0179e-06	858.6	197.98	4.9497e-06	4.0382e-06	273.68	98.218	61.519	24.119	1.7265e-07	47.223	7.3491e-05	6.7919e-05	1.8879e-05	666.03	7.5775e-07	7.4936e-07	775.29	177.55	7.6711e-07	7.6408e-07	238.2	84.788	53.406	21.205	8.1105e-07	40.101	-76.045	-106.484	-85.274	-162.388	-159.101	-40.513	-162.687	-156.589	-27.169	-45.217	-157.760	-151.620	-150.246	-145.827	-66.416	-148.253	-8191	255	
1401.232	1	1	0	0	0.1046	0.06441	0.15574	0.44787	0.14144	0.19038	0.21444	0.39855	0.21817	0.092801	0.17921	0.04178	0.10623	0.1067	0.10948	0.19509	-2.4708	-2.2729	-2.6958	-2.7917	-2.3187	-2.8333	-2.6521	-2.5292	-2.9229	-2.4417	-2.7208	-2.6833	-2.5062	-2.9	-2.675	-2.5729	-165.776	148.316	164.934	-153.021	62.438	175.625	68.937	87.433	-46.739	-84.656	134.780	-3.157	114.103	-162.906	93.028	159.200	0.00050721	0.00061408	4.3701e-05	736.63	4.1303e-06	1.8229e-06	858.75	198	6.671e-07	2.1542e-06	271.96	96.83	61.728	23.828	3.6604e-06	46.697	7.9228e-05	7.2886e-05	2.0152e-05	665.19	7.8463e-07	7.7926e-07	776.62	177.52	7.7196e-07	7.8778e-07	236.63	83.946	53.182	20.996	8.0283e-07	39.6	-78.270	-99.141	-104.504	-162.038	-58.651	-150.154	-162.802	-156.514	-41.012	-43.371	-157.745	-152.188	-149.907	-145.587	-120.251	-148.406	-8191	255	
1401.328	1	1	0	0	0.049068	0.094772	0.30576	0.20705	0.13838	0.22888	0.3337	0.10091	0.083484	0.15369	0.38625	0.10287	0.10469	0.038222	0.17078	0.18119	-2.6375	-2.2917	-2.8958	-2.8021	-2.2417	-2.8312	-2.4604	-2.6104	-2.8417	-2.3833	-2.8958	-2.9771	-2.2146	-2.8438	-2.5479	-2.5646	129.156	144.948	10.589	74.927	-172.139	151.920	121.025	173.403	-93.825	-165.563	-169.686	-153.840	101.527	-117.395	-34.273	130.919	0.00047125	0.00026111	8.8534e-05	742.43	5.2468e-06	1.2601e-06	861.99	197.35	1.6896e-06	2.2569e-06	273.11	98.523	61.447	24.576	2.4679e-06	48.262	7.8621e-05	7.367e-05	2.0017e-05	670.66	7.9645e-07	7.9568e-07	779.06	178.2	7.9013e-07	7.8778e-07	238.18	84.6	53.194	21.451	8.1194e-07	40.986	-81.994	-25.935	-158.329	-161.901	-2.765	-148.051	-162.782	-156.647	-72.408	15.479	-157.618	-151.761	-150.016	-145.490	-50.103	-148.135	-8191	255	
1401.447	1	1	0	0	0.04768	0.16798	0.061206	0.12073	0.062866	0.11278	0.11996	0.23435	0.075955	0.1687	0.14991	0.036895	0.24517	0.067356	0.26751	0.091713	-2.3125	-2.4042	-2.6	-2.7542	-2.3271	-2.9042	-2.5375	-2.3542	-2.75	-2.3854	-2.5875	-2.8917	-2.3063	-2.675	-2.4188	-2.5125	-4.844	-67.567	-77.375	41.031	-52.907	-169.184	-151.447	99.243	-78.393	162.563	-29.571	-73.365	18.190	-117.034	32.874	-148.583	0.00049901	0.00047076	4.8122e-05	727.5	1.2802e-06	2.815e-06	852.5	196.78	1.7793e-06	1.0834e-06	275.68	100.12	62.447	25.069	2.192e-06	49	7.9869e-05	7.548e-05	2.1006e-05	658.63	8.2603e-07	8.2668e-07	772.94	176.53	8.3532e-07	8.4148e-07	240.22	86.766	53.96	22.016	8.2348e-07	41.503	-77.880	140.968	34.490	-162.046	53.314	-96.206	-162.645	-156.302	-97.365	-30.628	-157.589	-152.199	-150.272	-145.585	-67.248	-148.453	-8191	255	
1401.544	1	1	0	0	0.082892	0.16012	0.1341	0.10104	0.25089	0.12822	0.22293	0.17865	0.15441	0.32083	0.12106	0.15873	0.13597	0.10697	0.18011	0.076854	-2.4604	-2.3854	-2.4646	-2.6729	-2.1875	-2.6937	-2.7167	-2.4896	-2.8021	-2.6312	-2.4458	-2.9625	-2.4313	-2.7438	-2.9396	-2.4583	132.607	34.803	-58.917	120.599	-64.482	-18.981	108.054	79.035	181.562	11.001	173.592	38.527	143.490	154.449	27.568	179.536	0.0005082	0.00021649	9.5614e-05	736.56	1.0867e-06	3.6416e-06	860.39	198.37	1.1215e-06	3.2408e-06	275.08	99.151	61.831	24.373	1.738e-06	48.078	8.0646e-05	7.4276e-05	2.0327e-05	665.03	8.0226e-07	7.8298e-07	777.64	177.56	7.5432e-07	7.5846e-07	238.76	85.106	53.177	21.254	7.5558e-07	40.545	-82.854	-144.829	-36.011	-162.132	114.465	-77.088	-162.619	-156.446	-27.622	-11.421	-157.939	-151.862	-150.208	-145.676	-87.636	-148.279	-8191	255	
1401.640	1	1	0	0	0.17928	0.19122	0.12708	0.24996	0.062054	0.038618	0.14823	0.13995	0.37929	0.13658	0.10253	0.0705	0.37979	0.13241	0.090928	0.23389	-2.6479	-2.2667	-2.5312	-3.1146	-2.2812	-2.6562	-2.7542	-2.4604	-2.8458	-2.6813	-2.5438	-2.8333	-2.4771	-2.6417	-2.8792	-2.2667	-111.807	-122.008	96.620	174.576	72.754	-117.015	-144.439	-35.700	-98.591	-0.717	106.992	78.837	83.444	51.416	145.576	63.076	0.00039992	0.00055513	2.6034e-05	735.69	3.7008e-06	2.3349e-06	860.98	194.64	4.7227e-07	2.8801e-06	272.24	98.313	61.815	24.152	2.5594e-06	47.443	7.279e-05	6.7958e-05	1.8725e-05	663.67	7.4059e-07	7.2646e-07	774.56	174.75	7.3634e-07	7.4932e-07	236.53	84.525	52.787	21.166	7.5913e-07	40.135	-76.759	-108.547	-161.849	-162.210	-77.457	-82.664	-162.613	-156.715	-111.533	-26.872	-157.574	-151.994	-149.954	-146.052	-85.594	-147.953	-8191	255	
1401.711	1	1	0	0	0.22553	0.076487	0.20683	0.12426	0.1134	0.078148	0.069593	0.37111	0.045907	0.15049	0.44063	0.19861	0.14606	0.19476	0.070632	0.24417	-2.3667	-2.75	-2.2458	-3.0375	-2.3979	-2.5729	-3.0208	-2.525	-2.6958	-2.6167	-2.4333	-2.9229	-2.7083	-2.3917	-2.8167	-2.3875	10.251	81.649	163.628	-106.993	-159.282	156.478	42.546	-141.858	-133.565	168.491	169.695	103.356	-10.655	153.648	-11.020	128.947	0.00049873	0.00018547	7.3263e-06	729.54	2.7711e-06	1.6952e-06	852.74	191.98	3.0705e-06	4.4521e-06	271.1	99.863	61.163	24.739	2.9308e-06	48.705	7.53e-05	7.0389e-05	1.918e-05	659.77	7.5518e-07	7.4911e-07	770.95	172.77	7.3848e-07	7.3925e-07	235.9	85.27	52.71	21.5	7.4189e-07	41.039	-82.095	-91.354	110.056	-162.329	-173.047	-83.971	-162.618	-156.496	-92.399	30.216	-157.451	-151.833	-150.017	-145.916	-117.950	-148.127	-8191	255	
1401.832	1	1	0	0	0.074002	0.060656	0.15195	0.21808	0.21135	0.36049	0.083615	0.041868	0.01525	0.18434	0.1777	0.14184	0.29384	0.19947	0.063188	0.096327	-2.1	-2.7313	-2.3125	-2.8479	-2.5958	-2.4271	-2.9188	-2.4979	-2.5312	-2.8479	-2.4792	-2.9583	-2.6396	-2.4313	-3.0125	-2.4188	161.380	-70.497	11.036	171.115	-71.087	133.833	148.205	152.233	-7.096	136.355	107.688	120.745	169.746	-171.793	-168.715	59.934	0.00049975	0.00026728	6.4085e-05	720.51	2.5274e-06	2.3324e-06	856.52	193.97	3.4666e-06	3.3858e-06	271.01	98.011	60.804	23.83	1.6732e-06	46.756	7.3755e-05	6.8661e-05	1.867e-05	653.53	7.4864e-07	7.4319e-07	774.24	173.77	7.4172e-07	7.3141e-07	235.47	84.169	52.162	20.799	6.9649e-07	39.608	-79.571	180.168	-137.365	-162.145	-68.448	-47.288	-162.823	-156.716	-94.228	7.341	-157.698	-151.637	-149.826	-145.739	-118.615	-147.834	-8191	255	
1401.928	1	1	0	0	0.27695	0.31345	0.092785	0.081644	0.052211	0.10697	0.13267	0.38719	0.22433	0.14195	0.25175	0.16035	0.14935	0.24165	0.092592	0.26905	-2.2271	-2.8167	-2.4833	-2.9875	-2.75	-2.4292	-2.925	-2.6688	-2.6729	-2.8458	-2.4646	-2.775	-2.7104	-2.3292	-2.8875	-2.6625	75.742	152.445	-126.699	165.132	152.324	112.354	89.830	-152.900	32.939	-68.515	-163.634	103.766	65.439	167.476	57.268	58.123	0.00049078	0.00037933	4.4271e-05	740.38	2.0259e-06	2.8678e-06	870.73	196.98	8.6879e-07	1.8463e-06	274.68	95.796	60.138	22.635	3.7477e-06	44.84	6.7813e-05	6.3562e-05	1.7542e-05	668.11	6.8274e-07	6.7463e-07	785.85	176.33	6.6668e-07	6.5712e-07	236.24	81.893	51.353	19.793	6.2285e-07	37.934	-74.325	-118.008	-50.457	-162.182	-78.734	-114.110	-162.849	-156.599	-155.562	-58.987	-157.718	-151.908	-149.781	-145.623	-28.627	-147.824	-8191	255	
1402.024	1	1	0	0	0.26365	0.11568	0.15584	0.058799	0.11429	0.14943	0.073886	0.24619	0.22359	0.15325	0.0047941	0.15698	0.19449	0.021925	0.081978	0.26	-2.1708	-2.8312	-2.4104	-2.8458	-2.8	-2.4458	-2.9125	-2.6188	-2.5146	-3.0208	-2.4021	-2.85	-2.7875	-2.4604	-3.0021	-2.5583	-119.025	71.895	81.265	-170.722	152.416	-48.278	-62.795	18.509	-147.254	42.557	12.168	174.745	126.878	-145.290	-118.154	7.186	0.00047179	0.00014183	1.9271e-05	757.87	2.3403e-06	8.8297e-07	887.04	201.21	1.1156e-06	3.8464e-06	273.68	94.576	59.682	22.377	1.1665e-06	43.806	6.3412e-05	5.8075e-05	1.575e-05	682.27	6.347e-07	6.2984e-07	799.19	179.35	6.2548e-07	6.1094e-07	236.82	80.886	51.017	19.371	5.832e-07	36.926	-86.318	-142.708	155.541	-162.242	-18.168	-52.998	-162.850	-156.843	-94.493	-78.899	-158.273	-152.534	-150.185	-145.958	-7.460	-148.466	-8191	255	
1402.120	1	1	0	0	0.22335	0.13574	0.13925	0.10749	0.059257	0.12202	0.10033	0.21054	0.034563	0.11529	0.089566	0.12809	0.18235	0.22282	0.077664	0.23536	-2.1188	-2.8438	-2.5271	-2.7417	-2.9062	-2.5563	-2.9667	-2.6646	-2.6437	-2.8333	-2.5187	-2.7562	-2.7604	-2.2938	-3.0083	-2.6937	19.658	-76.874	92.147	155.642	91.297	155.537	174.032	150.144	-20.362	90.004	57.999	-161.945	33.667	164.749	-148.564	154.875	0.00040975	0.00025691	6.1548e-05	768.57	1.7627e-06	8.2177e-07	885.11	200.41	3.653e-06	3.8942e-06	271.31	94.31	60.195	22.572	2.3831e-06	44.702	5.9082e-05	5.312e-05	1.5046e-05	691.69	6.0381e-07	5.9217e-07	797.75	178.66	6.0311e-07	5.8645e-07	235.22	81.122	51.204	19.648	6.2101e-07	37.78	-84.675	-103.216	-83.292	-162.115	34.588	-127.709	-163.026	-156.974	-87.750	-20.484	-158.067	-152.105	-150.000	-145.888	-87.319	-148.234	-8191	255	
1402.239	1	1	0	0	0.15282	0.11722	0.10348	0.25485	0.078302	0.027342	0.37467	0.24961	0.27143	0.094758	0.08151	0.27785	0.082019	0.061054	0.28933	0.10712	-2.0333	-2.7438	-2.6854	-2.5833	-2.7146	-2.55	-2.8604	-2.7729	-2.3729	-2.9333	-2.5208	-2.5896	-2.9104	-2.3375	-2.7833	-2.65	-173.089	111.766	5.026	171.148	81.441	145.779	-164.189	123.232	-141.950	-159.157	183.439	165.852	137.434	158.748	0.411	128.517	0.0004655	5.97e-05	5.6483e-05	754.56	2.9171e-06	2.3534e-06	875.84	196.44	2.4428e-06	4.1934e-06	270.58	96.036	60.039	22.926	1.8153e-06	45.448	6.158e-05	5.5116e-05	1.5873e-05	677.28	6.1923e-07	6.1897e-07	789.81	175.58	6.2063e-07	6.0563e-07	234.33	81.892	51.193	19.922	6.1127e-07	38.21	-82.411	96.918	-69.744	-161.984	-62.770	-52.208	-163.222	-156.611	-69.325	-13.019	-157.887	-151.810	-150.255	-145.783	-96.857	-148.061	-8191	255	
1402.313	1	1	0	0	0.31765	0.20578	0.088862	0.15854	0.23124	0.23155	0.20953	0.1453	0.15819	0.24165	0.14402	0.19945	0.15585	0.12309	0.14051	0.25587	-2.0187	-2.6604	-2.5667	-2.6021	-2.8771	-2.5125	-2.7146	-2.8667	-2.3979	-2.8292	-2.8271	-2.3229	-2.8688	-2.3479	-2.5979	-2.9062	173.021	175.778	94.238	115.784	109.809	-13.214	166.323	-163.254	77.546	-7.507	-127.284	133.820	162.452	168.814	-55.153	72.734	0.00041966	0.00016067	8.9453e-05	752.8	3.2115e-06	3.1249e-07	882.08	197.87	2.2302e-06	1.0085e-06	272.02	95.399	60.05	22.833	3.2663e-06	44.911	6.0501e-05	5.5622e-05	1.5393e-05	676.71	6.1034e-07	6.0611e-07	792.89	176.21	6.1265e-07	6.0729e-07	235.17	81.73	51.292	19.787	6.1517e-07	37.874	-80.076	-21.400	-169.505	-162.411	-85.863	167.892	-162.720	-156.648	-97.957	-48.788	-158.210	-152.226	-150.092	-145.852	-69.300	-147.851	-8191	255	
1402.409	1	1	0	0	0.13333	0.073556	0.11524	0.16582	0.044027	0.070726	0.16171	0.13584	0.15417	0.13996	0.15689	0.27639	0.094268	0.065632	0.05556	0.17414	-1.8917	-2.8667	-2.4458	-2.4292	-3.1229	-2.3667	-2.9021	-2.9437	-2.5292	-2.9979	-2.6562	-2.2271	-2.9042	-2.5042	-2.6562	-2.8208	-18.071	-81.556	86.998	-115.208	69.700	74.478	91.502	98.422	-142.768	-106.865	182.446	93.440	-26.704	-100.860	152.651	106.446	0.00044222	0.00029592	0.00010284	766.11	1.7263e-06	2.8084e-06	893.03	199.68	2.8655e-06	2.4295e-07	273.88	94.989	60.338	22.701	4.127e-07	44.926	6.1279e-05	5.5562e-05	1.5651e-05	688.63	6.1064e-07	5.9668e-07	802.8	178.53	6.0351e-07	5.9764e-07	237.66	81.57	51.426	19.672	6.0213e-07	37.845	-80.437	-125.417	-57.066	-162.287	31.225	-140.829	-163.068	-157.008	-98.799	-27.913	-157.972	-152.159	-149.839	-145.968	75.719	-147.888	-8191	255	
1402.528	1	1	0	0	0.39151	0.14403	0.06493	0.16575	0.23061	0.12121	0.18333	0.26577	0.09583	0.065704	0.066144	0.14932	0.12933	0.17005	0.04617	0.10886	-1.9625	-2.9146	-2.6146	-2.5792	-2.8958	-2.7188	-2.7417	-2.7458	-2.2479	-2.7542	-2.9167	-2.4313	-3.0833	-2.6146	-2.6688	-3.0625	-50.229	-87.378	-124.973	154.670	-75.456	-159.594	-15.508	131.833	-139.756	-123.054	6.187	-97.349	-151.300	-156.194	-120.602	115.548	0.00044026	0.00017664	9.1174e-05	777.87	6.0776e-06	1.1447e-06	902.37	201.67	6.067e-07	1.0554e-06	274.59	94.638	60.664	22.775	5.0279e-06	44.865	6.0793e-05	5.5319e-05	1.5231e-05	697.62	6.0687e-07	6.0101e-07	811.32	179.96	6.0649e-07	5.9488e-07	237.94	81.27	51.444	19.652	5.9793e-07	37.885	-76.119	-48.883	-142.310	-162.110	-84.181	-98.039	-162.980	-156.932	-169.350	-71.601	-157.831	-152.203	-149.919	-145.672	-65.017	-147.953	-8191	255	
1402.624	1	1	0	0	0.2477	0.31714	0.062799	0.22748	0.085838	0.20344	0.051909	0.19404	0.4005	0.17055	0.064131	0.22905	0.37921	0.11338	0.15448	0.13754	-2.0812	-2.6937	-2.7562	-2.3875	-2.7646	-2.8312	-2.4813	-3.0354	-2.325	-2.9292	-2.9667	-2.7167	-2.8292	-2.7792	-2.4125	-2.9354	43.661	136.948	45.405	133.287	14.001	64.827	51.825	90.767	130.879	-122.635	181.830	171.550	163.914	-12.824	32.014	-62.382	0.0004846	0.00034716	3.1722e-05	765.99	2.2989e-06	2.4168e-06	891.19	199.52	2.4045e-06	3.2341e-06	274.88	95.596	60.387	22.867	1.1632e-06	45.193	6.0786e-05	5.6073e-05	1.5588e-05	689.91	6.096e-07	6.0832e-07	802.31	178.44	6.2247e-07	6.0375e-07	237.64	81.877	51.395	19.898	6.0941e-07	38.144	-73.165	-120.312	-137.529	-162.166	-58.697	-105.282	-162.853	-156.710	-74.459	-6.320	-157.542	-152.000	-150.421	-145.757	-71.485	-148.117	-8191	255	
1402.720	1	1	0	0	0.1885	0.15212	0.12865	0.23699	0.086188	0.038459	0.21592	0.19948	0.30318	0.14804	0.10368	0.039518	0.079339	0.14078	0.13068	0.14975	-2.1292	-2.7854	-2.8063	-2.5812	-2.7625	-2.6917	-2.5667	-2.8458	-2.5438	-2.8063	-2.9938	-2.6	-2.6354	-2.7208	-2.4604	-2.8854	-43.383	-49.725	-120.501	176.981	136.334	170.182	111.851	51.188	141.987	104.470	-140.331	150.007	94.617	174.900	123.338	78.182	0.00050417	0.00031224	4.4751e-05	760.74	1.9851e-06	1.1989e-06	888.24	199.14	3.2716e-06	1.0922e-06	273.29	95.961	60.776	22.862	2.9783e-06	45.078	6.0556e-05	5.4592e-05	1.5007e-05	685.31	5.976e-07	5.9621e-07	798.27	177.74	6.1362e-07	6.0417e-07	236.91	82.172	51.623	19.9	6.0436e-07	38.079	-77.156	-147.640	-76.059	-162.252	137.691	-90.978	-162.931	-156.804	-74.593	-105.278	-158.126	-152.182	-150.088	-145.628	-70.858	-148.167	-8191	255	
1402.816	1	1	0	0	0.041635	0.16252	0.32944	0.24283	0.22006	0.14147	0.083952	0.054586	0.11493	0.042127	0.23802	0.24024	0.084246	0.12099	0.15347	0.13185	-2.3479	-2.5438	-3.0333	-2.4292	-2.9521	-2.825	-2.6229	-2.9167	-2.7167	-2.5062	-2.9917	-2.4625	-2.9271	-2.7521	-2.4458	-3.0354	106.299	-99.589	-32.038	-166.552	-60.361	156.962	150.019	-5.282	-14.962	-117.702	38.042	73.363	-131.800	-108.554	-174.179	-171.477	0.00055077	0.00043728	0.000112	769.09	1.9072e-06	2.3816e-06	892.87	200.42	9.9819e-07	2.8311e-07	273.5	94.951	60.066	22.32	1.1045e-06	44.354	6.0703e-05	5.4751e-05	1.5095e-05	688.81	6.0258e-07	5.9292e-07	802.63	178.9	5.9773e-07	5.9331e-07	237.28	81.318	51.202	19.422	5.8364e-07	37.355	-88.518	-144.405	-64.214	-162.085	106.043	-72.383	-162.970	-156.810	43.208	151.385	-157.694	-151.974	-150.428	-145.469	163.938	-148.249	-8191	255	
1402.937	1	1	0	0	0.38542	0.30533	0.16393	0.29662	0.13947	0.23622	0.088595	0.19326	0.18266	0.17488	0.12492	0.11456	0.26323	0.10987	0.23389	0.036156	-2.1542	-2.4604	-2.9271	-2.675	-2.6833	-2.7833	-2.5667	-2.9417	-2.6375	-2.5354	-2.9729	-2.5938	-2.6729	-2.775	-2.3875	-3.0312	162.348	177.942	158.566	175.060	73.442	-131.139	-172.624	100.229	-54.535	-115.250	76.898	139.305	136.597	156.817	-147.855	-78.310	0.00043536	0.00034164	0.0001287	769.86	5.1605e-07	1.0138e-06	903.27	201.01	2.0791e-06	3.2296e-06	277.18	94.292	60.321	22.223	2.1898e-06	43.964	5.9033e-05	5.2521e-05	1.4654e-05	694.15	5.91e-07	5.9069e-07	808.79	179.97	5.9741e-07	5.8864e-07	238.11	81.044	51.247	19.319	5.9885e-07	37.062	-78.367	-125.101	-73.429	-162.487	-92.137	-133.602	-162.710	-156.972	-65.056	24.647	-157.937	-151.998	-150.102	-145.739	-123.105	-148.134	-8191	255	
1403.008	1	1	0	0	0.12536	0.19412	0.11221	0.079888	0.11427	0.068004	0.09299	0.12512	0.2477	0.20383	0.11097	0.021467	0.18309	0.24547	0.092319	0.080982	-2.2229	-2.4771	-2.7438	-2.7188	-2.5875	-2.9354	-2.5396	-2.6417	-2.8667	-2.5167	-3.0458	-2.6833	-2.5938	-3.0521	-2.2354	-2.8417	84.040	-174.273	-114.950	122.895	53.132	-41.075	86.679	30.355	-42.309	164.463	17.547	-42.899	-122.588	89.391	144.826	-97.604	0.00042013	0.0003554	7.4596e-05	774.95	2.8277e-06	2.9646e-06	900.17	202.85	2.1675e-06	1.6804e-06	274.73	93.509	60.026	22.041	2.3453e-06	43.515	5.9025e-05	5.4916e-05	1.5101e-05	697.59	5.8844e-07	5.7829e-07	806.69	180.57	5.8327e-07	5.8149e-07	237.21	80.303	51.053	19.166	5.8455e-07	36.7	-76.534	164.976	-126.009	-162.490	13.130	-26.723	-163.033	-156.760	-85.221	50.777	-157.978	-151.939	-150.381	-146.005	-72.131	-148.213	-8191	255	
1403.129	1	1	0	0	0.26661	0.093878	0.1016	0.2379	0.12958	0.11101	0.48361	0.16104	0.038837	0.081195	0.16586	0.21532	0.08649	0.060248	0.13806	0.3157	-2.2125	-2.5833	-2.7521	-2.7188	-2.425	-2.7833	-2.5208	-2.7271	-2.7583	-2.3854	-2.975	-2.6458	-2.4458	-2.8937	-2.3937	-2.8333	-57.409	46.110	-49.032	96.208	127.240	-38.962	112.572	-108.622	141.436	160.793	-134.559	4.374	-90.325	103.704	-66.416	179.838	0.00047172	0.00030392	9.1322e-05	782.89	4.1247e-06	1.7996e-06	904.71	203.56	2.052e-06	2.3326e-06	274.29	93.211	60.179	21.994	2.956e-06	43.33	5.8096e-05	5.2808e-05	1.4789e-05	701.68	5.9087e-07	5.8349e-07	809.96	182.06	5.9311e-07	5.8231e-07	237.01	79.917	51.15	19.109	5.9133e-07	36.524	-74.222	124.147	-103.094	-162.300	-51.741	-73.023	-162.940	-156.942	-43.006	-27.743	-158.244	-151.850	-150.281	-146.014	-68.608	-148.383	-8191	255	
1403.225	1	1	0	0	0.084324	0.16513	0.15294	0.073197	0.28283	0.12542	0.2404	0.060476	0.14201	0.24161	0.085752	0.13055	0.12185	0.020953	0.31533	0.17117	-2.3	-2.5229	-2.8792	-2.5396	-2.6646	-3.0292	-2.4813	-2.7854	-2.8458	-2.3896	-3.0625	-2.7438	-2.3688	-2.9375	-2.4354	-2.6771	124.282	-58.930	-70.552	-115.443	97.777	-62.933	-30.139	-107.399	7.922	-49.373	-65.164	107.489	157.458	95.898	-163.237	106.304	0.00044136	0.00031902	6.0897e-05	780.63	1.9465e-06	2.4295e-06	905.89	204.98	1.5914e-06	1.1439e-06	272.83	93.258	60.489	21.867	2.7008e-06	43.176	5.9083e-05	5.4268e-05	1.4984e-05	700.26	5.9429e-07	5.9007e-07	810.52	181.99	5.9387e-07	5.8207e-07	237.04	79.871	51.175	19.074	5.9854e-07	36.456	-88.064	-95.532	-111.728	-162.146	-34.968	-12.482	-163.018	-156.902	-64.975	-32.906	-157.683	-152.225	-150.096	-145.772	-139.782	-148.137	-8191	255	
1403.320	1	1	0	0	0.1123	0.14133	0.074465	0.19623	0.29722	0.1734	0.29609	0.20047	0.21568	0.18769	0.15539	0.092678	0.052838	0.078268	0.15441	0.23898	-2.5687	-2.4979	-2.6792	-2.6417	-2.4	-2.8083	-2.5896	-2.6458	-2.5833	-2.3854	-2.6875	-2.6208	-2.4667	-2.9083	-2.4271	-2.6542	-158.116	179.892	24.675	115.356	-72.477	171.387	155.517	108.376	62.263	1.991	-9.612	171.497	-60.846	181.476	-162.171	67.878	0.00044493	0.00018851	5.485e-05	781.57	2.3463e-06	2.2063e-06	905.27	204.28	2.2307e-06	2.0076e-06	274.83	93.232	60.161	21.622	2.9424e-06	42.866	5.9356e-05	5.3128e-05	1.5047e-05	702.46	5.9814e-07	5.7977e-07	813.35	182.24	5.8293e-07	5.7908e-07	237.65	79.819	51.06	18.906	5.9001e-07	36.25	-81.933	-53.641	-59.930	-162.183	-49.085	-71.012	-163.134	-156.926	-18.310	-25.048	-157.932	-152.341	-150.365	-145.575	-21.828	-148.024	-8191	255	
1403.416	1	1	0	0	0.0972	0.065884	0.23993	0.12329	0.019675	0.087377	0.32212	0.21002	0.036672	0.086454	0.25926	0.22821	0.15468	0.10915	0.14205	0.2012	-2.35	-2.4333	-2.6604	-2.9042	-2.3708	-2.6958	-2.6437	-2.5125	-2.7292	-2.3979	-2.6708	-2.7771	-2.5271	-2.8958	-2.4271	-2.5938	-93.852	120.493	-73.696	-164.649	114.183	56.141	-143.483	-170.268	129.976	49.358	173.551	82.881	-27.385	-105.554	-142.210	46.821	0.00039919	0.00017808	2.7949e-05	779.57	2.7916e-06	2.7881e-06	902.68	203.56	1.3187e-06	8.8137e-07	275.01	92.375	59.259	21.56	1.3897e-06	42.443	5.9401e-05	5.3911e-05	1.5124e-05	702.53	5.9815e-07	5.9289e-07	814.6	181.15	5.8945e-07	5.857e-07	237.6	78.87	50.484	18.701	5.8945e-07	35.934	-83.469	-2.778	-126.957	-162.226	-39.361	-103.063	-162.959	-157.073	-62.128	-151.751	-158.095	-152.543	-149.736	-145.995	-21.891	-148.024	-8191	255	
1403.536	1	1	0	0	0.054136	0.22571	0.10328	0.19238	0.24991	0.29773	0.061263	0.54384	0.26382	0.30767	0.013044	0.30629	0.27107	0.15111	0.10822	0.24928	-2.5438	-2.3667	-2.75	-3.1021	-2.1312	-3.1208	-2.8563	-2.3583	-2.9313	-2.4604	-2.6625	-2.8063	-2.2958	-2.5208	-2.5396	-2.5479	46.926	-21.642	-31.684	129.262	-100.416	-40.515	173.830	0.601	-115.566	-156.774	163.909	134.765	-145.139	-94.357	-98.920	137.224	0.00046029	0.00018186	7.0656e-05	794.79	2.9617e-06	2.6101e-06	920.57	208.15	3.2142e-06	3.467e-07	277.88	91.947	59.581	21.422	2.7693e-06	42.169	5.9328e-05	5.3855e-05	1.4919e-05	714	6.0748e-07	6.0257e-07	828.51	185.39	6.107e-07	6.0813e-07	240.89	78.948	50.822	18.69	6.2603e-07	35.736	-82.782	-98.133	-139.426	-162.330	-26.919	-113.352	-163.121	-157.192	-106.451	-23.744	-158.406	-152.182	-150.443	-145.714	-69.699	-147.930	-8191	255	
1403.608	1	1	0	0	0.015255	0.14362	0.1175	0.11446	0.14157	0.097554	0.26829	0.084664	0.12186	0.032151	0.086105	0.11603	0.17326	0.12735	0.19379	0.17835	-2.5646	-2.5812	-2.6625	-2.8042	-2.4521	-2.8333	-2.8229	-2.4021	-2.9104	-2.5563	-2.4688	-2.8146	-2.3104	-2.7333	-2.8146	-2.2938	-165.417	110.987	20.694	19.335	95.212	-164.202	118.556	79.800	90.355	-5.361	53.515	-53.365	134.596	107.133	91.858	-137.945	0.00042168	0.00035815	7.5007e-05	800.29	1.202e-06	1.3645e-06	925.56	209.1	2.4765e-06	1.2531e-06	280.01	93.381	60.027	21.773	2.6599e-06	42.965	6.184e-05	5.6141e-05	1.5912e-05	720.9	6.39e-07	6.3363e-07	829.61	186.54	6.4543e-07	6.3428e-07	242.35	79.966	51.244	18.93	6.308e-07	36.193	-79.323	-171.617	-70.420	-162.441	144.101	-73.002	-162.735	-156.892	-27.464	-20.228	-158.343	-152.177	-150.677	-145.961	-43.371	-148.284	-8191	255	
1403.704	1	1	0	0	0.1728	0.33407	0.067891	0.11172	0.13532	0.096008	0.078507	0.22238	0.048482	0.12698	0.36241	0.091958	0.17384	0.087145	0.19987	0.16367	-2.3333	-2.6521	-2.4229	-2.8479	-2.4979	-2.5042	-2.7833	-2.5521	-2.8104	-2.6917	-2.5125	-2.8312	-2.5187	-2.5771	-2.7396	-2.6167	-123.065	141.687	-9.286	72.822	-61.116	-53.416	94.465	100.279	129.968	161.332	-86.537	-70.760	-105.758	-59.672	-96.665	170.955	0.00050458	0.0001795	3.2139e-05	799.48	2.5218e-06	3.9322e-06	929.99	208.4	2.5485e-06	2.2487e-06	281.18	93.019	60.085	21.248	2.7261e-06	42.676	6.1976e-05	5.6544e-05	1.5502e-05	719.93	6.2066e-07	6.1296e-07	833.76	186.08	5.9896e-07	5.9373e-07	242.16	79.602	50.985	18.601	5.8952e-07	35.905	-78.749	167.016	-118.953	-162.630	-21.128	-53.549	-163.206	-157.147	-126.237	-6.998	-158.035	-152.403	-150.540	-145.878	-96.774	-148.067	-8191	255	
1403.800	1	1	0	0	0.14135	0.14983	0.072249	0.11025	0.1271	0.30103	0.16438	0.29808	0.36929	0.23619	0.20082	0.13621	0.075437	0.13346	0.11196	0.40146	-2.4271	-2.4313	-2.4646	-2.8937	-2.5646	-2.6417	-2.8646	-2.3771	-2.7938	-2.6521	-2.5938	-2.9167	-2.4042	-2.7083	-2.8333	-2.4062	123.453	-152.294	-132.657	1.404	-50.065	143.273	113.536	84.598	98.662	105.914	153.545	-155.193	141.934	37.842	84.095	130.674	0.00042824	0.00054405	3.165e-05	805.29	3.9567e-06	1.2995e-06	925.39	209.19	1.8522e-06	3.3513e-06	280.54	92.107	60.017	21.45	2.0141e-06	42.236	5.8392e-05	5.4143e-05	1.4849e-05	723.43	5.9752e-07	5.8985e-07	832.31	186.36	5.8989e-07	5.8466e-07	241.5	79.165	50.899	18.632	5.9046e-07	35.682	-88.100	-139.449	133.028	-162.406	-20.500	-29.981	-163.217	-157.203	-106.140	-37.402	-158.137	-152.495	-150.516	-146.087	26.392	-148.129	-8191	255	
1403.897	1	1	0	0	0.076292	0.15249	0.26924	0.2117	0.11838	0.22349	0.17195	0.49452	0.21503	0.231	0.03223	0.09591	0.16318	0.080234	0.061838	0.078199	-2.3438	-2.7375	-2.3708	-2.9021	-2.6437	-2.4313	-3.0708	-2.325	-2.6458	-2.6958	-2.4188	-2.9688	-2.4542	-2.475	-2.775	-2.5354	170.728	-56.354	36.398	-91.672	149.111	-117.057	175.325	-170.164	-67.049	-97.545	-127.240	-5.551	-149.883	50.735	-81.844	134.937	0.00040269	0.00017788	0.00012194	797.13	3.7783e-06	9.6425e-07	925.67	207.08	5.1741e-06	1.814e-06	277.91	91.587	59.449	21.064	1.26e-06	41.664	5.7997e-05	5.1446e-05	1.5007e-05	718.64	5.9231e-07	5.8608e-07	828.86	184.97	5.8307e-07	5.8653e-07	239.68	78.421	50.579	18.347	5.8907e-07	35.098	-68.338	-141.163	-67.171	-162.279	-99.718	-1.204	-163.232	-157.119	-52.506	-27.407	-158.079	-152.331	-150.503	-145.911	-57.991	-148.039	-8191	255	
1404.017	1	1	0	0	0.15929	0.13976	0.13447	0.12889	0.1072	0.33489	0.14358	0.20271	0.11881	0.19427	0.060504	0.094221	0.16513	0.18234	0.13023	0.12317	-2.3583	-2.7667	-2.0729	-2.9708	-2.7021	-2.4188	-3.0208	-2.6604	-2.6979	-2.9437	-2.4104	-2.8229	-2.6937	-2.5396	-2.8292	-2.8354	157.110	36.330	-14.216	172.648	-146.937	5.458	150.163	92.478	136.922	149.049	182.719	-152.469	39.167	-106.280	174.842	167.955	0.00045953	0.0002275	8.6389e-05	801.8	1.1324e-06	3.3458e-07	923.15	209.71	1.6837e-06	1.9322e-06	281.31	91.444	59.574	21.076	1.3155e-06	41.358	5.8252e-05	5.4023e-05	1.5099e-05	720.57	5.9088e-07	5.8834e-07	830.26	186.77	5.9193e-07	5.8383e-07	241.08	78.348	50.7	18.346	5.8247e-07	35.009	-83.280	-101.048	-94.815	-162.456	-164.054	-57.603	-163.339	-157.134	12.131	0.545	-158.455	-152.232	-150.553	-145.879	-31.833	-147.681	-8191	255	
1404.113	1	1	0	0	0.11557	0.066689	0.033191	0.11919	0.081576	0.1105	0.10056	0.076069	0.14153	0.25303	0.039599	0.30231	0.33856	0.34497	0.080239	0.14933	-2.3063	-2.7313	-2.4958	-2.9917	-2.5979	-2.5229	-2.9896	-2.5312	-2.6917	-2.8958	-2.3063	-2.8354	-2.7458	-2.2687	-2.9437	-2.6833	-36.280	-127.162	-35.623	174.993	32.001	-58.345	156.216	-129.972	183.378	144.490	-83.164	109.094	75.881	133.979	105.010	-131.397	0.0004519	0.00020711	5.4357e-05	807.52	2.4871e-06	1.8183e-06	933.18	209.64	2.5155e-06	3.2055e-06	280.32	92.274	60.038	21.276	2.6301e-06	42.334	5.882e-05	5.4221e-05	1.5187e-05	725.96	5.9507e-07	5.8694e-07	834.1	187.16	6.0502e-07	5.8072e-07	242.01	79.189	51.173	18.584	5.8899e-07	35.429	-78.479	-139.933	-93.472	-162.198	-132.065	-139.222	-163.160	-157.131	-58.853	-38.410	-158.369	-152.326	-150.592	-145.552	7.920	-147.982	-8191	255	
1404.209	1	1	0	0	0.23413	0.21273	0.34343	0.057309	0.23827	0.277	0.050281	0.085365	0.10853	0.20401	0.21029	0.051742	0.15125	0.15555	0.28366	0.13739	-2.0083	-2.8479	-2.4792	-2.7833	-2.7146	-2.3438	-3.0375	-2.5521	-2.5062	-2.9875	-2.4437	-2.5729	-2.7625	-2.1583	-2.8458	-2.5521	4.623	-124.443	-77.485	-154.888	-162.881	-162.404	-90.267	99.505	-169.858	61.861	-118.064	166.793	-138.311	172.248	-85.079	-25.652	0.00043823	0.00044501	9.4261e-05	807.16	1.968e-06	7.0011e-07	935.7	210.95	2.8456e-06	1.2564e-06	282.32	92.935	60.354	21.343	4.1903e-06	42.239	5.9295e-05	5.4149e-05	1.5149e-05	726.11	6.0378e-07	5.9344e-07	839.11	187.85	6.0035e-07	6.0273e-07	243.16	79.642	51.265	18.611	6.0947e-07	35.517	-82.687	-127.890	-68.868	-162.456	-51.865	-137.372	-163.175	-157.150	-64.408	-22.012	-157.924	-152.451	-150.658	-145.655	-87.194	-148.110	-8191	255	
1404.306	1	1	0	0	0.044278	0.18708	0.10706	0.21652	0.12907	0.106	0.38793	0.1442	0.17357	0.17915	0.046497	0.18739	0.32505	0.11305	0.20601	0.057114	-2.3063	-3.0062	-2.4083	-2.7083	-2.7271	-2.2521	-2.7542	-2.8917	-2.7375	-3.1021	-2.6188	-2.4979	-2.825	-2.3958	-2.8479	-2.7479	20.235	-26.700	61.398	-133.419	48.676	-172.091	156.887	170.180	126.423	-60.656	-78.765	37.086	-11.756	-147.520	130.913	43.572	0.00040086	0.00022762	9.904e-05	806.55	4.9393e-06	2.455e-06	926.09	209.78	3.7905e-06	1.2712e-06	280.45	93.392	60.243	21.78	5.4918e-07	43.354	6.0566e-05	5.4664e-05	1.5374e-05	725.66	6.1686e-07	6.0758e-07	834.19	187.2	6.2776e-07	6.2652e-07	242.58	79.903	51.417	18.95	6.4961e-07	36.482	-77.478	-152.174	-135.954	-162.318	-84.062	-81.033	-163.096	-157.074	-82.035	-15.404	-157.978	-152.669	-150.516	-145.113	-133.708	-148.042	-8191	255	
1404.402	1	1	0	0	0.11864	0.12701	0.27668	0.29408	0.088068	0.28193	0.17587	0.086301	0.095228	0.20162	0.048804	0.11331	0.13351	0.2117	0.23726	0.26729	-1.9354	-2.975	-2.4271	-2.7146	-2.7792	-2.3979	-2.8563	-2.65	-2.6667	-2.8333	-2.6229	-2.5125	-2.9021	-2.5021	-2.6375	-2.8563	181.263	102.969	72.628	178.241	76.247	36.684	140.125	-97.693	-32.954	148.889	82.404	180.393	9.529	-101.158	129.235	-161.576	0.00040865	0.00017653	0.00010633	789.52	3.1988e-06	2.881e-06	914.64	206.12	3.0826e-06	2.7187e-06	278.57	92.721	59.289	21.523	8.2038e-07	42.303	6.3753e-05	5.8444e-05	1.6365e-05	709.4	6.4789e-07	6.3423e-07	824.59	183.82	6.1662e-07	6.1002e-07	240.22	79.46	50.501	18.637	5.6952e-07	35.639	-70.844	-113.683	-80.195	-162.468	-39.145	-26.349	-163.076	-157.185	-8.391	-115.232	-158.471	-152.467	-150.346	-145.775	6.609	-148.277	-8191	255	
1404.498	1	1	0	0	0.038748	0.26631	0.068567	0.16473	0.049521	0.26191	0.1357	0.27416	0.23122	0.10515	0.12528	0.058657	0.10644	0.12135	0.15796	0.022928	-1.9979	-2.7438	-2.5375	-2.7021	-2.7875	-2.5354	-3.0104	-2.8812	-2.3875	-2.825	-2.6604	-2.3583	-2.9938	-2.4396	-2.6937	-2.7854	68.326	-79.447	55.172	-79.371	7.957	-51.430	-30.562	168.187	124.011	-100.120	151.127	41.256	174.505	-43.241	-46.789	-70.906	0.00044142	0.00026093	0.00011548	791.26	4.2624e-06	2.0121e-06	921.27	205.98	3.1098e-06	3.384e-06	275.7	92.263	59.322	21.181	1.4504e-06	42.619	5.7655e-05	5.1935e-05	1.4263e-05	712.51	5.8039e-07	5.6654e-07	827.65	183.83	5.7675e-07	5.6542e-07	239.52	79.037	50.193	18.504	5.793e-07	35.961	-73.957	-93.466	-79.862	-162.348	-19.113	-40.407	-163.400	-157.248	-52.415	-47.088	-158.510	-152.439	-150.163	-145.809	-145.264	-147.916	-8191	255	
1404.617	1	1	0	0	0.13463	0.17465	0.16957	0.28643	0.058839	0.25555	0.22539	0.086812	0.2193	0.12861	0.072357	0.13345	0.15046	0.23464	0.068337	0.19987	-2.0438	-2.8417	-2.5333	-2.7	-2.9521	-2.5083	-2.6125	-2.9833	-2.0917	-2.9646	-2.5042	-2.4083	-2.9292	-2.3875	-2.6479	-2.7583	43.408	-32.677	11.357	145.681	-28.521	-158.351	146.501	102.837	156.419	-154.802	9.222	-149.437	-72.950	157.578	118.949	-106.266	0.00040269	8.1717e-05	6.5617e-05	782.38	2.4855e-06	2.211e-06	916.5	203.66	1.0089e-06	2.8684e-06	278.27	93.205	59.152	21.666	2.8116e-06	43.477	5.6488e-05	5.1619e-05	1.4203e-05	703.97	5.6336e-07	5.6198e-07	822.93	181.04	5.6356e-07	5.5574e-07	239.42	79.877	50.222	18.815	5.6817e-07	36.62	-71.062	-142.008	-14.095	-162.594	-72.294	-61.131	-163.201	-157.032	-52.066	-78.384	-158.426	-151.928	-150.451	-146.207	-61.261	-148.281	-8191	255	
1404.713	1	1	0	0	0.37048	0.29742	0.19821	0.20351	0.19899	0.20328	0.42234	0.32805	0.012641	0.27065	0.19725	0.20115	0.2299	0.38995	0.1951	0.065083	-1.8979	-2.7125	-2.5833	-2.4062	-2.7	-2.5792	-2.6792	-3.0938	-2.2062	-2.7083	-2.8646	-2.5646	-2.9417	-2.7	-2.5667	-2.8458	79.010	-135.907	-57.998	178.584	-120.585	140.503	129.579	68.237	152.408	162.520	97.238	103.978	177.194	86.690	-80.942	110.364	0.00045967	0.00034539	4.7141e-05	772.54	3.1874e-06	4.2059e-07	911.92	202.41	2.8177e-06	2.3967e-06	277.11	93.474	58.995	21.806	1.5077e-06	43.831	5.6205e-05	5.1683e-05	1.4177e-05	696.61	5.6353e-07	5.6959e-07	818.57	179.76	5.8155e-07	5.7181e-07	238.8	80.213	50.233	18.965	5.7116e-07	36.857	-80.222	-142.628	-137.483	-162.668	-154.677	-56.213	-162.969	-156.985	-46.113	-12.691	-157.911	-152.512	-150.260	-145.930	29.221	-148.076	-8191	255	
1404.809	1	1	0	0	0.1775	0.17519	0.040171	0.20574	0.28054	0.20847	0.2228	0.016028	0.12537	0.14748	0.15323	0.066441	0.015448	0.10633	0.13992	0.20908	-2.0625	-2.7292	-2.5687	-2.3875	-2.6229	-2.7313	-2.6854	-2.9062	-2.3854	-2.6542	-2.6625	-2.5604	-2.5208	-2.7625	-2.425	-2.6271	-160.552	7.775	59.497	72.868	-27.400	166.975	122.043	30.456	103.505	-119.951	18.612	99.941	153.484	175.969	54.831	19.725	0.00044757	0.00010486	8.9617e-05	771.11	1.9724e-06	1.7796e-06	910.2	200.43	1.5572e-06	1.2997e-06	274.81	93.908	58.954	21.69	7.9524e-07	43.424	5.7776e-05	5.2122e-05	1.4303e-05	692.85	5.7169e-07	5.6041e-07	814.68	178.53	5.6033e-07	5.4995e-07	237.21	79.805	49.824	18.769	5.657e-07	36.428	-77.273	13.946	-119.849	-162.545	127.438	-113.213	-163.083	-157.272	-93.585	-72.534	-158.169	-152.151	-150.058	-146.215	-11.676	-148.347	-8191	255	
1404.905	1	1	0	0	0.3096	0.11334	0.18412	0.21514	0.13549	0.14894	0.13746	0.11498	0.38032	0.072901	0.1848	0.37533	0.1303	0.20355	0.12392	0.17181	-2.0104	-2.5812	-2.6063	-2.3396	-2.8	-2.6458	-2.675	-3.0333	-2.6688	-2.5	-3.0604	-2.45	-2.7125	-2.6333	-2.3979	-2.8812	4.909	-82.838	-164.320	-29.800	184.518	150.644	90.338	-81.763	146.636	171.803	21.960	124.083	113.829	66.325	8.288	-141.278	0.00038869	0.0003655	5.8542e-05	770.65	2.1681e-06	2.2298e-06	915.76	200.93	3.1845e-06	1.2059e-06	276.08	92.962	58.853	21.575	3.7912e-06	42.977	5.5594e-05	5.118e-05	1.4048e-05	694.26	5.5888e-07	5.5381e-07	821.12	179.22	5.6317e-07	5.4718e-07	238.47	79.478	50.008	18.651	5.6707e-07	36.285	-76.435	178.332	-72.618	-162.333	-68.229	-98.707	-163.112	-157.287	-36.968	-10.768	-158.140	-152.309	-150.140	-146.088	-30.661	-148.362	-8191	255	
#DATA ENDS
