BOXY.EXE: ISS Imagent and Oximeter Data Acquisition Program Version 0.80
Ascii Record File

#ACQ INFORMATION
2  Detector Channels 
16  External MUX Channels 
1  Auxiliary Channels 
5000  Waveform (CCF) Frequency (Hz)
1  Waveforms Skipped 
30  Waveforms Averaged 
1  Cycles Averaged 
16  Acquisitions per Waveform 
10.0806  Updata Rate (Hz) 

#FILE INFORMATION
TRUE -- External MUX Channel results are PARSED.
FALSE -- AC DC and Phase are NOT grouped.
TRUE -- Companion Program Settings File CREATED.
FALSE -- AC data not excluded
FALSE -- DC data not excluded
FALSE -- Phase data not excluded
FALSE -- Auxillary Chn. data not excluded
Tab delimiters

#CALIBRATION STATE
TRUE -- Waveform Calibration Values APPLIED.


#AUX CALIBRATION VALUES
Val Type	aux-1	

Term	1.0000e+00	
Factor	0.0000e+00	


#WF CALIBRATION VALUES
A = Detector Channel
Val Type	A-AC1	A-AC2	A-AC3	A-AC4	A-AC5	A-AC6	A-AC7	A-AC8	A-AC9	A-AC10	A-AC11	A-AC12	A-AC13	A-AC14	A-AC15	A-AC16	A-DC1	A-DC2	A-DC3	A-DC4	A-DC5	A-DC6	A-DC7	A-DC8	A-DC9	A-DC10	A-DC11	A-DC12	A-DC13	A-DC14	A-DC15	A-DC16	A-Ph1	A-Ph2	A-Ph3	A-Ph4	A-Ph5	A-Ph6	A-Ph7	A-Ph8	A-Ph9	A-Ph10	A-Ph11	A-Ph12	A-Ph13	A-Ph14	A-Ph15	A-Ph16	

Term	0.00000e+00	0.00000e+00	0.00000e+00	0.00000e+00	0.00000e+00	0.00000e+00	0.00000e+00	0.00000e+00	0.00000e+00	0.00000e+00	0.00000e+00	0.00000e+00	0.00000e+00	0.00000e+00	0.00000e+00	0.00000e+00	0.00000e+00	0.00000e+00	0.00000e+00	0.00000e+00	0.00000e+00	0.00000e+00	0.00000e+00	0.00000e+00	0.00000e+00	0.00000e+00	0.00000e+00	0.00000e+00	0.00000e+00	0.00000e+00	0.00000e+00	0.00000e+00	0.00000e+00	0.00000e+00	0.00000e+00	0.00000e+00	0.00000e+00	0.00000e+00	0.00000e+00	0.00000e+00	0.00000e+00	0.00000e+00	0.00000e+00	0.00000e+00	0.00000e+00	0.00000e+00	0.00000e+00	0.00000e+00	
Factor	1.00000e+00	1.00000e+00	1.00000e+00	1.00000e+00	1.00000e+00	1.00000e+00	1.00000e+00	1.00000e+00	1.00000e+00	1.00000e+00	1.00000e+00	1.00000e+00	1.00000e+00	1.00000e+00	1.00000e+00	1.00000e+00	1.00000e+00	1.00000e+00	1.00000e+00	1.00000e+00	1.00000e+00	1.00000e+00	1.00000e+00	1.00000e+00	1.00000e+00	1.00000e+00	1.00000e+00	1.00000e+00	1.00000e+00	1.00000e+00	1.00000e+00	1.00000e+00	X	X	X	X	X	X	X	X	X	X	X	X	X	X	X	X	

B = Detector Channel
Val Type	B-AC1	B-AC2	B-AC3	B-AC4	B-AC5	B-AC6	B-AC7	B-AC8	B-AC9	B-AC10	B-AC11	B-AC12	B-AC13	B-AC14	B-AC15	B-AC16	B-DC1	B-DC2	B-DC3	B-DC4	B-DC5	B-DC6	B-DC7	B-DC8	B-DC9	B-DC10	B-DC11	B-DC12	B-DC13	B-DC14	B-DC15	B-DC16	B-Ph1	B-Ph2	B-Ph3	B-Ph4	B-Ph5	B-Ph6	B-Ph7	B-Ph8	B-Ph9	B-Ph10	B-Ph11	B-Ph12	B-Ph13	B-Ph14	B-Ph15	B-Ph16	

Term	0.00000e+00	0.00000e+00	0.00000e+00	0.00000e+00	0.00000e+00	0.00000e+00	0.00000e+00	0.00000e+00	0.00000e+00	0.00000e+00	0.00000e+00	0.00000e+00	0.00000e+00	0.00000e+00	0.00000e+00	0.00000e+00	0.00000e+00	0.00000e+00	0.00000e+00	0.00000e+00	0.00000e+00	0.00000e+00	0.00000e+00	0.00000e+00	0.00000e+00	0.00000e+00	0.00000e+00	0.00000e+00	0.00000e+00	0.00000e+00	0.00000e+00	0.00000e+00	-4.66895e+01	-1.71885e+02	-1.35690e+02	-1.82083e+02	-8.59163e+01	-1.14521e+02	-1.56444e+02	-1.62015e+02	-7.42813e+01	-7.05972e+01	-1.70747e+02	-1.70713e+02	-1.80375e+02	-1.77189e+02	-9.09680e+01	-1.49288e+02	
Factor	2.09950e-05	1.03906e-04	2.22609e-05	1.60234e-01	1.01469e-06	8.15002e-07	1.69647e-01	5.29313e-02	7.74735e-07	8.33839e-07	8.72099e-02	3.32138e-02	3.12535e-02	9.37985e-03	8.50403e-07	1.38760e-02	3.92146e-07	3.96808e-07	1.10377e-07	7.58949e-02	4.34622e-09	4.34264e-09	7.54547e-02	2.47655e-02	4.34886e-09	4.34482e-09	3.81876e-02	1.43192e-02	1.37756e-02	4.22282e-03	4.34925e-09	5.90048e-03	X	X	X	X	X	X	X	X	X	X	X	X	X	X	X	X	



#DISTANCE SETTINGS
A = Detector Channel
A-1	A-2	A-3	A-4	A-5	A-6	A-7	A-8	A-9	A-10	A-11	A-12	A-13	A-14	A-15	A-16	

2.5000e+00	3.0000e+00	2.5000e+00	3.0000e+00	2.0000e+00	3.0000e+00	1.5000e+00	3.0000e+00	3.0000e+00	3.0000e+00	3.0000e+00	3.0000e+00	3.0000e+00	3.0000e+00	1.5000e+00	3.0000e+00	

B = Detector Channel
B-1	B-2	B-3	B-4	B-5	B-6	B-7	B-8	B-9	B-10	B-11	B-12	B-13	B-14	B-15	B-16	

1.0000e+01	1.0000e+01	1.0000e+01	1.4400e+00	1.0000e+01	1.0000e+01	1.5100e+00	1.9400e+00	1.0000e+01	1.0000e+01	1.9900e+00	2.4900e+00	2.4100e+00	2.9000e+00	1.0000e+01	2.9800e+00	




#DATA BEGINS
time	group	step	mark	flag	A-AC1	A-AC2	A-AC3	A-AC4	A-AC5	A-AC6	A-AC7	A-AC8	A-AC9	A-AC10	A-AC11	A-AC12	A-AC13	A-AC14	A-AC15	A-AC16	A-DC1	A-DC2	A-DC3	A-DC4	A-DC5	A-DC6	A-DC7	A-DC8	A-DC9	A-DC10	A-DC11	A-DC12	A-DC13	A-DC14	A-DC15	A-DC16	A-Ph1	A-Ph2	A-Ph3	A-Ph4	A-Ph5	A-Ph6	A-Ph7	A-Ph8	A-Ph9	A-Ph10	A-Ph11	A-Ph12	A-Ph13	A-Ph14	A-Ph15	A-Ph16	B-AC1	B-AC2	B-AC3	B-AC4	B-AC5	B-AC6	B-AC7	B-AC8	B-AC9	B-AC10	B-AC11	B-AC12	B-AC13	B-AC14	B-AC15	B-AC16	B-DC1	B-DC2	B-DC3	B-DC4	B-DC5	B-DC6	B-DC7	B-DC8	B-DC9	B-DC10	B-DC11	B-DC12	B-DC13	B-DC14	B-DC15	B-DC16	B-Ph1	B-Ph2	B-Ph3	B-Ph4	B-Ph5	B-Ph6	B-Ph7	B-Ph8	B-Ph9	B-Ph10	B-Ph11	B-Ph12	B-Ph13	B-Ph14	B-Ph15	B-Ph16	aux-1	digaux	

836.330	1	1	0	256	0.12523	0.1077	0.26719	0.062252	0.099954	0.15607	0.10451	0.28248	0.059685	0.21659	0.042615	0.26111	0.11318	0.29228	0.11329	0.2594	-1.8854	-2.7375	-2.6229	-2.3875	-3.0021	-2.525	-2.7104	-3.0083	-2.3208	-2.7604	-2.8375	-2.5271	-2.9562	-2.4542	-2.5604	-2.8688	212.748	-73.974	51.651	-59.696	-19.655	20.200	173.263	254.564	132.608	-25.907	175.989	172.472	-46.445	242.517	173.931	229.323	0.00016406	0.00055517	0.00010627	1093.4	7.1119e-06	3.8982e-06	1185.4	230.33	2.5985e-06	5.6261e-06	292.85	82.036	64.181	18.834	4.2431e-06	26.434	0.00032537	0.00032592	9.0842e-05	1050.9	3.5831e-06	3.604e-06	1138.3	227.11	3.6516e-06	3.6364e-06	285.45	83.005	66.214	19.995	3.6922e-06	27.339	-85.821	-60.961	26.059	-90.748	89.585	166.141	-90.275	-83.073	48.030	140.604	-83.375	-76.329	-76.097	-69.469	190.734	-69.716	-8191	255	
836.449	1	1	0	0	0.15623	0.22058	0.10104	0.15284	0.28612	0.25645	0.11616	0.22288	0.24062	0.21487	0.15317	0.24207	0.1417	0.19097	0.1774	0.28643	-2.0125	-2.6146	-2.7396	-2.5542	-2.9188	-2.6667	-2.6792	-3.0417	-2.2667	-2.7208	-2.8604	-2.4229	-2.9208	-2.7167	-2.4437	-3.0208	160.421	181.932	-78.994	154.365	116.291	215.219	99.814	103.517	167.593	209.503	135.040	245.080	60.422	129.063	137.810	15.798	8.78e-05	0.0004758	0.0001109	1092.5	7.1765e-06	3.8143e-06	1187.3	229.87	2.8565e-06	9.8174e-07	293.6	81.976	64.73	19.148	9.4155e-06	26.329	0.00033915	0.00034119	9.5531e-05	1057.7	3.8239e-06	3.8404e-06	1147.6	229.21	3.9185e-06	3.9424e-06	289.78	84.351	67.561	20.434	4.0578e-06	27.991	11.736	184.948	-90.997	-90.759	-30.866	102.728	-90.611	-83.107	-5.197	-10.984	-83.785	-76.507	-76.314	-69.664	52.230	-70.135	-8191	255	
836.546	1	1	0	0	0.069401	0.033964	0.48613	0.17833	0.072917	0.064445	0.12431	0.17302	0.15626	0.020853	0.10871	0.17189	0.42004	0.26606	0.22837	0.3214	-1.8896	-2.525	-2.7958	-2.4771	-2.9167	-2.5417	-2.3875	-2.9938	-2.4625	-2.6312	-2.9188	-2.4583	-2.7208	-2.6437	-2.3979	-3.1063	147.262	251.875	22.707	248.138	-99.199	19.952	-59.172	196.990	69.552	5.253	109.288	137.329	-87.754	231.598	245.836	218.097	0.00014376	0.00051073	5.5497e-05	1100.6	4.4698e-06	5.8376e-06	1193.2	232.45	3.727e-06	4.8172e-06	297.3	82.421	65.137	18.948	4.6402e-06	26.35	0.00037212	0.00037566	0.00010506	1068.5	4.1577e-06	4.1633e-06	1157.9	233.65	4.2246e-06	4.211e-06	294.44	85.859	68.694	20.697	4.2543e-06	28.347	16.720	204.573	-61.991	-90.572	168.621	17.741	-90.496	-83.194	192.658	82.460	-83.585	-76.480	-76.441	-69.859	-32.283	-69.996	-8191	255	
836.642	1	1	0	0	0.10242	0.10121	0.037525	0.052423	0.24635	0.097193	0.18782	0.09813	0.2069	0.053642	0.23813	0.13162	0.22325	0.32362	0.1768	0.21378	-2.075	-2.5792	-2.8521	-2.4083	-2.8479	-2.8771	-2.8271	-2.8333	-2.5396	-2.5792	-2.9604	-2.3292	-2.8021	-2.8354	-2.3854	-2.6688	24.798	28.274	-21.725	-99.063	124.375	-26.788	154.999	213.668	-44.900	201.974	226.680	225.198	-37.043	217.142	-91.916	61.840	0.00021855	0.0002801	2.7493e-05	1102.8	7.6576e-06	5.1317e-06	1200	233.66	1.4606e-06	4.6728e-06	298.06	83.086	65.807	19.054	6.6872e-06	26.528	0.0003892	0.00039051	0.00010876	1075.2	4.3219e-06	4.2758e-06	1165.2	235.74	4.3077e-06	4.3306e-06	296.82	86.51	69.389	20.953	4.4075e-06	28.595	-43.549	159.308	33.568	-90.720	-65.383	231.904	-90.517	-83.115	-98.024	-85.597	-83.332	-76.350	-76.299	-69.995	36.229	-70.270	-8191	255	
836.738	1	1	0	0	0.019054	0.32449	0.15657	0.21259	0.12473	0.29248	0.13215	0.24651	0.10261	0.16563	0.1027	0.04584	0.20781	0.23552	0.20649	0.073847	-1.9729	-2.3396	-2.7958	-2.6042	-2.8375	-2.8063	-2.2687	-2.9	-2.7625	-2.5604	-3.0458	-2.3729	-2.6125	-2.8063	-2.3354	-2.9604	131.149	-40.420	-51.416	212.571	-60.273	101.622	211.064	-49.567	-5.117	61.094	1.852	54.621	231.666	-37.744	-56.118	222.964	0.00021703	0.0006886	0.00016393	1107.8	5.9291e-06	2.456e-06	1204.7	238.3	2.9711e-06	6.1046e-06	299.86	84.147	66.186	19.329	3.1282e-06	26.844	0.00040071	0.00040656	0.00011345	1082	4.4719e-06	4.5346e-06	1173.7	239.93	4.6075e-06	4.6341e-06	301.74	88.379	71.414	21.516	4.7908e-06	29.418	-41.206	182.817	16.146	-90.619	141.855	-83.691	-90.549	-83.599	-50.779	105.000	-83.638	-76.268	-76.506	-69.640	53.847	-70.200	-8191	255	
836.834	1	1	0	0	0.12986	0.25433	0.15799	0.1399	0.063738	0.017989	0.29413	0.20763	0.15371	0.29809	0.14228	0.3088	0.086049	0.22348	0.013327	0.14802	-2.2979	-2.3021	-2.6708	-2.7188	-2.4979	-2.8208	-2.4	-2.7979	-2.5542	-2.45	-2.9708	-2.6542	-2.4146	-2.925	-2.4333	-2.9146	174.264	114.596	4.440	241.528	136.346	-67.447	250.347	53.225	138.183	236.696	183.291	241.510	27.331	230.260	245.699	-51.464	0.00012143	0.0011596	0.0002896	1119.4	1.2218e-06	2.1455e-06	1217.8	242.07	4.6699e-06	2.2252e-06	305.26	85.009	66.607	19.745	1.9474e-06	26.904	0.00043769	0.0004425	0.00012369	1099.1	4.8728e-06	4.8693e-06	1191.2	246.25	4.9059e-06	4.946e-06	308.58	89.871	72.57	21.87	4.9417e-06	29.701	-78.488	80.218	-58.045	-90.817	128.045	-57.949	-90.614	-83.337	-47.558	-18.605	-83.793	-77.100	-77.021	-69.966	75.891	-70.109	-8191	255	
836.930	1	1	0	0	0.29006	0.2482	0.1501	0.31834	0.11495	0.043136	0.23367	0.15652	0.25063	0.17587	0.15698	0.33636	0.37568	0.20269	0.18562	0.13062	-2.2958	-2.4021	-2.9854	-2.5125	-2.5125	-2.7625	-2.7125	-2.8667	-2.7542	-2.4396	-3.0021	-2.7542	-2.5896	-2.9375	-2.3937	-2.9313	231.416	86.512	-52.293	187.302	147.380	254.688	175.670	163.974	104.681	100.256	219.546	199.405	-11.901	227.920	224.031	158.867	0.00024632	8.0762e-05	0.00013392	1125.5	3.856e-06	4.8001e-06	1221.4	243.19	5.9573e-06	2.301e-06	306.53	85.276	67.472	19.781	3.0342e-06	26.926	0.00044526	0.00045107	0.0001263	1105.1	4.9395e-06	4.9594e-06	1193.8	247.41	4.9756e-06	4.9378e-06	309.85	90.237	72.922	22.007	5.0004e-06	29.8	-65.442	-1.225	-28.288	-90.729	91.695	172.917	-90.519	-83.509	-41.171	-51.709	-83.724	-76.947	-76.661	-69.754	250.731	-70.096	-8191	255	
837.051	1	1	0	0	0.088333	0.054371	0.17994	0.34703	0.17459	0.093645	0.17588	0.18746	0.070176	0.30757	0.29144	0.31023	0.11702	0.18762	0.10735	0.2193	-2.5229	-2.2021	-2.5917	-2.6167	-2.3583	-2.9646	-2.6	-2.7104	-2.9229	-2.3167	-2.9146	-2.8146	-2.375	-2.9354	-2.5042	-2.6688	184.452	22.738	81.009	219.608	137.120	8.513	128.435	38.027	97.883	-49.929	248.056	15.999	255.573	-33.207	-64.074	1.703	0.00014729	0.00054184	0.00024627	1121.8	6.0821e-06	2.4167e-06	1225.1	243.67	6.7087e-06	4.4398e-06	307.07	85.768	67.955	19.756	6.2772e-06	27.162	0.00045143	0.00045425	0.00012652	1105.7	4.9672e-06	4.9598e-06	1196.9	248.25	4.9598e-06	4.9614e-06	310.22	90.514	73.08	21.978	4.9231e-06	29.729	-87.623	104.241	-80.174	-90.797	161.362	-22.550	-90.678	-83.220	213.797	-66.828	-83.782	-77.151	-76.424	-70.008	196.217	-70.265	-8191	255	
837.145	1	1	0	0	0.11076	0.21684	0.028139	0.029819	0.14332	0.08961	0.23567	0.18604	0.16674	0.15199	0.128	0.088639	0.055465	0.078561	0.13891	0.27611	-2.4625	-2.2292	-2.7625	-2.7875	-2.425	-2.8604	-2.475	-2.8312	-2.8104	-2.4521	-2.6667	-2.7833	-2.3729	-2.7167	-2.5854	-2.3792	-28.587	140.747	90.213	165.711	119.717	17.196	234.486	244.990	-80.686	-26.195	-8.683	125.169	177.815	100.796	127.105	-4.352	0.00024514	0.00035482	0.00016984	1122.7	5.0386e-06	4.0479e-06	1222.5	244.09	2.2193e-06	2.0264e-06	308.44	86.142	67.542	19.957	8.5199e-06	27.206	0.00044655	0.00044962	0.00012475	1103.6	4.8924e-06	4.9004e-06	1194.4	248.15	4.9741e-06	4.9723e-06	311.32	90.918	73.452	22.179	5.0568e-06	30.021	-98.663	-65.919	35.333	-91.042	142.398	25.487	-90.493	-83.400	203.217	-33.388	-83.861	-76.911	-76.166	-69.932	-32.158	-70.086	-8191	255	
837.241	1	1	0	0	0.29909	0.044817	0.071011	0.24935	0.31614	0.16993	0.22251	0.19225	0.12398	0.085185	0.19695	0.14886	0.18779	0.03006	0.12106	0.16788	-2.3708	-2.4917	-2.7583	-2.7583	-2.2333	-2.8104	-2.8125	-2.4979	-2.8396	-2.5542	-2.7104	-2.8937	-2.3458	-2.8563	-2.6375	-2.4417	232.452	213.187	195.758	-71.437	113.142	-100.476	165.775	-41.997	17.086	12.436	251.952	239.743	-40.424	37.744	41.971	-21.567	0.00017519	0.00074912	0.00020003	1128.1	7.0835e-06	8.0354e-06	1220.9	245.11	2.875e-06	1.3738e-06	305.8	85.609	67.317	19.641	3.5398e-06	26.749	0.0004568	0.00046022	0.00012698	1106.7	4.9599e-06	4.9106e-06	1195.2	247.57	4.8225e-06	4.7916e-06	307.87	89.852	72.09	21.74	4.7095e-06	29.363	-74.933	-88.088	-14.128	-91.044	-14.107	150.458	-90.574	-83.414	47.064	-32.600	-83.758	-76.887	-76.552	-69.697	68.022	-70.461	-8191	255	
837.315	1	1	0	0	0.10767	0.22982	0.2098	0.38483	0.21297	0.052875	0.17035	0.23509	0.088186	0.13911	0.22936	0.23456	0.23868	0.16033	0.15575	0.083995	-2.5812	-2.5396	-2.6646	-3.0333	-2.3521	-2.7979	-2.7292	-2.6896	-2.9688	-2.4479	-2.7271	-3.0354	-2.2396	-2.9813	-2.5542	-2.5792	-41.287	146.754	194.245	201.386	174.339	120.569	-95.641	177.604	122.212	-65.076	162.698	100.751	247.055	-28.678	224.986	-100.195	0.00025485	0.00061656	4.253e-05	1123.7	4.1285e-06	5.1239e-06	1216.2	243	3.3348e-07	5.9355e-06	305.44	85.391	67.058	19.583	5.0803e-06	27.111	0.00043012	0.00043035	0.00012035	1101.6	4.7281e-06	4.7549e-06	1188.1	246.03	4.7484e-06	4.8009e-06	307.37	89.616	72.134	21.773	4.7769e-06	29.502	254.178	6.899	150.619	-90.856	-73.403	-93.040	-90.584	-83.375	117.498	19.620	-83.893	-76.692	-76.806	-70.621	231.117	-70.463	-8191	255	
837.434	1	1	0	0	0.056521	0.19462	0.19619	0.11233	0.20262	0.065053	0.10003	0.1995	0.23297	0.11069	0.23476	0.17223	0.15956	0.2827	0.17588	0.11383	-2.475	-2.4417	-2.6729	-2.9479	-2.375	-2.65	-3.025	-2.5417	-2.9125	-2.6937	-2.5896	-3.0354	-2.5854	-2.8104	-2.7354	-2.4313	9.691	183.031	6.377	200.981	138.322	166.002	240.696	114.888	133.560	-64.207	224.668	227.627	251.519	-69.522	-7.747	235.875	0.00014369	0.00053896	0.00015833	1120.4	5.9824e-06	3.7559e-06	1218.4	242.15	2.7519e-06	6.505e-06	303.4	85.31	67.207	19.618	7.3676e-06	26.883	0.00043198	0.00043221	0.00011939	1098.7	4.6782e-06	4.6396e-06	1185.3	244.09	4.6086e-06	4.5485e-06	304.02	88.595	70.985	21.407	4.533e-06	29.016	-8.615	97.483	223.838	-90.877	188.755	-3.550	-90.570	-83.365	173.968	24.679	-83.789	-76.634	-76.452	-70.124	180.186	-70.089	-8191	255	
837.530	1	1	0	0	0.047338	0.19856	0.11992	0.19275	0.10394	0.0803	0.055017	0.39474	0.28507	0.15478	0.29898	0.15468	0.17188	0.074593	0.044939	0.26521	-2.4437	-2.6979	-2.4375	-3.0333	-2.375	-2.7479	-3.0396	-2.4792	-2.875	-2.6229	-2.5208	-3.0083	-2.6958	-2.6813	-2.675	-2.3438	142.409	5.868	-52.644	181.544	256.539	127.985	-84.635	212.429	204.791	-2.082	228.978	-100.013	-47.466	195.505	233.726	168.348	8.4093e-05	0.00081407	9.4599e-05	1117.7	6.4941e-06	4.4858e-06	1210.8	241.52	4.624e-06	5.0989e-06	304	84.765	66.751	19.379	6.6025e-06	26.604	0.00040967	0.0004115	0.00011481	1091.2	4.5125e-06	4.4909e-06	1181	243.13	4.538e-06	4.5439e-06	303.39	88.394	70.94	21.326	4.5425e-06	28.996	240.348	-40.379	109.641	-90.776	-20.275	-10.519	-90.394	-83.302	11.704	64.190	-83.779	-76.818	-76.335	-70.084	-8.722	-70.133	-8191	255	
837.626	1	1	0	0	0.22896	0.12733	0.11115	0.25613	0.12792	0.20381	0.15382	0.27281	0.16652	0.074117	0.089429	0.10987	0.17775	0.15441	0.17073	0.19718	-2.4167	-2.6583	-2.3771	-3.1312	-2.5854	-2.55	-3.0479	-2.3542	-2.8208	-2.7229	-2.5687	-2.8417	-2.7062	-2.5625	-2.7542	-2.4229	33.132	241.467	1.714	-83.076	-29.485	-64.078	72.783	-5.194	-81.467	-52.787	-78.584	190.027	133.742	224.533	210.113	235.293	9.9868e-05	0.00043132	0.00010917	1116.1	3.8783e-06	5.4757e-06	1206.7	239.5	3.3073e-06	6.4184e-06	302.24	84.072	65.725	19.38	6.9759e-06	26.486	0.00041109	0.00041243	0.00011534	1088.7	4.4802e-06	4.4744e-06	1177	241.29	4.441e-06	4.4011e-06	300.63	87.211	69.773	21.023	4.3381e-06	28.447	53.125	187.257	125.305	-90.857	187.245	7.830	-90.589	-83.094	29.041	84.732	-83.876	-76.873	-76.430	-69.810	-22.599	-70.267	-8191	255	
837.722	1	1	0	0	0.11257	0.024696	0.073444	0.21665	0.15438	0.10866	0.21142	0.2033	0.10593	0.074248	0.19606	0.11587	0.24966	0.25613	0.041716	0.17595	-2.4542	-2.7625	-2.4354	-3.1583	-2.5708	-2.5792	-3.1083	-2.4542	-2.825	-2.7583	-2.4229	-2.9771	-2.4813	-2.6271	-2.9354	-2.5687	140.450	149.360	53.101	80.133	66.070	248.938	188.111	78.491	186.758	150.522	-92.581	-63.955	140.395	184.476	126.381	183.964	4.8845e-05	0.00063945	7.3306e-05	1115.2	2.9091e-06	5.9302e-06	1203.3	238.48	2.4648e-06	9.949e-06	302.21	84.192	66.006	19.059	1.9231e-06	26.487	0.00038788	0.00039077	0.00010895	1081.7	4.2463e-06	4.2449e-06	1171	238.95	4.3006e-06	4.3003e-06	300.12	86.994	69.825	20.993	4.4059e-06	28.641	-54.864	-40.429	6.516	-90.814	-26.052	-23.276	-90.416	-83.317	7.920	136.384	-83.435	-76.860	-76.200	-69.940	210.582	-70.256	-8191	255	
837.843	1	1	0	0	0.17814	0.020791	0.13453	0.056061	0.08969	0.23895	0.094524	0.28719	0.18006	0.10958	0.13833	0.052242	0.23917	0.075095	0.049231	0.15709	-2.5438	-2.9042	-2.6167	-3.0292	-2.7042	-2.2792	-3.1208	-2.4542	-2.7229	-2.8021	-2.4104	-2.8563	-2.6292	-2.3708	-2.9417	-2.65	-73.488	193.844	-57.863	153.648	-96.255	-29.243	-78.934	241.107	-12.142	-94.299	134.307	244.167	92.938	103.039	184.394	139.829	7.6042e-05	0.00028728	0.00019162	1111.5	3.4837e-06	1.1975e-06	1203.5	237.59	2.6297e-06	6.81e-06	299.71	83.836	65.256	19.092	5.3197e-06	26.497	0.00039993	0.00040195	0.00011216	1082.9	4.3674e-06	4.3707e-06	1172	239.13	4.3197e-06	4.2872e-06	298.56	86.568	69.095	20.773	4.1807e-06	28.219	232.163	97.909	84.359	-90.620	66.255	201.745	-90.340	-82.992	81.678	22.683	-83.842	-76.557	-76.545	-69.221	7.470	-69.874	-8191	255	
837.914	1	1	0	0	0.1609	0.18313	0.086681	0.24905	0.13846	0.10271	0.16887	0.2799	0.28472	0.031749	0.031129	0.071226	0.24061	0.30932	0.09237	0.020094	-2.3208	-2.8646	-2.3208	-2.8396	-2.6792	-2.5312	-3.0833	-2.6396	-2.6813	-3.1063	-2.5146	-2.9229	-2.7562	-2.4104	-2.8479	-2.4854	180.402	226.495	255.483	192.881	72.160	3.522	218.115	215.910	-88.833	-5.642	-64.446	-77.218	-90.389	55.987	232.577	242.585	0.00016522	0.00060128	0.00014622	1111.1	4.5188e-06	4.0207e-06	1203.4	236.48	3.6085e-06	2.032e-06	299.01	84.004	65.835	19.025	5.2642e-06	26.362	0.00037717	0.00038032	0.00010468	1077.3	4.1021e-06	4.1218e-06	1166.6	236.83	4.0992e-06	4.0801e-06	295.85	85.811	68.6	20.566	4.0714e-06	28.039	-94.526	247.615	1.289	-90.815	-19.263	42.588	-90.332	-83.027	-71.288	23.131	-83.743	-76.779	-76.481	-69.584	24.333	-69.643	-8191	255	
838.010	1	1	0	0	0.34792	0.2823	0.093936	0.20549	0.052617	0.13414	0.29019	0.065796	0.15231	0.07358	0.25819	0.1428	0.28543	0.068865	0.23316	0.20477	-2.1292	-2.8812	-2.4146	-2.9146	-2.6583	-2.4417	-3.0167	-2.7375	-2.3896	-3.0396	-2.7271	-2.7146	-2.7833	-2.3833	-2.8979	-2.7646	5.801	-96.968	104.761	-77.304	179.115	147.956	193.559	-83.848	182.162	128.829	189.936	-86.909	185.582	-53.995	191.105	116.276	0.00020434	0.00061379	4.3495e-05	1110.7	4.4632e-06	1.5709e-06	1207	236.61	3.0941e-06	9.6927e-06	300.02	83.301	65.403	18.889	2.6622e-06	26.452	0.0003686	0.00036818	0.00010274	1074.9	4.0044e-06	4.0023e-06	1162.7	235.4	3.9919e-06	3.9637e-06	294.55	84.986	67.806	20.374	3.9049e-06	27.717	235.991	-60.535	126.159	-90.669	31.821	200.313	-90.368	-83.195	109.536	28.708	-83.853	-76.565	-76.309	-69.762	140.295	-70.371	-8191	255	
838.131	1	1	0	0	0.27241	0.23982	0.34852	0.2882	0.30847	0.080605	0.22466	0.28943	0.03799	0.087197	0.2391	0.25425	0.10248	0.040261	0.29454	0.11384	-2.0563	-2.9021	-2.5125	-2.6833	-2.7562	-2.5333	-2.8479	-2.8438	-2.4979	-2.8896	-2.5021	-2.775	-3.0729	-2.5958	-2.7104	-2.8083	249.567	144.353	-48.447	-24.345	4.197	215.638	161.267	133.412	-36.260	-20.426	25.222	244.707	122.679	-21.327	-41.684	-95.144	6.2569e-05	0.00049025	0.00014814	1105.1	4.3946e-06	3.0225e-06	1204.9	236.56	2.6832e-06	6.941e-06	297.07	83.429	65.047	19.012	4.0532e-06	26.21	0.00035659	0.00035734	9.947e-05	1071.2	3.9696e-06	3.9646e-06	1162.9	235.56	4.0051e-06	4.0106e-06	293.66	85.436	68.078	20.491	4.0517e-06	27.86	-80.884	-100.399	-43.406	-90.721	44.473	37.140	-90.344	-82.783	58.030	77.397	-83.401	-76.635	-76.203	-69.248	121.218	-70.243	-8191	255	
838.226	1	1	0	0	0.12564	0.21019	0.1722	0.23683	0.14493	0.15286	0.072062	0.084482	0.015157	0.24832	0.21675	0.22638	0.10479	0.20312	0.14012	0.2134	-2.1479	-2.8312	-2.6021	-2.6688	-2.8792	-2.4167	-2.9938	-3.0896	-2.425	-2.9417	-2.8583	-2.4729	-2.9313	-2.4021	-2.8	-3.0708	247.965	228.748	-72.101	-27.359	13.789	123.091	196.486	190.577	241.300	25.023	89.686	-76.454	259.012	237.700	-26.104	141.219	0.00021338	0.00032645	8.1665e-05	1107.2	1.0436e-06	4.2249e-06	1202.3	234.96	5.8815e-06	8.5881e-06	297.16	82.671	65.852	18.962	5.9191e-06	26.23	0.00036778	0.00036841	0.00010174	1071	3.9936e-06	3.98e-06	1161	234.46	3.9843e-06	3.9472e-06	293.69	84.538	67.812	20.319	3.8855e-06	27.623	236.652	168.665	183.888	-90.764	125.141	-27.894	-90.469	-82.798	-67.756	49.692	-83.779	-76.414	-76.654	-69.584	-24.513	-70.039	-8191	255	
838.323	1	1	0	0	0.085711	0.24527	0.091228	0.20026	0.087052	0.20488	0.22284	0.13134	0.3624	0.11556	0.14797	0.068387	0.16245	0.19684	0.27661	0.1614	-2.1021	-2.875	-2.6729	-2.6063	-2.8187	-2.4979	-3.1604	-2.9646	-2.3479	-2.8542	-2.6125	-2.5708	-2.9292	-2.5958	-2.5646	-2.7896	143.893	41.369	30.931	223.663	-91.332	-97.958	218.422	246.354	13.154	16.483	187.859	-80.918	26.293	225.570	-26.670	194.272	6.7858e-05	0.00081559	4.435e-05	1100.2	7.7384e-06	5.1031e-06	1197.5	233.79	1.9521e-06	5.3098e-06	297.87	82.807	65.389	19.043	5.3467e-06	26.182	0.0003538	0.00035173	9.7087e-05	1065.1	3.8002e-06	3.7529e-06	1155.1	233.08	3.7796e-06	3.7886e-06	291.6	84.085	67.201	20.192	3.8647e-06	27.62	240.787	3.571	93.769	-90.723	-47.887	-98.624	-90.472	-83.183	-85.106	131.192	-83.622	-76.550	-76.410	-69.514	-33.114	-69.954	-8191	255	
838.442	1	1	0	0	0.039197	0.092342	0.25676	0.033566	0.20559	0.042821	0.2105	0.22535	0.089586	0.28282	0.23187	0.29072	0.098448	0.082372	0.16922	0.1377	-2.0146	-2.7271	-2.45	-2.6354	-3.0229	-2.6667	-2.8187	-3.1542	-2.3646	-2.8979	-2.9813	-2.4292	-3.075	-2.6188	-2.575	-3.0208	-56.932	-49.756	46.056	-30.966	85.805	111.601	25.111	-79.409	187.664	72.845	78.430	246.174	-28.551	-49.630	211.123	-65.838	7.9921e-05	0.00027521	8.1258e-05	1102.7	5.3379e-06	3.1593e-06	1197.1	235.34	2.5626e-06	2.6699e-06	297.64	83.138	65.485	18.794	2.6431e-06	26.387	0.00035316	0.00035658	9.9897e-05	1067.2	3.9269e-06	3.9369e-06	1157	234.14	3.9254e-06	3.9179e-06	292.89	84.789	67.624	20.242	3.8984e-06	27.657	-42.324	158.875	-88.387	-90.558	-2.251	33.785	-90.438	-83.198	-50.631	185.342	-83.706	-76.533	-76.395	-69.600	-45.491	-69.866	-8191	255	
838.538	1	1	0	0	0.42166	0.1325	0.067545	0.10157	0.16182	0.11269	0.059813	0.096867	0.06462	0.017652	0.12714	0.22986	0.23183	0.074472	0.070612	0.11327	-1.9208	-2.7687	-2.7479	-2.5333	-3.0021	-2.6833	-2.9396	-3.0687	-2.5	-2.6646	-2.75	-2.4417	-2.8292	-2.7104	-2.4938	-3.0396	28.854	184.338	7.499	-38.183	-7.087	231.662	107.482	216.646	-28.738	219.382	148.724	256.004	93.514	51.551	-15.627	176.743	0.00013559	0.0005365	7.0965e-05	1101.6	7.6126e-06	3.3399e-06	1201.4	234.18	3.5442e-06	3.7895e-06	298.15	83.005	65.47	18.981	4.5581e-06	26.511	0.00035311	0.00035497	9.9092e-05	1068.9	3.9046e-06	3.9094e-06	1157.7	234.03	3.9499e-06	3.9834e-06	293.9	85.01	68.185	20.432	4.0686e-06	27.983	-86.835	-82.331	-45.816	-90.659	113.450	31.012	-90.423	-83.047	125.422	92.542	-83.441	-76.494	-76.315	-69.602	-92.438	-69.906	-8191	255	
838.610	1	1	0	0	0.11801	0.045655	0.12272	0.24958	0.30119	0.16652	0.13293	0.34845	0.16937	0.21433	0.10846	0.17949	0.19066	0.11823	0.14487	0.21741	-2.0083	-2.5542	-2.8396	-2.6354	-2.9688	-2.65	-2.6146	-3.1583	-2.6688	-2.8146	-3.0687	-2.325	-2.9771	-2.8812	-2.6104	-2.8896	233.942	-42.535	-87.156	-97.186	137.219	-36.606	86.086	-76.397	81.465	126.241	-40.910	235.393	28.903	113.649	185.461	100.215	0.00018466	0.00028605	5.5194e-05	1101.4	5.0995e-06	5.0266e-06	1201.4	235.91	2.404e-06	1.9502e-06	299.15	82.848	65.422	18.97	2.5958e-06	26.306	0.00037144	0.00037321	0.00010356	1072.4	4.0628e-06	4.04e-06	1162.1	235.29	4.0252e-06	3.9862e-06	294.28	85.01	68.037	20.455	4.0203e-06	27.809	-33.335	54.600	150.293	-90.778	98.162	83.690	-90.546	-83.242	101.952	130.098	-83.846	-76.610	-76.440	-69.558	-4.371	-70.023	-8191	255	
838.731	1	1	0	0	0.12316	0.16213	0.054048	0.27036	0.37165	0.26565	0.22994	0.31696	0.054835	0.044018	0.2304	0.18154	0.40475	0.11292	0.027373	0.37283	-2.3208	-2.7271	-2.9458	-2.5687	-2.7042	-2.7125	-2.6771	-3.1063	-2.8	-2.45	-2.9854	-2.3458	-2.75	-2.925	-2.3833	-2.9208	23.300	-91.063	-12.877	185.070	141.698	108.476	-100.439	231.242	-50.303	182.744	146.270	2.646	73.769	14.545	160.007	-44.562	3.0177e-05	0.00021415	0.00013333	1106.5	3.2283e-06	3.459e-06	1201.5	236	1.8256e-06	1.1586e-06	298.39	82.813	65.651	19.031	2.3876e-06	26.249	0.00036205	0.0003666	0.00010184	1071.3	4.0184e-06	4.0006e-06	1161.8	234.78	3.9843e-06	3.9651e-06	293.44	84.774	68.065	20.363	3.9526e-06	27.65	-40.727	60.201	-26.325	-90.798	-60.440	19.729	-90.572	-82.992	152.548	-13.297	-83.605	-76.721	-76.075	-69.508	89.515	-70.099	-8191	255	
838.827	1	1	0	0	0.34391	0.15061	0.24536	0.37149	0.21471	0.12443	0.094292	0.17536	0.19495	0.17319	0.072127	0.12227	0.19599	0.032468	0.09127	0.12838	-2.3187	-2.5687	-3.0563	-2.6312	-2.6917	-2.6271	-2.5708	-3.0896	-2.6521	-2.3979	-3.0292	-2.5354	-2.8937	-2.8417	-2.4479	-2.9792	182.720	157.149	109.694	192.988	218.615	199.338	201.140	160.124	-34.710	251.994	-89.696	124.601	-88.310	226.510	-38.974	-43.706	4.7069e-05	0.00048829	0.00013229	1104.3	3.3489e-06	2.7798e-06	1203.3	235.2	2.1601e-06	6.654e-06	296.75	82.458	65.301	19.01	3.5688e-06	26.371	0.00036129	0.00036407	0.00010117	1071	3.9694e-06	3.973e-06	1160.1	233.93	3.9521e-06	3.9503e-06	292.67	84.519	67.705	20.292	3.9303e-06	27.706	-17.904	155.606	-3.235	-90.853	159.169	-23.732	-90.423	-83.172	0.618	-22.390	-83.612	-76.727	-76.497	-69.578	88.477	-69.891	-8191	255	
838.923	1	1	0	0	0.3566	0.13388	0.093248	0.26903	0.16498	0.20518	0.48644	0.1429	0.23456	0.13112	0.23093	0.018904	0.20374	0.057044	0.40417	0.18384	-2.3729	-2.4917	-3.0083	-2.8771	-2.5979	-2.7771	-2.6958	-2.9146	-2.6854	-2.6271	-2.9562	-2.5833	-2.5771	-3.1604	-2.3083	-2.9188	52.772	201.809	58.385	209.947	-20.320	60.591	200.248	174.197	-50.960	-21.211	31.973	110.317	150.228	255.872	173.024	-47.103	5.6084e-05	0.00016056	6.6707e-05	1100.2	5.4924e-06	1.5116e-06	1197.8	235.17	6.8304e-06	6.0744e-06	297.14	82.624	65.371	18.959	7.8066e-06	26.26	0.00035526	0.00036073	0.0001008	1068	4.0088e-06	4.0106e-06	1160.5	234.42	4.079e-06	4.0829e-06	294.34	85.17	68.394	20.57	4.1474e-06	28.06	124.712	55.469	-75.280	-90.506	33.896	101.056	-90.542	-83.063	232.728	33.637	-83.627	-76.606	-76.100	-69.464	48.694	-69.618	-8191	255	
839.019	1	1	0	0	0.04853	0.26387	0.21682	0.21079	0.18166	0.061134	0.18652	0.16796	0.076863	0.21685	0.27594	0.29494	0.12847	0.2042	0.025002	0.19933	-2.4771	-2.2333	-2.8812	-2.7604	-2.5021	-2.9958	-2.4854	-2.65	-2.7	-2.4	-3.1375	-2.5458	-2.7042	-3.0646	-2.6063	-2.6937	53.444	139.070	93.377	113.074	242.484	132.455	155.039	-82.312	-30.460	83.789	-74.196	225.984	127.080	-30.579	2.209	-94.277	0.00012768	0.00048125	0.00020345	1106.5	4.7581e-06	2.4283e-06	1198.5	236.21	3.2823e-06	1.1575e-06	298.03	83.346	64.88	18.849	3.9661e-06	26.262	0.00038254	0.00038381	0.00010737	1073.8	4.265e-06	4.2485e-06	1165.8	236.46	4.2693e-06	4.2382e-06	296.35	85.887	68.805	20.652	4.2023e-06	28.1	-63.497	-20.610	-4.000	-90.586	97.209	208.476	-90.454	-82.978	-70.909	30.057	-83.860	-76.633	-76.493	-69.692	134.625	-69.913	-8191	255	
839.140	1	1	0	0	0.055835	0.13065	0.11993	0.10577	0.13923	0.050333	0.24228	0.18632	0.12539	0.19817	0.15469	0.11905	0.25656	0.062716	0.34712	0.14048	-2.2896	-2.4542	-2.7979	-2.7729	-2.4958	-3.1063	-2.7375	-2.7583	-2.8958	-2.5208	-2.8479	-2.6354	-2.4979	-3.0708	-2.3646	-2.6771	-6.585	-59.910	-63.219	160.929	-69.688	-14.260	137.119	-73.295	-25.665	178.310	-31.865	178.022	233.325	-37.339	-7.674	211.695	0.00032592	0.0004081	0.00012102	1103.7	1.6482e-06	3.5989e-06	1198.6	235.87	2.5732e-06	3.6055e-06	297.94	82.861	64.882	19.022	2.2997e-06	26.283	0.0003806	0.00038148	0.00010551	1074.4	4.1416e-06	4.128e-06	1161.5	235.86	4.1581e-06	4.1462e-06	294.31	85.396	68.561	20.592	4.1936e-06	28.047	-83.976	138.674	-49.409	-90.699	114.795	-85.049	-90.347	-83.035	236.153	-5.820	-83.567	-76.609	-76.264	-69.245	-31.968	-70.122	-8191	255	
839.211	1	1	0	0	0.21219	0.27717	0.19027	0.051373	0.050709	0.20162	0.17637	0.15617	0.37011	0.1078	0.13555	0.27768	0.10128	0.12683	0.17638	0.055689	-2.5438	-2.4479	-2.8667	-2.7083	-2.5229	-2.8729	-2.6958	-2.7208	-2.7687	-2.425	-2.9708	-2.7521	-2.4271	-2.9	-2.525	-2.7167	15.565	-88.169	213.098	167.954	-89.944	147.474	-93.882	229.954	13.375	-58.872	104.346	253.894	229.344	122.397	-43.968	81.925	0.00021875	0.00052962	0.00010899	1109.6	1.4842e-06	5.5435e-06	1202.5	236.18	6.8055e-06	6.9743e-06	300.79	82.099	65.299	19.076	2.6103e-06	26.261	0.00038322	0.00038401	0.00010788	1077.7	4.218e-06	4.2158e-06	1164.4	236.36	4.2233e-06	4.1745e-06	295.93	85.433	68.606	20.623	4.1709e-06	28.059	-90.572	-57.731	-52.382	-90.797	194.809	-72.567	-90.408	-82.874	25.763	-44.099	-83.899	-76.852	-76.760	-69.752	126.526	-69.883	-8191	255	
839.308	1	1	0	0	0.23288	0.1572	0.20091	0.08271	0.093136	0.061966	0.21873	0.0085062	0.080084	0.041806	0.059638	0.2882	0.10841	0.26375	0.083588	0.034727	-2.4729	-2.4125	-2.75	-2.9542	-2.3708	-2.7875	-2.9062	-2.9313	-2.7792	-2.3958	-2.7083	-2.8167	-2.5333	-2.8063	-2.6396	-2.5458	-42.563	-6.437	-22.655	202.817	78.991	158.634	168.639	0.135	152.909	215.599	-36.819	193.592	-28.384	255.433	77.414	252.167	0.00013237	0.0011458	9.6659e-05	1109.1	7.9109e-06	2.9174e-06	1201	236.49	4.5281e-06	1.0469e-05	298.82	83.066	64.961	18.936	5.5831e-06	26.263	0.00038066	0.00038482	0.00010648	1076	4.1922e-06	4.1963e-06	1164.3	236.27	4.2212e-06	4.2016e-06	296.18	85.716	68.803	20.651	4.2674e-06	28.239	253.510	-52.979	258.283	-90.771	41.218	-100.672	-90.312	-82.996	-33.734	60.967	-83.583	-76.784	-75.763	-69.642	-61.575	-70.059	-8191	255	
839.404	1	1	0	0	0.1512	0.14742	0.25823	0.21504	0.17173	0.037638	0.3784	0.25316	0.27585	0.088364	0.24089	0.048124	0.13054	0.068741	0.15225	0.12591	-2.5438	-2.4604	-2.5958	-2.675	-2.4188	-2.7604	-2.7479	-2.5771	-2.7875	-2.4	-2.6708	-3.0104	-2.5062	-2.9813	-2.575	-2.6292	98.745	161.817	98.185	179.528	101.642	23.574	169.859	169.049	138.790	202.337	-25.356	200.974	-63.456	247.904	124.474	-9.271	8.197e-05	0.00066084	0.0002039	1109.5	5.6408e-06	1.4121e-06	1202.2	237	1.4314e-06	6.7218e-06	298.59	82.455	65.599	18.973	4.7256e-06	26.12	0.00038818	0.00039122	0.00010928	1079.4	4.3134e-06	4.3016e-06	1168	237.13	4.3039e-06	4.3179e-06	296.59	86.02	69.091	20.728	4.3069e-06	28.305	23.052	-5.826	-7.254	-90.835	52.318	253.846	-90.633	-82.890	111.013	89.617	-83.487	-76.534	-76.388	-69.736	242.309	-69.604	-8191	255	
839.523	1	1	0	0	0.17979	0.2928	0.31502	0.14529	0.10867	0.19338	0.10553	0.25615	0.1601	0.063559	0.18766	0.18978	0.26064	0.21054	0.0068118	0.015106	-2.5271	-2.5521	-2.5604	-2.9479	-2.4167	-2.7875	-2.9854	-2.575	-2.9083	-2.5479	-2.6312	-2.9604	-2.3854	-2.7458	-2.6854	-2.5708	256.969	218.675	49.957	204.272	150.232	160.766	155.750	227.552	117.816	-88.863	-67.570	183.148	248.090	197.535	112.984	-41.362	0.0001425	0.0005615	0.00011807	1112.1	2.4811e-06	2.488e-06	1202.7	235.26	2.0626e-06	5.9046e-06	299.31	83.321	65.609	18.973	4.2705e-06	26.393	0.00039017	0.00039364	0.00011043	1080.4	4.3362e-06	4.3551e-06	1168.3	237.07	4.3855e-06	4.389e-06	297.93	86.456	69.603	20.94	4.499e-06	28.559	-48.845	-3.337	144.914	-90.730	19.103	141.640	-90.407	-82.948	-62.359	101.589	-83.850	-76.315	-76.151	-69.778	-18.020	-69.827	-8191	255	
839.619	1	1	0	0	0.13617	0.17588	0.15832	0.1123	0.067304	0.2924	0.22824	0.15931	0.19517	0.18507	0.018835	0.086686	0.13495	0.07019	0.24777	0.13215	-2.4854	-2.5438	-2.5312	-3.0062	-2.5667	-2.6979	-3.0062	-2.2958	-2.6979	-2.525	-2.4146	-2.9792	-2.5292	-2.7646	-2.5938	-2.3146	250.803	167.898	176.189	257.065	37.096	167.002	133.518	156.245	153.365	43.570	-28.667	12.991	4.769	27.372	208.753	24.073	1.7199e-05	0.00025932	0.00019341	1106.6	5.2304e-06	5.1681e-06	1203	236.36	2.703e-06	3.7601e-06	298.94	82.665	65.925	19.202	3.666e-06	26.318	0.00040625	0.00041275	0.00011543	1083.2	4.5286e-06	4.5309e-06	1174.1	238.76	4.5922e-06	4.6277e-06	300.08	87.23	70.408	21.187	4.6373e-06	28.659	145.554	22.830	-77.736	-90.741	159.030	19.058	-90.389	-82.972	124.301	-57.879	-83.715	-76.595	-76.050	-69.635	129.739	-70.478	-8191	255	
839.715	1	1	0	0	0.22744	0.23981	0.059414	0.22307	0.15241	0.12981	0.20158	0.30097	0.092203	0.13716	0.21626	0.13911	0.35912	0.15839	0.054513	0.074564	-2.4208	-2.5979	-2.5396	-3.025	-2.5229	-2.5125	-3.0021	-2.3167	-2.8063	-2.6688	-2.4938	-2.8896	-2.5521	-2.6729	-2.8937	-2.4813	30.731	180.676	-11.712	242.659	-65.688	47.978	208.993	154.426	138.905	200.318	204.741	90.373	183.115	-23.798	225.906	75.521	0.00027572	0.00060524	9.584e-05	1107	3.7918e-06	7.4154e-06	1209.5	236.87	3.545e-06	6.9123e-06	300.59	83.226	65.71	19.091	2.1021e-06	26.448	0.00041928	0.00042061	0.00011637	1083.2	4.5627e-06	4.5549e-06	1175.5	239.17	4.5645e-06	4.5672e-06	300.5	87.216	70.334	21.155	4.658e-06	28.824	-50.483	-76.091	215.484	-90.630	117.113	-58.877	-90.407	-82.954	194.612	51.917	-83.527	-76.832	-76.470	-69.342	151.609	-69.798	-8191	255	
839.811	1	1	0	0	0.20406	0.12087	0.18553	0.18761	0.1146	0.25788	0.27973	0.35616	0.12232	0.018489	0.073219	0.18003	0.14005	0.024006	0.053829	0.22135	-2.4333	-2.7771	-2.3042	-2.9229	-2.6063	-2.375	-3.0604	-2.5354	-2.7083	-2.9021	-2.5563	-2.8042	-2.7125	-2.5771	-2.9125	-2.5479	68.595	215.284	182.978	216.801	135.337	-88.243	190.383	237.804	190.489	123.696	187.039	-90.158	27.999	185.721	131.224	-79.960	0.00023698	0.0002157	0.00014599	1106.5	2.9294e-06	3.6523e-06	1202.6	236.05	3.5551e-06	2.9236e-06	298.95	83.54	65.608	19.026	2.0258e-06	26.471	0.00042506	0.00043149	0.00011936	1086	4.7454e-06	4.7186e-06	1176	239.81	4.6874e-06	4.7019e-06	300.98	87.553	70.366	21.114	4.6476e-06	28.742	221.195	60.322	-83.835	-90.760	135.485	-93.749	-90.421	-83.030	-76.415	110.821	-83.538	-76.842	-76.462	-69.547	-98.177	-69.907	-8191	255	
839.907	1	1	0	0	0.19026	0.11501	0.13445	0.19167	0.10611	0.14632	0.035301	0.074318	0.23989	0.14214	0.166	0.19754	0.1659	0.020929	0.22333	0.21001	-2.375	-2.7104	-2.3917	-2.9688	-2.525	-2.3688	-3.075	-2.5646	-2.7125	-2.725	-2.3979	-2.8312	-2.6708	-2.4979	-2.9042	-2.7604	18.275	-80.670	138.768	187.420	111.295	162.048	50.398	258.671	10.169	-27.309	125.307	20.020	200.637	85.677	176.955	176.936	9.1649e-05	0.00088945	0.00015497	1111.2	6.8756e-06	7.0806e-06	1203.3	237.11	6.7983e-06	5.2842e-06	301.16	83.391	65.246	18.996	2.3376e-06	26.344	0.00042036	0.0004229	0.00011723	1086.6	4.6025e-06	4.614e-06	1174.9	239.21	4.5864e-06	4.5531e-06	300.9	87.051	70.101	21.118	4.6123e-06	28.688	238.706	216.284	20.088	-90.894	68.342	104.117	-90.487	-83.160	165.771	50.822	-83.596	-76.613	-76.230	-69.437	161.367	-69.900	-8191	255	
840.003	1	1	0	0	0.17474	0.14556	0.050663	0.26164	0.10563	0.08018	0.056704	0.10006	0.1272	0.16377	0.42936	0.16988	0.081149	0.18596	0.24569	0.16922	-2.4417	-2.6021	-2.3688	-3.0958	-2.7167	-2.4542	-3	-2.4437	-2.4333	-2.8312	-2.4479	-2.8583	-2.8021	-2.525	-2.7083	-2.6021	-52.043	182.674	-22.194	136.155	-17.197	254.722	-42.185	205.975	170.061	-27.410	113.110	132.062	89.010	-66.801	54.634	-35.492	0.00010745	0.00035593	2.7429e-05	1106.6	3.8349e-06	5.6515e-06	1210.9	236.91	1.5882e-06	3.223e-06	300.11	83.677	65.247	19.159	2.6197e-06	26.448	0.00041856	0.00041919	0.00011816	1085	4.6639e-06	4.6768e-06	1178.2	240.07	4.7281e-06	4.7243e-06	301.89	87.803	70.65	21.182	4.7292e-06	28.903	172.432	-81.944	-95.870	-90.682	-46.928	-79.954	-90.522	-83.284	59.531	155.943	-83.989	-76.666	-76.187	-69.890	151.652	-70.038	-8191	255	
840.124	1	1	0	0	0.18054	0.12759	0.34098	0.18266	0.058366	0.11231	0.40468	0.22156	0.1868	0.17931	0.035109	0.046142	0.42387	0.037865	0.09394	0.39865	-2.1021	-2.9708	-2.1292	-2.8021	-2.8667	-2.4562	-3.2396	-2.6208	-2.3875	-2.9417	-2.4875	-2.7792	-2.8542	-2.4417	-2.7229	-2.6	79.713	206.632	196.086	199.077	254.908	154.482	179.342	196.433	-23.478	177.005	5.335	-96.431	103.873	151.615	-21.522	170.868	0.00016527	0.00055307	0.00020414	1113	4.8342e-06	1.9357e-06	1209.2	236.6	2.1568e-06	1.6631e-06	298.65	82.427	65.583	18.966	2.3265e-06	26.283	0.00042764	0.00042959	0.00011978	1088.9	4.6558e-06	4.6638e-06	1177.5	239.73	4.6748e-06	4.6902e-06	301.14	87.545	70.579	21.152	4.7289e-06	28.835	150.205	179.577	1.001	-90.633	-31.628	139.162	-90.603	-83.195	11.826	12.271	-83.956	-76.757	-76.283	-69.630	-40.894	-69.981	-8191	255	
840.220	1	1	0	0	0.10022	0.1677	0.14891	0.31537	0.045762	0.11723	0.23598	0.28432	0.13389	0.054297	0.036894	0.048482	0.16262	0.07906	0.076039	0.05985	-2.0667	-2.9354	-2.4771	-2.7687	-2.7375	-2.1375	-2.9479	-2.8083	-2.2854	-2.9396	-2.5708	-2.7229	-2.7708	-2.2625	-2.7292	-2.7812	132.262	-80.702	-80.894	250.636	248.425	-94.281	196.186	-84.359	87.011	-16.510	47.667	16.878	232.910	186.322	235.009	-90.198	5.9033e-05	0.00056443	4.7601e-05	1112.8	7.6871e-06	4.6647e-06	1203.7	236.22	7.4974e-06	3.8834e-06	298.98	83.183	65.716	19.169	1.703e-06	26.472	0.0004312	0.00043324	0.00012072	1089.5	4.7769e-06	4.7872e-06	1177.9	240.3	4.823e-06	4.8199e-06	302.73	88.05	71.253	21.421	4.8959e-06	29.138	250.517	-48.416	129.152	-90.741	65.936	-23.074	-90.447	-83.352	24.152	142.911	-83.566	-76.787	-76.330	-70.544	76.447	-69.603	-8191	255	
840.315	1	1	0	0	0.10077	0.23758	0.17668	0.30778	0.13411	0.14006	0.10548	0.07118	0.058168	0.17867	0.3049	0.10245	0.13121	0.27228	0.1313	0.14919	-1.8833	-2.8396	-2.4271	-2.6188	-2.8937	-2.4167	-2.8729	-2.6896	-2.5021	-3.0083	-2.5062	-2.6833	-2.8979	-2.3208	-2.7417	-2.7458	-23.699	230.025	222.340	215.491	-63.664	85.420	-71.908	67.941	-68.667	-39.751	36.648	-94.890	237.876	-27.826	172.900	182.927	0.00017818	0.00027363	7.7021e-05	1113.5	9.6416e-07	2.9032e-06	1205.7	237.49	2.2305e-06	2.1417e-06	300.83	83.358	65.555	19.093	1.0514e-05	26.596	0.0004462	0.00044662	0.00012524	1093	4.8872e-06	4.9005e-06	1183	241.68	4.9183e-06	4.9134e-06	303.96	88.512	71.414	21.46	4.9858e-06	29.303	-45.752	-85.570	-48.097	-90.713	174.734	-67.710	-90.470	-83.241	14.576	123.592	-83.885	-76.884	-76.512	-69.177	-81.454	-69.952	-8191	255	
840.411	1	1	0	0	0.1225	0.3071	0.11337	0.36203	0.22834	0.10077	0.11456	0.047178	0.20609	0.1018	0.13977	0.17559	0.058101	0.1049	0.16438	0.27912	-1.9542	-3.0812	-2.5375	-2.7417	-2.9813	-2.55	-2.8063	-2.8271	-2.4896	-2.8708	-2.6708	-2.4958	-3.0312	-2.525	-2.8521	-2.7146	234.443	151.225	197.968	229.811	37.706	52.557	228.766	145.331	166.309	225.093	221.972	111.951	85.894	257.602	90.929	33.211	0.000174	0.00026339	4.209e-05	1115	4.7497e-06	1.721e-06	1210.8	237.32	5.096e-06	1.12e-06	298.58	84.024	65.615	19.061	1.7963e-06	26.768	0.00045061	0.00045189	0.00012649	1097.6	4.9626e-06	5.0035e-06	1185.9	242.78	4.9851e-06	5.0223e-06	304.92	89.103	71.713	21.621	5.0699e-06	29.502	-62.351	210.040	21.803	-90.791	70.765	74.517	-90.610	-83.075	96.669	27.406	-83.497	-76.405	-76.246	-69.913	-97.926	-69.855	-8191	255	
840.507	1	1	0	0	0.22031	0.088216	0.012406	0.2054	0.13765	0.21357	0.041096	0.096516	0.15591	0.13875	0.016594	0.12721	0.060508	0.18534	0.29578	0.20667	-2.0958	-2.8417	-2.7062	-2.7104	-3	-2.6646	-2.8542	-3.1354	-2.6562	-3.0333	-2.8792	-2.5604	-2.9854	-2.6813	-2.75	-3.0083	-26.268	96.861	-12.484	186.712	204.563	12.788	113.857	193.339	146.969	-42.317	127.148	221.644	163.075	-59.909	-52.710	-50.697	7.3775e-05	6.6609e-05	2.6981e-05	1116	2.7752e-06	2.5655e-06	1213.9	237.83	3.3373e-06	2.6503e-06	299.97	83.938	66.008	19.183	5.3e-06	26.393	0.00046028	0.00046633	0.0001292	1099.7	5.0865e-06	5.1144e-06	1190.3	243.82	5.1113e-06	5.1401e-06	306.29	89.375	72.342	21.724	5.1681e-06	29.575	167.409	-89.451	215.453	-90.576	202.335	113.333	-90.520	-83.097	91.191	112.787	-83.778	-77.033	-76.870	-69.593	-2.720	-70.092	-8191	255	
840.603	1	1	0	0	0.20615	0.1114	0.40944	0.11308	0.15192	0.14359	0.2442	0.26854	0.13896	0.047573	0.065892	0.018481	0.071561	0.06654	0.086414	0.17945	-1.9021	-2.8958	-2.7917	-2.6167	-2.9354	-2.675	-2.8479	-2.9625	-2.6104	-2.8646	-2.8958	-2.3937	-2.85	-2.4854	-2.3792	-3.0563	90.697	253.239	104.223	126.799	153.813	189.694	149.601	193.741	253.595	-27.837	32.980	67.924	150.218	153.482	85.893	99.939	0.00016654	0.00050195	0.00013029	1115	2.7611e-06	1.9473e-06	1211.9	237.31	4.5417e-07	4.3826e-06	299.04	83.499	65.761	19.223	3.1796e-06	26.537	0.00046713	0.0004715	0.00013164	1100.4	5.1568e-06	5.171e-06	1190.3	243.96	5.167e-06	5.168e-06	306.58	89.461	72.288	21.759	5.1738e-06	29.644	-87.127	243.074	15.543	-90.718	227.367	-69.294	-90.590	-83.208	139.826	255.036	-83.611	-76.587	-77.099	-70.091	254.935	-70.622	-8191	255	
840.699	1	1	0	0	0.015849	0.15539	0.30566	0.32273	0.13142	0.0092137	0.31881	0.11619	0.065561	0.2789	0.31122	0.16443	0.16223	0.11725	0.053561	0.10439	-2.1042	-2.7479	-2.8917	-2.5396	-2.8479	-2.4917	-2.7271	-3	-2.5854	-2.6458	-2.7583	-2.3542	-2.9625	-2.7208	-2.5417	-3.0062	109.516	25.449	32.174	-92.242	93.420	25.821	208.516	231.120	89.677	-86.035	-26.976	250.436	204.007	-33.949	112.620	214.342	0.00017289	0.0012083	0.00013856	1113.9	9.4442e-06	4.5026e-06	1214.4	238.32	4.3758e-06	4.7126e-06	300.44	83.909	65.945	19.157	2.5046e-06	26.569	0.00047069	0.00047241	0.00013177	1100.8	5.1776e-06	5.1748e-06	1189.8	243.84	5.1909e-06	5.1484e-06	305.72	89.447	72.336	21.744	5.1627e-06	29.569	-48.949	-28.735	-28.640	-90.609	222.494	-67.231	-90.392	-83.196	-54.964	157.019	-83.905	-76.608	-76.359	-70.173	235.901	-69.829	-8191	255	
840.820	1	1	0	0	0.13763	0.36169	0.19498	0.067358	0.18979	0.2209	0.054608	0.22779	0.1396	0.21497	0.19171	0.1091	0.18244	0.18681	0.12792	0.38027	-2.1979	-2.5479	-2.8833	-2.5021	-2.7062	-2.5687	-2.7188	-3.0354	-2.5583	-2.6229	-2.95	-2.4458	-2.6542	-2.8667	-2.4708	-3.0646	-90.108	-87.285	137.134	-10.523	-68.227	49.479	-20.151	142.914	62.830	-0.558	57.830	255.652	159.704	199.752	158.308	258.446	8.8635e-05	0.00055527	0.000137	1116.2	4.2078e-06	5.8855e-06	1214.4	237.25	3.4009e-06	3.9684e-06	300.34	83.475	65.997	19.295	3.1458e-06	26.497	0.00047059	0.00047731	0.00013156	1100.2	5.2273e-06	5.2539e-06	1191.4	244.46	5.2925e-06	5.3002e-06	307.89	89.83	72.824	21.91	5.3168e-06	29.812	-95.093	-59.035	241.371	-90.915	50.867	199.973	-90.343	-83.092	106.685	193.007	-83.668	-76.260	-76.058	-69.874	94.984	-69.909	-8191	255	
840.916	1	1	0	0	0.18569	0.15002	0.030204	0.02144	0.18582	0.23236	0.22069	0.21308	0.19166	0.28543	0.1741	0.28003	0.17467	0.28821	0.21591	0.12986	-2.2208	-2.5896	-2.9833	-2.5125	-2.65	-2.9833	-2.5917	-2.9562	-2.7104	-2.375	-2.8063	-2.6021	-2.7729	-2.7354	-2.2083	-2.7583	26.978	74.083	-27.960	162.929	86.584	-20.210	233.129	219.727	196.219	39.425	213.147	171.019	16.190	244.727	121.836	191.903	9.0503e-05	0.00028874	0.00031902	1116.5	5.0961e-06	4.5364e-06	1210.3	237.76	4.8562e-06	4.587e-06	300.55	83.304	65.681	19.251	3.3292e-06	26.483	0.00048088	0.0004839	0.00013375	1102.9	5.2453e-06	5.2674e-06	1191.2	244.65	5.2693e-06	5.2469e-06	306.83	89.615	72.461	21.873	5.2609e-06	29.791	-36.598	-53.203	256.897	-90.573	60.314	-57.181	-90.417	-83.310	-93.332	54.027	-83.770	-77.069	-76.509	-69.938	10.522	-70.679	-8191	255	
841.012	1	1	0	0	0.19729	0.11659	0.26788	0.29785	0.10725	0.23388	0.21306	0.31586	0.048425	0.1503	0.11369	0.14505	0.14294	0.1114	0.20828	0.073139	-2.0438	-2.3812	-2.8312	-2.6583	-2.5563	-2.8375	-2.5458	-2.95	-2.6708	-2.5542	-3.0021	-2.5792	-2.8583	-2.9083	-2.4208	-2.75	73.700	39.154	250.678	224.811	228.499	228.940	137.020	189.914	-35.759	241.543	-56.092	202.932	-69.703	-25.458	113.697	56.838	0.00019259	0.00029181	3.9125e-05	1114	3.4713e-06	3.4649e-06	1211.1	237.02	6.9616e-06	2.4541e-06	301.62	84.228	65.814	19.345	4.7808e-06	26.28	0.0004809	0.00048246	0.00013408	1102.8	5.3134e-06	5.3045e-06	1193.9	244.99	5.2813e-06	5.3163e-06	308.54	90.141	72.762	21.91	5.3046e-06	29.818	-82.536	123.838	-31.951	-90.670	-86.890	69.344	-90.521	-83.053	17.630	236.921	-83.779	-77.010	-76.598	-69.779	-55.313	-70.529	-8191	255	
841.084	1	1	0	0	0.13098	0.042113	0.23863	0.24206	0.095174	0.25608	0.2441	0.18542	0.19431	0.058845	0.18065	0.38361	0.033546	0.20658	0.11733	0.31342	-2.3187	-2.2833	-2.6875	-2.5271	-2.6312	-2.8021	-2.5896	-2.7958	-2.7479	-2.4854	-2.8896	-2.6833	-2.6271	-3.0458	-2.4667	-2.6271	241.147	202.838	114.894	141.945	-44.253	23.944	214.857	209.543	215.735	244.757	33.900	227.350	184.544	252.559	-52.683	-96.262	0.00016786	0.00047513	0.00020446	1114.8	2.401e-06	3.9933e-06	1208.7	238.39	1.1925e-06	5.0905e-06	301.77	83.603	66.014	19.251	4.0436e-07	26.641	0.00048524	0.00048574	0.00013499	1103.4	5.3356e-06	5.3061e-06	1191.9	245.37	5.3347e-06	5.2994e-06	308.56	90.157	72.877	21.949	5.3797e-06	29.934	-64.336	-87.773	71.204	-90.636	116.494	-2.284	-90.340	-83.133	184.286	229.337	-84.036	-76.634	-76.490	-69.754	-22.489	-70.231	-8191	255	
841.204	1	1	0	0	0.15282	0.13129	0.15603	0.31489	0.13261	0.18425	0.072263	0.26005	0.1606	0.24314	0.092695	0.19518	0.19428	0.19385	0.17457	0.1724	-2.3312	-2.4979	-2.7188	-2.6542	-2.5312	-2.9167	-2.5708	-2.85	-2.6333	-2.2958	-2.9188	-2.7125	-2.2604	-2.9771	-2.6312	-2.7083	71.462	182.635	193.142	-83.607	57.651	26.752	-14.595	234.775	-90.987	169.355	-78.150	247.011	-78.076	-12.285	183.008	133.603	0.00013008	0.00036965	0.00019289	1115	4.9999e-06	6.054e-06	1211.4	238.02	3.7008e-06	8.9912e-06	300.31	83.727	66.065	19.172	6.3531e-06	26.542	0.00048558	0.00049106	0.00013619	1105.9	5.3336e-06	5.3127e-06	1194.5	245.31	5.3224e-06	5.2802e-06	307.54	90.004	72.752	21.829	5.2907e-06	29.838	188.968	174.474	-98.169	-90.970	-94.203	68.622	-90.406	-82.990	-26.404	7.186	-83.783	-76.688	-76.643	-69.958	67.822	-69.981	-8191	255	
841.299	1	1	0	0	0.22463	0.1161	0.068871	0.09668	0.24499	0.1164	0.25786	0.16963	0.33774	0.089247	0.10633	0.14917	0.16343	0.13943	0.088982	0.21108	-2.3604	-2.2583	-2.7479	-2.6	-2.4646	-2.7646	-2.6479	-2.6167	-2.7833	-2.4958	-2.7896	-2.975	-2.4479	-2.8479	-2.5062	-2.5438	225.003	-19.020	-95.847	118.792	59.308	148.519	244.494	204.586	65.923	-5.853	-7.507	-55.388	-2.262	37.592	56.405	52.279	3.3631e-05	0.00093032	8.4052e-05	1118.3	5.2136e-06	4.6855e-06	1210.3	238.16	1.7134e-06	5.5998e-06	302.78	83.517	66.083	19.221	2.5652e-06	26.572	0.00048073	0.00048509	0.00013557	1107.1	5.3232e-06	5.3749e-06	1195	245.84	5.3396e-06	5.3612e-06	308.77	90.362	73.049	21.977	5.3924e-06	29.885	-15.699	-78.233	150.340	-90.733	161.534	215.964	-90.475	-83.281	238.828	222.536	-83.588	-76.506	-76.141	-69.818	197.153	-70.126	-8191	255	
841.395	1	1	0	0	0.33542	0.12341	0.13837	0.21013	0.010974	0.032888	0.21278	0.33369	0.20231	0.16811	0.32031	0.011249	0.14579	0.2081	0.1224	0.22624	-2.3854	-2.4125	-2.8583	-2.875	-2.2729	-2.8333	-2.7938	-2.6333	-3.0062	-2.3625	-2.5917	-2.9667	-2.3229	-2.7562	-2.5083	-2.5771	-32.274	-96.141	-91.194	184.173	79.424	209.652	179.269	181.058	251.022	64.599	248.114	-16.222	1.656	109.169	143.451	-79.013	0.00021969	0.00081553	0.00016759	1120.3	8.6775e-06	7.6323e-06	1210.9	238.07	3.9968e-06	1.6441e-06	301.71	83.719	65.824	19.198	4.4304e-06	26.464	0.00048437	0.00048756	0.00013621	1108.7	5.3202e-06	5.3587e-06	1195.4	245.7	5.3273e-06	5.354e-06	309.18	90.198	73.002	21.919	5.3323e-06	29.855	-44.783	-32.717	-20.116	-90.722	17.972	157.192	-90.598	-83.488	-20.834	61.823	-83.943	-76.756	-75.848	-69.493	69.871	-70.357	-8191	255	
841.493	1	1	0	0	0.13095	0.066818	0.16335	0.096965	0.11318	0.31249	0.25391	0.19798	0.21161	0.090224	0.26387	0.22092	0.10027	0.032266	0.12299	0.19713	-2.4792	-2.3958	-2.8146	-2.8208	-2.4813	-2.7604	-2.7583	-2.6208	-2.825	-2.4354	-2.8646	-2.9333	-2.3479	-2.6479	-2.5854	-2.6833	-44.996	254.412	-35.629	-40.753	208.212	251.122	143.127	254.689	56.461	13.999	181.215	185.972	167.223	158.797	137.080	-54.043	0.00019335	0.00046889	0.00012518	1115.5	9.5371e-06	3.2752e-06	1207.8	238.78	4.897e-06	2.5872e-06	301.42	83.335	65.772	19.245	7.9981e-06	26.546	0.00048081	0.00048342	0.00013339	1104.5	5.2321e-06	5.1883e-06	1190.5	244.34	5.1737e-06	5.1683e-06	306.86	89.225	72.241	21.7	5.1456e-06	29.514	-38.062	-1.013	233.605	-90.849	160.841	109.727	-90.574	-82.959	-21.513	173.780	-83.983	-77.026	-76.194	-69.869	-63.760	-69.865	-8191	255	
841.612	1	1	0	0	0.20713	0.43114	0.11442	0.15062	0.15157	0.20717	0.15378	0.19126	0.29994	0.1841	0.17066	0.049557	0.2026	0.12517	0.15113	0.2057	-2.5167	-2.3875	-2.5583	-2.9208	-2.3979	-2.7604	-2.9125	-2.4062	-2.9708	-2.4437	-2.5625	-2.9375	-2.2687	-2.725	-2.575	-2.3792	-53.351	19.010	55.892	181.469	251.308	8.978	-22.266	85.807	151.809	66.423	-53.919	255.156	-35.572	200.854	244.542	72.654	0.00014678	0.00022531	0.00023971	1116	1.0495e-05	2.92e-06	1209.2	238.28	5.376e-06	6.0265e-06	301.08	83.261	66.126	19.081	1.1419e-05	26.409	0.00046557	0.00047401	0.00013091	1101.7	5.1481e-06	5.1377e-06	1190.3	244.24	5.1718e-06	5.1801e-06	307.02	89.391	72.447	21.743	5.1415e-06	29.563	245.759	149.612	89.218	-90.534	72.665	205.577	-90.481	-83.040	48.674	116.372	-83.809	-76.648	-76.339	-70.209	22.933	-70.064	-8191	255	
841.708	1	1	0	0	0.092466	0.10778	0.37022	0.20302	0.2781	0.029607	0.35461	0.059634	0.14899	0.068682	0.12293	0.035407	0.073888	0.10895	0.25239	0.17099	-2.65	-2.7438	-2.4146	-3.0625	-2.2979	-2.6042	-2.8396	-2.3729	-2.7188	-2.5375	-2.5083	-3.0125	-2.4271	-2.7896	-2.8	-2.2438	-98.757	-30.125	-15.574	229.018	22.260	-23.088	114.672	194.401	118.237	258.148	166.701	97.501	13.368	-39.202	237.788	-66.567	7.0242e-05	0.00078086	6.9156e-05	1115.2	9.9463e-06	2.8572e-06	1206.5	238.79	1.9794e-06	5.1006e-07	300.98	82.54	65.994	19.291	4.298e-06	26.483	0.00046779	0.00046801	0.00013036	1100.1	5.0879e-06	5.0734e-06	1187.2	243.4	5.0592e-06	5.0606e-06	305.48	88.626	71.832	21.613	5.0308e-06	29.416	251.744	-75.547	-4.393	-90.752	-6.576	198.122	-90.480	-83.233	174.336	79.115	-83.614	-76.837	-76.279	-69.451	-23.754	-69.914	-8191	255	
841.804	1	1	0	0	0.062961	0.14651	0.17444	0.24048	0.12874	0.209	0.33323	0.35924	0.052634	0.054011	0.13158	0.25999	0.08632	0.24557	0.055831	0.43056	-2.3812	-2.6604	-2.3187	-3.0438	-2.4375	-2.6479	-2.9062	-2.5146	-2.6958	-2.5771	-2.3521	-2.9521	-2.6271	-2.5104	-2.6771	-2.4896	239.346	217.434	-93.144	-65.233	-92.420	145.517	99.167	228.624	55.416	-17.597	-90.562	-95.428	-100.756	3.630	138.882	-98.212	0.00031449	0.00041176	0.00014373	1115.8	3.3955e-06	1.8157e-06	1206.1	238	2.2335e-06	5.7663e-06	299.4	83.088	65.997	18.986	1.0872e-06	26.477	0.0004583	0.00045903	0.00012802	1098	4.9993e-06	5.0055e-06	1184.1	242.31	4.996e-06	4.927e-06	303.73	88.386	71.197	21.376	4.861e-06	29.089	246.156	-7.117	-5.951	-90.778	66.661	70.217	-90.492	-83.315	-42.615	-1.935	-83.656	-76.653	-76.075	-69.768	128.873	-70.267	-8191	255	
841.900	1	1	0	0	0.026601	0.14343	0.29797	0.095195	0.16008	0.20066	0.21412	0.21538	0.10899	0.18982	0.021459	0.23733	0.17689	0.16604	0.18661	0.37196	-2.1562	-2.675	-2.1896	-2.8396	-2.5021	-2.6042	-3.0125	-2.4833	-2.7042	-2.7458	-2.5417	-2.6708	-2.5771	-2.5083	-2.7875	-2.4292	-40.982	-2.144	-69.505	-40.724	171.504	202.383	140.061	150.079	241.031	-49.498	69.078	-18.709	242.696	-37.767	18.558	257.283	0.00019268	0.00029523	0.00017915	1112.4	7.7629e-06	5.3466e-06	1205.9	236.67	1.2501e-06	4.2516e-06	299.67	82.685	65.239	19.049	5.433e-06	26.321	0.00044005	0.00044186	0.00012327	1093.4	4.8409e-06	4.8378e-06	1182.3	241.41	4.8769e-06	4.849e-06	302.93	88.125	70.987	21.381	4.8633e-06	29.054	-54.403	-5.356	-12.917	-90.964	16.617	18.070	-90.666	-83.093	112.511	32.793	-83.868	-76.593	-76.168	-69.865	247.987	-69.877	-8191	255	
841.996	1	1	0	0	0.014314	0.21096	0.20472	0.23588	0.21563	0.28999	0.03306	0.19453	0.18707	0.063993	0.30143	0.14583	0.16573	0.20416	0.020046	0.13976	-2.3479	-2.7417	-2.4208	-2.9125	-2.4854	-2.5021	-3.0104	-2.4729	-2.5667	-2.8375	-2.5187	-2.7542	-2.6479	-2.4479	-2.9583	-2.4062	111.397	25.590	59.288	223.008	-82.940	219.913	244.095	229.554	225.740	146.722	-45.423	17.171	186.514	55.951	-45.626	-2.545	0.00020263	0.00062596	0.00010893	1109.9	5.5542e-06	2.2721e-06	1204.7	237.25	8.8358e-06	2.1001e-06	297.25	83.094	65.884	19.155	1.0784e-05	26.474	0.00044225	0.00044179	0.00012285	1090.5	4.8483e-06	4.8258e-06	1180.6	241.35	4.8782e-06	4.8636e-06	302.45	88.235	71.31	21.403	4.9093e-06	29.195	-0.029	-42.401	36.526	-90.750	253.595	16.483	-90.421	-83.020	15.163	199.315	-83.873	-76.905	-76.804	-69.978	-58.040	-70.247	-8191	255	
842.092	1	1	0	0	0.22924	0.23255	0.20563	0.15712	0.19956	0.098953	0.2388	0.1429	0.18168	0.13916	0.22391	0.33346	0.1036	0.028938	0.092579	0.18413	-2.3271	-2.9271	-2.2792	-3.0021	-2.625	-2.2625	-2.9708	-2.4875	-2.4354	-2.8187	-2.5146	-2.7292	-2.7542	-2.2646	-2.8729	-2.7208	177.025	68.775	136.227	253.107	-3.811	-78.281	163.693	196.260	21.617	-76.015	-100.622	201.127	247.655	195.588	190.667	84.900	0.00014057	0.00097259	0.00019054	1109.6	2.6275e-06	8.6424e-06	1207.6	236.07	3.434e-06	4.3013e-06	299.73	83.127	65.159	19.012	2.3547e-07	26.324	0.00044201	0.00044506	0.00012365	1092.5	4.8221e-06	4.8064e-06	1179.8	240.54	4.7901e-06	4.749e-06	301.42	87.726	70.411	21.179	4.7285e-06	28.881	-90.991	-98.434	35.490	-90.875	216.581	-8.587	-90.183	-83.100	222.832	164.076	-83.581	-76.693	-75.963	-70.094	52.221	-69.613	-8191	255	
842.213	1	1	0	0	0.11732	0.031289	0.21984	0.1469	0.12768	0.17023	0.31033	0.074671	0.34052	0.24042	0.098496	0.10351	0.24909	0.18833	0.24873	0.20626	-2.1896	-2.9625	-2.3125	-2.8229	-2.675	-2.3812	-3.0187	-2.5271	-2.4521	-2.8479	-2.5604	-2.7167	-2.6896	-2.1333	-2.8521	-2.75	37.952	-46.509	20.338	250.052	170.536	0.589	167.914	223.079	152.031	110.851	-91.131	-42.735	198.372	-73.100	41.837	66.200	0.00015684	0.00035542	9.205e-05	1111.8	3.2501e-06	3.2202e-06	1200.8	237.59	3.9935e-06	3.0365e-06	298.62	82.927	65.152	18.97	1.719e-06	26.194	0.00042949	0.0004317	0.00012032	1088.6	4.7214e-06	4.7032e-06	1176.7	240.23	4.7027e-06	4.7034e-06	300.65	87.349	70.212	21.079	4.6807e-06	28.746	-90.508	-77.361	-92.967	-90.690	230.664	161.666	-90.445	-82.988	92.957	-73.736	-83.678	-77.092	-76.599	-69.923	25.044	-70.056	-8191	255	
842.308	1	1	0	0	0.042276	0.11106	0.082797	0.14463	0.095817	0.099337	0.22684	0.23647	0.13267	0.22206	0.144	0.066627	0.058181	0.29655	0.25779	0.12462	-2.0854	-2.6562	-2.5479	-2.6	-2.8063	-2.3854	-3.1229	-2.7812	-2.4167	-2.9521	-2.4979	-2.7188	-2.7812	-2.2854	-2.7417	-2.7708	26.323	129.595	205.358	164.324	-35.482	248.802	178.501	183.009	186.501	-38.297	216.445	245.418	207.362	-67.656	156.284	209.211	0.0001686	0.0009585	0.00010379	1108.4	8.5078e-06	7.2652e-06	1203.1	236.51	1.6724e-06	4.9246e-06	297.16	82.661	65.035	18.949	5.2956e-06	26.446	0.00042113	0.00042509	0.00011767	1087.6	4.6177e-06	4.6211e-06	1174.9	238.92	4.5952e-06	4.5639e-06	299.23	86.808	69.805	20.948	4.5402e-06	28.595	63.798	-90.375	63.002	-90.669	44.545	48.229	-90.412	-82.898	236.505	198.515	-83.740	-76.879	-76.150	-69.988	65.028	-70.145	-8191	255	
842.381	1	1	0	0	0.19708	0.17559	0.1832	0.22992	0.18873	0.16457	0.2741	0.17598	0.09538	0.11282	0.20376	0.12029	0.41015	0.13162	0.052775	0.037912	-1.825	-2.9188	-2.3958	-2.65	-2.7646	-2.4938	-2.8125	-2.7146	-2.2188	-2.9229	-2.6958	-2.6188	-2.7979	-2.3917	-2.6937	-2.7792	149.036	93.215	19.242	252.673	131.325	240.556	167.202	190.509	172.715	9.424	125.301	254.333	98.484	109.872	258.508	-58.987	6.5586e-05	0.00067798	0.00019284	1102.9	1.0936e-05	3.7587e-06	1199.6	235.86	3.4829e-06	2.313e-06	299.72	83.015	65.839	19.011	6.717e-06	26.151	0.00041343	0.00041733	0.00011583	1084.5	4.5322e-06	4.5649e-06	1173.5	238.44	4.5642e-06	4.5791e-06	299.96	86.93	70.01	20.982	4.5535e-06	28.513	-80.603	38.800	-7.120	-90.635	228.096	-53.617	-90.364	-83.038	-2.720	122.970	-83.965	-76.551	-75.794	-69.033	-14.193	-69.716	-8191	255	
842.475	1	1	0	0	0.2807	0.22554	0.14992	0.15049	0.2795	0.085129	0.18175	0.09052	0.32349	0.21162	0.22666	0.22564	0.26283	0.049843	0.10552	0.25726	-1.8396	-2.7667	-2.4854	-2.7188	-2.8312	-2.5896	-2.8375	-2.7958	-2.3063	-2.875	-2.7042	-2.4229	-3.0021	-2.5208	-2.5625	-2.8458	-12.817	83.258	-36.361	185.856	251.814	254.311	166.862	130.612	-55.226	56.653	173.841	181.598	-79.963	127.027	31.836	90.078	0.0001305	0.0011438	0.00018081	1111.1	4.7531e-06	1.8594e-06	1206.6	235.5	3.4512e-06	4.5371e-06	298.84	83.16	65.032	19.026	1.0003e-06	26.097	0.0004122	0.00041458	0.00011511	1085	4.5209e-06	4.5199e-06	1173.5	238.28	4.4964e-06	4.4971e-06	298.62	86.595	69.273	20.85	4.446e-06	28.416	-24.962	-79.436	-96.636	-90.702	89.190	240.017	-90.291	-83.067	-9.226	76.667	-83.976	-76.403	-76.242	-69.292	44.334	-69.829	-8191	255	
842.596	1	1	0	0	0.13254	0.37967	0.16386	0.31762	0.15829	0.059611	0.25501	0.28566	0.21648	0.20356	0.079503	0.182	0.072634	0.031616	0.09232	0.17921	-1.9979	-2.8333	-2.6479	-2.5021	-2.8708	-2.4396	-2.8167	-2.9354	-2.2333	-2.8146	-2.7833	-2.4521	-2.9271	-2.5062	-2.6437	-2.8583	217.184	-38.118	60.464	200.621	20.121	-75.504	-92.587	215.371	87.667	69.348	257.668	142.608	-1.263	178.855	187.546	197.369	0.0001933	0.00028295	0.00030419	1104.4	5.6784e-06	5.0307e-06	1201.9	234.27	4.7129e-06	5.8275e-06	298.56	82.353	64.864	18.758	4.9454e-06	26.129	0.00040294	0.00040547	0.00011144	1078.4	4.39e-06	4.3544e-06	1169.6	236.19	4.367e-06	4.3236e-06	296.21	85.719	68.724	20.604	4.3217e-06	28.208	-81.947	-47.166	6.373	-90.639	133.731	41.715	-90.215	-83.083	195.810	-65.602	-83.467	-76.878	-76.155	-69.759	221.964	-70.104	-8191	255	
842.692	1	1	0	0	0.056507	0.037755	0.15286	0.28762	0.30043	0.28481	0.2876	0.46626	0.18653	0.14963	0.036513	0.0591	0.049949	0.13472	0.12512	0.20365	-1.9479	-2.6896	-2.6354	-2.2854	-2.9625	-2.4646	-2.7438	-3.0958	-2.4479	-2.7792	-2.8333	-2.2875	-2.8937	-2.6	-2.5979	-2.9958	-95.595	-49.607	-13.233	240.302	216.419	134.794	168.263	129.898	254.334	251.444	-18.661	89.451	166.485	-94.828	49.846	-34.203	0.00012905	0.00048706	0.000221	1112.5	2.1754e-07	4.2013e-06	1200.5	236.31	1.647e-06	9.3634e-06	300.08	82.201	65.102	18.959	3.2683e-06	26.268	0.0003958	0.00040172	0.0001117	1081.8	4.4626e-06	4.4821e-06	1170.4	238.12	4.5592e-06	4.5522e-06	299.25	86.778	69.817	21.049	4.6119e-06	28.622	252.928	137.794	231.074	-90.716	-90.287	-47.327	-90.433	-83.104	201.875	-22.356	-83.771	-76.776	-76.447	-69.383	-44.918	-69.881	-8191	255	
842.788	1	1	0	0	0.25491	0.25002	0.10459	0.054042	0.13332	0.21556	0.16444	0.16846	0.16283	0.027958	0.092089	0.32769	0.3089	0.10568	0.23695	0.067981	-2.0979	-2.7542	-2.7188	-2.4458	-2.7667	-2.5687	-2.8187	-3.0625	-2.3438	-2.6937	-3.1083	-2.4896	-2.7208	-2.7188	-2.4062	-3.175	123.413	149.966	232.181	-13.911	169.044	93.857	124.765	225.976	-65.524	144.094	60.763	-100.550	-64.542	244.877	151.978	156.929	0.00022208	0.00085055	0.00011111	1105.2	7.4637e-06	7.2288e-06	1207	235.79	2.0725e-06	7.0397e-06	297.4	83.166	65.042	19.008	6.2517e-06	26.111	0.00041794	0.00042057	0.00011777	1084.4	4.6297e-06	4.6287e-06	1174.5	238.64	4.6031e-06	4.6259e-06	298.51	86.97	70.084	21	4.5798e-06	28.455	-75.957	-75.558	-98.017	-90.700	141.346	15.987	-90.563	-83.089	49.303	-85.276	-83.572	-76.243	-76.500	-69.498	27.468	-70.151	-8191	255	
842.884	1	1	0	0	0.070359	0.21424	0.079749	0.42817	0.13519	0.14626	0.44074	0.16399	0.16418	0.03601	0.22782	0.22367	0.13798	0.07836	0.29885	0.16427	-2.1375	-2.6729	-2.8187	-2.5438	-3.0354	-2.6604	-2.5104	-2.9021	-2.4292	-2.5938	-2.7938	-2.4958	-2.7375	-2.7583	-2.2062	-2.8	211.040	17.593	12.742	229.736	200.970	-67.589	160.834	222.311	114.981	253.564	252.776	188.973	154.607	244.572	37.010	223.040	5.2776e-05	0.00093639	0.00015456	1109	2.7291e-06	4.775e-06	1204.2	235.65	3.4682e-06	4.7625e-06	298.21	83.228	65.272	18.905	3.0696e-06	26.056	0.0004132	0.00041838	0.00011641	1083.6	4.6007e-06	4.5699e-06	1172.8	238.64	4.5991e-06	4.6048e-06	298.95	86.981	69.696	21.018	4.6257e-06	28.56	-37.369	-60.712	186.858	-90.618	-53.706	-6.076	-90.325	-83.012	-42.912	60.655	-83.955	-76.651	-76.098	-69.756	36.578	-69.543	-8191	255	
842.981	1	1	0	0	0.14458	0.12783	0.20595	0.09693	0.083789	0.071944	0.41235	0.060033	0.045777	0.19309	0.023519	0.25363	0.40196	0.099265	0.21772	0.12793	-2.2458	-2.5583	-2.9146	-2.5771	-2.7	-2.8167	-2.4646	-2.7812	-2.5333	-2.5354	-3.05	-2.4771	-2.575	-2.8167	-2.3521	-2.9354	47.523	258.191	-36.837	197.948	203.302	-39.596	202.273	15.084	-41.914	94.451	244.703	203.286	154.476	80.198	119.774	214.934	0.00011506	0.00067607	0.00011623	1106	2.8076e-06	1.2099e-06	1204.3	235.48	5.932e-06	3.0674e-06	298.44	82.707	65.02	18.951	3.9332e-06	26.288	0.0004199	0.00042521	0.00011815	1084	4.6399e-06	4.6383e-06	1175.1	239.05	4.7134e-06	4.7161e-06	299.49	87.445	70.281	21.12	4.7392e-06	28.857	-48.064	218.619	-22.702	-90.831	-70.483	155.990	-90.558	-83.104	121.779	32.235	-83.918	-77.012	-76.603	-69.650	125.937	-69.670	-8191	255	
843.077	1	1	0	0	0.27517	0.33278	0.2309	0.35636	0.24462	0.15431	0.24554	0.2849	0.11299	0.090835	0.22853	0.1468	0.26123	0.090711	0.20287	0.19547	-2.3333	-2.3521	-2.9271	-2.7958	-2.55	-2.8229	-2.5542	-3.0167	-2.5958	-2.425	-3.075	-2.5396	-2.6271	-3.0042	-2.425	-2.7792	-58.767	-20.369	19.579	225.538	67.818	248.845	-99.318	159.289	-80.021	-97.706	230.565	168.500	180.570	204.154	-39.674	233.163	7.1563e-05	0.00031985	0.0001154	1108	7.2831e-06	9.6135e-06	1204.6	237.04	1.9979e-06	4.1435e-06	298.56	82.868	65.447	19.059	2.9379e-06	26.239	0.00043313	0.000435	0.00012123	1088.9	4.7979e-06	4.7522e-06	1176.9	240.13	4.81e-06	4.7819e-06	300.58	87.33	70.562	21.169	4.7068e-06	28.771	184.898	-75.467	127.725	-90.910	-55.534	1.219	-90.397	-83.018	-6.120	156.276	-83.301	-77.074	-75.883	-69.757	-35.033	-70.002	-8191	255	
843.173	1	1	0	0	0.39136	0.16566	0.073363	0.46354	0.227	0.09473	0.22205	0.29874	0.088746	0.097915	0.33872	0.10967	0.0038774	0.1587	0.036399	0.14403	-2.2396	-2.3771	-2.9396	-2.7979	-2.6437	-2.8521	-2.6	-2.825	-2.5917	-2.1979	-2.8729	-2.575	-2.55	-2.925	-2.3833	-2.8292	142.922	48.415	-81.400	251.242	182.881	231.080	-62.695	251.771	231.149	173.298	-8.272	112.309	187.640	-67.971	-1.920	235.398	0.00014997	0.00051558	9.198e-05	1106.7	3.4023e-06	6.4274e-06	1199.5	235.47	5.0792e-06	4.7572e-06	298.36	82.989	65.396	18.96	3.1535e-06	26.218	0.00042788	0.00042925	0.00011872	1085.5	4.6681e-06	4.6451e-06	1173	239.06	4.6343e-06	4.6544e-06	299.16	86.998	69.988	20.979	4.6268e-06	28.587	2.111	-8.404	-29.259	-90.764	255.088	-65.971	-90.257	-83.223	197.156	53.509	-83.921	-76.738	-76.287	-69.773	21.319	-69.737	-8191	255	
843.293	1	1	0	0	0.10549	0.18315	0.1959	0.34664	0.25286	0.18581	0.10167	0.15286	0.27512	0.032241	0.12747	0.23536	0.17585	0.18794	0.13462	0.15996	-2.4792	-2.2938	-2.8229	-2.5021	-2.6792	-3.0333	-2.5896	-2.8187	-2.8083	-2.5687	-2.9771	-2.65	-2.4958	-2.9708	-2.3375	-2.8104	133.958	32.265	-22.684	254.013	131.287	47.219	209.742	247.723	134.519	-26.200	-27.797	37.444	-29.430	-20.786	97.879	109.695	0.0001365	0.00071971	0.00014011	1104.8	1.6805e-06	2.764e-07	1204.5	234.86	4.2338e-06	4.4331e-06	297.39	82.139	65.156	18.877	3.8804e-06	26.132	0.00041541	0.00041974	0.00011564	1082.6	4.5036e-06	4.5101e-06	1172.6	237.18	4.5029e-06	4.5453e-06	298.28	86.318	69.49	20.906	4.5655e-06	28.474	246.229	-12.882	23.756	-90.944	160.528	180.124	-90.464	-82.975	195.574	15.702	-83.982	-76.779	-76.259	-69.434	112.636	-70.401	-8191	255	
843.388	1	1	0	0	0.1618	0.36836	0.14757	0.036759	0.084128	0.11775	0.057319	0.27542	0.31677	0.10726	0.30001	0.20227	0.24244	0.072894	0.20127	0.20343	-2.4896	-2.4042	-2.9271	-2.7146	-2.4833	-2.9375	-2.5854	-2.7062	-2.8167	-2.4833	-2.8208	-2.6458	-2.4729	-2.9542	-2.5125	-2.6958	192.106	-91.758	12.824	242.427	233.063	86.666	133.794	167.945	256.595	229.112	201.980	258.480	56.610	124.557	86.877	211.345	0.00019803	0.00031401	7.1519e-05	1104.9	1.4898e-06	2.4855e-06	1201.1	234.47	2.1237e-06	4.0794e-06	295.92	82.211	65.01	18.844	5.7208e-06	26.239	0.00041174	0.00041626	0.00011635	1082.9	4.5312e-06	4.52e-06	1168.6	236.91	4.5129e-06	4.5255e-06	297.33	86.412	69.683	20.893	4.5378e-06	28.441	230.990	-75.666	39.697	-90.804	112.669	16.098	-90.306	-83.002	97.328	-1.270	-83.597	-76.806	-76.142	-69.109	110.433	-69.812	-8191	255	
843.486	1	1	0	0	0.030891	0.063608	0.23018	0.4425	0.13015	0.11077	0.13483	0.14299	0.11988	0.30872	0.3806	0.09965	0.090555	0.16895	0.19802	0.10057	-2.4562	-2.2292	-2.625	-2.6667	-2.3229	-2.8917	-2.7479	-2.6333	-2.8563	-2.3229	-2.8812	-2.7646	-2.5208	-2.95	-2.6646	-2.4021	29.439	-76.935	-37.332	174.736	164.336	221.373	-43.294	141.043	104.219	150.741	230.498	161.620	-59.571	195.947	-12.815	1.536	0.00017477	0.00037496	8.0205e-05	1106.3	8.9854e-06	2.7103e-06	1204.7	235.05	3.6391e-06	5.7139e-06	298.7	82.875	64.901	18.897	1.456e-06	25.94	0.0004168	0.00041615	0.00011537	1080.3	4.4852e-06	4.4662e-06	1168.7	236.47	4.3934e-06	4.4261e-06	296.69	85.884	68.997	20.717	4.3697e-06	28.127	239.425	-81.449	-92.872	-90.820	-56.800	148.860	-90.565	-83.010	51.746	58.391	-83.615	-76.665	-76.227	-69.482	43.436	-70.056	-8191	255	
843.605	1	1	0	0	0.10806	0.24626	0.21441	0.10478	0.14681	0.16475	0.16016	0.22627	0.14472	0.21804	0.12911	0.1574	0.055246	0.1375	0.026873	0.1195	-2.4792	-2.3708	-2.7396	-2.8521	-2.3542	-2.8187	-2.8542	-2.6583	-2.75	-2.3	-2.7167	-2.8271	-2.4396	-2.7313	-2.7417	-2.5875	46.612	134.482	20.693	-93.621	0.782	-9.121	189.919	159.347	-72.760	244.386	213.399	218.034	-74.854	19.268	200.105	184.268	8.833e-05	0.0010608	0.00015304	1104.6	2.8916e-06	5.1792e-06	1200.1	234.98	2.8617e-06	3.7204e-06	295.26	82.493	64.38	18.96	1.8437e-06	25.987	0.00039681	0.0004007	0.00011112	1079.1	4.3572e-06	4.3541e-06	1166.5	236.2	4.3232e-06	4.3155e-06	294.85	85.625	68.58	20.601	4.2952e-06	28.001	72.944	211.900	-19.600	-90.694	-34.683	111.196	-90.434	-82.848	204.775	65.877	-83.884	-76.190	-76.172	-69.284	2.288	-69.692	-8191	255	
843.676	1	1	0	0	0.29848	0.20017	0.22317	0.24067	0.10536	0.19071	0.22529	0.15415	0.26196	0.10295	0.04322	0.19931	0.084292	0.2938	0.26168	0.16016	-2.5875	-2.3333	-2.6021	-2.8917	-2.4688	-2.5812	-2.9313	-2.5021	-2.9354	-2.3229	-2.675	-3.1896	-2.4542	-2.8042	-2.7375	-2.575	243.234	-83.985	-10.949	249.197	230.067	179.441	222.517	-71.672	56.688	-61.355	86.316	-56.062	248.618	230.909	246.781	127.622	8.2236e-05	0.00060044	0.00013719	1099.6	2.0535e-06	6.0674e-06	1201.1	236.08	2.4866e-06	1.2793e-06	295.77	82.002	64.541	18.949	1.6215e-06	26.013	0.00039162	0.00039238	0.00010888	1074.3	4.3286e-06	4.2886e-06	1165	235.59	4.2461e-06	4.2266e-06	294.31	85.142	68.214	20.458	4.1206e-06	27.741	223.876	182.999	68.603	-90.671	229.803	-65.080	-90.335	-82.979	140.689	54.025	-83.673	-76.319	-76.435	-69.201	97.748	-70.168	-8191	255	
843.773	1	1	0	0	0.16477	0.2733	0.10546	0.40887	0.031325	0.08229	0.25455	0.21455	0.16926	0.14	0.25198	0.093619	0.15137	0.26069	0.069246	0.14402	-2.6021	-2.575	-2.5646	-2.9104	-2.4917	-2.5875	-2.9521	-2.4437	-2.7979	-2.5812	-2.6021	-2.8937	-2.6417	-2.9417	-2.7917	-2.4875	86.596	169.216	-76.561	250.016	-5.517	92.566	145.420	-86.253	14.313	117.345	123.488	41.265	55.485	216.087	-62.573	183.044	6.0044e-05	0.00052443	0.00018273	1106.8	3.5875e-06	8.2695e-07	1198	234.11	4.5069e-06	2.346e-06	294.57	82.083	65.094	18.844	1.7953e-06	26.186	0.00037205	0.00037537	0.00010341	1071.5	4.0793e-06	4.0706e-06	1159.1	233.7	4.0901e-06	4.1097e-06	292.06	84.907	67.926	20.394	4.165e-06	27.841	148.320	-69.774	172.341	-90.692	145.655	227.144	-90.444	-82.855	232.104	159.240	-83.301	-76.799	-76.707	-69.542	3.985	-70.189	-8191	255	
843.893	1	1	0	0	0.20171	0.15225	0.21035	0.15542	0.21209	0.23037	0.16304	0.065515	0.10286	0.084928	0.038872	0.036006	0.077278	0.18115	0.12231	0.1216	-2.5812	-2.6979	-2.4875	-3.1146	-2.4958	-2.4667	-2.9646	-2.4479	-2.8083	-2.525	-2.4729	-2.9938	-2.7854	-2.5729	-2.9313	-2.4917	118.781	27.921	56.196	139.471	250.464	183.507	87.899	52.087	248.055	194.170	199.360	200.288	-72.100	193.517	86.366	140.451	0.00012259	0.00053149	7.2892e-05	1100	3.1059e-06	3.1141e-06	1193.2	233.69	2.2502e-06	4.6447e-06	295.42	82.269	65.039	18.773	4.1672e-06	26.293	0.00037724	0.00038121	0.00010538	1069.9	4.1614e-06	4.1572e-06	1157.9	234.06	4.1509e-06	4.1706e-06	293.04	85.009	68.171	20.443	4.1722e-06	27.851	-42.618	76.039	209.936	-90.760	3.820	214.052	-90.364	-82.942	-87.707	113.944	-83.894	-76.412	-76.497	-69.679	126.212	-70.217	-8191	255	
843.989	1	1	0	0	0.10573	0.15171	0.26325	0.23429	0.055095	0.3968	0.26233	0.026156	0.2401	0.11178	0.19548	0.16698	0.054553	0.1123	0.17029	0.24989	-2.2708	-2.5333	-2.4875	-2.9688	-2.4896	-2.5667	-3.1146	-2.6021	-2.6	-2.7896	-2.225	-2.975	-2.7146	-2.3312	-3.0854	-2.3438	24.530	27.154	-25.508	232.687	81.862	43.218	63.354	54.909	20.141	-58.679	183.819	-46.143	171.696	241.204	-18.991	128.988	0.00016931	0.00020519	0.00015014	1106.5	3.5507e-06	5.4903e-06	1191.5	233.33	1.5546e-06	2.8752e-06	295.99	81.867	64.29	18.721	4.4596e-06	25.905	0.00037684	0.00037886	0.00010539	1071.1	4.1437e-06	4.1257e-06	1158.7	233.67	4.1269e-06	4.1148e-06	292.72	84.832	67.933	20.358	4.1204e-06	27.709	243.470	-3.944	241.124	-90.662	18.595	-67.997	-90.423	-82.900	-46.603	109.669	-83.645	-76.828	-76.168	-69.229	10.029	-70.012	-8191	255	
844.085	1	1	0	0	0.20859	0.15555	0.39913	0.24174	0.10701	0.05882	0.13979	0.13494	0.032939	0.10018	0.13492	0.22355	0.19134	0.13024	0.19601	0.088876	-2.3083	-2.7854	-2.3	-2.9188	-2.4479	-2.4292	-2.8833	-2.5438	-2.5979	-2.8521	-2.2833	-2.5687	-2.7812	-2.4583	-3.0396	-2.6021	141.516	8.601	14.656	224.246	93.357	99.179	-57.569	-61.344	142.314	-39.768	-23.832	133.697	176.525	-80.858	209.099	226.902	0.00017481	0.00042925	0.00020614	1101.8	7.4804e-06	5.3982e-06	1198.9	232.98	3.3584e-06	3.1994e-06	295.39	82.411	64.39	18.789	1.9949e-06	26.046	0.00037251	0.00037372	0.00010394	1069.4	4.1045e-06	4.1066e-06	1160.7	233.62	4.0786e-06	4.0723e-06	292.22	84.816	67.691	20.359	4.1084e-06	27.748	-6.217	183.985	-40.599	-90.590	72.776	-69.113	-90.420	-83.008	57.877	144.301	-83.583	-76.025	-76.226	-69.812	6.561	-69.897	-8191	255	
844.182	1	1	0	0	0.38142	0.14906	0.13454	0.077333	0.18136	0.068387	0.39203	0.31988	0.090044	0.20632	0.091518	0.19305	0.13657	0.23582	0.29134	0.12011	-2.225	-2.8083	-2.4	-2.8896	-2.8396	-2.5062	-3.0792	-2.6229	-2.4917	-2.8542	-2.4375	-2.9062	-2.8563	-2.4146	-2.6521	-2.5583	13.394	-24.473	140.120	219.756	-71.308	220.483	202.257	257.301	28.827	50.355	182.780	118.119	-81.802	-39.120	257.976	90.300	0.00022371	0.00053167	3.5223e-05	1102.5	1.4139e-06	4.4334e-06	1198.9	233.66	3.8573e-06	2.6563e-06	293.96	82.408	64.494	18.733	3.6388e-06	25.886	0.00037482	0.00037592	0.00010409	1071.1	4.1268e-06	4.1243e-06	1160.7	233.62	4.124e-06	4.1521e-06	292.74	84.882	67.89	20.345	4.1328e-06	27.71	-97.677	-44.945	37.836	-90.919	136.317	5.881	-90.458	-82.863	56.736	231.340	-83.601	-76.611	-76.511	-69.748	85.795	-69.911	-8191	255	
844.278	1	1	0	0	0.25452	0.15682	0.10207	0.32215	0.020011	0.20976	0.24999	0.09284	0.21169	0.10551	0.066145	0.24967	0.15615	0.17168	0.21117	0.1056	-2.225	-2.7917	-2.2083	-2.7938	-2.6229	-2.4146	-3.0479	-2.7375	-2.5146	-2.7604	-2.3729	-2.6229	-2.8833	-2.3917	-2.8729	-2.6083	151.870	75.452	-28.080	-89.898	245.047	71.093	225.572	257.296	203.949	151.484	237.960	200.762	249.819	240.875	186.250	-47.478	0.00011292	0.00045591	0.00024652	1101.5	1.2373e-05	9.7935e-07	1193.8	231.63	1.8473e-06	3.1533e-06	293.75	82.129	64.536	18.781	4.1132e-06	26.066	0.0003739	0.00037325	0.0001035	1069.5	4.0576e-06	4.0534e-06	1157.8	232.87	4.0831e-06	4.0976e-06	291.85	84.564	67.741	20.309	4.0758e-06	27.645	-13.780	222.086	-52.803	-90.534	105.301	111.281	-90.544	-83.213	204.484	95.080	-83.734	-76.681	-75.987	-69.805	-26.737	-69.338	-8191	255	
844.372	1	1	0	0	0.15532	0.1132	0.20698	0.1452	0.18792	0.13404	0.24748	0.23574	0.21503	0.16071	0.23445	0.068822	0.1399	0.10782	0.21353	0.10985	-2.0604	-2.8604	-2.4292	-2.7917	-2.925	-2.3792	-2.9437	-2.6542	-2.3917	-2.7604	-2.5458	-2.65	-2.75	-2.3479	-2.8688	-2.6625	172.606	204.554	-99.335	140.977	127.541	-25.895	181.933	-47.602	130.827	32.858	219.780	190.667	-88.196	88.041	-9.464	129.397	9.8951e-05	0.00091196	0.00016288	1099.9	3.5679e-06	5.9752e-06	1194	233.25	2.3156e-07	5.721e-06	294.63	81.75	64.778	18.718	2.7378e-07	25.925	0.00037015	0.00037091	0.00010354	1068	4.0686e-06	4.0733e-06	1155.6	232.91	4.0669e-06	4.0723e-06	291.51	84.513	67.641	20.244	4.0321e-06	27.635	160.638	-35.428	-7.021	-90.859	96.815	64.317	-90.465	-83.134	120.757	75.153	-83.342	-76.705	-76.559	-69.853	27.029	-69.662	-8191	255	
844.468	1	1	0	0	0.086631	0.18019	0.15264	0.19427	0.051831	0.037882	0.26984	0.10767	0.060478	0.043468	0.21397	0.084813	0.29057	0.099379	0.24228	0.14188	-1.8292	-2.7771	-2.3479	-2.7812	-2.7687	-2.4396	-2.8458	-2.8438	-2.1292	-3.025	-2.5396	-2.5604	-2.8625	-2.325	-2.5458	-2.8771	63.900	-87.089	48.802	183.955	257.255	96.708	249.564	133.465	108.609	97.080	241.003	-52.460	142.221	-18.676	-53.594	8.014	3.4105e-05	0.00091819	0.00025765	1102.5	3.1436e-06	2.764e-06	1194.4	233.31	4.8183e-06	7.6135e-06	293.21	81.882	64.471	18.781	6.5224e-06	25.884	0.00036807	0.0003705	0.00010328	1068	4.0403e-06	4.0529e-06	1156	232.84	4.0283e-06	4.0358e-06	291.36	84.26	67.404	20.19	3.9758e-06	27.434	25.968	-89.332	-49.698	-90.526	187.100	124.624	-90.442	-83.006	-16.250	79.888	-83.643	-76.829	-75.898	-69.888	15.769	-69.596	-8191	255	
844.566	1	1	0	0	0.26247	0.16243	0.12463	0.22736	0.09297	0.12231	0.054121	0.14516	0.1689	0.28198	0.18621	0.077204	0.20412	0.26979	0.12304	0.26846	-1.9937	-2.7375	-2.675	-2.6229	-2.8208	-2.4917	-2.7021	-2.7958	-2.2	-2.7896	-2.6708	-2.5354	-3.0271	-2.55	-2.5438	-2.8312	215.993	-33.164	-99.685	240.037	227.706	-89.356	118.861	48.458	14.576	-54.889	109.103	94.252	-35.717	138.430	60.229	187.218	9.7364e-05	0.00099822	7.6592e-05	1100.6	3.6496e-06	6.5887e-06	1198.9	232.77	8.1118e-07	4.3168e-06	296.13	81.937	64.182	18.772	5.7506e-06	25.831	0.00036114	0.00036035	0.0001004	1066.3	3.951e-06	3.9286e-06	1154.4	231.7	3.9622e-06	3.9656e-06	290.56	83.878	67.196	20.147	3.9826e-06	27.459	-94.807	173.140	-4.952	-90.700	120.506	-32.038	-90.469	-82.962	-84.559	-5.313	-83.708	-76.451	-76.443	-69.465	123.803	-69.244	-8191	255	
844.685	1	1	0	0	0.11357	0.18428	0.10457	0.13585	0.15648	0.067972	0.17464	0.17592	0.13847	0.10788	0.14013	0.16216	0.16056	0.080945	0.098981	0.069916	-1.9875	-2.9667	-2.625	-2.5729	-3.0208	-2.3375	-2.7917	-3.0938	-2.2938	-2.7062	-2.7542	-2.4646	-2.9458	-2.4396	-2.5438	-2.8333	193.678	206.757	25.393	176.031	109.965	-18.269	242.468	-79.998	51.646	199.061	205.929	-44.821	-89.637	239.121	-18.832	-68.278	0.00013432	0.00046861	6.2957e-05	1103.7	2.5161e-06	2.5824e-06	1192.7	232.17	4.5823e-06	1.2547e-06	293.82	82.455	64.154	18.677	4.0291e-06	25.816	0.00036204	0.00036365	0.00010104	1065.8	3.9732e-06	3.9714e-06	1153	231.81	3.952e-06	3.9302e-06	289.78	83.871	66.927	20.033	3.8963e-06	27.255	11.085	252.664	-74.598	-90.756	192.837	203.923	-90.359	-82.964	80.327	227.608	-83.456	-76.642	-76.339	-69.752	107.020	-69.831	-8191	255	
844.781	1	1	0	0	0.12183	0.20255	0.053061	0.25109	0.033422	0.1342	0.085543	0.11653	0.088437	0.10879	0.14183	0.11647	0.13917	0.061744	0.21469	0.16876	-1.8646	-2.7	-2.5458	-2.5604	-2.875	-2.5438	-2.5604	-2.9271	-2.2646	-2.7833	-2.6792	-2.3958	-2.6896	-2.7125	-2.4542	-2.8937	244.624	-63.342	237.367	200.708	39.283	-35.617	147.708	129.977	-2.933	221.310	-60.458	165.276	69.976	0.494	12.710	123.175	0.00012046	0.00033635	0.00011452	1102.2	8.7852e-06	3.0329e-06	1195.5	232.83	1.8149e-06	4.1264e-06	294.07	81.428	64.497	18.632	3.0157e-06	25.966	0.00035199	0.00035445	9.8814e-05	1062.4	3.8937e-06	3.8835e-06	1151.1	231.56	3.9227e-06	3.8975e-06	289.67	83.572	66.85	20.014	3.8595e-06	27.234	72.585	210.321	29.974	-90.465	30.224	-28.787	-90.469	-82.893	208.188	43.110	-83.591	-76.705	-76.498	-69.159	245.681	-70.192	-8191	255	
844.877	1	1	0	0	0.10421	0.27346	0.16123	0.39592	0.13476	0.20167	0.22708	0.24378	0.24258	0.020689	0.2194	0.47008	0.18023	0.14195	0.30502	0.053468	-1.9438	-2.6833	-2.6375	-2.5583	-2.8271	-2.6167	-2.5208	-2.9917	-2.2833	-2.7188	-2.8146	-2.5208	-2.9125	-2.7792	-2.35	-2.875	-27.402	43.613	46.234	242.360	118.797	141.851	239.402	205.130	249.195	134.430	91.257	211.072	-40.755	-94.908	30.879	12.377	0.00018499	0.00045963	0.00023982	1094.5	4.563e-06	5.3608e-06	1185.4	231.16	3.0734e-06	2.1953e-06	295.24	81.973	64.46	18.719	5.4208e-06	25.569	0.00034745	0.00034827	9.6165e-05	1059.2	3.8029e-06	3.7867e-06	1147.8	230.57	3.8173e-06	3.8387e-06	288.78	83.576	66.74	20.01	3.8789e-06	27.235	-88.926	-12.476	82.901	-90.665	-64.317	-10.984	-90.542	-82.787	17.372	50.154	-83.317	-76.606	-76.036	-69.751	85.750	-69.622	-8191	255	
844.974	1	1	0	0	0.048897	0.025188	0.51415	0.19091	0.08991	0.15964	0.089132	0.28167	0.056162	0.19969	0.19284	0.17769	0.14605	0.17456	0.37403	0.11056	-2.0271	-2.5021	-2.8688	-2.5417	-2.8167	-2.5729	-2.4771	-2.9833	-2.5292	-2.6917	-2.8563	-2.4833	-2.7896	-2.7458	-2.3979	-2.8521	-62.612	133.903	-45.871	131.561	234.035	37.286	220.338	222.381	-11.719	113.366	-84.598	-62.662	100.547	229.766	-92.697	127.667	0.00010873	0.00037864	0.00014189	1094.3	5.8862e-06	3.8573e-06	1190.4	231.74	2.4576e-06	6.3028e-06	293.48	81.546	64.439	18.648	4.8184e-06	25.868	0.00035012	0.00035377	9.9104e-05	1059.2	3.8985e-06	3.9037e-06	1150.2	231.22	3.8867e-06	3.9183e-06	289.5	83.847	66.934	20.119	3.9449e-06	27.32	247.947	211.515	-11.298	-90.606	30.634	154.952	-90.410	-82.752	40.077	-66.998	-83.526	-76.720	-76.664	-69.356	78.085	-69.901	-8191	255	
845.070	1	1	0	0	0.15612	0.22813	0.094326	0.1489	0.055818	0.29178	0.18486	0.0088869	0.19223	0.11606	0.17811	0.05737	0.040505	0.038669	0.22946	0.2258	-2.2646	-2.6042	-3.0563	-2.5833	-2.8292	-2.65	-2.5312	-2.9833	-2.5542	-2.5375	-2.9917	-2.5375	-2.5771	-2.8417	-2.4375	-3.0062	220.758	128.655	-22.273	188.540	117.151	-98.087	112.079	24.946	2.998	-79.979	2.825	231.982	-7.899	112.840	-14.119	-90.430	0.00013328	0.000206	7.7005e-05	1103.3	5.3818e-06	2.2423e-06	1192	231.15	2.1023e-06	5.5366e-06	292.08	81.607	64.068	18.69	5.925e-06	25.72	0.00035668	0.00035836	9.9673e-05	1061.4	3.8998e-06	3.9008e-06	1149	230.46	3.8915e-06	3.9078e-06	288.9	83.765	67.089	20.095	3.9125e-06	27.302	252.716	-31.483	-60.415	-90.744	142.110	114.749	-90.210	-83.097	-18.873	87.376	-83.617	-76.254	-76.512	-69.228	101.220	-70.008	-8191	255	
845.166	1	1	0	0	0.20466	0.14598	0.38628	0.44213	0.23012	0.032374	0.18397	0.32362	0.16798	0.11461	0.19047	0.063978	0.15791	0.14909	0.24968	0.20333	-2.2729	-2.3354	-2.9125	-2.6104	-2.5396	-2.9396	-2.4625	-2.9562	-2.6792	-2.4458	-2.9417	-2.3917	-2.4313	-2.8375	-2.2271	-2.8417	-14.197	67.252	10.178	218.537	-55.548	-31.918	84.456	196.821	-41.898	189.271	177.156	68.174	88.036	139.582	174.404	19.049	0.00013653	0.00043715	2.6845e-05	1095	3.329e-06	2.4506e-06	1195.6	231.22	2.2176e-06	1.2048e-06	293.72	81.663	64.207	18.731	4.8131e-06	25.672	0.00035672	0.00036411	0.00010135	1061.3	3.9787e-06	3.9669e-06	1151.2	231.14	3.9426e-06	3.9308e-06	289.49	83.486	66.7	19.979	3.8613e-06	27.166	-57.679	74.593	-58.828	-90.696	221.098	189.535	-90.445	-83.022	197.836	-23.996	-83.416	-76.478	-76.133	-69.398	-26.813	-69.946	-8191	255	
845.286	1	1	0	0	0.068982	0.13575	0.16444	0.36387	0.20907	0.14462	0.10093	0.25207	0.21628	0.090327	0.25062	0.17336	0.12671	0.28923	0.3068	0.22887	-2.275	-2.2167	-2.7417	-2.7208	-2.3458	-2.7958	-2.5625	-2.7854	-2.7104	-2.4604	-3.1063	-2.6292	-2.5	-2.8	-2.3021	-2.6854	202.736	-87.918	104.407	175.759	-99.362	2.396	159.272	202.693	94.742	104.704	183.551	200.742	222.211	131.913	-63.240	183.933	3.2293e-05	0.00089007	0.000133	1096.2	2.9821e-06	3.5772e-06	1189.2	232.37	3.115e-06	4.5092e-06	291.83	81.236	64.007	18.696	1.2538e-06	25.685	0.00034456	0.00034593	9.6129e-05	1058	3.7765e-06	3.7663e-06	1146.9	230.13	3.8393e-06	3.8255e-06	288.31	83.262	66.562	19.939	3.8697e-06	27.249	15.292	-55.651	-50.532	-90.853	-32.021	2.734	-90.421	-83.170	245.741	169.030	-83.233	-76.844	-75.964	-69.500	-36.145	-70.217	-8191	255	
845.381	1	1	0	0	0.19403	0.095023	0.059195	0.16302	0.28424	0.27058	0.43329	0.14727	0.038339	0.11325	0.08057	0.10469	0.19598	0.056406	0.26254	0.20044	-2.4896	-2.2708	-2.8958	-2.6521	-2.4646	-2.9292	-2.7062	-2.6771	-2.9396	-2.2938	-2.9521	-2.5729	-2.5062	-2.8479	-2.475	-2.6604	74.636	188.712	-26.997	160.888	-44.761	28.199	171.008	210.828	-95.013	237.142	112.847	-14.757	-73.998	193.693	121.500	251.876	0.00017431	0.0008708	0.00019584	1096	2.8671e-06	2.5387e-06	1189.5	232.14	2.6266e-06	3.5935e-06	292.56	81.094	64.297	18.556	2.832e-06	25.809	0.00035388	0.00035433	9.9078e-05	1059.9	3.8915e-06	3.8779e-06	1146	230.71	3.843e-06	3.8317e-06	287.81	83.091	66.78	19.937	3.8603e-06	27.213	-98.191	257.135	37.649	-90.703	15.784	72.786	-90.423	-82.851	222.627	-67.796	-83.647	-76.785	-76.729	-69.883	49.246	-70.057	-8191	255	
845.477	1	1	0	0	0.23407	0.19057	0.12717	0.31764	0.18236	0.32308	0.25253	0.1358	0.043933	0.21432	0.096213	0.12275	0.15278	0.12167	0.081648	0.061565	-2.5062	-2.4688	-2.8479	-2.7875	-2.3292	-2.8167	-2.6042	-2.775	-2.9625	-2.4646	-2.9979	-2.7438	-2.2396	-2.9188	-2.6854	-2.6292	4.322	130.317	-45.837	214.077	75.463	208.466	163.138	180.746	240.911	-78.832	-91.028	-38.628	231.981	-52.576	49.119	134.164	0.00018711	0.00029844	8.4041e-05	1092.9	1.6949e-06	2.94e-06	1186.5	230.85	3.7949e-06	3.1023e-06	293.51	81.52	64.3	18.648	3.9728e-06	25.929	0.00035088	0.00035491	9.8902e-05	1058.7	3.94e-06	3.9266e-06	1145.4	231.08	3.9525e-06	3.9293e-06	288.93	83.51	66.877	20.036	3.9089e-06	27.25	-66.829	181.165	58.102	-90.706	72.427	22.145	-90.385	-82.961	128.634	19.006	-83.529	-76.367	-76.117	-69.645	33.720	-70.256	-8191	255	
845.573	1	1	0	0	0.15855	0.089986	0.14431	0.13542	0.12527	0.069493	0.26944	0.40846	0.11628	0.17316	0.28771	0.16819	0.32213	0.21311	0.067887	0.14723	-2.65	-2.3125	-2.675	-2.9417	-2.5229	-3.0062	-2.7958	-2.4542	-2.8979	-2.3229	-2.75	-2.8604	-2.3479	-2.8583	-2.6333	-2.4896	31.255	0.932	117.430	219.769	40.831	180.751	215.892	186.364	-27.367	194.525	-86.920	243.030	-60.242	143.270	106.395	229.830	9.1352e-05	0.00042157	5.672e-06	1095.1	5.7124e-06	5.3408e-06	1186.1	230.8	3.4047e-06	2.3654e-06	291.86	81.174	64.214	18.585	3.3371e-06	25.922	0.00035403	0.00035219	9.8248e-05	1059.1	3.8397e-06	3.8077e-06	1146.3	230.03	3.8304e-06	3.7907e-06	287.16	82.919	66.282	19.805	3.7461e-06	26.978	92.298	-27.620	-88.351	-90.589	154.147	18.257	-90.310	-83.028	256.795	135.613	-83.691	-76.659	-76.234	-69.589	185.772	-70.199	-8191	255	
845.669	1	1	0	0	0.016497	0.082783	0.37998	0.13685	0.062818	0.11216	0.19221	0.11053	0.14682	0.025783	0.18903	0.23712	0.33973	0.1659	0.065305	0.35704	-2.4854	-2.4875	-2.5708	-2.9542	-2.4333	-2.7396	-2.6354	-2.5438	-2.9958	-2.5208	-2.725	-2.7833	-2.5438	-2.8354	-2.6854	-2.5292	98.148	207.345	1.496	222.606	105.388	176.555	211.227	215.746	207.305	-1.420	-37.985	177.016	242.839	177.961	-50.847	178.163	7.3265e-05	0.00048946	9.4455e-05	1096.6	1.5011e-06	3.4461e-06	1189.6	231.27	5.1122e-06	3.2209e-06	291.42	80.95	63.896	18.727	4.4633e-06	25.87	0.00033592	0.00033798	9.4045e-05	1056.4	3.7426e-06	3.7275e-06	1144.8	229.45	3.7511e-06	3.7636e-06	286.94	82.849	66.273	19.841	3.756e-06	26.982	-92.146	213.094	86.369	-90.779	-66.861	119.999	-90.353	-83.016	62.814	171.647	-83.770	-76.563	-76.462	-69.409	27.331	-69.927	-8191	255	
845.765	1	1	0	0	0.068608	0.093181	0.21572	0.17029	0.041944	0.13185	0.30903	0.11669	0.19721	0.049684	0.2209	0.10576	0.25982	0.10984	0.16734	0.017606	-2.5271	-2.55	-2.7229	-2.8625	-2.3917	-2.8625	-2.9688	-2.4479	-2.9688	-2.5708	-2.6333	-2.8979	-2.4083	-2.8146	-2.7875	-2.5875	12.451	233.540	206.095	164.896	185.447	-75.166	251.790	218.598	-7.033	175.881	144.640	-16.518	-34.101	-46.379	42.516	26.150	7.3617e-05	0.00030803	5.9131e-05	1092.6	2.5465e-06	6.111e-06	1182.7	230.39	2.4613e-06	1.1501e-06	291.83	80.851	63.864	18.72	5.147e-06	25.719	0.00033873	0.00033938	9.4112e-05	1055.3	3.661e-06	3.6721e-06	1141.7	228.32	3.6789e-06	3.6723e-06	285.56	82.447	65.826	19.788	3.7153e-06	26.962	231.729	-16.923	163.741	-90.736	85.474	7.251	-90.317	-82.704	172.834	-37.371	-83.812	-76.420	-76.135	-68.969	121.179	-69.409	-8191	255	
845.862	1	1	0	0	0.064264	0.13198	0.071413	0.31724	0.26269	0.032354	0.17175	0.17591	0.11483	0.13183	0.27409	0.15641	0.2284	0.24109	0.11718	0.1798	-2.6063	-2.5271	-2.5333	-2.8104	-2.2979	-2.6333	-3.0104	-2.4688	-2.8229	-2.5646	-2.6354	-3.0521	-2.2687	-2.8063	-2.7521	-2.4417	232.870	45.111	187.801	212.430	-22.009	179.302	227.484	236.320	-93.709	47.418	205.567	-98.020	-98.832	189.903	-77.207	24.354	0.00013953	0.00027249	0.0001697	1095	7.5132e-06	1.7358e-06	1187.6	230.78	3.8769e-06	5.4429e-06	292.35	81.182	64.418	18.576	1.6411e-06	25.834	0.00033886	0.00034159	9.6032e-05	1056	3.7705e-06	3.7778e-06	1145.8	229.17	3.7877e-06	3.7867e-06	287.07	82.791	66.242	19.891	3.7524e-06	26.973	228.106	-82.495	-63.424	-90.714	50.461	48.660	-90.353	-83.181	253.322	43.588	-83.377	-76.483	-76.187	-69.562	120.947	-69.962	-8191	255	
845.982	1	1	0	0	0.10362	0.038178	0.085803	0.12973	0.19858	0.026661	0.31606	0.1789	0.02372	0.10192	0.011052	0.3002	0.16504	0.13229	0.28209	0.21501	-2.4125	-2.7	-2.5542	-2.975	-2.4854	-2.7229	-3.1042	-2.4042	-2.6604	-2.5458	-2.45	-2.9688	-2.5229	-2.5187	-2.7229	-2.4542	209.040	-69.956	184.434	217.656	-11.219	-58.829	192.293	152.024	167.305	171.866	75.637	166.274	-67.174	12.792	120.346	241.498	5.6721e-05	0.00063284	0.00017259	1094.7	2.4527e-06	1.7348e-06	1189.8	231.05	4.6965e-06	6.0309e-06	291.11	81.536	63.931	18.587	2.7561e-06	25.829	0.00034105	0.00034443	9.5405e-05	1055	3.7217e-06	3.7198e-06	1143.2	228.86	3.7562e-06	3.7604e-06	286.77	82.968	66.394	19.915	3.8476e-06	27.134	150.854	203.294	215.520	-90.552	255.738	184.262	-90.221	-83.107	-24.769	6.791	-83.806	-76.673	-75.900	-69.636	149.610	-69.633	-8191	255	
846.078	1	1	0	0	0.34345	0.18128	0.33545	0.083995	0.069529	0.20357	0.17231	0.20432	0.1172	0.12677	0.05478	0.061397	0.21388	0.17871	0.1416	0.20165	-2.3104	-2.7417	-2.4	-3.1021	-2.4167	-2.6542	-2.9813	-2.3396	-2.7875	-2.8042	-2.4188	-2.8479	-2.6896	-2.6208	-2.8625	-2.4167	178.303	23.750	-27.835	142.792	-37.728	-17.843	219.901	62.643	-49.137	131.581	122.209	-41.051	236.068	191.235	94.751	-89.520	0.00013462	0.00071616	0.00016332	1094.2	8.3182e-06	4.591e-06	1185.8	230.88	2.2035e-06	7.2102e-06	293.04	81.084	63.801	18.537	5.1389e-06	25.516	0.00035326	0.00035556	9.9342e-05	1058.4	3.8919e-06	3.8422e-06	1145.6	229.45	3.8359e-06	3.8079e-06	287.18	82.616	66.16	19.802	3.7361e-06	26.933	-80.528	-13.956	-20.734	-90.589	171.524	-40.562	-90.242	-82.707	131.890	67.519	-83.500	-76.625	-76.481	-69.564	24.023	-69.443	-8191	255	
846.150	1	1	0	0	0.092656	0.066903	0.29916	0.28669	0.086009	0.17639	0.18892	0.023595	0.12634	0.39413	0.21029	0.18354	0.14583	0.24116	0.14984	0.21442	-2.175	-2.7042	-2.375	-2.9542	-2.5396	-2.5687	-3.1396	-2.4396	-2.7146	-2.8583	-2.4104	-2.8833	-2.5792	-2.4271	-2.9938	-2.5042	132.293	63.892	249.468	241.238	-14.501	94.851	180.330	-64.376	-49.632	56.565	249.906	184.771	191.760	163.489	17.280	166.380	0.00015787	0.00022508	0.00017772	1089.6	4.1988e-06	3.3951e-06	1189.9	231.07	5.5954e-06	6.6501e-06	291.73	81.216	64.021	18.508	1.4233e-06	25.616	0.00033815	0.00034252	9.5477e-05	1054.8	3.7575e-06	3.8076e-06	1145.2	229.29	3.7893e-06	3.8116e-06	286.54	82.715	66.076	19.793	3.733e-06	26.935	254.704	27.436	9.820	-90.667	239.846	218.227	-90.437	-82.972	122.868	41.612	-83.537	-76.408	-76.041	-69.491	69.279	-70.234	-8191	255	
#DATA ENDS
