BOXY.EXE: ISS Imagent and Oximeter Data Acquisition Program Version 0.80
Ascii Record File

#ACQ INFORMATION
2  Detector Channels 
16  External MUX Channels 
1  Auxiliary Channels 
5000  Waveform (CCF) Frequency (Hz)
1  Waveforms Skipped 
30  Waveforms Averaged 
1  Cycles Averaged 
16  Acquisitions per Waveform 
10.0806  Updata Rate (Hz) 

#FILE INFORMATION
TRUE -- External MUX Channel results are PARSED.
FALSE -- AC DC and Phase are NOT grouped.
TRUE -- Companion Program Settings File CREATED.
FALSE -- AC data not excluded
FALSE -- DC data not excluded
FALSE -- Phase data not excluded
FALSE -- Auxillary Chn. data not excluded
Tab delimiters

#CALIBRATION STATE
TRUE -- Waveform Calibration Values APPLIED.


#AUX CALIBRATION VALUES
Val Type	aux-1	

Term	1.0000e+00	
Factor	0.0000e+00	


#WF CALIBRATION VALUES
A = Detector Channel
Val Type	A-AC1	A-AC2	A-AC3	A-AC4	A-AC5	A-AC6	A-AC7	A-AC8	A-AC9	A-AC10	A-AC11	A-AC12	A-AC13	A-AC14	A-AC15	A-AC16	A-DC1	A-DC2	A-DC3	A-DC4	A-DC5	A-DC6	A-DC7	A-DC8	A-DC9	A-DC10	A-DC11	A-DC12	A-DC13	A-DC14	A-DC15	A-DC16	A-Ph1	A-Ph2	A-Ph3	A-Ph4	A-Ph5	A-Ph6	A-Ph7	A-Ph8	A-Ph9	A-Ph10	A-Ph11	A-Ph12	A-Ph13	A-Ph14	A-Ph15	A-Ph16	

Term	0.00000e+00	0.00000e+00	0.00000e+00	0.00000e+00	0.00000e+00	0.00000e+00	0.00000e+00	0.00000e+00	0.00000e+00	0.00000e+00	0.00000e+00	0.00000e+00	0.00000e+00	0.00000e+00	0.00000e+00	0.00000e+00	0.00000e+00	0.00000e+00	0.00000e+00	0.00000e+00	0.00000e+00	0.00000e+00	0.00000e+00	0.00000e+00	0.00000e+00	0.00000e+00	0.00000e+00	0.00000e+00	0.00000e+00	0.00000e+00	0.00000e+00	0.00000e+00	0.00000e+00	0.00000e+00	0.00000e+00	0.00000e+00	0.00000e+00	0.00000e+00	0.00000e+00	0.00000e+00	0.00000e+00	0.00000e+00	0.00000e+00	0.00000e+00	0.00000e+00	0.00000e+00	0.00000e+00	0.00000e+00	
Factor	1.00000e+00	1.00000e+00	1.00000e+00	1.00000e+00	1.00000e+00	1.00000e+00	1.00000e+00	1.00000e+00	1.00000e+00	1.00000e+00	1.00000e+00	1.00000e+00	1.00000e+00	1.00000e+00	1.00000e+00	1.00000e+00	1.00000e+00	1.00000e+00	1.00000e+00	1.00000e+00	1.00000e+00	1.00000e+00	1.00000e+00	1.00000e+00	1.00000e+00	1.00000e+00	1.00000e+00	1.00000e+00	1.00000e+00	1.00000e+00	1.00000e+00	1.00000e+00	X	X	X	X	X	X	X	X	X	X	X	X	X	X	X	X	

B = Detector Channel
Val Type	B-AC1	B-AC2	B-AC3	B-AC4	B-AC5	B-AC6	B-AC7	B-AC8	B-AC9	B-AC10	B-AC11	B-AC12	B-AC13	B-AC14	B-AC15	B-AC16	B-DC1	B-DC2	B-DC3	B-DC4	B-DC5	B-DC6	B-DC7	B-DC8	B-DC9	B-DC10	B-DC11	B-DC12	B-DC13	B-DC14	B-DC15	B-DC16	B-Ph1	B-Ph2	B-Ph3	B-Ph4	B-Ph5	B-Ph6	B-Ph7	B-Ph8	B-Ph9	B-Ph10	B-Ph11	B-Ph12	B-Ph13	B-Ph14	B-Ph15	B-Ph16	

Term	0.00000e+00	0.00000e+00	0.00000e+00	0.00000e+00	0.00000e+00	0.00000e+00	0.00000e+00	0.00000e+00	0.00000e+00	0.00000e+00	0.00000e+00	0.00000e+00	0.00000e+00	0.00000e+00	0.00000e+00	0.00000e+00	0.00000e+00	0.00000e+00	0.00000e+00	0.00000e+00	0.00000e+00	0.00000e+00	0.00000e+00	0.00000e+00	0.00000e+00	0.00000e+00	0.00000e+00	0.00000e+00	0.00000e+00	0.00000e+00	0.00000e+00	0.00000e+00	-4.66895e+01	-1.71885e+02	-1.35690e+02	-1.82083e+02	-8.59163e+01	-1.14521e+02	-1.56444e+02	-1.62015e+02	-7.42813e+01	-7.05972e+01	-1.70747e+02	-1.70713e+02	-1.80375e+02	-1.77189e+02	-9.09680e+01	-1.49288e+02	
Factor	2.09950e-05	1.03906e-04	2.22609e-05	1.60234e-01	1.01469e-06	8.15002e-07	1.69647e-01	5.29313e-02	7.74735e-07	8.33839e-07	8.72099e-02	3.32138e-02	3.12535e-02	9.37985e-03	8.50403e-07	1.38760e-02	3.92146e-07	3.96808e-07	1.10377e-07	7.58949e-02	4.34622e-09	4.34264e-09	7.54547e-02	2.47655e-02	4.34886e-09	4.34482e-09	3.81876e-02	1.43192e-02	1.37756e-02	4.22282e-03	4.34925e-09	5.90048e-03	X	X	X	X	X	X	X	X	X	X	X	X	X	X	X	X	



#DISTANCE SETTINGS
A = Detector Channel
A-1	A-2	A-3	A-4	A-5	A-6	A-7	A-8	A-9	A-10	A-11	A-12	A-13	A-14	A-15	A-16	

2.5000e+00	3.0000e+00	2.5000e+00	3.0000e+00	2.0000e+00	3.0000e+00	1.5000e+00	3.0000e+00	3.0000e+00	3.0000e+00	3.0000e+00	3.0000e+00	3.0000e+00	3.0000e+00	1.5000e+00	3.0000e+00	

B = Detector Channel
B-1	B-2	B-3	B-4	B-5	B-6	B-7	B-8	B-9	B-10	B-11	B-12	B-13	B-14	B-15	B-16	

1.0000e+01	1.0000e+01	1.0000e+01	1.4400e+00	1.0000e+01	1.0000e+01	1.5100e+00	1.9400e+00	1.0000e+01	1.0000e+01	1.9900e+00	2.4900e+00	2.4100e+00	2.9000e+00	1.0000e+01	2.9800e+00	




#DATA BEGINS
time	group	step	mark	flag	A-AC1	A-AC2	A-AC3	A-AC4	A-AC5	A-AC6	A-AC7	A-AC8	A-AC9	A-AC10	A-AC11	A-AC12	A-AC13	A-AC14	A-AC15	A-AC16	A-DC1	A-DC2	A-DC3	A-DC4	A-DC5	A-DC6	A-DC7	A-DC8	A-DC9	A-DC10	A-DC11	A-DC12	A-DC13	A-DC14	A-DC15	A-DC16	A-Ph1	A-Ph2	A-Ph3	A-Ph4	A-Ph5	A-Ph6	A-Ph7	A-Ph8	A-Ph9	A-Ph10	A-Ph11	A-Ph12	A-Ph13	A-Ph14	A-Ph15	A-Ph16	B-AC1	B-AC2	B-AC3	B-AC4	B-AC5	B-AC6	B-AC7	B-AC8	B-AC9	B-AC10	B-AC11	B-AC12	B-AC13	B-AC14	B-AC15	B-AC16	B-DC1	B-DC2	B-DC3	B-DC4	B-DC5	B-DC6	B-DC7	B-DC8	B-DC9	B-DC10	B-DC11	B-DC12	B-DC13	B-DC14	B-DC15	B-DC16	B-Ph1	B-Ph2	B-Ph3	B-Ph4	B-Ph5	B-Ph6	B-Ph7	B-Ph8	B-Ph9	B-Ph10	B-Ph11	B-Ph12	B-Ph13	B-Ph14	B-Ph15	B-Ph16	aux-1	digaux	

893.994	1	1	0	256	0.0474	0.053597	0.102	0.17927	0.23984	0.079759	0.32385	0.053894	0.12022	0.17518	0.08734	0.15337	0.038924	0.1816	0.10815	0.12976	-2.3917	-2.6604	-2.1917	-2.775	-2.3021	-2.625	-2.9875	-2.4896	-2.7042	-2.45	-2.4375	-3.0958	-2.5104	-2.625	-2.85	-2.4354	246.067	176.464	116.087	253.051	42.399	165.651	265.116	286.078	22.729	102.865	2.836	233.749	268.903	54.497	23.471	59.087	0.00022309	0.00044836	0.00014943	1280.7	3.6739e-06	2.3589e-06	1285.7	350.11	2.2512e-06	2.0422e-06	402.95	137.21	118.26	40.553	1.1919e-06	50.862	9.0122e-05	8.635e-05	2.3984e-05	1206	9.564e-07	9.5005e-07	1216.4	327.86	9.8138e-07	9.811e-07	366.76	124.04	105.23	36.79	1.0155e-06	45.182	214.042	-1.775	55.897	-18.075	153.705	115.065	-18.073	-13.215	170.969	116.613	-14.166	-8.905	-8.651	-4.532	136.002	-5.333	-8191	255	
894.089	1	1	0	0	0.078876	0.16237	0.21967	0.041494	0.14272	0.066586	0.18279	0.18363	0.044618	0.10734	0.22093	0.1128	0.098808	0.28311	0.25065	0.26014	-2.2875	-2.6188	-2.1708	-2.9979	-2.4792	-2.4542	-2.9146	-2.5208	-2.5208	-2.7417	-2.5208	-2.8812	-2.7562	-2.4771	-2.8	-2.5125	188.434	94.501	71.976	313.187	82.742	123.259	288.316	320.592	307.256	-9.252	323.513	240.594	300.050	298.918	118.753	287.023	0.00026424	0.00010312	0.00010191	1274.8	1.6616e-06	1.8772e-06	1288.3	348.56	6.3853e-07	4.246e-06	401.81	136.5	117.42	40.48	1.8966e-06	50.859	9.8237e-05	9.5499e-05	2.6803e-05	1206.2	1.0933e-06	1.1097e-06	1217.9	327.19	1.1529e-06	1.1384e-06	366.44	123.89	105.11	36.84	1.172e-06	45.351	217.575	286.919	43.655	-18.273	144.707	308.144	-18.293	-13.050	258.719	115.608	-14.156	-9.150	-8.509	-4.295	105.858	-5.330	-8191	255	
894.185	1	1	0	0	0.27211	0.14969	0.25817	0.29543	0.26102	0.063956	0.28014	0.15843	0.045641	0.10064	0.20768	0.10041	0.06395	0.11272	0.143	0.26374	-1.975	-2.7167	-2.4604	-2.8729	-2.5229	-2.5292	-3.1167	-2.6083	-2.6021	-2.7021	-2.3187	-2.8438	-2.6375	-2.4021	-2.8875	-2.5646	154.273	141.665	194.529	276.463	2.936	161.115	294.802	234.230	93.505	158.658	288.321	314.928	282.481	280.542	20.059	305.191	0.00021313	0.0001404	8.2069e-05	1278.5	1.9776e-06	2.642e-06	1289.8	347.48	1.5934e-06	2.0183e-06	401.07	136.6	117.6	40.469	2.2219e-06	50.692	0.00011131	0.00010885	3.0312e-05	1209.6	1.2215e-06	1.2068e-06	1219.9	327.47	1.2454e-06	1.234e-06	367.44	124.17	105.45	36.946	1.2768e-06	45.441	232.744	87.396	71.299	-18.231	160.155	64.765	-18.032	-13.302	75.266	201.910	-14.080	-9.014	-8.767	-4.629	181.015	-5.416	-8191	255	
894.306	1	1	0	0	0.32168	0.031735	0.15162	0.28198	0.27668	0.11542	0.39673	0.38384	0.12681	0.236	0.074095	0.027539	0.11664	0.16193	0.22172	0.052808	-2.0375	-2.5563	-2.3208	-2.8937	-2.6333	-2.2313	-2.9771	-2.7146	-2.4437	-2.9083	-2.375	-2.7333	-2.6333	-2.2896	-2.7396	-2.575	1.273	-13.489	234.122	264.566	138.493	34.484	273.786	266.574	139.877	79.626	27.124	308.432	71.959	320.945	37.284	283.840	0.00025463	0.00043873	6.367e-05	1276.4	3.893e-06	3.6641e-06	1290.3	348.02	2.1962e-06	6.4944e-06	403.51	136.23	117.01	40.304	1.7889e-06	50.566	0.00011919	0.00011696	3.2745e-05	1212.6	1.3049e-06	1.3065e-06	1223.3	328.3	1.346e-06	1.3375e-06	368.41	124.43	105.76	37.01	1.3652e-06	45.519	222.835	10.194	60.931	-18.409	178.848	33.359	-18.320	-13.234	157.996	136.506	-14.028	-9.306	-8.613	-4.169	80.200	-5.151	-8191	255	
894.377	1	1	0	0	0.2491	0.061731	0.097989	0.072427	0.24757	0.30752	0.26845	0.13009	0.11335	0.16485	0.21367	0.23728	0.054756	0.052654	0.17751	0.16429	-2.1021	-2.7542	-2.3021	-2.8396	-2.7146	-2.2708	-2.8917	-2.6458	-2.3042	-2.8875	-2.6437	-2.6854	-2.8896	-2.3458	-2.9667	-2.6167	28.065	10.829	-23.861	328.109	314.619	61.713	255.994	228.778	122.414	82.972	249.470	243.273	10.757	64.911	15.868	12.197	0.00022079	2.9666e-05	0.00012408	1279.9	2.3012e-06	5.7953e-07	1292.7	348.93	1.3501e-06	5.6284e-06	403.03	136.94	117.49	40.456	1.2945e-06	50.812	0.00012661	0.00012313	3.4395e-05	1216.1	1.3561e-06	1.3544e-06	1229.2	328.86	1.3984e-06	1.3963e-06	368.91	124.65	106.19	37.166	1.4616e-06	45.751	219.531	253.970	60.999	-18.218	119.721	160.739	-18.090	-13.050	202.410	120.186	-13.963	-9.107	-8.173	-4.514	254.542	-5.194	-8191	255	
894.473	1	1	0	0	0.034994	0.16056	0.22909	0.087291	0.13746	0.34611	0.46157	0.17451	0.16888	0.21136	0.21967	0.22865	0.27169	0.050336	0.069193	0.13724	-1.9271	-2.8792	-2.2667	-2.5021	-2.85	-2.3479	-2.8792	-2.85	-2.4021	-2.7396	-2.6292	-2.6583	-3.0125	-2.4646	-2.7229	-2.6937	42.404	40.044	313.505	278.891	97.469	21.732	269.505	306.723	1.293	204.017	121.767	302.199	-26.065	-22.989	24.740	181.089	0.0002551	0.00036928	5.8011e-05	1289.9	2.1722e-06	2.8316e-06	1296.2	349.69	4.3794e-07	1.5836e-06	405.02	136.52	118.21	40.852	3.0804e-07	50.822	0.00013775	0.00013559	3.7835e-05	1224.9	1.5192e-06	1.5038e-06	1234.9	331.34	1.5697e-06	1.5694e-06	372.37	125.52	107	37.506	1.6596e-06	46.138	200.649	54.393	58.494	-18.070	92.977	107.676	-18.130	-13.288	198.717	186.947	-14.174	-9.057	-8.726	-4.511	147.327	-5.261	-8191	255	
894.570	1	1	0	0	0.092093	0.21235	0.15742	0.1354	0.20613	0.16822	0.24688	0.16031	0.20723	0.085984	0.39005	0.16788	0.22923	0.085404	0.20615	0.10947	-1.9729	-2.9146	-2.35	-2.7042	-2.8354	-2.3521	-2.9688	-2.8021	-2.2167	-2.5708	-2.6667	-2.4917	-2.9938	-2.4458	-2.7417	-2.7854	210.160	245.539	70.082	294.805	14.068	-13.352	238.016	38.327	128.865	143.599	287.584	296.723	307.532	289.078	273.288	261.430	0.00018952	0.00049021	0.00015431	1293.2	3.7923e-06	2.3005e-06	1309	351.86	2.3862e-06	2.7527e-06	406.86	137.71	119.24	40.914	4.3896e-06	51.376	0.00015423	0.0001527	4.2802e-05	1234.6	1.7029e-06	1.7108e-06	1248.3	334.58	1.7636e-06	1.7665e-06	376.22	127.25	108.45	37.954	1.8343e-06	46.708	237.422	4.711	44.839	-18.375	83.580	89.410	-18.365	-13.230	170.622	101.762	-14.258	-9.161	-8.658	-4.799	141.875	-5.211	-8191	255	
894.688	1	1	0	0	0.12033	0.14415	0.18117	0.31547	0.17302	0.16913	0.040369	0.30253	0.11563	0.26206	0.046386	0.2122	0.20185	0.20965	0.14268	0.21195	-1.8854	-2.6688	-2.5771	-2.5062	-2.8708	-2.4646	-2.8146	-2.7583	-2.2042	-2.6937	-2.6188	-2.4542	-2.9625	-2.6188	-2.7208	-2.7	284.395	167.699	-0.346	308.304	175.600	292.288	197.438	285.178	192.289	315.707	323.697	282.809	260.018	96.160	326.448	203.476	0.00025478	0.00075502	0.00015275	1300.3	3.2782e-06	2.6176e-06	1321.7	354.07	4.4562e-06	1.2612e-06	409.84	138.18	119.7	41.107	4.7185e-06	51.625	0.00017157	0.00016944	4.7949e-05	1246.2	1.9133e-06	1.9103e-06	1260.3	337.79	1.9576e-06	1.9726e-06	380.18	128.35	109.57	38.307	2.0069e-06	47.04	213.039	32.997	78.867	-18.161	93.981	134.684	-18.230	-13.438	202.067	131.496	-14.245	-9.083	-8.673	-4.676	100.577	-5.617	-8191	255	
894.785	1	1	0	0	0.067764	0.11693	0.1667	0.28726	0.19287	0.15473	0.11201	0.15144	0.46528	0.026906	0.12205	0.23971	0.13011	0.076136	0.17029	0.21706	-1.7917	-2.6271	-2.6604	-2.5792	-2.8792	-2.5792	-2.7833	-3.0771	-2.3646	-2.8	-2.9396	-2.3667	-2.8438	-2.5708	-2.3542	-2.925	160.274	63.944	147.720	282.380	140.276	112.204	322.173	233.120	172.690	314.000	315.364	104.713	200.609	140.057	311.662	-8.276	0.00017264	0.000509	6.2045e-05	1312.5	5.6096e-06	3.2934e-06	1325.8	355.52	1.0804e-06	3.3104e-06	409.59	137.75	119.89	41.264	1.0513e-06	51.583	0.00018383	0.00018148	5.017e-05	1256.1	1.9699e-06	1.9534e-06	1265.9	338.98	1.9825e-06	1.9568e-06	380.35	128.39	109.73	38.368	1.9805e-06	47.092	234.242	17.401	-7.958	-18.268	90.134	62.535	-18.324	-13.199	34.983	105.967	-14.114	-9.020	-8.590	-4.481	84.230	-5.368	-8191	255	
894.881	1	1	0	0	0.20033	0.26989	0.30171	0.2237	0.18174	0.079415	0.33688	0.34096	0.29201	0.091892	0.12336	0.011201	0.29839	0.12402	0.16039	0.18308	-2.2062	-2.6667	-2.8583	-2.4688	-2.7917	-2.4417	-2.5208	-2.85	-2.4917	-2.8083	-2.6729	-2.425	-3.0208	-2.8063	-2.4104	-3.0687	237.354	191.368	184.315	327.474	263.175	245.645	274.738	287.053	140.217	191.653	239.212	104.194	282.408	286.181	201.476	261.151	0.00017477	0.00029649	0.00014489	1324.8	2.6108e-06	3.2527e-06	1331.5	356.23	4.7947e-06	9.9181e-07	409.91	138.72	119.96	41.208	3.4081e-06	51.486	0.00018114	0.00017872	4.9867e-05	1263.7	2.0074e-06	1.9869e-06	1271.5	339.93	1.9709e-06	1.9443e-06	381.33	128.54	109.89	38.363	1.9063e-06	47.018	204.856	-25.748	67.452	-18.467	88.721	42.290	-18.314	-13.238	172.132	56.277	-14.344	-9.181	-8.648	-4.624	173.370	-5.435	-8191	255	
894.977	1	1	0	0	0.14071	0.062838	0.23166	0.19731	0.25958	0.14289	0.35533	0.13852	0.091405	0.12738	0.029317	0.10458	0.36311	0.15339	0.27108	0.13005	-1.9958	-2.5938	-2.9104	-2.6083	-2.7062	-2.5229	-2.6271	-2.9313	-2.3812	-2.6	-2.7333	-2.2188	-2.9708	-2.6875	-2.2917	-2.8896	87.150	315.639	275.849	-7.274	258.686	231.809	304.613	276.780	193.553	83.299	312.770	267.986	280.479	132.192	118.351	198.291	0.00025407	0.00029823	0.00016566	1323.3	1.5284e-06	2.1938e-06	1321.9	357.07	2.0484e-06	4.485e-06	410.27	138.82	119.88	41.257	2.8215e-06	51.651	0.00017347	0.00017031	4.7267e-05	1260	1.8422e-06	1.8327e-06	1265.9	339.91	1.8506e-06	1.8536e-06	380.88	128.5	109.64	38.32	1.8935e-06	47.09	226.897	27.222	68.064	-18.337	68.737	63.245	-18.205	-13.355	71.034	75.297	-14.318	-9.193	-8.737	-4.491	117.983	-5.230	-8191	255	
895.073	1	1	0	0	0.1084	0.30132	0.1337	0.090911	0.12023	0.099075	0.19871	0.22606	0.18808	0.42038	0.1109	0.18097	0.14707	0.14503	0.16767	0.16009	-2.1312	-2.5292	-2.8	-2.3833	-2.7646	-2.7583	-2.4813	-2.9771	-2.6042	-2.4938	-2.7792	-2.3937	-2.8167	-2.8937	-2.3333	-2.8646	168.529	264.134	98.858	220.994	-2.331	48.692	253.828	70.702	33.993	87.647	260.800	297.774	287.623	299.650	292.445	205.427	0.00020377	0.00029334	0.00011496	1316.7	1.7527e-06	2.7522e-06	1326.3	358.2	5.933e-07	3.1227e-06	410.37	138.93	120.4	41.282	4.3309e-06	51.678	0.00017532	0.00017379	4.8316e-05	1259.7	1.9242e-06	1.8936e-06	1270.6	340.85	1.9148e-06	1.9027e-06	381.47	128.75	110.25	38.409	1.9334e-06	47.244	233.552	324.954	-13.886	-18.352	203.307	56.026	-18.405	-13.283	114.577	165.897	-14.187	-9.107	-8.503	-4.741	156.670	-5.280	-8191	255	
895.169	1	1	0	0	0.12496	0.18261	0.21179	0.13119	0.063019	0.11635	0.20816	0.40025	0.21513	0.1837	0.22656	0.23582	0.3236	0.10855	0.23674	0.066802	-2.2354	-2.4229	-2.6833	-2.6188	-2.5812	-2.8208	-2.5375	-2.9354	-2.6854	-2.3104	-2.9125	-2.475	-2.7313	-2.9458	-2.3812	-2.9	276.526	220.556	161.910	-9.410	294.796	208.989	266.215	284.951	-17.168	212.834	274.236	314.037	299.607	294.407	-25.684	251.367	0.00024295	0.00028837	0.00018284	1319.3	2.8517e-06	1.2635e-06	1325.3	358.28	3.5114e-06	4.3237e-06	413.15	139.66	120.33	41.518	2.4842e-06	51.895	0.00017924	0.00017731	4.9364e-05	1263.3	1.978e-06	1.9562e-06	1272.6	341.39	1.9989e-06	2.0033e-06	382.71	129.41	110.52	38.586	1.9866e-06	47.401	219.829	302.241	13.083	-18.450	106.473	293.257	-18.383	-13.445	118.704	128.383	-14.147	-9.016	-8.687	-4.701	62.635	-5.446	-8191	255	
895.265	1	1	0	0	0.29262	0.16344	0.26083	0.24043	0.13394	0.28566	0.57794	0.18341	0.25102	0.16388	0.19907	0.22265	0.11998	0.18126	0.15252	0.19564	-2.2188	-2.3083	-2.8625	-2.5104	-2.6375	-2.7979	-2.4729	-2.8	-2.7417	-2.5021	-2.9125	-2.6625	-2.5625	-2.8875	-2.1396	-2.8625	309.849	223.966	272.973	304.166	5.009	265.956	271.752	270.971	118.302	313.798	262.609	266.685	52.703	309.361	49.023	216.141	0.00019266	0.00047582	3.4863e-05	1325.6	4.0638e-06	2.5066e-06	1330.5	359.03	3.6054e-06	2.4987e-06	412.69	140.16	121	41.538	2.4706e-06	51.911	0.0001844	0.00018042	4.9994e-05	1266.5	1.9775e-06	1.9712e-06	1275.1	341.78	1.9962e-06	1.9696e-06	383	129.29	110.65	38.599	1.9941e-06	47.389	210.022	51.626	130.004	-18.354	81.394	129.153	-18.250	-13.293	90.102	228.370	-14.228	-9.159	-8.755	-4.637	69.012	-5.449	-8191	255	
895.386	1	1	0	0	0.03396	0.33282	0.18996	0.38322	0.18642	0.26348	0.60937	0.166	0.18847	0.20864	0.18004	0.18175	0.20116	0.085956	0.078433	0.12313	-2.4167	-2.3583	-2.6125	-2.4021	-2.4792	-2.8333	-2.5771	-2.8458	-2.5479	-2.3667	-2.8146	-2.7938	-2.4667	-2.9354	-2.2438	-2.4875	3.225	222.741	16.005	265.205	248.991	61.459	291.133	236.723	115.408	54.577	225.528	161.667	318.408	250.087	-13.076	263.452	0.0002541	0.00027012	0.00013614	1320.8	5.5356e-06	5.8175e-06	1333.1	359.19	6.2782e-07	2.3796e-06	413.42	139.68	121.11	41.35	3.74e-06	51.49	0.00018406	0.00018201	5.0705e-05	1265.6	1.9873e-06	1.9966e-06	1276.6	342.37	2.0023e-06	1.9866e-06	383.55	129.54	110.78	38.558	1.9614e-06	47.343	224.947	159.983	39.921	-18.312	110.161	87.762	-18.415	-13.300	99.967	135.713	-14.341	-9.104	-8.487	-4.864	28.947	-5.451	-8191	255	
895.480	1	1	0	0	0.073457	0.096909	0.074159	0.29274	0.26861	0.20287	0.22876	0.09959	0.2704	0.25895	0.27666	0.20507	0.13021	0.24697	0.099071	0.066234	-2.2854	-2.2229	-2.6979	-2.7625	-2.4833	-2.9688	-2.5771	-2.7396	-2.8	-2.2438	-2.8625	-2.6958	-2.3021	-2.9229	-2.5771	-2.5146	89.872	199.660	147.941	273.367	217.957	159.581	305.519	280.321	12.109	274.341	283.176	296.361	-31.300	320.181	75.759	112.409	0.00022129	0.00029061	5.2293e-05	1327.6	1.3003e-06	1.0088e-06	1339.2	359.57	4.0836e-06	2.4194e-06	412.74	139.93	120.71	41.473	2.2828e-06	51.907	0.0001819	0.00017894	4.8913e-05	1267.9	1.926e-06	1.8895e-06	1277.2	342.11	1.9178e-06	1.9224e-06	382.79	129.33	110.36	38.527	1.9252e-06	47.314	227.882	-20.992	317.685	-18.259	284.877	-17.138	-18.416	-13.367	314.782	56.289	-14.422	-9.286	-8.582	-4.623	109.911	-5.495	-8191	255	
895.578	1	1	0	0	0.1807	0.15295	0.066233	0.38396	0.026548	0.16149	0.076073	0.24634	0.13442	0.32665	0.15871	0.071523	0.08611	0.067992	0.35073	0.41535	-2.4625	-2.1417	-2.6396	-2.8042	-2.2479	-2.6937	-2.6583	-2.5625	-2.6875	-2.3875	-2.7812	-2.8458	-2.4396	-3.0396	-2.5333	-2.6875	70.082	154.523	253.798	319.610	118.187	307.625	155.282	234.863	1.240	214.297	307.477	275.431	0.265	255.197	182.796	296.426	0.0002632	0.00046969	4.257e-05	1326.2	3.3583e-06	2.0488e-06	1334.3	359.72	4.0931e-06	2.9006e-06	412.64	139.81	120.76	41.534	4.4311e-06	51.708	0.00017924	0.00017689	4.8982e-05	1268	1.917e-06	1.9108e-06	1274.7	341.9	1.9258e-06	1.9297e-06	382.72	129.24	110.48	38.643	1.9591e-06	47.347	204.438	-17.580	72.679	-18.346	117.937	-15.858	-18.440	-13.219	176.963	184.939	-14.290	-9.236	-8.627	-4.525	125.068	-5.542	-8191	255	
895.673	1	1	0	0	0.29487	0.15593	0.13587	0.09107	0.066495	0.21431	0.13918	0.20541	0.067966	0.20154	0.18248	0.22532	0.18416	0.30733	0.16568	0.13469	-2.4354	-2.4208	-2.4479	-2.7354	-2.1583	-2.9854	-2.7313	-2.5083	-2.7667	-2.4437	-2.825	-2.8542	-2.225	-2.8854	-2.35	-2.4979	49.091	281.473	50.610	276.651	59.735	66.260	130.158	263.611	319.383	77.787	294.839	287.816	324.776	300.715	208.336	178.578	0.0002559	0.00011301	4.5796e-05	1327.1	5.4454e-06	1.9503e-06	1334.4	359.36	2.6279e-06	9.1662e-07	411.94	139.43	120.85	41.588	3.4156e-06	51.913	0.00018282	0.00018109	5.0402e-05	1269.1	1.9896e-06	1.9758e-06	1277.9	342.56	1.9742e-06	1.9771e-06	383.06	129.58	110.57	38.699	1.9836e-06	47.455	216.215	15.288	30.714	-18.273	81.796	100.880	-18.315	-13.336	120.895	71.653	-14.407	-8.953	-8.719	-4.608	157.658	-5.207	-8191	255	
895.769	1	1	0	0	0.080993	0.30232	0.1174	0.40109	0.23881	0.15186	0.15456	0.16855	0.049471	0.25244	0.092677	0.15203	0.31359	0.15873	0.12446	0.24839	-2.4333	-2.2917	-2.6937	-2.9875	-2.2979	-2.7396	-2.9646	-2.4479	-2.8125	-2.5896	-2.725	-2.9875	-2.4479	-2.8833	-2.6417	-2.4521	115.125	178.136	150.710	323.254	239.277	73.162	-29.539	207.819	284.187	213.601	196.920	317.931	-25.839	227.834	-28.395	264.912	0.00030134	0.00031489	9.3117e-05	1325.5	2.7447e-06	1.5047e-06	1336	359.86	4.1686e-06	1.439e-06	413.92	139.83	121.35	41.542	8.6744e-07	51.999	0.0001845	0.00018111	5.0298e-05	1269.1	1.9806e-06	1.9668e-06	1277.9	342.48	1.9875e-06	1.972e-06	383.89	129.46	110.79	38.73	1.9738e-06	47.403	219.161	325.932	-0.388	-18.422	148.402	83.831	-18.247	-13.380	161.908	135.298	-14.396	-9.211	-8.675	-4.548	210.313	-5.575	-8191	255	
895.865	1	1	0	0	0.23021	0.081239	0.26529	0.095808	0.16977	0.13616	0.29068	0.24288	0.067531	0.099813	0.27162	0.017884	0.32482	0.17879	0.18603	0.25886	-2.6146	-2.3271	-2.4396	-3	-2.1125	-2.6229	-2.8417	-2.3104	-2.7167	-2.5625	-2.4062	-3.1667	-2.4708	-2.5271	-2.7062	-2.3917	29.628	115.242	246.677	320.851	68.427	204.863	321.908	242.103	97.956	231.779	247.996	317.184	325.139	232.107	284.737	266.682	0.00024644	0.00067188	7.5817e-05	1327.6	1.9834e-06	1.836e-06	1333.3	360.33	7.6399e-07	3.2069e-06	410.41	140.17	120.51	41.417	6.6473e-06	52.036	0.00018316	0.00018012	5.0294e-05	1268.9	1.9772e-06	1.968e-06	1276.2	342.52	1.9613e-06	1.9323e-06	383	129.44	110.24	38.611	1.9246e-06	47.295	202.989	0.701	21.181	-18.385	105.534	113.138	-18.325	-13.161	168.010	84.610	-14.235	-9.115	-8.871	-4.520	54.449	-5.557	-8191	255	
895.986	1	1	0	0	0.15229	0.055157	0.27561	0.16822	0.10395	0.11212	0.36322	0.2789	0.11724	0.057189	0.10907	0.1556	0.10669	0.064191	0.057193	0.066812	-2.2771	-2.5271	-2.3208	-3.0708	-2.3667	-2.6583	-2.8896	-2.2333	-2.6708	-2.6417	-2.4625	-2.875	-2.5125	-2.6729	-2.6292	-2.4979	200.753	102.698	-10.215	303.046	104.462	196.774	288.793	-11.737	205.384	325.974	315.540	-10.552	7.652	236.909	269.891	237.159	0.00026055	0.00019282	4.8248e-05	1326.2	1.2624e-06	1.9013e-06	1332.9	358.82	2.4039e-06	1.3834e-06	412.38	140.18	120.68	41.663	4.8311e-06	51.848	0.00017763	0.00017409	4.8694e-05	1266.5	1.941e-06	1.9295e-06	1275.4	342.18	1.9464e-06	1.9487e-06	383.01	129.58	110.43	38.686	1.9581e-06	47.37	211.024	-0.267	6.736	-18.260	10.266	181.922	-18.429	-13.453	115.682	208.829	-14.375	-9.098	-8.768	-4.671	164.884	-5.357	-8191	255	
896.082	1	1	0	0	0.047227	0.1814	0.23717	0.33512	0.16458	0.25122	0.15167	0.36211	0.30493	0.089005	0.23479	0.38493	0.15989	0.062111	0.043541	0.27879	-2.2979	-2.4062	-2.2708	-2.8563	-2.3833	-2.4792	-3.0062	-2.3187	-2.6917	-2.75	-2.2521	-2.9104	-2.4625	-2.5604	-2.7938	-2.4021	234.190	22.050	94.658	273.592	314.253	-18.928	259.533	290.448	129.598	89.247	299.922	310.491	319.741	145.248	79.676	264.526	0.00023821	0.00018628	0.00012932	1324	2.2602e-06	5.9315e-06	1337.1	359.37	1.9645e-06	2.8137e-06	412.79	140.34	120.45	41.3	2.4171e-06	51.853	0.00018108	0.00017923	4.9882e-05	1267.3	1.946e-06	1.9324e-06	1275.4	342.3	1.9153e-06	1.8937e-06	382.66	129.11	110.05	38.495	1.8645e-06	47.294	182.621	183.039	56.301	-18.391	16.007	109.968	-18.268	-13.137	194.834	262.049	-14.312	-9.182	-8.671	-4.767	98.531	-5.523	-8191	255	
896.178	1	1	0	0	0.13976	0.0341	0.072341	0.09615	0.19266	0.22882	0.051658	0.097736	0.12219	0.092118	0.21704	0.39076	0.30476	0.33419	0.16628	0.069343	-2.3208	-2.6646	-2.3167	-2.7188	-2.5604	-2.1479	-2.9917	-2.5354	-2.7354	-2.8729	-2.4188	-2.7	-2.5708	-2.4229	-2.7854	-2.4354	246.688	151.393	67.768	326.224	322.078	157.594	303.183	253.783	158.570	58.171	231.024	301.311	240.988	278.641	27.714	269.737	0.00031163	0.0006974	5.8253e-05	1320	1.8718e-06	4.9457e-06	1335.6	359.4	2.6747e-06	4.0086e-06	414	140.33	120.78	41.689	1.4486e-06	52.375	0.00017317	0.0001707	4.7671e-05	1265	1.885e-06	1.8816e-06	1274.9	341.88	1.9056e-06	1.8979e-06	382.65	129.33	110.25	38.585	1.9135e-06	47.405	218.175	24.507	37.571	-18.237	174.342	103.433	-18.209	-13.290	157.835	96.443	-14.154	-9.417	-8.655	-4.500	42.870	-5.312	-8191	255	
896.274	1	1	0	0	0.23539	0.076182	0.16929	0.13495	0.10616	0.16965	0.33811	0.19942	0.14907	0.068515	0.39414	0.07807	0.10618	0.16774	0.079883	0.20443	-2.2875	-2.7208	-2.1604	-2.7938	-2.5271	-2.4813	-2.8708	-2.4688	-2.4479	-2.8	-2.5667	-2.7917	-2.7729	-2.5687	-2.6958	-2.6646	122.717	135.851	-12.648	315.299	109.660	145.169	216.357	-9.403	-13.257	279.896	263.370	67.734	48.798	10.471	92.331	-18.022	0.00027688	0.00047001	0.00011867	1328	4.9944e-06	2.576e-06	1333.4	358.53	3.5855e-06	5.0065e-06	413.91	139.9	120.75	41.547	1.1077e-06	51.899	0.00017639	0.00017265	4.8293e-05	1267.9	1.8916e-06	1.8661e-06	1275.3	341.42	1.8912e-06	1.8709e-06	382.9	129.2	110.16	38.562	1.8906e-06	47.271	211.009	22.554	17.260	-18.353	92.405	81.696	-18.138	-13.286	152.843	116.719	-14.466	-9.199	-8.955	-4.677	-24.944	-5.548	-8191	255	
896.370	1	1	0	0	0.12515	0.16105	0.10711	0.27287	0.13713	0.049261	0.23602	0.27408	0.072938	0.16769	0.14414	0.33976	0.16014	0.097828	0.028444	0.28116	-2.1312	-2.9854	-2.4542	-2.7958	-2.7062	-2.3417	-2.9896	-2.7375	-2.5396	-2.7458	-2.3396	-2.8521	-2.65	-2.5146	-2.7562	-2.8187	88.557	236.566	318.199	268.241	155.702	254.086	286.670	300.863	54.770	190.349	205.834	321.670	173.331	319.286	270.777	233.987	0.00026107	0.00041649	9.9591e-05	1329.5	3.9735e-06	5.3353e-06	1336	360.13	2.8368e-06	2.1724e-06	413.21	140.1	120.78	41.42	1.9074e-06	51.996	0.00017615	0.00017434	4.8392e-05	1267.5	1.9107e-06	1.9042e-06	1275.1	341.93	1.9248e-06	1.9063e-06	382.89	129.57	110.42	38.582	1.9114e-06	47.348	209.051	80.039	99.660	-18.311	126.577	-9.732	-18.356	-13.283	200.852	232.867	-14.204	-9.335	-8.627	-4.653	111.739	-5.402	-8191	255	
896.465	1	1	0	0	0.17553	0.080613	0.25541	0.30245	0.11023	0.23337	0.26512	0.21722	0.31633	0.22447	0.07622	0.22164	0.04981	0.20973	0.24211	0.092099	-2.1063	-2.8604	-2.2917	-2.7708	-2.6542	-2.2625	-3.0458	-2.7625	-2.3542	-2.9062	-2.6063	-2.6375	-2.8917	-2.2646	-2.5229	-2.6917	-23.994	139.472	44.416	-7.815	227.598	95.518	245.154	301.470	244.713	269.688	64.540	291.547	34.714	42.604	-19.453	152.962	0.00024834	0.00056106	6.9441e-05	1322.9	3.8828e-06	2.6334e-06	1336.8	359.32	3.0702e-06	2.0377e-06	410.85	140.23	120.67	41.704	7.4321e-06	52.176	0.00017739	0.00017421	4.903e-05	1266.8	1.9165e-06	1.9052e-06	1276.6	342.09	1.9252e-06	1.9003e-06	382.45	129.34	110.32	38.635	1.8972e-06	47.292	198.710	78.302	44.583	-18.293	56.370	62.757	-18.423	-13.104	177.864	75.392	-14.243	-9.123	-8.778	-4.654	185.622	-5.357	-8191	255	
896.561	1	1	0	0	0.34595	0.096653	0.087378	0.15041	0.29345	0.14046	0.2036	0.13297	0.21678	0.26912	0.17202	0.088352	0.12191	0.057328	0.05765	0.20937	-1.8667	-2.8354	-2.4	-2.6854	-2.7	-2.2438	-2.8958	-2.6937	-2.3187	-2.8771	-2.775	-2.4979	-3.0292	-2.3375	-2.6792	-2.7729	192.540	85.008	254.033	-26.456	-16.538	-20.517	250.956	107.871	135.043	195.856	-12.222	141.444	42.157	152.330	241.142	268.187	0.00017356	0.00035708	0.00011709	1324.2	1.4272e-07	5.7073e-06	1335.9	358.36	5.1566e-06	3.0849e-06	412.39	139.77	120.85	41.541	1.0459e-06	51.865	0.00017539	0.00017242	4.8178e-05	1266.7	1.8919e-06	1.893e-06	1277.5	341.64	1.8842e-06	1.8945e-06	381.77	129.19	110.1	38.522	1.8934e-06	47.31	209.840	-24.202	135.116	-18.284	127.471	87.697	-18.108	-13.185	165.347	156.978	-14.561	-9.313	-8.733	-4.787	130.096	-5.352	-8191	255	
896.659	1	1	0	0	0.24468	0.15261	0.27306	0.18377	0.26189	0.08668	0.42187	0.1725	0.11651	0.11258	0.41114	0.09762	0.080549	0.15689	0.10335	0.10715	-2.1729	-2.7812	-2.6	-2.5083	-2.8667	-2.2979	-3.0583	-2.8583	-2.2771	-2.8187	-2.7729	-2.4062	-2.9208	-2.475	-2.5771	-2.9771	92.867	10.836	236.468	317.268	62.464	181.942	219.973	157.853	275.856	125.191	294.904	-26.621	-4.522	240.684	-17.287	204.101	0.00024305	0.00038234	8.5478e-05	1326.3	2.6608e-06	3.766e-06	1331.9	359	1.4937e-06	5.6002e-06	413.65	139.7	120.94	41.533	1.2713e-06	52.036	0.00017677	0.00017363	4.8219e-05	1266.3	1.9117e-06	1.8952e-06	1274.8	341.85	1.9083e-06	1.875e-06	382.2	129.29	110.35	38.482	1.8931e-06	47.311	201.350	-2.186	18.718	-18.367	131.751	49.427	-18.336	-13.086	80.252	118.549	-14.161	-9.315	-8.543	-4.744	174.845	-5.431	-8191	255	
896.778	1	1	0	0	0.042876	0.087309	0.086416	0.11862	0.17432	0.074375	0.25155	0.12555	0.13717	0.22607	0.10636	0.22195	0.036116	0.19097	0.25419	0.41947	-1.7938	-2.6854	-2.7	-2.6104	-2.8854	-2.2708	-2.7687	-2.8667	-2.1854	-2.6458	-2.7667	-2.5187	-3.0333	-2.5021	-2.4417	-2.8604	96.263	183.596	274.832	6.427	304.460	94.278	273.517	265.525	212.643	117.780	303.194	267.369	249.185	286.146	-18.077	232.829	0.00014938	0.00049432	0.00010847	1324.3	1.2572e-06	4.2679e-06	1334.8	359.44	4.656e-06	2.5622e-06	413.29	140.17	120.66	41.541	4.3796e-06	51.886	0.00017579	0.00017496	4.8464e-05	1266	1.9186e-06	1.9366e-06	1275.3	341.84	1.9573e-06	1.9278e-06	382.65	129.35	110.15	38.608	1.9492e-06	47.293	225.374	52.466	40.878	-18.419	151.572	36.744	-18.354	-13.238	108.985	42.227	-14.363	-9.437	-8.744	-4.401	64.768	-5.599	-8191	255	
896.874	1	1	0	0	0.14369	0.21134	0.16444	0.25047	0.0228	0.18321	0.17135	0.3253	0.16125	0.10683	0.26611	0.18924	0.024154	0.2119	0.1912	0.23694	-1.7625	-2.5458	-2.5208	-2.5417	-2.6562	-2.4375	-2.7417	-2.8479	-2.4104	-2.6583	-2.85	-2.2771	-2.9125	-2.6333	-2.2729	-2.9104	93.340	161.473	121.991	269.449	252.469	281.595	239.292	280.085	106.386	84.478	293.293	312.385	161.552	220.790	118.867	303.203	0.00021028	0.00056652	3.1883e-05	1323.9	7.2724e-06	3.2637e-06	1338.1	358.59	1.5284e-06	3.3605e-06	411.69	139.27	120.42	41.514	2.1611e-06	51.764	0.00017927	0.00017768	4.9205e-05	1268	1.9693e-06	1.9607e-06	1276.7	342.06	1.9805e-06	1.979e-06	383.14	129.52	110.47	38.645	1.981e-06	47.354	206.900	-25.139	46.122	-18.163	106.210	71.113	-18.473	-13.049	-8.265	44.443	-14.291	-9.372	-8.710	-4.579	63.778	-5.177	-8191	255	
896.945	1	1	0	0	0.12295	0.164	0.11661	0.25809	0.037594	0.051466	0.098141	0.14388	0.20234	0.12404	0.20911	0.21376	0.15154	0.14054	0.21318	0.31054	-2.0312	-2.4333	-2.6042	-2.2	-2.7667	-2.5354	-2.5312	-2.9104	-2.1813	-2.45	-2.9188	-2.4208	-2.7292	-2.7125	-2.3333	-2.8479	275.735	123.318	88.637	-23.280	63.456	117.444	217.062	-23.887	226.509	232.012	168.294	-25.180	59.480	106.395	102.101	-26.322	0.00021792	0.00032905	0.00010967	1324.8	6.8849e-06	3.9471e-06	1336	359.33	5.128e-06	5.6555e-06	412.03	139.92	121.22	41.498	1.66e-06	51.855	0.00018232	0.00017958	5.0194e-05	1267.7	1.9636e-06	1.9508e-06	1275	341.81	1.9448e-06	1.9277e-06	382.38	129.31	110.32	38.527	1.9156e-06	47.268	236.091	0.851	96.155	-18.255	162.887	50.557	-18.227	-13.305	106.062	122.065	-14.006	-9.301	-8.688	-4.678	129.277	-5.280	-8191	255	
897.066	1	1	0	0	0.083556	0.14626	0.15473	0.49213	0.10221	0.079013	0.22467	0.085148	0.092381	0.087518	0.038085	0.15627	0.05153	0.15014	0.23768	0.28209	-1.7313	-2.2604	-2.6542	-2.4313	-2.7521	-2.5292	-2.4437	-2.8229	-2.4188	-2.4271	-2.9208	-2.2833	-2.5042	-2.7438	-2.3063	-2.7896	-22.235	144.654	124.247	316.002	238.513	247.841	-30.281	276.510	176.299	-4.074	310.832	105.750	151.746	-5.834	70.550	39.821	0.00020273	0.00050643	0.00012086	1325.7	2.2471e-06	3.7295e-06	1333.5	357.45	2.6274e-06	3.7547e-06	413.93	139.57	120.74	41.511	2.3184e-06	51.856	0.00017547	0.0001725	4.8103e-05	1266.3	1.8873e-06	1.8724e-06	1273.9	340.98	1.8959e-06	1.8714e-06	382.39	129.05	110.01	38.477	1.8815e-06	47.294	184.634	-0.069	45.238	-18.321	108.466	98.917	-18.400	-13.259	157.499	138.380	-14.407	-9.332	-8.358	-4.792	144.951	-5.040	-8191	255	
897.162	1	1	0	0	0.13512	0.17406	0.12244	0.22426	0.14104	0.20411	0.09256	0.22856	0.098536	0.077117	0.1652	0.33563	0.13564	0.45573	0.096987	0.1567	-1.7854	-2.3458	-2.6708	-2.3375	-2.5979	-2.6396	-2.4917	-2.8354	-2.4708	-2.4021	-2.9958	-2.3625	-2.5958	-2.6375	-2.2938	-2.9375	17.151	-19.686	324.225	269.898	183.669	306.862	259.864	10.300	47.000	297.262	13.047	-30.931	215.343	311.306	275.875	173.334	0.00017708	0.00041939	3.8409e-05	1324.2	4.4122e-06	4.6816e-06	1334.1	359.48	2.9093e-06	1.5698e-06	411.19	139.54	120.61	41.434	1.7643e-06	51.777	0.00017479	0.00017283	4.8144e-05	1268	1.8847e-06	1.8741e-06	1273.8	341.57	1.905e-06	1.9007e-06	381.67	129.13	110.13	38.485	1.8945e-06	47.231	222.870	313.011	321.661	-18.576	325.854	8.586	-18.094	-13.061	93.396	120.618	-14.238	-9.151	-8.588	-4.494	131.985	-5.185	-8191	255	
897.258	1	1	0	0	0.10265	0.10148	0.19192	0.15799	0.11894	0.098905	0.37913	0.070005	0.286	0.29897	0.11899	0.071137	0.19455	0.10195	0.12091	0.15282	-2.3312	-2.2729	-2.6437	-2.5104	-2.4313	-2.5833	-2.3458	-2.8146	-2.5167	-2.3854	-2.8708	-2.6562	-2.5083	-2.6146	-2.3479	-2.625	124.768	49.317	94.924	262.026	-24.160	5.900	299.381	311.249	224.926	218.122	276.204	63.890	320.959	313.824	24.577	-14.717	0.00036186	0.00049091	0.00013142	1322.2	3.7887e-06	3.946e-06	1338.1	360.87	2.9956e-06	2.839e-06	412.33	139.89	121.13	41.522	1.8925e-06	51.937	0.00017713	0.00017474	4.8213e-05	1266.5	1.9222e-06	1.9212e-06	1277.2	342.25	1.9486e-06	1.9347e-06	382.41	129.44	110.49	38.572	1.9564e-06	47.408	217.354	22.165	135.563	-18.238	176.623	23.815	-18.209	-13.299	140.690	140.610	-14.241	-9.372	-8.722	-4.613	231.776	-5.222	-8191	255	
897.379	1	1	0	0	0.08396	0.18684	0.042678	0.34737	0.18969	0.2603	0.070022	0.15049	0.11767	0.17138	0.19193	0.15358	0.085277	0.36376	0.065104	0.17211	-2.375	-2.2438	-2.7146	-2.6063	-2.3333	-2.775	-2.6792	-2.7333	-2.5521	-2.3375	-2.8104	-2.5312	-2.375	-2.9813	-2.3646	-2.7229	327.475	241.686	-8.906	304.184	134.513	97.128	48.198	276.746	70.502	70.308	251.271	280.493	213.386	-12.602	114.958	-23.676	0.00025662	0.00062855	3.8886e-05	1328.3	3.8346e-06	4.4022e-06	1330.5	358.46	1.7304e-06	2.2787e-06	412.54	139.74	121.11	41.463	4.3695e-06	51.911	0.00018126	0.00018002	4.9699e-05	1269	1.9733e-06	1.9668e-06	1275.1	342.1	1.9886e-06	1.9986e-06	382.8	129.25	110.58	38.591	2.0023e-06	47.371	233.499	305.366	87.093	-18.286	83.643	18.390	-18.220	-13.039	125.066	138.345	-14.156	-9.339	-8.468	-4.570	20.670	-5.524	-8191	255	
897.473	1	1	0	0	0.077966	0.052683	0.26156	0.35677	0.20564	0.12637	0.25042	0.18826	0.31704	0.2111	0.45626	0.13505	0.15999	0.16956	0.31893	0.15427	-2.2208	-2.1146	-2.7667	-2.6917	-2.2979	-2.8812	-2.4938	-2.6896	-2.5979	-2.1792	-3.025	-2.9208	-2.3146	-2.9583	-2.2938	-2.5958	-23.899	230.240	49.086	285.920	37.006	44.062	316.913	286.267	-3.597	110.311	270.555	256.866	28.714	222.300	-5.508	192.674	0.00024459	0.0004519	3.7389e-05	1322.3	3.4564e-06	2.403e-06	1332.5	359.71	2.8442e-06	4.8736e-06	410.14	139.53	120.95	41.47	8.5395e-07	52.005	0.00018418	0.00018058	5.003e-05	1266.6	1.9941e-06	1.9937e-06	1277.6	342.58	1.9907e-06	1.9883e-06	382.67	129.29	110.55	38.589	1.9804e-06	47.371	203.622	72.139	170.192	-18.348	-13.238	161.218	-18.421	-13.179	195.324	179.274	-14.227	-9.324	-8.785	-4.736	162.620	-5.452	-8191	255	
897.547	1	1	0	0	0.20522	0.074811	0.081911	0.32495	0.16745	0.049033	0.29006	0.47963	0.10141	0.15819	0.443	0.20151	0.36389	0.098148	0.42624	0.13352	-2.3396	-2.3792	-2.6979	-2.6833	-2.3979	-2.825	-2.725	-2.6771	-2.7875	-2.4313	-2.6479	-2.6458	-2.3583	-3.0458	-2.5042	-2.6583	72.678	158.203	-24.272	298.555	6.960	294.107	282.052	273.378	262.983	323.573	256.082	9.973	-19.108	37.423	113.664	-27.542	0.00024322	0.00024561	6.4191e-05	1324.5	2.3453e-06	2.1805e-06	1333.2	358.55	2.9928e-06	3.5086e-06	411.23	139.97	120.94	41.399	9.9606e-07	51.735	0.00018226	0.00017885	4.9888e-05	1268.6	1.9781e-06	1.9649e-06	1275.5	341.85	1.9792e-06	1.9654e-06	382.39	129.57	110.34	38.616	1.9889e-06	47.363	197.288	0.566	53.931	-18.271	93.839	77.427	-18.281	-13.301	234.969	138.565	-14.342	-9.098	-8.708	-4.652	260.525	-5.408	-8191	255	
897.666	1	1	0	0	0.14377	0.049473	0.0039556	0.29168	0.137	0.31531	0.18271	0.32024	0.18163	0.18598	0.27089	0.2545	0.18853	0.095123	0.063915	0.1193	-2.3167	-2.4938	-2.7083	-2.8021	-2.2792	-2.7188	-2.7292	-2.6333	-2.6854	-2.2562	-2.7396	-2.8812	-2.3604	-2.9083	-2.6354	-2.4562	-23.276	98.553	85.793	270.428	174.442	11.968	273.357	260.237	123.381	33.112	278.407	316.459	-0.829	67.444	15.402	252.406	0.00029868	0.00069493	0.00012561	1325	4.6324e-06	2.1712e-06	1332.4	359.18	4.2869e-06	1.8242e-06	412.98	140.3	120.49	41.516	5.4936e-07	51.708	0.00018455	0.00018234	5.054e-05	1267.9	1.9837e-06	1.9777e-06	1275.9	342.05	1.9745e-06	1.98e-06	382.97	129.51	110.46	38.645	1.9651e-06	47.276	223.573	53.626	67.962	-18.277	132.936	51.898	-18.312	-13.164	97.834	184.886	-14.299	-9.140	-8.424	-4.444	39.051	-5.295	-8191	255	
897.762	1	1	0	0	0.16181	0.12733	0.041221	0.20862	0.13847	0.036503	0.26865	0.25457	0.11616	0.14189	0.12401	0.24273	0.32877	0.28942	0.26567	0.13769	-2.5583	-2.3187	-2.5542	-3.0167	-2.2792	-2.7375	-2.8063	-2.4625	-2.7833	-2.4167	-2.6396	-2.8667	-2.2646	-2.6625	-2.3771	-2.5583	195.675	64.099	293.482	-30.745	-2.896	221.857	269.435	278.135	156.067	181.328	230.643	173.429	-26.731	327.677	181.727	38.851	0.00022825	0.00052994	5.2387e-05	1327.5	1.3885e-06	9.4603e-07	1339.9	360.38	2.8147e-06	1.5771e-06	411.73	139.62	120.15	41.518	2.0922e-06	52.132	0.00018097	0.00017834	4.9221e-05	1268.8	1.9339e-06	1.9132e-06	1276.9	342.22	1.8924e-06	1.8811e-06	382.21	128.93	109.86	38.486	1.8571e-06	47.237	197.336	-4.734	35.938	-18.236	152.340	102.472	-18.295	-13.455	171.632	80.599	-14.128	-9.051	-8.957	-4.758	20.344	-5.267	-8191	255	
897.858	1	1	0	0	0.066749	0.11443	0.21004	0.18622	0.20776	0.1626	0.209	0.14775	0.13425	0.022358	0.070152	0.054648	0.060058	0.071428	0.03514	0.30381	-2.4042	-2.4437	-2.5042	-3.0312	-2.3771	-2.5625	-2.7646	-2.5167	-2.9062	-2.3417	-2.475	-2.8396	-2.475	-2.725	-2.6312	-2.5438	216.017	230.158	238.462	269.580	258.146	295.234	270.285	273.809	47.822	56.518	207.232	309.422	116.660	-28.326	-21.129	299.300	0.00023662	0.00040643	6.4856e-05	1326	3.2256e-06	5.1249e-06	1331.4	359.45	2.1675e-06	3.4471e-06	411.48	139.79	120.5	41.559	1.2422e-06	52.171	0.00017128	0.00016867	4.7134e-05	1266.4	1.8775e-06	1.8734e-06	1275.6	342	1.9004e-06	1.8872e-06	382.86	129.18	110.38	38.586	1.9262e-06	47.422	210.198	41.639	76.794	-18.280	120.732	57.369	-18.300	-13.414	143.116	144.806	-14.430	-9.226	-8.617	-4.700	314.561	-5.283	-8191	255	
897.954	1	1	0	0	0.22782	0.062561	0.07634	0.32486	0.20369	0.43499	0.43049	0.15965	0.16611	0.27266	0.15415	0.24103	0.026125	0.23229	0.28715	0.16252	-2.3646	-2.4958	-2.4417	-3.1792	-2.1458	-2.5146	-2.85	-2.4958	-2.6729	-2.4292	-2.4083	-2.8458	-2.3792	-2.7292	-2.7229	-2.3292	177.038	73.393	-17.223	263.338	2.026	199.277	265.241	272.694	-23.624	63.142	204.480	286.631	217.480	286.528	76.031	192.837	0.00023255	0.00034902	8.2249e-05	1333.8	9.0573e-07	1.9146e-06	1336.1	360.28	5.7377e-06	5.0532e-06	413.46	140.19	121.64	41.596	1.6132e-06	51.655	0.00018076	0.00017751	4.9546e-05	1272.3	1.9492e-06	1.9403e-06	1278.3	342.53	1.9595e-06	1.9327e-06	383.12	129.63	110.69	38.618	1.9768e-06	47.315	203.155	44.132	157.961	-18.304	88.753	96.005	-17.985	-13.243	116.056	117.325	-14.171	-9.084	-8.626	-4.810	48.348	-5.499	-8191	255	
898.075	1	1	0	0	0.1246	0.11076	0.15533	0.37556	0.2442	0.27974	0.020817	0.38676	0.11599	0.066403	0.083142	0.34311	0.20363	0.18925	0.073517	0.25614	-2.2667	-2.5292	-2.3021	-2.8958	-2.4979	-2.5	-2.8812	-2.2458	-2.7292	-2.5708	-2.4292	-2.8187	-2.4458	-2.6917	-2.7542	-2.2625	-8.041	153.286	202.617	310.369	266.080	44.375	325.030	273.367	120.695	80.339	286.012	323.807	279.237	22.091	223.684	309.736	0.00026994	0.00020042	3.7985e-05	1326.6	1.5715e-06	5.1428e-06	1336.1	359.38	2.6554e-06	2.8434e-06	412.45	139.66	120.94	41.619	4.613e-06	51.918	0.00018431	0.00018148	5.0462e-05	1270.4	1.9907e-06	2.0042e-06	1278.3	342.65	2.0023e-06	2.0132e-06	384.07	129.75	110.74	38.728	2.0236e-06	47.491	211.092	306.886	87.862	-18.513	156.414	60.442	-18.163	-13.342	72.411	144.479	-13.976	-9.192	-8.702	-4.709	176.580	-5.243	-8191	255	
898.171	1	1	0	0	0.22764	0.11902	0.17201	0.35606	0.089225	0.19882	0.20686	0.072146	0.1226	0.10978	0.011829	0.25823	0.26107	0.1664	0.086399	0.19806	-2.0917	-2.6021	-2.1813	-2.9938	-2.3896	-2.6667	-3.0417	-2.5083	-2.5896	-2.7021	-2.4833	-2.9625	-2.5729	-2.525	-2.7562	-2.3625	6.065	69.009	152.091	312.743	284.031	132.925	281.815	219.149	-1.423	96.637	146.826	-18.073	27.435	30.749	288.119	239.141	0.00025412	0.00053355	4.6749e-06	1330.1	3.0857e-06	5.2351e-06	1337.6	359.53	3.2878e-06	4.5574e-06	412.89	140.65	121.61	41.634	4.6842e-06	52.079	0.00018743	0.00018429	5.1315e-05	1274	2.0403e-06	2.0314e-06	1280.8	343.09	2.0371e-06	2.0334e-06	384.57	129.98	111	38.745	2.0382e-06	47.564	244.934	23.060	108.007	-18.437	135.886	15.818	-18.216	-13.440	212.176	76.549	-14.036	-9.213	-8.992	-4.734	81.973	-5.331	-8191	255	
898.242	1	1	0	0	0.16787	0.19848	0.17737	0.24486	0.24113	0.21672	0.19816	0.30178	0.038621	0.13666	0.099278	0.066503	0.18394	0.14233	0.06145	0.15731	-2.2188	-2.7167	-2.2479	-2.9583	-2.5375	-2.3583	-3.1188	-2.4625	-2.5167	-2.9271	-2.3667	-2.7875	-2.5542	-2.5417	-2.9042	-2.6	187.212	251.427	260.210	322.838	153.327	2.174	277.276	323.452	42.016	46.083	291.681	261.097	221.734	173.136	107.566	184.803	0.00013464	0.00043522	7.1814e-05	1329.5	6.09e-06	9.5291e-07	1340.4	359.88	9.8807e-07	5.2995e-06	411.58	139.36	121.14	41.535	1.0337e-06	51.82	0.00019023	0.00018687	5.2087e-05	1274.3	2.0573e-06	2.0181e-06	1281.9	343.17	2.0084e-06	2.0073e-06	383.54	129.63	110.72	38.699	2.0169e-06	47.366	220.140	30.737	96.393	-18.280	29.879	273.288	-18.239	-13.265	118.825	140.091	-14.135	-9.160	-8.693	-4.772	121.781	-5.691	-8191	255	
898.339	1	1	0	0	0.18073	0.11151	0.26579	0.2034	0.086961	0.061193	0.075898	0.092852	0.30076	0.30786	0.28895	0.085674	0.13817	0.31387	0.068559	0.13112	-2.1125	-2.7292	-2.4125	-2.8438	-2.5521	-2.4938	-3.1604	-2.6021	-2.4083	-2.675	-2.4062	-2.8271	-2.6333	-2.3979	-2.7875	-2.6417	268.001	294.056	7.116	320.650	131.180	66.047	137.612	211.390	62.154	114.260	282.406	27.156	1.959	269.794	299.810	297.043	0.00029073	0.00023051	8.9225e-05	1325.9	2.6212e-06	5.1651e-07	1334.9	359.79	2.5695e-06	2.8224e-06	412.32	139.68	120.89	41.513	1.635e-06	51.917	0.00018741	0.00018493	5.1438e-05	1273.8	2.0274e-06	2.0149e-06	1278.3	342.87	2.0087e-06	2.0275e-06	383.4	129.59	110.74	38.664	1.9695e-06	47.414	230.767	81.860	41.001	-18.292	120.830	66.829	-18.347	-13.344	36.154	90.082	-14.167	-9.102	-8.733	-4.724	173.714	-5.212	-8191	255	
898.459	1	1	0	0	0.11566	0.0068548	0.28466	0.38335	0.3275	0.037918	0.48174	0.32751	0.20153	0.27101	0.29266	0.14909	0.16143	0.2888	0.14343	0.076949	-2.0354	-2.8812	-2.3604	-2.7146	-2.6458	-2.5458	-2.9083	-2.7396	-2.3042	-2.9062	-2.6125	-2.5208	-2.6667	-2.4125	-2.6063	-2.7562	95.130	242.442	289.429	278.836	207.903	-10.405	286.281	324.982	127.111	-8.116	283.096	20.556	321.621	258.124	38.774	257.911	0.00031281	0.00067444	0.00010384	1326.4	5.8515e-07	4.6533e-06	1339.4	359.2	5.4335e-06	2.8318e-06	411.34	139.55	121.14	41.53	3.4183e-06	51.885	0.00018193	0.00017767	4.9701e-05	1268.6	1.9392e-06	1.9264e-06	1277.8	341.38	1.9226e-06	1.8901e-06	381.7	128.85	110.03	38.472	1.8901e-06	47.173	208.201	2.064	30.071	-18.227	149.517	26.290	-18.209	-13.221	146.935	176.635	-14.462	-9.240	-8.818	-4.684	135.261	-5.369	-8191	255	
898.554	1	1	0	0	0.23908	0.044286	0.16756	0.12163	0.0435	0.11781	0.15205	0.16174	0.31985	0.081333	0.21524	0.17489	0.17096	0.29293	0.028554	0.10778	-1.9271	-2.7062	-2.2792	-2.6958	-2.6792	-2.1479	-2.9479	-2.7125	-2.2271	-2.7583	-2.6708	-2.5875	-2.8583	-2.3292	-2.5667	-2.8937	160.473	81.697	137.244	260.280	-27.049	41.387	216.065	-30.386	69.240	-18.719	139.882	226.987	-14.701	327.589	264.067	6.374	0.00024365	0.0005372	8.6254e-05	1319.7	4.0676e-06	1.7564e-06	1335.7	357.84	3.1087e-06	2.7428e-06	412.03	139.26	119.89	41.286	2.2112e-06	51.572	0.00017581	0.00017273	4.7955e-05	1263.8	1.9019e-06	1.9021e-06	1275.1	340.51	1.934e-06	1.9063e-06	381.36	128.88	109.66	38.386	1.9226e-06	47.119	223.164	42.280	7.567	-18.387	99.538	62.835	-18.218	-13.214	161.556	-6.721	-14.248	-9.120	-8.648	-4.449	135.555	-5.351	-8191	255	
898.650	1	1	0	0	0.23764	0.11338	0.26783	0.339	0.15355	0.23142	0.30456	0.064454	0.19469	0.15119	0.46039	0.10307	0.33468	0.22915	0.14202	0.18636	-1.85	-2.8646	-2.4625	-2.6771	-2.7583	-2.3438	-2.75	-2.8917	-2.2125	-2.8	-2.475	-2.3688	-2.825	-2.5729	-2.525	-2.9271	246.653	146.574	291.623	281.103	91.000	177.042	232.751	314.384	170.115	307.252	-20.707	289.633	295.160	5.629	327.879	314.949	0.00021109	0.00051923	8.6799e-05	1321.9	4.4387e-06	5.9364e-06	1331.6	358.21	1.994e-06	3.4822e-06	410.84	139.28	120.49	41.333	1.0819e-06	51.755	0.00017511	0.00017311	4.829e-05	1264.8	1.8907e-06	1.8733e-06	1274	340.32	1.8685e-06	1.8499e-06	380.79	128.33	109.57	38.321	1.8186e-06	46.977	212.650	-21.793	84.088	-18.302	124.850	123.697	-18.187	-13.262	114.177	154.132	-14.498	-9.325	-8.698	-4.820	172.325	-5.188	-8191	255	
898.746	1	1	0	0	0.17881	0.14271	0.21799	0.37626	0.23532	0.17571	0.18285	0.25791	0.10242	0.1466	0.14791	0.20456	0.047855	0.15028	0.22678	0.35666	-1.8271	-2.5042	-2.4125	-2.5438	-2.7896	-2.3417	-2.6833	-2.7271	-2.275	-2.6479	-2.5604	-2.4167	-2.9771	-2.6437	-2.4437	-2.775	3.662	315.990	-16.457	316.538	-15.059	208.348	-24.716	295.621	292.419	217.616	280.437	324.314	223.451	316.250	296.720	227.037	0.00028492	0.00036883	6.7268e-05	1325.2	4.2505e-06	2.3984e-06	1332.8	357.42	2.1778e-06	4.4921e-06	410.52	139.31	120.62	41.3	5.0948e-06	51.939	0.00016728	0.00016508	4.6136e-05	1265	1.8246e-06	1.815e-06	1272.5	340.18	1.853e-06	1.8495e-06	380.45	128.6	109.74	38.322	1.867e-06	47.098	224.101	-7.505	103.644	-18.297	167.665	264.548	-18.385	-13.284	34.711	149.247	-14.329	-9.068	-8.624	-4.513	94.907	-5.459	-8191	255	
898.842	1	1	0	0	0.20384	0.079423	0.22493	0.2644	0.11741	0.10152	0.18467	0.17351	0.33093	0.13206	0.088008	0.12514	0.28856	0.14565	0.1935	0.16655	-1.9188	-2.5458	-2.4667	-2.4917	-2.7333	-2.4313	-2.5833	-3.0479	-2.1063	-2.5146	-2.7083	-2.5583	-3.1083	-2.475	-2.4333	-2.9708	328.224	-25.518	26.098	281.921	112.148	201.320	261.765	251.159	25.690	122.748	281.382	312.008	92.734	149.677	103.463	261.759	0.00018647	0.00066432	5.9143e-05	1323.2	1.9094e-06	1.8247e-06	1331.3	358.24	4.9669e-06	2.2529e-06	411.25	139.41	119.7	41.431	3.9329e-06	51.844	0.00017175	0.00016942	4.7001e-05	1263.1	1.8558e-06	1.8476e-06	1271.1	339.85	1.8412e-06	1.8367e-06	380.41	128.39	109.51	38.346	1.8623e-06	47.015	219.514	-10.626	248.740	-18.198	147.077	137.922	-18.375	-13.183	140.280	123.945	-14.247	-9.296	-8.530	-4.589	73.755	-5.304	-8191	255	
898.938	1	1	0	0	0.075431	0.34797	0.26208	0.11002	0.06535	0.22465	0.4183	0.12158	0.21985	0.091597	0.19251	0.029055	0.11158	0.31498	0.20821	0.34113	-1.9583	-2.5083	-2.5583	-2.4688	-2.7292	-2.5146	-2.6479	-3.1208	-2.3625	-2.775	-2.8021	-2.4313	-2.8979	-2.675	-2.3979	-3.0375	-20.833	-9.696	82.561	273.021	323.501	63.140	284.035	194.127	-5.386	-27.335	310.882	252.016	0.755	289.692	-22.023	300.034	0.00023512	0.00042749	0.00011538	1320.8	3.4051e-06	4.2341e-06	1331.7	357.99	2.3561e-06	1.2801e-06	411.92	139.77	120.11	41.598	2.4334e-06	52.066	0.00017242	0.00017066	4.7217e-05	1264.2	1.894e-06	1.8595e-06	1272.8	340.45	1.8865e-06	1.8914e-06	381.44	128.93	109.82	38.444	1.8921e-06	47.222	223.253	3.250	59.033	-18.506	146.546	72.613	-18.216	-13.361	114.508	30.741	-14.184	-9.258	-8.555	-4.722	304.933	-5.454	-8191	255	
899.059	1	1	0	0	0.30274	0.063718	0.32695	0.20792	0.23713	0.17212	0.074069	0.35604	0.11813	0.25887	0.078625	0.28316	0.03922	0.42899	0.095885	0.3361	-2	-2.5292	-2.7562	-2.4542	-2.5687	-2.5042	-2.625	-2.9292	-2.1333	-2.4021	-2.8563	-2.3833	-2.7854	-2.6521	-2	-2.8646	75.378	229.466	103.682	-12.446	-8.085	130.917	223.835	319.112	-0.584	270.401	-28.110	211.796	79.509	287.580	116.377	177.659	0.00013483	0.00061224	0.00011359	1324.8	1.1226e-06	1.7401e-06	1332.3	358.12	2.2564e-06	4.1166e-06	412	139.4	120.28	41.4	1.9935e-06	51.544	0.00017542	0.00017385	4.8019e-05	1266.1	1.9016e-06	1.8933e-06	1274.4	340.3	1.8844e-06	1.882e-06	381	128.71	109.82	38.471	1.8677e-06	47.076	215.290	13.916	25.972	-18.324	217.332	130.248	-18.259	-13.508	95.557	132.177	-14.155	-9.229	-8.726	-4.678	113.262	-5.500	-8191	255	
899.155	1	1	0	0	0.15315	0.42565	0.24356	0.26828	0.25761	0.11776	0.26232	0.18814	0.037558	0.30533	0.35074	0.15399	0.095095	0.17473	0.11628	0.16078	-2.0479	-2.5396	-2.8667	-2.4688	-2.5917	-2.65	-2.3875	-2.8083	-2.4688	-2.3958	-2.7854	-2.5958	-2.6458	-2.7417	-2.2396	-2.7771	64.711	-19.609	328.250	235.923	191.763	-7.581	-11.600	261.060	62.962	18.019	-23.287	97.935	174.638	259.077	102.002	18.897	0.00021407	0.00064919	9.7137e-05	1326.4	1.5645e-06	3.1493e-06	1335.3	358.9	3.2677e-06	3.2954e-06	410.95	139.67	120.53	41.268	1.1491e-06	51.833	0.00017403	0.00017167	4.769e-05	1267.6	1.8703e-06	1.872e-06	1275.8	340.95	1.8819e-06	1.8914e-06	381.46	128.9	109.87	38.414	1.9165e-06	47.159	200.200	64.630	57.585	-18.140	149.926	117.523	-18.300	-13.222	77.655	129.828	-14.210	-9.133	-8.576	-4.711	295.095	-5.347	-8191	255	
899.251	1	1	0	0	0.11444	0.21703	0.084119	0.31041	0.11802	0.20646	0.14133	0.18453	0.15712	0.10103	0.22894	0.20032	0.41499	0.030838	0.11873	0.15816	-2.0146	-2.4667	-2.7333	-2.5167	-2.575	-2.85	-2.4583	-2.9188	-2.6583	-2.525	-2.7604	-2.4562	-2.6437	-2.8438	-2.3833	-2.8	178.392	132.110	50.070	285.992	50.271	298.187	225.560	248.723	141.865	271.347	322.976	39.110	238.016	93.971	158.731	62.976	0.00025576	0.00052925	7.0731e-05	1329.9	5.2365e-07	9.3496e-07	1332.8	358.13	2.5198e-06	3.9544e-06	411.02	139.47	120.61	41.432	5.3549e-07	51.619	0.00017771	0.00017594	4.8755e-05	1269.4	1.9531e-06	1.9525e-06	1277.1	341.59	1.9755e-06	1.9701e-06	381.97	129.2	110.22	38.518	1.9832e-06	47.279	212.028	7.454	32.475	-18.387	202.371	164.975	-18.238	-13.324	40.583	120.948	-14.203	-9.289	-8.809	-4.679	50.268	-5.295	-8191	255	
899.347	1	1	0	0	0.13429	0.28446	0.31551	0.4015	0.3386	0.2103	0.1809	0.34271	0.14079	0.12688	0.11401	0.086766	0.092292	0.14454	0.15512	0.30221	-2.0792	-2.1875	-2.5417	-2.5042	-2.4333	-2.6979	-2.5	-2.7396	-2.5292	-2.4167	-2.9938	-2.6875	-2.5729	-3.0417	-2.3479	-2.7604	59.059	293.720	119.031	284.160	220.074	90.893	292.294	238.844	322.960	314.272	234.014	225.908	72.224	89.496	102.552	281.571	0.00027159	0.00056574	0.000123	1320.1	1.3635e-06	2.6969e-06	1335.2	358.76	1.6455e-06	1.9153e-06	410.22	139.32	120.83	41.463	2.5864e-06	51.983	0.0001823	0.00018032	5.0202e-05	1266.6	1.9765e-06	1.9641e-06	1276.1	341.76	1.9696e-06	1.9682e-06	381.57	129.06	110.16	38.516	1.9566e-06	47.308	210.876	-2.970	-6.000	-18.368	303.698	77.947	-18.326	-13.261	286.146	191.586	-14.232	-9.037	-8.456	-4.598	135.658	-5.311	-8191	255	
899.466	1	1	0	0	0.10894	0.034945	0.14762	0.31951	0.12599	0.30827	0.33062	0.27498	0.016585	0.1023	0.3012	0.14502	0.20946	0.13527	0.11	0.24331	-2.2521	-2.1063	-3.0167	-2.5875	-2.4854	-2.8417	-2.4292	-3.0021	-2.6813	-2.2521	-2.8229	-2.5312	-2.4458	-2.7271	-2.4062	-2.7667	-6.932	62.911	143.427	309.172	168.286	284.533	224.778	283.713	46.937	225.521	13.796	116.020	8.464	122.158	114.223	326.322	0.00021245	0.00053849	2.225e-05	1327.1	3.4371e-06	3.0938e-06	1335.2	357.33	1.1565e-06	3.1742e-06	411.34	139.58	121.06	41.334	2.3875e-06	51.836	0.00018165	0.0001801	4.9532e-05	1268.8	1.964e-06	1.928e-06	1277.6	341.04	1.9496e-06	1.929e-06	381.75	129.11	110.09	38.476	1.9222e-06	47.19	215.567	42.573	147.594	-18.261	121.548	33.121	-18.268	-13.259	40.994	74.119	-14.195	-9.260	-8.617	-4.606	155.120	-5.213	-8191	255	
899.538	1	1	0	0	0.094859	0.032607	0.10356	0.14184	0.058576	0.11369	0.074635	0.1667	0.13976	0.13377	0.20815	0.14392	0.30454	0.092643	0.16196	0.2029	-2.3625	-2.2729	-2.8396	-2.7021	-2.3104	-2.8271	-2.7062	-2.9292	-2.5521	-2.3312	-2.7562	-2.7	-2.4583	-2.9396	-2.5771	-2.7917	17.582	328.627	192.941	-19.534	32.757	263.804	260.779	-21.269	52.009	315.211	307.545	184.205	280.327	298.444	-26.986	-24.259	0.00023776	0.00021731	4.7716e-05	1324.4	5.1177e-06	3.0124e-06	1334.6	358.53	3.3473e-06	3.3836e-06	411.77	139.65	120.44	41.386	9.9104e-07	51.734	0.00017753	0.00017536	4.8747e-05	1268.8	1.9124e-06	1.9012e-06	1276.4	341.23	1.8942e-06	1.8878e-06	381.3	128.93	109.98	38.456	1.8715e-06	47.084	205.592	158.679	324.443	-18.348	142.781	25.459	-18.230	-13.364	207.342	41.917	-14.027	-9.195	-8.579	-4.593	258.960	-5.350	-8191	255	
899.634	1	1	0	0	0.01025	0.12403	0.21383	0.018725	0.083843	0.38669	0.1606	0.32487	0.087309	0.33898	0.15967	0.14462	0.17288	0.2496	0.067697	0.035248	-2.4062	-2.3292	-2.7521	-2.7708	-2.3208	-2.8312	-2.6667	-2.6208	-2.7687	-2.2021	-2.8021	-2.8146	-2.3792	-3	-2.6354	-2.3375	221.359	96.052	-26.104	70.743	98.123	268.855	217.082	-25.994	284.556	234.706	251.570	175.711	318.023	317.150	215.489	267.203	0.00020592	0.0007992	0.00011333	1328.2	4.2404e-06	2.4674e-06	1334.5	359.08	3.1662e-06	5.4418e-06	411.5	139.46	120.29	41.453	2.5098e-06	51.55	0.00017564	0.00017307	4.8179e-05	1267.8	1.9237e-06	1.9292e-06	1276.7	341.64	1.9579e-06	1.9625e-06	382.18	129.17	110.17	38.509	1.9817e-06	47.264	220.463	-9.277	36.074	-18.439	154.381	75.401	-18.229	-13.237	-29.698	113.721	-14.306	-9.156	-8.671	-4.415	235.643	-5.305	-8191	255	
899.730	1	1	0	0	0.067856	0.033914	0.24696	0.14902	0.35412	0.039058	0.27391	0.28803	0.091107	0.086393	0.038724	0.091379	0.20942	0.23616	0.095161	0.087799	-2.325	-2.325	-2.7146	-2.7625	-2.3792	-2.7396	-2.7417	-2.5	-2.9042	-2.4354	-2.6896	-2.9333	-2.375	-2.8917	-2.5729	-2.3792	83.043	25.462	126.375	316.539	238.507	249.570	251.558	316.319	139.263	17.783	300.765	161.908	324.669	-10.591	21.438	60.962	0.00017758	0.00026515	0.00013735	1327.2	5.2644e-06	1.5264e-06	1332.7	358.21	3.0515e-06	2.802e-06	412.28	139.24	120.2	41.337	5.6203e-06	51.879	0.00018398	0.00018179	5.0687e-05	1269.2	1.9913e-06	1.9801e-06	1277.7	341.59	1.9794e-06	1.9814e-06	382.27	129.17	110.12	38.515	1.9543e-06	47.2	221.603	3.436	34.820	-18.288	100.383	33.420	-18.262	-13.465	100.175	153.019	-14.590	-9.264	-8.600	-4.626	130.774	-5.345	-8191	255	
899.851	1	1	0	0	0.14304	0.1349	0.20832	0.17165	0.063431	0.204	0.11148	0.24447	0.13466	0.087812	0.143	0.044694	0.23749	0.15052	0.090364	0.068535	-2.3479	-2.4375	-2.3979	-2.7188	-2.2354	-2.6375	-2.8312	-2.5583	-2.9875	-2.4333	-2.7979	-2.8625	-2.45	-2.7646	-2.5687	-2.5083	-9.459	3.898	317.200	275.874	113.150	226.110	310.966	276.517	286.329	-15.235	318.477	254.190	69.514	205.945	268.341	291.886	0.00023846	0.00017702	6.5683e-05	1322.1	6.0593e-06	1.6735e-06	1337.9	358.51	4.9855e-06	2.4544e-06	411.32	139.05	120.06	41.292	2.5044e-06	51.915	0.00018021	0.00017754	4.938e-05	1266.9	1.9343e-06	1.9219e-06	1276.7	341.32	1.9262e-06	1.9033e-06	381.89	128.75	109.72	38.429	1.9077e-06	47.183	218.214	264.599	45.003	-18.239	60.478	59.179	-18.240	-13.175	140.088	118.370	-14.309	-9.130	-8.701	-4.781	136.635	-5.416	-8191	255	
899.947	1	1	0	0	0.068166	0.11064	0.14172	0.39134	0.31446	0.040393	0.48798	0.26187	0.087412	0.15998	0.014974	0.21485	0.2991	0.24663	0.13336	0.12155	-2.3604	-2.5062	-2.3375	-3.075	-2.3125	-2.7729	-2.9792	-2.1375	-2.8604	-2.4292	-2.4083	-3.0229	-2.3583	-2.5854	-2.6625	-2.5521	162.922	227.108	280.687	279.737	50.852	317.411	258.957	275.284	149.926	75.642	74.487	233.447	268.587	279.996	70.290	-23.670	0.00022384	0.00059773	6.5114e-05	1328.5	2.3644e-06	2.729e-06	1336.3	358.64	4.0576e-06	4.4553e-06	412.13	139.05	120.47	41.63	1.6837e-06	51.721	0.00017822	0.00017548	4.8453e-05	1269	1.9489e-06	1.9441e-06	1277.6	340.82	1.9576e-06	1.9352e-06	382.6	129.05	110.17	38.603	1.9611e-06	47.27	230.842	83.340	56.922	-18.233	133.129	310.898	-18.159	-13.274	75.579	77.304	-14.047	-9.036	-8.252	-4.750	73.374	-5.368	-8191	255	
900.043	1	1	0	0	0.11069	0.1451	0.22663	0.30811	0.16037	0.21678	0.17786	0.16685	0.25736	0.40549	0.37713	0.1478	0.13345	0.23099	0.20169	0.086011	-2.35	-2.5417	-2.2313	-3.0792	-2.3792	-2.3917	-2.9167	-2.3104	-2.7188	-2.5979	-2.5125	-2.8042	-2.4271	-2.6208	-2.9688	-2.3542	84.787	33.014	195.676	316.947	301.651	255.767	303.780	227.016	62.459	107.186	290.752	291.203	306.518	-15.482	146.825	179.159	0.00022514	0.00053119	0.00016969	1328.7	1.9601e-06	1.8514e-06	1333.6	358.51	4.7713e-06	3.0741e-06	410.38	140.12	120.31	41.482	2.019e-06	52.002	0.00018143	0.00017864	4.9925e-05	1271.7	1.9653e-06	1.9505e-06	1276.9	340.92	1.9727e-06	1.9769e-06	381.69	129.46	110.2	38.606	2.0067e-06	47.371	208.566	57.161	68.379	-18.225	207.828	85.450	-18.436	-13.236	220.285	157.952	-14.319	-9.239	-8.703	-4.679	139.201	-5.404	-8191	255	
900.139	1	1	0	0	0.26875	0.14004	0.094505	0.29506	0.15203	0.12741	0.25241	0.053694	0.21577	0.059667	0.32811	0.22052	0.041166	0.12928	0.086827	0.03345	-2.1437	-2.8042	-2.2292	-2.9729	-2.4292	-2.475	-2.8312	-2.4604	-2.5833	-2.6562	-2.5208	-2.8	-2.3646	-2.5542	-2.6896	-2.4458	44.778	107.324	325.588	222.811	104.806	324.490	302.000	279.497	10.617	8.208	277.494	25.449	233.643	160.417	10.614	280.907	0.0001966	0.00066746	0.00013504	1325.3	4.7604e-06	1.7762e-06	1337.7	359.27	5.2355e-06	2.623e-06	411.01	138.89	120.38	41.42	2.7975e-06	51.888	0.00018629	0.00018225	5.0953e-05	1271	2.0298e-06	2.0193e-06	1280.6	342.14	2.0119e-06	2.01e-06	382.36	129.22	110.46	38.648	2.0285e-06	47.396	207.071	-17.991	16.895	-18.198	121.884	56.516	-18.265	-13.249	179.002	80.155	-14.223	-9.124	-8.527	-4.615	83.997	-5.202	-8191	255	
900.235	1	1	0	0	0.12598	0.13196	0.26001	0.21757	0.13518	0.16098	0.26698	0.11639	0.1837	0.070513	0.1984	0.18123	0.41394	0.064135	0.23518	0.17632	-2.2354	-2.4917	-2.35	-2.9354	-2.5104	-2.3688	-2.8542	-2.4979	-2.5354	-2.5958	-2.4958	-2.7667	-2.5687	-2.3896	-2.7708	-2.3729	44.944	101.588	219.739	280.871	142.953	252.278	248.638	193.639	58.043	130.165	278.582	197.519	305.623	314.918	162.517	-16.994	0.00013489	0.00046567	0.00016058	1331.1	2.9632e-06	3.4797e-06	1333.2	357.57	1.8908e-06	1.9231e-06	411.72	139.68	120.51	41.578	7.6591e-07	51.886	0.00018582	0.00018368	5.0904e-05	1273.2	2.0095e-06	2.004e-06	1278	341.25	2.0183e-06	2.0144e-06	383	129.36	110.23	38.608	1.997e-06	47.308	189.229	-24.720	72.816	-18.295	125.841	314.981	-18.302	-13.255	166.779	316.756	-14.226	-9.080	-8.542	-4.673	236.587	-5.363	-8191	255	
900.332	1	1	0	0	0.18083	0.2454	0.15231	0.14708	0.085076	0.12954	0.23668	0.18503	0.16955	0.22287	0.082923	0.20893	0.32402	0.078465	0.17862	0.15	-2.1167	-2.75	-2.1729	-2.775	-2.5	-2.3583	-2.9833	-2.3688	-2.6354	-2.7625	-2.3854	-2.8771	-2.6604	-2.5	-2.6937	-2.7667	95.715	305.902	315.983	59.882	62.728	129.826	251.750	121.784	14.150	284.915	254.025	14.321	218.947	255.522	294.068	263.606	0.00022161	0.0002798	0.00011256	1325.3	3.9597e-06	2.1484e-06	1336.3	358.5	1.6889e-06	3.8179e-06	412.35	139.56	120.78	41.39	4.4228e-06	51.697	0.00018491	0.00018176	5.0632e-05	1271.2	1.997e-06	1.979e-06	1279.1	341.51	1.9931e-06	1.9581e-06	382.09	129.24	110.38	38.535	1.9693e-06	47.318	203.815	44.505	0.654	-18.283	160.187	86.465	-18.005	-13.187	249.225	162.307	-14.028	-9.145	-8.598	-4.761	55.454	-5.497	-8191	255	
900.428	1	1	0	0	0.10549	0.08507	0.039131	0.09193	0.24167	0.09944	0.30697	0.062859	0.12881	0.12666	0.20491	0.235	0.15678	0.10081	0.04046	0.22514	-2.0667	-2.75	-2.3583	-2.8875	-2.675	-2.3812	-3.1396	-2.6396	-2.4313	-2.7271	-2.475	-2.7396	-2.7979	-2.4625	-2.8812	-2.8208	91.219	297.689	235.559	-5.912	322.970	278.160	230.906	6.339	76.102	274.866	229.275	252.202	235.884	70.705	7.157	321.548	0.00022576	0.0005112	9.7663e-05	1332.8	4.948e-06	5.1466e-06	1333.1	358.21	3.6159e-06	1.5531e-06	411.59	139.4	120.02	41.562	2.1968e-06	51.679	0.00018367	0.00018153	5.0372e-05	1272.5	1.999e-06	1.9789e-06	1277.4	341.29	1.9809e-06	1.9716e-06	382.25	129.17	110.17	38.547	1.9808e-06	47.187	242.813	120.756	37.416	-18.320	172.225	136.763	-18.427	-13.408	73.865	12.368	-14.194	-9.317	-8.638	-4.638	154.307	-5.672	-8191	255	
900.547	1	1	0	0	0.15682	0.21715	0.046349	0.25999	0.16898	0.16061	0.13728	0.1128	0.24069	0.20609	0.24914	0.13762	0.31592	0.20006	0.082797	0.26173	-2.2146	-2.7792	-2.3688	-2.75	-2.6625	-2.3104	-2.9646	-2.6979	-2.4021	-2.8688	-2.55	-2.7021	-2.825	-2.35	-2.7917	-2.6542	73.669	70.848	110.124	220.982	78.150	314.416	-1.348	223.005	289.424	159.581	19.289	309.208	169.076	42.464	150.037	288.455	0.00022798	0.00046097	6.8623e-05	1326.6	1.536e-06	1.587e-06	1333.9	357.8	1.8115e-06	4.4612e-06	410.56	139.59	121.1	41.453	2.4055e-06	51.933	0.00018284	0.00018029	5.0135e-05	1270.2	1.9766e-06	1.9722e-06	1279.1	341.44	1.9838e-06	1.9694e-06	382.09	129.22	110.32	38.568	1.9771e-06	47.335	225.668	73.100	-11.602	-18.321	307.020	221.875	-18.258	-13.308	138.722	136.957	-14.251	-9.041	-8.430	-4.659	88.127	-5.512	-8191	255	
900.643	1	1	0	0	0.015187	0.092241	0.1589	0.082704	0.12256	0.22339	0.25721	0.53431	0.16277	0.090285	0.22032	0.2965	0.054733	0.11102	0.23341	0.12595	-1.8771	-2.8167	-2.4646	-2.6542	-2.8042	-2.2062	-2.8312	-2.7417	-2.3396	-2.9667	-2.5646	-2.6458	-2.775	-2.475	-2.6354	-2.6792	219.027	69.702	61.096	218.435	33.570	119.230	295.254	279.457	144.604	306.532	6.848	166.168	288.280	119.232	76.597	-9.372	0.00021263	0.00035349	0.00012322	1329.3	3.4566e-06	2.2346e-06	1340.9	358.19	3.128e-06	3.2472e-06	410.24	139.78	120.43	41.574	4.3279e-06	51.877	0.00018236	0.00017959	5.0311e-05	1271.2	1.9715e-06	1.9728e-06	1280.1	341.09	1.9889e-06	1.9753e-06	382.24	129.21	110.35	38.603	2.0042e-06	47.317	211.370	27.242	73.490	-18.314	119.126	59.524	-18.362	-13.244	143.723	115.906	-14.157	-9.364	-8.771	-4.728	123.985	-5.030	-8191	255	
900.739	1	1	0	0	0.22319	0.16437	0.11582	0.13476	0.17511	0.055208	0.16222	0.36369	0.17203	0.20686	0.023323	0.1704	0.10646	0.047006	0.2854	0.11908	-1.9792	-2.7313	-2.5271	-2.6854	-2.9667	-2.4458	-2.9292	-2.8688	-2.1167	-2.7542	-2.675	-2.4229	-3	-2.4333	-2.7583	-2.8563	196.560	268.852	309.833	273.503	82.134	192.834	283.250	189.820	183.834	300.362	214.188	-29.385	154.953	10.318	236.230	231.319	0.00024376	0.00072616	0.000136	1326.5	3.4191e-06	1.9187e-06	1336.8	357.99	3.1584e-06	3.001e-06	411.88	139.36	119.25	41.531	5.8004e-06	51.837	0.00018531	0.00018224	5.1315e-05	1269.9	2.0185e-06	2.0038e-06	1278.5	341.02	2.0002e-06	2.008e-06	382.54	129.26	110.06	38.592	2.0166e-06	47.341	215.741	-18.969	52.612	-18.229	127.016	144.474	-18.408	-13.295	148.957	126.185	-14.181	-9.245	-8.467	-4.696	129.244	-5.333	-8191	255	
900.835	1	1	0	0	0.21652	0.17557	0.12748	0.1663	0.066243	0.24088	0.13238	0.2285	0.19976	0.052255	0.16775	0.36319	0.34478	0.19993	0.023462	0.19373	-1.7604	-2.8812	-2.3333	-2.6437	-2.6979	-2.3271	-2.8396	-2.8187	-2.2792	-2.75	-2.7021	-2.4667	-2.7687	-2.5229	-2.3917	-2.8708	113.289	105.818	248.273	232.569	141.636	162.586	194.347	29.184	30.025	225.304	295.611	314.205	299.325	183.264	78.700	116.592	0.0001805	0.00081496	7.5531e-05	1325.3	1.3811e-06	4.1383e-06	1338.4	358.37	2.8494e-06	3.0213e-06	411.73	139.24	120.99	41.489	3.5758e-06	51.801	0.0001863	0.00018251	5.0833e-05	1270.1	1.9853e-06	2.0034e-06	1277.4	341.74	2.0108e-06	1.9981e-06	382.53	129.3	110.37	38.595	2.0207e-06	47.313	216.463	45.027	5.990	-18.278	75.531	68.992	-18.352	-13.104	130.339	127.469	-14.353	-9.335	-8.459	-4.596	154.422	-5.259	-8191	255	
900.931	1	1	0	0	0.27175	0.17475	0.15484	0.26617	0.18772	0.036838	0.28527	0.20149	0.1264	0.15164	0.3746	0.37538	0.30552	0.19033	0.13328	0.18464	-1.6625	-2.5833	-2.5667	-2.5375	-2.8417	-2.4708	-2.5708	-2.8875	-2.2417	-2.6521	-2.7083	-2.3583	-2.8729	-2.6188	-2.55	-2.8542	254.155	213.448	215.858	317.270	13.052	295.104	291.375	247.538	-8.485	190.735	-20.413	263.342	231.210	63.656	-7.809	282.419	0.00024613	0.00059411	1.0157e-05	1326.8	6.5216e-06	1.0053e-06	1334.1	358.01	1.8341e-06	6.6914e-06	411.7	139.15	120.35	41.387	5.5537e-06	51.9	0.00018632	0.00018392	5.1374e-05	1269.6	2.0216e-06	2.009e-06	1276.9	341.31	2.0246e-06	2.012e-06	382.75	129.22	110.27	38.588	2.0171e-06	47.291	202.683	57.509	137.998	-18.379	97.549	34.975	-18.468	-13.083	182.932	99.807	-14.167	-9.325	-8.522	-4.546	160.136	-5.393	-8191	255	
901.027	1	1	0	0	0.097657	0.16616	0.12052	0.09503	0.086385	0.095066	0.38466	0.25866	0.12546	0.16486	0.20192	0.22934	0.16388	0.085774	0.04656	0.19217	-1.9583	-2.6354	-2.6417	-2.7271	-2.8708	-2.5646	-2.6688	-2.9542	-2.3479	-2.6813	-2.7729	-2.3833	-2.8292	-2.7188	-2.4688	-2.7583	-23.785	95.226	146.293	276.219	278.551	161.527	267.731	263.212	147.370	206.455	40.632	295.009	244.797	314.442	99.182	-3.757	0.00023207	0.00028865	0.00011666	1327.9	1.3362e-06	1.629e-06	1333.8	358.13	3.3156e-06	6.8522e-07	410.73	139.11	120.51	41.344	5.1966e-06	51.729	0.00018502	0.00018192	5.0432e-05	1269.7	1.9874e-06	1.9907e-06	1275.9	341.23	2.007e-06	1.9753e-06	382.28	129.06	110.29	38.493	1.9981e-06	47.26	225.594	119.639	43.691	-18.273	188.806	296.757	-18.196	-13.409	249.089	18.344	-14.094	-8.993	-8.303	-4.632	30.671	-5.500	-8191	255	
901.148	1	1	0	0	0.19051	0.12008	0.054869	0.18911	0.30135	0.15763	0.28015	0.19901	0.17075	0.14369	0.095825	0.11209	0.1259	0.066407	0.1677	0.22748	-1.9562	-2.5021	-2.4771	-2.4271	-2.7146	-2.5104	-2.5083	-2.9104	-2.3958	-2.4062	-2.7979	-2.3479	-2.6625	-2.7271	-2.2708	-2.8104	-22.629	15.944	327.517	-23.671	131.118	207.635	242.602	302.648	222.165	51.641	294.977	-9.967	24.197	204.287	188.843	267.459	0.00023059	0.00023147	0.00010892	1321.9	3.7055e-06	1.5e-06	1331.1	358.9	1.6529e-06	1.8714e-06	410.33	138.82	120.61	41.251	1.978e-06	51.602	0.00018477	0.00018313	5.117e-05	1266.5	2.0012e-06	1.991e-06	1274.9	340.99	2.0003e-06	1.9944e-06	382.01	128.88	110.4	38.513	2.0163e-06	47.258	227.484	24.991	18.080	-18.265	84.853	35.420	-18.229	-13.193	308.423	169.510	-14.239	-9.234	-8.528	-4.803	260.997	-5.292	-8191	255	
901.244	1	1	0	0	0.1504	0.20549	0.20402	0.16441	0.19455	0.059318	0.30914	0.36666	0.14102	0.19094	0.16395	0.24183	0.066907	0.01647	0.13717	0.098363	-2.1771	-2.3312	-2.9083	-2.6292	-2.5729	-2.6188	-2.4396	-2.9167	-2.3104	-2.5542	-2.875	-2.4646	-2.6375	-2.6833	-2.2833	-2.7833	87.773	110.209	290.990	208.472	242.002	77.240	256.616	259.905	106.233	318.276	277.145	271.811	122.948	39.895	64.334	8.300	0.00020168	0.00034353	2.5426e-05	1326.3	4.9861e-06	1.4715e-06	1331.7	357.56	5.6632e-07	5.5209e-06	409.18	139.18	120.51	41.163	1.5658e-06	51.842	0.00018679	0.00018576	5.1224e-05	1268.2	2.0292e-06	2.0179e-06	1275.2	340.71	2.0281e-06	1.9994e-06	381.6	128.99	110.02	38.505	2.0192e-06	47.349	207.970	-17.790	296.466	-18.259	106.649	-20.485	-18.106	-13.338	58.510	135.203	-14.190	-9.118	-8.524	-4.745	43.515	-5.369	-8191	255	
901.339	1	1	0	0	0.027152	0.27272	0.12371	0.24034	0.098297	0.15597	0.37346	0.1203	0.073142	0.20466	0.19864	0.21019	0.16755	0.33791	0.32279	0.11636	-1.9833	-2.4458	-2.9333	-2.5792	-2.6208	-2.7896	-2.2646	-2.9688	-2.6104	-2.4646	-3.0646	-2.5271	-2.7146	-2.8583	-2.4188	-2.8125	94.619	181.656	-27.080	326.747	146.668	154.962	287.158	324.364	318.752	172.022	30.644	178.783	-19.582	323.366	297.926	-25.580	0.00019927	0.00088215	2.3627e-06	1323.3	1.3988e-06	3.0608e-06	1333.4	358.53	3.3407e-06	9.725e-07	409.93	139.09	120.36	41.336	3.6932e-06	51.809	0.00018631	0.00018499	5.133e-05	1267.6	2.0138e-06	2.0284e-06	1276	341.23	2.0222e-06	2.0218e-06	381.75	129.18	110.35	38.51	2.0199e-06	47.412	221.035	24.963	205.203	-18.360	-9.519	87.265	-18.414	-13.350	44.780	68.335	-14.210	-9.173	-8.485	-4.767	73.092	-5.260	-8191	255	
901.412	1	1	0	0	0.11127	0.40427	0.25535	0.059131	0.22069	0.10488	0.20138	0.21502	0.37916	0.074985	0.1568	0.19598	0.2149	0.24702	0.31241	0.18104	-2.3937	-2.3812	-2.8167	-2.7542	-2.6625	-2.7146	-2.2583	-2.8646	-2.7458	-2.3417	-2.8583	-2.6625	-2.6708	-2.8937	-2.3854	-2.9646	232.577	12.271	53.908	202.312	255.708	144.993	262.498	189.861	10.691	35.571	231.907	277.891	244.304	306.250	-26.491	306.566	0.00023791	0.00015	0.00013554	1326.6	1.0884e-06	2.6028e-06	1332.8	358.06	2.2939e-06	4.4206e-06	410.75	139.09	120.62	41.239	4.7087e-06	51.649	0.00018602	0.00018346	5.1172e-05	1269.2	2.007e-06	2.0172e-06	1275.3	341.89	2.0192e-06	2.0065e-06	381.73	129	110.45	38.533	2.0125e-06	47.378	210.581	189.214	30.229	-18.087	-25.008	97.945	-18.351	-13.323	95.522	125.152	-14.311	-9.310	-8.492	-4.455	162.330	-5.105	-8191	255	
901.531	1	1	0	0	0.1565	0.19935	0.09031	0.095044	0.13118	0.21726	0.27609	0.28936	0.066855	0.16203	0.1193	0.065136	0.067386	0.092604	0.038991	0.28179	-2.2438	-2.3563	-2.8833	-2.7271	-2.5667	-2.9354	-2.6208	-2.6396	-2.6729	-2.3396	-2.9271	-2.6708	-2.4604	-3.1688	-2.5083	-2.5542	226.129	70.472	309.130	235.625	189.680	242.471	301.199	256.829	14.579	208.994	224.513	6.766	-11.467	19.588	108.465	-21.145	0.00027069	0.00014077	8.7964e-05	1324.3	2.0377e-06	4.555e-06	1331.7	357.33	5.5094e-06	5.0799e-06	410.6	139.2	119.86	41.305	5.8135e-07	51.607	0.00018627	0.00018472	5.1396e-05	1268.7	2.0352e-06	2.0092e-06	1275.5	340.9	2.0174e-06	2.0105e-06	382.5	128.98	110.22	38.516	2.0274e-06	47.26	209.829	80.367	77.112	-18.332	140.870	71.305	-18.244	-13.195	68.160	103.521	-14.060	-9.112	-8.426	-4.719	161.511	-5.492	-8191	255	
901.627	1	1	0	0	0.19687	0.082377	0.17702	0.13825	0.085097	0.19609	0.34481	0.10092	0.13832	0.050992	0.22818	0.3914	0.057012	0.1933	0.31795	0.10336	-2.3729	-2.4104	-2.7208	-2.8542	-2.3875	-2.8958	-2.7771	-2.7208	-2.8104	-2.35	-2.7729	-2.7771	-2.3688	-2.9479	-2.4542	-2.4625	137.920	53.468	327.669	262.519	228.502	149.332	316.366	69.419	199.095	147.808	-11.521	-8.305	46.387	95.643	94.633	287.853	0.00022179	0.00071579	3.5463e-05	1325.3	1.6831e-06	2.8077e-06	1327.2	357.95	2.7243e-06	3.3454e-06	409.03	139.19	120.36	41.39	4.1091e-06	51.684	0.00018813	0.00018392	5.1901e-05	1268.8	2.0368e-06	2.0208e-06	1274.8	341.32	2.0407e-06	2.0199e-06	381.71	128.89	110.23	38.514	2.0106e-06	47.215	205.364	50.992	183.798	-18.388	118.787	249.739	-18.270	-13.235	126.283	158.381	-14.307	-9.164	-8.614	-4.546	117.419	-5.260	-8191	255	
901.723	1	1	0	0	0.12554	0.16879	0.11143	0.26221	0.12392	0.088806	0.33405	0.13582	0.3339	0.12385	0.21429	0.20858	0.24356	0.036896	0.12543	0.13514	-2.3438	-2.35	-2.6625	-2.8958	-2.3479	-2.8417	-2.7313	-2.7542	-2.9958	-2.3542	-2.9292	-2.825	-2.4188	-2.8979	-2.575	-2.6146	309.381	-13.212	117.429	264.778	137.977	257.479	288.250	241.948	33.468	126.467	311.525	265.926	290.364	5.083	91.074	212.285	0.00026248	0.00066901	7.9478e-05	1323	4.0523e-06	1.3801e-06	1333.3	358.58	4.2491e-06	1.6756e-06	411.1	139.62	120.35	41.374	4.1029e-06	51.72	0.00018653	0.00018484	5.1364e-05	1266.8	2.0317e-06	2.0199e-06	1274.3	341.33	2.0247e-06	2.0096e-06	381.9	129.22	110.17	38.499	2.035e-06	47.289	209.074	-5.102	3.951	-18.397	96.965	34.498	-18.259	-13.265	187.718	84.505	-14.186	-9.230	-8.631	-4.797	92.351	-5.344	-8191	255	
901.819	1	1	0	0	0.1031	0.15917	0.11099	0.15068	0.036165	0.082714	0.16998	0.20451	0.0068997	0.39635	0.12165	0.032742	0.09177	0.3111	0.2534	0.050647	-2.5542	-2.2708	-2.8104	-3.0542	-2.3104	-2.75	-2.8917	-2.5667	-2.7042	-2.4917	-2.6979	-2.8146	-2.2521	-2.775	-2.7375	-2.3521	42.796	224.307	78.525	-15.928	250.786	72.712	280.350	-24.934	33.502	-8.479	269.102	124.066	4.813	-25.839	17.753	265.417	0.00019128	0.00026902	0.00011869	1323.9	4.5461e-06	5.7338e-06	1332.6	357.36	4.2744e-06	5.8139e-07	410.66	139.44	120.61	41.527	1.4177e-06	51.702	0.00018746	0.00018521	5.205e-05	1269.4	2.0497e-06	2.0306e-06	1277.6	341.22	2.0341e-06	2.0466e-06	382.29	129.36	110.36	38.565	2.0611e-06	47.263	219.040	86.425	77.735	-18.302	159.785	98.207	-18.371	-13.201	80.591	213.462	-14.334	-9.143	-8.448	-4.565	125.869	-5.249	-8191	255	
901.940	1	1	0	0	0.18096	0.2672	0.25035	0.50899	0.18401	0.42464	0.16489	0.086477	0.13679	0.21771	0.13052	0.21388	0.15426	0.049458	0.23391	0.12642	-2.625	-2.4062	-2.45	-3.0021	-2.3167	-2.8438	-2.7354	-2.5271	-2.9333	-2.6396	-2.6312	-2.7896	-2.5229	-2.8458	-2.7917	-2.5396	254.464	16.445	182.843	300.338	32.934	314.068	288.085	242.241	93.380	152.443	311.392	125.077	231.075	183.601	223.585	276.670	0.00023651	0.00036176	8.2951e-05	1325.6	3.4296e-06	2.816e-06	1335.2	357.78	1.2786e-06	3.2253e-06	410.93	139.42	120.22	41.46	3.241e-06	51.762	0.00018887	0.00018643	5.1938e-05	1270.2	2.0614e-06	2.0463e-06	1276.6	341.39	2.0819e-06	2.0526e-06	382.25	129.33	110.35	38.598	2.0525e-06	47.373	234.630	38.981	66.301	-18.217	129.095	70.327	-18.318	-13.206	240.351	166.884	-14.292	-9.157	-8.687	-4.553	91.569	-5.352	-8191	255	
902.012	1	1	0	0	0.16498	0.18411	0.079378	0.29802	0.15882	0.048306	0.35293	0.21583	0.14216	0.29845	0.27244	0.30501	0.1761	0.12438	0.24533	0.093582	-2.5521	-2.6104	-2.525	-3.0792	-2.3333	-2.8104	-2.9583	-2.5854	-2.9104	-2.7396	-2.6562	-2.9	-2.55	-2.6667	-2.6354	-2.5312	-4.085	181.129	58.414	277.893	5.534	239.620	233.918	242.664	205.595	237.153	258.135	248.001	48.657	102.310	14.608	69.646	0.00020614	0.00052195	8.6293e-05	1322.6	1.1684e-06	3.4277e-06	1334.3	358.63	2.8666e-06	2.8633e-07	409.56	139.68	120.4	41.446	6.7973e-06	51.766	0.00018995	0.00018853	5.2456e-05	1269.8	2.0771e-06	2.0516e-06	1277.8	341.68	2.0503e-06	2.045e-06	381.98	129.27	110.18	38.601	2.043e-06	47.354	222.356	-14.917	30.596	-18.242	118.966	-20.732	-18.260	-13.224	74.092	27.949	-14.316	-9.131	-8.785	-4.525	134.468	-5.486	-8191	255	
902.108	1	1	0	0	0.21751	0.17076	0.10318	0.10176	0.16505	0.11169	0.17262	0.13064	0.33082	0.1189	0.24296	0.091042	0.041903	0.25998	0.096566	0.081959	-2.3438	-2.5646	-2.3854	-3.0875	-2.3708	-2.7208	-3.1146	-2.5104	-2.725	-2.7604	-2.4125	-2.9479	-2.4292	-2.5771	-2.75	-2.5458	205.657	-21.105	101.864	270.110	292.180	237.602	254.164	231.694	277.690	112.893	299.268	297.446	82.350	251.454	238.281	112.221	0.00025162	0.00042762	0.00014557	1325.5	6.57e-06	1.1238e-06	1333.9	357.47	1.3441e-06	3.6417e-06	411.15	139.26	120.07	41.4	4.6281e-06	51.806	0.00019035	0.00018505	5.2214e-05	1270	2.0401e-06	2.0485e-06	1278.3	341.23	2.0613e-06	2.0476e-06	382.76	129.21	110.12	38.6	2.049e-06	47.367	226.064	26.287	71.698	-18.295	152.053	66.081	-18.358	-13.291	301.750	118.464	-14.072	-9.181	-8.436	-4.775	140.900	-5.155	-8191	255	
902.228	1	1	0	0	0.11144	0.13636	0.24927	0.2864	0.092865	0.08952	0.067192	0.32283	0.053066	0.28861	0.070186	0.090506	0.32875	0.13422	0.077623	0.29813	-2.3521	-2.6646	-2.3125	-3.0292	-2.6292	-2.6	-3.0625	-2.5396	-2.6771	-2.7875	-2.4542	-2.9021	-2.5625	-2.4208	-2.9354	-2.3583	32.873	84.060	109.651	311.033	199.259	19.023	310.095	241.696	111.324	84.378	-1.769	304.891	-16.972	300.105	149.389	215.385	0.00017971	0.00026795	9.2143e-05	1325.5	3.7542e-06	2.4929e-06	1335.9	357.94	1.6158e-06	5.4909e-07	412.26	139.17	120.74	41.523	1.8103e-06	51.55	0.00019107	0.00018757	5.1683e-05	1271.1	2.0638e-06	2.0433e-06	1278.3	341.41	2.056e-06	2.0339e-06	382.82	129.25	110.55	38.594	2.0363e-06	47.345	205.191	104.229	116.494	-18.206	263.709	157.083	-18.244	-13.276	187.840	103.013	-14.110	-9.166	-8.657	-4.496	311.354	-5.342	-8191	255	
902.324	1	1	0	0	0.14044	0.10384	0.11001	0.076216	0.13474	0.16445	0.29865	0.1849	0.14364	0.17773	0.20764	0.39993	0.18086	0.20119	0.23061	0.36259	-2.1958	-2.725	-2.2792	-2.9458	-2.7146	-2.6188	-3.0792	-2.5875	-2.7167	-2.8417	-2.5021	-2.7833	-2.7896	-2.4604	-2.8167	-2.4979	242.013	42.942	287.794	-26.875	223.680	138.823	246.238	280.881	77.169	50.038	73.226	260.273	-30.175	290.848	261.824	328.667	0.00016857	0.0005746	8.8892e-05	1325.2	4.4891e-06	4.1777e-06	1335.3	358.58	4.5539e-06	3.8025e-06	412.13	139.1	120.35	41.404	3.1055e-06	51.755	0.00018734	0.00018426	5.154e-05	1269.8	2.0411e-06	2.0138e-06	1277.2	341.66	2.0314e-06	2.0208e-06	382.55	129.14	110.42	38.565	2.0231e-06	47.312	231.131	50.555	62.135	-18.287	141.553	107.096	-18.223	-13.243	167.617	91.571	-14.219	-9.201	-8.416	-4.703	224.453	-5.229	-8191	255	
902.421	1	1	0	0	0.19678	0.20305	0.34821	0.2762	0.058826	0.062366	0.10275	0.12007	0.19518	0.16133	0.17618	0.23489	0.16888	0.25814	0.18021	0.22696	-2.2188	-2.7938	-2.3479	-2.6708	-2.6375	-2.3646	-2.9958	-2.6729	-2.4229	-2.8396	-2.4396	-2.625	-2.7938	-2.4333	-2.9375	-2.4125	-10.984	-23.760	76.719	288.981	151.479	239.236	-10.072	258.268	21.527	12.321	225.219	215.315	220.549	-29.288	91.616	268.216	0.00015706	0.00064743	0.00013673	1326.7	6.5514e-06	5.5155e-07	1332.9	357.87	1.0803e-06	3.5866e-06	410.61	139.59	120.52	41.161	3.0215e-06	51.88	0.00018712	0.00018314	5.1138e-05	1269.3	2.0088e-06	1.9983e-06	1277.2	341.19	2.0002e-06	1.9984e-06	382.14	129.17	110.29	38.523	1.9996e-06	47.259	213.287	19.338	82.998	-18.392	153.969	79.307	-18.324	-13.357	133.748	118.585	-14.227	-8.926	-8.510	-4.788	102.690	-5.233	-8191	255	
902.540	1	1	0	0	0.15641	0.2478	0.23304	0.24339	0.24364	0.11551	0.16445	0.059509	0.1733	0.091781	0.0098599	0.13125	0.18981	0.1281	0.094985	0.078682	-2.1208	-3.0292	-2.4542	-2.8521	-2.6854	-2.4104	-2.9813	-2.6083	-2.3208	-3.0187	-2.4583	-2.7583	-2.9104	-2.4771	-2.8063	-2.6521	53.112	152.426	235.690	328.023	242.544	263.302	300.001	296.582	-3.964	187.295	162.688	227.055	20.573	316.458	51.898	114.233	9.4625e-05	1.3373e-05	5.2937e-05	1328.2	4.5905e-06	1.9447e-06	1331.3	357.5	2.9106e-06	2.9563e-06	410.71	139.46	120.52	41.434	7.905e-07	51.833	0.00018553	0.00018295	5.0733e-05	1270.9	2.0192e-06	2.0134e-06	1277.3	341.21	2.023e-06	2.0245e-06	382.11	129.11	110.52	38.537	2.0361e-06	47.267	235.438	-30.058	96.858	-18.258	72.547	144.375	-18.207	-13.341	148.833	36.566	-14.372	-9.024	-8.816	-4.591	245.363	-5.434	-8191	255	
902.636	1	1	0	0	0.27843	0.15458	0.16371	0.16395	0.13951	0.13042	0.18538	0.041441	0.33535	0.26119	0.12137	0.2048	0.21507	0.30887	0.24049	0.16249	-2.1208	-2.9062	-2.4104	-2.9	-2.6937	-2.3896	-2.9729	-2.9292	-2.3271	-2.8292	-2.5333	-2.5792	-2.9	-2.2417	-2.6188	-2.7812	165.834	311.338	126.709	306.947	58.341	202.706	316.888	211.912	92.351	126.629	223.188	279.215	107.488	237.257	294.237	320.772	0.00015575	0.00030978	0.00013771	1330.4	3.4311e-06	3.2778e-06	1335.8	357.68	9.8143e-07	1.6893e-06	411.37	139.54	121.34	41.389	1.8663e-06	51.596	0.00018803	0.00018448	5.1457e-05	1272.1	2.0346e-06	2.0245e-06	1279.4	341.31	2.0521e-06	2.0225e-06	382.73	129.31	110.7	38.591	2.041e-06	47.362	213.602	310.261	-0.663	-18.153	101.459	80.315	-18.112	-13.181	194.259	120.349	-14.165	-8.973	-8.685	-4.259	105.484	-5.446	-8191	255	
902.707	1	1	0	0	0.083543	0.070711	0.22458	0.20405	0.16827	0.11037	0.27463	0.17762	0.15502	0.13419	0.093518	0.07279	0.3152	0.17636	0.098613	0.026962	-1.8917	-2.8063	-2.4625	-2.75	-2.825	-2.4292	-2.9667	-2.7979	-2.3104	-2.975	-2.6979	-2.5312	-3.2021	-2.2646	-2.6167	-2.8896	152.070	262.706	69.756	295.812	15.335	130.239	270.173	294.124	194.510	95.003	168.294	137.461	-13.554	282.267	159.354	-7.223	0.00018013	0.00027278	0.00015695	1324	7.188e-06	1.8342e-06	1333.9	357.61	6.3414e-07	4.4394e-06	410.46	138.91	120.62	41.308	2.5057e-06	51.768	0.00018882	0.00018618	5.2139e-05	1270.9	2.0471e-06	2.0107e-06	1279.1	341.14	2.0363e-06	2.0308e-06	382.22	129.24	110.29	38.547	2.019e-06	47.366	222.533	1.197	42.678	-18.267	126.573	92.963	-18.144	-13.347	88.939	149.082	-14.276	-9.332	-8.434	-4.762	191.892	-5.513	-8191	255	
902.828	1	1	0	0	0.24112	0.20876	0.23467	0.10608	0.074526	0.11977	0.082597	0.098226	0.41111	0.1512	0.21926	0.16319	0.15787	0.14017	0.11728	0.091138	-1.9333	-2.9083	-2.775	-2.5646	-2.9021	-2.2687	-2.8104	-2.8042	-2.3958	-2.7188	-2.7417	-2.4604	-2.8833	-2.5583	-2.7062	-2.9854	320.304	201.817	156.950	302.096	58.366	219.701	326.095	-1.509	82.151	179.311	324.797	309.111	-5.893	-12.556	263.515	199.677	0.00027153	0.00023983	4.7152e-05	1328.5	5.2552e-06	2.017e-06	1334.5	359.03	7.2393e-07	2.2122e-06	411.21	140.19	120.37	41.417	1.4928e-06	51.779	0.00018694	0.00018452	5.1492e-05	1271.3	2.0217e-06	2.0086e-06	1276.6	341.64	2.0169e-06	1.9977e-06	381.9	129.3	110.3	38.546	2.012e-06	47.359	213.362	55.019	56.707	-18.345	92.749	-15.341	-18.320	-13.126	285.992	252.506	-14.211	-9.256	-8.706	-4.617	164.993	-5.444	-8191	255	
902.924	1	1	0	0	0.29864	0.15909	0.2513	0.36566	0.18777	0.17991	0.090848	0.12586	0.22565	0.16601	0.28122	0.060711	0.16642	0.032849	0.16377	0.13286	-1.9083	-2.4437	-2.6896	-2.6667	-2.9688	-2.4604	-2.8771	-2.9562	-2.225	-2.6625	-2.8771	-2.5062	-3.0146	-2.5854	-2.7167	-2.9521	153.210	285.584	52.155	-9.695	39.687	326.835	261.259	183.180	-22.028	287.533	259.188	222.849	287.898	146.796	303.589	93.355	0.00019334	8.4134e-06	4.8994e-05	1327.3	5.9369e-06	4.1034e-06	1333.6	358.66	1.2823e-06	3.9785e-06	410.72	139.36	120.32	41.419	1.1612e-06	51.747	0.00018623	0.00018393	5.1045e-05	1271.8	2.0241e-06	2.011e-06	1279.2	341.81	2.016e-06	2.0274e-06	382.47	129.35	110.31	38.579	2.0339e-06	47.291	200.958	317.407	297.495	-18.350	187.609	43.422	-18.141	-13.197	52.137	160.830	-14.296	-9.391	-8.676	-4.801	209.940	-5.238	-8191	255	
903.020	1	1	0	0	0.18537	0.095617	0.28787	0.25301	0.10451	0.2995	0.34949	0.26325	0.28818	0.14761	0.24456	0.30051	0.2307	0.28064	0.024433	0.2649	-2.1083	-2.7521	-2.5792	-2.3292	-2.8854	-2.5458	-2.75	-3.1104	-2.4833	-2.7583	-2.8333	-2.2375	-2.7875	-2.4083	-2.3688	-2.8937	19.403	156.570	89.696	303.104	245.854	170.818	235.834	246.756	257.158	290.135	283.404	277.278	323.063	261.551	200.619	124.609	0.00020226	0.00051164	0.00013401	1329.8	5.5169e-06	3.332e-06	1337.8	358.54	3.4587e-06	2.6228e-06	411.3	139.88	120.96	41.707	4.8141e-06	51.929	0.00018783	0.00018561	5.1759e-05	1272.7	2.0343e-06	2.0344e-06	1278.9	341.6	2.0334e-06	2.0438e-06	382.9	129.39	110.48	38.648	2.0363e-06	47.325	215.544	321.663	278.563	-18.247	118.514	-5.867	-18.410	-13.386	159.212	73.218	-14.306	-9.182	-8.582	-4.716	120.715	-5.594	-8191	255	
903.116	1	1	0	0	0.0073981	0.049174	0.028591	0.1896	0.082659	0.25249	0.2735	0.13179	0.047974	0.23646	0.079166	0.30954	0.20641	0.14948	0.27805	0.32319	-1.8521	-2.5146	-2.7812	-2.6229	-2.8667	-2.5958	-2.5333	-2.8396	-2.4813	-2.6667	-2.7333	-2.3625	-2.8979	-2.7792	-2.2021	-2.9271	-21.664	144.465	50.738	0.803	-22.313	53.697	302.628	-30.311	64.966	315.969	269.323	267.390	302.782	-3.050	243.771	-14.418	0.00024187	0.00043562	1.1915e-05	1327.1	6.2131e-06	4.0552e-06	1338	359.41	2.7083e-06	9.8773e-07	411.58	139.32	120.23	41.354	2.4104e-06	51.953	0.00018794	0.00018594	5.1689e-05	1271.6	2.0305e-06	2.0152e-06	1280.6	341.72	2.0337e-06	2.0258e-06	383.02	129.34	110.39	38.545	2.0303e-06	47.422	222.973	-7.171	167.647	-18.272	135.471	126.672	-18.108	-13.349	90.998	255.644	-14.261	-8.975	-8.757	-4.606	116.948	-5.428	-8191	255	
903.237	1	1	0	0	0.036113	0.18887	0.23755	0.31769	0.067211	0.29603	0.28318	0.076968	0.16235	0.19528	0.22737	0.14028	0.10156	0.51453	0.26698	0.18948	-2.0125	-2.6562	-2.8667	-2.4333	-2.8833	-2.7313	-2.4958	-3.0708	-2.5125	-2.4625	-2.9104	-2.5104	-2.8438	-2.8229	-2.3875	-2.9604	135.998	34.290	143.615	271.951	275.963	146.177	257.175	109.354	260.289	284.736	288.706	7.172	312.511	319.412	126.995	-26.982	0.00023771	0.00031348	0.00011564	1326.6	5.0103e-06	3.7724e-06	1331.9	358.55	1.5085e-06	5.9475e-06	410.91	140.12	120.89	41.503	2.0771e-06	51.876	0.00018707	0.00018512	5.1258e-05	1272.5	2.0444e-06	2.0289e-06	1278.6	342.05	2.0298e-06	2.0098e-06	382.51	129.6	110.4	38.608	2.0306e-06	47.325	224.180	28.329	39.744	-18.309	27.727	3.831	-18.313	-13.162	83.524	95.380	-14.191	-9.329	-8.692	-4.826	103.353	-5.399	-8191	255	
903.309	1	1	0	0	0.12102	0.35817	0.1476	0.28753	0.18038	0.33061	0.20991	0.29951	0.15499	0.22597	0.25988	0.031098	0.056981	0.19452	0.22418	0.22172	-2.0729	-2.2875	-2.7833	-2.6417	-2.6521	-2.6229	-2.5792	-2.9708	-2.5583	-2.3812	-2.8375	-2.4792	-2.7021	-2.825	-2.3208	-2.9646	-27.867	2.814	306.111	6.509	155.738	253.927	328.498	-17.608	80.891	284.287	291.214	-12.852	321.931	270.104	115.136	242.099	0.00027686	0.00010882	5.8388e-05	1330.5	1.4222e-06	2.8957e-06	1338.5	357.32	2.7483e-06	2.8086e-06	409.44	139.21	120.36	41.334	4.6851e-06	51.52	0.0001865	0.00018336	5.125e-05	1273.4	2.0146e-06	1.9992e-06	1279.3	341.51	2.0086e-06	1.9958e-06	381.63	129.33	110.54	38.561	2.021e-06	47.283	231.067	-30.031	60.455	-18.230	130.199	193.480	-18.228	-13.305	124.601	156.839	-14.072	-9.097	-8.597	-4.549	26.666	-5.395	-8191	255	
903.405	1	1	0	0	0.20861	0.17506	0.14446	0.17821	0.23116	0.21296	0.42843	0.21919	0.045472	0.065066	0.17376	0.18287	0.062538	0.18887	0.25869	0.13617	-2.3271	-2.3021	-2.8271	-2.5938	-2.6708	-3.0104	-2.5708	-2.85	-2.5896	-2.3563	-2.8896	-2.575	-2.6813	-2.9	-2.2687	-2.7396	246.576	20.220	305.518	233.076	183.591	19.176	274.072	255.600	197.745	66.851	326.419	268.941	33.436	256.883	292.458	288.448	0.00026612	0.00052029	0.00011844	1329.1	2.2563e-06	3.7769e-06	1336.2	357.93	1.1972e-06	3.6799e-06	411.03	139.61	120.13	41.268	4.7419e-06	51.647	0.00018665	0.00018376	5.09e-05	1273.1	2.0164e-06	2.0048e-06	1278.9	341.18	1.982e-06	1.9825e-06	382.67	129.31	110.19	38.518	1.9811e-06	47.239	223.526	16.718	49.472	-18.257	178.465	62.750	-18.141	-13.108	112.321	129.900	-14.214	-9.286	-8.465	-4.565	128.743	-5.221	-8191	255	
903.501	1	1	0	0	0.094771	0.19534	0.10644	0.41079	0.20074	0.14762	0.12052	0.40132	0.10098	0.1581	0.25766	0.072881	0.17454	0.16118	0.12677	0.23806	-2.2979	-2.3083	-2.8729	-2.5083	-2.5833	-2.8896	-2.3979	-2.9938	-2.7042	-2.3937	-3.0354	-2.7	-2.5646	-2.8917	-2.3792	-2.6917	68.344	211.515	163.887	301.699	272.964	150.151	80.205	272.555	316.808	153.325	326.414	81.719	284.403	27.509	126.678	239.135	0.00024537	0.0003853	4.8504e-05	1330.1	6.0456e-06	2.0475e-06	1338.1	358.68	1.9603e-06	1.9679e-06	411.64	139.31	121.03	41.527	5.0953e-06	51.667	0.00018449	0.00018086	5.0404e-05	1272.1	2.0043e-06	1.9803e-06	1279.4	341.23	2.0048e-06	1.9987e-06	382.21	129.02	110.47	38.593	2.0115e-06	47.257	222.385	323.297	141.191	-18.308	153.050	110.296	-18.152	-13.258	304.050	-13.148	-14.230	-9.280	-8.736	-4.570	105.770	-5.261	-8191	255	
903.620	1	1	0	0	0.23081	0.22404	0.16591	0.22557	0.16705	0.12767	0.24565	0.18776	0.16931	0.14464	0.13018	0.1752	0.14067	0.11549	0.12708	0.24564	-2.2687	-2.1542	-2.7938	-2.8	-2.4771	-2.8312	-2.6875	-2.7438	-2.7062	-2.4375	-2.9813	-2.7667	-2.5417	-2.9208	-2.5563	-2.9271	216.799	118.278	201.049	317.006	164.395	115.211	275.005	-1.924	48.725	253.437	11.111	202.334	241.500	62.144	229.427	187.393	0.00029831	0.00031815	5.163e-05	1327.5	2.4404e-06	4.1723e-07	1334	358.03	4.7565e-06	1.8711e-06	411.79	139.33	120.55	41.617	2.4893e-06	51.539	0.00018573	0.00018284	5.0471e-05	1270.6	1.9775e-06	1.9764e-06	1277.6	340.91	1.9644e-06	1.9515e-06	381.7	129.02	110.01	38.588	1.945e-06	47.15	223.124	-3.410	1.938	-18.294	80.616	92.611	-18.298	-13.241	162.689	160.627	-14.249	-9.177	-8.778	-4.472	155.829	-5.231	-8191	255	
903.716	1	1	0	0	0.24216	0.14012	0.19274	0.19254	0.12629	0.15999	0.23377	0.094616	0.27877	0.069359	0.32913	0.3829	0.063123	0.29566	0.11087	0.085939	-2.4021	-2.375	-2.7333	-2.9875	-2.4104	-2.8	-2.7271	-2.7521	-2.75	-2.3	-2.8646	-2.6417	-2.4396	-3.1271	-2.7146	-2.6063	99.073	248.907	133.460	1.501	109.249	144.126	-24.642	280.751	2.466	84.993	251.913	302.298	118.954	256.072	276.598	65.346	0.00029147	0.00070789	0.00010811	1328.4	7.7173e-06	4.696e-06	1329.4	357.52	4.965e-07	1.1353e-06	411.23	138.84	120.15	41.52	3.2569e-06	51.867	0.00017865	0.00017526	4.8656e-05	1268.8	1.907e-06	1.8952e-06	1273.7	340.34	1.8869e-06	1.8941e-06	380.75	128.6	109.7	38.454	1.9018e-06	47.151	218.805	-26.726	6.743	-18.322	125.074	18.833	-18.306	-13.365	8.980	197.775	-14.291	-9.316	-8.608	-4.399	88.574	-5.269	-8191	255	
903.812	1	1	0	0	0.07305	0.13013	0.32464	0.26854	0.07152	0.17694	0.26394	0.14873	0.18847	0.21102	0.24037	0.18149	0.26833	0.25634	0.20872	0.17088	-2.375	-2.2792	-2.6271	-2.9938	-2.3667	-2.7542	-2.7604	-2.6104	-2.8854	-2.2521	-2.7625	-2.8812	-2.3417	-3.0146	-2.7021	-2.5417	158.316	226.396	266.877	228.394	6.657	19.943	326.899	289.071	185.193	244.736	243.119	291.633	226.870	285.407	18.817	246.257	0.00030278	0.00012027	8.4819e-05	1320.7	1.281e-06	3.9114e-06	1333.9	357.68	2.899e-06	3.1612e-06	409.87	139.54	120.33	41.257	4.0345e-06	51.482	0.00017499	0.00017145	4.7917e-05	1266.6	1.8744e-06	1.8671e-06	1274.8	340.23	1.887e-06	1.8773e-06	380.36	128.78	109.76	38.327	1.9041e-06	47.083	211.715	8.644	79.797	-18.085	100.226	77.750	-18.408	-13.211	106.994	185.191	-14.028	-9.446	-8.677	-4.308	131.518	-5.479	-8191	255	
#DATA ENDS
