BOXY.EXE: ISS Imagent and Oximeter Data Acquisition Program Version 0.80
Ascii Record File

#ACQ INFORMATION
2  Detector Channels 
16  External MUX Channels 
1  Auxiliary Channels 
5000  Waveform (CCF) Frequency (Hz)
1  Waveforms Skipped 
30  Waveforms Averaged 
1  Cycles Averaged 
16  Acquisitions per Waveform 
10.0806  Updata Rate (Hz) 

#FILE INFORMATION
TRUE -- External MUX Channel results are PARSED.
FALSE -- AC DC and Phase are NOT grouped.
TRUE -- Companion Program Settings File CREATED.
FALSE -- AC data not excluded
FALSE -- DC data not excluded
FALSE -- Phase data not excluded
FALSE -- Auxillary Chn. data not excluded
Tab delimiters

#CALIBRATION STATE
TRUE -- Waveform Calibration Values APPLIED.


#AUX CALIBRATION VALUES
Val Type	aux-1	

Term	1.0000e+00	
Factor	0.0000e+00	


#WF CALIBRATION VALUES
A = Detector Channel
Val Type	A-AC1	A-AC2	A-AC3	A-AC4	A-AC5	A-AC6	A-AC7	A-AC8	A-AC9	A-AC10	A-AC11	A-AC12	A-AC13	A-AC14	A-AC15	A-AC16	A-DC1	A-DC2	A-DC3	A-DC4	A-DC5	A-DC6	A-DC7	A-DC8	A-DC9	A-DC10	A-DC11	A-DC12	A-DC13	A-DC14	A-DC15	A-DC16	A-Ph1	A-Ph2	A-Ph3	A-Ph4	A-Ph5	A-Ph6	A-Ph7	A-Ph8	A-Ph9	A-Ph10	A-Ph11	A-Ph12	A-Ph13	A-Ph14	A-Ph15	A-Ph16	

Term	0.00000e+00	0.00000e+00	0.00000e+00	0.00000e+00	0.00000e+00	0.00000e+00	0.00000e+00	0.00000e+00	0.00000e+00	0.00000e+00	0.00000e+00	0.00000e+00	0.00000e+00	0.00000e+00	0.00000e+00	0.00000e+00	0.00000e+00	0.00000e+00	0.00000e+00	0.00000e+00	0.00000e+00	0.00000e+00	0.00000e+00	0.00000e+00	0.00000e+00	0.00000e+00	0.00000e+00	0.00000e+00	0.00000e+00	0.00000e+00	0.00000e+00	0.00000e+00	0.00000e+00	0.00000e+00	0.00000e+00	0.00000e+00	0.00000e+00	0.00000e+00	0.00000e+00	0.00000e+00	0.00000e+00	0.00000e+00	0.00000e+00	0.00000e+00	0.00000e+00	0.00000e+00	0.00000e+00	0.00000e+00	
Factor	1.00000e+00	1.00000e+00	1.00000e+00	1.00000e+00	1.00000e+00	1.00000e+00	1.00000e+00	1.00000e+00	1.00000e+00	1.00000e+00	1.00000e+00	1.00000e+00	1.00000e+00	1.00000e+00	1.00000e+00	1.00000e+00	1.00000e+00	1.00000e+00	1.00000e+00	1.00000e+00	1.00000e+00	1.00000e+00	1.00000e+00	1.00000e+00	1.00000e+00	1.00000e+00	1.00000e+00	1.00000e+00	1.00000e+00	1.00000e+00	1.00000e+00	1.00000e+00	X	X	X	X	X	X	X	X	X	X	X	X	X	X	X	X	

B = Detector Channel
Val Type	B-AC1	B-AC2	B-AC3	B-AC4	B-AC5	B-AC6	B-AC7	B-AC8	B-AC9	B-AC10	B-AC11	B-AC12	B-AC13	B-AC14	B-AC15	B-AC16	B-DC1	B-DC2	B-DC3	B-DC4	B-DC5	B-DC6	B-DC7	B-DC8	B-DC9	B-DC10	B-DC11	B-DC12	B-DC13	B-DC14	B-DC15	B-DC16	B-Ph1	B-Ph2	B-Ph3	B-Ph4	B-Ph5	B-Ph6	B-Ph7	B-Ph8	B-Ph9	B-Ph10	B-Ph11	B-Ph12	B-Ph13	B-Ph14	B-Ph15	B-Ph16	

Term	0.00000e+00	0.00000e+00	0.00000e+00	0.00000e+00	0.00000e+00	0.00000e+00	0.00000e+00	0.00000e+00	0.00000e+00	0.00000e+00	0.00000e+00	0.00000e+00	0.00000e+00	0.00000e+00	0.00000e+00	0.00000e+00	0.00000e+00	0.00000e+00	0.00000e+00	0.00000e+00	0.00000e+00	0.00000e+00	0.00000e+00	0.00000e+00	0.00000e+00	0.00000e+00	0.00000e+00	0.00000e+00	0.00000e+00	0.00000e+00	0.00000e+00	0.00000e+00	-4.66895e+01	-1.71885e+02	-1.35690e+02	-1.82083e+02	-8.59163e+01	-1.14521e+02	-1.56444e+02	-1.62015e+02	-7.42813e+01	-7.05972e+01	-1.70747e+02	-1.70713e+02	-1.80375e+02	-1.77189e+02	-9.09680e+01	-1.49288e+02	
Factor	2.09950e-05	1.03906e-04	2.22609e-05	1.60234e-01	1.01469e-06	8.15002e-07	1.69647e-01	5.29313e-02	7.74735e-07	8.33839e-07	8.72099e-02	3.32138e-02	3.12535e-02	9.37985e-03	8.50403e-07	1.38760e-02	3.92146e-07	3.96808e-07	1.10377e-07	7.58949e-02	4.34622e-09	4.34264e-09	7.54547e-02	2.47655e-02	4.34886e-09	4.34482e-09	3.81876e-02	1.43192e-02	1.37756e-02	4.22282e-03	4.34925e-09	5.90048e-03	X	X	X	X	X	X	X	X	X	X	X	X	X	X	X	X	



#DISTANCE SETTINGS
A = Detector Channel
A-1	A-2	A-3	A-4	A-5	A-6	A-7	A-8	A-9	A-10	A-11	A-12	A-13	A-14	A-15	A-16	

2.5000e+00	3.0000e+00	2.5000e+00	3.0000e+00	2.0000e+00	3.0000e+00	1.5000e+00	3.0000e+00	3.0000e+00	3.0000e+00	3.0000e+00	3.0000e+00	3.0000e+00	3.0000e+00	1.5000e+00	3.0000e+00	

B = Detector Channel
B-1	B-2	B-3	B-4	B-5	B-6	B-7	B-8	B-9	B-10	B-11	B-12	B-13	B-14	B-15	B-16	

1.0000e+01	1.0000e+01	1.0000e+01	1.4400e+00	1.0000e+01	1.0000e+01	1.5100e+00	1.9400e+00	1.0000e+01	1.0000e+01	1.9900e+00	2.4900e+00	2.4100e+00	2.9000e+00	1.0000e+01	2.9800e+00	




#DATA BEGINS
time	group	step	mark	flag	A-AC1	A-AC2	A-AC3	A-AC4	A-AC5	A-AC6	A-AC7	A-AC8	A-AC9	A-AC10	A-AC11	A-AC12	A-AC13	A-AC14	A-AC15	A-AC16	A-DC1	A-DC2	A-DC3	A-DC4	A-DC5	A-DC6	A-DC7	A-DC8	A-DC9	A-DC10	A-DC11	A-DC12	A-DC13	A-DC14	A-DC15	A-DC16	A-Ph1	A-Ph2	A-Ph3	A-Ph4	A-Ph5	A-Ph6	A-Ph7	A-Ph8	A-Ph9	A-Ph10	A-Ph11	A-Ph12	A-Ph13	A-Ph14	A-Ph15	A-Ph16	B-AC1	B-AC2	B-AC3	B-AC4	B-AC5	B-AC6	B-AC7	B-AC8	B-AC9	B-AC10	B-AC11	B-AC12	B-AC13	B-AC14	B-AC15	B-AC16	B-DC1	B-DC2	B-DC3	B-DC4	B-DC5	B-DC6	B-DC7	B-DC8	B-DC9	B-DC10	B-DC11	B-DC12	B-DC13	B-DC14	B-DC15	B-DC16	B-Ph1	B-Ph2	B-Ph3	B-Ph4	B-Ph5	B-Ph6	B-Ph7	B-Ph8	B-Ph9	B-Ph10	B-Ph11	B-Ph12	B-Ph13	B-Ph14	B-Ph15	B-Ph16	aux-1	digaux	

813.522	1	1	0	768	0.16912	0.15942	0.26868	0.14647	0.25906	0.14958	0.15883	0.26968	0.2218	0.22951	0.32199	0.27509	0.17614	0.072482	0.047151	0.16308	-1.8813	-1.8687	-2.5042	-2.4604	-2.4313	-2.5542	-2.3646	-2.5062	-2.2229	-2.15	-2.5792	-2.4104	-2.3354	-2.6917	-2.0062	-2.525	66.819	131.225	-12.845	241.600	-88.685	227.969	231.938	131.849	69.916	-72.834	173.531	233.260	203.235	104.561	-28.542	211.054	0.00020932	0.00062831	4.212e-05	1373.7	6.3077e-06	2.304e-06	1368.1	370.44	3.5729e-06	2.1105e-06	423.38	140.79	122.02	42.183	7.4542e-06	52.209	0.00051626	0.00051639	0.00014366	1377.1	5.6439e-06	5.6161e-06	1373.9	372.98	5.6247e-06	5.5929e-06	424.76	142.21	123.3	42.588	5.5142e-06	52.441	-49.921	-65.731	207.305	-93.493	-68.836	6.670	-93.464	-88.552	20.280	190.107	-89.394	-84.751	-84.266	-79.986	146.356	-80.668	-8191	255	
813.616	1	1	0	0	0.16716	0.11252	0.13156	0.13919	0.25318	0.2899	0.29173	0.21392	0.060622	0.17236	0.067236	0.15973	0.093088	0.2662	0.098866	0.24377	-2.1396	-2.0354	-2.4604	-2.5229	-2.3917	-2.6104	-2.4417	-2.5625	-2.6708	-2.0604	-2.8104	-2.5729	-2.3875	-2.7979	-2.2458	-2.5958	230.355	4.142	211.257	-75.056	-22.385	-14.630	163.963	241.552	183.151	253.020	155.210	169.700	242.139	221.872	106.598	-10.135	0.00030174	0.00099353	0.00012566	1370.9	2.9536e-06	5.125e-06	1367.2	370.79	2.8095e-06	5.1101e-07	423.58	140.52	122	42.027	8.3913e-06	52.43	0.00050115	0.00049828	0.0001386	1371.3	5.4557e-06	5.4288e-06	1372.1	372.38	5.5033e-06	5.4944e-06	424.79	141.81	123.26	42.592	5.524e-06	52.613	-84.116	-57.342	-38.988	-93.471	98.725	-98.537	-93.364	-88.712	199.668	-20.789	-89.224	-84.655	-84.101	-79.933	-58.906	-80.736	-8191	255	
813.712	1	1	0	0	0.043643	0.095658	0.23136	0.28985	0.15415	0.18168	0.070963	0.018846	0.12855	0.058965	0.042303	0.21586	0.056425	0.045772	0.038878	0.16577	-2.1708	-2.1562	-2.4271	-2.4813	-2.1354	-2.5854	-2.3438	-2.5	-2.6083	-2.125	-2.4313	-2.4167	-2.2188	-2.6167	-2.2208	-2.3729	-82.547	79.307	148.927	229.528	32.601	-70.199	12.867	-71.738	64.589	39.722	-59.533	219.893	-61.849	-87.857	186.174	237.863	0.000288	0.00049524	0.00010963	1372.6	1.9453e-06	4.8225e-06	1365.5	371.65	3.8438e-06	6.373e-06	425.51	140.51	122.56	42.105	3.5676e-06	52.226	0.00050526	0.00050819	0.00014093	1373.8	5.5229e-06	5.5274e-06	1374.4	373.42	5.5582e-06	5.5637e-06	425.4	142.02	123.4	42.568	5.5955e-06	52.647	-82.408	-70.331	-29.391	-93.507	220.994	6.840	-93.245	-88.713	-3.314	68.560	-89.427	-84.543	-84.329	-79.949	154.311	-80.403	-8191	255	
813.810	1	1	0	0	0.05901	0.1662	0.1534	0.19152	0.14819	0.20562	0.03715	0.14129	0.081142	0.045377	0.25814	0.047822	0.058737	0.056925	0.069233	0.051778	-2.1562	-2.1937	-2.4479	-2.6375	-2.2438	-2.5833	-2.4813	-2.3125	-2.6833	-2.1562	-2.6958	-2.4708	-2.1125	-2.6604	-2.1771	-2.4583	203.124	120.130	-7.729	194.466	93.856	-73.196	-3.499	216.626	66.855	186.212	-53.171	71.548	204.475	20.546	70.928	198.343	0.00016246	0.00087143	0.0001877	1374.1	4.8939e-06	4.046e-06	1372.3	370.38	7.4087e-06	5.5912e-06	425.39	140.49	122.11	42.06	9.1276e-07	52.006	0.00050802	0.00051005	0.00014176	1375.3	5.5728e-06	5.5247e-06	1374.7	372.33	5.4775e-06	5.4573e-06	423.59	141.38	122.87	42.439	5.4204e-06	52.309	-73.099	-80.005	-59.286	-93.519	90.645	65.331	-93.486	-88.729	-79.971	65.359	-89.385	-84.886	-84.270	-79.657	42.932	-80.458	-8191	255	
813.905	1	1	0	0	0.083007	0.16156	0.10776	0.12623	0.2689	0.28031	0.064251	0.18856	0.18662	0.25779	0.041109	0.10705	0.13262	0.29191	0.10228	0.15824	-2.225	-2.3354	-2.2854	-2.7	-2.2146	-2.575	-2.5354	-2.4417	-2.8125	-2.2229	-2.4625	-2.7729	-2.3229	-2.7479	-2.4104	-2.3937	-104.488	145.493	49.082	246.945	-73.235	90.843	218.644	179.564	8.626	103.664	-3.779	206.716	216.464	211.234	13.224	-35.437	0.00024909	0.00019383	2.5294e-05	1366.3	5.257e-06	3.9299e-06	1366.4	370.38	3.1307e-06	4.2863e-06	424.33	140.42	122.45	42.067	3.1534e-06	52.008	0.0004945	0.0004974	0.00013811	1368.3	5.4092e-06	5.3901e-06	1369.2	371.52	5.3649e-06	5.376e-06	422.59	141.23	122.75	42.347	5.3903e-06	52.261	-70.973	-34.704	20.708	-93.260	168.848	86.931	-93.353	-88.500	-21.248	37.475	-89.285	-84.670	-84.361	-79.612	94.531	-80.477	-8191	255	
814.001	1	1	0	0	0.18518	0.29457	0.10671	0.28901	0.29602	0.17186	0.29508	0.060762	0.099249	0.19828	0.17474	0.15736	0.11824	0.039662	0.085068	0.1307	-2.3917	-2.4292	-2.3146	-2.475	-2.1021	-2.5833	-2.5729	-2.1792	-2.625	-2.3229	-2.375	-2.6042	-2.3542	-2.3854	-2.4896	-2.1896	-51.457	-98.572	136.792	219.431	74.445	-57.148	159.063	175.183	-67.924	-1.112	144.500	196.359	222.955	-85.706	233.171	173.187	0.00027998	0.00033406	0.00010302	1376.3	3.5567e-06	7.6235e-06	1366.9	369.64	2.789e-06	4.7518e-06	420.89	140.1	122.24	42.027	3.2854e-06	52.19	0.00048953	0.00049229	0.00013664	1371.2	5.3297e-06	5.3435e-06	1365.9	370.43	5.2879e-06	5.2229e-06	419.32	140.1	121.64	42.068	5.1871e-06	51.98	-74.327	242.976	-9.361	-93.445	28.108	-20.283	-93.195	-88.704	92.802	-3.628	-89.416	-84.532	-84.175	-79.787	115.262	-80.721	-8191	255	
814.122	1	1	0	0	0.056667	0.066259	0.07587	0.38381	0.047722	0.083534	0.12084	0.26513	0.11604	0.073677	0.32796	0.1073	0.12036	0.13261	0.19686	0.16829	-2.2812	-2.2062	-2.2687	-2.6792	-2.0375	-2.55	-2.6708	-2.4062	-2.5042	-2.3417	-2.3854	-2.6542	-2.1146	-2.575	-2.4396	-2.1375	-3.051	120.844	9.995	175.860	135.587	184.941	249.151	196.127	120.052	82.037	177.285	-64.552	179.799	-104.763	138.654	-92.170	0.00019215	0.00038888	3.1344e-05	1366.1	7.1735e-06	6.7221e-06	1364	369.16	3.7214e-06	8.907e-06	422.8	139.55	121.92	41.857	5.3251e-06	51.898	0.00047635	0.00048013	0.00013373	1363.8	5.2595e-06	5.2634e-06	1362.9	369.36	5.2665e-06	5.2945e-06	420.84	140.23	121.85	42.101	5.2867e-06	51.958	-63.425	-84.991	163.787	-93.623	21.065	-24.828	-93.212	-88.600	-3.299	78.456	-89.431	-84.394	-84.172	-79.987	-70.906	-80.394	-8191	255	
814.218	1	1	0	0	0.11238	0.15256	0.080481	0.35781	0.089617	0.24608	0.27781	0.17007	0.016908	0.27129	0.12021	0.081501	0.27447	0.15673	0.060922	0.22982	-2.2604	-2.3896	-2.0646	-2.75	-2.2646	-2.2479	-2.7021	-2.2229	-2.4813	-2.5438	-2.3458	-2.7104	-2.3208	-2.3125	-2.5854	-2.2021	15.074	-19.954	177.445	200.882	42.296	119.896	127.459	179.679	198.773	178.608	199.182	145.195	-100.585	191.225	-65.956	153.350	0.00033294	0.00067321	7.1885e-05	1367.7	3.9576e-06	4.0332e-06	1361.8	368.08	1.0185e-06	5.3245e-06	419.21	139.81	121.7	41.84	8.7138e-06	51.705	0.00047508	0.00047646	0.0001324	1360	5.1638e-06	5.1788e-06	1359.7	368.28	5.1604e-06	5.1991e-06	418.65	139.88	121.45	41.947	5.1679e-06	51.66	-85.983	61.930	-14.665	-93.488	-65.237	-58.790	-93.299	-88.484	176.761	136.861	-89.329	-84.562	-84.305	-79.635	-70.786	-80.439	-8191	255	
814.314	1	1	0	0	0.11052	0.088205	0.10768	0.25765	0.269	0.073177	0.011401	0.22711	0.10846	0.14606	0.2339	0.19499	0.17106	0.14317	0.087013	0.22935	-2.0854	-2.4521	-1.975	-2.7313	-2.2479	-2.2479	-2.6792	-2.1521	-2.4583	-2.4188	-1.9896	-2.6667	-2.4375	-2.1667	-2.6583	-2.4646	21.741	180.389	183.180	209.793	-17.962	181.526	-53.572	181.525	-47.754	-7.579	252.199	172.505	-52.980	209.823	178.381	187.696	0.00020415	0.00052858	6.4645e-05	1362.6	3.4919e-06	1.8137e-06	1356.4	367.33	6.4167e-06	7.9455e-07	417.51	138.6	120.23	41.272	5.1135e-06	51.14	0.00046573	0.00046612	0.00012913	1354.6	5.0383e-06	5.0439e-06	1352.8	365.87	4.9777e-06	4.9412e-06	414.25	138.15	119.62	41.268	4.7805e-06	50.72	-68.395	244.803	-77.397	-93.391	-33.259	70.802	-93.344	-88.654	85.021	28.030	-89.312	-84.688	-84.147	-79.773	-12.128	-80.384	-8191	255	
814.410	1	1	0	0	0.06337	0.039864	0.20628	0.16311	0.11907	0.16322	0.18744	0.15805	0.18171	0.042942	0.12639	0.25581	0.03906	0.19503	0.040112	0.080785	-1.9958	-2.4458	-2.0125	-2.7375	-2.3833	-2.1917	-2.7438	-2.3646	-2.3208	-2.5708	-2.2125	-2.5354	-2.4396	-2.2521	-2.7104	-2.1667	181.808	105.836	-37.002	-67.573	162.347	238.071	218.852	235.221	-8.801	-105.244	145.984	207.869	242.639	-1.637	199.761	212.631	0.00018097	0.0009992	9.9653e-05	1354.1	2.7473e-06	5.2904e-06	1352.9	363.32	1.7897e-06	1.3952e-06	416.88	138.16	119.43	41.235	1.3804e-06	51.066	0.00043076	0.00042528	0.00011712	1338.1	4.5301e-06	4.5111e-06	1336.6	360.03	4.4545e-06	4.4162e-06	407.63	135.72	117.15	40.601	4.3558e-06	49.988	250.910	-62.626	-70.348	-93.124	34.185	11.661	-93.345	-88.669	-23.401	-74.863	-89.208	-84.651	-84.126	-79.649	128.810	-80.459	-8191	255	
814.506	1	1	0	0	0.15198	0.21139	0.2076	0.30498	0.18759	0.10505	0.14862	0.074989	0.24003	0.10799	0.14695	0.30544	0.11641	0.1244	0.2297	0.12517	-1.8146	-2.5271	-1.9021	-2.5438	-2.4688	-2.1292	-2.7375	-2.3479	-2.4833	-2.4437	-2.1458	-2.6604	-2.5687	-2.0625	-2.3812	-2.2271	-83.941	200.613	111.130	212.276	135.663	-23.860	218.521	-100.748	152.884	-11.453	-92.479	188.333	189.693	28.616	107.034	-85.873	0.00015678	0.00029823	0.00014577	1346.9	5.1469e-06	2.5345e-06	1345.3	360.78	8.4118e-07	2.1478e-06	414.11	136.41	119.15	41.102	5.8098e-06	50.993	0.00040032	0.00039712	0.0001112	1329.1	4.3995e-06	4.3871e-06	1329.2	358.1	4.4289e-06	4.4064e-06	406.29	135.09	116.93	40.48	4.3402e-06	49.858	-58.320	160.918	-73.441	-93.393	2.571	161.683	-93.342	-88.597	42.535	191.206	-89.443	-84.588	-84.426	-79.801	21.239	-80.695	-8191	255	
814.602	1	1	0	0	0.36411	0.17516	0.012818	0.11534	0.21661	0.16356	0.080553	0.15895	0.22952	0.13481	0.099163	0.1841	0.017604	0.17126	0.15581	0.16674	-1.7188	-2.525	-2.0687	-2.5667	-2.4938	-2.05	-2.7562	-2.4167	-2.3042	-2.6354	-2.1583	-2.4771	-2.6104	-2.1917	-2.5625	-2.3646	-77.226	202.795	139.998	216.056	66.331	19.248	143.775	249.788	-102.304	-55.589	-53.105	162.536	115.408	-2.641	249.603	56.801	0.00031672	0.00047839	0.00010313	1343.1	5.022e-06	2.4318e-06	1336.5	360.55	1.275e-06	4.5834e-06	413.17	136.77	119.06	40.988	4.2227e-06	50.947	0.000397	0.00039342	0.00010906	1323.8	4.3194e-06	4.3248e-06	1322.7	356.53	4.3618e-06	4.3669e-06	405.2	135.23	116.98	40.593	4.4767e-06	50.131	-83.131	-9.023	191.137	-93.274	50.846	-65.931	-93.417	-88.654	242.791	45.964	-89.298	-84.676	-84.401	-79.707	185.282	-80.517	-8191	255	
814.721	1	1	0	0	0.23055	0.098013	0.23558	0.34688	0.1781	0.13802	0.30309	0.22746	0.27719	0.21551	0.18232	0.30089	0.18232	0.29124	0.10467	0.11117	-1.75	-2.3854	-2.0875	-2.5542	-2.5917	-2.0021	-2.7542	-2.4333	-2.2292	-2.425	-2.3854	-2.5042	-2.4021	-2.1542	-2.6167	-2.7542	24.898	-13.658	-26.828	220.716	171.889	-105.773	227.519	158.926	-55.889	85.283	-44.157	210.096	219.256	181.732	-77.196	-52.772	0.00025013	0.00010509	1.611e-05	1345.2	1.9657e-06	8.7853e-06	1342.9	360.5	1.0703e-06	3.7699e-07	416.6	137.71	119.39	41.422	3.207e-06	51.342	0.00041521	0.00041459	0.00011591	1330.4	4.6408e-06	4.66e-06	1333.8	360.05	4.7887e-06	4.8198e-06	410.85	137.4	119.16	41.294	4.9673e-06	51.044	-95.734	249.843	-61.635	-93.449	-48.354	-13.881	-93.259	-88.689	-38.780	-104.691	-89.475	-84.636	-84.381	-79.575	-86.919	-80.298	-8191	255	
814.817	1	1	0	0	0.068363	0.13474	0.22989	0.16474	0.2083	0.25151	0.16156	0.25862	0.11377	0.2243	0.32209	0.17537	0.21957	0.16689	0.034384	0.069475	-1.7188	-2.6229	-2.0438	-2.4875	-2.4208	-2.1542	-2.7979	-2.4562	-2.1833	-2.6021	-2.2562	-2.2521	-2.7438	-2.1625	-2.3792	-2.4833	44.097	-86.580	-92.093	188.205	171.009	214.747	124.345	152.174	-45.961	114.753	-92.669	173.811	240.918	239.972	207.627	204.508	0.00027715	0.00087124	5.1194e-05	1355.4	1.6775e-06	5.9606e-07	1352.3	365.35	4.2177e-06	2.6686e-06	417.63	139.47	120.86	41.533	8.9001e-06	51.296	0.00045938	0.00046097	0.00013061	1354.1	5.1889e-06	5.2176e-06	1356.1	367.37	5.2789e-06	5.2658e-06	417.17	139.81	120.92	41.706	5.1666e-06	51.377	-93.196	-24.014	247.264	-93.223	-5.691	194.935	-93.372	-88.674	-3.693	127.516	-89.511	-84.418	-84.298	-80.080	-42.126	-80.323	-8191	255	
814.913	1	1	0	0	0.14865	0.25121	0.1713	0.13815	0.07375	0.23487	0.031995	0.1999	0.11398	0.2319	0.11523	0.044223	0.19205	0.07981	0.15185	0.095893	-1.5583	-2.5521	-2.2708	-2.3792	-2.5021	-2.1667	-2.6729	-2.6583	-2.0125	-2.4688	-2.4021	-2.3417	-2.5833	-2.2354	-2.2667	-2.6521	-23.979	78.164	144.798	-71.659	169.529	177.993	73.908	198.996	21.575	221.509	197.628	1.435	120.617	-92.664	-98.390	-2.437	0.00022485	0.00079377	8.3408e-05	1355.4	5.1353e-06	8.9651e-07	1355.4	364.19	1.8869e-06	2.4782e-06	414.43	137.9	119.62	41.323	2.4777e-06	51.022	0.00046479	0.00046371	0.00012868	1349.8	5.0304e-06	5.0269e-06	1346.8	363.9	4.9941e-06	4.9311e-06	412.85	138	119.21	41.305	5.0285e-06	51.037	-80.380	-77.753	44.180	-93.440	44.462	250.022	-93.332	-88.525	-56.148	28.074	-89.288	-84.751	-84.135	-79.586	171.529	-80.487	-8191	255	
815.010	1	1	0	0	0.18874	0.14267	0.16014	0.28634	0.31848	0.11875	0.13567	0.17913	0.047556	0.35254	0.25339	0.10051	0.097351	0.19894	0.20222	0.26545	-1.6917	-2.6729	-2.1875	-2.3187	-2.4917	-2.0458	-2.6271	-2.5146	-1.9208	-2.5646	-2.4958	-2.3083	-2.5187	-2.3812	-2.3146	-2.6979	239.490	-53.500	233.766	234.781	245.687	90.461	67.632	163.121	60.732	215.343	175.420	-12.985	240.848	211.880	187.184	109.493	0.00027595	0.00033231	0.00012338	1347.6	5.6773e-06	6.1388e-06	1346.2	363.44	5.6677e-06	8.7608e-06	415.28	137.66	120.68	41.486	3.5905e-06	51.268	0.00046495	0.0004671	0.00013061	1346.1	5.1475e-06	5.2077e-06	1346.5	364.68	5.2056e-06	5.1975e-06	415.02	138.83	120.63	41.751	5.319e-06	51.49	-79.323	206.464	-53.120	-93.339	119.322	-47.046	-93.377	-88.544	117.365	158.233	-89.049	-84.868	-84.208	-79.870	19.444	-80.347	-8191	255	
815.083	1	1	0	0	0.13033	0.30707	0.23486	0.035766	0.040202	0.28135	0.44034	0.11908	0.17598	0.020804	0.085714	0.20073	0.23615	0.086821	0.043311	0.24957	-1.7188	-2.4625	-2.4542	-2.1458	-2.5667	-2.3458	-2.3646	-2.625	-2.0479	-2.3625	-2.475	-2.2271	-2.4313	-2.4042	-2.375	-2.7	218.903	-55.558	51.192	158.442	204.286	177.725	220.333	-20.659	226.457	178.698	-83.633	222.333	217.761	211.053	-66.761	205.833	0.00023246	0.00057983	0.00016523	1357.6	6.8881e-06	4.0667e-06	1352.5	364.64	3.4779e-06	1.1125e-06	417.35	138.9	120.54	41.344	3.082e-06	51.54	0.00048806	0.00049264	0.0001371	1356.5	5.3612e-06	5.3856e-06	1354.9	366.73	5.3624e-06	5.3533e-06	417.54	139.7	121.04	41.737	5.3028e-06	51.523	-59.648	-47.093	17.433	-93.427	-35.667	66.794	-93.219	-88.628	-37.020	123.153	-89.127	-84.542	-84.052	-79.710	108.265	-80.670	-8191	255	
815.202	1	1	0	0	0.12558	0.17194	0.18254	0.071836	0.15668	0.24378	0.31916	0.30582	0.19897	0.29081	0.38973	0.31222	0.1152	0.11095	0.28769	0.21986	-1.8271	-2.2125	-2.4646	-2.3208	-2.4	-2.3833	-2.4083	-2.8063	-2.1937	-2.4792	-2.6604	-2.2562	-2.4521	-2.4354	-2.0062	-2.7833	43.723	-24.147	-101.358	152.206	90.165	229.827	171.392	221.267	-9.984	-58.760	182.842	216.265	-100.534	56.698	161.586	176.676	0.00030285	0.00022976	0.00018035	1352.6	5.9238e-06	6.6422e-06	1351	363.94	6.7216e-06	4.991e-06	418.65	138.04	119.61	41.34	4.6992e-06	51.115	0.00047721	0.00047953	0.00013354	1348.8	5.2058e-06	5.208e-06	1348	364.78	5.145e-06	5.0986e-06	414.27	137.85	119.24	41.267	4.7974e-06	50.53	-62.010	-10.780	-4.559	-93.353	-17.252	-52.928	-93.276	-88.550	-73.706	156.153	-89.218	-84.493	-84.345	-79.795	19.921	-80.325	-8191	255	
815.298	1	1	0	0	0.36456	0.14763	0.09398	0.33022	0.11054	0.094554	0.17198	0.20322	0.27845	0.19454	0.14897	0.35228	0.28118	0.40137	0.22698	0.13341	-1.8937	-2.3688	-2.5979	-2.3688	-2.575	-2.5229	-2.3312	-2.6937	-2.1583	-2.3833	-2.7542	-2.3667	-2.5917	-2.6437	-2.2417	-2.6125	171.594	181.965	-58.443	168.989	228.132	212.788	204.485	199.419	-27.011	200.555	224.517	184.765	-94.587	-74.944	-21.127	-103.813	0.00022041	0.0001686	3.6194e-05	1344.5	1.8171e-06	4.5161e-06	1342.9	361.63	6.9766e-06	1.829e-06	413.72	137.34	119.86	41.204	2.4601e-06	50.886	0.00042894	0.00042692	0.00011821	1333.8	4.6019e-06	4.5823e-06	1330.7	358.91	4.5382e-06	4.5378e-06	406.85	135.66	117.75	40.768	4.5925e-06	50.203	-89.919	62.819	-8.205	-93.692	214.183	-23.406	-93.278	-88.430	16.595	100.143	-89.339	-84.869	-84.068	-79.651	67.586	-80.568	-8191	255	
815.394	1	1	0	0	0.23153	0.097445	0.18716	0.26799	0.14698	0.16141	0.30949	0.060294	0.16791	0.14032	0.21545	0.36495	0.085976	0.18227	0.22664	0.10221	-1.8188	-2.275	-2.525	-2.3312	-2.4729	-2.4292	-2.3812	-2.8479	-2.225	-2.1354	-2.6229	-2.1229	-2.5458	-2.6083	-2.0146	-2.5854	148.787	27.802	195.084	218.039	124.786	-45.203	143.812	7.555	129.124	241.874	166.429	160.639	185.126	216.699	202.515	231.995	0.00021521	0.00021144	0.00013463	1340.3	4.5194e-06	4.6002e-06	1338.2	360.06	2.6245e-06	3.0131e-06	414.96	136.73	118.99	40.896	2.4338e-06	51.17	0.00042354	0.00042786	0.00011912	1329	4.7258e-06	4.7298e-06	1332.2	359.47	4.7692e-06	4.7306e-06	409.09	136.47	118.06	40.847	4.7788e-06	50.366	-69.455	45.298	43.381	-93.334	-76.188	-16.424	-93.486	-88.497	-49.611	-97.823	-89.207	-84.842	-84.257	-79.752	-23.826	-80.317	-8191	255	
815.490	1	1	0	0	0.093192	0.085876	0.25173	0.11983	0.26969	0.23944	0.25044	0.17727	0.08193	0.13023	0.054425	0.054305	0.16747	0.14581	0.35637	0.12172	-1.8229	-2.1375	-2.5708	-2.5208	-2.2479	-2.3667	-2.3104	-2.6229	-2.1021	-2.3667	-2.6958	-2.3438	-2.4021	-2.3896	-2.1333	-2.4167	75.165	42.288	-22.963	132.623	-55.060	189.732	215.073	235.283	121.926	5.690	-68.632	-23.607	74.580	-19.118	-0.460	-57.231	0.00024225	0.00059934	5.4433e-05	1343.6	2.8149e-06	9.5262e-07	1338.2	360.4	3.6142e-06	5.0961e-06	413.28	136.26	119.26	40.965	5.7027e-06	50.975	0.00043422	0.00043342	0.00012044	1330.6	4.7149e-06	4.7145e-06	1328.1	358.74	4.7297e-06	4.7005e-06	406.95	135.71	117.72	40.643	4.6502e-06	50.161	-88.235	-76.720	-76.798	-93.374	-43.252	219.090	-93.259	-88.551	43.393	43.614	-89.249	-84.478	-84.030	-79.530	-0.287	-80.540	-8191	255	
815.609	1	1	0	0	0.38303	0.070808	0.18174	0.25296	0.18494	0.24166	0.28932	0.17911	0.055716	0.07772	0.19007	0.24829	0.41117	0.071978	0.12121	0.11867	-1.8042	-2.025	-2.6625	-2.3958	-2.325	-2.8104	-2.1625	-2.6354	-2.3292	-2.2458	-2.7833	-2.4833	-2.4625	-2.6396	-2.1521	-2.5292	-49.792	161.436	56.323	134.792	-34.829	-16.717	169.975	164.819	223.888	-7.936	188.083	-27.831	-97.991	-4.965	203.819	-93.367	0.0002379	0.00052402	0.00014715	1332.7	6.5888e-06	4.377e-06	1329.2	359.34	4.0642e-06	3.7034e-06	410.91	136.12	118.65	40.879	4.5384e-06	50.64	0.00042656	0.00042491	0.0001183	1323.2	4.6703e-06	4.6412e-06	1324.3	357.24	4.6404e-06	4.6048e-06	404.69	135.05	116.77	40.522	4.5806e-06	49.898	-100.419	-77.697	83.184	-93.363	188.377	77.818	-93.153	-88.615	12.845	185.252	-89.346	-84.687	-83.813	-79.697	194.368	-80.315	-8191	255	
815.683	1	1	0	0	0.16157	0.0084019	0.24219	0.19287	0.049386	0.16064	0.21931	0.40663	0.23214	0.074089	0.11122	0.2666	0.26894	0.29168	0.19988	0.18253	-2	-2.0812	-2.5771	-2.4125	-2.3292	-2.8438	-2.2917	-2.6021	-2.3396	-2.0292	-2.5687	-2.3333	-2.2208	-2.6312	-2.1604	-2.5729	237.730	244.247	-67.281	-43.952	-29.014	246.704	231.594	238.080	-76.515	154.282	226.632	208.875	-84.373	193.371	-78.143	154.436	0.00030281	0.00027006	6.8542e-05	1332.5	3.3881e-06	1.2972e-06	1330.2	358.15	2.8354e-06	2.3192e-06	411.25	137.21	118.08	41.135	8.8886e-06	50.529	0.00041614	0.00042047	0.00011684	1322	4.6135e-06	4.6063e-06	1324.4	356.86	4.5905e-06	4.5952e-06	405.33	135.45	117	40.655	4.6386e-06	50.081	-62.155	209.689	-44.095	-93.348	182.164	-72.621	-93.331	-88.507	102.720	7.851	-89.275	-84.557	-84.152	-79.520	3.780	-80.253	-8191	255	
815.803	1	1	0	0	0.26225	0.064131	0.30485	0.19836	0.17105	0.26444	0.24544	0.11401	0.19512	0.096687	0.23126	0.17296	0.13591	0.3974	0.22543	0.12129	-2.0917	-2.1271	-2.5458	-2.4479	-2.0896	-2.7229	-2.2333	-2.4938	-2.5375	-2.1208	-2.5958	-2.4458	-2.3542	-2.6083	-2.2646	-2.4437	34.731	55.385	90.821	246.351	242.011	-11.717	209.261	154.007	222.212	128.298	216.490	50.208	108.846	215.786	-77.674	242.985	0.00028195	0.00046025	8.7115e-05	1334.7	8.8705e-06	3.971e-06	1333.3	357.01	3.3081e-06	4.6778e-06	413.22	136.92	118.94	40.896	5.3478e-06	50.723	0.00042461	0.00042515	0.00011784	1326.4	4.6807e-06	4.6768e-06	1327.3	357.74	4.7295e-06	4.7499e-06	408.09	136.19	117.91	40.842	4.8051e-06	50.362	-92.990	27.529	-4.291	-93.576	33.069	59.325	-93.266	-88.481	76.201	8.802	-89.051	-84.737	-84.149	-79.742	95.733	-80.045	-8191	255	
815.898	1	1	0	0	0.1634	0.15115	0.03744	0.47683	0.15342	0.13823	0.15414	0.17521	0.065494	0.073269	0.15493	0.16966	0.07254	0.1625	0.16916	0.16585	-2.2979	-1.9917	-2.6813	-2.6458	-1.9979	-2.6375	-2.3958	-2.3312	-2.7021	-1.9083	-2.5187	-2.4188	-1.9958	-2.4854	-2.2687	-2.1646	46.741	137.015	180.387	209.675	162.484	150.392	176.988	201.505	-103.577	74.141	218.184	132.919	-57.028	152.963	-79.138	-37.367	0.00031713	0.00070627	7.7943e-05	1339.4	3.002e-06	2.5185e-06	1334.8	359.9	2.0486e-06	5.2508e-06	412.29	136.41	118.66	40.888	5.4627e-06	50.951	0.00044269	0.00044528	0.00012467	1332.7	4.9291e-06	4.9201e-06	1331.9	359.89	4.9618e-06	4.9583e-06	409.69	136.68	118.37	40.954	4.9311e-06	50.525	-91.004	-36.729	138.224	-93.275	108.857	18.550	-93.204	-88.466	-67.487	51.706	-89.374	-84.649	-83.999	-79.882	-40.144	-80.666	-8191	255	
815.994	1	1	0	0	0.10476	0.18548	0.08722	0.24772	0.13074	0.066188	0.078578	0.25269	0.14561	0.089397	0.043286	0.33555	0.17044	0.12615	0.20948	0.17779	-2.4042	-2.1437	-2.5479	-2.6875	-2.1	-2.4708	-2.4375	-2.4708	-2.6167	-2.1083	-2.5812	-2.8583	-2.0146	-2.7354	-2.2646	-2.4479	-22.271	176.017	227.338	219.835	24.312	-37.333	-50.379	153.336	-85.078	-68.813	188.634	-64.267	11.254	-100.371	240.254	124.875	0.00017472	0.000347	3.9957e-05	1338.5	5.588e-06	1.1283e-06	1334.7	359.73	1.6996e-06	6.1528e-06	413.53	137.21	118.86	41.215	1.5312e-06	50.748	0.00044921	0.00044969	0.00012546	1330.5	4.9391e-06	4.9415e-06	1331.9	359.86	4.9439e-06	4.9394e-06	409.59	136.81	118.4	41.036	4.9186e-06	50.472	-80.017	162.850	207.374	-93.283	61.581	135.964	-93.243	-88.587	117.315	-16.293	-89.342	-84.754	-84.086	-79.746	-101.164	-80.454	-8191	255	
816.090	1	1	0	0	0.10152	0.12229	0.14544	0.36862	0.13287	0.21411	0.098195	0.28626	0.060929	0.094039	0.16969	0.22673	0.27299	0.27761	0.32269	0.22752	-2.2125	-2.2333	-2.3542	-2.7313	-1.8792	-2.4813	-2.4896	-2.3063	-2.5896	-2.0687	-2.4021	-2.6458	-2.0896	-2.4271	-2.3396	-2.3354	187.021	174.551	82.444	-82.439	205.873	152.327	236.953	191.970	79.455	53.849	-75.434	203.955	-56.351	249.084	136.736	158.777	0.00018285	0.00053963	0.00021303	1340.8	3.4288e-07	3.7953e-06	1335.2	358.56	3.3554e-06	9.2788e-07	410.19	136.44	119.12	40.918	6.3668e-06	50.57	0.00044696	0.0004472	0.00012434	1331	4.8746e-06	4.8445e-06	1329.3	358.33	4.8773e-06	4.889e-06	406.93	136.39	118.11	40.882	4.8738e-06	50.34	-87.432	-53.485	-45.459	-93.317	161.879	-26.624	-93.395	-88.552	20.222	78.063	-89.382	-84.555	-84.312	-79.824	50.297	-80.395	-8191	255	
816.211	1	1	0	0	0.10937	0.15874	0.15307	0.19104	0.35443	0.16791	0.39081	0.093404	0.04601	0.20588	0.080706	0.33102	0.22979	0.071789	0.17416	0.06577	-2.2104	-2.1937	-2.2729	-2.6958	-2.2021	-2.3896	-2.8	-2.3792	-2.4667	-2.2604	-2.2333	-2.7229	-2.225	-2.6437	-2.3375	-2.1729	74.289	-19.194	-44.139	205.137	185.286	-58.734	174.930	111.065	171.572	123.639	223.287	-77.729	191.949	223.596	36.002	3.425	0.00031331	0.00037467	8.6115e-05	1331.4	3.9597e-06	6.5837e-06	1327.3	357.97	3.7719e-06	7.5948e-06	410.3	135.82	117.76	40.762	4.804e-06	50.739	0.00044243	0.00044249	0.00012284	1324.7	4.8073e-06	4.8109e-06	1323.1	357	4.7994e-06	4.8232e-06	406.48	135.73	117.49	40.738	4.8534e-06	50.203	-63.166	-41.066	244.789	-93.317	-3.763	76.040	-93.224	-88.582	-70.751	77.734	-89.189	-84.537	-84.105	-79.624	9.903	-80.524	-8191	255	
816.307	1	1	0	0	0.15143	0.14904	0.19591	0.064407	0.1304	0.17496	0.33413	0.13414	0.040048	0.32845	0.11158	0.05205	0.33618	0.16639	0.2439	0.1332	-2.3354	-2.1625	-2.2979	-2.7333	-2.1937	-2.3479	-2.6813	-2.2	-2.5187	-2.2188	-2.2354	-2.7521	-2.1562	-2.3438	-2.4938	-2.1542	-77.436	246.766	-35.701	110.328	-68.534	-17.058	-100.355	166.682	-3.472	16.888	177.426	-0.819	239.077	125.508	110.857	182.112	0.00018969	0.00072243	5.3204e-05	1328.8	1.9136e-06	4.302e-06	1327.6	357.86	4.0356e-06	1.3425e-06	411.69	136.3	118.32	40.653	2.0317e-06	50.675	0.0004463	0.00044755	0.00012415	1324.2	4.9259e-06	4.9194e-06	1326.2	357.25	4.9256e-06	4.9022e-06	407.67	136.1	117.86	40.807	4.9143e-06	50.321	-75.689	6.572	-13.078	-93.419	144.334	50.865	-93.497	-88.634	16.036	-58.873	-89.242	-84.654	-84.088	-79.598	16.307	-80.585	-8191	255	
816.378	1	1	0	0	0.32021	0.11787	0.36062	0.22036	0.11899	0.075003	0.24001	0.058234	0.18852	0.050809	0.16554	0.086193	0.08936	0.070008	0.065573	0.16947	-1.8125	-2.3833	-1.9417	-2.7313	-2.1104	-2.3104	-2.8354	-2.2354	-2.5583	-2.3583	-2.25	-2.6813	-2.2167	-2.2938	-2.4333	-2.1958	-79.667	237.925	-81.239	-92.728	149.851	39.877	103.209	23.737	40.151	130.280	213.012	177.049	-17.132	-77.809	-71.412	-87.523	0.00020861	0.00024744	0.00010398	1331	2.939e-06	1.0988e-06	1325.9	357.29	9.4927e-07	2.4389e-06	409.79	136.22	117.95	40.776	4.2832e-06	50.403	0.00044874	0.00045011	0.00012502	1323.3	4.9126e-06	4.8814e-06	1323.3	357.05	4.8885e-06	4.8661e-06	406.52	135.97	117.75	40.684	4.8494e-06	50.067	-80.434	246.860	-2.602	-93.539	2.324	-101.505	-93.173	-88.531	56.605	17.911	-89.305	-84.667	-84.251	-79.659	-29.132	-80.291	-8191	255	
816.499	1	1	0	0	0.24345	0.055461	0.11087	0.20745	0.030085	0.21831	0.12242	0.086515	0.11758	0.13416	0.15605	0.13455	0.35751	0.20388	0.14225	0.1041	-2.0125	-2.3146	-2.1083	-2.7396	-2.2271	-2.2917	-2.85	-2.3187	-2.2917	-2.3563	-2.075	-2.5938	-2.2938	-2.3438	-2.475	-2.1896	172.690	12.908	-4.866	184.855	-32.460	117.851	11.326	3.984	-98.112	30.640	138.075	-105.382	123.530	-104.509	36.883	-88.716	0.00015455	0.00051373	0.00018338	1331.4	6.7247e-06	5.1982e-06	1329.5	357.51	2.7094e-06	1.1612e-06	410.04	135.43	118.58	40.714	1.866e-06	50.39	0.00044315	0.00044137	0.00012218	1322.3	4.7926e-06	4.775e-06	1320.8	356.44	4.7746e-06	4.7301e-06	405.27	135.2	117.29	40.603	4.7211e-06	49.977	-96.000	215.422	-62.480	-93.281	-49.505	41.811	-93.227	-88.650	158.748	-0.132	-89.116	-84.643	-84.041	-79.752	-15.800	-80.426	-8191	255	
816.595	1	1	0	0	0.3021	0.082652	0.085082	0.18856	0.053573	0.10291	0.24802	0.41674	0.29429	0.19728	0.12167	0.16613	0.17156	0.15001	0.16145	0.11484	-1.9125	-2.375	-1.9917	-2.7479	-2.1542	-2.1792	-2.975	-2.3458	-2.3187	-2.5229	-2.1625	-2.5687	-2.4062	-2.2208	-2.7208	-2.2292	-88.573	12.271	57.525	154.354	-55.376	-59.950	228.787	142.855	-68.895	-96.845	148.057	173.018	37.433	-86.493	167.494	169.946	0.00028858	0.00047411	0.00011105	1323.8	2.4326e-06	3.1267e-06	1325.6	356.78	3.2776e-07	4.3965e-06	409.33	136.33	117.96	40.667	2.7435e-06	50.258	0.00043312	0.00042955	0.00012032	1319.1	4.7456e-06	4.7563e-06	1320.6	356.07	4.7536e-06	4.7533e-06	405.17	135.63	117.01	40.599	4.7921e-06	50.033	-79.001	12.617	-19.486	-93.367	129.726	84.893	-93.205	-88.254	39.717	33.978	-89.231	-84.633	-84.051	-79.888	21.670	-80.322	-8191	255	
816.690	1	1	0	0	0.24991	0.17775	0.17777	0.07515	0.13305	0.091763	0.1631	0.19273	0.19049	0.37722	0.1053	0.20257	0.16255	0.12535	0.037032	0.18092	-1.7729	-2.3354	-2.0292	-2.7354	-2.4542	-2.0312	-2.4229	-2.2583	-2.2958	-2.6792	-2.2479	-2.4708	-2.4854	-2.2667	-2.4542	-2.4854	-104.448	208.409	-54.887	150.655	225.261	-46.138	169.620	166.868	-75.699	237.404	202.189	238.580	-33.445	231.074	12.828	248.510	0.00017183	0.00038406	3.5017e-05	1328	1.6793e-06	3.0459e-06	1327.2	358.06	3.2856e-06	3.3779e-06	409.69	135.77	117.85	40.769	3.8515e-06	50.28	0.00043866	0.00043909	0.00012265	1319.9	4.8242e-06	4.814e-06	1320.7	356.62	4.8081e-06	4.7835e-06	405.34	135.29	117.17	40.512	4.7399e-06	49.878	213.749	-6.422	-21.346	-93.461	20.727	11.706	-93.277	-88.571	135.581	-25.853	-89.272	-84.640	-84.169	-79.525	70.194	-80.193	-8191	255	
816.786	1	1	0	0	0.060436	0.16207	0.10341	0.26015	0.3883	0.25583	0.37417	0.18654	0.23994	0.074637	0.21236	0.091584	0.17688	0.24722	0.15882	0.073905	-1.8708	-2.4625	-2.0312	-2.4708	-2.4021	-2.0833	-2.6854	-2.1813	-2.0604	-2.5146	-2.3417	-2.5958	-2.7625	-2.1646	-2.4667	-2.4396	190.872	96.068	150.484	243.903	-5.372	-18.182	162.725	166.658	205.272	-50.837	89.702	-76.109	180.041	128.900	48.563	-29.830	0.00028776	7.622e-05	0.00010182	1325.7	6.6447e-06	5.7355e-06	1327.3	355.83	4.7083e-06	1.6998e-06	409.35	135.63	118.1	40.597	3.7596e-06	50.524	0.00043274	0.00043375	0.00012012	1317.1	4.672e-06	4.6491e-06	1318.9	354.5	4.6451e-06	4.5911e-06	402.89	134.39	116.34	40.295	4.5314e-06	49.501	-71.869	160.848	-64.782	-93.130	85.085	5.240	-93.174	-88.338	238.642	49.433	-89.428	-84.413	-84.084	-79.745	-53.163	-80.229	-8191	255	
816.906	1	1	0	0	0.0442	0.18635	0.15777	0.090405	0.22648	0.069012	0.18665	0.18392	0.18553	0.31399	0.14092	0.22036	0.22165	0.22809	0.13734	0.24103	-1.7083	-2.5729	-2.1833	-2.4646	-2.6708	-2.0375	-2.7625	-2.5312	-2.2021	-2.7104	-2.1813	-2.5271	-2.5938	-2.3625	-2.4521	-2.4417	4.490	44.711	-95.230	-33.052	63.023	-56.072	139.807	226.387	223.274	-86.180	128.971	234.111	-32.192	204.016	71.911	134.078	0.00022224	0.0007659	0.00014882	1321.4	3.1457e-06	8.2722e-07	1325.5	355.28	1.2061e-06	2.7785e-06	408.35	135.77	117.28	40.537	4.6919e-06	50.217	0.00041001	0.00040912	0.00011329	1310.2	4.4414e-06	4.4274e-06	1310.3	353.1	4.4405e-06	4.4256e-06	401.31	134.05	115.69	40.2	4.4586e-06	49.382	-61.838	-25.079	14.410	-93.389	231.032	48.831	-93.242	-88.550	93.677	120.484	-89.275	-84.573	-84.091	-79.768	41.990	-80.532	-8191	255	
816.978	1	1	0	0	0.097872	0.32197	0.083347	0.16713	0.22304	0.12906	0.19031	0.053148	0.024598	0.21002	0.059134	0.07628	0.061713	0.1711	0.34236	0.30033	-1.7583	-2.6312	-2.1104	-2.3542	-2.5208	-2.0208	-2.725	-2.5417	-2.1167	-2.5854	-2.3438	-2.3146	-2.4979	-2.2979	-2.4708	-2.5271	-5.658	83.314	-2.254	185.529	-73.206	206.811	145.631	194.113	-80.127	168.008	213.160	219.999	250.797	-58.842	116.117	205.781	0.00031275	0.00060807	0.00013669	1317.9	2.7062e-06	3.0495e-06	1318.9	355.01	4.4416e-06	2.2368e-06	408.32	135.14	117.62	40.609	1.0134e-06	50.054	0.00040631	0.00040586	0.00011256	1306.1	4.3998e-06	4.4089e-06	1308.1	351.85	4.3635e-06	4.3641e-06	399.85	133.35	115.45	40.004	4.3427e-06	49.038	-80.056	78.833	-86.929	-93.201	62.171	-81.505	-93.486	-88.535	-45.258	37.086	-88.893	-84.647	-84.408	-79.940	77.871	-80.312	-8191	255	
817.074	1	1	0	0	0.16631	0.12469	0.28606	0.07277	0.085358	0.059866	0.22646	0.16776	0.40401	0.27665	0.060585	0.19944	0.088631	0.33075	0.26711	0.20318	-1.6437	-2.6708	-2.3458	-2.2542	-2.7146	-2.0958	-2.5208	-2.7292	-1.9	-2.55	-2.35	-2.0187	-2.6896	-2.2917	-2.3563	-2.7438	63.295	111.146	33.005	124.397	212.914	123.478	203.314	211.175	-25.091	220.470	236.234	-13.604	-24.698	85.924	61.748	-29.006	0.00028597	0.00071948	0.0002046	1321	1.0703e-06	1.487e-06	1317.5	354.13	1.1151e-06	5.4489e-06	406.64	134.87	117.23	40.48	6.633e-06	50.248	0.00039646	0.0003965	0.00011037	1303.1	4.3592e-06	4.3691e-06	1306.1	351.48	4.4113e-06	4.4179e-06	400.54	133.58	115.47	40.047	4.4093e-06	49.227	-81.175	252.587	8.483	-93.395	-4.327	-79.706	-93.339	-88.662	-21.347	100.722	-89.109	-84.496	-84.193	-79.590	-8.421	-80.509	-8191	255	
817.170	1	1	0	0	0.29562	0.32726	0.096958	0.23161	0.11345	0.11867	0.27654	0.11201	0.087738	0.30525	0.43048	0.28291	0.27606	0.062398	0.12728	0.26601	-1.6979	-2.575	-2.4979	-2.3	-2.525	-2.1417	-2.5854	-2.7875	-1.9417	-2.4104	-2.4146	-2.3896	-2.575	-2.2687	-2.1542	-2.7938	-57.817	7.182	-52.277	246.843	72.922	153.973	214.792	-102.403	249.885	70.769	172.262	-90.813	247.265	104.927	66.815	235.104	0.0003048	0.00056477	0.00019321	1320.8	4.2238e-06	4.6801e-06	1319.1	354.36	2.2691e-06	5.4969e-06	405.81	135.52	117.75	40.507	4.0172e-06	50.077	0.00040199	0.0004017	0.00011203	1305.7	4.4036e-06	4.4073e-06	1305.5	351.48	4.3704e-06	4.3627e-06	399.31	133.5	115.22	39.99	4.3588e-06	49.097	247.207	-84.945	0.662	-93.270	-98.016	76.491	-93.335	-88.407	-37.377	-11.574	-89.162	-84.333	-84.135	-79.570	-56.172	-80.142	-8191	255	
817.291	1	1	0	0	0.24965	0.1837	0.21209	0.35204	0.059992	0.11505	0.18011	0.14048	0.34319	0.050662	0.024331	0.20385	0.16574	0.14971	0.49665	0.21332	-1.5667	-2.6479	-2.3771	-2.2604	-2.3896	-2.2333	-2.2229	-2.75	-1.9792	-2.25	-2.5479	-2.2042	-2.6104	-2.2771	-2.1562	-2.7229	-42.512	247.041	225.244	233.623	-17.455	153.111	203.096	200.307	-101.707	133.104	169.735	206.039	188.947	194.555	-21.813	214.372	0.00012559	0.00048745	7.2697e-05	1318	4.2274e-06	4.7529e-06	1317	354.28	2.7955e-06	7.0475e-06	407.29	135.03	117.32	40.761	1.7857e-06	50.101	0.00039367	0.00039438	0.00010942	1301.2	4.2844e-06	4.3156e-06	1304.3	351.2	4.3614e-06	4.3513e-06	399.46	133.54	115.3	40.144	4.3741e-06	49.251	-77.042	-76.146	91.723	-93.538	16.472	-70.649	-93.173	-88.526	8.217	60.825	-89.042	-84.478	-84.079	-79.650	27.737	-80.252	-8191	255	
817.387	1	1	0	0	0.293	0.1882	0.18238	0.35502	0.2736	0.087787	0.09892	0.3501	0.17927	0.14476	0.27061	0.16262	0.14317	0.15507	0.12452	0.19583	-1.6333	-2.3542	-2.3438	-2.2438	-2.4729	-2.35	-2.3812	-2.9083	-2.2104	-2.4375	-2.7687	-2.2396	-2.5979	-2.4688	-2.1	-2.7917	23.514	68.251	176.305	230.252	162.663	100.759	230.810	76.264	72.767	238.956	119.558	-55.214	193.415	-11.021	84.063	226.578	0.0002085	0.00025577	0.00011559	1320.7	6.4084e-06	6.2449e-06	1314	354.88	5.1746e-06	3.1355e-06	408.09	135.34	117.16	40.618	4.2333e-06	50.186	0.00040264	0.00040056	0.00011144	1305.5	4.3687e-06	4.3635e-06	1302.8	351.65	4.3701e-06	4.3446e-06	399.78	133.38	115.41	40.067	4.402e-06	49.288	242.187	-75.987	-28.163	-93.351	47.440	34.828	-93.162	-88.435	71.162	71.881	-89.355	-84.604	-84.064	-79.484	36.578	-80.294	-8191	255	
817.483	1	1	0	0	0.12608	0.076955	0.11411	0.13532	0.085462	0.20088	0.15846	0.1678	0.17359	0.14004	0.17453	0.07643	0.061417	0.19518	0.17382	0.27135	-1.4333	-2.2833	-2.2687	-2.0833	-2.4646	-2.3104	-2.175	-2.725	-2.0875	-2.2333	-2.7333	-2.1125	-2.6083	-2.4938	-2.0292	-2.6833	-3.377	-22.444	147.617	229.311	157.551	211.906	211.092	225.130	77.280	161.020	246.845	-40.788	-61.178	223.739	91.745	220.659	0.00027724	0.00052937	0.00010794	1319.4	3.1333e-06	4.1358e-06	1320.9	354.35	7.6699e-06	6.4572e-06	408.7	135.71	116.89	40.584	3.0971e-06	50.1	0.00040066	0.00040028	0.00011104	1303.9	4.3775e-06	4.3702e-06	1306.6	351.51	4.3407e-06	4.3444e-06	399.08	133.38	115.15	39.905	4.2626e-06	49.014	-86.595	-84.400	169.032	-93.332	4.222	-86.370	-93.379	-88.550	102.166	54.305	-89.482	-84.584	-84.141	-79.478	0.914	-80.442	-8191	255	
817.579	1	1	0	0	0.23851	0.11762	0.15333	0.34293	0.082003	0.11366	0.32429	0.36177	0.30114	0.14796	0.02652	0.21228	0.080585	0.068846	0.31108	0.31527	-1.6646	-2.1583	-2.5771	-2.2604	-2.3667	-2.4917	-2.2812	-2.5042	-2.2729	-1.9292	-2.5938	-2.0958	-2.5125	-2.5563	-1.8083	-2.7812	221.148	17.908	1.775	236.567	136.907	107.909	164.395	197.833	81.109	106.618	44.891	183.942	-14.281	205.508	160.269	201.794	0.00038302	0.00036932	9.7912e-05	1319	1.7884e-06	4.4564e-06	1321.4	353.66	2.2725e-06	1.1575e-06	406.88	134.7	117.55	40.409	5.4438e-06	50.239	0.00039021	0.00038506	0.00010705	1300.6	4.1908e-06	4.1848e-06	1301.6	350.32	4.1811e-06	4.1883e-06	397.37	132.63	114.76	39.792	4.1877e-06	48.995	-95.325	42.832	51.122	-93.294	67.178	-28.370	-93.120	-88.617	12.543	40.960	-88.994	-84.752	-84.047	-79.582	-75.239	-80.394	-8191	255	
817.676	1	1	0	0	0.36874	0.17421	0.086472	0.6324	0.22146	0.049992	0.27373	0.23155	0.20944	0.035658	0.049051	0.092013	0.16972	0.24714	0.20302	0.29616	-2.0438	-1.9604	-2.5771	-2.3729	-2.3354	-2.5958	-2.3354	-2.4958	-2.2708	-2.1729	-2.6792	-2.0896	-2.4813	-2.6625	-2.0854	-2.5062	112.896	44.070	149.213	226.440	158.335	211.386	169.680	179.398	162.453	168.282	184.321	230.790	-80.908	216.438	96.451	-101.576	0.00020799	0.00041225	6.648e-05	1314.9	3.1187e-06	1.0091e-06	1315.8	354.3	9.481e-07	1.2176e-06	406.63	134.55	116.77	40.473	5.0317e-06	49.971	0.0003828	0.00038189	0.00010628	1296.8	4.2091e-06	4.1718e-06	1299.7	350.25	4.2145e-06	4.2138e-06	398.14	132.72	114.48	39.803	4.2388e-06	48.957	-87.556	-78.912	-87.618	-93.224	100.437	18.703	-93.161	-88.564	246.998	-99.989	-89.071	-84.674	-84.152	-79.757	-14.117	-80.043	-8191	255	
817.772	1	1	0	0	0.12837	0.29738	0.29734	0.16279	0.14078	0.20157	0.22227	0.34557	0.18007	0.40514	0.47409	0.34971	0.27038	0.11932	0.23316	0.19126	-2.1312	-2.1042	-2.5062	-2.3729	-2.2958	-2.5062	-2.1042	-2.4688	-2.2521	-1.8062	-2.8438	-2.3521	-2.3104	-2.6	-2.0312	-2.6708	250.964	97.186	142.551	222.025	177.639	27.752	177.040	198.240	224.023	7.705	208.374	223.469	91.952	195.327	243.118	-8.253	0.00025761	0.00041037	2.6913e-05	1311.8	1.4828e-06	6.954e-06	1308.6	354.22	2.4035e-06	5.1332e-06	404.46	134.97	117.18	40.434	2.1908e-06	50.068	0.0003873	0.00038688	0.00010775	1297.5	4.2583e-06	4.2694e-06	1299.2	350.3	4.2841e-06	4.2701e-06	398.3	133.08	114.91	39.798	4.2544e-06	48.969	-91.735	0.564	-32.872	-93.397	202.380	-79.586	-93.383	-88.331	12.849	-26.027	-89.102	-84.438	-83.836	-79.692	104.405	-80.301	-8191	255	
817.891	1	1	0	0	0.31287	0.046904	0.17029	0.19538	0.13112	0.07397	0.40299	0.24412	0.14388	0.14664	0.16542	0.21127	0.17677	0.26536	0.093232	0.096308	-2.1146	-2	-2.5938	-2.475	-2.2313	-2.7167	-2.3625	-2.5292	-2.5708	-1.9292	-2.9271	-2.4604	-2.2812	-2.7167	-2.1875	-2.3083	-103.363	-67.278	101.841	194.850	214.417	65.751	249.970	-75.110	26.099	215.407	-1.474	178.624	-95.635	-89.309	111.775	107.183	0.00023923	0.00068964	3.2052e-05	1315.3	2.4517e-06	1.5044e-06	1313.5	354.05	7.4362e-06	4.2524e-06	405.96	134.82	117.55	40.414	1.8529e-06	50.198	0.0003888	0.00038644	0.00010796	1297.1	4.2043e-06	4.2144e-06	1298.5	350.37	4.2323e-06	4.2231e-06	397.21	132.79	114.87	39.837	4.2347e-06	48.932	-69.095	-81.144	114.610	-93.535	-76.137	104.404	-93.338	-88.450	10.922	70.873	-89.179	-84.759	-83.932	-79.639	-67.943	-80.370	-8191	255	
817.987	1	1	0	0	0.083931	0.095748	0.24003	0.20979	0.18672	0.27637	0.054424	0.18547	0.068687	0.33839	0.21167	0.13548	0.18157	0.152	0.17226	0.092315	-2.2292	-2.0938	-2.4771	-2.4354	-1.9521	-2.5396	-2.2687	-2.3708	-2.3833	-2.1042	-2.5479	-2.5417	-2.3021	-2.775	-2.0729	-2.2375	172.790	94.481	190.715	188.795	-61.719	232.663	-78.332	239.243	-57.235	179.403	-62.714	236.565	-81.059	198.295	72.692	-36.771	0.00016121	0.00062166	6.8893e-05	1316.8	6.2313e-06	3.6202e-06	1318.2	352.53	3.5667e-06	3.5674e-07	407.77	135.81	117.63	40.398	4.5328e-06	50.176	0.00038398	0.00038031	0.00010632	1297.4	4.1617e-06	4.1241e-06	1298.6	348.74	4.1273e-06	4.131e-06	396.92	132.77	114.55	39.791	4.214e-06	49.023	-56.343	-103.046	-9.103	-93.231	129.179	156.967	-93.248	-88.357	16.742	249.135	-88.997	-84.280	-84.016	-79.680	26.978	-80.393	-8191	255	
818.083	1	1	0	0	0.11646	0.17389	0.29722	0.18999	0.28681	0.16955	0.065484	0.062568	0.13991	0.056389	0.13009	0.23213	0.25441	0.088979	0.21083	0.31064	-2.1146	-2.0167	-2.4146	-2.4292	-1.8479	-2.5208	-2.3875	-2.2208	-2.7188	-2.2354	-2.5083	-2.3896	-2.0083	-2.7896	-2.3333	-2.4146	92.508	116.774	-97.033	227.580	236.515	-105.300	-81.657	54.247	202.625	105.553	-99.199	142.031	-43.372	-60.526	-73.757	230.194	0.00032627	0.00052966	0.00012044	1312.8	3.3909e-06	3.8942e-07	1313.3	353.07	2.5079e-06	2.1986e-06	405.68	134.72	117.62	40.411	2.4114e-06	49.992	0.00038922	0.00038936	0.00010827	1297.7	4.2599e-06	4.2737e-06	1298.4	349.81	4.2254e-06	4.2088e-06	396.89	132.69	114.51	39.732	4.1543e-06	48.828	-55.344	237.877	25.528	-93.355	226.453	204.777	-93.272	-88.596	-60.845	203.455	-89.296	-84.544	-84.057	-79.560	31.654	-80.498	-8191	255	
818.204	1	1	0	0	0.24069	0.17626	0.15141	0.16995	0.42957	0.12053	0.23452	0.19009	0.1077	0.17497	0.21361	0.23794	0.37991	0.16073	0.41487	0.094078	-1.9771	-2.1188	-2.5854	-2.75	-1.9271	-2.2604	-2.3583	-2.4708	-2.6479	-2.1771	-2.6354	-2.6208	-2.0896	-2.6125	-2.3021	-2.2208	93.121	153.052	-73.209	131.964	44.116	120.933	168.846	228.317	150.963	-21.230	-67.331	-64.228	-90.327	191.953	85.490	146.425	0.00017347	0.00047574	8.2927e-05	1316.9	2.5587e-06	2.3146e-06	1310.9	353.34	9.6775e-07	3.2082e-06	406.44	134.4	116.74	40.592	2.603e-06	50.148	0.00037558	0.00037585	0.00010408	1294.9	4.0824e-06	4.0695e-06	1295.1	348.55	4.0431e-06	4.0416e-06	395.58	131.85	113.86	39.596	4.01e-06	48.64	-104.891	189.267	28.617	-93.540	21.695	234.579	-93.161	-88.385	251.313	-23.039	-89.084	-84.502	-84.262	-79.800	117.873	-80.213	-8191	255	
818.275	1	1	0	0	0.16126	0.18924	0.17886	0.27604	0.1132	0.28347	0.23996	0.18559	0.10405	0.18992	0.25794	0.19038	0.11358	0.17973	0.13116	0.1917	-2.1063	-2.1292	-2.2625	-2.7458	-2.0854	-2.5396	-2.6021	-2.2958	-2.4813	-2.125	-2.475	-2.7042	-2.3063	-2.4375	-2.3625	-2.0729	-30.891	147.357	-7.602	240.883	-57.597	212.858	111.251	176.135	165.592	122.312	226.312	-40.567	-83.763	212.371	-104.510	156.278	0.00031545	0.00048662	0.00010248	1315.3	2.0925e-06	1.6421e-06	1312.5	352.38	4.7231e-06	4.1242e-06	403.82	134.89	117.07	40.263	2.1226e-06	50.053	0.00036811	0.00036807	0.00010248	1293.3	4.0078e-06	4.0017e-06	1294.7	347.66	3.9748e-06	3.9776e-06	393.99	131.57	113.56	39.41	3.9438e-06	48.424	-97.152	-75.523	-87.176	-93.451	178.633	201.235	-93.164	-88.349	236.114	69.591	-89.137	-84.594	-84.156	-79.691	22.063	-80.329	-8191	255	
818.371	1	1	0	0	0.082686	0.23978	0.06841	0.27772	0.14034	0.12832	0.31561	0.2189	0.079778	0.075566	0.18549	0.11775	0.22436	0.23718	0.065169	0.095772	-2.3271	-2.4104	-2.1562	-2.6521	-2.1833	-2.3	-2.6229	-2.4167	-2.575	-2.2417	-2.1458	-2.5708	-2.1688	-2.2854	-2.5563	-1.9542	242.398	-13.064	-54.749	236.146	145.699	-58.149	211.087	172.861	152.330	-19.997	-30.250	-92.260	-102.750	167.487	249.841	-95.547	0.00044359	0.00023243	0.00015461	1314.2	8.0196e-06	3.1613e-06	1309.3	351.28	4.1214e-06	7.9162e-07	403.59	134.87	116.77	40.296	3.2745e-06	50.005	0.00035777	0.00035672	9.946e-05	1287.5	3.8818e-06	3.882e-06	1288.8	346.06	3.876e-06	3.8355e-06	392.59	131.28	113.02	39.265	3.8378e-06	48.328	-64.513	209.873	-13.478	-93.223	159.851	-92.564	-93.211	-88.564	-28.665	252.555	-89.227	-84.438	-84.156	-79.696	108.501	-80.325	-8191	255	
818.468	1	1	0	0	0.23742	0.20297	0.078693	0.26482	0.042227	0.14117	0.09261	0.11143	0.12928	0.34333	0.32786	0.36385	0.15907	0.31765	0.19764	0.26635	-2.1312	-2.4208	-2.2812	-2.9333	-2.1437	-2.2687	-2.7875	-2.2042	-2.3458	-2.4896	-2.3042	-2.6771	-2.2292	-2.6063	-2.4979	-2.2021	-82.545	71.962	-89.211	233.055	39.126	-25.432	123.691	191.852	246.024	115.851	110.801	194.407	212.987	209.701	132.204	227.305	0.00021779	0.00092555	3.1117e-05	1308.3	2.0581e-06	1.9672e-06	1305.2	350.42	3.0319e-06	6.2972e-06	403.69	134.24	116.19	40.053	3.9946e-06	49.591	0.00034989	0.00034845	9.7025e-05	1283	3.802e-06	3.7879e-06	1284.5	345.26	3.7886e-06	3.783e-06	391.65	130.64	112.46	39.111	3.7717e-06	48.05	-102.172	-65.296	130.888	-93.224	191.674	-29.586	-93.274	-88.216	83.171	49.549	-89.279	-84.482	-84.021	-79.742	-5.813	-80.110	-8191	255	
818.588	1	1	0	0	0.1517	0.30275	0.063045	0.22853	0.1226	0.22997	0.051044	0.17884	0.14719	0.18965	0.088914	0.3534	0.12858	0.21689	0.21571	0.12388	-1.9625	-2.3708	-2.1479	-2.8479	-2.1375	-2.1708	-2.6688	-2.4042	-2.2438	-2.4604	-2.1312	-2.5896	-2.2625	-2.2333	-2.6229	-2.2521	135.245	70.088	148.616	189.268	-31.502	141.512	-20.636	201.689	221.944	29.391	-16.430	-48.417	12.807	146.500	-85.748	-22.569	0.00021363	0.00054637	7.3598e-05	1307.8	3.2807e-06	1.9958e-06	1307.6	352.09	1.01e-06	2.5718e-06	404.29	134.45	116.4	40.339	2.7909e-06	50.071	0.00034683	0.00034586	9.6996e-05	1284.1	3.8203e-06	3.8211e-06	1286.3	345.89	3.8524e-06	3.8418e-06	392.37	130.77	112.89	39.268	3.8806e-06	48.315	249.200	-42.156	52.264	-93.307	-51.844	37.902	-93.386	-88.462	100.218	151.958	-89.213	-84.740	-83.763	-79.713	76.723	-80.012	-8191	255	
818.683	1	1	0	0	0.085229	0.3418	0.27097	0.18114	0.071764	0.032071	0.37416	0.14584	0.24131	0.092931	0.21818	0.21652	0.28819	0.27798	0.022405	0.19243	-2.0083	-2.5875	-2.1583	-2.9458	-2.5687	-2.2687	-2.8875	-2.3208	-2.5438	-2.4896	-2.3771	-2.625	-2.4437	-2.3187	-2.5667	-2.2271	-49.986	58.228	-66.585	216.389	53.679	44.311	200.120	179.685	80.896	-103.713	178.021	239.222	-12.419	-95.249	183.025	-32.787	0.00035744	0.00026563	0.00016721	1308.9	2.9527e-06	2.344e-06	1308.9	350.74	1.7635e-06	6.1176e-07	404.43	133.99	116.87	40.257	2.5251e-06	49.617	0.00035531	0.00035177	9.8102e-05	1284.5	3.8686e-06	3.8416e-06	1286	345.11	3.8214e-06	3.7871e-06	391.72	130.77	112.84	39.186	3.8076e-06	48.147	-94.722	-87.037	-23.641	-93.382	-84.752	27.477	-93.193	-88.374	172.282	100.438	-89.437	-84.590	-83.944	-79.573	-87.789	-80.602	-8191	255	
818.779	1	1	0	0	0.074807	0.19129	0.1554	0.32586	0.23642	0.097676	0.18143	0.071539	0.16301	0.079889	0.16966	0.19094	0.045904	0.13923	0.22311	0.14001	-1.8125	-2.4458	-1.9375	-2.6708	-2.4188	-2.0604	-2.7667	-2.3583	-2.2562	-2.5271	-2.2146	-2.55	-2.4313	-2.2792	-2.4354	-2.35	184.134	250.547	45.363	199.889	2.781	-90.587	167.069	160.017	5.749	-14.032	208.024	85.004	-73.834	217.146	244.720	186.936	0.00019338	0.00075522	0.00020332	1311	5.5939e-06	3.4404e-06	1310.5	351.18	4.6316e-06	3.2328e-06	403.86	134.31	116.47	40.26	4.4147e-06	50.156	0.00034691	0.00035029	9.6594e-05	1284.4	3.8261e-06	3.8176e-06	1286.3	345.48	3.8623e-06	3.8614e-06	392.3	131.22	112.94	39.279	3.8402e-06	48.237	-73.123	-73.460	8.246	-93.279	163.097	11.410	-93.237	-88.242	45.487	85.078	-89.322	-84.371	-83.777	-79.755	42.539	-80.450	-8191	255	
818.852	1	1	0	0	0.096948	0.34274	0.14409	0.28252	0.10916	0.14332	0.19101	0.088817	0.085809	0.10098	0.1472	0.11031	0.049888	0.09092	0.070604	0.021703	-1.7104	-2.4979	-2.0271	-2.3792	-2.5917	-2.2604	-2.8	-2.4333	-2.0979	-2.5771	-2.2625	-2.3979	-2.5375	-2.2729	-2.7396	-2.2354	-22.303	59.668	-65.898	213.340	-88.066	156.732	223.319	-48.610	195.523	153.163	246.440	-73.783	-19.106	-34.038	123.324	-53.127	0.00024995	0.00059715	0.00013045	1308.4	1.1237e-06	3.1998e-06	1308.9	351.52	2.4347e-06	2.1102e-06	403.74	134.51	116.29	40.385	2.3789e-06	49.814	0.00035109	0.00035149	9.7384e-05	1282.9	3.8288e-06	3.8112e-06	1285.5	345.32	3.8366e-06	3.829e-06	391.64	130.87	112.59	39.223	3.8234e-06	48.17	-76.519	-68.605	-31.287	-93.291	-26.196	15.191	-93.311	-88.539	93.658	172.920	-89.157	-84.383	-84.051	-79.690	197.790	-80.509	-8191	255	
818.971	1	1	0	0	0.39186	0.11436	0.21918	0.23055	0.15733	0.31173	0.038958	0.25639	0.11665	0.093024	0.21778	0.24765	0.068847	0.24078	0.16755	0.20891	-1.825	-2.6125	-2.2354	-2.4333	-2.4062	-2.1354	-2.6396	-2.4625	-2.3417	-2.7292	-2.2875	-2.6188	-2.5812	-2.075	-2.5271	-2.3458	20.457	72.953	145.187	228.580	159.444	92.879	208.203	172.508	-41.490	-20.966	-95.209	212.224	231.904	-104.361	150.377	202.415	0.00024411	0.00034988	0.00012254	1304.1	4.5962e-06	1.425e-06	1307.5	351.77	9.7343e-07	2.9453e-06	404.06	133.91	116.34	40.341	2.608e-06	49.924	0.00035107	0.00034924	9.6478e-05	1280.8	3.8092e-06	3.7609e-06	1284.6	345.6	3.7804e-06	3.7702e-06	391.37	130.51	112.45	39.149	3.7172e-06	48.076	-69.726	235.091	23.753	-93.366	-19.241	150.765	-93.137	-88.419	199.589	96.307	-89.195	-84.260	-84.328	-79.558	43.515	-80.414	-8191	255	
819.067	1	1	0	0	0.12978	0.24227	0.21148	0.11932	0.18356	0.25667	0.40385	0.20942	0.26435	0.1373	0.18396	0.24411	0.10547	0.032878	0.22798	0.3871	-1.8604	-2.6542	-2.4417	-2.4708	-2.5354	-2.1937	-2.5792	-2.4938	-2.1854	-2.6063	-2.5104	-2.3396	-2.4646	-1.9917	-2.3375	-2.3479	10.532	124.590	92.997	-0.848	220.152	-56.074	202.525	205.321	192.683	129.439	190.231	-69.623	30.722	145.147	81.858	186.620	0.00017925	0.00052459	0.00010547	1305.5	3.3764e-06	3.9729e-06	1309.4	351.24	3.5072e-06	8.3077e-06	404.68	133.64	116.35	40.153	4.4125e-06	50.167	0.0003422	0.00033956	9.4642e-05	1279.6	3.706e-06	3.6978e-06	1283.5	344.75	3.7194e-06	3.7234e-06	391.05	130.49	112.47	39.2	3.7799e-06	48.21	-57.270	-23.096	-32.159	-93.215	234.669	40.586	-93.133	-88.562	-8.734	57.272	-89.227	-84.193	-84.056	-79.470	-77.403	-80.252	-8191	255	
819.163	1	1	0	0	0.12815	0.084091	0.14309	0.23732	0.21103	0.19884	0.18641	0.26711	0.33326	0.069574	0.28466	0.27366	0.31307	0.11064	0.070782	0.098741	-1.6771	-2.55	-2.2	-2.25	-2.7458	-2.2604	-2.7479	-2.5396	-2.0521	-2.475	-2.4354	-2.3438	-2.7083	-2.1667	-2.4646	-2.4792	-35.863	243.093	96.989	176.392	90.721	186.907	159.431	170.379	192.054	-17.632	210.094	137.444	226.150	227.220	185.718	210.760	0.00022609	0.00035916	3.9292e-05	1305.8	3.6302e-06	4.9244e-06	1305.8	351.25	2.2074e-06	4.5893e-06	406.27	135.05	116.61	40.36	5.4094e-06	50.239	0.00034382	0.00034462	9.584e-05	1280.8	3.7757e-06	3.7316e-06	1283.7	345.17	3.7027e-06	3.6852e-06	391.33	130.51	112.23	39.139	3.7028e-06	48.147	-95.174	-106.466	136.713	-93.366	-41.153	-6.748	-93.259	-88.527	132.904	1.266	-89.152	-84.385	-84.286	-79.526	94.770	-80.424	-8191	255	
819.284	1	1	0	0	0.20783	0.13435	0.11873	0.10828	0.39639	0.1198	0.11953	0.12657	0.13184	0.29509	0.25623	0.35502	0.44366	0.41287	0.1649	0.11391	-1.8167	-2.5312	-2.3937	-2.1125	-2.4542	-2.2229	-2.5396	-2.6312	-1.9958	-2.575	-2.4938	-2.45	-2.6437	-2.2604	-2.1396	-2.7542	222.637	44.577	142.972	250.632	-43.007	31.827	224.118	224.748	146.152	-104.620	175.269	191.370	-71.171	232.466	187.240	-3.454	0.00031758	0.00069142	0.00015549	1305.5	7.3782e-06	2.6616e-06	1309.6	351.99	3.2975e-06	4.4117e-06	404.14	134.61	116.34	40.387	8.2396e-06	50.093	0.0003401	0.00034022	9.4422e-05	1279.9	3.7078e-06	3.6967e-06	1282.7	345.21	3.7524e-06	3.7124e-06	390.87	130.65	112.27	39.087	3.701e-06	48.098	-75.625	-31.462	-19.924	-93.371	45.866	111.168	-93.253	-88.460	56.607	16.768	-89.259	-84.332	-84.193	-79.521	53.532	-80.639	-8191	255	
819.380	1	1	0	0	0.24268	0.10728	0.2011	0.3556	0.096156	0.093398	0.22095	0.024718	0.090703	0.082317	0.19165	0.12661	0.097528	0.15732	0.13292	0.037096	-1.6021	-2.5125	-2.2271	-2.4729	-2.5354	-2.3438	-2.4854	-2.6375	-2.0521	-2.2625	-2.5125	-2.2562	-2.9104	-2.4375	-2.1854	-2.7917	29.466	136.042	-46.490	-73.217	-52.478	-7.003	209.640	-34.814	97.934	68.913	218.703	176.827	41.466	227.673	46.564	73.107	0.00018958	0.00091896	4.0833e-05	1306	3.8893e-06	2.7277e-06	1308.9	352.14	5.674e-06	6.2502e-06	404.21	135.06	116.19	40.371	1.666e-06	49.831	0.00033748	0.00033597	9.4297e-05	1280.6	3.7293e-06	3.7279e-06	1283.3	345.61	3.7372e-06	3.7544e-06	391.75	130.98	112.58	39.163	3.7208e-06	48.034	-62.843	-40.490	0.638	-93.339	81.820	-0.655	-93.301	-88.519	-1.077	105.186	-89.151	-84.323	-84.156	-79.518	-57.180	-80.151	-8191	255	
819.476	1	1	0	0	0.28148	0.067633	0.33123	0.28109	0.12458	0.061966	0.11552	0.20773	0.25523	0.015374	0.16023	0.29342	0.20972	0.15036	0.082812	0.02561	-1.7333	-2.4458	-2.3833	-2.2208	-2.6208	-2.4792	-2.4396	-2.6958	-2.0542	-2.4667	-2.45	-2.2771	-2.575	-2.3688	-2.2917	-2.7812	46.142	10.453	153.487	182.340	-102.526	203.689	127.210	216.778	118.140	-94.614	-89.580	137.128	176.650	2.414	144.498	138.250	0.00024194	0.00040966	0.00010206	1309.8	4.1315e-06	2.8462e-06	1301.6	351.67	6.4725e-07	6.0575e-06	403.69	133.64	116.82	40.37	4.1527e-06	49.895	0.00033772	0.00033824	9.3352e-05	1280.5	3.6516e-06	3.6165e-06	1281.6	344.09	3.5983e-06	3.6123e-06	389.8	130.14	112.29	39.099	3.6468e-06	48.007	244.500	-56.999	140.173	-93.527	-57.409	25.043	-93.423	-88.408	162.160	25.043	-89.235	-84.561	-84.011	-79.719	20.900	-80.114	-8191	255	
819.572	1	1	0	0	0.13998	0.15765	0.09561	0.051581	0.32205	0.10939	0.16327	0.2455	0.30078	0.098547	0.29949	0.28062	0.24867	0.11025	0.13876	0.08836	-1.7271	-2.375	-2.2896	-2.3042	-2.4583	-2.3167	-2.3917	-2.6396	-2.0438	-2.1667	-2.7479	-2.1688	-2.5187	-2.5083	-1.9208	-2.7625	232.353	105.981	-53.738	180.633	113.567	-63.134	166.954	221.844	210.801	-80.235	236.197	-103.794	190.438	-80.847	148.051	-30.957	0.00022006	0.00065804	0.00011403	1307.7	4.0217e-06	2.6155e-06	1304.7	351.75	3.1148e-06	3.8432e-06	401.9	134.18	116.66	40.221	2.4988e-06	49.807	0.00033557	0.00033689	9.4108e-05	1279	3.7231e-06	3.7128e-06	1281.1	344.82	3.7171e-06	3.7269e-06	390.55	130.33	112.47	39.043	3.6797e-06	47.968	-64.710	-24.325	-57.589	-93.290	22.354	5.093	-93.371	-88.299	76.536	-16.773	-89.404	-84.695	-84.045	-79.487	77.820	-80.243	-8191	255	
819.669	1	1	0	0	0.30562	0.26926	0.2038	0.058117	0.013641	0.041492	0.38071	0.1551	0.037017	0.25455	0.25707	0.15679	0.11743	0.067061	0.18876	0.18371	-1.7396	-2.3583	-2.5104	-2.3354	-2.4354	-2.5542	-2.0458	-2.7604	-2.4375	-2.2938	-2.6625	-2.2667	-2.4104	-2.7	-2.1458	-2.6813	186.591	16.428	-66.165	131.198	123.704	126.654	201.226	185.901	138.287	-17.467	180.395	192.632	148.169	-52.715	-60.901	204.823	0.00023287	0.00055048	6.9696e-05	1304.5	5.2803e-06	3.6899e-07	1306.7	351.81	2.7121e-06	5.9671e-06	403.49	133.85	116.46	40.058	2.2195e-06	49.924	0.00033426	0.00033337	9.2101e-05	1277.1	3.6251e-06	3.6007e-06	1280.2	344.33	3.57e-06	3.565e-06	389.14	129.89	111.81	38.853	3.5668e-06	47.77	-89.642	26.463	-80.097	-93.193	123.568	23.668	-93.129	-88.519	-20.607	80.446	-89.202	-84.697	-84.115	-79.486	91.316	-80.336	-8191	255	
819.763	1	1	0	0	0.25853	0.061759	0.11557	0.28654	0.28132	0.2308	0.25382	0.10858	0.091043	0.23111	0.038834	0.077681	0.19232	0.22411	0.29332	0.19545	-1.8146	-2.1104	-2.5271	-2.3312	-2.425	-2.5208	-2.4271	-2.5625	-2.1604	-2.1042	-2.75	-2.1042	-2.5021	-2.5438	-2.0375	-2.5708	-44.511	191.000	124.078	193.699	-51.927	3.768	190.512	175.784	125.605	185.972	100.035	249.718	-32.920	-36.091	-53.379	-29.512	0.00031804	0.00075726	6.8968e-05	1305.5	4.4495e-06	5.0912e-06	1302.2	351.8	2.4676e-06	4.4189e-06	402.32	133.97	116.2	40.318	2.7145e-06	49.82	0.00032749	0.00032631	9.1014e-05	1275.1	3.6157e-06	3.6004e-06	1279.3	344.68	3.633e-06	3.6119e-06	389.57	130.19	112.12	39.062	3.6635e-06	47.961	-94.181	-75.738	28.499	-93.334	252.566	-7.451	-93.118	-88.429	70.642	98.293	-89.142	-84.639	-83.978	-79.640	144.031	-80.411	-8191	255	
819.884	1	1	0	0	0.14501	0.087887	0.11625	0.45079	0.23283	0.19817	0.11773	0.13418	0.17335	0.12276	0.29905	0.30428	0.37924	0.34233	0.18029	0.30858	-2.0687	-2.0438	-2.6292	-2.325	-2.3438	-2.5438	-2.3979	-2.5104	-2.4104	-2.0375	-2.4708	-2.2708	-2.4042	-2.5646	-2.0667	-2.7438	202.572	57.648	18.970	160.683	93.126	171.442	-74.601	156.919	202.615	148.821	152.057	-102.528	202.012	-21.614	89.744	222.092	0.00031821	0.0011939	0.00011988	1302.6	5.1444e-06	3.0552e-06	1301.8	351.26	4.7652e-06	5.9307e-06	405.02	134.83	116.69	40.248	5.4551e-07	49.969	0.00033734	0.00033918	9.4197e-05	1277.6	3.7248e-06	3.7318e-06	1280.8	344.77	3.7616e-06	3.778e-06	390.85	130.81	112.58	39.183	3.8326e-06	48.25	-93.153	-105.646	-27.285	-93.292	-5.360	-91.931	-93.187	-88.244	-81.818	67.126	-89.034	-84.634	-83.966	-79.643	36.524	-80.150	-8191	255	
819.980	1	1	0	0	0.12526	0.18979	0.091065	0.15482	0.1911	0.058689	0.086073	0.18213	0.34	0.086752	0.10436	0.22382	0.28821	0.098437	0.038162	0.17294	-2.0042	-2.0646	-2.6146	-2.2812	-2.1854	-2.5229	-2.1937	-2.4688	-2.3604	-1.9542	-2.6042	-2.25	-2.2625	-2.5292	-1.9708	-2.4708	137.761	124.385	137.262	197.895	18.182	177.048	66.256	-24.745	-43.954	215.819	145.489	248.162	213.356	86.593	188.147	27.792	0.00023799	0.00022092	6.5294e-05	1303	4.0195e-06	1.589e-06	1302.5	350.87	5.3247e-06	4.6618e-06	403.1	134.15	116.53	40.296	3.636e-06	50.059	0.00035237	0.00035422	9.8369e-05	1280.6	3.9203e-06	3.9191e-06	1282.9	345.86	3.9282e-06	3.944e-06	392.89	131.07	113.16	39.34	3.9541e-06	48.456	-74.092	248.914	165.579	-93.347	138.558	-92.439	-93.398	-88.549	-14.655	77.414	-89.285	-84.277	-84.000	-79.543	84.116	-80.266	-8191	255	
820.076	1	1	0	0	0.19228	0.15663	0.15991	0.2424	0.29222	0.046933	0.33778	0.30471	0.029236	0.21562	0.13065	0.11865	0.40216	0.23285	0.10459	0.03487	-1.9417	-2.1188	-2.6437	-2.375	-1.9979	-2.5583	-2.3125	-2.3542	-2.4771	-2.2271	-2.6271	-2.3812	-2.2354	-2.6229	-2.275	-2.275	203.842	66.881	80.365	243.508	213.974	227.224	181.189	208.883	50.428	227.858	198.576	-90.024	225.244	167.330	30.027	-101.219	0.00025138	0.00043318	7.5603e-05	1302.1	5.9201e-06	5.8225e-06	1300	351.41	4.8092e-06	5.1202e-06	404.69	133.87	116.52	40.265	9.2929e-07	50.104	0.00036283	0.00036297	0.00010124	1281.9	3.961e-06	3.9766e-06	1282.7	346.38	3.9664e-06	3.9452e-06	393.15	131.06	113.15	39.396	3.9716e-06	48.425	-70.806	118.366	75.650	-93.353	84.538	13.221	-93.349	-88.564	-35.115	62.157	-89.400	-84.464	-84.038	-79.699	3.480	-80.400	-8191	255	
820.148	1	1	0	0	0.39201	0.2543	0.2251	0.1643	0.36962	0.13034	0.31099	0.45149	0.095073	0.22257	0.17561	0.26499	0.086878	0.28989	0.022333	0.18474	-2.0354	-2.0667	-2.6021	-2.475	-2.0729	-2.725	-2.4292	-2.275	-2.5917	-1.9354	-2.5687	-2.3563	-2.1396	-2.6708	-2.3521	-2.3792	29.261	48.772	239.051	235.031	-74.888	-23.894	164.175	-67.589	33.544	77.444	-39.080	153.818	127.386	222.452	129.414	-76.414	0.00023319	0.0010789	0.00018314	1304.2	9.5687e-06	1.9351e-06	1302.9	351.27	1.3767e-06	6.1771e-06	404.7	134.51	116.5	40.224	2.1871e-06	49.967	0.00036535	0.00036536	0.00010189	1284.2	4.0089e-06	4.0411e-06	1286.3	346.95	4.0505e-06	4.0473e-06	394.4	131.78	113.71	39.415	4.0541e-06	48.553	243.478	-101.877	-5.788	-93.295	39.529	-8.969	-93.250	-88.538	-87.943	81.810	-89.490	-84.205	-84.318	-79.826	115.489	-80.245	-8191	255	
820.268	1	1	0	0	0.087357	0.034524	0.15783	0.18767	0.097579	0.12272	0.076474	0.23327	0.029197	0.17769	0.37536	0.40467	0.028297	0.21535	0.32825	0.19326	-2.1271	-2.0521	-2.2792	-2.65	-2.0875	-2.7333	-2.3417	-2.2521	-2.6229	-2.1854	-2.6021	-2.5667	-2.1146	-2.5375	-2.4062	-2.0187	117.342	113.611	-64.190	-88.853	15.477	217.362	108.379	190.016	-34.669	-72.310	226.811	209.274	-52.651	-82.493	166.557	214.729	0.00037309	0.0014569	7.6309e-05	1307.5	9.9464e-06	7.0002e-06	1301.6	351.61	1.5141e-06	2.3937e-06	403.97	134.55	116.21	40.439	4.2287e-06	49.82	0.0003694	0.00036967	0.00010322	1285.3	4.045e-06	4.0566e-06	1286.9	347.48	4.0781e-06	4.0922e-06	394.9	132.09	113.92	39.606	4.1868e-06	48.776	-82.641	-57.267	-59.047	-93.429	-12.011	-30.904	-93.322	-88.347	-61.982	-44.508	-89.307	-84.595	-83.842	-79.577	109.779	-80.117	-8191	255	
820.364	1	1	0	0	0.1079	0.3647	0.11188	0.17356	0.38628	0.3252	0.29852	0.12943	0.21029	0.29656	0.10618	0.21239	0.39974	0.18381	0.22795	0.20379	-2.3146	-1.875	-2.1875	-2.6354	-1.8396	-2.6542	-2.6125	-2.4396	-2.7562	-1.9875	-2.4417	-2.4958	-2.2833	-2.6583	-2.0042	-2.0271	194.969	101.112	-42.260	170.732	-91.051	85.000	165.957	249.539	-91.700	71.826	194.115	231.465	16.836	152.601	-59.294	14.384	0.00016746	0.00064914	0.000123	1308.7	2.6463e-06	3.0635e-06	1307	351.63	6.324e-06	4.6854e-06	405.63	135.23	117.28	40.395	3.7914e-06	49.801	0.00038466	0.00038268	0.00010745	1291.5	4.2262e-06	4.2212e-06	1292.6	348.59	4.2644e-06	4.2719e-06	397.03	132.88	114.66	39.88	4.2973e-06	48.982	-79.803	8.489	-54.433	-93.370	65.733	-7.984	-93.217	-88.584	-4.756	37.815	-89.178	-84.450	-83.978	-79.878	76.138	-80.270	-8191	255	
820.460	1	1	0	0	0.1967	0.38988	0.25082	0.21337	0.10831	0.076097	0.37449	0.33281	0.043408	0.13051	0.070761	0.24836	0.087671	0.25896	0.076456	0.14469	-2.325	-2.0896	-2.2208	-2.7771	-2.1437	-2.3646	-2.6104	-2.1792	-2.6479	-2.2438	-2.4729	-2.6375	-2.1708	-2.575	-2.4229	-2.3063	-44.363	-51.313	8.715	220.256	100.696	180.128	171.130	181.695	-66.113	241.696	223.519	-93.275	196.393	163.122	-5.274	-93.587	0.00026433	0.00085579	0.00011933	1309.5	2.3053e-06	1.8504e-06	1304.4	351.71	5.9779e-06	1.6347e-06	404.9	135.39	117.27	40.294	3.992e-06	50.024	0.00038926	0.00039019	0.00010781	1291.8	4.2211e-06	4.1911e-06	1291.5	348.3	4.1864e-06	4.1851e-06	396.42	132.41	114.35	39.726	4.2004e-06	48.889	-67.085	-14.929	45.138	-93.328	74.346	83.949	-93.296	-88.382	-64.317	96.522	-89.254	-84.561	-84.153	-79.909	-32.598	-80.067	-8191	255	
820.557	1	1	0	0	0.18684	0.080146	0.12153	0.13217	0.21977	0.12365	0.14076	0.052249	0.27298	0.14355	0.11124	0.11319	0.35844	0.12612	0.031284	0.31717	-2.3104	-2.0396	-1.9688	-2.7375	-1.925	-2.3063	-2.5542	-2.2729	-2.5396	-2.4104	-2.3583	-2.7687	-2.1875	-2.5604	-2.5812	-2.3208	-2.894	103.619	242.257	-80.523	-48.529	-12.293	184.877	-44.078	-64.822	1.812	-8.580	-44.304	-90.274	173.562	205.376	178.695	0.00036034	0.00049262	6.011e-05	1310	2.9167e-06	4.4678e-06	1309.6	352.02	5.3915e-07	4.8277e-06	403.95	134.35	116.51	40.408	3.2099e-06	50.071	0.00038287	0.00038343	0.00010677	1291.7	4.1973e-06	4.1929e-06	1293	348.32	4.1814e-06	4.1486e-06	395.63	132.21	113.92	39.641	4.1397e-06	48.768	-74.040	163.292	-25.546	-93.305	63.730	-23.673	-93.246	-88.303	-48.504	62.042	-89.349	-84.681	-83.830	-79.916	99.451	-80.413	-8191	255	
820.653	1	1	0	0	0.29066	0.40585	0.071705	0.27404	0.35906	0.37477	0.39869	0.16301	0.10815	0.15034	0.14883	0.24846	0.275	0.10379	0.13527	0.27733	-2.1042	-2.5208	-2.0563	-2.7667	-2.2833	-2.4458	-2.8229	-2.225	-2.6458	-2.4708	-2.0917	-2.7167	-2.2375	-2.3187	-2.3729	-2.2958	-64.075	91.732	-92.963	223.446	15.477	64.279	183.159	-68.173	12.565	-72.637	197.255	-72.487	193.676	133.795	-2.587	172.723	0.00018834	0.00021229	8.8874e-05	1304.6	4.9326e-06	5.8475e-06	1309.9	352.31	5.8687e-06	9.0701e-06	403.01	134.7	116.66	40.386	7.0074e-06	50.107	0.00037894	0.00037882	0.00010512	1288.1	4.135e-06	4.173e-06	1292.7	348.02	4.1903e-06	4.1995e-06	395.78	132.23	114.23	39.698	4.2424e-06	48.896	-102.538	143.697	54.488	-93.297	-61.500	-6.267	-93.398	-88.720	11.508	35.241	-89.192	-84.417	-84.242	-79.561	-88.952	-80.123	-8191	255	
820.749	1	1	0	0	0.42747	0.16825	0.14934	0.19571	0.12529	0.11819	0.15173	0.18697	0.33006	0.15067	0.27643	0.017314	0.15647	0.25598	0.189	0.15979	-1.8646	-2.45	-2.1271	-2.8458	-2.4833	-2.2167	-2.8958	-2.4208	-2.3292	-2.5042	-2.2687	-2.625	-2.5771	-2.2333	-2.5396	-2.3521	-1.475	226.932	6.270	214.936	-57.078	173.051	166.810	178.828	7.915	72.618	207.443	145.472	243.738	246.870	245.418	-93.158	0.00031528	0.00024743	0.00011068	1307	3.2512e-06	3.5391e-06	1307.4	353.11	3.2092e-06	5.9278e-06	404.65	134.88	116.66	40.403	2.5072e-06	50.068	0.00038503	0.00038589	0.00010788	1290.5	4.2006e-06	4.1914e-06	1292.3	348.31	4.2304e-06	4.2263e-06	395.32	132.32	114.17	39.718	4.2398e-06	48.895	-89.060	217.035	205.054	-93.237	-27.403	-99.757	-93.365	-88.418	25.396	8.772	-88.926	-84.587	-83.812	-79.719	-59.775	-80.524	-8191	255	
820.845	1	1	0	0	0.04885	0.11144	0.1146	0.23593	0.096484	0.032087	0.30549	0.12365	0.21613	0.1699	0.16125	0.17384	0.3033	0.26454	0.0051783	0.17431	-1.9479	-2.4771	-2.0417	-2.675	-2.2938	-2.1625	-2.7146	-1.9937	-2.3229	-2.5187	-2.1688	-2.5458	-2.2771	-2.2542	-2.6958	-2.1542	-97.637	-6.043	143.175	-96.353	-104.388	-76.096	164.184	225.824	73.279	162.273	190.234	209.816	240.534	-89.364	-68.993	-91.552	0.00033246	0.00079824	6.6575e-05	1311.6	1.7455e-06	3.4972e-06	1305.2	352.78	2.187e-06	2.6365e-06	404.46	134.26	116.9	40.35	3.2148e-06	49.888	0.00038569	0.00038476	0.0001071	1290.2	4.2105e-06	4.1883e-06	1291.2	347.81	4.1686e-06	4.1561e-06	395.09	132.16	114	39.541	4.1304e-06	48.678	-73.073	-90.312	-50.538	-93.209	-94.076	86.476	-93.333	-88.466	144.745	43.813	-89.082	-84.650	-83.939	-79.306	41.643	-80.315	-8191	255	
820.964	1	1	0	0	0.042848	0.059849	0.15291	0.16551	0.056009	0.041415	0.1716	0.14563	0.064774	0.17764	0.19466	0.033643	0.30444	0.16156	0.32253	0.12465	-1.9167	-2.4229	-1.9396	-2.6333	-2.3625	-2.2438	-2.8917	-2.3583	-2.3396	-2.7083	-2.2042	-2.5417	-2.5146	-2.1354	-2.4646	-2.4042	19.067	39.386	77.072	-20.646	47.378	80.992	4.701	126.413	-65.351	-87.051	207.533	50.071	-106.173	194.260	29.792	-49.050	0.00027978	0.0001671	9.8856e-05	1307.3	5.3767e-06	4.9596e-06	1312.7	351.42	3.2957e-06	4.0243e-06	404.5	133.83	116.28	40.267	4.6439e-07	50.14	0.00037797	0.00037477	0.00010424	1287.8	4.0945e-06	4.0862e-06	1292.5	347.1	4.0884e-06	4.0698e-06	394.35	131.76	113.45	39.447	4.0892e-06	48.72	-74.936	101.662	-41.121	-93.334	-56.016	-4.201	-93.164	-88.469	41.512	113.547	-89.344	-84.702	-84.053	-79.326	135.973	-80.382	-8191	255	
821.060	1	1	0	0	0.092058	0.089722	0.096371	0.19948	0.17519	0.042849	0.22374	0.29723	0.21649	0.28798	0.17345	0.21939	0.087388	0.11745	0.11826	0.2284	-1.9521	-2.5771	-2.1562	-2.5062	-2.3333	-2.1417	-2.7812	-2.5729	-2.3292	-2.8125	-2.3104	-2.3833	-2.5208	-2.0375	-2.4479	-2.2917	-5.499	63.489	147.833	216.430	183.851	198.046	218.644	207.015	104.506	90.417	163.577	247.174	184.119	-84.012	-50.053	-103.183	0.00033281	0.00042367	6.7464e-05	1310.3	1.606e-06	3.646e-06	1307.2	352.2	3.7401e-06	6.4589e-06	404.84	134.6	116.53	40.334	6.0818e-06	49.979	0.00037148	0.00037163	0.00010354	1288.3	4.1011e-06	4.0866e-06	1288.6	347.42	4.133e-06	4.1132e-06	394.78	132.18	113.95	39.616	4.156e-06	48.796	-87.291	-90.912	-7.244	-93.230	223.536	-85.328	-93.345	-88.411	109.746	26.705	-89.136	-84.527	-83.901	-79.614	64.187	-80.355	-8191	255	
821.156	1	1	0	0	0.1556	0.14346	0.24087	0.21639	0.057331	0.1775	0.09179	0.17851	0.079219	0.26852	0.18655	0.25485	0.14665	0.0065833	0.15148	0.018817	-1.7854	-2.5125	-1.925	-2.4542	-2.6229	-1.9625	-2.7313	-2.5146	-2.2104	-2.6646	-2.3271	-2.3917	-2.6021	-2.1	-2.4833	-2.5146	141.611	-73.840	87.763	103.748	-21.892	-67.839	212.453	214.570	90.318	106.865	236.790	-76.537	-47.842	129.968	53.975	-86.958	0.00025111	0.00041498	2.7484e-05	1303.9	4.5688e-06	4.1082e-06	1302.8	352.29	5.793e-06	1.6749e-06	405.15	134.64	116.22	40.218	1.5028e-06	49.701	0.00037885	0.00037698	0.00010554	1286.2	4.1802e-06	4.1133e-06	1289	347.35	4.0946e-06	4.0682e-06	393.64	131.67	113.2	39.398	4.0283e-06	48.432	-85.164	175.107	42.845	-93.132	52.141	199.897	-93.320	-88.371	218.986	-71.486	-89.259	-84.612	-84.233	-79.654	82.258	-80.356	-8191	255	
821.252	1	1	0	0	0.34589	0.25077	0.11759	0.43466	0.16946	0.14871	0.074414	0.16187	0.063914	0.16564	0.32983	0.21701	0.06805	0.07175	0.39399	0.33441	-1.7104	-2.4521	-2.1667	-2.2583	-2.8812	-2.0563	-2.5771	-2.5208	-2.1271	-2.6083	-2.2729	-2.2458	-2.5042	-2.2146	-2.425	-2.6813	33.667	122.087	-71.805	229.761	51.481	125.664	122.755	152.924	-84.422	-12.632	214.581	-57.961	44.672	84.647	-1.035	156.353	0.0002737	0.00018763	0.00013454	1302.9	2.5256e-06	2.674e-06	1300.7	351.73	2.8758e-06	1.285e-06	403.9	133.7	116.48	40.204	5.0726e-06	49.91	0.00036615	0.00036539	0.00010113	1282.5	4.0001e-06	3.978e-06	1283.1	346.03	3.9526e-06	3.9517e-06	393.06	131.21	113.21	39.341	3.9846e-06	48.407	-85.763	47.175	9.654	-93.112	-102.070	-90.165	-93.298	-88.583	23.720	-79.988	-89.219	-84.516	-84.055	-79.770	47.353	-80.364	-8191	255	
821.373	1	1	0	0	0.15867	0.12785	0.054894	0.2222	0.11299	0.14668	0.3705	0.27717	0.11231	0.23394	0.26365	0.13431	0.097046	0.091514	0.09052	0.19645	-1.6063	-2.5708	-2.2313	-2.4875	-2.5208	-2.0708	-2.3063	-2.6625	-1.9271	-2.5208	-2.4083	-2.425	-2.6792	-2.3667	-2.3708	-2.7188	88.257	225.390	-58.621	173.361	247.230	8.213	215.949	199.141	-102.561	-99.257	238.878	216.888	-80.988	-88.230	-28.130	234.646	0.00022906	0.00024548	0.00017586	1301.3	3.7441e-06	3.2311e-06	1305.6	352.09	2.1296e-06	2.7019e-06	403.08	133.89	116.69	40.167	3.7678e-06	49.754	0.00036345	0.00036487	0.00010143	1283.6	4.0358e-06	4.0303e-06	1287.5	347.24	4.0551e-06	4.0896e-06	393.86	131.62	113.75	39.502	4.1337e-06	48.605	-80.841	246.703	-58.710	-93.196	114.255	-67.680	-93.124	-88.439	-8.280	-78.615	-89.355	-84.414	-83.997	-79.826	179.806	-80.240	-8191	255	
821.445	1	1	0	0	0.16406	0.27039	0.38936	0.46474	0.04044	0.23328	0.090795	0.22141	0.30988	0.27693	0.091638	0.13845	0.41202	0.30517	0.17906	0.082485	-1.4958	-2.5375	-2.3167	-2.4771	-2.6771	-2.2729	-2.3979	-2.6	-1.9917	-2.3688	-2.4958	-2.0917	-2.7333	-2.275	-2.2188	-2.6479	7.366	206.111	86.152	249.992	122.411	225.520	141.081	233.273	-61.080	-88.994	183.710	167.499	202.465	245.141	176.709	-82.280	0.00023312	0.00015768	0.00014707	1303.7	5.6919e-06	6.4534e-06	1302.6	351.32	4.9492e-06	1.7561e-06	403.14	134.56	116.49	40.202	2.0351e-06	49.893	0.0003768	0.00037704	0.00010514	1285.6	4.1114e-06	4.0989e-06	1286.9	347.07	4.0786e-06	4.0905e-06	394.02	131.97	113.7	39.538	4.1162e-06	48.599	-81.860	-69.115	64.185	-93.238	37.836	-28.768	-93.230	-88.533	30.871	186.138	-89.080	-84.495	-84.085	-79.655	64.081	-80.325	-8191	255	
821.565	1	1	0	0	0.13982	0.11396	0.18805	0.15465	0.18385	0.1441	0.17331	0.13813	0.09129	0.11481	0.16397	0.13397	0.35486	0.12173	0.18667	0.10985	-1.6833	-2.4313	-2.4333	-2.2896	-2.7521	-2.1521	-2.3458	-2.6437	-2.2333	-2.3042	-2.5896	-2.2313	-2.6396	-2.5229	-2.3396	-2.6896	208.243	-96.034	-55.040	251.977	109.239	72.616	197.114	157.024	99.578	-32.346	14.903	157.036	188.613	184.417	209.258	-17.749	0.00028844	0.00064231	7.7291e-05	1305.7	5.1625e-06	6.4197e-07	1305.3	352.73	1.8566e-06	2.3655e-06	404.26	134.02	116.67	40.255	2.863e-06	50.021	0.0003724	0.00037615	0.00010464	1285.8	4.1025e-06	4.1138e-06	1288.5	347.79	4.1145e-06	4.1201e-06	394.49	131.72	113.83	39.546	4.1087e-06	48.691	-84.394	-12.805	-79.102	-93.217	111.850	135.721	-93.336	-88.476	136.189	1.068	-89.151	-84.584	-84.006	-79.707	219.976	-80.273	-8191	255	
821.660	1	1	0	0	0.12704	0.019109	0.1726	0.056389	0.15764	0.025587	0.29052	0.13556	0.11582	0.25142	0.15965	0.13285	0.26533	0.25506	0.30089	0.27394	-1.8312	-2.4208	-2.475	-2.1958	-2.5521	-2.4125	-2.3833	-2.6583	-2.1396	-2.2583	-2.6292	-2.0917	-2.7021	-2.5125	-2.2646	-2.7687	77.517	51.330	-4.367	-102.516	-63.505	-95.166	252.675	195.102	122.467	139.767	129.380	215.826	183.719	-79.786	144.055	222.611	0.00026787	0.00071173	0.00013945	1309.9	3.9935e-06	2.4133e-06	1300.2	351.43	2.6526e-06	1.0889e-06	403.07	134.84	116.31	40.176	5.6526e-06	49.944	0.00037718	0.00037427	0.00010462	1288.6	4.0793e-06	4.0623e-06	1286.8	347.19	4.0575e-06	4.0214e-06	393.61	131.58	113.34	39.386	3.9731e-06	48.408	-74.881	-88.004	-44.247	-93.115	104.899	-46.906	-93.143	-88.478	80.902	-91.031	-89.022	-84.479	-84.128	-79.401	97.541	-80.304	-8191	255	
821.756	1	1	0	0	0.21314	0.18859	0.14802	0.13706	0.09855	0.12525	0.43256	0.15319	0.092182	0.1688	0.25691	0.1841	0.26359	0.21137	0.17159	0.18031	-1.6604	-2.3312	-2.6083	-2.2458	-2.4646	-2.2792	-2.3063	-2.6458	-2.2917	-2.3917	-2.6667	-2.1188	-2.4792	-2.6063	-2.2042	-2.6083	-50.838	-38.178	44.774	217.150	-28.603	-20.411	157.284	-41.414	96.285	-77.071	184.502	235.691	151.961	186.357	37.860	135.931	0.00025503	0.00035861	0.00022751	1306.1	9.8156e-07	7.1851e-06	1304.8	350.3	1.3909e-06	7.3716e-06	405.03	134.69	117.31	40.035	1.5186e-06	49.835	0.00036325	0.00036365	0.00010113	1283.2	3.9963e-06	4.008e-06	1286.5	346.48	4.0328e-06	4.0154e-06	393.62	131.87	113.49	39.384	3.9784e-06	48.421	-71.264	165.468	-74.972	-93.286	-45.092	22.582	-93.460	-88.354	-18.325	14.667	-89.011	-84.577	-83.872	-79.697	157.891	-80.226	-8191	255	
821.852	1	1	0	0	0.10858	0.32427	0.22675	0.14476	0.08391	0.22741	0.096992	0.41919	0.018323	0.1964	0.090435	0.26313	0.23471	0.31651	0.15095	0.2542	-1.9646	-2.1271	-2.5208	-2.2979	-2.4979	-2.525	-2.2146	-2.6521	-2.3958	-2.2375	-2.6333	-2.3792	-2.575	-2.5521	-2.2313	-2.7	134.012	-61.259	117.766	181.583	41.950	73.186	198.384	246.209	182.511	-84.484	97.025	189.868	-52.803	245.382	87.437	233.278	0.00029579	0.00044531	0.00017447	1304.5	2.0441e-06	2.2302e-06	1304.9	350.34	1.4611e-06	3.8764e-06	402.5	134.34	116.59	39.966	2.3452e-06	49.834	0.00036283	0.00035945	0.00010003	1282.1	3.8982e-06	3.9284e-06	1283.9	345.21	3.9136e-06	3.9327e-06	391.55	131.03	112.93	39.231	3.927e-06	48.33	-77.750	-102.556	12.782	-93.331	77.841	238.801	-93.311	-88.583	250.892	-13.693	-89.230	-84.539	-83.966	-79.506	-21.251	-80.277	-8191	255	
821.948	1	1	0	0	0.18336	0.17598	0.18042	0.28165	0.12592	0.11696	0.35437	0.14162	0.14025	0.18141	0.22825	0.082507	0.35663	0.036595	0.13768	0.2576	-1.9604	-2.1167	-2.5333	-2.2458	-2.1458	-2.3979	-2.0958	-2.55	-2.2833	-2.2313	-2.9125	-2.4292	-2.3646	-2.5458	-2.1833	-2.4417	134.952	-27.893	203.017	233.940	99.511	-96.618	229.589	171.460	117.757	230.086	202.739	57.806	-69.753	121.878	63.307	211.193	0.00039568	0.00043201	8.3304e-05	1303.9	2.1477e-06	3.4272e-06	1304.9	350.37	7.5292e-06	3.5885e-06	403.15	134.83	116.2	40.053	3.6707e-06	49.691	0.00036156	0.00036053	9.9949e-05	1280	3.9694e-06	3.9416e-06	1283.1	345.92	3.9648e-06	3.9651e-06	392.54	131.41	113.14	39.247	3.9744e-06	48.358	-71.039	-61.570	200.065	-93.430	-62.900	-24.610	-93.305	-88.408	-58.130	57.222	-89.288	-84.417	-84.072	-79.583	-36.449	-80.150	-8191	255	
822.044	1	1	0	0	0.16404	0.15705	0.019874	0.12575	0.092859	0.16752	0.30283	0.2916	0.086211	0.22379	0.50983	0.19533	0.14042	0.26183	0.029244	0.13701	-1.9729	-2.2104	-2.5417	-2.3187	-2.275	-2.5917	-2.3625	-2.6146	-2.5771	-2.2042	-2.7188	-2.5021	-2.4021	-2.6917	-2.0667	-2.5917	246.790	-56.199	16.431	-75.317	49.194	-14.399	143.236	220.236	-31.435	241.425	205.089	245.202	188.192	-77.819	-0.061	175.760	0.0001714	0.00056927	1.2986e-05	1303.5	4.3441e-06	2.7401e-06	1305.8	351.35	2.5846e-06	3.8204e-06	401.45	133.92	116.6	40.227	5.4837e-06	49.965	0.00036146	0.00036148	0.00010033	1279.8	3.9527e-06	3.927e-06	1282.9	345.83	3.9371e-06	3.9311e-06	391.87	130.91	113.16	39.318	3.951e-06	48.359	-86.873	248.157	17.013	-93.407	246.626	53.931	-93.278	-88.255	163.408	68.447	-89.056	-84.619	-83.815	-79.609	75.505	-80.549	-8191	255	
822.140	1	1	0	0	0.14432	0.14565	0.080958	0.23665	0.12535	0.078036	0.3573	0.27112	0.22197	0.16423	0.23065	0.2134	0.19664	0.10351	0.092343	0.12331	-2.1542	-2.2375	-2.7188	-2.5042	-2.2458	-2.6167	-2.2687	-2.5271	-2.5396	-2.1083	-2.4542	-2.4542	-2.3021	-2.7375	-2.2292	-2.4313	242.954	211.665	-97.931	227.241	-40.001	24.127	223.892	199.799	111.044	103.453	253.076	14.953	122.484	-39.953	113.111	142.700	0.00030839	9.0051e-05	0.00021047	1297.4	2.7401e-06	2.6984e-06	1300.3	350.43	4.5966e-06	3.6552e-06	403.79	133.58	116.26	40.186	3.7164e-06	49.899	0.00036101	0.00035912	0.00010125	1279	3.9712e-06	3.9475e-06	1281.7	345.06	3.9445e-06	3.9106e-06	391.87	130.9	112.74	39.248	3.9346e-06	48.386	-84.120	121.633	-29.854	-93.191	61.307	-29.656	-93.181	-88.404	250.856	18.642	-89.191	-84.394	-84.060	-79.545	-3.186	-80.295	-8191	255	
822.237	1	1	0	0	0.26816	0.21716	0.22291	0.20237	0.12377	0.21778	0.11712	0.15855	0.23516	0.15726	0.18544	0.23078	0.12006	0.062235	0.19379	0.086406	-2.1792	-2.05	-2.4437	-2.5667	-1.9521	-2.7104	-2.3833	-2.5417	-2.6937	-2.0583	-2.475	-2.4938	-2.2687	-2.6854	-2.1729	-2.275	89.131	20.163	-54.928	142.018	-34.377	93.257	164.577	236.280	143.930	174.000	221.915	147.534	137.208	102.448	162.723	119.974	0.00028426	0.00054169	4.0799e-05	1299.9	1.0019e-05	3.6906e-06	1302.1	351.06	9.6312e-07	3.4593e-06	403.57	133.56	116.24	40.226	4.4579e-06	49.914	0.00036041	0.00035949	0.00010019	1281	3.9263e-06	3.9182e-06	1281.8	345.54	3.9492e-06	3.9517e-06	392.5	131.11	112.95	39.33	3.9747e-06	48.389	-73.688	-104.831	204.515	-93.157	-73.045	50.603	-93.212	-88.256	62.921	9.733	-89.187	-84.639	-84.072	-79.769	48.278	-80.371	-8191	255	
822.333	1	1	0	0	0.1914	0.11421	0.12499	0.26105	0.11615	0.025177	0.10263	0.05066	0.096727	0.10931	0.2492	0.15855	0.13128	0.13991	0.33113	0.18903	-2.1104	-2.0187	-2.4146	-2.5292	-2.0042	-2.8063	-2.3937	-2.45	-2.525	-2.1083	-2.5833	-2.6479	-2.1417	-2.5958	-2.3354	-2.3438	251.042	97.438	103.337	193.379	193.813	-95.394	106.219	91.036	162.249	89.967	130.149	198.259	127.062	181.003	253.550	229.071	0.00030664	0.00057167	7.3989e-05	1303	5.0391e-06	1.7687e-06	1301.1	349.98	5.02e-06	2.6075e-06	403.81	133.72	116.56	40.246	2.7694e-06	49.777	0.00036479	0.00036434	0.00010154	1281.1	4.0013e-06	3.9885e-06	1283.6	346.03	4.0015e-06	4.0254e-06	393.54	131.15	113.21	39.443	4.0253e-06	48.4	-78.731	-90.127	9.182	-93.462	9.270	5.387	-93.497	-88.448	11.674	-59.048	-89.276	-84.671	-83.847	-79.517	81.577	-80.316	-8191	255	
822.453	1	1	0	0	0.40001	0.17128	0.17166	0.13647	0.18229	0.16428	0.16655	0.17799	0.039093	0.090906	0.14342	0.19469	0.2391	0.10193	0.32145	0.092169	-2.0563	-2.0729	-2.2812	-2.6958	-2.0271	-2.4146	-2.5229	-2.2687	-2.7	-2.2792	-2.4542	-2.5583	-2.2333	-2.5208	-2.3771	-2.0812	191.000	119.751	-74.423	-94.848	102.749	136.104	206.279	108.578	126.211	95.678	27.321	199.507	194.946	-6.465	-8.216	-33.771	0.00024518	0.0010253	2.9257e-05	1303.9	2.6283e-06	2.7763e-06	1304	350.42	3.6218e-06	3.8302e-06	405.23	134.47	116.2	40.098	6.7093e-06	50.178	0.00036701	0.00036483	0.00010194	1282.3	3.9789e-06	3.9763e-06	1284.3	346.23	3.9709e-06	3.9959e-06	393.45	131.47	113.35	39.348	4.0409e-06	48.544	-62.236	224.223	-45.580	-93.183	24.643	-56.689	-93.368	-88.387	-18.787	-47.412	-89.114	-84.578	-83.922	-79.502	64.191	-80.306	-8191	255	
822.550	1	1	0	0	0.078513	0.24666	0.013293	0.42461	0.26266	0.24625	0.36418	0.047855	0.26184	0.14616	0.37287	0.17378	0.030864	0.19998	0.10795	0.27831	-2.1083	-2.1875	-2.2833	-2.8688	-2.0146	-2.6292	-2.3708	-2.2292	-2.5104	-2.1979	-2.4292	-2.7021	-2.1937	-2.5083	-2.4833	-2.2667	205.172	-7.937	178.175	233.656	63.185	-40.871	198.445	80.132	81.094	-48.678	191.774	123.143	20.174	-93.989	102.631	-101.725	0.00026217	0.00054741	7.2484e-05	1303.5	4.9064e-06	5.5705e-06	1301.7	351.24	6.1573e-06	3.6319e-06	404.12	134.19	116.42	40.139	3.0464e-06	49.691	0.00037053	0.00037107	0.00010335	1283.5	4.0638e-06	4.0651e-06	1285.1	346.29	4.0764e-06	4.0411e-06	393.3	131.32	113.19	39.34	3.9803e-06	48.337	-77.919	-17.864	150.459	-93.339	-43.738	12.746	-93.211	-88.561	-58.530	46.795	-89.157	-84.530	-84.056	-79.531	-77.767	-80.044	-8191	255	
822.646	1	1	0	0	0.13061	0.20356	0.094424	0.29071	0.13612	0.21285	0.074306	0.16867	0.14152	0.29295	0.21484	0.2143	0.043296	0.11216	0.33916	0.03086	-2.4125	-2.3646	-2.1417	-2.7521	-2.1417	-2.4229	-2.7229	-2.3146	-2.4542	-2.2625	-2.3354	-2.6146	-2.2396	-2.4062	-2.5458	-2.1583	208.206	-96.763	4.648	210.277	78.942	98.207	-46.045	-59.448	233.946	232.642	-36.918	250.259	5.209	246.130	249.244	23.288	0.00026821	0.00041601	0.0001231	1300.2	2.8881e-06	6.5504e-06	1302.6	349.64	1.6663e-06	3.5237e-06	403.55	133.95	116.73	40.217	3.244e-06	49.786	0.0003648	0.00036512	0.000102	1280.1	4.006e-06	4.0339e-06	1284.2	346.21	4.0739e-06	4.0518e-06	393.75	131.35	113.47	39.498	4.0666e-06	48.495	236.864	-95.388	9.647	-93.246	-37.766	2.408	-93.359	-88.490	-99.282	6.913	-89.228	-84.575	-84.140	-79.588	31.008	-80.478	-8191	255	
822.740	1	1	0	0	0.02213	0.22447	0.24955	0.14112	0.23969	0.18072	0.31515	0.37049	0.15723	0.10205	0.35416	0.1912	0.20332	0.18207	0.1897	0.25291	-2.0938	-2.2354	-2.1521	-2.6437	-2.1771	-2.1521	-2.8208	-2.1604	-2.4792	-2.3438	-2.4271	-2.8479	-2.3667	-2.525	-2.5896	-2.1312	203.290	-38.711	-59.190	157.237	17.314	-57.958	173.765	206.665	-87.397	136.547	242.912	175.519	110.835	250.206	-64.147	228.319	0.00025991	0.00010343	2.045e-05	1298.5	5.4765e-06	7.8984e-07	1300.8	351.07	4.4305e-06	1.7524e-06	402.53	134.26	116.24	40.195	2.7018e-06	49.825	0.00037223	0.0003735	0.00010405	1282.4	4.0789e-06	4.0881e-06	1284.1	346.62	4.0999e-06	4.0595e-06	393.38	131.53	113.31	39.461	4.0515e-06	48.472	-76.113	-90.489	148.359	-93.312	51.781	85.474	-93.298	-88.289	228.322	-3.476	-89.037	-84.222	-83.940	-79.474	106.572	-80.536	-8191	255	
822.836	1	1	0	0	0.30834	0.11516	0.21891	0.24655	0.34016	0.11095	0.25528	0.24387	0.16459	0.19168	0.21091	0.24334	0.2193	0.21033	0.074472	0.27457	-2.0208	-2.5687	-2.1312	-2.7687	-2.1521	-2.1813	-2.6417	-2.3417	-2.4146	-2.5187	-2.2333	-2.7771	-2.3646	-2.3187	-2.4583	-2.3042	70.478	58.442	-23.444	237.947	1.897	19.058	192.245	148.091	110.466	59.521	204.432	-102.785	-95.153	-44.252	39.348	220.109	0.00023281	0.00057148	4.7148e-05	1306.1	7.4307e-06	2.8807e-06	1299.9	350.85	2.887e-06	4.2266e-06	402.25	134.19	116.67	40.333	8.6312e-06	49.831	0.00037246	0.000373	0.00010301	1281.8	4.0776e-06	4.0839e-06	1284.8	346.81	4.1066e-06	4.118e-06	393.69	131.68	113.6	39.541	4.126e-06	48.665	-89.030	-12.633	25.388	-93.431	-21.702	72.376	-93.231	-88.549	31.324	-58.648	-89.202	-84.162	-84.158	-79.631	-44.560	-80.154	-8191	255	
822.934	1	1	0	0	0.20796	0.23219	0.22939	0.12071	0.14565	0.091781	0.074814	0.26328	0.20169	0.39108	0.41289	0.14185	0.19789	0.22583	0.1847	0.31883	-2.0833	-2.3667	-2.0979	-2.7542	-2.4042	-2.1354	-2.7687	-2.2104	-2.3	-2.5021	-2.1417	-2.7667	-2.2708	-2.375	-2.7333	-2.3063	34.815	-19.400	-36.826	135.550	79.555	214.154	106.971	-95.478	94.759	158.226	173.433	-105.665	134.231	235.567	48.957	183.031	0.0001456	0.0003771	5.5239e-05	1304.1	3.5595e-06	2.3898e-06	1307.8	351.7	1.3389e-06	1.6339e-06	403.67	134.25	116.84	40.045	1.6143e-06	49.863	0.0003756	0.00037497	0.00010455	1284.4	4.091e-06	4.0981e-06	1287.2	346.76	4.1039e-06	4.0455e-06	393.9	131.5	113.51	39.394	4.0337e-06	48.53	-46.176	20.155	-76.090	-93.311	44.416	35.670	-93.088	-88.540	128.274	183.603	-89.264	-84.720	-84.140	-79.452	251.285	-80.258	-8191	255	
823.053	1	1	0	0	0.36617	0.19995	0.25719	0.18099	0.22144	0.16504	0.22558	0.49436	0.1709	0.25854	0.20461	0.17159	0.20189	0.13081	0.19236	0.12695	-1.8875	-2.4188	-1.9438	-2.6229	-2.4042	-2.0271	-2.7729	-2.2458	-2.4542	-2.5458	-2.1333	-2.4562	-2.4271	-2.2313	-2.7979	-2.0625	-59.134	54.419	201.914	155.722	108.400	111.795	206.021	222.904	61.954	89.508	-87.824	-36.871	230.761	252.315	247.838	117.606	0.00028814	0.00038555	8.8663e-05	1300.4	6.6465e-06	3.976e-06	1304.8	350.42	6.0836e-06	4.5026e-06	405.05	134.37	116.49	40.41	5.7848e-06	50.092	0.00036982	0.00037072	0.00010287	1283.1	4.1273e-06	4.128e-06	1288.2	347.79	4.2109e-06	4.2246e-06	395.56	132.21	114.28	39.766	4.2493e-06	48.982	-81.231	-59.609	51.992	-93.225	168.902	8.147	-93.302	-88.339	174.861	9.072	-89.332	-84.729	-84.250	-79.563	-52.515	-80.289	-8191	255	
823.149	1	1	0	0	0.26577	0.19333	0.10776	0.44705	0.24947	0.22484	0.1131	0.30295	0.088907	0.2898	0.092114	0.13155	0.12792	0.13636	0.022267	0.13836	-1.9833	-2.5042	-2.0563	-2.6458	-2.3312	-2.1542	-2.6979	-2.5125	-2.1167	-2.6271	-2.3104	-2.5479	-2.6458	-2.2021	-2.6083	-2.3958	-74.220	235.923	-49.177	-95.586	55.606	-75.556	194.415	175.514	-46.989	-9.227	-38.606	109.954	-92.220	20.236	174.099	118.444	0.0002375	0.00048592	0.00011599	1307.8	2.9386e-06	2.8762e-06	1309.1	350.52	1.3711e-06	5.3592e-06	403.92	134.92	116.61	40.273	2.1607e-06	49.89	0.00038465	0.00038491	0.00010645	1289.1	4.1698e-06	4.1343e-06	1289	347.01	4.0807e-06	4.0529e-06	393.78	131.79	113.46	39.494	4.0383e-06	48.6	-66.236	-56.663	-22.346	-93.264	4.726	30.203	-93.214	-88.410	71.951	63.193	-89.250	-84.691	-83.867	-79.726	33.972	-80.482	-8191	255	
823.245	1	1	0	0	0.32693	0.19525	0.092625	0.21794	0.18947	0.24353	0.3514	0.34497	0.15674	0.073439	0.16154	0.18538	0.2899	0.15152	0.41294	0.34241	-1.8479	-2.5563	-2.1417	-2.55	-2.3625	-1.9979	-2.7333	-2.4313	-2.125	-2.6521	-2.3271	-2.3083	-2.5646	-2.0625	-2.6667	-2.3042	245.432	253.386	234.807	205.744	51.237	8.727	212.556	185.226	9.894	221.502	239.767	156.531	241.125	-87.413	192.336	152.264	0.00024213	0.0010103	2.4066e-05	1306	1.1364e-06	1.6066e-06	1307.1	352.8	2.8478e-06	3.0811e-06	404.43	134.4	116.08	40.296	6.2872e-06	50.199	0.00037093	0.00037142	0.00010363	1286.3	4.1304e-06	4.1201e-06	1289.3	347.91	4.2261e-06	4.247e-06	395.61	132.44	114.2	39.838	4.3358e-06	49.084	-93.541	-13.699	140.456	-93.358	78.517	-96.623	-93.302	-88.500	23.929	248.609	-89.289	-84.561	-84.207	-79.583	86.206	-80.350	-8191	255	
823.341	1	1	0	0	0.32979	0.16819	0.24097	0.18239	0.085038	0.39571	0.14134	0.23847	0.080368	0.095217	0.089831	0.18648	0.29084	0.41896	0.081929	0.044477	-1.7938	-2.5229	-1.9354	-2.5896	-2.6792	-1.9083	-2.6021	-2.5667	-2.1771	-2.6625	-2.5438	-2.4583	-2.7292	-2.1542	-2.4708	-2.5812	2.330	141.407	-95.369	213.793	-83.735	-23.351	-90.043	244.100	154.878	27.431	212.081	150.132	214.939	194.698	42.820	179.507	0.00013947	0.00022262	0.00011716	1306	3.4599e-06	1.1648e-06	1307	351.28	2.6118e-06	4.8263e-06	404.85	134.85	117.02	40.238	5.3549e-06	50.03	0.00039633	0.00039853	0.0001115	1291.4	4.3965e-06	4.4105e-06	1296.1	349.72	4.4705e-06	4.4683e-06	397.94	133.39	115.3	40.014	4.5013e-06	49.269	245.500	156.396	81.860	-93.345	-83.621	67.766	-93.210	-88.448	-10.884	71.907	-89.267	-84.401	-84.098	-79.747	-18.702	-80.081	-8191	255	
#DATA ENDS
