BOXY.EXE: ISS Imagent and Oximeter Data Acquisition Program Version 0.80
Ascii Record File

#ACQ INFORMATION
2  Detector Channels 
16  External MUX Channels 
1  Auxiliary Channels 
5000  Waveform (CCF) Frequency (Hz)
1  Waveforms Skipped 
30  Waveforms Averaged 
1  Cycles Averaged 
16  Acquisitions per Waveform 
10.0806  Updata Rate (Hz) 

#FILE INFORMATION
TRUE -- External MUX Channel results are PARSED.
FALSE -- AC DC and Phase are NOT grouped.
TRUE -- Companion Program Settings File CREATED.
FALSE -- AC data not excluded
FALSE -- DC data not excluded
FALSE -- Phase data not excluded
FALSE -- Auxillary Chn. data not excluded
Tab delimiters

#CALIBRATION STATE
TRUE -- Waveform Calibration Values APPLIED.


#AUX CALIBRATION VALUES
Val Type	aux-1	

Term	1.0000e+00	
Factor	0.0000e+00	


#WF CALIBRATION VALUES
A = Detector Channel
Val Type	A-AC1	A-AC2	A-AC3	A-AC4	A-AC5	A-AC6	A-AC7	A-AC8	A-AC9	A-AC10	A-AC11	A-AC12	A-AC13	A-AC14	A-AC15	A-AC16	A-DC1	A-DC2	A-DC3	A-DC4	A-DC5	A-DC6	A-DC7	A-DC8	A-DC9	A-DC10	A-DC11	A-DC12	A-DC13	A-DC14	A-DC15	A-DC16	A-Ph1	A-Ph2	A-Ph3	A-Ph4	A-Ph5	A-Ph6	A-Ph7	A-Ph8	A-Ph9	A-Ph10	A-Ph11	A-Ph12	A-Ph13	A-Ph14	A-Ph15	A-Ph16	

Term	0.00000e+00	0.00000e+00	0.00000e+00	0.00000e+00	0.00000e+00	0.00000e+00	0.00000e+00	0.00000e+00	0.00000e+00	0.00000e+00	0.00000e+00	0.00000e+00	0.00000e+00	0.00000e+00	0.00000e+00	0.00000e+00	0.00000e+00	0.00000e+00	0.00000e+00	0.00000e+00	0.00000e+00	0.00000e+00	0.00000e+00	0.00000e+00	0.00000e+00	0.00000e+00	0.00000e+00	0.00000e+00	0.00000e+00	0.00000e+00	0.00000e+00	0.00000e+00	0.00000e+00	0.00000e+00	0.00000e+00	0.00000e+00	0.00000e+00	0.00000e+00	0.00000e+00	0.00000e+00	0.00000e+00	0.00000e+00	0.00000e+00	0.00000e+00	0.00000e+00	0.00000e+00	0.00000e+00	0.00000e+00	
Factor	1.00000e+00	1.00000e+00	1.00000e+00	1.00000e+00	1.00000e+00	1.00000e+00	1.00000e+00	1.00000e+00	1.00000e+00	1.00000e+00	1.00000e+00	1.00000e+00	1.00000e+00	1.00000e+00	1.00000e+00	1.00000e+00	1.00000e+00	1.00000e+00	1.00000e+00	1.00000e+00	1.00000e+00	1.00000e+00	1.00000e+00	1.00000e+00	1.00000e+00	1.00000e+00	1.00000e+00	1.00000e+00	1.00000e+00	1.00000e+00	1.00000e+00	1.00000e+00	X	X	X	X	X	X	X	X	X	X	X	X	X	X	X	X	

B = Detector Channel
Val Type	B-AC1	B-AC2	B-AC3	B-AC4	B-AC5	B-AC6	B-AC7	B-AC8	B-AC9	B-AC10	B-AC11	B-AC12	B-AC13	B-AC14	B-AC15	B-AC16	B-DC1	B-DC2	B-DC3	B-DC4	B-DC5	B-DC6	B-DC7	B-DC8	B-DC9	B-DC10	B-DC11	B-DC12	B-DC13	B-DC14	B-DC15	B-DC16	B-Ph1	B-Ph2	B-Ph3	B-Ph4	B-Ph5	B-Ph6	B-Ph7	B-Ph8	B-Ph9	B-Ph10	B-Ph11	B-Ph12	B-Ph13	B-Ph14	B-Ph15	B-Ph16	

Term	0.00000e+00	0.00000e+00	0.00000e+00	0.00000e+00	0.00000e+00	0.00000e+00	0.00000e+00	0.00000e+00	0.00000e+00	0.00000e+00	0.00000e+00	0.00000e+00	0.00000e+00	0.00000e+00	0.00000e+00	0.00000e+00	0.00000e+00	0.00000e+00	0.00000e+00	0.00000e+00	0.00000e+00	0.00000e+00	0.00000e+00	0.00000e+00	0.00000e+00	0.00000e+00	0.00000e+00	0.00000e+00	0.00000e+00	0.00000e+00	0.00000e+00	0.00000e+00	-4.66895e+01	-1.71885e+02	-1.35690e+02	-1.82083e+02	-8.59163e+01	-1.14521e+02	-1.56444e+02	-1.62015e+02	-7.42813e+01	-7.05972e+01	-1.70747e+02	-1.70713e+02	-1.80375e+02	-1.77189e+02	-9.09680e+01	-1.49288e+02	
Factor	2.09950e-05	1.03906e-04	2.22609e-05	1.60234e-01	1.01469e-06	8.15002e-07	1.69647e-01	5.29313e-02	7.74735e-07	8.33839e-07	8.72099e-02	3.32138e-02	3.12535e-02	9.37985e-03	8.50403e-07	1.38760e-02	3.92146e-07	3.96808e-07	1.10377e-07	7.58949e-02	4.34622e-09	4.34264e-09	7.54547e-02	2.47655e-02	4.34886e-09	4.34482e-09	3.81876e-02	1.43192e-02	1.37756e-02	4.22282e-03	4.34925e-09	5.90048e-03	X	X	X	X	X	X	X	X	X	X	X	X	X	X	X	X	



#DISTANCE SETTINGS
A = Detector Channel
A-1	A-2	A-3	A-4	A-5	A-6	A-7	A-8	A-9	A-10	A-11	A-12	A-13	A-14	A-15	A-16	

2.5000e+00	3.0000e+00	2.5000e+00	3.0000e+00	2.0000e+00	3.0000e+00	1.5000e+00	3.0000e+00	3.0000e+00	3.0000e+00	3.0000e+00	3.0000e+00	3.0000e+00	3.0000e+00	1.5000e+00	3.0000e+00	

B = Detector Channel
B-1	B-2	B-3	B-4	B-5	B-6	B-7	B-8	B-9	B-10	B-11	B-12	B-13	B-14	B-15	B-16	

1.0000e+01	1.0000e+01	1.0000e+01	1.4400e+00	1.0000e+01	1.0000e+01	1.5100e+00	1.9400e+00	1.0000e+01	1.0000e+01	1.9900e+00	2.4900e+00	2.4100e+00	2.9000e+00	1.0000e+01	2.9800e+00	




#DATA BEGINS
time	group	step	mark	flag	A-AC1	A-AC2	A-AC3	A-AC4	A-AC5	A-AC6	A-AC7	A-AC8	A-AC9	A-AC10	A-AC11	A-AC12	A-AC13	A-AC14	A-AC15	A-AC16	A-DC1	A-DC2	A-DC3	A-DC4	A-DC5	A-DC6	A-DC7	A-DC8	A-DC9	A-DC10	A-DC11	A-DC12	A-DC13	A-DC14	A-DC15	A-DC16	A-Ph1	A-Ph2	A-Ph3	A-Ph4	A-Ph5	A-Ph6	A-Ph7	A-Ph8	A-Ph9	A-Ph10	A-Ph11	A-Ph12	A-Ph13	A-Ph14	A-Ph15	A-Ph16	B-AC1	B-AC2	B-AC3	B-AC4	B-AC5	B-AC6	B-AC7	B-AC8	B-AC9	B-AC10	B-AC11	B-AC12	B-AC13	B-AC14	B-AC15	B-AC16	B-DC1	B-DC2	B-DC3	B-DC4	B-DC5	B-DC6	B-DC7	B-DC8	B-DC9	B-DC10	B-DC11	B-DC12	B-DC13	B-DC14	B-DC15	B-DC16	B-Ph1	B-Ph2	B-Ph3	B-Ph4	B-Ph5	B-Ph6	B-Ph7	B-Ph8	B-Ph9	B-Ph10	B-Ph11	B-Ph12	B-Ph13	B-Ph14	B-Ph15	B-Ph16	aux-1	digaux	

852.127	1	1	0	256	0.23497	0.21984	0.19171	0.23471	0.14201	0.029871	0.33961	0.24029	0.11654	0.26465	0.18845	0.052301	0.098296	0.30213	0.015097	0.12347	-2.4396	-2.4604	-2.55	-3.0312	-2.4458	-2.5583	-2.85	-2.3146	-2.8396	-2.6208	-2.4437	-2.9354	-2.525	-2.7167	-2.7417	-2.5354	136.884	164.950	141.433	202.022	-103.499	10.968	170.440	218.500	-94.748	-19.501	-89.791	170.468	-78.629	215.344	-13.043	196.365	0.00021901	0.00056769	8.9001e-05	1273.6	2.1758e-06	2.4077e-07	1278.5	344.52	3.8517e-06	1.5043e-06	397.8	133.39	114.86	39.171	4.806e-06	49.331	0.00016168	0.00015937	4.4392e-05	1212.2	1.7502e-06	1.7516e-06	1223.5	326.86	1.7564e-06	1.76e-06	367.85	123.01	104.69	36.278	1.7748e-06	44.739	-81.113	-28.735	63.334	-93.074	232.010	95.973	-92.977	-87.952	11.881	21.618	-88.771	-84.353	-84.055	-79.214	18.775	-80.175	-8191	255	
852.223	1	1	0	0	0.1741	0.30601	0.42328	0.317	0.12517	0.16511	0.25331	0.034629	0.11049	0.059896	0.071241	0.19118	0.1785	0.14393	0.17827	0.17107	-2.5396	-2.6354	-2.2604	-3.1854	-2.4104	-2.5521	-3.0167	-2.5312	-2.6188	-2.6667	-2.4479	-2.7667	-2.4375	-2.6104	-2.6875	-2.4646	239.435	86.016	58.787	233.370	192.365	123.765	210.178	-70.814	154.658	-87.847	60.047	136.504	150.895	161.611	160.554	-39.202	0.00023342	0.00042113	9.7946e-05	1274.8	3.13e-06	3.292e-06	1284.4	343.36	1.7636e-06	1.6556e-06	398.74	133.43	114.55	39.178	4.6286e-06	49.222	0.00016393	0.00016194	4.4958e-05	1215.4	1.7696e-06	1.7557e-06	1225.2	326.79	1.7995e-06	1.8033e-06	368.18	122.98	104.7	36.36	1.8067e-06	44.792	-92.005	18.246	64.221	-93.015	145.355	-56.207	-92.985	-88.017	24.712	-18.514	-88.985	-84.151	-83.842	-79.443	26.985	-79.812	-8191	255	
852.319	1	1	0	0	0.24613	0.14099	0.0020952	0.37868	0.36956	0.31489	0.31771	0.25331	0.051938	0.13261	0.1915	0.20431	0.10566	0.14282	0.17187	0.18862	-2.0542	-2.6292	-2.1937	-3.05	-2.3854	-2.4938	-3.0417	-2.4604	-2.8292	-2.7396	-2.5	-2.8771	-2.7333	-2.4938	-2.7979	-2.3979	-51.000	-11.547	180.000	241.277	-53.684	185.370	235.085	194.761	11.576	-72.970	142.869	187.862	-36.240	126.875	152.177	172.069	0.0001642	0.00025388	4.8456e-05	1275.7	3.0264e-06	2.4456e-06	1287.7	344.59	5.0161e-07	3.8617e-06	396.35	132.48	114.78	39.208	2.7199e-06	49.338	0.000169	0.00016511	4.6367e-05	1217.2	1.8237e-06	1.8403e-06	1226.9	327.27	1.8689e-06	1.8553e-06	368.22	123.06	105	36.384	1.8651e-06	44.893	-70.979	-64.827	-36.893	-92.824	53.417	1.185	-92.951	-87.991	174.860	59.926	-88.914	-84.463	-83.750	-79.461	-22.806	-79.845	-8191	255	
852.416	1	1	0	0	0.12069	0.18743	0.32826	0.39127	0.27344	0.14321	0.3204	0.17374	0.28418	0.049252	0.069384	0.20073	0.070369	0.23127	0.14783	0.30366	-2.2979	-2.6625	-2.3396	-2.9917	-2.5792	-2.4938	-2.9833	-2.4958	-2.5021	-2.8583	-2.2604	-3.0167	-2.6792	-2.3917	-2.725	-2.4833	-8.117	92.564	-24.094	-91.521	238.634	167.003	191.282	247.144	208.970	249.306	193.506	180.726	-30.804	40.220	252.115	-94.102	0.00026723	0.00028724	0.00022089	1276.7	2.6232e-06	1.7873e-06	1278.2	344.63	1.2554e-06	3.2394e-06	396.71	132.83	115.41	39.383	2.8827e-06	49.087	0.0001736	0.00017078	4.7474e-05	1219.4	1.8698e-06	1.8655e-06	1227.7	327.89	1.9181e-06	1.8879e-06	368.57	123.46	105.38	36.573	1.9222e-06	45.034	-78.513	127.100	-19.791	-92.939	68.050	39.801	-92.943	-88.045	-51.507	41.005	-88.953	-84.298	-83.868	-79.433	-34.699	-79.880	-8191	255	
852.512	1	1	0	0	0.15116	0.13292	0.050545	0.42143	0.2644	0.0056915	0.46813	0.25252	0.13	0.29515	0.21455	0.083575	0.18127	0.058962	0.1973	0.096053	-2.1479	-2.8583	-2.4583	-2.9396	-2.5208	-2.2896	-2.9896	-2.5729	-2.1729	-2.8729	-2.5187	-2.575	-2.6896	-2.3854	-2.8417	-2.5875	158.864	108.539	157.949	250.952	170.695	11.158	203.587	197.706	132.332	-89.856	225.421	248.280	176.169	216.548	61.275	69.609	0.00026406	0.00046574	8.1349e-05	1278.6	7.6563e-07	4.0339e-06	1285.3	346.49	3.2179e-06	3.3376e-06	399.14	132.86	115.3	39.429	3.2499e-06	49.238	0.00017871	0.00017785	4.9049e-05	1221.7	1.9524e-06	1.9422e-06	1231.8	329.1	1.9555e-06	1.9257e-06	369.66	123.62	105.6	36.632	1.9588e-06	45.083	-80.097	-90.847	17.919	-92.963	-92.632	-40.199	-93.024	-87.937	-74.115	26.458	-88.912	-84.078	-83.704	-79.382	-1.999	-80.026	-8191	255	
852.608	1	1	0	0	0.2563	0.08703	0.18022	0.36479	0.22966	0.23222	0.16687	0.15577	0.15739	0.24363	0.099916	0.17127	0.080683	0.071755	0.28998	0.25643	-2.0479	-3.0354	-2.2438	-2.775	-2.7188	-2.3271	-2.9229	-2.7521	-2.3063	-2.8729	-2.3958	-2.8917	-2.8125	-2.3187	-2.6542	-2.6958	104.221	66.383	62.401	173.949	96.185	179.001	226.614	223.379	104.114	55.463	133.596	-100.326	29.362	185.580	132.667	135.856	0.00025548	0.00020985	3.5647e-05	1283.5	1.1835e-06	1.9983e-06	1283.5	344.51	4.2305e-06	5.7475e-06	399.42	133.53	115.67	39.254	3.485e-06	49.31	0.00018185	0.00017788	4.9545e-05	1225	1.9497e-06	1.9554e-06	1233.6	328.69	1.9649e-06	1.9634e-06	370.56	123.9	105.75	36.588	1.977e-06	45.075	-60.023	-47.583	-52.904	-93.062	92.536	-1.404	-93.015	-88.027	38.349	6.307	-88.881	-84.064	-83.760	-79.114	-49.193	-79.698	-8191	255	
852.704	1	1	0	0	0.30135	0.11273	0.086246	0.47064	0.033121	0.11289	0.2086	0.17118	0.16498	0.10651	0.14764	0.13238	0.18721	0.16974	0.11119	0.019776	-2.0042	-2.9354	-2.5438	-2.7375	-2.8458	-2.2729	-2.8542	-2.7896	-2.3521	-2.8563	-2.6083	-2.5625	-2.8875	-2.4521	-2.6979	-2.8208	77.041	208.173	-25.042	220.432	-5.321	196.120	205.000	-79.912	193.641	12.993	-85.573	-43.941	170.178	209.051	26.132	75.814	0.00020241	0.00034945	4.7099e-05	1284.2	7.2404e-07	3.0236e-06	1288.1	345.19	2.0236e-06	2.8276e-06	400.14	133.51	114.86	39.567	1.4533e-06	49.213	0.00018261	0.00017946	4.992e-05	1226	1.9744e-06	1.9435e-06	1235.2	328.85	1.9643e-06	1.9516e-06	370.12	123.64	105.45	36.608	1.9368e-06	45.033	-68.385	-56.861	-53.918	-93.070	44.853	-4.394	-92.843	-88.235	18.912	-0.303	-88.890	-84.266	-84.119	-79.347	86.196	-79.901	-8191	255	
852.823	1	1	0	0	0.23289	0.1234	0.054339	0.12723	0.16593	0.0391	0.1875	0.24573	0.16635	0.20303	0.26348	0.13068	0.048522	0.13629	0.19746	0.23597	-1.9646	-2.7854	-2.6146	-2.5312	-2.7729	-2.4583	-2.6729	-2.6604	-2.3208	-2.55	-2.5563	-2.675	-2.9646	-2.6167	-2.5333	-2.925	75.554	7.641	-9.461	-75.076	-12.414	-97.078	168.962	207.482	-82.920	-51.670	208.866	201.657	-1.202	-84.883	108.168	149.634	0.00030602	0.00032896	5.5578e-05	1280.3	4.3204e-06	4.8224e-06	1289.9	346.22	2.1972e-06	3.5319e-06	399.72	133.49	114.79	39.2	2.2655e-06	49.189	0.00018079	0.00017779	4.9389e-05	1224.8	1.941e-06	1.9391e-06	1234.7	328.9	1.9443e-06	1.941e-06	369.59	123.59	105.38	36.501	1.9529e-06	44.985	-88.866	-96.927	-89.814	-92.940	-12.555	-11.609	-93.152	-88.025	7.556	24.669	-88.884	-84.374	-83.687	-79.470	-97.526	-80.046	-8191	255	
852.919	1	1	0	0	0.1081	0.096712	0.15477	0.10769	0.041757	0.21564	0.20819	0.30714	0.11955	0.037582	0.09631	0.15933	0.11064	0.212	0.15461	0.225	-1.9146	-2.7083	-2.5208	-2.7562	-2.9583	-2.4333	-2.975	-2.7417	-2.1813	-2.7625	-2.8	-2.4875	-2.8333	-2.6937	-2.6458	-2.8354	-26.725	168.640	205.851	207.502	162.614	180.327	201.574	132.777	-37.272	160.057	127.668	162.847	167.080	185.295	56.300	-75.168	0.00020952	0.0002282	8.177e-05	1280	9.9918e-07	3.5474e-06	1288.2	344.85	2.5086e-06	2.0198e-06	397.68	133.69	114.85	39.221	2.2026e-06	48.947	0.00018135	0.00017711	4.9516e-05	1223.2	1.9548e-06	1.9364e-06	1233.9	328.8	1.9437e-06	1.9362e-06	369.62	123.86	105.27	36.505	1.9516e-06	44.917	-86.045	-73.595	-53.595	-92.877	-38.627	15.607	-92.953	-88.146	62.430	13.994	-89.274	-84.315	-83.999	-79.436	76.761	-80.010	-8191	255	
853.015	1	1	0	0	0.1915	0.072601	0.17422	0.23066	0.26512	0.23098	0.19699	0.058711	0.057038	0.15226	0.13054	0.2576	0.083926	0.10336	0.089708	0.10054	-2.0417	-2.6646	-2.7042	-2.4313	-2.8396	-2.5	-2.6521	-2.9271	-2.4729	-2.8083	-2.7958	-2.3854	-3.0438	-2.4771	-2.3667	-2.8729	-90.910	118.228	159.448	213.472	-82.142	-22.908	199.378	66.704	108.236	-31.299	-93.245	192.160	141.409	178.279	-59.834	-49.260	0.00018587	0.00088265	6.6319e-05	1281.3	1.7839e-06	4.1079e-06	1283.3	343.86	9.3597e-07	2.4625e-06	397.76	133.48	115	39.279	3.5893e-06	49.255	0.00018074	0.00017899	4.9411e-05	1221.8	1.9548e-06	1.957e-06	1231.9	328.19	1.952e-06	1.9626e-06	370.02	123.67	105.29	36.459	1.9466e-06	45.021	-72.656	-103.526	3.183	-93.040	84.034	-54.702	-92.879	-88.103	-85.553	134.872	-88.865	-84.276	-83.685	-79.705	5.181	-80.090	-8191	255	
853.111	1	1	0	0	0.088317	0.22272	0.15874	0.055194	0.29062	0.0046982	0.096793	0.28236	0.13472	0.071241	0.12889	0.37358	0.04561	0.27601	0.098822	0.12801	-1.9021	-2.8333	-2.7396	-2.6521	-2.8896	-2.575	-2.6167	-2.9771	-2.4167	-2.6937	-2.7583	-2.4167	-2.7917	-2.5896	-2.2875	-2.8625	-16.807	-0.500	226.219	25.861	68.727	138.904	166.161	146.091	95.659	52.813	117.402	211.403	23.065	-81.967	197.119	237.977	0.00018302	9.4513e-05	6.9095e-05	1279.1	1.835e-06	1.629e-06	1292.2	344.75	3.4724e-06	6.761e-07	399.11	133.04	114.82	39.263	1.9463e-06	49.29	0.00018084	0.00017844	4.9496e-05	1223.7	1.9794e-06	1.9604e-06	1233.5	328.92	1.9963e-06	1.982e-06	370.23	123.73	105.41	36.591	1.9616e-06	45.015	-69.428	-52.200	-37.579	-93.071	9.340	-70.213	-92.865	-88.139	28.724	18.817	-88.998	-84.253	-83.874	-79.198	117.395	-80.008	-8191	255	
853.207	1	1	0	0	0.19739	0.23667	0.023755	0.4393	0.37518	0.075476	0.14206	0.12545	0.37207	0.059138	0.049856	0.066411	0.033233	0.19027	0.29461	0.27895	-1.9021	-2.5958	-2.7479	-2.5021	-2.6708	-2.55	-2.7021	-3.0229	-2.3563	-2.6292	-2.9333	-2.5938	-2.7854	-2.875	-2.4604	-2.8271	-10.576	129.909	249.509	214.856	70.616	197.371	180.033	171.288	54.988	-91.342	-90.894	79.944	219.710	148.596	-1.932	-70.413	0.00018039	0.00018802	9.0897e-05	1278.2	9.3498e-07	1.1347e-06	1287.8	345.06	2.6049e-07	1.5465e-06	399.98	133.9	114.92	39.181	2.0388e-06	49.203	0.00018209	0.00018076	4.971e-05	1224	1.9702e-06	1.9718e-06	1234.3	329.11	1.9975e-06	1.9767e-06	371.07	124.01	105.51	36.58	1.9963e-06	45.045	-82.976	143.964	3.473	-92.971	244.630	-53.969	-92.924	-88.147	251.250	50.959	-89.101	-84.290	-83.773	-79.155	3.560	-79.962	-8191	255	
853.304	1	1	0	0	0.27765	0.11615	0.12275	0.31205	0.27365	0.063809	0.053333	0.28703	0.19648	0.11036	0.01624	0.081788	0.13456	0.28652	0.21626	0.038488	-2.1875	-2.5417	-3.0062	-2.6375	-2.675	-2.775	-2.5146	-3.0396	-2.3896	-2.3833	-2.9375	-2.525	-2.7896	-3.0375	-2.5687	-2.9646	199.674	215.977	192.425	-60.305	-17.246	53.019	145.050	149.328	223.733	156.600	-1.582	123.217	217.006	216.391	76.746	214.236	0.00028669	0.00031566	4.8642e-05	1277.9	3.8732e-06	1.6768e-06	1287.6	345.75	2.535e-06	4.0004e-06	399.78	132.8	115.51	39.451	1.5531e-06	49.341	0.00018503	0.00018281	5.0813e-05	1224	2.0166e-06	1.9967e-06	1236	329.99	2.0326e-06	2.0305e-06	371.34	124.05	106.13	36.775	2.0485e-06	45.238	-71.641	-44.942	151.434	-92.816	30.155	156.978	-92.992	-88.058	-7.759	51.707	-88.973	-84.435	-83.718	-79.383	52.167	-80.157	-8191	255	
853.400	1	1	0	0	0.26592	0.1565	0.13095	0.08515	0.16719	0.2583	0.21202	0.26756	0.17316	0.088725	0.16045	0.02932	0.19321	0.10183	0.040627	0.16199	-2.4542	-2.5229	-2.8458	-2.5187	-2.6458	-2.7292	-2.4667	-2.875	-2.525	-2.65	-2.9875	-2.525	-2.8042	-2.8167	-2.4479	-2.8146	69.216	134.919	-46.637	146.740	168.263	180.969	225.281	253.201	-96.399	184.831	131.862	241.614	-62.611	5.799	157.459	238.868	0.00022481	0.00029979	9.074e-05	1282.3	2.3122e-06	1.7565e-06	1291	346.51	3.9842e-06	4.0347e-06	399.96	133.36	115.41	39.452	4.2257e-06	49.207	0.00018867	0.00018785	5.1769e-05	1229.1	2.0357e-06	2.0332e-06	1238.3	330.15	2.043e-06	2.0323e-06	371.79	124.4	106	36.718	2.0249e-06	45.236	-70.673	50.679	-26.174	-92.928	79.032	112.381	-92.889	-87.980	49.715	28.541	-88.992	-84.166	-83.809	-79.440	16.160	-79.809	-8191	255	
853.496	1	1	0	0	0.12661	0.28989	0.15556	0.14632	0.068863	0.083048	0.26089	0.27826	0.2473	0.12087	0.10456	0.33817	0.30826	0.31758	0.17314	0.25047	-2.1417	-2.3729	-2.8563	-2.6729	-2.4313	-2.7646	-2.6083	-2.8	-2.7313	-2.3417	-2.8729	-2.4875	-2.3958	-2.8187	-2.3479	-2.6521	103.373	210.724	-105.053	191.394	148.469	236.133	166.204	190.924	16.011	252.917	212.290	243.232	213.525	-84.577	-10.389	201.732	0.00027822	0.0004424	0.0001674	1282.5	3.8541e-06	3.9765e-06	1287.9	345.78	3.3613e-06	3.1542e-06	399.05	134.26	115.08	39.326	4.6141e-06	49.146	0.00018871	0.00018575	5.168e-05	1228.1	2.028e-06	2.0134e-06	1238.2	329.99	2.0232e-06	2.0086e-06	371	124.16	105.82	36.664	2.0168e-06	45.081	-75.078	5.714	-4.668	-92.969	65.845	32.104	-93.029	-87.916	-97.845	-33.388	-88.574	-83.983	-83.673	-79.318	-61.375	-79.989	-8191	255	
853.617	1	1	0	0	0.10908	0.33721	0.17707	0.42224	0.15507	0.09685	0.15946	0.31234	0.21835	0.078718	0.063821	0.22604	0.18857	0.23449	0.14093	0.15729	-2.3042	-2.2146	-2.8979	-2.6188	-2.4854	-2.7833	-2.3187	-2.8042	-2.6583	-2.3667	-3.1188	-2.9292	-2.5458	-2.9792	-2.1979	-2.6896	-35.569	-79.340	151.829	224.988	13.502	52.349	155.554	153.395	154.164	7.333	247.425	152.995	-100.769	197.209	-70.759	107.496	0.00020078	0.00037615	4.1844e-05	1283.2	2.2008e-06	2.6127e-06	1290.4	346.65	2.8124e-06	4.7228e-06	399.69	133.67	115.05	39.366	1.6405e-06	49.139	0.00018674	0.00018448	5.1065e-05	1226.7	2.02e-06	2.0194e-06	1238.1	329.9	2.0255e-06	2.0075e-06	371.77	124.16	105.7	36.646	2.0015e-06	45.089	-74.627	209.148	-36.700	-93.011	65.942	13.256	-93.104	-87.982	16.839	10.901	-88.797	-84.282	-83.925	-79.232	224.216	-79.962	-8191	255	
853.711	1	1	0	0	0.11223	0.062348	0.095811	0.21196	0.11729	0.18232	0.083216	0.22874	0.15206	0.24602	0.11378	0.17886	0.2687	0.10413	0.19365	0.22366	-2.6	-2.2875	-2.6917	-2.7479	-2.4375	-2.9292	-2.4875	-2.7208	-2.8417	-2.2021	-2.9062	-2.7417	-2.3771	-3.0229	-2.7396	-2.6583	253.040	5.579	-94.506	224.328	99.534	-95.011	207.036	167.411	155.369	173.592	-101.250	178.309	207.692	-88.538	-104.317	123.524	0.00021519	0.00062381	0.00013718	1280.6	2.0018e-06	2.6495e-06	1290.5	345.13	3.4062e-06	2.3136e-06	398.01	133.35	115.15	39.334	3.9761e-06	49.248	0.00018616	0.00018463	5.1376e-05	1226.7	2.0024e-06	1.985e-06	1236.5	329.51	2.0019e-06	1.9891e-06	370.45	123.91	105.75	36.632	1.991e-06	45.066	-61.686	-94.650	-48.134	-92.993	-38.352	13.732	-93.015	-88.211	-8.909	16.601	-88.713	-84.169	-84.105	-79.287	-34.600	-80.022	-8191	255	
853.809	1	1	0	0	0.27039	0.069649	0.14529	0.1294	0.097366	0.24893	0.18038	0.32255	0.1594	0.061699	0.15548	0.071193	0.076585	0.16068	0.057077	0.23749	-2.3667	-2.1813	-2.6958	-2.8083	-2.2042	-2.8875	-2.6771	-2.6979	-2.8229	-2.2562	-2.8563	-2.825	-2.4104	-2.9042	-2.3937	-2.45	27.516	-74.915	-59.130	132.727	215.428	245.959	99.527	161.423	157.130	158.880	86.455	-24.606	206.861	24.306	-19.660	154.845	0.00022263	0.00019206	1.6427e-05	1282.7	2.5606e-06	3.5114e-06	1289.9	345.75	8.1768e-07	4.9447e-06	399.27	132.98	115.17	39.308	5.4563e-07	49.082	0.00018397	0.00018145	5.0696e-05	1225.5	1.9882e-06	1.9791e-06	1235.1	329.48	1.9596e-06	1.9764e-06	370.59	123.6	105.36	36.63	1.9971e-06	45.037	-102.286	-35.411	178.838	-92.996	114.880	-49.542	-92.971	-88.013	-17.110	32.408	-89.094	-84.453	-83.438	-79.400	85.855	-79.906	-8191	255	
853.903	1	1	0	0	0.17141	0.22916	0.081836	0.20603	0.29229	0.2662	0.25476	0.16016	0.021798	0.2332	0.24913	0.19952	0.20643	0.072382	0.39532	0.15099	-2.3187	-2.4146	-2.7583	-2.9792	-2.2042	-2.8479	-2.775	-2.6542	-2.8604	-2.525	-2.6479	-2.9354	-2.35	-2.9583	-2.6896	-2.5104	80.389	233.413	65.198	179.777	179.345	52.205	180.539	196.448	52.205	-32.326	-57.655	228.399	-86.797	-96.356	122.016	-40.541	0.00037061	0.001026	5.8683e-05	1278.7	1.3626e-06	3.534e-06	1291.4	346.85	2.557e-06	1.9489e-06	398.44	133.45	115.07	39.218	1.1602e-06	49.283	0.00018352	0.00018284	5.0782e-05	1225.6	1.9993e-06	1.998e-06	1236.2	329.91	1.9887e-06	1.9976e-06	370.43	123.92	105.84	36.602	1.9878e-06	45.116	-80.925	-26.658	-54.220	-93.002	83.980	-30.817	-92.870	-88.079	2.078	29.095	-89.157	-84.160	-83.836	-79.283	137.561	-79.949	-8191	255	
853.999	1	1	0	0	0.12194	0.046941	0.22039	0.21843	0.065549	0.068054	0.18838	0.23812	0.059096	0.21354	0.277	0.24542	0.12791	0.12282	0.12388	0.085468	-2.7271	-2.2062	-2.575	-2.9625	-2.3688	-2.9188	-2.7042	-2.7021	-2.8229	-2.5687	-2.7875	-2.8375	-2.3688	-2.6896	-2.6625	-2.475	-45.264	-59.838	-67.819	215.023	-76.887	204.549	150.170	-70.821	42.958	-30.803	-92.670	252.896	158.659	240.523	132.618	161.958	0.00025988	0.00019781	0.00012641	1282	4.6238e-06	4.5325e-06	1294	345.31	3.7042e-06	2.8571e-06	398.53	133.28	115.55	39.277	1.5683e-06	49.242	0.00018309	0.00018245	5.0994e-05	1227.3	1.9966e-06	1.9929e-06	1237.6	329.83	2.0104e-06	1.9935e-06	370.74	123.93	105.57	36.655	2.0109e-06	45.072	-83.183	-73.245	-16.351	-93.039	68.740	53.344	-93.153	-88.129	-17.914	-10.941	-88.725	-84.196	-83.916	-79.271	111.771	-80.076	-8191	255	
854.096	1	1	0	0	0.12289	0.30276	0.20325	0.1958	0.070526	0.10728	0.12668	0.15514	0.14195	0.28021	0.18937	0.51637	0.14054	0.025243	0.12875	0.14284	-2.4958	-2.5917	-2.6292	-3.05	-2.2583	-2.6896	-2.9938	-2.4062	-2.7896	-2.3771	-2.5938	-2.9646	-2.5958	-2.6917	-2.8104	-2.4708	-15.857	135.628	-67.642	181.346	-79.303	-68.599	171.913	136.305	239.683	172.207	-65.717	205.912	204.331	-92.443	169.069	245.820	0.00016844	0.00055466	6.8447e-05	1280.5	1.7994e-06	2.8422e-06	1295.3	346.89	1.8181e-06	5.093e-07	398.01	133.08	115.2	39.195	2.2475e-06	49.43	0.00018431	0.00018378	5.0828e-05	1227.9	2.0126e-06	2e-06	1237	329.55	2.0012e-06	1.996e-06	371.22	123.76	105.57	36.568	2.0089e-06	45.102	-73.570	-57.444	-101.654	-93.028	-90.872	10.000	-93.121	-88.015	22.932	248.757	-88.745	-84.145	-83.748	-79.486	152.562	-80.319	-8191	255	
854.216	1	1	0	0	0.16118	0.17182	0.048077	0.17536	0.24296	0.10605	0.30602	0.052927	0.082876	0.082926	0.17423	0.1694	0.13245	0.32604	0.054209	0.23051	-2.3917	-2.5021	-2.6063	-3.1188	-2.5104	-2.6333	-2.7812	-2.3979	-2.6979	-2.6688	-2.5979	-2.8604	-2.7313	-2.675	-2.85	-2.3958	48.794	224.983	-84.632	191.481	-86.292	93.242	209.274	178.235	215.650	192.401	229.986	211.006	5.039	123.038	221.300	142.736	0.00027292	0.00035778	0.00015126	1280.5	1.4085e-06	4.0567e-06	1291.4	344.89	3.7269e-06	4.6577e-06	398.89	133.52	114.89	39.297	1.8286e-06	49.133	0.00018425	0.00018321	5.0722e-05	1225.5	2.0011e-06	2.0068e-06	1235.8	329.43	2.0113e-06	1.9943e-06	370.89	124.12	105.86	36.601	2.0123e-06	45.117	-74.475	-76.196	-32.258	-93.107	91.970	-11.740	-93.093	-88.327	-36.737	20.672	-89.015	-84.307	-83.558	-79.162	9.424	-80.081	-8191	255	
854.312	1	1	0	0	0.16873	0.092436	0.058338	0.41208	0.1162	0.031036	0.22389	0.21251	0.17187	0.21822	0.13548	0.080999	0.32703	0.20214	0.25157	0.35751	-2.4104	-2.7229	-2.325	-3.1646	-2.6021	-2.4125	-2.8479	-2.5479	-2.6646	-2.7146	-2.3563	-3.0812	-2.4208	-2.7521	-2.7979	-2.3646	-93.692	65.469	2.388	174.241	107.832	215.058	-39.732	211.969	126.073	-105.359	223.794	160.144	240.175	-103.330	10.339	-65.809	0.0002591	0.0003054	8.7411e-05	1283.1	2.404e-06	2.5008e-06	1287.2	346.26	2.446e-06	1.3085e-06	397.93	134.21	115.24	39.106	6.0865e-07	49.162	0.00018683	0.00018535	5.1029e-05	1225.5	2.0041e-06	2.0204e-06	1235.6	329.73	1.9968e-06	2.0045e-06	370.82	124.12	105.73	36.584	2.0006e-06	45.166	-91.804	-50.321	-3.875	-92.869	129.490	-26.368	-93.052	-88.107	-105.932	-104.904	-88.992	-84.062	-83.813	-79.340	-81.145	-80.163	-8191	255	
854.408	1	1	0	0	0.12445	0.26543	0.10244	0.30509	0.25789	0.065494	0.42639	0.26937	0.33485	0.11694	0.18568	0.13393	0.050262	0.17005	0.099213	0.18222	-2.2521	-2.7375	-2.3063	-3.0646	-2.6104	-2.4458	-3.0271	-2.7938	-2.6437	-2.8146	-2.5083	-2.9938	-2.6813	-2.55	-2.7188	-2.4396	120.595	188.475	-69.030	230.462	-95.722	135.864	199.637	124.500	8.514	240.809	161.479	229.168	-77.764	197.178	212.204	220.478	0.00025133	0.0005535	3.871e-05	1282.4	1.1254e-06	6.4583e-07	1291.9	345.86	2.4741e-06	3.3421e-07	399.33	133.92	115.03	39.362	3.5481e-06	49.097	0.00018696	0.00018376	5.0912e-05	1225.9	2.0226e-06	1.9989e-06	1235.7	329.66	2.0283e-06	2.0027e-06	370.65	124.02	105.62	36.657	2.0242e-06	45.084	-82.288	-69.011	-12.759	-92.981	59.165	201.490	-93.038	-87.891	97.087	-51.332	-89.064	-84.128	-83.701	-79.229	-13.000	-80.124	-8191	255	
854.505	1	1	0	0	0.062746	0.13242	0.30734	0.32386	0.20744	0.20721	0.22237	0.12501	0.15017	0.1673	0.15666	0.052835	0.097485	0.40879	0.20846	0.097515	-2.2354	-2.7396	-2.1896	-2.9417	-2.6312	-2.3646	-3.125	-2.5479	-2.4458	-2.9437	-2.5229	-2.8271	-2.8125	-2.3625	-2.9479	-2.6708	57.398	162.271	-47.984	203.038	209.091	238.035	253.056	232.233	-16.659	15.580	216.745	61.820	245.365	194.345	56.801	-2.043	0.00022018	0.00035402	7.5242e-05	1281.9	3.6861e-07	2.4656e-06	1286.2	346.7	2.1699e-06	9.653e-07	398.63	133.36	115.02	39.251	4.0065e-06	49.181	0.00018695	0.00018378	5.0998e-05	1225.5	2.0243e-06	2.0112e-06	1235.7	329.68	2.0392e-06	2.0066e-06	370.69	124.09	105.69	36.612	2.0227e-06	45.039	-93.545	-40.376	-51.776	-93.047	21.734	21.004	-92.988	-87.909	107.134	222.593	-88.782	-84.120	-83.585	-79.375	0.221	-79.640	-8191	255	
854.601	1	1	0	0	0.067585	0.15288	0.080662	0.31025	0.18966	0.078458	0.14576	0.22003	0.088965	0.25253	0.089255	0.095063	0.069229	0.25636	0.016876	0.14773	-2.2771	-2.7625	-2.2687	-2.9021	-2.6917	-2.4896	-2.9833	-2.7396	-2.5542	-2.9417	-2.4229	-2.7896	-2.8937	-2.3937	-2.9771	-2.7812	-90.436	-105.461	-48.899	229.930	21.669	-79.930	174.033	-104.405	-63.115	-28.420	-3.344	62.501	137.063	167.947	151.080	180.936	0.00021019	0.00086507	7.7764e-05	1276.3	3.1558e-06	2.7565e-06	1293.2	345.44	1.5625e-06	2.9178e-06	399.47	133.8	115.06	39.165	6.7168e-06	49.128	0.00018591	0.00018304	5.0963e-05	1223.8	2.0368e-06	2.016e-06	1235.9	329.49	2.0395e-06	2.0246e-06	371.08	124.21	105.66	36.573	2.0341e-06	45.114	-68.355	-100.267	-25.015	-92.817	-76.691	132.230	-92.919	-88.090	101.911	146.300	-88.966	-84.118	-83.629	-79.254	-14.517	-79.905	-8191	255	
854.697	1	1	0	0	0.10864	0.20322	0.041777	0.23382	0.13471	0.29108	0.21136	0.087884	0.15809	0.22226	0.40832	0.2941	0.036721	0.27324	0.081475	0.066819	-2.0812	-2.6542	-2.2271	-2.6083	-2.7583	-2.3167	-2.7896	-2.4688	-2.4708	-2.6875	-2.4708	-2.8917	-2.7708	-2.4417	-2.8187	-2.7188	122.250	21.152	-15.811	245.131	101.112	136.133	250.973	227.643	-74.387	231.872	249.307	236.611	-41.345	24.693	64.999	4.024	0.00020333	0.00026733	4.0554e-05	1280.5	3.6398e-06	3.3066e-06	1289.1	345.65	1.8099e-06	1.4387e-06	398.07	133.26	114.44	39.247	5.9269e-07	49.25	0.00018666	0.00018596	5.1692e-05	1226	2.029e-06	2.0245e-06	1237.9	329.51	2.0363e-06	2.0303e-06	370.62	123.97	105.45	36.639	2.0273e-06	45.134	-81.556	-19.965	-96.912	-92.995	41.458	15.739	-93.112	-88.148	-10.701	-0.798	-88.873	-84.003	-83.944	-79.243	-57.955	-79.879	-8191	255	
854.791	1	1	0	0	0.18742	0.19688	0.12822	0.3868	0.2776	0.18519	0.20465	0.29455	0.099621	0.12349	0.2412	0.27014	0.37112	0.225	0.23476	0.21766	-2.1063	-2.8583	-2.3396	-2.7854	-2.9062	-2.3292	-3.0187	-2.7	-2.5021	-3.0292	-2.6854	-2.7833	-2.8604	-2.4417	-2.65	-2.8792	-6.943	33.453	141.647	240.056	128.033	-12.583	-49.679	226.246	227.256	186.353	-81.532	246.503	248.137	243.473	252.967	228.913	0.0002903	0.0001292	0.00013171	1279.2	3.3834e-06	1.7328e-06	1293.5	345.4	3.6233e-06	2.6235e-06	397.62	133.76	114.93	39.292	9.4496e-07	49.145	0.00018875	0.00018564	5.1708e-05	1225.4	2.0366e-06	2.0302e-06	1236.5	329.53	2.0376e-06	2.0354e-06	370.61	124.16	105.61	36.634	2.0335e-06	45.055	-73.567	-39.041	-18.688	-93.081	-24.710	-39.235	-92.935	-88.079	23.664	13.339	-88.811	-84.349	-83.696	-79.224	-74.481	-80.210	-8191	255	
854.889	1	1	0	0	0.13121	0.090599	0.085593	0.23947	0.11374	0.096681	0.22989	0.13515	0.21755	0.19204	0.17674	0.070268	0.097225	0.21792	0.17256	0.23365	-1.8271	-2.8854	-2.45	-2.6271	-2.8625	-2.3771	-2.8688	-2.8167	-2.2	-2.7792	-2.7542	-2.5083	-2.8625	-2.4208	-2.5667	-2.9979	211.567	232.025	28.717	-90.956	120.355	207.693	160.494	182.302	58.293	-57.309	-45.593	187.380	54.154	140.756	176.229	-75.330	0.00020634	3.7126e-05	6.5464e-05	1279.8	3.4504e-06	1.5211e-06	1285.7	345.45	1.8285e-06	3.8345e-06	398.95	133.11	114.74	39.316	1.2661e-06	49.229	0.00018872	0.0001849	5.1454e-05	1225.4	2.0246e-06	2.0257e-06	1234.3	329.39	2.026e-06	2.0435e-06	370.75	123.77	105.68	36.588	2.0313e-06	45.076	-83.813	116.914	-61.122	-92.997	-44.790	65.582	-92.946	-88.024	197.225	29.808	-88.949	-84.233	-83.787	-79.386	-10.266	-80.120	-8191	255	
855.008	1	1	0	0	0.33597	0.0276	0.14441	0.27231	0.032983	0.035795	0.33051	0.065064	0.22826	0.12598	0.14452	0.16854	0.17921	0.046548	0.098037	0.042593	-1.7792	-2.85	-2.6792	-2.6188	-3	-2.4521	-2.7479	-2.825	-2.2062	-2.7167	-2.525	-2.3708	-2.8354	-2.5396	-2.5208	-2.7687	-22.114	135.344	252.652	201.584	127.108	-53.376	199.091	47.221	73.960	125.964	-50.149	200.097	249.983	181.373	155.365	7.910	0.00020748	0.00030216	7.2249e-05	1279.1	3.5606e-06	3.8216e-06	1290	345.63	3.8934e-06	4.5296e-06	398.4	133.52	115.18	39.229	1.9606e-06	49.04	0.00018705	0.00018387	5.1182e-05	1226.2	2.0167e-06	2.0117e-06	1234.9	329.42	2.0203e-06	2.0218e-06	370.35	123.88	105.55	36.553	2.0216e-06	45.013	-95.372	-76.376	-54.177	-92.797	222.082	47.470	-92.816	-88.142	-79.143	46.839	-88.944	-84.264	-83.740	-79.424	27.172	-79.999	-8191	255	
855.080	1	1	0	0	0.2478	0.054998	0.25663	0.24178	0.11783	0.2834	0.14385	0.12141	0.11256	0.023033	0.24009	0.25104	0.18524	0.13811	0.1514	0.014995	-1.8646	-2.7438	-2.5312	-2.6792	-2.8208	-2.7771	-2.6417	-2.8396	-2.2917	-2.6542	-2.7396	-2.3625	-2.7979	-2.4604	-2.4458	-2.9208	-85.271	153.160	-41.782	214.697	-22.078	169.458	205.125	-64.916	112.383	98.158	194.860	217.000	251.698	210.616	-54.774	-55.843	0.00027946	0.00018349	6.0709e-05	1280.9	4.6795e-06	1.3645e-06	1288.2	344.55	1.2093e-06	1.924e-06	399.37	133.62	114.89	39.462	1.0425e-06	49.163	0.00018721	0.00018522	5.1737e-05	1226.9	2.0329e-06	2.0325e-06	1235.5	329.58	2.0591e-06	2.0473e-06	371.08	124.22	105.88	36.719	2.0502e-06	45.119	-74.075	-43.881	45.746	-92.871	58.431	13.903	-92.772	-87.994	184.052	112.272	-89.126	-84.293	-83.700	-79.282	51.290	-80.146	-8191	255	
855.176	1	1	0	0	0.32605	0.31025	0.23274	0.2145	0.19584	0.084874	0.31269	0.17793	0.31934	0.23856	0.28341	0.26634	0.26542	0.23972	0.15516	0.17015	-1.8542	-2.5417	-2.6125	-2.5438	-2.8688	-2.5833	-2.625	-2.9875	-2.3479	-2.5854	-2.9521	-2.1521	-2.8063	-2.5271	-2.3021	-2.8688	132.156	215.299	107.895	221.171	-14.067	-55.934	201.847	223.365	67.687	36.016	-87.805	-60.200	193.092	219.358	84.246	161.433	0.00031616	0.00061178	0.00011531	1281.3	2.9307e-06	4.094e-06	1286.5	346.28	2.8281e-06	5.3824e-06	398.61	133.53	114.77	39.363	3.7181e-06	49.371	0.00019067	0.00018864	5.2323e-05	1226	2.0536e-06	2.0535e-06	1236.4	330.01	2.0601e-06	2.043e-06	371.2	124.21	105.63	36.668	2.032e-06	45.176	-105.022	-65.119	35.512	-92.890	88.747	-10.681	-93.044	-88.038	-3.466	69.841	-89.114	-84.124	-83.955	-79.340	14.692	-79.882	-8191	255	
855.297	1	1	0	0	0.045923	0.18869	0.31811	0.18923	0.026112	0.14034	0.28668	0.26849	0.27461	0.13739	0.071707	0.1512	0.13637	0.31384	0.19435	0.098163	-1.8625	-2.5062	-2.6396	-2.3396	-2.7896	-2.6	-2.5458	-3.1375	-2.5812	-2.4792	-2.8729	-2.5083	-2.8229	-2.8646	-2.2854	-2.8917	26.252	158.005	-88.547	-89.125	-28.940	-66.015	-24.595	223.054	6.623	190.123	-91.415	-30.716	10.207	253.555	51.363	214.611	0.00029898	0.00068173	8.0292e-05	1280.4	5.2567e-06	3.4293e-06	1286.7	344.14	2.1298e-06	6.3035e-07	398.32	133.21	115.16	39.295	1.3482e-06	49.036	0.0001868	0.00018854	5.1543e-05	1225.5	2.041e-06	2.0344e-06	1235.2	329.31	2.0667e-06	2.0713e-06	370.66	124.06	106.02	36.719	2.0722e-06	45.161	-90.119	-33.645	-26.117	-92.750	183.961	-7.177	-92.865	-88.008	96.354	-7.516	-88.797	-84.323	-83.797	-79.284	9.956	-80.045	-8191	255	
855.393	1	1	0	0	0.15433	0.032143	0.27521	0.058973	0.20758	0.29	0.19639	0.28992	0.16452	0.14208	0.13318	0.16771	0.23636	0.069167	0.081146	0.29868	-2.0687	-2.4021	-2.7479	-2.5958	-2.5438	-2.825	-2.4437	-3.0208	-2.5687	-2.5812	-2.9229	-2.4083	-2.7479	-2.7958	-2.2083	-2.8292	210.717	89.856	-8.050	-100.159	190.338	178.797	40.090	-86.702	52.296	-102.546	193.890	222.555	-100.763	-61.215	52.916	212.796	0.00021559	0.00053159	4.849e-05	1277.7	1.8239e-06	2.2809e-06	1291.1	346.14	1.6344e-06	2.5586e-06	397.95	133.09	115.06	39.155	3.8484e-06	49.512	0.00019177	0.00018824	5.1703e-05	1225	2.0551e-06	2.0633e-06	1236.9	330.14	2.0746e-06	2.0394e-06	370.54	124.04	105.76	36.645	2.0473e-06	45.204	-85.370	245.988	-46.554	-92.843	137.690	28.128	-93.016	-87.910	-98.784	-1.989	-88.714	-84.132	-83.696	-79.343	-10.170	-79.879	-8191	255	
855.489	1	1	0	0	0.18594	0.074077	0.14406	0.21374	0.21254	0.093887	0.10153	0.17994	0.13102	0.37931	0.17783	0.0088957	0.1088	0.050321	0.23299	0.11748	-2.0167	-2.5187	-2.9479	-2.3875	-2.5062	-2.8333	-2.6937	-2.8833	-2.65	-2.3167	-2.9062	-2.5271	-2.7667	-2.7562	-2.3771	-2.9146	179.202	43.392	245.450	209.009	195.833	-8.597	200.622	-83.996	147.450	0.525	171.454	-103.839	-37.837	121.994	62.059	108.344	0.00026881	0.00024329	0.00013468	1281.7	2.1327e-06	5.5476e-07	1289.4	345.87	4.8225e-06	1.4153e-06	400.44	133.37	114.55	39.301	2.215e-06	48.928	0.00018929	0.00018653	5.1895e-05	1225.9	2.059e-06	2.0389e-06	1236.9	329.76	2.0512e-06	2.0326e-06	371.2	123.96	105.62	36.623	2.0579e-06	45.085	-72.579	159.567	-29.443	-92.984	109.373	142.477	-92.884	-88.031	11.009	3.421	-88.863	-84.357	-83.508	-79.263	-27.492	-79.973	-8191	255	
855.609	1	1	0	0	0.10848	0.073093	0.22488	0.101	0.19714	0.21254	0.3525	0.16724	0.034241	0.20729	0.36008	0.13408	0.36851	0.33395	0.17637	0.15786	-2.2458	-2.3958	-2.8042	-2.7396	-2.5042	-2.8979	-2.5333	-2.9729	-2.6792	-2.3125	-3.0438	-2.6333	-2.4354	-2.8625	-2.3604	-2.8917	179.391	128.346	158.021	226.792	113.377	170.390	215.969	156.534	178.536	242.586	-85.159	149.847	251.731	173.837	90.732	244.358	0.00024297	0.00011552	0.00011988	1275.3	4.7304e-06	2.4572e-06	1289.5	346.12	3.9192e-06	4.2918e-06	398.35	132.99	115.26	39.386	4.15e-06	49.345	0.00018925	0.00018496	5.2114e-05	1223.7	2.0545e-06	2.0489e-06	1235.2	329.77	2.0614e-06	2.0472e-06	370.83	123.91	105.87	36.664	2.0722e-06	45.185	-89.362	26.969	-10.070	-92.918	-25.371	-17.690	-92.931	-87.920	-51.740	19.792	-88.855	-84.142	-83.619	-79.388	23.503	-79.981	-8191	255	
855.681	1	1	0	0	0.23245	0.16044	0.18849	0.01293	0.2118	0.16838	0.21447	0.27899	0.40273	0.16023	0.059844	0.24129	0.056257	0.085065	0.049039	0.22427	-2.1917	-2.35	-2.7125	-2.7896	-2.6063	-2.7042	-2.6417	-2.7188	-2.5458	-2.3125	-2.8458	-2.5729	-2.4	-2.8187	-2.3708	-2.6813	119.065	173.528	-3.376	-87.640	203.176	-8.310	233.727	159.903	129.733	105.387	27.309	247.401	150.614	-49.980	246.416	-87.733	0.00020315	0.00040811	0.00012887	1275.9	4.9639e-06	1.4298e-06	1288.4	345.95	1.9598e-06	2.4429e-06	397.55	133.17	114.57	39.34	3.2515e-06	49.29	0.0001896	0.00018799	5.2116e-05	1225	2.0575e-06	2.0434e-06	1235.4	329.56	2.0639e-06	2.0552e-06	370.7	123.95	105.68	36.659	2.0533e-06	45.106	-87.734	235.693	-51.478	-92.938	34.677	63.847	-93.009	-88.145	191.864	12.373	-88.732	-84.247	-83.668	-79.104	-13.171	-80.191	-8191	255	
855.777	1	1	0	0	0.11987	0.10213	0.014397	0.0097919	0.28491	0.090719	0.08611	0.39334	0.15725	0.14047	0.25352	0.078453	0.2124	0.23494	0.11849	0.21865	-2.4729	-2.1458	-2.6	-2.6333	-2.2896	-2.9313	-2.6937	-2.8187	-2.6479	-2.2208	-2.8125	-2.6896	-2.5083	-2.9917	-2.5	-2.75	194.267	-5.205	129.088	229.238	-13.159	24.927	171.208	205.216	-60.653	-105.665	199.330	54.537	113.032	165.310	187.391	206.183	0.00023452	0.00037237	9.6369e-05	1278.9	7.7308e-06	1.5247e-06	1291	344.67	9.6617e-07	2.2255e-06	398.84	133.36	114.8	39.417	2.1235e-06	49.029	0.00018996	0.00018815	5.2128e-05	1226.4	2.0576e-06	2.0409e-06	1236.6	329.2	2.045e-06	2.0672e-06	371.04	124	105.78	36.67	2.0747e-06	45.036	-99.749	213.380	-9.439	-92.965	23.768	25.863	-92.952	-87.908	191.535	-17.674	-88.810	-84.410	-83.636	-79.379	207.327	-80.145	-8191	255	
855.896	1	1	0	0	0.23233	0.15184	0.040999	0.21711	0.058332	0.15403	0.15668	0.24625	0.12478	0.21756	0.19174	0.26046	0.50477	0.10371	0.086139	0.27997	-2.4021	-2.3667	-2.5646	-2.7313	-2.3	-2.8417	-2.8479	-2.6354	-2.8417	-2.4562	-2.7438	-2.8167	-2.2833	-2.9	-2.5646	-2.4667	207.762	229.615	166.622	205.735	17.913	12.524	205.282	254.021	41.036	-5.061	102.344	145.926	-97.897	100.594	-58.216	180.012	0.00015413	0.0004821	0.00010253	1281	5.5755e-06	3.4505e-06	1287.5	344.4	2.1358e-06	4.9698e-06	398.12	133.18	115.09	39.304	1.7079e-06	49.002	0.00019062	0.00018885	5.2437e-05	1225.1	2.0718e-06	2.0646e-06	1235.7	329.68	2.0673e-06	2.0557e-06	370.63	123.92	105.67	36.605	2.0453e-06	45.023	-67.337	181.524	-14.013	-92.976	54.055	-40.599	-92.944	-87.980	-82.303	104.987	-88.908	-84.114	-83.745	-79.237	-100.475	-79.989	-8191	255	
855.992	1	1	0	0	0.26103	0.12892	0.20837	0.28225	0.14272	0.12145	0.050372	0.34024	0.087974	0.048745	0.13979	0.12607	0.16102	0.089215	0.14595	0.20268	-2.6292	-2.4437	-2.5083	-2.7979	-2.425	-2.8604	-2.7521	-2.5062	-2.8104	-2.2271	-2.7188	-2.9917	-2.4479	-2.625	-2.5521	-2.4854	-61.344	-40.490	-81.869	246.808	244.027	139.454	66.362	184.264	132.862	-59.964	152.797	21.337	-37.132	138.211	56.639	150.744	0.00023769	0.00037173	1.1821e-05	1279.7	7.7175e-07	3.9487e-06	1287.4	345.63	1.0501e-06	5.7371e-06	399.16	133.17	114.64	39.173	2.6763e-06	49.112	0.00018776	0.00018676	5.2217e-05	1223.6	2.0379e-06	2.0311e-06	1235.7	329.5	2.0509e-06	2.0543e-06	371.16	124.07	105.55	36.588	2.0505e-06	45.158	-91.660	-59.402	-14.222	-93.035	-84.333	-25.282	-92.862	-87.977	-35.547	15.141	-88.960	-83.902	-83.705	-79.248	-4.972	-80.194	-8191	255	
856.088	1	1	0	0	0.1062	0.21885	0.196	0.35757	0.13674	0.19978	0.089328	0.20471	0.082006	0.1865	0.1756	0.16313	0.18638	0.070841	0.099177	0.20929	-2.5521	-2.5083	-2.475	-2.9417	-2.1792	-2.8042	-2.7833	-2.5687	-2.9021	-2.5021	-2.7625	-2.9396	-2.3771	-2.9062	-2.7875	-2.5563	77.417	79.870	106.699	253.061	46.505	155.876	-88.338	236.764	-97.023	106.258	227.116	200.716	139.636	228.990	44.690	74.018	0.00021135	0.00012667	2.6096e-05	1280.1	2.0747e-06	2.4924e-06	1289.8	345.37	2.2303e-06	4.3203e-06	398.72	132.87	115.25	39.404	2.1434e-06	49.236	0.00019068	0.00018836	5.2395e-05	1225.8	2.0438e-06	2.0488e-06	1235.5	329.72	2.0697e-06	2.0427e-06	370.65	123.86	105.72	36.669	2.0523e-06	45.076	-95.508	175.850	142.653	-93.010	80.142	-30.037	-92.861	-88.054	25.362	111.378	-88.898	-84.440	-83.601	-79.248	-29.022	-80.176	-8191	255	
856.209	1	1	0	0	0.13071	0.071961	0.19339	0.30085	0.19033	0.17959	0.3614	0.4005	0.25235	0.068626	0.15264	0.20131	0.32064	0.1234	0.09941	0.1366	-2.5083	-2.3979	-2.2792	-3.0271	-2.3104	-2.6729	-2.95	-2.5104	-2.7292	-2.4833	-2.4021	-2.9125	-2.475	-2.7729	-2.6667	-2.4979	46.971	227.510	198.827	214.190	93.634	-20.628	152.944	206.324	-81.836	221.913	229.639	112.009	132.279	179.514	94.829	231.839	0.00025007	0.00028041	0.00011206	1279.8	1.052e-06	2.8281e-06	1286.1	344.42	3.7522e-06	4.0256e-06	396.62	133.59	115.38	39.308	3.3223e-06	49.204	0.00018991	0.0001883	5.1869e-05	1225.5	2.062e-06	2.0442e-06	1235	329.41	2.0718e-06	2.0504e-06	370.26	124.12	105.82	36.675	2.0657e-06	45.128	-82.420	-9.752	-67.846	-92.936	69.896	22.342	-92.960	-87.957	-86.993	99.519	-89.052	-84.292	-83.627	-79.503	-39.614	-80.120	-8191	255	
856.305	1	1	0	0	0.17372	0.19767	0.21869	0.08723	0.13894	0.3402	0.31388	0.2499	0.050968	0.062445	0.15715	0.23308	0.23334	0.21503	0.18773	0.27706	-2.2375	-2.4229	-2.3812	-2.9021	-2.475	-2.5833	-3	-2.2562	-2.6312	-2.5542	-2.4729	-2.8292	-2.4167	-2.625	-2.65	-2.2833	-49.938	229.724	205.175	237.131	-62.922	184.723	176.540	193.193	-42.731	35.175	194.486	-72.022	163.790	229.864	148.208	152.349	0.00018313	0.00023255	5.4801e-05	1280.4	3.6779e-06	3.5827e-06	1290.6	345.23	4.8259e-07	2.2486e-06	398.13	133.44	114.75	39.281	3.3367e-06	49.096	0.00019073	0.00018761	5.2297e-05	1226.9	2.0529e-06	2.0536e-06	1235.2	329.34	2.0674e-06	2.0524e-06	370.43	123.91	105.71	36.632	2.0556e-06	45.076	249.854	92.087	5.393	-93.151	20.437	-63.424	-92.887	-87.983	17.858	-20.862	-88.984	-84.310	-83.552	-79.301	21.663	-80.141	-8191	255	
856.377	1	1	0	0	0.37045	0.10251	0.065313	0.17055	0.27516	0.18707	0.18068	0.1262	0.19963	0.048483	0.39985	0.29481	0.11963	0.21417	0.1017	0.29232	-2.4208	-2.6833	-2.325	-2.925	-2.5083	-2.4354	-2.6958	-2.3729	-2.5917	-2.5896	-2.425	-2.6875	-2.5667	-2.6021	-2.6688	-2.4542	-67.129	164.215	69.532	-27.064	53.599	-33.743	105.957	230.829	-35.643	56.431	202.575	169.442	153.243	175.554	219.971	212.717	0.00022909	0.00064759	6.1178e-05	1277.5	1.8096e-06	1.6502e-06	1290.4	344.32	1.9056e-06	1.9338e-06	398.1	132.92	114.61	39.173	5.4057e-06	49.337	0.00018936	0.00018682	5.2236e-05	1225.9	2.0532e-06	2.0368e-06	1235	328.8	2.0433e-06	2.0281e-06	370.71	123.82	105.46	36.574	2.0446e-06	45.127	-87.231	-80.013	182.122	-93.156	20.545	-47.058	-92.840	-88.114	-9.871	125.682	-88.997	-84.178	-83.649	-79.313	-29.373	-80.005	-8191	255	
856.473	1	1	0	0	0.087334	0.1163	0.1322	0.39119	0.097595	0.18699	0.12705	0.058119	0.1208	0.033688	0.19866	0.33764	0.21453	0.19913	0.18039	0.17325	-2.1604	-2.6771	-2.2792	-2.8479	-2.4146	-2.2604	-2.9625	-2.5062	-2.4875	-2.6583	-2.4396	-2.8667	-2.4667	-2.4188	-2.9104	-2.5042	15.618	-30.595	1.943	235.445	10.382	73.325	214.776	-77.179	44.286	18.433	-91.663	193.453	182.048	-95.979	63.706	115.132	0.00023146	0.00054575	4.2306e-05	1280	2.1921e-06	1.9808e-06	1288.4	344.08	2.8937e-06	5.4583e-06	398.03	133.75	114.05	39.248	1.4436e-06	49.106	0.00018859	0.00018633	5.1798e-05	1225.2	2.0294e-06	2.033e-06	1234.7	329.34	2.0407e-06	2.0339e-06	370.95	124.1	105.28	36.607	2.0488e-06	45.072	-96.222	223.662	-34.465	-93.125	-36.630	43.402	-92.967	-88.247	-13.020	59.309	-88.830	-84.239	-83.859	-79.252	-35.163	-79.818	-8191	255	
856.569	1	1	0	0	0.1023	0.011326	0.056519	0.066262	0.22723	0.33972	0.21295	0.17562	0.26537	0.047046	0.33559	0.12953	0.088457	0.033296	0.035931	0.17156	-2.2542	-2.7854	-2.3937	-2.9583	-2.7729	-2.3958	-3.0875	-2.6188	-2.4562	-2.8229	-2.2938	-2.8146	-2.7042	-2.4854	-2.7542	-2.5687	126.648	-4.355	-25.798	235.508	-99.363	103.382	179.047	220.274	225.371	123.302	97.998	-73.261	84.595	186.357	10.398	226.041	0.00022231	0.00084268	7.851e-05	1280	3.4792e-06	2.2149e-06	1286.1	344.84	3.473e-06	1.1813e-06	397.03	133.18	114.38	39.227	1.9642e-06	49.186	0.00018817	0.00018571	5.1785e-05	1225.8	2.0264e-06	2.0196e-06	1233.9	329.25	2.0419e-06	2.0346e-06	369.9	123.92	105.4	36.601	2.0408e-06	45.021	-84.585	-31.073	-62.386	-93.191	130.714	35.694	-92.907	-88.030	-24.930	-22.016	-88.753	-84.277	-83.883	-79.266	247.657	-80.012	-8191	255	
856.690	1	1	0	0	0.18583	0.24275	0.24086	0.38544	0.055254	0.20704	0.49046	0.34028	0.13981	0.16197	0.4558	0.24657	0.41577	0.046109	0.059952	0.39044	-2.0812	-2.6	-2.2417	-2.9646	-2.7313	-2.3354	-2.9229	-2.7083	-2.45	-2.7958	-2.5708	-2.7188	-2.6958	-2.3458	-2.8292	-2.6104	-99.525	249.658	166.857	195.978	139.330	227.323	231.241	216.571	178.492	37.803	-102.276	235.646	218.476	153.216	-82.639	203.317	0.00023365	0.00034562	6.3442e-05	1277.4	2.4555e-06	2.6052e-06	1289.1	344.65	2.5032e-06	3.1013e-06	396.59	132.63	114.31	39.162	3.2067e-06	49.056	0.00018785	0.00018641	5.1524e-05	1224.4	2.0355e-06	2.0283e-06	1233.3	328.85	2.0501e-06	2.0345e-06	369.68	123.56	105.39	36.545	2.0435e-06	45.009	-71.770	68.208	-70.517	-92.979	88.382	-9.577	-92.947	-88.181	-53.830	-8.855	-89.026	-84.314	-83.862	-79.290	77.886	-79.762	-8191	255	
856.784	1	1	0	0	0.21904	0.090429	0.091444	0.16278	0.090086	0.098811	0.29423	0.27789	0.11482	0.30484	0.18901	0.26389	0.18167	0.18776	0.2511	0.20258	-1.9813	-3.0917	-2.3708	-2.7208	-2.6979	-2.1958	-2.9875	-2.6562	-2.2938	-2.9604	-2.5	-2.5958	-2.6063	-2.3	-2.8042	-2.5792	112.054	-28.839	27.636	-103.762	191.627	-0.040	-90.181	181.001	13.681	144.250	195.909	217.875	236.159	57.958	-100.764	163.904	0.00020248	0.0006176	0.00013458	1273.6	4.2823e-07	4.1626e-06	1284	344.25	1.3226e-06	1.3832e-06	398.05	133.12	114.71	39.211	2.6523e-06	48.927	0.00018833	0.00018583	5.193e-05	1223.6	2.017e-06	2.0445e-06	1232.5	328.8	2.0398e-06	2.0293e-06	369.87	123.68	105.35	36.538	2.0337e-06	44.964	-91.760	-29.576	-41.094	-92.804	66.779	17.782	-92.885	-87.960	-28.914	-3.552	-89.064	-84.123	-83.792	-79.047	21.650	-80.042	-8191	255	
856.880	1	1	0	0	0.26141	0.079961	0.19905	0.305	0.30598	0.15434	0.23841	0.3618	0.083983	0.20175	0.20561	0.058297	0.17447	0.19468	0.10194	0.092652	-1.7958	-2.6437	-2.2188	-2.7687	-2.7708	-2.3458	-2.8063	-2.6875	-2.5083	-2.8688	-2.6292	-2.5146	-2.7583	-2.3292	-2.6437	-2.7479	102.415	64.050	-85.616	222.486	155.292	91.183	229.812	177.506	-88.519	-40.301	198.996	249.756	-39.528	197.149	131.800	26.522	0.00022734	0.00039897	6.8094e-05	1276.5	4.6513e-06	2.407e-06	1284.3	344.45	2.5939e-06	3.7585e-06	398.76	132.87	114.58	39.114	4.2697e-06	49.26	0.00018892	0.00018524	5.1661e-05	1222.9	2.0464e-06	2.0236e-06	1233.7	328.59	2.0382e-06	2.0347e-06	370.29	123.76	105.28	36.527	2.0473e-06	45.088	-92.905	-89.599	-39.864	-92.873	4.277	-15.616	-93.160	-88.039	-4.426	115.483	-89.051	-84.126	-83.892	-79.515	67.323	-79.846	-8191	255	
856.978	1	1	0	0	0.28983	0.29795	0.069125	0.2984	0.016954	0.13412	0.1923	0.12219	0.08194	0.049999	0.2195	0.19483	0.32161	0.23824	0.20661	0.17846	-1.9146	-2.7125	-2.4062	-2.5604	-2.9167	-2.3167	-2.6937	-2.8271	-2.2333	-2.9062	-2.4271	-2.4938	-3.0333	-2.4938	-2.6667	-2.7208	58.689	178.419	-84.342	231.893	122.843	-35.338	207.461	203.131	48.480	230.781	144.080	63.649	210.520	119.397	90.695	106.105	0.00028846	0.00030955	0.00011184	1279.1	3.3403e-06	4.0276e-06	1283.5	344.3	1.5234e-06	5.1825e-06	397.24	132.81	114.65	39.161	6.0615e-06	49.036	0.00018791	0.00018672	5.1528e-05	1223.9	2.0377e-06	2.038e-06	1233.9	328.98	2.0364e-06	2.0223e-06	370.22	123.79	105.48	36.595	2.0308e-06	44.998	-104.114	-76.367	-4.183	-92.887	27.528	-2.410	-92.993	-88.015	52.858	5.488	-89.010	-84.302	-83.628	-79.267	59.318	-80.000	-8191	255	
857.073	1	1	0	0	0.066948	0.15678	0.19063	0.30222	0.10165	0.096604	0.49022	0.38628	0.11111	0.10036	0.33983	0.18191	0.34518	0.14966	0.15556	0.17873	-1.9438	-2.8875	-2.6104	-2.6375	-2.8083	-2.4833	-2.7562	-2.9625	-2.2521	-2.675	-2.6542	-2.5438	-2.8688	-2.5042	-2.7125	-2.9562	31.199	221.555	-81.637	212.159	-25.497	-4.950	186.110	206.991	140.224	50.782	207.213	207.875	-103.104	128.359	45.407	146.036	0.00024847	0.0002704	5.3522e-05	1279.7	1.3584e-06	2.229e-06	1284	344.99	2.9561e-06	4.0332e-06	396.39	133.37	114.43	39.328	2.66e-06	48.837	0.00018758	0.00018586	5.111e-05	1224.2	2.0255e-06	2.0096e-06	1233.3	328.77	2.0345e-06	1.9943e-06	369.56	123.79	105.37	36.586	2.0211e-06	44.995	-100.020	1.032	19.512	-92.852	-97.448	240.108	-92.846	-88.255	67.738	66.367	-89.113	-84.029	-83.828	-79.300	-28.414	-79.719	-8191	255	
857.169	1	1	0	0	0.21228	0.19248	0.10102	0.099724	0.15946	0.13014	0.48764	0.052236	0.1087	0.06871	0.093152	0.20857	0.15767	0.11787	0.24454	0.18328	-1.9875	-2.7125	-2.6479	-2.5062	-2.9062	-2.5125	-2.4708	-2.9354	-2.3375	-2.7229	-2.8812	-2.4917	-3.0458	-2.5563	-2.4313	-2.8688	-54.395	122.379	233.867	185.452	-41.924	-80.370	217.076	106.771	213.137	141.808	67.550	-96.456	181.618	166.732	230.583	-36.270	0.00024385	0.00069995	9.1355e-05	1276.5	4.9513e-06	6.4454e-06	1280.9	345.32	1.8241e-06	3.0092e-06	397.04	132.61	114.62	39.203	2.6486e-06	49.2	0.0001881	0.00018627	5.1391e-05	1222.6	2.048e-06	2.0043e-06	1231.9	328.93	2.0342e-06	2.0216e-06	369.69	123.55	105.3	36.533	2.027e-06	45.03	-83.003	-95.378	-6.961	-92.943	70.914	-20.238	-92.823	-87.949	30.867	101.335	-88.644	-83.986	-83.780	-79.325	-15.217	-80.210	-8191	255	
857.289	1	1	0	0	0.054415	0.10558	0.049928	0.18261	0.063392	0.23288	0.083161	0.042669	0.086872	0.1434	0.24842	0.050012	0.29627	0.14054	0.067951	0.14461	-2.0396	-2.625	-2.55	-2.4229	-2.6375	-2.7771	-2.4521	-3.1104	-2.3042	-2.6771	-2.8708	-2.4292	-2.7	-2.8396	-2.5187	-3.0333	61.305	232.735	-53.119	192.912	54.847	197.367	-98.160	231.745	145.162	-54.527	185.125	147.029	253.116	80.878	81.879	-44.999	0.00022862	0.00046193	8.8108e-05	1271.2	8.5206e-06	4.2474e-06	1284.8	344.4	4.9029e-06	4.4723e-06	397.8	132.54	114.78	39.143	3.3114e-06	48.766	0.0001874	0.00018514	5.1354e-05	1220	2.0225e-06	2.0205e-06	1231.2	328.5	2.0251e-06	2.004e-06	369	123.44	105.31	36.524	2.0291e-06	44.901	-79.924	-36.458	6.977	-92.775	43.790	-45.509	-93.061	-88.149	-48.589	78.784	-88.858	-84.087	-83.785	-79.318	-0.086	-79.861	-8191	255	
857.386	1	1	0	0	0.04642	0.11642	0.14567	0.30654	0.15923	0.08981	0.12337	0.42221	0.13634	0.15531	0.11336	0.16081	0.21383	0.35906	0.11702	0.18074	-1.8333	-2.5229	-2.7792	-2.4938	-2.5667	-2.575	-2.5333	-3.0146	-2.5042	-2.5958	-2.9958	-2.6583	-2.875	-2.9333	-2.4833	-2.9542	137.141	33.519	-50.924	-102.940	-60.244	14.551	172.050	199.680	130.441	230.374	155.148	105.955	-49.160	78.215	109.936	145.067	0.0002075	0.00048471	7.7952e-05	1279.9	4.1586e-06	1.9864e-06	1278.3	343.61	2.5928e-06	1.3234e-06	397.36	132.81	113.92	39.156	2.5792e-06	48.834	0.00018541	0.00018557	5.0974e-05	1221.9	2.0187e-06	2.0116e-06	1231	328.2	2.0309e-06	2.0066e-06	368.8	123.5	105.06	36.516	1.9964e-06	44.896	-83.489	-32.024	13.274	-92.790	40.735	35.679	-92.862	-88.098	-21.636	199.438	-89.051	-84.151	-83.874	-79.661	135.134	-79.950	-8191	255	
857.482	1	1	0	0	0.027603	0.18105	0.10627	0.49033	0.26831	0.11232	0.21528	0.11782	0.16142	0.20233	0.083182	0.22373	0.15841	0.11318	0.26184	0.046228	-2.1396	-2.5854	-2.9021	-2.5062	-2.6646	-2.8229	-2.7021	-2.9062	-2.5146	-2.3312	-2.9979	-2.7042	-2.5458	-2.7125	-2.5396	-2.8354	-100.256	233.470	63.527	206.085	-45.264	193.878	185.640	131.333	98.925	225.391	248.492	182.853	-16.073	30.867	32.765	52.824	0.0001959	0.00021765	6.8244e-05	1274.1	2.2633e-06	1.165e-06	1283.8	344.6	1.065e-06	5.3498e-06	396.38	133	114.45	39.146	4.9854e-06	48.927	0.00018509	0.00018345	5.0788e-05	1221.3	1.9892e-06	1.9939e-06	1231.1	328.15	1.9965e-06	1.99e-06	368.91	123.5	105.12	36.497	2.0095e-06	44.957	-80.598	-44.657	-19.326	-92.941	-63.283	-19.999	-92.926	-87.996	40.714	64.687	-89.163	-83.956	-83.785	-79.238	27.519	-80.028	-8191	255	
857.578	1	1	0	0	0.11098	0.20316	0.11782	0.22022	0.24544	0.2475	0.18804	0.18543	0.41734	0.28708	0.08195	0.25253	0.18505	0.28899	0.04664	0.12985	-2.4271	-2.4646	-2.775	-2.675	-2.4021	-2.6792	-2.5812	-2.9146	-2.5771	-2.375	-2.9896	-2.4562	-2.625	-2.7375	-2.4688	-2.8229	-1.061	79.478	-72.539	-105.800	20.099	159.727	193.558	143.708	-77.507	169.539	156.253	166.323	176.293	-91.488	-88.194	-79.612	0.00020274	0.00020213	0.00010082	1277.6	3.1194e-06	1.2418e-06	1285.5	344.49	1.8145e-06	7.4476e-06	395.88	133.34	114.33	39.069	3.9475e-06	49.113	0.00018422	0.0001824	5.0492e-05	1220.6	2.0047e-06	1.9939e-06	1230.7	328.21	2.0084e-06	2.0007e-06	368.7	123.79	105	36.462	2.0213e-06	45.008	-72.793	-41.181	-69.258	-92.906	53.799	29.013	-92.968	-87.983	219.383	90.658	-88.918	-84.040	-83.809	-79.264	15.062	-80.006	-8191	255	
857.674	1	1	0	0	0.31308	0.31847	0.26758	0.29371	0.073269	0.19028	0.27441	0.10554	0.041966	0.27469	0.29684	0.19979	0.11262	0.031952	0.2887	0.34418	-2.1979	-2.45	-2.8	-2.5958	-2.575	-2.7208	-2.5729	-2.6708	-2.5875	-2.3958	-2.8271	-2.5062	-2.7167	-2.775	-2.4604	-2.8271	149.208	227.637	209.014	214.343	150.374	40.490	204.529	-16.641	42.215	-61.696	138.380	-7.928	181.562	-49.888	37.860	174.928	0.00028657	0.00037682	2.5641e-05	1273.7	5.3994e-07	3.5003e-06	1287	343.44	1.15e-06	4.4288e-06	398.08	133.21	114.36	39.045	3.2129e-06	49.342	0.0001849	0.00018484	5.0781e-05	1220	1.9931e-06	1.9997e-06	1231.2	328.09	1.993e-06	1.9979e-06	369.2	123.43	105.29	36.425	2.0131e-06	45.037	-78.381	249.609	213.645	-92.921	-65.678	-34.688	-92.896	-88.208	231.001	63.094	-89.011	-84.064	-83.957	-79.391	-103.443	-80.099	-8191	255	
857.770	1	1	0	0	0.069827	0.19046	0.12595	0.20938	0.22534	0.15982	0.11842	0.11798	0.074774	0.26063	0.19299	0.20234	0.11404	0.066792	0.10685	0.28226	-2.2521	-2.3396	-2.5438	-2.6437	-2.3312	-2.7562	-2.8208	-3.0729	-2.6292	-2.2646	-3.0417	-2.5938	-2.4625	-2.8146	-2.4188	-2.6979	233.457	50.453	-0.031	232.189	121.819	64.922	228.606	169.222	-69.366	95.352	66.360	-28.098	-54.934	31.219	217.971	233.852	0.00030135	0.00081903	0.00011489	1278	1.7892e-06	4.8132e-07	1283.5	344.53	2.2011e-06	3.8287e-06	394.63	133.25	114.09	39.296	7.0437e-06	48.969	0.00018584	0.00018355	5.1219e-05	1221.9	2.0194e-06	2.0122e-06	1231.7	328.54	2.0251e-06	2.004e-06	368.97	123.49	105.08	36.476	2.0092e-06	44.861	-88.626	-74.561	-84.536	-92.781	-60.351	-22.706	-92.762	-88.183	-8.831	28.521	-89.035	-84.282	-83.616	-79.194	11.805	-79.697	-8191	255	
857.865	1	1	0	0	0.12913	0.20282	0.27717	0.33712	0.14916	0.092803	0.074934	0.304	0.22798	0.26475	0.23888	0.13694	0.17931	0.078043	0.089188	0.17187	-2.4125	-2.275	-2.65	-2.8458	-2.4688	-2.8146	-2.5646	-2.5417	-2.6937	-2.3396	-2.9271	-2.6667	-2.3771	-2.75	-2.4813	-2.675	19.309	198.306	144.227	218.229	98.077	249.996	145.696	216.641	-22.365	107.208	144.912	158.615	219.723	159.073	232.349	131.284	0.00023854	0.00029529	0.00010598	1276.2	3.611e-06	3.363e-06	1281.3	343.96	2.9955e-06	6.8347e-06	396.39	133.07	114.16	39.161	2.8264e-06	49.259	0.00018562	0.00018267	5.0682e-05	1221.6	2.0091e-06	2.0034e-06	1231.7	328.26	2.0193e-06	2.0242e-06	369.46	123.49	105.25	36.473	2.0389e-06	44.998	-80.920	-78.982	4.951	-92.850	-97.230	-16.634	-93.042	-88.049	-16.765	80.747	-88.785	-84.341	-83.597	-79.292	-16.488	-80.261	-8191	255	
857.985	1	1	0	0	0.10343	0.13938	0.27168	0.19935	0.1946	0.12428	0.27174	0.38062	0.2692	0.088394	0.17687	0.18559	0.21366	0.26444	0.063318	0.19694	-2.4146	-2.2313	-2.7958	-2.7896	-2.2083	-2.9958	-2.7354	-2.6146	-2.7729	-2.3	-2.8375	-2.8333	-2.4188	-2.7667	-2.5479	-2.4625	239.893	74.337	-35.687	217.867	121.036	-3.852	199.728	222.439	165.910	24.338	250.699	202.837	-72.773	-80.763	20.608	224.608	0.00032222	0.00018129	6.2326e-05	1275.6	4.34e-06	1.3057e-06	1281.3	343.55	4.5594e-07	2.1687e-06	396.98	132.54	114.07	39.134	1.8853e-06	48.992	0.00018843	0.0001835	5.1506e-05	1222.3	2.0421e-06	2.026e-06	1231.1	328.61	2.0215e-06	2.0269e-06	369.04	123.52	105.04	36.492	2.0156e-06	44.875	-89.862	-3.049	-61.156	-93.062	26.044	177.173	-92.984	-88.090	-35.545	173.800	-89.127	-84.109	-83.898	-79.417	112.507	-80.104	-8191	255	
858.081	1	1	0	0	0.045787	0.25384	0.2068	0.20318	0.1806	0.23857	0.30964	0.1015	0.07577	0.16764	0.28275	0.13441	0.19014	0.2293	0.22773	0.083387	-2.5604	-2.3563	-2.6542	-2.8896	-2.2687	-2.9688	-2.8729	-2.5438	-2.8812	-2.3979	-2.6437	-3.0229	-2.3604	-2.7583	-2.5583	-2.3729	36.218	56.986	-79.641	105.263	-100.472	-74.177	175.428	39.477	13.336	242.268	228.034	142.838	0.060	-5.846	39.470	134.790	0.00024109	8.0209e-05	9.8579e-05	1275.8	6.4978e-06	2.2886e-06	1284	344.53	3.3606e-06	4.3077e-06	397.7	132.97	114.23	39.206	4.6733e-06	48.846	0.00018614	0.00018325	5.0714e-05	1222	2.0041e-06	1.9966e-06	1230.2	328.1	2.0118e-06	1.9962e-06	369.56	123.46	104.98	36.511	2.0121e-06	44.93	-64.929	-27.014	-56.278	-93.015	4.005	-70.972	-92.981	-88.042	-42.534	13.000	-89.013	-84.260	-83.808	-79.172	4.795	-80.131	-8191	255	
858.178	1	1	0	0	0.18793	0.077804	0.24287	0.33096	0.20552	0.16393	0.26871	0.25531	0.072307	0.26523	0.037159	0.2112	0.13902	0.12226	0.14517	0.11957	-2.4562	-2.5479	-2.5938	-3.0354	-2.4354	-2.7313	-2.6875	-2.5021	-2.8583	-2.5292	-2.5646	-2.9229	-2.4479	-2.9125	-2.5896	-2.5167	159.678	57.593	4.995	193.526	245.187	-85.780	156.756	230.663	130.080	50.713	43.808	-70.015	65.521	94.855	34.645	143.838	0.00023822	0.00012015	5.745e-05	1276.4	3.6636e-06	3.8726e-07	1284.6	343.2	2.2427e-06	3.4415e-06	398.6	132	114.93	39.314	1.88e-06	49.04	0.00018617	0.00018431	5.1236e-05	1220.5	2.0154e-06	2.0192e-06	1230.9	328.19	2.01e-06	1.999e-06	369.43	123.24	105.24	36.547	2.0137e-06	44.963	-74.274	-18.651	-41.943	-92.897	211.436	132.788	-92.910	-88.004	37.691	37.897	-88.852	-84.340	-83.687	-79.165	-27.792	-79.870	-8191	255	
858.249	1	1	0	0	0.14947	0.26912	0.27437	0.18464	0.24748	0.1638	0.10706	0.21053	0.056419	0.031949	0.095069	0.1106	0.18249	0.27785	0.11522	0.13346	-2.3375	-2.5833	-2.3646	-2.8292	-2.5354	-2.6896	-2.825	-2.5958	-2.6708	-2.5375	-2.5292	-3.0812	-2.525	-2.6146	-2.7125	-2.3271	232.037	-61.598	-98.149	220.899	244.654	75.991	213.988	215.435	-82.542	221.865	174.816	242.736	87.158	252.846	106.973	194.872	0.00022866	0.000666	0.00012519	1273.1	2.3284e-06	1.6133e-06	1287.3	344.11	5.1312e-06	1.9599e-06	396.47	132.51	114.42	39.193	1.4016e-06	49.123	0.00018529	0.00018473	5.1084e-05	1219.6	2.0121e-06	2.0019e-06	1231.2	328.03	2.0087e-06	1.9908e-06	368.6	123.48	105.21	36.415	2.0019e-06	44.916	-87.974	-42.145	-6.284	-92.925	56.521	20.298	-93.131	-87.950	38.017	64.868	-88.768	-84.457	-83.661	-79.270	23.677	-79.831	-8191	255	
858.370	1	1	0	0	0.28778	0.13169	0.1651	0.17936	0.31763	0.16856	0.20116	0.25713	0.3194	0.17458	0.081743	0.083171	0.153	0.24443	0.083559	0.32082	-2.4667	-2.4333	-2.4938	-3.0938	-2.475	-2.6146	-2.9667	-2.5062	-2.8896	-2.5083	-2.3833	-2.9708	-2.7708	-2.6458	-2.9313	-2.35	-104.920	241.789	3.515	-91.825	94.655	189.891	147.399	199.520	22.331	95.927	107.985	187.327	169.763	224.959	39.511	235.221	0.0001948	0.00027161	0.00018258	1272.7	4.1596e-06	2.4212e-06	1281.3	343.92	1.3013e-06	8.3192e-07	396.71	131.95	114.26	39.1	3.7109e-06	48.835	0.00018515	0.00018104	5.0847e-05	1219.2	1.9995e-06	2.0039e-06	1230	328.15	1.9971e-06	1.99e-06	369.17	123.29	105.05	36.494	1.9983e-06	44.917	-76.816	249.919	-13.955	-92.861	123.126	11.763	-92.856	-87.968	173.526	49.574	-88.599	-84.176	-83.768	-79.252	-48.113	-80.093	-8191	255	
858.466	1	1	0	0	0.21325	0.22649	0.18649	0.36255	0.17849	0.18947	0.30699	0.092661	0.10655	0.053471	0.085793	0.084111	0.17477	0.35073	0.11877	0.094087	-2.3625	-2.5542	-2.3563	-3.0542	-2.5021	-2.6021	-3.0042	-2.575	-2.5083	-2.6521	-2.5708	-2.9396	-2.5146	-2.5896	-2.8646	-2.5583	-58.239	237.536	116.039	245.741	212.272	241.996	181.780	123.389	10.247	-60.252	178.117	224.731	-90.952	208.807	113.417	97.147	0.0002681	0.00039831	0.00010795	1275.6	9.3343e-07	3.0924e-06	1282.6	344.6	1.6044e-06	1.3957e-06	397.78	133.21	114.3	39.066	5.1565e-06	48.66	0.00018614	0.00018295	5.1128e-05	1221.5	2.0067e-06	2.0249e-06	1229.8	327.87	2.0064e-06	2.0192e-06	369.73	123.57	105.11	36.44	2.0193e-06	44.879	-85.373	-104.400	-18.925	-92.839	-14.133	-49.338	-92.734	-88.094	20.293	-2.707	-88.781	-84.172	-83.625	-79.277	64.317	-79.704	-8191	255	
858.562	1	1	0	0	0.24402	0.12298	0.086858	0.23676	0.20399	0.17183	0.1059	0.11944	0.052051	0.14896	0.046123	0.17006	0.22231	0.07115	0.27234	0.11489	-2.3979	-2.625	-2.4208	-3.0042	-2.5104	-2.4958	-2.9354	-2.4583	-2.6625	-2.775	-2.6542	-2.8417	-2.5896	-2.5625	-2.8458	-2.4271	34.310	138.582	-10.362	233.795	-23.555	170.384	152.739	143.338	-6.313	-47.063	179.850	53.303	-15.213	134.964	151.861	229.346	0.00028052	0.000923	0.00010805	1275.8	2.3665e-06	2.9229e-06	1285.1	343.77	9.9852e-07	5.8465e-06	395.83	132.23	114.75	39.042	4.1336e-06	49.035	0.00018608	0.0001838	5.0989e-05	1219.8	2.0152e-06	2.0035e-06	1230.9	327.92	2.0275e-06	2.0103e-06	369.26	123.33	105.19	36.451	2.0323e-06	44.977	-59.410	-78.773	-31.470	-92.932	24.390	-38.532	-92.772	-88.065	-9.602	18.166	-88.867	-84.314	-83.826	-79.476	38.336	-79.735	-8191	255	
858.658	1	1	0	0	0.093233	0.42594	0.22677	0.27418	0.33218	0.089592	0.19455	0.25564	0.12147	0.050548	0.17438	0.26554	0.17723	0.17147	0.12086	0.16066	-2.2104	-2.7042	-2.1771	-2.9958	-2.8	-2.2896	-3.0667	-2.575	-2.4292	-2.7562	-2.5229	-2.6917	-2.8333	-2.4333	-2.9188	-2.5979	231.651	169.870	246.436	202.025	61.050	241.398	128.045	205.405	-4.601	193.072	158.011	149.770	124.982	243.551	71.733	163.409	0.00022184	0.00026012	0.00011962	1273.8	5.0772e-06	1.7612e-06	1281.9	343.94	2.2884e-06	5.181e-06	396.28	132.83	115.02	39.147	1.7175e-06	48.819	0.00018881	0.00018496	5.1688e-05	1219.9	2.0332e-06	2.037e-06	1229.3	327.88	2.0407e-06	2.0173e-06	369.03	123.39	105.23	36.435	2.015e-06	44.845	-87.815	-34.388	-43.073	-92.876	37.732	75.023	-92.980	-87.789	41.110	66.784	-88.738	-84.099	-83.842	-79.377	29.726	-79.782	-8191	255	
858.779	1	1	0	0	0.051438	0.062469	0.03547	0.080175	0.1365	0.22874	0.37719	0.32243	0.16043	0.026652	0.29322	0.097444	0.21834	0.16097	0.21042	0.15688	-2.1896	-2.7958	-2.4396	-2.7917	-2.6875	-2.2438	-3.0583	-2.6875	-2.325	-2.8646	-2.5083	-2.8667	-2.8979	-2.4146	-2.8417	-2.6917	32.350	179.485	182.277	138.326	85.895	174.893	234.920	245.900	134.936	36.494	171.931	111.461	-31.611	-83.330	128.815	-85.671	0.00020048	0.00030115	5.5171e-05	1274.6	9.1771e-07	2.3484e-06	1284.2	344.44	1.5139e-06	8.7721e-07	396.81	132.38	114.58	39.021	3.2129e-06	49.021	0.00018617	0.00018487	5.1061e-05	1221	2.0279e-06	2.018e-06	1230.8	328.38	2.0248e-06	2.0124e-06	369.1	123.28	104.91	36.4	2.0164e-06	44.884	-68.388	-72.672	137.621	-92.986	-53.309	-105.864	-92.996	-88.150	60.312	-51.633	-88.768	-84.258	-83.528	-79.185	-77.012	-80.006	-8191	255	
858.851	1	1	0	0	0.0069231	0.17439	0.20489	0.18189	0.086287	0.11741	0.22222	0.18828	0.36715	0.09128	0.081604	0.19251	0.25254	0.2135	0.02517	0.16959	-1.9917	-2.575	-2.6521	-2.6354	-2.675	-2.2521	-2.9375	-2.7875	-2.3812	-2.8667	-2.6521	-2.7167	-2.9938	-2.4708	-2.6458	-2.7188	246.572	166.036	-70.539	-86.049	79.212	63.717	224.703	-84.223	232.326	68.218	134.241	202.882	14.900	-87.928	63.458	222.953	0.00026039	0.00061909	0.00011705	1273.7	4.2823e-06	4.7419e-06	1284.3	345.3	1.479e-06	3.6923e-06	396.63	132.67	114.37	39.049	3.895e-06	48.98	0.00018727	0.00018342	5.1324e-05	1218.1	2.0418e-06	2.0171e-06	1229.5	328.37	2.0311e-06	2.0286e-06	368.76	123.47	105.15	36.5	2.0294e-06	44.874	-69.615	-44.442	30.482	-92.981	45.503	-2.289	-92.946	-88.139	-40.324	78.929	-88.622	-84.252	-83.780	-79.421	12.117	-80.065	-8191	255	
858.969	1	1	0	0	0.086769	0.042497	0.1714	0.38699	0.053294	0.20603	0.22203	0.13165	0.2882	0.2501	0.18702	0.021721	0.19868	0.0057536	0.099103	0.15154	-1.8917	-2.875	-2.3917	-2.6063	-2.8187	-2.2438	-2.7458	-2.7687	-2.25	-2.8292	-2.4958	-2.5375	-2.7083	-2.1583	-2.7771	-2.8438	93.557	41.752	-73.643	185.887	-47.788	148.554	189.660	231.163	90.624	147.380	187.577	-25.580	190.532	134.142	184.799	218.118	0.00022412	0.00016456	5.0938e-05	1275.4	9.8688e-07	1.6294e-06	1279.5	344.35	3.7832e-06	3.1229e-06	396.05	133.24	114.23	39.106	1.2295e-06	49.014	0.00018702	0.00018376	5.1409e-05	1220.3	2.023e-06	2.0038e-06	1228.7	327.91	2.0238e-06	2.0104e-06	369.16	123.45	104.87	36.411	2.0063e-06	44.849	-64.561	234.450	-75.842	-93.003	-25.069	-27.345	-92.885	-87.847	-17.454	25.201	-89.151	-84.260	-83.688	-79.091	61.286	-80.115	-8191	255	
859.066	1	1	0	0	0.212	0.070394	0.21121	0.11165	0.060762	0.067969	0.17884	0.17687	0.20157	0.31124	0.053529	0.076637	0.083775	0.095666	0.217	0.033861	-1.6875	-2.6958	-2.4437	-2.5396	-2.6583	-2.5542	-2.6854	-2.875	-2.0687	-2.7271	-2.7292	-2.3354	-2.9458	-2.325	-2.6292	-2.7875	207.236	-103.743	94.517	191.607	245.058	19.379	217.291	144.813	-44.344	-66.785	-59.238	-57.002	-44.865	168.261	-12.045	26.068	0.00026269	5.0972e-05	6.0005e-05	1273	3.0044e-06	3.2984e-06	1287.9	344.61	3.2613e-07	7.9756e-07	396.35	132.62	114.37	39.016	3.2102e-06	48.929	0.0001864	0.00018336	5.1076e-05	1219.4	2.0067e-06	1.9998e-06	1231.1	327.92	2.0035e-06	1.9822e-06	368.69	123.32	104.94	36.391	1.9997e-06	44.894	-88.213	-87.681	56.368	-92.969	-60.633	-52.081	-92.952	-88.015	129.199	-35.267	-88.686	-84.278	-83.625	-79.443	23.716	-79.823	-8191	255	
859.162	1	1	0	0	0.26804	0.12549	0.089554	0.090983	0.13481	0.036877	0.11923	0.060696	0.28351	0.10673	0.12317	0.39066	0.22012	0.41633	0.087732	0.31323	-1.8062	-2.6125	-2.5812	-2.4604	-2.9229	-2.3354	-2.7271	-2.8312	-2.4167	-2.6437	-2.9313	-2.6396	-2.925	-2.5833	-2.4542	-2.8458	48.278	162.590	61.688	189.473	-101.063	100.351	174.441	138.155	26.690	122.902	95.510	217.221	55.618	217.032	92.584	204.482	0.00022445	0.00069083	1.6611e-05	1272.1	5.9367e-06	4.181e-06	1282	343.23	1.5637e-06	3.0294e-06	397.02	132.27	113.76	38.999	2.3619e-06	48.988	0.00018416	0.00018272	5.0881e-05	1218.5	2.0051e-06	1.9787e-06	1227.5	327.08	1.9862e-06	1.9895e-06	368.88	123.16	104.75	36.408	2.0041e-06	44.848	-88.579	-96.329	-6.394	-93.058	17.002	-11.028	-92.888	-88.040	-24.509	87.815	-88.923	-84.224	-83.629	-79.361	3.148	-80.212	-8191	255	
859.258	1	1	0	0	0.12841	0.20248	0.097531	0.22905	0.04385	0.25095	0.27638	0.18368	0.12188	0.25324	0.12136	0.13858	0.2897	0.085088	0.14702	0.04632	-1.9292	-2.7313	-2.6042	-2.7042	-2.8	-2.3771	-2.6	-2.9792	-2.3708	-2.6	-2.9313	-2.3208	-2.8979	-2.5854	-2.4	-3.0208	235.718	192.857	31.048	-16.433	7.076	-102.422	206.105	169.482	-74.766	189.747	241.775	223.256	215.382	203.078	51.639	9.983	0.00021722	0.00074634	5.7891e-05	1267.4	3.7648e-06	2.3401e-06	1280.4	342.49	1.1231e-06	1.7398e-06	396.38	132.18	113.84	38.914	2.3994e-06	48.844	0.00018318	0.0001816	5.0284e-05	1216.4	1.9721e-06	1.9584e-06	1227.6	326.87	1.9667e-06	1.957e-06	368.12	122.9	104.69	36.316	1.9723e-06	44.77	-83.096	-56.448	23.336	-93.018	-104.918	-39.720	-92.985	-88.045	80.171	217.622	-88.932	-83.831	-83.503	-79.316	19.298	-80.131	-8191	255	
859.379	1	1	0	0	0.18739	0.095945	0.10179	0.40672	0.13114	0.22003	0.26232	0.37541	0.25238	0.28894	0.20945	0.2976	0.24057	0.15171	0.081526	0.39583	-2.1104	-2.575	-2.7687	-2.35	-2.8208	-2.5229	-2.7083	-3.0042	-2.3167	-2.6708	-2.9604	-2.3	-2.9167	-2.8292	-2.2646	-3.0312	91.563	68.507	109.206	238.365	197.234	-46.405	165.918	175.574	12.858	-47.882	184.033	173.717	198.727	164.711	73.838	188.746	0.00029286	0.00044958	4.9652e-05	1274	6.1805e-06	4.649e-06	1279.5	344.1	5.1697e-06	3.3898e-06	395.98	133.41	113.95	39.051	3.0801e-06	48.737	0.00018052	0.00017721	4.9815e-05	1216.6	1.9518e-06	1.9586e-06	1227.5	326.97	1.9558e-06	1.9565e-06	367.48	123.14	104.52	36.294	1.9415e-06	44.735	-87.078	243.454	-84.397	-93.035	33.788	34.444	-93.126	-88.128	-70.028	48.846	-88.728	-84.038	-83.400	-79.234	23.834	-80.015	-8191	255	
859.475	1	1	0	0	0.24643	0.13563	0.12856	0.15208	0.080103	0.2155	0.13864	0.26592	0.24046	0.20919	0.14384	0.12497	0.2489	0.29567	0.24077	0.21695	-2.1875	-2.5646	-2.6125	-2.4083	-2.7771	-2.5687	-2.6083	-2.7938	-2.4042	-2.5062	-2.8146	-2.3542	-2.7146	-2.7396	-2.2604	-2.9521	-40.825	213.864	85.370	212.300	113.233	-2.849	140.673	204.728	155.741	101.249	-90.216	166.581	178.726	162.570	-84.218	-83.195	0.00022324	0.00013236	0.00014993	1271.3	3.7523e-06	2.7876e-06	1280.8	343.15	2.3983e-06	1.3597e-06	394.72	132.88	113.96	39.001	4.5513e-06	48.776	0.00018066	0.00017894	4.9206e-05	1216.6	1.954e-06	1.949e-06	1225.9	326.88	1.9519e-06	1.9597e-06	367.25	123.02	104.68	36.286	1.9401e-06	44.732	-58.461	225.047	-37.056	-92.820	-21.439	47.809	-92.709	-88.097	241.480	234.850	-88.759	-84.309	-83.751	-79.223	23.156	-80.183	-8191	255	
859.546	1	1	0	0	0.10398	0.16887	0.10142	0.38418	0.1892	0.26433	0.30615	0.25578	0.043191	0.2568	0.13562	0.10666	0.24203	0.12842	0.059584	0.1044	-1.8542	-2.3792	-2.9083	-2.5729	-2.5104	-2.7042	-2.3708	-2.8917	-2.3979	-2.5896	-2.9917	-2.3708	-2.6813	-2.8104	-2.3021	-3.0417	165.942	-76.206	245.851	-104.224	22.441	82.943	169.426	135.453	87.107	-73.419	-79.472	124.865	248.938	224.117	163.025	-10.056	0.00018597	0.00019361	0.00016103	1273.2	5.3697e-06	7.1582e-06	1281.5	342.45	2.7597e-06	1.5508e-06	394.97	131.58	113.9	39.011	3.9081e-06	48.862	0.00018084	0.00017854	4.9274e-05	1216.3	1.9579e-06	1.9385e-06	1227.7	326.64	1.9627e-06	1.9586e-06	367.63	122.91	104.72	36.339	1.9629e-06	44.703	-72.298	241.327	-9.068	-92.970	-0.731	2.597	-92.776	-88.148	196.687	181.794	-88.876	-84.363	-83.582	-79.198	61.997	-79.970	-8191	255	
859.643	1	1	0	0	0.2383	0.097036	0.15208	0.3396	0.046248	0.12352	0.17061	0.070424	0.11032	0.1304	0.38317	0.30231	0.23656	0.33905	0.12707	0.14975	-2.1604	-2.3667	-2.6208	-2.6292	-2.5604	-2.725	-2.6125	-2.8187	-2.725	-2.2958	-2.9583	-2.6042	-2.5021	-2.8563	-2.2687	-2.7125	211.409	98.392	237.601	-76.913	31.055	9.501	246.289	216.016	3.845	234.683	-102.251	126.708	237.718	-34.266	-62.109	232.647	0.00019655	0.00031915	0.00012979	1271.4	3.1034e-06	3.1429e-06	1280.5	343.07	3.6835e-06	3.8113e-06	395.69	132.36	114.25	39.078	1.5993e-06	49.062	0.00018189	0.00017941	4.9518e-05	1215.2	1.9837e-06	1.9497e-06	1224.4	326.95	1.9562e-06	1.9586e-06	367.51	123.14	104.57	36.336	1.9493e-06	44.762	-89.504	-66.914	-26.094	-92.965	-10.882	38.468	-92.920	-88.134	-12.231	57.577	-88.758	-83.952	-83.985	-79.398	60.749	-79.772	-8191	255	
859.761	1	1	0	0	0.35521	0.04245	0.26619	0.37745	0.15477	0.17546	0.36896	0.17515	0.21718	0.12755	0.25406	0.19633	0.21492	0.2998	0.24001	0.31677	-2.2062	-2.3729	-2.7208	-2.5271	-2.5396	-2.6583	-2.5062	-2.9562	-2.5687	-2.3271	-2.8812	-2.5583	-2.7708	-2.8708	-2.3792	-2.8292	-53.056	-75.030	199.251	-68.691	208.478	211.701	166.094	177.597	131.499	-63.061	231.998	159.796	57.196	189.225	43.831	160.124	0.00022364	0.00021922	0.00014316	1272.2	2.853e-06	3.3279e-06	1280.4	341.73	2.9222e-06	6.2971e-06	395.84	132.57	114.01	39.002	2.581e-06	48.688	0.0001816	0.00017825	4.9754e-05	1215.5	1.9557e-06	1.9554e-06	1225.8	326.42	1.9577e-06	1.9538e-06	367.6	122.92	104.78	36.303	1.955e-06	44.728	-94.639	225.187	-26.296	-92.943	35.345	-73.291	-92.961	-87.962	112.640	6.051	-89.025	-83.973	-83.654	-79.331	29.484	-79.738	-8191	255	
859.858	1	1	0	0	0.22122	0.049098	0.20113	0.26161	0.14506	0.1514	0.083342	0.25023	0.16717	0.070961	0.20259	0.20394	0.19056	0.099214	0.17736	0.091448	-2.2104	-2.2229	-2.7271	-2.7812	-2.1833	-2.7979	-2.5667	-2.7562	-2.6917	-2.3979	-2.7625	-2.6521	-2.3375	-2.9021	-2.3833	-2.8521	-30.259	150.695	223.746	-95.620	175.234	157.643	-70.603	149.489	190.537	-83.138	240.095	196.524	154.095	242.665	207.410	118.963	0.00022981	6.6157e-05	3.9221e-05	1271.6	3.1635e-06	7.1369e-06	1280.8	342.04	1.9183e-06	4.4569e-06	393.97	132.41	114.63	39.018	2.6694e-06	48.911	0.00018019	0.00017769	4.9482e-05	1215.9	1.9454e-06	1.9399e-06	1225.8	326.76	1.9584e-06	1.9522e-06	367.03	122.76	104.82	36.32	1.9536e-06	44.793	-86.777	-82.390	-44.462	-92.894	111.795	-7.908	-92.894	-87.874	-50.453	61.308	-89.006	-84.163	-83.611	-79.251	2.443	-79.795	-8191	255	
859.954	1	1	0	0	0.088594	0.218	0.15449	0.10705	0.17725	0.31547	0.032128	0.16095	0.082298	0.22007	0.18352	0.29946	0.17807	0.073878	0.15103	0.058403	-2.3021	-2.2521	-2.7479	-2.7854	-2.4229	-2.8604	-2.7208	-2.6917	-2.9021	-2.4958	-2.8458	-2.8479	-2.2833	-2.8708	-2.5062	-2.5812	22.035	-44.707	46.812	198.977	12.487	39.565	26.981	252.013	187.542	222.012	230.595	195.178	134.125	229.436	210.464	-94.291	0.0002	0.00034619	0.0001486	1267.7	3.1257e-06	7.291e-07	1280	342.72	2.0707e-06	2.3037e-06	395	131.61	113.75	39.086	5.0216e-06	48.852	0.00018128	0.00017686	4.9277e-05	1214.6	1.9369e-06	1.9378e-06	1225.3	326.52	1.9445e-06	1.9291e-06	367.49	122.6	104.46	36.269	1.9416e-06	44.7	-87.531	181.535	-64.525	-92.892	156.765	156.075	-92.832	-87.820	-19.163	138.641	-88.824	-84.046	-83.686	-79.223	67.264	-79.874	-8191	255	
860.050	1	1	0	0	0.12737	0.097541	0.12927	0.25493	0.12613	0.20536	0.21552	0.16992	0.15761	0.32606	0.067989	0.072286	0.23499	0.077551	0.21019	0.18549	-2.3417	-2.4375	-2.7292	-2.7896	-2.3042	-2.825	-2.8271	-2.5062	-2.8604	-2.4	-2.7708	-2.9604	-2.4667	-2.7542	-2.5917	-2.5625	191.790	179.342	-61.659	233.014	26.643	76.058	189.976	-20.970	34.477	12.427	192.680	40.508	-15.722	57.255	-50.348	217.423	0.00021654	0.00081776	7.9997e-05	1269.5	1.4457e-06	4.0005e-06	1280	343.53	1.2845e-06	2.2281e-06	396.69	132.32	114.34	39.094	4.3462e-06	48.689	0.00017855	0.00017672	4.925e-05	1215.4	1.944e-06	1.933e-06	1226.1	326.77	1.9469e-06	1.9388e-06	367.42	122.81	104.69	36.362	1.9611e-06	44.696	-92.508	-77.192	247.479	-93.006	-20.383	47.438	-92.848	-87.894	-44.737	122.292	-88.966	-84.269	-83.700	-79.196	-19.582	-80.060	-8191	255	
860.146	1	1	0	0	0.14762	0.20868	0.13917	0.3702	0.21597	0.2149	0.41988	0.29347	0.2096	0.19687	0.24422	0.16458	0.055438	0.35396	0.10117	0.019013	-2.4708	-2.45	-2.6375	-2.9938	-2.3521	-2.8979	-2.7479	-2.5812	-2.9292	-2.4667	-2.8521	-3.0563	-2.3229	-2.7083	-2.5812	-2.4125	200.926	189.421	-83.322	233.614	174.957	15.695	203.873	218.093	-45.728	-83.241	250.766	211.415	6.715	-94.947	-54.101	224.962	0.00032382	0.00043603	0.00010454	1263.6	4.9147e-06	3.3998e-06	1280.4	342.99	2.3623e-06	3.6038e-06	396.34	132.25	114.25	39.055	6.4158e-06	48.82	0.0001804	0.00017797	4.96e-05	1212.8	1.946e-06	1.942e-06	1226	326.81	1.9614e-06	1.9568e-06	368.17	122.98	104.5	36.309	1.946e-06	44.629	-84.323	-3.010	-68.197	-92.984	11.431	-52.000	-92.813	-88.107	-44.163	8.397	-88.866	-84.117	-83.569	-79.245	35.188	-79.797	-8191	255	
860.242	1	1	0	0	0.16336	0.21988	0.31664	0.24823	0.10783	0.027252	0.21102	0.12155	0.22652	0.059854	0.10457	0.31094	0.20811	0.17874	0.18412	0.1226	-2.5271	-2.5271	-2.6958	-3.1167	-2.3958	-2.9375	-2.825	-2.575	-2.8708	-2.5229	-2.7729	-2.8229	-2.6417	-2.8375	-2.7542	-2.2938	180.614	196.684	25.802	247.712	-48.132	151.412	-72.957	221.846	50.410	233.733	-41.042	147.864	153.916	180.218	72.981	158.024	0.00026192	0.00062084	0.00015453	1269.4	4.3646e-06	2.9221e-06	1281.1	342.83	4.1612e-06	6.6588e-06	395.96	132.41	114.25	39.088	2.2695e-06	48.856	0.00018031	0.00017773	4.937e-05	1215.3	1.975e-06	1.945e-06	1226.3	326.99	1.95e-06	1.9491e-06	367.72	123.05	104.68	36.318	1.9665e-06	44.678	-69.142	232.070	-80.195	-92.833	-32.050	59.119	-92.893	-87.994	24.710	-9.788	-88.898	-84.375	-83.676	-79.350	45.914	-80.029	-8191	255	
860.338	1	1	0	0	0.094399	0.12527	0.17538	0.14209	0.13692	0.22012	0.33493	0.16492	0.076141	0.12128	0.44506	0.069666	0.049193	0.32384	0.030935	0.060789	-2.2854	-2.6917	-2.4167	-3.0625	-2.3729	-2.6708	-2.975	-2.55	-2.7854	-2.7479	-2.4583	-2.8583	-2.4625	-2.6604	-2.7792	-2.3333	-101.206	91.126	104.580	-23.236	130.090	116.454	152.090	170.823	72.922	-53.836	204.233	165.049	36.188	-85.903	-62.902	-18.604	0.0002733	0.00040852	7.3706e-05	1272.2	1.8686e-06	3.4645e-06	1281.3	342.58	5.2065e-06	2.1139e-06	395.84	132.11	114.06	39.046	1.0279e-06	48.742	0.00018067	0.00017947	4.965e-05	1214.4	1.9402e-06	1.9466e-06	1224.3	326.49	1.9482e-06	1.9425e-06	366.91	122.83	104.45	36.262	1.9671e-06	44.653	-93.575	218.068	-80.344	-92.826	237.148	251.033	-92.834	-87.966	-34.901	23.649	-88.923	-84.307	-83.612	-79.251	-8.551	-80.128	-8191	255	
860.459	1	1	0	0	0.12857	0.17263	0.18615	0.25445	0.1651	0.13495	0.076496	0.29335	0.11903	0.15917	0.15181	0.43174	0.32592	0.21725	0.057403	0.11814	-2.4521	-2.5625	-2.4604	-2.925	-2.3063	-2.5708	-2.8854	-2.5896	-2.9583	-2.4646	-2.2271	-2.5542	-2.1792	-2.3438	-2.7188	-2.2333	118.214	219.240	34.810	207.671	0.244	171.991	146.142	211.806	-11.723	237.069	131.219	234.634	231.034	167.384	49.067	187.582	0.00026729	0.00024378	1.9299e-05	1268.7	1.6179e-06	5.0401e-06	1280.8	344.34	1.0019e-06	2.0128e-06	395.77	132.58	113.93	39.007	9.9561e-07	49.069	0.0001814	0.00017848	4.9575e-05	1215.7	1.9578e-06	1.9524e-06	1225.4	327.19	1.9609e-06	1.9609e-06	367.94	122.9	104.55	36.347	1.9719e-06	44.773	-101.841	-61.032	14.191	-93.001	90.073	2.832	-92.723	-87.957	193.874	0.934	-88.823	-84.217	-83.594	-79.406	1.013	-79.885	-8191	255	
860.555	1	1	0	0	0.22528	0.24743	0.2046	0.51236	0.15965	0.087137	0.1721	0.30357	0.1098	0.14005	0.08481	0.25855	0.31925	0.35307	0.055502	0.17251	-2.0438	-2.3563	-1.9771	-2.6292	-2.2354	-2.1521	-2.8979	-2.2833	-2.2917	-2.5958	-2.1312	-2.6125	-2.3917	-2.3354	-2.6083	-2.2021	33.484	99.122	-6.276	-96.575	-45.390	-39.226	132.189	-100.955	176.389	-100.100	167.188	192.750	-48.263	-79.059	1.443	-67.370	0.00022812	0.00027157	3.6165e-05	1270.5	1.7185e-06	1.5272e-06	1277.9	343.06	3.354e-06	5.4647e-06	393	132.33	114.61	38.977	7.9444e-07	48.773	0.00018168	0.00017952	4.9622e-05	1215.5	1.9664e-06	1.9615e-06	1227	327.01	1.9797e-06	1.9656e-06	367.13	123.05	104.84	36.322	1.9738e-06	44.715	-89.016	-105.427	49.967	-92.989	218.523	20.666	-92.998	-88.075	-74.552	-56.027	-88.899	-84.228	-83.412	-79.157	8.180	-80.052	-8191	255	
860.651	1	1	0	0	0.15628	0.060898	0.096951	0.1729	0.18093	0.23925	0.2223	0.28699	0.20896	0.22646	0.12311	0.25312	0.047627	0.16695	0.1694	0.096494	-1.9604	-2.6271	-2.1292	-2.7938	-2.4271	-2.2042	-2.9229	-2.2604	-2.3688	-2.5458	-2.2875	-2.5563	-2.4521	-2.3	-2.5417	-2.2708	113.948	213.796	157.317	143.438	-103.697	250.365	215.194	195.202	9.178	73.581	228.363	245.609	106.853	235.088	-103.726	23.949	0.00023065	0.00036497	3.5917e-05	1268.1	6.1452e-06	3.3091e-06	1281.6	341.96	3.2003e-06	5.4304e-06	395.35	132.28	113.89	38.943	8.7217e-07	49.076	0.00018289	0.0001791	5.0175e-05	1214.5	1.9724e-06	1.9758e-06	1226.7	327.03	1.9916e-06	1.9629e-06	367.44	122.86	104.69	36.331	1.9625e-06	44.814	-72.758	-41.901	214.687	-92.869	-17.357	-47.826	-92.853	-88.108	9.197	42.941	-89.010	-84.261	-83.799	-79.008	-88.370	-79.806	-8191	255	
860.772	1	1	0	0	0.12089	0.071448	0.22868	0.062413	0.08182	0.088619	0.28093	0.076476	0.27093	0.12291	0.081362	0.11625	0.27647	0.17958	0.12151	0.17427	-1.8875	-2.6479	-1.9729	-2.7104	-2.5271	-2.2792	-2.7729	-2.5354	-2.3854	-2.5229	-2.3646	-2.525	-2.4	-2.1125	-2.7208	-2.3292	240.176	218.797	65.166	91.049	-63.453	-98.492	210.424	146.437	-60.880	250.972	169.770	20.417	51.399	172.932	122.681	45.087	0.00023679	0.00033617	8.8051e-05	1271.2	5.1992e-06	6.1701e-06	1277.8	343.74	1.4154e-06	2.4431e-06	395.04	132.58	113.45	39.074	2.9917e-06	49.058	0.00018255	0.00018038	5.0249e-05	1215.2	1.9742e-06	1.9734e-06	1225.1	327.19	1.9911e-06	1.9738e-06	367.63	122.89	104.67	36.355	1.9857e-06	44.832	-83.426	-90.623	-71.544	-92.875	8.703	-3.651	-93.029	-88.187	-0.114	9.824	-89.032	-84.226	-83.872	-79.299	84.854	-79.763	-8191	255	
860.844	1	1	0	0	0.25755	0.15409	0.12839	0.36974	0.14047	0.26419	0.13436	0.18868	0.32453	0.14506	0.039836	0.095377	0.10406	0.1378	0.11702	0.013821	-1.7917	-2.375	-2.1792	-2.525	-2.4604	-2.0708	-2.8917	-2.3542	-2.0563	-2.6146	-2.3458	-2.525	-2.6646	-2.1979	-2.55	-2.4583	161.517	-28.097	229.378	241.836	136.006	-79.580	151.736	195.683	239.664	12.633	137.159	9.061	0.247	214.316	139.329	251.205	0.00019579	0.00034589	0.00011366	1269	2.1829e-06	2.7923e-06	1280	342.56	4.6103e-06	2.0095e-06	395.74	131.85	114.46	39.042	3.8978e-06	48.963	0.00018494	0.00018317	5.0253e-05	1216.2	2.0124e-06	1.9823e-06	1226.5	326.89	1.9968e-06	1.9872e-06	367.7	122.94	104.78	36.376	2.0154e-06	44.745	-62.336	-2.186	23.408	-92.886	-12.292	-59.191	-93.070	-87.942	21.368	-8.916	-89.045	-84.193	-83.813	-79.455	-31.920	-80.062	-8191	255	
860.940	1	1	0	0	0.061469	0.073343	0.067979	0.22379	0.19846	0.19604	0.11051	0.0946	0.081211	0.14348	0.118	0.31805	0.076779	0.31976	0.25394	0.25157	-1.7792	-2.7083	-2.2208	-2.6312	-2.5771	-1.9688	-2.7062	-2.7542	-2.2021	-2.6958	-2.3667	-2.375	-2.6417	-2.2562	-2.5646	-2.4458	84.293	-44.418	-7.146	223.145	89.918	164.195	222.013	114.873	192.270	-13.764	187.142	186.529	232.938	155.976	238.317	40.025	0.00018094	0.00048096	8.1051e-05	1273.1	3.384e-06	2.6102e-06	1277	342.82	2.6044e-06	3.5058e-06	395.02	132.65	113.84	39.019	3.8895e-06	48.937	0.00018339	0.00018194	5.0732e-05	1217.5	1.9815e-06	1.9762e-06	1225.8	326.94	2.0047e-06	2.011e-06	367.67	123.16	104.95	36.362	2.0132e-06	44.794	-100.955	-69.509	-102.418	-92.886	-98.217	29.668	-92.974	-87.990	-31.050	28.600	-88.961	-84.288	-83.628	-79.400	70.059	-79.899	-8191	255	
861.059	1	1	0	0	0.21556	0.1732	0.18622	0.25829	0.22604	0.16655	0.16336	0.34769	0.14517	0.14864	0.22535	0.17372	0.17367	0.40393	0.18133	0.14556	-1.7667	-2.6104	-2.175	-2.4208	-2.6604	-2.1437	-2.6688	-2.6979	-2.0729	-2.6063	-2.4	-2.3958	-2.625	-2.2188	-2.3979	-2.5896	118.091	170.472	-60.998	247.587	81.660	91.883	143.770	163.604	-77.198	33.700	192.050	-98.817	250.080	249.771	-39.344	210.731	0.00026002	0.00044164	0.00010671	1272.6	3.6883e-06	6.0476e-06	1286	343.95	1.7235e-06	4.1322e-06	395.17	132.49	114.65	39.213	2.3071e-06	48.869	0.00018741	0.0001831	5.1217e-05	1216.9	2.0173e-06	2.0093e-06	1228.7	327.37	2.008e-06	2.0146e-06	368.43	123.28	105.17	36.44	2.0362e-06	44.875	-81.768	-10.547	13.546	-93.032	36.525	7.866	-92.870	-88.071	13.190	-6.938	-88.943	-84.290	-83.802	-79.167	79.234	-79.805	-8191	255	
861.155	1	1	0	0	0.07017	0.10811	0.18495	0.42742	0.18783	0.28299	0.29687	0.31764	0.14031	0.12288	0.35964	0.32557	0.039728	0.172	0.29004	0.073498	-1.7125	-2.4562	-2.2562	-2.2354	-2.5583	-2.1	-2.4146	-2.6375	-2.0563	-2.4396	-2.5479	-2.3979	-2.7	-2.275	-2.3646	-2.5917	-97.053	213.895	184.857	236.872	-69.921	249.740	227.992	114.034	95.746	11.969	203.413	176.998	183.759	87.318	8.355	-57.187	0.00026194	0.00057715	0.00012832	1272.4	2.5634e-06	4.6253e-06	1277	342.86	1.1584e-06	2.6273e-06	396.09	132.62	113.97	39.14	3.5759e-06	48.834	0.0001884	0.00018371	5.1657e-05	1218.8	2.0317e-06	2.0334e-06	1228.6	327.36	2.0495e-06	2.0495e-06	367.95	123.29	105.02	36.495	2.0477e-06	44.841	-94.052	-41.777	-38.518	-92.981	-35.791	14.624	-92.913	-87.973	248.192	71.764	-88.898	-84.214	-83.781	-79.446	37.969	-79.924	-8191	255	
861.251	1	1	0	0	0.072101	0.30515	0.1788	0.28122	0.19071	0.060699	0.20791	0.10631	0.15999	0.1412	0.3408	0.063382	0.1969	0.17881	0.14572	0.31232	-1.5083	-2.3833	-2.3875	-2.2812	-2.5417	-2.2667	-2.2542	-2.9021	-1.9354	-2.5083	-2.45	-2.2125	-2.5167	-2.4167	-2.35	-2.6604	36.526	-60.799	143.549	216.362	87.821	127.756	142.876	179.729	75.241	-85.097	195.763	-48.612	181.124	148.389	82.308	125.921	0.0002179	0.00034382	0.00015142	1274.7	5.2779e-06	2.933e-06	1274.9	342.93	1.8472e-06	3.7949e-06	395.8	132.51	114.47	39.105	2.01e-06	49.076	0.0001878	0.00018556	5.1536e-05	1219.2	2.0285e-06	2.0165e-06	1227.1	327.39	2.0227e-06	2.0161e-06	368.27	123.24	104.97	36.405	2.0249e-06	44.866	-82.497	223.577	-16.152	-92.809	45.810	1.623	-92.914	-88.063	229.851	4.407	-89.101	-84.225	-83.729	-79.513	-51.046	-80.088	-8191	255	
861.347	1	1	0	0	0.18063	0.15689	0.11077	0.059158	0.040719	0.13573	0.31625	0.13658	0.078617	0.30132	0.22557	0.30099	0.22687	0.29414	0.34678	0.26481	-1.8229	-2.4	-2.1188	-2.2542	-2.5229	-2.3979	-2.2333	-2.6937	-2.3354	-2.5812	-2.7021	-2.2562	-2.5729	-2.3125	-2.1729	-2.5375	-59.694	128.721	12.592	-24.119	170.616	-32.568	223.048	161.238	125.061	-13.857	-89.003	200.379	-1.042	250.531	-85.495	185.678	0.0003273	0.00041006	4.8965e-05	1272.7	4.6224e-07	4.5197e-06	1281.3	343.81	2.0027e-06	3.5034e-06	395.34	132.33	114.31	38.912	2.051e-06	48.815	0.00018796	0.00018564	5.106e-05	1217.2	2.0326e-06	2.0085e-06	1228.4	327.32	2.0106e-06	2.0038e-06	368.08	123.03	104.87	36.323	2.0036e-06	44.752	-81.850	-80.153	-15.000	-92.974	212.935	-42.309	-92.958	-88.029	-52.784	43.541	-88.973	-84.427	-83.735	-79.488	32.429	-79.871	-8191	255	
861.443	1	1	0	0	0.13465	0.17643	0.067563	0.18568	0.25786	0.3043	0.11262	0.15005	0.022351	0.085183	0.28108	0.047876	0.27561	0.26587	0.20134	0.20237	-1.7167	-2.2396	-2.4875	-2.1188	-2.2812	-2.4	-2.4313	-2.6917	-2.3917	-2.4208	-2.8125	-2.3396	-2.75	-2.5229	-2.0521	-2.7708	172.099	-74.861	-0.407	170.852	-21.994	9.768	217.756	186.012	159.646	-53.060	86.518	129.707	183.301	253.088	193.194	-58.490	0.00026662	0.00015798	0.00014295	1273.4	1.5908e-06	2.4988e-06	1281.1	343.09	1.526e-06	2.6997e-06	396.42	132.7	113.38	38.925	1.5069e-06	48.926	0.0001849	0.00018095	5.029e-05	1217	1.9809e-06	1.9806e-06	1226.5	326.78	1.9883e-06	1.9716e-06	367.63	123.16	104.62	36.324	1.979e-06	44.774	-87.653	231.749	-64.116	-92.930	-47.852	-80.939	-92.998	-87.944	-101.547	52.684	-88.593	-84.290	-83.935	-79.152	38.927	-79.983	-8191	255	
861.539	1	1	0	0	0.19783	0.026729	0.066814	0.10377	0.13053	0.12447	0.15073	0.33792	0.23651	0.17936	0.21687	0.096339	0.30872	0.12958	0.1543	0.27298	-1.7354	-2.3167	-2.5062	-2.4271	-2.4688	-2.4688	-2.3375	-2.7104	-2.2708	-2.1354	-2.75	-2.2354	-2.4604	-2.5521	-2.0521	-2.5792	204.372	227.145	195.404	139.413	231.871	154.060	135.212	233.466	120.410	60.767	226.143	-63.071	111.977	60.458	77.251	163.354	0.00026592	0.0003817	0.00014242	1269.3	3.4353e-06	5.0558e-06	1280.8	343.63	1.0186e-06	3.0151e-06	396.42	132.23	113.9	38.959	1.9637e-06	48.939	0.00018312	0.0001817	5.0114e-05	1216.3	1.996e-06	1.979e-06	1226.4	327.39	1.9793e-06	1.9857e-06	367.61	122.91	104.63	36.318	1.963e-06	44.763	-77.678	-51.754	-31.675	-93.080	44.672	-11.868	-92.859	-88.065	67.999	-62.788	-88.862	-84.204	-83.816	-79.408	-42.681	-80.085	-8191	255	
861.635	1	1	0	0	0.21151	0.014942	0.27225	0.37042	0.22843	0.12705	0.37401	0.28118	0.22312	0.15782	0.15602	0.017883	0.23457	0.30359	0.020237	0.38371	-1.9271	-2.25	-2.7146	-2.2417	-2.3167	-2.5583	-2.3667	-2.5646	-2.3125	-2.1417	-2.7125	-2.3542	-2.4479	-2.7979	-2.2	-2.8312	-32.661	-60.733	151.317	-91.566	-92.360	-44.023	173.152	202.112	-78.483	8.252	-104.554	-99.436	-78.375	-77.593	18.903	-99.074	0.00021816	0.00044739	0.00012121	1271.7	5.6982e-06	1.4384e-06	1279.6	343.04	6.6516e-07	1.7554e-06	393.96	132.19	113.8	38.842	2.0716e-06	48.619	0.00018236	0.0001799	4.9897e-05	1216.6	1.9694e-06	1.9583e-06	1225.2	326.57	1.9665e-06	1.9567e-06	367.27	122.91	104.46	36.252	1.959e-06	44.613	-70.276	-93.646	-20.885	-92.908	39.890	240.779	-92.915	-88.103	240.077	75.492	-88.977	-84.043	-83.737	-79.439	104.384	-80.133	-8191	255	
861.732	1	1	0	0	0.17063	0.22657	0.13985	0.30405	0.16269	0.33924	0.36598	0.44884	0.090603	0.19589	0.19265	0.067044	0.26104	0.063133	0.18364	0.11358	-1.9854	-2.2604	-2.5667	-2.4833	-2.4062	-2.6146	-2.1729	-2.625	-2.6	-2.1958	-2.7875	-2.2958	-2.4292	-2.6792	-2.3104	-2.4208	5.112	179.993	202.740	235.117	-100.958	6.895	213.057	204.787	253.688	219.250	220.444	112.092	199.960	117.110	182.710	-50.887	0.00024154	0.00036665	1.0728e-05	1268.9	4.3752e-06	8.4953e-07	1279	342.45	4.7011e-06	3.3477e-06	396.48	132.23	113.82	38.94	4.4413e-06	49.02	0.00017976	0.00017718	4.9544e-05	1213.7	1.9454e-06	1.9148e-06	1224.2	326.29	1.9541e-06	1.9556e-06	367.13	122.69	104.61	36.254	1.9635e-06	44.764	-81.022	-53.257	-15.679	-93.020	-6.135	102.454	-92.944	-87.945	108.543	62.987	-88.805	-84.095	-83.808	-79.327	46.989	-79.780	-8191	255	
861.850	1	1	0	0	0.36755	0.15928	0.18961	0.46668	0.094546	0.090987	0.21421	0.25551	0.24999	0.064888	0.029119	0.15185	0.19361	0.10634	0.1586	0.099612	-2.1188	-2.1354	-2.5438	-2.5312	-2.3667	-2.6521	-2.4542	-2.6562	-2.5687	-2.2667	-2.6917	-2.5208	-2.4333	-2.7062	-2.1854	-2.2917	-39.648	110.628	12.053	227.429	53.714	85.193	222.089	209.073	159.873	-12.068	104.840	-83.673	2.618	175.185	87.225	153.141	0.00021516	0.00060432	8.2359e-05	1269.8	3.248e-06	3.8578e-06	1278	342.65	3.3752e-06	2.313e-06	395.08	132.01	113.52	38.902	2.8404e-06	48.768	0.00018175	0.00017983	4.9928e-05	1215	1.9761e-06	1.9605e-06	1224.9	326.7	1.9763e-06	1.9652e-06	367.32	122.77	104.47	36.255	1.9481e-06	44.694	-95.612	-102.652	165.659	-92.814	96.277	38.845	-92.881	-88.145	36.997	-57.542	-88.812	-84.110	-83.577	-79.340	-14.220	-79.734	-8191	255	
861.947	1	1	0	0	0.21528	0.22441	0.15236	0.1212	0.25003	0.14453	0.11719	0.10223	0.11217	0.33198	0.15004	0.31484	0.13435	0.14617	0.13551	0.1624	-2.1042	-2.0583	-2.6437	-2.6771	-2.2354	-2.5854	-2.2979	-2.6625	-2.7146	-2.1437	-2.6604	-2.6125	-2.4313	-2.6771	-2.15	-2.55	-97.304	174.405	-102.552	250.324	-4.350	161.946	167.356	-99.680	154.379	121.734	83.785	2.707	213.474	143.912	85.595	171.501	0.00026449	0.00049085	0.00011287	1271.3	3.6653e-06	5.7378e-06	1285.8	342.94	4.0659e-06	3.3512e-06	394.89	132.53	113.94	38.965	4.6874e-06	49.01	0.00017917	0.00017756	4.8875e-05	1214.9	1.9356e-06	1.9181e-06	1225.8	326.34	1.9327e-06	1.91e-06	366.69	122.72	104.34	36.239	1.9465e-06	44.659	-93.344	-75.453	8.855	-93.031	230.472	2.605	-92.966	-87.937	-10.372	-27.398	-88.853	-84.212	-83.807	-79.231	-10.220	-79.781	-8191	255	
#DATA ENDS
