BOXY.EXE: ISS Imagent and Oximeter Data Acquisition Program Version 0.80
Ascii Record File

#ACQ INFORMATION
2  Detector Channels 
16  External MUX Channels 
1  Auxiliary Channels 
5000  Waveform (CCF) Frequency (Hz)
1  Waveforms Skipped 
30  Waveforms Averaged 
1  Cycles Averaged 
16  Acquisitions per Waveform 
10.0806  Updata Rate (Hz) 

#FILE INFORMATION
TRUE -- External MUX Channel results are PARSED.
FALSE -- AC DC and Phase are NOT grouped.
TRUE -- Companion Program Settings File CREATED.
FALSE -- AC data not excluded
FALSE -- DC data not excluded
FALSE -- Phase data not excluded
FALSE -- Auxillary Chn. data not excluded
Tab delimiters

#CALIBRATION STATE
TRUE -- Waveform Calibration Values APPLIED.


#AUX CALIBRATION VALUES
Val Type	aux-1	

Term	1.0000e+00	
Factor	0.0000e+00	


#WF CALIBRATION VALUES
A = Detector Channel
Val Type	A-AC1	A-AC2	A-AC3	A-AC4	A-AC5	A-AC6	A-AC7	A-AC8	A-AC9	A-AC10	A-AC11	A-AC12	A-AC13	A-AC14	A-AC15	A-AC16	A-DC1	A-DC2	A-DC3	A-DC4	A-DC5	A-DC6	A-DC7	A-DC8	A-DC9	A-DC10	A-DC11	A-DC12	A-DC13	A-DC14	A-DC15	A-DC16	A-Ph1	A-Ph2	A-Ph3	A-Ph4	A-Ph5	A-Ph6	A-Ph7	A-Ph8	A-Ph9	A-Ph10	A-Ph11	A-Ph12	A-Ph13	A-Ph14	A-Ph15	A-Ph16	

Term	0.00000e+00	0.00000e+00	0.00000e+00	0.00000e+00	0.00000e+00	0.00000e+00	0.00000e+00	0.00000e+00	0.00000e+00	0.00000e+00	0.00000e+00	0.00000e+00	0.00000e+00	0.00000e+00	0.00000e+00	0.00000e+00	0.00000e+00	0.00000e+00	0.00000e+00	0.00000e+00	0.00000e+00	0.00000e+00	0.00000e+00	0.00000e+00	0.00000e+00	0.00000e+00	0.00000e+00	0.00000e+00	0.00000e+00	0.00000e+00	0.00000e+00	0.00000e+00	0.00000e+00	0.00000e+00	0.00000e+00	0.00000e+00	0.00000e+00	0.00000e+00	0.00000e+00	0.00000e+00	0.00000e+00	0.00000e+00	0.00000e+00	0.00000e+00	0.00000e+00	0.00000e+00	0.00000e+00	0.00000e+00	
Factor	1.00000e+00	1.00000e+00	1.00000e+00	1.00000e+00	1.00000e+00	1.00000e+00	1.00000e+00	1.00000e+00	1.00000e+00	1.00000e+00	1.00000e+00	1.00000e+00	1.00000e+00	1.00000e+00	1.00000e+00	1.00000e+00	1.00000e+00	1.00000e+00	1.00000e+00	1.00000e+00	1.00000e+00	1.00000e+00	1.00000e+00	1.00000e+00	1.00000e+00	1.00000e+00	1.00000e+00	1.00000e+00	1.00000e+00	1.00000e+00	1.00000e+00	1.00000e+00	X	X	X	X	X	X	X	X	X	X	X	X	X	X	X	X	

B = Detector Channel
Val Type	B-AC1	B-AC2	B-AC3	B-AC4	B-AC5	B-AC6	B-AC7	B-AC8	B-AC9	B-AC10	B-AC11	B-AC12	B-AC13	B-AC14	B-AC15	B-AC16	B-DC1	B-DC2	B-DC3	B-DC4	B-DC5	B-DC6	B-DC7	B-DC8	B-DC9	B-DC10	B-DC11	B-DC12	B-DC13	B-DC14	B-DC15	B-DC16	B-Ph1	B-Ph2	B-Ph3	B-Ph4	B-Ph5	B-Ph6	B-Ph7	B-Ph8	B-Ph9	B-Ph10	B-Ph11	B-Ph12	B-Ph13	B-Ph14	B-Ph15	B-Ph16	

Term	0.00000e+00	0.00000e+00	0.00000e+00	0.00000e+00	0.00000e+00	0.00000e+00	0.00000e+00	0.00000e+00	0.00000e+00	0.00000e+00	0.00000e+00	0.00000e+00	0.00000e+00	0.00000e+00	0.00000e+00	0.00000e+00	0.00000e+00	0.00000e+00	0.00000e+00	0.00000e+00	0.00000e+00	0.00000e+00	0.00000e+00	0.00000e+00	0.00000e+00	0.00000e+00	0.00000e+00	0.00000e+00	0.00000e+00	0.00000e+00	0.00000e+00	0.00000e+00	-4.82867e+01	-1.31521e+02	-1.29090e+02	-1.82778e+02	-5.00932e+01	-6.85385e+01	-1.59964e+02	-1.62015e+02	-3.45550e+01	-6.98819e+01	-1.78192e+02	-1.73211e+02	-1.80356e+02	-1.77624e+02	-4.73150e+01	-1.50550e+02	
Factor	2.03344e-05	1.89891e-04	5.74514e-05	1.58307e-01	1.90108e-06	2.09202e-06	1.94733e-01	5.79786e-02	1.52646e-06	2.11415e-06	3.21294e-01	3.10011e-02	3.06678e-02	9.11195e-03	1.92150e-06	1.28799e-02	1.37867e-05	2.61164e-05	7.30315e-06	8.26885e-02	2.52523e-07	2.92360e-07	9.52919e-02	3.04267e-02	2.52502e-07	2.89608e-07	1.62620e-01	1.57850e-02	1.63068e-02	4.82875e-03	2.67683e-07	6.59689e-03	X	X	X	X	X	X	X	X	X	X	X	X	X	X	X	X	



#DISTANCE SETTINGS
A = Detector Channel
A-1	A-2	A-3	A-4	A-5	A-6	A-7	A-8	A-9	A-10	A-11	A-12	A-13	A-14	A-15	A-16	

2.5000e+00	3.0000e+00	2.5000e+00	3.0000e+00	2.0000e+00	3.0000e+00	1.5000e+00	3.0000e+00	3.0000e+00	3.0000e+00	3.0000e+00	3.0000e+00	3.0000e+00	3.0000e+00	1.5000e+00	3.0000e+00	

B = Detector Channel
B-1	B-2	B-3	B-4	B-5	B-6	B-7	B-8	B-9	B-10	B-11	B-12	B-13	B-14	B-15	B-16	

1.0000e+01	1.0000e+01	1.0000e+01	1.4400e+00	1.0000e+01	1.0000e+01	1.5100e+00	1.9400e+00	1.0000e+01	1.0000e+01	1.9900e+00	2.4900e+00	2.4100e+00	2.9000e+00	1.0000e+01	2.9800e+00	




#DATA BEGINS
time	group	step	mark	flag	A-AC1	A-AC2	A-AC3	A-AC4	A-AC5	A-AC6	A-AC7	A-AC8	A-AC9	A-AC10	A-AC11	A-AC12	A-AC13	A-AC14	A-AC15	A-AC16	A-DC1	A-DC2	A-DC3	A-DC4	A-DC5	A-DC6	A-DC7	A-DC8	A-DC9	A-DC10	A-DC11	A-DC12	A-DC13	A-DC14	A-DC15	A-DC16	A-Ph1	A-Ph2	A-Ph3	A-Ph4	A-Ph5	A-Ph6	A-Ph7	A-Ph8	A-Ph9	A-Ph10	A-Ph11	A-Ph12	A-Ph13	A-Ph14	A-Ph15	A-Ph16	B-AC1	B-AC2	B-AC3	B-AC4	B-AC5	B-AC6	B-AC7	B-AC8	B-AC9	B-AC10	B-AC11	B-AC12	B-AC13	B-AC14	B-AC15	B-AC16	B-DC1	B-DC2	B-DC3	B-DC4	B-DC5	B-DC6	B-DC7	B-DC8	B-DC9	B-DC10	B-DC11	B-DC12	B-DC13	B-DC14	B-DC15	B-DC16	B-Ph1	B-Ph2	B-Ph3	B-Ph4	B-Ph5	B-Ph6	B-Ph7	B-Ph8	B-Ph9	B-Ph10	B-Ph11	B-Ph12	B-Ph13	B-Ph14	B-Ph15	B-Ph16	aux-1	digaux	

1025.475	1	1	0	256	0.1532	0.2228	0.31414	0.14595	0.10969	0.10642	0.32346	0.20084	0.13662	0.084262	0.076356	0.25318	0.2218	0.14102	0.1885	0.027778	-2.0771	-2.6208	-2.1396	-2.7375	-2.4833	-2.3479	-2.9167	-2.2417	-2.5604	-2.8896	-2.0812	-2.6792	-2.3937	-2.1521	-2.9208	-2.2354	-96.319	-106.464	-122.534	70.473	48.258	-75.391	78.101	-86.004	-73.221	-60.777	-17.013	-81.228	120.460	-12.685	106.141	11.331	0.00038856	0.0063057	0.002069	497.14	8.2635e-06	5.4998e-05	492.56	168.06	1.6182e-05	7.3917e-05	188.68	57.843	53.124	22.384	1.211e-05	23.607	0.18936	0.37617	0.10844	1670.3	0.0034328	0.0041729	1888.2	587.46	0.0033121	0.0039255	2348.9	250.02	240.2	78.668	0.0029631	89.19	-137.208	161.867	-51.943	-140.339	159.058	-104.363	-140.747	-133.580	-101.332	-117.495	-139.778	-130.800	-130.846	-125.246	11.265	-126.975	-8191	255	
1025.570	1	1	0	0	0.079216	0.22766	0.14783	0.285	0.20636	0.11739	0.19493	0.22533	0.10601	0.18652	0.11174	0.14137	0.43443	0.39858	0.13524	0.19729	-2.0479	-2.7021	-2.0271	-2.775	-2.4667	-2.1437	-2.8312	-2.2583	-2.3167	-2.7854	-1.95	-2.7562	-2.4437	-2.1396	-2.9062	-2.2875	158.566	-144.968	-83.794	-30.319	68.908	104.169	80.046	-86.788	-21.098	127.128	-97.267	-25.737	191.729	-145.509	148.427	98.870	0.0010553	0.0017584	0.0020576	455.65	5.0812e-05	2.3622e-05	491.37	161.07	3.923e-05	2.7727e-05	196.99	66.749	60.049	25.124	9.5592e-06	27.5	0.12856	0.24456	0.064214	1093.2	0.0018279	0.0020797	1095.8	327.31	0.0012822	0.0014076	884.45	124.14	115.28	40.761	0.00075277	43.135	205.705	160.050	25.179	-139.256	-135.019	-106.262	-141.058	-133.632	-121.114	-79.554	-135.608	-132.130	-129.532	-124.353	42.278	-128.048	-8191	255	
1025.690	1	1	0	0	0.098431	0.14376	0.15538	0.10624	0.1116	0.23164	0.19275	0.12319	0.18131	0.28996	0.2083	0.27308	0.18333	0.094802	0.059723	0.26064	-1.7833	-2.7625	-1.8458	-2.5917	-2.6167	-1.7563	-2.6083	-2.2542	-2.0979	-2.6792	-1.8729	-2.5354	-2.6417	-2.0563	-2.7167	-2.175	-107.040	120.139	12.641	167.290	-7.389	205.594	113.706	182.513	70.617	47.100	107.585	186.153	-125.184	-110.845	-77.840	41.993	0.00049243	0.0010318	0.00015519	434.62	1.5503e-05	2.416e-05	482.9	153.84	1.4532e-05	4.1139e-05	185.79	75.066	60.992	28.017	1.7424e-05	31.397	0.031567	0.056837	0.014377	572.85	0.00043934	0.00050234	626.15	194.46	0.00036093	0.00039895	388.03	92.556	80.148	33.528	0.00029639	38.148	-128.338	129.033	91.376	-139.775	203.533	90.398	-140.492	-133.856	-8.536	-8.643	-136.587	-131.537	-129.417	-124.625	-15.772	-128.300	-8191	255	
1025.787	1	1	0	0	0.18239	0.11208	0.12391	0.046927	0.10617	0.31884	0.18447	0.24733	0.027954	0.028491	0.28402	0.098208	0.34382	0.038817	0.086633	0.17395	-1.6958	-2.7542	-1.9917	-2.2167	-2.6583	-1.8875	-2.6729	-2.4354	-2.1167	-3.0104	-2.1792	-2.3042	-2.6771	-1.9208	-2.5312	-2.6	-75.406	-69.766	110.669	95.780	11.889	127.370	34.445	139.193	25.530	-54.346	-16.155	57.357	89.551	33.892	-69.365	131.894	0.00024463	0.00028722	0.00078894	432.69	8.8946e-06	8.3507e-06	477.97	148.73	8.2789e-06	8.6912e-06	189.32	73.753	59.793	27.854	2.3604e-06	32.088	0.015451	0.028801	0.0075993	507.62	0.00026763	0.00031075	564.98	176.24	0.00025492	0.00028549	330.13	87.219	74.376	31.826	0.00021397	36.773	-83.364	114.253	-68.982	-139.790	195.938	137.283	-140.919	-134.006	-131.882	148.504	-136.771	-131.939	-129.483	-125.021	-5.841	-128.110	-8191	255	
1025.883	1	1	0	0	0.24675	0.15757	0.10161	0.22406	0.032504	0.21342	0.2081	0.052088	0.36224	0.13335	0.29646	0.10705	0.13209	0.19888	0.038288	0.34925	-1.6125	-2.9167	-2.1875	-2.2083	-2.5521	-1.9562	-2.8	-2.5271	-1.8542	-2.7188	-2.2083	-2.2729	-2.6	-1.9625	-2.3646	-2.5167	63.676	-14.753	-101.656	-123.415	-28.027	82.886	-26.148	145.467	-68.598	-111.624	75.189	-105.069	-103.909	144.537	2.368	199.830	0.00014868	0.00049379	0.00030349	438.14	1.4949e-05	1.7702e-05	494.96	157.68	5.3089e-06	1.5734e-05	200.68	80.001	63.305	28.842	6.8894e-06	34.833	0.011383	0.020613	0.0054163	491.01	0.00019337	0.00021696	547.61	176.42	0.00018143	0.00019941	303.92	89.306	73.422	31.871	0.00016918	38.966	-38.406	144.790	-76.136	-139.652	-48.768	39.366	-141.013	-133.829	-135.860	-31.290	-136.127	-131.911	-129.392	-124.815	-44.897	-128.483	-8191	255	
1026.003	1	1	0	0	0.13525	0.34039	0.043075	0.20401	0.15222	0.12359	0.19306	0.36318	0.079113	0.060239	0.090531	0.078334	0.23728	0.25928	0.22729	0.11213	-1.4875	-2.7438	-2.1063	-2.0792	-2.6708	-2.1083	-2.5854	-2.5687	-1.8708	-2.7083	-2.3208	-1.9042	-2.6875	-1.9479	-2.3604	-2.8896	19.324	-42.829	127.924	196.266	-53.031	203.548	23.898	149.546	-30.451	28.864	17.223	143.752	133.324	-25.088	91.958	-60.999	0.00030419	0.0019565	0.00015607	442.08	1.0574e-05	1.4109e-05	524.69	161.61	5.0432e-06	9.284e-06	211.89	83.43	63.561	29.55	4.6507e-06	36.14	0.0091428	0.01653	0.0044792	483.4	0.00016148	0.00018005	568.15	177.92	0.00016174	0.00017928	304.97	92.193	73.082	32.234	0.00015406	39.415	-54.628	-114.142	-119.914	-139.891	52.882	37.675	-140.398	-134.091	122.976	-21.845	-137.294	-132.073	-129.472	-125.282	95.617	-128.513	-8191	255	
1026.075	1	1	0	0	0.10015	0.051985	0.16272	0.22741	0.11243	0.16077	0.20371	0.091199	0.1633	0.13079	0.10437	0.17328	0.21867	0.017647	0.13517	0.32327	-1.3875	-2.6333	-2.25	-2.0458	-2.7104	-2.0625	-2.4271	-2.6354	-2.1271	-2.7375	-2.2292	-1.9792	-2.9854	-2.2625	-2.2875	-2.6208	207.696	37.612	-148.738	67.856	-51.679	5.060	155.168	175.953	51.923	76.966	205.572	142.113	167.946	-55.386	13.746	-16.730	0.00028657	0.00080249	0.00026386	433.98	7.679e-06	2.2587e-06	520.36	155.37	1.9861e-06	1.6093e-05	212.5	82.777	62.378	29.395	5.2219e-06	36.3	0.0081704	0.014432	0.0041031	469.4	0.00014131	0.00015718	556.78	169.52	0.0001374	0.00015141	292.27	90.036	70.367	31.731	0.00013498	39.17	-88.787	3.696	133.270	-139.678	-38.446	-150.997	-140.469	-133.973	78.831	44.915	-136.203	-131.826	-129.575	-124.720	39.103	-128.383	-8191	255	
1026.171	1	1	0	0	0.057751	0.16287	0.23639	0.31472	0.064443	0.10307	0.27057	0.24249	0.18533	0.12762	0.16325	0.22252	0.13335	0.15745	0.23373	0.21802	-1.6125	-2.8146	-2.4083	-2.0792	-2.8063	-2.4062	-2.2542	-2.7958	-1.9083	-2.5104	-2.5896	-1.9271	-2.9146	-2.1625	-2.125	-2.9167	119.277	-39.671	3.913	178.918	43.920	37.631	-49.593	-150.585	81.678	-26.749	-109.127	-90.216	-27.170	113.262	-107.357	92.334	0.00029941	0.000611	0.00028499	429.74	2.3819e-06	9.4028e-06	508.7	149.84	4.582e-06	1.2968e-05	202.98	82.574	62.109	29.048	1.0897e-05	35.943	0.0069565	0.01249	0.0035472	459.64	0.00012199	0.00013803	541.73	162.53	0.00012076	0.00013618	276.37	89.253	69.317	31.111	0.0001289	38.764	-72.650	29.563	-24.899	-139.986	140.665	150.275	-140.268	-133.905	-4.464	-12.192	-135.481	-131.920	-129.000	-124.437	92.966	-128.179	-8191	255	
1026.267	1	1	0	0	0.17075	0.19358	0.22253	0.085994	0.069904	0.056811	0.050498	0.22628	0.12267	0.29683	0.22402	0.085876	0.13368	0.27944	0.176	0.15511	-1.6625	-2.2708	-2.4542	-1.7604	-2.8083	-2.1875	-2.2208	-2.6458	-1.9396	-2.5167	-2.5854	-1.9417	-2.5896	-2.3667	-2.1271	-2.7583	23.279	-123.105	-21.119	117.895	-69.276	59.938	178.492	168.077	66.741	-74.575	-91.954	31.199	-118.019	189.277	-12.944	113.505	0.00035593	0.00037176	0.00023684	464.02	7.2054e-06	4.4242e-06	521.01	154.65	5.5049e-06	2.2843e-06	204.93	82.111	62.772	27.362	7.7192e-06	32.577	0.006684	0.012268	0.0035216	494.27	0.00011794	0.00013644	555.11	166.11	0.00011684	0.00013584	275.8	88.391	69.861	29.441	0.00012394	35.21	-68.674	-97.732	-72.543	-139.282	-65.135	118.878	-140.298	-133.611	-106.842	188.914	-136.670	-131.671	-128.381	-124.107	88.814	-127.580	-8191	255	
1026.364	1	1	0	0	0.31343	0.27943	0.075687	0.1296	0.033967	0.146	0.051574	0.15646	0.21371	0.10135	0.25538	0.22911	0.28491	0.25785	0.13486	0.10751	-1.6938	-2.2021	-2.6375	-1.9896	-2.5896	-2.4292	-2.075	-3.0646	-2.1188	-2.2167	-2.4938	-1.8687	-2.4833	-2.6083	-2.0708	-2.7375	0.515	-138.629	87.413	86.629	155.379	180.172	-132.406	-76.966	-96.711	7.993	-98.681	103.343	147.829	-25.619	199.382	-139.544	0.00028104	0.0010298	0.00022983	473.98	1.3028e-05	3.4173e-06	507.42	156.22	5.296e-06	5.976e-06	197.04	80.017	62.235	27.193	9.3266e-06	32.034	0.0063019	0.011709	0.0033041	501.49	0.00011284	0.00013276	538.87	166.43	0.000115	0.00013353	267.11	86.329	68.84	29.416	0.00013037	35.056	-61.114	121.387	-109.537	-139.704	-21.810	9.805	-140.849	-133.215	100.155	-109.843	-136.189	-131.613	-128.424	-124.166	27.878	-128.159	-8191	255	
1026.482	1	1	0	0	0.085436	0.20308	0.17312	0.16776	0.1573	0.065345	0.27228	0.069076	0.21747	0.20448	0.13839	0.14332	0.093781	0.26363	0.07353	0.19914	-1.725	-2.2229	-2.6437	-1.8875	-2.5938	-2.5333	-2	-2.7729	-2.075	-2.0708	-2.625	-2.0792	-2.3812	-2.6583	-1.8646	-2.5	-150.364	71.030	-151.034	-133.673	94.705	-71.018	109.107	-134.286	-145.382	-89.814	122.149	114.532	193.872	134.069	-149.732	189.205	0.00029583	0.0011269	0.00029087	470.79	3.5873e-06	4.8146e-06	507.6	157.3	4.5386e-06	1.5619e-05	204.64	82.389	63.432	27.867	1.3024e-05	33.524	0.0068308	0.012748	0.0036333	499.45	0.00012365	0.00014452	540.96	169.84	0.00012248	0.00014238	281.52	89.06	70.83	30.118	0.00013722	36.351	-81.080	-59.683	-100.539	-139.975	82.826	177.048	-140.849	-133.734	-13.510	-112.026	-136.188	-131.402	-129.010	-124.488	85.132	-127.650	-8191	255	
1026.579	1	1	0	0	0.12416	0.20311	0.16831	0.15937	0.078799	0.10842	0.13593	0.23266	0.15113	0.38778	0.1297	0.27912	0.26381	0.11695	0.05577	0.27059	-1.8687	-2.0396	-2.7562	-2	-2.4771	-2.5	-2.0312	-2.6583	-2.3937	-2.0625	-2.8187	-2.1146	-2.3771	-2.6021	-1.8896	-2.7687	17.555	94.676	176.338	184.433	57.128	-87.533	122.103	132.553	43.060	-130.814	-124.670	140.645	201.216	208.386	203.845	28.754	0.00027834	0.0011516	0.00012189	476.87	7.4283e-06	1.2242e-05	522.38	162.2	2.6022e-06	7.3041e-06	209.83	81.957	63.065	28.244	7.4879e-06	34.043	0.0071558	0.013522	0.0038296	507.8	0.00013321	0.00015571	560.49	176.06	0.00013641	0.00016033	296.11	89.541	71.825	30.824	0.00016088	37.714	-86.682	-92.357	-127.053	-139.705	185.497	13.985	-140.534	-133.521	-81.708	-91.177	-136.404	-132.007	-129.100	-124.399	188.416	-128.384	-8191	255	
1026.652	1	1	0	0	0.1523	0.19107	0.075999	0.13226	0.2318	0.24448	0.30862	0.086961	0.19649	0.053233	0.084846	0.17099	0.28243	0.072739	0.059294	0.14243	-2.1063	-1.9917	-2.7479	-2.0646	-2.1042	-2.8208	-1.9375	-2.6	-2.4188	-2.0062	-2.8438	-2.0479	-2.0563	-2.8021	-1.9167	-2.5125	181.923	196.954	-87.402	-127.657	-131.623	190.342	167.072	56.020	159.930	-80.102	-141.097	39.698	201.967	-94.054	137.381	-63.150	0.00025907	0.00057616	0.0002692	469.54	1.6791e-05	1.4364e-05	518.69	163.45	1.2853e-05	1.0756e-05	208.2	80.085	62.444	27.061	9.0165e-06	32.217	0.0087741	0.016768	0.0047001	514.9	0.00016765	0.00019734	569.56	181.44	0.00017529	0.00020504	319.47	89.876	73.548	30.433	0.00019094	36.685	-82.481	189.849	-21.597	-139.647	60.479	0.833	-140.415	-133.740	25.136	-15.660	-135.663	-131.902	-129.160	-124.752	13.537	-127.778	-8191	255	
1026.771	1	1	0	0	0.13739	0.1548	0.10466	0.21364	0.23891	0.24927	0.14568	0.11972	0.371	0.11575	0.14267	0.20044	0.17442	0.14226	0.071395	0.029775	-2.0896	-1.9354	-2.6646	-2.225	-2.2104	-2.6937	-1.8583	-2.3208	-2.4	-1.9438	-2.7667	-2.3104	-2.0083	-2.6708	-1.7729	-2.4417	128.221	152.883	161.610	-29.388	-84.964	-12.948	126.478	115.691	-6.742	-47.982	11.852	-126.747	69.428	-124.308	-16.824	129.356	0.00028945	0.00048768	0.00015602	481.21	7.284e-06	1.5467e-05	517.46	164.87	7.3436e-06	1.0356e-05	196.51	73.166	59.459	24.434	3.7448e-06	27.922	0.010151	0.019043	0.0053166	532.49	0.00019269	0.00022599	577.48	185.72	0.00020928	0.00024573	333.8	86.359	74.052	28.992	0.0002631	34.413	-76.018	127.993	197.678	-139.757	-110.394	-32.462	-140.373	-133.860	-50.355	25.479	-135.845	-131.861	-129.015	-124.019	194.616	-127.671	-8191	255	
1026.867	1	1	0	0	0.20908	0.083327	0.13004	0.04605	0.24442	0.056791	0.087055	0.12132	0.19027	0.21369	0.077778	0.079789	0.19174	0.22483	0.14882	0.25086	-2.175	-1.8229	-2.6896	-2.3896	-1.8813	-2.8896	-2.0729	-2.2104	-2.8333	-2.0542	-2.7271	-2.3396	-2.0187	-2.8417	-2.0708	-2.4521	-10.529	136.826	13.171	65.614	-91.704	69.457	-150.926	-128.180	140.443	-76.175	116.931	178.842	188.527	142.897	136.092	-101.631	0.00023815	0.002809	0.00029489	468.34	1.7596e-05	2.5196e-05	459.31	153.77	4.3368e-06	1.7798e-05	169.23	58.738	52.293	20.991	1.4122e-05	22.352	0.01514	0.029615	0.0086528	564.28	0.0003497	0.00043372	600.84	205.5	0.00049836	0.00061224	537.06	97.789	95.638	34.782	0.00082961	44.993	-53.883	-46.778	-115.057	-139.535	60.210	112.558	-140.256	-133.394	-10.408	97.546	-135.729	-131.684	-128.930	-124.609	-5.901	-127.358	-8191	255	
1026.963	1	1	0	0	0.092364	0.24596	0.092731	0.20204	0.17421	0.06199	0.10627	0.27286	0.23641	0.27486	0.34939	0.29622	0.15619	0.12296	0.091444	0.1719	-2.3271	-1.9979	-2.5667	-2.3812	-1.8563	-2.6646	-2.1688	-2.2	-2.7375	-2.0542	-2.6937	-2.5187	-2.0958	-2.9479	-2.4083	-2.4458	162.654	60.727	103.694	66.700	-23.811	13.831	171.215	-150.556	-85.005	110.465	14.700	-125.985	77.775	162.839	74.869	156.833	0.00010289	0.0043776	0.00091967	439.3	3.3858e-05	3.1493e-05	413.32	148.03	5.941e-05	8.5805e-05	158.37	53.625	50.052	19.629	4.6642e-05	21.854	0.051964	0.1054	0.032861	863.44	0.0014573	0.0018226	1070.2	388.72	0.0021697	0.0025857	1745.8	222.99	229.61	73.179	0.0031384	104.08	-50.128	-43.628	-72.562	-139.359	98.527	-62.267	-140.170	-134.300	116.200	21.280	-137.861	-130.719	-129.067	-123.580	-68.157	-126.969	-8191	255	
1027.084	1	1	0	0	0.21545	0.032598	0.055339	0.16217	0.34078	0.33036	0.13788	0.1114	0.28211	0.24098	0.14628	0.065401	0.074204	0.2109	0.061537	0.278	-2.3917	-2.0625	-2.5417	-2.8208	-2.1979	-2.8271	-2.4479	-2.2125	-2.9	-2.0708	-2.3729	-2.7438	-1.9396	-2.7646	-2.3646	-2.2729	83.583	12.134	17.866	169.395	-58.562	141.943	125.164	-17.309	60.984	136.977	129.259	78.902	80.863	31.222	-107.557	134.888	0.00075703	0.0065125	0.0020573	453.5	3.5732e-05	4.4996e-05	409.47	149.26	2.8941e-05	7.8662e-05	154.08	55.701	51.445	20.476	6.6654e-05	23.74	0.17233	0.32102	0.094848	1566.4	0.0033178	0.0037272	1663.9	543.73	0.0030671	0.0033416	2063.6	234.51	218.81	66.88	0.0025103	80.974	-49.439	-112.559	-143.204	-140.138	30.695	78.103	-141.463	-133.330	83.304	-75.075	-138.314	-131.360	-128.230	-123.902	-149.535	-127.426	-8191	255	
1027.180	1	1	0	0	0.12683	0.32663	0.089416	0.053968	0.20436	0.11492	0.18454	0.27489	0.29989	0.18896	0.085576	0.22351	0.092053	0.053238	0.2127	0.23517	-2.5104	-2.1229	-2.3729	-2.7333	-1.9521	-2.6958	-2.5479	-1.8875	-2.7333	-2.0479	-2.3125	-2.8375	-1.9125	-2.5854	-2.5167	-1.6833	175.078	34.896	-147.576	-106.348	128.599	-103.132	-141.440	123.084	-91.024	-34.897	106.294	87.786	-111.151	101.257	189.425	-131.366	8.2942e-05	0.0010933	0.0010535	459.2	1.5888e-05	4.395e-05	453.5	150.42	7.1183e-06	3.3496e-06	173.89	64.535	54.543	23.4	4.0458e-06	28.035	0.10455	0.18028	0.048143	940.81	0.001263	0.0012987	836.77	256.56	0.0007484	0.00076431	570.99	97.675	84.675	31.448	0.00043205	37.331	-68.235	-82.625	130.264	-139.774	60.745	186.054	-140.322	-133.183	-58.327	140.125	-136.330	-131.554	-129.255	-124.123	-10.637	-127.418	-8191	255	
1027.276	1	1	0	0	0.086672	0.074601	0.16192	0.13478	0.078712	0.03785	0.22373	0.059932	0.048488	0.065581	0.19315	0.13995	0.1962	0.017765	0.0916	0.27112	-2.2979	-2.0542	-2.2333	-2.8604	-2.1063	-2.5708	-2.5708	-1.9708	-2.975	-2.225	-2.3125	-2.8229	-1.8729	-2.4604	-2.5271	-1.9104	52.060	-65.939	45.153	-138.539	-50.305	-106.099	-140.703	158.436	112.545	-141.269	179.189	143.056	109.519	20.800	-36.493	180.300	0.00024824	0.0010607	0.00018525	482.51	8.9929e-06	3.8582e-06	502.17	158.17	1.1915e-05	5.6158e-06	194.91	70.706	57.851	24.175	7.0607e-06	29.408	0.017632	0.031298	0.00835	557.94	0.00024294	0.00027637	578.57	181.93	0.00021427	0.00024808	327.74	83.153	70.62	28.142	0.00022671	34.523	-77.228	-139.891	166.413	-139.800	-122.427	-98.731	-140.410	-133.165	85.220	-38.803	-136.095	-130.976	-128.742	-123.655	135.503	-127.159	-8191	255	
1027.372	1	1	0	0	0.090526	0.18427	0.1218	0.26208	0.13959	0.25698	0.080184	0.044592	0.11815	0.24062	0.032254	0.18794	0.066492	0.13341	0.19147	0.1153	-2.4125	-2.1667	-2.1229	-2.7354	-1.9625	-2.3708	-2.6813	-2.0375	-2.5771	-2.2354	-2.0604	-2.7208	-2.0854	-2.4083	-2.5979	-2.0708	-53.316	-9.149	-14.362	154.709	-13.406	116.214	157.865	132.186	141.528	-13.792	99.613	158.464	-31.833	93.975	-82.854	-50.495	0.00029407	0.0013177	0.00016098	500.52	1.2954e-05	1.8842e-05	510.01	160.75	9.495e-07	1.5613e-05	190.79	69.322	57.487	23.521	7.1972e-06	27.56	0.011418	0.021935	0.0061779	557.27	0.00020578	0.0002413	576.61	182.31	0.00020258	0.00023607	319.02	81.222	69.938	27.401	0.00023082	32.951	-54.482	-88.732	104.076	-139.903	20.750	103.263	-140.476	-133.802	-129.592	-37.333	-136.019	-131.856	-129.320	-124.196	24.659	-127.589	-8191	255	
1027.467	1	1	0	0	0.16859	0.080951	0.03777	0.2807	0.16934	0.15511	0.095685	0.27781	0.19856	0.24772	0.12426	0.22489	0.077586	0.089917	0.14323	0.30557	-2.3042	-2.2375	-2.1188	-2.6417	-2.0583	-2.3542	-2.8042	-1.9312	-2.7042	-2.4292	-2.1229	-2.8125	-2.2062	-2.1042	-2.7625	-2.1104	24.410	-105.239	130.832	140.386	161.866	-5.033	194.043	-4.231	102.069	27.437	183.064	195.375	191.725	167.944	79.222	141.713	0.00030118	0.0011144	0.00012568	492.56	9.9136e-06	6.812e-06	489.85	157.49	6.0939e-06	1.7939e-05	181.87	63.968	54.423	22.041	1.3682e-05	25.441	0.012347	0.024143	0.0068581	559.87	0.00024935	0.00030576	583.48	189.61	0.00030879	0.00038777	412.84	88.057	83.469	32.045	0.00061834	41.799	-88.064	-33.861	-77.212	-139.780	-32.926	118.110	-140.815	-133.827	160.484	-8.462	-136.030	-131.497	-129.047	-123.714	-47.161	-127.164	-8191	255	
1027.563	1	1	0	0	0.17748	0.15114	0.13343	0.099104	0.017593	0.19583	0.15169	0.2863	0.10889	0.11859	0.37444	0.10924	0.33694	0.049617	0.10916	0.28332	-2.1104	-2.5938	-1.8833	-2.8208	-2.3417	-2.3292	-2.8146	-2.1542	-2.4833	-2.6042	-2.0604	-2.7771	-2.3271	-2.2125	-2.8438	-1.8667	143.432	121.520	111.213	44.145	94.648	-53.043	-117.120	134.010	78.418	194.406	176.092	-74.198	195.248	123.256	168.898	189.776	0.00027623	0.0020764	0.00065085	485.34	3.5629e-06	1.1365e-05	480.4	159.68	2.088e-05	1.8958e-05	186.54	66.153	55.684	23.39	2.9848e-05	28.477	0.040674	0.088171	0.026936	808.82	0.0011264	0.0013879	928.52	303.33	0.0012478	0.0014205	932.29	136.37	129.6	44.859	0.0011159	55.497	-51.597	-49.405	9.881	-139.607	2.173	139.809	-140.041	-133.748	-99.574	77.812	-136.521	-131.849	-129.444	-124.533	-27.508	-128.076	-8191	255	
1027.659	1	1	0	0	0.15634	0.1876	0.08727	0.29591	0.073632	0.14243	0.30473	0.068753	0.063714	0.052476	0.2786	0.17145	0.26411	0.12573	0.09708	0.21007	-1.9583	-2.5687	-1.9771	-2.7521	-2.2229	-2.1875	-2.9042	-2.1562	-2.2854	-2.7438	-1.9438	-2.8292	-2.4458	-2.1875	-2.9625	-2.0542	-90.008	9.178	207.327	95.204	96.540	163.988	89.934	82.195	-130.400	-18.895	-15.656	-37.410	-31.182	121.508	-132.150	51.590	0.0001919	0.0024939	0.0011805	481.9	3.3245e-05	5.6587e-05	481.34	152.6	1.7849e-05	4.4193e-05	173.52	61.144	51.843	22.026	3.6568e-05	25.969	0.059614	0.11285	0.030909	841.02	0.0011793	0.0013984	924.02	303.76	0.0013433	0.0015536	1026.9	147.74	142.78	47.9	0.0013378	58.924	198.671	-38.868	-19.481	-139.958	57.468	-1.637	-140.381	-134.237	-88.204	67.648	-134.757	-131.087	-129.406	-124.402	195.633	-127.724	-8191	255	
1027.780	1	1	0	0	0.060477	0.2023	0.095066	0.12401	0.21931	0.20082	0.034821	0.14588	0.10116	0.15207	0.23863	0.1341	0.21571	0.019581	0.15292	0.16432	-1.9042	-2.6562	-1.9708	-2.7125	-2.3625	-1.9	-2.9146	-2.0083	-2.2375	-2.7771	-2.05	-2.5479	-2.5625	-2.0312	-2.7521	-2.1562	80.495	70.347	196.884	202.011	1.103	57.416	147.097	139.788	84.267	-18.603	154.422	-60.398	-133.162	3.634	81.610	-42.157	0.00034371	0.0049567	0.0001542	463.22	2.0099e-05	2.4036e-05	443.43	144.86	4.4967e-06	1.8655e-05	167.88	58.683	50.378	21.236	2.4629e-05	24.146	0.067632	0.12079	0.031871	815.39	0.0010927	0.0012137	821.27	270.06	0.0010577	0.0011831	822.23	126.26	123.11	43.122	0.001266	58.14	-82.426	-67.915	-54.011	-139.673	-103.461	67.901	-139.895	-134.451	-29.929	54.674	-135.081	-130.959	-128.909	-123.672	-90.757	-127.181	-8191	255	
1027.876	1	1	0	0	0.23583	0.089672	0.11042	0.22592	0.22289	0.18441	0.1729	0.095522	0.26576	0.10752	0.25938	0.10107	0.061345	0.08071	0.023057	0.1606	-1.9854	-2.75	-1.8854	-2.425	-2.5938	-2.0792	-2.7396	-2.3063	-2.0812	-2.725	-2.05	-2.4021	-2.725	-1.9625	-2.8667	-2.3833	157.002	-74.207	109.777	129.299	-74.691	198.676	149.211	136.525	-75.895	-80.391	125.531	-122.407	26.345	-56.733	93.448	195.050	0.00015258	0.0060911	0.0005038	448.27	1.7599e-05	6.0244e-05	416.36	145.24	1.0849e-05	5.4508e-05	149.99	54.551	48.326	19.947	3.1608e-05	22.58	0.074442	0.1419	0.041446	950.53	0.0015913	0.0018443	1041.3	356.94	0.0018375	0.0021202	1413	186.55	190.17	62.276	0.0024571	86.218	57.150	-8.247	140.129	-139.486	-140.341	64.853	-140.573	-134.127	-31.459	28.799	-136.095	-132.217	-128.092	-124.117	101.897	-126.864	-8191	255	
1027.947	1	1	0	0	0.095221	0.24345	0.22119	0.040368	0.15215	0.2007	0.17438	0.12593	0.19819	0.30536	0.025407	0.30478	0.12782	0.089542	0.17357	0.28507	-1.6833	-2.7542	-1.8646	-2.4188	-2.6896	-2.2062	-2.8542	-2.5042	-1.95	-2.8667	-2.0312	-2.375	-2.6792	-1.9813	-2.7396	-2.5687	-106.773	4.184	-80.017	38.433	-121.911	-131.747	93.369	-9.484	138.754	-18.007	16.686	-79.822	59.500	37.000	-90.015	178.090	0.00054434	0.0012994	0.001482	449.61	1.2612e-05	5.2922e-05	406.26	142.48	3.9895e-05	3.2234e-05	158.69	53.466	49.026	19.902	4.6139e-05	22.837	0.13306	0.24818	0.071193	1272.8	0.0024457	0.0027331	1307.6	430.92	0.0023103	0.0025775	1622.7	197.53	193.59	62.365	0.0024069	82.161	33.871	53.126	59.451	-140.005	-117.175	4.928	-139.563	-133.611	151.912	201.787	-138.158	-131.119	-128.760	-123.914	-87.119	-127.949	-8191	255	
1028.044	1	1	0	0	0.02072	0.13353	0.060215	0.026665	0.20539	0.32786	0.11942	0.2998	0.068572	0.11403	0.097532	0.25762	0.17855	0.090724	0.13619	0.28143	-1.6875	-2.8042	-2.2687	-2.2812	-2.8167	-2.0438	-2.6937	-2.6583	-2.2188	-2.7667	-2.4688	-2.2479	-2.9375	-2.2146	-2.6562	-2.6042	-116.472	147.683	-146.017	48.768	130.425	59.718	61.827	171.395	-146.122	115.964	94.926	-49.941	142.346	-99.876	208.440	94.509	0.00053436	0.0035935	0.00029807	459.64	1.5513e-05	3.5044e-05	425.55	147.82	2.4127e-05	4.1532e-05	159.6	57.044	50.22	20.466	2.0132e-05	23.848	0.12186	0.23136	0.06712	1226	0.0022975	0.0026721	1328	437.64	0.0023585	0.0027166	1725.4	206.66	198.73	64.507	0.002437	82.523	7.468	-87.303	134.552	-139.461	50.904	125.872	-140.183	-133.530	52.620	139.440	-136.118	-130.481	-127.812	-124.281	-98.095	-127.248	-8191	255	
1028.164	1	1	0	0	0.17249	0.28889	0.24484	0.16944	0.16048	0.098377	0.17258	0.13258	0.17808	0.22202	0.2075	0.20925	0.13291	0.059083	0.13681	0.22927	-1.5917	-2.75	-2.2958	-2.2125	-2.6583	-2.3354	-2.725	-2.7313	-2.1	-2.7125	-2.3854	-2.1083	-2.7917	-2.2667	-2.4625	-2.8917	171.775	198.636	191.994	65.861	-49.914	155.090	19.836	115.338	156.824	42.309	164.055	197.922	-53.207	-106.640	130.155	-141.676	0.00041173	0.0015167	0.00035921	491.36	4.5864e-05	3.4789e-05	465.27	156.62	9.8987e-06	3.321e-05	168.24	59.801	52.936	21.005	2.0543e-05	24.646	0.11768	0.22579	0.06468	1216.2	0.0021999	0.0026511	1365.1	444.2	0.0023878	0.0028709	1844.5	223.61	223.49	74.608	0.0030818	100.69	-149.056	-114.898	-111.585	-138.922	79.047	-66.480	-139.843	-133.449	-52.084	184.715	-135.053	-130.177	-128.984	-123.655	54.916	-125.752	-8191	255	
1028.260	1	1	0	0	0.32777	0.087206	0.083335	0.30716	0.11209	0.051994	0.02086	0.17669	0.092916	0.18672	0.17472	0.040071	0.12583	0.1521	0.3661	0.093258	-1.8604	-2.9062	-2.6792	-2.225	-2.8521	-2.1521	-2.3875	-2.9667	-2.0604	-2.7792	-2.5792	-2.1312	-2.9208	-2.4229	-2.3104	-2.8729	-33.816	-46.310	61.939	205.673	-78.841	48.490	-146.653	148.796	1.814	-38.825	-120.352	113.726	140.355	198.060	-16.783	123.315	0.0010247	0.0067468	0.00014479	500.4	6.5962e-05	6.5348e-05	474.74	159.59	1.8341e-05	3.8106e-05	179.26	59.337	53.697	20.608	4.6558e-05	23.492	0.1612	0.32134	0.092382	1540	0.0032312	0.0039494	1806.2	583.57	0.0036148	0.0044133	2717.9	305.65	314.79	102.15	0.0045845	135.34	-128.654	171.732	205.549	-139.670	-74.212	-32.951	-140.170	-133.104	88.878	-109.607	-136.551	-131.188	-129.057	-124.395	130.870	-125.174	-8191	255	
1028.356	1	1	0	0	0.21706	0.14418	0.29814	0.092412	0.15398	0.074754	0.24148	0.11827	0.31465	0.16113	0.21312	0.23228	0.18071	0.23553	0.029775	0.13911	-1.7792	-2.725	-2.5812	-2.3229	-2.9625	-2.4562	-2.5333	-2.9938	-2.1688	-2.9292	-2.7167	-2.2687	-2.9604	-2.5375	-2.175	-2.9562	-19.356	-68.527	-20.683	-94.965	-55.991	131.018	41.094	90.198	125.737	-60.465	-150.229	-88.063	92.643	-86.633	63.766	82.059	0.0012691	0.0020487	0.001876	518.24	6.6331e-05	3.4656e-05	472.54	163.29	4.7877e-05	2.603e-05	177.76	59.163	53.564	20.063	5.6423e-05	22.67	0.23977	0.47407	0.13265	1984.7	0.004579	0.0054686	2257.8	718.34	0.0047032	0.0055165	3202.8	343.71	350.82	108.53	0.0047521	137.21	-98.694	-35.707	-38.941	-139.662	177.873	-6.777	-139.931	-133.439	-86.921	69.186	-137.858	-131.184	-130.260	-123.548	-6.050	-127.667	-8191	255	
1028.453	1	1	0	0	0.16284	0.27341	0.13649	0.34039	0.19625	0.078479	0.17937	0.096417	0.33341	0.1517	0.34397	0.075589	0.27207	0.16548	0.069895	0.25412	-1.775	-2.6688	-2.8521	-2.2417	-2.75	-2.6312	-2.2479	-2.9583	-2.275	-2.5167	-2.8042	-2.0875	-2.9146	-2.45	-2.1979	-2.8917	85.859	-25.512	-82.036	156.635	115.442	11.530	90.421	73.920	-68.971	71.561	-20.425	186.119	131.930	126.964	-29.887	132.496	0.00097642	0.0015371	0.00055944	521.35	4.4487e-05	2.2164e-05	488.72	164.2	4.7296e-05	0.00013359	180.04	60.211	54.647	20.757	6.3749e-05	23.926	0.24175	0.45434	0.12049	1818.8	0.0038741	0.0043023	1804.5	559.91	0.0032179	0.0035561	2042.9	233.49	229.45	69.724	0.0024964	81.59	-114.430	71.907	-7.590	-140.020	163.322	82.672	-140.453	-133.300	-119.180	-45.685	-133.676	-131.382	-129.041	-123.492	-11.067	-127.642	-8191	255	
1028.572	1	1	0	0	0.076467	0.1674	0.17752	0.1846	0.31355	0.28329	0.14616	0.11453	0.28833	0.28549	0.11506	0.17115	0.072809	0.042752	0.16487	0.29057	-1.6979	-2.5125	-2.825	-2.1937	-2.5687	-2.3479	-2.0333	-2.7021	-2.0563	-2.1542	-2.7188	-1.9271	-2.5812	-2.4917	-1.9833	-2.8083	-10.052	32.029	33.153	77.808	-72.262	152.676	-53.943	115.727	-120.017	-60.815	158.753	174.088	129.626	25.118	79.283	44.731	6.4844e-05	0.0016897	0.00072062	509.31	2.2665e-05	2.8804e-05	486.79	158.57	2.144e-05	2.345e-05	175.41	61.135	53.019	21.387	1.6756e-05	25.138	0.11648	0.20641	0.052717	1063.5	0.0016357	0.0017459	995.78	312.27	0.0012188	0.0012909	825.08	119.72	110.28	36.756	0.00076632	42.707	157.632	190.721	-125.038	-139.928	189.860	52.262	-140.328	-133.625	90.677	200.233	-135.687	-131.455	-129.153	-123.546	9.581	-127.574	-8191	255	
1028.645	1	1	0	0	0.20304	0.23054	0.12454	0.28424	0.21045	0.081536	0.10113	0.09754	0.11724	0.17279	0.16185	0.28376	0.089872	0.19442	0.13813	0.13728	-1.8125	-2.2792	-2.6479	-1.8792	-2.4708	-2.5292	-1.9396	-2.725	-2.1229	-2.1771	-2.7708	-2.2708	-2.4771	-2.6188	-2.0375	-2.5354	37.242	8.530	35.542	-82.349	-85.020	-27.094	189.246	-87.191	183.175	47.636	63.031	94.987	-36.601	154.552	-135.803	-38.201	0.00019153	0.0021067	0.00064677	492	1.7111e-05	6.6016e-06	491.02	155.35	6.9072e-06	2.2723e-06	182.53	65.18	54.608	22.966	5.772e-06	27.708	0.034352	0.059224	0.015042	643.71	0.00046944	0.00050295	634.97	202.28	0.00040179	0.00044637	429.61	89.948	80.797	30.883	0.00045134	39.372	-95.134	39.762	151.459	-139.856	-125.694	-42.582	-140.547	-133.566	-99.786	-124.752	-136.777	-131.262	-128.370	-123.941	-93.221	-127.148	-8191	255	
1028.764	1	1	0	0	0.2232	0.12341	0.097646	0.12265	0.1078	0.13374	0.29198	0.36112	0.24264	0.13305	0.18615	0.085894	0.13763	0.14831	0.15508	0.13411	-1.9917	-2.0062	-2.8375	-2.0021	-2.4688	-2.6562	-2.0479	-2.5667	-2.3167	-2.2062	-2.8063	-2.3146	-2.3563	-2.9521	-2.0521	-2.925	62.793	119.718	67.952	18.304	80.806	-57.396	91.827	-151.350	166.018	-116.205	150.796	133.812	-11.264	116.207	-64.054	200.507	0.0002625	0.0021769	0.00047944	503.61	8.8192e-06	1.6244e-05	489.12	155.98	1.4177e-05	5.0911e-05	172.94	57.569	52.07	19.976	2.9316e-05	21.854	0.026042	0.050028	0.014788	676.11	0.00061388	0.00076714	755.03	257.67	0.00098973	0.0012879	1009.4	154.84	166.26	57.562	0.0023595	88.52	-42.308	98.225	69.266	-140.217	-49.345	-70.335	-140.382	-133.529	56.107	44.599	-136.096	-131.337	-127.773	-123.468	-0.849	-127.033	-8191	255	
1028.860	1	1	0	0	0.16083	0.19567	0.19369	0.32234	0.066386	0.04801	0.22565	0.33661	0.17609	0.15878	0.20892	0.28739	0.15981	0.26138	0.28084	0.12005	-2.0667	-2.1042	-2.9	-2.3917	-2.4333	-2.8812	-2.2708	-2.9271	-2.7708	-2.1792	-3.0375	-2.4646	-2.4333	-3.0542	-2.4167	-2.7229	114.923	-79.892	22.241	8.013	-29.269	40.573	153.929	-135.383	-6.341	-64.613	108.805	139.848	-91.983	140.663	-125.343	-64.707	0.00055305	0.0063159	0.001462	491.17	6.8237e-05	9.092e-05	428.31	155.17	3.1733e-05	5.0302e-05	147.51	50.761	49.051	18.296	1.2052e-05	19.893	0.15125	0.30368	0.093718	1655.8	0.0037567	0.0045255	2038.2	704.48	0.004682	0.0055052	3475.9	388.5	401.9	125.34	0.0062517	180.28	74.664	-9.874	-59.169	-139.852	50.437	29.665	-141.122	-133.114	-43.747	-133.481	-138.155	-131.088	-127.923	-123.230	-123.975	-127.884	-8191	255	
1028.956	1	1	0	131072	0.32535	0.2616	0.13941	0.21603	0.32541	0.37449	0.21457	0.098203	0.089847	0.019027	0.012559	0.21841	0.073657	0.035035	0.10975	0.26185	-2.4437	-2.2771	-3.0083	-2.4708	-2.3396	-2.8604	-2.225	-2.675	-2.7687	-2.0958	-2.7729	-2.5292	-2.2146	-3.0729	-2.0875	-2.6083	4.305	-40.261	104.589	107.781	19.337	52.971	121.168	44.910	-29.279	-14.080	136.784	-124.344	136.793	178.033	-111.302	52.981	0.00069781	0.0027114	0.0026535	316.51	5.5411e-05	3.4782e-05	378.23	123.8	4.7124e-05	0.0001004	143.97	49.977	48.552	18.237	7.8026e-05	19.771	0.33189	0.63634	0.18676	2571.9	0.0063588	0.0073557	2882	928.1	0.0062255	0.0070796	4178.1	427.84	415.62	124.65	0.0057812	155.94	-4.117	1.167	109.201	-139.439	46.367	-62.069	-140.989	-135.489	31.253	134.421	-137.668	-131.224	-129.031	-125.276	-141.066	-127.801	-8191	255	
1029.052	1	1	0	0	0.023226	0.026479	0.25245	0.11929	0.18468	0.038037	0.043806	0.11048	0.04895	0.249	0.080845	0.11225	0.13602	0.33797	0.12129	0.35218	-2.4229	-2.0917	-2.7375	-2.4813	-2.0667	-2.8667	-2.1625	-2.4917	-2.7938	-2.0729	-2.7854	-2.5521	-2.0167	-2.8854	-2.1771	-2.3833	90.532	79.161	172.311	57.480	65.611	-94.156	-86.102	188.521	-26.017	-109.574	-73.265	177.608	20.209	186.855	132.458	185.463	0.00034439	0.0088008	0.00064804	499.27	4.8189e-05	7.3116e-05	439.24	154.55	1.1268e-05	6.0148e-05	161.82	56.01	49.387	19.303	4.7783e-05	21.785	0.26377	0.48774	0.13451	1951.1	0.0041915	0.0048451	2022.6	641.31	0.0038995	0.0045481	2737.9	298.2	294.55	93.249	0.0040265	117.95	18.155	108.327	-110.195	-140.245	30.541	141.240	-141.618	-133.495	-145.370	-115.928	-138.096	-131.287	-129.355	-124.296	-22.608	-126.022	-8191	255	
1029.173	1	1	0	0	0.019118	0.24589	0.33582	0.018904	0.22337	0.14593	0.069807	0.18754	0.030533	0.22674	0.087733	0.18667	0.19167	0.1651	0.28477	0.31224	-2.4042	-2.0375	-2.7062	-2.6458	-1.9708	-2.725	-2.3083	-2.3958	-2.6937	-2.0771	-2.575	-2.3708	-1.9708	-2.6021	-2.1729	-2.2708	192.751	-143.311	118.541	121.781	139.781	-149.591	-46.948	162.141	110.331	38.816	144.293	73.574	-69.435	145.046	182.123	-133.970	0.0011233	0.0071969	0.0010431	495.83	7.1653e-05	6.3749e-06	454.4	153.39	2.9785e-05	7.593e-05	163.96	56.626	51.501	20.951	2.0163e-05	24.528	0.19355	0.36885	0.10129	1570.6	0.003143	0.0036012	1572.9	484.23	0.0026062	0.0029126	1706.4	194.33	187.56	61.016	0.0021282	73.534	-65.377	198.283	203.560	-139.773	-39.786	-86.854	-140.814	-133.108	-118.729	178.734	-136.794	-131.406	-128.987	-123.812	135.344	-126.214	-8191	255	
1029.245	1	1	0	0	0.1368	0.2861	0.21523	0.042032	0.33393	0.27539	0.12003	0.33676	0.11816	0.044849	0.16416	0.17733	0.22389	0.13996	0.17599	0.04169	-2.0938	-1.9292	-2.4875	-2.6021	-1.8917	-2.6208	-2.3479	-2.1479	-2.5542	-1.9208	-2.425	-2.6021	-1.8542	-2.6292	-2.2729	-1.9896	-49.236	-129.653	161.319	-48.112	-5.419	-120.121	-47.084	-87.742	-93.914	144.225	3.400	-65.906	130.610	68.057	-78.089	61.501	0.00036145	0.0011985	0.00069386	520.86	4.1427e-05	2.8866e-05	512.45	164.9	1.3736e-05	2.7007e-05	196.15	67.54	57.314	23.631	1.0609e-05	29.313	0.099091	0.18367	0.048322	1009.4	0.0014694	0.0016435	997.94	302.29	0.0010919	0.0011919	814.94	123.79	116.39	41.77	0.0010086	54.002	-134.355	160.262	176.344	-140.089	-100.868	53.620	-140.246	-133.224	162.283	14.764	-135.523	-130.718	-128.606	-123.477	57.472	-126.732	-8191	255	
1029.341	1	1	0	0	0.020971	0.40729	0.24551	0.048248	0.15154	0.19876	0.15124	0.12777	0.1332	0.29865	0.078863	0.14467	0.20412	0.19121	0.016191	0.093167	-2.2396	-2.0604	-2.2583	-2.5271	-1.8354	-2.4646	-2.3688	-1.8979	-2.5979	-1.9396	-2.1083	-2.5875	-1.9062	-2.4854	-2.4125	-2.1583	57.368	51.599	-137.073	109.259	-48.864	-28.192	88.353	15.117	-2.876	75.738	-84.467	-127.922	-113.004	-91.957	-121.422	205.360	0.00061681	0.00188	0.0018923	539.48	2.0053e-05	4.8738e-06	566.33	171.51	1.602e-05	1.634e-05	208.61	74.288	59.714	24.798	1.9995e-05	33.052	0.054297	0.10458	0.028831	850.18	0.0010046	0.0011675	917.27	281.95	0.00092536	0.0010152	729.79	121.31	107.35	38.615	0.00071357	49.942	-119.776	95.971	-66.396	-139.746	115.488	-75.007	-140.357	-133.464	-34.520	91.140	-135.985	-131.452	-128.554	-123.392	52.996	-126.782	-8191	255	
1029.460	1	1	0	0	0.24186	0.099602	0.11958	0.21823	0.14336	0.097586	0.2086	0.13451	0.14432	0.15678	0.10609	0.22849	0.17816	0.097306	0.25029	0.3183	-2.4208	-1.8958	-1.9667	-2.6188	-1.9062	-2.575	-2.6063	-1.9875	-2.4542	-2.0917	-2.1458	-2.8417	-2.0229	-2.4125	-2.5583	-1.8188	-38.306	25.050	81.320	158.242	191.288	-115.586	1.997	2.840	50.940	-108.676	178.775	122.747	-134.713	-131.937	205.868	101.503	0.0001667	0.0013458	0.00031213	535.94	3.128e-05	2.0948e-05	586.34	173.83	1.175e-05	2.8851e-05	214.34	76.304	60.303	24.778	7.4268e-06	31.52	0.037572	0.071574	0.019806	759.82	0.0007652	0.00092645	878.48	276.72	0.00095074	0.0011354	857.2	142.27	132.66	46.625	0.0011886	62.715	-82.011	-112.542	48.735	-139.819	62.812	-59.574	-140.296	-133.892	59.259	69.921	-134.446	-131.257	-128.206	-123.597	162.617	-127.254	-8191	255	
1029.556	1	1	0	0	0.1509	0.16138	0.12667	0.2672	0.14609	0.29461	0.17151	0.27522	0.080408	0.17752	0.22211	0.098397	0.029062	0.11846	0.049918	0.077033	-2.1437	-2.1312	-1.775	-2.9125	-2.1229	-2.4229	-2.7167	-1.7437	-2.5167	-2.3875	-2.1542	-2.6792	-2.0792	-2.3646	-2.6208	-1.8792	-78.179	108.331	162.765	99.230	41.260	91.887	-94.964	-112.881	-103.815	-55.551	-12.964	168.462	176.318	91.780	-68.864	198.242	0.0002446	0.0017216	0.00075136	545.34	2.2432e-05	2.0813e-05	585.91	174.91	3.3725e-05	2.8013e-05	212.98	73.095	59.633	23.55	8.3788e-06	29.237	0.067821	0.128	0.035776	966.44	0.0013742	0.0015989	1105	355.29	0.0015691	0.0018242	1267.4	184.64	181.66	60.377	0.0021094	86.037	169.213	24.822	-57.977	-140.248	106.616	-12.687	-140.338	-133.756	14.595	60.129	-135.598	-131.059	-128.788	-123.115	189.493	-126.440	-8191	255	
1029.652	1	1	0	0	0.018992	0.10027	0.10438	0.066575	0.21214	0.19722	0.1185	0.2522	0.29052	0.32488	0.18626	0.32015	0.045458	0.095205	0.097342	0.19533	-2.2667	-2.4875	-1.925	-2.9229	-2.1188	-2.3833	-2.85	-2.0125	-2.7583	-2.55	-2.1104	-2.8063	-2.2083	-2.1396	-2.7542	-2.0854	76.883	114.463	96.132	-101.312	-91.458	48.641	167.163	189.514	-145.672	119.629	97.413	138.940	57.459	83.754	16.422	141.632	0.00030597	0.0042579	0.00068335	569.02	4.2736e-06	3.2465e-05	591.38	179.79	2.1915e-05	4.3029e-05	209.97	73.137	60.684	23.2	5.168e-05	28.707	0.12355	0.23458	0.068003	1386.3	0.0025447	0.002913	1558.8	505.55	0.0027319	0.0030891	2003.1	255.72	250.84	78.788	0.003206	111.12	-34.678	79.268	195.902	-139.825	-50.807	27.586	-140.635	-133.392	116.769	2.361	-135.927	-130.987	-128.827	-123.593	-106.660	-126.614	-8191	255	
1029.748	1	1	0	0	0.092694	0.35559	0.36247	0.1276	0.11872	0.060795	0.22135	0.11036	0.042184	0.11957	0.13134	0.27771	0.2933	0.14939	0.33601	0.064024	-2.1729	-2.5146	-1.95	-2.8833	-2.2271	-2.2729	-2.9917	-2.1875	-2.5958	-2.5812	-1.95	-2.9625	-2.3438	-2.2271	-2.8042	-2.0917	-58.609	116.850	-45.547	104.159	-5.862	8.450	156.785	150.364	-55.966	-23.672	-138.429	109.701	61.758	-137.119	115.065	50.870	0.00061261	0.0014229	0.001661	579.39	3.6216e-05	5.7369e-05	588.54	181.83	4.8545e-06	3.6182e-05	212.29	70.686	60.861	22.132	3.6408e-06	26.28	0.17379	0.32617	0.095151	1703.8	0.003454	0.0040209	1971.5	638.49	0.0038295	0.004442	2827.6	333.47	329.56	101.75	0.004548	139.35	-21.906	-121.399	-129.668	-139.950	76.274	93.851	-141.221	-134.365	-11.673	84.601	-135.615	-131.129	-129.805	-124.424	131.698	-127.672	-8191	255	
1029.844	1	1	0	0	0.27776	0.13484	0.28437	0.16059	0.26623	0.12713	0.055411	0.30711	0.063914	0.11367	0.23576	0.16068	0.043141	0.1383	0.099026	0.16737	-2.2062	-2.7104	-2.0062	-2.9625	-2.5167	-2.1042	-2.8625	-2.2292	-2.5208	-2.6854	-2.1771	-2.9708	-2.4542	-2.1958	-3.0292	-2.3542	80.567	-5.346	146.723	-117.858	95.651	59.624	-43.082	189.228	67.727	-135.767	-135.210	-7.731	185.464	156.484	21.662	116.219	0.0002628	0.0039882	0.00023834	594.34	5.2435e-05	3.7443e-05	583.42	178.43	2.9246e-05	2.6895e-05	201.09	67.989	58.742	21.388	3.7328e-05	25.321	0.22957	0.43254	0.12386	2003.7	0.004175	0.0048353	2203	689.31	0.0040813	0.0046357	2830.6	317.49	304.13	93.257	0.0039735	120	72.427	-40.419	-38.675	-140.306	-67.752	163.267	-140.917	-134.993	44.085	6.482	-138.402	-132.774	-130.173	-125.141	-90.085	-128.300	-8191	255	
1029.940	1	1	0	0	0.076415	0.24627	0.31333	0.20305	0.10435	0.024067	0.048195	0.1355	0.090205	0.15316	0.19399	0.15536	0.3043	0.36804	0.19676	0.2133	-2.0292	-2.875	-1.8958	-2.7896	-2.6229	-1.9917	-2.8063	-2.2458	-2.1542	-2.7125	-1.8312	-2.7979	-2.4792	-2.1458	-2.5229	-2.2167	161.131	80.201	164.561	194.258	73.705	185.687	21.840	-103.109	-13.651	-142.509	-53.991	204.430	198.441	-104.002	-92.560	167.834	0.00060596	0.0031873	0.0025834	568.76	1.9317e-05	7.6185e-05	575.83	173.77	2.8273e-05	3.5471e-05	200.2	70.488	57.966	22.852	4.426e-05	28.317	0.18494	0.34146	0.093359	1565.4	0.0027904	0.0031036	1532	454.46	0.0021451	0.0023764	1479	186.72	172.73	56.508	0.0018449	72.431	23.898	-150.032	127.488	-140.202	-10.273	-143.102	-141.179	-134.317	-95.960	-142.262	-138.736	-131.149	-129.163	-124.843	-148.871	-127.953	-8191	255	
1030.036	1	1	0	0	0.20546	0.16951	0.46484	0.16489	0.37027	0.24391	0.128	0.010777	0.17442	0.28159	0.071963	0.28065	0.29362	0.17429	0.25401	0.12732	-1.7854	-2.6562	-1.9479	-2.6042	-2.4875	-1.7146	-2.6625	-2.0708	-2.0333	-2.6854	-1.9479	-2.2083	-2.6271	-1.7604	-2.6979	-2.2062	181.810	-21.351	75.537	184.736	185.608	7.623	0.084	151.353	195.036	180.566	-99.694	72.695	-63.557	152.231	-15.238	130.388	7.4907e-05	0.0014758	0.0010491	552.18	6.8565e-06	4.2716e-05	562.34	167.7	2.5027e-05	2.8316e-06	205.05	72.6	58.155	24.325	1.4131e-05	31.171	0.090167	0.17215	0.047319	1052.3	0.0014811	0.0016844	1077.2	318.51	0.0011845	0.001324	905.35	136.21	122.62	43.317	0.0010388	55.576	-61.596	-103.993	-38.568	-139.687	-44.292	-127.513	-141.027	-133.999	-118.621	-125.069	-136.237	-131.442	-128.894	-124.139	-138.518	-127.367	-8191	255	
1030.133	1	1	0	0	0.34785	0.14565	0.20528	0.19881	0.1427	0.070521	0.039348	0.063545	0.11193	0.044529	0.09922	0.13371	0.09695	0.14998	0.15381	0.23045	-1.6271	-2.6708	-1.8625	-2.2687	-2.6854	-1.7875	-2.6833	-2.3958	-1.9438	-2.4625	-2.1188	-2.1333	-2.7729	-1.9583	-2.4271	-2.6229	52.224	183.350	37.910	-138.964	60.712	-133.222	-58.641	44.622	-57.626	169.818	107.391	136.817	41.571	-69.888	-43.033	-82.250	0.00032907	0.0034243	0.00024471	535.9	1.8418e-05	2.7493e-05	572.2	166.48	2.03e-05	1.8006e-05	206.5	73.83	58.719	24.812	3.0667e-05	31.95	0.05086	0.09685	0.026195	806.62	0.00084329	0.00097132	862.47	255.55	0.00074928	0.00085554	661.68	116.15	103.08	38.261	0.00074823	50.054	-60.894	55.576	-80.495	-139.991	-49.455	131.932	-140.584	-133.855	-31.061	-7.375	-135.939	-131.106	-128.993	-124.085	1.057	-127.616	-8191	255	
1030.252	1	1	0	0	0.17223	0.3162	0.16449	0.1453	0.21445	0.0564	0.16853	0.14049	0.28547	0.14683	0.18063	0.28639	0.16105	0.13985	0.20823	0.14472	-1.7458	-2.6188	-1.9833	-2.2771	-2.725	-1.9604	-2.4917	-2.5479	-1.7729	-2.4562	-2.2146	-2.2188	-2.7792	-1.8	-2.4354	-2.6854	101.067	30.159	123.920	72.219	197.328	-32.891	20.080	164.095	26.436	-47.527	71.154	137.879	-89.375	21.889	-10.812	159.203	0.00060645	0.00163	0.00026533	528.07	3.048e-06	2.6408e-05	567.93	164.17	7.8217e-06	1.8848e-05	206.47	74.361	58.147	24.645	1.1353e-05	32.268	0.039443	0.075564	0.020341	737.9	0.00068871	0.00078984	800.33	239.34	0.00066422	0.00077378	627.61	115.09	103.51	38.319	0.00075708	51.04	-52.596	34.151	3.808	-139.598	83.619	92.257	-140.103	-133.648	-75.184	57.566	-136.281	-131.258	-128.724	-124.439	14.000	-127.729	-8191	255	
1030.348	1	1	0	0	0.15942	0.16768	0.16799	0.16058	0.12433	0.10736	0.15834	0.15764	0.23373	0.1314	0.066221	0.17954	0.030864	0.28883	0.16231	0.16286	-1.6333	-2.6208	-2.1188	-2.1479	-2.8729	-1.925	-2.4708	-2.7667	-2.0458	-2.5792	-2.2146	-2.1667	-2.7875	-2.1333	-2.4333	-2.6021	125.808	47.851	94.970	-145.368	4.555	175.536	-132.823	96.814	-81.051	194.959	-142.856	186.605	-99.002	58.350	127.017	112.372	0.00040873	0.0027915	0.00013849	522.67	1.3584e-05	1.8959e-05	565.23	166.51	7.1475e-06	1.2261e-05	203.55	72.217	57.964	23.428	1.5486e-05	29.908	0.0428	0.082156	0.022526	776	0.00083129	0.00096044	859.37	263.26	0.00085769	0.00098469	739.66	126.07	115.91	40.558	0.00094293	53.917	-61.408	6.986	-31.527	-139.683	14.551	52.495	-140.319	-133.565	44.221	207.112	-136.524	-131.929	-129.629	-124.280	-71.775	-127.664	-8191	255	
1030.444	1	1	0	0	0.33688	0.16603	0.014994	0.18218	0.20389	0.35052	0.21162	0.10203	0.30859	0.22208	0.14839	0.31856	0.16661	0.090001	0.076268	0.17761	-1.425	-2.6312	-2.1729	-2.0438	-2.8146	-2.1667	-2.325	-2.925	-2.1292	-2.7687	-2.6021	-2.0958	-2.8042	-2.25	-2.35	-2.7208	207.262	-74.449	-15.551	103.426	202.230	-116.441	-59.642	202.267	39.573	-141.912	120.127	-132.319	-98.770	179.863	-45.068	170.737	0.00012418	0.0021932	0.00047368	531.58	1.1478e-05	3.1619e-05	549.76	164.35	5.6013e-06	5.6674e-06	191.05	66.967	54.957	21.412	4.1261e-05	25.663	0.052724	0.099923	0.027984	860.03	0.0010776	0.0012622	957.82	304.34	0.0012371	0.0014478	1040.5	157.38	156.61	52.989	0.0018934	78.591	-75.053	-18.568	-37.097	-140.025	117.386	74.326	-140.663	-133.575	48.678	3.197	-134.458	-131.426	-129.000	-123.348	165.627	-126.613	-8191	255	
1030.540	1	1	0	0	0.24058	0.12044	0.086462	0.20844	0.10386	0.14495	0.26699	0.021856	0.16538	0.33341	0.12322	0.14864	0.29206	0.042998	0.18956	0.2131	-1.5896	-2.6521	-2.6792	-2.2979	-2.8063	-2.3854	-2.2917	-3.0292	-2.0458	-2.5833	-2.7938	-2.15	-2.8396	-2.3625	-2.3917	-3.025	80.815	9.545	-120.038	132.518	-128.715	118.705	-90.930	-4.136	-68.148	201.169	122.688	182.895	70.630	-90.128	-30.611	18.656	0.00011737	0.0037429	0.0015452	529.39	3.4096e-05	8.2605e-05	514.08	160.1	7.9851e-05	9.522e-05	189.2	58.736	53.3	19.563	8.073e-05	22.294	0.12031	0.24091	0.07252	1434.5	0.0029552	0.0035186	1730	586.05	0.0036446	0.0042148	2656.9	315.09	320.39	97.335	0.0044418	136.48	-65.912	-111.101	50.448	-139.975	62.282	45.179	-140.812	-134.270	97.664	2.258	-136.156	-131.885	-129.647	-123.276	-99.456	-126.982	-8191	255	
1030.636	1	1	0	0	0.27042	0.23066	0.25944	0.26004	0.1361	0.1253	0.17182	0.26233	0.12328	0.21662	0.33967	0.2843	0.18599	0.09214	0.094508	0.15736	-1.6021	-2.4583	-2.8958	-2.0833	-2.8396	-2.5208	-2.4375	-2.9104	-2.4354	-2.3708	-2.8208	-2.3167	-2.8625	-2.5312	-2.0375	-3.0021	76.592	51.608	12.718	102.690	62.417	41.331	164.920	-144.249	42.277	101.092	74.800	-124.543	-123.788	-65.074	-80.474	-133.407	0.00014765	0.004435	0.00022157	534.55	1.0542e-05	7.1946e-06	509.03	162.86	2.5072e-05	3.6025e-05	177.36	60.369	53.158	19.368	6.4726e-05	22.57	0.23596	0.43658	0.12543	1984.4	0.0043306	0.0048634	2134.8	684.69	0.0041435	0.0045669	2761.4	306.61	296.88	88.969	0.003839	115.74	-86.991	-15.377	193.695	-140.313	-48.146	-40.663	-140.719	-133.643	101.773	205.538	-138.920	-131.935	-129.038	-124.268	-122.681	-127.792	-8191	255	
1030.757	1	1	0	0	0.17626	0.12565	0.055437	0.2065	0.15582	0.26826	0.18988	0.17438	0.068361	0.11732	0.051199	0.10757	0.17835	0.31226	0.20102	0.15715	-1.9104	-2.3563	-2.8104	-2.2875	-2.6708	-2.5563	-2.1479	-2.8563	-2.3146	-2.4167	-2.9208	-2.2062	-2.9125	-2.6021	-1.9958	-2.8104	155.648	192.697	204.951	203.822	169.898	141.918	155.698	201.606	-122.912	3.148	149.842	-82.308	-7.812	5.791	111.167	120.155	0.0007794	0.0021846	0.0028621	547.79	1.3766e-05	3.4039e-05	534.05	166.12	3.3711e-05	4.4648e-05	194.16	61.822	54.549	19.913	5.7182e-05	23.427	0.18216	0.33236	0.092178	1557.2	0.0029047	0.003243	1588.8	490.97	0.0025599	0.0028807	1815.4	216.32	206.1	64.004	0.0024216	81.098	-55.665	57.252	124.741	-140.882	-7.923	-117.104	-141.894	-134.835	5.053	204.635	-135.732	-132.314	-129.778	-125.402	-61.397	-128.100	-8191	255	
1030.853	1	1	0	0	0.13056	0.48407	0.11728	0.20831	0.33147	0.16522	0.14247	0.091609	0.11946	0.11889	0.087993	0.10721	0.12599	0.1964	0.24587	0.31526	-1.7979	-2.2062	-2.9771	-2.2458	-2.4958	-2.7062	-2.0833	-2.9458	-2.375	-2.2125	-2.8333	-2.15	-2.3604	-2.9042	-2.0708	-2.9292	178.621	-15.776	72.390	203.818	-64.752	-48.331	202.181	105.939	-61.688	11.891	122.006	157.956	41.490	52.977	135.782	69.528	0.00017401	0.0014233	0.00075564	536.28	2.3602e-05	3.3404e-05	530.84	163.09	5.4329e-06	2.0457e-05	180.19	60.287	52.867	18.843	3.9392e-05	21.686	0.11449	0.21513	0.060353	1198	0.0019434	0.0022455	1255.7	388.93	0.0018154	0.0021024	1368	172.29	167.39	53.937	0.0019702	70.019	-76.049	-138.451	-65.536	-140.337	155.627	156.900	-141.249	-134.513	-84.709	-18.039	-136.755	-131.717	-128.515	-124.966	93.853	-127.315	-8191	255	
1030.947	1	1	0	0	0.094966	0.2528	0.12486	0.1147	0.082556	0.087659	0.13787	0.10817	0.17684	0.20954	0.10143	0.12731	0.20631	0.30059	0.14788	0.13685	-2.0708	-2.1667	-2.8354	-2.3521	-2.5333	-2.8229	-1.8917	-2.8354	-2.5812	-2.1583	-2.9875	-2.2083	-2.5	-2.6813	-2.1063	-2.7687	177.773	-64.084	4.085	-109.965	-36.726	161.614	76.672	167.902	26.640	152.206	-88.581	-55.870	-133.471	162.666	13.617	64.306	0.00032301	0.0030741	0.0010892	517.64	3.5185e-05	1.6988e-05	484.86	154.4	2.5928e-05	2.3232e-05	169.57	53.731	49.612	17.481	1.4871e-05	20.041	0.10146	0.19971	0.056917	1149.2	0.0019435	0.0023079	1235.5	389.8	0.0019375	0.0022691	1436.5	173.34	172.58	55.054	0.0020502	69.182	-106.381	10.985	-15.543	-140.456	124.430	42.091	-141.359	-133.520	12.436	110.217	-136.971	-132.055	-129.236	-124.843	13.682	-127.978	-8191	255	
1031.043	1	1	0	0	0.075733	0.13181	0.23282	0.26371	0.0426	0.078915	0.13403	0.19617	0.042224	0.039394	0.50969	0.23957	0.10609	0.011934	0.21196	0.13729	-2.0146	-2.0896	-2.6417	-2.2854	-2.1354	-2.7604	-2.1729	-2.5938	-2.5542	-1.9604	-2.7917	-2.2833	-2.2625	-2.7229	-2.0292	-2.7542	152.570	10.708	-19.232	163.899	-92.720	1.632	-84.590	-68.263	-33.732	-103.580	28.731	89.686	-148.326	-100.760	140.216	-82.817	0.00023487	0.00152	0.00047817	506.87	2.5235e-05	6.9326e-05	488.06	154.9	1.638e-05	4.1316e-05	174.28	55.893	50.712	18.101	2.3208e-05	20.794	0.10274	0.19764	0.054683	1099.8	0.0018159	0.0021257	1161.7	362.46	0.0017289	0.0019846	1250.3	156.13	152.84	48.186	0.0015876	58.12	69.674	-51.177	72.951	-140.730	-105.974	-135.503	-140.935	-134.416	-62.088	-93.162	-135.760	-132.572	-130.457	-124.372	23.882	-127.808	-8191	255	
1031.140	1	1	0	0	0.15908	0.12411	0.04008	0.28078	0.16959	0.061215	0.15898	0.098027	0.18175	0.091985	0.12818	0.18716	0.12704	0.29063	0.18733	0.13467	-2.3063	-2.0104	-2.7313	-2.3271	-2.1917	-2.7208	-2.1833	-2.5708	-2.5958	-2.0167	-2.775	-2.3688	-2.0021	-2.7146	-2.0875	-2.525	-96.231	-87.996	-32.878	-47.000	13.975	109.497	-22.547	-43.920	161.896	93.526	112.203	45.512	-129.008	161.745	-82.325	-13.103	0.00038794	0.0010819	0.00038957	501.18	2.8581e-05	1.5208e-05	498.01	154.52	1.2227e-05	3.1982e-05	176.31	59.39	51.801	18.983	1.7725e-06	21.944	0.077547	0.14453	0.03882	917.63	0.0012786	0.0014533	942.96	291.03	0.0011527	0.0012969	867.13	123.94	117.5	37.824	0.00097923	44.922	204.778	-33.068	-44.638	-140.374	-135.262	-5.315	-140.552	-134.485	-25.342	-46.163	-135.469	-132.211	-129.086	-125.427	-19.824	-126.920	-8191	255	
1031.236	1	1	0	0	0.072032	0.12153	0.23636	0.19548	0.15457	0.26872	0.090371	0.22614	0.13515	0.21097	0.31259	0.18794	0.26272	0.056281	0.22444	0.17012	-2.2062	-1.8563	-2.75	-2.325	-1.9125	-2.7812	-2.1417	-2.4188	-2.6271	-2.0062	-2.3708	-2.4542	-2.0646	-2.8208	-2.1396	-2.1104	20.671	196.239	-16.685	-64.243	24.628	-28.119	-83.350	-109.890	-82.655	-100.041	188.292	-102.274	-20.692	143.947	-106.692	66.179	0.00019949	0.0011304	0.00026502	491.95	1.9077e-05	1.6793e-05	501.01	151.36	2.232e-05	8.7521e-06	178.06	63.435	52.425	20.322	1.9748e-05	25.264	0.047119	0.083727	0.021339	709.78	0.00065709	0.00070497	698.8	211.31	0.00049935	0.00052682	440.53	86.277	75.049	26.616	0.00030622	32.172	-106.068	43.967	-5.266	-140.476	-58.521	109.504	-141.130	-134.838	-27.102	48.551	-136.789	-132.269	-129.672	-125.237	97.083	-128.807	-8191	255	
1031.332	1	1	0	0	0.13852	0.2569	0.28187	0.13134	0.23218	0.089336	0.22151	0.23017	0.012545	0.1079	0.1076	0.027004	0.087187	0.13222	0.11753	0.068732	-2.1167	-1.7646	-2.4146	-2.3583	-1.9104	-2.8063	-2.2042	-2.1063	-2.8229	-1.8979	-2.5812	-2.4354	-1.8125	-2.8438	-2.1542	-2.1625	-125.280	182.521	-133.234	31.889	106.320	-39.745	137.513	-98.508	66.793	165.902	-46.230	175.871	13.303	39.813	-89.876	-124.401	0.00029113	0.001135	9.9715e-05	495.42	9.7253e-06	1.6691e-05	533.87	153.16	6.0366e-06	3.9927e-06	195.57	71.198	54.459	23.232	3.1022e-06	29.691	0.014332	0.02471	0.0062477	552.89	0.0002049	0.00022098	584.6	172.02	0.00017393	0.00018391	289.16	79.702	63.437	25.952	0.00014533	32.98	-103.014	-10.530	-135.682	-140.608	48.954	64.067	-141.234	-134.319	104.082	25.721	-137.585	-132.464	-129.888	-125.075	43.596	-128.343	-8191	255	
1031.428	1	1	0	0	0.16408	0.099124	0.12892	0.125	0.087459	0.062337	0.29621	0.12558	0.12245	0.22428	0.11004	0.23869	0.035725	0.076134	0.1032	0.033925	-2.3417	-1.8167	-2.4521	-2.5292	-2.0083	-2.6708	-2.1708	-2.1583	-2.5125	-1.8667	-2.2958	-2.7104	-2.1104	-2.5729	-2.4229	-1.9792	162.200	152.319	36.284	85.363	-90.933	-10.060	164.670	187.261	144.954	142.253	-54.112	151.884	152.118	127.246	77.800	-143.272	0.00040503	0.0013246	0.00030421	500.7	1.1532e-05	1.1183e-05	552.51	155.52	3.2071e-06	1.2172e-05	201.7	74.03	56.219	23.044	1.8073e-06	28.337	0.0077557	0.013871	0.0038271	535.22	0.00013713	0.00015366	588.36	169.57	0.00013599	0.00014997	281.91	81.178	63.969	25.294	0.00013771	31.503	-70.446	-76.809	62.246	-140.579	-72.921	27.604	-141.440	-134.370	136.299	-25.028	-137.539	-132.624	-129.757	-124.742	204.829	-128.637	-8191	255	
1031.524	1	1	0	0	0.23831	0.17067	0.13544	0.082164	0.10446	0.065917	0.18984	0.27376	0.35849	0.059676	0.10729	0.14647	0.25077	0.20382	0.18786	0.0932	-2.3667	-2.0896	-2.2083	-2.7833	-1.775	-2.6708	-2.3875	-2.0354	-2.7646	-2.0875	-2.3646	-2.8167	-1.8188	-2.4917	-2.4562	-1.9833	116.297	-67.118	133.398	102.299	-17.218	71.944	114.602	39.692	-73.955	-111.441	83.392	127.503	-0.227	-94.548	120.933	-134.054	0.00024785	0.00014999	0.00025355	517.35	9.5655e-06	4.2558e-06	554.61	155.14	1.2044e-05	1.9275e-05	199.9	75.14	55.5	23.319	9.5146e-06	28.785	0.007245	0.012898	0.0036705	547.21	0.00012561	0.00014035	592.22	168.08	0.0001241	0.0001373	278.52	81.844	63.285	25.399	0.00013534	31.85	-56.297	-85.431	-134.655	-140.676	8.342	123.977	-141.356	-134.364	5.823	-30.324	-137.138	-132.037	-129.406	-125.173	-130.134	-128.069	-8191	255	
1031.645	1	1	0	0	0.095007	0.090726	0.060478	0.11046	0.21496	0.17991	0.067852	0.1333	0.0933	0.1286	0.066857	0.11996	0.010811	0.16365	0.1501	0.23763	-2.325	-2.0479	-2.05	-2.9042	-1.9229	-2.5229	-2.5312	-1.8146	-2.4833	-2.2354	-2.0896	-2.8396	-2.0187	-2.5542	-2.55	-1.95	-50.437	-44.495	143.509	174.246	51.390	-82.233	178.970	-71.769	75.887	-24.068	-38.029	45.394	-93.196	151.807	132.790	150.512	0.00023746	0.00091222	0.00032551	522.03	1.0221e-05	2.0143e-06	567.81	157.4	7.1153e-06	7.9237e-06	204.49	75.456	55.962	23.589	2.3828e-06	30.167	0.0069808	0.012859	0.0037169	549.85	0.00012561	0.000145	601.92	169.95	0.00012756	0.00014717	283.41	82.95	63.712	25.892	0.00014226	33.393	-66.008	-0.506	103.449	-140.525	169.797	128.109	-141.292	-134.060	-42.908	-34.437	-137.315	-132.352	-129.580	-124.568	-103.217	-128.442	-8191	255	
1031.741	1	1	0	0	0.052023	0.14522	0.053154	0.1321	0.21318	0.13799	0.23932	0.14583	0.075926	0.18954	0.070243	0.082118	0.22657	0.33758	0.22356	0.33142	-2.2479	-2.0771	-1.9729	-2.7417	-1.9271	-2.3187	-2.8271	-1.875	-2.625	-2.175	-2.0271	-2.8229	-2.2375	-2.0583	-2.6042	-2.0375	113.727	165.567	43.862	203.954	-74.415	81.102	94.790	69.780	-119.238	51.593	-98.816	97.396	163.852	-97.730	-114.356	91.939	0.00024065	0.00033076	0.00029722	523.9	2.2726e-06	4.055e-06	569.06	156.75	2.997e-06	8.8666e-06	205.5	77.545	56.921	23.604	8.7653e-06	30.368	0.0074279	0.013865	0.0039599	557.28	0.00013359	0.00015617	608.01	171.31	0.000136	0.00015498	289.81	84.872	65.046	26.065	0.00014677	33.737	-68.158	-5.340	-53.752	-140.464	-8.108	-124.397	-140.905	-134.798	-57.807	31.309	-136.586	-132.089	-129.258	-124.329	-15.994	-128.438	-8191	255	
1031.837	1	1	0	0	0.21632	0.3092	0.11503	0.35631	0.15525	0.11343	0.35334	0.10756	0.11977	0.19031	0.17708	0.054922	0.25405	0.2368	0.078521	0.09904	-2.2833	-2.3771	-1.8521	-2.6771	-2.3104	-2.2271	-2.6479	-1.8896	-2.3125	-2.4437	-1.9083	-2.7062	-2.1354	-2.0625	-2.8208	-1.7417	44.117	138.741	45.896	137.617	31.415	-28.152	173.434	83.735	-120.622	-46.450	2.321	-9.893	-63.629	143.259	62.880	-114.826	0.00027964	0.0010334	0.00021579	542.24	5.054e-06	9.9878e-06	579.38	157.94	4.0914e-06	1.3836e-05	204.48	75.929	56.336	23.584	4.1554e-06	29.909	0.0075686	0.01429	0.0040365	574.26	0.00013913	0.00016356	616.36	172.52	0.00014323	0.00016768	292.31	84.093	65.384	26.298	0.00016579	33.628	-81.837	19.798	-18.643	-140.615	-64.177	-13.642	-141.558	-134.417	113.793	136.581	-136.405	-131.371	-129.146	-124.246	-50.620	-127.456	-8191	255	
1031.933	1	1	0	0	0.24583	0.1933	0.23263	0.16154	0.18058	0.11861	0.35444	0.095569	0.19039	0.26369	0.092659	0.12986	0.10391	0.021987	0.2444	0.11259	-1.9688	-2.3937	-1.8417	-2.5417	-2.1896	-1.9875	-2.7208	-1.8813	-2.6208	-2.5021	-1.8646	-2.6146	-2	-1.7854	-2.7417	-1.9438	199.878	171.598	92.577	106.401	83.361	19.648	108.256	114.180	19.157	79.965	181.870	-38.274	-139.821	-9.899	111.216	108.159	0.00028841	0.00092493	0.00040651	571.54	1.1811e-05	4.9014e-06	578.63	159.71	1.4072e-05	9.3974e-06	191.19	70.055	53.271	22.258	6.8131e-06	27.777	0.0087748	0.016634	0.0047024	610.71	0.00016443	0.00019512	625.55	176.61	0.00017175	0.00020005	297.67	79.659	64.388	25.597	0.00019034	32.067	-81.452	121.254	-147.023	-140.125	-121.406	-8.167	-140.953	-134.556	-9.737	67.975	-137.277	-131.583	-128.777	-124.354	-3.869	-128.052	-8191	255	
1032.028	1	1	0	0	0.19535	0.094071	0.19144	0.21151	0.19582	0.21613	0.040095	0.29958	0.16812	0.099737	0.070699	0.13198	0.19531	0.091525	0.092765	0.19669	-2.05	-2.5687	-1.8208	-2.9042	-2.2958	-2.1833	-2.7896	-2.1333	-2.4813	-2.7521	-1.9813	-2.6958	-2.4479	-2.1146	-2.8229	-2.3542	18.251	167.523	-4.127	196.318	187.609	-90.289	37.873	-138.522	83.199	148.237	-11.571	141.775	183.398	-45.300	30.057	141.037	0.0001716	0.001395	0.00036696	553.99	1.6941e-05	1.1322e-05	541.62	154.57	7.1209e-06	2.235e-05	184.18	70.879	53.152	23.002	3.4299e-06	30.29	0.0099303	0.018846	0.005326	600.39	0.00018762	0.0002218	602.5	175.39	0.00020136	0.00023085	310.67	82.27	66.391	27.017	0.00023111	35.721	-79.286	-104.452	-112.477	-140.131	-46.816	-4.770	-141.420	-134.102	56.679	2.843	-136.267	-131.566	-129.370	-124.255	2.069	-127.672	-8191	255	
1032.126	1	1	0	0	0.16851	0.18059	0.12877	0.32277	0.111	0.3074	0.14433	0.10356	0.10309	0.29826	0.12075	0.087319	0.272	0.17563	0.2011	0.10645	-1.7479	-2.5271	-2.1708	-2.7771	-2.4021	-2.0479	-2.7667	-2.3646	-2.0833	-2.6958	-1.8937	-2.6896	-2.6063	-1.8813	-2.5875	-2.3083	7.777	-7.825	-149.100	164.915	-142.076	68.659	-131.516	-87.359	124.491	25.681	-114.968	142.990	113.449	41.814	41.504	193.397	0.0003072	0.00062876	0.00033216	540.66	8.43e-06	4.4752e-06	522.35	151.33	4.4478e-07	1.395e-05	179.31	67.817	52.419	22.771	7.4383e-06	29.006	0.012475	0.023705	0.006627	602.97	0.00023809	0.0002799	603.31	177.64	0.00025248	0.00029627	341.33	83.97	69.029	27.825	0.00029817	36.1	-77.460	-25.334	-36.111	-140.276	23.357	-37.094	-141.417	-134.155	100.216	9.784	-137.246	-131.613	-128.850	-124.398	-112.310	-127.963	-8191	255	
1032.244	1	1	0	0	0.21841	0.17867	0.28352	0.114	0.29616	0.055081	0.063786	0.28115	0.15682	0.15103	0.058033	0.1839	0.27799	0.19406	0.094635	0.28425	-1.6	-2.7292	-2.0021	-2.6542	-2.525	-1.8729	-2.7208	-2.3667	-2.0438	-2.7542	-2.0896	-2.4125	-2.7	-2.0083	-2.7375	-2.3417	165.957	-3.996	-35.069	-2.577	87.093	-147.834	72.075	86.788	-45.484	63.290	-142.114	-32.182	150.350	39.865	-31.294	142.279	0.00017842	0.0018366	0.00040068	535.89	9.9681e-06	8.1274e-06	508.3	147.69	1.3715e-05	3.1357e-06	172.31	66.332	51.206	22.132	4.083e-06	27.163	0.015868	0.029892	0.0082827	616.79	0.00028897	0.00033314	603.2	178.93	0.0002838	0.00032519	348.3	83.323	69.106	27.577	0.0003253	35.756	-120.451	-11.345	-132.317	-140.240	72.868	44.671	-140.751	-134.225	-85.245	31.043	-135.521	-131.806	-129.233	-124.002	31.489	-128.151	-8191	255	
1032.341	1	1	0	0	0.27143	0.25167	0.23588	0.094211	0.10977	0.069812	0.34255	0.13351	0.22527	0.29771	0.36999	0.19441	0.16973	0.21075	0.10434	0.10037	-1.6354	-2.6167	-2.0938	-2.4833	-2.6875	-2.0292	-2.6479	-2.5938	-2.1521	-2.8792	-1.9854	-2.2229	-2.7604	-1.9562	-2.8104	-2.6354	-131.499	13.229	-98.604	186.444	15.312	104.882	203.730	-109.640	-16.023	121.260	70.227	-144.210	-65.531	84.457	122.031	-76.760	0.00022513	0.00087375	0.00028793	517.82	3.4777e-05	1.8303e-05	463.83	140.14	2.2628e-05	3.0983e-05	158.13	53.822	45.353	18.754	2.42e-05	21.986	0.020627	0.042456	0.01312	675.62	0.00058601	0.00077654	756.44	257.79	0.0012376	0.0017804	1409.4	208.76	242.82	87.808	0.0044551	147.22	-55.984	108.034	-30.441	-140.151	-5.293	22.756	-140.790	-134.064	76.218	37.059	-135.618	-130.694	-129.427	-124.355	50.303	-127.829	-8191	255	
1032.437	1	1	0	131072	0.1692	0.047873	0.090683	0.2736	0.173	0.23019	0.14176	0.18796	0.10879	0.12735	0.13346	0.011173	0.083746	0.15603	0.040385	0.061772	-1.7729	-2.9646	-2.425	-2.5062	-2.8896	-2.0875	-2.8521	-2.7562	-2.1917	-3.0146	-2.4437	-2.5042	-3.1521	-2.2146	-2.675	-2.7896	125.869	-68.858	55.310	-129.918	78.374	-127.768	161.443	-137.725	81.762	-68.607	145.943	-87.729	-106.129	146.919	-87.661	203.278	0.00031567	0.0058413	0.00076187	289.51	3.6696e-05	1.9355e-05	170.03	46.922	4.3552e-05	5.9932e-05	163.99	55.23	49.613	17.963	3.9457e-05	20.441	0.28944	0.58706	0.17518	2606	0.006735	0.0079727	3070.2	981.76	0.0070946	0.0079576	4559.3	471.86	456.75	131.67	0.0059495	158.23	23.431	-22.664	-20.565	-139.844	65.569	-62.072	-142.061	-133.659	75.112	175.405	-137.205	-132.580	-128.836	-125.232	-66.299	-128.216	-8191	255	
1032.533	1	1	0	0	0.073787	0.25827	0.065999	0.16054	0.028802	0.13571	0.20234	0.1837	0.082083	0.10719	0.11831	0.096559	0.16141	0.12428	0.074112	0.12773	-1.7083	-2.9042	-2.3854	-2.1562	-2.7521	-1.9896	-2.6	-2.6896	-1.9479	-2.6625	-2.2771	-2.0542	-2.8604	-2.0646	-2.1521	-2.5458	-90.959	-9.481	151.366	68.506	64.806	187.036	125.025	-138.376	59.784	-84.196	112.938	-141.309	54.485	112.846	-27.423	188.198	0.00079228	0.0021788	0.0016834	491.18	4.6442e-05	5.9162e-05	411.67	129.43	2.3509e-05	3.8655e-05	132.68	51.305	43.98	19.551	2.1068e-05	23.778	0.26082	0.44644	0.11414	1652.4	0.0030639	0.0030718	1299	373.12	0.0017314	0.0017328	1017.1	129.13	118.19	40.636	0.0011855	52.868	-100.339	88.205	89.781	-140.999	88.686	-122.694	-141.264	-134.139	-48.959	-142.138	-136.986	-131.293	-128.708	-123.609	-90.981	-126.910	-8191	255	
1032.629	1	1	0	0	0.13677	0.11812	0.03191	0.12237	0.26831	0.16452	0.055861	0.056104	0.17548	0.2276	0.23027	0.11021	0.14891	0.0914	0.1752	0.14129	-1.4062	-2.4708	-2.2979	-2.0604	-2.6708	-1.9312	-2.175	-2.7229	-1.7812	-2.5896	-2.3083	-1.8208	-2.6042	-2.2104	-1.975	-2.7188	41.332	-40.006	128.295	159.704	-58.733	-67.074	205.548	40.628	-1.355	-23.260	131.692	88.875	-14.097	-56.774	9.190	103.978	0.0001417	0.0013824	0.00023086	456.19	3.4198e-05	2.8916e-05	380.64	116.16	9.8659e-06	6.9137e-06	114.75	49.895	41.941	21.014	2.0738e-05	25.663	0.059725	0.11326	0.032126	793.11	0.00097245	0.0010583	698.03	208.02	0.00069454	0.00075994	525.79	86.944	79.619	32.183	0.00062546	40.375	-34.796	-106.360	-147.880	-138.823	-134.793	-122.803	-139.476	-132.431	33.645	12.756	-132.918	-129.882	-127.625	-123.108	-16.800	-126.510	-8191	255	
1032.725	1	1	0	0	0.070987	0.12112	0.2429	0.099489	0.019739	0.053666	0.18651	0.24253	0.37933	0.14339	0.018492	0.083412	0.097504	0.32606	0.047216	0.26597	-1.5979	-2.5146	-2.4542	-1.9	-2.8	-2.0271	-2.1562	-2.6021	-1.8833	-2.3292	-2.4625	-1.9271	-2.5396	-2.1979	-2.025	-2.675	203.349	-114.235	-4.968	-139.504	-85.995	182.858	-127.615	-26.934	155.359	167.821	102.250	50.743	-119.080	-145.905	188.899	-133.297	0.00039666	0.00028454	0.00034282	520.43	2.5717e-05	8.7369e-06	448.78	124.45	1.6007e-05	7.4917e-06	121.2	50.089	42.944	22.014	1.1612e-05	27.702	0.029835	0.055987	0.015182	667.7	0.00046334	0.00052609	607.66	174.49	0.0004266	0.00049434	397.24	76.21	70.603	30.508	0.00047416	39.111	-69.038	181.375	135.347	-138.835	-68.387	-79.127	-139.748	-132.435	21.187	-88.149	-134.425	-129.887	-127.404	-122.413	13.958	-126.788	-8191	255	
1032.846	1	1	0	0	0.10281	0.38615	0.27653	0.31597	0.23105	0.20055	0.25129	0.30141	0.23387	0.12183	0.17179	0.22016	0.28312	0.14968	0.072214	0.04022	-1.4562	-2.4042	-2.6458	-1.8521	-2.4792	-2.1333	-1.9479	-2.6479	-2.0208	-2.275	-2.5	-1.9688	-2.55	-2.4167	-1.9917	-2.7354	-18.127	38.504	44.576	155.560	-147.495	-38.422	116.310	-97.728	64.381	-102.244	195.164	-71.795	-131.804	204.126	104.232	153.811	0.00032871	0.0018496	0.00010933	536.97	3.642e-05	1.7501e-05	476.23	135.08	8.7838e-06	3.2145e-05	149.48	59.842	49.688	22.866	5.5065e-05	28.955	0.024713	0.04828	0.013624	679.1	0.0004907	0.00059589	664.53	200.34	0.0006025	0.00077654	638.64	114.69	120.47	49.171	0.0017796	80.023	-102.509	48.209	180.115	-138.626	-9.353	79.142	-139.980	-132.323	49.502	14.006	-134.049	-130.208	-127.149	-122.380	78.799	-126.317	-8191	255	
1032.940	1	1	0	0	0.11649	0.10101	0.12276	0.21303	0.30401	0.42045	0.1745	0.24048	0.21073	0.20989	0.13679	0.089312	0.242	0.045515	0.040078	0.14642	-1.625	-2.2125	-2.8167	-2.0583	-2.7521	-2.5708	-2.1271	-2.9938	-2.3292	-2.2104	-2.725	-2.025	-2.6042	-2.5646	-1.9479	-2.8063	-70.062	51.909	-64.479	184.146	205.250	56.892	-126.319	137.948	-118.349	-100.806	64.777	159.860	175.799	85.742	195.819	-3.386	0.00012167	0.0060057	0.00074983	648.35	3.9532e-05	2.4064e-05	608.83	179.4	2.9043e-05	9.3059e-05	205.39	64.97	55.29	22.656	2.8605e-05	26.989	0.12569	0.2737	0.084231	1671.2	0.0034174	0.0042495	2039.7	649.81	0.004035	0.0047414	2850.8	323.05	328.95	103.96	0.004393	134.55	66.952	-44.269	-82.429	-139.796	47.582	143.153	-140.590	-134.804	112.113	-47.085	-135.300	-132.011	-128.626	-123.476	-13.107	-127.765	-8191	255	
1033.012	1	1	0	0	0.056913	0.26491	0.088348	0.15797	0.11359	0.073182	0.36526	0.06943	0.31877	0.17707	0.10432	0.20234	0.13196	0.36082	0.18351	0.23591	-1.8292	-2.25	-2.8083	-2.1229	-2.5875	-2.7479	-2.1833	-2.9083	-2.1937	-2.2938	-2.8375	-2.1437	-2.625	-2.5729	-1.8667	-2.875	-10.182	106.980	157.819	-59.437	176.395	145.710	153.397	7.994	133.202	67.834	81.354	101.278	-148.594	-20.728	82.395	16.907	4.4334e-05	0.0025912	0.00099274	676.07	1.4457e-05	2.8167e-05	616.62	176.66	9.0068e-05	3.0067e-05	188.13	60.7	52.62	22.225	7.7787e-05	26.516	0.22431	0.42136	0.11562	1983.3	0.004065	0.0047118	2130.2	661.3	0.0040791	0.0046711	2748.6	310.75	313.7	99.265	0.004206	134.01	126.556	-19.218	143.146	-140.126	-92.476	6.590	-140.784	-134.526	-13.451	174.049	-135.829	-131.030	-128.458	-124.368	-8.518	-127.713	-8191	255	
1033.108	1	1	0	131072	0.10198	0.21543	0.14694	0.2437	0.23767	0.23889	0.27825	0.21692	0.10471	0.14003	0.1289	0.27209	0.087764	0.052162	0.35248	0.15385	-2.0021	-2.1375	-2.825	-2.0833	-2.3021	-2.9771	-2.1188	-2.7271	-2.4917	-2.1813	-2.9562	-2.3521	-2.4167	-2.925	-2.1875	-2.7062	81.404	84.956	127.665	146.512	-56.609	49.973	138.419	-7.822	183.610	48.852	167.599	46.680	196.459	17.640	83.979	132.390	0.00030512	0.0037588	0.0015995	632.83	4.1303e-05	1.5746e-05	545.69	160.01	7.1388e-05	3.3073e-05	168.88	54.128	48.943	21.316	6.0892e-05	24.976	0.23284	0.45432	0.13055	2202.7	0.0050571	0.006091	2573.8	838.96	0.005825	0.0067899	4016.5	442.8	458.15	143.39	0.0067726	199.3	59.043	-97.982	-140.928	-140.006	96.358	-92.808	-141.163	-134.157	22.948	39.610	-135.688	-132.028	-128.166	-124.017	40.489	-127.422	-8191	255	
1033.206	1	1	0	131072	0.11318	0.066593	0.18743	0.26686	0.13768	0.039634	0.23461	0.29412	0.27043	0.11058	0.059664	0.35295	0.13494	0.31274	0.15278	0.19815	-2.3271	-2.3667	-3.2208	-2.3479	-2.3563	-3.0542	-2.1979	-2.9813	-2.8042	-2.3021	-2.8875	-2.5667	-2.3229	-3.0604	-2.1125	-2.7604	255.035	184.879	328.665	126.771	94.352	265.491	122.175	145.263	279.288	51.526	30.033	31.417	319.316	330.399	337.801	14.050	0.00053958	0.0028991	0.0012786	2.2242	6.3414e-05	5.7223e-05	0	0	5.279e-07	0	0	0	0	0	0	0	0.36956	0.70691	0.20181	2708.8	0.007644	0.0090891	3122.4	996.99	0.0082737	0.0094896	5328.6	517.23	534.33	158.22	0.0087712	216.16	71.418	277.791	113.676	225.098	62.705	21.195	20.036	17.985	325.445	110.118	1.808	6.789	359.644	2.376	132.685	29.450	-8191	255	
1033.325	1	1	0	131072	0.059266	0.18808	0.11669	0.19256	0.30893	0.33578	0.31734	0.030066	0.13899	0.19554	0.099078	0.33815	0.14544	0.081462	0.034954	0.15585	-2.4354	-2.1479	-3.0333	-2.6521	-2.3375	-2.9583	-2.2	-2.5229	-2.95	-2.0875	-2.8708	-2.5146	-2.1646	-3.1042	-2.1188	-2.6833	223.204	0.449	358.952	127.632	170.190	341.604	193.395	177.965	325.321	319.833	16.900	186.256	189.843	149.591	156.206	168.201	0	0	0	0	0	0	0	0	2.8984e-05	9.5314e-05	186.67	46.704	68.199	22.395	4.2341e-05	30.35	0.45175	0.85575	0.2393	2709.5	0.0082744	0.0095798	3122.4	996.99	0.0082146	0.0087816	4907.5	499.47	487.28	137.49	0.0059345	166.58	131.713	48.479	50.910	357.222	129.907	111.461	20.036	17.985	55.153	205.411	219.030	227.427	228.898	234.098	136.864	231.919	-8191	255	
1033.421	1	1	0	0	0.19265	0.050351	0.14353	0.05886	0.12945	0.099562	0.091639	0.20315	0.070038	0.12	0.22483	0.2178	0.28931	0.087961	0.18992	0.1932	-2.3	-2.0646	-2.6479	-2.5729	-1.9833	-2.75	-2.0125	-2.325	-2.5812	-1.8542	-2.6042	-2.3792	-1.7667	-2.7188	-2.0062	-2.2687	2.719	131.655	187.381	167.682	138.064	-146.049	129.359	-37.256	-96.713	-78.600	-23.827	150.796	113.009	155.340	201.748	181.244	0.00034222	0.012053	0.0024083	537.37	8.5097e-05	1.5793e-05	516.08	161.64	1.7965e-05	2.6997e-05	177.54	67.663	54.772	23.902	1.5252e-05	32.926	0.25145	0.41317	0.097661	1422.2	0.0020991	0.001945	1028.4	299.09	0.00099544	0.0010284	712.8	117.15	103.63	38.01	0.00075449	50.778	173.795	136.982	125.761	-140.919	-123.873	176.181	-141.227	-133.789	-17.089	21.323	-137.221	-131.912	-128.945	-123.563	112.577	-127.391	-8191	255	
1033.517	1	1	0	131072	0.13218	0.27496	0.036671	0.15463	0.18856	0.15687	0.046871	0.093164	0.1847	0.10475	0.12402	0.1167	0.17609	0.16522	0.081256	0.29722	-2.2354	-1.6583	-2.2875	-2.4021	-1.9792	-2.8521	-2.2	-2.1771	-2.9125	-2.0104	-2.4667	-2.8	-2.3	-2.9688	-2.3833	-2.4521	-124.213	177.446	-35.764	-136.781	134.089	164.734	-92.262	202.939	71.402	27.114	101.942	169.437	-40.738	138.792	23.267	126.498	0.00046579	0.0016096	0.00052884	479.86	8.8381e-06	2.1594e-05	466.16	122.91	4.5312e-05	4.6899e-05	213.08	141.76	94.367	35.911	5.0289e-05	0.34863	0.036216	0.067096	0.018874	690.52	0.00070387	0.00094028	850.08	291.24	0.0020483	0.0032697	2562.8	421.11	410.32	142.05	0.0057825	216.07	-64.421	76.755	-50.518	-139.711	-146.088	-29.267	-140.105	-133.107	42.453	8.440	-134.232	-135.480	-133.343	-133.130	55.940	-130.957	-8191	255	
1033.638	1	1	0	131072	0.19248	0.32311	0.16273	0.20903	0.15699	0.064165	0.29745	0.42145	0.13518	0.17685	0.26643	1.6061	0.35823	0.027244	0.19358	0.23933	-2.5917	-2.1396	-2.7	-2.8333	-2.0833	-2.8125	-2.5917	-2.3625	-2.8937	-2.375	-2.5917	-2.0312	-1.1125	-1.6479	-1.6583	-1.0833	80.454	134.534	241.904	141.230	77.196	142.021	132.610	114.097	241.906	319.614	139.030	162.123	195.344	198.983	59.186	347.919	0.0014629	0.0071855	0.0008027	92.955	5.2514e-05	9.9157e-05	0	0	4.812e-05	0.00015272	0	137.46	82.659	5.3278	4.7842e-07	0.41523	0.30425	0.59165	0.17058	2682.1	0.0060907	0.0074148	3122.4	996.99	0.00704	0.0085264	5328.6	444.01	136.13	10.147	-2.8581e-06	0.58308	275.950	211.015	322.568	227.690	112.070	92.751	20.036	17.985	355.550	28.940	1.808	185.438	257.901	275.270	194.174	248.884	-8191	255	
1033.709	1	1	0	0	0.077175	0.078485	0.18978	0.17495	0.14479	0.22585	0.1528	0.26055	0.098761	0.29625	0.16378	0.083323	0.072668	0.18717	0.14687	0.26945	-1.5792	-1.1625	-1.3917	-1.8687	-1.0958	-1.8062	-1.6667	-1.0833	-1.8333	-1.3208	-1.3312	-1.9083	-1.0396	-1.7021	-1.5917	-1.0229	218.861	349.497	328.197	296.197	97.709	146.707	417.277	413.877	214.764	240.252	267.730	259.523	324.159	322.750	284.241	111.879	8.8125e-06	0.00010051	3.317e-06	0.018759	1.4265e-07	1.6827e-07	0.0259	0.01735	1.6064e-07	3.2886e-07	0.041707	0.0067647	0.0045918	0.0013274	2.4157e-07	0.0021093	-0.00033197	-0.00055927	-0.00013558	-1.3859	-3.6179e-06	-3.9109e-06	-1.1649	-0.31428	-2.6281e-06	-2.6638e-06	-1.3758	-0.13499	-0.11901	-0.035632	-1.9229e-06	-0.04042	244.739	199.290	401.952	271.451	396.794	236.440	112.139	81.265	356.002	310.777	374.567	197.291	250.422	380.483	129.829	278.395	-8191	255	
1033.806	1	1	0	0	0.26185	0.1327	0.20898	0.16869	0.15836	0.11782	0.10362	0.18258	0.085026	0.10956	0.30465	0.11217	0.18863	0.15929	0.063221	0.13898	-1.4583	-1.1187	-1.2542	-2.0146	-1.1812	-1.8937	-1.8042	-1.0979	-1.85	-1.3729	-1.3312	-2.0625	-1.0708	-1.725	-1.9604	-1.1167	51.601	32.156	251.591	264.839	253.863	123.161	-34.323	164.940	88.938	-1.873	266.435	-11.105	28.387	17.985	69.321	116.289	3.4921e-06	3.8166e-05	1.5926e-05	0.020225	2.7302e-07	2.3149e-07	0.030506	0.0075282	2.8228e-07	2.0445e-07	0.020662	0.0092011	0.0040414	0.0025943	2.5188e-07	0.0010638	-8.8091e-05	-0.00015588	-3.9635e-05	-0.48803	-1.2631e-06	-1.5422e-06	-0.50227	-0.129	-1.2672e-06	-1.2773e-06	-0.65624	-0.074683	-0.060097	-0.019416	-1.0451e-06	-0.022031	62.002	153.285	-29.027	58.756	277.898	112.722	-54.659	-48.493	100.278	217.108	285.921	266.188	261.063	41.890	281.647	245.273	-8191	255	
1033.926	1	1	0	0	0.16167	0.21046	0.22117	0.29009	0.18775	0.31356	0.23902	0.10187	0.13351	0.12358	0.25486	0.17024	0.15347	0.24439	0.092744	0.15682	-1.5771	-1.3479	-1.0021	-1.8479	-1.3083	-1.4542	-1.6604	-0.93333	-1.8354	-1.7146	-1.1708	-1.8271	-1.2354	-1.3604	-2.0125	-1.1104	307.836	317.557	273.211	344.129	376.947	340.473	420.314	467.541	161.288	176.591	292.338	488.445	506.438	274.579	336.747	348.050	4.9493e-06	2.1221e-05	6.0034e-06	0.056549	3.4621e-07	2.6826e-07	0.037581	0.0066005	1.9637e-07	3.6749e-07	0.029121	0.0025654	0.0030096	0.00065804	8.9369e-08	0.00081921	-4.8253e-05	-9.0537e-05	-2.2929e-05	-0.32851	-7.5915e-07	-9.8611e-07	-0.33491	-0.076891	-8.3799e-07	-8.5736e-07	-0.38724	-0.051762	-0.039748	-0.012977	-8.2814e-07	-0.014046	504.022	476.098	323.778	463.386	414.406	177.668	457.250	177.067	219.761	239.129	344.234	276.477	239.063	171.271	515.647	300.124	-8191	255	
1034.021	1	1	0	0	0.086413	0.03647	0.040661	0.097674	0.18981	0.12796	0.22273	0.15698	0.081289	0.1027	0.19058	0.075564	0.19512	0.13355	0.11607	0.33494	-1.1771	-1.5625	-1.0229	-1.7375	-1.2625	-1.1938	-2.0229	-1.1063	-1.6604	-1.8042	-1.05	-1.9521	-1.2104	-1.475	-1.9417	-1.2354	351.115	389.006	269.192	219.995	217.813	107.376	60.654	313.246	390.676	237.504	325.105	240.885	190.064	233.015	234.533	75.366	2.3251e-06	5.2887e-05	1.0816e-05	0.010506	6.8506e-07	7.8717e-08	0.023641	0.0018393	4.1904e-08	4.9636e-07	0.027541	0.011532	0.0038109	0.0015245	4.9153e-07	0.0018845	-3.372e-05	-7.4214e-05	-1.6432e-05	-0.24324	-5.7028e-07	-6.8644e-07	-0.28786	-0.064276	-6.5651e-07	-7.5238e-07	-0.33337	-0.043836	-0.038287	-0.0099895	-7.5286e-07	-0.012603	269.812	170.067	85.856	145.491	204.688	272.585	212.745	65.354	116.372	142.717	58.028	161.537	49.774	126.322	122.948	209.242	-8191	255	
1034.117	1	1	0	0	0.017061	0.25056	0.057582	0.23088	0.13556	0.2196	0.19871	0.13346	0.34069	0.082603	0.20012	0.17321	0.088124	0.34335	0.17386	0.0471	-1.15	-1.6	-1.0875	-1.7917	-1.3396	-1.3542	-1.9604	-0.96667	-1.4833	-1.9	-0.92708	-1.9104	-1.5458	-1.325	-1.9458	-1.2687	32.724	113.335	171.735	226.273	181.142	19.146	26.808	313.243	162.625	272.799	-31.202	270.407	146.226	215.593	273.837	315.919	4.7703e-06	7.1568e-05	6.0568e-06	0.028043	1.7195e-07	4.1281e-07	0.027678	0.022513	5.4668e-08	3.3079e-07	0.048652	0.0082182	0.0027472	0.00098519	3.235e-07	0.0033239	-2.7487e-05	-6.6433e-05	-1.2704e-05	-0.20569	-5.6712e-07	-5.3782e-07	-0.24895	-0.059522	-6.0022e-07	-7.4273e-07	-0.25782	-0.039298	-0.036656	-0.0082793	-7.2107e-07	-0.010871	221.939	50.735	221.968	55.931	47.149	-1.369	264.204	-25.091	148.143	64.121	-36.645	86.228	47.201	227.920	200.966	226.118	-8191	255	
1034.237	1	1	0	0	0.038489	0.10894	0.16187	0.12885	0.19048	0.11009	0.1284	0.069524	0.068387	0.25468	0.21301	0.13134	0.32257	0.26224	0.1961	0.39258	-1.0521	-1.5792	-1.1021	-1.8438	-1.4917	-1.1521	-2.0667	-1.15	-1.4188	-1.7396	-0.88125	-1.7479	-1.6104	-1.3458	-1.8354	-1.2771	98.305	175.605	-4.354	-25.035	260.402	126.317	-16.230	62.241	-26.317	128.120	306.094	45.290	35.621	-43.904	60.379	150.639	5.1817e-06	4.4746e-05	6.17e-06	0.0081563	2.9333e-07	7.1381e-08	0.0058631	0.006127	2.7735e-07	3.9528e-07	0.026173	0.0043007	0.0079549	0.0011433	4.228e-07	0.0010469	-2.0881e-05	-6.4801e-05	-1.0285e-05	-0.19725	-5.3766e-07	-4.6839e-07	-0.2559	-0.051155	-5.0395e-07	-7.1014e-07	-0.2192	-0.033806	-0.031662	-0.007555	-6.8928e-07	-0.011655	9.135	153.489	126.454	168.142	93.701	173.678	53.127	-27.873	-40.924	89.866	107.494	-10.579	-40.163	121.741	208.068	202.463	-8191	255	
1034.309	1	1	0	0	0.18063	0.017745	0.097518	0.18487	0.0090705	0.1801	0.041672	0.092478	0.24434	0.30378	0.12687	0.22415	0.082197	0.31242	0.24801	0.17881	-0.9625	-1.8583	-1.125	-1.6583	-1.6521	-1.0792	-1.9458	-1.4188	-1.2313	-1.9667	-1.0625	-1.6917	-1.8146	-1.0875	-2.0312	-1.2729	263.081	413.555	242.033	257.349	376.325	425.074	413.519	105.082	125.026	334.064	384.257	356.226	423.334	213.330	100.344	104.166	2.0425e-06	4.4184e-05	1.626e-05	0.041972	2.8786e-07	2.9112e-07	0.033678	0.004138	1.5127e-07	4.775e-07	0.10893	0.0034643	0.0057343	0.0018553	1.3715e-07	0.00086734	-1.8727e-05	-6.1809e-05	-1.1061e-05	-0.17106	-5.303e-07	-4.5316e-07	-0.21818	-0.048809	-4.14e-07	-6.8299e-07	-0.26019	-0.033609	-0.033599	-0.0070721	-6.2348e-07	-0.011462	222.384	143.166	159.001	238.725	148.794	417.818	169.489	88.588	385.653	137.663	271.325	222.407	208.301	206.576	253.460	228.113	-8191	255	
1034.405	1	1	0	0	0.46429	0.18329	0.15317	0.084787	0.17025	0.20439	0.11016	0.11202	0.23571	0.068989	0.12517	0.085478	0.24061	0.13967	0.28054	0.19341	-0.8875	-2.1542	-1.2458	-1.6292	-1.8771	-1.125	-1.8188	-1.4375	-1.3792	-1.9875	-1.0792	-1.4792	-1.9083	-1.1646	-1.7521	-1.6688	104.340	232.592	235.145	203.135	221.726	108.170	-15.241	234.666	-116.415	-113.990	-103.856	-91.366	39.772	234.700	-6.770	127.910	2.8366e-06	1.6206e-05	3.0183e-05	0.010135	2.5697e-07	4.6487e-07	0.038523	0.0079978	3.69e-07	5.7522e-07	0.070585	0.0041788	0.0068087	0.0017536	3.1997e-07	0.0016038	-1.7205e-05	-6.4094e-05	-1.0635e-05	-0.15005	-5.7291e-07	-3.9773e-07	-0.23208	-0.059776	-4.0663e-07	-7.2342e-07	-0.2463	-0.030616	-0.036792	-0.0070822	-5.9448e-07	-0.012081	142.206	-51.440	84.768	234.361	99.315	160.901	19.441	-104.493	36.526	235.708	144.397	31.107	98.237	65.512	-19.473	56.317	-8191	255	
1034.501	1	1	0	0	0.0819	0.16283	0.21746	0.23715	0.088018	0.073798	0.1502	0.2349	0.030406	0.031277	0.14326	0.26496	0.20271	0.42741	0.15053	0.031944	-0.90833	-1.9146	-1.3208	-1.4354	-2	-1.1688	-1.8729	-1.5625	-1.1792	-1.9417	-1.2396	-1.4458	-1.8667	-0.98125	-1.9208	-1.6667	427.859	221.550	455.187	413.560	167.020	243.402	501.404	444.602	434.837	155.903	177.688	432.355	461.681	231.696	488.417	279.115	3.8666e-06	4.692e-05	1.2489e-05	0.019618	1.7568e-07	2.4965e-07	0.060131	0.010309	3.4746e-07	5.3544e-07	0.037264	0.0016875	0.0076902	0.0017456	4.3791e-07	0.0025692	-1.1977e-05	-6.0938e-05	-1.1883e-05	-0.14591	-5.7975e-07	-4.1844e-07	-0.19714	-0.058888	-3.4509e-07	-6.3352e-07	-0.26189	-0.02519	-0.039952	-0.0065792	-5.4875e-07	-0.013304	180.561	505.703	422.150	205.563	297.125	432.701	171.402	169.629	438.411	376.373	455.644	210.983	473.335	258.638	503.975	420.164	-8191	255	
1034.622	1	1	0	0	0.1572	0.18183	0.13031	0.068836	0.10035	0.20164	0.14851	0.21371	0.09481	0.03036	0.16744	0.21955	0.36797	0.19993	0.092261	0.12567	-0.63333	-2.0917	-1.3271	-1.3354	-1.7542	-1.2958	-1.7396	-1.7062	-1.2042	-1.9937	-1.5375	-1.3167	-1.8354	-1.1875	-1.5667	-1.8188	148.163	234.006	309.540	219.873	343.695	272.714	133.633	181.945	439.129	160.109	257.856	367.150	104.860	294.457	354.356	209.537	6.0525e-06	3.2357e-05	1.6953e-05	0.031011	4.5427e-07	1.0459e-07	0.033639	0.015716	3.1063e-07	2.5034e-07	0.022924	0.0032062	0.0045804	0.00035237	3.1188e-07	0.0010004	-1.057e-05	-5.5933e-05	-1.2294e-05	-0.12231	-5.5029e-07	-3.6971e-07	-0.1751	-0.054324	-3.3457e-07	-6.1602e-07	-0.2585	-0.022428	-0.036079	-0.0064987	-4.612e-07	-0.013084	402.782	162.087	240.748	121.423	299.197	420.536	82.695	100.558	220.576	394.153	376.149	367.601	330.252	314.020	164.113	304.292	-8191	255	
1034.718	1	1	0	0	0.1756	0.096142	0.22149	0.26141	0.2826	0.14473	0.096142	0.19425	0.14652	0.16259	0.21913	0.069499	0.20014	0.037936	0.099079	0.093582	-0.63125	-1.8292	-1.4979	-1.2125	-1.9521	-1.1792	-1.4958	-1.6917	-1.1167	-1.7938	-1.5708	-1.1833	-2.1917	-2.4583	-3.0187	-2.7375	379.357	148.775	168.623	36.033	53.779	334.604	231.907	47.429	119.210	345.717	244.958	98.358	311.557	163.577	85.883	247.528	6.5917e-06	1.8128e-05	6.8333e-06	0.028917	7.4495e-08	3.8096e-07	0.037966	0.0086565	2.3684e-07	4.7778e-07	0.016117	0.004776	0.016635	0.024552	5.899e-07	1.2916	-1.0369e-05	-5.6205e-05	-1.2933e-05	-0.11921	-5.7081e-07	-3.9408e-07	-0.15167	-0.069347	-3.009e-07	-6.4559e-07	-0.30254	-0.018317	0.31122	0.75888	4.7002e-05	5.0083	300.838	139.559	92.886	196.367	357.914	34.928	365.388	41.773	25.900	331.964	31.378	333.792	252.129	339.862	243.955	165.797	-8191	255	
1034.814	1	1	0	0	0.21356	0.18345	0.12194	0.096036	0.054888	0.16703	0.15184	0.15442	0.086885	0.080711	0.12157	0.15619	0.1227	0.27793	0.18883	0.084785	-1.6771	-2.6688	-2.5438	-2.0542	-2.725	-2.1646	-2.4271	-2.7604	-2.1146	-2.5604	-2.5125	-2.0417	-2.7229	-2.3583	-2.2021	-2.9417	5.932	10.795	-82.482	131.033	-1.676	96.095	-135.931	-3.269	152.978	12.963	146.943	17.134	29.629	-84.932	156.840	14.376	0.0017319	0.0042443	0.0012492	67.339	2.8652e-06	1.2334e-05	622.98	22.567	9.9008e-06	2.5816e-05	208.94	70.329	8.1893	4.0522	3.3462e-05	40.392	0.10334	0.32884	0.096176	1141.9	0.0032532	0.0036587	1770.5	379.15	0.002935	0.0032835	1981.1	238.89	186.81	57.337	0.0029279	113.82	50.390	-83.718	-96.159	-139.303	-143.512	-103.833	-142.356	-134.216	-66.918	41.965	-136.754	-131.175	-125.757	-120.368	46.530	-127.613	-8191	255	
1034.909	1	1	0	0	0.195	0.093936	0.060402	0.066513	0.053685	0.17471	0.098649	0.19428	0.21713	0.22059	0.069041	0.18365	0.066833	0.27007	0.1063	0.12177	-1.6521	-2.4917	-2.5021	-1.9521	-2.6708	-2.2958	-2.3167	-2.8667	-2.1125	-2.6542	-2.5104	-1.8979	-2.7188	-2.4188	-2.0292	-2.8167	-67.506	101.264	99.209	41.898	174.224	99.379	-96.640	-9.302	55.371	81.145	18.108	96.816	-0.901	125.995	-95.901	183.736	0.00061075	0.0055101	0.0010939	67.489	3.3297e-05	2.9083e-05	581.4	22.679	1.365e-05	2.4294e-05	203.55	68.662	8.2374	3.9239	2.7089e-05	40.169	0.15502	0.29483	0.080225	969.15	0.0027622	0.0031717	1597.3	349.38	0.0026998	0.0030279	1826	223.81	165.56	49.022	0.0024148	99.643	-57.246	207.384	60.076	-135.655	186.833	48.565	-141.497	-132.973	53.478	24.180	-135.994	-131.826	-129.930	-123.850	-72.065	-128.407	-8191	255	
1035.005	1	1	0	0	0.23483	0.45018	0.077342	0.14131	0.12327	0.11907	0.031287	0.24536	0.15981	0.03294	0.062272	0.27144	0.023144	0.2015	0.41148	0.39706	-1.7917	-2.3521	-2.4813	-2.0708	-2.65	-2.3021	-2.2167	-2.8917	-2.2167	-2.3375	-2.8542	-2.0687	-2.525	-2.3167	-1.8708	-2.9542	-28.470	21.834	-81.091	-105.483	-70.384	205.226	120.644	-130.971	187.963	80.712	160.791	61.204	140.657	-132.636	-121.404	161.309	0.00037609	0.0039033	0.0014544	65.906	4.4924e-05	9.0803e-05	608.98	23.915	2.5615e-05	6.0096e-05	223.56	75.438	9.1093	4.6714	1.6923e-05	44.343	0.12152	0.22573	0.061755	753.83	0.0020444	0.0021734	1262.8	226.66	0.0016055	0.0017432	1146.3	162.33	95.711	29.287	0.0013318	76.834	-78.591	0.181	157.488	-142.223	-7.496	67.095	-141.227	-133.331	39.151	-43.459	-136.585	-131.776	-130.801	-122.888	-70.527	-127.327	-8191	255	
1035.101	1	1	0	0	0.048491	0.13931	0.033444	0.11532	0.16493	0.083875	0.1184	0.20444	0.056372	0.10027	0.25546	0.054339	0.27594	0.17002	0.037297	0.21601	-1.7167	-2.1875	-2.7062	-1.9167	-2.475	-2.4604	-2.1083	-2.6104	-2.0042	-2.1	-2.7479	-2.0729	-2.4583	-2.5292	-1.9542	-2.8333	-23.050	-93.588	-75.766	-9.448	-36.972	-60.699	206.489	169.433	205.326	-67.749	128.032	-150.719	186.011	21.276	186.193	185.143	0.00050541	0.0016909	0.00090488	75.797	1.3777e-05	1.8421e-05	756.67	28.309	1.2153e-05	3.0459e-05	269.36	89.549	10.719	5.3789	2.4284e-05	49.596	0.066471	0.1234	0.034176	458.66	0.001167	0.0013194	1173	165.28	0.0011303	0.0012838	988.01	159.14	83.318	26.703	0.0011989	79.417	-86.795	-4.810	-4.715	-138.875	30.325	94.686	-141.216	-134.393	-59.215	-19.812	-135.654	-131.018	-128.741	-123.237	-78.244	-127.124	-8191	255	
1035.199	1	1	0	0	0.064783	0.15356	0.19334	0.031332	0.23575	0.1348	0.17546	0.21346	0.10278	0.12774	0.1181	0.24222	0.14462	0.15858	0.12328	0.15688	-1.9438	-2.2646	-2.8583	-1.8333	-2.4396	-2.6958	-2.0542	-2.5521	-2.2229	-2.1375	-2.8875	-2.225	-2.3979	-2.425	-1.5646	-1.6187	-32.515	12.880	118.469	-82.727	70.461	-115.135	139.928	-121.477	108.658	89.984	155.214	146.353	87.794	161.084	71.329	166.388	0.00060457	0.0024937	0.00036573	77.266	1.4305e-05	1.6767e-05	852.1	30.798	2.4419e-05	2.796e-05	298.11	97.693	10.82	5.3301	0.0001003	2.2917	0.063067	0.1194	0.033782	463.59	0.0011875	0.0013678	1289.1	175.34	0.0012123	0.0013987	1091	174.99	92.912	29.888	0.0012375	5.4908	-75.954	142.204	-96.353	-139.527	-96.472	-108.530	-140.915	-132.918	91.104	-39.364	-137.066	-131.148	-128.218	-121.700	-127.628	-138.983	-8191	255	
1035.318	1	1	0	0	0.099764	0.29751	0.30346	0.054346	0.24428	0.25022	0.052384	0.12713	0.099344	0.059506	0.079793	0.26906	0.1341	0.18887	0.14067	0.018313	-1.2667	-1.2313	-2.1562	-1.4542	-1.7479	-1.9979	-1.3146	-1.8729	-1.4792	-1.2875	-2.0375	-1.3854	-1.6104	-1.8833	-1.1417	-1.6458	173.438	89.129	62.657	63.605	133.952	197.329	49.043	4.436	-47.216	105.683	111.729	8.868	-133.657	206.492	140.452	-100.324	3.6123e-05	6.2796e-05	1.6226e-05	0.017737	5.2086e-07	2.3482e-07	0.096888	0.002273	2.3882e-07	3.9997e-07	0.0491	0.0060354	0.0040749	0.00052502	4.6314e-09	0.00032237	0.00033335	-0.00085433	-0.00024837	-2.378	-6.2273e-06	-6.2297e-06	-1.6986	-0.49241	-3.5661e-06	-3.5411e-06	-1.9436	-0.16068	-0.156	-0.044756	-2.1086e-06	-0.052459	-126.869	25.532	116.050	202.806	93.616	-51.059	33.454	-133.920	98.744	149.729	-93.031	67.954	169.141	167.548	-119.603	-53.151	-8191	255	
#DATA ENDS
