BOXY.EXE: ISS Imagent and Oximeter Data Acquisition Program Version 0.80
Ascii Record File

#ACQ INFORMATION
2  Detector Channels 
16  External MUX Channels 
1  Auxiliary Channels 
5000  Waveform (CCF) Frequency (Hz)
1  Waveforms Skipped 
30  Waveforms Averaged 
1  Cycles Averaged 
16  Acquisitions per Waveform 
10.0806  Updata Rate (Hz) 

#FILE INFORMATION
TRUE -- External MUX Channel results are PARSED.
FALSE -- AC DC and Phase are NOT grouped.
TRUE -- Companion Program Settings File CREATED.
FALSE -- AC data not excluded
FALSE -- DC data not excluded
FALSE -- Phase data not excluded
FALSE -- Auxillary Chn. data not excluded
Tab delimiters

#CALIBRATION STATE
TRUE -- Waveform Calibration Values APPLIED.


#AUX CALIBRATION VALUES
Val Type	aux-1	

Term	1.0000e+00	
Factor	0.0000e+00	


#WF CALIBRATION VALUES
A = Detector Channel
Val Type	A-AC1	A-AC2	A-AC3	A-AC4	A-AC5	A-AC6	A-AC7	A-AC8	A-AC9	A-AC10	A-AC11	A-AC12	A-AC13	A-AC14	A-AC15	A-AC16	A-DC1	A-DC2	A-DC3	A-DC4	A-DC5	A-DC6	A-DC7	A-DC8	A-DC9	A-DC10	A-DC11	A-DC12	A-DC13	A-DC14	A-DC15	A-DC16	A-Ph1	A-Ph2	A-Ph3	A-Ph4	A-Ph5	A-Ph6	A-Ph7	A-Ph8	A-Ph9	A-Ph10	A-Ph11	A-Ph12	A-Ph13	A-Ph14	A-Ph15	A-Ph16	

Term	0.00000e+00	0.00000e+00	0.00000e+00	0.00000e+00	0.00000e+00	0.00000e+00	0.00000e+00	0.00000e+00	0.00000e+00	0.00000e+00	0.00000e+00	0.00000e+00	0.00000e+00	0.00000e+00	0.00000e+00	0.00000e+00	0.00000e+00	0.00000e+00	0.00000e+00	0.00000e+00	0.00000e+00	0.00000e+00	0.00000e+00	0.00000e+00	0.00000e+00	0.00000e+00	0.00000e+00	0.00000e+00	0.00000e+00	0.00000e+00	0.00000e+00	0.00000e+00	0.00000e+00	0.00000e+00	0.00000e+00	0.00000e+00	0.00000e+00	0.00000e+00	0.00000e+00	0.00000e+00	0.00000e+00	0.00000e+00	0.00000e+00	0.00000e+00	0.00000e+00	0.00000e+00	0.00000e+00	0.00000e+00	
Factor	1.00000e+00	1.00000e+00	1.00000e+00	1.00000e+00	1.00000e+00	1.00000e+00	1.00000e+00	1.00000e+00	1.00000e+00	1.00000e+00	1.00000e+00	1.00000e+00	1.00000e+00	1.00000e+00	1.00000e+00	1.00000e+00	1.00000e+00	1.00000e+00	1.00000e+00	1.00000e+00	1.00000e+00	1.00000e+00	1.00000e+00	1.00000e+00	1.00000e+00	1.00000e+00	1.00000e+00	1.00000e+00	1.00000e+00	1.00000e+00	1.00000e+00	1.00000e+00	X	X	X	X	X	X	X	X	X	X	X	X	X	X	X	X	

B = Detector Channel
Val Type	B-AC1	B-AC2	B-AC3	B-AC4	B-AC5	B-AC6	B-AC7	B-AC8	B-AC9	B-AC10	B-AC11	B-AC12	B-AC13	B-AC14	B-AC15	B-AC16	B-DC1	B-DC2	B-DC3	B-DC4	B-DC5	B-DC6	B-DC7	B-DC8	B-DC9	B-DC10	B-DC11	B-DC12	B-DC13	B-DC14	B-DC15	B-DC16	B-Ph1	B-Ph2	B-Ph3	B-Ph4	B-Ph5	B-Ph6	B-Ph7	B-Ph8	B-Ph9	B-Ph10	B-Ph11	B-Ph12	B-Ph13	B-Ph14	B-Ph15	B-Ph16	

Term	0.00000e+00	0.00000e+00	0.00000e+00	0.00000e+00	0.00000e+00	0.00000e+00	0.00000e+00	0.00000e+00	0.00000e+00	0.00000e+00	0.00000e+00	0.00000e+00	0.00000e+00	0.00000e+00	0.00000e+00	0.00000e+00	0.00000e+00	0.00000e+00	0.00000e+00	0.00000e+00	0.00000e+00	0.00000e+00	0.00000e+00	0.00000e+00	0.00000e+00	0.00000e+00	0.00000e+00	0.00000e+00	0.00000e+00	0.00000e+00	0.00000e+00	0.00000e+00	-1.60165e+02	-1.56046e+02	-1.61601e+02	-1.84043e+02	-1.15639e+02	-8.35182e+01	-1.55479e+02	-1.62015e+02	-1.02200e+02	-1.19732e+02	-1.85372e+02	-1.70396e+02	-1.86982e+02	-1.76531e+02	-6.46452e+01	-1.49226e+02	
Factor	2.80052e-05	7.83278e-05	3.39611e-05	2.47397e-01	8.53685e-07	8.94540e-07	1.74294e-01	5.63954e-02	8.49358e-07	1.01448e-06	2.25253e-01	3.31667e-02	6.79303e-02	9.94483e-03	1.03214e-06	1.41766e-02	3.98363e-07	4.02558e-07	1.11943e-07	1.12903e-01	4.40606e-09	4.40072e-09	7.81490e-02	2.63565e-02	4.40888e-09	4.39813e-09	8.24592e-02	1.43961e-02	2.55369e-02	4.44917e-03	4.40686e-09	6.06539e-03	X	X	X	X	X	X	X	X	X	X	X	X	X	X	X	X	



#DISTANCE SETTINGS
A = Detector Channel
A-1	A-2	A-3	A-4	A-5	A-6	A-7	A-8	A-9	A-10	A-11	A-12	A-13	A-14	A-15	A-16	

2.5000e+00	3.0000e+00	2.5000e+00	3.0000e+00	2.0000e+00	3.0000e+00	1.5000e+00	3.0000e+00	3.0000e+00	3.0000e+00	3.0000e+00	3.0000e+00	3.0000e+00	3.0000e+00	1.5000e+00	3.0000e+00	

B = Detector Channel
B-1	B-2	B-3	B-4	B-5	B-6	B-7	B-8	B-9	B-10	B-11	B-12	B-13	B-14	B-15	B-16	

1.0000e+01	1.0000e+01	1.0000e+01	1.4400e+00	1.0000e+01	1.0000e+01	1.5100e+00	1.9400e+00	1.0000e+01	1.0000e+01	1.9900e+00	2.4900e+00	2.4100e+00	2.9000e+00	1.0000e+01	2.9800e+00	




#DATA BEGINS
time	group	step	mark	flag	A-AC1	A-AC2	A-AC3	A-AC4	A-AC5	A-AC6	A-AC7	A-AC8	A-AC9	A-AC10	A-AC11	A-AC12	A-AC13	A-AC14	A-AC15	A-AC16	A-DC1	A-DC2	A-DC3	A-DC4	A-DC5	A-DC6	A-DC7	A-DC8	A-DC9	A-DC10	A-DC11	A-DC12	A-DC13	A-DC14	A-DC15	A-DC16	A-Ph1	A-Ph2	A-Ph3	A-Ph4	A-Ph5	A-Ph6	A-Ph7	A-Ph8	A-Ph9	A-Ph10	A-Ph11	A-Ph12	A-Ph13	A-Ph14	A-Ph15	A-Ph16	B-AC1	B-AC2	B-AC3	B-AC4	B-AC5	B-AC6	B-AC7	B-AC8	B-AC9	B-AC10	B-AC11	B-AC12	B-AC13	B-AC14	B-AC15	B-AC16	B-DC1	B-DC2	B-DC3	B-DC4	B-DC5	B-DC6	B-DC7	B-DC8	B-DC9	B-DC10	B-DC11	B-DC12	B-DC13	B-DC14	B-DC15	B-DC16	B-Ph1	B-Ph2	B-Ph3	B-Ph4	B-Ph5	B-Ph6	B-Ph7	B-Ph8	B-Ph9	B-Ph10	B-Ph11	B-Ph12	B-Ph13	B-Ph14	B-Ph15	B-Ph16	aux-1	digaux	

19474.301	1	1	0	256	0.10048	0.19007	0.17324	0.29211	0.16491	0.29687	0.29561	0.097967	0.11282	0.14819	0.11604	0.39444	0.098768	0.32053	0.069715	0.15412	-1.3896	-1.4979	-1.6167	-1.9458	-1.4958	-1.7146	-1.8729	-1.4875	-1.7979	-1.6271	-1.5271	-1.9958	-1.5646	-1.8833	-1.9208	-1.525	242.730	175.921	259.118	-87.702	50.847	15.518	243.063	181.514	96.673	255.274	185.256	257.601	130.085	164.551	200.123	-41.082	0.00052054	0.00024012	0.00025875	1319.3	1.1128e-06	3.4793e-06	1356.1	519.32	4.4307e-06	5.9295e-06	602.27	258.63	211.44	98.29	5.1393e-06	113.35	0.0001478	0.00014161	3.9048e-05	1123.6	1.525e-06	1.5349e-06	1192.9	447.62	1.5248e-06	1.5313e-06	440.07	214.59	153.11	81.058	1.5463e-06	92.338	170.104	2.199	-21.743	-83.977	39.635	17.691	-84.964	-79.295	-43.252	49.595	-81.045	-77.676	-76.304	-71.608	253.385	-73.668	-8191	255	
19474.396	1	1	0	0	0.19876	0.20089	0.095145	0.027685	0.038882	0.12128	0.41971	0.13141	0.13556	0.18717	0.12868	0.095311	0.066134	0.31818	0.20496	0.28243	-1.2625	-1.6646	-1.525	-2.225	-1.6979	-1.6604	-2.125	-1.7125	-1.7458	-1.7604	-1.6042	-2.0438	-1.6021	-1.8292	-1.8167	-1.7708	128.134	87.087	27.709	75.558	147.679	-54.509	211.792	257.470	204.142	193.590	183.708	126.667	175.615	-48.363	116.193	116.258	0.00050343	0.00028844	0.00012868	1322.3	2.604e-06	4.5506e-06	1367.4	519.9	5.6953e-06	4.6847e-06	607.14	259.34	212.81	98.513	3.9817e-06	113.69	0.00014813	0.00014132	3.8861e-05	1126.6	1.534e-06	1.5285e-06	1197.1	448.33	1.5429e-06	1.5281e-06	442.29	215	153.52	81.083	1.5356e-06	92.543	157.560	228.133	-75.151	-83.346	137.036	29.240	-84.320	-78.847	-20.996	-65.164	-80.512	-77.303	-76.389	-71.410	88.748	-73.292	-8191	255	
19474.492	1	1	0	0	0.061214	0.084596	0.28707	0.15824	0.1543	0.19724	0.34486	0.35017	0.13083	0.075065	0.0072669	0.34013	0.16506	0.23049	0.10041	0.13491	-1.325	-1.8833	-1.3687	-1.8958	-1.5917	-1.5208	-2.0875	-1.7104	-1.8271	-1.8125	-1.3875	-1.9229	-1.4875	-1.7021	-1.7833	-1.6771	130.223	58.496	-52.016	205.842	-79.690	10.707	223.960	229.070	155.674	219.333	230.286	-96.067	-22.766	226.732	133.869	145.821	0.00051473	0.0001404	0.00012168	1330	3.6808e-06	5.6192e-06	1371.2	523.87	3.9315e-06	6.6408e-06	609.11	261.31	212.7	97.644	5.511e-06	114.18	0.00014603	0.00014128	3.8899e-05	1131.8	1.5415e-06	1.5237e-06	1203.6	450.39	1.5466e-06	1.5326e-06	445.46	216.15	153.83	80.501	1.5485e-06	92.786	171.769	89.684	-49.605	-83.595	14.367	2.140	-84.705	-79.695	51.120	5.618	-81.125	-77.442	-76.338	-71.442	12.835	-72.961	-8191	255	
19474.566	1	1	0	0	0.2118	0.40519	0.097199	0.10714	0.10625	0.21724	0.41848	0.30243	0.1143	0.20994	0.085608	0.04993	0.22269	0.25132	0.22491	0.24467	-1.0854	-1.7271	-1.3062	-2.0917	-1.6979	-1.4583	-2.1833	-1.6187	-1.6729	-1.8125	-1.4208	-1.9792	-1.8792	-1.6083	-1.9688	-1.6583	103.440	-84.212	93.455	-89.105	168.810	39.454	241.004	246.017	183.415	-81.923	-87.196	100.688	194.968	241.595	230.769	165.263	0.00054883	0.00024374	0.0003018	1324.8	7.1966e-06	5.422e-06	1371.8	521.59	3.8415e-06	4.6422e-06	610.05	261.87	214.37	96.96	6.5515e-06	113.43	0.0001484	0.00013884	3.8531e-05	1130.2	1.5262e-06	1.5242e-06	1203.1	450.36	1.5566e-06	1.5006e-06	445.49	215.92	154.05	80.204	1.5312e-06	92.194	160.380	-84.338	-36.939	-83.315	-9.953	7.658	-84.112	-78.835	-40.051	4.300	-80.985	-77.756	-76.099	-71.976	72.043	-73.570	-8191	255	
19474.686	1	1	0	0	0.2313	0.25493	0.061047	0.15131	0.095874	0.13059	0.35209	0.1224	0.13435	0.019898	0.17795	0.19743	0.10486	0.36375	0.15898	0.14771	-1.3229	-1.7625	-1.5083	-1.9271	-1.6875	-1.4583	-2.1542	-1.7271	-1.675	-1.975	-1.3979	-2.0062	-1.8458	-1.6042	-1.9646	-1.8771	168.774	-50.402	-75.941	180.505	-43.113	154.280	170.346	180.797	82.702	230.662	254.425	-27.214	-23.517	222.028	10.736	-81.056	0.00046072	0.0007028	0.00010652	1326.1	1.9688e-06	4.0879e-06	1360.8	523.2	4.0505e-06	8.9233e-06	605.87	260.74	212.95	97.261	9.5108e-07	113.12	0.00014527	0.00013983	3.8591e-05	1127.5	1.5288e-06	1.5161e-06	1194.3	449.84	1.521e-06	1.4989e-06	441.93	214.86	153.36	80.03	1.5192e-06	91.674	151.539	-18.351	-45.400	-84.073	-6.366	-33.090	-85.026	-78.693	-12.246	-0.211	-80.403	-76.942	-76.092	-71.067	61.357	-73.108	-8191	255	
19474.781	1	1	0	0	0.021352	0.13409	0.050304	0.28886	0.11607	0.065659	0.22515	0.22835	0.074381	0.12956	0.12377	0.31322	0.21805	0.38076	0.17496	0.14805	-1.0792	-1.9062	-1.3062	-1.9062	-1.7354	-1.3062	-2.1542	-1.9729	-1.5625	-1.9937	-1.5938	-1.9854	-1.8687	-1.5604	-2.1333	-2.0542	189.374	-34.410	245.606	194.644	60.785	58.608	-90.197	257.063	-52.783	-37.059	132.434	247.245	174.785	203.620	97.412	231.759	0.00052935	0.00055483	0.00011945	1326.4	8.1407e-06	4.6385e-06	1360.1	525.77	2.4959e-06	3.4282e-06	601.4	259.61	213.15	96.248	4.1118e-07	112.16	0.00014605	0.000138	3.8369e-05	1128.5	1.5235e-06	1.5146e-06	1196.7	450.05	1.535e-06	1.5003e-06	441.6	214.42	153.25	79.313	1.528e-06	91.315	176.238	7.983	6.039	-83.511	9.784	95.220	-84.559	-78.903	-52.862	-32.962	-80.273	-77.192	-75.872	-71.452	236.632	-73.428	-8191	255	
19474.877	1	1	0	0	0.24006	0.13044	0.20627	0.19512	0.12009	0.094357	0.25194	0.2833	0.18415	0.1713	0.075501	0.40931	0.11774	0.11409	0.29467	0.52201	-1.1688	-1.9667	-1.4937	-1.8354	-2.0896	-1.5438	-2.1708	-2.1708	-1.35	-2.0938	-1.5125	-1.9	-1.9937	-1.6917	-1.8229	-1.9604	26.729	3.246	118.690	202.639	31.664	186.651	182.766	196.060	104.063	-61.616	92.184	233.749	-66.117	-68.518	108.029	226.241	0.00061967	0.00054066	0.00021483	1327.4	4.1053e-06	3.367e-06	1367.4	525.09	4.2432e-07	8.312e-06	608.18	259.76	213.46	96.486	7.9348e-06	113.08	0.00014589	0.00013809	3.8658e-05	1130.4	1.5214e-06	1.517e-06	1200.8	450.77	1.5243e-06	1.513e-06	443.68	214.89	153.71	79.652	1.511e-06	91.933	158.173	-6.697	-42.494	-83.558	-64.536	53.020	-84.881	-79.116	-0.877	-23.822	-80.712	-76.866	-75.582	-70.993	36.425	-72.658	-8191	255	
19474.998	1	1	0	0	0.14388	0.11556	0.095703	0.37334	0.050204	0.11294	0.34717	0.32538	0.27327	0.26341	0.16566	0.31784	0.19875	0.14859	0.13131	0.26648	-0.9375	-1.7938	-1.4708	-1.8854	-1.8563	-1.3896	-2.0896	-2.0687	-1.6417	-1.8687	-1.7979	-1.6875	-2.0521	-1.7667	-1.6625	-1.9604	22.575	99.385	51.585	190.799	235.108	163.021	-76.477	225.383	-38.641	21.364	146.633	223.748	239.137	-82.884	148.752	213.580	0.00051865	0.0004218	9.2303e-05	1325.5	3.163e-06	1.3348e-06	1380.1	523.85	1.8681e-06	3.894e-06	612.34	262.34	214.68	97.996	1.3723e-06	114.28	0.0001452	0.0001378	3.8874e-05	1130.9	1.5111e-06	1.504e-06	1209.9	451.72	1.5253e-06	1.5123e-06	447.55	217.21	154.67	80.615	1.5221e-06	93.04	145.306	-42.249	243.320	-83.492	73.556	88.886	-84.285	-78.878	37.080	223.339	-80.234	-76.583	-74.820	-70.712	138.456	-72.645	-8191	255	
19475.094	1	1	0	0	0.143	0.045909	0.11375	0.209	0.25667	0.1599	0.20903	0.29845	0.16217	0.43552	0.29848	0.05599	0.25768	0.48425	0.074	0.27342	-0.87083	-1.6771	-1.7729	-1.7667	-2.0896	-1.5562	-1.9792	-2.1458	-1.4146	-2.0083	-1.6187	-1.6688	-2.2	-1.6604	-1.6604	-2.1104	77.364	209.294	209.402	149.134	182.929	176.051	203.964	194.750	103.485	98.143	243.072	251.222	198.339	255.325	4.480	195.587	0.00069481	0.00051958	0.00019506	1338.1	3.9963e-06	4.6537e-06	1364	524.69	3.6398e-06	1.2278e-06	608.91	260.53	212.41	97.62	9.8511e-07	113.61	0.00014516	0.00013699	3.8602e-05	1134.7	1.527e-06	1.5088e-06	1200.8	452.92	1.5367e-06	1.5104e-06	444.58	215.44	153.65	80.502	1.5308e-06	92.283	153.638	-7.720	-56.547	-83.019	32.456	-10.331	-84.975	-79.481	-29.082	-33.566	-81.302	-77.578	-76.420	-71.912	-38.144	-73.594	-8191	255	
19475.164	1	1	0	0	0.17914	0.16292	0.18369	0.25064	0.28422	0.25058	0.2634	0.38795	0.10113	0.15332	0.026123	0.14129	0.18963	0.4117	0.13319	0.26089	-0.96667	-1.7229	-1.6063	-1.5646	-2.0104	-1.4896	-1.9146	-2.2	-1.5187	-1.775	-1.9125	-1.7375	-1.8958	-1.8292	-1.6354	-2.1021	143.568	103.418	-13.725	162.145	22.672	94.998	119.739	237.221	16.506	-39.912	-77.056	-70.004	205.165	221.235	-60.039	243.507	0.00053236	0.00037546	0.00012127	1320.4	5.2803e-06	5.7278e-06	1372.6	525.54	4.3866e-06	2.0676e-06	607.2	261.21	213.9	97.749	4.0968e-06	113.64	0.00014789	0.0001375	3.8311e-05	1129.9	1.5252e-06	1.5151e-06	1203.4	452.76	1.5361e-06	1.5096e-06	444.7	215.62	154.82	80.67	1.5499e-06	92.476	173.953	14.328	183.247	-84.004	-12.619	43.073	-84.890	-79.263	11.553	44.224	-80.755	-77.752	-76.210	-71.629	-30.207	-73.820	-8191	255	
19475.285	1	1	0	0	0.12522	0.2167	0.25641	0.12366	0.22901	0.26657	0.17325	0.13664	0.45414	0.11562	0.21591	0.27292	0.099886	0.23368	0.18617	0.1395	-0.93542	-1.8104	-1.7	-1.3917	-1.8958	-1.7479	-1.6229	-2.0771	-1.5021	-1.9167	-1.8125	-1.5146	-1.9417	-1.8604	-1.4417	-1.975	161.657	128.720	151.250	-34.030	170.982	112.026	-83.236	207.264	-14.670	93.972	207.495	236.950	244.628	222.009	238.753	198.044	0.00050594	0.00065906	0.00018689	1333.9	2.5973e-06	4.4567e-06	1379.2	528.74	2.445e-06	3.3312e-06	615.01	263.11	214.4	98.235	5.0113e-06	114.64	0.00014788	0.00014103	3.9616e-05	1134.4	1.5486e-06	1.5423e-06	1208.1	454.38	1.5724e-06	1.5677e-06	448.16	217.36	155.06	81.175	1.566e-06	93.061	161.635	-21.334	-42.525	-83.793	-25.893	15.766	-84.854	-79.607	15.480	-32.548	-80.581	-77.326	-75.897	-71.492	79.380	-73.448	-8191	255	
19475.383	1	1	0	0	0.20893	0.15586	0.27024	0.30472	0.2317	0.28865	0.40964	0.31661	0.16878	0.1822	0.23861	0.41336	0.30447	0.14891	0.058534	0.32408	-1.1167	-1.5542	-1.5438	-1.3958	-1.7979	-1.7708	-1.8146	-2.0667	-1.3646	-1.6313	-2.0354	-1.6708	-1.6729	-1.8958	-1.5187	-2.1583	189.970	225.190	-45.289	211.509	49.563	125.395	234.216	173.693	171.057	193.793	-15.664	181.969	239.058	262.173	-35.691	252.128	0.0006672	0.00076659	0.00028196	1337.1	2.2921e-06	7.5174e-06	1385.7	528.4	5.5023e-06	8.8414e-06	614.17	263.01	215.93	98.465	1.1053e-06	114.84	0.00015194	0.00014577	4.0209e-05	1139.3	1.6091e-06	1.6049e-06	1216.2	455.04	1.6456e-06	1.6213e-06	450.58	217.93	156.05	81.309	1.6713e-06	93.696	165.944	-31.396	-9.921	-83.636	-48.313	51.325	-84.848	-79.413	27.773	-26.289	-80.919	-77.567	-76.310	-71.688	41.919	-73.536	-8191	255	
19475.477	1	1	0	0	0.057186	0.19657	0.13273	0.31367	0.085335	0.27781	0.20889	0.23141	0.079142	0.19015	0.13226	0.21887	0.29498	0.20678	0.15064	0.14835	-1.1583	-1.6729	-1.95	-1.3	-1.7396	-1.5958	-1.5292	-2.2146	-1.6812	-1.6521	-1.9292	-1.6875	-1.7896	-2.0896	-1.5333	-1.9958	-5.969	186.686	11.339	215.916	-78.233	-27.075	162.158	242.070	-77.738	252.412	-19.434	173.201	-91.544	241.878	118.641	-60.713	0.00066535	0.00041373	7.7795e-05	1333	3.8863e-06	6.9809e-06	1386.8	532.31	5.3099e-06	2.7354e-06	617.13	263.78	216.24	98.185	7.4663e-06	114.04	0.00015929	0.00015168	4.2212e-05	1143.2	1.6937e-06	1.6834e-06	1221.2	457.11	1.6972e-06	1.6908e-06	451.78	218.56	156.44	81.087	1.7168e-06	93.222	171.307	-63.595	231.894	-84.046	-7.974	81.187	-85.006	-79.683	-1.818	1.904	-81.031	-77.566	-76.752	-72.063	-26.791	-73.500	-8191	255	
19475.598	1	1	0	0	0.16758	0.11371	0.16152	0.33823	0.2063	0.11344	0.19833	0.29153	0.21067	0.11358	0.16495	0.34309	0.3029	0.21221	0.18924	0.30434	-1.3292	-1.625	-1.7687	-1.5583	-1.7854	-1.8479	-1.6437	-1.9604	-1.5312	-1.5917	-2.2188	-1.7521	-1.875	-2.1417	-1.4729	-2.0896	209.372	-8.385	-25.945	-71.904	194.734	172.335	174.550	173.888	38.405	229.655	250.754	221.264	-37.183	210.907	126.612	175.877	0.00033671	0.00062397	9.3701e-05	1329.6	5.6972e-06	8.5506e-06	1385.4	529.33	3.4756e-06	3.1435e-06	614.27	261.64	215.48	98.329	6.2606e-06	114.05	0.00016512	0.00015689	4.336e-05	1140.8	1.7093e-06	1.7065e-06	1214.8	456.34	1.7332e-06	1.7278e-06	450.91	217.1	156.08	81.175	1.7272e-06	92.931	159.760	-71.311	224.510	-83.865	23.003	29.700	-85.207	-79.497	137.089	-73.884	-81.252	-77.617	-76.313	-71.735	27.662	-73.594	-8191	255	
19475.693	1	1	0	0	0.24571	0.21945	0.14485	0.18098	0.39461	0.14204	0.19773	0.24116	0.30693	0.19809	0.28421	0.22661	0.076111	0.32172	0.40359	0.34356	-1.2583	-1.4604	-2.1479	-1.5646	-1.8188	-2.0104	-1.6833	-2.0729	-1.7208	-1.4271	-1.8583	-1.6875	-1.8104	-2.1688	-1.5938	-2	-25.538	30.931	17.178	236.285	139.620	171.634	-66.760	225.334	192.808	204.644	-29.824	227.266	80.869	244.909	182.152	225.901	0.00048937	0.00023461	0.00027377	1328.9	7.0777e-06	6.0784e-06	1388.9	529.05	4.3915e-06	1.0952e-05	611.7	262.27	214.72	98.695	3.845e-06	114.25	0.00016448	0.00015933	4.3885e-05	1146	1.7398e-06	1.7405e-06	1218.3	456.28	1.7415e-06	1.7153e-06	450.43	217.32	156.25	81.519	1.7583e-06	93.246	149.930	256.372	-56.308	-84.032	-32.912	32.394	-84.637	-79.589	-9.467	-41.769	-81.007	-77.646	-75.973	-71.658	24.682	-73.317	-8191	255	
19475.789	1	1	0	0	0.072069	0.27621	0.23449	0.19464	0.15776	0.10253	0.036272	0.39515	0.19169	0.064008	0.24769	0.063868	0.31721	0.32969	0.16049	0.33685	-1.3521	-1.3375	-1.8771	-1.6958	-1.5938	-1.8188	-1.5979	-1.8667	-1.5604	-1.4542	-1.8021	-1.7604	-1.6854	-2.1229	-1.425	-1.9375	7.211	172.013	56.435	220.300	27.218	125.838	135.268	218.434	159.977	174.983	163.062	-81.861	236.897	199.771	29.550	152.583	0.0004382	0.00044114	4.555e-05	1338.1	6.8265e-06	5.9805e-06	1378.3	527.92	8.0864e-06	4.3802e-06	616.6	262.43	215.14	98.797	7.4532e-06	115.23	0.0001646	0.00015659	4.3651e-05	1144.8	1.7416e-06	1.7249e-06	1218.1	456.17	1.7542e-06	1.7336e-06	452.78	218.21	156.24	81.603	1.7506e-06	93.886	174.612	-75.911	-44.447	-83.773	69.065	13.994	-85.128	-79.432	-26.257	8.737	-80.837	-77.557	-76.317	-71.853	48.945	-73.573	-8191	255	
19475.861	1	1	0	0	0.17771	0.11779	0.21857	0.17687	0.15617	0.0748	0.41481	0.4214	0.16762	0.20752	0.098063	0.19489	0.42125	0.2511	0.24165	0.42239	-1.2667	-1.3292	-1.6167	-1.7333	-1.4604	-1.925	-1.9375	-1.7437	-1.875	-1.2479	-1.9396	-2.1813	-1.5167	-2.1604	-1.5187	-1.9833	10.665	6.863	-56.735	239.029	228.958	78.338	158.162	201.142	124.045	182.494	78.106	243.489	179.673	242.265	46.401	177.492	0.00068204	0.00022857	0.00032601	1336.1	6.6346e-06	3.1485e-06	1388.9	529.37	3.682e-06	6.2672e-06	620.65	267.35	215.71	100.44	8.8132e-06	117.22	0.00016606	0.00016038	4.4596e-05	1145.8	1.7586e-06	1.7528e-06	1224.1	457.92	1.796e-06	1.754e-06	457.47	221.35	157.64	82.881	1.7989e-06	95.444	155.511	-51.591	-84.525	-84.186	54.101	14.280	-84.727	-79.625	41.472	-5.313	-81.101	-77.396	-76.090	-71.641	21.427	-73.305	-8191	255	
19475.982	1	1	0	0	0.021384	0.27414	0.14763	0.039178	0.09471	0.064756	0.20679	0.33866	0.10369	0.099149	0.077781	0.38987	0.11427	0.27731	0.19399	0.27224	-1.4354	-1.4417	-1.9167	-1.8646	-1.5104	-1.8208	-1.7646	-1.9708	-1.95	-1.6771	-1.9104	-1.875	-1.4521	-2.1646	-1.6771	-1.8917	15.413	67.957	53.569	-57.682	-71.657	47.170	185.866	237.181	-31.072	78.038	181.431	234.300	111.581	217.939	89.923	192.999	0.00066551	0.00068647	0.00019221	1339	6.3032e-06	5.3946e-06	1388.1	531.05	5.0847e-06	1.4201e-06	625.26	264.33	216.77	101.25	3.982e-06	115.98	0.00017069	0.00016382	4.5142e-05	1145.6	1.8275e-06	1.8024e-06	1223.3	458.98	1.8079e-06	1.8073e-06	457.55	220.06	157.7	83.286	1.8153e-06	94.813	165.793	-50.505	12.640	-83.870	36.173	112.286	-84.682	-79.425	13.289	238.275	-81.012	-77.178	-75.775	-71.350	-63.862	-73.256	-8191	255	
19476.078	1	1	0	0	0.028851	0.13451	0.18279	0.2712	0.2188	0.23412	0.085799	0.45873	0.10806	0.33749	0.14865	0.24231	0.043882	0.30827	0.46109	0.36192	-1.4583	-1.3396	-1.7188	-1.9896	-1.4625	-1.8333	-1.7979	-1.7687	-1.9021	-1.4771	-1.9292	-1.9292	-1.6646	-2.0271	-1.8896	-1.7167	-76.511	259.792	21.727	186.806	77.435	50.643	185.734	233.775	180.463	-10.989	139.213	229.193	111.449	-50.232	254.984	208.386	0.00069895	0.00038608	0.00014008	1341.1	5.4797e-06	5.4365e-06	1387.5	532.49	7.3875e-06	5.1976e-06	616.72	264.18	216.91	99.672	4.2379e-07	116.35	0.00017173	0.0001647	4.6258e-05	1148.6	1.8063e-06	1.8282e-06	1223.9	458.92	1.8451e-06	1.8366e-06	455.46	219.33	157.68	82.441	1.8465e-06	94.69	160.872	-28.913	13.836	-83.705	8.468	153.460	-84.897	-79.313	-14.525	12.872	-81.124	-77.272	-75.739	-71.273	-78.796	-73.230	-8191	255	
19476.174	1	1	0	0	0.11682	0.20509	0.1188	0.34302	0.42055	0.19366	0.32404	0.32597	0.18158	0.20454	0.1829	0.10938	0.15339	0.17929	0.12067	0.24196	-1.6792	-1.4729	-1.5854	-1.8813	-1.3708	-1.9667	-2.075	-1.5146	-1.9875	-1.725	-1.9562	-2.2333	-1.4958	-1.9438	-1.6688	-1.7396	112.145	41.362	211.319	-57.852	56.087	193.362	187.060	212.465	164.143	-17.626	-31.877	118.122	217.435	257.095	-17.997	261.706	0.00060072	0.00049407	0.0001188	1336.2	5.2788e-06	5.8976e-06	1393.6	531.27	3.4027e-06	7.1874e-06	615.31	263.46	215.54	99.234	5.4881e-06	115.68	0.00017351	0.00016841	4.6602e-05	1146.1	1.8293e-06	1.8586e-06	1226.1	458.59	1.8415e-06	1.8449e-06	456.98	219.59	157.38	82.019	1.8466e-06	94.484	168.998	-21.424	-50.933	-83.861	29.258	39.792	-84.965	-79.660	-24.599	68.127	-80.717	-77.418	-76.087	-71.601	47.324	-73.544	-8191	255	
19476.270	1	1	0	0	0.094846	0.030396	0.076377	0.41052	0.16091	0.069714	0.33956	0.17336	0.24461	0.19878	0.26694	0.26156	0.19144	0.29116	0.19456	0.22207	-1.6792	-1.6688	-1.5521	-1.8917	-1.3833	-1.8333	-1.9146	-1.7042	-2.0229	-1.6854	-1.7271	-2.1917	-1.7521	-2.05	-1.9292	-1.7563	3.681	117.423	-6.903	221.748	137.061	232.223	249.386	-60.478	-79.472	95.593	204.409	229.320	-93.666	163.266	164.301	157.318	0.00059659	0.00038787	0.0002538	1330.2	4.1703e-06	2.9436e-06	1387.2	529.96	6.7349e-06	6.6739e-06	622.78	266	215.47	99.808	5.6978e-06	116.68	0.00017282	0.00016672	4.6502e-05	1143.3	1.8548e-06	1.8195e-06	1226.8	459.42	1.8279e-06	1.8331e-06	459.08	220.92	157.69	82.48	1.8414e-06	95.006	155.271	261.378	-36.658	-83.877	-57.768	120.886	-85.030	-79.396	-64.314	13.593	-80.976	-77.360	-76.369	-71.591	-77.005	-73.478	-8191	255	
19476.389	1	1	0	0	0.17781	0.17454	0.16693	0.19236	0.097802	0.38851	0.22888	0.1996	0.15206	0.084413	0.23563	0.31697	0.071138	0.17459	0.49357	0.12368	-1.6104	-1.6375	-1.6583	-2.0438	-1.4792	-1.7375	-2.0729	-1.575	-1.9667	-1.5667	-1.4896	-2.1792	-1.8354	-2.0187	-1.95	-1.6187	81.057	70.419	98.298	226.091	5.577	-38.101	201.001	176.679	-16.658	223.569	230.228	251.282	55.816	168.615	-0.158	220.204	0.00044292	0.0003905	0.00021462	1338.7	4.662e-06	8.0392e-06	1397.1	530.71	1.0393e-05	8.9384e-06	619.54	265.33	215.85	100.77	4.5481e-06	116.35	0.0001754	0.00017136	4.7137e-05	1148	1.8533e-06	1.8436e-06	1232.1	459.08	1.8588e-06	1.8365e-06	458.28	220.53	157.46	82.97	1.853e-06	94.861	164.826	63.528	37.054	-83.658	-12.181	41.809	-84.757	-79.691	0.631	-25.833	-81.479	-77.431	-76.230	-71.677	85.232	-73.551	-8191	255	
19476.463	1	1	0	0	0.13953	0.047875	0.068458	0.08492	0.25615	0.20327	0.1789	0.24287	0.20036	0.19302	0.17915	0.082387	0.036066	0.18485	0.17007	0.28335	-1.3687	-1.6042	-1.5479	-2.2521	-1.4188	-1.7042	-1.9375	-1.5625	-1.8	-1.8708	-1.7042	-2.1125	-1.6667	-1.9292	-1.9625	-1.6167	221.125	213.624	-49.426	176.007	-24.692	106.972	174.849	223.996	158.593	39.601	241.177	-70.529	83.430	240.500	-40.683	-42.896	0.00062926	0.00057493	0.00017158	1337.3	1.2747e-06	7.5277e-06	1390.5	529.91	6.4529e-06	7.33e-06	611.04	264.92	214.73	100.46	5.6801e-06	115.95	0.00017644	0.00017094	4.7042e-05	1146.7	1.8425e-06	1.8589e-06	1223.2	458	1.8537e-06	1.8493e-06	455.73	219.61	157.31	83.059	1.8418e-06	94.673	159.479	-20.082	17.715	-84.208	-33.400	48.632	-84.758	-79.396	13.800	-83.640	-80.993	-77.428	-75.912	-71.538	-9.206	-73.447	-8191	255	
19476.559	1	1	0	0	0.21155	0.22295	0.11848	0.085797	0.094455	0.17138	0.2298	0.063301	0.18472	0.094586	0.28242	0.30366	0.17021	0.275	0.15785	0.15305	-1.2646	-1.7458	-1.3563	-1.8188	-1.3875	-1.5312	-2.125	-1.6521	-1.8021	-1.9146	-1.6354	-2.1458	-1.6187	-1.8479	-1.8104	-1.5979	116.763	194.427	-69.505	-66.781	-65.396	19.688	174.467	247.657	53.081	254.694	-59.582	169.676	188.465	164.473	139.689	190.124	0.00052319	0.00042197	0.00031256	1332.6	3.7152e-06	8.5616e-06	1393.4	529.92	6.5853e-06	7.0689e-06	617.52	263.42	215.34	100.42	9.1901e-06	116.35	0.00017545	0.00016735	4.7271e-05	1147.5	1.8522e-06	1.8491e-06	1225.6	457.77	1.8445e-06	1.8625e-06	457.37	219.4	157.35	82.995	1.8419e-06	94.805	163.923	-52.851	-35.675	-83.725	10.444	64.980	-84.598	-79.157	-30.949	8.252	-81.081	-77.603	-76.387	-71.576	-12.667	-73.553	-8191	255	
19476.678	1	1	0	0	0.1562	0.064458	0.061012	0.22076	0.2341	0.13373	0.22088	0.033269	0.12839	0.08104	0.1994	0.28397	0.19948	0.40901	0.11942	0.30908	-1.2938	-1.8646	-1.6688	-1.9667	-1.65	-1.6021	-2.1458	-1.5812	-1.7812	-2.1167	-1.5354	-2.0375	-2.0229	-1.5208	-1.9875	-1.7625	189.371	189.251	204.409	204.047	-77.281	238.471	220.436	-7.267	61.057	44.594	217.710	243.496	202.900	262.037	106.757	193.132	0.00056128	0.00034657	0.00029111	1337.5	9.6962e-06	2.0406e-06	1383.7	531.65	7.2584e-06	3.0984e-06	617.29	265.96	214.87	99.783	7.3147e-06	116.15	0.00017638	0.00017018	4.7137e-05	1145.5	1.8486e-06	1.8503e-06	1224.1	458.6	1.8479e-06	1.8425e-06	457.92	220.2	157.15	82.704	1.8643e-06	94.99	166.431	-2.996	-10.649	-84.013	25.241	72.207	-84.873	-79.598	34.443	25.603	-81.135	-77.788	-76.222	-71.660	16.914	-73.336	-8191	255	
19476.773	1	1	0	0	0.10425	0.22091	0.16646	0.17607	0.06862	0.13514	0.26073	0.2123	0.14831	0.28608	0.089321	0.37571	0.25335	0.088965	0.1117	0.41523	-1.2542	-1.7854	-1.3667	-2.0396	-1.7896	-1.5521	-2.1292	-1.9646	-1.675	-2.0062	-1.6979	-2.0708	-1.8375	-1.6354	-1.85	-1.8563	120.487	11.386	207.850	128.703	140.035	125.349	190.832	244.107	214.953	62.087	225.208	247.938	253.295	-56.779	73.727	205.039	0.00071482	0.00051632	0.0003984	1338.7	3.7229e-06	4.9317e-06	1390.4	531.05	5.4976e-06	6.3313e-06	616.3	265.5	216.01	99.555	2.5963e-06	115.72	0.00017755	0.00017271	4.7393e-05	1149.3	1.8583e-06	1.8425e-06	1231.9	458.86	1.8709e-06	1.8684e-06	458.66	220.83	157.11	82.252	1.8692e-06	94.941	159.682	-50.344	-31.464	-83.716	8.591	41.572	-84.694	-79.484	-40.817	-56.196	-80.686	-77.578	-76.349	-71.607	58.300	-73.592	-8191	255	
19476.869	1	1	0	0	0.041031	0.18717	0.26746	0.12893	0.21517	0.03496	0.14496	0.075637	0.044673	0.1051	0.18149	0.13852	0.17333	0.41121	0.12085	0.2421	-1.3188	-1.7938	-1.5208	-1.8292	-1.9937	-1.5396	-2.0708	-1.9188	-1.4979	-1.9021	-1.6625	-1.9188	-1.8875	-1.7958	-2.0083	-1.8979	8.873	35.255	196.848	244.268	-4.034	248.792	223.216	-6.325	207.147	-93.304	258.200	262.281	127.478	237.799	123.017	208.207	0.00047578	0.0006716	0.00013617	1341	1.8252e-06	5.5476e-06	1392.1	528.75	4.1231e-06	3.2768e-06	620.54	263.31	215.14	99.165	7.7458e-06	115.08	0.0001779	0.00017049	4.7115e-05	1147.2	1.8628e-06	1.8727e-06	1228.2	457.13	1.8743e-06	1.8636e-06	457.54	219.21	157.01	81.808	1.8792e-06	93.879	153.200	-55.050	-51.919	-83.842	-22.835	60.006	-84.873	-79.625	-14.094	71.361	-81.299	-77.523	-75.904	-71.485	59.089	-73.434	-8191	255	
19476.967	1	1	0	0	0.31246	0.0094641	0.22214	0.097809	0.16031	0.22821	0.34121	0.0086773	0.30654	0.49915	0.18504	0.14695	0.15895	0.22364	0.27527	0.27491	-1.2042	-2.0917	-1.4104	-1.9062	-1.6667	-1.4896	-2.0167	-1.9479	-1.4312	-2.1458	-1.5833	-1.8208	-1.875	-1.6271	-1.7542	-1.8729	227.796	127.276	-60.678	178.027	127.366	-56.986	184.775	100.255	196.088	241.436	236.271	231.147	-53.109	206.616	45.522	201.893	0.0006147	0.00042391	7.3554e-05	1334.5	4.2607e-06	3.3098e-06	1379.8	526.38	4.0276e-06	5.5102e-06	617.16	262.59	213.35	98.414	7.7439e-06	114.69	0.0001792	0.00017326	4.7438e-05	1144.3	1.8779e-06	1.886e-06	1221.8	456.5	1.8971e-06	1.8889e-06	456.67	218.78	156.48	81.532	1.8877e-06	93.909	147.209	-10.427	30.811	-83.465	-43.511	23.695	-84.682	-79.450	-45.969	-94.413	-80.766	-77.530	-76.397	-71.686	24.253	-73.440	-8191	255	
19477.062	1	1	0	0	0.01209	0.10916	0.31599	0.07831	0.1792	0.19461	0.28791	0.39569	0.39517	0.033215	0.090526	0.2117	0.18076	0.26664	0.10125	0.16488	-1.0354	-1.875	-1.7292	-1.6625	-2.0833	-1.5104	-2.0438	-1.8729	-1.3188	-2.0583	-1.675	-1.8625	-2.0667	-1.7687	-1.7563	-1.9208	206.742	-25.398	1.122	198.172	38.166	12.713	184.574	236.075	118.197	138.781	201.401	-93.442	-56.054	242.629	237.830	199.902	0.00052434	0.00038313	0.00014353	1336.6	2.3465e-06	1.092e-06	1387.5	529.51	3.7039e-06	4.6077e-06	615.03	262.51	214.76	98.75	3.1223e-06	114.9	0.00017842	0.00017269	4.7621e-05	1145.8	1.9021e-06	1.8795e-06	1226.7	457.2	1.9004e-06	1.8825e-06	456.7	218.63	156.79	81.758	1.8881e-06	94.005	167.601	45.049	2.152	-83.924	-33.249	23.115	-84.994	-79.809	43.062	114.118	-81.008	-77.155	-75.972	-71.595	28.655	-73.401	-8191	255	
19477.158	1	1	0	0	0.1197	0.21239	0.25629	0.25322	0.12947	0.26501	0.17611	0.034212	0.098651	0.2404	0.24423	0.34526	0.25607	0.47104	0.11376	0.17647	-0.96042	-1.8458	-1.5667	-1.5833	-2.0167	-1.3958	-1.9604	-2.1167	-1.5063	-1.7	-1.8542	-1.65	-1.9146	-1.9104	-1.55	-2.2521	-68.998	49.283	60.995	230.982	216.517	-59.159	196.121	99.747	175.089	-64.379	128.428	213.802	6.932	205.567	210.070	219.703	0.00065348	0.00045708	0.00032351	1334.6	6.1827e-06	7.4896e-06	1399.1	530.77	3.7684e-06	2.7375e-06	616.27	263.74	214.81	99.105	1.0353e-05	114.89	0.00018036	0.00017188	4.8335e-05	1151.9	1.8853e-06	1.8775e-06	1233.8	457.5	1.8919e-06	1.8862e-06	458.03	219.18	157.05	81.888	1.9026e-06	94.248	163.809	-42.074	12.734	-83.583	9.339	29.545	-84.620	-79.131	15.111	12.602	-80.568	-77.418	-75.947	-71.331	82.823	-73.401	-8191	255	
19477.279	1	1	0	0	0.23724	0.066271	0.12206	0.28023	0.18424	0.086176	0.35074	0.23738	0.1127	0.10343	0.097456	0.24723	0.048619	0.1788	0.18309	0.34201	-0.70417	-1.8312	-1.6875	-1.6833	-1.9646	-1.5646	-1.7167	-1.9979	-1.2563	-1.7979	-1.7521	-1.6208	-1.9479	-1.7208	-1.5958	-2.0583	253.576	120.847	245.663	167.091	26.789	66.193	159.795	209.757	-89.680	28.769	186.877	-62.209	248.402	168.204	126.524	195.732	0.00038665	0.00036389	0.00027595	1341.3	1.571e-06	3.3485e-06	1400.9	528.55	2.5643e-06	1.7073e-06	620.25	264.83	213.23	98.806	7.0878e-06	114.64	0.00017977	0.00017382	4.7689e-05	1151.5	1.8961e-06	1.9005e-06	1235.8	458.4	1.8927e-06	1.8916e-06	459.8	220	156.73	81.86	1.904e-06	94.031	172.296	-19.571	-43.735	-83.656	243.719	134.519	-84.851	-79.322	252.550	25.244	-81.209	-77.339	-75.649	-71.621	69.260	-72.980	-8191	255	
19477.375	1	1	0	0	0.15621	0.20599	0.16997	0.44778	0.051509	0.11704	0.19109	0.30251	0.10182	0.055184	0.10878	0.074836	0.26704	0.12258	0.14341	0.19246	-1.0125	-1.7437	-1.9521	-1.5667	-1.9292	-1.6063	-1.8146	-2.1688	-1.525	-1.8958	-1.9688	-1.6521	-2.0521	-1.8875	-1.65	-2.2271	194.850	-1.347	81.904	202.536	-39.158	93.107	176.164	234.096	44.793	256.758	116.620	77.673	177.081	236.248	28.274	185.552	0.00054893	0.00063932	0.00011575	1331.4	2.7558e-06	2.7913e-06	1388.7	527.82	5.991e-06	2.1831e-06	613.42	262.48	214.32	98.415	3.369e-06	114.45	0.00018126	0.00017262	4.8372e-05	1143.5	1.9014e-06	1.8864e-06	1228	457.29	1.902e-06	1.8728e-06	456.53	218.39	156.59	81.592	1.9213e-06	93.552	173.035	-22.670	-27.997	-83.567	25.928	-52.059	-84.574	-79.243	-55.702	54.068	-80.784	-77.299	-75.792	-71.340	15.127	-73.297	-8191	255	
19477.469	1	1	0	0	0.34538	0.1412	0.056843	0.22118	0.080134	0.25105	0.2652	0.23807	0.14618	0.11223	0.22736	0.32519	0.10529	0.1428	0.1321	0.30381	-1.1479	-1.6771	-1.9042	-1.5312	-1.8542	-1.6667	-1.7375	-2.1562	-1.7125	-1.8188	-2.0125	-1.7208	-1.9979	-1.8958	-1.5938	-2.2104	-16.718	-95.455	70.822	138.374	150.549	-48.608	203.137	212.019	-36.795	-26.553	198.758	237.176	210.279	244.140	101.104	195.592	0.00066908	0.00038434	7.2722e-05	1337	1.3873e-06	5.9394e-06	1388.3	527.76	3.2343e-06	5.657e-06	614.59	263.32	213.9	98.529	6.5905e-06	114.35	0.00018017	0.00017392	4.8507e-05	1146.8	1.9072e-06	1.8873e-06	1225.8	457.2	1.9118e-06	1.8978e-06	456.87	218.79	156.57	81.546	1.9055e-06	93.478	177.571	25.836	226.438	-83.720	-1.759	143.677	-84.891	-79.435	-24.103	12.573	-80.748	-77.456	-75.858	-71.775	30.650	-73.358	-8191	255	
19477.566	1	1	0	0	0.114	0.32875	0.089408	0.17695	0.28243	0.11848	0.40865	0.56921	0.13789	0.17824	0.20028	0.11684	0.33936	0.38085	0.078151	0.10929	-1.2417	-1.7	-1.9562	-1.6458	-1.6688	-1.9875	-1.7083	-2.1021	-1.5646	-1.6063	-1.8563	-1.5271	-1.8	-2.0187	-1.425	-2.1417	231.151	145.395	248.704	207.442	-2.355	236.708	192.880	223.599	9.813	-7.248	44.182	110.680	51.085	205.605	-85.509	187.684	0.00078688	0.00030271	0.00014952	1332.4	5.1208e-06	3.9606e-06	1385.7	526.88	1.9206e-06	9.7637e-06	625.28	262.88	215	98.753	5.1709e-06	115.24	0.00018048	0.00017368	4.8209e-05	1144.8	1.8829e-06	1.9002e-06	1227.6	457.13	1.914e-06	1.8981e-06	459.69	219.28	157.44	81.698	1.9145e-06	94.107	154.091	-42.525	259.795	-83.533	-24.903	-87.643	-84.753	-79.400	40.166	34.208	-80.721	-77.337	-75.963	-71.478	59.773	-73.421	-8191	255	
19477.686	1	1	0	0	0.42984	0.36579	0.13917	0.14002	0.033568	0.057373	0.41636	0.18074	0.19628	0.12097	0.24264	0.18608	0.10683	0.037639	0.094809	0.025209	-1.1	-1.6875	-1.8771	-1.6021	-1.8333	-1.8083	-1.7812	-2.1917	-1.6146	-1.4271	-2.1271	-1.7542	-1.8188	-2.1604	-1.2146	-2.0354	257.777	82.399	54.234	219.539	82.923	15.461	222.507	193.359	41.039	240.334	206.140	190.212	192.825	-14.748	251.948	228.175	0.00072756	0.00016587	0.00031593	1356.7	3.222e-06	4.0689e-06	1412.1	536.24	6.2026e-06	1.2404e-06	629.88	265.48	217.15	98.789	2.7441e-06	115.27	0.00018131	0.00017592	4.8442e-05	1166	1.891e-06	1.9075e-06	1246.9	462.62	1.9202e-06	1.9165e-06	463.76	221.04	158.44	81.778	1.929e-06	94.22	166.579	-12.566	-51.542	-84.276	24.913	96.402	-84.974	-79.530	43.484	259.075	-80.798	-77.460	-75.882	-71.595	31.492	-73.459	-8191	255	
19477.758	1	1	0	0	0.14391	0.12154	0.088445	0.23675	0.13552	0.21461	0.22938	0.2343	0.033945	0.072102	0.22155	0.27617	0.039926	0.26922	0.050961	0.21166	-1.3458	-1.3917	-1.9396	-1.9438	-1.7646	-1.8229	-1.5021	-1.8813	-1.65	-1.7146	-2.0104	-1.8188	-1.8146	-2.0979	-1.5042	-2.0104	120.849	157.454	-87.974	194.234	-18.887	69.461	220.457	186.611	196.280	114.833	200.312	259.364	-18.821	226.634	188.513	225.530	0.00065158	0.00041004	0.00022029	1342.4	2.009e-06	4.5833e-06	1404.9	534.11	2.192e-06	5.0496e-06	621.72	264.11	215.5	98.478	1.4164e-06	114.44	0.00018413	0.00017633	4.9356e-05	1156.9	1.939e-06	1.9411e-06	1239.2	461.49	1.9536e-06	1.9413e-06	460.95	219.63	158.1	81.4	1.9246e-06	93.526	177.490	-71.855	-17.158	-83.687	32.675	-19.593	-84.847	-79.319	-9.233	41.498	-81.233	-77.704	-75.952	-71.800	40.080	-73.399	-8191	255	
19477.854	1	1	0	0	0.25831	0.1262	0.3043	0.29533	0.21322	0.21582	0.25629	0.22678	0.12447	0.061104	0.41258	0.24741	0.31205	0.21128	0.10042	0.41834	-1.2875	-1.375	-1.9917	-1.6313	-1.6437	-1.9438	-1.6437	-1.8813	-1.8708	-1.5146	-2.0104	-1.675	-1.5625	-2.125	-1.3979	-1.9937	-36.304	144.887	-51.534	258.101	-96.067	-35.840	234.430	190.708	221.495	22.085	228.897	257.837	199.010	230.729	142.333	219.984	0.00057065	0.00033559	8.0574e-05	1337.4	1.8605e-06	2.9897e-06	1387.5	529.18	5.0966e-06	3.5908e-06	615.75	262.58	214.23	97.914	1.3092e-06	114.11	0.00018292	0.00017691	4.8841e-05	1151.8	1.9188e-06	1.933e-06	1228.8	458.31	1.9486e-06	1.9321e-06	457.57	218.49	157.54	81.337	1.9532e-06	93.405	171.552	232.700	-59.323	-84.087	96.715	31.583	-84.748	-79.319	30.701	41.702	-80.935	-77.175	-75.911	-71.472	61.394	-73.027	-8191	255	
19477.949	1	1	0	0	0.056627	0.099142	0.15874	0.083854	0.24719	0.16041	0.27826	0.1136	0.18443	0.19964	0.12784	0.1578	0.075983	0.11381	0.16467	0.27102	-1.5167	-1.3417	-1.9292	-1.7583	-1.5458	-2.1042	-1.5875	-1.9167	-1.9604	-1.4021	-1.7542	-1.7875	-1.6875	-2	-1.4062	-1.8625	-15.727	-87.939	-69.316	173.506	23.011	166.320	146.466	218.625	136.512	-76.352	262.355	228.013	186.369	238.978	102.712	182.320	0.00048583	0.00023845	2.8027e-05	1341.1	1.4177e-06	4.5007e-06	1388.8	531.53	3.6413e-06	9.7042e-06	617.53	262.21	214.01	97.819	5.2433e-06	113.62	0.00018565	0.00017863	4.9206e-05	1153.4	1.9433e-06	1.9233e-06	1227.8	459.58	1.9576e-06	1.9532e-06	458.63	218.81	157.42	81.145	1.9388e-06	93.218	140.920	-44.132	-64.417	-83.299	-96.195	-12.035	-85.320	-79.658	74.893	-26.923	-81.366	-77.682	-76.303	-71.655	82.115	-73.479	-8191	255	
19478.070	1	1	0	0	0.069258	0.053438	0.19579	0.14785	0.12497	0.036826	0.35735	0.19061	0.12289	0.16751	0.2119	0.12383	0.30822	0.25234	0.085255	0.37528	-1.3479	-1.4917	-1.7042	-2.0354	-1.5896	-1.9833	-1.7042	-1.9354	-1.7875	-1.5396	-1.9979	-1.9771	-1.6542	-2.1417	-1.4833	-1.9438	229.910	132.506	215.960	213.200	-30.398	-17.082	192.369	166.864	36.537	-32.489	-85.699	-50.892	246.832	-68.010	-19.152	205.476	0.00053175	0.00082479	0.00026986	1350	5.2342e-06	2.867e-06	1404.5	529.76	1.6979e-06	2.5366e-06	617.58	261.74	215.22	98.251	4.5575e-06	113.89	0.00018517	0.00017852	4.9856e-05	1158.6	1.9457e-06	1.9433e-06	1241.2	459.5	1.9711e-06	1.9485e-06	460.05	217.99	157.36	81.577	1.9719e-06	93.363	153.234	7.056	-79.495	-84.082	-10.396	46.427	-85.098	-79.451	-35.825	195.533	-81.028	-77.238	-76.247	-71.570	19.931	-73.244	-8191	255	
19478.168	1	1	0	0	0.34763	0.24584	0.19333	0.38839	0.072262	0.16344	0.297	0.25228	0.18092	0.058706	0.27411	0.12987	0.19268	0.17776	0.075688	0.30428	-1.4458	-1.4833	-1.9542	-1.9167	-1.4125	-1.8104	-1.9792	-1.8396	-1.8	-1.45	-1.8271	-1.9375	-1.325	-2.0458	-1.7292	-1.8167	230.555	-32.097	-73.892	195.473	233.406	52.494	203.956	199.753	171.351	52.679	255.509	221.025	167.791	244.580	82.008	248.170	0.0006679	0.00051461	0.00023153	1346.3	3.8396e-06	6.7864e-06	1406.1	530.02	4.6833e-06	3.1905e-06	617.57	264.72	215.63	99.351	4.0601e-06	114.98	0.00018723	0.00018092	4.9976e-05	1158.9	1.9533e-06	1.9628e-06	1240.1	458.85	1.985e-06	1.9561e-06	459.06	219.28	157.55	82.038	1.9875e-06	93.787	157.641	-23.324	-36.857	-83.894	41.330	23.133	-85.183	-79.516	-7.100	-36.586	-80.719	-77.359	-75.771	-71.362	151.572	-73.156	-8191	255	
19478.264	1	1	0	0	0.18291	0.28497	0.20573	0.068078	0.32275	0.12623	0.16	0.098469	0.036356	0.18386	0.21712	0.31896	0.28846	0.22608	0.077386	0.3058	-1.3917	-1.4646	-1.6313	-1.8167	-1.4958	-1.7458	-1.9271	-1.7458	-1.9917	-1.7333	-1.8417	-2.0792	-1.5312	-2.0479	-1.7125	-1.5833	-84.360	-52.765	-92.313	204.201	17.887	-89.901	-67.624	154.752	75.940	158.681	35.108	176.799	204.835	255.587	0.987	250.543	0.00061162	0.00066601	0.00028423	1340.2	4.1797e-06	7.2612e-06	1396.9	527.39	2.5552e-06	4.9468e-06	616.39	261.56	213.47	98.593	9.0908e-07	113.99	0.00018582	0.00017891	4.984e-05	1152.5	1.9551e-06	1.9347e-06	1229.4	457.06	1.9405e-06	1.9259e-06	456.38	218.11	157.22	81.709	1.9517e-06	93.269	162.057	-3.070	-15.875	-83.587	5.008	-8.929	-84.893	-79.187	-29.435	13.477	-80.897	-77.433	-75.944	-71.541	110.706	-73.374	-8191	255	
19478.359	1	1	0	0	0.12523	0.17441	0.18406	0.10785	0.20439	0.11489	0.072922	0.30948	0.13663	0.1817	0.1999	0.029541	0.05886	0.24383	0.16872	0.19357	-1.5792	-1.6063	-1.7417	-2.0333	-1.3125	-1.5729	-1.8521	-1.5021	-1.9312	-1.6792	-1.7646	-2.1792	-1.3333	-1.9896	-1.8083	-1.7958	-17.891	-73.417	73.661	249.098	23.801	86.066	28.540	100.070	152.561	254.838	-23.204	148.458	66.102	-71.686	81.413	154.460	0.00057912	6.4124e-05	0.00016828	1336.1	7.5626e-06	5.5942e-06	1387.2	531.39	2.0314e-06	8.4438e-06	618.14	262.27	214.15	99.141	4.4723e-06	114.81	0.0001867	0.00017872	4.8943e-05	1147	1.9309e-06	1.9394e-06	1223.5	458.84	1.9575e-06	1.9387e-06	457.28	218.69	157.63	82.164	1.9491e-06	93.921	163.689	-77.241	-32.966	-83.338	7.761	120.466	-84.694	-79.061	-44.052	27.747	-80.471	-77.700	-75.898	-71.692	28.874	-73.472	-8191	255	
19478.455	1	1	0	0	0.43535	0.2126	0.081093	0.24978	0.078793	0.25356	0.22651	0.11632	0.23007	0.074198	0.022992	0.27487	0.089752	0.28694	0.21828	0.37329	-1.5063	-1.6833	-1.5938	-1.8542	-1.5312	-1.8125	-2.1833	-1.675	-2.1333	-1.9292	-1.5958	-2.2625	-1.5958	-1.875	-1.8104	-1.6042	51.624	-63.782	187.496	163.363	-94.068	149.262	243.148	-70.872	-88.884	123.362	-84.914	202.032	256.932	178.949	122.192	206.670	0.00054479	0.00024662	0.00020806	1336.2	2.8646e-06	2.5095e-06	1385.1	531.27	2.9804e-06	6.2675e-06	619.84	263.23	214.53	99.568	3.6078e-06	115.3	0.00018552	0.00017837	4.9618e-05	1148.6	1.9503e-06	1.9446e-06	1226.5	459.15	1.9617e-06	1.955e-06	459.89	219.38	157.83	82.432	1.957e-06	94.4	155.442	-23.933	-39.653	-83.451	12.457	132.321	-84.328	-78.921	-56.366	-6.038	-80.584	-77.205	-75.417	-71.240	50.499	-73.383	-8191	255	
19478.551	1	1	0	0	0.045562	0.12499	0.08808	0.11868	0.068347	0.15681	0.30164	0.28696	0.097487	0.050828	0.17303	0.14638	0.42374	0.35878	0.061094	0.37023	-1.5208	-1.6729	-1.4312	-2.0979	-1.5958	-1.7271	-2.2313	-1.5187	-1.9188	-1.8021	-1.4979	-2.1125	-1.725	-1.7771	-1.7542	-1.6021	-41.822	254.965	157.528	123.998	12.216	-16.299	186.474	242.806	-78.095	-40.040	106.787	193.309	210.013	205.797	-36.790	203.888	0.0006766	0.00061337	0.00040898	1333.6	4.1357e-06	2.1571e-06	1399	532.87	4.3075e-06	7.455e-06	621.08	265.66	214.73	99.528	8.2911e-06	116.39	0.00018508	0.00017766	5.0401e-05	1150.3	1.961e-06	1.9463e-06	1233	460.17	1.9871e-06	1.9512e-06	462.02	220.86	157.83	82.563	1.9515e-06	95.167	158.250	-48.224	-66.469	-83.306	15.390	49.952	-84.553	-79.026	-32.651	27.601	-80.521	-77.230	-75.991	-71.391	73.237	-73.228	-8191	255	
19478.648	1	1	0	0	0.087282	0.099172	0.11078	0.45651	0.22434	0.3961	0.076797	0.33787	0.28086	0.36498	0.1197	0.2873	0.22043	0.306	0.14135	0.3315	-1.4021	-1.6125	-1.4625	-1.9896	-1.4375	-1.6333	-1.9167	-1.725	-1.6875	-1.7604	-1.5583	-1.8937	-1.6562	-1.7563	-1.9958	-1.6542	228.494	97.113	126.971	170.484	164.158	31.025	135.212	243.758	14.901	196.586	-47.727	254.653	118.020	249.446	52.465	180.502	0.00071669	0.00048291	0.00022241	1336.3	3.8606e-06	8.9297e-07	1392.5	532.28	4.6541e-07	6.8287e-06	615.24	264.47	215.12	99.354	6.6888e-06	115.2	0.00018593	0.0001789	4.9491e-05	1151.2	1.9664e-06	1.9504e-06	1230.9	460.58	1.9631e-06	1.9614e-06	460.89	221.1	158.39	82.519	1.9497e-06	94.488	156.650	-54.437	-38.717	-83.778	-11.772	-89.290	-84.908	-79.391	-7.400	-11.259	-81.090	-77.353	-76.273	-71.570	32.318	-73.371	-8191	255	
19478.768	1	1	0	0	0.18378	0.13746	0.2605	0.16852	0.18567	0.16605	0.2851	0.22301	0.075235	0.19161	0.21746	0.26201	0.33581	0.29901	0.29166	0.17048	-1.3521	-1.8146	-1.175	-1.9458	-1.8875	-1.4813	-1.8917	-1.6521	-1.7854	-2.0271	-1.3604	-1.8937	-1.6792	-1.7333	-1.9646	-1.7396	48.536	-56.519	117.712	-86.978	-49.376	109.448	212.254	209.271	48.738	149.018	223.694	223.664	247.826	218.110	162.810	158.948	0.00045073	0.00040248	0.00021924	1332.7	5.8136e-06	2.6847e-06	1385.4	529.66	3.1036e-06	7.5342e-06	620.75	263.34	214.77	98.807	4.0205e-06	114.77	0.00018635	0.0001796	4.9352e-05	1145.2	1.9554e-06	1.9427e-06	1223.8	458.95	1.9795e-06	1.9588e-06	459.78	219.68	158.13	82.082	1.9612e-06	94.051	156.486	-86.458	37.138	-83.882	-5.216	33.267	-85.006	-79.601	26.064	-41.586	-81.015	-77.418	-75.964	-71.266	57.326	-73.319	-8191	255	
19478.863	1	1	0	0	0.2343	0.1338	0.11291	0.16395	0.086352	0.174	0.44298	0.37655	0.087291	0.16367	0.20335	0.2169	0.21246	0.1808	0.14818	0.28258	-1.3042	-2.0146	-1.2792	-2.0167	-1.6083	-1.6	-2.0729	-1.6792	-1.6625	-1.8542	-1.5208	-2.0792	-1.6833	-1.5646	-1.8979	-1.8479	-65.156	-41.687	41.816	-87.379	103.887	133.075	219.244	218.191	197.183	181.709	237.428	244.044	251.808	-80.489	130.545	198.654	0.00055255	0.00085932	0.00014114	1330.3	1.0816e-05	1.1487e-06	1386	530.45	2.8917e-06	6.7632e-06	619.96	263.79	214.55	98.243	4.7363e-06	114.5	0.00018415	0.00017792	5.011e-05	1146.3	1.9542e-06	1.9523e-06	1226.4	460.07	1.9695e-06	1.963e-06	460.2	219.58	158.08	81.699	1.9679e-06	93.916	148.896	-22.021	-48.847	-83.983	-3.357	-65.084	-85.094	-79.747	-74.508	-85.649	-80.881	-77.313	-75.911	-71.485	4.227	-73.460	-8191	255	
19478.959	1	1	0	0	0.1015	0.11278	0.074791	0.32563	0.060066	0.15384	0.3275	0.18512	0.32861	0.19875	0.22869	0.033014	0.2222	0.22463	0.13037	0.19352	-1.1292	-1.7938	-1.3958	-1.9396	-1.7354	-1.3125	-2.1437	-1.8125	-1.5583	-1.8396	-1.2854	-1.8042	-1.8375	-1.5896	-1.7437	-1.825	109.230	14.751	-13.958	183.119	144.148	32.945	168.684	250.841	103.644	228.032	183.443	203.280	196.895	249.718	62.786	233.811	0.0006235	0.0004444	0.0002283	1330.4	3.4175e-06	5.6036e-06	1392.3	531.03	2.0143e-06	6.2189e-06	620.07	265.21	215.54	98.987	2.9133e-06	115.68	0.00018699	0.00018006	4.9939e-05	1147	1.9885e-06	1.9663e-06	1229.4	459.85	1.9645e-06	1.9669e-06	461.43	220.64	157.96	81.984	1.9668e-06	94.654	155.998	-93.425	-29.603	-83.703	-2.016	-39.680	-84.743	-79.535	-91.591	4.938	-81.040	-77.382	-76.177	-71.354	1.591	-73.336	-8191	255	
19479.055	1	1	0	0	0.083659	0.10721	0.071418	0.2662	0.33572	0.11922	0.080741	0.14209	0.17772	0.14899	0.14469	0.24989	0.23626	0.30841	0.28818	0.16913	-0.95833	-1.9021	-1.4438	-1.9646	-1.8375	-1.4312	-1.7437	-1.9604	-1.5354	-2.05	-1.5833	-1.775	-1.8708	-1.5187	-1.8417	-2.0021	180.874	21.639	163.404	233.705	225.179	-28.342	157.868	-39.997	29.997	166.342	107.999	255.605	230.496	229.634	90.033	253.631	0.0005632	0.0004142	0.00015274	1340.3	4.523e-06	6.3867e-06	1390.3	532.14	5.8017e-06	8.2537e-06	623.61	265.92	215.13	99.723	1.5231e-06	115.84	0.000187	0.00017784	4.9724e-05	1151.1	1.9645e-06	1.9564e-06	1230.8	460.85	1.9582e-06	1.9567e-06	462.89	221.85	158.31	82.651	1.9903e-06	94.982	161.015	-46.519	10.121	-83.798	63.022	42.303	-84.806	-79.471	162.573	-2.965	-81.100	-77.467	-76.203	-71.563	59.850	-73.213	-8191	255	
19479.150	1	1	0	0	0.21151	0.019908	0.12433	0.27265	0.15084	0.047177	0.18105	0.10777	0.18178	0.097144	0.071363	0.46157	0.10868	0.181	0.1728	0.088334	-1.0312	-1.9688	-1.5604	-1.7917	-1.9083	-1.4208	-2.0833	-2.0979	-1.3646	-2.1604	-1.6667	-1.7771	-2.0021	-1.7708	-1.7854	-1.8354	6.762	97.296	246.409	260.533	100.243	225.782	179.006	198.246	130.424	-68.404	53.521	193.020	189.072	-86.015	64.896	184.834	0.00053464	0.00028217	0.0003153	1334.4	1.1923e-05	6.0605e-06	1388.5	530.32	1.6692e-06	9.306e-06	621.65	264.33	216.77	99.675	2.5368e-06	115.41	0.00018632	0.00017905	4.985e-05	1147.6	1.9607e-06	1.9588e-06	1225.8	460.49	1.9813e-06	1.9574e-06	461.19	220.44	158.39	82.639	1.9687e-06	94.487	157.204	-35.396	-87.687	-83.524	-11.249	94.712	-84.642	-79.199	208.203	28.780	-80.674	-76.958	-75.752	-71.119	75.985	-73.457	-8191	255	
19479.246	1	1	0	0	0.26942	0.088396	0.18827	0.16728	0.066726	0.43599	0.12046	0.18355	0.093108	0.29702	0.16815	0.29093	0.35173	0.12225	0.24401	0.30979	-0.98958	-1.9021	-1.6333	-1.5458	-1.8542	-1.5333	-1.8937	-1.8083	-1.5312	-1.7979	-1.8625	-1.6354	-1.7833	-1.5792	-1.7729	-2.05	230.464	94.988	-29.387	200.381	166.535	209.797	221.395	115.290	119.799	105.573	113.342	241.492	-95.345	-44.169	87.200	187.343	0.0006123	0.00039583	0.00022648	1328.4	4.5988e-06	4.3743e-06	1375.2	529.84	5.7596e-06	3.9e-06	615.68	264.26	213.66	99.709	5.7886e-06	115.62	0.0001858	0.00017831	4.9702e-05	1144.8	1.9756e-06	1.9757e-06	1219.1	459.01	1.9764e-06	1.9444e-06	459.24	220.08	157.62	82.517	1.9819e-06	94.612	164.021	2.907	32.040	-83.824	27.502	82.440	-84.656	-79.211	19.363	1.694	-80.771	-77.392	-76.131	-71.297	70.124	-73.377	-8191	255	
19479.367	1	1	0	0	0.26386	0.31157	0.15544	0.17157	0.30919	0.19843	0.19454	0.13187	0.087966	0.13833	0.10005	0.34861	0.06641	0.19512	0.06693	0.25822	-1.1125	-1.7083	-1.5625	-1.6833	-1.7521	-1.6313	-1.9458	-2.0417	-1.2583	-1.85	-1.8438	-1.6854	-1.9979	-1.6229	-1.8458	-2.2271	22.182	238.006	-52.012	-89.542	194.910	98.816	152.464	221.176	137.713	164.892	109.214	211.800	256.322	198.656	-22.414	189.685	0.00056241	0.00027597	0.00023338	1330.3	5.1634e-06	3.3086e-06	1382.4	529.55	1.9563e-06	8.1266e-06	617.72	263.29	214.02	99.147	5.7108e-06	115.29	0.00018691	0.00017981	4.9806e-05	1146.4	1.9739e-06	1.9817e-06	1224	459.28	1.9706e-06	1.9613e-06	460.53	219.86	157.69	82.159	1.9697e-06	94.485	139.569	-43.763	-74.191	-83.520	16.507	84.593	-84.951	-79.754	209.648	6.447	-81.414	-77.503	-75.799	-71.450	65.324	-73.439	-8191	255	
19479.463	1	1	0	0	0.13221	0.09846	0.069091	0.087394	0.13701	0.11627	0.23857	0.32232	0.11539	0.06054	0.21997	0.14559	0.19748	0.27254	0.24162	0.044385	-0.96667	-1.9479	-1.6417	-1.5708	-1.8937	-1.4583	-1.7938	-2.1208	-1.5125	-2.0062	-1.8417	-1.5542	-1.8604	-1.7625	-1.5292	-2.0438	-9.997	142.032	201.898	217.263	136.571	97.612	205.297	236.315	38.902	178.047	-38.205	190.059	60.434	197.293	219.652	-36.589	0.00058283	0.00053523	9.7785e-05	1340.1	5.8783e-06	5.2314e-06	1386.2	527.57	3.5919e-06	6.3569e-06	621.61	265.48	215.46	99.001	2.6721e-06	115.55	0.00018634	0.00018137	4.9985e-05	1145.2	1.9745e-06	1.9745e-06	1226.1	458.87	1.9749e-06	1.9584e-06	460.39	220.89	157.92	82.122	1.9671e-06	94.7	158.476	-18.660	-16.602	-83.714	-13.812	113.011	-84.930	-79.279	50.636	-26.664	-81.243	-77.815	-76.348	-71.541	-66.793	-73.184	-8191	255	
19479.559	1	1	0	0	0.11964	0.21599	0.11904	0.26166	0.10311	0.18701	0.34225	0.197	0.28429	0.29103	0.085448	0.2399	0.2015	0.29144	0.19539	0.17434	-0.87708	-1.5896	-1.6292	-1.5583	-1.9896	-1.4625	-1.7271	-1.9167	-1.3687	-1.725	-1.9917	-1.5083	-1.925	-1.8458	-1.4292	-2.1521	-9.309	33.682	58.322	-65.975	226.311	201.578	182.103	224.158	221.075	173.445	219.544	198.669	-50.671	-96.046	146.211	253.376	0.00067307	0.00062705	0.00015849	1340	3.6668e-06	1.6881e-06	1385.4	530.68	4.8334e-06	3.7048e-06	617.95	264.6	212.52	97.782	4.8313e-06	114.72	0.00018707	0.00018075	4.9893e-05	1148.5	1.9818e-06	1.9515e-06	1226.7	459.34	1.9562e-06	1.9614e-06	460.04	219.54	157.09	81.265	1.9663e-06	93.689	157.367	2.308	-23.032	-83.731	11.869	-86.687	-84.712	-79.527	117.838	72.885	-81.013	-77.295	-75.903	-71.008	-18.771	-73.310	-8191	255	
19479.631	1	1	0	0	0.34638	0.051647	0.23622	0.29707	0.076164	0.12671	0.13522	0.15929	0.033094	0.063973	0.1467	0.34429	0.14415	0.17662	0.2129	0.24209	-0.93958	-1.7021	-1.7042	-1.4729	-1.6521	-1.7167	-1.6708	-1.9438	-1.5667	-1.6979	-2.0563	-1.5917	-1.9271	-1.8937	-1.5208	-2.1063	-1.287	131.776	-54.826	-66.137	86.926	166.780	-58.326	228.049	127.354	118.408	24.577	156.466	-49.797	162.606	228.266	164.564	0.00064098	0.00079682	0.00029912	1322	5.2271e-06	1.0293e-05	1370.7	527.61	6.6456e-06	5.7173e-06	613.47	263.6	213.98	98.412	6.5309e-06	114.84	0.00018806	0.00017797	4.9557e-05	1137.4	1.9454e-06	1.9539e-06	1212.3	457.17	1.9635e-06	1.9358e-06	456.5	218.84	157.26	81.514	1.9645e-06	93.723	175.733	-24.070	-48.654	-83.869	-24.688	4.846	-84.617	-79.498	58.417	11.754	-80.799	-77.457	-75.928	-71.283	-68.145	-73.405	-8191	255	
19479.752	1	1	0	0	0.089966	0.20266	0.17429	0.32305	0.12652	0.36186	0.051322	0.22296	0.2106	0.19393	0.23275	0.20688	0.2776	0.16833	0.15774	0.41803	-1.2313	-1.4875	-1.7938	-1.4375	-1.7771	-1.6208	-1.675	-1.9833	-1.5	-1.4979	-2.0604	-1.7188	-1.8604	-1.9	-1.5625	-1.9875	156.287	-6.967	28.052	198.697	238.419	214.730	199.128	217.238	67.092	-72.170	116.107	172.518	-28.146	-49.856	130.800	227.757	0.00059294	0.00050503	0.00031279	1318.9	5.3419e-06	6.8983e-06	1379.1	528.82	1.2193e-06	6.9965e-06	618.49	263.43	214.84	98.809	6.8262e-06	115.18	0.00018591	0.00017957	4.9994e-05	1138.2	1.9628e-06	1.9636e-06	1216.3	458.6	1.9789e-06	1.9528e-06	460.04	219.91	158.19	81.878	1.9639e-06	94.321	150.448	-57.319	-46.571	-83.531	-11.286	-4.582	-84.663	-79.380	-38.408	-50.168	-80.338	-77.341	-75.654	-71.340	16.680	-73.349	-8191	255	
19479.848	1	1	0	0	0.21112	0.17276	0.20211	0.31388	0.12837	0.19222	0.11565	0.36909	0.083787	0.33062	0.17759	0.21515	0.16128	0.2291	0.20809	0.24354	-1.4333	-1.425	-2.0167	-1.6625	-1.6146	-1.9625	-1.6375	-2.1396	-1.7208	-1.6562	-2.1021	-1.7188	-1.9438	-2.05	-1.375	-2.0229	154.163	-49.623	262.106	211.104	104.852	126.606	169.645	202.733	-43.652	66.549	173.965	214.415	-79.507	203.243	-47.797	206.532	0.00052936	0.00029037	0.00014712	1334.4	4.1429e-06	2.7429e-06	1386.6	528.66	1.4327e-06	3.6181e-06	620.96	264.05	214.91	98.871	2.7004e-06	114.83	0.000187	0.00018066	4.9783e-05	1148	1.9832e-06	1.9814e-06	1227.4	458.46	2.0054e-06	2.0029e-06	461.41	219.57	157.63	82.132	1.9774e-06	94.235	164.997	-96.009	123.705	-83.509	44.391	139.523	-84.397	-79.148	230.321	-25.330	-80.803	-77.340	-76.163	-71.641	4.182	-73.341	-8191	255	
19479.943	1	1	0	0	0.16012	0.25971	0.10825	0.21476	0.24867	0.080589	0.26878	0.45277	0.20476	0.18661	0.17626	0.44103	0.22484	0.15856	0.14942	0.46097	-1.1229	-1.3208	-1.8375	-1.7687	-1.4896	-2.0417	-1.5604	-2.1042	-1.6688	-1.4833	-2.1562	-1.6625	-1.5896	-2.2042	-1.45	-1.9062	129.738	105.511	-97.428	212.682	48.332	246.707	191.568	227.076	25.370	129.180	-85.081	241.138	255.247	189.264	208.410	171.989	0.00066865	0.00031244	0.00024797	1338.9	6.2104e-06	2.6101e-06	1389	528.89	3.3183e-06	1.9912e-06	621.87	265.67	215.69	99.495	3.1791e-06	115.87	0.00018948	0.00018099	5.0556e-05	1146.8	1.9826e-06	1.9553e-06	1227.3	458.7	1.9783e-06	1.9856e-06	461.35	221.07	158.13	82.502	1.976e-06	94.841	152.536	-15.395	-52.092	-83.738	52.027	110.463	-84.716	-79.467	10.041	173.591	-80.539	-77.236	-75.607	-71.067	107.056	-72.858	-8191	255	
19480.039	1	1	0	0	0.21976	0.41971	0.078856	0.11212	0.12531	0.13241	0.12631	0.46458	0.2758	0.12703	0.11753	0.28179	0.1256	0.14422	0.22192	0.38011	-1.2938	-1.4229	-1.7729	-1.6792	-1.5812	-2.0167	-1.4479	-1.8625	-1.8813	-1.3854	-1.8937	-1.8312	-1.5479	-2.1083	-1.5667	-1.8417	-0.070	146.373	95.431	-76.240	32.437	258.185	182.930	155.269	-63.056	7.703	186.768	195.086	25.872	136.253	206.573	241.544	0.00057835	0.00077537	0.00012133	1332.9	3.4033e-06	7.755e-06	1375.7	528.55	5.5315e-06	5.0821e-06	618.39	263.56	214.46	99.768	3.9766e-06	115.16	0.00018748	0.00017935	5.0167e-05	1144.3	1.9795e-06	1.9599e-06	1218.4	458.56	1.9776e-06	1.9589e-06	459.31	220.27	157.97	82.742	1.9765e-06	94.465	155.549	5.788	223.777	-83.184	8.286	50.433	-84.707	-79.524	-42.745	102.414	-81.187	-77.472	-75.714	-71.416	164.677	-73.439	-8191	255	
19480.160	1	1	0	0	0.22253	0.18476	0.080058	0.33443	0.21127	0.10127	0.40326	0.23704	0.12051	0.21227	0.1917	0.30283	0.13087	0.23774	0.061873	0.21284	-1.4438	-1.3229	-1.8521	-1.9458	-1.4125	-1.9354	-1.7687	-1.6271	-1.9083	-1.3542	-1.85	-2.1375	-1.5729	-2.2021	-1.5375	-1.8479	91.215	53.017	7.569	-26.539	-23.071	18.638	219.382	168.205	-11.909	-38.181	-60.068	215.064	237.980	217.186	187.000	172.236	0.00062517	0.00024943	2.1694e-05	1321	7.096e-06	1.5601e-06	1376.8	528.83	2.8471e-06	1.3552e-06	614.82	264	214.68	99.805	4.6704e-06	115.12	0.00018802	0.00018132	5.0495e-05	1139.7	1.9811e-06	1.967e-06	1216.8	458.29	1.9981e-06	1.9757e-06	458.55	219.55	157.67	82.531	1.9985e-06	94.27	173.087	-36.558	80.193	-83.947	23.682	22.658	-84.861	-79.340	24.475	121.421	-80.937	-77.354	-76.352	-71.524	60.331	-73.280	-8191	255	
19480.232	1	1	0	0	0.021976	0.096083	0.02038	0.19472	0.32556	0.25782	0.3481	0.28911	0.18156	0.2392	0.10455	0.13279	0.23748	0.28741	0.050126	0.29033	-1.5292	-1.5187	-1.7667	-1.8563	-1.4583	-1.7667	-1.7375	-1.8146	-2.0229	-1.4875	-1.7521	-1.7375	-1.4	-1.8833	-1.4792	-1.5333	-63.305	-70.950	39.898	-87.211	222.638	-88.491	-94.081	202.356	174.569	224.424	57.183	262.331	-82.768	-67.541	2.963	205.663	0.00050231	0.00076168	0.00032564	1330.6	1.454e-06	5.9389e-06	1379.3	529.24	1.6403e-06	1.0477e-05	620.2	264.95	215.02	99.487	3.5786e-06	116.22	0.00018819	0.00018227	5.0447e-05	1144.1	1.983e-06	1.9837e-06	1218.4	458.91	1.9818e-06	1.9686e-06	459.41	220.61	157.72	82.459	1.9821e-06	94.969	169.693	-12.196	-39.885	-83.558	-8.745	9.426	-84.789	-79.268	6.862	-20.100	-80.815	-77.226	-75.760	-71.620	-12.739	-73.045	-8191	255	
19480.328	1	1	0	0	0.18695	0.37573	0.20167	0.41656	0.1455	0.12204	0.34349	0.26802	0.28772	0.31984	0.1725	0.1586	0.17364	0.067969	0.32944	0.18604	-1.5167	-1.4729	-1.5458	-1.8958	-1.3729	-1.8917	-1.9188	-1.6729	-1.9042	-1.7083	-1.7188	-2.1083	-1.3604	-1.9854	-1.7104	-1.7604	71.431	159.686	-3.485	235.253	25.138	116.878	179.581	173.585	34.594	-41.930	45.053	248.137	-36.732	-43.602	13.223	-56.719	0.00061211	0.00035339	0.00016193	1330.2	3.1896e-06	4.6214e-06	1381.6	529.07	1.1733e-06	9.561e-06	617.19	265.13	215.69	100.95	5.3315e-06	117.29	0.00018748	0.00017989	5.0226e-05	1147.1	1.9707e-06	1.9543e-06	1222.2	459.41	1.9727e-06	1.9844e-06	459.85	221.56	158.61	83.659	1.9937e-06	95.936	158.586	-90.096	-67.413	-83.846	-11.384	14.109	-84.758	-79.320	49.028	-51.402	-80.525	-77.068	-75.826	-71.399	115.673	-73.362	-8191	255	
19480.447	1	1	0	0	0.14488	0.12468	0.16311	0.22667	0.41997	0.036489	0.14047	0.36043	0.18825	0.1368	0.18648	0.31338	0.26285	0.27911	0.14992	0.36218	-1.5187	-1.5833	-1.6292	-1.9958	-1.5896	-1.8958	-2.0125	-1.5208	-1.7	-1.55	-1.7167	-1.9625	-1.5979	-1.8458	-1.7083	-1.6917	81.794	-71.178	215.863	-69.552	136.297	-6.599	-61.191	215.667	53.461	-57.345	189.517	224.256	214.218	-84.682	152.599	208.358	0.00073026	0.00043975	0.00017257	1328.2	3.7233e-06	6.0396e-06	1386.4	531.82	1.5435e-06	1.1282e-05	621.01	265.71	216.29	101.19	3.4576e-06	116.68	0.00018757	0.00018259	5.0366e-05	1146.3	1.9893e-06	1.9781e-06	1223.9	460.44	1.9846e-06	1.9991e-06	460.48	221.42	158.88	83.765	1.9858e-06	95.474	163.353	-80.546	-57.002	-83.408	-62.847	43.638	-84.650	-79.448	117.053	14.315	-81.169	-77.392	-76.245	-71.351	70.379	-72.925	-8191	255	
19480.543	1	1	0	0	0.15307	0.14885	0.14244	0.19299	0.28625	0.16789	0.034782	0.27469	0.16294	0.092903	0.22474	0.57312	0.25958	0.13161	0.11884	0.25963	-1.3375	-1.6167	-1.6104	-2.0208	-1.4271	-1.8312	-1.95	-1.5063	-1.7875	-1.725	-1.5729	-2.0271	-1.6104	-1.9271	-1.9	-1.4729	81.716	-76.798	97.592	-73.369	32.685	152.279	12.089	181.017	-27.847	222.518	162.652	245.621	-92.275	246.230	110.796	219.447	0.00056661	0.00049566	8.5665e-05	1335.7	4.3827e-06	6.7353e-06	1377.7	531.39	3.0358e-06	4.5213e-06	615.46	265.29	217.05	101.06	5.0438e-06	116.8	0.0001866	0.00018199	5.0048e-05	1144.2	1.9752e-06	1.9729e-06	1217.7	459.68	1.9816e-06	1.9721e-06	456.87	220.57	158.55	83.504	1.9561e-06	95.377	165.588	5.121	248.290	-83.705	-1.751	28.852	-84.486	-79.334	29.281	54.911	-80.687	-76.941	-75.493	-71.063	-3.983	-72.909	-8191	255	
19480.641	1	1	0	0	0.24525	0.15437	0.14134	0.25898	0.14245	0.13695	0.24851	0.33341	0.06148	0.22314	0.093377	0.071743	0.33982	0.070202	0.28176	0.37879	-1.5021	-1.7104	-1.3875	-2.2521	-1.4937	-1.6208	-2.1188	-1.5375	-1.8062	-1.5688	-1.4688	-2.0125	-1.7104	-2.0417	-1.8896	-1.475	-6.793	-26.145	198.632	187.065	100.662	95.245	238.893	207.876	42.761	215.644	-36.335	211.641	-88.761	173.002	144.901	185.961	0.00070162	0.00026966	0.00010435	1327.9	6.4008e-06	3.7265e-06	1369.9	530.24	4.8753e-06	9.1659e-06	613.78	266.04	217.07	101.5	2.7643e-06	117.78	0.00018861	0.00018004	4.9682e-05	1143.5	1.9802e-06	1.9443e-06	1213.1	459.35	1.9834e-06	1.9614e-06	457.87	221.53	159.41	84.033	1.9705e-06	96.045	166.883	-82.261	-58.885	-83.901	25.969	-22.211	-84.820	-79.279	-6.656	-2.335	-81.052	-77.507	-75.773	-71.615	159.743	-73.169	-8191	255	
19480.760	1	1	0	0	0.1199	0.12505	0.12231	0.079974	0.29298	0.11298	0.37133	0.14831	0.29589	0.034162	0.10254	0.23917	0.19728	0.17198	0.15669	0.36827	-1.2188	-1.7687	-1.35	-1.9167	-1.5187	-1.7062	-2.0438	-1.8271	-1.8146	-2.0292	-1.4917	-2.1146	-1.6625	-1.9771	-1.9583	-1.4937	132.574	11.842	-65.375	-47.691	38.575	225.630	208.246	252.113	8.686	51.459	232.456	-45.204	207.800	227.864	6.539	189.781	0.00056917	0.00035326	0.0001789	1327.7	5.4499e-06	9.1391e-06	1377.6	530.73	3.4126e-06	5.1783e-06	621.65	266.04	216.81	102.17	3.9389e-06	118.45	0.0001855	0.00018126	5.0418e-05	1144.1	1.9839e-06	1.9494e-06	1217.3	460.3	1.9716e-06	1.9651e-06	461.88	222.29	159.27	84.721	1.9725e-06	96.815	158.276	5.437	-15.262	-83.646	-43.394	18.734	-84.578	-79.295	25.219	56.727	-81.119	-77.209	-75.862	-71.142	77.497	-73.446	-8191	255	
19480.855	1	1	0	0	0.34523	0.23173	0.028992	0.3354	0.21249	0.20453	0.26522	0.24413	0.27161	0.15296	0.020965	0.25346	0.067865	0.24213	0.17049	0.39019	-1.2188	-1.7583	-1.4208	-2.0417	-1.65	-1.675	-2.2167	-1.6917	-1.675	-1.575	-1.4083	-1.9271	-1.7021	-1.6854	-1.8958	-1.6833	-91.913	38.159	194.360	-93.228	144.266	55.528	182.709	191.793	55.419	164.236	69.204	-72.421	138.951	-83.070	198.006	214.520	0.00050612	0.00063025	0.00017444	1337.6	5.4521e-06	5.2741e-06	1381.3	533.12	7.4169e-06	6.3502e-06	624.09	267.05	217.17	102.39	3.4971e-06	118.81	0.00018663	0.0001811	4.9741e-05	1145	1.9716e-06	1.9678e-06	1219.2	460.51	1.9922e-06	1.9602e-06	461.82	223.06	159.36	84.98	1.9775e-06	97.082	151.888	-55.148	-13.220	-83.392	92.167	46.880	-84.733	-79.113	14.210	15.024	-80.862	-77.527	-76.383	-71.740	62.457	-73.504	-8191	255	
19480.928	1	1	0	0	0.11333	0.24091	0.15115	0.23512	0.05578	0.1516	0.082823	0.14198	0.066123	0.16642	0.063785	0.037658	0.16492	0.21293	0.10586	0.43046	-1.225	-1.8792	-1.5729	-1.8708	-1.6396	-1.4146	-2.0271	-1.8229	-1.6167	-1.8542	-1.2667	-1.9375	-1.7	-1.6417	-1.8917	-1.9146	44.896	79.398	29.660	215.842	142.620	254.753	-67.634	220.814	93.840	212.599	0.503	-86.177	11.607	257.075	-65.031	227.489	0.00057256	0.00052891	0.00033243	1324.5	3.0491e-06	4.5355e-06	1376.7	529.14	3.5237e-06	2.9548e-06	613.02	265.25	217.54	101.68	6.6376e-06	117.39	0.00019055	0.00018124	5.0621e-05	1143.2	1.9739e-06	1.9622e-06	1214.5	458.41	1.9847e-06	1.9797e-06	457.06	220.58	158.7	84.291	2.015e-06	95.855	156.776	-30.408	-41.536	-83.834	64.861	3.102	-84.962	-79.203	152.576	3.952	-80.181	-76.805	-75.594	-70.894	161.825	-72.888	-8191	255	
19481.023	1	1	0	0	0.038618	0.1687	0.20748	0.38059	0.20578	0.15295	0.2566	0.1346	0.19835	0.22076	0.17292	0.20139	0.021544	0.3466	0.17247	0.21955	-1.2917	-1.8979	-1.4167	-1.8646	-1.8125	-1.3521	-2.1604	-1.7	-1.7125	-1.9875	-1.5146	-2.0042	-1.9062	-1.4667	-1.8771	-1.7979	211.571	162.939	201.245	207.999	205.932	100.901	246.348	208.446	37.852	32.722	213.372	239.993	156.160	204.675	19.592	230.416	0.00052005	0.00059209	0.00019555	1324.4	2.6551e-06	5.2141e-06	1369.5	526.1	1.8062e-06	4.087e-06	612.94	263.67	216.7	101.44	2.2683e-06	117.19	0.00018601	0.0001816	5.0216e-05	1139.4	1.9712e-06	1.9603e-06	1207.1	456.17	1.9846e-06	1.9599e-06	455.88	219.6	158.61	84.146	1.9846e-06	96.032	172.566	-76.020	-78.841	-83.822	249.981	128.035	-84.725	-79.644	-63.333	-72.753	-80.897	-77.502	-75.841	-71.524	43.829	-73.314	-8191	255	
19481.145	1	1	0	0	0.07634	0.052297	0.24067	0.37454	0.15382	0.079908	0.30587	0.36433	0.2784	0.3862	0.25019	0.27838	0.35277	0.38228	0.31771	0.18482	-0.96875	-2.0396	-1.4146	-1.6583	-1.7896	-1.625	-2.0896	-1.9479	-1.5125	-1.9229	-1.6562	-1.9854	-1.7979	-1.5646	-1.7958	-1.9292	61.946	212.569	-52.224	241.912	243.046	12.148	225.908	167.737	164.011	-8.255	-92.717	-69.452	195.477	248.488	-39.344	153.643	0.00051583	0.00064771	0.00029199	1324.3	1.8672e-06	6.9299e-06	1361.3	526.1	3.4187e-06	8.9189e-06	612.42	264.37	215.96	101.78	7.5737e-07	117.39	0.00018713	0.00018261	5.0945e-05	1137	1.9717e-06	1.9782e-06	1205	455.26	2.0005e-06	1.9682e-06	456.21	220.61	158.5	84.223	1.9736e-06	96.179	153.079	-78.560	-5.716	-83.719	252.443	41.973	-84.927	-79.198	63.019	17.827	-81.200	-77.314	-76.021	-71.371	-27.979	-73.296	-8191	255	
19481.240	1	1	0	0	0.075488	0.27299	0.14978	0.021985	0.20008	0.22899	0.27338	0.3616	0.021213	0.2112	0.16186	0.13472	0.24476	0.25242	0.15445	0.048726	-0.96042	-1.9208	-1.5125	-1.7354	-1.9167	-1.3438	-2.125	-2.0333	-1.5146	-2	-1.9292	-1.7938	-1.9312	-1.7625	-1.9104	-1.9833	175.426	143.731	13.192	63.185	-14.254	-59.571	179.139	236.057	210.586	-42.469	55.822	230.170	-10.290	251.917	3.504	169.245	0.00059606	0.00017457	0.0002624	1322.4	3.3346e-06	7.4458e-06	1371.2	526.83	2.0727e-06	4.9736e-06	615.62	265.4	214.58	101.41	4.5228e-06	117.89	0.00018828	0.00018133	5.0327e-05	1136.6	1.9861e-06	1.9834e-06	1209.1	456.55	1.9807e-06	1.9755e-06	456.62	220.91	158.33	84.044	1.9822e-06	96.547	172.464	-54.554	-38.003	-83.586	7.658	40.376	-84.598	-79.316	-34.383	-35.616	-80.992	-77.076	-75.523	-71.335	27.859	-73.195	-8191	255	
19481.336	1	1	0	0	0.12819	0.11415	0.20819	0.14811	0.18701	0.20708	0.22707	0.22151	0.10832	0.25965	0.097202	0.064465	0.14145	0.21741	0.061972	0.15928	-0.89375	-1.8188	-1.6938	-1.5417	-1.8104	-1.4562	-1.9813	-2.0563	-1.4438	-1.9125	-1.7958	-1.7417	-2.1521	-1.5833	-1.7	-2.1937	98.288	58.126	130.561	226.627	-30.279	79.838	195.492	193.533	-25.184	250.018	18.986	219.865	181.864	-69.000	-74.934	215.190	0.00056725	0.00050811	0.00024928	1319.1	8.0892e-06	3.3929e-06	1368.4	527.55	4.8647e-06	5.6718e-06	616.2	265.12	214.04	102.05	2.7103e-06	117.45	0.00018983	0.0001813	5.0793e-05	1136.2	1.9865e-06	2.0093e-06	1209	456.77	1.9902e-06	1.975e-06	459.47	220.89	158.47	84.265	1.9968e-06	96.141	168.011	5.942	-14.270	-84.008	37.543	115.477	-84.641	-79.263	-65.799	11.305	-80.580	-77.093	-75.578	-71.596	-88.399	-73.089	-8191	255	
19481.434	1	1	0	0	0.22842	0.1057	0.096961	0.11053	0.080843	0.026913	0.28877	0.20385	0.17111	0.10161	0.081901	0.10808	0.16824	0.2226	0.029836	0.2876	-0.96875	-1.8667	-1.5479	-1.5833	-1.9583	-1.6146	-1.8438	-1.9146	-1.2229	-1.7833	-1.7771	-1.7125	-1.9875	-1.9521	-1.6917	-1.9917	10.522	-8.995	155.272	248.321	-63.938	1.062	218.587	-90.393	46.423	182.633	-0.167	-32.855	232.448	235.570	-73.392	169.211	0.00067973	0.00042507	0.00020809	1314.1	2.3925e-06	2.8106e-06	1357.6	523.96	3.974e-06	3.9813e-06	612.15	262.81	215.1	101.49	8.6972e-06	116.65	0.00018969	0.00018101	5.0682e-05	1131.5	2.0157e-06	1.9759e-06	1198.1	454.93	2.008e-06	1.9971e-06	454.37	219.54	157.94	83.923	1.9799e-06	95.751	154.453	-57.849	-52.582	-83.488	-6.764	84.189	-84.614	-79.000	-1.596	-12.969	-80.699	-77.129	-75.722	-71.186	47.335	-72.823	-8191	255	
19481.527	1	1	0	0	0.23552	0.13705	0.10697	0.27205	0.038888	0.27197	0.18641	0.41925	0.15249	0.32249	0.1046	0.20182	0.14304	0.39095	0.35382	0.060064	-1.0104	-1.7625	-1.4208	-1.5063	-1.9479	-1.7313	-1.7792	-1.9542	-1.5083	-1.8354	-1.9292	-1.5938	-1.9583	-1.8875	-1.5208	-2.2229	103.108	156.355	138.648	190.496	190.372	-64.536	136.420	214.925	47.724	145.988	48.965	260.699	-51.268	236.987	-56.875	232.479	0.00053412	0.00045822	0.00021902	1315.9	1.4828e-06	6.3942e-06	1354.3	524.87	1.7044e-06	3.8522e-06	611.69	264.98	215.3	101	3.0805e-06	116.87	0.00018988	0.00018095	5.0655e-05	1131.2	1.9795e-06	1.9728e-06	1198.8	455.42	1.9952e-06	1.9731e-06	455.53	220.25	158.17	83.814	1.992e-06	96.007	160.784	37.801	-9.263	-83.473	-75.677	50.022	-84.556	-79.174	3.311	-54.013	-80.686	-76.872	-75.660	-71.358	31.697	-72.892	-8191	255	
19481.623	1	1	0	0	0.26032	0.13951	0.038519	0.39377	0.38848	0.051005	0.18992	0.24903	0.19177	0.15749	0.29843	0.34237	0.13839	0.020031	0.37851	0.10007	-1.1083	-1.825	-1.7146	-1.4792	-1.9104	-1.6896	-1.6562	-2.0208	-1.5604	-1.6396	-1.9104	-1.6854	-1.9292	-1.9104	-1.3708	-1.9604	115.025	22.535	157.390	189.241	-54.004	47.716	241.504	207.405	14.255	246.533	-66.855	176.780	117.003	101.377	140.473	-41.586	0.00056123	0.00070811	0.00029955	1311	5.6286e-06	5.668e-06	1357	522.7	3.5744e-06	8.9497e-06	610.8	264.09	215.67	100.51	8.4518e-06	116.78	0.0001894	0.00017942	5.0702e-05	1129	1.9697e-06	1.989e-06	1198.9	454.28	1.9856e-06	1.9829e-06	457	220.4	157.91	83.372	1.9891e-06	95.622	168.650	-47.251	-48.827	-83.269	18.127	33.818	-84.498	-78.925	65.024	-20.406	-80.462	-77.086	-75.315	-71.017	24.198	-73.004	-8191	255	
19481.721	1	1	0	0	0.11783	0.50016	0.13265	0.23155	0.28111	0.11676	0.18991	0.12142	0.12177	0.16057	0.18774	0.15583	0.13631	0.12854	0.20805	0.23135	-1.1479	-1.5896	-1.7062	-1.3146	-1.7479	-1.6208	-1.7938	-2.2229	-1.5917	-1.7708	-1.8833	-1.7333	-1.9021	-2.0896	-1.4583	-2.1396	-6.438	116.991	117.656	-79.880	-58.397	-96.125	113.175	227.952	187.629	227.481	42.068	244.748	109.722	254.941	140.156	132.303	0.00058908	0.00046343	0.00013903	1314.1	3.7905e-06	4.987e-06	1364.8	524.05	6.578e-06	7.4758e-06	612.53	264.15	216.5	99.799	5.433e-06	116.89	0.0001883	0.00018185	5.0374e-05	1130.4	1.9954e-06	2.0035e-06	1206.3	454.55	2.0041e-06	1.9829e-06	456.87	220.15	158.24	83.09	2.0122e-06	95.765	154.847	12.677	247.418	-83.719	22.383	43.006	-84.710	-79.213	-13.986	33.692	-80.548	-77.022	-75.560	-71.163	59.639	-72.962	-8191	255	
19481.840	1	1	0	0	0.30465	0.19778	0.18634	0.34195	0.026213	0.1701	0.3612	0.11587	0.45772	0.062646	0.076974	0.16536	0.26881	0.44467	0.16584	0.19381	-1.1521	-1.6104	-1.8604	-1.5187	-1.7729	-1.6979	-1.6437	-2.2812	-1.6	-1.5896	-2.0687	-1.5229	-1.7479	-2.2646	-1.4813	-2.3125	79.083	67.872	-5.204	156.622	154.943	45.780	239.988	172.597	198.473	105.757	226.193	252.327	233.762	220.137	-6.259	255.520	0.00063237	9.2101e-05	0.00013218	1303.3	6.9939e-06	7.2468e-06	1359.9	523.33	4.7792e-06	3.7626e-06	609.48	262	214.31	99.983	9.1993e-06	115.21	0.00019144	0.00018189	5.0154e-05	1130.5	2.0023e-06	2.0024e-06	1201.4	454.04	1.999e-06	1.9862e-06	453.22	218.62	157.1	82.914	1.998e-06	94.719	166.308	25.151	64.198	-83.264	15.755	43.113	-84.923	-78.982	-59.026	20.047	-80.282	-76.963	-75.562	-71.103	81.609	-73.009	-8191	255	
19481.936	1	1	0	0	0.1813	0.12699	0.27905	0.20474	0.11679	0.35785	0.24175	0.07933	0.24543	0.12788	0.25491	0.28038	0.10164	0.39227	0.13504	0.25858	-1.3708	-1.5146	-1.9667	-1.5979	-1.7104	-1.8271	-1.5417	-2.1771	-1.7687	-1.4333	-1.9604	-1.7542	-1.7042	-1.9979	-1.4083	-2.025	193.288	177.619	187.618	187.223	182.125	146.927	206.600	194.034	6.223	100.827	22.579	-64.510	38.643	247.372	62.654	63.156	0.00057673	0.00061818	0.00018212	1303.7	3.613e-06	9.0017e-06	1341.6	522.55	4.8144e-06	4.3209e-06	611.79	262.52	214.12	99.597	5.3091e-06	116.02	0.00018745	0.00018022	5.004e-05	1126.5	1.9924e-06	1.9833e-06	1191.9	452.63	2.0056e-06	1.9992e-06	453.41	218.35	157.02	82.521	1.9919e-06	94.943	154.928	-18.191	161.117	-83.364	-36.857	77.951	-84.514	-79.397	64.641	-12.776	-80.616	-77.451	-76.008	-71.492	38.584	-73.182	-8191	255	
19482.031	1	1	0	0	0.21057	0.083676	0.22717	0.33939	0.16014	0.14557	0.44301	0.29841	0.17002	0.09021	0.126	0.22572	0.24981	0.17147	0.3007	0.32911	-1.5729	-1.4937	-1.7917	-1.7042	-1.6187	-1.9417	-1.7125	-2.1271	-1.7	-1.5604	-2.2292	-1.8167	-1.6313	-2.1083	-1.5979	-1.9708	88.305	131.289	-61.966	220.003	37.666	-70.910	217.883	202.025	132.707	175.183	114.307	246.311	246.502	204.475	73.940	-68.640	0.00069838	0.00032642	0.00033746	1307.7	4.2088e-06	7.4126e-06	1348.2	524.62	2.304e-06	5.7493e-06	607	262.16	213.32	98.916	3.7801e-06	115.16	0.00018749	0.00018055	5.0744e-05	1125.9	1.9903e-06	2.0083e-06	1194.7	453.36	2.0008e-06	1.9773e-06	453.26	218.36	156.52	82.117	1.9823e-06	94.724	179.468	-57.476	-33.986	-83.594	-67.465	7.024	-84.295	-78.913	-75.888	-21.771	-80.036	-76.832	-75.467	-71.382	96.455	-72.714	-8191	255	
19482.129	1	1	0	0	0.1499	0.28887	0.13333	0.22167	0.078538	0.18454	0.2318	0.21432	0.042656	0.076612	0.16998	0.23402	0.24773	0.1861	0.18236	0.4209	-1.4	-1.5167	-1.6667	-1.5896	-1.6208	-2.1208	-1.8417	-1.975	-1.7	-1.4354	-1.9896	-1.8	-1.5417	-2.1292	-1.3479	-1.7708	247.633	-95.879	211.981	-71.385	224.376	115.771	208.361	198.265	23.319	149.441	100.420	224.268	186.739	261.439	106.221	235.836	0.00066676	0.00034162	0.00024256	1310.7	1.8424e-06	6.9752e-06	1347.8	523.97	4.2109e-06	5.665e-06	608.99	263.55	212.65	99.331	2.3379e-06	115.94	0.00018837	0.0001815	5.0622e-05	1127.6	1.9842e-06	1.9862e-06	1196.4	453.77	1.9836e-06	1.9804e-06	454.57	219.4	156.78	82.188	2.0274e-06	95.011	160.110	8.531	-34.045	-83.080	258.955	-53.546	-84.311	-78.562	-80.303	26.122	-80.930	-76.903	-75.938	-71.347	38.011	-73.229	-8191	255	
19482.223	1	1	0	0	0.11831	0.092903	0.21857	0.50652	0.11459	0.15805	0.21764	0.042896	0.14584	0.066864	0.11694	0.13495	0.26033	0.36709	0.1358	0.38114	-1.1562	-1.4833	-1.7812	-1.6458	-1.5833	-1.9604	-1.5979	-1.975	-1.8896	-1.4271	-1.7354	-1.9396	-1.3417	-2.1458	-1.5	-1.9833	-21.812	-78.233	105.531	209.035	146.646	-88.972	215.618	90.513	134.516	75.000	-22.418	-69.868	101.701	220.449	60.764	198.497	0.00053353	0.00028882	0.00012201	1306	5.7052e-06	6.1614e-06	1361.4	523.68	5.0948e-06	7.8238e-06	611.41	262.93	214.5	99.255	7.478e-06	115.38	0.0001879	0.0001818	5.0441e-05	1127.1	1.9904e-06	1.9848e-06	1202.2	454.22	1.9978e-06	1.9951e-06	454.34	219.05	157.07	82.351	1.9936e-06	94.735	159.433	186.474	-31.930	-83.721	-2.377	37.310	-84.558	-78.954	-25.028	1.584	-80.417	-76.781	-75.927	-71.447	42.038	-73.082	-8191	255	
19482.318	1	1	0	0	0.087731	0.12605	0.096966	0.092836	0.07464	0.10834	0.21651	0.40134	0.18371	0.12935	0.068012	0.06964	0.30937	0.34815	0.1607	0.31505	-1.5187	-1.2625	-2.0021	-1.8146	-1.5354	-2.0625	-1.7583	-1.9229	-1.8646	-1.5208	-1.7958	-2.0208	-1.4312	-2.0479	-1.7563	-1.7062	28.137	247.157	141.739	201.105	-11.862	-75.378	200.914	242.387	60.884	24.005	111.058	133.941	-78.935	238.221	216.408	224.880	0.00058046	0.00061468	0.00020712	1297.2	1.4476e-06	1.0704e-06	1345	521.48	1.709e-06	2.9176e-06	600.88	260.52	213.69	98.998	9.7598e-06	115.32	0.00018834	0.0001822	5.0161e-05	1121	1.9754e-06	1.9993e-06	1191.1	451.78	1.9995e-06	1.9648e-06	450.64	217.35	156.54	82.145	1.976e-06	94.348	158.224	-48.302	-75.606	-83.269	42.983	117.934	-84.495	-78.845	31.044	91.579	-80.243	-76.952	-75.850	-71.046	62.493	-72.833	-8191	255	
19482.439	1	1	0	0	0.093218	0.18044	0.13229	0.21235	0.23065	0.13847	0.18958	0.20647	0.22577	0.1309	0.15989	0.44933	0.16076	0.16416	0.28698	0.40903	-1.3687	-1.3667	-1.6792	-1.9396	-1.4208	-1.8958	-1.8542	-1.6771	-1.9438	-1.4937	-1.8083	-1.9854	-1.4438	-2.0708	-1.6708	-1.8312	173.880	-72.510	161.072	-49.987	148.578	191.078	183.864	241.118	116.114	-96.842	223.067	225.350	-96.435	217.884	245.317	216.883	0.00056138	0.00035356	0.00018679	1306.1	7.1407e-06	5.1801e-06	1342.6	521.59	2.8591e-06	1.695e-06	607.15	262.46	213.08	99.556	7.7326e-06	115.49	0.00018671	0.0001803	5.0562e-05	1124.3	1.9798e-06	1.9619e-06	1188.1	452.01	1.9974e-06	1.9535e-06	452.59	218.53	156.85	82.315	1.9877e-06	94.64	161.879	4.309	-0.147	-83.442	-27.358	135.334	-84.164	-78.901	53.199	58.223	-80.196	-76.921	-75.409	-71.097	49.947	-73.114	-8191	255	
19482.535	1	1	0	0	0.078839	0.21676	0.12914	0.061191	0.14547	0.1646	0.3758	0.42151	0.22791	0.1488	0.24129	0.29313	0.06254	0.4278	0.094272	0.12622	-1.5083	-1.4875	-1.7938	-2.1458	-1.3813	-1.9562	-1.9167	-1.6104	-1.8521	-1.5708	-1.7563	-2.1354	-1.7896	-2.2375	-2.0187	-1.6667	-14.725	186.779	176.039	-23.946	-48.043	241.798	213.020	197.483	249.169	77.929	-62.952	219.484	140.674	233.476	196.771	157.459	0.00038483	0.0009319	0.00015121	1298.8	1.4024e-06	1.9566e-06	1347.4	523.04	4.1658e-06	2.348e-06	607.53	261.54	212.37	98.762	2.9311e-06	115.4	0.00018785	0.0001837	5.0419e-05	1122.6	1.9971e-06	1.9693e-06	1193.4	452.49	1.9777e-06	1.9738e-06	451.56	218.05	156.53	82.116	1.9632e-06	94.629	152.346	-27.540	-37.951	-83.267	-34.958	82.744	-84.398	-79.065	-88.889	230.138	-80.464	-76.727	-75.900	-70.923	-2.901	-72.564	-8191	255	
19482.633	1	1	0	0	0.27107	0.07532	0.062512	0.31727	0.12326	0.16335	0.34042	0.14745	0.081478	0.13323	0.20322	0.38218	0.20291	0.36216	0.12111	0.1818	-1.4833	-1.4479	-1.5667	-1.9208	-1.5354	-1.675	-1.9562	-1.6063	-1.9854	-1.6437	-1.5187	-2.0458	-1.7062	-2.0729	-1.8292	-1.6292	242.875	-96.514	172.676	-33.304	-93.118	16.207	182.168	211.740	108.520	-13.963	262.204	199.588	-17.079	224.872	-30.671	174.011	0.00059327	0.00027992	1.9706e-05	1311.2	4.1245e-06	2.788e-06	1355.4	522.15	2.4328e-06	1.0552e-05	609.92	261.12	213.64	99.12	3.783e-06	116.14	0.00018834	0.00018233	5.0922e-05	1126.4	1.9877e-06	2.0023e-06	1195.3	451.97	1.9939e-06	1.9788e-06	453.93	218.36	156.68	82.087	2.0088e-06	94.956	152.792	32.591	69.296	-83.283	-35.610	178.843	-84.346	-79.092	238.035	36.566	-80.866	-76.886	-75.527	-71.158	46.046	-73.063	-8191	255	
19482.729	1	1	0	0	0.2097	0.12729	0.26306	0.087527	0.22446	0.29966	0.19909	0.27313	0.076951	0.21165	0.10151	0.15481	0.083969	0.47222	0.10849	0.24483	-1.2563	-1.7437	-1.5604	-1.9396	-1.4813	-1.7687	-2.0292	-1.6479	-2.1479	-1.7979	-1.4854	-2.225	-1.5396	-1.9062	-1.8	-1.6771	30.158	19.391	261.462	193.407	182.250	88.306	170.852	195.539	-16.524	-45.043	-76.830	-82.678	-22.458	223.629	34.145	-38.862	0.00072208	0.00051344	0.00019282	1309.5	6.6628e-06	1.6185e-07	1347.6	521.45	2.8614e-06	5.7561e-06	605.33	261.53	211.66	98.871	5.0693e-06	114.32	0.00018913	0.00018145	5.0794e-05	1126.9	1.9909e-06	1.9781e-06	1191.2	452	1.9875e-06	1.9856e-06	451.31	217	156.06	81.82	1.9688e-06	93.975	169.478	-17.937	221.300	-83.137	15.255	-14.382	-84.211	-78.807	19.007	80.149	-80.980	-76.749	-75.637	-70.803	101.745	-72.635	-8191	255	
19482.824	1	1	0	0	0.26692	0.28234	0.086794	0.10781	0.09772	0.16236	0.081766	0.34201	0.29385	0.32002	0.17324	0.16275	0.071879	0.35168	0.29714	0.15707	-1.3896	-1.6083	-1.5375	-1.8521	-1.6792	-1.6708	-2.0104	-1.7458	-1.8687	-1.8854	-1.5375	-2.0979	-1.5583	-1.9167	-2.0083	-1.5438	176.909	-88.187	-0.753	-55.033	129.511	8.901	73.871	235.254	16.032	114.733	223.195	173.032	228.567	222.263	27.095	119.334	0.00065233	0.00013117	0.00015214	1306.5	4.6166e-06	3.2676e-06	1343.3	521.29	7.8907e-06	4.3426e-06	603.3	260.44	213.91	98.841	3.031e-06	114.75	0.00018917	0.00018325	5.0304e-05	1123.8	1.9611e-06	1.9745e-06	1184.9	451.49	1.983e-06	1.999e-06	449.67	216.55	156.14	81.871	2.0013e-06	93.748	170.207	-3.908	-36.477	-83.417	-76.368	32.502	-84.192	-78.729	7.470	-41.321	-80.268	-76.696	-75.542	-70.946	-89.925	-72.770	-8191	255	
19482.920	1	1	0	0	0.11785	0.096255	0.21415	0.18656	0.44545	0.18153	0.31129	0.33835	0.085005	0.041094	0.14995	0.32011	0.072892	0.51562	0.13018	0.49677	-1.3479	-1.8104	-1.3208	-1.9458	-1.7875	-1.5833	-1.9854	-1.6812	-1.6938	-1.9875	-1.5708	-2.0271	-1.625	-1.8	-2.0021	-1.6542	83.826	154.281	228.101	226.508	-16.727	-32.222	138.929	226.618	37.360	144.128	-48.051	253.924	230.608	223.021	17.595	216.170	0.00050811	0.00097945	7.6454e-05	1303.1	1.3705e-06	2.1093e-06	1338.7	520.28	2.3107e-06	7.4617e-06	609.6	260.9	212.26	99.588	2.452e-06	115.73	0.00018848	0.00018119	4.9991e-05	1123.3	1.9943e-06	1.9736e-06	1187	450.78	1.9927e-06	1.988e-06	452.36	217.43	156.13	82.292	1.9916e-06	94.662	159.590	-10.495	4.361	-83.394	-73.625	78.358	-84.033	-78.914	42.503	-7.218	-80.081	-76.618	-75.639	-70.890	260.122	-72.665	-8191	255	
19483.016	1	1	0	0	0.20095	0.17199	0.29252	0.29642	0.1716	0.24273	0.26865	0.32659	0.17152	0.093493	0.14003	0.20204	0.10733	0.13649	0.11322	0.19272	-1.2646	-1.9479	-1.4438	-1.875	-1.7917	-1.5812	-1.9688	-1.8021	-1.6375	-1.85	-1.3854	-2.125	-1.8729	-1.7313	-2.2083	-1.8583	210.020	-82.726	14.020	246.112	-24.682	-19.089	230.789	237.055	100.591	73.137	225.515	237.565	-36.489	-35.397	5.306	257.168	0.00065681	0.00039666	0.00010653	1308.3	3.7675e-07	3.9156e-06	1351.6	521.68	6.5229e-06	5.7452e-06	605.66	261.68	212.46	99.509	5.8782e-06	115.58	0.00018766	0.00017978	5.0939e-05	1124.1	2.0109e-06	1.9893e-06	1190.3	451.95	2.0237e-06	1.9693e-06	452.74	218.45	156.58	82.534	1.9904e-06	94.827	154.438	-34.455	160.677	-83.300	28.816	4.118	-84.540	-78.891	-21.892	9.450	-80.046	-76.507	-75.342	-70.793	147.142	-72.442	-8191	255	
19483.111	1	1	0	0	0.057581	0.072331	0.21002	0.17098	0.27559	0.067286	0.35943	0.12305	0.20724	0.036423	0.42962	0.22431	0.26444	0.07889	0.1631	0.32293	-1.2854	-1.8125	-1.6917	-1.8396	-1.6688	-1.4729	-2.1042	-1.7604	-1.6354	-1.9604	-1.4521	-1.7271	-1.6667	-1.7479	-1.6792	-1.9062	86.957	23.964	106.864	178.224	18.255	150.281	185.620	259.441	24.817	-19.072	-70.264	210.300	161.751	132.108	120.319	228.026	0.00068431	0.00048564	0.00013461	1304.2	5.7632e-06	2.7458e-06	1351.1	518.89	2.335e-06	8.5508e-06	609.96	262.29	212.25	99.353	3.776e-06	115.46	0.0001911	0.00018193	5.037e-05	1126.6	2.0198e-06	1.9862e-06	1196.6	452.06	2.008e-06	1.9904e-06	453.63	218.32	156.53	82.31	2.0021e-06	94.803	148.038	-52.466	-71.981	-83.651	70.939	88.394	-84.806	-79.281	124.107	-45.463	-81.225	-77.211	-75.968	-71.437	74.956	-72.848	-8191	255	
19483.230	1	1	0	0	0.29565	0.10361	0.31768	0.11283	0.20732	0.057594	0.18479	0.2152	0.21643	0.062347	0.077907	0.26234	0.16556	0.21239	0.046927	0.31578	-1.0729	-2.0062	-1.3292	-1.6125	-1.7938	-1.5125	-2.0979	-1.9604	-1.5979	-2.125	-1.5542	-1.9104	-1.8687	-1.6958	-1.8104	-1.8854	-50.041	32.068	254.670	172.054	45.084	139.611	146.954	245.908	5.023	25.377	-55.640	-42.550	176.913	-28.224	41.349	153.181	0.00063925	0.00052815	0.00025972	1298.5	2.9265e-06	1.1853e-06	1348.3	520.8	6.2332e-06	3.6406e-06	609.13	260.39	212.34	98.953	5.1382e-06	116.02	0.00018857	0.00018327	5.0593e-05	1122.8	2.016e-06	1.9932e-06	1189.3	451.64	1.9809e-06	1.9979e-06	451.8	216.76	155.86	82.23	1.993e-06	94.589	166.369	-50.763	-51.919	-83.353	106.896	-53.716	-84.374	-78.817	-38.138	-78.041	-80.598	-77.084	-75.901	-71.151	83.829	-73.107	-8191	255	
19483.328	1	1	0	0	0.30289	0.32201	0.19037	0.22944	0.29676	0.38007	0.28674	0.20432	0.093697	0.18388	0.29378	0.34029	0.28422	0.20613	0.082865	0.24444	-1.025	-1.9125	-1.4062	-1.6479	-1.8083	-1.5708	-2.2188	-2.0125	-1.5229	-1.9104	-1.6771	-1.7708	-1.9396	-1.7563	-1.8208	-1.8167	-26.573	-22.581	-66.953	-93.987	261.417	185.768	204.895	198.464	59.926	-95.029	180.871	192.601	243.870	-10.123	56.723	251.254	0.00050757	0.00064095	0.00011822	1305.7	4.4272e-06	1.4761e-06	1341.1	520.6	7.8853e-06	7.2943e-06	602.21	261.4	211.76	99.381	8.528e-06	115.27	0.00018972	0.00018123	5.0799e-05	1122.7	1.9934e-06	1.9864e-06	1187.4	451.52	2.0029e-06	1.9917e-06	451.21	217.87	156	82.614	2.0002e-06	94.652	151.057	6.930	51.347	-83.921	-32.237	22.767	-84.545	-79.288	-15.334	17.698	-80.820	-76.958	-75.852	-71.099	53.902	-72.922	-8191	255	
19483.398	1	1	0	0	0.040889	0.19125	0.10036	0.079533	0.17975	0.11337	0.052144	0.28277	0.092723	0.13235	0.24634	0.25229	0.17647	0.38184	0.2907	0.12874	-0.9	-2.0458	-1.425	-1.7812	-1.7604	-1.4438	-1.8292	-2.0604	-1.3646	-1.9729	-1.6187	-1.6792	-2.0563	-1.6583	-1.8375	-1.9937	-31.354	214.911	-87.245	-74.537	-84.852	172.575	242.524	181.271	5.676	219.082	103.773	254.810	-89.010	223.157	96.127	-52.390	0.00069092	0.00048646	0.00022377	1304.1	8.6504e-06	8.38e-06	1352.9	523.07	5.9099e-06	5.5926e-06	610.35	261.15	212.19	98.928	3.6181e-06	115.52	0.00018763	0.00018318	5.0802e-05	1126	2.0014e-06	1.9969e-06	1193.3	451.77	2.009e-06	1.9884e-06	452.47	217.66	155.94	82.18	1.9928e-06	94.659	160.320	-50.261	-65.709	-83.431	13.511	24.617	-84.201	-78.878	-11.712	16.240	-80.247	-76.768	-75.409	-71.451	154.948	-73.109	-8191	255	
19483.520	1	1	0	0	0.39295	0.036024	0.30336	0.10255	0.14727	0.28823	0.14217	0.17873	0.2634	0.12642	0.070467	0.31802	0.18196	0.3099	0.12177	0.26512	-1.0063	-1.9458	-1.5792	-1.5083	-1.9813	-1.6125	-1.7396	-1.9188	-1.4083	-1.8563	-1.5771	-1.6708	-2.0479	-1.6187	-1.7	-2.0521	-41.474	34.955	60.314	-65.757	234.995	59.788	225.829	175.163	2.724	-45.828	18.353	203.814	160.219	226.391	53.112	198.717	0.00064085	0.00024465	8.7817e-05	1312.5	4.7042e-06	2.4028e-06	1349.4	520.13	5.5459e-06	6.1863e-06	611.24	262.16	213.19	98.784	2.9656e-06	115.68	0.00018969	0.00018298	5.0866e-05	1127.4	1.9907e-06	1.9902e-06	1194.8	451.6	2.007e-06	1.9848e-06	453.37	218.17	156.46	82.087	1.9884e-06	94.994	152.246	22.573	-5.995	-84.051	-35.358	-8.547	-84.639	-79.033	15.483	5.498	-80.423	-76.942	-75.305	-71.042	163.845	-72.863	-8191	255	
19483.615	1	1	0	0	0.15074	0.091508	0.23037	0.4005	0.13203	0.090774	0.27616	0.19151	0.074242	0.070125	0.17442	0.2424	0.22034	0.31965	0.12578	0.059874	-0.96458	-1.8021	-1.7167	-1.5417	-1.8333	-1.5583	-1.8125	-2.1708	-1.4104	-1.7917	-1.7292	-1.8396	-2.1292	-1.9021	-1.5458	-2.175	152.984	30.498	195.588	233.588	2.770	0.970	235.935	186.096	84.498	88.666	-55.204	175.258	174.523	-69.477	60.204	214.089	0.00060278	0.00055734	0.00015563	1312.5	3.5094e-06	1.7118e-06	1349.5	521.75	3.8298e-06	7.2177e-06	608.82	260.41	210.75	98.893	2.7404e-06	115.66	0.00019061	0.00018188	5.0598e-05	1128	1.9897e-06	1.9792e-06	1193.1	452.32	2.0291e-06	1.9737e-06	452.98	217.31	155.66	82.051	2.0044e-06	94.527	161.486	-24.507	-26.777	-83.358	-61.803	-40.165	-84.182	-78.766	15.526	6.029	-80.241	-76.383	-75.202	-70.805	-40.173	-72.644	-8191	255	
19483.713	1	1	0	0	0.1071	0.16445	0.066648	0.14574	0.3039	0.14789	0.19759	0.40114	0.13585	0.037955	0.13297	0.34213	0.15008	0.39717	0.096344	0.29291	-1.2875	-1.7146	-1.7667	-1.4167	-1.9771	-1.75	-1.6896	-2.0104	-1.5708	-1.65	-1.9438	-1.5604	-1.9625	-1.9208	-1.4646	-2.0354	31.757	136.528	167.924	256.745	-62.186	179.758	256.922	196.211	176.411	-1.803	50.912	186.773	257.584	236.605	117.259	190.962	0.00068977	0.00056281	0.00043729	1304.3	5.0982e-06	5.5586e-06	1346.7	519.14	3.3902e-06	5.7749e-06	601.66	260.37	213.11	99.091	3.5513e-06	115.29	0.00019148	0.00018163	5.0537e-05	1124.1	2.0174e-06	2.0105e-06	1188.6	451.15	2.0052e-06	1.9865e-06	449.93	217.12	156.01	82.175	2.022e-06	94.581	151.073	-21.594	-0.996	-82.597	18.243	35.652	-84.658	-79.209	72.885	38.753	-80.624	-77.034	-75.741	-71.472	168.259	-72.276	-8191	255	
19483.809	1	1	0	0	0.041944	0.34923	0.096815	0.049246	0.35578	0.074275	0.35908	0.55447	0.064228	0.1155	0.12664	0.18611	0.049706	0.42325	0.11836	0.13304	-0.90625	-1.7083	-1.7521	-1.4708	-1.8167	-1.7104	-1.7229	-2.0729	-1.5708	-1.7167	-1.8125	-1.6167	-1.7896	-2.0167	-1.3917	-2.2687	59.987	97.219	-93.129	41.482	158.899	221.256	197.646	215.352	132.016	-66.985	231.626	223.472	207.996	248.927	49.835	238.897	0.00058442	0.00030339	0.00012453	1306.1	1.4197e-06	3.6919e-06	1345.2	520.74	2.305e-06	1.0116e-05	605.38	260.53	212.31	98.752	6.7491e-06	115.2	0.00019044	0.00018375	5.0619e-05	1126.4	2.0142e-06	2.007e-06	1189	451.39	2.0102e-06	1.9855e-06	450.54	217.12	156.23	82.073	2.0082e-06	94.543	163.894	-63.409	-36.784	-83.441	139.258	69.179	-84.698	-79.157	59.795	-24.159	-80.683	-77.268	-76.228	-71.294	-38.226	-73.107	-8191	255	
19483.930	1	1	0	0	0.11946	0.069474	0.18695	0.079953	0.25785	0.011044	0.18652	0.25377	0.20235	0.15966	0.19207	0.46778	0.22306	0.16891	0.092469	0.27911	-1.1313	-1.5104	-1.8958	-1.7583	-1.7771	-1.7229	-1.6521	-2.1271	-1.5042	-1.5104	-2.0208	-1.675	-1.7125	-1.9125	-1.4833	-2.0563	179.600	-87.061	229.617	-54.462	138.306	-96.765	127.829	187.606	213.588	-4.665	257.175	197.720	203.774	244.588	-16.916	170.778	0.00041686	0.00085128	7.41e-05	1301.2	4.4e-06	5.9031e-06	1351.4	519.37	3.7185e-06	4.9739e-06	600.97	262.24	212.43	99.416	1.1769e-05	116.64	0.00019011	0.00018236	5.0735e-05	1123.9	1.9992e-06	1.9919e-06	1193.3	451.38	1.996e-06	1.9918e-06	451.77	217.83	155.81	82.382	2.0276e-06	95.204	158.880	-64.166	-55.113	-83.770	-19.103	-20.921	-84.604	-79.122	-26.798	-41.523	-80.363	-77.033	-75.264	-71.050	54.596	-72.251	-8191	255	
19484.023	1	1	0	0	0.067923	0.076005	0.31201	0.23526	0.28587	0.13577	0.25928	0.13285	0.050425	0.18192	0.10068	0.16899	0.21303	0.27768	0.14661	0.30647	-1.3062	-1.4896	-1.9	-1.6437	-1.7188	-1.7042	-1.5854	-2.0771	-1.7417	-1.5646	-1.9167	-1.6	-1.6521	-2.0042	-1.4521	-2.0021	142.534	31.021	216.715	216.720	148.508	190.583	181.735	-30.534	201.273	-43.121	-48.227	215.317	-46.121	180.669	147.305	192.807	0.00052734	0.00058138	4.7246e-05	1307.3	2.9623e-06	4.0844e-07	1351.3	518.78	2.728e-06	3.2678e-06	611.91	262.96	212.01	99.174	5.57e-06	115.98	0.00018913	0.00018293	5.1154e-05	1127.4	2.0091e-06	1.9917e-06	1195.6	451.59	1.998e-06	1.9846e-06	454.26	219	156.42	82.381	1.998e-06	95.169	149.017	-67.868	-36.394	-83.191	-20.992	54.301	-84.477	-79.619	-9.316	63.008	-80.706	-77.346	-76.037	-71.580	-18.674	-73.160	-8191	255	
19484.119	1	1	0	0	0.19775	0.14268	0.24832	0.097695	0.13611	0.097786	0.26971	0.43137	0.083666	0.32302	0.20957	0.39728	0.27104	0.10868	0.058602	0.11869	-1.2146	-1.4125	-1.8604	-1.6271	-1.4792	-1.9771	-1.6646	-2.0604	-1.7417	-1.6938	-2.0542	-1.8312	-1.7542	-2.0375	-1.4146	-2.1292	56.711	79.680	233.368	254.847	148.141	79.428	136.539	184.931	173.723	159.564	-38.855	224.702	149.742	204.075	184.757	149.787	0.0005728	0.00021433	0.00017962	1300.2	3.8785e-06	5.085e-06	1341.6	522.48	2.8267e-06	6.486e-06	608.1	260.38	212.05	99.038	6.613e-06	115.38	0.00018971	0.00018095	5.0307e-05	1122.7	2.0222e-06	1.9973e-06	1187.3	452.2	2.019e-06	1.9762e-06	451.5	216.93	155.86	82.226	1.9867e-06	94.602	161.509	18.109	-51.734	-83.750	15.932	32.570	-84.628	-79.204	7.344	76.143	-80.533	-76.864	-75.642	-71.396	125.571	-73.013	-8191	255	
#DATA ENDS
