BOXY.EXE: ISS Imagent and Oximeter Data Acquisition Program Version 0.80
Ascii Record File

#ACQ INFORMATION
2  Detector Channels 
16  External MUX Channels 
1  Auxiliary Channels 
5000  Waveform (CCF) Frequency (Hz)
1  Waveforms Skipped 
30  Waveforms Averaged 
1  Cycles Averaged 
16  Acquisitions per Waveform 
10.0806  Updata Rate (Hz) 

#FILE INFORMATION
TRUE -- External MUX Channel results are PARSED.
FALSE -- AC DC and Phase are NOT grouped.
TRUE -- Companion Program Settings File CREATED.
FALSE -- AC data not excluded
FALSE -- DC data not excluded
FALSE -- Phase data not excluded
FALSE -- Auxillary Chn. data not excluded
Tab delimiters

#CALIBRATION STATE
TRUE -- Waveform Calibration Values APPLIED.


#AUX CALIBRATION VALUES
Val Type	aux-1	

Term	1.0000e+00	
Factor	0.0000e+00	


#WF CALIBRATION VALUES
A = Detector Channel
Val Type	A-AC1	A-AC2	A-AC3	A-AC4	A-AC5	A-AC6	A-AC7	A-AC8	A-AC9	A-AC10	A-AC11	A-AC12	A-AC13	A-AC14	A-AC15	A-AC16	A-DC1	A-DC2	A-DC3	A-DC4	A-DC5	A-DC6	A-DC7	A-DC8	A-DC9	A-DC10	A-DC11	A-DC12	A-DC13	A-DC14	A-DC15	A-DC16	A-Ph1	A-Ph2	A-Ph3	A-Ph4	A-Ph5	A-Ph6	A-Ph7	A-Ph8	A-Ph9	A-Ph10	A-Ph11	A-Ph12	A-Ph13	A-Ph14	A-Ph15	A-Ph16	

Term	0.00000e+00	0.00000e+00	0.00000e+00	0.00000e+00	0.00000e+00	0.00000e+00	0.00000e+00	0.00000e+00	0.00000e+00	0.00000e+00	0.00000e+00	0.00000e+00	0.00000e+00	0.00000e+00	0.00000e+00	0.00000e+00	0.00000e+00	0.00000e+00	0.00000e+00	0.00000e+00	0.00000e+00	0.00000e+00	0.00000e+00	0.00000e+00	0.00000e+00	0.00000e+00	0.00000e+00	0.00000e+00	0.00000e+00	0.00000e+00	0.00000e+00	0.00000e+00	0.00000e+00	0.00000e+00	0.00000e+00	0.00000e+00	0.00000e+00	0.00000e+00	0.00000e+00	0.00000e+00	0.00000e+00	0.00000e+00	0.00000e+00	0.00000e+00	0.00000e+00	0.00000e+00	0.00000e+00	0.00000e+00	
Factor	1.00000e+00	1.00000e+00	1.00000e+00	1.00000e+00	1.00000e+00	1.00000e+00	1.00000e+00	1.00000e+00	1.00000e+00	1.00000e+00	1.00000e+00	1.00000e+00	1.00000e+00	1.00000e+00	1.00000e+00	1.00000e+00	1.00000e+00	1.00000e+00	1.00000e+00	1.00000e+00	1.00000e+00	1.00000e+00	1.00000e+00	1.00000e+00	1.00000e+00	1.00000e+00	1.00000e+00	1.00000e+00	1.00000e+00	1.00000e+00	1.00000e+00	1.00000e+00	X	X	X	X	X	X	X	X	X	X	X	X	X	X	X	X	

B = Detector Channel
Val Type	B-AC1	B-AC2	B-AC3	B-AC4	B-AC5	B-AC6	B-AC7	B-AC8	B-AC9	B-AC10	B-AC11	B-AC12	B-AC13	B-AC14	B-AC15	B-AC16	B-DC1	B-DC2	B-DC3	B-DC4	B-DC5	B-DC6	B-DC7	B-DC8	B-DC9	B-DC10	B-DC11	B-DC12	B-DC13	B-DC14	B-DC15	B-DC16	B-Ph1	B-Ph2	B-Ph3	B-Ph4	B-Ph5	B-Ph6	B-Ph7	B-Ph8	B-Ph9	B-Ph10	B-Ph11	B-Ph12	B-Ph13	B-Ph14	B-Ph15	B-Ph16	

Term	0.00000e+00	0.00000e+00	0.00000e+00	0.00000e+00	0.00000e+00	0.00000e+00	0.00000e+00	0.00000e+00	0.00000e+00	0.00000e+00	0.00000e+00	0.00000e+00	0.00000e+00	0.00000e+00	0.00000e+00	0.00000e+00	0.00000e+00	0.00000e+00	0.00000e+00	0.00000e+00	0.00000e+00	0.00000e+00	0.00000e+00	0.00000e+00	0.00000e+00	0.00000e+00	0.00000e+00	0.00000e+00	0.00000e+00	0.00000e+00	0.00000e+00	0.00000e+00	-1.45867e+02	-1.23783e+02	-1.30834e+02	-1.84083e+02	-7.58095e+01	-7.30478e+01	-1.55713e+02	-1.62015e+02	-9.03867e+01	-7.43714e+01	-1.85725e+02	-1.70521e+02	-1.87050e+02	-1.76710e+02	-7.51131e+01	-1.49456e+02	
Factor	2.10453e-05	1.52073e-04	4.08231e-05	2.21187e-01	1.33617e-06	1.51758e-06	1.55432e-01	4.94518e-02	1.27884e-06	1.69986e-06	1.93204e-01	2.92118e-02	6.10080e-02	8.76291e-03	1.36065e-06	1.24210e-02	3.01981e-06	3.36426e-06	9.36133e-07	1.14310e-01	3.63966e-08	3.69298e-08	7.62793e-02	2.57675e-02	3.62490e-08	3.68367e-08	9.47209e-02	1.47461e-02	3.12550e-02	4.57521e-03	3.64405e-08	6.30051e-03	X	X	X	X	X	X	X	X	X	X	X	X	X	X	X	X	



#DISTANCE SETTINGS
A = Detector Channel
A-1	A-2	A-3	A-4	A-5	A-6	A-7	A-8	A-9	A-10	A-11	A-12	A-13	A-14	A-15	A-16	

2.5000e+00	3.0000e+00	2.5000e+00	3.0000e+00	2.0000e+00	3.0000e+00	1.5000e+00	3.0000e+00	3.0000e+00	3.0000e+00	3.0000e+00	3.0000e+00	3.0000e+00	3.0000e+00	1.5000e+00	3.0000e+00	

B = Detector Channel
B-1	B-2	B-3	B-4	B-5	B-6	B-7	B-8	B-9	B-10	B-11	B-12	B-13	B-14	B-15	B-16	

1.0000e+01	1.0000e+01	1.0000e+01	1.4400e+00	1.0000e+01	1.0000e+01	1.5100e+00	1.9400e+00	1.0000e+01	1.0000e+01	1.9900e+00	2.4900e+00	2.4100e+00	2.9000e+00	1.0000e+01	2.9800e+00	




#DATA BEGINS
time	group	step	mark	flag	A-AC1	A-AC2	A-AC3	A-AC4	A-AC5	A-AC6	A-AC7	A-AC8	A-AC9	A-AC10	A-AC11	A-AC12	A-AC13	A-AC14	A-AC15	A-AC16	A-DC1	A-DC2	A-DC3	A-DC4	A-DC5	A-DC6	A-DC7	A-DC8	A-DC9	A-DC10	A-DC11	A-DC12	A-DC13	A-DC14	A-DC15	A-DC16	A-Ph1	A-Ph2	A-Ph3	A-Ph4	A-Ph5	A-Ph6	A-Ph7	A-Ph8	A-Ph9	A-Ph10	A-Ph11	A-Ph12	A-Ph13	A-Ph14	A-Ph15	A-Ph16	B-AC1	B-AC2	B-AC3	B-AC4	B-AC5	B-AC6	B-AC7	B-AC8	B-AC9	B-AC10	B-AC11	B-AC12	B-AC13	B-AC14	B-AC15	B-AC16	B-DC1	B-DC2	B-DC3	B-DC4	B-DC5	B-DC6	B-DC7	B-DC8	B-DC9	B-DC10	B-DC11	B-DC12	B-DC13	B-DC14	B-DC15	B-DC16	B-Ph1	B-Ph2	B-Ph3	B-Ph4	B-Ph5	B-Ph6	B-Ph7	B-Ph8	B-Ph9	B-Ph10	B-Ph11	B-Ph12	B-Ph13	B-Ph14	B-Ph15	B-Ph16	aux-1	digaux	

12043.424	1	1	0	256	0.091285	0.081296	0.18323	0.07418	0.10462	0.22265	0.30099	0.24486	0.24123	0.14129	0.15053	0.11443	0.1558	0.37411	0.086618	0.11151	-1.3813	-2.2542	-2.0146	-2.0438	-2.3583	-2.2208	-2.1979	-2.5146	-1.9667	-2.1792	-2.3854	-2.1896	-2.5875	-2.1937	-1.9958	-2.4729	32.149	92.093	32.728	-125.384	66.421	-52.766	-121.733	81.301	176.630	-132.141	81.605	85.014	144.118	101.559	-109.560	160.335	0.001058	0.00072596	0.00015496	883.95	5.171e-06	3.6264e-06	872.45	363.92	9.299e-06	4.3051e-06	410.35	190.63	153.24	68.528	1.053e-05	95.055	0.001392	0.0014272	0.00039238	902.32	1.5033e-05	1.5128e-05	881.72	365.95	1.4923e-05	1.5066e-05	428.31	191.96	159.22	69.35	1.5797e-05	95.952	181.313	-71.283	-92.944	-161.065	11.139	7.381	-162.216	-156.897	-99.317	-56.796	-158.579	-154.685	-154.495	-149.092	-24.808	-151.029	-8191	255	
12043.520	1	1	0	0	0.21159	0.18295	0.081323	0.20032	0.15501	0.078997	0.19643	0.15624	0.27246	0.15638	0.11871	0.2133	0.14974	0.41588	0.20441	0.30787	-1.5312	-2.1958	-2.1021	-2.0083	-2.3875	-2.0521	-2.1729	-2.55	-2.0563	-1.9792	-2.4229	-1.9438	-2.4792	-2.3125	-2.1083	-2.5187	-166.529	154.504	-90.933	73.086	2.663	166.953	173.767	159.647	74.375	97.871	168.875	140.558	-108.210	161.460	95.970	-149.162	0.0010143	0.00069735	0.00030732	866.02	7.6034e-06	1.5582e-05	854.18	355.91	1.1819e-05	9.8792e-06	409.98	185.22	146.7	68.248	5.9213e-06	95.608	0.0014384	0.0015149	0.00042315	889.35	1.6695e-05	1.7089e-05	869	358.24	1.6966e-05	1.7382e-05	433.84	187.52	154.62	69.007	1.7656e-05	96.434	180.989	-85.054	-100.701	-160.938	-24.099	-38.595	-162.871	-156.659	-78.224	-10.521	-158.235	-154.804	-153.976	-148.757	-9.773	-151.218	-8191	255	
12043.616	1	1	0	0	0.19618	0.25894	0.40026	0.23066	0.053719	0.10985	0.074636	0.16349	0.2007	0.085126	0.13045	0.14991	0.15945	0.28863	0.14148	0.34368	-1.4542	-2.2083	-2.1979	-1.85	-2.2729	-2.3187	-2.0854	-2.5771	-1.9562	-2.0479	-2.3563	-1.9646	-2.2646	-2.3354	-1.9979	-2.4667	-135.325	-88.805	44.248	-172.788	-170.361	92.808	-150.715	165.765	24.254	-13.711	174.207	51.938	-98.828	109.788	26.098	153.771	0.0011111	0.00044538	0.00033027	823.3	7.1711e-06	2.1228e-06	823.97	350.16	1.0116e-05	7.4202e-06	407.56	188.57	147.08	70.519	6.811e-06	99.597	0.0015568	0.0016261	0.00044304	852.04	1.6994e-05	1.7391e-05	840.99	353	1.6903e-05	1.6947e-05	430.88	190.4	154.45	71.056	1.6436e-05	100.66	180.933	-48.705	-102.663	-160.987	-170.508	81.771	-162.115	-156.650	-41.163	18.326	-158.315	-154.579	-154.156	-149.108	-45.835	-151.266	-8191	255	
12043.736	1	1	0	0	0.059837	0.097942	0.37793	0.031257	0.21485	0.28864	0.18279	0.034291	0.20947	0.16678	0.3433	0.25509	0.17627	0.19128	0.14511	0.45889	-1.7729	-2	-2.2771	-2.1417	-2.2438	-2.3104	-2.2125	-2.4917	-2.1	-2.0521	-2.5229	-2.1896	-2.2313	-2.4875	-1.7875	-2.7083	-25.383	164.525	71.404	137.064	-101.697	-129.818	165.602	184.196	126.495	-77.479	-171.812	175.272	44.563	108.639	141.578	134.242	0.0010485	0.0009738	0.00022552	817.69	7.6373e-06	6.6392e-06	824.42	350.51	1.32e-06	1.3647e-05	414.26	195.98	149.95	74.599	2.1998e-06	105.4	0.0014786	0.0015078	0.00042813	842.9	1.7071e-05	1.7105e-05	840.62	354.6	1.7566e-05	1.7627e-05	437.87	198.16	158.26	75.382	1.8392e-05	106.8	183.856	-87.752	-96.218	-161.053	-134.410	-114.362	-162.088	-156.578	-96.141	-32.774	-158.067	-154.468	-154.429	-149.333	-25.887	-151.621	-8191	255	
12043.833	1	1	0	0	0.19777	0.065692	0.057192	0.30421	0.021285	0.27919	0.1766	0.25448	0.12426	0.25292	0.15444	0.28566	0.16384	0.11549	0.20414	0.056419	-1.8062	-1.9021	-2.2625	-2.1479	-2.1417	-2.1958	-2.0375	-2.3563	-2.1583	-2.075	-2.5271	-2.1312	-2.2375	-2.6354	-1.8729	-2.475	128.175	77.891	-107.637	109.589	61.876	150.855	47.119	-172.602	63.131	66.012	-1.368	146.039	120.467	152.142	-34.247	119.481	0.0010982	0.0021795	0.00011039	817.75	2.3057e-06	1.0369e-05	831.25	354.13	8.0493e-06	1.1949e-05	413.7	199.88	151.77	75.883	9.0759e-06	106.78	0.0016513	0.0016821	0.00046942	849.26	1.7775e-05	1.7684e-05	848.29	357.12	1.7045e-05	1.7013e-05	438.45	201.54	158.91	76.337	1.7076e-05	107.92	181.076	-40.170	-149.992	-160.861	-131.345	-38.298	-162.041	-156.584	-46.626	-104.687	-158.282	-154.533	-154.269	-149.529	-25.285	-151.497	-8191	255	
12043.929	1	1	0	0	0.09383	0.15087	0.28871	0.26676	0.18779	0.027371	0.0070915	0.20549	0.12334	0.071176	0.089813	0.10559	0.14194	0.28646	0.24127	0.41349	-1.8542	-2.0896	-2.2687	-2.0604	-2.025	-2.475	-2.0833	-2.35	-2.2208	-1.9542	-2.4333	-2.2229	-2.1958	-2.4688	-1.825	-2.4646	168.765	-152.094	-167.291	122.388	121.772	-17.275	13.554	-166.054	176.091	-136.136	117.161	123.336	71.681	148.784	-57.309	165.945	0.0011645	0.0013906	0.00020883	825.3	5.0281e-06	3.9269e-06	836.55	355.39	9.078e-06	1.0693e-05	419.29	200.71	152.21	75.787	9.1133e-06	107.58	0.0015317	0.0015863	0.00043957	851.95	1.7126e-05	1.7343e-05	851.97	358.48	1.6762e-05	1.6912e-05	438.37	201.63	158.78	76.329	1.6467e-05	108.17	179.740	-70.714	-114.239	-161.028	-9.251	24.879	-162.034	-156.556	-100.962	-78.432	-158.434	-154.762	-154.365	-149.378	-52.526	-151.501	-8191	255	
12044.000	1	1	0	0	0.22976	0.34742	0.20695	0.046802	0.49174	0.0718	0.092023	0.40323	0.12018	0.13934	0.12674	0.27808	0.057649	0.12588	0.26163	0.48218	-1.9312	-1.875	-2.3146	-1.9438	-1.9188	-2.4625	-2.1125	-2.3187	-2.1312	-2.1188	-2.45	-2.2125	-1.9	-2.5896	-1.9354	-2.3354	34.016	101.071	-78.586	54.827	130.766	147.569	181.972	116.574	120.117	-91.807	128.208	161.315	-9.764	170.712	-158.384	134.411	0.0012392	0.0008298	0.00024104	832.67	9.3231e-06	1.3513e-05	837.78	355.2	1.0038e-05	7.5295e-06	413.12	200	153.39	75.967	4.018e-06	106.79	0.0014641	0.0014855	0.00042109	854.8	1.6382e-05	1.6779e-05	853.07	359.09	1.6498e-05	1.6861e-05	437.85	201.6	159.75	76.528	1.63e-05	107.77	182.429	-54.562	11.380	-161.024	-44.858	-53.062	-161.851	-156.568	-58.238	-110.337	-158.256	-154.902	-154.374	-149.467	-131.451	-151.725	-8191	255	
12044.121	1	1	0	0	0.38406	0.25597	0.10275	0.33825	0.069614	0.25168	0.15075	0.05456	0.26591	0.17934	0.16119	0.19636	0.21995	0.174	0.1179	0.26044	-1.9896	-1.8083	-2.3104	-2.1646	-2.1396	-2.3333	-2.1646	-2.3229	-2.2229	-2.0271	-2.2125	-2.35	-1.9167	-2.6042	-2.0604	-2.2333	10.185	-52.724	129.490	-162.564	156.047	-145.503	-164.835	-70.911	160.100	39.403	117.739	162.145	165.943	-147.638	38.797	146.535	0.0011695	0.00061104	0.000152	834.78	1.1126e-05	2.4123e-06	837.93	358.02	9.3022e-06	7.2666e-06	414.32	200.87	152.92	76.237	4.767e-06	106.6	0.0014479	0.0014814	0.00041114	855.12	1.6147e-05	1.611e-05	853.05	359.66	1.6195e-05	1.6268e-05	436.88	201.84	159.65	76.754	1.6505e-05	107.66	182.272	-30.678	-36.800	-160.521	-38.471	-15.638	-161.989	-156.503	-30.000	-7.908	-158.096	-154.913	-154.464	-149.421	-32.181	-151.638	-8191	255	
12044.215	1	1	0	0	0.28558	0.13259	0.088803	0.074422	0.23142	0.054669	0.24103	0.080536	0.1075	0.19341	0.32327	0.15589	0.24715	0.44564	0.12066	0.24935	-1.9937	-1.7188	-2.0354	-2.3438	-1.7979	-2.3917	-2.3958	-2.1354	-2.3292	-1.9396	-2.2771	-2.4229	-1.9958	-2.5687	-2.2833	-2.2521	-18.851	127.450	112.902	-159.460	-48.762	95.638	148.455	-23.097	143.663	65.595	133.992	-8.559	147.783	136.101	82.687	105.166	0.0011925	0.00042922	0.00030723	833.05	4.0605e-06	8.917e-06	839.88	354.65	6.635e-06	5.8144e-06	412.94	200.06	151.74	76.039	6.2655e-06	106.36	0.0014947	0.0015267	0.00042608	858.31	1.6363e-05	1.6712e-05	852.82	358.47	1.6323e-05	1.6372e-05	434.87	201.09	159.58	76.22	1.6541e-05	107.2	177.128	-35.311	-120.601	-161.022	-101.747	-30.328	-162.247	-156.775	-29.011	50.865	-158.635	-154.709	-154.212	-149.600	-64.112	-151.691	-8191	255	
12044.312	1	1	0	0	0.06272	0.085315	0.19586	0.19987	0.23826	0.163	0.36345	0.19948	0.16218	0.20277	0.091522	0.12929	0.27362	0.20497	0.039789	0.26184	-2.0229	-2.0021	-2.1167	-2.2417	-1.7708	-2.3417	-2.3542	-2.1542	-2.5583	-1.9438	-2.2	-2.575	-1.8479	-2.5375	-2.05	-1.9979	-5.689	-16.143	164.129	77.450	-144.405	135.585	107.948	-50.658	-23.235	-80.098	114.977	133.205	-147.297	181.782	-132.678	127.139	0.001246	0.00082716	0.00028555	831.57	6.2642e-06	7.3517e-06	840.63	354.09	6.0318e-06	1.2975e-05	411.17	200.39	152.08	75.688	1.2364e-05	106.75	0.0014962	0.0015282	0.00042995	858.4	1.6922e-05	1.689e-05	853.58	358.32	1.6995e-05	1.7006e-05	435.94	201.43	159.19	76.432	1.675e-05	107.54	178.315	-100.312	-125.558	-160.625	-52.705	-94.663	-162.027	-156.681	-56.062	-38.673	-158.004	-155.709	-154.736	-149.486	-33.818	-151.655	-8191	255	
12044.408	1	1	0	0	0.26543	0.07872	0.11659	0.16129	0.20083	0.14704	0.15555	0.4529	0.11369	0.092325	0.39714	0.26292	0.09479	0.080047	0.15297	0.2096	-1.8229	-1.7938	-2.0625	-2.3604	-1.8396	-2.2875	-2.4021	-2.0271	-2.2938	-1.9438	-1.9229	-2.5687	-2.1229	-2.5479	-2.0479	-2.175	-38.476	174.991	-15.443	81.998	176.433	-43.812	98.384	163.031	-58.643	-141.235	162.856	168.174	134.411	174.988	32.788	169.420	0.0013409	0.00045017	0.00052004	829.46	1.6707e-06	5.4624e-06	839.65	353.87	6.1606e-06	8.088e-06	414.96	199.59	151.49	75.46	1.3935e-06	105.71	0.001492	0.0015418	0.00043089	856.86	1.6851e-05	1.7171e-05	854.05	358.24	1.6952e-05	1.7553e-05	437.15	201.75	160.18	76.221	1.7547e-05	106.93	177.276	-86.531	-97.628	-161.024	96.919	45.614	-162.046	-156.776	-52.294	-24.726	-158.504	-154.804	-154.168	-149.453	-113.547	-151.630	-8191	255	
12044.528	1	1	0	0	0.06012	0.10369	0.19152	0.2713	0.11013	0.12659	0.14	0.16277	0.20893	0.14505	0.04898	0.40233	0.16048	0.14815	0.146	0.16441	-2.0271	-2.0542	-2.0729	-2.225	-2.0333	-2.1937	-2.3063	-2.1083	-2.2083	-2.1688	-1.8229	-2.5604	-2.0687	-2.5417	-2.4062	-2.3312	112.168	-62.022	53.625	125.400	47.202	180.828	64.694	-158.027	-56.129	-66.588	-55.924	-168.520	30.815	-120.438	-133.510	153.783	0.0011151	0.0012009	0.00022968	831.16	8.3948e-06	1.1435e-05	835.43	351.95	4.9788e-06	2.4398e-06	408.33	198.81	151.27	75.339	9.6889e-06	105.26	0.0015681	0.0016255	0.00045136	857.95	1.7545e-05	1.7629e-05	849.36	356.45	1.7282e-05	1.759e-05	434.57	200.5	159.75	75.965	1.8099e-05	106.1	179.628	-97.300	-143.881	-160.637	18.624	-9.386	-161.988	-156.577	-5.027	-130.909	-158.571	-154.883	-154.106	-149.429	-2.632	-151.772	-8191	255	
12044.600	1	1	0	0	0.23994	0.14689	0.11809	0.20094	0.22194	0.22766	0.035616	0.44377	0.23807	0.17142	0.15862	0.046869	0.37005	0.14536	0.076721	0.075972	-1.8229	-2.0875	-2.0021	-2.5417	-2.0125	-2.1708	-2.4667	-2.1604	-2.2854	-2.2	-1.9771	-2.325	-2.1896	-2.1063	-2.3917	-2.0729	-57.198	-40.003	88.614	144.577	33.151	101.744	110.735	94.864	34.794	-163.990	-139.885	123.642	34.687	-122.349	-11.237	23.865	0.0011295	0.00038895	0.00025651	831.79	2.9195e-06	5.4482e-06	831.24	352.66	6.8152e-06	3.2419e-06	410.14	196.79	150.1	74.782	1.4918e-05	104.41	0.0016232	0.0017041	0.00046985	859.73	1.8456e-05	1.8558e-05	848.39	356.93	1.7955e-05	1.8066e-05	434.43	199.81	159.15	75.358	1.7734e-05	105.26	184.127	-25.317	-107.617	-160.484	-81.680	-16.258	-162.071	-156.711	-94.599	-116.586	-158.729	-154.846	-154.598	-149.365	-57.125	-151.639	-8191	255	
12044.721	1	1	0	0	0.20269	0.18575	0.35648	0.11342	0.22095	0.10177	0.17231	0.1368	0.12433	0.17205	0.15716	0.33456	0.3236	0.2377	0.19916	0.11207	-1.7958	-2.2229	-1.875	-2.2646	-2.0812	-2.2083	-2.4917	-2.1229	-2.3375	-2.3729	-1.9104	-2.5979	-2.1104	-2.0646	-2.4604	-2.2396	137.653	8.083	-156.383	-40.148	-61.196	-151.150	176.437	175.836	-140.625	19.736	60.255	163.287	169.295	-158.801	-114.461	15.857	0.0011887	0.00059068	0.00021328	827.19	4.2686e-06	4.3312e-06	832.64	352.9	8.223e-06	1.5147e-06	410.95	197.16	151.92	74.611	5.417e-06	104.82	0.0015837	0.0016359	0.00045493	856.24	1.7933e-05	1.8202e-05	849.28	357.68	1.8187e-05	1.8351e-05	436.53	200.11	159.69	75.424	1.7814e-05	106.11	178.152	-84.757	-83.587	-160.766	14.838	-19.245	-161.898	-156.419	-35.912	-107.050	-158.601	-154.650	-154.422	-149.514	1.535	-151.636	-8191	255	
12044.817	1	1	0	0	0.028199	0.18391	0.20151	0.062777	0.17964	0.15109	0.11885	0.30124	0.21132	0.30777	0.061631	0.46976	0.09425	0.1899	0.19604	0.57075	-1.5042	-2.2729	-1.8917	-2.2042	-2.1604	-1.9	-2.5792	-1.9625	-2.0771	-2.2875	-1.9062	-2.4021	-2.1917	-2.0146	-2.2729	-2.2	-82.551	181.294	9.707	-171.037	171.943	114.788	-135.654	146.467	3.126	184.256	133.159	126.533	94.686	182.767	74.171	82.013	0.0011857	0.00064783	0.00025899	833.98	1.3513e-05	6.2668e-06	830.02	354.53	1.2286e-05	3.4612e-06	411.47	199.6	150.88	74.687	3.5947e-06	105.37	0.0015742	0.0016119	0.00044647	855.95	1.7278e-05	1.7447e-05	847.54	358.17	1.7601e-05	1.7914e-05	437.71	201.42	160.2	75.593	1.8223e-05	106.48	184.693	-133.750	-18.336	-160.697	-19.520	-44.030	-162.007	-156.747	-115.772	-44.425	-158.257	-154.715	-154.497	-149.315	-62.082	-151.669	-8191	255	
12044.913	1	1	0	0	0.086467	0.13365	0.14676	0.43304	0.19259	0.28092	0.11947	0.32902	0.081302	0.19386	0.21756	0.28783	0.13121	0.15207	0.096407	0.52183	-1.6833	-2.3417	-1.8729	-2.2854	-2.3083	-1.8042	-2.3563	-2.3854	-1.9896	-2.4708	-2.0667	-2.4125	-2.2229	-1.9	-2.425	-2.2812	-127.332	-74.206	168.733	129.202	159.504	-135.296	-150.445	91.501	-167.276	-171.789	91.029	-173.280	25.933	173.270	120.919	121.954	0.001172	0.0009787	0.00028376	827.91	7.5481e-07	1.0727e-05	833.86	353.93	9.9582e-06	5.7347e-06	411.36	197.73	150.27	74.207	1.1899e-05	103.43	0.0016332	0.0016718	0.00046601	856.96	1.807e-05	1.846e-05	850.58	357.87	1.7886e-05	1.8275e-05	437.4	199.69	159.62	75.03	1.8671e-05	104.82	180.684	-10.569	-104.668	-161.097	-128.697	-53.389	-161.820	-156.654	-108.671	-128.778	-158.343	-154.847	-154.265	-149.408	-58.444	-151.760	-8191	255	
12045.009	1	1	0	0	0.33285	0.11291	0.25845	0.079749	0.25334	0.34027	0.24275	0.19868	0.24854	0.062591	0.074538	0.20647	0.33128	0.046059	0.14089	0.18554	-1.5521	-2.3417	-1.9896	-2.3896	-2.3167	-2.0396	-2.5208	-2.3937	-2.0125	-2.4896	-2.0938	-2.5167	-2.0833	-1.95	-2.3875	-2.4188	168.235	59.020	71.367	131.178	-144.975	129.007	120.738	111.712	16.695	-0.212	10.239	54.022	-143.995	49.805	-152.198	135.836	0.0010714	8.6125e-05	0.00015993	826.92	5.4182e-06	9.3912e-06	827.03	353.47	9.362e-06	3.3002e-06	407.2	196.41	150.89	74.389	1.7167e-05	103.54	0.0016823	0.0017567	0.00049026	860.03	1.9331e-05	1.9595e-05	849.18	357.17	1.8766e-05	1.8848e-05	435.71	198.83	159.75	75.108	1.8555e-05	104.68	177.747	-101.234	-63.859	-160.776	126.072	22.747	-161.947	-156.777	-9.115	-19.539	-158.299	-154.741	-154.115	-149.282	-61.905	-151.594	-8191	255	
12045.128	1	1	0	0	0.11864	0.13327	0.10546	0.15978	0.11809	0.25914	0.1529	0.32378	0.34283	0.156	0.035868	0.14652	0.26843	0.33531	0.11718	0.44608	-1.6562	-2.3937	-2.0083	-2.0417	-2.3271	-1.875	-2.3208	-2.3187	-1.9312	-2.3167	-2.1437	-2.2542	-2.4271	-1.9937	-2.2542	-2.3958	-105.381	182.200	23.688	122.035	183.461	95.529	72.464	174.012	-26.531	172.866	150.834	172.156	103.190	173.856	16.758	127.419	0.0010937	0.00076535	0.00015104	827.59	8.5305e-06	2.7206e-06	833.59	350.92	6.9347e-06	2.5155e-06	408.72	195.62	150.92	73.736	9.6572e-06	103.08	0.0016489	0.0017147	0.00047833	858.72	1.8274e-05	1.8534e-05	849.11	356.9	1.8152e-05	1.8104e-05	434.63	198.15	158.83	74.411	1.7695e-05	103.91	177.205	-123.036	-122.209	-161.058	-70.568	-33.693	-161.849	-156.532	-90.233	49.952	-158.158	-154.808	-154.208	-149.222	-69.205	-152.180	-8191	255	
12045.224	1	1	0	0	0.1264	0.24663	0.2427	0.16004	0.17037	0.12293	0.31842	0.24981	0.16708	0.1211	0.10136	0.21868	0.3122	0.30464	0.078338	0.12503	-1.425	-2.3896	-2.0292	-2.0896	-2.3854	-1.8542	-2.175	-2.4875	-1.9958	-2.3917	-2.0563	-2.2896	-2.5938	-2.0875	-2.175	-2.4792	62.019	35.108	-117.725	-156.978	38.934	-18.120	87.697	83.485	9.831	167.638	71.127	175.439	143.528	119.665	-7.975	-137.180	0.0011142	0.00022674	0.00020775	824.87	2.8936e-06	9.3881e-06	830.95	352.6	8.6735e-06	9.0424e-06	407.68	194.75	149.04	72.481	9.28e-06	101.02	0.0015913	0.0016333	0.00045301	856.37	1.7654e-05	1.7981e-05	845.85	356.8	1.7589e-05	1.7839e-05	433.08	196.5	156.9	73.146	1.7381e-05	102.19	183.270	-32.455	-109.140	-161.092	-20.195	-34.808	-162.345	-156.790	-109.452	-61.833	-158.280	-154.926	-154.176	-149.372	-62.043	-151.804	-8191	255	
12045.296	1	1	0	0	0.25864	0.14757	0.16486	0.34379	0.34141	0.051657	0.10916	0.1082	0.08566	0.16328	0.14588	0.20196	0.38006	0.38731	0.071045	0.24146	-1.5562	-2.3146	-2.1479	-1.9208	-2.3688	-2.1562	-2.2896	-2.4792	-1.8312	-2.5375	-2.1479	-2.1729	-2.5479	-1.9979	-2.0208	-2.5208	40.467	-160.160	174.210	93.778	161.630	-65.145	169.052	159.356	4.424	21.874	-166.317	161.812	-143.197	-172.292	-62.573	-130.091	0.0010604	0.0010724	4.8076e-05	833.11	1.0907e-05	7.6604e-06	830.56	353.67	6.4043e-06	1.1551e-05	403.79	192.61	149.82	71.539	2.0336e-06	100.15	0.0015484	0.0015864	0.00044222	857.85	1.6987e-05	1.7063e-05	844.88	357.26	1.67e-05	1.6904e-05	428.8	194.57	156.02	72.191	1.6763e-05	100.98	180.060	-152.827	147.550	-161.031	-18.931	-101.933	-162.103	-156.673	-72.003	-48.790	-157.816	-154.921	-154.573	-149.659	-43.883	-151.724	-8191	255	
12045.416	1	1	0	0	0.040655	0.18467	0.14405	0.099848	0.14396	0.18932	0.1838	0.19296	0.27472	0.11662	0.28262	0.24799	0.28212	0.19578	0.22291	0.13469	-1.2979	-2.3937	-2.2167	-1.8729	-2.5625	-2.0833	-2.1771	-2.65	-1.9729	-2.2208	-2.1792	-2.0479	-2.3521	-2.2479	-2.0354	-2.4813	-117.662	80.816	41.087	17.956	-69.356	99.152	120.649	151.200	-64.897	-20.049	-173.299	-163.135	171.372	104.827	-42.876	182.013	0.0010726	0.00053392	0.00016118	827.97	5.9261e-06	5.2736e-06	822.68	351.97	7.0421e-06	2.3903e-06	401.89	189.81	148.29	70.739	6.3669e-06	98.753	0.0014864	0.0015374	0.00042485	855.36	1.6316e-05	1.6609e-05	836.85	354.95	1.6022e-05	1.6087e-05	423.75	191.86	154.44	71.208	1.5743e-05	99.402	176.955	-117.925	2.244	-160.947	-21.526	-83.392	-162.181	-156.881	-57.690	-27.479	-158.804	-155.083	-154.231	-149.592	-38.018	-151.778	-8191	255	
12045.513	1	1	0	0	0.086687	0.091833	0.12783	0.24311	0.15097	0.39095	0.27145	0.12073	0.16405	0.2586	0.083356	0.24082	0.27536	0.24747	0.25902	0.08541	-1.5458	-2.2646	-2.1937	-1.9771	-2.3833	-2.0646	-2.1396	-2.3979	-1.7958	-2.0438	-2.3167	-2.0125	-2.5104	-2.4354	-2.0042	-2.6979	4.166	47.611	-60.448	-110.531	-123.216	82.164	13.534	-125.390	71.351	-57.910	130.569	67.240	-163.563	150.515	-157.370	103.777	0.0010682	0.00063147	4.4562e-05	832.05	7.3096e-06	3.3339e-06	824.74	350.8	5.259e-06	1.1193e-05	403.58	190.26	148.77	70.65	8.2588e-06	98.513	0.0014308	0.0014776	0.00041098	855.31	1.6138e-05	1.6174e-05	836.01	355.3	1.5797e-05	1.5888e-05	423.52	191.73	154.14	71.082	1.4949e-05	99.258	179.318	-135.678	4.440	-161.048	27.027	36.461	-162.038	-156.722	-51.408	9.026	-158.279	-154.933	-154.461	-149.558	-87.619	-151.809	-8191	255	
12045.609	1	1	0	0	0.25813	0.24403	0.35557	0.11634	0.18822	0.039067	0.26489	0.080717	0.15503	0.14998	0.14126	0.25178	0.16914	0.26322	0.21055	0.21748	-1.6271	-2.2854	-2.3396	-2.0771	-2.3375	-1.9708	-2.2521	-2.5021	-1.9542	-2.025	-2.4021	-2.0979	-2.2125	-2.4292	-1.8917	-2.5417	98.840	-131.151	-67.044	142.228	-126.645	42.345	89.193	-143.852	102.991	140.626	-37.723	-120.029	-83.730	176.048	-89.689	139.282	0.0010216	0.00060965	0.00033494	833.38	6.2989e-06	5.0491e-06	823.07	354.1	7.0275e-06	9.4243e-06	404.8	190.66	146.75	70.454	1.8803e-06	98.311	0.001325	0.001348	0.00036936	849.42	1.4318e-05	1.4548e-05	833.63	355.4	1.4164e-05	1.4222e-05	420.31	191.51	152.12	70.547	1.3659e-05	98.886	183.341	-69.734	-66.375	-161.080	46.506	-56.753	-162.306	-156.814	-102.187	-64.885	-158.350	-154.979	-154.531	-149.380	183.888	-151.709	-8191	255	
12045.705	1	1	0	0	0.24507	0.23143	0.10326	0.13212	0.12639	0.32214	0.13744	0.14467	0.11135	0.14229	0.20786	0.18262	0.26519	0.066311	0.19774	0.024389	-1.8542	-2.0687	-2.4146	-2.1562	-2.3646	-2.325	-2.2958	-2.4938	-2.225	-1.9667	-2.3958	-2.125	-2.375	-2.3583	-1.9458	-2.4708	32.743	105.201	-35.134	67.429	-19.877	-141.665	103.738	96.544	-8.644	-123.004	-104.106	-163.860	-132.631	70.111	-107.610	94.065	0.0010389	4.0005e-05	0.00018187	835.71	8.2911e-06	7.1144e-06	826.82	355.13	5.9905e-06	1.1439e-05	405.16	190.6	146.99	70.66	8.1056e-06	98.92	0.001217	0.0012369	0.0003462	847.97	1.324e-05	1.3293e-05	833.75	355.08	1.3132e-05	1.3149e-05	418.81	191.52	152.18	70.838	1.3448e-05	99.352	183.830	100.732	-105.310	-161.146	-49.900	-155.230	-162.359	-156.648	-79.059	40.748	-158.890	-155.056	-154.315	-149.552	-68.546	-151.621	-8191	255	
12045.801	1	1	0	0	0.18343	0.24297	0.16	0.39333	0.061827	0.24675	0.20133	0.13734	0.091263	0.11823	0.19411	0.060771	0.17592	0.31115	0.18077	0.090653	-1.8875	-1.9271	-2.4188	-1.9042	-2.2417	-2.3125	-1.9042	-2.4833	-2.0771	-2.0042	-2.5187	-2.3271	-1.975	-2.4875	-1.8979	-2.4708	85.096	140.079	-42.131	-118.316	47.863	-34.077	142.013	147.212	-167.848	43.864	98.897	-174.632	120.523	161.962	113.527	137.418	0.0010509	0.00062309	9.2751e-05	832.19	7.2224e-06	6.2075e-06	823.51	351.19	6.4494e-06	1.078e-05	401.84	191.15	147.53	70.795	7.0182e-06	98.685	0.0012261	0.0012482	0.00034508	847.35	1.3489e-05	1.3533e-05	830.67	353.37	1.3328e-05	1.3264e-05	415.12	190.97	152.13	71.002	1.323e-05	99.19	181.723	-87.251	-69.618	-161.034	-29.958	-11.300	-162.215	-156.873	-86.398	-71.300	-158.021	-155.063	-154.486	-149.590	-19.865	-151.866	-8191	255	
12045.897	1	1	0	0	0.13462	0.14416	0.0099786	0.15648	0.18455	0.16659	0.16288	0.26734	0.19499	0.11123	0.2488	0.17333	0.20365	0.31703	0.17964	0.10824	-1.7708	-1.9833	-2.2354	-2.0542	-2.15	-2.4208	-1.9937	-2.5083	-2.0938	-1.9854	-2.6458	-2.2229	-2.0417	-2.6729	-1.9021	-2.4875	183.992	164.005	131.487	-128.571	-99.690	176.902	9.989	95.178	-123.068	138.836	-162.714	154.161	-169.508	84.310	-124.973	96.326	0.0011006	0.00103	0.00016236	831.23	4.7975e-06	7.8077e-06	825.64	350.95	5.355e-06	1.5594e-05	405.19	191.03	146.81	70.764	5.7416e-06	98.948	0.0012114	0.0012278	0.00034101	846.8	1.3373e-05	1.3599e-05	832.28	352.45	1.3635e-05	1.3531e-05	416.89	191.54	152.27	71.013	1.357e-05	99.322	181.392	-54.847	-142.276	-161.281	-87.278	-60.149	-162.120	-156.976	-59.422	-48.269	-158.719	-155.033	-154.600	-149.221	-66.665	-151.724	-8191	255	
12045.993	1	1	0	0	0.028394	0.14736	0.12499	0.13202	0.13899	0.17918	0.13029	0.22406	0.13873	0.071351	0.11459	0.23608	0.15241	0.28619	0.11975	0.18235	-1.6	-1.8875	-2.3292	-2.2083	-2.025	-2.5812	-2.0521	-2.3958	-2.4458	-1.8438	-2.3583	-2.2958	-1.8917	-2.5062	-2.0271	-2.1354	-31.149	106.811	48.639	-129.942	111.387	89.977	74.116	-164.752	115.888	175.952	67.126	115.753	53.679	-150.268	26.435	81.972	0.0011415	0.00076408	0.00030804	831.61	2.7776e-06	1.2305e-05	829.79	352.31	4.4574e-06	1.1398e-05	405.3	190.33	146.73	70.605	1.0652e-05	99.095	0.0012285	0.0012507	0.00034892	848.52	1.3494e-05	1.3751e-05	833.95	353.44	1.3802e-05	1.3975e-05	418.82	190.86	151.84	70.818	1.3895e-05	99.102	179.160	-52.128	-99.334	-161.002	3.514	-49.596	-162.284	-156.666	-8.477	-14.630	-158.552	-155.275	-154.366	-149.544	-101.012	-151.868	-8191	255	
12046.090	1	1	0	0	0.16687	0.077677	0.14205	0.095853	0.19438	0.16228	0.10131	0.044288	0.22247	0.13377	0.15562	0.046743	0.05661	0.20123	0.13903	0.26336	-1.9979	-1.8417	-2.3771	-2.1708	-1.9417	-2.5187	-2.25	-2.2687	-2.3833	-1.9604	-2.3854	-2.3542	-1.95	-2.6937	-2.2	-2.2167	103.478	27.059	126.612	-18.040	-49.721	-38.748	91.528	125.090	104.895	-128.464	168.779	-38.711	-73.462	-91.841	62.585	144.334	0.0010056	0.0009117	0.00018173	834.52	3.4295e-06	6.5101e-06	826.2	354.2	5.1806e-06	1.0655e-05	403.92	189.64	148.28	69.873	4.2036e-06	96.895	0.0012314	0.0012258	0.00033507	845.37	1.2666e-05	1.2681e-05	830.6	354.28	1.1856e-05	1.1846e-05	414.82	189.62	150	69.587	1.1034e-05	96.66	178.288	-91.058	-114.645	-161.227	-107.675	-12.461	-162.011	-156.901	-85.140	-50.108	-158.468	-154.926	-154.880	-149.511	-102.748	-151.559	-8191	255	
12046.210	1	1	0	0	0.12605	0.27936	0.2872	0.13645	0.21358	0.12558	0.19954	0.23642	0.044417	0.11936	0.13462	0.25492	0.094424	0.19154	0.036908	0.15781	-1.8042	-1.9479	-2.1396	-2.3375	-1.875	-2.3771	-2.0854	-2.1979	-2.5396	-1.9688	-2.4583	-2.5812	-1.8917	-2.5542	-2.3187	-2.3646	-169.012	171.521	-55.270	-128.440	87.227	182.831	116.604	103.013	104.200	66.401	147.444	148.349	-55.437	-168.115	151.625	96.128	0.0010098	0.00073862	3.7311e-05	844.74	9.4222e-06	7.7475e-06	834.5	357.14	5.1672e-06	7.5441e-07	408.55	187.63	146.03	68.606	5.5799e-06	95.033	0.00095545	0.00092861	0.00025066	844.87	9.3651e-06	9.2721e-06	830.18	355.42	8.7278e-06	8.4896e-06	408.24	186	146.34	68.251	8.1504e-06	94.718	180.304	-88.894	87.205	-161.162	-56.066	-47.248	-162.334	-156.849	-38.814	61.795	-158.581	-155.196	-154.514	-149.230	-58.097	-151.502	-8191	255	
12046.305	1	1	0	0	0.062983	0.18074	0.085348	0.10556	0.23185	0.25989	0.11628	0.25573	0.17382	0.27284	0.32756	0.035342	0.19796	0.043881	0.20698	0.22381	-2.075	-1.8875	-2.2313	-2.2854	-1.9	-2.3583	-2.3521	-2.0187	-2.3792	-2.1229	-2.2417	-2.5167	-1.8813	-2.4979	-2.1979	-2.0271	-31.710	118.715	21.855	151.320	120.576	-163.305	97.564	90.253	156.550	-65.965	131.764	70.683	-68.522	40.295	-79.582	116.238	0.0010407	0.00072576	0.00017534	859.5	4.2589e-06	1.5373e-06	835.07	359.15	4.0611e-06	6.8344e-06	395.91	177.77	142.23	64.536	5.9702e-06	90.712	0.00075741	0.00070718	0.00019383	854.74	7.176e-06	7.0461e-06	827.64	355.32	6.8271e-06	6.7283e-06	394.66	175.96	140.88	63.97	6.6469e-06	89.854	182.991	-71.301	-94.293	-161.145	5.822	-44.350	-162.289	-157.151	-20.427	-74.593	-158.688	-154.984	-154.441	-149.221	-43.237	-151.333	-8191	255	
12046.401	1	1	0	0	0.23493	0.16092	0.16627	0.15228	0.25104	0.28011	0.24835	0.1582	0.10707	0.16375	0.083015	0.19764	0.15294	0.15767	0.095485	0.19533	-1.8667	-2.0896	-2.1333	-2.2562	-1.875	-2.1083	-2.3688	-2.0792	-2.4396	-2.1729	-2.0854	-2.6729	-1.9646	-2.45	-2.0604	-2.2229	184.943	105.965	31.889	-81.264	2.211	61.464	179.308	124.462	15.560	-164.366	-110.244	144.529	-31.021	-123.243	99.974	90.576	0.0010627	5.5117e-05	0.00011338	868.95	5.2992e-06	8.1849e-06	838.96	361.2	4.6042e-06	7.9666e-06	402.3	179.16	142.02	64.191	3.9188e-06	88.175	0.00065186	0.00061189	0.00016883	860.42	6.5381e-06	6.6841e-06	831.88	356.91	6.649e-06	6.5912e-06	397.19	176.75	140.76	63.651	6.4733e-06	87.547	182.065	116.127	-50.466	-161.348	-45.930	-62.624	-162.494	-157.071	-78.699	6.808	-158.541	-155.076	-154.764	-149.055	-75.345	-151.413	-8191	255	
12046.521	1	1	0	0	0.35203	0.2173	0.32236	0.077779	0.074808	0.18631	0.25139	0.28564	0.098264	0.14019	0.19517	0.078491	0.15889	0.25631	0.24057	0.1778	-1.9188	-2.1417	-2.0083	-2.5104	-1.9688	-2.2125	-2.6146	-1.9458	-2.2562	-2.3146	-2.1167	-2.5854	-2.0687	-2.4604	-2.4396	-2.2167	-127.717	117.810	-99.907	176.621	-95.469	-61.805	91.664	156.574	-157.524	171.520	107.490	-160.616	140.594	-171.164	-134.891	158.337	0.0010402	0.00034425	0.00012731	879.01	5.0285e-06	3.4708e-06	838	362.02	5.4872e-06	6.0504e-06	401.1	178.52	142.22	64.331	6.5641e-06	89.34	0.00062362	0.00057703	0.00015828	869.68	6.2237e-06	6.2715e-06	829.98	357.85	6.4136e-06	6.413e-06	396.84	176.01	140.9	63.853	6.6847e-06	88.866	180.533	-98.492	-115.145	-160.816	-41.376	-66.449	-162.302	-157.051	-78.264	-5.152	-158.630	-155.047	-154.334	-149.010	-65.716	-151.321	-8191	255	
12046.593	1	1	0	0	0.15632	0.12889	0.22564	0.26048	0.094705	0.15503	0.095283	0.1015	0.14696	0.083074	0.035121	0.19129	0.33483	0.28452	0.068413	0.1915	-1.9937	-2.2562	-1.9292	-2.5521	-1.8917	-2.2729	-2.675	-2.1542	-2.4292	-2.2896	-1.825	-2.5396	-2.0187	-2.1583	-2.4708	-2.1188	-148.968	-122.682	-22.849	-145.972	-112.564	-112.220	164.016	119.521	79.449	-131.532	-174.787	-155.887	144.983	134.091	122.463	95.471	0.0010086	0.00065432	0.00017842	876.21	8.5799e-06	5.4691e-06	842.08	362.44	7.3636e-06	5.9231e-06	402.34	180.15	142.28	65.303	4.1683e-06	90.733	0.00065251	0.00059449	0.00016717	866.22	6.252e-06	6.4648e-06	831.78	358.26	6.3507e-06	6.4937e-06	397.25	177.63	141.29	64.711	6.3492e-06	90.024	177.668	-7.102	-74.030	-161.189	-35.786	-84.122	-162.303	-156.991	-97.357	-31.200	-158.904	-155.480	-154.925	-149.592	-19.371	-151.895	-8191	255	
12046.689	1	1	0	0	0.12137	0.16962	0.27832	0.17511	0.24607	0.1884	0.2927	0.30062	0.06037	0.20136	0.17255	0.28731	0.076507	0.46253	0.12739	0.07565	-1.8458	-2.0938	-1.8542	-2.3021	-2.0729	-1.8354	-2.5021	-2.1479	-2.2021	-2.4875	-2.0604	-2.5958	-2.1958	-2.1479	-2.425	-2.1188	143.874	12.687	146.600	-159.896	-97.775	86.890	68.983	165.962	31.438	148.251	156.670	112.833	75.951	141.866	120.712	85.077	0.00094971	0.00080366	0.00013783	872.49	5.2136e-06	2.9849e-06	836.79	362.68	4.3426e-06	5.9908e-06	402.82	181.06	145.42	66.954	5.2965e-06	92.724	0.00062417	0.00058756	0.0001618	861.62	6.3796e-06	6.39e-06	830.92	358.55	6.367e-06	6.3683e-06	397.49	179.03	143.32	66.158	6.3173e-06	91.787	179.201	-77.176	-121.857	-161.329	-15.477	-56.876	-162.916	-157.511	-77.892	-38.023	-159.652	-155.810	-155.212	-150.121	-49.401	-152.353	-8191	255	
12046.810	1	1	0	0	0.099787	0.36736	0.098131	0.14057	0.11541	0.050917	0.25686	0.43285	0.16246	0.10894	0.2287	0.1229	0.40022	0.25086	0.17892	0.35179	-1.7396	-2.3125	-1.7896	-2.4938	-2.0875	-1.9333	-2.5687	-2.1271	-2.1354	-2.0833	-1.7917	-2.4583	-2.175	-2.1417	-2.2625	-2.0979	-152.288	-108.332	-105.385	-9.906	31.922	-110.796	96.829	133.578	66.350	-169.466	156.689	66.945	121.763	79.608	119.550	102.658	0.0010222	0.00087517	0.0003137	868.17	5.3978e-06	6.2971e-06	840.14	362.63	7.859e-06	3.3119e-06	404.91	184.3	145.5	68.643	7.434e-06	94.394	0.00062196	0.0005858	0.00016239	858.91	6.3705e-06	6.4688e-06	829.34	358.53	6.5201e-06	6.4821e-06	400.35	181.97	144.39	67.974	6.4431e-06	93.844	180.977	-77.819	-89.436	-161.903	-40.192	-46.035	-163.208	-157.523	-42.098	-58.906	-159.250	-155.663	-155.027	-150.017	-77.300	-152.111	-8191	255	
12046.906	1	1	0	0	0.27235	0.15981	0.31552	0.13874	0.1683	0.026411	0.18652	0.13427	0.21465	0.24783	0.23845	0.2603	0.25462	0.11689	0.07669	0.27051	-1.6167	-2.3854	-1.7583	-2.4292	-2.3021	-1.8375	-2.4813	-2.1917	-2.1042	-2.4646	-1.9625	-2.2375	-2.0938	-2.1813	-2.3917	-2.1771	-134.067	78.226	67.019	91.203	-158.859	8.245	60.497	116.383	-65.798	64.004	113.831	-152.183	182.416	-156.250	-133.945	111.159	0.0010842	0.00073709	0.00018687	860.2	5.9098e-06	7.9314e-06	837.3	362.79	1.7538e-06	1.4575e-05	407.13	186.2	146.69	69.907	5.5751e-06	96.734	0.00063456	0.00059704	0.00016556	854.1	6.581e-06	6.6442e-06	829.8	358.99	6.5709e-06	6.7277e-06	404.01	184.93	145.85	69.422	6.7363e-06	96.142	180.546	-68.045	-86.152	-161.843	-47.769	-38.509	-162.695	-157.438	-94.377	-8.297	-158.881	-155.571	-154.896	-149.732	-41.836	-152.391	-8191	255	
12047.002	1	1	0	0	0.099658	0.28883	0.11586	0.11719	0.259	0.23858	0.04426	0.28358	0.14576	0.064914	0.11919	0.22647	0.22958	0.25138	0.20431	0.52722	-1.3792	-2.2708	-2.0396	-2.3042	-2.2854	-1.9042	-2.4625	-2.3167	-2.0542	-2.1875	-1.8854	-2.2042	-2.2958	-2.0125	-2.3	-2.3208	-82.685	-150.503	-95.241	39.272	180.858	123.558	90.444	131.395	62.501	76.520	-152.756	112.246	-164.107	139.348	-140.700	126.760	0.0010796	0.00067903	0.00017564	855.61	3.7877e-06	5.5832e-06	839.3	363.85	5.3216e-06	1.1238e-05	413.88	188.54	148.22	71.157	1.3336e-05	97.661	0.00066658	0.00061345	0.00017439	851.18	6.8515e-06	6.7912e-06	833.53	358.82	6.8779e-06	6.9143e-06	407.61	186.8	147.28	70.27	6.8749e-06	96.968	179.254	-93.234	-94.934	-161.417	-3.752	-70.169	-162.843	-157.365	-97.677	-58.574	-158.855	-155.706	-155.101	-149.947	-29.812	-152.116	-8191	255	
12047.096	1	1	0	0	0.13587	0.15376	0.033609	0.16898	0.21601	0.22334	0.1144	0.38574	0.15617	0.11323	0.11425	0.38927	0.113	0.17029	0.18814	0.099166	-1.4792	-2.1813	-2.0354	-2.2625	-2.2	-1.8563	-2.4271	-2.4354	-2.1021	-2.2208	-2.1312	-2.0979	-2.4437	-2.0875	-2.1542	-2.4917	-57.299	-82.950	-40.385	-149.168	21.137	-148.049	61.179	119.608	115.420	-81.870	-3.998	146.798	-70.945	47.832	21.169	166.239	0.0011403	0.00072988	0.00026893	856.5	4.1106e-06	4.7279e-06	837.29	362.59	3.2482e-06	1.2379e-05	411.34	189.21	149.66	71.429	7.2182e-06	97.973	0.00067751	0.00062823	0.0001757	848.64	6.8347e-06	6.8206e-06	831.72	358.95	6.8487e-06	6.7933e-06	406.63	187.23	148.28	70.771	6.8558e-06	97.424	180.676	-122.872	-121.687	-161.737	-39.655	-82.045	-162.771	-157.304	-56.941	-12.503	-159.099	-155.488	-154.933	-149.860	-52.650	-152.317	-8191	255	
12047.193	1	1	0	0	0.33829	0.15923	0.19958	0.15298	0.12612	0.17685	0.16906	0.36638	0.076437	0.18943	0.5053	0.26995	0.086127	0.30675	0.11186	0.1954	-1.4375	-2.5083	-2.1312	-1.9333	-2.4417	-1.7437	-2.3604	-2.4437	-1.6896	-2.3458	-2.0563	-2.1292	-2.6771	-1.9375	-2.0229	-2.4958	67.912	-96.924	0.180	89.409	-2.838	-131.012	110.467	125.935	-75.538	-125.269	-87.986	106.511	104.424	163.452	143.795	86.270	0.0010613	0.00082831	0.00028959	847.95	1.8733e-06	4.6588e-06	843.7	364.23	7.51e-06	6.6205e-06	415.72	190.11	149.75	71.958	4.1049e-06	99.057	0.00066899	0.00062676	0.00017407	845.32	6.8485e-06	6.9146e-06	832.2	359.33	6.7877e-06	6.7859e-06	408.49	187.57	148.71	71.236	6.8213e-06	98.133	181.318	-123.400	-80.679	-161.546	-57.271	-43.593	-162.311	-156.568	-75.198	-31.454	-158.283	-154.701	-154.275	-149.233	-40.719	-151.730	-8191	255	
12047.289	1	1	0	0	0.37898	0.13041	0.024472	0.20179	0.22625	0.032538	0.24001	0.37735	0.23476	0.087281	0.14325	0.038772	0.23995	0.32589	0.24216	0.029717	-1.4542	-2.3417	-2.1292	-2.0875	-2.4854	-1.9438	-2.2375	-2.6437	-1.8104	-2.4646	-2.0521	-1.9646	-2.3875	-2.1854	-1.9813	-2.5625	-105.398	131.464	-45.526	150.209	-54.691	140.893	94.839	84.677	-173.129	133.949	173.526	-120.108	167.630	90.946	-58.541	-159.640	0.001124	0.00078293	0.00016679	857.01	8.4725e-06	7.2306e-06	846.17	364.06	8.6189e-06	9.1182e-06	413.46	190.51	150.4	72.378	9.0809e-06	99.797	0.00067085	0.00061982	0.00017249	847.28	6.6829e-06	6.8334e-06	836.29	359.76	6.7668e-06	6.8196e-06	409.78	188.69	148.98	71.672	6.87e-06	98.832	179.333	-83.905	-100.347	-160.924	-84.360	3.645	-162.181	-156.945	-75.515	-31.029	-158.653	-155.053	-154.308	-149.281	-52.219	-151.938	-8191	255	
12047.385	1	1	0	0	0.10225	0.12758	0.052376	0.099865	0.089322	0.081917	0.26225	0.38236	0.21499	0.26686	0.36262	0.26659	0.17117	0.46061	0.11489	0.089158	-1.3687	-2.2208	-2.2979	-1.9583	-2.3354	-2.2396	-2.3	-2.6042	-2.0146	-2.1104	-2.3063	-1.9479	-2.3354	-2.3167	-2.0604	-2.5167	-103.481	36.281	142.374	-141.080	75.482	-6.787	119.788	120.622	40.113	101.501	57.041	138.043	54.512	173.881	144.659	84.421	0.0010639	0.00023845	0.00014953	852.39	3.7909e-06	7.2986e-06	843.16	364.96	5.4369e-06	7.8665e-06	416.88	192.87	149.71	72.815	6.9273e-06	100.76	0.00066784	0.00061369	0.0001698	846.34	6.7274e-06	6.6577e-06	837.69	360.96	6.7169e-06	6.7446e-06	412.99	190.55	149.06	72.197	6.8481e-06	99.756	184.482	-53.190	-95.949	-161.247	19.695	-23.272	-162.518	-156.849	-67.840	-14.106	-159.022	-155.311	-154.902	-149.614	-43.744	-151.804	-8191	255	
12047.481	1	1	0	0	0.38986	0.10368	0.2354	0.26012	0.1427	0.096748	0.24316	0.25639	0.18375	0.018643	0.085762	0.20216	0.24555	0.22789	0.307	0.2785	-1.4708	-2.3875	-2.1729	-1.9896	-2.5417	-2.0271	-2.2083	-2.5625	-2.0563	-2.3229	-2.425	-2.1042	-2.3979	-2.325	-1.9167	-2.4938	138.105	11.578	129.182	104.071	-62.722	-138.213	-131.919	159.463	-52.270	145.190	-100.477	181.941	-153.729	172.768	-98.680	178.271	0.0011518	0.00048705	0.00015042	859.97	7.6005e-06	3.6429e-06	845.86	364.45	4.36e-06	9.3358e-06	414.84	192.92	150.96	72.865	9.2758e-06	99.863	0.00067886	0.00062693	0.00017316	848.79	6.8319e-06	6.9271e-06	839.28	361.52	6.8255e-06	6.8819e-06	412.11	190.4	149.45	72.274	6.8425e-06	99.509	177.364	-112.467	-133.464	-161.332	-42.600	25.247	-162.463	-157.253	-76.276	-49.731	-159.333	-155.376	-154.692	-149.785	-75.915	-151.877	-8191	255	
12047.602	1	1	0	0	0.23673	0.10289	0.077957	0.27762	0.24924	0.078178	0.22507	0.12495	0.069337	0.21542	0.27696	0.25693	0.024376	0.12141	0.27799	0.13483	-1.4646	-1.8292	-2.2229	-2.1729	-2.25	-2.1813	-1.9417	-2.4938	-2.0875	-2.3229	-2.3333	-2.2583	-2.5167	-2.3646	-1.8729	-2.6479	146.476	118.294	-130.056	-168.126	-137.260	-56.546	67.710	146.228	116.513	1.823	-43.246	153.391	126.055	-147.469	76.672	141.066	0.001148	0.00059752	0.00016923	854.49	3.9939e-06	1.0485e-05	841.11	364.58	1.0471e-05	7.0809e-06	414.39	191.33	150.54	72.877	5.0975e-06	100.28	0.00067911	0.00060979	0.00017341	846.36	6.753e-06	6.8464e-06	835.09	360.81	6.8638e-06	6.7873e-06	410.75	189.31	149.28	72.283	6.9647e-06	99.377	179.795	-75.190	-83.599	-161.086	-81.996	-66.747	-162.765	-157.512	-76.818	-9.851	-158.828	-155.350	-154.520	-149.786	-39.430	-152.190	-8191	255	
12047.698	1	1	0	0	0.11218	0.22515	0.24189	0.079955	0.12048	0.30828	0.11549	0.15909	0.092604	0.27412	0.21713	0.29039	0.111	0.34847	0.1103	0.27385	-1.7708	-2.0687	-2.5604	-2.2479	-2.3438	-2.3563	-1.9792	-2.5979	-2.0563	-2.0646	-2.6854	-2.1708	-2.4104	-2.5625	-1.8833	-2.5687	-123.093	-30.553	139.390	-51.699	-161.604	-119.113	-81.585	73.769	89.171	-173.177	-135.022	156.034	-151.544	163.115	-4.012	123.705	0.001093	0.00058237	0.00011128	853.91	1.0869e-05	6.1418e-06	843.58	364.24	6.8403e-06	5.8355e-06	417.1	191.08	151.4	73.191	6.7978e-06	100.35	0.00067556	0.00062429	0.00017681	845.27	6.8688e-06	6.8278e-06	836.26	360.09	6.9593e-06	6.9767e-06	411.44	189.24	150.12	72.334	7.055e-06	99.334	182.917	-83.608	-58.800	-160.745	-7.184	-29.558	-162.147	-156.622	-89.267	-61.611	-158.448	-154.953	-154.409	-149.232	-41.416	-151.538	-8191	255	
12047.770	1	1	0	0	0.061105	0.25128	0.16851	0.019615	0.21014	0.099624	0.21005	0.34416	0.20063	0.07178	0.14111	0.043523	0.28735	0.053552	0.066202	0.23084	-1.6333	-2.0125	-2.4458	-2.1917	-2.2938	-2.3688	-2.0771	-2.5333	-2.3375	-2.1063	-2.5479	-2.4396	-2.3167	-2.5917	-1.9042	-2.2854	-87.968	64.394	24.630	-2.971	-42.523	-86.996	-167.710	-172.188	-45.403	49.224	-157.015	168.106	118.518	118.696	2.263	102.144	0.0010964	0.00031663	0.0001498	856.55	5.6828e-06	1.7918e-06	846.42	365.42	7.4204e-06	1.0443e-05	419.88	192.91	150.38	73.013	4.679e-06	100.52	0.00068552	0.00063648	0.00017572	847.88	6.8663e-06	6.9198e-06	838.62	361.04	6.8805e-06	6.8237e-06	413.41	190.14	149.15	72.404	6.8994e-06	99.769	180.042	-41.582	-70.083	-160.881	-66.999	-2.850	-162.165	-156.574	-93.917	-82.059	-158.647	-154.821	-154.419	-149.245	-22.990	-151.490	-8191	255	
12047.890	1	1	0	0	0.096689	0.18297	0.040593	0.16059	0.33928	0.20648	0.089701	0.11968	0.19085	0.13172	0.19981	0.19979	0.13576	0.1406	0.1153	0.11588	-1.8958	-1.9188	-2.375	-2.0521	-1.9708	-2.2438	-2.1708	-2.55	-2.2687	-1.9688	-2.4604	-2.2979	-2.1375	-2.5958	-1.9292	-2.5979	121.899	-117.394	178.331	-121.018	-93.883	-109.338	93.008	139.331	33.025	-161.796	140.555	117.876	-127.672	121.091	-141.139	99.409	0.0011236	0.00074179	0.00021716	854.08	7.2851e-06	4.8143e-06	852.43	365.98	3.7496e-06	1.2222e-05	419.18	192.38	150.84	72.964	5.4823e-06	100.19	0.00067856	0.00063493	0.0001763	848.28	6.8526e-06	6.9164e-06	841.12	361.71	6.9857e-06	6.935e-06	414.11	190.22	149.76	72.422	7.0854e-06	99.519	183.659	-61.524	-51.740	-160.774	-69.645	-29.491	-161.889	-156.683	-42.018	-24.991	-158.531	-154.763	-154.166	-149.251	-30.648	-151.606	-8191	255	
12047.986	1	1	0	0	0.14525	0.33632	0.063841	0.15011	0.034161	0.11883	0.06577	0.036463	0.14728	0.33598	0.18063	0.21683	0.13025	0.27648	0.28586	0.47776	-2.0062	-1.8917	-2.2792	-2.3271	-2	-2.5125	-2.0104	-2.2875	-2.25	-2.1771	-2.4958	-2.2	-2.1562	-2.5292	-2.0042	-2.3479	104.521	87.215	130.833	-158.900	-17.228	53.416	-30.230	150.919	80.310	138.138	-173.203	149.422	-133.487	-164.139	-142.737	78.732	0.0010398	0.00063272	0.00016541	854.18	4.254e-06	7.302e-06	840.6	364.05	7.4672e-06	1.2592e-06	412.18	190.59	150.79	72.431	6.3286e-06	99.055	0.00069011	0.00063729	0.0001771	848.96	6.9047e-06	7.0716e-06	838.33	361	6.9102e-06	7.0932e-06	410.4	188.09	149.22	71.835	6.9878e-06	98.406	183.729	-92.649	-81.678	-161.068	4.530	-13.749	-162.173	-156.646	-79.047	-34.589	-158.499	-154.682	-154.398	-149.210	-57.390	-151.578	-8191	255	
12048.082	1	1	0	0	0.13352	0.22592	0.20015	0.20686	0.18555	0.14038	0.31343	0.35527	0.026428	0.2979	0.3255	0.021382	0.1791	0.12833	0.29862	0.21326	-1.8667	-1.7563	-2.325	-2.2	-2.0042	-2.4688	-2.1979	-2.2271	-2.3875	-1.9104	-2.3563	-2.2646	-2.0146	-2.4354	-2.2188	-2.1562	13.243	57.757	-36.719	144.516	-62.498	156.679	159.889	-163.307	-95.403	-145.079	123.267	141.840	-33.806	128.760	-121.875	126.218	0.001067	0.00056954	0.00017431	853.92	5.8314e-06	1.1433e-05	846.87	365.12	6.1212e-06	4.6778e-06	408.92	189.93	150.23	72.295	9.1817e-06	98.665	0.00067656	0.00063836	0.00017731	846.7	6.8839e-06	6.9766e-06	838.86	361.33	7.0569e-06	6.9005e-06	409.27	187.98	149.01	71.632	6.9088e-06	98.013	179.798	-74.144	-104.765	-160.832	-72.483	-40.465	-161.827	-157.090	-95.870	-99.259	-159.915	-156.150	-155.582	-150.448	-70.588	-152.749	-8191	255	
12048.201	1	1	0	0	0.045791	0.25255	0.030026	0.18518	0.17443	0.16884	0.20278	0.27228	0.19126	0.19558	0.12911	0.17023	0.27277	0.3503	0.40632	0.28988	-1.8979	-1.8583	-2.3104	-2.3833	-2.0604	-2.1188	-2.1958	-2.3021	-2.5104	-1.9979	-2.3208	-2.1833	-2.1146	-2.6458	-2.0271	-2.0167	66.175	14.557	27.277	-72.012	-73.955	-102.735	-167.803	143.422	28.829	-83.999	-14.946	-173.148	171.673	153.673	-29.926	132.996	0.0011525	0.0010271	3.0735e-05	856.44	2.2065e-06	4.2696e-06	842.31	364.08	3.2887e-06	4.4585e-06	415.47	190.63	149.61	72.577	2.4529e-06	99.162	0.00068792	0.00063913	0.00017579	848.86	6.9486e-06	6.9109e-06	835.99	361.3	6.8705e-06	6.9112e-06	411.73	188.32	149.08	71.91	7.0115e-06	98.671	183.011	-89.149	2.364	-161.797	-44.680	19.196	-163.081	-157.687	-73.250	8.065	-159.085	-155.681	-154.760	-149.822	-29.782	-152.224	-8191	255	
12048.297	1	1	0	0	0.19765	0.16379	0.08322	0.08285	0.12955	0.33492	0.12239	0.43579	0.16963	0.31969	0.14339	0.2053	0.058907	0.28284	0.15468	0.4775	-2.0396	-1.9771	-2.3354	-2.3312	-1.8833	-2.3187	-2.2938	-2.0229	-2.3229	-1.9333	-2.1708	-2.6063	-1.9104	-2.3896	-2.2313	-2.0646	177.512	147.879	103.446	-9.107	-135.213	-91.934	156.871	105.805	138.159	-115.257	-87.552	164.238	117.649	131.820	129.913	104.898	0.0011278	0.00076689	0.00015156	859.94	7.2542e-06	5.951e-06	841.29	366.11	6.4459e-06	7.4035e-06	414.77	189.98	149.36	72.02	4.5606e-06	99.573	0.00069066	0.00064873	0.00017817	850.33	7.0045e-06	7.0949e-06	837.51	361.81	7.0755e-06	6.9477e-06	410.98	188.23	148.71	71.543	6.9041e-06	98.564	180.567	-104.425	-105.437	-161.746	-90.356	-31.829	-162.692	-157.630	-96.447	-48.247	-159.320	-155.683	-155.198	-150.268	-76.568	-152.497	-8191	255	
12048.394	1	1	0	0	0.30144	0.31186	0.22263	0.12055	0.055329	0.19723	0.021944	0.30187	0.10175	0.10247	0.4582	0.17189	0.21343	0.4207	0.23757	0.4229	-1.8271	-1.8	-2.1542	-2.3979	-1.8937	-2.3146	-2.4625	-2.0938	-2.3083	-1.975	-2.0187	-2.4667	-1.7542	-2.4958	-2.0938	-2.2646	124.313	118.078	163.861	-76.697	-3.179	68.650	67.240	-152.340	-59.668	29.117	176.370	-90.545	-154.567	159.156	-124.821	121.607	0.0010841	0.00080767	0.00010093	857.5	3.6538e-06	3.6671e-06	843.71	365.04	6.7212e-06	5.7151e-06	415.19	189.63	149.18	71.653	5.9852e-06	97.879	0.00068219	0.00063681	0.00017659	848.8	6.8843e-06	6.825e-06	836.15	361.38	6.7947e-06	6.8825e-06	409.83	187.21	148.52	71.059	7.0215e-06	96.997	184.255	-76.715	-98.302	-162.268	-8.345	-38.385	-163.207	-157.756	-81.916	-42.620	-159.609	-155.712	-155.178	-150.229	10.876	-152.557	-8191	255	
12048.490	1	1	0	0	0.018957	0.129	0.09214	0.092647	0.18849	0.10841	0.25776	0.30877	0.23094	0.1362	0.10279	0.35488	0.3214	0.11658	0.1903	0.23074	-2.0521	-2.0646	-1.85	-2.4958	-1.7875	-2.1125	-2.3583	-1.9312	-2.3146	-2.1708	-1.95	-2.6167	-1.9833	-2.4375	-2.325	-1.9458	155.530	96.012	123.216	-146.777	65.987	-56.341	57.869	121.035	114.948	-120.269	7.991	128.494	93.709	70.119	68.660	130.650	0.0011186	0.0010381	0.00020858	854.6	5.098e-06	2.3476e-06	840.21	364.13	8.3845e-06	4.9242e-06	412.45	188.3	149.36	71.267	2.969e-06	97.501	0.00068211	0.00063451	0.00017742	849.04	6.9824e-06	6.8989e-06	833.73	360.71	6.9523e-06	6.9676e-06	407.75	186.11	148.36	70.821	6.9505e-06	96.664	180.576	-87.561	-119.981	-162.183	-83.493	-38.040	-163.108	-157.754	-97.530	-27.005	-159.443	-155.680	-155.438	-150.003	-97.328	-152.415	-8191	255	
12048.586	1	1	0	0	0.066582	0.28105	0.36155	0.26191	0.15843	0.11389	0.378	0.12066	0.19457	0.15032	0.14778	0.39514	0.058306	0.28055	0.16351	0.15241	-1.7375	-2.0708	-1.8521	-2.5042	-2.0208	-2.0854	-2.4562	-1.9333	-2.2354	-2.25	-1.8062	-2.4146	-2.0938	-2.4292	-2.3479	-2.1125	148.264	-108.537	-134.111	-21.930	-54.896	181.189	91.501	177.742	161.496	-67.414	11.656	130.266	-42.277	126.941	-87.581	129.826	0.0010132	0.00084757	0.00030153	857.99	7.8673e-06	4.7301e-06	842.81	363.31	3.4782e-06	8.8227e-06	412.4	188.39	148.89	70.951	7.037e-06	96.998	0.00067958	0.00064236	0.00018081	849.83	6.9461e-06	7.0945e-06	834.68	360.5	7.0226e-06	7.0545e-06	408.22	186.19	148.08	70.513	7.093e-06	96.436	178.939	-84.540	-90.252	-161.851	-46.878	-75.239	-162.905	-157.549	-71.463	-65.663	-159.284	-155.859	-155.473	-149.926	-35.890	-152.406	-8191	255	
12048.682	1	1	0	0	0.23163	0.19847	0.17202	0.046554	0.21518	0.17851	0.061908	0.23194	0.046684	0.24645	0.18837	0.22272	0.15529	0.26575	0.24278	0.39243	-1.6458	-2.2208	-1.8771	-2.4229	-2.0375	-1.9729	-2.6208	-2.1063	-1.9708	-2.2375	-2.1292	-2.6688	-2.1	-2.2604	-2.4958	-2.1562	-40.314	-145.431	-9.773	-60.591	28.334	170.460	-101.959	132.112	12.539	26.190	-135.602	102.388	57.510	103.683	-161.992	165.568	0.00098982	0.00023995	0.0001673	850.36	4.7831e-06	7.9225e-06	844.84	364.62	5.5164e-06	8.0955e-06	413.82	188.23	149.87	71.536	4.745e-06	96.803	0.00068524	0.0006422	0.00018027	850.63	6.9113e-06	7.0094e-06	837.7	361.99	6.9495e-06	6.9519e-06	409.63	186.07	148.61	70.561	7.0107e-06	96.377	176.606	-84.543	-117.184	-161.988	-70.814	-48.083	-162.852	-157.540	-66.005	-56.068	-159.382	-155.644	-154.863	-149.940	-35.692	-152.349	-8191	255	
12048.778	1	1	0	0	0.055449	0.16176	0.35739	0.42079	0.10994	0.088405	0.25725	0.39039	0.064175	0.02964	0.20023	0.32125	0.19272	0.20678	0.21313	0.22828	-1.6938	-2.2438	-1.7938	-2.1771	-2.25	-2.0021	-2.4021	-2.2583	-2.0042	-2.4	-1.9542	-2.6229	-2.2542	-2.3	-2.5125	-2.3417	139.618	28.734	182.334	-172.555	178.937	-68.113	137.620	177.394	147.657	159.374	165.341	157.530	-122.827	123.604	-165.781	-167.581	0.0011033	0.00057641	6.048e-05	858.13	5.1635e-06	7.1977e-06	848.15	366.35	3.8879e-06	6.3471e-06	416.09	188.33	149.74	70.86	5.1586e-07	97.321	0.00068759	0.00064696	0.00017985	851.42	7.0244e-06	7.0981e-06	841.1	362.93	6.9626e-06	7.0571e-06	411.84	186.3	148.76	70.493	6.9582e-06	96.335	181.551	-105.484	-131.224	-161.688	0.851	-54.775	-162.757	-157.529	-82.619	2.687	-159.537	-155.729	-154.881	-150.025	-109.157	-152.199	-8191	255	
12048.899	1	1	0	0	0.034232	0.15779	0.12306	0.13019	0.28635	0.1619	0.1246	0.28507	0.085377	0.12886	0.16077	0.27647	0.20215	0.32707	0.12317	0.21482	-1.8229	-2.1896	-1.8833	-2.4979	-2.2229	-1.9271	-2.4062	-2.2708	-2.125	-2.3521	-2.025	-2.45	-2.2896	-1.9917	-2.3958	-2.4313	90.494	134.466	-45.903	94.925	151.017	-77.357	123.361	134.565	67.935	118.160	87.814	119.829	29.501	148.301	18.870	103.156	0.0011165	0.00077502	0.00019497	858.28	8.7592e-06	3.8611e-06	843.76	366.49	8.9289e-06	1.4434e-06	409.77	187.17	148.63	70.932	3.2449e-06	96.418	0.00068548	0.00064493	0.00018077	852.55	7.0117e-06	7.0534e-06	837.24	362.33	7.0304e-06	7.0363e-06	408.45	185.07	147.84	70.327	7.092e-06	95.681	181.555	-88.003	-53.142	-161.471	-34.784	29.048	-163.100	-157.342	-47.605	-28.649	-158.915	-155.927	-155.232	-150.157	-132.068	-152.155	-8191	255	
12048.993	1	1	0	0	0.10361	0.16378	0.066696	0.078752	0.15787	0.44217	0.19912	0.16493	0.34866	0.18974	0.29276	0.12222	0.20675	0.25297	0.25675	0.024914	-1.5771	-2.3833	-2.05	-2.2687	-2.2583	-1.9833	-2.4417	-2.2271	-2.0354	-2.4792	-2.0458	-2.175	-2.3125	-2.0958	-2.1083	-2.2896	-132.424	184.162	161.530	54.325	121.458	-14.795	158.615	33.401	-167.641	63.547	130.349	-119.648	-63.527	163.109	-63.586	148.700	0.0010983	0.00065528	0.00019497	862.65	5.5284e-06	3.1047e-06	846.61	366.46	5.9468e-06	8.0583e-06	408.27	186.98	149.58	71.181	9.7547e-06	96.629	0.00068669	0.00065274	0.00018023	855.29	7.101e-06	7.1018e-06	839.24	362.8	7.1501e-06	7.1396e-06	408.55	184.89	148.41	70.447	7.1356e-06	95.849	181.441	-88.735	-88.400	-161.553	-54.769	10.131	-162.915	-157.559	-73.581	-62.373	-159.220	-155.499	-154.985	-150.053	-25.066	-152.146	-8191	255	
12049.067	1	1	0	0	0.030369	0.19605	0.1602	0.25404	0.25015	0.077134	0.37814	0.24554	0.19214	0.15913	0.1584	0.33131	0.033525	0.34563	0.28096	0.42649	-1.4583	-2.2208	-2.0854	-2.0625	-2.0917	-1.85	-2.5042	-2.2188	-1.8729	-2.4104	-1.9729	-2.1542	-2.4354	-2.0458	-2.0958	-2.5021	-156.158	94.334	122.661	-116.895	-31.506	-99.223	107.740	84.398	-50.867	178.498	20.308	155.224	177.183	161.382	50.184	114.979	0.0010436	0.0004778	0.00025761	861.54	7.8505e-06	9.2403e-06	844.67	365.74	4.7277e-06	8.3991e-06	413.8	187.46	149.62	70.963	8.6963e-06	96.671	0.00070133	0.00065109	0.00018723	853.3	7.1739e-06	7.3079e-06	839.42	362.48	7.1342e-06	7.1982e-06	410.14	185.35	148.75	70.581	7.2635e-06	95.993	181.606	-107.163	-85.524	-161.457	-26.430	-56.907	-162.899	-157.387	-89.645	-41.847	-159.038	-155.561	-154.855	-149.849	-78.777	-152.072	-8191	255	
12049.163	1	1	0	0	0.054312	0.13001	0.2001	0.1438	0.41121	0.28593	0.24467	0.4007	0.096393	0.14526	0.21419	0.42925	0.27409	0.23231	0.058127	0.35968	-1.2708	-2.5917	-1.8875	-1.9708	-2.2271	-2.0583	-2.2396	-2.3292	-1.6646	-2.275	-2.1479	-2.0958	-2.2188	-1.9062	-2.0417	-2.5687	38.193	-136.626	150.115	-171.822	-12.326	-8.829	134.548	152.909	170.235	158.332	-112.901	172.789	132.599	144.882	103.109	162.206	0.0010421	0.00041928	0.00032828	859	8.4528e-06	6.9429e-06	849.42	365.69	7.2171e-06	9.5601e-06	415.99	187.3	148.73	71.123	6.8048e-06	96.951	0.00070357	0.0006692	0.00018649	854.29	7.2867e-06	7.2976e-06	839.88	362.17	7.2778e-06	7.2708e-06	410.81	185.31	148.47	70.606	7.2425e-06	96.296	179.171	-91.423	-82.802	-161.517	-26.485	-15.769	-162.850	-157.492	-86.975	-23.918	-159.151	-155.311	-154.544	-149.899	-40.434	-152.145	-8191	255	
12049.282	1	1	0	0	0.26223	0.090305	0.096287	0.083234	0.1957	0.36005	0.12041	0.14693	0.10112	0.13927	0.2553	0.17798	0.26584	0.075528	0.15301	0.087519	-1.3125	-2.3042	-2.0604	-2.0125	-2.4458	-1.9625	-2.1521	-2.3771	-1.8937	-2.2562	-2.0792	-2.0792	-2.4042	-2.1188	-2.0583	-2.5833	-66.141	118.332	8.082	-137.687	-125.676	-66.111	-114.837	161.560	47.377	-149.674	95.851	79.713	98.093	-134.928	-2.269	-102.044	0.0010593	0.00061419	0.00020824	861.39	5.7621e-06	6.7291e-06	844.75	365.89	3.9413e-06	1.4023e-05	410.22	185.45	148.75	70.631	6.3739e-06	95.961	0.00070237	0.00067245	0.00018716	853.28	7.3169e-06	7.3866e-06	838.45	361.98	7.4242e-06	7.4284e-06	408.95	184.3	148.3	70.307	7.4544e-06	95.462	180.113	-69.883	-90.063	-161.755	-66.380	-30.226	-162.486	-157.349	-85.149	-31.439	-159.725	-155.128	-154.840	-149.920	-24.657	-152.190	-8191	255	
12049.378	1	1	0	0	0.19725	0.065971	0.10439	0.08884	0.2373	0.15884	0.12204	0.055523	0.13931	0.05581	0.16691	0.18296	0.056596	0.22209	0.023601	0.36811	-1.2646	-2.2729	-2.1542	-1.9542	-2.3583	-2.1063	-2.1042	-2.5021	-1.8312	-2.1833	-2.125	-2.0146	-2.2875	-2.35	-1.9	-2.4688	-127.849	-130.901	-63.571	166.874	72.305	-129.024	72.298	11.852	-93.892	0.535	-163.800	81.955	91.435	149.303	-124.655	151.687	0.0010658	0.001244	0.00014838	856.03	3.7195e-06	5.32e-06	841.82	364.34	7.515e-06	1.1903e-05	406.81	185.18	149.55	71.1	1.9776e-06	96.266	0.0007272	0.0006838	0.00019165	851.78	7.4465e-06	7.3972e-06	834.33	360.8	7.4829e-06	7.4088e-06	406.41	184.23	148.55	70.554	7.5015e-06	95.736	181.226	-34.599	-109.820	-161.327	-42.077	-37.470	-162.718	-157.136	-121.458	-35.916	-159.085	-155.534	-154.592	-149.508	-26.137	-152.138	-8191	255	
12049.474	1	1	0	0	0.22034	0.0041448	0.25577	0.1829	0.12595	0.3782	0.36465	0.26973	0.20455	0.031422	0.10609	0.39611	0.10728	0.22519	0.10103	0.54554	-1.55	-2.2771	-2.1146	-1.8062	-2.3083	-2.0896	-2.0938	-2.5062	-2.0354	-1.9583	-2.1917	-2.0479	-2.2542	-2.2792	-1.9292	-2.7062	5.890	120.386	-132.665	-161.434	169.919	-63.596	108.546	157.840	-59.377	136.014	-88.399	151.339	159.519	106.665	78.243	107.845	0.0010983	0.0011714	0.00017501	859.14	7.2505e-06	9.525e-06	836.06	365.29	8.9351e-06	2.8351e-06	408.18	186.82	149.69	71.296	9.6363e-06	96.674	0.00073118	0.00069185	0.00019505	852.25	7.5277e-06	7.6805e-06	834.28	361.3	7.6275e-06	7.4698e-06	407.5	185.02	148.48	70.797	7.5422e-06	96.113	179.562	-79.509	-89.816	-161.299	-32.331	-89.080	-162.236	-157.169	-80.436	-56.860	-158.958	-155.430	-154.451	-149.409	-72.917	-152.159	-8191	255	
12049.570	1	1	0	0	0.15617	0.26348	0.17635	0.18171	0.054652	0.18581	0.35213	0.10945	0.22507	0.057959	0.23286	0.4694	0.16979	0.20242	0.2759	0.11775	-1.5729	-2.2146	-2.3208	-1.9646	-2.1708	-1.9667	-2.1083	-2.5333	-1.9062	-2.1354	-2.25	-1.9208	-2.1542	-2.3396	-1.9188	-2.5938	95.683	-87.885	-13.819	87.821	141.018	141.328	137.425	-156.775	64.747	-103.986	125.956	158.901	-56.112	88.593	-24.692	-146.088	0.0010974	0.00071928	0.00016047	853.3	2.923e-06	2.0838e-06	843.38	364.56	5.8714e-06	3.1188e-06	412.45	187.94	149.91	71.37	4.3717e-06	97.354	0.00072442	0.00068101	0.00019015	849.61	7.3852e-06	7.4727e-06	835.33	361.56	7.4581e-06	7.5393e-06	409.27	185.65	148.81	70.808	7.4644e-06	96.542	182.040	-94.753	-137.142	-161.523	-97.087	48.308	-162.581	-157.123	-105.041	-44.285	-158.814	-155.181	-154.441	-149.698	-42.284	-151.866	-8191	255	
12049.691	1	1	0	0	0.28284	0.12651	0.25739	0.42821	0.22439	0.25594	0.046534	0.1413	0.043843	0.072374	0.067296	0.28727	0.16186	0.12996	0.12355	0.29443	-1.6437	-1.9396	-2.3917	-1.9396	-2.1646	-2.2604	-2.1021	-2.5125	-2.0146	-2.1646	-2.2562	-1.9042	-2.2854	-2.4188	-1.775	-2.6813	-138.531	43.034	97.183	99.129	90.699	27.117	-61.436	111.065	-100.536	-30.609	-90.393	173.543	114.631	176.709	105.667	125.623	0.0011126	0.000731	0.00014914	858.21	1.0848e-05	3.8142e-06	849.12	364.46	6.2362e-06	4.8011e-06	415.26	187.49	150.54	71.485	6.3568e-06	97.376	0.00071008	0.00068522	0.00018558	852.22	7.1986e-06	7.3972e-06	839.44	361.59	7.2953e-06	7.2744e-06	410.09	185.71	149.28	70.91	7.2997e-06	96.353	180.869	-71.886	-121.235	-161.408	-46.527	0.462	-162.663	-157.169	-49.138	-31.008	-158.417	-155.052	-155.001	-149.437	-72.156	-151.925	-8191	255	
12049.762	1	1	0	0	0.12738	0.15168	0.036129	0.39592	0.20262	0.15394	0.2581	0.31136	0.25695	0.16312	0.25566	0.22891	0.24537	0.12277	0.087912	0.34588	-1.7417	-2.0271	-2.2708	-2.2917	-2.2188	-2.3375	-1.9667	-2.5062	-2.0708	-1.8687	-2.2854	-1.9833	-2.0062	-2.3792	-1.9688	-2.4167	102.997	-10.336	-103.245	174.869	103.981	57.545	180.224	51.544	-3.187	-106.400	-131.930	152.842	111.421	-96.400	134.066	152.497	0.0010294	0.0007791	8.3608e-05	857.23	8.2734e-06	4.1255e-06	843.95	365.99	6.4184e-06	6.9366e-06	411.24	187.75	149.08	71.479	5.5381e-06	96.749	0.00070845	0.00066842	0.00018869	850.75	7.2785e-06	7.3159e-06	835.54	362.21	7.4264e-06	7.3415e-06	408.26	185.7	149.29	71.025	7.5273e-06	96.128	180.381	-68.543	123.844	-161.248	-63.195	-89.936	-162.763	-156.901	-97.636	-35.992	-158.606	-154.999	-154.238	-149.617	-93.178	-152.034	-8191	255	
12049.883	1	1	0	0	0.22633	0.056615	0.09672	0.25422	0.064515	0.11826	0.13521	0.32486	0.27536	0.061339	0.12822	0.2841	0.088736	0.34692	0.34671	0.41158	-1.6958	-1.875	-2.1292	-1.9896	-2.0563	-2.15	-2.1125	-2.2604	-2.1917	-1.8	-2.5729	-2.3	-2	-2.2812	-1.9354	-2.3042	79.858	50.996	-52.492	178.855	-30.248	-169.558	111.362	80.284	180.571	-108.577	175.805	139.017	-109.745	157.067	-26.367	113.267	0.0010227	0.00041648	0.00022118	855.17	3.5087e-06	9.3271e-06	841.7	365.46	3.6228e-06	1.5152e-05	411.88	187.76	150.42	71.315	3.7861e-06	97.076	0.00072714	0.00068224	0.00018971	852.2	7.3961e-06	7.4638e-06	835.3	362.05	7.5505e-06	7.4996e-06	409.37	185.45	149.16	70.771	7.4509e-06	96.114	182.066	-140.881	-81.190	-161.237	-85.943	-12.784	-162.416	-156.935	-103.455	-35.417	-158.505	-155.196	-154.396	-149.411	-106.039	-151.660	-8191	255	
12049.979	1	1	0	0	0.30421	0.22633	0.18677	0.18133	0.10459	0.14493	0.45407	0.43682	0.23436	0.16293	0.14436	0.03832	0.30811	0.36294	0.10166	0.20023	-1.9917	-1.7083	-2.3271	-2.2042	-2.0042	-2.1979	-2.2917	-2.4229	-2.3292	-1.8375	-2.4896	-2.1792	-1.9875	-2.4479	-1.9604	-2.2313	169.221	46.621	-68.558	143.780	-149.471	138.633	91.362	99.152	14.245	-50.833	159.783	0.201	-137.491	-149.186	-145.324	107.007	0.0010436	0.0014341	0.00019936	860.9	6.277e-06	4.6918e-06	843.16	365.68	1.5429e-06	3.5817e-06	408.56	187.52	149.01	71.445	6.7651e-06	96.823	0.0007313	0.00070003	0.00019333	853.25	7.4972e-06	7.649e-06	837.13	361.97	7.5884e-06	7.5026e-06	408.39	185.41	148.83	70.831	7.5849e-06	95.923	179.442	-88.621	-73.582	-161.114	-40.279	-17.380	-162.322	-156.834	-81.087	-16.902	-158.958	-155.125	-154.211	-148.896	-10.560	-151.085	-8191	255	
12050.074	1	1	0	0	0.081817	0.094099	0.26162	0.17675	0.23276	0.19819	0.32231	0.13839	0.21906	0.19542	0.34237	0.36314	0.19826	0.11021	0.10764	0.46688	-1.7625	-1.925	-2.1333	-2.1167	-1.8458	-2.6063	-2.0938	-2.0917	-2.4333	-1.95	-2.3271	-2.2521	-2.0042	-2.4229	-2.2896	-2.0458	0.519	-173.617	132.933	169.831	-169.361	-3.128	135.915	-81.442	112.896	-79.343	-173.417	-160.202	106.349	-157.690	137.038	139.894	0.0011299	0.00087375	0.0002619	858.84	6.8677e-06	5.101e-06	845.17	366.78	7.3305e-06	1.0234e-05	412.61	187.88	149.79	71.379	1.0287e-05	96.81	0.00073534	0.00069283	0.00019504	852.87	7.444e-06	7.6022e-06	837.45	361.96	7.4656e-06	7.5525e-06	408.94	185.7	149.17	70.783	7.545e-06	95.878	181.634	-91.156	-76.027	-160.662	-45.323	-38.628	-161.896	-156.324	-47.843	-43.558	-157.828	-154.626	-154.090	-148.828	-110.585	-151.223	-8191	255	
12050.172	1	1	0	0	0.28748	0.12437	0.091167	0.12329	0.15096	0.19811	0.11244	0.25977	0.16386	0.20743	0.068288	0.16419	0.22165	0.23428	0.17856	0.1678	-1.8458	-1.8333	-2.0396	-2.2583	-1.9333	-2.3667	-2.2687	-2.1188	-2.3729	-1.9354	-2.2479	-2.3042	-1.7667	-2.5	-2.0167	-2.1188	-75.780	185.224	173.641	132.345	52.702	-0.294	134.346	148.470	-90.083	31.181	142.426	184.756	-133.717	163.585	125.283	-162.695	0.0010755	0.00082787	0.00016597	856.46	4.2513e-06	3.3258e-06	841.19	364.09	5.7944e-06	5.0768e-06	412.95	186.34	148.8	71.53	8.9035e-06	96.462	0.00073083	0.00069754	0.00019083	850.08	7.4699e-06	7.5551e-06	834.21	361.42	7.6184e-06	7.5484e-06	408.31	184.79	149.08	70.925	7.6816e-06	95.583	183.829	-62.824	-126.305	-160.779	-54.235	-78.420	-161.885	-156.191	-57.844	-17.724	-158.134	-154.435	-153.931	-148.772	-61.020	-151.111	-8191	255	
12050.290	1	1	0	0	0.16732	0.21546	0.36576	0.13966	0.26559	0.057211	0.14948	0.28402	0.24284	0.2087	0.082622	0.17271	0.10344	0.13813	0.25205	0.023954	-1.9396	-2.0042	-2.2604	-2.5104	-1.7687	-2.1937	-2.0875	-2.0396	-2.2875	-1.7812	-2.3042	-2.3312	-1.5604	-2.3479	-2.1042	-2.0875	-90.177	-22.840	152.745	174.857	-105.951	57.427	137.785	-38.446	-45.253	-129.539	103.207	134.045	95.017	146.428	-135.510	30.307	0.001044	0.0011653	0.00010257	854.49	8.4694e-06	2.9776e-06	837.04	363.83	5.0626e-06	6.6316e-06	412.56	187.34	149.57	71.484	5.6333e-06	96.095	0.00072599	0.00069662	0.00019334	849.81	7.588e-06	7.462e-06	832.56	361.15	7.4897e-06	7.5689e-06	408.1	185.08	149.22	70.942	7.6363e-06	95.542	178.679	-90.331	-62.893	-160.535	-53.924	21.625	-161.674	-156.223	-52.465	-47.443	-158.488	-154.698	-153.620	-149.080	-69.836	-152.032	-8191	255	
12050.362	1	1	0	0	0.14253	0.069776	0.024723	0.11056	0.047111	0.12163	0.30371	0.29904	0.21777	0.25629	0.19306	0.06023	0.12563	0.19013	0.12189	0.061287	-1.9458	-2.2292	-1.8854	-2.4083	-2.0104	-2.2313	-2.3271	-2.0833	-2.1958	-2.0458	-2.1896	-2.5521	-1.8979	-2.4958	-2.2208	-1.9604	-2.294	-84.218	-96.313	-53.349	-23.876	81.101	80.099	79.923	-167.082	90.215	87.175	-152.912	57.827	156.000	-69.570	184.836	0.0010907	0.00091105	7.9679e-05	858.68	1.4309e-06	5.868e-06	836.67	364.7	7.1835e-06	8.8607e-06	410.39	186.6	148.58	71.19	7.1856e-06	96.098	0.00073067	0.0007016	0.00019343	850.84	7.6625e-06	7.7119e-06	833.91	361.4	7.6038e-06	7.6387e-06	408.01	184.78	148.87	70.783	7.8213e-06	95.517	180.357	-79.141	-166.496	-161.234	-56.313	-58.099	-162.585	-156.761	-79.179	8.232	-158.622	-155.231	-154.386	-149.295	-80.751	-151.412	-8191	255	
12050.458	1	1	0	0	0.089397	0.24126	0.14953	0.31536	0.088898	0.074813	0.11859	0.14806	0.15652	0.092533	0.035892	0.24684	0.28368	0.27811	0.11326	0.23425	-1.9271	-1.8667	-1.775	-2.3604	-1.9354	-2.325	-2.4479	-1.9229	-2.2104	-2.2104	-1.8958	-2.5021	-1.9813	-2.2021	-2.3271	-1.9417	32.178	-49.344	133.581	178.922	36.060	-156.619	84.317	184.351	121.909	-145.810	-118.529	113.162	-4.069	180.573	-121.502	100.572	0.0010843	0.00052837	0.00016477	856.23	4.0149e-06	8.1722e-06	835.6	365.41	1.0303e-05	4.1446e-06	410.12	188.02	150.04	71.018	7.2577e-06	96.489	0.00074955	0.00070882	0.00019899	850.11	7.8318e-06	7.7997e-06	831.4	361.22	7.691e-06	7.7761e-06	408.7	185.67	149.06	70.812	7.728e-06	95.671	179.869	-57.797	-103.865	-160.835	-98.164	-23.430	-162.057	-156.438	-82.545	-33.676	-158.362	-154.476	-153.844	-148.959	-92.025	-151.205	-8191	255	
12050.579	1	1	0	0	0.29601	0.05581	0.017532	0.29176	0.12622	0.40751	0.35908	0.37319	0.065859	0.19387	0.37388	0.21573	0.26096	0.08484	0.27655	0.52714	-1.7729	-1.9917	-1.8146	-2.5271	-1.775	-2.0125	-2.5292	-2.0521	-2.2062	-2.2354	-1.9438	-2.6479	-2.15	-2.1604	-2.2958	-2.1458	-64.273	-109.881	117.490	-168.624	175.280	78.108	112.736	105.280	99.911	93.314	-31.947	-146.199	4.257	169.914	104.789	150.634	0.001088	0.0006295	0.00018437	853.11	5.1582e-06	9.0643e-06	840.37	364.07	1.0049e-05	6.4204e-06	407.94	186.21	149.73	70.959	1.0059e-05	95.686	0.00075457	0.00071306	0.00019937	849.11	7.7612e-06	7.774e-06	832.18	360.81	7.7017e-06	7.5439e-06	407.09	184.11	149.17	70.504	7.6402e-06	94.636	184.248	-55.691	-109.521	-160.720	-37.829	20.796	-161.989	-156.615	-96.956	6.371	-157.657	-154.550	-153.903	-148.845	-56.903	-151.235	-8191	255	
12050.675	1	1	0	0	0.047745	0.015232	0.04488	0.033579	0.050375	0.40403	0.19283	0.088504	0.26869	0.22874	0.1833	0.38063	0.19449	0.30568	0.028953	0.14837	-1.7479	-2.1125	-1.7375	-2.2438	-1.9688	-1.7938	-2.4625	-2.0354	-2.2562	-2.2167	-1.9062	-2.4625	-1.9875	-2.1042	-2.4042	-2.1521	53.194	-170.520	-24.267	41.190	144.542	178.952	143.813	182.151	118.525	16.298	93.223	161.551	61.122	141.843	53.143	134.747	0.00099876	0.0012	0.00018542	858.44	4.3114e-06	3.5394e-06	835.59	365.69	4.1898e-06	4.8721e-06	410.28	186.25	149.79	71.377	5.592e-06	95.608	0.00073741	0.00070693	0.00019368	847.92	7.4899e-06	7.7065e-06	829.19	361.12	7.6019e-06	7.6481e-06	407	184.24	149.06	70.565	7.5715e-06	94.749	180.595	-73.653	-94.616	-160.550	-91.318	56.631	-161.512	-156.173	-88.523	-18.402	-158.216	-155.011	-154.157	-149.078	-79.417	-151.427	-8191	255	
12050.771	1	1	0	0	0.21696	0.17282	0.14206	0.095498	0.20535	0.068765	0.16617	0.20308	0.21365	0.16237	0.084981	0.21604	0.066843	0.13481	0.27708	0.35005	-1.8438	-2.2854	-1.925	-2.2896	-2.0729	-1.9937	-2.5438	-2.2354	-2.2375	-2.3833	-1.8271	-2.4792	-2.2396	-2.1646	-2.4625	-2.3312	100.821	79.671	68.395	-1.919	-43.104	7.175	172.916	170.043	-107.846	-118.563	100.104	158.875	-16.143	154.268	-87.746	139.157	0.0010166	0.00074916	0.00024964	851.04	5.0551e-06	7.2883e-06	836.82	365.13	6.9633e-06	7.5598e-06	412.87	187.31	149.93	72.346	3.5402e-06	97.817	0.00072685	0.00069748	0.00019401	846.1	7.5242e-06	7.6071e-06	830.06	361.06	7.4729e-06	7.5317e-06	408.48	185.31	149.32	71.576	7.5249e-06	96.591	181.719	-93.777	-48.367	-160.579	-3.753	-42.648	-161.877	-156.239	-76.500	-43.115	-158.079	-154.359	-153.610	-148.760	-23.371	-151.316	-8191	255	
12050.867	1	1	0	0	0.21785	0.15988	0.085398	0.2301	0.1232	0.17891	0.16281	0.42625	0.25752	0.20813	0.0092808	0.18577	0.17871	0.28122	0.18173	0.21301	-1.6604	-2.3292	-2.0042	-2.2313	-2.3646	-1.9625	-2.7021	-2.1917	-1.9771	-2.3438	-1.8625	-2.4354	-2.2958	-2.1021	-2.2958	-2.2625	49.161	-11.243	-119.793	127.120	-36.405	-95.933	140.956	108.779	100.842	-62.352	58.422	143.765	-155.710	166.679	-39.136	-154.559	0.0010513	0.00051779	0.00015323	855.11	6.3815e-06	1.2493e-06	836.5	365.49	6.0414e-06	2.9788e-06	411.98	189.22	149.85	72.547	3.7205e-06	97.94	0.00072578	0.00069448	0.00019177	845.64	7.4828e-06	7.6095e-06	832.59	361.53	7.6324e-06	7.6121e-06	410.04	187.09	149.82	71.799	7.6013e-06	96.996	178.454	-128.902	-24.912	-160.805	-103.561	-16.487	-161.499	-156.278	-87.161	-9.150	-158.574	-154.347	-153.751	-148.394	-82.970	-151.049	-8191	255	
12050.963	1	1	0	0	0.18515	0.1216	0.12346	0.083806	0.13446	0.24715	0.2368	0.11647	0.11155	0.056086	0.020207	0.050283	0.1442	0.11322	0.070116	0.24622	-1.5333	-2.2896	-1.6896	-2.2229	-2.1771	-1.9396	-2.4	-2.25	-1.9208	-2.3458	-1.9042	-2.2375	-2.325	-1.9312	-2.4021	-2.1063	17.148	-33.861	-150.416	171.027	-38.462	0.969	135.925	172.162	-30.669	-171.954	30.062	65.222	165.273	100.238	-87.648	94.980	0.0010626	0.00097145	7.6109e-05	853.15	3.0408e-06	9.1822e-06	840.42	364.46	2.7656e-06	1.2891e-05	413.86	188.16	149.65	72.353	9.4475e-06	97.025	0.00073313	0.00069044	0.00019378	847.01	7.6368e-06	7.6819e-06	833.87	361.84	7.6309e-06	7.6822e-06	410.88	186.57	149.87	71.679	7.5233e-06	96.444	183.185	-79.708	-43.018	-160.468	-6.538	-7.672	-161.673	-156.170	-90.398	-1.223	-157.736	-154.448	-153.650	-149.118	-72.453	-151.608	-8191	255	
12051.060	1	1	0	0	0.07129	0.33108	0.2273	0.13226	0.10301	0.36966	0.19002	0.17762	0.27721	0.1033	0.19301	0.27071	0.16032	0.55182	0.17616	0.3037	-1.4708	-2.4042	-1.8771	-2.0563	-2.2333	-1.8813	-2.3979	-2.2396	-1.8312	-2.2313	-2.125	-2.1604	-2.3812	-2.1	-2.1625	-2.3604	-103.360	8.988	174.299	-51.484	76.677	135.292	-163.847	183.991	-95.885	155.771	82.214	184.034	-172.438	152.393	70.473	43.120	0.0010189	6.7243e-06	0.00016374	849.02	1.16e-05	8.7549e-06	840.47	366.23	7.9675e-06	7.5757e-06	413.17	187.74	149.44	72.262	4.2119e-06	97.209	0.00073169	0.00069398	0.0001949	845.27	7.5995e-06	7.7626e-06	833.22	362.06	7.6876e-06	7.6821e-06	410.34	186.29	150.08	71.718	7.5769e-06	96.495	179.292	-58.025	-81.033	-160.806	-46.260	-20.847	-161.900	-156.433	-92.277	-42.981	-158.064	-154.282	-153.972	-148.766	-73.892	-151.163	-8191	255	
12051.156	1	1	0	0	0.16029	0.22605	0.21197	0.22234	0.26779	0.077982	0.39541	0.24404	0.14512	0.16581	0.19231	0.11213	0.21281	0.086573	0.14463	0.14304	-1.6708	-2.1958	-2.0438	-2.1333	-2.3708	-1.7875	-2.2625	-2.2708	-1.8146	-2.325	-2.2542	-2.1083	-2.5167	-2.1063	-1.8417	-2.3896	43.596	-150.775	34.140	-159.975	-29.355	79.313	79.863	61.189	184.255	-167.940	88.635	171.466	131.093	185.385	-155.731	-123.049	0.0010457	0.00064634	0.00029688	852.5	7.7069e-06	4.3378e-06	845.8	366.87	1.0274e-05	6.5827e-06	413.65	188.55	150.58	71.919	4.5098e-06	96.695	0.00073218	0.00068497	0.00019093	845.67	7.4346e-06	7.4811e-06	837.31	363.24	7.4936e-06	7.5173e-06	412.3	186.81	150.17	71.419	7.5842e-06	95.917	182.593	-38.410	-125.973	-160.231	-26.003	-34.932	-161.644	-156.151	-104.279	15.018	-158.159	-154.417	-153.294	-148.680	-80.715	-150.988	-8191	255	
12051.252	1	1	0	0	0.15544	0.14886	0.15606	0.20142	0.24619	0.30301	0.2191	0.16348	0.11532	0.17417	0.071507	0.23798	0.14685	0.23196	0.11566	0.12237	-1.4333	-2.2375	-2.0083	-2.0062	-2.3979	-1.9896	-2.3625	-2.3125	-1.7625	-2.0458	-2.15	-1.9542	-2.3187	-2.1125	-1.9646	-2.5021	-135.314	86.031	-95.045	114.923	-101.420	-136.814	-5.639	84.723	-137.269	119.830	-133.685	-171.471	-113.906	177.170	-5.198	182.572	0.0010965	0.00044121	0.00027365	852.68	7.1256e-06	6.7517e-06	853.58	367.66	8.418e-06	7.6609e-06	418.81	188.62	151.81	72.285	6.0077e-06	97.114	0.00073422	0.00068187	0.0001928	848.81	7.3619e-06	7.5938e-06	841.96	363.95	7.4725e-06	7.3535e-06	414.81	186.89	150.92	71.732	7.5019e-06	96.729	180.227	-12.163	-90.205	-160.332	-38.807	-17.712	-161.516	-156.011	-58.084	13.827	-157.911	-154.308	-153.647	-148.350	-5.452	-151.146	-8191	255	
12051.371	1	1	0	0	0.062464	0.38219	0.2745	0.44116	0.16479	0.12027	0.14346	0.16305	0.22677	0.15996	0.16283	0.31418	0.083955	0.096027	0.26382	0.21602	-1.4646	-2.0771	-2.2875	-1.7042	-2.3646	-2.1229	-2.175	-2.5563	-1.9438	-2.3625	-2.2083	-1.8792	-2.3583	-2.4479	-1.9833	-2.5	-78.965	8.902	-43.187	184.609	-117.130	-53.977	64.500	165.660	-123.066	-85.334	-88.682	173.386	-55.816	-52.947	-23.499	173.521	0.0010816	0.00031013	0.00021115	857.31	6.1871e-06	4.0052e-06	850.81	368.05	6.2327e-06	7.8564e-06	421.02	190.07	151.88	73.202	7.1672e-06	99.254	0.00073359	0.00068834	0.00019251	852.38	7.4885e-06	7.6225e-06	845.49	364.52	7.5443e-06	7.6478e-06	417.66	188.39	150.64	72.478	7.6016e-06	98.271	175.266	-98.065	-82.678	-160.176	-60.422	-47.386	-161.603	-156.043	-36.163	-11.397	-157.562	-154.053	-153.549	-148.175	-46.303	-150.735	-8191	255	
12051.467	1	1	0	0	0.037956	0.10475	0.099984	0.22907	0.078574	0.010995	0.15317	0.078302	0.38824	0.21988	0.17064	0.17132	0.18005	0.28503	0.14024	0.20967	-1.65	-2.1958	-2.25	-2.075	-2.3833	-2.1646	-2.0208	-2.6021	-1.8875	-1.9937	-2.4229	-2.0125	-2.2542	-2.1771	-1.8	-2.4354	122.210	165.844	-66.128	173.945	-162.461	-97.234	123.328	80.452	51.483	-55.979	114.288	153.747	119.391	136.308	-112.034	149.901	0.001151	0.00066626	0.0002199	857	5.3984e-06	7.5084e-06	853.12	369.33	8.8032e-06	6.6301e-06	420.56	189.9	151.9	73.152	6.8066e-06	98.228	0.00074046	0.00068729	0.00018915	851.73	7.474e-06	7.5803e-06	844.39	365.01	7.5127e-06	7.5051e-06	415.69	188.05	151.28	72.377	7.6683e-06	97.323	183.434	-60.180	-87.921	-160.091	-35.818	-22.835	-161.221	-155.781	-44.339	-11.245	-157.172	-153.995	-153.922	-148.291	-23.960	-150.823	-8191	255	
12051.563	1	1	0	0	0.14766	0.095892	0.19602	0.097291	0.084993	0.27299	0.13455	0.1822	0.047862	0.27808	0.18503	0.15989	0.27561	0.019593	0.15651	0.36119	-1.6208	-2.2104	-2.2354	-1.7917	-2.3583	-2.075	-2.0521	-2.5479	-2.1312	-2.0167	-2.4042	-1.9479	-2.2667	-2.2438	-1.7979	-2.425	109.431	38.455	93.616	16.865	-138.707	16.717	148.958	180.609	83.393	-63.538	-37.085	-65.087	183.667	-91.704	-73.487	136.687	0.0010479	0.00078663	1.7292e-05	854.68	6.812e-06	6.9117e-06	847.59	368.94	7.1118e-06	1.0814e-05	418.49	189.25	152.08	73.246	5.4178e-06	99.412	0.00073221	0.00068554	0.00019502	849.24	7.5559e-06	7.5856e-06	842.63	364.88	7.5527e-06	7.591e-06	415.17	188	151.32	72.721	7.5826e-06	98.38	179.605	-71.542	-50.077	-160.672	-57.519	-39.566	-161.592	-156.481	-68.040	-16.716	-158.103	-154.660	-154.062	-148.976	-55.214	-151.389	-8191	255	
12051.659	1	1	0	0	0.1733	0.36683	0.093693	0.18264	0.22015	0.13537	0.23287	0.26792	0.12616	0.077412	0.23902	0.22445	0.092958	0.41245	0.15566	0.33158	-1.6896	-1.9396	-2.1979	-2.0417	-2.3333	-2.3667	-2.0812	-2.5792	-2.1104	-1.8375	-2.4271	-2.0312	-2.2979	-2.3542	-1.8271	-2.5583	-6.071	-133.218	11.681	141.926	-75.839	-64.384	65.863	104.975	-75.663	-102.965	57.914	-95.306	-94.695	176.565	-41.665	103.069	0.0011552	0.00051197	0.00032197	851.74	7.1317e-06	1.1075e-05	853.11	369.93	6.5397e-06	1.0374e-05	421.74	192.79	153.15	74.231	8.3246e-06	100.7	0.00072742	0.00068789	0.00018818	847.64	7.314e-06	7.3486e-06	846.07	365.61	7.3087e-06	7.3729e-06	419.17	190.51	152.01	73.581	7.2164e-06	99.823	180.785	-107.337	-79.471	-160.495	-19.709	-46.320	-161.639	-156.310	-83.682	-10.927	-158.229	-154.721	-154.033	-149.073	-37.002	-151.315	-8191	255	
12051.755	1	1	0	0	0.059976	0.054527	0.13124	0.10946	0.28126	0.13646	0.12464	0.10709	0.10631	0.10398	0.13698	0.24921	0.29299	0.33388	0.26792	0.20861	-1.7979	-1.9917	-2.3333	-2.1042	-2.1854	-2.3688	-2.0167	-2.3396	-2.1354	-1.8667	-2.6688	-2.1063	-2.1688	-2.2708	-1.8208	-2.575	77.561	146.548	-6.667	-163.420	-125.590	150.774	178.494	117.960	7.474	-124.730	79.932	-102.974	-87.948	152.738	-16.274	130.411	0.0011412	0.00063417	0.00023949	861.44	9.4303e-06	6.4232e-06	860.21	370.64	8.2664e-06	5.2368e-06	422.13	192.83	152.67	74.348	1.0455e-05	100.69	0.0007152	0.00066073	0.00018525	853.08	7.2391e-06	7.315e-06	850.78	366.71	7.422e-06	7.302e-06	419.01	191.02	151.94	73.457	7.1825e-06	99.58	181.626	-127.077	-72.271	-160.799	-48.530	-48.827	-161.620	-156.252	-89.288	33.771	-157.914	-154.501	-154.050	-148.759	-49.693	-151.369	-8191	255	
12051.852	1	1	0	0	0.065624	0.10277	0.22516	0.12336	0.07794	0.13061	0.4555	0.077459	0.090224	0.13934	0.1522	0.19337	0.22106	0.16887	0.31221	0.28534	-1.7354	-1.7583	-2.3563	-2.3646	-2.0667	-2.2229	-2.0208	-2.3917	-2.2	-1.8	-2.4958	-2.2542	-2.0396	-2.4792	-1.9229	-2.3979	-92.786	0.214	45.118	185.391	-100.528	-54.020	160.077	-157.414	60.159	-118.525	-111.491	-153.019	93.275	83.174	-21.361	116.436	0.0011208	0.00065788	0.00020576	862.82	7.1734e-06	3.652e-06	858.58	370.44	7.7891e-06	8.9872e-06	421.77	188.83	150.8	72.348	7.8785e-06	97.13	0.00071203	0.00066375	0.00018389	853.95	7.2795e-06	7.382e-06	848.74	366.43	7.2264e-06	7.3222e-06	416.36	187.44	150.7	71.758	7.2107e-06	96.508	180.820	-105.461	-57.485	-160.324	-72.519	-87.904	-161.678	-156.186	-99.129	-25.145	-157.869	-154.715	-153.793	-148.739	-66.147	-151.238	-8191	255	
12051.972	1	1	0	0	0.084801	0.24465	0.32492	0.21145	0.041188	0.064079	0.06186	0.37791	0.31586	0.2375	0.29043	0.27822	0.23621	0.28967	0.23231	0.30143	-1.8604	-1.8021	-2.3146	-2.2208	-2.1937	-2.475	-2.2479	-2.3042	-2.4271	-1.6958	-2.2458	-2.2521	-2.0083	-2.6437	-1.9479	-2.2229	158.746	8.180	146.953	153.337	-96.992	49.660	98.784	-159.333	106.090	-144.516	-124.096	-155.924	-141.314	144.548	146.319	125.785	0.001051	0.00054826	0.00012126	864.18	6.499e-06	4.3945e-06	851.49	370.28	5.8784e-06	6.2576e-06	414.85	187.8	151.42	72.286	6.5358e-06	97.359	0.00070372	0.0006599	0.00018353	854.35	7.0395e-06	7.1878e-06	845.04	366.58	7.2471e-06	7.2267e-06	412.88	186.28	150.74	71.731	7.3003e-06	96.543	178.749	-105.687	-57.728	-160.742	-66.054	-19.669	-161.597	-156.710	-73.995	-98.674	-158.575	-154.558	-153.883	-148.727	-52.483	-151.280	-8191	255	
12052.067	1	1	0	0	0.077221	0.098993	0.29678	0.16527	0.082041	0.28312	0.046628	0.40973	0.15529	0.15034	0.1632	0.25803	0.18054	0.32843	0.22563	0.28933	-1.9479	-1.8687	-2.4375	-2.3208	-1.925	-2.5021	-2.0458	-2.2896	-2.325	-1.9792	-2.3854	-2.1188	-1.9271	-2.75	-2.1354	-2.2354	183.920	-69.911	-3.048	-27.451	9.946	123.870	-1.403	184.807	-49.696	-75.880	119.257	153.872	-45.090	149.143	-32.497	89.070	0.0010567	0.0008425	0.00031195	860.2	2.4563e-06	6.4931e-06	851.4	371.06	5.334e-06	5.0737e-06	420.74	192.56	153.28	73.929	5.2357e-06	99.555	0.0007189	0.00066922	0.00018536	853.15	7.1306e-06	7.194e-06	846.06	366.65	7.2371e-06	7.2905e-06	417.64	189.94	152.05	73.349	7.3917e-06	98.798	180.587	-59.468	-70.069	-160.535	-48.518	28.413	-161.660	-156.158	-35.266	-41.808	-158.288	-154.712	-153.984	-148.674	-63.126	-151.302	-8191	255	
12052.163	1	1	0	0	0.13192	0.10748	0.21107	0.21178	0.16675	0.13159	0.25009	0.097541	0.033944	0.02263	0.21146	0.079401	0.048171	0.31599	0.20781	0.11022	-1.8333	-1.8396	-2.1229	-2.2771	-1.8646	-2.4896	-2.3604	-2.3646	-2.35	-2.0104	-2.2521	-2.5167	-1.7375	-2.5667	-2.1917	-2.2083	53.643	159.591	185.902	92.303	116.321	-124.588	90.437	66.993	-134.884	52.864	178.086	-113.582	125.251	163.238	172.501	121.764	0.0010872	0.0010898	0.00026724	859.01	4.3156e-06	7.6349e-06	855.31	372.24	9.2917e-06	6.0127e-06	425.77	194.23	154.08	74.454	7.4387e-06	101.25	0.00071689	0.00067433	0.00018773	851.32	7.2906e-06	7.3394e-06	850.26	367.92	7.3795e-06	7.2801e-06	421.54	191.99	152.75	74.017	7.2876e-06	100.39	182.260	-83.817	-104.696	-160.678	17.017	-28.884	-161.530	-156.031	-52.649	-65.863	-157.779	-154.614	-153.422	-148.682	-47.201	-151.053	-8191	255	
12052.236	1	1	0	0	0.12789	0.11388	0.24555	0.16015	0.23256	0.14497	0.092091	0.33562	0.045082	0.054157	0.16095	0.21292	0.096498	0.42514	0.27074	0.41434	-2.175	-1.9188	-2.0062	-2.2646	-1.9479	-2.3292	-2.3104	-1.9396	-2.4021	-2.05	-2.1542	-2.5062	-2.0667	-2.5125	-2.1562	-2.15	-79.083	22.076	31.095	-163.339	-113.309	82.161	-144.816	138.232	-93.419	120.762	118.920	89.171	107.432	122.167	127.714	108.435	0.0011021	0.00032917	0.00014737	864.69	7.2554e-06	4.2163e-06	860.85	372.76	3.6658e-06	9.8106e-06	425.14	194.51	154.63	74.924	6.634e-06	100.92	0.00070945	0.00067043	0.00018574	854.54	7.3525e-06	7.3062e-06	854.85	368.34	7.3656e-06	7.383e-06	420.78	192.14	153.2	74.249	7.4612e-06	100.08	182.005	-98.231	-103.901	-160.449	-35.624	-14.996	-161.782	-155.965	-87.881	-60.284	-157.932	-154.329	-153.961	-148.531	-33.191	-151.090	-8191	255	
12052.355	1	1	0	0	0.21557	0.12317	0.32565	0.10322	0.02431	0.1093	0.16667	0.078318	0.047984	0.14972	0.037922	0.20015	0.076467	0.19263	0.19955	0.29538	-2.0083	-2.0062	-2.1063	-2.4167	-2.0396	-2.3542	-2.5104	-2.0563	-2.1625	-2.1271	-2.1229	-2.5958	-2.0417	-2.3771	-2.3917	-2.1688	16.332	145.935	2.643	137.251	-73.974	-10.169	167.826	165.284	154.153	-113.342	163.436	156.309	-41.095	116.936	-132.759	38.169	0.0011034	0.00042962	0.0001257	858.1	4.5805e-06	1.2676e-05	850.94	370.62	6.8829e-06	4.1528e-06	420.01	194.29	154.32	74.672	1.1212e-05	100.06	0.00070755	0.00068236	0.00018766	850.47	7.4423e-06	7.5885e-06	846.66	366.7	7.5506e-06	7.5623e-06	417.79	191.06	153.25	74.009	7.5415e-06	99.338	180.358	-90.889	-108.751	-160.166	-63.933	-44.128	-161.345	-155.836	-87.994	-74.453	-157.988	-154.426	-153.461	-148.678	-32.506	-150.872	-8191	255	
12052.451	1	1	0	0	0.23915	0.22007	0.28403	0.17738	0.23031	0.19684	0.23368	0.19445	0.1281	0.092088	0.27741	0.19862	0.15263	0.19818	0.04643	0.34806	-1.8854	-1.9771	-1.8542	-2.5812	-2.0062	-2.2729	-2.5729	-1.9417	-2.2771	-2.3167	-2.0917	-2.4813	-2.1125	-2.2562	-2.3479	-2.1354	63.265	-118.561	12.618	147.264	161.061	167.821	108.174	112.396	-73.541	-103.569	152.630	176.256	-55.356	65.655	-100.634	140.549	0.0010184	0.00069573	0.00020508	853.88	1.1104e-05	3.1964e-06	850.89	372.75	7.1146e-06	1.0768e-05	422.38	192.16	153.68	74.28	5.9512e-06	99.89	0.00073244	0.00069422	0.00018932	847.1	7.3429e-06	7.3529e-06	845.01	367.16	7.3488e-06	7.2395e-06	418.21	190.29	152.65	73.562	7.1985e-06	98.846	178.499	-74.167	-96.340	-160.478	-37.912	58.387	-161.174	-155.908	-38.402	10.156	-157.652	-154.107	-153.434	-148.396	-23.867	-150.664	-8191	255	
12052.547	1	1	0	0	0.10379	0.184	0.29246	0.10445	0.064788	0.14689	0.23411	0.3159	0.17826	0.34926	0.086781	0.33775	0.14072	0.026738	0.013104	0.30905	-1.8375	-2.0229	-2.1021	-2.5563	-1.8875	-2.2229	-2.3042	-2.0396	-2.3292	-2.2646	-2.1875	-2.6042	-1.9458	-2.2062	-2.4458	-2.1521	78.572	-126.045	81.362	-97.542	126.286	173.502	183.166	158.735	-137.043	-31.893	163.106	172.103	168.547	35.024	-127.023	154.474	0.0011435	0.00052251	0.00015858	853.22	5.4783e-06	8.2359e-06	852.8	371.17	2.5839e-06	7.5077e-06	423.49	193.67	153.73	74.758	7.5388e-06	101.31	0.00070946	0.00066697	0.000184	849.13	7.0459e-06	7.182e-06	847.39	367.12	7.1204e-06	7.0894e-06	418.94	191.29	152.93	74.097	7.3349e-06	100.05	181.752	-87.351	-61.063	-159.805	-58.025	-21.980	-161.189	-155.683	-91.976	-4.787	-157.848	-153.946	-153.233	-148.255	-37.261	-150.675	-8191	255	
12052.643	1	1	0	0	0.23778	0.26516	0.18119	0.16224	0.18088	0.24945	0.34253	0.33567	0.23188	0.13533	0.14295	0.19221	0.18253	0.068925	0.1287	0.37201	-1.8979	-2.2396	-1.6854	-2.3333	-1.9875	-2.0729	-2.6021	-2.1104	-2.2833	-2.2875	-1.9104	-2.5604	-2.1854	-2.1479	-2.5708	-2.1667	-119.783	86.008	-17.925	58.451	-4.248	-0.058	127.643	102.418	-38.708	-147.334	-90.470	-53.738	180.009	165.388	-101.563	83.660	0.0010463	0.0005233	9.8291e-05	855.98	3.4484e-06	5.5725e-06	858.16	370.96	5.0633e-06	2.7185e-06	423.75	194.56	155.04	75.129	7.4216e-06	101.13	0.00071006	0.00066973	0.00018844	850.78	7.3625e-06	7.4081e-06	848.5	366.94	7.4283e-06	7.4455e-06	419.59	192.4	153.8	74.557	7.6165e-06	100.12	177.892	-13.512	-145.713	-159.892	-45.801	-2.575	-161.196	-155.459	-63.570	-13.636	-157.553	-153.893	-153.065	-148.093	-62.319	-150.594	-8191	255	
12052.764	1	1	0	0	0.27292	0.2643	0.020347	0.2183	0.067203	0.30544	0.24892	0.13107	0.065944	0.074015	0.085076	0.21634	0.096278	0.24118	0.20478	0.2718	-1.8083	-2.2375	-1.9396	-2.3	-2.1375	-2.1	-2.4979	-1.9333	-2.1146	-2.225	-1.8521	-2.375	-2.2667	-2.0438	-2.3604	-2.1979	-72.070	-79.149	27.113	93.825	-61.236	139.919	119.712	173.876	148.242	-12.158	-133.906	166.647	158.151	156.755	-105.480	94.655	0.0010619	0.00061296	0.00023919	849.7	4.9621e-06	1.0631e-05	847.16	370.39	9.1562e-06	7.622e-06	416.92	190.25	152.99	74.008	4.1089e-06	98.39	0.0007378	0.00069781	0.00019591	847.15	7.5733e-06	7.7843e-06	840.95	365.79	7.7475e-06	7.7018e-06	415.21	188.75	152.52	73.307	7.8356e-06	97.681	179.749	-61.831	-93.550	-159.803	-13.709	-27.525	-161.054	-155.491	-48.077	-26.844	-157.336	-153.894	-153.064	-148.209	-91.747	-152.064	-8191	255	
12052.860	1	1	0	0	0.099244	0.14553	0.19401	0.061456	0.25129	0.16691	0.19964	0.53392	0.32354	0.21614	0.072923	0.031194	0.096664	0.26954	0.17162	0.053825	-1.7458	-2.1875	-1.8813	-2.2771	-2.1104	-1.8625	-2.5333	-2.2521	-2.0292	-2.2042	-1.9125	-2.3771	-2.2708	-1.975	-2.2021	-2.2646	-13.357	-164.066	-42.588	-168.864	-158.388	-47.369	107.393	68.564	-17.188	46.258	67.405	112.550	-86.792	-144.225	-134.620	110.332	0.0011332	0.0010363	9.6297e-05	857.06	5.209e-06	5.3218e-06	842.41	366.26	5.9721e-06	4.1544e-06	415.58	186.58	151.04	71.508	6.9967e-06	94.859	0.00075248	0.000704	0.00019686	848.4	7.6453e-06	7.7839e-06	837.43	363.5	7.8906e-06	7.9535e-06	413.48	184.8	150.62	70.968	8.1001e-06	94.134	184.789	-114.644	-107.919	-161.123	-94.130	-86.578	-162.711	-156.984	-43.500	4.555	-158.804	-155.284	-154.885	-149.293	-69.303	-151.899	-8191	255	
12052.932	1	1	0	0	0.29367	0.20753	0.14681	0.18167	0.1705	0.20254	0.32277	0.15135	0.13744	0.17007	0.087599	0.15032	0.22661	0.23434	0.20911	0.2911	-1.6229	-2.4646	-1.8396	-2.2292	-2.2229	-1.8583	-2.4104	-2.3229	-2.0938	-2.5271	-1.9979	-2.2375	-2.4958	-1.9875	-2.4958	-2.3563	25.881	45.527	149.238	-154.742	-104.522	-167.875	143.575	128.014	178.469	-29.427	12.886	-161.045	-84.218	-170.668	126.626	128.620	0.0010943	0.00038298	0.00023514	854.89	2.5607e-06	1.0032e-05	842.92	366.88	6.9409e-06	5.9963e-06	413.49	185.37	149.45	71.007	3.8541e-06	95.135	0.00078368	0.00073984	0.00020555	849.17	7.8871e-06	7.9246e-06	838.09	363.01	7.7811e-06	7.7272e-06	412.71	183.73	149.68	70.577	7.7825e-06	94.334	180.472	-26.533	-127.801	-161.728	-8.846	13.240	-162.634	-157.011	-57.773	-52.234	-158.947	-155.121	-154.340	-149.329	-67.544	-151.628	-8191	255	
12053.053	1	1	0	0	0.20858	0.083658	0.072687	0.2141	0.13555	0.41849	0.0634	0.13495	0.018629	0.1461	0.091214	0.11422	0.020274	0.19664	0.17507	0.22863	-1.3687	-2.2333	-1.725	-2.0812	-2.2833	-1.6583	-2.3563	-2.1792	-1.9917	-2.4833	-2.0146	-2.2083	-2.45	-1.8937	-2.275	-2.3917	-21.914	8.999	-29.368	81.565	81.230	-144.385	-37.992	93.204	19.005	-59.573	166.816	136.030	154.862	182.749	19.438	78.375	0.00095275	0.00043769	7.0431e-05	851.83	1.0737e-05	7.3878e-06	842.02	366.24	5.628e-06	6.624e-06	414.13	186.96	151.08	72.287	5.1773e-06	97.055	0.00075437	0.00073098	0.00020406	850.22	7.9601e-06	8.197e-06	838.68	362.93	8.1774e-06	8.3952e-06	412.89	185.09	150.8	72.055	8.3581e-06	96.636	181.733	-66.080	-49.559	-160.937	-47.339	-14.803	-162.460	-157.067	-78.103	-38.608	-158.812	-155.128	-154.437	-149.307	-69.062	-151.521	-8191	255	
12053.147	1	1	0	0	0.22629	0.22308	0.24985	0.19651	0.16171	0.069884	0.23004	0.078862	0.080275	0.0921	0.04007	0.23228	0.29592	0.33356	0.18311	0.23482	-1.4083	-2.225	-1.9729	-2.1688	-2.2854	-1.9562	-2.3083	-2.3396	-1.7125	-2.3812	-2.25	-1.8771	-2.4208	-2.2354	-2.1813	-2.5083	108.705	-40.789	-126.264	101.239	-10.450	137.313	55.994	174.452	157.226	-151.240	81.290	179.251	-119.155	-134.676	-78.633	129.015	0.0010867	0.00094843	0.00025958	842.94	9.8598e-06	1.208e-05	837.91	364.06	7.8866e-06	1.1764e-05	412.97	189.68	151.36	74.808	1.3155e-06	99.569	0.00080708	0.00077938	0.00021709	842.86	8.6301e-06	8.7356e-06	835.6	361.78	8.9343e-06	9.0894e-06	414.95	188.42	152.61	74.156	9.6533e-06	99.192	180.508	-78.989	-111.759	-161.099	-50.499	-53.245	-162.191	-156.513	-74.581	-33.575	-158.294	-154.710	-154.051	-148.998	-14.591	-151.353	-8191	255	
12053.245	1	1	0	0	0.12598	0.21109	0.14432	0.066803	0.10322	0.17813	0.4366	0.12137	0.18414	0.079996	0.17147	0.12736	0.26377	0.32967	0.21429	0.22434	-1.5771	-2.3729	-2.1854	-2.1312	-2.2542	-2.0729	-2.3479	-2.5229	-1.8687	-2.2604	-2.2458	-1.9708	-2.5104	-2.0917	-2.0563	-2.4479	74.080	-24.392	-93.579	119.111	60.667	-20.767	117.851	107.471	-140.752	-40.109	176.875	-123.722	40.285	160.109	-60.758	135.032	0.0010616	0.00045602	0.00024879	837.79	3.3575e-06	1.1252e-05	839.13	362.63	6.8008e-06	8.5331e-06	415.73	190.81	152.32	75.075	5.6493e-06	99.168	0.00090549	0.00089353	0.00025514	839.72	9.8388e-06	9.7518e-06	835.12	360.33	9.9127e-06	9.8094e-06	416.55	189.36	153.46	74.565	9.9778e-06	98.758	182.313	-147.414	-91.428	-159.821	32.144	-60.573	-161.201	-155.504	-82.987	-55.964	-157.452	-154.108	-153.173	-148.271	-89.392	-150.602	-8191	255	
#DATA ENDS
