BOXY.EXE: ISS Imagent and Oximeter Data Acquisition Program Version 0.80
Ascii Record File

#ACQ INFORMATION
2  Detector Channels 
16  External MUX Channels 
1  Auxiliary Channels 
5000  Waveform (CCF) Frequency (Hz)
1  Waveforms Skipped 
30  Waveforms Averaged 
1  Cycles Averaged 
16  Acquisitions per Waveform 
10.0806  Updata Rate (Hz) 

#FILE INFORMATION
TRUE -- External MUX Channel results are PARSED.
FALSE -- AC DC and Phase are NOT grouped.
TRUE -- Companion Program Settings File CREATED.
FALSE -- AC data not excluded
FALSE -- DC data not excluded
FALSE -- Phase data not excluded
FALSE -- Auxillary Chn. data not excluded
Tab delimiters

#CALIBRATION STATE
TRUE -- Waveform Calibration Values APPLIED.


#AUX CALIBRATION VALUES
Val Type	aux-1	

Term	1.0000e+00	
Factor	0.0000e+00	


#WF CALIBRATION VALUES
A = Detector Channel
Val Type	A-AC1	A-AC2	A-AC3	A-AC4	A-AC5	A-AC6	A-AC7	A-AC8	A-AC9	A-AC10	A-AC11	A-AC12	A-AC13	A-AC14	A-AC15	A-AC16	A-DC1	A-DC2	A-DC3	A-DC4	A-DC5	A-DC6	A-DC7	A-DC8	A-DC9	A-DC10	A-DC11	A-DC12	A-DC13	A-DC14	A-DC15	A-DC16	A-Ph1	A-Ph2	A-Ph3	A-Ph4	A-Ph5	A-Ph6	A-Ph7	A-Ph8	A-Ph9	A-Ph10	A-Ph11	A-Ph12	A-Ph13	A-Ph14	A-Ph15	A-Ph16	

Term	0.00000e+00	0.00000e+00	0.00000e+00	0.00000e+00	0.00000e+00	0.00000e+00	0.00000e+00	0.00000e+00	0.00000e+00	0.00000e+00	0.00000e+00	0.00000e+00	0.00000e+00	0.00000e+00	0.00000e+00	0.00000e+00	0.00000e+00	0.00000e+00	0.00000e+00	0.00000e+00	0.00000e+00	0.00000e+00	0.00000e+00	0.00000e+00	0.00000e+00	0.00000e+00	0.00000e+00	0.00000e+00	0.00000e+00	0.00000e+00	0.00000e+00	0.00000e+00	0.00000e+00	0.00000e+00	0.00000e+00	0.00000e+00	0.00000e+00	0.00000e+00	0.00000e+00	0.00000e+00	0.00000e+00	0.00000e+00	0.00000e+00	0.00000e+00	0.00000e+00	0.00000e+00	0.00000e+00	0.00000e+00	
Factor	1.00000e+00	1.00000e+00	1.00000e+00	1.00000e+00	1.00000e+00	1.00000e+00	1.00000e+00	1.00000e+00	1.00000e+00	1.00000e+00	1.00000e+00	1.00000e+00	1.00000e+00	1.00000e+00	1.00000e+00	1.00000e+00	1.00000e+00	1.00000e+00	1.00000e+00	1.00000e+00	1.00000e+00	1.00000e+00	1.00000e+00	1.00000e+00	1.00000e+00	1.00000e+00	1.00000e+00	1.00000e+00	1.00000e+00	1.00000e+00	1.00000e+00	1.00000e+00	X	X	X	X	X	X	X	X	X	X	X	X	X	X	X	X	

B = Detector Channel
Val Type	B-AC1	B-AC2	B-AC3	B-AC4	B-AC5	B-AC6	B-AC7	B-AC8	B-AC9	B-AC10	B-AC11	B-AC12	B-AC13	B-AC14	B-AC15	B-AC16	B-DC1	B-DC2	B-DC3	B-DC4	B-DC5	B-DC6	B-DC7	B-DC8	B-DC9	B-DC10	B-DC11	B-DC12	B-DC13	B-DC14	B-DC15	B-DC16	B-Ph1	B-Ph2	B-Ph3	B-Ph4	B-Ph5	B-Ph6	B-Ph7	B-Ph8	B-Ph9	B-Ph10	B-Ph11	B-Ph12	B-Ph13	B-Ph14	B-Ph15	B-Ph16	

Term	0.00000e+00	0.00000e+00	0.00000e+00	0.00000e+00	0.00000e+00	0.00000e+00	0.00000e+00	0.00000e+00	0.00000e+00	0.00000e+00	0.00000e+00	0.00000e+00	0.00000e+00	0.00000e+00	0.00000e+00	0.00000e+00	0.00000e+00	0.00000e+00	0.00000e+00	0.00000e+00	0.00000e+00	0.00000e+00	0.00000e+00	0.00000e+00	0.00000e+00	0.00000e+00	0.00000e+00	0.00000e+00	0.00000e+00	0.00000e+00	0.00000e+00	0.00000e+00	-1.39278e+02	-1.18623e+02	-1.35795e+02	-1.82111e+02	-6.77916e+01	-8.69060e+01	-1.58920e+02	-1.62015e+02	-8.07281e+01	-9.04246e+01	-1.70527e+02	-1.72392e+02	-1.77825e+02	-1.76618e+02	-8.58281e+01	-1.49177e+02	
Factor	2.08840e-05	1.12845e-04	4.51227e-05	1.72743e-01	1.01973e-06	1.29749e-06	1.94666e-01	5.53233e-02	1.05499e-06	1.31565e-06	9.43069e-02	3.35196e-02	2.78317e-02	9.88634e-03	1.30373e-06	1.45576e-02	1.37347e-06	1.43500e-06	4.00220e-07	8.51377e-02	1.56614e-08	1.57660e-08	8.99492e-02	2.72962e-02	1.56928e-08	1.57274e-08	4.45325e-02	1.58891e-02	1.37582e-02	4.84121e-03	1.57627e-08	6.86061e-03	X	X	X	X	X	X	X	X	X	X	X	X	X	X	X	X	



#DISTANCE SETTINGS
A = Detector Channel
A-1	A-2	A-3	A-4	A-5	A-6	A-7	A-8	A-9	A-10	A-11	A-12	A-13	A-14	A-15	A-16	

2.5000e+00	3.0000e+00	2.5000e+00	3.0000e+00	2.0000e+00	3.0000e+00	1.5000e+00	3.0000e+00	3.0000e+00	3.0000e+00	3.0000e+00	3.0000e+00	3.0000e+00	3.0000e+00	1.5000e+00	3.0000e+00	

B = Detector Channel
B-1	B-2	B-3	B-4	B-5	B-6	B-7	B-8	B-9	B-10	B-11	B-12	B-13	B-14	B-15	B-16	

1.0000e+01	1.0000e+01	1.0000e+01	1.4400e+00	1.0000e+01	1.0000e+01	1.5100e+00	1.9400e+00	1.0000e+01	1.0000e+01	1.9900e+00	2.4900e+00	2.4100e+00	2.9000e+00	1.0000e+01	2.9800e+00	




#DATA BEGINS
time	group	step	mark	flag	A-AC1	A-AC2	A-AC3	A-AC4	A-AC5	A-AC6	A-AC7	A-AC8	A-AC9	A-AC10	A-AC11	A-AC12	A-AC13	A-AC14	A-AC15	A-AC16	A-DC1	A-DC2	A-DC3	A-DC4	A-DC5	A-DC6	A-DC7	A-DC8	A-DC9	A-DC10	A-DC11	A-DC12	A-DC13	A-DC14	A-DC15	A-DC16	A-Ph1	A-Ph2	A-Ph3	A-Ph4	A-Ph5	A-Ph6	A-Ph7	A-Ph8	A-Ph9	A-Ph10	A-Ph11	A-Ph12	A-Ph13	A-Ph14	A-Ph15	A-Ph16	B-AC1	B-AC2	B-AC3	B-AC4	B-AC5	B-AC6	B-AC7	B-AC8	B-AC9	B-AC10	B-AC11	B-AC12	B-AC13	B-AC14	B-AC15	B-AC16	B-DC1	B-DC2	B-DC3	B-DC4	B-DC5	B-DC6	B-DC7	B-DC8	B-DC9	B-DC10	B-DC11	B-DC12	B-DC13	B-DC14	B-DC15	B-DC16	B-Ph1	B-Ph2	B-Ph3	B-Ph4	B-Ph5	B-Ph6	B-Ph7	B-Ph8	B-Ph9	B-Ph10	B-Ph11	B-Ph12	B-Ph13	B-Ph14	B-Ph15	B-Ph16	aux-1	digaux	

2433.977	1	1	0	512	0.091959	0.17961	0.1213	0.10363	0.11146	0.16068	0.22752	0.25935	0.070445	0.30819	0.25839	0.20104	0.37622	0.22291	0.29532	0.24849	-1.4625	-1.4125	-1.6604	-1.7854	-1.3708	-1.6729	-1.6146	-1.6938	-1.9208	-1.5125	-1.7479	-1.8958	-1.5521	-2.0333	-1.6625	-1.5208	141.698	195.773	110.311	-8.590	111.495	61.866	190.265	-7.399	60.148	-11.392	-91.757	-95.789	157.821	-40.542	-81.723	186.017	0.00050735	0.00016733	0.00018187	494	2.0324e-06	4.7809e-06	739.51	195.27	9.4204e-07	2.6822e-06	365.31	163.03	81.145	39.536	6.3163e-06	89.636	0.00035485	0.00038071	0.00012011	501.33	3.7179e-06	4.25e-06	751.17	198.66	3.6822e-06	4.3874e-06	365.68	162.97	82.563	39.937	4.5877e-06	88.51	182.349	44.662	-30.498	-99.104	-10.960	-100.590	-99.032	-94.724	60.573	176.456	-95.624	-91.629	-91.252	-85.382	-3.118	-86.407	-8191	255	
2434.073	1	1	0	0	0.13609	0.24024	0.2166	0.11997	0.33825	0.13961	0.286	0.32454	0.12418	0.072662	0.15635	0.12024	0.058775	0.28734	0.07593	0.13858	-1.0417	-1.2104	-1.5438	-1.7938	-1.3687	-2	-1.6917	-1.275	-1.7917	-1.2458	-1.5729	-1.9146	-1.3604	-2.0667	-1.8396	-1.575	133.448	71.347	147.697	199.753	-80.113	107.496	160.908	-86.017	106.733	31.981	202.676	217.575	139.160	199.715	100.632	-64.719	0.00043022	0.00012382	0.00022481	489.38	2.2682e-06	3.3294e-07	740.18	195.18	3.1728e-06	2.5481e-07	363.16	162.38	80.886	39.327	7.71e-06	89.247	0.00035723	0.00041538	0.00011412	498.93	3.7889e-06	4.6312e-06	748.32	197.73	3.8157e-06	4.6795e-06	364.31	162.56	82.432	39.821	4.2616e-06	88.297	188.245	111.016	-11.337	-99.196	-29.581	-4.499	-99.102	-94.591	-30.021	164.237	-95.347	-91.624	-91.005	-85.341	-7.911	-86.221	-8191	255	
2434.169	1	1	0	0	0.17333	0.11049	0.16723	0.12025	0.16027	0.087464	0.082133	0.092673	0.31313	0.092568	0.10962	0.12821	0.29572	0.10518	0.16603	0.29196	-1.4917	-1.5875	-1.5208	-1.8896	-1.375	-1.6646	-1.6104	-1.2917	-1.6792	-1.4833	-1.7812	-1.9208	-1.7167	-1.8896	-1.5438	-1.7437	110.206	50.338	-54.192	2.509	-83.701	-2.432	22.382	70.693	15.402	170.106	190.705	176.222	210.339	-59.454	232.880	150.852	0.00054868	0.00020838	0.00016014	491.33	3.3988e-06	7.0803e-06	737.08	195.44	2.1823e-06	4.215e-06	362.77	162.44	80.753	39.406	6.3262e-06	89.394	0.00037585	0.00043411	0.00010765	498.49	4.0741e-06	4.7686e-06	746.56	197.56	4.1076e-06	4.7615e-06	363.49	162.71	82.703	39.769	4.0444e-06	88.466	186.993	21.144	-83.579	-99.198	117.668	48.376	-99.162	-94.463	56.159	32.757	-95.351	-91.897	-91.217	-85.244	-26.811	-86.439	-8191	255	
2434.241	1	1	0	0	0.23359	0.20793	0.2124	0.13123	0.046109	0.075624	0.085732	0.085299	0.1267	0.078708	0.045312	0.10384	0.19366	0.37311	0.12234	0.10593	-1.6167	-1.6521	-1.4896	-1.7521	-1.4125	-1.7042	-1.5604	-1.4021	-1.7125	-1.6292	-1.5938	-2.0125	-1.5958	-1.7938	-1.8958	-1.7437	-26.400	111.209	127.754	227.947	211.487	10.213	163.091	-4.867	110.666	209.199	142.064	-107.120	193.804	-59.560	-36.610	-64.995	0.00048555	0.00060082	0.00010737	491.57	2.0312e-06	8.2855e-06	741.26	195.85	8.4486e-07	7.6315e-06	364.94	163.48	80.758	39.27	4.7938e-06	88.974	0.00040828	0.00042874	0.00010277	498.87	4.3725e-06	4.5859e-06	747.32	198.01	4.5536e-06	4.5168e-06	364.47	163.38	83.074	39.706	3.9001e-06	88.415	181.731	-16.540	-80.198	-99.113	227.179	42.127	-99.034	-94.706	228.048	32.370	-95.334	-91.848	-91.328	-85.247	25.554	-86.476	-8191	255	
2434.361	1	1	0	0	0.17085	0.11401	0.29836	0.058171	0.081501	0.2243	0.15024	0.20203	0.21855	0.19274	0.086946	0.15443	0.29484	0.26605	0.09852	0.21642	-1.4521	-1.6417	-1.4375	-2.0312	-1.7604	-1.5938	-1.9104	-1.5896	-1.8229	-1.7083	-1.5063	-1.8979	-1.4979	-1.6437	-1.7042	-1.4562	-98.434	-93.769	-16.774	-48.517	217.255	40.417	101.167	161.578	198.336	230.166	194.337	157.589	-18.633	-100.093	-11.310	-105.568	0.00049014	0.00066028	0.0002144	490.29	3.3437e-06	3.5585e-06	736.11	195.13	3.4853e-06	6.1513e-06	362.2	162.27	80.502	39.377	2.8481e-06	88.936	0.00044042	0.0003961	9.8872e-05	498.58	4.7114e-06	4.3346e-06	743.15	197.47	4.7583e-06	4.228e-06	361.58	162.65	82.857	39.52	3.7715e-06	88.207	187.073	-38.999	-109.165	-99.445	43.666	10.928	-99.347	-94.650	84.160	5.424	-95.415	-91.884	-91.310	-85.022	46.347	-86.430	-8191	255	
2434.458	1	1	0	0	0.22342	0.19936	0.048582	0.22232	0.087858	0.30558	0.11945	0.23867	0.20703	0.10732	0.24456	0.090446	0.21071	0.081587	0.16187	0.21799	-1.0896	-1.5271	-1.2021	-1.5792	-1.6313	-1.4604	-1.6354	-1.2917	-1.6875	-1.5417	-1.3396	-1.7812	-1.5187	-1.6708	-1.8625	-1.7062	86.497	43.389	-16.818	-47.913	73.288	113.106	151.886	142.649	222.574	52.387	-78.553	190.811	-109.978	-38.189	148.301	130.828	0.00049546	0.00027813	6.3952e-05	488.67	5.4957e-06	3.6227e-06	736.43	195.22	5.4834e-06	4.3029e-06	362.67	162.34	80.456	39.343	4.4703e-06	89.185	0.00044217	0.00037234	9.58e-05	499.4	4.6686e-06	4.0836e-06	743.54	197.99	4.6582e-06	4.0054e-06	361.82	162.99	82.686	39.48	3.7274e-06	88.535	181.591	0.342	28.836	-99.245	57.375	27.496	-99.047	-94.742	9.729	-31.988	-95.031	-91.861	-91.357	-85.213	-10.567	-86.386	-8191	255	
2434.554	1	1	0	0	0.17622	0.24378	0.32325	0.082988	0.14249	0.2661	0.10741	0.11216	0.20425	0.22167	0.1744	0.12818	0.14179	0.1408	0.21543	0.23095	-1.3229	-1.6875	-1.3375	-1.8917	-1.4937	-1.3854	-1.9167	-1.5063	-1.6125	-1.6458	-1.4667	-1.9333	-1.575	-1.3771	-1.6729	-1.6958	-70.869	77.759	-101.951	108.194	208.002	-91.520	97.901	-103.702	84.479	-2.437	229.039	117.464	146.650	-48.826	133.506	-83.485	0.00049083	0.00078465	0.00017821	489.11	4.9447e-06	6.4271e-06	736.49	194.45	6.0972e-06	2.3727e-06	362.71	162.53	80.549	39.289	3.886e-06	89.247	0.00042749	0.00036072	9.7512e-05	501.17	4.4945e-06	3.9837e-06	742.62	198.86	4.4233e-06	3.8847e-06	363.35	163.6	82.492	39.432	3.9586e-06	88.752	192.777	-0.212	-44.054	-99.166	41.061	-3.257	-99.370	-94.499	8.216	23.364	-95.343	-91.758	-91.281	-85.170	-59.538	-86.352	-8191	255	
2434.650	1	1	0	0	0.25338	0.083176	0.2253	0.26852	0.065729	0.10241	0.17742	0.29853	0.20082	0.24481	0.14658	0.31821	0.20969	0.030601	0.086979	0.12212	-1.175	-1.6958	-1.4458	-1.8104	-1.7854	-1.4312	-1.8333	-1.6729	-1.6375	-1.7333	-1.6167	-1.9708	-1.9729	-1.5042	-1.7083	-1.6458	-65.843	147.931	191.754	-68.090	230.810	31.602	207.344	154.719	11.030	-3.148	-83.999	163.869	-94.988	235.837	135.880	-41.522	0.00046979	0.00010546	0.00022721	489.43	2.1945e-06	2.1053e-06	737.08	194.64	1.9518e-06	6.8984e-06	363.61	162.91	80.872	39.261	6.0313e-06	89.207	0.00040329	0.00034907	0.00010235	502.33	4.2143e-06	3.8264e-06	744.63	198.42	4.2018e-06	3.7134e-06	364.35	163.86	82.382	39.325	4.3527e-06	88.944	187.125	203.980	-58.063	-99.325	44.658	5.685	-98.844	-94.667	72.734	41.163	-95.410	-91.863	-91.443	-85.282	75.456	-86.383	-8191	255	
2434.769	1	1	0	0	0.17926	0.14066	0.1264	0.17949	0.068129	0.2323	0.1584	0.21229	0.059749	0.16333	0.15185	0.27651	0.26011	0.027666	0.24542	0.15402	-0.96875	-1.8417	-1.2687	-1.6833	-1.6417	-1.4458	-1.9229	-1.6292	-1.5771	-1.9021	-1.5771	-1.9708	-1.7979	-1.525	-1.7938	-1.6812	220.809	-13.931	-76.445	102.859	23.964	-0.738	206.568	232.227	-54.888	-78.763	-45.199	158.460	45.643	-104.814	130.640	157.813	0.00049986	0.00037675	0.0001534	487.57	5.2508e-06	2.4366e-06	735.37	193.96	1.7429e-06	3.3852e-06	361.44	160.91	80.227	39.073	2.4926e-06	88.627	0.00038678	0.0003401	0.00011333	500.75	4.0048e-06	3.7742e-06	746.57	197.54	4.0085e-06	3.7189e-06	363.19	162.24	81.508	39.188	4.649e-06	87.874	190.456	-38.473	57.004	-99.351	62.626	3.196	-99.158	-94.861	-2.134	-19.205	-95.132	-91.642	-91.026	-85.177	51.237	-86.475	-8191	255	
2434.842	1	1	0	0	0.11107	0.20752	0.22321	0.07852	0.060865	0.16506	0.12765	0.062076	0.17144	0.24856	0.089627	0.073692	0.22019	0.12122	0.12249	0.26589	-1.1083	-1.7854	-1.4312	-1.6812	-1.7229	-1.6313	-1.9104	-1.6313	-1.5854	-1.9542	-1.7563	-1.6292	-1.7812	-1.4354	-1.6521	-1.8375	54.595	36.958	162.333	42.885	-22.910	-104.136	120.483	-69.977	145.441	115.828	65.812	17.100	214.875	-49.781	72.983	216.557	0.00046723	0.00050934	8.1377e-05	488.69	1.4157e-06	3.4188e-06	732.38	192.56	4.3212e-06	3.5675e-06	360.46	160.75	79.933	39.043	4.3063e-06	88.168	0.00037071	0.00034465	0.00011944	498.22	3.8293e-06	3.9176e-06	743.82	195.94	3.811e-06	3.9174e-06	362.83	161.3	81.197	39.224	4.7641e-06	87.712	188.190	5.958	22.221	-99.003	-8.560	14.494	-99.023	-94.438	52.053	154.699	-95.271	-91.725	-91.375	-85.250	-55.486	-86.486	-8191	255	
2434.938	1	1	0	0	0.26975	0.026811	0.23421	0.26197	0.21467	0.17826	0.16608	0.11254	0.11605	0.061478	0.072624	0.22926	0.31138	0.024769	0.2432	0.090093	-0.8625	-1.6708	-1.3708	-1.6167	-1.6729	-1.4833	-1.625	-1.6979	-1.2229	-1.8292	-1.4729	-1.4896	-1.8188	-1.4	-1.6604	-1.8062	46.368	-40.378	51.210	-77.232	133.983	129.294	155.636	228.035	114.586	135.809	5.784	-90.305	220.840	106.169	11.339	227.482	0.00047292	0.00020803	0.00013845	486.67	1.3939e-06	4.1291e-06	731.24	192.63	5.0926e-06	3.2476e-06	360.57	161	79.73	39.027	5.8079e-06	89.094	0.00036048	0.00037692	0.00012008	496.45	3.7238e-06	4.2692e-06	744.33	195.74	3.7653e-06	4.3034e-06	363.16	161.65	81.295	39.371	4.5817e-06	88.134	189.658	-55.341	-3.288	-99.246	-36.511	78.116	-99.143	-94.595	36.556	130.886	-95.198	-91.852	-91.077	-85.353	57.755	-86.410	-8191	255	
2435.057	1	1	0	0	0.1398	0.076898	0.031121	0.218	0.26873	0.09711	0.1097	0.23234	0.082383	0.12153	0.054113	0.42908	0.15072	0.41281	0.4664	0.2983	-1.0562	-1.8021	-1.8021	-1.5333	-1.7375	-1.5	-1.6396	-1.7875	-1.3875	-1.7917	-1.7417	-1.5792	-2.0187	-1.5125	-1.7417	-1.9958	180.746	186.856	198.583	197.147	-52.171	-88.616	148.117	-22.249	-76.195	-77.951	57.388	158.824	102.514	235.523	228.303	-109.351	0.00045765	0.00017479	0.00027077	489.26	4.7878e-06	3.8466e-06	738.05	192.72	2.6406e-06	4.6783e-06	363.38	161.61	79.941	39.145	5.8201e-06	89.186	0.00035795	0.00041105	0.0001147	495.81	3.7141e-06	4.62e-06	745.65	195.57	3.8455e-06	4.6233e-06	363	161.95	81.439	39.45	4.3114e-06	88.336	184.741	125.486	-6.367	-99.266	31.028	138.138	-98.985	-94.619	50.866	25.057	-95.561	-91.803	-91.359	-85.247	3.439	-86.403	-8191	255	
2435.153	1	1	0	0	0.10269	0.2408	0.17488	0.20774	0.36729	0.10178	0.052301	0.18618	0.10991	0.13762	0.19077	0.23118	0.18226	0.10449	0.084005	0.24499	-1.0208	-1.7437	-1.8333	-1.5708	-1.9458	-1.4542	-1.8	-1.9083	-1.2125	-1.7146	-1.5958	-1.5271	-1.7333	-1.6375	-1.6104	-1.9667	130.305	157.235	-77.311	212.880	112.318	184.860	-46.589	-92.370	-22.030	102.005	120.849	198.462	-52.764	179.563	-15.998	193.419	0.0004237	0.00011919	0.00022876	485.83	2.5337e-06	1.8832e-06	735.83	193.48	6.1056e-07	5.5811e-06	361.79	161.83	79.897	38.969	6.0387e-06	88.674	0.000376	0.00043218	0.00010763	495.32	3.993e-06	4.7639e-06	745.23	195.8	4.1288e-06	4.7042e-06	361.76	161.89	81.731	39.364	4.0636e-06	87.714	186.080	197.066	-10.539	-99.336	-106.063	224.809	-99.214	-94.459	16.497	60.527	-95.457	-91.793	-91.310	-85.061	7.565	-86.210	-8191	255	
2435.249	1	1	0	0	0.14986	0.10122	0.10142	0.062417	0.14808	0.27063	0.13631	0.19472	0.17569	0.091227	0.21539	0.11274	0.2454	0.45224	0.056475	0.19265	-0.9875	-1.5833	-1.5771	-1.3292	-1.7792	-1.6042	-1.4708	-1.9188	-1.4	-1.7542	-1.9312	-1.7208	-1.85	-1.7104	-1.4	-2.0708	-83.788	58.142	-6.329	180.067	-42.362	122.665	-51.527	154.987	196.286	64.955	84.831	176.267	-9.491	234.688	212.389	64.760	0.00046643	0.00034473	0.00012519	484.09	3.5673e-06	4.6504e-06	734.94	192.75	1.7813e-06	7.4231e-06	360.43	161.24	79.185	38.716	6.6382e-06	88.227	0.00040905	0.00042107	0.00010328	492.96	4.3656e-06	4.5766e-06	739.33	194.76	4.4984e-06	4.5141e-06	359.41	160.84	81.516	39.031	3.92e-06	87.181	183.371	3.008	-28.019	-99.233	24.786	42.246	-99.041	-94.676	114.462	17.783	-95.503	-91.655	-91.073	-85.370	25.805	-86.160	-8191	255	
2435.346	1	1	0	0	0.14219	0.12227	0.17979	0.14115	0.21102	0.20588	0.28032	0.23257	0.033957	0.14711	0.12989	0.23122	0.30558	0.1372	0.14105	0.23167	-0.83958	-1.525	-1.4292	-1.6354	-1.5292	-1.6917	-1.5146	-1.8771	-1.4292	-1.7062	-1.9771	-1.6083	-1.6854	-1.6437	-1.3062	-2.0062	-39.156	-52.120	84.131	45.859	97.526	52.711	166.728	216.741	71.089	-67.868	113.088	123.496	-63.575	-11.983	224.356	136.039	0.00050945	0.000774	0.00025807	481.83	1.6373e-06	5.5533e-06	731.67	191.89	3.0695e-06	7.8062e-06	361.42	160.15	79.154	38.811	3.3976e-06	88.334	0.00043685	0.00039937	9.7598e-05	491.73	4.7119e-06	4.3072e-06	738.42	194.65	4.737e-06	4.2392e-06	359.81	160.78	81.598	39.019	3.8229e-06	87.482	191.259	-33.726	-40.721	-99.197	108.080	12.391	-99.299	-94.697	82.185	25.616	-95.360	-91.588	-91.279	-85.204	-1.068	-86.407	-8191	255	
2435.442	1	1	0	0	0.13223	0.16451	0.12167	0.1685	0.030651	0.32267	0.17328	0.050977	0.084794	0.11735	0.12097	0.1216	0.096852	0.053798	0.066193	0.075246	-1.2313	-1.4625	-1.8604	-1.6396	-1.9396	-1.8417	-1.3792	-1.7896	-1.5938	-1.4688	-1.8875	-1.5333	-1.8146	-1.7938	-1.2167	-1.9583	233.079	34.213	182.271	-96.710	83.086	193.989	-0.091	218.625	190.166	-106.601	223.369	244.305	-103.097	156.643	130.287	202.756	0.00044273	0.0003866	0.00010258	485.09	2.7522e-06	8.1872e-06	735.01	193.02	2.6758e-06	4.2785e-06	361.99	160.84	79.878	38.662	4.2214e-06	88.925	0.00044393	0.00037347	9.4616e-05	496	4.712e-06	4.0993e-06	739.38	196.04	4.6805e-06	4.076e-06	360.21	161.96	81.824	38.934	3.7877e-06	88.16	181.933	-22.162	-16.513	-99.695	57.404	41.635	-99.025	-94.793	-24.161	17.364	-95.080	-91.646	-91.177	-85.083	1.888	-86.299	-8191	255	
2435.538	1	1	0	0	0.36272	0.13277	0.10527	0.26116	0.194	0.17538	0.10933	0.22677	0.20269	0.10816	0.16343	0.063484	0.35833	0.17653	0.15935	0.11486	-1.3708	-1.55	-1.8667	-1.4125	-1.65	-1.9188	-1.7583	-1.9333	-1.7625	-1.525	-2.0667	-1.5958	-1.7583	-1.8583	-1.4042	-1.9333	111.981	-103.741	107.331	190.497	-4.967	-35.873	-111.396	205.065	-86.600	-82.297	38.745	-100.157	164.324	102.251	79.955	-107.420	0.0004501	0.00033163	0.00015946	486.68	2.5162e-06	5.872e-06	734.66	193.21	5.1544e-06	6.7944e-06	362.7	162.49	79.885	39.076	2.6042e-06	89.07	0.00043115	0.00036765	9.5141e-05	498.4	4.4953e-06	3.9278e-06	741.86	196.92	4.4515e-06	3.9459e-06	362.09	163.49	81.775	39.183	3.9628e-06	88.604	187.791	34.515	8.807	-99.398	-14.133	-23.482	-99.061	-94.689	17.990	18.499	-95.546	-91.826	-91.034	-85.278	181.053	-86.242	-8191	255	
2435.659	1	1	0	0	0.055335	0.094383	0.054214	0.1801	0.14199	0.12234	0.248	0.13408	0.26666	0.11328	0.092691	0.22772	0.068062	0.1095	0.070646	0.1218	-1.0771	-1.3375	-1.9104	-1.5292	-1.6167	-1.9104	-1.4896	-1.9083	-1.6646	-1.6688	-1.7646	-1.5063	-1.4937	-2	-1.5125	-1.7708	128.891	127.292	33.121	74.611	-40.543	91.334	-103.246	-83.559	11.610	29.609	60.468	114.840	80.314	97.400	179.144	137.941	0.00043722	0.00037621	0.00020572	486.2	5.2902e-06	7.7006e-06	733.59	191.63	2.2482e-06	5.1024e-06	360.54	160.75	79.179	38.794	1.1326e-06	88.509	0.00040456	0.00035481	0.00010133	499.35	4.2242e-06	3.8231e-06	742.12	196.07	4.1658e-06	3.7892e-06	361.21	162.05	80.96	38.86	4.3257e-06	87.91	179.483	31.164	8.876	-99.370	41.277	46.515	-99.103	-94.710	48.147	21.407	-95.399	-91.821	-91.097	-85.295	45.343	-86.338	-8191	255	
2435.755	1	1	0	0	0.22765	0.1196	0.29014	0.071226	0.38797	0.32023	0.25662	0.24805	0.22611	0.10417	0.15878	0.34614	0.11195	0.13758	0.049384	0.36624	-1.2563	-1.3438	-1.5479	-1.5688	-1.6688	-1.7979	-1.2104	-1.5688	-1.7604	-1.5479	-1.9958	-1.7604	-1.675	-2.0167	-1.6521	-1.8417	-50.908	-21.507	-62.558	170.130	232.446	73.469	-109.417	157.024	166.324	72.856	204.281	199.960	101.791	233.959	24.981	216.374	0.00051119	0.00016392	5.812e-05	484.63	3.029e-06	6.142e-06	728.72	191.7	6.5289e-06	3.1106e-06	358.99	160.04	78.779	38.347	4.7637e-06	88.147	0.00038505	0.00034428	0.00011074	496.84	4.0346e-06	3.7687e-06	740.68	195.63	3.9731e-06	3.8075e-06	361.41	161.41	80.655	38.627	4.7087e-06	87.606	185.294	-30.209	-51.343	-99.260	28.019	-9.452	-99.099	-94.355	-40.765	-86.778	-95.367	-91.770	-90.866	-85.258	20.429	-86.573	-8191	255	
2435.849	1	1	0	0	0.2182	0.37155	0.059522	0.18501	0.098858	0.22825	0.18293	0.023428	0.086884	0.33797	0.256	0.052969	0.20829	0.1869	0.14208	0.10589	-1.1917	-1.4021	-1.6021	-1.3604	-1.5312	-1.6812	-1.475	-1.5125	-1.8958	-1.4521	-1.7917	-1.7021	-1.6146	-1.95	-1.325	-1.5229	-38.494	-9.054	183.483	219.068	242.524	215.090	-78.366	-102.172	-21.485	-93.303	-110.353	51.451	199.546	-75.196	-66.955	-11.323	0.00041134	0.00047036	0.00012914	481.56	3.2709e-06	2.4517e-06	729.13	191.99	8.882e-07	3.8638e-06	361.67	160.1	79.131	38.448	3.1718e-06	88.741	0.00037125	0.00035807	0.00012089	493.66	3.9386e-06	3.8793e-06	741.73	194.63	3.8744e-06	4.0052e-06	362.11	161.19	80.677	38.7	4.8374e-06	87.614	188.739	-46.252	-69.585	-99.405	53.565	136.293	-99.252	-94.639	-44.271	53.822	-95.315	-91.873	-91.124	-85.539	178.469	-86.333	-8191	255	
2435.945	1	1	0	0	0.14293	0.10877	0.1244	0.12684	0.27635	0.20739	0.14369	0.11852	0.22707	0.053515	0.33249	0.22244	0.2164	0.17566	0.16538	0.2149	-1.2646	-1.3625	-1.65	-1.475	-1.1458	-1.6792	-1.3146	-1.6333	-1.85	-1.5083	-1.9813	-1.7125	-1.4333	-1.8792	-1.5417	-1.4646	187.062	216.086	-14.434	83.021	32.835	-96.467	150.501	170.097	115.292	-32.421	218.468	234.190	161.540	178.573	167.130	115.077	0.0004711	0.00021332	0.00015778	484.34	6.0072e-06	2.2786e-06	731.78	190.91	3.5865e-06	1.8838e-06	361.13	161.83	79.498	38.576	4.6697e-06	88.802	0.00036272	0.00038573	0.00012214	493.67	3.8405e-06	4.2829e-06	744.4	194.53	3.8227e-06	4.4004e-06	363.46	162.01	80.94	38.991	4.7125e-06	88.103	192.475	-4.789	-43.372	-99.466	77.768	32.772	-99.061	-94.633	0.213	174.717	-95.160	-91.670	-91.257	-85.153	37.209	-86.323	-8191	255	
2436.066	1	1	0	0	0.20615	0.32021	0.16999	0.29517	0.2122	0.23444	0.33636	0.069861	0.090586	0.15732	0.27538	0.15035	0.095591	0.22035	0.21202	0.26388	-1.2146	-1.0771	-1.5938	-1.7146	-1.4875	-1.8479	-1.7021	-1.4167	-1.7271	-1.5625	-1.5833	-1.9167	-1.5333	-1.9292	-1.7375	-1.5708	-55.307	-76.845	184.034	223.047	43.592	-48.369	187.966	211.597	132.413	-63.746	190.492	-77.307	-90.638	-111.332	-33.126	-5.592	0.00038195	0.00066991	0.00015717	481.77	1.5032e-06	3.3376e-06	734.36	190.94	3.8824e-06	4.4615e-06	361.75	161.53	78.603	38.648	5.9291e-06	88.203	0.00036006	0.00041863	0.00011812	492.28	3.8468e-06	4.6277e-06	744.51	194.6	3.8807e-06	4.7407e-06	362.25	161.41	80.408	38.967	4.3627e-06	87.462	177.890	56.785	-70.758	-99.228	141.404	-21.289	-99.289	-94.689	15.388	13.833	-95.415	-91.907	-91.228	-85.351	5.173	-86.367	-8191	255	
2436.138	1	1	0	0	0.27715	0.28712	0.082883	0.0017973	0.23125	0.098599	0.20221	0.19361	0.2224	0.094039	0.43983	0.29047	0.24961	0.12659	0.15482	0.098619	-1.2521	-1.2792	-1.3917	-1.7458	-1.3979	-1.7812	-2.0083	-1.5646	-2.0292	-1.525	-1.8083	-2.0667	-1.4583	-1.9104	-1.6979	-1.5604	217.620	-22.469	9.329	180.000	9.499	62.581	228.848	-95.824	87.156	91.224	185.158	180.321	193.415	-104.292	227.565	121.091	0.0005171	0.00028047	7.5146e-05	483.8	1.6539e-06	5.3264e-06	729.28	191.08	5.9947e-07	1.5942e-06	360.57	160.23	78.49	38.425	7.7464e-06	87.836	0.00037509	0.0004389	0.00010967	491.57	4.0643e-06	4.8435e-06	739.09	193.78	4.0687e-06	4.8329e-06	360.31	160.28	80.548	38.854	4.1732e-06	87.111	186.681	8.820	-35.490	-99.315	83.860	42.865	-98.885	-94.430	-99.424	162.155	-95.303	-91.780	-91.075	-85.110	28.720	-86.371	-8191	255	
2436.234	1	1	0	0	0.14399	0.21135	0.43209	0.31332	0.093566	0.10637	0.15211	0.19716	0.05269	0.20621	0.29976	0.24383	0.36582	0.26147	0.077301	0.10612	-1.3687	-1.65	-1.4083	-1.7208	-1.1979	-1.6979	-1.6021	-1.2771	-1.7188	-1.4021	-1.4792	-1.9333	-1.4438	-1.675	-1.5396	-1.4542	226.862	187.981	198.986	175.465	151.822	0.238	216.967	83.037	-33.692	134.048	-34.920	-108.003	187.082	-110.988	228.788	238.264	0.00043681	0.00028712	0.000159	483.34	1.1619e-06	2.9073e-06	727.71	191.82	3.5219e-06	7.8386e-06	361.37	160.8	78.573	38.225	3.5962e-06	87.93	0.00040803	0.0004328	0.00010566	489.95	4.516e-06	4.734e-06	737.66	193.74	4.5033e-06	4.5896e-06	360.83	160.8	80.98	38.752	4.0059e-06	87.218	183.251	-1.043	-13.570	-99.267	177.690	-14.574	-99.257	-94.515	45.987	-2.027	-95.161	-91.913	-91.218	-85.079	44.703	-86.493	-8191	255	
2436.330	1	1	0	0	0.35206	0.36729	0.06779	0.28629	0.093079	0.19454	0.13936	0.22791	0.042215	0.14195	0.22909	0.18749	0.11829	0.15251	0.16089	0.049296	-1.2479	-1.5792	-1.4229	-2.0021	-1.5063	-1.7354	-1.8354	-1.3833	-1.6979	-1.5458	-1.6313	-1.8792	-1.4146	-1.5521	-1.6604	-1.5042	-97.330	240.704	171.252	229.760	226.014	-35.138	-77.052	184.390	157.791	-55.128	230.290	190.892	-52.673	191.826	180.675	1.306	0.00041833	0.00052619	9.4869e-05	481.54	2.5037e-06	5.6031e-06	735.55	190.18	3.0754e-06	6.7818e-06	361.6	160.93	78.508	38.496	5.2972e-06	88.353	0.00044547	0.00041393	0.00010139	491.99	4.7958e-06	4.4554e-06	740.05	193.46	4.8388e-06	4.3451e-06	360.55	161.27	81.202	38.722	3.9221e-06	87.514	174.287	-33.595	-36.257	-99.452	-1.860	-16.803	-99.233	-94.753	-26.435	-5.068	-95.346	-91.668	-90.935	-85.025	13.538	-86.364	-8191	255	
2436.450	1	1	0	0	0.27478	0.3016	0.15116	0.16522	0.29038	0.21014	0.21394	0.065647	0.33514	0.24566	0.20999	0.12218	0.10868	0.092593	0.042199	0.14574	-1.0104	-1.5375	-1.4604	-1.6458	-1.5167	-1.5729	-1.9104	-1.5167	-1.7417	-1.7667	-1.4792	-1.9562	-1.625	-1.7771	-1.8292	-1.7521	61.379	122.247	-74.574	-108.862	-69.051	-2.782	57.391	180.688	95.535	182.347	172.165	-48.205	10.415	191.509	-99.205	245.313	0.00045644	0.00067132	0.00015953	481.51	2.9941e-06	3.0829e-06	730.93	190.74	2.2013e-06	4.9465e-06	361.78	160.08	78.711	38.187	3.4778e-06	88.096	0.00045558	0.00038731	9.951e-05	493.29	4.8738e-06	4.2533e-06	739.57	194.33	4.872e-06	4.1645e-06	360.25	161.31	80.947	38.493	3.8427e-06	87.532	176.321	-12.079	-28.384	-99.377	44.310	23.443	-99.121	-94.695	7.108	18.776	-95.448	-91.928	-91.334	-85.045	33.894	-86.217	-8191	255	
2436.547	1	1	0	0	0.12933	0.17684	0.22879	0.25002	0.19659	0.14066	0.28554	0.31056	0.20709	0.15555	0.075566	0.089241	0.24253	0.10416	0.33317	0.12815	-1.1896	-1.8417	-1.5271	-1.7875	-1.3979	-1.4438	-1.9125	-1.5063	-1.4271	-1.6313	-1.425	-1.6083	-1.4875	-1.5187	-1.8292	-1.6792	92.590	-97.286	119.373	189.673	78.001	-61.493	114.839	229.925	206.928	119.237	-111.678	-19.338	-110.842	-61.088	-66.841	0.363	0.00043517	0.00041796	0.0001375	480.97	8.2245e-06	4.7708e-06	728.94	189.63	2.5692e-06	5.9147e-07	359.04	158.98	77.876	37.967	1.741e-06	87.074	0.00044033	0.00037225	9.915e-05	494.58	4.6637e-06	4.0815e-06	735.14	194.06	4.6049e-06	4.0444e-06	357.72	160.4	80.046	38.201	3.9969e-06	87.03	183.886	-34.212	-74.844	-99.465	42.930	22.527	-99.317	-94.541	-46.536	231.970	-95.284	-91.734	-91.289	-85.017	5.270	-86.417	-8191	255	
2436.643	1	1	0	0	0.10586	0.055393	0.13863	0.32143	0.35773	0.17292	0.25531	0.25466	0.14897	0.15321	0.40614	0.12733	0.082116	0.40178	0.25946	0.22431	-1.2	-1.6229	-1.45	-1.8438	-1.6771	-1.4083	-1.9833	-1.5125	-1.7104	-1.8583	-1.5771	-2.0312	-1.9229	-1.5292	-1.7	-1.7646	-33.776	-13.028	-42.851	-86.116	-33.713	-51.930	205.260	215.727	212.730	110.256	187.442	187.308	-110.111	228.889	97.705	210.857	0.00046665	0.00046924	6.3612e-05	480.64	1.1897e-06	6.0963e-06	728.87	190.25	3.4489e-06	4.1736e-06	360.13	158.86	78.245	38.102	1.4566e-06	87.702	0.00041649	0.00036104	0.00010433	494.8	4.3502e-06	3.9361e-06	738.57	194.94	4.324e-06	3.8731e-06	360.22	160.89	80.166	38.232	4.3448e-06	87.223	199.320	2.073	187.982	-99.388	25.962	8.393	-99.186	-94.733	-90.287	49.455	-95.512	-91.749	-91.113	-85.272	-107.395	-86.299	-8191	255	
2436.739	1	1	0	0	0.20258	0.13295	0.15268	0.086188	0.19857	0.10689	0.0071235	0.29151	0.13657	0.14122	0.072275	0.26236	0.039849	0.34515	0.15877	0.18966	-1.0854	-1.8667	-1.4292	-1.8354	-1.8542	-1.7	-2.1208	-1.6063	-1.6333	-1.9188	-1.6562	-1.875	-1.775	-1.4562	-1.8604	-1.4708	76.981	45.357	124.443	236.465	117.388	216.995	87.798	245.149	238.431	118.257	-47.465	177.871	204.464	246.049	201.410	240.869	0.00048124	0.00044264	0.00020378	483.17	4.6421e-06	3.9703e-06	728.65	190.52	3.7887e-06	4.7421e-06	358.94	159.65	78.393	37.979	2.1664e-06	88.153	0.00039811	0.00034871	0.00011355	494.79	4.1194e-06	3.8558e-06	741.69	194.36	4.1081e-06	3.8313e-06	361.49	161.21	79.987	38.292	4.7178e-06	87.574	189.053	-48.154	-54.272	-98.956	19.320	27.979	-99.292	-94.945	-15.668	-12.486	-95.461	-91.756	-91.241	-85.364	-33.665	-86.418	-8191	255	
2436.835	1	1	0	0	0.25346	0.25325	0.29803	0.13673	0.11023	0.1573	0.1602	0.21461	0.2276	0.07607	0.25635	0.037058	0.29932	0.12561	0.13346	0.07005	-0.79792	-1.7437	-1.2875	-1.6812	-1.7458	-1.3396	-1.6354	-1.7042	-1.1313	-1.575	-1.4646	-1.6479	-1.6208	-1.4396	-1.6646	-1.7667	64.463	41.911	229.028	58.876	-108.991	223.533	33.111	25.838	112.586	110.789	129.165	116.685	216.779	-108.516	94.578	161.557	0.00049649	0.00023395	0.00020382	481.84	2.2573e-06	2.032e-06	730.96	189.9	3.7139e-06	2.8588e-06	360.6	160.85	77.912	38.227	6.28e-06	88.016	0.00038722	0.00035395	0.00012161	493.98	4.0087e-06	3.9596e-06	744.86	193.94	4.0353e-06	3.9808e-06	363.42	161.78	79.794	38.493	4.9376e-06	87.508	191.496	-59.171	245.626	-99.020	-29.903	73.807	-98.820	-94.350	13.559	51.511	-95.472	-91.614	-91.300	-85.313	21.264	-86.262	-8191	255	
2436.929	1	1	0	0	0.28998	0.10772	0.29714	0.048092	0.18281	0.24486	0.070621	0.18838	0.08659	0.023288	0.20439	0.2953	0.24872	0.37978	0.16117	0.30327	-0.83125	-1.8729	-1.5833	-1.6875	-1.6812	-1.2771	-1.7479	-1.7354	-1.2521	-1.6625	-1.5833	-1.5833	-1.7979	-1.4854	-1.6896	-1.7375	-4.658	118.214	37.651	151.001	199.699	45.307	71.897	129.958	12.649	71.760	223.673	218.705	17.374	-92.982	8.574	203.015	0.00041262	0.00014686	0.00020758	481.5	2.4083e-06	2.5716e-06	727.22	188.7	3.5816e-06	1.3958e-06	356.83	158.03	77.151	37.75	4.8449e-06	86.827	0.00037317	0.00038215	0.00012488	492.44	3.8213e-06	4.3093e-06	740.56	192.24	3.851e-06	4.3557e-06	359.86	159.08	78.7	38.094	4.7368e-06	86.195	188.169	119.617	-38.403	-99.121	24.274	104.677	-98.974	-94.743	-8.095	-40.331	-95.270	-91.614	-91.004	-85.101	10.465	-86.344	-8191	255	
2437.027	1	1	0	0	0.074885	0.033831	0.16129	0.09262	0.022928	0.13164	0.24813	0.17757	0.13287	0.13839	0.27819	0.073696	0.11275	0.13032	0.4697	0.22712	-0.80208	-1.6333	-1.2208	-1.5	-1.8792	-1.6688	-1.5396	-1.7062	-1.3729	-1.6917	-1.8333	-1.4583	-1.7979	-1.6187	-1.4104	-1.95	60.925	2.953	122.155	168.725	-107.790	9.875	148.096	208.275	29.793	83.721	116.664	168.984	205.423	219.781	9.123	220.654	0.00046063	0.00016893	0.0002235	476.63	2.1506e-06	2.7139e-06	726.58	188.73	1.5328e-06	3.8875e-06	356.66	157.87	76.724	37.402	5.7564e-06	86.86	0.00036741	0.00041688	0.00011875	486.9	3.8542e-06	4.7148e-06	736.68	191.07	3.8766e-06	4.7755e-06	357.6	158.2	78.563	37.972	4.4616e-06	85.938	191.558	-59.831	18.308	-99.011	52.342	-69.909	-99.051	-94.502	-41.020	5.986	-95.306	-91.711	-91.346	-85.121	38.482	-86.242	-8191	255	
2437.146	1	1	0	0	0.31785	0.193	0.14522	0.068044	0.11426	0.24007	0.3244	0.22033	0.25841	0.20427	0.075376	0.15922	0.2144	0.13613	0.19305	0.26376	-0.95833	-1.6021	-1.5979	-1.7313	-1.8896	-1.5854	-1.6938	-1.4854	-1.5104	-1.8438	-1.5958	-1.4333	-1.7917	-1.4125	-1.3521	-1.9375	99.283	19.417	-70.109	15.702	170.065	-84.791	113.012	93.343	172.529	-72.352	162.467	-3.942	-103.319	-27.704	-97.883	219.828	0.00043881	0.00050944	0.00012733	476.35	3.4644e-06	4.6095e-06	726.79	188.09	3.1887e-06	3.9271e-06	355.55	158.07	76.57	37.639	3.6083e-06	87.41	0.00038226	0.00044434	0.00011117	486.16	4.0495e-06	4.8884e-06	735.74	190.65	4.2168e-06	4.8698e-06	356.84	158.43	78.824	38.091	4.2464e-06	86.425	188.664	-39.726	-53.926	-99.532	100.539	-15.892	-99.053	-94.808	-8.294	16.112	-95.437	-91.507	-91.148	-85.363	78.293	-86.288	-8191	255	
2437.242	1	1	0	0	0.078521	0.069135	0.27831	0.41284	0.28204	0.10762	0.11785	0.14391	0.055046	0.14979	0.20325	0.085481	0.31588	0.14702	0.069662	0.12128	-1.05	-1.6688	-1.6646	-1.2896	-1.8042	-1.5042	-1.4875	-1.8333	-1.3687	-1.7542	-1.7417	-1.475	-1.8292	-1.6292	-1.5604	-2.0687	116.741	-45.148	-99.834	91.733	96.045	-20.800	148.186	227.914	55.481	107.545	209.874	-44.648	-106.612	242.330	53.460	185.938	0.00049024	0.00065167	0.00015048	480.39	2.4017e-06	4.5634e-06	727.24	188.15	8.3191e-07	5.1026e-06	356.72	158.76	77.297	37.51	4.0917e-06	87.662	0.00041257	0.00044405	0.00010753	487.12	4.4608e-06	4.8027e-06	736.08	190.37	4.6421e-06	4.7312e-06	357.25	158.95	79.336	38.02	4.0949e-06	86.609	176.503	-33.709	-9.919	-99.432	176.634	52.063	-99.369	-94.735	9.550	57.325	-95.335	-91.795	-91.063	-85.118	20.001	-86.314	-8191	255	
2437.339	1	1	0	0	0.17978	0.20377	0.03651	0.1622	0.10862	0.21624	0.14836	0.16916	0.10354	0.077271	0.20157	0.061834	0.20042	0.21412	0.14224	0.061745	-0.88333	-1.5458	-1.4979	-1.3396	-1.75	-1.675	-1.4042	-1.8167	-1.4729	-1.6938	-1.9271	-1.4375	-2.0333	-1.6063	-1.55	-2.1167	213.150	-24.165	-20.234	125.406	106.506	-60.328	225.478	-90.070	175.451	221.375	114.987	-9.335	94.522	-92.903	104.266	-56.057	0.00047701	0.00027771	0.00011132	476.61	3.497e-06	6.4598e-06	730.85	186.86	3.7927e-06	3.377e-06	354.74	157.27	76.602	37.291	4.0673e-06	86.414	0.00044294	0.00041723	0.00010153	487.28	4.7634e-06	4.4961e-06	736.15	190.29	4.8752e-06	4.4195e-06	355.31	157.3	78.845	37.642	3.951e-06	85.842	178.655	-72.709	-37.045	-99.180	155.786	8.705	-99.041	-94.916	-7.052	-3.129	-95.285	-91.748	-91.001	-85.313	6.998	-86.318	-8191	255	
2437.435	1	1	0	0	0.14741	0.17689	0.072707	0.11582	0.32499	0.14078	0.18985	0.18279	0.039953	0.1583	0.1806	0.020936	0.17151	0.08922	0.22955	0.087084	-1.1104	-1.4771	-1.8146	-1.475	-1.5771	-1.5104	-1.4312	-1.7208	-1.6167	-1.6063	-1.7708	-1.3833	-1.8542	-1.7812	-1.2229	-1.9396	-28.985	127.353	-100.226	5.548	-94.756	194.024	43.661	-107.728	-61.128	-101.497	64.602	62.593	227.849	105.490	-5.262	-88.081	0.00048849	0.00030159	0.00028346	476.24	4.6018e-06	1.8636e-06	724.19	186.28	7.8771e-07	6.3668e-06	353.64	156.28	76.85	37.407	4.71e-06	86.549	0.00045701	0.00038981	9.7565e-05	486.75	4.8179e-06	4.1977e-06	730.99	190.35	4.7762e-06	4.1452e-06	354.07	157.48	78.684	37.591	3.8011e-06	86.078	182.229	-23.013	-60.468	-98.965	2.602	27.846	-99.044	-94.599	-14.546	20.205	-95.301	-91.868	-91.086	-85.273	68.477	-86.325	-8191	255	
2437.531	1	1	0	0	0.29425	0.061772	0.32097	0.04389	0.14629	0.10653	0.12156	0.25319	0.038517	0.090855	0.060314	0.34523	0.12952	0.15741	0.094023	0.35407	-0.8375	-1.4271	-1.6771	-1.3917	-1.5854	-1.4646	-1.5187	-1.6208	-1.6	-1.5958	-1.9271	-1.6479	-1.725	-1.9312	-1.4688	-1.7646	-44.622	86.313	-76.270	-35.117	-57.780	88.240	115.690	21.260	89.778	-106.582	-110.813	201.767	150.835	240.667	4.835	166.630	0.00041343	0.00039939	0.00015533	476.49	3.5591e-06	4.7212e-06	720.63	187.73	1.3633e-06	8.6396e-06	354.2	156.66	76.288	37.454	3.0148e-06	86.875	0.00043563	0.00036847	9.5225e-05	488.81	4.5638e-06	3.9847e-06	729.86	190.93	4.5326e-06	3.9883e-06	354.68	158.09	78.379	37.511	3.8961e-06	86.477	185.381	-41.938	-18.456	-99.224	31.583	30.568	-99.096	-94.873	33.171	14.509	-95.375	-91.768	-91.260	-85.025	-57.652	-86.260	-8191	255	
2437.627	1	1	0	0	0.16371	0.23164	0.17972	0.13679	0.1012	0.26677	0.13729	0.16576	0.27078	0.24681	0.042764	0.32334	0.31202	0.21563	0.38509	0.21354	-1.0667	-1.2271	-1.8	-1.5229	-1.3875	-1.7062	-1.4875	-1.4646	-1.4125	-1.4	-1.7479	-1.6646	-1.6833	-1.725	-1.4979	-1.8667	163.783	-89.541	222.231	198.266	95.608	-108.400	149.527	182.931	-95.467	85.429	-42.431	221.217	202.994	160.833	-55.700	164.140	0.00046116	0.00039009	0.00012092	474.84	2.4407e-06	5.1909e-06	728.83	186.56	4.7355e-06	5.8713e-06	356.66	157.02	76.36	37.276	4.1731e-06	87.215	0.000408	0.00035971	9.9677e-05	489.24	4.3051e-06	3.847e-06	735.34	191.1	4.2429e-06	3.8579e-06	355.84	158.7	78.159	37.425	4.229e-06	86.641	182.984	-53.680	-22.550	-99.091	73.248	65.110	-99.087	-94.519	34.226	38.264	-95.121	-91.903	-90.893	-85.074	-80.320	-86.282	-8191	255	
2437.723	1	1	0	0	0.093254	0.11193	0.1871	0.3751	0.53549	0.22696	0.12712	0.18052	0.27691	0.14821	0.1885	0.18172	0.14343	0.15155	0.054586	0.23456	-1.3083	-1.3896	-1.7979	-1.6458	-1.4417	-1.5979	-1.4021	-1.5333	-1.5208	-1.1542	-1.8188	-1.5042	-1.6854	-1.7708	-1.3708	-1.8062	226.739	-42.826	169.008	200.192	-109.084	-15.525	144.434	180.185	-53.600	19.848	-110.354	160.559	-98.101	183.637	38.038	194.083	0.00045466	0.00053022	0.00015251	475.12	2.8655e-06	7.5286e-06	721.58	186.83	3.6882e-06	2.4386e-06	353.36	156.48	76.069	36.951	2.0214e-06	85.981	0.00038928	0.00034856	0.00011015	488.55	4.0378e-06	3.7584e-06	735.45	190.36	4.0262e-06	3.773e-06	355.55	157.2	77.482	37.161	4.5744e-06	85.497	187.613	-10.919	211.358	-99.044	18.620	14.257	-99.162	-94.428	69.043	74.606	-95.237	-91.973	-91.122	-85.230	67.453	-86.322	-8191	255	
2437.842	1	1	0	0	0.21649	0.14564	0.26149	0.19953	0.22483	0.24153	0.18827	0.18204	0.043752	0.26576	0.23569	0.11301	0.11437	0.09022	0.12402	0.079436	-1.2792	-1.3271	-1.8333	-1.7896	-1.575	-1.9042	-1.5833	-1.6396	-1.7687	-1.4062	-1.8792	-1.6479	-1.3979	-1.8292	-1.5333	-1.6875	17.075	109.210	-56.704	47.466	-71.808	2.861	245.489	28.110	-2.275	-70.111	-56.551	146.070	11.654	229.061	-30.823	40.231	0.00048987	0.00016781	0.00012025	472.16	2.0496e-06	2.9842e-06	717.67	185.33	2.4174e-06	2.9855e-06	351.03	155.12	74.966	36.731	2.6144e-06	85.55	0.00037318	0.00034782	0.00011758	484.42	3.8796e-06	3.8193e-06	730.59	188.78	3.8626e-06	3.8953e-06	353.32	155.69	76.793	37.013	4.7296e-06	85.077	179.888	-33.552	-35.721	-99.217	-60.684	9.475	-99.228	-94.720	-20.560	-48.834	-95.178	-91.683	-91.041	-85.340	14.295	-86.175	-8191	255	
2437.938	1	1	0	0	0.22899	0.14827	0.11928	0.28703	0.20573	0.42976	0.38337	0.11634	0.4251	0.044792	0.15186	0.2427	0.26504	0.21791	0.019033	0.10854	-1.4146	-1.4396	-1.75	-1.7146	-1.3875	-1.6896	-1.3958	-1.7583	-1.7771	-1.3083	-1.6	-1.7604	-1.3542	-1.6396	-1.425	-1.4458	29.499	-105.665	-102.200	222.046	88.872	-39.226	-104.573	56.528	51.497	103.631	29.476	238.600	218.326	185.369	45.106	214.069	0.00044022	0.00027922	0.00019729	476.22	1.6559e-06	1.4091e-06	719.66	185.37	1.6167e-06	3.9193e-06	351.36	155.03	75.351	36.77	6.0414e-06	85.865	0.00035694	0.00036818	0.00012064	482.84	3.7826e-06	4.0775e-06	732.73	188.58	3.7284e-06	4.2679e-06	353.92	155.99	76.974	37.191	4.6743e-06	85.226	189.932	-47.167	-24.811	-99.533	138.610	-97.411	-99.221	-94.702	109.592	11.442	-95.161	-91.547	-91.286	-85.192	28.771	-86.191	-8191	255	
2438.010	1	1	0	0	0.058172	0.18037	0.24367	0.10243	0.085584	0.12704	0.31294	0.054974	0.10895	0.46916	0.18603	0.28958	0.1762	0.23419	0.10346	0.25345	-1.2271	-1.15	-1.6708	-1.3083	-1.4125	-1.9	-1.6708	-1.4333	-1.7333	-1.5792	-1.8438	-1.95	-1.3188	-1.7208	-1.4917	-1.5917	120.093	191.441	-6.145	-32.361	-53.638	-42.384	124.574	-21.590	-12.582	33.040	203.336	243.097	154.488	170.331	0.367	227.850	0.00048729	0.00055777	0.00010024	473.05	2.8022e-06	1.3969e-06	724.09	185.14	2.8781e-06	6.8487e-06	356.16	157.15	75.344	37.241	4.9625e-06	87.06	0.00035528	0.00040949	0.00011668	483.11	3.7426e-06	4.5665e-06	734.19	188.68	3.7298e-06	4.5811e-06	356.52	157.35	77.506	37.589	4.4005e-06	86.109	188.395	-55.713	2.440	-99.550	-13.827	148.203	-99.186	-94.628	2.823	1.028	-95.318	-91.812	-91.138	-85.368	-0.375	-86.253	-8191	255	
2438.108	1	1	0	0	0.18442	0.33625	0.11657	0.36978	0.03354	0.081414	0.26313	0.1455	0.38265	0.27703	0.16216	0.17583	0.22972	0.32736	0.092606	0.61293	-1.2375	-1.4271	-1.6333	-1.8854	-1.275	-1.7417	-1.6792	-1.3271	-1.6958	-1.4208	-1.7229	-2.0312	-1.4583	-1.9021	-1.4729	-1.4979	100.449	166.125	144.317	111.087	29.430	-96.944	64.555	164.573	94.367	158.584	222.165	-52.480	-65.149	-70.235	-93.657	153.778	0.0004836	0.00044187	0.00022526	474.41	3.7837e-06	5.8911e-06	724.71	186.4	3.6181e-06	9.0804e-07	356.75	157.45	76.228	37.291	7.7489e-06	86.901	0.00036508	0.00042846	0.00010937	482.97	3.9335e-06	4.76e-06	734.16	188.98	4.012e-06	4.7629e-06	356.39	157.65	78.051	37.677	4.1074e-06	86.023	176.665	12.457	-26.937	-99.159	-71.160	19.407	-99.119	-94.557	-70.114	140.851	-95.345	-91.562	-91.184	-85.267	13.000	-86.348	-8191	255	
2438.227	1	1	0	0	0.23547	0.15121	0.25389	0.41913	0.095842	0.26765	0.22718	0.095271	0.33659	0.087114	0.22133	0.13612	0.14839	0.26503	0.14621	0.19701	-1.2854	-1.4104	-1.6187	-1.8583	-1.5729	-1.875	-1.85	-1.3333	-1.6625	-1.4646	-1.5896	-1.925	-1.3833	-1.8292	-1.6208	-1.3521	179.229	70.947	159.532	112.743	52.165	134.842	-81.242	-103.851	133.301	62.829	173.282	114.878	163.090	241.812	14.906	171.622	0.00040764	0.00026339	0.00019545	471.88	1.7504e-06	4.8194e-06	723.09	185.17	2.5565e-06	9.499e-06	351.6	155.68	75.383	37.115	1.6963e-06	86.447	0.00039915	0.00042764	0.00010413	480.63	4.3053e-06	4.6357e-06	729.55	188.03	4.398e-06	4.5772e-06	352.93	155.89	77.681	37.483	3.9585e-06	85.588	180.248	-34.033	-27.803	-99.292	-30.912	34.199	-99.053	-94.953	-27.848	-17.664	-95.194	-91.634	-91.071	-85.163	-50.948	-86.322	-8191	255	
2438.323	1	1	0	0	0.23275	0.19801	0.068671	0.22671	0.13373	0.14684	0.21058	0.29319	0.14419	0.056456	0.063812	0.20157	0.15048	0.055997	0.13489	0.065451	-1.5187	-1.4583	-1.4292	-1.9354	-1.4562	-1.5938	-1.7625	-1.3646	-1.7396	-1.4729	-1.2167	-1.6854	-1.325	-1.6646	-1.85	-1.6396	192.935	108.349	50.947	210.160	135.068	43.374	114.116	189.360	-105.713	-91.331	91.831	-99.878	61.455	67.782	91.531	170.034	0.00047006	0.00040513	0.00019307	472.59	4.4137e-06	6.7918e-06	717.46	185.19	4.7668e-06	8.1369e-06	350.76	155.68	75.055	36.917	3.1984e-06	86.425	0.00042972	0.00040544	9.9776e-05	479.58	4.6685e-06	4.4042e-06	726.64	188.01	4.7691e-06	4.3673e-06	351.89	156.12	77.803	37.182	3.8823e-06	85.437	186.009	-17.732	-62.598	-99.424	-15.854	50.041	-99.195	-94.642	37.105	-3.633	-95.333	-91.883	-90.971	-85.127	-42.879	-86.450	-8191	255	
2438.419	1	1	0	0	0.33431	0.15951	0.22872	0.17018	0.10779	0.11958	0.28051	0.09325	0.17569	0.24391	0.19462	0.15953	0.28184	0.14413	0.060905	0.26282	-1.3292	-1.7437	-1.4521	-1.6708	-1.4292	-1.4583	-1.9667	-1.3979	-1.4979	-1.7729	-1.6667	-1.6792	-1.6729	-1.6167	-1.6354	-1.6833	130.793	5.822	123.927	157.047	211.430	113.382	222.804	218.537	-42.638	126.044	-110.714	212.453	13.821	-21.522	2.089	141.899	0.00049348	0.00048384	0.00012942	472.06	1.5833e-06	6.241e-06	721.76	184.05	4.0762e-06	7.5294e-06	354.57	155.97	75.177	36.65	2.9046e-06	86.32	0.00044706	0.00038299	9.6943e-05	482.06	4.7991e-06	4.1562e-06	727.61	187.99	4.7793e-06	4.1037e-06	353.21	157.11	77.817	37.034	3.7682e-06	85.78	188.642	-40.380	-18.284	-99.100	45.652	-1.773	-99.017	-94.387	-9.665	9.452	-95.394	-91.618	-90.885	-85.218	-24.534	-86.257	-8191	255	
2438.540	1	1	0	0	0.17736	0.45767	0.13398	0.13764	0.084364	0.17178	0.19852	0.1812	0.1301	0.052006	0.16836	0.18764	0.27569	0.26788	0.090918	0.12261	-1.2104	-1.5917	-1.3083	-1.7083	-1.3208	-1.3896	-1.9937	-1.625	-1.8167	-1.7917	-1.8	-2.0229	-1.5729	-1.65	-1.9458	-1.7375	108.999	247.149	-9.791	247.326	-101.745	29.112	165.672	182.372	228.322	-65.193	-11.989	128.600	222.572	179.055	149.826	217.269	0.00043405	0.00035742	0.00026149	470.21	5.5717e-06	4.4906e-06	720.71	184.81	2.8655e-06	5.901e-07	356.13	156.15	76.439	36.934	5.2588e-06	86.561	0.00043742	0.00036878	9.68e-05	484.24	4.6018e-06	4.0362e-06	729.37	188.83	4.5262e-06	3.9591e-06	354.45	158.35	78.009	37.154	3.8695e-06	85.913	193.747	-12.324	-40.550	-99.195	19.815	38.646	-99.104	-94.621	-50.249	15.835	-95.461	-91.889	-91.064	-85.099	13.027	-86.349	-8191	255	
2438.611	1	1	0	0	0.29751	0.26903	0.1534	0.12661	0.25451	0.16116	0.23855	0.39122	0.16507	0.32968	0.34976	0.11624	0.05757	0.012508	0.13654	0.23405	-1.3312	-1.7104	-1.3042	-1.7958	-1.4583	-1.3833	-1.7646	-1.4188	-1.5104	-1.8042	-1.2604	-1.6958	-1.6562	-1.4271	-1.6708	-1.4729	141.049	-23.221	-10.481	-56.588	208.683	231.089	101.460	213.976	139.023	70.679	106.460	-18.032	151.205	-37.368	146.677	135.292	0.00040098	0.00077912	0.00015063	470.3	2.7722e-06	4.9552e-06	722.39	184.41	5.8077e-06	6.7007e-06	351.89	155.79	75.763	36.739	2.3823e-06	85.478	0.0004155	0.0003543	0.00010057	485.32	4.3212e-06	3.9083e-06	728.06	188.97	4.2663e-06	3.8476e-06	352.88	156.95	77.304	36.814	4.2347e-06	85.177	188.955	8.641	-28.949	-99.493	38.529	24.681	-98.812	-94.764	12.460	0.740	-95.482	-91.914	-90.968	-84.842	131.311	-86.266	-8191	255	
2438.707	1	1	0	0	0.20105	0.23979	0.1775	0.039795	0.24523	0.069927	0.29152	0.34467	0.13241	0.32586	0.15456	0.22445	0.07434	0.20973	0.11329	0.21367	-1	-1.6125	-1.2458	-1.7479	-1.7104	-1.5604	-2.0146	-1.6354	-1.4625	-1.8333	-1.5458	-1.95	-1.8937	-1.3146	-1.7896	-1.6396	27.094	242.544	-110.103	25.530	-80.755	37.106	112.846	169.821	124.056	-98.248	147.616	183.675	193.100	-83.873	128.118	168.389	0.00038431	6.3516e-05	6.8065e-05	468.02	3.2917e-06	7.5038e-06	713.42	183.71	4.9645e-06	2.0323e-06	352.48	155.59	75.112	36.591	3.1321e-06	85.584	0.00039177	0.00034256	0.0001107	483.26	4.0601e-06	3.825e-06	726.83	187.78	4.0506e-06	3.76e-06	353.79	156.71	76.943	36.766	4.6219e-06	85.117	192.086	-48.302	-24.532	-99.000	65.895	-6.528	-98.918	-94.512	5.550	-16.648	-95.307	-91.835	-91.224	-85.275	192.731	-86.449	-8191	255	
2438.828	1	1	0	0	0.21602	0.25492	0.25801	0.12049	0.11805	0.20166	0.16874	0.25515	0.17871	0.061203	0.13084	0.14491	0.13374	0.059494	0.12145	0.056384	-0.97292	-1.7	-1.2938	-1.8458	-1.8333	-1.25	-1.8729	-1.8292	-1.6063	-1.9062	-1.6292	-1.7667	-1.7375	-1.2896	-1.5667	-1.7687	-51.623	60.081	149.970	126.272	-108.103	-77.313	216.069	210.284	-72.039	42.241	-107.075	241.222	142.473	85.018	9.648	13.068	0.00042993	0.00031992	9.3679e-06	470.94	3.3792e-06	2.5176e-06	716.9	183.69	7.0951e-06	3.8547e-06	354.3	157.47	75.648	36.793	2.9287e-06	85.963	0.00038065	0.00034391	0.00011852	482.45	3.9244e-06	3.8541e-06	731.69	188.06	3.9402e-06	3.8807e-06	355.86	157.6	77.223	37.031	4.8178e-06	85.462	185.768	-36.048	240.089	-99.309	6.071	73.380	-99.194	-94.577	-12.429	158.720	-95.262	-91.672	-91.295	-85.398	9.820	-86.254	-8191	255	
2438.922	1	1	0	0	0.11051	0.15502	0.29449	0.16757	0.24443	0.34239	0.11897	0.23603	0.24414	0.18059	0.20853	0.25351	0.25156	0.20212	0.034167	0.1038	-0.98333	-1.7854	-1.3417	-1.5688	-1.8333	-1.4229	-1.9083	-1.6917	-1.4521	-1.8188	-1.5333	-1.5438	-1.6958	-1.5375	-1.5896	-1.8042	161.349	214.203	164.323	237.739	234.395	92.603	201.787	32.085	-15.251	11.720	100.675	176.327	225.648	234.263	39.932	220.615	0.00044133	0.00046618	0.00010664	472.5	3.0171e-06	2.3197e-06	723.35	185.06	2.4725e-06	6.7216e-06	356.75	158.65	76.432	37.105	5.4854e-06	87.264	0.0003682	0.0003678	0.00012247	482.53	3.7646e-06	4.1821e-06	736.75	188.21	3.8528e-06	4.2471e-06	359.11	158.89	77.731	37.537	4.7351e-06	86.5	192.108	4.435	10.739	-99.311	23.007	114.611	-99.251	-94.815	-53.364	36.474	-95.221	-91.690	-91.023	-85.490	28.556	-86.311	-8191	255	
2439.019	1	1	0	0	0.16804	0.13421	0.21546	0.3157	0.16199	0.13189	0.16497	0.42056	0.30068	0.28955	0.14997	0.18933	0.23438	0.17202	0.15726	0.060588	-0.8375	-1.7854	-1.5771	-1.5667	-1.8563	-1.45	-1.8542	-1.75	-1.5042	-1.8271	-1.7542	-1.7479	-2.0104	-1.4333	-1.6896	-1.9813	187.335	-24.768	-30.235	26.133	-68.251	-70.601	112.871	208.593	-101.308	211.182	242.536	174.945	-93.055	-12.460	122.669	-22.132	0.0005004	0.00020165	0.00011027	474.79	2.9079e-06	4.9578e-06	724.19	184.82	1.0894e-06	3.2182e-06	355.86	156.84	75.385	36.959	2.7811e-06	86.997	0.00036063	0.00040771	0.00011748	482.89	3.7314e-06	4.5486e-06	734.54	187.99	3.767e-06	4.5639e-06	356.53	157.29	77.093	37.45	4.4555e-06	85.981	190.245	-89.762	-26.246	-99.257	82.209	76.835	-99.151	-94.900	101.386	-62.805	-95.339	-91.853	-91.738	-85.355	30.781	-86.377	-8191	255	
2439.139	1	1	0	0	0.05604	0.24739	0.3333	0.2888	0.25194	0.21706	0.23737	0.20634	0.017183	0.26465	0.17347	0.20843	0.19668	0.24187	0.068707	0.11939	-1.0562	-1.7604	-1.7938	-1.5854	-2.0271	-1.55	-1.8583	-1.9104	-1.5417	-1.7542	-1.8417	-1.6	-1.9708	-1.7146	-1.7208	-2.0083	45.475	100.926	112.399	225.948	25.415	-89.755	183.805	198.614	196.118	29.237	-42.014	165.496	109.283	201.610	-27.807	198.802	0.00043492	0.00029699	0.0001925	470.67	1.254e-06	3.6208e-06	722.49	185.32	3.4274e-06	4.1921e-06	355.12	157.45	75.768	36.962	5.298e-06	86.718	0.00036634	0.00042404	0.00010968	480.71	3.8797e-06	4.7507e-06	732.91	187.41	4.0156e-06	4.7575e-06	355.15	157.43	77.547	37.439	4.1889e-06	85.811	176.189	36.391	-13.192	-98.983	65.973	-34.352	-99.110	-94.891	-49.107	59.642	-95.425	-91.499	-91.284	-85.257	32.713	-86.276	-8191	255	
2439.235	1	1	0	0	0.27647	0.11509	0.19183	0.4389	0.055441	0.26516	0.21088	0.2454	0.17336	0.082683	0.13492	0.13023	0.22155	0.29202	0.20936	0.091232	-1.0042	-1.8479	-1.8667	-1.4125	-2.0542	-1.6104	-1.7417	-1.9813	-1.4979	-1.7354	-1.8958	-1.6771	-1.8896	-1.8062	-1.7625	-1.8146	209.890	140.357	-110.194	-40.063	82.211	-51.542	245.398	137.381	99.566	44.198	58.975	227.121	201.246	222.651	18.189	145.561	0.00052505	0.00060997	0.0001259	473.45	1.3743e-06	7.6073e-06	720.2	185.54	1.3973e-06	2.6955e-06	355.76	157.89	75.232	36.978	7.554e-07	86.734	0.00039873	0.00043175	0.00010457	481.67	4.2843e-06	4.7053e-06	729.99	187.49	4.4513e-06	4.6524e-06	355.4	157.98	77.624	37.356	4.0504e-06	85.875	187.995	-22.486	10.143	-99.224	-90.823	23.903	-98.852	-94.699	43.830	-43.764	-95.310	-91.723	-91.285	-84.975	-28.747	-86.363	-8191	255	
2439.307	1	1	0	0	0.19399	0.23156	0.056447	0.19237	0.23894	0.14661	0.16504	0.26138	0.352	0.06503	0.24131	0.066691	0.20183	0.23345	0.065331	0.21057	-0.94167	-1.6688	-1.6167	-1.725	-1.8312	-1.7021	-1.6521	-2.1479	-1.3729	-1.8542	-1.9562	-1.45	-2.1521	-1.6146	-1.5271	-1.9896	-63.833	79.771	234.588	-64.385	-97.873	206.384	121.078	225.136	-13.032	-50.275	219.823	-84.190	-81.197	129.141	-87.430	147.382	0.00045016	0.00067067	0.00029705	468.82	4.9321e-06	3.3996e-06	724.95	184.81	6.8062e-07	5.5098e-06	355.01	157.84	75.804	36.921	1.648e-06	86.77	0.00043459	0.00041521	0.0001007	479.09	4.6944e-06	4.48e-06	731.7	187.99	4.8161e-06	4.3663e-06	355.18	158.48	78.404	37.24	3.9162e-06	86.072	193.259	-4.854	-52.330	-99.577	59.359	-1.107	-99.273	-94.618	18.084	0.252	-95.384	-91.711	-90.912	-85.351	94.378	-86.437	-8191	255	
2439.403	1	1	0	0	0.25988	0.14165	0.24857	0.18463	0.10895	0.10606	0.16174	0.20703	0.13607	0.076101	0.11033	0.33444	0.17672	0.17181	0.27949	0.31083	-1.05	-1.5167	-1.5833	-1.5063	-1.6479	-1.7125	-1.2479	-1.5729	-1.5229	-1.6875	-1.6479	-1.6417	-1.6646	-1.8833	-1.4042	-2.0771	-43.836	-102.565	67.350	87.543	2.195	7.075	50.712	202.650	-92.118	-50.495	-76.525	227.298	-102.547	202.659	137.061	205.105	0.00043508	0.00030219	0.00016257	473.53	1.5162e-06	7.8651e-06	723.63	184.07	8.0058e-06	9.534e-06	355.13	156.74	75.233	36.633	1.6019e-06	86.232	0.00045458	0.00039034	9.8246e-05	483.34	4.8121e-06	4.2249e-06	730.84	188	4.7938e-06	4.1606e-06	353.93	157.77	77.718	36.976	3.8537e-06	85.677	190.039	-2.418	-28.225	-99.196	171.329	38.943	-99.079	-94.795	9.087	19.708	-95.176	-91.708	-91.159	-85.248	0.287	-86.301	-8191	255	
2439.524	1	1	0	0	0.069284	0.16857	0.31207	0.20015	0.064023	0.068224	0.18651	0.24003	0.069854	0.36088	0.013303	0.10284	0.33161	0.1301	0.033385	0.19353	-1.15	-1.4458	-1.9083	-1.4729	-1.6958	-1.7042	-1.6021	-1.8813	-1.6063	-1.4979	-1.6708	-1.5	-1.6	-1.7125	-1.5042	-1.85	-48.243	-87.626	118.097	-111.028	187.646	74.808	-83.702	178.144	-47.536	-38.185	-20.072	103.109	206.426	80.565	188.760	144.964	0.00035778	0.00034478	9.8359e-05	471.79	2.4978e-06	3.8011e-06	723.34	183.84	3.791e-06	5.4108e-06	352.51	156.6	75.278	36.535	4.0952e-06	86.153	0.00044104	0.00037526	9.575e-05	483.54	4.6474e-06	4.0055e-06	726.32	187.98	4.5609e-06	3.9927e-06	352.34	157.45	77.471	36.819	3.8933e-06	85.834	183.777	4.913	-43.359	-99.491	61.149	32.580	-99.093	-94.947	59.010	49.476	-95.230	-91.520	-91.187	-85.393	21.777	-86.373	-8191	255	
2439.620	1	1	0	0	0.20128	0.10986	0.099705	0.14458	0.12288	0.22265	0.17206	0.014401	0.18337	0.2343	0.27729	0.1786	0.1868	0.31999	0.16786	0.091423	-1.1271	-1.3792	-1.9562	-1.7875	-1.6479	-1.9583	-1.4979	-1.8667	-1.7729	-1.5104	-1.9792	-1.4562	-1.5229	-1.7479	-1.6167	-1.8833	111.692	-87.763	-46.823	176.091	-81.410	228.235	38.092	207.594	-83.424	-102.419	238.534	204.908	228.018	-94.933	88.495	177.826	0.00039117	0.00029035	0.00015765	472.08	4.385e-06	2.6026e-06	722.73	183.88	6.3052e-06	4.5321e-06	354.61	157.06	74.981	36.687	4.2486e-06	86.41	0.0004139	0.00036085	9.9295e-05	485.25	4.3703e-06	3.8967e-06	728.22	188.51	4.2971e-06	3.9172e-06	354.66	158.3	77.173	36.911	4.2292e-06	86.12	192.043	9.161	8.692	-99.230	15.554	-33.655	-98.854	-94.804	21.902	-2.604	-95.210	-91.832	-91.317	-85.105	-4.583	-86.303	-8191	255	
2439.716	1	1	0	0	0.37836	0.10121	0.17942	0.31526	0.19072	0.21276	0.11812	0.28632	0.18368	0.096657	0.052628	0.016533	0.11883	0.016705	0.14905	0.060774	-1.3813	-1.2812	-1.7479	-1.7625	-1.5667	-1.9	-1.6562	-1.6688	-1.5458	-1.2313	-1.8208	-1.4937	-1.5771	-1.7792	-1.4083	-1.6417	61.320	180.620	124.484	-90.726	-41.515	3.950	16.418	-75.004	142.379	135.466	75.791	34.627	89.563	-93.419	174.541	-59.599	0.00040764	0.00031601	4.9931e-05	470.42	3.1279e-06	1.8489e-06	720.72	184.41	6.4608e-06	3.9056e-06	355.12	157.61	75.219	36.96	2.1659e-06	87.244	0.00039116	0.00034841	0.00010865	484.63	4.1311e-06	3.7036e-06	733.23	188.91	4.0653e-06	3.7762e-06	357.55	159.02	77.288	37.093	4.6469e-06	86.79	186.457	37.690	-68.022	-99.250	9.291	41.039	-99.054	-94.665	4.768	46.236	-95.318	-91.566	-91.227	-85.095	213.581	-86.394	-8191	255	
2439.812	1	1	0	0	0.25274	0.10258	0.13905	0.050105	0.27577	0.064751	0.22021	0.18645	0.27447	0.19603	0.065289	0.19151	0.38284	0.11352	0.1773	0.40068	-1.0771	-1.4167	-1.7229	-1.6833	-1.5708	-1.9	-1.6083	-1.5979	-1.8813	-1.4813	-1.8604	-1.7646	-1.4292	-1.6229	-1.5375	-1.7396	144.559	41.086	-67.245	46.098	-20.940	193.525	197.991	100.998	75.814	187.260	-111.346	47.134	-96.616	176.109	63.921	-111.637	0.00044158	0.00045464	8.0762e-05	472.77	3.7386e-06	3.0885e-06	726.44	185.28	3.1041e-06	1.9963e-06	357.97	157.63	75.675	36.752	3.6004e-06	86.584	0.00038361	0.0003491	0.00011951	484.01	3.9837e-06	3.8414e-06	739.02	188.64	3.8923e-06	3.8709e-06	359.16	158.61	77.161	37.001	4.8156e-06	86.001	186.122	-83.414	-39.991	-99.530	52.712	12.797	-99.292	-94.780	25.977	-49.704	-95.465	-91.771	-91.264	-85.239	-15.994	-86.472	-8191	255	
2439.908	1	1	0	0	0.12247	0.094938	0.20479	0.15339	0.26947	0.10038	0.15361	0.21856	0.21241	0.085611	0.16677	0.20492	0.10874	0.14965	0.1252	0.39411	-1.4083	-1.3104	-1.6854	-1.8937	-1.5854	-1.825	-1.7167	-1.6083	-1.6688	-1.4146	-1.8354	-1.7313	-1.4438	-1.8188	-1.5438	-1.775	-72.288	-111.576	-25.684	39.154	-57.427	-45.977	169.825	190.438	46.082	123.310	245.099	150.465	204.219	114.539	42.736	134.880	0.00041716	0.00023272	0.00024754	469.74	4.9871e-06	2.7563e-06	719.58	182.67	3.4264e-06	2.4163e-06	352.07	156.01	74.792	36.312	1.1353e-05	85.653	0.00036592	0.00037424	0.00012266	480.1	3.8447e-06	4.1055e-06	730.34	186.26	3.851e-06	4.2906e-06	354.5	156.31	76.311	36.724	4.7507e-06	85.132	183.844	207.252	-31.736	-99.249	9.642	14.530	-99.146	-94.147	-47.982	-10.057	-95.284	-91.937	-91.031	-85.228	28.339	-86.294	-8191	255	
2440.003	1	1	0	0	0.13011	0.28523	0.13592	0.17797	0.24519	0.29683	0.33131	0.042133	0.22133	0.053626	0.14092	0.019184	0.17195	0.22223	0.20059	0.15995	-1.4458	-1.3583	-1.7417	-1.7	-1.5958	-1.8604	-1.5542	-1.5917	-1.7375	-1.3125	-1.4979	-1.6396	-1.4729	-1.85	-1.5479	-1.7563	87.757	203.755	178.013	122.534	2.458	199.003	189.354	220.028	246.728	-67.357	122.528	170.030	121.596	-93.193	75.891	214.257	0.00042663	0.0001031	0.00034032	470.59	1.6724e-06	2.1884e-06	714.83	183.19	2.6809e-06	1.6465e-06	353.84	155.97	74.73	36.385	3.4093e-06	85.975	0.0003557	0.00040639	0.00011875	478.68	3.7635e-06	4.4805e-06	729.09	186.26	3.7762e-06	4.6069e-06	354.41	156.53	76.414	36.847	4.3845e-06	85.268	181.169	69.478	-17.039	-99.379	-2.693	41.421	-99.230	-94.638	-112.416	-75.494	-95.012	-91.750	-91.243	-85.274	99.919	-86.437	-8191	255	
2440.101	1	1	0	0	0.06304	0.20214	0.13605	0.16609	0.029552	0.15563	0.056813	0.042035	0.27779	0.18467	0.072257	0.24038	0.29354	0.18582	0.12321	0.44539	-1.4333	-1.4646	-1.5521	-1.9	-1.2437	-1.5542	-1.5812	-1.3875	-1.8708	-1.4	-1.6625	-1.9354	-1.4521	-2.0021	-1.625	-1.4208	-109.975	125.694	178.487	92.471	34.569	234.987	2.640	148.678	-57.576	151.705	53.756	235.322	-93.876	-81.636	218.335	227.560	0.00046194	7.9615e-05	0.00023443	468.02	2.1691e-06	2.7517e-06	721.37	183.35	1.4141e-06	7.4832e-06	356.72	157.06	74.894	36.657	5.751e-06	86.992	0.00036228	0.00042576	0.00011006	477.87	3.9089e-06	4.7298e-06	730.54	186.07	3.9571e-06	4.7569e-06	355.93	157.45	76.796	37.082	4.0843e-06	85.911	187.486	-97.313	-35.920	-99.241	-55.914	62.076	-99.213	-94.688	239.941	-23.079	-95.229	-91.649	-91.097	-85.075	36.067	-86.139	-8191	255	
2440.220	1	1	0	0	0.14538	0.18135	0.065356	0.20614	0.16069	0.087736	0.19061	0.13123	0.17034	0.24831	0.066817	0.19938	0.15099	0.23574	0.074893	0.23955	-1.3125	-1.3625	-1.4	-1.6792	-1.7417	-1.7708	-2.1125	-1.6854	-1.8583	-1.5375	-1.6875	-1.8438	-1.5458	-1.7375	-1.9271	-1.6375	-110.273	245.251	245.918	19.980	227.099	-65.722	189.578	141.139	23.376	-12.931	211.812	-110.459	-72.745	67.376	64.531	166.549	0.00047447	0.00048549	0.00013398	469.02	1.7229e-06	7.6384e-06	720.9	184.54	3.5065e-06	7.0857e-06	357.6	156.96	74.925	36.699	3.1211e-06	87.18	0.00039229	0.00042762	0.00010425	478.05	4.2507e-06	4.7174e-06	731.08	186.48	4.4052e-06	4.6285e-06	356.49	157.58	77.23	37.155	3.9784e-06	86.199	182.530	22.391	24.162	-99.261	14.849	65.259	-99.047	-94.887	2.212	21.441	-95.256	-91.647	-91.267	-85.315	61.649	-86.299	-8191	255	
2440.316	1	1	0	0	0.25689	0.259	0.22344	0.19356	0.10318	0.066013	0.082698	0.026807	0.096717	0.12632	0.039359	0.15704	0.24082	0.28009	0.20018	0.16869	-1.4062	-1.6354	-1.7292	-1.7979	-1.5083	-1.6187	-1.7542	-1.3229	-1.6854	-1.3271	-1.5875	-1.7521	-1.5979	-1.7542	-1.9083	-1.6583	175.984	76.632	-63.238	73.022	106.934	181.323	78.252	-68.459	49.489	129.225	24.136	239.501	21.182	203.146	74.322	195.556	0.00044359	0.00050162	0.0002423	467.8	1.4741e-06	6.4046e-06	721.17	183.73	2.4634e-06	7.8194e-06	353.98	155.89	74.502	36.468	5.058e-06	86.704	0.00042304	0.00040082	9.9182e-05	477.33	4.5897e-06	4.388e-06	728.97	186.28	4.6611e-06	4.3296e-06	353.59	156.48	76.936	36.866	3.851e-06	85.784	184.831	-63.726	8.312	-99.512	100.991	17.771	-99.068	-94.660	10.003	33.017	-95.195	-91.697	-91.331	-85.192	-2.971	-86.291	-8191	255	
2440.412	1	1	0	0	0.037546	0.20965	0.082758	0.29629	0.10374	0.30923	0.1364	0.064561	0.094261	0.11838	0.33445	0.10324	0.33905	0.1433	0.19935	0.15278	-1.4479	-1.7563	-1.5021	-2.0292	-1.2208	-1.4188	-1.8333	-1.2833	-1.6208	-1.4062	-1.4937	-1.8146	-1.4396	-1.5354	-1.9354	-1.4438	168.167	236.137	38.174	243.394	245.635	139.740	44.452	-101.272	-54.677	66.912	-111.112	-63.831	-98.593	167.792	-0.529	118.594	0.00050073	0.00055858	0.00016008	468.57	3.0121e-06	1.0677e-05	719.69	183.51	4.5091e-06	2.6542e-06	355.25	156.16	74.146	36.546	3.0613e-06	86.513	0.00044145	0.00037918	9.6792e-05	478.68	4.6896e-06	4.1126e-06	725.98	186.48	4.7009e-06	4.0263e-06	353.29	156.94	76.717	36.739	3.7115e-06	85.897	186.282	4.817	-51.576	-99.264	38.443	10.828	-99.148	-94.664	23.440	-66.022	-95.178	-91.658	-90.983	-85.150	-41.674	-86.274	-8191	255	
2440.508	1	1	0	0	0.20629	0.05823	0.039968	0.19493	0.18181	0.078944	0.16489	0.42788	0.24097	0.31038	0.23365	0.32472	0.16664	0.21026	0.35735	0.10622	-1.4021	-1.6875	-1.3854	-2.0875	-1.7292	-1.5812	-2.0167	-1.6875	-1.7875	-1.7417	-1.4208	-1.6875	-1.5021	-1.7313	-1.8813	-1.6208	57.963	90.236	196.424	164.055	151.212	-6.343	206.952	192.230	89.911	186.061	239.792	210.318	-88.890	162.298	-28.898	130.527	0.00035308	0.00052975	0.00010838	466.68	5.2523e-06	3.8056e-06	721.11	183.18	4.4952e-06	4.1421e-06	355.29	157.02	74.413	36.46	5.612e-06	86.823	0.00042964	0.00036056	9.4831e-05	479.98	4.5328e-06	4.0034e-06	727.13	187.44	4.4629e-06	3.8666e-06	354.91	158.17	76.833	36.853	3.7544e-06	86.59	188.920	-14.135	-5.724	-99.301	62.767	76.736	-98.854	-94.940	-6.218	-24.000	-95.310	-91.789	-90.966	-85.361	16.499	-86.351	-8191	255	
2440.604	1	1	0	0	0.08967	0.058407	0.18536	0.093566	0.25394	0.09852	0.21012	0.039551	0.35084	0.12169	0.23958	0.080452	0.099549	0.081562	0.16056	0.25622	-1.3542	-1.7708	-1.3542	-1.8125	-1.6437	-1.5021	-2.0771	-1.5896	-1.4688	-1.725	-1.2812	-1.4979	-1.3312	-1.5479	-1.6313	-1.6167	-28.711	191.555	-61.943	216.685	91.882	31.452	-108.238	149.174	163.944	246.763	-105.008	79.516	226.662	231.864	114.768	145.894	0.00052852	0.00043461	0.00011089	466.55	5.8046e-06	1.0039e-06	721.94	183.22	4.5797e-06	5.949e-06	355.57	157.68	75.348	36.69	2.1501e-06	87.316	0.00040676	0.00035019	9.7961e-05	482.9	4.2572e-06	3.8602e-06	730.7	188.22	4.2406e-06	3.7816e-06	356.25	159.14	77.075	36.833	4.0876e-06	86.842	182.829	0.666	235.930	-99.404	32.139	131.473	-99.060	-94.590	23.560	-19.484	-95.549	-91.596	-91.251	-85.460	123.426	-86.473	-8191	255	
2440.700	1	1	0	0	0.17429	0.20003	0.14804	0.25471	0.0749	0.26754	0.20792	0.26284	0.22558	0.13759	0.20777	0.23306	0.10877	0.18419	0.28848	0.040755	-1.2021	-1.7354	-1.4917	-1.7062	-1.3604	-1.2062	-1.9021	-1.6229	-1.3917	-1.9271	-1.5208	-1.6208	-1.4438	-1.3479	-1.7563	-1.4896	113.486	-68.245	-9.240	-39.269	-59.896	221.000	-110.262	164.273	-16.763	78.348	-109.768	155.107	203.639	105.125	-15.474	132.542	0.00045691	0.00045115	8.5305e-05	472.72	4.9755e-06	3.9613e-06	719.97	183.33	2.5221e-06	2.3872e-06	355.48	156.96	74.549	36.446	2.67e-06	86.508	0.00039068	0.00033892	0.00010755	483.77	4.0275e-06	3.7538e-06	731.58	187.36	4.0556e-06	3.6491e-06	356.16	157.96	76.263	36.664	4.4925e-06	86.011	190.537	-11.770	18.617	-99.400	27.918	-12.706	-99.151	-94.371	-4.138	-5.167	-95.443	-91.593	-91.145	-85.181	-2.664	-86.262	-8191	255	
2440.821	1	1	0	0	0.19618	0.21184	0.20036	0.15206	0.091729	0.090339	0.19443	0.090246	0.24682	0.14043	0.1336	0.087087	0.091159	0.20164	0.15252	0.11006	-1.05	-1.8062	-1.5896	-1.5917	-1.8854	-1.4854	-1.9146	-1.5021	-1.3792	-1.8021	-1.4062	-1.6271	-1.8146	-1.3687	-1.6063	-1.8813	119.631	193.904	-17.425	161.596	157.789	-79.469	195.176	-60.603	220.999	140.744	86.709	-31.473	198.123	-73.436	-41.023	98.078	0.00043164	0.00052921	3.9475e-05	468.24	1.9769e-06	2.0186e-06	717.94	183.57	2.6772e-06	1.5447e-06	353.33	156.22	74.422	36.497	2.1688e-06	86.264	0.00037344	0.00034052	0.00011776	479.87	3.9111e-06	3.825e-06	730.85	186.39	3.9132e-06	3.8394e-06	355.95	157.1	76.1	36.717	4.774e-06	85.749	178.747	12.137	-85.008	-99.177	-10.640	82.097	-98.970	-94.683	64.079	22.093	-95.147	-91.672	-91.402	-85.370	-73.440	-86.290	-8191	255	
2440.917	1	1	0	0	0.06179	0.27015	0.128	0.14682	0.079152	0.34006	0.18418	0.114	0.066913	0.081665	0.11383	0.16274	0.26451	0.18644	0.085801	0.054825	-1.025	-1.525	-1.2833	-1.7604	-1.6812	-1.2083	-1.7812	-1.6958	-1.475	-1.6812	-1.5104	-1.7479	-1.8188	-1.5354	-1.6229	-1.95	129.688	143.467	83.567	-111.491	183.382	226.495	176.913	127.179	123.830	-56.506	236.535	139.959	210.595	216.655	37.829	-71.904	0.00045225	0.00019318	0.00021075	469.92	2.4974e-06	1.9267e-06	722.55	182.54	4.964e-06	9.838e-07	353.28	155.59	74.538	36.23	7.2705e-06	86.708	0.00036709	0.00036352	0.0001212	479.5	3.7961e-06	4.1366e-06	732.3	185.84	3.8591e-06	4.2082e-06	356.04	157.08	75.96	36.814	4.7647e-06	85.995	183.463	83.685	-27.641	-99.412	0.510	108.138	-99.186	-94.567	-32.638	-27.876	-95.361	-91.676	-91.356	-85.131	46.727	-86.142	-8191	255	
2441.011	1	1	0	0	0.080517	0.14322	0.21475	0.22881	0.13016	0.31971	0.17606	0.15585	0.20865	0.14717	0.35277	0.09497	0.181	0.31327	0.1508	0.10041	-0.86042	-1.8771	-1.5521	-1.5604	-1.7875	-1.4167	-1.7833	-1.7104	-1.2812	-1.5042	-1.75	-1.4396	-1.6187	-1.4354	-1.6625	-1.7854	-29.933	-95.434	142.492	-110.943	183.443	144.322	125.133	227.287	9.922	64.939	-77.687	-25.668	185.585	171.241	42.508	-52.952	0.00044035	0.00015209	0.00016691	467.5	4.2084e-06	4.0687e-06	722.61	181.81	4.5224e-06	4.7485e-06	356.13	157.58	74.695	36.338	5.1654e-06	86.636	0.00036226	0.00040299	0.00011874	477.99	3.7716e-06	4.5566e-06	733.46	185.29	3.8822e-06	4.6089e-06	356.61	157.54	76.109	36.849	4.5407e-06	85.98	185.330	-99.457	-34.874	-99.350	14.527	-57.973	-98.710	-94.663	-39.647	68.729	-95.145	-91.853	-91.244	-85.177	26.074	-86.157	-8191	255	
2441.108	1	1	0	0	0.16025	0.062158	0.1757	0.17191	0.14848	0.13548	0.21929	0.334	0.073901	0.20834	0.18811	0.28743	0.099306	0.0976	0.1819	0.21244	-0.99583	-1.8458	-1.5	-1.6979	-1.9333	-1.4688	-1.6979	-1.9292	-1.4333	-1.9125	-1.6271	-1.6063	-1.9729	-1.9188	-1.6437	-1.9833	-40.147	112.215	110.374	219.670	135.333	-9.612	163.258	225.055	55.716	214.261	232.012	238.862	215.049	50.292	167.695	-0.954	0.00043016	0.00038837	0.00021778	470.89	1.9741e-06	5.0817e-06	723.46	182.46	3.0252e-06	3.5053e-06	353.18	155.57	73.381	36.151	8.0079e-06	85.928	0.0003766	0.00043955	0.00011271	479.21	3.9199e-06	4.7949e-06	730.73	184.87	4.0318e-06	4.7995e-06	353.51	156.1	75.738	36.689	4.2401e-06	85.006	193.189	-30.193	-55.026	-99.213	-1.262	79.146	-99.043	-94.902	-99.951	-71.477	-95.218	-91.622	-91.209	-85.290	-20.529	-86.191	-8191	255	
2441.204	1	1	0	0	0.20128	0.060631	0.47311	0.30805	0.17578	0.37049	0.28055	0.44264	0.26808	0.19901	0.07267	0.12275	0.20151	0.13969	0.25371	0.19476	-0.93958	-1.875	-1.7563	-1.4417	-1.65	-1.3833	-1.6063	-1.7938	-1.1833	-1.6688	-1.7417	-1.3958	-1.6521	-1.525	-1.3167	-1.9521	187.840	-32.374	214.430	112.701	138.257	138.747	243.694	191.854	-82.205	25.903	58.424	-56.503	181.544	-14.808	55.255	177.330	0.00042572	0.00022611	0.00019524	466.28	9.7374e-07	4.0209e-06	719.59	180.66	4.7142e-06	5.9188e-06	351.54	154.76	73.634	35.871	2.0504e-06	85.47	0.00039723	0.00043913	0.00010601	474.58	4.256e-06	4.7386e-06	725.22	183.49	4.4169e-06	4.6916e-06	351.17	155.23	75.897	36.504	4.0553e-06	84.825	188.471	16.545	-19.329	-99.398	193.806	8.066	-99.106	-94.697	-25.575	39.434	-95.301	-91.694	-91.169	-85.325	7.879	-86.537	-8191	255	
2441.300	1	1	0	0	0.34232	0.097816	0.26745	0.066866	0.15122	0.10494	0.16997	0.30821	0.14731	0.16908	0.34256	0.18684	0.20485	0.059661	0.084648	0.11198	-0.94792	-1.4542	-1.5917	-1.5896	-1.6875	-1.5354	-1.5521	-1.7833	-1.5125	-1.7396	-1.8729	-1.5125	-1.6333	-1.7021	-1.3021	-1.9729	36.480	90.292	217.629	190.478	-18.254	-15.602	210.026	-111.311	66.553	109.899	190.446	102.727	221.717	-30.578	238.295	198.271	0.00047298	0.00064868	0.00025464	464.25	1.2545e-06	6.1063e-06	716.88	180.74	3.0031e-06	5.1271e-06	350.88	155.93	74.093	36.176	3.4346e-06	86.218	0.00042903	0.00041828	0.00010048	475.02	4.6422e-06	4.4925e-06	725.37	184.14	4.7108e-06	4.4333e-06	352.08	156.31	76.523	36.562	3.9522e-06	85.444	184.922	-19.338	-12.345	-99.210	-70.449	21.145	-98.863	-94.626	110.681	-15.313	-95.605	-91.649	-91.302	-85.483	9.914	-86.347	-8191	255	
2441.396	1	1	0	0	0.054917	0.029958	0.14529	0.099884	0.11065	0.23699	0.090205	0.27643	0.4206	0.12265	0.084493	0.26753	0.14103	0.31501	0.24315	0.1364	-0.9875	-1.3875	-1.7958	-1.4833	-1.6083	-1.5354	-1.5063	-1.7729	-1.4542	-1.3271	-1.8771	-1.4562	-1.8875	-1.4708	-1.2417	-2.1583	118.142	-13.536	8.315	33.246	13.505	48.221	37.623	-104.713	224.644	139.462	195.097	153.125	223.159	-89.290	-59.764	207.795	0.00047387	0.00057868	0.00014724	468.56	5.8286e-06	4.7454e-06	718.84	182.05	1.7148e-06	6.2057e-06	355.89	157.17	74.633	36.233	1.0711e-06	86.909	0.00044954	0.00039083	9.8814e-05	477.5	4.8108e-06	4.2105e-06	726.76	185.38	4.8356e-06	4.179e-06	353.38	157.85	76.879	36.627	3.903e-06	86.331	181.102	-13.673	11.870	-99.345	53.775	-16.537	-99.077	-94.790	2.338	38.769	-95.444	-91.714	-91.294	-85.190	-22.535	-86.202	-8191	255	
2441.492	1	1	0	0	0.037639	0.030015	0.4438	0.12796	0.10295	0.29749	0.38684	0.16158	0.23361	0.41723	0.1445	0.085288	0.10999	0.055873	0.22995	0.23714	-1.1042	-1.5333	-1.9771	-1.4312	-1.6854	-1.5646	-1.4896	-1.4417	-1.5812	-1.4625	-1.9896	-1.6229	-1.7583	-1.7437	-1.2938	-1.7625	180.525	242.740	-94.224	-53.656	209.643	38.827	198.305	-82.362	147.402	34.136	-76.914	-47.229	-59.545	163.940	-89.246	72.357	0.00046343	0.00014442	0.0002612	467.93	4.0947e-06	2.8458e-06	722.47	181.53	1.809e-06	5.1483e-06	353.61	156.5	74.168	36.341	3.4854e-06	86.466	0.0004412	0.00037415	9.6961e-05	481.02	4.6672e-06	4.0454e-06	729.82	186.15	4.6047e-06	4.0386e-06	353.36	157.67	76.434	36.577	3.9362e-06	85.941	184.412	24.496	-65.661	-99.349	26.579	-3.657	-98.855	-94.522	-36.017	7.658	-95.310	-91.860	-91.382	-85.217	-85.225	-86.162	-8191	255	
2441.613	1	1	0	0	0.14102	0.17289	0.14356	0.26535	0.061488	0.16812	0.089053	0.21981	0.30022	0.33446	0.063099	0.086474	0.18708	0.095201	0.24496	0.17939	-0.98333	-1.5396	-1.8188	-1.3687	-1.7979	-1.8417	-1.425	-1.7771	-1.6146	-1.3729	-1.6688	-1.4958	-1.4292	-1.7146	-1.2979	-1.7729	-26.027	70.927	45.055	-72.329	123.636	-67.449	77.086	14.140	4.737	-105.272	89.782	100.174	-58.781	174.686	-83.932	198.245	0.00038683	0.0007377	7.5738e-05	466.92	3.9873e-06	5.8431e-06	714.75	181.6	5.2005e-06	8.9199e-06	351.57	155.05	74.005	36.052	2.8591e-06	86.197	0.000419	0.00036144	9.922e-05	480.91	4.3854e-06	3.8887e-06	725.54	186.01	4.305e-06	3.9193e-06	352.35	156.79	75.753	36.277	4.2091e-06	85.516	193.579	-2.678	-14.697	-99.255	26.892	31.210	-98.964	-94.372	31.707	9.094	-95.353	-91.660	-90.945	-85.050	-64.767	-86.303	-8191	255	
2441.709	1	1	0	0	0.37422	0.13681	0.23111	0.02473	0.02271	0.29342	0.25962	0.28302	0.27998	0.1985	0.19617	0.21718	0.13732	0.11887	0.19771	0.093734	-1.1646	-1.4667	-1.9312	-1.7313	-1.5896	-2.0208	-1.5292	-1.7208	-1.7083	-1.3521	-1.7792	-1.5333	-1.55	-1.8229	-1.4958	-1.9646	220.189	24.809	241.261	68.234	51.709	8.576	204.443	208.634	-101.848	-68.740	201.988	205.465	-65.656	157.913	24.173	161.486	0.00040498	0.00060145	3.3169e-05	465.77	3.021e-06	6.4091e-06	716.6	180.2	2.1487e-06	4.1538e-06	352.62	155.28	73.475	35.856	1.3083e-06	85.919	0.00039435	0.00035582	0.0001075	479.87	4.1469e-06	3.7821e-06	727.3	185.28	4.0941e-06	3.8187e-06	353.28	156.5	75.59	36.137	4.656e-06	85.362	192.346	-18.520	64.996	-99.326	71.195	-1.308	-99.154	-94.517	25.672	8.125	-95.230	-91.651	-91.376	-85.288	123.513	-86.169	-8191	255	
2441.781	1	1	0	0	0.20935	0.078285	0.14991	0.21705	0.038821	0.085029	0.065437	0.22216	0.27462	0.12201	0.26817	0.16059	0.16069	0.065786	0.16832	0.13096	-1.3438	-1.5667	-1.9	-1.6729	-1.5167	-1.9062	-1.2687	-1.6667	-1.7167	-1.3062	-1.8271	-1.8312	-1.5438	-2.0083	-1.6104	-1.9188	109.653	226.852	165.540	-90.082	218.552	-10.933	141.040	10.683	20.211	38.955	-98.893	149.162	72.152	-24.064	80.342	107.137	0.00044197	0.00054369	0.0002055	464.67	3.8918e-06	3.6799e-06	721.73	181.91	9.6648e-07	5.976e-06	352.69	157.14	74.098	36.29	1.9256e-06	86.239	0.00038051	0.00034928	0.00011813	478.84	4.0545e-06	3.8355e-06	732.34	185.94	3.9902e-06	3.945e-06	356.21	157.43	75.901	36.455	4.8449e-06	85.647	177.822	17.937	-59.896	-99.489	92.005	90.052	-99.105	-94.906	23.745	11.496	-95.386	-91.852	-90.863	-85.230	1.021	-86.375	-8191	255	
2441.901	1	1	0	0	0.25607	0.0579	0.35779	0.10728	0.10396	0.021478	0.14621	0.25295	0.095911	0.14254	0.05747	0.095179	0.019858	0.059431	0.18872	0.30016	-1.4792	-1.4854	-1.6396	-1.6313	-1.4792	-1.7396	-1.625	-1.5	-1.8563	-1.4708	-1.7146	-1.5854	-1.5938	-1.7583	-1.6292	-1.5229	-82.997	-36.215	-44.010	-77.080	144.061	22.502	237.345	128.254	-69.317	208.783	-88.197	234.152	8.827	115.320	153.254	157.060	0.00046432	5.0986e-05	7.7909e-05	469	2.8423e-06	3.1198e-06	719.04	182.78	2.4166e-06	1.1905e-06	355.59	157.67	74.081	36.274	8.7519e-07	86.721	0.00036932	0.00037355	0.00012318	478.13	3.8914e-06	4.0819e-06	734.01	185.8	3.811e-06	4.2558e-06	357.48	157.82	75.777	36.654	4.8304e-06	85.972	187.944	-81.115	-2.494	-99.300	-38.629	112.341	-99.058	-94.532	-11.277	155.721	-95.305	-91.756	-91.234	-85.073	240.037	-86.271	-8191	255	
2441.996	1	1	0	0	0.29763	0.13188	0.23404	0.19639	0.23722	0.14421	0.12924	0.23845	0.11232	0.24051	0.13137	0.24838	0.19631	0.09128	0.10201	0.19312	-1.2458	-1.3375	-1.7667	-1.5167	-1.25	-1.6646	-1.3417	-1.5208	-1.6667	-1.45	-1.5979	-1.65	-1.4542	-1.75	-1.6917	-1.7771	-89.942	-12.551	100.431	189.566	196.826	125.845	-48.776	216.802	242.916	133.842	192.270	33.043	55.516	-104.046	25.289	188.316	0.00046755	0.00026123	0.00034603	465.32	2.1913e-06	3.3286e-06	718.39	181.42	1.4953e-06	3.9236e-06	351.61	155.74	73.648	36.013	4.2859e-06	86.166	0.00036246	0.00040828	0.00012053	476.35	3.8289e-06	4.5587e-06	729.63	184.5	3.7824e-06	4.6013e-06	353.87	156.07	75.629	36.573	4.5225e-06	85.285	186.969	34.131	-16.561	-99.181	-26.069	33.068	-98.994	-94.757	5.241	31.284	-95.166	-91.855	-91.312	-85.351	40.384	-86.474	-8191	255	
2442.092	1	1	0	0	0.10601	0.2733	0.14835	0.30262	0.33781	0.012013	0.07291	0.1921	0.16315	0.10567	0.062857	0.11105	0.23633	0.10357	0.19937	0.13434	-1.4937	-1.4062	-1.8792	-1.7104	-1.375	-1.7208	-1.5688	-1.3125	-1.6313	-1.2854	-1.6583	-1.8125	-1.375	-1.9188	-1.7958	-1.6187	37.237	17.974	102.540	226.355	46.037	180.609	205.048	-30.856	-102.269	-24.979	24.098	-84.314	-69.010	65.806	187.539	123.415	0.00036363	0.00060151	0.0001666	467.81	2.4978e-06	7.1728e-06	721.48	181.62	3.6242e-06	4.0735e-06	353.1	156.11	74.066	36.132	4.3186e-06	86.416	0.00036545	0.00043363	0.00011367	475.25	3.9845e-06	4.8027e-06	729.13	184.68	3.9962e-06	4.8226e-06	353.96	156.34	76.051	36.732	4.2401e-06	85.653	175.471	-27.079	-49.224	-99.303	45.669	1.148	-98.955	-94.666	-97.977	23.063	-95.157	-91.476	-91.249	-85.015	30.300	-86.362	-8191	255	
2442.188	1	1	0	0	0.092136	0.23302	0.069749	0.13959	0.073608	0.25512	0.35409	0.036054	0.13313	0.16621	0.17382	0.27685	0.20011	0.11398	0.17565	0.30605	-1.2604	-1.1938	-1.4104	-1.8521	-1.3312	-1.6833	-1.9229	-1.3854	-1.6083	-1.5979	-1.6562	-1.9854	-1.4771	-1.7729	-1.7687	-1.5792	166.418	122.260	69.106	-97.224	78.651	199.185	177.591	209.704	76.596	-0.864	-25.860	166.907	-90.119	-88.882	140.157	181.152	0.00049137	0.00063278	0.00019847	467.24	5.6842e-07	3.9607e-06	718.86	182.88	4.3762e-06	3.8693e-06	354.71	156.38	74.074	36.309	1.2006e-06	86.299	0.00039267	0.00043625	0.00010692	474.75	4.3092e-06	4.8138e-06	728.87	185.07	4.4144e-06	4.7862e-06	354.33	156.94	76.44	36.65	4.1006e-06	85.568	182.896	-17.755	-46.224	-99.564	90.227	-9.264	-98.971	-94.360	198.060	63.078	-94.981	-91.566	-91.088	-85.263	-5.526	-86.194	-8191	255	
2442.309	1	1	0	0	0.043699	0.22934	0.19493	0.15949	0.21571	0.078459	0.026379	0.22287	0.074694	0.1345	0.26005	0.20584	0.22556	0.20356	0.27165	0.13462	-1.2646	-1.1812	-1.525	-2.0542	-1.3354	-1.4854	-1.8521	-1.6229	-1.8792	-1.8438	-1.7	-1.8104	-1.6313	-1.3917	-1.7021	-1.35	141.112	4.760	67.261	-87.097	137.850	-82.810	202.756	-48.182	-92.415	160.576	218.921	243.178	183.777	241.412	-71.604	-84.063	0.00043347	0.00051451	0.00021196	468.71	4.3763e-06	7.8357e-06	719.78	181.62	2.4061e-06	7.1504e-06	355.09	156.62	73.898	36.069	1.6583e-06	86.647	0.00043289	0.00042749	0.00010517	476.21	4.7216e-06	4.5587e-06	728.97	184.76	4.7528e-06	4.524e-06	354.1	157.26	76.575	36.499	4.0005e-06	85.849	185.993	-21.443	1.645	-99.045	0.665	-17.368	-99.040	-94.762	5.564	24.113	-95.200	-91.537	-91.400	-85.151	23.167	-86.397	-8191	255	
2442.405	1	1	0	0	0.20669	0.090327	0.32575	0.25599	0.035139	0.092336	0.041029	0.079969	0.14144	0.12178	0.26519	0.12216	0.1844	0.25188	0.13003	0.21426	-1.3125	-1.3167	-1.4042	-2.1167	-1.6	-1.6479	-1.6896	-1.4333	-1.8229	-1.8125	-1.6042	-1.9167	-1.4125	-1.5729	-1.7021	-1.4979	57.188	70.602	-103.136	244.879	172.519	82.916	190.308	230.292	36.396	45.354	-91.551	87.048	247.080	54.272	11.448	176.962	0.00047419	0.0006053	0.00027359	463.79	1.832e-06	7.1978e-06	716.47	181.52	3.5345e-06	4.4547e-06	352.41	155.84	73.74	35.932	5.18e-06	85.882	0.00045434	0.00040033	0.00010225	476.16	4.8813e-06	4.3286e-06	725	184.73	4.8794e-06	4.2043e-06	351.57	156.19	76.075	36.195	3.8182e-06	85.16	181.724	-15.329	-41.867	-99.225	190.023	34.041	-99.126	-94.551	39.023	35.444	-95.190	-91.696	-91.355	-85.152	24.411	-86.250	-8191	255	
2442.501	1	1	0	0	0.24166	0.17785	0.031456	0.12364	0.21147	0.087792	0.23362	0.36298	0.043782	0.12672	0.045169	0.064494	0.36477	0.14139	0.17112	0.29494	-1.2188	-1.5562	-1.5375	-1.8604	-1.5	-1.4688	-1.8125	-1.4021	-1.5979	-1.8479	-1.3479	-1.9375	-1.5417	-1.6271	-1.7271	-1.4042	-60.498	84.692	-27.208	90.496	-13.909	-52.652	147.563	-112.803	9.900	-106.823	127.348	78.307	86.748	80.440	-77.416	220.018	0.00043444	0.00036358	0.000189	466.47	2.0431e-06	5.1413e-06	716.16	180.75	5.7159e-06	2.7103e-06	351.3	154.47	73.391	36.015	9.5889e-07	86.387	0.00044721	0.00037528	9.7631e-05	478.05	4.718e-06	4.1229e-06	722.66	184.95	4.6631e-06	4.0596e-06	350.39	156.14	75.875	36.257	3.8451e-06	85.685	183.472	-31.991	-22.111	-99.268	-23.466	77.960	-98.945	-94.825	5.951	42.788	-95.236	-91.743	-90.848	-85.200	-15.203	-86.328	-8191	255	
2442.597	1	1	0	0	0.090446	0.08938	0.20633	0.0681	0.19337	0.34916	0.15897	0.26623	0.23688	0.19983	0.1356	0.15503	0.12746	0.24759	0.044935	0.18573	-1.1271	-1.6354	-1.4854	-1.8083	-1.6583	-1.4417	-1.7479	-1.5646	-1.6729	-1.65	-1.2958	-1.8312	-1.6958	-1.4625	-2.0229	-1.4604	244.583	-70.896	205.022	-73.801	20.386	-1.040	76.749	207.840	-103.994	168.956	-108.613	196.321	-111.934	73.409	116.474	-9.235	0.00040477	0.00049187	9.4601e-05	464.84	4.9285e-07	5.2341e-06	718.66	180.8	2.6921e-06	5.3093e-06	353.38	155.71	73.832	35.896	1.3647e-06	85.929	0.00042599	0.00036228	0.00010059	479.35	4.4341e-06	4.0347e-06	724.87	185.32	4.4271e-06	3.9257e-06	352.81	156.89	75.644	36.112	4.1496e-06	85.571	189.915	-20.522	-13.382	-99.433	218.915	72.651	-99.155	-94.960	-41.598	25.909	-95.326	-91.909	-91.039	-85.017	157.403	-86.149	-8191	255	
2442.693	1	1	0	0	0.21515	0.11023	0.36011	0.2609	0.2662	0.22511	0.34207	0.59725	0.29655	0.17363	0.1554	0.36128	0.039799	0.18917	0.16003	0.2202	-0.82708	-1.5604	-1.4688	-1.8729	-1.7042	-1.4771	-1.8125	-1.6812	-1.6187	-1.6833	-1.5292	-1.775	-1.7229	-1.4625	-1.7125	-1.5812	226.290	219.815	-49.239	230.802	-109.232	58.582	183.499	188.609	34.876	70.467	-82.454	228.967	-78.554	-106.479	-107.436	189.334	0.00042502	6.915e-05	0.00015262	468.67	3.5355e-06	8.2251e-06	720.42	182.63	1.5197e-06	5.2141e-06	354.44	157.56	74.165	36.238	1.1084e-06	86.811	0.00040384	0.00035174	0.00011078	482.51	4.1478e-06	3.9437e-06	731.81	186.92	4.254e-06	3.8127e-06	356.49	158.54	75.929	36.495	4.59e-06	86.145	195.136	-103.615	17.080	-99.263	7.650	-6.864	-99.089	-94.648	-88.015	32.305	-95.341	-91.662	-91.186	-85.089	80.228	-86.332	-8191	255	
2442.789	1	1	0	0	0.22842	0.25023	0.099008	0.14916	0.12707	0.28581	0.1302	0.024446	0.13439	0.22062	0.20078	0.11115	0.46534	0.12562	0.16225	0.14176	-1.2313	-1.7854	-1.3542	-1.7646	-1.6792	-1.4167	-1.7146	-1.5958	-1.6333	-1.9729	-1.6396	-1.7146	-1.7604	-1.5104	-1.6688	-1.7042	-93.305	-52.853	124.037	-88.518	83.268	241.125	198.165	-94.147	116.187	57.317	-82.806	179.777	-85.063	144.913	-92.836	109.328	0.00045	0.00026742	0.00012581	468.11	2.7011e-06	5.3673e-06	720.4	181.35	5.8348e-06	4.209e-06	352.36	156.03	73.415	35.836	4.7099e-06	85.51	0.00039689	0.000351	0.00012056	481.39	4.0457e-06	3.9994e-06	732.72	185.52	4.1652e-06	3.9259e-06	354.91	156.64	75.245	36.165	4.8571e-06	84.97	181.311	4.112	102.313	-99.175	30.925	-6.076	-98.955	-94.748	-2.177	-4.150	-95.256	-91.707	-91.368	-85.220	-17.268	-86.515	-8191	255	
2442.910	1	1	0	0	0.092956	0.079807	0.19109	0.1694	0.24637	0.19603	0.21082	0.15541	0.3889	0.047757	0.19197	0.21796	0.080252	0.39626	0.3667	0.30788	-1.0833	-1.7646	-1.4125	-1.6271	-1.85	-1.4896	-1.9188	-1.6979	-1.3583	-1.8208	-1.6708	-1.7625	-2.0021	-1.6	-1.7479	-1.9396	-2.165	171.265	29.305	137.181	8.432	-39.943	201.568	-110.054	45.042	-59.579	216.778	170.763	-86.124	212.601	16.995	196.464	0.00041245	0.00054355	0.00023192	465.57	4.8259e-06	1.5572e-06	713.34	180.59	1.2201e-06	2.274e-06	350.51	155.05	73.276	35.757	6.4523e-06	85.103	0.00038357	0.00037109	0.00012461	476.62	3.8957e-06	4.1997e-06	728.99	183.95	3.9941e-06	4.2121e-06	353.56	155.77	75.068	36.154	4.8999e-06	84.453	186.940	60.037	-9.328	-99.334	35.364	-29.856	-99.099	-94.615	-9.799	220.860	-95.224	-91.598	-91.460	-85.193	-37.739	-86.244	-8191	255	
2443.004	1	1	0	0	0.18359	0.1407	0.31559	0.069899	0.1268	0.085588	0.26032	0.13568	0.1246	0.16137	0.1993	0.21683	0.21821	0.11031	0.28965	0.22695	-1.0542	-1.6333	-1.5021	-1.5312	-1.675	-1.4354	-1.9208	-1.8354	-1.2604	-1.8062	-1.5229	-1.475	-1.9688	-1.675	-1.7792	-2.0521	-36.561	80.861	162.017	172.106	232.327	57.956	188.616	190.939	4.656	-0.019	181.964	116.904	13.420	158.233	37.497	189.534	0.00051083	8.7657e-05	0.00016332	466.57	3.6115e-06	1.2136e-06	715.49	180.15	6.2276e-06	1.6594e-06	352.78	154.93	73.401	35.779	3.2912e-06	85.733	0.00037407	0.00041066	0.00012324	476.2	3.8285e-06	4.6163e-06	728.25	183.92	3.9488e-06	4.656e-06	354.39	156.03	75.178	36.366	4.6417e-06	84.971	183.202	246.740	11.666	-99.407	34.109	-13.434	-98.884	-94.957	-23.530	29.822	-95.177	-91.769	-90.897	-85.029	-13.803	-86.269	-8191	255	
2443.076	1	1	0	0	0.085272	0.14995	0.012365	0.079281	0.22687	0.1629	0.15876	0.20621	0.094129	0.26623	0.28143	0.1993	0.23883	0.1526	0.22816	0.20285	-1.0042	-1.6583	-1.6688	-1.375	-1.775	-1.6542	-1.4333	-1.8292	-1.325	-1.8271	-1.8062	-1.5604	-1.6458	-1.8146	-1.6708	-2.0646	184.475	-87.120	92.626	161.856	66.940	103.354	-62.924	32.285	64.335	237.376	217.596	173.618	-91.157	138.432	-27.172	-69.112	0.00045885	0.00029198	0.00018164	464.65	4.5185e-06	4.7929e-06	715.27	181.42	2.3128e-06	6.8287e-06	351.29	155.94	73.491	35.963	7.4102e-06	86.135	0.00038097	0.00044491	0.00011579	475.88	3.9907e-06	4.9206e-06	729.03	184.02	4.149e-06	4.965e-06	353.66	156.53	75.58	36.474	4.3668e-06	85.293	184.410	-56.988	-21.076	-99.108	-13.208	54.009	-98.902	-94.340	-19.004	12.922	-95.369	-91.519	-91.217	-85.158	37.611	-86.248	-8191	255	
2443.172	1	1	0	0	0.086756	0.22002	0.24149	0.079396	0.15174	0.059305	0.34461	0.16835	0.37264	0.10985	0.28603	0.040294	0.20624	0.23836	0.1196	0.079406	-1.1125	-1.7979	-1.7229	-1.325	-1.6833	-1.5146	-1.5708	-1.9083	-1.3854	-1.6812	-1.7125	-1.6479	-1.8687	-1.6354	-1.3229	-1.7708	228.289	206.366	87.755	200.784	51.628	211.264	185.256	-26.629	183.052	87.480	-92.708	108.664	227.770	160.945	230.486	52.695	0.00050809	0.00027972	0.00029965	467.11	9.7104e-07	1.6168e-06	719.58	181.72	2.8597e-06	3.9835e-06	351.53	155.84	73.537	35.905	5.2078e-06	85.719	0.00040192	0.00044948	0.00010875	476.31	4.3006e-06	4.891e-06	729.28	184.07	4.4848e-06	4.8769e-06	352.92	156.22	75.935	36.409	4.2207e-06	84.82	186.469	34.474	-60.244	-99.317	-23.529	82.483	-99.078	-94.481	-1.987	9.479	-95.338	-91.840	-91.309	-85.061	-38.625	-86.224	-8191	255	
2443.293	1	1	0	0	0.17353	0.343	0.16967	0.163	0.1302	0.20214	0.18046	0.064892	0.28239	0.2669	0.20124	0.23393	0.16394	0.085331	0.079156	0.084919	-0.99792	-1.5938	-1.6437	-1.2771	-1.6	-1.7771	-1.5854	-1.8958	-1.2833	-1.3917	-1.6396	-1.4354	-1.7417	-1.4667	-1.1854	-1.6917	190.522	86.913	-32.629	177.542	96.389	56.627	234.999	-9.971	189.237	-29.115	210.911	215.164	211.448	3.156	125.949	200.359	0.00046793	0.00050554	7.2893e-05	467.47	2.9812e-06	4.1719e-06	716.92	180.44	4.7353e-06	7.2437e-06	352.19	154.95	73.168	35.789	6.0481e-06	85.09	0.0004311	0.0004261	0.00010295	475.69	4.6338e-06	4.574e-06	724.89	183.81	4.7353e-06	4.558e-06	350.95	155.47	75.964	36.182	4.0121e-06	84.402	178.326	-5.081	-33.092	-99.432	91.758	11.164	-98.969	-94.451	144.292	-4.341	-95.279	-91.694	-91.303	-85.341	53.869	-86.516	-8191	255	
2443.389	1	1	0	0	0.13856	0.26445	0.44697	0.1209	0.14486	0.10711	0.065997	0.042039	0.11248	0.20832	0.14288	0.16828	0.17971	0.13858	0.31804	0.12822	-0.91667	-1.3687	-1.4708	-1.4083	-1.7125	-1.6063	-1.525	-1.8937	-1.5521	-1.3625	-1.8979	-1.6437	-1.7563	-1.7583	-1.2417	-1.9312	61.358	-75.036	149.725	216.606	210.821	33.653	238.875	1.638	137.410	100.784	-50.265	161.138	204.327	-84.145	172.896	179.011	0.00050483	0.00027429	0.00010975	464.83	2.9531e-06	9.7679e-06	716.98	179.52	8.3886e-07	4.9622e-06	352.26	154.98	73.489	35.697	1.7148e-06	85.264	0.00045536	0.00040191	9.9214e-05	475.53	4.849e-06	4.2883e-06	722.95	183.82	4.8455e-06	4.2398e-06	350.81	155.91	76.125	36.089	3.936e-06	84.824	188.274	-96.078	-52.888	-99.624	-0.713	18.850	-98.715	-94.773	78.010	7.925	-95.172	-91.864	-91.234	-85.280	-71.402	-86.245	-8191	255	
2443.485	1	1	0	0	0.14299	0.079292	0.36129	0.14077	0.15506	0.15613	0.10007	0.12347	0.10588	0.16491	0.21907	0.083614	0.34872	0.25033	0.26931	0.14202	-0.95833	-1.4312	-1.75	-1.5021	-1.6896	-1.6229	-1.3292	-1.9229	-1.5146	-1.5271	-1.7958	-1.3937	-1.5312	-1.7792	-1.3	-2.0083	33.775	122.409	45.647	170.293	20.907	169.930	233.731	-47.294	179.643	22.859	92.019	236.788	-91.809	96.808	155.448	-92.861	0.00038586	0.00026783	0.00019531	466.49	2.4989e-06	2.2711e-06	715.39	180.51	2.7724e-06	5.9467e-06	350.71	155.69	73.434	35.948	3.0453e-06	85.872	0.00044983	0.00038271	9.7321e-05	477.66	4.7935e-06	4.1354e-06	723.46	184.38	4.7022e-06	4.1309e-06	351.28	157.2	75.926	36.147	3.9976e-06	85.63	188.133	-33.857	-41.144	-99.266	59.802	25.639	-99.114	-94.647	18.924	15.639	-94.809	-91.757	-91.135	-84.993	-30.599	-86.358	-8191	255	
2443.581	1	1	0	0	0.35184	0.095521	0.19876	0.10053	0.094658	0.22172	0.043086	0.2625	0.1097	0.095954	0.26136	0.22939	0.17967	0.20866	0.0595	0.10049	-1.1375	-1.6083	-1.8062	-1.6083	-1.5312	-1.5708	-1.3396	-1.6688	-1.3729	-1.3312	-1.8188	-1.5333	-1.4354	-1.9646	-1.3875	-1.8979	-18.586	221.043	121.776	131.382	54.384	150.997	41.443	236.440	-90.021	124.091	176.703	189.768	132.771	6.056	123.072	226.876	0.00049336	0.00031296	0.00015296	467.98	2.214e-06	4.2303e-06	721.07	181.51	4.6844e-06	7.0204e-06	352.87	156.61	74.48	35.947	3.6421e-06	85.98	0.00042572	0.00037136	9.9438e-05	482.19	4.4939e-06	4.0108e-06	730.03	186.28	4.466e-06	3.9892e-06	353.1	157.91	76.073	36.162	4.2606e-06	85.391	189.195	-36.970	-93.371	-99.724	75.960	-29.371	-99.226	-94.843	-3.571	-18.601	-95.507	-91.664	-91.619	-85.007	-10.237	-86.606	-8191	255	
2443.700	1	1	0	0	0.103	0.11337	0.14859	0.11846	0.19258	0.10345	0.11267	0.25803	0.29382	0.23403	0.28088	0.078896	0.26963	0.21999	0.15	0.23435	-1.1667	-1.5354	-1.8292	-1.5958	-1.5583	-1.7854	-1.45	-1.6896	-1.8062	-1.4542	-1.9167	-1.3083	-1.5208	-2.0979	-1.2083	-1.7687	-82.319	158.877	-46.145	124.381	106.257	185.374	-93.638	231.366	59.641	219.752	156.377	84.463	-60.202	58.126	-98.453	-101.126	0.00038669	0.00045505	4.1178e-05	466.78	1.5904e-06	4.8757e-06	720.28	181.15	3.7398e-06	4.8696e-06	350.91	155.33	73.278	35.953	4.8566e-06	85.241	0.0004027	0.0003674	0.00010805	481.08	4.247e-06	3.8566e-06	728.74	185.65	4.1466e-06	3.8708e-06	352.59	156.56	75.349	36.023	4.5868e-06	84.843	189.105	-14.657	-40.444	-99.189	3.387	52.864	-98.919	-94.637	23.590	-20.742	-95.290	-91.900	-91.268	-85.296	31.719	-86.376	-8191	255	
2443.774	1	1	0	0	0.21481	0.32376	0.14221	0.23232	0.081779	0.20774	0.12584	0.12252	0.16789	0.030162	0.13081	0.29841	0.034518	0.19119	0.16328	0.28337	-1.3208	-1.3125	-1.7146	-1.5271	-1.4875	-1.85	-1.525	-1.6146	-1.5417	-1.275	-1.9021	-1.7542	-1.5708	-2.0438	-1.5229	-1.9229	33.894	78.352	90.425	1.828	33.560	-73.417	210.319	182.400	-20.458	-79.137	-77.268	202.717	204.109	-75.520	-106.056	188.239	0.00047632	0.00021622	9.1739e-05	464.1	2.7233e-06	3.8649e-06	714.87	179.9	1.7771e-06	2.3282e-06	351.58	155.86	74.073	35.869	4.5158e-06	85.704	0.00038857	0.00035225	0.00011931	479.08	4.156e-06	3.8874e-06	728.69	184.84	4.0771e-06	3.9614e-06	354.01	156.79	75.733	36.118	4.9125e-06	85.155	186.486	39.240	80.165	-99.395	90.761	12.848	-99.142	-94.603	-1.203	27.156	-95.195	-91.677	-91.408	-85.349	242.215	-86.247	-8191	255	
#DATA ENDS
