BOXY.EXE: ISS Imagent and Oximeter Data Acquisition Program Version 0.80
Ascii Record File

#ACQ INFORMATION
2  Detector Channels 
16  External MUX Channels 
1  Auxiliary Channels 
5000  Waveform (CCF) Frequency (Hz)
1  Waveforms Skipped 
30  Waveforms Averaged 
1  Cycles Averaged 
16  Acquisitions per Waveform 
10.0806  Updata Rate (Hz) 

#FILE INFORMATION
TRUE -- External MUX Channel results are PARSED.
FALSE -- AC DC and Phase are NOT grouped.
TRUE -- Companion Program Settings File CREATED.
FALSE -- AC data not excluded
FALSE -- DC data not excluded
FALSE -- Phase data not excluded
FALSE -- Auxillary Chn. data not excluded
Tab delimiters

#CALIBRATION STATE
TRUE -- Waveform Calibration Values APPLIED.


#AUX CALIBRATION VALUES
Val Type	aux-1	

Term	1.0000e+00	
Factor	0.0000e+00	


#WF CALIBRATION VALUES
A = Detector Channel
Val Type	A-AC1	A-AC2	A-AC3	A-AC4	A-AC5	A-AC6	A-AC7	A-AC8	A-AC9	A-AC10	A-AC11	A-AC12	A-AC13	A-AC14	A-AC15	A-AC16	A-DC1	A-DC2	A-DC3	A-DC4	A-DC5	A-DC6	A-DC7	A-DC8	A-DC9	A-DC10	A-DC11	A-DC12	A-DC13	A-DC14	A-DC15	A-DC16	A-Ph1	A-Ph2	A-Ph3	A-Ph4	A-Ph5	A-Ph6	A-Ph7	A-Ph8	A-Ph9	A-Ph10	A-Ph11	A-Ph12	A-Ph13	A-Ph14	A-Ph15	A-Ph16	

Term	0.00000e+00	0.00000e+00	0.00000e+00	0.00000e+00	0.00000e+00	0.00000e+00	0.00000e+00	0.00000e+00	0.00000e+00	0.00000e+00	0.00000e+00	0.00000e+00	0.00000e+00	0.00000e+00	0.00000e+00	0.00000e+00	0.00000e+00	0.00000e+00	0.00000e+00	0.00000e+00	0.00000e+00	0.00000e+00	0.00000e+00	0.00000e+00	0.00000e+00	0.00000e+00	0.00000e+00	0.00000e+00	0.00000e+00	0.00000e+00	0.00000e+00	0.00000e+00	0.00000e+00	0.00000e+00	0.00000e+00	0.00000e+00	0.00000e+00	0.00000e+00	0.00000e+00	0.00000e+00	0.00000e+00	0.00000e+00	0.00000e+00	0.00000e+00	0.00000e+00	0.00000e+00	0.00000e+00	0.00000e+00	
Factor	1.00000e+00	1.00000e+00	1.00000e+00	1.00000e+00	1.00000e+00	1.00000e+00	1.00000e+00	1.00000e+00	1.00000e+00	1.00000e+00	1.00000e+00	1.00000e+00	1.00000e+00	1.00000e+00	1.00000e+00	1.00000e+00	1.00000e+00	1.00000e+00	1.00000e+00	1.00000e+00	1.00000e+00	1.00000e+00	1.00000e+00	1.00000e+00	1.00000e+00	1.00000e+00	1.00000e+00	1.00000e+00	1.00000e+00	1.00000e+00	1.00000e+00	1.00000e+00	X	X	X	X	X	X	X	X	X	X	X	X	X	X	X	X	

B = Detector Channel
Val Type	B-AC1	B-AC2	B-AC3	B-AC4	B-AC5	B-AC6	B-AC7	B-AC8	B-AC9	B-AC10	B-AC11	B-AC12	B-AC13	B-AC14	B-AC15	B-AC16	B-DC1	B-DC2	B-DC3	B-DC4	B-DC5	B-DC6	B-DC7	B-DC8	B-DC9	B-DC10	B-DC11	B-DC12	B-DC13	B-DC14	B-DC15	B-DC16	B-Ph1	B-Ph2	B-Ph3	B-Ph4	B-Ph5	B-Ph6	B-Ph7	B-Ph8	B-Ph9	B-Ph10	B-Ph11	B-Ph12	B-Ph13	B-Ph14	B-Ph15	B-Ph16	

Term	0.00000e+00	0.00000e+00	0.00000e+00	0.00000e+00	0.00000e+00	0.00000e+00	0.00000e+00	0.00000e+00	0.00000e+00	0.00000e+00	0.00000e+00	0.00000e+00	0.00000e+00	0.00000e+00	0.00000e+00	0.00000e+00	0.00000e+00	0.00000e+00	0.00000e+00	0.00000e+00	0.00000e+00	0.00000e+00	0.00000e+00	0.00000e+00	0.00000e+00	0.00000e+00	0.00000e+00	0.00000e+00	0.00000e+00	0.00000e+00	0.00000e+00	0.00000e+00	-1.45867e+02	-1.23783e+02	-1.30834e+02	-1.84083e+02	-7.58095e+01	-7.30478e+01	-1.55713e+02	-1.62015e+02	-9.03867e+01	-7.43714e+01	-1.85725e+02	-1.70521e+02	-1.87050e+02	-1.76710e+02	-7.51131e+01	-1.49456e+02	
Factor	2.10453e-05	1.52073e-04	4.08231e-05	2.21187e-01	1.33617e-06	1.51758e-06	1.55432e-01	4.94518e-02	1.27884e-06	1.69986e-06	1.93204e-01	2.92118e-02	6.10080e-02	8.76291e-03	1.36065e-06	1.24210e-02	3.01981e-06	3.36426e-06	9.36133e-07	1.14310e-01	3.63966e-08	3.69298e-08	7.62793e-02	2.57675e-02	3.62490e-08	3.68367e-08	9.47209e-02	1.47461e-02	3.12550e-02	4.57521e-03	3.64405e-08	6.30051e-03	X	X	X	X	X	X	X	X	X	X	X	X	X	X	X	X	



#DISTANCE SETTINGS
A = Detector Channel
A-1	A-2	A-3	A-4	A-5	A-6	A-7	A-8	A-9	A-10	A-11	A-12	A-13	A-14	A-15	A-16	

2.5000e+00	3.0000e+00	2.5000e+00	3.0000e+00	2.0000e+00	3.0000e+00	1.5000e+00	3.0000e+00	3.0000e+00	3.0000e+00	3.0000e+00	3.0000e+00	3.0000e+00	3.0000e+00	1.5000e+00	3.0000e+00	

B = Detector Channel
B-1	B-2	B-3	B-4	B-5	B-6	B-7	B-8	B-9	B-10	B-11	B-12	B-13	B-14	B-15	B-16	

1.0000e+01	1.0000e+01	1.0000e+01	1.4400e+00	1.0000e+01	1.0000e+01	1.5100e+00	1.9400e+00	1.0000e+01	1.0000e+01	1.9900e+00	2.4900e+00	2.4100e+00	2.9000e+00	1.0000e+01	2.9800e+00	




#DATA BEGINS
time	group	step	mark	flag	A-AC1	A-AC2	A-AC3	A-AC4	A-AC5	A-AC6	A-AC7	A-AC8	A-AC9	A-AC10	A-AC11	A-AC12	A-AC13	A-AC14	A-AC15	A-AC16	A-DC1	A-DC2	A-DC3	A-DC4	A-DC5	A-DC6	A-DC7	A-DC8	A-DC9	A-DC10	A-DC11	A-DC12	A-DC13	A-DC14	A-DC15	A-DC16	A-Ph1	A-Ph2	A-Ph3	A-Ph4	A-Ph5	A-Ph6	A-Ph7	A-Ph8	A-Ph9	A-Ph10	A-Ph11	A-Ph12	A-Ph13	A-Ph14	A-Ph15	A-Ph16	B-AC1	B-AC2	B-AC3	B-AC4	B-AC5	B-AC6	B-AC7	B-AC8	B-AC9	B-AC10	B-AC11	B-AC12	B-AC13	B-AC14	B-AC15	B-AC16	B-DC1	B-DC2	B-DC3	B-DC4	B-DC5	B-DC6	B-DC7	B-DC8	B-DC9	B-DC10	B-DC11	B-DC12	B-DC13	B-DC14	B-DC15	B-DC16	B-Ph1	B-Ph2	B-Ph3	B-Ph4	B-Ph5	B-Ph6	B-Ph7	B-Ph8	B-Ph9	B-Ph10	B-Ph11	B-Ph12	B-Ph13	B-Ph14	B-Ph15	B-Ph16	aux-1	digaux	

11991.518	1	1	0	256	0.087681	0.14701	0.053878	0.32545	0.11051	0.18667	0.063968	0.25027	0.1617	0.22206	0.1474	0.12757	0.20732	0.25767	0.2172	0.12277	-1.8563	-2.2042	-1.8438	-2.6146	-2.1542	-2.0896	-2.4542	-2.2271	-2.4	-2.4125	-1.8917	-2.3937	-2.1042	-2.0312	-2.2396	-2.2146	82.588	70.182	4.454	70.593	100.277	173.417	-143.324	-123.516	110.728	127.763	-63.586	179.137	-43.612	-128.801	-3.914	39.588	0.00087109	0.00060671	0.00024373	815.42	3.2855e-06	5.6552e-06	824.79	289.05	4.7177e-06	6.5693e-06	325.17	141.77	121.29	64.688	8.0161e-06	79.143	0.0003726	0.00030138	8.5272e-05	797.86	3.2934e-06	3.2863e-06	807.23	284.48	3.3594e-06	3.3231e-06	316.87	139.22	118.38	63.621	3.4306e-06	77.928	182.959	-103.387	-71.830	-161.720	-57.643	-26.800	-162.742	-156.324	-51.618	-53.759	-158.440	-153.723	-152.722	-146.844	-78.782	-149.947	-8191	255	
11991.637	1	1	0	0	0.078556	0.1932	0.19567	0.14335	0.30181	0.11505	0.30721	0.045459	0.13245	0.15494	0.17517	0.16284	0.13889	0.24438	0.12497	0.19089	-1.7979	-2.275	-1.9292	-2.4813	-2.1	-2.0125	-2.5833	-2.0438	-2.1667	-2.275	-1.9937	-2.4792	-2.2104	-2.0104	-2.3271	-2.1	120.003	-158.054	132.193	101.294	-73.288	178.531	119.639	167.722	-47.143	162.415	158.595	-138.640	137.711	175.440	-108.914	158.269	0.00085013	0.00061609	9.6869e-05	817.61	4.68e-06	2.7948e-06	824.79	290.68	2.4115e-06	4.4211e-06	327.41	141.67	120.64	64.527	4.5468e-06	79.045	0.00036907	0.00030206	8.5364e-05	799.81	3.3434e-06	3.3586e-06	809.3	285.29	3.3483e-06	3.2525e-06	318.17	139.71	118.47	63.645	3.3805e-06	78.158	176.365	-83.238	-70.389	-161.703	-43.399	-30.341	-162.774	-156.365	-60.078	-21.149	-158.148	-153.504	-152.376	-146.686	-56.901	-149.936	-8191	255	
11991.733	1	1	0	0	0.23387	0.083095	0.14347	0.24553	0.10162	0.13202	0.056941	0.17193	0.074033	0.25175	0.32704	0.16445	0.1611	0.1755	0.12374	0.075875	-1.7563	-2.4354	-1.7729	-2.3917	-2.1458	-1.8521	-2.3854	-2.0708	-2.0708	-2.3438	-2.0583	-2.2917	-2.4062	-2.15	-2.4083	-2.175	30.576	12.008	27.146	73.159	-159.327	9.792	56.802	127.271	-109.988	1.180	-138.406	135.674	-161.250	170.708	-131.534	91.277	0.00090847	0.00070308	0.00016293	820.29	6.0254e-06	4.9145e-06	826.79	290.39	7.2251e-06	3.4149e-06	326.55	141.29	121.31	64.74	6.972e-06	78.904	0.00036344	0.00030146	8.5171e-05	799.57	3.2469e-06	3.2841e-06	810.48	285.35	3.3465e-06	3.2825e-06	317.62	139.29	118.26	63.848	3.3971e-06	77.936	180.253	-113.005	-83.248	-161.697	-40.566	-78.812	-162.760	-156.575	-43.980	-44.572	-158.381	-153.146	-152.807	-146.646	-46.762	-149.913	-8191	255	
11991.829	1	1	0	0	0.12156	0.14658	0.18443	0.20045	0.065524	0.1156	0.25458	0.22916	0.16997	0.058057	0.080218	0.3738	0.43651	0.19057	0.13631	0.27247	-1.5708	-2.1104	-1.8813	-2.2583	-2.3083	-1.95	-2.4583	-2.1271	-2.1063	-2.2062	-2.1521	-2.2042	-2.3167	-2.0771	-2.3771	-2.2208	-7.560	-46.129	170.286	101.061	134.346	-98.602	117.789	129.583	178.544	183.551	52.196	157.791	-77.814	146.897	68.775	133.325	0.00084809	0.0007902	6.6017e-05	819.71	5.0047e-06	1.6016e-06	824.71	291.07	4.3618e-06	5.5235e-06	325.1	141.3	121.46	64.729	6.6867e-06	78.805	0.00035757	0.00030821	8.356e-05	801.23	3.275e-06	3.245e-06	808.47	285.59	3.351e-06	3.2883e-06	316.14	138.94	118.32	63.654	3.3619e-06	77.8	182.992	-71.484	-124.069	-161.758	-20.141	-38.624	-162.517	-156.455	-95.349	-29.874	-157.990	-153.407	-152.188	-146.851	-49.080	-149.851	-8191	255	
11991.925	1	1	0	0	0.092772	0.12518	0.2736	0.22325	0.25138	0.31309	0.16278	0.29348	0.21618	0.061754	0.13514	0.097484	0.11494	0.089261	0.057974	0.069744	-1.5438	-2.6229	-1.9021	-2.2917	-2.3083	-1.9083	-2.5333	-2.2021	-2.0854	-2.4042	-2.1083	-2.2042	-2.4708	-2.2646	-2.2458	-2.4917	-136.886	-34.836	117.344	-68.784	69.159	-21.317	-151.826	153.277	44.680	51.920	144.553	-85.747	29.494	176.049	118.353	42.539	0.00085505	0.00054867	0.00010108	816.99	4.6118e-06	5.3998e-06	820.38	290.01	4.2886e-06	5.5393e-06	326.35	141.51	121.08	64.379	6.339e-06	79.252	0.00036617	0.00029765	8.4149e-05	799.29	3.2746e-06	3.2847e-06	806.41	284.87	3.3348e-06	3.3089e-06	317.95	139.16	118.25	63.511	3.3329e-06	77.891	180.765	-97.567	-98.659	-161.560	-35.834	-49.095	-162.952	-156.304	-69.601	-54.520	-157.636	-153.551	-152.461	-146.779	-21.905	-149.817	-8191	255	
11992.022	1	1	0	0	0.14199	0.17132	0.12697	0.29662	0.2789	0.082668	0.1846	0.24365	0.17004	0.014961	0.20159	0.14788	0.17493	0.23833	0.37094	0.21195	-1.4917	-2.3312	-1.9542	-2.2333	-2.3917	-1.8833	-2.4062	-2.5	-1.7646	-2.4813	-2.2125	-2.0875	-2.3396	-2.2333	-2.1813	-2.3458	147.449	48.380	59.671	130.869	133.664	-168.306	-126.788	-9.503	59.671	-69.278	-141.009	38.051	173.162	156.970	25.955	80.274	0.00087173	0.00068371	0.00017512	817.74	2.702e-06	4.443e-06	824.54	290.47	4.1341e-06	7.0454e-06	328.16	143.21	120.91	64.549	2.0991e-06	79.509	0.00036741	0.00030304	8.4913e-05	799.41	3.3408e-06	3.3506e-06	809.92	286.19	3.406e-06	3.3076e-06	318.83	140.46	118.71	63.762	3.3717e-06	78.303	179.157	-105.329	-85.650	-161.774	-21.186	-2.443	-162.742	-156.417	-60.526	-9.594	-158.346	-153.467	-152.221	-146.700	-85.333	-149.755	-8191	255	
11992.118	1	1	0	0	0.2048	0.42832	0.23001	0.23958	0.31418	0.27179	0.10871	0.25158	0.1191	0.23331	0.11976	0.13328	0.093287	0.17957	0.0048896	0.14737	-1.3563	-2.2521	-1.8	-2.2146	-2.275	-1.875	-2.3063	-2.3417	-1.8687	-2.3771	-2.2229	-2.1063	-2.6542	-2.0187	-2.0604	-2.4583	36.198	12.804	-37.351	148.639	164.108	-147.263	178.607	-166.056	122.793	117.789	82.384	-44.004	164.341	42.088	123.671	23.917	0.00089379	0.00066152	0.00011654	822.95	2.6794e-06	3.2811e-06	828.89	291.93	5.2209e-06	8.5681e-06	327.78	142.74	122.41	64.619	4.4047e-06	79.2	0.00036559	0.00030995	8.4037e-05	802	3.3771e-06	3.4115e-06	813.51	287.33	3.3887e-06	3.3144e-06	319.12	140.61	119.1	63.779	3.415e-06	77.841	182.119	-88.116	-65.929	-161.715	-57.683	-32.741	-162.770	-156.204	-87.384	-27.889	-158.071	-153.427	-152.305	-146.445	-30.162	-149.531	-8191	255	
11992.214	1	1	0	0	0.17977	0.11421	0.10016	0.26909	0.10045	0.14758	0.19276	0.26186	0.016342	0.32824	0.34904	0.18141	0.20402	0.23162	0.16288	0.17103	-1.525	-2.1479	-2.1542	-1.9688	-2.3917	-2.1292	-2.3021	-2.3354	-1.8979	-2.2	-2.2771	-2.0375	-2.5917	-2.2333	-2.025	-2.3688	87.020	2.400	-11.165	97.033	-45.394	57.090	7.267	114.182	-10.505	-151.877	-173.862	161.121	-33.878	-169.755	102.875	126.298	0.00084022	0.00049129	0.00023047	816.69	3.9284e-06	3.7937e-06	821.89	290.59	3.809e-06	3.2272e-06	325.22	141.74	121.1	64.252	4.7674e-06	78.646	0.00036837	0.00030418	8.3924e-05	799.9	3.3172e-06	3.3183e-06	808.37	285.82	3.4218e-06	3.3868e-06	316.88	139.32	118.36	63.356	3.4401e-06	77.485	179.133	-82.645	-78.375	-161.555	-59.032	29.552	-162.595	-156.309	-52.125	-11.711	-158.008	-153.306	-152.292	-146.568	-19.620	-149.341	-8191	255	
11992.310	1	1	0	0	0.18827	0.1604	0.1242	0.22893	0.074517	0.088994	0.24106	0.018244	0.11681	0.11578	0.067491	0.2148	0.11618	0.27082	0.16912	0.10119	-1.6562	-2.2479	-2.0729	-1.7563	-2.3312	-2.0667	-1.8417	-2.5229	-1.7667	-2.3479	-2.2042	-1.9104	-2.3	-2.2938	-1.8125	-2.5333	-59.958	-1.461	25.235	-91.999	161.800	-90.115	68.340	167.753	67.856	170.660	1.026	-151.514	-143.784	125.909	69.767	149.322	0.00091321	0.00058402	0.00019806	818.46	3.6668e-06	5.1187e-06	823.76	290.04	2.7914e-06	3.2296e-06	327.21	142.06	121.89	64.711	5.2557e-06	78.867	0.0003693	0.00030447	8.5046e-05	800.65	3.4101e-06	3.4269e-06	809.3	286.05	3.4912e-06	3.2781e-06	318.25	139.98	119.42	63.795	3.459e-06	77.87	181.443	-57.162	-113.730	-161.701	-39.908	-13.924	-162.693	-156.262	-29.993	-80.663	-157.886	-153.372	-152.221	-146.478	-76.170	-149.691	-8191	255	
11992.429	1	1	0	0	0.25482	0.14586	0.15192	0.12313	0.1761	0.10987	0.13335	0.24499	0.22635	0.046187	0.32713	0.25569	0.20225	0.097712	0.052077	0.38285	-1.8292	-2.1417	-2.1917	-1.8792	-2.3187	-2.1896	-1.9271	-2.4938	-2.0104	-2.2542	-2.2333	-1.8583	-2.0646	-2.1458	-1.9271	-2.4521	18.070	-61.576	109.907	89.915	26.425	172.691	-77.822	161.394	-137.472	-90.001	155.076	49.305	131.854	-152.884	103.694	114.108	0.00087216	0.00055396	8.0789e-05	819.19	4.5452e-06	5.1265e-06	825.12	291.24	6.2907e-06	7.8315e-06	328.07	142.3	121.87	64.608	5.5172e-06	79.053	0.00036688	0.00030939	8.4956e-05	800.56	3.4022e-06	3.3792e-06	810.61	286.95	3.4023e-06	3.3901e-06	320.08	140.47	119.22	63.702	3.4312e-06	78.186	182.815	-107.092	-32.914	-161.345	-2.486	-39.997	-162.523	-156.431	-84.483	-12.856	-158.208	-153.262	-152.126	-146.518	-45.714	-149.528	-8191	255	
11992.525	1	1	0	0	0.11464	0.30848	0.1137	0.21228	0.21837	0.10628	0.039191	0.10143	0.12548	0.11142	0.23549	0.25297	0.11313	0.22247	0.27219	0.34526	-1.5833	-1.9688	-2.2271	-1.9854	-2.2812	-2.2396	-2.1042	-2.5042	-1.9792	-1.8479	-2.35	-2.0792	-1.9979	-2.5729	-1.8937	-2.3896	-137.120	-71.247	-166.349	112.003	-118.584	19.950	41.975	111.049	-42.102	-79.096	-144.319	100.401	160.780	-172.640	-88.767	97.249	0.00086425	0.0006181	0.00015131	815.9	3.5924e-06	6.8672e-06	826.43	290.55	8.506e-06	8.4742e-06	328.44	143.27	121.97	64.428	4.8739e-06	79.38	0.00036403	0.00030409	8.535e-05	799.51	3.3603e-06	3.3825e-06	811.65	286.74	3.45e-06	3.3996e-06	320.54	141.03	119.46	63.677	3.4505e-06	78.357	180.931	-85.257	-116.677	-161.663	-45.986	-12.415	-162.381	-156.071	-69.193	-31.307	-159.063	-154.711	-153.859	-148.089	-48.241	-150.897	-8191	255	
11992.599	1	1	0	0	0.080991	0.17833	0.11606	0.12802	0.25604	0.14247	0.25167	0.16076	0.059109	0.075997	0.065829	0.12153	0.038199	0.23126	0.18754	0.41073	-1.6646	-1.9188	-2.4	-2.1208	-2.3583	-2.1604	-1.9104	-2.4333	-1.9979	-1.9792	-2.3854	-2.0792	-1.9958	-2.6312	-1.825	-2.3646	-50.749	-136.874	-157.539	-132.518	34.609	113.543	152.277	126.188	-170.528	-39.821	-87.967	158.633	169.157	124.507	140.484	112.359	0.00089084	0.00030881	0.00015959	814.53	3.3278e-06	6.82e-06	825.55	290.92	6.67e-06	3.8548e-06	326.84	143.16	121.84	64.616	5.0771e-06	78.872	0.00037441	0.0003134	8.5594e-05	797.43	3.3614e-06	3.3666e-06	811.49	286.53	3.3857e-06	3.3873e-06	319.18	140.73	119.24	63.682	3.4275e-06	77.976	180.486	-45.388	-102.318	-162.900	-63.457	-22.116	-163.643	-157.613	-88.379	47.751	-158.903	-154.306	-153.335	-147.529	-10.542	-150.516	-8191	255	
11992.717	1	1	0	0	0.17054	0.06658	0.16871	0.3929	0.23862	0.087657	0.26667	0.11923	0.088338	0.15623	0.18637	0.15505	0.18274	0.10169	0.29411	0.18062	-1.7479	-1.7146	-2.3896	-2.1354	-1.9542	-2.4104	-2.1542	-2.2375	-2.2	-2.0604	-2.45	-2.1979	-2.0833	-2.5896	-1.8458	-2.4458	-172.720	101.212	175.775	129.069	138.730	-9.574	109.370	143.234	-101.457	-111.153	-52.625	55.083	139.537	-156.384	154.875	82.000	0.00086393	0.00053158	0.0001587	819.37	3.5435e-06	5.1781e-06	825.76	291.44	5.1418e-06	5.2459e-06	328.13	143.44	122.54	64.873	5.9099e-06	79.625	0.00036569	0.00030614	8.4531e-05	798.17	3.3031e-06	3.418e-06	809.81	286.88	3.3475e-06	3.3748e-06	319.22	141.09	119.73	64.076	3.4653e-06	78.502	182.344	-61.062	-89.859	-162.123	-53.688	-37.535	-163.342	-156.701	-50.496	-48.773	-158.450	-153.695	-152.299	-146.879	-59.146	-150.015	-8191	255	
11992.814	1	1	0	0	0.15223	0.23545	0.22805	0.21283	0.26383	0.21475	0.31255	0.24093	0.2493	0.14195	0.09139	0.30577	0.13075	0.25387	0.2582	0.35816	-1.9833	-1.95	-2.3833	-2.1813	-1.9958	-2.4979	-2.15	-2.3125	-2.3937	-1.975	-2.2188	-2.1042	-2.1479	-2.5646	-1.9062	-2.3333	162.944	43.314	-161.504	58.238	8.348	-79.175	105.879	161.134	123.162	123.430	-15.541	153.554	62.804	101.325	-167.174	129.553	0.00086469	0.00087009	7.6107e-05	817.67	1.5369e-06	5.3602e-06	825.95	291.19	5.6205e-06	6.9096e-06	329.06	143.59	122.13	64.701	3.5816e-06	79.679	0.00036558	0.00030929	8.6522e-05	800.65	3.3555e-06	3.3259e-06	811.5	286.84	3.46e-06	3.4097e-06	320.18	141.42	119.46	63.81	3.4394e-06	78.502	181.326	-88.756	-54.175	-162.042	-15.437	-47.323	-162.930	-156.885	-65.095	-31.713	-158.410	-153.684	-152.963	-147.275	-14.731	-150.430	-8191	255	
11992.910	1	1	0	0	0.11237	0.064115	0.10273	0.18755	0.0088665	0.17516	0.13623	0.11094	0.13226	0.22764	0.16362	0.26934	0.41852	0.19361	0.15411	0.21598	-1.8271	-1.9646	-2.1813	-2.2188	-1.8146	-2.475	-2.0229	-2.2271	-2.4938	-2.0521	-2.1021	-2.2938	-1.9188	-2.4813	-1.8625	-1.9562	-110.499	-121.154	-99.399	132.802	120.434	94.829	18.306	134.263	-143.797	-13.859	-86.282	163.863	-135.943	166.016	184.375	44.406	0.00088894	0.00065519	0.00015795	814.46	3.8773e-06	6.0499e-06	828.13	292.73	4.1147e-06	2.5842e-06	331.31	144.86	123.57	64.99	4.8548e-06	79.625	0.00037238	0.00031232	8.5867e-05	797.92	3.3775e-06	3.4012e-06	814.14	287.87	3.4008e-06	3.3878e-06	322.5	142.12	120.31	64.154	3.4884e-06	78.862	181.784	-89.188	-84.688	-162.419	-1.848	-20.102	-163.405	-156.843	-53.363	-23.672	-158.552	-154.008	-152.332	-147.427	-42.588	-150.400	-8191	255	
11993.006	1	1	0	0	0.14275	0.0439	0.28597	0.31816	0.17235	0.24979	0.18566	0.21223	0.2537	0.11578	0.1141	0.10893	0.15854	0.38145	0.084324	0.385	-2.1583	-1.8271	-2.1875	-2.2542	-1.9854	-2.4042	-2.3396	-2.1854	-2.3937	-2.0375	-2.3	-2.4271	-2.0208	-2.4167	-2.1271	-2.1958	-104.874	162.615	73.525	95.643	138.223	-139.595	172.019	170.737	-77.341	-113.664	123.802	136.445	175.486	-156.387	115.104	139.916	0.00087308	0.00050127	0.00014941	819.76	6.6016e-06	2.667e-06	827.54	291.82	4.6753e-06	7.3235e-06	328.82	144.27	122.81	64.949	4.2646e-06	79.162	0.00037015	0.00030837	8.5966e-05	798.36	3.4015e-06	3.3747e-06	812.97	287.87	3.3567e-06	3.3586e-06	321.58	141.74	120.28	63.901	3.3877e-06	78.021	181.155	-81.169	-77.634	-162.598	-26.677	-40.811	-163.373	-156.962	-54.406	-33.577	-158.823	-154.205	-153.221	-147.317	-56.233	-150.376	-8191	255	
11993.126	1	1	0	0	0.038098	0.27839	0.19701	0.27557	0.058323	0.042098	0.30438	0.34413	0.095063	0.12404	0.1779	0.22326	0.19466	0.18275	0.079912	0.15284	-2.0187	-2.05	-2.0104	-2.3958	-2.0062	-2.3563	-2.3354	-2.0083	-2.3688	-1.9896	-2.1688	-2.3583	-1.9979	-2.4583	-2.1104	-2.1063	72.091	43.958	-118.574	127.142	20.650	-88.637	95.879	150.669	133.513	-163.169	-51.679	59.988	87.520	83.353	-52.985	-65.569	0.00092963	0.00022287	3.3325e-05	815.55	5.9071e-06	6.7944e-06	825.4	291.63	8.0645e-06	5.6633e-06	328	142.43	121.07	63.781	5.9711e-06	77.789	0.00037203	0.00031684	8.6077e-05	799.07	3.3979e-06	3.4005e-06	810.74	286.71	3.4131e-06	3.3914e-06	319.8	139.96	118.73	62.787	3.5047e-06	76.847	182.144	-51.910	16.261	-162.296	-52.453	-62.577	-163.381	-157.248	-67.544	-84.386	-158.760	-154.323	-153.237	-147.517	-60.787	-150.647	-8191	255	
11993.198	1	1	0	0	0.14999	0.19604	0.24714	0.18992	0.18137	0.017309	0.22862	0.35772	0.18439	0.21198	0.24958	0.077139	0.1098	0.10313	0.097353	0.025876	-2.0646	-2.1125	-2	-2.4042	-1.9208	-2.2729	-2.3021	-2.0375	-2.4167	-1.9813	-1.8896	-2.5271	-1.9708	-2.5062	-2.1104	-2.0271	-49.041	-56.120	184.209	171.002	-86.593	-108.101	47.651	171.086	136.048	159.293	46.531	-142.279	104.559	113.044	-119.715	-123.415	0.00081183	0.00061374	5.1586e-05	815.57	1.9891e-06	2.1956e-06	828.91	290.35	6.1494e-06	5.082e-06	327.96	141.77	121.18	63.627	4.3346e-06	78.159	0.00036943	0.00031515	8.6856e-05	798.46	3.4732e-06	3.4629e-06	811.25	286.16	3.423e-06	3.3487e-06	319.06	139.55	118.81	62.916	3.4309e-06	77.241	181.523	-59.221	-4.081	-162.850	-41.447	-68.644	-163.751	-157.331	-88.070	-39.608	-158.829	-154.621	-153.486	-147.851	-80.230	-150.829	-8191	255	
11993.319	1	1	0	0	0.19712	0.12834	0.022589	0.17293	0.16719	0.16815	0.41574	0.36052	0.052528	0.31273	0.11004	0.26696	0.2893	0.15484	0.39715	0.1082	-2.0458	-2.05	-1.9479	-2.4354	-1.8375	-2.1688	-2.4646	-2.0333	-2.3792	-2.1104	-1.9708	-2.4708	-2.0375	-2.2708	-2.1917	-2.1729	107.660	141.379	55.804	125.072	-136.050	-123.739	114.793	171.760	-61.219	109.066	65.260	88.455	40.870	-160.336	81.600	96.079	0.00091855	0.00030228	0.00018654	817.61	2.7532e-06	6.334e-06	830.28	290.82	6.0073e-06	4.7859e-06	327.38	142.04	121.78	64.05	4.3797e-06	79.179	0.0003713	0.00031558	8.6021e-05	799.11	3.3693e-06	3.3068e-06	812.45	286.38	3.3628e-06	3.3756e-06	319.75	140.28	119.13	63.332	3.4321e-06	78.065	180.896	-72.772	-82.024	-162.663	-48.847	6.249	-163.728	-157.426	-45.695	-18.121	-158.749	-154.522	-153.623	-147.633	-43.035	-150.583	-8191	255	
11993.415	1	1	0	0	0.16985	0.1436	0.04019	0.21144	0.11856	0.1036	0.26794	0.28797	0.18804	0.12217	0.27218	0.16193	0.21507	0.15483	0.18157	0.15282	-1.7917	-2.0729	-1.8604	-2.4479	-2.1417	-2.1833	-2.4	-2.1188	-2.2188	-2.1625	-2.0312	-2.3542	-2.1542	-2.1583	-2.325	-1.9875	20.886	60.478	31.869	139.545	-1.523	126.377	55.175	134.886	151.562	34.763	-10.865	-170.747	-25.795	129.298	31.730	118.239	0.0008955	0.00045216	0.00017516	817.29	5.2997e-06	3.7761e-06	829.47	290.9	4.1942e-06	4.9069e-06	329.35	142.95	120.8	64.19	8.2292e-06	79.041	0.00036632	0.00030456	8.5338e-05	799.65	3.4258e-06	3.3164e-06	813.56	286.55	3.4088e-06	3.3952e-06	320.12	140.74	118.88	63.359	3.3795e-06	77.738	179.461	-122.362	-98.110	-162.705	-67.849	-40.810	-163.440	-157.208	-56.899	-37.002	-158.706	-154.402	-153.298	-147.567	-51.537	-150.566	-8191	255	
11993.509	1	1	0	0	0.22152	0.049012	0.038041	0.18481	0.16521	0.056087	0.15516	0.23187	0.057238	0.20477	0.16113	0.24182	0.30429	0.26477	0.18566	0.20791	-1.6562	-2.1146	-1.7854	-2.4146	-2.0438	-2.175	-2.2375	-2	-2.3354	-2.3354	-1.8896	-2.3125	-2.2729	-2.1271	-2.4917	-2.0542	-10.260	133.447	44.909	-72.736	-145.688	87.720	133.384	-166.750	55.154	49.452	49.591	125.675	108.842	173.236	-40.741	38.975	0.00082351	0.00060095	0.00011367	818.82	3.8883e-06	4.2806e-06	822.72	290.63	5.8505e-06	6.851e-06	328.38	141.49	120.88	63.674	7.1115e-06	77.982	0.0003702	0.00030927	8.5906e-05	799.65	3.3564e-06	3.3844e-06	808.19	286.12	3.3846e-06	3.3106e-06	318.45	139.48	118.77	63.015	3.4385e-06	77.009	180.767	-65.947	-118.691	-162.738	-41.248	-64.065	-163.837	-157.327	-80.785	-69.004	-158.708	-154.115	-153.295	-147.746	-52.386	-150.691	-8191	255	
11993.605	1	1	0	0	0.19697	0.067559	0.1902	0.40614	0.12505	0.061077	0.24698	0.12994	0.15792	0.17584	0.13234	0.0015985	0.13013	0.3827	0.32748	0.24138	-1.8188	-2.0542	-1.9042	-2.4958	-2.2792	-2.0708	-2.4396	-2.1271	-2.0792	-2.525	-2.0125	-2.6	-2.2833	-2.1188	-2.4708	-2.0917	-121.806	73.022	161.569	175.517	122.047	-5.290	-132.066	136.526	61.825	12.223	116.593	180.000	177.570	157.391	-83.311	174.878	0.00084466	0.00053891	0.00015177	817.61	3.7135e-06	7.9362e-06	823.88	290.89	5.1433e-06	1.6112e-06	324.24	142.2	121.54	63.84	8.274e-06	78.158	0.00036808	0.00030543	8.5781e-05	796.96	3.39e-06	3.3201e-06	807.93	286.06	3.4102e-06	3.3332e-06	318.23	139.83	119.02	63.027	3.4295e-06	77.068	181.771	-55.991	-101.722	-162.724	-62.812	-60.670	-163.545	-157.282	-94.193	-16.428	-159.120	-154.511	-153.121	-147.495	-67.565	-150.610	-8191	255	
11993.726	1	1	0	0	0.059109	0.075606	0.1056	0.20098	0.10255	0.24813	0.022582	0.39182	0.27364	0.20869	0.26461	0.33745	0.19423	0.052483	0.096634	0.23587	-1.9062	-2.3021	-1.7542	-2.3229	-2.2042	-1.9646	-2.5812	-2.1375	-1.9146	-2.3667	-1.9	-2.3292	-2.2958	-2.0583	-2.4667	-2.2917	69.669	70.256	168.948	6.839	-94.057	168.120	53.831	119.193	-61.319	-127.847	-156.142	160.207	-164.806	-171.948	129.513	128.164	0.00085766	0.00054329	0.0001088	815.08	4.434e-06	5.2301e-06	825.15	290.95	2.873e-06	7.9778e-06	328.89	142	121.24	63.684	3.5124e-06	77.469	0.00037522	0.00031176	8.5325e-05	797.56	3.3529e-06	3.3949e-06	808.89	286.25	3.4248e-06	3.4105e-06	319.46	139.7	118.63	62.855	3.5259e-06	76.765	179.268	-97.158	-105.736	-162.472	-47.177	-53.903	-163.101	-157.030	-90.462	-51.399	-158.491	-154.045	-152.838	-147.494	-51.253	-150.785	-8191	255	
11993.798	1	1	0	0	0.17149	0.1947	0.12992	0.065426	0.16123	0.25789	0.072393	0.23694	0.24742	0.19174	0.19838	0.17591	0.1835	0.3953	0.32739	0.087394	-1.6417	-2.4208	-1.8854	-2.3479	-2.25	-1.9354	-2.4896	-2.2313	-1.9708	-2.4979	-2.1188	-2.2562	-2.3792	-2.0083	-2.2562	-2.3896	184.509	91.507	38.856	104.524	-169.046	144.327	-139.842	112.037	167.428	-124.815	-128.402	156.289	142.273	128.251	-97.943	81.393	0.00085618	0.00057611	6.1265e-05	812.94	5.8939e-06	6.2792e-06	823.47	292.05	5.0322e-06	2.8459e-06	327.11	140.44	119.93	62.694	8.8807e-06	76.311	0.00036488	0.00031309	8.7571e-05	796.23	3.3011e-06	3.4103e-06	809.27	286.11	3.4147e-06	3.4764e-06	318.63	138.51	117.93	61.788	3.5195e-06	75.31	179.327	-87.717	-122.384	-162.231	-14.496	-55.976	-163.450	-157.049	-115.946	-26.551	-158.868	-154.151	-152.761	-147.612	-61.845	-150.678	-8191	255	
11993.894	1	1	0	0	0.19316	0.28757	0.16322	0.086171	0.13755	0.17734	0.076579	0.22616	0.047193	0.22995	0.11883	0.30033	0.15874	0.087418	0.29481	0.16001	-1.4667	-2.3083	-1.8833	-2.2479	-2.3104	-1.975	-2.4854	-2.4042	-1.9604	-2.3458	-2.1708	-2.2083	-2.3708	-2.1667	-2.1604	-2.4333	50.717	180.961	-93.652	147.879	-161.138	-49.738	177.084	129.907	-137.452	28.278	23.893	98.280	30.646	-103.299	136.196	-81.642	0.00080057	0.00025259	8.34e-05	813.42	5.6e-06	2.9705e-06	818.02	287.53	7.0334e-06	4.9239e-06	324.33	138.72	118.23	61.371	5.8192e-06	75.146	0.00037133	0.00031628	8.7692e-05	796.09	3.4001e-06	3.4048e-06	806.48	283.83	3.4401e-06	3.3751e-06	314.16	136.34	116.01	60.782	3.366e-06	74.156	182.209	-74.746	-79.204	-163.091	-64.822	-24.839	-164.161	-157.803	-43.561	-55.239	-158.939	-154.421	-153.380	-147.753	-43.654	-150.564	-8191	255	
11993.990	1	1	0	0	0.14447	0.36951	0.15912	0.21503	0.078082	0.21635	0.14851	0.19356	0.26516	0.35865	0.32212	0.17297	0.16814	0.11368	0.37003	0.41983	-1.4562	-2.4688	-2.0292	-2.1188	-2.4417	-2.0729	-2.3187	-2.3042	-1.7458	-2.4208	-2.075	-2.0583	-2.6104	-2.1354	-2.4188	-2.6417	-4.420	-10.126	-64.625	169.937	-148.178	-73.234	-173.049	-168.144	134.889	-31.379	147.337	120.092	105.628	92.907	-0.652	32.701	0.00077817	0.0001795	0.00016187	811.76	5.0104e-06	2.8478e-06	817.09	288.1	7.804e-06	4.253e-06	321.56	138.84	118.07	61.626	2.5224e-06	75.228	0.00036177	0.00030391	8.5923e-05	794	3.3214e-06	3.3858e-06	803.75	283.04	3.3327e-06	3.3635e-06	313.55	136.5	115.75	60.996	3.3647e-06	74.346	181.249	-84.727	-56.219	-162.516	-46.320	-5.813	-163.248	-157.239	-66.242	3.920	-158.551	-153.930	-152.844	-147.176	-66.456	-150.316	-8191	255	
11994.111	1	1	0	0	0.1599	0.10009	0.13696	0.20346	0.24188	0.11222	0.20212	0.23994	0.023969	0.12334	0.22221	0.2731	0.049643	0.14219	0.1167	0.34841	-1.4208	-2.3396	-2.0542	-1.9917	-2.3458	-2.0458	-2.125	-2.5875	-2.0229	-2.3583	-2.15	-1.8667	-2.3479	-2.0292	-2.15	-2.5021	111.567	34.564	-57.727	103.100	64.882	-165.260	155.702	173.444	-88.527	-107.404	-141.787	169.636	79.788	87.418	-45.409	88.515	0.00081042	0.00046998	0.00011211	809.6	5.4308e-06	8.7846e-06	822.47	287.65	5.7814e-06	2.0425e-06	321.94	138.22	118.26	61.626	4.7323e-06	75.427	0.00036586	0.00030985	8.5444e-05	794.88	3.3011e-06	3.3491e-06	804.92	282.64	3.391e-06	3.329e-06	313.55	136.07	115.95	60.855	3.3575e-06	74.486	184.207	-33.768	-112.205	-162.133	-40.003	-18.984	-162.986	-157.091	-72.039	-2.257	-158.672	-153.763	-152.793	-147.072	-47.306	-150.215	-8191	255	
11994.207	1	1	0	0	0.079184	0.13424	0.07263	0.16972	0.26906	0.24572	0.19783	0.13165	0.049768	0.14567	0.1842	0.3399	0.16247	0.021423	0.13122	0.14254	-1.6187	-2.075	-2.1937	-1.8771	-2.4333	-2.0083	-2.2083	-2.4583	-1.8271	-2.2875	-2.4667	-2.0833	-2.6542	-2.2521	-2.0812	-2.6458	-94.374	-49.157	149.702	-87.625	-66.770	133.361	-134.499	168.444	-151.323	7.589	87.607	159.469	-114.504	149.363	73.174	138.702	0.000816	0.00036309	0.0001318	815.52	4.5262e-06	4.7857e-06	823.02	286.81	5.5678e-06	4.6833e-06	323.9	139.36	118.54	61.916	6.1702e-06	76.074	0.00036187	0.00030702	8.4632e-05	795.97	3.3762e-06	3.3673e-06	806.59	282.58	3.3918e-06	3.3379e-06	314.53	136.89	116.03	61.014	3.3529e-06	74.859	180.908	-59.234	-111.770	-161.994	-2.514	-21.888	-162.874	-156.785	-61.123	-47.118	-158.333	-153.807	-152.119	-146.911	-66.662	-149.869	-8191	255	
11994.303	1	1	0	0	0.11463	0.25186	0.27142	0.26719	0.031594	0.098667	0.3114	0.12047	0.25696	0.13351	0.20104	0.34857	0.17095	0.034429	0.03202	0.28988	-1.6313	-2.0312	-2.1771	-2.0729	-2.3312	-2.1333	-2.1875	-2.6896	-1.8438	-2.2188	-2.6	-2.0479	-2.4021	-2.3854	-2.0896	-2.6063	-51.820	183.968	-163.554	-170.252	90.345	-54.570	90.632	106.163	-159.025	70.820	87.874	144.105	73.284	-103.086	165.151	134.159	0.00083949	0.00042117	0.00012828	806.62	6.4576e-06	5.5727e-06	818.03	285.5	5.2481e-06	4.3688e-06	320.09	137.88	119.05	61.772	7.6408e-06	75.487	0.00036493	0.00030175	8.4521e-05	793.35	3.295e-06	3.2591e-06	804.93	281.89	3.323e-06	3.2707e-06	313.5	135.68	115.35	60.736	3.3528e-06	74.277	180.571	-72.597	-90.516	-161.606	-61.869	0.028	-162.562	-156.641	-37.858	-72.085	-158.275	-153.262	-152.569	-146.706	-43.122	-149.620	-8191	255	
11994.399	1	1	0	0	0.15399	0.052329	0.065492	0.4801	0.19504	0.05993	0.1495	0.03488	0.20553	0.068263	0.17838	0.0064713	0.11609	0.03884	0.18421	0.37322	-1.6646	-2.2375	-2.5021	-2.1	-2.3229	-2.025	-2.1125	-2.4521	-1.9771	-2.0917	-2.2021	-1.8104	-2.4167	-2.4208	-1.8292	-2.3646	115.075	-14.316	-8.256	147.953	-132.284	56.832	128.414	5.307	-81.652	-119.937	135.580	-135.298	-166.016	-95.336	-160.326	128.654	0.00084548	0.00047354	0.00013433	810.66	4.9899e-06	4.1757e-06	815.31	286.99	2.7968e-06	1.3357e-06	319.12	139.05	118.58	62.174	7.8679e-06	76.015	0.00035679	0.00029938	8.5348e-05	792.86	3.2485e-06	3.2428e-06	800.18	282.16	3.3156e-06	3.31e-06	311.52	136.21	115.71	61.14	3.2557e-06	74.915	181.939	-59.840	-75.762	-161.839	9.562	-63.804	-163.165	-156.791	-69.044	-65.282	-158.429	-153.730	-152.828	-146.971	-0.424	-150.081	-8191	255	
11994.495	1	1	0	0	0.25535	0.19274	0.27714	0.22624	0.21139	0.18782	0.40741	0.10852	0.17523	0.048732	0.16558	0.19994	0.073423	0.16782	0.2314	0.37102	-1.7708	-1.8563	-2.2104	-1.9896	-2.2167	-2.3354	-2.0438	-2.5604	-2.1042	-2.1208	-2.625	-1.9792	-2.3458	-2.5604	-1.8771	-2.5458	41.431	156.584	86.097	135.567	164.717	-69.931	102.066	-161.523	-128.904	-110.210	134.826	-69.245	112.936	-170.016	-89.163	139.691	0.00078287	0.00072135	0.00017967	807.63	4.553e-06	5.0698e-06	816.77	286.63	5.5745e-06	6.2309e-06	322.43	138.14	118.14	62.105	2.9761e-06	76.453	0.00035366	0.000302	8.5434e-05	790.68	3.3095e-06	3.2507e-06	801.66	281.63	3.3423e-06	3.3009e-06	313.14	136.31	115.85	61.306	3.4455e-06	75.26	181.073	-85.513	-102.228	-161.990	-105.171	0.784	-162.946	-156.601	-99.026	-13.399	-158.010	-153.704	-152.365	-146.854	-75.126	-149.870	-8191	255	
11994.591	1	1	0	0	0.372	0.25495	0.22786	0.035062	0.16963	0.24859	0.18487	0.12887	0.19739	0.058666	0.022846	0.21057	0.13165	0.043373	0.22442	0.10119	-1.45	-2.0062	-2.55	-2.0312	-2.2062	-2.4479	-2.0438	-2.6083	-2.2583	-1.9729	-2.5938	-2.2292	-2.1813	-2.5458	-1.7729	-2.5333	-110.566	178.358	24.706	76.919	157.972	65.010	159.583	78.966	43.761	-73.353	-134.244	76.024	-54.149	-75.651	117.482	152.608	0.00079868	0.00046417	0.00014836	809.97	2.7001e-06	2.8977e-06	819.22	286.42	5.692e-06	4.8879e-06	322.29	139.61	119.31	62.608	4.5951e-06	77.027	0.00035282	0.00030367	8.2885e-05	791.02	3.2634e-06	3.2844e-06	802.71	282.18	3.3749e-06	3.2747e-06	314.8	137.37	116.2	61.664	3.3395e-06	76.019	179.842	-61.671	-88.234	-161.982	-18.363	-61.362	-162.742	-156.537	-41.003	7.214	-157.970	-153.409	-152.253	-146.888	-38.859	-150.083	-8191	255	
11994.688	1	1	0	0	0.14355	0.054664	0.13604	0.1147	0.046319	0.094976	0.093647	0.078523	0.16551	0.024943	0.079412	0.39156	0.16859	0.27461	0.2163	0.1418	-1.7604	-1.8771	-2.3958	-2.2104	-2.1625	-2.4083	-1.9958	-2.4708	-2.2687	-1.8958	-2.4917	-2.1063	-2.1188	-2.6312	-2.1333	-2.5042	28.231	-167.725	98.637	-64.293	-51.921	-59.134	50.142	119.537	137.771	123.050	93.571	84.066	-98.752	90.587	-57.204	133.735	0.00087941	0.00063679	0.00014006	810.01	5.8386e-06	4.9498e-06	819.66	288.32	3.2375e-06	3.4326e-06	326.31	141.12	120	62.957	6.0347e-06	77.518	0.00036344	0.0002981	8.1812e-05	792.25	3.2705e-06	3.2639e-06	804.65	283.58	3.2919e-06	3.2418e-06	316.48	138.77	116.94	62.194	3.3569e-06	76.478	180.660	-84.267	-58.742	-161.963	-16.980	13.064	-162.898	-156.509	-79.971	-8.842	-158.535	-153.781	-152.924	-147.043	-75.562	-149.976	-8191	255	
11994.806	1	1	0	0	0.15386	0.044892	0.24739	0.060119	0.050506	0.097053	0.18788	0.10275	0.20663	0.20333	0.2479	0.18102	0.17833	0.23162	0.077334	0.3666	-1.8479	-1.8687	-2.4688	-2.2583	-2.0792	-2.5125	-2.0938	-2.1521	-2.3771	-2.0187	-2.4167	-2.3229	-2.0479	-2.6063	-2.075	-2.525	36.469	-50.990	150.232	119.115	-109.482	-5.685	22.545	58.398	11.636	76.531	81.173	33.650	8.921	101.565	13.977	129.296	0.00086477	0.00039454	0.00017771	806.88	6.7805e-06	4.951e-06	815.69	286.37	7.336e-06	4.1068e-06	322.32	139.4	119.21	62.657	4.6993e-06	76.204	0.00036159	0.00029432	8.3429e-05	789.73	3.2903e-06	3.2595e-06	802.34	282.46	3.3233e-06	3.2498e-06	313.85	137.55	116.65	61.841	3.3945e-06	75.48	181.870	-74.968	-86.919	-162.138	-35.757	-38.692	-162.987	-156.756	-84.456	-79.676	-158.451	-153.711	-152.895	-147.051	-54.771	-150.192	-8191	255	
11994.903	1	1	0	0	0.18052	0.040391	0.1471	0.22712	0.16458	0.10859	0.28014	0.24108	0.19217	0.20603	0.19299	0.1677	0.16363	0.063916	0.11451	0.21962	-2.0646	-1.9375	-2.2021	-2.2729	-1.9271	-2.5312	-2.0896	-2.225	-2.3958	-2.1625	-2.2979	-2.4062	-2.0479	-2.4333	-2.3167	-2.1917	-170.722	56.101	22.632	-26.862	-17.905	-11.545	76.289	105.963	-113.977	-56.278	159.588	-54.951	75.193	-149.120	-8.041	65.360	0.0008359	0.00059496	0.00015106	810.55	4.691e-06	5.8821e-06	813.88	288.51	6.3248e-06	5.5861e-06	322.07	140.35	119.93	62.604	4.014e-06	76.86	0.00035441	0.00030225	8.3757e-05	791.59	3.3491e-06	3.3225e-06	800.24	282.81	3.4198e-06	3.2357e-06	314.26	137.85	116.88	61.671	3.357e-06	75.696	180.171	-129.471	-114.853	-162.049	-42.097	-49.994	-162.870	-156.529	-47.191	-43.810	-158.303	-153.794	-152.697	-146.926	-41.680	-149.968	-8191	255	
11994.999	1	1	0	0	0.31199	0.055133	0.080803	0.11151	0.10192	0.29541	0.15114	0.30081	0.25266	0.15203	0.18657	0.11985	0.14157	0.28509	0.16395	0.10675	-1.9896	-2	-2.2313	-2.2167	-2.0479	-2.5604	-2.2625	-2.2271	-2.4188	-1.9625	-2.2375	-2.3917	-1.7938	-2.6688	-2.0958	-2.0917	78.516	123.446	-151.747	81.678	-159.684	-93.950	-150.271	114.553	-117.258	-5.284	-170.840	67.765	-12.176	-151.414	-27.347	147.293	0.00085028	0.00026624	0.00016911	808.09	3.6372e-06	5.2095e-06	817.5	286.65	7.0316e-06	4.1708e-06	324.96	139.3	118.65	61.881	2.4959e-06	76.082	0.00035934	0.0003075	8.3427e-05	791.37	3.3312e-06	3.2859e-06	802.4	282.58	3.413e-06	3.3713e-06	314.27	137.03	115.89	60.905	3.381e-06	74.947	182.933	-82.728	-71.931	-161.858	-30.626	-44.297	-162.900	-156.490	-67.937	-58.508	-158.171	-153.486	-152.667	-146.808	-62.836	-149.823	-8191	255	
11995.095	1	1	0	0	0.12848	0.23947	0.03234	0.2659	0.23915	0.23772	0.10645	0.061192	0.22157	0.09109	0.16109	0.063904	0.08981	0.19942	0.15028	0.1408	-1.9125	-1.8104	-2.2208	-2.2812	-2.0542	-2.1021	-2.3354	-2.0563	-2.2521	-2.0521	-2.2521	-2.4083	-1.9312	-2.3729	-2.15	-2.0771	-34.949	-55.621	59.678	-145.881	177.875	98.151	125.383	-97.159	-10.821	48.122	148.217	149.568	-54.109	148.859	53.906	-160.633	0.00086162	0.00067797	0.00014018	805.98	4.9858e-06	3.779e-06	817.36	287.11	2.5679e-06	7.5254e-06	324.08	139.14	118.21	61.489	3.4897e-06	75.681	0.00036974	0.00031039	8.4628e-05	790.01	3.3734e-06	3.3738e-06	803.88	282.39	3.3537e-06	3.3381e-06	314.91	136.81	115.71	60.678	3.478e-06	74.688	177.932	-112.811	-108.339	-161.848	-87.320	-16.850	-163.161	-156.525	-79.117	-43.804	-157.657	-153.649	-152.912	-146.773	-78.791	-149.967	-8191	255	
11995.191	1	1	0	0	0.24745	0.1169	0.074805	0.10695	0.1372	0.18689	0.29491	0.078332	0.32604	0.20719	0.14284	0.22966	0.21268	0.13951	0.23467	0.20984	-1.9375	-2.0083	-1.9979	-2.3333	-2.0062	-2.2854	-2.3688	-1.8813	-2.4813	-2.0812	-2.1083	-2.5854	-1.9833	-2.3708	-2.2583	-2.025	-120.241	-100.074	67.093	118.992	51.431	-51.722	-174.426	-21.736	178.495	73.239	-110.175	164.349	60.957	109.081	-147.862	159.784	0.0008533	0.00054199	0.00013584	806.87	6.7233e-06	5.7937e-06	816.2	285.69	5.3663e-06	5.152e-06	322.78	139.13	117.42	61.495	5.114e-06	75.564	0.00036079	0.00031351	8.4174e-05	787.88	3.3998e-06	3.2852e-06	801.19	281.16	3.4074e-06	3.3566e-06	314.13	136.37	115.22	60.661	3.4294e-06	74.538	179.553	-71.016	-131.841	-161.826	-32.616	-44.295	-162.847	-156.952	-90.996	-35.431	-158.071	-153.655	-152.423	-146.879	-41.154	-150.010	-8191	255	
11995.287	1	1	0	0	0.029809	0.18873	0.13751	0.24932	0.2229	0.31562	0.21147	0.15087	0.15402	0.11121	0.32911	0.064026	0.13273	0.31195	0.22489	0.19523	-1.9146	-2.0458	-1.9604	-2.5646	-1.9896	-2.1604	-2.4583	-2.0833	-2.1021	-2.1875	-1.9604	-2.5438	-1.9188	-2.0667	-2.2167	-2.125	139.722	-99.291	-145.095	17.493	72.023	79.564	142.748	158.016	-47.664	168.783	-41.531	-145.184	-27.163	-168.738	68.323	180.306	0.00077757	0.00055588	9.8456e-05	803.87	5.0819e-06	3.8114e-06	812.79	286.01	5.7859e-06	4.9588e-06	324.81	139.37	117.9	61.724	4.686e-06	76.162	0.00035882	0.00030707	8.3784e-05	788.17	3.2964e-06	3.342e-06	800.13	281.04	3.3686e-06	3.3136e-06	314.84	136.94	115.61	61.161	3.4154e-06	75.088	179.430	-100.001	-11.563	-161.942	-17.448	-26.383	-163.138	-156.967	-60.571	-52.283	-159.284	-154.728	-153.629	-147.830	-18.867	-150.609	-8191	255	
11995.408	1	1	0	0	0.26509	0.079498	0.079708	0.23808	0.066614	0.048462	0.39978	0.14633	0.18913	0.20083	0.071613	0.15903	0.17597	0.20114	0.13168	0.31842	-1.8021	-2.1604	-1.9417	-2.2458	-1.9417	-2.0771	-2.3771	-2.0938	-2.2438	-2.2438	-1.7875	-2.475	-2.1021	-2.2021	-2.4146	-1.8292	-119.455	173.490	-88.667	99.977	62.987	-33.036	174.400	176.964	-23.033	-126.578	-13.764	109.852	-98.019	128.381	-168.160	177.050	0.00085135	0.00043384	0.00020004	803.06	6.9463e-06	4.4665e-06	818.72	286.23	5.4886e-06	7.3228e-06	321.92	139.24	118	61.521	5.557e-06	76.436	0.0003676	0.00030714	8.5442e-05	788.76	3.4145e-06	3.3601e-06	802.34	281.87	3.4898e-06	3.3735e-06	314.02	136.97	115.53	60.825	3.4537e-06	75.348	178.163	-73.794	-107.237	-162.900	-42.670	-19.581	-163.659	-157.295	-66.057	-0.173	-158.873	-154.333	-153.719	-147.724	-22.598	-150.697	-8191	255	
11995.502	1	1	0	0	0.16869	0.27161	0.14384	0.15895	0.16205	0.064454	0.34426	0.1907	0.0799	0.16174	0.089846	0.23714	0.26781	0.15066	0.15579	0.28109	-1.6313	-2.1271	-1.8271	-2.3708	-2.0687	-2.1417	-2.5854	-2.05	-2.2604	-2.3667	-1.9104	-2.5396	-2.1417	-2.1771	-2.4313	-2.2271	127.142	114.028	-116.834	168.370	-111.567	88.468	109.343	83.954	46.580	129.738	172.544	156.800	-150.518	132.129	-144.834	95.113	0.0008417	0.00059123	0.00011412	805.49	4.2619e-06	5.0655e-06	819.85	287.32	5.3278e-06	6.2403e-06	325.59	140.08	118.76	62.6	7.1547e-06	77.594	0.00036831	0.00030085	8.4018e-05	789.32	3.27e-06	3.2835e-06	804.84	281.64	3.3381e-06	3.2026e-06	315.97	138.2	116.14	61.724	3.2593e-06	76.759	182.318	-97.292	-104.557	-162.469	-2.301	-30.181	-163.526	-157.308	-59.963	-46.121	-159.423	-153.977	-153.006	-147.677	-48.809	-150.734	-8191	255	
11995.598	1	1	0	0	0.21116	0.14717	0.23953	0.19346	0.28945	0.11102	0.23863	0.17105	0.25965	0.054848	0.011407	0.16358	0.14604	0.26609	0.19251	0.11554	-1.7	-2.3271	-1.8771	-2.4125	-2.1042	-1.7833	-2.6188	-1.9271	-2.2188	-2.3312	-1.9917	-2.3	-2.1417	-1.9604	-2.5333	-2.2125	-34.278	9.675	14.830	-135.316	-6.589	70.769	149.684	148.012	67.558	26.240	-36.341	-169.223	-95.304	-171.040	-124.315	141.734	0.00085997	7.0313e-05	0.0001656	800.37	6.6205e-06	1.9282e-06	821.31	286.29	5.9596e-06	8.6467e-06	321.35	140.08	118.2	62.477	4.9229e-06	77.635	0.00035364	0.00029642	8.2612e-05	786.58	3.2225e-06	3.2625e-06	805.6	282.01	3.2714e-06	3.145e-06	315.16	137.82	115.78	61.682	3.2153e-06	76.481	178.500	-118.554	-53.888	-162.380	-23.585	56.975	-163.290	-156.956	-88.387	-13.641	-158.818	-153.889	-153.067	-147.310	-44.541	-150.443	-8191	255	
11995.695	1	1	0	0	0.40996	0.25967	0.039809	0.18578	0.099269	0.21412	0.2298	0.097422	0.11197	0.20664	0.31464	0.10129	0.21795	0.14896	0.14574	0.42	-1.6625	-2.4333	-1.9729	-2.0792	-2.2812	-1.9062	-2.4938	-2.0604	-2.1188	-2.2687	-1.7979	-2.3125	-2.0521	-2.0438	-2.3125	-2.0146	-111.405	75.391	138.214	-89.729	56.921	-9.784	-154.245	-112.306	-9.751	-30.492	169.520	-129.295	37.151	41.745	-61.906	120.204	0.00084888	0.00027976	6.379e-05	808.01	3.8719e-06	6.0329e-06	823.48	287.43	5.769e-06	2.9043e-06	321.61	139.94	118.62	62.834	4.7921e-06	77.199	0.00035196	0.00030094	8.0418e-05	790.66	3.2778e-06	3.2818e-06	804.37	282.27	3.2787e-06	3.1725e-06	314.25	137.51	116.25	61.947	3.2532e-06	76.493	179.580	-127.437	-83.041	-162.430	-23.249	-17.778	-163.335	-157.037	-76.946	-8.748	-158.945	-153.949	-153.213	-147.406	-94.796	-150.209	-8191	255	
11995.768	1	1	0	0	0.27443	0.18315	0.27298	0.15733	0.038823	0.15924	0.26731	0.41361	0.068827	0.065432	0.25612	0.086389	0.28673	0.048721	0.35284	0.20418	-1.5	-2.3625	-1.9312	-2.2021	-2.1542	-1.7458	-2.4083	-2.2292	-1.9167	-2.2979	-2.0708	-2.1937	-2.1688	-1.8292	-2.1667	-2.3583	-136.256	162.567	75.084	184.742	165.049	-0.188	107.213	38.167	-115.321	35.975	100.378	-77.409	-134.794	-75.631	-71.907	150.369	0.00081673	0.00078927	0.00011217	805.78	6.2037e-06	5.2681e-06	818	286.54	6.3536e-06	3.4201e-06	322.45	140.34	118.25	62.923	7.4661e-06	77.684	0.00035271	0.00029259	8.2183e-05	790.94	3.1499e-06	3.2615e-06	802.87	282.95	3.2096e-06	3.2404e-06	314.51	138.12	116.18	61.947	3.2699e-06	76.68	182.506	-110.907	-104.988	-162.383	-26.221	-54.112	-163.328	-157.077	-43.626	-10.519	-158.784	-154.088	-153.189	-147.137	-55.347	-150.286	-8191	255	
11995.887	1	1	0	0	0.20357	0.24747	0.1275	0.065106	0.17891	0.032524	0.25392	0.17043	0.1184	0.2799	0.18811	0.076771	0.2543	0.18269	0.034299	0.14498	-1.6417	-2.5354	-1.9083	-2.1146	-2.4292	-1.8188	-2.5583	-2.3833	-1.9208	-2.3042	-2.1458	-2.0458	-2.3146	-2.0917	-2.3271	-2.3604	68.717	-165.550	73.589	15.118	36.508	-84.027	57.108	113.163	102.140	-126.600	120.481	16.235	71.011	155.746	-134.775	184.599	0.0009002	0.00057327	8.3878e-05	811.65	5.5114e-06	3.3098e-06	822.69	285.97	5.5714e-06	5.5769e-06	323.52	139.91	118.45	62.423	3.1618e-06	77.393	0.00035439	0.00029812	8.1555e-05	791.05	3.2184e-06	3.1571e-06	806.34	281.94	3.3043e-06	3.2439e-06	315.78	137.99	116.15	61.622	3.2197e-06	76.295	180.572	-87.690	-69.750	-161.935	-30.130	-17.430	-163.009	-157.387	-74.126	-13.307	-157.985	-153.485	-152.511	-146.973	-45.197	-150.480	-8191	255	
11995.983	1	1	0	0	0.28747	0.19695	0.14105	0.33692	0.111	0.14428	0.15438	0.27865	0.25851	0.13643	0.12761	0.26678	0.13131	0.24194	0.11579	0.2033	-1.3604	-2.3812	-2.1458	-2.0104	-2.3979	-1.9979	-2.3854	-2.4979	-1.9021	-2.3458	-2.1312	-2.0375	-2.4437	-2.1375	-2.1063	-2.4792	84.921	146.631	-5.573	-140.832	-146.878	-76.664	145.891	77.499	-139.870	-107.597	-164.480	-132.435	-51.408	-165.198	-98.498	149.349	0.00087112	0.00032884	0.00017004	810.83	4.9064e-06	3.6578e-06	824.87	286.93	3.0074e-06	3.0827e-06	328.18	139.8	119.32	62.104	3.0395e-06	77.155	0.00035627	0.00029594	8.2622e-05	791.79	3.2216e-06	3.2326e-06	809.09	282.42	3.2953e-06	3.2454e-06	315.55	137.8	116.17	61.514	3.2381e-06	76.117	181.810	-41.599	-71.867	-162.363	-75.643	-38.798	-163.313	-156.828	-31.938	1.500	-158.823	-154.084	-153.138	-147.283	-61.978	-150.332	-8191	255	
11996.079	1	1	0	0	0.11154	0.16723	0.14424	0.068007	0.12708	0.18014	0.14841	0.091087	0.14822	0.085088	0.11149	0.19562	0.28878	0.21944	0.13008	0.30967	-1.3667	-2.3458	-2.1417	-2.0542	-2.4083	-2.0646	-2.2708	-2.3583	-1.7313	-2.3333	-2.3375	-2.1813	-2.4146	-2.1792	-2.0479	-2.4896	-157.443	49.730	-78.006	89.427	-151.017	123.515	88.901	-140.247	-161.623	134.282	108.100	55.964	83.435	178.238	107.899	94.038	0.00088035	0.00057311	0.00014851	809.76	4.1967e-06	7.6743e-06	817.72	287.48	5.8493e-06	7.5606e-06	321.86	138.54	117.43	61.637	3.8553e-06	76.04	0.00035938	0.00029472	8.3805e-05	791.9	3.2605e-06	3.2112e-06	803.4	282.34	3.3647e-06	3.2307e-06	313.39	136.06	115.2	60.883	3.3035e-06	74.975	182.805	-38.998	-101.900	-162.306	-14.087	-11.206	-163.237	-157.041	-64.106	-23.306	-158.860	-153.953	-152.894	-147.330	-10.420	-150.321	-8191	255	
11996.200	1	1	0	0	0.049705	0.033938	0.1355	0.15533	0.058053	0.14485	0.1825	0.45559	0.22668	0.082889	0.16327	0.26755	0.098523	0.20603	0.20336	0.20548	-1.6292	-2.1437	-2.2875	-2.0979	-2.3375	-2.1896	-2.2417	-2.6875	-1.9333	-2.3271	-2.4292	-1.8333	-2.3979	-2.0812	-1.9	-2.5542	142.972	49.269	-67.398	181.872	58.003	-77.717	67.242	101.652	-123.326	-101.142	176.217	-153.487	119.974	157.314	141.913	-172.473	0.00083681	0.00054597	0.00019018	806.09	6.3111e-06	4.8979e-06	817.85	284.85	2.5952e-06	5.9479e-06	317.05	138.37	117.7	61.473	5.7723e-06	75.818	0.00035448	0.00029975	8.4203e-05	788.49	3.294e-06	3.2912e-06	801.5	280.73	3.3798e-06	3.2926e-06	312.16	136.09	115.09	60.649	3.3472e-06	74.851	181.164	-51.044	-92.816	-162.382	-41.721	-65.061	-163.331	-156.966	-40.898	-28.781	-158.878	-154.028	-152.811	-147.142	-56.165	-150.322	-8191	255	
11996.296	1	1	0	0	0.28294	0.13195	0.20448	0.10366	0.29477	0.016113	0.29168	0.22785	0.042047	0.11936	0.11671	0.39853	0.3051	0.20261	0.27737	0.034895	-1.3604	-2.0312	-2.1833	-1.9917	-2.4104	-2.1188	-2.0479	-2.4625	-1.9375	-2.1917	-2.4313	-2.1771	-2.4437	-2.3771	-2.0208	-2.525	10.479	-75.327	138.258	58.236	96.477	-148.347	111.161	67.562	-60.570	-95.728	-125.402	144.274	168.860	106.527	-36.987	164.530	0.00079414	0.00040332	6.6985e-05	803.35	7.2034e-06	4.472e-06	813.57	285.27	4.0808e-06	3.7055e-06	322.14	139.65	118.92	61.43	5.196e-06	75.97	0.00036014	0.00029831	8.3263e-05	787.97	3.3005e-06	3.3623e-06	799.98	280.91	3.3125e-06	3.2574e-06	312.43	136.57	115.42	60.728	3.3651e-06	75.11	179.736	-135.806	-171.666	-162.422	-27.355	-56.336	-163.109	-157.043	-82.513	-25.328	-158.526	-154.086	-153.225	-147.463	-32.352	-150.373	-8191	255	
11996.368	1	1	0	0	0.019139	0.34875	0.095437	0.093258	0.18	0.097042	0.37363	0.20888	0.13753	0.1825	0.087244	0.10223	0.071541	0.14106	0.13658	0.11011	-1.5833	-2.0687	-2.3917	-2.0979	-2.1813	-2.1292	-2.0583	-2.5021	-2.0312	-2.175	-2.3042	-2.0458	-2.2625	-2.4125	-1.8312	-2.7042	154.173	38.369	-149.701	-170.179	23.838	-80.698	119.607	109.676	-155.724	63.614	138.825	-165.047	145.076	-151.398	-153.021	-167.766	0.00083079	0.00061696	0.00015216	805.83	3.0569e-06	2.7382e-06	816.99	285.17	2.6765e-06	5.9488e-06	322.68	138.72	117.46	61.432	6.7618e-06	75.704	0.00035769	0.00030731	8.4675e-05	789.99	3.3202e-06	3.2688e-06	804.16	281.03	3.4037e-06	3.2048e-06	314.09	136.49	115.07	60.517	3.3605e-06	74.745	179.287	-61.192	-110.342	-162.207	-87.402	-66.569	-163.445	-157.214	-88.845	-45.212	-158.916	-154.086	-152.994	-147.640	-46.081	-150.427	-8191	255	
11996.488	1	1	0	0	0.0059976	0.085344	0.14614	0.34551	0.17284	0.055092	0.26682	0.20853	0.11588	0.20109	0.15423	0.25036	0.27278	0.22898	0.1063	0.17619	-1.6417	-1.975	-2.3646	-1.9229	-2.2396	-2.2062	-1.9688	-2.5146	-2.1813	-2.0333	-2.4813	-2.1312	-2.2917	-2.4354	-1.8979	-2.2812	33.377	-112.699	181.721	157.596	123.250	-46.261	150.992	157.625	127.358	64.716	98.161	-153.885	173.889	169.051	-122.686	127.558	0.00081811	0.00028186	0.0001664	808.34	5.07e-06	3.2934e-06	813.76	285.83	1.8071e-06	5.6688e-06	320.32	138.28	117.91	61.211	4.5386e-06	75.557	0.00036358	0.00029822	8.5381e-05	789.62	3.1974e-06	3.3009e-06	801.54	280.75	3.3328e-06	3.2713e-06	312.05	135.32	115.02	60.404	3.2913e-06	74.345	178.492	-88.550	-62.490	-162.591	-62.345	-16.882	-163.568	-156.965	-30.587	-36.773	-158.324	-154.283	-152.744	-147.452	-60.959	-150.521	-8191	255	
11996.583	1	1	0	0	0.19304	0.31106	0.4207	0.056629	0.20219	0.096454	0.24728	0.24687	0.18279	0.10978	0.065064	0.22906	0.088869	0.11455	0.27473	0.18459	-1.6479	-1.8333	-2.3479	-1.9042	-2.1354	-2.425	-2.0292	-2.4896	-2.1354	-1.9542	-2.3417	-2.15	-2.2146	-2.5542	-1.9542	-2.3	-122.002	81.538	144.617	48.273	-28.283	144.557	103.094	173.177	160.891	-80.549	-82.722	-109.048	-102.014	-76.488	150.610	90.027	0.0008059	0.00034771	4.2802e-05	807.2	5.697e-06	3.6142e-06	810.87	287.37	5.3756e-06	8.1551e-06	321.21	136.82	116.72	61.207	2.6519e-06	75.885	0.00035294	0.00029739	8.2856e-05	790.2	3.3399e-06	3.3096e-06	797.62	281.2	3.32e-06	3.2989e-06	311.84	134.94	114.76	60.396	3.3743e-06	74.58	182.048	-80.738	-77.168	-162.621	-48.474	-73.097	-163.184	-157.055	-64.267	4.985	-158.565	-154.115	-153.155	-147.117	-97.606	-150.435	-8191	255	
11996.681	1	1	0	0	0.29262	0.07475	0.3929	0.10491	0.081239	0.12572	0.3798	0.2886	0.13729	0.19663	0.10603	0.30108	0.062164	0.35978	0.13484	0.15229	-1.8896	-2.0125	-2.3792	-2.2292	-1.9375	-2.2938	-2.0646	-2.3167	-2.175	-1.8229	-2.4	-2.2396	-2.125	-2.5083	-1.9813	-2.1354	134.820	-142.136	-142.510	-160.809	171.099	-60.032	128.026	153.102	-145.588	58.461	-127.760	146.460	102.402	178.683	10.101	65.053	0.0008132	0.00038851	0.0002058	806.14	3.3259e-06	4.3211e-06	813.88	284.42	5.3964e-06	1.6381e-06	320.61	138.21	117.86	61.809	3.8397e-06	76.537	0.00036038	0.00030596	8.2333e-05	789.97	3.2917e-06	3.2526e-06	799.65	280.43	3.2281e-06	3.2707e-06	312.14	135.98	114.95	61.08	3.2667e-06	75.485	179.421	-93.559	-71.626	-162.367	3.281	-61.439	-163.161	-156.953	-75.736	-98.119	-158.850	-153.911	-153.001	-147.257	-28.368	-150.183	-8191	255	
11996.799	1	1	0	0	0.24882	0.36758	0.073568	0.17789	0.17471	0.094516	0.15435	0.051442	0.10687	0.1245	0.070015	0.33975	0.097455	0.37559	0.12397	0.10566	-1.8062	-1.775	-2.3042	-2.1188	-1.9167	-2.4688	-2.1146	-2.2583	-2.2687	-2.0271	-2.2646	-2.1667	-1.9146	-2.4167	-2.0312	-2.2708	112.698	-63.178	101.117	-145.045	-71.159	130.054	180.699	12.810	168.467	-11.504	-51.994	145.651	-119.810	152.658	65.475	-139.709	0.00074838	0.00028523	0.00017662	806.06	2.565e-06	3.5812e-06	817.08	286.54	2.1706e-06	6.4338e-06	323.71	138.19	118.6	62.197	5.6209e-06	76.545	0.00035278	0.00029373	8.0654e-05	790.69	3.1963e-06	3.1764e-06	802.94	281.81	3.2656e-06	3.2261e-06	313.47	136.35	115.57	61.277	3.2859e-06	75.831	177.734	-81.946	-107.869	-162.161	-85.763	-26.029	-163.133	-157.111	-78.014	-4.225	-158.605	-154.046	-152.900	-147.329	-60.260	-150.296	-8191	255	
11996.896	1	1	0	0	0.27775	0.19553	0.21603	0.019607	0.22673	0.14079	0.16092	0.08034	0.2372	0.19961	0.18933	0.19182	0.11551	0.19562	0.20883	0.38058	-2.0625	-1.775	-2.05	-2.3063	-1.9542	-2.3479	-2.0312	-2.0854	-2.2292	-1.8771	-2.2979	-2.3479	-1.9562	-2.6	-2.1646	-1.9833	-66.557	-135.766	183.131	65.292	-45.932	-15.730	84.798	-117.250	3.899	-78.808	16.387	-38.973	49.725	-138.023	112.069	159.449	0.00080837	0.00054061	0.00010499	806.34	4.4414e-06	4.3961e-06	817.75	286.49	6.6016e-06	5.1111e-06	320.82	138.5	117.82	61.927	4.9049e-06	76.253	0.00035396	0.00030009	8.2875e-05	789.83	3.3281e-06	3.23e-06	801.8	281.54	3.1889e-06	3.2303e-06	311.84	136.21	115.22	61.048	3.2673e-06	75.086	182.418	-91.662	-112.989	-162.385	-62.034	29.314	-162.893	-156.867	-67.075	-13.928	-158.881	-154.045	-152.886	-147.211	-33.310	-150.311	-8191	255	
11996.967	1	1	0	0	0.16753	0.14682	0.26433	0.16549	0.20682	0.15725	0.10258	0.19458	0.15287	0.40884	0.24349	0.30108	0.3458	0.14244	0.027112	0.16566	-2.0062	-1.7437	-2.1688	-2.5021	-1.8458	-2.3958	-2.2417	-1.9083	-2.3979	-1.9104	-2.0938	-2.2771	-1.9396	-2.325	-2.0958	-2.1771	72.472	-131.962	-135.723	125.919	79.149	-25.427	77.414	131.639	41.113	-62.794	-69.504	66.891	182.530	6.576	166.417	143.217	0.00084171	0.00090078	0.00020632	810.76	4.4222e-06	5.1862e-06	809.69	285.67	2.3875e-06	6.6978e-06	318.92	136.97	117.33	60.995	4.9641e-06	75.125	0.00036051	0.00030342	8.4063e-05	789.89	3.2619e-06	3.3159e-06	797	280.84	3.3092e-06	3.3244e-06	310.82	135.04	114.74	60.211	3.3674e-06	74.025	179.107	-98.028	-74.058	-162.300	-41.245	-44.105	-163.184	-156.973	-46.843	-46.437	-158.012	-153.934	-152.815	-147.064	-48.038	-150.369	-8191	255	
11997.088	1	1	0	0	0.26281	0.076725	0.17234	0.17386	0.14631	0.043268	0.32697	0.30188	0.14053	0.27565	0.20453	0.19495	0.062066	0.2534	0.13345	0.17486	-2.0021	-1.9333	-1.9312	-2.3479	-1.9229	-2.2938	-2.2104	-2.1646	-2.3229	-2.0125	-1.9958	-2.3917	-1.8646	-2.4813	-2.1271	-2.0167	11.696	-21.813	-172.617	137.711	139.180	138.561	108.764	101.750	178.352	-26.515	15.594	84.634	40.608	127.051	134.453	-129.791	0.00083213	0.00038356	0.00013604	805.38	2.3251e-06	8.652e-06	807.02	283.8	6.3677e-06	8.7077e-06	318.15	136.03	116.87	59.936	4.9956e-06	73.954	0.00035899	0.00030777	8.5586e-05	788.27	3.3444e-06	3.3614e-06	795.11	279.71	3.3757e-06	3.3053e-06	310.13	134.05	114.17	59.258	3.4587e-06	72.99	180.209	-70.007	-122.010	-162.447	-45.160	-6.070	-163.259	-156.899	-77.604	-44.670	-158.756	-153.861	-152.963	-147.207	-55.471	-149.871	-8191	255	
11997.184	1	1	0	0	0.15863	0.018665	0.075727	0.1823	0.049103	0.13314	0.24013	0.081601	0.12985	0.14659	0.14421	0.15027	0.077839	0.2118	0.063041	0.44391	-1.8083	-2.2271	-2.1188	-2.4625	-1.9271	-2.3167	-2.2083	-1.9875	-2.1833	-2.2042	-1.9479	-2.4708	-2.1833	-2.3083	-2.2708	-2.0333	-152.641	-60.844	-35.763	136.543	56.587	-126.090	164.725	-170.783	-94.414	-146.375	120.296	-149.355	52.272	160.957	148.911	116.982	0.00076991	0.00052397	7.0021e-05	800.02	5.8996e-06	6.7066e-06	813.26	284.8	4.7415e-06	5.2055e-06	319.33	136.77	117	60.55	3.7466e-06	75.173	0.000359	0.00030951	8.403e-05	786.97	3.3632e-06	3.3188e-06	797.66	279.83	3.352e-06	3.3138e-06	310.8	134.98	114.39	59.757	3.4031e-06	73.93	181.934	-77.452	-77.522	-162.169	-39.339	-57.258	-163.196	-156.758	-67.991	-20.680	-158.230	-153.987	-152.540	-147.367	-90.208	-150.030	-8191	255	
11997.280	1	1	0	0	0.16551	0.161	0.096431	0.22481	0.21421	0.15363	0.21231	0.032711	0.14589	0.089321	0.2021	0.12848	0.052539	0.19506	0.17758	0.27543	-1.9438	-2.2	-2.0667	-2.6104	-1.9208	-2.1562	-2.6063	-1.7729	-2.1646	-2.175	-1.9896	-2.5229	-2.0854	-2.4729	-2.2729	-1.8917	107.555	-128.819	-111.957	112.495	148.645	-111.171	124.049	109.296	122.562	-57.074	-14.175	101.299	-102.623	131.311	51.161	131.648	0.00078196	0.00085975	0.00017962	801.5	6.172e-06	7.7769e-06	810.94	284.96	3.2858e-06	1.43e-06	320.71	137.67	116.41	60.633	6.9347e-06	74.671	0.00035956	0.00031098	8.6152e-05	785.04	3.3778e-06	3.3008e-06	797.61	279.81	3.3106e-06	3.331e-06	312.26	135.23	114.12	59.695	3.3385e-06	73.571	177.331	-46.401	-104.053	-162.250	-11.846	-75.938	-164.070	-157.585	-64.118	-92.511	-159.511	-154.264	-153.397	-148.011	-10.821	-150.972	-8191	255	
11997.376	1	1	0	0	0.14386	0.17561	0.047525	0.11588	0.15825	0.2577	0.37705	0.015666	0.12557	0.032668	0.2617	0.31895	0.084408	0.1819	0.0067216	0.052213	-1.9604	-2.1771	-1.8021	-2.5646	-1.8604	-2.0917	-2.5604	-2.0146	-2.3479	-2.3625	-1.9833	-2.5187	-2.2542	-2.2375	-2.6	-2.3312	149.848	-17.374	178.561	-66.828	179.114	-36.788	138.429	108.360	-7.959	-76.777	-143.285	119.452	26.296	108.224	-105.620	43.226	0.00083151	0.00041775	0.00012477	799.78	5.2952e-06	2.3994e-06	811.84	284.26	6.5002e-06	4.0623e-06	320.54	138.18	116.99	60.809	6.1689e-06	74.917	0.00035841	0.00030777	8.401e-05	785.48	3.3097e-06	3.287e-06	795.88	279.57	3.2623e-06	3.251e-06	311.08	135.39	114.42	59.919	3.2813e-06	73.882	181.527	-79.196	-68.034	-162.724	-20.295	-38.810	-163.699	-157.325	-89.529	-58.820	-158.221	-153.696	-152.854	-147.007	-35.134	-149.947	-8191	255	
11997.472	1	1	0	0	0.15076	0.21199	0.12247	0.20055	0.2546	0.19896	0.079131	0.2187	0.058751	0.23106	0.23091	0.15286	0.10228	0.1257	0.1729	0.26438	-2.0042	-2.1521	-1.6771	-2.5479	-2.1854	-2.0479	-2.6437	-2.2229	-2.1479	-2.4604	-1.9438	-2.4437	-2.1896	-2.1375	-2.2938	-2.1937	-172.094	-29.768	-88.081	-146.879	77.946	-95.462	59.394	101.728	67.412	-61.909	-158.438	132.458	19.187	88.882	-8.606	127.531	0.00078862	0.00057971	0.00015509	799.98	2.9921e-06	5.9698e-06	810.83	284.68	4.682e-06	7.3624e-06	319.83	137.3	117.47	61.156	3.8416e-06	74.936	0.00035743	0.00030301	8.2302e-05	784.66	3.255e-06	3.2864e-06	795.94	279.51	3.3081e-06	3.2785e-06	310.88	135.39	114.81	60.314	3.3378e-06	74.157	179.181	-125.643	-89.311	-162.228	18.284	-58.871	-163.013	-156.744	-104.786	-1.038	-158.521	-153.793	-152.570	-147.185	-56.558	-149.962	-8191	255	
11997.591	1	1	0	0	0.2271	0.037493	0.074431	0.051896	0.22282	0.29584	0.19583	0.16357	0.13948	0.27857	0.14173	0.32625	0.16876	0.14358	0.25118	0.13967	-1.7125	-2.4521	-1.7938	-2.425	-2.1354	-1.9917	-2.5021	-2.2896	-2.3667	-2.4875	-2.0083	-2.2917	-2.3021	-2.1396	-2.4	-2.1958	171.704	41.952	113.570	165.172	51.833	-155.962	158.486	-103.562	59.280	-46.087	-41.869	118.641	37.890	142.880	66.337	-174.372	0.00084285	0.00053143	0.00017526	808.57	2.9577e-06	7.0481e-06	814.95	283.78	7.3321e-06	4.8499e-06	320.45	137.05	116.65	60.571	4.0991e-06	74.904	0.00035836	0.00030287	8.3261e-05	788.22	3.2991e-06	3.3283e-06	798.64	279.67	3.3381e-06	3.269e-06	311.28	134.86	114.18	59.856	3.3376e-06	73.961	179.252	-77.958	-91.494	-161.981	-52.376	-68.976	-163.038	-156.684	-52.956	-43.335	-158.773	-153.804	-152.600	-146.981	-13.193	-149.897	-8191	255	
11997.665	1	1	0	0	0.052598	0.16723	0.26572	0.25218	0.29403	0.050261	0.17086	0.12272	0.16192	0.050171	0.070039	0.34887	0.30553	0.039867	0.17722	0.1803	-1.6604	-2.4938	-1.7437	-2.3063	-2.2833	-1.8563	-2.4854	-2.1583	-1.9917	-2.3063	-1.8875	-2.2625	-2.5	-2.0938	-2.3833	-2.3375	-103.047	26.101	-86.401	76.823	21.815	154.817	118.548	185.409	-151.919	-110.006	131.528	152.138	183.435	-110.879	-40.576	-18.199	0.00087763	0.00076839	0.0001553	808.96	4.2831e-06	2.2995e-06	819.9	285.09	6.4059e-06	2.5912e-06	323.49	137.81	116.73	60.633	4.1559e-06	74.936	0.00035421	0.00030529	8.3031e-05	790.3	3.3069e-06	3.2978e-06	802.2	280.13	3.3392e-06	3.2953e-06	312.69	135.47	114.48	59.951	3.3787e-06	74.045	177.324	-75.041	-91.397	-162.063	-17.911	-46.827	-162.805	-156.583	-63.360	-48.249	-158.426	-153.440	-152.097	-146.613	-40.876	-149.868	-8191	255	
11997.761	1	1	0	0	0.16386	0.020038	0.10724	0.20037	0.25645	0.13587	0.07174	0.20217	0.090325	0.12306	0.17226	0.17737	0.24484	0.26138	0.036108	0.34222	-1.5875	-2.4854	-1.7375	-2.2208	-2.3	-1.9542	-2.4583	-2.3354	-2.0354	-2.4167	-2.0687	-2.2208	-2.275	-1.9625	-2.3104	-2.15	-38.701	-79.221	129.107	-147.478	-71.351	-77.618	-28.115	50.056	-166.688	79.398	95.426	-73.002	104.010	162.233	166.362	123.560	0.00078933	0.00042739	0.00013704	803.66	4.1914e-06	5.9532e-06	811.42	284.41	2.1575e-06	5.612e-06	316.81	136.54	116.38	60.324	6.3438e-06	74.632	0.00036581	0.00030114	8.5135e-05	789.14	3.3462e-06	3.2806e-06	799.76	279.86	3.2751e-06	3.3311e-06	310.36	134.49	114.13	59.554	3.4286e-06	73.539	180.619	-63.801	-103.403	-161.760	-29.333	-67.701	-162.799	-156.454	-77.093	26.678	-158.702	-154.344	-153.307	-147.691	-45.591	-150.938	-8191	255	
11997.880	1	1	0	0	0.043287	0.079785	0.099534	0.052398	0.046603	0.12209	0.054394	0.076763	0.48484	0.02955	0.0999	0.16039	0.049541	0.23874	0.081416	0.089931	-1.375	-2.4188	-1.9396	-2.0854	-2.4271	-2.2292	-2.325	-2.4729	-1.8604	-2.3625	-2.2125	-2.1583	-2.1729	-1.9417	-2.0208	-2.375	90.279	-134.439	-40.799	-48.416	17.457	-60.911	141.142	-101.629	-16.544	-28.654	-37.846	77.932	141.330	113.346	125.946	161.173	0.0008526	0.00086029	0.00010635	806.42	6.3636e-06	2.6083e-06	810.97	284.56	6.6793e-06	6.7336e-06	317.68	137.32	116.69	60.863	6.4388e-06	75.38	0.00035856	0.00030871	8.4147e-05	787.56	3.3012e-06	3.3311e-06	798.41	279.23	3.3625e-06	3.3e-06	311.39	135.27	114.55	60.027	3.3449e-06	74.213	180.538	-112.702	-141.440	-162.458	-6.438	-54.503	-162.866	-156.911	-94.819	-57.051	-157.910	-153.410	-152.331	-146.569	-48.445	-149.627	-8191	255	
11997.976	1	1	0	0	0.16053	0.12861	0.2523	0.11482	0.13068	0.11638	0.12172	0.21837	0.3317	0.19918	0.10955	0.21706	0.080022	0.2705	0.13625	0.023579	-1.525	-2.3	-1.9875	-2.1229	-2.4792	-1.9813	-2.2562	-2.3979	-1.9062	-2.3604	-2.2979	-2.0229	-2.5083	-2.1937	-2.2	-2.5146	-19.568	9.506	60.588	141.650	-131.346	106.173	-162.919	140.524	-140.151	-43.816	85.269	-127.866	142.272	148.095	9.899	73.732	0.00084294	0.000271	0.00017197	809.9	5.1573e-06	4.8432e-06	816.88	285.66	3.7637e-06	1.7617e-06	321.31	138.03	117.39	60.805	4.8093e-06	75.191	0.00035093	0.00030815	8.4782e-05	788.37	3.2937e-06	3.3637e-06	800.38	280.37	3.3722e-06	3.2417e-06	312.78	135.71	114.86	60.107	3.3706e-06	74.345	-172.766	185.158	-75.260	-161.829	-53.177	17.190	-162.608	-156.555	-71.397	-4.425	-158.446	-153.315	-152.718	-146.683	-82.594	-149.569	-8191	255	
11998.072	1	1	0	0	0.024249	0.1135	0.35505	0.051994	0.16733	0.35172	0.18018	0.089666	0.12992	0.34333	0.068797	0.19213	0.050222	0.16299	0.20477	0.2412	-1.5292	-2.325	-2.1562	-2.0479	-2.5083	-2.1792	-2.3937	-2.4792	-1.8833	-2.4417	-2.3563	-2.1813	-2.5354	-2.1396	-2.1958	-2.4083	-129.865	-131.214	-12.170	172.088	-132.940	79.889	114.703	115.841	7.551	-115.566	27.292	128.672	-62.922	147.967	150.247	148.646	0.00077617	0.00051861	0.00015838	806.32	2.2394e-06	2.358e-06	818.96	285.06	3.9366e-06	7.5e-06	322.73	138.55	116.63	60.826	6.4955e-06	75.998	0.000358	0.00030544	8.5416e-05	788.25	3.2659e-06	3.3698e-06	802.76	280.15	3.3524e-06	3.3241e-06	313.22	136.44	114.77	60.129	3.404e-06	74.817	178.692	-93.916	-102.174	-161.547	-61.701	-22.013	-162.786	-156.437	-50.098	-60.213	-158.066	-153.023	-152.521	-146.644	-73.623	-149.571	-8191	255	
11998.168	1	1	0	0	0.19606	0.19335	0.17315	0.13925	0.24459	0.27392	0.33885	0.14155	0.11335	0.32322	0.319	0.23158	0.19674	0.20159	0.12617	0.21938	-1.4854	-2.2375	-2.3333	-1.9375	-2.5062	-2.275	-2.1312	-2.7229	-2.0646	-2.4896	-2.3271	-2.1125	-2.3312	-2.225	-2.0438	-2.6125	35.124	-153.682	-118.096	99.715	11.100	177.118	116.314	170.723	-164.701	-50.741	172.076	-159.850	94.831	157.262	-111.787	164.999	0.00089275	0.00024958	0.00024487	804.28	6.546e-06	5.5719e-06	821.78	285.11	7.216e-06	7.0684e-06	322.61	138.96	117.27	61.036	5.3751e-06	75.341	0.00035887	0.000304	8.464e-05	789.77	3.2843e-06	3.3482e-06	803.82	280.84	3.3852e-06	3.3365e-06	313.7	136.53	115.07	60.415	3.4852e-06	74.648	182.083	-93.051	-105.705	-161.493	-35.284	-20.841	-162.860	-156.404	-40.009	-11.209	-157.734	-153.397	-152.011	-147.246	-28.230	-150.060	-8191	255	
11998.264	1	1	0	0	0.091545	0.082161	0.10552	0.24853	0.24927	0.26553	0.25908	0.044936	0.17884	0.14033	0.069325	0.19208	0.16099	0.28982	0.24621	0.38097	-1.5771	-2.0708	-2.5458	-1.9188	-2.3312	-2.1292	-1.9604	-2.6542	-1.9229	-2.2562	-2.4062	-2.1229	-2.3792	-2.4104	-1.8833	-2.5833	-75.287	16.852	137.975	-113.763	-53.660	-146.196	34.009	183.450	32.275	183.134	127.800	-173.092	-18.841	173.852	-104.470	138.956	0.00077836	0.00039156	0.00014675	808.22	6.3513e-06	4.4755e-06	817.48	284.68	4.4759e-06	7.2777e-06	320.89	138.68	116.59	61.657	2.7219e-06	75.651	0.000359	0.00030267	8.4429e-05	791.12	3.3384e-06	3.3151e-06	803.19	280.89	3.3807e-06	3.2949e-06	312.15	136.49	115.18	60.786	3.3262e-06	74.929	178.652	-115.675	-71.200	-161.489	-19.355	-21.611	-162.700	-156.206	-75.065	-26.296	-158.430	-153.113	-152.249	-146.540	-102.361	-149.308	-8191	255	
11998.361	1	1	0	0	0.20826	0.1744	0.2416	0.077266	0.093943	0.13138	0.16622	0.23252	0.20756	0.063013	0.19422	0.34141	0.14826	0.35338	0.25353	0.14679	-1.6604	-2.1604	-2.2292	-2.15	-2.1667	-2.1396	-2.1083	-2.3625	-1.9854	-2.075	-2.3812	-2.0042	-2.2188	-2.4417	-1.8833	-2.5292	171.741	56.907	-126.702	52.802	-156.636	-137.947	161.832	80.927	22.414	-93.280	-150.449	-105.320	7.902	121.898	-70.209	52.244	0.00085131	0.00048967	0.00017083	809.11	3.7588e-06	6.2805e-06	817.8	286.65	6.0004e-06	8.2499e-06	321.47	138.57	118.17	61.793	5.2337e-06	76.243	0.00036382	0.00031316	8.4069e-05	790.42	3.3168e-06	3.3482e-06	803.06	281.31	3.3221e-06	3.3524e-06	313.83	136.74	115.55	60.925	3.3859e-06	75.489	179.007	-98.291	-114.033	-161.601	-104.928	-20.500	-162.885	-157.859	-99.076	-30.325	-158.708	-154.405	-153.039	-147.754	-54.089	-150.573	-8191	255	
11998.481	1	1	0	0	0.052354	0.12816	0.14	0.24645	0.057703	0.098248	0.10828	0.16141	0.032337	0.10726	0.061934	0.12986	0.15571	0.218	0.16929	0.097604	-1.7375	-1.9667	-2.1917	-2.025	-2.3417	-2.3208	-2.0083	-2.3479	-2.1333	-2.0792	-2.5	-2.1146	-2.1417	-2.5583	-1.8708	-2.6833	110.388	-91.569	81.877	-146.436	33.044	-70.849	113.465	168.202	173.230	157.260	180.323	-171.794	100.177	109.657	149.923	11.595	0.00083983	0.00032387	0.00016728	808.71	4.4058e-06	5.309e-06	819.78	286.64	6.66e-06	3.4759e-06	323.33	138.86	118.06	61.849	7.4301e-06	77.045	0.00036266	0.00030554	8.5705e-05	791.69	3.2723e-06	3.305e-06	804.3	281.62	3.3001e-06	3.2897e-06	315.56	137.03	115.94	61.092	3.3927e-06	75.872	177.866	-53.094	-72.109	-162.516	-29.083	-49.542	-163.604	-157.370	-68.738	-46.373	-159.022	-154.104	-153.870	-147.523	-42.752	-150.699	-8191	255	
11998.576	1	1	0	0	0.31191	0.24738	0.090551	0.043792	0.1025	0.13921	0.45643	0.056652	0.085112	0.025832	0.17969	0.22056	0.13394	0.26261	0.31827	0.183	-1.6	-1.9271	-2.5854	-2.0854	-2.1937	-2.5187	-1.9542	-2.3438	-2.3625	-2.05	-2.4854	-2.2083	-2.0646	-2.5312	-1.9458	-2.2438	-2.034	-154.955	35.963	60.797	-46.408	149.412	166.170	-152.208	-4.346	24.257	-55.917	92.647	115.457	146.366	-124.714	9.497	0.00085597	0.00050779	0.00011135	809.18	5.2314e-06	7.5332e-06	817.54	286.23	3.4349e-06	7.1203e-06	321.92	138.95	118.1	61.667	3.3097e-06	76.709	0.00036055	0.00030572	8.5834e-05	792.25	3.3317e-06	3.3145e-06	804.59	282.01	3.3812e-06	3.3062e-06	314.28	137.07	115.43	61.046	3.3735e-06	75.736	-174.503	-81.964	-127.584	-162.516	-24.741	-17.646	-163.696	-157.288	-109.610	-34.282	-158.651	-154.084	-153.342	-148.010	-57.918	-151.164	-8191	255	
11998.672	1	1	0	0	0.06922	0.11373	0.22044	0.19048	0.052698	0.28521	0.49844	0.12802	0.1834	0.16221	0.22859	0.21735	0.15514	0.29031	0.030074	0.18323	-1.9271	-1.9146	-2.275	-2.1229	-1.9833	-2.4917	-1.9813	-2.3146	-2.35	-1.8375	-2.3708	-2.1021	-1.9042	-2.3729	-1.8229	-2.3417	35.291	11.328	-34.489	104.151	79.947	-20.816	102.376	145.861	163.339	21.021	89.839	134.552	120.224	80.950	114.434	-50.625	0.00085814	0.00030888	8.9754e-05	806.22	4.7714e-06	7.2667e-06	819.41	286.02	6.9191e-06	9.6552e-06	317.81	138.32	117.62	61.095	4.9363e-06	75.735	0.00036162	0.00030303	8.5256e-05	791.15	3.3379e-06	3.3328e-06	802.85	282.07	3.3781e-06	3.3536e-06	312.59	136.28	115.11	60.638	3.3874e-06	74.925	181.116	-78.801	-147.928	-162.708	-36.521	-33.663	-163.924	-157.374	-57.514	-20.637	-159.312	-154.363	-153.751	-147.858	-55.240	-150.992	-8191	255	
11998.768	1	1	0	0	0.12153	0.052967	0.20034	0.17748	0.18078	0.11081	0.22217	0.15369	0.051364	0.22539	0.085784	0.26087	0.16532	0.24418	0.2041	0.26404	-2.0062	-1.7437	-2.1875	-2.3854	-1.7792	-2.5021	-2.0563	-2.1229	-2.2979	-1.9021	-2.2354	-2.1813	-1.9833	-2.5604	-2.075	-2.1375	-105.566	-133.642	152.058	-142.731	140.190	60.587	-152.808	74.516	-32.622	-160.861	113.104	-162.054	-99.920	147.120	120.513	143.471	0.00082572	0.0008677	0.00016702	807.53	2.6588e-07	3.7551e-06	814.91	285.73	6.8144e-06	4.2857e-06	324.2	138.15	117.17	61.417	3.5183e-06	75.515	0.00035697	0.0002985	8.2471e-05	791.17	3.3542e-06	3.395e-06	801.02	281.27	3.3304e-06	3.2892e-06	312.93	136.19	115.36	60.659	3.4319e-06	74.794	180.459	-44.484	-87.499	-162.751	-94.740	-42.324	-163.699	-157.212	-85.487	-48.412	-159.496	-154.090	-153.594	-147.617	-27.482	-150.647	-8191	255	
11998.888	1	1	0	0	0.039307	0.13926	0.27678	0.06804	0.11219	0.20268	0.09746	0.15719	0.13246	0.24349	0.27149	0.094379	0.23911	0.30566	0.16416	0.18303	-1.8979	-2.0021	-2.3187	-2.2146	-2.0875	-2.2021	-2.1854	-2	-2.4396	-2.1354	-2.2396	-2.1958	-1.9271	-2.4562	-2.0604	-2.0521	-132.027	-20.289	23.902	40.569	107.011	1.021	139.968	116.197	166.674	-11.702	-100.285	-82.533	169.224	133.159	20.016	89.398	0.00076179	0.00052228	0.00013569	808.35	4.1465e-06	4.0395e-06	814.7	286.43	2.733e-06	3.2615e-06	322.15	139.7	118.53	61.387	5.3674e-06	75.488	0.00036225	0.00031428	8.6403e-05	791.56	3.377e-06	3.3485e-06	802.03	281.81	3.4165e-06	3.3374e-06	313.68	136.95	116.16	60.669	3.4987e-06	74.587	179.527	-22.332	-129.504	-162.614	-56.836	-22.239	-163.435	-157.237	-50.651	-26.902	-158.604	-153.117	-152.267	-146.606	-50.864	-149.801	-8191	255	
11998.960	1	1	0	0	0.10212	0.53592	0.30832	0.12805	0.020377	0.22599	0.30555	0.063072	0.10177	0.38679	0.32879	0.13207	0.085318	0.088538	0.11567	0.23154	-1.8479	-1.9875	-2.2104	-2.2875	-1.9604	-2.225	-2.2667	-2.2083	-2.5312	-1.9875	-2.1562	-2.4021	-1.9625	-2.5062	-2.1979	-2.1271	115.110	159.474	11.978	-164.628	-17.066	-155.095	-169.057	94.715	-67.711	145.945	123.140	-103.124	-90.757	-22.953	-125.737	135.990	0.00083136	0.00045582	0.00023896	809.67	2.4054e-06	5.2749e-06	816.75	288.42	5.9145e-06	2.251e-06	322.86	138.41	117.27	60.737	7.8025e-06	74.583	0.0003717	0.00031596	8.7798e-05	792.4	3.469e-06	3.5114e-06	802.55	282.41	3.502e-06	3.6059e-06	314.48	136.33	115.4	60.006	3.6346e-06	73.583	181.448	-109.766	-95.588	-161.488	-67.318	-66.212	-162.518	-156.366	-62.163	-20.160	-157.739	-153.348	-152.299	-146.619	-53.270	-149.723	-8191	255	
11999.056	1	1	0	0	0.12784	0.14409	0.14451	0.16486	0.15145	0.18527	0.21786	0.11532	0.11043	0.076273	0.012117	0.38993	0.093042	0.25112	0.25592	0.075121	-2.1333	-2.1229	-2.3208	-2.5	-1.65	-2.4417	-2.3417	-2.1354	-2.5354	-2.0208	-2.1667	-2.5312	-2.0708	-2.4583	-2.1396	-2.0604	185.229	127.620	-57.492	140.835	121.458	-158.357	65.637	108.351	20.778	185.251	-143.893	98.401	92.090	166.458	94.209	147.933	0.0007631	0.00044547	9.8e-05	807.89	7.4804e-06	3.7379e-06	815.04	287.4	8.2153e-06	2.1812e-06	319.23	137.88	117.68	60.396	3.9981e-06	73.66	0.00037832	0.00032895	8.9065e-05	791.9	3.5679e-06	3.5596e-06	799.24	282.43	3.5154e-06	3.57e-06	312.21	135.28	115.4	59.563	3.5352e-06	72.704	183.310	-107.820	-63.964	-161.416	-52.539	38.970	-162.629	-156.552	-86.073	-47.620	-158.144	-153.386	-151.958	-146.683	-23.032	-149.592	-8191	255	
11999.152	1	1	0	0	0.26759	0.19427	0.18168	0.024504	0.25514	0.23014	0.12739	0.30496	0.073777	0.057732	0.16644	0.22147	0.2191	0.23335	0.1149	0.22215	-1.8542	-2.2625	-2.075	-2.3333	-2.0271	-2.3729	-2.4813	-2.0604	-2.3625	-2.2708	-2.1896	-2.3958	-2.075	-2.4208	-2.3979	-2.2146	30.066	-167.625	174.081	-125.445	-13.449	185.354	36.030	93.608	-4.345	12.467	95.006	178.300	-170.790	165.561	94.281	-147.369	0.00081334	0.00073645	0.00018641	807.42	5.7846e-06	3.798e-06	814.31	286.85	2.2247e-06	7.499e-06	318.67	137.09	118.03	60.224	4.9772e-06	74.516	0.0003756	0.00032277	8.8041e-05	789.89	3.47e-06	3.4684e-06	798.43	281.66	3.5638e-06	3.5115e-06	311.54	134.76	115.6	59.703	3.4939e-06	73.33	182.018	-84.255	-86.192	-161.769	-50.545	-41.622	-162.589	-156.399	-90.361	-22.893	-157.979	-153.155	-152.318	-146.679	-89.628	-149.650	-8191	255	
11999.273	1	1	0	0	0.13086	0.07324	0.22101	0.31035	0.18946	0.01123	0.070778	0.23578	0.1855	0.30663	0.099575	0.090883	0.17903	0.21319	0.12075	0.36166	-1.8479	-2.0396	-2.1021	-2.4229	-2.0292	-2.325	-2.6771	-2.0792	-2.4604	-2.1688	-2.1312	-2.6312	-2.2458	-2.4458	-2.4896	-2.4271	2.522	-78.031	125.052	-116.924	-125.768	56.680	184.332	160.534	-163.501	170.564	-152.638	-38.714	-168.526	167.931	58.493	144.031	0.00086473	0.00049933	0.00013604	805.45	3.7926e-06	4.377e-06	812.38	285.86	4.1712e-06	8.3368e-06	322.33	138.14	118.77	61.358	4.5066e-06	75.608	0.0003692	0.00032273	8.7548e-05	789.28	3.4109e-06	3.4418e-06	798.48	281.3	3.4083e-06	3.407e-06	313.38	135.98	115.57	60.548	3.4323e-06	74.722	180.909	-93.070	-55.210	-161.524	-27.116	-27.186	-162.373	-156.307	-88.000	-26.341	-157.639	-152.945	-151.887	-146.447	-35.955	-149.255	-8191	255	
11999.369	1	1	0	0	0.25289	0.18098	0.13341	0.088521	0.047185	0.12757	0.40195	0.092552	0.084077	0.027421	0.17867	0.1525	0.19297	0.27083	0.14991	0.20597	-1.95	-2.2583	-1.9583	-2.4104	-2.1875	-2.2125	-2.5146	-2.1604	-2.225	-2.325	-2.1688	-2.2854	-2.175	-2.3104	-2.4396	-2.1083	-23.086	-98.945	85.166	140.707	40.315	82.602	122.812	176.039	37.739	-107.080	-5.044	66.381	-159.211	-165.689	132.657	106.139	0.00085827	0.00067435	0.00015739	807.44	3.3628e-06	5.4007e-06	812.64	286.56	9.5081e-06	4.5245e-06	320.88	139.23	118.76	62.02	6.1987e-06	76.623	0.00036378	0.00030309	8.5568e-05	791.78	3.3856e-06	3.4132e-06	799.98	282.36	3.3949e-06	3.3917e-06	312.76	137.44	116.39	61.3	3.3714e-06	75.657	181.745	-97.128	-99.076	-161.206	-23.579	-17.747	-162.855	-156.695	-86.610	-58.855	-158.590	-153.902	-152.576	-147.021	-68.767	-150.268	-8191	255	
11999.465	1	1	0	0	0.24885	0.073169	0.22256	0.23356	0.089977	0.13121	0.19819	0.2557	0.12512	0.065838	0.057565	0.1807	0.30057	0.25545	0.1373	0.19691	-1.9146	-2.1333	-1.9271	-2.3958	-2.1625	-2.0812	-2.5396	-2.1	-2.175	-2.4708	-1.7792	-2.4521	-2.4208	-2.2021	-2.375	-2.0979	-89.691	105.915	142.126	44.517	63.497	-13.836	150.584	64.402	34.536	82.926	-151.358	24.903	-128.596	-168.765	-152.777	51.177	0.00085026	0.00061351	0.00015935	808.78	4.4825e-06	5.2417e-06	817.95	286.35	4.7793e-06	7.9791e-06	319.56	139.35	118.25	61.967	5.0855e-06	75.622	0.00036386	0.0003064	8.6175e-05	790.49	3.4131e-06	3.3838e-06	801.29	282.4	3.4076e-06	3.3614e-06	313.16	137.07	116.29	61.111	3.4517e-06	75.017	182.465	-129.946	-83.915	-162.100	-56.447	-33.917	-162.380	-156.445	-63.543	-24.100	-157.990	-153.133	-152.097	-146.458	-73.577	-149.412	-8191	255	
11999.562	1	1	0	0	0.19669	0.18373	0.16024	0.18671	0.065142	0.24119	0.30861	0.098189	0.14845	0.057799	0.18145	0.24086	0.073581	0.18007	0.30194	0.49176	-1.6771	-2.3521	-1.9312	-2.3875	-2.375	-1.9438	-2.6188	-2.3417	-2.0958	-2.4167	-1.9188	-2.3604	-2.3729	-2.0292	-2.325	-2.2917	118.747	69.892	-152.971	99.171	94.356	52.691	119.884	22.960	10.610	139.761	144.588	152.044	109.921	-138.045	92.433	54.291	0.00089071	0.00051071	0.00024645	808.88	4.0477e-06	7.4761e-06	811.97	286.12	8.0795e-06	1.0671e-05	320.37	138.83	118.76	61.405	6.6132e-06	75.453	0.00036542	0.00030773	8.6403e-05	789.05	3.4197e-06	3.3431e-06	795.94	281.97	3.4636e-06	3.3722e-06	312.82	136.37	116.28	60.606	3.3998e-06	74.507	184.215	-84.433	-104.493	-161.445	-47.425	-35.070	-162.123	-156.176	-78.505	-25.204	-157.823	-152.937	-152.215	-146.461	-45.274	-149.420	-8191	255	
11999.656	1	1	0	0	0.062692	0.13199	0.18872	0.11738	0.30004	0.069249	0.13138	0.38658	0.3511	0.17446	0.14666	0.1785	0.20015	0.071045	0.10075	0.085577	-1.6396	-2.4792	-1.9146	-2.3021	-2.3229	-1.85	-2.5146	-2.3167	-2.1458	-2.5646	-2.0854	-2.4042	-2.4875	-2.2	-2.2438	-2.2917	86.705	25.351	96.200	8.146	155.333	-137.722	134.665	169.450	86.034	47.705	-164.306	-170.161	150.383	111.295	144.338	48.575	0.00085059	0.00028219	1.116e-05	807.81	3.9084e-06	5.9499e-06	810.06	286.5	2.9783e-06	4.8829e-06	320.71	138.69	119.66	61.72	5.592e-06	75.61	0.00037086	0.00030527	8.8207e-05	788.78	3.4018e-06	3.361e-06	797.96	282.31	3.3894e-06	3.3324e-06	313.18	136.84	116.74	60.883	3.4718e-06	74.643	179.761	-64.897	-22.079	-161.545	-51.238	-81.673	-162.422	-156.064	-103.152	-29.061	-158.126	-153.364	-152.525	-146.374	-90.208	-149.619	-8191	255	
11999.752	1	1	0	0	0.13982	0.20887	0.13794	0.21418	0.15309	0.095559	0.22514	0.093643	0.096646	0.15183	0.19803	0.12488	0.18808	0.18147	0.23636	0.28153	-1.65	-2.3688	-1.85	-2.2438	-2.2458	-1.9479	-2.3771	-2.1896	-1.8958	-2.4458	-1.9771	-2.2333	-2.5312	-1.8479	-2.2687	-2.1917	14.538	-19.743	-34.631	69.274	131.185	134.283	107.728	112.840	-36.339	-71.680	-136.596	140.737	-39.404	175.597	68.732	124.493	0.00085265	0.00044923	0.00019869	809.12	4.3686e-06	3.97e-06	819.6	286.31	5.6699e-06	7.5149e-06	319.54	138.66	117.94	60.852	4.7159e-06	74.958	0.00037516	0.00031318	8.5914e-05	790.85	3.4308e-06	3.4321e-06	802.03	281.85	3.4466e-06	3.4701e-06	313.25	136.49	115.78	60.189	3.4878e-06	73.796	185.570	-47.310	-92.018	-161.612	-25.838	36.201	-162.534	-156.132	-71.682	-35.826	-158.528	-153.616	-152.190	-146.784	-39.116	-149.525	-8191	255	
11999.848	1	1	0	0	0.21935	0.24301	0.15687	0.14954	0.13413	0.22039	0.23182	0.052436	0.25398	0.077671	0.19191	0.28671	0.13146	0.24605	0.045556	0.10345	-1.5667	-2.3646	-2.0521	-2.1167	-2.3146	-1.9896	-2.3479	-2.1792	-1.9417	-2.6458	-2.0521	-2.4125	-2.6188	-2.0083	-2.3604	-2.4083	-44.679	3.252	48.124	114.893	38.723	111.869	85.023	-119.940	-41.619	-166.116	-25.828	131.658	-116.175	103.013	-35.292	132.895	0.00080267	0.00027049	7.6467e-05	812.93	3.1108e-06	5.1827e-06	813	287.22	2.9104e-06	3.3949e-06	323.26	138.53	117.91	60.539	6.277e-06	73.851	0.00037378	0.00031982	8.8168e-05	790.75	3.4461e-06	3.4705e-06	800.32	282.76	3.4483e-06	3.4922e-06	313.69	135.87	115.55	59.722	3.5152e-06	73.035	182.519	-92.162	-122.653	-161.215	-51.711	-24.229	-162.601	-155.960	-89.357	-62.120	-158.509	-153.961	-152.514	-146.967	-44.132	-150.079	-8191	255	
11999.969	1	1	0	0	0.32042	0.23689	0.21321	0.19377	0.08077	0.26145	0.23039	0.11787	0.1012	0.070065	0.15075	0.28724	0.12522	0.15688	0.099587	0.15996	-1.4229	-2.3458	-2.2562	-2.0917	-2.3208	-2.0938	-2.2854	-2.4542	-2.0375	-2.4167	-2.2792	-2.0729	-2.3563	-2.1437	-2.2188	-2.35	-90.629	-123.848	136.943	49.458	176.956	-58.910	94.216	-102.790	-53.797	-141.515	-136.717	21.350	5.000	109.770	157.206	-1.422	0.00076696	0.00086059	5.4575e-05	806.93	4.4978e-06	8.2569e-06	809.32	286.13	5.0439e-06	8.6897e-06	321	136.96	117.74	59.981	6.6105e-06	72.921	0.00037376	0.00031772	8.9481e-05	789.27	3.4264e-06	3.4425e-06	796.97	281.56	3.4332e-06	3.429e-06	311.32	134.52	114.87	59.258	3.4896e-06	72.327	180.995	-78.618	-54.719	-161.841	-58.179	-30.877	-162.718	-156.480	-95.013	-59.590	-158.509	-154.303	-152.912	-147.253	-78.770	-150.713	-8191	255	
12000.065	1	1	0	0	0.022937	0.36938	0.25415	0.13275	0.24214	0.096368	0.081913	0.34807	0.11943	0.29963	0.3273	0.19946	0.11654	0.14945	0.14102	0.31318	-1.6958	-2.275	-2.2083	-2.1312	-2.2938	-2.1771	-2.1646	-2.4938	-1.9458	-2.1958	-2.25	-2.0354	-2.1604	-2.1521	-2.0938	-2.65	41.557	3.283	-151.173	126.611	147.765	157.327	7.478	141.104	-130.950	38.103	95.272	73.730	-147.463	105.099	-98.796	132.319	0.00074186	0.00044441	9.589e-05	808.93	5.6213e-06	3.8685e-06	814.65	284.04	2.3944e-06	4.0737e-06	317.73	136.81	115.65	59.753	5.7754e-06	73.054	0.00036889	0.00031614	8.7031e-05	787.61	3.4114e-06	3.4694e-06	797.36	279.96	3.5248e-06	3.4105e-06	311.19	134.34	114.12	59.012	3.4798e-06	72.278	179.718	-60.558	-156.384	-162.572	-29.115	-75.061	-163.525	-156.907	-84.060	-55.391	-158.505	-153.673	-152.686	-147.210	-50.763	-150.171	-8191	255	
12000.161	1	1	0	0	0.15919	0.12537	0.076054	0.20877	0.21224	0.18327	0.048152	0.27054	0.30718	0.17835	0.22146	0.14932	0.15542	0.17371	0.2449	0.17781	-1.625	-2.125	-2.2292	-1.9604	-2.3812	-2.1417	-2.1917	-2.5896	-1.8958	-2.3312	-2.3021	-1.9375	-2.2833	-2.3208	-2.0417	-2.4771	-100.340	128.344	49.682	90.584	134.427	-19.457	-83.460	104.471	-22.867	11.155	119.818	123.232	-33.267	118.142	-166.328	160.148	0.00080974	4.8264e-05	4.218e-05	805.95	4.0413e-06	3.1016e-06	811.78	285.44	5.0035e-06	3.8111e-06	320.24	137.15	117.04	59.594	3.3842e-06	72.794	0.0003647	0.00031583	8.8599e-05	790.96	3.3894e-06	3.4123e-06	798.45	280.82	3.4569e-06	3.4774e-06	312.02	134.71	114.53	58.907	3.4797e-06	72.092	179.287	169.527	-82.590	-162.334	-19.033	-76.626	-163.053	-157.151	-59.797	-42.933	-158.257	-154.102	-153.001	-147.275	-99.656	-150.098	-8191	255	
12000.257	1	1	0	0	0.31622	0.25508	0.059752	0.073074	0.047963	0.31103	0.070941	0.31263	0.27811	0.080504	0.21798	0.18534	0.058475	0.29349	0.051323	0.29789	-1.5146	-2.1396	-2.4083	-1.8021	-2.3396	-2.3417	-2.1354	-2.6271	-1.9271	-2.1354	-2.5458	-1.9458	-2.2396	-2.2875	-1.8563	-2.6	-100.038	77.538	-66.078	-11.662	-34.277	177.974	114.796	86.898	14.995	33.748	-23.351	55.303	-171.161	133.564	114.229	181.241	0.00079124	0.0007542	0.0001796	808.22	6.9368e-06	3.3144e-06	816.36	285.18	5.1496e-06	3.5033e-06	323.32	135.96	116.53	59.112	5.7191e-06	72.78	0.0003712	0.00031717	8.7858e-05	790.21	3.4819e-06	3.5279e-06	800.22	281.07	3.5426e-06	3.4674e-06	313.88	134.51	114.53	58.7	3.5514e-06	72.026	180.065	-73.616	-68.407	-162.463	-22.705	-1.665	-163.300	-156.938	-57.862	-10.487	-159.134	-155.662	-154.586	-148.069	-43.087	-151.093	-8191	255	
12000.353	1	1	0	0	0.29583	0.17115	0.16481	0.12753	0.075859	0.019169	0.082261	0.29622	0.11523	0.15457	0.14189	0.15575	0.31312	0.23564	0.2068	0.24581	-1.6583	-2.0667	-2.45	-1.8438	-2.2271	-2.1604	-1.8979	-2.4729	-2.0438	-1.9521	-2.4062	-1.9354	-2.2062	-2.4917	-1.7771	-2.5125	180.567	-131.512	103.286	181.523	167.323	133.388	100.357	153.973	171.603	169.290	139.476	54.090	9.929	178.676	89.229	117.999	0.00080265	0.00036604	0.0001268	804	3.0134e-06	3.6176e-06	815.4	284.75	7.353e-06	1.9824e-06	319.15	136.02	115.56	59.268	4.6805e-06	72.321	0.00036697	0.00031909	8.9551e-05	787.49	3.4966e-06	3.462e-06	800.26	280.85	3.598e-06	3.5224e-06	311.98	133.88	113.55	58.52	3.5628e-06	71.605	181.932	-93.387	-53.195	-163.046	-48.782	-47.633	-164.046	-157.581	-46.838	-15.526	-159.334	-154.421	-153.275	-147.823	-60.776	-151.182	-8191	255	
12000.450	1	1	0	0	0.27323	0.13499	0.10259	0.057735	0.22605	0.14955	0.11802	0.11227	0.15719	0.31635	0.021891	0.088064	0.12324	0.27651	0.061366	0.25184	-1.6146	-2.0896	-2.1875	-1.9	-2.0812	-2.3167	-2.0146	-2.4667	-2.0875	-1.9771	-2.4917	-2.1083	-2.1958	-2.3875	-1.7417	-2.3604	-121.280	124.034	-165.938	18.120	60.080	80.032	27.557	-148.040	-76.026	15.739	56.455	-65.265	-164.626	182.940	-19.306	160.419	0.00078601	0.00053407	0.00019903	801.29	3.7083e-06	7.2514e-06	817.75	284.88	7.2092e-06	9.1088e-07	316.05	135.7	115.75	59.4	5.2549e-06	72.873	0.00036906	0.00031799	8.9615e-05	787.79	3.4681e-06	3.5359e-06	799.32	280.07	3.5158e-06	3.466e-06	310.95	133.94	113.93	58.669	3.5706e-06	72.03	179.094	-55.326	-75.500	-162.981	-41.261	-64.585	-163.784	-157.181	-57.655	58.745	-158.716	-153.988	-152.728	-147.412	-101.983	-151.126	-8191	255	
12000.570	1	1	0	0	0.09144	0.071329	0.23772	0.37128	0.16479	0.17569	0.055762	0.10104	0.29034	0.1772	0.12861	0.13142	0.30664	0.25736	0.1854	0.16508	-1.8375	-1.9813	-2.4646	-2.25	-2.0833	-2.5167	-2.1958	-2.4229	-2.1979	-2.0167	-2.3063	-2.175	-1.9292	-2.4938	-2.0208	-2.3	-29.599	-154.020	-88.031	-156.490	35.397	-31.330	119.670	25.023	183.184	-82.764	-121.892	77.474	172.527	-163.533	175.330	-139.204	0.00081654	0.00020431	0.00018129	801.92	5.8631e-06	2.9465e-06	813.16	283.25	5.5173e-06	1.8188e-06	317.85	136.94	116.6	59.679	5.2285e-06	73.747	0.00037706	0.00032088	8.865e-05	786.81	3.5459e-06	3.5153e-06	798.09	279.49	3.5498e-06	3.5166e-06	310.55	134.47	113.69	58.848	3.6193e-06	72.545	180.291	-126.864	-80.077	-162.260	-44.988	-74.907	-163.632	-157.153	-81.426	141.379	-159.077	-154.062	-153.030	-147.319	-33.935	-150.209	-8191	255	
12000.665	1	1	0	0	0.18106	0.042376	0.14064	0.16938	0.30868	0.092085	0.29595	0.33331	0.13098	0.18234	0.29228	0.17005	0.14702	0.2566	0.0061455	0.14293	-1.8229	-1.8625	-2.3417	-2.075	-2.1146	-2.2021	-2.2	-2.2812	-2.3021	-1.7271	-2.4042	-2.1458	-1.9688	-2.5729	-2.0375	-2.2271	153.953	-1.586	86.055	-33.844	54.542	-65.544	-47.911	61.832	-19.418	-69.047	75.126	34.778	180.519	126.054	182.728	122.983	0.00083032	0.00019003	0.00018135	804.66	4.608e-06	3.9395e-06	815.84	283.39	2.189e-06	6.0354e-06	318.71	136.76	116.08	59.468	4.0759e-06	73.234	0.00037345	0.00032166	8.9471e-05	786.54	3.3953e-06	3.4918e-06	799.44	279.7	3.4519e-06	3.4296e-06	311.88	134.8	114.4	58.889	3.5972e-06	72.523	183.832	-75.365	-27.085	-162.684	-57.049	-75.610	-163.955	-157.738	-103.081	-3.395	-158.933	-154.314	-153.503	-147.841	-36.808	-150.229	-8191	255	
12000.761	1	1	0	0	0.048759	0.14381	0.1918	0.069936	0.20043	0.14614	0.13683	0.16323	0.11	0.1805	0.19032	0.19772	0.37712	0.2304	0.21078	0.13727	-1.8312	-1.725	-2.2354	-2.2583	-2.0708	-2.3646	-1.9542	-2.1896	-2.5208	-1.8458	-2.325	-2.2812	-2.0583	-2.5417	-1.8875	-2.1688	-80.093	-119.924	-125.845	-81.540	-84.340	23.587	107.345	-165.237	-153.877	114.687	154.989	111.750	171.819	183.030	-104.773	-35.153	0.00078937	0.00073592	0.00013146	806.42	1.9093e-06	3.1888e-06	812.33	285.39	6.5431e-06	4.4077e-06	319.27	136.44	116.93	59.271	6.2211e-06	72.769	0.00037817	0.00033038	8.8486e-05	786.9	3.5644e-06	3.5214e-06	800.13	280.51	3.5247e-06	3.5434e-06	312.19	134.38	114.22	58.524	3.5959e-06	71.763	181.091	-81.500	-105.460	-162.231	-25.393	-44.607	-163.601	-157.250	-41.750	13.197	-159.034	-154.172	-153.137	-147.624	-54.205	-150.307	-8191	255	
12000.832	1	1	0	0	0.23223	0.23748	0.3549	0.30716	0.28681	0.09929	0.28688	0.3628	0.36919	0.055176	0.21098	0.12015	0.15274	0.12814	0.02448	0.33478	-1.9042	-1.8854	-2.3208	-2.3792	-1.8042	-2.2687	-2.2438	-2.05	-2.4479	-1.9917	-2.2229	-2.2479	-1.8646	-2.3917	-2.0167	-2.1583	-13.342	163.286	55.542	-158.454	-70.766	-75.608	100.767	183.377	-42.796	-42.912	-132.466	168.701	8.206	127.902	-149.682	111.577	0.00079161	0.0004357	0.00016815	805.2	2.5938e-06	1.1425e-06	806.93	283.69	3.7755e-06	3.8047e-06	317.42	137.04	115.79	59.255	5.1149e-06	72.563	0.00037161	0.00033091	9.0858e-05	787.53	3.5644e-06	3.5091e-06	797.11	279.63	3.6151e-06	3.525e-06	311.78	134.58	114.06	58.463	3.5844e-06	71.687	181.772	-73.702	-74.335	-162.447	-65.282	17.973	-163.300	-157.163	-89.171	-41.373	-159.016	-154.186	-152.745	-147.184	-17.423	-150.121	-8191	255	
12000.953	1	1	0	0	0.17814	0.13507	0.14716	0.24634	0.13994	0.046702	0.16583	0.23602	0.28581	0.19992	0.047477	0.20036	0.091789	0.11867	0.20613	0.43813	-1.8146	-1.8875	-2.0438	-2.25	-2.0146	-2.3646	-2.1437	-1.9271	-2.4	-1.95	-2.2	-2.3563	-1.8958	-2.3771	-2.0729	-2.1292	-160.771	-145.319	-14.866	-174.634	144.335	77.481	116.291	157.278	116.087	130.827	-83.744	-162.738	185.121	-57.914	-58.793	130.949	0.00087718	0.00056994	0.0001624	804.93	2.3129e-06	5.1626e-06	814.08	283.92	8.6572e-06	5.4103e-06	320.25	136.3	116.59	59.496	5.5863e-06	72.899	0.00037578	0.00032787	9.069e-05	788.96	3.5226e-06	3.5741e-06	799.05	280.06	3.5815e-06	3.6402e-06	312.6	134.47	114.15	58.649	3.7046e-06	71.892	185.174	-121.417	-113.601	-162.279	-67.365	-26.475	-163.258	-156.734	-78.369	-76.392	-158.270	-153.932	-153.333	-147.030	-85.990	-150.149	-8191	255	
12001.049	1	1	0	0	0.056979	0.10375	0.34455	0.55623	0.25669	0.10471	0.23399	0.17539	0.106	0.16071	0.1041	0.2399	0.10828	0.22232	0.18632	0.12055	-1.8229	-2.0479	-2.1229	-2.275	-1.95	-2.2958	-2.3479	-1.8438	-2.3792	-2.1417	-2.1521	-2.5375	-1.9708	-2.3583	-2.45	-1.9354	-78.455	138.008	150.939	156.316	-86.686	-48.054	143.419	-78.131	-25.115	-116.090	65.385	133.850	4.332	162.753	34.071	-164.320	0.00080954	0.00057222	0.00016241	805.48	3.7173e-06	3.3991e-06	814.58	284.83	3.8792e-06	2.8392e-06	320.14	136.87	116.5	59.276	5.9579e-06	73.439	0.00037919	0.00033099	9.1292e-05	788.87	3.6227e-06	3.5932e-06	800.95	279.77	3.6263e-06	3.6326e-06	313.16	134.86	114.16	58.769	3.6974e-06	72.664	180.991	-80.827	-94.157	-161.953	-54.804	12.215	-162.883	-156.785	-68.025	10.830	-158.354	-153.413	-152.613	-146.897	-3.349	-149.955	-8191	255	
12001.145	1	1	0	0	0.041848	0.053488	0.27798	0.083789	0.11962	0.19802	0.13671	0.093469	0.045312	0.094676	0.326	0.17417	0.3414	0.33604	0.14965	0.29327	-1.9479	-2.2313	-2.2354	-2.5333	-1.8792	-2.2833	-2.4021	-1.9312	-2.4604	-2.0583	-2.1083	-2.6229	-2.0396	-2.2188	-2.2708	-1.9875	167.966	176.192	14.699	-161.548	112.847	49.117	76.396	164.739	173.322	-45.194	-114.222	128.539	-165.737	147.289	-65.467	97.916	0.00081089	0.00057149	0.00014371	806.4	1.9698e-06	3.1085e-06	815.66	284.77	7.2002e-06	7.5583e-06	322.01	137	115.74	59.7	5.9718e-06	73.839	0.00037504	0.00033172	8.9789e-05	788.07	3.5446e-06	3.6408e-06	802.5	280.32	3.6466e-06	3.5991e-06	313.15	135.23	114.08	58.933	3.6658e-06	72.639	178.130	-91.929	-59.411	-162.624	-84.036	44.293	-163.292	-157.130	-88.036	-57.989	-158.172	-153.798	-153.040	-147.213	-54.468	-150.074	-8191	255	
12001.242	1	1	0	0	0.17918	0.1653	0.017857	0.19279	0.3254	0.13365	0.30384	0.026034	0.20918	0.30801	0.13847	0.12863	0.24731	0.10508	0.07087	0.42913	-1.8667	-2.1333	-1.9208	-2.4	-2.1167	-2.2667	-2.4062	-2.0542	-2.25	-2.0771	-2.1104	-2.575	-2.0646	-2.2708	-2.4375	-2.3271	3.051	-112.847	165.647	72.410	108.910	-166.458	127.779	33.430	77.615	43.617	118.338	0.975	-137.729	-172.700	31.508	89.803	0.00082342	0.00051874	0.00011001	804.84	3.213e-06	7.9831e-06	814.12	285.54	6.0196e-06	3.0768e-06	318.55	136.73	116.31	60.074	6.3312e-06	73.509	0.00037257	0.00032584	8.9239e-05	790.3	3.5483e-06	3.4811e-06	799.64	280.18	3.5211e-06	3.5577e-06	310.91	134.8	114.5	59.216	3.579e-06	72.602	178.750	-109.246	-56.063	-161.897	-10.686	-51.120	-162.823	-156.719	-82.076	-45.390	-158.596	-153.621	-152.703	-146.687	-48.654	-149.773	-8191	255	
12001.362	1	1	0	0	0.12376	0.25594	0.28397	0.22132	0.18153	0.2772	0.065598	0.21079	0.18683	0.016869	0.26409	0.16505	0.010884	0.36609	0.23755	0.11295	-1.9167	-2.3896	-1.8292	-2.3771	-2.3083	-2.1937	-2.5229	-2.1729	-2.2292	-2.2479	-1.925	-2.4229	-2.0292	-2.0292	-2.2917	-2.1562	13.100	-168.401	178.909	97.075	-14.111	-121.936	113.164	-97.189	-60.351	120.041	24.964	85.856	-61.910	-136.874	-72.258	113.202	0.00078495	0.0001921	0.00011692	802.94	3.2664e-06	3.0935e-06	814.84	283.61	5.4214e-06	2.539e-06	321.9	137.31	116.87	59.861	7.5352e-06	73.929	0.00037721	0.00032045	9.1214e-05	788.09	3.4863e-06	3.502e-06	798.84	280.06	3.6132e-06	3.5474e-06	312.62	135.02	114.5	59.311	3.582e-06	72.955	181.510	-31.503	-75.036	-161.929	-2.710	-0.997	-163.216	-157.101	-87.739	-95.337	-158.635	-153.759	-152.462	-147.202	-22.028	-150.082	-8191	255	
#DATA ENDS
