BOXY.EXE: ISS Imagent and Oximeter Data Acquisition Program Version 0.80
Ascii Record File

#ACQ INFORMATION
2  Detector Channels 
16  External MUX Channels 
1  Auxiliary Channels 
5000  Waveform (CCF) Frequency (Hz)
1  Waveforms Skipped 
30  Waveforms Averaged 
1  Cycles Averaged 
16  Acquisitions per Waveform 
10.0806  Updata Rate (Hz) 

#FILE INFORMATION
TRUE -- External MUX Channel results are PARSED.
FALSE -- AC DC and Phase are NOT grouped.
TRUE -- Companion Program Settings File CREATED.
FALSE -- AC data not excluded
FALSE -- DC data not excluded
FALSE -- Phase data not excluded
FALSE -- Auxillary Chn. data not excluded
Tab delimiters

#CALIBRATION STATE
TRUE -- Waveform Calibration Values APPLIED.


#AUX CALIBRATION VALUES
Val Type	aux-1	

Term	1.0000e+00	
Factor	0.0000e+00	


#WF CALIBRATION VALUES
A = Detector Channel
Val Type	A-AC1	A-AC2	A-AC3	A-AC4	A-AC5	A-AC6	A-AC7	A-AC8	A-AC9	A-AC10	A-AC11	A-AC12	A-AC13	A-AC14	A-AC15	A-AC16	A-DC1	A-DC2	A-DC3	A-DC4	A-DC5	A-DC6	A-DC7	A-DC8	A-DC9	A-DC10	A-DC11	A-DC12	A-DC13	A-DC14	A-DC15	A-DC16	A-Ph1	A-Ph2	A-Ph3	A-Ph4	A-Ph5	A-Ph6	A-Ph7	A-Ph8	A-Ph9	A-Ph10	A-Ph11	A-Ph12	A-Ph13	A-Ph14	A-Ph15	A-Ph16	

Term	0.00000e+00	0.00000e+00	0.00000e+00	0.00000e+00	0.00000e+00	0.00000e+00	0.00000e+00	0.00000e+00	0.00000e+00	0.00000e+00	0.00000e+00	0.00000e+00	0.00000e+00	0.00000e+00	0.00000e+00	0.00000e+00	0.00000e+00	0.00000e+00	0.00000e+00	0.00000e+00	0.00000e+00	0.00000e+00	0.00000e+00	0.00000e+00	0.00000e+00	0.00000e+00	0.00000e+00	0.00000e+00	0.00000e+00	0.00000e+00	0.00000e+00	0.00000e+00	0.00000e+00	0.00000e+00	0.00000e+00	0.00000e+00	0.00000e+00	0.00000e+00	0.00000e+00	0.00000e+00	0.00000e+00	0.00000e+00	0.00000e+00	0.00000e+00	0.00000e+00	0.00000e+00	0.00000e+00	0.00000e+00	
Factor	1.00000e+00	1.00000e+00	1.00000e+00	1.00000e+00	1.00000e+00	1.00000e+00	1.00000e+00	1.00000e+00	1.00000e+00	1.00000e+00	1.00000e+00	1.00000e+00	1.00000e+00	1.00000e+00	1.00000e+00	1.00000e+00	1.00000e+00	1.00000e+00	1.00000e+00	1.00000e+00	1.00000e+00	1.00000e+00	1.00000e+00	1.00000e+00	1.00000e+00	1.00000e+00	1.00000e+00	1.00000e+00	1.00000e+00	1.00000e+00	1.00000e+00	1.00000e+00	X	X	X	X	X	X	X	X	X	X	X	X	X	X	X	X	

B = Detector Channel
Val Type	B-AC1	B-AC2	B-AC3	B-AC4	B-AC5	B-AC6	B-AC7	B-AC8	B-AC9	B-AC10	B-AC11	B-AC12	B-AC13	B-AC14	B-AC15	B-AC16	B-DC1	B-DC2	B-DC3	B-DC4	B-DC5	B-DC6	B-DC7	B-DC8	B-DC9	B-DC10	B-DC11	B-DC12	B-DC13	B-DC14	B-DC15	B-DC16	B-Ph1	B-Ph2	B-Ph3	B-Ph4	B-Ph5	B-Ph6	B-Ph7	B-Ph8	B-Ph9	B-Ph10	B-Ph11	B-Ph12	B-Ph13	B-Ph14	B-Ph15	B-Ph16	

Term	0.00000e+00	0.00000e+00	0.00000e+00	0.00000e+00	0.00000e+00	0.00000e+00	0.00000e+00	0.00000e+00	0.00000e+00	0.00000e+00	0.00000e+00	0.00000e+00	0.00000e+00	0.00000e+00	0.00000e+00	0.00000e+00	0.00000e+00	0.00000e+00	0.00000e+00	0.00000e+00	0.00000e+00	0.00000e+00	0.00000e+00	0.00000e+00	0.00000e+00	0.00000e+00	0.00000e+00	0.00000e+00	0.00000e+00	0.00000e+00	0.00000e+00	0.00000e+00	-1.39278e+02	-1.18623e+02	-1.35795e+02	-1.82111e+02	-6.77916e+01	-8.69060e+01	-1.58920e+02	-1.62015e+02	-8.07281e+01	-9.04246e+01	-1.70527e+02	-1.72392e+02	-1.77825e+02	-1.76618e+02	-8.58281e+01	-1.49177e+02	
Factor	2.08840e-05	1.12845e-04	4.51227e-05	1.72743e-01	1.01973e-06	1.29749e-06	1.94666e-01	5.53233e-02	1.05499e-06	1.31565e-06	9.43069e-02	3.35196e-02	2.78317e-02	9.88634e-03	1.30373e-06	1.45576e-02	1.37347e-06	1.43500e-06	4.00220e-07	8.51377e-02	1.56614e-08	1.57660e-08	8.99492e-02	2.72962e-02	1.56928e-08	1.57274e-08	4.45325e-02	1.58891e-02	1.37582e-02	4.84121e-03	1.57627e-08	6.86061e-03	X	X	X	X	X	X	X	X	X	X	X	X	X	X	X	X	



#DISTANCE SETTINGS
A = Detector Channel
A-1	A-2	A-3	A-4	A-5	A-6	A-7	A-8	A-9	A-10	A-11	A-12	A-13	A-14	A-15	A-16	

2.5000e+00	3.0000e+00	2.5000e+00	3.0000e+00	2.0000e+00	3.0000e+00	1.5000e+00	3.0000e+00	3.0000e+00	3.0000e+00	3.0000e+00	3.0000e+00	3.0000e+00	3.0000e+00	1.5000e+00	3.0000e+00	

B = Detector Channel
B-1	B-2	B-3	B-4	B-5	B-6	B-7	B-8	B-9	B-10	B-11	B-12	B-13	B-14	B-15	B-16	

1.0000e+01	1.0000e+01	1.0000e+01	1.4400e+00	1.0000e+01	1.0000e+01	1.5100e+00	1.9400e+00	1.0000e+01	1.0000e+01	1.9900e+00	2.4900e+00	2.4100e+00	2.9000e+00	1.0000e+01	2.9800e+00	




#DATA BEGINS
time	group	step	mark	flag	A-AC1	A-AC2	A-AC3	A-AC4	A-AC5	A-AC6	A-AC7	A-AC8	A-AC9	A-AC10	A-AC11	A-AC12	A-AC13	A-AC14	A-AC15	A-AC16	A-DC1	A-DC2	A-DC3	A-DC4	A-DC5	A-DC6	A-DC7	A-DC8	A-DC9	A-DC10	A-DC11	A-DC12	A-DC13	A-DC14	A-DC15	A-DC16	A-Ph1	A-Ph2	A-Ph3	A-Ph4	A-Ph5	A-Ph6	A-Ph7	A-Ph8	A-Ph9	A-Ph10	A-Ph11	A-Ph12	A-Ph13	A-Ph14	A-Ph15	A-Ph16	B-AC1	B-AC2	B-AC3	B-AC4	B-AC5	B-AC6	B-AC7	B-AC8	B-AC9	B-AC10	B-AC11	B-AC12	B-AC13	B-AC14	B-AC15	B-AC16	B-DC1	B-DC2	B-DC3	B-DC4	B-DC5	B-DC6	B-DC7	B-DC8	B-DC9	B-DC10	B-DC11	B-DC12	B-DC13	B-DC14	B-DC15	B-DC16	B-Ph1	B-Ph2	B-Ph3	B-Ph4	B-Ph5	B-Ph6	B-Ph7	B-Ph8	B-Ph9	B-Ph10	B-Ph11	B-Ph12	B-Ph13	B-Ph14	B-Ph15	B-Ph16	aux-1	digaux	

2328.575	1	1	0	512	0.15799	0.14143	0.29236	0.20012	0.27322	0.09293	0.32322	0.20893	0.24256	0.050717	0.091196	0.10633	0.14653	0.092049	0.2308	0.188	-1.0375	-1.8979	-1.95	-1.5729	-1.6979	-1.6688	-1.8792	-2.1083	-1.6812	-1.8771	-2.3146	-1.8875	-1.9542	-1.9375	-1.4354	-2.0708	250.551	252.512	469.269	446.859	204.939	370.274	459.666	447.395	391.499	433.448	448.191	384.468	180.074	308.610	234.566	492.697	0.0010238	0.00071695	0.0001319	866.88	4.3425e-06	5.0952e-06	1368.2	276.6	1.3731e-06	3.3438e-06	529.74	190.26	76.736	33.405	4.4054e-06	102.41	0.00030508	0.00023803	6.1157e-05	787.73	2.88e-06	2.553e-06	1234.6	250.03	2.8169e-06	2.5476e-06	473.06	171.32	70.256	30.422	2.3755e-06	91.713	183.624	255.474	325.522	188.641	315.152	298.960	188.619	192.672	450.782	305.849	192.666	197.214	197.033	203.377	303.183	202.760	-8191	255	
2328.671	1	1	0	0	0.054244	0.17462	0.22523	0.3838	0.11892	0.13904	0.33372	0.10947	0.12251	0.3486	0.31056	0.068981	0.26341	0.28029	0.20862	0.13271	-1.1792	-1.5083	-1.8208	-1.6604	-1.6083	-1.7417	-1.5979	-1.9792	-1.8375	-1.5979	-2.3438	-1.8521	-1.7417	-1.8521	-1.7812	-2.0021	278.684	260.481	306.297	483.434	448.172	243.587	473.308	302.587	499.563	413.824	223.253	372.248	177.471	180.230	455.200	487.172	0.00087135	6.9026e-05	0.00023649	867.44	5.7101e-06	9.4512e-06	1356.7	275.27	7.5816e-06	7.4596e-06	531.09	190.12	77.17	33.282	4.8614e-06	101.62	0.00028606	0.00022652	5.9262e-05	783.71	2.7151e-06	2.4542e-06	1227.4	249.08	2.7052e-06	2.4454e-06	472.41	170.75	69.839	30.255	2.421e-06	91.215	190.189	335.323	230.669	188.527	305.187	289.975	188.597	192.650	324.061	313.297	193.268	197.410	196.959	203.634	256.067	203.096	-8191	255	
2328.766	1	1	0	0	0.35369	0.39104	0.22266	0.25233	0.13375	0.14592	0.23512	0.053377	0.231	0.30367	0.046351	0.3368	0.089536	0.064583	0.23209	0.32955	-1.575	-1.6417	-1.9813	-1.8458	-1.7104	-1.9375	-1.9146	-1.9917	-1.8958	-1.7938	-2.2354	-1.675	-1.6771	-1.9854	-1.5354	-1.9042	232.931	414.690	190.125	199.530	331.334	197.397	496.133	189.210	523.150	241.275	484.754	448.801	443.236	483.208	473.599	449.048	0.00099339	0.00042977	1.2274e-05	863.45	3.567e-06	2.5548e-06	1368.8	276.3	6.1688e-06	1.8346e-06	528.79	191.7	76.932	33.787	1.0242e-05	102.92	0.00027188	0.00021616	6.2609e-05	783.8	2.577e-06	2.3376e-06	1232.2	249.72	2.5412e-06	2.3662e-06	474.1	172.44	70.024	30.626	2.6157e-06	92.407	186.384	329.702	383.636	188.630	331.051	305.349	188.643	192.984	281.760	343.249	192.779	197.162	197.099	203.623	270.499	203.042	-8191	255	
2328.886	1	1	0	0	0.1369	0.23765	0.25065	0.2253	0.11929	0.06366	0.13482	0.38537	0.10836	0.14616	0.17644	0.35965	0.15842	0.12139	0.16256	0.091583	-1.1417	-1.3062	-1.8021	-1.6333	-1.5604	-1.8854	-1.7104	-1.7313	-1.6125	-1.3854	-1.95	-1.6396	-1.6271	-2.1063	-1.8083	-2.0021	310.519	317.733	511.583	481.196	234.016	460.844	364.775	420.123	297.954	197.853	492.049	486.353	489.004	485.151	429.642	408.283	0.00098342	0.00053747	0.0004916	870.71	4.0619e-06	4.1768e-06	1370.6	277.03	3.0879e-06	5.2604e-06	529.65	191.65	78.087	34.311	8.5089e-06	104.06	0.00026468	0.00021436	6.8069e-05	787.9	2.5288e-06	2.3139e-06	1238	251.24	2.5359e-06	2.3231e-06	476.66	173.04	70.813	30.994	2.7892e-06	93.432	187.790	218.716	260.847	188.324	313.350	305.602	188.556	192.939	321.594	283.999	193.287	197.326	196.861	203.535	293.230	202.593	-8191	255	
2328.982	1	1	0	0	0.14231	0.13201	0.0668	0.41188	0.19654	0.25265	0.083462	0.23989	0.27674	0.19159	0.29268	0.36133	0.066368	0.18176	0.16562	0.10623	-1.4167	-1.4583	-1.6604	-1.8271	-1.4729	-2.0938	-1.8667	-2.0312	-1.7938	-1.6646	-2.0062	-2	-1.7292	-2.0771	-1.6042	-1.9937	233.166	423.036	180.829	519.942	218.751	439.423	496.573	498.232	241.488	293.406	503.881	487.623	532.847	448.730	303.489	369.561	0.0010212	0.00057551	5.9979e-05	874.04	3.0626e-06	4.4846e-06	1369.2	277.38	2.4504e-06	3.1954e-06	532.05	192.11	77.474	34.401	5.8756e-06	103.33	0.00025969	0.00021429	7.1428e-05	790.52	2.4521e-06	2.4177e-06	1237.9	251.73	2.4195e-06	2.4448e-06	477.22	172.73	70.626	31.123	2.8951e-06	92.712	186.390	295.614	527.674	188.430	278.898	307.694	188.502	193.121	316.997	228.580	193.239	197.272	197.040	203.236	320.702	202.690	-8191	255	
2329.079	1	1	0	0	0.12206	0.091558	0.29569	0.071529	0.11068	0.1413	0.27435	0.12545	0.022813	0.17148	0.095223	0.078062	0.28216	0.23112	0.21061	0.36981	-1.4917	-1.6313	-1.8458	-1.8208	-1.7188	-1.9562	-1.8396	-1.7938	-2.1562	-1.7167	-2.1021	-1.9062	-1.5312	-1.8563	-1.4979	-1.5708	340.320	422.920	302.213	245.587	329.064	307.717	485.619	275.807	484.395	186.024	240.928	435.575	524.892	529.609	405.343	520.727	0.0010376	0.00028505	0.00020506	871.35	2.2651e-06	7.5269e-06	1359.7	275.18	7.8034e-06	1.1685e-05	527.35	190.63	77.729	34.427	6.0898e-06	103.19	0.00025481	0.00023146	7.0879e-05	787.26	2.3971e-06	2.5504e-06	1230.2	250.16	2.3469e-06	2.6446e-06	473.88	171.92	70.499	31.209	2.8135e-06	92.592	184.193	308.496	198.586	188.544	293.807	292.387	188.604	193.102	247.884	284.518	192.823	197.154	197.029	203.272	282.722	202.732	-8191	255	
2329.150	1	1	0	0	0.095827	0.21159	0.12944	0.14953	0.15935	0.09655	0.072525	0.1352	0.24881	0.11735	0.2193	0.15359	0.28971	0.1454	0.17585	0.32954	-1.5625	-1.5396	-1.8625	-1.9562	-1.7042	-2.0771	-2.0292	-1.8333	-1.6229	-1.5042	-1.7292	-1.8292	-1.35	-1.7	-1.7417	-1.5979	181.261	502.877	312.641	488.953	199.365	282.031	454.248	221.876	278.158	214.494	203.830	442.880	455.554	185.582	207.496	489.006	0.0010065	0.00016611	0.00014072	864.29	7.0908e-06	3.2318e-06	1369.1	276.04	1.1686e-06	1.0254e-05	531.66	191.32	77.959	34.5	2.6997e-06	103.38	0.0002511	0.00025607	6.9949e-05	785.01	2.3263e-06	2.7492e-06	1232.3	250.46	2.3924e-06	2.794e-06	474.98	172.06	70.829	31.323	2.6513e-06	93.083	185.199	270.989	231.558	188.494	315.515	338.708	188.475	192.592	314.408	253.551	193.067	197.240	197.201	203.536	282.462	202.899	-8191	255	
2329.271	1	1	0	0	0.025886	0.13499	0.35832	0.25823	0.13643	0.27739	0.063608	0.228	0.27995	0.15232	0.31616	0.19199	0.17221	0.24949	0.19776	0.3312	-1.5083	-1.6167	-1.5729	-1.7833	-1.7	-1.9625	-1.75	-1.7042	-2.0479	-1.7354	-1.8708	-2.1375	-1.7479	-1.9229	-1.8646	-1.7417	301.673	249.946	535.001	527.033	181.377	327.402	196.576	532.852	409.600	471.449	181.472	277.574	463.615	231.533	322.727	472.946	0.00098303	0.00042698	0.00024434	875.14	3.8769e-06	5.6536e-06	1365.1	277.04	6.7792e-06	2.1467e-06	530.8	191.83	78.006	34.306	2.4107e-06	104.18	0.00025917	0.00026592	6.7902e-05	787.73	2.5108e-06	2.8535e-06	1232.3	250.47	2.5494e-06	2.8399e-06	475.66	172.02	70.894	31.197	2.5843e-06	93.131	189.251	272.651	271.507	188.330	330.321	297.256	188.668	193.042	292.316	301.955	193.008	197.314	196.844	203.844	214.848	202.767	-8191	255	
2329.367	1	1	0	0	0.042199	0.0496	0.12426	0.090294	0.27148	0.15614	0.15811	0.32149	0.26555	0.36983	0.12593	0.059421	0.10427	0.10677	0.24746	0.19143	-1.8417	-1.5542	-1.7604	-2.0438	-1.6	-1.8646	-1.8875	-1.4229	-1.7437	-1.6688	-1.5312	-1.9208	-1.5792	-1.8167	-1.8958	-1.5021	525.165	204.267	534.364	529.316	428.137	389.345	418.837	441.608	428.539	395.250	194.924	324.215	363.567	274.039	182.556	257.742	0.0010053	0.00081023	0.00017967	875.12	2.0429e-06	4.7059e-06	1367	279.62	1.3751e-06	6.1382e-06	527.63	191.88	77.575	34.03	3.447e-06	102.03	0.00028152	0.00025979	6.6071e-05	788.4	2.7646e-06	2.9234e-06	1234.9	252.02	2.7355e-06	2.8028e-06	474.4	172	70.728	30.972	2.5102e-06	91.56	185.944	289.875	275.434	188.489	457.605	330.457	188.911	192.567	313.013	316.585	193.027	197.391	196.856	203.718	298.133	202.735	-8191	255	
2329.463	1	1	0	0	0.12111	0.039772	0.12558	0.22731	0.017391	0.28224	0.15773	0.20689	0.20863	0.084744	0.2742	0.055996	0.12869	0.061455	0.098066	0.3019	-1.4458	-1.7292	-1.4104	-2.0687	-1.7417	-1.7979	-2.0062	-1.5458	-2.0208	-1.95	-1.7458	-1.9667	-1.6354	-1.7396	-1.9	-1.575	279.325	232.826	212.950	483.834	486.593	398.393	438.960	520.706	431.956	186.889	490.818	503.442	244.035	468.330	278.358	461.224	0.0009939	0.00042194	0.00016897	868.76	4.0661e-06	7.4167e-06	1356.9	276.99	4.1558e-06	7.1933e-06	524.7	189.72	77.124	33.714	4.2441e-06	102.08	0.00029686	0.0002558	6.3217e-05	784.82	2.9005e-06	2.7089e-06	1223.4	249.47	2.8709e-06	2.6618e-06	470.02	170.2	70.583	30.717	2.5249e-06	91.245	188.059	288.816	257.005	188.303	353.540	338.455	188.463	192.803	233.940	305.361	193.136	196.920	197.087	203.466	356.015	202.815	-8191	255	
2329.559	1	1	0	0	0.22809	0.03812	0.15939	0.15148	0.06914	0.15572	0.23524	0.12831	0.1863	0.30431	0.12928	0.10811	0.1637	0.22083	0.22078	0.089869	-1.3104	-1.5542	-1.4458	-1.9583	-1.4771	-1.6938	-1.9729	-1.4958	-1.6667	-1.6458	-1.3521	-1.9937	-1.6646	-1.7479	-1.8333	-1.4917	293.645	218.165	181.354	490.161	511.052	393.123	182.315	220.043	382.459	243.906	463.296	201.954	396.644	505.392	365.928	421.506	0.00095762	0.00037469	0.0001528	863.66	2.9801e-06	5.4713e-06	1357.4	276.22	3.6348e-06	7.2029e-06	525.09	189.53	77.511	33.905	2.2178e-06	102.24	0.00030396	0.00024567	6.2379e-05	783.3	2.8837e-06	2.6222e-06	1223	249.88	2.9228e-06	2.6033e-06	470.36	170.8	70.899	30.855	2.427e-06	91.879	183.994	250.704	292.723	188.978	334.137	326.682	188.612	192.450	283.190	321.779	193.013	197.128	197.044	203.354	311.434	202.724	-8191	255	
2329.678	1	1	0	0	0.024578	0.069029	0.20319	0.17809	0.14516	0.18534	0.26024	0.25415	0.21546	0.15601	0.0069711	0.29732	0.39438	0.020394	0.121	0.23402	-1.2729	-1.7792	-1.5771	-2.1271	-1.6604	-1.5562	-2.0333	-1.7646	-1.5875	-1.8229	-1.4917	-1.7021	-1.7646	-1.4479	-2.1021	-1.9583	529.237	428.879	236.457	188.340	305.444	526.214	464.511	488.248	285.335	355.388	198.491	439.314	177.032	187.875	424.083	503.055	0.0010109	0.00067417	0.00021064	868.3	5.7098e-06	3.8866e-06	1360	275.54	9.14e-06	3.4836e-06	530.91	191.85	78.399	34.759	2.037e-06	104.59	0.00029725	0.00023587	6.1872e-05	785.85	2.7946e-06	2.6163e-06	1227.8	250.53	2.8499e-06	2.6191e-06	474.58	173.04	71.407	31.456	2.5082e-06	93.816	192.087	265.001	297.674	188.467	367.800	311.678	188.737	192.709	299.263	310.224	192.688	197.255	196.843	203.173	289.840	202.684	-8191	255	
2329.752	1	1	0	0	0.15785	0.26324	0.083624	0.28613	0.14241	0.14793	0.21273	0.27202	0.17261	0.053593	0.4417	0.13157	0.057849	0.47726	0.13321	0.06058	-1.2958	-1.9271	-1.5521	-2.0833	-1.7229	-1.7563	-1.8521	-1.6646	-1.6146	-1.7417	-1.5458	-1.925	-1.75	-1.4625	-1.8042	-1.9188	196.036	245.872	525.992	449.759	353.358	447.441	455.396	175.417	349.018	437.938	472.689	488.764	403.133	462.315	451.398	326.362	0.00098593	0.00094338	0.00026377	870.79	5.216e-06	4.1738e-06	1363.8	277.44	7.0922e-06	3.3953e-06	527.66	191.97	78.19	34.4	1.6425e-06	104.21	0.00028959	0.00022632	6.5477e-05	789.99	2.6654e-06	2.5136e-06	1231.9	252.06	2.6939e-06	2.4627e-06	474	172.53	71.204	31.299	2.667e-06	93.202	188.851	255.558	238.664	189.037	264.587	391.437	188.716	192.929	305.090	307.917	192.811	197.249	197.025	203.661	314.094	202.771	-8191	255	
2329.848	1	1	0	0	0.1919	0.11837	0.21854	0.24081	0.068484	0.0262	0.11526	0.2471	0.16261	0.16536	0.3099	0.30749	0.15664	0.13794	0.30968	0.21666	-1.175	-1.8729	-1.5333	-2.0125	-1.8542	-1.6979	-2.175	-1.7104	-1.5667	-1.7333	-1.5854	-1.8354	-1.6854	-1.5688	-1.9146	-1.9646	178.145	514.062	449.562	424.213	307.652	254.501	429.709	524.908	295.451	244.087	479.066	428.992	182.889	457.572	314.560	438.453	0.0010328	0.00017406	6.8984e-05	869.26	2.4791e-06	3.6315e-06	1361.1	275.87	4.012e-06	5.326e-06	523.41	190.99	77.627	34.313	1.6451e-06	102.58	0.00027906	0.0002221	6.9339e-05	787.47	2.6176e-06	2.4413e-06	1227.8	250.53	2.5993e-06	2.3935e-06	471.16	171.24	70.73	31.206	2.8843e-06	92.231	190.511	241.683	302.419	188.455	368.451	328.250	188.617	193.157	303.726	291.044	192.931	197.427	197.046	203.535	296.469	202.563	-8191	255	
2329.967	1	1	0	0	0.22332	0.22093	0.27263	0.26447	0.36571	0.073407	0.17637	0.12471	0.2399	0.13428	0.32211	0.13942	0.11886	0.15295	0.053393	0.32672	-1.225	-2	-1.5479	-2.0438	-1.7958	-1.5125	-1.9625	-1.7146	-1.4875	-1.9667	-1.7417	-1.9646	-2.0563	-1.6604	-1.7188	-1.8563	332.069	407.222	420.707	524.622	363.250	311.666	475.120	447.142	363.822	335.682	502.719	199.707	486.188	222.795	446.269	477.697	0.00093004	0.00033735	0.00033779	866.41	1.2193e-06	3.9751e-06	1356.8	277.25	3.1232e-06	4.5561e-06	527.2	190.2	77.743	34.491	6.5819e-06	103.7	0.00027139	0.00022284	7.3258e-05	784.76	2.5816e-06	2.4175e-06	1224.4	251.02	2.5742e-06	2.4616e-06	472.66	171.36	70.78	31.351	2.91e-06	92.821	186.194	306.873	268.566	188.540	318.131	310.188	188.347	193.031	285.271	284.236	193.108	196.981	197.175	203.567	326.916	202.625	-8191	255	
2330.063	1	1	0	0	0.14504	0.29578	0.099768	0.24484	0.24983	0.21561	0.16129	0.18735	0.082195	0.24546	0.12107	0.25193	0.32796	0.20498	0.17188	0.088278	-1.0688	-1.9188	-1.5292	-1.925	-1.9771	-1.6	-1.8792	-1.9312	-1.2292	-1.8667	-1.7958	-1.5875	-1.8729	-1.6729	-1.7396	-2.0687	439.128	498.625	404.539	471.807	220.556	286.129	464.477	404.138	325.552	250.212	481.304	204.168	348.887	209.431	247.972	469.917	0.0010362	5.3186e-05	0.00027142	864.91	5.4662e-06	3.4156e-06	1350.1	277.46	4.3773e-06	2.6432e-06	527.31	190.47	78.825	34.86	5.3386e-06	103.64	0.00026399	0.00023534	7.4657e-05	784.75	2.4951e-06	2.6299e-06	1223.5	250.66	2.4713e-06	2.6885e-06	472.06	171.83	71.193	31.559	2.9222e-06	93.056	190.994	329.247	246.832	188.542	326.608	280.512	188.683	192.849	351.630	272.343	192.813	197.120	196.929	203.677	354.010	202.737	-8191	255	
2330.159	1	1	0	0	0.23891	0.087312	0.083249	0.16576	0.19001	0.27406	0.11923	0.1833	0.10891	0.18777	0.33598	0.12535	0.18894	0.14421	0.086738	0.30339	-1.1313	-1.9458	-1.525	-1.7229	-2.1312	-1.5667	-1.9167	-2.1125	-1.5708	-1.8979	-1.6354	-1.4354	-1.7479	-1.5063	-1.6792	-2.0667	315.811	519.433	370.502	187.874	249.280	310.922	499.322	519.295	373.465	333.588	494.804	490.284	422.996	416.916	327.908	226.441	0.00096086	0.00050224	9.4619e-05	875.89	4.4788e-06	8.3121e-07	1361	276.75	5.2746e-06	5.5499e-06	523.42	190.28	78.204	34.46	3.8081e-06	103.61	0.00026036	0.0002568	7.3175e-05	788.02	2.4449e-06	2.8206e-06	1229.5	250.54	2.5124e-06	2.9098e-06	471.07	171.19	71.005	31.457	2.7763e-06	92.68	188.219	272.337	278.558	188.375	298.217	301.678	188.794	192.678	236.176	284.058	192.862	197.282	197.269	203.422	310.472	202.681	-8191	255	
2330.255	1	1	0	0	0.13087	0.22761	0.09326	0.30491	0.038123	0.10916	0.22833	0.30106	0.25074	0.1489	0.11191	0.1804	0.27397	0.14228	0.068841	0.28249	-1.2521	-2.075	-1.8958	-1.625	-2.1583	-1.5667	-1.8625	-2.0271	-1.4583	-1.6167	-1.7917	-1.5	-2.0104	-1.6271	-1.7188	-2.15	443.026	259.754	438.358	486.224	516.623	255.036	179.890	496.147	379.208	419.854	511.603	286.543	421.355	519.974	358.517	456.523	0.001063	0.00062471	0.00027864	867.69	3.4628e-06	7.2498e-06	1348.7	276.11	3.3886e-06	2.2753e-06	521.78	188.01	77.35	33.9	1.919e-06	102.13	0.00026629	0.00026752	7.2237e-05	784.22	2.5745e-06	2.9544e-06	1217.7	249.11	2.5741e-06	2.9562e-06	467.11	169.01	70.395	30.962	2.6761e-06	90.994	183.931	346.782	302.497	188.423	180.955	296.067	188.910	192.807	305.522	281.401	193.055	197.044	196.806	203.211	224.369	202.902	-8191	255	
2330.351	1	1	0	0	0.15434	0.23877	0.08423	0.02018	0.065762	0.26352	0.36545	0.24535	0.076182	0.041953	0.27211	0.20204	0.060536	0.17757	0.059459	0.14568	-0.99167	-1.7833	-1.6187	-1.5104	-1.8229	-1.7208	-1.5354	-1.7667	-1.6854	-1.7979	-2.0667	-1.8167	-1.7667	-1.4917	-1.4417	-1.9646	245.329	390.469	374.544	517.665	245.259	390.121	410.976	459.827	355.007	320.083	529.407	192.965	485.905	414.949	295.392	415.889	0.0010291	0.00038627	0.0002999	866.25	2.6938e-06	1.1824e-06	1344	273.68	5.0044e-06	4.5372e-06	521.27	186.87	76.755	33.591	6.327e-06	101.23	0.00027823	0.00026966	6.9004e-05	781.6	2.7891e-06	2.897e-06	1215.1	248.39	2.828e-06	2.9117e-06	466.94	168.67	70.29	30.799	2.6537e-06	90.605	184.913	442.014	276.801	188.739	264.586	302.710	188.637	192.771	298.350	303.379	193.064	197.030	196.868	203.583	305.037	202.823	-8191	255	
2330.447	1	1	0	0	0.21217	0.35952	0.18817	0.26307	0.16807	0.33668	0.14015	0.16146	0.050501	0.16966	0.34251	0.096592	0.086667	0.11071	0.15241	0.11413	-1.1063	-1.7	-1.4979	-1.4958	-1.9479	-1.6313	-1.575	-2.0542	-1.5625	-1.8062	-1.8937	-1.4604	-1.7792	-1.7292	-1.6729	-2.0521	220.609	441.187	498.104	462.535	254.285	275.667	508.450	460.288	194.239	365.607	224.920	445.756	439.581	496.911	199.800	386.627	0.00092233	0.00029028	0.00039602	864.73	3.6231e-06	6.0217e-06	1344.9	276.75	3.4291e-06	5.9563e-06	522.21	187.9	77.327	33.9	6.6179e-06	101.8	0.00029297	0.00026253	6.6167e-05	783.38	2.9037e-06	2.8281e-06	1218.5	249.45	2.9932e-06	2.7705e-06	467.11	169.29	70.779	30.853	2.5824e-06	91.685	186.303	199.513	248.294	188.828	356.370	312.828	188.532	192.828	335.129	337.315	192.954	197.175	197.104	203.614	287.685	202.842	-8191	255	
2330.568	1	1	0	0	0.031586	0.17999	0.10763	0.1974	0.34192	0.11975	0.29227	0.24911	0.23348	0.24271	0.31906	0.18641	0.09844	0.45753	0.24962	0.26536	-1.2979	-1.4729	-1.7625	-1.4104	-1.7896	-1.7083	-1.8563	-1.9604	-1.35	-1.7083	-2.1646	-1.7437	-1.9	-1.6604	-1.4729	-2.1521	300.192	491.846	223.760	249.282	406.404	398.503	415.005	513.181	348.194	296.602	533.311	490.442	219.737	226.444	446.184	452.478	0.00090487	0.00035177	0.00014429	873.04	5.5554e-06	1.8783e-06	1349	276.81	1.0177e-06	3.7325e-06	523.37	189.21	77.546	33.731	3.3049e-06	101.2	0.00030975	0.0002524	6.4486e-05	787.47	2.9917e-06	2.7753e-06	1221	251.1	3.0503e-06	2.6747e-06	468.92	170.19	70.782	30.866	2.4493e-06	91.029	183.921	263.493	250.444	188.501	327.628	295.872	188.602	192.938	401.874	353.290	192.774	197.236	197.158	203.238	246.257	202.947	-8191	255	
2330.664	1	1	0	0	0.30356	0.16826	0.070139	0.16969	0.22167	0.19332	0.18484	0.15953	0.12522	0.20482	0.059025	0.074994	0.15099	0.60862	0.26236	0.24479	-1.2375	-1.45	-1.7229	-1.4958	-1.6667	-1.8229	-1.75	-2.0208	-1.7313	-1.6354	-2.0354	-1.8854	-1.775	-1.8375	-1.4792	-2.1625	284.332	494.926	218.333	516.766	261.697	430.753	479.546	221.038	317.179	453.232	467.900	393.118	483.527	408.081	314.398	430.045	0.00097875	0.00076864	0.00021515	870.18	2.2576e-06	3.7322e-06	1346.9	276.73	5.6754e-06	6.1893e-06	520.99	188.58	77.597	34.445	2.3892e-06	101.66	0.00029907	0.00024134	6.1089e-05	786.69	2.9111e-06	2.6386e-06	1214.5	250.17	2.9092e-06	2.634e-06	466.56	169.48	70.693	31.207	2.5211e-06	91.186	187.036	307.751	258.294	188.441	388.150	261.268	188.712	192.885	296.152	262.726	193.174	197.466	196.926	203.746	275.166	202.688	-8191	255	
2330.759	1	1	0	0	0.24632	0.15895	0.083249	0.17017	0.16063	0.0021118	0.30078	0.15249	0.15895	0.11688	0.1347	0.16653	0.13822	0.18094	0.1662	0.09779	-1.2729	-1.275	-1.9729	-1.8958	-1.7563	-1.8062	-1.6083	-1.8854	-1.6313	-1.5021	-2.1021	-1.7417	-1.6292	-2.1167	-1.7437	-1.9375	259.944	359.976	333.466	514.710	327.249	180.000	482.475	481.420	235.387	369.860	182.589	480.428	465.228	406.240	301.900	206.608	0.00089722	0.0002238	0.00021917	863.44	6.6832e-06	5.5473e-06	1336.6	274.49	4.3342e-06	7.8737e-06	516.39	187.7	77.551	34.243	3.9344e-06	101.9	0.00028892	0.00023087	6.255e-05	782.2	2.8122e-06	2.4634e-06	1208.1	249.93	2.7476e-06	2.5069e-06	463.92	168.95	70.441	31.022	2.7146e-06	91.592	191.130	303.284	225.941	188.567	316.927	358.669	188.603	192.768	355.592	308.794	193.052	197.331	196.988	203.803	300.686	202.607	-8191	255	
2330.855	1	1	0	0	0.32853	0.18228	0.25845	0.32113	0.12547	0.2028	0.25613	0.13342	0.37754	0.43826	0.14301	0.19931	0.20262	0.079743	0.074105	0.15384	-1.3438	-1.6979	-1.9	-1.4833	-1.5854	-2.0458	-1.6938	-1.975	-1.8042	-1.3625	-1.9	-1.6354	-1.45	-1.8771	-1.7021	-1.7333	314.187	373.807	310.283	447.138	380.037	531.876	459.290	468.102	336.272	325.704	186.498	193.839	233.441	499.143	309.532	324.350	0.0010097	0.00023536	0.00016116	861.96	6.6762e-06	7.7764e-06	1341.3	274.21	5.2789e-06	1.6569e-06	518.48	187.72	77.007	34.324	5.2668e-06	102.2	0.00028021	0.00022286	6.804e-05	783.39	2.6549e-06	2.4544e-06	1211.1	249.39	2.6445e-06	2.4658e-06	466.1	169.66	70.352	31.183	2.9018e-06	91.937	188.134	290.912	273.956	188.842	319.689	309.219	188.753	192.613	322.097	303.469	192.818	196.936	197.061	203.407	261.321	202.867	-8191	255	
2330.975	1	1	0	0	0.24448	0.17703	0.24248	0.036225	0.13297	0.11522	0.38867	0.36733	0.21288	0.067742	0.20394	0.36091	0.064531	0.20223	0.18662	0.09297	-1.3458	-1.5979	-1.7771	-1.5979	-1.6271	-2.0979	-1.8021	-1.7146	-1.975	-1.4625	-1.9542	-1.5167	-1.5458	-2.0312	-1.5875	-1.7208	518.003	378.351	346.336	278.889	425.951	354.363	478.724	344.549	515.481	186.203	485.926	205.288	242.782	318.830	301.884	185.371	0.0010046	0.00066734	0.00024306	867.21	3.6736e-06	3.2605e-06	1339	273.02	2.6337e-06	7.4101e-06	519.79	186.99	76.808	34.043	7.5637e-06	101.84	0.00027507	0.00022345	7.3736e-05	784.78	2.5664e-06	2.4805e-06	1214.3	248.21	2.5708e-06	2.4778e-06	465.85	168.69	70.235	30.916	2.9976e-06	91.468	185.227	281.015	236.421	188.151	291.682	272.502	188.628	192.979	281.758	286.963	192.853	197.515	196.828	203.802	288.158	202.682	-8191	255	
2331.047	1	1	0	0	0.047396	0.24987	0.1357	0.20284	0.22157	0.10716	0.23555	0.1117	0.29724	0.11098	0.21195	0.21147	0.17248	0.15842	0.13705	0.19225	-1.4271	-1.5021	-1.7417	-1.6583	-1.5604	-1.95	-1.8979	-1.6771	-1.8042	-1.4583	-1.9417	-1.7687	-1.3771	-2.2625	-1.5583	-1.6812	433.723	213.831	261.106	180.252	196.631	252.355	467.567	525.137	311.270	308.760	204.725	462.322	190.189	525.315	248.309	322.999	0.00093167	0.00065677	0.00038775	860.97	4.144e-06	6.8344e-06	1329.9	274.08	4.1331e-06	4.0637e-06	515.43	185.05	75.965	33.542	3.2998e-06	99.399	0.00026515	0.00023498	7.6229e-05	780.51	2.5593e-06	2.609e-06	1205.6	248.04	2.4662e-06	2.7266e-06	462.01	166.24	69.292	30.437	2.9441e-06	89.168	183.956	270.956	270.392	188.554	328.777	293.573	188.491	192.470	251.684	311.901	192.912	196.928	197.320	203.316	311.741	202.591	-8191	255	
2331.143	1	1	0	0	0.19029	0.090176	0.13673	0.12294	0.20305	0.13471	0.17612	0.22886	0.097913	0.13731	0.075511	0.082354	0.03997	0.07935	0.12401	0.28262	-1.3958	-1.5604	-1.7938	-1.9167	-1.4479	-1.8312	-1.8	-1.8479	-1.8667	-1.7354	-1.9708	-1.9833	-1.5604	-2.0979	-1.7333	-1.6042	411.446	244.594	456.047	477.315	286.718	368.650	484.569	438.570	407.495	276.420	219.102	473.936	273.131	521.869	294.557	436.751	0.00089598	0.00043573	0.00017222	856.32	3.2639e-06	5.1712e-06	1325	273.79	4.5931e-06	7.9528e-06	512.09	185.5	76.483	33.33	7.5335e-06	99.389	0.00025847	0.00025084	7.4721e-05	776.09	2.4867e-06	2.8479e-06	1200.8	247.91	2.4841e-06	2.9239e-06	460.59	166.14	69.542	30.403	2.8918e-06	89.056	182.966	267.725	295.696	188.587	330.726	318.091	188.379	192.814	290.353	303.149	193.209	196.953	196.599	203.468	330.363	202.750	-8191	255	
2331.239	1	1	0	0	0.24453	0.27406	0.022151	0.13522	0.10477	0.215	0.17184	0.054472	0.11952	0.14621	0.28507	0.15904	0.11848	0.11753	0.20882	0.42233	-1.4708	-1.7167	-1.8292	-2.0312	-1.4	-1.7437	-1.9792	-1.6917	-1.9667	-1.5792	-1.9271	-2.0687	-1.6854	-1.9167	-1.6958	-1.4854	476.033	480.893	341.080	387.598	457.440	472.575	452.794	411.069	409.391	309.034	507.936	463.817	521.780	306.178	490.139	475.210	0.0010068	0.00052095	0.00015431	865.19	2.6561e-06	4.9983e-06	1327	271.1	5.839e-06	8.4208e-06	515.19	185.67	76.89	33.901	4.5407e-06	100.42	0.00026217	0.00027462	7.1856e-05	781	2.5658e-06	3.0278e-06	1204.6	247.02	2.5716e-06	3.0386e-06	462.03	167.04	69.979	30.818	2.7151e-06	90.384	190.150	249.559	270.504	188.641	255.558	529.672	188.673	192.584	249.633	311.044	192.886	197.166	196.949	203.742	277.835	202.641	-8191	255	
2331.360	1	1	0	0	0.07533	0.24178	0.13772	0.10386	0.22735	0.28116	0.19669	0.19011	0.11456	0.11928	0.32083	0.12163	0.22109	0.29291	0.34646	0.024055	-1.6208	-1.675	-1.8104	-2.1708	-1.4833	-1.7667	-1.8083	-1.7292	-2.0583	-1.7292	-1.7396	-1.8292	-1.6271	-2.0125	-1.9583	-1.7313	439.596	508.165	475.042	254.376	483.069	188.744	434.375	522.466	289.668	481.181	466.158	519.053	414.511	510.774	380.360	418.695	0.00090179	0.00055992	0.0002054	861.9	5.3677e-06	6.0607e-06	1336.3	274.02	7.6582e-06	4.1126e-06	520.01	186.53	77.303	33.969	7.1581e-06	100.25	0.00027582	0.00027776	7.0171e-05	780.59	2.7843e-06	2.9901e-06	1210.2	248.39	2.8152e-06	2.9416e-06	465.49	168.02	70.474	30.898	2.7076e-06	90.057	183.191	248.641	269.119	188.683	245.470	246.385	188.533	192.937	239.523	325.456	193.218	197.175	197.282	203.368	319.090	202.994	-8191	255	
2331.456	1	1	0	0	0.29661	0.14118	0.17831	0.15244	0.19278	0.17033	0.22885	0.28652	0.15185	0.069181	0.23408	0.13962	0.11538	0.12521	0.17003	0.38036	-1.4729	-1.7042	-1.5125	-1.8542	-1.6354	-1.7458	-2.2458	-1.6167	-1.6896	-1.6313	-1.6208	-1.9458	-1.5458	-1.7354	-1.9583	-1.6229	290.894	447.683	420.928	219.270	479.192	492.114	406.341	462.348	346.714	428.283	528.482	431.056	448.462	413.237	479.237	510.186	0.00092332	0.00025505	0.00012375	868.68	4.5064e-06	5.5391e-06	1326.2	274.06	5.6759e-06	3.1787e-06	513.87	184.46	77.114	33.729	5.3399e-06	100.12	0.00030139	0.00027002	6.8864e-05	783.19	2.9548e-06	2.9134e-06	1201.3	247.83	3.0424e-06	2.8955e-06	459.93	166.35	70.334	30.773	2.6112e-06	89.802	183.637	253.563	227.393	188.525	285.197	312.266	188.372	193.243	362.672	326.639	193.121	197.210	197.056	203.654	290.405	202.849	-8191	255	
2331.552	1	1	0	0	0.046843	0.32516	0.28133	0.1557	0.25611	0.24041	0.13625	0.18145	0.12845	0.05905	0.19102	0.15534	0.27189	0.23338	0.27169	0.037815	-1.3813	-1.7042	-1.6729	-2.1937	-1.6333	-1.7417	-2.2979	-1.5792	-1.7708	-1.6125	-1.4667	-2.0021	-1.4521	-1.5896	-2.0979	-1.5729	513.414	277.631	353.464	179.624	523.133	479.553	460.201	194.987	305.241	410.574	214.221	525.790	238.404	481.506	328.253	530.270	0.00092355	0.00038746	5.5873e-05	863.31	2.6088e-06	2.8348e-06	1325.1	273.18	6.2749e-06	4.5326e-06	510.7	185.55	76.738	33.694	5.5871e-06	100.07	0.00031197	0.00025958	6.5346e-05	778.34	3.013e-06	2.7831e-06	1197.3	247.48	3.0505e-06	2.7549e-06	458.65	166.24	70.198	30.736	2.5158e-06	90.018	185.770	307.552	200.273	188.789	287.038	302.951	188.636	192.856	308.462	264.480	193.084	197.564	196.996	203.342	289.833	202.625	-8191	255	
2331.648	1	1	0	0	0.21559	0.12612	0.022869	0.09705	0.37268	0.21001	0.30624	0.15275	0.12423	0.11872	0.18684	0.24667	0.15186	0.12987	0.26411	0.22065	-1.3188	-1.8583	-1.4271	-1.8083	-1.4833	-1.5	-2.1667	-1.8208	-1.6958	-1.6958	-1.6208	-1.9667	-1.975	-1.7188	-1.8062	-1.5708	430.147	482.055	450.103	255.465	288.245	215.551	469.111	485.167	473.032	284.523	488.257	454.528	454.300	445.656	208.461	491.929	0.00092502	0.00078561	0.00015669	859	2.0332e-06	4.5148e-06	1327.9	273.37	2.1813e-06	8.6514e-06	515.91	186.15	77.011	34.142	1.4403e-06	100.32	0.00030801	0.00024905	6.3127e-05	779.52	2.9565e-06	2.6655e-06	1198.1	247.93	2.982e-06	2.6498e-06	461.04	167.02	70.378	30.997	2.5792e-06	90.554	188.834	273.325	231.204	188.547	488.757	290.882	188.770	192.817	290.059	302.851	192.784	197.334	197.228	203.584	306.986	202.755	-8191	255	
2331.745	1	1	0	0	0.13172	0.10561	0.11367	0.052265	0.17872	0.11018	0.08627	0.21182	0.32318	0.095766	0.14441	0.28646	0.14152	0.17819	0.098631	0.41746	-1.15	-1.8333	-1.3458	-1.9479	-1.8542	-1.6333	-2.2458	-1.8417	-1.5021	-1.825	-1.4021	-2.0812	-1.7792	-1.5688	-1.9312	-1.5896	273.230	360.644	191.640	347.896	381.669	244.901	452.751	509.899	332.179	192.483	402.042	459.039	479.781	257.439	281.002	418.335	0.00099176	0.00052224	0.00018262	859.33	2.5767e-06	4.4357e-06	1331.3	274.14	5.8661e-06	4.9497e-06	512.93	186.38	76.966	34.366	6.0502e-06	100.63	0.00029671	0.00023645	6.5126e-05	780.29	2.8222e-06	2.6121e-06	1201.2	249.43	2.9057e-06	2.5964e-06	459.83	167.89	70.402	31.121	2.7386e-06	90.523	186.881	278.797	278.644	188.308	252.593	339.588	188.943	192.765	264.626	321.012	193.066	196.916	197.160	203.702	255.239	202.584	-8191	255	
2331.839	1	1	0	0	0.13818	0.13014	0.27019	0.15973	0.18981	0.056223	0.15991	0.2462	0.20572	0.21205	0.26499	0.22599	0.10367	0.25649	0.079437	0.15429	-1.1063	-1.7229	-1.4229	-1.7708	-1.6354	-1.5438	-2.0729	-1.7083	-1.6667	-2.0104	-1.6104	-1.7729	-1.8958	-1.5083	-1.8937	-1.8042	213.101	270.604	427.110	441.754	449.187	290.562	358.598	443.923	243.024	522.617	482.215	492.242	511.304	176.595	218.977	442.022	0.00092441	0.00060989	0.00022742	864.4	2.5324e-06	4.5984e-06	1335.1	273.22	4.9694e-06	2.5615e-06	509.91	182.98	76.649	33.807	7.9709e-06	99.048	0.00029048	0.00023376	6.9321e-05	783.27	2.7553e-06	2.5959e-06	1200.5	248.34	2.8055e-06	2.4965e-06	457.45	165.49	69.801	30.586	2.9421e-06	89.276	189.492	305.543	282.914	188.529	301.062	316.007	188.723	192.796	308.673	258.098	193.137	197.457	197.126	203.478	262.789	202.605	-8191	255	
2331.937	1	1	0	0	0.040723	0.085374	0.13447	0.03868	0.064182	0.2	0.10569	0.12993	0.13085	0.14559	0.16975	0.19279	0.098804	0.47446	0.24168	0.28808	-1.3333	-1.8146	-1.3729	-1.7021	-1.9708	-1.6417	-2.0604	-1.7313	-1.6521	-1.9333	-1.7729	-1.8792	-1.9083	-1.2	-1.7917	-1.9833	262.790	190.035	240.595	385.352	194.544	198.563	491.650	502.379	395.253	498.762	462.847	190.268	177.286	403.986	210.634	515.690	0.00096002	0.00037995	0.00015765	855.46	4.2366e-06	6.0889e-06	1314.4	273.91	4.0592e-06	5.0979e-06	510.85	184.24	76.421	33.783	2.4771e-06	99.389	0.0002802	0.00023362	7.6726e-05	780.24	2.7899e-06	2.6123e-06	1194.4	248.15	2.77e-06	2.5282e-06	458.27	165.77	69.751	30.736	3.0852e-06	89.423	187.094	286.706	217.921	188.347	305.538	316.550	188.699	192.934	281.342	292.031	192.865	197.554	196.923	203.460	245.134	202.507	-8191	255	
2332.056	1	1	0	0	0.12135	0.23353	0.31175	0.13627	0.13469	0.173	0.3449	0.26162	0.19907	0.076471	0.12629	0.16392	0.086332	0.14072	0.026091	0.33119	-1.1583	-1.9021	-1.4438	-1.7833	-1.9354	-1.4979	-2.0604	-1.8417	-1.4854	-2.0354	-1.6896	-1.6063	-1.8771	-1.7188	-1.9875	-1.8104	385.331	312.929	225.308	347.301	415.790	186.521	426.164	185.641	398.095	211.070	180.252	448.281	473.018	493.740	259.382	377.090	0.00094036	0.00043534	0.00032932	862.92	1.2932e-06	1.5891e-06	1320	272.61	2.9116e-06	4.5005e-06	510.04	183.64	76.57	33.791	5.4152e-06	100.06	0.0002803	0.00024289	7.8633e-05	779.8	2.6375e-06	2.7228e-06	1198.1	247.15	2.6593e-06	2.6758e-06	458.23	165.94	69.604	30.751	3.1071e-06	89.614	185.013	281.390	238.516	188.302	275.307	226.323	188.618	193.148	310.424	263.477	193.153	197.349	197.250	203.386	337.287	202.502	-8191	255	
2332.152	1	1	0	0	0.11441	0.22218	0.12041	0.21422	0.35185	0.23857	0.15951	0.065658	0.48202	0.15781	0.77313	0.14575	0.16503	0.25842	0.18687	0.1847	-0.94375	-1.8146	-1.6562	-1.6542	-1.9021	-1.3917	-1.9083	-2.0104	-1.5833	-1.8375	-1.8021	-1.6958	-2.0938	-1.8125	-1.7354	-1.8271	350.392	508.633	330.005	531.039	374.640	402.385	442.702	197.236	247.711	520.844	509.031	183.772	360.493	404.145	425.350	194.845	0.00088971	0.00017353	3.8803e-05	865.07	5.9741e-06	9.6106e-06	1324.4	275.47	5.3662e-06	9.7635e-06	512.4	184.78	77.093	34.083	5.8726e-06	100.57	0.00027274	0.00025638	7.8048e-05	781.53	2.58e-06	2.9604e-06	1202.1	248.66	2.5995e-06	2.9471e-06	461.42	166.96	70.115	31.141	2.9973e-06	90.32	188.163	225.455	266.698	188.343	356.063	338.225	188.555	192.724	321.759	293.214	193.182	197.212	197.204	203.483	297.610	202.841	-8191	255	
2332.248	1	1	0	0	0.08021	0.062118	0.14765	0.12208	0.10377	0.21546	0.22862	0.10748	0.084226	0.26022	0.30115	0.02834	0.20667	0.13727	0.16775	0.22492	-1.1187	-1.85	-1.9	-1.6771	-1.9188	-1.5854	-1.6833	-1.9271	-1.6896	-1.9292	-1.8583	-1.7437	-2.1167	-1.6396	-1.6271	-2.0292	477.770	532.296	456.003	489.691	467.522	287.793	505.950	469.546	291.370	513.957	462.445	218.037	246.539	495.576	191.030	444.633	0.00099605	0.00036257	0.00018547	865.96	6.3636e-06	7.8368e-06	1320.7	274.18	5.2788e-06	8.2926e-06	512.22	184.93	77.404	34.268	4.8287e-07	100.64	0.00026976	0.0002717	7.5296e-05	782.83	2.6029e-06	3.103e-06	1199.7	248.26	2.7296e-06	3.0826e-06	459.56	166.38	70.445	31.358	2.8978e-06	90.185	188.286	282.436	367.409	188.457	330.980	343.222	188.615	192.861	242.183	295.937	192.921	197.474	197.237	203.022	331.919	202.755	-8191	255	
2332.344	1	1	0	0	0.37507	0.29826	0.31202	0.14906	0.23222	0.27333	0.28533	0.08463	0.10121	0.17194	0.22684	0.42138	0.13955	0.13401	0.051072	0.13194	-0.99792	-1.6688	-1.8708	-1.5688	-1.8	-1.7604	-1.8062	-1.975	-1.425	-1.7042	-1.8146	-1.3958	-1.9542	-1.8646	-1.6375	-1.8708	313.759	516.099	264.011	506.981	430.797	328.837	453.361	419.684	386.573	329.033	483.923	497.757	444.645	367.077	222.955	489.819	0.0010148	9.6945e-05	0.00026698	861.5	4.6118e-06	4.9219e-06	1324.6	274.62	3.4449e-06	6.327e-06	514.33	184.39	77.162	34.254	4.897e-06	101.38	0.00028756	0.00028077	7.0737e-05	779.41	2.7291e-06	3.0959e-06	1195.3	248.27	2.9195e-06	3.0506e-06	459.25	166.2	70.642	31.411	2.8328e-06	90.483	185.866	460.425	261.429	188.540	269.837	292.553	188.820	193.011	255.337	306.534	192.965	197.356	196.873	203.108	352.439	202.894	-8191	255	
2332.440	1	1	0	0	0.13063	0.25052	0.24982	0.27611	0.2711	0.2606	0.099925	0.14791	0.075727	0.012329	0.21286	0.20594	0.40754	0.24058	0.048969	0.17097	-1.1354	-1.8479	-1.6604	-1.475	-1.9208	-1.5646	-1.6021	-1.8521	-1.4521	-1.7417	-1.8333	-1.6437	-2.05	-1.6917	-1.5521	-1.8958	203.512	301.926	238.984	197.128	190.871	227.721	377.343	477.583	532.281	428.863	375.170	251.120	208.838	187.028	249.859	428.101	0.0010184	0.00063675	0.00022382	867.66	2.6469e-06	8.7278e-06	1321.3	274.5	5.4558e-06	2.3235e-06	514.15	185.54	77.361	34.633	6.8263e-06	101.51	0.00030389	0.00028047	6.9898e-05	781.83	2.9777e-06	2.991e-06	1197.7	248.92	3.0378e-06	2.9679e-06	459.64	167.02	71.16	31.512	2.7866e-06	91.098	183.951	269.421	247.774	188.893	311.980	323.702	188.458	192.888	252.912	496.912	192.984	197.408	197.493	203.280	265.707	202.898	-8191	255	
2332.537	1	1	0	0	0.23467	0.17042	0.090275	0.22694	0.12693	0.21397	0.44343	0.13596	0.24267	0.14764	0.3079	0.079091	0.14524	0.17048	0.13774	0.33447	-1.1229	-1.5792	-1.575	-1.6521	-1.7542	-1.7146	-1.7375	-2.1021	-1.5896	-1.8583	-1.825	-1.5021	-1.7437	-1.8	-1.5479	-2.0708	290.282	212.638	231.788	430.255	370.088	467.363	459.038	184.622	258.977	232.677	469.596	491.984	473.613	405.216	403.451	458.797	0.00094085	0.00050492	0.00031659	860.74	5.5996e-06	5.0912e-07	1327.5	276.34	3.2828e-06	5.4948e-06	515.15	186.68	77.944	34.852	5.1188e-06	101.35	0.00032273	0.00026597	6.6713e-05	783.22	3.1102e-06	2.9137e-06	1202.5	250.51	3.1557e-06	2.8893e-06	462.35	168.38	71.517	31.698	2.6554e-06	91.296	185.825	292.832	266.467	188.575	313.646	517.921	188.609	192.779	308.144	291.664	192.902	197.328	197.302	203.483	295.808	202.693	-8191	255	
2332.657	1	1	0	0	0.15559	0.10059	0.14071	0.26731	0.25437	0.16934	0.24456	0.12113	0.11899	0.19759	0.23153	0.1676	0.17408	0.25501	0.22074	0.22615	-1.2146	-1.7854	-1.8042	-1.6187	-1.8729	-1.5896	-1.4917	-1.8021	-1.4062	-1.6	-1.9292	-1.5646	-1.7583	-1.8396	-1.4062	-1.7708	231.480	493.887	356.767	514.172	249.674	331.043	422.680	475.443	214.456	502.934	435.192	202.238	288.089	491.573	387.545	181.305	0.00093257	0.00056274	0.00031076	871.02	1.6526e-06	5.4155e-06	1325.9	276.5	8.3727e-06	5.5588e-06	512	185.81	77.639	34.619	8.1611e-06	101.01	0.00032208	0.00025894	6.7453e-05	786.54	3.1849e-06	2.797e-06	1198.2	250.56	3.1119e-06	2.8446e-06	460.28	167.61	71.149	31.46	2.6567e-06	90.695	180.275	249.944	269.803	188.539	380.005	258.665	188.902	193.198	263.735	323.878	193.019	197.567	197.640	203.664	254.976	202.682	-8191	255	
2332.752	1	1	0	0	0.11369	0.23481	0.25492	0.19772	0.16072	0.07471	0.32633	0.12916	0.072894	0.092409	0.14713	0.21273	0.14361	0.11934	0.27235	0.20483	-1.2417	-1.6042	-1.7167	-1.7167	-1.5479	-1.8708	-1.6167	-1.9292	-1.7896	-1.7458	-2.1542	-1.725	-1.7333	-2.0375	-1.4354	-2.1188	315.120	237.802	403.597	501.267	355.929	480.386	443.239	182.118	440.259	413.179	465.234	184.380	533.887	457.920	342.548	412.349	0.0010435	0.00025231	0.00019236	868.14	3.5331e-06	3.5287e-06	1319.5	275.72	4.8286e-06	2.1783e-06	510.82	185.66	77.944	34.279	6.9318e-06	100.73	0.00031679	0.00025753	6.5777e-05	786.18	3.0271e-06	2.7747e-06	1194.7	250.48	2.9983e-06	2.7635e-06	458.4	167.2	71.15	31.186	2.8027e-06	90.391	186.373	231.603	268.645	188.599	386.235	267.968	188.537	192.975	281.815	263.317	193.151	197.193	197.410	203.297	286.466	202.690	-8191	255	
2332.848	1	1	0	0	0.16274	0.21373	0.23639	0.10409	0.31839	0.073601	0.1455	0.13621	0.21687	0.093438	0.063725	0.18848	0.14232	0.073642	0.13965	0.19257	-1.2625	-1.4854	-1.8021	-1.7021	-1.8833	-1.8958	-1.7	-1.9896	-1.8083	-1.5604	-2.0854	-1.8583	-1.65	-2.0917	-1.5229	-1.925	219.925	444.880	253.162	452.696	532.641	254.667	426.645	437.721	368.880	448.895	494.236	509.393	274.842	358.243	477.941	517.375	0.00093605	0.00072481	0.00019698	868.98	5.716e-06	5.8773e-06	1325	275.9	6.1681e-06	6.8378e-06	512.96	186.06	77.597	34.431	5.3747e-06	100.44	0.00029563	0.00025064	7.0518e-05	786.57	2.9058e-06	2.6665e-06	1200.1	250.52	2.9031e-06	2.6578e-06	459.97	167.58	71.049	31.361	3.0298e-06	90.423	181.815	299.868	319.685	188.467	316.343	279.420	188.817	192.798	305.106	282.789	192.797	197.165	197.368	203.535	311.604	202.620	-8191	255	
2332.921	1	1	0	0	0.14384	0.051293	0.16008	0.057187	0.039158	0.19431	0.19193	0.15603	0.18751	0.23164	0.29848	0.30421	0.089303	0.15061	0.23194	0.26006	-1.3375	-1.6	-1.65	-1.8083	-1.4708	-1.9937	-1.5854	-1.9375	-1.6292	-1.3854	-1.8542	-1.7333	-1.7	-2.0687	-1.7625	-2.2562	502.473	348.454	362.930	508.470	458.558	511.665	239.975	475.005	334.736	349.837	531.297	501.915	432.395	425.168	353.386	429.584	0.0010333	0.00057945	0.00028405	864.25	5.213e-06	5.7012e-06	1321.4	275.86	3.2784e-06	7.7146e-06	512.84	185.92	77.758	34.669	6.5229e-06	101.64	0.00029097	0.00024322	7.7092e-05	786.33	2.9509e-06	2.6817e-06	1199	250.64	2.8475e-06	2.7056e-06	460.71	167.87	71.197	31.571	3.2414e-06	91.175	183.349	268.046	243.145	188.141	319.797	283.361	188.653	192.873	327.617	321.751	193.291	197.251	197.080	203.615	319.306	202.496	-8191	255	
2333.040	1	1	0	0	0.11156	0.034021	0.39469	0.012355	0.13433	0.18385	0.16757	0.31154	0.13262	0.0096062	0.097609	0.025528	0.37027	0.20419	0.0048713	0.12933	-1.4438	-1.4688	-1.7917	-1.725	-1.5125	-2.0146	-1.8312	-1.9167	-1.7917	-1.35	-1.9479	-1.8813	-1.5375	-1.95	-1.5354	-1.7854	495.952	190.288	327.211	305.234	305.870	460.672	482.381	468.232	347.503	255.904	414.487	367.439	463.609	472.274	197.188	463.146	0.0010397	0.00034817	0.00015509	863.53	3.9677e-06	8.0161e-06	1331.1	277.18	5.838e-06	7.0994e-06	512.67	184.58	77.33	34.365	5.4015e-06	99.737	0.00028543	0.00025422	8.1274e-05	784.95	2.7736e-06	2.7567e-06	1202.5	250.53	2.751e-06	2.8166e-06	460.34	166.35	70.647	31.195	3.1943e-06	89.515	190.665	256.092	301.352	188.374	336.539	263.691	188.573	192.856	280.878	281.198	192.508	197.002	196.928	203.039	301.926	202.872	-8191	255	
2333.136	1	1	0	0	0.043806	0.27252	0.36914	0.18745	0.12862	0.21875	0.15344	0.14155	0.042776	0.047404	0.253	0.038595	0.015347	0.16162	0.26133	0.21241	-1.3563	-1.3375	-1.6771	-1.9083	-1.725	-2.0375	-1.7604	-1.7292	-1.8458	-1.6979	-2.0271	-2.0229	-1.4042	-1.9188	-1.7062	-1.7729	306.749	341.338	410.881	188.009	356.478	495.407	492.096	323.959	438.252	219.068	531.159	370.761	372.138	505.309	200.005	429.896	0.0010191	0.00043421	0.00046919	865.97	3.9726e-06	7.404e-06	1312.9	272.79	2.8499e-06	3.8119e-06	506.47	182.52	77.103	33.945	8.9886e-06	99.162	0.00027964	0.00027261	8.2409e-05	784.03	2.6786e-06	3.0099e-06	1194.8	248.76	2.6221e-06	3.01e-06	456.78	164.75	70.163	30.986	3.1361e-06	88.927	188.146	273.077	284.770	188.227	285.487	253.767	188.892	192.980	343.580	287.341	192.905	197.173	197.402	203.319	301.338	202.894	-8191	255	
2333.232	1	1	0	0	0.29576	0.28646	0.13979	0.18465	0.11376	0.020644	0.16129	0.16232	0.14372	0.1564	0.24084	0.13096	0.17643	0.095831	0.1045	0.14097	-1.3104	-1.6125	-1.7062	-1.8687	-1.575	-1.8729	-1.7979	-1.6083	-1.9479	-1.7188	-1.9417	-1.8292	-1.4792	-2.0146	-1.8792	-1.5833	183.926	359.351	349.502	478.809	242.431	206.275	488.443	186.716	518.022	446.092	529.604	478.678	238.475	522.651	432.616	488.289	0.0010337	0.00043522	0.00025844	871.56	5.6555e-06	3.0263e-06	1326.2	275.07	3.8439e-06	7.0556e-06	510.57	183.03	77.191	34.003	8.4869e-06	99.405	0.0002755	0.00028672	7.844e-05	785.12	2.7156e-06	3.1567e-06	1200.6	249.88	2.7458e-06	3.1996e-06	458.38	165.52	70.638	31.16	2.9923e-06	89.264	186.170	243.693	274.164	188.403	259.463	357.387	189.046	192.959	280.174	289.209	193.247	197.214	197.137	203.448	264.186	202.585	-8191	255	
2333.328	1	1	0	0	0.11205	0.24615	0.10515	0.060349	0.19765	0.38342	0.17616	0.29668	0.044355	0.18561	0.21336	0.27723	0.37916	0.065145	0.056533	0.20625	-1.3312	-1.4688	-1.5125	-2.0771	-1.6	-1.9146	-1.8208	-1.5875	-2.0792	-1.8271	-1.6896	-1.8958	-1.4833	-1.9021	-1.9896	-1.5896	180.894	194.653	209.151	492.806	451.065	524.300	179.866	475.829	494.585	439.207	413.871	207.239	474.718	452.412	495.181	433.138	0.0010544	0.00025564	0.00025932	869.97	2.0088e-06	8.4322e-06	1326.2	276.89	2.9949e-06	6.7096e-06	513.72	186.04	77.778	34.536	8.0537e-06	101.45	0.00028557	0.00029815	7.4757e-05	787.67	2.89e-06	3.2032e-06	1200.2	250.48	2.9089e-06	3.2436e-06	460.46	166.65	71.225	31.494	2.985e-06	90.535	186.067	361.918	270.333	188.386	245.645	322.159	188.711	192.930	278.370	289.305	193.231	197.187	196.839	203.632	297.414	202.643	-8191	255	
2333.449	1	1	0	0	0.12101	0.4598	0.1096	0.25987	0.15185	0.14118	0.17941	0.18733	0.14915	0.22201	0.26183	0.076125	0.050276	0.20759	0.075038	0.1681	-1.3854	-1.4583	-1.5875	-2.1229	-1.3958	-1.6437	-1.8958	-1.6167	-1.8687	-1.4521	-1.5167	-1.9833	-1.5562	-1.5417	-1.6333	-1.65	466.454	181.008	315.151	473.473	285.063	190.912	500.697	486.865	472.755	520.127	379.267	293.047	420.118	212.472	206.902	449.770	0.00093788	0.00042528	7.9244e-05	865.62	4.2605e-06	8.4804e-06	1333	276.64	5.3768e-06	1.5993e-06	514.52	183.83	78.23	34.28	6.8904e-06	99.504	0.00031079	0.00029521	7.4059e-05	787.06	3.0541e-06	3.1638e-06	1205.1	251.05	3.0915e-06	3.1159e-06	460.55	166.02	71.12	31.33	2.8408e-06	89.752	190.053	258.729	312.985	188.500	285.267	303.619	188.562	193.138	308.046	297.873	192.884	197.126	196.854	203.624	293.879	202.702	-8191	255	
2333.521	1	1	0	0	0.072662	0.053377	0.28494	0.32552	0.1448	0.19507	0.30282	0.14469	0.32165	0.07459	0.15563	0.26339	0.058444	0.22074	0.078921	0.2976	-1.4562	-1.4521	-1.3729	-1.9104	-1.5292	-1.6521	-1.8604	-1.5646	-1.925	-1.825	-1.4792	-1.7958	-1.5688	-1.8708	-1.7563	-1.6896	281.356	211.683	256.913	430.508	269.626	489.990	196.180	434.443	534.513	209.876	451.756	423.296	438.184	189.109	494.462	487.440	0.00087722	0.00038333	4.7777e-05	864.13	6.078e-06	4.3658e-06	1322.7	276.49	5.7519e-06	5.3873e-06	510	183.24	76.929	34.079	7.3276e-06	98.938	0.00032399	0.00028115	7.0982e-05	785.31	3.2193e-06	3.0322e-06	1199	250.06	3.1907e-06	2.9576e-06	457.1	165.01	70.974	31.066	2.7193e-06	89.007	188.030	264.103	253.264	188.451	303.588	349.123	188.735	193.162	296.330	314.135	193.013	197.251	197.035	203.322	289.604	202.971	-8191	255	
2333.617	1	1	0	0	0.21138	0.19247	0.17044	0.03381	0.23847	0.11003	0.12298	0.37635	0.44516	0.072893	0.12009	0.085591	0.19618	0.093387	0.069354	0.34107	-1.4292	-1.6375	-1.3854	-2.0458	-1.5521	-1.6958	-2.0312	-1.5042	-1.6896	-1.7375	-1.7708	-2.0312	-1.7062	-1.45	-1.9312	-1.6562	265.144	441.056	530.801	420.433	187.601	314.778	183.274	475.796	333.906	404.982	513.513	349.976	371.020	256.728	412.384	522.542	0.00090345	0.00042744	0.00027326	865.82	3.3945e-06	8.8957e-06	1322.8	275.52	4.924e-06	5.4632e-06	510.23	183.25	77.592	34.282	7.7095e-06	98.968	0.000322	0.0002637	6.8711e-05	785.67	3.1759e-06	2.8784e-06	1195.3	250.48	3.2005e-06	2.8507e-06	458.13	165.75	71.098	31.225	2.6715e-06	89.552	185.619	322.901	281.630	188.458	290.545	291.111	188.650	192.808	247.898	319.922	193.177	196.999	197.373	203.506	293.498	202.640	-8191	255	
2333.738	1	1	0	0	0.34361	0.034699	0.24391	0.32111	0.11366	0.04774	0.14977	0.29709	0.22648	0.13678	0.15999	0.10967	0.099683	0.2682	0.19512	0.30095	-1.2396	-1.6625	-1.3917	-2.1167	-1.6771	-1.4375	-2.0417	-1.6333	-1.7979	-1.9854	-1.5646	-2.0333	-1.5958	-1.5208	-1.7771	-1.7188	269.773	267.727	280.437	218.858	502.705	455.219	461.290	517.285	316.121	311.888	475.777	406.567	229.269	237.671	534.403	458.435	0.0009365	0.00026593	0.0001757	862.28	3.6191e-07	4.7709e-06	1319.2	276.2	3.6472e-06	4.1497e-06	510.81	183.6	77.556	34.267	8.3686e-06	100.68	0.00031527	0.00025829	6.7837e-05	785.39	3.0387e-06	2.8378e-06	1194.7	250.53	3.0858e-06	2.7908e-06	458.52	166.43	71.078	31.231	2.8145e-06	90.115	187.533	276.207	272.963	188.620	200.034	290.499	188.777	192.797	326.787	358.182	193.097	197.289	197.368	203.513	290.626	202.637	-8191	255	
2333.832	1	1	0	0	0.13757	0.10793	0.1646	0.13736	0.14892	0.14901	0.059302	0.33326	0.17991	0.24576	0.3039	0.071812	0.17227	0.21567	0.16506	0.10804	-1.2771	-1.6938	-1.3042	-2.0125	-1.7667	-1.4854	-1.7229	-1.5396	-1.8	-1.8542	-1.5562	-1.9479	-1.7958	-1.3708	-1.8563	-1.6958	245.768	437.482	405.377	375.927	411.992	230.209	489.108	455.876	456.489	340.898	185.350	318.299	191.766	396.012	376.085	503.542	0.00099498	0.00060389	7.1531e-05	867.93	5.7549e-06	2.5734e-06	1326.7	274.83	3.7754e-06	4.6879e-06	510.34	183.35	77.401	33.882	5.1584e-06	98.495	0.00031125	0.00025174	7.2708e-05	788.75	2.9683e-06	2.7732e-06	1199.6	250.73	2.9305e-06	2.6516e-06	458.44	165.64	70.657	30.83	2.9844e-06	88.908	186.631	288.133	213.557	188.687	331.835	186.672	188.676	192.926	320.485	300.332	192.797	197.403	197.318	203.450	293.616	202.681	-8191	255	
2333.928	1	1	0	0	0.31998	0.16542	0.1504	0.13046	0.31253	0.26505	0.38596	0.17707	0.1545	0.078733	0.093439	0.41579	0.1049	0.29742	0.25418	0.1998	-1.2313	-2.0167	-1.2646	-1.8417	-1.5396	-1.5271	-2.0125	-1.6271	-1.5583	-1.9229	-1.7542	-1.9979	-1.9	-1.3833	-1.6938	-1.7375	283.662	320.362	475.492	479.201	515.823	279.443	441.388	186.228	322.534	333.215	524.939	494.484	394.427	202.099	478.185	490.394	0.00093705	0.0006452	0.00019156	870.09	1.3258e-06	6.5442e-06	1312.1	274.91	8.2337e-06	6.0961e-06	506.09	181.16	76.857	33.602	7.4612e-06	97.321	0.00029864	0.00024042	7.641e-05	788.42	2.8802e-06	2.6483e-06	1195.3	250.13	2.8923e-06	2.5895e-06	456.33	163.96	70.121	30.611	3.142e-06	87.986	187.744	270.147	348.004	188.594	220.493	355.455	188.963	192.947	363.983	239.475	192.806	196.904	197.220	203.575	278.816	202.961	-8191	255	
2334.049	1	1	0	0	0.19898	0.018081	0.31035	0.10952	0.10892	0.50489	0.11828	0.15002	0.17382	0.23418	0.20948	0.33012	0.17052	0.10923	0.045865	0.3138	-1.1229	-2.0479	-1.3271	-1.5438	-1.7792	-1.4917	-2.2021	-1.8333	-1.3188	-1.7542	-1.85	-1.9417	-1.9771	-1.6229	-1.7	-1.8813	335.739	302.897	433.058	403.556	240.359	375.696	407.309	474.863	460.382	419.493	493.771	417.519	350.964	482.124	316.218	525.365	0.0010542	0.00041895	2.0189e-05	867.63	6.2662e-06	6.6585e-06	1323.7	275.75	7.091e-06	7.613e-06	508.13	182.82	77.471	34.07	6.3245e-06	98.553	0.00029159	0.00024391	8.0715e-05	786.96	2.7241e-06	2.7206e-06	1197.6	250.47	2.8079e-06	2.7758e-06	456.4	164.97	70.682	31.028	3.2463e-06	88.791	184.953	267.441	511.950	188.517	323.648	302.961	188.742	192.931	314.220	301.869	192.771	197.212	197.182	203.407	294.053	202.775	-8191	255	
2334.145	1	1	0	0	0.18536	0.052675	0.31974	0.12067	0.23858	0.11441	0.23139	0.20108	0.20961	0.19318	0.16221	0.44708	0.12263	0.12731	0.23489	0.1739	-1.0104	-1.9625	-1.5875	-1.5854	-1.8188	-1.5708	-2.2167	-1.8083	-1.4937	-1.9875	-1.6688	-1.6042	-2.1479	-1.6562	-1.7625	-2.0583	534.254	217.871	528.954	476.967	436.856	336.732	424.171	511.609	389.073	283.848	468.822	463.277	239.609	409.409	257.485	449.758	0.00084062	0.00041838	0.00029058	866.13	3.8111e-06	7.156e-06	1323	278.21	2.736e-06	6.359e-06	508.86	183.74	77.694	34.728	4.2294e-06	99.7	0.00028193	0.00026116	8.2329e-05	787.59	2.6605e-06	2.9885e-06	1200.6	251.04	2.727e-06	3.0366e-06	458.42	165.81	70.67	31.414	3.206e-06	89.737	186.182	233.044	272.531	188.556	303.434	295.176	188.570	193.030	321.158	261.725	193.094	197.573	197.319	204.115	338.905	202.828	-8191	255	
2334.217	1	1	0	0	0.1024	0.16038	0.19382	0.32082	0.18488	0.18007	0.30124	0.24621	0.026299	0.14208	0.12286	0.14146	0.18251	0.082378	0.28687	0.15768	-1.0792	-1.7958	-1.4958	-1.525	-1.7354	-1.75	-2.0271	-1.9562	-1.4417	-1.8729	-1.7479	-1.7396	-2.1854	-1.7271	-1.6333	-1.8917	340.262	244.591	473.827	480.822	219.216	255.945	520.997	464.727	467.925	405.687	178.682	198.632	486.260	428.000	413.499	381.450	0.0009273	0.00059789	0.00019899	865.36	4.0931e-06	3.2886e-06	1323.4	276.16	4.2225e-06	8.3297e-06	514.36	183.96	77.55	34.405	1.041e-05	99.795	0.00028068	0.00028556	8.1246e-05	785.94	2.6792e-06	3.1599e-06	1202.3	250.83	2.7463e-06	3.2056e-06	462.1	166.38	70.949	31.37	3.0107e-06	89.346	184.447	274.215	239.947	188.219	301.135	284.471	188.869	192.797	306.496	265.484	192.853	197.216	197.469	203.860	310.840	202.491	-8191	255	
2334.337	1	1	0	0	0.044036	0.29464	0.16115	0.065772	0.051376	0.30975	0.26317	0.20039	0.30452	0.033736	0.19767	0.23723	0.39622	0.25391	0.056041	0.07925	-0.99792	-1.8417	-1.8979	-1.7292	-1.8146	-1.5292	-1.9833	-2.0875	-1.5458	-1.6604	-1.8854	-1.75	-1.7396	-1.5396	-1.3521	-2.0083	429.367	209.711	327.948	529.857	533.060	180.035	499.829	529.591	234.391	214.620	389.443	497.234	180.564	453.234	396.683	212.014	0.0010214	0.00054874	0.00024189	867.75	4.281e-06	1.1097e-05	1317.8	275.79	1.3815e-06	8.1656e-06	508.62	183.76	78.181	34.321	4.8421e-06	99.217	0.0002847	0.00029249	7.4347e-05	788.22	2.7975e-06	3.1767e-06	1196.6	249.95	2.823e-06	3.1675e-06	457.62	165.45	70.973	31.284	2.8467e-06	89.064	185.393	319.087	265.385	188.773	301.118	281.879	188.743	192.695	203.163	324.065	192.743	197.264	197.233	203.558	311.680	202.610	-8191	255	
2334.433	1	1	0	0	0.13894	0.15513	0.010413	0.23038	0.014521	0.14245	0.2358	0.28084	0.20757	0.053993	0.12534	0.3295	0.1003	0.26901	0.17763	0.17245	-1.175	-1.6208	-1.9312	-1.4875	-1.6562	-1.6208	-1.7229	-1.9146	-1.5125	-1.7521	-1.7625	-1.5583	-1.775	-1.7167	-1.5896	-2.1417	460.444	363.820	203.897	181.962	367.642	358.199	224.399	179.572	268.132	191.154	420.618	534.469	297.744	507.423	290.575	204.953	0.00098535	0.0006643	0.00022799	869.88	2.3455e-06	4.1895e-06	1323.1	277.39	6.1287e-06	5.6011e-06	509.53	183.65	77.424	34.403	5.6715e-06	99.85	0.00029802	0.00028428	7.1691e-05	784.72	2.9566e-06	3.073e-06	1196.4	250.54	3.0173e-06	3.032e-06	457.51	165.26	71.139	31.33	2.7815e-06	89.428	188.690	294.709	273.180	188.708	254.618	307.454	188.561	192.762	270.039	295.743	192.956	197.161	197.450	203.431	303.426	202.906	-8191	255	
2334.529	1	1	0	0	0.18055	0.036185	0.17058	0.16178	0.33857	0.056801	0.36941	0.19905	0.34275	0.17894	0.15762	0.19598	0.0085295	0.11167	0.047545	0.35767	-1.1875	-1.8729	-1.8458	-1.4292	-1.6771	-1.5542	-1.6437	-2.0417	-1.5958	-1.7021	-1.8021	-1.3667	-1.8229	-1.7458	-1.4042	-2.1354	263.452	324.480	190.831	482.786	197.556	307.871	453.047	463.273	404.395	414.730	458.042	374.480	283.705	450.355	218.381	408.166	0.00090978	0.00037772	0.00026124	867.75	7.4554e-06	4.9158e-06	1325.2	275.39	4.7315e-06	1.0998e-05	511.55	183.93	78.206	34.459	2.5644e-06	99.306	0.00031558	0.00027487	7.003e-05	785.56	3.1169e-06	2.9593e-06	1196.6	249.98	3.1857e-06	2.9271e-06	458.14	165.69	71.48	31.36	2.7605e-06	89.656	185.831	280.825	307.830	188.483	362.600	342.939	188.797	192.857	376.247	316.255	193.097	196.975	197.382	203.866	383.928	203.067	-8191	255	
2334.626	1	1	0	0	0.15572	0.1721	0.14877	0.34237	0.094537	0.13065	0.03379	0.14059	0.25463	0.098323	0.2669	0.31044	0.14931	0.27758	0.12212	0.3827	-1.4042	-1.5125	-1.6396	-1.3937	-1.7292	-1.7896	-1.6146	-1.9979	-1.5104	-1.6083	-2.0479	-1.7917	-1.8604	-1.7833	-1.3062	-2.2229	450.089	265.964	294.970	484.932	471.841	504.001	225.720	192.125	356.550	303.882	235.531	451.906	209.423	509.469	444.533	461.545	0.0010063	6.4714e-05	0.00021902	865.82	4.3424e-06	8.5077e-06	1325.1	276.91	7.2046e-06	7.0231e-06	512.24	184.79	78.267	34.302	1.0752e-06	99.787	0.0003276	0.00026124	6.6337e-05	786.35	3.1691e-06	2.8413e-06	1198.3	251.04	3.1139e-06	2.8714e-06	459.67	166.45	71.409	31.195	2.6323e-06	89.697	190.381	481.372	269.945	188.572	242.731	351.166	188.901	192.906	290.945	293.675	193.006	197.345	197.329	203.718	273.841	202.798	-8191	255	
2334.722	1	1	0	0	0.015428	0.01824	0.32046	0.26663	0.18291	0.28625	0.41631	0.37834	0.050337	0.18761	0.39126	0.050674	0.27247	0.3028	0.31247	0.10415	-1.3312	-1.6812	-2.0792	-1.5458	-1.8125	-1.6354	-1.5896	-2	-1.6646	-1.2208	-2.1042	-1.4937	-1.4979	-1.7479	-1.45	-1.8896	237.659	526.272	182.518	494.748	301.911	408.087	428.363	498.245	524.859	402.119	518.182	203.514	433.938	512.831	534.277	454.272	0.00091732	0.0009309	0.00031403	866.19	2.8306e-06	7.8705e-06	1322.8	276.46	4.6339e-06	7.8062e-06	506.76	182.74	77.024	33.817	4.9853e-06	98.325	0.00031208	0.00025448	6.5316e-05	786.93	3.0204e-06	2.726e-06	1195.8	250.69	2.9275e-06	2.7562e-06	455.31	165.27	70.875	30.806	2.6815e-06	88.473	181.151	260.512	286.991	188.437	294.317	302.734	188.720	192.585	295.194	334.417	192.805	197.196	197.392	203.770	257.451	202.746	-8191	255	
2334.816	1	1	0	0	0.27746	0.31407	0.19417	0.29217	0.23921	0.23082	0.0016871	0.15827	0.17628	0.065524	0.34648	0.34975	0.038656	0.30636	0.11486	0.052223	-1.4333	-1.5125	-2.025	-1.8271	-1.7563	-1.7979	-1.65	-1.9438	-1.8312	-1.4562	-2.0583	-1.6521	-1.5958	-2.0354	-1.5312	-1.85	292.657	287.426	311.151	500.896	414.772	320.803	180.000	422.368	345.507	319.489	248.898	176.526	489.633	514.070	484.648	421.866	0.00088627	0.00034613	0.0002025	869.42	3.5133e-06	6.2301e-06	1315.4	277.19	2.9135e-06	1.8388e-06	509.1	182.84	77.926	33.677	6.345e-06	98.101	0.00029626	0.00024238	6.7892e-05	788.51	2.9211e-06	2.6146e-06	1191.9	250.78	2.7863e-06	2.6793e-06	457.63	164.99	70.513	30.7	2.8623e-06	88.411	189.594	291.750	237.089	188.397	281.785	321.732	188.767	192.862	303.394	359.903	193.094	197.195	196.980	203.813	330.488	203.002	-8191	255	
2334.914	1	1	0	0	0.26756	0.19979	0.28239	0.17293	0.22059	0.11577	0.18457	0.1272	0.087309	0.19574	0.35811	0.10901	0.10708	0.22211	0.17758	0.30723	-1.325	-1.3979	-1.8	-1.4583	-1.6583	-1.9354	-1.575	-1.9333	-1.7833	-1.5021	-2.1729	-1.9542	-1.9021	-1.9937	-1.5917	-1.8146	383.206	328.604	200.270	227.034	304.417	464.737	459.315	300.431	313.718	270.608	481.776	216.937	212.616	464.805	372.797	416.080	0.00090135	0.00040253	0.00017266	867.24	6.2841e-06	4.6753e-06	1327.3	276.59	4.4166e-06	5.3682e-06	513.11	184.05	77.565	34.303	6.604e-06	99.315	0.00028957	0.00023945	7.348e-05	788.84	2.8187e-06	2.5538e-06	1198.8	251.62	2.7949e-06	2.5854e-06	460.05	165.74	70.785	31.025	3.0631e-06	89.434	186.906	323.398	199.130	188.655	329.184	243.124	188.612	193.320	325.648	238.329	193.128	197.429	197.665	203.790	212.788	202.964	-8191	255	
2335.010	1	1	0	0	0.075984	0.16598	0.20251	0.29819	0.22371	0.22443	0.42902	0.17674	0.2909	0.33469	0.19838	0.25731	0.1794	0.085579	0.20063	0.12769	-1.3958	-1.5083	-1.8542	-1.8687	-1.55	-1.9667	-1.6646	-1.6958	-1.9292	-1.4396	-2.35	-1.9458	-1.5646	-1.9958	-1.5708	-1.6979	376.501	191.104	335.970	477.941	462.073	225.513	521.914	176.560	323.156	363.723	177.699	206.745	403.545	241.367	181.897	197.838	0.00092276	0.00062437	0.00022295	869.73	1.3496e-06	2.8092e-06	1324.3	278.73	8.3771e-07	5.0153e-06	515.55	186.25	78.056	34.533	1.127e-05	100.73	0.00028647	0.00023999	7.8281e-05	789.04	2.7171e-06	2.6773e-06	1203.3	252.39	2.6728e-06	2.656e-06	463.69	167.52	71.008	31.417	3.1183e-06	90.314	190.066	200.151	239.547	188.700	282.986	383.210	188.548	193.208	226.068	264.255	193.464	197.141	197.442	203.776	303.762	202.753	-8191	255	
2335.129	1	1	0	0	0.13435	0.22098	0.2224	0.13062	0.15824	0.2882	0.34572	0.052173	0.15527	0.050119	0.13659	0.37924	0.28618	0.15258	0.20774	0.22817	-1.6458	-1.5625	-1.9292	-1.8833	-1.7208	-1.9292	-1.8479	-1.5271	-1.9729	-1.4333	-1.7417	-1.7021	-1.5771	-1.9396	-1.7687	-1.9688	487.057	437.611	489.651	481.694	340.376	432.577	434.320	202.869	505.535	496.405	212.563	533.452	380.250	199.599	377.648	404.411	0.0010026	0.00051693	0.00020609	872.45	2.0865e-06	1.0249e-06	1325.4	278.95	8.3163e-06	2.4808e-06	515.45	184.62	78.138	34.832	4.9413e-06	100.54	0.00026761	0.00024845	7.8012e-05	790.53	2.6055e-06	2.7824e-06	1204.7	252.04	2.5595e-06	2.7856e-06	462.34	166.71	71.279	31.616	3.0524e-06	89.939	187.345	238.916	321.265	188.414	356.634	294.066	188.761	192.624	309.238	341.191	192.866	197.283	197.605	203.584	255.560	202.820	-8191	255	
2335.225	1	1	0	0	0.031725	0.088188	0.075407	0.22408	0.20785	0.16533	0.12688	0.25994	0.11476	0.15813	0.27086	0.19238	0.12142	0.14021	0.067438	0.42975	-1.5312	-1.5604	-1.8875	-1.8937	-1.2646	-2.0375	-1.9042	-1.8312	-2.0646	-1.8937	-2.1292	-2.0583	-1.4604	-1.875	-1.5354	-1.6	465.769	425.593	381.087	512.972	338.013	328.786	490.432	474.641	193.974	289.089	505.682	512.921	479.075	304.731	470.155	500.175	0.0010257	0.0003021	0.00020425	869.56	2.4857e-06	7.6926e-06	1324.9	277.24	6.5858e-06	4.5248e-06	509.57	184.49	78.778	34.623	8.346e-06	99.925	0.0002678	0.00026952	7.6415e-05	786.51	2.5549e-06	2.9685e-06	1198.4	251.67	2.5728e-06	3.0664e-06	458.45	166.14	71.372	31.571	2.9441e-06	89.549	186.008	517.875	256.289	188.380	329.391	316.119	188.794	193.092	260.397	298.048	193.365	197.282	197.633	204.058	313.063	202.796	-8191	255	
2335.321	1	1	0	0	0.11338	0.22337	0.047765	0.1823	0.27969	0.16744	0.34741	0.21116	0.21883	0.10678	0.3179	0.1242	0.15721	0.2153	0.24929	0.19205	-1.4333	-1.7792	-1.7896	-2.0875	-1.3979	-1.8813	-1.7792	-1.6646	-1.9792	-1.7417	-1.8479	-2.025	-1.4021	-1.6958	-1.9062	-1.7437	373.697	277.079	176.175	518.353	224.435	428.012	465.276	457.684	258.837	262.687	465.173	179.032	191.881	318.123	430.058	497.042	0.0010656	0.00075953	0.00021605	869.2	1.9198e-06	4.223e-06	1322.6	276.68	6.4939e-06	1.2168e-06	512.83	184.17	78.16	34.531	3.6985e-06	100.73	0.0002758	0.00027881	7.3322e-05	785.92	2.6631e-06	3.1315e-06	1197.9	250.55	2.7193e-06	3.068e-06	460.99	165.86	71.447	31.691	2.8133e-06	89.99	185.503	234.428	295.103	188.584	363.569	344.595	188.560	193.139	303.166	225.938	192.961	197.110	196.912	203.381	292.147	202.815	-8191	255	
2335.418	1	1	0	0	0.13904	0.094425	0.40135	0.31411	0.070045	0.19782	0.21083	0.21772	0.16276	0.047145	0.15461	0.11483	0.19707	0.24398	0.1181	0.044221	-1.6	-1.6125	-1.7646	-1.8833	-1.4375	-1.6729	-1.6021	-1.6708	-1.6646	-1.6875	-1.6958	-2.1896	-1.8479	-1.9	-1.8312	-1.575	307.983	222.696	499.054	499.087	522.898	176.688	476.765	457.010	185.866	225.819	528.021	341.885	511.780	175.590	503.367	214.468	0.0011185	0.00057313	5.2552e-05	869.67	3.8234e-06	3.9869e-06	1326.6	278.12	7.4059e-06	1.7805e-06	513.69	185.72	78.419	34.694	1.9148e-06	100.1	0.00028983	0.00028097	7.2243e-05	788.24	2.9374e-06	3.0131e-06	1200.4	251.94	2.9527e-06	3.019e-06	461.4	167.08	71.746	31.612	2.7551e-06	89.961	178.998	277.291	281.684	188.478	303.164	340.487	188.595	192.926	297.393	320.114	192.907	197.350	197.253	203.897	378.254	202.674	-8191	255	
2335.514	1	1	0	0	0.12052	0.43221	0.4155	0.12751	0.31092	0.29994	0.20147	0.25774	0.14373	0.13642	0.21035	0.1016	0.22445	0.15701	0.069014	0.2476	-1.2917	-1.5167	-1.4375	-1.7458	-1.5875	-1.6958	-1.9646	-1.6542	-1.7375	-1.9208	-1.8125	-1.9854	-1.5771	-1.9354	-2.0708	-1.8	280.017	460.818	445.519	413.404	250.631	380.370	399.014	491.073	305.022	273.518	472.544	448.227	475.511	458.414	526.628	422.755	0.00095966	0.00023111	7.3935e-05	870.47	3.909e-06	6.6775e-06	1331.4	279.29	4.6509e-06	1.9078e-06	511.31	184.02	77.663	34.419	7.1423e-06	99.46	0.00030622	0.00027268	7.1266e-05	787.68	3.068e-06	2.9867e-06	1203.3	252.61	3.112e-06	2.904e-06	460.24	165.52	71.421	31.341	2.6631e-06	89.524	186.296	479.657	527.933	188.557	290.535	294.576	188.461	192.764	310.674	310.100	193.237	197.281	197.027	203.806	261.733	202.730	-8191	255	
2335.610	1	1	0	0	0.13433	0.1288	0.18717	0.17425	0.11965	0.32874	0.16564	0.22347	0.086624	0.21949	0.15658	0.29398	0.14286	0.11486	0.028934	0.35077	-1.4292	-1.825	-1.3458	-1.8458	-1.6625	-1.9125	-2.1021	-1.6437	-1.9062	-1.7208	-1.725	-2.0563	-1.7708	-1.6396	-1.7521	-1.7563	469.070	360.438	231.528	438.272	385.758	231.943	496.065	483.890	265.972	178.339	513.886	484.105	386.055	533.826	403.122	511.378	0.0010495	0.00030684	0.00017962	874.23	2.0947e-06	6.1714e-06	1319.3	277.07	5.9651e-06	8.2712e-06	511.99	183.44	78.727	34.371	6.1472e-06	99.426	0.00031988	0.00026319	6.8197e-05	789.44	3.0907e-06	2.8659e-06	1196.5	251.79	3.0744e-06	2.7794e-06	459.29	165.34	71.837	31.269	2.5806e-06	89.305	182.443	274.594	272.484	188.681	367.364	295.453	188.513	192.898	254.623	308.212	192.717	197.067	197.199	203.723	296.565	202.616	-8191	255	
2335.730	1	1	0	0	0.094825	0.26788	0.10099	0.46325	0.2051	0.10933	0.024481	0.21541	0.095201	0.11057	0.2362	0.25848	0.075366	0.10778	0.091869	0.40636	-1.5042	-1.7354	-1.6208	-1.9521	-1.8438	-1.5417	-2.0396	-1.6729	-1.7854	-1.9896	-1.7062	-2.2812	-1.8396	-1.7104	-1.9542	-1.8	470.410	511.632	467.050	464.709	476.560	462.789	492.133	220.210	175.296	472.642	524.391	259.246	438.227	344.702	271.260	483.417	0.00093263	0.0006609	0.00021218	873.12	8.5591e-06	6.6602e-06	1337.2	278.63	5.0083e-06	3.0021e-06	513.94	184.85	78.728	34.64	8.1064e-06	99.97	0.00031588	0.00025115	6.6104e-05	792.31	3.0861e-06	2.7897e-06	1204.9	253.29	3.0086e-06	2.7224e-06	460.39	166.72	71.927	31.521	2.6471e-06	90.219	188.082	283.039	258.952	188.581	350.872	337.374	188.502	193.222	346.507	337.011	192.956	196.920	197.242	203.501	292.024	202.754	-8191	255	
2335.827	1	1	0	0	0.066181	0.10752	0.028125	0.19476	0.14317	0.1116	0.25278	0.26621	0.10403	0.19481	0.10634	0.26126	0.2137	0.049384	0.22721	0.16803	-1.3167	-1.8479	-1.45	-1.8958	-1.6417	-1.3958	-1.8875	-1.4625	-1.7917	-1.8458	-1.6625	-1.8438	-1.7417	-1.3854	-1.9958	-1.7792	241.077	493.610	405.994	345.417	180.469	499.411	176.130	473.609	200.040	464.477	203.063	443.005	213.246	498.895	225.534	268.164	0.00093038	0.00016172	8.1972e-05	879.76	4.8956e-06	5.0545e-06	1331.9	278.91	4.3638e-06	6.8583e-06	515.66	185.96	78.848	34.892	2.8897e-06	100.46	0.00030189	0.00024632	6.6976e-05	796.26	2.9181e-06	2.7222e-06	1205.6	253.68	2.8854e-06	2.6171e-06	462.66	167.68	71.963	31.693	2.8413e-06	90.65	188.384	293.534	302.762	188.568	323.158	323.264	188.672	193.207	288.474	334.994	193.044	197.137	197.069	203.284	252.750	202.853	-8191	255	
2335.921	1	1	0	0	0.1972	0.27871	0.19932	0.20051	0.13153	0.2166	0.29849	0.20005	0.26847	0.18794	0.15224	0.27939	0.09444	0.23358	0.13622	0.17745	-1.1792	-2.0979	-1.5375	-2.0458	-2.0354	-1.5021	-2.0812	-1.675	-1.4937	-1.9604	-1.675	-1.8375	-1.9896	-1.6333	-2.025	-1.8937	396.886	276.915	520.627	497.098	195.679	267.558	402.656	218.447	229.089	382.220	466.431	491.445	243.341	404.810	333.373	462.856	0.0010109	0.00023969	0.00014583	871.85	5.4709e-06	9.3222e-06	1337	279.96	5.4632e-06	6.6463e-06	516.21	185.33	79.449	34.977	5.1566e-06	100.81	0.00029239	0.00023485	7.2634e-05	793.9	2.8001e-06	2.63e-06	1207.9	254.74	2.8416e-06	2.579e-06	464.54	168.03	72.099	31.677	2.9783e-06	90.324	187.815	422.411	277.875	188.491	280.077	313.870	188.799	192.956	292.475	391.430	193.247	197.423	197.122	203.787	323.115	202.626	-8191	255	
2336.017	1	1	0	0	0.229	0.10286	0.21271	0.087369	0.078975	0.16181	0.1661	0.12602	0.29378	0.31631	0.13903	0.19264	0.17291	0.10703	0.21886	0.23952	-1.2771	-1.7437	-1.5583	-1.9125	-1.7417	-1.3438	-1.8708	-1.6271	-1.5083	-1.8896	-1.7792	-1.8979	-2.0875	-1.6167	-1.9208	-1.8646	257.274	452.849	217.539	485.505	306.005	468.543	473.790	417.353	506.227	184.891	482.356	212.049	240.126	212.351	435.757	425.187	0.00093699	0.00061327	0.00020171	872.96	6.3766e-06	3.2953e-06	1330.4	280.11	5.2355e-06	2.01e-06	514.49	184.77	77.928	34.559	3.7484e-06	99.106	0.00028817	0.00023229	7.8875e-05	794.35	2.7822e-06	2.6503e-06	1205.3	254.07	2.8023e-06	2.6211e-06	461.93	166.31	71.497	31.428	3.238e-06	89.075	188.769	340.235	252.015	188.451	299.503	377.901	188.852	192.966	288.051	228.964	192.992	197.267	196.836	203.451	279.142	202.444	-8191	255	
2336.113	1	1	0	0	0.10806	0.13664	0.17697	0.16115	0.14435	0.14618	0.26736	0.18663	0.19404	0.1531	0.23098	0.24459	0.028457	0.19317	0.29478	0.23154	-1.2208	-1.7729	-1.5063	-1.5104	-1.8271	-1.425	-1.8813	-1.7625	-1.4312	-1.9167	-1.5625	-1.6208	-1.9625	-1.4021	-1.7042	-1.6958	460.209	401.836	398.559	209.745	409.393	354.581	404.391	213.396	453.458	416.240	524.722	466.471	333.486	220.145	216.801	270.973	0.0010538	0.0006981	9.2192e-05	871.86	4.4995e-06	4.6192e-06	1319.4	277	4.6719e-06	2.4404e-06	510.7	183.86	78.519	34.553	8.0129e-06	99.365	0.00028387	0.00025086	8.1334e-05	792.58	2.6204e-06	2.8086e-06	1205	252.41	2.7337e-06	2.8843e-06	460.87	165.99	71.384	31.395	3.1429e-06	89.118	185.233	246.163	226.509	188.681	308.774	269.501	188.673	193.154	309.450	295.877	193.005	197.665	197.428	203.461	301.324	202.715	-8191	255	
2336.209	1	1	0	0	0.064488	0.10998	0.15045	0.085879	0.20112	0.27845	0.11344	0.17261	0.20185	0.098123	0.20267	0.11286	0.071615	0.1762	0.11025	0.51618	-0.925	-1.8375	-1.7125	-1.6313	-1.9208	-1.8542	-2.2271	-1.9042	-1.6792	-2.1625	-1.8208	-1.7042	-1.8563	-1.4062	-1.8229	-1.975	256.677	484.574	261.282	181.029	379.997	458.905	491.945	436.896	339.460	318.614	175.319	180.955	199.044	187.003	195.598	492.265	0.00097499	0.00020219	0.00015062	874.1	4.6538e-06	2.1386e-06	1339.1	277.55	1.1167e-06	6.1765e-06	510.38	182.98	77.78	33.99	6.4052e-06	98.265	0.00027267	0.00027258	7.9812e-05	792.93	2.6117e-06	3.0561e-06	1207.9	251.96	2.6953e-06	3.0397e-06	460.6	165.3	70.629	30.959	3.009e-06	88.35	188.249	253.735	267.018	188.666	322.270	305.887	188.883	192.891	315.591	245.371	192.545	196.921	197.004	203.456	297.421	202.844	-8191	255	
2336.306	1	1	0	0	0.23908	0.072419	0.059559	0.20875	0.21571	0.2092	0.05924	0.1968	0.25792	0.14745	0.35785	0.12872	0.049584	0.16191	0.11478	0.58365	-1.0021	-1.9562	-1.8354	-1.7458	-2.0146	-1.5417	-1.8896	-2.0208	-1.4625	-1.8792	-1.8312	-1.4458	-1.8542	-1.6562	-1.7479	-1.9208	463.592	356.011	323.840	498.307	424.839	245.992	345.126	475.942	195.581	181.480	470.880	472.037	318.469	469.275	413.758	484.398	0.00089802	0.00046181	0.0001007	875.05	2.5206e-06	1.5996e-06	1333.1	280.7	5.0645e-06	9.8854e-06	513.9	184.16	77.713	34.043	6.8639e-06	98.397	0.00027531	0.00028399	7.6029e-05	792.03	2.6636e-06	3.1789e-06	1209	253.76	2.7318e-06	3.1137e-06	462.45	166.07	70.969	31.105	2.8362e-06	88.62	190.372	269.231	307.637	188.198	353.527	389.270	188.438	192.879	242.889	255.304	193.108	197.296	197.102	203.396	340.878	202.700	-8191	255	
2336.402	1	1	0	0	0.043754	0.10486	0.18075	0.26146	0.16838	0.28607	0.29931	0.081063	0.10652	0.11023	0.085893	0.2996	0.22057	0.17883	0.27323	0.2229	-0.94792	-1.6604	-1.725	-1.5667	-2.0896	-1.75	-1.7687	-1.95	-1.4958	-1.8813	-1.9	-1.5292	-1.6375	-1.6396	-1.4271	-2.3271	319.587	311.402	534.895	465.608	459.445	331.170	429.157	514.831	302.322	184.696	454.972	436.815	293.254	535.128	297.476	493.662	0.0010411	0.00060884	4.4462e-05	874.36	3.6802e-06	4.1757e-06	1335.2	280.81	7.3715e-06	7.4257e-06	515.29	184.85	79.06	34.231	6.9235e-06	98.471	0.00029228	0.00028412	7.1238e-05	792.23	2.7829e-06	3.0676e-06	1206.2	253.19	2.9404e-06	3.0694e-06	461.98	166.23	71.853	31.317	2.8194e-06	88.546	189.042	238.511	250.009	188.546	263.069	305.172	188.830	193.144	292.131	265.787	192.960	197.279	197.679	203.622	319.650	202.599	-8191	255	
2336.522	1	1	0	0	0.12159	0.10351	0.26368	0.30673	0.23163	0.25226	0.26159	0.32903	0.018103	0.14434	0.2086	0.23908	0.11618	0.17708	0.29822	0.24865	-1.0292	-1.7313	-1.8271	-1.6667	-1.8583	-1.8312	-1.8396	-2.1813	-1.5646	-1.7833	-1.7812	-1.4542	-2.0021	-1.6417	-1.3583	-2.1021	367.787	288.013	294.595	428.712	533.597	381.220	463.026	235.293	408.282	362.168	511.239	457.693	511.960	203.206	457.731	411.047	0.00094519	0.00035296	0.00012386	877.49	4.4333e-06	6.7825e-06	1336.6	279.26	7.1539e-06	6.7435e-06	515.59	184.8	78.541	34.506	5.1869e-06	99.886	0.00031276	0.00027654	6.9547e-05	792.85	2.9825e-06	3.0389e-06	1206.5	252.9	3.0708e-06	2.9487e-06	461.19	166.33	72.023	31.5	2.7279e-06	89.516	185.826	296.717	258.283	188.673	328.847	316.888	188.402	193.006	257.868	313.912	192.941	197.138	196.877	203.783	332.404	202.707	-8191	255	
2336.619	1	1	0	0	0.051111	0.14014	0.174	0.10732	0.029334	0.21446	0.30829	0.13524	0.12432	0.23691	0.5752	0.3354	0.24122	0.13754	0.065346	0.053418	-1.1187	-1.7625	-1.9104	-1.7313	-2.0208	-1.8604	-1.8625	-2.1896	-1.4688	-1.7396	-1.9729	-1.5438	-1.6938	-2.0896	-1.5708	-2.1708	252.933	394.578	291.338	457.172	290.147	437.645	444.492	474.144	428.690	320.183	501.893	485.720	504.443	233.730	467.835	250.242	0.0009419	0.0007256	2.9318e-05	878.67	1.763e-06	9.7896e-07	1330	280.39	9.3036e-06	2.7926e-06	512.14	185.35	79.344	35.104	3.8209e-06	99.958	0.00032325	0.00026664	6.8026e-05	794.42	3.1451e-06	2.8462e-06	1203.1	253.33	3.184e-06	2.8584e-06	461.06	167.22	72.413	31.701	2.6869e-06	90.124	183.239	277.425	255.952	188.625	235.951	388.679	188.798	192.855	296.054	376.642	193.151	197.094	197.030	203.399	381.210	202.552	-8191	255	
2336.690	1	1	0	0	0.32057	0.12144	0.1947	0.13894	0.30032	0.37464	0.18627	0.39598	0.05379	0.15292	0.073833	0.10624	0.26101	0.074101	0.22014	0.36639	-1.1333	-1.8521	-1.9312	-1.5208	-1.7833	-1.7875	-1.5479	-1.7667	-1.7167	-1.6854	-2.0521	-1.7875	-1.9979	-2.0104	-1.5771	-2.1583	327.933	513.126	248.331	221.109	473.111	326.902	454.196	422.236	396.429	285.704	477.984	431.686	507.125	401.768	237.660	450.824	0.00085403	0.00027244	8.0775e-05	877.78	5.9736e-06	1.5786e-06	1338.7	280.87	4.7487e-06	4.3322e-06	517.1	185.79	78.739	34.754	7.1946e-06	100.99	0.00031971	0.00026088	6.7476e-05	797.42	3.1867e-06	2.9012e-06	1207.3	255.2	3.0948e-06	2.8034e-06	463.99	168.14	72.499	31.708	2.7369e-06	90.682	188.319	311.080	272.110	188.928	359.610	274.773	188.723	192.938	267.566	285.301	192.995	197.106	197.487	203.374	321.674	202.887	-8191	255	
2336.811	1	1	0	0	0.13133	0.079913	0.31042	0.093604	0.12964	0.17663	0.14458	0.27578	0.058213	0.16611	0.28141	0.19849	0.19563	0.23066	0.14208	0.1357	-1.5063	-1.6354	-1.9833	-1.7812	-1.6958	-1.8667	-1.8937	-2.1979	-1.7979	-1.4646	-2.2417	-1.8146	-1.6958	-2.1458	-1.6021	-2.3333	403.676	358.395	414.272	418.611	330.163	241.853	384.471	477.280	494.039	323.413	486.495	176.984	525.169	520.136	349.745	523.910	0.00091848	0.00041952	0.0003818	881.6	3.2135e-06	1.2278e-06	1332.6	279.82	6.5561e-06	7.1904e-06	514.03	185.08	78.665	34.395	3.0351e-06	99.838	0.00030926	0.00025243	6.712e-05	799.07	2.9553e-06	2.7056e-06	1207	254.98	2.9785e-06	2.7154e-06	461.33	167.17	71.952	31.397	2.8291e-06	89.492	190.168	265.319	224.166	188.423	299.731	264.546	188.708	193.046	295.541	326.329	193.040	197.137	196.896	203.691	262.212	202.886	-8191	255	
2336.905	1	1	0	0	0.20246	0.11586	0.11887	0.15353	0.14574	0.097694	0.3513	0.19366	0.21515	0.19741	0.37731	0.18277	0.25907	0.31746	0.26629	0.099491	-1.3167	-1.6229	-1.9292	-1.7042	-1.5938	-1.8687	-1.6167	-1.975	-1.6833	-1.4	-2.0458	-1.7437	-1.6146	-1.7896	-1.4646	-1.9438	512.123	248.016	370.109	523.512	516.034	427.576	494.889	177.974	227.037	393.943	487.736	435.049	488.801	220.251	396.914	296.794	0.00088323	0.00081342	3.1722e-05	877.23	2.569e-06	3.352e-06	1335	280.28	6.0236e-06	4.8243e-06	510.25	184.47	78.215	34.274	9.4236e-07	98.973	0.00029395	0.00024788	7.2642e-05	797.57	2.9527e-06	2.6776e-06	1206.6	254.29	2.9007e-06	2.6381e-06	461.27	166.65	71.603	31.182	3.1041e-06	88.916	183.524	290.807	458.858	188.449	407.436	317.410	188.943	193.057	286.678	295.723	192.996	196.994	197.237	203.576	388.108	202.486	-8191	255	
2337.001	1	1	0	0	0.14079	0.26564	0.29757	0.19053	0.32861	0.12171	0.24556	0.085783	0.074493	0.31381	0.047445	0.23556	0.38318	0.18941	0.13376	0.18948	-1.5292	-1.5146	-1.9917	-1.7375	-1.7354	-2.0333	-1.7104	-2.0708	-1.8354	-1.7938	-2.0896	-2.1	-1.7958	-2.0375	-1.6146	-1.8354	487.643	231.675	460.214	497.064	327.591	531.739	474.208	181.313	458.010	198.357	450.240	249.311	431.459	471.067	371.298	466.358	0.00094377	0.00060595	0.00026261	878.07	4.9422e-06	8.446e-06	1334.1	280.26	6.9452e-06	5.4818e-06	516.27	185.25	78.647	34.096	4.3826e-06	99.641	0.00029041	0.00024853	7.8047e-05	797.15	2.8132e-06	2.6931e-06	1211.6	254.73	2.8561e-06	2.7139e-06	463.18	166.59	71.759	31.209	3.2152e-06	89.359	186.785	282.664	229.710	188.405	340.404	312.227	188.576	193.290	318.310	267.697	193.042	197.350	197.083	203.560	234.095	203.060	-8191	255	
2337.098	1	1	0	0	0.23454	0.37805	0.32514	0.23267	0.3026	0.22727	0.21659	0.075576	0.1498	0.077962	0.068455	0.18497	0.2127	0.11557	0.34823	0.13167	-1.3583	-1.275	-1.8667	-1.9104	-1.5104	-2.0792	-1.8	-1.8333	-1.6375	-1.5979	-2.0458	-1.8729	-1.6125	-2.1229	-1.8333	-1.7646	392.058	290.880	345.978	440.237	218.045	367.483	460.424	359.970	465.637	435.201	215.784	466.439	291.455	431.988	213.016	435.542	0.00097126	0.00026195	0.000164	876.04	5.6732e-06	5.8425e-06	1346.6	281.79	1.7497e-06	3.7072e-06	518.29	186.8	79.207	35.12	5.4592e-06	101.06	0.00028775	0.0002506	8.3269e-05	796.74	2.8317e-06	2.8225e-06	1217.2	255.67	2.7157e-06	2.8897e-06	467.41	168.38	72.391	31.964	3.2624e-06	90.849	183.872	243.202	216.331	188.592	328.054	347.464	188.850	193.056	253.088	218.701	193.102	197.493	197.318	203.670	313.676	202.791	-8191	255	
2337.218	1	1	0	0	0.3036	0.17446	0.17131	0.20817	0.29511	0.28489	0.17843	0.27672	0.21273	0.1609	0.071711	0.037279	0.17337	0.12205	0.10651	0.11474	-1.7313	-1.6292	-1.775	-1.8021	-1.525	-1.9729	-1.7792	-1.675	-1.9771	-1.5625	-1.8813	-1.8583	-1.55	-2.1458	-1.6979	-1.9542	175.561	251.034	261.723	512.548	510.904	520.485	470.947	450.611	295.990	239.075	415.283	228.629	231.532	198.308	251.398	424.639	0.00097232	0.00041814	8.001e-05	881.95	4.8421e-06	5.6073e-06	1345.1	282.75	4.8432e-06	6.9072e-06	516.11	186.46	79.38	35.091	1.1351e-05	100.77	0.00027686	0.00027504	8.0772e-05	798.91	2.7465e-06	3.0846e-06	1216.8	255.96	2.6755e-06	3.1276e-06	465.89	167.95	72.42	32.077	3.098e-06	90.608	184.982	262.732	384.343	188.335	291.408	286.368	188.927	193.078	244.779	243.373	192.883	197.281	197.051	203.882	286.955	202.824	-8191	255	
2337.314	1	1	0	0	0.048349	0.10823	0.15926	0.23305	0.16656	0.17495	0.12004	0.082868	0.20857	0.057358	0.11006	0.15025	0.11645	0.22501	0.045227	0.24195	-1.4438	-1.3354	-1.9042	-1.9729	-1.5562	-1.8521	-1.8771	-1.6625	-2.025	-1.6479	-1.9271	-2.0521	-1.6958	-1.9875	-1.7812	-1.8937	405.729	420.471	370.684	497.231	506.514	309.942	461.866	236.125	461.834	378.839	379.874	526.643	478.813	420.979	491.319	449.454	0.00099202	0.00060351	0.00031384	882.91	4.1609e-06	1.5311e-06	1332.7	281.37	9.0433e-06	7.3873e-06	514.2	185.93	79.275	35.146	8.9861e-06	99.93	0.00027904	0.00029202	7.8966e-05	798.43	2.7508e-06	3.1289e-06	1208.8	254.96	2.7732e-06	3.2092e-06	463.47	167.39	72.5	32.046	3.0172e-06	89.902	182.660	283.224	260.664	188.604	386.391	229.414	188.693	192.999	334.854	337.604	192.773	197.177	197.125	203.618	298.954	202.696	-8191	255	
2337.410	1	1	0	0	0.15222	0.20593	0.30372	0.070995	0.062835	0.12948	0.15027	0.27964	0.013911	0.15682	0.096981	0.065909	0.13712	0.11495	0.074327	0.50369	-1.2625	-1.7521	-1.8083	-1.9208	-1.2354	-1.7563	-2.0979	-1.5688	-2.0771	-1.7917	-1.8375	-2.2438	-1.5979	-1.8563	-1.8521	-1.4521	292.498	261.278	516.389	454.195	515.242	243.041	363.685	511.186	487.432	311.534	412.186	368.193	204.802	211.232	524.249	462.515	0.00099641	0.0004829	0.00038646	877.08	3.4877e-06	3.9926e-06	1326.7	280.42	5.1652e-06	6.9902e-06	516.45	184.97	78.92	34.992	4.4923e-06	100.99	0.00028849	0.00029496	7.4526e-05	794.61	2.9212e-06	3.1936e-06	1204.1	254.19	2.9617e-06	3.1899e-06	464.56	167.21	72.495	32.121	2.9001e-06	90.682	189.579	218.423	263.213	188.759	354.839	274.250	188.322	193.259	244.127	321.182	192.848	197.470	197.345	203.417	301.877	202.770	-8191	255	
2337.507	1	1	0	0	0.24654	0.11804	0.082285	0.13943	0.11953	0.11014	0.36898	0.57566	0.21547	0.12199	0.473	0.30607	0.074709	0.29431	0.078959	0.12944	-1.4813	-1.6229	-1.6146	-1.9125	-1.6375	-1.7437	-2.0333	-1.5083	-2.0104	-1.775	-1.5812	-1.8729	-1.5938	-1.7521	-1.9937	-1.7896	270.963	193.470	480.286	385.593	219.984	533.405	513.960	469.980	250.151	512.898	525.655	480.289	422.967	183.645	303.205	504.540	0.00096445	0.00046834	0.00032988	875.73	1.1708e-06	1.0228e-05	1338.1	281.09	5.1151e-06	5.759e-06	516.87	184.42	79.981	35.275	7.9105e-06	101.5	0.00031445	0.00028965	7.334e-05	793.67	3.1414e-06	3.0809e-06	1207.8	254.67	3.1958e-06	3.0511e-06	464.73	167.2	72.993	32.025	2.8097e-06	90.883	185.726	303.469	257.459	188.651	286.772	296.724	188.524	193.297	286.834	294.336	193.156	197.360	197.394	203.640	305.063	202.584	-8191	255	
2337.603	1	1	0	0	0.069399	0.30672	0.12307	0.27752	0.31389	0.13128	0.16528	0.14839	0.041902	0.020786	0.22346	0.25424	0.38526	0.15206	0.18462	0.29059	-1.4396	-1.8312	-1.5708	-2.0229	-1.8583	-1.9167	-2.0687	-1.6562	-1.9813	-1.7833	-1.4813	-1.8896	-1.6125	-1.5771	-1.8292	-1.4708	211.776	317.621	302.156	493.745	193.744	478.881	452.734	306.346	348.592	278.920	466.356	217.763	517.317	187.243	214.050	482.901	0.00093238	0.00046245	0.00012194	878.99	5.8743e-06	1.1875e-05	1338.1	281.82	5.8225e-06	5.9498e-06	519.06	187.73	79.95	34.879	3.2271e-06	100.37	0.00032594	0.00027119	7.1721e-05	796.48	3.2217e-06	3.024e-06	1210.4	255.39	3.2162e-06	2.9126e-06	465.49	168.11	72.723	31.697	2.6628e-06	89.834	186.634	278.019	327.537	188.459	295.790	292.936	188.748	192.877	293.982	317.719	192.869	197.427	197.602	203.445	305.499	202.953	-8191	255	
2337.699	1	1	0	0	0.213	0.040054	0.21117	0.1862	0.10403	0.21904	0.10199	0.29958	0.28153	0.22462	0.11767	0.12274	0.26897	0.15181	0.13962	0.16444	-1.3667	-1.525	-1.4708	-1.9062	-1.7167	-1.6854	-1.9813	-1.6042	-1.9104	-2.0958	-1.6729	-2.0792	-1.6896	-1.8208	-2.1875	-1.8417	317.493	264.210	293.477	509.223	412.866	515.223	277.972	178.917	384.222	485.140	373.466	248.509	316.735	204.695	200.791	494.085	0.00095908	0.00058335	0.00013799	880.89	6.3556e-06	1.076e-05	1329.9	280.05	9.169e-06	7.5492e-06	517.07	185.65	79.342	34.596	4.1794e-06	99.062	0.00032083	0.00026241	6.7692e-05	797.7	3.1402e-06	2.9122e-06	1205.9	254.59	3.1792e-06	2.8228e-06	463.37	167.55	72.453	31.511	2.6634e-06	89.299	183.154	258.334	260.344	188.517	303.439	330.788	188.498	192.895	319.682	314.088	193.026	197.113	197.318	203.724	239.008	202.822	-8191	255	
2337.818	1	1	0	0	0.13643	0.41124	0.17331	0.16878	0.34392	0.17149	0.068026	0.13894	0.22554	0.056187	0.17522	0.29118	0.16688	0.18591	0.15867	0.4668	-1.5521	-1.9375	-1.475	-1.9125	-1.6896	-1.6	-1.9104	-1.4167	-1.4625	-1.8375	-1.8792	-2.2042	-1.9354	-1.7417	-1.7375	-1.7229	490.601	417.205	418.925	176.793	300.459	224.126	195.244	428.197	386.053	313.058	469.787	223.642	376.012	257.327	305.117	451.630	0.0010795	0.00037049	0.00019767	881.13	4.1035e-06	7.571e-06	1331.3	280.06	5.6736e-06	6.9725e-06	520.04	185.05	79.168	34.754	9.6862e-06	100.17	0.00031071	0.00025407	6.8944e-05	798.35	2.9703e-06	2.7407e-06	1206.4	255.21	2.9867e-06	2.7023e-06	464.48	167.48	72.404	31.597	2.8436e-06	90.171	186.760	273.116	283.013	188.496	311.456	261.138	188.809	192.603	276.553	309.585	193.128	197.274	197.359	204.023	331.290	202.918	-8191	255	
2337.914	1	1	0	0	0.13294	0.19685	0.20982	0.2979	0.21046	0.23921	0.12786	0.18669	0.16746	0.12052	0.28956	0.2115	0.095009	0.22637	0.16158	0.1781	-1.0604	-1.8125	-1.6604	-1.8167	-1.7271	-1.6458	-2.0771	-1.6854	-1.5396	-1.9479	-1.5583	-2.2188	-2.0563	-1.5667	-1.975	-2.0208	197.786	468.041	421.893	492.883	314.237	279.660	376.597	397.159	296.395	457.557	464.863	525.981	406.661	500.372	339.182	408.250	0.00094884	0.00060525	7.411e-05	878.82	9.0208e-06	6.1007e-06	1336.8	282.55	4.5724e-06	1.9143e-06	520.08	186.82	79.679	34.972	8.0565e-06	101.54	0.00030143	0.00025026	7.2271e-05	798.71	2.9204e-06	2.6593e-06	1209.7	255.85	2.9449e-06	2.6083e-06	466.06	168.53	72.437	31.903	3.0494e-06	91.32	183.967	306.277	251.385	188.956	289.126	257.576	188.677	193.211	306.207	315.503	193.243	197.463	196.837	203.597	357.079	202.888	-8191	255	
2337.986	1	1	0	0	0.20519	0.39281	0.49465	0.25208	0.17201	0.11606	0.43849	0.26167	0.11847	0.1965	0.26964	0.22132	0.1029	0.40684	0.18992	0.18138	-1.2104	-1.8604	-1.3292	-1.6458	-1.9104	-1.4479	-2.0979	-1.9438	-1.5312	-2.0125	-1.8625	-1.9729	-1.9583	-1.5375	-2.0396	-1.7104	319.920	391.369	288.966	478.242	323.286	522.728	426.312	513.563	397.856	376.401	445.070	503.590	197.272	498.435	524.808	529.891	0.0010187	0.00054119	0.00010095	880.41	4.5778e-06	5.3852e-07	1344.7	282.85	2.6645e-06	6.7057e-06	522.55	187.56	79.53	35.063	9.1615e-06	102.02	0.00029814	0.00024637	7.9513e-05	801.23	2.7919e-06	2.7112e-06	1218.8	257.24	2.8581e-06	2.6561e-06	470.23	169.81	72.615	32.034	3.1888e-06	91.501	190.204	294.165	211.409	188.503	324.650	219.920	188.820	193.000	293.853	247.658	193.178	197.177	197.182	203.398	292.167	202.793	-8191	255	
2338.082	1	1	0	0	0.12143	0.1916	0.34724	0.0669	0.25463	0.077749	0.21863	0.19363	0.31914	0.335	0.32751	0.29804	0.13935	0.19028	0.104	0.33938	-1.1583	-1.8813	-1.65	-1.8667	-1.9208	-1.575	-2.0229	-1.8687	-1.65	-1.9542	-1.9271	-1.6604	-1.9354	-1.4083	-1.9854	-1.9083	307.862	398.635	378.629	532.049	189.658	455.307	445.372	502.440	249.750	448.189	516.038	189.638	383.027	446.555	514.883	390.423	0.00098576	0.00059544	0.00010167	880.43	4.422e-06	6.2412e-06	1341.8	283.32	1.2766e-06	5.4184e-06	519.86	187.27	79.901	35.293	1.083e-05	101.91	0.00028486	0.00024836	8.0183e-05	800.82	2.7057e-06	2.8484e-06	1217.1	257.16	2.7516e-06	2.788e-06	469.08	168.82	72.766	32.24	3.2105e-06	91.096	184.601	329.534	481.290	188.465	372.393	402.118	188.628	192.844	305.062	338.880	193.078	197.336	197.465	203.610	280.264	202.805	-8191	255	
2338.202	1	1	0	0	0.50067	0.21381	0.24105	0.1935	0.38954	0.1501	0.23203	0.24486	0.362	0.06968	0.27231	0.21992	0.089375	0.10294	0.13473	0.087869	-1.2667	-1.925	-1.6021	-1.8521	-2.0729	-1.5229	-2.0083	-1.925	-1.4875	-1.9667	-1.9792	-1.9667	-1.9688	-1.7812	-1.875	-2.0854	473.778	401.279	505.026	437.444	371.935	302.357	496.121	494.507	341.819	215.728	423.939	462.872	270.951	261.082	534.786	496.866	0.00097153	0.00086755	0.0001501	878.55	5.923e-06	5.7227e-06	1345.5	282.5	8.1738e-06	7.2985e-06	519.94	187.3	79.941	35.324	3.876e-06	101.78	0.00028005	0.00026369	8.114e-05	798.57	2.6295e-06	3.0264e-06	1214.6	256.25	2.6652e-06	2.9911e-06	466.9	168.38	72.847	32.171	3.1099e-06	91.322	184.752	250.130	227.645	188.626	303.681	312.822	188.849	192.939	294.949	304.880	193.068	197.391	196.808	203.598	276.022	202.831	-8191	255	
2338.299	1	1	0	0	0.13401	0.30476	0.31334	0.22018	0.27751	0.037024	0.21074	0.15439	0.25448	0.23676	0.27509	0.13554	0.35	0.34709	0.25924	0.35222	-0.88125	-1.6667	-1.5042	-1.45	-1.8667	-1.7292	-1.85	-2.0563	-1.5208	-1.7458	-1.6896	-1.6313	-1.9208	-1.6625	-1.8229	-1.9229	297.782	370.157	505.049	519.139	224.460	353.601	408.949	434.986	294.566	447.375	255.652	478.921	416.519	520.265	204.570	454.237	0.00089949	0.0010251	0.00010504	881.9	3.7638e-06	7.0004e-06	1335.8	283.79	6.2499e-06	5.1742e-06	521.56	187.78	79.888	35.585	8.6005e-06	101.57	0.00027732	0.00028278	7.8644e-05	798.2	2.6695e-06	3.198e-06	1211.2	256.83	2.7611e-06	3.135e-06	468.36	169.05	72.839	32.424	2.9246e-06	91.333	193.164	280.181	245.990	188.764	189.639	265.394	188.886	192.921	291.974	238.167	193.137	197.237	197.146	203.493	338.724	202.831	-8191	255	
2338.395	1	1	0	0	0.1056	0.065125	0.22402	0.17588	0.11977	0.18342	0.16604	0.096343	0.34767	0.1	0.12353	0.064297	0.32192	0.18526	0.19481	0.45772	-1.1896	-1.6562	-1.6479	-1.5646	-1.8208	-1.4688	-1.8875	-2.2292	-1.5542	-1.8188	-1.9813	-1.5292	-2.0292	-1.8333	-1.5396	-2.2958	246.437	177.252	315.684	512.766	441.323	206.604	380.184	293.207	476.610	215.587	451.196	190.475	466.546	247.788	397.110	500.378	0.00094744	0.0007767	0.00024714	880.95	3.0671e-06	6.5749e-06	1348.2	284.51	3.012e-06	7.9167e-06	523.62	187.97	80.631	35.608	2.4503e-06	102.54	0.00028807	0.00029018	7.3582e-05	799.21	2.8215e-06	3.1891e-06	1216.1	257	2.9369e-06	3.158e-06	469.42	169.62	73.501	32.665	2.9129e-06	92.059	190.314	290.835	258.921	188.490	288.024	293.314	188.499	193.297	344.351	316.647	192.725	197.380	197.406	203.382	364.439	202.770	-8191	255	
#DATA ENDS
