BOXY.EXE: ISS Imagent and Oximeter Data Acquisition Program Version 0.80
Ascii Record File

#ACQ INFORMATION
2  Detector Channels 
16  External MUX Channels 
1  Auxiliary Channels 
5000  Waveform (CCF) Frequency (Hz)
1  Waveforms Skipped 
30  Waveforms Averaged 
1  Cycles Averaged 
16  Acquisitions per Waveform 
10.0806  Updata Rate (Hz) 

#FILE INFORMATION
TRUE -- External MUX Channel results are PARSED.
FALSE -- AC DC and Phase are NOT grouped.
TRUE -- Companion Program Settings File CREATED.
FALSE -- AC data not excluded
FALSE -- DC data not excluded
FALSE -- Phase data not excluded
FALSE -- Auxillary Chn. data not excluded
Tab delimiters

#CALIBRATION STATE
TRUE -- Waveform Calibration Values APPLIED.


#AUX CALIBRATION VALUES
Val Type	aux-1	

Term	1.0000e+00	
Factor	0.0000e+00	


#WF CALIBRATION VALUES
A = Detector Channel
Val Type	A-AC1	A-AC2	A-AC3	A-AC4	A-AC5	A-AC6	A-AC7	A-AC8	A-AC9	A-AC10	A-AC11	A-AC12	A-AC13	A-AC14	A-AC15	A-AC16	A-DC1	A-DC2	A-DC3	A-DC4	A-DC5	A-DC6	A-DC7	A-DC8	A-DC9	A-DC10	A-DC11	A-DC12	A-DC13	A-DC14	A-DC15	A-DC16	A-Ph1	A-Ph2	A-Ph3	A-Ph4	A-Ph5	A-Ph6	A-Ph7	A-Ph8	A-Ph9	A-Ph10	A-Ph11	A-Ph12	A-Ph13	A-Ph14	A-Ph15	A-Ph16	

Term	0.00000e+00	0.00000e+00	0.00000e+00	0.00000e+00	0.00000e+00	0.00000e+00	0.00000e+00	0.00000e+00	0.00000e+00	0.00000e+00	0.00000e+00	0.00000e+00	0.00000e+00	0.00000e+00	0.00000e+00	0.00000e+00	0.00000e+00	0.00000e+00	0.00000e+00	0.00000e+00	0.00000e+00	0.00000e+00	0.00000e+00	0.00000e+00	0.00000e+00	0.00000e+00	0.00000e+00	0.00000e+00	0.00000e+00	0.00000e+00	0.00000e+00	0.00000e+00	0.00000e+00	0.00000e+00	0.00000e+00	0.00000e+00	0.00000e+00	0.00000e+00	0.00000e+00	0.00000e+00	0.00000e+00	0.00000e+00	0.00000e+00	0.00000e+00	0.00000e+00	0.00000e+00	0.00000e+00	0.00000e+00	
Factor	1.00000e+00	1.00000e+00	1.00000e+00	1.00000e+00	1.00000e+00	1.00000e+00	1.00000e+00	1.00000e+00	1.00000e+00	1.00000e+00	1.00000e+00	1.00000e+00	1.00000e+00	1.00000e+00	1.00000e+00	1.00000e+00	1.00000e+00	1.00000e+00	1.00000e+00	1.00000e+00	1.00000e+00	1.00000e+00	1.00000e+00	1.00000e+00	1.00000e+00	1.00000e+00	1.00000e+00	1.00000e+00	1.00000e+00	1.00000e+00	1.00000e+00	1.00000e+00	X	X	X	X	X	X	X	X	X	X	X	X	X	X	X	X	

B = Detector Channel
Val Type	B-AC1	B-AC2	B-AC3	B-AC4	B-AC5	B-AC6	B-AC7	B-AC8	B-AC9	B-AC10	B-AC11	B-AC12	B-AC13	B-AC14	B-AC15	B-AC16	B-DC1	B-DC2	B-DC3	B-DC4	B-DC5	B-DC6	B-DC7	B-DC8	B-DC9	B-DC10	B-DC11	B-DC12	B-DC13	B-DC14	B-DC15	B-DC16	B-Ph1	B-Ph2	B-Ph3	B-Ph4	B-Ph5	B-Ph6	B-Ph7	B-Ph8	B-Ph9	B-Ph10	B-Ph11	B-Ph12	B-Ph13	B-Ph14	B-Ph15	B-Ph16	

Term	0.00000e+00	0.00000e+00	0.00000e+00	0.00000e+00	0.00000e+00	0.00000e+00	0.00000e+00	0.00000e+00	0.00000e+00	0.00000e+00	0.00000e+00	0.00000e+00	0.00000e+00	0.00000e+00	0.00000e+00	0.00000e+00	0.00000e+00	0.00000e+00	0.00000e+00	0.00000e+00	0.00000e+00	0.00000e+00	0.00000e+00	0.00000e+00	0.00000e+00	0.00000e+00	0.00000e+00	0.00000e+00	0.00000e+00	0.00000e+00	0.00000e+00	0.00000e+00	-1.53398e+02	-1.29654e+02	-1.26074e+02	-1.83912e+02	-7.55620e+01	-6.87672e+01	-1.55668e+02	-1.62015e+02	-8.01815e+01	-7.08960e+01	-1.85569e+02	-1.70567e+02	-1.87259e+02	-1.76693e+02	-7.46193e+01	-1.49436e+02	
Factor	2.31531e-05	1.78356e-04	5.60774e-05	2.30928e-01	1.52510e-06	1.94289e-06	1.64567e-01	5.06850e-02	1.44833e-06	2.13848e-06	2.09326e-01	2.95219e-02	6.28061e-02	8.86269e-03	1.65171e-06	1.24599e-02	1.74899e-05	4.03054e-05	1.13277e-05	1.22350e-01	3.89920e-07	4.56949e-07	8.23138e-02	2.69963e-02	3.70752e-07	4.58795e-07	1.07547e-01	1.53148e-02	3.38387e-02	4.76071e-03	4.01584e-07	6.51452e-03	X	X	X	X	X	X	X	X	X	X	X	X	X	X	X	X	



#DISTANCE SETTINGS
A = Detector Channel
A-1	A-2	A-3	A-4	A-5	A-6	A-7	A-8	A-9	A-10	A-11	A-12	A-13	A-14	A-15	A-16	

2.5000e+00	3.0000e+00	2.5000e+00	3.0000e+00	2.0000e+00	3.0000e+00	1.5000e+00	3.0000e+00	3.0000e+00	3.0000e+00	3.0000e+00	3.0000e+00	3.0000e+00	3.0000e+00	1.5000e+00	3.0000e+00	

B = Detector Channel
B-1	B-2	B-3	B-4	B-5	B-6	B-7	B-8	B-9	B-10	B-11	B-12	B-13	B-14	B-15	B-16	

1.0000e+01	1.0000e+01	1.0000e+01	1.4400e+00	1.0000e+01	1.0000e+01	1.5100e+00	1.9400e+00	1.0000e+01	1.0000e+01	1.9900e+00	2.4900e+00	2.4100e+00	2.9000e+00	1.0000e+01	2.9800e+00	




#DATA BEGINS
time	group	step	mark	flag	A-AC1	A-AC2	A-AC3	A-AC4	A-AC5	A-AC6	A-AC7	A-AC8	A-AC9	A-AC10	A-AC11	A-AC12	A-AC13	A-AC14	A-AC15	A-AC16	A-DC1	A-DC2	A-DC3	A-DC4	A-DC5	A-DC6	A-DC7	A-DC8	A-DC9	A-DC10	A-DC11	A-DC12	A-DC13	A-DC14	A-DC15	A-DC16	A-Ph1	A-Ph2	A-Ph3	A-Ph4	A-Ph5	A-Ph6	A-Ph7	A-Ph8	A-Ph9	A-Ph10	A-Ph11	A-Ph12	A-Ph13	A-Ph14	A-Ph15	A-Ph16	B-AC1	B-AC2	B-AC3	B-AC4	B-AC5	B-AC6	B-AC7	B-AC8	B-AC9	B-AC10	B-AC11	B-AC12	B-AC13	B-AC14	B-AC15	B-AC16	B-DC1	B-DC2	B-DC3	B-DC4	B-DC5	B-DC6	B-DC7	B-DC8	B-DC9	B-DC10	B-DC11	B-DC12	B-DC13	B-DC14	B-DC15	B-DC16	B-Ph1	B-Ph2	B-Ph3	B-Ph4	B-Ph5	B-Ph6	B-Ph7	B-Ph8	B-Ph9	B-Ph10	B-Ph11	B-Ph12	B-Ph13	B-Ph14	B-Ph15	B-Ph16	aux-1	digaux	

33174.652	1	1	0	768	0.20153	0.14895	0.19668	0.18652	0.16443	0.11382	0.3324	0.29513	0.12362	0.11451	0.11523	0.15061	0.10305	0.22406	0.28136	0.13736	-1.3521	-1.8542	-2.2417	-1.8229	-1.9188	-1.9833	-1.85	-2.2229	-1.7146	-1.6917	-2.0458	-1.9458	-1.975	-2.1583	-1.6521	-2.0917	-48.728	91.788	-89.825	175.974	53.782	-75.779	193.233	236.560	-13.091	-7.493	155.491	-74.756	183.563	115.273	22.279	-82.945	0.00030523	0.00064272	0.00019134	1469.7	4.1411e-06	7.1638e-06	1454.6	382.38	4.8688e-06	4.6756e-06	438.62	145.5	125.32	43.596	3.3281e-06	53.574	0.00066753	0.00093139	0.00026866	1492	1.0111e-05	1.0376e-05	1480.6	390.11	1.0097e-05	1.0552e-05	450.08	149.72	130.24	44.828	1.0634e-05	55.201	175.955	-36.649	-25.731	-103.478	-7.460	41.848	-103.993	-99.196	-18.492	28.849	-99.615	-95.357	-95.382	-90.192	6.423	-90.886	-8191	255	
33174.750	1	1	0	0	0.27104	0.29566	0.22109	0.060367	0.094552	0.22097	0.13143	0.15851	0.17208	0.27818	0.11204	0.20485	0.090158	0.21934	0.035289	0.13333	-1.4771	-1.8438	-2.2292	-1.825	-2.0312	-2.0833	-1.7875	-2.2917	-1.9146	-1.5792	-2.1792	-1.8542	-1.9	-2.1	-1.7979	-2.175	219.173	48.022	-78.976	192.744	50.897	-16.127	123.927	37.650	15.299	-12.737	147.825	212.257	-65.105	194.363	76.232	-5.918	0.00033974	0.00039682	0.0002016	1470	5.0321e-06	4.4592e-06	1447.5	381.29	3.6139e-06	5.7394e-06	444.74	145.67	126.39	43.589	4.8548e-06	53.663	0.00068619	0.0009219	0.000254	1489.5	9.9129e-06	1.0512e-05	1474.9	389.87	9.5608e-06	1.0205e-05	452.66	149.72	130.78	44.823	9.889e-06	55.383	176.447	-41.030	-32.567	-103.504	28.273	32.430	-103.714	-99.142	8.410	35.679	-99.143	-95.397	-95.138	-90.057	0.541	-90.515	-8191	255	
33174.848	1	1	0	0	0.083245	0.10541	0.066753	0.20567	0.031607	0.13501	0.25114	0.39356	0.3112	0.14863	0.081238	0.14154	0.099738	0.13061	0.23783	0.041082	-1.7083	-1.7667	-2.1521	-1.95	-1.6708	-2.2333	-1.9271	-2.1458	-1.8521	-1.7062	-2.2438	-1.9854	-1.8854	-2.2625	-1.7062	-2.0312	37.272	101.801	190.292	-73.244	-82.609	-38.930	197.489	130.446	-13.905	171.374	84.810	212.613	161.473	222.699	-112.275	56.813	0.00035496	0.0005061	0.00017928	1470.3	3.2686e-06	4.2075e-06	1453.2	382.15	3.7513e-06	4.5893e-06	442.05	146.18	125.92	43.818	3.0518e-06	53.44	0.00066604	0.00097061	0.00025766	1490.2	9.7236e-06	1.0509e-05	1480.2	390.12	9.8659e-06	1.0876e-05	451.71	149.76	130.51	44.923	9.7928e-06	55.296	175.288	-24.877	-25.585	-103.288	1.328	18.285	-103.604	-99.202	-21.299	21.492	-99.454	-95.451	-95.713	-90.080	20.509	-90.710	-8191	255	
33174.941	1	1	0	0	0.17669	0.1578	0.29613	0.16586	0.21109	0.17969	0.12509	0.54403	0.14551	0.17316	0.25374	0.38984	0.1039	0.13902	0.051582	0.15757	-1.4396	-1.6042	-2.1354	-2.0938	-1.7188	-2.225	-2.0125	-2.1167	-2.1562	-1.5979	-2.0229	-2.1979	-1.7729	-2.0583	-1.85	-1.9562	-43.395	66.987	84.156	242.636	19.008	125.277	-91.585	213.050	-0.155	199.571	203.312	171.542	-78.042	-103.191	236.835	212.407	0.000341	0.0006029	0.00014108	1466.9	3.7626e-06	4.5281e-06	1452.7	382.53	4.183e-06	4.2715e-06	441.05	145.69	126.01	43.715	3.7781e-06	53.581	0.00066797	0.00093265	0.00026051	1489.4	1.015e-05	1.0318e-05	1475.7	389.85	9.5785e-06	1.0147e-05	451.32	149.66	130.82	44.922	9.9183e-06	55.248	175.835	-21.593	-15.655	-103.515	14.065	28.815	-103.802	-99.148	-48.919	37.226	-99.445	-95.116	-95.157	-89.959	25.172	-90.603	-8191	255	
33175.035	1	1	0	0	0.16265	0.13483	0.37495	0.29537	0.21609	0.10877	0.26686	0.1527	0.022924	0.057413	0.17207	0.056527	0.21168	0.15324	0.090278	0.1428	-1.6812	-1.6104	-2.0354	-1.8542	-1.8042	-2.175	-2.075	-2.0833	-2.1208	-1.5875	-2.0312	-2.1875	-1.7667	-2.2146	-1.7792	-1.9896	14.395	69.315	-2.619	205.638	227.798	-101.411	-43.521	-97.392	-102.327	-102.008	223.241	186.407	-84.471	133.513	9.119	-48.230	0.00030403	0.00056481	0.00012693	1469.8	2.5243e-06	4.5582e-06	1452.3	382.92	6.5703e-07	6.4858e-06	442.17	145.42	125.74	43.635	5.7889e-06	53.731	0.00068018	0.00095994	0.00025381	1489.4	9.8877e-06	1.0281e-05	1478.2	390.69	9.6967e-06	1.0556e-05	451.73	149.87	130.63	44.929	1.0215e-05	55.268	179.776	-40.136	-29.932	-103.468	15.793	27.869	-103.748	-99.280	-83.570	43.112	-99.314	-95.309	-95.471	-90.066	-6.460	-90.854	-8191	255	
33175.137	1	1	0	0	0.16803	0.098713	0.14272	0.3093	0.144	0.22757	0.046919	0.25373	0.16221	0.12974	0.092705	0.12149	0.10436	0.36675	0.39557	0.049343	-1.9458	-1.7271	-1.9271	-2.1833	-1.55	-2.2313	-1.9604	-1.8563	-2.1917	-1.8708	-1.9896	-2.1667	-1.7917	-2.2333	-1.8438	-1.9646	46.053	78.582	21.227	207.045	9.130	190.084	240.168	165.325	-109.665	209.277	106.316	223.467	-69.402	238.720	-19.262	142.502	0.0003343	0.00055936	0.00020075	1470.8	1.6685e-06	6.1751e-06	1450.7	380.84	1.5123e-06	6.135e-06	440.8	145.7	125.38	43.656	5.0968e-06	53.517	0.00066622	0.00094953	0.00026979	1489.5	9.6822e-06	9.8454e-06	1476	389.53	9.6365e-06	1.0194e-05	450.99	149.56	130.34	44.848	9.6004e-06	55.181	178.848	-14.225	-27.693	-103.670	-35.453	12.536	-103.518	-99.080	-46.245	27.337	-99.164	-95.276	-95.297	-90.095	7.619	-90.635	-8191	255	
33175.254	1	1	0	0	0.21828	0.074106	0.035061	0.15949	0.09056	0.29136	0.19688	0.15701	0.081477	0.26153	0.2345	0.080883	0.1295	0.11199	0.2641	0.15999	-1.9708	-1.7667	-1.9562	-2.2042	-1.6521	-2.1229	-2.1792	-1.9062	-2.2229	-1.7771	-1.9729	-2.2042	-1.7479	-2.0104	-2.0896	-1.7938	81.625	200.717	63.194	168.268	-103.478	-95.800	219.347	167.659	121.133	-10.204	48.315	149.466	192.797	-80.407	185.382	236.858	0.000327	0.00052238	0.00019689	1463.8	4.4907e-06	4.9697e-06	1440.2	381.5	2.2795e-06	6.279e-06	443.3	145.48	125.19	43.557	3.725e-06	53.105	0.00066152	0.00093542	0.00025504	1484.1	9.5539e-06	1.0262e-05	1471	389.55	9.1784e-06	1.0231e-05	450.35	149.5	129.83	44.779	9.8949e-06	55.01	174.752	-36.178	-13.724	-103.574	-0.993	21.804	-103.887	-99.125	-14.929	43.813	-99.686	-95.283	-95.479	-89.938	11.246	-90.684	-8191	255	
33175.352	1	1	0	0	0.24698	0.11862	0.27434	0.14173	0.19762	0.18937	0.29598	0.42586	0.23166	0.27325	0.16067	0.16605	0.073873	0.22145	0.15953	0.19841	-1.6083	-1.8417	-1.8875	-2.2042	-1.7812	-1.9312	-2.3187	-1.8083	-2.2542	-1.8458	-1.8771	-2.3063	-1.7979	-1.9479	-2.0167	-1.5625	-11.734	155.551	100.137	52.145	237.328	-8.410	146.235	194.428	78.662	203.557	214.932	191.158	61.616	-111.566	-54.284	-78.875	0.0003434	0.00063665	0.00011695	1461.5	2.5324e-06	5.9957e-06	1452.1	382.14	4.3543e-06	6.765e-06	441.61	144.9	123.72	43.376	4.202e-06	53.598	0.00067245	0.00094995	0.00025726	1481.5	9.7058e-06	1.0082e-05	1472.4	389.7	9.9709e-06	1.0564e-05	449.83	149.2	129.79	44.659	9.9944e-06	55.217	175.177	-20.324	-15.105	-103.493	25.926	30.681	-103.643	-99.028	-36.130	47.989	-99.571	-95.342	-95.141	-89.743	24.687	-90.627	-8191	255	
33175.445	1	1	0	0	0.18172	0.23947	0.19185	0.35157	0.20376	0.19641	0.17217	0.23707	0.067919	0.27527	0.27822	0.0052559	0.15622	0.16444	0.11746	0.15384	-1.7437	-1.9354	-1.725	-2.1375	-1.6792	-1.7229	-2.0208	-1.8167	-2.0729	-1.9	-1.8896	-2.275	-1.7292	-1.9833	-2.0333	-1.7083	-28.613	-63.053	197.512	212.016	-106.499	132.975	230.461	192.584	170.930	159.613	235.976	4.339	-113.930	-115.955	135.734	206.158	0.00034433	0.00045427	0.00016324	1464.7	3.7302e-06	7.2686e-06	1444.3	379.86	2.7029e-06	4.9064e-06	443.07	145.31	125.9	43.663	2.1828e-06	53.327	0.00064312	0.0009303	0.00026025	1482.2	9.8374e-06	1.0363e-05	1470.8	388.71	9.5847e-06	1.0542e-05	451.17	149.38	130.06	44.836	9.9367e-06	55.042	172.786	-29.681	-43.596	-103.428	-25.160	25.252	-103.412	-99.224	-88.449	45.754	-99.737	-95.065	-95.292	-90.297	10.672	-90.543	-8191	255	
33175.543	1	1	0	0	0.074112	0.048914	0.13029	0.14765	0.15878	0.15929	0.10593	0.13194	0.16563	0.15922	0.25546	0.17966	0.085984	0.13539	0.35883	0.24872	-1.675	-1.9937	-1.6583	-2.2708	-1.8021	-1.7979	-2.2771	-1.7792	-2.0771	-1.9229	-1.6688	-2.2417	-1.7208	-1.8188	-2.0667	-1.5208	-56.538	81.630	90.659	222.643	162.115	199.097	27.189	224.648	132.219	233.253	238.157	235.406	108.072	-99.732	-75.887	-62.083	0.00035021	0.00046128	0.00018105	1456.2	4.7524e-06	4.0873e-06	1443.4	380.55	3.1442e-06	8.6522e-06	439.21	144.94	125.01	43.444	3.6796e-06	53.31	0.00066378	0.00092661	0.0002573	1478.8	9.5896e-06	1.0131e-05	1469.1	388.79	9.662e-06	1.0432e-05	449.71	149.54	129.95	44.721	9.5025e-06	55.009	175.593	-21.258	-27.616	-103.434	11.201	48.144	-103.845	-99.122	-30.225	40.755	-99.462	-95.397	-95.823	-90.061	-2.584	-90.736	-8191	255	
33175.641	1	1	0	0	0.26057	0.37509	0.32543	0.26945	0.08398	0.16799	0.34865	0.25527	0.13498	0.20009	0.063405	0.32482	0.16265	0.17217	0.09394	0.27882	-1.4583	-2.0583	-1.4729	-2.1479	-1.7313	-1.7812	-2.3271	-1.85	-1.9771	-2.0354	-1.7708	-2.2833	-1.5979	-1.7479	-2.2021	-1.9229	-4.566	88.266	83.544	231.762	210.423	-74.936	210.866	221.240	19.981	145.772	-54.419	231.796	-107.722	-51.810	-13.032	172.295	0.00031092	0.0004004	0.00021228	1461.6	2.9829e-06	5.9354e-06	1439.5	381.13	2.963e-06	7.9243e-06	440.64	145.1	124.98	43.405	4.6879e-06	53.312	0.00065587	0.00094071	0.00025306	1483.3	9.0453e-06	1.0223e-05	1469	388.75	9.2155e-06	1.0201e-05	449.72	149.26	129.96	44.671	9.9191e-06	55.082	177.602	-56.075	-8.812	-103.435	-0.194	52.273	-103.623	-99.277	-24.200	32.973	-99.520	-95.550	-95.482	-89.782	21.502	-90.917	-8191	255	
33175.734	1	1	0	0	0.19883	0.13974	0.19988	0.30823	0.26191	0.15016	0.1789	0.39015	0.27491	0.27232	0.12898	0.20147	0.22088	0.27531	0.25069	0.15989	-1.4583	-2.0771	-1.5583	-2.275	-1.9021	-1.6979	-2.3979	-1.9875	-1.8979	-2.1542	-1.5958	-2.0729	-1.9	-1.8208	-2.0479	-1.7833	124.225	138.379	131.088	235.294	115.114	7.720	206.512	197.130	140.261	149.663	197.102	234.419	-60.064	-103.715	-0.432	173.546	0.00035863	0.00050075	0.00020015	1461.7	1.3389e-06	6.6523e-06	1447.2	380.64	3.3194e-06	5.249e-06	442.26	145.78	125.5	43.577	4.355e-06	53.274	0.00067256	0.00096238	0.00025733	1483.5	9.6351e-06	1.0501e-05	1474.4	388.58	9.6481e-06	1.0457e-05	451.1	149.41	130.4	44.788	1.001e-05	55.095	175.582	-21.486	-11.920	-103.441	-0.717	59.727	-103.589	-99.377	-29.025	6.700	-99.516	-95.117	-95.612	-89.863	0.448	-90.708	-8191	255	
33175.855	1	1	0	0	0.10237	0.11897	0.060215	0.25304	0.17547	0.26884	0.51883	0.32599	0.1314	0.22713	0.32106	0.28099	0.1801	0.084554	0.27855	0.24554	-1.4333	-1.9917	-1.6875	-2.0896	-2.1083	-1.6208	-2.3187	-1.8479	-1.8771	-2.0812	-1.6354	-2.0125	-1.9271	-1.7667	-2.0604	-1.9333	227.220	173.576	93.109	72.365	61.823	32.439	194.158	207.674	-99.251	192.654	-102.544	-69.841	-103.400	-110.209	-95.291	-55.354	0.00030297	0.00054685	8.641e-05	1459.1	2.1074e-06	6.5806e-06	1445.8	382.16	4.0755e-06	5.6787e-06	440.9	146.28	124.95	43.277	4.3676e-06	53.423	0.00067012	0.00094449	0.00025445	1484	9.4117e-06	1.0611e-05	1473	389.35	9.6612e-06	1.05e-05	450.62	149.67	129.99	44.697	1.0028e-05	55.075	173.203	-23.812	-16.458	-103.259	-7.756	28.739	-103.694	-99.264	-10.097	32.678	-99.503	-95.212	-95.329	-90.172	8.555	-90.827	-8191	255	
33175.949	1	1	0	0	0.2387	0.238	0.11343	0.25958	0.22156	0.11573	0.39411	0.067832	0.16263	0.19027	0.046776	0.16831	0.22869	0.088184	0.22947	0.31632	-1.3583	-2.05	-1.65	-2.1146	-1.8813	-1.6042	-2.375	-2.1333	-1.6125	-2.1271	-1.6833	-1.9688	-2.0042	-1.7833	-1.9146	-2.1271	168.181	-93.628	192.425	232.182	94.419	-16.028	139.987	-10.563	-47.215	15.377	145.886	-110.894	-65.876	-99.859	41.792	133.512	0.00032149	0.00056952	0.00019557	1461.2	2.6728e-06	5.9825e-06	1445.9	379.73	2.9191e-06	4.7162e-06	442.63	145.84	125.42	43.493	4.8511e-06	53.434	0.00064939	0.00092132	0.00026394	1483.4	9.393e-06	1.081e-05	1472.6	388.42	9.6859e-06	1.0435e-05	450.19	149.51	129.91	44.724	9.6138e-06	54.996	180.113	-32.556	-31.401	-103.579	35.777	33.863	-103.632	-99.168	-46.051	21.501	-99.540	-95.286	-95.278	-90.020	31.379	-90.861	-8191	255	
33176.047	1	1	0	0	0.073516	0.022006	0.33342	0.14658	0.19065	0.14762	0.16278	0.24556	0.10302	0.13747	0.20785	0.093229	0.41149	0.088278	0.13055	0.32	-1.1313	-2.1813	-1.6354	-1.9208	-2.0958	-1.6833	-2.2021	-2.1208	-1.7437	-2.1562	-1.7875	-1.8167	-2.2708	-1.6688	-1.9375	-2.1271	29.856	129.470	47.726	193.808	23.092	71.373	187.177	138.629	-34.198	-84.389	144.648	-73.243	118.695	-62.885	212.502	-7.189	0.0003445	0.00076324	0.00015158	1467.5	3.2023e-06	4.5043e-06	1449.4	381	2.2582e-06	5.6926e-06	440.24	145.64	124.42	43.408	2.6966e-06	53.326	0.00067511	0.00092996	0.00027038	1484.4	9.7545e-06	1.0986e-05	1473.6	388.9	9.8303e-06	1.0424e-05	450.05	149.25	129.95	44.633	1.0076e-05	55.038	175.221	-46.780	-17.972	-103.345	-7.132	-0.793	-103.828	-99.211	-45.897	5.585	-99.324	-95.517	-95.511	-90.133	4.620	-90.785	-8191	255	
33176.141	1	1	0	0	0.095964	0.080274	0.23168	0.20682	0.072618	0.18331	0.44865	0.28863	0.099222	0.23886	0.12206	0.081367	0.32521	0.13551	0.16165	0.30142	-1.1562	-1.9292	-1.6479	-2.1042	-1.9979	-1.7042	-2.0104	-2.15	-1.6479	-2.0104	-1.8896	-1.7062	-2.3375	-1.85	-2.0083	-2.2125	216.132	7.117	107.874	-95.078	136.783	29.703	162.725	236.417	-114.467	-63.539	-11.225	-53.721	188.726	-27.814	-90.645	-114.686	0.0003552	0.00063774	0.00014777	1460	3.5873e-06	4.9794e-06	1447.2	380.95	3.2816e-06	6.2214e-06	440.25	144.65	123.69	43.218	5.4734e-06	53.063	0.00067172	0.00094642	0.00026332	1482.8	9.7504e-06	1.0475e-05	1472.8	388	1.0196e-05	1.0222e-05	449.44	148.88	129.61	44.48	1.0033e-05	54.767	176.037	-27.328	-30.088	-103.443	28.638	36.793	-103.584	-99.250	-18.831	33.912	-99.446	-95.372	-95.789	-90.000	28.734	-90.654	-8191	255	
33176.215	1	1	0	0	0.090777	0.15651	0.10377	0.23028	0.10552	0.10486	0.191	0.18349	0.2019	0.15605	0.021688	0.13716	0.13439	0.018459	0.2424	0.13268	-1.0938	-1.9729	-1.8125	-1.7604	-2.2625	-1.6854	-1.9438	-2.25	-1.6458	-2.1792	-2.0208	-1.7083	-2.0271	-1.8208	-1.875	-2.3	18.571	-21.636	-116.175	159.937	-17.432	-87.347	211.283	170.041	197.016	122.184	198.375	121.235	139.731	161.934	88.501	151.681	0.00035445	0.00055326	0.00013554	1460.3	4.5551e-06	3.3218e-06	1447.3	380.82	2.1806e-06	6.9801e-06	440.29	145.11	124.83	43.41	5.0206e-06	53.193	0.00068714	0.00093366	0.00026712	1484.1	1.014e-05	1.102e-05	1472	388.53	1.0141e-05	1.065e-05	449.35	148.73	129.88	44.539	1.0077e-05	54.883	171.330	-50.942	-31.241	-103.370	30.041	5.344	-103.490	-99.003	-33.771	26.525	-99.728	-95.110	-95.405	-90.125	17.905	-90.587	-8191	255	
33176.336	1	1	0	0	0.071023	0.08402	0.22301	0.33469	0.18053	0.085023	0.12747	0.056081	0.044221	0.12871	0.13354	0.21187	0.1061	0.18917	0.060435	0.09243	-1.1167	-2.0979	-1.9188	-1.6333	-1.9937	-1.8438	-2.1542	-2.375	-1.7563	-2.0687	-2.0354	-1.8	-2.1063	-2.1229	-1.9583	-2.1437	80.260	-29.097	-66.242	188.877	68.417	-58.705	-97.676	-96.252	28.490	104.061	17.949	193.868	-88.326	229.720	-85.069	-65.645	0.00033513	0.00046134	0.00013267	1458.9	3.8854e-06	4.3768e-06	1443.4	380.26	2.4994e-06	7.4349e-06	440.05	144.79	125.47	43.257	4.6308e-06	53.31	0.00068225	0.00091829	0.00027675	1482.7	9.8837e-06	1.0872e-05	1471.4	388.5	9.9871e-06	1.0313e-05	449.41	148.81	130.07	44.564	9.7016e-06	54.93	173.743	-33.781	-57.389	-103.354	24.178	29.987	-103.792	-99.214	-26.685	54.723	-99.613	-95.217	-95.646	-89.951	3.084	-90.589	-8191	255	
33176.430	1	1	0	0	0.21567	0.21315	0.18672	0.20337	0.33708	0.30407	0.18538	0.3101	0.14054	0.13906	0.090693	0.097868	0.046002	0.33733	0.428	0.097541	-1.2896	-1.7563	-1.9729	-1.7812	-1.9833	-2.0208	-1.9354	-2.3396	-1.6854	-2.0896	-2.1708	-1.7563	-1.975	-1.9979	-1.5938	-2.1979	-54.370	-57.717	4.072	156.437	-45.717	70.250	216.384	192.691	161.421	-94.431	-111.680	117.389	-66.592	131.306	239.942	199.842	0.00033563	0.0007322	0.00021693	1460.6	4.5868e-06	5.2646e-06	1446.6	378.88	3.4249e-06	7.1454e-06	439.54	145.19	124.81	43.271	3.9839e-06	53.074	0.0006597	0.00097002	0.00027283	1482.7	1.0101e-05	1.0457e-05	1471.1	387.54	9.6558e-06	1.0145e-05	449.36	149.03	129.69	44.529	1.0353e-05	54.823	175.454	-54.220	-18.075	-103.464	15.882	39.715	-103.725	-99.099	-33.607	34.676	-99.701	-95.238	-95.443	-90.017	11.904	-90.807	-8191	255	
33176.527	1	1	0	0	0.26675	0.3068	0.008848	0.10352	0.11736	0.16623	0.30171	0.13938	0.20685	0.27436	0.15912	0.087535	0.17935	0.20352	0.15114	0.17585	-1.2062	-1.7833	-1.85	-1.7667	-1.875	-2.0563	-1.9937	-2.3708	-1.9271	-1.8583	-2.0875	-1.8375	-2.2354	-2.0458	-1.7437	-2.2146	82.989	12.712	-69.573	212.398	50.347	-9.232	100.890	71.317	9.535	205.703	227.302	149.871	216.934	-64.156	-79.413	-18.749	0.00032808	0.00042902	0.00014999	1455	4.0274e-06	4.2055e-06	1438.9	379.91	4.3769e-06	4.8322e-06	441.11	145.2	125.15	43.082	3.3072e-06	53.314	0.00067486	0.00092232	0.0002565	1479.1	9.3906e-06	1.0461e-05	1467.2	387.68	9.7523e-06	9.9721e-06	448.64	148.99	129.84	44.449	9.9643e-06	54.859	172.453	-23.753	-30.668	-103.396	6.971	24.169	-103.771	-99.077	-14.123	23.707	-99.383	-95.139	-95.260	-90.199	22.016	-90.790	-8191	255	
33176.648	1	1	0	0	0.2402	0.25661	0.055627	0.12884	0.17132	0.19436	0.35594	0.44598	0.2097	0.2686	0.30984	0.13584	0.072609	0.17643	0.31237	0.26843	-1.2437	-1.7	-2.0542	-1.7354	-1.9813	-2.05	-1.7062	-2.1104	-1.7583	-1.7604	-2.075	-1.7458	-2.0708	-2.125	-1.6938	-2.2479	-28.114	116.978	212.162	184.262	106.425	76.645	185.989	181.979	182.563	7.780	65.638	-99.975	29.952	220.162	-44.505	-72.646	0.00037643	0.00049412	0.00017162	1453.8	2.8324e-06	3.6066e-06	1433.5	379.34	5.1401e-06	5.1187e-06	437.82	143.7	125.01	43.06	4.456e-06	52.785	0.00066917	0.00093618	0.00026238	1477.9	9.6538e-06	1.0013e-05	1460.8	387.69	9.9694e-06	1.0024e-05	446.52	148.24	129.35	44.324	9.9292e-06	54.593	173.050	-45.615	-45.144	-103.476	41.855	22.049	-103.721	-99.000	-32.533	26.660	-99.246	-95.221	-95.245	-89.950	-4.520	-90.729	-8191	255	
33176.742	1	1	0	0	0.0311	0.194	0.20127	0.1588	0.30505	0.077689	0.26696	0.13062	0.097527	0.2934	0.16674	0.19104	0.082972	0.31199	0.17354	0.18091	-1.3979	-1.7771	-2.1937	-1.9562	-1.8208	-2.2104	-1.7062	-2.0833	-1.9542	-1.6875	-2.0271	-1.8375	-2.0458	-2.1125	-1.6063	-2.1208	42.285	222.515	50.964	239.243	-53.757	17.457	166.153	-105.336	124.316	-68.327	108.910	226.092	187.132	-116.609	-105.511	222.467	0.00035978	0.00068738	0.00015352	1454.8	3.9505e-06	6.1217e-06	1437.5	379.23	3.4126e-06	5.7434e-06	437.2	144.69	123.81	42.958	4.7781e-06	53.003	0.00066688	0.00094861	0.00025445	1470.8	9.5815e-06	1.0591e-05	1458.7	386.41	9.7624e-06	1.0227e-05	446.44	147.96	128.73	44.206	9.6832e-06	54.531	174.263	-25.652	-39.463	-103.244	33.150	12.963	-103.645	-99.042	-8.423	46.354	-99.235	-95.378	-95.879	-90.033	27.961	-90.734	-8191	255	
33176.816	1	1	0	0	0.24763	0.14859	0.12196	0.19229	0.28629	0.1016	0.36395	0.2244	0.12966	0.13109	0.137	0.22058	0.21102	0.082729	0.063708	0.13274	-1.4521	-1.9042	-1.8646	-1.65	-1.9333	-2.0979	-1.6833	-2.175	-1.95	-1.6688	-2.1896	-2.1063	-1.9729	-2.1271	-1.575	-1.9542	-76.590	-66.402	187.467	242.392	6.618	193.809	204.401	-105.061	206.804	-1.622	-74.861	146.090	-82.453	150.587	-15.889	52.162	0.00034427	0.00058963	0.00019367	1450	3.4195e-06	5.3278e-06	1430.9	379.48	3.8565e-06	7.3066e-06	437.39	144.1	123.34	43.057	4.0809e-06	52.837	0.00066662	0.00093282	0.0002519	1468.6	9.3491e-06	1.0275e-05	1455.7	386.28	9.4851e-06	1.0387e-05	445.55	148.08	128.51	44.256	9.6004e-06	54.5	175.733	-30.121	-5.114	-103.663	22.946	36.422	-103.669	-99.022	-25.674	32.993	-99.682	-94.954	-95.147	-90.056	29.428	-90.937	-8191	255	
33176.938	1	1	0	0	0.31878	0.23689	0.13717	0.060117	0.10471	0.15427	0.12277	0.3338	0.17952	0.21082	0.096869	0.038715	0.086141	0.14847	0.16118	0.1302	-1.6688	-1.7021	-2.0687	-1.9771	-1.825	-2.1583	-2.0229	-2.4375	-2.0771	-1.8292	-2.1479	-2.1229	-1.8896	-2.1667	-1.8833	-2.0021	219.797	-34.633	156.403	156.118	86.047	200.969	195.505	201.146	147.153	-9.159	230.997	-109.802	198.174	213.461	181.763	206.133	0.0003599	0.00044485	0.00017785	1443.4	2.1379e-06	3.8212e-06	1430.4	378.16	2.6782e-06	3.7754e-06	437.3	143.78	124.22	43.342	2.6287e-06	53.135	0.00064374	0.00093576	0.00024971	1465.9	9.7854e-06	1.0082e-05	1455.5	386.1	9.292e-06	1.012e-05	445.82	147.98	129.03	44.362	9.5719e-06	54.593	172.811	-30.913	-38.344	-103.363	29.855	28.812	-103.591	-99.182	-8.586	23.246	-99.608	-95.030	-95.386	-90.106	8.538	-90.173	-8191	255	
33177.031	1	1	0	0	0.16312	0.11504	0.10443	0.19035	0.072136	0.17801	0.28086	0.33031	0.093528	0.12786	0.24419	0.074931	0.30577	0.039631	0.1279	0.12819	-1.5792	-1.6896	-1.9813	-2.1417	-2.0292	-2.1667	-1.85	-2.0833	-2.0563	-1.8521	-2.1437	-2.1833	-1.8958	-2.1354	-1.7646	-1.9438	47.950	39.697	-57.431	-27.800	-12.069	171.823	-112.623	152.618	227.988	52.122	95.093	184.530	24.014	-116.382	-13.484	131.819	0.00030866	0.00063133	0.00017176	1443.8	1.6984e-06	4.6352e-06	1429.3	377.96	3.2732e-06	2.5072e-06	435.64	144.37	124.56	43.193	2.7864e-06	52.826	0.00063168	0.00092761	0.00024626	1466.4	9.4247e-06	1.0209e-05	1454	385.85	9.2595e-06	1.0107e-05	445.82	147.84	128.75	44.256	9.6422e-06	54.485	172.924	-35.320	-23.639	-103.341	-16.161	26.282	-103.667	-98.972	-19.074	-10.080	-99.510	-95.407	-95.315	-89.861	31.904	-90.485	-8191	255	
33177.125	1	1	0	0	0.15338	0.096304	0.13629	0.24983	0.18359	0.22537	0.08049	0.24516	0.085067	0.090347	0.13763	0.30081	0.15944	0.19098	0.22964	0.15492	-1.7667	-1.7167	-2.0208	-2.1271	-1.5479	-2.1479	-2.0521	-1.8271	-2.2104	-1.7062	-1.9188	-1.95	-1.7229	-2.1896	-1.8875	-1.8021	-44.370	115.025	191.382	214.774	-102.773	226.267	194.644	227.017	215.583	51.315	92.574	-74.339	68.701	-40.641	62.511	-94.240	0.000362	0.00046426	0.00015125	1435	3.9963e-06	3.5856e-06	1419.1	375.99	4.1171e-06	3.7504e-06	438.46	144.09	123.5	42.862	5.1575e-06	52.622	0.00065871	0.00091477	0.0002498	1461.1	9.5522e-06	9.733e-06	1446.3	384.68	9.1367e-06	9.9979e-06	444.85	147.35	128.52	44.122	9.4489e-06	54.358	176.846	-33.082	-41.170	-103.515	45.567	30.836	-103.629	-99.003	-28.886	29.039	-99.355	-95.284	-95.191	-90.137	3.932	-90.555	-8191	255	
33177.223	1	1	0	0	0.027311	0.12812	0.11212	0.18853	0.23108	0.25376	0.32688	0.13299	0.22907	0.19959	0.06447	0.12035	0.33584	0.068748	0.045384	0.058162	-1.7917	-1.5438	-1.9438	-2.125	-1.4688	-2.0687	-2.1521	-1.9146	-2.0604	-1.8188	-1.9521	-2.0917	-1.6583	-2.1625	-1.8958	-1.6896	-53.421	63.441	126.921	220.115	196.228	154.718	184.644	206.083	-31.957	103.565	223.452	198.910	234.964	-112.091	17.104	-43.537	0.00031241	0.00050352	0.00015788	1439.9	2.4463e-06	3.5847e-06	1422	375.97	2.8632e-06	6.8641e-06	432.29	142.9	123.48	43.144	5.6086e-06	52.926	0.00063565	0.00088185	0.00023427	1459.3	9.285e-06	9.2856e-06	1446.4	384.63	8.9822e-06	9.3307e-06	444.32	147.48	128.78	44.32	9.3753e-06	54.523	178.995	-23.849	-29.216	-103.564	14.353	23.526	-103.461	-99.042	-19.445	43.593	-99.308	-95.226	-95.341	-89.777	14.781	-90.774	-8191	255	
33177.344	1	1	0	0	0.19021	0.22391	0.063001	0.20772	0.24918	0.12831	0.26508	0.14557	0.29395	0.13372	0.12622	0.10186	0.22294	0.066761	0.17432	0.10572	-1.5896	-1.5521	-1.8354	-2.1604	-1.5812	-2.0333	-2.1083	-1.7583	-2.1688	-1.6667	-1.6688	-2.2396	-1.7229	-2.0521	-2.0208	-1.8229	30.218	-29.772	228.616	2.213	-79.547	29.849	185.853	180.289	-84.685	67.783	52.893	-87.010	-113.363	184.167	189.577	205.105	0.00034666	0.00047822	0.00014049	1444.4	2.2897e-06	4.9873e-06	1422.6	376.71	2.5863e-06	4.4702e-06	432.54	143.03	123.24	43.025	3.1151e-06	52.686	0.00063153	0.00087589	0.00024423	1462.3	9.3898e-06	9.556e-06	1448.6	385.1	9.1676e-06	9.7236e-06	443.02	147.43	128.48	44.177	9.6455e-06	54.437	178.425	-44.415	-35.139	-103.388	42.767	50.179	-103.698	-99.042	-36.244	11.557	-99.139	-95.174	-95.265	-90.049	27.268	-90.620	-8191	255	
33177.438	1	1	0	0	0.041741	0.066789	0.13512	0.21512	0.14058	0.061735	0.46938	0.4043	0.062709	0.20877	0.17994	0.17536	0.08031	0.17906	0.088533	0.077434	-1.7146	-1.8917	-1.7687	-2.2188	-1.7479	-1.9917	-2.0938	-1.7417	-2.0729	-1.8396	-1.6729	-2.1437	-1.5979	-1.8833	-1.9125	-1.5958	120.619	-0.230	202.772	229.874	-24.112	-58.941	160.238	218.359	-87.892	138.744	109.594	170.202	166.699	161.553	0.639	134.219	0.00033173	0.00062019	0.00017816	1437.4	3.9282e-06	4.5826e-06	1430.4	377.99	1.9663e-06	5.1528e-06	435.47	143.44	124.25	43.098	4.1054e-06	52.971	0.0006354	0.00094348	0.00024333	1461.7	9.4369e-06	1.014e-05	1451.7	385.69	9.0479e-06	1.0217e-05	446.07	147.72	128.86	44.288	9.2665e-06	54.53	174.432	-21.801	-22.847	-103.395	-3.025	34.580	-103.724	-99.087	-27.445	18.342	-99.201	-95.183	-95.607	-89.977	11.666	-90.710	-8191	255	
33177.512	1	1	0	0	0.094326	0.061588	0.13878	0.28627	0.15004	0.19654	0.47694	0.105	0.16604	0.23442	0.11016	0.075647	0.14866	0.085074	0.24687	0.14834	-1.7	-1.9354	-1.7729	-2.25	-1.7146	-1.9229	-2.1833	-1.8021	-1.9417	-1.9292	-1.7583	-2.3896	-1.6938	-1.7917	-2.0438	-1.8083	156.234	-37.762	127.859	190.285	238.896	48.214	175.692	137.498	223.189	-98.663	135.883	180.358	-40.379	230.075	-35.970	150.821	0.00036257	0.00050528	0.00015944	1451	3.5882e-06	4.9665e-06	1426.6	377.94	1.2101e-06	5.4121e-06	435.51	143.65	124.08	42.849	3.085e-06	52.793	0.00063867	0.00086161	0.00024758	1466.8	8.9909e-06	9.7397e-06	1451.7	386.46	8.9197e-06	9.7934e-06	446.13	147.93	128.81	44.202	9.162e-06	54.579	174.968	-30.467	-23.838	-103.220	15.380	27.908	-103.639	-99.021	2.220	41.363	-99.578	-94.947	-95.789	-90.197	7.313	-90.664	-8191	255	
33177.633	1	1	0	0	0.19817	0.20644	0.13108	0.088601	0.12473	0.15394	0.25915	0.36479	0.21812	0.16109	0.43164	0.04181	0.12503	0.016731	0.069507	0.26523	-1.525	-1.8813	-1.5104	-2.1729	-1.7104	-1.975	-2.3333	-1.8271	-1.9937	-2.0625	-1.6521	-2.1521	-1.6354	-1.8208	-2.1521	-1.7271	-61.449	89.385	140.814	59.614	120.595	157.639	159.800	141.710	40.722	-30.660	-91.512	103.235	227.406	-116.628	-17.294	175.872	0.00031675	0.0004563	0.00011854	1445.4	2.3031e-06	2.3927e-06	1427.4	377.8	3.0969e-06	4.4964e-06	437.25	143.84	123.6	42.881	3.5974e-06	52.62	0.00063918	0.00088554	0.0002519	1466.3	9.3158e-06	9.9149e-06	1452.6	385.18	9.1081e-06	1.008e-05	447.02	147.85	128.74	44.153	9.264e-06	54.409	177.549	-26.031	-32.133	-103.437	48.550	8.456	-103.557	-99.144	-18.424	19.167	-99.359	-95.222	-95.614	-89.813	22.443	-90.587	-8191	255	
33177.727	1	1	0	0	0.10244	0.36043	0.12956	0.28587	0.093045	0.099933	0.23833	0.19713	0.076867	0.12648	0.4521	0.2273	0.22454	0.27093	0.13304	0.20001	-1.4167	-2.0833	-1.6437	-2.4021	-1.7938	-1.8875	-2.2354	-1.7542	-1.8729	-2.0354	-1.6333	-2.1958	-1.9188	-1.875	-1.9896	-1.5458	178.992	-61.700	-68.397	-96.753	140.283	-91.910	136.967	165.174	0.866	25.905	207.753	193.148	-106.438	182.415	169.209	-53.437	0.00032766	0.00044958	0.00014264	1444.6	2.9696e-06	4.9452e-06	1424.7	376.91	2.7733e-06	5.2288e-06	437.47	144.51	124.47	43.175	3.8292e-06	52.973	0.00064294	0.00090427	0.00025143	1466.1	9.3849e-06	1.0264e-05	1452.1	385.33	9.061e-06	1.0195e-05	446.87	148.18	129.15	44.32	9.3444e-06	54.459	175.717	-37.735	-38.425	-103.292	43.428	33.316	-103.598	-99.076	-19.333	24.681	-99.174	-95.286	-95.482	-89.720	27.820	-90.707	-8191	255	
33177.824	1	1	0	0	0.11542	0.13857	0.089727	0.28694	0.0659	0.22448	0.13859	0.12888	0.23418	0.12893	0.1606	0.24635	0.2019	0.11801	0.11163	0.19106	-1.2604	-1.9354	-1.5875	-1.9875	-1.9167	-1.5792	-2.325	-1.9062	-1.7167	-1.9188	-1.6917	-2.3417	-1.9521	-1.6708	-2.1437	-1.8438	96.123	129.154	112.151	236.266	173.849	204.269	176.712	166.987	-103.228	37.563	198.131	158.366	-78.526	-98.978	68.577	-93.224	0.00033443	0.0002488	0.00015138	1446.7	3.4819e-06	3.9156e-06	1429	378.18	4.3845e-06	7.1835e-06	436.82	144.49	124.03	43.12	4.8388e-06	52.909	0.00064101	0.00091678	0.00025395	1468.2	9.4507e-06	1.0063e-05	1457.3	386	9.7585e-06	1.0095e-05	446.62	148.02	128.73	44.298	9.5527e-06	54.561	179.769	-38.973	-13.550	-103.503	30.324	29.044	-103.859	-98.941	30.766	35.804	-99.446	-95.030	-95.344	-89.910	26.031	-90.445	-8191	255	
33177.922	1	1	0	0	0.0389	0.27184	0.047772	0.088231	0.20031	0.33877	0.059842	0.47486	0.1418	0.14507	0.18826	0.22266	0.075716	0.072691	0.17625	0.36148	-1.5521	-2.0542	-1.5542	-2.1125	-1.9979	-1.6604	-2.2896	-1.9375	-1.7104	-2.1813	-1.7	-2.0583	-1.9771	-1.7354	-2.0396	-1.9333	234.520	188.878	128.280	-43.604	-101.631	-15.105	242.880	217.569	151.897	35.928	-7.898	70.559	58.724	-48.216	171.005	192.721	0.00031043	0.0003649	0.0002137	1443.7	1.7098e-06	5.9831e-06	1432.6	377.71	2.2838e-06	5.7576e-06	437.98	144.08	124.44	42.995	2.7581e-06	52.742	0.00064421	0.00090788	0.00025745	1465.8	9.4515e-06	1.0066e-05	1457.8	385.82	9.4634e-06	1.0111e-05	446.96	148.09	129.31	44.176	9.5226e-06	54.509	172.998	-36.521	-25.273	-103.396	52.238	21.101	-103.782	-99.078	-14.067	25.059	-99.434	-95.189	-95.446	-90.072	-2.107	-90.858	-8191	255	
33178.039	1	1	0	0	0.11857	0.37489	0.16552	0.35551	0.051344	0.14589	0.18269	0.033035	0.1254	0.31329	0.15006	0.087219	0.25185	0.18131	0.079869	0.25326	-1.1417	-2.0979	-1.6208	-2.0042	-2.1688	-1.6292	-2.1458	-2.0292	-1.5771	-2.0312	-1.7479	-1.9146	-2.1542	-1.7938	-2.0646	-1.925	-88.023	66.553	-110.069	-109.996	209.380	-71.328	195.539	77.714	209.646	86.689	-32.078	140.344	160.008	-30.159	166.699	176.139	0.00036139	0.00070275	0.00013181	1446.1	2.7905e-06	4.261e-06	1426.4	377.99	2.6647e-06	4.1577e-06	439.62	143.64	124.06	43.002	5.5652e-06	52.663	0.00065751	0.00094516	0.00025627	1467	9.6058e-06	9.9758e-06	1454.9	385.36	9.5106e-06	1.0064e-05	447.1	147.58	128.66	44.204	9.602e-06	54.357	177.161	-38.625	-15.064	-103.601	17.612	12.654	-103.686	-99.045	-16.549	31.355	-99.004	-95.250	-95.668	-90.039	33.211	-90.792	-8191	255	
33178.109	1	1	0	0	0.23568	0.13628	0.17316	0.10373	0.23879	0.12848	0.38136	0.1535	0.14843	0.092086	0.17888	0.10498	0.061845	0.40747	0.13798	0.27635	-1.3188	-2.0312	-1.7333	-2.0021	-2	-1.7417	-2.1771	-1.9604	-1.5938	-2.0646	-1.6583	-1.9083	-2.0896	-1.6625	-1.7833	-2.0458	-97.865	17.266	-116.495	-108.308	72.958	97.073	143.449	-112.258	61.001	-109.932	-107.733	192.647	14.073	159.116	11.629	189.088	0.00033616	0.00051345	0.00019068	1446.5	5.158e-06	5.4125e-06	1431	377.53	2.2652e-06	6.9342e-06	434.08	142.88	123.64	43.078	4.6613e-06	52.958	0.00066513	0.00093996	0.00025445	1467.9	9.5335e-06	1.0365e-05	1456.5	385.22	9.638e-06	1.0166e-05	446.14	147.45	128.6	44.277	9.7041e-06	54.617	175.480	-20.550	-2.003	-103.388	22.805	28.009	-103.692	-99.065	-27.770	40.675	-99.506	-95.265	-95.611	-89.958	-9.292	-90.608	-8191	255	
33178.207	1	1	0	0	0.2956	0.16696	0.044846	0.21458	0.030502	0.22129	0.21604	0.32762	0.076523	0.05501	0.15668	0.12257	0.23558	0.10926	0.16053	0.049566	-1.2167	-2	-1.7792	-1.7938	-2.0729	-1.8042	-2.1063	-2.0812	-1.6396	-2.1521	-1.9917	-1.8292	-2.225	-1.9521	-1.8271	-2.2812	78.477	239.439	-35.211	230.175	-54.666	-81.107	210.137	169.872	-91.708	-111.933	-105.998	-29.657	138.291	175.989	-104.550	117.029	0.00033467	0.00036929	0.00014614	1450.4	3.39e-06	8.0163e-06	1429.5	376.7	2.6364e-06	6.2263e-06	435.23	144.1	123.84	42.842	4.8301e-06	53.013	0.00067041	0.00088664	0.00024475	1469.8	9.5002e-06	1.0354e-05	1455.4	385.52	9.6365e-06	1.014e-05	446.24	147.81	128.75	44.163	9.7267e-06	54.531	175.268	-23.914	-21.865	-103.506	19.042	41.766	-103.663	-99.224	-24.196	14.455	-99.709	-95.433	-95.443	-90.055	29.994	-90.508	-8191	255	
33178.305	1	1	0	0	0.3121	0.13521	0.13228	0.22754	0.20789	0.19531	0.28723	0.1501	0.12278	0.082129	0.14186	0.16355	0.3319	0.2725	0.22126	0.19743	-1.2188	-1.9146	-1.7458	-1.8708	-2.1437	-1.8292	-2.125	-2.2812	-1.6646	-1.9562	-2.0083	-1.8146	-2.0708	-1.9146	-1.9396	-2.3042	25.293	-107.491	-3.285	-110.722	-41.211	61.218	168.551	161.367	227.231	101.949	142.919	-94.010	-53.545	226.108	-4.743	166.920	0.00031615	0.00043034	0.00017812	1446.4	4.141e-06	5.5023e-06	1432.5	377.13	3.8427e-06	4.5064e-06	440.04	143.04	123.35	42.851	4.1428e-06	52.802	0.00064727	0.00091275	0.00025782	1469.8	9.1972e-06	9.9977e-06	1456	386.05	9.387e-06	1.0081e-05	446.11	147.69	128.77	44.204	9.6648e-06	54.542	175.120	-20.687	-29.993	-103.303	4.837	67.695	-103.618	-99.116	-50.005	10.129	-99.299	-95.221	-95.171	-89.775	26.850	-90.721	-8191	255	
33178.422	1	1	0	0	0.13101	0.27186	0.089719	0.28533	0.3881	0.1743	0.18378	0.064518	0.12017	0.21164	0.2133	0.23158	0.24598	0.073933	0.19155	0.3896	-1.1917	-1.9771	-1.9917	-2.0021	-2.3521	-1.8729	-2.1	-2.3771	-1.8687	-2.0417	-2.1021	-1.8229	-2.1896	-2	-1.8542	-2.3896	31.611	1.378	81.050	101.675	31.690	120.733	169.024	181.421	42.477	217.519	167.501	226.704	214.251	169.729	225.370	175.548	0.00035301	0.0005594	9.7783e-05	1447	4.6717e-06	4.4257e-06	1432.8	378.05	3.9187e-06	4.4216e-06	436.91	143.74	123.56	42.966	3.8143e-06	52.781	0.00065846	0.00087412	0.00025358	1469.3	9.4954e-06	1.0005e-05	1458.8	386.25	9.5384e-06	1.0088e-05	446.51	147.83	128.88	44.231	9.6313e-06	54.459	174.227	-30.160	-21.369	-103.526	18.135	26.463	-103.759	-99.360	-18.435	15.544	-99.354	-95.225	-95.518	-89.951	21.786	-90.591	-8191	255	
33178.520	1	1	0	0	0.2009	0.25579	0.26307	0.20595	0.21419	0.098265	0.1098	0.29068	0.26726	0.17248	0.14531	0.22362	0.17893	0.12913	0.25929	0.22186	-1.1917	-1.8271	-2.1333	-1.9729	-2.1813	-2.0396	-2.0479	-2.3	-1.7146	-2.1167	-2.2042	-1.9375	-2.1604	-2.0042	-1.7354	-2.4021	-6.334	-43.025	-96.413	242.198	143.910	67.885	-105.643	194.596	234.866	-102.826	232.855	130.494	124.782	51.138	180.335	129.742	0.00033534	0.00049743	0.00019269	1448.7	2.7336e-06	4.1047e-06	1427.2	378.28	3.8417e-06	6.5933e-06	443	144.35	123.47	42.943	4.9675e-06	52.784	0.00065452	0.00090838	0.00025341	1468.6	9.4734e-06	1.0181e-05	1455.7	386.17	9.6581e-06	1.0521e-05	447.19	147.84	128.81	44.196	9.8112e-06	54.412	177.070	-31.862	-16.137	-103.671	9.858	49.812	-103.831	-99.151	-2.406	38.857	-99.264	-95.516	-95.858	-90.008	1.760	-90.493	-8191	255	
33178.617	1	1	0	0	0.36695	0.25305	0.11368	0.28056	0.22266	0.078439	0.25943	0.46533	0.16894	0.091167	0.11985	0.23092	0.20412	0.36358	0.16284	0.027737	-1.275	-1.8583	-2.0042	-1.8042	-1.9271	-2.0396	-2.1188	-2.4229	-1.8896	-2.0542	-2.1896	-1.6604	-2.0271	-2.175	-1.7792	-2.2396	-114.222	-57.393	137.585	234.449	-34.706	101.854	-70.759	176.277	-28.509	145.204	211.183	200.709	185.343	231.333	217.406	97.431	0.00033235	0.0003993	0.00012962	1444.5	2.4535e-06	2.7153e-06	1429.8	375.78	3.0963e-06	4.8571e-06	434.86	143.74	123.17	43.057	2.6834e-06	52.602	0.00063722	0.0008931	0.00025313	1468.4	9.6318e-06	9.9986e-06	1455.2	385.29	9.234e-06	1.0476e-05	446.3	147.85	128.57	44.196	9.474e-06	54.32	180.622	-20.708	3.969	-103.461	29.508	22.205	-103.584	-99.111	-31.848	25.823	-99.723	-95.372	-95.269	-90.111	-4.652	-90.709	-8191	255	
33178.711	1	1	0	0	0.10608	0.1127	0.31751	0.24616	0.053777	0.13663	0.33106	0.11219	0.22475	0.13491	0.065233	0.12655	0.16367	0.17985	0.22206	0.30074	-1.3958	-1.7271	-2.1271	-1.8146	-1.9271	-2.2271	-1.8896	-2.3271	-2.0687	-1.8208	-2.1604	-1.9125	-2.0771	-2.1458	-1.7083	-2.3333	177.239	202.225	78.650	187.900	-9.214	204.135	228.199	179.947	83.479	-59.580	-50.146	-59.742	-107.062	162.681	31.301	-75.958	0.00033763	0.00044199	0.0001041	1440.9	3.13e-06	5.7726e-06	1433.2	378.36	4.1429e-06	5.1783e-06	434.11	143.36	123.18	42.867	3.5599e-06	52.644	0.00065445	0.0008732	0.0002565	1466.4	9.5912e-06	1.0528e-05	1455.8	386.27	9.5608e-06	1.0213e-05	445.17	147.59	128.49	44.15	9.7995e-06	54.306	173.809	-33.344	-36.537	-103.566	37.393	33.631	-103.552	-99.040	-34.966	37.713	-99.378	-95.279	-95.395	-90.050	33.607	-90.777	-8191	255	
33178.809	1	1	0	0	0.10001	0.21645	0.17475	0.11776	0.13191	0.19183	0.26663	0.28365	0.21352	0.12059	0.051018	0.24127	0.24789	0.06178	0.23588	0.031977	-1.5146	-1.7167	-2.0687	-1.9937	-1.9625	-2.0438	-1.9937	-2.3625	-2.0542	-1.7812	-2.3042	-2.0104	-1.9521	-2.1479	-1.7396	-2.1667	17.730	199.099	164.010	12.539	30.943	137.067	77.453	197.098	-98.777	-4.837	108.661	65.231	182.362	-110.992	55.297	-31.688	0.00034847	0.0003021	0.00012976	1438.6	3.0477e-06	5.2493e-06	1430.7	376.74	3.0108e-06	6.1606e-06	436.33	144.11	124.04	42.883	2.0909e-06	52.626	0.00065161	0.00093131	0.00026025	1466.4	9.3548e-06	1.004e-05	1454.9	385.64	9.6488e-06	1.0488e-05	445.48	147.52	128.69	44.115	9.7995e-06	54.332	175.108	-31.544	-0.462	-103.393	38.080	23.672	-103.783	-98.975	2.886	7.146	-99.372	-95.447	-95.372	-89.969	21.320	-90.572	-8191	255	
33178.902	1	1	0	0	0.058157	0.14106	0.10511	0.16455	0.13855	0.083593	0.38079	0.41378	0.12758	0.13298	0.088045	0.22062	0.33118	0.37014	0.064038	0.13371	-1.5604	-1.8083	-2.2229	-2.0417	-1.9771	-2.3375	-2.0583	-2.2458	-2.1896	-1.75	-2.4437	-2.0375	-1.8833	-2.2479	-1.8875	-2.3563	199.475	120.653	82.090	190.330	-52.347	45.428	161.647	211.885	57.734	-36.672	44.936	103.160	-69.157	174.786	123.524	207.952	0.00036067	0.00047792	0.00019552	1446.5	3.6971e-06	4.6109e-06	1429.9	377.85	3.3736e-06	6.6003e-06	438.3	143.78	124.6	42.638	4.1613e-06	52.713	0.00063663	0.00094138	0.00025435	1467	9.4003e-06	1.0315e-05	1453.7	385.51	9.2843e-06	1.0423e-05	446.23	147.81	129.02	44.051	9.633e-06	54.353	169.892	-28.269	-41.144	-103.181	0.316	30.574	-103.707	-99.097	-57.729	26.718	-99.547	-95.458	-95.481	-89.829	36.798	-90.812	-8191	255	
33179.023	1	1	0	0	0.1309	0.15833	0.11763	0.41295	0.10231	0.30336	0.41977	0.20527	0.072431	0.076859	0.053554	0.19458	0.37696	0.39028	0.10608	0.0058325	-1.7229	-1.6083	-2.0458	-1.9458	-1.8542	-2.3146	-2.0042	-2.0479	-2.1021	-1.7979	-2.3125	-1.975	-1.8646	-2.3792	-1.8146	-2.0458	-22.390	111.487	25.191	185.835	-96.505	2.679	161.170	157.547	75.710	89.691	-11.548	70.727	215.207	-102.966	41.844	-23.993	0.00035596	0.00031929	0.00016989	1444.6	3.1501e-06	4.1166e-06	1429.5	378.22	3.6601e-06	4.667e-06	438.26	143.56	123.36	42.778	4.8659e-06	52.787	0.00067005	0.00092963	0.00026101	1465.7	9.8032e-06	1.0188e-05	1456.4	385.67	9.7979e-06	1.0516e-05	446.76	147.5	128.29	44.098	9.8873e-06	54.491	177.213	-24.440	-14.472	-103.545	40.256	43.473	-103.726	-99.244	-55.458	72.340	-99.180	-95.168	-95.454	-89.948	15.186	-90.808	-8191	255	
33179.117	1	1	0	0	0.10285	0.45636	0.015745	0.3501	0.10934	0.15036	0.32364	0.20209	0.44802	0.14997	0.16442	0.25491	0.059883	0.13513	0.22162	0.010765	-1.85	-1.65	-2.0375	-2.175	-1.8062	-2.2562	-1.8813	-2.0875	-2.1667	-1.9458	-2.1396	-2.1208	-1.7958	-2.3458	-1.9042	-2.0896	-43.279	-108.085	240.693	116.304	48.028	-4.124	200.344	119.901	50.360	-57.495	208.892	237.420	15.026	-40.081	-40.968	242.540	0.00033944	0.0005935	0.00013668	1443.8	2.3168e-06	3.7389e-06	1428.4	377.76	1.0552e-06	5.0502e-06	435.47	144.01	124.13	42.897	3.544e-06	52.699	0.00065041	0.00091107	0.00025159	1466.8	9.6351e-06	9.832e-06	1456	385.72	9.2835e-06	1.0313e-05	445.66	147.53	128.74	44.128	9.7351e-06	54.421	175.539	-40.207	-40.961	-103.513	44.466	37.875	-103.665	-99.104	-29.206	26.183	-99.643	-95.156	-95.293	-89.886	30.306	-90.440	-8191	255	
33179.215	1	1	0	0	0.30474	0.16254	0.20418	0.45897	0.34227	0.097095	0.10169	0.15096	0.24095	0.0497	0.12502	0.1237	0.092591	0.22496	0.2033	0.24408	-1.5125	-1.6771	-2.1521	-2.375	-1.6583	-2.1542	-2.1125	-2.2021	-2.0479	-1.7708	-2.1937	-2.2	-1.5708	-2.3	-2.1188	-1.9021	242.872	67.624	239.951	218.844	147.988	-51.845	118.634	-108.238	103.360	-95.731	184.445	22.097	34.796	121.136	64.408	133.873	0.00032966	0.00039164	0.00015745	1444.9	3.5401e-06	4.7551e-06	1430.3	376.16	4.3669e-06	7.0525e-06	438.77	144.17	124.74	42.893	3.4905e-06	52.717	0.00063215	0.00094399	0.00024751	1464.3	9.4954e-06	1.0302e-05	1454.2	385.27	9.5461e-06	1.018e-05	446.78	147.61	129.03	44.108	9.8229e-06	54.344	175.769	-35.786	-14.329	-103.587	-4.730	32.017	-103.726	-99.091	-11.481	29.438	-99.650	-95.324	-95.518	-90.028	40.749	-91.062	-8191	255	
33179.336	1	1	0	0	0.023161	0.38171	0.061438	0.21247	0.084409	0.22985	0.25389	0.23989	0.18191	0.10152	0.070029	0.023301	0.045256	0.10845	0.39045	0.32294	-1.7687	-1.725	-2.0438	-2.1562	-1.4729	-2.3271	-2.1312	-1.8354	-2.0771	-1.9417	-1.8937	-2.2687	-1.7396	-2.1292	-1.9229	-1.6917	-9.234	221.445	98.783	168.367	46.630	50.340	-69.997	185.854	204.147	28.829	-86.752	213.771	6.480	223.115	84.567	170.048	0.00032265	0.00045226	0.00016102	1447	4.6164e-06	1.9869e-06	1429.9	377.36	4.8471e-06	7.0942e-06	435.76	143.49	123.2	43.019	5.0536e-06	52.804	0.0006531	0.00090914	0.00025844	1465.4	9.7236e-06	1.0336e-05	1454.4	385.7	9.3607e-06	1.025e-05	446.22	147.57	128.5	44.145	9.7526e-06	54.394	174.198	-13.136	-20.280	-103.561	-4.500	50.698	-103.632	-99.115	-12.051	9.710	-99.230	-95.110	-95.652	-90.021	28.344	-90.586	-8191	255	
33179.406	1	1	0	0	0.2478	0.19823	0.20115	0.10977	0.11108	0.026092	0.10313	0.31071	0.11643	0.25149	0.081791	0.22482	0.17232	0.065778	0.027813	0.090918	-1.8458	-1.875	-1.8042	-2.1604	-1.5562	-2.0438	-2.2625	-1.8396	-2.1896	-1.8708	-1.8729	-2.3187	-1.7667	-2.2521	-2.2188	-1.6896	-88.512	12.137	151.863	127.424	33.705	149.509	-58.734	179.274	186.250	-82.617	229.085	69.031	239.253	234.030	193.426	132.672	0.0003314	0.00040847	0.00019522	1439	4.3923e-06	4.5227e-06	1426.5	376.86	2.5332e-06	7.4864e-06	434.11	143.84	124.05	42.786	1.6673e-06	52.732	0.00064833	0.0009549	0.00025636	1465	9.6562e-06	1.0112e-05	1453.1	385.52	9.3453e-06	1.0037e-05	444.74	147.72	128.31	44.14	9.7986e-06	54.338	178.057	-26.870	-3.588	-103.286	17.606	38.081	-103.856	-99.061	-7.488	44.731	-99.420	-95.240	-95.147	-89.852	12.005	-90.616	-8191	255	
33179.504	1	1	0	0	0.099582	0.23682	0.16278	0.14552	0.12788	0.065101	0.11156	0.36908	0.11532	0.33524	0.091012	0.048999	0.18402	0.16904	0.15325	0.1192	-1.675	-1.8396	-1.9958	-2.2792	-1.9	-2.1208	-2.2271	-1.8208	-2.2708	-2.0625	-1.9458	-2.375	-1.9438	-2.0771	-2.0812	-1.8375	-49.802	175.201	1.974	197.368	120.046	-86.161	137.230	218.296	-36.904	75.792	234.406	-81.616	-62.606	-60.627	241.914	92.798	0.00034184	0.00060011	0.00011028	1445.9	3.2313e-06	5.2658e-06	1424.5	376.58	4.2147e-06	5.3346e-06	439.3	143.24	123.31	43.079	3.6311e-06	52.756	0.00064447	0.00089797	0.00025579	1467.6	9.6603e-06	9.8073e-06	1452.4	385.09	9.2765e-06	1.0007e-05	447.83	147.19	128.8	44.197	9.5602e-06	54.372	178.390	-28.898	11.037	-103.414	37.902	49.390	-103.649	-99.060	14.221	30.279	-99.181	-95.301	-95.314	-90.155	26.998	-90.862	-8191	255	
33179.602	1	1	0	0	0.13057	0.12239	0.23845	0.10701	0.34201	0.14444	0.23841	0.11836	0.0026219	0.18502	0.26903	0.11184	0.066606	0.19656	0.094572	0.36126	-1.7417	-1.8687	-1.6042	-2.2938	-1.7479	-2.1354	-2.4458	-1.9583	-2.05	-1.8687	-1.7333	-2.4583	-1.9229	-1.9937	-2.05	-1.6313	-112.238	158.170	1.610	34.568	143.566	-59.160	162.330	211.021	150.705	138.097	167.123	-110.081	81.791	237.680	171.123	213.505	0.00032977	0.00058736	0.00017182	1448	3.1902e-06	4.8473e-06	1428	377.82	3.9781e-06	5.7137e-06	436.65	143.31	124.22	42.879	3.8132e-06	52.568	0.00064818	0.00089193	0.00025603	1467.7	9.3426e-06	9.952e-06	1454.5	385.55	9.2016e-06	1.0507e-05	446.69	147.57	129.09	44.148	9.597e-06	54.43	176.997	-32.301	-16.797	-103.352	8.392	27.738	-103.919	-99.135	-19.906	38.903	-99.473	-95.315	-95.154	-90.033	-1.136	-90.801	-8191	255	
33179.723	1	1	0	0	0.31079	0.27108	0.047001	0.15935	0.048081	0.079467	0.29794	0.097621	0.098857	0.12191	0.10724	0.1867	0.30407	0.23104	0.17505	0.31654	-1.675	-2.0167	-1.6979	-2.3	-1.8958	-1.7771	-2.2333	-1.8167	-2.2333	-2.0938	-1.6979	-2.3812	-2.0854	-1.9208	-2.1875	-1.95	162.995	19.335	124.228	199.709	-63.490	-74.073	202.432	99.112	149.762	-3.205	14.078	225.919	-101.583	-105.725	105.301	210.009	0.00034945	0.00043487	8.9882e-05	1442.2	4.1628e-06	2.9073e-06	1430.8	376.69	3.211e-06	4.4528e-06	439.73	143.19	124.14	42.716	5.4436e-06	52.716	0.00065292	0.00090494	0.00025721	1465	9.6733e-06	1.0003e-05	1456.4	385.38	9.3005e-06	1.0197e-05	445.97	147.27	128.76	44.095	9.7886e-06	54.504	173.234	-23.794	-29.908	-103.733	11.517	12.910	-103.872	-99.056	1.764	24.093	-99.383	-95.374	-95.551	-89.976	16.339	-90.687	-8191	255	
33179.816	1	1	0	0	0.078376	0.26685	0.27974	0.084856	0.40271	0.26386	0.31218	0.24973	0.12588	0.18586	0.1661	0.41135	0.17034	0.19148	0.18866	0.15129	-1.5542	-2.1583	-1.6104	-2.1813	-2.1813	-1.9271	-2.3542	-1.8833	-1.9521	-2.1521	-1.7354	-2.1375	-1.8958	-1.9333	-2.1271	-2.0563	96.344	75.347	-98.180	-83.291	238.497	51.323	150.391	207.364	226.028	179.463	134.726	180.353	-86.391	185.271	-95.369	36.435	0.00032318	0.00060212	0.00010451	1442.4	3.1222e-06	5.8688e-06	1426.9	376.85	2.1849e-06	4.95e-06	438.14	143.76	124.15	42.985	4.2567e-06	52.744	0.00064738	0.00089554	0.00025896	1465.2	9.5628e-06	1.0292e-05	1454.1	385.48	9.3623e-06	1.0426e-05	445.58	147.61	128.79	44.182	9.5761e-06	54.464	173.187	-51.816	-25.636	-103.297	24.639	28.344	-103.910	-99.134	-30.606	40.077	-99.684	-95.376	-95.703	-90.127	4.343	-90.646	-8191	255	
33179.914	1	1	0	0	0.1423	0.16268	0.034312	0.12709	0.14267	0.21609	0.35168	0.24966	0.056648	0.10797	0.092095	0.1789	0.068798	0.2542	0.3248	0.12962	-1.4896	-2.1021	-1.6458	-2.3271	-2.1708	-1.7313	-2.4958	-2.1917	-1.8354	-2.2313	-1.9521	-2.1063	-2.0354	-1.7729	-2.1583	-2.1708	198.027	-70.809	103.772	-93.903	-105.269	41.496	188.060	-91.799	58.471	-67.108	-55.176	-54.602	28.597	167.143	-22.707	227.186	0.00031756	0.00055116	0.00012942	1435.8	3.5887e-06	5.4249e-06	1425.9	379.01	2.9568e-06	4.8992e-06	437.33	144.14	124.49	42.928	3.6628e-06	52.693	0.00066283	0.00089604	0.00026915	1465.8	9.8374e-06	1.0536e-05	1454.8	386.25	9.7237e-06	1.0467e-05	446.09	147.62	129.1	44.093	9.9668e-06	54.383	173.196	-47.663	-51.374	-103.406	19.921	12.892	-103.746	-98.849	-17.419	40.847	-99.246	-95.047	-95.541	-90.127	-0.692	-90.748	-8191	255	
33179.984	1	1	0	0	0.1367	0.1899	0.027171	0.17273	0.18702	0.18406	0.44088	0.43002	0.045206	0.095468	0.24486	0.049954	0.15098	0.19287	0.12395	0.24518	-1.5229	-2.2146	-1.6104	-2.1271	-2.0625	-1.5646	-2.1937	-2.1229	-1.8146	-2.2229	-1.6812	-2.1292	-1.9875	-1.8917	-1.9979	-1.8854	-51.295	203.775	-27.878	148.848	55.638	-31.890	126.985	182.768	121.281	3.072	229.690	-108.856	122.004	-82.257	-115.279	223.494	0.00030421	0.00045897	0.00016525	1437.9	2.9949e-06	4.061e-06	1424.9	377.23	2.9393e-06	8.1272e-06	441.1	144.17	124.17	42.864	2.0606e-06	52.718	0.00065624	0.00091569	0.0002599	1468.4	9.7553e-06	1.0561e-05	1455.1	385.27	9.7485e-06	1.0453e-05	447.13	147.63	128.76	44.088	9.5401e-06	54.27	179.856	-39.500	-19.209	-103.292	15.464	29.430	-103.758	-99.093	4.744	39.660	-99.281	-95.408	-95.325	-90.235	3.608	-90.656	-8191	255	
33180.102	1	1	0	0	0.30665	0.1655	0.13233	0.067753	0.17804	0.10109	0.11312	0.20785	0.10695	0.077631	0.06803	0.18021	0.17637	0.16268	0.1068	0.1895	-1.3667	-2.0458	-1.6479	-1.925	-2.1208	-1.6521	-2.1875	-2.0604	-1.6375	-2.1688	-1.8542	-1.9062	-2.2062	-1.6812	-2.0021	-1.9562	-64.850	20.722	180.630	-91.543	84.644	177.053	183.111	112.502	212.354	-12.878	217.971	207.913	166.706	-106.948	81.423	161.058	0.00034367	0.00038915	0.00018923	1444.6	4.0298e-06	5.1318e-06	1435.1	376.49	8.1509e-07	3.11e-06	437.1	143.41	124.07	43.026	4.7519e-06	52.692	0.00066608	0.00092249	0.00026113	1467.4	9.7789e-06	1.0404e-05	1456.9	385.24	9.6596e-06	1.0089e-05	446.13	147.49	128.94	44.166	9.8162e-06	54.399	182.508	-20.875	-32.420	-103.504	40.675	29.552	-103.688	-99.071	-19.442	3.772	-99.412	-95.159	-95.538	-90.136	6.965	-90.751	-8191	255	
33180.199	1	1	0	0	0.16214	0.087718	0.075509	0.11688	0.078935	0.23388	0.19012	0.22244	0.26616	0.24886	0.17033	0.19221	0.08759	0.26266	0.19668	0.066728	-1.3062	-1.9062	-1.8083	-1.7917	-1.9229	-1.8958	-2.25	-2.1167	-1.4333	-2.0604	-1.9688	-1.7938	-2.2062	-1.6771	-1.8208	-2.2458	48.514	-28.720	24.194	133.987	200.949	175.604	229.307	226.000	140.010	-84.641	-24.156	131.614	236.616	200.021	-115.073	74.925	0.00034745	0.00077806	0.00019325	1453.5	3.7982e-06	5.6476e-06	1430.7	378.12	3.7227e-06	7.2311e-06	436.62	143.85	123.24	42.88	1.2569e-06	52.483	0.00067701	0.00092022	0.00026953	1469.1	9.7683e-06	1.034e-05	1454.6	385.78	1.0213e-05	1.0418e-05	446.05	147.76	128.37	44.102	9.6648e-06	54.4	178.344	-39.238	-39.053	-103.521	6.154	28.916	-103.624	-98.964	-11.572	33.485	-99.309	-95.170	-95.441	-89.952	43.963	-90.961	-8191	255	
33180.297	1	1	0	0	0.02351	0.25099	0.19147	0.1826	0.037831	0.1973	0.067016	0.18019	0.14155	0.15163	0.33616	0.27836	0.04134	0.52223	0.045732	0.36267	-1.2354	-1.9792	-1.9729	-1.7792	-1.925	-1.5542	-2.1458	-2.3208	-1.7104	-2.175	-1.9667	-1.7396	-2.0896	-1.9229	-1.9229	-2.275	-55.523	169.676	85.099	88.371	-99.766	179.706	37.179	219.248	142.415	-51.652	46.160	-77.520	6.511	200.464	206.719	229.045	0.00034592	0.00048686	0.00013948	1447.6	3.8168e-06	6.6898e-06	1434.5	378.66	3.0124e-06	7.307e-06	438.66	143.22	123.85	42.755	2.1861e-06	52.72	0.00067351	0.0009193	0.00025858	1471	9.7155e-06	1.0549e-05	1457.7	385.59	9.665e-06	1.0238e-05	446.66	147.7	128.65	44.078	1.0164e-05	54.4	173.464	-34.055	-33.959	-103.494	8.130	35.169	-103.657	-99.049	-4.798	18.534	-99.489	-95.234	-95.182	-90.002	29.970	-90.654	-8191	255	
33180.414	1	1	0	0	0.14578	0.13046	0.04512	0.10102	0.12954	0.19003	0.015649	0.1872	0.20722	0.17261	0.18998	0.15841	0.17906	0.068927	0.092076	0.08292	-1.2708	-2.1479	-1.9083	-1.7833	-2.1396	-1.5583	-2.075	-2.1937	-1.5729	-1.9062	-1.8417	-1.7521	-2.1375	-1.8354	-1.8833	-2.2	229.250	100.856	156.117	-39.620	217.556	48.397	94.742	175.241	81.157	57.903	240.306	183.978	-115.633	14.934	240.050	9.137	0.00033763	0.00046741	0.00017729	1445.8	3.629e-06	5.9616e-06	1425	376.96	3.1303e-06	7.4272e-06	435.13	144.09	123.79	42.865	2.5958e-06	52.703	0.00066753	0.00092745	0.00026854	1469.7	9.6042e-06	1.0634e-05	1455	385.91	9.7539e-06	1.0524e-05	444.97	147.69	128.69	44.101	1.017e-05	54.328	172.062	-54.257	-19.461	-103.507	16.779	44.227	-103.878	-99.212	-20.167	36.148	-99.520	-95.260	-95.413	-89.825	45.217	-90.576	-8191	255	
33180.512	1	1	0	0	0.19981	0.099306	0.10221	0.20052	0.10735	0.064721	0.28515	0.39949	0.060987	0.13357	0.13065	0.13147	0.24243	0.2291	0.12642	0.079228	-1.2542	-2.0708	-1.8	-1.7479	-2.1625	-1.7458	-1.6688	-2.2313	-1.5938	-1.8771	-1.9979	-1.7479	-2.1604	-1.9083	-1.7167	-2.25	148.011	-83.221	26.809	-73.574	-24.850	-3.668	180.823	176.506	11.853	236.065	147.279	-37.871	89.340	206.591	234.207	26.508	0.0003498	0.00063386	0.00015063	1446.5	2.8179e-06	5.541e-06	1427.6	378.09	3.8365e-06	5.3871e-06	438.07	143.84	122.8	43.023	4.3733e-06	52.737	0.00067085	0.00090637	0.00026195	1471	9.8658e-06	1.0497e-05	1456.9	385.41	1.0053e-05	1.0573e-05	447.19	147.74	128.42	44.164	9.6589e-06	54.408	173.955	-15.727	-21.343	-103.352	-13.080	21.926	-103.707	-99.153	-18.071	13.555	-99.164	-95.578	-95.286	-89.868	-4.220	-90.661	-8191	255	
33180.609	1	1	0	0	0.18711	0.26486	0.080482	0.066318	0.080662	0.18262	0.18877	0.060958	0.12771	0.12146	0.15914	0.099103	0.11306	0.097889	0.14409	0.29515	-1.2479	-1.6604	-1.8854	-1.8521	-2.0979	-1.6562	-1.8563	-2.1521	-1.5104	-1.8	-2.1854	-1.6771	-1.9062	-2.0542	-1.6917	-2.2042	-110.126	-15.405	37.721	217.715	77.691	-22.373	200.891	92.894	-63.631	49.991	193.149	136.624	47.704	58.356	99.706	-91.496	0.00034577	0.00047766	0.00016767	1445.6	3.8826e-06	5.29e-06	1430.9	377.65	4.3054e-06	4.3659e-06	437.39	143.84	123.75	42.737	4.0253e-06	52.991	0.00067001	0.00095902	0.00025966	1472.5	9.6952e-06	1.0663e-05	1458.4	386.26	9.7052e-06	1.0628e-05	446.86	147.71	128.65	44.118	9.6497e-06	54.462	178.592	-28.614	-22.292	-103.497	14.386	21.423	-103.780	-99.040	-2.562	54.148	-99.428	-95.220	-95.639	-89.983	21.623	-90.895	-8191	255	
33180.703	1	1	0	0	0.089496	0.36001	0.20778	0.23583	0.15718	0.18775	0.084906	0.32083	0.088363	0.13539	0.1325	0.18259	0.15018	0.26695	0.13103	0.13348	-1.2917	-1.7083	-2.1854	-1.8333	-1.85	-2	-1.7292	-2.1875	-1.7875	-1.6688	-2.1771	-1.7833	-1.8646	-1.8438	-1.7646	-2.2625	-10.064	121.320	-0.817	203.534	227.233	191.437	161.968	130.898	-18.263	-32.976	219.217	228.680	213.813	209.667	82.245	222.533	0.00034118	0.00047218	9.8101e-05	1449.2	4.7935e-06	4.729e-06	1428.2	378.19	2.4154e-06	4.8464e-06	436.15	143.72	124.31	42.92	4.6449e-06	52.808	0.00067504	0.0009418	0.00025912	1471.1	9.7976e-06	1.0467e-05	1454.7	386.07	9.4495e-06	1.0097e-05	446.2	147.91	128.95	44.202	9.8564e-06	54.551	178.548	-3.395	-33.036	-103.497	10.987	29.066	-103.841	-98.937	6.537	47.282	-99.557	-95.241	-95.442	-90.035	19.469	-90.838	-8191	255	
33180.801	1	1	0	0	0.18016	0.1446	0.26173	0.12324	0.17589	0.17579	0.28413	0.18018	0.16206	0.3115	0.18956	0.29274	0.038269	0.085798	0.099772	0.19934	-1.2667	-1.8563	-2.0563	-1.6792	-1.7229	-2.0771	-1.8354	-2.175	-2.0396	-1.9292	-2.2458	-1.725	-1.8813	-2.3208	-1.6542	-2.0958	119.295	-48.071	-108.009	109.266	96.231	144.845	184.027	223.578	158.144	237.740	82.187	179.435	37.176	-40.785	17.027	-83.503	0.0003552	0.00048181	0.00020052	1451.4	4.4252e-06	5.2033e-06	1432.7	376.95	3.882e-06	5.3146e-06	438.45	143.9	123.65	43.134	2.7894e-06	52.715	0.00067825	0.00093567	0.00026764	1471	9.4474e-06	1.0506e-05	1458.7	385.6	9.5886e-06	1.0003e-05	447.34	147.67	129.18	44.25	9.9099e-06	54.475	177.320	-6.603	-29.489	-103.329	-14.974	20.136	-103.542	-99.005	-24.061	37.223	-99.866	-95.455	-95.309	-89.926	-6.932	-90.665	-8191	255	
33180.898	1	1	0	0	0.23394	0.15794	0.2146	0.34204	0.41468	0.10853	0.15071	0.18946	0.23202	0.38846	0.14462	0.21933	0.18904	0.10553	0.039176	0.13815	-1.4292	-1.6562	-2.2313	-1.7979	-1.8021	-2.1771	-1.7792	-2.0292	-1.8979	-1.7125	-2.1833	-2.1	-1.925	-2.2167	-1.5125	-2.1667	177.157	99.687	148.841	127.973	200.136	102.418	212.857	165.565	151.078	-24.858	181.463	78.412	130.548	224.988	-25.166	193.363	0.00035228	0.00060314	0.00013173	1446.4	4.3481e-06	5.7474e-06	1427.2	377.8	2.1962e-06	5.6766e-06	439.65	143.91	124.18	43.015	4.2033e-06	52.625	0.00065307	0.00094567	0.00025811	1471.2	1.0037e-05	9.8311e-06	1457.5	385.72	9.6573e-06	1.0544e-05	447.73	147.91	129.17	44.18	1.0055e-05	54.492	173.776	-57.403	-28.895	-103.341	15.529	25.536	-103.867	-99.179	-64.725	27.769	-99.571	-95.190	-95.431	-90.266	8.847	-90.905	-8191	255	
33181.020	1	1	0	0	0.057245	0.20955	0.23857	0.26787	0.21893	0.10106	0.24769	0.31616	0.16318	0.21355	0.080488	0.23463	0.12936	0.19366	0.35419	0.041933	-1.6146	-1.5458	-2.1167	-1.8708	-1.7229	-2.1979	-1.9375	-2.1042	-1.8271	-1.8563	-2.3063	-1.8312	-1.8188	-2.2917	-1.75	-1.9188	-23.280	78.684	-105.487	182.612	76.129	153.929	199.712	212.530	20.445	121.673	32.169	-33.651	103.204	28.203	78.410	68.133	0.00034393	0.00047361	0.00010365	1449.5	4.6148e-06	3.941e-06	1432.9	378.05	2.2032e-06	6.0783e-06	435.87	143.58	124.47	42.932	5.0609e-06	52.707	0.00065999	0.00093114	0.00026188	1470.6	9.3963e-06	1.0354e-05	1459.9	385.75	9.7129e-06	1.0755e-05	446.28	147.87	129.14	44.262	9.7384e-06	54.422	178.918	-6.734	-39.403	-103.500	19.257	31.953	-103.797	-99.135	-14.567	21.737	-99.716	-95.208	-95.495	-89.945	-12.558	-90.619	-8191	255	
33181.113	1	1	0	0	0.12213	0.076361	0.066531	0.2562	0.21752	0.15293	0.31273	0.18243	0.20291	0.20724	0.10572	0.19192	0.095729	0.31962	0.20184	0.17117	-1.6729	-1.6875	-2.0667	-2.0312	-1.6917	-2.1937	-1.8833	-2.025	-2.0354	-1.7271	-1.975	-1.8854	-1.7083	-2.1458	-1.6938	-1.8875	-3.174	85.079	229.866	217.392	31.749	-112.012	183.895	135.732	217.158	226.278	196.242	122.468	-4.496	-97.313	-52.809	106.989	0.00031904	0.00051027	0.00021991	1445.4	4.1408e-06	4.4014e-06	1436.6	376.89	4.0056e-06	5.2953e-06	438.96	143.69	124.72	42.865	2.9751e-06	52.785	0.00064028	0.00092383	0.00025589	1467.5	9.6448e-06	9.673e-06	1457.1	385.23	9.5901e-06	1.0451e-05	447.11	147.65	129.12	44.158	9.643e-06	54.431	172.081	-36.121	-32.857	-103.348	0.965	22.085	-103.620	-99.059	-26.524	32.429	-99.549	-95.172	-95.504	-89.901	-1.560	-90.764	-8191	255	
33181.207	1	1	0	0	0.21536	0.39286	0.23328	0.23114	0.13885	0.065202	0.25963	0.30686	0.16158	0.13834	0.16768	0.018996	0.25331	0.18492	0.17723	0.44485	-1.6313	-1.6521	-1.8125	-1.9562	-1.4604	-2.175	-2.0062	-1.9146	-2.1188	-1.7917	-2.1125	-2.0458	-1.7375	-2.1896	-1.7604	-1.9396	-57.559	191.417	131.765	214.557	-104.381	93.931	171.305	233.141	-93.764	-24.344	116.780	-43.908	134.882	228.946	240.874	139.599	0.00035833	0.00049263	0.00015029	1445.5	4.0426e-06	4.9137e-06	1432.1	376.72	2.0646e-06	4.8072e-06	434.21	143.61	123.67	42.977	4.295e-06	52.907	0.00064188	0.00092745	0.00025202	1468.4	9.8617e-06	1.0031e-05	1456.6	385.66	9.3121e-06	1.0349e-05	444.58	147.64	128.54	44.205	1.0107e-05	54.409	177.197	-41.123	-5.090	-103.475	-2.521	21.643	-103.753	-99.002	-5.754	47.452	-99.621	-95.444	-95.298	-89.791	13.818	-90.672	-8191	255	
33181.281	1	1	0	0	0.10169	0.099278	0.346	0.21817	0.18904	0.23102	0.42091	0.10251	0.16741	0.38696	0.21753	0.45323	0.07378	0.16453	0.18213	0.12076	-1.7708	-1.725	-1.8687	-2.1208	-1.5458	-1.9958	-2.0208	-2.0542	-2.1208	-1.8833	-1.9562	-2.0208	-1.7646	-2.1479	-1.8563	-1.7542	61.385	-58.782	163.027	195.052	85.612	86.846	186.823	215.524	-39.767	120.601	148.063	226.302	-111.732	212.518	-47.113	51.001	0.00036189	0.0002781	0.00018732	1439.8	4.2492e-06	5.8016e-06	1426.8	377.62	3.5531e-06	3.7024e-06	435.5	143.81	124.53	42.964	3.0463e-06	52.585	0.00064312	0.00092619	0.00025728	1469.2	9.6473e-06	9.9596e-06	1454.7	385.25	9.4333e-06	1.0136e-05	446.22	147.91	129.06	44.163	9.8572e-06	54.338	177.072	-28.400	-48.088	-103.367	23.711	50.402	-103.866	-99.228	-27.868	23.034	-99.538	-95.211	-95.210	-90.056	6.158	-90.567	-8191	255	
33181.402	1	1	0	0	0.18774	0.11768	0.18978	0.10779	0.16107	0.2259	0.22406	0.12719	0.037223	0.089415	0.13958	0.13122	0.084669	0.058583	0.23722	0.083081	-1.8146	-1.8708	-1.7167	-2.1958	-1.6063	-2.1688	-2.1375	-1.7271	-2.125	-1.8937	-1.9958	-2.2271	-1.7042	-2.15	-1.8604	-1.8042	-109.837	96.293	-15.484	13.153	39.072	-10.248	150.553	206.551	232.334	90.610	-9.292	198.077	223.701	-99.375	-15.811	146.532	0.00033545	0.00055373	0.00014499	1447.8	4.2215e-06	5.7053e-06	1421.7	377.08	2.5214e-06	5.2014e-06	437.1	143.82	123.76	42.854	4.6539e-06	52.686	0.00064144	0.00095532	0.00025407	1467.2	9.5815e-06	1.028e-05	1449.8	385.36	9.455e-06	9.996e-06	446.26	147.56	128.69	44.141	9.9241e-06	54.451	177.080	-38.906	-3.571	-103.419	32.812	22.418	-103.760	-99.126	-37.344	36.879	-99.361	-95.264	-95.149	-89.947	22.915	-90.968	-8191	255	
33181.496	1	1	0	0	0.14472	0.18896	0.1513	0.21385	0.2311	0.077271	0.26286	0.22381	0.095192	0.076756	0.095411	0.15828	0.25439	0.064751	0.093943	0.10896	-1.6625	-1.6875	-1.7625	-2.4062	-1.7646	-2.1188	-2.4979	-1.8146	-1.9708	-1.9771	-1.825	-2.2812	-1.725	-2.1458	-2.1146	-1.7979	-56.881	182.549	167.295	189.406	-62.961	96.079	155.030	140.556	163.075	-61.803	-51.699	153.718	225.460	214.890	187.050	226.974	0.00035803	0.0003801	0.0001662	1440	4.4098e-06	5.54e-06	1426.8	376.89	3.4025e-06	4.546e-06	438.73	143.62	123.96	42.864	4.8709e-06	52.759	0.00064567	0.00091107	0.00025502	1466.2	9.7431e-06	1.0346e-05	1453.2	385.47	8.9699e-06	1.0075e-05	446.4	147.66	128.7	44.129	9.413e-06	54.375	176.177	-21.788	-11.327	-103.569	37.166	19.542	-103.653	-99.077	-10.908	39.225	-99.242	-95.327	-95.135	-90.180	-0.238	-90.526	-8191	255	
33181.594	1	1	0	0	0.058305	0.089234	0.19267	0.15476	0.25542	0.14145	0.13263	0.18694	0.22536	0.09854	0.28262	0.18043	0.14439	0.087436	0.26189	0.089807	-1.6083	-1.9083	-1.6896	-2.3375	-1.6104	-1.7042	-2.4292	-1.8875	-2.1604	-1.9896	-1.7083	-2.4125	-1.8208	-1.9375	-2.3208	-1.6	155.103	15.612	85.173	201.588	-81.261	241.622	-9.634	160.166	-21.273	-5.696	234.216	175.342	-26.297	53.979	131.791	145.544	0.00032969	0.00062912	0.00023148	1445	3.4379e-06	5.0156e-06	1430.7	377.26	4.1629e-06	7.4065e-06	438.64	143.85	124.35	42.932	3.688e-06	52.546	0.0006233	0.00090796	0.0002524	1465.6	9.9162e-06	1.036e-05	1454.8	385.31	9.4658e-06	1.0076e-05	446.52	147.79	128.98	44.144	9.7853e-06	54.388	175.793	-19.027	-19.680	-103.402	22.743	24.811	-103.810	-99.021	-17.260	46.748	-99.486	-95.496	-95.295	-89.960	7.561	-90.716	-8191	255	
33181.688	1	1	0	0	0.14819	0.065043	0.086938	0.19261	0.33049	0.10083	0.080102	0.13955	0.18458	0.03823	0.11692	0.21744	0.13667	0.31169	0.034313	0.185	-1.4312	-1.7708	-1.7062	-2.2167	-1.8	-1.9854	-2.0687	-1.8229	-1.8917	-2.0958	-1.875	-2.275	-1.925	-1.9937	-2.1833	-1.8479	113.249	175.783	122.252	-106.460	-14.723	105.998	234.495	228.155	92.860	234.960	62.130	-46.177	124.072	-112.335	-34.697	161.958	0.00032773	0.00050773	0.00017072	1444	4.4385e-06	5.0041e-06	1428.4	377.02	3.1332e-06	6.4778e-06	437.62	143.72	123.88	42.931	3.176e-06	52.673	0.00065343	0.00090167	0.00025804	1468.1	9.4499e-06	1.0312e-05	1454.4	385.24	9.1869e-06	1.0034e-05	446.49	147.84	128.54	44.204	9.4556e-06	54.353	179.548	-38.742	-11.732	-103.534	7.529	28.040	-103.660	-98.997	-33.100	38.668	-99.114	-95.567	-95.621	-89.782	34.283	-90.606	-8191	255	
33181.785	1	1	0	0	0.23598	0.23386	0.1807	0.27693	0.093767	0.19999	0.40861	0.19923	0.15593	0.14717	0.10617	0.12723	0.16122	0.039525	0.25926	0.029203	-1.5896	-1.9688	-1.6562	-2.3854	-1.9229	-1.8104	-2.4375	-1.9583	-1.8667	-1.9771	-1.6938	-2.2167	-2.0271	-1.7333	-2.2021	-1.8125	-76.450	181.701	157.907	134.469	229.603	148.459	168.036	174.738	91.297	33.316	-105.824	152.824	-110.986	-96.306	-68.902	182.746	0.00036837	0.0004116	0.00016322	1447.8	3.0918e-06	4.2502e-06	1426.1	376.4	2.7584e-06	5.6581e-06	436.11	143.46	123.87	42.923	3.9605e-06	52.752	0.00066032	0.00094903	0.00026023	1467.5	9.3321e-06	1.0284e-05	1453.9	385.28	9.3151e-06	1.0483e-05	446.1	147.28	128.72	44.12	9.5535e-06	54.462	174.826	7.952	-29.169	-103.374	14.139	34.212	-103.836	-99.218	-29.978	27.582	-99.721	-95.300	-95.746	-89.753	11.818	-90.827	-8191	255	
33181.883	1	1	0	0	0.32149	0.079214	0.1447	0.098346	0.23781	0.16803	0.36452	0.14464	0.18245	0.052639	0.04029	0.15978	0.12214	0.30097	0.1214	0.16853	-1.4979	-1.9271	-1.6979	-2.1437	-1.8417	-1.7417	-2.4292	-1.8583	-1.8937	-1.9833	-1.7396	-2.1458	-1.8563	-1.8583	-2.0021	-1.8229	178.452	-15.995	48.093	153.487	-7.703	-81.479	220.714	140.069	-23.303	-74.430	-46.121	180.780	126.885	220.450	11.332	171.290	0.00032235	0.00054868	0.00017063	1442.8	2.1149e-06	4.863e-06	1431	376.87	3.6581e-06	6.7946e-06	435.87	143.14	123.65	43.091	6.1341e-06	52.727	0.00064753	0.00092249	0.00026335	1467.7	9.3881e-06	1.0191e-05	1455.8	385.11	9.3375e-06	1.0641e-05	445.94	147.69	128.54	44.233	9.4506e-06	54.383	176.341	-30.131	-23.910	-103.684	3.980	39.906	-103.726	-98.907	-39.974	15.454	-99.694	-95.143	-95.312	-89.971	26.822	-90.703	-8191	255	
33181.977	1	1	0	0	0.10146	0.32482	0.28261	0.20713	0.13928	0.032148	0.29039	0.29109	0.20122	0.37238	0.17303	0.21475	0.13726	0.12108	0.10373	0.22778	-1.3604	-2.0458	-1.6458	-1.9312	-2.0208	-1.7062	-2.2833	-1.8542	-1.7958	-2.0729	-1.6833	-2.0167	-1.9562	-1.7542	-2.2396	-2.0979	114.550	90.535	211.979	228.221	-76.476	86.193	158.819	164.306	-109.509	203.380	206.152	145.929	129.219	151.385	-13.967	-107.854	0.0003557	0.00050325	0.00014761	1441.7	3.3502e-06	3.922e-06	1427.8	375.53	3.4064e-06	4.9457e-06	438.4	143.51	123.97	43.081	3.3086e-06	52.947	0.00064953	0.00090662	0.00025669	1465.2	9.839e-06	1.0337e-05	1454.7	384.61	9.7848e-06	1.0399e-05	445.95	147.55	128.46	44.175	9.5385e-06	54.481	174.412	-29.997	-40.602	-103.396	4.340	13.041	-103.807	-98.898	-33.885	40.936	-99.388	-95.044	-95.361	-89.914	19.132	-90.746	-8191	255	
33182.098	1	1	0	0	0.11529	0.083777	0.20073	0.11052	0.087267	0.12652	0.10416	0.28307	0.049032	0.066803	0.1449	0.096888	0.1741	0.19647	0.23002	0.22063	-1.1979	-2.05	-1.7104	-2.1917	-2.0521	-1.7021	-2.3063	-2.1125	-1.8917	-2.1271	-1.8813	-2.0083	-2.0833	-1.7	-1.975	-1.9333	177.529	-57.474	185.617	-90.349	-114.632	218.291	228.033	167.290	172.011	-90.264	160.360	-106.980	-71.637	207.996	201.068	201.003	0.00030978	0.00058416	0.00017812	1441.7	2.4379e-06	4.9426e-06	1431.8	376.44	2.0787e-06	6.7032e-06	437.38	144.27	123.69	42.991	5.6536e-06	52.933	0.0006394	0.0009104	0.00026231	1465.8	9.2387e-06	1.0392e-05	1456.6	384.76	9.7562e-06	9.8928e-06	445.81	147.48	128.55	44.168	9.3042e-06	54.454	180.388	-27.482	-38.733	-103.635	52.468	35.445	-103.534	-99.297	-22.681	27.273	-99.482	-95.277	-95.516	-90.282	5.206	-90.556	-8191	255	
33182.191	1	1	0	0	0.17314	0.12465	0.16932	0.18333	0.088625	0.11024	0.42125	0.12948	0.19248	0.18564	0.1175	0.16363	0.22975	0.26176	0.24661	0.23058	-1.3833	-1.9562	-1.7333	-2.0354	-2.0667	-1.6125	-2.1604	-2.1229	-1.8708	-2.2042	-1.9792	-1.8312	-2.1896	-1.8125	-2.05	-2.2021	93.695	-92.362	174.239	232.584	210.304	189.224	180.556	-91.268	0.155	69.422	111.483	-66.797	193.071	241.828	183.943	-108.281	0.00030691	0.00037682	0.00016912	1443.9	5.3224e-06	3.8912e-06	1427	377.31	4.4639e-06	6.3416e-06	437.36	143.8	123.8	42.784	4.0886e-06	52.666	0.00064859	0.00088748	0.00025603	1465.4	9.7366e-06	1.0171e-05	1453.1	385.49	9.6596e-06	9.9396e-06	445.5	147.69	128.68	44.148	9.5343e-06	54.353	177.095	-39.461	-30.077	-103.391	35.669	27.588	-103.846	-99.243	-20.815	11.991	-99.656	-95.263	-95.306	-89.799	20.683	-90.843	-8191	255	
33182.289	1	1	0	0	0.35621	0.27341	0.22822	0.34491	0.30658	0.11661	0.28317	0.39522	0.12388	0.062268	0.2345	0.045041	0.05445	0.53465	0.33862	0.25747	-1.2708	-2.025	-1.9896	-1.8896	-2.2021	-1.7	-2.0917	-2.0125	-1.6458	-2.0812	-1.9708	-1.9708	-2.1688	-1.8021	-1.925	-2.2875	32.779	155.976	15.665	174.026	84.832	92.631	126.826	208.974	95.336	240.206	162.996	-93.647	6.368	-81.260	49.909	200.337	0.00034029	0.00058905	0.00013615	1450.3	3.2241e-06	5.1262e-06	1425.3	376.52	3.6242e-06	7.2087e-06	437.36	143.3	124.88	42.78	2.6956e-06	52.668	0.0006546	0.00090738	0.00025159	1468.9	9.4775e-06	1.0338e-05	1453.3	384.89	9.6666e-06	9.7905e-06	446.65	147.52	128.76	44.147	9.377e-06	54.438	173.284	-17.580	-35.235	-103.356	31.071	44.417	-103.814	-98.991	-9.646	24.830	-99.536	-95.389	-95.118	-89.996	45.255	-90.741	-8191	255	
33182.387	1	1	0	0	0.28727	0.31299	0.078519	0.43765	0.064434	0.14872	0.3288	0.25663	0.18948	0.19482	0.09973	0.22398	0.13145	0.12453	0.23769	0.12655	-1.2396	-2.0812	-2.025	-1.9604	-2.0979	-1.7292	-2.2146	-2.0438	-1.8146	-2.0062	-2.075	-1.9667	-2.1292	-1.8625	-1.8042	-2.2271	-50.065	118.793	-51.655	181.454	-61.300	-1.660	183.705	210.134	106.465	-42.757	-75.768	51.935	22.150	125.699	219.703	134.181	0.00033766	0.00063073	0.00014868	1442.7	3.9883e-06	2.8715e-06	1427	376.6	1.9466e-06	7.3834e-06	435.1	143.77	124.33	42.835	2.7054e-06	52.536	0.00065646	0.00088714	0.00025093	1467.2	9.1485e-06	1.0278e-05	1454.3	384.7	9.4372e-06	9.8574e-06	445.16	147.51	129.05	44.119	8.9645e-06	54.394	178.609	-28.489	-13.823	-103.336	2.805	27.884	-103.671	-98.996	-37.349	34.728	-99.763	-95.350	-95.123	-89.872	16.399	-90.535	-8191	255	
33182.504	1	1	0	0	0.19619	0.11656	0.24361	0.42672	0.06392	0.10321	0.23312	0.24482	0.14341	0.18687	0.13756	0.1262	0.28614	0.11953	0.17044	0.3194	-1.4333	-2.0812	-1.925	-1.8937	-2.1083	-1.8667	-1.85	-2.1688	-1.8563	-2.0667	-2.0875	-1.5833	-2.2438	-1.9771	-1.575	-2.2833	179.411	13.850	203.343	-114.255	111.013	-71.002	-56.464	98.752	-108.778	99.612	234.011	-7.354	236.981	231.638	97.523	50.159	0.00035418	0.00050858	0.00017636	1442.4	4.621e-06	6.3302e-06	1431.1	376.78	3.1676e-06	4.5013e-06	437.73	143.56	123.72	42.788	3.6614e-06	52.183	0.00064308	0.00089377	0.00024985	1464	9.4807e-06	1.0053e-05	1453.5	384.63	9.4967e-06	1.0011e-05	445.91	147.5	128.83	44.186	9.5535e-06	54.173	177.385	-26.338	-14.220	-103.543	0.273	20.248	-103.637	-99.209	9.643	39.177	-99.661	-95.006	-95.341	-89.768	14.137	-90.559	-8191	255	
33182.578	1	1	0	0	0.077236	0.15759	0.11167	0.22445	0.18147	0.11839	0.24657	0.27024	0.22253	0.24701	0.1891	0.2845	0.044539	0.16747	0.2472	0.15125	-1.3417	-1.9917	-2.1063	-1.9021	-2.1271	-1.8583	-1.8146	-2.4521	-1.7146	-1.9792	-2.2438	-1.6938	-2.0667	-1.9125	-1.75	-2.3625	18.214	-13.547	77.513	219.537	44.913	118.238	152.356	168.071	184.289	-85.891	150.346	227.487	-56.471	141.363	225.310	186.090	0.00032317	0.00047	0.00018654	1445.8	3.8722e-06	6.1465e-06	1429.6	376.94	2.4914e-06	6.398e-06	435.89	143.32	123.87	42.846	3.8732e-06	52.869	0.00065394	0.00088487	0.00025683	1464.5	9.1493e-06	1.0318e-05	1453.4	385.16	9.5391e-06	9.6175e-06	445.19	147.6	128.64	44.154	9.6171e-06	54.387	180.316	-14.144	-16.875	-103.294	30.186	17.509	-103.760	-99.102	-24.011	38.111	-99.395	-95.228	-95.196	-90.026	20.502	-90.533	-8191	255	
33182.672	1	1	0	0	0.27723	0.041391	0.12892	0.26464	0.17645	0.13832	0.15145	0.1106	0.15511	0.28357	0.069453	0.31057	0.1214	0.036804	0.27648	0.093313	-1.0708	-1.6979	-1.9208	-1.9354	-2.1	-1.8125	-1.7083	-2.3208	-1.8667	-1.8479	-2.0646	-1.8979	-2.0812	-2.0771	-1.6271	-2.1167	61.287	237.266	155.875	230.838	38.613	181.684	-81.155	-104.022	-39.249	49.328	45.683	161.860	77.896	200.811	83.679	184.519	0.00032551	0.00052786	0.00019854	1439.6	3.1849e-06	5.9211e-06	1424.8	376.45	3.2509e-06	3.1018e-06	433.26	143.58	123.52	42.813	3.9157e-06	52.654	0.00065201	0.00089696	0.0002552	1461.8	9.0884e-06	9.7206e-06	1453	384.74	9.2395e-06	9.6137e-06	445.19	147.42	128.44	44.113	9.4707e-06	54.419	177.083	-24.778	-36.016	-103.401	11.919	24.734	-103.690	-98.980	-19.432	24.640	-99.729	-95.302	-95.531	-90.027	43.292	-90.441	-8191	255	
33182.793	1	1	0	0	0.17323	0.30214	0.20004	0.037862	0.31032	0.040503	0.17903	0.19817	0.1853	0.11517	0.21796	0.22793	0.028001	0.094529	0.0838	0.12703	-1.4833	-1.7396	-2.1792	-1.8042	-2.1146	-2.025	-1.9479	-2.2875	-1.8479	-1.9438	-2.2125	-1.7896	-2.0583	-2.0979	-1.6917	-2.3417	42.247	-96.048	-12.430	-73.754	-98.566	231.052	-109.667	155.753	229.678	-41.105	213.044	242.488	168.348	-77.407	117.366	-114.744	0.00035145	0.00042906	0.00016102	1442	4.5001e-06	7.7726e-06	1429.1	376.07	2.2353e-06	4.7597e-06	439.28	144.34	123.7	42.929	3.3667e-06	52.712	0.00067176	0.00088395	0.00025122	1462.6	9.4288e-06	9.9977e-06	1452	384.47	9.4171e-06	9.8937e-06	445.52	147.61	128.66	44.16	9.2749e-06	54.371	178.071	-13.303	-37.577	-103.462	-7.483	34.171	-103.842	-99.074	16.283	18.838	-99.301	-95.230	-95.365	-89.999	26.883	-90.694	-8191	255	
33182.891	1	1	0	0	0.043881	0.089421	0.14482	0.35299	0.088949	0.067521	0.22934	0.20484	0.1318	0.24679	0.13863	0.16073	0.17978	0.16406	0.26147	0.27514	-1.5792	-1.7313	-2.0938	-1.9083	-1.9562	-1.9438	-1.9917	-2.3354	-2.0083	-1.8771	-2.2042	-2.0229	-1.85	-2.2958	-1.6458	-2.0646	209.813	230.669	128.085	164.898	129.490	-96.084	225.645	-113.222	205.571	68.645	66.362	-82.622	172.044	-23.324	-79.088	147.022	0.00033868	0.00050922	0.00013676	1445.2	3.8521e-06	6.9259e-06	1420	377.51	2.8881e-06	4.8953e-06	437.3	142.69	123.02	42.917	3.667e-06	52.874	0.00064673	0.00092753	0.00024798	1465.4	9.5392e-06	9.9739e-06	1451.2	384.96	9.0379e-06	1.0389e-05	445.38	147.47	128.33	44.126	9.3251e-06	54.365	175.571	-20.647	-22.075	-103.421	9.570	22.478	-103.793	-98.894	-17.723	24.432	-99.418	-95.127	-94.972	-89.960	8.615	-90.503	-8191	255	
33182.984	1	1	0	0	0.18955	0.15349	0.081246	0.25126	0.11098	0.21988	0.26055	0.26402	0.24583	0.23703	0.092329	0.26054	0.12462	0.10388	0.30445	0.19637	-1.4188	-1.5312	-2.0833	-1.8813	-1.9854	-2.0917	-1.9479	-2.2062	-2.0625	-1.7729	-2.2625	-1.8833	-1.8875	-2.1292	-1.5125	-1.925	-33.915	-30.665	11.439	156.328	-65.616	188.994	137.148	214.677	-47.101	-80.609	-11.327	86.032	30.220	-72.712	185.868	96.035	0.00031888	0.00024678	0.00016131	1438.5	2.5986e-06	4.5275e-06	1424.6	377.32	2.8189e-06	3.6564e-06	433.73	143.63	123.66	42.88	3.6757e-06	52.817	0.0006417	0.00088622	0.00024071	1463.6	9.4653e-06	9.6807e-06	1451	385.11	9.3105e-06	1.0126e-05	445.19	147.49	128.47	44.156	9.5527e-06	54.417	176.645	-25.944	-26.222	-103.447	32.170	47.512	-103.639	-98.859	7.568	50.427	-99.823	-95.202	-94.967	-90.327	13.129	-90.873	-8191	255	
33183.105	1	1	0	0	0.23283	0.11923	0.31226	0.14973	0.12291	0.089085	0.12349	0.2331	0.2624	0.27129	0.13139	0.14737	0.10633	0.012547	0.1342	0.23955	-1.4083	-1.4854	-1.9062	-2.1417	-1.8708	-2.2729	-1.8896	-1.9188	-1.8563	-1.5583	-2.1792	-2.1146	-1.7396	-2.175	-1.6833	-1.9833	216.693	99.672	72.878	115.059	-44.538	110.506	69.552	241.089	-110.598	94.749	152.789	211.226	148.581	69.051	-102.527	-70.258	0.00033422	0.00059687	0.00013025	1435.2	2.8501e-06	4.7025e-06	1427.6	376.14	2.3627e-06	4.3915e-06	434.1	143.57	122.81	42.92	1.6006e-06	52.536	0.00064079	0.00089747	0.00025171	1462.4	9.2882e-06	9.5788e-06	1452.2	384.58	9.1777e-06	9.9147e-06	444.73	147.57	128.54	44.176	9.4866e-06	54.417	175.478	-25.321	-1.752	-103.425	14.428	36.449	-103.479	-98.952	-21.219	38.513	-99.739	-95.261	-95.720	-89.965	34.767	-90.595	-8191	255	
33183.176	1	1	0	0	0.17588	0.2237	0.032335	0.13035	0.23743	0.051466	0.22737	0.20042	0.10105	0.31642	0.12611	0.22288	0.084321	0.28872	0.15807	0.4668	-1.6979	-1.4604	-1.9292	-1.9625	-1.6958	-2.2021	-1.7167	-1.8667	-1.975	-1.6688	-2.0854	-1.9771	-1.8958	-2.2729	-1.775	-1.8958	142.274	17.510	-2.759	233.228	-65.451	145.913	223.765	165.965	-115.836	205.639	-48.657	169.880	-82.461	-44.849	-97.728	227.324	0.00031119	0.00034992	0.00013176	1440.3	2.6939e-06	6.4067e-06	1421.2	377.95	2.8662e-06	6.7341e-06	433.84	143.22	123.17	42.961	3.8479e-06	52.716	0.00063343	0.00091166	0.00024067	1464.7	9.5977e-06	9.8482e-06	1449.1	385.41	8.9861e-06	1.0064e-05	444.94	147.3	128.62	44.074	9.6313e-06	54.353	176.828	-31.486	-36.045	-103.376	3.514	39.158	-103.601	-99.060	-18.868	29.382	-99.397	-95.298	-95.287	-89.871	9.904	-90.702	-8191	255	
33183.273	1	1	0	0	0.21953	0.42032	0.22839	0.23862	0.22531	0.235	0.34409	0.12844	0.1626	0.15717	0.24852	0.16039	0.27523	0.21143	0.22736	0.054864	-1.7271	-1.7896	-1.9708	-1.9958	-1.7229	-2.0854	-1.9667	-2.0438	-2.1292	-1.6583	-1.8896	-2.1188	-1.6771	-2.125	-1.875	-1.8563	-40.454	60.499	204.168	164.503	7.647	137.738	161.845	162.477	15.971	128.073	-86.694	-10.898	216.931	-11.148	-67.687	93.762	0.00036675	0.00035193	0.00010767	1445.6	2.5856e-06	6.8506e-06	1423.6	376.89	4.1458e-06	5.8093e-06	435.49	144.04	123.44	43.014	3.7824e-06	52.969	0.00067092	0.00090326	0.00024468	1465.4	9.35e-06	1.0046e-05	1448.2	384.71	9.1035e-06	1.0178e-05	446.14	147.67	128.47	44.122	9.7443e-06	54.399	179.831	-42.471	-18.376	-103.404	7.397	53.963	-103.725	-99.245	-2.510	25.893	-99.296	-95.264	-94.875	-89.959	47.726	-90.693	-8191	255	
33183.367	1	1	0	0	0.10876	0.23842	0.12615	0.22794	0.13067	0.14348	0.53516	0.15193	0.23243	0.11729	0.058508	0.22887	0.13013	0.10877	0.13559	0.20069	-1.6479	-1.7208	-1.8167	-2.2396	-1.6104	-2.1167	-2.0687	-2.1167	-2.2208	-1.8	-2.0438	-2.1208	-1.7667	-2.0375	-1.9083	-1.7271	123.158	131.502	-68.418	183.955	156.631	-59.508	140.850	-96.800	-89.432	-11.866	-14.640	-113.404	-43.853	184.867	127.099	227.912	0.00034241	0.00057293	0.00014041	1443	2.8159e-06	6.2665e-06	1426	375.67	3.2223e-06	4.8076e-06	434.54	143.65	124.16	42.854	3.6041e-06	52.482	0.00065948	0.00091603	0.00025608	1465.6	9.2947e-06	9.813e-06	1452.3	384.33	9.3383e-06	1.0291e-05	444.16	147.46	128.77	44.137	9.1787e-06	54.347	173.634	-41.015	-21.668	-103.463	31.748	27.853	-103.710	-99.259	-11.605	35.528	-99.098	-95.440	-95.526	-90.053	38.873	-90.559	-8191	255	
33183.465	1	1	0	0	0.0054419	0.18881	0.039121	0.46701	0.18461	0.088954	0.21582	0.19694	0.092259	0.1608	0.22415	0.12308	0.21032	0.29193	0.28718	0.18668	-1.5271	-1.8542	-1.9813	-2.1875	-1.5167	-1.9604	-2.1604	-1.7125	-2.1312	-1.9292	-1.6375	-2.2521	-1.5042	-1.9875	-2.0875	-1.6437	120.696	-5.124	-49.208	-116.126	162.953	148.699	177.225	-105.923	233.320	74.170	193.626	143.295	46.546	-114.346	108.709	183.675	0.000333	0.0005076	0.00014936	1447.7	3.3144e-06	4.1508e-06	1429	376.78	3.7256e-06	5.7616e-06	436.91	143.82	123.3	42.897	3.323e-06	52.514	0.00064662	0.00090721	0.00025853	1465.4	9.6107e-06	9.9501e-06	1452.8	384.54	9.2008e-06	1.0405e-05	446.38	147.57	128.71	44.092	9.5251e-06	54.313	178.814	-27.315	-29.917	-103.583	12.808	57.785	-103.769	-99.073	-22.171	20.172	-99.268	-95.277	-95.562	-89.809	12.798	-90.426	-8191	255	
33183.586	1	1	0	0	0.094126	0.18905	0.18588	0.12762	0.15577	0.14239	0.43175	0.17904	0.25201	0.26365	0.20185	0.37527	0.13568	0.27281	0.23706	0.12696	-1.6042	-1.7958	-1.8333	-2.4333	-1.8292	-1.8292	-2.3146	-1.7771	-2.0896	-1.9792	-1.7167	-1.9312	-1.6688	-1.925	-1.7917	-1.8229	-28.934	145.158	137.034	127.293	67.609	-1.342	151.315	158.859	-26.216	129.876	29.920	148.495	-6.608	-116.754	213.615	193.227	0.00034694	0.00059417	0.00018438	1445.3	3.6065e-06	6.268e-06	1426	377.14	2.7679e-06	7.9786e-06	434.2	144.44	124.12	42.806	1.4768e-06	52.598	0.00065624	0.00090175	0.00026023	1464.8	9.3012e-06	9.8492e-06	1454.8	384.87	8.8795e-06	1.0092e-05	444.69	147.91	128.91	44.06	9.2147e-06	54.441	171.531	-40.929	-16.879	-103.256	26.049	11.887	-103.650	-99.168	-11.119	41.855	-99.520	-95.478	-95.293	-89.970	3.164	-90.598	-8191	255	
33183.684	1	1	0	0	0.19586	0.17547	0.20179	0.18354	0.095564	0.28547	0.29867	0.11976	0.05854	0.049309	0.088527	0.29517	0.23012	0.18897	0.10387	0.095654	-1.4375	-1.6292	-1.5167	-2.2687	-1.8917	-1.8875	-2.2375	-1.7979	-2.0958	-1.7667	-1.5958	-2.2854	-1.8104	-1.7479	-2.1854	-1.8479	-22.412	-53.217	-7.189	224.514	196.226	24.138	139.293	-77.709	19.999	176.729	117.652	169.635	206.207	161.067	166.586	210.761	0.00034514	0.00054675	0.00021732	1444.3	3.4098e-06	5.218e-06	1425.5	376.25	4.8357e-06	4.9805e-06	436.63	143.53	123.81	42.841	4.5043e-06	52.677	0.00066229	0.00091821	0.00025794	1466.1	9.3061e-06	1.0124e-05	1452.4	384.52	9.4356e-06	1.0336e-05	445.37	147.57	128.7	44.138	9.7886e-06	54.365	180.855	-22.134	-36.712	-103.407	22.592	27.060	-103.514	-99.015	4.172	14.685	-99.564	-95.375	-95.315	-89.795	8.727	-90.659	-8191	255	
33183.777	1	1	0	0	0.13124	0.25819	0.086019	0.16199	0.17157	0.3361	0.24166	0.21237	0.26551	0.15026	0.087913	0.15806	0.14574	0.63239	0.33258	0.2503	-1.2646	-1.9271	-1.6396	-2.3583	-1.7479	-1.7188	-2.2771	-1.7354	-1.9896	-1.9958	-1.5417	-2.0333	-1.7542	-1.7771	-2.0625	-1.8021	-107.455	-4.947	-26.501	156.556	173.684	-28.979	151.740	189.709	-5.150	-92.194	167.747	211.448	181.976	215.004	64.763	-5.780	0.00030801	0.00046536	0.00015932	1441.4	1.7331e-06	2.7835e-06	1428.4	376.63	2.8794e-06	7.0629e-06	435.52	143.45	123.72	42.779	3.5294e-06	52.766	0.00066323	0.00091359	0.00025428	1464.4	9.6391e-06	1.0126e-05	1452.2	384.93	9.2873e-06	1.0177e-05	445.58	147.48	128.63	44.017	9.5125e-06	54.286	175.551	-19.029	-21.912	-103.427	-3.042	13.288	-103.635	-99.152	-34.677	36.599	-99.331	-95.353	-95.511	-89.853	16.990	-90.855	-8191	255	
33183.875	1	1	0	0	0.23835	0.28648	0.12555	0.059111	0.3692	0.147	0.23579	0.15504	0.39126	0.1266	0.022122	0.47323	0.12563	0.05715	0.18155	0.3134	-1.4354	-2.0854	-1.5896	-2.0583	-1.9167	-1.5792	-2.2	-1.6917	-1.7313	-2.025	-1.7771	-1.9583	-1.7854	-1.6896	-1.9729	-1.8458	-103.026	-38.221	92.710	226.726	118.189	88.312	209.272	160.028	204.501	174.513	58.414	-89.009	188.621	-61.501	-3.707	210.082	0.00034106	0.00049806	0.00013443	1437.2	2.6171e-06	6.9251e-06	1422	376.24	2.2042e-06	5.7103e-06	433.18	144.21	123.36	43.016	4.1345e-06	52.644	0.00065197	0.00091435	0.00026205	1462.8	9.9941e-06	9.9901e-06	1452.1	384.44	9.3962e-06	1.0229e-05	444.05	147.57	128.66	44.107	9.4439e-06	54.334	176.594	-25.437	-18.961	-103.380	38.619	33.735	-103.768	-98.982	-32.731	38.802	-99.221	-95.417	-95.535	-90.030	21.304	-90.453	-8191	255	
33183.969	1	1	0	0	0.20133	0.30617	0.10477	0.40703	0.47622	0.034732	0.26274	0.18928	0.28674	0.24985	0.22757	0.31382	0.16945	0.32699	0.20728	0.16673	-1.5583	-1.9667	-1.5729	-2.0979	-1.8792	-1.7167	-2.3458	-1.9312	-1.7542	-2.0771	-1.675	-1.9583	-1.9688	-1.6812	-1.9646	-1.8125	-103.100	56.414	86.908	221.351	85.357	-107.647	117.999	241.312	111.258	220.375	114.614	211.650	192.382	221.778	-22.972	222.362	0.00035147	0.00047965	0.00016043	1440.8	4.258e-06	4.5175e-06	1423.6	377.05	3.4716e-06	6.2866e-06	435.93	143.59	124.54	42.551	4.0332e-06	52.375	0.00064665	0.00090469	0.00026207	1463.3	9.5774e-06	1.0014e-05	1450.4	384.77	9.5438e-06	1.0066e-05	445.17	147.32	128.4	43.941	9.6004e-06	54.232	175.801	-28.718	-15.838	-103.501	7.768	38.530	-103.678	-99.116	8.025	38.583	-99.465	-95.339	-95.533	-89.837	18.871	-90.509	-8191	255	
33184.066	1	1	0	0	0.1888	0.23352	0.087257	0.11111	0.16544	0.17407	0.3591	0.36273	0.21844	0.28735	0.11975	0.24949	0.12033	0.31432	0.25353	0.17538	-1.2271	-2.0687	-1.6437	-2.0708	-2.0167	-1.4625	-2.1104	-2.0125	-1.675	-2.2021	-1.8104	-1.9438	-2.1167	-1.9333	-2.1167	-1.9917	-54.217	-41.383	182.696	213.696	-109.338	-113.736	173.015	216.688	176.756	142.325	-86.079	166.125	145.588	199.745	-21.218	175.943	0.00032417	0.00047531	0.00018537	1447.7	5.8688e-06	4.6794e-06	1425.2	376.54	4.0184e-06	2.87e-06	433.92	143.66	124.18	42.75	4.6308e-06	52.417	0.00064658	0.00091174	0.00026207	1465.8	9.9568e-06	1.0452e-05	1452.7	384.64	9.8064e-06	1.0034e-05	445.2	147.31	128.61	44.03	9.5518e-06	54.202	175.409	-29.906	-24.073	-103.410	31.289	62.296	-103.701	-99.221	-17.627	60.192	-99.334	-95.054	-95.426	-90.014	19.102	-90.822	-8191	255	
33184.184	1	1	0	0	0.088703	0.11571	0.14751	0.084798	0.21745	0.019748	0.26793	0.18374	0.14249	0.12637	0.32534	0.076015	0.29577	0.23571	0.10906	0.14278	-1.15	-2.0563	-1.5917	-1.9021	-2.0896	-1.5917	-2.3063	-2.05	-1.6083	-1.9979	-1.9646	-1.8438	-2.0333	-1.4438	-2.0604	-1.9146	205.934	27.878	108.241	-101.741	-29.402	121.921	198.850	201.569	117.635	-8.081	212.517	224.998	232.508	197.023	132.673	141.955	0.00031022	0.00054787	0.00012817	1445.8	4.0197e-06	4.4793e-06	1425.2	376.28	3.2669e-06	4.8343e-06	435.6	143.66	123.08	42.857	1.663e-06	52.607	0.00063274	0.00092745	0.00025669	1466.7	9.6229e-06	1.0114e-05	1453.2	384.21	9.4125e-06	1.0006e-05	444.6	147.46	128.48	44.073	9.3485e-06	54.214	178.826	-27.746	-21.776	-103.401	30.479	32.850	-103.776	-99.173	-7.166	30.978	-99.792	-95.565	-94.968	-90.036	3.119	-90.716	-8191	255	
33184.281	1	1	0	0	0.21617	0.081483	0.22062	0.085987	0.10108	0.32131	0.17812	0.16354	0.18073	0.13801	0.016846	0.20714	0.077404	0.068082	0.26151	0.20212	-1.3188	-1.9688	-1.9125	-1.8354	-2.0354	-1.8188	-2.1625	-2.0104	-1.7687	-2.0563	-1.7687	-1.8917	-2.1708	-1.9271	-1.9	-2.0333	19.998	-67.994	233.005	238.610	93.831	-39.533	158.195	169.029	-13.901	0.415	170.265	229.136	-80.790	150.670	84.377	211.641	0.0003402	0.00066646	0.00015036	1443.6	4.0063e-06	4.6059e-06	1424.2	375.95	3.6058e-06	6.6479e-06	435.52	143.46	123.28	42.817	2.9706e-06	52.78	0.00066633	0.00093122	0.00025426	1464.9	9.3597e-06	1.0319e-05	1452.7	384.49	9.346e-06	1.0221e-05	444.91	147.29	128.59	44.127	9.3753e-06	54.423	178.220	-15.307	-11.367	-103.364	32.217	15.573	-103.682	-99.044	-27.135	44.010	-99.261	-95.348	-95.370	-89.598	-0.671	-90.565	-8191	255	
33184.379	1	1	0	0	0.056798	0.23391	0.10851	0.17483	0.16336	0.23794	0.18937	0.22936	0.14609	0.25533	0.25174	0.16345	0.05509	0.21581	0.22021	0.23433	-1.1042	-1.8333	-1.6417	-1.7479	-2.175	-1.7521	-2.1792	-2.0833	-1.5083	-2.0521	-1.8896	-1.8312	-2.225	-1.9229	-1.9604	-2.15	37.010	198.302	61.746	172.909	-53.114	62.663	168.655	188.750	59.705	-2.639	241.933	-89.285	169.523	-96.129	218.031	206.972	0.00031767	0.00058986	0.00015725	1449.1	3.6505e-06	5.1717e-06	1428.4	375.53	2.1712e-06	4.7235e-06	435.19	143.61	123.99	43.01	4.1774e-06	52.139	0.0006472	0.0009167	0.00025754	1468.7	9.4231e-06	1.0333e-05	1452.5	384.12	9.4882e-06	1.0281e-05	444.34	147.48	128.65	44.098	9.7041e-06	54.213	175.121	-21.184	-41.196	-103.305	43.510	40.057	-103.730	-98.938	-16.739	43.782	-99.681	-95.162	-95.446	-89.862	14.173	-90.682	-8191	255	
33184.473	1	1	0	0	0.21604	0.077984	0.16358	0.26256	0.1929	0.2335	0.21533	0.20376	0.16873	0.089807	0.085657	0.10129	0.083354	0.35269	0.20978	0.18802	-1.1979	-1.9937	-1.9542	-1.7479	-2.0396	-1.9125	-1.9979	-2.2292	-1.6313	-1.8417	-1.9375	-1.8083	-2.225	-1.8625	-1.8312	-2.1937	-85.720	232.075	184.311	210.550	-55.593	65.759	-109.907	58.633	147.860	21.824	211.301	-112.009	237.270	172.564	226.551	145.274	0.00031329	0.0006678	0.00010658	1439.7	2.7057e-06	5.5856e-06	1423.9	377.57	2.9925e-06	6.3592e-06	435.25	143.09	123.48	42.727	4.863e-06	52.561	0.00064272	0.00091863	0.00024647	1463.5	9.1542e-06	9.9348e-06	1450.8	384.81	9.6434e-06	1.0082e-05	444.85	147.2	128.3	44.018	9.4088e-06	54.226	176.630	-51.317	-32.508	-103.357	10.051	24.858	-103.716	-99.157	-12.093	43.295	-99.285	-95.304	-95.531	-90.032	-16.406	-90.543	-8191	255	
#DATA ENDS
