BOXY.EXE: ISS Imagent and Oximeter Data Acquisition Program Version 0.80
Ascii Record File

#ACQ INFORMATION
2  Detector Channels 
16  External MUX Channels 
1  Auxiliary Channels 
5000  Waveform (CCF) Frequency (Hz)
1  Waveforms Skipped 
30  Waveforms Averaged 
1  Cycles Averaged 
16  Acquisitions per Waveform 
10.0806  Updata Rate (Hz) 

#FILE INFORMATION
TRUE -- External MUX Channel results are PARSED.
FALSE -- AC DC and Phase are NOT grouped.
TRUE -- Companion Program Settings File CREATED.
FALSE -- AC data not excluded
FALSE -- DC data not excluded
FALSE -- Phase data not excluded
FALSE -- Auxillary Chn. data not excluded
Tab delimiters

#CALIBRATION STATE
TRUE -- Waveform Calibration Values APPLIED.


#AUX CALIBRATION VALUES
Val Type	aux-1	

Term	1.0000e+00	
Factor	0.0000e+00	


#WF CALIBRATION VALUES
A = Detector Channel
Val Type	A-AC1	A-AC2	A-AC3	A-AC4	A-AC5	A-AC6	A-AC7	A-AC8	A-AC9	A-AC10	A-AC11	A-AC12	A-AC13	A-AC14	A-AC15	A-AC16	A-DC1	A-DC2	A-DC3	A-DC4	A-DC5	A-DC6	A-DC7	A-DC8	A-DC9	A-DC10	A-DC11	A-DC12	A-DC13	A-DC14	A-DC15	A-DC16	A-Ph1	A-Ph2	A-Ph3	A-Ph4	A-Ph5	A-Ph6	A-Ph7	A-Ph8	A-Ph9	A-Ph10	A-Ph11	A-Ph12	A-Ph13	A-Ph14	A-Ph15	A-Ph16	

Term	0.00000e+00	0.00000e+00	0.00000e+00	0.00000e+00	0.00000e+00	0.00000e+00	0.00000e+00	0.00000e+00	0.00000e+00	0.00000e+00	0.00000e+00	0.00000e+00	0.00000e+00	0.00000e+00	0.00000e+00	0.00000e+00	0.00000e+00	0.00000e+00	0.00000e+00	0.00000e+00	0.00000e+00	0.00000e+00	0.00000e+00	0.00000e+00	0.00000e+00	0.00000e+00	0.00000e+00	0.00000e+00	0.00000e+00	0.00000e+00	0.00000e+00	0.00000e+00	0.00000e+00	0.00000e+00	0.00000e+00	0.00000e+00	0.00000e+00	0.00000e+00	0.00000e+00	0.00000e+00	0.00000e+00	0.00000e+00	0.00000e+00	0.00000e+00	0.00000e+00	0.00000e+00	0.00000e+00	0.00000e+00	
Factor	1.00000e+00	1.00000e+00	1.00000e+00	1.00000e+00	1.00000e+00	1.00000e+00	1.00000e+00	1.00000e+00	1.00000e+00	1.00000e+00	1.00000e+00	1.00000e+00	1.00000e+00	1.00000e+00	1.00000e+00	1.00000e+00	1.00000e+00	1.00000e+00	1.00000e+00	1.00000e+00	1.00000e+00	1.00000e+00	1.00000e+00	1.00000e+00	1.00000e+00	1.00000e+00	1.00000e+00	1.00000e+00	1.00000e+00	1.00000e+00	1.00000e+00	1.00000e+00	X	X	X	X	X	X	X	X	X	X	X	X	X	X	X	X	

B = Detector Channel
Val Type	B-AC1	B-AC2	B-AC3	B-AC4	B-AC5	B-AC6	B-AC7	B-AC8	B-AC9	B-AC10	B-AC11	B-AC12	B-AC13	B-AC14	B-AC15	B-AC16	B-DC1	B-DC2	B-DC3	B-DC4	B-DC5	B-DC6	B-DC7	B-DC8	B-DC9	B-DC10	B-DC11	B-DC12	B-DC13	B-DC14	B-DC15	B-DC16	B-Ph1	B-Ph2	B-Ph3	B-Ph4	B-Ph5	B-Ph6	B-Ph7	B-Ph8	B-Ph9	B-Ph10	B-Ph11	B-Ph12	B-Ph13	B-Ph14	B-Ph15	B-Ph16	

Term	0.00000e+00	0.00000e+00	0.00000e+00	0.00000e+00	0.00000e+00	0.00000e+00	0.00000e+00	0.00000e+00	0.00000e+00	0.00000e+00	0.00000e+00	0.00000e+00	0.00000e+00	0.00000e+00	0.00000e+00	0.00000e+00	0.00000e+00	0.00000e+00	0.00000e+00	0.00000e+00	0.00000e+00	0.00000e+00	0.00000e+00	0.00000e+00	0.00000e+00	0.00000e+00	0.00000e+00	0.00000e+00	0.00000e+00	0.00000e+00	0.00000e+00	0.00000e+00	-1.45867e+02	-1.23783e+02	-1.30834e+02	-1.84083e+02	-7.58095e+01	-7.30478e+01	-1.55713e+02	-1.62015e+02	-9.03867e+01	-7.43714e+01	-1.85725e+02	-1.70521e+02	-1.87050e+02	-1.76710e+02	-7.51131e+01	-1.49456e+02	
Factor	2.10453e-05	1.52073e-04	4.08231e-05	2.21187e-01	1.33617e-06	1.51758e-06	1.55432e-01	4.94518e-02	1.27884e-06	1.69986e-06	1.93204e-01	2.92118e-02	6.10080e-02	8.76291e-03	1.36065e-06	1.24210e-02	3.01981e-06	3.36426e-06	9.36133e-07	1.14310e-01	3.63966e-08	3.69298e-08	7.62793e-02	2.57675e-02	3.62490e-08	3.68367e-08	9.47209e-02	1.47461e-02	3.12550e-02	4.57521e-03	3.64405e-08	6.30051e-03	X	X	X	X	X	X	X	X	X	X	X	X	X	X	X	X	



#DISTANCE SETTINGS
A = Detector Channel
A-1	A-2	A-3	A-4	A-5	A-6	A-7	A-8	A-9	A-10	A-11	A-12	A-13	A-14	A-15	A-16	

2.5000e+00	3.0000e+00	2.5000e+00	3.0000e+00	2.0000e+00	3.0000e+00	1.5000e+00	3.0000e+00	3.0000e+00	3.0000e+00	3.0000e+00	3.0000e+00	3.0000e+00	3.0000e+00	1.5000e+00	3.0000e+00	

B = Detector Channel
B-1	B-2	B-3	B-4	B-5	B-6	B-7	B-8	B-9	B-10	B-11	B-12	B-13	B-14	B-15	B-16	

1.0000e+01	1.0000e+01	1.0000e+01	1.4400e+00	1.0000e+01	1.0000e+01	1.5100e+00	1.9400e+00	1.0000e+01	1.0000e+01	1.9900e+00	2.4900e+00	2.4100e+00	2.9000e+00	1.0000e+01	2.9800e+00	




#DATA BEGINS
time	group	step	mark	flag	A-AC1	A-AC2	A-AC3	A-AC4	A-AC5	A-AC6	A-AC7	A-AC8	A-AC9	A-AC10	A-AC11	A-AC12	A-AC13	A-AC14	A-AC15	A-AC16	A-DC1	A-DC2	A-DC3	A-DC4	A-DC5	A-DC6	A-DC7	A-DC8	A-DC9	A-DC10	A-DC11	A-DC12	A-DC13	A-DC14	A-DC15	A-DC16	A-Ph1	A-Ph2	A-Ph3	A-Ph4	A-Ph5	A-Ph6	A-Ph7	A-Ph8	A-Ph9	A-Ph10	A-Ph11	A-Ph12	A-Ph13	A-Ph14	A-Ph15	A-Ph16	B-AC1	B-AC2	B-AC3	B-AC4	B-AC5	B-AC6	B-AC7	B-AC8	B-AC9	B-AC10	B-AC11	B-AC12	B-AC13	B-AC14	B-AC15	B-AC16	B-DC1	B-DC2	B-DC3	B-DC4	B-DC5	B-DC6	B-DC7	B-DC8	B-DC9	B-DC10	B-DC11	B-DC12	B-DC13	B-DC14	B-DC15	B-DC16	B-Ph1	B-Ph2	B-Ph3	B-Ph4	B-Ph5	B-Ph6	B-Ph7	B-Ph8	B-Ph9	B-Ph10	B-Ph11	B-Ph12	B-Ph13	B-Ph14	B-Ph15	B-Ph16	aux-1	digaux	

11916.706	1	1	0	768	0.098325	0.18268	0.11879	0.11799	0.061644	0.056146	0.31306	0.18736	0.16503	0.12694	0.038441	0.19355	0.10121	0.27633	0.24333	0.30685	-1.6604	-2.0417	-2.4	-2.0417	-2.2646	-2.4271	-2.0771	-2.4917	-1.9833	-2.1125	-2.5896	-2.0542	-2.0646	-2.6479	-2.1604	-2.5875	-105.907	43.889	131.826	77.857	-164.238	-121.585	123.807	110.765	39.458	-107.065	-174.276	107.200	90.846	-141.619	-133.921	107.011	0.00067688	0.00044616	5.1131e-05	619.21	3.0641e-06	5.5715e-06	669.93	234.43	3.2827e-06	6.7317e-06	291.92	111.5	84.612	41.477	4.0815e-06	63.735	0.00023418	0.00017664	4.7573e-05	602.49	1.9347e-06	1.9433e-06	654.91	229.44	1.9497e-06	1.9302e-06	278.89	109.57	82.096	40.987	1.9757e-06	63.082	182.367	-71.980	-96.226	-161.579	-45.992	-23.264	-162.671	-156.451	-78.303	-15.296	-158.611	-153.902	-153.280	-146.789	-46.996	-149.403	-8191	255	
11916.802	1	1	0	0	0.099072	0.23212	0.061071	0.22354	0.090115	0.092983	0.12439	0.37975	0.05758	0.083416	0.13651	0.084056	0.069291	0.14158	0.31155	0.12742	-1.7812	-1.9042	-2.3688	-2.2208	-2.1667	-2.5583	-2.0875	-2.375	-2.3604	-2.0104	-2.2604	-1.9896	-2.0312	-2.5083	-1.8167	-2.5812	-24.712	136.702	-121.745	140.510	159.089	144.624	92.857	174.659	78.421	-115.548	-67.425	95.932	82.362	-167.283	33.137	56.932	0.00070937	0.00050638	0.00010073	611.59	3.7305e-06	5.753e-06	664.47	231.94	5.8844e-06	3.1752e-06	286.42	110.99	83.392	41.368	2.8557e-06	63.786	0.00023753	0.00018424	4.9525e-05	597.85	1.9753e-06	1.9489e-06	652.43	227.88	1.9938e-06	1.9779e-06	277.47	109.37	81.835	40.896	2.0239e-06	63.032	180.817	-92.161	-69.738	-161.232	-27.724	-13.998	-162.539	-156.606	-70.580	-93.538	-158.316	-153.853	-152.882	-146.026	-42.744	-149.214	-8191	255	
11916.899	1	1	0	0	0.12262	0.064356	0.20039	0.20945	0.062516	0.083552	0.1437	0.18226	0.21445	0.24196	0.25747	0.22662	0.079361	0.26486	0.069972	0.29318	-1.8417	-1.925	-2.2896	-2.2146	-2.0646	-2.5583	-2.0833	-2.4542	-2.1937	-2.0812	-2.4292	-2.3792	-1.9083	-2.4979	-2.1458	-2.1167	6.445	-130.082	3.795	155.876	21.925	17.162	153.711	158.220	56.897	-29.884	-154.585	124.909	132.537	149.945	-165.515	143.388	0.00068124	0.00029081	0.00014474	612.57	3.0426e-06	4.9598e-06	665.66	231.75	4.2165e-06	3.1785e-06	287.51	111.46	83.605	41.405	3.8937e-06	64.02	0.00023412	0.00018225	5.0434e-05	596.14	2.0174e-06	1.9653e-06	652.06	227.07	2.0627e-06	1.978e-06	277.55	109.32	81.643	40.893	2.0982e-06	63.171	182.602	-123.553	-95.202	-161.605	-8.982	-62.642	-162.316	-156.287	-74.384	-15.300	-157.775	-153.702	-153.198	-146.230	-52.148	-149.035	-8191	255	
11916.995	1	1	0	0	0.24854	0.28097	0.07019	0.11004	0.22817	0.18774	0.19743	0.15334	0.097263	0.049661	0.13694	0.11244	0.24961	0.1018	0.05583	0.24157	-2.0042	-1.9438	-2.3958	-2.2292	-1.9188	-2.6167	-2.1875	-2.125	-2.4771	-1.9833	-2.4833	-2.3875	-1.8813	-2.5958	-2.0646	-2.2104	31.102	133.653	-18.329	-118.317	92.110	-11.375	153.039	111.311	166.036	19.875	38.469	-83.157	139.489	97.744	156.899	59.982	0.0006704	0.00044624	6.4759e-05	611.33	2.2903e-06	2.7076e-06	670.49	231.47	4.6622e-06	5.3833e-06	289.77	112.05	83.351	41.6	2.9747e-06	64.14	0.00023767	0.00018784	4.9492e-05	598.57	2.0462e-06	2.0741e-06	655.76	227.83	2.0619e-06	2.0059e-06	279.91	109.9	81.779	40.99	2.0691e-06	63.356	182.566	-90.881	-87.274	-160.980	-33.159	0.231	-162.353	-156.297	-58.867	-31.866	-157.786	-153.387	-152.774	-146.061	-40.242	-148.896	-8191	255	
11917.091	1	1	0	0	0.28503	0.22313	0.059622	0.28393	0.15976	0.19105	0.17078	0.32848	0.13299	0.057618	0.12992	0.27052	0.047118	0.022873	0.27116	0.27234	-1.8896	-2.0167	-2.2458	-2.3583	-1.875	-2.3833	-2.2354	-2.0917	-2.3771	-1.9625	-2.1333	-2.3104	-1.9562	-2.5062	-2.2167	-2.0521	-1.120	136.217	25.086	-95.826	-38.876	58.993	101.425	121.478	-148.652	-6.324	119.093	106.470	-84.383	40.830	-40.148	79.682	0.00073913	0.00063025	7.9438e-05	609.73	4.4467e-06	6.5882e-06	666.28	232.37	5.1455e-06	3.8513e-06	287.2	110.47	83.915	41.26	4.2306e-06	63.691	0.00023901	0.00018996	5.1641e-05	596.65	2.0362e-06	2.0249e-06	652.37	227.69	1.9977e-06	2.0642e-06	276.73	108.81	81.615	40.795	2.0676e-06	62.923	183.181	-90.754	-72.601	-161.054	-16.254	-25.851	-162.014	-155.918	-81.197	-8.585	-158.138	-153.264	-152.494	-145.989	-40.285	-148.846	-8191	255	
11917.187	1	1	0	0	0.10489	0.10719	0.32024	0.1159	0.36396	0.17351	0.12018	0.11125	0.26927	0.23696	0.37645	0.094731	0.21012	0.14192	0.03261	0.087512	-2.0229	-2.025	-2.2229	-2.3792	-1.9292	-2.4917	-2.35	-2.1604	-2.2521	-1.9583	-2.125	-2.4	-2.0021	-2.4333	-2.1167	-1.9813	-37.325	-157.646	133.340	183.622	-97.487	-139.342	34.180	-29.333	10.559	-129.229	113.975	131.666	181.706	122.337	105.966	-106.067	0.00067284	0.00050475	8.9651e-05	615.14	2.5141e-06	3.4847e-06	663.09	230.76	2.9032e-06	3.9723e-06	283.93	110.67	82.874	41.264	1.5005e-06	63.54	0.00023492	0.0001871	5.0649e-05	597.37	1.9797e-06	1.9928e-06	651.32	226.47	1.9757e-06	2.0234e-06	276.32	108.68	81.193	40.749	2.0476e-06	62.795	179.575	-36.118	-113.249	-161.056	-53.984	-18.020	-162.202	-156.103	-93.176	-11.167	-157.834	-153.408	-152.378	-145.761	-62.465	-148.906	-8191	255	
11917.308	1	1	0	0	0.083188	0.11506	0.20343	0.016833	0.16002	0.24108	0.23483	0.40244	0.20556	0.20264	0.28617	0.067922	0.13113	0.17975	0.14464	0.069873	-2.1	-2.0771	-2.1333	-2.3208	-2.0479	-2.5438	-2.3375	-1.9979	-2.4271	-2.2188	-2.0104	-2.675	-2.0979	-2.2104	-2.4646	-2.0187	50.094	183.437	124.726	29.980	144.179	51.234	159.001	118.823	-138.261	-113.327	-160.505	-102.092	-156.552	40.698	45.185	-45.424	0.00071277	0.00011951	8.9106e-05	611.68	2.9915e-06	3.7357e-06	662.12	231.23	3.7414e-06	3.9386e-06	286.93	111.97	84.407	41.832	3.2904e-06	64.692	0.00023264	0.00018524	5.0454e-05	598.61	2.0141e-06	1.9968e-06	650.13	227.03	2.0278e-06	1.9936e-06	277.31	109.83	82.201	41.232	2.0129e-06	63.572	182.438	-58.239	-54.207	-160.802	-36.935	-37.834	-162.109	-156.165	-50.457	-19.816	-157.729	-153.473	-152.227	-145.911	-35.454	-148.975	-8191	255	
11917.402	1	1	0	0	0.12901	0.17943	0.31422	0.21689	0.007153	0.17654	0.16216	0.12082	0.067836	0.32885	0.13089	0.46822	0.28574	0.11011	0.061443	0.15659	-2.0021	-2.0021	-2.1896	-2.3333	-1.9729	-2.4417	-2.4479	-2.025	-2.3896	-2.2333	-2.0312	-2.5521	-2.1063	-2.1896	-2.3187	-1.7917	-6.454	26.225	-104.767	75.699	162.664	29.160	-155.120	182.346	-5.017	84.134	88.592	174.384	-100.750	69.900	-71.988	98.946	0.0007345	0.00049881	9.2841e-05	618.76	2.0903e-06	1.4259e-06	670.54	234.93	7.4684e-06	6.6692e-06	290.02	113.41	86.673	42.832	4.2151e-06	66.213	0.00023586	0.00017843	5.0255e-05	602.59	1.971e-06	1.9081e-06	657.05	230.55	1.9447e-06	1.8938e-06	281.08	111.67	83.991	42.145	1.9418e-06	65.102	180.625	-70.676	-75.823	-161.005	-117.505	-73.607	-161.632	-155.362	-85.365	-44.581	-157.604	-152.943	-152.044	-145.532	-49.124	-148.524	-8191	255	
11917.498	1	1	0	0	0.14602	0.17056	0.17771	0.17827	0.12928	0.24918	0.33412	0.29408	0.10468	0.17379	0.15217	0.06674	0.077673	0.32468	0.096627	0.2102	-1.9792	-2.2396	-1.9	-2.3479	-1.9521	-2.2042	-2.475	-2.225	-2.5062	-2.2667	-1.9521	-2.4458	-2.0479	-2.2292	-2.4167	-2.2104	110.936	97.616	-88.163	32.977	-12.011	-1.919	124.213	118.760	18.837	-157.427	-144.068	170.028	-56.333	123.658	27.090	120.942	0.00074813	0.00060994	0.00010548	626.59	5.566e-06	2.9076e-06	671.89	237.78	4.8215e-06	2.8322e-06	293.27	114.59	88.092	43.087	3.7416e-06	66.306	0.00023098	0.00017344	4.8808e-05	609.89	1.8797e-06	1.8589e-06	660.25	233.94	1.9216e-06	1.8431e-06	283.23	112.45	84.88	42.601	1.9056e-06	65.563	179.758	-80.126	-136.256	-160.645	-26.695	-51.268	-161.255	-155.555	-61.764	-19.188	-157.883	-153.007	-152.454	-145.606	-37.323	-148.603	-8191	255	
11917.596	1	1	0	0	0.16116	0.195	0.18697	0.20925	0.20015	0.056208	0.16929	0.2779	0.06302	0.20097	0.16363	0.20453	0.29861	0.057225	0.074655	0.28419	-1.7479	-2.3167	-1.8125	-2.4083	-2.1208	-2.1542	-2.4854	-1.8583	-2.2812	-2.2271	-2.2479	-2.4271	-2.1667	-2.2208	-2.45	-2.2188	-95.656	139.216	-94.873	146.716	-172.664	178.695	112.154	55.142	-69.233	106.502	-134.785	132.151	78.673	-133.561	-66.539	139.901	0.00070998	0.00038604	0.00014674	625.25	4.3926e-06	3.1058e-06	676.76	240.1	6.0402e-06	3.661e-06	294.52	115.66	88.328	43.545	3.8985e-06	66.918	0.00023171	0.00017355	4.7969e-05	610.67	1.8417e-06	1.8923e-06	662.25	235.18	1.8828e-06	1.8895e-06	284.45	113.3	85.726	43.051	1.8532e-06	66.057	178.011	-86.046	-70.079	-160.610	-42.402	21.421	-161.209	-155.479	-83.320	-24.659	-157.646	-153.111	-152.309	-145.514	-28.471	-148.294	-8191	255	
11917.690	1	1	0	0	0.19349	0.17154	0.26221	0.28862	0.23735	0.076122	0.20853	0.19243	0.11843	0.28155	0.29659	0.10638	0.053878	0.079191	0.21236	0.15449	-1.7583	-2.2583	-1.875	-2.4333	-2.2729	-1.9708	-2.5271	-2.3542	-2.2292	-2.4854	-1.8875	-2.5125	-1.9583	-2.2271	-2.4938	-2.1792	163.709	93.726	-80.016	51.299	7.611	-4.326	-38.704	115.888	-166.450	-69.809	-132.935	176.894	120.631	148.616	116.882	129.826	0.00066931	0.00045729	9.4144e-05	631.04	1.2974e-06	2.3985e-06	680.14	241.44	5.3019e-06	4.9154e-06	298.88	116.65	89.174	44.36	3.9931e-06	67.551	0.00022387	0.00016857	4.7121e-05	613.47	1.8725e-06	1.8109e-06	665.06	236.5	1.8739e-06	1.8086e-06	286.35	114.18	86.212	43.509	1.8757e-06	66.629	179.874	-66.158	-81.552	-160.268	-22.540	-52.085	-161.524	-155.313	-66.193	-31.402	-157.355	-152.617	-151.471	-145.599	-28.899	-148.356	-8191	255	
11917.787	1	1	0	0	0.073097	0.25877	0.16066	0.24284	0.070595	0.21321	0.16263	0.228	0.22242	0.10797	0.18496	0.22421	0.099787	0.26723	0.27469	0.18554	-1.9417	-2.3375	-1.9417	-2.1271	-2.2833	-1.9896	-2.5729	-2.1188	-1.9958	-2.3229	-2.0563	-2.3167	-2.2333	-2.0479	-2.4167	-2.175	-158.178	101.176	-94.638	-161.565	-16.500	78.098	108.775	-152.363	-90.515	-120.058	-65.998	93.765	-99.517	-142.029	113.438	173.307	0.00078298	0.00041647	0.00011194	634.49	5.2329e-06	2.0264e-06	683.8	243.05	1.0269e-06	4.9336e-06	296.72	117.5	88.78	44.426	2.0498e-06	68.444	0.00022913	0.00016364	4.5401e-05	618	1.8237e-06	1.7976e-06	667.86	237.57	1.8406e-06	1.7722e-06	286.41	115.25	86.338	43.878	1.815e-06	67.429	183.269	-65.458	-114.880	-160.380	-38.256	-38.451	-161.328	-155.589	-78.009	-74.391	-157.133	-153.140	-151.821	-145.654	-37.430	-148.440	-8191	255	
11917.907	1	1	0	0	0.12554	0.11987	0.062072	0.4196	0.059662	0.040161	0.045416	0.28272	0.17132	0.25186	0.083294	0.39278	0.27309	0.0079685	0.069973	0.29707	-1.5125	-2.3292	-2.0417	-2.1354	-2.3833	-1.9	-2.4854	-2.0708	-2.0375	-2.4313	-1.9562	-2.3375	-2.5708	-1.9604	-2.2167	-2.2333	-79.154	148.226	185.243	155.519	140.266	63.553	-84.949	178.101	151.646	53.715	13.315	97.630	148.178	60.380	-45.709	124.548	0.00072663	0.00048842	8.8491e-05	637.23	3.6061e-06	5.9037e-06	692.23	245.27	3.4448e-06	2.8003e-06	300.35	118.11	89.929	44.577	5.1714e-06	68.917	0.00023035	0.00016878	4.7162e-05	620.5	1.8363e-06	1.8523e-06	674.06	239.63	1.8393e-06	1.8124e-06	288.38	115.67	87.214	44.071	1.8917e-06	67.691	181.208	-82.947	-116.351	-160.172	-9.089	-25.074	-161.402	-155.397	-79.217	-22.809	-157.538	-152.460	-151.895	-145.458	-24.264	-148.321	-8191	255	
11918.003	1	1	0	0	0.20848	0.24677	0.111	0.23176	0.22857	0.27233	0.31053	0.1495	0.054834	0.35546	0.11635	0.2846	0.2314	0.25986	0.1971	0.24609	-1.375	-2.2375	-2.0208	-2.1479	-2.3125	-1.8438	-2.5812	-2.3021	-1.8875	-2.5521	-1.9792	-2.1167	-2.4542	-2.1458	-2.1708	-2.5208	118.804	167.911	-17.153	-8.323	-150.452	-127.613	139.140	-85.923	-32.942	31.745	83.204	182.065	-117.480	173.236	-52.004	170.007	0.00076213	0.0005916	0.00013179	639.52	3.4845e-06	1.4852e-06	685.4	243.09	4.3109e-06	5.3703e-06	299.59	116.84	89.872	44.294	4.52e-06	68.307	0.0002301	0.00016448	4.6896e-05	621.22	1.7621e-06	1.8105e-06	669.47	238.51	1.8615e-06	1.7434e-06	287.35	115.08	87.043	43.831	1.8377e-06	67.169	181.366	-96.723	-104.747	-160.113	-60.732	-69.462	-161.264	-155.701	-76.892	-36.022	-156.341	-152.607	-152.104	-145.466	-34.227	-148.194	-8191	255	
11918.100	1	1	0	0	0.31738	0.21559	0.12422	0.21707	0.22276	0.10591	0.21854	0.060195	0.03445	0.23934	0.27596	0.043752	0.19788	0.027444	0.10478	0.33461	-1.4854	-2.2521	-2.2375	-2.0187	-2.3812	-2.025	-2.3854	-2.4938	-1.925	-2.4021	-2.1917	-2.4208	-2.3875	-1.9417	-2.15	-2.2958	-82.431	60.144	0.881	100.027	-172.417	40.867	-65.758	108.312	-11.457	-26.275	130.711	-143.595	172.146	126.418	-71.194	170.420	0.00072927	0.00022216	0.00016612	635.12	4.7746e-06	4.6775e-06	681.82	242.17	5.233e-06	2.9208e-06	298.26	117.52	88.878	44.339	4.0141e-06	68.317	0.00022119	0.00016334	4.5763e-05	618.81	1.8083e-06	1.7904e-06	666.28	237.76	1.8698e-06	1.7256e-06	287.17	114.86	86.742	43.754	1.7748e-06	67.275	180.596	-121.062	-102.092	-160.079	-65.310	-48.804	-161.548	-155.029	-95.586	-25.170	-157.369	-152.845	-152.041	-145.551	-51.195	-148.397	-8191	255	
11918.196	1	1	0	0	0.0828	0.30507	0.061824	0.15966	0.10383	0.10425	0.21466	0.2195	0.25516	0.04154	0.30507	0.18067	0.18036	0.12374	0.24025	0.24263	-1.3833	-2.2396	-2.1917	-2.0687	-2.4083	-1.9458	-2.3042	-2.3917	-2.0125	-2.1729	-2.2188	-2.0021	-2.3688	-2.1125	-2.1813	-2.4083	48.261	-72.497	26.625	105.232	-55.274	141.618	160.922	-154.879	135.269	-134.630	61.741	23.930	94.980	-165.199	-73.693	104.010	0.00072729	0.0004028	0.00012654	636.3	4.8709e-06	3.4841e-06	683.79	243.95	5.3703e-06	7.3946e-06	299.51	117.71	90.17	44.391	1.8987e-06	68.314	0.00022174	0.00016594	4.5711e-05	619.11	1.7735e-06	1.8089e-06	668.67	238.22	1.9139e-06	1.7526e-06	286.51	115.22	86.671	43.727	1.828e-06	67.281	178.237	-71.846	-81.230	-160.059	-48.069	0.103	-161.168	-155.264	-75.318	-39.825	-157.539	-152.563	-152.018	-145.320	-50.996	-148.166	-8191	255	
11918.292	1	1	0	0	0.14146	0.12783	0.16364	0.026296	0.11339	0.17488	0.16491	0.62502	0.22862	0.13975	0.16677	0.21116	0.099984	0.21949	0.087743	0.030708	-1.5396	-2.1521	-2.3417	-1.9646	-2.5354	-2.1896	-2.2083	-2.5	-1.7042	-2.225	-2.3646	-1.9312	-2.5271	-2.2104	-1.9458	-2.6146	-24.197	-0.930	52.214	-6.862	35.623	-41.192	-110.093	136.494	172.046	126.486	-57.778	166.226	56.402	-166.227	162.403	86.354	0.00075882	0.00066257	0.00010633	634.81	3.0189e-06	3.4247e-06	682.25	242.58	4.9302e-06	3.2356e-06	299.33	117.58	89.248	44.1	4.3741e-06	68.155	0.00022839	0.00016402	4.5022e-05	618.4	1.8137e-06	1.8132e-06	668.35	237.74	1.8845e-06	1.7671e-06	288.16	115.24	86.587	43.499	1.8394e-06	67.322	179.339	-55.910	-75.169	-160.271	-29.926	-38.253	-161.401	-155.567	-104.132	-52.010	-157.159	-153.020	-152.004	-145.942	-40.076	-148.706	-8191	255	
11918.386	1	1	0	0	0.16037	0.10211	0.16755	0.1584	0.086187	0.13457	0.06946	0.083696	0.12203	0.12547	0.14848	0.17093	0.086134	0.059264	0.16881	0.09633	-1.5063	-2.2062	-2.3042	-1.9667	-2.4042	-2.05	-2.0708	-2.5479	-1.8458	-2.2125	-2.3146	-2.0542	-2.4625	-2.1396	-1.9771	-2.5417	-44.237	-68.399	184.399	-159.283	16.619	79.613	64.230	-49.873	40.695	105.725	-112.629	50.332	-91.229	-114.164	-136.774	-104.059	0.00079712	0.0003648	3.1698e-05	634.87	3.2043e-06	4.364e-06	682.17	242.32	3.166e-06	5.0417e-06	295.05	116.91	88.244	44.036	3.9949e-06	68.029	0.00022827	0.0001617	4.6477e-05	618.38	1.8068e-06	1.7729e-06	667.51	237.6	1.8183e-06	1.8056e-06	285.83	114.73	85.985	43.398	1.8464e-06	66.885	183.014	-96.075	-68.285	-160.478	0.990	-20.480	-161.585	-155.650	-54.350	-28.353	-157.779	-153.189	-152.397	-145.776	-40.129	-148.430	-8191	255	
11918.482	1	1	0	0	0.13822	0.15212	0.098747	0.18896	0.057507	0.20401	0.12198	0.051183	0.087894	0.16395	0.22603	0.51753	0.19249	0.25897	0.14282	0.1028	-1.5292	-2.1437	-2.3792	-1.9083	-2.3521	-2.1792	-2.1604	-2.4833	-1.7708	-2.2062	-2.3417	-2.1937	-2.4021	-2.2854	-1.8813	-2.4646	147.923	-8.020	-70.370	-45.668	95.989	133.845	118.457	-18.680	-99.343	-61.230	68.119	116.873	-77.366	144.261	-84.427	122.484	0.00072262	0.00027872	9.5806e-05	631.04	4.9143e-06	1.7599e-06	675.59	240.99	2.6976e-06	4.4727e-06	295.07	116.54	88.651	43.812	4.0803e-06	68.027	0.00022305	0.0001644	4.401e-05	614.55	1.7656e-06	1.7695e-06	664.63	236.34	1.8779e-06	1.7706e-06	284.89	114.48	86.251	43.249	1.859e-06	66.926	180.881	-25.489	-84.725	-160.204	-11.354	-92.582	-161.669	-155.495	-98.458	-51.008	-157.543	-153.321	-152.577	-145.958	-36.450	-148.479	-8191	255	
11918.579	1	1	0	0	0.15971	0.22115	0.065461	0.36943	0.082858	0.39756	0.053679	0.14208	0.084392	0.20425	0.088409	0.070169	0.1289	0.26842	0.090617	0.031969	-1.6812	-2.0563	-2.325	-2.0708	-2.0625	-2.2604	-2.0771	-2.475	-2.1792	-1.9062	-2.5417	-1.9771	-2.2104	-2.3604	-1.925	-2.5	21.053	105.244	-59.287	73.246	-88.702	48.275	157.544	96.948	72.004	-49.232	-128.466	-172.383	123.946	-51.032	48.740	-30.824	0.00071336	0.00040844	0.0001064	632.77	4.9418e-06	3.4265e-06	683.29	243.22	4.0952e-06	5.0145e-06	299.5	117.13	88.65	44.4	3.0883e-06	68.32	0.0002248	0.00016277	4.6514e-05	616.33	1.7848e-06	1.7733e-06	667.51	237.77	1.8801e-06	1.747e-06	286.94	115.11	86.465	43.688	1.8743e-06	67.39	180.115	-78.345	-79.160	-160.164	-47.616	-59.983	-161.295	-155.810	-22.841	-36.693	-157.390	-152.953	-151.938	-145.789	-14.033	-148.617	-8191	255	
11918.675	1	1	0	0	0.11286	0.13843	0.11295	0.15623	0.028424	0.071797	0.21429	0.20996	0.21831	0.075463	0.031049	0.18357	0.099664	0.23232	0.077805	0.33477	-1.6917	-1.9958	-2.3438	-2.1083	-2.2042	-2.4042	-2.0208	-2.2292	-2.0833	-1.9417	-2.3958	-1.9771	-2.1854	-2.475	-1.9438	-2.2438	-44.312	133.089	-54.961	14.972	115.867	31.969	110.458	-131.685	-45.931	169.297	181.098	-36.171	163.186	-133.049	-101.434	92.838	0.00073314	0.00044936	0.00016161	636.79	1.7057e-06	3.9594e-06	684.29	243.11	5.3791e-06	5.6718e-06	300.6	117.69	89.079	43.938	3.3205e-06	68.149	0.00022525	0.00016895	4.6436e-05	621.05	1.8442e-06	1.7793e-06	671.24	237.95	1.7923e-06	1.7835e-06	287.35	115.23	86.355	43.341	1.8887e-06	67.002	181.107	-91.358	-87.837	-160.401	-33.245	-17.829	-161.167	-155.550	-70.536	-21.812	-157.481	-153.276	-151.646	-145.689	-47.792	-148.646	-8191	255	
11918.795	1	1	0	0	0.19262	0.1139	0.25048	0.062148	0.18639	0.23278	0.15399	0.20543	0.11261	0.21581	0.12027	0.11008	0.14064	0.23146	0.42941	0.22834	-1.9458	-2.0979	-2.3229	-2.1167	-2.1396	-2.3625	-1.9833	-2.3187	-2.3104	-1.7583	-2.3333	-2.0771	-2.2396	-2.4313	-1.875	-2.3708	-72.721	97.320	-129.834	179.542	147.403	96.896	-70.058	-170.433	15.567	122.507	168.436	-108.479	131.013	-147.859	-57.687	-156.150	0.00076257	0.00050509	0.00013873	632.94	2.5358e-06	3.1706e-06	682.46	241.16	5.0378e-06	6.5007e-06	295.92	116.45	88.096	43.376	4.5849e-06	66.915	0.00022832	0.0001647	4.5219e-05	616.66	1.8198e-06	1.8232e-06	667.76	235.93	1.8384e-06	1.7759e-06	285.12	113.8	85.335	42.642	1.8525e-06	66.068	180.598	-75.531	-79.984	-160.411	-12.982	-27.592	-161.620	-155.300	-66.911	-85.328	-157.568	-152.696	-152.592	-145.626	-56.044	-149.145	-8191	255	
11918.867	1	1	0	0	0.265	0.15071	0.21012	0.19152	0.044533	0.070431	0.13144	0.15375	0.22797	0.10691	0.097112	0.25492	0.16972	0.085959	0.26503	0.085746	-1.8604	-1.8438	-2.2687	-2.0646	-1.9417	-2.4125	-1.9333	-2.1333	-2.1437	-2.0458	-2.2875	-1.975	-1.875	-2.4854	-1.8875	-2.2729	-23.459	-110.095	52.466	-8.712	-54.956	-170.794	87.883	-118.524	27.444	97.045	-135.815	145.317	149.421	-102.294	140.943	124.170	0.00076329	0.00040095	0.00012229	630.72	3.8542e-06	3.778e-06	680.12	239.61	2.8544e-06	3.535e-06	294.73	115.27	87.204	43.036	4.6584e-06	66.825	0.00022642	0.00016423	4.5406e-05	614.37	1.7659e-06	1.7616e-06	664.74	234.99	1.8128e-06	1.8056e-06	284.21	113.2	84.927	42.593	1.8642e-06	65.783	181.171	-101.082	-101.758	-161.630	-18.383	-23.799	-162.851	-157.067	-66.437	-45.379	-158.912	-154.229	-153.284	-146.818	-38.333	-149.844	-8191	255	
11918.988	1	1	0	0	0.088833	0.12388	0.059544	0.23244	0.26503	0.28012	0.024422	0.14913	0.20538	0.14385	0.12621	0.16468	0.25384	0.052051	0.086345	0.18133	-1.7854	-1.6271	-2.1813	-2.0667	-1.8458	-2.4375	-2.2458	-2.2708	-2.3958	-1.8792	-2.3021	-2.0187	-1.9104	-2.4021	-2.05	-2.0729	-43.388	-27.617	148.651	148.539	93.812	-170.008	-140.336	54.806	-9.856	127.896	-137.091	84.919	-61.245	73.899	-99.689	102.329	0.00077272	0.00052105	0.00010703	630.65	3.4539e-06	6.467e-06	678.17	239.44	4.4859e-06	5.2449e-06	294.4	115.71	87.73	43.207	4.3668e-06	66.982	0.00022503	0.000163	4.5976e-05	613.12	1.8276e-06	1.8109e-06	664.35	234.97	1.8291e-06	1.7567e-06	283.89	113.57	85.035	42.679	1.8472e-06	66.002	180.586	-78.822	-48.361	-161.564	-42.803	-57.895	-162.490	-156.852	-76.860	-11.033	-158.667	-153.864	-153.089	-146.754	-49.037	-149.653	-8191	255	
11919.084	1	1	0	0	0.21119	0.091134	0.16627	0.097237	0.16021	0.13255	0.087125	0.20743	0.20093	0.090947	0.3711	0.085898	0.061609	0.25229	0.14396	0.20761	-2.0187	-1.8563	-2.1208	-2.2729	-1.7917	-2.3875	-2.1208	-2.1729	-2.4229	-1.8708	-2.1312	-2.1792	-1.9562	-2.2896	-2.0708	-2.0583	-68.950	-22.987	-132.747	144.878	3.702	-63.252	36.740	-169.600	167.135	-16.034	-43.679	-166.944	-131.459	131.388	-167.391	87.336	0.00074255	0.00040132	6.3767e-05	628.95	2.5545e-06	3.0764e-06	685.72	240.15	5.4263e-06	3.8858e-06	297.28	116.05	87.766	43.495	4.5837e-06	67.351	0.00022481	0.0001629	4.5424e-05	615.2	1.822e-06	1.7832e-06	667.61	235.78	1.8241e-06	1.7702e-06	285.74	113.89	85.283	42.835	1.8573e-06	66.488	182.109	-79.853	-72.988	-161.402	-17.623	-41.737	-162.468	-156.515	-71.705	-44.639	-158.536	-154.089	-153.166	-146.496	-42.765	-149.384	-8191	255	
11919.180	1	1	0	0	0.099702	0.11924	0.15656	0.18935	0.11197	0.16215	0.45568	0.30458	0.11053	0.084941	0.14936	0.39791	0.20351	0.1258	0.086369	0.20743	-2.1333	-1.8792	-2.2396	-2.3688	-1.8167	-2.3146	-2.2542	-2.1729	-2.4354	-2.0458	-2.0875	-2.1813	-1.8833	-2.3229	-2.0708	-2.0917	25.182	-106.019	-38.855	-101.267	-35.121	-101.908	-140.099	101.074	31.678	-61.196	-108.129	-154.464	-47.333	92.150	-4.481	30.352	0.00075302	0.00012577	7.0281e-05	630.45	3.322e-06	1.0759e-06	683.27	240.83	5.4068e-06	2.1421e-06	296.88	116.71	87.405	43.585	4.4081e-06	67.251	0.00022331	0.00016903	4.5574e-05	617.71	1.8237e-06	1.7612e-06	668.48	236.28	1.8112e-06	1.8298e-06	286.57	114.06	85.376	42.923	1.8478e-06	66.343	180.815	-114.376	-79.275	-161.340	-25.113	-11.815	-162.189	-155.995	-73.532	-20.229	-157.403	-152.563	-152.145	-145.629	-71.054	-148.258	-8191	255	
11919.276	1	1	0	0	0.28905	0.032803	0.22091	0.15435	0.074237	0.17004	0.31461	0.10524	0.19387	0.18707	0.070875	0.08779	0.11409	0.1022	0.14401	0.20194	-2.2313	-2.0104	-2.125	-2.6167	-1.7729	-2.4062	-2.4458	-2.0187	-2.4083	-2.0646	-2.2542	-2.3375	-1.8771	-2.375	-2.2604	-2.0917	14.301	149.738	-110.384	-8.086	135.821	-75.890	156.185	-35.368	-97.803	88.670	167.711	92.257	102.049	-110.439	139.641	145.196	0.00076562	0.0005523	0.00010371	634.49	2.3362e-06	3.8677e-06	682.14	241.04	6.1804e-06	7.2973e-06	295.93	115.13	87.606	43.097	3.9332e-06	66.548	0.0002235	0.00016563	4.6108e-05	617.31	1.7693e-06	1.782e-06	666.12	235.79	1.807e-06	1.778e-06	283.91	112.73	85.172	42.498	1.8065e-06	65.586	181.578	-97.103	-115.213	-160.536	-51.777	-46.720	-161.382	-155.459	-65.724	-27.252	-157.354	-152.872	-151.652	-145.543	-84.357	-148.407	-8191	255	
11919.397	1	1	0	0	0.18261	0.21779	0.13896	0.26257	0.25998	0.06293	0.3531	0.15651	0.13152	0.08704	0.12827	0.23988	0.11029	0.18072	0.098467	0.25521	-1.9438	-1.9146	-1.9083	-2.4083	-1.9542	-2.2438	-2.4292	-2.0042	-2.2917	-2.175	-1.9062	-2.5042	-2.1042	-2.4083	-2.2667	-2.075	-103.392	-51.620	67.686	-125.660	-20.437	152.346	164.666	-152.234	113.240	175.519	-109.528	182.716	-167.733	42.037	99.190	119.332	0.00072727	0.00075632	0.00012083	632.9	2.7245e-06	4.4341e-06	677.32	238.67	5.8454e-06	6.5779e-06	294.81	114.49	87.014	42.97	3.6134e-06	66.574	0.00022091	0.00016755	4.4408e-05	613.93	1.7387e-06	1.7779e-06	661.25	233.93	1.799e-06	1.7436e-06	282.67	112.36	84.555	42.283	1.8124e-06	65.381	183.103	-69.644	-109.055	-160.253	-39.404	7.869	-161.394	-155.419	-85.154	-14.927	-157.651	-152.834	-152.141	-145.555	-29.919	-148.281	-8191	255	
11919.491	1	1	0	0	0.15491	0.27096	0.19474	0.075663	0.11456	0.22477	0.36708	0.34669	0.17963	0.059368	0.19565	0.050348	0.35335	0.20491	0.10084	0.26366	-1.9583	-2.1063	-2.0646	-2.3396	-1.9896	-2.3292	-2.4375	-1.9104	-2.2687	-2.2646	-1.9229	-2.6479	-2.2479	-2.2021	-2.4208	-2.1583	-118.734	52.382	-29.028	122.745	137.958	-8.443	70.860	132.112	-81.085	-161.240	-24.226	68.062	143.606	143.561	4.574	170.064	0.00075073	0.00047056	0.00011917	631.44	5.2941e-06	4.1662e-06	681.13	241.04	4.1481e-06	2.9767e-06	293.23	116.13	88.502	43.902	4.1898e-06	67.721	0.00022708	0.00016257	4.4687e-05	615.97	1.7467e-06	1.7106e-06	666.09	236.38	1.8037e-06	1.8002e-06	284.97	113.8	85.859	43.178	1.8317e-06	66.691	183.472	-77.146	-112.184	-160.228	-57.499	-54.785	-161.187	-155.453	-71.572	-0.045	-157.438	-152.664	-152.134	-145.361	-74.823	-148.222	-8191	255	
11919.565	1	1	0	0	0.028349	0.089416	0.033614	0.16779	0.027593	0.084666	0.24316	0.31515	0.095409	0.22499	0.33935	0.25632	0.36743	0.32925	0.10205	0.11464	-1.6625	-2.125	-1.8208	-2.4708	-1.9604	-2.0917	-2.3708	-2.1146	-2.1583	-2.1937	-1.9792	-2.5708	-2.0854	-2.3146	-2.3354	-2.0333	7.124	-109.491	165.919	39.644	-119.359	-57.224	149.722	150.636	-125.186	-58.021	139.636	169.703	115.921	160.015	-75.825	34.856	0.00071454	0.00023297	0.00010945	638.04	3.4363e-06	7.0134e-06	685.56	242.31	3.488e-06	3.1327e-06	296.29	116.82	88.671	44.217	5.4697e-06	68.061	0.00022511	0.00016301	4.661e-05	619.65	1.806e-06	1.8039e-06	669.3	237.42	1.8649e-06	1.8141e-06	286.94	114.92	86.343	43.472	1.8547e-06	67.201	179.532	-83.764	-99.498	-160.034	-39.027	-32.713	-161.552	-155.629	-83.000	-18.344	-157.529	-152.650	-152.400	-145.583	-35.211	-148.314	-8191	255	
11919.683	1	1	0	0	0.17563	0.15676	0.19201	0.069784	0.14598	0.26983	0.21051	0.11263	0.15808	0.3749	0.29696	0.14964	0.38606	0.14154	0.15982	0.25886	-1.7479	-2.1083	-1.8396	-2.3979	-2.0167	-1.9625	-2.5167	-1.9792	-2.0833	-2.2812	-1.9667	-2.5208	-2.125	-1.9438	-2.5125	-2.2292	33.342	-132.995	183.525	108.343	31.287	141.684	170.892	166.060	16.935	20.863	-160.910	-170.653	-58.071	151.473	-15.416	138.130	0.00073014	0.00027415	0.00013249	634.37	4.2896e-06	2.8085e-06	681.89	241.44	3.1695e-06	4.4526e-06	295.23	115.86	88.828	43.732	3.5996e-06	67.564	0.00022618	0.0001653	4.5434e-05	617.19	1.7838e-06	1.7596e-06	666.08	235.81	1.8177e-06	1.7393e-06	284.76	113.59	85.844	43.128	1.8178e-06	66.498	181.537	-77.154	-103.893	-160.306	-53.890	-30.257	-161.507	-155.482	-68.427	-34.790	-157.392	-152.866	-152.161	-145.441	-30.998	-148.401	-8191	255	
11919.780	1	1	0	0	0.039809	0.16549	0.13976	0.12441	0.167	0.13746	0.49617	0.40339	0.14726	0.36069	0.25989	0.076845	0.054071	0.035508	0.16837	0.070732	-1.8625	-2.2438	-1.9167	-2.3	-2.1479	-1.9042	-2.5708	-2.2625	-2.1688	-2.3896	-1.8188	-2.4854	-2.2521	-2.0646	-2.3458	-2.2792	-100.910	181.291	-170.192	-37.407	36.956	7.725	129.582	97.753	179.936	-5.481	-97.107	185.802	-136.101	128.541	124.222	185.624	0.00070826	0.00062759	0.00015279	636.65	1.8912e-06	6.0997e-06	677.44	241.47	1.9267e-06	6.0284e-06	296.7	115.81	87.586	43.754	3.5392e-06	67.453	0.00022295	0.00016097	4.4747e-05	618.22	1.7864e-06	1.7802e-06	665.44	236.58	1.8778e-06	1.7611e-06	284.31	113.48	85.263	43.112	1.8072e-06	66.413	182.940	-97.567	-78.788	-160.240	-52.439	-41.199	-161.503	-155.380	-63.918	-22.214	-157.364	-152.508	-151.823	-145.734	-28.404	-148.172	-8191	255	
11919.876	1	1	0	0	0.14014	0.067017	0.15897	0.068255	0.18082	0.19315	0.20713	0.20549	0.25672	0.19729	0.23601	0.41671	0.11424	0.13813	0.17731	0.13237	-1.6042	-2.4396	-1.9625	-2.3	-2.3875	-2.0333	-2.5563	-2.125	-2.1292	-2.5104	-2.0458	-2.3354	-2.2792	-2.0417	-2.2521	-2.4562	-82.079	-104.126	-16.647	111.928	-17.669	131.183	151.806	166.974	-68.747	-99.058	106.569	173.143	-88.433	142.538	163.791	172.408	0.0007353	0.0003176	0.0001226	635.42	6.0002e-06	5.1476e-06	683.2	242.4	5.0645e-06	5.1354e-06	297.13	116.94	88.475	44.184	3.8355e-06	67.861	0.00022421	0.0001597	4.637e-05	616.6	1.779e-06	1.7591e-06	667.84	237.44	1.8313e-06	1.7593e-06	285.29	114.38	86.136	43.461	1.7945e-06	67.006	179.224	-142.636	-77.176	-160.495	-30.828	-28.994	-161.412	-155.505	-76.319	-48.867	-157.203	-152.834	-152.109	-145.448	-59.908	-148.103	-8191	255	
11919.972	1	1	0	0	0.1313	0.077512	0.13768	0.21049	0.015059	0.25409	0.27581	0.23245	0.068025	0.11023	0.036486	0.16117	0.16917	0.17328	0.21003	0.24799	-1.5375	-2.5062	-1.8979	-2.325	-2.3438	-2.0604	-2.4167	-2.2729	-1.8542	-2.3604	-2.0042	-2.3083	-2.3292	-1.9688	-2.2958	-2.2896	-134.210	-142.037	-36.418	157.102	137.484	135.287	63.085	164.525	-167.351	53.957	-75.562	66.047	182.941	182.391	-61.646	94.104	0.00073968	0.00061472	0.00011713	637.81	1.4145e-06	1.7824e-06	687.88	241.62	5.992e-06	2.5295e-06	300.75	118.04	88.929	44.492	3.0819e-06	68.439	0.00022361	0.00016312	4.4538e-05	620.08	1.8311e-06	1.8071e-06	671.41	237.57	1.8401e-06	1.7748e-06	288.51	115.31	86.655	43.827	1.7807e-06	67.451	183.154	-90.983	-101.248	-160.211	-61.787	-18.018	-161.358	-155.382	-79.461	-29.389	-157.522	-152.663	-151.853	-145.407	-29.011	-148.241	-8191	255	
11920.092	1	1	0	0	0.27126	0.16381	0.04795	0.20087	0.1692	0.26391	0.23141	0.28882	0.26419	0.15589	0.091362	0.20997	0.068607	0.08887	0.070539	0.17262	-1.5833	-2.4583	-1.9542	-2.1917	-2.2146	-1.9604	-2.3063	-2.35	-1.9896	-2.35	-2.2542	-2.0229	-2.2333	-2.0938	-2.2938	-2.3708	-136.676	-132.287	135.749	-39.344	-160.520	109.766	-165.476	147.537	-139.995	-157.750	-37.124	79.444	86.155	-0.768	-105.182	144.451	0.00073937	0.00064603	0.00013108	635.98	2.7933e-06	4.8391e-06	687.44	242.18	5.2089e-06	2.7227e-06	297.97	115.74	88.238	43.851	2.1255e-06	67.544	0.00022232	0.00015935	4.4654e-05	620.75	1.7934e-06	1.848e-06	674.01	237.61	1.8365e-06	1.7514e-06	286.17	113.99	85.477	43.256	1.8418e-06	66.717	178.590	-89.457	-70.917	-159.862	-54.560	-38.564	-161.214	-155.458	-85.947	-13.568	-157.497	-152.709	-151.675	-145.471	-61.041	-148.004	-8191	255	
11920.164	1	1	0	0	0.038046	0.10022	0.14239	0.068778	0.26092	0.065008	0.20532	0.17845	0.16091	0.12736	0.20748	0.074526	0.1215	0.11446	0.26125	0.36444	-1.5146	-2.3375	-2.1771	-2.1833	-2.4313	-1.8833	-2.2146	-2.3521	-1.7854	-2.4604	-2.1604	-2.1208	-2.4854	-1.9792	-2.2521	-2.5687	114.535	21.461	-26.083	-58.025	-70.086	131.510	131.617	-170.598	-41.220	108.950	-30.728	25.734	-34.654	-155.932	178.062	120.497	0.00071816	0.00024571	0.00010639	643.07	3.3059e-06	4.5922e-06	690.5	242.47	1.4643e-06	7.5511e-06	298.56	117.84	88.606	45.385	4.1996e-06	69.757	0.00022604	0.00016991	4.7103e-05	624.92	1.8006e-06	1.8276e-06	675.09	238.2	1.9154e-06	1.8772e-06	287.98	115.3	86.512	44.797	1.9834e-06	68.786	179.335	-44.067	-110.196	-160.243	-23.781	-38.797	-161.418	-155.359	-65.991	-41.597	-157.480	-152.724	-151.649	-145.086	-34.835	-148.217	-8191	255	
11920.260	1	1	0	0	0.13375	0.18312	0.15252	0.18885	0.17885	0.17117	0.067852	0.057778	0.28366	0.10219	0.14355	0.1057	0.15875	0.23019	0.20318	0.20039	-1.3667	-2.2458	-2.1333	-1.8625	-2.4292	-2.0771	-2.2562	-2.5604	-1.9688	-2.2667	-2.3021	-1.9083	-2.4646	-2.1958	-2.1667	-2.5062	-104.174	-108.236	60.319	-142.262	-113.414	-63.379	118.461	-102.540	-67.065	5.656	-147.633	19.838	1.426	166.003	148.993	138.687	0.00069506	0.00050425	9.4807e-05	663.23	4.259e-06	2.9749e-06	707.5	247.17	4.9321e-06	6.7707e-06	300.09	117.51	90.286	45.785	4.3323e-06	70.74	0.0002449	0.00018248	5.1366e-05	644.22	2.0157e-06	1.9564e-06	690.37	242.34	1.9606e-06	1.919e-06	288.97	115.38	87.253	45.2	1.859e-06	69.469	179.416	-68.175	-97.418	-160.098	-30.989	-70.028	-161.421	-155.419	-30.159	-15.618	-156.778	-152.406	-151.972	-145.434	-59.617	-148.332	-8191	255	
11920.356	1	1	0	0	0.40253	0.16409	0.13194	0.28075	0.10917	0.26653	0.26734	0.19917	0.25067	0.27098	0.26365	0.23746	0.10726	0.39002	0.16396	0.20589	-1.3271	-2.2833	-2.0938	-2.025	-2.3	-2.1208	-1.9438	-2.5729	-1.975	-2.2062	-2.2021	-1.9875	-2.3917	-2.2917	-1.9646	-2.6875	-31.559	125.911	-36.818	-160.064	80.746	170.380	134.945	136.830	27.915	69.409	-95.073	-145.629	86.532	164.851	125.552	149.371	0.00078479	0.00048794	0.00010232	659.78	2.4956e-06	2.6894e-06	709.34	248.64	5.05e-06	3.7743e-06	306.19	119.8	90.201	46.697	5.4549e-06	71.326	0.00023363	0.00016657	4.5956e-05	644.66	1.7507e-06	1.791e-06	693.37	244.01	1.7569e-06	1.7464e-06	292.68	117.15	88.044	45.842	1.7777e-06	70.076	181.152	-84.980	-104.357	-160.434	-20.087	-1.556	-161.227	-155.500	-63.969	-35.269	-157.149	-152.203	-151.270	-145.365	-39.511	-148.405	-8191	255	
11920.475	1	1	0	0	0.21596	0.092124	0.13061	0.19745	0.019175	0.12649	0.22269	0.1087	0.2176	0.015827	0.11108	0.1734	0.2321	0.2182	0.069774	0.32223	-1.6021	-2.3104	-2.2042	-2.1021	-2.3708	-2.2521	-2.2833	-2.6	-1.9375	-2.2125	-2.4083	-2.0438	-2.4813	-2.3229	-1.9854	-2.4896	-122.492	-135.331	139.100	144.777	-163.592	55.798	34.787	154.957	86.927	-165.667	-91.958	39.039	82.664	99.587	-153.007	81.656	0.00078616	0.00022445	0.00014616	683.45	2.8316e-06	2.3688e-06	730.14	258.55	5.7686e-06	3.2509e-06	308.82	123.46	95.838	49.997	4.5164e-06	74.442	0.0002252	0.00015566	4.433e-05	664.5	1.7474e-06	1.72e-06	713.99	253.33	1.7758e-06	1.7322e-06	298.76	120.99	92.751	49.26	1.7871e-06	73.31	182.086	-9.523	-81.296	-160.315	-20.035	-28.424	-161.161	-155.441	-61.796	-47.660	-157.478	-152.187	-152.077	-145.496	-43.720	-148.297	-8191	255	
11920.571	1	1	0	0	0.28571	0.23527	0.27432	0.14859	0.36409	0.040339	0.15387	0.15141	0.25388	0.21436	0.21536	0.15291	0.23934	0.32218	0.26196	0.29789	-1.5625	-2.0708	-2.3833	-2.0583	-2.0854	-2.1979	-2.1125	-2.4479	-2.0729	-2.2542	-2.4104	-1.925	-2.35	-2.2479	-1.7271	-2.4271	51.923	73.818	-172.655	69.397	108.077	54.239	55.551	-80.412	-76.700	25.635	-2.795	-108.880	-57.391	183.526	-148.378	134.232	0.00081948	0.00036907	0.00011161	741.45	3.6171e-06	6.8405e-06	765.89	272.1	4.9507e-06	1.7719e-06	316	125.01	100.28	53.405	6.341e-06	74.441	0.00023091	0.00015867	4.4507e-05	720.21	1.7589e-06	1.7697e-06	750.12	266.13	1.8018e-06	1.759e-06	301.7	122.62	97.125	52.522	1.8865e-06	73.352	180.096	-68.062	-99.277	-160.348	-32.654	-35.849	-161.354	-155.825	-85.900	-42.345	-157.525	-152.552	-152.013	-146.471	-54.218	-149.975	-8191	255	
11920.668	1	1	0	0	0.085926	0.11651	0.16052	0.22813	0.25104	0.10862	0.25614	0.2963	0.23689	0.14849	0.26561	0.08914	0.18266	0.060785	0.086863	0.34286	-1.6333	-2.0708	-2.1917	-1.8875	-2.1646	-2.1771	-1.8604	-2.2125	-2.2354	-1.9292	-2.4542	-1.8062	-2.4167	-2.3271	-1.9375	-2.4583	-87.680	78.049	128.484	156.848	162.938	22.058	109.119	96.616	-123.256	-69.763	-31.086	50.205	4.995	-51.161	-55.021	-157.967	0.00083971	0.00090918	0.00011931	796.56	2.1502e-06	2.0393e-06	779.99	273.27	5.5012e-06	1.3368e-06	303.21	129.5	109.46	57.582	4.5661e-06	75.15	0.00023528	0.00017233	4.815e-05	778.16	1.9107e-06	1.9494e-06	762.15	268.59	2.1232e-06	2.1107e-06	293.77	126.7	106.27	56.819	2.3959e-06	74.181	181.413	-72.198	-97.921	-161.587	-28.995	-41.400	-162.904	-156.854	-61.913	17.923	-158.779	-153.337	-152.636	-146.539	-48.175	-149.323	-8191	255	
11920.764	1	1	0	0	0.25104	0.12037	0.26003	0.26602	0.069369	0.23971	0.3205	0.30242	0.20361	0.16063	0.15057	0.18063	0.23341	0.18548	0.18748	0.17162	-1.8625	-1.8396	-2.4437	-2.0958	-2.1979	-2.4417	-1.9979	-2.4479	-2.1708	-1.9917	-2.3167	-2.2167	-2.1063	-2.6021	-1.9688	-2.45	59.159	156.801	183.685	120.711	-22.079	144.554	55.538	92.368	165.099	124.040	165.756	166.540	-130.883	65.123	-138.408	151.220	0.00085916	0.00044501	0.00012073	850.17	5.8106e-06	3.3495e-06	784.88	290.54	4.9218e-06	6.2716e-06	317.26	145.83	124.7	64.145	2.8608e-06	78.278	0.00029381	0.00024413	6.8402e-05	830.71	2.7366e-06	2.7875e-06	769.34	285.57	2.8677e-06	2.8126e-06	307.28	143.68	121.25	63.431	3.0106e-06	77.384	182.939	-68.579	-50.223	-161.461	-60.358	-35.451	-162.396	-156.274	-63.899	-19.636	-157.666	-153.488	-152.497	-146.303	-72.052	-149.447	-8191	255	
11920.860	1	1	0	0	0.19894	0.07889	0.18611	0.18138	0.31273	0.29084	0.099961	0.1573	0.20786	0.11225	0.1554	0.19793	0.035253	0.21136	0.42451	0.1793	-1.8125	-1.8354	-2.4729	-1.9792	-2.1375	-2.6375	-2.05	-2.2583	-2.3583	-1.8771	-2.2438	-2.2021	-2.1542	-2.5312	-2	-2.2833	-75.566	176.196	-18.406	118.559	-78.163	89.062	-172.136	103.014	-126.814	-63.421	-149.663	158.759	-124.446	-149.778	-153.467	115.246	0.00087761	0.00051918	0.00015474	806.31	4.5221e-06	7.0284e-06	749.64	268.48	5.5565e-06	3.4715e-06	287.84	124.96	102.76	55.103	1.9886e-06	71.695	0.00034285	0.00027927	7.9659e-05	785.7	3.1484e-06	3.135e-06	732.76	263.97	3.1315e-06	3.1134e-06	279.19	123.02	100.7	54.398	3.1361e-06	70.656	179.570	-88.979	-97.326	-160.985	-22.681	-19.645	-161.660	-155.580	-93.947	-36.514	-156.624	-152.445	-151.304	-145.344	-111.463	-148.560	-8191	255	
11920.956	1	1	0	0	0.069544	0.20962	0.15512	0.14393	0.20185	0.093111	0.11541	0.24365	0.085281	0.20978	0.18842	0.068037	0.14706	0.29335	0.26132	0.083592	-2.025	-1.6417	-2.2771	-2.3167	-1.7729	-2.5208	-2.0917	-2.45	-2.3646	-1.9875	-2.3479	-2.3354	-1.9083	-2.5208	-2.0146	-2.1958	174.424	94.224	127.009	78.223	-50.498	-109.302	47.356	98.492	19.052	-79.799	-29.459	107.069	45.686	171.723	-148.375	77.254	0.00080586	0.00063263	0.00014445	751.75	5.2408e-06	3.5291e-06	722.06	257.51	5.8927e-06	1.7908e-06	289.1	124.56	100.78	57.687	7.638e-06	76.866	0.00032743	0.0002682	7.1879e-05	733.67	2.8122e-06	2.7715e-06	707.21	253.85	2.792e-06	2.7344e-06	279.67	122.8	98.505	56.897	2.8112e-06	75.456	182.274	-89.474	-71.865	-161.036	-46.308	22.020	-161.922	-155.664	-78.789	-62.912	-157.047	-152.117	-152.278	-145.808	-36.229	-148.677	-8191	255	
11921.077	1	1	0	0	0.24302	0.16953	0.032984	0.16632	0.16912	0.38007	0.17531	0.0078163	0.14697	0.2413	0.13556	0.18055	0.027188	0.26878	0.14984	0.1814	-2.0083	-1.8604	-2.4104	-2.2417	-1.7313	-2.4896	-2.0792	-2.1667	-2.3312	-1.9312	-2.2729	-2.3917	-1.9813	-2.1979	-2.1104	-2.3125	135.023	100.788	96.076	111.324	145.736	112.227	34.491	-105.893	35.103	-109.548	-59.276	20.845	150.581	95.079	118.449	124.925	0.00082811	0.00051817	0.00010094	749.51	2.2793e-06	6.3388e-06	725.96	263.2	5.0459e-06	2.7349e-06	290.23	126.04	100.02	58.313	5.8112e-06	77.399	0.0003096	0.00025219	6.9412e-05	732.05	2.659e-06	2.6852e-06	712	258.41	2.7462e-06	2.7053e-06	282.06	123.66	97.912	57.554	2.8812e-06	76.774	182.222	-87.434	-107.288	-160.919	-33.907	-25.124	-161.994	-155.943	-68.125	-91.312	-156.646	-152.623	-151.780	-145.782	-60.025	-148.912	-8191	255	
11921.173	1	1	0	0	0.12822	0.024872	0.076118	0.19879	0.1509	0.11095	0.15604	0.15066	0.21506	0.35663	0.16126	0.033998	0.13154	0.055218	0.066715	0.213	-1.9479	-1.9604	-2.1667	-2.2521	-2.1021	-2.2917	-2.3042	-2.0521	-2.5292	-1.8687	-2.1396	-2.2562	-1.9542	-2.4125	-1.9917	-2.0875	85.656	34.726	114.556	-125.388	65.468	115.201	-157.513	95.590	-57.138	165.141	141.038	-123.850	-62.934	18.801	-89.472	136.427	0.00082397	0.00031479	0.0001683	743.14	4.4435e-06	5.8499e-06	722.84	260.03	4.9396e-06	6.0022e-06	287.26	123.82	98.153	57.113	5.0547e-06	76.866	0.00031362	0.00025202	7.0504e-05	726.69	2.8608e-06	2.7951e-06	711.27	255.07	2.8381e-06	2.9431e-06	280.52	122.11	96.061	56.264	2.966e-06	75.759	181.974	-101.254	-75.334	-160.997	-80.190	-34.284	-162.118	-155.911	-102.973	-70.641	-157.390	-152.680	-151.806	-146.043	-29.195	-148.996	-8191	255	
11921.269	1	1	0	0	0.088248	0.24021	0.028675	0.11769	0.17325	0.068108	0.11554	0.27892	0.085298	0.18491	0.40921	0.16298	0.16269	0.23048	0.01494	0.28125	-1.9917	-1.8	-1.9813	-2.2438	-1.8625	-2.5354	-2.2229	-1.8625	-2.5062	-2.0417	-2.1604	-2.4104	-1.9896	-2.3292	-2.2	-2.0417	-39.747	185.122	-82.430	95.014	124.365	180.637	68.227	142.748	39.319	141.456	177.740	65.564	54.885	-170.239	174.471	126.950	0.00083561	0.00059847	0.0001202	729.81	5.3581e-06	2.8802e-06	719.07	252.68	3.8454e-06	6.613e-06	283.83	122.48	95.291	55.134	5.4123e-06	75.664	0.00033422	0.00027286	7.5694e-05	713.79	3.0519e-06	3.0484e-06	706.71	247.79	3.0982e-06	3.0601e-06	278.04	120.91	93.28	54.544	3.2414e-06	74.304	180.815	-67.302	-105.100	-161.318	2.401	112.121	-161.640	-155.996	-55.786	-41.968	-157.608	-152.561	-151.813	-146.019	8.183	-148.914	-8191	255	
11921.388	1	1	0	0	0.14879	0.17255	0.19298	0.29838	0.083186	0.23506	0.1366	0.23606	0.13518	0.026768	0.31024	0.35254	0.21957	0.085321	0.18651	0.1656	-1.7875	-1.9333	-2.1813	-2.3438	-1.9438	-2.2188	-2.3542	-1.9813	-2.4083	-2.15	-2.0062	-2.4062	-1.7875	-2.3458	-2.1229	-1.9708	185.810	-106.449	-83.490	124.175	-48.072	-23.487	158.734	165.292	114.068	173.374	173.284	170.722	-121.922	-140.114	7.822	-155.474	0.00079106	0.0003604	0.00014579	720.08	4.3934e-06	4.3902e-06	714.72	244.7	3.9782e-06	6.8753e-06	279.65	120.72	93.135	54.77	2.153e-06	75.571	0.00033673	0.00029137	8.1065e-05	702.34	3.1792e-06	3.1707e-06	701.69	239.98	3.2062e-06	3.1878e-06	273.78	119.23	91.519	53.979	3.1415e-06	74.705	183.123	-107.377	-127.332	-161.116	55.126	-28.905	-162.011	-155.895	-75.291	-21.638	-157.756	-152.600	-151.987	-145.941	-68.749	-148.924	-8191	255	
11921.460	1	1	0	0	0.064685	0.048273	0.29113	0.20874	0.23496	0.21793	0.34032	0.33519	0.091196	0.25301	0.18355	0.070607	0.21767	0.057852	0.13262	0.13787	-1.8917	-1.975	-1.8521	-2.3	-1.8771	-2.2292	-2.5687	-1.8646	-2.2708	-2.1021	-1.8917	-2.3563	-2.0771	-2.1979	-2.2375	-1.8958	-172.240	124.708	76.574	-91.819	-70.545	11.913	165.126	96.859	101.425	-115.826	-42.026	84.648	-25.305	99.993	140.424	86.794	0.00079182	0.00062687	0.0002164	711.79	4.5289e-06	1.739e-06	712.16	245.9	4.0853e-06	3.172e-06	282.63	122.61	94.925	56.041	2.2474e-06	77.708	0.00034153	0.00028282	7.7923e-05	695.41	3.0605e-06	2.9705e-06	700.08	241.6	2.9612e-06	2.9515e-06	275.85	120.93	92.855	55.256	2.9007e-06	76.455	179.229	-51.455	-75.819	-161.210	-29.437	-71.237	-162.602	-155.931	-81.611	-1.009	-157.548	-152.919	-152.215	-146.384	20.874	-149.069	-8191	255	
11921.556	1	1	0	0	0.056334	0.23879	0.060264	0.23219	0.22149	0.17871	0.12099	0.15556	0.065329	0.23675	0.25551	0.31996	0.18012	0.29733	0.25793	0.20313	-1.9896	-1.8208	-1.9104	-2.5792	-1.9667	-2.1167	-2.4021	-1.9729	-2.2271	-2.1437	-1.9521	-2.4333	-2.0729	-2.1271	-2.5062	-1.9896	87.357	-70.129	-79.417	-151.062	-158.377	103.604	-71.686	-159.108	95.276	-161.301	161.882	140.939	-115.079	175.444	157.039	168.813	0.00083045	0.00032666	8.074e-05	707.78	5.0336e-06	1.1079e-06	719.9	247.67	5.3673e-06	2.123e-06	286.46	125.03	95.265	56.294	4.7981e-06	78.549	0.00032126	0.00025942	7.1244e-05	695.31	2.7657e-06	2.7884e-06	704.7	243.92	2.7779e-06	2.7614e-06	278.21	123.16	93.557	55.744	2.7734e-06	77.36	178.782	-77.419	-105.186	-161.151	-62.534	-121.114	-162.494	-156.048	-74.515	-54.788	-157.162	-153.027	-151.905	-146.149	-48.925	-149.382	-8191	255	
11921.652	1	1	0	0	0.13017	0.17525	0.14229	0.22915	0.13266	0.12047	0.085679	0.29109	0.12602	0.15038	0.14485	0.17126	0.16187	0.35646	0.21866	0.057814	-1.8375	-2.1688	-1.7	-2.5021	-2.1521	-1.9771	-2.4562	-2.0146	-2.1188	-2.2438	-1.8667	-2.4708	-2.1063	-2.0687	-2.5062	-2.325	61.454	12.444	61.771	145.367	-59.781	109.188	104.708	115.978	-104.383	55.344	-5.443	96.025	114.126	149.719	-13.063	13.079	0.00084559	0.00029152	0.00013144	705.55	2.7263e-06	3.768e-06	720.79	246.35	3.9753e-06	4.4513e-06	288.46	124.47	93.693	55.774	4.258e-06	77.665	0.00030945	0.00024694	6.7807e-05	690.18	2.7027e-06	2.6515e-06	706.14	242.36	2.6614e-06	2.6287e-06	278.69	122.24	92.183	54.926	2.7139e-06	76.619	178.269	-106.726	-66.338	-161.386	-35.616	-37.773	-162.218	-156.238	-95.948	-8.236	-157.693	-152.923	-151.891	-145.997	-70.491	-149.130	-8191	255	
11921.772	1	1	0	0	0.40589	0.21369	0.20978	0.1591	0.27287	0.27197	0.11043	0.29167	0.023978	0.089467	0.059505	0.16305	0.085707	0.24027	0.21283	0.22928	-1.8792	-2.3771	-1.7792	-2.2458	-2.1396	-1.9875	-2.3875	-1.9208	-2.1562	-2.5625	-1.8062	-2.1771	-2.0667	-2.0271	-2.5333	-2.2042	104.771	-75.596	71.963	184.527	74.233	-161.493	115.993	83.220	-90.721	-11.487	-8.666	29.578	58.033	132.615	77.466	-130.835	0.00089678	0.00048124	8.5805e-05	705.98	2.5812e-06	8.2155e-06	723.52	246.53	3.9855e-06	7.7228e-06	284.96	123.71	93.162	54.635	6.7429e-06	76.798	0.00030742	0.00023968	6.7757e-05	690.84	2.7016e-06	2.5985e-06	709.02	241.78	2.667e-06	2.6098e-06	276.71	121.31	91.478	53.983	2.6748e-06	75.659	180.858	-75.067	-80.319	-161.211	-59.860	-21.955	-161.996	-156.125	-88.891	-54.803	-157.603	-152.597	-151.662	-145.966	-41.291	-148.674	-8191	255	
11921.869	1	1	0	0	0.095144	0.093744	0.18957	0.25773	0.074966	0.21391	0.16646	0.09747	0.16618	0.057696	0.075686	0.31017	0.035255	0.22031	0.32832	0.30766	-1.5729	-2.5229	-1.7792	-2.1854	-2.2875	-1.8813	-2.5354	-2.0812	-2.0771	-2.2792	-1.7521	-2.4708	-1.9875	-2.0062	-2.3688	-2.475	64.044	-91.879	-48.211	-68.201	125.454	2.595	172.911	91.541	89.368	-172.652	100.874	134.283	50.488	-173.112	-125.694	182.643	0.00083018	0.00047187	5.9098e-05	707.18	4.0962e-06	2.5742e-06	723.23	248.22	3.5818e-06	8.1365e-06	283.56	122.81	93.815	54.693	4.1094e-06	76.353	0.00030091	0.00024097	6.7417e-05	692.98	2.6199e-06	2.5659e-06	706.25	242.35	2.6601e-06	2.5978e-06	276.53	120.62	91.632	53.867	2.6228e-06	75.197	180.782	-122.641	-57.624	-161.569	-80.193	-2.388	-161.940	-156.402	-34.483	-42.099	-157.632	-152.801	-152.025	-146.227	-75.332	-149.041	-8191	255	
11921.965	1	1	0	0	0.22792	0.29212	0.13951	0.074882	0.18516	0.29386	0.030295	0.24243	0.24164	0.27907	0.22064	0.37577	0.15094	0.074993	0.24174	0.22145	-1.6104	-2.3229	-1.8813	-2.1479	-2.3104	-1.9625	-2.5229	-2.1229	-1.8854	-2.5229	-1.8792	-2.0896	-2.4396	-1.9104	-2.2104	-2.4146	-99.789	122.502	35.517	31.967	-173.878	180.252	96.011	113.763	-6.684	14.333	-142.564	153.710	-32.162	-55.254	185.733	178.231	0.00080766	0.00064808	0.00012238	710.26	7.1866e-06	5.3785e-06	723.41	247.42	4.2001e-06	2.3123e-06	283.55	121.67	93.738	55.053	4.5148e-06	77.239	0.0002954	0.00022972	6.588e-05	697.37	2.5983e-06	2.5851e-06	705.91	243.63	2.6311e-06	2.544e-06	276.59	120.62	91.63	54.281	2.5514e-06	76.147	180.690	-63.994	-85.098	-161.150	-12.608	-25.296	-161.845	-156.000	-83.259	-47.765	-157.845	-152.808	-152.305	-145.829	-46.291	-149.078	-8191	255	
11922.036	1	1	0	0	0.11333	0.094394	0.075099	0.16231	0.15342	0.17717	0.056287	0.073786	0.21202	0.27324	0.081794	0.14818	0.22159	0.19943	0.21546	0.28995	-1.6625	-2.4562	-2.0396	-2.1792	-2.2792	-1.8875	-2.4979	-2.2083	-1.7	-2.3854	-1.9062	-2	-2.4771	-1.9833	-2.0958	-2.3625	-101.483	-166.787	-32.762	-162.587	116.118	-57.559	166.237	-13.442	-120.969	-45.513	-143.538	-140.664	51.017	80.283	161.997	135.894	0.00086259	0.00017205	0.00013988	719.08	3.1462e-06	4.5548e-06	719.63	250.08	3.4427e-06	2.3792e-06	291.43	124.13	94.954	55.738	3.9618e-06	79.179	0.00029605	0.00023105	6.4685e-05	696.7	2.4857e-06	2.4037e-06	707.46	245.66	2.5201e-06	2.4143e-06	280.15	122.12	92.634	54.836	2.4083e-06	77.878	179.633	-47.651	-97.320	-161.413	-83.258	-34.736	-162.454	-156.172	-82.414	-39.830	-157.805	-152.868	-152.149	-146.217	-55.033	-149.364	-8191	255	
11922.157	1	1	0	0	0.041956	0.18886	0.15407	0.080862	0.13204	0.14981	0.0872	0.33739	0.21102	0.12846	0.1849	0.15075	0.13467	0.48471	0.15928	0.16623	-1.5063	-2.3542	-2.0271	-2.2729	-2.3604	-1.9979	-2.0292	-2.3063	-1.9979	-2.3771	-2.0208	-2.0979	-2.3354	-1.9312	-2.2062	-2.3083	149.425	-72.798	-157.598	155.943	179.592	-119.802	174.615	113.012	-163.805	-104.824	-171.621	64.101	-65.557	107.411	-107.805	132.721	0.00087979	0.00054274	0.00012016	718.72	3.6553e-06	4.5933e-06	730.36	255.46	6.2775e-06	5.059e-06	293.23	126.18	95.91	55.888	6.9032e-06	80.181	0.00028613	0.0002139	5.9021e-05	701	2.3256e-06	2.3203e-06	717.08	250.08	2.3781e-06	2.277e-06	284.76	123.96	93.148	55.151	2.3612e-06	78.999	181.459	-72.835	-82.426	-161.887	-25.854	-57.439	-162.778	-156.602	-72.468	-48.568	-157.823	-153.281	-152.953	-146.836	-50.531	-149.611	-8191	255	
11922.253	1	1	0	0	0.25978	0.19607	0.24644	0.052908	0.15803	0.1762	0.06363	0.1753	0.14893	0.48826	0.11234	0.074684	0.23939	0.060711	0.19815	0.24515	-1.4146	-2.3875	-2.0375	-1.95	-2.3792	-1.75	-2.2417	-2.3958	-1.9188	-2.3229	-2.4104	-1.9729	-2.5125	-2.0708	-2.1604	-2.5187	143.756	-140.460	178.388	80.806	81.299	-11.304	28.939	-141.013	-168.638	-134.660	-78.887	-49.553	-133.104	-166.924	-130.598	110.505	0.0008932	0.00056705	0.00010715	726.11	3.1166e-06	4.0192e-06	739.32	256.54	5.4659e-06	5.2818e-06	296.03	125.79	95.746	55.78	5.5002e-06	79.302	0.0002799	0.00021563	5.9579e-05	703.88	2.3004e-06	2.2967e-06	723.17	251.41	2.4002e-06	2.2566e-06	285.49	123.65	93.327	54.982	2.2986e-06	78.252	181.742	-64.196	-84.811	-161.712	-54.741	-62.973	-162.534	-156.803	-74.633	-52.728	-158.279	-153.174	-152.819	-146.761	-55.976	-149.690	-8191	255	
11922.349	1	1	0	0	0.18906	0.087984	0.2415	0.27855	0.12185	0.20007	0.4165	0.33662	0.25556	0.12368	0.16266	0.09015	0.11356	0.1374	0.25606	0.16878	-1.4708	-2.1958	-2.0833	-1.9729	-2.4708	-2.1604	-2.1833	-2.4813	-1.8354	-2.2958	-2.2188	-1.925	-2.3271	-2.1125	-2.0333	-2.5146	-82.819	-13.289	44.714	8.140	175.685	83.633	30.673	124.028	4.635	-73.669	16.540	172.990	-8.132	-151.757	174.749	-165.394	0.0008977	0.00068579	0.00012326	720.06	5.0406e-06	3.0151e-06	731.99	255.51	4.3825e-06	4.6129e-06	293.29	125.09	95.517	55.245	4.999e-06	78.701	0.00027521	0.00020337	5.8721e-05	701.81	2.2501e-06	2.2239e-06	717.67	250.74	2.3005e-06	2.2074e-06	283.17	122.92	93.04	54.543	2.2712e-06	77.578	181.078	-68.995	-63.132	-161.691	-82.688	-76.902	-162.497	-156.958	-38.734	-27.702	-157.875	-153.114	-152.600	-146.761	-34.894	-149.593	-8191	255	
11922.470	1	1	0	0	0.15137	0.23595	0.10685	0.33702	0.23647	0.25156	0.17023	0.28807	0.50809	0.17198	0.23791	0.46024	0.088118	0.16453	0.16187	0.074761	-1.5833	-2.0792	-2.2167	-1.7687	-2.3875	-2.0854	-2.1042	-2.4062	-2.0312	-2.0833	-2.2208	-1.8438	-2.2396	-2.2188	-1.9438	-2.5708	-148.262	-4.328	145.474	133.234	111.772	107.903	46.399	128.508	8.200	-118.723	177.120	96.337	-53.278	-118.653	-99.707	-162.215	0.00084036	0.00032642	9.4848e-05	722.58	4.0027e-06	4.659e-06	734.42	257.9	4.4881e-06	8.0271e-06	297.11	126.69	97.133	56.295	6.057e-06	79.955	0.00027841	0.00020159	5.7178e-05	704.67	2.2743e-06	2.1905e-06	720.83	253.43	2.2579e-06	2.2103e-06	285.85	124.55	94.493	55.412	2.3351e-06	78.704	180.780	-101.820	-80.377	-161.690	-20.272	-21.185	-162.568	-156.929	-71.059	-39.215	-158.650	-153.659	-153.217	-146.864	-37.320	-149.774	-8191	255	
11922.564	1	1	0	0	0.1037	0.048898	0.15684	0.24417	0.12664	0.14287	0.20318	0.31715	0.27278	0.13097	0.28958	0.088138	0.13224	0.24998	0.23964	0.024943	-1.5438	-2.0812	-2.2729	-1.8729	-2.3458	-2.2208	-2.0854	-2.4979	-2.0479	-2.2771	-2.3271	-2	-2.2583	-2.3021	-1.9521	-2.5563	136.682	-29.518	-114.961	145.698	-22.388	-28.661	57.694	152.374	-123.393	-125.575	-107.179	171.737	-9.449	102.715	138.817	-92.123	0.00087838	0.00052993	7.1487e-05	724.89	6.1085e-06	2.7209e-06	743.78	259.87	4.6518e-06	6.0826e-06	300.06	127.67	97.716	56.718	4.5647e-06	80.88	0.00027917	0.00021294	5.8288e-05	708.29	2.2347e-06	2.2424e-06	725.02	255.24	2.3538e-06	2.2771e-06	288.93	125.28	94.949	55.834	2.3165e-06	79.398	183.312	-46.547	-144.699	-161.526	-79.463	-27.756	-162.625	-156.694	-82.658	-9.975	-158.088	-153.313	-152.928	-146.624	-35.177	-149.370	-8191	255	
11922.661	1	1	0	0	0.071136	0.14913	0.21243	0.15024	0.13413	0.027177	0.13896	0.24082	0.10573	0.14994	0.036251	0.15532	0.30208	0.12436	0.1992	0.3491	-1.4604	-2.1104	-2.2125	-2.1042	-2.1917	-2.0438	-1.9292	-2.5187	-2.2042	-1.8646	-2.3208	-2.025	-2.2521	-2.1375	-1.8062	-2.2583	93.786	-4.106	-30.125	-149.717	172.485	97.864	114.764	125.421	143.384	-109.241	-157.439	44.061	69.648	128.493	-12.808	178.619	0.0008935	0.00027792	0.00017737	729.85	2.7271e-06	4.5424e-06	743.97	260.29	4.6635e-06	2.5204e-06	299.24	128.17	98.244	56.526	5.6107e-06	80.861	0.00027815	0.00020741	5.6823e-05	709.55	2.1956e-06	2.2203e-06	728.16	255.6	2.3045e-06	2.2199e-06	289.49	125.64	95.12	55.677	2.2883e-06	79.643	182.076	-107.169	-75.280	-161.271	-61.377	-11.408	-162.171	-156.313	-54.656	-33.964	-157.905	-153.315	-152.455	-146.312	-35.077	-149.178	-8191	255	
11922.757	1	1	0	0	0.12031	0.18709	0.081764	0.37449	0.084189	0.075324	0.42377	0.16235	0.21909	0.080312	0.050201	0.13038	0.11835	0.16416	0.19044	0.29593	-1.7479	-1.7833	-2.4333	-1.9375	-2.2917	-2.3542	-2.1375	-2.2583	-2.1417	-2.0146	-2.4958	-1.9417	-2.225	-2.2812	-1.9917	-2.3333	-26.500	107.422	-10.427	-173.621	-27.013	-29.363	175.586	166.058	-20.757	124.862	-144.444	-159.493	-154.242	-128.155	65.041	154.505	0.00089752	0.00027234	0.00010524	723.73	4.6584e-06	3.9945e-06	740.94	260.81	1.6491e-06	4.1592e-06	296.87	127.41	98.034	56.295	2.1573e-06	80.266	0.00027539	0.00020085	5.6708e-05	707.29	2.179e-06	2.1817e-06	725.98	255.56	2.1958e-06	2.1942e-06	287.81	124.85	95.022	55.498	2.1825e-06	78.981	180.384	-94.360	-74.137	-161.890	-67.391	-30.385	-162.543	-156.862	-51.439	-55.535	-158.041	-153.226	-152.765	-146.837	-84.134	-149.467	-8191	255	
11922.853	1	1	0	0	0.25079	0.096025	0.30605	0.25309	0.33512	0.17459	0.32416	0.17546	0.10819	0.24018	0.052157	0.23177	0.1437	0.44874	0.21036	0.052577	-1.7854	-1.7771	-2.2438	-2.05	-2.1083	-2.1958	-1.8813	-2.1604	-2.1042	-1.8896	-2.4542	-2.2188	-2.1271	-2.3542	-1.7125	-2.2313	-150.602	48.675	107.199	125.038	-67.440	69.132	121.885	127.772	98.741	75.875	57.667	181.088	-92.549	130.150	112.365	49.540	0.00089962	0.00061082	9.8866e-05	729.57	2.403e-06	6.3278e-06	744.12	263.87	5.1097e-06	6.3941e-06	303.24	130.15	100.55	57.871	2.7481e-06	82.347	0.00026538	0.00019789	5.4758e-05	710	2.1689e-06	2.105e-06	729.17	259.02	2.1768e-06	2.0899e-06	292.63	127.59	97.513	57.046	2.2812e-06	81.166	178.792	-91.848	-39.043	-161.163	-72.032	-15.815	-162.441	-156.893	-72.011	-32.846	-158.406	-153.162	-152.545	-146.821	-81.211	-149.417	-8191	255	
11922.949	1	1	0	0	0.25328	0.083959	0.13883	0.079383	0.11672	0.092337	0.28365	0.21706	0.18301	0.20697	0.294	0.076285	0.21161	0.14822	0.22915	0.083766	-1.8208	-1.8542	-2.4083	-2.0625	-1.7854	-2.4	-1.9125	-2.1854	-2.1063	-1.7854	-2.2854	-2.1292	-1.9438	-2.4313	-1.8062	-2.2958	72.810	78.158	-20.776	108.127	-54.235	-16.914	151.360	125.032	67.661	123.851	-128.537	14.852	-52.051	130.684	-5.342	-129.274	0.00090496	0.0004637	0.0001713	746.39	3.1211e-06	4.7137e-06	758.68	273.55	1.7525e-06	1.6768e-06	309.84	133.77	103.97	60.559	5.582e-06	84.466	0.00027427	0.00019991	5.5942e-05	726.23	2.2051e-06	2.1483e-06	740.26	268.62	2.256e-06	2.2329e-06	299.4	130.93	101.27	59.633	2.3475e-06	83.397	181.623	-75.391	-101.329	-161.453	-58.234	-38.748	-162.309	-156.484	-115.493	13.685	-158.092	-153.077	-151.931	-146.128	-22.791	-148.906	-8191	255	
11923.070	1	1	0	0	0.018834	0.24533	0.15487	0.19147	0.26361	0.038524	0.070569	0.34123	0.08273	0.17232	0.20445	0.20904	0.0090522	0.18572	0.21308	0.13738	-1.8646	-1.9083	-2.2146	-2.2396	-1.9854	-2.5646	-2.1375	-2.1667	-2.2583	-1.8646	-2.2792	-2.2562	-2.1104	-2.575	-1.9146	-2.1708	-156.303	-112.460	174.717	70.281	-90.440	128.803	-144.217	107.346	103.262	127.370	168.344	181.733	0.205	160.776	-110.630	133.928	0.00088207	0.0008021	0.00019074	767.06	3.38e-06	6.1212e-06	763.77	282.89	5.5535e-06	4.9835e-06	309.94	135.43	107.5	61.28	5.0552e-06	84.601	0.00028366	0.00021117	5.7521e-05	746.31	2.3279e-06	2.2634e-06	749.59	277.31	2.3947e-06	2.2994e-06	301.93	132.98	104.13	60.492	2.4332e-06	83.286	179.723	-81.714	-101.253	-161.049	-29.744	-44.062	-161.948	-155.747	-56.434	-22.018	-157.517	-152.618	-152.027	-145.855	-36.624	-148.946	-8191	255	
11923.166	1	1	0	0	0.41256	0.25775	0.075466	0.052935	0.26829	0.083567	0.2653	0.17853	0.11778	0.061733	0.25844	0.17773	0.21643	0.15402	0.13937	0.14078	-1.8542	-1.7437	-2.2333	-2.2854	-1.8813	-2.2583	-2.3271	-2.1042	-2.3771	-1.8854	-2.2125	-2.2396	-1.6604	-2.3271	-1.9229	-2.2667	-145.159	149.500	-164.349	163.412	-109.894	31.173	118.052	134.215	-41.384	-15.736	-140.332	-166.051	129.815	-149.913	-35.088	144.459	0.00088115	0.00047567	0.00010325	772.22	3.6506e-06	2.9963e-06	760.44	283.41	4.4392e-06	4.6811e-06	311.1	131.92	106.41	59.782	5.5108e-06	80.573	0.00028405	0.00020973	5.6695e-05	750.12	2.272e-06	2.3233e-06	744.95	277.51	2.3364e-06	2.2683e-06	299.87	129.67	103.16	58.792	2.3811e-06	79.605	180.707	-89.576	-102.442	-160.761	-16.256	-50.894	-161.560	-156.109	-63.552	-53.847	-157.330	-152.723	-152.211	-146.041	-24.896	-148.786	-8191	255	
11923.262	1	1	0	0	0.11356	0.12768	0.075411	0.16874	0.32296	0.1934	0.34556	0.22657	0.24863	0.20114	0.20808	0.069489	0.42884	0.18048	0.11345	0.10238	-1.7875	-1.925	-2.1083	-2.3438	-1.7208	-2.4542	-2.1562	-2.0417	-2.1542	-1.8417	-2.0625	-2.4646	-1.7708	-2.3396	-1.9708	-1.8125	176.918	3.801	112.242	63.538	-73.053	-21.460	-145.173	40.536	130.554	-81.976	87.795	30.284	155.696	92.834	0.436	118.293	0.00085817	0.00075601	0.00012135	770.19	2.1178e-06	3.3157e-06	748.41	279.84	5.9609e-06	2.9954e-06	310	129.92	108.02	59.057	4.1941e-06	79.123	0.0002826	0.00021463	5.9378e-05	750.21	2.3452e-06	2.2931e-06	733.36	275.33	2.3344e-06	2.3482e-06	299.41	127.37	104.95	58.31	2.4127e-06	77.734	180.457	-54.870	-102.489	-161.048	-64.746	-46.291	-161.552	-155.868	-97.491	-60.509	-157.431	-152.450	-151.478	-145.963	-57.987	-148.595	-8191	255	
11923.334	1	1	0	0	0.22613	0.1202	0.13061	0.14719	0.1532	0.17931	0.27377	0.35045	0.10452	0.21763	0.084646	0.20066	0.082111	0.081692	0.19142	0.06695	-2.0854	-1.9708	-1.9521	-2.4125	-1.9667	-2.2167	-2.1792	-2.0417	-2.5979	-1.9958	-2.0187	-2.4458	-1.9458	-2.3042	-2.0521	-1.925	-4.595	158.635	53.727	-122.154	-76.668	113.511	-170.257	89.024	-131.112	97.070	-57.994	85.834	177.498	11.089	160.128	55.030	0.00083891	0.00053718	0.00012089	784.7	5.8635e-06	3.5166e-06	752.23	275.55	5.2418e-06	6.2333e-06	298.89	124.48	104.78	56.673	3.8283e-06	74.528	0.0002855	0.00021831	5.9483e-05	766.89	2.3635e-06	2.3092e-06	735.33	270.52	2.405e-06	2.3988e-06	289.84	122.43	101.99	55.582	2.4769e-06	73.589	182.199	-93.908	-75.497	-160.710	-29.238	-45.452	-161.446	-155.380	-75.013	-22.474	-157.291	-152.610	-152.018	-145.368	-39.892	-148.300	-8191	255	
11923.453	1	1	0	0	0.11187	0.081753	0.1716	0.17788	0.09754	0.20321	0.14242	0.11678	0.050483	0.10574	0.090633	0.11974	0.26529	0.22608	0.063185	0.018253	-1.8479	-2.0375	-1.9646	-2.4125	-1.4062	-1.5354	-1.8625	-1.3167	-1.7917	-1.5333	-1.5583	-1.8708	-1.4208	-1.8208	-1.5938	-1.2938	-23.810	-115.772	-56.388	159.684	119.933	80.470	161.426	141.462	129.067	65.282	-79.050	-25.425	38.053	-93.070	162.086	-116.805	0.00080371	0.00058388	0.00016909	782.82	1.9744e-06	2.1404e-07	7.7202	0.33451	2.1005e-07	4.8779e-07	0.08698	0.0037849	0.0094565	0.0010181	1.3462e-07	0.00096181	0.00028391	0.00022543	6.4414e-05	760.54	1.5351e-06	-2.9638e-06	6.7261	-0.58347	-1.3394e-06	-1.1036e-06	-2.3007	-0.30887	-0.54879	-0.070859	-5.0531e-07	-0.075409	178.025	-72.040	-69.164	199.417	-44.750	187.144	-117.672	-120.261	147.514	40.310	97.402	156.294	-57.404	49.496	219.124	-99.780	-8191	255	
11923.549	1	1	0	0	0.085462	0.14296	0.14859	0.060297	0.080608	0.26871	0.089772	0.0095688	0.10872	0.1804	0.2381	0.075251	0.050641	0.19525	0.22507	0.1437	-1.575	-1.6292	-1.5479	-1.7979	-1.4729	-1.8937	-1.8625	-1.2375	-1.8479	-1.7208	-1.4104	-1.9917	-1.4167	-1.6833	-1.775	-1.3896	66.467	132.728	227.595	17.345	233.412	75.775	30.553	326.375	225.660	49.523	259.173	55.674	-11.675	153.094	-15.807	140.289	1.6551e-06	1.6127e-05	5.7081e-06	0.023243	6.8372e-08	4.0792e-07	0.028756	0.0079251	7.1245e-08	4.4556e-07	0.027159	0.0017116	0.0073865	0.0017935	2.3707e-07	0.0010386	-3.2973e-05	-3.4189e-05	-8.4213e-06	-1.0047	-2.8897e-07	-2.769e-07	-0.55032	-0.16293	-2.3705e-07	-2.2156e-07	-0.51939	-0.083776	-0.15894	-0.022676	-1.8076e-07	-0.027604	112.925	203.471	40.550	172.873	27.498	132.793	133.567	-4.878	157.900	-18.302	212.176	236.329	14.413	56.429	110.775	36.013	-8191	255	
11923.645	1	1	0	0	0.19402	0.1985	0.039736	0.15787	0.11218	0.11276	0.22618	0.13337	0.20155	0.086142	0.10557	0.1958	0.30713	0.069058	0.22741	0.41434	-1.2812	-1.8354	-1.2042	-2.0062	-1.4458	-1.6542	-1.9917	-1.2854	-1.5312	-2.0042	-1.2979	-1.6854	-1.675	-1.3458	-1.9021	-1.5542	-49.419	128.736	-81.463	-59.563	155.547	-8.288	-134.637	55.706	85.641	-98.022	167.747	0.203	15.011	-134.184	-134.774	130.587	1.7617e-06	8.7888e-06	1.1355e-05	0.060616	2.2326e-07	1.7187e-07	0.019566	0.0075835	3.3358e-07	3.4566e-07	0.047358	0.0017407	0.016092	0.0017906	3.0697e-07	0.0021333	-1.2796e-05	-1.427e-05	-3.6061e-06	-0.48653	-1.3687e-07	-1.2987e-07	-0.30909	-0.084657	-1.3065e-07	-1.33e-07	-0.29699	-0.050075	-0.10015	-0.013325	-1.1623e-07	-0.016985	-112.977	79.252	116.988	121.248	180.549	105.359	179.679	-132.506	135.862	-96.725	41.290	115.327	-12.747	46.643	103.349	128.152	-8191	255	
11923.741	1	1	0	0	0.28467	0.1645	0.056292	0.10954	0.29337	0.26532	0.022908	0.14252	0.28053	0.30851	0.13608	0.091444	0.34768	0.12766	0.068194	0.1779	-1.3	-1.675	-1.1938	-1.7604	-1.4854	-1.3458	-1.8708	-1.6792	-1.5875	-1.7479	-1.2646	-1.7479	-1.675	-1.5	-1.8854	-1.5375	367.038	358.486	272.380	376.592	327.134	97.410	390.266	406.145	335.064	175.995	315.188	136.941	278.622	220.505	210.389	289.086	8.1948e-07	1.5938e-05	4.3709e-06	0.027423	2.1283e-07	7.1437e-08	0.019013	0.0032656	2.809e-07	1.9791e-07	0.074694	0.0083894	0.0054739	0.0020614	9.892e-08	0.0021528	-7.9899e-06	-1.0422e-05	-2.4086e-06	-0.34388	-9.9181e-08	-8.9862e-08	-0.22773	-0.064902	-9.9307e-08	-1.0629e-07	-0.19793	-0.039907	-0.083672	-0.010085	-1.0735e-07	-0.015436	178.984	110.383	85.233	343.880	356.400	410.965	384.070	100.987	110.226	334.751	269.604	361.307	416.722	278.857	187.062	353.569	-8191	255	
11923.862	1	1	0	0	0.15211	0.35491	0.12222	0.15899	0.12612	0.15723	0.25066	0.083917	0.18443	0.13967	0.15912	0.15008	0.28918	0.27153	0.21757	0.22303	-1.1708	-1.7687	-1.4417	-1.825	-1.7833	-1.4854	-2.0687	-1.6688	-1.6479	-2.0292	-1.4729	-1.7708	-1.7167	-1.3354	-1.8292	-1.5479	307.317	148.433	233.414	276.631	179.294	219.392	313.860	381.217	488.390	449.069	253.726	256.433	350.204	168.940	316.419	177.582	9.1071e-06	2.2675e-05	8.1369e-06	0.025587	2.2645e-07	3.7588e-08	0.019672	0.011695	1.6819e-07	1.8846e-07	0.012379	0.0030255	0.010912	0.00070831	3.2887e-07	0.0037892	-6.0333e-06	-9.462e-06	-1.9503e-06	-0.31292	-9.0006e-08	-7.4398e-08	-0.20023	-0.058353	-7.8011e-08	-9.6006e-08	-0.20424	-0.035298	-0.069282	-0.0079685	-9.0646e-08	-0.013244	372.664	399.037	443.081	300.535	349.548	226.059	191.348	153.952	227.145	485.747	146.112	289.120	270.001	460.180	252.109	383.469	-8191	255	
11923.933	1	1	0	0	0.034609	0.047513	0.08795	0.15835	0.16894	0.31388	0.099258	0.080027	0.1052	0.10315	0.21115	0.28285	0.2035	0.1577	0.18943	0.14358	-1.0479	-1.8979	-1.3563	-1.6854	-1.7521	-1.4813	-1.7583	-1.5771	-1.4562	-1.8062	-1.2667	-1.6437	-1.8208	-1.2792	-1.85	-1.6521	168.174	165.248	115.752	24.525	108.872	340.047	280.663	52.596	162.903	313.434	283.831	10.707	42.621	141.575	179.947	137.498	4.7907e-06	1.7294e-05	2.7784e-06	0.015351	7.954e-08	2.3673e-08	0.045926	0.01247	2.1201e-07	1.4042e-07	0.046086	0.0038841	0.0099139	0.00095755	3.0024e-07	0.0016233	-5.1022e-06	-8.6069e-06	-1.8255e-06	-0.25529	-8.5532e-08	-6.9551e-08	-0.19642	-0.052609	-5.8829e-08	-8.6106e-08	-0.17484	-0.031151	-0.07397	-0.0077779	-8.3965e-08	-0.012654	116.923	270.058	138.614	88.911	220.312	350.450	303.583	26.877	133.793	178.731	359.486	28.683	80.330	20.804	277.570	21.860	-8191	255	
11924.029	1	1	0	0	0.19322	0.22242	0.047557	0.05636	0.17162	0.32196	0.12461	0.0017918	0.28645	0.21156	0.081088	0.079592	0.15082	0.16015	0.13438	0.2832	-0.89375	-2.0208	-1.3833	-1.8438	-1.8	-1.4167	-1.9417	-1.6292	-1.4917	-1.725	-1.5458	-1.6333	-1.8813	-1.3729	-1.8438	-1.7792	132.102	21.112	70.356	266.758	363.397	107.832	154.450	180.000	92.458	77.941	353.936	160.274	20.096	179.433	70.807	309.672	2.4982e-06	2.3948e-05	8.1786e-06	0.0725	9.3623e-08	2.061e-07	0.018329	0.0030925	3.7791e-07	4.0994e-07	0.042207	0.0069852	0.0080518	0.0015093	4.7815e-07	0.0016323	-4.2655e-06	-7.7168e-06	-1.7026e-06	-0.24958	-8.6973e-08	-6.5012e-08	-0.16543	-0.051052	-6.1925e-08	-9.0173e-08	-0.17938	-0.028816	-0.063812	-0.0078541	-7.8043e-08	-0.012391	337.253	121.946	362.863	186.551	115.174	265.836	19.689	26.753	234.115	229.370	298.370	344.858	62.174	226.540	190.211	182.082	-8191	255	
11924.150	1	1	0	0	0.061868	0.25018	0.24329	0.09506	0.045451	0.13366	0.088876	0.05404	0.14482	0.14553	0.13838	0.10707	0.13343	0.36845	0.064377	0.27737	-1.0146	-1.8875	-1.2188	-1.625	-1.8833	-1.4188	-1.8646	-1.7437	-1.4375	-1.8229	-1.5896	-1.4458	-1.7917	-1.4708	-1.7354	-1.7687	256.850	235.327	359.516	423.309	215.721	304.432	343.708	230.142	358.535	457.853	370.417	175.797	461.699	421.031	502.118	381.707	2.0695e-06	2.2505e-05	9.5085e-06	0.011539	1.6145e-07	2.6887e-07	0.0080047	0.0072732	2.8014e-07	2.4216e-07	0.032072	0.00095137	0.0035212	0.0017958	7.8391e-08	0.0020023	-3.9258e-06	-7.5906e-06	-1.7572e-06	-0.20361	-7.7419e-08	-6.1396e-08	-0.15367	-0.055776	-6.3511e-08	-8.3113e-08	-0.19201	-0.025068	-0.071821	-0.0075205	-7.3412e-08	-0.012562	423.008	463.355	409.683	182.733	339.084	393.216	249.739	180.789	481.358	370.116	514.461	391.828	306.767	427.073	258.178	341.499	-8191	255	
11924.246	1	1	0	0	0.17913	0.12869	0.10495	0.31531	0.13672	0.097167	0.19379	0.20927	0.20174	0.20189	0.18567	0.10642	0.25026	0.079155	0.041845	0.12974	-0.91875	-1.7604	-1.5	-1.5396	-1.7687	-1.5042	-1.4417	-1.7188	-1.2896	-2.0021	-1.8813	-1.3312	-1.8229	-1.4833	-1.5729	-1.7875	202.058	279.215	335.116	397.762	321.124	212.463	314.567	407.640	454.269	366.686	414.301	452.009	390.008	382.380	332.080	257.861	3.599e-06	5.4801e-05	6.8494e-06	0.045964	3.0346e-07	1.565e-07	0.036614	0.0081025	3.8157e-07	7.566e-08	0.091222	0.0064281	0.011785	0.0023587	2.0043e-07	0.0025881	-3.347e-06	-7.5135e-06	-1.607e-06	-0.20719	-7.9011e-08	-6.2704e-08	-0.15145	-0.050837	-5.611e-08	-7.7664e-08	-0.19299	-0.024976	-0.068566	-0.0071869	-6.7111e-08	-0.012549	451.058	170.051	244.655	438.507	366.803	414.317	413.907	150.450	168.671	287.873	309.679	300.611	328.047	228.173	336.668	248.768	-8191	255	
11924.342	1	1	0	0	0.12138	0.22844	0.27123	0.11885	0.41809	0.18131	0.33557	0.18444	0.15486	0.18675	0.15354	0.13606	0.15436	0.28009	0.018607	0.053077	-0.9	-1.6958	-1.5229	-1.4688	-1.8563	-1.5438	-1.6021	-1.6708	-1.3	-1.8458	-1.4521	-1.2583	-1.8979	-1.4896	-1.6021	-1.8521	160.859	400.328	193.880	491.678	318.933	309.352	507.082	434.128	246.881	204.821	314.250	453.269	287.023	224.923	475.539	453.857	6.8862e-06	5.2467e-05	9.3498e-06	0.022943	2.4354e-07	2.9526e-07	0.028957	0.0042356	4.3443e-07	4.1436e-07	0.015263	0.0028917	0.024627	0.0019499	1.3623e-07	0.0012976	-3.5923e-06	-7.0159e-06	-1.6636e-06	-0.19171	-7.9011e-08	-6.455e-08	-0.13333	-0.052018	-5.241e-08	-7.2522e-08	-0.17425	-0.021965	-0.065375	-0.0077302	-6.2101e-08	-0.012719	501.151	237.249	438.747	433.813	186.631	418.255	173.593	165.664	395.538	315.017	442.817	335.306	291.095	193.228	349.719	444.022	-8191	255	
11924.438	1	1	0	0	0.058382	0.23911	0.26491	0.21237	0.17878	0.16561	0.18992	0.30584	0.17024	0.15413	0.49885	0.27576	0.07089	0.049948	0.219	0.15149	-0.89375	-1.8312	-1.6417	-1.2521	-1.9083	-1.5708	-1.3583	-1.8208	-1.4583	-1.6833	-1.7	-1.225	-1.8875	-1.6375	-1.2812	-1.8875	68.109	-103.507	-8.752	113.233	22.752	-24.649	90.174	-102.074	14.884	-84.255	140.071	155.592	88.541	-45.057	2.468	-127.845	3.0009e-06	1.9634e-05	1.3906e-05	0.020979	1.6545e-07	2.3752e-07	0.027992	0.013173	1.9569e-07	3.0773e-07	0.027568	0.0097136	0.016304	0.0030995	8.9366e-08	0.0010322	-3.4287e-06	-6.329e-06	-1.7767e-06	-0.1717	-7.1352e-08	-6.7858e-08	-0.12284	-0.054327	-5.7696e-08	-7.068e-08	-0.18411	-0.020552	-0.059971	-0.0080638	-5.7622e-08	-0.013546	86.242	18.005	19.609	27.895	27.395	117.135	16.485	-124.448	79.401	107.094	-132.212	171.602	-132.255	-0.718	198.552	55.152	-8191	255	
11924.557	1	1	0	0	0.39835	0.093709	0.2466	0.13615	0.1175	0.013144	0.1747	0.25109	0.19449	0.08995	0.12134	0.14078	0.15889	0.17036	0.056888	0.14294	-0.83958	-1.4833	-1.9312	-1.1104	-1.8333	-1.5854	-1.3458	-1.8104	-1.2104	-1.6146	-1.8667	-1.175	-1.7938	-1.6354	-1.425	-1.7938	92.896	304.904	39.039	301.851	185.676	37.210	269.322	6.640	219.567	76.562	60.322	162.411	231.741	217.474	202.966	133.753	1.4617e-06	1.4823e-05	1.3253e-05	0.029735	1.9261e-07	3.0972e-07	0.04971	0.0073776	7.8175e-08	2.1792e-07	0.031525	0.0012025	0.0094122	0.0015972	1.8888e-07	0.0022699	-3.24e-06	-5.6562e-06	-1.843e-06	-0.16075	-7.1277e-08	-6.3011e-08	-0.10917	-0.054649	-5.5733e-08	-6.7687e-08	-0.1928	-0.020706	-0.05665	-0.0082544	-5.7925e-08	-0.012352	288.469	171.012	50.085	264.827	147.141	128.108	300.743	0.470	-7.343	145.202	81.139	269.495	159.451	104.389	227.663	-16.354	-8191	255	
11924.629	1	1	0	0	0.14438	0.24206	0.20837	0.25671	0.082289	0.2895	0.17105	0.087992	0.21824	0.095644	0.15905	0.14659	0.16511	0.20304	0.13342	0.14151	-1.2542	-1.5417	-1.9708	-1.0938	-1.5667	-1.7687	-1.1562	-1.6562	-1.4188	-1.5708	-1.7167	-1.3646	-1.7687	-1.6521	-1.4646	-1.7021	166.583	2.363	-139.741	-23.245	155.177	134.883	-113.484	135.238	-59.577	182.174	38.519	192.683	-99.828	-73.561	85.115	114.203	4.7786e-06	2.4977e-05	3.76e-06	0.076586	2.6981e-07	3.636e-07	0.010591	0.0087584	2.5271e-07	4.0557e-07	0.026648	0.0016532	0.0083115	0.0037761	1.7911e-07	0.0023723	-3.7496e-06	-5.7122e-06	-1.9776e-06	-0.16789	-6.4452e-08	-6.4012e-08	-0.1025	-0.052716	-6.1472e-08	-5.8478e-08	-0.19102	-0.017665	-0.05665	-0.0080066	-4.6689e-08	-0.013126	-116.482	46.151	-74.723	175.078	147.194	52.977	-79.295	-149.239	13.550	-138.138	-158.086	27.468	-2.142	-164.794	-24.099	133.419	-8191	255	
11924.750	1	1	0	0	0.38758	0.1542	0.2896	0.19959	0.19845	0.082782	0.15262	0.19905	0.12803	0.12932	0.29375	0.070802	0.30562	0.16679	0.25506	0.026813	-1.1333	-1.3854	-1.6771	-1.3	-1.5521	-1.9625	-1.4292	-1.8333	-1.7333	-1.6208	-1.8062	-1.3771	-1.625	-1.7375	-1.2042	-1.75	445.778	143.294	220.233	231.024	231.320	426.338	334.029	326.336	170.328	439.098	134.010	220.842	311.624	210.190	235.484	239.230	2.8473e-06	4.5835e-05	3.0176e-06	0.012125	1.5124e-07	5.3671e-07	0.010342	0.0039473	1.8582e-07	1.8492e-07	0.03086	0.0046757	0.0039159	0.0027434	1.968e-07	0.00076323	-4.2718e-06	-5.1936e-06	-1.8859e-06	-0.16289	-6.65e-08	-7.1705e-08	-0.10568	-0.053521	-5.7394e-08	-5.0497e-08	-0.17622	-0.022826	-0.053524	-0.008874	-4.7524e-08	-0.011105	310.469	423.217	450.294	284.110	97.294	104.189	218.321	111.556	307.968	358.650	260.951	210.795	292.026	191.427	94.558	292.549	-8191	255	
11924.846	1	1	0	0	0.25195	0.16942	0.41945	0.16809	0.28176	0.18147	0.17607	0.046851	0.089094	0.074257	0.093479	0.030795	0.1316	0.28209	0.11626	0.19635	-1.1979	-1.5521	-1.825	-1.5271	-1.4813	-1.8375	-1.3375	-1.6125	-1.5917	-1.3479	-1.95	-1.375	-1.5458	-1.6458	-1.2625	-1.9188	392.835	136.770	384.011	334.357	410.600	142.694	366.935	252.173	410.930	178.710	251.012	389.598	267.799	188.786	231.399	189.781	2.8998e-06	2.2653e-05	5.508e-06	0.062112	3.0689e-07	4.4415e-07	0.014758	0.011065	2.8618e-07	3.5776e-07	0.061816	0.0043529	0.008237	0.0022205	1.0569e-07	0.0028109	-4.2844e-06	-4.9553e-06	-1.7923e-06	-0.20242	-5.3609e-08	-7.486e-08	-0.10886	-0.046113	-6.3738e-08	-5.2339e-08	-0.18609	-0.024085	-0.048445	-0.0093601	-4.8739e-08	-0.011328	207.735	218.791	244.848	173.439	161.368	430.299	305.303	115.999	292.802	367.558	141.394	116.843	448.673	306.212	290.398	348.835	-8191	255	
11924.942	1	1	0	0	0.10086	0.21733	0.087718	0.24099	0.11805	0.21208	0.20554	0.069586	0.074995	0.42643	0.26415	0.046119	0.14527	0.18752	0.13674	0.18274	-1.5125	-1.4229	-1.9875	-1.4937	-1.5438	-1.825	-1.4167	-1.8	-1.6958	-1.5167	-1.8979	-1.7146	-1.4188	-1.8292	-1.4458	-1.8312	273.213	279.210	290.270	198.108	61.023	260.007	286.705	124.324	225.769	53.619	135.903	185.300	132.905	269.443	167.587	130.534	4.5473e-06	4.6616e-05	2.8783e-06	0.097672	1.3251e-07	2.1315e-07	0.044125	0.0070492	1.1011e-07	7.1655e-07	0.014379	0.0059751	0.010445	0.0019693	1.6831e-07	0.002008	-3.8628e-06	-4.8642e-06	-1.9776e-06	-0.16527	-5.1486e-08	-7.7322e-08	-0.1052	-0.04928	-5.9584e-08	-5.0113e-08	-0.18194	-0.022396	-0.046036	-0.0085976	-4.9195e-08	-0.010304	209.781	315.611	46.723	146.213	196.914	296.504	51.597	38.107	157.419	189.605	365.079	214.906	225.829	96.810	89.111	139.126	-8191	255	
11925.038	1	1	0	0	0.056702	0.049073	0.086933	0.0253	0.19027	0.1611	0.06845	0.26539	0.25379	0.28781	0.12886	0.3468	0.18356	0.13387	0.16349	0.088084	-1.1812	-1.2896	-1.6833	-1.625	-1.3083	-2.1417	-1.5771	-1.8333	-1.7271	-1.2667	-1.7	-1.4625	-1.3417	-1.8271	-1.5562	-1.4458	84.053	172.149	302.416	232.713	58.767	233.860	259.509	158.492	183.919	158.445	292.053	93.783	102.436	-16.289	288.998	234.227	9.5913e-07	1.1605e-05	1.6314e-05	0.031885	4.092e-07	4.3674e-07	0.0098296	0.012416	1.9093e-07	4.0666e-07	0.0048995	0.002889	0.013477	0.0012965	1.6507e-07	0.003485	-3.9824e-06	-4.1002e-06	-1.6733e-06	-0.17289	-5.3382e-08	-7.7168e-08	-0.11585	-0.045093	-7.3933e-08	-4.9653e-08	-0.18076	-0.0247	-0.043952	-0.0088549	-5.4129e-08	-0.010829	277.407	192.239	51.696	-17.054	-39.564	49.692	302.924	-27.741	261.624	-8.859	183.666	201.980	-31.747	67.894	1.604	-31.155	-8191	255	
11925.159	1	1	0	0	0.11756	0.20954	0.20876	0.17919	0.21859	0.13311	0.12002	0.058579	0.22276	0.24918	0.20086	0.38793	0.085869	0.023256	0.084477	0.070336	-1.3229	-1.0083	-1.7729	-1.8813	-1.3542	-1.8042	-1.3979	-1.5792	-1.925	-1.3083	-1.9125	-1.6667	-1.4167	-1.9333	-1.4875	-1.2792	149.120	17.922	298.669	327.589	58.421	8.054	103.996	162.326	153.134	90.250	275.402	334.321	1.030	75.044	272.652	170.963	1.9554e-06	4.4813e-05	3.4058e-06	0.018695	2.8918e-07	4.6748e-07	0.063534	0.0093909	9.6223e-08	4.1088e-07	0.018096	0.0056279	0.0027917	0.0012366	2.6587e-07	0.0021462	-4.5423e-06	-4.6889e-06	-1.8313e-06	-0.18766	-4.542e-08	-7.2167e-08	-0.12109	-0.040101	-7.8917e-08	-4.2976e-08	-0.1632	-0.025191	-0.040046	-0.0099225	-5.8912e-08	-0.0098183	122.836	119.256	215.881	202.127	176.228	41.878	355.825	16.921	309.695	243.240	17.839	336.259	15.140	90.637	265.846	322.328	-8191	255	
11925.230	1	1	0	0	0.072167	0.11962	0.20748	0.31378	0.075468	0.04449	0.15746	0.041099	0.18812	0.22437	0.15474	0.23057	0.17399	0.068389	0.19156	0.080476	-1.3083	-1.2292	-1.6042	-1.9188	-1.15	-1.9125	-1.5979	-1.4083	-1.7542	-1.5958	-1.6708	-1.7583	-1.2062	-1.8667	-1.6146	-1.4375	94.975	211.625	204.127	241.275	148.053	187.437	297.922	-0.641	301.097	96.765	222.255	136.287	27.380	155.334	93.132	354.693	4.2719e-06	2.3003e-05	1.83e-06	0.013287	2.933e-07	1.3722e-07	0.016396	0.0039087	1.0074e-07	4.9289e-07	0.052243	0.0030651	0.0061325	0.00061112	1.2218e-07	0.00132	-4.8065e-06	-3.8759e-06	-1.6772e-06	-0.23767	-4.7922e-08	-7.0167e-08	-0.12078	-0.04257	-7.4915e-08	-5.5485e-08	-0.15195	-0.026021	-0.045059	-0.0076349	-6.3695e-08	-0.0084401	25.027	191.467	317.866	343.973	13.687	67.988	270.267	15.478	240.281	278.159	354.946	125.919	99.362	11.687	228.531	45.939	-8191	255	
11925.327	1	1	0	0	0.26538	0.18526	0.14519	0.33328	0.28083	0.06489	0.34214	0.24013	0.12739	0.18158	0.10815	0.26018	0.052107	0.14531	0.44282	0.16875	-1.4875	-1.3354	-1.6938	-1.5604	-1.3438	-1.8708	-1.4792	-1.3521	-1.875	-1.475	-1.575	-1.9146	-1.3646	-1.6125	-1.8646	-1.3833	-98.562	174.495	-2.976	48.784	20.317	151.787	147.322	47.154	100.408	-78.809	68.490	-29.331	145.390	-14.431	127.303	6.707	2.8544e-06	1.0877e-05	3.9649e-06	0.025016	2.6789e-07	1.2452e-07	0.024773	0.014523	1.8331e-07	2.1119e-07	0.037327	0.0070542	0.0059872	0.0012116	9.9661e-08	0.00080314	-4.7562e-06	-4.6749e-06	-1.5388e-06	-0.21409	-4.9894e-08	-6.532e-08	-0.12252	-0.037953	-7.3933e-08	-4.996e-08	-0.15787	-0.030137	-0.040241	-0.0081496	-5.8608e-08	-0.0086895	-20.655	-40.978	60.307	-79.721	173.446	21.163	93.691	-152.316	-161.059	-146.565	20.514	-77.143	9.035	-4.098	-50.557	152.593	-8191	255	
11925.423	1	1	0	0	0.32899	0.3034	0.11741	0.18779	0.093958	0.17771	0.19496	0.17861	0.083617	0.025786	0.098006	0.09209	0.1384	0.24412	0.18809	0.14107	-1.5229	-1.4229	-1.4937	-1.7375	-1.3875	-1.5854	-1.7146	-1.3771	-1.6917	-1.5021	-1.3729	-1.7458	-1.3521	-1.6938	-1.8292	-1.2708	161.495	28.330	117.393	81.479	-97.173	107.077	-13.422	-29.854	96.551	1.441	30.249	-65.553	-170.283	26.630	-173.902	-96.609	6.379e-06	7.9613e-06	2.1874e-07	0.031482	1.0578e-07	2.4269e-07	0.0144	0.0065248	2.6602e-07	2.6313e-07	0.029153	0.0056021	0.002168	0.0026211	2.4423e-07	0.0013861	-4.0264e-06	-5.1866e-06	-1.4608e-06	-0.23433	-4.3373e-08	-6.5243e-08	-0.14652	-0.034679	-7.431e-08	-6.2008e-08	-0.13123	-0.029154	-0.040371	-0.0074728	-6.7187e-08	-0.0093851	72.241	-145.041	72.727	64.750	-24.294	-38.124	182.738	-157.576	-60.532	-148.323	-169.345	-153.027	168.842	80.597	-162.217	61.856	-8191	255	
11925.519	1	1	0	0	0.12536	0.26959	0.17352	0.20647	0.077753	0.069382	0.050891	0.16768	0.093265	0.15833	0.21109	0.26002	0.096724	0.16805	0.17868	0.1997	-1.2896	-1.4896	-1.6063	-1.85	-1.5312	-1.9312	-1.6458	-1.4729	-1.7542	-1.7958	-1.4	-1.8396	-1.6125	-1.7354	-1.7563	-1.3521	242.287	13.028	52.619	43.755	68.468	180.232	230.111	102.841	99.158	-64.798	-50.289	143.073	-19.166	194.957	243.721	-10.794	5.0792e-06	3.09e-05	9.018e-06	0.055988	1.506e-07	1.4692e-07	0.013438	0.0022719	3.7339e-07	3.334e-07	0.0082406	0.0060695	0.0093224	0.0023986	2.5673e-07	0.0019853	-4.7625e-06	-4.9833e-06	-1.4432e-06	-0.21004	-5.4216e-08	-6.1242e-08	-0.14779	-0.030116	-6.6305e-08	-6.0243e-08	-0.14208	-0.028601	-0.043757	-0.0079208	-6.9161e-08	-0.0072456	100.240	118.252	232.289	88.511	4.121	230.060	-64.334	-50.630	139.609	133.046	33.499	264.082	158.019	239.626	129.664	-49.914	-8191	255	
11925.638	1	1	0	0	0.1939	0.25756	0.063771	0.18314	0.10183	0.12326	0.06578	0.19235	0.074941	0.055073	0.11248	0.25975	0.38539	0.23548	0.29185	0.22864	-1.3625	-1.7417	-1.3771	-1.9667	-1.5063	-1.7396	-1.7625	-1.4021	-1.6729	-1.8229	-1.3333	-1.9042	-1.3729	-1.5271	-1.8396	-1.3438	317.988	355.936	315.541	457.697	247.091	465.545	371.139	231.725	261.610	293.617	302.874	460.199	224.313	153.531	231.085	157.967	2.8178e-06	3.1562e-05	9.5446e-06	0.009216	3.2222e-07	3.4125e-07	0.043074	0.014645	1.9605e-07	1.6149e-07	0.017504	0.0043529	0.0086775	0.0015577	5.3385e-07	0.0054309	-3.9761e-06	-5.4739e-06	-1.1799e-06	-0.23219	-5.8235e-08	-5.4164e-08	-0.16225	-0.033015	-6.2303e-08	-6.9529e-08	-0.13735	-0.029554	-0.046036	-0.0068724	-6.6352e-08	-0.0073375	412.273	425.289	338.473	370.059	398.033	368.035	278.400	163.460	494.979	215.821	188.838	358.824	246.444	181.928	313.500	459.780	-8191	255	
11925.734	1	1	0	0	0.12409	0.055262	0.083979	0.21377	0.20918	0.3261	0.20156	0.18896	0.028619	0.071879	0.1991	0.084806	0.32572	0.14568	0.23056	0.34096	-1.5333	-1.6542	-1.1521	-1.6958	-1.4354	-1.4375	-1.7667	-1.3438	-1.7042	-1.8542	-1.1646	-1.7542	-1.6021	-1.525	-1.9583	-1.4521	101.110	313.870	317.584	369.873	208.244	220.057	156.621	157.841	169.656	81.959	90.497	355.468	227.299	273.392	149.096	303.355	3.284e-06	3.5029e-06	6.3809e-06	0.037405	2.5378e-07	2.4724e-07	0.018761	0.0098293	1.4974e-07	3.833e-07	0.067793	0.0052256	0.0088869	0.0003636	1.1137e-07	0.00014892	-3.8377e-06	-6.2309e-06	-1.3457e-06	-0.221	-5.2093e-08	-5.5318e-08	-0.14588	-0.033337	-6.555e-08	-6.339e-08	-0.13024	-0.02897	-0.055282	-0.0050041	-7.1514e-08	-0.0096214	194.033	319.754	189.997	260.309	161.956	61.101	160.932	76.642	361.320	244.889	231.210	60.631	170.185	86.105	209.584	128.345	-8191	255	
11925.830	1	1	0	0	0.29051	0.1272	0.066164	0.30684	0.17945	0.11082	0.10318	0.13319	0.20762	0.29966	0.071625	0.054422	0.13655	0.27772	0.11396	0.073204	-1.3958	-1.7437	-1.375	-1.6604	-1.4354	-1.4312	-1.7167	-1.4479	-1.5625	-1.8083	-1.4625	-1.8458	-1.7271	-1.4396	-1.8062	-1.3542	100.223	115.844	48.328	225.074	291.843	274.040	147.764	185.047	147.268	119.522	258.551	64.420	271.071	195.271	269.817	265.182	5.0125e-06	4.5402e-05	7.3631e-06	0.053999	4.4052e-07	2.2766e-07	0.021563	0.0083658	3.0856e-07	1.9621e-07	0.030816	0.0030345	0.011875	0.00046786	3.088e-07	0.0036343	-4.0012e-06	-6.343e-06	-1.2345e-06	-0.20695	-6.1798e-08	-5.4241e-08	-0.16162	-0.033444	-5.7243e-08	-7.1294e-08	-0.12768	-0.024792	-0.059385	-0.0060431	-7.1666e-08	-0.0084269	101.174	376.227	92.707	56.101	149.137	126.701	354.057	60.569	370.226	99.034	333.473	302.879	64.640	108.344	340.187	375.475	-8191	255	
11925.926	1	1	0	0	0.11228	0.076104	0.3185	0.050411	0.10795	0.11792	0.2684	0.077668	0.10303	0.15819	0.080797	0.22726	0.15953	0.25745	0.18478	0.28242	-1.1729	-1.7104	-1.3229	-1.6229	-1.6313	-1.3188	-1.7687	-1.2333	-1.5167	-1.9146	-1.4542	-1.6021	-1.6021	-1.1688	-1.7271	-1.5333	-16.021	16.595	12.772	-42.561	-118.805	-100.397	77.336	38.521	28.047	-14.732	-100.863	-124.592	-67.506	-85.389	-134.770	-92.089	2.6969e-06	4.1036e-05	6.9128e-06	0.054253	3.1278e-07	3.6957e-07	0.047398	0.0068107	3.1548e-07	2.9851e-07	0.02554	0.0023629	0.0044644	0.00097358	2.6809e-07	0.0032494	-3.4476e-06	-6.5884e-06	-1.176e-06	-0.20219	-5.687e-08	-4.4085e-08	-0.14255	-0.038114	-5.0295e-08	-7.045e-08	-0.12452	-0.025191	-0.056454	-0.0054426	-6.787e-08	-0.0099889	100.984	-56.971	-79.498	161.869	156.127	145.361	-52.029	-155.270	-20.623	-141.098	26.897	-97.615	101.524	145.809	2.892	-100.690	-8191	255	
11926.022	1	1	0	0	0.09096	0.10398	0.13825	0.11246	0.2293	0.08082	0.12823	0.14143	0.26718	0.18172	0.22401	0.21409	0.061415	0.4436	0.040553	0.1893	-0.87292	-1.8083	-1.3208	-1.4854	-1.6604	-1.4458	-1.7958	-1.5896	-1.4979	-1.8458	-1.5583	-1.55	-1.6896	-1.3333	-1.7021	-1.6938	32.521	316.576	159.751	1.832	121.138	113.002	291.136	248.619	126.290	195.100	271.415	124.962	39.967	300.764	49.339	125.026	2.895e-06	2.4593e-05	5.0077e-06	0.054162	1.9497e-07	1.1539e-07	0.021823	0.0031415	2.8604e-07	3.4187e-07	0.029168	0.0082493	0.014767	0.0015749	8.2348e-08	0.00069662	-2.7304e-06	-6.1117e-06	-1.3145e-06	-0.18885	-6.2708e-08	-4.447e-08	-0.14302	-0.043859	-5.241e-08	-6.8301e-08	-0.1336	-0.0247	-0.06251	-0.0059668	-6.6656e-08	-0.010225	207.839	253.249	-18.930	82.570	297.823	31.006	-6.242	-13.452	131.223	297.673	-11.072	86.424	193.020	84.857	305.187	64.681	-8191	255	
11926.118	1	1	0	0	0.11005	0.28	0.014737	0.3022	0.17485	0.13276	0.20736	0.10511	0.18121	0.06273	0.26025	0.092397	0.17328	0.12272	0.016142	0.24616	-0.92292	-1.8854	-1.3896	-1.55	-1.6292	-1.4146	-1.7375	-1.4625	-1.3125	-1.9208	-1.5354	-1.5979	-1.6396	-1.25	-1.7188	-1.6187	32.477	-47.139	-24.127	189.958	-4.278	191.042	66.630	135.123	227.575	-62.505	4.544	193.493	64.580	-51.950	61.071	206.420	2.0323e-06	4.5337e-05	5.1177e-06	0.035598	1.1779e-07	2.3832e-07	0.031832	0.0066726	2.6762e-07	7.174e-08	0.030047	0.0029917	0.013438	0.0017215	2.5524e-07	0.0020593	-2.6927e-06	-6.294e-06	-1.2248e-06	-0.14527	-6.3694e-08	-4.8086e-08	-0.13381	-0.03951	-5.2032e-08	-6.6767e-08	-0.14109	-0.020122	-0.058538	-0.006472	-6.4758e-08	-0.010186	89.984	109.769	65.835	72.775	-41.183	-53.527	-52.655	-52.746	50.728	-5.797	176.109	-1.928	87.899	-42.910	265.198	74.358	-8191	255	
11926.239	1	1	0	0	0.10225	0.041966	0.11582	0.13291	0.18736	0.23275	0.20816	0.19	0.13629	0.20105	0.28198	0.089692	0.16828	0.23012	0.057517	0.20159	-1.0688	-1.65	-1.2583	-1.3375	-1.7563	-1.5021	-1.7313	-1.7146	-1.4104	-1.7729	-1.65	-1.2563	-1.9604	-1.3792	-1.6292	-1.8042	138.443	321.618	72.166	229.273	191.374	238.944	189.294	366.342	337.821	229.239	319.376	149.846	160.123	166.152	320.590	193.298	3.4157e-06	2.4648e-05	7.0891e-06	0.066503	3.377e-07	4.6547e-07	0.016535	0.0051456	2.5246e-07	5.0521e-07	0.016591	0.0053878	0.015389	0.0009577	1.6205e-07	0.0018005	-2.6549e-06	-6.4482e-06	-1.4393e-06	-0.18361	-7.1883e-08	-5.1086e-08	-0.13095	-0.044342	-4.7501e-08	-6.316e-08	-0.14721	-0.021566	-0.063487	-0.0064625	-6.7491e-08	-0.010435	67.488	354.363	85.948	73.909	392.174	60.036	82.278	66.772	109.855	120.879	374.912	326.597	220.029	357.962	248.430	206.751	-8191	255	
11926.335	1	1	0	0	0.11511	0.25428	0.21787	0.32763	0.15556	0.17488	0.18451	0.058915	0.23456	0.25896	0.28353	0.2122	0.21383	0.24567	0.0866	0.1967	-0.90833	-1.575	-1.5312	-1.3958	-1.8937	-2.1937	-2.5625	-2.3625	-1.9896	-2.0479	-2.0833	-1.8188	-2.2625	-2.1	-1.8604	-2.2854	464.296	389.935	215.363	252.099	168.559	190.985	322.571	478.417	454.618	444.821	147.994	215.594	200.367	165.515	278.908	141.237	3.7241e-06	3.53e-05	2.8641e-06	0.071182	9.0358e-07	3.9917e-06	0.35666	26.313	4.5859e-06	2.7289e-06	291.9	132.25	106.27	62.097	6.8946e-06	83.314	-1.944e-06	-5.502e-06	-1.5232e-06	-0.14836	1.0004e-06	6.4942e-06	12.746	22.974	1.9623e-06	2.2909e-06	283.71	129.57	103.87	61.319	2.335e-06	82.241	272.897	434.657	326.279	388.268	384.885	423.442	477.247	138.614	268.941	346.250	200.070	205.785	206.740	212.087	298.753	209.756	-8191	255	
11926.430	1	1	0	0	0.13758	0.12145	0.12135	0.10249	0.17864	0.17668	0.26595	0.36283	0.044648	0.14906	0.20361	0.037147	0.045376	0.13267	0.10388	0.061686	-1.3646	-2.2521	-1.9229	-1.9646	-2.3271	-2.0375	-2.0875	-2.4021	-1.7479	-2.1958	-2.0687	-1.7521	-2.2542	-2.0354	-1.9979	-2.5542	-124.295	160.111	10.419	-30.966	181.849	-23.871	149.532	152.562	79.999	-87.043	68.135	-143.702	-62.441	69.341	86.853	-0.127	0.00093916	0.00052781	0.00016296	755.63	5.2448e-06	4.6259e-06	709.14	266.14	4.9615e-06	5.7524e-06	296.04	130.99	105.53	61.381	3.8864e-06	82.482	0.00029029	0.00020889	5.8206e-05	735.34	2.3294e-06	2.3272e-06	696.19	260.98	2.3776e-06	2.2664e-06	286.35	128.77	102.67	60.422	2.3166e-06	81.224	180.789	-102.525	-85.267	-161.553	-63.201	-23.559	-162.414	-156.652	-56.838	-14.313	-158.112	-153.594	-152.771	-147.022	-72.037	-149.905	-8191	255	
11926.526	1	1	0	0	0.13612	0.29961	0.40156	0.1992	0.23777	0.12635	0.1428	0.14437	0.063114	0.19153	0.22761	0.070337	0.16462	0.25783	0.10326	0.21615	-1.5063	-2.1854	-2.0625	-1.9167	-2.1271	-2.0604	-1.9438	-2.5375	-1.8958	-2.1646	-2.1646	-2.0125	-2.2458	-2.2	-1.7396	-2.4146	41.093	111.143	65.002	-126.005	138.930	88.973	161.790	102.144	71.509	-105.020	-86.641	134.898	127.759	135.409	-3.216	-132.003	0.00091984	0.00056723	0.00020232	754.25	5.4986e-06	5.0595e-06	710.64	264.83	3.8813e-06	3.9189e-06	294.07	131.5	106.12	61.466	3.9221e-06	82.459	0.00028582	0.00020925	5.7703e-05	733.83	2.2896e-06	2.3335e-06	696.95	260	2.325e-06	2.3044e-06	285.69	129.09	102.92	60.451	2.392e-06	81.281	179.914	-98.885	-81.665	-161.744	-25.500	-7.666	-162.504	-156.744	-69.938	-16.582	-157.914	-153.332	-152.684	-146.682	-92.750	-149.639	-8191	255	
#DATA ENDS
