BOXY.EXE: ISS Imagent and Oximeter Data Acquisition Program Version 0.80
Ascii Record File

#ACQ INFORMATION
2  Detector Channels 
16  External MUX Channels 
1  Auxiliary Channels 
5000  Waveform (CCF) Frequency (Hz)
1  Waveforms Skipped 
30  Waveforms Averaged 
1  Cycles Averaged 
16  Acquisitions per Waveform 
10.0806  Updata Rate (Hz) 

#FILE INFORMATION
TRUE -- External MUX Channel results are PARSED.
FALSE -- AC DC and Phase are NOT grouped.
TRUE -- Companion Program Settings File CREATED.
FALSE -- AC data not excluded
FALSE -- DC data not excluded
FALSE -- Phase data not excluded
FALSE -- Auxillary Chn. data not excluded
Tab delimiters

#CALIBRATION STATE
TRUE -- Waveform Calibration Values APPLIED.


#AUX CALIBRATION VALUES
Val Type	aux-1	

Term	1.0000e+00	
Factor	0.0000e+00	


#WF CALIBRATION VALUES
A = Detector Channel
Val Type	A-AC1	A-AC2	A-AC3	A-AC4	A-AC5	A-AC6	A-AC7	A-AC8	A-AC9	A-AC10	A-AC11	A-AC12	A-AC13	A-AC14	A-AC15	A-AC16	A-DC1	A-DC2	A-DC3	A-DC4	A-DC5	A-DC6	A-DC7	A-DC8	A-DC9	A-DC10	A-DC11	A-DC12	A-DC13	A-DC14	A-DC15	A-DC16	A-Ph1	A-Ph2	A-Ph3	A-Ph4	A-Ph5	A-Ph6	A-Ph7	A-Ph8	A-Ph9	A-Ph10	A-Ph11	A-Ph12	A-Ph13	A-Ph14	A-Ph15	A-Ph16	

Term	0.00000e+00	0.00000e+00	0.00000e+00	0.00000e+00	0.00000e+00	0.00000e+00	0.00000e+00	0.00000e+00	0.00000e+00	0.00000e+00	0.00000e+00	0.00000e+00	0.00000e+00	0.00000e+00	0.00000e+00	0.00000e+00	0.00000e+00	0.00000e+00	0.00000e+00	0.00000e+00	0.00000e+00	0.00000e+00	0.00000e+00	0.00000e+00	0.00000e+00	0.00000e+00	0.00000e+00	0.00000e+00	0.00000e+00	0.00000e+00	0.00000e+00	0.00000e+00	0.00000e+00	0.00000e+00	0.00000e+00	0.00000e+00	0.00000e+00	0.00000e+00	0.00000e+00	0.00000e+00	0.00000e+00	0.00000e+00	0.00000e+00	0.00000e+00	0.00000e+00	0.00000e+00	0.00000e+00	0.00000e+00	
Factor	1.00000e+00	1.00000e+00	1.00000e+00	1.00000e+00	1.00000e+00	1.00000e+00	1.00000e+00	1.00000e+00	1.00000e+00	1.00000e+00	1.00000e+00	1.00000e+00	1.00000e+00	1.00000e+00	1.00000e+00	1.00000e+00	1.00000e+00	1.00000e+00	1.00000e+00	1.00000e+00	1.00000e+00	1.00000e+00	1.00000e+00	1.00000e+00	1.00000e+00	1.00000e+00	1.00000e+00	1.00000e+00	1.00000e+00	1.00000e+00	1.00000e+00	1.00000e+00	X	X	X	X	X	X	X	X	X	X	X	X	X	X	X	X	

B = Detector Channel
Val Type	B-AC1	B-AC2	B-AC3	B-AC4	B-AC5	B-AC6	B-AC7	B-AC8	B-AC9	B-AC10	B-AC11	B-AC12	B-AC13	B-AC14	B-AC15	B-AC16	B-DC1	B-DC2	B-DC3	B-DC4	B-DC5	B-DC6	B-DC7	B-DC8	B-DC9	B-DC10	B-DC11	B-DC12	B-DC13	B-DC14	B-DC15	B-DC16	B-Ph1	B-Ph2	B-Ph3	B-Ph4	B-Ph5	B-Ph6	B-Ph7	B-Ph8	B-Ph9	B-Ph10	B-Ph11	B-Ph12	B-Ph13	B-Ph14	B-Ph15	B-Ph16	

Term	0.00000e+00	0.00000e+00	0.00000e+00	0.00000e+00	0.00000e+00	0.00000e+00	0.00000e+00	0.00000e+00	0.00000e+00	0.00000e+00	0.00000e+00	0.00000e+00	0.00000e+00	0.00000e+00	0.00000e+00	0.00000e+00	0.00000e+00	0.00000e+00	0.00000e+00	0.00000e+00	0.00000e+00	0.00000e+00	0.00000e+00	0.00000e+00	0.00000e+00	0.00000e+00	0.00000e+00	0.00000e+00	0.00000e+00	0.00000e+00	0.00000e+00	0.00000e+00	-1.60165e+02	-1.56046e+02	-1.61601e+02	-1.84043e+02	-1.15639e+02	-8.35182e+01	-1.55479e+02	-1.62015e+02	-1.02200e+02	-1.19732e+02	-1.85372e+02	-1.70396e+02	-1.86982e+02	-1.76531e+02	-6.46452e+01	-1.49226e+02	
Factor	2.80052e-05	7.83278e-05	3.39611e-05	2.47397e-01	8.53685e-07	8.94540e-07	1.74294e-01	5.63954e-02	8.49358e-07	1.01448e-06	2.25253e-01	3.31667e-02	6.79303e-02	9.94483e-03	1.03214e-06	1.41766e-02	3.98363e-07	4.02558e-07	1.11943e-07	1.12903e-01	4.40606e-09	4.40072e-09	7.81490e-02	2.63565e-02	4.40888e-09	4.39813e-09	8.24592e-02	1.43961e-02	2.55369e-02	4.44917e-03	4.40686e-09	6.06539e-03	X	X	X	X	X	X	X	X	X	X	X	X	X	X	X	X	



#DISTANCE SETTINGS
A = Detector Channel
A-1	A-2	A-3	A-4	A-5	A-6	A-7	A-8	A-9	A-10	A-11	A-12	A-13	A-14	A-15	A-16	

2.5000e+00	3.0000e+00	2.5000e+00	3.0000e+00	2.0000e+00	3.0000e+00	1.5000e+00	3.0000e+00	3.0000e+00	3.0000e+00	3.0000e+00	3.0000e+00	3.0000e+00	3.0000e+00	1.5000e+00	3.0000e+00	

B = Detector Channel
B-1	B-2	B-3	B-4	B-5	B-6	B-7	B-8	B-9	B-10	B-11	B-12	B-13	B-14	B-15	B-16	

1.0000e+01	1.0000e+01	1.0000e+01	1.4400e+00	1.0000e+01	1.0000e+01	1.5100e+00	1.9400e+00	1.0000e+01	1.0000e+01	1.9900e+00	2.4900e+00	2.4100e+00	2.9000e+00	1.0000e+01	2.9800e+00	




#DATA BEGINS
time	group	step	mark	flag	A-AC1	A-AC2	A-AC3	A-AC4	A-AC5	A-AC6	A-AC7	A-AC8	A-AC9	A-AC10	A-AC11	A-AC12	A-AC13	A-AC14	A-AC15	A-AC16	A-DC1	A-DC2	A-DC3	A-DC4	A-DC5	A-DC6	A-DC7	A-DC8	A-DC9	A-DC10	A-DC11	A-DC12	A-DC13	A-DC14	A-DC15	A-DC16	A-Ph1	A-Ph2	A-Ph3	A-Ph4	A-Ph5	A-Ph6	A-Ph7	A-Ph8	A-Ph9	A-Ph10	A-Ph11	A-Ph12	A-Ph13	A-Ph14	A-Ph15	A-Ph16	B-AC1	B-AC2	B-AC3	B-AC4	B-AC5	B-AC6	B-AC7	B-AC8	B-AC9	B-AC10	B-AC11	B-AC12	B-AC13	B-AC14	B-AC15	B-AC16	B-DC1	B-DC2	B-DC3	B-DC4	B-DC5	B-DC6	B-DC7	B-DC8	B-DC9	B-DC10	B-DC11	B-DC12	B-DC13	B-DC14	B-DC15	B-DC16	B-Ph1	B-Ph2	B-Ph3	B-Ph4	B-Ph5	B-Ph6	B-Ph7	B-Ph8	B-Ph9	B-Ph10	B-Ph11	B-Ph12	B-Ph13	B-Ph14	B-Ph15	B-Ph16	aux-1	digaux	

19583.541	1	1	0	256	0.060069	0.047871	0.092918	0.23123	0.14952	0.23822	0.36602	0.2386	0.099569	0.13432	0.16882	0.10803	0.22425	0.27984	0.038852	0.1783	-1.3208	-1.3312	-1.6125	-1.8396	-1.6875	-1.9021	-1.7375	-1.7771	-1.8458	-1.3083	-1.9417	-1.7854	-1.5583	-1.9625	-1.6021	-1.725	123.370	244.035	-4.676	217.780	-82.914	185.157	173.405	204.292	157.106	21.931	-80.814	246.843	213.028	229.839	-55.103	-60.058	0.0004574	0.00042254	0.00021321	1207.8	6.5669e-06	4.1827e-06	1342.6	369.32	2.595e-06	8.351e-06	490.09	184.54	122.29	59.342	8.8643e-07	98.993	0.0002146	0.00020746	5.7774e-05	1069.8	2.2868e-06	2.254e-06	1209.2	330.22	2.2834e-06	2.2875e-06	383.85	159.56	98.319	51.248	2.2813e-06	83.312	169.069	-65.241	-63.701	-84.644	115.898	0.439	-84.567	-79.615	-48.152	-31.748	-80.021	-74.609	-74.609	-68.132	-63.495	-70.272	-8191	255	
19583.660	1	1	0	0	0.23424	0.14549	0.16472	0.14121	0.031114	0.36961	0.14433	0.31122	0.22359	0.091414	0.3207	0.30227	0.1692	0.2288	0.032078	0.074325	-1.3333	-1.3979	-1.7854	-1.8167	-1.4604	-2.0542	-1.6417	-1.925	-1.9729	-1.3125	-1.8979	-1.7625	-1.5354	-1.9479	-1.6917	-1.8813	143.407	138.099	17.035	8.910	-47.085	-73.905	-88.067	168.708	171.238	122.211	167.481	-94.897	-64.968	257.558	219.918	105.843	0.00058615	4.0919e-05	0.00013699	1216.7	5.5024e-06	6.2144e-07	1347.1	370.56	6.2944e-06	3.3746e-06	485.7	185.5	121.85	59.367	4.7068e-06	99.202	0.00021317	0.00020763	5.8315e-05	1069.1	2.2659e-06	2.2499e-06	1215.4	330.5	2.248e-06	2.261e-06	382.79	159.75	98.094	51.184	2.269e-06	83.097	158.610	8.943	-63.576	-84.571	-93.978	49.718	-84.653	-79.513	37.383	232.237	-80.185	-74.689	-74.444	-68.001	43.566	-69.913	-8191	255	
19583.756	1	1	0	0	0.21813	0.096825	0.2921	0.16189	0.079811	0.20915	0.22507	0.28889	0.10898	0.12327	0.049273	0.55355	0.24606	0.16768	0.088755	0.12398	-1.4937	-1.4125	-1.8271	-1.8104	-1.4062	-1.9333	-1.6187	-1.7167	-2.0646	-1.5604	-1.725	-1.9188	-1.425	-2.0854	-1.5708	-1.875	107.856	47.721	139.314	219.224	252.405	133.408	224.920	151.816	186.181	-76.209	251.148	185.985	241.736	156.735	50.914	219.463	0.00039979	0.00020255	0.00018967	1205	4.5416e-06	1.8452e-06	1334.4	369.82	3.765e-06	5.7827e-06	492.04	183.75	122.88	59.44	3.2841e-06	98.486	0.00020949	0.00020533	5.7134e-05	1065.9	2.2362e-06	2.24e-06	1205	330.32	2.245e-06	2.2457e-06	382.3	158.84	98.116	51.231	2.2591e-06	82.703	165.700	4.436	-10.983	-84.245	68.330	17.681	-84.622	-79.685	-62.973	76.879	-80.148	-74.641	-74.430	-67.904	-4.067	-69.930	-8191	255	
19583.852	1	1	0	0	0.020263	0.16389	0.30806	0.17351	0.096978	0.14396	0.20025	0.1795	0.13697	0.1904	0.13175	0.30599	0.14833	0.08694	0.22454	0.34465	-1.5187	-1.5146	-1.9292	-1.8333	-1.5833	-1.9604	-2.0312	-1.4604	-1.9083	-1.4292	-1.6646	-2.1312	-1.5229	-1.9292	-1.8021	-1.6708	121.506	73.547	125.695	116.642	209.184	-41.639	244.958	-85.475	153.753	201.682	198.430	184.871	145.400	206.427	217.827	177.545	0.00046204	0.00033724	0.00013404	1199.5	4.0192e-06	4.4197e-06	1333.7	369.01	4.4641e-06	6.3414e-06	490.68	184.08	122.77	59.79	3.0624e-06	98.883	0.00021179	0.0002067	5.7152e-05	1063.4	2.2614e-06	2.2388e-06	1204.1	330.25	2.2594e-06	2.2384e-06	382.79	159.19	98.343	51.314	2.2315e-06	82.986	166.914	-97.433	-4.539	-84.100	-5.607	70.651	-84.751	-79.803	28.422	-24.061	-79.846	-74.935	-74.350	-67.958	-46.825	-70.406	-8191	255	
19583.947	1	1	0	0	0.21974	0.090512	0.35398	0.12637	0.11845	0.23973	0.41985	0.35567	0.072666	0.30267	0.028335	0.26044	0.16326	0.32163	0.17339	0.20366	-1.7563	-1.5167	-1.5875	-2.0208	-1.375	-1.8625	-1.9771	-1.675	-1.8167	-1.7354	-1.6667	-2.0833	-1.3958	-1.9729	-1.8146	-1.6458	257.561	71.642	-64.755	232.627	211.921	157.985	155.775	180.753	88.084	137.091	79.565	195.435	253.068	244.051	30.688	176.009	0.00048422	0.00068611	0.00014529	1213	1.008e-06	9.0249e-06	1343.5	370.4	5.8352e-06	1.3805e-06	491.52	184.24	122.2	59.465	3.5985e-06	99.523	0.0002101	0.00020532	5.6556e-05	1067.3	2.2451e-06	2.2232e-06	1210.9	330.5	2.2291e-06	2.2061e-06	383.96	159.87	97.912	51.352	2.2239e-06	83.637	139.912	-92.619	-83.511	-84.238	-3.922	172.178	-84.695	-79.926	26.615	129.914	-80.099	-75.100	-74.872	-68.159	12.606	-70.108	-8191	255	
19584.045	1	1	0	0	0.25253	0.14762	0.12162	0.37122	0.0091303	0.13102	0.35932	0.20867	0.073749	0.038113	0.017192	0.29099	0.10588	0.17013	0.17831	0.17812	-1.5042	-1.4562	-1.4854	-1.9521	-1.5	-1.7271	-1.975	-1.6625	-2.0229	-1.6792	-1.5688	-2.1208	-1.5833	-1.9104	-1.8854	-1.6792	0.404	150.999	169.722	223.191	138.250	-41.834	135.056	261.374	247.626	-20.101	167.965	-39.714	227.816	0.599	103.838	221.638	0.00049888	0.00042709	0.00028107	1207.7	4.3661e-06	2.5137e-06	1349.3	371.08	5.5735e-06	2.6848e-06	498.19	186.47	122.22	60.383	1.1512e-06	100.34	0.0002082	0.00020004	5.6222e-05	1065.4	2.2106e-06	2.1845e-06	1216.1	331.04	2.207e-06	2.2026e-06	386.29	161	97.899	51.689	2.2198e-06	84.189	159.464	44.147	-57.558	-84.259	-33.906	3.134	-84.783	-79.934	-40.457	41.614	-79.816	-74.788	-74.169	-68.025	66.384	-69.563	-8191	255	
19584.141	1	1	0	0	0.02627	0.07861	0.1086	0.29948	0.042296	0.16836	0.16421	0.25606	0.36718	0.20253	0.18746	0.17455	0.13163	0.10601	0.21995	0.051285	-1.4042	-1.8458	-1.5833	-2.1	-1.6	-1.5521	-2.0083	-1.4229	-1.75	-1.8625	-1.4521	-2.0812	-1.5854	-1.9229	-2.0583	-1.775	37.872	-43.610	5.350	22.500	191.933	18.508	184.015	186.532	26.655	-86.620	186.744	-48.029	-84.439	239.516	-14.616	-42.561	0.00045834	0.00023086	8.9624e-05	1203.1	7.5636e-06	7.9944e-06	1349.6	369.68	2.7991e-06	1.6068e-06	491.73	184.86	121.48	59.45	8.3758e-06	98.067	0.00020763	0.00020425	5.6007e-05	1067.3	2.2179e-06	2.2035e-06	1214.2	330.31	2.2186e-06	2.187e-06	384.51	159.49	97.63	50.989	2.2038e-06	82.335	158.606	234.516	-78.973	-84.133	6.748	57.146	-84.679	-79.786	23.235	-42.517	-79.969	-74.854	-74.550	-68.086	126.174	-70.386	-8191	255	
19584.262	1	1	0	0	0.088433	0.43313	0.22541	0.19392	0.28575	0.41362	0.28295	0.41898	0.1843	0.24488	0.089568	0.1031	0.085403	0.072744	0.1177	0.38166	-1.4979	-1.8979	-1.4896	-2.1833	-1.6208	-1.725	-2.1562	-1.7	-1.8729	-1.9479	-1.4458	-2.1188	-1.6146	-1.6375	-1.9604	-1.7146	200.448	42.679	-0.489	170.902	112.171	10.753	256.841	221.622	245.781	45.195	234.211	126.058	72.416	-17.627	-37.607	245.994	0.00054589	1.9574e-05	0.00016548	1208.1	5.4742e-06	7.2709e-06	1342.1	366.41	2.3365e-06	3.3305e-06	490.14	181.28	120.75	58.049	1.0188e-05	95.632	0.00020727	0.00020101	5.5551e-05	1062.6	2.2149e-06	2.2236e-06	1207.4	327.72	2.2012e-06	2.2131e-06	381.76	157.16	96.473	49.843	2.2077e-06	80.633	150.332	260.254	178.144	-84.639	63.637	62.805	-84.877	-79.767	42.936	189.521	-80.484	-75.411	-74.670	-68.153	-2.941	-70.251	-8191	255	
19584.357	1	1	0	0	0.30602	0.055577	0.16562	0.2221	0.17696	0.19788	0.4193	0.19262	0.15228	0.21673	0.343	0.21088	0.099482	0.34926	0.34282	0.35148	-1.3271	-1.7563	-1.3583	-2.0438	-1.8625	-1.5333	-2.1625	-1.4875	-1.75	-1.8896	-1.5604	-1.9458	-1.6542	-1.6042	-2.0021	-1.6479	33.724	5.378	51.440	225.915	67.832	238.533	227.382	83.463	194.684	50.837	183.704	-80.445	255.357	10.555	230.143	170.882	0.00055672	0.00048044	0.00029448	1203.5	4.5371e-06	3.9439e-06	1340	366.28	3.1038e-06	9.0477e-06	486.61	181.05	119.53	57.072	4.9998e-06	95.624	0.00020721	0.00020362	5.67e-05	1062.6	2.2256e-06	2.2321e-06	1208.5	327.22	2.2418e-06	2.2521e-06	381.83	156.46	96.081	49.404	2.2512e-06	80.356	158.016	-93.595	-34.151	-84.471	58.530	52.572	-84.684	-79.865	-92.058	30.486	-80.497	-75.186	-74.672	-68.120	22.298	-70.060	-8191	255	
19584.430	1	1	0	0	0.41318	0.258	0.12369	0.25939	0.20314	0.095514	0.14003	0.30711	0.23345	0.18264	0.21244	0.29981	0.16667	0.2249	0.19683	0.17173	-1.3	-1.9125	-1.2292	-1.8917	-1.6958	-1.375	-2.1417	-1.8813	-1.5875	-2.0229	-1.4375	-2.025	-1.8083	-1.4875	-1.9562	-1.6979	-16.961	75.065	-20.316	232.166	103.465	-80.087	-72.456	-80.703	-92.794	33.090	172.279	214.436	217.804	-74.073	138.547	174.458	0.00035364	0.00044025	0.00015988	1207.7	5.4728e-06	2.5097e-06	1351.7	365.45	9.5519e-07	1.1762e-06	486.98	181.74	118.91	57.058	4.8551e-06	95.729	0.00021173	0.00020626	5.7212e-05	1064	2.255e-06	2.2466e-06	1213.6	326.83	2.2345e-06	2.2225e-06	380.66	156.87	95.437	49.399	2.2007e-06	80.907	170.693	-36.276	-66.081	-83.844	68.438	112.112	-84.682	-79.809	-66.031	94.178	-80.140	-74.986	-74.653	-68.085	59.775	-70.127	-8191	255	
19584.525	1	1	0	0	0.33085	0.17895	0.06795	0.08364	0.40906	0.062616	0.23061	0.25815	0.072545	0.13038	0.03217	0.19764	0.25171	0.20092	0.20976	0.11664	-1.1187	-2.025	-1.3854	-1.8833	-1.7188	-1.3312	-2.3229	-1.8875	-1.4625	-1.9333	-1.7313	-1.85	-1.8667	-1.725	-1.8667	-1.7833	22.389	57.304	115.233	33.637	-2.856	192.665	175.017	252.250	-8.673	81.183	-54.114	121.560	238.377	-72.626	-88.030	236.309	0.00057318	0.00047717	5.2855e-05	1206.2	3.206e-06	6.0728e-06	1353.4	366.31	2.233e-06	6.4421e-06	492.73	183.5	120.21	58.241	5.9679e-06	97.091	0.00020753	0.00020147	5.6444e-05	1062.7	2.2237e-06	2.2205e-06	1218.2	327.43	2.2375e-06	2.2454e-06	384.37	158.42	96.529	50.191	2.2245e-06	81.675	143.116	-56.200	127.787	-84.505	34.637	59.112	-84.269	-79.519	-46.264	27.476	-79.837	-74.632	-74.207	-67.754	6.111	-69.726	-8191	255	
19584.645	1	1	0	0	0.038655	0.20441	0.040279	0.27376	0.3804	0.22383	0.42341	0.41379	0.12863	0.24524	0.1838	0.22092	0.20119	0.21365	0.084999	0.20944	-1.1208	-1.9958	-1.4604	-1.7417	-1.8896	-1.5771	-1.9667	-1.95	-1.4896	-2.0021	-1.7083	-1.7917	-1.9312	-1.4771	-1.8771	-1.9792	224.259	-81.903	25.207	-37.429	-39.387	-92.599	191.279	196.045	22.360	-59.649	204.929	-38.040	195.438	191.861	-30.071	93.495	0.00049286	0.00061965	0.0003011	1204.5	2.5184e-06	1.3549e-06	1338.3	367.63	1.998e-06	1.0778e-05	487.15	182.08	119.89	58.059	8.4083e-06	95.828	0.00021065	0.00020653	5.7489e-05	1062.8	2.2694e-06	2.2286e-06	1206.7	327.58	2.2347e-06	2.2278e-06	380.3	156.85	96.013	49.995	2.2203e-06	80.712	160.523	-54.278	-10.202	-83.787	61.156	205.770	-84.148	-79.244	-3.937	16.203	-79.661	-74.497	-74.034	-67.647	44.991	-69.767	-8191	255	
19584.740	1	1	0	0	0.080484	0.14889	0.14114	0.15013	0.11703	0.13956	0.24531	0.1865	0.21059	0.15713	0.26582	0.074727	0.2973	0.069585	0.21485	0.15921	-1.0958	-1.9083	-1.5271	-1.7104	-1.9729	-1.5083	-1.9125	-1.9875	-1.3937	-1.7458	-1.6708	-1.7458	-2.0292	-1.4292	-1.6458	-2.0687	255.579	-7.850	30.473	170.940	217.227	-18.393	200.898	140.852	154.386	-22.657	-66.644	-90.610	81.771	53.602	-72.760	97.729	0.0004752	0.00050086	0.00020256	1200.3	5.5559e-06	3.5333e-06	1336.1	365.91	2.2899e-06	8.6245e-06	486.47	181.97	119.57	57.569	6.7825e-06	95.466	0.00020597	0.00020262	5.6581e-05	1060.7	2.2142e-06	2.2117e-06	1207.4	326.55	2.2282e-06	2.2124e-06	380.63	156.74	95.826	49.685	2.2251e-06	80.482	149.084	-19.606	-37.906	-83.781	33.062	48.092	-84.067	-79.070	160.678	1.281	-79.315	-74.324	-74.566	-67.743	64.891	-69.661	-8191	255	
19584.836	1	1	0	0	0.33145	0.21004	0.25239	0.12543	0.15287	0.24073	0.18219	0.10823	0.097265	0.16837	0.089385	0.44038	0.071681	0.31353	0.21748	0.17634	-1.0187	-1.8167	-1.6604	-1.7188	-1.8062	-1.5229	-1.875	-1.9271	-1.2896	-1.8396	-1.7333	-1.4875	-1.8563	-1.6729	-1.6125	-2.0958	193.489	37.759	9.596	-84.154	105.462	3.856	212.472	246.358	-40.162	5.280	183.092	-93.548	119.556	174.925	179.371	217.418	0.00047756	0.00033771	7.231e-05	1197.5	4.4523e-06	4.0473e-06	1343.3	365.43	2.9552e-06	6.8469e-06	486.68	181.76	119.79	57.923	1.961e-06	96.792	0.00020942	0.00020428	5.7023e-05	1059.5	2.229e-06	2.2356e-06	1211.5	326.91	2.2584e-06	2.2484e-06	382.9	157.22	96.472	50.136	2.2988e-06	81.362	144.803	-36.737	-97.818	-84.833	31.958	10.011	-84.892	-79.842	47.036	-33.794	-80.427	-75.330	-74.643	-68.324	84.981	-70.136	-8191	255	
19584.932	1	1	0	0	0.24218	0.23832	0.22912	0.1837	0.21964	0.36992	0.027025	0.19371	0.32445	0.03012	0.34366	0.08829	0.086261	0.28086	0.08767	0.22765	-0.99792	-1.7687	-1.7917	-1.5229	-1.8333	-1.5	-1.7271	-2.0729	-1.1458	-1.6833	-1.5479	-1.6042	-1.8937	-1.6979	-1.4708	-2.0458	-39.731	164.629	75.369	236.099	0.551	75.010	101.514	86.128	204.921	-62.070	246.870	37.937	194.449	-86.196	-72.134	133.818	0.00042968	0.00055634	0.00010885	1195.5	6.0697e-06	5.6111e-06	1347.4	367.2	5.7562e-06	1.9834e-06	491.08	182.3	118.94	58.116	5.7715e-06	97.219	0.00021455	0.00020781	5.8374e-05	1061.6	2.2602e-06	2.2403e-06	1213.2	327.56	2.2521e-06	2.2495e-06	384.6	157.76	95.924	50.202	2.2382e-06	81.864	169.956	-41.048	180.480	-84.761	-10.402	14.630	-84.447	-80.017	22.209	-23.035	-80.258	-74.673	-74.607	-68.164	50.876	-70.320	-8191	255	
19585.027	1	1	0	0	0.042298	0.16178	0.19609	0.24861	0.13561	0.23864	0.35835	0.15807	0.087981	0.28216	0.088897	0.16889	0.052772	0.35451	0.28101	0.27735	-0.83125	-1.6646	-1.7313	-1.4396	-1.9583	-1.7125	-1.8438	-1.9937	-1.4937	-1.675	-1.6562	-1.5667	-1.9646	-1.6667	-1.5104	-2.0646	-73.430	255.171	204.136	226.493	29.149	115.993	226.794	-57.781	189.385	51.057	29.650	159.619	-69.769	248.276	-32.995	224.061	0.00064111	0.00023299	0.00010134	1204	3.3356e-06	6.8122e-07	1343.1	364.6	4.2707e-06	6.9746e-06	494.77	182.57	118.76	58.59	3.5639e-06	96.983	0.00021034	0.00020274	5.6923e-05	1058.7	2.2328e-06	2.2086e-06	1209.7	326.33	2.2196e-06	2.2033e-06	382.53	157.33	95.697	50.37	2.1892e-06	81.653	162.606	56.725	208.634	-84.361	-36.379	90.412	-84.620	-79.474	21.508	31.952	-80.155	-75.351	-74.442	-68.357	105.602	-70.142	-8191	255	
19585.125	1	1	0	0	0.18987	0.2995	0.18984	0.35603	0.16442	0.10922	0.31316	0.20056	0.028216	0.19932	0.033209	0.37321	0.26331	0.20567	0.17165	0.33128	-1.0063	-1.6333	-2.0521	-1.4688	-1.925	-1.9333	-1.7	-1.9	-1.6396	-1.8333	-1.9979	-1.6417	-1.8479	-1.7375	-1.4562	-2.0833	233.393	258.904	-19.564	231.380	218.435	112.543	211.343	109.837	102.991	158.424	-57.559	-74.994	140.110	235.522	-48.888	168.551	0.00042923	0.0001699	9.7544e-05	1196.4	7.7508e-06	5.9205e-06	1338.9	365.6	4.747e-06	4.5901e-06	490.22	182.8	119.29	58.875	5.821e-06	97.524	0.00020485	0.00019918	5.5372e-05	1053.8	2.1865e-06	2.1772e-06	1207.4	326.73	2.1671e-06	2.1897e-06	382.45	157.85	95.912	50.625	2.2082e-06	81.931	162.189	133.440	-4.118	-84.429	77.434	59.321	-84.532	-79.697	94.740	14.011	-80.275	-75.003	-73.899	-67.869	-94.148	-70.054	-8191	255	
19585.221	1	1	0	0	0.12989	0.062654	0.17997	0.2047	0.10085	0.15059	0.31264	0.27061	0.11882	0.1928	0.32869	0.37115	0.22022	0.3409	0.07928	0.026373	-1.1146	-1.7417	-2	-1.4562	-1.7812	-1.6958	-1.7437	-1.9813	-1.5292	-1.5521	-2.05	-1.8	-1.7563	-1.8521	-1.3896	-2.0812	175.102	-65.078	82.348	58.759	-58.417	-85.651	174.063	244.590	102.085	184.290	220.150	238.569	76.763	215.047	40.884	-49.689	0.00045251	0.00043969	8.8569e-05	1202.7	3.7403e-06	4.9161e-06	1342.2	367.72	6.7123e-06	4.2228e-06	489.31	184.57	120.3	58.847	1.5164e-06	98.396	0.00020303	0.00019888	5.6022e-05	1057.9	2.1912e-06	2.1925e-06	1211.7	328.1	2.2022e-06	2.1883e-06	383.51	158.82	96.345	50.766	2.1992e-06	82.561	154.599	202.883	-73.545	-84.493	-39.253	-8.544	-84.456	-79.490	-30.921	100.349	-80.240	-74.690	-74.172	-68.080	-2.351	-70.214	-8191	255	
19585.342	1	1	0	0	0.044908	0.25047	0.23341	0.18121	0.29518	0.14671	0.236	0.16921	0.17699	0.18198	0.17471	0.16944	0.092938	0.034548	0.066977	0.24007	-1.3542	-1.3813	-2.0917	-1.6313	-1.8042	-1.8958	-1.4917	-2.0729	-1.6938	-1.4438	-2.0229	-1.6958	-1.6	-1.8146	-1.3833	-1.7833	190.738	216.193	-75.029	-49.247	226.419	110.996	174.670	-66.648	1.529	155.246	194.129	207.282	182.625	214.089	-58.987	170.045	0.00062183	0.00044488	8.4701e-05	1204.8	2.7315e-06	5.137e-06	1350.3	369.04	4.1905e-06	3.2942e-06	497.04	184.83	121.03	58.836	6.1457e-06	98.266	0.00020549	0.00019998	5.6114e-05	1062.9	2.1758e-06	2.176e-06	1216.1	329.28	2.2018e-06	2.1846e-06	385.55	159.53	96.451	50.702	2.1962e-06	82.601	169.755	94.495	-70.985	-84.261	-15.663	61.733	-84.466	-79.600	58.736	-69.516	-79.898	-74.781	-74.315	-67.902	32.919	-70.019	-8191	255	
19585.438	1	1	0	0	0.13949	0.12839	0.1594	0.22679	0.35645	0.030961	0.11493	0.24274	0.32862	0.23764	0.1541	0.13226	0.32907	0.089055	0.19848	0.39082	-1.375	-1.4312	-1.8792	-1.5875	-1.625	-2.0333	-1.6187	-1.9937	-1.6833	-1.5354	-2.0604	-1.7104	-1.5771	-2.0542	-1.6167	-1.7146	50.271	168.729	209.809	241.115	95.131	183.477	251.461	213.221	158.572	62.944	-88.759	206.933	65.595	-74.873	-80.119	188.406	0.00041983	0.0003978	0.00020934	1199.8	5.3641e-06	6.5993e-06	1355.3	367.29	6.3314e-06	4.2892e-06	498.54	185.29	120.24	59.688	9.5804e-06	99.374	0.00020743	0.00020137	5.5773e-05	1060.4	2.2378e-06	2.2159e-06	1220.2	329.26	2.2402e-06	2.2134e-06	387.86	160.36	96.656	51.319	2.2207e-06	83.55	167.652	22.434	-16.196	-84.363	5.878	47.574	-84.321	-79.509	-17.572	-55.421	-79.587	-74.586	-74.180	-67.927	61.358	-70.082	-8191	255	
19585.533	1	1	0	0	0.13757	0.090822	0.11818	0.041755	0.1093	0.34502	0.27886	0.38727	0.057574	0.36724	0.24852	0.44081	0.20699	0.32214	0.2088	0.10107	-1.4229	-1.4417	-2.0729	-1.6812	-1.5729	-1.8896	-1.7208	-1.8708	-2.0271	-1.4688	-1.9354	-1.8667	-1.5729	-2.1354	-1.4354	-1.7604	30.799	16.175	241.007	140.664	194.968	190.740	255.075	196.394	77.326	40.995	70.810	180.437	-57.767	254.918	-36.529	159.853	0.00050831	0.00024982	0.00016117	1202.5	4.3666e-06	2.612e-06	1345.3	368.71	5.8005e-06	4.5905e-06	494.73	184.28	119.07	59.304	2.4179e-06	98.017	0.00020916	0.0002032	5.6223e-05	1058	2.2122e-06	2.2236e-06	1213.4	328.14	2.2056e-06	2.2009e-06	383.41	158.88	95.961	50.909	2.2082e-06	82.575	144.598	-33.384	-79.586	-83.975	82.009	83.557	-84.369	-79.428	7.410	-0.866	-80.322	-74.723	-73.975	-67.859	257.170	-70.474	-8191	255	
19585.652	1	1	0	0	0.15637	0.31024	0.056528	0.052085	0.13492	0.080612	0.10063	0.23782	0.034137	0.06778	0.16914	0.2002	0.30424	0.076047	0.06098	0.056246	-1.4229	-1.3	-1.9292	-1.8167	-1.4312	-2.0458	-1.675	-1.8625	-1.9521	-1.2313	-1.8062	-1.8104	-1.4979	-2.0854	-1.6146	-1.7625	216.606	41.918	193.562	-49.562	209.882	235.991	87.280	-92.794	242.759	193.829	-42.395	221.426	239.367	194.185	213.792	-4.304	0.00034615	0.00036038	0.00010649	1203.5	5.9956e-06	5.5987e-06	1347.4	366.26	2.1905e-06	5.7175e-06	490.66	184.53	121.18	58.847	5.1869e-06	98.003	0.00020704	0.00020165	5.6539e-05	1057.8	2.2074e-06	2.2204e-06	1211.1	328.02	2.2164e-06	2.1942e-06	384.62	158.62	96.271	50.628	2.1834e-06	82.291	166.233	-93.069	177.488	-84.031	-24.624	40.470	-84.745	-79.694	-93.109	1.322	-80.065	-74.883	-74.582	-68.061	9.686	-70.379	-8191	255	
19585.725	1	1	0	0	0.10273	0.086148	0.2557	0.16073	0.067449	0.17035	0.35563	0.1341	0.21524	0.055992	0.21314	0.23565	0.12142	0.088439	0.13438	0.18099	-1.4458	-1.3521	-1.7104	-1.7104	-1.4521	-1.7687	-1.7812	-1.7042	-1.7042	-1.5646	-1.9021	-1.9854	-1.4104	-2.0479	-1.8646	-1.6812	228.812	247.309	119.098	253.858	230.258	147.788	186.932	258.432	101.462	119.145	-9.562	-87.496	224.044	-71.571	101.247	-86.824	0.00050534	0.00025983	0.00031868	1202.2	3.4089e-06	1.2126e-06	1351.4	369.18	7.3537e-06	1.0171e-05	491.15	185.01	120.62	59.015	1.4404e-06	98.353	0.0002051	0.00020202	5.5699e-05	1059.5	2.2006e-06	2.1759e-06	1217.2	329.41	2.2156e-06	2.2148e-06	384.87	159.76	96.654	50.838	2.2161e-06	82.865	158.233	64.496	-27.946	-84.469	3.568	171.350	-84.650	-79.430	1.229	39.670	-79.882	-74.970	-74.232	-68.163	136.622	-69.998	-8191	255	
19585.820	1	1	0	0	0.18856	0.17323	0.17966	0.038514	0.24083	0.033852	0.46813	0.098415	0.1109	0.10346	0.26542	0.17543	0.054878	0.056838	0.018038	0.1974	-1.725	-1.3979	-1.7771	-1.8583	-1.3417	-1.8542	-1.8729	-1.5187	-2.0062	-1.5875	-1.775	-2.0021	-1.4042	-1.9021	-1.7208	-1.6604	104.619	195.494	174.787	50.564	234.688	33.361	174.079	120.942	246.459	176.752	192.587	-31.464	188.976	230.589	224.960	-69.889	0.00060737	0.00051408	0.00021552	1204.4	1.8425e-06	5.3021e-06	1353.5	369.93	4.3315e-07	4.5958e-06	501.51	186.71	121.55	59.276	1.2729e-05	99.336	0.00020621	0.00020069	5.5574e-05	1061.7	2.2023e-06	2.188e-06	1219.6	330.3	2.1891e-06	2.1819e-06	387.9	160.55	96.698	51.154	2.2088e-06	83.653	158.530	-50.672	105.748	-84.244	7.956	59.166	-84.311	-79.325	153.870	-53.188	-79.985	-74.667	-74.191	-67.757	11.041	-69.680	-8191	255	
19585.941	1	1	0	0	0.096153	0.083829	0.075778	0.28898	0.1207	0.29155	0.25697	0.23031	0.18421	0.21036	0.36308	0.14839	0.072847	0.031451	0.23699	0.35587	-1.3438	-1.4292	-1.7437	-2.0229	-1.4375	-1.8896	-1.9875	-1.5479	-1.8771	-1.7167	-1.6063	-1.8708	-1.3521	-1.725	-1.6333	-1.5917	66.654	123.370	253.995	130.269	-92.678	140.826	186.188	229.639	223.592	66.857	99.244	159.341	203.724	115.134	144.718	180.949	0.00035835	0.00023275	0.00017725	1206.8	3.4927e-06	7.7199e-06	1348.2	368.03	3.9825e-07	3.2763e-06	498.2	187.02	121.07	59.293	8.0567e-06	98.96	0.00020507	0.00020058	5.5708e-05	1062.1	2.1859e-06	2.1789e-06	1219.6	329.17	2.1809e-06	2.1803e-06	386.54	160.09	96.646	51.068	2.1755e-06	83.108	143.665	209.747	31.507	-83.963	-37.501	28.906	-84.349	-79.433	145.939	-4.948	-79.786	-74.392	-74.612	-67.655	62.570	-69.721	-8191	255	
19586.037	1	1	0	0	0.18987	0.17104	0.047334	0.27828	0.24433	0.044756	0.27267	0.17407	0.10032	0.064555	0.062954	0.18906	0.1991	0.27922	0.21048	0.21788	-1.5917	-1.6958	-1.5896	-1.9792	-1.5646	-1.5938	-2.1229	-1.6542	-1.9125	-1.6667	-1.5958	-2.2125	-1.425	-1.9688	-2.0229	-1.6146	225.982	204.148	-84.701	260.920	20.394	220.009	165.196	-74.677	53.687	242.947	147.170	229.705	167.248	-36.056	-1.426	-84.824	0.00056089	0.0003285	0.00035104	1204.9	4.8523e-06	3.2218e-06	1341.5	367.35	1.943e-06	3.0636e-06	492.71	184.31	121.08	59.27	8.7703e-06	98.715	0.00020389	0.00019641	5.5294e-05	1059.2	2.1568e-06	2.1423e-06	1210.9	328.1	2.1662e-06	2.1605e-06	383.48	159.27	96.305	51.023	2.1477e-06	82.959	159.066	-9.436	-38.757	-84.738	52.738	-40.655	-84.849	-79.689	208.060	15.659	-79.483	-75.191	-74.279	-68.020	10.307	-69.826	-8191	255	
19586.133	1	1	0	0	0.22569	0.14435	0.33632	0.1832	0.31595	0.10276	0.20604	0.30676	0.17308	0.26789	0.16769	0.033175	0.1295	0.17179	0.17767	0.19316	-1.4688	-1.7271	-1.4229	-1.9875	-1.5917	-1.8083	-1.9521	-1.5542	-2.0312	-1.775	-1.3396	-2.0563	-1.5854	-1.8646	-1.8875	-1.5354	259.792	218.717	182.996	176.001	28.488	250.341	-72.734	201.243	-41.902	-40.265	-12.356	175.861	13.434	154.025	121.547	199.439	0.00034453	0.00028466	0.0001556	1201.7	1.7163e-06	3.773e-06	1351.5	365.73	3.6785e-06	5.8832e-06	499.85	185.02	120.49	59.177	4.5093e-06	99.592	0.00020254	0.0001979	5.4986e-05	1057.8	2.1517e-06	2.1421e-06	1212.6	327.45	2.1486e-06	2.1549e-06	385.9	159.17	95.962	50.907	2.1471e-06	83.373	157.430	108.849	-37.527	-84.136	65.176	89.721	-84.583	-79.369	-32.822	33.352	-79.598	-74.841	-74.209	-67.502	38.744	-69.784	-8191	255	
19586.229	1	1	0	0	0.059778	0.21623	0.15787	0.22211	0.14504	0.070585	0.12203	0.32179	0.13298	0.074184	0.34578	0.073729	0.22711	0.33367	0.32045	0.14249	-1.4438	-1.7229	-1.3188	-2.1646	-1.5458	-1.6375	-2.1437	-1.5521	-1.7062	-1.7604	-1.45	-2.0708	-1.8042	-1.6562	-1.9813	-1.6708	96.957	80.308	-53.042	179.259	149.279	-7.056	169.911	185.800	-21.055	92.823	50.453	229.441	225.030	257.372	117.880	214.983	0.00038104	0.00027467	0.00010457	1201.8	7.4607e-06	4.4627e-06	1355.6	367.78	1.4711e-06	5.9409e-06	496.39	185.72	120.75	59.112	4.8615e-06	99.534	0.00020243	0.00019781	5.488e-05	1056.2	2.1401e-06	2.159e-06	1218.4	328.55	2.1916e-06	2.1463e-06	387.05	160.32	96.385	51.015	2.1734e-06	83.486	149.535	-58.954	7.526	-83.790	-6.479	31.327	-84.213	-79.285	36.968	97.632	-79.732	-74.440	-73.905	-67.646	108.931	-69.561	-8191	255	
19586.326	1	1	0	0	0.090697	0.14387	0.022247	0.24983	0.1035	0.24546	0.4427	0.093138	0.18264	0.15547	0.37582	0.060299	0.22471	0.085924	0.18784	0.30553	-1.4229	-1.7521	-1.4021	-1.9937	-1.6729	-1.7021	-2.3271	-1.725	-1.8042	-1.8438	-1.4354	-1.9312	-1.8167	-1.5729	-2.0417	-1.5271	6.898	118.345	29.007	236.553	72.997	205.482	219.298	204.819	23.404	-38.916	181.383	209.338	-57.481	-91.027	84.172	-70.449	0.00060315	0.00039901	0.00019332	1203.9	1.9913e-06	2.1334e-06	1357.5	368.14	1.0641e-06	7.3131e-06	503.07	187.06	121.81	60.192	2.7013e-06	101.29	0.00020566	0.00019695	5.5787e-05	1061	2.1648e-06	2.1618e-06	1221.4	329.17	2.1715e-06	2.17e-06	388.16	161.35	96.877	51.764	2.1418e-06	84.814	181.738	-6.279	-27.032	-84.201	68.986	73.246	-84.245	-79.298	-48.535	-27.054	-79.197	-74.567	-74.039	-67.790	-39.013	-70.004	-8191	255	
19586.422	1	1	0	0	0.14489	0.17111	0.1359	0.12611	0.039279	0.10831	0.39818	0.22434	0.28869	0.14528	0.24822	0.072625	0.095194	0.21757	0.12883	0.28726	-1.0333	-1.8729	-1.4729	-1.8646	-1.8625	-1.575	-2.275	-1.7542	-1.6792	-1.9104	-1.4833	-2.0062	-1.7021	-1.4729	-2.0104	-1.6479	94.849	255.295	-64.267	230.552	-14.591	1.935	186.727	200.603	217.221	-24.940	262.144	6.427	246.058	250.223	-62.130	179.438	0.00049709	8.5366e-05	0.00010654	1212.3	5.6698e-06	6.7804e-06	1350.7	370.74	4.2888e-06	4.8553e-06	497.93	187.86	123.15	61.092	3.6859e-06	101.05	0.00020106	0.00019445	5.4127e-05	1061.8	2.14e-06	2.1301e-06	1216.8	330.29	2.1266e-06	2.0888e-06	385.95	161.42	97.196	52.271	2.0831e-06	84.576	162.148	238.664	191.399	-83.981	5.234	-37.689	-84.003	-79.231	187.314	203.879	-79.319	-74.398	-73.772	-67.736	109.724	-69.718	-8191	255	
19586.518	1	1	0	0	0.16727	0.11644	0.022596	0.34718	0.20712	0.40238	0.42104	0.059799	0.22727	0.29351	0.098544	0.12785	0.34371	0.2173	0.16339	0.11688	-1.0833	-1.9708	-1.5396	-1.8396	-1.7396	-1.4729	-1.9771	-1.9479	-1.5875	-1.9521	-1.6021	-1.7104	-1.6854	-1.6313	-1.9917	-1.8917	113.748	-12.935	201.309	-88.017	111.970	-47.366	227.929	-66.956	-72.775	21.239	63.038	-96.007	222.201	217.572	-85.240	127.856	0.00038107	0.00032819	8.9384e-05	1206.7	2.3349e-06	2.5159e-06	1359.2	371.45	5.3196e-06	4.9596e-06	496.99	187.12	121.56	59.993	2.7573e-06	100.25	0.00019883	0.0001908	5.2982e-05	1061.5	2.1046e-06	2.0908e-06	1217.7	330.32	2.1024e-06	2.0679e-06	384.16	160.91	96.827	51.558	2.0831e-06	83.97	169.517	-34.533	93.580	-83.851	-39.895	54.727	-84.307	-79.445	70.918	-84.027	-79.745	-74.463	-74.204	-67.541	20.608	-69.688	-8191	255	
19586.613	1	1	0	0	0.13182	0.070871	0.3692	0.064709	0.15625	0.15227	0.14286	0.32152	0.18217	0.076923	0.18538	0.059814	0.16929	0.13305	0.11197	0.3418	-0.96667	-1.7833	-1.5312	-1.7521	-1.7479	-1.4417	-1.9458	-1.8979	-1.3396	-1.9813	-1.6354	-1.5521	-1.9562	-1.5583	-1.8792	-1.9604	135.565	71.773	63.201	10.090	70.842	56.165	226.481	-80.237	216.478	-95.615	-89.381	-23.808	0.909	242.912	234.979	192.841	0.00077707	0.00011825	0.00017026	1211.6	4.3223e-07	4.4727e-07	1358.5	372.2	3.1513e-06	5.4002e-06	500.21	187.41	122.03	60.756	3.0722e-06	100.88	0.00019749	0.00019182	5.3263e-05	1062.3	2.0927e-06	2.0942e-06	1220.1	330.71	2.1066e-06	2.0904e-06	386.1	161.07	96.985	51.91	2.109e-06	84.607	165.690	167.567	-61.190	-83.967	41.198	80.036	-84.190	-79.642	20.204	-7.099	-79.476	-74.402	-73.899	-67.442	99.267	-69.705	-8191	255	
19586.732	1	1	0	0	0.081019	0.25522	0.25081	0.52515	0.20969	0.27098	0.21198	0.20243	0.14381	0.32892	0.034044	0.20329	0.18439	0.3941	0.26484	0.11762	-1.1104	-1.8479	-1.5979	-1.7625	-1.8333	-1.4458	-1.9396	-1.9438	-1.4937	-1.9	-1.8208	-1.5833	-1.8438	-1.6146	-1.7229	-1.95	-78.760	48.832	188.573	219.999	27.999	-37.398	218.113	242.146	101.789	130.043	-91.705	147.902	144.311	-86.000	17.124	246.214	0.00061585	0.00031657	0.00012337	1205.3	1.657e-06	4.1879e-06	1355.9	373.27	4.7083e-06	1.1429e-06	502.83	187.89	122.03	60.642	1.0495e-06	102.04	0.00019851	0.00019186	5.354e-05	1060.7	2.1145e-06	2.1192e-06	1221	331.81	2.1385e-06	2.0981e-06	387.88	162	97.232	52.103	2.1216e-06	85.376	161.409	-27.972	142.692	-84.180	73.488	41.552	-83.964	-79.219	-6.226	-23.577	-79.930	-74.813	-74.266	-67.975	71.958	-70.049	-8191	255	
19586.828	1	1	0	0	0.32586	0.15476	0.19675	0.32204	0.21503	0.2356	0.067531	0.10101	0.21522	0.17487	0.055683	0.2341	0.22653	0.22161	0.12404	0.44055	-1.1479	-1.8083	-1.7625	-1.5729	-1.9667	-1.4646	-1.7667	-1.8208	-1.2854	-1.9104	-1.7729	-1.6708	-1.9042	-1.6708	-1.6625	-1.8792	49.944	131.582	150.257	106.049	148.091	205.710	-90.709	-74.404	191.926	-78.306	71.593	-77.755	-54.264	-78.268	114.722	199.085	0.0004189	0.00016878	0.00030353	1207.7	6.5794e-06	4.1177e-06	1365.3	372.33	5.2296e-07	1.992e-06	496.69	187.45	122.74	60.282	3.1001e-06	100.33	0.00019684	0.00019042	5.3139e-05	1061.1	2.0833e-06	2.0863e-06	1222.7	331.55	2.0967e-06	2.072e-06	385.47	161.26	97.326	51.812	2.0891e-06	84.258	171.928	49.207	-56.931	-84.332	-51.281	105.435	-84.882	-79.808	228.830	-54.897	-79.705	-74.890	-74.262	-67.696	26.426	-70.047	-8191	255	
19586.926	1	1	0	0	0.40787	0.22178	0.12785	0.19148	0.2782	0.13112	0.39592	0.14263	0.074376	0.073747	0.17976	0.29429	0.28996	0.209	0.18873	0.33318	-1.0438	-1.7021	-1.5688	-1.6625	-2.1354	-1.6063	-1.8438	-2.0292	-1.5271	-1.9917	-1.9167	-1.9312	-1.9625	-1.8188	-1.6604	-2.1292	57.629	148.970	-85.233	-6.112	-30.173	214.015	160.130	-69.663	-5.251	-56.156	41.266	234.794	-19.398	253.001	119.204	211.726	0.00054611	0.00037113	0.00023229	1206.7	6.0212e-06	8.338e-06	1344.9	371.44	3.7069e-06	2.6432e-06	496.65	186.31	122.18	60.269	8.6119e-07	99.63	0.00019664	0.00019118	5.3101e-05	1060.4	2.0624e-06	2.0641e-06	1210.3	330.62	2.0785e-06	2.0672e-06	383.19	159.83	96.732	51.65	2.1072e-06	83.563	142.420	-29.264	-1.035	-84.176	11.286	15.600	-84.377	-79.547	13.237	-91.804	-80.044	-74.717	-74.598	-68.383	-5.942	-70.580	-8191	255	
19587.021	1	1	0	0	0.088552	0.1737	0.31096	0.2561	0.2386	0.24032	0.23531	0.29576	0.19036	0.069251	0.079836	0.0025101	0.45359	0.28517	0.16217	0.29926	-1.1354	-1.8687	-1.6958	-1.4625	-1.8062	-1.5438	-1.7458	-2.0667	-1.2875	-1.7521	-1.8896	-1.6583	-1.8896	-1.6292	-1.6021	-1.8729	-46.340	128.350	252.530	-94.959	99.004	21.979	167.106	181.069	170.376	-9.523	221.227	-66.959	-52.284	185.729	185.115	203.942	0.0006609	0.00032349	0.00029078	1206.6	5.5522e-06	2.2857e-06	1349.5	373.57	2.7942e-06	4.6649e-06	496.6	186.75	122.31	60.63	1.5805e-06	100.68	0.00019778	0.00019133	5.3485e-05	1061.1	2.0918e-06	2.1011e-06	1215.6	332.26	2.1075e-06	2.1029e-06	385.48	160.68	97.468	52.072	2.0924e-06	84.453	167.266	-88.089	-57.992	-84.709	-52.998	60.557	-84.732	-79.807	135.820	45.520	-80.103	-74.966	-74.610	-67.723	177.811	-69.874	-8191	255	
19587.117	1	1	0	0	0.058976	0.19701	0.034149	0.058049	0.27994	0.24629	0.19595	0.35748	0.19611	0.18675	0.063837	0.19353	0.11408	0.17371	0.2411	0.26086	-1.1562	-1.5875	-1.7313	-1.5021	-1.7958	-1.7188	-1.7521	-2.0229	-1.3604	-1.9021	-1.8312	-1.5292	-1.7021	-1.7896	-1.3208	-1.9417	71.418	233.103	172.607	-49.975	-36.406	-4.500	49.944	220.673	-46.497	82.317	-69.937	199.869	234.010	-41.466	85.936	230.739	0.00072825	0.00043108	0.00016239	1214.7	3.8916e-06	2.2535e-06	1350.3	375.42	5.9256e-06	5.6104e-06	495.42	188.56	124.32	61.625	7.2973e-06	102.41	0.00019616	0.00019009	5.3406e-05	1065.9	2.0872e-06	2.0924e-06	1216.7	333.4	2.0893e-06	2.0868e-06	386.12	162.62	98.441	52.646	2.0973e-06	85.624	180.613	-63.826	-45.590	-84.578	-64.102	26.667	-84.793	-80.141	1.295	-79.886	-79.953	-75.467	-74.442	-68.266	21.587	-70.449	-8191	255	
19587.215	1	1	0	0	0.14089	0.23204	0.13044	0.094057	0.075233	0.19239	0.21381	0.23588	0.29469	0.12425	0.060632	0.057609	0.25558	0.10798	0.067626	0.23794	-1.2583	-1.5729	-1.8521	-1.5375	-1.7792	-1.85	-1.6792	-2.1562	-1.575	-1.3438	-1.9792	-1.6292	-1.7687	-2.1458	-1.4312	-1.9729	98.600	-26.804	125.853	-16.332	41.914	125.782	85.225	236.839	-22.786	220.729	184.420	71.964	69.952	110.578	-41.365	179.522	0.00059035	0.0005044	6.2737e-06	1215.1	6.0163e-06	1.7323e-06	1358.9	375.96	4.6159e-06	2.9143e-06	499.78	189.25	125.06	61.45	4.1114e-06	102.41	0.00019792	0.00019262	5.313e-05	1070.2	2.1129e-06	2.0828e-06	1223	334.78	2.0962e-06	2.0954e-06	388.08	163	98.461	52.834	2.1207e-06	85.669	165.972	-34.889	35.091	-84.591	19.891	155.374	-84.975	-79.639	-22.937	-50.436	-80.251	-75.126	-74.293	-68.536	25.832	-70.304	-8191	255	
19587.332	1	1	0	0	0.27373	0.20759	0.13324	0.29478	0.20093	0.27789	0.25762	0.24285	0.10051	0.12168	0.34996	0.14342	0.042354	0.33552	0.16429	0.43154	-1.1542	-1.5458	-1.8563	-1.4917	-1.7104	-1.7938	-1.6333	-1.9375	-1.4167	-1.475	-1.9583	-1.5896	-1.8438	-2.0375	-1.4625	-1.9458	51.698	205.570	-17.538	182.653	89.685	21.073	193.635	237.132	-23.335	-5.706	206.461	-84.147	176.669	241.178	-26.351	230.377	0.00060031	0.00014258	0.00032664	1218	3.0588e-06	3.4009e-06	1358.4	377.88	4.6619e-06	6.7462e-06	494.91	188	124.71	61.535	6.4476e-06	101.24	0.00020089	0.0001923	5.334e-05	1072.5	2.1143e-06	2.0979e-06	1223.2	335.59	2.1382e-06	2.1348e-06	385.36	162.01	99.137	52.884	2.146e-06	84.954	173.225	214.571	-10.671	-84.291	22.933	4.385	-84.640	-79.575	76.132	6.300	-79.807	-74.738	-74.076	-67.999	62.613	-69.849	-8191	255	
19587.430	1	1	0	0	0.34145	0.19892	0.2869	0.23269	0.13177	0.17897	0.19212	0.083951	0.13256	0.17934	0.30335	0.22504	0.24806	0.50636	0.13907	0.31732	-1.3104	-1.5	-2.0646	-1.4771	-1.4583	-1.8	-1.4833	-1.8083	-1.6708	-1.6958	-1.8604	-1.8083	-1.65	-2.05	-1.4875	-1.9479	187.595	106.296	198.571	84.496	258.876	88.650	157.814	-79.573	-31.900	219.231	239.064	-61.942	-66.296	241.238	181.436	182.831	0.00055203	0.0004743	0.00015252	1223	8.1427e-06	5.0766e-06	1351.4	377.26	2.9732e-06	7.6554e-06	498.43	188.7	125.69	61.853	5.7299e-06	101.67	0.00020275	0.00019665	5.4876e-05	1073.9	2.1646e-06	2.1492e-06	1214.7	336.36	2.15e-06	2.1333e-06	386.45	162.69	99.736	53.174	2.1595e-06	85.228	160.329	213.674	15.890	-84.083	20.999	162.169	-84.408	-79.024	88.767	-31.299	-79.954	-74.584	-74.486	-67.834	1.403	-69.921	-8191	255	
19587.525	1	1	0	0	0.080787	0.19837	0.087126	0.33533	0.098199	0.10201	0.22725	0.17826	0.2191	0.11347	0.12964	0.16769	0.2227	0.40874	0.19959	0.10262	-1.2125	-1.6667	-2.0938	-1.6208	-1.8	-1.8354	-1.6458	-1.7875	-1.8271	-1.5354	-1.8208	-1.7313	-1.8125	-2.0646	-1.55	-1.6583	-66.984	-29.152	148.760	221.282	142.499	63.832	224.127	-28.520	112.120	5.892	153.629	181.760	127.345	217.415	108.680	204.074	0.0005054	0.00045879	0.00030179	1221.6	5.5751e-06	3.8699e-06	1355.2	378.75	4.3226e-06	3.2913e-06	501.65	189.58	126.03	61.645	6.7062e-07	101.37	0.00020049	0.00019524	5.4813e-05	1075.5	2.1369e-06	2.1458e-06	1219.1	336.15	2.1616e-06	2.1568e-06	387.87	163.17	99.868	52.969	2.1767e-06	84.982	149.591	-29.466	10.669	-84.122	40.142	-43.660	-84.188	-79.396	-36.698	128.763	-79.744	-74.494	-73.872	-67.624	-35.300	-69.680	-8191	255	
19587.596	1	1	0	0	0.087782	0.258	0.12009	0.1714	0.14776	0.26622	0.42119	0.10687	0.17323	0.35449	0.1612	0.1423	0.17831	0.31888	0.12983	0.2155	-1.4208	-1.3833	-1.8	-1.7729	-1.4333	-1.9521	-1.6583	-1.7646	-1.9021	-1.3979	-1.925	-1.9104	-1.4396	-2.0542	-1.5458	-1.8146	221.901	111.980	190.348	150.096	7.193	173.669	233.022	11.938	119.009	39.843	235.002	255.990	187.716	198.597	15.068	254.228	0.00048951	0.00031772	0.00020984	1214.5	4.1663e-06	8.2497e-06	1357.6	377.36	7.6592e-06	1.8101e-06	498.73	188.96	125.93	61.244	4.6689e-06	100.76	0.00020571	0.00019922	5.5788e-05	1074	2.1981e-06	2.1744e-06	1220	335.8	2.206e-06	2.1818e-06	388.35	162.77	99.769	52.634	2.1979e-06	84.72	156.193	-24.568	-54.615	-83.889	-4.777	61.361	-84.172	-79.171	58.913	18.716	-79.639	-74.586	-74.025	-67.520	76.621	-69.613	-8191	255	
19587.717	1	1	0	0	0.11746	0.1752	0.14741	0.092906	0.039899	0.071183	0.097227	0.24436	0.11187	0.090314	0.12327	0.057775	0.12503	0.30469	0.17521	0.18522	-1.3271	-1.5104	-1.9667	-1.9167	-1.4833	-2.2062	-1.9979	-1.9167	-1.9625	-1.6021	-1.775	-2.0833	-1.5292	-2.0604	-1.7604	-1.7521	-80.727	112.887	-6.794	35.004	154.166	182.478	127.741	210.189	195.066	-57.691	57.817	111.463	208.429	249.674	-39.762	171.824	0.00053719	0.00033846	0.00011642	1219.4	4.1179e-06	1.7044e-06	1358.8	377.08	2.8826e-06	5.7053e-06	498.26	188.14	125.09	60.817	3.5342e-06	99.991	0.00020668	0.00020189	5.5343e-05	1075.5	2.1904e-06	2.1734e-06	1223.5	335.09	2.1882e-06	2.1573e-06	385.96	161.96	99.389	52.212	2.1662e-06	83.789	168.647	-8.735	254.041	-83.857	-41.181	-46.527	-83.970	-79.271	44.069	34.355	-79.341	-74.327	-74.359	-67.727	-25.285	-69.651	-8191	255	
19587.812	1	1	0	0	0.077144	0.2143	0.10855	0.23705	0.19824	0.18438	0.25003	0.27635	0.089905	0.20548	0.34258	0.3695	0.26919	0.14204	0.36224	0.22925	-1.5875	-1.3771	-1.7437	-2.0062	-1.6208	-1.7729	-1.8083	-1.6542	-1.9583	-1.3583	-1.7208	-1.9896	-1.3	-2.1958	-1.675	-1.7292	-23.739	217.827	192.887	247.011	-22.843	179.470	195.106	-92.506	-64.796	-21.131	-50.719	195.536	-97.403	241.792	-92.587	190.909	0.00050833	0.00053693	0.00018257	1217.2	4.9025e-06	4.9551e-06	1345.9	373.35	1.2122e-06	1.2037e-06	494.34	186.71	124.5	60.74	3.8151e-06	98.902	0.00020502	0.00019757	5.5178e-05	1068.3	2.1801e-06	2.1614e-06	1211.5	333.44	2.2122e-06	2.1971e-06	384.61	160.9	99.308	52.1	2.2037e-06	83.365	182.281	-51.287	-29.680	-84.068	60.531	56.078	-84.525	-79.715	111.224	75.270	-80.044	-74.540	-73.562	-67.716	40.089	-69.573	-8191	255	
19587.908	1	1	0	0	0.23465	0.19512	0.14248	0.15802	0.24002	0.091682	0.19812	0.14824	0.27294	0.20224	0.10384	0.1456	0.095597	0.36387	0.081381	0.16901	-1.5458	-1.6083	-1.6979	-1.9271	-1.4104	-1.9125	-1.9062	-1.5896	-1.8375	-1.5604	-1.8354	-2.1479	-1.4312	-2.0646	-1.7875	-1.6417	99.696	-41.334	178.033	135.389	-21.858	57.809	233.708	235.169	5.667	117.021	-87.050	210.037	15.296	-67.537	102.460	-63.721	0.00046792	0.00067846	0.00010951	1219.8	3.5763e-06	2.4192e-06	1346.3	372.3	1.3535e-06	1.5723e-06	492.99	186.24	123.48	60.433	5.5322e-06	98.857	0.00020773	0.00020292	5.5952e-05	1071	2.2115e-06	2.2038e-06	1211.2	332.7	2.2015e-06	2.1946e-06	385.99	160.63	98.834	51.969	2.2175e-06	83.246	150.727	-64.957	-86.220	-83.845	-15.626	-10.186	-84.089	-79.137	123.726	-3.075	-79.667	-74.499	-73.805	-67.481	198.405	-69.521	-8191	255	
19588.029	1	1	0	0	0.23986	0.14288	0.24113	0.35189	0.090754	0.086522	0.3802	0.053282	0.20294	0.24378	0.16158	0.079331	0.27986	0.26223	0.26953	0.23069	-1.5104	-1.5938	-1.5958	-2.0833	-1.5063	-1.6521	-2.1083	-1.5562	-1.9229	-1.6604	-1.6333	-2.0542	-1.4083	-1.8312	-1.7229	-1.6229	199.504	185.772	211.240	-87.552	66.309	20.245	141.010	111.242	126.440	-32.287	247.952	-82.973	-32.365	233.358	41.587	136.479	0.00049066	0.00039563	0.00015867	1204.1	3.2004e-06	1.004e-05	1346.7	374.2	2.561e-06	2.7738e-06	492.94	187.77	124.47	60.597	1.3543e-06	99.523	0.00020494	0.0002025	5.6055e-05	1066.6	2.1954e-06	2.1898e-06	1216.8	332.95	2.1999e-06	2.1963e-06	384.54	161.55	98.936	52.089	2.2089e-06	83.811	163.528	-12.929	-47.820	-83.807	260.595	72.217	-84.070	-79.094	150.701	42.920	-79.339	-74.545	-73.333	-67.453	10.501	-69.472	-8191	255	
19588.123	1	1	0	0	0.23458	0.091592	0.26186	0.35198	0.099626	0.30356	0.40238	0.19278	0.17301	0.1197	0.2406	0.18972	0.25344	0.23989	0.094603	0.21627	-1.4979	-1.5875	-1.3563	-1.9333	-1.4167	-1.7875	-2.1396	-1.7313	-1.8563	-1.7708	-1.6313	-2.2833	-1.7188	-1.9104	-1.8667	-1.5292	114.433	-91.303	-71.218	165.378	8.152	19.129	185.027	231.289	187.098	178.614	50.641	-42.705	39.314	196.667	46.677	187.602	0.00035921	0.00050112	0.0002479	1210.3	2.4822e-06	4.7506e-06	1358.1	376.23	2.7025e-06	6.9082e-06	501.98	189.4	124.6	61.239	7.6474e-06	101.27	0.00020735	0.0002019	5.5952e-05	1065.6	2.2121e-06	2.1813e-06	1221.2	333.67	2.2122e-06	2.194e-06	388.82	162.81	99.08	52.572	2.1944e-06	84.894	165.889	-87.118	7.664	-83.966	-15.031	73.787	-83.856	-79.058	-41.339	-69.503	-79.187	-74.435	-73.962	-67.922	219.322	-69.664	-8191	255	
19588.195	1	1	0	0	0.048692	0.077677	0.27169	0.16168	0.23801	0.17897	0.41628	0.246	0.089281	0.1661	0.18855	0.12701	0.095678	0.078681	0.05584	0.060871	-1.45	-1.6667	-1.5146	-2.0583	-1.7479	-1.5479	-2.1146	-1.7188	-1.9208	-1.8438	-1.4271	-2.0458	-1.7708	-1.8208	-1.9229	-1.7333	127.392	115.817	108.619	-95.814	164.258	22.985	193.355	175.538	73.170	262.455	170.157	259.577	88.884	233.861	255.911	225.423	0.00052336	0.00057564	0.0002958	1216.6	4.0408e-06	3.9311e-06	1345.7	373.85	4.6085e-06	3.0784e-06	498.02	188.01	124.63	61.697	5.1156e-06	100.95	0.00020355	0.00020065	5.524e-05	1069.9	2.1614e-06	2.1633e-06	1215.6	333.38	2.1605e-06	2.1546e-06	385.9	161.97	99.078	52.768	2.1415e-06	84.336	148.138	-18.696	-66.516	-83.754	11.112	-42.511	-83.959	-79.339	-8.299	23.403	-79.669	-74.492	-74.314	-67.853	138.595	-69.597	-8191	255	
19588.295	1	1	0	0	0.19001	0.10254	0.19384	0.23585	0.24356	0.097289	0.26551	0.11903	0.093046	0.32828	0.14343	0.37676	0.15325	0.19249	0.15532	0.046844	-1.3396	-1.7125	-1.3917	-2.0229	-1.5229	-1.5625	-2.0812	-1.7271	-1.6938	-1.9083	-1.5083	-2.0125	-1.8729	-1.4479	-1.9229	-1.875	-91.403	76.572	22.005	204.550	39.818	214.999	174.869	184.700	205.651	179.325	144.934	-92.942	-94.963	202.833	-52.243	-71.066	0.0004697	0.0003783	7.4052e-05	1207.5	2.8028e-06	3.0124e-06	1346.1	375.88	5.1372e-06	3.4384e-06	496.69	188.37	125.06	61.831	4.1477e-06	101.29	0.00020313	0.00019731	5.4156e-05	1064.9	2.1321e-06	2.1471e-06	1213.2	333.82	2.1544e-06	2.1392e-06	386.23	162.18	99.482	53.039	2.1459e-06	84.932	153.902	0.852	195.144	-83.911	228.421	176.681	-84.125	-79.060	-21.028	261.988	-79.171	-74.498	-74.081	-67.679	96.331	-69.691	-8191	255	
19588.412	1	1	0	0	0.19353	0.14866	0.23145	0.034399	0.27974	0.42859	0.46375	0.20674	0.18102	0.24946	0.19771	0.25613	0.1666	0.16764	0.15656	0.2975	-1.2396	-1.8208	-1.4167	-2.0438	-1.6208	-1.5229	-2.0896	-1.6583	-1.6083	-2.0708	-1.4646	-1.8771	-1.7062	-1.6167	-1.8604	-1.7646	163.617	184.921	172.284	-28.126	51.096	70.513	191.937	198.043	198.906	35.624	226.929	-90.535	119.665	121.795	63.084	243.330	0.00055122	0.00031703	0.00017631	1211.1	2.5142e-06	6.6246e-06	1352.5	375.38	7.2778e-06	9.4806e-06	497.91	189.32	125.21	61.548	4.3124e-06	101.73	0.00020259	0.00019687	5.4336e-05	1065.9	2.1756e-06	2.1459e-06	1215.8	334.67	2.1434e-06	2.1203e-06	386.43	163.06	99.257	53.107	2.1606e-06	85.223	165.160	-13.236	-83.430	-83.758	18.460	102.061	-84.097	-79.132	-16.747	-17.383	-79.782	-74.279	-73.819	-67.344	100.862	-69.690	-8191	255	
19588.510	1	1	0	0	0.19277	0.093764	0.28469	0.104	0.20884	0.087273	0.22507	0.30659	0.19024	0.1335	0.16939	0.096334	0.254	0.1964	0.090002	0.14505	-1.0271	-1.725	-1.4104	-1.6354	-1.6229	-1.5167	-2.0208	-1.7646	-1.8167	-1.9896	-1.4146	-1.7958	-1.9312	-1.6042	-1.8937	-1.8312	145.986	146.953	198.089	191.711	55.295	73.018	204.924	203.062	-0.247	-68.583	142.717	120.258	220.859	-76.626	-10.780	-87.804	0.00049906	0.00029764	0.00036422	1217.6	6.9037e-06	1.2562e-06	1360	374.49	9.676e-07	2.668e-06	502.21	189.74	125.71	62.083	6.4592e-06	102.37	0.0002037	0.00019692	5.4845e-05	1069.6	2.1757e-06	2.1598e-06	1222.2	334.58	2.1908e-06	2.1622e-06	388.91	163.64	100.04	53.37	2.1786e-06	85.671	152.785	-47.810	0.926	-83.670	-8.508	34.411	-83.957	-79.076	222.961	-23.795	-79.167	-74.299	-73.749	-67.307	98.889	-69.423	-8191	255	
19588.605	1	1	0	0	0.38601	0.043704	0.37566	0.13908	0.22759	0.30937	0.20859	0.097699	0.12882	0.2111	0.19169	0.15344	0.27714	0.25904	0.20795	0.25398	-1.0583	-1.9146	-1.4125	-1.7313	-1.6396	-1.45	-2.0729	-1.8937	-1.6688	-1.8625	-1.6104	-1.7917	-1.675	-1.3958	-1.7938	-1.8104	76.493	160.010	74.939	226.979	218.775	150.292	229.881	227.211	130.091	220.415	223.770	127.326	127.795	198.756	218.045	231.492	0.00040268	0.00014491	0.00030866	1217.4	1.7304e-06	5.1715e-06	1364.3	375.91	2.6376e-06	3.3148e-06	505.47	190.49	126.1	61.987	4.8513e-06	102.29	0.00020437	0.00019633	5.5642e-05	1070.4	2.141e-06	2.1672e-06	1223.4	335.23	2.1576e-06	2.1566e-06	389.97	163.77	99.964	53.355	2.1455e-06	85.477	159.341	-27.155	-54.217	-84.007	34.250	74.895	-83.876	-78.993	-8.641	-23.881	-79.426	-74.614	-74.206	-67.686	35.770	-69.563	-8191	255	
19588.701	1	1	0	0	0.28813	0.25713	0.12258	0.38177	0.20571	0.41421	0.45926	0.044074	0.15747	0.29691	0.21344	0.23916	0.23109	0.27696	0.22938	0.016632	-0.99792	-1.9146	-1.4375	-1.5896	-1.7437	-1.2667	-1.8792	-2.0354	-1.4229	-1.9375	-1.4875	-1.6354	-1.7208	-1.6167	-1.5729	-1.8479	-70.955	130.430	-26.383	257.898	126.067	235.403	188.662	162.176	-51.287	-41.160	260.947	192.185	237.789	-67.249	227.656	213.888	0.00054606	0.00063155	0.00016514	1217.7	3.8043e-06	1.9836e-06	1344	376.52	1.8342e-06	5.1574e-06	497.67	187.67	127.17	62.284	1.9281e-06	101.8	0.00020351	0.00019577	5.4638e-05	1067.8	2.1328e-06	2.1652e-06	1211.9	335.13	2.1493e-06	2.1287e-06	386.26	162.26	99.907	53.462	2.1468e-06	85.284	182.412	-0.232	-54.476	-84.551	-1.368	89.475	-84.693	-79.979	36.887	18.048	-80.553	-75.206	-75.118	-68.147	77.769	-70.363	-8191	255	
19588.822	1	1	0	0	0.17452	0.096138	0.25842	0.23507	0.17644	0.102	0.23857	0.06691	0.11061	0.27892	0.31344	0.078345	0.068321	0.20165	0.1638	0.18961	-0.87292	-1.7458	-1.7292	-1.6812	-1.8875	-1.4854	-1.7792	-1.9083	-1.325	-1.975	-1.6	-1.5021	-1.9417	-1.5208	-1.8125	-1.9979	-28.003	72.612	244.215	-35.117	240.913	-43.838	181.065	167.766	-66.247	37.300	219.456	-83.940	42.842	9.089	-78.782	220.992	0.00048752	0.0001288	9.98e-05	1213	3.6853e-06	3.4122e-06	1347.9	375.58	4.5195e-06	3.0947e-06	499.45	188.9	125.19	61.913	2.9364e-06	101.75	0.0002006	0.0001924	5.4517e-05	1064.4	2.1359e-06	2.1196e-06	1214.8	334.91	2.1272e-06	2.1345e-06	387.88	162.82	99.281	53.193	2.1228e-06	85.293	173.929	-2.526	-26.333	-84.274	31.856	83.556	-84.770	-80.033	2.158	230.205	-80.179	-75.354	-74.565	-68.422	50.656	-70.068	-8191	255	
19588.895	1	1	0	0	0.212	0.2542	0.20902	0.10659	0.13959	0.1587	0.18734	0.19547	0.11095	0.067347	0.17808	0.10117	0.21943	0.024358	0.20293	0.30522	-1.1437	-1.8729	-1.5938	-1.4979	-2.0021	-1.6479	-1.7333	-1.9688	-1.3563	-1.8854	-1.7208	-1.5271	-1.9646	-1.6271	-1.6792	-2.2125	75.416	133.375	178.540	235.478	108.925	-9.641	248.689	236.161	104.537	-75.635	221.709	-90.887	-13.114	224.535	-9.678	184.729	0.00054584	0.00028067	0.00013403	1210.1	3.7573e-06	2.9525e-06	1356.2	374.96	5.2858e-06	5.7084e-06	503.33	189.76	124.57	61.493	3.7288e-06	101.75	0.00019903	0.00019278	5.3254e-05	1066	2.1086e-06	2.0808e-06	1218.9	334.08	2.0949e-06	2.103e-06	387.8	162.76	98.61	52.857	2.1116e-06	85.297	154.965	-50.072	-1.028	-84.623	-49.203	-22.962	-85.062	-79.871	-17.025	50.853	-80.082	-75.307	-74.745	-67.952	177.886	-69.741	-8191	255	
19589.014	1	1	0	0	0.088402	0.073187	0.14412	0.23282	0.25508	0.056152	0.24233	0.15039	0.095696	0.072354	0.38133	0.1908	0.22949	0.35598	0.064241	0.18563	-1.0583	-1.9208	-1.6354	-1.4188	-2.0021	-1.7833	-1.6542	-2.1	-1.3438	-1.8813	-2.1396	-1.725	-2.1354	-1.7875	-1.6	-2.0896	254.403	107.981	6.307	232.021	-91.749	-50.905	191.285	136.251	125.069	142.196	195.331	231.100	214.834	189.482	45.524	222.524	0.00046416	0.0010059	0.00013034	1209.6	8.4071e-06	4.2664e-06	1354.5	378.94	2.885e-06	5.7764e-06	501.07	190.27	125.27	62.34	2.716e-06	102.77	0.00019936	0.00019411	5.4107e-05	1067.2	2.132e-06	2.1321e-06	1223.5	336.21	2.1271e-06	2.1392e-06	390.08	164	99.506	53.426	2.1354e-06	86.08	168.393	-19.480	54.943	-83.925	-38.262	84.784	-84.272	-78.911	-67.408	-18.834	-79.850	-74.618	-73.738	-67.587	-16.869	-69.976	-8191	255	
19589.109	1	1	0	0	0.13747	0.13566	0.019478	0.22942	0.050709	0.11151	0.15049	0.38306	0.094644	0.20723	0.17524	0.28232	0.36411	0.31525	0.23659	0.15124	-1.1208	-1.5938	-1.6479	-1.5396	-2.1333	-1.6938	-1.7042	-2.0708	-1.6208	-1.7354	-1.8625	-1.7313	-1.9021	-1.7521	-1.2563	-2.2313	152.385	-4.326	-65.625	184.291	14.526	28.651	177.410	256.174	26.568	163.836	170.378	189.811	199.793	190.167	242.520	96.886	0.00051331	0.00033539	0.00018619	1214.5	3.4787e-06	5.9883e-06	1354	378.49	6.8193e-06	4.229e-06	500.27	189.83	125.89	62.672	3.5254e-06	101.66	0.00020035	0.00019307	5.3475e-05	1066.8	2.1176e-06	2.1138e-06	1219.6	336.03	2.121e-06	2.1361e-06	388.12	163.31	99.799	53.514	2.1182e-06	85.441	157.684	133.659	-62.789	-83.915	-40.871	68.242	-84.135	-79.168	-29.960	83.428	-79.669	-74.403	-73.591	-67.634	136.196	-69.579	-8191	255	
19589.205	1	1	0	0	0.14745	0.028887	0.17328	0.46981	0.33763	0.086463	0.062511	0.3088	0.088434	0.080836	0.16218	0.057543	0.12431	0.31138	0.16908	0.0795	-1.1313	-1.7687	-1.9021	-1.5646	-1.9208	-2.025	-1.6875	-2.1312	-1.7229	-1.5208	-2.0167	-1.5292	-1.6729	-2.1021	-1.45	-1.9917	135.056	63.599	11.842	203.528	144.763	174.387	190.554	227.097	217.933	222.511	169.313	215.028	219.676	-11.011	92.138	-62.355	0.00057648	0.00024668	0.00011256	1217.2	4.8901e-06	2.7739e-06	1353.6	376.32	7.2214e-06	5.9939e-06	502.5	190.2	125.41	62.402	6.2891e-06	102.01	0.00019777	0.00019346	5.3806e-05	1069.3	2.1115e-06	2.1175e-06	1217.1	335.48	2.1122e-06	2.1051e-06	388.1	163.29	99.718	53.673	2.1137e-06	85.705	162.785	23.858	-19.765	-83.932	30.146	83.428	-83.997	-78.840	-42.290	-70.386	-80.287	-75.296	-75.044	-68.394	-32.981	-70.450	-8191	255	
19589.301	1	1	0	0	0.20249	0.17507	0.1209	0.23084	0.017456	0.19484	0.11418	0.074513	0.14264	0.095503	0.20013	0.081079	0.10886	0.23196	0.19637	0.51067	-1.1021	-1.4854	-1.8604	-1.4896	-1.6938	-1.9937	-1.6063	-1.8854	-1.7625	-1.6604	-2.1	-1.8062	-1.7667	-2.0125	-1.4646	-1.9688	-66.580	-82.378	181.146	245.731	46.242	3.581	-7.860	-67.311	47.367	45.845	42.982	-83.364	10.955	249.228	-21.350	206.615	0.00061213	0.00032326	0.0001862	1223.1	5.4667e-06	2.651e-06	1359	378.45	1.5238e-06	3.3422e-06	502.21	190.4	126.58	62.978	4.5671e-06	103.13	0.00020034	0.00019266	5.3797e-05	1070.8	2.1241e-06	2.1349e-06	1221.4	336.36	2.1485e-06	2.1326e-06	390.16	164.13	100.7	54.024	2.1649e-06	86.359	171.539	-54.647	-67.043	-84.574	-75.505	63.310	-84.616	-79.611	91.777	12.782	-80.327	-75.032	-74.570	-67.933	128.530	-70.045	-8191	255	
19589.422	1	1	0	0	0.042379	0.23847	0.35931	0.15772	0.11324	0.12672	0.216	0.10779	0.144	0.18142	0.18899	0.20931	0.22872	0.26541	0.17939	0.66026	-1.5042	-1.6271	-1.9896	-1.6896	-1.85	-1.7812	-1.4875	-2.0812	-1.7333	-1.575	-2.0271	-1.75	-1.6333	-2.0521	-1.3875	-1.9917	-93.753	-39.220	258.492	219.450	-73.325	160.395	165.395	217.330	-5.942	-1.440	205.167	-85.408	217.079	254.271	217.583	214.751	0.00055007	0.00064204	0.00024743	1215.2	5.2668e-06	4.4192e-06	1356.6	377.79	7.294e-06	3.6775e-06	502.49	190.48	125.37	62.648	6.061e-06	102.55	0.0002027	0.00019593	5.4111e-05	1071.9	2.1349e-06	2.1256e-06	1222.2	336.78	2.1446e-06	2.1081e-06	390.57	164.1	99.689	53.609	2.1179e-06	86.214	158.164	-47.958	24.915	-84.328	-31.743	59.773	-84.772	-79.682	43.008	-18.370	-80.110	-74.985	-74.518	-68.013	74.607	-70.124	-8191	255	
19589.492	1	1	0	0	0.067224	0.21373	0.080759	0.31356	0.32993	0.089833	0.22778	0.38164	0.096367	0.042179	0.29191	0.14513	0.092834	0.14121	0.38458	0.1166	-1.4562	-1.4208	-1.9771	-1.8312	-1.5021	-2.0021	-1.5396	-1.7396	-1.8208	-1.4417	-1.9208	-1.7021	-1.4396	-2.0229	-1.5312	-1.9188	135.675	13.688	95.276	-39.398	35.446	-48.204	227.464	-82.979	-47.647	-75.182	28.177	237.355	91.118	-66.833	66.524	-77.586	0.00045638	0.00036478	0.00010282	1212.8	3.7721e-06	4.8951e-06	1362.5	379.49	5.3592e-06	2.6262e-06	507.52	191.91	126.12	62.637	3.3865e-06	102.43	0.00020097	0.0001917	5.3396e-05	1070	2.1212e-06	2.1005e-06	1226.6	337.32	2.1144e-06	2.1268e-06	391.64	164.74	100.01	53.774	2.129e-06	86.064	162.366	-58.083	107.552	-84.617	11.606	-13.502	-84.852	-79.826	235.208	-22.993	-80.338	-74.939	-74.698	-68.465	31.292	-70.240	-8191	255	
19589.590	1	1	0	0	0.28515	0.076176	0.12276	0.17198	0.13066	0.31848	0.22933	0.11802	0.15086	0.081975	0.13955	0.17252	0.17958	0.13158	0.33512	0.24384	-1.4312	-1.3646	-1.6187	-1.7271	-1.4917	-1.8958	-1.7875	-1.8604	-1.9917	-1.3354	-1.8708	-1.7125	-1.6625	-2.075	-1.2979	-1.8167	189.608	187.363	78.251	224.782	194.986	257.316	-88.501	174.892	51.855	-15.805	185.251	222.304	21.498	31.618	166.653	193.517	0.00056033	0.00080185	0.00012143	1212.8	4.9774e-06	8.4643e-06	1353	377.48	3.3145e-06	1.1969e-06	505.17	189.67	125.32	62.087	6.1249e-06	101.57	0.00020091	0.00019652	5.3799e-05	1068.4	2.1306e-06	2.124e-06	1220.9	335.97	2.1366e-06	2.1383e-06	388.72	163.22	99.362	53.212	2.1339e-06	85.068	149.918	-35.449	-85.530	-84.314	39.920	54.793	-84.711	-79.882	224.707	116.726	-79.759	-74.707	-74.586	-68.441	22.158	-70.057	-8191	255	
19589.686	1	1	0	0	0.17274	0.26122	0.1804	0.084677	0.32443	0.10432	0.085231	0.15778	0.12634	0.032578	0.24403	0.14924	0.035813	0.057665	0.1731	0.29959	-1.5688	-1.6125	-1.7792	-2.0479	-1.5125	-2.0146	-1.6063	-1.6437	-1.8208	-1.5167	-2.0479	-1.8792	-1.2521	-2.025	-1.7208	-1.8396	133.535	73.280	-12.433	208.530	94.213	-82.877	159.927	195.293	-96.946	-45.733	105.748	-94.469	153.087	131.794	-47.446	133.658	0.00058839	0.00045923	6.2202e-05	1211.2	3.3105e-06	5.5995e-06	1356.4	377.4	4.2017e-06	3.37e-06	504.08	188.89	125.03	61.301	6.4682e-06	101.38	0.00019927	0.00019189	5.4531e-05	1069.4	2.1349e-06	2.1371e-06	1223.5	335.67	2.1132e-06	2.1038e-06	388.54	162.13	98.922	52.663	2.1145e-06	84.76	140.042	-24.732	2.468	-84.171	-6.821	50.888	-84.050	-79.239	-23.608	28.489	-79.592	-74.719	-74.337	-68.203	70.391	-70.567	-8191	255	
19589.807	1	1	0	0	0.036737	0.43169	0.19787	0.16431	0.10301	0.12874	0.21177	0.27295	0.11725	0.20886	0.071758	0.40386	0.096852	0.22589	0.26817	0.36943	-1.6375	-1.4188	-1.7604	-1.9833	-1.2896	-1.875	-1.9396	-1.7687	-1.9917	-1.4604	-1.6604	-1.6688	-1.3625	-1.9438	-1.5688	-1.6729	43.289	150.685	166.036	-61.166	219.277	-92.743	207.500	-25.118	84.762	236.048	179.179	206.941	162.548	206.985	194.916	-55.617	0.00063608	0.00034739	4.9673e-05	1213.5	3.8113e-06	5.5788e-06	1362.5	377.91	1.8479e-06	8.4146e-06	504.2	190.39	126.63	62.098	6.7408e-06	103.11	0.0001988	0.00019318	5.3615e-05	1069.9	2.0948e-06	2.1133e-06	1224.3	335.9	2.1032e-06	2.0965e-06	390.5	163.62	99.753	53.429	2.0969e-06	86.226	162.888	-41.686	217.626	-84.613	57.796	-72.313	-84.472	-80.080	62.237	37.094	-80.131	-75.197	-74.781	-68.099	72.308	-70.117	-8191	255	
19589.902	1	1	0	0	0.12057	0.42559	0.17198	0.071776	0.49173	0.22908	0.45145	0.19319	0.18825	0.14546	0.030727	0.35433	0.29318	0.21093	0.1131	0.42945	-1.2833	-1.3771	-1.6521	-2.0583	-1.3604	-1.7542	-1.9708	-1.6063	-1.9896	-1.5646	-1.4688	-2.0667	-1.4583	-1.875	-1.6917	-1.6146	20.641	124.736	96.603	-0.753	-63.438	-69.255	156.371	226.352	2.555	127.206	101.746	-76.673	-30.744	-92.097	121.983	187.622	0.00059773	0.00035708	0.00012834	1223	2.2119e-06	2.5346e-06	1371.5	379.07	6.3134e-06	6.3045e-06	512.25	191.98	126.73	62.706	7.5677e-06	104.25	0.00019784	0.00019238	5.3567e-05	1074.3	2.1095e-06	2.0979e-06	1231.3	337.91	2.108e-06	2.1037e-06	392.04	164.85	100.06	53.861	2.0961e-06	87.026	168.590	-50.869	-61.999	-83.915	18.562	120.155	-84.304	-79.130	83.562	-19.084	-80.006	-74.937	-74.578	-68.120	117.155	-70.279	-8191	255	
19589.996	1	1	0	0	0.15745	0.13231	0.24188	0.15122	0.1243	0.18248	0.29276	0.083528	0.046778	0.24007	0.24329	0.089795	0.25095	0.26157	0.068249	0.26916	-1.4021	-1.6063	-1.6167	-2.2354	-1.5833	-1.8125	-1.9125	-1.4792	-1.8396	-1.5354	-1.5438	-1.9833	-1.4625	-1.7917	-1.8687	-1.5438	83.408	182.985	67.475	132.302	-23.646	-6.141	210.608	-74.931	239.737	105.023	106.336	251.584	-96.539	205.714	209.929	-40.883	0.00055838	0.00061263	0.00014372	1223.8	1.3366e-06	3.2912e-06	1365.1	381.05	7.4934e-06	7.4813e-07	508.04	191.4	127.51	62.918	4.5551e-06	103.02	0.00019774	0.00019299	5.304e-05	1074.6	2.0997e-06	2.0791e-06	1229.6	338.52	2.0951e-06	2.0747e-06	391.39	164.38	100.09	53.78	2.0616e-06	86.316	144.641	-53.660	-23.355	-84.448	-58.298	187.291	-84.569	-79.630	41.324	20.043	-79.952	-74.827	-73.970	-67.973	-5.631	-69.939	-8191	255	
19590.096	1	1	0	0	0.13433	0.21107	0.23542	0.16759	0.27269	0.1979	0.22892	0.30054	0.16859	0.1249	0.069008	0.19985	0.024372	0.25995	0.12695	0.19974	-1.6104	-1.7917	-1.4729	-2.0229	-1.3875	-1.6542	-2.1625	-1.6313	-1.8563	-1.6667	-1.5021	-2.0354	-1.6229	-1.7125	-1.8958	-1.4354	111.866	58.808	47.903	213.541	189.183	39.451	250.694	183.801	78.991	195.812	166.503	232.204	-19.606	239.690	227.201	222.582	0.00060867	0.00059014	0.0001925	1219.2	5.2834e-06	9.419e-06	1360.8	379.31	5.6881e-07	3.3634e-06	505.05	190.85	126.03	62.94	7.5461e-06	103.49	0.00019499	0.00018835	5.246e-05	1071.9	2.0664e-06	2.0536e-06	1222	337.5	2.0701e-06	2.0823e-06	389.85	163.64	99.939	53.814	2.0856e-06	86.489	148.622	-55.778	-96.912	-83.872	48.397	65.278	-84.376	-79.547	129.309	-12.203	-79.266	-74.795	-74.127	-67.838	46.542	-69.784	-8191	255	
19590.189	1	1	0	0	0.17608	0.1079	0.11922	0.15112	0.14345	0.20387	0.16764	0.36222	0.072265	0.20141	0.16511	0.18588	0.2064	0.43723	0.27838	0.3442	-1.3083	-1.6083	-1.4562	-1.9354	-1.4771	-1.7	-2.0667	-1.4438	-1.725	-1.8146	-1.6104	-2.0875	-1.6375	-1.85	-1.9688	-1.6667	249.530	139.427	24.580	175.846	187.346	218.948	175.255	172.017	191.740	46.246	240.832	214.968	187.204	215.200	82.109	197.992	0.00072655	0.0008164	0.00022608	1225	4.2708e-06	6.2869e-06	1368.6	380.75	4.558e-06	2.8671e-06	508.09	192.38	127.56	63.055	3.3013e-06	103.66	0.00019511	0.00019057	5.2274e-05	1076.5	2.0781e-06	2.0752e-06	1227.4	338.11	2.0764e-06	2.0672e-06	390.52	165.05	100.22	54.102	2.0803e-06	87.108	162.391	-38.109	-70.219	-83.604	261.640	78.049	-83.969	-79.029	-63.375	-55.821	-79.898	-74.727	-74.205	-67.407	41.887	-69.788	-8191	255	
19590.285	1	1	0	0	0.1564	0.19576	0.39966	0.17003	0.461	0.16559	0.32374	0.24485	0.096191	0.2065	0.23474	0.22952	0.25411	0.024543	0.1471	0.26426	-1.1271	-1.9438	-1.375	-1.9479	-1.5812	-1.6792	-1.9896	-1.5625	-1.7729	-2.0083	-1.6167	-2.0187	-1.6562	-1.5229	-2.0563	-1.6479	105.997	136.118	74.189	221.666	58.277	-75.069	215.620	217.362	198.577	176.277	255.606	257.314	-36.560	139.838	92.937	201.958	0.00056281	0.00050954	0.00033391	1228.4	3.9888e-06	4.8188e-06	1371.4	382.14	3.273e-06	5.0737e-06	504.43	192.81	127.71	63.708	1.9281e-06	104.8	0.000196	0.00018919	5.2894e-05	1076.6	2.1016e-06	2.0967e-06	1229	339.77	2.1078e-06	2.0998e-06	391.97	165.78	101.03	54.526	2.099e-06	87.688	156.079	-22.985	-34.875	-84.203	15.904	17.165	-83.993	-79.298	48.319	-67.369	-79.679	-74.577	-74.251	-67.413	228.924	-69.719	-8191	255	
19590.381	1	1	0	0	0.25215	0.068534	0.13926	0.46555	0.17544	0.17491	0.029811	0.074033	0.11657	0.16653	0.1994	0.32333	0.20831	0.18379	0.0026072	0.10254	-1.2687	-1.8125	-1.4458	-1.9417	-1.6042	-1.5458	-2.1375	-1.7375	-1.7542	-1.9479	-1.6146	-2.1833	-2.0396	-1.7146	-2.0938	-1.8687	213.850	189.298	252.222	-84.755	-2.652	-11.154	235.755	236.132	152.203	230.842	75.632	226.872	241.169	11.592	255.410	119.040	0.00049445	0.00015071	0.00012044	1222.7	3.1769e-06	2.9878e-06	1372.1	381.63	5.3346e-06	6.8785e-06	506.12	192.94	126.91	63.386	6.8258e-06	103.64	0.00020003	0.00019127	5.4053e-05	1075	2.1082e-06	2.1006e-06	1232.2	339.67	2.1319e-06	2.1118e-06	392.48	165.9	100.68	54.385	2.1232e-06	86.635	163.361	-49.769	-76.348	-83.871	6.044	25.390	-84.121	-79.208	40.296	11.541	-80.056	-74.496	-73.390	-67.574	104.458	-69.612	-8191	255	
19590.502	1	1	0	0	0.16122	0.15017	0.28098	0.15655	0.19719	0.15444	0.15132	0.48092	0.18781	0.30921	0.28723	0.25416	0.25586	0.22092	0.1136	0.088327	-1.2333	-2	-1.1833	-1.5958	-1.8625	-1.5271	-2.0854	-1.7458	-1.6104	-1.8083	-1.6604	-2.0146	-1.7125	-1.6333	-1.7979	-1.8729	69.271	14.531	187.668	45.279	128.300	234.847	-10.883	-84.341	238.139	149.873	-80.854	108.492	-41.742	209.993	182.374	190.865	0.00048615	0.00037112	0.00025298	1214.4	1.8957e-06	6.2386e-06	1351.6	376.82	3.8695e-06	4.7591e-06	500.82	188.81	126.56	62.327	2.8e-06	101.77	0.00020087	0.00019345	5.4091e-05	1068.4	2.1036e-06	2.0957e-06	1218.4	335.4	2.1003e-06	2.099e-06	386.88	162.81	99.585	53.349	2.0884e-06	85.284	163.916	-56.065	-30.070	-84.160	71.461	103.605	-84.177	-79.226	-81.747	31.307	-79.674	-74.846	-73.969	-67.684	72.400	-69.698	-8191	255	
19590.598	1	1	0	0	0.23846	0.13653	0.074075	0.35465	0.14907	0.047191	0.22207	0.17534	0.10958	0.10988	0.23894	0.049082	0.24131	0.12305	0.055778	0.1586	-1.1646	-1.9458	-1.5479	-1.8188	-1.7021	-1.5625	-2.0083	-1.8229	-1.6396	-1.85	-1.7229	-1.85	-1.9271	-1.2542	-1.7021	-1.8583	7.503	82.895	-3.242	237.324	67.694	-55.829	232.702	218.327	46.994	-20.545	-45.928	-89.321	-66.983	249.126	-34.893	236.145	0.00048385	0.00027553	0.00024103	1214.9	3.17e-06	4.574e-06	1357.1	377.49	3.0727e-06	1.1427e-05	500.63	189.72	125.7	61.913	2.9668e-06	102	0.00019813	0.0001903	5.2808e-05	1065.6	2.0809e-06	2.1033e-06	1217.9	335.3	2.0824e-06	2.0801e-06	388.2	162.63	99.476	53.152	2.0807e-06	85.259	150.630	234.546	-68.936	-84.368	61.709	71.638	-83.996	-79.272	-15.430	-29.715	-79.564	-74.612	-74.146	-67.442	145.739	-69.607	-8191	255	
19590.693	1	1	0	0	0.15498	0.27419	0.19399	0.16573	0.1787	0.18939	0.10292	0.23789	0.063104	0.34126	0.30196	0.19347	0.26098	0.14785	0.25945	0.396	-1.1521	-1.925	-1.6792	-1.7188	-1.9438	-1.7271	-2.0167	-1.8958	-1.6187	-1.825	-1.8354	-1.5396	-2.0167	-1.7542	-1.8167	-1.9396	65.045	-35.704	-66.665	65.147	72.682	32.822	260.898	155.778	-7.148	152.911	-9.594	-77.844	-73.102	164.013	60.894	246.038	0.00057495	0.00027899	0.00013446	1216.3	4.664e-06	2.0054e-06	1360.4	379.58	2.9535e-06	3.3921e-06	506.47	191.3	126.32	62.851	6.622e-06	103.5	0.00019544	0.00019065	5.255e-05	1067.6	2.097e-06	2.0713e-06	1223.3	336.13	2.0801e-06	2.0829e-06	390.08	164.12	99.55	53.711	2.0879e-06	86.329	154.896	246.571	143.956	-83.955	-40.559	44.715	-84.170	-78.905	211.383	81.591	-79.282	-74.234	-74.080	-67.904	57.566	-69.669	-8191	255	
19590.789	1	1	0	0	0.078711	0.14891	0.12952	0.1457	0.369	0.17427	0.085303	0.21085	0.24038	0.21201	0.087682	0.16021	0.31912	0.3178	0.026492	0.059368	-1.0896	-2.0021	-1.4833	-1.7917	-1.9583	-1.5271	-1.9917	-1.9813	-1.5333	-1.9792	-1.9854	-1.7083	-2.0375	-1.7104	-1.7667	-2.1333	45.626	6.658	225.241	231.149	103.427	114.772	172.963	224.049	-92.798	159.288	-15.538	210.555	205.687	166.362	54.942	138.507	0.00059413	0.00010633	0.00027666	1223.3	2.4111e-06	4.6668e-06	1367.3	379.57	4.7857e-06	5.2819e-06	509.98	192.33	126.38	62.767	6.9136e-06	103.67	0.00019787	0.00019449	5.3312e-05	1072	2.1128e-06	2.0895e-06	1226.6	337.46	2.1287e-06	2.0946e-06	392.99	165.27	100.16	53.767	2.1022e-06	86.725	154.878	-9.540	-42.278	-83.664	168.106	70.398	-84.024	-79.204	-50.439	48.102	-79.416	-74.338	-73.960	-67.512	53.293	-69.584	-8191	255	
19590.887	1	1	0	0	0.2445	0.18642	0.28164	0.041321	0.094366	0.19357	0.16897	0.20873	0.12025	0.16829	0.07224	0.39592	0.099051	0.28739	0.11055	0.070924	-1.1333	-2.0271	-1.6958	-1.5417	-2.0208	-1.7521	-1.9729	-2.0958	-1.5	-1.8292	-1.85	-1.575	-2.0333	-1.7604	-1.5333	-2.0958	10.358	47.400	30.845	166.884	72.645	122.494	162.437	-91.778	63.159	14.835	210.282	228.275	194.542	225.192	175.115	-56.639	0.00056541	0.00027326	0.00019259	1213.8	5.4841e-06	3.1077e-06	1362.7	377.5	5.5887e-06	1.9863e-06	506.36	189.98	126.16	61.971	3.3731e-06	101.67	0.00019672	0.00019091	5.3318e-05	1068.7	2.1008e-06	2.0845e-06	1224.8	336.74	2.1103e-06	2.1066e-06	389.78	163.03	99.445	53.268	2.0999e-06	85.206	165.194	-41.958	-2.214	-84.010	98.781	90.839	-83.966	-78.864	249.608	193.304	-79.308	-74.389	-74.071	-67.586	-19.286	-69.716	-8191	255	
19590.982	1	1	0	0	0.25322	0.29942	0.17124	0.14938	0.1795	0.28876	0.14846	0.35044	0.12066	0.35689	0.10726	0.12628	0.04484	0.090096	0.20509	0.13744	-0.925	-1.8563	-1.7021	-1.6708	-1.9375	-1.6646	-1.8188	-2.025	-1.4479	-1.7687	-1.9729	-1.5688	-1.9917	-1.7563	-1.5271	-2.1771	87.650	-58.583	-0.591	200.929	140.071	52.375	250.701	-87.778	180.227	-18.639	126.919	116.317	188.008	248.397	-88.520	204.610	0.00049635	0.0007701	0.00015225	1216.7	4.0938e-06	4.4467e-06	1352.4	375.65	3.4608e-06	5.2591e-06	499.62	190.65	125.8	62.405	6.23e-06	102.85	0.00019793	0.00019032	5.3198e-05	1066.4	2.1007e-06	2.0836e-06	1218.4	334.98	2.0886e-06	2.0836e-06	388.26	163.37	99.171	53.369	2.1182e-06	85.882	161.280	-68.620	1.445	-83.778	55.751	-41.091	-84.097	-79.548	26.002	-17.694	-80.036	-74.517	-73.564	-67.438	11.662	-69.926	-8191	255	
19591.102	1	1	0	0	0.28539	0.2194	0.21487	0.18281	0.11857	0.24893	0.45549	0.23574	0.13724	0.29618	0.12427	0.19103	0.17199	0.38832	0.20328	0.26155	-1.0688	-1.4875	-2.0521	-1.3125	-1.8563	-1.7917	-1.6562	-2.0375	-1.4875	-1.7125	-1.9625	-1.5417	-1.9208	-1.9021	-1.4083	-2.2292	2.650	229.745	228.372	176.331	196.785	-37.785	176.634	194.395	150.620	163.892	261.136	215.534	16.598	216.740	49.574	31.739	0.00036774	0.0006638	0.00012903	1210.4	5.2296e-06	1.554e-06	1363.2	376.69	1.2587e-06	1.0988e-06	506	191.44	126.95	62.269	9.0908e-06	103.43	0.00019844	0.00019198	5.344e-05	1062.5	2.1009e-06	2.0934e-06	1223.4	335.45	2.1083e-06	2.1079e-06	390.05	164.05	99.698	53.656	2.1436e-06	86.36	161.473	-46.599	-49.124	-83.965	-83.968	45.351	-83.923	-78.971	82.265	83.616	-79.591	-74.399	-73.758	-67.493	176.518	-69.633	-8191	255	
19591.197	1	1	0	0	0.062292	0.22684	0.068405	0.23224	0.15027	0.045478	0.2767	0.039592	0.10013	0.090721	0.14964	0.076269	0.23371	0.10076	0.1706	0.19832	-1.0979	-1.6417	-1.8542	-1.4896	-1.7563	-1.6917	-1.5458	-2.1396	-1.5125	-1.5917	-1.9562	-1.5312	-1.7146	-1.7146	-1.3438	-2.0729	219.867	-84.030	111.404	-55.514	87.852	24.491	190.626	102.073	54.883	20.389	235.086	152.025	122.416	9.762	-55.179	-17.503	0.00056411	0.00020696	0.00010003	1214.5	8.0956e-06	4.2148e-06	1360	377.34	2.8061e-06	7.541e-06	504.09	190.71	126.14	62.107	3.3465e-06	102.37	0.00020274	0.00019557	5.4263e-05	1068	2.1318e-06	2.1715e-06	1223.2	336.21	2.1705e-06	2.1507e-06	391.65	164.14	99.965	53.339	2.1748e-06	85.697	148.432	89.843	60.940	-83.585	46.193	9.701	-83.830	-79.058	58.162	-12.071	-79.322	-74.207	-74.043	-67.271	69.463	-69.508	-8191	255	
19591.295	1	1	0	0	0.19964	0.14924	0.08583	0.10493	0.09089	0.10667	0.16411	0.19021	0.32196	0.31187	0.055258	0.19397	0.29422	0.16782	0.056958	0.3798	-1.2875	-1.5792	-2.0396	-1.6	-1.7146	-1.8229	-1.5208	-2.0396	-1.6646	-1.5771	-2.0875	-1.7833	-1.9521	-1.9396	-1.4062	-2.1188	76.435	189.649	5.576	259.938	99.255	-41.822	-90.042	225.318	-10.879	121.857	175.106	224.592	251.491	-69.235	198.544	204.197	0.00055336	0.00018762	0.00013754	1214.5	4.8997e-06	5.0305e-06	1366.4	375.88	2.5176e-06	2.8762e-06	502.48	190.37	125.14	61.568	5.2246e-06	101.02	0.00020411	0.00019916	5.5609e-05	1072.1	2.1955e-06	2.1906e-06	1228.7	335.54	2.1866e-06	2.1821e-06	391.3	163.63	99.632	52.824	2.1588e-06	84.979	147.534	19.097	-40.781	-83.655	1.379	18.541	-84.057	-79.315	111.829	26.428	-79.439	-74.337	-73.721	-67.430	17.085	-69.349	-8191	255	
19591.365	1	1	0	0	0.21325	0.19488	0.23346	0.14732	0.42865	0.1557	0.26711	0.066064	0.35321	0.036222	0.072277	0.33588	0.15838	0.1277	0.13577	0.1794	-1.2292	-1.4708	-2.0146	-1.6396	-1.6354	-1.8396	-1.625	-1.8563	-1.8563	-1.4125	-2.2771	-1.6333	-1.5417	-2.0812	-1.5312	-2.025	2.126	35.031	114.304	191.051	-75.338	38.940	215.199	11.478	103.456	-41.456	160.540	211.383	210.380	-63.045	69.945	257.438	0.00047605	0.00028144	0.0001624	1216.7	3.3573e-06	4.7515e-06	1365	376	6.1068e-06	5.3804e-06	503.88	189.43	125.13	61.966	4.3212e-06	101.67	0.00020262	0.00019823	5.4734e-05	1067.5	2.1529e-06	2.1377e-06	1223.9	334.88	2.1693e-06	2.1507e-06	390.77	162.96	99.387	53.121	2.1798e-06	85.065	153.269	181.762	-8.322	-83.778	-2.489	41.530	-83.916	-79.220	-19.484	85.073	-79.200	-74.339	-73.786	-67.555	173.547	-69.597	-8191	255	
19591.486	1	1	0	0	0.080402	0.1493	0.11691	0.34625	0.23857	0.42242	0.32347	0.25105	0.16774	0.2353	0.15673	0.21307	0.27016	0.30584	0.075966	0.28452	-1.1833	-1.3167	-1.9833	-1.7188	-1.5438	-1.9062	-1.6208	-1.8167	-2.0354	-1.6	-1.9771	-1.9021	-1.5438	-2.0667	-1.6125	-2.0271	115.519	49.877	90.831	214.383	98.923	100.627	201.965	233.753	70.991	128.996	252.116	-40.861	217.571	207.091	88.600	133.764	0.00059958	8.2312e-05	0.00030459	1215.9	1.9676e-07	4.7427e-06	1363.3	377.01	4.8937e-06	4.1926e-06	502.57	189.91	125.6	61.729	4.7863e-06	101.55	0.00020335	0.00019765	5.4922e-05	1066.8	2.1483e-06	2.1563e-06	1225.1	336.51	2.1661e-06	2.1487e-06	389.95	163.58	99.469	52.966	2.1634e-06	84.847	149.449	-71.194	-27.957	-83.858	-32.568	116.211	-84.054	-79.230	74.055	-21.670	-79.002	-74.455	-74.437	-67.516	42.091	-69.747	-8191	255	
19591.582	1	1	0	0	0.042596	0.23034	0.10702	0.16861	0.26554	0.12708	0.10565	0.20298	0.23527	0.03703	0.33497	0.37371	0.21263	0.20392	0.11467	0.24452	-1.4875	-1.4354	-1.975	-1.8854	-1.4792	-1.8896	-1.5979	-1.9583	-1.9438	-1.5354	-2.0479	-1.7167	-1.4792	-1.9333	-1.5688	-1.9208	98.964	6.580	-72.663	192.766	154.258	43.798	226.445	245.965	101.137	132.758	183.873	207.366	180.020	219.949	193.074	196.396	0.00046785	0.00054978	9.7389e-05	1218.5	2.6802e-06	5.092e-06	1363.7	376.53	4.7066e-06	6.1756e-06	507.49	190.7	125.98	62.013	2.0343e-06	101.75	0.00020377	0.00019909	5.4999e-05	1072.5	2.1724e-06	2.1738e-06	1227.9	336.17	2.1808e-06	2.1851e-06	391.94	163.88	100.04	53.189	2.2089e-06	85.402	154.236	-43.232	-10.334	-83.962	-15.191	62.945	-84.139	-79.354	51.202	13.167	-79.491	-74.482	-73.767	-67.615	8.400	-69.570	-8191	255	
19591.678	1	1	0	0	0.11326	0.1237	0.28332	0.29353	0.197	0.077556	0.1501	0.13436	0.193	0.14296	0.30497	0.28458	0.33631	0.16927	0.13757	0.36183	-1.4979	-1.4708	-1.9396	-1.9312	-1.45	-1.9813	-1.8792	-1.6792	-2.0917	-1.5021	-1.9292	-1.8687	-1.2583	-2.15	-1.5292	-1.7938	-15.899	-73.904	186.837	250.528	114.734	39.723	163.164	-31.018	149.462	-74.846	-93.486	133.065	216.394	-82.672	81.419	170.632	0.00055759	0.00012909	0.00018621	1221.8	2.03e-06	1.4249e-06	1372.3	379.47	1.4857e-06	7.2041e-06	506.84	190.5	127.75	62.505	6.494e-06	102.97	0.00020923	0.00020516	5.6878e-05	1077.3	2.2214e-06	2.2341e-06	1232.9	337.82	2.2332e-06	2.228e-06	393.3	164.39	100.85	53.686	2.2199e-06	86.309	163.552	245.193	-94.678	-83.900	253.375	98.792	-84.105	-79.092	-65.931	26.412	-79.517	-74.420	-73.655	-67.442	79.530	-69.359	-8191	255	
19591.775	1	1	0	0	0.23351	0.060065	0.1387	0.35569	0.076315	0.16941	0.38816	0.39476	0.37461	0.24019	0.16474	0.20551	0.14558	0.10074	0.17106	0.49693	-1.525	-1.4667	-1.8292	-1.9312	-1.3708	-1.9562	-1.7958	-1.6187	-2.1188	-1.6187	-1.7458	-2.1354	-1.65	-1.9333	-1.7833	-1.7896	-39.999	239.110	-60.980	249.164	122.023	-34.103	179.560	206.617	-9.740	5.788	-59.080	233.643	100.438	80.062	-3.597	221.640	0.00047184	0.00048958	0.0001434	1226.6	5.3232e-06	3.0793e-06	1360.4	379.82	4.7465e-06	5.3876e-06	503.32	190.36	125.6	62.489	8.9882e-06	101.31	0.00020865	0.00020204	5.6318e-05	1074.4	2.2172e-06	2.2069e-06	1226.7	337.82	2.2255e-06	2.2127e-06	391.29	163.78	100.74	53.607	2.2104e-06	85.268	155.194	12.003	61.500	-83.881	18.216	-25.557	-83.842	-78.738	84.713	-7.457	-79.623	-74.336	-73.428	-67.447	46.912	-69.375	-8191	255	
19591.893	1	1	0	0	0.013334	0.097303	0.29663	0.11341	0.080465	0.049727	0.17387	0.24308	0.12121	0.15736	0.22837	0.23115	0.27939	0.17494	0.10061	0.46931	-1.6375	-1.7104	-1.7771	-2.0438	-1.5396	-1.8917	-1.8146	-1.5479	-2.0479	-1.6812	-1.7333	-2.125	-1.55	-2.0062	-1.7542	-1.6792	163.660	-39.521	219.056	244.548	-39.285	20.258	199.066	163.957	141.929	66.850	-94.356	151.517	164.859	207.931	20.631	218.065	0.00035081	0.00032382	0.00013155	1205.9	9.0479e-07	9.0319e-06	1344.4	373.7	5.549e-06	4.8043e-06	497.06	188.85	123.74	62.463	3.6856e-06	101.17	0.0002078	0.00020294	5.6334e-05	1064.7	2.2049e-06	2.2325e-06	1212.8	334.16	2.239e-06	2.2224e-06	387.26	162.23	99.346	53.462	2.2409e-06	84.941	154.140	-11.217	235.640	-83.797	22.232	52.265	-83.863	-78.910	24.899	25.854	-79.351	-74.319	-74.044	-67.452	77.553	-69.534	-8191	255	
19591.990	1	1	0	0	0.072205	0.12452	0.07036	0.28502	0.26318	0.18085	0.29273	0.33457	0.16619	0.080971	0.013968	0.12463	0.060417	0.12251	0.15772	0.32131	-1.4375	-1.5542	-1.5292	-2.1458	-1.3646	-1.7875	-2.0375	-1.5729	-1.9062	-1.55	-1.6542	-2.0458	-1.5146	-2.0042	-1.9062	-1.6146	81.435	254.603	36.043	-66.918	142.498	-17.442	200.559	169.719	81.519	-48.402	-11.286	197.703	193.104	186.733	247.522	214.185	0.0005243	0.0001172	0.00010661	1200.9	5.3165e-06	4.421e-06	1339.7	371.19	7.023e-06	4.4252e-06	496.83	187.22	123.89	61.436	9.5888e-06	100.44	0.00021023	0.00020382	5.6969e-05	1058.8	2.2715e-06	2.268e-06	1206.9	331.9	2.2826e-06	2.2716e-06	387.16	161.64	99.255	53.133	2.3486e-06	84.84	156.425	182.063	14.820	-83.512	31.852	25.987	-84.094	-78.991	27.376	-19.125	-79.651	-74.210	-73.781	-67.283	40.657	-70.019	-8191	255	
19592.062	1	1	0	0	0.17696	0.18158	0.22814	0.10186	0.38307	0.35458	0.24374	0.31526	0.23604	0.24765	0.11327	0.1278	0.11436	0.11858	0.22537	0.047889	-1.5021	-1.5896	-1.5333	-2.0042	-1.4542	-1.8542	-2.1688	-1.5542	-1.8125	-1.7687	-1.6417	-2.0917	-1.5292	-1.9521	-1.7396	-1.5417	-59.899	83.173	224.833	232.007	142.394	158.079	225.629	195.415	105.791	-72.184	-1.689	-92.548	87.388	234.245	253.390	-36.376	0.00049153	8.0924e-05	0.00016992	1191.9	4.4171e-06	9.1659e-06	1332.1	368.84	2.6951e-06	2.3798e-06	492.7	187.24	122.87	61.646	5.2558e-07	101.61	0.00021877	0.00021483	5.9642e-05	1055.4	2.3437e-06	2.3349e-06	1202.5	329.6	2.3244e-06	2.3364e-06	387.04	161.91	98.568	53.175	2.2973e-06	85.368	157.353	24.886	140.884	-83.661	95.673	64.156	-83.832	-78.778	-21.041	4.372	-79.267	-74.188	-73.851	-67.445	87.384	-69.637	-8191	255	
19592.184	1	1	0	0	0.11216	0.087581	0.33996	0.12559	0.16757	0.19814	0.12227	0.41122	0.16319	0.24348	0.049251	0.14071	0.15566	0.26062	0.066122	0.13917	-1.325	-1.7229	-1.4854	-2.0583	-1.4979	-1.5396	-2.2479	-1.6854	-1.9229	-1.6479	-1.7521	-2.1688	-1.7042	-1.7208	-1.8521	-1.4833	-1.303	38.433	-86.423	24.359	15.178	68.551	193.031	-70.282	-57.845	153.959	-47.778	-52.277	26.884	250.101	61.859	-68.692	0.00062325	0.0002235	0.00018899	1194	3.8135e-06	6.2813e-06	1344.1	369	3.6238e-06	4.1643e-06	497.71	188.92	122.54	62.026	3.3431e-06	101.74	0.00021432	0.00020892	5.7607e-05	1054.6	2.2693e-06	2.2636e-06	1211.4	330.26	2.271e-06	2.2317e-06	388.26	162.71	98.345	53.199	2.2364e-06	85.309	149.986	-67.804	-62.120	-83.651	-9.743	105.906	-84.031	-78.967	-58.559	5.662	-79.173	-74.168	-73.443	-67.408	36.233	-69.715	-8191	255	
19592.277	1	1	0	0	0.17745	0.29532	0.18174	0.18468	0.33303	0.13132	0.23327	0.096035	0.062365	0.18081	0.058841	0.3053	0.14228	0.10461	0.096511	0.22136	-1.3479	-1.7125	-1.3833	-2.0604	-1.6396	-1.5479	-2.2188	-1.5896	-1.7583	-1.8042	-1.5771	-2.1708	-1.6771	-1.6021	-1.8958	-1.7542	127.880	-71.779	-74.614	184.690	43.088	212.302	233.045	23.476	89.985	46.743	-70.523	214.587	194.119	242.648	257.647	183.709	0.0005813	0.00028453	0.00014743	1196.9	2.4143e-06	3.6686e-06	1343.2	372.8	2.1864e-06	6.7508e-06	498.45	186.26	123.16	61.551	5.8595e-06	100.38	0.0002078	0.00020218	5.6459e-05	1055.3	2.2363e-06	2.2208e-06	1207.9	331.34	2.2208e-06	2.2103e-06	386.68	161	98.31	52.911	2.2144e-06	84.243	147.585	55.749	255.786	-83.429	-20.338	235.570	-84.248	-79.174	88.800	64.191	-79.526	-74.248	-73.667	-67.557	120.262	-69.583	-8191	255	
19592.373	1	1	0	0	0.29197	0.11819	0.10619	0.27729	0.14715	0.37742	0.14628	0.28212	0.27607	0.24442	0.23763	0.35729	0.21185	0.30782	0.024339	0.31847	-1.4042	-1.7979	-1.5208	-1.8687	-1.8042	-1.6	-1.9813	-1.7521	-1.6437	-1.7292	-1.4479	-1.9375	-1.7792	-1.4708	-1.9708	-1.7958	74.069	53.686	147.935	188.850	118.162	-85.353	22.247	219.510	221.593	72.257	197.792	155.404	248.122	237.238	98.501	233.569	0.00048387	0.00038831	2.2559e-05	1201.2	9.186e-06	1.7751e-06	1337.5	373.53	1.8013e-06	3.9198e-06	498.5	188.63	124.2	62.262	3.562e-06	101.73	0.00020801	0.00020187	5.6232e-05	1059	2.2008e-06	2.2049e-06	1207.8	331.69	2.2004e-06	2.2102e-06	385.78	162.01	99.068	53.359	2.2222e-06	85.143	165.335	-64.613	-33.936	-83.934	65.367	-56.301	-83.829	-79.195	61.406	21.321	-79.608	-74.340	-73.702	-67.337	97.333	-69.409	-8191	255	
19592.494	1	1	0	0	0.038291	0.18908	0.22419	0.1388	0.2079	0.15813	0.17268	0.12565	0.10832	0.20446	0.23426	0.15145	0.076296	0.37511	0.17796	0.17882	-1.0521	-2.15	-1.5625	-1.9625	-1.6896	-1.3583	-2.0812	-1.7771	-1.6792	-2.0604	-1.6271	-1.8333	-1.8021	-1.5521	-1.9667	-1.7229	230.928	-3.602	-25.986	-64.592	89.722	227.477	206.682	149.406	55.227	-67.653	65.614	-92.609	122.533	215.559	184.131	148.244	0.00074233	0.00045419	0.00018649	1203.5	4.0546e-06	3.8461e-06	1349.1	371.76	7.2837e-06	6.6806e-06	497.18	189.25	124.01	62.404	4.8644e-06	102.51	0.00020757	0.00020102	5.6013e-05	1060.4	2.2072e-06	2.189e-06	1214.3	332.98	2.2012e-06	2.1889e-06	388.92	163.08	99.134	53.679	2.2096e-06	86.008	179.459	57.394	-60.489	-83.655	-63.225	55.039	-83.903	-79.028	94.842	50.766	-79.376	-74.362	-73.749	-67.291	90.428	-69.460	-8191	255	
19592.592	1	1	0	0	0.12195	0.0688	0.23962	0.28051	0.35496	0.15715	0.084977	0.3164	0.19542	0.18871	0.27323	0.22112	0.0054489	0.1373	0.15446	0.063923	-1.0625	-1.9708	-1.4167	-1.6646	-1.7062	-1.4979	-1.9729	-1.8792	-1.4125	-2.1125	-1.5104	-1.7708	-1.9937	-1.6146	-1.8583	-1.7917	90.194	251.383	-31.685	200.937	76.741	2.230	144.227	253.480	257.379	118.943	248.282	220.208	233.611	-86.118	187.034	56.785	0.00062203	0.00053687	0.00027668	1206.7	1.4279e-06	7.8218e-06	1355.2	374.96	4.8035e-06	6.5843e-06	503.29	191.81	124.55	62.914	4.808e-06	103.11	0.00020678	0.00019937	5.6018e-05	1063.5	2.2046e-06	2.2074e-06	1221	334.54	2.2107e-06	2.2026e-06	391.2	164.81	99.937	53.989	2.2284e-06	86.418	173.034	-8.816	-27.116	-84.517	126.166	51.275	-84.807	-79.419	-29.970	-23.508	-79.800	-74.753	-74.451	-67.593	64.661	-70.106	-8191	255	
19592.662	1	1	0	0	0.20756	0.28004	0.19501	0.15972	0.14606	0.13214	0.3197	0.29662	0.28527	0.2113	0.39542	0.61019	0.16559	0.084931	0.053498	0.31076	-0.9875	-1.9167	-1.6313	-1.7625	-1.7854	-1.3708	-1.9458	-1.9083	-1.5	-1.8958	-1.6917	-1.7167	-1.7687	-1.5833	-1.5292	-1.9667	212.468	251.631	-36.252	203.311	-71.242	24.041	136.660	207.760	-90.289	187.921	-75.973	240.707	152.278	244.490	-70.518	205.436	0.00057106	0.0006907	0.0001915	1210	7.6203e-06	5.0261e-06	1351.4	374.76	5.798e-06	2.8063e-06	501.06	189.75	125.33	62.575	6.8869e-06	101.66	0.00020927	0.00020206	5.6931e-05	1066.2	2.231e-06	2.2468e-06	1220.7	334.92	2.2223e-06	2.2165e-06	388.87	163.47	99.895	53.759	2.2104e-06	85.23	159.379	254.014	-77.226	-84.217	4.898	35.616	-84.521	-79.582	-51.553	84.175	-79.685	-74.228	-73.935	-67.366	47.960	-69.648	-8191	255	
19592.783	1	1	0	0	0.33018	0.24538	0.28993	0.017304	0.29271	0.28417	0.23778	0.073072	0.15572	0.097211	0.15985	0.18604	0.083107	0.065746	0.092394	0.38829	-0.98333	-1.8062	-1.7083	-1.5708	-1.9813	-1.3875	-1.8396	-1.9271	-1.3542	-1.8542	-1.5583	-1.7188	-1.9729	-1.6667	-1.9062	-2.1937	70.998	179.367	27.236	110.930	127.930	-61.955	179.602	186.149	201.426	2.571	90.738	248.092	79.725	242.752	103.011	237.398	0.00050483	0.00058825	0.00013378	1210.3	3.0239e-06	9.1303e-06	1340.2	374.67	2.107e-06	4.2939e-06	498.74	188.36	125.53	62.479	4.8264e-06	100.95	0.00020718	0.00020089	5.5532e-05	1062	2.1975e-06	2.1963e-06	1209.7	334.03	2.1905e-06	2.2176e-06	386.53	162.09	99.805	53.586	2.2259e-06	84.77	141.709	-21.656	-37.943	-83.607	251.125	63.268	-84.214	-78.874	166.992	11.388	-79.082	-74.400	-73.689	-67.691	224.200	-69.488	-8191	255	
19592.879	1	1	0	0	0.034844	0.048189	0.1839	0.26255	0.11945	0.25048	0.12037	0.35955	0.096003	0.13148	0.098133	0.27307	0.11742	0.36929	0.445	0.073127	-0.92708	-1.8937	-1.8104	-1.575	-1.9813	-1.4917	-1.7167	-2.05	-1.5083	-1.8687	-1.8438	-1.4271	-1.9771	-1.6875	-1.5458	-1.9646	78.819	192.939	-48.392	256.385	-69.058	-3.442	136.564	186.811	84.729	235.707	183.592	252.247	74.321	-75.545	257.750	96.822	0.00039378	0.00018991	0.00023745	1203.4	2.4984e-06	5.3796e-06	1341.1	375.58	1.7628e-06	7.6461e-07	500.82	189.78	125.06	62.283	5.485e-06	101.47	0.00020734	0.00020123	5.6198e-05	1061.6	2.2087e-06	2.2048e-06	1211.4	334.52	2.2148e-06	2.1873e-06	388.55	162.85	99.734	53.611	2.2267e-06	85.13	164.380	162.552	-36.250	-83.941	238.468	-9.942	-84.040	-78.975	110.696	143.536	-79.490	-74.204	-74.045	-67.551	237.870	-69.689	-8191	255	
19592.977	1	1	0	0	0.17419	0.030092	0.36002	0.15053	0.081731	0.048719	0.32725	0.2136	0.11805	0.094939	0.24284	0.22489	0.33404	0.25554	0.016214	0.17724	-1.1833	-1.7062	-1.7708	-1.4958	-1.8062	-1.5875	-1.8729	-1.9937	-1.4188	-1.7542	-1.8979	-1.625	-1.8229	-2.0938	-1.5417	-2.0438	85.148	100.988	13.164	19.201	206.565	190.525	216.516	-77.285	153.903	145.543	150.069	120.644	157.483	157.447	-37.000	-16.377	0.00051212	0.00066841	0.000306	1209.6	4.1827e-06	3.1581e-06	1347.8	375.74	4.0336e-06	6.887e-06	498.54	190.44	125.74	62.54	3.3676e-06	101.96	0.0002089	0.00020284	5.6646e-05	1064.9	2.2301e-06	2.2314e-06	1215	335.5	2.2405e-06	2.2183e-06	389.02	163.51	100.04	53.644	2.2229e-06	85.522	145.977	-31.303	-87.853	-83.776	15.249	-25.479	-83.925	-79.058	-11.704	49.410	-79.349	-74.322	-73.780	-67.329	-10.903	-69.672	-8191	255	
19593.072	1	1	0	0	0.14585	0.15584	0.31569	0.1142	0.095306	0.033845	0.32057	0.13839	0.20214	0.1369	0.069505	0.3237	0.090307	0.26729	0.12029	0.087312	-1.0604	-1.6417	-1.9333	-1.6167	-1.95	-1.8146	-1.8146	-2.2792	-1.6042	-1.8708	-1.9188	-1.5354	-1.9292	-1.8375	-1.4604	-2.05	-9.394	-17.886	41.821	-59.632	43.665	203.260	180.113	256.833	-44.881	187.252	188.143	-94.116	247.189	-83.177	-52.249	215.488	0.00036953	0.00032289	0.00024244	1205.7	2.5477e-06	6.6432e-06	1357	377.5	4.5198e-06	8.7608e-06	503.97	190.47	124.81	62.44	7.1841e-06	101.5	0.00020966	0.00020324	5.6871e-05	1066.1	2.2341e-06	2.2458e-06	1221.9	335.8	2.262e-06	2.2456e-06	391.33	163.76	99.848	53.67	2.2274e-06	85.532	142.915	-35.526	4.236	-83.595	212.296	35.569	-83.892	-78.981	-0.935	-9.575	-79.139	-74.465	-74.274	-67.572	93.096	-69.697	-8191	255	
19593.166	1	1	0	0	0.16925	0.11354	0.29712	0.13931	0.11937	0.31668	0.30586	0.26301	0.19388	0.14829	0.098866	0.21626	0.06361	0.11791	0.08388	0.13346	-0.92083	-1.6354	-1.7792	-1.45	-1.8542	-1.8792	-1.8646	-2.0792	-1.6021	-1.6917	-1.9604	-1.7708	-1.8563	-1.8146	-1.275	-2.1521	120.389	142.376	165.271	-91.137	108.309	103.563	258.150	-73.060	182.528	-38.387	214.502	-90.276	153.021	-8.083	207.015	243.063	0.00065224	0.00054492	0.00032519	1212.7	2.5162e-06	2.6003e-06	1356.8	375.29	2.0267e-06	7.8336e-06	498.7	188.99	125.75	62.187	4.3139e-06	101.48	0.00020953	0.00020211	5.5983e-05	1066	2.2163e-06	2.2135e-06	1217.4	333.92	2.2172e-06	2.1981e-06	388.41	162.81	99.811	53.396	2.2327e-06	84.891	162.467	-64.581	-25.386	-83.752	36.742	262.199	-84.161	-79.113	-2.098	-8.165	-79.830	-74.473	-73.966	-67.520	23.732	-69.524	-8191	255	
19593.287	1	1	0	0	0.092638	0.070953	0.22524	0.30181	0.17869	0.27741	0.3042	0.13364	0.25816	0.26026	0.17864	0.075298	0.16009	0.053267	0.22912	0.1615	-1.1875	-1.5833	-1.9125	-1.4667	-1.7062	-1.8125	-1.6187	-2.1271	-1.75	-1.5833	-2.1167	-1.7583	-1.7646	-1.9958	-1.5063	-2.1417	5.984	-63.314	1.810	228.779	-39.239	170.094	-42.596	147.246	76.652	-92.045	182.998	-83.600	163.970	6.912	156.545	220.353	0.00056649	0.00025974	0.00017235	1208.5	4.9672e-06	1.991e-06	1345.9	374.7	6.1801e-06	6.2087e-06	502.61	189.37	126.22	62.488	4.3911e-06	101.5	0.00021041	0.00020402	5.6703e-05	1066	2.2312e-06	2.2521e-06	1213.6	334.58	2.2345e-06	2.2328e-06	389.03	162.62	100.2	53.557	2.2292e-06	85.076	166.160	-92.008	-23.293	-83.703	36.647	-21.618	-83.817	-79.052	-21.502	-34.622	-79.269	-74.407	-73.649	-67.557	66.624	-69.688	-8191	255	
19593.357	1	1	0	0	0.20456	0.14143	0.15285	0.030808	0.029167	0.17333	0.18724	0.1624	0.05465	0.22478	0.16382	0.27634	0.19201	0.091687	0.16276	0.261	-1.4	-1.6646	-1.9917	-1.7104	-1.9792	-1.9646	-1.625	-1.8917	-1.7771	-1.5792	-1.9188	-1.6667	-1.7062	-2.0458	-1.4021	-1.95	205.644	226.712	215.100	77.387	23.706	221.030	173.519	181.931	-87.268	161.985	205.017	157.693	-94.950	-91.008	120.440	204.535	0.00031016	0.0004284	7.0269e-05	1211.7	2.3496e-06	6.6338e-06	1356.4	374.56	4.8698e-06	4.9224e-06	497.85	190.26	127.6	62.69	6.1537e-06	102.12	0.00021062	0.00020355	5.7427e-05	1066.8	2.2429e-06	2.2183e-06	1219.5	334.96	2.2408e-06	2.2474e-06	389.67	163.65	100.73	53.844	2.283e-06	85.621	133.021	11.554	-30.094	-83.872	80.081	111.763	-83.844	-78.811	2.766	168.850	-79.944	-74.205	-74.000	-67.766	53.902	-69.664	-8191	255	
#DATA ENDS
