BOXY.EXE: ISS Imagent and Oximeter Data Acquisition Program Version 0.80
Ascii Record File

#ACQ INFORMATION
2  Detector Channels 
16  External MUX Channels 
1  Auxiliary Channels 
5000  Waveform (CCF) Frequency (Hz)
1  Waveforms Skipped 
30  Waveforms Averaged 
1  Cycles Averaged 
16  Acquisitions per Waveform 
10.0806  Updata Rate (Hz) 

#FILE INFORMATION
TRUE -- External MUX Channel results are PARSED.
FALSE -- AC DC and Phase are NOT grouped.
TRUE -- Companion Program Settings File CREATED.
FALSE -- AC data not excluded
FALSE -- DC data not excluded
FALSE -- Phase data not excluded
FALSE -- Auxillary Chn. data not excluded
Tab delimiters

#CALIBRATION STATE
TRUE -- Waveform Calibration Values APPLIED.


#AUX CALIBRATION VALUES
Val Type	aux-1	

Term	1.0000e+00	
Factor	0.0000e+00	


#WF CALIBRATION VALUES
A = Detector Channel
Val Type	A-AC1	A-AC2	A-AC3	A-AC4	A-AC5	A-AC6	A-AC7	A-AC8	A-AC9	A-AC10	A-AC11	A-AC12	A-AC13	A-AC14	A-AC15	A-AC16	A-DC1	A-DC2	A-DC3	A-DC4	A-DC5	A-DC6	A-DC7	A-DC8	A-DC9	A-DC10	A-DC11	A-DC12	A-DC13	A-DC14	A-DC15	A-DC16	A-Ph1	A-Ph2	A-Ph3	A-Ph4	A-Ph5	A-Ph6	A-Ph7	A-Ph8	A-Ph9	A-Ph10	A-Ph11	A-Ph12	A-Ph13	A-Ph14	A-Ph15	A-Ph16	

Term	0.00000e+00	0.00000e+00	0.00000e+00	0.00000e+00	0.00000e+00	0.00000e+00	0.00000e+00	0.00000e+00	0.00000e+00	0.00000e+00	0.00000e+00	0.00000e+00	0.00000e+00	0.00000e+00	0.00000e+00	0.00000e+00	0.00000e+00	0.00000e+00	0.00000e+00	0.00000e+00	0.00000e+00	0.00000e+00	0.00000e+00	0.00000e+00	0.00000e+00	0.00000e+00	0.00000e+00	0.00000e+00	0.00000e+00	0.00000e+00	0.00000e+00	0.00000e+00	0.00000e+00	0.00000e+00	0.00000e+00	0.00000e+00	0.00000e+00	0.00000e+00	0.00000e+00	0.00000e+00	0.00000e+00	0.00000e+00	0.00000e+00	0.00000e+00	0.00000e+00	0.00000e+00	0.00000e+00	0.00000e+00	
Factor	1.00000e+00	1.00000e+00	1.00000e+00	1.00000e+00	1.00000e+00	1.00000e+00	1.00000e+00	1.00000e+00	1.00000e+00	1.00000e+00	1.00000e+00	1.00000e+00	1.00000e+00	1.00000e+00	1.00000e+00	1.00000e+00	1.00000e+00	1.00000e+00	1.00000e+00	1.00000e+00	1.00000e+00	1.00000e+00	1.00000e+00	1.00000e+00	1.00000e+00	1.00000e+00	1.00000e+00	1.00000e+00	1.00000e+00	1.00000e+00	1.00000e+00	1.00000e+00	X	X	X	X	X	X	X	X	X	X	X	X	X	X	X	X	

B = Detector Channel
Val Type	B-AC1	B-AC2	B-AC3	B-AC4	B-AC5	B-AC6	B-AC7	B-AC8	B-AC9	B-AC10	B-AC11	B-AC12	B-AC13	B-AC14	B-AC15	B-AC16	B-DC1	B-DC2	B-DC3	B-DC4	B-DC5	B-DC6	B-DC7	B-DC8	B-DC9	B-DC10	B-DC11	B-DC12	B-DC13	B-DC14	B-DC15	B-DC16	B-Ph1	B-Ph2	B-Ph3	B-Ph4	B-Ph5	B-Ph6	B-Ph7	B-Ph8	B-Ph9	B-Ph10	B-Ph11	B-Ph12	B-Ph13	B-Ph14	B-Ph15	B-Ph16	

Term	0.00000e+00	0.00000e+00	0.00000e+00	0.00000e+00	0.00000e+00	0.00000e+00	0.00000e+00	0.00000e+00	0.00000e+00	0.00000e+00	0.00000e+00	0.00000e+00	0.00000e+00	0.00000e+00	0.00000e+00	0.00000e+00	0.00000e+00	0.00000e+00	0.00000e+00	0.00000e+00	0.00000e+00	0.00000e+00	0.00000e+00	0.00000e+00	0.00000e+00	0.00000e+00	0.00000e+00	0.00000e+00	0.00000e+00	0.00000e+00	0.00000e+00	0.00000e+00	-1.60165e+02	-1.56046e+02	-1.61601e+02	-1.84043e+02	-1.15639e+02	-8.35182e+01	-1.55479e+02	-1.62015e+02	-1.02200e+02	-1.19732e+02	-1.85372e+02	-1.70396e+02	-1.86982e+02	-1.76531e+02	-6.46452e+01	-1.49226e+02	
Factor	2.80052e-05	7.83278e-05	3.39611e-05	2.47397e-01	8.53685e-07	8.94540e-07	1.74294e-01	5.63954e-02	8.49358e-07	1.01448e-06	2.25253e-01	3.31667e-02	6.79303e-02	9.94483e-03	1.03214e-06	1.41766e-02	3.98363e-07	4.02558e-07	1.11943e-07	1.12903e-01	4.40606e-09	4.40072e-09	7.81490e-02	2.63565e-02	4.40888e-09	4.39813e-09	8.24592e-02	1.43961e-02	2.55369e-02	4.44917e-03	4.40686e-09	6.06539e-03	X	X	X	X	X	X	X	X	X	X	X	X	X	X	X	X	



#DISTANCE SETTINGS
A = Detector Channel
A-1	A-2	A-3	A-4	A-5	A-6	A-7	A-8	A-9	A-10	A-11	A-12	A-13	A-14	A-15	A-16	

2.5000e+00	3.0000e+00	2.5000e+00	3.0000e+00	2.0000e+00	3.0000e+00	1.5000e+00	3.0000e+00	3.0000e+00	3.0000e+00	3.0000e+00	3.0000e+00	3.0000e+00	3.0000e+00	1.5000e+00	3.0000e+00	

B = Detector Channel
B-1	B-2	B-3	B-4	B-5	B-6	B-7	B-8	B-9	B-10	B-11	B-12	B-13	B-14	B-15	B-16	

1.0000e+01	1.0000e+01	1.0000e+01	1.4400e+00	1.0000e+01	1.0000e+01	1.5100e+00	1.9400e+00	1.0000e+01	1.0000e+01	1.9900e+00	2.4900e+00	2.4100e+00	2.9000e+00	1.0000e+01	2.9800e+00	




#DATA BEGINS
time	group	step	mark	flag	A-AC1	A-AC2	A-AC3	A-AC4	A-AC5	A-AC6	A-AC7	A-AC8	A-AC9	A-AC10	A-AC11	A-AC12	A-AC13	A-AC14	A-AC15	A-AC16	A-DC1	A-DC2	A-DC3	A-DC4	A-DC5	A-DC6	A-DC7	A-DC8	A-DC9	A-DC10	A-DC11	A-DC12	A-DC13	A-DC14	A-DC15	A-DC16	A-Ph1	A-Ph2	A-Ph3	A-Ph4	A-Ph5	A-Ph6	A-Ph7	A-Ph8	A-Ph9	A-Ph10	A-Ph11	A-Ph12	A-Ph13	A-Ph14	A-Ph15	A-Ph16	B-AC1	B-AC2	B-AC3	B-AC4	B-AC5	B-AC6	B-AC7	B-AC8	B-AC9	B-AC10	B-AC11	B-AC12	B-AC13	B-AC14	B-AC15	B-AC16	B-DC1	B-DC2	B-DC3	B-DC4	B-DC5	B-DC6	B-DC7	B-DC8	B-DC9	B-DC10	B-DC11	B-DC12	B-DC13	B-DC14	B-DC15	B-DC16	B-Ph1	B-Ph2	B-Ph3	B-Ph4	B-Ph5	B-Ph6	B-Ph7	B-Ph8	B-Ph9	B-Ph10	B-Ph11	B-Ph12	B-Ph13	B-Ph14	B-Ph15	B-Ph16	aux-1	digaux	

19603.588	1	1	0	256	0.11104	0.19621	0.06024	0.18838	0.28862	0.29665	0.10309	0.22069	0.097268	0.085522	0.24763	0.41024	0.17228	0.36011	0.18232	0.085518	-1.4542	-1.4958	-1.7854	-1.75	-1.4333	-2.0083	-1.7313	-1.7271	-1.6646	-1.3396	-1.7542	-1.875	-1.4667	-1.8292	-1.5146	-1.55	126.528	124.779	197.218	140.661	-74.326	-55.359	232.589	-62.362	45.652	225.409	-17.383	213.730	-62.242	191.387	1.376	-80.449	0.00043632	2.6456e-05	0.00029507	1215.9	1.8185e-06	1.4555e-06	1374.9	453.06	3.6042e-06	4.1721e-06	543.97	174.27	134.01	47.495	3.7381e-06	68.778	0.00021253	0.00021234	5.835e-05	1069.8	2.3263e-06	2.2898e-06	1239.1	401.79	2.2885e-06	2.2822e-06	418.5	151	105.67	41.084	2.3092e-06	58.45	160.824	237.173	-40.578	-86.113	-31.530	31.498	-86.995	-83.046	2.456	-55.813	-84.133	-80.014	-79.530	-73.368	98.182	-74.408	-8191	255	
19603.684	1	1	0	0	0.13157	0.056481	0.18259	0.16792	0.28925	0.019768	0.2854	0.38592	0.33439	0.24834	0.29007	0.24419	0.25048	0.24289	0.13693	0.33827	-1.3104	-1.2917	-1.5458	-1.7458	-1.4521	-1.8458	-1.7458	-1.5125	-1.9562	-1.4062	-1.9125	-2.0042	-1.4354	-1.8292	-1.5896	-1.6938	72.042	212.649	-89.488	256.612	69.096	225.247	209.644	176.611	-69.280	152.624	-93.204	246.465	39.926	132.639	184.351	216.251	0.0004195	0.00045302	3.7251e-05	1214.5	7.2301e-06	4.948e-06	1377.1	458.57	4.788e-06	8.1787e-06	543.32	175.65	133.05	47.337	9.9255e-06	68.977	0.00021217	0.00020839	5.8454e-05	1071.8	2.2921e-06	2.2907e-06	1243.2	403.82	2.2847e-06	2.2527e-06	419.2	151.24	105.41	41.008	2.2658e-06	58.62	135.163	-62.338	23.075	-85.910	24.164	-4.271	-86.993	-82.912	6.101	9.825	-84.082	-80.226	-79.378	-73.820	117.274	-74.281	-8191	255	
19603.779	1	1	0	0	0.027884	0.12611	0.1748	0.16247	0.079985	0.11959	0.14832	0.3169	0.066873	0.17424	0.42586	0.33998	0.14951	0.18047	0.11834	0.21078	-1.5667	-1.3521	-1.7	-1.9208	-1.3937	-1.875	-1.8646	-1.5479	-1.9667	-1.375	-1.6104	-1.8958	-1.4646	-1.9917	-1.7229	-1.7479	52.007	0.975	227.362	212.126	52.448	9.868	181.796	230.440	93.759	175.148	240.642	200.351	-9.568	1.400	189.780	163.394	0.00032125	0.00094109	0.00024439	1218.8	9.3887e-07	2.6857e-06	1385.6	456.09	1.9027e-06	5.205e-06	542.49	175.97	134.76	47.176	7.488e-06	68.622	0.00020806	0.00020559	5.6887e-05	1073.1	2.2538e-06	2.2368e-06	1247	403.26	2.2694e-06	2.2464e-06	418.94	151.6	105.77	41.013	2.2355e-06	58.463	194.613	-63.922	-67.266	-86.239	201.123	-32.666	-87.062	-83.233	22.971	-51.809	-83.967	-80.095	-79.351	-73.738	70.612	-74.405	-8191	255	
19603.900	1	1	0	0	0.2346	0.21027	0.23089	0.28827	0.10368	0.13895	0.28526	0.15889	0.27137	0.33305	0.19278	0.3951	0.095631	0.26328	0.11753	0.18902	-1.4937	-1.4875	-1.4854	-1.9708	-1.45	-1.8438	-2.1125	-1.3333	-1.8125	-1.7	-1.3792	-1.9375	-1.3062	-1.7354	-1.9688	-1.6354	-59.724	136.464	160.476	249.764	79.302	20.616	128.638	201.626	252.089	-51.543	12.598	-79.282	61.137	71.051	92.800	-74.717	0.00048833	0.00066881	0.00012432	1226.2	1.2048e-06	1.9318e-06	1395.6	458.09	3.9017e-06	1.8057e-06	545.12	176.21	134.75	47.169	3.966e-06	68.594	0.00020792	0.00020626	5.7275e-05	1078	2.2643e-06	2.2597e-06	1252	404.8	2.2531e-06	2.2322e-06	420.19	151.84	105.59	40.983	2.2318e-06	58.505	153.901	-41.798	31.386	-86.175	226.251	-64.341	-86.933	-83.025	46.043	202.090	-84.267	-80.114	-79.244	-73.400	27.758	-74.413	-8191	255	
19603.996	1	1	0	0	0.32617	0.13808	0.10103	0.39641	0.057737	0.21802	0.40275	0.18294	0.17396	0.089427	0.16682	0.27913	0.13566	0.13631	0.25106	0.29307	-1.3458	-1.4396	-1.2938	-1.9	-1.3375	-1.4813	-1.8375	-1.6292	-1.7833	-1.5083	-1.4896	-1.9417	-1.4937	-1.8083	-1.6708	-1.5896	146.432	-30.288	213.170	157.527	-100.799	55.310	193.378	248.192	197.999	136.031	196.934	-98.999	228.812	-59.738	63.314	-95.360	0.00040408	0.00017208	0.00018464	1219.2	7.4398e-06	5.9562e-06	1381.9	454.91	3.6785e-06	5.0131e-06	540.4	174.73	133.63	47.111	2.3684e-06	68.247	0.00020623	0.00020151	5.6256e-05	1074.9	2.2154e-06	2.2074e-06	1241	402.8	2.2041e-06	2.2001e-06	415.83	150.23	104.55	40.799	2.204e-06	58.066	185.765	-50.589	-1.263	-86.070	-40.734	112.666	-86.810	-83.088	214.952	-71.789	-83.419	-79.844	-80.213	-73.677	55.716	-74.583	-8191	255	
19604.068	1	1	0	0	0.17481	0.28343	0.050474	0.16062	0.22639	0.27903	0.2962	0.14119	0.17024	0.081435	0.27124	0.16454	0.089289	0.082335	0.14111	0.38804	-1.3	-1.6708	-1.4833	-2.0417	-1.6688	-1.5667	-2.1396	-1.4167	-1.7625	-1.7042	-1.6125	-2.0812	-1.4979	-1.5792	-1.8563	-1.5125	224.793	204.061	-63.142	243.106	131.129	173.008	-66.029	135.864	-93.868	193.175	-16.763	219.542	85.985	-39.690	68.900	242.546	0.00035697	0.00032762	0.00015189	1214.7	7.6596e-06	4.1143e-06	1384.7	455	7.5287e-06	2.0798e-06	539.26	174.97	133.56	46.941	7.3026e-06	68.285	0.00020565	0.00020286	5.6378e-05	1071.6	2.2106e-06	2.2044e-06	1242.7	401.16	2.2159e-06	2.1971e-06	416.15	150.35	104.44	40.77	2.2057e-06	58.249	142.441	-10.280	5.128	-86.310	2.153	-18.044	-87.055	-82.887	28.584	-71.324	-83.858	-80.144	-79.349	-73.717	52.700	-74.251	-8191	255	
19604.188	1	1	0	0	0.15278	0.43361	0.19629	0.21581	0.19521	0.17026	0.20555	0.28008	0.2356	0.13225	0.30046	0.053035	0.047368	0.19239	0.18127	0.37811	-1.1542	-1.5875	-1.1479	-2.0229	-1.625	-1.6354	-2.15	-1.5271	-1.6688	-1.8667	-1.5083	-1.8625	-1.5958	-1.6542	-1.925	-1.7292	-48.479	94.739	-94.087	13.401	30.087	-66.133	241.762	204.810	-56.737	-39.187	104.039	-34.813	76.588	-5.295	15.311	-79.027	0.00048749	0.00028501	0.00011658	1214.7	2.2445e-06	7.2168e-07	1377.6	453.61	1.7062e-06	2.0164e-06	539.24	175.97	133.41	47.268	4.5477e-06	68.693	0.0002052	0.00020261	5.6523e-05	1069.4	2.2273e-06	2.2265e-06	1241.5	401.12	2.2169e-06	2.202e-06	416.12	150.89	104.88	40.783	2.237e-06	58.501	156.381	-33.901	-4.304	-85.989	68.042	23.809	-87.174	-82.963	-90.195	249.517	-83.663	-80.200	-79.218	-73.271	-81.648	-74.408	-8191	255	
19604.283	1	1	0	0	0.21006	0.17065	0.023082	0.14157	0.13425	0.25168	0.19902	0.35089	0.099611	0.16653	0.28401	0.29276	0.35112	0.10717	0.11313	0.36566	-1.125	-1.9	-1.2729	-1.7604	-1.725	-1.4958	-1.9604	-1.7125	-1.6083	-1.6063	-1.55	-1.7708	-1.8667	-1.4708	-1.9604	-1.9521	-37.968	-23.542	226.098	-82.853	73.380	203.817	199.295	234.387	-86.478	64.723	-91.096	-87.921	112.597	-96.583	-68.200	203.564	0.00037928	0.00033717	0.00013345	1216.4	3.1103e-06	6.327e-06	1387.9	453.63	9.3318e-07	6.124e-06	539.45	174.96	132.21	46.889	7.9879e-06	68.65	0.00020499	0.00020079	5.6381e-05	1074.8	2.2334e-06	2.1929e-06	1247.9	401.66	2.214e-06	2.1892e-06	418.01	150.95	104.2	40.599	2.1993e-06	58.593	168.426	-42.661	-51.992	-85.875	258.621	16.997	-87.239	-82.993	-98.704	40.702	-83.870	-80.015	-79.758	-73.416	47.233	-74.401	-8191	255	
19604.381	1	1	0	0	0.038302	0.32954	0.12435	0.27998	0.14208	0.11291	0.049719	0.061897	0.24463	0.1148	0.29548	0.16491	0.34055	0.31468	0.28948	0.16586	-1.0208	-1.8438	-1.5167	-1.7229	-1.8729	-1.4271	-2.0417	-1.6375	-1.4333	-1.9979	-1.5792	-1.8521	-1.8125	-1.4896	-1.9354	-1.7458	115.004	138.988	-21.718	83.497	25.046	30.096	244.657	-51.418	210.449	-96.322	173.897	246.405	-65.900	228.463	206.862	198.150	0.0004711	0.00032124	0.0002474	1218.5	4.5006e-06	7.8864e-06	1394.2	455.46	2.1383e-06	3.2926e-06	543.03	175.38	132.68	46.937	3.7013e-06	68.763	0.00020323	0.00019893	5.5523e-05	1071.8	2.162e-06	2.1756e-06	1250.4	402.11	2.1743e-06	2.1719e-06	417.4	150.91	104.17	40.54	2.1725e-06	58.288	149.581	-13.490	-38.331	-86.060	-21.299	150.319	-87.063	-83.040	194.697	35.533	-83.620	-80.069	-79.776	-73.578	86.303	-74.521	-8191	255	
19604.500	1	1	0	0	0.079573	0.12236	0.13183	0.13665	0.19987	0.18139	0.3058	0.31115	0.18466	0.22484	0.10014	0.29852	0.17945	0.11132	0.31251	0.15043	-0.925	-1.8583	-1.5729	-1.7396	-1.7708	-1.5583	-2.0146	-1.8792	-1.45	-1.9396	-1.6292	-1.9042	-2.0083	-1.2375	-1.7812	-1.7979	24.476	152.145	73.622	-25.748	102.271	-42.908	176.881	156.520	-68.038	-21.528	204.791	162.356	197.577	-46.425	204.453	199.316	0.000213	0.00067398	0.0003213	1227.8	4.1977e-06	2.5791e-06	1382.5	456.05	2.2651e-06	3.5509e-06	547.88	174.67	132.94	46.436	6.8287e-06	68.275	0.00019917	0.00019632	5.4738e-05	1075.7	2.1474e-06	2.1559e-06	1245.8	402.42	2.179e-06	2.1586e-06	416.89	150.36	104.04	40.344	2.1592e-06	58.209	157.969	-34.712	203.838	-86.246	-20.548	238.387	-87.034	-83.057	219.325	9.907	-83.861	-79.736	-79.652	-73.895	51.996	-74.385	-8191	255	
19604.596	1	1	0	0	0.057633	0.23866	0.36206	0.01068	0.041307	0.26743	0.095773	0.21095	0.15689	0.23155	0.20314	0.40889	0.1215	0.27718	0.18495	0.046016	-1.0229	-1.8312	-1.4729	-1.6729	-1.8958	-1.5146	-1.8208	-1.8667	-1.4646	-2.0167	-1.5688	-1.8521	-2.0729	-1.4875	-1.8708	-1.8188	33.090	26.323	169.996	-26.377	11.578	202.790	100.395	197.295	102.287	-68.118	124.396	223.307	-18.589	-80.052	-28.729	-54.022	0.00033806	0.00018337	3.8697e-05	1213.6	1.669e-06	1.116e-06	1377.8	447.94	2.4978e-06	3.8089e-06	534.07	174.01	131.13	46.46	3.5643e-06	68.227	0.00020197	0.00019543	5.514e-05	1067	2.1601e-06	2.1605e-06	1239.2	398	2.1867e-06	2.1649e-06	413.33	149.58	103	40.24	2.1692e-06	58.297	183.517	-61.029	94.806	-86.103	70.860	-65.663	-87.117	-82.866	-9.307	-21.553	-84.130	-79.665	-79.632	-73.578	53.438	-74.280	-8191	255	
19604.689	1	1	0	0	0.23609	0.30736	0.056387	0.48092	0.12776	0.16038	0.23792	0.18323	0.19124	0.20746	0.156	0.086777	0.16671	0.19183	0.081213	0.17152	-0.99583	-1.85	-1.7313	-1.65	-2.0292	-1.5458	-1.8354	-1.9479	-1.5583	-2.0583	-1.7062	-1.7542	-2.0646	-1.8438	-1.6417	-2.1479	-71.994	80.349	73.687	168.361	67.417	-40.689	214.052	188.154	129.354	146.471	145.892	103.428	240.268	190.509	37.874	246.476	0.00031964	0.00015782	0.00018435	1213	1.4747e-06	1.1649e-06	1381.9	454.72	1.6452e-06	5.3205e-06	541.21	175.64	131.57	46.763	4.708e-06	68.925	0.00020157	0.00019984	5.4384e-05	1064.2	2.1536e-06	2.1558e-06	1241.5	399.85	2.1582e-06	2.1613e-06	416.72	150.97	103.98	40.537	2.1941e-06	58.759	147.556	181.605	-58.657	-86.236	231.432	-33.672	-86.837	-83.034	227.779	-46.244	-83.905	-80.385	-79.914	-73.806	45.895	-74.331	-8191	255	
19604.785	1	1	0	0	0.044005	0.18978	0.17697	0.24203	0.018675	0.10651	0.29954	0.068335	0.29495	0.15824	0.27024	0.46198	0.31849	0.36718	0.3525	0.30916	-0.89167	-1.8354	-1.7021	-1.6396	-1.9625	-1.5083	-1.9479	-2.1125	-1.3104	-1.9625	-1.6542	-1.5625	-1.8396	-1.5792	-1.6396	-2.0021	-37.379	130.615	214.983	230.534	122.686	7.743	141.118	197.687	-94.341	4.504	0.813	161.166	-69.269	197.225	-92.417	186.873	9.2916e-05	0.0001719	0.0001388	1223.6	3.0008e-06	1.1786e-06	1392.8	458.01	3.5981e-06	3.3267e-06	543.82	176.4	133.93	47.114	4.6932e-06	68.893	0.00020348	0.0002012	5.573e-05	1078.1	2.2194e-06	2.2097e-06	1250.8	405.39	2.2167e-06	2.2397e-06	420.48	152.35	105.35	40.915	2.261e-06	58.762	207.482	73.049	-49.334	-86.102	-29.885	252.220	-87.213	-83.190	135.893	-26.420	-83.901	-80.227	-79.431	-73.538	144.506	-74.475	-8191	255	
19604.883	1	1	0	0	0.34032	0.23146	0.063319	0.16112	0.38248	0.045772	0.38879	0.25142	0.20791	0.12056	0.34668	0.23631	0.14475	0.12214	0.077227	0.064821	-0.825	-1.6292	-1.7104	-1.6104	-1.6479	-1.4917	-1.7313	-2.125	-1.4271	-1.8354	-1.8563	-1.4479	-2.0042	-1.6771	-1.4042	-2.1146	34.402	210.082	-31.856	18.571	18.288	81.999	234.435	204.120	-38.170	-80.086	76.608	210.560	161.947	-84.947	81.218	162.243	0.00040434	0.00050611	3.9028e-05	1209.9	1.6397e-06	5.2742e-06	1372.8	452.3	3.8366e-06	2.2241e-06	543.75	174.12	131.9	46.776	4.7667e-06	68.481	0.00021126	0.00020648	5.7148e-05	1067.7	2.2534e-06	2.2507e-06	1237.5	400.1	2.2436e-06	2.2221e-06	415.33	149.8	103.86	40.55	2.2238e-06	58.507	152.244	-43.760	-88.413	-86.136	235.996	111.221	-86.922	-82.934	64.253	49.933	-83.697	-80.033	-79.399	-73.601	77.048	-74.383	-8191	255	
19604.979	1	1	0	0	0.10729	0.098696	0.066541	0.089788	0.12121	0.14486	0.20882	0.30202	0.11751	0.20867	0.18949	0.044405	0.013483	0.25903	0.099077	0.096657	-1.1417	-1.6083	-1.6646	-1.6313	-1.825	-1.6125	-1.6083	-2.1396	-1.5271	-1.6458	-1.7938	-1.5833	-1.7313	-1.9521	-1.5083	-1.9896	142.779	22.744	221.003	248.607	234.349	164.103	124.665	218.270	249.165	-0.817	101.244	-58.670	-96.105	206.140	222.025	205.192	0.00043034	0.00021364	5.6339e-05	1203.1	1.7067e-06	4.8403e-06	1371.3	449.12	3.7992e-06	4.1532e-06	537.12	173.34	131.29	46.658	7.6523e-06	68.991	0.00020894	0.0002038	5.6617e-05	1062.8	2.2149e-06	2.2014e-06	1232.9	397.23	2.2039e-06	2.2138e-06	415.1	150.02	103.52	40.475	2.216e-06	58.762	164.947	-93.849	244.950	-86.198	-18.971	-27.753	-87.037	-83.340	11.147	-62.358	-83.808	-80.115	-79.032	-73.568	107.446	-74.336	-8191	255	
19605.074	1	1	0	0	0.27745	0.1697	0.040839	0.16006	0.15861	0.089692	0.16927	0.43496	0.082068	0.089382	0.14689	0.045693	0.12568	0.033762	0.11896	0.10929	-1.15	-1.6562	-1.8312	-1.5812	-1.75	-1.8458	-1.6583	-2.0417	-1.4792	-1.8958	-2.0875	-1.7313	-1.8417	-2.0521	-1.3854	-2.0271	85.148	159.729	75.202	202.322	159.138	25.393	171.876	163.970	-28.008	-11.877	218.291	-81.513	172.946	165.858	-26.386	-98.544	0.00037666	0.00016949	0.00011478	1202.4	4.185e-06	3.0639e-06	1372.6	453.5	6.8535e-06	4.6919e-06	539.11	175.18	131.28	46.841	5.3498e-06	69.333	0.00020811	0.00020354	5.6315e-05	1064	2.2295e-06	2.2413e-06	1238.8	400.21	2.2261e-06	2.204e-06	416.47	151.03	104.15	40.637	2.2354e-06	58.908	158.347	76.671	241.062	-86.283	-44.028	-17.556	-86.995	-82.970	-57.142	40.436	-84.131	-79.721	-79.057	-73.840	7.188	-74.112	-8191	255	
19605.195	1	1	0	0	0.3091	0.31677	0.13581	0.15239	0.19444	0.12697	0.16228	0.19503	0.1308	0.054234	0.19906	0.058973	0.17284	0.052879	0.26099	0.21816	-1.1729	-1.5187	-1.9458	-1.6437	-1.75	-2.0354	-1.5729	-2.0146	-1.7458	-1.7687	-1.9271	-1.8312	-1.7188	-2.1542	-1.3583	-2.0187	-93.667	131.383	-56.846	-64.644	-100.051	191.753	-22.013	256.111	245.671	-68.033	-98.319	157.000	43.827	-29.589	245.401	157.305	0.00030973	0.00049966	0.0001628	1205.8	6.4858e-06	6.0497e-06	1376.6	451.64	3.8754e-06	6.0119e-06	543.46	174.86	130.91	46.657	3.9939e-06	69.261	0.00020697	0.00020413	5.69e-05	1065.7	2.2554e-06	2.2368e-06	1240.2	399.77	2.2541e-06	2.2337e-06	417.24	150.93	103.73	40.406	2.2812e-06	59.071	184.781	-41.254	-88.960	-86.069	238.782	37.479	-87.217	-82.992	13.286	46.360	-84.032	-79.997	-79.687	-73.464	-67.418	-74.096	-8191	255	
19605.293	1	1	0	0	0.30205	0.085426	0.10713	0.18603	0.11975	0.18834	0.14096	0.33059	0.26938	0.10235	0.3184	0.064836	0.27702	0.16556	0.12064	0.26411	-1.2458	-1.4354	-1.8583	-1.7062	-1.875	-1.7833	-1.8854	-1.925	-1.7167	-1.6854	-2.05	-1.7188	-1.4583	-2.0833	-1.4354	-2.1083	33.261	162.481	128.521	-74.563	3.388	99.502	185.128	193.978	-35.370	0.710	243.179	17.742	193.306	217.363	39.662	210.507	0.00049396	0.00050411	0.0001847	1208	4.6198e-06	5.9865e-06	1381.4	450.61	5.716e-06	2.326e-06	535.64	174.32	130.32	46.165	6.087e-06	68.606	0.0002115	0.00020505	5.7404e-05	1065.1	2.2612e-06	2.2675e-06	1240.9	398.82	2.2709e-06	2.2759e-06	414.87	150.1	103.3	40.242	2.2711e-06	58.689	183.548	31.738	112.815	-86.308	23.866	30.863	-86.773	-83.071	247.380	-89.540	-83.778	-80.035	-79.286	-73.449	127.088	-74.250	-8191	255	
19605.363	1	1	0	0	0.1309	0.16587	0.30839	0.173	0.11338	0.15751	0.30375	0.20424	0.22465	0.13735	0.20217	0.2205	0.30505	0.14463	0.14848	0.12751	-1.2458	-1.5021	-1.9458	-1.6854	-1.7313	-1.8062	-1.6083	-2.0333	-1.8458	-1.4562	-1.9083	-1.5542	-1.4708	-1.9958	-1.65	-1.8625	104.862	250.330	-97.533	197.249	173.801	-65.210	196.444	142.970	169.117	-62.011	252.775	258.607	195.743	-68.893	25.745	176.592	0.00043874	0.00047955	0.00012924	1198.8	4.5048e-06	2.7465e-06	1362.2	448.07	5.2159e-07	3.8043e-06	534.85	172.6	130.41	46.149	7.1489e-06	68.741	0.00021142	0.00020903	5.7187e-05	1057.6	2.2697e-06	2.2738e-06	1228.1	395.33	2.2717e-06	2.258e-06	413.47	149.07	103.18	40.106	2.2675e-06	58.631	171.389	239.984	-88.200	-86.242	162.041	64.924	-86.782	-83.109	230.803	3.403	-83.859	-79.853	-79.771	-73.399	50.261	-74.112	-8191	255	
19605.459	1	1	0	0	0.19066	0.32116	0.22749	0.14853	0.12371	0.14928	0.24223	0.14644	0.12303	0.16965	0.23055	0.32248	0.16588	0.28443	0.22817	0.45616	-1.4625	-1.325	-1.8937	-1.8813	-1.6479	-1.9625	-1.7125	-2.05	-1.9542	-1.5167	-2.0021	-1.7938	-1.5333	-1.8125	-1.4438	-1.8771	-27.323	191.538	-91.136	238.266	-18.418	175.628	142.951	95.344	-8.630	-10.232	179.730	224.733	207.173	-86.578	-44.590	195.294	0.00039262	0.00042154	0.00019276	1198.3	2.622e-06	3.0023e-06	1360.5	447.22	3.3309e-06	3.4038e-06	534.11	172.63	129.89	46.396	7.2001e-06	68.738	0.00021195	0.00020794	5.7369e-05	1057.5	2.2769e-06	2.2493e-06	1229.1	395.88	2.2688e-06	2.261e-06	413.35	149.04	102.64	40.169	2.2769e-06	58.701	156.613	242.125	-91.010	-86.000	-57.275	-25.592	-86.998	-82.912	44.231	91.986	-83.786	-80.194	-79.349	-73.957	105.229	-74.369	-8191	255	
19605.578	1	1	0	0	0.037115	0.33583	0.33052	0.2066	0.099642	0.25538	0.16177	0.031607	0.15772	0.070498	0.19434	0.30652	0.16864	0.29567	0.35757	0.13271	-1.3958	-1.3687	-1.4729	-1.8104	-1.4	-2.0208	-1.8604	-1.85	-1.8417	-1.5562	-1.7896	-1.7979	-1.5917	-2	-1.6854	-1.7667	78.294	172.776	258.168	255.748	24.739	225.142	190.987	163.211	2.193	218.689	161.821	192.840	-69.660	186.336	-63.407	11.302	0.00028659	0.00016262	0.00012224	1202.4	4.8431e-06	8.6997e-06	1379.3	451.54	2.3274e-06	1.7114e-06	539.64	174.05	131.27	46.489	9.819e-06	69.066	0.00021137	0.00020681	5.771e-05	1058.8	2.2417e-06	2.2664e-06	1237.3	398.68	2.295e-06	2.2684e-06	416.9	150.04	103.45	40.362	2.2743e-06	58.981	147.733	19.489	119.670	-86.427	-80.519	16.441	-87.136	-83.268	136.253	57.988	-83.766	-79.739	-79.798	-73.677	72.778	-74.296	-8191	255	
19605.674	1	1	0	0	0.15353	0.19205	0.44517	0.28729	0.24579	0.14975	0.31839	0.051829	0.048996	0.1963	0.11912	0.26472	0.32579	0.26776	0.076407	0.26426	-1.4292	-1.5187	-1.7896	-2.0667	-1.4604	-1.8875	-1.9167	-1.7229	-1.8438	-1.5458	-1.7542	-1.9021	-1.3312	-1.9312	-1.6521	-1.8042	199.197	150.661	31.239	176.971	118.930	189.353	214.348	231.958	230.200	-73.118	228.945	251.146	-75.229	241.798	40.887	189.857	0.00038907	0.00025105	0.00018909	1212.7	5.8695e-06	6.6174e-06	1384.2	451.82	6.3384e-06	5.0727e-06	539.49	175.26	131.18	46.413	3.9589e-06	69.326	0.00021107	0.00020836	5.7669e-05	1067.3	2.2474e-06	2.2653e-06	1242.7	400.03	2.266e-06	2.2812e-06	418.3	150.68	103.27	40.261	2.2685e-06	59.173	162.508	-60.160	-26.164	-86.222	43.339	96.283	-87.171	-83.061	8.416	-69.316	-83.626	-80.029	-79.639	-73.656	58.891	-74.004	-8191	255	
19605.771	1	1	0	0	0.17877	0.10859	0.11126	0.064662	0.20978	0.25748	0.42711	0.16889	0.081964	0.076352	0.09502	0.47012	0.21303	0.22254	0.27519	0.14012	-1.4833	-1.5396	-1.8229	-1.9896	-1.4125	-1.8708	-1.7896	-1.6812	-2.0375	-1.5958	-1.6792	-2.0333	-1.5104	-1.9417	-1.8021	-1.6688	204.165	48.158	256.678	14.327	204.405	250.296	196.190	147.540	225.144	64.055	-15.141	191.085	-17.707	-79.204	192.643	-89.090	0.0004259	0.00073014	9.3695e-05	1201.3	4.7079e-06	2.9194e-06	1367.9	449.16	3.118e-06	7.4193e-06	538.98	173.16	129.97	46.373	7.9033e-06	68.963	0.00021072	0.00020637	5.7612e-05	1061.2	2.2693e-06	2.2529e-06	1236.6	397.61	2.2797e-06	2.253e-06	415.63	149.66	102.3	40.145	2.2593e-06	58.674	175.943	-5.702	45.879	-86.248	74.855	-14.061	-86.965	-83.179	186.612	-3.131	-83.974	-80.161	-79.741	-73.707	54.926	-73.903	-8191	255	
19605.891	1	1	0	0	0.088108	0.29387	0.11176	0.17938	0.15376	0.29015	0.19868	0.15684	0.22701	0.25177	0.14906	0.15856	0.28508	0.18896	0.30846	0.38199	-1.625	-1.675	-1.4792	-2.0042	-1.4667	-1.7729	-1.8542	-1.7042	-1.9292	-1.6	-1.6542	-2.1667	-1.4229	-1.7896	-1.7333	-1.625	251.093	248.727	-5.395	-21.662	225.238	179.328	132.683	5.200	233.397	72.642	122.057	150.210	-75.734	-84.856	188.757	-57.434	0.0002984	0.00021499	0.00013226	1193.6	1.0698e-06	7.7161e-06	1371.1	447.87	1.679e-06	5.2595e-06	541.2	172.69	130.99	46.203	5.5479e-06	68.996	0.00020838	0.00020781	5.7496e-05	1059.1	2.2608e-06	2.2558e-06	1235.6	396.29	2.2644e-06	2.2467e-06	416.58	149.58	102.93	40.228	2.2931e-06	58.895	144.858	-79.557	-45.337	-86.314	238.223	3.741	-87.239	-83.060	65.803	-90.555	-83.699	-79.967	-79.598	-73.559	69.445	-74.353	-8191	255	
19605.986	1	1	0	0	0.247	0.046476	0.16752	0.12335	0.16973	0.31117	0.11561	0.094672	0.30492	0.16431	0.22566	0.15877	0.090958	0.27095	0.074983	0.14228	-1.4958	-1.6833	-1.5604	-2.1	-1.4583	-1.7146	-1.9021	-1.6604	-1.9083	-1.7354	-1.3896	-2.0979	-1.6708	-1.9312	-1.9438	-1.4583	139.666	-13.068	203.956	-78.807	195.204	-60.042	119.319	182.577	-60.392	27.028	128.450	199.516	253.180	204.316	0.416	138.142	0.0003167	0.00016751	0.00015599	1200.3	6.9677e-06	4.8526e-06	1375.6	447.82	5.1372e-06	5.6008e-06	535.63	174.19	129.7	45.975	2.6699e-06	69.308	0.00020894	0.00020756	5.7725e-05	1060.7	2.2825e-06	2.274e-06	1239.4	396.18	2.2613e-06	2.2549e-06	414.49	149.71	102.42	40.028	2.2743e-06	59.02	174.719	-76.043	-7.759	-86.243	68.271	102.952	-87.102	-82.863	21.689	11.057	-83.998	-80.081	-79.469	-73.381	26.075	-74.251	-8191	255	
19606.059	1	1	0	0	0.17349	0.077233	0.10894	0.18372	0.16232	0.20342	0.25378	0.14119	0.066764	0.14802	0.13885	0.42185	0.18016	0.21842	0.11092	0.15479	-1.4167	-1.7104	-1.3687	-2.0958	-1.625	-1.5875	-2.0729	-1.475	-1.6146	-1.6917	-1.3438	-2.0104	-1.5938	-1.6042	-2.1729	-1.5833	252.600	189.534	186.602	-87.335	191.633	-27.437	211.648	193.372	-84.064	144.312	101.830	227.290	257.526	-59.853	185.786	225.768	0.00047365	0.00086256	0.0003124	1199.9	3.2836e-06	2.5434e-06	1381	446.91	2.9017e-06	6.3666e-06	544.19	173.79	128.97	46.176	5.9759e-06	69.617	0.00020961	0.00020661	5.7299e-05	1060.5	2.2488e-06	2.2488e-06	1243.5	396.04	2.2578e-06	2.2573e-06	417.1	150.05	102.11	40.102	2.267e-06	59.48	135.386	-25.411	-40.617	-85.992	91.340	1.839	-86.950	-82.988	-22.639	-30.184	-83.813	-79.589	-79.605	-73.810	49.418	-73.891	-8191	255	
19606.180	1	1	0	0	0.14184	0.12391	0.13026	0.081345	0.2123	0.3814	0.1494	0.29972	0.15593	0.20623	0.045886	0.10872	0.11955	0.18377	0.077211	0.12303	-1.4813	-1.7833	-1.3771	-1.9375	-1.7	-1.5208	-2.1688	-1.6125	-1.5875	-1.9458	-1.3146	-1.9479	-1.5479	-1.5854	-1.8875	-1.7125	18.515	-39.161	5.612	-28.486	-33.844	-75.641	226.588	179.069	-2.918	-62.115	58.411	-72.888	11.266	79.418	-37.594	223.236	0.0002848	0.00019109	0.0001559	1201.5	1.3866e-06	6.5813e-06	1383.9	448.15	5.1035e-06	2.7316e-06	538.75	174.02	129.04	46.078	6.8916e-06	69.083	0.00020974	0.00020498	5.7475e-05	1062.8	2.2695e-06	2.2512e-06	1245.9	396.77	2.2624e-06	2.2553e-06	415.92	149.78	102.26	40.014	2.2437e-06	59.016	151.523	45.773	-86.879	-86.086	223.027	27.612	-87.072	-83.017	20.774	-72.826	-83.920	-79.940	-79.353	-73.565	36.581	-74.053	-8191	255	
19606.275	1	1	0	0	0.17826	0.31379	0.2212	0.17202	0.20727	0.07685	0.21959	0.32952	0.075835	0.20689	0.12026	0.29996	0.23923	0.22723	0.37712	0.18186	-1.3667	-1.9438	-1.4333	-1.8563	-1.7958	-1.5708	-2.1021	-1.8042	-1.7646	-1.8625	-1.3896	-1.8542	-1.725	-1.5271	-1.9792	-1.8312	67.003	54.088	96.836	-72.995	-19.194	210.263	169.793	177.196	-10.073	174.654	192.253	249.321	-49.175	199.716	-10.214	-53.698	0.00023699	9.9133e-05	0.00017893	1208.9	2.2789e-06	1.4018e-06	1374.6	446.49	1.5223e-06	8.1851e-06	536.58	173.17	128.69	46.059	3.9848e-06	69.148	0.00020735	0.00020474	5.7359e-05	1063	2.2501e-06	2.2218e-06	1235.8	393.98	2.2565e-06	2.2356e-06	414.57	149.16	102	39.988	2.2278e-06	58.962	160.683	-92.663	-89.783	-85.914	215.846	-33.120	-87.258	-83.126	136.204	-22.521	-83.748	-79.911	-79.759	-73.623	-88.065	-74.177	-8191	255	
19606.371	1	1	0	0	0.18846	0.40393	0.25601	0.23836	0.12877	0.11725	0.11401	0.24027	0.11132	0.18419	0.077692	0.26766	0.18102	0.10493	0.22379	0.24124	-1.0458	-1.6458	-1.3125	-1.7771	-1.7021	-1.5792	-2.1792	-1.8208	-1.4896	-2.0896	-1.6479	-1.8292	-1.9104	-1.6396	-2.0208	-1.8833	250.357	154.796	-79.231	-92.645	130.459	50.807	218.449	251.656	231.208	52.850	211.109	256.440	-88.426	165.841	253.783	256.186	0.00037593	0.00074862	0.00024778	1202.2	2.954e-06	3.8913e-06	1374.1	446.12	3.222e-06	2.9136e-06	539.64	174.26	128.74	46.037	1.3119e-06	68.959	0.00020968	0.00020697	5.7359e-05	1061.6	2.26e-06	2.2523e-06	1239.4	394.86	2.2462e-06	2.2781e-06	416.31	150.01	102.29	40.047	2.2696e-06	59.092	159.606	-17.010	-8.447	-85.930	46.978	-8.554	-87.253	-83.113	14.952	28.347	-83.967	-79.846	-79.138	-73.572	113.223	-74.082	-8191	255	
19606.492	1	1	0	0	0.28039	0.25852	0.08644	0.35179	0.14531	0.16472	0.30819	0.21424	0.32306	0.10428	0.15702	0.19495	0.27544	0.36774	0.3214	0.16029	-1.1229	-2.1021	-1.3833	-1.8792	-2.0125	-1.4042	-2.0604	-1.8083	-1.4229	-2.0833	-1.575	-1.7062	-1.9396	-1.4896	-1.9958	-1.8479	-6.668	94.944	-5.726	207.558	121.638	-88.305	61.023	171.962	-75.761	69.506	131.313	-67.741	207.183	225.360	-40.967	187.336	0.00042807	0.00018469	0.00014934	1209.6	4.5729e-06	6.5775e-06	1380.5	451.14	2.8043e-06	3.5533e-06	542.08	175.51	129.94	46.486	6.0342e-06	69.643	0.00021009	0.000207	5.8256e-05	1066.2	2.2685e-06	2.2788e-06	1246.1	398.46	2.2838e-06	2.2897e-06	420.26	151.02	102.97	40.356	2.2836e-06	59.392	171.769	30.039	-4.353	-86.141	10.271	34.113	-87.057	-82.954	1.032	78.433	-84.020	-80.057	-79.692	-73.517	4.715	-74.155	-8191	255	
19606.590	1	1	0	0	0.25407	0.26884	0.11899	0.21317	0.021127	0.27427	0.24526	0.22511	0.33589	0.026569	0.16839	0.34991	0.35114	0.25471	0.33239	0.26763	-1.125	-1.8438	-1.6104	-1.7896	-1.7917	-1.5562	-2.0687	-1.9729	-1.3604	-2.0062	-1.6437	-1.7167	-1.9	-1.7	-1.7542	-1.9146	116.081	217.050	10.070	153.693	-54.370	234.190	161.170	223.919	-49.636	-0.895	46.374	225.406	216.513	226.893	-51.383	226.036	0.00033101	0.00029552	7.8823e-05	1206.6	6.4499e-06	8.0346e-07	1394.3	450.45	6.5584e-06	7.6898e-06	546.05	175.87	130.13	46.528	2.6551e-06	69.809	0.00021172	0.00020868	5.7944e-05	1066.8	2.2911e-06	2.2879e-06	1253.4	399.19	2.2964e-06	2.2883e-06	420.08	151.37	102.95	40.318	2.2982e-06	59.589	182.851	41.733	11.270	-86.268	-43.546	167.628	-86.997	-83.082	45.751	23.823	-84.386	-79.827	-79.179	-73.388	-50.575	-74.016	-8191	255	
19606.658	1	1	0	0	0.11423	0.19315	0.27567	0.52528	0.32511	0.063605	0.14719	0.2744	0.1727	0.17801	0.12047	0.28478	0.10833	0.10537	0.18347	0.03164	-0.89167	-1.9146	-1.5125	-1.6479	-1.9604	-1.5979	-1.9854	-2.1083	-1.4062	-1.9	-1.6542	-1.8104	-2.0042	-1.6896	-1.7875	-1.8312	207.840	149.647	-35.085	248.190	108.654	190.119	165.625	205.169	131.425	116.480	200.165	243.348	-8.791	-0.759	6.514	64.625	0.00042761	0.00095368	0.00035184	1212.4	6.4401e-06	3.6355e-06	1381.9	448.05	8.714e-07	2.9302e-06	535.16	173.99	128.88	46.143	2.1179e-06	68.857	0.00021236	0.00020863	5.8095e-05	1067	2.2829e-06	2.2673e-06	1243.8	396.87	2.2679e-06	2.2339e-06	415.86	149.98	102.28	40.048	2.2567e-06	58.927	171.635	-11.268	-89.060	-86.351	55.120	16.412	-87.002	-83.153	8.679	-8.751	-83.811	-79.999	-79.305	-73.751	160.678	-74.256	-8191	255	
19606.756	1	1	0	0	0.25774	0.36251	0.13362	0.21288	0.091543	0.1906	0.33215	0.0421	0.14923	0.15076	0.085629	0.010321	0.18952	0.17799	0.082505	0.39342	-1.1812	-1.8042	-1.8	-1.7313	-1.9312	-1.6229	-1.8896	-2.1063	-1.3937	-1.7333	-1.7563	-1.5833	-2.0479	-1.6146	-1.7812	-2.1021	110.843	233.283	-22.721	59.127	117.531	134.107	223.081	188.438	186.175	161.361	-73.020	161.777	-99.006	249.231	251.436	220.371	0.00048002	0.00060564	6.5272e-05	1201.6	2.0217e-06	4.5239e-06	1380.7	449.09	2.2564e-06	1.0287e-05	540.21	174.37	129.65	46.342	3.0743e-06	68.986	0.0002104	0.00020617	5.7073e-05	1063.1	2.278e-06	2.2897e-06	1242.1	397.21	2.2892e-06	2.2913e-06	418.85	150.21	103.02	40.222	2.3008e-06	58.899	170.103	44.204	-38.049	-86.220	169.761	91.095	-87.021	-83.259	-4.995	14.526	-84.052	-80.189	-79.663	-73.520	-35.920	-74.408	-8191	255	
19606.854	1	1	0	0	0.1994	0.25229	0.14398	0.090442	0.14267	0.12712	0.25925	0.10552	0.3152	0.1144	0.17872	0.1492	0.16877	0.13156	0.15027	0.18593	-1.1875	-1.7021	-1.8458	-1.5688	-1.9458	-1.6917	-1.7167	-2.2583	-1.3729	-1.8104	-1.8542	-1.6104	-1.8792	-1.7417	-1.3875	-2.1688	-88.771	-42.119	69.133	228.823	158.003	29.258	188.580	131.583	-92.704	55.119	132.988	144.037	213.499	-15.433	7.602	-92.541	0.00038675	0.00022344	4.5185e-05	1208.3	5.7268e-06	4.692e-06	1381.3	452.43	3.8142e-06	1.287e-06	540.16	174.23	130.68	46.158	3.903e-07	69.385	0.00021185	0.00021004	5.8414e-05	1068.9	2.3283e-06	2.2979e-06	1245.8	399.98	2.324e-06	2.31e-06	419.36	150.88	103.62	40.224	2.311e-06	59.069	152.357	-9.340	154.998	-86.015	-6.621	228.715	-87.098	-83.238	66.163	-50.253	-84.103	-79.832	-79.689	-73.582	-1.453	-74.470	-8191	255	
19606.973	1	1	0	0	0.32188	0.18928	0.15959	0.24847	0.30626	0.040271	0.34775	0.31477	0.089447	0.46041	0.11228	0.26568	0.27897	0.14632	0.12205	0.11521	-0.875	-1.7125	-1.875	-1.4771	-1.9604	-1.6292	-1.775	-2.1167	-1.5812	-1.7333	-1.7333	-1.6604	-2.2062	-1.7917	-1.4562	-1.9667	201.775	232.160	-74.056	242.527	110.411	-62.844	238.262	218.362	47.720	-33.390	200.413	-91.307	203.883	-98.937	180.687	148.903	0.00037973	0.00046407	0.00030775	1205.7	3.0517e-06	5.0264e-06	1384.2	451.9	1.1494e-06	5.5315e-06	547.07	175.2	129.96	46.547	4.0483e-06	69.672	0.00021326	0.00021163	5.8359e-05	1069.7	2.3091e-06	2.2915e-06	1248.9	400.28	2.2871e-06	2.3033e-06	421.11	151.3	103.2	40.26	2.3025e-06	59.377	159.734	25.477	-55.534	-86.186	221.514	53.321	-86.687	-83.170	186.240	225.124	-84.143	-80.050	-78.974	-73.885	-69.487	-73.945	-8191	255	
19607.068	1	1	0	0	0.091355	0.080357	0.059147	0.15569	0.15777	0.25558	0.038092	0.2587	0.23305	0.20166	0.19131	0.30433	0.21348	0.33239	0.34237	0.24174	-1.1979	-1.6542	-1.8604	-1.7771	-1.6542	-1.775	-1.6667	-2.2042	-1.6021	-1.8646	-1.9792	-1.5104	-1.6854	-1.8854	-1.6271	-2.0062	-12.398	169.377	163.055	173.570	195.419	251.721	201.594	193.623	96.303	90.841	186.316	233.890	-12.586	221.240	194.462	242.627	0.00018238	0.00016929	0.00022994	1220	3.4636e-06	2.4174e-06	1388.1	450.7	2.7211e-06	2.1388e-06	543.46	174.05	129.74	46.069	2.8353e-06	68.938	0.00021489	0.00020982	5.8227e-05	1072.2	2.298e-06	2.2982e-06	1252	398.77	2.2982e-06	2.283e-06	418.75	150.43	102.93	40.12	2.2772e-06	58.983	190.350	99.914	-73.178	-86.142	28.621	52.936	-86.960	-83.243	-66.763	21.582	-83.884	-80.141	-79.937	-73.823	190.073	-74.263	-8191	255	
19607.164	1	1	0	0	0.06838	0.17271	0.052868	0.085972	0.03506	0.17398	0.25426	0.22257	0.18257	0.061116	0.085546	0.26295	0.14104	0.47341	0.10649	0.29708	-1.2833	-1.5958	-2.0312	-1.6313	-1.6292	-1.8229	-1.6125	-1.875	-1.6917	-1.6208	-2.0875	-1.8104	-1.6187	-2.0354	-1.4521	-1.9229	36.283	125.162	91.114	194.941	5.927	-81.873	210.701	-69.156	-57.153	6.840	-60.233	250.030	98.515	198.676	173.485	196.400	0.00059437	0.00028011	0.00017809	1209.1	6.9138e-06	2.7072e-06	1383.4	445.74	5.0276e-06	5.0295e-06	540.99	173.45	131.12	46.397	5.2718e-06	68.994	0.00021052	0.00020759	5.7342e-05	1067.1	2.2599e-06	2.2583e-06	1241.8	396.56	2.2845e-06	2.2642e-06	417.02	149.87	102.86	40.166	2.2655e-06	58.752	159.176	-0.657	1.233	-86.091	9.016	-36.952	-87.278	-83.345	-56.723	-7.876	-83.553	-80.116	-79.275	-73.661	162.857	-73.936	-8191	255	
19607.260	1	1	0	0	0.059662	0.055754	0.16269	0.34548	0.1124	0.01962	0.49411	0.35381	0.020493	0.04262	0.10796	0.17421	0.16571	0.088986	0.36363	0.24226	-1.2292	-1.7042	-2.1292	-1.6437	-1.6938	-2.0646	-1.7437	-1.9729	-1.6	-1.4042	-2.075	-1.4646	-1.7833	-1.9833	-1.3687	-1.9562	117.762	-75.087	-60.828	-60.123	48.576	236.461	221.443	185.968	171.582	136.624	-47.281	-11.384	256.851	129.048	110.772	144.788	0.0005052	0.00057387	0.00023842	1208.4	3.8431e-06	3.8745e-06	1381.7	449.7	4.7467e-06	9.0732e-07	540.38	173.3	130.38	46.434	3.8891e-06	69.152	0.00020952	0.00020723	5.7612e-05	1068.8	2.2555e-06	2.2556e-06	1243.9	397.48	2.2396e-06	2.2264e-06	418.11	150.06	102.95	40.248	2.2425e-06	59.011	162.955	-38.425	-19.994	-86.435	173.795	82.395	-86.979	-82.949	-92.644	-54.971	-83.812	-79.858	-79.715	-73.985	-71.826	-74.278	-8191	255	
19607.355	1	1	0	0	0.31195	0.090164	0.25513	0.2768	0.053415	0.066099	0.16283	0.23128	0.14015	0.17778	0.086953	0.27312	0.34933	0.016215	0.10473	0.13403	-1.1708	-1.5542	-1.7417	-1.5771	-1.675	-1.8646	-1.6083	-1.9562	-1.7563	-1.5104	-1.9208	-1.5354	-1.5146	-2.1583	-1.45	-1.6542	209.538	26.938	-61.850	242.779	165.747	254.965	174.858	127.805	-33.159	231.098	-20.028	215.530	-32.971	147.172	148.472	-87.779	0.00039569	0.00021531	3.1125e-05	1208.5	5.5856e-06	7.6802e-06	1387.3	453.24	5.5284e-06	6.3737e-06	539.45	175.6	132.03	46.679	3.4312e-06	69.775	0.00020946	0.00020544	5.6939e-05	1069.2	2.2597e-06	2.2359e-06	1250.4	400.19	2.2573e-06	2.2632e-06	419.66	151.45	103.69	40.598	2.2729e-06	59.433	176.399	-96.626	100.652	-86.122	95.764	3.619	-87.158	-83.099	9.836	-23.216	-84.171	-80.159	-79.475	-73.621	98.510	-74.410	-8191	255	
19607.451	1	1	0	0	0.26971	0.19261	0.19938	0.13882	0.15065	0.07014	0.14354	0.44746	0.096524	0.11032	0.1002	0.19616	0.12044	0.43779	0.26658	0.15705	-1.2875	-1.3667	-1.8896	-1.7188	-1.5896	-1.9604	-1.6562	-1.8563	-1.9104	-1.7	-2.0521	-1.6792	-1.4729	-2.0875	-1.5521	-1.7479	181.430	172.428	87.890	165.964	120.539	169.404	205.877	170.404	10.242	216.965	-63.545	19.065	81.661	-77.249	153.204	209.640	0.00045397	0.00028577	0.0003153	1229.8	2.8691e-06	3.7761e-06	1401.8	454.19	3.8284e-06	1.0423e-06	547.83	176.71	132.88	46.991	1.6277e-06	69.579	0.00020993	0.00020671	5.7535e-05	1080.3	2.2839e-06	2.2818e-06	1256.3	401.64	2.2893e-06	2.2712e-06	422.06	152.22	104.3	40.742	2.2912e-06	59.579	196.324	18.644	-78.697	-86.172	-22.261	-29.967	-87.010	-83.106	79.336	-13.995	-84.216	-80.223	-79.375	-73.806	238.416	-74.192	-8191	255	
19607.572	1	1	0	0	0.25546	0.1242	0.18812	0.057296	0.17061	0.09951	0.23942	0.14251	0.29872	0.1937	0.25868	0.15733	0.38574	0.14596	0.16668	0.36719	-1.3	-1.3792	-1.9021	-1.9708	-1.5021	-2.0417	-1.7271	-1.9521	-1.9875	-1.7146	-1.9229	-1.9792	-1.4229	-1.925	-1.675	-1.6562	232.149	162.785	33.431	241.278	147.628	-10.081	-77.684	226.643	171.299	234.220	188.975	162.436	-19.606	191.444	-88.276	252.805	0.00046035	0.00027751	0.00024055	1225.9	1.3525e-06	4.3232e-06	1389.3	452.57	5.0906e-06	8.441e-06	541.64	175.52	132.39	47.119	8.5421e-06	69.628	0.00021098	0.00020796	5.7441e-05	1078.6	2.2816e-06	2.274e-06	1254.8	400.22	2.2731e-06	2.2662e-06	419.03	151.36	104.52	40.935	2.277e-06	59.252	168.044	242.245	-22.830	-86.311	43.237	-13.828	-86.891	-83.093	-29.769	30.733	-83.823	-79.980	-79.805	-73.774	9.672	-74.422	-8191	255	
19607.670	1	1	0	0	0.1876	0.19637	0.19183	0.075397	0.176	0.10705	0.35902	0.25708	0.22018	0.14715	0.11667	0.086522	0.29024	0.02639	0.031219	0.13005	-1.5958	-1.5667	-1.8958	-1.8125	-1.4542	-1.85	-1.9229	-1.8042	-2.0354	-1.4396	-1.7771	-1.7687	-1.6437	-1.9438	-1.7542	-1.5979	-37.269	-38.820	104.354	157.042	224.113	192.907	152.855	241.803	82.050	84.757	-92.248	12.968	201.225	141.102	1.293	239.052	0.00027796	0.00040484	0.0001035	1232.4	2.6913e-06	5.6128e-06	1399.4	454.58	2.4329e-06	2.993e-06	545.33	176.52	133.66	47.941	8.5754e-07	69.858	0.0002105	0.0002084	5.7825e-05	1084.7	2.2975e-06	2.2806e-06	1262.3	401.9	2.3153e-06	2.3113e-06	420.37	152.07	105.93	41.713	2.3367e-06	59.801	162.517	-57.954	-79.157	-86.173	-30.952	16.438	-87.027	-83.114	191.501	-5.616	-83.422	-80.224	-79.609	-73.537	-11.562	-74.441	-8191	255	
19607.764	1	1	0	0	0.17144	0.12206	0.10028	0.34931	0.059572	0.2241	0.36488	0.21053	0.082424	0.037685	0.064481	0.11906	0.24638	0.26703	0.23997	0.38887	-1.6583	-1.7479	-1.7667	-1.8271	-1.4021	-1.9354	-1.8563	-1.5083	-2.0042	-1.6146	-1.7208	-2.0438	-1.5354	-1.8896	-1.7458	-1.6479	199.207	232.386	37.122	225.342	12.027	232.543	188.918	172.403	184.164	177.072	-42.393	136.945	-67.433	249.870	150.768	213.817	0.00047967	0.00037403	0.00019266	1237.4	1.6323e-06	3.3095e-06	1413	454.84	4.9139e-06	2.415e-06	547.54	176.04	134.28	48.458	3.1692e-06	70.331	0.00021793	0.00021346	5.989e-05	1096.8	2.3635e-06	2.3677e-06	1275.7	403.44	2.3673e-06	2.3991e-06	424.28	152.4	106.63	42.052	2.3989e-06	60.024	180.481	-3.637	133.751	-86.035	153.074	183.517	-87.135	-83.135	-60.069	91.986	-83.717	-80.112	-79.260	-73.951	164.813	-74.236	-8191	255	
19607.859	1	1	0	0	0.2224	0.19753	0.23123	0.099767	0.07502	0.16956	0.27457	0.37606	0.43328	0.33992	0.37765	0.076483	0.3461	0.17303	0.20475	0.38799	-1.3646	-1.5708	-1.525	-1.9062	-1.4979	-1.9271	-1.9792	-1.6562	-2.0167	-1.6042	-1.5167	-2.2042	-1.4	-1.7604	-1.7979	-1.5542	-61.830	64.292	117.011	19.535	-98.234	193.843	221.271	-90.734	-22.705	47.196	-73.461	-0.318	-78.204	-56.913	-12.415	213.325	0.0004916	0.00052793	0.00020732	1254.5	4.0129e-06	3.5396e-06	1422.1	459.01	4.4324e-06	7.56e-06	554.92	178.62	135.09	48.322	3.3028e-06	70.574	0.00022063	0.00021908	6.1188e-05	1107.5	2.4207e-06	2.4012e-06	1284.5	406.95	2.4025e-06	2.3796e-06	428.21	153.91	107.05	41.834	2.3883e-06	60.313	173.464	-15.302	-41.233	-86.499	22.474	-95.471	-86.994	-83.203	13.352	-15.352	-83.916	-80.131	-79.455	-73.428	19.957	-74.256	-8191	255	
19607.955	1	1	0	0	0.14729	0.26516	0.23015	0.12526	0.16134	0.099088	0.26292	0.28737	0.19063	0.12587	0.20045	0.070479	0.081864	0.14241	0.1488	0.10769	-1.4312	-1.7667	-1.4917	-2.1437	-1.4792	-1.7333	-2.0792	-1.6396	-1.975	-1.775	-1.8563	-2.0729	-1.5542	-1.7229	-1.8833	-1.5458	67.753	56.786	78.149	203.736	121.742	181.824	213.721	243.838	-41.505	136.701	229.990	-51.968	-28.332	-16.965	-93.074	145.824	0.00041323	0.00033862	0.00011843	1251.1	4.1491e-08	3.1143e-07	1429.3	456.91	4.1829e-06	3.5134e-06	552.38	178.31	133.84	47.765	3.5466e-06	70.57	0.0002206	0.0002179	6.1052e-05	1105.7	2.3824e-06	2.399e-06	1289.4	406.53	2.4048e-06	2.3811e-06	428.16	153.98	106.45	41.713	2.4013e-06	59.999	153.352	24.803	-25.589	-86.119	100.765	151.038	-87.006	-82.987	58.967	-25.208	-83.692	-80.157	-79.513	-73.831	148.276	-74.490	-8191	255	
19608.053	1	1	0	0	0.103	0.09273	0.24088	0.30856	0.24569	0.21046	0.32189	0.072242	0.16835	0.080712	0.31718	0.19271	0.063801	0.052202	0.055368	0.0076845	-1.5646	-1.7708	-1.5479	-2.0812	-1.5875	-1.7646	-2.0917	-1.5917	-1.7458	-1.7708	-1.55	-2.0479	-1.6292	-1.8729	-2.0271	-1.7021	-88.596	151.443	177.725	155.273	48.724	-8.753	215.686	-94.028	77.195	34.762	-98.869	-29.317	112.200	-4.703	44.264	-45.201	0.00037591	0.00099652	9.3032e-05	1246.3	5.3492e-06	3.7932e-06	1422.8	459.04	2.9864e-06	9.6147e-06	553.32	178.45	135	48.4	5.6572e-06	69.922	0.00022018	0.00021703	5.9923e-05	1102.2	2.3633e-06	2.3607e-06	1284.4	406.83	2.3882e-06	2.3537e-06	428.48	153.93	107.22	41.927	2.3722e-06	59.747	182.033	-71.842	-36.021	-85.956	35.087	17.447	-86.867	-83.029	-56.365	15.227	-84.142	-80.025	-79.891	-74.298	172.487	-74.326	-8191	255	
19608.174	1	1	0	0	0.30456	0.18691	0.14133	0.13136	0.58371	0.23182	0.13744	0.31645	0.31859	0.12975	0.21916	0.24858	0.093595	0.37675	0.15915	0.064585	-1.3	-1.7792	-1.4583	-2.0208	-1.7646	-1.7396	-2.1729	-1.5812	-1.7479	-1.8479	-1.475	-2.1146	-1.65	-1.6812	-2.2062	-1.7062	97.129	256.963	103.852	13.855	220.193	-9.516	75.706	213.217	143.760	185.531	-65.346	214.857	-90.927	210.066	-88.561	256.474	0.00032628	0.00028619	0.00026128	1263.1	4.3467e-06	5.1682e-06	1432.5	461.4	3.1262e-06	4.3175e-06	556.91	178.94	136.44	48.677	2.6743e-06	70.373	0.00022076	0.00021784	6.0261e-05	1110.2	2.3885e-06	2.3806e-06	1290.2	408.88	2.3756e-06	2.3604e-06	428.62	154.32	107.78	42.31	2.3642e-06	60.093	137.868	245.596	-4.523	-86.220	-39.940	-0.407	-87.190	-83.054	206.835	23.227	-83.859	-79.852	-79.618	-73.907	13.828	-74.367	-8191	255	
19608.270	1	1	0	0	0.21388	0.11253	0.17653	0.22681	0.13364	0.18541	0.19895	0.4918	0.16363	0.07858	0.10459	0.14993	0.17404	0.099216	0.12349	0.22241	-1.2458	-1.8229	-1.2604	-1.9271	-1.6917	-1.5271	-2.0187	-1.6958	-1.7437	-1.7354	-1.3833	-2.1188	-1.8333	-1.6083	-1.9229	-1.725	177.136	-85.273	126.772	233.966	-72.787	-11.151	181.515	211.377	48.487	-37.963	225.491	196.461	27.434	240.176	122.138	206.659	0.00034893	0.00012368	6.9674e-05	1259.9	1.8579e-06	3.221e-06	1436	463.82	2.6127e-06	5.3382e-06	560.85	179.21	137.58	48.688	8.258e-06	70.711	0.00021733	0.00021428	5.9705e-05	1115	2.3517e-06	2.3431e-06	1292.4	409.53	2.329e-06	2.306e-06	431.23	155.06	108.11	42.312	2.3482e-06	60.269	158.235	-62.293	248.780	-85.982	150.226	18.958	-87.246	-83.279	48.623	36.027	-84.018	-80.088	-79.725	-73.668	-20.476	-74.628	-8191	255	
19608.365	1	1	0	0	0.12788	0.053451	0.14102	0.3289	0.052711	0.094137	0.072347	0.44628	0.23826	0.15858	0.28629	0.09398	0.19467	0.18653	0.29615	0.23284	-1.225	-1.9979	-1.4937	-2.0563	-1.8375	-1.6646	-2.1875	-1.8542	-1.6521	-2.1375	-1.4583	-1.8896	-1.7854	-1.5167	-1.6833	-1.7854	257.135	138.795	90.791	176.482	206.172	-35.450	153.162	215.890	-41.025	37.622	-98.467	-76.779	207.387	220.989	249.358	114.944	0.00017782	0.00073929	6.3703e-05	1267.6	4.852e-06	9.1995e-07	1448.8	468.99	9.7989e-07	2.9019e-06	568.1	182.54	140.44	49.648	1.6871e-06	71.126	0.00021564	0.00021222	5.879e-05	1119.9	2.333e-06	2.3231e-06	1305.1	414.89	2.3593e-06	2.354e-06	437.61	157.11	109.84	42.877	2.3842e-06	60.736	175.540	-5.791	-17.059	-86.292	158.457	48.544	-87.091	-83.062	245.867	18.568	-83.916	-79.896	-79.246	-74.037	242.403	-74.384	-8191	255	
19608.461	1	1	0	0	0.024812	0.18474	0.27166	0.2137	0.21516	0.019904	0.21867	0.10516	0.03919	0.06685	0.11252	0.16402	0.17102	0.263	0.23645	0.28072	-1.1354	-2.05	-1.6437	-1.8792	-1.675	-1.5438	-2.1021	-1.9292	-1.5958	-1.9438	-1.7333	-1.8979	-2.1708	-1.4917	-1.7687	-1.9125	-64.405	110.528	75.913	174.018	12.135	202.372	151.266	148.092	-37.947	147.951	153.663	222.948	-86.909	206.894	226.755	209.213	0.00033747	0.00053082	0.00016279	1287	2.87e-06	5.1719e-06	1464.9	473.95	1.717e-06	6.9608e-06	566.26	181.75	140.55	49.827	5.1322e-06	70.904	0.00022188	0.00021756	6.09e-05	1134.7	2.4029e-06	2.4091e-06	1313	419.17	2.4048e-06	2.4011e-06	438.36	156.93	110.83	43.149	2.3944e-06	60.164	157.881	-95.535	-16.841	-86.025	223.737	40.639	-86.976	-83.039	231.787	-71.326	-83.879	-80.094	-79.246	-74.254	120.401	-74.909	-8191	255	
19608.533	1	1	0	0	0.089504	0.13042	0.024369	0.10133	0.1912	0.20501	0.19143	0.39347	0.21016	0.083689	0.19774	0.18156	0.13126	0.29147	0.13853	0.36509	-1.0417	-1.9167	-1.4625	-1.7708	-1.9833	-1.5104	-2.0062	-1.9375	-1.3771	-2.0854	-1.8521	-1.5396	-1.8708	-1.5438	-1.6938	-1.8042	9.096	-1.399	103.557	-86.143	242.659	144.940	165.961	204.441	76.035	48.045	22.319	205.754	200.794	-94.797	255.213	216.559	0.00051113	0.00044117	0.00011297	1285.1	3.5247e-06	2.5076e-06	1451.4	476.82	2.9649e-06	1.7533e-06	572.28	182.63	140.31	49.597	2.6472e-06	69.885	0.00022219	0.00021773	6.0716e-05	1135.7	2.3713e-06	2.3864e-06	1310.3	421.59	2.3809e-06	2.3826e-06	440.3	157.55	110.67	42.99	2.3595e-06	59.82	186.984	254.019	0.107	-85.809	8.352	-10.199	-86.983	-83.396	-79.949	19.102	-84.159	-80.417	-79.976	-74.170	195.922	-74.576	-8191	255	
19608.652	1	1	0	0	0.23688	0.089827	0.22623	0.080692	0.12142	0.095501	0.30739	0.31775	0.15076	0.2046	0.21316	0.22763	0.21166	0.25894	0.30417	0.33973	-0.96667	-1.7604	-1.5667	-1.7437	-1.7833	-1.4438	-1.8646	-1.9688	-1.55	-1.8271	-1.7083	-1.6	-2.0646	-1.3333	-1.6646	-1.9042	34.808	178.686	-44.587	84.441	139.833	-90.864	144.977	136.558	170.653	254.419	142.563	-99.286	234.378	187.654	67.577	111.536	0.00035263	0.00051278	0.00015959	1290.2	1.7477e-06	5.1358e-06	1462.2	479.34	1.2491e-06	2.4329e-06	570.68	182.51	141.84	49.965	5.3887e-06	70.634	0.00021862	0.00021679	6.0067e-05	1136.5	2.3612e-06	2.3626e-06	1316.9	423.75	2.3694e-06	2.3576e-06	440.52	157.9	111.31	43.242	2.4044e-06	60.184	172.222	39.553	8.154	-85.910	5.651	55.669	-87.067	-83.115	56.039	51.346	-83.778	-80.175	-79.785	-74.389	-62.403	-74.673	-8191	255	
19608.748	1	1	0	0	0.15044	0.037184	0.068234	0.25758	0.12493	0.058559	0.27089	0.091461	0.19618	0.10153	0.08713	0.16095	0.15365	0.34646	0.18627	0.20959	-1.0646	-1.7458	-1.6604	-1.7437	-1.9396	-1.7979	-1.9125	-2.0125	-1.4792	-1.8646	-1.8958	-1.65	-1.9688	-1.5688	-1.4917	-1.9604	-97.686	227.406	146.661	-28.658	79.721	-39.367	148.761	69.645	108.099	-65.743	230.083	-68.036	42.643	208.421	-89.473	170.237	0.0002693	0.0004704	0.00026263	1292	1.7822e-06	1.4725e-06	1459.8	479.04	3.167e-06	5.681e-06	568.05	184.18	139.59	49.508	4.3761e-06	70.187	0.00022348	0.00021938	6.0836e-05	1142.1	2.3844e-06	2.3784e-06	1320.4	424.8	2.3925e-06	2.3617e-06	441.96	158.62	110.59	42.841	2.3759e-06	60.029	171.668	9.975	-43.388	-86.226	232.226	60.795	-87.039	-83.359	-55.694	-65.502	-83.974	-80.459	-79.578	-74.309	216.739	-74.896	-8191	255	
19608.844	1	1	0	0	0.089051	0.13319	0.39881	0.13927	0.32992	0.2282	0.27873	0.1352	0.060123	0.2086	0.17294	0.18678	0.17606	0.14051	0.056933	0.243	-1.0896	-1.7292	-1.7167	-1.5167	-1.7437	-1.6958	-1.9062	-1.9875	-1.575	-1.8354	-2.0896	-1.4854	-1.8979	-1.5042	-1.6083	-2.1208	-37.442	258.035	40.095	-84.825	141.198	50.656	170.620	-28.203	54.907	-5.567	-74.264	215.612	118.846	214.964	-18.749	227.249	0.00040703	0.00046391	0.00014019	1285.7	5.9715e-06	4.7645e-06	1464.9	477.79	3.5339e-06	6.6155e-06	575.13	183.46	139.24	49.198	7.4739e-06	70.291	0.00021903	0.00021675	6.029e-05	1133.2	2.3796e-06	2.3556e-06	1320.4	422.68	2.393e-06	2.3381e-06	442.6	158.08	110	42.689	2.3734e-06	60.03	170.707	-63.318	186.860	-86.311	-24.647	15.761	-87.308	-83.102	46.281	-36.548	-84.142	-80.442	-79.449	-74.051	-22.986	-74.820	-8191	255	
19608.939	1	1	0	0	0.12343	0.18893	0.10084	0.41871	0.13404	0.28875	0.069487	0.14865	0.075881	0.25304	0.23741	0.26917	0.051252	0.19985	0.035124	0.048638	-1.1604	-1.7229	-1.7313	-1.5083	-1.8	-1.9438	-1.6042	-2.1146	-1.4854	-1.6812	-2.0604	-1.5792	-1.775	-1.7812	-1.425	-2.0979	141.509	-82.019	244.687	183.317	38.779	163.889	239.097	231.421	200.241	-83.303	11.688	-81.888	-77.267	228.663	255.137	-93.307	0.00045394	0.00027045	0.00031652	1270.7	3.3628e-06	1.8708e-06	1461	473.33	2.9183e-06	7.0275e-06	572.93	182.83	138.38	49.023	4.2641e-06	70.289	0.00021995	0.00021395	6.0051e-05	1128.8	2.346e-06	2.3424e-06	1313.3	419.16	2.3577e-06	2.3347e-06	439.89	157.2	109.42	42.443	2.4027e-06	59.785	167.204	-25.796	235.309	-86.388	-91.394	-48.166	-87.121	-83.097	-0.960	255.116	-84.173	-80.264	-79.563	-74.183	88.206	-74.941	-8191	255	
19609.061	1	1	0	0	0.2558	0.071339	0.27893	0.12066	0.035667	0.13294	0.27941	0.19513	0.17563	0.30984	0.12639	0.20801	0.19696	0.056469	0.19244	0.30806	-1.0312	-1.6333	-1.6625	-1.3583	-1.7417	-1.6667	-1.6667	-2.0292	-1.6083	-1.5958	-1.9271	-1.4729	-2.075	-1.7812	-1.4646	-1.9917	61.025	-50.624	-68.286	238.608	143.049	219.043	169.621	167.822	117.838	67.567	-25.458	166.603	187.541	-78.338	92.925	191.761	0.00037477	0.000739	5.1164e-05	1286.7	7.1192e-06	4.8163e-06	1456.5	473.24	3.6988e-06	1.1223e-05	570.11	182.34	139.1	48.953	2.317e-06	69.721	0.00021885	0.00021693	6.0562e-05	1131.3	2.3855e-06	2.3485e-06	1311.4	419.59	2.371e-06	2.3629e-06	440.14	157.18	109.04	42.336	2.3768e-06	59.755	156.122	-23.907	26.891	-86.257	-13.963	221.563	-87.321	-83.304	-67.961	-14.348	-84.423	-80.421	-79.870	-74.351	52.620	-74.745	-8191	255	
19609.156	1	1	0	0	0.2053	0.092324	0.048343	0.049525	0.088616	0.10663	0.21675	0.20486	0.27303	0.093881	0.12483	0.25723	0.31385	0.15565	0.20708	0.13928	-1.1792	-1.5312	-1.9771	-1.6208	-1.7458	-1.9646	-1.575	-2.0104	-1.5583	-1.6104	-1.9896	-1.6646	-1.9	-1.9604	-1.5208	-2.1104	-9.472	-39.542	-58.446	169.009	55.527	-59.898	213.674	257.565	-73.141	-10.369	35.955	-54.199	232.818	162.121	132.281	226.500	0.00033904	0.00019171	0.00011819	1275.2	3.1944e-06	3.0143e-06	1458.9	473.9	2.7254e-06	6.755e-06	573.23	183.18	137.3	48.778	7.4499e-06	70.237	0.00022096	0.00021521	5.9995e-05	1124.5	2.3648e-06	2.3647e-06	1311.4	418.85	2.3619e-06	2.3483e-06	439.97	157.89	108.89	42.307	2.3815e-06	59.984	170.360	22.412	-27.746	-86.142	-17.497	235.867	-87.082	-83.297	26.725	-75.028	-84.120	-80.340	-79.453	-74.087	26.199	-74.800	-8191	255	
19609.254	1	1	0	0	0.12661	0.16235	0.13387	0.12642	0.10154	0.11718	0.41313	0.018074	0.068889	0.30447	0.046382	0.034744	0.22218	0.31534	0.20553	0.24234	-1.3021	-1.4312	-1.8062	-1.5187	-1.6896	-2.0771	-1.6271	-1.9646	-1.7146	-1.4292	-1.8646	-1.7396	-1.4688	-1.7917	-1.4167	-1.8958	131.866	133.329	90.496	223.745	-42.499	208.592	252.328	-69.805	177.652	-81.637	50.087	96.845	-42.046	-75.345	21.890	197.987	0.00032807	0.0005473	0.00027445	1270.1	2.4776e-06	4.911e-06	1459.8	470.21	1.159e-06	7.0682e-06	568.92	182.61	137.24	48.417	5.4659e-06	70.382	0.00022046	0.00021755	5.978e-05	1121.2	2.3552e-06	2.3492e-06	1311.1	416.41	2.3763e-06	2.3323e-06	438.84	157.35	108.42	42.112	2.3549e-06	60.098	155.800	-52.853	-2.667	-86.276	60.959	12.296	-87.077	-83.240	190.716	151.273	-83.877	-80.443	-79.639	-74.131	65.891	-74.322	-8191	255	
19609.350	1	1	0	0	0.047221	0.19085	0.077556	0.57908	0.2463	0.12922	0.20665	0.12978	0.2999	0.092472	0.042422	0.25513	0.24927	0.27636	0.40114	0.22433	-1.1812	-1.4271	-1.9146	-1.5583	-1.3917	-2.1146	-1.775	-1.7563	-1.8687	-1.475	-1.9937	-1.7625	-1.5625	-2.0708	-1.5958	-1.7083	203.488	140.894	-67.300	229.569	77.387	53.452	229.813	180.197	143.219	130.801	-47.532	172.773	254.208	230.090	187.996	156.428	0.00040094	0.00040408	0.00011151	1271.4	5.636e-06	2.2026e-06	1450.6	471.93	3.0286e-06	1.1684e-06	565.54	182	136.25	48.288	3.1279e-06	70.043	0.00021783	0.00021747	6.0342e-05	1122.4	2.366e-06	2.3432e-06	1309.5	416.31	2.344e-06	2.3281e-06	437.3	156.67	107.97	41.919	2.3433e-06	59.575	174.978	27.193	-48.952	-85.940	-35.048	33.560	-87.110	-83.095	-11.574	-80.477	-83.835	-80.389	-80.159	-73.973	19.814	-74.370	-8191	255	
19609.445	1	1	0	0	0.15868	0.22808	0.15924	0.13525	0.22042	0.31088	0.19662	0.34206	0.038129	0.17805	0.15918	0.06913	0.10978	0.15016	0.19853	0.49925	-1.3229	-1.2917	-1.9562	-1.8042	-1.4917	-1.7812	-1.5958	-1.8729	-1.8042	-1.4438	-2.0958	-1.8188	-1.5396	-2.1479	-1.575	-1.9333	253.775	148.594	190.025	47.192	-65.767	110.882	189.314	182.463	-13.997	-89.438	-64.027	-42.523	83.758	-14.531	257.902	196.078	0.00037882	0.00027147	0.00021142	1258.3	6.5462e-06	3.9564e-06	1443.3	465.08	2.0035e-06	9.5389e-06	561.25	180.47	136.67	48.241	7.0455e-06	69.853	0.00021602	0.00021051	5.9223e-05	1110.4	2.3059e-06	2.2981e-06	1299.2	411.44	2.2999e-06	2.2951e-06	433.4	155.43	107.23	41.814	2.3256e-06	59.517	145.037	-9.847	-59.831	-86.187	35.740	-50.929	-87.054	-82.859	37.751	11.512	-84.014	-80.196	-79.835	-74.248	29.270	-74.517	-8191	255	
19609.541	1	1	0	0	0.099192	0.27549	0.051531	0.15157	0.02634	0.1793	0.20257	0.18282	0.12941	0.25259	0.21793	0.22052	0.36604	0.37112	0.12821	0.27702	-1.4646	-1.4354	-1.8854	-1.8208	-1.5604	-1.9083	-1.8271	-2.0333	-2.0312	-1.3979	-1.9146	-1.9542	-1.4937	-2.0708	-1.7062	-1.9021	-12.837	-1.986	81.310	-87.453	250.306	92.175	197.337	166.685	-32.082	-55.390	247.356	254.948	201.603	214.588	53.170	222.859	0.00042614	0.00046779	0.00025476	1263.8	5.7706e-06	3.4204e-06	1442.7	465.93	3.2464e-06	1.1787e-05	561.29	180.39	136.48	48.41	3.5179e-06	69.846	0.00021701	0.00021492	5.9042e-05	1113.5	2.3331e-06	2.3341e-06	1301.5	412	2.372e-06	2.3546e-06	434.32	155.21	108.03	42.022	2.3894e-06	59.747	164.116	186.474	-15.530	-86.136	40.980	75.247	-86.694	-83.074	179.536	-42.050	-83.697	-80.136	-79.603	-74.005	100.947	-74.725	-8191	255	
19609.660	1	1	0	0	0.1642	0.33383	0.21112	0.28666	0.13604	0.036173	0.27428	0.23346	0.16115	0.15684	0.10923	0.27316	0.15203	0.26309	0.15547	0.062012	-1.7812	-1.6396	-1.8354	-1.875	-1.5583	-2.0854	-2.0646	-1.8021	-2.05	-1.6896	-1.9333	-1.9667	-1.5229	-1.9958	-1.7917	-1.6771	241.222	79.533	137.755	198.221	252.739	198.780	186.700	187.840	-35.287	212.180	60.299	170.087	152.689	-93.685	10.859	21.447	0.00027285	0.00026845	0.00017534	1269.3	4.1205e-06	2.6561e-06	1455.9	467.37	1.347e-06	7.3217e-06	567.51	181.76	137.79	48.545	3.304e-06	69.626	0.00022121	0.00021825	6.0828e-05	1123.2	2.3934e-06	2.4033e-06	1309.6	414.85	2.3711e-06	2.3779e-06	438.96	156.69	108.38	41.997	2.3793e-06	59.668	165.687	30.947	-49.595	-86.255	13.437	7.016	-87.296	-83.102	196.527	17.978	-83.781	-80.079	-80.193	-74.190	100.611	-74.724	-8191	255	
19609.756	1	1	0	0	0.17733	0.13313	0.29284	0.06895	0.3759	0.35423	0.2041	0.35765	0.080707	0.34432	0.16887	0.12601	0.2173	0.15081	0.27054	0.20468	-1.7188	-1.5896	-1.7146	-2.1312	-1.5771	-1.9875	-1.875	-1.7062	-2.0521	-1.7687	-1.8687	-2.15	-1.6604	-2	-1.9104	-1.7146	-95.216	41.808	234.634	178.376	11.103	-94.479	179.152	257.228	96.655	145.104	160.980	209.040	119.976	-41.349	27.513	239.976	0.00023461	0.00035188	0.00017983	1271.9	1.5243e-06	6.2952e-06	1456	472.52	3.3355e-06	9.7658e-06	570.98	182.75	137.53	48.262	6.2336e-06	70.127	0.00021792	0.00021675	5.9795e-05	1124.1	2.3812e-06	2.3459e-06	1311.3	417.48	2.3883e-06	2.3336e-06	440.64	157.75	108.51	41.93	2.3827e-06	59.75	157.430	-55.447	246.981	-86.318	-32.244	-44.617	-87.274	-83.394	103.343	4.951	-83.891	-80.100	-79.370	-74.093	35.875	-74.541	-8191	255	
19609.828	1	1	0	0	0.28511	0.18104	0.14977	0.40216	0.25859	0.232	0.4713	0.19818	0.18658	0.34272	0.1025	0.19047	0.13674	0.17003	0.11134	0.14428	-1.5938	-1.6646	-1.7625	-2.2812	-1.5562	-1.8896	-1.8813	-1.6917	-2.1229	-1.6458	-1.7875	-2.125	-1.6667	-1.8771	-1.7833	-1.6042	130.206	-81.942	-48.668	197.469	225.160	-39.306	163.081	-53.880	78.487	173.916	95.078	-78.541	-42.473	-97.570	-39.064	233.339	0.00033182	0.0008122	0.00025358	1265.9	4.1952e-06	7.0051e-06	1455.8	469.75	7.5342e-07	7.1482e-06	568.03	180.99	136.57	48.422	3.2255e-06	69.456	0.00021924	0.00021457	5.9454e-05	1121.6	2.3641e-06	2.3576e-06	1306.6	416.63	2.3651e-06	2.3398e-06	437.14	156.23	107.99	41.923	2.3639e-06	59.337	168.690	-53.797	-75.819	-86.077	20.404	2.822	-86.861	-83.259	220.635	177.225	-84.089	-80.274	-79.914	-74.155	68.340	-74.716	-8191	255	
19609.949	1	1	0	0	0.27338	0.089643	0.26408	0.17706	0.25712	0.060791	0.29527	0.40348	0.31564	0.15425	0.24513	0.47947	0.010361	0.18785	0.052579	0.16223	-1.6229	-1.4937	-1.4	-1.8896	-1.4646	-1.9375	-1.9646	-1.5542	-1.9104	-1.6667	-1.6792	-2.0187	-1.6938	-1.8021	-2.0396	-1.3083	-90.714	-16.695	182.862	200.456	145.339	-28.807	200.461	223.040	-22.027	6.038	203.721	228.001	199.825	243.821	188.239	12.229	0.00045579	0.00063438	0.00015575	1274.6	1.5205e-06	9.5637e-06	1452.8	470.39	4.1128e-06	3.831e-06	567.45	181.02	136.57	47.958	6.3653e-06	69.378	0.00021966	0.00021628	6.0378e-05	1123	2.3633e-06	2.3449e-06	1306.3	416.24	2.3437e-06	2.3448e-06	436.35	155.98	107.97	41.651	2.3549e-06	59.089	165.704	-37.292	-45.445	-86.317	-47.980	20.310	-87.179	-83.337	126.940	-40.220	-83.926	-80.053	-79.851	-74.062	38.534	-74.437	-8191	255	
19610.045	1	1	0	0	0.12377	0.12415	0.080847	0.18776	0.21156	0.23444	0.17706	0.13959	0.10002	0.18312	0.11975	0.1938	0.18317	0.18877	0.082256	0.36236	-1.4083	-1.7167	-1.5625	-2.0729	-1.6333	-1.6896	-2.0854	-1.675	-1.8354	-1.9167	-1.5083	-2.0896	-1.6667	-1.6729	-2.0104	-1.6437	202.808	51.527	140.703	-77.635	190.656	40.607	247.983	156.263	42.529	169.403	167.389	205.113	-55.789	250.228	53.727	205.141	0.00026058	0.00011102	0.00022874	1268.4	4.1709e-06	4.146e-06	1452.9	470.74	3.3561e-06	7.447e-06	569.28	182.38	138.27	48.539	3.6501e-06	69.86	0.00021677	0.00021379	5.9497e-05	1118.7	2.3505e-06	2.3346e-06	1307.1	417	2.3582e-06	2.3224e-06	439.75	156.99	108.51	41.984	2.3431e-06	59.611	188.923	88.965	-20.785	-86.522	237.076	65.085	-86.988	-83.225	53.686	92.072	-84.115	-80.206	-79.403	-74.010	-60.912	-74.678	-8191	255	
19610.141	1	1	0	0	0.099573	0.18342	0.18716	0.02513	0.34448	0.23268	0.43662	0.20088	0.14857	0.027326	0.19689	0.30209	0.17317	0.085928	0.26814	0.22745	-1.4104	-1.7875	-1.425	-2.1646	-1.6917	-1.7271	-2.1771	-1.7083	-1.8479	-1.9042	-1.5979	-2.0854	-1.6083	-1.6729	-2.0438	-1.7104	159.754	43.311	61.778	71.453	-19.857	17.464	231.581	233.906	4.071	53.458	214.118	212.613	-54.421	129.896	178.701	202.824	0.00056058	0.00050482	0.00024195	1280.5	3.6372e-06	5.2408e-06	1460.9	477.66	3.3985e-06	4.9571e-06	575.01	184.23	138.09	48.826	4.5936e-06	70.19	0.00021973	0.0002151	5.9449e-05	1128.1	2.3743e-06	2.3599e-06	1316.3	422.74	2.3926e-06	2.3584e-06	442.84	158.72	109.61	42.304	2.3842e-06	59.927	178.128	-16.168	-34.890	-86.429	120.194	69.620	-87.449	-83.241	1.224	0.199	-84.314	-80.064	-79.925	-74.210	-80.366	-74.572	-8191	255	
19610.236	1	1	0	0	0.18732	0.084419	0.33201	0.2279	0.14892	0.13131	0.25314	0.14331	0.31047	0.19035	0.055514	0.25045	0.12035	0.18407	0.21919	0.1807	-1.2396	-1.8646	-1.3896	-2.0229	-1.75	-1.6812	-2.2875	-1.8271	-1.8417	-1.8833	-1.5979	-1.9083	-1.9688	-1.6938	-1.9792	-1.65	-94.520	61.834	78.540	206.398	-46.666	-0.256	214.369	145.855	7.917	-18.517	144.019	219.565	227.424	-37.113	90.557	192.052	0.00028373	0.00039662	0.00016732	1283.6	6.6577e-06	5.1278e-06	1451.3	473.16	5.9107e-06	3.5383e-06	570.64	181.53	138.29	47.918	6.6319e-06	69.25	0.00022067	0.00021444	6.1044e-05	1127	2.3686e-06	2.3541e-06	1309.9	418.61	2.3585e-06	2.3526e-06	439.79	157.05	108.7	41.815	2.3469e-06	59.287	158.169	-89.322	-19.048	-86.151	-73.599	-28.940	-86.978	-83.365	-5.724	15.228	-84.119	-80.467	-79.464	-74.117	71.714	-74.563	-8191	255	
19610.357	1	1	0	0	0.047262	0.088224	0.062674	0.12197	0.39725	0.18671	0.42165	0.26087	0.26121	0.10214	0.09393	0.40305	0.23739	0.31993	0.1968	0.058874	-1.45	-1.8	-1.5271	-1.9958	-1.7396	-1.4188	-2.1875	-1.7375	-1.6167	-1.9979	-1.5542	-1.7667	-1.9542	-1.6063	-1.8687	-1.8125	135.197	-65.511	234.053	172.142	-45.718	-32.272	187.461	195.812	57.279	52.397	218.308	138.766	204.424	257.853	241.438	19.324	0.00049237	0.000347	0.00020549	1274.7	6.1271e-06	4.8451e-06	1447	471.32	3.2215e-06	5.437e-06	566.23	180.72	138.14	48.186	3.5322e-06	69.167	0.00022005	0.0002143	5.9933e-05	1122.5	2.3694e-06	2.366e-06	1302.3	417.47	2.3629e-06	2.3681e-06	437.59	156.26	108.79	41.858	2.3881e-06	59.222	172.894	212.085	-66.320	-86.385	4.897	53.743	-87.048	-83.309	-59.059	192.395	-84.029	-79.982	-80.270	-73.901	108.489	-74.750	-8191	255	
19610.430	1	1	0	0	0.22915	0.17594	0.17655	0.31785	0.23702	0.25447	0.29175	0.37139	0.14345	0.06685	0.20272	0.36583	0.043669	0.20398	0.22746	0.38273	-1.1292	-1.9708	-1.3542	-1.9083	-1.8937	-1.3667	-2.2333	-1.725	-1.525	-1.8979	-1.5604	-1.8667	-1.8438	-1.5229	-1.9417	-1.9562	215.688	185.474	135.381	-29.846	251.231	-29.995	174.623	206.470	65.471	257.113	233.152	237.216	1.905	171.667	111.545	164.564	0.0004202	0.00022382	0.00025666	1266.9	4.4144e-06	3.5535e-06	1444.7	469.72	2.0562e-06	4.7829e-06	568.16	181.04	136.57	47.991	5.041e-06	69.111	0.00022148	0.00021764	6.0954e-05	1122.2	2.4107e-06	2.3752e-06	1302.5	417.53	2.3686e-06	2.3453e-06	436.72	156.12	107.82	41.51	2.3336e-06	59.044	155.635	-28.938	-68.352	-86.258	91.032	47.745	-87.136	-83.077	10.968	41.326	-84.229	-80.064	-79.896	-73.767	40.518	-74.717	-8191	255	
19610.525	1	1	0	0	0.054948	0.18227	0.41783	0.10045	0.29994	0.14601	0.093358	0.28462	0.32447	0.22831	0.27707	0.37847	0.22669	0.11344	0.042643	0.19685	-1.0604	-1.8979	-1.7	-1.7146	-2.0187	-1.4292	-2.1	-2.1312	-1.5438	-1.9062	-1.5979	-1.8625	-1.7375	-1.6104	-1.8271	-1.775	-36.999	-32.380	110.704	80.902	86.385	113.558	207.312	162.152	117.674	118.505	-36.445	210.157	125.230	250.983	-5.072	192.157	0.00034526	0.00027214	0.0001739	1259.9	2.3155e-06	3.2525e-06	1438.6	467.62	2.3148e-06	6.3469e-06	559.03	181.08	134.88	47.638	5.3693e-06	69.688	0.00021674	0.00021192	5.9044e-05	1109.5	2.3112e-06	2.2996e-06	1296.1	413.19	2.3386e-06	2.3465e-06	434.33	155.74	106.89	41.402	2.3401e-06	59.46	152.136	48.198	86.793	-86.400	99.128	106.467	-86.976	-83.342	31.960	57.244	-84.484	-80.250	-79.541	-74.116	22.271	-74.418	-8191	255	
19610.621	1	1	0	0	0.16487	0.13124	0.11106	0.3348	0.093197	0.048913	0.091639	0.19758	0.11515	0.30887	0.34236	0.070432	0.1594	0.27392	0.14888	0.15581	-0.91042	-1.9021	-1.5458	-1.9542	-2.0896	-1.45	-2.1396	-1.9146	-1.5646	-1.8646	-1.6271	-1.7271	-2.0792	-1.6958	-1.7646	-1.8604	-80.080	197.841	153.739	88.227	169.777	-5.062	114.220	217.306	40.500	92.141	208.671	-11.878	131.286	255.018	234.538	146.156	0.00037934	0.00027706	0.00014227	1255.3	1.1044e-06	7.9734e-06	1439.6	467.5	4.1798e-06	6.3902e-06	564.01	180.9	137.08	48.077	5.0354e-06	69.822	0.00021638	0.0002132	5.9887e-05	1110.5	2.3522e-06	2.3599e-06	1296.6	413.66	2.3725e-06	2.3568e-06	435.56	156.4	107.74	41.633	2.3734e-06	59.631	144.610	-6.820	21.625	-86.062	65.065	26.257	-87.255	-83.100	-18.996	15.814	-84.196	-79.948	-79.645	-73.898	119.486	-74.642	-8191	255	
19610.740	1	1	0	0	0.086461	0.13063	0.1867	0.31671	0.13302	0.12026	0.23268	0.16271	0.081466	0.12161	0.27728	0.18977	0.015546	0.052515	0.22789	0.09004	-0.94167	-1.8229	-1.5771	-1.4729	-1.8687	-1.55	-1.75	-2.1583	-1.4125	-1.6688	-1.8104	-1.4937	-2.0146	-1.6625	-1.6292	-2.0563	222.115	187.040	-5.459	194.945	-1.606	113.870	193.791	184.191	-82.119	-70.948	229.671	201.536	102.096	124.586	-27.704	181.861	0.00025439	0.00026103	5.7065e-05	1265.5	1.0503e-05	4.1195e-06	1445.5	466.65	6.9114e-06	2.8976e-06	562.95	179.95	133.9	47.534	3.9793e-06	69.011	0.00022004	0.00021627	5.9865e-05	1113.5	2.3553e-06	2.3594e-06	1295.5	413.44	2.3479e-06	2.3395e-06	432.94	154.86	106.67	41.218	2.3334e-06	58.848	174.235	235.603	29.352	-86.110	-13.034	24.497	-87.249	-82.983	51.110	34.559	-84.066	-80.379	-79.785	-74.237	236.189	-74.570	-8191	255	
19610.838	1	1	0	0	0.062741	0.13044	0.19365	0.094574	0.295	0.33505	0.25305	0.36185	0.085167	0.30702	0.15008	0.14204	0.24063	0.071043	0.29694	0.063934	-0.91458	-1.8104	-1.6437	-1.4229	-1.9688	-1.3917	-1.7938	-2.2125	-1.2542	-1.8146	-1.9021	-1.6521	-1.9	-1.6708	-1.5063	-2.0458	202.270	162.187	-64.335	0.567	136.502	7.312	221.640	182.557	244.542	213.661	154.753	177.741	-49.665	238.435	34.514	70.452	0.00038574	0.00015441	8.434e-05	1249	2.6537e-06	4.062e-07	1421.9	457.01	7.1903e-06	2.4351e-06	541.21	175.57	129.81	46.488	4.1253e-06	68.705	0.00021727	0.00021459	5.987e-05	1100.8	2.3614e-06	2.3676e-06	1278.2	405.31	2.4048e-06	2.4082e-06	423.03	151.34	103.89	40.556	2.4472e-06	58.798	188.239	-15.744	-22.668	-86.166	241.773	231.139	-87.246	-83.263	18.177	244.920	-83.971	-79.899	-79.377	-73.565	-10.396	-74.206	-8191	255	
19610.934	1	1	0	0	0.31162	0.10932	0.062422	0.29537	0.14646	0.14238	0.016471	0.067889	0.071915	0.42017	0.19418	0.2549	0.1637	0.20151	0.28668	0.16289	-0.91458	-1.8042	-1.7458	-0.79792	-1.4188	-1.25	-1.1792	-1.3792	-0.92292	-1.2042	-1.4271	-0.76458	-1.5229	-1.2667	-1.1646	-1.5438	64.083	193.987	105.712	-61.002	-73.036	46.006	219.230	-33.637	35.663	22.964	237.747	-17.775	-19.715	14.668	9.584	182.498	0.00033864	0.00020354	0.00014016	505.19	2.649e-07	2.9047e-07	0.6538	0.058799	5.6496e-08	2.9087e-07	0.014052	0.0037708	0.0098217	0.00341	3.7298e-07	0.0013653	0.00022823	0.00022325	6.1848e-05	520.74	-2.2994e-07	-2.3492e-07	-2.1375	-0.81387	-1.2064e-07	-9.9169e-08	-1.5947	-0.23124	-0.37624	-0.055976	-4.9302e-08	-0.064596	179.766	-52.279	39.058	-67.149	101.368	186.199	-54.676	-61.403	173.674	-41.443	-7.984	-51.600	11.728	10.217	-73.561	157.080	-8191	255	
19611.055	1	1	0	0	0.094723	0.1143	0.1943	0.015725	0.10059	0.13636	0.097259	0.013114	0.33408	0.21185	0.21455	0.14619	0.1269	0.13443	0.21252	0.32169	-0.69375	-1.2875	-1.3958	-0.9	-1.5063	-1.2146	-1	-1.4375	-1.1583	-1.2521	-1.5229	-0.69583	-1.125	-1.2708	-0.9875	-1.5229	262.681	166.155	56.826	72.580	185.361	172.297	98.547	314.139	47.385	28.300	223.978	251.814	-23.674	96.410	-16.038	-34.679	4.7629e-06	3.054e-06	4.6727e-06	0.059071	9.2222e-08	1.2219e-07	0.016189	0.0069436	6.4284e-08	1.131e-07	0.055217	0.0076407	0.010359	0.00064508	1.3929e-07	0.0036821	-3.6068e-06	-3.3966e-06	-8.9974e-07	-0.81737	-3.1329e-08	-2.9091e-08	-0.4645	-0.15935	-2.4001e-08	-2.2495e-08	-0.44408	-0.066282	-0.12215	-0.020735	-1.6985e-08	-0.026953	318.692	131.869	218.479	118.415	275.438	266.882	305.894	-19.736	231.996	317.849	-34.253	16.302	135.945	152.464	85.615	218.661	-8191	255	
19611.125	1	1	0	0	0.086977	0.19951	0.18963	0.11904	0.062308	0.20869	0.12059	0.16326	0.097903	0.15609	0.19608	0.20548	0.04009	0.077956	0.234	0.39731	-0.64792	-0.99375	-1.3979	-0.98958	-1.2354	-1.35	-0.94792	-1.4542	-1.2229	-0.98958	-1.5458	-0.97708	-1.3208	-1.4062	-1.0375	-1.5125	53.994	34.846	40.262	138.632	137.775	264.267	123.500	214.282	172.706	213.392	261.978	236.654	82.937	35.223	-32.369	9.810	5.7232e-06	1.6765e-05	5.5484e-06	0.044538	2.6684e-08	1.8697e-07	0.011505	0.0059254	1.2808e-07	3.5499e-07	0.013763	0.0080024	0.0050798	0.0019868	3.0039e-07	0.0023037	-1.3827e-06	-1.4207e-06	-4.3844e-07	-0.38458	-1.5348e-08	-1.4898e-08	-0.2237	-0.088953	-1.2602e-08	-1.1591e-08	-0.26215	-0.038599	-0.069854	-0.012801	-1.0815e-08	-0.017653	-53.015	221.515	54.444	-57.050	215.010	8.921	79.713	-72.288	-47.649	-22.534	-41.910	128.667	248.991	5.232	219.827	-42.854	-8191	255	
19611.221	1	1	0	0	0.10222	0.23454	0.29662	0.2106	0.13706	0.1086	0.10651	0.39698	0.024553	0.12637	0.1417	0.17789	0.20729	0.16729	0.17695	0.21825	-0.7125	-1.0771	-1.8438	-0.94792	-1.2396	-1.4667	-1.0583	-1.2771	-1.3708	-1.1479	-1.3208	-1.2771	-1.1292	-1.2896	-0.93125	-1.5521	161.143	110.997	90.885	403.117	236.544	320.682	139.103	372.434	275.476	399.688	198.226	131.959	287.877	242.650	155.056	74.616	2.8965e-06	1.163e-05	2.537e-06	0.0064399	2.1676e-07	1.6868e-07	0.019071	0.019181	1.6634e-07	1.42e-07	0.028487	0.0045309	0.0070875	0.0015644	1.2635e-07	0.0013806	-8.5316e-07	-8.9737e-07	-3.2743e-07	-0.24721	-9.9412e-09	-1.1552e-08	-0.14832	-0.069186	-1.0159e-08	-8.0816e-09	-0.19876	-0.028132	-0.050595	-0.010317	-8.9514e-09	-0.013344	343.346	364.526	399.487	293.166	181.726	49.432	216.024	64.526	182.863	324.136	378.054	51.014	369.052	272.126	204.675	327.793	-8191	255	
19611.342	1	1	0	0	0.24383	0.21288	0.17167	0.090724	0.1108	0.15204	0.21774	0.12365	0.36041	0.26829	0.13701	0.15537	0.13953	0.17775	0.21307	0.086393	-0.75625	-1.1083	-1.4104	-1.0521	-1.1646	-1.3167	-0.85	-1.0729	-1.3	-0.94375	-1.4333	-1.1854	-1.1875	-1.1938	-1.0646	-1.2646	126.678	227.128	360.236	100.064	319.245	320.940	252.336	154.093	383.605	81.317	248.091	284.744	397.738	259.976	315.711	222.678	3.3342e-06	1.4334e-05	7.4184e-06	0.010759	6.943e-08	8.4197e-08	0.013101	0.0066678	9.3866e-08	3.1615e-07	0.02017	0.0037766	0.0026566	0.0018992	1.1732e-07	0.0030501	-6.0003e-07	-6.8183e-07	-2.5677e-07	-0.20817	-8.7203e-09	-9.379e-09	-0.12927	-0.051395	-8.6249e-09	-7.1378e-09	-0.18227	-0.025043	-0.040274	-0.0089076	-6.6195e-09	-0.011006	330.131	320.272	328.522	91.933	116.397	289.184	355.450	59.273	387.428	389.187	273.482	351.618	294.619	242.783	158.047	126.875	-8191	255	
19611.438	1	1	0	0	0.17159	0.093105	0.12667	0.11288	0.089643	0.15674	0.31086	0.14119	0.1325	0.098461	0.18147	0.15307	0.022367	0.073794	0.3605	0.29915	-0.92083	-0.98958	-1.3917	-1.2	-1.0667	-1.6396	-0.93542	-1.1979	-1.3458	-1.0271	-1.4813	-1.1542	-0.97917	-1.5104	-0.875	-1.2708	165.639	227.993	131.336	122.363	333.236	269.333	62.424	147.667	72.522	399.052	379.710	369.835	354.162	386.944	235.581	344.329	1.1334e-05	1.5485e-05	1.0118e-05	0.035642	8.8434e-08	1.6713e-07	0.023443	0.012238	1.1926e-07	2.3669e-08	0.011792	0.0081556	0.0040152	0.002162	1.9061e-07	0.0021958	-6.4153e-07	-5.25e-07	-2.2505e-07	-0.19993	-7.2149e-09	-9.2598e-09	-0.12146	-0.046838	-8.7443e-09	-5.516e-09	-0.14825	-0.024413	-0.034156	-0.0084905	-6.087e-09	-0.0093382	70.385	269.061	160.338	291.127	136.815	115.548	352.806	57.815	43.676	48.306	256.823	271.093	128.562	142.703	240.495	381.844	-8191	255	
19611.533	1	1	0	0	0.16162	0.10697	0.23729	0.16395	0.09808	0.20976	0.13926	0.11225	0.12798	0.18677	0.13902	0.30175	0.32707	0.18843	0.34864	0.15708	-1.0396	-0.87708	-1.3271	-1.0979	-0.8875	-1.4521	-1.2542	-1.1875	-1.3375	-0.83542	-1.2938	-1.2625	-1.0771	-1.45	-1.0979	-1.2542	289.352	28.689	296.704	217.435	1.447	117.087	5.399	241.392	262.120	111.872	333.360	118.094	71.105	338.646	291.704	259.478	1.9493e-06	2.0723e-06	5.2991e-06	0.028104	2.327e-07	1.3934e-07	0.026661	0.022358	1.7416e-07	1.3831e-07	0.080595	0.0020279	0.01369	0.00034241	2.9702e-07	0.0039062	-6.1829e-07	-5.1997e-07	-1.973e-07	-0.2084	-6.2419e-09	-8.8839e-09	-0.11055	-0.037942	-9.1392e-09	-5.9375e-09	-0.15238	-0.024983	-0.033996	-0.0090559	-6.344e-09	-0.0079987	21.082	27.233	7.067	238.354	313.106	74.391	76.265	6.595	223.457	203.567	300.663	11.325	247.732	138.344	305.641	32.801	-8191	255	
19611.652	1	1	0	0	0.36845	0.29663	0.17892	0.16516	0.15891	0.072142	0.075151	0.19052	0.27603	0.033596	0.32869	0.12787	0.15364	0.30475	0.19171	0.099339	-1.0146	-0.80625	-1.2021	-1.2854	-0.85417	-1.3958	-1.1979	-1.1021	-1.45	-0.78333	-1.25	-1.2792	-0.90625	-1.4937	-1.1125	-1.1604	113.147	184.025	94.911	77.255	264.003	168.637	314.778	308.684	149.440	124.718	360.597	230.568	187.279	62.491	278.832	35.988	4.0897e-06	2.7906e-05	6.5314e-06	0.057572	1.7246e-07	6.5131e-08	0.015332	0.007329	2.0188e-07	1.8626e-07	0.035321	0.0085425	0.0056242	0.0023091	1.9269e-07	0.0036273	-5.8676e-07	-5.2668e-07	-1.8331e-07	-0.19311	-5.6453e-09	-8.233e-09	-0.12162	-0.037503	-8.1013e-09	-5.8092e-09	-0.13331	-0.025133	-0.033251	-0.0084071	-7.1611e-09	-0.0073922	103.894	139.302	32.299	199.474	215.344	272.673	300.706	47.366	351.135	192.684	228.666	88.253	282.417	128.490	267.651	103.332	-8191	255	
19611.725	1	1	0	0	0.15328	0.38565	0.30179	0.15117	0.088478	0.21649	0.23617	0.13451	0.17369	0.40698	0.1251	0.18911	0.15218	0.41068	0.089163	0.023061	-1.1917	-0.93542	-1.2292	-1.4562	-0.99792	-1.5604	-1.3646	-1.0708	-1.3125	-1.2313	-1.0208	-1.2833	-0.76458	-1.3833	-1.25	-0.91458	-72.698	178.190	-128.298	111.986	22.443	119.428	155.313	93.513	-167.490	92.158	82.824	24.150	131.533	-65.239	116.304	65.890	5.4584e-06	1.6198e-05	6.1954e-06	0.039217	9.119e-08	1.0788e-07	0.040682	0.0097639	1.8003e-07	2.1904e-07	0.012123	0.002672	0.013623	0.0017689	4.6886e-08	0.00070047	-5.4028e-07	-5.7448e-07	-1.6185e-07	-0.18935	-4.9293e-09	-7.1512e-09	-0.12048	-0.0302	-8.2207e-09	-6.5239e-09	-0.10617	-0.025103	-0.02309	-0.0072021	-6.2981e-09	-0.0075691	111.062	39.020	-167.015	29.478	-30.951	36.827	-28.712	-153.332	186.554	52.810	152.157	-126.227	122.701	179.422	12.181	60.062	-8191	255	
19611.820	1	1	0	0	0.2633	0.23355	0.11868	0.4791	0.19524	0.16958	0.19016	0.24055	0.053563	0.15667	0.18039	0.089279	0.33766	0.17203	0.06599	0.12452	-0.90833	-1.2	-1.0833	-1.3979	-1.0396	-1.5417	-1.2375	-0.88542	-1.5542	-1.1729	-1.1562	-1.3646	-0.97708	-1.2729	-1.3417	-0.94375	184.205	167.998	-39.586	-12.807	239.318	139.955	-27.941	53.637	228.920	178.284	235.234	94.430	304.458	-43.488	130.672	185.857	1.4883e-05	4.1653e-06	4.9137e-06	0.032152	1.1922e-07	3.2887e-08	0.03032	0.0091204	1.8303e-08	4.0343e-08	0.01618	0.011209	0.0048494	0.0014709	1.9926e-08	0.0024333	-5.1621e-07	-4.2269e-07	-1.5835e-07	-0.20675	-4.9293e-09	-7.307e-09	-0.13578	-0.031353	-7.2471e-09	-5.7725e-09	-0.089331	-0.027382	-0.02442	-0.0065069	-7.2805e-09	-0.0077839	57.529	-10.150	240.036	64.057	172.810	-35.205	16.887	-28.066	118.203	65.274	125.905	128.090	48.980	135.278	199.179	211.350	-8191	255	
19611.918	1	1	0	0	0.14414	0.29192	0.11814	0.24866	0.22559	0.23671	0.26128	0.098152	0.067209	0.21842	0.32025	0.2298	0.08255	0.095798	0.061118	0.17254	-1.0229	-0.96458	-1.05	-1.4583	-1.1167	-1.3729	-1.3292	-0.91875	-1.5083	-1.15	-0.87917	-1.35	-1.1146	-1.3292	-1.3687	-0.86042	392.990	87.577	275.974	358.000	112.043	293.126	357.292	274.773	208.262	281.008	424.316	164.896	89.882	276.824	202.385	369.644	5.4776e-06	7.4268e-06	3.2677e-06	0.0045862	1.4918e-07	1.5023e-07	0.0077512	0.0097158	1.3422e-07	8.7815e-08	0.0054827	0.0093482	0.010437	0.0030515	1.8046e-07	0.0034128	-5.0708e-07	-4.7971e-07	-1.376e-07	-0.18441	-4.4061e-09	-6.3444e-09	-0.11592	-0.027235	-7.2195e-09	-6.643e-09	-0.094484	-0.024653	-0.029687	-0.0068128	-7.7028e-09	-0.0060022	327.527	376.721	102.013	255.978	271.984	230.636	224.982	104.956	309.028	431.794	96.070	435.655	103.971	406.429	231.068	111.885	-8191	255	
19612.014	1	1	0	0	0.186	0.18178	0.20964	0.097878	0.18464	0.17056	0.37831	0.1116	0.037552	0.19853	0.35426	0.059173	0.16667	0.12173	0.33012	0.15165	-1.0542	-1.2021	-0.9	-1.4542	-1.0667	-1.2021	-1.4646	-0.95833	-1.2604	-1.2812	-0.92292	-1.6104	-1.3438	-1.1979	-1.6938	-1.0271	356.040	174.256	266.604	312.098	420.496	298.688	95.416	116.858	395.845	95.876	276.544	382.499	361.171	107.334	203.103	423.609	7.0745e-06	1.9573e-05	9.2806e-06	0.038431	1.425e-07	3.236e-08	0.013359	0.012003	1.6262e-07	2.1223e-07	0.040985	0.0042896	0.016213	0.0013642	2.7042e-08	0.0018463	-5.1289e-07	-6.03e-07	-1.2197e-07	-0.18441	-5.7003e-09	-6.3444e-09	-0.12667	-0.028663	-7.1277e-09	-6.5147e-09	-0.085895	-0.023514	-0.032666	-0.0053853	-8.4098e-09	-0.0061665	389.009	174.288	83.626	228.686	296.639	246.733	215.161	89.195	115.561	211.718	199.995	121.727	297.794	233.308	138.727	223.575	-8191	255	
19612.135	1	1	0	0	0.090475	0.092827	0.010451	0.1324	0.12705	0.13034	0.11328	0.1403	0.29369	0.087265	0.104	0.19568	0.040852	0.020859	0.0726	0.037462	-0.72917	-1.3771	-0.95833	-1.4125	-1.1667	-1.1688	-1.5438	-1.0229	-1.2896	-1.3563	-0.88958	-1.5229	-1.2	-1.0562	-1.475	-0.98958	-25.024	19.303	32.216	105.560	248.139	195.964	-3.491	187.991	-17.419	-74.342	25.763	-72.153	224.360	87.318	245.323	58.164	2.4033e-06	1.5669e-05	9.5043e-06	0.039266	1.9545e-07	2.1805e-08	0.087241	0.0054012	3.9106e-08	1.5626e-07	0.021179	0.0024355	0.0029847	0.0001412	1.3777e-07	0.001806	-3.9504e-07	-5.5436e-07	-1.0075e-07	-0.19852	-6.2236e-09	-5.2075e-09	-0.14067	-0.03053	-7.2104e-09	-7.825e-09	-0.092767	-0.023544	-0.032826	-0.0050702	-7.3448e-09	-0.006495	-35.241	103.286	83.898	103.470	140.580	47.882	160.975	-90.736	67.577	210.428	-96.792	209.768	-91.875	82.475	-34.064	116.808	-8191	255	
19612.230	1	1	0	0	0.10408	0.22435	0.095457	0.14088	0.2746	0.11045	0.3562	0.16962	0.19336	0.17069	0.302	0.054016	0.12111	0.090158	0.11535	0.25798	-0.875	-1.5812	-0.82708	-1.2958	-1.2437	-1.1625	-1.7208	-1.1458	-1.1125	-1.4396	-0.99583	-1.2375	-1.3625	-0.97917	-1.3687	-0.90625	300.459	105.018	342.182	253.942	159.800	30.958	368.283	68.457	27.241	33.990	28.155	264.850	206.626	172.639	183.733	176.012	2.3726e-06	5.2327e-06	6.5497e-07	0.014684	9.3383e-08	2.1924e-07	0.025322	0.014615	1.671e-07	7.4385e-08	0.049845	0.0012806	0.00073605	0.0019234	3.3715e-07	0.0044285	-4.0583e-07	-6.4074e-07	-1.2757e-07	-0.18323	-5.7462e-09	-4.5749e-09	-0.12406	-0.032726	-5.9428e-09	-7.147e-09	-0.076275	-0.025703	-0.036497	-0.0047087	-6.4818e-09	-0.0066972	87.144	316.784	82.462	12.894	361.725	18.954	221.887	29.739	119.825	158.191	194.471	169.824	200.585	22.800	48.146	261.100	-8191	255	
19612.326	1	1	0	0	0.2133	0.04832	0.37567	0.26194	0.1274	0.21693	0.2376	0.11154	0.079454	0.25539	0.023982	0.33077	0.15068	0.13397	0.19899	0.1691	-0.67292	-1.1854	-0.98958	-1.2146	-1.2667	-0.89375	-1.3146	-0.97708	-1.0125	-1.625	-0.9375	-1.375	-1.4417	-0.75833	-1.5458	-0.99375	236.447	124.446	255.646	341.247	289.786	188.902	244.700	107.196	204.514	79.430	284.440	309.009	327.523	211.594	68.365	197.098	9.7708e-06	1.0824e-05	3.1065e-06	0.026894	1.6607e-07	2.9385e-08	0.041618	0.009505	2.1919e-07	7.4033e-08	0.021397	0.0057893	0.013509	0.0018961	2.701e-08	0.0063343	-3.5106e-07	-6.9022e-07	-9.9816e-08	-0.1703	-6.5173e-09	-4.4649e-09	-0.12878	-0.029651	-5.2447e-09	-6.9454e-09	-0.097577	-0.021084	-0.036284	-0.0042638	-6.9408e-09	-0.0066846	21.832	129.844	163.330	24.846	208.520	79.565	86.269	21.721	124.443	330.716	76.239	23.491	278.945	333.013	325.014	320.310	-8191	255	
19612.422	1	1	0	0	0.31652	0.11249	0.14941	0.10475	0.18356	0.15465	0.3853	0.26119	0.10671	0.12588	0.18803	0.033231	0.23923	0.1072	0.31578	0.06114	-0.69792	-1.4146	-0.98333	-1.3542	-1.4708	-1.0938	-1.2479	-1.0438	-1.1042	-1.4833	-0.83958	-1.2667	-1.3542	-0.91042	-1.3813	-1.2229	165.827	123.850	239.428	373.897	296.834	278.084	263.408	280.221	156.784	204.066	219.965	296.924	353.933	126.079	383.320	361.519	1.0359e-05	1.5548e-05	8.38e-06	0.053225	1.7157e-07	2.8381e-08	0.062586	0.0091769	1.6498e-07	5.8764e-08	0.028159	0.0046269	0.008805	0.00033141	1.2894e-07	0.0032916	-2.274e-07	-6.8938e-07	-1.0075e-07	-0.16794	-6.297e-09	-4.8775e-09	-0.12211	-0.03311	-5.2907e-09	-7.2661e-09	-0.096718	-0.019285	-0.038093	-0.0033276	-6.3716e-09	-0.008858	356.447	214.324	424.586	214.154	432.327	242.006	314.439	137.975	220.721	329.135	432.962	336.357	339.967	148.013	297.085	254.257	-8191	255	
19612.520	1	1	0	0	0.091545	0.13159	0.28613	0.23966	0.12771	0.10861	0.14995	0.15185	0.31679	0.13754	0.029526	0.076889	0.24679	0.13095	0.094143	0.15085	-0.75625	-1.3917	-0.85625	-1.1479	-1.4104	-0.91042	-1.2313	-1.1583	-1.0688	-1.7396	-0.99167	-1.0521	-1.325	-0.97708	-1.1708	-1.1021	-100.168	-69.472	41.780	49.179	-58.522	24.295	206.743	76.259	-55.481	-146.094	-8.170	70.370	-147.610	83.474	61.666	-24.749	3.0001e-06	1.075e-05	4.9778e-06	0.038173	1.017e-07	1.1701e-07	0.025024	0.016949	8.2687e-08	1.5994e-07	0.070087	0.0090425	0.0090637	0.0028204	2.9313e-07	0.00067636	-2.44e-07	-5.921e-07	-1.1218e-07	-0.15313	-7.0589e-09	-4.9783e-09	-0.10892	-0.03657	-4.7212e-09	-7.3669e-09	-0.09981	-0.016855	-0.0407	-0.0044306	-6.2431e-09	-0.0086053	147.308	-43.420	118.549	185.417	97.445	20.405	-70.236	-129.852	-130.193	-54.573	140.623	-44.971	-44.725	-54.600	-33.988	33.433	-8191	255	
19612.615	1	1	0	0	0.089929	0.13168	0.072466	0.062851	0.45531	0.16523	0.080301	0.15426	0.045125	0.14023	0.17837	0.18316	0.20277	0.019531	0.167	0.31417	-0.51458	-1.5083	-1.1833	-0.93333	-1.3729	-1.025	-1.2708	-1.0875	-0.9375	-1.5979	-1.0146	-1.0604	-1.5458	-0.975	-1.2729	-1.4958	17.698	161.659	-115.322	-41.186	-18.296	-148.427	-115.948	113.462	57.910	132.382	64.919	10.260	-57.545	51.653	-111.368	86.197	2.4259e-06	7.2646e-06	4.3884e-06	0.046483	4.0245e-08	2.0932e-07	0.055061	0.0073971	7.5201e-08	8.3388e-08	0.042755	0.0029086	0.010012	0.00145	1.5479e-07	0.0028267	-1.7345e-07	-5.6106e-07	-1.2687e-07	-0.1209	-6.9671e-09	-4.6666e-09	-0.11413	-0.036021	-4.0782e-09	-6.643e-09	-0.1041	-0.014606	-0.038465	-0.0055893	-5.3066e-09	-0.0089591	41.532	154.638	-97.275	143.578	27.878	79.670	126.789	-134.209	8.978	-82.045	-146.279	203.033	24.338	86.138	-3.425	19.693	-8191	255	
19612.734	1	1	0	0	0.33338	0.1831	0.12117	0.19575	0.16507	0.038512	0.16532	0.059142	0.19042	0.19588	0.059384	0.33037	0.23831	0.44363	0.24831	0.17542	-0.51042	-1.1562	-1.2896	-0.88333	-1.4229	-0.96458	-1.2979	-1.2188	-0.82083	-1.1375	-1.1396	-0.87083	-1.4188	-0.86458	-1.0688	-1.4708	148.450	364.933	424.161	460.459	157.038	174.302	258.181	370.179	376.902	213.203	459.618	337.931	289.212	332.372	192.165	278.071	6.2454e-06	5.685e-06	7.9495e-06	0.029714	4.7665e-08	3.3623e-07	0.021937	0.011233	1.0853e-07	1.5134e-07	0.025502	0.0056049	0.013687	0.00054422	1.8861e-07	0.0031959	-1.7262e-07	-5.7868e-07	-1.278e-07	-0.099967	-6.6733e-09	-4.3824e-09	-0.11039	-0.038876	-4.813e-09	-6.6888e-09	-0.086582	-0.012747	-0.034422	-0.0040506	-5.683e-09	-0.0098184	305.058	368.634	290.097	250.667	387.824	389.085	238.484	135.956	245.998	402.124	209.312	227.398	311.974	199.915	180.645	411.306	-8191	255	
19612.830	1	1	0	0	0.066418	0.16304	0.15697	0.16954	0.20724	0.074391	0.084247	0.35615	0.24303	0.25593	0.2095	0.33336	0.051681	0.21524	0.094076	0.13166	-0.39375	-1.2625	-1.1812	-0.88333	-1.4896	-0.9875	-1.1208	-1.4292	-0.94583	-1.4104	-1.3563	-0.79167	-1.5458	-0.83333	-1.125	-1.5104	103.021	357.242	338.535	184.261	367.346	96.219	344.128	325.092	148.591	142.156	367.110	374.238	356.330	367.465	324.360	219.417	6.3018e-06	3.109e-05	7.8267e-06	0.044466	4.2789e-08	6.1274e-08	0.0093476	0.013158	2.7057e-07	1.0433e-07	0.033789	0.0033741	0.013688	0.0017299	2.6095e-07	0.0019763	-1.5686e-07	-5.4765e-07	-1.285e-07	-0.097144	-7.7932e-09	-4.96e-09	-0.0788	-0.040633	-3.8945e-09	-5.571e-09	-0.12678	-0.0090875	-0.042934	-0.0048755	-4.6272e-09	-0.0091107	132.590	168.093	403.063	355.878	119.795	370.799	437.815	104.242	334.882	267.906	224.400	132.297	441.369	310.690	223.291	375.220	-8191	255	
19612.926	1	1	0	0	0.053264	0.16063	0.12222	0.088589	0.13607	0.16266	0.1538	0.24374	0.34515	0.18962	0.17276	0.02604	0.14136	0.076746	0.21772	0.23344	-0.46042	-1.2646	-1.2354	-0.71458	-1.4146	-1.275	-1.0604	-1.2437	-0.97708	-1.2417	-1.2812	-0.84167	-1.25	-1.1437	-1.0063	-1.2437	13.931	300.053	71.189	213.748	67.987	117.250	300.752	204.375	0.933	262.664	105.535	163.700	132.378	-3.926	175.871	158.764	2.6979e-06	1.1167e-05	5.1269e-06	0.050078	2.1146e-07	9.8155e-08	0.020208	0.0014239	2.8674e-07	7.5971e-08	0.043799	0.0098874	0.013107	0.0015359	1.9095e-08	0.0026145	-1.469e-07	-5.2836e-07	-1.5392e-07	-0.097144	-6.4347e-09	-5.4459e-09	-0.091825	-0.041237	-4.1333e-09	-5.8367e-09	-0.11836	-0.010017	-0.033092	-0.0046994	-3.3786e-09	-0.010185	206.182	17.098	298.025	227.153	76.678	44.253	10.574	-31.224	295.460	190.399	235.633	-25.276	138.801	53.484	282.484	28.137	-8191	255	
19613.021	1	1	0	0	0.084105	0.091945	0.26701	0.28845	0.23401	0.11699	0.49451	0.13028	0.1074	0.14957	0.17624	0.19878	0.10906	0.26529	0.073909	0.25625	-0.52708	-1.325	-1.2021	-0.5625	-1.2458	-1.1417	-1.0271	-1.6	-0.94167	-1.1354	-1.2167	-0.7	-1.2917	-1.1708	-0.91458	-1.3583	76.605	151.041	210.681	268.157	64.612	198.863	68.272	249.504	-71.169	19.756	64.421	98.375	240.732	3.117	99.418	4.071	1.9413e-06	8.8974e-06	3.295e-06	0.0076909	1.3284e-07	6.559e-08	0.028948	0.018127	6.7657e-08	1.8867e-07	0.050458	0.0053712	0.0067442	0.0012815	4.1706e-07	0.0054186	-2.025e-07	-4.6462e-07	-1.9007e-07	-0.084913	-6.9212e-09	-5.5651e-09	-0.071474	-0.036679	-4.6844e-09	-5.1861e-09	-0.1163	-0.011487	-0.03506	-0.0052648	-3.9937e-09	-0.0096667	231.680	-54.374	6.005	211.223	-53.106	32.599	86.667	-73.473	41.396	121.794	-44.308	51.584	117.007	-75.266	-69.294	252.158	-8191	255	
19613.117	1	1	0	0	0.056684	0.053782	0.22471	0.16065	0.29577	0.12561	0.21062	0.29505	0.29431	0.18045	0.2455	0.30374	0.1457	0.085793	0.27822	0.33048	-0.7875	-1.0354	-1.2938	-0.81875	-1.0562	-1.4542	-0.9	-1.3042	-1.025	-1.0542	-1.4604	-0.925	-0.93542	-1.2229	-0.93333	-1.3021	-28.197	101.902	95.933	123.308	96.661	196.922	130.932	77.089	118.305	-48.364	133.256	120.760	111.316	54.932	157.555	166.229	3.1092e-06	2.8405e-06	9.9229e-06	0.045167	1.4629e-07	7.1844e-08	0.037863	0.011478	7.8072e-08	2.9847e-08	0.075301	0.0075486	0.011732	0.0013009	8.0892e-08	0.0015045	-2.9213e-07	-4.4868e-07	-1.6465e-07	-0.083266	-5.8105e-09	-6.106e-09	-0.070823	-0.036954	-5.1253e-09	-3.9308e-09	-0.12146	-0.010317	-0.034422	-0.0060527	-3.7917e-09	-0.0083778	63.690	-62.370	131.261	80.444	182.604	-65.195	-13.889	-122.947	82.147	-113.288	147.836	14.594	-131.960	-56.379	-113.921	180.089	-8191	255	
19613.215	1	1	0	0	0.065429	0.12626	0.22431	0.13568	0.26986	0.29355	0.089477	0.15456	0.03958	0.41619	0.080148	0.18408	0.19592	0.23717	0.10358	0.098571	-0.69167	-0.93958	-1.2875	-0.84583	-1.3792	-1.2396	-0.925	-1.5063	-1.0229	-1.1396	-1.4292	-1.1396	-0.98333	-1.3188	-0.82917	-1.3375	60.984	-0.163	63.055	143.025	150.919	10.919	61.244	200.320	28.307	-53.246	142.042	43.200	214.852	-34.195	150.730	3.751	8.0087e-06	1.0421e-05	4.692e-06	0.071085	1.7001e-07	6.643e-08	0.012061	0.0039693	1.1588e-07	1.0269e-07	0.039056	0.009355	0.0075083	0.0037936	2.0812e-07	0.0031077	-3.3612e-07	-4.1178e-07	-1.7328e-07	-0.10044	-5.3699e-09	-6.381e-09	-0.066264	-0.037887	-5.0702e-09	-3.3719e-09	-0.13589	-0.012567	-0.031176	-0.0057283	-2.7267e-09	-0.0089717	47.476	6.358	-53.962	-73.285	158.301	-27.289	211.956	-77.019	9.663	175.477	-91.476	-49.659	-47.814	60.113	148.058	37.021	-8191	255	
19613.336	1	1	0	0	0.13954	0.21981	0.10631	0.18333	0.25074	0.14259	0.094516	0.14607	0.1946	0.14336	0.021929	0.06398	0.20811	0.092632	0.071884	0.14537	-0.73542	-0.7875	-1.3937	-0.8375	-1.1604	-1.3104	-0.8125	-1.0729	-1.1542	-0.73958	-1.3521	-0.9375	-1.0292	-1.3	-0.78958	-1.0833	59.502	82.078	52.459	153.580	276.609	258.960	36.452	236.722	14.281	148.968	123.997	79.361	229.609	176.325	236.073	53.752	4.9804e-06	2.5353e-06	5.227e-06	0.10796	3.9128e-08	2.9077e-07	0.065098	0.005739	4.8316e-08	2.5038e-07	0.078479	0.0030558	0.0097703	0.0019197	1.9934e-07	0.0032213	-3.6351e-07	-3.2624e-07	-1.5789e-07	-0.11079	-5.0578e-09	-5.8585e-09	-0.078312	-0.032122	-6.1724e-09	-3.8117e-09	-0.12008	-0.013586	-0.021068	-0.0070352	-4.1957e-09	-0.0077966	262.852	17.070	59.869	178.620	38.713	281.537	284.246	17.773	307.334	211.486	353.965	191.577	348.033	34.481	2.609	325.615	-8191	255	
19613.432	1	1	0	0	0.26708	0.17672	0.077583	0.251	0.14156	0.027477	0.22878	0.24212	0.14376	0.068797	0.22956	0.13114	0.23893	0.16473	0.32754	0.24726	-0.9625	-0.87917	-1.3146	-1.1521	-0.99167	-1.5125	-0.925	-1.1417	-1.1	-0.93542	-1.3729	-1.0812	-1.0104	-1.4562	-0.94167	-1.225	270.663	185.361	254.631	105.360	117.088	11.904	34.179	-20.184	195.309	212.184	2.648	215.136	182.678	10.840	60.814	142.226	5.6865e-06	1.3678e-05	1.9944e-06	0.049104	1.2944e-07	1.9417e-07	0.033819	0.0098835	6.0511e-08	3.0708e-07	0.050203	0.0010951	0.008576	0.00097401	2.2687e-07	0.00018473	-3.7347e-07	-2.6837e-07	-1.5066e-07	-0.1336	-4.2225e-09	-7.7104e-09	-0.076195	-0.030859	-5.5295e-09	-4.9296e-09	-0.11235	-0.017335	-0.022345	-0.006442	-4.4619e-09	-0.0066846	-19.614	49.437	189.487	293.402	218.663	132.183	193.812	-13.732	201.164	272.082	218.393	-5.134	250.413	92.875	210.516	94.212	-8191	255	
#DATA ENDS
