BOXY.EXE: ISS Imagent and Oximeter Data Acquisition Program Version 0.80
Ascii Record File

#ACQ INFORMATION
2  Detector Channels 
16  External MUX Channels 
1  Auxiliary Channels 
5000  Waveform (CCF) Frequency (Hz)
1  Waveforms Skipped 
30  Waveforms Averaged 
1  Cycles Averaged 
16  Acquisitions per Waveform 
10.0806  Updata Rate (Hz) 

#FILE INFORMATION
TRUE -- External MUX Channel results are PARSED.
FALSE -- AC DC and Phase are NOT grouped.
TRUE -- Companion Program Settings File CREATED.
FALSE -- AC data not excluded
FALSE -- DC data not excluded
FALSE -- Phase data not excluded
FALSE -- Auxillary Chn. data not excluded
Tab delimiters

#CALIBRATION STATE
TRUE -- Waveform Calibration Values APPLIED.


#AUX CALIBRATION VALUES
Val Type	aux-1	

Term	1.0000e+00	
Factor	0.0000e+00	


#WF CALIBRATION VALUES
A = Detector Channel
Val Type	A-AC1	A-AC2	A-AC3	A-AC4	A-AC5	A-AC6	A-AC7	A-AC8	A-AC9	A-AC10	A-AC11	A-AC12	A-AC13	A-AC14	A-AC15	A-AC16	A-DC1	A-DC2	A-DC3	A-DC4	A-DC5	A-DC6	A-DC7	A-DC8	A-DC9	A-DC10	A-DC11	A-DC12	A-DC13	A-DC14	A-DC15	A-DC16	A-Ph1	A-Ph2	A-Ph3	A-Ph4	A-Ph5	A-Ph6	A-Ph7	A-Ph8	A-Ph9	A-Ph10	A-Ph11	A-Ph12	A-Ph13	A-Ph14	A-Ph15	A-Ph16	

Term	0.00000e+00	0.00000e+00	0.00000e+00	0.00000e+00	0.00000e+00	0.00000e+00	0.00000e+00	0.00000e+00	0.00000e+00	0.00000e+00	0.00000e+00	0.00000e+00	0.00000e+00	0.00000e+00	0.00000e+00	0.00000e+00	0.00000e+00	0.00000e+00	0.00000e+00	0.00000e+00	0.00000e+00	0.00000e+00	0.00000e+00	0.00000e+00	0.00000e+00	0.00000e+00	0.00000e+00	0.00000e+00	0.00000e+00	0.00000e+00	0.00000e+00	0.00000e+00	0.00000e+00	0.00000e+00	0.00000e+00	0.00000e+00	0.00000e+00	0.00000e+00	0.00000e+00	0.00000e+00	0.00000e+00	0.00000e+00	0.00000e+00	0.00000e+00	0.00000e+00	0.00000e+00	0.00000e+00	0.00000e+00	
Factor	1.00000e+00	1.00000e+00	1.00000e+00	1.00000e+00	1.00000e+00	1.00000e+00	1.00000e+00	1.00000e+00	1.00000e+00	1.00000e+00	1.00000e+00	1.00000e+00	1.00000e+00	1.00000e+00	1.00000e+00	1.00000e+00	1.00000e+00	1.00000e+00	1.00000e+00	1.00000e+00	1.00000e+00	1.00000e+00	1.00000e+00	1.00000e+00	1.00000e+00	1.00000e+00	1.00000e+00	1.00000e+00	1.00000e+00	1.00000e+00	1.00000e+00	1.00000e+00	X	X	X	X	X	X	X	X	X	X	X	X	X	X	X	X	

B = Detector Channel
Val Type	B-AC1	B-AC2	B-AC3	B-AC4	B-AC5	B-AC6	B-AC7	B-AC8	B-AC9	B-AC10	B-AC11	B-AC12	B-AC13	B-AC14	B-AC15	B-AC16	B-DC1	B-DC2	B-DC3	B-DC4	B-DC5	B-DC6	B-DC7	B-DC8	B-DC9	B-DC10	B-DC11	B-DC12	B-DC13	B-DC14	B-DC15	B-DC16	B-Ph1	B-Ph2	B-Ph3	B-Ph4	B-Ph5	B-Ph6	B-Ph7	B-Ph8	B-Ph9	B-Ph10	B-Ph11	B-Ph12	B-Ph13	B-Ph14	B-Ph15	B-Ph16	

Term	0.00000e+00	0.00000e+00	0.00000e+00	0.00000e+00	0.00000e+00	0.00000e+00	0.00000e+00	0.00000e+00	0.00000e+00	0.00000e+00	0.00000e+00	0.00000e+00	0.00000e+00	0.00000e+00	0.00000e+00	0.00000e+00	0.00000e+00	0.00000e+00	0.00000e+00	0.00000e+00	0.00000e+00	0.00000e+00	0.00000e+00	0.00000e+00	0.00000e+00	0.00000e+00	0.00000e+00	0.00000e+00	0.00000e+00	0.00000e+00	0.00000e+00	0.00000e+00	-1.39278e+02	-1.18623e+02	-1.35795e+02	-1.82111e+02	-6.77916e+01	-8.69060e+01	-1.58920e+02	-1.62015e+02	-8.07281e+01	-9.04246e+01	-1.70527e+02	-1.72392e+02	-1.77825e+02	-1.76618e+02	-8.58281e+01	-1.49177e+02	
Factor	2.08840e-05	1.12845e-04	4.51227e-05	1.72743e-01	1.01973e-06	1.29749e-06	1.94666e-01	5.53233e-02	1.05499e-06	1.31565e-06	9.43069e-02	3.35196e-02	2.78317e-02	9.88634e-03	1.30373e-06	1.45576e-02	1.37347e-06	1.43500e-06	4.00220e-07	8.51377e-02	1.56614e-08	1.57660e-08	8.99492e-02	2.72962e-02	1.56928e-08	1.57274e-08	4.45325e-02	1.58891e-02	1.37582e-02	4.84121e-03	1.57627e-08	6.86061e-03	X	X	X	X	X	X	X	X	X	X	X	X	X	X	X	X	



#DISTANCE SETTINGS
A = Detector Channel
A-1	A-2	A-3	A-4	A-5	A-6	A-7	A-8	A-9	A-10	A-11	A-12	A-13	A-14	A-15	A-16	

2.5000e+00	3.0000e+00	2.5000e+00	3.0000e+00	2.0000e+00	3.0000e+00	1.5000e+00	3.0000e+00	3.0000e+00	3.0000e+00	3.0000e+00	3.0000e+00	3.0000e+00	3.0000e+00	1.5000e+00	3.0000e+00	

B = Detector Channel
B-1	B-2	B-3	B-4	B-5	B-6	B-7	B-8	B-9	B-10	B-11	B-12	B-13	B-14	B-15	B-16	

1.0000e+01	1.0000e+01	1.0000e+01	1.4400e+00	1.0000e+01	1.0000e+01	1.5100e+00	1.9400e+00	1.0000e+01	1.0000e+01	1.9900e+00	2.4900e+00	2.4100e+00	2.9000e+00	1.0000e+01	2.9800e+00	




#DATA BEGINS
time	group	step	mark	flag	A-AC1	A-AC2	A-AC3	A-AC4	A-AC5	A-AC6	A-AC7	A-AC8	A-AC9	A-AC10	A-AC11	A-AC12	A-AC13	A-AC14	A-AC15	A-AC16	A-DC1	A-DC2	A-DC3	A-DC4	A-DC5	A-DC6	A-DC7	A-DC8	A-DC9	A-DC10	A-DC11	A-DC12	A-DC13	A-DC14	A-DC15	A-DC16	A-Ph1	A-Ph2	A-Ph3	A-Ph4	A-Ph5	A-Ph6	A-Ph7	A-Ph8	A-Ph9	A-Ph10	A-Ph11	A-Ph12	A-Ph13	A-Ph14	A-Ph15	A-Ph16	B-AC1	B-AC2	B-AC3	B-AC4	B-AC5	B-AC6	B-AC7	B-AC8	B-AC9	B-AC10	B-AC11	B-AC12	B-AC13	B-AC14	B-AC15	B-AC16	B-DC1	B-DC2	B-DC3	B-DC4	B-DC5	B-DC6	B-DC7	B-DC8	B-DC9	B-DC10	B-DC11	B-DC12	B-DC13	B-DC14	B-DC15	B-DC16	B-Ph1	B-Ph2	B-Ph3	B-Ph4	B-Ph5	B-Ph6	B-Ph7	B-Ph8	B-Ph9	B-Ph10	B-Ph11	B-Ph12	B-Ph13	B-Ph14	B-Ph15	B-Ph16	aux-1	digaux	

2306.796	1	1	0	512	0.038275	0.075546	0.26923	0.43139	0.18234	0.35897	0.25057	0.41195	0.23401	0.41347	0.23462	0.12473	0.24641	0.21942	0.12966	0.13402	-1.0521	-1.8458	-1.8542	-1.7396	-1.9792	-1.3625	-1.5625	-1.9292	-1.5042	-2.0292	-1.9729	-1.6417	-1.7333	-1.6104	-1.525	-2.1833	88.178	48.956	-27.835	211.891	-107.952	-33.805	141.408	123.996	-38.948	-93.234	172.209	155.165	167.898	-103.855	206.737	153.698	0.00068437	0.00047873	0.00024556	958.3	1.5614e-06	7.2694e-06	1441	298.95	7.399e-06	8.1364e-06	542.73	207.59	88.91	38.983	4.5598e-06	111.62	0.00041012	0.00043	0.00010855	870.75	4.2957e-06	4.732e-06	1312.1	271.41	4.3685e-06	4.6445e-06	490.4	187.57	82.559	35.808	4.2592e-06	100.26	188.645	4.869	-96.101	-129.510	-22.996	-77.696	-129.210	-125.741	-82.549	-43.602	-124.861	-120.818	-121.539	-115.261	0.429	-115.607	-8191	255	
2306.892	1	1	0	0	0.2303	0.22953	0.071141	0.032492	0.14996	0.38933	0.13876	0.02909	0.19136	0.17851	0.2422	0.21408	0.046339	0.31702	0.097363	0.18655	-1.0979	-1.6271	-1.8	-1.6792	-1.9396	-1.7875	-1.5833	-1.8875	-1.2354	-1.6375	-2.1792	-1.8021	-1.9	-1.7687	-1.225	-1.8146	7.594	135.295	103.030	-57.738	170.786	-63.857	43.995	125.142	-125.359	-21.415	-127.765	168.100	-13.470	165.146	-74.783	146.153	0.0006145	5.1202e-05	0.00032798	960.81	2.2082e-06	1.0792e-05	1451.1	297.93	2.414e-06	4.59e-06	543.08	205.72	88.998	38.999	9.1562e-06	110.7	0.0004397	0.00041477	0.00010472	871.91	4.655e-06	4.5887e-06	1315.7	271.46	4.6909e-06	4.5422e-06	488.78	186.72	82.478	35.622	4.1482e-06	99.849	191.044	150.045	-23.942	-129.632	-100.914	-8.916	-129.396	-125.585	-37.423	139.775	-124.997	-120.671	-121.076	-115.296	-77.918	-115.718	-8191	255	
2306.987	1	1	0	0	0.16187	0.1883	0.1164	0.088201	0.17754	0.14913	0.20308	0.27604	0.074198	0.14443	0.16648	0.032579	0.094913	0.077129	0.14797	0.13471	-1.2375	-1.8146	-1.9958	-1.6063	-1.8188	-1.5979	-1.5396	-1.9667	-1.6958	-1.9	-2.2875	-1.7458	-1.8542	-1.8625	-1.5875	-2.1583	67.827	-54.843	165.160	-127.140	124.487	-98.344	194.108	210.586	215.479	-118.611	109.613	-125.900	97.331	-120.629	192.491	168.357	0.00084481	0.00055849	0.00042051	961.99	3.9116e-06	6.5836e-06	1452	298.05	6.6164e-07	1.177e-05	539.76	204.84	89.329	38.779	5.7171e-06	111.22	0.00045564	0.00040846	0.0001023	871.65	4.8348e-06	4.3779e-06	1311.4	271.44	4.8377e-06	4.3383e-06	487.09	186.79	82.677	35.619	3.9943e-06	100.1	191.116	-21.100	-53.652	-129.525	50.523	-54.212	-129.317	-125.483	167.792	-26.360	-124.991	-120.900	-121.409	-115.271	-0.103	-115.674	-8191	255	
2307.085	1	1	0	0	0.28757	0.24336	0.11408	0.17026	0.22902	0.21271	0.11602	0.23507	0.29893	0.1638	0.053786	0.067936	0.27481	0.15558	0.17071	0.095095	-1.2917	-1.9188	-1.9979	-1.9708	-1.6562	-1.7792	-1.6146	-1.9729	-1.9062	-1.7917	-1.9438	-1.8021	-1.5938	-1.9292	-1.7167	-2.0125	152.989	166.145	46.264	-100.459	-121.052	182.243	-114.793	162.879	175.822	18.625	164.937	-85.042	212.400	54.965	143.430	203.125	0.000703	0.00041142	0.00018338	962.61	4.6853e-06	3.7183e-06	1447	299.26	6.0682e-06	1.0266e-05	542.31	207.17	88.369	38.971	3.6244e-06	111.05	0.00045839	0.00039833	0.00010165	874.1	4.8067e-06	4.349e-06	1309.5	272.06	4.6741e-06	4.2904e-06	487.54	187.57	82.205	35.584	4.0335e-06	100.06	198.840	-56.323	41.621	-129.597	-20.155	-31.587	-129.217	-125.412	-31.133	-30.318	-124.957	-120.816	-121.151	-115.363	0.070	-115.802	-8191	255	
2307.204	1	1	0	0	0.059456	0.1197	0.17707	0.15224	0.10519	0.24244	0.35966	0.20232	0.36674	0.09035	0.28249	0.25442	0.14708	0.46962	0.18926	0.21062	-1.3708	-1.4542	-1.85	-1.5458	-1.5688	-1.8333	-1.7979	-1.8708	-1.8312	-1.6208	-2.225	-2.0062	-1.8479	-2.1917	-1.5958	-1.8833	7.327	-22.114	89.356	160.953	-44.968	20.862	205.455	189.031	-46.483	80.057	147.126	145.322	-113.933	92.570	77.965	152.230	0.00065809	0.00057529	0.00020509	960.75	1.3158e-06	5.8712e-06	1449.5	298.05	6.2573e-06	6.7466e-06	544.1	206.91	89.267	39.042	8.4493e-06	112.51	0.00043953	0.00039327	0.00010613	878.37	4.5732e-06	4.1674e-06	1312.9	273.09	4.4825e-06	4.137e-06	489.99	188.66	82.678	35.711	4.2868e-06	101.08	198.423	-36.894	-64.999	-129.172	-6.817	29.432	-129.206	-125.351	-6.838	11.556	-125.272	-120.613	-121.448	-115.133	-84.875	-115.557	-8191	255	
2307.300	1	1	0	0	0.078358	0.080812	0.11442	0.30983	0.20055	0.063742	0.18506	0.021117	0.20057	0.13178	0.021938	0.33448	0.28918	0.14595	0.17523	0.35576	-1.1354	-1.5229	-1.8146	-1.6688	-1.4604	-1.7708	-1.7313	-2.1208	-1.9292	-1.6271	-2.2542	-2.0125	-1.9396	-2.0542	-1.5625	-2.1375	159.388	100.512	-12.531	185.424	-94.200	2.772	119.367	-134.149	78.727	-142.954	208.410	204.319	-78.072	143.160	131.271	154.150	0.00070183	0.00095219	0.00021811	960.1	6.6782e-06	7.5931e-06	1447.6	300.18	2.1644e-06	7.8981e-06	545.22	206.83	88.795	38.967	5.001e-06	111.09	0.00041903	0.00037087	0.00011061	878.02	4.4253e-06	3.9625e-06	1314.7	273.98	4.324e-06	3.9816e-06	491.61	187.99	82.169	35.483	4.6231e-06	99.993	196.968	-62.164	-79.272	-129.821	-0.374	18.254	-129.341	-125.451	-54.411	-56.236	-124.733	-120.956	-121.432	-114.995	-70.686	-115.483	-8191	255	
2307.396	1	1	0	0	0.16043	0.19931	0.1012	0.27631	0.069717	0.2503	0.34284	0.33098	0.19702	0.1605	0.17035	0.18471	0.098315	0.059055	0.37476	0.19759	-1.2708	-1.7104	-1.9208	-1.7208	-1.6104	-1.8979	-1.7646	-1.9458	-1.875	-1.6271	-2.1125	-1.8917	-1.55	-2.0542	-1.45	-1.8312	-99.768	171.477	-126.120	173.293	199.621	-74.108	108.639	142.956	-77.405	37.249	206.386	158.077	-73.169	118.035	-38.221	119.103	0.00075019	0.0002921	0.00019233	966.3	3.7004e-06	3.287e-06	1446.4	298.52	2.5871e-06	6.5834e-06	544.43	205.69	88.766	38.671	6.4599e-06	110.66	0.00041074	0.00036437	0.00011977	877.12	4.2731e-06	3.9588e-06	1317.5	272.69	4.1503e-06	4.0523e-06	491.69	187.1	81.797	35.328	4.8712e-06	99.528	189.550	-39.110	-62.167	-129.471	-25.973	-39.506	-129.327	-125.469	48.594	-34.096	-125.113	-120.723	-121.118	-115.067	39.281	-115.641	-8191	255	
2307.492	1	1	0	0	0.1996	0.073568	0.12347	0.30822	0.20329	0.19606	0.16612	0.053918	0.19722	0.19927	0.29053	0.12006	0.08787	0.35849	0.073487	0.30296	-1.4125	-1.4771	-1.7313	-1.8958	-1.6208	-2.1646	-2.0687	-1.7875	-2.1229	-1.4125	-1.9271	-1.6042	-1.5083	-1.9271	-1.4979	-1.9	21.821	-45.630	57.144	185.095	-77.780	148.520	84.369	168.924	20.268	163.598	118.830	76.039	58.941	134.848	-106.834	203.306	0.00080018	0.00021843	0.00012228	959.82	2.7763e-06	8.2684e-06	1452.5	299.42	7.921e-06	3.286e-06	545.82	206.43	88.738	38.783	1.6834e-06	111.49	0.00039081	0.00038621	0.00012308	872.46	4.1306e-06	4.2622e-06	1320.3	272.64	4.0427e-06	4.3366e-06	492.71	187.13	81.928	35.514	4.825e-06	100	198.942	202.036	-18.080	-129.339	5.647	-50.745	-129.276	-125.160	-19.720	72.927	-125.073	-120.782	-121.045	-115.319	-95.531	-115.531	-8191	255	
2307.588	1	1	0	0	0.22629	0.23461	0.11828	0.22975	0.15674	0.26136	0.48631	0.17149	0.25519	0.17156	0.19262	0.21852	0.24294	0.13685	0.27815	0.45383	-1.4333	-1.5354	-2.0208	-1.9333	-1.3729	-1.8687	-1.8062	-1.8042	-1.8813	-1.4667	-1.9979	-1.9125	-1.5542	-1.9521	-1.6354	-1.6688	139.343	12.222	115.862	87.997	213.031	-17.166	115.160	159.102	116.199	10.586	-117.640	142.553	167.922	109.182	166.219	178.321	0.00079477	0.00029565	0.00034824	961.95	3.4853e-06	8.056e-06	1458.4	299.77	1.9116e-06	1.8221e-06	549.21	208.24	88.773	39.002	7.2721e-06	112.75	0.00038051	0.00041175	0.00012033	874.18	3.9845e-06	4.4529e-06	1323	272.74	3.9181e-06	4.5822e-06	494.91	188.27	82.064	35.827	4.5801e-06	101.03	199.973	87.432	-42.393	-129.381	101.782	-48.309	-129.369	-125.197	-4.097	43.428	-124.925	-120.818	-121.392	-114.926	-25.140	-115.457	-8191	255	
2307.684	1	1	0	0	0.14501	0.16256	0.13373	0.34217	0.056674	0.13955	0.22111	0.28243	0.20038	0.087479	0.24676	0.25271	0.22441	0.062683	0.12895	0.051278	-1.4438	-1.5625	-1.8312	-1.6375	-1.4896	-1.7771	-1.7396	-1.4729	-1.9021	-1.5729	-1.7229	-1.9062	-1.5354	-1.8042	-1.675	-1.5875	202.761	46.195	141.949	131.347	-119.851	77.298	92.657	-115.932	209.099	105.224	165.907	145.905	132.444	162.458	52.372	-98.977	0.00068675	0.00015406	0.0002237	962.83	1.5472e-06	2.2965e-06	1453.2	300.93	6.6118e-06	9.4381e-06	550.32	208	89.853	39.071	3.1848e-06	111.28	0.00038273	0.00042626	0.00011505	873.16	4.0251e-06	4.7498e-06	1319.9	273.69	4.0434e-06	4.7385e-06	495.14	188.44	82.731	36.02	4.338e-06	100.19	198.728	-97.848	-77.622	-129.682	-36.244	-12.065	-129.178	-125.295	-46.455	-1.052	-125.059	-120.765	-121.257	-115.289	-3.310	-115.454	-8191	255	
2307.780	1	1	0	0	0.04999	0.16548	0.2702	0.43289	0.075603	0.3258	0.21304	0.27228	0.11366	0.19836	0.36818	0.19084	0.099691	0.18526	0.15279	0.12863	-1.6	-1.4271	-1.5125	-1.8438	-1.5375	-1.9229	-2.0792	-1.6604	-1.8542	-1.4792	-1.6583	-2.1479	-1.7938	-2.0917	-1.7333	-1.7333	-133.688	-84.400	161.894	172.207	38.528	-64.706	137.804	107.014	-54.256	178.033	179.411	185.660	-105.601	65.155	33.427	-114.842	0.00077752	0.00039326	0.00016044	958.22	7.201e-06	7.5975e-06	1458.4	298.51	3.1543e-06	1.0955e-05	547.96	207.72	89.455	39.099	2.6933e-06	112.68	0.00040425	0.00042826	0.00010939	872.94	4.3616e-06	4.6426e-06	1318.6	272.26	4.3819e-06	4.7638e-06	492.86	188.07	82.875	35.996	4.268e-06	100.56	191.343	-55.367	6.499	-129.438	-77.939	-0.541	-129.434	-125.346	-73.910	-53.995	-124.891	-120.848	-121.049	-114.857	43.740	-115.756	-8191	255	
2307.899	1	1	0	0	0.2378	0.29749	0.13303	0.21766	0.063968	0.080029	0.2595	0.15804	0.054247	0.1207	0.32473	0.25936	0.12615	0.11491	0.085976	0.18349	-1.6833	-1.8104	-1.6	-1.9438	-1.5333	-1.7375	-2.0687	-1.3479	-1.6854	-1.7188	-1.7208	-2.0917	-1.7812	-1.9312	-1.75	-1.6958	-46.929	195.366	95.731	174.714	-105.165	210.763	140.658	199.494	146.665	-143.200	-44.637	183.379	162.641	208.289	37.334	-142.935	0.00080567	0.00065485	0.00023718	955.47	4.7533e-06	8.7722e-06	1446	298.11	2.391e-06	4.7507e-06	546.52	208.54	89.66	39.898	7.4671e-06	112.6	0.0004415	0.00041888	0.00010732	868.98	4.6093e-06	4.569e-06	1313.6	272.39	4.7503e-06	4.5604e-06	492.83	189.16	83.584	36.287	4.1288e-06	101.44	191.258	-43.997	-54.683	-129.594	-61.043	-16.432	-129.043	-125.434	-5.959	-23.502	-124.875	-121.026	-121.487	-115.379	33.762	-115.654	-8191	255	
2307.995	1	1	0	0	0.24091	0.22475	0.1721	0.1861	0.15399	0.25911	0.32852	0.27336	0.27621	0.2268	0.069075	0.29098	0.26931	0.11041	0.088403	0.19434	-1.4958	-1.7208	-1.5438	-2.1083	-1.6125	-1.65	-2.1667	-1.6042	-1.6646	-1.7125	-1.5812	-1.9688	-1.7354	-1.7771	-2.0083	-1.6583	126.707	-89.814	-13.409	177.930	124.666	69.964	184.189	107.260	-112.157	79.992	138.379	176.287	186.951	203.336	96.657	187.024	0.00074889	0.00067378	0.00017182	960.61	3.7078e-06	6.6401e-06	1446.5	300.39	8.0602e-06	3.9503e-06	550.39	209.89	90.402	39.262	9.1722e-06	113.84	0.00046125	0.00040083	0.00010306	872.28	4.7865e-06	4.3168e-06	1314.4	273.48	4.7875e-06	4.3145e-06	494.69	190.02	83.638	36.164	3.9821e-06	101.95	188.628	-49.506	-86.113	-129.530	-55.642	-75.673	-129.101	-125.336	-24.388	31.025	-125.263	-121.066	-120.937	-114.849	3.137	-115.547	-8191	255	
2308.067	1	1	0	0	0.11257	0.10143	0.091483	0.19453	0.3048	0.1797	0.27026	0.12098	0.16974	0.20572	0.070307	0.24093	0.17573	0.18675	0.11836	0.23751	-1.3667	-1.9208	-1.4083	-1.8813	-1.6208	-1.6125	-2.0229	-1.7146	-1.6792	-1.6063	-1.6167	-1.9312	-1.6	-1.6313	-1.8438	-1.8375	207.664	-77.971	157.859	91.712	190.047	75.161	179.430	67.992	-18.974	59.812	72.805	171.328	206.152	166.174	204.006	139.460	0.00081031	0.00034817	0.00022707	957.78	7.4259e-06	5.5677e-06	1453.3	299.74	3.4656e-06	4.7468e-06	547.69	209.14	89.094	39.376	5.5532e-06	111.69	0.00045842	0.00038767	0.00010156	874.05	4.6288e-06	4.2868e-06	1316.7	274.03	4.6916e-06	4.21e-06	494.35	190.09	83.071	35.798	4.0319e-06	100.8	193.801	213.792	-84.201	-129.601	-13.171	-62.961	-129.314	-125.417	67.618	-20.681	-125.241	-120.742	-121.171	-114.833	-133.975	-115.942	-8191	255	
2308.188	1	1	0	0	0.13818	0.092538	0.042632	0.14819	0.14548	0.2202	0.32284	0.1798	0.21778	0.23032	0.11152	0.18723	0.099618	0.15507	0.088152	0.15246	-1.3937	-2.0854	-1.5021	-2.0646	-1.6187	-1.4708	-2.2646	-1.6396	-1.6938	-2.0521	-1.7729	-1.8729	-1.6854	-1.525	-2.0229	-1.8729	-134.642	-120.925	80.169	167.972	104.530	125.537	203.800	-127.386	204.227	-137.412	174.687	176.036	201.219	147.259	-41.543	151.946	0.00070395	0.0004086	0.00027855	967.51	6.0969e-06	1.098e-05	1457	299.77	4.3295e-06	7.6098e-06	547.81	206.81	88.523	38.711	3.0796e-06	110.71	0.00044928	0.00038536	0.00010508	880.63	4.636e-06	4.2795e-06	1323.2	274.5	4.5487e-06	4.1184e-06	493.35	188.18	82.376	35.433	4.3247e-06	99.89	193.970	-82.464	-87.209	-129.688	13.407	-19.083	-129.443	-125.508	-34.793	-20.228	-124.702	-120.919	-121.131	-115.067	-21.754	-115.701	-8191	255	
2308.284	1	1	0	0	0.11986	0.23788	0.18101	0.13343	0.11467	0.1639	0.29785	0.16319	0.26766	0.22953	0.22394	0.32344	0.1523	0.39541	0.21697	0.13178	-1.2167	-1.6021	-1.4875	-1.9917	-1.7125	-1.6229	-2.4417	-1.8813	-1.8563	-1.8271	-1.5938	-1.9125	-1.8021	-1.6104	-1.9646	-1.9688	-140.603	-47.343	-24.926	189.512	56.281	202.379	210.129	103.856	-54.229	-8.706	170.131	180.686	-84.408	196.002	-131.621	188.587	0.00081113	0.00065913	0.00014935	964.82	5.6517e-06	6.9674e-06	1462.6	298.56	6.3935e-06	8.8099e-06	545.02	206.5	88.466	38.841	3.3762e-06	111.11	0.00043495	0.00037775	0.00011251	879.91	4.4267e-06	4.073e-06	1322.3	274.07	4.3806e-06	4.0431e-06	493.47	187.93	82.344	35.409	4.7678e-06	99.849	188.416	-45.010	108.870	-129.307	-17.818	20.409	-129.014	-125.179	3.228	-26.513	-124.747	-120.795	-121.331	-114.973	197.416	-115.786	-8191	255	
2308.380	1	1	0	0	0.1755	0.034841	0.20181	0.083486	0.0089614	0.16586	0.26442	0.35484	0.41182	0.16874	0.1494	0.26296	0.084551	0.13985	0.28678	0.1887	-1.1146	-2.1729	-1.5104	-1.9438	-2.0312	-1.6812	-2.0563	-1.75	-1.6458	-1.7979	-1.7333	-1.9125	-1.9208	-1.4458	-1.6479	-1.6854	99.788	47.045	-131.957	209.506	8.942	132.744	132.415	189.013	40.999	15.236	145.886	203.013	-93.783	-127.081	178.165	128.932	0.00074438	0.00029582	9.721e-05	961.71	4.9291e-06	5.4367e-06	1451.7	299.08	7.3136e-06	3.051e-06	546.27	207.68	89.282	38.671	6.8314e-06	110.93	0.00042917	0.00037168	0.00012485	879.97	4.377e-06	4.1607e-06	1326.1	273.92	4.4111e-06	4.2456e-06	496.21	188.83	82.422	35.463	5.027e-06	99.977	191.765	24.810	-85.812	-129.468	-13.825	-24.754	-129.183	-125.465	-23.661	18.044	-124.935	-120.782	-120.920	-114.857	0.394	-115.370	-8191	255	
2308.476	1	1	0	0	0.27562	0.10651	0.13334	0.13518	0.11036	0.21021	0.28882	0.076258	0.25592	0.27884	0.25365	0.077375	0.019992	0.41627	0.16346	0.12225	-1.075	-1.6167	-1.5396	-1.9417	-1.8563	-1.4312	-1.9167	-1.9083	-1.1688	-1.8604	-1.7625	-1.9188	-2.2438	-1.575	-1.8208	-2.0604	-17.966	156.207	34.346	165.277	-141.437	-122.372	83.105	-61.857	209.035	29.458	211.441	-142.519	-16.499	115.135	14.702	180.932	0.00074559	0.00065015	0.00021769	965.57	4.1772e-06	1.5351e-06	1452.5	300.94	4.82e-06	7.0755e-06	549.7	207.59	89.054	38.726	6.986e-06	111.46	0.0004188	0.00040024	0.0001302	881.4	4.3238e-06	4.5257e-06	1329.4	274.2	4.3603e-06	4.5706e-06	497.21	188.7	82.34	35.632	5.095e-06	100.14	188.332	-97.046	-26.164	-129.695	15.091	65.042	-129.303	-125.194	-67.952	-56.045	-124.908	-120.944	-120.930	-115.127	18.288	-115.621	-8191	255	
2308.597	1	1	0	0	0.14933	0.15423	0.28815	0.19866	0.044216	0.19655	0.21661	0.10728	0.10152	0.19745	0.27731	0.39265	0.31996	0.16553	0.082614	0.33842	-1.175	-1.9271	-1.6063	-1.6187	-1.8771	-1.7188	-2.1562	-1.825	-1.3542	-1.625	-1.6854	-1.6021	-1.9833	-1.7021	-1.9292	-2.1375	117.221	21.099	94.648	174.550	-135.663	154.330	50.725	199.014	22.443	99.981	-139.301	-132.473	196.919	184.931	201.059	142.279	0.00077757	0.00061123	0.0001212	967.03	5.6612e-06	4.7704e-06	1463.9	300.21	2.2462e-06	4.3501e-06	546.81	207.31	89.231	38.93	5.699e-06	111.26	0.00040913	0.00043302	0.00012677	880.82	4.1964e-06	4.8694e-06	1329.2	274.56	4.2736e-06	4.9019e-06	494.68	188.27	82.616	35.891	4.977e-06	99.87	192.016	-5.607	-74.232	-129.657	12.093	-14.816	-129.300	-125.222	-19.145	-84.754	-124.889	-120.798	-121.040	-114.860	62.627	-115.565	-8191	255	
2308.669	1	1	0	0	0.3066	0.1765	0.083849	0.089059	0.072032	0.1011	0.24999	0.14389	0.14185	0.23801	0.054357	0.21257	0.28476	0.11164	0.074564	0.2489	-1.0438	-1.8833	-1.4042	-1.5625	-1.8542	-1.6625	-1.9125	-1.7687	-1.4562	-1.8208	-1.8563	-1.6646	-2.0167	-1.85	-1.6208	-2.1708	-62.672	-105.352	-2.619	183.231	-44.077	37.062	-126.632	139.844	-75.447	84.031	11.963	205.322	150.979	-17.080	138.998	137.545	0.00079203	0.00079282	0.00022614	961.42	2.8788e-06	7.1371e-06	1461	299.21	3.9411e-06	9.9292e-06	546.78	205.92	88.971	38.834	6.2961e-06	110.73	0.00042077	0.00046759	0.00012513	878.11	4.3397e-06	5.2334e-06	1325.6	273.42	4.4411e-06	5.1949e-06	494.01	187.57	82.526	35.765	4.795e-06	99.479	186.412	-49.752	-49.736	-129.186	57.380	13.393	-129.234	-125.435	-114.421	-30.857	-125.211	-121.014	-120.877	-114.890	-25.433	-115.658	-8191	255	
2308.765	1	1	0	0	0.029871	0.15056	0.11322	0.29637	0.14682	0.063253	0.04659	0.083466	0.22184	0.12324	0.20069	0.16532	0.1109	0.15178	0.19445	0.44271	-1.0083	-1.8167	-1.6458	-1.7208	-1.9833	-1.6854	-1.775	-2.0979	-1.6313	-2.0375	-1.9333	-1.5792	-1.9833	-1.8292	-1.6063	-2.0875	13.349	-25.023	-61.753	7.516	13.652	196.559	166.060	17.024	79.824	99.071	182.553	131.041	-13.445	-83.612	150.409	177.953	0.00075673	0.00080109	0.00049837	965.17	5.7059e-06	9.0238e-06	1452.9	299.46	6.089e-06	3.6326e-06	545.95	207.41	89.124	38.884	8.6377e-06	111.14	0.00043981	0.00048111	0.00012032	878.28	4.6393e-06	5.2691e-06	1324.4	273.63	4.8041e-06	5.1346e-06	494.32	188.05	82.817	35.847	4.6155e-06	99.734	187.316	-104.231	-76.664	-129.434	-43.480	-52.195	-129.078	-125.303	-81.815	22.202	-125.086	-120.695	-120.914	-115.219	-16.174	-115.620	-8191	255	
2308.885	1	1	0	0	0.10742	0.18121	0.1525	0.074999	0.24461	0.17558	0.13492	0.038364	0.48927	0.25676	0.13434	0.14131	0.092206	0.12603	0.082098	0.35387	-1.0646	-1.7708	-1.7938	-1.4708	-1.7958	-1.5938	-1.7042	-2.05	-1.4333	-1.9542	-2.0146	-1.7208	-2.2771	-1.8833	-1.6479	-2.0708	160.682	141.944	43.156	205.127	64.936	131.929	153.955	-122.289	-103.580	-88.832	151.178	-142.231	-129.450	194.824	10.893	119.697	0.000811	0.0011602	0.00014777	962.23	2.5896e-06	7.4122e-06	1459.1	300.53	9.8069e-06	3.901e-06	550.55	207.51	89.39	38.926	2.3289e-06	111.76	0.00047275	0.00045748	0.00011384	875.96	4.9989e-06	4.9884e-06	1325.6	273.86	5.1182e-06	4.9447e-06	495.62	188.88	83.389	35.89	4.5564e-06	100.55	189.898	-27.924	-115.407	-129.517	-15.215	19.764	-129.189	-125.789	-81.711	-41.811	-125.264	-120.755	-121.319	-115.238	41.103	-115.599	-8191	255	
2308.980	1	1	0	0	0.1192	0.10022	0.038209	0.11508	0.053818	0.064722	0.1921	0.22418	0.021678	0.051272	0.10508	0.25415	0.37058	0.087286	0.11593	0.36966	-1.2167	-1.8208	-1.9083	-1.6396	-1.8229	-1.6146	-1.6979	-1.8625	-1.7792	-1.8708	-2.0687	-1.6938	-1.975	-1.9083	-1.5875	-2.1312	-110.564	144.721	212.239	-19.588	105.624	204.958	164.748	93.550	155.051	154.153	215.059	181.915	209.401	-91.786	-29.741	200.717	0.0008516	0.0010436	0.00038919	960.38	3.2549e-06	4.3748e-06	1454.7	300.17	7.2137e-06	1.243e-05	549.19	207.83	90.036	38.931	4.403e-06	110.42	0.0005021	0.00044685	0.00011196	877.16	5.3143e-06	4.8408e-06	1323.5	273.92	5.1917e-06	4.7278e-06	494.37	188.71	83.584	35.628	4.3081e-06	99.878	191.054	-16.037	-20.483	-129.603	-84.223	22.619	-129.130	-125.373	13.153	12.170	-124.994	-121.072	-120.924	-115.346	-117.751	-115.707	-8191	255	
2309.076	1	1	0	0	0.23296	0.016827	0.1042	0.33776	0.081677	0.22438	0.25109	0.26761	0.29153	0.07681	0.13607	0.19787	0.24941	0.31371	0.057237	0.25142	-1.3396	-1.725	-2.0958	-1.7042	-1.8687	-1.9875	-1.775	-2.0667	-1.5646	-1.75	-2.0042	-1.7375	-1.8813	-2.0187	-1.4375	-2.1208	171.353	-141.985	158.841	181.627	7.240	193.247	175.847	-122.926	35.055	200.881	-101.109	154.785	139.716	-106.712	-92.624	164.075	0.00074732	0.00045266	0.00024703	958.65	7.0089e-06	1.2749e-05	1454.6	300.17	8.0567e-06	5.7781e-06	550.52	207.25	89.262	38.712	7.0247e-06	110.77	0.00049147	0.00042248	0.00010746	877.3	5.1158e-06	4.5884e-06	1320.5	273.76	4.9928e-06	4.5786e-06	494.01	188.62	82.957	35.457	4.3032e-06	99.761	194.844	-102.367	-39.086	-129.576	-47.114	-2.678	-129.211	-125.355	-52.035	29.862	-125.190	-120.736	-121.190	-115.124	-24.335	-115.541	-8191	255	
2309.196	1	1	0	0	0.12442	0.029013	0.28576	0.42717	0.22251	0.20295	0.073728	0.09998	0.034758	0.16176	0.19009	0.17957	0.27795	0.1128	0.12037	0.26943	-1.2917	-1.6417	-1.9021	-1.6667	-1.7125	-1.9146	-1.4833	-1.9083	-1.7021	-1.5708	-1.9312	-1.6917	-1.5562	-2.0646	-1.3521	-2.0167	-83.229	178.364	144.668	124.684	23.433	206.776	199.680	178.463	102.358	-26.458	141.275	87.903	169.321	123.004	202.862	215.483	0.0006187	0.00050983	8.7913e-05	961.45	5.4035e-06	7.2128e-06	1454.7	298.85	7.41e-06	9.7714e-06	547.52	206.74	89.07	38.631	3.308e-06	110.99	0.00046496	0.0004108	0.0001089	879.11	4.8954e-06	4.4352e-06	1322.6	274.22	4.9175e-06	4.4562e-06	494.55	188.84	82.659	35.506	4.6534e-06	100.2	192.120	109.850	-51.153	-129.823	44.343	5.647	-129.377	-125.343	33.096	34.739	-125.187	-120.659	-121.453	-115.257	213.541	-115.455	-8191	255	
2309.293	1	1	0	0	0.15393	0.068996	0.22532	0.28766	0.19089	0.059337	0.10933	0.2076	0.13865	0.23625	0.10733	0.044962	0.15109	0.13152	0.089921	0.17651	-1.5167	-1.4521	-2.0104	-1.6958	-1.8042	-2.1063	-1.8292	-1.9083	-1.8479	-1.5396	-2.0458	-1.6646	-1.6812	-1.7875	-1.4125	-1.9958	83.096	-27.381	16.034	131.009	-12.776	97.107	-136.720	-15.963	-125.732	215.656	101.595	-58.329	194.534	-26.524	85.450	129.219	0.00067664	0.00047641	0.00010345	961.6	6.1762e-06	6.0684e-06	1463.6	302.02	9.4971e-06	1.1205e-05	546.68	207.39	89.48	38.927	6.3568e-07	111.54	0.00045466	0.00040236	0.00011768	880.97	4.7272e-06	4.3342e-06	1325.8	275.74	4.7743e-06	4.3574e-06	496.67	189.29	82.89	35.593	4.9839e-06	100.77	184.368	-130.827	-102.865	-129.415	-13.611	-20.143	-129.491	-125.359	-13.674	4.835	-125.056	-120.592	-121.234	-115.377	-125.880	-115.752	-8191	255	
2309.364	1	1	0	0	0.17892	0.1688	0.057171	0.24269	0.15632	0.39646	0.14029	0.23606	0.33316	0.22238	0.29668	0.17328	0.12188	0.2251	0.32236	0.24387	-1.4167	-1.4417	-1.9646	-1.8521	-1.5354	-1.9708	-1.9604	-1.9042	-2.0021	-1.5458	-1.9979	-1.9813	-1.6104	-1.8708	-1.6354	-1.7875	65.292	-124.550	-70.040	113.000	-50.815	132.200	102.257	147.909	144.490	197.703	145.169	-129.265	-130.351	-112.945	-40.658	97.502	0.0007667	0.00012229	0.0001634	961.44	2.0816e-06	8.601e-06	1460.1	299.82	1.0852e-05	9.009e-06	551.2	209.35	89.534	38.941	2.865e-06	111.75	0.00045129	0.00040366	0.0001299	882.03	4.7609e-06	4.414e-06	1332.4	275.39	4.6233e-06	4.4652e-06	498.57	190.1	82.979	35.707	5.3961e-06	100.48	186.888	-30.544	-44.935	-129.579	120.429	-42.909	-129.015	-125.341	-57.093	-23.257	-124.910	-120.739	-121.148	-115.250	-20.913	-115.831	-8191	255	
2309.460	1	1	0	0	0.1947	0.30108	0.31987	0.16316	0.10345	0.14572	0.18574	0.11105	0.16483	0.052302	0.24193	0.32274	0.16275	0.18302	0.10694	0.10655	-1.2021	-1.4062	-1.9604	-1.9667	-1.5042	-2.0687	-1.9729	-1.8229	-2.0042	-1.625	-2.0687	-1.9625	-1.6542	-2.0646	-1.6625	-1.8083	42.996	-42.702	1.795	-96.363	-66.213	135.104	194.397	209.326	202.782	-35.593	196.346	173.956	189.973	-131.165	-17.499	189.981	0.00073882	0.00057538	0.00024646	970.7	5.9103e-06	8.217e-06	1462.7	299.81	1.518e-06	7.4637e-06	549.8	206.51	89.145	38.718	9.8531e-06	110.08	0.00043817	0.00042148	0.00013593	884.95	4.5822e-06	4.5726e-06	1332.3	274.26	4.48e-06	4.7364e-06	498.41	188.25	82.572	35.53	5.3476e-06	99.471	197.773	-11.438	-102.754	-129.517	-20.140	-81.736	-129.090	-125.435	4.021	-57.166	-124.736	-120.995	-121.163	-115.094	-9.304	-115.428	-8191	255	
2309.581	1	1	0	0	0.089614	0.14888	0.15756	0.15218	0.085781	0.14864	0.13645	0.086692	0.1237	0.24555	0.31734	0.041597	0.085295	0.20928	0.072665	0.42378	-1.5812	-1.4646	-1.8208	-1.8396	-1.7167	-2.0792	-1.9979	-2.0896	-2.1229	-1.5375	-1.9833	-1.8021	-1.275	-1.8667	-1.725	-1.7354	86.086	-5.541	11.167	173.530	18.335	-130.791	-131.032	-114.002	-81.529	-87.468	-111.049	-109.703	-125.375	-94.413	-32.910	173.773	0.00074671	0.00032292	0.00012024	966.71	2.6283e-06	3.2007e-06	1460.9	301.25	9.8564e-06	9.2062e-06	547.54	206.9	88.903	38.839	6.5855e-06	110.92	0.00042111	0.00044916	0.00013583	879.54	4.4543e-06	4.9858e-06	1330	274.69	4.4099e-06	5.1015e-06	496.72	188.32	82.654	35.921	5.1363e-06	99.942	183.074	143.443	-91.492	-129.439	13.177	-26.331	-129.316	-125.272	-45.602	191.641	-125.091	-120.759	-120.957	-114.930	-35.316	-115.700	-8191	255	
2309.677	1	1	0	0	0.078669	0.2324	0.33135	0.3475	0.17306	0.23345	0.1463	0.19045	0.2497	0.2004	0.2798	0.28751	0.097473	0.072969	0.097442	0.17406	-1.7479	-1.6104	-1.9917	-2.0792	-1.5438	-2.05	-1.9479	-1.7083	-2.0354	-1.6917	-1.9958	-2.0125	-1.4188	-1.8771	-1.6833	-1.8563	-137.469	-115.305	-74.791	178.634	-27.631	-31.380	205.437	125.686	201.394	-139.361	173.850	-122.068	49.633	40.290	-24.391	169.347	0.00080319	0.00020941	0.00013029	961.4	5.7282e-06	2.8853e-06	1458.8	300.05	5.0263e-06	4.2387e-06	548.65	207.48	89.135	38.857	7.9031e-06	111.28	0.00042352	0.00048398	0.00013042	878.73	4.5163e-06	5.2635e-06	1327.1	274.32	4.4565e-06	5.3144e-06	496.6	188.21	82.79	35.903	4.9451e-06	100.3	189.947	-10.940	-56.757	-129.210	-10.764	47.327	-129.183	-125.137	-96.338	-16.789	-125.041	-120.560	-121.046	-115.179	-21.616	-115.428	-8191	255	
2309.773	1	1	0	0	0.13533	0.26086	0.38332	0.11143	0.18621	0.47981	0.45712	0.26884	0.085138	0.10447	0.21074	0.18644	0.18145	0.031537	0.24399	0.23978	-1.525	-1.4625	-1.3208	-2.0687	-1.5979	-2.0271	-2.0625	-1.6146	-1.5729	-1.5104	-1.5875	-1.9667	-1.3813	-1.8083	-1.6375	-1.8521	47.942	-4.909	-98.665	187.564	38.364	10.031	185.660	168.925	119.456	-142.581	145.821	151.571	-87.681	-1.400	208.661	147.139	0.00077714	0.0010388	0.00042869	960.24	4.7471e-06	7.0598e-06	1460.3	300.66	2.5757e-06	4.0951e-06	554.39	208.06	88.943	38.956	4.4414e-06	111.53	0.00044316	0.00049011	0.00012355	875.98	4.8018e-06	5.3309e-06	1329.3	273.78	4.7329e-06	5.2721e-06	497.85	188.94	83.186	35.933	4.7276e-06	100.05	186.722	-37.039	-44.706	-129.376	-43.218	-24.878	-129.109	-125.211	-110.806	2.698	-124.864	-120.703	-120.751	-115.094	-17.090	-115.728	-8191	255	
2309.894	1	1	0	0	0.20854	0.23939	0.21891	0.18986	0.20257	0.21309	0.17469	0.31448	0.073871	0.17624	0.29435	0.12765	0.36574	0.27312	0.045011	0.41913	-1.4542	-1.6688	-1.5729	-1.8854	-1.5833	-1.7708	-2.0021	-1.9042	-2.1208	-1.85	-1.9937	-2.1875	-1.7979	-1.8563	-2.0521	-1.6042	190.493	-22.260	0.211	189.375	208.461	-61.470	174.018	-8.868	-79.681	14.553	172.145	163.977	203.224	96.520	168.386	150.137	0.00066103	0.00065224	0.00010655	962.47	2.472e-06	1.6694e-05	1463.1	299.74	2.6213e-06	5.2284e-06	550.89	207.84	89.406	38.97	8.5623e-06	110.49	0.00046979	0.00047048	0.00011842	875.29	5.2021e-06	5.1237e-06	1327.4	273.77	5.139e-06	5.1443e-06	496.3	188.14	83.53	35.752	4.5725e-06	99.316	197.301	-70.813	-88.652	-129.341	-20.002	21.674	-128.995	-125.269	-97.622	-32.726	-124.932	-120.943	-121.048	-115.134	-71.835	-115.399	-8191	255	
2309.966	1	1	0	0	0.062874	0.10491	0.27385	0.23028	0.064683	0.28874	0.20122	0.21145	0.057057	0.14622	0.041034	0.089948	0.108	0.20416	0.16284	0.083489	-1.3667	-1.5812	-1.4354	-1.8312	-1.7167	-1.5729	-2.0896	-1.7458	-1.925	-1.7979	-1.6104	-2.2313	-1.6021	-1.7521	-1.9354	-1.5938	206.305	-112.934	-76.966	106.402	174.139	200.549	142.439	212.896	120.226	-7.331	180.261	-63.039	-44.140	-67.006	82.637	-128.269	0.00079055	0.0010412	0.00022481	962.36	1.0366e-05	5.0427e-06	1458.5	299.65	3.6736e-06	9.7708e-06	546.55	206.59	88.59	38.72	9.196e-06	110.11	0.00050163	0.00045791	0.00011859	876.44	5.3096e-06	4.9372e-06	1322	273.87	5.291e-06	4.7589e-06	493.55	187.99	82.928	35.378	4.4012e-06	98.99	192.483	-14.793	-29.801	-129.709	70.871	-3.038	-129.198	-125.404	-60.519	21.360	-124.769	-120.785	-121.115	-115.114	58.377	-115.538	-8191	255	
2310.060	1	1	0	0	0.20597	0.052232	0.32889	0.25158	0.10691	0.067842	0.32724	0.067749	0.091543	0.29549	0.14916	0.26401	0.22667	0.054027	0.1567	0.12879	-1.3583	-1.5417	-1.3438	-1.8917	-1.6396	-1.2729	-1.9479	-1.75	-1.8292	-1.7667	-1.4937	-2.0729	-1.7771	-1.7625	-1.7521	-1.5854	-78.481	110.170	9.140	209.255	139.185	73.600	179.227	102.582	69.052	38.363	-126.637	134.667	-79.312	178.984	111.998	196.432	0.00074568	0.00062369	0.00019525	965.54	6.7375e-06	2.3834e-06	1465.9	296.64	3.7801e-06	8.241e-06	548.39	206.64	88.849	38.194	8.1671e-06	110.8	0.00050514	0.0004339	0.00011235	880	5.214e-06	4.7222e-06	1325.8	273.99	5.2243e-06	4.6966e-06	494.93	188.31	82.889	35.303	4.4123e-06	99.754	195.946	-24.468	-98.511	-129.349	10.308	-139.660	-129.288	-125.148	-100.241	0.060	-125.101	-120.839	-121.167	-115.069	98.246	-115.265	-8191	255	
2310.158	1	1	0	0	0.21032	0.20406	0.062189	0.055032	0.17787	0.13957	0.12379	0.12899	0.11079	0.25204	0.19399	0.20557	0.04746	0.12648	0.28103	0.41675	-1.3208	-1.4625	-1.3833	-1.825	-1.4375	-1.7083	-1.8917	-1.8125	-1.5958	-1.8833	-1.5417	-1.7812	-1.7563	-1.5917	-1.8125	-1.5958	196.718	153.679	-66.951	-31.096	64.721	-74.314	141.144	155.793	-109.165	-10.356	-130.856	147.554	-119.887	110.681	172.389	129.532	0.00068029	0.00054412	8.7843e-05	962.84	1.5558e-06	5.219e-06	1461.3	300.27	8.0093e-06	8.75e-06	550.21	208.11	89.315	38.698	7.2379e-06	110.88	0.00048371	0.00041989	0.00011412	881.42	5.0108e-06	4.6561e-06	1328.1	275.54	5.0618e-06	4.5962e-06	497.01	190.05	82.951	35.418	4.7232e-06	100.02	194.906	-27.888	-137.808	-129.781	-7.142	8.595	-129.013	-125.290	-11.154	-1.406	-125.104	-120.739	-120.657	-115.205	20.017	-115.630	-8191	255	
2310.277	1	1	0	0	0.042353	0.13904	0.19642	0.10427	0.1815	0.16604	0.18067	0.32374	0.18628	0.26311	0.18093	0.13843	0.28798	0.19805	0.13394	0.23354	-1.0625	-1.9729	-1.2125	-1.7667	-1.7333	-1.4937	-2.0208	-1.6646	-1.675	-1.9813	-1.4708	-1.975	-1.8687	-1.6771	-2.1542	-1.9729	207.972	72.791	-37.763	196.609	-77.362	61.916	114.149	184.649	50.654	176.047	140.569	63.523	-119.425	134.376	-106.063	186.908	0.00067065	0.00023196	0.00011798	968.53	7.1581e-06	9.86e-06	1464.8	298.95	3.4884e-06	6.6663e-06	548.42	207.01	88.866	38.514	1.0592e-05	110.59	0.0004773	0.00041548	0.0001229	885.06	4.9353e-06	4.6045e-06	1331	275.3	4.8567e-06	4.4654e-06	497.58	189.18	82.788	35.369	5.0632e-06	99.873	185.215	120.486	191.661	-129.531	4.723	-35.171	-129.028	-125.214	-89.905	1.966	-124.889	-120.895	-121.002	-114.861	-2.843	-115.773	-8191	255	
2310.373	1	1	0	0	0.15685	0.22437	0.023593	0.31907	0.1451	0.09061	0.28382	0.25399	0.33733	0.32766	0.33873	0.080908	0.29778	0.26136	0.19345	0.61029	-1.2396	-1.8167	-1.2	-1.8625	-1.9562	-1.3083	-2.1437	-1.6208	-1.4062	-1.7708	-1.5875	-1.9042	-1.6437	-1.4937	-1.8208	-1.9333	167.329	129.271	-115.489	214.457	-142.927	126.673	86.624	88.321	70.136	-102.334	88.609	-114.534	216.701	169.795	107.359	126.626	0.00072545	0.00060812	0.00019592	970.18	3.6378e-06	1.1415e-05	1461.5	299.84	2.1931e-06	3.2444e-06	547.5	208	89.827	38.747	4.5884e-06	110.58	0.00045481	0.00040388	0.00012926	882.3	4.6887e-06	4.4545e-06	1329.7	275.3	4.6499e-06	4.4037e-06	497.72	188.77	82.645	35.475	5.3071e-06	99.699	193.390	-49.484	-54.389	-129.838	14.443	6.479	-129.224	-125.212	114.186	119.477	-124.857	-120.773	-120.798	-115.336	129.527	-115.783	-8191	255	
2310.469	1	1	0	0	0.22797	0.1369	0.090267	0.12284	0.16631	0.086478	0.20609	0.36555	0.15044	0.13122	0.19999	0.3352	0.090764	0.14826	0.13382	0.4963	-1.1083	-2.0187	-1.5083	-1.7833	-1.8771	-1.5396	-1.9937	-1.7604	-1.4104	-1.9062	-1.5896	-1.6167	-1.8729	-1.5208	-1.6437	-1.8729	199.999	203.559	-117.029	192.969	-15.108	-93.253	-83.754	161.791	87.940	119.340	158.526	189.012	-54.419	81.223	-63.280	154.613	0.0006007	0.00018886	0.00017342	967.88	6.2674e-06	5.5573e-06	1455.8	300.18	3.9826e-06	5.1362e-06	551.24	207.68	89.58	38.671	2.7661e-06	111.38	0.00043965	0.0004121	0.00013455	880.09	4.5216e-06	4.5589e-06	1329.3	275.29	4.5125e-06	4.6009e-06	499.15	189	82.751	35.569	5.3364e-06	99.861	194.639	-99.364	-68.977	-129.299	16.384	-38.394	-129.054	-125.088	-52.438	-83.702	-125.095	-120.851	-121.354	-115.219	-129.484	-115.621	-8191	255	
2310.565	1	1	0	0	0.32597	0.19138	0.48715	0.21636	0.16823	0.13461	0.24439	0.12514	0.045024	0.13535	0.2137	0.10071	0.12038	0.10166	0.23262	0.22636	-0.90833	-1.7354	-1.4958	-1.925	-1.9646	-1.6542	-2.0604	-1.9042	-1.5083	-1.8229	-1.8458	-1.8354	-2.0375	-1.7792	-1.7333	-2.2458	-59.897	105.284	-48.737	-118.072	3.992	148.226	159.804	205.638	28.783	147.930	172.233	129.589	138.888	-55.110	143.719	127.854	0.00079147	0.00074375	0.0004338	964.65	5.2241e-06	2.0301e-06	1462.3	301.42	7.0184e-06	3.7855e-06	550.21	208.78	89.032	39.08	5.3997e-06	112.61	0.00043059	0.00043631	0.00013406	879.47	4.4087e-06	4.9456e-06	1332.6	275.42	4.4244e-06	5.0621e-06	499.43	190	82.671	35.972	5.0713e-06	100.95	190.441	-43.871	-32.500	-129.633	-6.477	201.797	-129.287	-125.291	-16.629	36.253	-124.917	-120.762	-121.139	-114.797	-46.240	-115.536	-8191	255	
2310.661	1	1	0	0	0.12008	0.1059	0.21921	0.4015	0.17934	0.24809	0.15721	0.4189	0.18591	0.22253	0.15456	0.049842	0.29616	0.1946	0.080273	0.16999	-1.0938	-1.6583	-1.4375	-1.4062	-1.8271	-1.5271	-1.8833	-1.9937	-1.55	-1.9667	-1.6521	-1.8396	-1.9104	-1.7833	-1.8729	-2.1229	169.745	13.182	-131.603	129.877	-125.309	169.670	171.424	106.505	212.870	108.528	-100.164	169.892	139.929	56.259	140.816	212.807	0.00080201	0.00015441	0.0002834	967.6	1.8887e-06	7.5416e-06	1463.8	301.72	2.595e-06	5.2671e-06	551.54	208.15	89.376	38.825	9.3453e-06	110.96	0.00042321	0.00046437	0.00012936	880.88	4.3268e-06	5.1977e-06	1333.3	274.82	4.5479e-06	5.2031e-06	499.23	189.52	82.8	35.814	4.8773e-06	99.827	190.086	-112.192	-62.876	-129.365	-25.210	110.029	-129.076	-125.585	-12.091	-69.340	-125.023	-120.653	-121.367	-115.175	1.323	-115.578	-8191	255	
2310.758	1	1	0	0	0.20423	0.25313	0.23778	0.23738	0.16615	0.23658	0.15877	0.1444	0.30338	0.21464	0.27707	0.077639	0.054826	0.16967	0.34543	0.15542	-1.1896	-1.7646	-1.5187	-1.3333	-1.7417	-1.4125	-1.8479	-2.1208	-1.4562	-1.6417	-1.8375	-1.6521	-2.0708	-1.7313	-1.6271	-2.1125	84.517	-133.324	-56.308	203.234	138.625	162.309	175.592	158.758	-68.829	190.624	163.680	-58.183	104.552	173.705	20.160	162.769	0.000853	0.00032756	0.00030301	969.98	5.1009e-06	4.6975e-06	1458.7	300.21	9.413e-07	1.7784e-06	550.17	208.1	89.391	38.546	1.0397e-05	111.02	0.00044296	0.00047935	0.00012264	879.38	4.586e-06	5.2649e-06	1328.5	273.93	4.7427e-06	5.1082e-06	496.59	188.61	82.943	35.574	4.7051e-06	99.422	187.565	16.949	-75.070	-129.418	-87.983	34.462	-129.097	-125.386	-121.234	66.434	-125.003	-120.838	-121.007	-114.872	0.647	-115.632	-8191	255	
2310.878	1	1	0	0	0.2221	0.090863	0.14578	0.26315	0.37692	0.16021	0.18497	0.10239	0.21719	0.13237	0.086048	0.17479	0.45137	0.22386	0.18477	0.0077585	-1.2146	-1.7125	-1.7521	-1.6292	-1.6979	-1.5458	-1.6417	-1.9417	-1.7979	-1.6437	-2.0458	-1.5583	-2.0479	-1.9167	-1.5458	-2.1937	132.917	28.991	14.162	164.620	59.575	91.297	164.749	-136.695	-6.781	-84.774	-84.721	-49.447	180.375	136.308	108.986	71.945	0.00070585	0.00081843	0.00041712	966.18	4.3735e-06	1.0798e-05	1459.8	299.7	2.9029e-06	6.95e-06	551.99	208.01	89.287	38.875	2.5334e-06	111.48	0.00045687	0.00046014	0.00011629	877.7	4.8896e-06	5.0101e-06	1330.7	273.6	4.9648e-06	4.9623e-06	498.45	189.07	83.256	35.722	4.4937e-06	99.925	188.373	-47.090	-84.096	-129.520	13.173	-28.021	-129.425	-125.627	-105.113	24.109	-125.097	-120.831	-121.528	-115.126	-33.491	-115.444	-8191	255	
2310.974	1	1	0	0	0.16735	0.056041	0.23987	0.0878	0.13501	0.23106	0.23053	0.38983	0.2805	0.16273	0.26065	0.026669	0.079485	0.31658	0.32396	0.2101	-1.1792	-1.6729	-2.0438	-1.8292	-1.6437	-1.85	-1.7979	-2.0625	-1.625	-1.7708	-1.9229	-1.6313	-1.7667	-1.7812	-1.4104	-1.9229	-44.355	62.416	194.653	-129.976	-116.137	-123.278	189.448	-101.896	21.216	54.628	214.290	-80.253	163.722	138.396	-27.146	151.201	0.00076297	0.00084034	0.00013037	961.54	8.0986e-07	9.5029e-06	1470.2	300.05	4.1564e-06	2.0449e-06	556.97	208.54	89.537	38.696	7.9729e-06	112.18	0.00049369	0.00044299	0.0001121	879.27	5.1979e-06	4.8719e-06	1333.7	274.64	5.1943e-06	4.7528e-06	499.48	190.14	83.642	35.72	4.3959e-06	100.84	189.683	-76.806	-58.897	-129.584	-69.845	11.759	-129.001	-125.513	54.191	-5.487	-125.229	-120.713	-121.382	-115.216	-38.046	-115.681	-8191	255	
2311.069	1	1	0	0	0.072331	0.10206	0.18769	0.18271	0.15647	0.17921	0.073599	0.26639	0.048968	0.051116	0.4215	0.024551	0.07485	0.13975	0.041548	0.46343	-1	-1.45	-1.8229	-1.6042	-1.7042	-1.6021	-1.4979	-1.9562	-1.5167	-1.3729	-1.8167	-1.4396	-1.5146	-1.65	-1.3146	-1.8417	138.257	188.227	131.818	184.024	-83.586	-18.773	209.364	196.312	124.941	184.281	188.778	119.625	75.231	-56.314	114.296	-139.763	0.00076654	0.00049273	9.9163e-05	967.29	5.6894e-06	1.0154e-05	1472.3	301.83	5.7065e-06	5.6944e-06	554.66	209.75	89.519	39.108	3.1033e-06	112.33	0.00049884	0.00043153	0.00010891	881.79	5.1906e-06	4.6938e-06	1336.4	276.52	5.1729e-06	4.7027e-06	500.11	191.35	83.891	35.957	4.3398e-06	101.34	196.110	17.861	-3.700	-129.748	-18.706	-43.330	-129.203	-125.471	-3.925	-2.383	-124.643	-120.703	-121.175	-114.985	38.339	-115.399	-8191	255	
2311.165	1	1	0	0	0.066528	0.14183	0.24804	0.14944	0.29639	0.090025	0.26486	0.20045	0.14975	0.39077	0.323	0.21503	0.03602	0.087593	0.35287	0.49674	-1.2125	-1.4104	-1.7958	-1.3229	-1.5729	-1.8958	-1.5708	-2.2438	-1.7708	-1.7437	-2.0667	-1.6896	-1.7229	-1.8458	-1.3583	-1.9937	-47.715	7.013	69.827	124.727	-125.272	-8.537	180.717	-37.880	73.751	162.477	137.339	-89.995	-125.653	-58.750	69.173	140.539	0.00084684	0.0003035	0.00019106	971.71	3.7744e-06	4.4281e-06	1465.9	302.47	8.1055e-06	4.7907e-06	551.09	209.46	89.445	38.972	4.2942e-06	111.82	0.00048182	0.00041866	0.00010954	888.37	5.0576e-06	4.5705e-06	1334.7	277.21	5.0374e-06	4.5755e-06	498.44	190.89	83.436	35.747	4.6481e-06	100.64	194.818	3.631	-92.956	-129.421	51.183	70.616	-129.339	-125.358	-24.601	28.808	-124.922	-121.072	-120.822	-115.090	-13.781	-115.587	-8191	255	
2311.261	1	1	0	0	0.043157	0.17912	0.14857	0.22647	0.20039	0.14596	0.36355	0.12844	0.15648	0.20263	0.092505	0.1841	0.24796	0.1127	0.20853	0.18849	-1.3979	-1.5729	-1.7979	-1.6458	-1.6417	-1.6875	-1.4833	-1.7458	-1.8479	-1.6958	-2.075	-1.7708	-1.7729	-2.025	-1.4	-2.0042	9.911	123.328	145.079	192.569	192.665	132.726	210.805	215.433	179.618	-87.458	-41.466	-140.785	-124.790	151.799	152.550	90.648	0.00054645	0.00070375	0.00035418	969.04	4.7318e-06	2.6309e-06	1472	302.96	8.0619e-06	3.8292e-06	553.91	209.4	89.905	39.239	1.2693e-05	111.73	0.00046822	0.00040981	0.00011764	887.17	4.8329e-06	4.3963e-06	1336.7	276.99	4.8471e-06	4.4593e-06	499.58	191.24	83.473	35.977	4.9407e-06	101.05	196.574	-12.301	-57.877	-129.562	8.451	-43.733	-129.201	-125.568	-21.682	38.125	-125.103	-120.715	-121.126	-115.513	-38.042	-115.715	-8191	255	
2311.357	1	1	0	0	0.3033	0.13686	0.12904	0.19779	0.2327	0.1821	0.1758	0.3062	0.18602	0.2759	0.15763	0.2571	0.095412	0.090781	0.058072	0.34342	-1.3417	-1.4896	-1.9833	-1.8	-1.5333	-2.0729	-1.5875	-1.8354	-1.7958	-1.5438	-1.9792	-1.6708	-1.5542	-2.1021	-1.3104	-1.8375	208.478	-50.655	94.740	216.646	31.607	12.513	155.089	207.976	176.804	193.947	103.957	-138.078	204.534	-123.714	-21.024	177.195	0.0007838	0.0007671	0.00029237	969.07	5.9401e-06	5.8132e-06	1465.2	301.22	7.6171e-06	9.2276e-06	554.64	209.4	89.428	39.107	3.638e-06	111.64	0.00045627	0.00039876	0.00012607	885.55	4.621e-06	4.303e-06	1336.4	276.05	4.6384e-06	4.3268e-06	500.78	190.46	83.054	35.767	5.2901e-06	100.86	189.427	-66.813	-101.684	-129.356	-10.727	33.581	-129.075	-125.280	-41.138	-34.497	-125.029	-120.730	-120.948	-114.878	82.301	-115.484	-8191	255	
2311.453	1	1	0	0	0.11237	0.36036	0.15751	0.077192	0.031335	0.082807	0.14016	0.23853	0.17254	0.28852	0.20811	0.11388	0.21118	0.14304	0.13941	0.06318	-1.4104	-1.5229	-2.0771	-1.9937	-1.6354	-2.0417	-1.9688	-1.8062	-2.0521	-1.6313	-1.9979	-2.0687	-1.5792	-2.2	-1.8958	-1.9875	-20.315	-48.619	-129.732	-87.180	139.483	41.432	84.847	202.854	211.865	104.214	124.470	-112.302	197.527	123.692	7.832	194.450	0.00074392	0.00016523	0.00019097	965.74	4.3351e-07	3.9055e-06	1468.4	300.96	4.0915e-06	2.7336e-06	554.95	209.82	89.863	38.813	2.384e-06	112.02	0.00044075	0.00040984	0.00013421	883.22	4.5869e-06	4.4897e-06	1338.9	275.98	4.4657e-06	4.5178e-06	502.27	190.62	82.997	35.635	5.1679e-06	100.86	198.083	16.548	-59.934	-129.433	-106.441	-62.261	-129.264	-125.237	7.916	17.363	-124.907	-120.964	-121.465	-115.315	-69.997	-115.633	-8191	255	
2311.550	1	1	0	0	0.12079	0.032399	0.11191	0.02643	0.2704	0.073987	0.20932	0.22255	0.18387	0.21708	0.26443	0.11508	0.15069	0.20019	0.052738	0.38823	-1.4792	-1.6042	-1.7333	-1.9146	-1.4854	-1.9625	-1.8146	-1.8583	-1.9979	-1.4521	-2.1104	-2.0312	-1.7313	-2.0083	-1.6167	-1.75	117.350	63.572	65.995	146.375	94.382	131.965	151.332	178.480	189.121	-11.271	198.294	199.229	-28.278	-104.356	122.403	-113.762	0.00071782	0.00067294	0.00031673	975.13	4.8326e-06	2.4452e-06	1468.2	300.75	6.5319e-06	7.6754e-06	556.59	210.77	88.985	38.94	2.5761e-06	111.8	0.00041992	0.00042787	0.00013068	883.07	4.3332e-06	4.6623e-06	1335.1	275.13	4.2631e-06	4.8289e-06	501.95	190.64	82.752	35.825	5.0414e-06	100.34	192.156	-86.464	-40.188	-129.752	38.625	-80.904	-129.086	-125.431	-6.231	-104.529	-124.957	-120.976	-121.334	-114.846	88.746	-115.726	-8191	255	
2311.670	1	1	0	0	0.070724	0.019749	0.15733	0.3163	0.12778	0.27581	0.27321	0.12275	0.077764	0.24512	0.14986	0.23542	0.28023	0.21385	0.11508	0.47437	-1.5812	-1.3479	-1.725	-1.9958	-1.5396	-2.0021	-1.9937	-1.7396	-1.9958	-1.5854	-1.7542	-1.9875	-1.5833	-2.0208	-1.7375	-1.775	-88.135	-131.233	180.477	171.851	171.935	172.539	131.229	185.813	128.106	205.418	-110.696	96.446	150.951	99.160	161.621	132.220	0.00079761	0.0003086	0.00040472	968.41	4.5569e-06	5.5102e-06	1464.6	301.01	4.1957e-06	4.0068e-06	557.8	208.5	89.987	38.865	5.0478e-06	111.25	0.00040443	0.00046	0.00012475	880.43	4.2928e-06	4.9452e-06	1334	274.9	4.2064e-06	4.9915e-06	501.81	189.49	83.011	35.701	4.835e-06	100.15	186.552	161.731	-37.486	-129.450	-69.915	159.905	-129.132	-125.219	-81.903	48.824	-124.990	-121.052	-121.057	-115.034	-32.598	-115.461	-8191	255	
2311.766	1	1	0	0	0.10677	0.071823	0.29651	0.22667	0.10806	0.28113	0.059733	0.21541	0.2761	0.022061	0.17226	0.10557	0.18058	0.046307	0.10876	0.41403	-1.5125	-1.5792	-1.7729	-2.0354	-1.5833	-1.9271	-1.8292	-1.4062	-1.8042	-1.3854	-1.8021	-1.8521	-1.7417	-1.7708	-1.7604	-1.7167	194.059	178.616	49.336	214.643	213.179	41.997	116.871	-124.292	179.562	-25.076	177.691	186.541	197.668	-27.568	23.380	155.486	0.00082651	0.00060997	0.00032037	963.67	2.7453e-06	8.7774e-06	1467.9	303.2	3.048e-06	6.2152e-06	557.52	209.2	89.651	38.636	6.4303e-06	111.95	0.00042425	0.00047348	0.00011978	878.75	4.5425e-06	5.1716e-06	1336.3	275.65	4.6749e-06	5.1439e-06	501.37	189.69	83.263	35.663	4.61e-06	100.39	190.197	-104.210	-73.607	-129.431	10.314	-18.325	-129.234	-125.451	154.838	-52.231	-125.020	-120.830	-120.785	-114.795	3.182	-115.395	-8191	255	
2311.838	1	1	0	0	0.18281	0.018985	0.055027	0.084631	0.11617	0.15525	0.26533	0.18034	0.12642	0.24098	0.25201	0.080905	0.31698	0.26243	0.050116	0.16687	-1.3958	-1.5354	-1.4646	-2.0792	-1.4521	-1.8417	-2.1208	-1.6333	-1.925	-1.6896	-1.6354	-1.9333	-1.4021	-1.5979	-1.6688	-1.6646	-57.095	-113.779	-26.914	7.623	149.658	199.658	190.376	157.589	-75.492	-42.565	185.965	-88.805	157.520	132.254	198.478	-138.150	0.00089424	0.00023308	0.0002875	973.47	9.0485e-07	9.8828e-06	1477.6	303.07	4.4724e-06	5.405e-06	561.87	209.78	90.354	38.953	6.7231e-06	111.82	0.00045639	0.00046544	0.0001196	884.73	4.8741e-06	5.081e-06	1343.2	276.22	4.9787e-06	5.0645e-06	503.26	190.37	83.801	35.795	4.5021e-06	100.61	178.886	-99.646	-66.124	-129.465	-40.955	-7.169	-129.186	-125.423	-124.184	-57.258	-125.057	-120.828	-121.242	-115.193	-26.962	-115.481	-8191	255	
2311.959	1	1	0	0	0.11656	0.11566	0.14378	0.1826	0.15609	0.22463	0.2003	0.4389	0.14743	0.04224	0.28054	0.28668	0.22338	0.17439	0.16735	0.16889	-1.3687	-1.5708	-1.7563	-2.0771	-1.4229	-1.4958	-1.9583	-1.2646	-1.6125	-1.4625	-1.4625	-2.0687	-1.6646	-1.5812	-1.7812	-1.6708	-71.884	109.389	-28.065	144.258	-6.525	87.263	104.713	-125.100	-10.682	61.960	165.023	-141.617	71.465	-80.231	0.047	198.131	0.00075382	0.00039357	0.00017286	970.52	5.9581e-06	7.1827e-06	1474.9	304.24	6.4301e-06	8.2959e-06	557.91	211.44	90.393	39.137	3.3431e-06	111.99	0.00048681	0.00044719	0.00011652	885.29	5.1448e-06	4.8268e-06	1338.5	276.82	5.05e-06	4.7409e-06	502.46	190.62	84.06	35.78	4.3065e-06	100.68	187.792	22.204	-45.558	-129.207	7.858	-21.481	-129.565	-125.288	12.131	-29.020	-125.052	-120.860	-121.448	-115.457	0.117	-115.471	-8191	255	
2312.053	1	1	0	0	0.24375	0.23524	0.13629	0.13224	0.10369	0.3501	0.20287	0.11767	0.2435	0.20927	0.060779	0.35181	0.13702	0.064623	0.12983	0.095675	-1.3646	-1.7083	-1.325	-2.0125	-1.5354	-1.7563	-2.2562	-1.6104	-2.0583	-1.9438	-1.7333	-2.125	-1.6542	-1.6708	-1.8854	-1.6333	200.069	211.440	74.904	62.602	47.400	-24.135	162.430	159.275	-47.028	168.295	-4.612	207.200	-85.975	127.073	182.812	97.814	0.00068629	0.00016234	0.00028527	975.1	6.7705e-06	5.2308e-06	1473	303.13	3.6821e-06	9.7747e-06	557.09	209.49	89.739	38.547	5.9359e-06	111.57	0.00047927	0.00041987	0.00010702	884.19	5.0174e-06	4.5765e-06	1338.6	276.86	4.9905e-06	4.3991e-06	500.64	190.76	83.278	35.493	4.0555e-06	100.46	188.148	-52.026	-90.678	-129.518	33.426	40.160	-128.993	-125.461	-69.740	7.306	-124.763	-120.716	-121.639	-114.565	-2.161	-115.417	-8191	255	
2312.149	1	1	0	0	0.24654	0.46431	0.074633	0.077716	0.5485	0.22264	0.22785	0.093098	0.15714	0.25101	0.16764	0.17113	0.21658	0.31553	0.17999	0.29883	-1.3708	-1.6917	-1.4604	-1.9646	-1.5708	-1.4125	-2.1437	-1.8271	-1.6729	-1.7917	-1.5896	-2.0042	-1.7188	-1.4562	-1.7375	-1.7375	71.457	-28.909	-142.077	107.523	30.321	-9.226	111.864	-88.382	191.813	33.670	120.137	199.415	207.661	-76.921	-42.185	155.979	0.0007562	0.00010132	0.00026988	976.18	6.0985e-06	3.9907e-06	1469.5	302.7	6.329e-06	1.1144e-05	554.68	210.17	90.152	38.773	7.7478e-06	112.15	0.00045876	0.00039956	0.00010507	888.48	4.752e-06	4.3228e-06	1334.5	277.83	4.699e-06	4.3026e-06	500.61	191.36	83.572	35.595	4.1741e-06	100.91	198.288	-124.378	-60.016	-129.741	-12.014	10.336	-129.191	-125.273	36.737	8.986	-125.095	-121.015	-121.236	-114.983	-13.791	-115.459	-8191	255	
2312.245	1	1	0	0	0.19017	0.048673	0.24562	0.12632	0.16507	0.096445	0.11778	0.42382	0.19577	0.089822	0.32828	0.24487	0.15939	0.10411	0.26663	0.10403	-1.2292	-1.6417	-1.2979	-1.7896	-1.5542	-1.6417	-2.1667	-1.8167	-1.6313	-2.0812	-1.8563	-1.8896	-1.7875	-1.7042	-1.9167	-1.8208	195.159	141.836	-78.507	165.567	-27.246	9.635	-119.379	173.980	139.723	92.066	199.637	86.736	194.078	-119.927	-98.154	-132.513	0.00068505	0.00025147	0.00021276	976.44	5.431e-06	7.8248e-06	1469.9	304.37	5.959e-06	7.1205e-06	556.01	209.94	89.878	38.902	5.0709e-06	111.64	0.00043853	0.0003808	0.00010846	886.79	4.5257e-06	4.1889e-06	1338.1	278	4.5239e-06	4.1016e-06	502.46	191.42	83.425	35.522	4.4777e-06	100.8	198.224	-21.219	-47.170	-129.598	30.686	-5.048	-129.158	-125.318	30.285	-25.205	-125.191	-120.866	-121.211	-114.916	62.737	-115.159	-8191	255	
2312.366	1	1	0	0	0.04153	0.26757	0.10455	0.056778	0.28013	0.17413	0.21673	0.10912	0.2638	0.069845	0.26347	0.21907	0.14103	0.28276	0.28584	0.042736	-1.0146	-1.9375	-1.3937	-1.7375	-1.4958	-1.3958	-2.0229	-1.7812	-1.6479	-1.9583	-1.8979	-1.9625	-2.075	-1.8062	-1.8021	-1.9062	-3.248	-63.872	-94.949	-90.879	118.961	-68.389	-140.984	-82.809	-5.480	152.401	166.394	-128.631	85.827	209.785	-35.845	-29.578	0.00075419	0.00089691	0.00015036	973.33	6.1468e-06	6.9686e-06	1482.7	304.16	5.6256e-06	4.1543e-06	560.38	209.11	89.485	38.686	7.3265e-06	111.59	0.00042473	0.00037004	0.00011424	889	4.3732e-06	4.0628e-06	1344.1	278.2	4.4034e-06	4.0497e-06	504.55	190.77	83.098	35.316	4.815e-06	100.26	204.261	-34.075	-70.614	-129.522	8.551	-43.003	-129.339	-125.373	-5.286	-44.110	-124.934	-120.991	-120.889	-115.144	-35.187	-115.462	-8191	255	
2312.462	1	1	0	0	0.18578	0.22672	0.21556	0.41149	0.19166	0.34253	0.46028	0.18514	0.19561	0.017181	0.3613	0.16222	0.1897	0.014527	0.24891	0.36904	-1.1042	-1.8312	-1.4188	-1.8229	-1.7292	-1.4396	-1.8979	-1.5604	-1.5771	-1.7938	-1.5146	-1.6437	-1.9771	-1.5167	-1.7792	-1.7083	-69.010	147.629	156.178	201.012	-34.717	148.521	182.095	153.626	29.356	60.069	146.797	165.650	192.299	128.022	128.152	86.074	0.00073996	0.00034719	0.00016423	979.43	2.5525e-06	3.8917e-06	1480	304.82	9.4089e-06	7.5902e-06	558.22	209.09	89.652	38.346	5.4009e-06	110.9	0.00041577	0.00037697	0.00012259	888.49	4.3023e-06	4.2101e-06	1345.4	277.12	4.3246e-06	4.2403e-06	503.9	189.98	82.74	35.136	5.0813e-06	99.651	194.665	-41.679	174.018	-129.461	29.580	-29.426	-128.961	-125.529	-16.896	-42.614	-125.054	-120.812	-121.283	-114.913	56.718	-115.349	-8191	255	
2312.558	1	1	0	0	0.20722	0.24267	0.19378	0.31669	0.17257	0.0709	0.32014	0.13561	0.48049	0.10363	0.17047	0.24316	0.037145	0.10189	0.17136	0.21399	-1.0542	-1.8563	-1.5167	-1.7292	-1.9167	-1.6229	-1.9292	-1.8687	-1.7	-2.0917	-1.6562	-1.9896	-1.9083	-1.5354	-1.7104	-2.0271	-57.649	128.931	106.779	-67.764	206.333	153.558	175.960	-65.918	184.091	-112.054	-141.092	141.708	-56.636	113.225	68.039	168.669	0.00068919	0.00025473	0.00031043	978.31	5.2106e-06	6.5606e-06	1479.1	304.1	9.9754e-06	3.7866e-06	557.35	209.49	89.384	38.61	6.0455e-06	110.51	0.00041325	0.00041102	0.00013118	890.21	4.2355e-06	4.5743e-06	1346.7	277.55	4.295e-06	4.7155e-06	505.58	190.24	82.996	35.399	5.0666e-06	99.464	198.421	-108.562	-23.487	-129.598	-15.347	-97.829	-129.258	-125.427	-30.770	26.430	-125.144	-120.725	-121.542	-115.201	-69.670	-115.451	-8191	255	
2312.654	1	1	0	0	0.11788	0.058122	0.080567	0.38213	0.037992	0.14932	0.22027	0.039572	0.14447	0.086954	0.26558	0.11626	0.1911	0.42581	0.16986	0.43544	-1.1021	-1.925	-1.5854	-1.7729	-1.9875	-1.7375	-2.0271	-2.0229	-1.5083	-1.7437	-1.7542	-1.7042	-2.0271	-1.6125	-1.6688	-2.175	126.257	53.856	0.744	137.339	36.086	86.360	106.061	95.088	-69.738	-36.230	100.503	-53.469	185.847	176.102	79.228	131.016	0.00077868	0.000381	0.00017925	977.71	9.6594e-06	6.5326e-06	1477.2	302.96	4.6247e-06	5.496e-06	558.91	210.16	89.98	38.309	7.2823e-06	110.26	0.00041162	0.00044272	0.0001265	887.24	4.2439e-06	4.9256e-06	1348.9	276.85	4.3335e-06	5.0542e-06	504.22	190.08	83.294	35.44	4.9581e-06	99.465	188.554	-55.340	-70.331	-129.291	-1.877	-98.188	-129.314	-125.407	-59.970	-14.189	-125.024	-120.692	-120.778	-114.832	-66.820	-115.668	-8191	255	
2312.751	1	1	0	0	0.21284	0.24054	0.22775	0.21013	0.27941	0.053683	0.19499	0.10788	0.28555	0.014195	0.38163	0.060502	0.10671	0.32567	0.15369	0.20029	-1.2521	-1.9708	-1.8708	-1.8146	-2.2958	-1.8083	-1.8146	-2.075	-1.6729	-1.8625	-1.8854	-1.7854	-2.0187	-1.5167	-1.8208	-2.1312	-52.722	141.514	5.715	103.444	159.311	73.958	91.775	147.098	108.912	134.251	-135.366	19.412	140.483	102.134	22.302	149.957	0.00081596	0.00080866	0.00048726	977.65	1.1342e-06	3.422e-06	1488	305.08	3.3637e-06	5.6649e-06	555	209.03	89.75	38.16	5.6526e-06	109.37	0.00042775	0.00047101	0.00012394	889.9	4.5353e-06	5.3543e-06	1353.5	277.89	4.7358e-06	5.447e-06	503.87	189.9	83.378	35.238	4.8893e-06	98.812	188.296	-53.473	-58.083	-129.497	81.779	19.553	-129.170	-125.249	-128.308	-8.022	-125.090	-120.688	-121.396	-114.850	43.453	-115.532	-8191	255	
2312.847	1	1	0	0	0.023216	0.18092	0.16029	0.16003	0.10013	0.16773	0.45127	0.093865	0.18437	0.087265	0.098369	0.22002	0.080958	0.10437	0.18162	0.31928	-1.075	-1.9417	-1.8583	-1.7542	-2.1042	-1.5583	-1.7167	-2.0458	-1.3979	-1.7812	-1.875	-1.6354	-1.8687	-1.6604	-1.3521	-2.1708	-68.760	185.355	76.128	-70.670	-16.106	93.003	190.438	15.293	179.297	-11.958	93.819	161.664	171.944	195.387	-128.397	171.284	0.00084581	0.00055543	6.0313e-05	976.2	1.7945e-06	4.4332e-06	1480.5	302.6	4.7266e-06	5.5411e-06	555.83	208.06	88.574	37.939	1.0805e-05	109.07	0.00046575	0.00048013	0.00011966	889.99	4.8887e-06	5.3542e-06	1344.2	276.06	5.0128e-06	5.2284e-06	502.07	188.82	83.044	35.073	4.6387e-06	98.306	192.644	-30.788	-51.403	-129.376	98.958	-38.903	-129.219	-125.329	-5.034	-17.322	-125.122	-120.827	-121.360	-115.307	12.725	-115.539	-8191	255	
2312.967	1	1	0	0	0.032916	0.075383	0.31313	0.20021	0.27062	0.12242	0.13359	0.22928	0.28279	0.050355	0.37517	0.32111	0.14283	0.0292	0.32561	0.18774	-0.9	-1.475	-1.6042	-1.5438	-1.7812	-1.5292	-1.6521	-1.7917	-1.4479	-1.7771	-1.8625	-1.6208	-2.0083	-2.0583	-1.8	-1.9667	-36.453	-0.091	-57.593	146.648	78.673	45.002	166.742	202.663	206.791	-113.689	178.926	119.263	16.686	-129.669	-5.643	162.858	0.00068876	0.00078404	0.00023187	977.05	2.9886e-06	4.0455e-06	1482.8	303.05	4.8399e-06	7.453e-06	558.14	208.03	89.462	38.169	1.0321e-05	110.71	0.00047966	0.00045678	0.00011583	887.99	5.1132e-06	4.9507e-06	1342.5	276.25	5.2693e-06	4.9129e-06	502.74	189.74	83.864	35.253	4.5462e-06	99.444	189.479	-66.273	-49.489	-129.292	49.259	54.997	-129.270	-125.282	6.435	-6.711	-125.266	-120.547	-121.476	-115.154	-18.960	-115.331	-8191	255	
2313.062	1	1	0	0	0.12246	0.052392	0.087278	0.11292	0.15226	0.076317	0.16182	0.17777	0.17892	0.060641	0.12537	0.10277	0.14848	0.38266	0.15718	0.20807	-1.1125	-1.6917	-1.8875	-1.8	-1.8229	-1.6229	-1.5875	-1.7938	-1.5438	-1.6562	-2.0333	-1.5021	-1.7708	-1.6313	-1.2854	-1.9708	136.920	-86.087	12.658	178.365	-10.540	-109.506	184.632	195.482	91.464	-94.884	107.967	156.843	137.308	163.560	2.144	-142.723	0.0006699	0.00077301	0.00018965	978.93	6.9332e-06	7.7477e-06	1478	302.65	3.5659e-06	8.408e-06	559.06	208.7	89.922	38.616	6.6452e-06	111.44	0.00050426	0.00044304	0.00011403	891.34	5.2579e-06	4.7798e-06	1344.5	277.77	5.304e-06	4.758e-06	504.51	190.82	84.169	35.369	4.5115e-06	100.47	199.660	-36.167	-66.394	-129.743	-3.545	25.264	-129.081	-125.417	-24.505	-7.043	-125.158	-120.837	-121.254	-115.187	12.553	-115.360	-8191	255	
2313.133	1	1	0	0	0.046468	0.13512	0.070378	0.28199	0.076795	0.051056	0.086719	0.11652	0.085768	0.077071	0.16386	0.30089	0.12367	0.14152	0.055619	0.21567	-1.3813	-1.9083	-1.9667	-1.825	-1.7708	-2.1625	-1.8292	-1.7625	-1.625	-1.3708	-2.0417	-1.3896	-1.9104	-1.9479	-1.8854	-2.2646	148.313	87.264	-104.483	197.788	156.868	191.009	32.834	-112.570	-83.924	-68.144	129.356	184.271	-17.798	-60.911	142.194	197.698	0.00078407	5.3635e-05	0.0001238	977.1	8.2769e-06	8.7359e-06	1486.7	303.74	5.8381e-06	8.228e-06	561.22	211.25	89.977	38.412	3.8309e-06	111.74	0.00050152	0.0004368	0.000112	895.45	5.2196e-06	4.7101e-06	1350.4	279.02	5.097e-06	4.6288e-06	505.31	192.38	83.761	35.359	4.4619e-06	100.59	197.097	-19.767	-28.364	-129.425	9.441	-2.850	-129.216	-125.463	-73.697	-17.661	-125.244	-120.632	-121.453	-115.038	-33.738	-115.482	-8191	255	
2313.230	1	1	0	0	0.13346	0.15213	0.083703	0.2605	0.14065	0.12326	0.14878	0.22004	0.25784	0.22	0.080796	0.16818	0.16296	0.26417	0.030418	0.065214	-1.4875	-1.5208	-2.0792	-1.7396	-1.8292	-1.9062	-1.9354	-2.0729	-1.6562	-1.7729	-2.1875	-1.7	-2.0271	-1.9958	-1.5958	-1.9417	96.508	-91.683	49.589	-62.021	-10.195	-77.682	64.268	183.608	-96.621	153.173	123.441	204.881	195.811	193.249	180.079	103.364	0.00066852	0.0004393	5.6917e-05	989.41	8.2757e-06	4.5668e-06	1492.4	307.59	1.2096e-05	1.0194e-05	559.83	209.83	90.425	38.636	7.0024e-06	110.64	0.00047016	0.00041446	0.00011423	900.5	4.9786e-06	4.5013e-06	1356	281.54	4.9705e-06	4.5688e-06	507.13	192.1	84.415	35.42	4.927e-06	100.16	198.949	-27.879	-131.514	-129.820	-37.772	41.876	-129.058	-124.920	10.609	-8.477	-125.111	-120.941	-120.816	-115.334	-16.201	-115.429	-8191	255	
2313.350	1	1	0	0	0.22474	0.15555	0.16599	0.27039	0.11941	0.15111	0.23405	0.10144	0.10025	0.13178	0.068348	0.22908	0.29749	0.18059	0.23221	0.18697	-1.4042	-1.4104	-2.1646	-1.7667	-1.4104	-2.0729	-1.6146	-2.0438	-1.9958	-1.8104	-1.9854	-1.6979	-1.5542	-2.1583	-1.8146	-2.2812	100.385	-84.907	-95.889	-128.993	-21.281	-110.292	174.926	-132.544	1.879	7.682	-117.902	139.018	143.277	-49.865	45.933	-133.702	0.00070428	0.00047844	0.00016851	995.42	5.989e-06	6.6764e-06	1502.4	308.22	4.0308e-06	3.4553e-06	561.12	211.46	90.658	38.571	6.6884e-06	110.74	0.00047299	0.00041995	0.0001299	909.42	5.0192e-06	4.6954e-06	1365.5	282.52	5.1198e-06	4.8051e-06	509.46	192.19	84.904	35.356	5.5358e-06	100.14	187.608	27.039	-90.858	-129.610	34.200	20.326	-129.243	-125.351	-31.435	29.384	-125.104	-120.657	-120.833	-115.009	-108.718	-115.481	-8191	255	
2313.446	1	1	0	0	0.21287	0.088321	0.17947	0.30875	0.15141	0.063222	0.038852	0.26369	0.115	0.076023	0.25216	0.078345	0.32245	0.18008	0.15477	0.24923	-1.45	-1.5229	-1.9729	-1.7854	-1.6562	-2.1521	-1.9167	-2.0792	-1.7208	-1.7583	-2.2146	-2.0896	-1.7042	-1.9896	-1.4688	-1.8687	202.924	-129.150	201.160	-86.757	-13.181	142.172	92.553	158.300	52.727	-93.379	193.391	162.000	160.149	-87.661	178.939	115.396	0.00085653	0.00026884	3.5133e-05	992.4	8.9801e-06	7.0998e-07	1495.7	308.91	5.2271e-06	2.5702e-06	562.79	211.09	91.782	38.408	8.0739e-06	111.28	0.00047632	0.00043442	0.00014288	909.43	5.0353e-06	4.74e-06	1364.6	282.34	4.9757e-06	4.9447e-06	511.92	192.24	84.81	35.402	5.8003e-06	100.32	191.995	24.377	211.557	-129.239	29.070	-110.271	-129.259	-125.197	22.002	-11.154	-125.200	-120.690	-121.357	-114.937	-38.256	-115.313	-8191	255	
2313.542	1	1	0	0	0.0072858	0.11236	0.23178	0.34036	0.075113	0.096529	0.35216	0.27243	0.14956	0.041689	0.036414	0.12485	0.22586	0.053432	0.26147	0.41313	-1.6604	-1.5312	-1.9062	-1.7437	-1.5146	-2.0646	-1.8521	-1.9646	-2.2438	-1.6854	-1.9354	-1.7521	-1.6146	-2.075	-1.5875	-1.9479	176.853	-67.671	-69.593	152.705	-85.948	14.794	160.170	163.132	149.271	-128.739	-19.894	140.988	136.317	-137.993	37.035	121.309	0.00071389	0.00076406	0.00018784	989.37	5.4954e-06	1.4937e-06	1498	307.22	5.3343e-06	3.3823e-06	566.03	211.68	91.087	38.681	6.7612e-06	112	0.00046014	0.0004574	0.00014714	906.33	4.8164e-06	5.0139e-06	1369	281.66	4.8453e-06	5.1859e-06	513.31	192.54	84.443	35.846	5.7258e-06	100.98	193.978	-72.408	25.808	-129.610	-31.199	-126.830	-129.231	-125.258	-32.602	-123.204	-125.067	-120.468	-120.970	-115.086	-23.784	-115.340	-8191	255	
2313.639	1	1	0	0	0.18959	0.079629	0.12706	0.12229	0.070716	0.023441	0.12407	0.28456	0.10252	0.14738	0.098013	0.0097498	0.16905	0.13633	0.1676	0.2675	-1.6167	-1.625	-1.9771	-2.1521	-1.6729	-1.825	-1.8771	-1.7812	-1.9	-1.6271	-1.95	-1.8229	-1.475	-2.0042	-1.5604	-1.7146	-79.590	206.655	156.517	-129.645	-27.327	-85.656	161.068	145.451	11.880	-65.110	-105.143	208.094	-129.576	56.329	210.422	150.660	0.00078076	0.0006071	9.5961e-05	998.3	8.0609e-06	4.2125e-06	1504.4	307.93	3.327e-06	2.5043e-06	565.01	210.9	91.249	39.076	5.4774e-06	111.1	0.00046133	0.00049812	0.00014617	911.08	4.8309e-06	5.5415e-06	1367.9	282.42	4.8293e-06	5.6627e-06	512.04	192.36	84.898	35.985	5.718e-06	100.52	189.171	-50.003	-89.651	-129.145	8.113	113.563	-129.315	-125.467	-38.569	-22.421	-125.159	-120.924	-121.501	-115.078	117.285	-115.539	-8191	255	
2313.759	1	1	0	0	0.23732	0.062325	0.046192	0.21601	0.19562	0.088745	0.12246	0.24824	0.043257	0.08903	0.22195	0.3478	0.20766	0.11734	0.15088	0.25317	-1.5479	-1.6396	-1.6396	-1.7833	-1.4667	-1.8813	-2.0583	-1.7667	-2.0104	-1.6958	-1.85	-2.2542	-1.8125	-2.0417	-1.7437	-1.7542	-0.743	42.644	7.402	191.228	113.532	149.129	190.002	78.102	195.189	18.659	178.251	175.870	193.931	9.481	171.600	194.382	0.00080257	0.00068835	0.00021155	1000.9	7.9626e-07	5.812e-06	1495.5	308.93	6.2277e-06	5.9959e-06	562.89	210.71	91.943	38.89	9.733e-06	111.77	0.00048174	0.00054707	0.0001426	913.4	5.1249e-06	6.0576e-06	1364.8	282.42	5.2491e-06	6.1586e-06	511.94	192.24	85.662	36.082	5.5336e-06	100.65	190.047	-46.234	-105.262	-129.551	173.058	-115.478	-129.121	-125.693	-104.419	49.503	-124.913	-120.732	-121.186	-115.018	-7.107	-115.449	-8191	255	
2313.831	1	1	0	0	0.12682	0.067795	0.02557	0.27767	0.12437	0.19642	0.30854	0.11651	0.22602	0.1166	0.020418	0.062683	0.20299	0.16117	0.19382	0.39176	-1.5833	-1.5771	-1.5333	-2.0229	-1.7687	-1.9958	-2.1083	-1.7208	-2.2396	-1.7292	-1.7771	-2.1333	-1.5875	-2.0125	-1.7812	-1.5063	-38.689	167.020	76.932	166.821	-0.790	159.904	184.839	205.898	-59.515	115.210	208.699	176.090	170.759	211.893	46.498	205.079	0.00078616	0.0010172	0.00034201	1006.7	1.2706e-06	6.1249e-06	1500.6	309.8	3.6452e-06	4.2243e-06	565.84	210.82	92.697	38.908	6.2052e-06	112.19	0.00051949	0.00056519	0.00014299	918.53	5.6331e-06	6.047e-06	1367.1	283.78	5.7192e-06	5.9955e-06	512.62	192.57	86.447	36.12	5.4172e-06	100.96	192.020	-12.315	-94.486	-129.513	169.363	-4.752	-128.965	-125.185	-140.135	17.126	-125.289	-120.627	-121.278	-115.006	-68.673	-115.327	-8191	255	
2313.927	1	1	0	0	0.14331	0.19499	0.30817	0.058562	0.39987	0.2431	0.21592	0.35101	0.25786	0.093889	0.31011	0.37917	0.14119	0.16526	0.020429	0.067676	-1.3396	-1.6646	-1.5812	-2.1604	-1.7542	-1.9583	-2.2083	-1.7729	-2.1104	-1.9937	-1.7604	-2.2938	-1.8292	-1.6979	-1.8979	-1.6708	5.792	90.354	104.547	-135.150	-15.653	-9.286	167.997	187.846	180.747	198.584	178.322	160.047	179.842	189.709	168.979	132.210	0.00082963	0.00091514	0.00025411	999.72	3.1604e-06	1.1639e-05	1497.8	311.01	5.3385e-06	7.7706e-06	570.21	212.39	92.691	39.326	4.6273e-06	112.56	0.00055804	0.00054238	0.00013978	915.46	6.0521e-06	5.934e-06	1369.3	285.12	6.1803e-06	5.8879e-06	515.23	194.29	87.138	36.522	5.3884e-06	101.8	189.997	-66.315	-29.062	-129.302	190.648	20.349	-129.011	-125.542	-116.225	2.013	-124.979	-120.821	-121.271	-114.627	-25.081	-115.439	-8191	255	
2314.046	1	1	0	0	0.22226	0.089373	0.17013	0.11257	0.2124	0.11131	0.2983	0.14133	0.12751	0.29366	0.29493	0.16919	0.24061	0.029291	0.28115	0.24454	-1.5417	-1.7979	-1.5604	-2.0021	-1.6063	-1.6833	-2.1646	-1.7437	-2.0667	-1.8104	-2.0083	-2.1417	-1.7646	-1.6792	-1.9375	-1.8917	100.242	50.551	124.600	107.328	88.466	-128.883	169.316	-134.764	-17.644	-72.670	182.476	83.523	-112.589	214.842	94.792	131.852	0.00060901	0.00075082	0.0002672	1012.5	4.0329e-06	6.431e-06	1501.8	310.7	9.3576e-06	6.9329e-06	569.52	211.76	92.713	39.126	2.8747e-06	111.52	0.00059292	0.0005328	0.00013623	924.83	6.2467e-06	5.6676e-06	1371.9	284.57	6.2127e-06	5.5516e-06	513.4	193.8	86.932	36.001	5.1198e-06	101.04	184.712	-30.302	-68.617	-129.284	-2.627	31.808	-129.221	-125.567	-16.487	-38.057	-125.167	-121.042	-121.314	-114.951	-22.620	-115.616	-8191	255	
2314.142	1	1	0	0	0.17484	0.08695	0.26047	0.31074	0.22319	0.26885	0.49567	0.19592	0.13033	0.20292	0.21502	0.19236	0.15132	0.34525	0.17262	0.15746	-1.4854	-2.0521	-1.6917	-2.225	-1.7792	-1.7021	-2.1646	-1.6625	-1.7687	-2.0271	-1.6542	-2.1437	-1.8417	-1.8667	-2.1208	-1.8875	-27.276	-43.313	49.907	-137.976	214.102	-61.281	135.855	194.307	184.359	165.414	205.082	201.415	-5.736	-128.310	7.042	188.901	0.00076372	0.00014026	0.00029667	1005.5	5.2582e-06	4.1619e-06	1499.2	309.41	1.0217e-05	1.8647e-06	565.35	212.04	92.331	38.98	3.7624e-06	111.42	0.00057369	0.0005054	0.00012962	923.51	6.0271e-06	5.459e-06	1366.3	284.64	5.9542e-06	5.3949e-06	512.06	194.01	86.55	35.909	5.163e-06	100.88	197.542	142.303	-54.525	-129.830	-47.910	-44.900	-129.319	-125.207	-14.939	9.582	-124.816	-120.744	-121.212	-115.235	-66.299	-115.689	-8191	255	
2314.238	1	1	0	0	0.12146	0.19368	0.27799	0.33966	0.22594	0.021118	0.13934	0.43589	0.12402	0.2125	0.19416	0.17018	0.079068	0.070841	0.13986	0.019253	-1.2958	-1.8021	-1.4896	-2.0917	-1.9438	-1.4604	-2.2896	-1.9625	-1.8854	-1.9771	-1.7333	-1.9833	-1.5542	-1.9	-1.9937	-1.7958	55.183	-64.590	14.243	188.140	-44.947	36.021	50.524	208.654	-19.921	-94.718	189.343	198.485	209.751	212.510	17.185	-43.186	0.00078507	0.00059834	6.1226e-05	1013.8	6.9652e-06	1.4233e-05	1509	311.98	5.3846e-06	1.2085e-05	569.59	212.4	92.322	38.806	3.0328e-06	111.76	0.00055056	0.00048506	0.00013346	929.45	5.7715e-06	5.3259e-06	1374.4	286.86	5.7731e-06	5.345e-06	514.66	194.49	86.576	35.848	5.5408e-06	101.23	195.838	-53.959	-22.322	-129.577	42.526	0.879	-129.337	-125.308	-60.326	-80.652	-124.988	-120.859	-121.416	-114.820	-126.776	-115.451	-8191	255	
2314.359	1	1	0	0	0.18657	0.23307	0.03622	0.25764	0.2056	0.25013	0.42328	0.14369	0.044481	0.080595	0.095977	0.12861	0.048754	0.16921	0.23391	0.17607	-1.2229	-1.9896	-1.3875	-2.0792	-2.0271	-1.3917	-1.9396	-1.8792	-1.6729	-2.0604	-1.7271	-1.9167	-1.9625	-1.7437	-1.7042	-1.9979	0.910	-50.660	157.043	121.215	-22.317	40.461	171.256	-141.048	-0.841	121.966	171.785	-106.305	-114.408	116.984	125.897	111.263	0.0008164	0.00026705	5.3943e-05	1014.7	9.7249e-06	1.2062e-05	1511.7	312.07	5.7143e-06	3.5908e-06	570.61	213.62	92.579	39.059	5.5641e-06	112.39	0.0005415	0.00048957	0.00014673	931.97	5.7687e-06	5.3162e-06	1379.5	287.62	5.7794e-06	5.3476e-06	517.47	195.64	86.817	36.185	6.2616e-06	101.82	194.382	28.418	194.329	-129.206	-9.252	23.286	-129.345	-125.374	-60.353	-20.625	-124.847	-120.733	-121.351	-115.140	-15.843	-115.222	-8191	255	
2314.431	1	1	0	0	0.25933	0.092901	0.34848	0.23187	0.18404	0.23262	0.31683	0.3441	0.082152	0.1024	0.089429	0.32767	0.298	0.076843	0.11084	0.2424	-1.4042	-2.1562	-1.8042	-1.775	-1.7292	-1.6521	-2.0458	-1.7708	-1.7271	-2.0542	-1.8687	-1.8687	-1.9354	-1.5083	-1.8563	-1.9521	-102.423	121.529	-106.878	-115.533	204.250	89.060	120.827	103.750	32.543	13.491	207.088	131.705	176.455	-57.637	-139.522	106.731	0.00074573	0.00081679	0.00020626	1018.7	3.996e-06	4.8617e-06	1510.4	311.84	6.6512e-06	1.7124e-06	567.81	211.79	93.048	38.596	7.5651e-06	111.14	0.0005546	0.00049801	0.00016292	938.57	5.8566e-06	5.5843e-06	1388.1	288	5.8249e-06	5.5807e-06	519.22	194.42	86.927	35.862	6.6816e-06	100.66	194.775	-42.061	-35.161	-129.291	-1.692	-59.814	-129.023	-125.616	-5.523	-55.927	-125.056	-121.005	-121.347	-114.954	-106.431	-115.412	-8191	255	
2314.527	1	1	0	0	0.34087	0.096596	0.20452	0.26192	0.18982	0.15101	0.062562	0.23796	0.075706	0.19711	0.18323	0.059693	0.33066	0.16381	0.14706	0.31539	-1.1437	-2.1958	-1.7437	-1.8979	-1.7979	-1.3729	-1.7812	-1.9146	-1.4104	-1.9562	-1.7375	-1.8271	-2.0229	-1.65	-2.1104	-1.9417	93.870	-126.056	-28.433	176.864	23.686	50.797	9.663	203.884	5.141	5.163	206.195	98.614	207.550	109.961	141.781	142.952	0.00064133	0.00092596	0.00016592	1023.4	2.5985e-06	4.2749e-06	1507.6	311.66	9.6371e-06	1.2437e-05	567.35	211.16	91.434	38.373	5.0314e-06	109.39	0.00054589	0.00053487	0.00017159	938.64	5.7364e-06	6.0157e-06	1385.5	287.21	5.7813e-06	6.0542e-06	517.79	193.21	86.179	35.735	6.8769e-06	99.399	201.106	63.228	-28.423	-129.439	-29.743	80.212	-129.333	-125.355	-2.880	-41.445	-125.176	-120.751	-121.309	-114.925	-94.064	-115.620	-8191	255	
2314.647	1	1	0	0	0.16773	0.048791	0.19288	0.26883	0.21531	0.14488	0.1896	0.21356	0.23215	0.16368	0.20092	0.28068	0.22613	0.08549	0.28756	0.16861	-1.0271	-1.9688	-1.5021	-1.8958	-1.9458	-1.4896	-1.9438	-1.8854	-1.5146	-1.9646	-2.225	-1.9458	-2.1854	-1.8583	-1.8208	-2.2729	-22.337	-56.683	-11.952	199.780	81.899	-77.067	119.585	154.785	61.449	194.336	152.901	164.461	206.686	163.624	-47.513	113.919	0.00081228	0.0002095	0.00058736	1022.1	5.6224e-06	1.019e-05	1513.2	311.82	5.6634e-06	6.5653e-06	567.44	210.41	91.596	38.141	1.1688e-05	109.36	0.00054243	0.00059519	0.00017811	940.29	5.8811e-06	6.666e-06	1388.5	287.65	5.9296e-06	6.8705e-06	518.62	192.86	86.066	35.784	6.9642e-06	99.024	190.893	215.261	-24.290	-129.428	-14.473	-104.293	-129.145	-125.319	-72.382	-129.794	-125.113	-120.863	-121.341	-115.168	37.146	-115.326	-8191	255	
2314.743	1	1	0	0	0.057186	0.1459	0.28694	0.092281	0.1801	0.13987	0.24476	0.096655	0.063425	0.15543	0.35596	0.19741	0.11311	0.20203	0.19991	0.10914	-1.2563	-1.7167	-1.7375	-1.8354	-1.8896	-1.8479	-2.2104	-2.2313	-1.6812	-2.0792	-2.1688	-1.7271	-2.1	-1.8042	-1.7667	-2.225	-140.792	64.808	41.381	156.956	27.097	147.527	142.802	211.424	-10.066	193.350	200.176	165.103	-129.422	213.855	123.805	-111.246	0.00070231	9.6406e-05	0.00046601	1023.6	1.6472e-06	7.362e-06	1510.4	309.13	2.698e-06	1.0619e-05	566.33	209.33	91.259	37.68	7.7345e-06	109.28	0.00057004	0.00064951	0.00017662	940.39	6.0908e-06	7.2254e-06	1386.5	285.62	6.1999e-06	7.2511e-06	516.95	191.94	86.138	35.559	6.742e-06	98.678	190.095	30.112	-72.118	-129.607	-123.423	131.013	-128.999	-125.772	-86.026	13.462	-124.816	-121.035	-121.221	-115.320	21.432	-115.296	-8191	255	
2314.840	1	1	0	0	0.39989	0.21929	0.067993	0.20092	0.12665	0.3595	0.16838	0.32676	0.091763	0.015858	0.090159	0.4592	0.14283	0.089652	0.26328	0.27392	-1.4208	-1.8833	-1.8958	-1.7354	-2.0958	-1.9312	-2.0292	-2.1667	-1.6333	-1.7292	-2.0333	-1.9167	-2.1771	-2.025	-1.7833	-2.0354	3.033	-139.717	-120.416	-127.732	-25.805	206.703	160.656	193.766	-133.250	197.907	-41.788	160.825	195.717	80.150	-126.751	204.481	0.00075096	0.00035824	0.00011854	1017.6	2.7623e-06	4.0597e-06	1512.8	310.27	5.5046e-06	2.2182e-06	564.85	209.55	91.376	37.455	8.6778e-06	108.89	0.00060464	0.00066498	0.00017051	934.69	6.4947e-06	7.2712e-06	1383.2	285.95	6.6544e-06	7.0439e-06	515.5	191.7	86.35	35.238	6.3824e-06	98.416	182.829	-63.970	-48.427	-129.450	207.790	-142.387	-129.154	-125.520	-120.859	-21.544	-124.986	-120.987	-121.329	-114.891	-18.046	-115.497	-8191	255	
2314.934	1	1	0	0	0.080536	0.30601	0.15036	0.087059	0.32195	0.10275	0.2854	0.29033	0.13095	0.22309	0.19255	0.26846	0.17787	0.22158	0.41008	0.19959	-1.1396	-1.7563	-1.7354	-1.5125	-1.9312	-1.8937	-1.8583	-2.05	-1.7854	-2.0104	-2.1771	-1.7917	-1.8625	-1.9396	-1.7563	-2.2542	186.262	-26.321	-13.737	-41.684	-53.159	153.086	210.328	145.816	35.539	122.566	204.140	-9.825	205.948	-124.493	-84.136	134.768	0.00060347	0.0011484	7.4961e-05	1023.5	6.3341e-06	1.0281e-05	1511.5	310.76	1.438e-06	1.2845e-05	563.74	209.01	91.624	37.722	5.381e-06	108.28	0.00063389	0.00063592	0.00016132	936.17	6.8333e-06	6.8664e-06	1380.4	285.41	7.0126e-06	6.7721e-06	513.83	191.33	86.554	35.205	6.1894e-06	98.012	184.472	-94.624	1.542	-129.495	-60.100	15.541	-129.430	-125.427	-126.958	-33.742	-124.970	-121.104	-121.056	-114.946	-14.715	-115.510	-8191	255	
2315.007	1	1	0	0	0.20916	0.13848	0.25319	0.17825	0.2743	0.25786	0.2075	0.27337	0.22168	0.23164	0.31688	0.12744	0.16619	0.2709	0.03628	0.10874	-1.3958	-1.6688	-1.9625	-1.4458	-1.9271	-1.7521	-1.6521	-1.8937	-1.9021	-1.6896	-2.0417	-1.5104	-2.0187	-1.8875	-1.7042	-2.3146	170.866	-80.189	148.537	130.749	-95.632	109.517	94.600	171.970	1.097	-91.616	127.034	167.594	173.693	211.899	125.976	122.539	0.00071763	0.00081026	0.00039843	1021.8	3.1723e-06	4.484e-06	1504.3	310.01	3.7071e-06	2.4167e-06	563.99	208.92	91.115	37.449	2.9826e-06	108.47	0.00065247	0.00061114	0.00015566	937.69	7.1647e-06	6.5573e-06	1373.4	285.79	7.2144e-06	6.5452e-06	512.19	191.5	86.491	35.106	5.9385e-06	98.38	186.347	-64.717	-104.411	-129.577	-7.595	10.994	-129.411	-125.500	51.000	-47.154	-124.982	-120.980	-121.186	-115.181	98.963	-115.643	-8191	255	
2315.126	1	1	0	0	0.37885	0.10997	0.20311	0.13722	0.14711	0.0082299	0.24769	0.21947	0.14363	0.19838	0.24951	0.36414	0.2636	0.20058	0.16528	0.15514	-1.0542	-1.5958	-1.8563	-1.5417	-1.825	-1.9417	-1.6354	-1.8646	-1.6479	-1.7958	-2.2979	-1.8667	-1.8979	-2.0458	-1.8	-2.4562	-22.183	106.391	-121.427	211.349	-103.522	190.630	75.308	123.827	-124.831	84.176	181.140	183.140	-86.040	-116.300	152.362	98.880	0.00078222	0.00069811	0.00029022	1028.1	3.9395e-06	9.8991e-06	1507.3	310.03	1.3787e-05	1.0353e-05	563.88	208.03	91.256	37.681	3.6244e-06	108.8	0.00065605	0.00058624	0.00015182	942.65	7.0552e-06	6.4316e-06	1377.6	286.67	7.0295e-06	6.3711e-06	513.27	191.91	86.499	35.041	6.003e-06	98.769	181.013	-28.393	-113.242	-129.552	41.586	37.002	-129.405	-125.557	-29.411	-51.602	-125.089	-120.999	-121.225	-115.171	-48.637	-115.416	-8191	255	
2315.222	1	1	0	0	0.36176	0.27168	0.18205	0.09529	0.27573	0.029774	0.23015	0.069478	0.056072	0.1945	0.17145	0.017801	0.33909	0.088615	0.22099	0.19026	-1.4312	-1.725	-1.9021	-1.7146	-1.7188	-1.7875	-1.7542	-1.8687	-1.5771	-1.6708	-2.1729	-2.0083	-2.0479	-2.0979	-1.5333	-2.1208	98.399	114.253	-121.302	205.275	-75.979	-143.209	179.848	111.849	-91.691	-22.022	-129.853	-20.933	-122.056	107.081	71.682	156.316	0.00083539	0.00096405	0.00033224	1026.4	5.7392e-06	7.262e-06	1508.3	310.25	7.5221e-06	9.6969e-06	560.97	209.17	91.566	37.294	8.2402e-06	107.69	0.00063479	0.0005713	0.00015296	943.46	6.7781e-06	6.1773e-06	1378.3	287.05	6.637e-06	6.1868e-06	513.32	192.47	86.324	34.746	6.3222e-06	98.228	199.041	19.000	-98.701	-129.721	-73.415	-62.744	-129.455	-125.682	-35.446	-77.890	-124.950	-120.617	-121.270	-115.189	-9.481	-115.441	-8191	255	
2315.319	1	1	0	0	0.17365	0.15258	0.176	0.094933	0.15989	0.1642	0.038	0.36431	0.13365	0.26164	0.32334	0.16852	0.17267	0.11809	0.23279	0.13006	-1.2292	-1.5104	-1.7833	-1.7062	-1.4813	-1.7437	-1.7062	-1.8312	-1.6104	-1.5312	-2.0417	-1.5375	-1.775	-2.0646	-1.6021	-2.0458	88.702	168.042	-51.521	114.608	59.986	-137.400	154.547	160.282	116.498	87.036	204.602	199.754	-124.847	52.925	-6.747	184.117	0.00067339	0.00047482	0.00023978	1028	2.544e-06	6.1749e-06	1501.7	309.57	1.1384e-06	4.8835e-06	563.12	207.42	91.353	36.974	4.9077e-06	106.3	0.00061851	0.00056814	0.00016307	949.95	6.5694e-06	6.1001e-06	1378.1	287.29	6.6083e-06	6.0662e-06	514.35	191.11	85.824	34.442	6.868e-06	97.078	200.239	-80.538	-105.166	-129.692	178.096	-69.273	-129.227	-125.460	-36.303	-71.707	-124.968	-120.839	-121.200	-115.119	199.349	-115.462	-8191	255	
2315.439	1	1	0	0	0.12683	0.11437	0.11096	0.20613	0.22246	0.1283	0.45448	0.28586	0.054946	0.089608	0.33559	0.16306	0.009352	0.30173	0.26407	0.053492	-1.4333	-1.7	-1.8917	-1.8542	-1.6271	-2.0833	-1.8958	-1.975	-1.9646	-1.6708	-2.2729	-1.8208	-1.7563	-2.0792	-1.6063	-1.9375	27.918	-12.061	13.316	-116.227	-52.746	144.262	159.927	189.406	171.202	109.062	211.624	-136.872	-129.022	-135.970	148.678	104.490	0.00081807	0.00013136	0.00037551	1020.9	8.1519e-06	5.7795e-06	1508.3	309.93	4.2665e-06	7.5212e-06	561.34	206.95	90.54	36.859	3.6582e-06	107.43	0.00060578	0.00055393	0.00017522	943.04	6.3998e-06	5.8919e-06	1377.2	285.69	6.2895e-06	5.9068e-06	513.39	190.21	85.292	34.417	7.0852e-06	97.59	189.247	3.926	-87.074	-129.378	-57.881	95.735	-129.399	-125.346	-50.451	39.998	-125.345	-121.035	-120.672	-114.951	-24.196	-115.355	-8191	255	
2315.535	1	1	0	0	0.13886	0.21324	0.046428	0.29977	0.38888	0.14738	0.38432	0.3328	0.11205	0.11666	0.23466	0.18502	0.24349	0.1551	0.049103	0.22048	-1.3521	-1.425	-2.0104	-1.875	-1.4667	-2.1292	-1.8979	-2.1417	-1.9229	-1.5521	-2.1917	-2.075	-1.6	-1.9667	-1.775	-1.8563	-51.331	35.418	139.970	207.664	210.388	167.062	118.540	77.184	-107.129	-11.681	-139.153	163.477	162.530	89.207	12.330	182.598	0.00080142	0.00045463	0.00030068	1015.9	5.0944e-06	8.6589e-06	1509.2	308.17	2.4601e-06	2.1814e-06	562.61	207.74	90.625	37.167	7.2964e-06	107.91	0.00057944	0.00055514	0.00018029	935.9	5.9746e-06	6.0395e-06	1378.6	284.75	5.994e-06	6.0846e-06	515.15	190.41	85.084	34.528	7.0691e-06	97.622	194.055	-57.448	-35.436	-129.670	29.265	-61.448	-129.258	-125.527	-13.878	-130.632	-124.947	-121.026	-121.355	-115.169	6.192	-115.345	-8191	255	
2315.632	1	1	0	0	0.1187	0.31328	0.29143	0.043495	0.055121	0.064089	0.25003	0.11252	0.1781	0.22792	0.099001	0.21897	0.32927	0.11794	0.19906	0.28773	-1.4104	-1.2083	-1.6313	-1.8458	-1.6792	-1.7854	-1.9104	-1.9042	-1.85	-1.6792	-1.9438	-1.7	-1.7083	-2.1042	-1.7375	-1.9438	-120.626	96.658	-88.005	199.678	-98.505	130.461	159.976	80.324	35.507	49.953	132.984	-112.871	137.578	108.259	43.195	120.003	0.00066567	0.00028	0.00023792	1020	1.9599e-06	1.0019e-05	1506.3	309.38	7.7171e-06	1.9298e-06	565.87	209.17	91.184	37.249	2.7781e-06	108.21	0.00054568	0.00058948	0.00018025	938.26	5.8797e-06	6.6586e-06	1380.5	285.34	5.8806e-06	6.7331e-06	517.87	191.76	85.377	34.945	6.8694e-06	98.135	196.206	-13.734	-88.617	-129.226	0.891	-49.467	-129.022	-125.382	-39.734	-102.218	-125.251	-120.867	-121.592	-115.029	172.738	-115.256	-8191	255	
2315.728	1	1	0	0	0.065448	0.10278	0.32392	0.15051	0.11685	0.14793	0.173	0.4669	0.083779	0.10462	0.14748	0.18294	0.175	0.078649	0.13589	0.34508	-1.4771	-1.8292	-1.8625	-2.0146	-1.7354	-2.0917	-1.9854	-1.7771	-2.0021	-1.7979	-1.9458	-2.2542	-1.6729	-2.1708	-1.8083	-1.7938	114.878	-69.731	61.196	-1.150	141.109	-58.551	210.967	138.665	-64.351	126.232	177.487	168.353	183.569	27.528	-109.625	-131.050	0.00066456	9.6314e-05	0.00047498	1027	3.4169e-06	1.1853e-05	1507.4	308.8	1.8142e-06	7.234e-06	562.17	208.03	90.862	37.027	6.1811e-06	107.69	0.00055355	0.00062754	0.00017351	939.65	5.9483e-06	7.0094e-06	1379.3	285.19	6.1243e-06	7.1878e-06	514.33	190.61	85.555	34.919	6.7785e-06	97.518	194.855	109.424	-55.869	-129.422	22.128	-31.977	-129.226	-125.754	148.442	-64.483	-125.041	-120.864	-121.723	-115.192	18.604	-115.315	-8191	255	
2315.824	1	1	0	0	0.33222	0.041839	0.080706	0.32858	0.18095	0.033839	0.54917	0.28699	0.30129	0.10207	0.14636	0.16728	0.053414	0.08311	0.054599	0.38954	-1.4458	-1.7396	-1.5854	-2.0021	-1.3083	-2.0521	-1.7917	-1.5	-2.0667	-1.5479	-1.9292	-2.0833	-1.8188	-2.0771	-1.9917	-1.5833	-131.998	-75.669	51.645	133.178	-141.028	17.146	157.379	95.862	-19.892	94.067	209.549	-129.393	116.515	-56.083	-138.459	-64.104	0.00072588	0.00052436	5.056e-05	1026.4	4.2202e-06	8.683e-06	1496.2	307.92	4.8585e-06	3.7798e-06	562.04	207.85	90.564	37.117	1.1627e-05	107.43	0.00059318	0.00066502	0.00017097	938.39	6.4982e-06	7.3606e-06	1372.7	284.07	6.5744e-06	7.2606e-06	512.19	189.52	85.895	34.875	6.5745e-06	97.147	193.154	166.921	34.389	-129.451	-9.133	-2.337	-129.400	-125.402	-126.329	33.319	-125.360	-120.735	-121.414	-114.609	7.808	-115.175	-8191	255	
2315.920	1	1	0	0	0.17405	0.032557	0.11049	0.17181	0.095722	0.15335	0.32289	0.10516	0.19507	0.14347	0.067494	0.066147	0.1451	0.053676	0.16374	0.21323	-1.6812	-1.7188	-1.7917	-2.2646	-1.8021	-1.8479	-2.0292	-1.6354	-2.0625	-1.6708	-1.7188	-1.9375	-1.6771	-2.0271	-1.8813	-1.8833	-88.159	111.892	163.099	183.958	192.059	64.033	167.682	155.081	198.152	53.776	-93.185	-21.693	171.243	69.897	153.479	192.293	0.00069566	0.00093066	0.00026039	1021.1	3.266e-06	1.5593e-05	1504.1	308.09	1.0147e-05	5.7424e-06	562.26	205.74	90.057	36.677	1.392e-05	106.85	0.00062656	0.00064222	0.00016282	934.96	6.8677e-06	7.0196e-06	1374.1	284.29	7.0233e-06	7.0952e-06	511.21	189	85.812	34.505	6.3836e-06	96.875	188.105	-20.244	-25.008	-129.610	-62.086	38.148	-129.287	-125.560	-61.553	-29.331	-124.906	-120.714	-121.645	-114.951	-25.595	-115.264	-8191	255	
2316.039	1	1	0	0	0.24503	0.30291	0.066061	0.16206	0.27248	0.30622	0.13241	0.30089	0.19437	0.094417	0.16932	0.31092	0.22693	0.31828	0.18876	0.2986	-1.5708	-1.8208	-1.6187	-2.3063	-1.6125	-1.7521	-2.0792	-1.6583	-1.6646	-1.425	-1.6542	-2.0333	-1.6375	-1.8	-1.9583	-1.8417	-40.307	175.911	51.720	210.030	-14.577	-17.696	166.293	-82.462	77.231	-103.616	126.402	-121.927	193.051	-109.778	76.148	200.560	0.00078757	0.00074051	0.00016952	1018.3	1.9391e-06	6.3969e-06	1504.2	307.77	4.0423e-06	1.0801e-05	560.61	207.01	90.365	36.506	1.5597e-05	105.85	0.00065942	0.00062782	0.00016	934.55	7.1748e-06	6.726e-06	1370	283.95	7.1793e-06	6.6407e-06	509.83	189.67	85.73	34.089	6.0356e-06	96.203	187.285	-71.649	-95.248	-129.683	-70.849	10.086	-129.101	-125.447	17.977	-63.993	-125.059	-121.263	-121.647	-115.430	19.700	-115.551	-8191	255	
2316.135	1	1	0	0	0.14135	0.18009	0.070406	0.30844	0.12314	0.091128	0.2546	0.20512	0.2311	0.25838	0.41402	0.13046	0.26217	0.21309	0.057172	0.32836	-1.5479	-2.1292	-1.625	-2.1854	-1.8042	-1.9521	-2.1875	-1.5708	-1.8083	-1.6542	-1.5312	-2.1854	-1.8937	-1.8417	-2.0417	-1.8417	17.721	-130.247	-9.080	154.345	-32.346	197.272	121.229	132.183	-52.271	187.088	185.305	151.234	185.366	197.455	209.718	124.285	0.00071358	0.00074618	0.00011184	1023	4.7182e-06	7.7314e-06	1501.3	307.84	7.966e-06	3.7976e-06	562.15	204.7	89.998	36.492	6.9509e-06	105.45	0.00064173	0.00058304	0.0001515	938.03	7.0441e-06	6.3614e-06	1366.3	284.7	6.9798e-06	6.3669e-06	508.99	188.6	85.214	34.074	5.7426e-06	95.967	202.667	21.561	15.487	-130.024	113.711	5.497	-129.327	-125.501	-26.177	-53.865	-125.089	-121.050	-121.727	-114.946	15.343	-115.125	-8191	255	
2316.231	1	1	0	0	0.10759	0.3531	0.36373	0.10295	0.21716	0.37079	0.11598	0.31086	0.09392	0.17564	0.083054	0.24481	0.2764	0.27646	0.17563	0.099775	-1.5458	-2.0021	-1.7042	-2.125	-1.7604	-1.7938	-2.3208	-1.6875	-1.9021	-1.9375	-1.7208	-1.8687	-1.7771	-1.4583	-1.85	-1.8896	-11.801	-42.830	-34.182	-27.522	-55.468	-37.308	135.002	103.218	195.507	27.702	28.063	-109.505	133.207	194.505	60.380	213.062	0.00079727	0.00088647	0.00016365	1021	5.2895e-06	3.3043e-06	1487	307.6	7.0174e-06	5.1112e-06	559.05	204.68	89.661	36.27	6.3369e-06	105.23	0.00062204	0.00055406	0.00014772	939.4	6.7287e-06	6.111e-06	1362.4	283.92	6.5275e-06	6.0137e-06	508.13	188.83	84.747	33.856	5.9541e-06	95.769	205.493	-42.029	-16.226	-129.592	-19.086	83.832	-129.210	-125.539	27.120	-35.759	-125.073	-120.795	-121.075	-114.896	-61.317	-115.236	-8191	255	
2316.327	1	1	0	0	0.30976	0.18915	0.1036	0.15791	0.12996	0.13177	0.38261	0.30844	0.083575	0.1024	0.48218	0.14502	0.10528	0.10378	0.32723	0.21642	-1.4396	-1.9667	-1.4688	-2.0042	-1.7625	-1.6354	-2.0812	-1.6771	-1.6479	-1.8229	-1.4771	-1.9438	-1.9333	-1.6646	-2.0667	-1.9646	204.931	-68.576	151.742	175.708	211.808	176.795	178.211	173.340	-20.301	-67.130	192.833	197.347	15.360	115.598	-63.759	123.586	0.00056572	0.0012277	0.00024915	1019.7	8.8278e-06	2.3332e-06	1491.7	307.69	9.3018e-06	8.833e-06	559.89	207.59	89.204	36.893	3.023e-06	106.11	0.00059835	0.00054643	0.00015654	942.94	6.5108e-06	6.0305e-06	1367.9	285.51	6.5196e-06	6.028e-06	510.82	190.21	85.024	34.097	6.5553e-06	96.408	194.878	-26.126	-117.531	-129.703	23.081	-52.101	-129.122	-125.396	24.931	7.913	-125.046	-120.805	-121.261	-114.797	-58.406	-115.199	-8191	255	
2316.423	1	1	0	0	0.19057	0.071825	0.083686	0.26833	0.21602	0.083316	0.19185	0.29337	0.18732	0.2719	0.49029	0.18474	0.20302	0.064741	0.22953	0.24281	-1.3375	-2.1771	-1.6292	-2.0896	-1.5833	-1.4937	-2.0708	-1.9896	-1.7812	-1.9417	-1.6917	-1.7958	-1.95	-1.7271	-2.0125	-1.8917	76.337	-39.404	81.527	152.100	215.031	69.867	115.298	163.198	209.691	-80.526	193.838	-138.409	178.642	-45.104	139.929	-130.707	0.00077012	0.00070625	0.00011456	1021.6	7.743e-07	1.2544e-05	1500	308.98	8.7509e-06	3.8219e-06	562.67	206.12	90.08	36.353	8.4563e-06	105.99	0.00060186	0.00054585	0.00017205	943.32	6.5509e-06	6.0691e-06	1375.1	286.44	6.5722e-06	6.0939e-06	514.27	190.07	85.058	33.98	7.2746e-06	96.318	194.471	-21.619	114.372	-129.389	-18.732	-19.714	-129.092	-125.369	-50.053	-93.219	-125.251	-121.034	-121.428	-115.507	-38.587	-115.297	-8191	255	
2316.520	1	1	0	0	0.10861	0.33783	0.17469	0.13985	0.040025	0.33183	0.39373	0.027238	0.052309	0.061601	0.028872	0.33724	0.024744	0.3413	0.073151	0.24631	-1.15	-2.075	-1.7042	-1.9521	-1.9896	-1.7563	-2.075	-1.9958	-1.6562	-1.9854	-1.9458	-1.8875	-2.2687	-1.6625	-1.8708	-1.8625	-54.594	40.614	-137.643	89.592	211.513	34.421	135.177	184.451	101.688	98.715	-125.338	139.002	74.393	190.007	-69.752	162.995	0.00060148	0.00056937	0.00016222	1026	8.3625e-06	7.4221e-06	1491.7	308.91	1.2665e-06	5.7141e-06	561.18	207.03	90.546	36.225	1.1879e-05	105.74	0.00060599	0.00057704	0.00019012	943.16	6.5378e-06	6.4492e-06	1375.6	285.85	6.3751e-06	6.4673e-06	513.63	189.59	84.913	34.017	7.3519e-06	95.753	198.574	-50.318	35.033	-129.388	-47.612	-30.463	-129.195	-125.506	-133.666	103.349	-125.256	-120.925	-121.435	-115.276	-52.960	-115.453	-8191	255	
2316.616	1	1	0	0	0.17173	0.30843	0.26243	0.27536	0.063495	0.23555	0.30614	0.26037	0.052208	0.32829	0.29729	0.35944	0.096401	0.13038	0.28612	0.41778	-1.2	-1.9708	-1.5542	-1.875	-2.0458	-1.75	-2.0271	-2.025	-1.5833	-2.0917	-1.8229	-1.9354	-2.15	-1.7479	-1.8229	-1.95	212.253	-88.229	124.412	-130.614	197.957	11.777	73.705	160.513	22.337	13.708	136.193	-110.206	4.852	182.407	-24.819	108.861	0.00073092	0.00038261	0.000217	1022.4	1.0657e-05	7.2e-06	1495.3	308.02	4.3568e-06	9.3424e-06	558.53	204.99	89.935	36.162	1.3036e-05	105.38	0.00058563	0.00060624	0.0001904	939.99	6.253e-06	6.8891e-06	1373.8	284.48	6.251e-06	7.0343e-06	512.07	188.33	84.764	33.991	7.4612e-06	95.491	195.644	-47.219	-14.553	-129.569	-56.223	185.029	-129.370	-125.386	-65.110	-92.926	-125.310	-120.751	-121.205	-114.860	-63.334	-115.375	-8191	255	
#DATA ENDS
