BOXY.EXE: ISS Imagent and Oximeter Data Acquisition Program Version 0.80
Ascii Record File

#ACQ INFORMATION
2  Detector Channels 
16  External MUX Channels 
1  Auxiliary Channels 
5000  Waveform (CCF) Frequency (Hz)
1  Waveforms Skipped 
30  Waveforms Averaged 
1  Cycles Averaged 
16  Acquisitions per Waveform 
10.0806  Updata Rate (Hz) 

#FILE INFORMATION
TRUE -- External MUX Channel results are PARSED.
FALSE -- AC DC and Phase are NOT grouped.
TRUE -- Companion Program Settings File CREATED.
FALSE -- AC data not excluded
FALSE -- DC data not excluded
FALSE -- Phase data not excluded
FALSE -- Auxillary Chn. data not excluded
Tab delimiters

#CALIBRATION STATE
TRUE -- Waveform Calibration Values APPLIED.


#AUX CALIBRATION VALUES
Val Type	aux-1	

Term	1.0000e+00	
Factor	0.0000e+00	


#WF CALIBRATION VALUES
A = Detector Channel
Val Type	A-AC1	A-AC2	A-AC3	A-AC4	A-AC5	A-AC6	A-AC7	A-AC8	A-AC9	A-AC10	A-AC11	A-AC12	A-AC13	A-AC14	A-AC15	A-AC16	A-DC1	A-DC2	A-DC3	A-DC4	A-DC5	A-DC6	A-DC7	A-DC8	A-DC9	A-DC10	A-DC11	A-DC12	A-DC13	A-DC14	A-DC15	A-DC16	A-Ph1	A-Ph2	A-Ph3	A-Ph4	A-Ph5	A-Ph6	A-Ph7	A-Ph8	A-Ph9	A-Ph10	A-Ph11	A-Ph12	A-Ph13	A-Ph14	A-Ph15	A-Ph16	

Term	0.00000e+00	0.00000e+00	0.00000e+00	0.00000e+00	0.00000e+00	0.00000e+00	0.00000e+00	0.00000e+00	0.00000e+00	0.00000e+00	0.00000e+00	0.00000e+00	0.00000e+00	0.00000e+00	0.00000e+00	0.00000e+00	0.00000e+00	0.00000e+00	0.00000e+00	0.00000e+00	0.00000e+00	0.00000e+00	0.00000e+00	0.00000e+00	0.00000e+00	0.00000e+00	0.00000e+00	0.00000e+00	0.00000e+00	0.00000e+00	0.00000e+00	0.00000e+00	0.00000e+00	0.00000e+00	0.00000e+00	0.00000e+00	0.00000e+00	0.00000e+00	0.00000e+00	0.00000e+00	0.00000e+00	0.00000e+00	0.00000e+00	0.00000e+00	0.00000e+00	0.00000e+00	0.00000e+00	0.00000e+00	
Factor	1.00000e+00	1.00000e+00	1.00000e+00	1.00000e+00	1.00000e+00	1.00000e+00	1.00000e+00	1.00000e+00	1.00000e+00	1.00000e+00	1.00000e+00	1.00000e+00	1.00000e+00	1.00000e+00	1.00000e+00	1.00000e+00	1.00000e+00	1.00000e+00	1.00000e+00	1.00000e+00	1.00000e+00	1.00000e+00	1.00000e+00	1.00000e+00	1.00000e+00	1.00000e+00	1.00000e+00	1.00000e+00	1.00000e+00	1.00000e+00	1.00000e+00	1.00000e+00	X	X	X	X	X	X	X	X	X	X	X	X	X	X	X	X	

B = Detector Channel
Val Type	B-AC1	B-AC2	B-AC3	B-AC4	B-AC5	B-AC6	B-AC7	B-AC8	B-AC9	B-AC10	B-AC11	B-AC12	B-AC13	B-AC14	B-AC15	B-AC16	B-DC1	B-DC2	B-DC3	B-DC4	B-DC5	B-DC6	B-DC7	B-DC8	B-DC9	B-DC10	B-DC11	B-DC12	B-DC13	B-DC14	B-DC15	B-DC16	B-Ph1	B-Ph2	B-Ph3	B-Ph4	B-Ph5	B-Ph6	B-Ph7	B-Ph8	B-Ph9	B-Ph10	B-Ph11	B-Ph12	B-Ph13	B-Ph14	B-Ph15	B-Ph16	

Term	0.00000e+00	0.00000e+00	0.00000e+00	0.00000e+00	0.00000e+00	0.00000e+00	0.00000e+00	0.00000e+00	0.00000e+00	0.00000e+00	0.00000e+00	0.00000e+00	0.00000e+00	0.00000e+00	0.00000e+00	0.00000e+00	0.00000e+00	0.00000e+00	0.00000e+00	0.00000e+00	0.00000e+00	0.00000e+00	0.00000e+00	0.00000e+00	0.00000e+00	0.00000e+00	0.00000e+00	0.00000e+00	0.00000e+00	0.00000e+00	0.00000e+00	0.00000e+00	-1.39278e+02	-1.18623e+02	-1.35795e+02	-1.82111e+02	-6.77916e+01	-8.69060e+01	-1.58920e+02	-1.62015e+02	-8.07281e+01	-9.04246e+01	-1.70527e+02	-1.72392e+02	-1.77825e+02	-1.76618e+02	-8.58281e+01	-1.49177e+02	
Factor	2.08840e-05	1.12845e-04	4.51227e-05	1.72743e-01	1.01973e-06	1.29749e-06	1.94666e-01	5.53233e-02	1.05499e-06	1.31565e-06	9.43069e-02	3.35196e-02	2.78317e-02	9.88634e-03	1.30373e-06	1.45576e-02	1.37347e-06	1.43500e-06	4.00220e-07	8.51377e-02	1.56614e-08	1.57660e-08	8.99492e-02	2.72962e-02	1.56928e-08	1.57274e-08	4.45325e-02	1.58891e-02	1.37582e-02	4.84121e-03	1.57627e-08	6.86061e-03	X	X	X	X	X	X	X	X	X	X	X	X	X	X	X	X	



#DISTANCE SETTINGS
A = Detector Channel
A-1	A-2	A-3	A-4	A-5	A-6	A-7	A-8	A-9	A-10	A-11	A-12	A-13	A-14	A-15	A-16	

2.5000e+00	3.0000e+00	2.5000e+00	3.0000e+00	2.0000e+00	3.0000e+00	1.5000e+00	3.0000e+00	3.0000e+00	3.0000e+00	3.0000e+00	3.0000e+00	3.0000e+00	3.0000e+00	1.5000e+00	3.0000e+00	

B = Detector Channel
B-1	B-2	B-3	B-4	B-5	B-6	B-7	B-8	B-9	B-10	B-11	B-12	B-13	B-14	B-15	B-16	

1.0000e+01	1.0000e+01	1.0000e+01	1.4400e+00	1.0000e+01	1.0000e+01	1.5100e+00	1.9400e+00	1.0000e+01	1.0000e+01	1.9900e+00	2.4900e+00	2.4100e+00	2.9000e+00	1.0000e+01	2.9800e+00	




#DATA BEGINS
time	group	step	mark	flag	A-AC1	A-AC2	A-AC3	A-AC4	A-AC5	A-AC6	A-AC7	A-AC8	A-AC9	A-AC10	A-AC11	A-AC12	A-AC13	A-AC14	A-AC15	A-AC16	A-DC1	A-DC2	A-DC3	A-DC4	A-DC5	A-DC6	A-DC7	A-DC8	A-DC9	A-DC10	A-DC11	A-DC12	A-DC13	A-DC14	A-DC15	A-DC16	A-Ph1	A-Ph2	A-Ph3	A-Ph4	A-Ph5	A-Ph6	A-Ph7	A-Ph8	A-Ph9	A-Ph10	A-Ph11	A-Ph12	A-Ph13	A-Ph14	A-Ph15	A-Ph16	B-AC1	B-AC2	B-AC3	B-AC4	B-AC5	B-AC6	B-AC7	B-AC8	B-AC9	B-AC10	B-AC11	B-AC12	B-AC13	B-AC14	B-AC15	B-AC16	B-DC1	B-DC2	B-DC3	B-DC4	B-DC5	B-DC6	B-DC7	B-DC8	B-DC9	B-DC10	B-DC11	B-DC12	B-DC13	B-DC14	B-DC15	B-DC16	B-Ph1	B-Ph2	B-Ph3	B-Ph4	B-Ph5	B-Ph6	B-Ph7	B-Ph8	B-Ph9	B-Ph10	B-Ph11	B-Ph12	B-Ph13	B-Ph14	B-Ph15	B-Ph16	aux-1	digaux	

3299.684	1	1	0	256	0.24669	0.20008	0.26749	0.17019	0.18108	0.18543	0.095872	0.16876	0.2028	0.28394	0.20373	0.27853	0.32804	0.10021	0.095485	0.17297	-1.4396	-1.4771	-1.6375	-1.85	-1.5958	-1.7083	-1.5875	-1.4917	-1.8542	-1.7521	-1.7771	-1.8875	-1.6271	-1.5917	-1.6271	-1.6208	28.764	21.172	14.751	84.261	4.089	6.469	181.602	104.857	176.356	62.510	244.915	228.313	187.815	131.056	101.461	27.859	0.00015298	0.00034222	0.00012997	378.92	4.6218e-07	4.0992e-06	542.89	114.04	1.2931e-06	3.0106e-06	201.35	66.879	28.456	9.674	5.3465e-06	29.263	0.00029813	0.00032767	8.5929e-05	384.48	3.308e-06	3.5777e-06	549.92	116.75	3.3107e-06	3.5391e-06	202.81	67.909	30.499	10.429	3.3466e-06	29.72	193.309	-32.066	-50.615	-95.731	4.469	-81.218	-95.994	-91.683	241.917	-14.969	-92.046	-87.149	-87.225	-80.849	0.867	-81.358	-8191	255	
3299.780	1	1	0	0	0.040509	0.27421	0.15336	0.35228	0.1373	0.15836	0.35753	0.17562	0.36126	0.2403	0.23769	0.14173	0.11243	0.37976	0.28112	0.10975	-1.4625	-1.5729	-1.4354	-1.9813	-1.3583	-1.6417	-2.0083	-1.3083	-1.65	-1.425	-1.6333	-1.9208	-1.5812	-1.6333	-1.6354	-1.5063	114.604	196.748	61.288	157.494	241.134	111.611	243.858	-48.195	-105.420	-85.778	168.263	244.317	9.505	154.270	-93.450	38.832	0.00010898	0.00014142	0.00013375	378.93	2.5706e-06	6.4036e-06	542.53	114.52	3.6337e-06	2.4657e-06	200.24	66.238	28.442	9.6231	2.5224e-06	29.233	0.00030239	0.00032106	8.4402e-05	383.77	3.4416e-06	3.5286e-06	547.48	116.75	3.4603e-06	3.5296e-06	202.03	67.61	30.627	10.358	3.3545e-06	29.526	158.358	8.857	-49.746	-96.047	230.227	70.703	-95.945	-91.717	68.320	11.307	-91.987	-87.252	-87.501	-80.865	45.713	-81.277	-8191	255	
3299.853	1	1	0	0	0.20216	0.10786	0.34594	0.32808	0.15646	0.078792	0.13765	0.25858	0.12751	0.24225	0.36264	0.23067	0.23951	0.11021	0.18019	0.30275	-1.3354	-1.4813	-1.6417	-2.0708	-1.5167	-1.5542	-1.8188	-1.3896	-1.6958	-1.6208	-1.4896	-1.7917	-1.4604	-1.5542	-1.7938	-1.1812	173.149	-25.634	31.870	-85.586	23.573	-16.185	-102.545	154.992	221.299	157.752	171.752	177.996	-92.726	51.819	154.352	-24.020	0.00011413	0.00013753	0.00012807	378.59	1.4969e-06	4.4151e-06	548.17	113.95	2.444e-06	1.5628e-06	201.21	66.756	28.442	9.7277	2.2053e-06	29.491	0.0003202	0.00031704	8.4382e-05	384.47	3.5759e-06	3.4845e-06	550.25	116.57	3.6319e-06	3.4725e-06	202.56	68.09	30.811	10.421	3.381e-06	29.881	183.016	168.376	-35.263	-95.807	-14.621	-32.686	-96.093	-91.680	192.669	-4.050	-91.879	-86.979	-87.205	-81.027	50.659	-81.434	-8191	255	
3299.972	1	1	0	0	0.10876	0.22973	0.10398	0.077268	0.14559	0.29576	0.2042	0.26062	0.42881	0.182	0.35646	0.2595	0.25387	0.073252	0.26785	0.20402	-1.2104	-1.5292	-1.2271	-1.7479	-1.3375	-1.5542	-1.8875	-1.3708	-1.5042	-1.5896	-1.3604	-1.7062	-1.4562	-1.4917	-1.6417	-1.4354	235.687	-25.925	34.194	-82.155	64.733	-57.358	241.668	108.512	50.277	-27.424	106.548	162.549	-103.976	166.097	133.121	95.887	0.00018101	4.4483e-05	0.0001325	378.05	6.7394e-07	5.5334e-07	545.16	115.05	1.2445e-06	3.6693e-06	202.02	67.267	28.704	9.8298	3.5811e-06	29.731	0.00033531	0.00032215	8.6532e-05	386.25	3.7645e-06	3.5496e-06	550.6	117.55	3.7537e-06	3.5298e-06	203.78	68.795	30.903	10.525	3.444e-06	30.276	206.388	-82.646	6.061	-95.423	240.087	-107.075	-95.994	-91.656	-102.364	4.270	-92.151	-87.433	-87.224	-81.220	112.384	-81.582	-8191	255	
3300.068	1	1	0	0	0.17849	0.15801	0.08013	0.22531	0.23017	0.095574	0.30475	0.15091	0.17881	0.14386	0.099345	0.14881	0.32287	0.21063	0.14433	0.10563	-1.2375	-1.6229	-1.3937	-1.8333	-1.3729	-1.3479	-1.9667	-1.3604	-1.7437	-1.7333	-1.4917	-1.7875	-1.6542	-1.4354	-1.9042	-1.6292	-28.279	141.297	108.831	179.188	-29.601	25.779	179.516	136.123	25.010	223.856	-77.616	109.186	5.542	215.965	61.753	212.672	0.00012727	0.00074056	0.00015897	379.76	2.9381e-06	1.2268e-06	547.54	114.55	3.7932e-06	3.8673e-06	202.05	67.008	28.545	9.7596	1.959e-06	29.758	0.00033147	0.00032111	8.8951e-05	386.82	3.6536e-06	3.4516e-06	550.51	117.55	3.6376e-06	3.382e-06	203.32	68.743	30.785	10.447	3.3399e-06	30.196	179.569	-49.536	-13.173	-96.031	58.359	179.177	-96.092	-91.625	-91.429	-28.385	-91.999	-87.133	-87.968	-80.500	98.628	-81.351	-8191	255	
3300.165	1	1	0	0	0.054753	0.041863	0.24749	0.15583	0.10164	0.15999	0.50107	0.068296	0.12558	0.053819	0.15614	0.32066	0.084055	0.21811	0.23529	0.22326	-1.2542	-1.6437	-1.3396	-1.8438	-1.5958	-1.6146	-1.8021	-1.5042	-1.7396	-1.6313	-1.5938	-1.8458	-1.8625	-1.5417	-1.9417	-1.4917	132.446	-28.460	66.660	136.933	-91.906	25.807	219.281	197.686	-15.898	165.246	81.964	-45.596	97.657	184.811	150.869	225.586	0.00012828	0.00022484	3.2306e-05	378.38	4.0092e-06	3.8443e-06	542.03	113.72	4.151e-06	1.0548e-06	200.36	66.583	28.153	9.9051	1.7857e-06	30.098	0.00031624	0.00030727	8.5481e-05	385.77	3.5256e-06	3.3345e-06	547.16	117.04	3.4451e-06	3.3382e-06	202.76	68.633	30.592	10.514	3.4494e-06	30.479	215.660	-28.462	130.161	-95.902	4.916	-45.712	-96.001	-91.873	-10.812	94.015	-91.803	-86.981	-87.233	-80.874	-62.223	-80.958	-8191	255	
3300.261	1	1	0	0	0.26525	0.09984	0.22403	0.34495	0.23626	0.18384	0.075495	0.12249	0.35822	0.098194	0.24827	0.090244	0.25231	0.20268	0.18468	0.39579	-1.1562	-1.8771	-1.4813	-1.725	-1.7437	-1.4312	-1.8208	-1.4688	-1.5729	-1.9562	-1.4937	-1.6812	-1.7625	-1.3083	-1.7313	-1.5354	75.008	57.191	-45.031	106.425	-97.117	34.588	150.146	229.623	120.576	147.928	175.797	107.811	235.082	-77.972	63.532	169.118	0.00016533	0.00025981	0.00013608	376.85	2.7081e-06	2.1427e-06	543.88	114.26	1.7129e-06	5.0451e-06	201.05	67.093	28.446	9.9467	3.7979e-07	30.334	0.0003068	0.00030154	8.8506e-05	383.95	3.4002e-06	3.3116e-06	548.79	116.98	3.3679e-06	3.2948e-06	203.48	68.94	30.473	10.565	3.5569e-06	30.658	204.030	-28.187	-46.640	-96.163	26.139	-70.891	-96.090	-91.663	58.309	-9.488	-91.815	-87.244	-87.588	-80.477	63.953	-81.606	-8191	255	
3300.381	1	1	0	0	0.12793	0.21196	0.20743	0.20693	0.11159	0.33979	0.2734	0.34274	0.072653	0.18148	0.089492	0.12681	0.049143	0.1567	0.099816	0.10059	-1.0063	-1.8604	-1.3438	-1.6167	-1.6812	-1.2708	-1.8417	-1.5583	-1.4646	-1.8396	-1.4229	-1.5354	-1.6271	-1.6	-2.0083	-1.5646	161.819	214.829	-62.834	194.362	-75.452	-70.878	239.520	201.220	-52.854	54.146	-37.347	79.922	1.968	207.244	-52.537	135.430	0.00017356	0.00013545	4.1032e-05	374.58	3.7903e-06	9.4619e-07	547.47	113.32	1.8867e-06	4.3194e-06	201.88	67.521	28.592	9.9083	3.399e-06	30.427	0.00030293	0.00029933	9.1009e-05	381.15	3.2883e-06	3.2808e-06	549.63	116.34	3.3258e-06	3.3276e-06	204.47	69.123	30.528	10.637	3.5453e-06	30.855	185.797	81.160	245.313	-96.112	-67.123	156.328	-95.892	-90.972	-9.901	37.776	-91.352	-87.169	-87.210	-80.744	-37.823	-81.224	-8191	255	
3300.453	1	1	0	0	0.075308	0.27632	0.11431	0.20242	0.10445	0.092061	0.32167	0.054118	0.4066	0.13868	0.26276	0.25443	0.18391	0.033214	0.20946	0.35685	-0.66667	-1.7146	-1.3792	-1.6938	-1.9292	-1.3854	-1.7958	-1.6292	-1.4875	-1.9604	-1.25	-1.5646	-1.7354	-1.3583	-1.8229	-1.5458	219.515	42.917	201.938	-58.592	64.939	5.639	154.019	41.659	65.834	107.634	-74.865	172.343	151.592	46.634	154.232	-24.681	0.00016336	0.00029708	0.00010615	373.62	2.2286e-06	2.7437e-06	542.99	113.07	2.6787e-06	1.6475e-06	201.1	67.428	28.562	9.9298	8.183e-06	30.372	0.00029124	0.00030192	9.0132e-05	380.27	3.1748e-06	3.3209e-06	547.23	115.77	3.1705e-06	3.2789e-06	202.6	68.841	30.345	10.613	3.4333e-06	30.59	181.685	39.318	-96.324	-95.916	24.856	143.832	-95.443	-90.969	-12.149	241.251	-91.439	-86.559	-87.192	-80.587	-39.244	-81.521	-8191	255	
3300.574	1	1	0	0	0.073235	0.097252	0.12813	0.21281	0.046218	0.097981	0.32669	0.068186	0.3795	0.2307	0.021002	0.23059	0.13896	0.18909	0.098207	0.24219	-0.90417	-1.8125	-1.4688	-1.7021	-1.825	-1.3104	-1.7958	-1.5917	-1.4167	-1.7521	-1.6208	-1.6833	-1.7938	-1.5729	-1.6083	-1.8771	-47.227	132.549	73.307	-5.205	76.694	-94.758	213.201	-86.647	101.488	78.590	119.429	216.117	181.297	5.843	66.978	-76.062	0.00011527	0.00018893	2.1181e-05	376.4	1.3746e-06	1.9922e-06	543.44	113.7	1.4599e-06	1.8963e-06	203.65	67.697	28.66	9.9293	3.4627e-06	30.305	0.0002846	0.00030817	8.6093e-05	380.75	3.1082e-06	3.3771e-06	548.38	115.94	3.1291e-06	3.3821e-06	204.23	69.012	30.524	10.658	3.3605e-06	30.533	197.707	-47.168	112.004	-95.761	77.583	117.477	-95.815	-91.375	33.144	59.303	-91.991	-87.341	-87.702	-80.751	26.592	-81.295	-8191	255	
3300.668	1	1	0	0	0.13007	0.061618	0.23847	0.12655	0.15698	0.16477	0.061727	0.050325	0.16233	0.27011	0.25081	0.080451	0.13648	0.10087	0.17135	0.29804	-1.0667	-1.6083	-1.6583	-1.4042	-1.7729	-1.5688	-1.5625	-1.6646	-1.3292	-1.7479	-1.6688	-1.3354	-1.6917	-1.5312	-1.3604	-1.8021	41.084	-47.173	100.895	124.188	42.310	-52.513	27.948	42.845	165.304	153.933	127.810	-59.480	182.633	-85.800	40.015	226.283	0.00014832	0.00025874	9.0883e-05	376.59	5.7778e-07	2.2292e-06	544.36	114.39	8.1961e-07	2.4653e-06	203.47	67.673	28.681	10.047	4.5839e-06	30.528	0.00029021	0.00031405	8.4532e-05	382.17	3.1839e-06	3.4395e-06	549.92	116.38	3.1562e-06	3.4125e-06	204.05	68.741	30.646	10.652	3.261e-06	30.672	195.001	-51.904	236.594	-95.817	32.316	24.602	-96.222	-91.379	80.223	-48.488	-91.941	-87.134	-87.086	-80.467	-59.548	-81.224	-8191	255	
3300.764	1	1	0	0	0.14102	0.26665	0.1186	0.031905	0.13844	0.28143	0.34036	0.16315	0.13897	0.11573	0.2217	0.27212	0.074998	0.15933	0.20283	0.2594	-1.125	-1.7979	-1.7458	-1.6729	-1.7375	-1.425	-1.5354	-1.7458	-1.5187	-1.7375	-1.8771	-1.3146	-1.6083	-1.5542	-1.6812	-1.8833	-97.213	16.045	140.694	-99.349	-49.417	173.867	192.994	166.970	184.630	-5.140	66.207	99.516	128.964	109.183	95.384	84.721	0.00017407	6.2126e-05	0.00020426	379.28	1.0404e-06	3.8457e-06	545.85	114.33	3.9515e-06	4.5937e-06	204.14	68.233	28.983	9.996	4.3283e-06	30.702	0.00029716	0.00031252	8.2488e-05	382.71	3.3349e-06	3.4838e-06	550.2	116.84	3.4145e-06	3.4994e-06	204.35	69.315	31.033	10.733	3.3216e-06	30.921	190.297	-103.379	-72.412	-95.329	-64.473	76.880	-95.827	-91.516	56.238	-49.552	-91.720	-87.029	-87.374	-80.598	-22.605	-81.095	-8191	255	
3300.860	1	1	0	0	0.091677	0.24996	0.24507	0.0349	0.36644	0.13539	0.063226	0.21485	0.22608	0.37489	0.10795	0.26388	0.24151	0.2617	0.35007	0.13268	-1.0146	-1.4667	-1.7667	-1.5187	-1.8375	-1.7917	-1.5604	-1.975	-1.6229	-1.7687	-1.9667	-1.3167	-1.9083	-1.525	-1.35	-1.9167	172.670	57.932	103.754	-58.867	214.851	-93.140	162.156	173.199	219.746	-7.490	97.393	8.680	-108.275	216.745	41.513	-24.349	0.00015253	0.00037361	0.00011466	377.18	2.7525e-06	2.6651e-06	543.64	114.07	2.7857e-06	8.0137e-07	201.31	68.311	28.643	10.053	2.5693e-06	30.68	0.00031765	0.00032159	8.4852e-05	382.52	3.5717e-06	3.4994e-06	548.85	116.78	3.5736e-06	3.4344e-06	203.35	69.211	31.053	10.731	3.2803e-06	30.966	187.336	-42.637	67.836	-95.795	49.693	86.460	-95.976	-91.523	-23.207	-15.997	-91.875	-86.901	-87.479	-80.951	-17.714	-81.270	-8191	255	
3300.981	1	1	0	0	0.11775	0.3114	0.12336	0.20471	0.21043	0.18308	0.28318	0.17681	0.11364	0.16238	0.1249	0.14785	0.14429	0.043196	0.19709	0.01233	-1.0521	-1.4708	-1.8708	-1.5167	-1.7687	-1.8375	-1.4521	-1.875	-1.4042	-1.55	-1.7437	-1.4104	-1.6083	-1.7354	-1.5167	-1.8875	48.557	114.151	169.277	140.243	226.120	-27.061	224.593	181.887	-11.242	50.119	79.497	201.100	220.383	235.811	249.928	187.309	0.00011269	0.00044899	0.00016984	374.94	8.8902e-07	5.4478e-06	541.24	114.18	3.1973e-07	4.353e-06	203.68	68.195	28.696	10.03	3.7484e-06	30.724	0.00032293	0.00031003	8.2937e-05	381.04	3.5404e-06	3.3533e-06	547.32	116.7	3.5456e-06	3.2729e-06	204.02	69.532	30.961	10.656	3.1361e-06	31.009	174.686	-25.800	-22.814	-95.729	17.567	22.587	-95.405	-91.049	217.404	26.243	-91.202	-87.044	-86.804	-80.791	23.386	-80.812	-8191	255	
3301.053	1	1	0	0	0.31066	0.17724	0.14475	0.076764	0.14362	0.19209	0.31483	0.22424	0.20437	0.39633	0.12779	0.17224	0.26596	0.16767	0.19079	0.17666	-1.2229	-1.5208	-1.8438	-1.5167	-1.7958	-1.8792	-1.4312	-2.0125	-1.6271	-1.6292	-1.8625	-1.4688	-1.7208	-1.7083	-1.3229	-1.8667	92.865	39.213	126.340	74.680	163.942	29.262	128.622	59.118	171.013	-34.331	193.421	126.381	-19.628	248.408	-24.845	-35.729	0.00014392	0.00013426	0.00010692	377.85	1.9774e-06	2.6032e-06	548.76	115.47	8.6712e-07	7.1435e-06	204.3	68.219	28.904	10.003	2.5684e-06	30.53	0.00031157	0.00029649	8.0993e-05	384.32	3.4274e-06	3.2148e-06	551.26	118	3.379e-06	3.196e-06	205.15	69.849	31.039	10.63	3.1377e-06	30.962	194.464	87.128	-1.445	-95.717	-2.899	50.924	-95.226	-90.899	237.360	40.402	-91.363	-86.847	-87.205	-80.697	67.834	-81.660	-8191	255	
3301.149	1	1	0	0	0.18208	0.089757	0.22905	0.21914	0.12216	0.18734	0.23198	0.09887	0.21142	0.20501	0.17321	0.12131	0.32615	0.19887	0.045684	0.062425	-1.2167	-1.4917	-1.5083	-1.5542	-1.4292	-1.8479	-1.5792	-1.8521	-1.7417	-1.4708	-1.7646	-1.6208	-1.7313	-1.725	-1.4771	-1.8667	183.038	-28.221	104.273	-97.287	-54.945	135.470	204.281	81.316	-58.889	42.954	-8.063	170.294	-91.170	233.023	233.080	-106.369	0.00016941	0.00028797	4.3916e-05	379.15	4.2261e-06	1.6074e-06	550.31	114.96	1.6888e-06	4.4093e-06	203.15	67.842	28.739	9.9218	3.2159e-06	30.234	0.00030223	0.00028993	8.0327e-05	386.37	3.3154e-06	3.1286e-06	552.68	118.08	3.2528e-06	3.1178e-06	204.42	69.51	30.764	10.538	3.1926e-06	30.509	176.908	47.398	-67.024	-95.474	6.105	39.858	-95.395	-90.898	119.099	-66.790	-91.643	-86.946	-86.891	-80.821	131.165	-80.901	-8191	255	
3301.245	1	1	0	0	0.34348	0.22528	0.12639	0.10969	0.041103	0.21354	0.093905	0.11989	0.37086	0.24128	0.023558	0.1269	0.10126	0.19139	0.10178	0.09449	-1.2208	-1.3708	-1.7896	-1.4479	-1.7062	-1.8042	-1.5063	-2.0563	-1.4833	-1.575	-1.9937	-1.5208	-1.525	-1.8479	-1.5271	-1.8083	112.001	220.621	72.012	194.730	-65.904	5.515	83.690	90.860	39.359	-73.995	89.624	48.821	137.842	58.611	190.925	222.134	9.4473e-05	0.00035435	4.2646e-05	379.54	1.7659e-06	4.1819e-06	546.94	114.72	2.1266e-06	7.9724e-07	202.56	67.477	28.883	10.014	3.0612e-06	30.237	0.00028824	0.0002813	8.1644e-05	385.32	3.1873e-06	3.0518e-06	550.09	117.6	3.1808e-06	3.0659e-06	203.98	68.978	30.658	10.539	3.3649e-06	30.504	189.608	5.408	-18.358	-95.733	-65.680	-17.328	-95.917	-91.298	46.116	25.659	-91.343	-87.072	-86.931	-80.605	42.659	-81.515	-8191	255	
3301.341	1	1	0	0	0.11264	0.21317	0.083679	0.10026	0.12587	0.3091	0.20962	0.18353	0.1891	0.10186	0.20706	0.2904	0.30378	0.18313	0.090482	0.36216	-1.2896	-1.2687	-1.7208	-1.4333	-1.5333	-1.8458	-1.5812	-1.5875	-1.6667	-1.4958	-1.7458	-1.5958	-1.4813	-2.0854	-1.4729	-1.7104	-71.835	238.566	37.804	32.778	-1.208	55.722	144.013	-84.569	79.561	111.775	212.006	28.393	137.216	150.685	231.368	-79.159	0.00017513	1.6766e-05	0.00010158	380.58	2.1188e-06	1.4223e-06	550.72	115.99	1.3952e-06	6.0858e-06	203.65	67.933	29.147	9.9815	2.1501e-06	30.551	0.00028865	0.00028094	8.5893e-05	385.04	3.1598e-06	3.0976e-06	553.76	117.95	3.1548e-06	3.1363e-06	205.18	69.088	30.743	10.592	3.4312e-06	30.712	204.043	32.965	-77.479	-95.639	-9.172	53.983	-95.695	-91.068	57.655	12.168	-91.948	-86.787	-87.395	-80.361	60.797	-80.971	-8191	255	
3301.462	1	1	0	0	0.14883	0.071962	0.18602	0.060606	0.075508	0.1139	0.41025	0.21146	0.10964	0.12605	0.1826	0.14197	0.097878	0.25903	0.25172	0.058402	-1.4604	-1.5167	-1.4833	-1.6938	-1.4688	-1.9021	-1.5438	-1.7458	-1.8917	-1.6875	-1.9708	-1.6979	-1.4292	-1.7354	-1.4417	-1.7042	141.206	158.775	250.707	104.334	-97.298	131.956	153.614	-18.768	-4.305	-91.997	5.420	-72.162	-61.165	132.112	-54.169	121.847	0.00015441	0.00025987	0.00013246	379.62	1.2272e-06	4.2699e-06	548.84	115.34	6.5411e-07	1.2413e-06	203.48	68.225	28.884	10.029	1.363e-06	30.35	0.00028442	0.00029189	8.7102e-05	385.11	3.1241e-06	3.1866e-06	554.1	117.62	3.1007e-06	3.2427e-06	205.29	69.417	30.722	10.65	3.4303e-06	30.771	193.011	127.309	-21.580	-95.263	-61.813	134.620	-95.280	-90.933	7.000	13.664	-91.170	-86.509	-86.785	-80.233	123.009	-80.728	-8191	255	
3301.556	1	1	0	0	0.15595	0.17422	0.23976	0.36233	0.34385	0.1276	0.31428	0.10785	0.083637	0.099192	0.32396	0.1315	0.12349	0.022244	0.26989	0.11815	-1.3292	-1.2667	-1.6417	-1.6292	-1.3937	-1.7292	-1.4583	-1.45	-2.0042	-1.4208	-1.7812	-1.5854	-1.3458	-1.8833	-1.6167	-1.5625	-88.653	-4.131	141.690	239.267	66.818	-86.692	212.328	198.624	164.716	-82.728	249.571	149.423	177.223	140.422	38.157	-101.979	7.786e-05	0.00032362	0.00016116	380.51	3.3372e-06	4.9062e-06	549.56	115.65	3.5251e-06	1.7743e-06	203.38	67.757	28.726	10.042	2.5183e-06	30.489	0.0002818	0.00030004	8.6123e-05	384.69	3.0968e-06	3.3196e-06	552.63	117.49	3.1089e-06	3.3375e-06	204.5	69.026	30.713	10.684	3.3604e-06	30.587	219.014	42.397	23.109	-95.448	115.784	39.839	-95.729	-91.348	3.508	43.552	-91.399	-86.786	-86.890	-80.467	-53.623	-80.961	-8191	255	
3301.654	1	1	0	0	0.1848	0.15935	0.22792	0.15518	0.22916	0.36928	0.27461	0.085887	0.28063	0.22954	0.15034	0.1197	0.13038	0.032711	0.29766	0.080815	-1.4562	-1.3521	-1.6875	-1.6646	-1.4312	-2.0104	-1.5812	-1.5812	-2.0271	-1.4	-1.5688	-1.7375	-1.5146	-1.6604	-1.5604	-1.45	41.333	75.453	76.596	180.257	86.770	79.193	-18.110	-41.200	149.019	203.110	216.890	-94.395	100.694	153.923	-63.841	230.893	0.00014568	8.7905e-05	0.00013743	382.93	3.0117e-06	3.6051e-07	544.81	115.41	4.7001e-06	1.7207e-06	203.63	68.273	29.051	10.033	1.0209e-06	30.718	0.0002838	0.00031201	8.4762e-05	385.42	3.1616e-06	3.4613e-06	550.94	117.36	3.2242e-06	3.4749e-06	204.78	69.252	30.918	10.763	3.2966e-06	30.816	204.369	114.652	-3.038	-95.175	-71.753	160.398	-95.236	-90.697	55.033	16.305	-91.609	-86.674	-87.127	-80.471	56.733	-81.051	-8191	255	
3301.748	1	1	0	0	0.32353	0.19119	0.16436	0.05821	0.103	0.092368	0.18536	0.062094	0.082318	0.18724	0.29196	0.326	0.18748	0.33613	0.24286	0.27475	-1.3625	-1.4792	-1.3417	-1.8083	-1.1104	-1.7687	-1.6375	-1.3604	-1.8229	-1.5854	-1.6208	-1.6167	-1.1354	-1.5708	-1.575	-1.3896	-49.910	138.078	-29.295	136.006	-60.953	142.034	-78.544	181.618	48.658	49.928	152.295	185.446	189.516	-27.320	59.992	207.408	0.00012387	0.00018447	0.00010906	380.46	4.6151e-06	6.0186e-07	547.27	115.44	1.3669e-06	4.7749e-06	203.51	68.389	29.031	10.121	1.4872e-06	30.875	0.00029185	0.00031429	8.2676e-05	384.18	3.2808e-06	3.462e-06	550.55	117.42	3.3404e-06	3.4452e-06	204.73	69.503	31.057	10.818	3.2471e-06	31.04	168.546	57.234	-50.256	-94.957	56.451	-54.499	-95.100	-91.221	-2.703	24.885	-91.717	-87.314	-87.535	-81.275	16.580	-81.234	-8191	255	
3301.845	1	1	0	0	0.15551	0.1033	0.32014	0.18037	0.057219	0.089971	0.24273	0.1987	0.22639	0.19532	0.12679	0.063654	0.094481	0.37429	0.034665	0.071365	-1.2771	-1.5229	-1.3771	-1.7521	-1.2542	-1.6896	-1.7625	-1.45	-1.6521	-1.5271	-1.6458	-1.7687	-1.4396	-1.5208	-1.7104	-1.4	209.056	-90.818	6.326	155.406	184.186	102.064	118.035	114.649	-59.025	7.530	-14.099	137.712	-56.102	200.699	-64.758	48.721	0.00011118	0.00017934	0.00021857	378.37	1.798e-06	3.0747e-06	549.71	115.17	8.3649e-07	3.3503e-06	205.43	68.309	29.117	10.08	2.84e-06	30.636	0.00030731	0.00031287	8.1183e-05	383.87	3.3949e-06	3.3493e-06	552.11	117.57	3.4283e-06	3.346e-06	204.91	69.647	31.222	10.74	3.151e-06	30.909	173.117	63.641	-61.847	-96.232	-68.548	66.513	-95.770	-91.711	-69.051	30.069	-91.461	-86.891	-86.907	-80.643	84.077	-81.151	-8191	255	
3301.941	1	1	0	0	0.34148	0.024612	0.37544	0.28481	0.33332	0.33707	0.21309	0.091332	0.082463	0.096256	0.36973	0.20501	0.1987	0.094772	0.085885	0.14652	-1.1896	-1.5729	-1.3937	-1.7833	-1.4104	-1.5625	-2.05	-1.2708	-1.8438	-1.6208	-1.5042	-1.9625	-1.4	-1.7146	-1.975	-1.3542	5.222	110.714	98.661	217.695	97.583	21.598	63.506	73.294	22.758	-78.962	212.529	143.161	196.099	23.176	18.003	139.575	0.00014668	0.00011671	4.6494e-05	377.87	2.2404e-06	3.6536e-06	546.41	114.44	2.1873e-06	4.2723e-06	203.21	67.828	28.992	9.9602	1.5057e-06	30.354	0.00031042	0.0002993	7.9906e-05	383.63	3.4616e-06	3.2098e-06	549.75	117.3	3.4577e-06	3.2295e-06	203.86	69.155	31.003	10.624	3.1182e-06	30.667	182.904	233.345	20.264	-95.857	46.847	-28.243	-96.130	-91.590	225.614	26.904	-91.916	-86.996	-87.140	-80.770	49.978	-81.596	-8191	255	
3302.061	1	1	0	0	0.066319	0.21607	0.16947	0.090295	0.14844	0.060969	0.14867	0.13433	0.22251	0.17402	0.14049	0.12598	0.11225	0.229	0.037035	0.094171	-1.3438	-1.425	-1.4333	-1.9833	-1.8312	-1.4417	-1.8479	-1.4312	-1.7042	-1.4271	-1.5042	-1.8833	-1.5	-1.6042	-1.7229	-1.425	133.596	48.693	4.195	161.319	159.627	-24.090	-90.607	224.520	180.262	31.909	-96.062	151.489	36.032	76.092	-6.528	248.168	0.00016945	0.00016136	7.7932e-05	378.82	1.818e-06	2.9622e-06	548.71	114.99	4.3813e-06	3.4634e-06	202.6	67.95	29.157	10.037	2.3513e-06	30.569	0.00031055	0.00028966	7.8537e-05	385.31	3.396e-06	3.2139e-06	551.64	117.87	3.3779e-06	3.2171e-06	203.96	69.459	31.052	10.632	3.1414e-06	30.846	198.108	-29.542	58.466	-95.940	41.840	64.188	-95.766	-91.117	21.330	28.720	-91.946	-87.196	-87.744	-80.831	-14.746	-81.433	-8191	255	
3302.157	1	1	0	0	0.083835	0.19361	0.22473	0.21715	0.15327	0.14908	0.18209	0.2182	0.10086	0.14803	0.089107	0.05987	0.15255	0.17964	0.22493	0.26647	-1.2229	-1.6417	-1.3438	-1.9104	-1.5771	-1.4917	-1.8729	-1.5542	-1.575	-1.7437	-1.2687	-1.8646	-1.6542	-1.3208	-1.8687	-1.6667	146.233	8.618	39.683	220.272	-47.636	74.740	-76.669	55.966	-22.647	-26.365	82.931	175.875	-91.941	-24.326	76.380	183.750	0.00016336	0.00018425	0.00018032	379.49	1.219e-06	6.046e-06	547.75	114.76	3.8526e-06	8.2228e-07	203.49	68.115	29.083	10.052	4.2105e-06	30.534	0.00030009	0.00029112	8.0077e-05	387.23	3.2958e-06	3.1456e-06	550.23	118.1	3.3199e-06	3.1011e-06	204.51	69.645	30.891	10.638	3.2345e-06	30.866	189.408	21.990	200.404	-95.800	91.036	108.729	-95.762	-91.212	34.712	-19.919	-91.662	-87.003	-87.448	-80.461	5.944	-81.000	-8191	255	
3302.254	1	1	0	0	0.13019	0.087921	0.19084	0.28865	0.10885	0.14155	0.11809	0.20622	0.20837	0.37332	0.26871	0.27399	0.16948	0.093702	0.2412	0.13521	-1.1646	-1.9146	-1.4438	-1.7667	-1.8104	-1.575	-1.8271	-1.5792	-1.6167	-1.8521	-1.4208	-1.5958	-1.7812	-1.4021	-1.95	-1.2292	55.469	51.945	-29.772	206.999	229.223	199.337	28.351	151.359	-40.908	-41.575	107.248	209.700	68.713	-51.616	-44.712	153.414	0.00011473	0.00013228	4.0524e-05	379.97	1.5111e-06	1.5188e-06	549.07	115.58	9.9444e-07	2.0978e-06	203.68	67.749	28.894	9.9887	3.3225e-06	30.156	0.00029039	0.00028374	8.1507e-05	387.11	3.1873e-06	3.0708e-06	553.81	118.33	3.1762e-06	3.0113e-06	204.51	69.157	30.744	10.532	3.303e-06	30.52	167.969	156.402	2.209	-95.992	55.538	-21.810	-95.564	-91.197	235.681	42.502	-91.582	-87.126	-87.064	-80.398	-10.488	-81.412	-8191	255	
3302.350	1	1	0	0	0.24892	0.16608	0.11791	0.18766	0.14893	0.17142	0.25269	0.14377	0.045761	0.15232	0.12237	0.26174	0.23891	0.097865	0.15073	0.26755	-1.1604	-1.8917	-1.4333	-1.5979	-1.55	-1.5792	-1.925	-1.6479	-1.6542	-1.775	-1.6292	-1.5083	-1.6583	-1.6958	-1.7812	-1.6604	-37.145	46.680	146.606	-81.063	-18.643	131.817	207.825	167.845	126.751	-32.464	49.766	-35.085	-106.811	229.590	-80.174	244.959	0.00018195	0.00013723	6.8759e-05	379.5	1.8156e-06	3.6336e-06	547.39	115.86	2.7233e-06	3.1303e-06	202.71	67.836	28.828	9.975	1.8611e-06	30.306	0.00028563	0.00027953	8.417e-05	386.47	3.1643e-06	3.0951e-06	552.37	118.25	3.1432e-06	3.0521e-06	204.24	69.105	30.791	10.571	3.3787e-06	30.512	166.289	-65.382	20.560	-95.853	145.314	85.693	-95.833	-91.073	-44.954	124.858	-91.410	-87.197	-87.191	-80.314	11.272	-81.318	-8191	255	
3302.446	1	1	0	0	0.26289	0.075599	0.15714	0.24091	0.16	0.33323	0.16607	0.11811	0.19495	0.11306	0.2376	0.26369	0.18373	0.097633	0.4391	0.18069	-1.0417	-1.7167	-1.5896	-1.65	-1.8958	-1.2771	-1.7854	-1.7687	-1.3104	-1.7437	-1.6479	-1.5479	-1.9979	-1.5125	-1.7521	-1.7083	160.530	149.384	-50.104	73.719	-3.651	34.589	114.877	145.639	-15.544	148.755	129.561	151.299	-20.481	-13.980	123.475	-87.845	0.00015126	0.0003043	5.9209e-05	383.26	2.5048e-06	1.8277e-06	552.75	115.81	1.5019e-06	2.0742e-06	203.17	68.073	28.963	10.039	3.3783e-06	30.01	0.00028362	0.00028847	8.7004e-05	387.16	3.1052e-06	3.116e-06	553.16	118.11	3.1233e-06	3.1341e-06	204.74	68.988	30.81	10.62	3.3842e-06	30.426	204.002	-81.301	-52.234	-95.702	199.118	25.288	-95.601	-91.246	117.663	33.063	-91.860	-86.725	-87.540	-80.595	-39.682	-81.326	-8191	255	
3302.542	1	1	0	0	0.13619	0.19699	0.19924	0.10342	0.05833	0.1953	0.22951	0.063974	0.13906	0.1714	0.26809	0.13504	0.1007	0.098103	0.15443	0.2381	-0.93333	-1.7917	-1.6104	-1.4729	-1.7896	-1.4333	-2.0625	-1.7042	-1.8188	-1.9062	-1.6646	-1.55	-1.9854	-1.3542	-1.7833	-1.6417	106.011	5.004	21.977	181.437	-75.778	8.456	-86.524	160.429	86.643	200.848	226.235	-85.181	-31.862	168.592	217.963	205.133	0.00015244	0.00015989	9.9999e-05	382.87	2.7767e-07	1.8296e-06	550.91	116.03	1.8951e-06	2.9512e-06	204.24	68.331	29.061	9.9561	1.3345e-06	30.297	0.00027546	0.00029591	8.6831e-05	386.73	3.068e-06	3.3159e-06	553.94	117.96	3.0899e-06	3.303e-06	205.32	69.285	30.888	10.63	3.2804e-06	30.51	191.547	-24.230	-77.603	-95.767	73.578	-14.041	-95.855	-91.082	25.934	-37.562	-91.918	-87.088	-87.818	-80.648	27.493	-81.383	-8191	255	
3302.638	1	1	0	0	0.09075	0.13553	0.085849	0.10276	0.0055136	0.098199	0.10776	0.12928	0.15345	0.29445	0.084177	0.33016	0.16394	0.082978	0.055009	0.14336	-0.88125	-1.6479	-1.6146	-1.4542	-1.7958	-1.5354	-1.8854	-1.8312	-1.5167	-1.8125	-1.6604	-1.4771	-1.7	-1.6021	-1.5979	-1.8687	130.459	-5.464	116.406	164.493	215.120	167.906	88.563	243.290	-74.646	175.143	79.011	160.795	168.551	121.491	138.443	74.609	0.00015815	0.00023217	0.00017085	377.66	2.502e-06	4.2713e-06	549.54	115.8	2.9028e-06	3.6291e-06	204.72	67.905	29.094	10.023	1.7258e-06	29.953	0.00027717	0.00030446	8.2629e-05	385.41	3.0467e-06	3.3418e-06	551.81	117.85	3.0762e-06	3.3656e-06	204.79	68.914	30.873	10.641	3.2264e-06	30.211	191.842	235.689	13.704	-95.959	83.100	-32.155	-95.996	-91.791	163.079	224.899	-92.060	-87.159	-87.460	-80.882	-10.383	-81.384	-8191	255	
3302.757	1	1	0	0	0.1161	0.088993	0.28614	0.19443	0.089304	0.08455	0.20415	0.21749	0.42694	0.20562	0.17248	0.12231	0.12647	0.055864	0.29381	0.094608	-0.84792	-1.7854	-1.6792	-1.4896	-1.8354	-1.5562	-1.5896	-1.9125	-1.4646	-1.9667	-1.7646	-1.4104	-1.8312	-1.5521	-1.7188	-1.8667	30.811	69.913	-58.874	38.139	216.854	122.948	192.276	-11.138	59.322	-105.897	-57.877	-8.126	17.789	148.215	225.151	36.512	0.00018523	0.00015774	0.00013236	383.3	9.5682e-07	3.7393e-06	549.56	117.25	9.7308e-07	1.2871e-06	203.69	67.848	29.383	9.951	9.7579e-07	30.033	0.00028584	0.00031027	8.2031e-05	387.36	3.1362e-06	3.3792e-06	552.45	118.51	3.2081e-06	3.3778e-06	204.32	68.697	31.112	10.601	3.1443e-06	30.216	189.130	102.098	-99.828	-96.067	99.735	15.322	-95.974	-91.437	49.089	114.551	-91.956	-87.213	-87.463	-80.852	92.490	-81.330	-8191	255	
3302.853	1	1	0	0	0.040835	0.063806	0.41469	0.11316	0.28381	0.16459	0.12032	0.11478	0.1984	0.20498	0.20694	0.079274	0.13343	0.24136	0.30606	0.21813	-1.0667	-1.6979	-1.5542	-1.375	-1.8563	-1.4479	-1.6667	-1.8937	-1.3083	-1.6063	-1.65	-1.3312	-1.6896	-1.5917	-1.6625	-1.6875	-3.996	84.841	189.351	136.050	-19.027	142.599	212.815	-17.992	0.594	-92.172	-102.649	231.111	3.261	198.443	250.599	125.923	0.00010908	0.00039426	6.9869e-05	384.21	2.1444e-06	5.3615e-06	548.75	116.98	1.61e-06	5.3742e-06	203.66	67.708	28.987	9.9026	5.0168e-06	30.157	0.00029699	0.00030261	7.9586e-05	387.16	3.262e-06	3.2639e-06	551.97	118.06	3.3474e-06	3.2817e-06	203.69	68.766	30.97	10.568	3.1046e-06	30.31	180.120	18.841	45.718	-95.995	109.930	-0.487	-95.706	-91.109	100.569	22.659	-91.608	-87.214	-87.414	-80.869	15.461	-81.541	-8191	255	
3302.949	1	1	0	0	0.03918	0.1158	0.10094	0.15328	0.19276	0.016273	0.3521	0.18217	0.17251	0.053926	0.081028	0.15019	0.362	0.14561	0.099171	0.11495	-0.95625	-1.5708	-1.4229	-1.4	-1.7854	-1.4021	-1.4583	-1.9562	-1.4875	-1.6771	-1.7479	-1.4667	-1.6375	-1.6792	-1.3104	-1.7896	-53.270	-39.887	31.361	-95.906	22.055	-66.014	186.277	231.927	209.463	-93.635	135.266	-49.951	193.259	200.929	-13.617	198.204	0.00013108	0.00024898	0.0001201	381.12	1.0286e-06	3.3329e-06	552.12	116.5	1.5386e-06	4.4384e-06	203.68	67.13	29.149	9.89	4.9359e-06	30.082	0.00030011	0.00029351	7.8116e-05	386.8	3.3588e-06	3.2175e-06	552.39	118.27	3.3811e-06	3.1687e-06	203.89	68.732	31.093	10.492	3.0301e-06	30.25	211.791	-16.934	-35.315	-95.908	110.071	-18.987	-95.600	-91.436	50.463	-33.178	-91.509	-86.940	-87.040	-80.510	46.828	-81.098	-8191	255	
3303.021	1	1	0	0	0.1638	0.066281	0.066448	0.15382	0.22951	0.040963	0.11742	0.11128	0.079158	0.24759	0.21661	0.21531	0.24477	0.27178	0.21049	0.073549	-1.225	-1.6125	-1.5771	-1.7292	-1.9229	-1.6896	-1.6771	-1.7938	-1.5083	-1.4104	-1.9375	-1.4125	-1.575	-1.8417	-1.6021	-1.8229	-53.978	170.440	-7.795	102.421	-29.134	1.798	120.572	-90.477	11.134	104.503	229.180	100.118	-6.389	152.902	109.713	-56.639	0.00015194	0.00036492	8.6583e-05	383.54	3.431e-06	1.4857e-06	549.16	116.54	2.7275e-06	4.6951e-06	201.92	67.028	29.033	9.8701	1.6235e-06	29.849	0.00029808	0.00028469	7.6811e-05	387.18	3.3087e-06	3.1285e-06	550.01	118.36	3.3224e-06	3.0782e-06	202.52	68.458	30.916	10.437	3.0077e-06	30.172	208.259	-54.173	221.598	-95.702	4.119	-15.740	-95.971	-91.405	39.701	62.165	-91.627	-87.413	-87.104	-81.323	-25.427	-81.436	-8191	255	
3303.142	1	1	0	0	0.044056	0.2109	0.12513	0.26943	0.23876	0.25693	0.2943	0.20353	0.063569	0.22452	0.20039	0.27704	0.26363	0.12273	0.24033	0.12181	-1.1708	-1.4417	-1.8583	-1.5854	-1.6604	-1.8042	-1.5938	-1.875	-1.6958	-1.4688	-1.9417	-1.4125	-1.6708	-1.875	-1.5583	-1.825	93.387	-22.477	115.663	226.776	54.228	125.147	176.210	63.816	-73.071	169.147	-58.898	56.803	208.001	237.958	-99.775	166.301	0.00014651	0.00019391	0.00020437	382.95	2.2566e-06	5.0788e-06	549.18	115.81	2.3415e-06	3.6708e-06	201.92	67.492	28.82	9.8565	7.6773e-06	30.032	0.00029349	0.0002797	7.5675e-05	387.25	3.1974e-06	3.0296e-06	548.65	117.95	3.1843e-06	3.0041e-06	202.56	68.659	30.732	10.445	3.0209e-06	30.297	188.540	-22.876	-31.885	-95.791	51.966	-49.534	-95.873	-91.499	-70.995	75.733	-91.842	-87.350	-87.282	-81.301	57.938	-81.208	-8191	255	
3303.238	1	1	0	0	0.18738	0.12879	0.14344	0.24439	0.093641	0.21021	0.17281	0.1102	0.081225	0.24636	0.12335	0.083387	0.17633	0.323	0.081026	0.067279	-0.88958	-1.2188	-2.0542	-1.5938	-1.6271	-1.8083	-1.4333	-1.7521	-1.7354	-1.6271	-1.9562	-1.4167	-1.6146	-1.9146	-1.2521	-1.6417	157.838	229.237	210.083	175.765	240.797	92.390	-38.057	-59.550	128.400	12.554	191.018	206.249	173.966	9.576	231.453	208.758	0.00011626	0.00022941	2.128e-05	380.09	2.3515e-06	4.092e-06	546.28	115.56	1.3294e-06	4.0709e-06	201.54	67.454	28.928	9.9442	4.659e-06	30.135	0.00028707	0.00027863	7.8494e-05	386.79	3.1334e-06	3.0292e-06	549.35	117.94	3.1603e-06	3.0274e-06	203.06	68.679	30.657	10.462	3.1674e-06	30.401	196.511	6.735	250.262	-96.083	7.589	55.830	-96.098	-91.330	-25.697	-4.823	-91.870	-87.128	-87.042	-80.649	20.117	-81.094	-8191	255	
3303.334	1	1	0	0	0.068517	0.068971	0.081812	0.054302	0.17742	0.18217	0.17754	0.37224	0.16379	0.14346	0.11222	0.25551	0.16066	0.12887	0.29353	0.41247	-1.1437	-1.4188	-1.7375	-1.5229	-1.5542	-1.8667	-1.5021	-1.675	-1.6688	-1.4646	-1.8667	-1.5875	-1.5604	-1.8875	-1.5458	-1.7167	19.392	147.506	138.109	97.468	86.435	203.047	-93.557	154.850	-17.310	71.150	173.864	-92.060	128.817	220.153	8.069	166.703	0.0001373	0.00039527	6.9935e-05	377.54	2.3311e-06	3.9571e-06	543.86	115.15	2.1357e-06	2.8545e-06	202.06	67.89	29.073	9.9473	2.2753e-06	30.244	0.0002757	0.00027286	8.0694e-05	384.53	3.0334e-06	2.9759e-06	548.73	117.5	3.0814e-06	2.9995e-06	202.89	68.924	30.759	10.52	3.3065e-06	30.414	192.785	30.247	181.046	-95.639	10.294	54.423	-96.118	-91.575	52.197	182.766	-92.080	-87.235	-87.442	-81.533	-58.846	-81.006	-8191	255	
3303.455	1	1	0	0	0.22329	0.11117	0.17653	0.13446	0.020168	0.057192	0.12329	0.1507	0.18031	0.2132	0.090838	0.17053	0.084062	0.24566	0.11475	0.029753	-1.4	-1.3729	-1.7583	-1.7458	-1.5458	-2.0396	-1.4937	-1.6208	-1.6812	-1.5604	-1.7896	-1.6854	-1.4854	-1.8687	-1.3625	-1.7875	178.184	125.374	250.808	-65.815	126.153	-69.256	238.463	171.984	50.171	198.045	225.154	63.282	56.125	17.093	39.926	22.213	8.8385e-05	0.00046862	0.00014907	380.08	6.4235e-07	2.8421e-06	544.45	115.46	6.0987e-07	4.1711e-06	201.46	67.098	29.007	9.96	1.4501e-06	30.021	0.00027561	0.00027622	8.3347e-05	384.42	3.014e-06	3.0712e-06	548.02	117.16	3.0445e-06	3.0729e-06	203.12	68.403	30.659	10.539	3.3597e-06	30.413	176.793	-14.250	-9.031	-95.545	23.171	61.100	-95.479	-91.170	181.094	59.126	-91.700	-86.773	-86.940	-80.694	-13.500	-80.976	-8191	255	
3303.549	1	1	0	0	0.099831	0.089324	0.15813	0.16391	0.19557	0.069983	0.091921	0.17172	0.013357	0.10568	0.043321	0.15672	0.24945	0.12744	0.18438	0.1409	-1.5562	-1.6354	-1.7958	-1.5479	-1.6042	-1.9688	-1.5042	-1.4229	-1.8813	-1.3646	-1.7313	-1.7875	-1.4542	-1.8083	-1.3875	-1.5125	4.047	-48.497	129.318	124.187	123.404	-33.458	-39.908	-68.026	230.227	48.395	198.566	29.021	136.279	38.280	182.622	-78.722	0.00013912	0.00028099	0.00014565	378.11	1.6712e-06	8.6091e-07	541.68	114.31	1.88e-06	2.7596e-06	201.95	67.948	29.094	9.9038	1.658e-06	30.53	0.00027097	0.00028387	8.4138e-05	382.21	2.9682e-06	3.1727e-06	546.48	116.53	2.9571e-06	3.1463e-06	202.76	68.793	30.625	10.603	3.2733e-06	30.704	190.269	84.276	-6.573	-95.337	86.057	-58.569	-95.792	-91.216	-102.296	-78.446	-91.529	-86.798	-86.375	-80.610	24.489	-81.189	-8191	255	
3303.622	1	1	0	0	0.18129	0.083574	0.29828	0.33626	0.20464	0.1518	0.047533	0.0085753	0.18644	0.057862	0.21152	0.18649	0.19672	0.11909	0.087746	0.068848	-1.4458	-1.4479	-1.6938	-1.6083	-1.5875	-1.9771	-1.5917	-1.4562	-1.6958	-1.6583	-1.6187	-1.7125	-1.6688	-1.8167	-1.7563	-1.6562	166.961	40.007	106.021	-83.783	5.869	-107.571	90.780	203.408	161.790	3.860	196.482	157.670	-90.700	232.915	243.243	126.823	0.0001224	0.00049291	4.6004e-05	378.61	2.1715e-06	3.3607e-06	544.82	114.73	3.2632e-06	1.5408e-06	203.37	68.128	29.356	10.089	3.1688e-06	30.616	0.00026961	0.00029749	8.2249e-05	381.76	2.9762e-06	3.2917e-06	547.3	116.56	3.0195e-06	3.3107e-06	203.29	69.213	30.889	10.747	3.2273e-06	30.801	173.260	-53.458	77.517	-95.605	-24.005	90.471	-95.466	-90.855	108.244	21.292	-91.746	-86.805	-86.866	-80.942	-3.905	-81.266	-8191	255	
3303.743	1	1	0	0	0.10828	0.055609	0.17193	0.16344	0.21796	0.12913	0.37984	0.22093	0.24432	0.15839	0.15797	0.072136	0.13583	0.18037	0.14731	0.038019	-1.1812	-1.3833	-1.5271	-1.7125	-1.4104	-1.75	-1.7542	-1.3813	-1.8896	-1.5125	-1.5125	-1.7458	-1.4667	-1.6958	-1.5521	-1.2	241.383	-14.017	-69.498	-27.306	-58.108	53.410	-62.943	50.592	36.071	-22.042	98.352	50.164	-7.342	219.440	169.753	-41.836	0.00019284	0.00018423	0.00017916	379.92	9.4223e-07	3.6911e-06	549.15	115.6	2.2701e-06	1.6051e-06	202.2	67.518	28.89	10.144	3.5592e-06	30.341	0.0002798	0.00030662	8.0557e-05	384.34	3.1249e-06	3.3863e-06	549.89	117.53	3.1535e-06	3.3485e-06	203.09	68.725	30.752	10.699	3.126e-06	30.527	174.076	-10.346	222.065	-95.900	207.507	12.010	-95.637	-91.250	172.491	106.094	-91.776	-86.894	-87.447	-80.791	100.320	-81.146	-8191	255	
3303.837	1	1	0	0	0.39395	0.17447	0.10445	0.17961	0.049796	0.2507	0.13792	0.24171	0.24285	0.3299	0.14836	0.15171	0.21444	0.15926	0.18026	0.12925	-1.6	-1.5875	-1.4229	-1.85	-1.425	-1.7146	-1.8208	-1.4292	-1.75	-1.6771	-1.4729	-1.8396	-1.4375	-1.4813	-1.7188	-1.5854	10.934	-40.366	96.734	159.159	21.078	240.230	-55.030	177.321	243.638	23.600	111.344	-59.142	221.943	203.070	0.617	139.053	0.00010428	0.00010006	2.9777e-05	380.56	4.6736e-06	3.3763e-06	543.43	115.08	9.1898e-07	6.637e-06	201.43	67.531	28.841	9.9434	3.5732e-06	30.274	0.00029271	0.00030231	7.8904e-05	383.91	3.2235e-06	3.2619e-06	546.46	116.97	3.2452e-06	3.2644e-06	201.81	68.682	30.767	10.597	3.0584e-06	30.525	209.969	23.953	-16.374	-95.767	102.101	78.633	-95.668	-91.255	135.695	2.372	-91.540	-86.615	-86.600	-80.582	-36.189	-81.596	-8191	255	
3303.934	1	1	0	0	0.10417	0.21894	0.22182	0.15545	0.023533	0.18945	0.23864	0.046314	0.35691	0.24096	0.14132	0.18189	0.13783	0.20914	0.062677	0.15737	-1.2792	-1.4	-1.5542	-1.9604	-1.5021	-1.5312	-1.8167	-1.4625	-1.6792	-1.6063	-1.2687	-2.0396	-1.6854	-1.5646	-1.7208	-1.3896	96.983	124.760	-91.308	24.372	-17.397	196.559	109.264	178.568	138.429	241.250	182.177	217.575	61.372	-86.252	-71.671	4.596	0.00011314	0.00020273	9.3225e-05	376.07	9.7278e-07	3.4325e-06	540.23	114.91	4.4326e-06	5.2038e-06	202.41	68.419	29.097	10.124	2.5415e-06	30.821	0.00029471	0.00029234	7.5697e-05	379.88	3.297e-06	3.1381e-06	543.84	116.46	3.3093e-06	3.1632e-06	202.46	69.088	30.897	10.689	3.0033e-06	30.993	180.185	-32.395	-49.528	-95.797	-43.794	76.212	-95.960	-91.595	9.117	25.152	-91.652	-86.881	-87.002	-80.330	-29.581	-81.021	-8191	255	
3304.054	1	1	0	0	0.25998	0.085176	0.25301	0.15063	0.16269	0.18741	0.35647	0.20444	0.1717	0.25994	0.14931	0.48217	0.22011	0.15136	0.1439	0.18653	-1.3167	-1.5896	-1.4208	-1.8813	-1.5896	-1.4646	-1.85	-1.4104	-1.7125	-1.8104	-1.5083	-1.8729	-1.4958	-1.6646	-1.6812	-1.5125	21.516	-41.624	185.168	72.997	207.407	204.773	174.700	160.026	76.817	154.755	186.456	-97.405	145.230	96.144	110.545	152.056	8.1034e-05	0.00023979	0.00011656	375.33	2.3411e-06	4.4494e-06	544.75	114.55	1.5185e-06	2.7377e-06	203	68.438	29.389	10.177	1.9087e-06	30.835	0.00030195	0.00028326	7.741e-05	380.97	3.3629e-06	3.1625e-06	545.87	117.14	3.3118e-06	3.1079e-06	203.5	69.713	31.242	10.755	3.0184e-06	31.059	208.408	-50.979	-1.491	-95.395	11.633	15.260	-95.609	-91.324	186.765	97.486	-91.902	-86.973	-87.513	-81.078	212.569	-81.195	-8191	255	
3304.150	1	1	0	0	0.28762	0.17489	0.17043	0.13279	0.12773	0.17771	0.086991	0.037815	0.30606	0.19992	0.10721	0.12108	0.063487	0.19808	0.095254	0.32531	-1.3125	-1.5958	-1.3438	-1.9125	-1.6354	-1.4021	-1.8854	-1.4542	-1.4708	-1.7583	-1.4729	-1.8229	-1.7687	-1.4062	-1.8687	-1.7062	245.964	-40.540	-3.335	7.805	108.876	179.450	-31.430	-19.895	121.500	210.557	150.019	60.269	205.887	-63.302	167.536	157.696	0.0001091	0.00014672	3.7899e-05	380.15	1.3833e-06	6.418e-07	551.03	115.53	1.2594e-06	3.1069e-06	203.02	68.402	29.288	10.129	7.9987e-07	30.873	0.00029854	0.00028655	7.803e-05	386.52	3.2844e-06	3.1104e-06	549.61	118.02	3.2838e-06	3.0869e-06	202.95	69.654	31.202	10.748	3.1271e-06	31.123	185.859	103.703	165.203	-95.664	-74.659	233.180	-95.822	-91.035	221.189	-6.695	-91.613	-87.257	-87.417	-81.195	79.313	-81.502	-8191	255	
3304.222	1	1	0	0	0.20006	0.13997	0.0049973	0.12638	0.11292	0.26439	0.17088	0.27671	0.27204	0.01952	0.11912	0.23384	0.20173	0.1469	0.11846	0.096912	-1.1917	-1.9417	-1.4	-1.8729	-1.7333	-1.2896	-1.9042	-1.3417	-1.7437	-1.6938	-1.4354	-1.7917	-1.6292	-1.4375	-1.9521	-1.5208	24.121	141.571	165.202	151.614	55.196	221.731	100.818	150.802	82.546	83.551	31.771	199.757	107.515	92.298	8.663	135.694	0.00014762	0.00029807	0.00015715	377.16	8.868e-07	4.3582e-06	546.41	115.97	5.058e-06	7.5423e-06	203.05	68.533	29.413	10.008	3.4267e-06	30.714	0.00029627	0.00028308	8.1542e-05	386.39	3.1821e-06	3.1233e-06	550.32	118.23	3.2162e-06	3.0781e-06	203.69	69.778	31.225	10.697	3.2328e-06	31.041	182.772	-75.830	-24.054	-95.735	58.123	-25.668	-95.745	-91.251	-2.035	29.915	-91.981	-87.005	-87.751	-80.486	89.500	-81.469	-8191	255	
3304.318	1	1	0	0	0.18181	0.15321	0.11564	0.11754	0.16935	0.16128	0.33445	0.15531	0.040342	0.18161	0.22657	0.12199	0.20858	0.2799	0.12827	0.19704	-1.1375	-1.8646	-1.4958	-1.8687	-1.7375	-1.4417	-1.8563	-1.7229	-1.6688	-1.8104	-1.4479	-1.7125	-1.7521	-1.4562	-1.8	-1.5625	4.588	186.628	20.927	24.259	153.608	18.881	-12.846	-82.724	-108.627	160.352	-81.528	222.864	-88.434	63.394	-84.686	190.465	0.0001749	0.00018957	0.00011551	382.74	1.1403e-06	6.1156e-07	550.4	115.47	2.5496e-06	1.5042e-06	203.27	68.397	29.284	10.065	1.5446e-06	30.543	0.00028638	0.00027895	8.2521e-05	387.98	3.1408e-06	3.0397e-06	551.03	118.28	3.1361e-06	2.9852e-06	204.6	69.528	31.052	10.674	3.3171e-06	30.829	187.264	9.255	-52.395	-96.019	-5.112	-2.988	-95.916	-91.485	115.815	-65.834	-91.561	-87.471	-87.133	-81.243	6.206	-81.317	-8191	255	
3304.439	1	1	0	0	0.11715	0.15357	0.22606	0.2321	0.063303	0.15511	0.47186	0.029782	0.030204	0.10729	0.18307	0.062909	0.05348	0.13765	0.10024	0.17872	-1.1938	-1.7167	-1.4937	-1.6917	-1.5958	-1.2708	-1.85	-1.6125	-1.5646	-1.8479	-1.3583	-1.575	-1.9396	-1.4208	-1.9208	-1.8312	238.431	109.169	178.377	-52.889	121.514	-26.762	199.843	24.667	-45.008	11.844	167.636	176.299	46.078	218.553	78.880	36.560	0.00013264	6.5842e-05	9.7909e-05	383.96	3.48e-06	1.2106e-06	546.13	116.04	1.4468e-06	4.4651e-06	201.56	67.944	29.305	9.9388	1.3176e-06	30.516	0.00028256	0.00027419	8.5045e-05	387.65	3.0649e-06	3.0498e-06	551.15	118.13	3.0796e-06	3.0326e-06	203.44	69.144	30.893	10.566	3.317e-06	30.494	192.058	181.517	202.750	-95.563	129.369	-81.007	-96.002	-91.130	236.630	-4.876	-92.013	-87.010	-87.038	-81.124	-101.093	-81.560	-8191	255	
3304.535	1	1	0	0	0.20826	0.058452	0.19848	0.052915	0.21225	0.059356	0.032554	0.069695	0.077077	0.26573	0.077138	0.12935	0.20276	0.17034	0.19725	0.23486	-0.96875	-1.7479	-1.5438	-1.5688	-1.8687	-1.5063	-2.1229	-1.6167	-1.5083	-1.8	-1.4708	-1.4562	-1.9333	-1.2687	-1.5917	-1.6229	73.231	-78.396	-97.625	206.770	168.282	37.386	103.061	1.531	73.478	195.370	140.934	-72.092	-89.709	-79.272	1.657	-28.151	0.0001332	1.3219e-05	0.00010207	380.98	3.0666e-06	5.2994e-06	544.75	115.25	2.2719e-06	5.1023e-06	201.54	67.867	28.864	9.979	2.2858e-06	30.143	0.00027443	0.00028086	8.5769e-05	385.48	3.0319e-06	3.1567e-06	549.03	117.51	3.0417e-06	3.1847e-06	203.04	68.883	30.719	10.626	3.3499e-06	30.491	168.279	15.641	249.323	-95.929	69.150	171.766	-95.745	-91.597	58.995	52.830	-91.890	-87.342	-87.370	-81.002	44.105	-81.482	-8191	255	
3304.631	1	1	0	0	0.25765	0.29175	0.31766	0.17897	0.18114	0.14611	0.19472	0.19686	0.054804	0.12096	0.17632	0.16961	0.036924	0.15183	0.095294	0.16208	-0.82708	-1.8188	-1.5396	-1.4875	-1.7229	-1.5125	-1.8979	-1.7313	-1.425	-1.8771	-1.5646	-1.4438	-1.9208	-1.3979	-1.3542	-2.0625	-85.943	-77.616	-26.127	46.134	184.299	-4.234	102.692	249.521	-63.615	-51.149	206.355	-97.700	159.968	203.908	-51.617	218.793	0.00012506	0.00023803	5.3517e-05	380.75	1.5363e-06	2.5278e-06	546.65	116.15	3.5261e-06	1.877e-06	202.08	67.401	29.099	9.924	2.3082e-06	30.38	0.00027369	0.00029919	8.4439e-05	386.96	2.9979e-06	3.2992e-06	550.28	117.87	3.0406e-06	3.3154e-06	203.23	68.718	30.754	10.639	3.2324e-06	30.449	164.151	1.966	-36.736	-95.364	108.935	74.626	-95.874	-91.221	-7.028	230.248	-91.866	-86.901	-86.972	-81.175	42.099	-81.406	-8191	255	
3304.726	1	1	0	0	0.14207	0.16152	0.15501	0.10814	0.16644	0.39751	0.30185	0.093974	0.14194	0.42626	0.30275	0.054782	0.16936	0.032133	0.17772	0.16068	-1.1292	-1.7188	-1.5875	-1.5688	-1.8604	-1.5021	-1.6521	-1.8042	-1.5333	-1.8833	-1.6958	-1.3667	-1.9042	-1.5333	-1.4354	-1.7979	176.398	201.399	76.722	167.357	225.693	-86.985	97.674	176.300	69.818	79.879	236.253	-83.140	-58.976	203.693	-108.040	224.102	0.00015688	0.00016212	9.2949e-05	382	2.4029e-06	1.907e-06	548.49	116.24	1.919e-06	4.0226e-07	202.49	68.477	29.469	10.005	1.1494e-06	30.562	0.00027657	0.00030154	8.0855e-05	385.44	3.0714e-06	3.326e-06	551.58	117.99	3.1146e-06	3.383e-06	203.5	69.442	31.218	10.74	3.1735e-06	30.788	190.877	29.695	1.623	-96.228	-50.479	33.683	-95.585	-91.011	225.583	247.402	-91.956	-86.852	-87.439	-81.192	40.608	-81.040	-8191	255	
3304.846	1	1	0	0	0.15637	0.03229	0.14993	0.040836	0.17473	0.34626	0.10095	0.03825	0.39673	0.045248	0.18204	0.17695	0.1097	0.069066	0.24052	0.15129	-1.0833	-1.7542	-1.6042	-1.3792	-1.7062	-1.675	-1.5604	-2.0021	-1.5292	-1.7542	-1.8625	-1.4396	-1.8604	-1.6104	-1.45	-1.8354	61.186	-73.665	-85.586	-104.270	-29.178	164.700	-104.605	210.195	211.045	-54.417	-92.726	165.951	68.047	245.866	181.867	34.057	9.5775e-05	0.00013611	0.00012332	381.41	1.2906e-06	3.0192e-06	548.12	115.3	4.8824e-07	7.097e-07	201.98	68.323	29.019	10.139	2.8237e-06	30.434	0.00029212	0.00030611	7.9711e-05	385.82	3.2177e-06	3.3555e-06	550.02	117.77	3.263e-06	3.308e-06	202.63	69.141	31.136	10.726	3.1099e-06	30.586	184.951	4.299	-31.816	-95.686	-6.012	-50.225	-95.759	-91.693	87.624	-10.780	-91.757	-87.223	-87.544	-80.894	-96.032	-80.949	-8191	255	
3304.918	1	1	0	0	0.15793	0.060248	0.31371	0.12627	0.23206	0.08277	0.14786	0.20782	0.23381	0.05032	0.23392	0.14253	0.047973	0.22546	0.044294	0.15102	-1.0229	-1.7146	-1.6625	-1.3708	-1.7125	-1.5521	-1.6208	-1.7542	-1.6	-1.7292	-1.8708	-1.3396	-1.6854	-1.7542	-1.5	-1.7417	193.860	-61.616	82.305	152.260	-86.428	156.174	145.679	21.605	111.250	83.822	10.230	32.715	-105.987	64.583	241.679	160.002	0.00013515	0.00042233	3.028e-05	382.8	7.1519e-07	1.7754e-06	546.13	115.46	1.2289e-06	2.569e-06	202.49	67.865	29.38	10.066	1.8446e-06	30.705	0.00030073	0.00030124	7.9187e-05	385.89	3.3899e-06	3.3276e-06	549	117.36	3.3716e-06	3.2688e-06	203.19	69.197	31.264	10.715	3.1631e-06	30.94	180.250	-26.890	-59.211	-95.850	-54.109	10.497	-95.546	-91.255	-7.921	26.109	-91.366	-87.019	-87.257	-80.708	-97.887	-81.062	-8191	255	
3305.014	1	1	0	0	0.069749	0.085245	0.2345	0.2092	0.1514	0.040115	0.22908	0.20897	0.2037	0.082873	0.2006	0.14876	0.16672	0.068946	0.047331	0.30069	-1.175	-1.6375	-1.8563	-1.6042	-1.9104	-1.7021	-1.2687	-1.7458	-1.4104	-1.3958	-1.6979	-1.4479	-1.6104	-1.5812	-1.3438	-1.8792	194.241	105.683	141.676	-53.401	54.210	-22.911	-77.166	167.175	190.830	85.353	35.322	221.050	164.005	150.153	-88.177	96.406	0.00014179	0.00052585	1.8372e-05	374.85	3.9571e-06	1.2818e-06	541.74	115.34	2.1407e-06	3.3664e-06	202.75	68.333	29.351	10.219	9.4527e-07	30.974	0.00031082	0.00029249	7.9069e-05	382.15	3.4081e-06	3.2053e-06	545.93	117.06	3.3792e-06	3.1876e-06	203.31	69.725	31.331	10.838	3.1099e-06	31.35	203.184	-43.408	-21.907	-95.613	117.094	41.675	-95.529	-90.730	-5.283	80.474	-91.662	-86.931	-87.442	-80.922	6.347	-81.282	-8191	255	
3305.135	1	1	0	0	0.069507	0.16032	0.31163	0.36782	0.15221	0.055486	0.21669	0.15958	0.19	0.046855	0.072164	0.20279	0.17377	0.083386	0.17031	0.2792	-1.0333	-1.5021	-1.9229	-1.3625	-1.725	-1.6354	-1.5104	-1.8542	-1.6396	-1.4792	-1.8417	-1.5646	-1.6646	-1.7167	-1.4646	-1.775	157.520	199.328	187.564	224.818	39.944	-40.221	155.661	85.519	-69.701	-98.772	57.207	69.986	-0.736	184.347	76.415	-51.099	0.00012531	0.00011954	8.3065e-05	379.38	2.9341e-06	2.9169e-06	546.75	116.11	2.3512e-06	4.4532e-06	201.6	68.628	29.354	10.175	1.4784e-06	30.625	0.00031102	0.00029231	7.9374e-05	385.58	3.403e-06	3.2281e-06	550.19	118.06	3.369e-06	3.1975e-06	203.42	70.064	31.458	10.823	3.1789e-06	31.276	196.080	-90.356	-59.051	-95.388	127.582	47.796	-95.717	-91.201	-11.697	92.806	-91.318	-86.865	-86.911	-80.898	54.113	-80.935	-8191	255	
3305.231	1	1	0	0	0.17598	0.16254	0.072014	0.28449	0.19437	0.064845	0.31546	0.28274	0.079408	0.159	0.41505	0.018662	0.043325	0.23861	0.10039	0.1935	-1.1896	-1.4583	-2.1417	-1.3417	-1.5812	-1.9667	-1.4229	-1.7812	-1.6625	-1.5	-1.9729	-1.5521	-1.6354	-1.7333	-1.3542	-1.7271	160.633	64.470	115.519	136.331	92.310	220.329	153.115	111.247	237.474	184.964	221.634	193.827	61.183	-36.467	-44.593	169.975	0.00019374	0.00023602	8.2791e-05	380.02	3.8758e-06	5.8016e-06	544.07	116.26	3.2927e-06	1.7056e-06	201.59	68.236	29.227	10.1	1.6451e-06	30.66	0.00030345	0.00029419	8.0963e-05	387.12	3.3208e-06	3.1802e-06	548.55	118.1	3.2489e-06	3.1052e-06	203.07	69.921	31.115	10.729	3.3157e-06	31.171	197.916	-2.605	16.936	-95.409	-11.769	9.130	-95.163	-90.934	-9.061	-87.838	-91.277	-87.348	-87.283	-81.082	38.590	-80.952	-8191	255	
3305.327	1	1	0	0	0.037255	0.086525	0.19072	0.068976	0.30393	0.25296	0.17014	0.085805	0.19538	0.10249	0.21802	0.15665	0.31059	0.10276	0.18733	0.18518	-1.2042	-1.375	-1.8646	-1.6896	-1.5604	-1.9458	-1.5167	-1.5438	-1.6979	-1.3979	-1.8729	-1.6583	-1.3813	-1.9979	-1.575	-1.6521	245.762	242.828	126.142	-36.847	-58.074	121.390	80.493	48.939	135.638	236.765	182.061	-20.632	148.881	-79.550	-83.382	234.892	0.00010261	0.00014461	0.00013983	380.13	1.151e-06	3.534e-06	543.74	115.46	2.5277e-06	4.4642e-06	201.12	67.891	29.158	10.212	5.6443e-07	31.056	0.00029405	0.00028913	8.4503e-05	386.65	3.2797e-06	3.1678e-06	548.81	117.9	3.2189e-06	3.1268e-06	203.33	69.571	31.022	10.756	3.4184e-06	31.269	191.603	55.083	198.482	-95.566	-5.914	3.033	-95.494	-90.862	239.162	42.129	-91.544	-86.821	-87.127	-80.605	242.666	-81.203	-8191	255	
3305.423	1	1	0	0	0.15803	0.14098	0.13156	0.14502	0.14803	0.28601	0.15843	0.20997	0.13352	0.053755	0.063335	0.0025033	0.10368	0.23486	0.16174	0.049157	-1.3396	-1.3771	-1.6063	-1.45	-1.5292	-1.9042	-1.6208	-1.65	-1.7938	-1.2167	-1.8708	-1.6354	-1.4917	-1.7083	-1.375	-1.6521	235.206	144.505	-102.484	-105.233	-53.968	137.581	211.120	-65.611	-99.663	204.136	-82.431	180.000	240.166	119.242	156.451	163.191	0.00014892	0.00024415	5.0562e-05	377.72	2.6998e-06	2.6543e-06	546.56	114.92	8.6929e-07	3.4207e-06	202.38	68.735	29.155	10.044	3.6835e-06	30.946	0.00028956	0.00028762	8.6517e-05	385.37	3.1645e-06	3.1415e-06	551.42	117.35	3.19e-06	3.1584e-06	204.33	69.921	31.031	10.752	3.4925e-06	31.253	180.343	7.380	39.563	-95.740	67.887	-31.538	-95.476	-91.069	32.564	51.787	-91.523	-86.698	-87.316	-80.798	-42.660	-80.910	-8191	255	
3305.519	1	1	0	0	0.19419	0.098786	0.20156	0.053539	0.22899	0.10975	0.15825	0.17105	0.20898	0.28339	0.062453	0.22316	0.15155	0.13942	0.09464	0.088989	-1.2125	-1.5521	-1.7062	-1.7229	-1.4646	-1.7687	-1.5625	-1.7708	-1.6271	-1.5521	-1.5667	-1.7896	-1.3438	-1.8354	-1.5583	-1.4354	153.779	-40.664	26.952	24.918	90.723	56.352	105.347	223.397	177.725	-98.924	237.498	-16.313	77.371	-75.424	-9.207	82.512	0.00016813	0.00051909	7.6575e-05	379.8	3.6473e-06	1.629e-06	546.84	115.35	1.8838e-06	2.4317e-06	201.41	67.836	29.155	9.8797	4.0603e-06	30.704	0.00028276	0.00029395	8.7736e-05	384.24	3.1458e-06	3.2127e-06	549.56	117.54	3.1146e-06	3.2866e-06	203.63	69.273	30.869	10.683	3.416e-06	30.866	187.320	-24.071	-70.766	-95.381	-37.593	-105.747	-95.450	-90.994	-1.495	-56.889	-91.368	-86.772	-86.938	-81.088	0.458	-81.317	-8191	255	
3305.615	1	1	0	0	0.26729	0.099825	0.30197	0.11795	0.13071	0.15296	0.26127	0.11063	0.11087	0.094495	0.21324	0.2641	0.20106	0.12801	0.28386	0.037332	-1.275	-1.4146	-1.8104	-1.725	-1.2563	-1.8417	-1.5396	-1.5708	-1.9062	-1.6187	-1.6542	-1.6917	-1.4333	-1.7188	-1.5167	-1.6125	38.757	-100.717	128.032	225.996	12.381	112.676	196.098	-108.867	-75.576	180.197	192.761	129.440	161.362	-90.030	155.713	-73.018	0.00015797	7.3033e-05	0.0001526	379.15	1.3539e-06	3.3353e-06	546.04	115.19	1.2076e-06	6.4499e-06	200.05	67.635	29.145	9.9811	3.9424e-06	30.568	0.00027847	0.00030207	8.6245e-05	384.02	3.0906e-06	3.3876e-06	547.31	117.05	3.1064e-06	3.4072e-06	202.49	68.945	30.819	10.7	3.3372e-06	30.758	183.932	83.966	15.701	-95.967	-25.559	44.509	-95.715	-90.969	-50.770	101.157	-91.557	-86.556	-86.741	-81.010	16.656	-81.130	-8191	255	
3305.734	1	1	0	0	0.21345	0.040441	0.24214	0.043764	0.058849	0.044216	0.12101	0.13006	0.30859	0.10228	0.43145	0.23029	0.12855	0.27332	0.15566	0.073406	-1.3625	-1.5208	-1.5375	-1.7521	-1.6333	-1.7563	-1.8167	-1.425	-1.8687	-1.4813	-1.7	-1.8875	-1.4042	-1.9792	-1.6812	-1.4625	-80.823	116.328	45.426	146.372	226.415	-18.143	97.983	250.279	-84.304	-72.374	206.049	204.223	60.639	247.697	-94.274	225.611	0.00017936	0.00028724	0.00010994	378.76	4.1653e-06	6.2255e-06	545.56	114.79	1.692e-06	2.4948e-06	203.34	67.781	28.917	9.9961	1.3269e-06	30.551	0.00028124	0.00031169	8.3992e-05	383.35	3.1557e-06	3.3801e-06	547.97	116.88	3.154e-06	3.4345e-06	202.9	68.761	30.751	10.679	3.2481e-06	30.833	169.943	-33.055	-75.923	-95.070	69.385	34.681	-94.839	-90.365	159.861	13.531	-90.788	-86.610	-86.847	-80.424	-107.973	-81.265	-8191	255	
3305.830	1	1	0	0	0.054439	0.078253	0.082467	0.17753	0.072125	0.22149	0.15705	0.12283	0.24454	0.068949	0.1282	0.15192	0.10453	0.17733	0.30191	0.05326	-1.3729	-1.4896	-1.5542	-1.8167	-1.3979	-1.6437	-1.675	-1.6313	-1.6854	-1.6521	-1.6646	-1.7917	-1.5771	-1.5458	-1.7417	-1.4292	-104.641	36.971	170.780	129.326	-100.169	151.952	147.515	-26.439	-64.884	146.991	109.365	109.420	246.921	125.208	102.160	-49.369	0.00019696	0.00046762	6.4309e-05	377.21	1.8821e-06	1.138e-06	543.54	113.01	2.9109e-06	3.2429e-06	201.07	67.892	28.606	10.067	3.6268e-06	30.603	0.00029123	0.00031103	8.2583e-05	380.16	3.2878e-06	3.4159e-06	545.38	115.67	3.3185e-06	3.4337e-06	202.38	69.035	30.664	10.726	3.2028e-06	30.979	176.345	35.969	33.648	-95.458	126.690	9.332	-95.427	-91.110	-16.225	3.012	-91.411	-86.323	-86.369	-79.762	49.519	-80.030	-8191	255	
3305.927	1	1	0	0	0.23042	0.061724	0.21817	0.082393	0.14074	0.10666	0.10657	0.083935	0.39033	0.18103	0.1988	0.23428	0.18139	0.099549	0.06841	0.16855	-1.4	-1.5896	-1.575	-1.8896	-1.3896	-1.7625	-1.8333	-1.3396	-1.9083	-1.6063	-1.4062	-2.0375	-1.3979	-1.6063	-1.7354	-1.4292	34.598	-46.634	241.966	37.355	-94.616	2.218	163.738	189.510	-14.699	218.594	196.648	-96.062	184.135	93.846	-10.193	177.409	0.00014229	0.00037921	0.00012675	373.86	7.9666e-07	3.6698e-06	539.89	112.42	2.7687e-06	5.2407e-06	200.74	67.678	28.514	9.9528	2.9708e-06	30.77	0.00030686	0.00030769	8.0064e-05	378.07	3.4319e-06	3.4061e-06	541.66	114.9	3.442e-06	3.3958e-06	200.81	68.804	30.567	10.649	3.1598e-06	31.024	160.246	-8.721	-36.168	-95.340	226.414	75.177	-95.499	-90.601	-79.086	84.224	-90.463	-86.215	-85.938	-79.609	92.756	-80.415	-8191	255	
3306.023	1	1	0	0	0.22511	0.032967	0.1725	0.28198	0.16078	0.048558	0.28315	0.25342	0.15725	0.23167	0.062132	0.08003	0.16654	0.077174	0.099229	0.14272	-1.2396	-1.6708	-1.5438	-1.8854	-1.6	-1.4896	-1.7646	-1.3667	-1.6187	-1.65	-1.4625	-1.9021	-1.4875	-1.6021	-1.7542	-1.5812	108.141	185.200	-31.396	200.690	-62.375	86.034	154.592	-4.766	-63.339	73.507	133.508	233.422	222.417	-100.295	58.851	146.731	0.00017629	7.7739e-05	0.00015475	370.67	1.5532e-06	3.5601e-06	536.27	111.77	6.2871e-07	9.2037e-07	198.8	67.843	28.526	10.065	1.9037e-06	30.781	0.0003112	0.00029996	8.0244e-05	375.75	3.5218e-06	3.3084e-06	539.55	114.44	3.5036e-06	3.2349e-06	200.13	68.955	30.546	10.685	3.1389e-06	31.124	205.219	233.400	-37.018	-95.231	202.771	33.354	-94.943	-90.444	78.642	44.735	-91.889	-86.685	-86.606	-79.761	98.538	-80.623	-8191	255	
3306.143	1	1	0	0	0.048607	0.11261	0.15106	0.16791	0.18619	0.13036	0.033696	0.21951	0.1225	0.084426	0.25505	0.30048	0.13209	0.065492	0.23459	0.20958	-1.3167	-1.7604	-1.4937	-1.8687	-1.7146	-1.6688	-1.8708	-1.6104	-1.9188	-1.7854	-1.4979	-1.8896	-1.5167	-1.4937	-1.75	-1.4542	112.888	-3.245	-27.803	-8.442	95.133	110.631	200.650	-1.375	10.548	52.825	133.721	-81.757	137.817	48.162	58.837	176.356	0.00013618	0.00034394	3.9589e-05	369.59	8.9058e-07	3.6465e-06	538.35	111.97	2.5406e-06	4.2109e-06	200.16	67.63	28.161	9.9067	1.7695e-06	30.576	0.00031219	0.00029603	7.9448e-05	376.11	3.4125e-06	3.2056e-06	539.79	114.78	3.4041e-06	3.2287e-06	201.21	69.13	30.448	10.594	3.1675e-06	31.223	174.632	-43.993	33.287	-95.513	73.058	77.185	-95.791	-91.021	-67.468	7.324	-91.074	-86.501	-87.540	-80.595	19.995	-80.982	-8191	255	
3306.213	1	1	0	0	0.043223	0.15475	0.13668	0.14164	0.30273	0.11386	0.14902	0.16075	0.12595	0.12782	0.13403	0.29337	0.24695	0.17815	0.030105	0.29557	-1.1896	-1.7292	-1.6229	-1.5562	-1.6542	-1.5875	-1.9375	-1.5187	-1.8229	-1.9375	-1.5896	-1.9312	-1.525	-1.5521	-1.7479	-1.5063	113.601	138.045	65.434	-26.140	-42.405	151.259	207.448	34.885	22.711	187.337	205.489	157.237	60.386	200.025	90.806	31.962	0.00021426	0.00019454	0.00012225	370.35	3.9008e-06	2.0498e-06	541.05	113.11	6.472e-06	3.6931e-06	200.15	68.183	28.572	9.8748	5.779e-06	30.835	0.00030622	0.00029173	8.1398e-05	377.7	3.3226e-06	3.2236e-06	543.38	115.54	3.3571e-06	3.1743e-06	201.17	69.562	30.507	10.612	3.2817e-06	31.195	194.115	199.517	-73.852	-96.078	-63.241	46.614	-95.398	-90.655	24.956	17.923	-91.421	-86.726	-86.633	-80.121	-22.000	-80.995	-8191	255	
3306.309	1	1	0	0	0.15946	0.12342	0.055536	0.067589	0.19518	0.19402	0.052996	0.32105	0.21759	0.13515	0.15049	0.40028	0.22568	0.22184	0.12203	0.20515	-1.1771	-1.6375	-1.3292	-1.7583	-1.7771	-1.3375	-1.7646	-1.5146	-1.7	-1.9667	-1.5646	-1.7458	-1.8479	-1.5479	-1.6229	-1.6125	58.352	154.035	-70.169	29.826	194.413	125.895	102.635	234.631	120.823	106.848	136.497	202.091	-107.445	211.652	-9.792	-15.227	0.00016705	0.00019098	7.1235e-05	372.54	9.2069e-07	1.491e-06	541.04	113.12	3.3177e-07	2.7596e-06	199.27	67.817	28.574	9.8488	2.089e-06	30.347	0.00029954	0.0002879	8.4334e-05	379.57	3.2388e-06	3.1461e-06	542.91	115.88	3.2475e-06	3.1239e-06	201.33	69.096	30.531	10.56	3.4059e-06	30.862	193.977	-4.842	238.776	-95.464	-37.921	35.683	-95.889	-90.823	-94.042	125.610	-91.719	-87.067	-87.066	-80.643	8.875	-80.681	-8191	255	
3306.407	1	1	0	0	0.35575	0.21443	0.25922	0.011498	0.17287	0.032961	0.21148	0.079463	0.065577	0.28151	0.24493	0.22887	0.17824	0.10403	0.15997	0.041667	-0.95625	-1.8062	-1.5083	-1.9417	-1.7	-1.4417	-1.7229	-1.4188	-1.5208	-1.8354	-1.4396	-1.6313	-1.8563	-1.3396	-1.8271	-1.7042	92.430	-43.692	109.499	91.487	228.454	75.042	231.058	75.622	163.539	38.598	-12.276	183.489	242.890	138.502	122.346	-6.828	0.00010636	0.00031571	4.0176e-05	373.11	2.0533e-06	3.6566e-06	537.85	111.94	2.6176e-06	2.7422e-06	201.24	67.506	28.481	9.8504	1.4763e-06	30.758	0.00029205	0.00028448	8.6566e-05	378.04	3.1712e-06	3.1198e-06	542.42	115.14	3.1971e-06	3.0973e-06	202.1	69.008	30.434	10.587	3.4148e-06	30.907	193.357	240.171	211.884	-95.454	45.016	81.812	-95.717	-90.866	60.962	-61.961	-91.967	-86.784	-87.170	-81.008	141.457	-81.298	-8191	255	
3306.526	1	1	0	0	0.17315	0.11452	0.27045	0.14408	0.17628	0.14772	0.073946	0.27034	0.1934	0.073191	0.22657	0.28273	0.10989	0.14879	0.20333	0.19951	-1.0958	-1.8021	-1.3125	-1.5938	-1.6688	-1.4833	-1.8875	-1.7875	-1.4875	-1.9521	-1.5063	-1.5146	-1.7542	-1.2812	-1.9688	-1.6812	-68.894	-108.698	-62.351	175.955	241.267	-20.949	-96.645	214.620	-54.662	38.409	238.078	153.293	40.730	-59.436	2.466	247.535	0.00013195	0.00025289	8.6178e-05	370.36	1.5292e-06	3.3781e-06	539.57	112.9	3.0147e-06	4.4833e-06	200.68	68.166	28.461	9.9991	2.6698e-06	30.76	0.00028698	0.00028585	8.6997e-05	378.03	3.1301e-06	3.202e-06	544.1	115.34	3.1532e-06	3.2304e-06	202.51	69.177	30.341	10.613	3.4886e-06	31.031	169.740	-58.010	-18.114	-95.656	45.802	42.057	-95.773	-91.330	-3.591	169.059	-91.719	-87.056	-87.283	-80.490	51.006	-81.279	-8191	255	
3306.622	1	1	0	0	0.041793	0.081653	0.23706	0.15024	0.24469	0.032627	0.049796	0.1082	0.13401	0.10754	0.15672	0.12454	0.23442	0.06151	0.20769	0.13293	-0.95	-1.9271	-1.4625	-1.5875	-1.8542	-1.3271	-1.8333	-1.8521	-1.5021	-1.7792	-1.5583	-1.5479	-1.9271	-1.5438	-1.6604	-1.7437	-76.963	73.656	-28.605	-101.019	94.320	54.836	-67.560	155.364	249.924	209.612	224.229	190.776	-64.490	62.886	124.663	139.852	0.00015923	0.00048128	4.0227e-05	372.75	3.2819e-06	5.0383e-06	539.99	112.61	3.6078e-06	2.0434e-06	200.69	67.209	28.239	9.8776	3.1974e-06	30.524	0.00028791	0.00030435	8.756e-05	378.51	3.1238e-06	3.409e-06	544.3	115.29	3.1629e-06	3.3801e-06	202.08	68.812	30.223	10.612	3.4039e-06	30.764	190.544	-17.772	-12.465	-95.591	112.311	47.667	-95.638	-91.256	38.525	149.920	-91.426	-86.853	-87.147	-80.115	-26.324	-80.965	-8191	255	
3306.718	1	1	0	0	0.15704	0.15487	0.25526	0.30479	0.12587	0.21324	0.18248	0.17405	0.22799	0.17605	0.044814	0.26806	0.084682	0.11274	0.15754	0.10299	-0.81875	-1.6562	-1.5833	-1.4688	-1.9125	-1.6521	-1.6187	-1.8	-1.4417	-1.8708	-1.6792	-1.5042	-1.8333	-1.6042	-1.8167	-1.9271	-16.291	-55.709	-76.840	132.326	227.218	153.226	-79.844	-101.205	1.938	217.728	-46.395	197.301	42.835	-71.938	11.519	-42.164	0.00010366	0.00039037	0.00016712	372.21	2.2489e-06	9.9899e-07	536.79	113.17	1.1675e-06	2.314e-06	199.89	67.276	28.441	9.9527	4.4946e-07	30.736	0.00028786	0.00031719	8.5351e-05	378.84	3.1842e-06	3.5153e-06	542.63	115.06	3.2444e-06	3.4957e-06	201.95	68.872	30.457	10.695	3.3598e-06	30.974	184.674	225.026	29.640	-95.608	-55.692	10.109	-95.710	-91.488	-60.238	3.461	-91.624	-86.763	-86.754	-80.263	-16.879	-81.301	-8191	255	
3306.815	1	1	0	0	0.28219	0.20591	0.18025	0.1018	0.10243	0.07207	0.080112	0.31749	0.098053	0.21494	0.17687	0.21212	0.12921	0.22218	0.052463	0.25232	-1.2208	-1.8583	-1.4354	-1.4458	-1.8062	-1.525	-1.4937	-1.7458	-1.4688	-1.7917	-1.8646	-1.375	-1.9708	-1.5583	-1.6042	-1.6479	111.951	-6.526	-77.713	194.158	88.489	196.059	153.666	-95.542	224.160	115.722	-24.657	-65.728	201.408	241.638	154.479	241.003	0.00015598	6.7298e-05	0.00018637	372.25	5.9694e-07	3.0543e-06	538.01	112.83	6.6334e-07	2.8775e-06	200.78	67.879	28.507	10.035	3.8622e-06	30.967	0.00029558	0.00032052	8.5343e-05	377.42	3.3106e-06	3.545e-06	542.14	115.16	3.3529e-06	3.4874e-06	202.1	69.188	30.699	10.743	3.27e-06	31.061	184.750	95.421	-43.597	-95.419	-1.186	-30.395	-95.622	-91.205	148.567	-48.459	-91.308	-86.979	-87.338	-80.794	-26.851	-80.889	-8191	255	
3306.911	1	1	0	0	0.20452	0.065308	0.063322	0.23102	0.091425	0.1135	0.23211	0.14019	0.074224	0.18041	0.18371	0.14802	0.25128	0.13949	0.1632	0.047973	-1.2479	-1.6896	-1.8813	-1.7188	-1.7021	-1.8125	-1.5583	-1.9688	-1.3125	-1.7708	-1.8208	-1.3167	-1.8604	-1.7625	-1.6417	-1.9667	102.549	-22.439	-98.287	33.787	-42.334	181.555	241.178	108.964	-31.920	-60.749	-64.809	227.001	-55.266	92.073	242.031	240.806	0.00010855	0.00011138	8.878e-05	372.67	6.1312e-07	3.5738e-06	537.93	112.96	4.7174e-06	4.5699e-06	200.39	68.133	28.786	9.97	5.1386e-06	30.807	0.00031022	0.00031606	8.3248e-05	377.59	3.479e-06	3.4704e-06	543.72	115.33	3.4865e-06	3.4418e-06	202.22	69.124	30.761	10.667	3.274e-06	31.137	193.096	-74.052	-52.139	-95.582	52.767	59.048	-95.712	-91.090	13.915	52.484	-91.696	-87.186	-87.109	-80.456	97.614	-81.182	-8191	255	
3307.007	1	1	0	0	0.31135	0.19294	0.22074	0.1131	0.10147	0.1815	0.24012	0.11329	0.13128	0.065406	0.11636	0.16922	0.16838	0.11138	0.14119	0.28265	-1.0812	-1.4583	-1.8146	-1.3687	-1.7333	-1.5958	-1.5458	-1.8917	-1.5729	-1.7042	-1.7854	-1.4792	-1.8813	-1.9771	-1.5688	-2.0708	-14.921	105.919	-88.196	144.963	243.903	174.361	-98.969	18.180	-45.175	50.886	243.423	170.040	249.062	117.303	-34.404	117.029	0.00013271	0.00027698	0.00021205	373.81	2.1864e-06	2.2304e-06	540.41	112.74	2.7974e-06	2.5391e-06	200.73	67.928	28.698	10.107	4.5087e-06	30.931	0.00032007	0.00030852	8.1762e-05	379.22	3.5075e-06	3.3356e-06	543.62	115.55	3.5422e-06	3.3258e-06	201.92	69.335	30.856	10.736	3.2307e-06	31.349	193.280	-13.579	-23.126	-95.987	37.022	88.294	-95.716	-91.167	120.125	243.141	-91.455	-86.657	-86.015	-80.811	15.752	-81.241	-8191	255	
3307.126	1	1	0	0	0.38433	0.34142	0.31223	0.34878	0.09061	0.24632	0.03359	0.1146	0.06001	0.21634	0.32266	0.12866	0.13443	0.039904	0.28274	0.17119	-1.0562	-1.6208	-1.7875	-1.4771	-1.6146	-1.9521	-1.4042	-1.8	-1.4708	-1.6208	-1.8375	-1.6208	-1.625	-1.7292	-1.525	-1.975	95.970	148.291	170.358	192.075	9.209	100.381	-39.968	6.867	29.900	-14.299	-22.929	168.581	53.550	-42.532	100.526	136.610	0.00015651	5.3336e-05	0.00024624	373.44	3.6682e-07	7.3864e-06	538.52	113.17	2.4198e-06	2.8766e-06	201.1	68.408	28.692	9.9362	3.0639e-06	30.882	0.00032354	0.0003042	8.0548e-05	379.33	3.5617e-06	3.3366e-06	542.65	116	3.4985e-06	3.3132e-06	202.05	69.616	30.907	10.671	3.216e-06	31.268	175.515	-43.802	-34.617	-95.252	-6.633	-13.499	-95.458	-90.884	-40.127	63.564	-90.998	-86.844	-87.006	-80.543	1.055	-81.008	-8191	255	
3307.222	1	1	0	0	0.26031	0.087407	0.35714	0.073428	0.27054	0.11619	0.1917	0.16062	0.24672	0.15816	0.052599	0.33635	0.13213	0.2335	0.2679	0.23618	-1.0812	-1.4854	-1.85	-1.5146	-1.7646	-1.6396	-1.4875	-1.8521	-1.6187	-1.5688	-1.9708	-1.4208	-1.6583	-1.8458	-1.5479	-2.0458	-105.198	215.135	16.487	217.768	50.721	110.689	201.169	181.438	-31.889	-69.858	171.099	180.611	34.937	201.735	70.825	77.700	0.00013358	0.000394	3.8496e-05	371.04	4.6063e-06	3.2467e-06	544.18	113.97	2.2796e-06	2.1561e-06	202.22	67.792	28.883	10.091	9.1685e-07	31.053	0.00031522	0.00030132	8.2185e-05	381.83	3.4546e-06	3.302e-06	546.3	117.04	3.457e-06	3.3092e-06	203.26	69.899	30.941	10.767	3.2868e-06	31.521	181.981	-45.142	9.231	-95.650	108.315	3.488	-95.334	-91.050	3.114	-94.398	-91.543	-86.670	-86.715	-80.571	8.975	-80.940	-8191	255	
3307.318	1	1	0	0	0.035972	0.25831	0.12016	0.11586	0.37218	0.10705	0.18033	0.22439	0.20248	0.10108	0.090011	0.16107	0.24635	0.16329	0.086968	0.23364	-1.2417	-1.4458	-1.9438	-1.6187	-1.7833	-1.7667	-1.6979	-1.7812	-1.725	-1.4438	-1.8771	-1.5833	-1.6063	-1.7958	-1.3229	-1.7792	250.885	65.247	78.167	30.992	171.929	250.331	160.251	108.486	16.637	99.156	50.152	175.677	213.928	-28.489	-46.693	190.490	0.00011804	7.3819e-05	3.9511e-05	375.57	7.9461e-07	5.5503e-06	542.41	114.05	3.2399e-06	1.4176e-06	202.13	68.28	28.794	10.152	3.1394e-06	31.044	0.00030529	0.00029759	8.5124e-05	382.44	3.3534e-06	3.2015e-06	548.14	117.17	3.3135e-06	3.2224e-06	203.46	69.836	30.945	10.747	3.4844e-06	31.43	187.161	-14.578	157.511	-95.579	-89.884	-12.379	-95.562	-90.954	51.667	15.124	-91.602	-86.774	-86.993	-80.439	24.280	-81.030	-8191	255	
3307.414	1	1	0	0	0.11965	0.13489	0.2617	0.34852	0.14968	0.13266	0.049826	0.097109	0.097139	0.072212	0.24126	0.13457	0.21971	0.11176	0.13284	0.22634	-1.1208	-1.4625	-1.8604	-1.5271	-1.4562	-1.7646	-1.5063	-1.9042	-1.6896	-1.3667	-1.7521	-1.5063	-1.4688	-1.8937	-1.4646	-1.7958	-98.446	-92.542	151.374	157.694	-7.565	10.492	181.547	157.630	246.325	155.418	98.285	199.731	-26.128	122.449	106.361	126.256	0.00015266	0.00027646	0.00013244	376.9	3.2463e-06	1.1955e-06	541.71	114.07	4.9058e-06	2.7325e-06	201.11	68.647	28.991	10.165	6.0958e-06	31.143	0.00030071	0.00029738	8.8438e-05	382.76	3.3385e-06	3.2629e-06	547.51	117.37	3.3126e-06	3.2838e-06	203.72	70.033	30.971	10.795	3.6144e-06	31.421	189.733	211.779	-26.003	-95.774	101.652	105.045	-95.399	-90.978	11.389	204.885	-91.625	-86.989	-86.717	-80.478	27.431	-80.951	-8191	255	
3307.510	1	1	0	0	0.22016	0.11987	0.13245	0.18631	0.16722	0.11823	0.15068	0.20116	0.23192	0.22201	0.18459	0.18189	0.44513	0.36244	0.11648	0.32636	-1.4354	-1.5458	-1.6917	-1.6833	-1.3208	-1.8417	-1.5958	-1.5562	-2	-1.5583	-1.8646	-1.9438	-1.4729	-1.7896	-1.5688	-1.6562	169.955	86.385	226.760	0.745	225.951	-68.362	195.897	110.321	-6.264	176.014	210.259	-90.494	-91.677	151.370	168.480	236.202	0.0002177	7.6279e-05	5.6206e-05	376.36	6.4179e-07	2.3575e-06	538.61	114.54	2.2114e-06	1.8445e-06	202.41	68.457	28.997	10.034	5.0182e-06	31.095	0.00029574	0.0003039	9.231e-05	382.71	3.286e-06	3.3312e-06	545.55	116.66	3.2648e-06	3.3371e-06	204.19	69.746	30.816	10.769	3.6019e-06	31.54	195.792	191.940	168.488	-95.899	-80.853	-62.014	-95.387	-90.793	18.964	-5.188	-91.313	-87.204	-87.696	-80.516	170.268	-80.921	-8191	255	
3307.607	1	1	0	0	0.30406	0.081654	0.22191	0.23847	0.34881	0.078076	0.17688	0.12819	0.26501	0.32285	0.17648	0.13838	0.067912	0.27998	0.18469	0.10413	-1.4167	-1.25	-1.6208	-1.7021	-1.6042	-1.8542	-1.5812	-1.6167	-1.9729	-1.475	-1.4646	-1.9562	-1.5938	-1.8417	-1.7125	-1.6479	-26.120	-76.016	183.682	193.379	79.217	84.273	189.648	152.592	-36.714	0.229	-67.747	242.926	112.273	-16.874	0.396	-89.340	0.00012279	0.00015794	0.00018153	375.32	4.598e-06	2.4123e-06	543.45	113.71	1.6598e-06	2.56e-06	202.77	68.975	29.056	10.177	4.8404e-07	31.718	0.00029263	0.00031268	9.2336e-05	380.71	3.3083e-06	3.4662e-06	547.11	116.33	3.2607e-06	3.5093e-06	204.58	70.215	30.998	10.974	3.568e-06	31.906	182.398	-15.543	44.023	-95.577	-25.372	41.647	-95.353	-91.206	250.183	2.341	-91.511	-86.737	-87.213	-80.709	59.942	-80.790	-8191	255	
3307.703	1	1	0	0	0.21104	0.18463	0.3169	0.069361	0.22286	0.085124	0.17617	0.12571	0.13798	0.18023	0.16069	0.066977	0.28293	0.33506	0.094059	0.12947	-1.1625	-1.4958	-1.7875	-1.6396	-1.3979	-1.8021	-1.5208	-1.3958	-1.8208	-1.575	-1.6792	-1.5417	-1.6271	-1.9	-1.6437	-1.5208	237.249	-97.954	-71.436	-96.447	171.283	208.684	196.286	-63.538	-38.354	87.900	-23.470	186.168	159.536	-79.983	196.406	140.736	0.00012063	0.0004014	9.656e-05	374.58	2.0647e-06	1.6941e-06	544.46	115.07	1.5219e-06	8.1045e-07	201.19	68.532	28.914	10.207	2.3256e-06	31.235	0.00029695	0.00032817	8.9874e-05	380.69	3.2946e-06	3.5852e-06	548.21	116.59	3.2968e-06	3.6052e-06	203.92	69.788	30.863	10.933	3.4566e-06	31.531	176.549	-7.218	-3.184	-95.388	58.385	4.727	-95.387	-90.977	-68.793	-26.012	-91.578	-86.388	-86.539	-80.673	40.326	-81.157	-8191	255	
3307.799	1	1	0	0	0.12496	0.10308	0.15567	0.33997	0.18049	0.26652	0.24656	0.22708	0.11176	0.18654	0.0136	0.19509	0.11234	0.23009	0.020176	0.24869	-1.35	-1.3729	-1.5875	-1.9562	-1.4125	-1.7188	-1.7958	-1.5958	-1.7521	-1.7271	-1.6542	-1.8521	-1.5625	-1.9833	-1.8667	-1.5479	-76.465	-92.485	248.889	157.020	-90.573	227.806	235.810	-63.604	29.225	58.816	74.789	223.064	84.374	225.644	157.174	228.749	0.000151	0.00039195	0.00022528	374.42	2.6098e-06	6.033e-06	540.17	113.93	2.7195e-06	1.7635e-06	200.23	68.198	28.763	10.222	2.7593e-06	31.213	0.00030206	0.0003335	8.7164e-05	380.41	3.3885e-06	3.6717e-06	545.53	116.18	3.432e-06	3.6532e-06	203.45	69.687	31.051	10.939	3.4197e-06	31.468	182.578	-6.214	-39.998	-95.775	154.418	15.835	-95.308	-91.079	-49.895	249.084	-91.296	-86.774	-87.097	-79.898	18.926	-80.905	-8191	255	
3307.919	1	1	0	0	0.056113	0.32154	0.16327	0.18444	0.059993	0.04489	0.07662	0.11238	0.17995	0.16311	0.035396	0.3437	0.25132	0.20812	0.080527	0.14766	-1.4521	-1.4375	-1.7354	-1.8417	-1.3917	-1.7437	-2.0333	-1.4771	-1.7437	-1.5396	-1.5146	-1.5833	-1.45	-1.6083	-1.6313	-1.5042	49.383	-73.409	216.165	204.345	-97.876	90.077	-94.598	230.790	-101.259	-38.543	162.279	158.629	91.700	-100.672	178.917	38.566	0.00015128	0.00027065	5.0868e-05	373.24	1.6948e-06	5.382e-06	540.99	113.69	1.9387e-06	3.1464e-06	203.25	68.624	28.933	10.156	4.4483e-06	31.382	0.00031636	0.00032904	8.52e-05	378.57	3.5455e-06	3.5354e-06	545.11	115.92	3.5387e-06	3.5027e-06	203.46	69.807	31.102	10.912	3.327e-06	31.665	183.767	-25.342	34.148	-95.460	58.274	-78.491	-95.567	-91.015	140.634	30.891	-91.460	-87.162	-87.228	-80.561	17.671	-80.697	-8191	255	
3308.014	1	1	0	0	0.32594	0.19604	0.10926	0.11349	0.16149	0.16619	0.17441	0.35391	0.19281	0.25108	0.19464	0.32997	0.1819	0.27942	0.21916	0.32208	-1.2563	-1.5833	-1.5854	-1.825	-1.6604	-1.7646	-1.7313	-1.3146	-1.7437	-1.6896	-1.4146	-1.925	-1.5021	-1.5604	-1.6646	-1.5063	-99.516	-23.281	130.084	250.920	-31.431	-92.094	128.923	76.933	-7.710	80.338	78.382	148.778	-81.926	103.579	178.176	212.714	0.00021825	0.00022474	0.00014098	372.72	2.0739e-06	1.6585e-06	543.82	114.26	1.5904e-06	3.8436e-06	202.64	68.921	28.808	10.149	3.6351e-06	31.249	0.00032557	0.0003188	8.4652e-05	380.67	3.5958e-06	3.4714e-06	547.17	116.55	3.6156e-06	3.4273e-06	203.98	70.22	31.298	10.889	3.2666e-06	31.696	185.933	-3.091	-34.411	-95.387	15.876	25.758	-95.461	-90.876	-83.227	-34.954	-91.410	-86.454	-87.548	-80.673	-8.408	-81.142	-8191	255	
3308.087	1	1	0	0	0.24638	0.068142	0.27442	0.14736	0.17249	0.14859	0.26948	0.34196	0.10946	0.25665	0.20713	0.25795	0.099424	0.42601	0.23238	0.17859	-1.4042	-1.7104	-1.3896	-1.9979	-1.5938	-1.6479	-1.8229	-1.5542	-1.9438	-1.7729	-1.5792	-1.9771	-1.4292	-1.6521	-1.9062	-1.4417	130.911	43.503	223.553	0.743	10.898	69.105	236.782	-64.814	54.649	-88.748	182.391	-64.317	24.182	189.113	49.390	229.930	0.00013174	0.00037519	0.00017701	377.34	3.8834e-07	2.9676e-06	543.23	114.69	3.9266e-07	2.8696e-06	202.49	68.115	29.044	10.064	4.5301e-06	31.036	0.00032716	0.00030377	8.212e-05	382.66	3.5914e-06	3.3378e-06	546.45	117.31	3.5884e-06	3.3263e-06	202.98	69.688	31.12	10.767	3.2581e-06	31.365	214.675	37.752	-88.405	-95.379	61.049	17.636	-95.353	-91.012	124.078	86.670	-91.532	-86.580	-87.115	-79.892	-53.572	-80.451	-8191	255	
3308.208	1	1	0	0	0.22676	0.12505	0.14299	0.11476	0.15842	0.066908	0.26668	0.20405	0.14538	0.24523	0.16485	0.038929	0.20573	0.039015	0.3549	0.051187	-1.2583	-1.5938	-1.4562	-1.6667	-1.5292	-1.6146	-1.8542	-1.4917	-1.6229	-1.8813	-1.475	-1.6542	-1.4521	-1.6271	-1.8188	-1.3771	154.520	68.143	151.279	212.236	-40.321	45.440	196.420	-57.278	111.613	180.088	197.773	-21.488	-10.113	212.468	54.482	123.224	0.00011769	9.9513e-05	0.00016113	377.91	1.3303e-06	9.8629e-07	542.31	114.8	2.4954e-06	2.178e-06	200.35	68.229	28.833	10.07	2.108e-06	31.022	0.00031778	0.0003022	8.395e-05	383.62	3.5019e-06	3.3204e-06	545.4	117.14	3.4613e-06	3.2823e-06	202.43	69.736	31.029	10.713	3.2633e-06	31.445	210.382	84.671	-24.052	-95.103	85.765	-8.535	-94.849	-90.873	187.532	51.895	-91.376	-86.799	-86.760	-79.602	30.211	-80.717	-8191	255	
3308.302	1	1	0	0	0.26865	0.14951	0.20603	0.037066	0.16775	0.39271	0.13639	0.31304	0.067024	0.17632	0.045288	0.11955	0.13974	0.24075	0.11369	0.23729	-1.1667	-1.7563	-1.4958	-1.9	-1.8208	-1.4521	-2.0917	-1.4625	-1.6875	-1.9271	-1.55	-1.7417	-1.6625	-1.4208	-1.9	-1.5417	64.464	72.778	177.193	198.641	13.046	85.974	-94.848	118.467	2.597	34.998	47.531	82.743	195.092	-11.350	52.770	191.050	0.00012643	0.00018606	7.1711e-05	377.68	4.3053e-06	1.3148e-06	542.13	114.39	1.9893e-06	1.5202e-06	202.14	68.584	29.033	10.106	2.4313e-06	31.202	0.00031008	0.00029827	8.5144e-05	383.52	3.3911e-06	3.2419e-06	546.69	117.09	3.3656e-06	3.2215e-06	203.53	70.214	30.994	10.754	3.3967e-06	31.637	219.898	46.141	41.824	-95.242	65.901	216.552	-95.029	-90.395	63.085	-43.229	-91.579	-86.724	-86.593	-80.511	93.660	-80.882	-8191	255	
3308.398	1	1	0	0	0.35038	0.12454	0.16416	0.091099	0.18882	0.050904	0.30547	0.25648	0.14819	0.18499	0.1113	0.42449	0.076689	0.16581	0.19963	0.1836	-1.1396	-1.8854	-1.2875	-1.7125	-1.5521	-1.5833	-1.875	-1.4292	-1.6063	-1.8896	-1.6333	-1.7646	-1.8042	-1.4354	-1.8792	-1.9396	-71.342	31.867	223.733	203.205	96.314	90.048	138.162	-89.700	133.521	59.221	-63.460	222.118	40.557	-12.860	200.106	247.391	0.00014041	0.00027024	9.533e-05	376.26	2.4569e-06	9.7831e-07	545.38	115.33	7.1551e-07	7.2797e-06	203.1	68.984	28.882	10.185	2.7853e-06	31.115	0.00030085	0.00029104	8.7828e-05	382.92	3.2913e-06	3.2373e-06	548.6	117.49	3.3016e-06	3.1794e-06	204.4	70.184	30.876	10.798	3.5099e-06	31.457	200.779	-60.939	-101.187	-95.453	178.418	24.215	-95.525	-90.878	91.077	46.002	-91.281	-86.140	-87.148	-80.653	-106.559	-80.447	-8191	255	
3308.495	1	1	0	0	0.21305	0.1107	0.16149	0.23683	0.14537	0.24114	0.068774	0.20353	0.29262	0.19448	0.034862	0.046013	0.10298	0.19471	0.12497	0.061029	-0.975	-2	-1.4312	-1.6729	-1.7062	-1.55	-2.0167	-1.9125	-1.6333	-1.5708	-1.6375	-1.6417	-1.8417	-1.4562	-1.7396	-1.7021	187.532	-107.229	126.529	118.960	181.103	164.502	-94.013	237.145	45.284	-58.412	200.531	64.604	208.091	224.888	125.160	242.675	0.00012911	0.00015258	7.988e-05	378.11	3.0913e-06	2.0458e-06	542.45	113.35	3.1135e-06	1.5681e-06	201.18	68.649	28.929	10.116	2.9466e-06	31.127	0.00029486	0.00028973	9.0117e-05	382.84	3.1872e-06	3.2708e-06	546.65	116.22	3.2434e-06	3.2412e-06	203.47	69.67	30.721	10.785	3.5359e-06	31.352	200.767	103.618	-38.622	-94.909	46.622	-17.916	-95.044	-90.568	36.916	-52.817	-90.915	-85.870	-86.284	-80.358	109.474	-80.720	-8191	255	
3308.615	1	1	0	0	0.11631	0.10403	0.04488	0.084775	0.069238	0.26761	0.23085	0.28771	0.063319	0.093053	0.13704	0.23147	0.30847	0.13209	0.28667	0.078926	-1.1187	-1.8521	-1.6375	-1.5917	-1.8062	-1.5833	-2.0312	-1.6792	-1.5688	-2.1	-1.6917	-1.8396	-1.9854	-1.3375	-1.9375	-1.7646	247.068	-107.939	-106.642	246.532	27.276	152.970	155.617	218.470	235.841	245.946	207.556	-82.918	-96.046	218.731	-95.188	164.214	0.00012682	4.4749e-05	3.0116e-05	376.51	3.0436e-06	3.186e-06	542.5	113.7	4.3986e-06	3.7291e-06	201.15	68.039	28.76	10.071	2.0664e-06	31.082	0.00028829	0.00030221	9.0189e-05	381.05	3.1492e-06	3.3335e-06	547.31	116.12	3.1642e-06	3.4097e-06	203.6	69.406	30.566	10.739	3.5129e-06	31.301	193.473	21.582	142.182	-94.838	75.127	61.710	-95.160	-90.644	15.001	-54.930	-91.248	-85.936	-86.916	-80.198	102.849	-80.315	-8191	255	
3308.687	1	1	0	0	0.22726	0.28379	0.10874	0.14196	0.1695	0.27771	0.13404	0.050758	0.063608	0.14945	0.23606	0.27533	0.14854	0.06163	0.12348	0.35264	-1.0271	-2.1	-1.5688	-1.6104	-1.9062	-1.6271	-1.8417	-2	-1.5187	-2.1312	-1.4937	-1.6875	-2.0625	-1.525	-1.8021	-1.8875	-68.922	165.757	39.217	130.195	70.729	105.732	245.958	-31.698	139.448	222.836	130.856	-95.950	216.869	64.971	140.702	34.711	0.00013093	0.00018286	0.00012124	375.64	3.4954e-06	3.7099e-06	543.33	113.94	2.3594e-06	2.5817e-06	201.77	68.712	28.949	10.039	1.6664e-06	31.259	0.00028812	0.00031791	8.7293e-05	380.74	3.1013e-06	3.4451e-06	547.2	116.27	3.1794e-06	3.4506e-06	203.25	69.546	30.67	10.789	3.354e-06	31.382	181.644	39.966	16.193	-95.106	-86.549	188.909	-94.917	-90.420	-15.109	97.364	-90.905	-86.374	-86.408	-79.761	58.828	-81.544	-8191	255	
3308.808	1	1	0	0	0.18205	0.22713	0.025702	0.15909	0.24017	0.26857	0.15765	0.26993	0.13111	0.13353	0.13411	0.39697	0.12781	0.1812	0.1706	0.20014	-0.86458	-1.8375	-1.8062	-1.5562	-1.8854	-1.5562	-1.7854	-1.7271	-1.4875	-1.8792	-1.7917	-1.6729	-1.8813	-1.6479	-1.8104	-1.9312	-36.427	178.101	215.336	-3.866	198.863	59.108	163.198	212.332	-91.773	170.670	0.917	-45.512	-63.563	93.544	22.460	198.452	0.00010571	0.00034064	4.9839e-05	378.28	1.4411e-06	2.0316e-06	547.15	115.2	2.907e-06	3.2139e-06	202.36	68.112	28.998	10.039	3.1558e-06	31.048	0.00029259	0.00031984	8.4625e-05	382.57	3.2063e-06	3.4857e-06	548.03	116.83	3.2584e-06	3.4889e-06	203.16	69.381	30.838	10.776	3.3199e-06	31.11	183.199	64.921	111.106	-94.934	-43.555	133.453	-94.945	-90.802	-49.938	19.508	-90.860	-86.259	-86.876	-79.661	-65.712	-80.791	-8191	255	
3308.904	1	1	0	0	0.25598	0.052481	0.11327	0.10967	0.19048	0.086711	0.16693	0.14476	0.21433	0.052305	0.19428	0.036037	0.058088	0.2064	0.068284	0.24278	-0.96875	-1.7729	-1.7729	-1.6708	-1.7563	-1.6063	-1.7437	-1.9562	-1.3542	-1.85	-1.7	-1.3833	-1.6812	-1.7167	-1.4312	-2.0687	244.229	-53.690	147.312	51.232	224.632	247.336	-21.647	197.274	85.337	-55.780	124.088	-71.356	155.324	-17.110	214.400	-98.107	0.00016398	0.00019132	0.00014786	375.5	1.6242e-06	1.9428e-06	541.47	114.59	1.8449e-06	4.2893e-06	199.85	68.287	28.916	10.055	3.405e-06	31.024	0.00029948	0.00031835	8.3087e-05	380.89	3.369e-06	3.4861e-06	545.59	116.27	3.4127e-06	3.4708e-06	202.12	69.214	30.894	10.721	3.2564e-06	31.064	173.977	-17.087	9.805	-95.230	188.890	63.943	-95.041	-90.505	110.018	-57.954	-90.917	-86.433	-86.676	-80.010	73.558	-80.517	-8191	255	
3309.000	1	1	0	0	0.20539	0.17816	0.28225	0.24575	0.13882	0.058877	0.16223	0.074165	0.23977	0.11896	0.28868	0.19474	0.096753	0.18253	0.054569	0.14191	-1.1688	-1.6437	-1.8875	-1.75	-1.825	-1.7375	-1.6667	-1.9021	-1.4167	-1.6562	-1.8292	-1.4604	-1.8396	-1.4021	-1.5083	-1.6646	231.740	-98.601	13.410	25.647	20.575	241.222	2.381	111.218	-45.309	-32.887	-78.413	161.157	37.451	121.707	-27.647	185.604	0.00015232	4.124e-05	0.00013041	378.4	1.7805e-06	1.7415e-06	542.7	114.1	3.6137e-06	1.8889e-06	200.65	67.756	28.612	9.9538	2.4961e-06	30.867	0.00031364	0.0003104	8.114e-05	381	3.4783e-06	3.4003e-06	544.5	116.08	3.5032e-06	3.3352e-06	201.88	69.053	30.785	10.631	3.2035e-06	31.147	166.691	122.887	-55.700	-95.234	199.570	-26.023	-94.901	-90.476	-13.305	43.522	-91.868	-86.731	-87.670	-80.853	-85.282	-81.048	-8191	255	
3309.096	1	1	0	0	0.1553	0.05908	0.057229	0.27981	0.16764	0.077706	0.19238	0.085185	0.1711	0.13403	0.30083	0.082657	0.41967	0.065198	0.26905	0.10752	-1.0146	-1.6417	-1.7875	-1.5854	-1.9562	-1.8125	-1.3417	-1.9125	-1.75	-1.5146	-1.9312	-1.5708	-1.7188	-1.6042	-1.3292	-1.7938	-0.656	95.441	107.387	-56.381	165.265	80.357	194.945	-88.829	233.868	122.744	198.625	211.221	153.028	-10.960	-104.949	-97.793	0.00020123	0.00030315	8.4018e-05	374.86	1.8004e-06	2.7434e-06	540.49	114.21	1.5334e-06	2.5873e-06	201.41	67.956	28.839	10.01	4.3299e-06	30.975	0.00031841	0.00030507	8.0022e-05	380.73	3.5208e-06	3.3241e-06	544.28	116.39	3.5277e-06	3.3012e-06	202.44	69.503	30.922	10.671	3.2135e-06	31.282	160.640	121.020	-73.658	-95.817	79.901	73.833	-95.546	-91.027	-98.060	29.474	-91.619	-86.814	-86.920	-80.768	38.541	-80.596	-8191	255	
3309.215	1	1	0	0	0.054469	0.10498	0.25258	0.092142	0.31361	0.17545	0.26167	0.262	0.34486	0.11623	0.13007	0.079237	0.19843	0.22095	0.1506	0.15097	-1.3458	-1.675	-2.0292	-1.6688	-1.7875	-1.9583	-1.5021	-1.7542	-1.6542	-1.6583	-1.8104	-1.875	-1.6917	-1.8271	-1.5583	-1.9896	190.472	55.415	114.915	-22.928	175.491	156.982	235.158	183.958	177.863	24.606	125.559	115.817	248.624	212.235	131.299	223.060	0.00012098	0.0002271	9.6429e-05	376.08	4.5862e-06	1.9727e-06	541.42	113.39	1.6702e-06	3.8405e-06	200.55	67.821	28.466	10.027	6.7158e-06	30.705	0.00031378	0.00029809	8.0903e-05	381.61	3.4599e-06	3.2653e-06	543.95	116.66	3.4487e-06	3.2386e-06	201.34	69.178	30.653	10.617	3.2107e-06	31.13	169.399	-95.804	1.760	-95.229	79.329	14.554	-95.354	-90.945	72.728	18.607	-91.245	-86.854	-87.602	-80.960	24.450	-81.129	-8191	255	
3309.311	1	1	0	0	0.35218	0.26895	0.046509	0.21363	0.19773	0.4242	0.015128	0.076017	0.13989	0.11893	0.11189	0.35331	0.22111	0.14483	0.11534	0.0087017	-1.2771	-1.6083	-1.7979	-1.4937	-1.8771	-1.7812	-1.6583	-1.8208	-1.6875	-1.5021	-1.9333	-1.7458	-1.4896	-1.8875	-1.5417	-1.9958	-67.244	127.273	57.774	117.656	113.143	104.509	-49.283	132.988	227.806	154.494	21.498	-80.995	152.788	-87.817	23.689	46.724	0.00011092	0.00010306	7.8036e-05	376.58	2.445e-06	5.6259e-06	539.52	113.91	1.4695e-06	2.8839e-06	199.76	68.149	28.498	10.108	3.5212e-07	31.129	0.00030495	0.00029242	8.2129e-05	381.98	3.3633e-06	3.1852e-06	543.65	116.63	3.3387e-06	3.2124e-06	201.64	69.673	30.73	10.682	3.3622e-06	31.433	203.716	-21.822	-29.819	-95.329	80.668	-0.392	-95.012	-90.627	185.685	-98.320	-91.252	-86.901	-86.656	-80.293	242.714	-80.653	-8191	255	
3309.383	1	1	0	0	0.22045	0.028381	0.22556	0.1804	0.19126	0.086836	0.094914	0.065241	0.24466	0.18893	0.21511	0.22963	0.23413	0.26255	0.059846	0.31843	-1.3896	-1.2417	-1.7896	-1.6562	-1.425	-2.1417	-1.5646	-1.7375	-1.8062	-1.4292	-1.9062	-1.6437	-1.5083	-1.9667	-1.4438	-1.8125	123.395	-55.586	212.041	0.658	-23.331	216.047	56.528	48.779	76.722	205.353	231.360	-54.628	190.470	44.955	150.640	6.956	9.6457e-05	0.00024692	0.00010907	371.36	5.7927e-06	2.6607e-06	535.25	113.12	4.9719e-06	7.3836e-06	200.69	68.426	28.568	10.065	4.3895e-06	31.282	0.00030111	0.00029445	8.6563e-05	380.37	3.2778e-06	3.1762e-06	543.45	115.93	3.3061e-06	3.165e-06	202.26	69.776	30.591	10.704	3.488e-06	31.651	174.653	-33.795	-107.815	-95.637	25.541	3.735	-95.357	-90.483	125.890	-0.041	-91.350	-86.686	-86.775	-80.941	62.805	-80.796	-8191	255	
3309.503	1	1	0	0	0.2236	0.19805	0.10373	0.28187	0.20446	0.18415	0.077646	0.081747	0.12597	0.11655	0.11703	0.1968	0.12843	0.11032	0.20726	0.43739	-1.3021	-1.5771	-1.9646	-1.6313	-1.7083	-1.925	-1.6792	-1.8188	-1.8438	-1.4646	-1.9479	-1.6729	-1.4458	-1.7542	-1.4979	-1.6125	-100.523	125.760	97.240	-78.584	39.704	-43.050	10.080	72.319	34.749	107.891	-78.846	-17.407	-2.046	1.757	-2.091	239.756	0.00017489	0.00022762	9.3069e-05	373.03	2.4262e-06	4.6592e-06	538.15	112.84	1.1902e-06	1.2373e-06	200.84	67.887	28.511	10.201	3.3531e-06	31.433	0.00029315	0.00029183	8.8843e-05	379.27	3.2088e-06	3.1791e-06	544.02	115.56	3.2238e-06	3.2359e-06	202.87	69.585	30.548	10.782	3.5638e-06	31.539	188.195	15.954	-23.654	-95.352	-11.728	38.387	-95.351	-91.341	0.829	-32.164	-91.644	-87.292	-87.021	-80.841	103.525	-81.144	-8191	255	
#DATA ENDS
