BOXY.EXE: ISS Imagent and Oximeter Data Acquisition Program Version 0.80
Ascii Record File

#ACQ INFORMATION
2  Detector Channels 
16  External MUX Channels 
1  Auxiliary Channels 
5000  Waveform (CCF) Frequency (Hz)
1  Waveforms Skipped 
30  Waveforms Averaged 
1  Cycles Averaged 
16  Acquisitions per Waveform 
10.0806  Updata Rate (Hz) 

#FILE INFORMATION
TRUE -- External MUX Channel results are PARSED.
FALSE -- AC DC and Phase are NOT grouped.
TRUE -- Companion Program Settings File CREATED.
FALSE -- AC data not excluded
FALSE -- DC data not excluded
FALSE -- Phase data not excluded
FALSE -- Auxillary Chn. data not excluded
Tab delimiters

#CALIBRATION STATE
TRUE -- Waveform Calibration Values APPLIED.


#AUX CALIBRATION VALUES
Val Type	aux-1	

Term	1.0000e+00	
Factor	0.0000e+00	


#WF CALIBRATION VALUES
A = Detector Channel
Val Type	A-AC1	A-AC2	A-AC3	A-AC4	A-AC5	A-AC6	A-AC7	A-AC8	A-AC9	A-AC10	A-AC11	A-AC12	A-AC13	A-AC14	A-AC15	A-AC16	A-DC1	A-DC2	A-DC3	A-DC4	A-DC5	A-DC6	A-DC7	A-DC8	A-DC9	A-DC10	A-DC11	A-DC12	A-DC13	A-DC14	A-DC15	A-DC16	A-Ph1	A-Ph2	A-Ph3	A-Ph4	A-Ph5	A-Ph6	A-Ph7	A-Ph8	A-Ph9	A-Ph10	A-Ph11	A-Ph12	A-Ph13	A-Ph14	A-Ph15	A-Ph16	

Term	0.00000e+00	0.00000e+00	0.00000e+00	0.00000e+00	0.00000e+00	0.00000e+00	0.00000e+00	0.00000e+00	0.00000e+00	0.00000e+00	0.00000e+00	0.00000e+00	0.00000e+00	0.00000e+00	0.00000e+00	0.00000e+00	0.00000e+00	0.00000e+00	0.00000e+00	0.00000e+00	0.00000e+00	0.00000e+00	0.00000e+00	0.00000e+00	0.00000e+00	0.00000e+00	0.00000e+00	0.00000e+00	0.00000e+00	0.00000e+00	0.00000e+00	0.00000e+00	0.00000e+00	0.00000e+00	0.00000e+00	0.00000e+00	0.00000e+00	0.00000e+00	0.00000e+00	0.00000e+00	0.00000e+00	0.00000e+00	0.00000e+00	0.00000e+00	0.00000e+00	0.00000e+00	0.00000e+00	0.00000e+00	
Factor	1.00000e+00	1.00000e+00	1.00000e+00	1.00000e+00	1.00000e+00	1.00000e+00	1.00000e+00	1.00000e+00	1.00000e+00	1.00000e+00	1.00000e+00	1.00000e+00	1.00000e+00	1.00000e+00	1.00000e+00	1.00000e+00	1.00000e+00	1.00000e+00	1.00000e+00	1.00000e+00	1.00000e+00	1.00000e+00	1.00000e+00	1.00000e+00	1.00000e+00	1.00000e+00	1.00000e+00	1.00000e+00	1.00000e+00	1.00000e+00	1.00000e+00	1.00000e+00	X	X	X	X	X	X	X	X	X	X	X	X	X	X	X	X	

B = Detector Channel
Val Type	B-AC1	B-AC2	B-AC3	B-AC4	B-AC5	B-AC6	B-AC7	B-AC8	B-AC9	B-AC10	B-AC11	B-AC12	B-AC13	B-AC14	B-AC15	B-AC16	B-DC1	B-DC2	B-DC3	B-DC4	B-DC5	B-DC6	B-DC7	B-DC8	B-DC9	B-DC10	B-DC11	B-DC12	B-DC13	B-DC14	B-DC15	B-DC16	B-Ph1	B-Ph2	B-Ph3	B-Ph4	B-Ph5	B-Ph6	B-Ph7	B-Ph8	B-Ph9	B-Ph10	B-Ph11	B-Ph12	B-Ph13	B-Ph14	B-Ph15	B-Ph16	

Term	0.00000e+00	0.00000e+00	0.00000e+00	0.00000e+00	0.00000e+00	0.00000e+00	0.00000e+00	0.00000e+00	0.00000e+00	0.00000e+00	0.00000e+00	0.00000e+00	0.00000e+00	0.00000e+00	0.00000e+00	0.00000e+00	0.00000e+00	0.00000e+00	0.00000e+00	0.00000e+00	0.00000e+00	0.00000e+00	0.00000e+00	0.00000e+00	0.00000e+00	0.00000e+00	0.00000e+00	0.00000e+00	0.00000e+00	0.00000e+00	0.00000e+00	0.00000e+00	-1.60165e+02	-1.56046e+02	-1.61601e+02	-1.84043e+02	-1.15639e+02	-8.35182e+01	-1.55479e+02	-1.62015e+02	-1.02200e+02	-1.19732e+02	-1.85372e+02	-1.70396e+02	-1.86982e+02	-1.76531e+02	-6.46452e+01	-1.49226e+02	
Factor	2.80052e-05	7.83278e-05	3.39611e-05	2.47397e-01	8.53685e-07	8.94540e-07	1.74294e-01	5.63954e-02	8.49358e-07	1.01448e-06	2.25253e-01	3.31667e-02	6.79303e-02	9.94483e-03	1.03214e-06	1.41766e-02	3.98363e-07	4.02558e-07	1.11943e-07	1.12903e-01	4.40606e-09	4.40072e-09	7.81490e-02	2.63565e-02	4.40888e-09	4.39813e-09	8.24592e-02	1.43961e-02	2.55369e-02	4.44917e-03	4.40686e-09	6.06539e-03	X	X	X	X	X	X	X	X	X	X	X	X	X	X	X	X	



#DISTANCE SETTINGS
A = Detector Channel
A-1	A-2	A-3	A-4	A-5	A-6	A-7	A-8	A-9	A-10	A-11	A-12	A-13	A-14	A-15	A-16	

2.5000e+00	3.0000e+00	2.5000e+00	3.0000e+00	2.0000e+00	3.0000e+00	1.5000e+00	3.0000e+00	3.0000e+00	3.0000e+00	3.0000e+00	3.0000e+00	3.0000e+00	3.0000e+00	1.5000e+00	3.0000e+00	

B = Detector Channel
B-1	B-2	B-3	B-4	B-5	B-6	B-7	B-8	B-9	B-10	B-11	B-12	B-13	B-14	B-15	B-16	

1.0000e+01	1.0000e+01	1.0000e+01	1.4400e+00	1.0000e+01	1.0000e+01	1.5100e+00	1.9400e+00	1.0000e+01	1.0000e+01	1.9900e+00	2.4900e+00	2.4100e+00	2.9000e+00	1.0000e+01	2.9800e+00	




#DATA BEGINS
time	group	step	mark	flag	A-AC1	A-AC2	A-AC3	A-AC4	A-AC5	A-AC6	A-AC7	A-AC8	A-AC9	A-AC10	A-AC11	A-AC12	A-AC13	A-AC14	A-AC15	A-AC16	A-DC1	A-DC2	A-DC3	A-DC4	A-DC5	A-DC6	A-DC7	A-DC8	A-DC9	A-DC10	A-DC11	A-DC12	A-DC13	A-DC14	A-DC15	A-DC16	A-Ph1	A-Ph2	A-Ph3	A-Ph4	A-Ph5	A-Ph6	A-Ph7	A-Ph8	A-Ph9	A-Ph10	A-Ph11	A-Ph12	A-Ph13	A-Ph14	A-Ph15	A-Ph16	B-AC1	B-AC2	B-AC3	B-AC4	B-AC5	B-AC6	B-AC7	B-AC8	B-AC9	B-AC10	B-AC11	B-AC12	B-AC13	B-AC14	B-AC15	B-AC16	B-DC1	B-DC2	B-DC3	B-DC4	B-DC5	B-DC6	B-DC7	B-DC8	B-DC9	B-DC10	B-DC11	B-DC12	B-DC13	B-DC14	B-DC15	B-DC16	B-Ph1	B-Ph2	B-Ph3	B-Ph4	B-Ph5	B-Ph6	B-Ph7	B-Ph8	B-Ph9	B-Ph10	B-Ph11	B-Ph12	B-Ph13	B-Ph14	B-Ph15	B-Ph16	aux-1	digaux	

19554.561	1	1	0	256	0.26763	0.15801	0.083144	0.051053	0.025822	0.16453	0.13683	0.31555	0.17309	0.24563	0.15529	0.3343	0.12764	0.12803	0.14189	0.28921	-1.2333	-2.0417	-1.5979	-1.7646	-2.1333	-1.6063	-1.725	-2.0667	-1.6458	-2.1625	-1.6229	-1.5583	-2.0521	-1.8104	-2.0729	-2.0854	80.852	104.338	49.552	-75.034	237.362	197.349	64.596	143.925	-79.813	102.065	46.339	147.735	257.823	88.652	260.533	204.159	0.00083261	0.00073326	0.00025352	521.25	8.8483e-06	1.5355e-05	621.83	151.7	1.9018e-05	1.1574e-05	225.89	77.888	52.263	18.722	1.9366e-05	34.4	0.004373	0.0044229	0.0012306	1685.8	4.8937e-05	4.9175e-05	1427.9	430.02	4.9733e-05	4.972e-05	1088.9	227.01	323.29	65.19	4.8915e-05	95.297	185.913	92.881	184.431	-84.796	-33.887	153.639	-84.678	-78.734	157.641	-35.731	-80.365	-75.926	-77.259	-69.018	236.283	-71.213	-8191	255	
19554.656	1	1	0	0	0.30774	0.26025	0.11716	0.10863	0.16693	0.18821	0.33178	0.20781	0.088602	0.33545	0.040688	0.077044	0.072314	0.10156	0.21321	0.11997	-1.0417	-1.9146	-1.8563	-1.4458	-1.975	-1.5979	-1.8708	-1.8062	-1.5042	-2.1354	-1.8062	-1.7062	-2.1417	-1.7333	-1.85	-1.8979	-38.552	160.911	-78.108	106.776	-50.200	-65.028	185.578	202.283	141.075	224.324	62.162	-42.397	87.575	192.316	207.680	215.413	0.0003746	0.0017184	0.00022249	508.11	1.935e-05	1.02e-05	626.49	154.57	7.2745e-06	2.8182e-05	217.45	78.307	51.901	18.57	2.1303e-05	34.841	0.0043669	0.0043979	0.0012167	1666.5	4.7691e-05	4.7727e-05	1403.1	420.85	4.8151e-05	4.8295e-05	1061.5	223.76	317.43	64.299	4.8154e-05	94.839	243.357	22.310	240.127	-83.832	-57.358	215.787	-84.609	-79.259	173.330	-17.619	-80.742	-75.927	-76.771	-69.401	-25.333	-69.729	-8191	255	
19554.777	1	1	0	0	0.12302	0.26858	0.24489	0.34426	0.24107	0.034498	0.19503	0.32454	0.16024	0.11584	0.30991	0.087448	0.16176	0.090001	0.16847	0.11426	-1.0667	-2.1104	-1.9	-1.7313	-2.0938	-1.6396	-1.7687	-2.1813	-1.5479	-2.0333	-1.975	-1.6938	-1.8729	-1.7667	-1.9396	-2.2833	124.463	199.485	49.826	223.384	108.925	125.458	232.548	-75.046	-67.978	60.469	-79.310	171.604	-62.823	71.698	28.452	-77.535	0.0008493	0.001069	0.00014221	520.42	1.1469e-05	3.5677e-05	628.14	153.9	2.1768e-05	3.0006e-05	222.89	78.282	52.998	18.81	5.7596e-06	35.508	0.0043198	0.0043583	0.0012079	1650.9	4.7033e-05	4.6908e-05	1385.8	415.28	4.7012e-05	4.6977e-05	1038.7	219.64	310.93	63.575	4.7589e-05	94.553	106.555	118.489	-88.100	-84.195	209.235	104.569	-84.724	-79.867	55.957	-18.994	-80.351	-76.571	-74.470	-69.662	132.197	-70.086	-8191	255	
19554.873	1	1	0	0	0.20739	0.13746	0.16577	0.096411	0.18728	0.21173	0.098252	0.147	0.23492	0.17319	0.0766	0.25009	0.1129	0.084094	0.02043	0.21328	-1.2042	-1.7917	-2.1708	-1.4833	-1.9375	-1.6625	-1.6833	-1.9625	-1.5312	-1.9042	-1.9229	-1.6042	-2.0083	-1.875	-1.4958	-2.25	6.644	-47.930	146.946	-16.723	8.755	193.531	178.347	158.491	223.926	243.864	203.229	188.522	-39.999	140.709	160.783	-89.459	0.0010956	0.0020675	0.00075695	513.54	1.5655e-05	1.9938e-05	623.96	153.12	4.9978e-06	7.0047e-06	228.63	78.519	52.521	19.108	1.5251e-05	35.014	0.0043053	0.0043525	0.0012146	1663	4.7931e-05	4.8163e-05	1414.1	425.29	4.9542e-05	5.0156e-05	1108.8	233.7	337.47	68.804	5.2886e-05	102.58	125.136	242.099	-71.713	-83.508	-16.112	198.329	-84.384	-78.573	75.704	17.135	-80.994	-76.474	-75.458	-69.560	241.091	-70.947	-8191	255	
19554.969	1	1	0	0	0.26171	0.16267	0.26206	0.12726	0.19023	0.086013	0.097494	0.043276	0.14122	0.12385	0.1181	0.16342	0.059173	0.20248	0.21615	0.27712	-1.2042	-1.6583	-2.0208	-1.5042	-1.8667	-2.0271	-1.5729	-2.2125	-1.7896	-1.9229	-2.1354	-1.7687	-1.9875	-1.9562	-1.5604	-2.3833	127.835	96.390	40.250	239.890	-49.646	35.933	108.934	167.331	177.994	-47.426	196.097	202.126	203.519	-44.655	102.855	251.965	0.00051653	0.0013887	0.00086081	528.53	2.6793e-05	1.1555e-05	623.14	153.17	8.2679e-06	1.423e-05	227.91	78.842	52.511	18.721	1.4748e-05	35.039	0.0048283	0.0049029	0.001371	1830.8	5.4169e-05	5.4445e-05	1526.3	462.18	5.4797e-05	5.4809e-05	1188	246.16	359.12	72.181	5.6088e-05	106.95	191.042	124.346	77.116	-84.433	153.867	137.871	-84.501	-79.115	225.017	-39.625	-82.572	-75.973	-75.438	-68.869	99.145	-70.733	-8191	255	
19555.064	1	1	0	0	0.20911	0.07631	0.098984	0.067442	0.099403	0.073186	0.068139	0.18852	0.26573	0.25367	0.20957	0.11291	0.1503	0.065928	0.11336	0.13217	-1.4438	-1.5542	-1.9562	-1.6458	-2.1208	-1.8417	-1.7687	-2.2313	-2.0521	-1.7667	-2.275	-1.7854	-1.9958	-2.0167	-1.7021	-2.2167	95.780	-83.820	41.170	92.049	25.815	136.260	51.357	124.600	258.110	-6.300	186.146	18.953	200.513	259.283	135.508	249.116	0.00080866	0.0041669	0.00081217	538.64	4.128e-05	1.0423e-05	649.34	162.4	2.2079e-05	1.6029e-05	232.33	81.481	55.409	19.416	1.9302e-05	35.113	0.0052014	0.0053199	0.0015138	2032.5	6.3926e-05	6.6354e-05	1796.4	567.46	7.3366e-05	7.4792e-05	1593.8	320.25	483.65	93.289	7.5759e-05	132.88	-28.985	-93.366	-30.898	-83.459	-14.439	-12.390	-84.587	-79.904	-46.443	73.261	-80.664	-76.657	-76.067	-69.248	229.571	-70.676	-8191	255	
19555.186	1	1	0	0	0.17564	0.13947	0.204	0.19755	0.32861	0.31104	0.081946	0.35573	0.10104	0.2799	0.14316	0.12193	0.070461	0.10093	0.21891	0.1806	-1.525	-1.8062	-2.2771	-1.8146	-1.9	-2.1271	-1.6521	-2.1708	-2.1354	-1.9125	-2.2021	-1.7708	-1.9562	-1.8125	-1.65	-2.0458	-9.328	19.418	2.678	241.852	-79.525	177.176	17.743	177.345	169.059	-25.137	-21.664	221.940	-56.776	72.040	224.017	176.303	0.00022777	0.0040377	0.00078484	537.64	1.9261e-05	2.1804e-05	641.78	160.15	6.7653e-06	2.3084e-05	227.24	80.503	56.145	19.242	1.771e-05	35.067	0.0067431	0.0067811	0.0018781	2347.5	7.3681e-05	7.3828e-05	1882.7	580.31	7.3789e-05	7.3507e-05	1536.9	304.44	455.29	87.786	7.0327e-05	124.74	-76.094	-36.083	-84.830	-83.968	23.496	96.007	-85.312	-79.470	-38.969	-95.471	-81.035	-76.877	-74.764	-71.038	184.124	-71.207	-8191	255	
19555.258	1	1	0	0	0.22125	0.16525	0.34169	0.22053	0.14592	0.26616	0.22148	0.13005	0.23275	0.30424	0.048455	0.037776	0.11275	0.26858	0.25711	0.094738	-1.5396	-1.7833	-2.0917	-1.8917	-1.8729	-2.1292	-1.7833	-2.2042	-2.0396	-1.6021	-2.2125	-2.0104	-1.675	-2.1896	-1.675	-2.2562	-69.642	247.832	-72.285	229.335	248.600	68.136	232.900	113.375	212.110	-17.824	-68.406	257.138	-71.554	244.029	147.666	191.065	0.0011865	0.00039948	0.0010761	527.78	2.63e-05	5.3713e-06	633.08	157.25	1.684e-05	2.4918e-05	229.9	79.65	54.403	18.644	1.4002e-05	35.235	0.0062681	0.0063208	0.0017606	2231	6.9541e-05	6.9805e-05	1812.7	559.51	7.0517e-05	7.0459e-05	1483.4	297.03	441.99	85.611	6.7981e-05	121.56	42.146	-36.569	141.051	-84.848	148.878	168.015	-84.533	-79.011	199.943	75.152	-81.621	-76.039	-76.540	-69.583	198.364	-70.896	-8191	255	
19555.354	1	1	0	0	0.093422	0.25889	0.17716	0.041803	0.17337	0.017355	0.11125	0.12313	0.13445	0.11719	0.13133	0.30775	0.34467	0.23353	0.44169	0.12773	-1.5438	-1.5521	-2.0958	-1.8354	-1.7	-2.1667	-1.7479	-1.7646	-2.1208	-1.6771	-2.0583	-1.8375	-1.8125	-2.2938	-1.6938	-1.9083	238.031	173.786	155.372	160.191	235.876	237.662	-49.221	248.413	123.036	91.116	64.963	-31.211	-23.036	205.952	91.141	255.650	0.00055165	0.0011173	0.0015773	516.81	3.597e-05	8.9918e-06	631.93	156.47	2.4187e-05	3.5748e-05	231.81	79.921	55.439	18.945	1.3181e-05	35.644	0.0059675	0.0059472	0.0016321	2071.3	6.2577e-05	6.1672e-05	1645.3	496.71	5.9584e-05	5.8947e-05	1257.8	256.06	371.37	73.741	5.6638e-05	106.41	-20.109	105.792	64.488	-84.433	219.089	120.708	-84.541	-78.560	154.586	-6.463	-80.271	-75.673	-75.041	-69.319	70.870	-70.498	-8191	255	
19555.449	1	1	0	0	0.074908	0.55434	0.39152	0.12626	0.32034	0.13445	0.16816	0.21909	0.23164	0.055199	0.26556	0.12007	0.1307	0.092211	0.066704	0.18856	-1.6833	-1.6979	-1.9625	-2.0896	-1.75	-2.1729	-1.7417	-1.7479	-2.0771	-1.5875	-1.8979	-1.8833	-1.7771	-2.2313	-1.8667	-2.0583	104.522	260.853	-96.740	97.029	118.448	252.664	58.184	136.108	243.923	-83.515	-44.565	145.191	-24.814	88.867	234.595	246.415	0.00050005	0.00064297	0.00037813	518.16	8.9089e-07	8.0981e-06	631.19	157.26	1.3491e-05	1.0334e-05	222.39	80.587	53.579	19.323	3.731e-05	36.246	0.0050144	0.0050361	0.0013876	1838	5.4167e-05	5.4175e-05	1521	460.27	5.3922e-05	5.3819e-05	1168.3	242.4	348.06	70.177	5.3315e-05	103.02	50.500	42.756	-31.087	-83.767	193.022	-31.683	-84.164	-79.659	-78.936	138.172	-82.560	-76.477	-78.178	-69.202	211.568	-71.145	-8191	255	
19555.570	1	1	0	0	0.30308	0.15074	0.2405	0.11493	0.2966	0.19158	0.17275	0.19092	0.11578	0.17614	0.051561	0.3056	0.24961	0.083155	0.16353	0.18207	-1.7917	-1.6229	-2.0958	-1.9396	-1.4479	-2.1708	-1.8979	-1.7708	-2.1208	-1.6229	-2.1521	-2.1646	-1.7021	-2.1146	-1.7521	-1.9312	16.154	25.837	240.042	-9.687	104.171	106.123	229.952	145.427	167.083	-21.574	206.932	-39.490	-41.943	25.399	70.021	204.043	0.00049162	0.0015967	0.00068086	537.45	3.0337e-05	2.2926e-05	632.49	157.75	1.0731e-05	2.726e-05	230.22	80.001	54.142	19.464	3.0484e-05	36.432	0.004787	0.0048228	0.0013346	1788.9	5.1919e-05	5.164e-05	1477.9	444.02	5.0913e-05	5.0738e-05	1112.1	233.23	331.62	67.531	5.0737e-05	100.12	92.975	3.065	71.394	-83.216	136.139	122.867	-84.403	-79.471	254.265	62.276	-79.497	-77.165	-75.052	-68.798	-72.770	-70.416	-8191	255	
19555.666	1	1	0	0	0.14617	0.05532	0.32728	0.20218	0.20014	0.17909	0.19733	0.16512	0.16438	0.043923	0.28671	0.061649	0.15929	0.19581	0.20984	0.16684	-1.6333	-1.6354	-1.9417	-1.9188	-1.6375	-2.0479	-1.8833	-1.7021	-2.0625	-1.7271	-1.8062	-2.1813	-1.6375	-1.975	-1.8979	-1.975	228.551	221.140	259.837	-21.619	144.918	166.105	208.284	108.501	4.169	-23.694	151.431	-54.992	157.487	114.672	1.223	10.149	0.00060298	0.00090425	0.00033168	524.44	2.1836e-05	1.4911e-05	637.99	160.73	7.3372e-06	1.6998e-05	230.88	81.404	54.34	19.648	2.3935e-05	36.581	0.0046036	0.0046683	0.0013023	1763.7	5.1532e-05	5.2033e-05	1504.4	458.38	5.3925e-05	5.4132e-05	1180.8	245.76	352.7	71.1	5.3791e-05	104.48	88.134	-20.534	-34.162	-83.432	67.363	-24.317	-83.940	-79.085	85.626	146.524	-81.829	-76.499	-74.651	-69.569	-93.228	-70.396	-8191	255	
19555.762	1	1	0	0	0.13456	0.10039	0.23179	0.26721	0.2766	0.1576	0.13903	0.12059	0.32115	0.24685	0.16592	0.33887	0.056531	0.14242	0.20425	0.19542	-1.7583	-1.7646	-1.8354	-2.125	-1.5896	-2.2542	-1.9958	-1.7917	-2.1958	-1.7917	-2.0062	-2.1042	-1.9396	-2.0583	-1.8958	-1.6083	-90.807	189.775	-63.015	62.786	192.453	75.089	148.669	30.354	-52.561	-68.635	85.954	109.391	185.456	187.448	-25.170	255.860	0.00077518	0.00030976	0.00031928	513.06	3.1387e-05	1.9998e-05	623.35	151.39	3.0294e-05	2.8699e-05	218.5	79.61	50.928	19.729	2.3073e-05	36.912	0.0048548	0.0049017	0.0013687	1825.4	5.4318e-05	5.4813e-05	1534.6	468.98	5.6936e-05	5.7623e-05	1250.3	257.52	376.91	75.52	5.8304e-05	110.59	257.916	118.926	-35.709	-83.113	-19.414	41.095	-84.527	-79.488	90.150	-34.502	-79.555	-76.055	-74.207	-67.903	162.826	-70.515	-8191	255	
19555.857	1	1	0	0	0.29488	0.027191	0.27682	0.080711	0.2459	0.38348	0.18436	0.086476	0.13765	0.21015	0.14262	0.12065	0.041542	0.22435	0.031178	0.052055	-1.6625	-1.8792	-1.6167	-2.1646	-1.8292	-1.7792	-1.9146	-1.5812	-2.175	-1.8917	-1.6958	-2.1771	-1.6667	-1.8354	-2.075	-1.6375	49.573	-70.925	215.762	-3.114	119.023	155.919	-73.794	-34.042	219.113	111.565	185.481	-65.464	153.426	121.659	87.969	23.555	0.00019291	0.0012629	0.00060808	500.68	1.2848e-05	2.1068e-05	607.72	150.65	2.1163e-05	7.7956e-06	216.97	77.032	50.249	19.07	8.6468e-06	36.16	0.0052239	0.0052568	0.0014539	1888.4	5.6445e-05	5.5992e-05	1535.2	464.17	5.5619e-05	5.5499e-05	1198.2	246.94	360.05	72.661	5.6298e-05	107.42	28.795	-94.920	-22.184	-83.996	22.150	-68.524	-85.805	-78.272	33.524	37.336	-79.532	-76.707	-74.260	-68.720	127.025	-71.322	-8191	255	
19555.953	1	1	0	0	0.16391	0.029273	0.22	0.045738	0.29827	0.067261	0.15762	0.32357	0.11287	0.11907	0.23358	0.057672	0.032315	0.14174	0.04266	0.31534	-1.7458	-1.975	-1.6042	-2.1437	-1.7854	-1.7854	-2.0563	-1.7896	-1.925	-1.8229	-1.7646	-2.2771	-1.8208	-1.7313	-2.0958	-1.5146	9.206	241.946	100.809	172.825	-21.857	-70.234	-9.780	127.946	-67.810	-9.434	124.665	-19.201	9.687	38.993	59.835	-89.519	0.00018464	0.0013943	0.0003973	506.39	7.4986e-06	2.3131e-05	609.17	148.73	2.0822e-05	1.7955e-05	209.61	76.559	48.948	18.769	3.0206e-05	35.195	0.0050809	0.0051273	0.0014175	1843.9	5.4726e-05	5.4124e-05	1486.3	445.77	5.2211e-05	5.1574e-05	1107.6	228.13	325.38	65.826	4.9566e-05	97.295	23.030	132.445	-96.454	-84.665	175.184	71.517	-84.715	-79.824	128.675	102.031	-81.461	-76.042	-74.449	-68.910	19.641	-71.049	-8191	255	
19556.051	1	1	0	0	0.1484	0.066728	0.21791	0.20113	0.037471	0.058572	0.12937	0.17567	0.17793	0.019728	0.23283	0.052233	0.062756	0.08087	0.029317	0.15795	-1.5729	-1.8937	-1.5812	-2.0042	-1.8271	-1.7979	-2.1854	-1.5938	-1.9667	-2.2229	-1.7313	-2.2062	-1.8646	-1.9417	-2.0708	-1.6875	-86.008	-11.305	-75.984	51.423	126.407	-35.738	16.322	134.044	186.291	126.001	-63.489	-52.985	257.452	233.915	254.035	27.036	0.00085105	0.0019522	0.00072577	498.28	3.969e-05	2.85e-05	605.24	147.29	2.2275e-05	4.2816e-06	211.56	75.987	49.836	18.503	2.1248e-05	35.825	0.0044572	0.0045107	0.0012557	1688.7	4.9398e-05	4.9234e-05	1408.6	423.95	4.9543e-05	4.9565e-05	1083.5	226.09	323.81	66.25	5.0203e-05	98.753	135.218	-96.977	94.564	-83.400	20.130	-76.131	-84.402	-79.162	59.340	-55.236	-81.143	-76.106	-76.494	-69.356	248.869	-70.949	-8191	255	
19556.170	1	1	0	0	0.12876	0.16313	0.13417	0.12579	0.20125	0.2177	0.1942	0.12256	0.028077	0.22063	0.090571	0.12854	0.12353	0.21671	0.2721	0.17479	-1.5625	-2.0667	-1.5917	-2.075	-1.9792	-1.6854	-2.2104	-1.7396	-1.8646	-2.1833	-1.7604	-2.1417	-1.8563	-1.6854	-2.1396	-1.9688	65.787	191.297	-45.626	92.554	-78.512	228.996	22.987	-41.756	130.555	258.851	144.647	261.815	180.416	67.022	231.965	0.278	0.00038495	0.00083266	0.00052486	495.97	1.1977e-05	1.183e-05	600.05	149.83	5.1857e-06	7.336e-06	218.85	74.752	50.742	18.757	9.8477e-06	35.55	0.0045339	0.0045951	0.001282	1716.4	5.0611e-05	5.062e-05	1434.2	431.42	5.0597e-05	5.0484e-05	1100	228.43	326.2	66.447	5.0005e-05	98.118	138.125	159.967	175.034	-83.448	-3.507	135.741	-84.723	-78.689	228.317	31.176	-79.721	-76.380	-77.433	-68.815	59.057	-70.239	-8191	255	
19556.266	1	1	0	0	0.16804	0.22407	0.25423	0.15078	0.20513	0.10186	0.27874	0.21473	0.15336	0.39272	0.19537	0.20166	0.22128	0.083776	0.30083	0.070982	-1.4688	-2.2042	-1.775	-2.1729	-1.9646	-1.9208	-2.2562	-1.8542	-1.8354	-2.1229	-1.7042	-2.15	-2.0271	-1.5229	-1.9917	-2.1708	-74.712	210.428	130.902	-57.314	18.918	-73.617	185.072	38.001	-49.496	74.544	-67.334	160.897	-28.238	-84.076	96.486	143.372	0.00017495	0.00019044	0.00083776	488.46	2.1196e-05	1.595e-05	599.58	147.25	2.5695e-05	1.9203e-05	216.05	75.885	48.797	18.537	2.0594e-05	35.638	0.0045069	0.0045358	0.0012583	1683.9	4.921e-05	4.9139e-05	1405.5	422.12	4.9221e-05	4.9172e-05	1076.3	224.72	322.66	66.149	5.059e-05	99.219	-64.070	30.198	254.105	-83.146	206.687	85.255	-84.827	-79.423	168.881	96.705	-79.452	-76.221	-75.158	-68.649	96.979	-71.040	-8191	255	
19556.361	1	1	0	0	0.061182	0.10712	0.2114	0.11386	0.23623	0.050826	0.27286	0.2717	0.17929	0.074877	0.052177	0.18276	0.22417	0.1721	0.10694	0.15237	-1.2708	-2.1271	-1.6375	-1.8687	-2.1646	-1.7771	-2.1562	-1.9604	-1.8104	-2.2812	-1.6875	-1.9729	-1.9896	-1.6083	-1.9667	-1.7458	-65.447	123.668	232.135	-48.309	85.026	-88.422	122.694	-58.240	181.125	239.122	-45.392	259.459	94.727	62.189	185.824	-91.523	0.0008129	0.0008494	0.00033462	505.21	1.3727e-05	1.7462e-05	598.04	145.2	1.7653e-05	2.3844e-05	218.84	75.086	49.362	18.461	2.9818e-05	35.426	0.0046344	0.0047125	0.0013167	1754.2	5.1958e-05	5.182e-05	1452.1	435.93	5.1483e-05	5.1423e-05	1111.2	230.17	332.05	67.451	5.1523e-05	100.26	226.783	118.934	50.417	-83.607	90.003	59.861	-85.185	-78.615	242.430	106.282	-80.036	-75.761	-75.425	-68.973	95.815	-70.399	-8191	255	
19556.457	1	1	0	0	0.17138	0.17206	0.15668	0.17737	0.19683	0.27026	0.42428	0.25082	0.25008	0.12821	0.17466	0.3252	0.22119	0.25739	0.06907	0.26467	-1.2292	-1.9875	-1.8	-1.9021	-2.175	-1.5771	-2.2062	-1.9688	-1.7708	-2.2292	-1.7979	-1.8771	-2.1625	-1.5187	-2.0083	-1.875	171.600	112.828	-16.821	-61.893	-5.746	194.608	240.292	139.525	49.117	217.121	-89.494	252.603	0.397	72.917	132.453	-79.006	0.00092301	0.0013729	0.00030344	503.31	2.5233e-05	1.6704e-05	603.35	145.54	2.544e-05	4.8781e-05	219.37	75.346	49.619	18.757	3.2344e-05	34.628	0.0046625	0.0047184	0.0013084	1742.4	5.1261e-05	5.1195e-05	1445.9	434.47	5.1096e-05	5.1077e-05	1112.6	231.04	332.51	67.646	5.1664e-05	100.55	238.088	-12.256	-46.511	-83.163	36.333	229.009	-84.981	-78.486	134.175	209.755	-80.727	-76.625	-75.270	-69.081	-41.027	-70.162	-8191	255	
19556.555	1	1	0	0	0.25278	0.31159	0.3169	0.23276	0.17091	0.11885	0.20547	0.093104	0.22022	0.21457	0.20554	0.10112	0.22011	0.17436	0.21944	0.2159	-1.2042	-2.2229	-1.6958	-1.8312	-2.1688	-1.7604	-2.2229	-2.0229	-1.5771	-2.0187	-1.7646	-1.6667	-2.1063	-1.3875	-2.0917	-2.1354	185.025	69.654	141.665	-65.007	68.867	51.442	185.080	39.035	-7.255	50.596	218.717	30.000	56.255	60.613	44.475	238.908	0.00064374	0.0016783	0.00027672	508.95	3.136e-05	2.4424e-05	612.14	148.52	1.1738e-05	1.3879e-05	216.53	75.817	51.134	18.869	1.2016e-05	35.085	0.0047153	0.0047876	0.0013329	1772.6	5.2675e-05	5.2564e-05	1471.3	443.04	5.2357e-05	5.2162e-05	1132.6	234.65	338.08	68.423	5.2158e-05	101.27	10.095	-56.850	121.011	-83.993	142.233	-30.739	-85.164	-79.208	-39.863	39.229	-81.851	-76.509	-75.701	-68.152	-14.476	-70.573	-8191	255	
19556.650	1	1	0	0	0.16978	0.28948	0.096624	0.29895	0.26443	0.46639	0.075035	0.071625	0.21121	0.025989	0.14568	0.19033	0.11758	0.3138	0.15116	0.22122	-1.2104	-2.1958	-1.8125	-1.75	-2.2208	-1.875	-2.3396	-2.1708	-1.7521	-2.2438	-1.9292	-2.0187	-2.2062	-1.8813	-1.9917	-2.0979	12.778	-28.609	155.094	161.070	84.099	108.147	28.835	145.932	-43.590	41.339	-11.356	235.070	257.365	90.094	142.498	-57.796	0.00075799	0.00072912	0.00023472	507.02	2.7784e-05	2.0877e-05	611.54	148.74	2.6904e-05	1.9937e-05	216.79	77.686	47.818	18.981	1.4856e-05	34.997	0.0047159	0.0047714	0.0013277	1766.5	5.2278e-05	5.2053e-05	1466.8	441.72	5.1883e-05	5.1626e-05	1120.3	232.07	331.95	67.261	5.08e-05	98.973	142.072	-82.565	199.745	-83.706	54.479	125.920	-84.707	-79.415	214.277	-10.564	-80.656	-75.716	-73.473	-68.617	-71.074	-71.108	-8191	255	
19556.746	1	1	0	0	0.21356	0.21381	0.069688	0.1317	0.11075	0.14562	0.23796	0.14925	0.074879	0.11732	0.30705	0.17897	0.19148	0.15613	0.046892	0.15556	-1.2021	-2.0458	-1.9771	-1.5312	-2.0125	-1.7708	-2.075	-2.3	-1.6042	-2.0125	-1.8875	-1.5604	-2.1479	-1.7375	-1.925	-2.1854	48.029	-8.576	-58.198	168.209	192.275	36.965	177.168	226.712	178.131	196.491	196.116	-62.390	-60.889	103.611	166.868	224.967	0.00041081	0.00029163	0.00016566	502.42	1.5773e-05	8.6608e-06	612.98	152.4	2.4792e-05	6.1085e-06	217.35	75.772	50.95	18.936	3.4762e-05	35.39	0.0045547	0.0046007	0.0012764	1719	5.0249e-05	5.0345e-05	1441	433.9	5.0646e-05	5.0762e-05	1108	230.98	331.33	67.19	5.0934e-05	99.621	169.821	4.094	150.643	-83.710	160.751	85.343	-84.621	-79.450	211.684	-38.313	-81.803	-76.458	-74.611	-67.631	117.361	-70.672	-8191	255	
19556.867	1	1	0	0	0.16639	0.21463	0.21985	0.14732	0.15819	0.11222	0.22501	0.036853	0.14267	0.045702	0.24198	0.20549	0.11062	0.21754	0.13343	0.17674	-1.3292	-2.0396	-2.0104	-1.5458	-2.1063	-1.9167	-1.7938	-2.1146	-1.5063	-1.8563	-2.0625	-1.6729	-2.1979	-1.8333	-1.7708	-2.125	135.843	237.744	243.369	63.335	-12.521	102.607	94.208	149.405	-13.990	-66.269	42.963	154.980	206.486	204.144	177.245	135.288	0.00046624	0.00074709	0.00064088	508.19	2.6135e-05	7.6325e-06	613.38	150.78	1.866e-05	2.3964e-05	226.21	77.577	50.413	18.943	3.5256e-05	35.348	0.0046133	0.0046634	0.0013022	1746.4	5.1424e-05	5.145e-05	1460.8	442.15	5.185e-05	5.1656e-05	1119.8	232.51	331.31	67.081	5.0455e-05	98.568	131.422	55.498	122.416	-83.130	166.658	23.019	-84.269	-78.579	212.204	126.321	-81.028	-76.394	-75.432	-69.365	193.352	-70.307	-8191	255	
19556.961	1	1	0	0	0.13255	0.098596	0.078422	0.23458	0.19336	0.30997	0.30027	0.39656	0.18242	0.21355	0.060525	0.14861	0.19788	0.060335	0.087812	0.089675	-1.2771	-1.875	-1.8979	-1.7875	-1.9479	-1.8021	-1.8396	-2.2229	-1.5146	-1.8708	-2.3042	-1.6938	-1.95	-1.8104	-1.7062	-2.1625	63.058	209.292	-12.781	73.151	36.641	236.291	182.257	182.923	56.471	210.683	-31.767	-49.176	257.316	108.924	54.434	172.308	0.00044018	0.0012111	0.00020323	514.07	1.2304e-05	4.187e-05	616.91	153.38	1.3986e-05	1.3674e-05	217.54	77.5	52.627	19.097	1.588e-05	35.456	0.0045427	0.0045792	0.0012772	1721.5	5.0078e-05	5.0124e-05	1439.8	432.44	5.0095e-05	4.9898e-05	1090.2	228.04	323.9	65.886	4.9232e-05	96.568	21.964	-20.869	-60.516	-83.716	14.495	57.335	-84.517	-78.923	-26.443	22.572	-79.870	-75.751	-75.727	-68.355	223.619	-70.277	-8191	255	
19557.057	1	1	0	0	0.21993	0.11053	0.29231	0.22453	0.30642	0.30674	0.23314	0.29967	0.034156	0.1391	0.21729	0.064379	0.025427	0.0516	0.20432	0.28176	-1.3292	-1.7979	-2.0729	-1.7479	-2.0833	-1.9708	-1.7792	-2.2583	-1.8833	-1.8042	-2.1396	-1.6875	-2.0333	-1.9188	-1.5646	-2.0375	-41.228	-41.030	-3.032	240.830	204.235	92.492	214.955	215.921	122.714	98.542	250.486	97.731	-69.135	208.000	-76.876	-1.458	0.00038674	0.00073697	0.00053327	512.17	2.0462e-05	1.6504e-05	616.43	151.17	4.5342e-06	2.1386e-05	215.72	77.127	50.227	18.486	1.0235e-05	34.972	0.0044152	0.0044356	0.0012294	1667.3	4.7966e-05	4.7835e-05	1392.9	415.98	4.7384e-05	4.7139e-05	1037.3	217.4	306.86	62.701	4.638e-05	92.276	-77.295	156.363	54.518	-82.958	200.320	-62.360	-83.967	-78.934	50.417	135.335	-79.880	-76.165	-74.922	-68.646	251.179	-69.795	-8191	255	
19557.131	1	1	0	0	0.1018	0.27263	0.15369	0.15988	0.17141	0.17614	0.25113	0.17354	0.032711	0.10822	0.084372	0.23409	0.33599	0.18878	0.1798	0.080367	-1.3896	-1.8604	-2.1333	-1.6333	-1.8146	-1.9208	-1.4417	-2.2792	-1.8083	-1.8417	-2.125	-1.675	-1.7583	-1.9208	-1.5646	-2.0792	173.987	256.320	200.722	108.465	-42.508	214.123	262.484	249.155	104.853	137.115	-55.549	-67.399	130.476	156.807	227.968	170.257	0.00021918	0.00089068	0.00094097	499.92	1.499e-05	1.8615e-05	607.6	150.18	2.0527e-05	1.1115e-05	212.14	76.393	49.813	18.368	2.0187e-05	34.812	0.0041651	0.0041914	0.0011588	1591.5	4.5183e-05	4.5164e-05	1339.1	399.25	4.5134e-05	4.5189e-05	1004.6	212.03	300.15	61.716	4.6064e-05	92.127	135.305	133.518	24.915	-83.850	51.418	9.273	-84.225	-78.631	149.012	217.042	-79.906	-75.892	-73.238	-68.581	27.086	-70.183	-8191	255	
19557.250	1	1	0	0	0.20108	0.20757	0.27582	0.1812	0.17115	0.14691	0.14635	0.026971	0.095336	0.084592	0.10807	0.15033	0.25691	0.27549	0.16012	0.088761	-1.3687	-1.5042	-2.0104	-1.5938	-2.1	-2.05	-1.8021	-2.0271	-1.8771	-1.7771	-2.2	-1.8958	-1.7208	-1.8958	-1.6792	-2.0125	3.336	203.581	209.727	221.283	14.842	181.373	5.632	-41.043	9.075	181.258	98.152	113.887	-38.866	170.103	86.150	226.004	0.00083882	0.00037008	0.00025209	493.35	8.4529e-06	1.8679e-05	600.29	147.02	1.5597e-05	1.6722e-05	217.43	76.495	50.037	18.669	5.3553e-06	35.11	0.0041711	0.004214	0.0011723	1602	4.6e-05	4.5869e-05	1346.9	401.7	4.561e-05	4.5538e-05	1004.2	211.15	297.4	60.95	4.5322e-05	91.08	-53.200	230.731	211.670	-83.131	-54.064	6.710	-84.237	-78.804	180.223	110.821	-80.973	-75.667	-75.968	-69.055	-51.411	-70.359	-8191	255	
19557.346	1	1	0	0	0.18821	0.23139	0.18763	0.10371	0.063832	0.31167	0.095705	0.1057	0.046013	0.16816	0.14929	0.15113	0.35952	0.16165	0.131	0.093362	-1.4333	-1.4479	-2.0125	-1.7125	-1.6854	-2.1833	-1.7062	-1.9062	-1.7896	-1.6854	-2.0208	-1.6875	-1.6833	-2.3375	-1.7229	-2.0563	189.046	254.197	78.483	38.655	169.008	47.019	118.421	191.277	222.152	-93.001	85.358	173.146	-37.843	-49.899	118.334	69.456	0.00048357	0.0014555	0.00052747	496.86	1.4268e-05	8.5596e-06	605.96	148.89	6.2844e-06	2.3277e-05	209	75.204	49.3	18.242	3.0726e-05	34.899	0.0040974	0.0041419	0.0011492	1578.7	4.4959e-05	4.4823e-05	1328.2	395.44	4.4606e-05	4.4582e-05	988.86	209.67	294.46	60.815	4.515e-05	91.007	150.401	258.239	250.763	-83.577	51.777	-48.721	-84.422	-78.569	44.032	177.147	-79.628	-74.977	-74.166	-68.974	-4.793	-70.014	-8191	255	
19557.441	1	1	0	0	0.25204	0.19993	0.19175	0.2033	0.19578	0.19162	0.09322	0.15262	0.12144	0.19305	0.11704	0.046463	0.13235	0.16471	0.18492	0.077055	-1.625	-1.6604	-1.9979	-1.7521	-1.7583	-2.0771	-1.8646	-1.9292	-2.0125	-1.6083	-2.0687	-1.775	-1.75	-2.2375	-1.7667	-2.0625	21.762	-63.079	-92.269	203.691	-9.708	1.197	115.596	215.328	39.418	62.828	259.673	222.681	233.893	23.512	171.888	96.846	0.00033762	0.0013675	0.0009664	499.81	9.1386e-06	1.5758e-05	601.17	149.99	6.5538e-06	1.1157e-05	217.43	76.957	51.578	18.39	1.2234e-05	35.181	0.0040976	0.0041591	0.0011559	1590.6	4.5389e-05	4.54e-05	1341.1	399.3	4.5227e-05	4.5129e-05	999.36	211.41	297.33	61.346	4.5414e-05	91.65	-53.874	188.504	-10.840	-83.920	-57.241	170.810	-84.170	-78.676	50.587	219.624	-80.090	-76.046	-74.521	-68.784	226.460	-69.288	-8191	255	
19557.537	1	1	0	0	0.25167	0.30779	0.20449	0.34953	0.10964	0.075924	0.067983	0.23141	0.092267	0.11554	0.15189	0.25401	0.20969	0.022223	0.24524	0.3561	-1.6979	-1.3875	-1.9854	-1.8146	-1.5042	-2.0938	-1.8229	-1.7833	-2.0021	-1.4979	-1.9729	-1.9229	-1.5167	-2.1667	-1.7	-1.9083	92.207	-69.051	46.919	245.919	-4.148	-14.812	231.518	-7.748	210.661	169.611	-45.394	34.907	91.300	171.115	51.950	192.305	0.00020223	0.00092391	0.00095469	503.3	1.4094e-05	8.0877e-06	609.5	149.62	3.2959e-05	9.1785e-06	214.84	76.161	49.893	18.691	1.8615e-05	35.094	0.004137	0.0041782	0.0011646	1600.1	4.5914e-05	4.5768e-05	1346.9	402.17	4.5644e-05	4.5374e-05	1001	211.44	297.14	61.112	4.4927e-05	90.708	-71.733	42.602	173.375	-82.852	-13.683	-71.414	-83.765	-78.893	-4.708	-70.981	-79.050	-75.889	-75.529	-69.165	-77.775	-70.135	-8191	255	
19557.658	1	1	0	0	0.052998	0.11443	0.20226	0.047889	0.03299	0.16659	0.031101	0.15159	0.32192	0.45281	0.11557	0.20137	0.2717	0.03964	0.032297	0.1092	-1.9271	-1.6208	-1.8604	-1.9	-1.5312	-2.1437	-1.8083	-1.7125	-2.0938	-1.8729	-1.9896	-2.125	-1.5208	-1.9646	-1.9167	-1.6083	-15.965	-87.190	134.277	118.982	-25.469	57.167	142.117	235.569	-1.915	187.604	-27.622	85.920	86.559	-39.308	82.961	-68.193	0.0003308	0.0008185	0.00073509	492.92	7.5069e-06	2.7367e-05	599.55	148.29	1.757e-05	3.2417e-05	211.33	74.899	49.613	18.245	5.4708e-06	34.676	0.0040553	0.0040843	0.0011269	1552.1	4.3868e-05	4.3687e-05	1302.4	386.16	4.2989e-05	4.2519e-05	942.26	199.09	274.84	56.897	4.1199e-05	85.076	-60.547	-44.015	-71.185	-83.069	230.504	-87.255	-84.517	-79.373	181.185	202.709	-80.960	-75.842	-75.764	-68.463	77.587	-69.901	-8191	255	
19557.730	1	1	0	0	0.10461	0.36551	0.41405	0.11256	0.19855	0.066525	0.0884	0.20795	0.18625	0.063596	0.10237	0.18561	0.24097	0.2083	0.13135	0.15042	-1.65	-1.6812	-1.7812	-2.1083	-1.55	-2.0354	-1.8687	-1.6646	-1.9896	-1.7875	-1.8896	-1.9917	-1.65	-2.0062	-2.05	-1.6187	-14.248	14.465	236.992	71.225	124.482	-49.726	69.864	49.778	148.407	-21.383	146.918	248.166	-5.735	135.686	-40.762	-91.336	0.00012007	0.0017188	0.00027484	487.52	1.12e-05	2.355e-05	590.46	145.85	1.8101e-05	1.3662e-05	211.3	74.693	50.187	17.962	2.1497e-05	34.734	0.0037088	0.0037392	0.0010423	1463.4	4.0851e-05	4.0708e-05	1243.4	368.19	4.0489e-05	4.0195e-05	900.8	192.68	264.66	54.97	3.9308e-05	82.14	206.771	186.085	-10.365	-84.267	232.001	221.569	-84.275	-78.966	136.488	-26.458	-80.417	-76.178	-75.469	-68.322	-68.945	-70.312	-8191	255	
19557.852	1	1	0	0	0.15778	0.19269	0.19227	0.17923	0.20281	0.15444	0.15842	0.10164	0.21913	0.048042	0.10246	0.16499	0.12474	0.14913	0.096506	0.21238	-1.625	-1.5646	-1.8604	-1.9833	-1.6625	-1.8708	-2.0083	-1.4792	-2.0833	-1.7938	-1.6458	-2.0854	-1.6667	-1.9521	-2.0104	-1.4021	79.283	6.038	238.733	231.414	-2.176	-67.053	231.128	233.593	2.796	228.144	-66.057	182.403	98.517	208.783	215.216	-73.216	0.00077352	0.00078903	0.00060343	487.41	1.5297e-05	9.0933e-06	595.44	144.02	1.1724e-05	1.6271e-05	216.7	74.65	47.986	18.17	2.5399e-05	34.716	0.0035218	0.003532	0.00097798	1395.8	3.7983e-05	3.7763e-05	1189.9	349.68	3.7258e-05	3.7129e-05	842.44	182.59	248.52	52.59	3.7037e-05	79.475	148.449	-9.374	234.516	-84.258	222.060	-47.773	-84.812	-78.103	201.185	10.549	-79.915	-75.908	-76.136	-68.397	-92.869	-70.721	-8191	255	
19557.947	1	1	0	0	0.095087	0.33374	0.24142	0.062344	0.23395	0.12633	0.099863	0.17416	0.23687	0.065503	0.054001	0.24604	0.1049	0.13555	0.2079	0.11145	-1.6187	-1.8271	-1.475	-2.15	-1.5896	-1.9896	-1.95	-1.5479	-2.1354	-1.9125	-1.7188	-2.0875	-1.8646	-1.9854	-1.9312	-1.45	173.985	105.752	16.220	140.277	107.027	193.257	220.158	168.496	-18.291	174.265	210.132	255.545	-70.936	177.105	-60.984	165.951	0.00098789	0.00074009	0.00032589	490.16	1.1449e-05	1.7762e-05	594.36	144.79	1.9655e-05	6.5001e-06	214.44	75.597	49.834	18.268	1.0357e-05	35.065	0.0033529	0.0033964	0.00094647	1374.7	3.755e-05	3.7665e-05	1197.3	354.41	3.8257e-05	3.8294e-05	870.37	188.67	259.28	54.536	3.9026e-05	82.439	87.878	42.952	14.763	-82.863	0.630	59.622	-84.391	-78.072	104.401	49.123	-79.907	-76.132	-76.202	-69.439	46.154	-70.871	-8191	255	
19558.043	1	1	0	0	0.095121	0.25616	0.21153	0.24592	0.16045	0.17782	0.28824	0.19363	0.3275	0.1793	0.085322	0.1688	0.12523	0.12547	0.14395	0.04655	-1.4312	-1.8917	-1.6021	-2.0292	-1.6313	-1.7042	-2.1188	-1.7354	-1.8896	-1.875	-1.4917	-2.05	-1.7042	-1.8396	-1.9542	-1.6833	254.502	69.831	-39.507	204.240	24.500	-1.413	74.481	143.134	-81.071	93.807	42.935	-46.340	173.664	168.564	-61.522	32.375	0.0010092	0.001301	0.00036044	494.44	1.9916e-05	1.412e-05	596.34	145.74	2.1605e-05	2.1752e-05	212.54	74.897	48.879	18.467	1.0167e-05	34.867	0.0035418	0.0035886	0.0010008	1430.9	3.9602e-05	3.9882e-05	1237.1	366.47	4.0192e-05	4.036e-05	907.85	196	271.19	56.727	4.0985e-05	85.082	177.069	197.169	-48.278	-83.386	248.589	155.856	-84.414	-78.483	186.114	22.018	-80.532	-75.610	-74.466	-67.990	53.611	-70.140	-8191	255	
19558.141	1	1	0	0	0.04581	0.21896	0.015391	0.091914	0.2483	0.14047	0.31158	0.068053	0.14697	0.054603	0.081329	0.24143	0.14434	0.11206	0.20936	0.21283	-1.4438	-1.8729	-1.4729	-2.2625	-1.825	-1.7437	-2.0521	-1.5833	-1.9146	-2.0646	-1.6604	-2.2062	-1.9354	-1.7583	-2.0812	-1.6354	-69.093	172.199	36.499	218.163	233.631	39.888	168.413	159.047	213.159	67.103	-62.172	-82.607	110.782	213.555	-64.474	-84.831	0.00040423	0.0016085	0.00025993	493.75	8.0016e-06	5.1578e-06	596.51	145.54	1.2362e-05	4.1178e-05	214.27	74.806	48.701	18.294	1.5464e-05	34.674	0.0036866	0.0037348	0.0010421	1469	4.1089e-05	4.1077e-05	1251.9	372.22	4.1205e-05	4.1328e-05	925.08	197.17	274.19	57.025	4.1412e-05	85.403	181.208	61.077	225.625	-84.309	22.169	-59.528	-84.706	-78.795	256.591	34.728	-79.986	-75.837	-75.278	-68.498	101.598	-70.918	-8191	255	
19558.258	1	1	0	0	0.027239	0.23794	0.13792	0.053824	0.25987	0.21451	0.12807	0.14428	0.051686	0.1737	0.098902	0.1758	0.18843	0.086286	0.11243	0.25202	-1.3521	-1.7958	-1.5917	-1.9917	-1.8646	-1.6917	-2.1333	-1.5083	-1.7729	-1.9979	-1.7812	-1.8479	-1.6354	-1.4521	-1.9583	-1.7458	33.352	7.081	-70.794	135.296	108.986	34.320	-70.787	108.020	225.171	60.796	257.883	-93.157	86.277	173.561	40.381	59.851	0.00014421	0.0014108	0.00082918	488.18	9.8436e-06	1.833e-05	592.04	144.94	1.3177e-05	1.0006e-05	211.68	74.075	48.601	18.231	1.7903e-05	34.893	0.003736	0.0037533	0.0010432	1464.3	4.0731e-05	4.0657e-05	1244	367.35	4.0036e-05	3.9936e-05	893.28	191.65	263.75	55.057	3.9555e-05	82.703	249.024	233.143	-63.133	-83.707	54.360	-53.328	-85.066	-78.981	32.244	-1.800	-80.467	-75.936	-76.144	-69.156	38.364	-70.322	-8191	255	
19558.355	1	1	0	0	0.23498	0.27193	0.13093	0.23158	0.56939	0.096292	0.23288	0.060333	0.24624	0.16769	0.10257	0.32868	0.067847	0.29692	0.33442	0.059555	-1.425	-2.0563	-1.6437	-1.8521	-1.8813	-1.5271	-2.3521	-1.7896	-1.7646	-2.0396	-1.575	-1.9917	-1.8875	-1.4833	-1.9667	-1.8208	230.855	197.323	82.436	129.209	4.553	226.571	210.791	256.371	68.864	247.545	153.939	246.761	207.203	148.640	130.695	173.106	0.00042908	0.0010771	0.00084404	496.43	8.3718e-06	7.9473e-06	598.33	145.42	1.4066e-05	1.9281e-05	208.92	74.748	49.742	18.334	9.9601e-06	34.826	0.0035786	0.0036121	0.001004	1428.7	3.9568e-05	3.9562e-05	1228.3	363.33	3.9517e-05	3.9662e-05	893.69	193.06	265.69	55.618	4.0065e-05	83.997	198.713	13.949	74.097	-83.768	156.813	152.109	-84.513	-79.107	-33.084	87.434	-80.747	-76.018	-74.644	-68.745	-82.078	-70.994	-8191	255	
19558.426	1	1	0	0	0.14776	0.23716	0.15192	0.14879	0.23795	0.27998	0.18872	0.26276	0.11038	0.039559	0.062741	0.19774	0.21293	0.089991	0.16965	0.21517	-1.3875	-2.0167	-1.5375	-1.8875	-1.8896	-1.5917	-2.0771	-1.7646	-1.5333	-2.1	-1.5854	-1.9104	-1.8875	-1.7146	-2.0458	-1.875	151.152	39.419	-13.581	195.781	-97.077	181.498	186.040	132.519	70.121	-57.566	-37.722	-64.339	172.815	138.816	236.441	225.080	0.00033755	0.0019107	0.00029072	495.26	2.3367e-05	9.3001e-06	595.14	146.44	1.2725e-05	1.4679e-05	215.76	75.006	50.195	18.698	3.0949e-06	35.048	0.0036405	0.0036878	0.0010258	1452.9	4.0424e-05	4.0685e-05	1248.5	371.21	4.1191e-05	4.133e-05	930.35	199.39	278.43	58.176	4.2658e-05	87.938	-91.726	104.333	41.149	-83.470	-44.398	84.472	-84.530	-79.379	115.973	142.078	-80.768	-75.307	-74.743	-67.781	143.560	-70.115	-8191	255	
19558.547	1	1	0	0	0.048356	0.19607	0.11331	0.1108	0.29556	0.10095	0.083533	0.062828	0.084757	0.19416	0.15287	0.12902	0.031288	0.17953	0.24196	0.20214	-1.0896	-2.1562	-1.7083	-1.9354	-1.9729	-1.675	-1.9958	-1.9312	-1.5146	-1.9354	-1.7	-1.7875	-1.9396	-1.5479	-1.9792	-1.8958	199.777	-55.923	204.833	164.714	2.484	48.811	-0.836	212.398	96.925	160.717	159.976	248.078	196.366	133.366	23.127	258.622	0.00079178	0.0007864	0.00032164	485.51	2.0921e-05	1.1511e-05	594.01	144.21	3.2133e-06	2.985e-05	213.2	75.188	47.511	18.54	2.7823e-06	34.498	0.0038892	0.0039448	0.0011019	1531.5	4.3455e-05	4.3383e-05	1297	387.89	4.3543e-05	4.3531e-05	965.04	204.62	286.48	59.15	4.325e-05	88.261	73.392	-23.481	-60.377	-83.172	-51.417	-96.121	-84.115	-79.092	136.381	65.509	-77.922	-76.216	-76.954	-69.612	50.802	-70.384	-8191	255	
19558.643	1	1	0	0	0.17966	0.11994	0.18644	0.068004	0.10579	0.034228	0.34479	0.31985	0.26822	0.10007	0.18931	0.31528	0.2375	0.25063	0.39275	0.15004	-1.0792	-2.0583	-1.4875	-1.8875	-1.8917	-1.7354	-2.1229	-1.9542	-1.5792	-1.75	-1.8146	-1.6021	-2.0583	-1.5688	-1.9521	-1.9208	6.789	40.572	222.000	197.810	203.489	145.073	247.834	149.447	81.509	60.914	196.505	219.246	-16.274	2.761	75.100	-27.722	0.00065312	0.0013099	0.00030575	486.77	2.1038e-05	1.9828e-05	592.45	145.04	2.6628e-06	2.0579e-05	214.34	75.333	48.792	18.349	1.7477e-06	35.205	0.0039037	0.0039357	0.0010946	1515.8	4.2802e-05	4.269e-05	1283	381.92	4.2866e-05	4.2927e-05	955.02	203.34	284.52	58.85	4.3039e-05	88.176	96.847	248.751	36.610	-83.010	-1.451	32.464	-84.729	-78.494	188.087	-18.232	-81.669	-76.475	-74.444	-68.120	77.596	-69.798	-8191	255	
19558.738	1	1	0	0	0.21194	0.22206	0.023057	0.16654	0.20551	0.21701	0.14713	0.14423	0.050301	0.1207	0.19522	0.19084	0.17349	0.17917	0.15226	0.10079	-1.1688	-1.8333	-1.8958	-1.6854	-1.9875	-1.7062	-1.8125	-1.9646	-1.6771	-2.0521	-1.8042	-1.5708	-2.05	-1.75	-1.8521	-1.9167	-20.197	-79.181	240.338	228.687	-54.879	64.572	226.532	16.293	134.764	209.403	48.665	171.991	-37.095	1.690	-16.336	205.135	0.001022	0.0022777	0.00040243	484.5	2.3531e-05	8.882e-06	594.02	145.44	1.1594e-05	2.0398e-05	204.8	73.756	48.435	18.245	1.8685e-05	35.724	0.0038946	0.0039321	0.001095	1519.3	4.3034e-05	4.3008e-05	1288.9	384.16	4.3167e-05	4.3134e-05	963.15	205.05	287.15	59.543	4.3993e-05	89.697	69.552	-9.471	228.468	-83.832	-74.801	-65.561	-84.723	-79.309	-24.161	-76.674	-80.034	-75.671	-76.284	-68.972	115.361	-70.576	-8191	255	
19558.836	1	1	0	0	0.141	0.18279	0.12774	0.06321	0.23298	0.19901	0.18352	0.23659	0.19345	0.13404	0.086341	0.17178	0.035307	0.29789	0.28679	0.1509	-1.1396	-1.9771	-1.8875	-1.6833	-1.8771	-1.6917	-1.8583	-2.1729	-1.525	-1.8875	-1.8396	-1.5958	-1.8917	-1.65	-1.6771	-2.15	19.395	199.506	246.286	-83.514	-12.522	205.643	153.453	215.393	63.969	17.401	142.346	119.203	95.260	200.015	167.111	-46.233	0.00021443	0.0015727	0.0005329	494.08	1.1543e-05	2.0026e-05	588.65	144.12	6.6251e-06	1.0773e-05	216.98	73.655	47.822	18.252	5.8741e-06	35.176	0.0039898	0.0040477	0.0011308	1553.8	4.4481e-05	4.4424e-05	1314.4	391.62	4.4135e-05	4.3828e-05	967.42	204.63	283.93	58.634	4.2937e-05	87.311	-96.171	-71.663	57.088	-83.517	38.824	24.685	-84.862	-78.712	-41.628	-32.777	-82.132	-76.733	-74.271	-69.405	105.086	-70.033	-8191	255	
19558.953	1	1	0	0	0.038898	0.26782	0.079176	0.21031	0.32162	0.13459	0.14852	0.21795	0.36967	0.11022	0.067297	0.12631	0.15278	0.061952	0.17245	0.19428	-1.0375	-1.8542	-1.8667	-1.5792	-1.9229	-1.6	-1.6354	-1.9771	-1.5208	-1.7563	-2.0417	-1.4854	-1.9583	-1.9125	-1.8167	-2.025	72.883	100.513	127.895	17.276	90.494	228.464	137.783	-27.814	257.274	157.350	-30.040	46.968	241.395	154.191	-11.554	154.097	0.00052111	0.00084068	0.00083925	481.96	1.5395e-05	6.5919e-06	591.88	144.49	9.7979e-06	2.0295e-05	211.25	73.979	49.068	18.515	4.9277e-06	34.755	0.0038387	0.0038703	0.0010738	1491.6	4.2115e-05	4.2197e-05	1270.5	378.01	4.2504e-05	4.2504e-05	950.73	201.65	282.78	58.495	4.2902e-05	87.71	79.833	44.853	40.978	-83.135	29.692	183.262	-84.510	-78.451	31.463	239.635	-80.254	-76.043	-74.324	-68.261	242.063	-70.060	-8191	255	
19559.027	1	1	0	0	0.076627	0.13794	0.26322	0.31865	0.082177	0.17519	0.28106	0.17886	0.09244	0.098538	0.087454	0.44575	0.16468	0.22284	0.080713	0.038842	-1.2938	-1.8104	-1.7729	-1.5917	-1.9792	-1.8771	-1.6604	-2.1188	-1.55	-1.95	-1.8438	-1.5979	-1.8542	-1.8167	-1.5729	-2.0917	20.602	185.791	80.312	233.089	18.571	204.660	247.394	231.210	250.540	174.919	124.632	90.017	37.471	-4.212	191.895	103.793	0.00091533	0.0023169	0.0002109	478.91	7.7409e-06	1.2642e-05	587.1	143.36	2.1388e-05	1.9565e-05	209.37	74.651	47.539	18.639	1.0166e-05	35.055	0.0038812	0.0039234	0.0010946	1512.7	4.3214e-05	4.3249e-05	1288	384.83	4.3672e-05	4.3878e-05	977.71	206.96	291.55	60.204	4.4754e-05	90.4	191.532	-8.792	-70.692	-83.882	252.213	87.738	-84.780	-79.263	192.436	-45.448	-78.576	-76.131	-76.129	-68.292	60.259	-71.394	-8191	255	
19559.121	1	1	0	0	0.31909	0.40626	0.068811	0.21661	0.24618	0.22873	0.33661	0.057607	0.065957	0.15981	0.15027	0.26433	0.032053	0.084134	0.044472	0.1962	-1.3542	-1.7792	-1.9937	-1.4292	-1.9271	-1.7625	-1.6458	-2.05	-1.5688	-1.8396	-2.1792	-1.5958	-1.8062	-1.8833	-1.7396	-2.1271	184.528	-74.348	108.288	-47.472	-96.591	222.315	-80.107	149.220	-37.821	-58.380	-65.985	260.975	229.810	218.859	21.589	62.233	4.2856e-05	0.00049579	0.00038363	478.52	1.6372e-05	1.4316e-05	588.24	142	1.8803e-05	2.4443e-05	210.45	73.85	47.291	18.425	2.1524e-05	34.964	0.0040604	0.0041074	0.0011415	1559.8	4.4675e-05	4.4537e-05	1304.6	387.46	4.3774e-05	4.3432e-05	962.79	202.93	284.44	58.927	4.323e-05	88.382	254.427	235.279	158.936	-83.668	32.647	9.532	-84.940	-78.731	160.043	11.200	-78.757	-75.585	-74.030	-68.310	59.715	-70.218	-8191	255	
19559.221	1	1	0	0	0.15246	0.19124	0.1102	0.22909	0.10052	0.18975	0.15912	0.22341	0.22142	0.14011	0.14838	0.21293	0.24716	0.078363	0.098455	0.061415	-1.2854	-1.5625	-2.1	-1.4542	-1.9458	-1.8521	-1.5729	-1.95	-1.7042	-1.7396	-2.0312	-1.7458	-1.8438	-1.9771	-1.7104	-2.0833	2.239	62.433	230.003	124.706	90.337	23.647	144.244	234.124	206.966	217.799	-23.903	115.255	147.073	195.465	74.050	96.659	0.00039956	0.00217	0.0012174	481.95	9.2505e-06	1.3954e-05	579.09	142.48	2.9052e-05	7.1877e-06	208.02	74.399	49.61	18.016	1.1333e-05	35.091	0.0039275	0.0039704	0.0011053	1523.1	4.3461e-05	4.3481e-05	1290.6	383.92	4.3707e-05	4.3584e-05	965.09	204.52	286.62	59.381	4.3763e-05	89.013	-69.949	22.209	228.244	-82.161	89.426	57.567	-84.904	-78.608	200.425	51.223	-78.684	-74.723	-73.612	-68.142	-77.587	-70.271	-8191	255	
19559.340	1	1	0	0	0.29048	0.10992	0.17417	0.24979	0.21253	0.13923	0.34491	0.17745	0.21186	0.14665	0.015986	0.25205	0.038397	0.15406	0.15308	0.20832	-1.3271	-1.5479	-1.9979	-1.6021	-1.7	-2.1042	-1.4292	-1.9125	-1.8583	-1.6792	-2.1312	-1.6417	-1.6688	-2.0042	-1.6229	-1.8854	28.022	-47.587	4.062	-89.782	-15.061	11.102	218.883	135.602	-6.095	174.191	243.371	77.132	138.076	8.520	164.336	256.151	0.00027304	0.0028807	0.00056818	479.88	1.0291e-05	2.5806e-05	582.2	144.24	1.2775e-05	3.428e-05	203.03	74.787	47.523	18.306	1.3953e-05	34.861	0.0039568	0.0039943	0.0011086	1526.4	4.3751e-05	4.3591e-05	1292.5	385.04	4.3655e-05	4.3602e-05	967	204.87	286.93	59.483	4.3852e-05	89.046	71.314	163.645	-78.168	-83.294	72.861	172.495	-84.745	-78.760	-49.120	-20.426	-79.683	-76.249	-73.597	-68.604	38.434	-69.886	-8191	255	
19559.436	1	1	0	0	0.32683	0.25417	0.12567	0.22381	0.046039	0.19137	0.27017	0.11626	0.12742	0.077367	0.21544	0.19315	0.14365	0.18048	0.075008	0.1022	-1.5896	-1.4729	-2.025	-1.9688	-1.6	-2.0104	-1.5917	-1.9104	-2.0292	-1.5771	-1.9792	-1.7104	-1.7354	-1.9521	-1.4542	-1.8021	53.111	172.943	-23.346	223.264	64.464	215.421	251.615	140.963	-3.430	151.850	68.953	112.682	-89.127	133.821	221.767	184.408	2.981e-05	0.00065356	0.00035853	481.31	8.5816e-06	2.426e-05	575.01	142.8	2.8361e-05	1.1808e-05	212.37	73.828	45.726	18.186	1.9414e-05	35.274	0.003954	0.0040036	0.0011141	1530.4	4.3788e-05	4.378e-05	1293.8	386.17	4.3787e-05	4.3839e-05	967.4	204.07	286.15	59.167	4.3404e-05	88.471	32.270	91.339	126.933	-82.315	120.862	92.356	-85.308	-79.583	209.924	13.860	-81.320	-75.816	-72.940	-68.669	176.118	-71.421	-8191	255	
19559.531	1	1	0	0	0.24319	0.08722	0.087031	0.10779	0.11364	0.091931	0.03682	0.073887	0.14578	0.19106	0.20078	0.17467	0.36717	0.17334	0.22902	0.032119	-1.5375	-1.6354	-1.9271	-1.7125	-1.6646	-2.2146	-1.7042	-1.8083	-1.9396	-1.4729	-1.9604	-1.6938	-1.6229	-2.1542	-1.6375	-1.8458	241.566	22.520	190.375	85.544	146.237	127.582	71.709	-43.539	11.695	233.879	94.973	218.647	-10.850	10.460	-82.578	-10.324	0.00057328	0.0021708	0.00088812	488.41	6.3468e-06	3.8102e-05	582.04	141.77	1.0733e-05	1.1941e-05	209.71	74.15	47.407	18.232	1.1646e-05	34.843	0.0039236	0.0039517	0.0010995	1511.1	4.2962e-05	4.2729e-05	1269.8	376.77	4.2314e-05	4.232e-05	943.29	201.34	281.57	58.427	4.2954e-05	87.657	45.783	195.330	-9.181	-83.860	-20.276	-3.716	-83.924	-78.472	239.002	95.218	-81.177	-76.113	-73.750	-67.310	224.207	-70.109	-8191	255	
19559.627	1	1	0	0	0.26389	0.17036	0.13564	0.054472	0.16501	0.08329	0.17327	0.10071	0.16395	0.22533	0.14112	0.17834	0.24806	0.25559	0.14078	0.24761	-1.6	-1.5333	-1.8292	-2.0938	-1.65	-2.0542	-1.9479	-1.8	-2.0542	-1.4813	-1.8167	-1.8729	-1.6063	-1.9438	-1.6979	-1.5375	51.165	0.124	150.417	134.432	66.338	-15.546	44.334	41.221	75.673	-64.810	96.563	-14.767	163.655	-78.937	171.702	236.698	0.00078049	0.0010328	0.00068009	481.63	2.7718e-05	1.4735e-05	587.93	145.07	1.1814e-05	1.5787e-05	213.2	74.423	47.158	18.491	1.8476e-05	34.96	0.0038957	0.0039367	0.0010953	1512	4.2927e-05	4.2888e-05	1277.8	380.26	4.2637e-05	4.2641e-05	945.93	200.62	279.33	57.985	4.2349e-05	86.952	77.747	128.101	245.807	-83.287	44.158	249.111	-84.219	-78.848	207.415	209.986	-79.942	-75.709	-73.766	-68.637	-14.046	-70.180	-8191	255	
19559.723	1	1	0	0	0.073722	0.21031	0.15099	0.18361	0.17975	0.19906	0.24862	0.077154	0.27635	0.23995	0.2018	0.12165	0.20119	0.33387	0.20911	0.34839	-1.8375	-1.3292	-1.8917	-1.975	-1.3583	-2.0021	-1.9083	-1.5458	-1.9688	-1.6	-1.7708	-1.9521	-1.3979	-2	-1.6875	-1.6542	161.458	190.189	166.440	256.229	27.882	-56.291	-16.314	-71.376	242.343	117.712	107.844	169.729	252.476	-11.343	37.012	-22.429	0.00052771	0.0006773	0.00025196	477.11	3.908e-05	1.4325e-05	581.79	143.81	1.4326e-05	3.1677e-05	212.15	75.074	48.573	18.453	1.6539e-05	35.243	0.0038295	0.0038621	0.0010767	1497.4	4.2343e-05	4.2337e-05	1269.3	376.83	4.2297e-05	4.206e-05	935.82	199.17	276.36	57.619	4.1888e-05	86.413	253.379	-91.119	249.696	-82.868	97.005	69.990	-84.374	-78.359	-63.114	108.193	-79.824	-75.313	-73.119	-68.663	10.888	-70.140	-8191	255	
19559.820	1	1	0	0	0.12254	0.11657	0.14336	0.17887	0.17484	0.15856	0.19343	0.10396	0.0038777	0.14852	0.11231	0.2496	0.1165	0.080932	0.17515	0.1376	-1.7812	-1.7167	-1.8875	-2.0792	-1.6646	-1.9333	-2	-1.7333	-2.1208	-1.7792	-1.9479	-2.1521	-1.4875	-1.7979	-2.0229	-1.6833	119.957	-58.070	112.379	260.828	74.115	92.261	-21.085	-52.685	173.766	143.306	107.322	-6.337	62.441	-38.764	51.800	176.165	0.00086321	0.00051974	0.0007761	477.97	1.5305e-05	1.895e-05	585.27	144.12	9.1657e-06	1.1936e-05	211.17	73.604	47.515	18.421	2.2799e-05	34.706	0.0037762	0.0038051	0.0010564	1468.4	4.127e-05	4.1065e-05	1243	367.99	4.0607e-05	4.0568e-05	904	193.68	268.49	56.003	4.0391e-05	84.201	170.191	-9.602	-14.596	-83.231	10.755	67.424	-83.978	-78.546	220.423	258.979	-80.751	-75.973	-74.919	-68.655	154.970	-70.507	-8191	255	
19559.939	1	1	0	0	0.021022	0.18258	0.24588	0.29037	0.19463	0.15154	0.21386	0.31281	0.3071	0.15804	0.082244	0.059963	0.11082	0.053853	0.17743	0.24787	-1.5375	-1.7958	-1.6208	-2.0896	-1.5396	-2.0333	-1.8708	-1.4375	-1.9375	-1.7583	-1.7083	-2.1437	-1.6667	-1.825	-2.0417	-1.5729	-42.458	-14.969	-80.102	27.810	-27.898	103.031	130.772	244.796	112.763	249.074	213.562	-51.528	85.279	-3.693	-19.279	126.917	0.00029263	0.0015931	0.00070683	480.33	2.6587e-05	6.4556e-06	584.21	143.48	7.087e-06	8.75e-06	210.02	74.155	46.164	18.107	1.1198e-05	34.614	0.003649	0.0036849	0.0010236	1435.5	4.0181e-05	4.0047e-05	1224.2	363.27	4.0029e-05	4.0039e-05	899.03	193.29	267.97	56.048	4.0546e-05	84.149	110.835	23.448	209.631	-82.831	215.464	243.675	-84.306	-78.663	-88.725	-59.215	-79.416	-75.167	-74.572	-68.791	-42.047	-69.820	-8191	255	
19560.035	1	1	0	0	0.047222	0.21536	0.16661	0.047222	0.19398	0.43471	0.38873	0.30218	0.20906	0.26943	0.0876	0.087216	0.12189	0.11687	0.24935	0.017188	-1.5896	-1.9062	-1.6417	-2.3104	-1.7417	-1.9271	-2.1208	-1.5938	-1.9312	-1.925	-1.575	-1.9521	-1.6958	-1.9625	-1.7958	-1.6771	175.447	-10.991	46.007	186.306	136.461	86.155	89.114	194.806	13.991	4.831	-67.147	105.526	185.414	64.494	101.474	52.812	8.7494e-05	0.00034851	0.00044593	477.58	7.2314e-06	2.0343e-05	578.55	141.03	1.4847e-05	6.7474e-06	211.72	73.953	48.343	18.07	4.8499e-06	34.692	0.0036555	0.0036976	0.0010285	1438	4.037e-05	4.0379e-05	1230	363.92	4.0113e-05	4.0093e-05	897.76	192.47	266.72	55.709	4.0144e-05	83.74	150.605	81.040	-4.356	-83.427	184.841	19.553	-84.123	-77.673	6.784	-20.908	-80.754	-74.520	-74.898	-67.457	59.831	-70.070	-8191	255	
19560.131	1	1	0	0	0.2089	0.14112	0.04052	0.15834	0.10363	0.19674	0.091055	0.30592	0.18531	0.22399	0.21293	0.056427	0.19749	0.14248	0.096707	0.30062	-1.6542	-2.0458	-1.6729	-2.2646	-1.6833	-1.9083	-2.325	-1.775	-2.0312	-1.8813	-1.5958	-2.1271	-1.6562	-1.6771	-1.9479	-1.6604	120.253	26.253	-64.200	43.557	126.685	106.914	145.580	193.345	-49.444	248.190	12.416	244.023	138.601	223.271	-40.681	159.291	0.00048572	0.0022789	3.0934e-05	470.42	7.4667e-06	2.8862e-06	584.39	141.91	4.3528e-06	1.2755e-05	213.48	74.255	48.077	18.158	3.5232e-05	34.755	0.0036259	0.003674	0.0010173	1428.6	3.9881e-05	3.9863e-05	1220.8	359.69	3.959e-05	3.9618e-05	890.78	191.28	263.04	55.152	3.942e-05	82.651	2.830	247.611	29.119	-83.356	134.354	197.095	-84.377	-78.445	250.301	-8.219	-79.432	-75.228	-75.235	-67.953	52.954	-69.774	-8191	255	
19560.252	1	1	0	0	0.058014	0.15014	0.067203	0.19057	0.12436	0.11624	0.13166	0.13984	0.051846	0.31108	0.21056	0.12483	0.25799	0.12466	0.20917	0.13048	-1.4333	-1.8396	-1.5208	-1.9333	-1.8979	-1.5479	-2.1354	-1.5896	-1.95	-1.9958	-1.6396	-2.1937	-1.8146	-1.6417	-2.0187	-1.575	-37.266	11.195	-33.413	-20.764	198.065	167.687	-82.651	-79.035	-42.475	252.392	-70.692	-23.305	81.863	223.038	81.943	230.285	0.001095	0.001058	0.00034259	478.06	2.624e-05	1.1904e-05	580.43	141.91	7.8226e-06	1.2636e-05	206.87	73.668	46.086	18.391	2.2791e-05	35.071	0.0035323	0.0035571	0.00098516	1390	3.837e-05	3.8089e-05	1184.1	347.6	3.7615e-05	3.7483e-05	846.5	182.96	248.63	52.532	3.7095e-05	79.524	193.597	120.909	-50.798	-82.969	-74.460	-83.381	-84.232	-78.273	-36.794	11.764	-79.767	-75.684	-76.327	-67.872	47.736	-69.910	-8191	255	
19560.322	1	1	0	0	0.35398	0.036643	0.24685	0.16067	0.13983	0.10689	0.34158	0.074402	0.22803	0.14719	0.23308	0.12554	0.18013	0.20004	0.071534	0.35105	-1.45	-1.7875	-1.4792	-2.0333	-1.9583	-1.7	-2.0104	-1.7729	-1.8563	-2.1125	-1.8083	-1.9208	-2.0167	-1.7604	-2.025	-1.8062	148.781	-84.559	-87.175	177.674	24.245	-22.216	169.286	-94.922	25.742	117.282	55.029	-62.256	261.762	162.066	195.564	-71.148	0.00027752	0.00090224	0.0010366	484.01	1.0701e-05	1.3069e-05	575.29	139.04	1.9642e-05	3.3836e-05	212.13	72.643	45.11	18.155	2.7421e-05	34.535	0.0033476	0.0033888	0.00094058	1344.2	3.6874e-05	3.683e-05	1163	341.62	3.7004e-05	3.6891e-05	842.31	182.2	248.89	52.767	3.7405e-05	80.003	129.911	32.843	133.581	-83.013	68.105	-3.117	-84.172	-78.092	231.042	196.031	-81.636	-74.404	-74.253	-67.744	-13.993	-69.897	-8191	255	
19560.420	1	1	0	0	0.16355	0.18392	0.068283	0.27692	0.24683	0.17096	0.35692	0.32432	0.061094	0.050691	0.16377	0.13124	0.18622	0.12036	0.30059	0.37161	-1.4917	-2.1437	-1.6396	-1.9021	-2.05	-1.4375	-2.1333	-1.8354	-1.7146	-2.1542	-1.6146	-1.9396	-1.7896	-1.5646	-1.9562	-1.95	-82.153	117.470	-40.379	-54.393	129.601	-86.072	182.804	232.469	198.792	13.595	36.353	-27.609	-63.863	159.211	233.911	217.536	0.00077683	0.00063359	0.0002081	465.35	1.2982e-05	9.2237e-06	573.12	140.55	1.5886e-05	1.3697e-05	205.43	72.331	45.361	17.95	7.0061e-06	34.366	0.0033967	0.003443	0.00095923	1367	3.7774e-05	3.785e-05	1178.5	348.06	3.8001e-05	3.8108e-05	857.7	184.89	252.53	53.304	3.7689e-05	79.924	141.006	-37.672	234.175	-82.584	258.478	-27.825	-83.522	-76.940	227.715	199.959	-78.214	-75.900	-74.724	-68.242	74.899	-70.461	-8191	255	
19560.516	1	1	0	0	0.11733	0.23624	0.020251	0.30034	0.16212	0.27766	0.21614	0.1686	0.10606	0.21334	0.12668	0.12197	0.14754	0.033481	0.10186	0.15566	-1.0875	-1.9104	-1.7167	-1.7417	-2.075	-1.4479	-2.0687	-1.8	-1.6	-2.1625	-1.5542	-1.6812	-1.9417	-1.4708	-1.9062	-1.9521	-79.953	234.328	214.859	6.002	227.485	114.378	75.955	9.918	229.510	-40.251	124.488	20.239	190.735	146.299	242.059	58.583	0.00072745	0.00089957	0.00049627	457.13	9.6248e-06	1.1609e-05	570.79	138.16	2.0481e-05	3.1951e-06	205.78	72.35	46.012	17.641	1.6818e-05	34.813	0.0033755	0.0033792	0.00093375	1323.7	3.6342e-05	3.6199e-05	1142.6	334.21	3.5965e-05	3.5948e-05	817.33	177.31	240.11	51.074	3.5973e-05	77.797	133.616	23.155	-89.527	-83.070	109.656	238.836	-84.195	-78.885	14.693	144.544	-81.232	-75.741	-75.706	-67.563	-79.022	-70.011	-8191	255	
19560.611	1	1	0	0	0.19766	0.21237	0.13562	0.30864	0.033871	0.10608	0.19933	0.13402	0.11482	0.28371	0.10275	0.29845	0.27809	0.024114	0.12545	0.14175	-1.0646	-1.9854	-1.6812	-1.6875	-2.0208	-1.6063	-1.9729	-1.9479	-1.6979	-2.0354	-1.7437	-1.6583	-1.9729	-1.6437	-1.975	-1.8563	48.804	244.698	-48.061	220.296	150.708	116.849	-40.962	138.434	-24.464	9.516	7.435	192.933	-71.724	209.503	-74.951	-18.190	0.00082921	0.0014087	0.00044799	455.12	1.6387e-05	1.015e-05	564.76	137.59	1.3574e-05	1.6566e-05	202.09	71.382	45.029	17.794	1.7501e-05	34.37	0.0032442	0.0032687	0.00090582	1299.8	3.5471e-05	3.5475e-05	1125.9	330.6	3.5467e-05	3.5311e-05	804.9	174.97	236.27	50.446	3.5325e-05	76.831	161.103	39.546	-90.534	-83.880	-29.880	106.818	-83.833	-77.225	18.300	6.441	-79.253	-75.798	-74.472	-68.098	-81.940	-69.795	-8191	255	
19560.732	1	1	0	0	0.10449	0.25416	0.072637	0.2357	0.099571	0.12352	0.22065	0.20188	0.18712	0.37058	0.24212	0.34018	0.05286	0.15412	0.051253	0.091387	-1.1208	-1.9646	-1.4729	-1.6458	-2.0375	-1.5292	-1.8375	-1.875	-1.4458	-1.9	-1.8271	-1.6562	-2.1417	-1.7563	-1.8354	-2.0042	82.372	120.698	141.649	247.260	211.375	182.006	-89.108	-80.665	154.182	-6.554	145.392	225.821	184.366	2.106	84.062	102.308	0.00022938	0.0015428	0.0006113	459.75	2.1243e-05	1.6144e-05	563.39	135.58	1.9609e-05	1.7699e-05	203.03	71.722	44.538	17.309	1.8361e-05	34.401	0.0031968	0.0032256	0.00089773	1288	3.5075e-05	3.5021e-05	1114.6	325.9	3.4829e-05	3.4748e-05	793.16	173.04	231.95	49.619	3.4578e-05	75.767	217.154	42.491	114.123	-82.999	-63.033	184.717	-83.969	-78.501	88.653	136.834	-79.871	-75.456	-73.112	-67.509	-28.154	-69.648	-8191	255	
19560.828	1	1	0	0	0.059003	0.12371	0.092623	0.1358	0.2725	0.07054	0.32133	0.059459	0.35258	0.19342	0.32602	0.033162	0.12786	0.14702	0.33101	0.29285	-1.1063	-1.6542	-1.7771	-1.6083	-1.9146	-1.6521	-1.7854	-2.0042	-1.4562	-1.7354	-1.9562	-1.5708	-1.8604	-1.8354	-1.8021	-1.8	23.539	105.548	186.777	-46.545	-68.471	16.269	190.657	127.940	149.869	15.088	152.591	156.634	264.261	-82.246	12.190	55.503	0.00036838	0.0010765	0.00058395	456.71	7.9686e-06	1.3537e-05	554.47	134.49	1.0547e-05	1.1217e-05	198.5	70.669	44.58	17.874	1.0279e-05	33.73	0.003136	0.0031702	0.00088332	1276	3.4843e-05	3.4753e-05	1109.8	324.54	3.4715e-05	3.4602e-05	789.35	172.19	231.95	49.393	3.4444e-05	75.238	9.537	79.562	106.421	-83.010	167.064	65.141	-84.113	-77.280	14.340	148.042	-79.191	-74.498	-75.144	-67.532	64.852	-70.099	-8191	255	
19560.900	1	1	0	0	0.059685	0.11559	0.14642	0.21122	0.060173	0.17765	0.13774	0.14533	0.21054	0.17179	0.035216	0.06681	0.14331	0.14545	0.04794	0.078286	-1.1938	-1.8729	-1.8625	-1.7208	-2.0104	-1.6875	-1.6833	-2.0333	-1.4917	-1.9354	-1.9312	-1.5625	-1.9229	-1.6708	-1.6729	-2.0542	196.196	-55.042	249.401	153.479	247.444	180.797	124.630	34.140	-63.110	7.981	18.678	210.945	201.282	50.465	169.514	79.586	0.00017983	0.00090825	0.00063333	455.18	8.4508e-06	8.4794e-06	551.33	132.41	1.7537e-05	2.1113e-05	198.92	69.994	44.113	17.112	2.1001e-05	33.737	0.0031192	0.0031414	0.00087669	1263	3.4514e-05	3.4456e-05	1097.7	320.63	3.4429e-05	3.4419e-05	786.91	171.2	230.99	49.282	3.4694e-05	75.384	226.747	-41.417	116.643	-83.890	192.478	127.688	-84.337	-78.079	124.503	36.987	-78.224	-74.878	-73.285	-66.857	-48.172	-69.638	-8191	255	
19561.021	1	1	0	0	0.16532	0.13517	0.34151	0.20582	0.23919	0.050489	0.36707	0.088366	0.11473	0.15378	0.15588	0.15633	0.13658	0.14767	0.071173	0.15807	-1.1938	-1.6604	-1.7125	-1.4396	-1.6708	-1.7	-1.55	-1.8958	-1.5021	-1.8479	-1.9042	-1.4417	-2.1958	-1.8354	-1.4771	-2.1771	-74.944	151.125	92.354	128.584	-3.345	259.918	205.341	226.997	188.711	53.230	-53.572	-45.421	153.275	246.443	10.025	88.635	0.00023993	0.00013928	0.00092368	449.46	9.2994e-06	1.7886e-05	554.43	133.1	6.3916e-06	1.0461e-05	202.4	69.897	43.752	17.042	1.0616e-05	33.179	0.0031466	0.0031863	0.00088593	1269.2	3.4851e-05	3.4826e-05	1104.9	322.2	3.4768e-05	3.4671e-05	790.12	171.6	231.53	49.255	3.475e-05	75.472	220.137	241.468	-12.764	-83.362	50.166	189.744	-83.628	-77.875	-34.560	-49.299	-79.132	-74.934	-74.381	-67.551	95.125	-69.289	-8191	255	
19561.115	1	1	0	0	0.034143	0.083771	0.15685	0.185	0.1661	0.076357	0.15854	0.16743	0.25288	0.16853	0.16176	0.071863	0.33715	0.088553	0.13629	0.20167	-1.275	-1.8792	-1.9042	-1.5583	-2.0542	-1.7479	-1.7167	-2.0979	-1.6313	-1.7313	-2.0271	-1.7125	-1.7563	-1.7646	-1.6063	-1.9396	166.350	-95.341	41.511	141.388	227.946	237.506	172.677	173.800	163.020	122.634	198.407	21.013	183.265	94.811	227.904	156.091	0.00040316	0.0012584	0.00023003	443.85	1.3251e-05	9.7443e-06	544.11	131.69	1.6909e-05	3.1561e-06	201.84	70.504	42.43	17.201	2.0296e-05	33.941	0.0031482	0.0031798	0.00088713	1269	3.5004e-05	3.5111e-05	1107.8	324.18	3.5448e-05	3.5406e-05	804.25	174.8	237.87	50.51	3.6071e-05	77.713	174.987	222.423	-32.970	-82.765	191.255	-44.536	-84.389	-78.287	257.165	85.692	-79.585	-75.132	-76.182	-66.754	181.532	-69.895	-8191	255	
19561.213	1	1	0	0	0.25881	0.25631	0.2861	0.059276	0.089205	0.12663	0.17616	0.15492	0.067986	0.21964	0.038617	0.34033	0.33904	0.19487	0.19244	0.1344	-1.2625	-1.6979	-2.0292	-1.6792	-1.7188	-1.9771	-1.3646	-2.025	-1.7021	-1.7313	-1.9021	-1.725	-1.9438	-2.0083	-1.5479	-2.0312	88.532	-85.650	162.916	162.098	197.747	235.005	65.131	184.230	-69.541	91.819	131.141	187.973	-45.372	115.278	146.500	176.381	0.00063912	0.0012796	0.00046289	440.18	2.1661e-05	2.6093e-06	548.53	129.84	2.144e-05	1.4171e-05	199.06	69.964	42.469	17.251	1.2536e-05	33.426	0.0032942	0.0033572	0.00094219	1325.1	3.744e-05	3.7559e-05	1154.6	338.91	3.7764e-05	3.7782e-05	846.57	181.7	249.92	52.414	3.7852e-05	79.787	-6.624	248.388	198.473	-82.260	192.239	-29.082	-84.346	-78.329	110.081	222.494	-80.539	-75.137	-73.960	-67.583	214.146	-69.943	-8191	255	
19561.332	1	1	0	0	0.14341	0.15684	0.11775	0.19532	0.1865	0.16426	0.022709	0.13862	0.038604	0.15964	0.1573	0.116	0.36202	0.05732	0.16539	0.085883	-1.125	-1.5562	-2	-1.5042	-1.7229	-1.9729	-1.5562	-1.8229	-1.7646	-1.6292	-1.9146	-1.6042	-1.7021	-1.9292	-1.5646	-1.9375	237.826	248.557	115.008	40.864	241.522	31.441	-77.443	252.861	209.705	188.330	22.225	196.187	-23.310	62.061	258.106	219.754	0.0002788	0.0003567	0.00074415	443.74	1.0321e-05	1.5639e-05	546.13	129.52	5.9875e-06	5.0562e-06	194.33	68.787	42.591	16.542	1.3667e-05	33.038	0.0034286	0.0034649	0.00096504	1344.3	3.7871e-05	3.783e-05	1151.1	338.37	3.7541e-05	3.7369e-05	837.34	179.75	246.38	51.729	3.7233e-05	78.47	23.347	5.830	212.780	-82.740	77.581	3.280	-83.517	-77.695	43.737	60.288	-78.858	-74.634	-76.062	-67.381	210.815	-69.432	-8191	255	
19561.428	1	1	0	0	0.12109	0.10296	0.034486	0.089919	0.10878	0.14931	0.19542	0.11776	0.09084	0.15407	0.14974	0.14993	0.29475	0.077473	0.13083	0.17163	-1.4021	-1.4688	-1.975	-1.5396	-1.6333	-1.8667	-1.4729	-1.8229	-1.7563	-1.5542	-1.9229	-1.5375	-1.5583	-2.1708	-1.6021	-1.8708	-59.695	54.979	138.000	-65.207	47.374	145.953	207.278	242.505	-39.134	-6.826	-30.735	165.936	-78.082	40.797	178.320	55.108	0.00034518	0.001235	0.00025966	441.43	6.4813e-06	1.3887e-05	539.4	127.86	1.7676e-05	2.6744e-05	193.76	67.549	44.079	16.807	1.3336e-05	33.351	0.0033504	0.0033794	0.00094177	1317.1	3.6824e-05	3.6841e-05	1130.7	330.59	3.68e-05	3.6704e-05	824.34	177.69	242.96	51.193	3.7036e-05	78.39	260.621	4.492	139.817	-83.011	194.859	3.659	-84.189	-76.885	83.179	46.416	-81.117	-74.505	-74.183	-67.856	69.579	-69.804	-8191	255	
19561.523	1	1	0	0	0.16424	0.22824	0.25813	0.15576	0.10717	0.11658	0.21344	0.14683	0.13571	0.17268	0.22144	0.073737	0.15831	0.10249	0.066665	0.14729	-1.4937	-1.4854	-1.9646	-1.8708	-1.5479	-2.0646	-1.5021	-1.8958	-2.0458	-1.6	-2.0417	-1.7979	-1.5292	-1.8958	-1.7083	-1.9521	253.049	-93.307	110.352	143.751	9.516	141.018	19.646	37.407	-0.738	-67.403	175.676	7.879	135.031	6.303	-62.535	110.593	0.00031337	0.0017721	0.00039115	436.04	8.7877e-06	1.0578e-06	541.29	130.17	2.6972e-05	2.374e-05	201.05	68.878	43.985	17.167	3.0806e-05	33.745	0.0033753	0.0034316	0.0009601	1340.5	3.8073e-05	3.8208e-05	1159.6	341.84	3.8627e-05	3.8758e-05	863.97	184.65	256.76	53.706	3.9266e-05	81.886	156.977	74.359	196.010	-83.701	155.749	-23.387	-84.115	-77.836	220.586	2.935	-80.422	-75.102	-74.222	-67.049	-67.861	-70.200	-8191	255	
19561.619	1	1	0	0	0.08939	0.20336	0.10943	0.041514	0.13353	0.053602	0.025008	0.10433	0.12941	0.19654	0.22037	0.16299	0.060899	0.27462	0.25208	0.12701	-1.6812	-1.55	-1.9583	-1.8646	-1.6375	-2.1646	-1.6938	-1.7229	-1.8708	-1.6146	-1.8771	-2.0146	-1.4604	-2.0563	-1.6812	-1.7938	18.873	178.632	31.484	-86.728	212.120	40.649	133.825	-21.534	-27.818	87.036	121.192	-5.775	237.149	44.800	22.331	-19.516	0.00064149	0.00054002	0.00034824	433.36	1.4723e-05	9.2613e-06	548.43	128.17	1.936e-05	2.2294e-05	195.51	69.364	44.561	17.268	1.4324e-05	33.86	0.0035664	0.0036105	0.0010059	1386.3	3.9487e-05	3.9447e-05	1182.4	347.81	3.9448e-05	3.9361e-05	874.73	186.52	258.03	53.79	3.918e-05	81.26	180.569	30.758	240.577	-82.230	106.335	174.787	-84.561	-78.021	52.738	96.039	-79.103	-75.258	-74.784	-67.741	120.515	-69.603	-8191	255	
19561.717	1	1	0	0	0.22796	0.016194	0.30391	0.12516	0.053936	0.22661	0.11771	0.074465	0.32131	0.57606	0.018918	0.30477	0.067667	0.28974	0.097751	0.19523	-1.425	-1.5208	-1.8854	-1.9792	-1.6688	-2.1542	-1.9	-1.7292	-2.1312	-1.5812	-1.8375	-1.9813	-1.3958	-1.8958	-1.6792	-1.6896	71.430	69.105	23.880	38.411	35.690	-14.711	183.027	225.255	162.459	45.620	237.157	24.716	51.491	46.227	153.431	191.182	0.00082372	0.0013625	0.0015735	436.56	1.0024e-05	9.1444e-06	534.93	129.67	7.0387e-06	7.9093e-06	193.8	69.336	43.317	17.042	2.001e-05	33.676	0.003508	0.0035388	0.00097985	1352.9	3.8205e-05	3.8093e-05	1152.2	338.54	3.7715e-05	3.7731e-05	844.68	180.77	249.03	52.128	3.768e-05	79.355	189.576	255.019	-48.711	-82.628	131.606	-24.139	-83.702	-78.241	193.301	12.345	-78.747	-74.693	-74.684	-67.787	-67.932	-69.350	-8191	255	
19561.812	1	1	0	0	0.24978	0.1958	0.15629	0.093648	0.19243	0.16196	0.35149	0.17877	0.20968	0.090003	0.27838	0.22052	0.23182	0.39469	0.33589	0.28716	-1.6729	-1.675	-1.7333	-1.9083	-1.3729	-1.9042	-1.8583	-1.5792	-2.1188	-1.5875	-1.7042	-1.9729	-1.7521	-1.9396	-1.8479	-1.5375	-47.378	53.918	103.086	176.399	61.488	142.389	239.144	-54.436	-20.024	-80.592	37.143	163.145	222.200	188.336	-60.832	140.850	0.00069716	0.00083592	0.0012174	429.28	1.3704e-05	1.293e-05	540.64	128.58	4.1574e-06	2.1269e-05	197.34	69.016	41.736	16.996	1.8686e-05	33.214	0.0034093	0.003448	0.00096093	1335.4	3.7721e-05	3.7802e-05	1146.1	337.22	3.7773e-05	3.7772e-05	845.43	181.44	250.27	52.426	3.7869e-05	79.687	78.341	100.799	126.738	-82.733	108.847	125.242	-83.388	-77.673	124.996	-69.466	-79.902	-74.730	-74.619	-67.059	237.675	-69.606	-8191	255	
19561.908	1	1	0	0	0.084788	0.065795	0.29226	0.14668	0.10139	0.14279	0.17377	0.047255	0.28589	0.089979	0.26941	0.1534	0.23278	0.24688	0.026225	0.30194	-1.6021	-1.7	-1.5896	-1.9896	-1.6396	-1.9937	-1.9333	-1.6646	-2.0125	-1.7854	-1.6729	-2.025	-1.525	-1.875	-1.7646	-1.575	48.734	208.830	46.235	173.643	-65.594	202.780	262.815	205.254	122.290	76.337	246.030	136.140	108.356	4.939	244.900	122.453	0.00041216	0.0018932	0.00010185	434.66	1.1752e-05	3.3444e-05	539.46	129.04	1.1708e-05	3.2465e-06	192.32	70.469	43.698	17.127	5.0809e-06	34.057	0.003434	0.0034741	0.00096578	1340.4	3.7927e-05	3.7942e-05	1151	338.45	3.774e-05	3.7721e-05	842.74	181.08	248.42	52.181	3.7613e-05	79.313	126.900	136.016	172.543	-83.200	11.980	91.591	-83.783	-77.930	-51.965	150.560	-80.014	-75.089	-72.150	-67.712	-7.498	-69.848	-8191	255	
19562.027	1	1	0	0	0.14445	0.25303	0.20327	0.19259	0.29534	0.12316	0.063112	0.052307	0.22087	0.12161	0.18269	0.063049	0.093371	0.027102	0.22359	0.039947	-1.6063	-1.7687	-1.6729	-1.9708	-1.6646	-1.9062	-1.9542	-1.5625	-1.8333	-1.7083	-1.4854	-1.8771	-1.6	-1.9438	-1.8438	-1.7958	125.169	-59.421	-13.195	247.292	243.932	92.784	-88.002	-50.115	99.471	-55.537	-77.544	-55.548	6.234	-84.392	47.673	-15.101	0.00049126	0.00056683	0.00050167	432.37	1.0465e-05	1.5592e-05	544.58	128.79	4.0169e-06	8.3328e-06	196.22	70.336	42.745	16.61	1.9532e-06	34.054	0.0033932	0.0034241	0.00095001	1326.9	3.7262e-05	3.7245e-05	1138	333.1	3.6891e-05	3.6751e-05	825.76	177.57	242.55	51.256	3.6717e-05	78.369	205.765	195.236	-49.024	-82.338	-39.325	3.624	-83.511	-77.884	101.922	204.150	-80.241	-75.129	-74.859	-68.128	183.786	-69.092	-8191	255	
19562.123	1	1	0	0	0.04781	0.072977	0.16378	0.35817	0.15824	0.13149	0.47822	0.057399	0.23022	0.21925	0.0537	0.070948	0.053081	0.24412	0.26785	0.39201	-1.6812	-1.6396	-1.5458	-2.2292	-1.6729	-1.7313	-2.0958	-1.6229	-1.9229	-1.8312	-1.5917	-1.9688	-1.6646	-1.6208	-2.1167	-1.4417	173.178	221.215	243.057	231.052	219.949	-13.879	257.544	190.103	56.481	184.888	101.190	-51.339	259.760	215.779	249.553	93.757	0.00041909	0.0016804	0.0006327	434.64	2.904e-05	1.2233e-05	546.25	128.22	1.6814e-05	2.7706e-05	191.76	69.603	43.506	17.18	2.3901e-05	33.894	0.0033101	0.0033412	0.00092977	1304.4	3.6513e-05	3.6494e-05	1129.4	330.88	3.665e-05	3.6625e-05	826.06	178.37	243.73	51.69	3.7081e-05	78.717	-10.515	248.726	84.725	-81.781	174.771	64.988	-83.311	-77.485	-90.493	118.661	-79.362	-74.643	-74.324	-67.607	-5.562	-69.435	-8191	255	
19562.195	1	1	0	0	0.18978	0.22633	0.1113	0.20788	0.23408	0.30055	0.1074	0.36231	0.18308	0.10753	0.42335	0.043259	0.11199	0.28571	0.17322	0.055141	-1.6583	-1.925	-1.5458	-2.1583	-1.7417	-1.7	-2.1688	-1.6	-1.9979	-2.0125	-1.4729	-1.9271	-1.7812	-1.3875	-1.9167	-1.6208	-28.019	123.802	-20.718	-34.596	66.433	110.050	184.284	253.525	161.622	173.720	240.353	222.971	80.213	144.593	4.648	-30.898	0.00041939	0.0014772	0.00084893	442.75	1.9211e-05	1.5543e-05	542.69	129.49	2.1796e-05	1.4989e-05	194.81	70.015	42.305	16.959	1.3133e-05	34.045	0.0033536	0.0034023	0.00094616	1323.8	3.7378e-05	3.7411e-05	1143.5	335.47	3.7335e-05	3.723e-05	836.52	180.05	246.76	52.068	3.7402e-05	79.049	186.496	-27.157	194.227	-83.063	-61.525	193.903	-83.201	-77.233	26.005	-14.240	-78.841	-74.461	-75.440	-66.756	64.315	-68.867	-8191	255	
19562.293	1	1	0	0	0.040844	0.21066	0.071337	0.27452	0.24673	0.030713	0.072747	0.10867	0.21224	0.17803	0.21376	0.28674	0.11126	0.20965	0.31977	0.2829	-1.425	-1.7875	-1.6146	-1.9333	-1.7313	-1.7479	-1.9979	-1.7917	-1.8146	-1.9521	-1.5896	-1.8854	-1.6562	-1.5021	-2.0792	-1.6833	-12.688	-59.341	197.607	210.189	-71.962	229.492	50.351	184.658	-33.077	118.820	109.211	204.267	253.735	215.873	-38.409	180.802	0.00035099	0.0017963	0.00040528	438.65	2.1363e-05	1.4244e-05	540.19	129.14	2.0735e-05	2.0354e-05	194.53	70.252	41.277	17.058	1.4459e-05	33.429	0.0033674	0.0033982	0.00094591	1322.4	3.7172e-05	3.7084e-05	1136.7	334.45	3.7139e-05	3.7049e-05	832.35	178.69	243.75	51.359	3.6645e-05	77.873	-28.867	70.936	125.532	-82.601	169.821	-15.665	-83.344	-77.829	17.985	64.105	-78.594	-74.670	-72.171	-67.270	48.174	-70.246	-8191	255	
19562.412	1	1	0	0	0.10819	0.4304	0.11257	0.199	0.21813	0.19914	0.16489	0.24461	0.2693	0.33919	0.27823	0.2204	0.18636	0.13191	0.02187	0.28426	-1.3354	-1.8146	-1.4604	-1.8375	-1.8229	-1.7167	-2.0146	-1.8104	-1.5375	-2.2646	-1.7	-1.9	-2.0438	-1.5104	-1.9042	-1.6729	-9.887	237.308	-16.240	179.495	182.149	69.405	101.458	-10.023	101.263	217.221	9.723	214.578	-60.843	-48.338	185.212	182.485	0.00061554	0.00028554	0.00058756	440.68	1.1222e-05	8.9271e-06	542.9	127.58	1.0261e-05	8.5729e-06	194.75	69.413	41.393	17.084	2.1315e-05	33.604	0.0032862	0.0033127	0.00091742	1287.6	3.5915e-05	3.5648e-05	1107.1	323.32	3.554e-05	3.5502e-05	800.03	173.19	235.9	50.001	3.5583e-05	76.528	183.285	100.879	56.749	-83.440	46.828	-85.155	-83.003	-77.035	141.752	262.852	-78.089	-75.219	-71.725	-66.772	-14.107	-69.196	-8191	255	
19562.508	1	1	0	0	0.25297	0.22955	0.17193	0.16668	0.090789	0.11459	0.091209	0.1051	0.25984	0.11722	0.090384	0.18375	0.35755	0.14144	0.14566	0.32389	-1.3521	-1.8542	-1.3729	-1.75	-1.9542	-1.3062	-2.0104	-1.7687	-1.7708	-1.8792	-1.2417	-1.6938	-1.9375	-1.6313	-2.15	-1.7021	-49.547	94.786	59.251	54.873	172.957	98.456	-79.316	40.373	-63.819	146.322	-33.722	246.885	118.617	119.598	190.146	203.453	0.00049379	0.00070623	0.00038144	435.06	1.2445e-05	2.1253e-05	546.79	126.29	9.7785e-06	1.1345e-05	191.57	69.291	43.644	16.995	9.0434e-06	33.451	0.0032238	0.0032576	0.00090815	1279.7	3.5686e-05	3.5674e-05	1111.8	325.26	3.5871e-05	3.5785e-05	807.01	174.56	237.06	50.105	3.5803e-05	76.536	231.838	233.752	251.691	-82.163	250.292	30.207	-83.748	-77.623	-6.425	252.015	-77.753	-74.551	-73.338	-68.042	237.691	-69.612	-8191	255	
19562.604	1	1	0	0	0.15367	0.13761	0.19887	0.19674	0.12708	0.1333	0.033555	0.088447	0.25834	0.084133	0.10054	0.031112	0.19918	0.11982	0.10711	0.079685	-1.0583	-2.0312	-1.7146	-1.8125	-2.0167	-1.5146	-2.0667	-1.8021	-1.3021	-2.0729	-1.5167	-1.775	-1.9708	-1.4979	-1.9354	-1.7229	119.387	-90.981	-56.423	158.289	-77.005	122.089	237.556	46.598	83.958	86.606	199.396	-34.284	84.125	-52.599	176.186	199.577	0.00059242	0.0015186	0.00069716	436.72	2.0141e-05	5.7921e-06	535.62	125.94	9.5195e-06	1.1567e-05	190.59	68.72	42.36	16.627	3.2394e-05	32.812	0.0032278	0.0032699	0.00090822	1277.8	3.5739e-05	3.5615e-05	1106.4	323.05	3.5487e-05	3.5378e-05	797.79	171.87	232.82	49.108	3.4826e-05	74.898	178.960	76.457	-61.853	-82.869	120.651	213.523	-83.806	-77.959	79.272	93.643	-79.636	-74.714	-73.798	-67.638	127.851	-70.713	-8191	255	
19562.701	1	1	0	0	0.18832	0.09443	0.11871	0.13955	0.27077	0.18281	0.11192	0.12071	0.2101	0.13593	0.090375	0.11214	0.15325	0.11393	0.19536	0.32176	-1.1667	-1.8958	-1.7083	-1.6583	-1.8729	-1.5125	-2.0271	-1.9792	-1.5312	-1.9979	-1.6208	-1.7583	-2.1167	-1.6437	-1.8062	-1.9062	160.079	77.574	3.878	100.021	-13.214	58.313	220.144	46.559	170.420	-5.927	64.566	133.299	-36.665	225.492	-61.193	151.496	0.0012456	0.0025867	0.00028167	426.67	1.5681e-05	8.9051e-06	538.16	127.75	4.3741e-06	1.3645e-05	185.04	68.17	42.557	16.328	1.2488e-05	32.808	0.0031271	0.0031605	0.00087277	1237.7	3.4167e-05	3.4029e-05	1073.7	312.59	3.3818e-05	3.3656e-05	767.9	167.21	225.8	47.949	3.3915e-05	73.701	105.236	-23.541	146.362	-83.358	100.452	134.020	-83.748	-77.636	-26.283	36.561	-78.869	-75.402	-73.806	-67.090	85.849	-69.978	-8191	255	
19562.797	1	1	0	0	0.22352	0.21626	0.20117	0.35787	0.060285	0.25476	0.14415	0.036616	0.24598	0.1152	0.087734	0.20283	0.14829	0.12548	0.32047	0.075581	-1.1021	-1.6833	-1.5771	-1.6854	-2.0104	-1.5104	-1.975	-2.0896	-1.6354	-2.1125	-1.8521	-1.6021	-2.2062	-1.7771	-1.8792	-1.8625	237.243	79.006	32.176	46.348	107.337	72.508	171.322	166.321	20.474	204.092	-26.045	-8.911	28.146	102.797	240.665	36.887	0.00040895	0.0011694	0.00081726	428.58	6.877e-06	2.1569e-05	540.62	129.21	1.0293e-05	9.9836e-06	193.28	68.864	42.692	16.813	1.9704e-05	33.702	0.0030759	0.0031098	0.00086659	1233.3	3.3813e-05	3.3792e-05	1071.3	311.49	3.3612e-05	3.3494e-05	763.37	166.75	223.7	47.871	3.3627e-05	73.623	34.791	100.166	67.912	-82.112	-7.936	-83.745	-84.039	-78.241	17.133	223.399	-78.377	-74.999	-74.866	-67.519	231.328	-69.637	-8191	255	
19562.893	1	1	0	0	0.14097	0.27015	0.45601	0.24456	0.23404	0.089663	0.11323	0.18284	0.10445	0.2493	0.34641	0.29528	0.16107	0.21832	0.069192	0.19716	-1.1271	-1.9146	-1.7958	-1.6833	-2.1875	-1.6875	-1.9438	-2.1333	-1.4667	-1.8542	-1.8917	-1.4792	-2	-1.6521	-1.7563	-2.1208	112.527	-65.271	198.723	255.454	177.151	49.436	153.803	249.314	100.676	-8.974	18.364	-19.529	157.519	-62.603	170.498	204.046	0.00076725	0.00081205	0.00050753	429.88	2.9971e-05	1.4347e-05	537.53	128.44	8.0373e-06	1.0726e-05	198.13	69.155	42.289	16.641	1.9661e-05	33.429	0.0030567	0.003091	0.00086433	1235.5	3.405e-05	3.3954e-05	1076.7	313.65	3.3657e-05	3.3374e-05	758.31	165.49	220.21	46.78	3.2277e-05	71.603	143.393	-70.046	88.693	-81.796	-7.664	128.608	-83.664	-78.203	239.414	-5.494	-78.620	-74.984	-73.784	-67.882	149.437	-69.450	-8191	255	
19563.014	1	1	0	0	0.25419	0.11269	0.3435	0.16153	0.12958	0.16266	0.10943	0.17185	0.151	0.15117	0.22753	0.061255	0.18918	0.14578	0.13735	0.25978	-1.025	-1.9438	-1.6271	-1.6104	-1.8979	-1.6375	-1.7604	-1.8479	-1.4875	-1.5	-1.7708	-1.4229	-1.8312	-1.7708	-1.7833	-2.0208	206.780	6.638	167.986	159.493	237.550	187.964	183.383	257.717	139.936	-3.351	60.839	155.400	1.791	259.803	118.258	143.924	0.00016969	0.0010349	0.0006451	425.44	1.046e-05	3.4131e-06	537.94	128.08	1.2459e-05	1.9712e-05	187.6	68.747	42.256	16.547	5.6764e-06	32.578	0.0028994	0.0029126	0.00081125	1175.3	3.1721e-05	3.1731e-05	1032.7	298.65	3.1586e-05	3.1609e-05	726.77	160.14	213.03	45.813	3.1734e-05	70.57	39.760	-5.130	38.293	-82.305	262.721	242.910	-83.551	-77.576	-62.154	-83.278	-80.111	-74.647	-74.699	-67.979	102.574	-69.581	-8191	255	
19563.107	1	1	0	0	0.27134	0.42233	0.14382	0.22834	0.094032	0.079025	0.12398	0.096531	0.079976	0.030342	0.28628	0.17058	0.12394	0.060064	0.089352	0.099109	-1.1187	-1.6125	-2.1083	-1.4813	-1.8667	-1.7833	-1.5583	-2.0292	-1.6812	-1.7417	-1.9417	-1.4146	-1.9688	-1.7125	-1.3563	-2.0958	-37.909	-46.328	33.436	-53.224	159.086	25.302	249.368	190.364	2.521	94.134	80.691	253.206	247.291	126.768	136.076	-5.902	0.00033937	0.001127	0.00088533	429.87	1.909e-05	1.1238e-05	527.62	124.01	1.2498e-05	1.6293e-05	190.36	67.504	40.497	16.374	1.9876e-05	31.987	0.002877	0.0029105	0.00081148	1179.9	3.2148e-05	3.225e-05	1039.1	301.55	3.2226e-05	3.21e-05	735.07	160.07	213	45.169	3.1154e-05	68.802	94.514	-39.686	-13.143	-82.041	67.360	-19.048	-83.659	-77.997	-73.822	190.272	-80.373	-74.535	-72.478	-66.762	125.519	-69.189	-8191	255	
19563.203	1	1	0	0	0.1534	0.16354	0.31742	0.18154	0.26054	0.16686	0.28973	0.12138	0.16659	0.10414	0.1287	0.19337	0.25178	0.11054	0.44775	0.13162	-1.4896	-1.5729	-1.9562	-1.3646	-1.8792	-1.8312	-1.6229	-1.9917	-1.5146	-1.6958	-1.9583	-1.5229	-1.7125	-1.7146	-1.3896	-1.8896	251.069	215.607	115.592	-49.150	-58.714	-14.882	185.860	183.640	230.091	214.041	-28.851	203.038	-16.708	149.755	3.235	107.022	0.00068789	0.00051226	0.00096382	417.86	1.0567e-05	1.218e-05	521.04	124.54	1.5846e-05	1.6725e-05	189.01	66.851	39.962	15.924	1.6972e-05	31.683	0.0027842	0.0028037	0.00078022	1141.1	3.068e-05	3.067e-05	1006.3	291.49	3.0823e-05	3.0805e-05	710.7	156.66	208.49	44.745	3.107e-05	68.847	141.691	3.089	-53.112	-82.445	112.471	131.024	-83.507	-77.153	23.816	183.737	-80.738	-74.571	-72.894	-67.196	0.213	-69.241	-8191	255	
19563.301	1	1	0	0	0.31093	0.032794	0.22608	0.19775	0.094769	0.33042	0.33114	0.26694	0.087513	0.38544	0.21719	0.30279	0.048554	0.12125	0.17265	0.0061104	-1.1771	-1.5229	-1.8917	-1.4604	-1.6542	-1.875	-1.6063	-1.7563	-1.7833	-1.5354	-1.8979	-1.4417	-1.7854	-1.9396	-1.35	-1.8604	-67.212	121.061	30.094	75.240	-90.386	51.197	158.080	208.302	24.826	136.926	178.101	-27.643	70.657	106.851	33.152	235.500	0.00026969	0.0011051	0.00065658	418.17	2.5961e-05	1.023e-05	519.53	124.57	1.4755e-05	7.0277e-06	185.8	66.247	41.297	16.198	1.67e-05	32.135	0.0028246	0.0028454	0.00079366	1157.2	3.1287e-05	3.132e-05	1014.7	293.54	3.136e-05	3.1287e-05	720.85	157.32	209.48	44.792	3.1179e-05	69.033	224.798	32.409	21.595	-82.325	18.149	-70.382	-83.359	-77.608	250.834	56.785	-78.053	-74.267	-74.143	-66.063	158.866	-69.145	-8191	255	
19563.422	1	1	0	0	0.10726	0.16684	0.031416	0.49722	0.28234	0.12203	0.19564	0.19807	0.080933	0.28291	0.14093	0.18566	0.15693	0.096286	0.20053	0.16186	-1.2896	-1.4771	-1.9312	-1.5604	-1.5063	-2.1	-1.575	-1.7375	-1.5542	-1.4937	-2.0833	-1.6875	-1.5958	-1.9875	-1.3458	-2.0062	-52.960	154.748	25.153	102.146	-92.293	212.401	253.437	210.524	135.074	237.198	72.616	81.422	252.000	214.624	143.528	225.542	0.00020326	0.0013741	0.00092689	414.91	1.1181e-05	5.5568e-06	519.65	123.8	4.989e-06	7.2221e-06	186.27	66.629	40.936	16.075	1.2237e-05	31.852	0.0028195	0.0028461	0.00079077	1149.7	3.1254e-05	3.1219e-05	1012.1	293.89	3.1229e-05	3.1334e-05	719.6	157.89	210.99	44.938	3.1462e-05	69.366	216.012	-31.196	157.894	-81.940	13.777	85.552	-83.687	-77.518	246.568	126.690	-79.490	-74.870	-75.298	-67.430	178.455	-69.558	-8191	255	
19563.492	1	1	0	0	0.28205	0.17816	0.076216	0.23488	0.18723	0.045741	0.048004	0.26278	0.24995	0.27382	0.16031	0.16285	0.058629	0.13141	0.27739	0.22346	-1.4146	-1.35	-2.0396	-1.7292	-1.4813	-1.9917	-1.5771	-1.5521	-1.7167	-1.3875	-1.8771	-1.6604	-1.4042	-1.975	-1.6833	-1.7375	245.848	216.915	153.906	38.847	-32.642	236.910	247.605	93.356	68.972	45.276	42.501	-84.407	-62.669	-91.795	52.951	227.279	0.00045228	0.00028342	0.00026161	408.93	1.3762e-05	1.2145e-05	506.11	120.76	1.2737e-05	1.1003e-05	189.85	67.172	39.825	16.224	2.4556e-05	31.655	0.0028398	0.0028742	0.00079934	1151.8	3.1427e-05	3.1537e-05	1009.1	293.78	3.1573e-05	3.164e-05	726.47	159.75	213.82	45.629	3.2141e-05	70.413	199.274	-42.150	53.268	-83.194	-51.425	91.356	-83.702	-76.966	261.389	260.940	-79.200	-73.898	-72.285	-66.318	26.682	-69.724	-8191	255	
19563.590	1	1	0	0	0.22703	0.12422	0.10798	0.10214	0.071411	0.30135	0.10927	0.3801	0.19285	0.20286	0.15105	0.080898	0.017235	0.1037	0.02999	0.043506	-1.5125	-1.475	-1.9083	-1.7271	-1.475	-2.0396	-1.6542	-1.8292	-1.9479	-1.5333	-1.9958	-1.8542	-1.5625	-1.9854	-1.5479	-1.6896	67.750	96.239	-53.956	221.148	228.526	-11.190	153.764	193.373	-20.162	256.645	-15.581	0.174	128.570	-82.888	201.999	-2.127	0.00057811	0.0016961	0.00053535	410.02	1.2954e-05	1.0044e-05	518.14	122.48	1.4436e-05	1.9557e-05	183.94	66.983	39.114	15.761	1.4368e-05	31.939	0.0029221	0.0029587	0.00082498	1179.1	3.2463e-05	3.2481e-05	1030.3	300.55	3.2554e-05	3.2498e-05	739.83	161.1	217.41	46.042	3.2649e-05	70.885	122.772	84.698	-39.389	-82.681	72.017	68.815	-83.664	-77.849	161.775	34.262	-78.214	-74.686	-74.756	-67.353	-36.260	-69.460	-8191	255	
19563.709	1	1	0	0	0.052234	0.25242	0.1846	0.12414	0.12865	0.074276	0.061301	0.101	0.27149	0.18083	0.037866	0.05585	0.15066	0.17682	0.20855	0.3144	-1.4813	-1.4875	-1.9333	-1.8354	-1.5208	-1.8958	-1.5875	-1.5396	-1.9667	-1.4542	-1.7792	-1.9479	-1.6104	-1.8083	-1.5187	-1.6021	-29.754	263.703	-14.584	39.320	-84.151	214.144	182.511	46.095	99.943	-67.087	253.970	250.002	16.768	-4.924	84.839	187.513	0.00078088	0.00027441	0.00042323	407.69	1.8182e-05	7.2495e-06	512.21	120.93	1.4107e-05	5.3284e-06	186.99	66.255	38.682	15.962	4.6238e-06	31.845	0.0029549	0.0029796	0.00082757	1176.9	3.2347e-05	3.2311e-05	1023.3	298.77	3.2237e-05	3.2208e-05	736.21	160.59	215.53	45.906	3.2344e-05	70.677	194.307	106.449	154.523	-82.649	-95.203	180.883	-84.002	-77.488	106.636	96.030	-79.665	-74.487	-73.084	-66.838	117.852	-69.029	-8191	255	
19563.805	1	1	0	0	0.29756	0.2455	0.19891	0.23503	0.16368	0.29229	0.38905	0.21565	0.21113	0.17526	0.23124	0.27424	0.045853	0.13118	0.14779	0.38058	-1.4521	-1.5479	-1.6021	-1.7083	-1.3792	-1.8	-1.8146	-1.6292	-1.8312	-1.5646	-1.725	-1.9937	-1.3583	-1.9417	-1.675	-1.6896	-70.909	7.005	163.831	-55.199	66.736	255.531	-87.897	-85.368	50.286	-1.786	-53.964	150.990	176.260	-80.812	123.338	171.880	0.00038437	0.00086325	0.00060385	402.6	1.524e-05	2.0069e-05	515.59	121.9	2.4941e-05	2.6774e-06	191.15	66.469	41.061	16.129	1.5813e-05	32.6	0.0029408	0.002974	0.00083134	1185.7	3.2702e-05	3.2764e-05	1038.4	302.7	3.2909e-05	3.2933e-05	750.07	163.4	220.33	46.818	3.315e-05	72.038	133.692	104.225	191.911	-82.535	229.499	173.673	-82.911	-77.343	-61.433	238.354	-81.359	-74.579	-72.671	-67.645	77.899	-69.319	-8191	255	
19563.902	1	1	0	0	0.17342	0.082322	0.12507	0.20792	0.088331	0.13	0.062325	0.28693	0.13332	0.23836	0.097333	0.13403	0.060431	0.11587	0.20936	0.23312	-1.6167	-1.4667	-1.5667	-2.0104	-1.6938	-1.9917	-1.6667	-1.7167	-2.0396	-1.5438	-1.6729	-1.8292	-1.4062	-1.6792	-1.7667	-1.4917	253.929	253.564	-23.322	214.946	39.375	51.790	78.756	253.628	-86.080	97.658	246.454	215.808	163.262	124.122	110.268	249.875	0.00010345	0.00065898	0.00088104	422.51	4.1062e-06	1.1502e-05	521.57	123.44	2.4457e-05	1.4463e-05	188.6	67.309	41.585	16.737	6.8858e-06	32.436	0.0030058	0.0030264	0.0008437	1205.5	3.3216e-05	3.3107e-05	1050.8	305.65	3.3045e-05	3.3065e-05	755.39	164.85	222.8	47.351	3.3473e-05	72.691	173.303	62.191	103.090	-81.988	-33.043	88.718	-83.997	-77.116	24.560	120.693	-80.218	-74.497	-72.753	-66.601	-63.769	-70.016	-8191	255	
19563.998	1	1	0	0	0.25588	0.24517	0.21327	0.22334	0.043899	0.019128	0.29812	0.10942	0.28533	0.12342	0.042608	0.38865	0.19336	0.11723	0.067106	0.22356	-1.3271	-1.525	-1.5875	-1.8542	-1.4104	-1.9021	-1.9312	-1.4042	-1.9083	-1.6938	-1.7042	-2.1	-1.5896	-1.7333	-1.8438	-1.6854	101.154	187.803	177.723	180.974	-4.935	240.105	239.300	145.399	223.382	169.648	181.392	250.091	-65.065	-80.547	216.962	228.175	0.00051345	0.0013904	0.00038547	420.47	1.4504e-05	2.0716e-05	530.51	125.29	2.4592e-05	6.1394e-06	205.53	68.202	42.91	16.78	1.5189e-05	32.524	0.0030462	0.0030913	0.00086237	1235.7	3.4185e-05	3.4215e-05	1076.1	314.82	3.4408e-05	3.4396e-05	780.08	168.72	228.66	48.371	3.4158e-05	73.53	179.918	7.371	86.257	-83.119	34.859	24.436	-83.628	-79.332	36.931	200.837	-80.316	-75.076	-74.652	-67.262	-79.676	-69.344	-8191	255	
19564.092	1	1	0	0	0.15774	0.23988	0.20548	0.18744	0.25234	0.13052	0.13505	0.088798	0.37898	0.34	0.22582	0.13738	0.064757	0.072272	0.20008	0.2506	-1.5458	-1.5812	-1.5167	-1.9021	-1.7062	-1.7708	-2.0062	-1.4917	-1.8604	-1.725	-1.5167	-1.9896	-1.5583	-1.8521	-2.0271	-1.8438	177.041	-62.090	94.636	231.316	46.381	-25.490	151.953	29.988	28.771	69.247	203.114	-75.614	-23.761	102.751	-34.168	160.573	0.00052538	0.0013415	0.00054286	421.28	2.4365e-05	1.5027e-05	530.34	126.89	7.414e-06	1.2709e-05	193.22	67.9	43.339	16.418	1.4084e-05	32.37	0.0030795	0.0031169	0.00086383	1231.7	3.399e-05	3.4073e-05	1072.1	314.54	3.4328e-05	3.4316e-05	780.7	168.98	229.32	48.65	3.4327e-05	73.948	17.864	127.364	-56.125	-82.669	191.215	179.019	-83.778	-77.931	21.915	-79.142	-78.912	-75.181	-76.453	-66.716	-5.503	-69.619	-8191	255	
19564.188	1	1	0	0	0.087237	0.15793	0.10281	0.27324	0.16451	0.14326	0.227	0.084855	0.062803	0.22372	0.35122	0.23064	0.15151	0.11826	0.1431	0.21963	-1.5312	-1.8729	-1.5938	-2.0854	-1.6187	-1.8333	-2.0667	-1.4417	-1.7375	-1.9333	-1.6667	-2.0354	-1.7479	-1.5271	-1.9771	-1.5729	-40.479	14.787	-1.106	121.406	74.128	47.539	255.484	-41.854	-34.966	221.171	-76.673	233.346	-88.205	193.336	175.376	79.566	0.00047365	0.0016752	0.00012778	429.68	1.8355e-05	9.1262e-06	536.82	124.97	1.6045e-05	2.906e-05	195.48	68.108	43.217	16.723	1.4683e-05	32.653	0.0031053	0.0031331	0.00086939	1238.2	3.421e-05	3.4221e-05	1075.8	314.64	3.4189e-05	3.426e-05	777.06	168.85	229.38	48.64	3.4461e-05	74.1	103.939	39.314	107.840	-82.849	80.689	185.033	-83.918	-77.866	36.575	-32.708	-78.396	-74.996	-72.751	-67.700	103.555	-70.100	-8191	255	
19564.283	1	1	0	0	0.05845	0.23835	0.024153	0.23665	0.17116	0.27708	0.29436	0.080713	0.14223	0.046497	0.11556	0.26718	0.13515	0.18298	0.032245	0.13661	-1.3979	-1.9083	-1.55	-1.9688	-1.7563	-1.7938	-2.0708	-1.5875	-1.7354	-1.9917	-1.5042	-1.9375	-1.7833	-1.5688	-2.1271	-1.5583	-72.246	156.863	2.027	-25.655	61.432	179.651	208.156	237.184	9.489	23.679	108.876	98.193	187.243	117.597	145.979	208.342	7.9521e-05	0.0014097	0.00017995	430.64	3.5438e-06	1.516e-05	531.32	126.01	6.7935e-06	8.1867e-06	187.23	66.904	41.856	16.3	2.5992e-05	32.06	0.0031023	0.0031461	0.00087285	1239.5	3.407e-05	3.3946e-05	1068.3	310.81	3.3542e-05	3.3439e-05	760.58	165.3	221.97	47.241	3.3116e-05	72.231	204.734	159.855	4.531	-82.877	200.939	248.127	-84.032	-77.349	103.723	156.759	-78.849	-75.045	-74.032	-67.848	24.659	-69.727	-8191	255	
19564.383	1	1	0	0	0.16272	0.098241	0.11136	0.2882	0.20673	0.24206	0.19547	0.31049	0.09169	0.32754	0.12692	0.18915	0.030458	0.17908	0.086276	0.16562	-1.4354	-2.0208	-1.5708	-1.8229	-1.8396	-1.4833	-2.1542	-1.6479	-1.7396	-2.0292	-1.3854	-1.7375	-1.8354	-1.325	-1.9833	-1.7271	190.394	120.474	185.004	-86.449	96.973	171.738	43.209	242.021	-37.135	204.121	78.143	64.070	214.447	-81.082	-73.532	141.487	9.1382e-05	0.0021712	0.00016078	426.98	6.3814e-06	1.1493e-05	530.37	126.83	6.86e-06	2.25e-05	193.05	67.777	42.552	16.643	1.8559e-05	32.496	0.0029994	0.0030492	0.00084816	1215	3.3456e-05	3.3609e-05	1065.1	311.65	3.3696e-05	3.3746e-05	766.8	166.52	225.41	47.933	3.3784e-05	72.874	58.517	-37.613	93.884	-81.636	-40.066	109.912	-83.987	-77.787	-55.679	251.154	-78.015	-74.934	-74.329	-66.376	152.358	-69.624	-8191	255	
#DATA ENDS
