BOXY.EXE: ISS Imagent and Oximeter Data Acquisition Program Version 0.80
Ascii Record File

#ACQ INFORMATION
2  Detector Channels 
16  External MUX Channels 
1  Auxiliary Channels 
5000  Waveform (CCF) Frequency (Hz)
1  Waveforms Skipped 
30  Waveforms Averaged 
1  Cycles Averaged 
16  Acquisitions per Waveform 
10.0806  Updata Rate (Hz) 

#FILE INFORMATION
TRUE -- External MUX Channel results are PARSED.
FALSE -- AC DC and Phase are NOT grouped.
TRUE -- Companion Program Settings File CREATED.
FALSE -- AC data not excluded
FALSE -- DC data not excluded
FALSE -- Phase data not excluded
FALSE -- Auxillary Chn. data not excluded
Tab delimiters

#CALIBRATION STATE
TRUE -- Waveform Calibration Values APPLIED.


#AUX CALIBRATION VALUES
Val Type	aux-1	

Term	1.0000e+00	
Factor	0.0000e+00	


#WF CALIBRATION VALUES
A = Detector Channel
Val Type	A-AC1	A-AC2	A-AC3	A-AC4	A-AC5	A-AC6	A-AC7	A-AC8	A-AC9	A-AC10	A-AC11	A-AC12	A-AC13	A-AC14	A-AC15	A-AC16	A-DC1	A-DC2	A-DC3	A-DC4	A-DC5	A-DC6	A-DC7	A-DC8	A-DC9	A-DC10	A-DC11	A-DC12	A-DC13	A-DC14	A-DC15	A-DC16	A-Ph1	A-Ph2	A-Ph3	A-Ph4	A-Ph5	A-Ph6	A-Ph7	A-Ph8	A-Ph9	A-Ph10	A-Ph11	A-Ph12	A-Ph13	A-Ph14	A-Ph15	A-Ph16	

Term	0.00000e+00	0.00000e+00	0.00000e+00	0.00000e+00	0.00000e+00	0.00000e+00	0.00000e+00	0.00000e+00	0.00000e+00	0.00000e+00	0.00000e+00	0.00000e+00	0.00000e+00	0.00000e+00	0.00000e+00	0.00000e+00	0.00000e+00	0.00000e+00	0.00000e+00	0.00000e+00	0.00000e+00	0.00000e+00	0.00000e+00	0.00000e+00	0.00000e+00	0.00000e+00	0.00000e+00	0.00000e+00	0.00000e+00	0.00000e+00	0.00000e+00	0.00000e+00	0.00000e+00	0.00000e+00	0.00000e+00	0.00000e+00	0.00000e+00	0.00000e+00	0.00000e+00	0.00000e+00	0.00000e+00	0.00000e+00	0.00000e+00	0.00000e+00	0.00000e+00	0.00000e+00	0.00000e+00	0.00000e+00	
Factor	1.00000e+00	1.00000e+00	1.00000e+00	1.00000e+00	1.00000e+00	1.00000e+00	1.00000e+00	1.00000e+00	1.00000e+00	1.00000e+00	1.00000e+00	1.00000e+00	1.00000e+00	1.00000e+00	1.00000e+00	1.00000e+00	1.00000e+00	1.00000e+00	1.00000e+00	1.00000e+00	1.00000e+00	1.00000e+00	1.00000e+00	1.00000e+00	1.00000e+00	1.00000e+00	1.00000e+00	1.00000e+00	1.00000e+00	1.00000e+00	1.00000e+00	1.00000e+00	X	X	X	X	X	X	X	X	X	X	X	X	X	X	X	X	

B = Detector Channel
Val Type	B-AC1	B-AC2	B-AC3	B-AC4	B-AC5	B-AC6	B-AC7	B-AC8	B-AC9	B-AC10	B-AC11	B-AC12	B-AC13	B-AC14	B-AC15	B-AC16	B-DC1	B-DC2	B-DC3	B-DC4	B-DC5	B-DC6	B-DC7	B-DC8	B-DC9	B-DC10	B-DC11	B-DC12	B-DC13	B-DC14	B-DC15	B-DC16	B-Ph1	B-Ph2	B-Ph3	B-Ph4	B-Ph5	B-Ph6	B-Ph7	B-Ph8	B-Ph9	B-Ph10	B-Ph11	B-Ph12	B-Ph13	B-Ph14	B-Ph15	B-Ph16	

Term	0.00000e+00	0.00000e+00	0.00000e+00	0.00000e+00	0.00000e+00	0.00000e+00	0.00000e+00	0.00000e+00	0.00000e+00	0.00000e+00	0.00000e+00	0.00000e+00	0.00000e+00	0.00000e+00	0.00000e+00	0.00000e+00	0.00000e+00	0.00000e+00	0.00000e+00	0.00000e+00	0.00000e+00	0.00000e+00	0.00000e+00	0.00000e+00	0.00000e+00	0.00000e+00	0.00000e+00	0.00000e+00	0.00000e+00	0.00000e+00	0.00000e+00	0.00000e+00	-1.60165e+02	-1.56046e+02	-1.61601e+02	-1.84043e+02	-1.15639e+02	-8.35182e+01	-1.55479e+02	-1.62015e+02	-1.02200e+02	-1.19732e+02	-1.85372e+02	-1.70396e+02	-1.86982e+02	-1.76531e+02	-6.46452e+01	-1.49226e+02	
Factor	2.80052e-05	7.83278e-05	3.39611e-05	2.47397e-01	8.53685e-07	8.94540e-07	1.74294e-01	5.63954e-02	8.49358e-07	1.01448e-06	2.25253e-01	3.31667e-02	6.79303e-02	9.94483e-03	1.03214e-06	1.41766e-02	3.98363e-07	4.02558e-07	1.11943e-07	1.12903e-01	4.40606e-09	4.40072e-09	7.81490e-02	2.63565e-02	4.40888e-09	4.39813e-09	8.24592e-02	1.43961e-02	2.55369e-02	4.44917e-03	4.40686e-09	6.06539e-03	X	X	X	X	X	X	X	X	X	X	X	X	X	X	X	X	



#DISTANCE SETTINGS
A = Detector Channel
A-1	A-2	A-3	A-4	A-5	A-6	A-7	A-8	A-9	A-10	A-11	A-12	A-13	A-14	A-15	A-16	

2.5000e+00	3.0000e+00	2.5000e+00	3.0000e+00	2.0000e+00	3.0000e+00	1.5000e+00	3.0000e+00	3.0000e+00	3.0000e+00	3.0000e+00	3.0000e+00	3.0000e+00	3.0000e+00	1.5000e+00	3.0000e+00	

B = Detector Channel
B-1	B-2	B-3	B-4	B-5	B-6	B-7	B-8	B-9	B-10	B-11	B-12	B-13	B-14	B-15	B-16	

1.0000e+01	1.0000e+01	1.0000e+01	1.4400e+00	1.0000e+01	1.0000e+01	1.5100e+00	1.9400e+00	1.0000e+01	1.0000e+01	1.9900e+00	2.4900e+00	2.4100e+00	2.9000e+00	1.0000e+01	2.9800e+00	




#DATA BEGINS
time	group	step	mark	flag	A-AC1	A-AC2	A-AC3	A-AC4	A-AC5	A-AC6	A-AC7	A-AC8	A-AC9	A-AC10	A-AC11	A-AC12	A-AC13	A-AC14	A-AC15	A-AC16	A-DC1	A-DC2	A-DC3	A-DC4	A-DC5	A-DC6	A-DC7	A-DC8	A-DC9	A-DC10	A-DC11	A-DC12	A-DC13	A-DC14	A-DC15	A-DC16	A-Ph1	A-Ph2	A-Ph3	A-Ph4	A-Ph5	A-Ph6	A-Ph7	A-Ph8	A-Ph9	A-Ph10	A-Ph11	A-Ph12	A-Ph13	A-Ph14	A-Ph15	A-Ph16	B-AC1	B-AC2	B-AC3	B-AC4	B-AC5	B-AC6	B-AC7	B-AC8	B-AC9	B-AC10	B-AC11	B-AC12	B-AC13	B-AC14	B-AC15	B-AC16	B-DC1	B-DC2	B-DC3	B-DC4	B-DC5	B-DC6	B-DC7	B-DC8	B-DC9	B-DC10	B-DC11	B-DC12	B-DC13	B-DC14	B-DC15	B-DC16	B-Ph1	B-Ph2	B-Ph3	B-Ph4	B-Ph5	B-Ph6	B-Ph7	B-Ph8	B-Ph9	B-Ph10	B-Ph11	B-Ph12	B-Ph13	B-Ph14	B-Ph15	B-Ph16	aux-1	digaux	

19629.588	1	1	0	256	0.1421	0.12766	0.21178	0.1912	0.2256	0.09073	0.12583	0.16667	0.10008	0.35038	0.15412	0.062514	0.24849	0.34959	0.28406	0.3768	-1.5292	-1.6938	-1.6667	-1.9042	-1.3687	-2.0104	-1.6521	-1.5125	-1.925	-1.3854	-1.6479	-1.7208	-1.2646	-1.9646	-1.4688	-1.5229	-4.386	11.464	157.321	-45.138	23.545	177.836	-2.724	244.193	-54.275	-17.520	148.247	-66.259	252.522	-84.925	226.257	184.927	0.00022002	0.00049312	0.00052577	886.45	1.23e-05	2.0189e-05	1024.6	275.6	1.5306e-05	7.7529e-07	372.94	114.32	74.099	21.894	5.0478e-06	42.927	0.0016236	0.0016302	0.00045396	1193.8	1.7606e-05	1.7527e-05	1206.7	341.12	1.7311e-05	1.7311e-05	584.88	151.4	151.57	35.582	1.722e-05	58.805	229.509	-96.658	38.491	-86.120	-40.382	147.815	-86.184	-82.118	32.180	51.879	-83.170	-78.444	-78.449	-71.502	250.336	-72.115	-8191	255	
19629.684	1	1	0	0	0.099922	0.17348	0.10068	0.0074945	0.064914	0.33031	0.088253	0.06043	0.040551	0.31137	0.15543	0.29643	0.30477	0.097556	0.035378	0.10123	-1.6208	-1.4833	-1.6396	-1.7687	-1.525	-1.9	-1.6854	-1.4438	-1.8229	-1.5167	-1.4604	-1.7667	-1.4667	-1.7708	-1.4875	-1.5167	66.373	171.329	20.892	120.948	145.515	98.536	231.055	44.985	132.028	67.306	74.632	207.681	216.523	60.937	86.550	167.987	0.00036905	0.0013825	0.00025357	875.97	9.8119e-06	8.2246e-06	1021.7	273.96	6.2018e-06	9.0064e-06	367.63	113.04	73.869	21.881	6.6916e-06	43.298	0.0015572	0.0015599	0.00043367	1170.5	1.6885e-05	1.691e-05	1197.2	335.55	1.6883e-05	1.688e-05	575.3	148.92	148.17	35.068	1.6931e-05	58.525	134.638	31.851	190.585	-86.054	74.889	98.766	-86.364	-82.244	145.791	201.760	-82.611	-78.154	-78.760	-71.366	-42.539	-72.320	-8191	255	
19629.779	1	1	0	0	0.18191	0.19036	0.16493	0.086431	0.19	0.22773	0.25484	0.093035	0.10711	0.15935	0.062267	0.26882	0.10917	0.10819	0.27763	0.097267	-1.5187	-1.5292	-1.6375	-1.7062	-1.4688	-1.8708	-1.8563	-1.4562	-1.9958	-1.5667	-1.7417	-2.1708	-1.2396	-1.8979	-1.675	-1.4688	-26.817	83.802	130.489	149.318	205.984	71.546	214.184	227.706	-30.335	190.906	-37.301	233.695	-64.437	58.110	92.355	259.848	0.00048247	0.00020187	0.00034347	878	2.7556e-05	1.1707e-05	1023	270.9	8.5106e-06	6.2921e-06	370.29	113.52	72.368	21.678	5.4018e-06	43.363	0.0015416	0.0015509	0.00043467	1174.9	1.7189e-05	1.7229e-05	1204.5	337.07	1.7333e-05	1.7219e-05	580.66	150.13	149.51	35.163	1.7038e-05	58.421	209.203	-23.258	10.086	-85.746	-54.513	22.311	-86.370	-82.005	63.248	184.651	-82.956	-78.365	-77.473	-71.586	-89.011	-72.286	-8191	255	
19629.900	1	1	0	0	0.4032	0.10266	0.15484	0.0379	0.26052	0.13402	0.29173	0.23092	0.24416	0.10372	0.22176	0.10328	0.15984	0.17823	0.1103	0.10624	-1.1771	-1.5	-1.5417	-2.0146	-1.4062	-1.6375	-1.9375	-1.4229	-1.775	-1.675	-1.5938	-2.0458	-1.6417	-1.8583	-2.0146	-1.4979	43.951	129.384	109.319	185.224	96.252	32.729	131.986	218.822	59.465	104.402	76.764	184.578	121.428	-77.708	79.520	19.853	0.00032407	0.00083704	0.0004346	874.15	1.5225e-05	6.4506e-06	1027.6	270.94	1.4734e-05	2.0958e-05	374.27	114.39	71.052	21.613	2.1037e-05	43.644	0.0015239	0.0015407	0.00042566	1161.5	1.6603e-05	1.6607e-05	1194.1	331.36	1.6447e-05	1.6315e-05	563.81	147.17	143.7	34.294	1.6324e-05	57.881	148.829	51.236	14.238	-85.767	-8.069	63.366	-86.194	-82.043	238.787	236.797	-82.712	-78.194	-77.149	-71.504	226.629	-72.104	-8191	255	
19629.996	1	1	0	0	0.1942	0.16255	0.07399	0.15444	0.14902	0.037851	0.19188	0.17691	0.051193	0.15501	0.17449	0.10021	0.19018	0.13799	0.059323	0.092068	-1.4708	-1.5396	-1.4854	-2.0208	-1.5812	-1.7229	-1.975	-1.4771	-1.775	-1.6458	-1.5688	-2.1292	-1.4312	-1.6458	-1.8167	-1.65	41.789	-42.403	-92.360	214.913	-1.429	224.460	217.668	213.679	82.692	125.472	37.240	247.310	119.077	216.383	-59.915	-20.778	0.00076356	0.001037	0.00014244	882.16	6.724e-06	7.5092e-06	1020.9	271.16	6.2774e-06	1.6525e-06	368.32	113.3	71.214	21.516	2.0046e-05	42.752	0.0014891	0.0015018	0.00041927	1160.4	1.6562e-05	1.6695e-05	1195	332.73	1.6671e-05	1.6692e-05	571.47	148.6	147.74	34.859	1.6938e-05	58.545	107.628	4.285	171.153	-85.592	-40.834	-56.108	-86.330	-82.263	26.136	37.793	-82.600	-77.967	-77.990	-71.437	100.227	-71.977	-8191	255	
19630.092	1	1	0	0	0.017371	0.10869	0.26293	0.2393	0.12235	0.24017	0.17037	0.19764	0.16965	0.32392	0.26658	0.19863	0.17302	0.065766	0.24901	0.27611	-1.4521	-1.8125	-1.4396	-1.9833	-1.5917	-1.5562	-2.0542	-1.4813	-1.6646	-1.9708	-1.6083	-1.9958	-1.6979	-1.4604	-1.9188	-1.4021	161.033	41.403	78.093	212.013	-57.946	165.622	149.162	165.048	91.076	-60.380	131.460	172.294	195.380	-58.817	75.130	-29.730	0.00037554	0.00030312	0.00054989	871.58	1.5224e-06	1.0819e-05	1026.5	270.22	1.0897e-05	5.0863e-06	371.42	114.32	72.772	21.453	1.2087e-05	43.048	0.001553	0.0015792	0.00043795	1180.7	1.7307e-05	1.7333e-05	1211.3	336.57	1.7214e-05	1.725e-05	581.94	150.17	149.82	35.166	1.717e-05	58.705	200.358	222.399	-27.550	-85.864	-94.710	153.536	-86.440	-82.361	114.874	247.501	-83.434	-78.603	-78.151	-71.332	-62.112	-72.315	-8191	255	
19630.189	1	1	0	0	0.031916	0.15662	0.17831	0.14376	0.2225	0.041321	0.17721	0.29988	0.17795	0.3369	0.26972	0.057658	0.13245	0.36041	0.090404	0.051543	-1.4167	-1.9021	-1.3604	-1.8229	-1.7042	-1.5417	-1.95	-1.5688	-1.6208	-1.9167	-1.4979	-2.0458	-1.8146	-1.5458	-1.8729	-1.5604	114.906	20.120	41.948	-12.862	-87.490	190.753	180.162	0.790	98.519	-23.582	14.641	-98.298	219.157	-17.503	197.237	31.086	7.5715e-05	0.00096106	0.0001982	884.9	6.8717e-06	1.0888e-05	1031.1	273.89	9.3994e-06	8.1455e-06	376.37	114.93	72.303	21.936	8.3095e-06	43.71	0.0015611	0.0015733	0.00043687	1181.5	1.702e-05	1.6966e-05	1203.2	334.2	1.6499e-05	1.6446e-05	565.62	148.13	143.97	34.341	1.6066e-05	57.626	233.428	-34.632	169.991	-85.588	137.001	45.407	-86.161	-82.015	15.973	-4.723	-82.572	-78.529	-78.764	-71.491	-26.365	-72.121	-8191	255	
19630.283	1	1	0	0	0.13514	0.20381	0.093502	0.10927	0.20247	0.19978	0.18684	0.13109	0.30683	0.10371	0.2496	0.33522	0.26047	0.1756	0.10201	0.13061	-1.2437	-1.7833	-1.5125	-1.8917	-1.7854	-1.1646	-2.0563	-1.4958	-1.55	-1.7792	-1.2979	-1.9625	-1.8292	-1.4688	-1.9042	-1.575	204.486	-57.791	107.513	162.383	114.138	209.406	229.885	213.115	183.218	122.302	-3.629	82.277	181.432	-54.140	-20.698	222.918	0.00064819	0.0018276	0.00050392	882.67	1.1834e-05	2.1108e-06	1030.6	275.37	1.7644e-06	7.0155e-06	376.57	115.19	73.795	22.14	1.1135e-05	44.178	0.0014556	0.0014707	0.00040812	1150.3	1.6e-05	1.5915e-05	1186.2	330.83	1.5866e-05	1.5856e-05	562.38	147.93	144	34.401	1.5901e-05	57.659	204.019	181.114	30.453	-85.724	162.910	195.220	-86.283	-81.987	46.471	126.898	-83.263	-78.439	-78.908	-71.392	-85.004	-72.627	-8191	255	
19630.381	1	1	0	0	0.1323	0.13258	0.25276	0.20034	0.13455	0.16913	0.097636	0.30139	0.21338	0.086273	0.14239	0.25236	0.21339	0.18183	0.15564	0.25373	-1.1396	-1.8542	-1.3333	-1.825	-1.6063	-1.3396	-1.9729	-1.6708	-1.4	-2.0292	-1.5708	-1.8125	-1.7667	-1.5229	-1.6917	-1.7021	-99.479	9.699	-97.457	160.369	235.280	221.714	-4.637	181.975	75.066	14.331	66.794	-83.940	259.620	191.518	8.299	175.347	0.00032528	0.00078824	0.00032966	892	7.7736e-06	4.0237e-06	1040.7	276.29	7.5136e-06	1.098e-05	374.8	115.6	73.749	21.92	5.5342e-06	44.217	0.0014191	0.0014201	0.00039204	1137.3	1.4964e-05	1.4728e-05	1166.1	321.28	1.4029e-05	1.3895e-05	520.93	141.02	130.8	31.853	1.3445e-05	54.158	218.735	3.026	53.322	-85.754	-59.972	-87.425	-86.045	-82.037	97.379	14.322	-82.985	-78.497	-78.211	-71.815	228.023	-71.841	-8191	255	
19630.500	1	1	0	0	0.12502	0.17435	0.10979	0.087195	0.027243	0.082816	0.25208	0.18497	0.059529	0.12925	0.12311	0.091493	0.17483	0.29245	0.175	0.069129	-0.83958	-2.025	-1.6063	-1.6292	-1.9083	-1.4417	-2.0104	-1.7896	-1.4062	-2.0563	-1.6313	-1.6146	-1.9125	-1.3438	-1.8104	-1.8083	77.684	81.093	-45.972	235.260	-92.280	234.031	-81.305	-63.609	216.802	111.291	72.432	37.161	-36.623	254.514	-50.057	-93.334	0.00013514	0.0004723	0.0001543	890.53	2.9769e-06	1.3325e-05	1041.7	275.28	7.634e-06	7.8918e-06	375.39	115.76	72.776	22.118	8.9899e-06	43.812	0.0012055	0.0012031	0.00033265	1076.7	1.2733e-05	1.2521e-05	1130.6	310.26	1.2054e-05	1.1925e-05	483.7	133.59	117.76	29.702	1.1348e-05	51.217	-57.142	150.794	256.490	-85.467	46.501	-4.106	-86.634	-82.146	212.901	-91.330	-82.656	-78.117	-78.638	-71.287	19.677	-72.571	-8191	255	
19630.598	1	1	0	0	0.15159	0.32808	0.086835	0.17459	0.14393	0.13127	0.28189	0.21685	0.19347	0.13739	0.082421	0.25986	0.097661	0.025198	0.12503	0.20352	-0.98542	-1.8854	-1.4646	-1.5604	-1.8667	-1.3438	-1.9042	-1.8792	-1.4208	-1.9917	-1.6021	-1.4667	-1.7646	-1.4083	-1.6958	-1.7458	44.964	-8.275	28.349	234.467	-72.437	238.889	-85.114	135.192	107.979	163.880	17.186	245.470	42.896	203.817	3.300	208.104	0.00057872	0.00046257	0.00018523	893.26	9.9582e-06	1.1836e-05	1045.8	279.53	6.1208e-06	5.1849e-06	383.5	117.17	75.868	22.275	7.7597e-06	44.069	0.0010229	0.0010351	0.0002886	1041.2	1.1476e-05	1.1522e-05	1119.2	309.08	1.1718e-05	1.1813e-05	485.99	135.53	120.62	30.297	1.1884e-05	52.155	149.223	233.408	228.740	-85.754	185.226	4.049	-86.260	-82.343	111.742	144.121	-82.928	-77.928	-78.813	-71.914	-63.314	-72.057	-8191	255	
19630.693	1	1	0	0	0.10122	0.39167	0.14535	0.13974	0.071211	0.092631	0.29771	0.095795	0.23309	0.15363	0.21836	0.22825	0.25145	0.13266	0.12678	0.11023	-0.94792	-1.7188	-1.3896	-1.6542	-1.8854	-1.4	-1.6542	-2.0083	-1.3396	-2.0104	-1.6125	-1.6	-2.0146	-1.6271	-1.6792	-2.0938	-46.637	47.696	48.320	67.067	122.111	101.912	198.559	-80.214	211.834	85.749	-2.230	238.444	244.760	77.431	91.815	252.539	0.00022121	0.0018095	0.00013103	893.34	1.4268e-05	7.0766e-06	1043.9	277.44	7.4182e-06	1.6492e-05	378.86	116.87	73.756	22.214	9.0072e-06	44.158	0.0010855	0.0010974	0.00030567	1059.8	1.2035e-05	1.1975e-05	1127.9	310.04	1.1786e-05	1.1713e-05	481.8	134.09	118.43	29.784	1.1385e-05	51.396	125.436	-51.106	-32.891	-85.908	-21.109	221.362	-85.964	-82.106	128.479	207.975	-82.358	-78.270	-78.867	-71.784	137.817	-72.729	-8191	255	
19630.764	1	1	0	0	0.23614	0.054222	0.11634	0.11056	0.10686	0.19013	0.28486	0.17303	0.17948	0.14212	0.12749	0.16656	0.084896	0.12303	0.17564	0.21671	-1.0312	-1.7458	-1.7271	-1.475	-1.8937	-1.55	-1.7375	-1.7854	-1.3292	-1.6542	-1.7646	-1.4979	-1.8896	-1.6458	-1.5583	-1.9167	65.351	-53.920	169.176	-6.548	138.429	247.352	176.430	97.911	-20.008	127.493	77.082	-94.786	-83.040	201.949	19.081	243.108	0.00035883	0.00056946	0.00049529	891.32	9.6936e-06	5.4979e-06	1044.5	277.65	4.6407e-06	1.2095e-05	379.59	116.42	73.636	22.336	1.4594e-05	44.445	0.0010184	0.0010209	0.00028254	1031.5	1.0953e-05	1.0917e-05	1108.9	302.74	1.0818e-05	1.0874e-05	469.55	132.93	115.03	29.384	1.0943e-05	51.163	166.978	128.264	37.403	-85.353	111.307	122.936	-86.418	-81.803	-94.962	158.469	-83.052	-78.421	-78.400	-72.092	244.691	-72.153	-8191	255	
19630.885	1	1	0	0	0.15796	0.21015	0.064765	0.18018	0.30216	0.2909	0.32371	0.22353	0.041471	0.031201	0.22355	0.20311	0.24516	0.10239	0.17059	0.21679	-0.95417	-1.7708	-1.7396	-1.3333	-1.8146	-1.5854	-1.675	-2.0271	-1.5604	-1.7333	-1.7188	-1.4208	-1.7604	-1.6313	-1.3438	-1.8229	188.738	67.754	-26.722	-24.849	58.877	115.443	127.380	75.442	76.680	134.193	241.204	202.820	26.334	149.074	-74.738	257.156	0.00044744	0.00026247	0.00050525	886.72	3.2213e-06	1.3255e-05	1045.1	276.65	1.158e-05	1.0495e-05	378.29	116.82	74.091	22.503	1.0457e-05	44.515	0.00098408	0.00099684	0.00027708	1025.5	1.091e-05	1.0908e-05	1109	303.9	1.0919e-05	1.0907e-05	470.95	132.32	115.1	29.53	1.1066e-05	51.418	166.445	-20.010	188.707	-85.938	-18.508	32.875	-86.467	-82.037	42.048	7.522	-82.516	-77.977	-78.544	-71.319	238.778	-71.749	-8191	255	
19630.980	1	1	0	0	0.096741	0.23634	0.028175	0.21689	0.20325	0.19996	0.11606	0.079096	0.069928	0.14954	0.22402	0.15376	0.27667	0.22739	0.24097	0.16125	-1.0042	-1.6125	-1.7	-1.4854	-1.8042	-1.6896	-1.5667	-1.9271	-1.5312	-1.5646	-1.7896	-1.25	-1.7437	-1.6771	-1.625	-1.7458	43.456	123.129	-62.973	170.265	18.781	145.192	171.531	204.780	81.749	-35.506	162.587	-26.310	103.955	230.914	-67.272	-86.393	0.00039819	0.0011563	0.0002573	891.48	1.3459e-05	6.5134e-06	1040.6	277.02	1.9552e-05	4.5066e-06	379.6	116.37	73.899	22.22	1.2092e-05	44.68	0.0010135	0.0010194	0.0002838	1028.9	1.0981e-05	1.0976e-05	1107	302.85	1.0867e-05	1.084e-05	466.4	131.27	113.52	29.019	1.0617e-05	50.414	141.340	215.057	235.447	-85.497	-62.158	131.293	-86.118	-82.055	-78.947	78.370	-83.452	-78.201	-78.233	-71.938	137.396	-71.768	-8191	255	
19631.076	1	1	0	0	0.10403	0.17313	0.22937	0.17567	0.10401	0.27653	0.38634	0.047902	0.16499	0.2731	0.22751	0.17557	0.070134	0.035432	0.038524	0.11971	-0.98333	-1.75	-1.8208	-1.4417	-1.8208	-1.6146	-1.5688	-1.8771	-1.5958	-1.5604	-1.8708	-1.5812	-1.7	-1.8917	-1.3125	-2.0792	-49.826	98.218	208.291	217.602	180.682	208.974	236.001	90.392	150.940	88.696	185.884	-65.361	-49.660	187.019	52.340	25.269	0.00034567	0.0013564	0.00044577	893.19	1.2431e-05	1.0451e-05	1050.6	281.08	1.1778e-05	6.2224e-06	382.28	117.73	73.828	22.342	3.9008e-06	44.08	0.00095659	0.00096523	0.00026764	1020.3	1.0518e-05	1.0505e-05	1106.2	303.36	1.0591e-05	1.0566e-05	463.39	131.14	113.1	29.036	1.0567e-05	50.496	92.681	5.747	-93.482	-85.489	248.163	-24.544	-86.340	-82.103	-73.272	-8.624	-83.535	-78.091	-78.152	-71.114	46.521	-71.829	-8191	255	
19631.172	1	1	0	0	0.23823	0.17946	0.22138	0.10843	0.030273	0.075605	0.13797	0.26396	0.10955	0.14786	0.030698	0.09658	0.19166	0.2096	0.25466	0.035154	-1.0562	-1.5271	-1.7812	-1.4896	-1.6458	-1.9	-1.6396	-1.775	-1.6208	-1.3708	-1.8708	-1.6	-1.6396	-1.7854	-1.4271	-1.6375	77.156	236.117	22.863	-19.753	80.199	-6.092	159.569	240.818	236.078	62.737	200.715	-36.275	-96.812	229.743	129.436	-33.654	0.0006354	0.00035032	0.00025442	900.04	3.6037e-06	1.6036e-05	1055.9	279.85	1.1776e-05	1.3768e-05	382.53	118.01	75.643	22.107	5.5645e-06	44.251	0.00095798	0.00095349	0.00026423	1019.1	1.0255e-05	1.0151e-05	1102.1	300.2	9.9471e-06	9.9211e-06	452.46	129.58	109.59	28.362	9.92e-06	49.475	182.180	254.175	109.965	-85.686	79.111	222.543	-86.170	-82.355	237.519	-14.036	-82.569	-78.106	-77.573	-71.846	-24.441	-72.342	-8191	255	
19631.293	1	1	0	0	0.19928	0.13061	0.056175	0.15502	0.29529	0.19884	0.52264	0.40633	0.1968	0.14319	0.31521	0.1736	0.15013	0.18118	0.25239	0.18022	-1.1437	-1.4354	-1.9583	-1.6104	-1.525	-1.7646	-1.4896	-1.9667	-1.7646	-1.225	-2.0375	-1.5938	-1.7271	-2.1104	-1.3875	-1.6812	139.615	-80.796	40.576	-58.157	-2.282	74.379	177.000	-62.696	-90.379	133.674	245.276	86.201	125.253	131.228	-38.528	-4.145	0.00020066	0.00053838	0.00012913	907.51	6.7548e-06	7.968e-07	1060.5	282.71	9.1274e-06	3.3542e-06	386.41	118.85	75.395	22.457	7.607e-07	44.431	0.00089189	0.00089074	0.00024789	1006.2	9.6474e-06	9.6596e-06	1099.4	298.81	9.5798e-06	9.5648e-06	449.01	129.27	108.54	28.291	9.8516e-06	49.621	68.626	-93.067	165.756	-85.589	194.213	111.108	-85.763	-81.858	-78.408	-65.064	-81.826	-77.802	-78.330	-71.191	119.720	-71.495	-8191	255	
19631.389	1	1	0	0	0.20682	0.19238	0.29043	0.048191	0.010958	0.13369	0.17321	0.48397	0.16003	0.18883	0.23366	0.20323	0.1355	0.22884	0.22682	0.14547	-1.2854	-1.2917	-1.9312	-1.6688	-1.4417	-1.9958	-1.5292	-1.7771	-1.7604	-1.4271	-2.0479	-1.6917	-1.4125	-1.9729	-1.3792	-1.6771	-23.306	-30.818	-33.271	241.192	28.495	36.506	185.778	210.794	19.489	145.119	205.843	257.026	-46.615	155.296	-56.414	-44.935	0.00046465	0.00030981	0.00028378	910.59	9.4167e-06	4.9221e-06	1063.3	282.33	7.6126e-06	7.641e-06	383.17	117.87	74.245	22.212	6.8569e-06	43.985	0.00091398	0.00092212	0.00025778	1024.1	1.0157e-05	1.0177e-05	1110.4	303.39	1.0215e-05	1.0122e-05	457.05	129.81	109.41	28.132	9.7189e-06	48.879	103.682	-31.459	-44.837	-85.549	162.707	-3.203	-85.915	-81.638	46.986	-35.110	-82.556	-77.819	-77.753	-71.239	-85.657	-71.748	-8191	255	
19631.463	1	1	0	0	0.37834	0.16706	0.13798	0.28526	0.19744	0.12582	0.24739	0.34848	0.32584	0.18152	0.19317	0.11754	0.086654	0.1933	0.20013	0.26045	-1.3396	-1.2979	-1.85	-1.7542	-1.3042	-1.9104	-1.6271	-1.5354	-2	-1.4896	-1.8167	-1.9312	-1.4542	-2.0521	-1.4958	-1.6708	37.114	155.239	147.266	-94.636	237.503	194.898	197.085	246.242	242.121	101.369	240.114	-24.734	235.705	156.772	167.463	180.141	3.6856e-05	0.00069693	0.00033763	892.73	3.2644e-07	9.0042e-06	1043.1	271.91	1.1666e-05	2.4184e-06	376.09	115.62	72.725	22.101	6.4672e-06	44.429	0.00086663	0.00086601	0.00023762	985.45	9.1533e-06	9.0447e-06	1073.4	287.41	8.826e-06	8.7642e-06	426.46	124.6	102.06	27.109	8.9215e-06	48.085	-37.891	249.603	-74.289	-85.372	14.493	54.221	-85.772	-81.537	-21.984	66.921	-82.136	-77.482	-78.207	-71.409	85.962	-72.138	-8191	255	
19631.580	1	1	0	0	0.22478	0.17345	0.22712	0.46347	0.23937	0.20145	0.20394	0.092735	0.13949	0.17329	0.16929	0.37835	0.25312	0.16972	0.14053	0.18465	-1.2896	-1.2333	-1.7208	-1.5833	-1.4167	-1.9708	-1.6938	-1.4958	-1.8354	-1.3583	-1.5667	-1.9021	-1.3333	-1.8062	-1.5917	-1.5708	112.683	-56.727	198.303	176.729	-95.273	202.115	164.730	174.183	208.002	131.246	199.624	182.916	-22.558	104.204	209.020	176.202	0.00025897	0.00073483	0.00054861	895.21	1.7071e-05	9.0461e-06	1051.9	275.32	3.9764e-06	7.0313e-06	380.78	116.18	74.737	22.384	7.0151e-06	44.512	0.00080321	0.00081127	0.00022358	974.29	8.7639e-06	8.7624e-06	1072.1	289.13	8.9073e-06	8.88e-06	430.62	125.34	103.14	27.33	8.9927e-06	48.488	178.522	-73.499	212.489	-85.291	41.891	-91.247	-85.575	-81.582	173.713	-88.065	-82.423	-77.523	-78.105	-71.165	-11.549	-71.601	-8191	255	
19631.678	1	1	0	0	0.098567	0.24912	0.15223	0.052662	0.079141	0.019067	0.049162	0.0089845	0.24448	0.11318	0.16457	0.088309	0.17607	0.32979	0.16823	0.080749	-1.4479	-1.5208	-1.7188	-1.8646	-1.5042	-1.8813	-1.6583	-1.3833	-1.9271	-1.3646	-1.5625	-1.925	-1.4104	-1.8292	-1.7417	-1.5896	125.104	92.954	-19.574	202.650	158.560	160.013	71.719	79.989	-4.178	22.840	163.539	-3.818	42.614	80.172	171.147	38.088	0.0001575	0.0006524	0.00041603	898.35	1.2266e-06	5.1266e-06	1045.2	276.71	4.113e-06	1.0444e-05	381.16	117.54	73.479	22.28	7.0275e-06	44.39	0.00081241	0.00081365	0.00022518	975.95	8.8316e-06	8.8053e-06	1071.3	289.69	8.7622e-06	8.7512e-06	427.42	124.84	100.81	26.939	8.5962e-06	47.845	204.156	51.417	150.636	-85.085	62.995	130.933	-85.951	-81.420	193.892	162.643	-81.775	-77.800	-77.558	-71.521	164.543	-71.483	-8191	255	
19631.773	1	1	0	0	0.24169	0.030494	0.11972	0.073405	0.069995	0.14254	0.05349	0.18425	0.10629	0.35062	0.37898	0.35122	0.26227	0.21543	0.11374	0.11789	-1.4833	-1.4562	-1.6417	-1.8563	-1.5042	-1.7812	-1.8854	-1.4958	-1.8563	-1.4833	-1.5542	-2.0271	-1.3167	-1.7812	-1.8625	-1.3188	-70.569	148.430	248.594	160.692	120.745	215.034	82.060	228.661	-16.699	112.886	259.422	-40.609	22.565	33.386	-45.016	119.301	4.1169e-05	0.00049948	6.7978e-05	889.24	8.1396e-06	7.1719e-06	1057	275.58	3.5248e-06	9.3573e-06	378.44	117.49	74.827	22.251	1.231e-05	44.59	0.00077843	0.00078216	0.00021673	964.68	8.4765e-06	8.4544e-06	1070.7	286.76	8.3959e-06	8.4161e-06	422.48	124	100.01	26.705	8.3467e-06	47.651	102.390	143.532	187.732	-85.301	116.449	95.324	-85.985	-81.628	160.396	94.725	-82.247	-77.655	-77.672	-70.628	-49.732	-72.017	-8191	255	
19631.869	1	1	0	0	0.24476	0.15436	0.16853	0.23211	0.28562	0.11699	0.30392	0.20666	0.18738	0.096106	0.20235	0.14727	0.097467	0.22279	0.082683	0.19384	-1.3438	-1.5417	-1.5104	-1.6667	-1.1354	-1.6292	-1.9062	-1.5667	-1.775	-1.5812	-1.4604	-1.8167	-1.5646	-1.8271	-1.7979	-1.4042	-58.580	-22.392	68.692	88.790	-91.296	77.276	133.140	153.509	-97.536	137.918	151.359	203.574	71.051	120.696	-48.214	151.138	0.00033422	0.00084796	0.00030201	893.85	7.3013e-06	1.0478e-05	1043.1	274.8	6.8596e-06	9.6633e-06	379.55	117.33	73.341	22.215	1.3788e-05	45.02	0.0007568	0.0007629	0.00021225	962.64	8.3828e-06	8.4272e-06	1062.6	286.09	8.4138e-06	8.4346e-06	420.41	123.6	99.774	26.828	8.4319e-06	47.827	157.186	17.452	225.336	-85.119	256.750	-67.955	-85.662	-81.591	-99.033	31.513	-82.334	-77.880	-77.676	-70.960	45.614	-71.586	-8191	255	
19631.990	1	1	0	0	0.16644	0.21337	0.15229	0.024055	0.21731	0.27364	0.2691	0.35748	0.06544	0.22899	0.17254	0.041542	0.16004	0.052335	0.20447	0.079424	-1.4646	-1.5125	-1.3479	-1.9521	-1.3687	-1.4979	-1.8917	-1.5146	-1.7458	-1.5354	-1.3813	-1.9438	-1.3021	-1.5083	-1.9896	-1.5	173.517	258.192	84.744	241.849	-16.603	36.736	238.689	-95.318	34.976	172.001	-26.930	153.599	236.032	-58.390	62.454	-63.844	0.00019076	0.00016334	0.00018232	885.79	8.4595e-06	2.413e-06	1042	273.93	4.7378e-06	3.2506e-06	376.24	116.23	73.267	22.193	8.9042e-06	44.549	0.00076722	0.00076634	0.00021243	955.26	8.317e-06	8.2555e-06	1058.2	284.4	8.1185e-06	8.0993e-06	413.86	121.87	97.129	26.276	7.9954e-06	47.124	132.414	20.396	27.755	-85.568	-3.374	19.302	-85.705	-81.604	22.352	184.089	-81.767	-77.715	-77.700	-71.039	144.470	-71.630	-8191	255	
19632.062	1	1	0	0	0.079346	0.064364	0.23335	0.16107	0.24408	0.1187	0.25008	0.34051	0.26591	0.12709	0.2646	0.14038	0.26689	0.22697	0.25777	0.19393	-1.3083	-1.6958	-1.3563	-1.9458	-1.5187	-1.4354	-1.9167	-1.4396	-1.6521	-1.5979	-1.4458	-1.9646	-1.5083	-1.6208	-1.6646	-1.6396	-35.470	-59.436	131.472	-51.877	56.578	73.863	209.105	-98.286	87.383	51.682	-6.221	52.577	152.479	255.909	65.105	231.537	0.00014517	0.00073561	0.0002553	891.78	1.0666e-05	5.424e-06	1048.6	275.77	6.4763e-06	7.9503e-06	378.01	116.89	74.035	22.208	1.9978e-06	44.516	0.00072188	0.00072757	0.00020191	947.84	7.9254e-06	7.9171e-06	1060.3	283.29	7.9461e-06	7.9474e-06	412.79	122.39	97.558	26.379	8.0526e-06	47.308	141.015	-25.737	115.811	-85.318	24.308	-30.083	-85.438	-81.482	-46.916	14.277	-82.414	-77.700	-77.946	-71.378	21.305	-71.804	-8191	255	
19632.182	1	1	0	0	0.065662	0.21295	0.16117	0.25322	0.17061	0.29334	0.13189	0.16646	0.056929	0.04522	0.083354	0.18203	0.22995	0.16727	0.14355	0.26473	-1.2667	-1.8396	-1.3646	-1.9104	-1.5521	-1.3146	-2.0062	-1.5104	-1.6229	-1.8375	-1.5083	-1.7625	-1.6479	-1.4062	-2.0021	-1.675	-87.140	-79.623	254.037	136.109	40.639	187.725	220.416	256.730	104.605	208.103	234.007	-68.479	134.814	243.178	99.658	-16.358	0.00022409	0.00062852	0.00012327	900.29	6.9204e-06	5.0758e-06	1051.5	275.79	1.5014e-05	1.6418e-06	382.16	117.3	74.469	22.07	5.2374e-06	44.556	0.00072996	0.00073286	0.00020378	952.35	7.9852e-06	7.9661e-06	1062.9	284.77	7.993e-06	7.9974e-06	415.72	123	97.697	26.374	7.9858e-06	47.19	216.778	-49.411	-79.226	-85.479	-73.666	16.586	-85.523	-81.455	44.662	217.266	-82.985	-77.696	-77.522	-70.444	245.237	-71.583	-8191	255	
19632.277	1	1	0	0	0.054124	0.15411	0.13808	0.28071	0.15821	0.19195	0.22746	0.059575	0.14063	0.099333	0.32099	0.13506	0.066213	0.26944	0.15492	0.15871	-1.0542	-1.6562	-1.5021	-1.8083	-1.6208	-1.4208	-1.9354	-1.6187	-1.5396	-1.95	-1.4813	-1.5292	-1.8479	-1.4729	-1.8333	-1.5271	36.639	259.892	161.272	124.607	33.374	-53.295	166.215	-68.206	121.876	24.874	-73.618	8.285	159.007	-67.106	-95.599	222.161	0.00024956	0.00065777	0.00028282	891.02	5.8528e-06	8.2273e-06	1055.2	275.19	1.96e-06	4.3628e-06	382.93	116.68	74.101	22.343	7.4402e-06	44.117	0.00072062	0.00072381	0.00020004	950.19	7.8471e-06	7.8225e-06	1061.1	282.61	7.8144e-06	7.8474e-06	412.02	122.16	97.154	26.252	7.9772e-06	47.099	133.948	189.106	169.425	-85.045	13.094	-91.660	-85.931	-81.828	159.290	247.250	-82.685	-77.604	-76.887	-70.761	39.870	-72.121	-8191	255	
19632.373	1	1	0	0	0.29651	0.09871	0.036781	0.20072	0.19018	0.35054	0.18567	0.29868	0.17193	0.21218	0.042971	0.30551	0.18176	0.34112	0.45392	0.25077	-1.0938	-1.8917	-1.3833	-1.6979	-1.75	-1.4417	-2.0604	-1.6854	-1.3625	-2.0042	-1.4937	-1.7479	-1.8333	-1.3146	-1.9833	-1.6625	182.633	-13.853	-98.893	143.663	258.401	170.280	64.305	213.388	31.523	11.686	122.086	147.940	222.982	240.398	-79.882	143.248	0.00014012	0.00097245	0.00020381	891.75	6.9605e-06	4.8986e-06	1053.2	274.78	8.72e-06	4.031e-06	374.06	116.51	72.383	22.209	1.3491e-06	44.621	0.0007259	0.00073068	0.00020228	953.1	7.9659e-06	7.9569e-06	1061.5	283.13	7.9867e-06	7.9394e-06	413.08	122.15	96.744	26.178	7.9563e-06	47.035	210.812	122.582	8.522	-85.243	7.268	54.287	-85.880	-81.705	103.658	-72.782	-82.711	-77.677	-77.796	-70.831	193.505	-71.242	-8191	255	
19632.469	1	1	0	0	0.11858	0.011444	0.15855	0.22071	0.038089	0.18384	0.1544	0.37106	0.16135	0.26347	0.25031	0.35798	0.24944	0.19353	0.19186	0.083641	-1.0438	-1.9271	-1.5333	-1.7792	-1.8417	-1.4062	-1.9417	-1.8271	-1.2104	-1.6333	-1.3438	-1.7146	-2.0125	-1.4208	-1.6146	-1.7292	242.185	-26.488	39.742	181.959	63.409	155.676	235.700	253.698	-64.460	-13.775	-35.861	227.116	126.360	164.015	-62.809	152.851	0.00027841	0.0010771	8.1136e-05	892.09	1.8996e-06	2.427e-06	1049.1	274.18	8.3118e-06	4.9381e-06	379.27	116.38	73.894	22.041	6.4754e-06	44.487	0.00071804	0.00072039	0.00020013	946.57	7.8167e-06	7.8038e-06	1054.4	280.63	7.7196e-06	7.6381e-06	404.73	120.54	94.629	25.744	7.5466e-06	46.577	156.454	167.504	15.738	-85.473	136.109	123.321	-85.508	-81.446	-31.155	-9.968	-82.636	-77.468	-77.223	-70.968	-49.320	-71.170	-8191	255	
19632.590	1	1	0	0	0.25085	0.26648	0.0642	0.31262	0.36677	0.34214	0.23181	0.22148	0.29531	0.010967	0.28418	0.10953	0.19975	0.32422	0.088961	0.033272	-0.93958	-1.8229	-1.6208	-1.6229	-1.8896	-1.3875	-1.8917	-1.9125	-1.3271	-1.9833	-1.5562	-1.4521	-1.8042	-1.4021	-1.5479	-1.8062	230.438	145.837	215.523	193.561	-92.377	19.106	158.825	129.874	14.542	221.141	-64.084	223.704	-9.499	-13.809	73.076	-55.149	0.00016002	0.00042011	0.00026248	893.86	4.3219e-06	5.6809e-06	1057.4	276.17	5.4942e-06	4.21e-06	381.92	117.85	74.056	22.123	1.5954e-05	44.794	0.0006891	0.00069579	0.0001944	944.56	7.7348e-06	7.7642e-06	1059.9	283.78	7.8678e-06	7.901e-06	414.5	123.17	97.324	26.228	7.9588e-06	47.134	212.745	-46.991	152.412	-85.353	-44.839	25.655	-85.969	-81.745	13.036	250.351	-82.424	-77.483	-78.726	-71.354	115.997	-71.739	-8191	255	
19632.660	1	1	0	0	0.22392	0.037517	0.010071	0.067799	0.029481	0.24249	0.17112	0.30388	0.2967	0.21564	0.20773	0.29282	0.16655	0.058916	0.11163	0.12015	-0.90417	-1.6542	-1.5167	-1.6396	-1.9312	-1.6375	-1.8229	-1.8979	-1.2062	-1.8062	-1.5625	-1.4521	-1.975	-1.5104	-1.6729	-1.9396	75.822	104.459	-83.147	18.619	-92.020	-18.031	248.611	252.452	-2.867	30.579	172.551	224.541	-40.765	-78.435	223.296	76.273	0.00052938	0.0007538	0.00035742	900.56	1.2064e-05	1.1037e-05	1067.3	278.19	4.349e-06	9.2902e-06	382.34	118.56	74.717	22.306	1.0301e-05	44.868	0.00072183	0.00072512	0.0002022	958.7	7.8842e-06	7.897e-06	1068.1	286.2	7.8995e-06	7.8629e-06	414.37	123.09	97.142	26.231	7.8649e-06	47.178	184.534	17.735	-31.227	-85.498	-38.150	240.769	-85.666	-81.818	46.828	89.148	-82.238	-77.089	-76.961	-70.402	95.254	-71.475	-8191	255	
19632.758	1	1	0	0	0.20173	0.21067	0.28723	0.25845	0.1576	0.11415	0.064165	0.21901	0.19434	0.18857	0.19362	0.17982	0.091482	0.15797	0.10469	0.39916	-0.90625	-1.7417	-1.6958	-1.5708	-1.8167	-1.5562	-1.6375	-1.8438	-1.3896	-1.6771	-1.6938	-1.2917	-1.825	-1.525	-1.475	-2.1688	119.549	221.989	112.504	-84.770	161.476	85.985	219.294	215.439	-94.455	-43.423	-61.866	-14.686	-24.915	11.427	87.930	111.449	0.00035223	0.00099782	0.00010796	900.3	6.5139e-06	2.4651e-06	1054.1	277.91	4.8252e-06	1.2845e-05	378.43	117.17	73.769	22.324	4.2492e-06	44.436	0.00071837	0.00071448	0.0001988	952.85	7.8106e-06	7.8016e-06	1060	283.94	7.796e-06	7.7426e-06	410.26	121.91	95.804	26.059	7.7672e-06	46.763	135.614	-28.777	40.226	-85.015	71.687	130.064	-85.691	-81.577	7.523	258.450	-81.838	-77.485	-78.300	-70.718	240.186	-72.039	-8191	255	
19632.854	1	1	0	0	0.13964	0.10177	0.10177	0.38587	0.20626	0.22099	0.41901	0.031596	0.090231	0.19498	0.27641	0.11358	0.18235	0.036242	0.18473	0.13234	-0.95833	-1.5583	-1.6104	-1.4146	-1.8229	-1.6333	-1.6479	-1.9333	-1.5292	-1.5458	-1.8896	-1.3813	-1.7208	-1.7333	-1.3667	-2.2292	-84.168	-10.489	23.742	235.878	224.491	-76.013	229.168	196.696	-83.361	38.799	203.825	-75.068	66.097	216.222	-16.280	-90.276	0.00013081	0.000461	0.00032163	891.29	3.4607e-06	9.4465e-06	1055.6	278.45	3.1748e-06	2.2053e-06	380.67	116.88	74.133	22.085	2.4107e-06	44.33	0.00070633	0.00070834	0.00019959	948.69	7.8286e-06	7.8937e-06	1059.9	284.58	7.8658e-06	7.8623e-06	411.79	121.92	96.138	26.006	7.7665e-06	46.599	133.915	-79.522	16.212	-85.556	13.021	21.039	-85.667	-81.905	101.121	99.367	-82.371	-77.749	-77.998	-71.155	-72.096	-71.780	-8191	255	
19632.975	1	1	0	0	0.116	0.11362	0.1105	0.043464	0.20444	0.11156	0.078018	0.2494	0.21027	0.28025	0.11573	0.083465	0.16613	0.027464	0.098375	0.1174	-1.0083	-1.5333	-1.6146	-1.4354	-1.7604	-1.7042	-1.5812	-1.8458	-1.3958	-1.4708	-1.6812	-1.4083	-1.7625	-1.8687	-1.4021	-1.9375	-86.357	89.274	22.786	253.376	192.684	-50.486	144.034	199.981	43.305	139.337	51.890	150.536	-29.069	54.238	161.312	179.608	0.00051539	0.0015918	0.00032033	894.38	9.1356e-06	1.0683e-05	1055.3	275.65	1.5983e-05	1.7374e-06	381.55	117.57	73.195	22.374	5.3233e-06	44.761	0.00070556	0.00070715	0.00019683	946.97	7.7641e-06	7.6979e-06	1057.9	283.08	7.7219e-06	7.7269e-06	411.27	121.78	96.252	26.136	7.8202e-06	47.107	146.283	-73.199	201.610	-85.223	-92.363	-0.342	-85.698	-81.647	-96.821	61.732	-82.160	-77.404	-77.614	-70.729	140.968	-71.726	-8191	255	
19633.070	1	1	0	0	0.14829	0.27019	0.10401	0.057626	0.34358	0.055374	0.43912	0.11235	0.024326	0.2253	0.15552	0.20634	0.29257	0.12924	0.37241	0.073588	-1.1625	-1.4542	-1.8292	-1.5958	-1.625	-2.0042	-1.55	-1.8062	-1.6083	-1.5167	-2.0146	-1.475	-1.8729	-1.6521	-1.2687	-1.9542	-22.195	206.644	-59.913	116.631	145.413	-71.269	167.860	124.902	127.189	-92.486	208.298	250.580	155.022	-71.254	-15.753	-42.036	0.00019504	0.00074585	0.00010975	896.93	8.8101e-06	4.7524e-06	1051.7	276.58	4.8645e-06	1.0246e-05	376.2	116.9	71.986	22.058	8.4829e-06	45.073	0.00071047	0.00071528	0.00019919	947.77	7.7864e-06	7.745e-06	1057.5	281.75	7.6327e-06	7.6573e-06	404.1	121.14	94.588	25.881	7.5514e-06	46.846	132.438	105.082	27.792	-85.518	-10.883	47.532	-85.744	-81.401	44.532	116.290	-82.693	-77.366	-77.164	-71.338	69.917	-71.610	-8191	255	
19633.164	1	1	0	0	0.1482	0.10433	0.077629	0.24738	0.13306	0.18203	0.19739	0.21454	0.117	0.12357	0.12451	0.10569	0.066559	0.05633	0.15233	0.024423	-1.1187	-1.3667	-1.7646	-1.5375	-1.7812	-1.9042	-1.3542	-1.8438	-1.425	-1.3667	-2.0417	-1.6458	-1.6021	-2.0042	-1.575	-1.7917	38.490	214.013	148.828	173.518	-57.588	256.471	230.536	223.567	202.473	-93.919	246.918	194.681	61.644	225.986	185.884	85.399	0.00013373	0.00032855	0.00028825	884.47	3.7909e-06	1.0957e-05	1044.3	272.97	2.0987e-06	5.6975e-06	378.22	116.39	72.751	22.1	1.1794e-05	45.463	0.00068379	0.0006886	0.00019078	932.98	7.5114e-06	7.5292e-06	1051.5	279.38	7.513e-06	7.5013e-06	403.06	120.8	93.791	25.725	7.4817e-06	47.142	208.622	90.599	42.622	-84.698	18.997	-50.073	-85.381	-81.558	211.109	243.524	-82.206	-77.842	-78.267	-70.899	80.657	-71.406	-8191	255	
19633.264	1	1	0	0	0.24665	0.23314	0.12979	0.14105	0.27145	0.16185	0.094708	0.22519	0.074883	0.054362	0.34222	0.11066	0.13029	0.17183	0.34822	0.11069	-1.2729	-1.3687	-1.8417	-1.4646	-1.5562	-1.9583	-1.5542	-1.7375	-1.7604	-1.2375	-1.8146	-1.5771	-1.5458	-2.0062	-1.3771	-1.95	67.872	20.469	-56.612	-81.045	-26.370	8.424	254.015	163.538	-94.400	-24.609	116.341	198.883	-41.339	189.175	108.939	163.802	0.00043513	0.0012372	0.00033972	875.75	8.3108e-06	3.0627e-06	1036.8	275.35	3.3535e-06	1.1759e-05	382.37	117.88	73.943	23.192	9.4494e-06	45.973	0.00067935	0.0006924	0.00019367	930.69	7.726e-06	7.8098e-06	1047.2	285.18	8.4088e-06	8.6532e-06	432.57	127.72	107.12	29.035	1.0191e-05	51.748	165.360	23.504	-47.571	-85.066	-77.539	164.668	-85.803	-81.370	-50.863	-78.124	-82.292	-77.840	-77.371	-70.870	2.273	-71.609	-8191	255	
19633.357	1	1	0	0	0.17792	0.12551	0.31346	0.14074	0.26391	0.052232	0.25914	0.19981	0.35562	0.12935	0.14186	0.062621	0.13171	0.24649	0.12532	0.20797	-1.3083	-1.2292	-1.9542	-1.9312	-1.4229	-1.9479	-1.725	-1.8312	-1.875	-1.4229	-1.8354	-1.6917	-1.3667	-1.9021	-1.3729	-1.7458	61.387	50.605	240.830	-73.638	116.013	158.284	-95.054	-54.801	161.520	216.392	235.431	212.481	205.470	-47.270	130.767	96.219	0.00012057	0.0010959	0.000222	895.01	2.8259e-06	1.7355e-05	1046.6	284.27	9.4945e-06	4.0068e-06	392.45	121.58	81.625	25.752	3.4581e-05	49.195	0.00099881	0.0010521	0.00031093	1081.5	1.3763e-05	1.4704e-05	1197.4	346.75	1.8792e-05	2.0537e-05	697.05	183.08	217.47	52.505	3.4218e-05	91.891	205.832	0.271	-46.088	-85.376	-0.174	92.961	-86.105	-81.675	14.106	63.005	-82.791	-77.806	-78.637	-71.029	8.606	-72.493	-8191	255	
19633.453	1	1	0	131072	0.1897	0.28116	0.16169	0.15047	0.21961	0.17306	0.26218	0.24924	0.066403	0.10871	0.17414	0.30626	0.072032	0.31146	0.1524	0.069462	-1.4542	-1.4458	-1.7458	-1.9042	-1.6375	-2.1875	-1.8521	-1.85	-2.0354	-1.55	-2.0854	-2.0438	-1.7437	-2.1979	-1.7083	-1.6521	217.145	225.727	79.863	123.321	-65.833	130.104	-3.821	181.140	93.743	188.594	120.126	232.001	-97.382	239.572	56.395	137.336	0.0004153	0.0011243	0.001305	961.09	1.5909e-05	7.951e-06	1046.5	303.48	5.5774e-05	1.3997e-05	414.99	130.17	91.015	29.228	1.9059e-05	51.569	0.003706	0.0040298	0.0012147	2140.2	5.5848e-05	6.033e-05	2113.7	675.79	7.282e-05	7.6739e-05	1805.3	385.38	567.73	115.7	9.2964e-05	176.76	167.931	-83.600	-98.942	-85.523	51.542	166.248	-86.147	-81.991	15.871	62.516	-83.154	-79.018	-79.216	-72.303	-10.766	-72.984	-8191	255	
19633.549	1	1	0	131072	0.22568	0.092841	0.12393	0.1077	0.29005	0.16091	0.41327	0.1255	0.098146	0.070924	0.1593	0.1696	0.14336	0.18225	0.20581	0.1462	-1.6562	-1.5146	-1.8708	-1.8792	-1.5083	-1.8896	-1.9438	-1.7521	-2.1708	-1.7146	-2.0125	-2.0021	-1.6771	-2.0458	-1.975	-1.8083	308.210	63.067	80.357	219.217	87.248	84.213	147.089	314.194	74.472	188.274	150.439	304.831	44.945	292.494	327.071	126.703	0.00076162	0.0036893	0.00072818	299.94	4.2681e-05	1.6867e-05	0	0	1.6928e-05	4.3253e-05	0	0	0	0	3.1651e-06	0	0.0090012	0.0094933	0.0027709	3616	0.00012051	0.00012588	2560.7	863.62	0.00013755	0.00013921	2701.9	471.72	836.77	145.79	0.00014428	198.74	310.059	337.300	55.183	276.927	295.468	64.491	24.521	17.985	177.074	39.202	354.628	9.604	353.018	3.469	6.728	30.774	-8191	255	
19633.670	1	1	0	131072	0.26261	0.14515	0.2291	0.084386	0.19475	0.12798	0.3029	0.27718	0.14677	0.2591	0.31701	0.209	0.25657	0.13594	0.063177	0.013429	-1.6729	-1.6875	-1.9167	-2.0563	-1.5667	-2.2188	-1.8292	-1.7146	-1.9937	-1.9	-1.9396	-2.15	-1.6333	-2.2354	-1.8458	-1.8958	232.065	25.244	153.052	119.373	23.297	337.593	175.464	162.955	150.199	58.210	249.044	224.844	214.688	241.277	143.306	213.582	7.633e-05	0.00073235	0.00054399	0	2.5103e-05	3.421e-05	0	0	3.5227e-05	1.9865e-05	0	0	0	0	9.7736e-06	0	0.013038	0.013152	0.0036327	3699.5	0.00013947	0.00013796	2560.7	863.62	0.00013624	0.00013806	2701.9	471.72	836.77	145.79	0.00014269	198.74	337.973	299.647	72.617	355.957	205.466	155.179	24.521	17.985	103.291	272.658	354.628	9.604	353.018	3.469	211.041	30.774	-8191	255	
19633.766	1	1	0	131072	0.071947	0.15493	0.24058	0.16258	0.11653	0.19665	0.34862	0.24604	0.10074	0.14691	0.16638	0.33577	0.1712	0.09085	0.0928	0.19127	-1.7833	-1.6688	-1.8292	-1.9958	-1.6938	-2.0958	-1.8792	-1.5854	-2.1188	-1.8125	-1.7625	-2.15	-1.5958	-1.7583	-1.9708	-1.6896	250.032	166.819	-80.549	205.565	-83.557	-12.954	215.387	259.625	-16.154	196.254	203.585	237.337	-3.002	36.323	162.632	-21.895	0.00085462	0.002652	0.0012186	0.28756	4.7227e-05	4.0037e-05	88.76	98.663	8.3028e-06	3.6926e-05	445.93	112.91	104.01	31.522	3.0305e-05	20.155	0.01258	0.012561	0.0034299	3699.4	0.00011942	0.00011031	2539.3	836.08	9.7953e-05	9.59e-05	2110.9	433.01	653.29	133.09	0.00010814	193.28	25.416	32.293	25.439	-79.666	112.214	140.345	-83.744	-80.401	183.023	229.594	-83.132	-78.947	-78.142	-72.323	97.820	-70.772	-8191	255	
19633.861	1	1	0	131072	0.13088	0.16575	0.25717	0.1735	0.34367	0.1606	0.19358	0.2988	0.28213	0.1851	0.11534	0.21873	0.27034	0.22399	0.19426	0.042103	-1.525	-1.6292	-1.6833	-2.3438	-1.6562	-2.0354	-1.9208	-1.7687	-2.2562	-1.8104	-1.8167	-2.1562	-1.6792	-1.6958	-2.0104	-1.7313	259.873	105.298	263.145	288.264	115.506	200.702	103.940	136.411	4.513	152.322	18.919	144.238	206.924	81.963	50.056	241.513	0.00070378	0.0023305	0.00064125	0.66521	5.3882e-05	3.1601e-05	0	0	1.8486e-05	3.7485e-05	427.68	27.834	104.57	28.147	2.4237e-05	49.077	0.010677	0.011244	0.0032312	3699.3	0.00013092	0.00013059	2560.7	863.62	0.00012469	0.0001219	2542	464.76	719.59	135.13	0.00010244	179.68	265.844	249.369	281.528	284.036	330.628	157.194	24.521	17.985	218.260	230.659	276.539	282.483	281.233	287.288	230.857	285.950	-8191	255	
19633.957	1	1	0	131072	0.42643	0.21759	0.19703	0.10496	0.28408	0.016903	0.05692	0.22651	0.23361	0.18472	0.14345	0.12062	0.34056	0.15291	0.13421	0.11514	-1.5854	-1.8021	-1.7042	-2.1333	-1.7042	-1.8208	-1.8896	-1.6562	-1.9813	-1.7479	-1.5812	-2.0417	-1.7458	-1.7521	-1.9042	-1.5938	-76.428	96.233	-7.247	132.519	-85.021	91.856	252.185	-50.806	135.800	129.535	-84.725	107.653	147.772	-7.552	65.736	-93.446	0.0015095	0.0015265	0.0011569	1019.5	3.658e-05	5.0723e-06	840.73	317.85	2.1791e-05	1.8006e-05	408.54	133.11	93.836	29.533	1.2056e-05	50.61	0.0085275	0.0083369	0.0022366	3049.7	8.204e-05	7.8835e-05	2263.6	716.65	6.962e-05	6.6786e-05	1494	311.52	408.1	82.322	5.571e-05	116.45	117.057	6.863	-54.721	-85.291	-23.630	-90.373	-85.559	-82.047	-96.296	64.690	-82.570	-79.096	-78.090	-71.977	18.360	-72.898	-8191	255	
19634.055	1	1	0	0	0.12404	0.2634	0.021673	0.16615	0.22492	0.06909	0.036605	0.053561	0.062785	0.1977	0.13355	0.093671	0.064445	0.20508	0.3718	0.161	-1.5458	-1.8687	-1.5604	-2.0021	-1.5812	-1.6458	-2.0125	-1.5812	-1.7396	-1.8937	-1.4104	-1.9583	-1.6021	-1.7833	-1.9813	-1.5542	-9.015	-44.723	106.000	217.589	195.605	2.307	229.585	118.025	204.876	-30.636	-84.892	186.014	183.411	-73.511	-50.218	173.343	0.000161	0.0039985	0.00055329	954.04	1.7331e-05	1.2423e-05	1061.2	319	2.5586e-05	3.0761e-05	405.42	134.75	97.66	31.396	3.3774e-05	53.962	0.0048033	0.0047879	0.0013249	2151.5	5.2663e-05	5.3168e-05	1899.4	606.58	5.6006e-05	5.7262e-05	1384.4	306.42	411.42	85.695	5.8579e-05	124.9	45.936	87.543	42.796	-85.164	137.119	78.485	-85.740	-82.284	1.719	-26.511	-82.786	-78.237	-78.808	-72.350	8.337	-73.259	-8191	255	
19634.150	1	1	0	131072	0.31712	0.18909	0.19877	0.33122	0.12947	0.072657	0.008814	0.16889	0.042392	0.2333	0.14322	0.37601	0.26348	0.22022	0.31112	0.16026	-1.4583	-1.7979	-1.5438	-1.9229	-1.575	-1.6125	-2.2292	-1.7333	-1.8188	-1.9438	-1.6396	-1.8833	-1.7104	-1.6979	-1.9937	-1.7729	214.865	257.504	133.480	217.760	-49.351	2.311	50.829	211.980	183.811	143.078	8.768	167.770	164.694	183.351	69.518	-86.638	0.00022676	0.00080673	0.00021575	999.2	1.3508e-05	7.2321e-06	1117.5	344.06	1.1601e-05	1.5148e-05	441.89	153.72	114.18	37.341	1.1091e-05	61.172	0.0052727	0.0053373	0.0014823	2357.3	5.8511e-05	5.8717e-05	2041	653.35	5.9304e-05	5.9847e-05	1441.2	329.04	441.7	96.222	6.6835e-05	146.8	6.420	-3.974	80.640	-85.522	-33.298	46.967	-85.747	-81.648	-13.644	157.487	-82.953	-78.326	-78.363	-72.564	52.141	-73.629	-8191	255	
19634.244	1	1	0	131072	0.30133	0.18149	0.14683	0.10289	0.1933	0.10905	0.33013	0.19982	0.079844	0.20667	0.23396	0.19224	0.081044	0.22156	0.18456	0.15412	-1.425	-2.0021	-1.2875	-1.8708	-1.8208	-1.4875	-2.2313	-1.9833	-1.6583	-1.9271	-1.7396	-1.9354	-1.8021	-1.5187	-2.0312	-1.8521	-50.107	43.079	211.817	0.319	164.049	192.813	187.867	172.459	199.600	85.319	196.541	184.159	187.868	203.366	-17.344	243.440	0.00018351	0.00080073	0.00048496	1063.4	1.9388e-05	9.8734e-06	740.68	281.72	3.1127e-05	2.668e-05	486.75	182.64	134.14	46.616	2.815e-05	72.199	0.0064256	0.0066525	0.0018868	2845	7.6343e-05	7.6829e-05	2325	761.44	7.5483e-05	7.4376e-05	1720.5	388.87	498.93	107.57	6.6366e-05	149.78	58.800	236.504	81.495	-85.334	125.217	260.083	-84.987	-81.699	220.167	-12.773	-82.987	-79.448	-79.523	-73.785	-97.357	-73.721	-8191	255	
19634.365	1	1	0	131072	0.089334	0.057004	0.060344	0.081025	0.32054	0.34011	0.27418	0.25081	0.14337	0.093747	0.18372	0.17121	0.16007	0.11432	0.16406	0.18077	-1.1854	-2.0479	-1.5938	-1.8833	-1.8625	-1.4896	-2.0458	-1.7771	-1.5604	-1.8312	-1.5208	-2.0604	-1.9583	-1.5312	-1.8396	-1.9937	152.256	214.543	178.054	139.241	83.272	203.901	135.117	170.020	43.448	31.566	-25.780	258.446	170.252	-74.282	157.907	244.582	0.00013913	0.0029614	0.00049696	1065.6	7.5321e-06	1.5621e-05	1155.1	358.89	2.4099e-05	2.1222e-05	457.85	166.44	122.7	43.166	1.6201e-05	69.979	0.0057842	0.0057097	0.0015439	2417.7	5.7115e-05	5.5705e-05	2012.7	640.71	5.5339e-05	5.6119e-05	1399.3	329.66	429.54	97.479	6.1628e-05	144.71	193.715	-29.741	128.898	-85.016	67.936	105.274	-85.834	-81.785	93.143	-82.398	-82.129	-79.048	-78.564	-72.261	74.628	-73.189	-8191	255	
19634.463	1	1	0	131072	0.07851	0.079745	0.0097913	0.25103	0.028762	0.17268	0.098358	0.093164	0.18885	0.18357	0.15098	0.16282	0.23951	0.26851	0.28811	0.14576	-1.1583	-2.0604	-1.7208	-1.7458	-2.2229	-1.65	-1.9125	-1.9813	-1.7354	-1.9688	-1.4292	-1.8625	-1.8771	-1.7479	-1.75	-1.9979	64.287	145.628	-64.638	-91.243	97.723	214.687	258.533	192.904	192.294	208.147	181.301	169.773	197.080	-95.024	151.329	203.467	0.00051119	0.0023593	0.00057633	1074.7	2.9297e-05	4.7023e-06	696.28	262.33	3.9753e-05	4.0672e-06	462.67	155.91	123.44	44.263	2.7507e-05	64.26	0.0058764	0.006144	0.0017728	2787.2	7.5026e-05	7.7195e-05	2342.2	770.04	8.0043e-05	8.0696e-05	1857.4	408.35	572.61	123.02	8.5042e-05	173.93	73.205	-17.698	-23.984	-85.442	147.478	54.114	-85.473	-81.816	63.914	160.763	-81.936	-78.698	-78.053	-72.719	180.715	-73.289	-8191	255	
19634.559	1	1	0	131072	0.20704	0.11208	0.084564	0.036272	0.16053	0.22341	0.34513	0.28609	0.029945	0.17773	0.057986	0.33693	0.20531	0.25233	0.15348	0.1119	-1.1271	-1.9438	-1.5458	-1.6875	-1.9438	-1.4083	-1.9688	-1.825	-1.4	-1.8104	-1.5771	-1.6313	-1.8771	-1.3271	-1.65	-1.7188	-87.482	-9.844	173.763	28.763	69.680	2.206	195.612	92.665	-50.433	207.048	129.245	138.156	-76.250	218.216	63.777	97.555	0.00056329	0.0027126	0.00084875	1282.5	1.5179e-05	2.2457e-05	1193	436.97	3.5339e-05	1.9434e-05	546.45	214.09	162.6	58.083	2.9485e-05	88.841	0.0075781	0.0073368	0.001813	2731.2	5.689e-05	5.2048e-05	2135.9	666.98	4.4099e-05	4.2874e-05	1177.5	316.42	363.7	93.235	4.6332e-05	139.91	134.091	142.613	186.170	-85.378	166.039	235.198	-85.543	-81.736	82.495	132.366	-81.996	-78.263	-78.388	-71.203	-61.697	-72.179	-8191	255	
19634.631	1	1	0	131072	0.080713	0.1196	0.30321	0.22161	0.14256	0.37158	0.37627	0.3257	0.46289	0.21221	0.26788	0.10596	0.21477	0.22333	0.1645	0.21393	-1.0042	-1.7958	-1.7771	-1.5979	-1.9729	-1.575	-1.8625	-1.9083	-1.4229	-1.9375	-1.7479	-1.6396	-2.3292	-1.6021	-1.6479	-1.9813	71.870	159.269	202.701	219.876	-30.770	76.529	188.641	190.117	174.247	68.333	-46.161	252.067	109.533	183.226	-79.168	208.837	0.00073535	0.002052	0.0011176	1514.7	1.3402e-05	1.8624e-05	781.02	273.96	1.9474e-05	2.2579e-05	612.37	170.21	191.02	57.247	9.3796e-06	79.163	0.00457	0.0048457	0.0014157	2778.3	6.0607e-05	6.2954e-05	2327	777.09	6.7122e-05	6.8268e-05	1728.4	417.37	537.93	123.66	6.9427e-05	170.81	202.027	-39.110	-68.342	-85.535	223.540	46.636	-84.839	-81.357	190.479	63.277	-82.585	-78.044	-79.102	-72.253	181.235	-72.887	-8191	255	
19634.750	1	1	0	131072	0.22343	0.12318	0.16339	0.32888	0.32502	0.17567	0.14749	0.2474	0.10489	0.18871	0.093658	0.11673	0.17254	0.13566	0.081921	0.060623	-0.96667	-1.7354	-1.7854	-1.625	-1.875	-1.5583	-1.7729	-2.0833	-1.3813	-1.8438	-1.7458	-1.6375	-1.9146	-1.5604	-1.5792	-2.1083	189.267	-62.062	225.996	-60.094	-50.806	243.172	24.370	192.307	-0.941	190.488	22.423	134.239	199.795	249.155	136.358	183.661	0.00052218	0.0010656	0.0017072	1495.7	4.8042e-06	1.7235e-05	910.49	349.29	1.2488e-05	3.766e-05	544.11	198.93	154.59	54.534	2.2603e-05	80.942	0.0061536	0.0061313	0.0016788	2931.7	6.3116e-05	6.2132e-05	2270.8	736.41	6.0836e-05	6.1144e-05	1547	373.84	486.45	114.42	6.8609e-05	163.34	38.914	91.134	169.650	-85.603	218.855	176.913	-85.173	-81.267	215.338	27.206	-81.904	-78.921	-78.808	-72.518	52.118	-73.205	-8191	255	
19634.846	1	1	0	131072	0.046485	0.15321	0.2496	0.1959	0.15439	0.16288	0.48723	0.12828	0.064184	0.16433	0.25534	0.18593	0.1384	0.055609	0.42996	0.34497	-1.1667	-1.8625	-1.7563	-1.5312	-1.8438	-1.6458	-1.7458	-2.1437	-1.6417	-1.7208	-1.4292	-0.63333	-1.1229	-0.875	-0.83958	-1.1583	171.500	-30.094	-58.586	239.324	36.905	90.806	200.483	144.287	40.331	-29.452	-54.422	124.167	20.345	228.796	222.409	103.181	0.00029611	0.002271	0.00060488	1273.3	7.938e-06	2.1226e-05	982.16	352.53	1.3057e-05	1.3888e-05	330.15	8.1647	0.82554	0.040377	3.9321e-07	0.0061224	0.006185	0.006173	0.0016804	2745.2	6.3412e-05	6.2662e-05	2229.7	731.33	6.1181e-05	6.0759e-05	1132.8	20.138	2.9774	-0.046939	-1.3713e-07	-0.16406	153.363	173.797	145.097	-85.420	167.396	258.902	-85.500	-81.658	157.455	138.776	-69.135	-86.194	-16.393	-31.310	-50.348	-27.380	-8191	255	
19634.943	1	1	0	0	0.10842	0.22911	0.059568	0.042715	0.18248	0.21572	0.1607	0.16987	0.31474	0.11911	0.080265	0.17315	0.22609	0.023265	0.16626	0.40692	-0.4875	-0.97708	-1.1417	-0.68958	-1.3979	-0.77292	-0.8625	-1.3167	-0.84167	-0.96667	-1.2458	-0.56667	-1.25	-1.0146	-0.80208	-1.2667	246.429	108.921	157.139	154.579	-39.576	-46.404	95.691	264.482	-40.738	233.926	1.756	-10.601	6.081	221.841	-20.653	24.056	7.3295e-06	1.227e-05	6.2925e-06	0.0077456	1.6754e-07	2.5054e-07	0.026088	0.01052	9.2563e-08	1.2936e-07	0.036228	0.0024059	0.01193	0.0028472	1.3013e-07	0.0035684	-9.0387e-06	-7.8599e-06	-1.9112e-06	-1.6272	-5.7774e-08	-5.1543e-08	-0.78849	-0.25472	-3.8311e-08	-3.546e-08	-0.63614	-0.094204	-0.17179	-0.027399	-2.5358e-08	-0.036076	59.403	81.928	7.541	93.638	-44.008	-1.810	12.253	-32.752	280.577	-19.129	124.683	304.149	145.857	-45.383	75.010	12.535	-8191	255	
19635.062	1	1	0	0	0.040383	0.22506	0.091641	0.090975	0.12821	0.37102	0.029509	0.19965	0.11078	0.11904	0.15378	0.53171	0.051947	0.13239	0.066192	0.24441	-0.50208	-1.0604	-1.1646	-0.95208	-1.1875	-0.97083	-0.87083	-1.3771	-0.95417	-0.90208	-1.2208	-0.84375	-1.0583	-1.1063	-0.69583	-1.0083	178.925	-27.759	46.952	-13.423	14.635	-41.879	-54.562	-166.153	-73.983	-58.002	3.488	-43.464	-60.657	73.636	-41.344	-3.730	1.9864e-06	1.6366e-05	1.0481e-05	0.034266	1.3916e-07	2.7899e-07	0.01491	0.0039214	7.0114e-08	1.7537e-07	0.040059	0.0023828	0.0050222	0.0023498	1.875e-07	0.0017674	-1.9047e-06	-1.9507e-06	-5.6508e-07	-0.47984	-2.0048e-08	-1.9317e-08	-0.28931	-0.10488	-1.6212e-08	-1.5146e-08	-0.29582	-0.045048	-0.086187	-0.014692	-1.1614e-08	-0.018184	49.973	159.269	-127.175	-73.619	103.720	-36.561	-120.652	-149.661	-0.851	57.224	-6.207	100.160	180.957	-3.389	-46.567	132.300	-8191	255	
19635.158	1	1	0	0	0.25679	0.1575	0.075089	0.21263	0.09882	0.36461	0.16002	0.31808	0.08766	0.022025	0.2493	0.061588	0.1885	0.059984	0.16479	0.0347	-0.76458	-0.7625	-1.2313	-0.97083	-0.88542	-1.2542	-0.79167	-1.0875	-1.0375	-1.1021	-1.1917	-0.95417	-1.0187	-1.3042	-0.77292	-1.1833	183.414	403.325	472.481	183.085	222.732	383.126	516.935	199.267	315.850	220.027	437.467	179.224	436.650	310.605	201.080	184.972	9.3337e-06	1.0419e-05	1.772e-06	0.066477	1.0585e-07	2.431e-07	0.028567	0.0038028	3.6445e-08	1.6711e-07	0.052497	0.0056564	0.021493	0.0011717	9.801e-08	0.00052048	-9.2536e-07	-9.7536e-07	-3.3839e-07	-0.27991	-1.0685e-08	-1.2212e-08	-0.16362	-0.068966	-9.5709e-09	-9.3094e-09	-0.21508	-0.028762	-0.054372	-0.01078	-7.2162e-09	-0.013142	438.999	425.121	263.292	318.403	406.932	263.432	282.158	194.521	471.631	484.164	390.508	438.695	515.817	296.901	230.955	220.169	-8191	255	
19635.230	1	1	0	0	0.069295	0.28393	0.11897	0.034402	0.21276	0.23127	0.015608	0.31834	0.21323	0.27152	0.17042	0.20477	0.11273	0.10919	0.24964	0.090463	-0.5125	-1.0187	-1.2208	-1.0146	-0.97292	-1.2917	-0.80625	-0.96458	-0.925	-0.85	-1.3917	-0.81667	-0.9	-1.3042	-0.80417	-1.1187	50.429	-9.247	-8.290	247.087	194.060	100.189	157.928	50.515	177.867	89.597	277.119	241.160	82.877	55.673	-3.738	125.780	5.9864e-06	1.1815e-05	1.0725e-06	0.018845	1.2375e-07	4.348e-07	0.032424	0.0038214	1.7282e-07	2.9217e-07	0.007749	0.0091554	0.015814	0.0022822	1.6098e-07	0.0026575	-6.7805e-07	-6.8519e-07	-2.5071e-07	-0.19852	-7.729e-09	-8.8106e-09	-0.11869	-0.05782	-9.0015e-09	-6.9637e-09	-0.16904	-0.024923	-0.040167	-0.0090374	-6.9683e-09	-0.010703	280.951	79.299	7.578	20.360	-15.660	203.429	285.510	-0.902	71.796	334.335	175.335	151.952	222.107	67.691	137.455	121.677	-8191	255	
19635.350	1	1	0	0	0.20002	0.11825	0.085154	0.30201	0.19487	0.26472	0.18132	0.26674	0.088394	0.18957	0.12898	0.30842	0.030526	0.10942	0.13387	0.28062	-0.67292	-0.6875	-1.2708	-1.0438	-1.0312	-1.4833	-0.89583	-1.2375	-1.1146	-0.69167	-1.0896	-1.1104	-0.64167	-1.2958	-0.64167	-1.1625	194.490	393.062	457.986	339.164	109.981	246.194	368.376	270.266	137.807	194.644	363.902	169.088	133.569	394.160	409.747	440.806	8.4691e-06	9.1595e-06	9.0905e-06	0.085221	2.0919e-07	1.5053e-07	0.048293	0.017696	1.0414e-07	2.3604e-08	0.060781	0.010938	0.0035004	0.0011769	1.6863e-07	0.0024169	-5.8261e-07	-5.8622e-07	-2.1246e-07	-0.1703	-6.4255e-09	-9.6907e-09	-0.10599	-0.040358	-8.4412e-09	-5.5435e-09	-0.151	-0.020454	-0.031708	-0.0076377	-5.4535e-09	-0.0084536	463.856	124.379	174.820	205.338	393.713	310.835	279.758	122.579	206.659	455.804	236.983	450.404	343.871	114.950	411.572	430.049	-8191	255	
19635.445	1	1	0	0	0.14037	0.21962	0.16021	0.19239	0.13159	0.13788	0.46204	0.21934	0.109	0.11794	0.2938	0.17263	0.30416	0.22458	0.40611	0.38826	-0.83333	-0.94583	-1.075	-1.0229	-0.69375	-1.3021	-1.2188	-0.95	-1.0583	-0.76667	-1.1562	-1.1542	-0.77292	-1.1958	-0.8625	-0.92292	298.050	408.862	276.810	417.753	193.463	334.624	351.899	334.360	390.485	152.114	185.739	210.327	319.120	102.752	139.334	249.775	4.1851e-06	2.6992e-05	5.6646e-06	0.037027	1.6729e-07	1.3004e-07	0.030202	0.012299	2.1346e-07	2.3723e-07	0.055955	0.0071386	0.0045465	0.00059682	3.2461e-07	0.001679	-4.5646e-07	-4.7971e-07	-1.9403e-07	-0.15689	-5.2414e-09	-7.9305e-09	-0.10436	-0.035801	-7.2471e-09	-4.1049e-09	-0.12747	-0.022404	-0.024845	-0.0073782	-5.5269e-09	-0.0080493	201.245	165.434	316.764	359.325	270.300	391.124	413.002	109.929	355.471	261.955	206.249	320.944	229.097	98.789	122.480	261.842	-8191	255	
19635.543	1	1	0	0	0.2991	0.2557	0.35409	0.084049	0.091031	0.16979	0.38859	0.31621	0.31511	0.30949	0.25886	0.18511	0.083687	0.36971	0.028054	0.16006	-0.85	-0.69583	-1.1625	-1.05	-0.875	-1.3479	-1.1604	-0.88125	-1.1042	-0.66875	-1.1583	-1.0771	-0.72708	-1.2042	-1.0938	-0.78125	131.063	284.627	295.805	87.004	8.437	249.284	78.984	332.145	268.097	89.748	206.947	115.221	81.057	50.721	92.943	165.265	3.3791e-06	1.5666e-05	9.8651e-06	0.027717	7.0949e-08	2.8256e-07	0.066449	0.0037056	1.6557e-07	2.0427e-07	0.038266	0.0077334	0.011646	0.00094701	7.75e-08	0.0014409	-6.1331e-07	-4.0591e-07	-1.5602e-07	-0.16324	-4.8191e-09	-7.4079e-09	-0.098989	-0.03311	-6.7511e-09	-4.1416e-09	-0.11905	-0.023694	-0.021706	-0.006442	-6.1145e-09	-0.0075059	4.910	43.232	92.367	103.554	201.740	231.296	308.805	13.095	119.123	119.151	32.730	346.429	13.952	353.678	305.272	268.343	-8191	255	
19635.662	1	1	0	0	0.19435	0.22926	0.16394	0.077544	0.16294	0.17073	0.21247	0.17631	0.08134	0.0017448	0.13412	0.33311	0.21505	0.23616	0.29898	0.29167	-0.825	-0.85208	-1.0583	-1.1167	-0.92708	-1.1958	-0.92917	-0.875	-1.5125	-0.96667	-1.0375	-1.3146	-0.86458	-1.2521	-1.2271	-0.95625	470.387	469.268	280.903	445.430	176.191	430.640	333.879	208.417	415.800	180.000	227.491	193.659	190.277	351.402	320.557	431.907	5.3389e-06	5.7959e-06	4.8162e-06	0.031811	4.9285e-08	7.2903e-08	0.036898	0.0050368	7.7293e-08	1.044e-07	0.077035	0.0045112	0.013041	0.0012059	1.0624e-07	0.0015082	-5.0459e-07	-4.3778e-07	-1.6558e-07	-0.16442	-4.1215e-09	-6.6286e-09	-0.095244	-0.029267	-7.1185e-09	-5.2045e-09	-0.10428	-0.023274	-0.020376	-0.0060898	-5.5086e-09	-0.0063055	266.380	190.872	366.639	321.376	185.290	236.843	370.221	149.314	467.854	155.077	405.205	332.408	426.994	404.047	420.580	489.077	-8191	255	
19635.760	1	1	0	0	0.27948	0.25544	0.16047	0.17172	0.29037	0.33542	0.24282	0.19425	0.14008	0.13375	0.11255	0.20913	0.22472	0.061438	0.011912	0.1406	-0.76458	-1.0312	-0.95417	-1.2396	-0.87708	-1.2271	-1.2521	-0.92917	-1.3979	-1.0625	-1.1375	-1.2125	-0.91458	-1.2958	-1.35	-0.97917	242.542	172.182	261.400	364.938	208.202	447.862	497.305	169.876	161.684	193.874	377.061	516.095	177.332	461.016	292.247	504.294	2.5594e-06	2.2051e-05	6.049e-06	0.057148	8.1687e-08	7.163e-08	0.020127	0.0058505	2.8973e-08	1.1258e-07	0.018707	0.0064166	0.015792	0.00089809	2.8303e-07	0.0029055	-4.1164e-07	-4.3107e-07	-1.2127e-07	-0.18417	-4.3051e-09	-7.4079e-09	-0.10925	-0.021744	-6.5123e-09	-5.8275e-09	-0.10617	-0.024773	-0.026548	-0.0061825	-5.6922e-09	-0.0055347	294.109	380.392	510.826	376.013	175.437	262.395	411.090	175.266	217.801	472.374	247.812	300.747	468.842	508.203	397.822	498.080	-8191	255	
19635.830	1	1	0	0	0.24051	0.29168	0.16291	0.17138	0.21542	0.24358	0.17277	0.16489	0.082802	0.09275	0.09869	0.11904	0.14959	0.20164	0.37113	0.041404	-0.90208	-0.99792	-0.87708	-1.4354	-1.0375	-1.2125	-1.0771	-0.71458	-1.3854	-1.0125	-0.96042	-1.3125	-0.84792	-1.0562	-1.3167	-0.96667	255.176	84.929	170.966	126.684	192.424	434.444	293.547	253.687	335.753	210.778	399.962	90.640	240.842	411.622	117.331	81.947	5.74e-07	1.8098e-05	5.1195e-06	0.03901	9.5088e-08	8.1683e-08	0.022363	0.0039415	9.7467e-08	3.6867e-07	0.017981	0.0063399	0.024632	0.0011058	1.2056e-07	0.0021883	-4.0915e-07	-4.5539e-07	-1.2827e-07	-0.18112	-4.3051e-09	-6.6377e-09	-0.11071	-0.026631	-7.5869e-09	-5.122e-09	-0.081428	-0.018535	-0.020057	-0.0052463	-6.0411e-09	-0.0050292	80.866	349.715	174.222	389.744	337.089	342.930	147.093	93.307	380.668	187.323	300.735	404.145	81.860	227.766	139.583	202.746	-8191	255	
19635.928	1	1	0	0	0.16336	0.19388	0.05327	0.25781	0.19779	0.14627	0.17347	0.22687	0.062021	0.22777	0.035118	0.13989	0.1756	0.12091	0.10715	0.10169	-0.62083	-0.91042	-0.85208	-1.2333	-1.0438	-1.2583	-1.3937	-0.73125	-0.93542	-1.2771	-0.85625	-1.1688	-0.97917	-1	-1.2354	-0.84375	64.514	41.372	108.874	213.028	272.274	265.366	82.265	152.044	154.330	299.299	89.662	-43.311	163.829	-24.337	52.148	101.215	5.8555e-06	2.5143e-06	7.6712e-06	0.10675	1.2655e-07	1.5878e-07	0.017585	0.0041173	2.1937e-07	2.6931e-07	0.042434	0.0054185	0.013413	0.00069311	1.6307e-07	0.00015708	-4.3571e-07	-5.0907e-07	-8.8855e-08	-0.16395	-4.0113e-09	-4.8408e-09	-0.11657	-0.024215	-5.6489e-09	-6.1757e-09	-0.0749	-0.018775	-0.026388	-0.0045326	-6.5185e-09	-0.0053072	210.090	150.270	290.193	290.767	-8.044	54.648	268.234	-40.268	275.807	144.787	-49.580	152.159	214.252	39.930	5.653	-18.885	-8191	255	
19636.047	1	1	0	0	0.30421	0.22991	0.29	0.11707	0.17877	0.1279	0.15796	0.35152	0.15653	0.18744	0.15274	0.18291	0.14606	0.34918	0.041207	0.24346	-0.76667	-1.2146	-0.85208	-1.2333	-0.9375	-0.925	-1.3667	-0.78542	-1.3146	-1.1125	-0.86667	-1.2938	-1.125	-0.89375	-1.3563	-1.0458	226.670	115.106	49.681	105.052	131.405	-71.266	49.213	82.037	73.486	-78.969	243.146	162.840	-36.293	104.647	-9.212	-75.493	2.1261e-06	1.9251e-05	7.1857e-06	0.062278	1.5734e-07	1.1675e-07	0.025979	0.001192	1.7199e-07	1.1854e-07	0.018568	0.0031616	0.011393	0.00069984	7.3372e-08	0.0033879	-2.7802e-07	-5.292e-07	-9.9583e-08	-0.17594	-4.7641e-09	-4.7308e-09	-0.10892	-0.017626	-5.5295e-09	-5.2961e-09	-0.087269	-0.020664	-0.028303	-0.0044862	-6.5277e-09	-0.0063055	216.131	-59.435	33.562	144.306	150.064	82.399	-69.042	-76.514	-46.287	90.397	178.364	-24.545	-52.540	98.084	264.309	189.552	-8191	255	
19636.143	1	1	0	0	0.095314	0.064715	0.089124	0.23324	0.11217	0.27317	0.21719	0.096518	0.14023	0.054383	0.07553	0.22382	0.1227	0.17816	0.13113	0.080001	-0.65208	-1.2167	-0.85625	-1.2604	-0.975	-0.95208	-1.2563	-0.85417	-1.0333	-1.4083	-0.75	-1.2938	-1.1083	-0.9625	-1.2417	-0.98958	-95.927	-63.444	105.170	206.282	29.489	121.125	172.045	156.500	-109.943	115.327	28.866	-123.895	28.542	7.142	-94.188	101.965	2.8021e-06	2.0024e-05	3.4983e-06	0.03665	2.0456e-07	1.9392e-07	0.019105	0.0037978	1.8879e-07	2.5715e-07	0.042264	0.0032453	0.0025802	0.0017219	1.5857e-07	0.0045555	-3.3197e-07	-5.2081e-07	-9.0021e-08	-0.16747	-4.6906e-09	-4.4649e-09	-0.10843	-0.021524	-4.6201e-09	-6.2124e-09	-0.061673	-0.019555	-0.032826	-0.0044862	-6.5001e-09	-0.0059769	161.616	18.220	-1.942	-83.181	-37.995	169.854	39.431	-135.551	-112.781	-49.944	-15.356	82.372	-39.180	-43.931	-138.417	91.770	-8191	255	
19636.238	1	1	0	0	0.11773	0.24602	0.28473	0.11773	0.1491	0.04241	0.064246	0.20276	0.37167	0.18447	0.12425	0.15539	0.19629	0.26909	0.058193	0.11088	-0.57917	-1.2563	-0.83333	-1.2563	-1.2375	-0.88333	-1.2458	-0.96042	-0.98958	-1.3625	-0.99167	-1.3146	-1.1521	-0.89375	-1.1938	-1.1042	324.498	413.630	155.522	420.779	168.801	179.004	348.190	404.369	142.524	359.927	97.158	241.602	354.525	427.745	434.086	143.859	8.1314e-06	4.9995e-06	1.3308e-06	0.044836	7.3586e-08	1.3054e-07	0.033673	0.0062631	1.8085e-07	2.0501e-07	0.01516	0.0020003	0.017605	0.0010903	2.828e-07	0.0043563	-3.1786e-07	-5.8455e-07	-9.3986e-08	-0.13548	-5.3699e-09	-4.1898e-09	-0.093453	-0.030145	-4.7671e-09	-6.3773e-09	-0.067513	-0.015776	-0.031549	-0.003031	-6.5368e-09	-0.0061286	274.104	345.741	349.950	287.595	220.838	308.509	164.886	114.351	295.715	412.336	396.613	116.814	124.886	191.975	341.072	270.079	-8191	255	
19636.334	1	1	0	0	0.063984	0.072168	0.19277	0.24375	0.090537	0.14477	0.23797	0.06786	0.17523	0.24237	0.27296	0.10011	0.063794	0.29912	0.20855	0.0039827	-0.66042	-1.2417	-0.73333	-1.075	-1.3687	-0.94792	-1.2375	-1.1063	-0.9875	-1.4417	-0.84375	-1.1833	-1.1583	-1.0354	-1.2875	-0.95208	347.930	462.156	455.213	232.617	164.014	472.601	243.539	443.237	291.315	178.328	354.654	439.325	131.469	344.211	486.171	449.339	3.7594e-06	1.3711e-06	3.3225e-06	0.032035	1.8435e-07	4.2883e-08	0.012339	0.006288	1.5171e-07	2.5233e-07	0.035295	0.0049504	0.0058186	0.0037099	1.2841e-07	0.0017248	-2.357e-07	-5.4681e-07	-8.9788e-08	-0.1503	-5.0303e-09	-3.5481e-09	-0.11543	-0.029431	-4.0231e-09	-6.8721e-09	-0.074385	-0.019225	-0.033251	-0.0033461	-6.1237e-09	-0.006356	158.024	159.138	231.331	208.425	332.683	291.032	438.530	147.821	405.729	152.115	380.478	453.901	187.828	243.507	430.783	390.351	-8191	255	
19636.455	1	1	0	0	0.15766	0.080661	0.12588	0.3754	0.19189	0.3398	0.19439	0.10523	0.22621	0.29649	0.1253	0.10553	0.1273	0.069992	0.37836	0.19338	-0.475	-1.275	-0.825	-1.0833	-1.2583	-0.91875	-1.1042	-0.9125	-0.86458	-1.4979	-0.75417	-1.0187	-1.4396	-0.80833	-1.2292	-0.99167	316.991	110.268	299.854	351.021	319.246	329.427	322.872	112.736	344.049	245.118	257.140	145.449	323.804	339.441	157.143	88.409	3.4217e-06	1.5622e-05	6.7761e-06	0.019089	1.5602e-07	7.3307e-08	0.0034227	0.0024253	1.6167e-07	1.2551e-07	0.0072988	0.011418	0.0067631	0.0016112	3.0796e-07	0.00044479	-1.6183e-07	-5.6358e-07	-1.1964e-07	-0.12913	-5.9482e-09	-2.9705e-09	-0.09443	-0.024874	-3.5363e-09	-6.643e-09	-0.081772	-0.014726	-0.029048	-0.0031144	-5.9493e-09	-0.0072406	396.262	168.534	426.336	96.620	173.651	218.703	154.693	103.726	330.649	232.090	390.609	270.553	179.494	349.350	120.825	322.137	-8191	255	
19636.525	1	1	0	0	0.10099	0.29181	0.089314	0.043983	0.33991	0.27613	0.048554	0.15282	0.22529	0.11545	0.23491	0.28496	0.22421	0.19363	0.091644	0.3295	-0.36042	-1.2563	-0.92292	-0.975	-1.2917	-0.7875	-0.91667	-0.92708	-0.79167	-1.1812	-1.0021	-1.075	-1.3792	-1.0271	-1.3062	-1.1812	181.574	203.285	77.155	-57.463	107.125	204.011	4.115	122.185	-102.157	98.934	4.799	1.232	-134.463	41.695	57.511	-62.925	2.0796e-06	1.6199e-05	6.8238e-06	0.05391	1.0523e-07	2.1056e-07	0.050574	0.0047856	9.4381e-08	2.2116e-07	0.023635	0.0070702	0.011427	0.0013971	1.4067e-07	0.0032795	-1.4026e-07	-6.2145e-07	-9.4219e-08	-0.098555	-5.5351e-09	-3.3189e-09	-0.093453	-0.030914	-4.0323e-09	-5.6992e-09	-0.077134	-0.012986	-0.036497	-0.0027993	-4.6088e-09	-0.0079987	195.608	-24.040	17.788	84.557	169.386	61.452	130.245	-120.880	205.552	139.061	-121.442	21.797	20.166	-1.013	-50.681	11.298	-8191	255	
19636.623	1	1	0	0	0.12274	0.26343	0.058004	0.2231	0.17664	0.11641	0.051318	0.11943	0.052554	0.12234	0.3972	0.079963	0.12077	0.11505	0.20517	0.15685	-0.38542	-1.2125	-1.0542	-0.97917	-1.3937	-1.0125	-1.1271	-1.1833	-0.86458	-1.2792	-1.2437	-0.87083	-1.5146	-1.0042	-1.0208	-1.0625	308.226	460.953	446.262	133.068	470.647	314.150	169.642	241.020	150.894	363.292	375.264	228.348	130.553	353.864	317.238	225.096	5.0194e-06	1.7827e-05	6.9924e-06	0.082321	2.8762e-07	2.972e-07	0.012235	0.019734	7.9248e-08	2.2426e-07	0.016849	0.011725	0.0092972	0.001617	7.1505e-08	0.0018353	-1.3445e-07	-5.4261e-07	-1.2454e-07	-0.085618	-6.4163e-09	-4.1073e-09	-0.080917	-0.03311	-2.6729e-09	-5.2869e-09	-0.075759	-0.0098973	-0.034528	-0.0038838	-4.1773e-09	-0.0068867	225.047	437.417	218.401	131.616	262.729	350.271	385.556	137.251	358.647	164.666	226.866	298.364	258.961	237.396	407.493	324.298	-8191	255	
19636.742	1	1	0	0	0.14079	0.20926	0.11506	0.072815	0.10135	0.13495	0.028992	0.096565	0.27465	0.24171	0.10452	0.14502	0.1815	0.25187	0.26784	0.12368	-0.3625	-1.1917	-0.82917	-0.70833	-1.2417	-0.98542	-1.0792	-1.1083	-0.95417	-1.2521	-1.2917	-0.78125	-1.2687	-0.92708	-0.91875	-1.2604	219.823	-94.697	-35.271	-95.008	155.946	141.468	-73.344	-68.800	164.141	209.363	36.726	-74.442	221.738	187.044	22.668	75.996	6.514e-06	1.3486e-05	3.8117e-06	0.062806	2.3539e-07	1.6016e-07	0.044319	0.009423	7.8509e-08	1.0764e-07	0.02036	0.0060394	0.014858	0.00094162	1.3097e-07	0.0032997	-1.2366e-07	-4.8223e-07	-1.1544e-07	-0.096674	-5.9206e-09	-3.4014e-09	-0.067566	-0.02998	-2.8015e-09	-5.3511e-09	-0.092767	-0.0098973	-0.032879	-0.0043101	-4.2141e-09	-0.008719	151.228	120.347	147.823	107.954	-95.632	-24.802	167.876	-102.222	33.131	169.876	-108.425	-71.015	26.808	126.896	213.387	-24.356	-8191	255	
19636.840	1	1	0	0	0.30952	0.062693	0.1361	0.35541	0.080345	0.17334	0.20058	0.20001	0.070417	0.076868	0.32241	0.101	0.1307	0.025927	0.18912	0.2079	-0.37917	-1.0646	-1.1771	-0.71042	-1.1708	-1.0896	-0.95417	-1.325	-0.79375	-1.1083	-1.3604	-0.67292	-1.2125	-0.99375	-1.1208	-1.2104	468.313	183.868	410.548	419.880	367.126	294.399	410.346	464.915	490.377	289.019	248.968	414.008	354.219	166.411	443.002	358.664	4.8881e-06	2.1712e-05	4.0837e-06	0.030638	2.0025e-07	1.0127e-07	0.050407	0.0034634	6.7379e-08	1.9015e-07	0.038587	0.0086748	0.01111	0.0025511	2.3809e-07	0.0023529	-7.3863e-08	-4.2688e-07	-1.348e-07	-0.083031	-7.1323e-09	-4.2999e-09	-0.059914	-0.035417	-3.1505e-09	-4.8105e-09	-0.10204	-0.0093574	-0.035645	-0.0045511	-3.3143e-09	-0.0080366	224.977	495.564	242.596	358.051	294.843	232.731	413.230	157.799	385.198	140.059	182.726	200.265	352.938	375.967	371.215	249.402	-8191	255	
19636.936	1	1	0	0	0.14122	0.21265	0.071277	0.26412	0.19915	0.11988	0.31727	0.11861	0.068774	0.22168	0.24846	0.022615	0.33249	0.18346	0.13838	0.15138	-0.64167	-1.1333	-1.1042	-0.85	-1.0917	-1.3292	-0.63125	-1.2313	-1.0208	-1.225	-1.2646	-0.92292	-1.3229	-1.0875	-0.90208	-1.3333	289.515	185.937	190.048	419.846	159.124	471.862	240.725	322.291	264.068	193.529	328.308	142.373	240.021	415.613	288.146	274.027	6.652e-06	8.796e-06	1.1096e-05	0.02398	2.1663e-07	2.0721e-07	0.057385	0.01461	6.5944e-08	1.5703e-07	0.019487	0.0033838	0.018373	0.0022907	2.2199e-07	0.0035216	-1.552e-07	-4.2269e-07	-1.1404e-07	-0.063743	-5.1496e-09	-4.2174e-09	-0.046401	-0.035526	-3.8945e-09	-3.6926e-09	-0.10101	-0.0085477	-0.028995	-0.0047272	-3.3419e-09	-0.0088201	352.234	206.685	207.661	317.099	215.053	238.448	387.732	137.716	268.817	353.860	342.542	266.776	196.217	257.590	160.751	206.241	-8191	255	
19637.031	1	1	0	0	0.15226	0.30841	0.16428	0.31052	0.19382	0.34757	0.069962	0.11938	0.21113	0.13469	0.23754	0.10674	0.21703	0.1473	0.12853	0.22329	-0.51667	-1.0271	-1.4042	-0.70833	-1.15	-1.2271	-0.71458	-1.2708	-1.0708	-0.99583	-1.2812	-1.0063	-1.1833	-1.2354	-0.88958	-1.2521	-79.354	105.046	61.259	122.575	111.810	150.673	106.666	8.951	-62.867	-144.270	75.519	-90.332	-140.201	184.219	110.116	-157.593	3.2939e-06	3.0432e-05	3.612e-06	0.045905	2.3725e-07	1.2075e-07	0.021419	0.0095019	1.9505e-07	2.026e-07	0.024143	0.0060337	0.0039202	0.0027472	1.7148e-07	0.0065394	-1.6432e-07	-3.514e-07	-1.341e-07	-0.068683	-4.7365e-09	-5.7943e-09	-0.04868	-0.032836	-4.3262e-09	-4.2973e-09	-0.10153	-0.010737	-0.029155	-0.0050239	-2.9104e-09	-0.0079356	-50.127	177.917	64.608	-66.923	15.604	84.984	109.963	-143.958	113.954	87.008	3.323	169.211	-21.851	-122.181	-145.347	129.989	-8191	255	
19637.129	1	1	0	0	0.1638	0.091704	0.083034	0.16433	0.24662	0.113	0.45292	0.12985	0.18974	0.22377	0.11082	0.16717	0.12473	0.13423	0.22784	0.13001	-0.64583	-0.92917	-1.2354	-0.90208	-1.0479	-1.3292	-0.65417	-1.2125	-1.1688	-0.86042	-1.3542	-1.0229	-1.2354	-1.4292	-0.88125	-1.2042	-32.630	49.170	209.739	-0.839	93.371	-118.785	-70.332	24.211	40.320	-67.572	-29.760	67.454	-20.174	-64.260	138.322	47.150	5.9113e-06	1.604e-05	4.5618e-06	0.087613	4.874e-08	1.2389e-07	0.028889	0.012067	7.9188e-08	3.227e-07	0.036227	0.0057835	0.017629	0.003987	8.1646e-08	0.00090521	-2.1329e-07	-3.5895e-07	-1.3433e-07	-0.09291	-4.1858e-09	-5.0792e-09	-0.052099	-0.034648	-4.5558e-09	-4.0316e-09	-0.11957	-0.010887	-0.020589	-0.0044862	-1.8454e-09	-0.0077586	178.262	37.143	150.633	-22.760	104.474	169.767	-25.359	-107.830	-32.706	122.528	-100.632	-7.048	77.768	63.764	-44.145	90.669	-8191	255	
19637.223	1	1	0	0	0.2532	0.079877	0.27648	0.21216	0.1847	0.16656	0.17852	0.12079	0.12556	0.14098	0.25623	0.22078	0.062031	0.29402	0.25	0.047816	-0.60625	-0.72708	-1.2208	-0.84792	-1.1271	-1.3375	-0.73125	-1.2271	-1.2104	-0.91458	-1.1542	-0.9375	-1.0354	-1.2333	-0.76667	-1.2667	157.937	325.514	353.952	388.226	299.776	391.864	400.898	240.687	168.627	253.143	241.078	436.173	144.603	340.829	150.815	347.787	1.6245e-06	2.2041e-05	7.7065e-06	0.027558	1.1226e-07	1.3922e-07	0.030644	0.019606	9.1996e-08	2.4398e-07	0.075679	0.0043556	0.013162	0.0020182	1.5466e-07	0.0043679	-2.5645e-07	-3.1869e-07	-1.7025e-07	-0.096203	-3.0567e-09	-5.7943e-09	-0.061542	-0.031353	-5.3458e-09	-3.2436e-09	-0.097233	-0.012177	-0.024154	-0.0060435	-2.7543e-09	-0.0064445	202.009	172.766	178.635	479.068	486.751	481.590	437.832	146.536	130.574	373.383	354.770	288.735	304.515	409.901	240.413	210.662	-8191	255	
19637.344	1	1	0	0	0.19102	0.24079	0.1282	0.11195	0.14953	0.35935	0.062423	0.12843	0.072028	0.092185	0.33052	0.24695	0.15187	0.21066	0.29814	0.21654	-0.77083	-0.84792	-1.4042	-1.1375	-0.82292	-1.2854	-0.85625	-1.0271	-1.3375	-0.93542	-1.4188	-1.0396	-0.85417	-1.2437	-1.0146	-1.2125	310.176	357.582	105.493	288.573	299.351	98.000	155.970	51.133	144.176	119.550	212.718	127.494	312.206	335.628	110.500	134.939	1.1374e-05	1.2846e-05	2.681e-06	0.028381	2.4725e-07	9.5755e-08	0.043369	0.014068	4.1613e-07	1.5896e-07	0.066725	0.0040772	0.0082641	0.0016479	1.1595e-07	0.0006786	-3.2616e-07	-2.5663e-07	-1.5136e-07	-0.11925	-3.791e-09	-6.4636e-09	-0.058449	-0.023282	-5.4192e-09	-3.5368e-09	-0.088987	-0.014306	-0.021228	-0.0057468	-2.5523e-09	-0.0067098	394.044	261.981	212.474	214.046	82.219	307.386	352.189	67.503	330.735	331.864	76.257	254.779	251.410	350.767	334.118	160.468	-8191	255	
19637.439	1	1	0	0	0.21309	0.31422	0.22475	0.17467	0.054035	0.20913	0.10691	0.32315	0.12895	0.31301	0.026322	0.083087	0.14523	0.12995	0.093373	0.1938	-0.88333	-0.8125	-1.1625	-1.0708	-0.92083	-1.3604	-0.96875	-1.1125	-1.3188	-0.89375	-1.275	-1.1021	-1.0521	-1.4875	-1.0688	-1.0063	197.108	381.206	158.135	466.097	333.649	284.797	419.453	404.969	383.870	319.882	192.181	319.747	193.980	300.828	195.312	345.031	5.614e-06	1.482e-05	8.8861e-06	0.075834	1.6481e-07	2.2239e-07	0.061966	0.015796	1.6293e-07	3.5161e-07	0.058675	0.010486	0.0070347	0.0025933	1.0234e-07	0.0024813	-3.5355e-07	-3.2288e-07	-1.3223e-07	-0.11972	-3.4698e-09	-6.0235e-09	-0.066752	-0.025039	-5.2172e-09	-3.491e-09	-0.10891	-0.015536	-0.0191	-0.0062381	-4.9026e-09	-0.0059769	224.141	224.456	335.019	422.569	428.354	404.800	395.785	172.016	318.420	470.407	416.712	222.069	158.815	203.138	260.536	470.848	-8191	255	
19637.535	1	1	0	0	0.24072	0.12976	0.1081	0.12496	0.11039	0.069041	0.12564	0.27386	0.14824	0.20369	0.35029	0.15518	0.14073	0.22535	0.16278	0.11918	-0.83958	-0.82292	-1.3542	-1.1521	-0.91667	-1.4104	-1.0146	-1.0167	-1.3896	-1.0187	-1.1979	-1.1417	-0.99375	-1.5458	-1.2542	-1.0958	157.105	423.897	342.517	424.917	235.772	373.150	192.125	361.588	272.171	314.556	428.676	165.306	238.085	306.425	308.613	334.672	4.2428e-06	1.5017e-05	9.1036e-06	0.044642	3.7096e-08	8.5927e-08	0.025622	0.018355	1.1104e-07	3.2336e-07	0.01148	0.0089286	0.0064035	0.0021118	2.8798e-07	0.0024083	-3.1869e-07	-3.0108e-07	-1.2897e-07	-0.14607	-3.5799e-09	-6.5644e-09	-0.097686	-0.022678	-5.805e-09	-2.7305e-09	-0.10273	-0.018685	-0.016014	-0.0055985	-4.719e-09	-0.0046122	370.045	341.029	172.445	400.960	465.352	161.982	471.913	153.189	385.887	175.447	468.638	336.132	138.257	180.137	486.092	305.088	-8191	255	
19637.631	1	1	0	0	0.14576	0.48593	0.17734	0.28104	0.088391	0.074794	0.17906	0.17971	0.19457	0.31363	0.24996	0.04151	0.04934	0.073322	0.13725	0.2463	-0.71458	-0.98542	-1.0625	-1.3021	-1.0292	-1.2854	-1.1146	-0.83542	-1.3729	-1.0917	-1.0771	-1.4083	-0.63333	-1.3354	-1.3125	-0.94167	205.339	451.601	418.747	277.740	361.330	221.694	345.090	155.033	383.814	346.071	257.701	290.223	151.413	326.756	289.715	475.238	5.3738e-06	9.0582e-06	3.8457e-06	0.034812	1.8148e-07	8.4275e-08	0.030567	0.013126	7.7503e-08	1.6777e-07	0.040409	0.0038716	0.0074782	0.0018885	2.5554e-07	0.0028684	-3.0458e-07	-3.2708e-07	-1.243e-07	-0.15336	-3.0842e-09	-6.6011e-09	-0.077823	-0.020756	-5.5295e-09	-3.4819e-09	-0.077477	-0.018595	-0.018195	-0.0059971	-4.5813e-09	-0.004549	231.684	123.152	172.479	406.705	388.322	284.459	215.323	134.487	443.575	305.758	166.394	174.693	306.661	214.627	447.054	286.179	-8191	255	
19637.752	1	1	0	0	0.14127	0.16482	0.15768	0.063471	0.065326	0.28507	0.19351	0.28832	0.19898	0.0090596	0.26078	0.14387	0.075425	0.28491	0.33605	0.17998	-0.83333	-0.9625	-1.1396	-1.2833	-0.94792	-1.4062	-1.2437	-0.90208	-1.4188	-1.125	-1.2396	-1.2667	-0.85625	-1.2646	-1.1771	-0.74375	451.470	445.124	276.096	344.754	427.191	256.530	343.596	273.349	168.099	316.639	471.258	209.888	299.340	391.456	368.466	298.865	3.7236e-06	1.4759e-05	7.5103e-06	0.025114	7.874e-08	2.3614e-07	0.010502	0.0094592	3.1725e-08	4.823e-08	0.052241	0.0056563	0.015781	0.0016062	2.0965e-07	0.0029957	-3.3944e-07	-2.994e-07	-1.3153e-07	-0.17524	-3.378e-09	-5.4459e-09	-0.093616	-0.016747	-5.6764e-09	-3.546e-09	-0.080398	-0.017905	-0.016652	-0.0060991	-5.2607e-09	-0.0054083	473.996	445.650	265.073	336.029	484.965	142.264	385.543	143.664	461.453	364.366	427.392	241.616	353.967	279.031	216.084	450.057	-8191	255	
19637.824	1	1	0	0	0.38795	0.25068	0.033327	0.32504	0.090491	0.23688	0.19599	0.34275	0.099565	0.2797	0.19182	0.065756	0.16167	0.12627	0.092769	0.13808	-0.92917	-1.0375	-1.0771	-1.3833	-0.91458	-1.3417	-1.2208	-0.86667	-1.4021	-1.1271	-1.0229	-1.3208	-0.90417	-1.1375	-1.1833	-0.79583	258.115	359.703	257.996	288.526	431.800	338.184	444.461	303.390	475.899	217.065	279.659	189.557	452.843	280.809	407.588	267.519	5.5298e-06	1.4421e-05	2.7881e-06	0.0093571	1.5458e-07	2.2351e-07	0.034088	0.015068	7.5237e-08	1.9104e-07	0.089079	0.0058192	0.0014016	0.0020923	2.3736e-07	0.0025916	-3.7015e-07	-3.7069e-07	-9.7484e-08	-0.14936	-3.378e-09	-5.29e-09	-0.089057	-0.022678	-6.2459e-09	-4.0774e-09	-0.061673	-0.018565	-0.020908	-0.0048292	-6.1145e-09	-0.0049281	322.144	467.638	432.526	344.402	216.591	482.827	451.156	152.491	197.637	236.806	203.907	152.992	168.928	189.841	389.201	241.468	-8191	255	
19637.920	1	1	0	0	0.058188	0.30463	0.16941	0.20808	0.088253	0.3111	0.1299	0.10854	0.14005	0.31809	0.21676	0.17752	0.12972	0.29426	0.11773	0.23221	-0.94792	-1.0521	-0.88333	-1.5271	-0.8875	-1.1542	-1.3896	-0.75417	-1.4292	-1.1042	-0.875	-1.4937	-1.0458	-1.1042	-1.4667	-0.99583	-117.796	170.526	-145.591	-171.680	-99.905	-14.285	9.996	-130.765	83.143	-165.892	-25.989	59.901	160.851	-115.508	-132.101	49.656	1.0417e-05	6.9758e-06	8.3388e-06	0.068702	5.4053e-08	1.9957e-07	0.032394	0.014125	7.5747e-08	2.1495e-07	0.043974	0.0056886	0.0034267	0.00069878	3.5547e-07	0.0037278	-3.1371e-07	-4.1346e-07	-9.8183e-08	-0.16559	-3.6258e-09	-4.9875e-09	-0.091337	-0.022458	-5.1621e-09	-5.0762e-09	-0.064078	-0.018505	-0.022398	-0.0046067	-6.3808e-09	-0.0043469	28.363	-82.144	-1.698	50.918	-30.376	8.118	109.684	-154.349	-18.646	-21.329	59.648	-63.837	103.589	114.891	-123.342	-166.427	-8191	255	
19638.016	1	1	0	0	0.34202	0.19762	0.16637	0.10512	0.13507	0.20002	0.18204	0.31759	0.075286	0.13586	0.26662	0.24253	0.071757	0.17738	0.29739	0.13431	-0.91667	-0.95625	-0.8125	-1.2667	-1.0479	-0.99167	-1.425	-1.025	-1.2437	-1.2604	-0.85417	-1.1938	-1	-0.87917	-1.5688	-0.91042	258.966	246.635	408.772	381.462	244.872	336.353	152.823	151.264	208.496	420.415	214.717	343.976	124.566	251.714	357.275	94.988	3.5627e-06	2.6557e-05	8.5218e-06	0.0093569	3.2522e-07	1.521e-07	0.0077372	0.021486	5.6527e-08	1.7401e-07	0.042003	0.00072928	0.017588	0.0017113	1.1904e-07	0.0027713	-3.4608e-07	-4.3527e-07	-9.7484e-08	-0.14583	-4.1674e-09	-4.0707e-09	-0.10697	-0.020536	-4.9141e-09	-5.1037e-09	-0.052911	-0.020814	-0.025484	-0.0033832	-5.8942e-09	-0.005004	384.397	100.110	300.068	265.006	439.958	413.580	431.935	110.452	263.823	202.675	204.673	180.937	251.692	214.436	408.293	229.224	-8191	255	
19638.111	1	1	0	0	0.054864	0.23289	0.085299	0.24207	0.19017	0.2858	0.13427	0.085236	0.11577	0.26539	0.18731	0.153	0.22409	0.26568	0.18976	0.26122	-0.78958	-1.2625	-0.84375	-1.3625	-1.1917	-1.0104	-1.3396	-0.85208	-1.1292	-1.3479	-0.73958	-1.2667	-0.98125	-1.0479	-1.4792	-0.89167	291.355	310.203	69.885	124.333	82.936	255.454	228.736	233.122	65.065	103.722	215.261	352.956	187.544	325.820	253.047	101.285	6.1445e-06	1.6124e-05	2.8975e-06	0.033223	1.0939e-07	1.6229e-07	0.053384	0.0081126	1.2016e-07	1.168e-07	0.011392	0.005359	0.0079639	0.0021479	1.2902e-07	0.004407	-3.2201e-07	-4.9313e-07	-7.6028e-08	-0.13431	-4.3326e-09	-3.6306e-09	-0.11104	-0.019273	-5.107e-09	-5.8275e-09	-0.052396	-0.015806	-0.026654	-0.0030125	-6.4634e-09	-0.005522	227.118	274.615	85.374	346.561	126.472	388.830	338.487	47.322	306.449	44.451	242.864	94.845	195.227	52.826	377.495	210.344	-8191	255	
19638.230	1	1	0	0	0.017744	0.24871	0.1262	0.2447	0.27341	0.19042	0.13298	0.14986	0.12113	0.11656	0.27064	0.18289	0.062103	0.035434	0.044846	0.21325	-0.4	-1.2917	-0.7	-1.1979	-1.1292	-1.0354	-1.325	-0.96042	-1.2292	-1.4688	-0.85208	-1.1854	-1.2021	-0.75625	-1.4083	-0.94375	136.234	224.200	196.199	273.874	300.108	107.539	152.802	194.642	42.410	20.084	90.163	178.269	6.252	-37.946	251.774	220.099	9.3548e-07	1.5277e-05	3.6795e-06	0.016335	7.889e-08	1.0517e-07	0.02174	0.018296	1.2711e-07	1.0891e-07	0.052988	0.0078043	0.017799	0.00027481	1.7539e-07	0.0031352	-2.5562e-07	-5.5771e-07	-8.7456e-08	-0.12819	-4.8191e-09	-3.5389e-09	-0.1169	-0.02136	-4.9508e-09	-6.8446e-09	-0.049991	-0.016106	-0.031655	-0.0027993	-6.0778e-09	-0.0066972	86.422	38.532	-26.087	8.852	283.100	207.899	18.680	-24.302	274.092	-5.236	144.581	143.203	45.552	41.424	63.026	227.449	-8191	255	
19638.326	1	1	0	0	0.17367	0.17652	0.19454	0.097636	0.23067	0.2109	0.14791	0.062832	0.14886	0.20153	0.1634	0.12593	0.23839	0.23728	0.15157	0.15555	-0.68333	-1.5292	-1.1021	-1.0104	-1.1792	-0.84792	-1.3708	-1.0021	-1.0812	-1.3042	-0.97917	-1.1187	-1.225	-1.0458	-1.2958	-1.1896	26.661	-33.327	-62.087	-102.721	-153.153	89.468	19.435	161.028	-76.575	117.086	161.613	-176.258	140.895	108.564	-165.131	138.754	1.769e-06	9.6956e-06	4.6711e-06	0.037834	6.7119e-08	1.6236e-07	0.054356	0.020707	8.2818e-08	1.6131e-07	0.027189	0.0022601	0.014641	0.00054379	1.4719e-07	0.00098835	-1.8424e-07	-6.0468e-07	-1.0238e-07	-0.1329	-4.6264e-09	-3.3922e-09	-0.094267	-0.027729	-4.5926e-09	-5.8642e-09	-0.058924	-0.016555	-0.029846	-0.0030959	-6.0135e-09	-0.0061412	112.380	-121.003	-168.181	134.059	113.127	165.504	51.331	-160.132	2.989	-97.630	23.832	35.374	-122.840	-142.279	24.640	-126.414	-8191	255	
19638.424	1	1	0	0	0.18845	0.0432	0.25774	0.31089	0.21164	0.21509	0.25476	0.2296	0.2272	0.092902	0.22292	0.49323	0.19676	0.20737	0.073123	0.16784	-0.47083	-1.4479	-0.94583	-1.925	-2.1979	-1.4292	-1.8229	-1.7792	-1.4062	-1.9458	-1.6396	-1.6958	-1.8917	-1.5521	-1.8542	-1.7833	67.930	184.324	46.918	65.227	125.103	114.367	153.000	155.481	-98.873	73.807	-63.426	-91.403	36.119	215.831	4.937	211.372	3.2761e-06	1.98e-05	1.2957e-05	0.79196	4.3059e-07	9.0121e-07	675.85	276.13	4.3353e-06	8.9698e-07	434.67	156.81	91.874	39.987	2.8343e-06	80.007	-1.6515e-07	-5.8958e-07	1.2127e-06	14.813	7.6893e-07	4.208e-07	534.37	245.44	1.6761e-06	1.6723e-06	338.06	136.52	75.127	34.964	1.6964e-06	68.107	129.976	23.208	-46.515	-45.129	162.619	207.345	241.475	-87.423	2.277	72.228	-80.428	-74.724	-74.871	-67.800	23.461	-69.188	-8191	255	
19638.520	1	1	0	0	0.066904	0.12488	0.083647	0.26524	0.18803	0.31135	0.040868	0.24099	0.37244	0.094921	0.15889	0.28406	0.090466	0.01681	0.22998	0.21875	-1.0542	-1.9333	-1.6812	-1.7917	-1.9333	-1.3854	-1.8417	-1.9917	-1.325	-1.8292	-1.5979	-1.7833	-1.8333	-1.5417	-1.6313	-1.7229	50.648	172.822	123.306	-76.790	147.996	258.956	-72.851	216.394	203.371	166.952	251.331	225.284	212.285	-67.011	-75.722	10.508	0.00051321	0.0003183	7.5396e-05	900.8	2.9556e-06	2.4673e-06	1117	293.9	3.693e-06	1.4748e-06	436.36	157.88	92.749	39.785	4.3554e-06	79.622	0.00015966	0.00015345	4.2522e-05	808.11	1.6828e-06	1.6753e-06	1020.7	266.18	1.6836e-06	1.6676e-06	340.11	137.07	75.092	34.831	1.6652e-06	68.06	170.985	-43.078	-2.673	-84.004	151.748	-4.762	-84.070	-79.161	249.122	182.900	-79.754	-74.433	-74.280	-67.624	59.642	-69.009	-8191	255	
19638.615	1	1	0	0	0.2584	0.28242	0.31684	0.23772	0.039149	0.032447	0.16368	0.32448	0.1193	0.12982	0.021493	0.20758	0.19192	0.13238	0.072138	0.23772	-0.86458	-1.7958	-1.6792	-1.7354	-1.8458	-1.5271	-1.7583	-1.8687	-1.5	-1.6729	-1.8021	-1.575	-1.8542	-1.5583	-1.6958	-1.9688	-3.816	165.128	181.997	-43.818	103.616	115.003	114.343	185.688	78.042	-50.826	-95.279	141.329	12.352	123.625	29.112	217.544	0.00047412	0.00046596	0.00018615	907.34	1.8291e-06	2.7651e-06	1120.9	298.1	3.2202e-06	3.0791e-06	440.32	158.81	93.996	40.211	1.9385e-06	81.001	0.00015765	0.00015355	4.2474e-05	811.63	1.6714e-06	1.673e-06	1025.7	268.63	1.6731e-06	1.6615e-06	342.27	138.31	75.653	35.193	1.6759e-06	69.038	159.965	261.808	-74.151	-83.720	-76.491	64.745	-83.720	-79.575	-29.435	19.135	-79.349	-74.843	-75.015	-67.358	82.115	-69.063	-8191	255	
19638.713	1	1	0	0	0.10185	0.25078	0.21854	0.1093	0.36551	0.26259	0.16187	0.037543	0.25701	0.080034	0.25609	0.16851	0.26467	0.29275	0.041115	0.13729	-1.0208	-1.7563	-1.5479	-1.2854	-1.8229	-1.4271	-1.9438	-2.0938	-1.4542	-1.6333	-1.7625	-1.6625	-2.0979	-1.4708	-1.425	-1.8875	21.606	256.914	-80.123	228.287	193.327	-85.561	-12.786	188.782	0.395	75.668	137.728	-73.370	-13.329	-17.995	-36.778	217.233	0.00035979	0.00025144	0.00017248	906.24	4.5217e-06	1.413e-06	1131.2	298.16	1.6077e-06	1.6985e-06	442.74	158.73	93.551	39.999	2.1361e-06	80.674	0.00015799	0.00015251	4.2289e-05	811.08	1.6593e-06	1.6464e-06	1029.1	269.13	1.6502e-06	1.6292e-06	343.66	138.11	75.681	35.012	1.6318e-06	68.819	147.497	40.558	253.541	-83.962	-28.626	258.320	-83.959	-79.173	98.222	12.977	-79.664	-74.308	-74.538	-67.663	36.649	-68.773	-8191	255	
19638.832	1	1	0	0	0.14445	0.13945	0.22481	0.37082	0.3808	0.1683	0.19073	0.15269	0.1346	0.34799	0.25373	0.10463	0.28991	0.088183	0.13975	0.10919	-0.79167	-1.5979	-1.7146	-1.5396	-2.025	-1.6396	-1.6667	-1.9937	-1.3896	-1.7583	-1.6625	-1.5167	-1.7042	-1.7417	-1.4396	-2.1167	64.137	77.271	250.510	-79.708	-44.784	-56.403	170.647	164.040	-31.571	79.539	-38.391	-94.654	92.371	119.204	0.429	88.440	0.00042083	8.9763e-05	0.00020114	903.37	1.1165e-06	3.9938e-06	1120.2	298.11	1.4583e-06	6.8359e-06	440.33	159.08	94.526	40.545	1.6407e-06	81.597	0.000153	0.00014749	4.0872e-05	807.45	1.6279e-06	1.6158e-06	1019.7	268.52	1.6467e-06	1.6262e-06	341.24	138.44	75.643	35.395	1.6134e-06	69.557	149.786	84.397	-31.573	-83.639	-58.617	93.683	-83.771	-79.175	-96.401	-21.101	-79.416	-74.485	-74.615	-67.499	-1.797	-68.786	-8191	255	
19638.928	1	1	0	0	0.24298	0.20162	0.13993	0.23755	0.1165	0.21966	0.14789	0.30201	0.21829	0.20972	0.038858	0.12322	0.14776	0.14674	0.18354	0.23256	-0.95208	-1.6792	-1.8167	-1.4479	-1.675	-1.5917	-1.5729	-2.1042	-1.4792	-1.6792	-1.8583	-1.5708	-1.5917	-1.7771	-1.3979	-2.0292	254.694	253.307	-4.221	-78.476	124.174	-33.621	173.817	145.889	84.990	28.533	-42.999	-96.362	76.581	-97.207	207.513	191.968	0.00041634	9.4293e-05	0.00021832	903.86	4.7049e-06	2.5405e-06	1117.2	298.77	1.0008e-06	3.6423e-06	441.37	158.51	95.604	40.627	2.2068e-06	82.294	0.00015309	0.00014744	4.0866e-05	807.78	1.6177e-06	1.6165e-06	1019.2	269.26	1.6264e-06	1.612e-06	343.02	138.51	76.129	35.556	1.6279e-06	69.821	155.446	111.968	51.540	-83.499	9.995	4.691	-83.701	-79.240	-1.329	-0.812	-79.855	-74.329	-74.735	-67.804	8.723	-68.788	-8191	255	
19639.025	1	1	0	0	0.10771	0.19131	0.066436	0.14817	0.23867	0.2293	0.32559	0.19203	0.18406	0.20096	0.039521	0.35959	0.040339	0.017836	0.20149	0.29041	-1.1042	-1.6458	-1.6521	-1.5104	-1.8375	-1.6021	-1.5875	-1.9979	-1.5667	-1.5812	-1.9479	-1.4417	-1.6396	-1.775	-1.4583	-2.0625	188.554	136.850	167.514	182.055	37.099	196.007	212.531	217.558	243.152	-54.268	39.631	171.965	193.690	-91.145	77.100	200.145	0.00051546	0.00056274	5.0404e-05	907.99	5.1424e-06	2.0132e-06	1119.8	298.5	1.1393e-06	4.2893e-06	443.4	160.32	94.278	40.365	5.8189e-06	81.766	0.0001516	0.00014632	4.0762e-05	808.95	1.6149e-06	1.6085e-06	1021.2	269	1.6128e-06	1.5947e-06	341.69	138.99	75.834	35.313	1.5993e-06	69.403	153.868	-25.497	-84.928	-83.409	217.781	31.261	-83.865	-79.237	-76.037	-35.180	-79.269	-74.562	-74.503	-67.558	83.103	-68.813	-8191	255	
19639.121	1	1	0	0	0.13009	0.11262	0.29909	0.032112	0.073519	0.078913	0.40945	0.17961	0.2288	0.035935	0.17546	0.26781	0.18112	0.10239	0.10345	0.24367	-1.0312	-1.575	-1.7812	-1.5	-1.5375	-1.8333	-1.5792	-1.8896	-1.7437	-1.4604	-1.9875	-1.6125	-1.6667	-1.8667	-1.2083	-1.8687	206.082	57.957	-11.393	-53.270	260.213	-50.388	220.711	110.846	-64.147	153.153	-46.557	241.348	8.174	97.961	-88.959	251.240	0.00045219	0.00028428	0.00013227	907.91	1.5368e-06	1.2196e-06	1130.9	297.06	8.623e-07	4.4943e-06	442.75	160.96	94.674	39.927	4.1105e-06	81.503	0.00015187	0.0001473	4.0631e-05	808.89	1.61e-06	1.6049e-06	1028.1	267.98	1.5999e-06	1.6046e-06	343.87	139.26	75.736	34.94	1.5935e-06	69.143	153.118	-54.949	-61.909	-83.640	147.519	55.176	-83.807	-79.144	-35.337	-2.602	-79.635	-74.354	-74.665	-67.566	62.709	-68.750	-8191	255	
19639.215	1	1	0	0	0.11505	0.28981	0.064954	0.16497	0.079163	0.27476	0.22607	0.17464	0.25512	0.30345	0.14285	0.14872	0.035847	0.12171	0.11797	0.16639	-1.1917	-1.4375	-1.8375	-1.5063	-1.5146	-1.8854	-1.4771	-1.9125	-1.8625	-1.4917	-1.8542	-1.625	-1.6354	-1.9271	-1.5208	-1.9167	210.652	-46.922	72.435	223.700	164.140	117.383	164.028	160.077	38.011	3.667	149.082	-27.792	96.054	70.393	150.529	154.490	0.00025812	0.00046282	0.00018166	911.87	3.7039e-06	5.661e-06	1134	300.76	1.9803e-06	5.7535e-06	447.89	161.23	94.813	40.2	4.0765e-06	81.439	0.00015167	0.00014721	4.0845e-05	813.89	1.625e-06	1.6117e-06	1035	271.95	1.6388e-06	1.6164e-06	345.95	140.18	76.617	35.284	1.5962e-06	69.123	163.132	-47.195	-80.039	-83.610	-36.051	30.070	-83.637	-79.472	3.809	10.512	-79.094	-74.458	-74.067	-67.599	66.362	-68.646	-8191	255	
19639.311	1	1	0	0	0.10009	0.27054	0.079696	0.098048	0.23625	0.019541	0.37724	0.24893	0.24324	0.20655	0.31948	0.19983	0.17521	0.18194	0.20591	0.4025	-1.2625	-1.2437	-1.7271	-1.8729	-1.4771	-2.0687	-1.6333	-1.9667	-1.7	-1.5292	-2.0146	-1.8729	-1.6812	-2.1167	-1.525	-2.0146	136.103	74.986	227.266	221.772	170.858	-6.493	212.866	246.980	79.424	59.470	-33.300	-50.305	89.099	-81.253	94.763	214.721	0.00033707	0.00022228	0.00017814	907.74	1.6707e-06	2.7974e-06	1127.2	303.09	3.4254e-06	4.95e-06	445.1	160.52	96.186	40.747	6.9431e-06	81.742	0.00015199	0.00014487	4.0957e-05	813.63	1.6069e-06	1.595e-06	1026	273.19	1.6003e-06	1.5856e-06	343.94	139.61	76.954	35.581	1.6043e-06	69.453	182.495	15.702	-52.655	-83.560	221.634	42.829	-83.613	-79.282	18.067	19.653	-79.176	-74.394	-74.777	-67.461	23.017	-68.612	-8191	255	
19639.432	1	1	0	0	0.079162	0.18639	0.27143	0.11108	0.20579	0.13114	0.19903	0.27996	0.065829	0.16041	0.14938	0.24176	0.15614	0.2931	0.22196	0.29038	-1.3854	-1.3521	-1.675	-1.7646	-1.3146	-1.8271	-1.525	-1.675	-1.9021	-1.3854	-1.8667	-1.8542	-1.525	-1.9833	-1.5479	-1.6375	65.850	83.287	173.153	147.403	233.220	-10.324	206.226	-96.895	159.850	-54.980	254.342	158.026	-53.533	58.481	-28.300	194.449	0.00044748	0.00026099	0.00012099	911.74	5.5231e-06	4.8251e-07	1129.1	303.72	4.429e-06	3.7399e-06	445.75	161.31	96.126	40.397	3.6302e-06	81.322	0.00015009	0.000147	4.08e-05	814.34	1.5903e-06	1.5885e-06	1025.8	273.19	1.6198e-06	1.5917e-06	344.31	139.82	76.928	35.496	1.6066e-06	69.176	161.282	-58.196	39.488	-83.459	-75.917	89.753	-83.748	-79.225	-26.068	-17.142	-79.322	-74.293	-75.158	-67.534	96.526	-68.815	-8191	255	
#DATA ENDS
