BOXY.EXE: ISS Imagent and Oximeter Data Acquisition Program Version 0.80
Ascii Record File

#ACQ INFORMATION
2  Detector Channels 
16  External MUX Channels 
1  Auxiliary Channels 
5000  Waveform (CCF) Frequency (Hz)
1  Waveforms Skipped 
30  Waveforms Averaged 
1  Cycles Averaged 
16  Acquisitions per Waveform 
10.0806  Updata Rate (Hz) 

#FILE INFORMATION
TRUE -- External MUX Channel results are PARSED.
FALSE -- AC DC and Phase are NOT grouped.
TRUE -- Companion Program Settings File CREATED.
FALSE -- AC data not excluded
FALSE -- DC data not excluded
FALSE -- Phase data not excluded
FALSE -- Auxillary Chn. data not excluded
Tab delimiters

#CALIBRATION STATE
TRUE -- Waveform Calibration Values APPLIED.


#AUX CALIBRATION VALUES
Val Type	aux-1	

Term	1.0000e+00	
Factor	0.0000e+00	


#WF CALIBRATION VALUES
A = Detector Channel
Val Type	A-AC1	A-AC2	A-AC3	A-AC4	A-AC5	A-AC6	A-AC7	A-AC8	A-AC9	A-AC10	A-AC11	A-AC12	A-AC13	A-AC14	A-AC15	A-AC16	A-DC1	A-DC2	A-DC3	A-DC4	A-DC5	A-DC6	A-DC7	A-DC8	A-DC9	A-DC10	A-DC11	A-DC12	A-DC13	A-DC14	A-DC15	A-DC16	A-Ph1	A-Ph2	A-Ph3	A-Ph4	A-Ph5	A-Ph6	A-Ph7	A-Ph8	A-Ph9	A-Ph10	A-Ph11	A-Ph12	A-Ph13	A-Ph14	A-Ph15	A-Ph16	

Term	0.00000e+00	0.00000e+00	0.00000e+00	0.00000e+00	0.00000e+00	0.00000e+00	0.00000e+00	0.00000e+00	0.00000e+00	0.00000e+00	0.00000e+00	0.00000e+00	0.00000e+00	0.00000e+00	0.00000e+00	0.00000e+00	0.00000e+00	0.00000e+00	0.00000e+00	0.00000e+00	0.00000e+00	0.00000e+00	0.00000e+00	0.00000e+00	0.00000e+00	0.00000e+00	0.00000e+00	0.00000e+00	0.00000e+00	0.00000e+00	0.00000e+00	0.00000e+00	0.00000e+00	0.00000e+00	0.00000e+00	0.00000e+00	0.00000e+00	0.00000e+00	0.00000e+00	0.00000e+00	0.00000e+00	0.00000e+00	0.00000e+00	0.00000e+00	0.00000e+00	0.00000e+00	0.00000e+00	0.00000e+00	
Factor	1.00000e+00	1.00000e+00	1.00000e+00	1.00000e+00	1.00000e+00	1.00000e+00	1.00000e+00	1.00000e+00	1.00000e+00	1.00000e+00	1.00000e+00	1.00000e+00	1.00000e+00	1.00000e+00	1.00000e+00	1.00000e+00	1.00000e+00	1.00000e+00	1.00000e+00	1.00000e+00	1.00000e+00	1.00000e+00	1.00000e+00	1.00000e+00	1.00000e+00	1.00000e+00	1.00000e+00	1.00000e+00	1.00000e+00	1.00000e+00	1.00000e+00	1.00000e+00	X	X	X	X	X	X	X	X	X	X	X	X	X	X	X	X	

B = Detector Channel
Val Type	B-AC1	B-AC2	B-AC3	B-AC4	B-AC5	B-AC6	B-AC7	B-AC8	B-AC9	B-AC10	B-AC11	B-AC12	B-AC13	B-AC14	B-AC15	B-AC16	B-DC1	B-DC2	B-DC3	B-DC4	B-DC5	B-DC6	B-DC7	B-DC8	B-DC9	B-DC10	B-DC11	B-DC12	B-DC13	B-DC14	B-DC15	B-DC16	B-Ph1	B-Ph2	B-Ph3	B-Ph4	B-Ph5	B-Ph6	B-Ph7	B-Ph8	B-Ph9	B-Ph10	B-Ph11	B-Ph12	B-Ph13	B-Ph14	B-Ph15	B-Ph16	

Term	0.00000e+00	0.00000e+00	0.00000e+00	0.00000e+00	0.00000e+00	0.00000e+00	0.00000e+00	0.00000e+00	0.00000e+00	0.00000e+00	0.00000e+00	0.00000e+00	0.00000e+00	0.00000e+00	0.00000e+00	0.00000e+00	0.00000e+00	0.00000e+00	0.00000e+00	0.00000e+00	0.00000e+00	0.00000e+00	0.00000e+00	0.00000e+00	0.00000e+00	0.00000e+00	0.00000e+00	0.00000e+00	0.00000e+00	0.00000e+00	0.00000e+00	0.00000e+00	-1.45867e+02	-1.23783e+02	-1.30834e+02	-1.84083e+02	-7.58095e+01	-7.30478e+01	-1.55713e+02	-1.62015e+02	-9.03867e+01	-7.43714e+01	-1.85725e+02	-1.70521e+02	-1.87050e+02	-1.76710e+02	-7.51131e+01	-1.49456e+02	
Factor	2.10453e-05	1.52073e-04	4.08231e-05	2.21187e-01	1.33617e-06	1.51758e-06	1.55432e-01	4.94518e-02	1.27884e-06	1.69986e-06	1.93204e-01	2.92118e-02	6.10080e-02	8.76291e-03	1.36065e-06	1.24210e-02	3.01981e-06	3.36426e-06	9.36133e-07	1.14310e-01	3.63966e-08	3.69298e-08	7.62793e-02	2.57675e-02	3.62490e-08	3.68367e-08	9.47209e-02	1.47461e-02	3.12550e-02	4.57521e-03	3.64405e-08	6.30051e-03	X	X	X	X	X	X	X	X	X	X	X	X	X	X	X	X	



#DISTANCE SETTINGS
A = Detector Channel
A-1	A-2	A-3	A-4	A-5	A-6	A-7	A-8	A-9	A-10	A-11	A-12	A-13	A-14	A-15	A-16	

2.5000e+00	3.0000e+00	2.5000e+00	3.0000e+00	2.0000e+00	3.0000e+00	1.5000e+00	3.0000e+00	3.0000e+00	3.0000e+00	3.0000e+00	3.0000e+00	3.0000e+00	3.0000e+00	1.5000e+00	3.0000e+00	

B = Detector Channel
B-1	B-2	B-3	B-4	B-5	B-6	B-7	B-8	B-9	B-10	B-11	B-12	B-13	B-14	B-15	B-16	

1.0000e+01	1.0000e+01	1.0000e+01	1.4400e+00	1.0000e+01	1.0000e+01	1.5100e+00	1.9400e+00	1.0000e+01	1.0000e+01	1.9900e+00	2.4900e+00	2.4100e+00	2.9000e+00	1.0000e+01	2.9800e+00	




#DATA BEGINS
time	group	step	mark	flag	A-AC1	A-AC2	A-AC3	A-AC4	A-AC5	A-AC6	A-AC7	A-AC8	A-AC9	A-AC10	A-AC11	A-AC12	A-AC13	A-AC14	A-AC15	A-AC16	A-DC1	A-DC2	A-DC3	A-DC4	A-DC5	A-DC6	A-DC7	A-DC8	A-DC9	A-DC10	A-DC11	A-DC12	A-DC13	A-DC14	A-DC15	A-DC16	A-Ph1	A-Ph2	A-Ph3	A-Ph4	A-Ph5	A-Ph6	A-Ph7	A-Ph8	A-Ph9	A-Ph10	A-Ph11	A-Ph12	A-Ph13	A-Ph14	A-Ph15	A-Ph16	B-AC1	B-AC2	B-AC3	B-AC4	B-AC5	B-AC6	B-AC7	B-AC8	B-AC9	B-AC10	B-AC11	B-AC12	B-AC13	B-AC14	B-AC15	B-AC16	B-DC1	B-DC2	B-DC3	B-DC4	B-DC5	B-DC6	B-DC7	B-DC8	B-DC9	B-DC10	B-DC11	B-DC12	B-DC13	B-DC14	B-DC15	B-DC16	B-Ph1	B-Ph2	B-Ph3	B-Ph4	B-Ph5	B-Ph6	B-Ph7	B-Ph8	B-Ph9	B-Ph10	B-Ph11	B-Ph12	B-Ph13	B-Ph14	B-Ph15	B-Ph16	aux-1	digaux	

11949.840	1	1	0	256	0.24116	0.20833	0.070336	0.15981	0.16736	0.32501	0.076844	0.07359	0.088176	0.11793	0.21694	0.30983	0.26542	0.1804	0.15419	0.20835	-1.7167	-2.0604	-1.6938	-2.2625	-1.8792	-2.0438	-2.3292	-1.8792	-2.0062	-1.9375	-1.8958	-2.2646	-2.0833	-1.9729	-2.3167	-1.6938	-102.633	21.501	-134.563	101.737	-92.006	131.515	39.797	84.460	110.441	-55.799	173.285	178.612	-59.511	-4.154	86.195	-110.376	0.00064551	0.00058796	3.9481e-05	712.17	3.678e-06	6.4683e-06	749.2	232.98	3.522e-06	7.4208e-06	282.33	109.52	85.134	43.19	3.615e-06	61.264	0.00044297	0.0004135	0.00011211	698.2	4.2626e-06	4.1825e-06	737.51	228.67	4.0427e-06	4.0231e-06	275.39	108.33	84.358	42.724	3.8291e-06	60.474	180.135	-96.503	-163.455	-161.709	-67.934	-53.056	-162.936	-157.014	-32.148	-49.148	-158.097	-153.337	-152.543	-146.193	-80.339	-148.806	-8191	255	
11949.960	1	1	0	0	0.16024	0.09653	0.17383	0.087238	0.092477	0.098306	0.078084	0.27356	0.12768	0.20424	0.3446	0.22062	0.20225	0.10224	0.27184	0.2156	-1.575	-2.0687	-1.7938	-2.2625	-1.9521	-2.0938	-2.2188	-2.0208	-2.1479	-2.1625	-1.8354	-2.0854	-1.9583	-1.9479	-2.2167	-1.8229	-143.091	104.240	86.894	-137.137	125.428	135.465	164.240	174.784	107.649	76.525	91.017	15.609	-69.683	-162.270	100.248	128.958	0.00069909	0.00033919	0.00012389	710.6	1.0341e-06	2.1679e-06	753	232.77	4.3268e-06	7.9962e-06	282.55	111.6	85.696	43.875	5.24e-06	62.08	0.00037419	0.00033186	9.3375e-05	693.05	3.5936e-06	3.5603e-06	735.98	229.3	3.4455e-06	3.4086e-06	276.21	109.9	84.474	43.31	3.2134e-06	61.281	181.593	-125.602	-69.229	-161.879	-41.921	-95.004	-162.490	-156.830	-77.152	-66.166	-158.285	-153.250	-152.774	-146.900	-50.003	-149.747	-8191	255	
11950.032	1	1	0	0	0.18028	0.099948	0.11092	0.13171	0.10713	0.1733	0.15244	0.051527	0.27423	0.12712	0.17741	0.31423	0.22379	0.21658	0.12633	0.13355	-1.5438	-2.3708	-1.8292	-2.3812	-1.8604	-1.9396	-2.5229	-1.9562	-2.0125	-2.2708	-1.8813	-2.2271	-2.0167	-1.7354	-2.2604	-1.7958	105.702	36.499	-141.363	-152.555	-133.894	-103.382	-79.311	122.145	-143.140	-23.029	110.352	115.861	154.159	160.875	15.044	75.693	0.00064894	0.00032696	8.1391e-05	705.26	4.1427e-06	2.8604e-06	748.21	233.65	3.3673e-06	3.5888e-06	281.63	112.44	86.643	44.611	2.1531e-06	62.687	0.00032148	0.00028068	7.8274e-05	688.92	3.0158e-06	3.0097e-06	734.4	229.71	3.0056e-06	2.9523e-06	275.36	110.53	85.166	44.076	2.9281e-06	62.003	182.249	-38.547	-125.244	-162.017	-0.673	-24.418	-162.797	-157.369	-55.864	-24.329	-158.198	-153.361	-153.476	-147.220	-53.252	-150.039	-8191	255	
11950.151	1	1	0	0	0.19596	0.043559	0.24469	0.091255	0.17797	0.091847	0.10224	0.1326	0.25391	0.18136	0.37118	0.19711	0.07278	0.12502	0.11855	0.17825	-1.6187	-2.2229	-1.9	-1.9875	-1.9583	-1.9438	-2.4604	-2.1479	-2.1813	-2.1854	-1.8771	-2.1917	-1.9792	-1.7333	-2.3833	-1.7687	130.878	66.707	122.626	120.686	176.355	-150.110	36.122	184.646	-23.329	74.126	124.774	-101.364	-22.236	-109.653	-99.245	95.992	0.00069909	0.00070371	7.8689e-05	702.97	2.6797e-06	5.3792e-06	750.2	234.6	2.2889e-06	4.1503e-06	281.73	112.73	87.753	44.553	3.0339e-06	63.046	0.00031976	0.00027043	7.4319e-05	689.16	2.96e-06	2.9578e-06	734.24	230.8	2.9629e-06	2.8076e-06	275.86	111.06	85.583	43.942	2.8767e-06	62.083	178.718	-135.165	-81.689	-162.285	-32.877	-70.635	-163.202	-157.149	-79.956	21.622	-158.366	-153.400	-152.930	-146.468	-58.546	-149.335	-8191	255	
11950.247	1	1	0	0	0.30339	0.071117	0.10648	0.43942	0.094563	0.11523	0.32957	0.18071	0.094879	0.19827	0.22614	0.23095	0.23841	0.35373	0.19465	0.14794	-1.4333	-2.3125	-1.7375	-2.3042	-2.3271	-1.8646	-2.5271	-2.1188	-1.7625	-2.1562	-1.8271	-2.2083	-2.4083	-1.8917	-2.2146	-2.1021	-0.493	-106.260	104.083	182.671	97.308	-84.959	-170.341	-6.697	-169.063	152.099	-171.960	48.762	14.724	170.461	-122.211	161.073	0.00066688	0.00065451	0.00017882	705.54	4.5471e-06	1.6807e-06	750.09	234.51	5.541e-06	9.4131e-06	286.65	113.61	86.768	44.959	5.966e-06	63.563	0.00030788	0.00026595	7.3904e-05	690.16	2.9263e-06	2.927e-06	737.67	230.64	2.9447e-06	2.9196e-06	277.74	111.64	85.569	44.203	2.9495e-06	62.455	180.014	-70.903	-98.185	-161.594	-48.733	-86.064	-162.758	-157.258	-56.071	-31.857	-157.762	-153.094	-152.440	-146.434	-53.011	-149.596	-8191	255	
11950.343	1	1	0	0	0.12469	0.089163	0.10123	0.0018247	0.099275	0.32671	0.19665	0.30749	0.061484	0.31814	0.12066	0.19127	0.3856	0.17841	0.035737	0.12673	-1.4042	-2.2125	-1.9542	-1.875	-2.0458	-1.6604	-2.3063	-2.1521	-1.8604	-2.3375	-2.0271	-2.0604	-2.0292	-1.8563	-2.0271	-2.0563	143.812	-130.562	-119.389	180.000	-170.129	111.511	109.704	76.476	-56.218	-6.157	182.912	150.804	19.170	-128.935	6.789	42.185	0.00071502	0.00055665	7.508e-05	708.99	5.069e-06	6.0546e-06	753.12	235.44	3.7849e-06	5.1437e-06	288.42	114.09	87.111	44.792	3.5333e-06	63.445	0.00031443	0.00026616	7.3395e-05	690.74	2.8016e-06	2.9177e-06	738.14	230.83	2.8474e-06	2.7873e-06	279.27	112.27	85.535	44.149	2.8658e-06	62.498	180.509	-70.349	-57.852	-162.022	-52.850	-61.881	-162.734	-157.112	-26.260	-46.978	-158.535	-153.614	-152.735	-146.728	-37.545	-150.208	-8191	255	
11950.439	1	1	0	0	0.27679	0.092713	0.15599	0.087732	0.14226	0.085049	0.12247	0.35942	0.052639	0.065839	0.11722	0.11535	0.15633	0.14872	0.20265	0.19264	-1.4562	-2.1708	-1.85	-2.0021	-2.1312	-1.6417	-2.0875	-2.1667	-1.8521	-2.2687	-1.9021	-2.1375	-2.2792	-1.7563	-2.0417	-2.3688	-30.356	134.463	25.395	-141.611	73.622	11.736	-2.776	83.887	-79.758	111.609	127.799	-163.174	-56.741	142.580	-152.443	-49.788	0.0007181	0.00034838	0.00010466	704.51	9.5714e-07	3.5729e-06	752.87	233.7	6.9104e-06	1.4224e-06	284.32	113.25	85.997	44.253	2.8546e-06	62.705	0.00031147	0.00025774	7.1772e-05	688.38	2.8285e-06	2.829e-06	735.98	229.84	2.8223e-06	2.7995e-06	277.63	111.39	84.95	43.839	2.7828e-06	61.906	179.778	-61.952	-55.063	-162.903	-79.629	-41.124	-163.404	-157.730	-86.889	-139.985	-159.010	-154.189	-153.588	-146.870	-45.188	-149.908	-8191	255	
11950.560	1	1	0	0	0.23428	0.22996	0.1943	0.19809	0.25229	0.028774	0.12796	0.20104	0.26133	0.22357	0.21226	0.06352	0.058092	0.16879	0.1536	0.045728	-1.2917	-2.0354	-2.0062	-1.8354	-2.3792	-1.8563	-2.1667	-2.0938	-1.6667	-1.9667	-2.0979	-2.075	-2.3833	-1.8708	-1.8563	-2.2771	18.986	-50.060	-56.561	143.950	168.385	178.121	42.973	104.965	86.432	-151.955	123.309	-54.413	180.900	26.182	-163.857	2.370	0.00069566	0.0006486	0.00010281	706.38	1.7114e-06	3.0796e-06	746.83	234.51	3.5121e-06	6.7783e-06	287.58	113.62	87.304	44.828	1.7503e-06	63.395	0.00029917	0.00025266	7.0062e-05	685.84	2.7253e-06	2.7638e-06	734.53	229.59	2.7766e-06	2.8181e-06	277.6	111.77	85.524	44.33	2.7378e-06	62.652	183.671	-87.282	-106.865	-162.309	-58.880	-32.772	-162.608	-157.166	-74.966	-13.500	-158.785	-153.403	-152.988	-146.827	-28.124	-149.269	-8191	255	
11950.632	1	1	0	0	0.11405	0.19528	0.064229	0.26981	0.21694	0.13224	0.15342	0.25054	0.22088	0.10419	0.094523	0.17265	0.24375	0.3684	0.15121	0.24811	-1.2417	-2.2208	-2.0062	-1.6479	-2.2833	-1.8167	-1.8625	-2.0229	-1.5875	-2.1646	-2.1	-1.8375	-2.3208	-2.0792	-1.8438	-2.3021	17.440	87.509	153.185	-146.204	-29.885	-114.591	164.161	114.997	40.169	-152.870	-24.122	-58.956	166.006	124.957	-124.374	24.752	0.00068628	0.00012387	0.00010511	705.03	2.6602e-06	1.3768e-06	753.27	234.32	4.2692e-06	5.9581e-06	286.84	114.58	86.465	44.76	4.4312e-06	63.588	0.00029618	0.00024535	6.8888e-05	686.92	2.7081e-06	2.7295e-06	737.92	229.74	2.6742e-06	2.7374e-06	279.02	112.29	85.12	44.095	2.6676e-06	62.909	179.094	-57.954	-106.610	-162.273	-95.787	-41.401	-162.662	-157.174	-86.713	-21.304	-158.778	-153.618	-153.000	-146.591	-69.676	-149.547	-8191	255	
11950.728	1	1	0	0	0.2327	0.17748	0.10765	0.18842	0.13176	0.14357	0.13366	0.13871	0.17011	0.2339	0.13821	0.25956	0.091029	0.066874	0.11735	0.20372	-1.4292	-1.9417	-2.125	-2.0333	-2.1208	-1.9521	-1.925	-2.4646	-1.7271	-2.0938	-2.2438	-1.8563	-2.3042	-2.0167	-1.9354	-2.2167	-77.650	-16.432	-45.056	-127.156	-83.486	-118.519	-160.722	143.167	133.598	38.933	52.835	-115.099	-150.031	-132.343	-119.891	95.874	0.00071135	0.00047621	9.3692e-05	697.06	3.324e-06	4.497e-06	757.86	235.65	3.9366e-06	8.5278e-06	285.49	115.04	87.418	44.467	4.1517e-06	63.42	0.00029385	0.0002465	6.7971e-05	684.22	2.6767e-06	2.7083e-06	740.8	230.8	2.6916e-06	2.6598e-06	279.56	112.85	85.275	43.887	2.7217e-06	62.635	182.390	-56.250	-75.461	-161.872	-32.592	-60.962	-162.581	-157.399	-88.170	-35.198	-158.730	-153.373	-152.578	-146.631	-21.109	-149.330	-8191	255	
11950.824	1	1	0	0	0.19306	0.23077	0.096725	0.16132	0.2427	0.23891	0.28377	0.15719	0.071096	0.10922	0.1201	0.11989	0.18771	0.19031	0.12697	0.07439	-1.6125	-1.8625	-2.0229	-1.9292	-2.1521	-2.0646	-1.9229	-2.3021	-1.9417	-2.0896	-2.1875	-1.8833	-2.2146	-2.0521	-1.7167	-2.2729	77.082	77.748	100.404	-166.886	-36.023	122.914	175.047	68.809	-170.951	-139.330	-99.545	-8.327	19.132	-135.909	83.979	-170.990	0.00070077	0.00032439	0.0001035	704.49	5.6272e-06	3.672e-06	757.3	235.27	4.9368e-06	6.1505e-06	288.34	114.5	87.398	44.247	4.2414e-06	62.773	0.00029787	0.00024235	6.9092e-05	687.17	2.6852e-06	2.6501e-06	742.35	230.21	2.5987e-06	2.6743e-06	278.99	112.18	85.302	43.613	2.722e-06	61.993	177.389	-88.712	-87.099	-161.898	-38.993	-35.578	-162.701	-157.434	-77.236	-33.697	-158.407	-153.364	-152.836	-146.340	-39.185	-149.378	-8191	255	
11950.943	1	1	0	0	0.2381	0.097902	0.027354	0.34474	0.13086	0.16176	0.18414	0.18262	0.026137	0.16518	0.030272	0.32729	0.04685	0.24617	0.28093	0.13403	-1.5542	-1.9979	-2.2958	-1.7646	-2.1125	-2.0771	-1.9875	-2.3812	-1.9625	-1.9208	-2.3438	-1.9375	-1.9583	-2.2458	-1.8438	-2.2875	126.193	59.181	-61.016	-169.562	27.733	52.129	127.403	7.461	1.938	-31.831	-25.965	153.109	93.343	164.357	39.648	155.230	0.00070855	0.00055919	0.00011524	707.38	2.3214e-06	4.7909e-06	751.98	233.66	1.8945e-06	2.6742e-06	287.06	113.24	86.223	43.882	4.9399e-06	62.525	0.0003015	0.00024563	6.99e-05	686.77	2.6716e-06	2.7095e-06	738.77	229.54	2.7059e-06	2.7199e-06	277.68	111.35	84.667	43.271	2.6557e-06	61.683	180.075	-46.332	-77.954	-161.912	12.412	-46.933	-162.537	-156.915	-64.495	-66.766	-158.246	-153.274	-152.888	-146.626	-70.116	-149.523	-8191	255	
11951.039	1	1	0	0	0.11069	0.13517	0.11547	0.13734	0.031764	0.31095	0.2306	0.24481	0.066634	0.11052	0.20259	0.23884	0.19756	0.29644	0.19949	0.17806	-1.6	-1.6521	-2.2208	-1.925	-2.1479	-2.2583	-1.9854	-2.2333	-1.975	-1.9646	-2.3375	-1.8604	-2	-2.2083	-1.7146	-2.3042	-47.073	-17.950	35.962	144.174	66.093	-30.380	115.392	123.783	-15.894	127.141	-77.664	106.194	-94.539	107.082	-100.289	-134.775	0.00075421	0.00034852	0.0001393	706.58	2.4401e-06	2.9998e-06	757.46	234.44	4.9845e-06	4.2307e-06	285.55	113.73	87.024	44.437	4.2639e-06	63.173	0.00030152	0.00025292	6.9818e-05	687.75	2.7424e-06	2.7773e-06	741.55	230.26	2.822e-06	2.7678e-06	278.63	112.03	85.088	43.772	2.8042e-06	62.408	180.997	-45.002	-88.844	-162.149	-22.808	-50.409	-162.812	-157.253	-73.196	-33.515	-158.738	-153.546	-153.208	-146.786	-73.959	-149.319	-8191	255	
11951.135	1	1	0	0	0.21113	0.10947	0.091963	0.12847	0.033699	0.14661	0.1945	0.067454	0.40507	0.076121	0.27843	0.25671	0.15626	0.10446	0.32515	0.33584	-1.6479	-1.8563	-2.2083	-1.9479	-2.0917	-2.2625	-1.9312	-2.2604	-2.1667	-1.7708	-2.3479	-1.9417	-2.0292	-2.3792	-1.6812	-2.2417	153.345	123.979	-20.198	-155.753	116.475	-140.470	80.089	138.121	-19.089	164.350	127.988	-24.251	160.529	80.201	-120.620	132.986	0.00071603	0.00040784	0.00014236	705.74	3.7244e-07	3.2907e-06	758.23	234.63	5.5632e-06	3.201e-06	290.06	114.74	87.096	44.399	1.5791e-06	63.319	0.00029799	0.00025308	7.0664e-05	686.13	2.7188e-06	2.6876e-06	740.96	230.23	2.8042e-06	2.7162e-06	280.84	112.54	85.385	43.834	2.8656e-06	62.585	177.357	-70.634	-74.798	-162.259	64.043	17.838	-162.826	-157.253	-106.160	-21.801	-158.315	-153.070	-153.185	-146.679	-158.443	-148.991	-8191	255	
11951.256	1	1	0	0	0.051557	0.13162	0.14149	0.033895	0.093647	0.060853	0.090281	0.16237	0.30517	0.043051	0.13982	0.18147	0.18435	0.11406	0.14683	0.39875	-1.7938	-1.6292	-2.2125	-1.9229	-1.8833	-2.3208	-1.9438	-2.25	-2.1583	-1.8271	-2.2396	-2.1271	-2.0187	-2.3833	-1.8708	-2.0729	70.468	129.908	-119.015	140.469	-96.279	-152.519	128.313	-115.339	-146.408	-97.625	57.809	182.571	54.818	-158.426	-147.309	-137.604	0.00076165	0.00031937	4.0331e-05	701.67	2.3332e-06	2.4051e-06	757.54	233.52	2.8056e-06	3.2555e-06	288.42	115.46	87.394	44.668	4.4647e-06	64.063	0.0003053	0.00026138	7.0586e-05	684.65	2.8706e-06	2.7789e-06	742.77	229.67	2.8372e-06	2.7924e-06	280	112.99	85.502	44.016	2.7747e-06	63.052	181.893	-62.642	-62.733	-161.741	-29.763	-30.667	-162.639	-157.044	-75.170	14.719	-158.200	-153.293	-152.656	-146.307	-22.285	-149.152	-8191	255	
11951.327	1	1	0	0	0.28039	0.18736	0.20915	0.21638	0.16791	0.26049	0.13361	0.2996	0.059055	0.16413	0.11829	0.19925	0.01965	0.21599	0.063558	0.11638	-1.8229	-1.6604	-2.1437	-1.9375	-1.9229	-2.45	-1.7938	-2.1625	-2.2438	-1.8104	-2.1354	-2.1583	-1.9021	-2.3375	-1.9562	-2.0563	175.014	25.691	106.488	75.112	72.722	161.615	-123.672	-131.646	-106.875	-44.693	32.464	160.847	-39.456	92.078	85.326	72.659	0.00070772	0.00022299	0.00014183	698.54	2.37e-06	3.8254e-06	752.25	234.72	6.4303e-06	2.5744e-06	290.39	115.33	87.977	45.386	4.2997e-06	65.04	0.00029656	0.0002508	6.9112e-05	682.95	2.7158e-06	2.689e-06	739.38	229.88	2.6965e-06	2.6964e-06	279.65	113.42	85.996	44.662	2.6921e-06	63.996	179.091	-38.394	-83.103	-161.844	-38.659	-64.435	-162.778	-157.283	-80.763	-51.214	-158.468	-153.613	-152.813	-146.474	-30.574	-149.407	-8191	255	
11951.423	1	1	0	0	0.051094	0.13522	0.069194	0.13344	0.18628	0.10387	0.12437	0.11366	0.22824	0.046413	0.26862	0.20292	0.17002	0.1536	0.10797	0.082454	-1.6646	-1.8687	-2.0479	-2.0021	-1.8708	-2.4542	-1.9708	-2.1271	-2.3354	-1.9667	-2.1354	-2.2083	-1.9438	-2.4458	-1.95	-2.0979	174.777	-79.344	30.306	174.502	172.173	-78.066	-17.450	32.040	85.443	132.050	117.088	160.734	65.623	-145.885	-24.521	39.764	0.00076037	0.00045498	0.00013951	696.1	4.7017e-06	4.1776e-06	759.46	235.81	7.2712e-06	4.5991e-06	288.58	117.94	89.343	46.752	5.5048e-06	67.219	0.00028902	0.00024427	6.708e-05	682.13	2.6534e-06	2.5245e-06	740.06	230.97	2.6224e-06	2.5717e-06	280.8	115.6	87.292	46.246	2.6386e-06	66.117	180.673	-56.506	-62.296	-161.880	-55.000	-63.659	-162.665	-156.987	-74.521	-52.115	-158.502	-153.428	-153.151	-146.344	-53.305	-149.217	-8191	255	
11951.520	1	1	0	0	0.18908	0.25634	0.19092	0.13121	0.39415	0.11282	0.49649	0.12684	0.34828	0.41077	0.058429	0.22285	0.10275	0.14975	0.093161	0.31269	-1.8354	-1.7437	-2.1771	-2.1604	-1.7958	-2.3208	-2.1625	-2.1021	-2.2208	-1.8062	-2.0521	-2.2729	-1.8146	-2.3479	-2.0458	-1.9458	-66.626	-12.744	145.941	-121.008	62.539	-115.852	103.185	117.417	125.855	-35.846	165.396	119.070	-157.376	-172.525	-52.934	98.134	0.00068243	0.00053688	4.7174e-05	704.85	3.2097e-06	4.9986e-06	756.23	236.52	3.7896e-06	6.7135e-06	293.39	118.26	88.657	46.644	1.4709e-06	66.6	0.0002888	0.00023951	6.8063e-05	684.8	2.6883e-06	2.7099e-06	739.7	231.83	2.6749e-06	2.6136e-06	282.84	116.09	87.017	46.089	2.703e-06	65.762	181.867	-84.135	-80.575	-162.078	-37.036	5.333	-162.544	-156.808	-51.989	-31.428	-158.519	-153.061	-151.968	-146.475	5.544	-149.282	-8191	255	
11951.639	1	1	0	0	0.011486	0.17075	0.21173	0.27071	0.10404	0.077328	0.20094	0.34736	0.16196	0.13769	0.21153	0.16703	0.19627	0.24959	0.13127	0.21425	-1.8542	-1.8729	-1.9688	-2.3458	-1.7396	-2.225	-2.0896	-2.0958	-2.2104	-1.8396	-2.0542	-2.325	-1.9188	-2.2271	-2.2333	-1.9062	48.158	-130.655	141.649	-11.410	-7.716	-108.954	184.541	124.487	-112.459	166.372	62.001	-170.266	-154.987	153.743	15.768	111.984	0.00071246	0.00046309	0.00016752	701.61	3.4647e-06	2.907e-06	758.68	235.78	5.4621e-06	5.5326e-06	290.5	118.08	89.395	46.743	5.6542e-06	66.824	0.00030241	0.00024874	6.8158e-05	685.25	2.7125e-06	2.7203e-06	742.9	231.71	2.7227e-06	2.7156e-06	282.31	116	86.967	46.019	2.6502e-06	65.89	184.479	-48.567	-101.656	-162.281	-27.729	-34.881	-162.779	-157.043	-69.107	2.712	-158.305	-153.159	-152.693	-146.631	-11.274	-149.509	-8191	255	
11951.735	1	1	0	0	0.12799	0.15099	0.024451	0.36184	0.32735	0.12804	0.034408	0.21206	0.00282	0.057018	0.13131	0.25278	0.11665	0.14714	0.18005	0.26978	-2.0312	-2	-1.8771	-2.325	-1.9562	-2.1604	-2.1562	-1.9333	-2.3375	-2.1958	-1.8583	-2.3292	-1.8083	-2.1917	-2.1229	-1.9688	-58.075	26.512	25.573	92.280	72.720	-101.521	100.530	87.791	-157.828	-151.328	-127.729	117.268	174.451	-148.653	41.968	150.750	0.00075649	0.0007113	0.00016706	699.95	3.0975e-06	3.105e-06	753.87	235.93	3.2965e-06	8.2577e-06	292.05	118.3	90.076	47.24	5.3094e-06	67.347	0.00029761	0.00024261	6.7704e-05	682.97	2.6579e-06	2.5642e-06	740.37	231.12	2.6217e-06	2.5351e-06	282.47	116.08	87.63	46.481	2.6041e-06	66.362	175.874	-84.663	-90.185	-162.114	-44.227	-49.861	-162.589	-157.095	-71.179	-11.564	-158.057	-153.504	-153.006	-146.805	-53.095	-149.379	-8191	255	
11951.831	1	1	0	0	0.20445	0.086211	0.19432	0.13734	0.14247	0.08937	0.10066	0.22234	0.11833	0.22524	0.034134	0.1401	0.080339	0.14008	0.15788	0.19546	-1.7563	-1.9896	-2.1	-2.2833	-1.8937	-2.1042	-2.3625	-2.0979	-2.2521	-2.175	-1.8771	-2.3979	-2.0042	-2.1312	-2.2	-2.0167	145.660	-72.961	103.914	-125.901	94.641	-173.470	39.571	15.266	-76.028	-39.706	-69.944	118.480	-73.429	-9.241	-53.476	153.760	0.00074702	0.00038297	0.00011813	699.71	2.2582e-06	6.1077e-06	757.11	235.13	4.8708e-06	6.1345e-06	292.76	118.13	89.287	46.98	3.6812e-06	67.315	0.00028843	0.00023788	6.5514e-05	682.22	2.5331e-06	2.5248e-06	740.47	231.11	2.579e-06	2.5655e-06	282.77	116.22	87.384	46.288	2.63e-06	66.172	181.120	-113.757	-55.496	-161.449	-30.518	-42.975	-162.665	-156.899	-83.728	-20.356	-158.186	-152.894	-152.680	-146.514	-23.690	-149.137	-8191	255	
11951.927	1	1	0	0	0.18282	0.26533	0.17373	0.06579	0.058193	0.26796	0.15864	0.076424	0.062337	0.29862	0.13427	0.26436	0.094582	0.078091	0.14606	0.292	-1.8125	-2.0833	-1.8979	-2.4958	-2.15	-1.9813	-2.4229	-1.7938	-2.1792	-2.3104	-1.7875	-2.2667	-2.0104	-1.9583	-2.1542	-2.0625	122.906	-112.588	-39.375	176.524	134.394	143.528	132.855	166.376	-135.001	-154.542	10.609	173.347	125.184	130.119	132.462	149.884	0.00071116	0.00042521	0.0001334	699.37	1.4938e-06	2.7804e-06	756.73	236.56	5.0127e-06	5.2197e-06	294.6	118.14	89.251	46.893	2.2488e-06	66.583	0.00028862	0.00023463	6.5915e-05	683.47	2.5616e-06	2.6169e-06	741.75	231.47	2.6199e-06	2.5994e-06	284.15	116.1	87.417	46.051	2.6154e-06	65.582	181.702	-58.157	-99.939	-161.840	-24.553	-54.409	-162.446	-156.683	-97.729	-40.953	-158.139	-153.018	-152.315	-146.308	-23.429	-149.002	-8191	255	
11952.023	1	1	0	0	0.067071	0.25166	0.10803	0.3251	0.16383	0.10736	0.39338	0.25933	0.091108	0.033798	0.080827	0.21495	0.053562	0.065596	0.094563	0.28386	-1.6437	-2.1875	-1.8521	-2.2771	-2.0812	-2.1312	-2.5729	-2.0729	-2.125	-2.2875	-1.8062	-2.4437	-2.1271	-1.9875	-2.2625	-2.1521	136.834	6.305	-38.861	-18.150	144.832	-33.695	172.492	83.751	98.616	3.882	90.095	151.474	111.235	-31.940	-137.764	68.366	0.00075954	0.00033056	5.3095e-05	700.85	2.4673e-06	3.1134e-06	762.85	236.22	3.2032e-06	4.417e-06	290.53	118.19	88.807	46.458	4.4376e-06	66.341	0.00028602	0.00023921	6.629e-05	684.69	2.5924e-06	2.5949e-06	743.1	231.57	2.6342e-06	2.6215e-06	283.62	116.22	87.323	45.657	2.6465e-06	65.202	180.471	-121.188	-88.916	-161.557	-91.491	-39.071	-162.477	-156.855	-89.453	-13.270	-157.967	-152.823	-152.670	-146.249	-35.296	-148.976	-8191	255	
11952.119	1	1	0	0	0.0916	0.1691	0.11603	0.23184	0.046123	0.076145	0.18066	0.24125	0.03448	0.094121	0.14462	0.12048	0.22587	0.079743	0.27646	0.18221	-1.6771	-2.4229	-1.7771	-2.1958	-2.1667	-1.9083	-2.6188	-2.0792	-2.1542	-2.3438	-1.7833	-2.4708	-2.1708	-1.9875	-2.3937	-2.1604	-33.292	143.182	91.297	130.555	60.138	-147.577	26.980	142.521	52.525	-84.082	118.889	-80.038	177.617	-155.548	8.791	-162.250	0.00075955	0.00026672	0.00012784	704.17	2.456e-06	2.6563e-06	760.03	236.32	3.6159e-06	7.2185e-06	293.1	117.19	88.575	46.176	3.6228e-06	65.919	0.00028962	0.00023931	6.5966e-05	683.93	2.5492e-06	2.5191e-06	743.16	231.12	2.5655e-06	2.5232e-06	282.53	115.21	86.506	45.46	2.5325e-06	64.916	179.867	-70.126	-73.932	-161.428	-51.497	-32.378	-162.250	-156.774	-40.326	30.319	-158.005	-152.836	-152.892	-145.989	-73.063	-148.769	-8191	255	
11952.240	1	1	0	0	0.2695	0.10483	0.12193	0.13145	0.29776	0.14978	0.24984	0.11843	0.19598	0.24783	0.051218	0.27129	0.19043	0.25302	0.02461	0.15703	-1.5458	-2.2458	-1.7625	-2.2646	-1.9708	-1.925	-2.45	-1.9396	-2.0771	-2.5042	-1.775	-2.0938	-2.2354	-1.9292	-2.3854	-2.2021	-99.490	5.761	-33.862	-118.645	101.912	35.992	-62.433	59.205	159.842	41.317	176.153	93.693	7.762	152.088	57.449	109.701	0.0007058	0.00046781	0.00014799	699.71	3.6621e-06	4.4173e-06	753.82	234.97	2.3841e-06	3.6416e-06	292.94	117.7	88.874	46.435	5.538e-06	66.128	0.00028387	0.00022923	6.5092e-05	680.04	2.4951e-06	2.5289e-06	738.9	230.9	2.5253e-06	2.4412e-06	281.66	115.36	86.961	45.757	2.4922e-06	65.186	180.716	-55.837	-70.532	-161.292	-44.172	-26.365	-162.153	-156.215	-67.405	-6.247	-157.530	-152.736	-152.157	-145.832	-58.355	-148.761	-8191	255	
11952.334	1	1	0	0	0.21498	0.14606	0.088422	0.2687	0.14943	0.17957	0.1213	0.081301	0.088793	0.25439	0.18007	0.27321	0.11198	0.2092	0.1678	0.25749	-1.4042	-2.1542	-1.8833	-2.1625	-2.3688	-1.8167	-2.2687	-2.1292	-1.8937	-2.4062	-1.9792	-2.1167	-2.35	-1.8125	-2.2354	-2.1667	-87.894	-79.381	72.013	24.672	-142.799	-148.104	107.604	152.917	150.261	135.616	-149.475	116.172	180.265	157.179	-46.786	80.315	0.00072889	0.00040944	7.4721e-05	703.94	4.0205e-06	2.1303e-06	760.71	235.09	5.3128e-06	2.4052e-06	292.22	117.75	88.169	46.055	5.3351e-06	66.033	0.00027868	0.0002261	6.2132e-05	682.97	2.4804e-06	2.4759e-06	743.18	231.03	2.4939e-06	2.4978e-06	281.55	115.39	86.661	45.391	2.4789e-06	65.037	180.709	-71.126	-23.789	-161.742	-34.259	-12.153	-162.055	-156.849	-54.753	-23.611	-158.222	-153.255	-152.374	-146.134	-45.567	-149.301	-8191	255	
11952.430	1	1	0	0	0.1073	0.28537	0.079571	0.1532	0.19924	0.11337	0.28804	0.10369	0.056324	0.1625	0.25507	0.041446	0.2024	0.22196	0.062499	0.16983	-1.5042	-2.4396	-2.0167	-2.0354	-2.3042	-2.0917	-2.2125	-2.1208	-1.7646	-2.2083	-2.0062	-1.9458	-2.2375	-1.9312	-2.1063	-2.3312	-133.879	105.317	-115.948	147.903	120.366	25.960	88.575	65.248	122.165	65.621	158.844	-20.486	-13.505	145.534	28.663	115.965	0.00074729	0.00030712	0.00014893	696.29	2.0092e-06	5.4184e-06	758.4	236.5	4.4296e-06	4.0852e-06	293.72	118.55	89.11	46.496	4.5493e-06	66.894	0.00028408	0.00022603	6.3312e-05	683.1	2.4869e-06	2.5051e-06	742.57	231.9	2.5395e-06	2.4849e-06	283.25	115.8	87.063	45.861	2.4999e-06	65.735	181.842	-83.668	-66.779	-161.783	-7.519	-54.966	-162.477	-156.761	-49.903	-50.884	-158.240	-152.637	-151.979	-145.971	-57.235	-148.806	-8191	255	
11952.504	1	1	0	0	0.15675	0.13976	0.32596	0.078825	0.13417	0.17955	0.096556	0.087267	0.18171	0.25948	0.20097	0.21988	0.21071	0.31202	0.18487	0.051852	-1.45	-2.3667	-2.0583	-1.9854	-2.2313	-1.8229	-2.2562	-2.2854	-1.8958	-2.2062	-1.8958	-1.9438	-2.2167	-2.1021	-2	-2.2458	66.051	115.705	173.313	-51.008	-118.730	-70.266	7.118	144.664	159.867	-79.488	-169.284	111.049	51.913	-168.466	-124.382	-115.412	0.00078248	0.00024169	0.00014658	703.03	3.3399e-06	5.3536e-06	763.16	237.6	4.7382e-06	3.1181e-06	293.02	119.02	89.889	47.334	3.6553e-06	67.379	0.00028051	0.00022272	6.3214e-05	685.89	2.3985e-06	2.4142e-06	744.82	232.95	2.4105e-06	2.3663e-06	284.47	116.65	87.534	46.512	2.3618e-06	66.421	180.065	-91.606	-79.800	-161.274	-43.177	-35.145	-162.088	-156.552	-97.295	-1.390	-157.444	-152.918	-152.304	-146.077	-60.830	-148.662	-8191	255	
11952.623	1	1	0	0	0.040962	0.074071	0.15689	0.25312	0.12381	0.13957	0.17912	0.031442	0.27342	0.25457	0.037369	0.11847	0.30301	0.10773	0.12502	0.10468	-1.4458	-2.1208	-1.9438	-1.9562	-2.275	-1.8354	-2.0729	-2.1833	-1.8896	-2.1979	-1.9688	-1.9896	-2.2917	-2.0667	-2.0146	-2.5375	-173.315	-57.027	-55.274	154.739	-150.350	40.419	183.257	-63.427	69.284	-1.935	62.705	-8.327	-80.657	130.212	-152.127	71.751	0.00071868	0.00017584	0.00010082	707.9	5.1555e-06	3.773e-06	760.84	238.15	4.5888e-06	3.6153e-06	289.8	118.63	89.571	46.709	4.2436e-06	65.832	0.00027017	0.00021535	5.9419e-05	686.62	2.4039e-06	2.4272e-06	743.73	233.6	2.4125e-06	2.3427e-06	281.74	116.02	87.278	45.814	2.4352e-06	65.084	178.492	-106.641	-111.117	-161.180	-48.674	-19.928	-162.005	-156.453	-79.642	-39.245	-157.390	-152.736	-152.240	-145.713	-39.759	-148.533	-8191	255	
11952.719	1	1	0	0	0.12637	0.14061	0.080303	0.15104	0.31952	0.11408	0.41873	0.069197	0.10649	0.21701	0.18584	0.26909	0.13247	0.22032	0.10417	0.10814	-1.5812	-2.0375	-2.2333	-1.7896	-2.2458	-1.9708	-2.0187	-2.2938	-1.6958	-2.0458	-2.2562	-1.7958	-2.3771	-2.1312	-1.8833	-2.5292	139.294	-48.239	65.320	167.664	-145.027	74.554	154.372	135.973	160.979	9.040	101.005	61.968	-155.639	110.951	-121.076	65.193	0.00073984	0.00049376	0.00011031	705.69	6.0397e-06	3.8052e-06	759.53	236.81	6.0381e-06	1.4543e-06	292.82	116.82	88.945	45.676	3.2471e-06	65.847	0.00027354	0.0002212	6.0603e-05	684.05	2.3925e-06	2.3554e-06	742.64	232.23	2.4555e-06	2.3594e-06	282.57	115.04	86.928	45.103	2.4576e-06	64.529	179.589	-113.622	-88.056	-161.244	-56.216	-13.017	-162.001	-156.328	-77.449	6.283	-157.702	-152.729	-151.994	-145.851	-103.115	-148.671	-8191	255	
11952.815	1	1	0	0	0.27844	0.070193	0.044736	0.18114	0.16694	0.26765	0.45024	0.15421	0.1535	0.16553	0.14615	0.1811	0.076486	0.21088	0.2887	0.18612	-1.3354	-2.0708	-2.2146	-1.8521	-2.2562	-1.9104	-1.9167	-2.3875	-1.9292	-2.0438	-2.3146	-1.8917	-2.2625	-2.2042	-1.7375	-2.4813	130.197	-31.556	141.815	82.808	170.462	-128.750	145.581	-169.907	-37.244	164.654	-22.250	153.301	-160.945	169.305	-119.980	40.437	0.00070492	0.00037455	0.00011312	698.35	3.1298e-06	4.8584e-06	760.19	237.23	4.4449e-06	4.6063e-06	292.73	117.78	89.807	46.561	4.3868e-06	66.703	0.00027731	0.00022135	6.2372e-05	683.03	2.4308e-06	2.3863e-06	742.76	232.23	2.4685e-06	2.3856e-06	282.48	115.61	87.349	45.823	2.4536e-06	65.695	183.927	-110.940	-111.479	-161.504	-20.432	-46.472	-161.948	-156.520	-79.486	-94.682	-157.135	-152.327	-152.068	-145.936	-44.071	-149.118	-8191	255	
11952.911	1	1	0	0	0.33108	0.064383	0.067806	0.42805	0.091598	0.22926	0.1637	0.13776	0.20889	0.26091	0.19917	0.14242	0.18287	0.19298	0.073657	0.068328	-1.6396	-1.8417	-2.2292	-1.9917	-2.0917	-2.3354	-2.0729	-2.3854	-2.0083	-2.1021	-2.3187	-1.925	-2.1458	-2.1333	-1.8479	-2.4604	128.094	153.037	-161.214	-157.966	-71.334	61.358	96.411	122.513	-39.785	-83.148	57.463	103.118	126.144	64.203	-104.706	160.272	0.00074346	0.00058993	0.00016126	703.61	4.1183e-06	5.6147e-06	761.73	237.52	5.9184e-06	5.4864e-06	293.65	118.84	89.786	46.505	5.1348e-06	66.75	0.00027786	0.00021599	6.2021e-05	684.61	2.414e-06	2.4931e-06	744.55	232.65	2.485e-06	2.3867e-06	284.55	116.57	87.436	45.851	2.4357e-06	65.712	182.027	-44.262	-107.433	-161.787	-27.366	-14.423	-162.295	-156.820	-61.373	-49.511	-158.091	-152.693	-152.282	-146.284	-50.515	-148.945	-8191	255	
11953.032	1	1	0	0	0.11189	0.07633	0.13653	0.12943	0.07364	0.035818	0.13879	0.38544	0.10602	0.17916	0.2165	0.28452	0.23723	0.13514	0.04725	0.18886	-1.4854	-1.9042	-2.3292	-1.9542	-2.0375	-2.1083	-1.975	-2.3229	-1.9	-2.0438	-2.3479	-1.9917	-2.0854	-2.4646	-1.9625	-2.475	-171.726	44.704	5.922	62.382	7.616	94.532	113.045	129.071	-173.247	17.402	162.576	185.421	-150.630	135.772	127.409	139.727	0.00073956	0.00036081	0.00022136	701.59	2.3152e-06	4.094e-06	758.64	237.7	4.4942e-06	2.9295e-06	291.25	118.57	89.125	46.158	1.8604e-06	66.134	0.00027362	0.00021902	6.0459e-05	683.5	2.3054e-06	2.3468e-06	743.04	232.22	2.4356e-06	2.4091e-06	281.59	115.71	86.907	45.511	2.5105e-06	64.991	182.620	-49.178	-90.069	-161.308	-140.839	5.101	-162.465	-156.457	-48.374	-20.549	-157.788	-152.688	-152.528	-146.297	-5.443	-148.757	-8191	255	
11953.128	1	1	0	0	0.062637	0.20333	0.17613	0.23973	0.18128	0.239	0.093762	0.03661	0.27559	0.064145	0.12192	0.2662	0.15853	0.15168	0.1163	0.2217	-1.5	-1.7417	-2.3063	-1.8208	-2.0563	-2.4188	-2.0417	-2.2771	-2.0729	-1.9479	-2.2875	-2.2104	-1.9188	-2.2521	-1.8125	-2.2833	-144.646	10.909	1.889	-144.901	94.631	167.189	-162.810	183.065	96.473	140.554	37.766	143.154	-117.659	174.628	-12.947	158.637	0.00073504	0.00047727	9.7454e-05	701.34	4.5855e-06	3.3773e-06	761.67	235.99	6.5615e-06	2.3408e-06	292.85	117.77	89.462	46.588	4.1552e-06	66.925	0.0002691	0.00022039	5.8434e-05	682.73	2.3954e-06	2.353e-06	744.02	232.13	2.393e-06	2.3478e-06	283.01	115.6	87.114	45.774	2.3972e-06	65.778	183.518	-102.152	-86.561	-161.396	-82.953	-29.952	-161.871	-156.572	-64.733	-9.657	-157.873	-152.815	-152.374	-145.958	-68.644	-148.729	-8191	255	
11953.200	1	1	0	0	0.057178	0.11287	0.39997	0.22104	0.25939	0.12337	0.017476	0.33433	0.12848	0.18679	0.36427	0.14079	0.36616	0.093202	0.23043	0.13413	-1.4854	-1.7104	-2.2354	-2.2104	-1.8896	-2.0375	-1.8292	-2.2458	-1.9021	-1.7687	-2.2646	-2.0604	-1.9021	-2.3625	-1.9167	-2.0417	37.707	105.264	116.677	22.945	139.039	-104.824	150.540	47.469	-165.999	88.258	167.003	114.566	102.020	160.375	56.129	-165.777	0.00074941	0.00024783	5.6851e-05	702.45	2.5775e-06	2.8966e-06	761.24	237.19	6.0122e-06	3.6413e-06	293.87	118.01	89.647	46.93	5.9833e-06	67.363	0.00027147	0.0002172	6.0328e-05	683.49	2.3199e-06	2.3415e-06	744.12	232.99	2.3721e-06	2.3899e-06	284.79	116.32	87.584	46.219	2.419e-06	66.187	181.670	-77.719	-89.641	-161.402	-90.059	-5.446	-162.106	-156.293	-58.357	-33.426	-157.879	-152.835	-152.226	-146.160	-52.431	-148.777	-8191	255	
11953.320	1	1	0	0	0.065596	0.088894	0.19766	0.25192	0.27704	0.070911	0.20293	0.13722	0.050688	0.13929	0.10942	0.32171	0.14187	0.076092	0.11249	0.14933	-1.7229	-1.8604	-2.225	-1.95	-1.9667	-2.4042	-1.8813	-2.2229	-2.0771	-1.6917	-2.2354	-2.1833	-2.0687	-2.3708	-1.8396	-2.2	-121.870	-93.912	132.412	143.570	129.276	138.603	29.575	17.121	-95.301	136.390	64.008	52.516	-31.280	-156.892	-22.037	31.214	0.00075208	0.00074429	0.00011446	703.06	2.3006e-06	3.4749e-06	766.1	238.04	2.4623e-06	2.4215e-06	294.29	118.98	89.454	46.556	4.1804e-06	67.109	0.00027458	0.00021432	5.8887e-05	685.42	2.3817e-06	2.3789e-06	746.21	233.48	2.3535e-06	2.3901e-06	285.26	116.57	87.112	45.921	2.4347e-06	66.048	177.859	-93.097	-81.463	-161.023	-58.605	-46.427	-161.953	-156.350	-56.778	-39.104	-157.580	-152.871	-152.453	-145.831	-60.778	-148.638	-8191	255	
11953.416	1	1	0	0	0.013494	0.079117	0.18332	0.1527	0.05619	0.12704	0.059648	0.10572	0.065506	0.27196	0.13512	0.14254	0.18713	0.11321	0.20689	0.19232	-1.7729	-1.5729	-2.1771	-2.2604	-1.8354	-2.3125	-1.9813	-2.2104	-2.2958	-1.7583	-2.1729	-2.2333	-1.8083	-2.5083	-1.9188	-2.0708	-97.677	1.399	-140.864	-124.154	30.989	61.589	14.133	-144.446	43.141	-39.247	161.327	-76.592	-154.456	77.691	-18.292	102.604	0.00068979	0.00075887	8.6366e-05	704.97	1.5909e-06	5.5039e-06	763.83	237.71	1.8899e-06	4.2944e-06	293.37	118.35	89.263	46.572	1.2996e-06	66.823	0.00027773	0.00021622	5.8512e-05	686.47	2.325e-06	2.3221e-06	747.74	233.03	2.4736e-06	2.4183e-06	284.16	116.42	86.925	45.805	2.4891e-06	65.595	180.522	-72.371	-85.057	-161.305	-30.662	-28.505	-162.033	-156.239	-52.640	-41.561	-158.117	-152.507	-152.348	-145.823	-62.341	-148.741	-8191	255	
11953.513	1	1	0	0	0.11766	0.31405	0.16103	0.11128	0.16194	0.21132	0.34104	0.1162	0.13992	0.099716	0.31567	0.2602	0.11128	0.10675	0.11404	0.10917	-1.8042	-1.7646	-2.1562	-2.4813	-1.8563	-2.1583	-2.2333	-2.2458	-2.4313	-1.9813	-2.0146	-2.2271	-1.6542	-2.3542	-2.0917	-2.0563	79.051	-81.466	-59.278	-33.407	-133.282	-148.242	103.551	94.281	-7.066	5.245	48.382	-167.384	-112.761	112.635	71.914	93.892	0.00068607	0.00067106	9.238e-05	701.08	4.6388e-06	6.6211e-06	761.27	238.1	5.7897e-06	7.7524e-06	295.45	118.9	89.545	46.745	1.9626e-06	66.665	0.00027132	0.00022284	6.1063e-05	685.43	2.3502e-06	2.4035e-06	744.8	233.5	2.473e-06	2.4331e-06	284.41	116.25	87.398	45.89	2.4852e-06	65.806	181.069	-78.510	-87.949	-161.694	-2.325	-44.039	-162.614	-156.837	-55.374	-25.785	-158.492	-153.157	-152.774	-146.383	-76.531	-148.986	-8191	255	
11953.631	1	1	0	0	0.24345	0.095953	0.10466	0.051068	0.34333	0.26211	0.22586	0.12372	0.098924	0.12946	0.34003	0.14555	0.1198	0.37645	0.15335	0.077338	-1.975	-1.8542	-2.1562	-2.4167	-1.7979	-2.2292	-2.2562	-2.0271	-2.4917	-1.9167	-2.1542	-2.2708	-2.0042	-2.3333	-2.1979	-1.9125	-121.991	50.518	78.598	114.818	165.407	142.899	110.784	183.898	-135.008	89.011	146.033	131.757	-172.472	-126.812	18.354	65.140	0.00076473	0.00019639	0.00011232	705.64	4.2187e-06	2.2975e-06	761.82	239.3	5.9465e-06	6.2943e-06	294.71	118.35	89.019	46.5	3.0171e-06	66.664	0.00027828	0.00022018	6.1559e-05	686.36	2.4278e-06	2.3253e-06	744.35	233.26	2.3076e-06	2.4425e-06	284.36	116.01	87.118	45.888	2.4615e-06	65.767	179.036	-74.088	-64.866	-161.736	-34.795	-159.237	-162.308	-156.554	-83.397	-54.531	-158.319	-152.956	-151.879	-145.973	-90.018	-149.022	-8191	255	
11953.728	1	1	0	0	0.14152	0.3674	0.17265	0.17534	0.10054	0.16127	0.15517	0.36257	0.065402	0.11846	0.13617	0.099089	0.20912	0.12756	0.11055	0.14855	-1.9896	-2.0625	-1.9312	-2.3896	-1.7771	-2.4292	-2.475	-1.9958	-2.3854	-2.1375	-1.8521	-2.3125	-1.9042	-2.1	-2.0458	-1.9229	182.257	-3.204	94.379	-166.178	54.388	-18.623	-147.492	115.782	-104.666	23.691	57.149	77.542	128.334	144.974	-59.617	68.684	0.00074164	0.00051915	0.00013024	699.51	4.9194e-06	4.6233e-06	759.5	237.76	5.1835e-06	1.6837e-06	294.26	117.9	89.643	46.376	5.4929e-06	67.037	0.00027751	0.00021846	6.0882e-05	683.6	2.4653e-06	2.3984e-06	744.55	232.99	2.4109e-06	2.357e-06	285.31	116.15	87.207	45.757	2.4439e-06	65.932	180.598	-114.942	-94.802	-161.262	-47.810	21.384	-161.995	-156.592	-76.203	-58.185	-158.124	-153.030	-152.072	-146.078	-18.229	-148.751	-8191	255	
11953.799	1	1	0	0	0.11795	0.16509	0.2523	0.24519	0.11137	0.10311	0.21981	0.29162	0.064042	0.17145	0.05996	0.13113	0.047614	0.16138	0.12389	0.29652	-1.9146	-1.9813	-1.8542	-2.3896	-2.0292	-2.1083	-2.35	-2.0563	-2.2167	-2.15	-1.8083	-2.4667	-1.875	-2.2167	-2.3417	-1.8708	4.490	134.185	-149.976	64.308	2.387	183.143	40.546	52.919	-139.316	57.448	-153.631	-110.348	-123.537	134.580	114.705	155.347	0.00069944	0.00041213	0.00011709	704.05	2.5546e-06	1.7206e-06	764.4	237.84	4.0097e-06	2.7754e-06	294.25	118.92	88.934	45.958	3.6423e-06	66.345	0.00027055	0.00022391	6.125e-05	686.56	2.4521e-06	2.4101e-06	746.58	233.14	2.4365e-06	2.349e-06	283.91	116.29	87.289	45.483	2.4802e-06	65.396	182.055	-98.160	-65.276	-161.459	-41.497	-30.204	-162.159	-156.601	-27.703	-33.772	-157.823	-152.794	-151.711	-145.875	-13.894	-148.784	-8191	255	
11953.920	1	1	0	0	0.16456	0.11266	0.16726	0.04015	0.094959	0.22321	0.21761	0.20725	0.20214	0.22698	0.19235	0.17795	0.12483	0.13396	0.13026	0.19354	-1.7167	-2.1	-1.7604	-2.3833	-2.0271	-2.1729	-2.3833	-2.1042	-2.1542	-2.2042	-1.8563	-2.4208	-1.9125	-2.1688	-2.4813	-2	143.259	127.769	-67.690	36.819	-105.332	30.597	118.325	12.592	172.733	-112.594	-141.505	146.318	173.008	-24.192	119.607	113.496	0.00073916	0.0003539	0.00010643	703.06	3.8363e-06	3.9247e-06	762.45	237.43	4.9739e-06	4.4968e-06	292.18	118.28	88.65	46.157	3.3869e-06	65.706	0.00027359	0.00022343	6.0336e-05	684.49	2.4804e-06	2.3869e-06	743.68	232.24	2.4517e-06	2.4279e-06	282.76	115.76	86.946	45.526	2.4165e-06	64.807	179.085	-59.315	-35.078	-161.295	-46.953	13.574	-161.882	-156.384	-63.135	-43.510	-157.889	-152.768	-152.261	-146.252	-64.451	-148.857	-8191	255	
11954.016	1	1	0	0	0.039812	0.050264	0.30795	0.22458	0.39087	0.15773	0.28378	0.22816	0.037134	0.15189	0.056988	0.19696	0.11142	0.26795	0.14262	0.15667	-1.7167	-2.0312	-1.7479	-2.2458	-1.9	-1.9062	-2.2958	-1.6729	-2.0187	-2.1896	-1.8521	-2.4062	-1.9458	-2.1167	-2.2583	-2.0542	136.779	-106.301	-133.389	-66.211	-104.341	-136.372	165.679	77.068	-41.299	131.477	-115.294	132.391	56.612	-5.951	-65.494	-155.121	0.00073414	0.00070576	0.00010966	698.23	3.2731e-06	1.5241e-06	757.92	236.56	2.8451e-06	6.8704e-06	294.24	118	89.012	45.811	3.7848e-06	65.834	0.00027355	0.00022806	6.423e-05	681.73	2.5058e-06	2.403e-06	742.04	231.92	2.5018e-06	2.3952e-06	282.88	115.46	86.885	45.201	2.4182e-06	64.7	181.517	-69.171	-75.336	-162.435	-74.340	13.304	-163.232	-157.463	-26.660	-45.600	-159.050	-153.920	-153.373	-146.576	-58.377	-149.823	-8191	255	
11954.112	1	1	0	0	0.02452	0.073197	0.17252	0.17714	0.33424	0.1503	0.10489	0.26148	0.16578	0.18864	0.48454	0.19164	0.026601	0.20824	0.19091	0.23414	-1.7875	-2.2313	-1.8167	-2.4396	-1.9979	-1.8417	-2.4437	-2.0896	-2.0542	-2.2667	-1.75	-2.2354	-1.9438	-1.8583	-2.2438	-2.0875	-102.253	17.049	71.126	-118.887	149.961	-124.677	121.337	160.406	40.499	85.178	110.506	142.254	-48.221	46.016	108.301	119.175	0.00071336	0.00033706	0.00015148	698.24	2.0156e-06	5.4965e-06	761.94	236.58	5.1987e-06	5.6671e-06	292.25	117.62	88.246	46.083	4.111e-06	65.671	0.0002769	0.00022323	6.2699e-05	682.25	2.4621e-06	2.4302e-06	742.47	231.91	2.4373e-06	2.5088e-06	283.68	115.41	86.648	45.297	2.4801e-06	64.68	178.435	-94.043	-98.916	-161.177	-62.462	-24.103	-162.311	-156.723	-81.544	-62.466	-158.483	-152.939	-152.700	-146.342	-54.477	-148.838	-8191	255	
11954.208	1	1	0	0	0.23281	0.19131	0.28783	0.0063345	0.1669	0.12934	0.13732	0.127	0.31495	0.3257	0.019373	0.27997	0.12362	0.24483	0.10224	0.058444	-1.6958	-2.1042	-1.9479	-2.3708	-1.9354	-1.8771	-2.3396	-2.0896	-2.0479	-2.2938	-1.7938	-2.1937	-2.3667	-2	-2.325	-1.9958	175.699	99.162	125.472	-12.096	7.408	40.683	22.931	157.766	49.326	-173.910	63.929	30.529	-118.336	-163.721	79.669	96.320	0.00069279	0.00043273	0.00010922	701.8	1.2076e-06	4.0834e-06	763.69	236.8	2.3672e-06	4.8526e-06	296.77	118.81	89.176	46.336	2.9309e-06	66.393	0.00027833	0.00022154	6.2573e-05	684.06	2.4662e-06	2.5e-06	744.5	232.32	2.5161e-06	2.4315e-06	284.58	116.57	87.234	45.62	2.5e-06	65.203	180.327	-116.741	-74.470	-161.368	-18.870	-35.453	-162.368	-156.781	-118.293	-16.257	-158.216	-152.647	-152.731	-146.322	-16.686	-148.837	-8191	255	
11954.327	1	1	0	0	0.07339	0.20073	0.38094	0.25449	0.076638	0.14477	0.21285	0.19502	0.33814	0.1205	0.075269	0.28044	0.067794	0.32033	0.090002	0.10195	-1.4396	-2.2292	-1.8062	-2.0521	-2.3104	-1.7833	-2.475	-2.2271	-1.9229	-2.1646	-1.9	-2.3	-2.3146	-2.0333	-2.3125	-2.3667	153.441	116.891	-126.679	149.808	-16.019	-60.533	81.671	-159.874	-146.076	-132.619	160.537	84.912	180.429	178.018	-146.133	-150.688	0.00069246	0.00052007	0.00011068	702.69	2.2179e-06	4.0241e-06	759.87	238.96	2.9408e-06	4.1239e-06	288.93	118.86	89.783	46.318	4.3867e-06	65.958	0.0002786	0.00022492	6.1756e-05	684	2.4731e-06	2.4386e-06	743.28	233.3	2.506e-06	2.3869e-06	282.23	116.03	87.361	45.565	2.4723e-06	64.752	182.734	-66.325	-107.560	-161.509	-40.411	-38.678	-161.875	-156.518	-68.177	-44.040	-157.961	-152.940	-152.012	-145.855	-21.951	-148.692	-8191	255	
11954.423	1	1	0	0	0.054504	0.066322	0.038556	0.35287	0.076142	0.12516	0.019348	0.15612	0.10736	0.21167	0.16666	0.17647	0.090938	0.099302	0.22485	0.064863	-1.5312	-2.1937	-1.8646	-2.1583	-2.1417	-1.6896	-2.5396	-2.2375	-1.8417	-2.4083	-1.9896	-2.0375	-2.1771	-2.0938	-2.1479	-2.3625	-82.391	41.895	-110.676	103.767	150.965	7.579	-4.544	152.054	1.672	-71.263	158.074	131.079	-101.989	-14.451	-86.956	24.358	0.00071383	0.00042424	6.4716e-05	701.81	4.2102e-06	4.9215e-06	753.52	238.15	5.0388e-06	5.607e-06	291.96	118.58	91.457	47.019	4.4831e-06	66.159	0.00027691	0.00022239	6.2155e-05	684.21	2.4982e-06	2.488e-06	739.08	233.13	2.5342e-06	2.4375e-06	281.86	116.28	88.861	46.17	2.4641e-06	65.267	184.434	-105.032	-56.559	-161.494	-37.605	-22.544	-162.158	-156.454	-42.015	-57.242	-157.929	-153.250	-152.040	-145.915	-36.879	-148.887	-8191	255	
11954.497	1	1	0	0	0.077141	0.20609	0.048943	0.062915	0.19919	0.16211	0.24708	0.25094	0.11035	0.025171	0.23515	0.25761	0.11271	0.13116	0.10487	0.24659	-1.5354	-2.2562	-1.9958	-1.8875	-2.3312	-2.0062	-2.3646	-2.3521	-1.7354	-2.2521	-2.0979	-2.0333	-2.15	-2.0917	-1.9917	-2.425	-168.484	82.454	-84.980	85.717	57.850	-35.677	97.954	147.444	170.855	-63.068	91.442	181.852	-131.821	183.801	-124.097	128.088	0.0006806	0.00043887	5.3349e-05	701.46	2.1194e-06	2.1004e-06	757.66	239.52	3.9353e-06	7.0521e-07	294.49	119.17	91.249	47.22	7.1473e-06	66.592	0.00027541	0.0002237	6.2606e-05	684.73	2.46e-06	2.433e-06	739.3	233.79	2.4608e-06	2.4273e-06	283.59	116.53	88.506	46.312	2.4999e-06	65.364	185.454	-60.665	-137.429	-161.311	-98.557	-4.608	-161.958	-156.409	-87.260	-1.103	-157.398	-152.825	-151.674	-145.766	-54.254	-148.686	-8191	255	
11954.593	1	1	0	0	0.35703	0.079265	0.11936	0.33985	0.049055	0.054894	0.19918	0.16854	0.15986	0.10035	0.25453	0.33182	0.2104	0.19906	0.24462	0.10151	-1.3833	-2.1771	-1.9521	-1.8667	-2.4396	-2.0292	-2.4188	-2.2375	-1.8979	-2.2854	-2.1167	-1.9021	-2.5417	-2.0708	-1.9875	-2.4188	-40.206	143.491	70.784	-171.423	50.738	99.005	129.342	172.946	132.443	69.403	20.911	116.129	-128.497	153.019	112.090	108.046	0.0007329	0.00062295	6.6343e-05	700.36	1.6636e-06	2.4579e-06	753.34	236.67	4.4944e-06	2.606e-06	292.1	118.69	89.743	45.775	6.1406e-06	65.338	0.00027932	0.00022626	6.52e-05	681.94	2.4588e-06	2.4861e-06	738.67	232.43	2.5746e-06	2.5473e-06	281.62	115.99	87.792	45.123	2.5445e-06	64.036	182.386	-71.845	-111.253	-161.359	-24.247	-19.263	-162.026	-156.112	-46.464	-45.070	-157.691	-152.734	-152.394	-145.624	-56.272	-148.393	-8191	255	
11954.712	1	1	0	0	0.11385	0.070625	0.11991	0.13423	0.17276	0.14491	0.44748	0.089532	0.23261	0.36861	0.34241	0.45116	0.23418	0.086688	0.24253	0.49668	-1.2896	-2.1667	-2.0208	-1.9229	-2.3688	-2.0583	-2.2083	-2.4562	-1.9375	-2.0146	-2.2729	-2.0125	-2.2938	-2.1146	-1.8604	-2.0812	-39.177	-125.334	157.559	137.005	77.798	101.017	139.831	152.546	-60.189	-16.154	119.294	79.482	-53.635	77.307	137.904	90.346	0.000713	0.00042319	0.00013792	700.21	2.7475e-06	5.4775e-06	750.14	236.78	4.8017e-06	1.0746e-05	292.85	118.84	90.648	46.201	5.1811e-06	64.855	0.00028092	0.00023431	6.4324e-05	681.24	2.5296e-06	2.6085e-06	735.38	231.75	2.6539e-06	2.5823e-06	282.43	115.93	88.501	45.366	2.6118e-06	63.782	177.407	-19.379	-98.275	-161.109	-24.619	-0.757	-161.597	-156.479	-63.209	-44.045	-157.845	-152.701	-151.922	-145.680	-50.047	-148.456	-8191	255	
11954.808	1	1	0	0	0.33662	0.24265	0.053799	0.20178	0.048228	0.24364	0.11308	0.10012	0.30583	0.12974	0.17317	0.12589	0.15336	0.48467	0.1518	0.28013	-1.3333	-2.0396	-2.2375	-1.8604	-2.3625	-1.9125	-1.8792	-2.5687	-1.9229	-2.0833	-2.1375	-1.9438	-2.1479	-2.2208	-1.8479	-2.55	78.965	3.536	-35.455	127.538	-130.533	-128.727	-145.222	128.325	-72.149	182.514	75.612	-92.535	4.503	140.865	85.958	108.183	0.0007208	0.00052218	8.4005e-05	697.58	4.4555e-06	4.7136e-06	743.9	237.78	2.9728e-06	5.2162e-06	293.33	118.84	91.202	47	5.5964e-06	66.03	0.000291	0.00023511	6.591e-05	679.27	2.5533e-06	2.5432e-06	729.35	232.54	2.5839e-06	2.5466e-06	282.44	116.57	89.143	46.42	2.6006e-06	65.081	178.890	-83.711	-99.159	-160.891	-50.079	-24.449	-161.745	-156.049	-47.755	3.654	-157.856	-152.596	-151.968	-145.764	-61.253	-148.779	-8191	255	
11954.904	1	1	0	0	0.1396	0.21447	0.10679	0.042825	0.20068	0.39054	0.24369	0.1308	0.10841	0.15566	0.20633	0.20185	0.13781	0.11554	0.31788	0.37891	-1.3375	-1.9542	-2.2271	-1.8896	-2.0438	-2.3375	-1.775	-2.4188	-2.05	-2.2062	-2.2146	-1.6958	-1.9583	-2.175	-1.9396	-2.3833	183.599	-64.752	44.527	9.132	-52.251	87.292	142.095	-131.082	-91.750	162.892	34.397	107.522	81.331	152.120	94.846	144.941	0.00068068	0.00054254	0.0001095	691.35	1.8088e-06	1.2795e-06	743.25	236.64	6.1026e-06	3.1855e-06	290.08	119.33	91.276	47.417	8.1693e-07	66.263	0.00027661	0.00023235	6.3807e-05	677.29	2.5551e-06	2.6018e-06	729.57	232.07	2.6361e-06	2.5498e-06	281.79	117.21	89.582	46.687	2.6498e-06	65.334	181.948	-65.031	-19.130	-161.360	-78.403	-33.381	-162.186	-156.544	-49.993	9.757	-157.699	-152.901	-152.554	-145.959	-21.355	-148.918	-8191	255	
11955.000	1	1	0	0	0.14846	0.043346	0.048357	0.23745	0.12476	0.24685	0.037599	0.2522	0.033624	0.18918	0.17603	0.065507	0.20096	0.449	0.11867	0.10315	-1.3708	-1.9229	-2.2208	-2.0479	-2.1729	-2.0563	-1.9604	-2.275	-1.9333	-1.8479	-2.3542	-1.9479	-2.1104	-2.3438	-1.7458	-2.3792	140.651	-61.552	-75.056	25.726	27.771	70.823	100.336	42.666	104.604	-115.213	-93.846	-169.324	68.821	-110.300	96.099	-86.983	0.00073821	0.00025779	9.8654e-05	693.81	4.7433e-06	7.0081e-06	747.44	237.28	4.8079e-06	3.9662e-06	292.64	120.4	92.839	47.931	4.6529e-06	66.877	0.00029026	0.00024054	6.4548e-05	677.06	2.6872e-06	2.6082e-06	730.28	232.57	2.6844e-06	2.6651e-06	283.45	118.28	90.751	47.226	2.6948e-06	66.037	181.132	-89.705	-122.608	-161.318	-9.019	-54.286	-161.977	-156.300	-79.919	9.519	-157.797	-152.784	-152.031	-146.167	16.370	-149.059	-8191	255	
11955.096	1	1	0	0	0.32249	0.15186	0.10144	0.0836	0.20111	0.18176	0.083323	0.032955	0.06579	0.38692	0.043962	0.25986	0.080117	0.1697	0.11656	0.096355	-1.5667	-1.825	-2.4167	-1.8833	-2.0354	-2.1521	-1.7208	-2.4021	-2.1667	-1.7938	-2.3063	-2.0312	-1.9771	-2.2979	-1.8729	-2.2958	184.086	12.391	121.143	133.537	96.367	-32.285	150.797	-17.315	-58.982	-30.166	-27.998	182.040	63.826	75.842	-171.522	-31.334	0.00065303	0.00025905	0.00020404	694.58	2.9052e-06	2.7798e-06	745.32	237.41	3.2827e-06	2.3424e-06	294.04	121.77	93.406	48.221	5.1224e-06	67.868	0.00029543	0.0002423	6.7407e-05	676.39	2.6676e-06	2.6252e-06	730.15	233.51	2.5883e-06	2.7287e-06	284.64	119.46	91.488	47.631	2.729e-06	66.462	181.982	-56.879	-88.936	-161.315	-9.391	-6.428	-162.248	-156.307	-75.776	-27.137	-157.463	-153.373	-152.290	-145.846	-58.605	-149.035	-8191	255	
11955.193	1	1	0	0	0.11791	0.087697	0.12084	0.1576	0.11808	0.063693	0.13023	0.066624	0.14712	0.087199	0.11061	0.18745	0.22856	0.19411	0.094627	0.087262	-1.6375	-1.7792	-2.1771	-1.9083	-2.0187	-2.3479	-2.0667	-2.3	-2.1979	-2.0458	-2.3208	-1.8979	-1.9396	-2.425	-1.9771	-2.1	97.554	124.517	164.637	169.342	-156.197	-96.126	154.268	-5.348	23.659	-15.351	169.206	73.220	-167.780	178.821	-12.594	-117.597	0.00067407	0.00038721	0.00015556	693.92	3.8304e-06	4.5169e-06	741.35	236.77	4.3037e-06	6.2682e-06	291.76	120.81	93.267	47.986	2.4967e-06	66.392	0.00029112	0.00023947	6.6551e-05	675.92	2.6136e-06	2.7261e-06	727.11	232.9	2.7703e-06	2.618e-06	282.82	118.34	90.985	47.289	2.7598e-06	65.45	180.600	-63.598	-109.521	-161.804	-63.798	-43.659	-162.312	-156.434	-50.302	-2.543	-157.826	-152.930	-152.160	-146.348	-7.562	-149.094	-8191	255	
11955.313	1	1	0	0	0.042903	0.060304	0.20806	0.21429	0.1561	0.17469	0.14796	0.054733	0.46242	0.042796	0.32227	0.31387	0.33369	0.2799	0.19309	0.12139	-1.7313	-1.8292	-2.0854	-2.1125	-1.8229	-2.3083	-1.8354	-2.1021	-2.1396	-1.8104	-2.2062	-2.0458	-1.7917	-2.4396	-1.85	-2.2479	-70.181	-130.106	-27.670	58.796	119.795	-166.572	-172.964	61.571	-12.678	-116.570	-41.643	179.958	-137.699	177.992	13.749	-111.109	0.00076854	0.00049184	0.00012765	691.83	3.5381e-06	5.0938e-06	739.8	236.99	5.2416e-06	7.6861e-06	293.2	122.07	94.87	49.098	5.5071e-06	67.563	0.00029837	0.00024179	6.7954e-05	674.53	2.6444e-06	2.643e-06	725.52	233.15	2.6796e-06	2.677e-06	283.52	119.58	92.199	48.258	2.7303e-06	66.705	181.003	-72.321	-58.672	-161.297	-37.441	-40.603	-162.131	-156.325	-48.323	-14.336	-157.656	-153.045	-151.976	-145.937	-51.072	-148.819	-8191	255	
11955.409	1	1	0	0	0.12002	0.053133	0.016856	0.10709	0.26785	0.21258	0.29492	0.05511	0.11691	0.25406	0.2138	0.13306	0.13816	0.20813	0.35879	0.1511	-1.775	-1.7	-2.1979	-2.2375	-1.6917	-2.3333	-1.9813	-2.1146	-2.1521	-1.8	-2.375	-2.2562	-1.8833	-2.45	-1.9333	-2.0979	-73.574	126.614	-162.519	119.862	-114.340	61.690	-94.032	117.877	-51.647	-86.840	69.586	85.449	-97.766	156.321	2.275	-36.135	0.00072848	0.00029986	0.00019523	693.49	2.8661e-06	4.8294e-06	743.32	237.99	7.1058e-06	5.6117e-06	292.39	122.78	94.745	49.527	5.6834e-06	68.704	0.00030211	0.00024914	6.7852e-05	673.48	2.6718e-06	2.7123e-06	727.35	234.59	2.681e-06	2.6636e-06	284.62	120.69	92.433	48.765	2.729e-06	67.755	178.269	-129.387	-64.313	-161.247	-48.657	-10.042	-162.130	-156.315	-61.665	-37.347	-157.820	-152.793	-152.540	-146.046	-77.610	-149.129	-8191	255	
11955.504	1	1	0	0	0.099593	0.31372	0.12982	0.13267	0.32441	0.059659	0.2045	0.16215	0.10171	0.28363	0.30481	0.46911	0.10078	0.25665	0.12295	0.32231	-1.7417	-1.9146	-2.2333	-2.1854	-1.8312	-2.1625	-2.0646	-2.0917	-2.1958	-1.7812	-2.2646	-2.2625	-1.8375	-2.3792	-1.9125	-2.0042	-64.361	-143.571	-102.167	112.230	-66.081	-74.918	77.198	133.556	-9.145	120.852	-153.796	162.189	-1.609	-36.897	47.481	140.331	0.00077088	0.00047685	9.4699e-05	695.48	3.751e-06	8.5616e-06	743.3	240.78	3.2566e-06	5.7078e-06	298.74	124.11	95.203	50.249	4.6121e-06	69.985	0.00029927	0.00023777	6.6973e-05	676.05	2.6578e-06	2.6467e-06	728.89	235.82	2.699e-06	2.6743e-06	287.04	122.07	93.477	49.452	2.649e-06	68.8	181.599	-74.218	-83.903	-161.462	-62.866	-48.223	-162.220	-156.245	-67.609	-29.978	-157.998	-153.238	-152.094	-145.775	-31.564	-148.885	-8191	255	
11955.602	1	1	0	0	0.12647	0.15955	0.1366	0.15965	0.26626	0.23203	0.064995	0.057453	0.033178	0.19131	0.17269	0.24914	0.17127	0.22216	0.30265	0.23565	-1.7771	-1.9958	-2.1979	-2.1625	-1.775	-2.3167	-2.1729	-1.95	-2.3729	-2.0479	-1.9521	-2.3708	-1.7833	-2.3208	-2.0708	-1.8896	26.188	-158.363	35.250	96.589	117.536	156.957	89.382	146.875	135.423	86.461	-133.006	170.824	-8.815	157.517	94.914	87.916	0.00077273	0.0005409	0.00014259	698.65	1.6774e-06	3.2346e-06	747.67	239.33	3.477e-06	8.2589e-06	297.29	123.76	95.591	50.302	3.5334e-06	69.939	0.0002884	0.00023558	6.4691e-05	679.42	2.5711e-06	2.5284e-06	730.25	235.49	2.6199e-06	2.4846e-06	286.92	121.36	92.983	49.624	2.597e-06	68.927	180.547	-65.849	-59.743	-161.478	-128.624	-17.493	-162.032	-156.187	-39.567	-69.088	-158.020	-153.092	-152.239	-146.029	-31.982	-149.259	-8191	255	
11955.696	1	1	0	0	0.29278	0.024285	0.07245	0.12348	0.1709	0.25897	0.34284	0.24712	0.15443	0.2858	0.1488	0.12835	0.15336	0.061473	0.21236	0.22936	-1.8292	-1.7771	-1.8563	-2.2771	-1.875	-2.0479	-2.3229	-1.9271	-2.325	-2.1937	-1.8854	-2.3625	-1.7229	-2.1188	-2.1146	-1.875	148.982	56.067	-40.824	101.925	122.046	-11.037	36.147	175.441	-30.403	119.220	-14.772	96.138	171.857	-129.859	-100.683	-164.214	0.00078632	0.00032556	0.00016841	691.85	1.0866e-06	2.9614e-06	748.92	239.75	5.2424e-06	5.2052e-06	294.71	123.95	95.367	50.755	2.1176e-06	70.479	0.00029027	0.00022822	6.4736e-05	677.76	2.5677e-06	2.4854e-06	731.68	235.87	2.5493e-06	2.6079e-06	286.64	121.94	93.144	50.063	2.656e-06	69.471	-173.676	-80.947	-66.522	-161.405	-14.788	-44.965	-162.559	-156.601	-64.596	-27.378	-157.575	-153.202	-152.398	-146.106	-60.812	-149.090	-8191	255	
11955.792	1	1	0	0	0.026442	0.097435	0.24324	0.081608	0.17981	0.1158	0.23933	0.10634	0.073973	0.085201	0.10292	0.030923	0.18279	0.2564	0.18274	0.28821	-1.8062	-1.9479	-1.9542	-2.2396	-1.7938	-2.0354	-2.1521	-1.9042	-2.3333	-2.0354	-1.9479	-2.3875	-1.825	-2.1	-2.1813	-1.8292	-170.071	-91.620	-11.333	177.106	15.867	-111.423	110.287	-67.657	-63.233	147.671	-34.550	-50.130	65.851	-145.511	48.821	87.269	0.00077299	0.00067951	8.9012e-05	697.03	5.0421e-06	5.8389e-06	747.53	240.59	2.7187e-06	7.4885e-06	293.57	124.16	95.086	50.141	4.5967e-06	69.87	0.000289	0.0002352	6.4082e-05	680.42	2.593e-06	2.5636e-06	732.25	236.64	2.5018e-06	2.5173e-06	286.52	121.97	92.824	49.45	2.6119e-06	68.851	176.425	-47.266	-116.687	-161.891	-64.773	-25.556	-163.095	-157.197	-29.074	-64.517	-158.762	-153.876	-153.564	-147.095	-1.385	-150.440	-8191	255	
11955.888	1	1	0	0	0.40614	0.078395	0.15289	0.25164	0.17324	0.1013	0.18098	0.20032	0.24002	0.24677	0.14561	0.36734	0.17199	0.13949	0.28287	0.1832	-1.9146	-1.9542	-1.775	-2.3167	-1.8646	-2.3021	-2.3396	-1.8646	-2.1771	-2.025	-1.9021	-2.325	-2.0438	-2.1188	-2.2896	-1.9396	40.529	-57.722	-167.674	170.217	-171.798	-148.135	148.991	100.506	72.214	-56.473	30.596	121.957	-162.638	-172.029	-91.945	170.043	0.00072651	0.00029596	0.00011328	698.68	2.6586e-06	4.6913e-06	747.45	239.86	7.8565e-06	4.0657e-06	296.99	123.12	95.046	49.839	4.9416e-06	69.475	0.00028575	0.00023373	6.5494e-05	679.81	2.5793e-06	2.6128e-06	732.94	235.83	2.592e-06	2.5776e-06	288.22	121.7	92.943	49.153	2.6237e-06	68.554	181.724	-57.553	-116.710	-162.853	-94.091	-45.382	-163.288	-157.282	-80.128	-30.194	-159.024	-154.106	-153.110	-147.164	-82.490	-150.191	-8191	255	
11956.009	1	1	0	0	0.052736	0.24248	0.1489	0.095497	0.12244	0.085371	0.37569	0.051155	0.20008	0.074534	0.078214	0.25354	0.19714	0.11609	0.2049	0.30317	-1.6667	-1.9937	-1.6854	-2.4	-2.0375	-1.9292	-2.4708	-1.7479	-2.1604	-2.1917	-1.7771	-2.3417	-2.0854	-2.1417	-2.3979	-2.0542	-121.295	152.088	-39.778	121.130	-74.484	-82.115	144.978	149.072	178.032	-45.379	-19.306	-107.456	64.374	64.663	162.590	76.097	0.0007368	0.00024647	7.3474e-05	696.38	1.2309e-06	5.2454e-06	750.99	239.11	1.675e-06	5.9823e-06	298	124.17	93.968	49.783	4.1773e-06	69.172	0.00028518	0.00023815	6.6226e-05	679.21	2.5249e-06	2.5274e-06	734.03	235.29	2.5741e-06	2.5376e-06	287.55	121.83	92.435	49.033	2.6277e-06	68.296	177.975	-95.282	-100.985	-162.403	79.706	-30.909	-163.282	-157.228	-67.446	-55.327	-159.177	-154.039	-153.458	-147.200	-26.508	-150.288	-8191	255	
11956.105	1	1	0	0	0.064269	0.39926	0.23983	0.29476	0.24693	0.18898	0.089445	0.40498	0.031132	0.072107	0.11722	0.16056	0.15598	0.28641	0.1367	0.19183	-1.8125	-2.1167	-1.6812	-2.2458	-2.125	-1.7896	-2.425	-1.8833	-2.0146	-2.2417	-1.8375	-2.2167	-2.1312	-1.9667	-2.2938	-2.0042	-159.997	-109.423	-166.535	108.914	-81.130	-78.749	113.806	140.867	-165.693	-36.110	-155.206	-161.817	97.275	175.679	97.000	-153.088	0.00077317	0.00047916	8.0723e-05	690.96	1.573e-06	3.6714e-06	743.72	240.41	5.1508e-06	5.4541e-06	298.51	123.71	94.139	49.23	6.0692e-06	68.874	0.00029131	0.00023647	6.5126e-05	678.88	2.5135e-06	2.5984e-06	731.16	235.87	2.6033e-06	2.5413e-06	287.42	121.46	92.171	48.738	2.5385e-06	68.005	180.976	-80.960	-93.551	-162.691	-89.322	-36.095	-163.191	-157.341	-87.944	-55.893	-158.511	-153.704	-153.254	-147.202	-42.329	-150.111	-8191	255	
11956.201	1	1	0	0	0.1008	0.10217	0.28117	0.23421	0.15693	0.20407	0.25457	0.38563	0.14936	0.028877	0.28189	0.097608	0.26393	0.15172	0.15574	0.27962	-1.6271	-2.2812	-1.6604	-2.1375	-2.1792	-1.9333	-2.4333	-2.0625	-2.0333	-2.3396	-1.8813	-2.2938	-2.2979	-2.1042	-2.2521	-2.1437	-41.494	123.858	-115.157	104.643	-46.975	157.982	125.916	124.962	-71.461	-11.028	108.714	163.314	-117.255	98.177	23.284	103.849	0.00073219	0.00054754	9.2852e-05	693.05	2.7162e-06	4.0795e-06	747.5	239.5	3.6164e-06	2.3015e-06	296.86	123.39	94.441	49.404	5.0412e-06	68.994	0.00028592	0.00023623	6.5943e-05	676.93	2.567e-06	2.6231e-06	731.74	235.2	2.5805e-06	2.5314e-06	286.72	121.18	92.245	48.751	2.5714e-06	68.013	181.557	-76.686	-86.376	-162.178	56.058	-49.051	-163.231	-157.189	-70.760	-74.696	-158.554	-154.133	-152.944	-146.850	-38.507	-149.749	-8191	255	
11956.297	1	1	0	0	0.32413	0.362	0.13216	0.33558	0.1839	0.16942	0.15141	0.1692	0.16149	0.14359	0.10268	0.28997	0.10314	0.041791	0.083811	0.28547	-1.4917	-2.15	-1.8625	-2.2021	-2.25	-1.8667	-2.3958	-2.2167	-1.775	-2.2083	-1.9813	-2.0167	-2.0708	-1.9354	-2.2771	-2.1417	-45.353	-16.457	-51.114	21.444	149.412	-86.860	46.138	25.246	-146.878	-69.187	55.183	144.939	177.173	112.062	-40.045	128.960	0.00078436	0.00026724	0.00019199	691.49	3.2704e-06	6.4219e-06	748.22	239.1	7.5096e-06	4.9245e-06	297.26	123.18	94.251	49.236	4.7699e-06	69.054	0.00028542	0.00023822	6.6212e-05	675.85	2.5847e-06	2.5863e-06	731.31	234.65	2.5453e-06	2.5951e-06	287.61	121	91.977	48.527	2.6301e-06	67.954	179.783	-71.172	-57.072	-162.286	-20.278	-49.977	-162.953	-157.178	-46.461	-8.720	-158.635	-153.719	-152.976	-146.742	-90.315	-149.390	-8191	255	
11956.394	1	1	0	0	0.15978	0.053477	0.28329	0.063821	0.15662	0.26353	0.16793	0.25688	0.044532	0.18974	0.19623	0.38697	0.25649	0.19803	0.16015	0.11146	-1.3021	-2.2271	-1.9021	-2.2833	-2.0938	-1.7833	-2.2646	-2.2	-2.0146	-2.4229	-1.8771	-2.1729	-2.2167	-1.7938	-2.1396	-2.225	119.762	-111.962	92.601	85.646	11.881	84.998	-2.242	102.697	107.529	-18.330	31.579	53.713	29.343	157.471	11.040	107.850	0.0007658	0.00068325	7.6067e-05	697.18	3.5215e-06	4.5302e-06	750.49	240.49	6.1051e-06	4.0935e-06	297.76	123.63	93.468	48.885	2.4628e-06	68.549	0.00029286	0.00024103	6.5461e-05	678.51	2.6388e-06	2.5962e-06	734.04	235.33	2.6253e-06	2.5999e-06	287.55	121.35	91.826	48.272	2.6325e-06	67.407	182.028	-108.617	-75.243	-162.288	-42.603	-102.862	-162.605	-156.840	-64.633	-9.107	-157.914	-153.245	-152.948	-146.402	-131.921	-149.380	-8191	255	
11956.490	1	1	0	0	0.090359	0.17495	0.11232	0.10122	0.11777	0.076355	0.14951	0.33201	0.24476	0.14322	0.12439	0.25226	0.21528	0.14698	0.1457	0.36778	-1.3312	-2.4062	-1.8625	-1.7833	-2.1937	-1.825	-2.1312	-2.05	-1.7979	-2.2875	-2.0125	-1.9271	-2.3292	-1.9438	-2.1896	-2.3063	-57.970	74.300	-100.467	0.951	29.012	132.363	-172.038	76.214	157.839	88.934	145.985	118.149	158.518	-97.167	33.931	98.035	0.00073441	0.00053535	0.00010698	688.95	5.9423e-06	4.9995e-06	743.36	239.26	4.1579e-06	3.656e-06	292.57	121.95	93.292	48.567	4.2834e-06	67.608	0.00028784	0.00023905	6.6386e-05	675.6	2.6457e-06	2.6466e-06	728.86	234.07	2.6953e-06	2.6509e-06	284.82	120.04	91.981	47.933	2.6918e-06	66.505	180.314	-58.589	-67.914	-161.639	-55.454	-58.577	-162.361	-156.655	-60.012	-74.253	-158.970	-153.711	-152.728	-146.777	-32.988	-149.652	-8191	255	
11956.584	1	1	0	0	0.12676	0.1007	0.10792	0.29429	0.069555	0.096209	0.12688	0.048291	0.045143	0.037564	0.24012	0.18284	0.10304	0.058581	0.15452	0.22003	-1.1979	-2.3271	-1.8583	-1.8667	-2.4396	-1.8708	-2.0542	-2.2583	-1.8979	-2.2604	-1.95	-2.0271	-2.3167	-2.0104	-1.9729	-2.5187	26.520	-95.820	-2.007	-163.259	68.302	-4.322	-166.896	-144.197	-7.203	39.706	109.696	-150.102	77.706	150.783	-166.589	78.252	0.00074662	0.00012842	0.00019647	691.04	4.138e-06	5.0393e-06	743.13	238.61	4.1402e-06	3.8924e-06	294.02	123.81	95.021	50.264	4.8671e-06	70.643	0.00029649	0.00024396	6.7386e-05	675.18	2.6477e-06	2.5866e-06	728.08	234.74	2.6307e-06	2.545e-06	285.4	121.63	92.674	49.524	2.5624e-06	69.385	179.497	-156.385	-120.371	-162.250	-26.700	-66.007	-162.815	-157.313	-45.337	-27.079	-157.953	-153.387	-153.356	-146.691	-73.557	-149.837	-8191	255	
11956.682	1	1	0	0	0.20828	0.05798	0.11814	0.13394	0.011802	0.014685	0.15151	0.027982	0.17393	0.2003	0.21312	0.2504	0.1355	0.11022	0.20734	0.098125	-1.3667	-2.2	-1.8583	-1.7792	-2.3167	-1.8125	-1.9479	-2.1458	-1.6229	-2.1833	-2.3229	-1.9062	-2.2458	-1.95	-2.025	-2.6729	-72.134	132.308	98.591	-146.988	-81.604	182.392	-38.922	-28.280	174.976	133.937	117.370	134.362	86.140	107.455	-173.735	87.894	0.00076312	0.00052137	8.9066e-05	691.19	3.3174e-06	3.4547e-06	745.78	241.65	3.0424e-06	3.3708e-06	299.38	126.71	96.158	51.634	3.1814e-06	72.295	0.00028597	0.00022954	6.3955e-05	676.61	2.4932e-06	2.5208e-06	731.4	236.53	2.5469e-06	2.4998e-06	289.4	123.95	94.093	50.855	2.4838e-06	71.261	181.601	-67.621	-101.625	-161.813	-65.987	-12.564	-162.433	-156.953	-31.527	-5.001	-157.767	-153.348	-153.080	-146.484	-44.964	-149.339	-8191	255	
11956.801	1	1	0	0	0.31311	0.12144	0.25902	0.23565	0.15168	0.094127	0.15075	0.29468	0.1809	0.2068	0.28805	0.31689	0.11398	0.31901	0.092468	0.12025	-1.4021	-2.0521	-2.35	-1.8917	-2.1229	-2.0771	-2.0521	-2.175	-1.8271	-2.2083	-2.1646	-1.8937	-2.3125	-2.1458	-1.9021	-2.3646	-157.124	-15.340	22.738	-122.853	120.747	61.868	-19.293	89.616	-110.956	-86.322	149.080	140.419	38.491	179.469	81.747	183.344	0.00077536	0.00040695	6.3912e-05	696.24	3.0322e-06	4.1936e-06	755.03	242.66	5.5647e-06	6.559e-06	303.33	126.77	96.018	51.36	3.5224e-06	72.047	0.00028009	0.00022311	6.2109e-05	679.18	2.3577e-06	2.398e-06	738.79	238.3	2.4122e-06	2.3418e-06	291.31	124.08	93.165	50.577	2.3505e-06	70.984	178.863	-54.796	-45.543	-161.627	-39.087	-36.461	-162.400	-156.712	-73.009	-5.590	-157.789	-153.079	-152.130	-146.335	-101.546	-149.129	-8191	255	
11956.897	1	1	0	0	0.18736	0.12949	0.4819	0.21177	0.084755	0.075755	0.13375	0.12071	0.14051	0.38202	0.10693	0.38948	0.12458	0.28981	0.18211	0.13087	-1.4062	-2.0396	-2.3083	-1.8625	-2.2125	-2.2292	-1.9958	-2.4813	-1.9583	-1.9771	-2.3833	-1.8458	-2.3125	-2.1937	-1.8	-2.3792	-84.317	136.973	-70.423	43.310	-101.055	-80.570	132.649	149.748	-144.083	121.628	76.621	120.790	-63.287	103.409	-51.986	158.562	0.00078383	0.00051172	0.00017677	702.09	2.4096e-06	3.9734e-06	755.53	242.94	4.7944e-06	6.6503e-06	300.79	125.57	94.734	51.069	4.8699e-06	70.825	0.00027504	0.00021406	6.042e-05	682.48	2.3254e-06	2.3624e-06	739.73	237.78	2.4023e-06	2.3872e-06	289.52	122.89	93.149	50.133	2.4386e-06	69.949	179.841	-83.957	-99.820	-161.304	-53.775	-17.071	-161.850	-156.133	-53.135	-36.908	-158.873	-153.758	-152.724	-146.536	-46.372	-149.950	-8191	255	
11956.993	1	1	0	0	0.079432	0.13515	0.02953	0.10469	0.18321	0.086561	0.42036	0.071307	0.24044	0.17243	0.22322	0.14966	0.14066	0.18864	0.11295	0.3826	-1.3083	-1.8104	-2.2021	-1.9	-1.9917	-2.125	-2.0812	-2.3042	-1.9958	-2.0146	-2.1437	-1.8875	-2.0021	-2.2542	-1.6979	-2.5375	68.829	41.551	-48.203	-19.439	39.459	174.067	174.810	-140.321	178.170	182.624	-156.442	156.454	-67.740	69.777	36.658	146.374	0.0007633	0.00045991	0.00014892	699.17	5.2823e-06	3.0179e-06	750.03	243.11	4.087e-06	4.9704e-06	296.6	124.6	95.955	50.803	3.1395e-06	70.632	0.0002802	0.00022445	6.2089e-05	682.53	2.403e-06	2.4634e-06	735.64	238.08	2.5088e-06	2.4499e-06	288.61	122.82	93.651	50.066	2.455e-06	69.513	178.510	-86.282	-108.333	-162.219	-26.774	-7.326	-162.998	-157.154	-70.967	-49.273	-158.607	-153.453	-152.765	-146.736	-20.665	-149.953	-8191	255	
11957.089	1	1	0	0	0.19511	0.17519	0.24954	0.22288	0.1886	0.2007	0.14373	0.054104	0.10668	0.17799	0.16259	0.15019	0.04126	0.23107	0.050543	0.039245	-1.7458	-2.0062	-2.4042	-1.9917	-1.95	-2.2104	-1.7667	-2.1417	-2.0667	-1.9083	-2.2083	-1.925	-2.075	-2.3646	-1.8646	-2.2396	-129.021	-38.880	-70.911	166.807	-116.363	-69.576	50.080	132.268	-85.754	-30.193	57.343	165.403	-89.896	146.526	-10.462	-18.706	0.00080608	0.0003461	8.9411e-05	696.1	3.8545e-06	4.5034e-06	750.6	241.16	1.6552e-06	5.24e-06	297.45	123.91	95.366	50.306	3.5203e-06	69.895	0.00028749	0.00022316	6.1785e-05	682.37	2.4263e-06	2.4521e-06	734.32	237.24	2.4439e-06	2.4823e-06	287.61	121.75	92.935	49.637	2.5202e-06	68.954	180.933	-86.759	-133.126	-162.277	-21.421	17.236	-162.999	-156.777	-95.792	-45.508	-158.748	-153.359	-152.809	-146.806	-35.292	-149.666	-8191	255	
11957.186	1	1	0	0	0.33825	0.14692	0.17046	0.089152	0.17537	0.30395	0.071861	0.0098332	0.26709	0.3888	0.38705	0.19184	0.21564	0.26701	0.19246	0.28941	-1.65	-1.5729	-2.2333	-1.9042	-2.2562	-2.2896	-2.0125	-2.0917	-1.8396	-1.7542	-2.4354	-1.9021	-1.9583	-2.4021	-1.6333	-2.2979	131.500	-45.060	-52.570	-10.451	-52.013	-103.171	-63.346	167.718	-1.831	98.902	173.315	-172.081	117.468	172.258	102.710	177.408	0.00084307	0.00042138	0.00013156	701.36	3.5884e-06	4.3508e-06	751.11	241.23	3.6137e-06	6.995e-06	296.45	124.01	94.157	49.896	1.8446e-06	70.351	0.00029063	0.0002268	6.1921e-05	681.33	2.4625e-06	2.4112e-06	736.04	236.79	2.4162e-06	2.4213e-06	287.55	121.81	92.492	49.461	2.4212e-06	69.343	179.258	-78.196	-76.532	-161.885	-57.676	-32.133	-162.855	-157.099	-28.299	-43.590	-158.551	-154.013	-153.608	-147.173	-30.856	-150.048	-8191	255	
11957.282	1	1	0	0	0.057513	0.35866	0.15688	0.13976	0.20991	0.23285	0.23775	0.22145	0.21645	0.055481	0.14994	0.13488	0.15681	0.30279	0.254	0.17562	-1.7146	-1.7708	-2.2875	-2.0771	-1.85	-2.2958	-2.0458	-2.1854	-2.1937	-1.8625	-2.3479	-2.2313	-1.675	-2.2979	-1.9125	-2.5146	-24.234	-47.382	128.782	120.599	84.017	26.628	144.309	120.028	-67.313	23.804	-143.330	60.352	24.746	141.493	83.205	47.911	0.00077268	0.00036317	0.00012609	695.95	2.1325e-06	3.4184e-06	753.62	240.44	4.1014e-06	1.4952e-06	295.05	124.07	94.397	50.524	4.3808e-06	70.226	0.00027675	0.00022727	6.1982e-05	679.8	2.3411e-06	2.4051e-06	737.01	236.3	2.4223e-06	2.4166e-06	286.98	121.52	92.156	49.763	2.4321e-06	69.245	184.063	-67.216	-95.796	-162.499	12.129	-44.345	-162.977	-157.341	-70.562	-115.053	-158.426	-153.959	-153.284	-147.118	-26.198	-149.728	-8191	255	
11957.402	1	1	0	0	0.23176	0.053179	0.049152	0.22444	0.21988	0.2787	0.10721	0.28328	0.12705	0.024215	0.12529	0.15967	0.070769	0.26792	0.26345	0.088997	-1.8104	-1.5812	-2.2542	-2.0979	-1.8542	-2.5208	-2.0875	-1.9896	-2.1083	-2.025	-2.1188	-2.1042	-1.6854	-2.425	-1.775	-2.05	-72.494	1.021	-95.939	67.789	-67.785	35.422	-163.448	149.217	-86.059	180.084	145.151	101.574	179.279	83.421	-33.532	-76.036	0.00075852	0.00041237	0.00012644	695.35	3.1541e-06	3.4904e-06	750.45	240.88	5.782e-06	5.6398e-06	296.34	123.61	95.83	50.951	4.7896e-06	70.628	0.00027595	0.00021992	6.0423e-05	680.51	2.359e-06	2.3714e-06	734.37	236.53	2.4164e-06	2.3847e-06	286.69	121.5	92.865	49.991	2.3859e-06	69.487	182.524	-69.876	-94.392	-161.971	-24.001	-73.740	-163.356	-157.357	-79.976	-51.162	-158.832	-153.755	-152.665	-147.270	-50.866	-149.888	-8191	255	
11957.497	1	1	0	0	0.10872	0.14561	0.090998	0.18451	0.026417	0.30616	0.18919	0.32238	0.12111	0.15739	0.27609	0.061457	0.076246	0.46233	0.13847	0.091777	-1.9333	-1.6146	-2.0708	-2.15	-1.8792	-2.2771	-1.9562	-2.1688	-2.1583	-1.7042	-2.0938	-2.0958	-1.9	-2.4167	-2.1042	-2.0375	-34.201	100.958	169.553	-124.516	126.683	-128.032	171.792	89.693	-19.403	154.242	90.754	94.651	79.986	-152.969	120.798	-142.352	0.00079178	0.00035985	6.6077e-05	700.23	5.7904e-06	4.4304e-06	753.13	241.55	5.3287e-06	4.3009e-06	295.34	124.56	94.324	50.265	1.2429e-06	70.286	0.0002772	0.00021895	6.0515e-05	680.38	2.3653e-06	2.3195e-06	734.11	236.5	2.4592e-06	2.3493e-06	286.17	121.56	92.189	49.54	2.496e-06	69.189	178.413	-76.281	-96.092	-162.314	-53.034	-38.802	-162.812	-157.301	-76.124	20.726	-159.280	-153.629	-153.248	-146.737	-18.378	-149.673	-8191	255	
11957.593	1	1	0	0	0.16316	0.28644	0.29544	0.14931	0.18606	0.0655	0.16633	0.10964	0.078629	0.083615	0.16332	0.20667	0.28691	0.16319	0.169	0.18342	-2.0833	-1.8021	-2.0812	-2.1667	-1.8354	-2.2521	-2.1458	-1.8854	-2.2604	-1.8021	-2.1708	-2.3396	-1.9146	-2.25	-1.9708	-2.1333	-87.778	169.449	-162.568	172.515	65.788	-65.921	-72.100	74.977	-103.932	-146.019	100.163	138.695	70.597	122.671	-17.647	122.948	0.00076575	0.00057717	9.2956e-05	696.68	4.5432e-06	4.0834e-06	749.84	240.9	3.4806e-06	1.9379e-06	299.98	123.08	94.892	49.584	1.5318e-06	69.336	0.00027451	0.00022759	6.1233e-05	678.35	2.5076e-06	2.4211e-06	734.06	235.87	2.4932e-06	2.474e-06	287.42	121.01	92.133	48.964	2.5237e-06	68.439	182.512	-49.259	-110.781	-162.281	-46.368	-60.029	-163.045	-157.303	-96.163	-24.008	-158.265	-153.806	-152.832	-146.963	-128.669	-149.756	-8191	255	
11957.689	1	1	0	0	0.18766	0.16266	0.15482	0.012867	0.28924	0.063346	0.28398	0.14842	0.3365	0.10015	0.096242	0.17512	0.082284	0.10892	0.19112	0.07707	-1.9708	-1.9312	-2.0354	-2.3896	-1.7979	-2.2125	-2.2687	-2.0583	-2.3333	-2.0312	-2.0667	-2.4458	-1.9417	-2.1292	-2.0208	-2.0083	-49.600	103.770	-33.350	110.894	120.283	151.663	120.024	-174.532	120.574	182.227	-71.730	76.918	-146.533	-52.331	-143.482	-84.075	0.0007821	0.00077797	0.00011414	693.02	2.7324e-06	3.8761e-06	750.98	239.57	3.053e-06	3.393e-06	297.96	122.92	94.363	49.893	2.3364e-06	70.209	0.00028053	0.00022972	6.3435e-05	677.15	2.4804e-06	2.5108e-06	734.88	235.77	2.4567e-06	2.4665e-06	286.3	121.08	91.941	49.292	2.4609e-06	69.034	181.305	-89.186	-82.391	-162.251	-77.549	-24.560	-162.775	-156.652	-66.503	38.796	-157.926	-153.264	-152.695	-146.335	-47.837	-149.713	-8191	255	
11957.785	1	1	0	0	0.16027	0.15392	0.22377	0.20834	0.34039	0.16464	0.30728	0.16864	0.21375	0.20736	0.16626	0.12751	0.30941	0.29721	0.21936	0.2209	-2.0042	-2.0812	-1.8813	-2.2062	-1.8687	-2.1417	-2.4521	-1.7104	-2.3	-2.2625	-1.9042	-2.4125	-1.8563	-2.1917	-2.1104	-2.0042	-109.011	74.938	114.676	95.452	-124.581	-139.481	8.648	-127.469	61.050	139.996	-86.496	116.884	-143.628	-159.355	183.595	-171.064	0.000807	0.00034032	9.0397e-05	697.76	4.2235e-06	4.863e-06	748.4	240.31	4.1714e-06	4.9866e-06	293.36	123.47	93.875	50.117	4.6327e-06	69.336	0.00028055	0.0002199	6.0306e-05	678.7	2.4301e-06	2.3798e-06	733.12	236.17	2.4541e-06	2.3757e-06	285.48	120.98	92.06	49.324	2.4818e-06	68.384	179.822	-127.658	-103.539	-161.768	-67.032	-21.611	-162.622	-156.689	-109.294	-18.873	-157.936	-153.327	-152.602	-146.285	-50.083	-149.466	-8191	255	
11957.881	1	1	0	0	0.19102	0.11875	0.058846	0.39263	0.29988	0.19811	0.27598	0.28762	0.23294	0.28622	0.06041	0.1929	0.25724	0.10169	0.24759	0.10624	-1.775	-1.9479	-1.9354	-2.1854	-1.8583	-2.1375	-2.3604	-1.8083	-2.1688	-2.1646	-1.8042	-2.1708	-1.85	-2.0771	-2.2625	-1.8583	99.551	54.781	137.764	-139.152	-169.407	98.583	-164.810	153.180	-75.946	162.027	133.461	-82.079	129.714	-148.314	65.375	120.644	0.00078363	0.00064494	0.0001567	694.43	4.3946e-06	3.7039e-06	741.67	239.1	3.9054e-06	4.5243e-06	295.98	122.45	92.901	48.704	4.8895e-06	68.788	0.00028206	0.00022391	6.2793e-05	675.91	2.4666e-06	2.4428e-06	728.28	234.48	2.4807e-06	2.4084e-06	284.82	119.81	90.676	48.13	2.5013e-06	67.422	184.512	-87.747	-106.830	-161.389	-22.999	-38.807	-162.308	-156.852	-82.760	-87.435	-157.420	-152.928	-152.429	-145.812	-43.162	-148.726	-8191	255	
11957.977	1	1	0	0	0.046217	0.17072	0.23062	0.17158	0.058692	0.06506	0.10701	0.070449	0.098903	0.050479	0.097643	0.19341	0.2178	0.17486	0.17775	0.24746	-1.8646	-1.9333	-1.75	-2.3771	-2.0354	-1.95	-2.2479	-1.8042	-2.1583	-2.2292	-1.8625	-2.2854	-1.775	-1.9917	-2.3146	-2.1167	50.266	-132.711	-17.423	-136.889	-146.329	68.439	114.422	88.545	-109.250	-164.510	31.089	185.930	-133.832	140.134	-33.210	166.023	0.00073497	0.00047031	0.00011599	694.87	3.7788e-06	3.9141e-06	749.16	238.24	5.4339e-06	6.3859e-06	292.92	122.49	93.435	49.218	4.5479e-06	68.601	0.00028043	0.00022576	6.3675e-05	677.05	2.4948e-06	2.4775e-06	731.26	234.09	2.4877e-06	2.4864e-06	284.47	120.21	91.425	48.425	2.5218e-06	67.612	181.289	-105.601	-54.682	-161.006	-72.917	9.052	-161.955	-155.952	-62.739	-6.269	-157.241	-152.436	-151.781	-145.726	-90.471	-149.113	-8191	255	
11958.074	1	1	0	0	0.25398	0.16632	0.26591	0.040738	0.26678	0.11944	0.343	0.22473	0.19779	0.12389	0.26439	0.068612	0.16061	0.12151	0.19282	0.10719	-1.6771	-2.0938	-1.7292	-2.2604	-1.9979	-1.8875	-2.2479	-2.1104	-2.1146	-2.1625	-1.8188	-2.2479	-2.0667	-1.8979	-2.2042	-1.9292	-14.276	-49.184	-168.614	108.157	-171.361	-97.987	175.000	148.212	-39.357	-153.517	-76.368	-125.924	-12.087	-147.246	177.706	67.438	0.00077366	0.00022817	0.00015975	695.69	2.2364e-06	5.9897e-06	747.9	239.83	1.6834e-06	2.175e-06	293.9	123.14	93.566	48.844	3.9232e-06	68.324	0.00029096	0.00022962	6.3542e-05	679.37	2.52e-06	2.4842e-06	734.2	235.02	2.5102e-06	2.5244e-06	284.68	120.49	91.432	48.157	2.5618e-06	67.245	180.879	-93.149	-86.755	-161.028	-45.414	-29.483	-161.985	-156.328	-32.474	-90.497	-157.857	-153.375	-153.120	-147.124	-55.205	-150.095	-8191	255	
11958.194	1	1	0	0	0.20832	0.1506	0.16638	0.22148	0.07031	0.34041	0.19945	0.27623	0.059869	0.065123	0.26335	0.26689	0.25105	0.18203	0.025873	0.22129	-1.5667	-2.0812	-1.6354	-2.1792	-2.0271	-1.6042	-2.6083	-2.05	-1.7687	-2.2771	-1.6833	-2.1771	-1.9208	-1.8333	-2.1625	-2.1708	-10.763	-151.915	175.664	11.631	-30.116	-57.070	31.144	70.458	-43.298	-87.571	172.390	-130.126	151.462	124.167	7.886	73.712	0.00069742	0.00039363	0.00017541	688.38	3.9034e-06	6.7263e-07	748.11	238.14	3.7103e-06	7.8534e-06	293.84	121.52	93.044	48.593	3.8429e-06	67.91	0.00028074	0.00022874	6.6185e-05	674.38	2.5562e-06	2.5001e-06	730.48	233.85	2.5385e-06	2.4711e-06	283.74	119.25	90.942	47.894	2.4869e-06	66.799	182.398	-129.654	-85.164	-162.421	-19.241	-9.868	-163.573	-157.525	-18.186	-29.789	-159.046	-154.535	-153.740	-147.356	-64.601	-150.471	-8191	255	
11958.266	1	1	0	0	0.21449	0.20782	0.15585	0.18408	0.19857	0.23358	0.11468	0.089446	0.16723	0.25059	0.24372	0.29369	0.2084	0.085529	0.21029	0.15348	-1.4542	-2.2104	-1.6896	-2.1	-2.0854	-1.7729	-2.35	-2.0312	-1.8896	-2.2854	-1.9021	-2.3042	-2.2979	-1.8937	-2.3979	-2.3104	-59.615	153.212	-59.203	139.618	50.948	-65.874	-32.853	116.846	-121.510	-172.356	-163.094	111.646	124.908	60.676	-54.386	-30.124	0.00079195	0.00038782	0.00011715	692.72	3.9398e-06	3.8572e-06	741.48	238.9	4.0556e-06	7.4063e-06	293.6	122.07	93.237	48.958	5.5105e-06	68.745	0.00028499	0.00022695	6.4211e-05	675.62	2.5098e-06	2.5183e-06	728.31	233.78	2.4845e-06	2.4782e-06	284.94	119.63	91.11	48.315	2.542e-06	67.651	183.625	-78.172	-58.554	-162.571	-30.075	-47.262	-163.581	-157.937	-91.056	-24.362	-159.283	-154.404	-153.932	-147.450	-44.175	-150.562	-8191	255	
11958.362	1	1	0	0	0.027097	0.11731	0.13488	0.19145	0.19896	0.25971	0.14928	0.23127	0.32627	0.0845	0.20353	0.15085	0.12082	0.032449	0.36813	0.11761	-1.3958	-2.3042	-1.9958	-2.1354	-2.2583	-1.9333	-2.3438	-1.9729	-1.9104	-2.225	-1.7625	-2.0021	-2.2062	-1.8438	-2.1625	-2.1854	-155.927	-36.784	111.772	-163.854	180.847	132.145	-52.210	-130.133	-145.663	67.456	169.946	131.452	-1.413	-33.498	-15.824	85.011	0.00069055	0.00092614	9.7258e-05	690.57	6.4384e-06	7.0061e-06	743.69	238.98	5.4255e-06	7.3322e-06	293.13	122.83	94.1	49.462	2.2489e-06	68.933	0.00027875	0.00022981	6.3823e-05	676.9	2.4979e-06	2.5129e-06	729.55	234.56	2.5261e-06	2.5014e-06	285.32	120.78	91.912	48.679	2.5622e-06	67.879	181.913	-95.614	-42.058	-162.791	-49.898	-28.155	-163.574	-157.574	-43.933	-38.714	-159.213	-154.308	-153.566	-147.622	-70.891	-150.442	-8191	255	
11958.483	1	1	0	0	0.25251	0.2322	0.21284	0.14675	0.22035	0.12638	0.16565	0.30965	0.35983	0.13565	0.1309	0.089606	0.058269	0.33952	0.056569	0.05616	-1.4125	-2.2438	-1.975	-2.0542	-2.2687	-2.0167	-2.2542	-1.9917	-1.8854	-2.3063	-1.9771	-2.0833	-2.1375	-1.8083	-1.9438	-2.2229	-117.553	184.324	-46.262	-23.673	-134.380	68.440	125.159	155.953	-78.076	-96.812	35.595	140.439	-80.406	-171.672	92.091	-148.705	0.00073544	0.00055204	0.00010674	690.77	3.6786e-06	5.2164e-06	747.96	238.94	3.885e-06	6.1346e-06	295.04	124.09	94.091	49.33	3.5989e-06	68.905	0.000284	0.00022587	6.2737e-05	676.5	2.4662e-06	2.4733e-06	732.57	234.86	2.6191e-06	2.5202e-06	287.01	121.36	91.94	48.745	2.6029e-06	67.984	179.907	-81.181	-60.061	-162.714	-51.700	-20.368	-163.845	-157.635	-71.259	-75.030	-159.329	-154.411	-154.060	-147.417	-81.781	-150.561	-8191	255	
11958.577	1	1	0	0	0.22841	0.10745	0.14278	0.16493	0.10431	0.29574	0.24399	0.29961	0.054232	0.1422	0.066726	0.23868	0.16536	0.21366	0.085965	0.17937	-1.1688	-2.2646	-1.9604	-1.9188	-2.1542	-1.825	-2.1521	-2.3771	-1.7354	-2.2438	-2.1167	-1.8854	-2.3333	-2.0375	-2.0833	-2.2604	-144.146	143.953	183.359	-61.396	-72.436	176.845	117.015	69.152	-151.054	-28.988	129.294	146.923	-0.371	-158.210	-11.123	154.679	0.00071891	0.00051654	2.8024e-05	690.25	3.8081e-06	2.3217e-06	744.39	238.13	3.6972e-06	2.5703e-06	293.98	123.12	93.555	49.27	3.7185e-06	68.776	0.0002888	0.00022624	6.5038e-05	676.03	2.4704e-06	2.5245e-06	732.25	234.23	2.5711e-06	2.4938e-06	285.21	120.79	91.411	48.587	2.4849e-06	67.874	182.246	-76.054	-110.746	-162.670	-1.676	-14.559	-163.663	-157.793	-76.093	-42.051	-159.202	-154.398	-153.511	-147.597	-38.269	-150.409	-8191	255	
11958.675	1	1	0	0	0.2237	0.057325	0.34505	0.21335	0.11083	0.29471	0.27885	0.40764	0.13454	0.090018	0.12195	0.25491	0.049185	0.15544	0.16346	0.25301	-1.2375	-2.4292	-1.8792	-1.875	-2.3958	-1.8563	-2.1292	-2.2417	-1.8396	-2.1208	-2.0979	-1.8146	-2.3604	-1.9729	-1.9792	-2.3583	-83.395	-115.393	134.935	-149.101	162.293	-20.079	150.017	110.605	116.065	147.817	-52.063	-124.035	67.855	142.392	-169.272	157.040	0.00073844	0.00023943	9.7025e-05	692.77	3.2087e-06	3.5186e-06	746.44	239.74	2.7635e-06	4.9658e-06	295.92	122.92	92.274	48.972	6.9285e-06	69.06	0.00028779	0.00022302	6.3766e-05	675.43	2.5001e-06	2.5292e-06	731.87	234.56	2.4653e-06	2.4131e-06	286.02	120.5	90.603	48.356	2.391e-06	68.058	181.076	-95.483	-64.201	-162.972	-72.871	-38.968	-163.581	-157.650	-51.367	-11.992	-159.201	-154.161	-153.316	-147.556	-30.724	-150.308	-8191	255	
11958.794	1	1	0	0	0.16541	0.08893	0.165	0.12575	0.23457	0.15342	0.22269	0.33823	0.2897	0.18382	0.044527	0.16125	0.14618	0.20626	0.19569	0.15698	-1.1417	-2.1188	-2.2854	-1.8833	-2.375	-1.9625	-1.9188	-2.2583	-1.8521	-1.9917	-2.2646	-1.8229	-2.4104	-2.175	-1.9062	-2.1792	-52.913	-112.701	3.614	-118.025	151.950	140.309	97.268	149.729	171.346	63.986	-162.884	178.953	-133.997	-110.072	129.451	141.531	0.00076228	0.00036722	0.00013153	691.56	4.0839e-06	3.8222e-06	751.05	238.88	3.9779e-06	3.7609e-06	294.48	122.61	93.367	49.093	3.0073e-06	68.56	0.00027542	0.00022231	6.3464e-05	675.61	2.4743e-06	2.4375e-06	733.63	234.32	2.4835e-06	2.4435e-06	284.43	120.37	91.06	48.437	2.491e-06	67.894	179.784	-76.614	-128.968	-162.760	-24.790	-64.628	-163.477	-157.769	-71.554	-13.538	-159.357	-154.170	-153.101	-147.201	-36.861	-150.667	-8191	255	
11958.866	1	1	0	0	0.051496	0.22821	0.17034	0.11541	0.18833	0.20826	0.12194	0.31802	0.27445	0.047134	0.2176	0.31476	0.14229	0.12757	0.26768	0.29797	-1.2646	-2.1479	-2.0375	-1.8021	-2.2125	-2.1125	-2.0354	-2.4896	-1.8146	-2.0479	-2.3479	-1.9583	-2.1979	-2.3458	-1.6833	-2.4208	162.296	41.000	180.717	116.109	87.358	-129.752	59.415	160.981	63.092	136.117	179.660	118.435	151.564	34.208	18.540	163.152	0.0007326	0.00043831	7.9772e-05	689.42	3.3795e-06	3.2506e-06	747.22	238.23	5.7392e-06	5.5262e-06	295.41	123.11	92.782	49.013	2.9939e-06	69.511	0.00028628	0.00022623	6.3396e-05	673.44	2.4506e-06	2.4596e-06	734.3	233.9	2.5234e-06	2.4395e-06	286.35	120.57	90.485	48.382	2.4644e-06	68.486	182.788	-68.881	-68.325	-162.811	-81.094	-46.546	-163.337	-157.210	-85.951	-17.047	-158.659	-154.096	-152.855	-147.468	-9.828	-150.433	-8191	255	
11958.962	1	1	0	0	0.20779	0.11833	0.32045	0.066797	0.18635	0.12871	0.15327	0.25662	0.09932	0.088321	0.15472	0.24742	0.15254	0.13887	0.11522	0.13201	-1.4271	-1.8271	-2.2417	-1.9458	-2.0625	-2.2083	-2.0646	-2.3958	-2.0396	-1.9188	-2.2979	-1.9792	-2.2292	-2.3229	-1.8833	-2.375	-86.321	116.171	52.427	-104.124	14.107	57.937	35.199	-127.975	-99.588	163.425	-93.024	74.293	158.963	66.118	-126.188	-11.739	0.00075946	0.00056791	0.00012586	696.61	4.4391e-06	7.9544e-06	754.73	238.83	4.7401e-06	5.8125e-06	296.91	122.87	93.236	48.929	4.9232e-06	68.683	0.00027393	0.00022245	6.1984e-05	676.29	2.3793e-06	2.4681e-06	737.41	234.62	2.5034e-06	2.4453e-06	286.84	120.69	90.842	48.166	2.4767e-06	67.695	179.932	-99.257	-96.429	-162.860	-56.564	-25.111	-163.515	-157.838	-65.572	-56.573	-159.696	-154.138	-154.167	-147.500	-37.842	-150.450	-8191	255	
11959.082	1	1	0	0	0.13669	0.0536	0.13071	0.20455	0.13583	0.08048	0.16848	0.23966	0.18987	0.21094	0.10748	0.27764	0.27532	0.18483	0.20602	0.2296	-1.5333	-1.8417	-2.3646	-1.9729	-2.075	-2.075	-1.775	-2.45	-1.8854	-1.8958	-2.2687	-1.8854	-2.0396	-2.2646	-1.6771	-2.1917	182.680	-12.057	40.478	133.149	-95.953	118.345	167.286	130.435	-50.415	-48.164	-164.359	145.316	-64.742	87.831	15.480	174.985	0.00074207	0.00044218	0.00014468	695.06	1.3737e-06	3.5001e-06	751.18	238.03	3.0272e-06	3.3635e-06	295.44	120.49	92.499	48.178	5.0279e-06	68.23	0.00027927	0.0002251	6.2185e-05	676.85	2.4102e-06	2.4237e-06	734.81	233.34	2.4226e-06	2.3774e-06	285.17	118.7	89.91	47.514	2.4796e-06	66.893	179.846	-94.731	-113.154	-162.712	12.556	-10.605	-163.518	-157.924	-130.151	-48.017	-158.734	-154.266	-153.169	-147.178	-31.974	-150.247	-8191	255	
11959.178	1	1	0	0	0.23687	0.29409	0.24064	0.24374	0.14502	0.1748	0.11602	0.075695	0.26479	0.14333	0.12772	0.10377	0.073444	0.031435	0.28224	0.22032	-1.4438	-1.8	-2.3708	-1.8667	-1.925	-2.2708	-1.875	-2.1479	-2.0604	-1.7542	-2.1979	-1.8708	-1.9937	-2.325	-1.6333	-2.0687	143.713	35.238	62.810	112.220	-122.851	-49.545	34.465	-8.149	33.352	-51.819	-14.677	138.896	-153.751	-72.615	-135.370	100.701	0.00073633	0.0002842	0.000121	693.79	5.5074e-06	2.6509e-06	749.45	238.08	2.9994e-06	7.6741e-06	291.18	121.62	91.514	48.336	1.3937e-06	68.334	0.0002806	0.00022354	6.2462e-05	676.83	2.3938e-06	2.4408e-06	733.37	233.76	2.525e-06	2.4219e-06	283.97	119.22	89.828	47.66	2.4743e-06	67.326	181.398	-68.088	-81.377	-162.670	-34.454	-26.075	-163.528	-157.584	-54.834	-33.805	-159.118	-154.099	-153.736	-147.397	0.028	-150.425	-8191	255	
11959.275	1	1	0	0	0.11983	0.091689	0.25019	0.19187	0.20655	0.13621	0.1415	0.33688	0.11105	0.025434	0.10775	0.45022	0.1338	0.23858	0.14307	0.18425	-1.5667	-1.6729	-2.2375	-1.8375	-1.8333	-2.4271	-1.8625	-2.1917	-2.2333	-1.8854	-2.3771	-2.1958	-1.8021	-2.3229	-1.8146	-2.1958	29.178	164.168	-42.687	147.972	85.981	156.431	-106.650	-55.205	-58.312	-56.283	-78.813	129.024	76.304	101.427	-158.181	53.001	0.00077532	0.00045362	8.9428e-05	691.89	2.8944e-06	6.0682e-06	747.59	238.91	3.6987e-06	4.3203e-06	291.89	121.43	92.228	48.655	5.9439e-06	68.504	0.00027791	0.00022591	6.1217e-05	676.46	2.4266e-06	2.4484e-06	734.07	234.12	2.5168e-06	2.4716e-06	283.72	119.42	90.129	47.868	2.4986e-06	67.281	177.639	-69.817	-62.821	-162.611	-34.534	-13.356	-163.096	-157.386	-99.584	-33.345	-159.139	-154.344	-153.654	-147.244	-48.003	-150.398	-8191	255	
11959.395	1	1	0	0	0.21323	0.19089	0.20026	0.36645	0.10121	0.10699	0.081733	0.034578	0.3327	0.25602	0.2177	0.18777	0.20056	0.10706	0.022779	0.33292	-1.7	-1.7167	-2.2833	-2.0333	-2.0125	-2.4333	-1.95	-2.2313	-2.2062	-1.9188	-2.2896	-2.0375	-1.7229	-2.4417	-1.8563	-2.2854	-147.022	-6.267	159.797	-143.093	-173.220	-73.686	-95.721	-27.213	97.333	160.497	-152.152	123.984	-11.906	148.407	44.640	56.332	0.00077952	0.00053409	9.2399e-05	695.39	5.1843e-06	4.372e-06	751.4	238.78	7.175e-06	1.0337e-06	295.48	121.46	92.16	48.073	4.9425e-06	67.971	0.00028596	0.00022322	6.1258e-05	679.36	2.4669e-06	2.5163e-06	735.94	233.99	2.4912e-06	2.4606e-06	286.41	119.15	89.725	47.443	2.4496e-06	66.892	180.441	-103.814	-102.977	-162.594	-28.540	-11.365	-163.333	-157.398	-57.034	-133.318	-158.816	-153.997	-153.688	-147.410	-22.564	-150.479	-8191	255	
11959.490	1	1	0	0	0.1256	0.18916	0.37913	0.19282	0.10498	0.12971	0.24113	0.21892	0.092035	0.0966	0.11736	0.11981	0.10527	0.07329	0.18079	0.22044	-1.8833	-1.7687	-2.2167	-2.1292	-1.8687	-2.2083	-1.9896	-2.1729	-2.0729	-1.7625	-2.3771	-2.3333	-1.7979	-2.5542	-1.9396	-1.9771	97.311	75.278	97.884	156.646	-99.916	-126.036	128.593	109.728	-163.231	143.854	-71.879	176.646	-120.699	176.756	-90.678	151.388	0.00070616	0.00054841	7.1896e-05	693.72	4.9636e-06	2.3785e-06	753.02	237.09	2.6813e-06	3.8346e-06	293.88	120.8	92.95	48.175	7.9484e-06	67.508	0.00027753	0.00022603	6.3567e-05	676.77	2.4416e-06	2.471e-06	734.67	233.33	2.4967e-06	2.4443e-06	283.37	118.48	90.048	47.336	2.4601e-06	66.421	177.709	-98.888	-156.613	-162.869	-8.044	15.121	-163.461	-157.865	-52.241	52.763	-159.213	-154.325	-153.953	-147.333	-53.048	-150.455	-8191	255	
11959.561	1	1	0	0	0.1486	0.17704	0.15361	0.10957	0.099366	0.33625	0.24867	0.03072	0.17191	0.21469	0.27847	0.35959	0.12887	0.18235	0.20422	0.32208	-2.0354	-1.6833	-2.0375	-2.2167	-1.8188	-2.4271	-2.1021	-1.75	-2.3271	-1.6771	-2.1312	-2.0604	-1.6104	-2.2854	-2.0583	-1.9312	92.042	-70.656	-174.121	-149.963	42.289	-15.519	167.241	181.670	13.408	126.963	183.965	121.681	110.208	69.904	108.585	106.964	0.00074442	0.0005938	0.00014902	694.2	3.1574e-06	6.675e-06	743.35	237.17	4.717e-06	5.6808e-06	292.43	120.97	92.001	47.938	5.889e-06	67.12	0.0002725	0.0002234	6.1906e-05	676.07	2.4514e-06	2.4743e-06	729.87	232.97	2.4769e-06	2.4705e-06	283.38	118.28	90.03	47.188	2.552e-06	66.113	180.111	-69.532	-95.998	-162.806	-75.684	-35.662	-163.230	-158.019	-89.375	-51.486	-158.997	-154.178	-153.591	-147.376	-8.656	-150.474	-8191	255	
11959.657	1	1	0	0	0.21264	0.084456	0.17976	0.25647	0.29939	0.084325	0.051566	0.036605	0.094397	0.028247	0.1328	0.24123	0.10299	0.34668	0.16346	0.027107	-1.7667	-1.7208	-2.15	-2.1521	-1.7208	-2.1792	-2.1333	-1.9729	-2.3333	-1.7521	-1.9042	-2.3667	-1.7917	-2.1917	-2.0229	-1.8292	-29.159	157.693	39.211	181.012	177.871	-156.122	41.814	-104.072	32.725	-165.830	84.721	-20.662	60.543	-163.435	-166.882	-29.816	0.00073852	0.00033168	0.00011868	692.62	5.172e-06	2.2686e-06	745.36	236.08	2.6963e-06	5.6987e-06	292.01	120	91.077	47.633	3.1534e-06	67.317	0.00028009	0.00023375	6.2666e-05	677.19	2.4966e-06	2.5209e-06	731.29	232.86	2.5076e-06	2.4001e-06	282.51	117.88	89.466	46.922	2.5331e-06	65.965	182.186	-84.194	-72.087	-162.277	-55.587	-59.150	-163.401	-157.685	-53.944	7.901	-159.009	-154.197	-153.408	-147.317	-36.948	-150.080	-8191	255	
#DATA ENDS
