BOXY.EXE: ISS Imagent and Oximeter Data Acquisition Program Version 0.80
Ascii Record File

#ACQ INFORMATION
2  Detector Channels 
16  External MUX Channels 
1  Auxiliary Channels 
5000  Waveform (CCF) Frequency (Hz)
1  Waveforms Skipped 
30  Waveforms Averaged 
1  Cycles Averaged 
16  Acquisitions per Waveform 
10.0806  Updata Rate (Hz) 

#FILE INFORMATION
TRUE -- External MUX Channel results are PARSED.
FALSE -- AC DC and Phase are NOT grouped.
TRUE -- Companion Program Settings File CREATED.
FALSE -- AC data not excluded
FALSE -- DC data not excluded
FALSE -- Phase data not excluded
FALSE -- Auxillary Chn. data not excluded
Tab delimiters

#CALIBRATION STATE
TRUE -- Waveform Calibration Values APPLIED.


#AUX CALIBRATION VALUES
Val Type	aux-1	

Term	1.0000e+00	
Factor	0.0000e+00	


#WF CALIBRATION VALUES
A = Detector Channel
Val Type	A-AC1	A-AC2	A-AC3	A-AC4	A-AC5	A-AC6	A-AC7	A-AC8	A-AC9	A-AC10	A-AC11	A-AC12	A-AC13	A-AC14	A-AC15	A-AC16	A-DC1	A-DC2	A-DC3	A-DC4	A-DC5	A-DC6	A-DC7	A-DC8	A-DC9	A-DC10	A-DC11	A-DC12	A-DC13	A-DC14	A-DC15	A-DC16	A-Ph1	A-Ph2	A-Ph3	A-Ph4	A-Ph5	A-Ph6	A-Ph7	A-Ph8	A-Ph9	A-Ph10	A-Ph11	A-Ph12	A-Ph13	A-Ph14	A-Ph15	A-Ph16	

Term	0.00000e+00	0.00000e+00	0.00000e+00	0.00000e+00	0.00000e+00	0.00000e+00	0.00000e+00	0.00000e+00	0.00000e+00	0.00000e+00	0.00000e+00	0.00000e+00	0.00000e+00	0.00000e+00	0.00000e+00	0.00000e+00	0.00000e+00	0.00000e+00	0.00000e+00	0.00000e+00	0.00000e+00	0.00000e+00	0.00000e+00	0.00000e+00	0.00000e+00	0.00000e+00	0.00000e+00	0.00000e+00	0.00000e+00	0.00000e+00	0.00000e+00	0.00000e+00	0.00000e+00	0.00000e+00	0.00000e+00	0.00000e+00	0.00000e+00	0.00000e+00	0.00000e+00	0.00000e+00	0.00000e+00	0.00000e+00	0.00000e+00	0.00000e+00	0.00000e+00	0.00000e+00	0.00000e+00	0.00000e+00	
Factor	1.00000e+00	1.00000e+00	1.00000e+00	1.00000e+00	1.00000e+00	1.00000e+00	1.00000e+00	1.00000e+00	1.00000e+00	1.00000e+00	1.00000e+00	1.00000e+00	1.00000e+00	1.00000e+00	1.00000e+00	1.00000e+00	1.00000e+00	1.00000e+00	1.00000e+00	1.00000e+00	1.00000e+00	1.00000e+00	1.00000e+00	1.00000e+00	1.00000e+00	1.00000e+00	1.00000e+00	1.00000e+00	1.00000e+00	1.00000e+00	1.00000e+00	1.00000e+00	X	X	X	X	X	X	X	X	X	X	X	X	X	X	X	X	

B = Detector Channel
Val Type	B-AC1	B-AC2	B-AC3	B-AC4	B-AC5	B-AC6	B-AC7	B-AC8	B-AC9	B-AC10	B-AC11	B-AC12	B-AC13	B-AC14	B-AC15	B-AC16	B-DC1	B-DC2	B-DC3	B-DC4	B-DC5	B-DC6	B-DC7	B-DC8	B-DC9	B-DC10	B-DC11	B-DC12	B-DC13	B-DC14	B-DC15	B-DC16	B-Ph1	B-Ph2	B-Ph3	B-Ph4	B-Ph5	B-Ph6	B-Ph7	B-Ph8	B-Ph9	B-Ph10	B-Ph11	B-Ph12	B-Ph13	B-Ph14	B-Ph15	B-Ph16	

Term	0.00000e+00	0.00000e+00	0.00000e+00	0.00000e+00	0.00000e+00	0.00000e+00	0.00000e+00	0.00000e+00	0.00000e+00	0.00000e+00	0.00000e+00	0.00000e+00	0.00000e+00	0.00000e+00	0.00000e+00	0.00000e+00	0.00000e+00	0.00000e+00	0.00000e+00	0.00000e+00	0.00000e+00	0.00000e+00	0.00000e+00	0.00000e+00	0.00000e+00	0.00000e+00	0.00000e+00	0.00000e+00	0.00000e+00	0.00000e+00	0.00000e+00	0.00000e+00	-1.45867e+02	-1.23783e+02	-1.30834e+02	-1.84083e+02	-7.58095e+01	-7.30478e+01	-1.55713e+02	-1.62015e+02	-9.03867e+01	-7.43714e+01	-1.85725e+02	-1.70521e+02	-1.87050e+02	-1.76710e+02	-7.51131e+01	-1.49456e+02	
Factor	2.10453e-05	1.52073e-04	4.08231e-05	2.21187e-01	1.33617e-06	1.51758e-06	1.55432e-01	4.94518e-02	1.27884e-06	1.69986e-06	1.93204e-01	2.92118e-02	6.10080e-02	8.76291e-03	1.36065e-06	1.24210e-02	3.01981e-06	3.36426e-06	9.36133e-07	1.14310e-01	3.63966e-08	3.69298e-08	7.62793e-02	2.57675e-02	3.62490e-08	3.68367e-08	9.47209e-02	1.47461e-02	3.12550e-02	4.57521e-03	3.64405e-08	6.30051e-03	X	X	X	X	X	X	X	X	X	X	X	X	X	X	X	X	



#DISTANCE SETTINGS
A = Detector Channel
A-1	A-2	A-3	A-4	A-5	A-6	A-7	A-8	A-9	A-10	A-11	A-12	A-13	A-14	A-15	A-16	

2.5000e+00	3.0000e+00	2.5000e+00	3.0000e+00	2.0000e+00	3.0000e+00	1.5000e+00	3.0000e+00	3.0000e+00	3.0000e+00	3.0000e+00	3.0000e+00	3.0000e+00	3.0000e+00	1.5000e+00	3.0000e+00	

B = Detector Channel
B-1	B-2	B-3	B-4	B-5	B-6	B-7	B-8	B-9	B-10	B-11	B-12	B-13	B-14	B-15	B-16	

1.0000e+01	1.0000e+01	1.0000e+01	1.4400e+00	1.0000e+01	1.0000e+01	1.5100e+00	1.9400e+00	1.0000e+01	1.0000e+01	1.9900e+00	2.4900e+00	2.4100e+00	2.9000e+00	1.0000e+01	2.9800e+00	




#DATA BEGINS
time	group	step	mark	flag	A-AC1	A-AC2	A-AC3	A-AC4	A-AC5	A-AC6	A-AC7	A-AC8	A-AC9	A-AC10	A-AC11	A-AC12	A-AC13	A-AC14	A-AC15	A-AC16	A-DC1	A-DC2	A-DC3	A-DC4	A-DC5	A-DC6	A-DC7	A-DC8	A-DC9	A-DC10	A-DC11	A-DC12	A-DC13	A-DC14	A-DC15	A-DC16	A-Ph1	A-Ph2	A-Ph3	A-Ph4	A-Ph5	A-Ph6	A-Ph7	A-Ph8	A-Ph9	A-Ph10	A-Ph11	A-Ph12	A-Ph13	A-Ph14	A-Ph15	A-Ph16	B-AC1	B-AC2	B-AC3	B-AC4	B-AC5	B-AC6	B-AC7	B-AC8	B-AC9	B-AC10	B-AC11	B-AC12	B-AC13	B-AC14	B-AC15	B-AC16	B-DC1	B-DC2	B-DC3	B-DC4	B-DC5	B-DC6	B-DC7	B-DC8	B-DC9	B-DC10	B-DC11	B-DC12	B-DC13	B-DC14	B-DC15	B-DC16	B-Ph1	B-Ph2	B-Ph3	B-Ph4	B-Ph5	B-Ph6	B-Ph7	B-Ph8	B-Ph9	B-Ph10	B-Ph11	B-Ph12	B-Ph13	B-Ph14	B-Ph15	B-Ph16	aux-1	digaux	

11902.577	1	1	0	768	0.087432	0.23722	0.1502	0.20929	0.37297	0.076935	0.092505	0.057596	0.028826	0.076474	0.045528	0.12442	0.10935	0.22574	0.24823	0.23009	-1.6063	-1.9146	-1.3396	-1.9646	-1.7729	-1.675	-2.0271	-1.4167	-1.9604	-1.775	-1.4083	-1.9	-1.4542	-1.6292	-1.8646	-1.5167	141.242	125.596	168.800	204.404	60.275	135.841	268.141	69.119	-1.992	120.187	108.799	198.001	-54.770	289.212	3.474	190.755	3.9089e-06	1.0186e-05	5.8624e-06	0.025085	1.4371e-07	7.7643e-08	0.030189	0.011925	1.8696e-07	7.7244e-08	0.033263	0.0073823	0.014737	0.0025944	2.1093e-07	0.0035315	-3.9069e-06	-5.1515e-06	-1.1565e-06	-0.21004	-4.7846e-08	-5.9549e-08	-0.13333	-0.031512	-6.5097e-08	-5.4334e-08	-0.13952	-0.025345	-0.04265	-0.0067008	-6.9161e-08	-0.008125	179.947	-4.384	297.579	-14.011	-20.136	9.365	62.997	-39.434	272.141	101.189	143.544	114.260	239.756	80.568	78.197	220.228	-8191	255	
11902.674	1	1	0	0	0.030727	0.39206	0.029787	0.17953	0.20218	0.060386	0.14261	0.24952	0.068071	0.12376	0.19262	0.086109	0.13167	0.21735	0.23708	0.4067	-1.2521	-1.6354	-1.5542	-1.9479	-1.7354	-1.6604	-1.8062	-1.2958	-1.6625	-1.8979	-1.4771	-1.8417	-1.5792	-1.4771	-1.8667	-1.4979	275.118	381.344	490.435	366.302	353.507	323.279	173.985	424.258	327.497	252.705	225.502	214.946	377.819	202.529	324.393	323.069	6.4069e-06	3.4556e-05	5.8835e-06	0.056874	3.481e-08	3.2678e-07	0.0413	0.0043018	1.666e-07	4.7146e-07	0.052201	0.0020836	0.011647	0.0025126	3.7129e-07	0.00096777	-3.8062e-06	-5.9085e-06	-1.0395e-06	-0.24791	-5.323e-08	-5.2548e-08	-0.13476	-0.033498	-6.5626e-08	-6.6536e-08	-0.1188	-0.028693	-0.050985	-0.0066436	-6.5897e-08	-0.0075212	484.138	426.544	454.830	179.114	196.534	505.048	412.995	180.823	189.513	485.602	488.264	454.809	298.776	289.754	233.426	519.966	-8191	255	
11902.770	1	1	0	0	0.20213	0.20847	0.18217	0.079914	0.11266	0.053815	0.14005	0.19451	0.14629	0.068288	0.091498	0.10488	0.057174	0.1572	0.13008	0.32243	-1.4	-1.7938	-1.575	-1.8646	-1.6917	-1.5625	-1.8833	-1.3292	-1.8146	-1.8521	-1.2896	-1.75	-1.5667	-1.3479	-1.8771	-1.5667	141.328	22.767	276.614	108.887	108.707	301.001	193.479	199.936	214.010	278.174	27.616	263.059	234.870	216.316	228.731	179.006	3.3949e-06	2.141e-05	3.4639e-06	0.01481	2.0383e-07	4.3021e-07	0.030441	0.0027122	2.2694e-07	6.168e-08	0.018705	0.005598	0.016679	0.0014107	4.0025e-07	0.0026795	-3.3407e-06	-5.6141e-06	-1.0239e-06	-0.20552	-5.3382e-08	-5.0702e-08	-0.14382	-0.032156	-5.241e-08	-6.1701e-08	-0.10261	-0.02516	-0.05118	-0.0060336	-7.1666e-08	-0.0081119	68.813	301.854	317.556	138.108	92.732	329.364	354.467	14.867	155.791	176.349	39.392	3.821	9.809	290.723	353.330	299.401	-8191	255	
11902.866	1	1	0	0	0.27747	0.22547	0.24038	0.10082	0.38093	0.19506	0.14999	0.031359	0.11558	0.32908	0.063068	0.094766	0.20246	0.03359	0.073233	0.15168	-1.2917	-1.8958	-1.1854	-1.7708	-1.975	-1.4125	-1.7938	-1.3854	-1.5354	-1.8271	-1.5292	-1.7208	-1.7	-1.375	-1.85	-1.6	88.278	21.446	201.472	110.594	23.963	251.656	98.596	72.533	-4.426	238.362	12.876	188.556	-39.225	31.255	10.942	171.318	1.8417e-06	1.5813e-05	1.1329e-05	0.071555	1.4116e-07	2.8335e-07	0.042034	0.0052174	4.5198e-07	2.7299e-07	0.013224	0.0039978	0.0094489	0.0018316	4.0065e-07	0.00040252	-3.693e-06	-6.0136e-06	-9.5369e-07	-0.1817	-5.4292e-08	-5.0702e-08	-0.13254	-0.037792	-6.0793e-08	-7.5055e-08	-0.12333	-0.023993	-0.04532	-0.0053759	-7.1742e-08	-0.0085188	242.435	187.902	111.151	165.119	220.886	-24.940	261.042	-61.114	215.530	154.465	-64.973	269.384	13.824	101.422	91.393	235.479	-8191	255	
11902.962	1	1	0	0	0.14555	0.25449	0.090458	0.12566	0.30328	0.2222	0.083603	0.22733	0.028563	0.11324	0.087347	0.18181	0.19506	0.23962	0.19899	0.15665	-1.3396	-1.8438	-1.2687	-1.7896	-1.7083	-1.55	-1.9292	-1.5354	-1.5063	-2.0042	-1.4062	-1.8167	-1.7958	-1.3917	-1.8583	-1.7396	88.572	248.566	317.079	270.433	29.050	185.070	172.144	135.667	288.913	207.181	112.272	290.418	178.446	88.643	24.416	171.784	6.2288e-06	1.5734e-05	5.9965e-06	0.052915	4.398e-07	2.8483e-07	0.0166	0.0082096	4.5148e-08	4.2274e-07	0.070955	0.0051207	0.011611	0.0023948	1.9488e-07	0.0029534	-2.9443e-06	-6.9458e-06	-1.1838e-06	-0.20885	-6.5286e-08	-5.1163e-08	-0.14604	-0.032209	-5.7017e-08	-7.3827e-08	-0.12906	-0.02556	-0.056064	-0.0059192	-6.5745e-08	-0.009687	351.085	31.191	261.480	287.802	304.129	120.014	285.080	16.077	208.988	302.040	144.735	165.095	120.602	185.709	191.880	90.892	-8191	255	
11903.058	1	1	0	0	0.20826	0.21993	0.30884	0.42644	0.31223	0.21798	0.24999	0.13588	0.23998	0.14414	0.12625	0.24373	0.19753	0.12628	0.24173	0.041254	-1.1187	-2.0708	-1.5833	-1.7083	-1.6979	-1.4479	-1.9937	-1.5146	-1.5875	-2.2208	-1.6604	-1.7875	-1.8354	-1.3333	-1.8729	-1.7583	46.945	66.777	-142.543	164.083	136.281	184.505	93.305	12.504	-29.135	26.351	-32.243	127.779	48.024	84.319	-57.261	-103.005	4.3935e-06	3.7171e-05	4.9976e-06	0.020093	2.4537e-07	4.6737e-07	0.025855	0.011077	1.6085e-07	1.4033e-07	0.022076	0.003076	0.01172	0.0016572	2.4208e-07	0.003934	-3.2148e-06	-6.2029e-06	-1.2599e-06	-0.18266	-6.3618e-08	-4.9317e-08	-0.13222	-0.03994	-5.1579e-08	-7.2215e-08	-0.13853	-0.026451	-0.058343	-0.0051471	-6.62e-08	-0.011026	95.084	29.630	61.695	-116.728	24.336	-120.006	37.061	-134.768	-119.161	-121.306	15.145	124.580	-31.555	69.744	-70.029	119.268	-8191	255	
11903.179	1	1	0	0	0.10072	0.20935	0.27773	0.2462	0.13027	0.093799	0.19527	0.33909	0.25036	0.14442	0.071407	0.14592	0.29489	0.31565	0.12436	0.214	-1.325	-1.95	-1.225	-1.6938	-1.9417	-1.6792	-1.8458	-1.6833	-1.4937	-2.0208	-1.5063	-1.7125	-1.8937	-1.6187	-1.8583	-1.7646	-47.463	112.436	76.914	-11.979	305.751	48.926	-43.441	180.355	94.102	52.412	235.449	49.257	99.350	232.256	134.976	104.449	3.1876e-07	4.7251e-05	1.4018e-05	0.047901	2.4295e-07	3.7598e-07	0.015595	0.0089936	2.9045e-07	5.5358e-07	0.042753	0.0046065	0.0096644	0.000704	2.6854e-07	0.0018047	-2.4662e-06	-6.4482e-06	-1.3281e-06	-0.17527	-6.9078e-08	-5.2548e-08	-0.13095	-0.043053	-4.8332e-08	-6.9683e-08	-0.13636	-0.020552	-0.057366	-0.0058811	-6.0127e-08	-0.011393	59.775	53.367	82.265	285.678	261.791	171.819	114.015	-31.152	79.965	-48.268	194.254	200.249	200.000	155.750	85.546	246.116	-8191	255	
11903.273	1	1	0	0	0.13167	0.06971	0.067703	0.1358	0.023669	0.16472	0.12574	0.31576	0.22819	0.26126	0.17472	0.14184	0.08621	0.23822	0.092632	0.23707	-1.0104	-1.7812	-1.775	-1.4458	-1.95	-1.4208	-1.5375	-1.775	-1.6354	-2.0563	-1.6354	-1.6	-2.2687	-1.3854	-1.6417	-2.0542	245.391	333.554	72.936	66.470	230.021	341.074	176.869	277.667	88.823	383.887	235.295	385.807	345.564	110.731	391.162	254.619	3.7013e-06	2.8435e-05	6.2369e-06	0.044616	1.5562e-07	2.4504e-07	0.041125	0.0029817	2.7392e-07	5.2901e-07	0.035974	0.0060632	0.019365	0.0026242	1.397e-07	0.0014515	-2.397e-06	-6.6795e-06	-1.49e-06	-0.17885	-6.8926e-08	-4.8547e-08	-0.12793	-0.048744	-5.09e-08	-6.8225e-08	-0.14386	-0.02046	-0.060882	-0.0058239	-6.2784e-08	-0.011905	418.166	184.527	380.684	127.967	132.589	145.608	258.137	83.531	227.008	205.268	217.796	421.707	405.338	139.731	201.169	353.831	-8191	255	
11903.369	1	1	0	0	0.038656	0.16582	0.232	0.2519	0.16715	0.37985	0.19511	0.18337	0.19766	0.1201	0.20421	0.13815	0.17544	0.071945	0.16296	0.16655	-1.1542	-2.0021	-1.7979	-1.6021	-1.9688	-1.3833	-1.6375	-1.7646	-1.5896	-1.9917	-1.8	-1.3708	-2.1479	-1.6271	-1.9083	-2.0062	65.725	105.107	70.476	378.201	284.713	90.233	377.543	203.393	313.118	201.841	231.128	203.648	256.790	109.069	206.269	367.180	1.5902e-06	6.2289e-05	6.3064e-06	0.056071	1.1844e-07	5.1553e-07	0.024759	0.010892	3.0861e-07	2.0781e-07	0.062282	0.0069084	0.0072989	0.0017674	1.8966e-07	0.0038914	-2.5605e-06	-5.9786e-06	-1.3496e-06	-0.14384	-6.7713e-08	-5.2394e-08	-0.11792	-0.044932	-4.6444e-08	-6.5462e-08	-0.15471	-0.017173	-0.060817	-0.00692	-4.8208e-08	-0.01184	242.283	203.089	370.574	261.732	85.101	272.598	206.749	42.567	278.924	253.909	365.311	78.054	364.101	61.406	218.221	370.488	-8191	255	
11903.467	1	1	0	0	0.31796	0.29802	0.10292	0.23524	0.19138	0.045741	0.18512	0.17289	0.28746	0.14692	0.045643	0.31223	0.22119	0.2261	0.18723	0.2468	-0.975	-1.7292	-1.7292	-1.4646	-2.0979	-1.7417	-1.5625	-1.8375	-1.6708	-1.9438	-2.1146	-1.4	-1.6917	-1.7979	-1.6667	-2.05	227.994	141.806	-28.015	31.020	185.743	1.472	281.474	38.043	196.060	-22.010	143.042	-9.012	164.681	235.646	72.841	99.293	5.9849e-06	1.7533e-05	5.5389e-06	0.025541	2.5737e-07	4.7714e-07	0.060667	0.0040822	2.7797e-07	6.3579e-07	0.010933	0.0023315	0.0059708	0.0023735	2.7101e-07	0.00025406	-2.4473e-06	-6.322e-06	-1.5953e-06	-0.14598	-7.1883e-08	-4.37e-08	-0.11156	-0.051267	-5.1126e-08	-5.9706e-08	-0.17464	-0.018187	-0.052157	-0.0069677	-5.6407e-08	-0.012233	191.014	7.490	21.739	213.179	301.013	36.598	242.799	-35.907	193.748	126.491	105.271	120.782	121.494	49.681	258.063	135.440	-8191	255	
11903.562	1	1	0	0	0.42869	0.36089	0.035157	0.27414	0.37799	0.17807	0.14942	0.14802	0.070288	0.096708	0.067194	0.029793	0.18399	0.27574	0.1465	0.084259	-1.1042	-1.7771	-1.7563	-1.4083	-1.8104	-1.6708	-1.6646	-2.1646	-1.5562	-1.9312	-1.7771	-1.5229	-1.7896	-1.5625	-1.5333	-1.9729	238.779	22.723	133.541	219.871	191.604	124.704	275.790	324.024	96.196	362.342	164.319	284.444	39.144	139.819	280.062	27.801	4.818e-06	2.1717e-05	6.2353e-06	0.052666	9.5516e-08	1.9951e-07	0.011744	0.015774	8.7728e-08	3.4741e-07	0.023386	0.002219	0.013722	0.00063949	3.0017e-07	0.00039185	-2.6927e-06	-5.544e-06	-1.7104e-06	-0.15789	-6.2784e-08	-6.2704e-08	-0.10155	-0.048905	-4.6066e-08	-6.1011e-08	-0.19359	-0.018125	-0.053134	-0.0070439	-4.3805e-08	-0.010422	36.151	306.327	371.067	316.763	195.250	228.736	125.345	32.583	219.975	110.170	123.889	216.484	261.110	128.841	364.739	370.381	-8191	255	
11903.658	1	1	0	0	0.1665	0.22156	0.25055	0.35764	0.17283	0.082356	0.14197	0.0089697	0.20711	0.24021	0.22147	0.056365	0.19015	0.29489	0.12929	0.12538	-1.1646	-1.6354	-1.9146	-1.2104	-1.8729	-1.6187	-1.4854	-2.0563	-1.6354	-1.6063	-1.8646	-1.3917	-1.8687	-1.6458	-1.5667	-1.8375	141.614	154.029	300.039	134.126	194.399	221.249	358.167	160.444	315.309	258.499	85.567	170.063	234.625	47.758	116.316	105.683	2.1291e-06	3.715e-05	2.1558e-06	0.027781	7.1866e-08	3.3159e-07	0.043817	0.0084776	1.9225e-07	1.5456e-07	0.0069489	0.0080765	0.010024	0.00083828	2.0695e-07	0.00088574	-2.9632e-06	-4.6609e-06	-1.726e-06	-0.14265	-6.6575e-08	-6.1396e-08	-0.1087	-0.045898	-5.392e-08	-5.8095e-08	-0.17129	-0.016712	-0.054827	-0.0078541	-4.8208e-08	-0.011748	81.227	43.318	82.072	177.098	47.550	129.638	176.104	43.154	295.441	247.786	186.306	328.184	307.437	42.212	314.266	53.943	-8191	255	
11903.778	1	1	0	0	0.046276	0.24596	0.11703	0.14824	0.1068	0.0026746	0.13364	0.15873	0.1277	0.26154	0.18241	0.061794	0.24604	0.1468	0.10379	0.062712	-1.2229	-1.6854	-1.725	-1.3417	-1.7062	-1.8729	-1.4708	-1.9625	-1.7521	-1.2188	-1.875	-1.2021	-1.6979	-1.8854	-1.4271	-1.8208	0.044	11.845	5.157	-10.182	307.437	93.855	77.143	-44.627	43.116	169.606	183.113	123.991	241.308	177.778	57.626	94.479	5.3733e-06	1.2982e-05	2.5656e-06	0.074844	1.3148e-07	1.0947e-07	0.048814	0.0054367	3.9805e-08	2.2223e-07	0.010074	0.0022527	0.0036108	0.0020634	1.2174e-07	0.0015303	-3.3658e-06	-4.745e-06	-1.7865e-06	-0.1355	-5.8538e-08	-6.7705e-08	-0.078345	-0.044181	-5.898e-08	-5.7174e-08	-0.17938	-0.017941	-0.059645	-0.0080638	-4.1299e-08	-0.0093589	90.329	237.135	119.584	208.798	205.265	170.384	-31.007	-30.281	-17.277	-41.966	57.554	0.697	16.166	290.563	263.376	37.088	-8191	255	
11903.875	1	1	0	0	0.12421	0.13973	0.25731	0.19536	0.20211	0.19727	0.026771	0.075344	0.20844	0.38835	0.089609	0.12233	0.091936	0.26693	0.14146	0.055879	-1.4542	-1.5417	-2.0583	-1.5146	-1.7062	-1.9	-1.4562	-1.8563	-1.7188	-1.6833	-1.9708	-1.4875	-1.7208	-1.8667	-1.2396	-1.8687	160.559	339.133	306.096	227.080	409.837	114.428	106.208	271.879	287.338	307.329	188.237	96.248	93.704	93.379	199.677	96.027	9.0828e-07	3.7529e-05	7.3162e-06	0.0057219	3.6447e-07	2.4345e-07	0.012735	0.022496	4.7141e-07	1.9947e-07	0.028126	0.0016689	0.008292	0.0012604	2.5217e-07	0.0022791	-3.3218e-06	-4.5277e-06	-1.8411e-06	-0.17313	-6.1798e-08	-6.9397e-08	-0.096144	-0.044073	-5.6866e-08	-4.8732e-08	-0.17879	-0.019293	-0.046036	-0.0076349	-3.3783e-08	-0.010776	371.816	223.259	382.903	202.922	253.129	292.800	272.253	97.245	299.514	263.542	184.990	84.680	144.149	317.575	215.323	87.154	-8191	255	
11903.971	1	1	0	0	0.42939	0.24434	0.093928	0.20666	0.29362	0.14369	0.14488	0.16137	0.083097	0.5204	0.070971	0.08855	0.10522	0.03849	0.24383	0.12224	-1.325	-1.4208	-1.8354	-1.5792	-1.6604	-1.9396	-1.4583	-1.6833	-1.8917	-1.5729	-1.8896	-1.5187	-1.3833	-1.9583	-1.6042	-1.9062	122.009	215.139	292.164	261.786	161.646	321.905	142.915	147.563	300.685	109.617	142.827	176.483	202.216	229.719	234.035	235.325	3.4769e-06	3.8512e-05	2.0959e-06	0.0060968	6.4936e-08	4.2515e-07	0.049644	0.016894	1.765e-07	2.7526e-07	0.011231	0.0075465	0.015411	0.00066684	5.3197e-07	0.0034961	-3.7244e-06	-4.2193e-06	-1.6987e-06	-0.16694	-5.2244e-08	-6.7243e-08	-0.099004	-0.040154	-6.0944e-08	-4.4971e-08	-0.18806	-0.022058	-0.041999	-0.0092839	-4.6158e-08	-0.010002	230.605	224.908	24.951	78.232	37.943	143.741	35.322	-10.771	73.862	312.501	38.932	14.123	80.749	128.506	234.692	294.216	-8191	255	
11904.067	1	1	0	0	0.139	0.1985	0.17729	0.1967	0.036649	0.15819	0.31479	0.087148	0.15218	0.15605	0.061334	0.20783	0.24336	0.13356	0.26445	0.24071	-1.3625	-1.4333	-1.8917	-1.6917	-1.5042	-1.9417	-1.5	-1.6792	-1.9583	-1.4854	-1.9271	-1.9354	-1.4854	-1.9792	-1.5729	-1.6292	74.929	130.568	-56.282	176.790	161.057	223.541	-14.691	72.781	193.453	276.751	174.254	192.159	268.103	58.125	154.521	0.447	5.4096e-06	2.0699e-05	1.5137e-06	0.032425	4.3882e-07	2.2958e-07	0.011058	0.0059549	2.0813e-07	4.6976e-07	0.012118	0.0045969	0.0016611	0.0017033	3.246e-07	0.0011874	-3.9698e-06	-3.918e-06	-1.6967e-06	-0.16551	-4.3297e-08	-6.7705e-08	-0.10075	-0.03951	-5.9886e-08	-4.7581e-08	-0.18194	-0.022734	-0.035813	-0.0079685	-4.464e-08	-0.010068	-53.878	-32.010	228.261	278.199	251.043	183.486	144.389	-38.350	254.695	75.046	289.932	56.583	-16.325	268.973	233.031	177.296	-8191	255	
11904.163	1	1	0	0	0.18651	0.080137	0.23732	0.086006	0.10713	0.065337	0.23882	0.17642	0.17628	0.10922	0.32982	0.12401	0.032262	0.072786	0.20081	0.27691	-1.4292	-1.4312	-1.7875	-1.4729	-1.5688	-1.8542	-1.4	-1.55	-1.9083	-1.5771	-1.9125	-1.7896	-1.4125	-1.9979	-1.4833	-1.3979	230.614	283.769	225.117	62.153	271.915	218.992	108.418	273.680	87.970	279.706	335.032	162.446	149.139	101.478	69.744	37.743	3.2104e-06	3.139e-05	1.0591e-05	0.026802	1.7217e-07	4.0005e-07	0.031192	0.0033454	1.6629e-07	4.6491e-07	0.034763	0.0056534	0.012675	0.00074456	3.4863e-07	0.0018063	-4.2214e-06	-3.953e-06	-1.4783e-06	-0.16265	-4.2993e-08	-7.1398e-08	-0.10822	-0.033498	-6.1925e-08	-4.4588e-08	-0.15096	-0.022672	-0.041869	-0.0086167	-5.3294e-08	-0.0083876	151.798	147.178	343.493	188.619	306.147	299.895	286.407	28.018	60.009	117.545	10.896	49.555	291.954	284.163	111.700	242.210	-8191	255	
11904.257	1	1	0	0	0.48926	0.24196	0.15365	0.27828	0.19257	0.068653	0.17104	0.30597	0.07509	0.24998	0.11253	0.31403	0.15327	0.18428	0.020331	0.19963	-1.5958	-1.3	-1.8188	-1.8083	-1.2021	-2.0208	-1.65	-1.4854	-1.9958	-1.5396	-1.6688	-1.7479	-1.5208	-1.6917	-1.5146	-1.4896	155.095	194.708	291.551	141.547	201.051	321.496	332.727	302.091	136.053	351.641	78.850	321.291	53.711	321.052	191.165	330.462	6.9943e-06	3.0232e-05	4.912e-06	0.022064	3.0114e-07	2.9087e-07	0.017753	0.0064058	2.2309e-07	1.4124e-07	0.019223	0.0046496	0.0077139	0.0011653	1.473e-07	0.0050057	-4.6052e-06	-4.3175e-06	-1.4354e-06	-0.19171	-4.2159e-08	-6.078e-08	-0.10536	-0.03586	-6.268e-08	-4.6583e-08	-0.16556	-0.022734	-0.032102	-0.0082354	-5.6786e-08	-0.0077313	301.967	240.010	88.114	114.276	350.254	25.946	108.896	10.143	348.763	38.844	42.700	77.855	227.286	329.256	147.895	240.358	-8191	255	
11904.354	1	1	0	0	0.18631	0.063222	0.20303	0.15817	0.23573	0.20342	0.28531	0.17157	0.064952	0.23399	0.16239	0.17011	0.22528	0.40445	0.15172	0.12774	-1.4042	-1.3917	-1.7875	-1.7563	-1.4583	-1.9396	-1.6896	-1.4854	-1.9417	-1.3833	-1.6333	-1.6854	-1.2667	-1.6979	-1.6667	-1.4021	179.631	268.881	329.717	257.034	180.943	241.086	353.548	291.353	257.282	330.804	406.271	455.554	163.480	332.480	171.958	305.843	2.6212e-06	1.6263e-05	8.6343e-06	0.048835	1.0211e-07	3.4371e-07	0.028882	0.013509	3.5934e-07	3.4399e-07	0.011799	0.0036106	0.012399	0.00057855	1.0557e-07	0.0020631	-4.1459e-06	-4.2053e-06	-1.4354e-06	-0.20052	-3.5866e-08	-7.1244e-08	-0.12109	-0.031404	-7.0836e-08	-4.689e-08	-0.12176	-0.025498	-0.036334	-0.0077207	-6.2253e-08	-0.0075212	224.735	117.354	220.026	331.448	274.419	444.463	398.106	122.790	399.099	256.522	332.462	148.215	278.459	196.460	364.728	330.261	-8191	255	
11904.450	1	1	0	0	0.36555	0.1264	0.061981	0.13689	0.12293	0.11824	0.020637	0.094162	0.40401	0.1884	0.28591	0.06802	0.23596	0.235	0.06757	0.097893	-1.3896	-1.4625	-1.8292	-1.7563	-1.375	-1.7563	-1.7042	-1.4188	-1.9062	-1.4646	-1.6375	-1.8125	-1.4125	-1.8104	-1.6375	-1.3687	415.717	386.039	297.721	229.818	232.763	423.359	166.285	339.574	321.782	465.550	184.099	168.743	389.145	482.846	220.176	307.854	2.1416e-06	6.1733e-05	6.7808e-06	0.028485	4.6168e-07	3.4921e-07	0.030939	0.0056963	4.2114e-07	5.7406e-07	0.01923	0.0027211	0.011109	0.0019964	1.0221e-07	0.0040098	-4.0893e-06	-4.6469e-06	-1.2267e-06	-0.2029	-4.1704e-08	-5.9703e-08	-0.1354	-0.031887	-6.2227e-08	-4.7581e-08	-0.14149	-0.023993	-0.041673	-0.0071583	-6.7035e-08	-0.0061167	398.765	473.043	476.426	419.494	436.842	493.114	413.249	175.807	510.018	466.668	350.447	329.822	304.824	282.778	212.382	405.908	-8191	255	
11904.548	1	1	0	0	0.17634	0.041561	0.051501	0.11309	0.1915	0.10183	0.075281	0.45991	0.20754	0.077319	0.28609	0.25651	0.23306	0.16735	0.17704	0.10007	-1.3604	-1.5854	-1.5562	-1.9958	-1.3563	-1.7729	-1.7229	-1.3417	-1.8708	-1.6396	-1.5354	-2.0083	-1.5667	-1.5896	-1.8833	-1.1938	227.086	96.876	228.032	308.100	387.302	266.422	391.751	396.482	224.039	157.850	266.553	360.711	135.149	290.570	258.020	247.805	1.2884e-06	1.5967e-05	1.1454e-05	0.022188	2.0911e-07	1.2142e-07	0.0098817	0.021816	5.2069e-08	3.0124e-07	0.023654	0.0064198	0.0084754	0.0014255	1.552e-07	0.0028227	-4.4479e-06	-4.731e-06	-1.059e-06	-0.22338	-4.2918e-08	-6.2935e-08	-0.1257	-0.029901	-6.268e-08	-5.5716e-08	-0.11347	-0.027772	-0.036074	-0.0061575	-5.9368e-08	-0.0065893	106.641	291.366	155.458	229.463	421.417	349.989	378.084	88.664	304.378	281.459	314.077	92.820	352.419	127.792	143.646	422.290	-8191	255	
11904.666	1	1	0	0	0.19159	0.31239	0.055432	0.28329	0.10338	0.11028	0.17652	0.41273	0.058072	0.036906	0.18319	0.24459	0.26498	0.35284	0.17391	0.12748	-1.2896	-1.7979	-1.55	-1.9188	-1.2979	-1.6146	-1.8521	-1.375	-1.75	-1.8521	-1.4083	-1.7167	-1.5479	-1.5896	-1.8917	-1.4937	192.738	133.510	346.955	88.534	181.038	275.648	346.216	166.213	306.584	377.366	313.844	277.880	388.825	204.449	416.969	425.916	3.3206e-06	2.0367e-05	8.5202e-06	0.054641	1.5203e-07	3.1599e-07	0.022273	0.010581	3.4066e-07	5.3297e-07	0.016528	0.011953	0.0093002	0.0027595	3.0442e-07	0.0015878	-4.1648e-06	-5.5721e-06	-1.1565e-06	-0.22171	-3.9051e-08	-5.9549e-08	-0.13222	-0.030814	-6.0793e-08	-5.8248e-08	-0.11465	-0.028601	-0.040241	-0.0059954	-6.4302e-08	-0.0082038	406.300	210.033	237.172	187.299	340.002	325.746	338.300	102.601	234.024	400.608	257.735	218.391	314.898	179.837	425.212	291.056	-8191	255	
11904.738	1	1	0	0	0.074245	0.087302	0.27889	0.2313	0.15506	0.10999	0.25784	0.17162	0.18729	0.18499	0.054605	0.14889	0.096825	0.14538	0.047053	0.19972	-1.5583	-1.7271	-1.2917	-1.9229	-1.6812	-1.5208	-1.8042	-1.5875	-1.8687	-1.6812	-1.4229	-1.9292	-1.5354	-1.6625	-1.9604	-1.5625	491.260	249.099	191.379	190.454	385.778	154.411	259.156	242.456	391.301	288.879	334.794	338.621	174.480	404.885	477.182	212.421	2.4678e-06	1.8298e-06	9.2203e-06	0.024328	5.5992e-08	1.0399e-07	0.020877	0.01204	1.7006e-07	9.8683e-08	0.019998	0.0064822	0.005129	0.0012601	4.5151e-08	0.0019093	-3.0764e-06	-5.488e-06	-1.0492e-06	-0.20623	-5.3078e-08	-5.0855e-08	-0.13174	-0.032639	-5.7621e-08	-6.0627e-08	-0.10893	-0.029431	-0.042455	-0.0059954	-6.2556e-08	-0.0072456	299.504	296.900	460.732	473.778	479.922	287.941	431.211	170.810	399.382	274.928	190.527	373.306	213.646	230.136	381.631	412.885	-8191	255	
11904.859	1	1	0	0	0.095561	0.022479	0.14937	0.10606	0.051328	0.091669	0.19078	0.15125	0.27484	0.29461	0.14516	0.18051	0.14601	0.027418	0.1212	0.25391	-1.1667	-1.7875	-1.4604	-1.8312	-1.7083	-1.625	-2.0854	-1.6562	-1.6479	-1.9333	-1.375	-1.9458	-1.7833	-1.5312	-2.0792	-1.5938	317.598	454.316	286.729	266.057	130.586	457.054	416.748	160.573	316.319	458.137	302.632	225.117	262.183	363.684	241.086	138.274	1.762e-06	5.7468e-05	3.1662e-06	0.04232	5.6139e-08	1.4293e-07	0.024541	0.0074695	2.9543e-07	1.3953e-07	0.021552	0.005869	0.01559	0.0010379	2.4664e-07	0.0033539	-3.4854e-06	-5.0674e-06	-1.1507e-06	-0.206	-5.4367e-08	-5.1702e-08	-0.1462	-0.030438	-5.6488e-08	-6.8532e-08	-0.087617	-0.027802	-0.044864	-0.0059192	-6.4758e-08	-0.0088338	152.827	136.147	139.931	280.042	176.255	384.959	336.257	117.033	235.501	203.999	365.653	363.122	409.602	362.530	152.424	429.692	-8191	255	
11904.955	1	1	0	0	0.12082	0.093112	0.1043	0.31671	0.1527	0.083949	0.13868	0.14545	0.12011	0.1333	0.37876	0.18616	0.045486	0.055513	0.15801	0.097801	-1.2896	-1.9167	-1.5	-1.5938	-1.7313	-1.4667	-1.9771	-1.6208	-1.5438	-1.8	-1.4875	-1.7563	-1.7083	-1.4583	-1.9937	-1.6771	444.722	364.455	137.520	372.358	236.782	344.989	430.158	240.519	280.279	333.022	95.484	145.379	381.443	291.323	353.845	346.294	3.8133e-07	1.3633e-05	7.3684e-06	0.060698	1.9815e-07	1.4378e-07	0.019062	0.0066434	4.6626e-08	7.0403e-07	0.015877	0.0091198	0.015661	0.00044479	2.5526e-07	0.0041282	-2.8562e-06	-6.2309e-06	-1.1526e-06	-0.19147	-5.6718e-08	-5.0625e-08	-0.13937	-0.037739	-4.8861e-08	-6.3313e-08	-0.1109	-0.023256	-0.045515	-0.0051566	-7.0831e-08	-0.0095033	312.654	181.251	112.868	224.162	404.433	329.837	368.414	104.693	145.552	370.560	93.310	325.677	374.872	99.716	412.139	291.450	-8191	255	
11905.051	1	1	0	0	0.32847	0.085755	0.18777	0.27612	0.10129	0.10862	0.17395	0.11377	0.12893	0.27619	0.13855	0.24989	0.19525	0.10175	0.21851	0.098722	-1.0979	-1.7833	-1.4375	-1.7479	-1.675	-1.4104	-1.9417	-1.5229	-1.4104	-2.1521	-1.4896	-1.9229	-1.6896	-1.4625	-1.7583	-1.6979	219.032	78.780	208.964	287.167	77.548	154.442	239.555	291.981	152.106	110.581	311.019	164.907	406.586	356.081	321.961	66.839	3.4271e-06	1.7268e-05	7.764e-06	0.057631	6.6512e-08	7.1975e-08	0.024991	0.0083513	2.2159e-07	2.3199e-07	0.025114	0.008946	0.0039401	0.0021103	1.5453e-07	0.0022919	-2.7178e-06	-5.8034e-06	-1.3418e-06	-0.14313	-5.7855e-08	-4.5316e-08	-0.13698	-0.0379	-4.9691e-08	-6.9529e-08	-0.11781	-0.02516	-0.052678	-0.005109	-6.4606e-08	-0.0092407	215.413	157.500	276.231	229.419	224.997	347.483	253.342	66.399	356.315	256.090	371.606	389.398	308.663	65.662	405.167	383.394	-8191	255	
11905.147	1	1	0	0	0.2279	0.085526	0.092139	0.15057	0.215	0.15769	0.11421	0.14681	0.16524	0.077715	0.17488	0.10514	0.064164	0.12005	0.12746	0.10384	-1.1521	-1.9521	-1.4312	-1.7563	-1.9833	-1.525	-1.9896	-1.6104	-1.4	-1.7979	-1.4813	-1.7479	-1.8021	-1.5229	-1.5708	-1.6583	429.732	195.271	447.060	405.734	340.641	248.498	230.067	413.309	303.220	400.210	165.039	199.672	308.637	197.440	457.691	388.042	2.7942e-06	3.252e-05	3.7757e-06	0.034618	1.6974e-07	1.328e-07	0.0091022	0.0090478	1.5738e-07	2.2976e-07	0.043236	0.0015664	0.0058751	0.0016868	3.0725e-07	0.0043268	-2.3026e-06	-6.0697e-06	-1.1078e-06	-0.16718	-6.2177e-08	-5.0548e-08	-0.12681	-0.040154	-4.3725e-08	-6.0857e-08	-0.13083	-0.021689	-0.054241	-0.0051662	-5.9444e-08	-0.0096739	185.466	457.303	288.253	278.027	407.568	286.992	421.211	157.307	307.593	210.405	356.134	220.119	351.694	225.629	407.733	355.964	-8191	255	
11905.268	1	1	0	0	0.10394	0.15424	0.28975	0.097642	0.20952	0.16659	0.31646	0.035454	0.27866	0.33003	0.13955	0.1766	0.13934	0.10395	0.29575	0.16348	-0.92083	-1.7938	-1.6146	-1.6583	-1.8625	-1.4125	-2.0021	-1.8104	-1.4542	-1.9229	-1.4937	-1.5833	-1.8729	-1.5521	-1.7292	-1.6458	-42.331	139.601	223.441	242.059	-54.895	62.939	203.982	-35.517	74.801	-56.444	89.560	245.190	197.147	74.782	173.151	121.639	2.6066e-06	3.1134e-05	5.4718e-06	0.024589	3.4491e-07	2.1076e-07	0.054213	0.012405	2.4507e-07	1.1359e-07	0.012989	0.0057313	0.017457	0.0013296	1.9035e-07	0.0028759	-2.9821e-06	-5.5861e-06	-1.2969e-06	-0.16551	-6.7334e-08	-4.5701e-08	-0.13698	-0.040852	-4.3876e-08	-6.5692e-08	-0.1482	-0.019047	-0.056454	-0.0052806	-5.9216e-08	-0.011118	215.892	291.496	268.866	91.015	129.487	78.566	207.918	-39.586	245.521	284.967	187.068	263.589	0.162	265.803	241.804	18.543	-8191	255	
11905.362	1	1	0	0	0.04624	0.2595	0.14636	0.22486	0.23516	0.071405	0.18797	0.12835	0.17892	0.095513	0.22955	0.18413	0.17262	0.17923	0.16328	0.18239	-1.1208	-1.9646	-1.6292	-1.3312	-2.0354	-1.4479	-1.6375	-1.7604	-1.2646	-1.9021	-1.6646	-1.5271	-1.9354	-1.325	-1.6958	-1.8375	176.598	5.481	175.942	163.309	243.835	0.740	-54.284	92.041	131.990	83.083	101.461	101.794	112.046	168.930	209.277	140.275	4.0604e-06	3.9681e-05	5.8709e-06	0.010551	1.052e-07	2.5964e-07	0.019118	0.017288	1.8085e-07	2.8041e-07	0.04903	0.010251	0.0035895	0.0018888	3.6362e-07	0.00095639	-2.1642e-06	-6.6444e-06	-1.4413e-06	-0.13479	-6.559e-08	-4.7009e-08	-0.1079	-0.039296	-3.8061e-08	-6.1932e-08	-0.14169	-0.016251	-0.060492	-0.0060812	-5.0258e-08	-0.010527	-6.593	50.603	212.164	188.513	-53.729	188.509	205.228	-58.672	174.306	220.669	-32.468	216.444	214.904	61.881	51.626	13.422	-8191	255	
11905.436	1	1	0	0	0.19047	0.20549	0.089106	0.30653	0.23584	0.052514	0.15275	0.22811	0.27037	0.051498	0.22262	0.16958	0.22558	0.12697	0.20658	0.19179	-0.94583	-1.7542	-1.4229	-1.3687	-2.0583	-1.7146	-1.5229	-1.8833	-1.3396	-1.7667	-1.5667	-1.4333	-1.8167	-1.35	-1.425	-1.9271	236.662	309.804	271.760	278.574	262.893	46.646	306.217	49.243	198.271	168.256	352.993	125.294	59.968	257.897	359.142	74.873	3.1649e-06	3.5921e-06	4.39e-06	0.02168	1.1021e-07	3.9963e-07	0.011189	0.0083538	2.6154e-07	2.378e-07	0.039773	0.0017309	0.0056323	0.0028908	3.6183e-07	0.0035067	-2.2523e-06	-4.9483e-06	-1.4861e-06	-0.11193	-6.612e-08	-4.9009e-08	-0.10186	-0.04504	-3.859e-08	-6.1932e-08	-0.15076	-0.015453	-0.054045	-0.0057285	-4.9195e-08	-0.011183	324.339	198.331	95.615	239.292	322.103	52.483	314.289	26.290	366.844	290.611	35.626	111.469	34.184	100.271	235.223	256.666	-8191	255	
11905.555	1	1	0	0	0.21177	0.35189	0.23502	0.087444	0.19253	0.16646	0.039794	0.21709	0.13552	0.051975	0.017307	0.15583	0.21357	0.06937	0.17651	0.10256	-0.79167	-1.7437	-1.7062	-1.4083	-1.9688	-1.5854	-1.3604	-1.9208	-1.3375	-1.6042	-1.6063	-1.6292	-1.7542	-1.7229	-1.4333	-2.025	237.976	449.851	228.180	412.057	158.893	239.976	412.307	315.374	239.519	245.318	213.886	180.310	183.577	407.726	235.284	195.929	6.4804e-06	1.3261e-05	4.1937e-06	0.0061574	2.3191e-07	1.7342e-07	0.062532	0.0038587	3.1724e-07	4.335e-07	0.050126	0.0030019	0.0045014	0.0015532	2.8921e-07	0.0008774	-2.2774e-06	-5.2567e-06	-1.4608e-06	-0.10026	-6.0888e-08	-4.7316e-08	-0.097415	-0.046274	-3.8061e-08	-5.8862e-08	-0.18589	-0.018955	-0.05678	-0.0060908	-5.0182e-08	-0.011354	375.501	183.402	477.946	160.554	367.099	230.325	457.470	140.619	417.680	414.532	123.061	228.888	411.115	383.906	395.303	264.258	-8191	255	
11905.651	1	1	0	0	0.10008	0.24576	0.2311	0.13631	0.15359	0.026902	0.14244	0.079552	0.32769	0.22689	0.35866	0.064534	0.13396	0.19002	0.10515	0.017224	-1.1125	-1.5854	-1.5917	-1.4854	-2.0771	-1.7729	-1.4188	-1.8896	-1.5625	-1.7188	-1.7521	-1.2188	-1.8062	-1.6583	-1.6104	-1.7292	322.118	293.976	184.761	220.290	145.139	76.300	210.699	96.308	316.316	118.988	302.064	164.913	365.837	253.947	290.248	249.246	3.1347e-07	2.4312e-05	3.6542e-06	0.012166	1.0037e-07	1.4356e-07	0.029812	0.0080767	2.4976e-07	2.4509e-07	0.04177	0.004806	0.011533	0.0011162	3.5085e-07	0.0013616	-2.3655e-06	-5.5791e-06	-1.6109e-06	-0.1255	-5.5808e-08	-5.7934e-08	-0.082795	-0.045254	-5.1202e-08	-5.6329e-08	-0.19043	-0.017019	-0.050724	-0.0071774	-4.1831e-08	-0.011131	264.892	86.659	382.710	312.034	84.685	327.976	101.413	72.157	390.838	391.199	268.738	56.464	177.287	310.457	288.910	402.312	-8191	255	
11905.747	1	1	0	0	0.15154	0.20941	0.070402	0.31059	0.24538	0.12201	0.097816	0.16238	0.10694	0.26545	0.24079	0.043421	0.17168	0.13141	0.304	0.14051	-1.0417	-1.7833	-1.8979	-1.3813	-1.7583	-1.55	-1.4062	-2.0771	-1.5542	-1.6521	-1.8292	-1.4458	-1.5958	-1.8229	-1.5396	-1.9312	6.395	73.634	96.064	146.416	235.056	306.173	221.291	107.404	125.971	161.902	31.318	17.040	-10.866	183.799	167.255	161.347	7.3257e-06	2.07e-05	1.3278e-05	0.041407	2.0001e-07	2.7207e-07	0.040271	0.006489	4.4659e-07	6.0053e-07	0.055812	0.0058862	0.010789	0.0012401	5.642e-07	0.00087738	-2.7807e-06	-5.0674e-06	-1.5661e-06	-0.12264	-5.6263e-08	-5.7318e-08	-0.09662	-0.040906	-5.1051e-08	-5.9322e-08	-0.16477	-0.01705	-0.042845	-0.0076635	-5.0409e-08	-0.010527	56.833	127.202	63.674	116.584	102.358	267.363	259.929	0.664	198.424	51.823	297.704	-7.347	79.202	91.176	207.421	1.775	-8191	255	
11905.843	1	1	0	0	0.24259	0.31026	0.18313	0.22717	0.29907	0.21774	0.077581	0.29999	0.078551	0.12038	0.076521	0.25996	0.26948	0.10961	0.14269	0.093004	-1.0812	-1.3958	-1.8563	-1.5896	-1.6187	-1.9396	-1.5688	-1.9833	-1.5042	-1.3833	-1.9479	-1.3604	-1.5521	-1.7125	-1.2938	-1.7292	315.603	265.210	339.660	141.177	151.861	166.154	12.891	163.640	102.204	153.316	130.575	336.029	4.872	314.781	238.117	201.410	5.9666e-06	9.8229e-06	7.4652e-06	0.043807	7.4892e-08	2.7116e-07	0.014954	0.0095528	2.5632e-07	3.6208e-07	0.018157	0.0019995	0.0067478	0.002433	2.9308e-07	0.0031277	-3.1834e-06	-4.2894e-06	-1.7221e-06	-0.13622	-5.8159e-08	-6.5473e-08	-0.080729	-0.043966	-5.1504e-08	-4.5125e-08	-0.17168	-0.016313	-0.043497	-0.0073966	-3.7655e-08	-0.0097658	4.913	23.063	282.643	43.201	30.003	54.977	54.862	21.494	27.264	221.925	197.111	173.943	90.194	196.615	5.738	77.745	-8191	255	
11905.964	1	1	0	0	0.44566	0.2916	0.041378	0.17293	0.16017	0.14269	0.01377	0.12239	0.10174	0.2579	0.17621	0.17751	0.057025	0.29764	0.066038	0.12513	-1.2208	-1.45	-1.95	-1.5354	-1.5646	-1.9271	-1.3583	-1.7479	-1.5521	-1.3104	-2.1625	-1.6292	-1.6708	-1.6708	-1.1958	-1.8646	435.093	215.613	307.820	159.791	332.462	143.402	222.388	160.466	473.641	250.272	300.188	183.777	365.075	200.696	311.875	217.102	3.9251e-06	3.4298e-05	6.0991e-06	0.016067	3.2331e-07	4.152e-07	0.025183	0.0018675	1.1529e-07	2.7673e-07	0.043986	0.0045786	0.01065	0.0016435	2.9889e-07	0.0042718	-3.3218e-06	-4.1352e-06	-1.8138e-06	-0.14908	-5.5429e-08	-6.7705e-08	-0.090423	-0.041443	-4.9465e-08	-4.2976e-08	-0.17425	-0.019139	-0.03985	-0.0074347	-4.2362e-08	-0.010383	146.760	346.508	269.284	431.768	232.396	482.811	392.679	148.116	227.933	174.419	453.345	197.503	273.242	267.512	352.719	310.610	-8191	255	
11906.035	1	1	0	0	0.17319	0.24614	0.25633	0.085841	0.32692	0.15824	0.063529	0.035396	0.067784	0.35699	0.16674	0.0094858	0.092437	0.19769	0.11804	0.49569	-1.35	-1.3979	-1.7854	-1.425	-1.6812	-1.9729	-1.5667	-1.5958	-1.8042	-1.2938	-2.0021	-1.6125	-1.4271	-2.0146	-1.6187	-1.5812	226.177	206.078	289.895	145.215	-19.119	277.345	31.909	304.713	59.141	179.099	175.969	190.194	225.517	186.783	109.106	-47.411	2.8564e-06	2.7301e-05	5.3675e-06	0.038641	1.9847e-07	1.8025e-07	0.024311	0.022985	1.4461e-07	3.401e-07	0.032721	0.0033438	0.021962	0.00084116	6.8308e-07	0.0013179	-3.7873e-06	-4.4226e-06	-1.687e-06	-0.1355	-4.5041e-08	-6.9936e-08	-0.10059	-0.037792	-6.9553e-08	-4.336e-08	-0.17583	-0.02175	-0.037701	-0.0079399	-5.5951e-08	-0.0098708	271.359	-2.121	94.017	264.677	5.174	-39.419	55.508	-30.734	184.382	53.423	170.721	255.745	66.600	116.122	190.041	64.801	-8191	255	
11906.131	1	1	0	0	0.027128	0.19506	0.055656	0.12235	0.0941	0.11446	0.13487	0.19628	0.25793	0.2259	0.051112	0.056514	0.24098	0.24542	0.045873	0.33683	-1.5042	-1.4479	-1.9729	-1.5417	-1.2437	-1.9312	-1.5354	-1.675	-1.7958	-1.5083	-1.7833	-1.6562	-1.5458	-1.8771	-1.4896	-1.7313	43.184	108.643	-69.084	138.093	121.598	101.842	256.471	43.108	50.659	142.938	8.660	167.875	111.785	93.169	-5.165	-21.923	3.2699e-06	5.4284e-05	7.4216e-06	0.014631	2.6574e-07	1.5746e-07	0.052063	0.006434	1.6219e-07	3.0912e-07	0.063065	0.0068699	0.0067973	0.0019846	3.0197e-07	0.0018164	-4.1334e-06	-4.4366e-06	-1.5037e-06	-0.17432	-4.5875e-08	-6.8166e-08	-0.10933	-0.040315	-6.3889e-08	-4.8118e-08	-0.16497	-0.021904	-0.032362	-0.0087692	-5.0258e-08	-0.0090045	211.106	128.558	235.978	206.024	2.183	57.808	-54.746	-76.365	254.360	-18.135	220.744	143.026	62.081	153.846	-54.576	265.560	-8191	255	
11906.228	1	1	0	0	0.10301	0.13535	0.095881	0.28883	0.16481	0.17329	0.11554	0.27338	0.23504	0.17536	0.090613	0.25353	0.35589	0.32772	0.16086	0.34436	-1.2958	-1.3563	-1.8604	-1.6917	-1.3417	-1.8771	-1.575	-1.7938	-1.9833	-1.4604	-1.7667	-1.4521	-1.4646	-1.85	-1.6812	-1.6271	51.485	10.472	105.898	87.698	118.476	99.293	-14.310	288.818	-12.306	178.274	340.511	231.040	15.575	89.456	10.301	198.370	6.2009e-06	1.6719e-05	6.7455e-06	0.085873	1.8868e-07	2.2804e-07	0.04379	0.013938	2.8938e-07	8.1746e-08	0.026388	0.007238	0.012087	0.0025149	4.5392e-07	0.0019876	-3.6615e-06	-4.0511e-06	-1.5817e-06	-0.18337	-4.0567e-08	-6.4858e-08	-0.10043	-0.037578	-6.6607e-08	-4.4127e-08	-0.14919	-0.024669	-0.041934	-0.0074157	-4.8056e-08	-0.009792	-10.974	175.201	97.188	251.710	145.758	75.248	333.589	2.191	70.484	252.594	279.004	108.440	-7.905	96.986	142.259	334.783	-8191	255	
11906.347	1	1	0	0	0.26004	0.095815	0.17424	0.13766	0.1521	0.12736	0.25013	0.21371	0.23989	0.34157	0.035856	0.22405	0.062939	0.097581	0.2089	0.15551	-1.5187	-1.4062	-1.6667	-1.7479	-1.3292	-1.8438	-1.7521	-1.5667	-1.9625	-1.45	-1.7083	-1.7333	-1.3083	-1.8729	-1.5979	-1.4813	-26.604	108.358	31.287	-71.447	229.862	-58.596	193.962	125.931	-73.877	-30.510	77.999	179.781	-38.982	204.999	78.347	82.845	2.5239e-06	2.2998e-05	1.0936e-05	0.033085	1.4571e-07	1.7264e-07	0.0095978	0.0054303	1.8474e-07	2.6146e-07	0.014958	0.0045149	0.017298	0.00067068	2.1825e-07	0.0034895	-4.2969e-06	-4.3455e-06	-1.4764e-06	-0.18194	-3.8747e-08	-6.6397e-08	-0.12793	-0.033927	-6.0415e-08	-5.1034e-08	-0.12827	-0.025498	-0.034967	-0.0075491	-5.5648e-08	-0.0081119	74.598	175.264	-29.331	72.160	16.681	65.462	219.739	-103.473	64.172	-54.091	100.737	-2.126	69.136	165.248	119.285	121.112	-8191	255	
11906.443	1	1	0	131072	0.20083	0.061003	0.11388	0.28855	0.031951	0.049106	0.084178	0.26277	0.085032	0.1732	0.49467	0.18184	0.11794	0.33191	0.048809	0.13257	-1.6333	-1.3917	-1.6542	-1.8292	-1.3333	-1.9646	-1.8292	-1.5375	-1.9417	-1.4167	-1.7062	-2.6646	-2.1083	-2.5771	-2.0833	-1.5167	114.369	-65.530	195.454	86.216	88.861	163.657	-80.068	-65.207	53.743	100.888	-17.546	159.113	31.769	12.439	181.662	-65.268	2.7034e-06	2.7151e-05	5.7022e-06	0.0082454	2.3782e-07	3.6952e-07	0.015641	0.004711	2.6478e-07	2.1077e-07	0.054584	0.017161	0.70055	8.3637	0.00023105	29.032	-3.9887e-06	-4.1563e-06	-1.4432e-06	-0.1817	-4.1477e-08	-6.355e-08	-0.11521	-0.030867	-7.0912e-08	-4.9039e-08	2.0931	2.4764	13.75	69.219	0.001104	119.78	74.076	-35.884	207.426	-103.837	-11.934	-12.840	175.221	-134.458	-62.612	-124.557	-121.998	172.770	31.415	52.114	204.001	144.320	-8191	255	
11906.539	1	1	0	0	0.38387	0.13098	0.18019	0.18553	0.2361	0.096264	0.090964	0.031181	0.071866	0.16456	0.095644	0.048875	0.27478	0.20824	0.19488	0.11631	-1.3583	-1.5354	-1.6	-1.7583	-1.4583	-1.6354	-1.4188	-1.1479	-1.9104	-1.5	-1.3333	-1.9792	-1.3396	-1.575	-1.7396	-1.3188	359.493	119.356	349.399	338.785	387.493	253.286	142.792	97.096	60.959	342.828	180.000	366.464	388.397	136.439	171.604	134.076	0.0011205	0.00099513	6.1823e-05	0.076946	3.331e-07	2.5018e-07	0.011105	0.0033893	2.3854e-07	6.2807e-08	0.020562	0.002139	0.0056225	0.00037466	1.7531e-07	0.0014111	0.0073126	0.0013188	7.5189e-05	0.51654	-4.752e-07	-5.5218e-07	-1.043	-0.30706	-4.0319e-07	-3.5724e-07	-0.83512	-0.12052	-0.22165	-0.031188	-2.295e-07	-0.034102	141.517	159.775	155.330	114.668	354.201	125.003	339.935	60.878	267.494	171.484	246.079	306.009	370.649	112.404	164.909	180.603	-8191	255	
11906.635	1	1	0	0	0.18431	0.056232	0.090496	0.19334	0.21271	0.2244	0.18586	0.14141	0.31038	0.10359	0.19085	0.1866	0.045309	0.080726	0.081277	0.2009	-1.4729	-1.7583	-1.4167	-1.8375	-1.3625	-1.575	-1.6792	-1.3396	-1.7979	-1.6125	-1.4146	-1.9312	-1.4083	-1.3729	-1.6437	-1.2396	29.146	155.698	78.928	210.994	75.711	-16.947	-44.387	20.096	181.168	172.341	-76.892	52.087	160.419	-52.332	93.609	-56.617	7.7553e-07	1.0051e-05	5.6409e-06	0.019749	2.0318e-07	2.1948e-07	0.018527	0.0011737	3.0978e-08	1.8957e-07	0.035571	0.008879	0.011537	0.002789	3.0029e-07	0.0008581	-1.5628e-05	-1.6282e-05	-4.1716e-06	-0.54011	-1.4642e-07	-1.4687e-07	-0.30718	-0.083422	-1.2687e-07	-1.1266e-07	-0.25298	-0.047402	-0.077942	-0.012105	-1.0515e-07	-0.013927	70.333	-67.289	93.375	190.367	213.606	-33.504	89.154	-71.811	179.959	-83.204	80.863	2.020	257.118	42.012	198.192	233.780	-8191	255	
11906.731	1	1	0	0	0.13087	0.074477	0.1079	0.14473	0.15562	0.21998	0.13563	0.18113	0.11199	0.28518	0.24919	0.1291	0.13921	0.1711	0.20261	0.15911	-1.2771	-1.5646	-1.4062	-1.85	-1.5667	-1.525	-1.6854	-1.275	-1.7104	-1.6938	-1.25	-1.8417	-1.4167	-1.4458	-1.925	-1.3563	67.856	123.495	-5.138	120.907	294.955	14.272	29.986	86.591	53.146	208.302	-47.338	23.172	250.214	273.366	24.450	-4.792	8.088e-06	4.19e-05	6.2601e-06	0.036247	2.5256e-07	1.9147e-07	0.013528	0.0081698	9.5757e-08	3.5788e-07	0.072536	0.0072737	0.0063969	0.0014156	2.921e-07	0.0025993	-5.9264e-06	-8.1163e-06	-1.8742e-06	-0.28006	-7.1049e-08	-7.0551e-08	-0.16559	-0.038812	-7.4763e-08	-7.4518e-08	-0.12649	-0.031888	-0.048966	-0.0066245	-7.3564e-08	-0.0087813	186.884	220.582	163.116	55.716	292.335	-55.042	48.298	-40.265	287.592	-27.026	108.894	96.525	109.340	59.775	254.345	172.346	-8191	255	
11906.827	1	1	0	0	0.20228	0.149	0.34587	0.083775	0.13888	0.35086	0.26374	0.17346	0.21062	0.13728	0.16851	0.21334	0.22846	0.14377	0.41631	0.041853	-1.3479	-1.7729	-1.4292	-1.8354	-1.4562	-1.4583	-1.7146	-1.3854	-1.7021	-1.775	-1.1646	-1.8083	-1.4479	-1.3687	-1.8062	-1.4271	206.010	-93.307	169.609	-77.817	23.299	108.549	212.528	123.716	-71.978	92.283	167.311	11.907	-27.061	156.809	-51.227	176.885	6.527e-06	5.0205e-05	5.0779e-06	0.040224	2.8248e-07	3.8843e-07	0.014556	0.011549	6.1304e-08	2.9973e-08	0.02313	0.0056818	0.014958	0.0016262	3.0734e-07	0.00085913	-4.6681e-06	-5.558e-06	-1.2794e-06	-0.20885	-5.1789e-08	-5.224e-08	-0.14239	-0.03441	-5.6186e-08	-6.6306e-08	-0.10301	-0.025222	-0.042845	-0.0053282	-5.3674e-08	-0.0065368	-83.557	1.287	-94.649	-88.553	76.265	-135.038	183.444	-128.305	-27.327	160.574	-131.468	72.497	201.541	-113.390	105.421	-124.875	-8191	255	
11906.948	1	1	0	0	0.09156	0.15813	0.17961	0.094934	0.23096	0.14982	0.25708	0.017652	0.22759	0.11609	0.050623	0.22198	0.27637	0.10957	0.17052	0.18456	-1.0646	-1.8396	-1.2104	-1.7021	-1.6625	-1.4562	-1.8687	-1.5167	-1.575	-1.8417	-1.4854	-1.8208	-1.5896	-1.3771	-1.7792	-1.4333	504.034	161.354	226.317	501.877	322.692	442.207	473.375	342.709	266.976	342.051	181.447	361.894	442.483	374.318	230.296	248.193	4.4989e-06	3.7528e-05	9.098e-06	0.037752	2.9444e-07	1.2673e-07	0.036278	0.0085317	1.6666e-07	2.7034e-07	0.037541	0.0026957	0.010496	0.00055879	2.7447e-07	0.0017657	-3.0072e-06	-5.6772e-06	-9.5759e-07	-0.18837	-4.959e-08	-3.8392e-08	-0.13667	-0.033713	-4.5236e-08	-6.8301e-08	-0.095708	-0.022918	-0.041022	-0.004375	-6.2936e-08	-0.0089257	357.543	186.896	348.199	406.669	190.502	305.796	269.053	165.045	411.325	505.775	500.562	275.866	350.303	312.929	404.965	407.128	-8191	255	
11907.044	1	1	0	0	0.10591	0.16861	0.16721	0.2304	0.12592	0.084006	0.21431	0.08622	0.04252	0.28541	0.10507	0.19614	0.067349	0.52716	0.29913	0.12761	-1.1979	-1.9229	-1.4271	-1.75	-1.725	-1.3729	-1.9167	-1.5083	-1.4188	-1.9104	-1.4208	-1.7479	-1.775	-1.3292	-1.9188	-1.4458	382.332	246.644	274.016	123.332	418.411	383.017	332.979	221.493	246.399	173.608	122.703	353.280	174.718	385.605	267.280	409.873	9.9916e-07	3.2636e-05	2.0627e-05	0.027073	3.8065e-07	3.6697e-07	0.021433	0.011085	1.9231e-07	3.626e-07	0.061418	0.0039677	0.0015308	0.0018681	3.697e-07	0.0042632	-2.9129e-06	-5.7963e-06	-1.0141e-06	-0.18218	-5.6794e-08	-4.1469e-08	-0.13174	-0.034894	-4.5613e-08	-6.2239e-08	-0.12412	-0.023071	-0.04851	-0.004823	-5.5116e-08	-0.0090701	319.919	187.870	228.179	246.630	343.922	74.474	126.124	90.275	275.633	98.032	338.263	302.108	158.865	89.302	332.647	137.754	-8191	255	
11907.140	1	1	0	0	0.079884	0.11201	0.36348	0.31166	0.24985	0.30655	0.041596	0.24438	0.060352	0.23598	0.044607	0.24596	0.027219	0.083978	0.13392	0.10728	-0.89375	-1.875	-1.2354	-1.4729	-1.5708	-1.3354	-1.65	-1.4792	-1.425	-2.025	-1.5667	-1.5021	-1.6854	-1.2938	-1.8563	-1.4896	265.865	321.503	114.528	167.422	103.447	280.097	297.757	231.286	421.904	68.210	405.035	359.416	331.318	377.250	281.706	91.597	2.9766e-06	1.0925e-05	5.4369e-06	0.049984	2.9348e-07	9.8582e-08	0.011276	0.0084396	1.931e-07	4.3758e-07	0.033593	0.0029443	0.0026541	0.0029853	4.7101e-07	0.0014228	-2.0698e-06	-5.9155e-06	-9.5759e-07	-0.15813	-5.6339e-08	-3.5006e-08	-0.13238	-0.036611	-4.2895e-08	-7.2753e-08	-0.10696	-0.021658	-0.050464	-0.0047087	-5.8608e-08	-0.0094376	214.251	184.447	403.233	259.934	310.782	231.030	94.358	86.015	405.285	372.559	223.864	326.904	92.857	309.612	229.908	164.446	-8191	255	
11907.261	1	1	0	0	0.1773	0.16129	0.17023	0.18486	0.089785	0.30618	0.11103	0.2093	0.17712	0.16761	0.1149	0.091737	0.19996	0.17065	0.18171	0.15056	-0.89583	-1.9979	-1.3896	-1.4854	-1.7646	-1.4583	-1.7083	-1.5979	-1.4125	-2.0542	-1.3917	-1.5875	-1.9208	-1.2479	-1.9458	-1.6812	241.413	198.046	486.876	185.254	436.795	385.982	483.077	466.130	346.252	238.642	186.462	261.943	225.555	401.578	443.082	235.305	3.5313e-06	4.7051e-05	5.398e-06	0.024752	2.4564e-07	1.4913e-07	0.036508	0.012076	3.8625e-07	4.5333e-08	0.034299	0.0014623	0.017935	0.0016581	2.0313e-07	0.0056328	-2.441e-06	-6.2379e-06	-1.0473e-06	-0.14741	-5.6491e-08	-4.6701e-08	-0.11521	-0.038759	-3.9874e-08	-6.1318e-08	-0.12195	-0.019047	-0.05092	-0.0045276	-6.286e-08	-0.0087288	304.945	293.559	422.707	422.295	451.338	480.228	357.954	176.801	372.544	390.530	305.508	451.073	402.246	517.124	333.831	367.611	-8191	255	
11907.331	1	1	0	0	0.22531	0.030341	0.10981	0.25734	0.023239	0.41398	0.10444	0.22623	0.10276	0.11204	0.3219	0.072245	0.26351	0.072668	0.089538	0.23934	-0.67917	-1.8167	-1.4604	-1.5396	-1.85	-1.3271	-1.6229	-1.7167	-1.4521	-1.8083	-1.5104	-1.3896	-1.8271	-1.3583	-1.6938	-1.9104	250.225	318.445	412.579	391.745	457.954	232.454	166.771	243.556	388.197	151.797	320.641	432.182	307.984	451.953	401.064	463.536	3.6325e-06	1.5776e-05	1.1074e-05	0.064148	1.8217e-07	2.1154e-07	0.027141	0.0086501	7.8659e-08	5.0523e-07	0.019039	0.0044775	0.015091	0.0016454	1.883e-07	0.001296	-1.4973e-06	-5.1445e-06	-1.3554e-06	-0.14122	-5.9524e-08	-4.2085e-08	-0.10298	-0.038061	-3.0283e-08	-5.6099e-08	-0.11307	-0.011152	-0.055282	-0.0041939	-4.4867e-08	-0.01058	188.652	487.374	291.375	221.771	439.764	466.392	266.170	155.313	169.028	468.363	455.366	428.440	219.353	173.447	324.081	494.199	-8191	255	
11907.427	1	1	0	0	0.21192	0.25981	0.15346	0.1667	0.28635	0.3602	0.11973	0.25175	0.093642	0.14865	0.17445	0.062489	0.12332	0.16555	0.23707	0.23506	-0.99167	-1.7333	-1.4521	-1.3792	-1.9854	-1.2708	-1.6833	-1.6417	-1.575	-1.9583	-1.6271	-1.4958	-1.7771	-1.4125	-1.6	-1.9625	110.825	317.505	77.075	366.848	91.431	366.966	295.573	198.858	367.030	361.782	69.660	376.025	287.260	242.991	208.098	115.556	5.3963e-06	5.4602e-05	4.7003e-06	0.0525	1.5484e-08	3.3825e-07	0.034395	0.0027221	1.4934e-07	2.2835e-07	0.028857	0.0027331	0.0051487	0.00038967	2.1584e-07	0.002532	-1.5665e-06	-5.2216e-06	-1.2404e-06	-0.12122	-6.2177e-08	-4.1931e-08	-0.095508	-0.041872	-3.5041e-08	-5.7634e-08	-0.12116	-0.01705	-0.049748	-0.0050804	-4.9195e-08	-0.010501	65.095	215.684	98.236	263.535	355.044	215.173	324.986	63.374	395.911	347.226	350.006	293.800	317.213	335.325	68.356	365.450	-8191	255	
11907.523	1	1	0	131072	0.28134	0.14084	0.33561	0.25153	0.33125	0.29891	0.13098	0.11489	0.23319	0.071841	0.12296	0.083662	0.067403	0.29753	0.15631	0.20471	-1.0542	-1.7333	-1.7125	-1.4688	-2.5938	-2.6229	-2.4583	-2.2896	-1.5333	-1.7104	-1.7583	-1.2437	-1.9542	-1.5146	-1.5187	-1.9937	178.808	127.956	61.577	145.765	242.614	276.788	98.429	116.505	266.606	52.132	38.758	61.566	152.269	233.041	4.993	88.587	4.589e-06	2.5739e-05	5.1479e-06	0.14257	3.3849e-06	5.3757e-05	45.231	0	0.00037933	7.2483e-05	1.2435	0.035455	0.017751	0.0012021	1.2397e-07	0.0013962	-1.7049e-06	-4.9343e-06	-1.2852e-06	2.6358	6.2008e-06	4.0017e-05	1647.4	844.33	0.00062493	8.1435e-05	41.278	1.3936	0.18688	-0.049469	-4.5892e-07	-0.076512	89.009	259.369	272.114	266.863	357.385	26.712	305.748	17.985	190.738	208.144	96.970	125.752	91.417	232.708	307.631	109.905	-8191	255	
11907.644	1	1	0	0	0.040111	0.13121	0.087304	0.21444	0.14955	0.2038	0.10982	0.16813	0.22626	0.069396	0.25074	0.18758	0.17353	0.079191	0.11037	0.10648	-0.87708	-1.4375	-1.8021	-1.275	-1.9708	-1.5479	-1.3396	-1.7146	-1.4229	-1.7313	-1.9083	-1.1812	-1.6958	-1.4271	-1.3479	-1.9625	281.947	75.148	109.869	187.828	176.687	198.909	212.743	32.177	12.728	284.120	39.054	157.395	264.346	339.515	161.673	65.352	6.5551e-06	4.5692e-05	9.7843e-06	0.031893	1.2923e-07	3.5839e-07	0.017401	0.0029314	2.5712e-07	1.3264e-07	0.0086226	0.0046956	0.0025976	0.0015019	1.0788e-08	0.0027161	-3.1588e-05	-3.3173e-05	-8.6651e-06	-0.89662	-2.801e-07	-2.5251e-07	-0.46085	-0.15928	-1.9386e-07	-1.9355e-07	-0.47814	-0.059476	-0.13876	-0.018396	-1.2769e-07	-0.024848	233.791	18.801	10.233	204.116	334.896	262.658	272.300	0.515	47.400	139.274	60.261	38.344	333.547	264.549	264.739	330.833	-8191	255	
11907.740	1	1	0	0	0.15543	0.28225	0.063329	0.062603	0.079389	0.099198	0.23775	0.32364	0.24947	0.028153	0.043436	0.2517	0.30653	0.23525	0.19758	0.19834	-1.1042	-1.75	-1.6542	-1.3417	-1.7208	-1.7333	-1.3417	-1.7792	-1.5604	-1.8667	-1.9312	-1.5208	-1.8604	-1.6896	-1.5146	-1.8479	120.745	230.150	76.188	214.128	156.256	218.379	37.985	13.965	-11.695	17.327	105.942	-25.303	52.541	260.428	-62.807	92.282	1.8254e-06	1.8142e-05	6.656e-06	0.013636	1.5983e-07	1.5652e-07	0.028039	0.0054781	2.3792e-07	2.8352e-07	0.020298	0.003958	0.0022191	0.0036257	1.1829e-07	0.0025528	-8.6945e-06	-1.0934e-05	-3.179e-06	-0.26934	-1.1867e-07	-1.0987e-07	-0.18482	-0.072256	-8.4807e-08	-8.649e-08	-0.24647	-0.029369	-0.073319	-0.0094745	-6.6504e-08	-0.013874	288.588	9.651	54.768	21.387	91.482	-33.521	213.393	-50.582	78.380	86.135	50.965	285.965	164.022	168.792	201.683	5.729	-8191	255	
11907.836	1	1	0	0	0.12785	0.13899	0.15061	0.12145	0.14364	0.12981	0.19653	0.31571	0.1733	0.1576	0.16063	0.087588	0.089153	0.071268	0.33095	0.17428	-1.3104	-1.4104	-1.8	-1.3979	-1.6625	-1.6875	-1.5792	-1.9417	-1.5812	-1.6375	-1.8833	-1.5292	-1.7	-1.7458	-1.2333	-1.8062	131.189	-64.440	-65.338	129.782	4.859	143.108	-92.451	-101.268	-46.170	21.922	-122.753	-144.644	89.634	-53.082	104.453	-139.449	2.9863e-06	1.8569e-05	1.0116e-05	0.0080554	8.2668e-08	9.3519e-08	0.02308	0.0060935	1.8812e-07	3.1816e-07	0.080717	0.0083548	0.0069902	0.001812	7.7832e-08	0.002864	-4.234e-06	-5.2847e-06	-1.9191e-06	-0.17051	-6.9533e-08	-6.8089e-08	-0.1168	-0.0503	-5.309e-08	-5.7941e-08	-0.19714	-0.021382	-0.054045	-0.0085213	-5.3218e-08	-0.011236	172.854	112.413	186.930	150.989	13.335	182.821	-117.995	-130.169	208.853	105.625	-11.053	112.119	135.005	118.492	155.082	171.944	-8191	255	
11907.908	1	1	0	0	0.095428	0.13564	0.11084	0.14083	0.03337	0.34977	0.15332	0.2034	0.25274	0.037861	0.16049	0.30348	0.30738	0.13442	0.17378	0.033318	-1.1333	-1.5312	-1.9583	-1.6	-1.5521	-2.0312	-1.4625	-1.7729	-1.7313	-1.4792	-2.0021	-1.4688	-1.3813	-1.8604	-1.2875	-1.8854	425.728	297.811	252.255	177.490	522.961	492.813	502.900	321.503	435.208	380.268	439.412	343.865	406.176	238.621	219.370	231.213	7.0168e-06	2.3727e-05	6.0882e-06	0.033283	1.5924e-07	2.1116e-07	0.0041892	0.015009	9.0608e-08	4.2602e-07	0.033561	0.0046195	0.03005	0.00093227	2.979e-07	0.0016794	-3.3973e-06	-4.703e-06	-1.8606e-06	-0.15837	-4.8908e-08	-6.1165e-08	-0.089787	-0.046059	-5.0522e-08	-4.1134e-08	-0.16616	-0.018617	-0.04278	-0.0079971	-4.4791e-08	-0.010291	381.261	283.806	211.155	277.208	449.649	202.956	351.906	190.122	379.223	177.926	507.247	359.156	454.206	484.395	348.766	479.600	-8191	255	
11908.028	1	1	0	0	0.082257	0.2645	0.019522	0.2687	0.1408	0.09276	0.28406	0.19342	0.21276	0.10066	0.23025	0.14526	0.089993	0.27343	0.048524	0.054373	-1.3438	-1.2708	-1.9396	-1.4833	-1.5104	-1.8833	-1.4937	-1.6146	-1.7687	-1.3729	-1.8667	-1.425	-1.7042	-1.9375	-1.3375	-1.5354	304.484	227.712	136.987	270.969	151.824	111.775	329.589	133.533	122.750	20.381	319.118	270.204	240.199	219.014	15.220	-15.567	2.422e-06	2.2622e-05	5.6722e-06	0.065575	3.1745e-08	2.6443e-07	0.02056	0.0080482	2.7782e-07	3.2741e-07	0.031437	0.0044665	0.012461	0.00075935	3.6281e-07	0.0017663	-3.1205e-06	-3.4904e-06	-1.6226e-06	-0.17242	-5.0349e-08	-6.2088e-08	-0.081206	-0.039403	-6.0793e-08	-4.7351e-08	-0.16379	-0.019323	-0.034576	-0.0082544	-3.6061e-08	-0.010593	103.978	99.050	273.270	93.684	339.327	67.396	135.614	-0.587	335.589	196.817	41.215	294.935	243.370	260.652	109.907	230.762	-8191	255	
11908.124	1	1	0	0	0.043268	0.121	0.09804	0.085515	0.16738	0.074374	0.21447	0.2054	0.13291	0.11212	0.13593	0.12103	0.055349	0.076784	0.059777	0.015674	-1.3375	-1.325	-1.7542	-1.4917	-1.2667	-1.9792	-1.5063	-1.6292	-1.6625	-1.4438	-1.8667	-1.6583	-1.4854	-1.8813	-1.4375	-1.6521	163.396	79.522	288.819	329.939	216.336	90.747	98.447	344.976	147.552	230.977	347.582	397.521	111.897	311.164	412.863	349.175	4.345e-06	2.8043e-05	5.433e-06	0.041629	5.4332e-07	1.1841e-07	0.045712	0.0029808	1.2503e-07	3.0591e-07	0.04622	0.0066367	0.020537	0.0010903	4.2318e-07	0.0021925	-3.2903e-06	-3.4834e-06	-1.4783e-06	-0.14646	-3.996e-08	-6.4781e-08	-0.084543	-0.035377	-5.6337e-08	-3.9523e-08	-0.16339	-0.019569	-0.035813	-0.0078732	-3.9098e-08	-0.0092801	60.492	255.665	78.228	74.897	190.426	396.562	316.504	75.365	372.758	381.927	241.680	322.778	228.909	111.027	92.333	284.637	-8191	255	
11908.221	1	1	0	0	0.11571	0.14202	0.15741	0.18754	0.31886	0.076386	0.22869	0.054596	0.14038	0.16893	0.043208	0.11406	0.30667	0.13047	0.062555	0.25797	-1.4333	-1.0479	-1.6313	-1.775	-1.4688	-1.9875	-1.6688	-1.7583	-1.9813	-1.4438	-1.9188	-1.6437	-1.4896	-1.9979	-1.4979	-1.5562	196.800	406.133	185.502	290.514	195.365	74.558	149.230	407.442	345.339	195.954	291.514	79.546	352.273	98.758	330.642	215.312	5.0941e-06	5.907e-05	1.5101e-05	0.027554	2.3521e-07	4.5099e-07	0.019677	0.011356	9.6199e-08	2.5782e-07	0.030421	0.0029379	0.0053163	0.000717	7.6937e-08	0.0017541	-3.5609e-06	-3.5885e-06	-1.5485e-06	-0.16742	-4.5799e-08	-6.9243e-08	-0.090105	-0.032048	-6.4946e-08	-4.0827e-08	-0.13616	-0.021044	-0.038222	-0.0089979	-4.8739e-08	-0.0088863	224.542	204.117	316.648	188.584	207.053	79.995	360.213	70.804	255.522	136.001	161.096	246.366	377.939	77.238	232.370	395.945	-8191	255	
11908.341	1	1	0	131072	0.35721	0.29388	0.11075	0.12724	0.44666	0.08648	0.14487	0.25552	0.096078	0.07531	0.25827	0.25638	0.15372	0.17868	0.11121	0.16842	-1.525	-1.4937	-1.8312	-1.6187	-1.3625	-1.9021	-1.5646	-1.5021	-2.2292	-2.3208	-2.4604	-2.3708	-2.2104	-2.9167	-2.4083	-2.3854	216.737	190.438	259.442	105.556	255.712	274.484	184.399	92.000	232.533	206.940	-19.201	37.549	29.635	155.896	-32.036	33.129	8.3755e-07	3.8332e-05	1.0638e-05	0.046528	1.7075e-07	2.2489e-07	0.027878	0.014936	8.9934e-07	2.6194e-06	0.065954	36.283	163.45	0	4.9981e-05	0	-4.492e-06	-3.8128e-06	-1.57e-06	-0.16789	-3.488e-08	-6.3704e-08	-0.094555	-0.025499	1.1228e-06	6.6703e-06	19.405	76.917	837.78	149.92	0.00096937	206.45	220.764	74.277	131.188	139.606	224.566	-6.020	96.125	-58.874	51.280	149.962	-42.199	107.283	153.209	3.290	241.810	30.544	-8191	255	
11908.436	1	1	0	131072	0.23252	0.053865	0.065331	0.24003	0.20439	0.16018	0.24277	0.16138	0.16322	0.31966	0.053468	0.43581	0.13309	0.25733	0.26754	0.050035	-2.2062	-2.2708	-2.4208	-2.4437	-2.1542	-2.5812	-2.4292	-2.0917	-2.6333	-2.2229	-2.3021	-2.6292	-1.8875	-2.5125	-2.4021	-2.2396	288.062	329.324	268.655	416.272	430.570	234.260	497.180	231.183	423.511	217.140	499.260	487.329	400.465	430.919	320.812	351.595	0.0012172	0.0055242	0.0028759	599.36	6.3492e-05	5.1739e-05	526.5	87.076	2.573e-05	1.7927e-05	220.79	169.82	138.7	33.612	3.0994e-05	45.366	0.074332	0.079434	0.021236	3074.2	0.00075218	0.00072022	1959.1	545.14	0.00061791	0.00060234	1693.2	407.19	585.43	98.231	0.00049131	127.8	160.028	160.153	204.533	171.797	198.458	237.867	166.128	172.492	190.628	220.380	166.684	167.876	169.409	166.596	467.913	165.965	-8191	255	
11908.532	1	1	0	0	0.12853	0.13509	0.10588	0.31043	0.19607	0.25185	0.049354	0.21033	0.093597	0.15715	0.11043	0.11178	0.12674	0.21019	0.047952	0.27544	-2.0708	-2.0625	-2.225	-2.3958	-1.8521	-2.3812	-2.4625	-2.1104	-2.3583	-2.0729	-2.1167	-2.5125	-1.8833	-2.2646	-2.3063	-1.9646	351.575	312.333	287.229	411.459	418.116	199.654	194.036	247.769	391.967	219.487	502.565	399.702	380.844	380.247	400.625	428.017	0.00075964	0.00033465	0.0011435	418.33	3.6364e-05	2.7337e-05	442.92	105.62	6.3906e-06	3.7992e-05	186.57	148.57	119.16	24.288	1.1684e-05	31.909	0.037641	0.040082	0.010613	1642.5	0.00037135	0.00035701	1145.8	329.99	0.00029872	0.000288	873.33	249.15	315.51	51.611	0.00020655	65.65	508.181	466.118	234.917	163.980	188.380	249.212	161.361	169.060	347.605	204.299	163.853	166.523	167.872	174.686	256.348	172.739	-8191	255	
11908.628	1	1	0	0	0.080371	0.29181	0.017318	0.25642	0.069975	0.053664	0.013049	0.13931	0.13567	0.11039	0.34203	0.14104	0.30006	0.1136	0.46115	0.23459	-1.9813	-2.0021	-2.2708	-2.4375	-1.8521	-2.1479	-2.2687	-1.9229	-2.2646	-2.075	-1.8979	-2.4479	-1.9833	-2.0958	-2.3375	-1.8625	410.471	497.066	235.563	303.312	167.461	456.073	503.548	165.143	387.498	242.281	308.699	195.642	477.767	429.929	167.831	422.613	0.00032597	0.0028743	0.00051581	540.09	1.4084e-05	5.2128e-06	523.03	149.07	8.6363e-06	7.6427e-06	175.3	114.54	96.777	26.072	1.0504e-05	30.918	0.015216	0.015944	0.0041574	997.61	0.00013802	0.00012693	751.16	218.61	9.2154e-05	8.5093e-05	362.96	139.03	142.7	32.303	4.8354e-05	37.965	198.219	180.254	457.415	161.976	241.362	342.834	160.238	167.103	279.197	262.097	164.453	167.427	168.596	177.030	347.510	174.743	-8191	255	
11908.724	1	1	0	0	0.094132	0.095371	0.15705	0.14539	0.10819	0.21989	0.242	0.30692	0.16797	0.32024	0.14172	0.25486	0.18632	0.26251	0.16399	0.17401	-1.7104	-2.2229	-2.0687	-2.3063	-2.0771	-2.0625	-2.2125	-1.9729	-2.2875	-2.1729	-1.7458	-2.2313	-1.6896	-2.1375	-2.2271	-2.0229	221.366	421.363	442.767	228.401	463.910	315.857	417.632	409.861	488.991	465.411	287.114	463.324	504.005	492.858	238.899	467.156	0.00047365	0.00076953	0.00024372	619.76	3.4565e-06	9.0082e-06	607.38	191.87	8.6669e-06	1.1986e-05	224.67	123.65	108.86	39.77	3.4204e-06	51.138	0.0033323	0.0032936	0.00081929	689.37	2.5608e-05	2.4117e-05	641.48	203.53	2.0363e-05	2.0356e-05	265.61	128.39	120.21	41.758	2.0686e-05	53.797	158.777	255.348	190.209	160.347	384.389	447.867	158.875	165.854	247.374	189.433	163.899	167.458	168.245	175.662	474.886	172.508	-8191	255	
11908.820	1	1	0	0	0.28859	0.057444	0.20416	0.16207	0.023304	0.11204	0.14873	0.088506	0.31123	0.084664	0.13817	0.081868	0.18276	0.35893	0.41671	0.058882	-1.7062	-1.9646	-1.8104	-2.3021	-1.9146	-2.0479	-2.4833	-2.1042	-2.2375	-2	-1.6146	-2.4854	-2.0833	-2.0896	-2.1458	-1.8375	256.611	300.893	185.400	476.744	378.649	338.821	370.447	344.684	431.805	246.530	354.022	434.190	153.851	497.524	465.141	374.127	0.00072072	0.00083576	4.0895e-05	823.92	5.9736e-06	6.1601e-06	760.09	252.07	7.3471e-06	1.6591e-05	273.39	120.51	100.17	46.04	9.3688e-06	57.359	0.0018668	0.0020487	0.00058288	870.12	2.384e-05	2.4763e-05	792.97	266.07	2.7763e-05	2.9838e-05	339.03	131.42	127.34	50.381	4.1397e-05	63.636	167.997	150.305	312.955	159.275	213.884	178.377	158.012	164.721	282.829	422.396	163.491	168.053	169.501	175.162	280.869	172.333	-8191	255	
11908.941	1	1	0	0	0.086406	0.067164	0.15071	0.30549	0.20698	0.20231	0.11472	0.27601	0.21861	0.014768	0.34179	0.16346	0.13246	0.17606	0.23735	0.17764	-1.725	-1.9937	-1.6396	-2.2208	-1.9646	-2.0104	-2.4229	-1.9896	-2.05	-2.1312	-1.8687	-2.3667	-2.1042	-1.9604	-2.2625	-2.0854	155.800	358.170	258.286	378.130	401.665	296.428	160.753	441.009	365.028	222.104	498.908	414.797	501.179	421.913	184.058	421.968	0.00054718	0.00071224	0.00017567	710.33	9.3958e-06	5.3206e-06	669.49	228.34	8.4965e-06	2.4072e-06	246.17	102.75	89.046	44.574	1.5268e-05	57.4	0.0036335	0.0039408	0.0010847	821.13	4.1784e-05	4.2577e-05	741.08	253.75	4.2858e-05	4.4732e-05	351.57	119.12	124.71	49.869	4.8202e-05	64.958	170.088	172.127	503.304	159.994	394.373	184.938	158.784	165.303	298.046	325.798	163.645	168.152	170.066	175.445	419.689	172.208	-8191	255	
11909.037	1	1	0	0	0.19797	0.14735	0.037244	0.094591	0.21296	0.29719	0.26859	0.22154	0.026966	0.065	0.15484	0.064451	0.23423	0.13404	0.15964	0.22387	-1.5833	-2.2292	-1.8396	-2.3417	-2.2	-1.7687	-2.5104	-2.075	-2.0333	-2.2896	-1.85	-2.2208	-2.1771	-1.875	-2.2625	-2.0625	257.591	313.215	206.999	412.683	171.018	360.653	261.156	423.163	381.447	353.665	500.554	478.031	285.519	216.005	337.615	456.124	0.00073582	0.0011751	0.00044521	724.73	4.257e-06	1.2853e-05	692.92	244.56	8.1739e-06	1.3616e-05	264.34	121.61	109.53	51.781	1.6928e-05	63.723	0.0043055	0.0049465	0.0014328	882.2	5.9777e-05	6.2242e-05	810.69	285.16	6.6512e-05	6.8655e-05	430.85	146.92	163.08	59.824	6.9235e-05	74.749	184.075	417.265	317.427	159.711	499.786	376.572	158.848	165.377	397.377	257.473	163.687	168.320	168.811	175.331	255.499	171.965	-8191	255	
11909.133	1	1	0	0	0.15292	0.23706	0.021938	0.32645	0.1882	0.21266	0.17139	0.1952	0.17108	0.065187	0.081638	0.15452	0.11466	0.18682	0.11273	0.3538	-1.55	-2.2104	-1.9729	-2.1479	-2.1146	-2.0125	-2.4208	-2.025	-1.9562	-2.2917	-1.7771	-2.125	-2.3083	-1.9208	-2.1854	-2.1396	159.680	423.944	385.278	347.999	164.555	218.693	175.503	411.589	461.944	420.052	422.264	296.148	449.528	437.662	176.657	381.033	0.00092855	0.0011854	0.00065473	805.13	2.0223e-05	1.7674e-05	755.45	270.45	9.8115e-06	1.5776e-05	279.2	126.13	114.87	51.65	1.9522e-05	63.019	0.0057955	0.0063315	0.0017516	996.78	6.8811e-05	6.9576e-05	881.3	314.82	7.0972e-05	7.2886e-05	457.29	152.91	170.23	59.994	7.1586e-05	74.761	179.882	391.494	245.306	159.937	283.659	342.804	158.450	164.890	250.138	347.559	162.950	167.846	168.872	174.942	297.900	172.068	-8191	255	
11909.205	1	1	0	0	0.042669	0.12418	0.062123	0.42897	0.064853	0.034579	0.26777	0.041191	0.058584	0.34898	0.2249	0.19051	0.10408	0.24759	0.088974	0.20998	-1.3771	-2.3187	-1.6625	-2.1688	-2.4813	-1.8021	-2.4458	-2.1521	-1.8542	-2.3958	-1.85	-2.0271	-2.1688	-1.7417	-2.3333	-2.1167	320.445	354.665	314.031	380.015	500.273	397.455	412.035	395.085	395.596	173.910	366.634	472.199	492.883	489.294	282.430	440.509	0.00065061	0.00082312	0.00053573	858.84	8.1546e-06	5.4464e-06	660.54	199.71	6.7836e-06	4.4558e-06	186.1	67.684	61.419	24.119	8.205e-06	31.805	0.0060011	0.006495	0.0017583	1037.1	6.0481e-05	5.6759e-05	753.31	232.35	5.3601e-05	5.7502e-05	333.85	92.92	115.55	32.58	7.0928e-05	43.407	186.722	241.618	235.853	159.356	308.694	201.374	158.924	164.989	450.148	191.572	164.754	168.953	168.968	175.986	288.102	173.401	-8191	255	
11909.324	1	1	0	0	0.11557	0.028382	0.25345	0.11658	0.080409	0.18549	0.15578	0.12989	0.18411	0.17108	0.13767	0.19486	0.14559	0.29989	0.10723	0.32794	-1.5688	-2.3021	-1.7	-1.9604	-2.1375	-2.0125	-2.3187	-2.0812	-1.9854	-2.4021	-2.1021	-1.9417	-2.2958	-1.9521	-2.0687	-2.3021	365.595	349.598	347.180	387.285	164.531	276.125	338.816	175.009	293.124	394.040	411.768	447.229	396.269	190.283	475.999	437.100	0.00031383	0.0011309	0.00038463	453.45	1.1909e-05	1.2075e-05	463.64	148.63	3.2182e-06	2.466e-05	170.22	65.218	54.3	21.291	9.0184e-06	29.076	0.0055843	0.0060062	0.0016571	640.4	6.3569e-05	6.4539e-05	584.54	190.25	6.1817e-05	6.1909e-05	323.31	87.821	102.32	28.43	5.7563e-05	38.576	165.722	269.208	454.607	160.407	303.396	290.679	159.517	166.076	306.993	286.166	164.102	168.742	170.675	177.389	176.959	174.281	-8191	255	
11909.420	1	1	0	0	0.1469	0.069314	0.14209	0.27542	0.25209	0.20849	0.13809	0.18894	0.055533	0.026652	0.13937	0.24141	0.10153	0.070791	0.080004	0.17863	-1.5083	-2.3208	-1.8104	-2.0229	-2.2521	-1.8687	-1.9729	-2.3875	-1.7563	-2.4417	-1.9562	-1.9958	-2.3875	-1.9354	-1.9146	-2.2604	301.152	464.315	302.538	359.191	265.160	432.036	299.108	463.257	202.953	265.256	154.791	156.496	334.247	277.038	302.012	337.227	0.00034825	0.00024878	6.338e-05	430.05	1.5622e-05	8.2123e-06	435.88	142.17	6.7233e-06	1.1804e-05	174.77	67.054	56.487	22.624	7.9642e-06	30.241	0.0047298	0.0052285	0.0014538	591.76	5.6188e-05	5.6442e-05	540.72	178.97	5.5296e-05	5.6229e-05	313.39	89.007	103.45	29.705	5.9564e-05	40.169	164.707	177.056	346.131	160.552	290.008	309.258	158.922	166.242	172.210	473.639	163.907	168.635	169.539	177.248	378.975	174.298	-8191	255	
11909.516	1	1	0	0	0.23841	0.17117	0.1193	0.22317	0.32509	0.20995	0.19903	0.1885	0.18231	0.066667	0.2679	0.32515	0.041378	0.1911	0.23919	0.25007	-1.3833	-2.2062	-2.0229	-1.95	-2.2771	-1.9854	-2.0521	-2.4354	-1.8771	-2.0542	-2.2479	-1.8958	-2.3854	-2.0583	-1.95	-2.2583	244.254	322.953	420.224	387.936	261.828	464.858	307.522	342.413	345.293	360.364	458.192	223.585	402.945	356.092	444.798	423.277	0.00033864	0.0015655	0.00013261	457.08	1.4267e-05	1.7237e-05	464.19	155.99	7.7796e-06	1.0029e-05	186.47	70.242	60.277	24.04	8.6693e-06	31.336	0.0050911	0.0056079	0.0015861	636.86	6.1827e-05	6.3747e-05	584.61	198.13	6.499e-05	6.562e-05	344.49	94.802	112.94	31.566	6.3388e-05	41.813	176.238	334.339	461.227	160.097	468.908	189.959	159.038	166.000	439.854	176.018	164.028	168.589	169.017	176.652	148.954	173.504	-8191	255	
11909.612	1	1	0	0	0.023704	0.16755	0.12173	0.033261	0.24665	0.2297	0.25239	0.21904	0.20739	0.1367	0.10393	0.15191	0.22293	0.038948	0.27226	0.27849	-1.4958	-2.0354	-2.1458	-1.8292	-2.2521	-2.1896	-2.0896	-2.5208	-1.9062	-2.2375	-2.3063	-1.775	-2.325	-2.1667	-1.7417	-2.5917	356.530	192.755	293.529	447.278	322.595	329.220	189.056	153.814	294.048	466.024	194.624	292.997	363.860	474.786	476.866	482.735	0.00030944	0.0010964	0.00025882	465.64	7.1595e-06	3.1246e-06	470.27	159.91	6.1805e-06	1.6404e-05	189.04	73.918	63.928	24.603	1.8099e-05	32.688	0.0052365	0.0057809	0.0016223	650.03	6.4359e-05	6.6752e-05	601.19	205.56	6.8975e-05	7.052e-05	362.98	100.37	121.23	33.278	7.1133e-05	44.511	175.525	248.932	399.003	160.263	322.834	472.631	158.867	166.148	290.645	318.310	163.689	168.166	169.607	176.560	246.788	173.146	-8191	255	
11909.708	1	1	0	0	0.12398	0.10574	0.070052	0.066	0.18248	0.12663	0.13564	0.19394	0.16499	0.11252	0.081848	0.061207	0.20581	0.31665	0.073244	0.2346	-1.6104	-1.9813	-2.3271	-1.8354	-2.3479	-2.1271	-1.9646	-2.5625	-1.9396	-2.2333	-2.3708	-2.0563	-2.1479	-2.2917	-1.7542	-2.3458	430.756	161.364	337.995	341.884	504.280	443.842	413.656	216.107	278.288	214.571	278.270	279.595	371.491	238.048	417.462	283.768	0.00045444	6.6881e-05	0.00026568	472.15	1.2627e-05	1.2224e-05	446.92	164.14	1.1457e-05	5.9537e-06	199.12	79.102	65.399	24.701	1.275e-05	31.299	0.0060768	0.0068925	0.0019842	708.19	7.9844e-05	8.1454e-05	608.32	217.12	7.9277e-05	8.039e-05	397.26	109.88	129.8	33.915	7.1496e-05	41.784	506.426	223.054	501.965	160.153	209.899	287.478	158.954	165.545	482.848	351.661	163.227	167.077	168.329	173.927	235.977	172.082	-8191	255	
11909.804	1	1	0	0	0.13811	0.077623	0.10781	0.17361	0.23593	0.05576	0.23555	0.14325	0.037026	0.14948	0.22669	0.22415	0.45777	0.19417	0.078276	0.12685	-1.5646	-2.0354	-2.1896	-1.9604	-2.0083	-2.1604	-1.9813	-2.2812	-1.8917	-2.0125	-2.3896	-1.7604	-2.2521	-2.0687	-1.65	-2.275	385.466	443.155	278.175	150.595	170.569	229.791	388.924	151.963	356.583	243.378	277.275	198.244	147.157	433.009	285.818	424.642	0.00030506	0.0013449	0.00017215	359.27	9.0039e-06	8.7643e-06	384.69	129.35	4.2809e-06	4.032e-06	161.11	64.644	51.819	19.73	7.5391e-06	26.854	0.0047088	0.0045292	0.0011318	474.14	3.8397e-05	3.7944e-05	450.56	151.19	3.5e-05	3.4941e-05	242	77.111	78.905	23.778	3.4519e-05	32.412	194.783	273.425	169.062	160.608	332.704	323.492	158.892	165.106	254.762	467.482	163.273	167.144	169.126	174.121	262.699	171.789	-8191	255	
11909.901	1	1	0	0	0.063209	0.29048	0.093822	0.29078	0.21298	0.11712	0.39073	0.073539	0.14596	0.23505	0.21191	0.36334	0.053383	0.10157	0.097199	0.15044	-1.6083	-2.0021	-2.2458	-2.0021	-2.3583	-2.2021	-1.8438	-2.3708	-2.1646	-2.0812	-2.3688	-1.9271	-2.1688	-2.2021	-1.8458	-2.3521	476.480	461.671	300.378	162.348	355.903	316.310	338.404	420.121	214.078	153.412	479.020	487.179	286.375	150.365	484.830	471.712	0.00039024	0.00082168	9.9996e-05	347.48	7.6862e-06	5.3918e-06	388.34	133.58	6.1019e-06	1.6937e-05	173.86	72.582	59.564	23.972	9.6181e-06	33.048	0.0028206	0.0030146	0.00083827	438.71	3.3215e-05	3.5941e-05	457.73	159.63	4.4295e-05	4.8091e-05	298.2	93.121	105.09	30.982	5.948e-05	42.782	170.167	225.327	432.601	160.030	366.649	461.904	158.928	165.337	368.520	398.689	163.423	166.904	167.346	173.252	470.119	170.675	-8191	255	
11910.021	1	1	0	0	0.074845	0.081707	0.19339	0.23419	0.18147	0.048674	0.28539	0.20585	0.10341	0.33975	0.13781	0.19563	0.20457	0.13392	0.24025	0.065513	-1.6938	-1.7563	-2.3167	-1.9312	-2.1646	-2.3708	-1.7833	-2.2292	-2.2896	-1.9896	-2.4229	-1.9583	-1.9667	-2.3688	-1.8958	-2.3312	405.253	303.349	475.730	429.298	435.189	493.185	474.414	422.451	457.438	342.469	188.641	500.677	161.147	467.155	257.927	503.549	0.00042994	0.00054523	0.00026742	399.44	5.643e-06	8.3405e-06	419.65	144.48	1.043e-05	1.6985e-05	187.36	79.153	65.676	27.019	1.8581e-05	34.949	0.0049621	0.0051545	0.0013582	548.36	4.9555e-05	5.0994e-05	516.72	179.7	5.3993e-05	5.4945e-05	321.82	100.15	112.53	34.324	6.156e-05	45.336	165.583	455.801	156.597	160.706	230.356	205.676	158.385	165.862	286.282	304.057	162.947	167.027	166.969	173.619	298.202	171.190	-8191	255	
11910.117	1	1	0	0	0.18194	0.20069	0.041982	0.29331	0.24029	0.29499	0.068102	0.13703	0.364	0.1661	0.1983	0.37326	0.10108	0.34759	0.13157	0.08166	-1.7667	-1.8792	-2.3896	-2.3312	-2.0312	-2.1958	-2.075	-2.2646	-2.2333	-1.8146	-2.4813	-2.0917	-1.9604	-2.4771	-1.9708	-2.3104	389.869	244.135	357.489	380.479	494.936	306.344	388.834	417.059	226.871	282.062	223.675	478.467	437.121	479.134	504.633	308.830	0.00032755	0.0019667	0.00021543	469.78	2.7701e-06	7.5444e-06	451.11	164.82	6.4042e-06	4.0029e-06	201.37	86.463	72.822	29.99	2.6064e-06	36.796	0.0054099	0.0060378	0.0016907	662.92	6.5269e-05	6.741e-05	579.89	209.3	6.97e-05	7.1757e-05	380.85	114.19	132.84	38.952	7.32e-05	48.809	182.257	366.510	356.329	160.035	383.028	298.680	158.246	165.273	466.223	427.327	162.821	166.235	167.520	172.562	414.368	170.748	-8191	255	
11910.213	1	1	0	0	0.1295	0.24758	0.12257	0.29903	0.069657	0.18136	0.28236	0.27727	0.07831	0.31396	0.15421	0.16289	0.34731	0.18204	0.16435	0.19202	-1.8917	-1.8125	-2.2292	-2.0375	-2.0354	-2.4313	-2.1667	-2.2375	-2.1688	-1.9292	-2.4958	-2.3333	-2.0146	-2.3729	-1.9312	-2.2271	242.865	271.800	279.926	172.636	196.900	414.916	433.236	414.240	169.012	380.404	209.595	414.587	378.373	483.794	464.802	418.254	0.00053518	0.0015381	0.00013928	484.09	6.4133e-06	6.1053e-06	472.47	180.55	1.5999e-05	2.8137e-05	219.31	96.24	87.679	35.534	9.5827e-06	44.994	0.0060987	0.0067795	0.0019152	709.27	7.7881e-05	8.1102e-05	638.43	238.42	9.4013e-05	0.00010224	494.25	143.14	193.84	53.044	0.00015109	72.888	173.772	259.511	495.363	160.119	288.989	229.481	158.696	165.094	338.896	264.845	161.909	165.956	166.545	171.518	187.477	169.528	-8191	255	
11910.310	1	1	0	0	0.33385	0.33384	0.18407	0.2455	0.1369	0.11253	0.20675	0.2014	0.052747	0.17742	0.033119	0.28196	0.11473	0.38365	0.23658	0.099546	-1.9167	-1.7771	-2.4021	-2.2792	-1.9771	-2.6688	-2.1583	-2.3896	-2.5438	-2.1479	-2.3271	-2.5062	-1.9396	-2.6833	-2.1646	-2.0896	264.013	462.762	376.348	421.059	187.355	202.815	498.448	477.987	342.310	173.339	351.292	163.408	185.260	488.835	437.027	154.986	0.00074125	0.001337	0.00052503	595.51	9.5193e-06	8.314e-06	640.34	239.76	2.5532e-05	5.0361e-05	284.7	128.56	119.07	48.212	3.1437e-05	64.714	0.014646	0.017596	0.0052794	1284.5	0.00023694	0.00025552	1185.5	430.9	0.00027796	0.00028495	1005.6	239.26	341.66	81.061	0.00026025	109.51	189.556	182.572	309.414	159.504	485.781	406.189	158.160	164.428	424.607	253.554	162.927	165.683	166.962	173.395	285.094	171.267	-8191	255	
11910.429	1	1	0	131072	0.17099	0.33078	0.18001	0.35624	0.11593	0.11511	0.22397	0.16939	0.20888	0.10124	0.050842	0.19703	0.1084	0.14771	0.25499	0.051807	-1.9458	-2.0583	-2.2875	-2.4354	-2.125	-2.4646	-2.3229	-2.2938	-2.6229	-2.0021	-2.5271	-2.7313	-2.1042	-2.4521	-2.2083	-2.2625	225.469	264.661	422.835	207.166	180.193	434.655	373.486	384.071	197.620	373.331	487.510	438.676	465.162	438.804	376.135	490.676	0.0012427	0.00231	0.0015121	873.16	4.0844e-06	2.8442e-05	778.07	302.03	2.8638e-05	4.3635e-05	314.2	188.22	182.98	57.109	1.4529e-05	74.867	0.021976	0.024616	0.0069479	1716.5	0.00027347	0.00028237	1367.3	504.79	0.00030265	0.00032593	1204.6	340.48	531.45	126.62	0.00048213	163.41	194.508	406.950	273.214	159.994	162.825	425.298	158.509	164.989	178.013	353.767	163.822	165.976	167.402	173.286	369.560	169.434	-8191	255	
11910.500	1	1	0	131072	0.093595	0.17042	0.248	0.20176	0.27531	0.16401	0.16287	0.13472	0.16734	0.10428	0.34482	0.32456	0.066063	0.22897	0.1927	0.26229	-2.0187	-1.9958	-2.1792	-2.7333	-2.0833	-2.4229	-2.4813	-2.2146	-2.5271	-2.2771	-2.2188	-2.4437	-2.0958	-2.5271	-2.3583	-2.2625	454.731	366.839	227.428	379.999	487.189	308.377	486.361	344.035	218.819	335.022	189.699	431.538	488.414	441.796	493.999	416.998	0.0011185	0.0047544	0.0012973	840.93	4.9996e-05	2.4871e-05	767.66	226.19	1.5836e-05	5.2847e-05	341.42	83.612	238.58	35.073	6.5047e-05	67.701	0.043849	0.050665	0.014557	2687.7	0.00060341	0.00062902	2097	757.5	0.00063479	0.00065112	2008.9	457.3	770.27	137.8	0.00059712	168.71	155.531	383.984	340.468	160.317	322.920	480.016	159.167	165.555	364.158	403.758	162.247	166.398	165.863	172.764	325.237	169.717	-8191	255	
11910.621	1	1	0	131072	0.19368	0.28626	0.11976	0.042563	0.12104	0.14616	0.54299	0.14527	0.23034	0.23223	0.12699	0.14567	0.17277	0.26694	0.17763	0.010865	-2.075	-2.0563	-2.1083	-2.4646	-2.125	-2.3625	-2.2833	-2.1354	-2.6292	-2.225	-2.1312	-2.4792	-1.9813	-2.4792	-2.2438	-2.1542	253.575	217.197	183.587	445.953	503.321	246.471	491.928	416.726	443.105	444.794	261.745	439.479	497.670	395.750	184.303	372.001	0.001264	0.0014628	0.00069724	736.8	9.4476e-06	1.3841e-05	689.86	312.6	2.4698e-05	2.6674e-05	334.28	207.18	214.77	66.427	2.867e-05	64.746	0.046539	0.049939	0.013244	2227.8	0.00044096	0.00043344	1581	610.7	0.00041614	0.00042497	1414.1	389.32	552.55	117.38	0.00036014	121.99	175.281	173.803	489.735	160.824	501.378	430.113	159.382	165.506	258.910	230.684	163.320	165.214	166.347	172.502	218.200	170.557	-8191	255	
11910.717	1	1	0	0	0.034015	0.22439	0.18388	0.13121	0.1079	0.29548	0.15807	0.060629	0.079762	0.25358	0.10934	0.17965	0.12089	0.27984	0.062954	0.26071	-1.9792	-2.1771	-2.1271	-2.4854	-2.0333	-2.1125	-2.4813	-2.1646	-2.2687	-2.1562	-2.0229	-2.5854	-2	-2.3354	-2.275	-2.0896	434.631	263.566	232.989	324.536	236.877	412.181	157.616	423.133	180.642	220.508	450.100	203.892	209.040	189.483	149.174	463.219	0.0005512	0.0023471	0.00062142	737.75	4.3038e-05	1.3123e-05	677.35	300.42	1.3682e-05	5.7042e-05	304.87	180.47	172.51	64.106	3.9422e-05	59.841	0.025769	0.027218	0.0072643	1595.3	0.000272	0.00027474	1233	486.55	0.00026429	0.00027684	1024.8	297.7	425.1	102.62	0.00031067	113.57	152.836	205.787	490.346	160.549	334.139	375.040	159.255	165.881	400.373	386.604	163.273	166.333	167.890	173.420	289.594	171.465	-8191	255	
11910.813	1	1	0	0	0.10723	0.068298	0.0784	0.054895	0.15261	0.11322	0.078793	0.30386	0.025298	0.19845	0.052059	0.29761	0.19524	0.065601	0.18762	0.22852	-1.95	-2.275	-2.0667	-2.5104	-2.0021	-2.3333	-2.7479	-1.9708	-2.4021	-2.45	-1.9688	-2.5208	-2.1937	-2.2667	-2.4583	-2.025	243.850	402.893	399.338	353.711	258.206	325.755	456.762	444.268	242.479	230.180	438.478	376.337	317.762	466.766	473.443	415.831	0.0011047	0.00063905	0.00068199	770.67	6.2863e-06	4.7883e-05	665.6	255.99	4.0475e-05	2.6355e-05	249.03	107.66	94.477	48.326	4.3097e-05	55.149	0.025761	0.02854	0.0077491	1684.8	0.00029895	0.00032681	1415.6	539.02	0.00042722	0.00046672	1500.1	310.06	527.98	112.8	0.00050789	143.7	175.477	390.386	473.106	160.104	495.466	442.129	158.936	165.788	471.935	429.865	164.436	168.196	169.647	175.288	393.370	172.422	-8191	255	
11910.909	1	1	0	0	0.1197	0.17885	0.072338	0.063845	0.18926	0.21687	0.21354	0.096018	0.16245	0.25383	0.31454	0.25147	0.14281	0.20167	0.15472	0.2992	-1.9854	-2.3792	-2.0875	-2.5542	-2.2687	-2.3479	-2.7104	-2.2375	-2.4188	-2.3333	-1.8917	-2.4875	-2.1792	-2.1833	-2.3	-2.1792	210.638	303.203	284.401	164.908	333.595	462.913	205.642	259.276	442.157	384.927	332.482	469.647	381.890	320.926	378.853	164.307	0.00071221	0.00075668	0.0011476	672.57	1.0766e-05	2.7497e-05	623.74	227.07	1.6985e-05	6.9582e-06	235.32	92.624	84.612	44.49	1.4175e-05	53.503	0.042553	0.048624	0.013941	2425.2	0.00057646	0.00059234	1858.2	636.21	0.00055591	0.00054746	1582.3	295.44	504.46	106.05	0.00049328	141.68	151.139	449.919	274.585	159.462	408.214	421.228	158.273	165.212	173.440	175.158	164.047	168.554	169.268	175.880	394.780	173.041	-8191	255	
11911.005	1	1	0	0	0.14724	0.24212	0.16497	0.10314	0.30925	0.080713	0.052316	0.36808	0.079178	0.13529	0.17118	0.19433	0.19641	0.20652	0.036699	0.25981	-1.8917	-2.2292	-1.1583	-1.85	-1.65	-1.3625	-1.7229	-1.4333	-1.4937	-1.9021	-1.3875	-1.7167	-1.4854	-1.4562	-1.7563	-1.5396	462.068	200.088	214.989	447.335	294.763	395.222	235.364	274.148	423.698	212.896	212.087	442.831	454.037	452.291	341.092	486.147	0.0009189	0.0184	0.001494	7.9943	6.1633e-07	2.9228e-07	0.059797	0.012417	1.0046e-07	4.0079e-08	0.038159	0.0030154	0.0017094	0.001024	5.1811e-07	0.001548	0.042867	0.046683	0.0010715	33.325	-4.0256e-07	-1.0851e-06	-2.0797	-0.61176	-7.3835e-07	-6.57e-07	-1.4181	-0.20116	-0.3776	-0.048593	-3.6919e-07	-0.05702	168.039	158.030	159.208	195.470	237.243	489.724	220.280	149.432	282.724	434.389	338.980	483.613	300.502	149.640	204.991	349.595	-8191	255	
11911.102	1	1	0	0	0.18161	0.1801	0.14384	0.22201	0.27031	0.099214	0.10781	0.097755	0.21787	0.20983	0.030308	0.076492	0.2707	0.13763	0.11673	0.18553	-1.1646	-1.8	-1.2604	-1.8396	-1.6458	-1.6	-1.9979	-1.4479	-1.6292	-2.0229	-1.2938	-1.7812	-1.6938	-1.1104	-1.8708	-1.4833	396.780	352.418	248.839	220.512	264.156	265.092	254.147	285.559	281.396	76.078	283.746	272.629	126.832	284.928	397.945	360.218	2.4048e-06	2.1981e-05	9.1921e-06	0.069779	2.4451e-07	1.1969e-07	0.018849	0.0024353	2.4953e-08	3.8087e-07	0.0071827	0.0016613	0.005825	0.0012434	1.0253e-07	0.0012933	-2.4001e-05	-2.7489e-05	-6.7304e-06	-0.80469	-2.3627e-07	-2.1966e-07	-0.46896	-0.14559	-1.8555e-07	-2.0053e-07	-0.43848	-0.070044	-0.14182	-0.01852	-1.5761e-07	-0.025228	70.888	255.821	233.708	254.506	371.108	144.590	410.885	87.812	160.767	95.852	95.123	261.767	160.273	178.387	73.210	70.577	-8191	255	
11911.198	1	1	0	0	0.20077	0.19292	0.18317	0.050895	0.015882	0.12377	0.13051	0.025759	0.15929	0.24903	0.14849	0.10235	0.26036	0.24364	0.2432	0.16361	-1.0271	-1.9771	-1.2958	-1.5604	-1.8958	-1.3625	-1.7333	-1.575	-1.65	-1.7479	-1.4271	-1.5167	-1.6396	-1.2771	-1.7146	-1.6896	198.997	22.688	285.680	189.796	190.706	5.868	209.327	67.432	161.496	106.162	13.582	20.329	191.994	63.619	200.652	89.027	3.3709e-06	3.0825e-05	4.981e-06	0.0055381	2.9886e-07	1.9363e-07	0.013609	0.0058536	1.0547e-07	1.0696e-07	0.024212	0.005945	0.01715	0.0010563	3.2988e-07	0.0024322	-9.4746e-06	-1.3513e-05	-3.1614e-06	-0.39461	-1.2542e-07	-1.0971e-07	-0.25061	-0.079611	-9.4625e-08	-1.2402e-07	-0.2518	-0.041873	-0.091161	-0.010723	-1.012e-07	-0.016591	124.253	187.428	103.158	325.468	73.243	108.848	47.710	7.667	80.463	158.190	-2.586	323.859	120.394	80.178	245.520	122.568	-8191	255	
11911.294	1	1	0	0	0.070536	0.27107	0.23579	0.16581	0.069986	0.11496	0.14043	0.20061	0.27913	0.02864	0.13574	0.19351	0.32131	0.18723	0.068571	0.15945	-0.98333	-1.9375	-1.45	-1.4813	-1.7375	-1.3687	-1.7271	-1.7104	-1.4292	-1.9917	-1.5417	-1.6229	-1.9396	-1.4083	-1.7188	-1.6604	94.424	70.359	63.716	48.959	-35.706	0.231	-42.891	140.723	65.069	14.530	171.966	2.244	-48.070	156.116	225.047	95.302	1.6243e-06	5.4496e-06	6.9337e-06	0.0058776	2.3576e-07	6.0383e-08	0.028831	0.0058589	1.8833e-07	3.9722e-07	0.017251	0.0050339	0.010762	0.0023746	1.1801e-07	0.0022902	-5.5992e-06	-9.6162e-06	-2.2038e-06	-0.27958	-9.2356e-08	-7.386e-08	-0.19245	-0.062057	-7.5368e-08	-9.5929e-08	-0.18964	-0.030598	-0.07931	-0.0092457	-7.8119e-08	-0.014832	-105.833	-90.557	11.347	-62.712	236.184	-105.277	168.197	-90.459	-103.802	160.902	104.707	-103.633	70.562	197.992	-77.624	246.326	-8191	255	
11911.390	1	1	0	0	0.023031	0.11536	0.04961	0.16452	0.15192	0.095352	0.30977	0.2417	0.23831	0.17778	0.17671	0.033785	0.042513	0.14961	0.058239	0.067617	-0.98958	-1.8125	-1.6792	-1.4312	-1.8062	-1.4396	-1.8625	-1.9333	-1.4583	-2.0396	-1.4521	-1.2958	-1.975	-1.4521	-1.5729	-1.6375	401.468	123.744	276.061	330.564	408.024	139.684	367.528	82.393	433.769	170.766	364.019	429.423	218.275	345.945	386.268	386.057	1.3285e-06	3.3478e-05	6.164e-06	0.027804	3.8253e-07	3.4676e-07	0.010476	0.0073381	3.5396e-07	7.8102e-08	0.036456	0.0031956	0.016597	0.001475	2.5835e-07	0.0017075	-4.2718e-06	-7.6887e-06	-1.8684e-06	-0.25624	-8.6973e-08	-6.3781e-08	-0.15923	-0.058299	-6.0415e-08	-8.2499e-08	-0.18707	-0.027188	-0.073124	-0.0076063	-7.5918e-08	-0.013585	318.604	90.457	205.123	418.386	165.061	129.015	152.496	98.398	109.358	382.543	281.057	333.469	179.508	165.207	414.587	133.614	-8191	255	
11911.509	1	1	0	0	0.15794	0.16906	0.08587	0.18062	0.16415	0.23852	0.17926	0.13323	0.038915	0.15927	0.23193	0.12239	0.17115	0.21111	0.21477	0.37681	-0.89375	-1.8125	-1.5333	-1.5063	-1.7958	-1.3125	-1.8146	-1.7812	-1.2583	-1.8146	-1.6646	-1.55	-1.9854	-1.4479	-1.5854	-1.8958	92.770	99.791	-43.511	-33.416	47.988	147.007	7.969	28.338	159.330	108.405	20.940	74.544	-91.146	-66.460	-52.037	141.541	1.9226e-06	4.215e-05	6.8683e-06	0.052912	3.4376e-07	2.9112e-07	0.041775	0.012611	1.0738e-07	2.775e-07	0.040531	0.0021129	0.014278	0.0019429	1.0559e-07	0.0022972	-3.0764e-06	-7.6116e-06	-2.0302e-06	-0.19861	-8.4319e-08	-6.1473e-08	-0.14175	-0.053682	-5.2788e-08	-7.5515e-08	-0.18372	-0.022795	-0.073059	-0.0077493	-6.8174e-08	-0.013152	109.956	-132.423	113.437	4.692	84.455	70.624	-98.084	-156.970	-80.079	-26.224	139.233	184.967	88.882	-65.492	-89.567	-163.229	-8191	255	
11911.605	1	1	0	0	0.12113	0.23961	0.37586	0.19034	0.23295	0.094535	0.20706	0.10535	0.034316	0.19789	0.079719	0.074387	0.19716	0.0099753	0.12094	0.21902	-0.86667	-1.725	-1.9396	-1.3625	-1.9208	-1.6271	-1.5042	-1.7625	-1.0729	-1.7729	-1.7458	-1.3438	-1.8979	-1.4979	-1.4417	-1.7875	367.718	238.368	396.359	354.078	371.963	243.474	191.014	280.182	316.022	419.309	129.071	108.623	86.548	281.941	334.861	422.858	3.5152e-06	1.095e-05	9.1986e-06	0.038754	3.3535e-07	2.652e-07	0.0088966	0.010577	1.2784e-07	2.0936e-07	0.040862	0.0047767	0.012927	0.00013609	1.201e-07	0.0020827	-3.347e-06	-7.2962e-06	-1.8898e-06	-0.15075	-8.0072e-08	-5.9934e-08	-0.14255	-0.051052	-5.6715e-08	-6.8148e-08	-0.1776	-0.02132	-0.061794	-0.006777	-5.3674e-08	-0.013218	398.191	422.914	280.939	208.520	126.812	206.359	113.176	86.825	274.735	69.904	118.671	306.546	281.426	224.960	106.015	399.968	-8191	255	
11911.701	1	1	0	0	0.12132	0.2372	0.079622	0.16466	0.10639	0.094326	0.31073	0.11079	0.17718	0.18515	0.12732	0.16268	0.11566	0.13936	0.17696	0.17061	-1.1667	-1.6437	-1.6354	-1.3188	-1.6187	-1.5104	-1.2375	-1.7208	-1.375	-1.6604	-1.7542	-1.3292	-1.8667	-1.6	-1.4792	-1.9229	209.527	438.066	342.465	389.092	208.639	398.833	177.709	409.930	383.562	373.249	169.215	371.012	122.723	384.760	369.174	116.816	6.9701e-06	5.2866e-05	1.8412e-06	0.026521	2.0917e-07	9.4517e-08	0.07387	0.010849	2.4215e-07	2.4094e-07	0.014999	0.0028634	0.023381	0.0015115	1.9578e-07	0.00079025	-3.4854e-06	-6.4342e-06	-1.7026e-06	-0.15122	-6.9457e-08	-5.8318e-08	-0.11029	-0.049817	-4.4858e-08	-7.1141e-08	-0.18806	-0.017849	-0.060492	-0.0075777	-5.1169e-08	-0.013034	237.454	228.084	403.697	364.685	167.177	266.184	213.096	98.798	384.918	312.272	126.330	154.836	95.654	167.086	149.587	120.639	-8191	255	
11911.797	1	1	0	0	0.075436	0.44706	0.25555	0.22174	0.15591	0.3402	0.21108	0.17768	0.20763	0.22539	0.038177	0.20824	0.1119	0.050202	0.17433	0.091363	-0.89792	-1.5896	-1.6917	-1.2833	-1.6896	-1.6271	-1.4438	-1.8438	-1.5625	-1.7687	-1.7833	-1.3146	-1.6771	-1.5771	-1.5125	-1.8979	51.351	122.095	-52.183	160.548	162.807	-83.594	164.799	208.481	105.868	142.106	168.890	195.939	-82.577	155.107	83.185	99.824	1.6716e-06	3.1663e-05	1.0611e-06	0.067459	1.5765e-07	1.3025e-07	0.016449	0.0032468	4.3042e-08	4.3394e-07	0.045489	0.0025591	0.0069851	0.0016831	3.7368e-07	0.0020235	-3.435e-06	-5.5721e-06	-1.7299e-06	-0.17194	-6.1571e-08	-6.9013e-08	-0.11172	-0.055722	-4.9918e-08	-6.2008e-08	-0.19003	-0.020737	-0.06225	-0.0072346	-4.8208e-08	-0.011682	-41.240	212.856	60.233	194.737	133.020	180.285	112.965	-81.922	-5.710	-44.518	66.421	-68.613	227.446	160.809	99.951	134.924	-8191	255	
11911.893	1	1	0	0	0.19764	0.068198	0.16388	0.24814	0.11982	0.11773	0.14939	0.087025	0.16606	0.0997	0.055629	0.23385	0.10505	0.14992	0.1067	0.26392	-0.97292	-1.7104	-1.8375	-1.2771	-1.8854	-1.6167	-1.3667	-1.8208	-1.6208	-1.5667	-1.825	-1.3458	-1.55	-1.7625	-1.1875	-1.7313	161.977	413.423	97.954	415.960	278.659	331.267	419.110	274.093	237.253	138.129	197.470	434.974	153.746	222.419	397.648	297.310	3.7082e-06	1.5602e-05	4.4715e-06	0.0087333	1.4603e-07	1.4703e-07	0.0278	0.0099492	3.6076e-07	3.7e-07	0.030827	0.0029017	0.0062752	0.0010512	1.9627e-07	0.0013002	-3.6301e-06	-5.0114e-06	-1.7748e-06	-0.13979	-6.3694e-08	-6.632e-08	-0.098686	-0.049173	-5.241e-08	-5.1571e-08	-0.16695	-0.018525	-0.052092	-0.0074728	-4.8967e-08	-0.010698	429.798	270.624	337.093	134.789	151.993	422.259	361.430	95.858	416.875	101.889	116.283	296.934	129.129	256.797	87.344	140.684	-8191	255	
11911.990	1	1	0	0	0.087942	0.34725	0.25536	0.10855	0.19078	0.037342	0.19069	0.028473	0.11715	0.10872	0.059126	0.14652	0.22526	0.33776	0.17544	0.11939	-1.2	-1.4667	-1.8292	-1.3896	-1.7875	-1.5771	-1.3458	-1.6833	-1.75	-1.6333	-1.95	-1.3854	-1.6833	-2.0208	-1.4896	-1.8104	-161.875	9.192	-52.354	118.917	-31.760	98.160	119.716	78.656	186.088	162.928	126.246	137.840	-0.541	-65.366	61.591	71.121	3.7052e-06	2.4188e-05	5.8161e-06	0.0059072	3.6741e-07	4.5241e-08	0.026045	0.0060824	4.7076e-08	1.7507e-07	0.031016	0.0081358	0.0079641	0.001332	4.0872e-07	0.005839	-3.4224e-06	-4.3525e-06	-1.8625e-06	-0.15384	-6.3391e-08	-6.1473e-08	-0.094078	-0.045952	-6.1397e-08	-4.8885e-08	-0.18313	-0.020399	-0.048315	-0.0076921	-4.3729e-08	-0.01075	-53.908	-105.407	17.290	65.075	-102.668	187.120	-32.516	-154.103	-49.616	33.318	-139.061	-117.767	-131.627	-75.999	81.181	-140.712	-8191	255	
11912.110	1	1	0	0	0.24627	0.12987	0.12554	0.17366	0.26344	0.041497	0.22823	0.048765	0.28962	0.23915	0.087103	0.082711	0.22513	0.16016	0.085551	0.13286	-1.1917	-1.3167	-1.8729	-1.4167	-1.5354	-1.8875	-1.5042	-1.8188	-1.6833	-1.4604	-1.8958	-1.3542	-1.5812	-1.7208	-1.3583	-1.7687	277.264	308.076	280.315	189.737	411.598	186.549	380.196	324.500	385.687	118.954	183.802	391.146	188.906	171.031	369.643	269.346	6.4638e-06	3.7489e-05	8.6164e-06	0.027506	4.2249e-07	3.5457e-07	0.017983	0.0073893	2.116e-07	3.2536e-07	0.013899	0.0026708	0.0016898	0.0018297	4.3606e-07	0.0017288	-3.6741e-06	-4.5207e-06	-1.8469e-06	-0.16384	-5.7704e-08	-6.9166e-08	-0.091694	-0.048797	-5.8149e-08	-4.7044e-08	-0.18076	-0.022488	-0.043431	-0.0078255	-4.8132e-08	-0.0099758	186.736	243.647	406.457	200.602	239.164	150.715	419.988	136.472	120.114	169.801	327.263	288.659	171.394	404.582	389.850	345.016	-8191	255	
11912.206	1	1	0	0	0.18104	0.29955	0.071298	0.10069	0.14905	0.18587	0.071765	0.30896	0.12553	0.11707	0.12001	0.15128	0.15419	0.049539	0.12933	0.20362	-1.3792	-1.3604	-1.8354	-1.3521	-1.3604	-1.875	-1.5896	-1.6812	-1.825	-1.2875	-1.8208	-1.6896	-1.5542	-1.7729	-1.6146	-1.5792	140.421	162.997	-67.351	-48.001	169.471	36.050	-90.852	-83.405	-62.781	177.847	96.436	-36.421	106.207	-150.723	34.818	69.154	3.5815e-06	2.0853e-05	1.4087e-05	0.074252	3.4002e-07	2.5907e-07	0.048978	0.0139	3.7054e-07	4.1586e-07	0.04515	0.010664	0.022523	0.0013297	3.4941e-07	0.0011658	-3.8565e-06	-4.2404e-06	-1.6733e-06	-0.15956	-4.1401e-08	-7.5629e-08	-0.097574	-0.038598	-6.6607e-08	-3.8448e-08	-0.17523	-0.020767	-0.041283	-0.0087882	-5.1396e-08	-0.010094	71.293	-150.255	85.495	-3.437	95.843	74.316	115.299	-153.322	140.272	-48.837	-5.782	132.269	-29.092	-132.677	-63.086	74.279	-8191	255	
11912.301	1	1	0	0	0.25945	0.26993	0.24832	0.17671	0.099781	0.15054	0.016102	0.056992	0.045625	0.22417	0.28135	0.21077	0.14623	0.072961	0.20416	0.054202	-1.3438	-1.3271	-1.6729	-1.4625	-1.1604	-1.9062	-1.5479	-1.4708	-1.8083	-1.4896	-1.8667	-1.4042	-1.3896	-1.9271	-1.6125	-1.4521	245.110	421.728	434.450	399.686	125.075	383.367	269.723	257.991	438.488	302.764	237.567	454.704	341.296	350.963	273.447	352.224	3.1222e-06	4.1623e-05	5.1355e-06	0.041299	1.7983e-07	2.6463e-07	0.014961	0.0069536	3.0701e-07	6.8169e-08	0.035687	0.0038831	0.017546	0.00046699	4.0543e-07	0.0014437	-4.3724e-06	-3.8339e-06	-1.648e-06	-0.16837	-4.7088e-08	-6.8782e-08	-0.10329	-0.039296	-6.3436e-08	-4.5739e-08	-0.1774	-0.025652	-0.037897	-0.0084641	-5.2687e-08	-0.009057	453.953	178.071	458.145	425.805	252.671	447.702	169.393	141.989	462.424	137.363	434.413	330.941	321.416	198.363	384.470	353.956	-8191	255	
11912.397	1	1	0	0	0.27029	0.2321	0.15629	0.32975	0.26809	0.068364	0.097147	0.21817	0.17922	0.26613	0.18103	0.11167	0.09044	0.11364	0.19765	0.15379	-1.425	-1.2771	-1.7687	-1.85	-1.2938	-1.7417	-1.4729	-1.6792	-1.9208	-1.3583	-1.7458	-1.7458	-1.2833	-1.7042	-1.5771	-1.4167	523.715	200.617	257.040	379.724	376.520	513.039	426.881	434.684	429.487	510.568	441.080	189.676	365.017	471.813	235.707	350.708	4.0237e-06	2.97e-05	6.2336e-06	0.043364	2.0383e-07	5.8559e-07	0.024396	0.013048	1.3449e-07	6.8259e-08	0.027987	0.002531	0.0064466	0.0002592	3.3514e-07	0.00079323	-4.1082e-06	-4.0511e-06	-1.373e-06	-0.18385	-5.0652e-08	-6.7551e-08	-0.11283	-0.044073	-6.7061e-08	-4.0751e-08	-0.13833	-0.025683	-0.035227	-0.0084737	-5.2687e-08	-0.008125	329.225	415.086	529.465	426.493	418.382	325.522	483.401	195.235	400.675	341.180	376.182	251.528	288.855	528.543	499.807	438.740	-8191	255	
#DATA ENDS
