BOXY.EXE: ISS Imagent and Oximeter Data Acquisition Program Version 0.80
Ascii Record File

#ACQ INFORMATION
2  Detector Channels 
16  External MUX Channels 
1  Auxiliary Channels 
5000  Waveform (CCF) Frequency (Hz)
1  Waveforms Skipped 
30  Waveforms Averaged 
1  Cycles Averaged 
16  Acquisitions per Waveform 
10.0806  Updata Rate (Hz) 

#FILE INFORMATION
TRUE -- External MUX Channel results are PARSED.
FALSE -- AC DC and Phase are NOT grouped.
TRUE -- Companion Program Settings File CREATED.
FALSE -- AC data not excluded
FALSE -- DC data not excluded
FALSE -- Phase data not excluded
FALSE -- Auxillary Chn. data not excluded
Tab delimiters

#CALIBRATION STATE
TRUE -- Waveform Calibration Values APPLIED.


#AUX CALIBRATION VALUES
Val Type	aux-1	

Term	1.0000e+00	
Factor	0.0000e+00	


#WF CALIBRATION VALUES
A = Detector Channel
Val Type	A-AC1	A-AC2	A-AC3	A-AC4	A-AC5	A-AC6	A-AC7	A-AC8	A-AC9	A-AC10	A-AC11	A-AC12	A-AC13	A-AC14	A-AC15	A-AC16	A-DC1	A-DC2	A-DC3	A-DC4	A-DC5	A-DC6	A-DC7	A-DC8	A-DC9	A-DC10	A-DC11	A-DC12	A-DC13	A-DC14	A-DC15	A-DC16	A-Ph1	A-Ph2	A-Ph3	A-Ph4	A-Ph5	A-Ph6	A-Ph7	A-Ph8	A-Ph9	A-Ph10	A-Ph11	A-Ph12	A-Ph13	A-Ph14	A-Ph15	A-Ph16	

Term	0.00000e+00	0.00000e+00	0.00000e+00	0.00000e+00	0.00000e+00	0.00000e+00	0.00000e+00	0.00000e+00	0.00000e+00	0.00000e+00	0.00000e+00	0.00000e+00	0.00000e+00	0.00000e+00	0.00000e+00	0.00000e+00	0.00000e+00	0.00000e+00	0.00000e+00	0.00000e+00	0.00000e+00	0.00000e+00	0.00000e+00	0.00000e+00	0.00000e+00	0.00000e+00	0.00000e+00	0.00000e+00	0.00000e+00	0.00000e+00	0.00000e+00	0.00000e+00	0.00000e+00	0.00000e+00	0.00000e+00	0.00000e+00	0.00000e+00	0.00000e+00	0.00000e+00	0.00000e+00	0.00000e+00	0.00000e+00	0.00000e+00	0.00000e+00	0.00000e+00	0.00000e+00	0.00000e+00	0.00000e+00	
Factor	1.00000e+00	1.00000e+00	1.00000e+00	1.00000e+00	1.00000e+00	1.00000e+00	1.00000e+00	1.00000e+00	1.00000e+00	1.00000e+00	1.00000e+00	1.00000e+00	1.00000e+00	1.00000e+00	1.00000e+00	1.00000e+00	1.00000e+00	1.00000e+00	1.00000e+00	1.00000e+00	1.00000e+00	1.00000e+00	1.00000e+00	1.00000e+00	1.00000e+00	1.00000e+00	1.00000e+00	1.00000e+00	1.00000e+00	1.00000e+00	1.00000e+00	1.00000e+00	X	X	X	X	X	X	X	X	X	X	X	X	X	X	X	X	

B = Detector Channel
Val Type	B-AC1	B-AC2	B-AC3	B-AC4	B-AC5	B-AC6	B-AC7	B-AC8	B-AC9	B-AC10	B-AC11	B-AC12	B-AC13	B-AC14	B-AC15	B-AC16	B-DC1	B-DC2	B-DC3	B-DC4	B-DC5	B-DC6	B-DC7	B-DC8	B-DC9	B-DC10	B-DC11	B-DC12	B-DC13	B-DC14	B-DC15	B-DC16	B-Ph1	B-Ph2	B-Ph3	B-Ph4	B-Ph5	B-Ph6	B-Ph7	B-Ph8	B-Ph9	B-Ph10	B-Ph11	B-Ph12	B-Ph13	B-Ph14	B-Ph15	B-Ph16	

Term	0.00000e+00	0.00000e+00	0.00000e+00	0.00000e+00	0.00000e+00	0.00000e+00	0.00000e+00	0.00000e+00	0.00000e+00	0.00000e+00	0.00000e+00	0.00000e+00	0.00000e+00	0.00000e+00	0.00000e+00	0.00000e+00	0.00000e+00	0.00000e+00	0.00000e+00	0.00000e+00	0.00000e+00	0.00000e+00	0.00000e+00	0.00000e+00	0.00000e+00	0.00000e+00	0.00000e+00	0.00000e+00	0.00000e+00	0.00000e+00	0.00000e+00	0.00000e+00	-1.45867e+02	-1.23783e+02	-1.30834e+02	-1.84083e+02	-7.58095e+01	-7.30478e+01	-1.55713e+02	-1.62015e+02	-9.03867e+01	-7.43714e+01	-1.85725e+02	-1.70521e+02	-1.87050e+02	-1.76710e+02	-7.51131e+01	-1.49456e+02	
Factor	2.10453e-05	1.52073e-04	4.08231e-05	2.21187e-01	1.33617e-06	1.51758e-06	1.55432e-01	4.94518e-02	1.27884e-06	1.69986e-06	1.93204e-01	2.92118e-02	6.10080e-02	8.76291e-03	1.36065e-06	1.24210e-02	3.01981e-06	3.36426e-06	9.36133e-07	1.14310e-01	3.63966e-08	3.69298e-08	7.62793e-02	2.57675e-02	3.62490e-08	3.68367e-08	9.47209e-02	1.47461e-02	3.12550e-02	4.57521e-03	3.64405e-08	6.30051e-03	X	X	X	X	X	X	X	X	X	X	X	X	X	X	X	X	



#DISTANCE SETTINGS
A = Detector Channel
A-1	A-2	A-3	A-4	A-5	A-6	A-7	A-8	A-9	A-10	A-11	A-12	A-13	A-14	A-15	A-16	

2.5000e+00	3.0000e+00	2.5000e+00	3.0000e+00	2.0000e+00	3.0000e+00	1.5000e+00	3.0000e+00	3.0000e+00	3.0000e+00	3.0000e+00	3.0000e+00	3.0000e+00	3.0000e+00	1.5000e+00	3.0000e+00	

B = Detector Channel
B-1	B-2	B-3	B-4	B-5	B-6	B-7	B-8	B-9	B-10	B-11	B-12	B-13	B-14	B-15	B-16	

1.0000e+01	1.0000e+01	1.0000e+01	1.4400e+00	1.0000e+01	1.0000e+01	1.5100e+00	1.9400e+00	1.0000e+01	1.0000e+01	1.9900e+00	2.4900e+00	2.4100e+00	2.9000e+00	1.0000e+01	2.9800e+00	




#DATA BEGINS
time	group	step	mark	flag	A-AC1	A-AC2	A-AC3	A-AC4	A-AC5	A-AC6	A-AC7	A-AC8	A-AC9	A-AC10	A-AC11	A-AC12	A-AC13	A-AC14	A-AC15	A-AC16	A-DC1	A-DC2	A-DC3	A-DC4	A-DC5	A-DC6	A-DC7	A-DC8	A-DC9	A-DC10	A-DC11	A-DC12	A-DC13	A-DC14	A-DC15	A-DC16	A-Ph1	A-Ph2	A-Ph3	A-Ph4	A-Ph5	A-Ph6	A-Ph7	A-Ph8	A-Ph9	A-Ph10	A-Ph11	A-Ph12	A-Ph13	A-Ph14	A-Ph15	A-Ph16	B-AC1	B-AC2	B-AC3	B-AC4	B-AC5	B-AC6	B-AC7	B-AC8	B-AC9	B-AC10	B-AC11	B-AC12	B-AC13	B-AC14	B-AC15	B-AC16	B-DC1	B-DC2	B-DC3	B-DC4	B-DC5	B-DC6	B-DC7	B-DC8	B-DC9	B-DC10	B-DC11	B-DC12	B-DC13	B-DC14	B-DC15	B-DC16	B-Ph1	B-Ph2	B-Ph3	B-Ph4	B-Ph5	B-Ph6	B-Ph7	B-Ph8	B-Ph9	B-Ph10	B-Ph11	B-Ph12	B-Ph13	B-Ph14	B-Ph15	B-Ph16	aux-1	digaux	

11929.695	1	1	0	256	0.1718	0.20716	0.12753	0.18546	0.19895	0.3181	0.1257	0.14811	0.42559	0.081462	0.12984	0.44158	0.35306	0.16541	0.31398	0.18439	-1.6938	-2.0625	-1.7458	-2.3229	-1.9271	-1.825	-2.4792	-1.9104	-2.1417	-2.2521	-1.8333	-2.475	-2.0021	-2.0479	-2.3875	-2.1271	-91.511	-53.547	-6.141	148.099	-53.748	-61.735	-1.241	179.315	176.042	-113.543	26.111	-171.379	97.190	142.060	106.949	109.301	0.00053982	3.0873e-05	0.00011967	692.71	3.3407e-06	2.5484e-06	723.83	214.46	4.2722e-06	3.1871e-06	258.74	101.16	75.646	39.033	3.5962e-06	54.529	0.00032625	0.00029922	8.2036e-05	681.34	3.2945e-06	3.3228e-06	710.54	210.87	3.4377e-06	3.3432e-06	252.41	99.479	75.278	38.623	3.4548e-06	53.755	179.252	-63.442	-36.916	-161.372	5.917	-9.087	-162.066	-156.430	-75.883	-1.015	-157.201	-152.320	-151.660	-145.131	-60.007	-148.245	-8191	255	
11929.791	1	1	0	0	0.21419	0.19673	0.029733	0.1546	0.027455	0.19131	0.21688	0.14479	0.21064	0.099845	0.32296	0.09733	0.26219	0.086146	0.21252	0.26851	-1.6229	-2.1896	-1.9667	-2.4	-2	-2.0229	-2.3875	-1.9021	-2.2208	-2.1437	-1.8979	-2.25	-1.9396	-1.8417	-2.2854	-2.1458	21.874	-34.098	-128.078	135.167	-121.482	-96.832	176.356	-64.898	-113.011	71.525	72.743	-84.440	1.059	-71.546	-140.230	112.560	0.00060364	0.00025299	0.00012239	711.84	4.4998e-06	3.9994e-06	737.34	221.05	3.4576e-06	3.2665e-06	267.49	104.55	78.04	40.455	8.1016e-07	56.926	0.00033838	0.00030767	8.4385e-05	692.67	3.2432e-06	3.1443e-06	722.11	217.14	3.1688e-06	3.149e-06	258.9	102.58	77.258	40.085	3.1493e-06	55.968	181.104	141.248	-56.177	-161.164	-89.484	-15.917	-161.974	-156.246	-108.529	-115.474	-158.501	-154.025	-152.813	-146.316	-21.763	-148.138	-8191	255	
11929.912	1	1	0	0	0.069048	0.19494	0.19885	0.09939	0.25681	0.11579	0.15896	0.23592	0.015173	0.34959	0.12165	0.054576	0.12713	0.21911	0.037464	0.18271	-1.6625	-2.1708	-1.7	-2.3937	-2.0625	-1.8542	-2.4396	-2.0333	-2.3354	-2.2708	-1.6938	-2.075	-2.1167	-1.8375	-2.3104	-2.0062	0.114	-107.037	183.709	-135.643	-81.553	-10.301	10.777	22.962	-108.748	52.784	25.469	-168.497	8.639	91.104	77.946	45.356	0.00059341	0.00056137	6.1558e-05	709.52	3.1784e-06	5.7298e-06	741.12	224.11	3.6791e-06	5.8453e-06	269.3	105.98	79.857	41.772	3.6565e-06	58.517	0.00032192	0.00028205	7.8705e-05	695.29	3.1068e-06	3.1406e-06	728.96	220.45	3.1316e-06	3.0213e-06	262.68	104.66	78.689	41.312	3.0757e-06	57.744	180.688	-110.828	-69.132	-161.539	-31.416	0.518	-162.470	-156.659	-11.222	-41.472	-158.034	-152.649	-152.014	-145.462	-9.709	-148.604	-8191	255	
11930.008	1	1	0	0	0.2142	0.17429	0.46615	0.31509	0.02336	0.11621	0.090894	0.021277	0.23785	0.28031	0.44424	0.099773	0.11305	0.046121	0.14166	0.12463	-1.5958	-2.2854	-1.8979	-2.275	-2.0958	-1.8625	-2.3104	-1.9604	-2.0646	-2.4083	-1.8292	-2.3271	-2.2938	-1.9958	-2.2583	-2.1333	100.205	181.691	161.880	64.053	-36.457	166.797	7.109	90.029	-130.902	97.584	-169.738	131.314	-127.540	-162.766	-52.301	99.870	0.00066736	0.0003371	6.7815e-05	720.87	3.5662e-06	2.6196e-06	750.83	228.5	2.2018e-06	3.054e-06	273.56	109.33	82.421	43.278	5.1802e-06	60.236	0.00031482	0.00027909	7.6258e-05	702.16	3.0374e-06	2.9545e-06	735.62	224.71	2.9827e-06	2.937e-06	266.4	107.55	80.518	42.59	2.8879e-06	59.488	182.744	-53.248	-110.696	-161.461	-31.485	-97.420	-162.119	-156.400	-38.144	-23.898	-158.062	-152.731	-152.278	-145.669	-61.685	-148.666	-8191	255	
11930.104	1	1	0	0	0.054263	0.1415	0.27352	0.26614	0.099809	0.15171	0.30567	0.12764	0.41891	0.34977	0.16315	0.1819	0.12627	0.13574	0.18614	0.2538	-1.5167	-2.3083	-1.9229	-2.0875	-2.0521	-1.7896	-2.4125	-2.0687	-1.8917	-2.3917	-1.9271	-2.2	-2.1417	-1.6562	-2.3208	-2.2687	180.066	171.777	-167.151	34.183	170.475	-24.089	139.715	134.080	-49.909	-170.763	-13.735	-174.016	75.307	181.570	-113.244	-162.755	0.00067219	0.00058612	9.7368e-05	722.03	4.9538e-06	3.637e-06	754.75	230.84	3.0775e-06	5.8625e-06	274.8	110.65	83.372	43.681	2.3581e-06	61.16	0.00030173	0.00026009	7.2907e-05	705.2	2.8385e-06	2.829e-06	737.77	226.56	2.7897e-06	2.7449e-06	267.27	108.75	81.633	43.237	2.6777e-06	60.195	177.341	-102.305	-96.023	-162.293	-57.616	-42.211	-162.730	-156.669	-44.665	-47.058	-158.121	-153.059	-152.765	-146.261	-29.321	-149.161	-8191	255	
11930.201	1	1	0	0	0.11849	0.33265	0.11545	0.13001	0.074364	0.20685	0.10369	0.13596	0.13921	0.44966	0.16346	0.18363	0.17299	0.27804	0.059987	0.1288	-1.1917	-2.3292	-1.5812	-1.8813	-2.2229	-1.7542	-2.3833	-2.1896	-1.9188	-2.2917	-1.8625	-2.0854	-2.3604	-2.0958	-2.2125	-2.2979	-74.964	-89.308	175.925	-46.446	-125.798	114.028	-42.721	142.898	-88.480	48.617	-111.555	134.153	-128.259	163.138	5.229	152.325	0.00070601	0.00061412	0.00015956	722.55	3.8997e-06	4.225e-06	753.16	231.44	4.5332e-06	3.4893e-06	276.83	112.38	84.946	44.49	5.5057e-06	61.772	0.00029198	0.00024413	6.8459e-05	703.64	2.6423e-06	2.6408e-06	736.14	227.12	2.6329e-06	2.6388e-06	268.48	110.45	82.745	43.987	2.6183e-06	60.96	182.264	-96.155	-83.259	-161.964	-78.190	-25.358	-162.710	-156.776	-44.816	-54.140	-158.117	-153.287	-152.381	-146.221	-73.991	-149.017	-8191	255	
11930.272	1	1	0	0	0.24749	0.13168	0.11608	0.13757	0.057401	0.094998	0.099742	0.382	0.27926	0.13094	0.078919	0.12566	0.1577	0.19161	0.12362	0.30414	-1.3396	-2.2833	-2.0042	-1.9333	-2.3667	-1.9	-2.3708	-2.2125	-1.8771	-2.1229	-2.1562	-1.9688	-2.2604	-2.0375	-2.0979	-2.2375	48.325	154.654	-50.257	79.683	177.796	22.268	118.530	142.600	111.507	49.169	162.026	29.541	77.748	-161.956	-103.652	-149.411	0.00063914	0.00016045	0.0001032	717.92	2.8877e-06	4.453e-06	751.26	230.26	5.9644e-06	5.6559e-06	273.93	111.77	84.446	44.233	3.1382e-06	61.587	0.00028549	0.00023795	6.5219e-05	702.22	2.5732e-06	2.5853e-06	734.89	226.27	2.6276e-06	2.5547e-06	267.15	109.99	82.105	43.605	2.6378e-06	60.462	180.515	-89.128	-70.391	-161.606	-74.253	-57.998	-162.377	-156.823	-40.652	-38.023	-158.311	-153.449	-153.132	-146.051	-5.654	-148.723	-8191	255	
11930.393	1	1	0	0	0.095387	0.17484	0.18378	0.28277	0.070409	0.018102	0.041894	0.2787	0.41431	0.18945	0.13598	0.025072	0.15306	0.358	0.11986	0.51218	-1.3813	-2.2583	-1.9667	-1.8583	-2.2271	-1.9854	-2.1083	-2.425	-1.7458	-2.1958	-2.1	-1.8083	-2.2229	-2.0583	-1.7979	-2.5083	88.346	65.060	183.544	102.269	-155.630	24.827	24.508	122.056	130.419	32.068	46.441	174.107	77.392	145.291	-108.490	133.067	0.00070766	0.00016722	0.00015353	718.87	4.1745e-06	4.5755e-06	746.18	229.35	4.1287e-06	8.3655e-06	273.92	110.94	82.671	43.922	2.2351e-06	61.222	0.00028748	0.00023458	6.589e-05	699.18	2.5719e-06	2.565e-06	731.2	225.14	2.6199e-06	2.5508e-06	266.91	109.31	81.33	43.298	2.5602e-06	60.403	180.231	65.886	-59.216	-162.065	-56.818	-57.024	-162.609	-157.077	-56.666	-28.815	-158.507	-153.255	-151.687	-145.955	-59.865	-149.104	-8191	255	
11930.489	1	1	0	0	0.14911	0.13024	0.051697	0.2012	0.062414	0.24817	0.27805	0.21268	0.064511	0.087111	0.097268	0.14178	0.092705	0.10134	0.091739	0.23451	-1.4625	-2.2875	-2.2646	-1.7563	-2.2125	-1.9271	-2.1125	-2.4125	-1.8792	-2.2188	-2.2104	-1.8771	-2.2417	-2.0021	-1.9625	-2.3479	-135.709	81.414	-7.125	-137.751	145.653	90.924	-54.581	139.937	163.430	25.609	86.208	-140.947	-40.375	55.737	-87.623	158.104	0.00068693	0.00066303	0.00010437	708.68	3.84e-06	3.4178e-06	743.58	227.7	3.7199e-06	4.9566e-06	276.51	110.47	81.116	42.889	3.8104e-06	59.914	0.00028055	0.00023412	6.2799e-05	691.7	2.4866e-06	2.4508e-06	728.93	222.9	2.5283e-06	2.4948e-06	264.99	107.87	80.062	42.196	2.471e-06	59.07	183.077	-93.354	-81.315	-161.661	-50.034	-93.153	-162.897	-156.791	-84.255	-48.362	-158.707	-153.156	-152.564	-146.023	-16.778	-148.772	-8191	255	
11930.583	1	1	0	0	0.096703	0.016838	0.04697	0.025612	0.19508	0.15569	0.059219	0.32913	0.1056	0.12121	0.11228	0.14897	0.13595	0.23814	0.21015	0.26123	-1.4375	-2.1396	-2.2417	-1.9521	-2.075	-1.925	-2.0396	-2.3812	-1.9625	-2.0312	-2.1875	-1.95	-2.1229	-2.1104	-1.7729	-2.2854	-106.339	-81.562	101.188	78.293	-127.846	-52.487	43.000	-174.177	173.774	-104.762	-2.686	39.526	-75.893	-162.207	87.576	123.549	0.00063025	0.00023943	0.00017914	702.72	4.0894e-06	5.6072e-06	738.25	224.35	6.0916e-06	4.2626e-06	268.75	107.64	80.323	41.85	3.9212e-06	58.499	0.00027192	0.00021934	6.2017e-05	686.25	2.4409e-06	2.4427e-06	723.83	220.5	2.5768e-06	2.4869e-06	260.81	105.46	78.405	41.33	2.6718e-06	57.683	180.043	-67.061	-113.738	-161.584	-76.536	-37.197	-162.530	-157.177	-76.761	-49.503	-158.376	-153.401	-152.832	-146.056	-68.618	-149.169	-8191	255	
11930.681	1	1	0	0	0.1933	0.17594	0.16104	0.13673	0.049953	0.11076	0.093349	0.41147	0.035831	0.24106	0.28315	0.17963	0.096928	0.21055	0.078334	0.18902	-1.5854	-1.9625	-2.2417	-1.6458	-2.1312	-2.0333	-1.6542	-2.1104	-1.7812	-1.9146	-2.2458	-1.9167	-2.1188	-2.2896	-1.6396	-2.3625	165.214	145.439	-73.688	-38.706	-22.534	27.124	-96.669	97.749	-52.044	-67.212	-18.177	-161.945	-56.946	162.164	114.151	135.405	0.00069787	0.00045089	0.00010205	700.48	5.0549e-06	6.1057e-06	734.73	222.12	2.17e-06	2.7096e-06	265.98	104.32	77.505	40.288	3.7305e-06	56.572	0.00029636	0.00025152	7.1825e-05	685.28	2.8086e-06	2.9272e-06	719.75	217.77	3.0473e-06	3.0018e-06	258.91	102.59	76.348	39.715	3.3159e-06	55.886	180.094	-86.527	-54.666	-161.844	-40.857	-78.424	-162.726	-156.878	-96.652	-4.323	-158.171	-153.349	-152.449	-146.113	-78.945	-148.856	-8191	255	
11930.800	1	1	0	0	0.1373	0.081578	0.064732	0.22873	0.14923	0.20657	0.27647	0.095371	0.19559	0.13887	0.28578	0.044169	0.057692	0.20066	0.084314	0.44216	-1.4438	-1.8833	-2.2438	-1.9021	-2.1583	-2.125	-2.1167	-2.3083	-2.0458	-1.8333	-2.3167	-1.9042	-1.9333	-2.4833	-1.6688	-2.3042	72.064	-51.582	130.338	-171.195	-80.071	155.042	184.698	45.255	-44.020	31.811	169.667	52.445	71.962	-171.576	-45.088	54.955	0.00068295	0.0004638	0.00011692	691.56	5.499e-06	1.895e-06	729.45	218.63	2.269e-06	1.4762e-06	263	103.31	76.068	39.84	3.9842e-06	56.198	0.0003488	0.00032111	9.2373e-05	681.39	3.7124e-06	3.711e-06	718	214.67	3.7996e-06	3.7346e-06	256.24	101.95	75.819	39.341	3.75e-06	55.674	183.553	-99.655	-162.298	-162.044	-30.701	-75.602	-162.693	-156.886	-47.390	-8.391	-158.438	-153.370	-153.198	-146.016	-86.526	-148.896	-8191	255	
11930.896	1	1	0	0	0.083043	0.15111	0.17148	0.094876	0.1269	0.15214	0.20804	0.1086	0.06133	0.12403	0.1457	0.12689	0.3045	0.10414	0.15281	0.0053212	-1.5438	-1.9146	-2.1437	-1.8479	-1.9208	-2.1917	-1.7396	-2.1229	-2.1542	-1.9583	-2.4125	-2.05	-1.9	-2.425	-1.8333	-2.1104	114.512	-28.932	129.382	127.339	-91.632	-124.400	154.313	102.217	159.507	-136.567	152.944	137.585	135.892	167.032	48.333	180.989	0.00057529	0.00039212	0.00016775	690.77	3.6256e-06	2.8576e-06	726.47	216.2	3.601e-06	3.0212e-06	263.28	104.2	75.925	40.268	3.2017e-06	57.378	0.00035964	0.00032607	8.7883e-05	675.89	3.3794e-06	3.3163e-06	713.77	211.98	3.244e-06	3.1631e-06	256.26	102.84	75.317	39.819	2.958e-06	56.66	180.260	2.162	-68.852	-161.171	-2.022	-7.379	-162.722	-157.139	-61.283	-89.441	-158.428	-153.352	-152.584	-146.043	-58.513	-149.023	-8191	255	
11930.992	1	1	0	0	0.21415	0.086514	0.15795	0.090963	0.15971	0.17071	0.31087	0.11325	0.058265	0.15517	0.20356	0.19766	0.057282	0.14608	0.12465	0.1473	-1.5771	-1.7583	-2.3396	-1.9354	-1.9521	-2.1771	-1.8979	-2.2021	-2.1229	-1.7333	-2.3542	-2.0146	-1.75	-2.325	-1.7542	-2.3083	96.329	-60.009	73.391	109.062	-21.105	75.115	80.950	122.196	-28.009	-114.525	50.344	181.191	-20.150	174.040	-152.160	118.516	0.00064291	0.00035348	0.00014451	690.25	4.9282e-06	2.9221e-06	725.22	216.71	4.4039e-06	4.7639e-06	263.54	104.17	77.129	40.536	2e-06	57.451	0.00030226	0.00026585	7.2012e-05	672.79	2.8028e-06	2.8091e-06	711.89	213.34	2.7809e-06	2.7097e-06	255.04	102.82	75.866	40	2.7648e-06	56.569	182.658	-100.101	-61.883	-161.888	-41.345	2.518	-162.867	-157.034	-77.905	-39.627	-158.257	-153.182	-152.924	-146.256	-41.890	-149.153	-8191	255	
11931.089	1	1	0	0	0.32174	0.24568	0.21163	0.30385	0.1187	0.22692	0.10887	0.038609	0.047126	0.15827	0.27606	0.10681	0.15433	0.11245	0.23695	0.38906	-1.6229	-1.7083	-2.1896	-2.3312	-1.8729	-2.4667	-2.0458	-2.1167	-2.1271	-1.8125	-2.1688	-2.2833	-1.8729	-2.2271	-1.975	-2.1813	23.594	-94.919	-13.323	36.270	76.300	-76.175	-73.049	85.287	-151.574	69.453	-152.376	136.119	-39.498	125.399	136.471	170.800	0.00065261	0.00029478	9.7112e-05	690.57	2.3761e-06	1.4081e-06	729.31	217.03	1.0857e-06	3.7721e-06	265.37	105.03	78.164	40.75	4.1339e-06	57.896	0.00028973	0.00025135	6.9013e-05	674.37	2.7604e-06	2.7974e-06	715.03	213.52	2.7443e-06	2.6902e-06	256.04	103.55	76.618	40.202	2.6929e-06	56.998	178.787	-129.546	-79.683	-161.681	-49.119	-23.165	-162.449	-157.058	-78.658	-39.211	-158.121	-153.177	-152.896	-146.043	-61.894	-149.126	-8191	255	
11931.185	1	1	0	0	0.28123	0.039632	0.24149	0.20641	0.12921	0.092914	0.15184	0.084029	0.39977	0.21798	0.14806	0.23971	0.17751	0.17484	0.059317	0.17027	-1.8542	-1.8563	-2.1562	-2.0062	-1.9896	-2.1833	-2.0708	-2.0854	-2.2917	-1.8438	-2.1063	-2.0729	-1.8083	-2.4375	-1.9438	-2.025	-147.247	168.657	82.837	94.519	155.919	52.837	104.538	-68.173	14.243	-57.488	65.552	142.309	179.263	-99.254	-91.869	168.924	0.00056677	0.00016859	0.00016137	697.01	1.4509e-06	1.5531e-06	734.4	221.43	4.4549e-06	6.9199e-06	267.86	105.8	79.104	41.223	3.7971e-06	58.271	0.00028468	0.00024528	6.6735e-05	679.38	2.6533e-06	2.7309e-06	719.15	216.69	2.7289e-06	2.6935e-06	260.04	104.3	77.634	40.605	2.7633e-06	57.5	181.027	-86.859	-85.955	-161.925	-78.708	22.407	-162.776	-156.763	-48.048	-43.627	-158.567	-153.119	-152.828	-146.167	-51.302	-148.904	-8191	255	
11931.281	1	1	0	0	0.24153	0.31276	0.099823	0.25425	0.1658	0.11913	0.25897	0.21658	0.20489	0.30376	0.055822	0.092168	0.068592	0.15465	0.12703	0.038377	-1.7583	-1.7437	-2.2479	-2.2938	-1.6646	-2.275	-2.075	-1.8854	-2.3208	-1.8062	-2.25	-2.1208	-1.7	-2.3479	-1.7979	-2.0833	11.556	16.889	-18.935	161.929	111.803	153.449	169.133	98.157	-145.914	-89.019	-118.743	20.959	-91.496	162.509	-124.616	-125.889	0.00062319	0.00039438	5.4191e-05	700.13	3.1767e-06	4.3578e-06	739.61	222.49	1.7332e-06	5.5399e-06	272.93	107.07	79.11	41.519	2.0106e-06	58.986	0.00028792	0.00024165	6.8457e-05	683.02	2.6498e-06	2.6087e-06	722.2	218.54	2.6454e-06	2.6233e-06	261.78	105.22	77.902	40.894	2.6204e-06	57.979	178.967	-67.047	-89.444	-161.838	-35.111	-3.650	-162.632	-156.632	-60.573	11.118	-157.693	-153.064	-152.750	-146.046	-58.428	-148.859	-8191	255	
11931.402	1	1	0	0	0.20392	0.13824	0.27146	0.20676	0.04418	0.095208	0.27489	0.18794	0.18844	0.12729	0.063282	0.1617	0.21908	0.3116	0.17295	0.059993	-1.8229	-1.7625	-2.0354	-2.2979	-1.9729	-2.3	-2.1667	-2.1167	-2.3083	-1.9813	-1.9333	-2.3875	-1.7229	-2.3167	-1.9604	-1.9146	29.648	-58.841	36.577	98.375	-67.998	-41.400	167.006	159.267	-11.969	-12.701	23.915	84.736	160.350	-131.908	-46.974	181.830	0.00063881	3.8019e-05	5.7515e-05	698.98	4.5617e-06	4.5105e-06	735.37	223.13	1.7326e-06	5.0434e-06	268.32	107.71	79.766	41.501	3.5139e-06	59.175	0.00027711	0.00023948	6.4755e-05	682.42	2.6082e-06	2.585e-06	721.97	218.9	2.5255e-06	2.495e-06	260.6	105.47	77.926	40.967	2.5447e-06	58.073	181.200	150.924	-98.750	-161.618	-49.064	-49.436	-162.638	-156.687	-96.451	-27.746	-157.791	-153.159	-152.663	-146.030	-40.731	-149.108	-8191	255	
11931.496	1	1	0	0	0.12735	0.085634	0.21125	0.29347	0.10871	0.25981	0.22425	0.18004	0.11417	0.056237	0.045557	0.25741	0.23154	0.024876	0.10014	0.052824	-1.9875	-1.875	-2.0583	-2.3688	-1.9833	-2.0812	-2.3229	-1.8854	-2.4062	-1.9375	-1.9771	-2.5458	-1.9646	-2.2104	-2.1	-1.95	103.147	91.979	-25.626	111.966	61.673	10.104	109.152	-128.314	164.779	35.741	-21.756	94.954	45.854	-132.822	87.022	-88.310	0.00061651	0.00048512	0.0001437	694.53	2.3513e-06	3.5394e-06	736.52	224.73	4.4667e-06	3.8797e-06	270.84	107.4	81.02	42.194	3.9941e-06	59.427	0.00026852	0.00023135	6.2202e-05	678.9	2.507e-06	2.4331e-06	719.54	219.53	2.5043e-06	2.4504e-06	261.54	105.92	78.703	41.427	2.4879e-06	58.412	181.231	-101.629	-102.766	-161.719	-37.970	-62.633	-162.601	-156.760	-74.040	-52.734	-157.965	-153.188	-152.547	-146.274	-47.140	-149.189	-8191	255	
11931.594	1	1	0	0	0.13306	0.097803	0.22483	0.2507	0.23411	0.082913	0.11941	0.17828	0.20035	0.23501	0.072524	0.31563	0.31316	0.19261	0.2333	0.23042	-2.0479	-1.8542	-1.8771	-2.325	-1.9188	-2.0438	-2.2354	-1.9813	-2.2396	-1.9167	-1.9021	-2.6271	-1.8771	-2.1917	-2.2792	-1.8604	89.579	-8.387	82.777	-171.642	-66.718	107.959	120.558	159.603	-86.456	-145.061	-32.427	-10.688	-81.482	130.590	147.906	101.308	0.00064755	0.00047208	0.00010766	695.83	6.504e-06	2.8312e-06	735.23	223.92	2.9857e-06	5.6693e-06	268.59	109.23	79.664	42.095	3.8092e-06	60.105	0.00027042	0.00022622	6.2034e-05	679.84	2.456e-06	2.4027e-06	719.36	219.54	2.4562e-06	2.4114e-06	261.54	106.68	78.247	41.518	2.4843e-06	59.021	180.064	-44.711	-50.025	-161.718	-55.052	-49.778	-162.477	-156.958	-128.904	-48.634	-158.111	-153.303	-152.955	-146.098	-37.591	-148.984	-8191	255	
11931.688	1	1	0	0	0.2522	0.1533	0.19826	0.13242	0.098024	0.15324	0.10559	0.27961	0.16077	0.21343	0.14697	0.051857	0.095022	0.11537	0.17277	0.11493	-1.9125	-2.025	-1.7917	-2.2792	-2	-1.9396	-2.3292	-1.7958	-2.0104	-2.3688	-1.8292	-2.4896	-2.1104	-1.9792	-2.2979	-2.0333	106.012	90.572	131.805	179.911	-105.027	-155.586	-125.708	96.537	-171.635	118.083	-114.994	140.760	-32.290	85.027	-107.810	-29.648	0.00064229	0.00041661	2.0827e-05	698.47	2.112e-06	1.3035e-06	737.77	225.41	4.3138e-06	2.733e-06	270.93	109.72	81.024	42.622	2.8166e-06	60.469	0.00026537	0.00021924	6.0829e-05	680.51	2.4369e-06	2.4603e-06	721.31	220.97	2.4905e-06	2.4929e-06	262.81	107.32	79.204	41.897	2.5137e-06	59.594	179.936	-77.954	-71.908	-161.674	-4.577	-36.760	-162.404	-156.859	-57.733	-55.017	-158.095	-153.055	-152.196	-146.271	2.207	-149.227	-8191	255	
11931.784	1	1	0	0	0.071225	0.37051	0.051273	0.082345	0.26234	0.071957	0.042933	0.24001	0.16219	0.32714	0.18937	0.05092	0.1663	0.4629	0.048903	0.15414	-1.7062	-2.15	-1.7646	-2.3125	-1.8958	-1.8458	-2.2854	-2.0958	-2.0854	-2.2708	-1.8604	-2.3417	-2.1188	-1.9354	-2.3979	-1.8458	81.875	-54.538	-104.082	27.119	-1.967	183.517	109.769	119.097	-42.128	33.990	127.588	62.011	130.101	164.149	48.348	94.613	0.00064741	0.00054513	0.0001464	699.08	5.4518e-06	3.9425e-06	742.02	225.37	6.4923e-06	4.7654e-06	271.74	109.26	81.391	42.658	6.2287e-06	60.137	0.00027412	0.00022784	6.3636e-05	684.18	2.4585e-06	2.4207e-06	724.08	222.26	2.5151e-06	2.4666e-06	264.46	107.26	79.56	42.052	2.5183e-06	59.244	179.767	-54.880	-52.112	-162.756	-46.311	-17.771	-163.499	-157.704	-78.955	-22.898	-158.674	-154.091	-153.810	-147.142	-13.985	-149.823	-8191	255	
11931.881	1	1	0	0	0.08639	0.18729	0.084467	0.098693	0.18245	0.22885	0.064669	0.26711	0.17642	0.09986	0.12045	0.19756	0.25194	0.24689	0.19052	0.22797	-1.7521	-2.2229	-1.8417	-2.3417	-2.0625	-1.9708	-2.3458	-2.0938	-1.7792	-2.3688	-1.9583	-2.3	-2.2458	-2.0062	-2.5708	-2.1479	-168.486	-146.786	-118.911	-162.004	36.188	-131.493	-159.294	129.275	-89.539	126.892	-126.990	-35.961	-138.162	-169.469	-12.549	182.483	0.00067151	0.00012202	0.0001408	702.78	1.4423e-06	6.4907e-06	741.53	228.43	4.7732e-06	6.1061e-06	274.34	109.25	81.308	42.399	2.3773e-06	59.374	0.00028109	0.00023232	6.5385e-05	687.94	2.5719e-06	2.5358e-06	724.91	223.97	2.5678e-06	2.6076e-06	264.03	106.81	79.281	41.726	2.5203e-06	58.578	183.118	-85.345	-86.980	-162.401	19.061	-41.020	-162.391	-156.792	-75.250	-51.941	-157.992	-152.987	-152.781	-146.221	-29.808	-149.116	-8191	255	
11932.001	1	1	0	0	0.10979	0.24137	0.19878	0.37074	0.26138	0.088725	0.21016	0.052116	0.117	0.15315	0.19681	0.09406	0.11979	0.32326	0.21248	0.22774	-1.6271	-2.0479	-1.8417	-2.2125	-2.1292	-1.7125	-2.3812	-2.0604	-1.9937	-2.1917	-1.8417	-2.2521	-2.3479	-1.6604	-2.3146	-2.1333	48.452	20.541	66.901	168.848	61.254	-53.161	131.071	-125.801	37.092	-166.798	15.766	156.009	58.368	132.372	-91.850	-100.834	0.00065459	0.00039876	0.00010896	708.13	9.4582e-07	4.5847e-06	738.03	228.3	3.7622e-06	4.7444e-06	274.35	108.98	81.327	42.494	2.5479e-06	60.277	0.00028002	0.00022982	6.4968e-05	689.45	2.501e-06	2.4832e-06	723.23	222.93	2.4951e-06	2.4829e-06	264.72	106.93	79.415	41.866	2.4568e-06	59.285	183.430	-72.236	-91.463	-161.821	-12.230	-9.197	-162.647	-156.914	-81.730	-46.262	-158.963	-154.246	-153.576	-147.209	-74.996	-149.976	-8191	255	
11932.097	1	1	0	0	0.11151	0.07092	0.34312	0.1314	0.35509	0.062547	0.10936	0.26673	0.15965	0.067278	0.19323	0.23268	0.040157	0.078841	0.029908	0.096043	-1.5063	-2.1688	-1.7875	-2.0812	-2.1833	-1.7458	-2.2833	-2.1063	-1.9937	-2.2313	-1.9417	-2.1083	-2.1396	-1.7479	-2.2333	-2.1562	-61.599	70.543	25.578	-166.953	-43.040	136.998	-103.709	92.402	-158.789	28.065	13.177	29.387	-23.017	152.660	95.247	120.494	0.00069193	0.00042464	0.00011848	704.76	4.0307e-06	2.1306e-06	738.57	228.79	3.8495e-06	1.7539e-06	273.23	109.81	82.687	43.118	3.6346e-06	61.042	0.00027144	0.00021404	6.2167e-05	685.61	2.4636e-06	2.412e-06	723.1	223.88	2.4989e-06	2.3821e-06	265.15	108.01	80.571	42.404	2.4412e-06	60.101	180.483	-125.942	-61.848	-162.721	1.708	-22.998	-163.235	-157.838	-73.757	-33.994	-158.960	-154.301	-153.090	-147.030	-75.652	-149.947	-8191	255	
11932.193	1	1	0	0	0.090617	0.28389	0.2331	0.164	0.17493	0.084248	0.050679	0.066588	0.15794	0.079493	0.2443	0.41378	0.10162	0.16555	0.073574	0.19503	-1.5375	-2.1813	-1.75	-2.175	-2.2583	-1.7042	-2.1854	-2.0229	-1.7104	-2.1688	-2.0146	-2.1667	-2.1625	-1.9104	-2.0292	-2.3042	-69.153	134.250	161.130	145.413	150.248	181.519	-165.404	161.748	55.292	40.010	-171.938	92.715	-25.198	140.629	-164.382	113.492	0.00066469	0.00025247	0.00013054	706.92	3.2848e-06	2.8262e-06	745.27	230.03	3.2707e-06	1.0103e-06	274.18	111.53	82.709	43.38	2.4117e-06	61.45	0.00026916	0.00022659	6.1931e-05	689.25	2.4283e-06	2.4128e-06	726.75	225.81	2.4892e-06	2.3963e-06	267.22	109.31	80.523	42.82	2.3782e-06	60.678	179.244	-112.385	-74.439	-162.815	-28.681	-74.183	-163.128	-157.779	-90.520	-80.953	-159.138	-154.136	-152.963	-147.160	-13.537	-149.739	-8191	255	
11932.265	1	1	0	0	0.22569	0.18257	0.098461	0.11547	0.093151	0.20072	0.14294	0.44752	0.19797	0.084178	0.10115	0.21979	0.073886	0.3945	0.13774	0.11838	-1.5042	-2.2958	-1.825	-1.9083	-2.3979	-1.7833	-2.275	-2.0729	-1.7042	-2.2854	-1.9729	-1.9813	-2.25	-1.8146	-2.0812	-2.2542	-41.987	17.890	167.835	-136.825	22.102	33.868	-106.067	133.074	118.834	-141.491	116.645	160.296	116.288	148.791	-168.498	-82.716	0.00068028	0.00039677	4.5819e-05	705.02	1.4584e-06	1.1067e-06	737.52	229.64	2.9511e-06	5.8397e-06	275.56	111.86	83.077	44.528	5.5201e-06	63.371	0.00026952	0.00021444	6.0507e-05	687.63	2.3465e-06	2.3847e-06	724.73	224.73	2.3617e-06	2.2896e-06	266.39	109.96	81.125	43.795	2.2105e-06	62.348	178.311	-69.877	-124.753	-162.715	-80.296	23.661	-163.366	-157.928	-78.230	-47.051	-159.244	-153.899	-153.651	-147.021	-38.259	-150.088	-8191	255	
11932.361	1	1	0	0	0.1067	0.044193	0.29633	0.14688	0.18681	0.086069	0.1162	0.29239	0.061656	0.34399	0.16372	0.33834	0.19476	0.17275	0.34536	0.31863	-1.3312	-2.1042	-2.0292	-1.9104	-2.5167	-1.9542	-2.2062	-2.4125	-1.6479	-2.4521	-2.1479	-1.9146	-2.3521	-2.0438	-2.0875	-2.375	-138.783	117.931	51.632	161.045	-117.202	-115.891	94.355	118.525	51.474	-138.978	122.194	166.744	-145.241	-172.368	144.208	86.197	0.00070735	0.00052529	9.51e-05	695.74	3.0672e-06	2.5046e-06	737.4	228.87	5.5431e-06	3.043e-06	275.39	113.52	83.203	44.694	5.2821e-06	64.155	0.00025754	0.00019973	5.3629e-05	677.55	2.13e-06	2.1485e-06	721.54	223.88	2.1883e-06	2.1295e-06	267.93	111.24	81.193	44.017	2.1674e-06	62.895	181.870	-78.780	-95.393	-162.703	30.480	-77.508	-163.357	-157.549	-89.031	-55.026	-158.678	-154.118	-153.038	-146.809	-27.916	-149.923	-8191	255	
11932.480	1	1	0	0	0.067205	0.42085	0.16056	0.011338	0.17248	0.24767	0.12402	0.19522	0.0061907	0.23142	0.094678	0.19315	0.071757	0.14475	0.065273	0.2476	-1.2667	-2.1208	-2.1813	-2.1479	-2.1229	-1.9042	-2.1292	-2.3292	-1.9083	-2.1208	-2.3917	-1.9813	-2.4062	-2.1458	-1.8417	-2.3854	-45.756	-139.494	35.044	38.440	-14.689	-84.563	141.794	129.478	112.082	-156.158	115.080	82.607	111.043	140.247	19.098	118.636	0.00067241	0.00026554	0.00019587	696.67	3.5486e-06	4.2192e-06	740.57	230.15	3.9453e-06	5.8274e-06	277.87	112.87	83.471	44.083	4.3593e-06	62.62	0.00025641	0.00019965	5.5368e-05	679.34	2.1782e-06	2.2001e-06	725.27	224.46	2.2392e-06	2.2376e-06	268.24	110.52	81.122	43.446	2.2705e-06	61.858	180.061	-80.512	-100.123	-162.379	-15.592	-33.644	-163.336	-157.704	-48.535	-24.823	-159.185	-153.692	-153.603	-146.913	-68.106	-149.972	-8191	255	
11932.576	1	1	0	0	0.24241	0.24058	0.059388	0.2638	0.22622	0.32156	0.1833	0.2524	0.062343	0.289	0.22997	0.050277	0.27046	0.17128	0.033011	0.17476	-1.4271	-2.1333	-2.1375	-1.825	-2.4333	-1.9125	-2.0771	-2.4833	-1.925	-2.1583	-2.1667	-1.9646	-2.3438	-2.0812	-1.9896	-2.3604	-139.922	-116.434	120.136	-165.747	-156.911	-27.280	22.190	142.639	-49.199	-142.145	-71.152	166.598	31.055	-86.219	166.925	122.368	0.00071202	0.00034875	0.00015352	698.67	2.5976e-06	4.1496e-06	743.15	230.03	6.0414e-06	1.8074e-06	278.31	113.21	83.446	44.084	2.5397e-06	63.262	0.00025948	0.00020717	5.6431e-05	681.06	2.1843e-06	2.2341e-06	725.62	224.88	2.2694e-06	2.2402e-06	267.5	110.81	81.09	43.391	2.2714e-06	62.223	178.547	-81.916	-81.136	-162.652	-26.747	-25.364	-163.217	-157.820	-74.370	-123.799	-158.854	-154.124	-153.822	-146.880	-92.497	-149.934	-8191	255	
11932.674	1	1	0	0	0.20874	0.27602	0.27814	0.47253	0.20059	0.24266	0.091144	0.22941	0.11901	0.17364	0.12404	0.13065	0.07898	0.17751	0.16255	0.16999	-1.5167	-2.1146	-2.2979	-1.7208	-2.0708	-2.0062	-1.9896	-2.2188	-1.8521	-1.9604	-2.3896	-1.6542	-2.2375	-2.1708	-2.0021	-2.5708	-105.136	-55.563	-8.066	147.123	-159.229	113.877	-102.611	56.359	64.881	-73.270	183.530	-128.911	10.760	-170.375	35.030	181.115	0.00067652	0.0005128	7.7461e-05	698.32	3.4875e-06	8.6398e-07	741.15	229.15	3.2973e-06	4.2934e-06	275.91	114	83.999	44.222	2.7534e-06	63.436	0.00025385	0.0002064	5.6425e-05	681.54	2.2585e-06	2.2399e-06	726.07	224.53	2.3184e-06	2.2376e-06	268.99	111.42	81.441	43.601	2.2929e-06	62.23	180.740	-91.270	-146.784	-161.956	-33.984	79.267	-163.189	-157.539	-87.139	5.493	-158.521	-154.100	-153.157	-146.972	-60.824	-149.739	-8191	255	
11932.793	1	1	0	0	0.12002	0.18063	0.025001	0.16798	0.18664	0.070419	0.22698	0.32865	0.11784	0.083802	0.1681	0.36347	0.15592	0.36428	0.10416	0.36694	-1.3771	-1.9604	-2.1833	-1.9292	-2.1937	-2.2146	-1.7646	-2.3396	-1.9188	-2.0604	-2.4625	-1.8833	-2.2229	-2.3479	-1.8708	-2.3458	39.389	104.923	-43.863	70.601	148.232	-123.968	-127.519	96.210	-164.162	-163.355	28.716	131.430	-122.808	-137.329	-86.882	179.016	0.00072608	0.0006615	9.9114e-05	692.52	3.6003e-06	3.35e-06	734.58	226.62	3.4077e-06	4.4823e-06	278.96	112.24	82.073	43.309	4.67e-06	62.357	0.000255	0.00020631	5.6472e-05	675.51	2.2165e-06	2.1789e-06	720.54	222.16	2.2283e-06	2.2031e-06	267.23	110.05	79.954	42.749	2.2554e-06	61.448	181.158	-72.124	-91.732	-162.621	-24.023	-61.597	-163.060	-157.710	-57.577	-12.658	-159.202	-153.964	-153.293	-146.984	-73.648	-149.715	-8191	255	
11932.865	1	1	0	0	0.10375	0.1287	0.064558	0.095713	0.15982	0.15026	0.25352	0.23216	0.15677	0.05639	0.10476	0.11327	0.052468	0.22409	0.16159	0.076355	-1.5417	-1.7625	-2.4771	-1.9542	-2.1688	-2.1354	-1.9167	-2.3875	-2.0479	-1.825	-2.2604	-1.9917	-1.9625	-2.6104	-1.9104	-2.2562	152.647	-162.311	178.816	4.924	-126.895	113.602	3.252	-63.662	-104.413	124.194	42.193	98.175	-35.570	137.354	183.924	1.073	0.00066318	0.00032579	0.00026118	690.86	2.2878e-06	2.6802e-06	738.7	225.41	3.2878e-06	4.5344e-06	275.93	112.67	81.881	43.727	4.7301e-06	63.459	0.00024913	0.00019732	5.6291e-05	672.95	2.1369e-06	2.1949e-06	721.56	221.29	2.2035e-06	2.1393e-06	267.02	110.64	79.908	42.953	2.1643e-06	62.414	180.590	-77.064	-64.240	-162.409	-70.801	-33.333	-163.101	-157.614	-91.965	8.412	-158.680	-153.538	-153.327	-146.408	-55.835	-149.504	-8191	255	
11932.961	1	1	0	0	0.14617	0.10275	0.2043	0.13915	0.20183	0.28265	0.21318	0.34221	0.1006	0.19532	0.087085	0.15524	0.46774	0.232	0.051697	0.15804	-1.675	-1.9604	-2.2062	-1.9375	-1.9458	-2.0708	-2.1208	-2.3354	-2.0687	-1.8188	-2.3979	-2.0833	-2.1354	-2.3479	-1.625	-2.3229	-1.463	-50.829	15.156	143.705	-10.249	87.523	126.021	159.511	178.491	-2.437	-111.328	-166.728	112.367	121.143	-172.280	-165.201	0.00066971	0.0002296	0.00016052	687.76	3.8017e-06	4.5249e-06	737.96	225.5	4.7828e-06	4.1899e-06	277.79	112.95	81.748	43.358	4.4033e-06	62.884	0.0002532	0.00019814	5.5801e-05	670.54	2.1887e-06	2.1651e-06	723.87	221.11	2.209e-06	2.2191e-06	267.37	110.94	79.785	42.716	2.181e-06	62.044	176.784	-67.298	-106.149	-161.993	-51.644	-25.998	-162.632	-157.020	-60.567	-46.011	-158.549	-153.325	-152.769	-146.473	-76.242	-149.001	-8191	255	
11933.082	1	1	0	0	0.15648	0.20657	0.093692	0.28187	0.1244	0.078596	0.36956	0.29647	0.12185	0.26259	0.079542	0.21163	0.32201	0.094779	0.19108	0.23887	-1.8312	-1.8646	-2.1333	-2.0604	-1.8062	-2.375	-2.0521	-2.3125	-2.2521	-1.8583	-2.1937	-2.0833	-1.9188	-2.2292	-2.0271	-2.2771	153.604	131.193	22.761	-140.755	49.945	-125.922	100.696	-149.807	-17.161	-2.770	-138.731	133.359	23.402	-92.018	76.872	122.946	0.00074586	0.00025395	9.618e-05	688.71	2.7745e-06	4.4344e-06	745.6	225.99	4.1449e-06	4.1309e-06	276.38	111.82	81.725	42.696	3.615e-06	62.321	0.00025029	0.00019944	5.5058e-05	670.4	2.1668e-06	2.2365e-06	727.54	220.52	2.2647e-06	2.1747e-06	267.67	109.86	79.469	42.123	2.2565e-06	61.283	180.490	-90.774	-81.876	-161.955	-80.531	-27.465	-162.332	-157.336	-61.497	-42.524	-158.264	-153.749	-153.289	-146.728	-70.344	-149.472	-8191	255	
11933.178	1	1	0	0	0.041728	0.26503	0.27512	0.22007	0.091747	0.089301	0.24919	0.31869	0.13606	0.18782	0.10444	0.09673	0.1107	0.23489	0.18675	0.12142	-1.725	-1.8312	-2.1292	-2.2208	-1.8792	-2.5104	-2.0604	-2.1	-2.1479	-1.7458	-2.1167	-2.2104	-1.9271	-2.4729	-1.8458	-2.0979	122.021	-42.894	-108.391	111.931	24.195	-4.886	135.437	153.671	-37.482	181.121	-34.880	-133.143	-29.150	-114.093	-163.472	173.226	0.00064939	0.00046751	0.00020482	694.57	5.1851e-06	2.4951e-06	738.64	226.27	4.1286e-06	3.6778e-06	273.4	110.35	80.647	42.549	6.267e-06	61.443	0.00024931	0.00019769	5.5815e-05	673.89	2.2356e-06	2.2096e-06	722.91	220.51	2.2452e-06	2.1578e-06	264.57	108.57	78.817	41.959	2.2107e-06	60.715	180.901	-68.402	-75.950	-162.489	-33.418	31.420	-163.284	-157.566	-104.526	-4.703	-158.533	-153.776	-153.594	-146.639	-59.637	-149.458	-8191	255	
11933.274	1	1	0	0	0.13367	0.052852	0.11879	0.23178	0.18866	0.23098	0.15945	0.21367	0.16297	0.069567	0.18495	0.06291	0.18128	0.21781	0.17928	0.23064	-1.9979	-1.7313	-2.0958	-2.0917	-1.9708	-2.3625	-2.2042	-1.975	-2.3979	-1.7958	-2.1333	-2.3312	-1.8646	-2.3042	-2.0646	-1.9958	-39.066	-45.474	168.994	169.795	-22.168	84.667	95.444	147.682	175.904	55.586	-96.963	97.293	45.822	93.906	24.468	151.708	0.00064449	0.00049404	0.00020245	688.68	4.0097e-06	1.7938e-06	738	224.68	1.2387e-06	2.9294e-06	274.25	111.49	80.929	42.881	3.9979e-06	61.944	0.00024583	0.00019776	5.602e-05	671.5	2.1916e-06	2.1947e-06	721.83	220.67	2.2168e-06	2.2604e-06	265.41	109.18	79.279	42.121	2.2751e-06	60.939	181.458	-83.401	-91.173	-162.452	-31.956	-64.966	-162.959	-157.170	-112.319	-38.082	-158.755	-153.601	-153.322	-146.611	-72.961	-149.396	-8191	255	
11933.394	1	1	0	0	0.18286	0.16376	0.25082	0.33943	0.26606	0.16407	0.21221	0.18536	0.083673	0.090769	0.1204	0.21095	0.12746	0.30464	0.14936	0.13567	-2.0854	-1.7437	-2.15	-2.1792	-1.8188	-2.3937	-2.0438	-2.0208	-2.4229	-2.0312	-2.1688	-2.4667	-1.7708	-2.3375	-2.0771	-2.0187	-26.124	101.104	82.007	150.899	24.039	39.468	93.055	46.004	-64.630	105.609	115.919	169.893	93.968	177.740	-47.525	43.310	0.00068111	0.00043853	6.161e-05	692.59	4.1074e-06	4.4841e-06	742.02	227.32	5.3392e-06	5.4514e-06	274.89	112	81.662	43.261	3.4568e-06	62.981	0.00025152	0.00020009	5.4692e-05	674.14	2.1903e-06	2.1332e-06	724.41	222.72	2.2178e-06	2.2306e-06	267.98	110.19	80.077	42.63	2.1967e-06	61.885	180.605	-84.597	-85.393	-162.083	-76.966	15.390	-162.835	-157.106	-76.948	-30.733	-158.317	-153.436	-153.124	-146.104	-61.719	-149.311	-8191	255	
11933.466	1	1	0	0	0.098691	0.15692	0.080309	0.16905	0.10332	0.2688	0.11375	0.41757	0.030559	0.078569	0.066555	0.11951	0.14622	0.27533	0.23715	0.083326	-1.9104	-1.9521	-1.925	-2.4625	-2.0062	-2.1688	-2.3083	-2.1271	-2.4229	-2.0708	-2.1979	-2.3646	-1.9417	-2.2646	-2.3292	-2.0625	-21.461	-157.701	-140.828	15.224	-86.226	27.138	99.213	98.963	-151.504	-40.782	-81.965	-74.070	-111.040	154.554	-172.994	-129.949	0.00069526	0.00059303	0.00016633	692.31	5.7172e-06	3.4751e-06	742.82	228.18	2.7903e-06	4.3063e-06	278.69	112.74	82.16	43.066	4.2906e-06	62.712	0.0002506	0.00019799	5.5788e-05	676.68	2.1788e-06	2.1513e-06	727.01	223.67	2.1988e-06	2.1364e-06	268.58	110.64	80.337	42.518	2.1585e-06	61.722	179.653	-104.067	-101.386	-161.547	-43.237	-15.080	-162.902	-157.427	-48.159	-37.963	-158.739	-153.345	-152.534	-146.173	-57.993	-148.981	-8191	255	
11933.561	1	1	0	0	0.37583	0.12865	0.11061	0.078993	0.12468	0.42256	0.15591	0.3645	0.15032	0.16219	0.24151	0.24087	0.35034	0.1254	0.34237	0.18818	-2.0021	-1.8042	-1.825	-2.3187	-1.9229	-2.1271	-2.3521	-1.7812	-2.3604	-2.0083	-2.0958	-2.4396	-1.8125	-2.1708	-2.2625	-1.9208	115.606	111.270	183.413	170.004	-171.993	-15.835	-82.833	158.215	-15.113	12.294	133.455	72.616	-88.128	163.007	73.281	159.457	0.00067583	0.00043824	0.00012837	691.38	3.5834e-06	2.2517e-06	738.16	227.33	4.4551e-06	2.34e-06	276.61	111.19	81.773	42.619	3.4101e-06	61.637	0.00024796	0.00019681	5.4311e-05	674.73	2.1479e-06	2.127e-06	723.17	222.58	2.1404e-06	2.1175e-06	266.83	108.87	79.229	41.895	2.2152e-06	60.693	180.322	-77.215	-65.300	-161.868	-68.585	-36.839	-162.403	-157.085	-93.469	-89.476	-158.273	-153.175	-152.849	-146.119	-45.958	-149.064	-8191	255	
11933.657	1	1	0	0	0.066613	0.13573	0.046949	0.25437	0.17745	0.28086	0.43829	0.15268	0.046199	0.24769	0.023025	0.20461	0.20319	0.36626	0.20409	0.30234	-1.9375	-2.1063	-1.8542	-2.4396	-2.075	-2.1521	-2.4562	-1.8958	-2.2104	-2.0875	-2.025	-2.5104	-2.0521	-2.1208	-2.3354	-2	-44.313	-64.674	18.134	184.725	26.751	181.980	69.638	124.273	174.194	135.562	163.234	76.353	-162.974	37.660	92.414	96.656	0.00067592	0.00029031	8.9433e-05	697.84	3.3434e-06	5.032e-06	740.33	228.48	3.6585e-06	2.5072e-06	277.87	112.3	82.541	43.43	3.9932e-06	62.579	0.0002455	0.0001978	5.3174e-05	677.49	2.1181e-06	2.1204e-06	723.51	223.99	2.134e-06	2.1276e-06	268.04	109.95	80.404	42.796	2.18e-06	61.661	180.600	-113.209	-94.457	-161.600	-29.238	-13.630	-162.292	-157.016	-87.617	-27.845	-157.988	-153.580	-153.339	-146.318	-39.193	-149.007	-8191	255	
11933.777	1	1	0	0	0.17779	0.26097	0.32851	0.097608	0.28732	0.10895	0.021901	0.12232	0.1507	0.22173	0.099622	0.10686	0.26812	0.078117	0.22619	0.079485	-1.9396	-2.0229	-2.0792	-2.4542	-1.9125	-1.9583	-2.4688	-1.9167	-2.225	-2.3937	-1.75	-2.2479	-2.0563	-2.0646	-2.1208	-1.9167	166.226	53.345	28.567	110.185	136.162	-108.364	58.086	110.047	-124.374	52.172	-139.393	65.337	-126.768	34.578	43.539	-173.756	0.00068103	0.00056079	0.00017532	700.54	2.6454e-06	3.56e-06	745.41	231.63	2.2575e-06	1.6149e-06	280.63	112.58	84.27	43.963	5.119e-06	63.199	0.00024793	0.00019596	5.5066e-05	683.41	2.2319e-06	2.1952e-06	727.48	226.92	2.1826e-06	2.1624e-06	269.68	110.65	81.613	43.408	2.2294e-06	62.334	179.860	-43.024	-112.928	-161.817	-65.266	-27.301	-162.582	-156.857	-52.142	-42.714	-158.400	-153.597	-152.737	-146.339	-79.575	-149.066	-8191	255	
11933.872	1	1	0	0	0.12642	0.23526	0.069238	0.1421	0.20715	0.076568	0.1852	0.38142	0.029723	0.076383	0.18872	0.31353	0.11953	0.31946	0.25024	0.078242	-1.8438	-2.3021	-1.8312	-2.4	-2.0687	-1.9896	-2.55	-2.0479	-2.0521	-2.3042	-1.8083	-2.3146	-2.2667	-1.9542	-2.2354	-2.1583	0.496	-5.304	21.829	-5.963	-171.520	102.622	122.350	175.270	-145.489	36.521	-57.008	145.762	88.660	110.398	16.133	103.348	0.00064183	0.00015461	0.00011148	705.06	2.6654e-06	5.0706e-06	743.59	231.46	2.958e-06	2.5623e-06	275.04	112.71	83.11	43.721	1.3487e-06	63.074	0.00025197	0.00019999	5.5343e-05	683.93	2.2314e-06	2.1349e-06	726.08	226.19	2.1817e-06	2.1599e-06	268.46	110.6	80.998	43.099	2.1433e-06	62.078	180.536	-44.056	-56.448	-161.699	-6.958	46.480	-162.517	-156.949	-67.802	-29.360	-158.890	-153.672	-153.326	-146.516	-26.933	-149.406	-8191	255	
11933.968	1	1	0	0	0.19491	0.11121	0.27555	0.11183	0.1297	0.23034	0.37132	0.24504	0.080932	0.069469	0.24383	0.23166	0.096247	0.17215	0.14994	0.25774	-1.6417	-2.05	-1.6979	-2.2313	-2.0062	-1.9729	-2.3312	-2.1	-1.9271	-2.3104	-1.9062	-2.3875	-2.1063	-1.9708	-2.3229	-2.0521	-109.004	170.000	-82.759	-172.271	158.280	59.249	74.887	83.282	87.807	104.719	-145.757	171.261	-2.101	111.147	-160.416	59.945	0.00066248	0.00031369	0.00011371	696.07	1.5471e-06	5.0433e-06	740.84	227.67	2.3828e-06	7.6081e-06	275.77	111.88	82.659	43.432	3.3017e-06	62.215	0.00025168	0.00020016	5.5563e-05	678.72	2.1397e-06	2.2032e-06	723.93	224.12	2.2012e-06	2.0892e-06	266.89	109.49	80.324	42.597	2.2219e-06	61.24	181.380	-53.003	-86.108	-161.631	26.533	-35.637	-162.745	-156.854	-63.915	-36.246	-158.191	-153.383	-153.004	-146.252	-31.697	-148.821	-8191	255	
11934.066	1	1	0	0	0.26304	0.12981	0.11258	0.089509	0.12678	0.071778	0.25869	0.20887	0.1962	0.11725	0.11527	0.098466	0.28957	0.12822	0.079996	0.35315	-1.4958	-2.2562	-1.9083	-2.1958	-2.2021	-1.7771	-2.2854	-2.15	-1.7958	-2.2812	-1.6604	-2.2979	-2.3375	-1.9792	-2.4188	-2.2833	145.198	68.722	-7.782	-163.951	108.108	165.348	-167.006	148.385	-52.190	113.847	29.046	-35.389	-156.803	-123.673	6.462	118.231	0.00074152	0.00025728	0.00011905	694.57	2.6001e-06	5.0112e-06	732.89	227.53	5.4963e-06	2.2841e-06	273.51	111.39	82.082	43.263	4.9202e-06	62.066	0.00024849	0.00018899	5.4643e-05	676.43	2.157e-06	2.2166e-06	718.47	223	2.2604e-06	2.1309e-06	265.21	109.17	80.087	42.585	2.1369e-06	61.032	182.461	-90.400	-66.255	-161.640	-45.138	-40.339	-162.499	-156.924	-91.521	-53.810	-158.514	-153.473	-152.634	-146.192	-40.299	-148.700	-8191	255	
11934.160	1	1	0	0	0.26923	0.052044	0.10948	0.19614	0.066257	0.1512	0.33527	0.18826	0.25187	0.24933	0.22392	0.35184	0.35262	0.2065	0.18239	0.19013	-1.4104	-2.4104	-1.8646	-2.1625	-2.2021	-1.9083	-2.3146	-2.1708	-1.8896	-2.4854	-1.9167	-1.9625	-2.3292	-1.9688	-2.3937	-2.0854	153.006	146.382	69.755	126.459	-57.437	176.425	134.979	87.574	-172.630	180.018	-62.074	-167.321	46.237	172.059	-62.645	-158.181	0.00064682	0.00061065	8.7202e-05	693.31	4.4992e-06	4.0983e-06	739.69	226.11	4.3628e-06	4.0915e-06	276.72	110.8	81.041	42.853	6.2505e-06	62.275	0.00025041	0.00019338	5.5563e-05	672.83	2.1177e-06	2.1582e-06	720.01	221.51	2.1968e-06	2.081e-06	265.81	108.84	79.141	42.206	2.1249e-06	61.256	179.475	-48.394	-84.423	-161.702	-3.690	-58.004	-161.966	-156.472	-64.403	-16.759	-158.140	-153.060	-152.758	-145.896	-59.984	-148.818	-8191	255	
11934.256	1	1	0	0	0.12981	0.14853	0.026814	0.34302	0.10822	0.17106	0.087544	0.25656	0.095098	0.22472	0.2857	0.097306	0.28172	0.28325	0.29673	0.37265	-1.5	-2.1604	-2.0375	-2.0583	-2.3479	-1.6708	-2.425	-2.2083	-1.7854	-2.3812	-1.9521	-2.1208	-2.3146	-2.025	-2.0375	-2.4708	-171.179	-81.535	148.299	52.000	-29.485	73.292	23.541	51.246	-22.663	-36.428	-164.134	-3.944	-131.432	-161.233	-163.297	-167.688	0.00063713	0.00048896	0.00011778	685.57	8.3726e-07	8.2074e-07	735.85	226.1	2.6713e-06	4.4991e-06	275.25	112.73	82.092	43.229	3.8238e-06	63.052	0.00024333	0.00019021	5.344e-05	667.94	2.0566e-06	2.0644e-06	720.28	222.28	2.088e-06	2.0431e-06	266.73	110.11	79.667	42.561	2.1257e-06	61.972	177.859	-112.691	-96.936	-161.692	26.096	4.012	-162.016	-156.739	-77.087	-53.518	-157.666	-153.109	-152.515	-145.796	-35.379	-148.750	-8191	255	
11934.352	1	1	0	0	0.061499	0.14396	0.19501	0.1863	0.22829	0.1067	0.093498	0.12978	0.020547	0.17613	0.068226	0.1504	0.046025	0.028376	0.12656	0.069894	-1.5042	-2.3063	-2.1937	-2.0187	-2.3625	-2.0417	-2.4271	-2.2771	-1.9167	-2.125	-2.1396	-1.9062	-2.3312	-2.0563	-2.1708	-2.4354	-105.967	-125.057	104.698	-87.244	21.615	57.530	20.848	119.612	-120.966	-113.276	-79.597	131.816	-21.868	171.195	-24.698	179.355	0.00065659	0.00043133	9.1313e-05	685.7	3.1372e-06	2.18e-06	737.7	225.53	3.5415e-06	5.091e-06	277.91	110.62	80.215	41.773	3.0405e-06	61.285	0.00023797	0.00018332	5.115e-05	667.69	2.0023e-06	2.0823e-06	720.63	219.8	2.0414e-06	2.0046e-06	266.67	108.48	77.889	41.1	1.9501e-06	60.493	182.252	-124.278	-69.643	-161.227	26.110	7.650	-162.282	-156.614	-38.264	-16.612	-157.711	-152.781	-152.470	-145.661	-66.724	-148.548	-8191	255	
11934.473	1	1	0	0	0.26772	0.19272	0.14812	0.15323	0.2136	0.33491	0.26421	0.17777	0.11019	0.064012	0.22181	0.14885	0.070485	0.17856	0.068929	0.14898	-1.4229	-2.3271	-1.9917	-1.9458	-2.3792	-1.9021	-2.3688	-2.3833	-1.775	-2.2083	-2.325	-2.1104	-2.4479	-2.0479	-1.7375	-2.2604	23.948	60.326	127.525	162.913	-129.382	93.782	178.777	176.304	180.286	-120.719	-63.216	88.759	-12.808	108.081	-150.603	-172.132	0.00069912	0.0003161	9.4718e-05	677.04	7.7734e-07	5.7648e-06	732.4	223.31	5.3525e-06	1.6447e-06	274.64	110.2	79.197	42.005	3.6918e-06	61.567	0.00023706	0.00018154	4.983e-05	661.64	2.0047e-06	1.9741e-06	713.81	217.87	2.0154e-06	1.9171e-06	263.2	107.78	77.747	41.242	1.9689e-06	60.363	181.584	-69.345	-81.478	-161.518	-7.399	-3.852	-162.253	-156.398	-57.864	-16.843	-157.981	-152.846	-152.473	-145.811	-98.816	-148.444	-8191	255	
11934.569	1	1	0	0	0.08321	0.36338	0.079846	0.25737	0.070899	0.11831	0.23778	0.048702	0.11514	0.33118	0.022113	0.24875	0.2791	0.5013	0.18025	0.21202	-1.4479	-2.2938	-2.3354	-1.8188	-2.2938	-1.9708	-2.1375	-2.5125	-1.9417	-1.9937	-2.1229	-1.7104	-2.3458	-2.175	-2.0812	-2.5167	-43.545	104.893	-104.923	132.399	-114.402	-68.596	-92.640	-17.053	-1.914	120.670	38.962	-102.045	-165.030	146.976	-76.218	116.918	0.00063562	0.00056117	6.7643e-05	672.54	2.5495e-06	4.6075e-06	726.77	223.84	4.4875e-06	4.5769e-06	275.28	110.65	80.447	42.319	4.7372e-06	61.515	0.0002338	0.00018068	5.0974e-05	656.81	1.9861e-06	2.0324e-06	711.95	218.55	2.0638e-06	2.0261e-06	264.49	108.33	78.378	41.635	2.1101e-06	60.812	180.068	-57.631	-85.242	-161.256	-54.981	-7.543	-162.222	-156.517	-100.118	-1.085	-157.934	-153.277	-152.374	-146.085	-34.332	-148.885	-8191	255	
11934.665	1	1	0	0	0.15461	0.099609	0.20902	0.11326	0.2909	0.18928	0.18728	0.098243	0.28034	0.17097	0.2055	0.21161	0.19297	0.054435	0.25471	0.11376	-1.4021	-2.3104	-2.3229	-1.7667	-2.1813	-2.2979	-2.0146	-2.2604	-1.8167	-2.125	-2.2562	-1.9	-2.2708	-2.2229	-1.7917	-2.4562	49.999	-111.238	73.789	136.824	-37.816	26.262	-170.924	-121.661	71.636	-131.698	85.674	179.847	-103.146	3.498	-8.598	-74.156	0.00066553	0.00035378	0.00011484	678.27	3.2365e-06	2.0764e-06	726.71	222.35	2.7475e-06	6.0491e-06	276.78	111.81	80.733	43.311	2.5737e-06	63.228	0.00024126	0.00018819	5.0994e-05	658.64	2.0661e-06	2.0477e-06	712.51	218.11	2.1004e-06	2.0441e-06	265.46	109.77	79.069	42.49	2.0808e-06	62.02	184.160	-110.139	-90.843	-161.195	-63.143	-9.571	-161.990	-156.408	-50.072	-60.653	-157.950	-152.861	-152.125	-145.798	-15.630	-148.937	-8191	255	
11934.762	1	1	0	0	0.13876	0.098322	0.17605	0.060899	0.05827	0.2565	0.25851	0.093361	0.23495	0.06037	0.32298	0.29158	0.23586	0.26576	0.35612	0.17457	-1.7625	-2.0104	-2.3354	-1.9813	-2.3625	-2.2687	-1.9688	-2.5312	-2.1479	-2.0125	-2.2292	-1.9604	-2.1396	-2.3563	-2.0021	-2.6063	-68.345	179.545	-171.113	-109.151	-40.659	130.973	-109.638	170.443	-5.186	-51.625	10.722	152.820	-111.797	145.880	-102.031	107.531	0.0006921	0.00044348	0.00011718	677.97	4.674e-06	1.2391e-06	733.64	222.41	4.695e-06	2.4006e-06	276.52	112.94	81.563	43.451	5.7427e-06	63.623	0.00024511	0.00019154	5.2736e-05	659.44	2.0613e-06	2.0985e-06	716.81	217.53	2.1431e-06	2.0771e-06	267	110.7	79.345	42.73	2.1224e-06	62.717	181.857	-85.929	-72.370	-161.284	-13.643	-3.592	-162.302	-156.282	-45.989	-57.005	-157.854	-152.976	-152.314	-146.123	-55.378	-148.835	-8191	255	
11934.858	1	1	0	0	0.18666	0.17806	0.30968	0.30694	0.079654	0.033165	0.2939	0.27587	0.014489	0.10916	0.14213	0.19526	0.36757	0.22555	0.25011	0.27135	-1.6771	-2.1021	-2.4646	-2.0563	-2.0167	-2.4083	-2.1437	-2.5042	-1.9583	-1.9104	-2.2833	-2.0687	-2.2438	-2.5021	-1.9542	-2.375	162.455	131.507	97.620	-33.438	-168.511	-99.525	131.937	116.936	-59.851	0.549	178.551	81.561	-60.212	-167.729	130.701	166.295	0.00066108	0.00052563	8.8464e-05	678.85	3.6996e-06	2.2649e-06	734.7	225.77	3.7415e-06	5.1574e-06	278.15	113.46	82.805	44.351	3.4159e-06	65.003	0.00024018	0.00019063	5.2277e-05	661.19	2.0346e-06	2.0326e-06	718.44	219.88	2.0181e-06	1.9706e-06	267.42	111.61	80.425	43.656	2.0451e-06	63.986	177.678	-81.600	-107.304	-161.604	-5.774	-65.101	-161.971	-156.779	-75.062	-20.312	-157.734	-152.766	-152.178	-145.791	-44.189	-148.659	-8191	255	
11934.954	1	1	0	0	0.15526	0.16374	0.17629	0.20097	0.15174	0.15229	0.01439	0.35313	0.14149	0.2538	0.23415	0.25484	0.056839	0.25543	0.29898	0.24887	-1.8896	-1.9583	-2.3208	-1.9438	-2.0479	-2.2271	-1.9146	-2.2292	-2.1833	-1.8771	-2.6021	-1.9104	-2.0417	-2.4521	-1.9062	-2.4646	138.842	99.765	-146.749	133.490	-26.272	-5.458	179.218	166.223	171.986	85.647	158.441	127.820	-158.417	134.873	-87.614	133.931	0.0007081	0.00028588	0.00014743	686.08	4.9416e-06	4.5927e-06	736.61	227.65	4.1485e-06	3.8498e-06	279.71	115.79	83.883	44.795	4.6272e-06	65.732	0.00023571	0.0001806	4.8743e-05	665.1	1.9183e-06	1.9539e-06	720.53	223.36	1.988e-06	1.9485e-06	270.74	113.01	81.356	44.046	1.9952e-06	64.512	182.219	-73.507	-94.093	-161.296	-27.696	-26.904	-162.087	-156.327	-94.608	-56.855	-158.107	-153.185	-152.445	-145.990	-70.263	-148.795	-8191	255	
11935.073	1	1	0	0	0.27818	0.076502	0.35618	0.38117	0.26712	0.26628	0.083824	0.29307	0.15215	0.11506	0.35186	0.039347	0.033919	0.13088	0.15465	0.098336	-1.6708	-1.9708	-2.3833	-2.0229	-2.0021	-2.4396	-1.7667	-2.4583	-2.3292	-1.8833	-2.3	-2.1521	-1.9542	-2.4104	-1.9458	-2.4	134.636	125.478	63.418	180.810	119.072	-65.736	83.463	68.029	159.989	-96.943	156.549	-62.522	77.864	98.953	83.958	42.746	0.00074638	0.00040513	8.0175e-05	675.82	2.5579e-06	4.6787e-06	739.14	226.3	5.7891e-06	7.031e-06	284.09	115.42	82.972	44.378	4.6587e-06	65.133	0.00023903	0.00017779	4.9635e-05	662.2	1.9549e-06	1.9555e-06	721.52	221.79	2.0339e-06	1.9857e-06	271.13	113.01	80.653	43.735	2.0388e-06	64.086	181.338	-85.124	-82.601	-161.479	-70.769	-22.047	-162.391	-156.751	-70.822	-6.254	-159.129	-153.908	-153.303	-146.829	-43.951	-149.201	-8191	255	
11935.169	1	1	0	0	0.18573	0.068951	0.20894	0.089265	0.090355	0.3353	0.1191	0.098748	0.21336	0.14161	0.17762	0.024256	0.14434	0.20272	0.11543	0.05731	-1.7208	-1.8312	-2.05	-2.1896	-1.9104	-2.4271	-2.0125	-2.1542	-2.0812	-1.8146	-2.175	-2.2271	-1.9458	-2.4083	-1.925	-2.1771	117.279	158.230	-54.032	94.828	176.384	-2.886	123.912	108.663	-32.851	28.465	-170.024	-56.554	-103.853	-143.151	-97.433	162.841	0.00076054	0.00038666	0.00014116	678.3	5.4231e-06	4.8488e-06	737.81	226.45	4.6306e-06	1.5963e-06	281.44	115.27	82.942	44.697	4.7557e-06	64.948	0.00024394	0.00018795	5.1146e-05	662.04	2.0093e-06	2.0236e-06	721.09	221.47	2.0549e-06	2.0641e-06	270.34	113.18	80.858	43.907	2.0859e-06	64.165	180.493	-67.017	-146.837	-162.082	-39.546	-18.359	-162.757	-157.078	-76.814	-47.771	-158.685	-153.456	-153.302	-146.867	-54.002	-149.588	-8191	255	
11935.265	1	1	0	0	0.057548	0.29599	0.15184	0.17242	0.14966	0.051709	0.31886	0.13686	0.18668	0.16286	0.10138	0.19619	0.25996	0.086199	0.081968	0.070544	-1.8896	-1.675	-2.0708	-2.05	-1.8979	-2.5062	-2.15	-2.0542	-2.1708	-2.0563	-2.0417	-2.2833	-1.675	-2.4542	-2.0583	-2.1083	178.198	-117.030	-86.018	-151.636	130.645	-53.782	-173.757	-134.688	55.919	-135.411	-96.462	106.778	167.268	16.572	128.264	163.061	0.00069676	0.00057724	0.00016859	680.74	3.1342e-06	2.8084e-06	738.27	225.05	3.2016e-06	3.6307e-06	273.81	112.84	81.462	43.08	3.02e-06	62.824	0.00024295	0.00018993	5.2308e-05	662.98	2.0422e-06	2.0128e-06	721.64	219.88	2.0724e-06	2.0028e-06	266.66	110.83	79.25	42.515	2.1443e-06	61.705	181.674	-88.871	-85.444	-162.085	-14.298	-90.708	-162.560	-157.390	-37.558	-76.939	-158.531	-153.762	-153.421	-146.594	-48.880	-149.558	-8191	255	
11935.361	1	1	0	0	0.11897	0.24676	0.093752	0.088375	0.26283	0.039148	0.17546	0.21882	0.15507	0.056712	0.24494	0.16478	0.029968	0.32814	0.10265	0.40153	-1.9562	-1.9104	-2.1437	-2.0896	-1.8354	-2.425	-2.2375	-2.025	-2.2271	-2.0375	-1.9937	-2.3042	-1.7021	-2.2229	-2.1083	-2.1479	139.682	178.720	81.443	-145.513	-19.771	183.887	-145.800	-141.356	-158.679	-82.760	155.230	-61.325	66.604	-108.562	6.406	159.077	0.00069498	0.00028358	0.0001926	678.31	2.3927e-06	3.2602e-06	729.72	220.91	4.7259e-06	5.2745e-06	270.5	108.87	79.243	41.676	3.0725e-06	60.701	0.00023946	0.0001926	5.4623e-05	660.31	2.2071e-06	2.198e-06	714.26	216.3	2.3284e-06	2.2488e-06	262.03	107.1	77.413	41.249	2.4357e-06	59.722	-173.329	-43.965	-120.098	-162.541	-95.901	-40.931	-163.150	-157.411	-26.714	-29.070	-158.489	-153.857	-153.587	-146.989	-65.676	-149.849	-8191	255	
11935.457	1	1	0	0	0.32175	0.19204	0.15804	0.20446	0.089923	0.044198	0.27336	0.078711	0.10102	0.18757	0.10405	0.17833	0.14162	0.244	0.10713	0.14822	-1.8125	-1.8563	-1.9271	-2.4417	-1.7062	-2.325	-2.1229	-1.9875	-2.3271	-1.9104	-2.15	-2.4021	-1.7104	-2.35	-2.1792	-1.9188	48.058	118.791	73.748	-48.877	127.108	-3.644	129.237	71.011	-154.296	26.376	66.420	130.586	-166.692	-123.936	-127.301	90.260	0.00067973	0.00047304	0.00015522	673.33	3.5543e-06	4.5941e-06	726.45	219.2	3.6459e-06	5.0397e-06	268.28	108.1	78.108	41.676	2.3081e-06	60.791	0.00026574	0.00022671	6.2313e-05	659.07	2.5204e-06	2.5193e-06	711.9	214.77	2.5721e-06	2.5869e-06	260.47	106.15	76.994	41.152	2.5884e-06	59.886	179.783	-66.180	-78.757	-162.708	-45.507	-21.999	-163.073	-157.716	-82.875	-48.332	-159.258	-153.959	-153.399	-146.961	-61.993	-149.773	-8191	255	
11935.553	1	1	0	0	0.25399	0.20306	0.14463	0.13894	0.13565	0.22138	0.018944	0.076179	0.026269	0.17486	0.0463	0.40453	0.15042	0.15686	0.072027	0.26277	-1.825	-1.9521	-2.0354	-2.4792	-1.9792	-2.0646	-2.2146	-1.8937	-2.1688	-1.9896	-1.9979	-2.4333	-1.775	-2.2438	-2.3187	-2.0312	-77.050	127.839	-1.801	-44.384	16.778	-5.721	44.626	56.511	42.070	-164.588	96.708	148.584	-35.275	58.271	79.169	147.045	0.00068541	0.0003435	0.00016522	675.68	4.5777e-06	4.5202e-06	727.14	219.48	4.485e-06	1.0291e-06	268.82	109.68	79.052	42.475	4.2621e-06	62.414	0.00027784	0.00022542	6.2397e-05	658.83	2.4095e-06	2.4256e-06	711.83	215.43	2.326e-06	2.2753e-06	261.36	107.96	77.375	41.917	2.2428e-06	61.395	181.478	-69.475	-140.753	-162.660	-51.003	37.742	-163.295	-157.711	-89.934	29.821	-159.396	-154.130	-153.315	-146.854	-16.877	-150.085	-8191	255	
11935.650	1	1	0	0	0.11678	0.079635	0.11483	0.16504	0.15302	0.12494	0.11286	0.18856	0.087663	0.1883	0.13459	0.34876	0.22911	0.33485	0.13429	0.14936	-1.7792	-1.9875	-1.7583	-2.3292	-1.975	-2.0479	-2.2833	-1.8104	-2.1896	-2.1625	-1.9479	-2.3604	-2.1021	-2.2896	-2.2188	-1.9021	-128.218	167.756	-100.461	19.316	-62.210	-99.775	-104.703	140.480	166.192	164.572	-85.964	-89.676	55.132	-138.007	-42.434	96.843	0.00073349	0.00040151	0.00013294	679.18	2.819e-06	3.748e-06	728.43	219.88	5.6064e-06	3.0851e-06	274.2	111.57	80.214	42.837	4.1716e-06	62.936	0.0002527	0.00020132	5.4943e-05	657.83	2.1583e-06	2.1617e-06	716.58	216.01	2.161e-06	2.1558e-06	264.74	109.47	78.181	42.327	2.1281e-06	62.149	183.474	-74.172	-63.764	-162.516	-37.681	-85.365	-163.306	-157.536	-78.714	35.373	-158.904	-154.025	-153.135	-146.755	-36.774	-149.769	-8191	255	
11935.746	1	1	0	0	0.09242	0.28336	0.21653	0.085749	0.011996	0.186	0.16444	0.31522	0.097867	0.1858	0.18895	0.25371	0.061238	0.30507	0.19765	0.23426	-1.6542	-2.0958	-1.7938	-2.3417	-2.0604	-2.1479	-2.5	-2.0042	-2.125	-2.075	-1.8396	-2.525	-1.8667	-1.9521	-2.2292	-2.0583	-4.764	-80.143	-21.711	-141.793	-96.979	-42.809	-159.207	-164.999	79.533	169.518	81.202	-155.989	-112.193	176.938	-78.607	92.744	0.00066595	0.00019695	0.00014219	674.51	3.0618e-06	5.1078e-06	733.47	220	5.4736e-06	2.6205e-06	272.2	110.36	80.427	43.069	1.644e-06	62.694	0.00023863	0.00019584	5.4855e-05	658.73	2.1465e-06	2.0965e-06	716.53	215.48	2.0728e-06	2.0622e-06	263.77	108.96	78.411	42.386	2.1602e-06	61.848	182.885	-39.570	-88.443	-162.287	-55.550	-44.886	-163.383	-157.699	-59.051	-63.660	-159.018	-153.943	-153.278	-146.946	-18.813	-150.047	-8191	255	
11935.865	1	1	0	0	0.22171	0.056325	0.2481	0.17879	0.056299	0.16266	0.059281	0.12937	0.22075	0.20242	0.12788	0.14293	0.10798	0.080998	0.15286	0.21128	-1.7771	-2.2604	-1.9896	-2.2917	-2.0896	-1.8937	-2.2687	-1.8854	-2.1417	-2.2604	-1.9042	-2.3187	-2.1625	-1.8937	-2.4417	-2.0354	-52.722	-100.365	89.989	-131.151	-1.732	-26.772	122.981	121.412	157.893	145.709	-7.604	139.791	-59.808	-139.847	-70.347	131.026	0.00071445	0.0005963	0.00019455	679.91	2.6133e-06	4.8111e-06	730.94	222.36	4.0986e-06	4.5999e-06	272.18	111.91	79.896	43.277	5.2023e-06	63.271	0.00024617	0.00018693	5.3081e-05	661.61	2.0664e-06	2.0758e-06	715.99	217.42	2.0498e-06	2.0672e-06	263.71	109.69	78.736	42.546	2.1559e-06	62.228	182.201	-71.956	-51.243	-162.305	-65.891	-23.195	-163.458	-157.656	-63.955	42.944	-159.245	-153.915	-153.714	-146.913	-49.610	-150.046	-8191	255	
11935.961	1	1	0	0	0.42691	0.054024	0.18427	0.19718	0.35496	0.17012	0.12863	0.32991	0.15077	0.051427	0.19881	0.16486	0.038065	0.20016	0.187	0.013465	-1.6417	-2.3042	-1.625	-2.2687	-2.1208	-1.6854	-2.2958	-2.0729	-2.1188	-2.2896	-1.9688	-2.25	-2.1667	-1.9813	-2.1708	-2.1083	-114.506	-54.338	-152.918	-154.463	84.276	-0.362	11.851	111.791	150.238	73.771	111.700	93.183	-43.715	137.919	85.970	175.295	0.00070719	0.00042342	0.00010465	678.81	2.3219e-06	8.0382e-07	734.81	222.58	3.7042e-06	5.3195e-06	271.96	112.33	81.151	43.441	3.7433e-06	63.506	0.00025008	0.00019354	5.4633e-05	661.95	2.0802e-06	2.0883e-06	717.32	217.64	2.0828e-06	2.1156e-06	264.89	110.34	78.958	42.693	2.1241e-06	62.503	180.360	-81.570	-75.856	-162.569	-34.885	-28.022	-163.195	-157.506	-30.659	-68.721	-159.215	-154.202	-153.186	-146.948	-53.609	-149.510	-8191	255	
11936.034	1	1	0	0	0.25923	0.15382	0.2784	0.32725	0.088705	0.18624	0.19338	0.13524	0.14855	0.089536	0.068605	0.2631	0.081889	0.084319	0.064364	0.20664	-1.3875	-2.2979	-1.675	-2.1646	-2.125	-1.8792	-2.3458	-2.1479	-1.7667	-2.2708	-1.7229	-2.2083	-2.3646	-1.95	-2.2125	-1.8833	-82.548	-83.850	-134.891	157.237	9.157	-150.728	28.698	177.514	-167.492	-52.880	64.707	0.498	103.416	156.139	158.029	92.010	0.00067048	0.00022536	0.00012373	681.36	1.7075e-06	4.195e-06	734.48	221.26	3.6898e-06	4.6358e-06	276.81	112.97	80.606	43.366	3.7482e-06	63.418	0.0002443	0.00019416	5.4838e-05	662.39	2.1018e-06	2.0906e-06	719.06	217.32	2.0787e-06	2.13e-06	267.35	110.63	78.984	42.729	2.1558e-06	62.639	182.592	-64.979	-99.250	-162.665	-57.881	-39.200	-163.265	-157.441	-66.178	-46.364	-158.988	-154.049	-153.622	-146.800	-46.889	-149.613	-8191	255	
11936.153	1	1	0	0	0.34678	0.12511	0.48593	0.15071	0.12746	0.16616	0.19813	0.066926	0.23868	0.1843	0.18526	0.18626	0.098239	0.38477	0.13071	0.11369	-1.3958	-2.0938	-1.7479	-2.075	-2.1354	-1.7563	-2.2188	-2.2146	-1.7875	-2.4146	-1.8917	-2.1979	-2.2604	-1.9229	-2.1958	-2.2812	27.633	-91.847	70.689	-26.415	130.201	-119.019	133.222	-166.978	131.525	-153.969	142.866	142.164	137.190	-122.930	177.237	-23.269	0.00068471	0.00038435	8.3821e-05	673.16	3.9163e-06	4.9658e-06	737	220.59	5.19e-06	4.5119e-06	274.76	112.4	80.437	43.191	3.7853e-06	63.224	0.00024794	0.00019257	5.4518e-05	660.43	2.1265e-06	2.1062e-06	720.03	216.55	2.1877e-06	2.089e-06	264.61	110.18	78.737	42.681	2.151e-06	62.316	179.693	-104.118	-108.136	-162.344	-53.951	-39.393	-163.543	-157.399	-57.661	-52.622	-159.090	-153.839	-153.555	-146.798	-69.886	-149.679	-8191	255	
11936.249	1	1	0	0	0.24376	0.056035	0.10083	0.40389	0.22286	0.12389	0.2802	0.031702	0.41446	0.045143	0.092695	0.33046	0.12491	0.25024	0.30748	0.14286	-1.4354	-2.3104	-1.8813	-1.85	-2.2792	-1.8396	-2.2333	-2.0396	-1.7188	-2.3042	-1.9354	-2.1396	-2.1792	-1.9375	-2.1562	-2.3187	173.095	139.099	82.218	155.780	180.289	29.964	88.578	-71.676	-92.647	-117.152	-166.525	-131.946	-117.544	6.387	-52.779	142.549	0.00069247	0.00051065	0.00018411	679.33	3.3414e-06	3.0908e-06	736.58	221.07	2.201e-06	5.5585e-06	273.48	111.41	80.794	43.008	3.2847e-06	62.644	0.00024801	0.00018963	5.3535e-05	659.08	2.1419e-06	2.1083e-06	717.94	216.2	2.1162e-06	2.0907e-06	264.6	109.51	78.589	42.332	2.1072e-06	61.793	179.072	-66.769	-78.324	-162.249	-80.080	-25.926	-163.215	-157.598	-51.427	-30.353	-158.856	-154.132	-153.139	-146.633	-64.903	-149.577	-8191	255	
11936.345	1	1	0	0	0.082777	0.18924	0.17955	0.14747	0.13062	0.060851	0.47246	0.22901	0.080328	0.24805	0.20943	0.026078	0.17087	0.28501	0.039117	0.32397	-1.4208	-2.1417	-1.8625	-1.8792	-2.3771	-1.7083	-2.2354	-2.0563	-1.65	-2.4229	-1.8563	-1.9104	-2.3854	-1.9208	-2.1083	-2.4104	-12.668	82.465	93.832	136.095	-75.046	7.977	148.063	-169.540	52.928	166.771	125.530	-133.868	66.830	-171.238	-2.515	109.627	0.00070471	0.00068621	6.4565e-05	676.66	1.3753e-06	3.2547e-06	734.43	221.3	4.3101e-06	3.5384e-06	273.71	112	81.002	42.903	4.4546e-06	63.197	0.00024524	0.00019244	5.4081e-05	659	2.1124e-06	2.1022e-06	717.84	216.77	2.1236e-06	2.0992e-06	264.79	109.88	78.513	42.379	2.0662e-06	62.051	178.794	-66.952	-97.568	-162.304	-23.997	-35.153	-163.210	-157.404	-82.678	-58.050	-159.302	-153.946	-153.634	-146.987	-46.974	-149.698	-8191	255	
11936.466	1	1	0	0	0.50215	0.13963	0.081629	0.12095	0.15392	0.12454	0.15162	0.063497	0.12251	0.33418	0.16684	0.18759	0.020845	0.31327	0.15387	0.19266	-1.3458	-2.2021	-2.0396	-1.9896	-2.3438	-1.8687	-2.2062	-2.3583	-1.8125	-2.2	-2.0208	-1.9042	-2.2833	-2.0417	-2.2188	-2.4625	156.494	118.294	-41.675	78.001	-81.401	110.043	127.781	-91.999	169.754	-147.233	-153.033	-160.482	-73.284	78.688	-50.877	84.216	0.00065935	0.0005284	7.5349e-05	678.1	3.5335e-06	5.0598e-06	732.91	221.69	3.7591e-06	3.5604e-06	274.39	111.74	80.425	43.149	5.0282e-06	63.15	0.00025169	0.00019092	5.4664e-05	661.89	2.0832e-06	2.1302e-06	718.71	216.89	2.1808e-06	2.121e-06	265.76	110.02	78.643	42.517	2.0978e-06	62.301	182.097	-94.033	-78.347	-162.510	-60.522	-16.885	-163.172	-157.558	-28.656	-11.538	-158.667	-153.731	-153.815	-146.757	-45.723	-149.490	-8191	255	
11936.562	1	1	0	0	0.025196	0.19537	0.084598	0.14742	0.092177	0.1621	0.33935	0.18295	0.47398	0.14527	0.096351	0.095844	0.039885	0.23887	0.13187	0.14389	-1.2896	-2.0229	-2.0771	-1.6354	-2.3271	-1.875	-2.0521	-2.2958	-1.8917	-2.1354	-2.0938	-1.8438	-2.2625	-2.1188	-1.85	-2.4396	36.870	-3.145	16.102	123.677	-88.993	70.846	77.583	-128.817	-11.814	-172.814	129.620	165.840	-33.708	182.532	123.303	125.240	0.00073676	0.00033878	5.0738e-05	681.7	6.9126e-06	5.0835e-06	739.89	221.57	4.634e-06	4.1639e-06	276.92	112.69	81.065	43.559	2.4174e-06	63.717	0.0002463	0.00019503	5.4501e-05	662.56	2.0925e-06	2.0865e-06	721.58	217.55	2.1363e-06	2.1395e-06	266.81	110.5	78.844	42.77	2.1391e-06	62.594	181.673	-141.581	-72.095	-162.191	-25.062	-6.096	-162.852	-157.234	-36.521	-37.019	-158.875	-153.658	-153.109	-146.694	-65.599	-149.298	-8191	255	
11936.634	1	1	0	0	0.22214	0.16378	0.057165	0.18821	0.13404	0.30326	0.26117	0.29886	0.18572	0.4149	0.21834	0.25266	0.28891	0.41663	0.17221	0.29813	-1.6042	-2.0062	-2.1604	-1.7646	-2.2812	-1.8813	-1.9104	-2.45	-1.7771	-2.0187	-2.2604	-1.8375	-2.2396	-2.2313	-1.7792	-2.5	81.269	-49.665	117.770	85.698	-37.218	-13.112	143.482	-154.630	-99.346	50.543	105.368	-126.787	176.139	63.018	-37.602	63.750	0.00069926	0.00049563	0.00016964	680.81	2.833e-06	2.9598e-06	734.38	223.44	4.887e-06	4.9018e-06	275.45	112.74	82.141	43.838	2.0827e-06	64.189	0.00024513	0.00019076	5.1677e-05	663.06	2.0713e-06	2.1483e-06	718.36	219.07	2.1219e-06	2.0613e-06	266.25	110.66	79.836	43.296	2.1129e-06	63.157	183.036	-76.553	-123.394	-162.258	-40.317	-95.699	-162.924	-157.498	-54.558	-18.765	-159.621	-153.416	-152.925	-146.425	-76.980	-148.906	-8191	255	
11936.754	1	1	0	0	0.043915	0.2007	0.19789	0.1776	0.37844	0.12203	0.25267	0.11343	0.24889	0.17639	0.17082	0.40413	0.13499	0.12036	0.26393	0.10896	-1.5604	-2.025	-2.1375	-1.7521	-2.3417	-2.2271	-2.0167	-2.5917	-1.9188	-1.9229	-2.3604	-2.0229	-2.2667	-2.2625	-1.8583	-2.275	165.243	-146.062	181.336	-169.227	164.485	-129.641	132.230	88.021	142.255	121.515	-100.569	128.745	-117.803	-72.423	8.693	32.634	0.00072587	0.0005352	0.00012584	680.07	4.8622e-06	3.8208e-06	733.18	223.53	2.3276e-06	2.6664e-06	276.49	113.48	81.572	44.027	3.0741e-06	64.044	0.00024688	0.00018852	5.3912e-05	663.49	2.0668e-06	2.0307e-06	717.69	219.13	2.0949e-06	2.0785e-06	266.37	111.03	79.759	43.314	2.1593e-06	63.131	178.954	-94.944	-95.259	-161.825	-11.333	-55.568	-162.773	-156.863	-69.082	-26.718	-158.053	-153.519	-152.686	-146.317	-59.132	-149.097	-8191	255	
11936.851	1	1	0	0	0.13996	0.21169	0.12048	0.091778	0.056597	0.081573	0.14919	0.020008	0.15529	0.078386	0.079524	0.084241	0.16481	0.18609	0.11628	0.33549	-1.5979	-2.1417	-2.3333	-1.8792	-2.2438	-2.1813	-1.8521	-2.1667	-2.1229	-1.7896	-2.3375	-1.875	-1.9771	-2.2729	-1.6958	-2.4188	-6.541	-114.399	-107.230	182.255	163.109	-0.861	157.049	125.055	163.275	112.735	124.812	-44.767	169.268	179.991	169.490	112.956	0.00069319	0.00038339	7.1742e-05	683.22	4.3256e-06	4.8568e-06	735.04	224.35	4.5978e-06	3.9702e-06	274.78	113.78	81.727	44.021	4.3161e-06	64.26	0.00024288	0.00019	5.4194e-05	663.18	2.0338e-06	2.1282e-06	717.45	219.19	2.147e-06	2.0913e-06	266.7	111.31	79.856	43.326	2.1453e-06	63.365	181.494	-66.616	-95.558	-161.958	-40.767	-47.486	-162.982	-157.514	-69.028	-47.558	-159.273	-154.166	-153.405	-147.303	-46.195	-150.010	-8191	255	
11936.945	1	1	0	0	0.093129	0.033937	0.12036	0.31104	0.053077	0.045469	0.2198	0.28552	0.14521	0.10373	0.3577	0.32294	0.18031	0.21073	0.12232	0.092821	-1.6	-1.7292	-2.2687	-1.9396	-1.9417	-2.4917	-1.9562	-2.2062	-2.0479	-1.7833	-2.5458	-2.0417	-2.0062	-2.3604	-1.8917	-2.275	114.712	168.774	-150.498	-132.837	123.187	40.065	-40.429	66.696	97.368	-159.354	-125.390	105.788	-40.911	180.125	130.510	159.739	0.00070036	0.00040193	0.0001047	680.74	6.8335e-06	2.5703e-06	737.15	223.02	5.6078e-06	3.6992e-06	277.08	113.43	82.2	43.82	4.8915e-06	64.14	0.00024707	0.00019045	5.3617e-05	661.51	2.1036e-06	2.0588e-06	719.94	218.81	2.058e-06	2.0308e-06	267	111.4	79.703	43.238	2.1395e-06	63.124	182.985	-68.770	-108.774	-162.689	-34.342	-1.572	-163.161	-157.828	-69.444	-10.359	-158.784	-153.800	-153.326	-147.008	-51.386	-149.895	-8191	255	
11937.041	1	1	0	0	0.03668	0.14635	0.33466	0.19594	0.30526	0.32668	0.29233	0.043403	0.13859	0.068575	0.07993	0.16407	0.10217	0.057593	0.16069	0.13511	-1.7521	-1.7437	-2.2667	-2.0563	-2.0375	-2.3667	-2.05	-2.3063	-2.0208	-1.7687	-2.3375	-1.9167	-2.0292	-2.3417	-1.7646	-2.0833	-68.670	-84.529	39.974	117.072	65.823	15.380	64.914	-81.917	160.982	-167.297	27.727	154.014	-91.717	-99.918	118.158	57.098	0.00069815	0.00057353	0.00014123	678.76	3.2778e-06	1.2062e-06	729.17	223.44	5.667e-06	7.0403e-06	273.46	112.12	80.991	43.535	2.4371e-06	63.129	0.00024074	0.00018656	5.2862e-05	661.05	2.0604e-06	2.0258e-06	716.23	218.36	2.0629e-06	2.0711e-06	265.11	110.14	79.179	42.856	2.074e-06	62.141	181.132	-76.556	-66.319	-161.622	-60.091	-30.793	-162.842	-157.052	-103.576	-35.600	-158.638	-153.696	-153.382	-146.735	-52.641	-149.905	-8191	255	
11937.162	1	1	0	0	0.099945	0.28217	0.18191	0.16047	0.072916	0.07769	0.079849	0.3609	0.29651	0.19233	0.26951	0.24085	0.33914	0.10065	0.37963	0.35459	-1.9104	-1.5771	-2.3958	-2.1292	-1.7875	-2.4688	-2.0187	-2.0812	-2.1729	-1.6437	-2.25	-2.0312	-1.7896	-2.3563	-1.7	-2.125	-17.837	-66.165	-16.878	126.295	56.383	-9.177	36.385	97.435	71.480	-62.422	-151.551	-153.801	166.955	-136.198	59.514	176.076	0.00068302	0.00057786	8.6579e-05	674.29	2.1995e-06	4.1599e-06	732.28	221.59	2.7739e-06	2.7822e-06	272.82	112.66	81.293	43.662	5.005e-06	63.477	0.00024088	0.00019281	5.2148e-05	659.07	2.0427e-06	2.0828e-06	714.4	217.67	2.09e-06	2.0619e-06	263.93	109.99	79.337	42.86	2.0874e-06	62.277	180.541	-100.703	-62.687	-162.361	-0.608	-8.981	-163.041	-157.601	-65.001	6.977	-158.762	-153.893	-153.397	-146.584	-43.639	-149.404	-8191	255	
11937.258	1	1	0	0	0.23388	0.15795	0.11763	0.13324	0.059314	0.052549	0.086872	0.14375	0.12632	0.12704	0.01037	0.21804	0.193	0.22525	0.26511	0.23135	-1.7021	-1.7854	-1.9896	-1.9854	-1.8813	-2.1875	-1.8687	-2.0938	-2.2833	-1.7687	-2.175	-2.1437	-1.7396	-2.4125	-2.0667	-2.0896	-101.661	31.461	-48.033	143.736	27.304	35.411	49.552	148.357	-113.007	-157.443	-62.690	-168.279	21.872	170.302	-145.030	101.912	0.00073195	0.00052515	0.00013412	677.66	3.3714e-06	5.1576e-06	733.97	221.68	2.6398e-06	5.1013e-06	273.11	111.93	80.954	43.432	2.723e-06	63.277	0.00024587	0.00019037	5.2589e-05	659.76	2.0792e-06	2.0278e-06	714.91	217.18	2.1556e-06	2.0853e-06	263.37	110.02	79.004	42.81	2.1048e-06	62.194	178.349	-121.379	-88.030	-162.254	-42.371	-25.170	-163.026	-157.289	-79.122	-11.631	-158.655	-153.518	-153.352	-146.674	-58.928	-149.394	-8191	255	
11937.330	1	1	0	0	0.18719	0.211	0.11866	0.07451	0.17936	0.060211	0.20453	0.072488	0.12185	0.20338	0.083373	0.091885	0.084603	0.11285	0.028198	0.074126	-2.0667	-1.6604	-2.1479	-2.2479	-1.7958	-2.2271	-2.2167	-2.0667	-2.4021	-1.8333	-2.1083	-2.1667	-1.7979	-2.2896	-2.0729	-1.9	-108.082	-144.578	-27.006	153.272	-9.608	148.141	112.983	-92.922	172.735	-107.729	-55.922	-40.354	27.760	68.111	167.549	29.815	0.0007058	0.00048372	0.00016032	675.58	3.5515e-06	5.6104e-06	734	221.99	6.0279e-06	4.0921e-06	274.75	112.07	81.067	43.416	1.3153e-06	63.107	0.00024191	0.00018976	5.2788e-05	659.25	2.1017e-06	2.0323e-06	716.22	217.23	2.0564e-06	2.0521e-06	265.2	109.95	78.644	42.564	2.0588e-06	62.076	179.957	-105.427	-77.658	-161.981	-20.825	-44.938	-162.871	-156.846	-71.240	-60.685	-158.650	-153.743	-153.139	-146.644	-64.060	-149.129	-8191	255	
11937.426	1	1	0	0	0.11929	0.1236	0.18519	0.19025	0.20923	0.12709	0.31594	0.35557	0.24403	0.1695	0.11194	0.19068	0.027596	0.3636	0.0083134	0.35995	-1.775	-1.7979	-2.1333	-2.3104	-1.8687	-2.2833	-2.1479	-2.0042	-2.2958	-1.8583	-2.1875	-2.4354	-1.8438	-2.4146	-2.1208	-1.9396	-60.109	140.313	-160.738	154.627	-117.087	164.884	91.451	144.799	-169.948	-155.935	136.156	-139.049	-76.746	92.725	-25.160	136.920	0.00066893	0.00055558	8.7431e-05	673.95	5.1492e-06	5.7995e-06	726.48	221.15	3.1567e-06	5.184e-06	271.31	111.16	81.041	42.86	3.8369e-06	61.935	0.00024681	0.00018952	5.1505e-05	658.16	2.0808e-06	2.0047e-06	713.39	216.11	2.0575e-06	1.9818e-06	262.48	108.91	78.336	42.126	2.1116e-06	61.151	184.164	-86.641	-58.508	-161.955	-52.144	-21.522	-162.992	-157.663	-70.026	-71.273	-159.337	-153.746	-153.466	-147.019	-4.439	-149.655	-8191	255	
11937.546	1	1	0	0	0.076381	0.29951	0.20825	0.25476	0.047842	0.097366	0.24114	0.27086	0.15013	0.3338	0.081965	0.038823	0.1082	0.19021	0.15703	0.3039	-1.6812	-1.9646	-2.1104	-2.3292	-1.7792	-2.2125	-2.1937	-1.7812	-2.3187	-2.0271	-1.9937	-2.2458	-1.7667	-2.2542	-2.2958	-1.5833	123.157	-144.185	-124.665	34.207	177.086	13.631	115.060	84.457	9.990	30.536	4.300	-173.187	-108.623	97.933	-37.489	155.902	0.00066688	0.00016204	9.4592e-05	673.37	4.1122e-06	1.0288e-07	725.1	219.6	3.9698e-06	5.2486e-06	270.25	110.71	80.035	42.619	3.1335e-06	61.839	0.00023663	0.00018967	5.2285e-05	658.19	2.092e-06	2.0107e-06	711.7	215.56	2.0412e-06	1.9913e-06	261.74	108.5	78.2	42.11	2.11e-06	61.096	176.491	-12.025	-71.748	-161.769	-24.772	-39.269	-162.347	-157.902	-46.371	-30.861	-158.982	-154.005	-153.102	-147.554	-27.453	-150.600	-8191	255	
11937.643	1	1	0	0	0.048788	0.42636	0.041611	0.20785	0.14627	0.16888	0.23667	0.12534	0.21075	0.18996	0.041958	0.23452	0.1837	0.42108	0.043111	0.18386	-1.9458	-1.9188	-1.6896	-2.3104	-1.9458	-2.2188	-2.1917	-1.7687	-2.3125	-2.0542	-1.7604	-2.5958	-1.7833	-2.1063	-2.2625	-1.7146	-158.975	-99.138	-103.784	96.939	-162.373	-4.688	94.676	-151.904	33.047	141.740	123.356	132.179	-116.289	123.489	-98.749	64.779	0.00069421	0.00042349	9.8248e-05	674.78	4.7262e-06	3.3882e-06	727.56	220.35	2.9225e-06	4.1647e-06	272.48	111.72	80.164	42.835	2.181e-06	62.051	0.00023508	0.0001886	5.231e-05	656.7	2.0379e-06	2.0049e-06	711.73	215.55	2.1137e-06	2.02e-06	261.82	108.93	78.084	42.155	2.083e-06	61.163	182.259	-72.864	-99.099	-163.231	-41.122	-25.520	-163.741	-158.019	-70.299	-54.722	-159.278	-154.217	-153.978	-147.189	-37.023	-150.311	-8191	255	
11937.739	1	1	0	0	0.23457	0.17357	0.034188	0.094086	0.24572	0.28636	0.21611	0.23985	0.20602	0.1319	0.056814	0.086555	0.14443	0.093904	0.08014	0.15084	-1.7042	-2.0917	-1.7125	-2.1771	-2.0854	-1.8188	-2.4708	-1.9813	-2.1104	-2.1229	-1.7375	-2.4208	-1.8813	-2.0458	-2.2417	-1.8583	66.761	134.064	-100.718	144.735	154.987	182.079	123.734	139.739	-30.979	-141.515	-91.697	-44.800	-11.610	133.805	115.277	-75.578	0.00074416	0.00045228	8.4624e-05	675.08	3.1309e-06	3.7089e-06	725.45	220.03	4.4405e-06	3.6586e-06	270.41	111.31	79.528	42.878	4.5398e-06	62.359	0.00023947	0.0001907	5.1926e-05	658.39	2.0634e-06	2.1004e-06	712.15	215.16	2.0972e-06	2.0028e-06	261.61	109.01	78.05	42.234	2.0905e-06	61.332	180.083	-104.429	-92.356	-162.790	-22.800	16.581	-163.297	-157.746	-82.206	-62.220	-159.104	-154.249	-153.330	-147.017	-48.101	-149.903	-8191	255	
11937.835	1	1	0	0	0.15346	0.089321	0.22844	0.073981	0.020644	0.29975	0.14849	0.39437	0.12666	0.058873	0.3525	0.079282	0.19247	0.39307	0.17483	0.10966	-1.875	-2.2146	-1.8979	-2.2229	-1.8646	-1.8979	-2.4729	-1.8458	-2.1479	-2.1333	-1.8	-2.175	-2.0875	-1.8042	-2.3292	-1.9708	-113.479	123.902	134.278	-49.342	-21.534	172.059	-148.458	-151.741	-113.895	159.313	88.983	-29.301	179.887	-162.157	80.584	-157.283	0.00067676	0.00056664	0.00012957	675.12	1.3056e-06	2.637e-06	732	219.9	3.1389e-06	4.4479e-06	272.22	110.76	79.994	42.877	3.6851e-06	62.033	0.00023815	0.00018817	5.3465e-05	657.58	2.0238e-06	2.061e-06	713.94	215.9	2.1221e-06	2.0905e-06	262.74	109	78.153	42.272	2.0425e-06	61.224	178.435	-81.224	-95.130	-162.852	-33.570	-18.193	-163.301	-157.412	-68.898	-26.954	-159.004	-153.996	-153.654	-147.292	-93.929	-150.105	-8191	255	
11937.931	1	1	0	0	0.1209	0.086661	0.26741	0.27046	0.18501	0.21548	0.25568	0.17212	0.1565	0.073724	0.12162	0.13877	0.32614	0.20203	0.15067	0.15729	-1.5229	-2.1354	-1.8021	-2.0833	-1.8271	-1.8	-2.5	-2.0187	-2.0146	-2.2167	-1.8167	-2.2396	-2.0521	-1.975	-2.1771	-2.0958	-136.780	119.883	-137.740	141.611	-168.761	-169.590	-139.875	166.945	37.218	176.534	42.690	139.161	120.318	131.267	-146.020	22.954	0.00065064	0.00011249	0.00013752	675.52	3.8369e-06	4.3045e-06	728.2	220.19	9.3434e-07	3.2021e-06	272.3	111.26	80.294	42.807	4.2445e-06	62.13	0.00024362	0.0001852	5.255e-05	656.64	1.997e-06	2.0586e-06	710.35	215.52	2.0268e-06	2.0218e-06	262	108.71	78.386	42.224	2.06e-06	61.051	178.708	-93.520	-97.316	-162.452	-47.175	-45.606	-163.428	-158.004	-117.078	-80.708	-159.076	-154.596	-153.538	-146.994	-27.931	-149.904	-8191	255	
11938.027	1	1	0	0	0.18858	0.16866	0.31853	0.15181	0.18349	0.14802	0.11317	0.058077	0.23276	0.17619	0.20699	0.088216	0.10316	0.19228	0.16505	0.063794	-1.8583	-2.2833	-1.5854	-2.1688	-2.1375	-1.8729	-2.3125	-2.0354	-1.7875	-2.1854	-1.8104	-2.2021	-2.2438	-1.8604	-2.2021	-2.0687	-103.767	83.291	121.722	154.118	80.536	-109.548	-108.464	-2.830	-138.488	-157.692	61.168	-156.097	-59.040	-167.272	-34.227	23.861	0.00070502	0.00056772	9.747e-05	671.17	2.9558e-06	2.5563e-06	724.79	218.68	3.521e-06	4.7036e-06	271.26	110.44	80.802	42.988	3.7157e-06	62.137	0.00023798	0.00018624	5.2219e-05	656.67	2.0344e-06	2.0319e-06	710.08	214.93	2.0826e-06	2.039e-06	261.47	108.49	78.429	42.3	2.0669e-06	61.138	176.684	-84.439	-124.851	-162.724	-61.041	-20.110	-163.544	-157.681	-43.524	-5.746	-158.967	-154.435	-153.489	-147.064	-42.231	-150.290	-8191	255	
11938.146	1	1	0	0	0.11127	0.17418	0.044293	0.27395	0.20846	0.033982	0.13124	0.16799	0.094636	0.11789	0.21953	0.03925	0.12583	0.17848	0.15196	0.17554	-1.4625	-2.1333	-1.7271	-2.0396	-2.1437	-1.7833	-2.2521	-2.2292	-1.7188	-2.5021	-1.7917	-2.0792	-2.1667	-1.8833	-2.1521	-2.3479	-80.509	-110.690	27.565	-160.323	39.549	-67.020	5.304	-170.260	-144.160	-128.187	122.195	110.488	53.113	-93.091	117.918	177.454	0.00063821	0.00058462	0.00010257	676.64	7.0182e-08	2.002e-06	730.19	221.25	4.8312e-06	4.8954e-06	271.49	110.5	80.167	43.026	3.9941e-06	62.178	0.00024489	0.00018384	5.2872e-05	658.01	2.0539e-06	2.1122e-06	711.9	216.01	2.1381e-06	2.0892e-06	262.16	108.88	78.505	42.416	2.1019e-06	61.326	180.995	-94.705	-41.270	-162.504	-69.193	-36.857	-163.819	-157.893	-70.411	-41.628	-158.942	-154.253	-153.431	-147.519	-51.130	-150.120	-8191	255	
11938.242	1	1	0	0	0.28415	0.043832	0.15167	0.078416	0.142	0.078836	0.24972	0.27472	0.21997	0.21713	0.13173	0.33814	0.16186	0.18796	0.18251	0.12286	-1.5833	-2.6146	-1.8333	-1.9875	-2.2313	-1.9438	-2.3229	-2.3187	-1.8	-2.2729	-2.0271	-2.1292	-2.2458	-2	-2.1813	-2.1708	108.181	122.573	-43.389	-45.278	-130.776	-95.623	48.185	164.117	-64.430	-19.992	-31.465	136.857	118.824	177.751	-45.233	15.240	0.00065954	0.00038311	0.00013505	675.78	1.9416e-06	2.5877e-06	723.89	219.46	3.9286e-06	2.6354e-06	272.94	111.33	80.728	42.932	4.8559e-06	62.481	0.00023986	0.0001839	5.3601e-05	657.29	2.0404e-06	2.0785e-06	711.46	215.29	2.1272e-06	2.0668e-06	263.56	109.46	78.636	42.387	2.0836e-06	61.627	180.717	-83.934	-106.463	-162.497	-106.179	-50.602	-163.595	-157.978	-80.631	-64.457	-159.611	-154.421	-154.281	-146.995	-51.037	-150.342	-8191	255	
11938.338	1	1	0	0	0.19084	0.13858	0.31385	0.3022	0.16267	0.11551	0.33515	0.38906	0.13227	0.179	0.1036	0.38875	0.21154	0.17231	0.026488	0.16853	-1.0792	-2.1896	-1.9833	-1.9417	-2.3583	-2.0271	-2.3333	-2.1625	-1.7062	-2.2646	-2.0875	-2.0625	-2.1729	-2.0792	-2.1125	-2.2792	88.436	-3.361	53.863	43.266	-87.855	53.711	135.685	104.750	-2.405	81.192	119.768	161.962	-151.605	-141.946	51.224	164.516	0.0006887	0.00036388	0.00017417	677.03	2.9224e-06	4.663e-06	725.37	218.39	4.5367e-06	5.4068e-06	270.65	111.31	80.887	43.089	4.0261e-06	62.301	0.00024188	0.00019225	5.4382e-05	658.73	2.0758e-06	2.0575e-06	711.33	214.68	2.1121e-06	2.0652e-06	261.89	109.09	78.62	42.514	2.1262e-06	61.342	178.393	-85.071	-105.538	-162.714	-12.974	-30.548	-163.597	-157.951	-35.228	-38.667	-159.123	-154.443	-153.684	-147.447	-66.442	-150.160	-8191	255	
11938.434	1	1	0	0	0.23374	0.087191	0.02104	0.10864	0.13961	0.076634	0.31224	0.071779	0.08996	0.19303	0.10174	0.2407	0.014352	0.19603	0.1706	0.30823	-1.3125	-2.3125	-1.8604	-1.9375	-2.3083	-1.7896	-2.1521	-2.2792	-1.8604	-2.0687	-1.9896	-2.0667	-2.2687	-1.975	-1.9854	-2.2833	176.088	143.061	-168.651	138.520	-158.509	-62.650	132.220	158.616	-55.028	-42.625	148.164	62.104	16.241	127.418	56.358	78.266	0.00071548	0.00020917	0.00014088	673.49	1.9535e-06	3.8992e-06	725.53	218.56	3.5232e-06	4.9272e-06	271.2	112.95	82.421	44.246	4.0529e-06	64.266	0.00024518	0.00018493	5.4237e-05	654.76	2.0557e-06	2.0789e-06	709.47	215.06	2.0874e-06	2.0223e-06	262.95	110.35	79.51	43.53	2.0417e-06	63.337	176.952	-102.066	-61.032	-162.749	-53.939	-48.348	-163.504	-157.763	-63.461	-75.806	-158.683	-154.124	-153.275	-147.028	-60.970	-150.018	-8191	255	
11938.555	1	1	0	0	0.20515	0.31683	0.2091	0.30915	0.11743	0.18633	0.17748	0.21574	0.063254	0.18192	0.15112	0.12504	0.2254	0.28877	0.32899	0.14756	-1.1833	-2.3625	-2.0917	-1.8792	-2.3583	-2.175	-2.0396	-2.3167	-1.9146	-2.3625	-2.1542	-1.8792	-2.2958	-1.9688	-2.0687	-2.4521	50.864	-25.063	-101.060	27.294	-42.488	145.476	131.893	174.862	-127.137	-4.234	-164.462	160.116	91.201	112.993	-69.256	33.810	0.00070514	0.00049862	8.3796e-05	677.57	2.1354e-06	3.4711e-06	730.96	222.38	5.8683e-06	3.3372e-06	278.94	116.21	84.066	45.772	2.2705e-06	66.406	0.00024215	0.00018501	5.09e-05	657.32	2.034e-06	2.0208e-06	715.39	218.94	2.045e-06	1.9952e-06	267.92	113.71	81.46	44.952	2.0015e-06	65.365	176.591	-108.915	-96.492	-162.855	-45.528	-26.795	-163.617	-157.701	-81.626	-8.282	-159.116	-154.064	-153.865	-147.221	-68.577	-150.055	-8191	255	
11938.627	1	1	0	0	0.092708	0.2016	0.1574	0.31065	0.152	0.22154	0.12946	0.16585	0.10038	0.22651	0.070872	0.12853	0.13547	0.1784	0.065762	0.21998	-1.5708	-2.1	-2.1	-1.8563	-2.275	-2.1312	-2.0875	-2.3021	-1.9875	-2.0417	-2.1583	-1.9167	-2.2396	-2.025	-1.9521	-2.6562	-171.400	-13.994	-122.838	171.518	164.323	3.219	152.261	153.312	-152.933	-69.828	-54.752	-153.555	132.199	-44.067	65.688	77.627	0.00073652	0.00056864	0.00011435	676.91	1.2867e-06	4.2802e-06	734.22	224.17	4.2453e-06	4.1261e-06	274.57	114.99	82.49	44.528	5.6256e-06	65.353	0.00024251	0.00017947	5.1749e-05	659.86	2.002e-06	2.0543e-06	718.65	219.25	2.0606e-06	2.0061e-06	266.9	112.84	80.442	44.032	2.0912e-06	64.275	181.046	-96.058	-110.700	-162.574	-50.801	-65.257	-163.239	-158.031	-92.559	-83.915	-158.847	-154.277	-153.494	-146.907	-43.326	-149.760	-8191	255	
11938.723	1	1	0	0	0.16172	0.43474	0.18929	0.29573	0.19399	0.090385	0.096825	0.018016	0.30464	0.15022	0.094675	0.047115	0.15754	0.12942	0.13222	0.20194	-1.6187	-1.925	-2.2	-1.9458	-2.2729	-2.1937	-1.9104	-2.5354	-2.0312	-1.9479	-2.3917	-1.9354	-2.2812	-2.2938	-1.9042	-2.3979	123.128	7.691	-164.835	179.918	-150.281	-20.038	-91.853	-143.543	-159.514	12.000	-96.399	-26.384	-42.977	-29.224	-37.452	74.390	0.00071096	0.00041138	0.00015343	675.09	2.607e-06	5.679e-06	729.91	220.91	5.4627e-06	8.6688e-07	275.37	112.77	81.643	44.191	3.3903e-06	64.292	0.00023931	0.00018801	5.2964e-05	657.48	2.0576e-06	2.0125e-06	716.67	216.56	2.0851e-06	2.0333e-06	265.6	111.2	79.823	43.567	2.115e-06	63.092	183.025	-91.064	-94.961	-162.900	-34.889	5.826	-163.673	-157.393	-65.816	-8.066	-159.258	-154.120	-154.105	-146.933	-49.329	-150.175	-8191	255	
11938.844	1	1	0	0	0.075038	0.12538	0.22927	0.11233	0.18995	0.042407	0.18523	0.16102	0.23389	0.2074	0.061415	0.078478	0.26493	0.33308	0.15251	0.2726	-1.4875	-1.9583	-2.4292	-1.775	-2.2083	-2.1833	-2.0312	-2.4646	-1.9729	-2.0292	-2.2979	-2.0708	-2.0812	-2.3229	-2.0771	-2.3479	-116.958	-141.460	124.322	133.893	-12.242	146.998	173.764	55.469	-18.617	110.798	-39.426	153.783	143.940	136.344	161.308	128.450	0.00071435	0.00040946	0.00015868	672.37	3.0471e-06	4.102e-06	727.78	220.28	4.796e-06	3.3208e-06	271.13	113.12	82.224	44.251	2.8722e-06	64.202	0.00024735	0.00018784	5.2262e-05	655.38	2.0997e-06	2.0481e-06	710.51	215.69	2.1425e-06	2.0875e-06	263.48	111.15	79.879	43.544	2.1312e-06	63.336	181.228	-111.898	-54.523	-162.766	-58.266	-58.013	-163.543	-157.739	-55.605	-27.882	-159.102	-154.172	-153.654	-147.205	-86.982	-150.003	-8191	255	
11938.938	1	1	0	0	0.19073	0.35791	0.30091	0.26265	0.071677	0.081594	0.006506	0.19962	0.29431	0.11681	0.070953	0.29454	0.28548	0.19164	0.11585	0.398	-1.6333	-1.7771	-2.3479	-1.9729	-2.1458	-2.3438	-1.8208	-2.3396	-2.0542	-1.8708	-2.4125	-2.0271	-2.3042	-2.3417	-1.9062	-2.3646	31.705	53.097	157.478	131.460	-31.508	17.498	-71.283	99.832	-72.611	-78.759	177.556	116.199	113.385	-152.248	-99.357	149.612	0.00069304	0.00025049	8.0509e-05	675.02	1.6084e-06	3.6674e-06	731.47	221.01	7.1995e-07	5.0668e-06	273.66	113.37	82.255	44.239	2.7832e-06	64.159	0.0002452	0.00019209	5.349e-05	658.38	2.1526e-06	2.0958e-06	717.22	216.65	2.1775e-06	2.1058e-06	264.61	111.53	79.97	43.723	2.1513e-06	63.377	182.129	-89.046	-67.425	-162.672	-108.797	-13.057	-163.457	-157.410	-120.490	-40.673	-159.011	-154.002	-153.707	-147.031	-37.232	-150.010	-8191	255	
11939.034	1	1	0	0	0.1926	0.3961	0.24979	0.21671	0.087373	0.29477	0.18289	0.12066	0.15784	0.13904	0.12967	0.10115	0.081509	0.24587	0.039823	0.18955	-1.5521	-1.8042	-2.2417	-1.9104	-1.95	-2.3479	-1.8583	-2.1396	-2.0583	-2.0104	-2.3583	-2.1	-1.9979	-2.4313	-1.8458	-2.2979	-174.139	-9.871	-44.512	170.918	-21.796	119.685	111.167	98.103	114.785	-148.750	75.877	159.183	41.022	-165.313	-89.559	168.313	0.00068071	0.000537	0.00013647	671.46	3.3451e-06	1.7464e-06	730.46	219.45	3.1649e-06	3.6502e-06	273.3	114.13	81.537	44.063	4.5072e-06	65.124	0.00024942	0.00018981	5.4358e-05	652.81	2.0728e-06	2.1125e-06	715.44	214.95	2.095e-06	2.0548e-06	264.89	111.93	79.706	43.472	2.099e-06	64.168	181.157	-77.589	-85.442	-162.743	-54.574	-58.632	-163.287	-157.592	-85.812	-62.925	-159.491	-153.978	-153.167	-146.868	-58.059	-149.945	-8191	255	
11939.130	1	1	0	0	0.16459	0.20479	0.14963	0.087121	0.10975	0.17153	0.19772	0.058716	0.038197	0.078051	0.25601	0.17644	0.26165	0.24148	0.2763	0.11881	-1.9062	-1.7	-2.2521	-2.0167	-2.0229	-2.4354	-1.8104	-2.225	-2.2604	-1.8646	-2.4188	-2.0708	-1.9104	-2.4708	-2	-2.0792	147.647	-166.494	16.802	4.912	0.582	20.293	21.164	118.109	172.435	-17.949	18.847	-168.283	166.574	24.676	28.042	-162.905	0.00071258	0.00028875	9.322e-05	673.96	2.8212e-06	4.2856e-06	733.22	220.53	5.0937e-06	3.4742e-06	278.63	116.59	82.688	45.396	3.3595e-06	66.74	0.00024572	0.00019349	5.0971e-05	653.85	2.0544e-06	1.9849e-06	719.59	216.65	2.0318e-06	1.9942e-06	269.4	114.57	80.636	44.622	2.0231e-06	65.751	178.106	-93.850	-34.016	-162.670	-18.784	-31.866	-163.056	-157.614	-70.024	-39.108	-158.924	-153.837	-152.999	-147.360	-28.090	-149.785	-8191	255	
11939.226	1	1	0	0	0.058473	0.1161	0.27426	0.27636	0.037631	0.32658	0.35716	0.064086	0.097258	0.023753	0.19262	0.12012	0.22092	0.23181	0.13928	0.16839	-1.8542	-2.0021	-2.3354	-2.1417	-1.95	-2.1479	-1.9438	-2.2104	-2.2062	-1.7667	-2.1125	-2.275	-1.6771	-2.4479	-2	-1.9917	-62.893	-24.435	132.152	164.236	-78.492	-147.756	79.158	133.517	146.465	-9.699	-93.622	26.352	-74.590	-171.936	36.320	170.717	0.0007144	0.00039453	6.3847e-05	673.14	5.5527e-06	4.0143e-06	734.87	222.16	2.6377e-06	3.3442e-06	278.01	114.89	80.874	44.209	3.494e-06	65.218	0.0002349	0.00018085	4.9061e-05	655.3	1.9305e-06	1.9369e-06	719.73	217.25	1.9963e-06	2.0045e-06	267.25	112.48	79.452	43.618	1.9963e-06	64.192	180.310	-102.287	-71.658	-162.203	-64.849	-33.339	-163.521	-157.568	-54.624	5.617	-158.733	-153.654	-153.519	-146.907	-41.028	-149.898	-8191	255	
11939.323	1	1	0	0	0.24312	0.13429	0.15094	0.24822	0.11943	0.14564	0.2499	0.36647	0.13075	0.21654	0.27715	0.22777	0.061216	0.31335	0.051478	0.33925	-1.9479	-1.8625	-2.1979	-2.1667	-1.9646	-2.1854	-2.1729	-2.0812	-2.4354	-1.9562	-2.0479	-2.2396	-1.9688	-2.3583	-1.8021	-1.875	-99.460	116.732	72.374	110.509	173.697	-18.179	161.393	133.073	45.496	-49.249	-72.831	-151.474	-46.650	141.741	70.970	76.067	0.00076607	0.00040623	0.00011644	671.18	2.277e-06	3.7991e-06	737.2	221.56	4.4887e-06	4.7281e-06	279.21	115.06	82.386	44.773	5.0747e-06	65.953	0.00024399	0.00018537	5.1378e-05	652.81	2.0252e-06	1.9517e-06	717.77	216.75	2.0946e-06	2.0258e-06	267.26	113.11	80.123	44.127	2.078e-06	64.735	181.006	-73.576	-54.956	-162.494	-121.890	-63.545	-163.201	-157.689	-74.984	-42.941	-158.341	-153.846	-153.351	-146.747	-38.959	-149.583	-8191	255	
11939.419	1	1	0	0	0.29705	0.15666	0.25813	0.09014	0.1113	0.10242	0.35682	0.15472	0.13367	0.36831	0.080329	0.10416	0.10774	0.25337	0.18088	0.20442	-1.9208	-1.7062	-1.9833	-2.1583	-1.7917	-2.2875	-2.2375	-2.0167	-2.2687	-1.9521	-2.1083	-2.3521	-1.8625	-2.3333	-1.9937	-2.1604	103.124	64.790	169.085	-166.024	-95.096	165.772	144.736	125.881	-52.265	-168.401	130.523	-142.090	70.805	-164.958	-133.953	-157.651	0.00071241	0.00050311	0.00014982	672.41	3.8288e-06	5.35e-06	736.95	223.81	1.094e-06	7.0861e-06	279.01	117.24	83.914	45.397	3.3165e-06	66.529	0.0002427	0.00018202	5.1612e-05	655.25	2.0022e-06	2.0392e-06	720.34	218.71	2.0364e-06	2.0513e-06	268.93	114.85	81.3	44.881	2.1116e-06	65.61	179.155	-51.220	-75.104	-162.520	-51.884	-29.979	-163.170	-157.182	-61.332	-46.402	-158.607	-153.913	-153.640	-146.768	-36.315	-149.799	-8191	255	
11939.515	1	1	0	0	0.24288	0.14039	0.084252	0.36008	0.15477	0.14529	0.19359	0.10347	0.27855	0.34673	0.16762	0.22652	0.24222	0.30523	0.17201	0.33111	-1.7958	-1.8312	-2.0396	-2.4583	-1.8125	-2.1625	-2.1729	-1.9208	-2.1021	-1.9896	-1.8813	-2.4562	-1.7	-2.3	-2.0854	-1.9646	52.398	128.676	26.891	-106.141	-26.593	128.282	-72.050	131.731	109.119	68.439	39.131	-141.325	-45.199	-159.357	-32.223	160.260	0.00074256	0.00014337	7.6522e-05	669.24	1.9812e-06	3.8511e-06	730.37	220.2	3.1873e-06	5.241e-06	273.85	115.47	82.056	44.376	4.4488e-06	65.632	0.00024189	0.0001891	5.3416e-05	654.65	2.1191e-06	2.0867e-06	716.49	215.77	2.0704e-06	2.0505e-06	265.84	113.16	79.773	43.833	2.099e-06	64.557	183.233	15.693	-117.651	-162.186	3.900	-32.052	-162.973	-157.455	-106.745	-27.732	-158.200	-153.641	-154.039	-147.156	-69.032	-149.964	-8191	255	
#DATA ENDS
