BOXY.EXE: ISS Imagent and Oximeter Data Acquisition Program Version 0.80
Ascii Record File

#ACQ INFORMATION
2  Detector Channels 
16  External MUX Channels 
1  Auxiliary Channels 
5000  Waveform (CCF) Frequency (Hz)
1  Waveforms Skipped 
30  Waveforms Averaged 
1  Cycles Averaged 
16  Acquisitions per Waveform 
10.0806  Updata Rate (Hz) 

#FILE INFORMATION
TRUE -- External MUX Channel results are PARSED.
FALSE -- AC DC and Phase are NOT grouped.
TRUE -- Companion Program Settings File CREATED.
FALSE -- AC data not excluded
FALSE -- DC data not excluded
FALSE -- Phase data not excluded
FALSE -- Auxillary Chn. data not excluded
Tab delimiters

#CALIBRATION STATE
TRUE -- Waveform Calibration Values APPLIED.


#AUX CALIBRATION VALUES
Val Type	aux-1	

Term	1.0000e+00	
Factor	0.0000e+00	


#WF CALIBRATION VALUES
A = Detector Channel
Val Type	A-AC1	A-AC2	A-AC3	A-AC4	A-AC5	A-AC6	A-AC7	A-AC8	A-AC9	A-AC10	A-AC11	A-AC12	A-AC13	A-AC14	A-AC15	A-AC16	A-DC1	A-DC2	A-DC3	A-DC4	A-DC5	A-DC6	A-DC7	A-DC8	A-DC9	A-DC10	A-DC11	A-DC12	A-DC13	A-DC14	A-DC15	A-DC16	A-Ph1	A-Ph2	A-Ph3	A-Ph4	A-Ph5	A-Ph6	A-Ph7	A-Ph8	A-Ph9	A-Ph10	A-Ph11	A-Ph12	A-Ph13	A-Ph14	A-Ph15	A-Ph16	

Term	0.00000e+00	0.00000e+00	0.00000e+00	0.00000e+00	0.00000e+00	0.00000e+00	0.00000e+00	0.00000e+00	0.00000e+00	0.00000e+00	0.00000e+00	0.00000e+00	0.00000e+00	0.00000e+00	0.00000e+00	0.00000e+00	0.00000e+00	0.00000e+00	0.00000e+00	0.00000e+00	0.00000e+00	0.00000e+00	0.00000e+00	0.00000e+00	0.00000e+00	0.00000e+00	0.00000e+00	0.00000e+00	0.00000e+00	0.00000e+00	0.00000e+00	0.00000e+00	0.00000e+00	0.00000e+00	0.00000e+00	0.00000e+00	0.00000e+00	0.00000e+00	0.00000e+00	0.00000e+00	0.00000e+00	0.00000e+00	0.00000e+00	0.00000e+00	0.00000e+00	0.00000e+00	0.00000e+00	0.00000e+00	
Factor	1.00000e+00	1.00000e+00	1.00000e+00	1.00000e+00	1.00000e+00	1.00000e+00	1.00000e+00	1.00000e+00	1.00000e+00	1.00000e+00	1.00000e+00	1.00000e+00	1.00000e+00	1.00000e+00	1.00000e+00	1.00000e+00	1.00000e+00	1.00000e+00	1.00000e+00	1.00000e+00	1.00000e+00	1.00000e+00	1.00000e+00	1.00000e+00	1.00000e+00	1.00000e+00	1.00000e+00	1.00000e+00	1.00000e+00	1.00000e+00	1.00000e+00	1.00000e+00	X	X	X	X	X	X	X	X	X	X	X	X	X	X	X	X	

B = Detector Channel
Val Type	B-AC1	B-AC2	B-AC3	B-AC4	B-AC5	B-AC6	B-AC7	B-AC8	B-AC9	B-AC10	B-AC11	B-AC12	B-AC13	B-AC14	B-AC15	B-AC16	B-DC1	B-DC2	B-DC3	B-DC4	B-DC5	B-DC6	B-DC7	B-DC8	B-DC9	B-DC10	B-DC11	B-DC12	B-DC13	B-DC14	B-DC15	B-DC16	B-Ph1	B-Ph2	B-Ph3	B-Ph4	B-Ph5	B-Ph6	B-Ph7	B-Ph8	B-Ph9	B-Ph10	B-Ph11	B-Ph12	B-Ph13	B-Ph14	B-Ph15	B-Ph16	

Term	0.00000e+00	0.00000e+00	0.00000e+00	0.00000e+00	0.00000e+00	0.00000e+00	0.00000e+00	0.00000e+00	0.00000e+00	0.00000e+00	0.00000e+00	0.00000e+00	0.00000e+00	0.00000e+00	0.00000e+00	0.00000e+00	0.00000e+00	0.00000e+00	0.00000e+00	0.00000e+00	0.00000e+00	0.00000e+00	0.00000e+00	0.00000e+00	0.00000e+00	0.00000e+00	0.00000e+00	0.00000e+00	0.00000e+00	0.00000e+00	0.00000e+00	0.00000e+00	-6.12039e+01	-1.44425e+02	-1.08068e+02	-1.84347e+02	-5.19798e+01	-7.86493e+01	-1.55676e+02	-1.62015e+02	-4.36136e+01	-4.70465e+01	-1.85868e+02	-1.70497e+02	-1.86153e+02	-1.76891e+02	-6.22403e+01	-1.49739e+02	
Factor	1.76752e-05	1.77526e-04	4.41225e-05	2.09872e-01	1.71985e-06	1.69135e-06	1.50687e-01	4.89530e-02	1.19486e-06	1.67719e-06	1.96740e-01	2.89969e-02	6.06658e-02	8.76056e-03	1.53137e-06	1.25586e-02	2.96907e-06	3.31255e-06	9.26113e-07	1.08229e-01	3.61040e-08	3.65309e-08	7.35335e-02	2.54357e-02	3.58943e-08	3.64924e-08	9.61184e-02	1.45856e-02	3.09233e-02	4.56795e-03	3.60924e-08	6.33166e-03	X	X	X	X	X	X	X	X	X	X	X	X	X	X	X	X	



#DISTANCE SETTINGS
A = Detector Channel
A-1	A-2	A-3	A-4	A-5	A-6	A-7	A-8	A-9	A-10	A-11	A-12	A-13	A-14	A-15	A-16	

2.5000e+00	3.0000e+00	2.5000e+00	3.0000e+00	2.0000e+00	3.0000e+00	1.5000e+00	3.0000e+00	3.0000e+00	3.0000e+00	3.0000e+00	3.0000e+00	3.0000e+00	3.0000e+00	1.5000e+00	3.0000e+00	

B = Detector Channel
B-1	B-2	B-3	B-4	B-5	B-6	B-7	B-8	B-9	B-10	B-11	B-12	B-13	B-14	B-15	B-16	

1.0000e+01	1.0000e+01	1.0000e+01	1.4400e+00	1.0000e+01	1.0000e+01	1.5100e+00	1.9400e+00	1.0000e+01	1.0000e+01	1.9900e+00	2.4900e+00	2.4100e+00	2.9000e+00	1.0000e+01	2.9800e+00	




#DATA BEGINS
time	group	step	mark	flag	A-AC1	A-AC2	A-AC3	A-AC4	A-AC5	A-AC6	A-AC7	A-AC8	A-AC9	A-AC10	A-AC11	A-AC12	A-AC13	A-AC14	A-AC15	A-AC16	A-DC1	A-DC2	A-DC3	A-DC4	A-DC5	A-DC6	A-DC7	A-DC8	A-DC9	A-DC10	A-DC11	A-DC12	A-DC13	A-DC14	A-DC15	A-DC16	A-Ph1	A-Ph2	A-Ph3	A-Ph4	A-Ph5	A-Ph6	A-Ph7	A-Ph8	A-Ph9	A-Ph10	A-Ph11	A-Ph12	A-Ph13	A-Ph14	A-Ph15	A-Ph16	B-AC1	B-AC2	B-AC3	B-AC4	B-AC5	B-AC6	B-AC7	B-AC8	B-AC9	B-AC10	B-AC11	B-AC12	B-AC13	B-AC14	B-AC15	B-AC16	B-DC1	B-DC2	B-DC3	B-DC4	B-DC5	B-DC6	B-DC7	B-DC8	B-DC9	B-DC10	B-DC11	B-DC12	B-DC13	B-DC14	B-DC15	B-DC16	B-Ph1	B-Ph2	B-Ph3	B-Ph4	B-Ph5	B-Ph6	B-Ph7	B-Ph8	B-Ph9	B-Ph10	B-Ph11	B-Ph12	B-Ph13	B-Ph14	B-Ph15	B-Ph16	aux-1	digaux	

31728.953	1	1	0	768	0.20863	0.15649	0.032165	0.21209	0.024777	0.12264	0.28933	0.11928	0.25741	0.18276	0.10852	0.06223	0.2497	0.22119	0.35612	0.21238	-1.2292	-1.9771	-2.0667	-1.5333	-2.2542	-2.0833	-1.6208	-2.0604	-1.7979	-1.7896	-2.1562	-1.5375	-1.8687	-1.9792	-1.7333	-2.1604	215.020	210.907	81.720	80.594	118.194	64.077	268.057	187.361	186.299	311.021	69.685	95.601	207.137	146.906	256.811	189.881	9.8622e-06	2.9287e-05	2.8184e-06	30.183	4.5182e-08	4.2377e-07	28.951	12.393	1.088e-07	6.5986e-07	11.786	4.0895	4.5017	1.8671	6.4664e-07	1.681	1.3664e-05	1.2671e-05	3.3012e-06	33.795	1.3306e-07	1.325e-07	32.339	14.022	1.4275e-07	1.3616e-07	13.137	4.6179	5.0662	2.132	1.4858e-07	1.8949	201.456	68.965	180.493	16.296	40.578	359.066	15.584	23.707	169.441	223.106	20.469	27.003	30.016	34.379	221.167	31.879	-8191	255	
31729.051	1	1	0	0	0.04083	0.11013	0.14026	0.068854	0.27582	0.11579	0.16821	0.17302	0.19063	0.2202	0.048849	0.26024	0.12849	0.060991	0.36158	0.3513	-1.375	-1.7521	-2.0917	-1.5417	-1.9125	-1.9667	-1.5708	-2.1604	-1.9417	-1.7167	-2.2792	-1.5125	-1.9104	-2	-1.7708	-2.0896	96.515	34.965	336.381	18.427	299.478	58.447	197.638	33.541	23.044	160.297	162.333	141.049	222.772	279.493	63.580	40.359	8.5259e-06	3.8309e-05	1.0249e-05	30.095	6.6694e-08	3.6799e-07	28.888	12.42	1.3278e-07	2.4003e-07	11.782	4.0825	4.5045	1.87	2.8042e-07	1.6774	1.3874e-05	1.1656e-05	3.17e-06	33.807	1.2772e-07	1.2793e-07	32.325	14.019	1.4425e-07	1.3799e-07	13.111	4.6075	5.0446	2.131	1.4279e-07	1.8885	205.075	94.079	323.759	16.412	27.383	142.308	15.850	23.644	11.519	176.362	21.532	26.971	29.694	34.514	250.349	31.686	-8191	255	
31729.146	1	1	0	0	0.18193	0.13321	0.14441	0.16381	0.19026	0.096922	0.25537	0.077936	0.13272	0.26973	0.13212	0.18723	0.32083	0.044956	0.26658	0.13555	-1.4958	-1.5146	-2.1937	-1.7708	-1.825	-2.2208	-1.7917	-2.0646	-1.9688	-1.5417	-2.2	-1.6521	-1.7292	-2.0292	-1.5729	-2.0917	304.151	350.195	215.406	110.224	352.782	244.224	228.955	259.526	117.572	311.179	172.388	75.316	57.983	303.724	78.054	296.275	1.0769e-05	5.0528e-05	9.8657e-06	30.055	7.9398e-08	4.7693e-07	28.986	12.362	2.0527e-07	8.8757e-08	11.783	4.074	4.49	1.8692	3.6114e-07	1.6728	1.3466e-05	1.2884e-05	3.1739e-06	33.756	1.302e-07	1.2306e-07	32.316	13.985	1.3341e-07	1.351e-07	13.075	4.6001	5.0413	2.1292	1.358e-07	1.8896	202.166	118.413	157.319	16.781	189.377	172.006	16.100	23.841	212.014	65.664	21.023	27.433	30.458	34.786	174.624	31.780	-8191	255	
31729.242	1	1	0	0	0.22528	0.08069	0.34078	0.096826	0.18026	0.098329	0.13788	0.032555	0.22937	0.11455	0.17195	0.060434	0.15444	0.1082	0.23734	0.17458	-1.4438	-1.7917	-2.1354	-1.7229	-1.6958	-2.0062	-1.4958	-1.8833	-1.9875	-1.575	-1.9771	-1.7938	-1.6562	-2.0187	-1.7646	-1.7396	61.775	13.867	207.464	318.329	81.311	200.579	230.486	208.752	250.121	327.117	277.774	186.832	12.124	303.326	272.746	307.614	1.4884e-05	4.1066e-05	5.021e-06	29.993	2.9455e-07	2.9985e-08	28.926	12.412	2.6795e-07	4.2793e-07	11.677	4.0747	4.5321	1.862	2.1171e-07	1.671	1.3107e-05	1.2947e-05	2.9481e-06	33.718	1.2787e-07	1.2086e-07	32.319	14.011	1.2772e-07	1.3898e-07	13.057	4.6016	5.0617	2.1265	1.3685e-07	1.8858	229.608	29.734	161.198	16.610	217.835	95.163	15.799	23.662	154.307	279.759	20.981	27.303	30.130	34.501	300.848	31.481	-8191	255	
31729.338	1	1	0	0	0.069322	0.064354	0.14678	0.16933	0.28111	0.25616	0.26897	0.21688	0.13116	0.11999	0.20046	0.12843	0.22525	0.17274	0.11115	0.17698	-1.6917	-1.4396	-1.9542	-1.9396	-1.7042	-2.1979	-1.4396	-1.9833	-2.1271	-1.6958	-2.1771	-2.0354	-1.7792	-2.1542	-1.9021	-1.8854	195.323	17.878	69.577	93.369	201.866	351.777	344.421	254.280	244.910	43.698	63.354	27.591	74.882	304.192	267.508	37.648	9.0616e-06	3.4651e-06	1.4111e-05	30.037	5.487e-07	1.5144e-07	28.87	12.397	7.7668e-08	1.3158e-07	11.773	4.0671	4.5043	1.8721	1.8116e-07	1.6736	1.2761e-05	1.2588e-05	2.925e-06	33.775	1.3554e-07	1.1393e-07	32.335	13.997	1.2436e-07	1.3092e-07	13.071	4.5998	5.0577	2.1282	1.2888e-07	1.8875	203.128	67.526	160.119	16.769	84.568	296.756	15.768	23.543	342.298	182.669	21.017	27.021	29.875	34.674	309.394	31.775	-8191	255	
31729.434	1	1	0	0	0.13763	0.22665	0.24015	0.15628	0.13144	0.15235	0.14438	0.18889	0.27277	0.20492	0.095317	0.24357	0.28331	0.19231	0.18622	0.12358	-1.6229	-1.6167	-2.0062	-1.925	-1.7458	-2.1292	-1.9188	-1.7313	-2.0563	-1.6521	-2.0021	-1.9729	-1.7292	-2.0083	-1.8958	-1.7458	31.298	196.275	91.895	315.886	231.597	290.150	9.722	327.419	163.735	290.813	121.168	220.092	112.748	178.142	51.767	21.934	9.6294e-06	2.2189e-05	7.6947e-07	30.144	3.733e-07	2.8354e-07	28.958	12.356	2.0243e-07	1.9112e-07	11.714	4.0774	4.4903	1.8664	1.6385e-07	1.6671	1.2619e-05	1.2429e-05	3.1584e-06	33.741	1.3343e-07	1.1363e-07	32.309	13.987	1.2376e-07	1.3449e-07	13.042	4.5974	5.0556	2.1278	1.3061e-07	1.889	219.946	188.178	336.597	16.655	177.644	125.411	15.939	23.763	105.023	158.395	20.912	27.148	30.578	34.669	214.493	31.838	-8191	255	
31729.555	1	1	0	0	0.12321	0.17362	0.078023	0.07405	0.055067	0.11534	0.18443	0.11031	0.18133	0.129	0.32988	0.13384	0.12395	0.12711	0.18145	0.11472	-1.7542	-1.6167	-1.8813	-1.9292	-1.4958	-2.0729	-1.9062	-1.6667	-2.0854	-1.65	-2.0771	-1.9646	-1.6208	-1.9646	-1.7833	-1.6875	190.105	322.237	352.528	308.938	352.581	15.836	164.742	226.921	79.492	48.916	238.260	226.150	279.217	56.719	148.532	308.014	1.3025e-05	4.4029e-05	8.4551e-06	30.011	5.2537e-07	2.3306e-07	28.812	12.351	2.015e-07	2.8182e-07	11.819	4.0623	4.4798	1.8658	6.9859e-07	1.6771	1.2031e-05	1.2139e-05	3.1469e-06	33.691	1.3885e-07	1.1606e-07	32.296	13.976	1.1553e-07	1.3251e-07	13.088	4.5958	5.0408	2.1247	1.3001e-07	1.89	213.445	79.877	103.530	16.293	234.602	346.810	15.759	23.722	21.173	32.848	20.744	26.939	30.002	34.675	99.458	31.765	-8191	255	
31729.648	1	1	0	0	0.27587	0.32013	0.14328	0.040839	0.17602	0.23993	0.054877	0.25977	0.15292	0.066338	0.16556	0.1397	0.22232	0.20108	0.13841	0.024014	-1.8479	-1.8062	-1.8208	-2.0646	-1.7396	-2.0229	-1.9167	-1.6875	-2.0854	-1.9146	-1.975	-2.0771	-1.5479	-2.0042	-1.9208	-1.8854	334.203	87.761	365.529	242.707	310.618	33.599	227.578	126.793	32.015	315.687	204.627	302.632	104.610	15.805	56.191	296.617	1.2602e-05	5.2373e-05	1.9889e-05	29.96	1.4255e-07	2.8667e-07	28.8	12.393	3.3088e-07	2.5281e-07	11.734	4.0754	4.5105	1.8687	2.5694e-07	1.6666	1.1697e-05	1.2036e-05	3.0099e-06	33.672	1.3201e-07	1.2063e-07	32.245	13.994	1.1539e-07	1.2879e-07	13.071	4.5887	5.0471	2.1224	1.2723e-07	1.8842	184.352	344.879	106.734	16.365	100.920	171.748	15.770	23.668	236.480	183.267	21.162	27.115	29.935	34.809	129.306	31.806	-8191	255	
31729.744	1	1	0	0	0.35281	0.11801	0.10332	0.3374	0.21274	0.05063	0.046602	0.24039	0.14003	0.054534	0.046872	0.45225	0.22896	0.21959	0.097552	0.12944	-1.7687	-1.6729	-1.775	-2.1562	-1.7667	-2.0875	-1.9604	-1.6875	-2.1604	-1.7646	-1.7313	-2.1646	-1.8563	-1.8604	-2.1125	-1.6875	268.029	362.619	221.448	247.106	43.418	183.599	302.268	252.331	74.345	103.780	125.240	284.621	61.847	100.344	344.875	105.130	1.3156e-05	2.8463e-05	1.1857e-05	30.013	3.455e-07	2.3356e-07	28.911	12.374	3.9738e-07	1.3877e-07	11.71	4.0849	4.51	1.8607	5.2549e-07	1.6696	1.1579e-05	1.1753e-05	3.2973e-06	33.731	1.3012e-07	1.1827e-07	32.29	13.988	1.1658e-07	1.2004e-07	13.055	4.5989	5.0498	2.1226	1.1926e-07	1.8858	204.391	197.561	54.828	16.368	133.601	252.416	15.809	23.594	85.521	354.368	20.491	27.215	30.721	34.648	164.860	31.770	-8191	255	
31729.842	1	1	0	0	0.17195	0.24255	0.34715	0.34741	0.14918	0.061657	0.13418	0.087398	0.076678	0.32569	0.24823	0.1929	0.12662	0.15271	0.066487	0.23816	-1.6542	-1.9479	-1.7521	-2.0771	-1.825	-1.875	-2.1708	-1.6729	-2.1104	-2.0521	-1.7188	-2.1167	-1.5792	-1.9542	-2.0563	-1.5312	163.638	309.987	95.797	77.712	153.733	342.648	124.053	245.813	115.269	126.626	197.570	236.400	173.418	203.369	213.817	88.258	1.094e-05	3.724e-05	1.1461e-05	30.001	2.1128e-07	3.0207e-07	28.938	12.348	2.5295e-07	4.559e-07	11.763	4.0783	4.4884	1.8656	1.9777e-07	1.6758	1.2452e-05	1.2112e-05	3.226e-06	33.702	1.3547e-07	1.2398e-07	32.291	13.982	1.1486e-07	1.221e-07	13.081	4.599	5.0408	2.1258	1.1941e-07	1.8904	202.977	90.195	132.159	16.278	127.166	108.176	15.774	23.472	220.335	70.347	20.879	27.078	29.812	34.448	311.196	31.740	-8191	255	
31729.938	1	1	0	0	0.059106	0.29267	0.2947	0.39117	0.14975	0.21021	0.31417	0.2123	0.21321	0.11267	0.1611	0.081625	0.01577	0.19163	0.1723	0.28252	-1.7417	-1.9188	-1.7833	-2.1312	-1.7979	-1.9854	-1.9521	-1.8708	-2.1063	-2.1729	-1.5646	-2.1167	-1.8021	-1.7833	-2.1146	-1.6167	170.436	267.366	280.120	18.908	194.242	176.575	46.880	114.868	284.665	233.798	261.024	144.684	70.381	238.022	91.401	227.768	1.4457e-05	1.436e-05	1.8147e-05	30.004	3.365e-07	6.7244e-07	28.851	12.354	1.9813e-07	1.9313e-07	11.649	4.0952	4.5202	1.8668	4.4275e-07	1.6772	1.2241e-05	1.1553e-05	3.3996e-06	33.662	1.2877e-07	1.2542e-07	32.214	13.967	1.1763e-07	1.2392e-07	13.047	4.6011	5.0507	2.1267	1.2008e-07	1.8898	210.553	160.444	68.932	16.388	260.985	149.050	15.845	23.852	27.365	208.962	20.434	27.209	29.827	34.542	301.809	31.672	-8191	255	
31730.033	1	1	0	0	0.14781	0.0265	0.26641	0.18332	0.20077	0.31085	0.16927	0.26276	0.16468	0.11521	0.11021	0.29616	0.17792	0.28885	0.39072	0.071224	-1.5521	-1.9188	-1.7	-2.2062	-1.75	-1.7458	-2.2125	-1.6354	-2.0062	-2.1271	-1.8854	-2.0479	-1.85	-1.4833	-2.05	-1.5729	83.851	6.375	128.126	271.502	103.869	342.123	324.130	80.417	163.237	129.327	119.359	57.200	159.007	323.497	207.491	14.261	1.0225e-05	7.7841e-06	5.7714e-06	30.028	3.2157e-07	4.2359e-07	28.85	12.345	3.2256e-07	5.1406e-07	11.679	4.0722	4.5007	1.8572	3.7164e-07	1.6787	1.2334e-05	1.1049e-05	3.5366e-06	33.671	1.2847e-07	1.2634e-07	32.242	13.966	1.1778e-07	1.2362e-07	13.064	4.5907	5.0389	2.1257	1.1768e-07	1.8894	230.580	161.025	79.358	16.370	147.672	157.095	15.664	23.712	101.777	215.976	20.797	26.999	29.774	34.651	162.076	31.807	-8191	255	
31730.154	1	1	0	0	0.12279	0.2264	0.049977	0.21801	0.020454	0.21757	0.17931	0.077086	0.19712	0.16739	0.23679	0.16589	0.24841	0.21737	0.16969	0.1782	-1.5187	-1.9458	-1.6958	-2.0062	-2.0208	-1.8521	-2.2062	-1.7042	-2.1125	-2.2896	-1.5729	-2.1333	-2.0146	-1.6979	-2.2313	-1.6562	327.260	233.486	164.406	18.031	143.612	127.084	170.007	105.980	257.224	29.613	234.557	250.372	153.993	299.502	204.925	102.276	1.3357e-05	4.2168e-05	2.1182e-06	30.026	3.1103e-07	6.6077e-07	28.85	12.38	3.7667e-07	2.4431e-07	11.75	4.0722	4.4911	1.8632	4.5858e-07	1.6697	1.2816e-05	1.147e-05	3.3957e-06	33.705	1.287e-07	1.3281e-07	32.233	13.971	1.278e-07	1.2233e-07	13.103	4.5828	5.027	2.122	1.1963e-07	1.8827	200.306	191.524	144.635	16.446	270.334	154.460	15.896	23.749	331.137	242.850	20.585	27.049	29.959	34.791	191.526	31.714	-8191	255	
31730.252	1	1	0	0	0.28358	0.37127	0.19521	0.1682	0.11785	0.15382	0.22827	0.20532	0.045509	0.050774	0.13216	0.14968	0.23068	0.10747	0.042708	0.12822	-1.3458	-2.0583	-1.5854	-1.8188	-1.8417	-1.7208	-2.2562	-1.9083	-1.8312	-2.0854	-1.5063	-1.8333	-2.0583	-1.7938	-2.1479	-1.8396	174.118	329.121	208.441	281.435	61.137	252.059	79.816	274.859	225.885	70.577	95.156	258.794	34.555	310.472	16.073	319.308	1.6051e-05	2.7085e-05	1.791e-06	30.126	7.3999e-07	1.6224e-07	28.887	12.379	4.8664e-07	5.8239e-07	11.59	4.0608	4.4806	1.8609	3.9234e-07	1.6708	1.3621e-05	1.08e-05	3.4266e-06	33.673	1.2463e-07	1.3357e-07	32.233	13.972	1.3004e-07	1.2103e-07	13.06	4.5877	5.0284	2.1251	1.1933e-07	1.8843	230.451	164.390	268.998	16.465	282.104	317.444	15.836	23.611	118.514	156.554	20.343	26.996	29.498	34.353	167.322	31.906	-8191	255	
31730.348	1	1	0	0	0.27572	0.15499	0.059965	0.17644	0.044405	0.072886	0.19375	0.31032	0.06594	0.12217	0.19167	0.21152	0.21062	0.22601	0.10954	0.42554	-1.3375	-2.1875	-1.7938	-1.8667	-2.0042	-1.7375	-2.0354	-1.7125	-1.6833	-2.1542	-1.8542	-2.0792	-2.1083	-1.5542	-1.9167	-1.9729	259.030	99.193	127.450	168.455	267.446	178.261	122.870	148.887	334.855	235.379	325.025	82.060	189.365	266.876	121.535	124.304	1.0211e-05	2.5803e-05	5.0465e-06	30.012	1.7318e-07	5.2019e-07	28.831	12.36	3.0495e-07	6.5454e-07	11.736	4.0828	4.4637	1.8605	3.7543e-07	1.6699	1.3348e-05	1.0241e-05	3.525e-06	33.715	1.2576e-07	1.3486e-07	32.239	13.963	1.3827e-07	1.1799e-07	13.084	4.597	5.0409	2.1267	1.1512e-07	1.8849	208.685	69.771	329.178	16.405	212.308	104.083	16.085	23.636	324.700	200.817	20.593	27.164	30.277	34.353	192.955	31.787	-8191	255	
31730.443	1	1	0	0	0.21652	0.11936	0.25083	0.086557	0.18127	0.035632	0.15283	0.067532	0.25497	0.16311	0.4858	0.044499	0.15917	0.17824	0.22199	0.14564	-1.2042	-2.0687	-1.6875	-1.8521	-2.0312	-1.5646	-2.0792	-1.8229	-1.7583	-2.1083	-1.8458	-1.7875	-2.1437	-1.6208	-1.9979	-1.8792	10.132	67.854	312.391	300.384	112.734	225.315	220.598	76.021	330.968	28.214	159.611	305.279	38.374	234.281	281.675	312.628	1.0098e-05	5.1062e-05	1.5932e-05	30.078	3.1863e-07	4.0238e-07	28.761	12.354	2.517e-07	2.0323e-07	11.679	4.0776	4.494	1.8632	2.3235e-08	1.6638	1.3769e-05	1.1014e-05	3.4556e-06	33.726	1.2779e-07	1.3212e-07	32.233	13.958	1.4223e-07	1.1495e-07	13.061	4.5907	5.0317	2.1231	1.2339e-07	1.8817	228.900	115.003	65.563	16.563	224.373	139.589	15.725	23.546	156.548	169.800	20.788	26.782	30.154	34.459	121.366	31.820	-8191	255	
31730.514	1	1	0	0	0.11534	0.060513	0.2103	0.20799	0.048387	0.11995	0.33589	0.043494	0.16566	0.082689	0.018827	0.19845	0.12911	0.12211	0.16932	0.32335	-1.1458	-2.0938	-1.8417	-1.7396	-2.2062	-1.65	-1.8833	-1.925	-1.775	-1.9292	-1.9792	-1.9333	-2.1542	-1.7271	-1.9729	-2.1833	302.205	289.717	327.190	255.001	46.137	18.559	302.683	153.500	151.916	11.075	20.418	107.814	274.426	83.285	266.957	280.661	1.294e-05	2.8204e-05	5.3225e-06	29.859	4.3639e-07	3.9207e-07	28.91	12.397	2.0876e-07	4.7307e-07	11.726	4.0809	4.4638	1.8613	2.2406e-07	1.6736	1.4412e-05	1.1028e-05	3.2607e-06	33.66	1.2501e-07	1.3509e-07	32.279	13.968	1.3969e-07	1.1784e-07	13.058	4.6021	5.0328	2.1254	1.2264e-07	1.8864	203.289	88.127	233.448	16.435	86.668	302.022	15.674	23.540	118.679	181.880	20.536	27.207	30.110	34.324	83.212	31.437	-8191	255	
31730.633	1	1	0	0	0.24976	0.12671	0.17589	0.15975	0.29026	0.27147	0.13939	0.16083	0.233	0.18937	0.12248	0.081894	0.14987	0.27246	0.23763	0.11073	-1.1979	-2.1792	-1.7625	-1.6896	-2.1521	-1.6958	-2	-2.1042	-1.7958	-2.2708	-2.0167	-1.7708	-2.0979	-1.9396	-1.7396	-2.1396	325.930	352.025	65.280	185.353	178.609	38.203	311.427	284.696	273.301	58.731	201.872	213.337	71.229	66.343	310.731	93.242	9.1392e-06	1.0861e-05	1.1869e-05	29.981	4.4695e-07	4.0365e-07	28.801	12.375	9.2629e-08	1.8656e-07	11.777	4.0756	4.4907	1.8586	1.1327e-07	1.6672	1.4165e-05	1.1539e-05	3.3166e-06	33.697	1.1929e-07	1.3387e-07	32.264	13.952	1.3827e-07	1.1594e-07	13.113	4.598	5.0326	2.1234	1.3234e-07	1.8812	209.072	59.727	125.166	16.607	152.157	200.242	15.802	23.436	178.710	215.514	20.980	27.243	29.867	34.492	90.673	31.818	-8191	255	
31730.730	1	1	0	0	0.14468	0.099033	0.08357	0.34817	0.2481	0.12811	0.17032	0.092294	0.21985	0.18091	0.093269	0.14632	0.13622	0.035597	0.10218	0.064769	-1.0646	-1.9438	-1.8375	-1.6875	-2.1396	-1.7875	-1.775	-2.1021	-1.7292	-2.0521	-2.0187	-1.6417	-2.2625	-1.8333	-1.8146	-2.1479	325.141	55.004	334.244	291.793	58.092	238.287	365.169	42.053	17.683	281.804	107.972	170.422	334.407	184.977	338.790	302.115	6.9851e-06	5.1317e-05	8.3342e-06	30.002	6.1167e-07	3.133e-08	28.863	12.366	6.3482e-08	1.6664e-07	11.626	4.0731	4.4939	1.8658	3.5956e-07	1.6696	1.3763e-05	1.0662e-05	3.3012e-06	33.676	1.1711e-07	1.3014e-07	32.252	13.944	1.426e-07	1.1647e-07	13.014	4.5934	5.0302	2.1256	1.3444e-07	1.8821	225.025	362.608	157.005	16.590	203.447	362.184	15.930	23.753	105.511	85.764	20.714	26.968	29.900	34.475	159.107	31.877	-8191	255	
31730.826	1	1	0	0	0.12831	0.17205	0.069742	0.24024	0.23223	0.29209	0.12748	0.060662	0.17036	0.32181	0.37599	0.16501	0.16338	0.11169	0.32555	0.2087	-1.2687	-1.9771	-1.8458	-1.6083	-2.0563	-1.9854	-1.6125	-2.1937	-1.8687	-1.9021	-2.2479	-1.5438	-2.1625	-1.8854	-1.7771	-2.1917	228.930	335.145	217.901	362.330	237.116	97.349	89.174	155.375	180.245	143.304	333.583	205.159	110.613	142.007	71.647	348.369	6.1276e-06	1.0977e-05	4.6568e-06	30.053	4.7729e-07	7.8106e-07	28.87	12.344	3.3142e-07	3.3298e-07	11.754	4.0514	4.4701	1.8594	4.0331e-07	1.6594	1.3781e-05	1.1352e-05	3.0813e-06	33.723	1.2223e-07	1.2748e-07	32.238	13.937	1.3146e-07	1.1883e-07	13.023	4.5915	5.025	2.1205	1.2768e-07	1.879	198.800	75.141	126.235	16.464	175.599	143.549	15.821	23.716	143.059	248.503	20.547	27.047	29.749	34.341	130.232	31.807	-8191	255	
31730.922	1	1	0	0	0.075401	0.14129	0.21162	0.064973	0.12819	0.19035	0.15778	0.17325	0.21507	0.25506	0.2386	0.2498	0.20653	0.14711	0.16223	0.10381	-1.2625	-1.7792	-1.8854	-1.6313	-1.9833	-1.9208	-1.525	-2.0062	-1.8708	-1.9083	-2.1208	-1.8604	-1.8896	-2.0521	-1.5396	-2.1188	17.960	326.318	237.774	103.327	270.168	193.570	269.460	325.555	126.476	35.878	79.184	73.460	143.105	284.686	304.589	303.534	1.0386e-05	4.3097e-05	5.8134e-06	30.028	6.0278e-07	3.7882e-07	28.918	12.384	1.8131e-07	4.3387e-07	11.697	4.066	4.4709	1.8588	3.6637e-07	1.6777	1.3726e-05	1.1725e-05	3.0986e-06	33.691	1.1801e-07	1.2299e-07	32.276	13.946	1.355e-07	1.2559e-07	13.018	4.5903	5.0153	2.1206	1.3557e-07	1.8782	221.500	303.821	356.089	16.524	200.531	117.730	16.060	23.463	163.465	86.995	20.967	26.752	29.914	34.491	229.882	31.554	-8191	255	
31731.043	1	1	0	0	0.24559	0.12616	0.18015	0.20847	0.17642	0.19154	0.28038	0.13561	0.16167	0.16407	0.28393	0.15936	0.094691	0.3091	0.14046	0.06576	-1.4292	-1.6292	-2.0542	-1.7271	-1.9083	-2.0083	-1.725	-1.9625	-1.6521	-1.6771	-2.1729	-1.8521	-2.0771	-2	-1.5833	-2.0271	124.334	222.642	98.488	94.138	307.836	56.416	201.218	52.764	71.468	119.691	344.767	358.605	285.339	135.770	97.867	202.181	6.2415e-06	5.856e-05	7.1355e-06	30.042	1.8338e-07	4.0242e-07	28.843	12.324	1.8328e-07	5.2703e-07	11.697	4.0691	4.5032	1.8561	1.0426e-07	1.6664	1.3466e-05	1.2256e-05	2.9346e-06	33.711	1.1832e-07	1.1462e-07	32.221	13.916	1.2017e-07	1.2719e-07	13.004	4.588	5.0236	2.1184	1.3241e-07	1.8812	207.665	354.805	65.765	16.534	148.911	140.409	15.655	23.499	345.234	76.217	20.886	26.835	29.423	34.524	113.766	31.874	-8191	255	
31731.113	1	1	0	0	0.35803	0.19501	0.072056	0.073672	0.26779	0.15729	0.051224	0.1608	0.19956	0.049925	0.15683	0.12457	0.11446	0.19007	0.29281	0.11959	-1.5479	-1.5208	-2.1542	-1.7812	-1.9562	-2.0792	-1.6187	-2.2625	-1.8396	-1.7083	-2.0625	-1.8292	-1.7854	-2.1437	-1.8125	-2.0687	11.744	96.144	109.245	61.328	171.197	189.720	356.290	224.330	263.003	83.259	208.587	172.626	20.535	138.463	315.330	332.998	1.6143e-05	4.7374e-06	4.6664e-06	29.861	6.9451e-08	2.956e-07	28.823	12.283	1.3336e-07	2.0226e-07	11.595	4.0637	4.4827	1.8688	5.1648e-08	1.668	1.2649e-05	1.2001e-05	2.7436e-06	33.597	1.1734e-07	1.1789e-07	32.195	13.892	1.2398e-07	1.2772e-07	12.968	4.5807	5.0198	2.12	1.2715e-07	1.8801	222.074	193.992	19.018	16.530	345.389	18.840	15.852	23.442	150.343	206.296	20.670	27.097	29.960	34.511	159.994	31.639	-8191	255	
31731.234	1	1	0	0	0.077443	0.48299	0.23664	0.27786	0.15173	0.061109	0.076854	0.10627	0.22998	0.30853	0.32364	0.13708	0.1136	0.23046	0.31041	0.092694	-1.4167	-1.5292	-2.1937	-1.875	-1.8417	-2.3563	-1.6729	-1.9562	-1.9729	-1.7833	-2.0229	-1.7313	-1.8542	-2.0375	-1.7917	-2.1979	107.492	295.973	291.428	360.974	231.048	200.857	242.797	22.728	137.890	104.250	350.806	138.102	65.510	254.843	287.874	140.556	6.8019e-06	3.1727e-05	9.9856e-07	29.961	3.1693e-07	2.8307e-07	28.737	12.257	2.8225e-07	1.6699e-07	11.593	4.0433	4.4474	1.8545	3.7075e-07	1.6654	1.2272e-05	1.1987e-05	2.7494e-06	33.565	1.1937e-07	1.0838e-07	32.153	13.881	1.2189e-07	1.2924e-07	12.922	4.5628	4.9973	2.1135	1.3264e-07	1.8717	183.476	84.208	363.893	16.498	194.951	260.407	15.723	23.718	181.432	178.974	20.442	26.940	29.703	34.537	115.785	31.869	-8191	255	
31731.330	1	1	0	0	0.10105	0.26434	0.21737	0.047971	0.050664	0.22495	0.15351	0.18655	0.12567	0.17377	0.048807	0.30588	0.19605	0.2209	0.077286	0.18513	-1.6875	-1.6021	-2.0021	-1.775	-1.6875	-2.1312	-1.8062	-1.8479	-1.9896	-1.8	-2.1625	-1.6458	-1.7396	-2.0354	-1.675	-2.1063	117.334	187.128	144.428	27.682	306.897	337.903	66.442	76.623	238.752	84.189	329.222	11.015	132.538	23.167	115.384	349.312	1.2191e-05	4.8621e-05	1.3971e-05	29.768	8.2948e-08	1.3999e-07	28.779	12.263	2.1137e-07	5.6997e-07	11.566	4.0402	4.4773	1.8551	9.1364e-08	1.6619	1.268e-05	1.1704e-05	2.8343e-06	33.527	1.2185e-07	1.1058e-07	32.129	13.875	1.1621e-07	1.2544e-07	12.914	4.561	5.0091	2.1103	1.2986e-07	1.8704	218.018	161.172	166.605	16.471	106.432	203.677	15.652	23.594	70.807	117.255	21.300	26.805	30.038	34.509	111.553	31.903	-8191	255	
31731.428	1	1	0	0	0.025117	0.15601	0.2168	0.088989	0.23047	0.1364	0.40893	0.042098	0.1677	0.049364	0.19591	0.23134	0.40365	0.14433	0.35486	0.17056	-1.7125	-1.4125	-1.925	-2.025	-1.8271	-2.2042	-1.8917	-1.7125	-1.9833	-1.6375	-1.9208	-1.9312	-1.6	-2.05	-1.7979	-1.9021	142.046	321.092	350.016	260.051	71.098	62.742	57.469	21.143	100.728	229.361	308.943	165.782	146.689	254.452	47.089	19.298	1.3666e-05	2.755e-05	2.8309e-06	29.893	1.6929e-07	2.1226e-07	28.799	12.292	1.4427e-07	2.0433e-07	11.682	4.0407	4.4514	1.8423	2.3561e-07	1.665	1.1963e-05	1.1953e-05	2.6857e-06	33.539	1.2855e-07	1.1317e-07	32.126	13.862	1.2114e-07	1.3259e-07	12.929	4.5526	5.0027	2.1048	1.2444e-07	1.8701	227.861	158.256	157.490	16.747	171.423	275.794	16.240	24.063	169.299	282.995	21.158	27.181	30.304	34.483	86.852	31.616	-8191	255	
31731.523	1	1	0	0	0.31841	0.13631	0.11014	0.13515	0.19366	0.15337	0.16457	0.073975	0.10957	0.21091	0.10252	0.1216	0.047994	0.097252	0.14729	0.3117	-1.725	-1.4771	-1.9937	-1.9188	-1.775	-2.1188	-1.8438	-1.6479	-2.0458	-1.7896	-1.9354	-1.9708	-1.5875	-2.1958	-1.6854	-1.6437	59.791	131.467	147.539	18.420	168.761	242.806	160.667	336.097	327.468	131.609	259.206	28.982	92.242	151.117	99.432	363.052	9.507e-06	1.3051e-05	6.9921e-06	29.941	5.7163e-07	3.7829e-07	28.75	12.274	4.8789e-07	2.2118e-07	11.696	4.0355	4.4288	1.8444	3.1825e-07	1.6478	1.2581e-05	1.1891e-05	2.896e-06	33.586	1.3276e-07	1.134e-07	32.135	13.876	1.1239e-07	1.3031e-07	12.961	4.5485	4.9968	2.1035	1.3204e-07	1.8695	235.759	148.087	197.875	16.421	183.165	254.663	15.937	23.547	149.156	169.745	20.703	27.125	29.933	34.613	349.234	31.688	-8191	255	
31731.643	1	1	0	0	0.082456	0.26345	0.23389	0.36337	0.16821	0.18007	0.072423	0.12657	0.43637	0.26872	0.083841	0.24952	0.18312	0.09167	0.021377	0.16643	-1.8021	-1.6458	-1.8979	-1.925	-1.4917	-1.9729	-1.9958	-1.7687	-2.0792	-1.6958	-1.8271	-2.0708	-1.5438	-1.9917	-1.8875	-1.8208	18.538	267.381	87.962	134.276	256.687	46.490	180.382	75.992	255.456	299.924	37.655	98.730	80.685	7.027	270.999	6.151	1.1603e-05	1.6175e-05	8.5478e-06	30.202	4.1515e-07	5.3527e-07	28.735	12.299	4.3252e-07	2.4625e-07	11.66	4.0442	4.441	1.8566	7.3215e-07	1.6653	1.1833e-05	1.1449e-05	3.1719e-06	33.589	1.3494e-07	1.1469e-07	32.162	13.888	1.1628e-07	1.3183e-07	12.965	4.5584	5.0102	2.1057	1.2527e-07	1.8762	225.391	57.246	263.356	16.496	166.233	27.762	15.542	23.680	20.450	144.277	20.703	27.123	30.073	34.597	121.997	31.886	-8191	255	
31731.738	1	1	0	0	0.024262	0.099775	0.07179	0.083619	0.27935	0.2946	0.082449	0.14747	0.3245	0.062298	0.10013	0.20964	0.26492	0.21115	0.017826	0.21082	-1.7958	-1.7167	-1.9062	-2.1	-1.6063	-1.8979	-1.9604	-1.6229	-2.1437	-1.7396	-1.6792	-1.9271	-1.7	-1.9604	-1.9958	-1.8271	9.619	219.024	305.645	348.173	195.988	148.012	261.114	157.034	259.861	164.522	159.462	113.183	32.796	233.389	81.420	285.618	1.6135e-05	3.9477e-05	1.7426e-05	29.953	4.0476e-07	5.3197e-07	28.758	12.336	2.9383e-07	2.4429e-07	11.679	4.0596	4.4466	1.847	2.9264e-07	1.6569	1.148e-05	1.1235e-05	3.1449e-06	33.538	1.3268e-07	1.1058e-07	32.134	13.897	1.1486e-07	1.281e-07	12.985	4.5598	5.0065	2.1059	1.2226e-07	1.8735	215.054	120.670	101.536	16.537	142.369	165.148	15.985	23.753	203.282	337.310	21.560	27.352	29.851	34.462	159.029	31.867	-8191	255	
31731.834	1	1	0	0	0.2481	0.15645	0.10667	0.22468	0.26357	0.10939	0.1255	0.10815	0.17659	0.15211	0.2757	0.36689	0.17975	0.35365	0.21251	0.17115	-1.5	-1.8083	-1.7	-2.1042	-1.65	-1.7812	-1.9688	-1.55	-2.1958	-2.0625	-1.7958	-2.1854	-1.8167	-1.8563	-2.0292	-1.6063	232.645	281.139	60.043	213.264	251.306	243.009	162.527	61.966	83.947	230.167	339.932	19.141	360.554	23.431	248.695	91.618	1.2449e-05	2.4715e-05	1.5223e-05	29.978	4.4959e-07	1.6694e-07	28.749	12.268	2.0606e-07	4.167e-07	11.552	4.0322	4.4321	1.8482	5.1237e-07	1.6555	1.2538e-05	1.1732e-05	3.3128e-06	33.564	1.3765e-07	1.2276e-07	32.08	13.866	1.177e-07	1.2301e-07	12.968	4.5539	4.9963	2.1045	1.1565e-07	1.8726	216.761	181.606	52.854	16.678	216.979	290.774	15.958	24.001	282.183	114.631	21.234	27.427	30.200	34.620	135.106	31.758	-8191	255	
31731.932	1	1	0	0	0.2661	0.26796	0.13987	0.1817	0.15979	0.38717	0.16405	0.13643	0.16001	0.13433	0.017134	0.11527	0.1444	0.10945	0.052637	0.38733	-1.5229	-1.9771	-1.5146	-1.9917	-1.7375	-1.8083	-1.9958	-1.4667	-2.0333	-1.7667	-1.6542	-2.1792	-1.4542	-1.6833	-2.0979	-1.6146	104.242	73.574	23.262	310.999	101.650	219.534	15.821	54.483	139.501	253.569	114.819	349.233	28.092	279.319	266.742	338.638	1.265e-05	1.4539e-05	2.3397e-05	29.965	6.2112e-07	2.1199e-07	28.71	12.309	2.4771e-07	2.7788e-07	11.61	4.0409	4.4648	1.8449	5.9548e-07	1.6604	1.247e-05	1.2049e-05	3.4768e-06	33.58	1.2922e-07	1.1888e-07	32.116	13.898	1.272e-07	1.2461e-07	12.986	4.5524	4.9914	2.1042	1.1783e-07	1.8722	204.521	70.884	76.316	16.611	177.277	284.491	15.875	23.495	152.106	231.797	20.785	27.024	30.267	34.618	122.455	31.698	-8191	255	
31732.027	1	1	0	0	0.19085	0.12054	0.34445	0.077651	0.12618	0.28192	0.26532	0.024019	0.13495	0.097244	0.20586	0.25349	0.25264	0.34893	0.20992	0.2863	-1.325	-2.0542	-1.6583	-1.9438	-1.7437	-1.8542	-2.1667	-1.4979	-1.8687	-1.9604	-1.6187	-2.1437	-1.8687	-1.7667	-2.0563	-1.7479	162.490	282.396	16.905	307.689	192.192	196.666	200.740	320.275	263.982	245.958	234.774	19.141	185.924	352.426	52.427	59.826	1.1276e-05	2.8771e-05	1.0276e-05	30.008	2.5845e-07	5.9922e-07	28.809	12.288	3.4088e-07	2.1516e-07	11.61	4.0357	4.4599	1.8394	6.4016e-08	1.6572	1.2532e-05	1.1028e-05	3.3572e-06	33.54	1.2712e-07	1.287e-07	32.119	13.869	1.2189e-07	1.2134e-07	13.007	4.5468	4.9919	2.1022	1.1685e-07	1.8679	198.682	157.880	91.955	16.847	301.889	161.905	15.847	23.864	203.625	256.313	21.194	26.921	30.138	34.799	274.018	32.071	-8191	255	
31732.123	1	1	0	0	0.22195	0.078387	0.034354	0.13165	0.23765	0.049753	0.12327	0.3285	0.26665	0.058395	0.11809	0.14857	0.46124	0.22445	0.25971	0.151	-1.6104	-1.8667	-1.5646	-2.0542	-1.9042	-1.7958	-2.1271	-1.6542	-2.0729	-1.9208	-1.7604	-2.1146	-1.8417	-1.6542	-2.1729	-1.7917	296.414	63.871	7.368	314.422	170.884	63.734	58.339	160.668	300.080	56.842	270.698	49.669	8.342	150.826	347.630	262.724	1.0735e-05	5.3982e-05	3.2882e-06	29.89	7.0604e-07	6.8895e-07	28.684	12.271	2.5325e-07	2.8158e-07	11.648	4.012	4.4635	1.8419	3.8704e-07	1.6564	1.3008e-05	1.0945e-05	3.5462e-06	33.497	1.2561e-07	1.3128e-07	32.057	13.863	1.2301e-07	1.1411e-07	12.944	4.5444	4.981	2.1015	1.1625e-07	1.8675	215.661	353.533	50.426	16.481	202.706	178.530	15.651	23.553	190.980	263.581	20.785	27.101	29.876	34.421	193.162	31.376	-8191	255	
31732.219	1	1	0	0	0.18169	0.072823	0.16089	0.18434	0.12517	0.13635	0.18308	0.14039	0.35046	0.081492	0.079115	0.42506	0.039415	0.098594	0.18912	0.056995	-1.2938	-2.0542	-1.5333	-1.9	-2.0167	-1.5771	-2.0896	-1.5625	-1.8188	-2.2125	-1.5896	-1.8771	-1.9854	-1.5812	-2.1125	-1.7021	206.141	205.301	211.595	362.486	248.313	219.507	273.472	234.764	64.283	288.483	97.282	71.710	22.821	316.716	152.441	313.495	1.0752e-05	4.0175e-05	4.02e-06	29.864	8.9742e-08	9.3803e-07	28.743	12.283	2.7778e-07	4.4498e-07	11.609	4.026	4.4382	1.841	1.6787e-07	1.654	1.2897e-05	1.1366e-05	3.4073e-06	33.504	1.2614e-07	1.3311e-07	32.073	13.839	1.2997e-07	1.1335e-07	12.975	4.543	4.979	2.0983	1.2076e-07	1.8638	213.741	29.921	74.826	16.539	100.008	131.389	15.880	23.884	143.211	259.447	20.793	27.016	29.809	34.507	170.029	31.673	-8191	255	
31732.338	1	1	0	0	0.18309	0.19203	0.29294	0.2065	0.24573	0.075273	0.11446	0.10772	0.083947	0.076443	0.10322	0.036778	0.28615	0.15547	0.26233	0.055848	-1.4229	-2.0396	-1.4854	-1.9521	-1.9896	-1.8021	-2.0021	-1.8396	-1.6083	-2.0917	-1.7667	-2.0479	-1.8354	-1.6229	-2.1521	-2.0583	107.057	324.411	77.998	260.589	325.060	24.282	7.065	147.554	336.880	208.690	237.849	283.130	87.767	189.978	46.331	321.773	7.4609e-06	2.632e-05	9.9009e-06	29.781	9.9735e-08	6.1427e-07	28.591	12.247	1.5146e-07	2.065e-07	11.582	4.0223	4.4155	1.8363	6.1004e-07	1.64	1.3318e-05	1.0586e-05	3.5983e-06	33.476	1.2253e-07	1.3273e-07	32.027	13.829	1.3363e-07	1.1518e-07	12.972	4.542	4.978	2.0988	1.264e-07	1.8598	218.654	107.931	134.342	16.627	97.112	86.386	15.773	23.712	277.631	277.785	21.177	27.178	29.878	34.797	111.010	31.741	-8191	255	
31732.410	1	1	0	0	0.14825	0.0074744	0.30984	0.048837	0.10483	0.096492	0.17649	0.20225	0.18402	0.1906	0.2317	0.31279	0.028661	0.1833	0.23962	0.080405	-1.2458	-2.0333	-1.6562	-1.75	-2.0687	-1.6958	-1.8937	-1.7146	-1.7563	-2.2687	-1.925	-1.7229	-1.9833	-1.575	-1.9708	-1.9396	321.989	101.499	333.388	175.622	135.678	66.536	275.569	12.312	272.809	161.702	313.549	243.283	10.576	42.484	319.931	264.217	5.3837e-06	1.4009e-05	1.8276e-05	29.925	1.6108e-07	2.6738e-07	28.724	12.272	2.4508e-07	1.8021e-07	11.587	4.0356	4.4409	1.8447	2.1523e-07	1.6562	1.3781e-05	1.0786e-05	3.4999e-06	33.505	1.2351e-07	1.3524e-07	32.066	13.843	1.3759e-07	1.1662e-07	12.913	4.5491	4.9829	2.1009	1.3474e-07	1.8657	215.771	56.224	314.388	16.889	58.455	247.601	16.244	23.916	184.462	228.378	21.244	26.980	29.873	34.790	234.039	31.904	-8191	255	
31732.508	1	1	0	0	0.14659	0.081619	0.21718	0.20454	0.27161	0.095834	0.10666	0.076022	0.090853	0.26195	0.083151	0.21248	0.10873	0.12239	0.23845	0.19777	-1.2104	-1.9062	-1.8583	-1.8083	-2.1292	-1.6437	-2.1333	-2.0104	-1.7771	-2.0312	-1.7271	-1.8	-2.1688	-1.875	-1.7375	-2	224.662	138.649	252.931	164.708	187.336	202.163	332.741	126.602	333.472	37.521	316.110	207.441	47.207	234.809	302.326	240.972	1.3164e-05	3.0828e-05	1.6216e-05	29.972	1.8782e-07	1.3342e-07	28.54	12.222	1.8152e-07	3.8351e-07	11.583	4.0257	4.4503	1.848	2.4394e-07	1.6573	1.4419e-05	1.1063e-05	3.3649e-06	33.516	1.2095e-07	1.3463e-07	32.029	13.814	1.4029e-07	1.1738e-07	12.974	4.5488	4.9767	2.1031	1.3362e-07	1.8659	222.072	66.198	102.393	16.906	243.043	193.193	15.941	23.835	224.714	133.704	21.020	27.250	30.101	34.758	215.513	31.531	-8191	255	
31732.604	1	1	0	0	0.31948	0.4058	0.17377	0.2228	0.22391	0.077433	0.093696	0.13765	0.27871	0.11302	0.26391	0.17877	0.0070874	0.23481	0.031686	0.36316	-1.2854	-1.9104	-1.8646	-1.7479	-1.875	-1.8188	-1.9208	-2.0479	-1.7167	-1.9708	-1.9146	-1.6458	-2.1396	-1.6688	-1.9188	-2.0958	214.648	158.498	74.400	295.873	223.316	79.896	93.029	11.081	236.249	158.864	174.364	220.344	52.995	112.462	280.644	157.368	1.052e-05	8.2001e-06	7.0344e-06	29.884	5.6513e-07	7.1873e-07	28.688	12.307	1.9949e-07	5.7827e-07	11.645	4.0385	4.433	1.8442	3.4586e-07	1.6511	1.4443e-05	1.0793e-05	3.3263e-06	33.504	1.1734e-07	1.3615e-07	32.076	13.84	1.4208e-07	1.2734e-07	12.937	4.5512	4.9654	2.0996	1.252e-07	1.8623	213.696	44.867	124.189	16.535	198.428	125.615	16.068	23.793	296.263	175.489	21.465	27.511	30.394	35.048	105.097	32.078	-8191	255	
31732.723	1	1	0	0	0.28288	0.12729	0.11687	0.21143	0.28589	0.2143	0.19171	0.095056	0.20211	0.055466	0.11382	0.18661	0.12807	0.35281	0.040304	0.2581	-1.2812	-1.7188	-1.8667	-1.6604	-2.0146	-1.8604	-1.8771	-2.1188	-1.6375	-1.925	-1.9208	-1.6271	-2.0771	-1.8229	-1.6187	-2.025	84.748	93.847	349.017	161.478	207.987	135.705	112.112	341.738	193.486	50.208	61.085	341.914	34.492	308.320	274.999	225.072	9.4605e-06	2.5261e-05	1.5167e-06	29.874	5.9128e-07	2.9461e-07	28.72	12.265	1.6415e-07	1.8894e-08	11.602	4.0284	4.4132	1.8445	4.2394e-07	1.6602	1.3887e-05	1.1145e-05	3.2472e-06	33.554	1.2388e-07	1.3524e-07	32.091	13.843	1.4081e-07	1.1989e-07	12.928	4.5446	4.9587	2.0983	1.3241e-07	1.8663	225.314	326.842	325.052	16.659	165.043	247.641	15.950	23.886	165.725	254.513	20.991	27.334	30.275	34.726	141.589	31.776	-8191	255	
31732.818	1	1	0	0	0.23551	0.26493	0.16672	0.083287	0.080932	0.26568	0.19243	0.29503	0.1846	0.16206	0.082304	0.13541	0.10831	0.15717	0.25581	0.10262	-1.3854	-1.8625	-2.1875	-1.6667	-2.0354	-1.9937	-1.5729	-2.1417	-1.8021	-2.0146	-1.9854	-1.5667	-2.1854	-1.8167	-1.7604	-2.0021	178.037	290.064	207.831	323.954	98.190	271.467	312.629	298.220	70.636	201.388	69.678	121.348	256.453	305.524	248.708	224.852	7.2683e-06	5.4104e-05	6.2669e-06	29.704	4.0939e-07	2.8485e-07	28.651	12.226	1.4242e-07	3.8581e-07	11.518	4.0147	4.4484	1.8406	8.1542e-08	1.643	1.3936e-05	1.1449e-05	3.2607e-06	33.514	1.1952e-07	1.3395e-07	32.037	13.805	1.4156e-07	1.221e-07	12.898	4.5368	4.975	2.0977	1.3978e-07	1.8568	217.813	53.555	201.854	16.603	123.536	39.037	15.792	23.640	49.695	133.473	21.214	27.286	30.254	34.939	206.905	31.801	-8191	255	
31732.914	1	1	0	0	0.317	0.24308	0.095442	0.23741	0.15193	0.15225	0.073391	0.2443	0.19252	0.082442	0.21851	0.12023	0.19058	0.066496	0.32408	0.061339	-1.2292	-1.9438	-2.0854	-1.625	-2.0417	-1.8542	-1.7833	-2.0938	-1.8062	-1.7938	-2.0542	-1.4375	-1.9438	-1.8646	-1.6417	-2.05	155.668	41.382	254.110	130.967	154.310	6.001	361.480	190.618	99.710	246.887	76.919	270.384	359.304	283.692	73.573	144.964	8.1876e-06	4.6859e-05	9.8267e-06	29.907	1.0909e-07	3.1611e-07	28.654	12.271	1.511e-07	1.3167e-07	11.518	4.0139	4.4381	1.8409	2.0235e-07	1.6496	1.3794e-05	1.1573e-05	3.1449e-06	33.49	1.2539e-07	1.271e-07	31.972	13.809	1.3909e-07	1.3578e-07	12.887	4.5334	4.9609	2.0963	1.3768e-07	1.8575	195.583	158.512	159.109	16.537	249.809	16.640	15.756	23.577	161.342	58.562	20.981	27.302	29.643	34.556	91.493	31.920	-8191	255	
31733.012	1	1	0	0	0.22833	0.046433	0.083347	0.030799	0.32635	0.16812	0.26712	0.24685	0.062869	0.14631	0.17334	0.13962	0.31684	0.16255	0.10747	0.20401	-1.4188	-1.8542	-1.9146	-1.5604	-2.0583	-1.9833	-1.6458	-2.1583	-1.8542	-1.7583	-2.0958	-1.65	-1.6604	-2.0708	-1.6688	-2.2375	229.021	130.500	165.659	36.354	167.892	79.948	147.061	52.761	322.034	152.635	239.507	59.222	17.270	202.487	265.771	328.247	1.4219e-05	3.8057e-05	9.4565e-06	29.825	4.7568e-07	4.7439e-07	28.566	12.19	1.9716e-07	4.4133e-07	11.59	4.01	4.427	1.8364	4.5058e-07	1.6453	1.3181e-05	1.1718e-05	3.0292e-06	33.451	1.1899e-07	1.2801e-07	31.992	13.772	1.3288e-07	1.2833e-07	12.872	4.5387	4.9674	2.0957	1.3753e-07	1.8603	230.755	199.140	272.422	16.319	78.078	100.696	16.006	23.549	206.683	215.339	20.587	27.144	30.173	34.338	207.933	31.694	-8191	255	
31733.107	1	1	0	0	0.047403	0.30199	0.17254	0.41684	0.097895	0.2005	0.14813	0.17223	0.26438	0.34278	0.20168	0.090652	0.18561	0.23037	0.26353	0.18025	-1.2938	-1.85	-2.1646	-1.5458	-2.0396	-2.025	-1.7458	-2.0458	-1.9521	-1.8292	-2.3146	-1.6917	-1.825	-1.8708	-1.6229	-2.0292	159.210	311.450	93.077	119.958	121.699	228.967	357.353	120.617	77.034	310.393	269.826	248.450	10.373	232.723	252.628	112.428	1.174e-05	3.3955e-06	1.1854e-05	29.718	3.1029e-07	4.7303e-07	28.603	12.212	3.8779e-07	4.2377e-07	11.567	4.0197	4.4184	1.8348	1.173e-08	1.6497	1.3021e-05	1.2063e-05	3.0581e-06	33.422	1.2606e-07	1.2078e-07	31.998	13.792	1.346e-07	1.316e-07	12.875	4.5351	4.9643	2.0945	1.3873e-07	1.8603	223.132	255.355	198.599	16.635	149.669	343.798	15.931	23.346	197.707	134.803	20.743	27.064	29.996	34.614	185.334	31.835	-8191	255	
31733.203	1	1	0	0	0.10377	0.19112	0.32339	0.081933	0.1354	0.32894	0.12215	0.19854	0.18548	0.43764	0.24151	0.11306	0.12989	0.25269	0.24862	0.071729	-1.5729	-1.8833	-2.175	-1.7083	-1.8062	-2.0438	-1.6854	-1.9333	-1.9875	-1.7479	-2.1083	-1.7	-1.7375	-2.0854	-1.7417	-2.1083	318.275	231.504	253.571	83.967	161.102	87.637	99.874	233.429	70.899	138.757	104.333	225.421	158.591	183.014	117.838	42.571	5.7353e-06	4.0279e-05	1.7944e-05	29.801	4.7524e-07	2.0825e-07	28.596	12.224	4.6771e-07	4.579e-07	11.589	4.0344	4.4534	1.8389	2.788e-07	1.661	1.3181e-05	1.2381e-05	3.0928e-06	33.423	1.299e-07	1.2139e-07	32.017	13.795	1.2825e-07	1.3844e-07	12.888	4.537	4.9855	2.1035	1.4377e-07	1.8718	170.781	82.086	320.999	16.482	145.719	142.527	16.017	23.415	132.987	103.378	20.794	26.779	29.905	34.792	125.194	31.865	-8191	255	
31733.324	1	1	0	0	0.12847	0.18113	0.08153	0.058502	0.15378	0.3164	0.20768	0.18383	0.074398	0.054409	0.17562	0.30932	0.29265	0.21984	0.14596	0.093313	-1.6125	-1.4854	-2.125	-1.7917	-1.7062	-2.2979	-1.5479	-1.8479	-2.0958	-1.7271	-2.0917	-1.7687	-1.6979	-2.0438	-1.5167	-1.9604	254.857	238.818	23.619	146.240	17.262	330.269	149.353	82.710	197.713	296.025	115.323	203.611	350.752	69.905	317.551	22.818	1.0578e-05	5.5267e-05	1.0187e-05	29.789	8.3104e-07	1.2644e-08	28.737	12.249	3.4372e-07	5.3279e-07	11.6	4.034	4.4241	1.855	3.8465e-07	1.6716	1.3256e-05	1.2843e-05	3.2279e-06	33.491	1.3862e-07	1.2162e-07	32.082	13.831	1.2533e-07	1.4186e-07	12.911	4.562	4.9964	2.1161	1.3715e-07	1.8851	215.183	335.197	172.990	16.594	106.625	89.211	15.750	23.656	133.405	116.287	20.713	27.273	30.438	34.542	55.800	31.805	-8191	255	
31733.420	1	1	0	0	0.20378	0.1738	0.22215	0.39418	0.022471	0.48061	0.19212	0.052313	0.19927	0.22725	0.22698	0.060097	0.15101	0.054026	0.21472	0.30473	-1.4521	-1.5729	-1.8833	-1.9937	-1.5646	-2.0187	-1.675	-1.875	-2.1792	-1.6333	-1.7917	-1.9646	-1.7479	-2.0667	-1.6771	-1.8229	352.820	352.717	52.089	249.806	235.156	83.774	265.028	363.362	257.579	16.127	40.741	290.943	289.203	222.863	344.619	13.050	1.338e-05	1.4205e-05	5.2315e-06	29.917	2.7895e-07	2.748e-07	28.752	12.313	4.3282e-08	3.93e-07	11.64	4.0503	4.4913	1.8497	6.9489e-08	1.6668	1.2953e-05	1.2974e-05	3.2723e-06	33.558	1.387e-07	1.2147e-07	32.128	13.9	1.1987e-07	1.4247e-07	12.988	4.5745	5.0369	2.113	1.4046e-07	1.8838	217.905	85.750	121.124	16.540	35.274	212.367	15.754	23.552	167.659	143.873	20.693	26.818	29.939	34.519	148.889	31.809	-8191	255	
31733.516	1	1	0	0	0.11362	0.094319	0.12046	0.15921	0.13494	0.19305	0.16772	0.15695	0.32492	0.063137	0.11069	0.23901	0.17804	0.15557	0.10127	0.30887	-1.7896	-1.5854	-1.9625	-1.8333	-1.675	-2.0646	-1.8104	-1.7667	-2.0396	-1.6437	-1.9958	-1.9771	-1.5208	-2.1396	-1.8583	-1.7896	231.925	291.004	338.031	351.433	35.755	280.156	173.004	246.981	66.428	327.897	13.875	158.617	244.436	177.928	93.610	354.226	7.6277e-06	7.7488e-06	4.7392e-06	29.983	6.9556e-07	1.1197e-07	28.739	12.298	3.0994e-07	3.3726e-07	11.616	4.0779	4.4542	1.857	5.1964e-08	1.6693	1.3404e-05	1.305e-05	3.2684e-06	33.616	1.4615e-07	1.3128e-07	32.194	13.904	1.2967e-07	1.4589e-07	12.998	4.5836	5.0261	2.1131	1.455e-07	1.8875	218.553	285.886	123.681	16.519	224.831	214.637	15.542	23.569	60.794	229.383	20.886	26.700	30.011	34.424	302.195	31.541	-8191	255	
31733.635	1	1	0	0	0.28807	0.12845	0.12434	0.20023	0.30536	0.060501	0.23337	0.2367	0.084637	0.22308	0.16528	0.27275	0.23498	0.25006	0.11808	0.093258	-1.7146	-1.6708	-2.0271	-1.9792	-1.5521	-2.1521	-1.8188	-1.6187	-2.1708	-1.85	-1.8667	-2.0875	-1.4229	-2.1312	-1.8	-1.8521	253.195	21.630	108.781	45.959	319.070	323.271	218.390	113.832	82.720	136.171	15.613	151.260	338.232	308.883	231.089	340.608	9.4474e-06	1.9641e-05	1.4851e-05	29.99	3.1542e-07	1.4675e-07	28.899	12.351	1.5042e-07	2.6534e-07	11.686	4.0631	4.4684	1.8524	1.9858e-07	1.6726	1.3355e-05	1.2974e-05	3.5887e-06	33.702	1.4833e-07	1.2984e-07	32.248	13.945	1.2907e-07	1.3639e-07	13.089	4.5974	5.0409	2.114	1.4196e-07	1.8935	218.929	83.898	144.599	16.139	170.174	351.802	15.881	23.553	212.829	258.026	21.043	26.849	30.001	34.185	260.533	31.507	-8191	255	
31733.707	1	1	0	0	0.068142	0.1548	0.16809	0.18459	0.29644	0.225	0.31508	0.014412	0.078707	0.25731	0.098468	0.23036	0.18982	0.24492	0.063545	0.080815	-1.7646	-1.7812	-1.6	-2.1063	-1.6229	-1.9813	-1.9167	-1.5396	-2.1083	-1.9062	-1.6917	-1.95	-1.7875	-1.7354	-1.825	-1.6917	115.673	211.152	182.854	92.115	106.994	353.990	269.661	316.272	318.277	71.103	247.222	320.170	329.338	328.481	52.456	59.299	1.3255e-05	2.7088e-05	6.6787e-06	29.908	5.6002e-07	1.8247e-07	28.779	12.362	1.754e-07	5.9823e-07	11.744	4.0661	4.4869	1.8536	4.8841e-07	1.6713	1.3008e-05	1.3236e-05	3.5385e-06	33.716	1.4133e-07	1.2618e-07	32.253	13.973	1.2944e-07	1.392e-07	13.079	4.5928	5.0388	2.1162	1.3083e-07	1.8917	228.005	48.603	26.451	16.448	191.468	355.368	15.879	23.406	183.173	245.149	20.443	27.122	30.238	34.535	126.695	31.816	-8191	255	
31733.803	1	1	0	0	0.11084	0.16651	0.15137	0.16119	0.12697	0.29087	0.37245	0.21319	0.14085	0.10625	0.065556	0.34704	0.36992	0.11244	0.17298	0.15443	-1.6	-1.8687	-1.6896	-2.0687	-1.7062	-2.0667	-1.9729	-1.7167	-1.9312	-1.9229	-1.7812	-2.1479	-1.6104	-1.8271	-2.0667	-1.6833	62.542	283.169	145.346	41.459	149.853	234.374	282.734	30.705	182.731	61.998	334.112	273.823	141.803	33.349	294.825	13.194	1.1946e-05	1.4988e-05	2.3416e-05	30.072	1.1492e-07	1.14e-07	28.884	12.285	2.0551e-07	5.2616e-07	11.689	4.0738	4.4504	1.8547	3.7338e-07	1.6749	1.2878e-05	1.2746e-05	3.5289e-06	33.7	1.4351e-07	1.2687e-07	32.248	13.944	1.2974e-07	1.3487e-07	13.121	4.5886	5.0297	2.1124	1.2993e-07	1.8958	228.635	351.432	106.784	16.738	205.676	364.190	15.757	23.468	208.897	248.051	20.842	26.827	29.990	34.273	111.529	31.344	-8191	255	
31733.898	1	1	0	0	0.17633	0.17287	0.16896	0.30998	0.17851	0.10019	0.19441	0.15311	0.32915	0.3192	0.16451	0.092126	0.31999	0.07928	0.069942	0.28835	-1.6458	-1.9417	-1.7479	-2.0521	-1.8312	-1.875	-2.0979	-1.6854	-2.0062	-1.9021	-1.5625	-1.9896	-1.5417	-1.7792	-2.0521	-1.8188	21.262	346.734	9.268	108.468	100.150	275.257	86.121	233.479	321.209	30.389	249.843	308.728	194.380	195.714	266.837	293.907	1.4087e-05	4.85e-05	2.7129e-06	30.106	2.908e-07	2.3203e-07	28.881	12.356	4.364e-08	3.0966e-07	11.683	4.0733	4.4582	1.8592	3.4445e-07	1.675	1.3423e-05	1.256e-05	3.5829e-06	33.729	1.3998e-07	1.3433e-07	32.268	13.972	1.2922e-07	1.3601e-07	13.076	4.5846	5.0359	2.1185	1.3505e-07	1.8929	218.613	145.280	141.875	16.209	182.479	192.606	16.062	23.579	183.655	170.074	20.371	26.795	29.820	34.207	100.576	31.326	-8191	255	
31734.020	1	1	0	0	0.085874	0.20169	0.22621	0.30403	0.23005	0.10939	0.16722	0.12851	0.12223	0.042981	0.35739	0.22631	0.17716	0.2154	0.080141	0.15999	-1.4708	-1.8333	-1.6917	-2.1271	-1.6771	-1.8062	-2.1875	-1.8875	-1.9	-1.9562	-1.5625	-2.025	-1.8417	-1.7146	-2.1625	-1.4312	105.804	53.116	6.922	299.996	365.306	106.957	81.630	346.907	320.110	107.344	40.768	133.099	225.830	184.141	82.210	16.127	6.575e-06	4.0988e-05	9.7438e-06	30.003	2.9719e-07	4.6936e-07	28.942	12.353	1.9186e-07	2.701e-07	11.651	4.0852	4.5128	1.8727	2.7725e-07	1.6804	1.3689e-05	1.2436e-05	3.88e-06	33.708	1.399e-07	1.427e-07	32.288	13.989	1.2885e-07	1.3533e-07	13.134	4.6028	5.046	2.1336	1.2662e-07	1.9017	226.927	324.058	29.763	16.430	161.816	88.301	15.631	23.480	187.623	86.309	21.133	26.694	30.154	34.287	119.610	31.526	-8191	255	
31734.115	1	1	0	0	0.071927	0.14817	0.11812	0.2632	0.1988	0.09082	0.14851	0.16839	0.15901	0.028009	0.10866	0.10051	0.048173	0.10706	0.21788	0.089526	-1.6708	-1.8271	-1.7146	-1.9604	-1.9479	-1.8146	-2.2333	-1.6063	-1.8042	-1.9688	-1.3729	-1.9771	-1.6875	-1.625	-2.3146	-1.7417	354.367	183.206	71.617	344.043	273.562	77.497	50.905	260.931	207.308	22.739	27.761	237.618	283.953	171.572	294.409	137.015	7.15e-06	8.6936e-05	1.2549e-05	30.094	6.4965e-07	2.9623e-07	28.89	12.383	1.9038e-07	4.5949e-07	11.765	4.0893	4.4949	1.8857	3.916e-07	1.6988	1.341e-05	1.1842e-05	3.7585e-06	33.767	1.3772e-07	1.4217e-07	32.268	14.025	1.3415e-07	1.3228e-07	13.139	4.6101	5.0558	2.1523	1.2286e-07	1.9131	225.917	73.382	36.568	16.585	173.054	203.912	15.836	23.510	218.031	152.680	20.661	26.994	29.940	34.382	116.713	31.499	-8191	255	
31734.213	1	1	0	0	0.12202	0.16725	0.17088	0.17152	0.32188	0.1857	0.052782	0.048606	0.24504	0.11739	0.23802	0.028832	0.16372	0.13425	0.12742	0.076503	-1.3208	-1.8896	-1.5688	-1.6708	-1.8792	-1.6792	-2.2083	-1.6583	-1.7375	-2.1188	-1.6125	-1.9042	-1.9937	-1.6396	-2.1167	-1.9104	339.340	142.412	8.567	335.330	275.432	101.930	349.349	39.934	145.022	87.039	125.588	47.148	95.809	39.085	45.433	357.629	9.5191e-06	3.8957e-05	1.1677e-05	30.148	2.3309e-07	3.5163e-07	28.807	12.381	3.9681e-07	3.994e-07	11.676	4.0677	4.4993	1.8856	1.0855e-07	1.694	1.3979e-05	1.2153e-05	3.5559e-06	33.755	1.3629e-07	1.4278e-07	32.212	13.997	1.3505e-07	1.2415e-07	13.059	4.5966	5.0396	2.1422	1.2309e-07	1.9055	178.141	47.957	208.461	16.315	90.072	210.699	15.885	23.510	151.512	211.624	20.850	26.953	30.038	34.388	103.953	31.527	-8191	255	
31734.283	1	1	0	0	0.38526	0.186	0.15048	0.02482	0.047785	0.22855	0.28494	0.12102	0.1628	0.1953	0.086609	0.02746	0.08745	0.1169	0.38747	0.18701	-1.4354	-2.1729	-1.5958	-2.0854	-1.8479	-1.7563	-1.9979	-1.5583	-1.7125	-2.0625	-1.6479	-1.9542	-2.1083	-1.4708	-1.9146	-1.8708	36.408	80.945	43.542	185.664	265.646	9.807	91.129	96.558	207.620	178.475	364.390	23.394	170.468	162.436	49.212	277.152	1.0784e-05	4.3198e-05	7.5e-06	30.008	3.9338e-07	2.0751e-07	28.72	12.372	1.6923e-07	7.0468e-08	11.738	4.0607	4.4865	1.8685	2.4687e-07	1.6794	1.4016e-05	1.1339e-05	3.6292e-06	33.608	1.2824e-07	1.4871e-07	32.138	13.978	1.3931e-07	1.183e-07	13.05	4.5906	5.0207	2.1336	1.2655e-07	1.8975	216.282	183.283	134.229	16.421	185.242	275.630	15.928	23.532	225.783	224.733	20.908	26.937	30.310	34.389	189.054	31.515	-8191	255	
31734.404	1	1	0	0	0.13488	0.17532	0.21314	0.12746	0.19106	0.13714	0.085364	0.058474	0.31349	0.24967	0.34611	0.11474	0.22166	0.25782	0.26578	0.123	-1.1187	-2.1375	-1.6479	-1.7521	-1.9729	-1.7896	-1.9813	-1.8854	-1.4917	-2.0812	-1.5542	-1.7667	-2.0104	-1.5792	-1.7938	-1.8333	246.416	132.827	149.597	101.870	342.691	121.617	9.393	48.544	197.307	29.719	105.754	167.540	77.268	114.921	254.556	207.432	1.2119e-05	5.7253e-06	2.194e-06	29.911	5.104e-07	3.0785e-07	28.812	12.365	3.5612e-08	2.3908e-07	11.717	4.0749	4.4768	1.8792	3.0339e-07	1.6937	1.4406e-05	1.1911e-05	3.5308e-06	33.593	1.3088e-07	1.4331e-07	32.169	13.977	1.4776e-07	1.243e-07	13.064	4.5923	5.0366	2.1396	1.3287e-07	1.9043	225.997	91.895	115.076	16.390	152.714	172.832	15.642	23.634	78.040	329.116	21.163	27.023	30.200	34.719	101.060	31.753	-8191	255	
31734.500	1	1	0	0	0.063623	0.086605	0.079005	0.1869	0.13097	0.088187	0.16677	0.1887	0.066932	0.22803	0.2713	0.29685	0.050732	0.22207	0.12989	0.13022	-1.2188	-2.1417	-1.6	-1.9104	-2.225	-1.5042	-2.1958	-1.8687	-1.5562	-2.1896	-1.7938	-1.6917	-2.1083	-1.6625	-1.9917	-1.9646	114.744	334.747	64.392	10.282	177.281	96.745	71.284	222.832	113.309	106.567	125.451	296.147	300.516	22.216	174.789	50.147	1.0428e-05	3.0277e-05	9.7612e-06	29.992	5.0995e-07	4.1939e-07	28.672	12.381	1.9898e-07	3.9278e-07	11.669	4.077	4.4886	1.9	9.3419e-08	1.6957	1.4221e-05	1.0918e-05	3.4343e-06	33.624	1.2809e-07	1.3615e-07	32.12	13.972	1.4717e-07	1.2438e-07	13.064	4.6019	5.0397	2.1597	1.3114e-07	1.9123	194.728	134.231	184.709	16.655	174.063	39.036	16.105	23.624	200.902	171.405	21.684	27.114	30.220	34.583	265.662	31.735	-8191	255	
31734.598	1	1	0	0	0.042223	0.28835	0.082846	0.11373	0.18831	0.0044839	0.12128	0.2278	0.18255	0.19471	0.15218	0.21379	0.037692	0.12073	0.16465	0.031596	-1.1896	-2.0667	-1.75	-1.4854	-2.2875	-1.5917	-1.6875	-2.2167	-1.7354	-2.1854	-1.7812	-1.6625	-2.0333	-1.5292	-1.9104	-2.1833	44.925	29.372	88.560	204.359	192.600	168.639	133.905	98.570	145.112	41.674	109.611	236.435	14.708	190.529	69.086	7.097	1.0836e-05	6.3686e-05	1.3516e-05	29.949	3.8414e-07	4.4533e-07	28.702	12.374	7.4748e-08	3.8285e-07	11.688	4.0636	4.5042	1.8854	3.4368e-07	1.6693	1.4474e-05	1.1373e-05	3.5906e-06	33.573	1.217e-07	1.4392e-07	32.093	13.982	1.4814e-07	1.2195e-07	13.04	4.5894	5.0364	2.1483	1.3527e-07	1.8923	186.449	14.280	132.505	16.410	112.812	216.376	15.833	23.767	272.053	84.637	20.735	27.216	30.066	34.515	288.429	31.746	-8191	255	
31734.715	1	1	0	0	0.16335	0.119	0.13656	0.23531	0.072225	0.094193	0.36618	0.12566	0.1205	0.18644	0.10487	0.046143	0.13544	0.20883	0.19492	0.21952	-1.2667	-2.0729	-1.7458	-1.5458	-2.0792	-1.9479	-1.6729	-2.0708	-1.6833	-2.0083	-1.9667	-1.5708	-2.1208	-1.9396	-1.9417	-2.0979	365.013	12.843	142.477	95.323	66.952	21.362	210.898	54.513	52.221	216.855	145.145	64.602	72.592	290.405	19.194	172.347	7.9117e-06	4.426e-05	1.3372e-05	29.76	4.2584e-07	4.4807e-07	28.609	12.374	3.8866e-07	9.0034e-08	11.7	4.0676	4.5033	1.8699	3.5584e-07	1.6686	1.4072e-05	1.1207e-05	3.2626e-06	33.517	1.2298e-07	1.3532e-07	31.979	13.921	1.4866e-07	1.278e-07	12.959	4.5907	5.0351	2.1308	1.4512e-07	1.8801	187.530	181.011	267.125	16.348	160.025	42.628	15.933	23.817	232.214	312.169	20.948	27.338	30.122	34.609	297.801	32.064	-8191	255	
31734.812	1	1	0	0	0.1155	0.26864	0.22129	0.22288	0.28561	0.10033	0.16273	0.26247	0.13328	0.063679	0.047232	0.18575	0.15011	0.18343	0.18807	0.22744	-1.3563	-1.9	-1.9708	-1.7792	-2.1125	-1.8438	-1.8583	-2.0854	-1.6437	-1.9604	-2.1542	-1.5708	-2.1167	-1.7625	-1.7437	-2.0917	333.623	290.335	107.593	259.644	342.971	66.395	57.732	153.561	139.874	293.648	284.647	121.492	215.123	161.165	91.634	74.381	1.0799e-05	2.576e-05	8.8331e-06	29.901	5.0699e-07	3.1499e-07	28.642	12.255	2.0941e-07	1.8249e-07	11.587	4.06	4.4523	1.859	2.4143e-07	1.6696	1.4159e-05	1.2305e-05	3.3977e-06	33.558	1.2433e-07	1.2611e-07	32.056	13.867	1.432e-07	1.3388e-07	12.948	4.5712	5.0079	2.1203	1.4339e-07	1.8807	217.028	281.429	111.822	16.608	57.604	243.503	16.043	23.636	154.230	153.214	20.507	27.266	30.109	34.566	239.543	31.645	-8191	255	
31734.908	1	1	0	0	0.12477	0.047655	0.20158	0.26199	0.16958	0.26956	0.24965	0.15606	0.16074	0.17615	0.17403	0.14132	0.28849	0.14784	0.13262	0.19822	-1.3667	-1.6417	-2.1208	-1.5104	-1.8771	-1.9125	-1.8229	-2.1042	-1.8292	-2.0187	-1.9604	-1.55	-1.9729	-1.7917	-2.0083	-2.0687	247.427	159.195	226.377	314.135	67.100	17.802	352.875	73.382	302.909	139.967	124.094	253.698	32.948	11.821	63.558	5.836	9.7377e-06	4.814e-05	6.1391e-06	29.751	2.7183e-07	1.9384e-07	28.556	12.235	2.9177e-07	3.2994e-07	11.63	4.0351	4.4627	1.8537	1.8206e-07	1.6623	1.4122e-05	1.2436e-05	3.2916e-06	33.502	1.2832e-07	1.2413e-07	32.048	13.836	1.3587e-07	1.3677e-07	12.937	4.5511	4.9928	2.1153	1.4272e-07	1.8778	242.169	68.179	129.330	16.259	251.948	89.784	16.101	23.763	215.839	180.330	20.970	27.037	30.139	34.446	311.428	31.863	-8191	255	
31735.004	1	1	0	0	0.096603	0.158	0.12349	0.21952	0.041721	0.12753	0.15853	0.3167	0.21457	0.13135	0.03414	0.17093	0.080538	0.13017	0.12534	0.30556	-1.0521	-1.75	-2.0271	-1.5354	-1.925	-1.975	-1.5896	-1.9	-1.6938	-1.8542	-2.075	-1.5333	-1.8563	-1.8625	-1.625	-2.1417	347.070	129.006	172.716	163.453	200.473	193.476	355.335	190.536	66.964	355.471	221.160	37.087	14.520	328.134	293.847	70.381	1.2253e-05	4.179e-05	1.1548e-05	29.863	2.3107e-07	1.4967e-07	28.587	12.25	2.9611e-07	6.4387e-08	11.632	4.0247	4.4414	1.8532	2.9697e-07	1.6567	1.4023e-05	1.2553e-05	3.2549e-06	33.51	1.3216e-07	1.3197e-07	31.991	13.831	1.4103e-07	1.4529e-07	12.93	4.5509	4.99	2.1111	1.4903e-07	1.871	218.344	47.215	177.300	16.712	130.575	82.834	16.000	23.732	162.609	46.690	20.808	26.948	30.017	34.664	355.111	31.527	-8191	255	
31735.100	1	1	0	0	0.038172	0.1753	0.18033	0.25034	0.25223	0.20438	0.2357	0.17286	0.25723	0.10127	0.22572	0.25901	0.056753	0.16297	0.096924	0.17383	-1.3292	-1.6	-2.0854	-1.5792	-1.7146	-2.0229	-1.5208	-1.85	-1.7875	-1.7396	-2.3187	-1.7667	-1.8292	-2.0333	-1.5146	-1.8021	89.594	81.146	278.033	221.867	139.927	304.014	267.061	83.669	86.785	51.565	189.947	137.106	152.387	115.374	168.945	37.072	9.2814e-06	3.8862e-05	7.3389e-06	29.782	8.4236e-08	4.7456e-07	28.687	12.239	3.7507e-07	3.0275e-07	11.638	4.0173	4.4399	1.8393	3.3874e-07	1.6553	1.3707e-05	1.3174e-05	3.3128e-06	33.498	1.302e-07	1.2831e-07	32.036	13.831	1.3423e-07	1.4156e-07	12.92	4.5479	4.9933	2.1024	1.4602e-07	1.8711	231.381	201.409	37.714	16.394	352.949	164.461	15.994	23.823	190.820	158.236	20.953	27.061	29.798	34.493	159.639	31.875	-8191	255	
31735.195	1	1	0	0	0.14545	0.27449	0.16137	0.14553	0.057425	0.23648	0.25894	0.17473	0.30604	0.14222	0.14128	0.2359	0.29581	0.16958	0.10509	0.12783	-1.4333	-1.6063	-1.9229	-1.6292	-1.975	-2.1333	-1.5896	-1.8438	-1.7229	-1.7125	-2.0708	-1.7812	-1.6437	-1.9021	-1.6667	-1.8021	92.297	8.330	128.820	310.185	346.864	249.474	33.119	162.733	140.857	201.839	294.077	200.314	284.495	72.483	216.261	343.864	1.0224e-05	2.766e-05	1.1015e-05	29.957	8.1382e-08	7.1112e-07	28.612	12.246	1.0801e-07	3.3254e-07	11.474	4.0271	4.424	1.8452	6.4698e-07	1.6577	1.3794e-05	1.345e-05	3.2009e-06	33.496	1.3712e-07	1.3189e-07	31.976	13.837	1.3752e-07	1.4004e-07	12.884	4.5476	4.9766	2.1006	1.4369e-07	1.8695	214.390	16.582	170.090	16.878	178.802	81.632	15.764	23.727	35.951	232.604	20.887	27.042	29.895	34.384	152.413	31.487	-8191	255	
31735.316	1	1	0	0	0.21529	0.03915	0.091857	0.23131	0.20152	0.19572	0.33597	0.21348	0.058245	0.25104	0.12424	0.22015	0.21601	0.092944	0.13878	0.18052	-1.5729	-1.6042	-1.9604	-1.7625	-1.7542	-2.2062	-1.7	-1.8667	-2.1375	-1.8292	-2.1583	-1.8042	-1.7521	-2.2896	-1.9333	-1.9521	85.808	257.789	330.839	352.107	316.576	120.679	16.190	85.044	205.813	361.562	9.668	311.270	221.876	294.499	37.123	345.270	7.6454e-06	2.0875e-05	1.4969e-05	29.714	1.9765e-07	2.8573e-07	28.674	12.247	3.3809e-07	2.3743e-07	11.68	4.0379	4.4125	1.8421	2.8403e-07	1.6554	1.401e-05	1.3305e-05	3.2067e-06	33.444	1.4389e-07	1.2968e-07	32.023	13.852	1.3116e-07	1.4635e-07	12.946	4.5472	4.9837	2.0975	1.4332e-07	1.8701	213.504	107.991	149.169	16.420	250.549	105.535	15.616	23.583	245.518	80.606	20.825	27.209	30.256	34.507	116.325	31.804	-8191	255	
31735.412	1	1	0	0	0.11087	0.1356	0.15853	0.08361	0.17283	0.2464	0.11274	0.2142	0.091668	0.37876	0.12089	0.15383	0.055099	0.3161	0.14	0.085999	-1.5833	-1.5417	-2.1042	-1.9	-1.5875	-2.3187	-1.8042	-1.6042	-2.0771	-1.65	-2.1083	-2.0208	-1.5354	-2.2417	-1.7375	-1.875	75.638	245.914	273.599	102.712	306.697	159.677	10.255	58.582	290.693	189.982	230.561	168.902	208.797	69.288	208.927	358.710	1.0399e-05	3.8618e-05	3.6008e-06	29.86	2.6154e-07	3.2862e-07	28.602	12.242	2.6622e-07	4.8987e-07	11.601	4.0424	4.4385	1.8375	1.6501e-07	1.6542	1.299e-05	1.3029e-05	3.2105e-06	33.502	1.4735e-07	1.1834e-07	32.006	13.846	1.3475e-07	1.4605e-07	12.94	4.5486	4.982	2.0944	1.3978e-07	1.8743	213.703	85.784	147.234	16.776	220.755	31.209	15.940	23.525	197.034	85.016	21.424	26.944	29.877	34.528	360.534	31.388	-8191	255	
31735.508	1	1	0	0	0.1445	0.23641	0.25052	0.1773	0.23469	0.12335	0.14726	0.13235	0.064363	0.11027	0.23904	0.15864	0.062209	0.33505	0.13069	0.12043	-1.6958	-1.625	-1.9396	-1.975	-1.8167	-2.1833	-1.8625	-1.7271	-2.0563	-1.8771	-1.9	-2	-1.6896	-1.9188	-1.7062	-1.7125	114.460	252.485	153.118	56.938	141.470	8.719	169.607	156.710	206.959	113.773	309.241	228.309	283.695	310.508	200.742	51.485	1.181e-05	3.9527e-05	1.9863e-05	29.838	8.042e-07	7.6921e-08	28.65	12.281	5.7637e-07	3.1443e-07	11.676	4.0218	4.4306	1.8387	2.3326e-07	1.6536	1.2649e-05	1.2995e-05	3.3475e-06	33.488	1.3983e-07	1.2398e-07	32.093	13.841	1.2436e-07	1.3593e-07	12.94	4.5399	4.9763	2.0918	1.3617e-07	1.8657	229.543	74.043	90.899	16.657	171.190	34.249	16.112	23.814	286.457	214.631	20.244	26.750	29.714	34.182	104.174	31.376	-8191	255	
31735.580	1	1	0	0	0.082577	0.046104	0.2423	0.082795	0.23987	0.01147	0.12091	0.054752	0.041958	0.29994	0.024104	0.078004	0.23227	0.06007	0.13693	0.30251	-1.8021	-1.9062	-1.9354	-2.0083	-1.5917	-2.0667	-1.9792	-1.7958	-2.1458	-1.6479	-1.8521	-2.0333	-1.8042	-1.7354	-1.9333	-1.5771	357.558	283.819	340.213	173.278	78.334	264.777	150.680	298.940	271.103	336.521	112.760	150.921	275.432	22.192	294.647	79.627	1.1845e-05	6.8334e-05	5.5545e-06	29.961	3.7016e-07	3.2367e-07	28.701	12.246	3.422e-07	5.2189e-07	11.476	4.0016	4.4084	1.8416	9.3137e-08	1.6532	1.2513e-05	1.3064e-05	3.1584e-06	33.51	1.4517e-07	1.169e-07	32.06	13.842	1.2077e-07	1.4293e-07	12.926	4.5231	4.9669	2.0948	1.3595e-07	1.8672	259.009	57.403	57.734	16.179	117.063	134.341	15.664	23.459	106.141	164.577	20.819	27.035	30.013	34.229	58.364	31.565	-8191	255	
31735.699	1	1	0	0	0.091123	0.11697	0.16194	0.055394	0.21126	0.17529	0.17975	0.2604	0.030113	0.32119	0.033272	0.18225	0.0695	0.081201	0.17266	0.11802	-1.6021	-1.8687	-1.8354	-1.9729	-1.6854	-2.075	-1.8687	-1.4312	-2.1771	-1.5417	-1.8937	-2.0167	-1.6083	-1.9312	-1.9292	-1.4688	62.880	203.332	178.849	252.040	276.132	349.799	354.624	97.970	31.924	260.197	286.586	97.314	276.923	117.299	36.003	162.632	1.0819e-05	5.2914e-05	1.4007e-05	29.924	3.7692e-07	3.7486e-07	28.712	12.275	2.6306e-07	1.1303e-07	11.581	4.0347	4.4331	1.8505	1.4307e-07	1.6689	1.2594e-05	1.2539e-05	3.4189e-06	33.485	1.3509e-07	1.2459e-07	32.054	13.868	1.1838e-07	1.2423e-07	12.929	4.5332	4.9795	2.1108	1.2903e-07	1.8806	212.019	56.127	185.464	16.604	107.587	101.885	15.905	23.707	276.965	180.409	21.098	27.127	29.953	34.509	177.823	31.654	-8191	255	
31735.797	1	1	0	0	0.10855	0.22023	0.20088	0.49602	0.098666	0.20661	0.20548	0.11095	0.14861	0.29353	0.18542	0.11999	0.034745	0.24781	0.12445	0.12356	-1.6125	-1.7604	-1.8542	-2.0604	-1.6917	-1.8396	-2.0396	-1.4208	-2.0917	-1.8312	-1.6854	-1.9813	-1.5875	-1.8792	-1.9042	-1.675	197.594	103.098	72.241	350.472	142.867	336.081	182.160	239.462	212.759	66.565	338.998	236.765	241.102	360.218	20.471	268.659	1.3429e-05	3.7064e-05	7.4154e-06	29.958	8.8394e-08	2.6315e-07	28.72	12.329	1.2797e-07	5.7567e-07	11.701	4.0338	4.428	1.8519	3.6376e-07	1.6671	1.213e-05	1.1794e-05	3.3321e-06	33.525	1.4141e-07	1.2824e-07	32.074	13.889	1.1987e-07	1.3859e-07	12.96	4.5444	4.9877	2.1128	1.2723e-07	1.8806	236.713	68.552	67.717	16.724	27.607	243.897	15.768	23.522	336.666	104.052	20.791	27.167	29.989	34.412	137.830	31.492	-8191	255	
31735.893	1	1	0	0	0.17186	0.26967	0.17141	0.077284	0.27196	0.12951	0.16332	0.056523	0.22114	0.24479	0.10015	0.11722	0.17031	0.16929	0.17029	0.068817	-1.5083	-1.7667	-1.6125	-1.9937	-1.65	-2	-1.8958	-1.5396	-1.9292	-1.8583	-1.6333	-2.0271	-1.4833	-1.8604	-2.0417	-1.5958	29.244	239.676	63.034	174.508	239.406	10.853	271.039	249.917	210.165	284.416	45.641	20.465	116.523	208.613	338.770	89.154	1.1135e-05	0.00010212	2.9059e-06	29.825	1.1498e-07	1.5117e-07	28.8	12.313	3.5479e-07	3.8309e-07	11.652	4.0196	4.4152	1.8518	3.08e-07	1.6618	1.2897e-05	1.1497e-05	3.5424e-06	33.465	1.3539e-07	1.3166e-07	32.123	13.899	1.2705e-07	1.2993e-07	13.02	4.5495	4.9876	2.1112	1.2542e-07	1.8793	211.726	93.252	163.696	16.521	181.964	293.110	15.666	23.633	221.392	161.183	20.937	27.108	30.119	34.565	116.602	31.413	-8191	255	
31735.988	1	1	0	0	0.30163	0.21159	0.19698	0.036427	0.094908	0.13043	0.13831	0.10108	0.14159	0.13961	0.17701	0.067853	0.086806	0.077923	0.14081	0.066186	-1.5146	-1.7938	-1.4562	-2.05	-1.8271	-1.7354	-2.075	-1.3813	-1.9083	-2.1521	-1.6313	-1.9979	-1.9208	-1.7604	-2.1458	-1.7125	215.801	142.254	277.102	108.374	100.506	305.610	161.678	5.839	187.623	105.739	62.719	224.286	247.169	21.032	318.426	81.238	1.1856e-05	6.1149e-05	7.071e-06	29.996	2.11e-07	3.3962e-07	28.76	12.293	5.309e-08	5.3521e-07	11.547	4.0211	4.4197	1.841	4.8215e-07	1.6587	1.2965e-05	1.2056e-05	3.4787e-06	33.528	1.3614e-07	1.344e-07	32.122	13.883	1.2974e-07	1.2248e-07	12.958	4.5341	4.973	2.1006	1.2286e-07	1.8729	232.784	114.671	68.337	16.698	18.126	130.290	15.675	23.565	70.724	130.738	20.575	27.203	29.983	34.515	210.974	31.665	-8191	255	
31736.084	1	1	0	0	0.34633	0.26231	0.17537	0.1863	0.14983	0.050606	0.28997	0.14885	0.13408	0.37783	0.28187	0.16356	0.16236	0.15239	0.36405	0.19948	-1.425	-1.8625	-1.4937	-1.7938	-1.6646	-1.6104	-1.925	-1.6479	-1.8125	-1.9979	-1.6688	-2.0354	-1.8042	-1.625	-1.9458	-1.7979	48.812	62.101	33.794	311.193	297.343	48.328	98.901	95.361	353.873	183.585	335.362	257.410	359.376	269.542	245.518	32.487	1.0764e-05	3.8107e-05	1.0192e-05	29.909	2.0921e-07	4.4987e-07	28.706	12.259	1.2232e-07	2.6302e-07	11.61	4.0222	4.4276	1.8342	3.403e-07	1.6447	1.3404e-05	1.1401e-05	3.5636e-06	33.544	1.3005e-07	1.3775e-07	32.034	13.841	1.3513e-07	1.2605e-07	12.915	4.5314	4.9536	2.0962	1.2467e-07	1.8627	223.469	83.532	155.430	16.402	199.288	116.880	15.748	23.597	241.135	311.305	20.259	26.612	30.122	34.502	108.485	31.813	-8191	255	
31736.180	1	1	0	0	0.23811	0.010533	0.27779	0.058201	0.19912	0.2483	0.26811	0.1714	0.19805	0.20064	0.077855	0.12196	0.2223	0.10247	0.21865	0.10232	-1.4604	-1.9625	-1.6812	-1.9646	-1.8	-1.5292	-2.2771	-1.7625	-1.6958	-2.1167	-1.5021	-1.8979	-1.9146	-1.6354	-2.1521	-1.7396	51.628	259.660	337.045	291.699	238.131	152.245	230.597	42.447	112.592	158.199	42.457	123.710	269.829	39.674	29.199	170.894	1.5234e-05	8.0746e-05	8.5481e-06	29.928	5.3364e-07	4.8676e-07	28.644	12.239	2.9781e-07	3.1765e-07	11.555	4.0214	4.4291	1.8316	1.6332e-07	1.6561	1.3534e-05	1.1339e-05	3.6504e-06	33.481	1.3005e-07	1.4011e-07	32.036	13.84	1.2914e-07	1.2035e-07	12.942	4.5305	4.9553	2.0925	1.2429e-07	1.8695	204.257	76.335	176.885	16.592	169.336	106.958	15.999	23.666	215.009	247.993	20.700	27.223	29.509	34.442	180.020	31.870	-8191	255	
31736.277	1	1	0	0	0.18148	0.19409	0.1084	0.041363	0.09306	0.11254	0.068368	0.40248	0.15992	0.109	0.20602	0.24583	0.18913	0.31612	0.21729	0.19836	-1.3458	-2.1208	-1.5208	-1.9438	-1.8667	-1.6625	-1.7292	-1.9312	-1.6375	-2.05	-1.5646	-1.9917	-2.1771	-1.55	-2.0854	-1.9312	193.487	170.391	360.682	241.240	296.544	279.661	43.400	131.666	99.271	265.272	49.882	85.621	94.591	224.353	189.331	157.781	1.2372e-05	5.7318e-05	1.402e-05	29.931	3.6346e-07	2.8553e-07	28.686	12.215	2.7675e-07	1.7456e-07	11.673	3.9938	4.3796	1.8398	1.4286e-07	1.6632	1.3664e-05	1.109e-05	3.5424e-06	33.51	1.3043e-07	1.4437e-07	32.05	13.826	1.4178e-07	1.1875e-07	12.956	4.5219	4.9375	2.0925	1.2467e-07	1.8711	205.493	60.346	226.229	16.519	187.662	335.919	15.749	23.582	201.635	214.200	20.472	26.943	29.541	34.489	159.916	31.545	-8191	255	
31736.396	1	1	0	0	0.076123	0.18824	0.12885	0.25044	0.11574	0.18409	0.14288	0.31171	0.23229	0.085405	0.091409	0.26757	0.16307	0.22803	0.23754	0.11512	-1.5125	-1.9104	-1.7125	-1.8104	-1.9	-1.5833	-1.9417	-1.9062	-1.4875	-2.1458	-1.8021	-1.8604	-1.975	-1.6146	-2.0292	-2.0438	11.346	359.039	127.778	205.132	322.728	196.302	330.223	320.782	249.123	77.330	259.080	171.465	27.270	44.891	135.254	177.123	1.0475e-05	3.8848e-05	2.2538e-06	29.827	2.6454e-07	5.654e-07	28.759	12.222	8.0557e-08	4.624e-07	11.624	4.0353	4.425	1.8337	4.8793e-07	1.6617	1.3788e-05	1.1559e-05	3.5964e-06	33.488	1.3118e-07	1.3684e-07	32.045	13.811	1.4201e-07	1.2339e-07	12.934	4.5399	4.9464	2.0925	1.2602e-07	1.871	219.373	110.531	106.939	16.386	232.369	298.720	15.717	23.514	252.338	195.488	20.683	26.986	30.036	34.244	220.010	31.506	-8191	255	
31736.492	1	1	0	0	0.22728	0.09991	0.16671	0.12776	0.19831	0.19321	0.37945	0.25323	0.039014	0.090397	0.064806	0.29755	0.40637	0.15005	0.055421	0.10149	-1.2708	-2.1625	-1.7625	-1.5458	-2.0875	-1.7917	-1.9083	-1.9792	-1.5833	-2.0062	-1.8229	-1.8188	-1.9792	-1.6396	-2.0396	-2.0771	152.710	198.494	175.146	333.990	188.683	282.093	263.413	140.770	334.738	52.540	107.416	43.224	143.254	88.631	245.273	297.284	1.281e-05	4.1716e-05	9.5728e-06	29.753	2.0464e-07	4.2411e-07	28.572	12.22	4.5471e-07	1.9097e-07	11.621	4.0093	4.4014	1.8382	4.4874e-07	1.6576	1.4394e-05	1.129e-05	3.2877e-06	33.416	1.2561e-07	1.4179e-07	32.029	13.805	1.5023e-07	1.1875e-07	12.949	4.5273	4.9406	2.0886	1.3121e-07	1.8696	195.888	32.602	179.243	16.249	151.296	159.064	15.724	23.601	224.821	67.841	20.675	27.108	29.656	34.111	169.240	31.596	-8191	255	
31736.588	1	1	0	0	0.18288	0.18858	0.098862	0.35262	0.21661	0.15876	0.33869	0.39968	0.10322	0.066801	0.43424	0.19317	0.14754	0.028601	0.39145	0.21548	-1.0833	-1.9917	-1.7875	-1.75	-2.2083	-1.775	-1.9458	-1.9604	-1.5354	-2.0333	-1.825	-1.6437	-2.1083	-1.8104	-2.1042	-2.025	166.904	238.471	56.448	13.114	89.445	24.056	243.357	163.723	153.294	190.410	15.433	296.132	227.743	262.212	193.774	237.855	1.3171e-05	3.5108e-05	1.2871e-05	29.719	3.6968e-07	3.1681e-07	28.665	12.226	2.1169e-07	1.2697e-07	11.659	4.0131	4.4394	1.8442	2.645e-07	1.671	1.4777e-05	1.1138e-05	3.4613e-06	33.432	1.2358e-07	1.36e-07	32.033	13.8	1.4455e-07	1.24e-07	12.912	4.5288	4.9417	2.1001	1.2888e-07	1.8796	219.372	31.009	100.164	16.555	309.942	18.563	15.792	23.620	166.765	106.555	20.489	26.936	29.815	34.401	134.429	31.732	-8191	255	
31736.686	1	1	0	0	0.086769	0.20903	0.12899	0.2872	0.20801	0.15242	0.32928	0.019669	0.083917	0.27308	0.052616	0.23099	0.1679	0.21153	0.13704	0.12806	-1.1979	-1.9188	-1.9292	-1.45	-2.1208	-1.8917	-1.7833	-2.1333	-1.6146	-1.9813	-1.7104	-1.5208	-2.0729	-1.6854	-1.8521	-2.1188	12.313	21.692	92.500	58.740	129.232	228.011	229.243	149.367	42.594	190.990	343.423	286.108	357.454	139.061	159.573	238.549	8.5078e-06	3.9538e-05	1.4099e-05	29.752	2.3733e-07	4.3913e-07	28.687	12.246	1.8098e-07	1.339e-07	11.633	4.0122	4.3791	1.8427	8.0484e-08	1.6804	1.4326e-05	1.1635e-05	3.2202e-06	33.455	1.199e-07	1.3501e-07	32.03	13.826	1.4216e-07	1.1989e-07	12.933	4.525	4.9302	2.1018	1.3414e-07	1.8872	231.420	311.959	169.477	16.697	363.270	175.467	15.827	23.688	47.331	204.791	20.594	27.426	30.176	34.232	279.011	31.535	-8191	255	
31736.805	1	1	0	0	0.23899	0.21994	0.32656	0.21301	0.027754	0.056025	0.18866	0.29509	0.20278	0.10931	0.17482	0.22963	0.090032	0.096829	0.18115	0.04982	-1.2062	-1.9083	-1.9271	-1.6646	-2.125	-1.8792	-1.7167	-2.1833	-1.7313	-2.0271	-1.9562	-1.6521	-2.0854	-1.7563	-1.7458	-2.2458	238.785	67.232	155.627	233.348	205.702	210.579	222.990	332.887	258.202	113.649	298.937	282.577	278.931	263.503	287.629	327.377	9.794e-06	7.4712e-06	8.3636e-06	29.797	4.0671e-07	2.801e-07	28.664	12.28	2.4732e-07	1.4256e-07	11.618	4.0171	4.3719	1.8499	1.6943e-07	1.6875	1.4208e-05	1.176e-05	3.3109e-06	33.443	1.211e-07	1.3007e-07	32.073	13.858	1.4178e-07	1.3038e-07	12.939	4.5321	4.9291	2.1048	1.3775e-07	1.8928	221.345	164.295	281.613	16.767	267.506	158.836	15.613	23.422	99.416	105.002	20.629	27.005	30.352	34.450	16.665	31.634	-8191	255	
31736.877	1	1	0	0	0.25802	0.11976	0.18895	0.027503	0.27211	0.17055	0.11736	0.22281	0.26838	0.10147	0.15281	0.36747	0.23971	0.14281	0.16995	0.27604	-1.2938	-1.8708	-1.9854	-1.5604	-2.0208	-1.8208	-1.9438	-1.9792	-1.7917	-1.9354	-1.8792	-1.5667	-1.9479	-1.7958	-1.5458	-2.2125	30.622	88.805	197.168	241.539	248.958	299.059	237.401	8.776	63.182	95.496	111.969	336.748	55.979	118.702	77.607	169.766	1.0173e-05	5.876e-05	7.162e-06	29.815	2.1671e-07	3.5296e-07	28.711	12.236	6.1263e-07	2.8192e-07	11.675	4.0219	4.4306	1.8552	2.0237e-07	1.6838	1.4128e-05	1.1442e-05	3.0427e-06	33.435	1.1907e-07	1.2968e-07	32.017	13.846	1.3961e-07	1.2362e-07	12.937	4.539	4.944	2.1101	1.4384e-07	1.8935	214.842	12.305	224.366	16.512	130.568	321.539	15.863	23.550	182.689	29.165	20.904	26.972	29.969	34.337	185.556	31.749	-8191	255	
31736.996	1	1	0	0	0.16787	0.13891	0.12316	0.069099	0.42387	0.21723	0.071373	0.06488	0.19841	0.063062	0.056709	0.092617	0.14024	0.067276	0.12289	0.085701	-1.4042	-1.8417	-1.8729	-1.5438	-2.0271	-1.8417	-1.8062	-2.0917	-1.6979	-1.7938	-2.1333	-1.6604	-1.7604	-2.0187	-1.6562	-1.8958	36.243	130.882	86.163	43.410	196.652	67.166	327.170	211.106	135.876	159.528	22.818	292.191	86.776	169.153	274.070	11.172	1.0347e-05	3.7583e-05	1.338e-05	29.858	1.2914e-07	5.1797e-07	28.624	12.285	1.6386e-07	2.3864e-07	11.593	4.0153	4.4121	1.8527	5.4663e-07	1.6841	1.3577e-05	1.2187e-05	3.062e-06	33.482	1.2651e-07	1.3204e-07	32.011	13.861	1.3752e-07	1.3472e-07	12.914	4.5327	4.9446	2.1077	1.3835e-07	1.895	213.994	97.889	97.660	16.313	189.125	128.817	15.769	23.647	228.742	48.271	20.817	27.131	29.807	34.572	169.749	31.510	-8191	255	
31737.094	1	1	0	0	0.23613	0.054444	0.098517	0.22115	0.26362	0.2259	0.14602	0.073257	0.16445	0.14889	0.0072334	0.21628	0.041474	0.063693	0.27065	0.12449	-1.3375	-1.6583	-2.0667	-1.6896	-1.9667	-1.9896	-1.5792	-1.8563	-1.8042	-1.6708	-2.2792	-1.6521	-1.8417	-1.95	-1.6792	-2.0333	246.353	55.499	299.088	119.230	245.369	86.741	172.920	346.774	352.249	17.097	353.427	59.530	223.459	173.985	211.881	50.201	3.1495e-06	2.7358e-05	1.609e-05	29.658	3.3157e-07	2.4852e-07	28.615	12.321	3.4355e-07	6.1253e-07	11.587	4.0215	4.388	1.8444	8.0988e-08	1.6698	1.3485e-05	1.2878e-05	2.9732e-06	33.37	1.2824e-07	1.2877e-07	32.014	13.863	1.3258e-07	1.3616e-07	12.914	4.5312	4.942	2.0997	1.4234e-07	1.8901	219.225	100.652	92.388	16.529	229.219	141.405	15.649	23.799	194.514	127.124	21.222	27.103	29.992	34.263	245.979	31.469	-8191	255	
31737.189	1	1	0	0	0.30764	0.24818	0.21363	0.24757	0.034377	0.23975	0.22282	0.21094	0.36649	0.23738	0.40522	0.23866	0.26413	0.13872	0.29235	0.19904	-1.5438	-1.6417	-2.2271	-1.7896	-1.8667	-2.0021	-1.6167	-1.9583	-2.1125	-1.7	-2.2938	-1.7958	-1.8229	-2.15	-1.7542	-1.8	280.316	131.996	145.790	309.803	176.592	247.249	132.402	355.534	282.942	114.351	177.188	17.502	113.467	92.792	52.988	125.954	7.8342e-06	8.2563e-06	1.0552e-06	29.837	5.3093e-07	4.718e-07	28.663	12.23	2.279e-07	2.7143e-07	11.638	4.0134	4.4059	1.835	4.3715e-07	1.6769	1.3039e-05	1.2884e-05	3.1353e-06	33.432	1.3599e-07	1.2618e-07	32.029	13.842	1.3647e-07	1.3799e-07	12.947	4.5308	4.939	2.094	1.4031e-07	1.8857	224.741	158.602	10.221	16.590	261.876	245.235	15.856	23.677	126.766	249.172	20.825	27.133	30.083	34.315	134.875	31.842	-8191	255	
31737.285	1	1	0	0	0.18359	0.23988	0.37988	0.2257	0.072896	0.089416	0.13681	0.13475	0.092487	0.084968	0.12479	0.15308	0.21137	0.23877	0.24208	0.264	-1.4646	-1.5938	-1.8542	-1.85	-1.7437	-1.9646	-1.5771	-1.9104	-2.0021	-1.7021	-2.1063	-1.7833	-1.6146	-2.1937	-1.6479	-1.8229	145.696	21.771	340.532	131.333	351.104	99.884	264.179	273.321	265.438	104.498	283.772	229.583	176.873	277.980	256.909	67.962	1.1046e-05	1.7426e-05	1.4873e-05	29.676	2.9535e-07	2.2868e-07	28.542	12.241	3.9216e-07	1.0782e-07	11.624	4.0149	4.3814	1.84	5.065e-07	1.673	1.3076e-05	1.2415e-05	3.2067e-06	33.34	1.4081e-07	1.2481e-07	32.018	13.823	1.2683e-07	1.4285e-07	12.931	4.5317	4.9315	2.0901	1.4512e-07	1.8846	224.832	20.714	122.070	16.438	7.823	11.314	15.790	23.559	361.856	173.171	21.486	27.106	29.320	34.672	269.785	31.728	-8191	255	
31737.406	1	1	0	0	0.12612	0.19136	0.12487	0.064654	0.23647	0.13619	0.09167	0.2507	0.19581	0.37496	0.21492	0.22236	0.24313	0.27188	0.19137	0.1822	-1.6479	-1.5542	-1.9229	-1.7542	-1.6	-1.9271	-1.6021	-1.9167	-2.1437	-1.7687	-1.9896	-2.0292	-1.7521	-1.9229	-1.7833	-1.8292	337.297	48.914	353.463	148.730	303.565	169.016	36.169	113.452	36.072	199.701	134.639	44.975	77.996	33.774	189.189	10.696	1.1006e-05	3.4373e-05	4.3651e-06	29.745	1.3646e-07	3.3448e-07	28.668	12.232	4.3378e-07	4.632e-07	11.584	4.0111	4.3801	1.8277	3.2771e-07	1.6653	1.3299e-05	1.2947e-05	3.3687e-06	33.403	1.4351e-07	1.2116e-07	32.015	13.848	1.3176e-07	1.4217e-07	12.954	4.5258	4.939	2.0852	1.4715e-07	1.8836	232.108	98.064	203.120	16.550	209.659	26.293	15.673	23.447	189.695	80.421	21.238	27.333	30.542	34.387	205.623	32.052	-8191	255	
31737.479	1	1	0	0	0.15298	0.055102	0.23896	0.29938	0.21929	0.12532	0.13712	0.027369	0.093022	0.074214	0.16504	0.14246	0.18746	0.10369	0.20416	0.1727	-1.6688	-1.5854	-1.9688	-1.9604	-1.7729	-2.2	-1.7125	-1.7625	-1.8937	-1.6604	-1.9479	-2.0563	-1.4292	-1.9688	-1.6417	-1.8	274.751	180.590	101.261	215.493	274.815	48.855	363.154	358.009	38.499	353.139	12.594	124.761	198.992	188.744	342.096	203.462	1.1336e-05	1.7891e-05	7.1922e-06	29.857	3.9181e-07	3.4287e-07	28.749	12.316	2.3476e-07	4.6584e-07	11.697	4.0107	4.4082	1.836	3.0708e-07	1.6715	1.3478e-05	1.2953e-05	3.3552e-06	33.445	1.4389e-07	1.2968e-07	32.035	13.876	1.3752e-07	1.4954e-07	13.003	4.5435	4.9658	2.094	1.3971e-07	1.8851	222.739	48.889	118.165	16.662	157.778	187.784	15.807	23.515	256.104	202.802	20.672	27.010	30.269	34.356	240.203	31.495	-8191	255	
31737.574	1	1	0	0	0.088369	0.21396	0.14043	0.28564	0.11895	0.13793	0.28328	0.07358	0.16089	0.13233	0.33832	0.18189	0.20959	0.095353	0.26778	0.10903	-1.8042	-1.7083	-1.7479	-2.1479	-1.6417	-1.9896	-1.8042	-1.8271	-2.0875	-1.7208	-2.0042	-2.0583	-1.5604	-2.0083	-1.8854	-1.8208	191.800	79.796	280.934	296.662	357.507	175.639	286.923	124.892	46.815	86.743	351.448	84.074	146.329	348.192	89.415	54.953	1.0469e-05	6.2183e-05	1.2648e-05	29.864	2.0012e-07	1.1799e-07	28.604	12.282	3.3008e-08	1.3098e-07	11.575	4.0149	4.4135	1.8329	8.8911e-08	1.6641	1.3175e-05	1.3167e-05	3.4498e-06	33.486	1.4239e-07	1.3083e-07	32.025	13.888	1.2959e-07	1.4072e-07	12.961	4.5344	4.9741	2.0892	1.3768e-07	1.8742	197.004	41.300	56.504	16.524	355.805	179.436	15.828	23.643	70.376	353.128	20.367	27.208	29.802	34.325	310.194	31.568	-8191	255	
31737.668	1	1	0	0	0.064517	0.12635	0.1593	0.040245	0.13896	0.16092	0.072754	0.30311	0.17663	0.075608	0.081867	0.091424	0.18173	0.087338	0.063574	0.21574	-1.7417	-1.7271	-1.9146	-2.2729	-1.6396	-2.1292	-1.9146	-1.8	-2.1208	-1.7708	-1.9333	-1.9604	-1.6396	-1.9354	-1.7479	-1.4792	168.210	303.755	123.091	98.571	16.967	338.192	230.797	191.496	304.022	329.668	132.387	335.037	179.281	122.255	311.352	181.542	9.428e-06	6.3065e-05	1.1976e-05	29.743	2.3773e-07	5.9674e-07	28.651	12.308	2.9906e-07	6.4938e-07	11.612	4.0282	4.4084	1.8362	4.8891e-07	1.6623	1.3175e-05	1.2933e-05	3.4594e-06	33.423	1.478e-07	1.3653e-07	32.007	13.877	1.2698e-07	1.3867e-07	12.936	4.5427	4.975	2.0909	1.3061e-07	1.8743	214.047	55.625	196.927	16.407	52.133	191.255	15.854	23.692	338.635	307.208	20.948	27.204	30.094	34.436	114.011	31.374	-8191	255	
31737.766	1	1	0	0	0.1993	0.17509	0.2463	0.23117	0.057879	0.15176	0.39113	0.075667	0.088397	0.24674	0.064604	0.19119	0.066185	0.20298	0.11215	0.1999	-1.5792	-1.7896	-1.7104	-2.2938	-1.6167	-2	-1.8625	-1.5125	-1.9771	-1.8292	-1.7521	-2.1875	-1.7042	-1.9854	-1.9083	-1.6604	80.582	74.473	186.325	260.123	10.666	7.643	198.916	200.420	186.190	265.354	302.481	214.213	328.047	270.929	172.643	120.496	1.0234e-05	4.7843e-05	6.6757e-06	29.887	4.6585e-07	1.1155e-07	28.584	12.254	2.3015e-07	4.512e-08	11.654	4.0021	4.4121	1.8342	4.1937e-07	1.6657	1.2779e-05	1.2953e-05	3.4961e-06	33.47	1.4517e-07	1.459e-07	32.024	13.867	1.2742e-07	1.4004e-07	13.012	4.5324	4.9662	2.0878	1.3347e-07	1.8756	206.925	94.984	324.803	16.522	213.858	158.597	15.866	23.396	213.852	253.174	20.545	27.050	29.606	34.323	111.220	31.445	-8191	255	
31737.885	1	1	0	0	0.31356	0.17996	0.21948	0.17335	0.1026	0.10527	0.082707	0.15978	0.04063	0.18129	0.21219	0.16075	0.11644	0.20384	0.034596	0.12879	-1.6625	-1.7437	-1.5104	-2.2792	-1.8312	-1.7	-2.0646	-1.7104	-2.1479	-1.9917	-1.6896	-2.0875	-1.7313	-2.025	-2.1792	-1.7062	122.262	229.658	358.163	225.113	17.250	113.891	158.073	17.978	216.457	361.292	223.600	120.887	285.894	84.230	94.253	65.247	1.0427e-05	6.4501e-05	6.6215e-06	29.757	5.9753e-07	1.7503e-07	28.603	12.215	1.3026e-07	2.9975e-07	11.73	4.021	4.4017	1.8298	1.2967e-07	1.6604	1.3181e-05	1.2146e-05	3.6196e-06	33.432	1.375e-07	1.3341e-07	32.035	13.851	1.3625e-07	1.3221e-07	12.963	4.5358	4.9507	2.0879	1.3038e-07	1.8742	220.864	90.885	138.249	16.451	170.069	106.205	16.136	23.752	70.224	137.698	20.852	27.073	30.201	34.612	41.779	31.353	-8191	255	
31737.980	1	1	0	0	0.25097	0.18459	0.27543	0.065002	0.18956	0.091342	0.13483	0.17287	0.22694	0.17436	0.1989	0.38472	0.03875	0.096734	0.11969	0.096865	-1.4104	-1.7458	-1.5938	-2.0812	-1.8937	-1.8687	-2.0812	-1.6167	-1.8563	-2.175	-1.7708	-1.9833	-1.8646	-1.7708	-2.0563	-1.6958	304.467	278.551	200.999	285.851	199.968	88.198	56.935	113.623	233.948	42.483	144.958	42.378	209.712	270.918	93.669	240.916	1.1914e-05	3.6632e-05	7.6468e-06	29.814	7.0028e-07	5.8043e-07	28.701	12.259	2.9119e-07	2.9155e-07	11.651	4.0297	4.4047	1.831	5.6985e-07	1.6564	1.3287e-05	1.2526e-05	3.8029e-06	33.47	1.3539e-07	1.4376e-07	32.049	13.866	1.3139e-07	1.3114e-07	12.999	4.5394	4.9502	2.0872	1.3046e-07	1.876	221.575	149.738	73.694	16.511	296.027	93.396	15.838	23.545	127.474	307.350	20.980	26.866	30.023	34.378	204.318	31.583	-8191	255	
31738.076	1	1	0	0	0.16786	0.26505	0.22298	0.095934	0.14925	0.14976	0.18898	0.18537	0.15023	0.072312	0.24186	0.065762	0.1774	0.1345	0.17921	0.21217	-1.4458	-2.0292	-1.6208	-2.1229	-1.9479	-1.575	-2.2188	-1.6542	-2.0458	-2.0458	-1.5875	-2.0458	-1.7875	-1.6271	-2.1458	-1.5396	140.111	189.656	357.059	88.707	259.435	361.403	209.578	30.789	94.311	200.199	153.572	259.073	176.882	331.932	97.262	146.020	5.2524e-06	2.827e-05	6.4236e-06	29.825	2.1298e-07	7.4926e-07	28.601	12.27	3.0396e-07	2.8262e-07	11.534	4.0116	4.416	1.8309	1.0363e-07	1.6563	1.393e-05	1.2546e-05	3.7604e-06	33.452	1.3479e-07	1.4582e-07	32.04	13.848	1.3797e-07	1.2491e-07	12.963	4.5278	4.9627	2.086	1.282e-07	1.8684	182.088	7.317	11.484	16.413	198.702	212.853	15.852	23.636	331.669	139.214	20.555	27.040	29.530	34.622	190.073	31.515	-8191	255	
31738.174	1	1	0	0	0.060511	0.28701	0.30106	0.14801	0.053854	0.16016	0.13412	0.093603	0.1755	0.18842	0.13702	0.1172	0.35054	0.13415	0.10572	0.024392	-1.55	-2.0333	-1.6229	-2.1104	-1.7583	-1.5854	-2.2062	-1.7833	-1.925	-2.1521	-1.7896	-1.95	-1.8729	-1.5125	-2.1208	-1.8125	287.694	305.661	48.521	82.240	50.636	202.325	271.034	258.329	128.218	259.740	321.755	341.495	354.600	337.530	199.003	180.844	1.2024e-05	8.5876e-06	8.0824e-06	29.751	2.238e-07	2.2172e-07	28.615	12.252	1.0504e-07	4.0164e-07	11.532	3.9999	4.4562	1.8395	3.5282e-07	1.6654	1.3571e-05	1.1911e-05	3.7045e-06	33.497	1.3584e-07	1.3981e-07	32.008	13.845	1.3393e-07	1.2597e-07	12.912	4.529	4.9576	2.1003	1.2858e-07	1.8816	211.869	137.068	355.327	16.561	115.380	334.184	16.166	23.640	364.746	194.521	20.979	27.187	30.202	34.461	220.461	31.474	-8191	255	
31738.270	1	1	0	0	0.18941	0.28665	0.11782	0.30187	0.12383	0.2155	0.17575	0.20825	0.055022	0.14139	0.15531	0.14817	0.099729	0.089824	0.11999	0.28797	-1.2792	-1.8875	-1.7104	-1.7333	-2.0354	-1.6063	-2.0938	-1.725	-1.4917	-2.0917	-1.7437	-1.8667	-2.1021	-1.5896	-1.9667	-1.9771	348.158	177.985	66.655	24.139	123.534	42.230	93.327	363.519	354.523	297.555	342.881	35.454	233.994	276.718	253.950	68.747	1.0007e-05	7.1299e-05	1.0015e-05	29.764	9.7614e-07	1.6625e-07	28.735	12.276	1.6872e-07	3.8064e-07	11.65	4.0077	4.419	1.8529	4.3437e-07	1.6766	1.4307e-05	1.2201e-05	3.5694e-06	33.483	1.2749e-07	1.4262e-07	32.105	13.86	1.3774e-07	1.2324e-07	12.992	4.5331	4.9645	2.109	1.273e-07	1.8889	196.672	53.472	138.050	16.617	214.915	50.889	15.755	23.620	118.752	99.988	21.102	27.006	30.176	34.672	232.866	31.402	-8191	255	
31738.365	1	1	0	0	0.15224	0.12827	0.081661	0.18779	0.16687	0.084481	0.24445	0.11769	0.057344	0.19048	0.27712	0.24082	0.22785	0.17679	0.36294	0.10805	-1.0312	-2.1458	-1.6729	-1.8917	-2.0271	-1.7125	-2.0354	-1.8188	-1.6417	-2.0667	-1.5979	-1.7396	-2.0187	-1.6313	-1.9896	-1.8229	57.480	261.213	184.176	235.480	74.963	329.430	121.110	59.436	205.879	264.090	311.748	268.764	46.544	345.692	47.535	321.856	1.1109e-05	3.685e-05	4.5354e-06	29.887	3.991e-07	6.9568e-07	28.649	12.272	1.3938e-07	3.5605e-07	11.64	4.0299	4.4534	1.8627	4.0666e-07	1.6853	1.3992e-05	1.1808e-05	3.4999e-06	33.466	1.2388e-07	1.3638e-07	32.031	13.883	1.4178e-07	1.2423e-07	12.994	4.5534	4.9978	2.1231	1.2489e-07	1.8968	232.634	67.660	148.582	16.498	203.726	139.995	15.884	23.843	219.787	136.164	20.537	27.267	29.720	34.532	198.946	31.980	-8191	255	
31738.486	1	1	0	0	0.21798	0.27555	0.26251	0.18507	0.43095	0.16949	0.33604	0.14518	0.1916	0.24952	0.20688	0.022754	0.08041	0.13418	0.14541	0.1292	-1.1083	-2.0271	-1.6458	-1.7396	-2.0854	-1.7979	-1.9333	-2.0479	-1.6417	-2.2313	-1.8646	-1.825	-2.025	-1.5333	-1.75	-2.0062	86.689	224.636	358.132	276.091	330.637	74.040	187.876	49.788	92.121	296.531	118.021	352.976	66.638	307.409	50.162	341.187	1.1335e-05	3.0443e-05	1.7324e-05	29.806	7.8915e-08	4.5856e-07	28.649	12.295	2.2104e-07	3.5958e-07	11.571	4.0344	4.4877	1.8666	3.2073e-07	1.674	1.3485e-05	1.098e-05	3.4073e-06	33.504	1.2945e-07	1.3242e-07	31.993	13.892	1.3647e-07	1.1883e-07	12.989	4.5569	4.9938	2.1222	1.3181e-07	1.8899	242.560	184.806	135.797	16.793	310.328	107.701	15.827	23.834	124.440	113.024	20.684	27.342	30.336	34.380	82.534	31.690	-8191	255	
31738.580	1	1	0	0	0.12944	0.41618	0.10258	0.15171	0.036707	0.039716	0.21428	0.25742	0.1697	0.34564	0.19957	0.02249	0.27448	0.33345	0.31209	0.2093	-1.2375	-2.0438	-1.8771	-1.7354	-2.1063	-1.7583	-1.7792	-1.9833	-1.5771	-2.2833	-1.9104	-1.55	-1.8667	-1.6375	-1.8833	-2.0354	117.943	42.500	310.171	158.505	72.890	130.680	175.709	68.806	227.552	48.147	252.648	168.766	272.000	238.023	308.470	127.652	9.7801e-06	3.5455e-05	2.388e-06	29.864	7.5231e-07	5.2852e-07	28.662	12.336	9.039e-08	5.0619e-07	11.655	4.0428	4.4596	1.8562	6.2004e-07	1.6616	1.44e-05	1.098e-05	3.2665e-06	33.521	1.2411e-07	1.3554e-07	32.043	13.903	1.4178e-07	1.2073e-07	12.958	4.5623	4.992	2.1128	1.2805e-07	1.8751	196.761	346.756	67.427	16.559	208.440	51.113	16.272	23.883	193.726	184.779	21.019	27.443	30.372	34.635	165.909	31.820	-8191	255	
31738.680	1	1	0	0	0.26731	0.17006	0.24876	0.16455	0.16717	0.038559	0.11787	0.12366	0.14347	0.12147	0.22566	0.20966	0.19368	0.16026	0.26223	0.15452	-1.0896	-2.2104	-1.9542	-1.6646	-2.2	-1.7125	-1.825	-1.9292	-1.5312	-2.0333	-2.0375	-1.6833	-1.8875	-1.8042	-1.7146	-2.0312	302.074	256.167	206.636	234.930	293.422	71.187	214.915	15.816	98.824	128.186	270.697	19.630	260.469	346.535	217.980	350.584	4.7672e-06	3.6376e-05	1.0845e-06	29.761	6.9832e-07	2.0738e-07	28.546	12.308	4.0981e-07	1.0383e-06	11.509	4.0408	4.4642	1.8462	5.27e-08	1.6628	1.414e-05	1.1083e-05	3.1758e-06	33.516	1.2366e-07	1.3798e-07	32.005	13.878	1.4836e-07	1.1792e-07	12.943	4.5523	4.9892	2.1057	1.3444e-07	1.867	205.675	42.501	119.078	16.164	172.471	246.977	15.840	23.535	147.799	227.972	20.927	27.285	29.805	34.465	53.981	31.572	-8191	255	
31738.773	1	1	0	0	0.30894	0.054045	0.25887	0.17483	0.2245	0.11626	0.12367	0.22146	0.18892	0.28387	0.10915	0.28103	0.3036	0.2018	0.034892	0.18535	-1.2896	-2.0271	-1.9729	-1.6104	-2.1312	-1.7917	-1.8146	-2.0958	-1.7917	-1.8438	-2.0229	-1.5938	-2.025	-1.9062	-1.8125	-1.9625	90.590	54.676	157.268	29.655	331.215	364.715	238.282	64.867	191.325	340.272	77.659	183.125	177.035	77.827	172.846	71.112	1.2355e-05	2.2122e-05	8.8828e-06	29.868	3.2412e-07	2.0293e-07	28.741	12.239	1.9677e-07	1.6125e-07	11.598	4.0193	4.4541	1.857	1.7633e-07	1.6586	1.3478e-05	1.1663e-05	3.1488e-06	33.577	1.214e-07	1.3326e-07	32.008	13.846	1.3692e-07	1.2293e-07	12.92	4.5494	4.9762	2.1037	1.3444e-07	1.8674	206.045	58.408	148.052	16.441	149.926	37.576	15.944	23.800	72.267	147.624	20.917	26.977	30.508	34.509	157.420	31.425	-8191	255	
#DATA ENDS
