BOXY.EXE: ISS Imagent and Oximeter Data Acquisition Program Version 0.80
Ascii Record File

#ACQ INFORMATION
2  Detector Channels 
16  External MUX Channels 
1  Auxiliary Channels 
5000  Waveform (CCF) Frequency (Hz)
1  Waveforms Skipped 
30  Waveforms Averaged 
1  Cycles Averaged 
16  Acquisitions per Waveform 
10.0806  Updata Rate (Hz) 

#FILE INFORMATION
TRUE -- External MUX Channel results are PARSED.
FALSE -- AC DC and Phase are NOT grouped.
TRUE -- Companion Program Settings File CREATED.
FALSE -- AC data not excluded
FALSE -- DC data not excluded
FALSE -- Phase data not excluded
FALSE -- Auxillary Chn. data not excluded
Tab delimiters

#CALIBRATION STATE
TRUE -- Waveform Calibration Values APPLIED.


#AUX CALIBRATION VALUES
Val Type	aux-1	

Term	1.0000e+00	
Factor	0.0000e+00	


#WF CALIBRATION VALUES
A = Detector Channel
Val Type	A-AC1	A-AC2	A-AC3	A-AC4	A-AC5	A-AC6	A-AC7	A-AC8	A-AC9	A-AC10	A-AC11	A-AC12	A-AC13	A-AC14	A-AC15	A-AC16	A-DC1	A-DC2	A-DC3	A-DC4	A-DC5	A-DC6	A-DC7	A-DC8	A-DC9	A-DC10	A-DC11	A-DC12	A-DC13	A-DC14	A-DC15	A-DC16	A-Ph1	A-Ph2	A-Ph3	A-Ph4	A-Ph5	A-Ph6	A-Ph7	A-Ph8	A-Ph9	A-Ph10	A-Ph11	A-Ph12	A-Ph13	A-Ph14	A-Ph15	A-Ph16	

Term	0.00000e+00	0.00000e+00	0.00000e+00	0.00000e+00	0.00000e+00	0.00000e+00	0.00000e+00	0.00000e+00	0.00000e+00	0.00000e+00	0.00000e+00	0.00000e+00	0.00000e+00	0.00000e+00	0.00000e+00	0.00000e+00	0.00000e+00	0.00000e+00	0.00000e+00	0.00000e+00	0.00000e+00	0.00000e+00	0.00000e+00	0.00000e+00	0.00000e+00	0.00000e+00	0.00000e+00	0.00000e+00	0.00000e+00	0.00000e+00	0.00000e+00	0.00000e+00	0.00000e+00	0.00000e+00	0.00000e+00	0.00000e+00	0.00000e+00	0.00000e+00	0.00000e+00	0.00000e+00	0.00000e+00	0.00000e+00	0.00000e+00	0.00000e+00	0.00000e+00	0.00000e+00	0.00000e+00	0.00000e+00	
Factor	1.00000e+00	1.00000e+00	1.00000e+00	1.00000e+00	1.00000e+00	1.00000e+00	1.00000e+00	1.00000e+00	1.00000e+00	1.00000e+00	1.00000e+00	1.00000e+00	1.00000e+00	1.00000e+00	1.00000e+00	1.00000e+00	1.00000e+00	1.00000e+00	1.00000e+00	1.00000e+00	1.00000e+00	1.00000e+00	1.00000e+00	1.00000e+00	1.00000e+00	1.00000e+00	1.00000e+00	1.00000e+00	1.00000e+00	1.00000e+00	1.00000e+00	1.00000e+00	X	X	X	X	X	X	X	X	X	X	X	X	X	X	X	X	

B = Detector Channel
Val Type	B-AC1	B-AC2	B-AC3	B-AC4	B-AC5	B-AC6	B-AC7	B-AC8	B-AC9	B-AC10	B-AC11	B-AC12	B-AC13	B-AC14	B-AC15	B-AC16	B-DC1	B-DC2	B-DC3	B-DC4	B-DC5	B-DC6	B-DC7	B-DC8	B-DC9	B-DC10	B-DC11	B-DC12	B-DC13	B-DC14	B-DC15	B-DC16	B-Ph1	B-Ph2	B-Ph3	B-Ph4	B-Ph5	B-Ph6	B-Ph7	B-Ph8	B-Ph9	B-Ph10	B-Ph11	B-Ph12	B-Ph13	B-Ph14	B-Ph15	B-Ph16	

Term	0.00000e+00	0.00000e+00	0.00000e+00	0.00000e+00	0.00000e+00	0.00000e+00	0.00000e+00	0.00000e+00	0.00000e+00	0.00000e+00	0.00000e+00	0.00000e+00	0.00000e+00	0.00000e+00	0.00000e+00	0.00000e+00	0.00000e+00	0.00000e+00	0.00000e+00	0.00000e+00	0.00000e+00	0.00000e+00	0.00000e+00	0.00000e+00	0.00000e+00	0.00000e+00	0.00000e+00	0.00000e+00	0.00000e+00	0.00000e+00	0.00000e+00	0.00000e+00	-2.02558e+02	-1.16413e+02	-1.30120e+02	-1.82161e+02	-9.57707e+01	-1.01369e+02	-1.59306e+02	-1.62015e+02	-1.14350e+02	-5.77035e+01	-1.70639e+02	-1.72301e+02	-1.77500e+02	-1.76674e+02	-5.36760e+01	-1.49496e+02	
Factor	4.10936e-05	9.52974e-05	2.49006e-05	1.49428e-01	8.83243e-07	8.91524e-07	1.68800e-01	4.93801e-02	1.17695e-06	7.15398e-07	8.34437e-02	2.98807e-02	2.54106e-02	8.75613e-03	1.20421e-06	1.26828e-02	6.26555e-07	6.35961e-07	1.78841e-07	7.42432e-02	6.95763e-09	6.96690e-09	7.86376e-02	2.43642e-02	6.96256e-09	6.98071e-09	3.91092e-02	1.39300e-02	1.23175e-02	4.23067e-03	7.03845e-09	5.88851e-03	X	X	X	X	X	X	X	X	X	X	X	X	X	X	X	X	



#DISTANCE SETTINGS
A = Detector Channel
A-1	A-2	A-3	A-4	A-5	A-6	A-7	A-8	A-9	A-10	A-11	A-12	A-13	A-14	A-15	A-16	

2.5000e+00	3.0000e+00	2.5000e+00	3.0000e+00	2.0000e+00	3.0000e+00	1.5000e+00	3.0000e+00	3.0000e+00	3.0000e+00	3.0000e+00	3.0000e+00	3.0000e+00	3.0000e+00	1.5000e+00	3.0000e+00	

B = Detector Channel
B-1	B-2	B-3	B-4	B-5	B-6	B-7	B-8	B-9	B-10	B-11	B-12	B-13	B-14	B-15	B-16	

1.0000e+01	1.0000e+01	1.0000e+01	1.4400e+00	1.0000e+01	1.0000e+01	1.5100e+00	1.9400e+00	1.0000e+01	1.0000e+01	1.9900e+00	2.4900e+00	2.4100e+00	2.9000e+00	1.0000e+01	2.9800e+00	




#DATA BEGINS
time	group	step	mark	flag	A-AC1	A-AC2	A-AC3	A-AC4	A-AC5	A-AC6	A-AC7	A-AC8	A-AC9	A-AC10	A-AC11	A-AC12	A-AC13	A-AC14	A-AC15	A-AC16	A-DC1	A-DC2	A-DC3	A-DC4	A-DC5	A-DC6	A-DC7	A-DC8	A-DC9	A-DC10	A-DC11	A-DC12	A-DC13	A-DC14	A-DC15	A-DC16	A-Ph1	A-Ph2	A-Ph3	A-Ph4	A-Ph5	A-Ph6	A-Ph7	A-Ph8	A-Ph9	A-Ph10	A-Ph11	A-Ph12	A-Ph13	A-Ph14	A-Ph15	A-Ph16	B-AC1	B-AC2	B-AC3	B-AC4	B-AC5	B-AC6	B-AC7	B-AC8	B-AC9	B-AC10	B-AC11	B-AC12	B-AC13	B-AC14	B-AC15	B-AC16	B-DC1	B-DC2	B-DC3	B-DC4	B-DC5	B-DC6	B-DC7	B-DC8	B-DC9	B-DC10	B-DC11	B-DC12	B-DC13	B-DC14	B-DC15	B-DC16	B-Ph1	B-Ph2	B-Ph3	B-Ph4	B-Ph5	B-Ph6	B-Ph7	B-Ph8	B-Ph9	B-Ph10	B-Ph11	B-Ph12	B-Ph13	B-Ph14	B-Ph15	B-Ph16	aux-1	digaux	

6609.935	1	1	0	768	0.23496	0.18866	0.29973	0.45782	0.088245	0.26342	0.45007	0.012545	0.08148	0.1629	0.14882	0.24567	0.15614	0.23046	0.081059	0.10124	-1.1604	-1.6875	-2.2396	-2.1125	-2.1771	-2.2417	-1.8854	-2.2562	-1.9438	-1.7271	-2.425	-1.8542	-2.1188	-2.4437	-1.55	-2.1396	129.802	-75.105	134.999	165.098	109.586	4.512	106.992	118.185	-153.355	-44.039	180.023	174.594	68.144	-143.094	-91.846	0.291	0.00096567	0.00067989	0.00026576	1359.9	4.7862e-06	7.1037e-06	1353	367.39	5.42e-06	5.4716e-06	418.97	139.87	121.56	41.936	4.9501e-06	51.416	0.00062695	0.00057186	0.00014986	1383.8	6.8006e-06	6.2155e-06	1379.7	375.35	6.7856e-06	6.1629e-06	426.76	144.14	125.9	43.101	5.9046e-06	53.615	116.769	-59.340	-75.465	-146.949	-118.919	-39.328	-147.463	-142.592	51.706	23.243	-142.970	-139.253	-138.627	-133.556	9.020	-134.384	-8191	255	
6610.031	1	1	0	0	0.2448	0.13708	0.25305	0.51647	0.16912	0.17377	0.16925	0.34044	0.19872	0.2252	0.25988	0.17884	0.11833	0.31187	0.13759	0.08313	-1.4833	-1.6812	-2.1	-2.0479	-2.0125	-2.1979	-2.0146	-2.2542	-2.1042	-1.7396	-2.5563	-1.9646	-1.9229	-2.1521	-1.8396	-2.3167	-6.823	-152.603	148.252	99.180	-3.119	151.265	117.404	135.887	174.142	149.873	-157.655	153.192	196.089	171.159	-105.826	148.962	0.0011745	0.00073345	0.0002892	1361.6	5.3135e-06	2.4317e-06	1351.9	367.15	7.442e-06	2.4946e-06	418.74	140.09	122.06	41.885	2.5691e-06	51.382	0.00061997	0.00056006	0.0001497	1389.2	6.6665e-06	6.1375e-06	1377.4	376.97	6.6616e-06	6.1079e-06	426.53	145.1	125.55	43.043	5.9974e-06	53.831	129.365	-54.030	-35.273	-147.294	-25.236	63.958	-147.597	-142.612	-52.722	-2.619	-142.831	-139.284	-138.739	-133.561	-122.712	-134.328	-8191	255	
6610.128	1	1	0	0	0.10617	0.066494	0.20581	0.26846	0.17971	0.11565	0.13737	0.20278	0.12376	0.31681	0.16646	0.17926	0.048785	0.12936	0.029864	0.26363	-1.7188	-1.8854	-2.2375	-2.0812	-1.9104	-2.1063	-1.9062	-2.2917	-2.3063	-1.6187	-2.3208	-2.0583	-1.8271	-2.5	-1.9188	-2.2396	-109.630	183.642	-146.058	181.885	-153.278	-118.563	177.574	147.798	-81.614	172.586	123.347	88.429	-140.123	17.384	150.260	83.531	0.0009676	0.00042252	0.00012253	1364.7	3.8044e-06	9.6662e-07	1357.5	367.59	7.2771e-07	7.6248e-06	419.33	140.39	121.8	41.809	1.0676e-05	51.874	0.00059333	0.00055282	0.00015286	1394	6.3841e-06	5.9778e-06	1382.7	377.95	6.3346e-06	5.9661e-06	429.27	145.54	125.08	42.982	6.2801e-06	54.047	125.089	10.955	192.550	-147.055	-2.516	-19.756	-147.321	-142.532	-159.721	2.416	-143.148	-139.104	-138.584	-133.573	-72.009	-134.350	-8191	255	
6610.224	1	1	0	0	0.25669	0.21207	0.21332	0.3563	0.20724	0.1125	0.51518	0.18027	0.052044	0.075132	0.14058	0.11793	0.11851	0.44371	0.17373	0.23288	-1.8917	-1.5688	-2.2708	-2.3146	-1.7396	-2.2458	-2.0792	-2.3375	-2.3625	-1.7729	-2.4	-2.225	-1.9271	-2.4208	-1.9708	-1.9104	131.606	-71.404	-65.778	155.433	154.404	-114.689	112.112	124.416	-17.476	-125.471	183.812	178.518	-91.884	180.905	-19.165	174.771	0.00083678	0.00020851	0.00013388	1364	3.2025e-06	8.8825e-07	1357.8	368.16	5.5468e-06	2.6217e-06	420.36	140.82	121.73	41.985	1.4189e-05	51.518	0.00057095	0.00053864	0.00016242	1394.8	6.1702e-06	5.8535e-06	1387	377.94	6.2127e-06	5.9022e-06	431.75	145.06	124.95	42.947	6.7162e-06	53.886	126.112	183.836	178.036	-147.105	-7.466	-103.229	-147.385	-142.509	-110.756	-46.244	-143.217	-139.464	-138.323	-133.889	-59.114	-134.208	-8191	255	
6610.320	1	1	0	0	0.19475	0.24912	0.26785	0.37341	0.16687	0.11404	0.11433	0.13609	0.067568	0.17424	0.1647	0.18714	0.13229	0.2263	0.37107	0.17398	-1.7958	-1.8062	-2.1271	-2.6083	-1.7479	-2.3792	-2.1792	-2.0187	-2.2938	-1.6104	-2.1417	-2.3896	-1.7146	-2.4208	-1.7958	-1.9562	116.863	-23.420	-98.664	179.913	132.327	34.388	142.296	104.943	-23.021	0.393	-154.915	92.632	99.642	134.688	67.145	159.615	0.00091082	0.00025432	0.00014077	1366.7	6.4417e-06	3.3003e-06	1359.4	368	7.7398e-06	4.3011e-06	422.98	140.43	121.55	41.921	1.7242e-06	51.732	0.00056543	0.00054014	0.00017292	1391.9	6.1426e-06	5.9011e-06	1392.4	377.27	6.139e-06	5.9767e-06	434.08	144.72	124.7	43.009	7.0172e-06	53.63	130.280	80.533	22.524	-147.238	-26.354	-111.371	-147.442	-142.594	-81.537	-32.370	-143.059	-139.041	-138.692	-133.530	121.410	-134.319	-8191	255	
6610.416	1	1	0	0	0.25631	0.13027	0.11993	0.16712	0.3902	0.098023	0.26217	0.097252	0.21539	0.21904	0.11845	0.30809	0.062317	0.024509	0.050435	0.16059	-1.9479	-1.6187	-2.2354	-2.3333	-1.7458	-2.3167	-2.1375	-1.7771	-2.3187	-1.7042	-2.2021	-2.2042	-1.9	-2.1708	-2.1229	-1.9813	12.051	104.795	-144.467	185.501	-132.602	139.696	110.988	119.196	-101.682	177.037	132.495	127.965	-138.721	20.493	77.955	187.889	0.00081317	0.00037295	0.00012893	1361.7	9.0268e-06	2.3474e-06	1356.7	369.03	8.3404e-06	9.5982e-07	418.47	140.63	121.42	42.039	4.3389e-06	51.66	0.00055431	0.00055784	0.00017834	1386.5	6.0279e-06	6.1272e-06	1393	376.35	5.9466e-06	6.2735e-06	433.85	144.13	124.37	43.201	6.956e-06	53.449	125.035	106.598	196.646	-147.198	6.847	-137.578	-147.528	-142.695	-80.520	-94.398	-142.949	-139.425	-138.739	-133.708	105.385	-134.297	-8191	255	
6610.535	1	1	0	0	0.39512	0.14202	0.313	0.35155	0.29259	0.2085	0.4039	0.14112	0.14246	0.041083	0.30838	0.16458	0.18602	0.40934	0.020014	0.16867	-1.8667	-1.7563	-1.9188	-2.4479	-1.7021	-2.075	-2.425	-1.7479	-2.225	-1.7625	-2.0187	-2.3438	-1.8125	-2.3271	-2.0083	-1.8417	13.907	195.999	152.952	142.639	123.725	-28.278	177.843	55.723	-35.665	-15.957	185.864	140.447	-151.839	184.143	-19.352	155.071	0.00096287	0.00060026	0.00015718	1358.4	6.7037e-06	1.6741e-06	1352.3	367.53	3.9059e-06	2.7861e-06	419.6	140.13	121.98	41.96	7.9374e-06	51.527	0.00053899	0.00059004	0.0001749	1381.6	5.8276e-06	6.4558e-06	1388.5	374.86	5.7852e-06	6.6161e-06	431.93	143.37	124.24	43.387	6.6435e-06	53.186	122.933	-130.396	-24.846	-147.097	-103.928	-126.461	-147.464	-142.646	194.059	-64.742	-143.038	-139.251	-138.727	-133.606	-97.882	-134.529	-8191	255	
6610.631	1	1	0	0	0.11189	0.17764	0.27043	0.30711	0.30101	0.044841	0.36566	0.24631	0.21865	0.092449	0.13574	0.40645	0.22958	0.24474	0.076834	0.25936	-1.9062	-1.8813	-2.0021	-2.4646	-1.7417	-2.2625	-2.225	-1.8312	-2.2417	-2.0187	-1.9167	-2.3063	-1.9062	-2.3646	-2.1583	-1.65	-136.330	-144.802	-127.024	129.373	195.872	49.179	118.711	135.361	0.285	26.995	101.449	162.573	138.211	147.821	-33.304	196.484	0.0010771	0.00062248	7.4164e-05	1367.1	1.5662e-06	4.3998e-06	1357.7	367.61	7.5556e-06	4.5255e-06	418.55	140.46	121.65	41.841	1.3449e-05	51.777	0.00053554	0.00061381	0.00016652	1383.6	5.8761e-06	6.7186e-06	1386.9	374.79	5.9184e-06	6.8185e-06	430.28	143.45	124.55	43.432	6.3376e-06	53.177	121.403	-151.408	-85.537	-147.022	38.847	-121.000	-147.595	-142.438	-152.470	-31.198	-143.362	-139.291	-138.776	-133.393	15.236	-134.321	-8191	255	
6610.727	1	1	0	0	0.13687	0.12799	0.38622	0.072968	0.11395	0.077042	0.41238	0.12645	0.10135	0.32181	0.38855	0.1292	0.29958	0.080629	0.24584	0.066727	-1.9438	-1.9396	-1.7938	-2.5062	-1.7958	-2.1417	-2.5792	-1.8292	-2.3396	-2.1688	-1.9021	-2.2979	-1.9062	-2.1604	-2.2917	-1.8312	120.181	112.919	73.068	139.887	29.932	65.397	141.288	135.189	-130.513	-122.046	160.184	-87.610	170.645	126.036	199.170	138.898	0.0011238	0.00042527	0.00036351	1361.8	5.4952e-06	3.6719e-06	1354.7	367.8	7.9136e-06	1.9723e-06	419.81	140.36	121.59	41.735	1.1687e-05	51.558	0.00055304	0.00062206	0.00015967	1379.8	6.1638e-06	6.7219e-06	1382.3	374.32	6.1764e-06	6.7551e-06	428.75	142.86	125.22	43.397	6.1659e-06	53.047	117.550	-15.095	-13.379	-147.040	-151.467	142.910	-147.420	-142.532	196.676	53.736	-143.066	-139.441	-138.682	-133.590	-39.270	-134.448	-8191	255	
6610.823	1	1	0	0	0.06734	0.18181	0.112	0.27585	0.074183	0.098773	0.12255	0.28421	0.30517	0.14429	0.2812	0.12539	0.15345	0.38333	0.34251	0.25459	-1.6875	-2.0875	-1.7604	-2.6833	-1.9167	-1.9708	-2.6104	-1.7292	-1.9833	-1.9896	-1.9104	-2.4562	-1.8	-1.9521	-2.2062	-1.7292	158.313	40.216	-63.048	148.791	9.354	162.079	-5.381	138.704	-89.209	52.430	188.444	-106.893	-28.666	-149.732	-119.351	142.052	0.00097463	0.0012994	0.00012958	1363.9	1.2551e-06	2.9274e-06	1359.4	367.73	5.8444e-06	4.5533e-06	420	139.84	122.17	41.84	9.2817e-06	51.451	0.00058793	0.00060958	0.00015536	1380.7	6.526e-06	6.5909e-06	1382.8	373.9	6.5763e-06	6.5415e-06	427.87	142.91	125.83	43.297	6.0066e-06	52.912	124.371	-26.032	-51.792	-147.198	-156.575	72.893	-147.468	-142.645	-141.282	47.238	-142.889	-139.143	-138.660	-133.438	15.583	-134.582	-8191	255	
6610.920	1	1	0	0	0.1123	0.32463	0.035108	0.19908	0.050146	0.095411	0.20776	0.10522	0.1076	0.13981	0.06595	0.20399	0.1057	0.11047	0.20802	0.050824	-1.7687	-2.1771	-1.6354	-2.4729	-1.7583	-1.9396	-2.4979	-1.8958	-2.0396	-2.0479	-1.9167	-2.4167	-2.1146	-2.0104	-2.3229	-2.1188	37.965	-154.293	198.741	118.237	-28.430	-91.061	95.096	182.785	9.209	146.198	-103.275	-77.083	29.215	165.616	-42.311	115.388	0.0011296	0.00057695	9.4361e-05	1362.7	6.5247e-06	4.2261e-06	1353.7	369.1	8.765e-06	1.7073e-06	419.28	140.12	121.69	41.946	3.9355e-06	51.677	0.00061154	0.00058648	0.0001524	1380.7	6.7624e-06	6.2887e-06	1379.8	375.05	6.7665e-06	6.3128e-06	426.86	143.26	126	43.128	5.8523e-06	53.294	105.244	-29.495	-107.317	-147.034	-59.543	-23.487	-147.457	-142.575	-129.608	-142.051	-143.040	-139.376	-138.613	-133.427	41.767	-134.417	-8191	255	
6611.016	1	1	0	0	0.15156	0.26001	0.15782	0.34805	0.16132	0.1798	0.20604	0.18443	0.039519	0.032212	0.12833	0.21385	0.28572	0.14742	0.06107	0.14181	-1.4688	-2.0854	-1.775	-2.4437	-1.8792	-1.8396	-2.5146	-1.9229	-2.0375	-2.4188	-1.9833	-2.3312	-2.2333	-1.9125	-2.4479	-1.9396	108.849	-148.319	87.921	137.378	-24.425	96.845	96.924	-156.427	-125.801	-66.924	-133.164	-100.543	108.575	-121.840	134.218	165.912	0.0011535	0.00066441	0.00018282	1360.3	1.5676e-06	1.0474e-05	1355.5	367.5	1.1409e-05	8.2558e-06	417.99	140.12	122.21	41.804	2.92e-06	51.389	0.00061714	0.00055496	0.00014873	1385.4	6.7047e-06	6.1097e-06	1378.7	375.58	6.6379e-06	6.0371e-06	426.69	144.03	125.65	42.991	5.7012e-06	53.581	140.215	-78.470	-49.996	-147.106	5.900	-19.763	-147.217	-142.590	-64.038	0.645	-142.840	-139.261	-138.331	-133.704	-11.594	-134.300	-8191	255	
6611.112	1	1	0	0	0.11291	0.07655	0.096679	0.32808	0.16675	0.16689	0.17817	0.18911	0.21546	0.1079	0.133	0.10511	0.19854	0.11692	0.33639	0.045582	-1.5938	-2.2917	-1.6562	-2.1958	-2.0083	-1.6208	-2.6104	-2.1667	-1.8292	-2.3979	-1.9438	-2.2979	-2.0542	-1.8813	-2.3063	-1.9021	-43.513	48.240	-115.062	194.700	42.162	-27.132	42.333	196.611	-50.384	25.601	145.949	91.788	-45.665	132.674	-151.499	-127.283	0.00090043	0.00052537	0.00011384	1363.4	3.5953e-06	4.7066e-06	1350.7	368.02	4.0041e-06	5.0332e-06	417.66	140.25	122.08	41.993	7.6827e-06	51.587	0.00060204	0.00054899	0.00014832	1391.5	6.5021e-06	5.9744e-06	1378.1	377.2	6.3985e-06	5.9292e-06	426.25	144.78	125.17	42.976	5.9204e-06	53.912	123.822	39.161	-53.364	-147.100	35.847	-15.913	-147.314	-142.785	-27.795	-1.436	-143.236	-139.429	-138.794	-133.615	-94.247	-134.294	-8191	255	
6611.232	1	1	0	0	0.22601	0.17809	0.37318	0.2928	0.3064	0.24745	0.13309	0.074945	0.091772	0.15719	0.28595	0.17277	0.33776	0.18836	0.078321	0.19732	-1.5667	-2.3229	-1.7313	-2.3958	-2.1562	-1.6604	-2.3792	-2.2271	-1.8625	-2.3521	-1.7729	-2.0167	-2.6854	-1.9083	-2.1042	-2.2042	173.947	76.069	-113.819	184.323	10.960	-122.061	81.062	-25.988	133.137	-62.671	-134.279	6.815	125.874	-124.987	-9.476	39.152	0.0010342	0.00040929	7.0112e-05	1360.8	6.2008e-06	3.7347e-06	1352.4	367.24	8.5915e-06	3.0768e-06	419.57	140.38	122.31	41.958	6.6977e-06	51.624	0.00057818	0.0005378	0.00015382	1388.9	6.2094e-06	5.8512e-06	1378.8	377.34	6.2142e-06	5.8354e-06	428.55	144.93	124.81	42.866	6.2849e-06	53.846	149.363	-90.761	197.511	-147.088	-88.416	-72.462	-147.540	-142.595	-42.903	15.578	-143.286	-139.286	-138.600	-133.627	99.699	-134.333	-8191	255	
6611.327	1	1	0	0	0.10532	0.28761	0.1276	0.065902	0.23718	0.16055	0.26757	0.30262	0.12218	0.098274	0.14535	0.25908	0.23832	0.25552	0.46519	0.123	-1.3604	-2.4062	-1.9792	-2.1854	-2.1333	-1.8083	-2.5625	-2.2021	-1.7	-2.4708	-1.9354	-2.0521	-2.3521	-1.7729	-2.1813	-2.175	-23.557	-79.154	-154.640	-138.866	-10.430	128.993	134.215	104.968	6.045	127.578	178.236	136.771	54.206	160.082	-100.494	186.652	0.00098891	0.00075824	6.3321e-05	1357.5	6.7669e-06	5.3067e-06	1356	367.5	5.4364e-07	1.6789e-06	418.47	139.92	122.07	41.813	2.2133e-06	51.449	0.00056089	0.00052322	0.00016198	1387.7	6.0534e-06	5.7593e-06	1384.8	376.74	6.0337e-06	5.7321e-06	430.09	144.18	124.39	42.8	6.6246e-06	53.657	137.576	8.551	17.240	-147.245	-18.595	-50.998	-147.439	-142.483	40.586	32.825	-143.113	-139.302	-138.661	-133.501	-20.272	-134.337	-8191	255	
6611.423	1	1	0	0	0.25394	0.06465	0.13932	0.3526	0.16053	0.17986	0.27203	0.20171	0.15232	0.1014	0.16856	0.30306	0.098804	0.07533	0.19696	0.059113	-1.2604	-2.2771	-1.8813	-2.2667	-2.2313	-1.6667	-2.1896	-2.2687	-1.5896	-2.2167	-1.9	-2.075	-2.3937	-1.7646	-2.0583	-2.3979	134.760	41.498	-85.512	163.082	-88.400	-100.276	97.908	89.771	-139.400	-30.274	165.063	134.476	51.178	-86.301	26.769	-102.089	0.0013007	0.00058954	6.7437e-05	1360.1	1.2814e-06	4.0588e-06	1351	367.37	6.6905e-06	1.1688e-06	419.66	140.53	121.91	41.761	2.504e-06	51.519	0.00055412	0.00052937	0.00017273	1386.1	5.9852e-06	5.8733e-06	1388.7	375.66	5.9984e-06	5.9211e-06	432.72	144.03	124.32	42.949	6.9289e-06	53.471	138.848	-57.594	148.488	-146.895	-144.498	-87.176	-147.427	-142.610	-155.401	-8.383	-142.980	-139.389	-138.546	-133.616	-23.688	-134.458	-8191	255	
6611.496	1	1	0	0	0.10058	0.3047	0.081912	0.40124	0.054663	0.23746	0.066514	0.17939	0.29638	0.1363	0.049657	0.11994	0.26155	0.17969	0.024785	0.21056	-1.2271	-2.3667	-1.925	-2.0271	-2.2729	-1.6292	-2.1104	-2.4062	-1.5458	-2.3292	-2.2812	-1.9875	-2.2625	-1.8229	-2.1917	-2.1458	-85.304	12.026	31.465	181.856	174.442	161.284	49.778	186.746	34.733	-100.118	-123.545	-141.312	132.007	155.214	178.921	173.696	0.00093582	0.00036257	0.00010807	1356	6.5201e-06	3.2317e-06	1353.4	366.55	6.347e-06	3.3376e-06	417.45	140.13	121.59	41.655	1.3461e-05	51.441	0.00054584	0.00055793	0.0001764	1383	5.874e-06	6.2159e-06	1388.6	375.25	5.8754e-06	6.2691e-06	432.88	143.41	124.02	43.164	6.7703e-06	53.302	133.981	-119.844	59.175	-147.092	-28.858	187.068	-147.320	-142.778	-97.821	-128.722	-142.979	-138.978	-138.897	-133.508	39.329	-134.453	-8191	255	
6611.615	1	1	0	0	0.032469	0.16284	0.22314	0.038988	0.11673	0.14857	0.17065	0.47119	0.080755	0.33207	0.26704	0.26244	0.26109	0.079571	0.46191	0.05201	-1.2167	-2.2333	-2.1125	-2	-2.2646	-1.9667	-2.1333	-2.4125	-1.7167	-2.1646	-2.2271	-1.9229	-2.5563	-2.0812	-2.0979	-2.3875	-29.963	-27.327	-55.786	-57.060	23.259	-107.966	139.613	125.836	187.873	-110.634	173.646	134.038	139.977	-52.613	135.169	-73.475	0.0010313	0.0003788	0.00013574	1358	4.6801e-06	1.9937e-06	1357.9	367.54	3.9404e-06	1.459e-06	419.63	140.21	121.58	41.841	2.3339e-06	51.504	0.00053169	0.00057976	0.00017057	1380.2	5.7216e-06	6.5146e-06	1384.4	374.11	5.7604e-06	6.5572e-06	431.15	143.13	124	43.353	6.5225e-06	53.127	118.232	164.900	-68.165	-146.927	-120.721	173.988	-147.267	-142.551	-107.936	-78.920	-143.094	-139.375	-138.899	-133.675	72.077	-134.268	-8191	255	
6611.711	1	1	0	0	0.13828	0.37158	0.19954	0.21323	0.070221	0.31024	0.20136	0.19221	0.18139	0.12418	0.43409	0.26441	0.32634	0.10049	0.18956	0.28306	-1.4854	-2.0104	-2.2104	-1.7958	-2.1542	-1.7958	-2.0104	-2.5458	-1.8104	-2.0479	-2.2854	-1.7104	-2.2896	-2.1396	-1.9521	-2.4479	-58.328	180.506	-17.454	117.355	13.779	188.618	115.246	-115.282	-113.234	-152.327	146.074	134.511	169.014	-42.470	-80.632	40.516	0.00096933	5.5785e-05	0.0001973	1355.3	4.4548e-06	6.5181e-06	1356.6	366.45	6.9092e-06	5.4399e-06	420.33	140.11	121.69	41.843	6.3215e-06	51.584	0.00053852	0.00061322	0.00016562	1378.5	5.9031e-06	6.7997e-06	1382.8	373.96	6.0699e-06	6.8642e-06	430.11	143.06	124.54	43.583	6.4136e-06	53.122	142.928	-92.862	-119.170	-147.014	-117.792	-3.114	-147.327	-142.541	-84.258	-109.733	-142.961	-139.273	-138.469	-133.516	-26.480	-134.235	-8191	255	
6611.808	1	1	0	0	0.14412	0.12774	0.14723	0.21856	0.1302	0.056624	0.07861	0.070078	0.10821	0.063233	0.20617	0.25133	0.10786	0.20748	0.051576	0.33009	-1.3583	-2.0187	-2.0167	-1.6771	-2.1437	-2.1437	-2.0938	-2.425	-1.9125	-2.0896	-2.4708	-1.8813	-2.3146	-2.2458	-1.5875	-2.5333	21.520	-4.705	-92.376	171.225	-116.378	173.036	-156.732	3.011	-51.161	-136.374	165.136	-41.479	175.326	37.584	-4.796	145.250	0.0010934	0.00053107	2.7144e-05	1360.9	5.5738e-06	2.5479e-06	1360.1	367.16	1.2457e-05	8.6051e-06	418.39	140.52	121.96	41.716	1.5107e-06	51.492	0.00058153	0.00063446	0.00016312	1379	6.3858e-06	6.9456e-06	1384.1	373.62	6.4792e-06	6.8558e-06	428.35	142.76	125.42	43.398	6.2398e-06	53.018	124.834	-17.258	-138.579	-147.003	185.666	-67.419	-147.370	-142.514	-120.504	35.217	-142.954	-139.217	-138.722	-133.713	-31.074	-134.483	-8191	255	
6611.928	1	1	0	0	0.28134	0.32368	0.23708	0.11286	0.28052	0.19739	0.031994	0.22012	0.19148	0.1093	0.25815	0.075896	0.085892	0.22513	0.17289	0.079298	-1.4188	-1.9	-2.3458	-1.8792	-2.1979	-2.1396	-1.8312	-2.3104	-2.0312	-2.0292	-2.4562	-1.8229	-2.0958	-2.3625	-1.7125	-2.4042	165.510	-152.757	-72.825	157.728	140.464	12.611	61.341	115.531	133.642	92.208	175.819	71.004	-76.810	149.412	-77.552	124.397	0.0012756	0.00065989	0.00013026	1358.6	5.4769e-06	6.2574e-06	1356.2	367.52	5.8028e-06	2.2922e-06	417.1	139.61	121.83	41.76	5.0834e-06	51.494	0.00060853	0.00061466	0.00015802	1379.6	6.7133e-06	6.704e-06	1378.7	374	6.831e-06	6.6269e-06	427.61	142.93	125.93	43.211	6.1387e-06	53.095	121.923	49.011	-109.323	-147.118	197.565	35.001	-147.463	-142.465	-125.102	146.986	-142.867	-139.324	-138.623	-133.498	-44.533	-134.342	-8191	255	
6612.024	1	1	0	0	0.068469	0.19607	0.15173	0.15619	0.29651	0.11875	0.35188	0.29982	0.33185	0.13556	0.093941	0.27878	0.18165	0.22194	0.042752	0.18069	-1.5271	-1.8125	-2.2521	-2.1396	-2.0021	-2.0208	-1.8563	-2.3958	-1.9062	-1.8813	-2.4458	-1.7563	-1.9937	-2.2729	-1.6875	-2.4271	-39.299	83.671	52.460	166.605	-93.372	-69.543	142.026	-108.329	-38.262	11.378	-156.035	88.894	91.882	-157.869	-80.449	-131.070	0.00097462	0.00090869	0.00031139	1355.8	7.4293e-06	9.0105e-06	1349.4	367.31	6.5575e-06	4.5531e-06	417.7	140.42	122.24	41.858	7.6831e-06	51.376	0.00063356	0.00058912	0.00015442	1379.9	6.8872e-06	6.3757e-06	1377.3	374.54	6.8801e-06	6.3064e-06	426.49	143.63	126.08	43.069	5.9635e-06	53.418	127.083	-18.363	-84.524	-147.111	190.566	-57.515	-147.517	-142.740	17.925	51.595	-143.165	-139.334	-138.552	-133.400	-71.732	-134.418	-8191	255	
6612.096	1	1	0	0	0.11569	0.26516	0.091636	0.23418	0.08089	0.15381	0.30395	0.066042	0.35472	0.091529	0.2882	0.38625	0.1402	0.21364	0.07836	0.1297	-1.575	-1.9958	-2.3521	-1.9229	-2.1604	-2.3083	-2.0333	-2.3083	-2.1021	-1.6562	-2.3375	-1.9271	-1.9792	-2.2375	-1.7083	-2.4167	-61.891	148.412	90.281	36.097	100.946	26.562	193.152	134.933	9.930	-21.236	190.560	70.329	84.927	132.076	37.605	83.399	0.001211	0.00090266	4.5395e-05	1362.7	2.57e-06	3.3857e-06	1352.5	366.68	6.6362e-06	7.4009e-06	418.43	139.67	122	41.788	2.5631e-06	51.504	0.0006271	0.00056585	0.00014917	1385.6	6.7591e-06	6.1459e-06	1376.6	375.76	6.7095e-06	6.1008e-06	425.73	144.16	125.46	42.891	5.7991e-06	53.546	129.077	-18.785	28.099	-147.128	103.978	36.005	-147.549	-142.597	-5.771	25.124	-142.974	-139.427	-138.600	-133.494	110.573	-134.650	-8191	255	
6612.217	1	1	0	0	0.26294	0.25458	0.15902	0.19515	0.092101	0.22466	0.13894	0.15825	0.079397	0.19253	0.20766	0.24426	0.30089	0.17441	0.39011	0.26129	-1.8229	-1.6521	-2.25	-2.0375	-1.8833	-2.2208	-1.9167	-2.2646	-2.1854	-1.7458	-2.2812	-2.0646	-1.9438	-2.3417	-1.7833	-2.1771	42.637	-3.108	158.441	-119.857	85.714	-104.545	122.979	124.538	155.541	-114.195	154.975	189.015	178.328	-153.812	-153.564	162.655	0.00084157	0.00058001	5.6952e-05	1353.9	7.1528e-06	1.4843e-06	1351.7	367	6.063e-06	1.9059e-06	418.07	139.79	121.57	41.794	2.5406e-06	51.518	0.00059581	0.00053965	0.00014628	1384.1	6.3629e-06	5.9276e-06	1374.9	376.52	6.3781e-06	5.9247e-06	426.63	144.69	125	42.84	6.0636e-06	53.896	136.922	15.121	158.413	-147.117	-28.763	-112.385	-147.339	-142.471	-91.317	-1.111	-143.270	-139.428	-138.549	-133.436	9.971	-134.245	-8191	255	
6612.313	1	1	0	0	0.14564	0.30842	0.16424	0.29646	0.083967	0.21928	0.37663	0.30608	0.21735	0.22701	0.078094	0.244	0.028034	0.16841	0.14528	0.13751	-1.8229	-1.6187	-2.1562	-2.2292	-1.9	-2.1604	-1.9125	-2.2479	-2.0667	-1.6875	-2.4167	-2.1813	-1.8438	-2.3438	-1.9021	-2.2583	88.332	45.846	-153.532	146.288	8.376	57.131	143.833	113.406	103.314	-52.057	152.204	173.626	39.625	-153.953	77.709	81.573	0.0010836	0.00035647	0.00012199	1360.4	2.7633e-06	6.6236e-06	1349.8	366.12	4.6056e-06	5.8189e-06	417.06	139.75	121.68	41.576	7.901e-06	51.42	0.00058246	0.00053724	0.0001545	1388.1	6.2108e-06	5.7905e-06	1377.2	376.28	6.1059e-06	5.7647e-06	427.54	144.34	124.55	42.62	6.2726e-06	53.589	140.218	-93.673	-126.501	-147.054	3.380	4.348	-147.655	-142.650	-99.459	-4.615	-143.273	-139.284	-138.615	-133.532	-66.122	-134.395	-8191	255	
6612.407	1	1	0	0	0.1581	0.06658	0.12555	0.20343	0.13238	0.19509	0.27031	0.33561	0.21543	0.22021	0.31021	0.18244	0.236	0.064009	0.063904	0.04342	-1.7687	-1.6083	-2.1958	-2.3917	-1.7437	-2.5854	-1.9083	-1.9396	-2.3542	-1.7708	-2.1625	-2.0771	-1.6229	-2.4333	-1.8229	-1.9083	98.309	60.430	-23.412	-153.813	-45.570	-14.236	74.302	100.707	73.268	81.050	124.151	-45.398	165.667	103.100	87.150	79.343	0.0010341	0.00086521	0.00016332	1357	7.3177e-06	4.3272e-06	1349.5	366.29	6.6467e-06	1.8624e-06	419.59	139.55	121.54	41.625	5.4945e-06	51.639	0.00054875	0.00051891	0.0001612	1382.5	5.9156e-06	5.6412e-06	1381.1	375.34	5.9152e-06	5.6837e-06	430.3	143.78	124.12	42.674	6.619e-06	53.404	122.357	8.169	153.984	-147.048	-47.691	-46.309	-147.455	-142.704	-149.655	-20.130	-143.082	-139.310	-138.466	-133.596	187.244	-134.402	-8191	255	
6612.528	1	1	0	0	0.073299	0.26088	0.026475	0.35675	0.077214	0.15368	0.15636	0.12827	0.40779	0.17306	0.11121	0.35841	0.15594	0.14939	0.03719	0.44479	-1.7188	-1.6979	-2.3167	-2.2521	-1.6479	-2.3333	-2.0229	-2.2333	-2.3	-1.5896	-2.0458	-2.1417	-1.7896	-2.2521	-2.0354	-1.8833	-92.927	157.608	148.208	184.651	75.155	198.861	147.838	115.596	101.815	6.784	-67.698	189.246	-159.743	78.388	145.399	5.430	0.00125	0.00036025	9.9902e-05	1354.8	5.5641e-06	7.6586e-06	1345.1	365.08	7.1003e-06	2.0695e-06	419.4	140.1	121.63	41.745	1.649e-06	51.654	0.00053758	0.00052403	0.00016913	1379.5	5.8295e-06	5.8239e-06	1381.9	374.31	5.7974e-06	5.8673e-06	430.77	143.46	123.75	42.844	6.7558e-06	53.136	141.895	-59.531	-66.920	-147.173	-59.691	-52.949	-147.411	-142.518	-68.692	155.197	-143.243	-139.322	-138.723	-133.611	132.250	-134.196	-8191	255	
6612.624	1	1	0	0	0.12457	0.20831	0.17104	0.30015	0.21702	0.15703	0.18029	0.4353	0.23378	0.1758	0.11263	0.1689	0.10377	0.20938	0.075656	0.25784	-1.7833	-1.4521	-1.8917	-2.4979	-1.6979	-2.2396	-2.2146	-2.0229	-2.3042	-1.9062	-1.9813	-2.3583	-1.7563	-2.3625	-2.1667	-1.6729	156.499	-95.419	-157.332	-123.003	43.813	-21.894	65.054	146.436	-13.076	-29.274	155.589	-152.203	190.303	166.411	-41.658	150.125	0.0010824	0.00050706	4.3496e-05	1352.5	6.42e-06	4.3945e-06	1349.5	366.19	1.8084e-07	4.8654e-06	419.16	139.74	121.67	41.515	1.1515e-05	51.437	0.00052547	0.00054865	0.000171	1375.9	5.7084e-06	6.0469e-06	1382.3	373.84	5.6761e-06	6.2807e-06	430.71	142.89	123.67	43.015	6.6653e-06	53.106	131.586	197.102	-84.548	-146.972	-71.944	-78.412	-147.453	-142.540	72.096	-135.915	-142.960	-139.463	-138.632	-133.597	49.064	-134.306	-8191	255	
6612.720	1	1	0	0	0.11449	0.079217	0.15156	0.2343	0.11867	0.16935	0.13279	0.28932	0.26392	0.064285	0.10801	0.39138	0.23226	0.35596	0.14062	0.17638	-1.8604	-1.7708	-1.9021	-2.6	-1.5708	-1.9604	-2.275	-2.0312	-2.3271	-1.775	-2.0521	-2.3146	-2.0312	-2.1771	-2.3479	-1.8833	94.540	82.387	111.707	174.482	-150.522	94.530	14.063	117.325	136.978	-12.858	54.073	129.620	171.464	136.710	116.819	122.753	0.00072288	0.00041505	0.00016877	1346.6	6.3048e-06	3.5017e-06	1350.3	366.9	1.3289e-05	5.7188e-06	417.49	140.07	120.9	41.568	1.6131e-05	51.531	0.00052837	0.00058646	0.00016682	1372.7	5.6438e-06	6.4735e-06	1378	373.05	5.6487e-06	6.5781e-06	428.48	142.69	123.65	43.22	6.3773e-06	52.881	129.699	-102.082	-59.201	-146.942	-87.364	163.126	-147.456	-142.531	-88.610	-81.607	-142.927	-139.319	-138.380	-133.598	34.845	-134.312	-8191	255	
6612.792	1	1	0	0	0.24608	0.14876	0.066482	0.16894	0.13618	0.13744	0.25306	0.16742	0.30177	0.22147	0.15656	0.21845	0.09613	0.11741	0.34547	0.14094	-2.0083	-1.9312	-1.8125	-2.3396	-1.7958	-2.0917	-2.4104	-1.9083	-2.1708	-2.05	-1.9104	-2.3771	-1.9292	-2.2313	-1.8896	-1.8646	19.789	-1.669	-80.389	172.544	4.876	127.899	140.464	145.706	197.818	-6.636	154.432	182.048	158.332	-87.234	128.994	128.364	0.0012117	0.00030379	0.00019789	1358	7.8303e-06	3.0638e-06	1350.3	366.88	5.8948e-06	2.1377e-06	417.87	140.33	121.74	41.643	1.3911e-06	51.222	0.00052799	0.000606	0.00015975	1374.6	5.8162e-06	6.5811e-06	1377.2	373.24	5.8628e-06	6.6713e-06	426.89	142.4	124.27	43.238	6.0699e-06	52.762	124.964	-80.429	0.277	-147.091	193.334	-72.802	-147.237	-142.651	-131.435	-73.644	-142.810	-139.282	-138.615	-133.452	-120.843	-134.228	-8191	255	
6612.912	1	1	0	0	0.020456	0.2748	0.3503	0.24937	0.16626	0.038342	0.3511	0.076691	0.22926	0.1583	0.28208	0.1629	0.12922	0.040199	0.28456	0.052131	-1.6979	-1.925	-1.6333	-2.55	-1.7313	-2.0958	-2.4875	-1.8625	-2.2438	-2.0792	-1.8604	-2.2167	-1.8771	-1.8708	-2.2208	-1.7042	-70.621	17.487	155.038	182.588	-153.531	-89.126	73.380	-85.024	-17.867	83.120	-132.455	131.800	-17.790	188.933	50.544	103.012	0.0010978	0.00066555	0.00024171	1354.5	2.68e-06	4.8522e-06	1349.1	366.52	1.4854e-05	5.6854e-06	417.73	140.45	121.49	41.751	9.5727e-06	50.921	0.00055324	0.00060825	0.00015443	1371.6	6.1588e-06	6.5677e-06	1373.7	372.13	6.2389e-06	6.5388e-06	427.02	142.28	124.82	43.055	5.8962e-06	52.601	120.589	-16.722	-79.804	-147.242	191.471	-31.019	-147.462	-142.562	153.712	50.354	-142.755	-139.244	-138.742	-133.382	-17.326	-134.354	-8191	255	
6613.009	1	1	0	0	0.16837	0.17436	0.20706	0.10041	0.21259	0.18237	0.24145	0.4839	0.19938	0.17546	0.10884	0.095391	0.1523	0.18117	0.33458	0.093477	-1.6771	-1.9479	-1.5	-2.4938	-1.9667	-1.9458	-2.4604	-1.75	-1.9292	-2.1583	-1.7563	-2.2917	-2.1708	-2.025	-2.0604	-1.6917	-5.853	-138.743	20.257	161.583	-63.862	-80.613	157.138	-151.223	150.711	39.353	158.298	182.864	-127.676	-25.559	155.916	123.334	0.0012162	0.00077804	2.8741e-05	1355.4	3.0501e-06	9.7588e-06	1348.9	365.77	1.0318e-05	5.2316e-06	416.64	139.56	121.34	41.659	6.1938e-06	51.2	0.0005834	0.00057739	0.00014971	1369.8	6.4593e-06	6.2688e-06	1369.4	371.96	6.4779e-06	6.264e-06	424.59	142.32	125.06	42.914	5.7585e-06	52.802	122.436	-82.089	-141.802	-147.260	13.569	-19.637	-147.444	-142.436	-156.707	12.908	-142.638	-139.238	-138.724	-133.999	-26.340	-134.125	-8191	255	
6613.105	1	1	0	0	0.045807	0.25136	0.21094	0.31332	0.080628	0.17202	0.15566	0.26855	0.11316	0.11467	0.30708	0.049069	0.23311	0.0303	0.1755	0.11192	-1.5938	-2.2375	-1.5396	-2.3187	-1.7938	-1.9354	-2.6354	-2.0083	-2.0792	-2.1312	-1.9167	-2.4375	-2.0062	-1.8583	-2.4167	-1.8687	3.551	-110.865	-27.594	176.475	101.662	-98.200	134.624	176.276	63.752	95.331	153.937	145.380	-104.762	-80.480	192.259	67.556	0.0013446	0.00067448	0.00020334	1355.2	3.0007e-06	4.3574e-06	1346.7	367.08	6.1031e-06	5.9013e-06	416.87	139.29	121.19	41.658	1.3535e-05	51.515	0.00059808	0.00055408	0.00014481	1372.5	6.5272e-06	5.9757e-06	1367.1	373.05	6.4439e-06	5.8604e-06	423.78	142.56	124.75	42.69	5.5627e-06	53.121	120.533	4.541	-59.744	-147.350	35.225	-29.054	-147.350	-142.701	-52.420	-0.443	-142.871	-139.195	-138.641	-133.625	-30.604	-134.638	-8191	255	
6613.201	1	1	0	0	0.12375	0.19207	0.12824	0.34043	0.077633	0.02838	0.20463	0.055841	0.17661	0.0248	0.053681	0.24767	0.18303	0.37333	0.13917	0.18847	-1.6562	-2.3542	-1.5521	-2.4313	-2.0729	-1.7896	-2.3937	-1.9458	-1.8563	-2.2958	-1.7771	-2.0583	-2.1854	-1.8229	-2.1958	-1.9333	131.085	-63.232	98.996	135.439	-50.412	-45.979	140.456	179.904	32.918	190.814	-71.267	-119.260	160.302	117.439	-159.437	98.053	0.00099082	0.00036789	9.6787e-05	1358	5.6446e-07	3.0517e-06	1350.8	365.92	6.0267e-06	7.0188e-06	418.1	139.15	121.43	41.696	8.3921e-06	51.278	0.00058617	0.00052861	0.00014145	1377.9	6.3358e-06	5.7946e-06	1366.9	374.24	6.3054e-06	5.7736e-06	423.75	143.2	124.71	42.681	5.5722e-06	53.36	143.054	-46.804	28.943	-147.128	-10.646	-73.819	-147.529	-142.406	-30.143	8.194	-142.801	-139.280	-138.364	-133.608	-45.495	-134.421	-8191	255	
6613.320	1	1	0	0	0.46727	0.14081	0.20792	0.30955	0.10742	0.073534	0.2057	0.26524	0.051666	0.16435	0.17721	0.18525	0.27367	0.20218	0.17462	0.12395	-1.1521	-2.4375	-1.5646	-2.4271	-2.1125	-1.6292	-2.5438	-2.0479	-1.8667	-2.125	-1.7417	-2.0771	-2.2	-1.8042	-2.1854	-2.0563	64.857	42.653	-149.037	191.903	16.786	-74.463	175.220	121.456	22.936	-105.502	157.966	-125.943	149.802	143.608	51.274	165.847	0.0011171	0.00058052	0.0001611	1352.7	5.1622e-06	2.4034e-06	1345.8	367.13	1.2968e-05	5.1318e-06	417.21	139.51	121.51	41.527	1.0664e-05	51.38	0.0005665	0.00051951	0.00014267	1377.4	6.1081e-06	5.6393e-06	1365.9	375.13	6.0503e-06	5.6277e-06	424.23	143.46	124.01	42.49	5.783e-06	53.493	122.231	-22.529	-152.843	-147.046	7.045	142.081	-147.482	-142.571	-70.237	57.835	-143.093	-139.070	-138.563	-133.535	-76.273	-134.310	-8191	255	
6613.393	1	1	0	0	0.18117	0.24817	0.14711	0.2546	0.073732	0.099721	0.1902	0.24245	0.13023	0.14008	0.21636	0.20887	0.38481	0.23912	0.027256	0.1924	-1.2292	-2.2771	-1.8667	-2.3854	-2.1729	-1.8979	-2.3458	-2.0146	-2.0042	-2.3021	-2.0646	-1.9771	-2.3396	-1.7604	-2.0542	-2.0542	95.561	-115.228	158.800	165.190	-9.622	-24.830	170.184	-130.164	-128.377	89.072	122.784	-144.439	69.970	-129.402	132.072	93.583	0.0010475	0.00021679	0.00012211	1354.8	3.4589e-06	5.4848e-06	1344.8	365.57	1.1909e-05	5.2896e-06	418.37	139.59	121.27	41.647	5.5022e-06	51.346	0.00054372	0.00050881	0.00014948	1378.3	5.8685e-06	5.4922e-06	1369.4	374.46	5.8101e-06	5.4379e-06	426.28	143.47	123.72	42.453	6.0872e-06	53.249	142.401	2.833	139.726	-147.253	-83.062	-13.271	-147.552	-142.452	-43.940	-7.478	-142.986	-139.236	-138.518	-133.655	-64.743	-134.416	-8191	255	
6613.489	1	1	0	0	0.22934	0.065326	0.29193	0.080108	0.14815	0.13772	0.21534	0.24902	0.13444	0.16174	0.12935	0.055958	0.16758	0.14651	0.22286	0.29624	-1.5104	-2.2792	-1.7667	-1.9833	-2.2083	-1.7	-2.5604	-2.2667	-1.6063	-2.2646	-1.9604	-2.075	-2.1667	-1.6333	-2.2583	-2.2542	-160.032	30.537	-117.678	144.103	-128.255	133.865	183.098	-115.260	104.118	-13.422	114.877	6.055	154.577	-130.924	-10.641	148.938	0.00090806	0.00039013	0.0001721	1354.2	3.4959e-06	2.9477e-06	1343.4	367.13	5.971e-06	3.77e-06	416.37	140.86	120.98	41.479	2.8078e-06	51.233	0.00052767	0.00049528	0.000157	1374.9	5.6874e-06	5.4843e-06	1372.7	374.01	5.6855e-06	5.4331e-06	427.91	143.31	123.27	42.46	6.4357e-06	53.06	121.093	-17.397	145.882	-147.078	-29.250	-90.856	-147.482	-142.706	-40.321	-50.501	-143.098	-139.262	-138.631	-133.521	-130.674	-134.223	-8191	255	
6613.608	1	1	0	0	0.21876	0.3179	0.12472	0.28623	0.19625	0.1792	0.14648	0.14072	0.066965	0.37457	0.41007	0.30198	0.1848	0.10143	0.24021	0.13692	-1.3	-2.1125	-1.9813	-2.0917	-2.1937	-1.8188	-2.2625	-2.1604	-1.5167	-2.2625	-2.0458	-1.9	-2.3646	-1.6896	-1.9813	-2.2062	-86.510	157.378	-158.993	168.938	-16.741	188.751	57.969	174.487	195.468	178.776	102.816	150.876	153.305	129.802	-35.827	-37.563	0.00089193	0.00037428	0.00016395	1350.4	6.6591e-06	5.229e-06	1341.4	366.51	4.9062e-06	1.517e-06	416.71	139.42	121.12	41.39	1.7461e-05	51.345	0.00051885	0.0005056	0.00016423	1371.9	5.5631e-06	5.5942e-06	1374.6	373.06	5.5606e-06	5.6286e-06	427.97	142.5	122.97	42.592	6.4233e-06	52.846	152.083	-153.406	-40.824	-147.077	-122.632	-12.234	-147.607	-142.358	-63.966	-124.160	-142.893	-139.235	-138.499	-133.525	44.546	-134.361	-8191	255	
6613.704	1	1	0	0	0.054748	0.33863	0.30028	0.24917	0.27838	0.2513	0.28782	0.16733	0.20329	0.052056	0.44692	0.067135	0.056756	0.16157	0.10197	0.055796	-1.0938	-2.0687	-1.8667	-1.9562	-2.5062	-1.75	-2.0833	-2.3958	-1.4875	-2.3063	-2.1083	-1.7167	-2.575	-1.9562	-1.8208	-2.2979	-146.597	124.630	193.313	165.976	-9.414	-7.337	135.183	-125.538	-111.336	139.567	98.168	84.075	34.760	151.848	-8.370	-110.318	0.00086649	0.00014794	0.00025963	1351	2.4121e-06	3.6049e-06	1344.5	365.71	8.4419e-06	5.8916e-06	417.82	139.36	121.65	41.573	4.6049e-06	51.318	0.00050137	0.00052855	0.00016295	1369.4	5.3903e-06	5.8853e-06	1372.4	371.84	5.4276e-06	5.9706e-06	427.15	141.9	122.93	42.776	6.2637e-06	52.7	132.880	-113.090	28.253	-146.970	182.766	-150.763	-147.601	-142.737	-104.621	-53.462	-142.868	-139.365	-138.736	-133.359	67.042	-134.521	-8191	255	
6613.801	1	1	0	0	0.15147	0.201	0.26553	0.35623	0.079566	0.053206	0.35656	0.17731	0.13713	0.22905	0.3167	0.33183	0.17383	0.25205	0.078664	0.060295	-1.0812	-2.1292	-2.05	-2.0438	-2.0854	-1.8083	-2.0875	-2.4229	-1.6833	-2.2542	-2.3042	-1.7812	-2.1521	-1.8958	-1.7083	-2.6229	58.734	7.208	-26.958	90.768	169.549	59.939	152.853	139.056	85.380	121.525	173.569	-49.763	115.133	-151.871	44.431	-146.139	0.00089731	0.00058472	0.00023533	1352.4	3.2087e-06	1.3766e-06	1348.1	364.72	8.3539e-06	1.1869e-06	416.33	140.01	121.58	41.683	7.4451e-06	51.142	0.00050035	0.00055924	0.0001588	1368	5.4249e-06	6.2648e-06	1371.7	371.11	5.5591e-06	6.3514e-06	426.4	141.95	123.24	42.982	6.0961e-06	52.53	126.301	-85.540	-72.330	-147.097	-99.379	91.209	-147.434	-142.591	-128.216	5.654	-142.773	-139.389	-138.568	-133.843	53.023	-134.429	-8191	255	
6613.897	1	1	0	0	0.28703	0.15499	0.2296	0.20817	0.18128	0.2778	0.32653	0.097928	0.20806	0.27393	0.22781	0.2583	0.11946	0.15119	0.054047	0.12408	-1.2875	-1.9688	-2.0833	-2	-2.1813	-1.8604	-2.0208	-2.4292	-1.6021	-1.8646	-2.4583	-1.7833	-2.2438	-2.3229	-1.8458	-2.4562	-148.661	15.142	189.244	-120.859	-24.274	-131.899	169.297	127.554	16.929	164.168	174.494	193.541	34.530	117.085	84.817	-17.272	0.0010221	0.00027104	0.00020252	1352.1	2.6756e-06	2.7908e-06	1343.9	364.68	6.841e-06	2.3123e-06	416.69	139.25	121.24	41.811	1.199e-05	51.513	0.00051613	0.00058642	0.00015408	1365.7	5.7142e-06	6.4433e-06	1366.4	370.64	5.7991e-06	6.3985e-06	425.16	141.76	123.55	43.077	5.8503e-06	52.503	133.596	88.167	-72.458	-146.966	175.998	116.278	-147.351	-142.396	-117.905	29.904	-143.217	-138.976	-138.715	-133.409	17.747	-134.478	-8191	255	
6613.993	1	1	0	0	0.062795	0.25332	0.34188	0.17695	0.20681	0.23293	0.1261	0.38924	0.28151	0.026375	0.022983	0.38971	0.37728	0.21633	0.13482	0.40458	-1.5542	-1.9646	-2.1958	-2.1417	-2.0083	-1.9167	-1.8167	-2.6479	-1.9125	-1.7917	-2.3229	-1.7646	-2.3167	-1.9813	-1.7229	-2.4521	121.879	34.017	-134.454	125.028	131.934	182.553	114.111	174.416	-159.386	135.589	100.992	167.601	-156.354	-160.388	132.790	139.419	0.0012688	0.0010932	5.9126e-05	1350	4.739e-06	6.9261e-06	1347	366.18	4.9549e-06	2.2233e-06	416.9	139.36	121.01	41.618	8.3467e-06	51.458	0.00055216	0.00058168	0.00014897	1364.5	6.0625e-06	6.3847e-06	1366.4	370.8	6.1737e-06	6.3196e-06	424.84	141.53	124.31	42.96	5.8302e-06	52.608	118.231	0.737	21.152	-147.022	190.143	55.294	-147.525	-142.708	-95.095	-15.681	-142.937	-139.395	-138.462	-133.465	-43.363	-134.300	-8191	255	
6614.089	1	1	0	0	0.089489	0.036243	0.27362	0.15951	0.098556	0.16972	0.15786	0.17058	0.21583	0.030345	0.09756	0.25819	0.1072	0.085624	0.12814	0.2947	-1.3833	-2.0292	-2.2521	-2.0417	-2.0375	-2.1354	-1.9604	-2.2792	-2.0021	-1.9125	-2.2917	-1.8125	-2.1354	-2.3	-1.6167	-2.3063	-134.659	5.109	-65.509	170.514	8.147	-10.051	119.884	174.837	25.846	-88.141	-100.379	-109.905	129.071	0.412	75.811	136.045	0.0010858	0.00051756	0.00021737	1346.6	2.1164e-06	6.2735e-06	1345.3	365.18	1.1115e-05	4.5199e-06	417.95	139.5	121.1	41.804	6.2001e-06	51.207	0.00058737	0.00056933	0.00014699	1365.9	6.3909e-06	6.1889e-06	1363.8	371.32	6.4408e-06	6.0667e-06	424.14	141.97	124.5	42.818	5.6408e-06	52.58	124.322	188.715	-49.516	-147.044	-63.641	40.746	-147.509	-142.779	-104.782	20.340	-143.216	-139.383	-138.687	-133.488	-29.914	-134.390	-8191	255	
6614.210	1	1	0	0	0.13502	0.24006	0.12705	0.29991	0.095397	0.1862	0.186	0.23814	0.17104	0.24501	0.10668	0.31658	0.19339	0.11524	0.1527	0.09782	-1.5146	-1.825	-2.3875	-1.9083	-2.1875	-2.3125	-1.9125	-2.3417	-2.0375	-1.8146	-2.5375	-2.1167	-2.0687	-2.2479	-1.6938	-2.3667	186.805	-1.383	154.297	169.632	18.434	-64.490	58.782	138.591	166.898	-15.522	64.916	156.568	-142.873	79.784	-94.324	136.827	0.0010391	0.00050055	0.00017383	1349.2	3.2889e-06	3.3424e-06	1340	365.9	3.8361e-06	2.3137e-06	416.26	139.69	120.94	41.531	1.5117e-05	51.384	0.00058681	0.0005351	0.00014059	1366.8	6.3002e-06	5.7915e-06	1358.8	372.12	6.3005e-06	5.6971e-06	421.65	142.37	124.06	42.467	5.4226e-06	52.773	143.626	-78.552	-74.443	-147.064	-69.020	-42.083	-147.331	-142.705	-79.511	71.447	-142.578	-139.029	-138.274	-133.401	2.594	-134.284	-8191	255	
6614.306	1	1	0	0	0.39128	0.37524	0.16827	0.038884	0.14311	0.13819	0.20778	0.21564	0.10857	0.093788	0.32222	0.04595	0.10083	0.10888	0.21141	0.31191	-1.6771	-1.5979	-2.1896	-2.1229	-1.9333	-2.1188	-1.8521	-2.2667	-1.9604	-1.6437	-2.4208	-1.9083	-1.8687	-2.2625	-1.8583	-2.2208	123.946	-65.881	32.653	146.771	183.800	90.471	128.008	175.958	198.108	97.845	-140.804	-154.898	185.269	-13.909	-103.909	106.915	0.0012198	8.6179e-05	0.00016933	1341.9	5.2684e-06	5.7663e-06	1345.4	363.65	7.8774e-06	4.2908e-06	417.04	139.49	121.39	41.406	2.6222e-06	51.272	0.00056715	0.00051319	0.0001367	1365.4	6.129e-06	5.5869e-06	1357.9	371.9	6.0511e-06	5.5222e-06	421.09	142.91	123.86	42.404	5.3272e-06	53.101	124.380	-79.650	-76.192	-147.082	33.587	-40.962	-147.384	-142.731	-54.952	21.481	-143.189	-139.283	-138.414	-133.549	-19.178	-134.570	-8191	255	
6614.400	1	1	0	0	0.15208	0.20594	0.19451	0.13928	0.063245	0.14503	0.31982	0.15844	0.072057	0.1626	0.037684	0.07139	0.12099	0.21456	0.35845	0.21821	-1.7333	-1.6542	-2.1417	-2.0792	-1.8021	-2.2167	-1.9458	-2.0417	-2.0521	-1.6063	-2.1708	-2.0354	-1.7896	-2.2458	-1.7125	-2.1542	-44.678	-69.608	-132.178	103.667	79.135	-3.619	189.188	-140.220	-149.849	151.872	-98.821	-99.646	86.869	183.064	45.325	-146.984	0.00094043	0.00052663	3.1586e-05	1347.3	6.9903e-06	1.6595e-06	1340.9	364.03	4.6047e-06	3.5834e-06	415.17	139.95	121.14	41.759	1.2275e-06	51.187	0.00053864	0.00048962	0.00013528	1369	5.7225e-06	5.3188e-06	1357.3	371.94	5.6656e-06	5.313e-06	421.67	143.03	122.94	42.279	5.5655e-06	53.152	135.042	-28.704	159.141	-147.107	-59.540	106.905	-147.386	-142.709	-10.542	75.960	-142.935	-139.167	-138.694	-133.257	-146.183	-134.270	-8191	255	
6614.496	1	1	0	0	0.079311	0.043664	0.10368	0.47303	0.05805	0.27422	0.29803	0.23051	0.056143	0.10615	0.039947	0.30981	0.2157	0.34664	0.24807	0.19208	-1.7062	-1.6458	-2.175	-2.1375	-1.925	-2.2833	-1.9229	-2.0271	-2.3271	-1.4937	-2.4229	-1.9937	-1.8	-2.3292	-1.6938	-1.8979	-123.012	119.296	-22.372	170.836	-154.781	-84.565	138.183	110.913	-44.571	12.680	26.504	161.382	-151.597	176.767	62.771	115.855	0.0010461	0.00025633	0.00016113	1345.5	9.3235e-06	6.0625e-06	1339.1	365.57	2.9174e-06	4.2708e-06	417.25	139.74	121.16	41.63	1.2279e-05	51.005	0.00052162	0.00048494	0.00014465	1369.6	5.5844e-06	5.2749e-06	1364.1	372.58	5.5601e-06	5.3002e-06	424.54	142.99	123.13	42.304	6.0052e-06	52.935	129.747	-78.596	-107.897	-146.943	-4.594	-35.956	-147.529	-142.531	48.587	-16.094	-143.023	-139.410	-138.565	-133.597	-75.565	-134.292	-8191	255	
6614.617	1	1	0	0	0.25418	0.16258	0.17031	0.30719	0.25606	0.18577	0.46749	0.20189	0.1511	0.20112	0.22081	0.2531	0.067392	0.24493	0.19082	0.18411	-1.8875	-1.6896	-2.1271	-2.2188	-1.6146	-2.3417	-2.1521	-1.9625	-2.3125	-1.6917	-2.2896	-2.2938	-1.6333	-2.3875	-1.8979	-2.0958	29.099	47.277	129.960	181.469	-52.004	199.361	146.016	-108.705	53.785	120.445	145.913	149.925	141.104	75.346	-126.836	100.532	0.00099833	0.00019287	5.8633e-05	1345.7	2.5533e-06	7.5646e-07	1337.1	365.38	3.9859e-06	3.562e-06	417.14	139.58	121.32	41.681	1.0485e-05	51.442	0.00051276	0.00048427	0.00015604	1371.1	5.599e-06	5.3732e-06	1369.7	372.47	5.6121e-06	5.4594e-06	427.66	142.87	123.21	42.485	6.3908e-06	52.982	129.807	-69.840	-156.996	-147.075	170.596	9.558	-147.494	-142.516	-33.423	-87.859	-143.143	-138.895	-138.649	-133.565	-79.809	-134.197	-8191	255	
6614.689	1	1	0	0	0.28293	0.23446	0.25068	0.30712	0.2718	0.16776	0.36783	0.054774	0.11134	0.064347	0.2187	0.19909	0.13735	0.0086312	0.025203	0.28337	-1.9042	-1.6229	-2.225	-2.3312	-1.7479	-2.2208	-2.2938	-1.9771	-2.4542	-1.7417	-2.1979	-2.2125	-1.7896	-2.3354	-1.9708	-1.9937	159.777	147.730	-73.395	98.340	196.676	63.387	183.839	124.857	18.126	145.086	177.078	120.669	128.849	93.100	186.643	-149.657	0.00099845	0.00048857	0.0001465	1355.3	2.9379e-06	1.9701e-06	1343.9	366.21	3.4418e-06	2.6777e-06	416.01	139.99	121.71	41.77	1.4193e-06	51.556	0.00050643	0.00050831	0.00016196	1370.1	5.4514e-06	5.5768e-06	1373.2	371.71	5.4153e-06	5.6889e-06	427.1	142.37	123.14	42.669	6.3734e-06	52.847	145.614	180.339	-26.986	-147.086	-17.710	-6.667	-147.279	-142.596	-86.309	-125.786	-142.974	-139.337	-138.828	-133.467	-111.556	-133.906	-8191	255	
6614.785	1	1	0	0	0.27729	0.10489	0.27318	0.1707	0.051033	0.028554	0.28156	0.064599	0.28565	0.12113	0.28983	0.2897	0.30256	0.1922	0.17552	0.33204	-1.7542	-1.6667	-1.9792	-2.4521	-1.65	-2.0917	-2.2125	-2.0396	-2.3521	-1.9271	-2.0167	-2.2833	-1.8312	-2.1813	-1.9958	-1.7812	-108.781	-48.938	6.408	136.948	144.689	22.624	157.651	136.318	-153.345	-156.372	189.181	196.032	-113.920	-133.048	61.003	69.970	0.0010993	0.00038845	0.00010031	1347	2.7737e-06	3.7619e-06	1343.8	366.05	8.6866e-06	5.2249e-06	417.34	139.83	121.58	41.75	1.6141e-05	51.698	0.00049467	0.00053472	0.00016042	1364.9	5.3581e-06	5.8797e-06	1370.5	371.2	5.3032e-06	6.0459e-06	426.48	142.01	122.99	42.905	6.1864e-06	52.735	130.066	148.826	-17.592	-146.978	-86.446	-127.519	-147.385	-142.793	-160.436	-63.941	-142.945	-139.273	-138.595	-133.757	6.956	-134.364	-8191	255	
6614.881	1	1	0	0	0.10649	0.013489	0.17814	0.2851	0.033493	0.24162	0.13403	0.14785	0.22401	0.16459	0.27308	0.10191	0.30582	0.22455	0.32939	0.054691	-1.875	-1.8833	-1.7708	-2.3812	-1.5875	-2.0979	-2.1521	-1.6063	-2.0938	-1.825	-1.975	-2.4938	-1.6479	-2.1354	-1.8958	-1.6521	-72.645	155.537	-38.607	145.103	66.595	144.068	116.177	108.865	194.877	-151.485	184.924	175.094	164.639	137.381	-1.103	-14.318	0.0012814	0.00026802	0.00014467	1341.9	5.0931e-06	4.2077e-06	1347.1	365.96	9.3419e-06	3.3469e-06	416.64	140.46	121.53	41.617	9.1021e-06	51.378	0.00049377	0.00056716	0.0001553	1363.6	5.4332e-06	6.2075e-06	1370.5	371.21	5.4187e-06	6.283e-06	425.01	141.86	123.17	42.978	5.9095e-06	52.548	123.110	-107.731	-14.394	-147.101	-43.096	130.598	-147.472	-142.708	-94.256	-95.856	-143.074	-139.218	-138.849	-133.651	8.766	-134.480	-8191	255	
6615.002	1	1	0	0	0.14219	0.23584	0.2188	0.32364	0.17643	0.067096	0.20538	0.31592	0.059603	0.11452	0.073151	0.11627	0.066697	0.27234	0.21065	0.36794	-1.7292	-1.8667	-1.9104	-2.4417	-1.75	-1.8854	-2.2562	-1.8271	-2.3167	-1.8813	-1.8937	-2.3667	-1.8604	-1.8646	-2.075	-1.675	63.820	-102.621	-77.447	136.734	140.803	150.477	98.860	189.022	-75.559	123.247	144.349	87.141	-142.651	91.144	-65.084	123.533	0.0011368	0.00052678	9.2637e-05	1348	9.7723e-06	9.8266e-07	1341.9	366.35	1.4781e-05	4.3652e-06	419.93	140.29	121.18	41.841	1.193e-05	51.366	0.00051014	0.00057485	0.00014873	1361.8	5.6243e-06	6.2885e-06	1363.3	370.41	5.7483e-06	6.3638e-06	424.42	141.47	123.79	43.031	5.7826e-06	52.431	127.425	-28.231	-134.757	-147.290	-139.888	-54.386	-147.494	-142.747	198.753	111.180	-143.029	-138.964	-138.617	-133.313	-1.696	-134.329	-8191	255	
6615.098	1	1	0	0	0.056183	0.21582	0.15793	0.34787	0.19147	0.26951	0.24392	0.38112	0.15394	0.063742	0.10659	0.093616	0.039782	0.31098	0.11181	0.44591	-1.7542	-1.9625	-1.6562	-2.4083	-1.7	-1.6479	-2.3958	-1.8125	-2.0062	-2.0979	-1.9729	-2.1833	-1.9562	-2.1042	-2.3229	-1.8083	105.511	198.346	28.388	137.798	162.288	-54.698	124.573	142.900	177.482	43.873	-59.355	146.528	139.290	-83.232	-2.603	125.571	0.0013325	0.00066671	0.00025973	1349.9	4.5453e-06	6.5666e-06	1345.6	366.26	9.2865e-06	6.2585e-06	418.64	139.63	121.68	41.847	6.5034e-06	51.526	0.00054731	0.00057817	0.00014749	1364.6	6.1255e-06	6.2575e-06	1368	371.07	6.1852e-06	6.227e-06	425.09	141.7	124.81	42.948	5.7004e-06	52.701	133.387	-28.128	-78.612	-147.017	-87.629	-29.226	-147.327	-142.602	186.749	-15.886	-142.974	-139.325	-138.574	-133.595	-68.241	-134.199	-8191	255	
6615.194	1	1	0	0	0.19736	0.17727	0.18779	0.22334	0.12102	0.093569	0.44448	0.38751	0.076966	0.25645	0.43894	0.080472	0.057226	0.067824	0.13863	0.13589	-1.6583	-2.1417	-1.7083	-2.5312	-1.8292	-1.8958	-2.4062	-1.8604	-2.1063	-2.0875	-1.6875	-2.5875	-2.1437	-1.7521	-2.1792	-1.9458	-37.611	75.427	135.190	166.131	-38.280	-99.688	147.456	133.804	-33.588	70.754	111.715	152.883	179.907	108.909	-55.211	117.446	0.00090314	0.00057484	0.00018022	1350.7	5.1343e-07	5.0502e-06	1343.4	366.28	3.6111e-06	1.5892e-06	417.77	140.09	121.61	41.791	8.9433e-06	51.38	0.00057593	0.00055363	0.0001448	1365	6.4026e-06	6.0507e-06	1365.4	372.18	6.4736e-06	6.0984e-06	424.57	142.58	125.38	42.925	5.7776e-06	53.032	124.921	-14.176	-83.819	-147.158	-28.168	11.473	-147.618	-142.718	-70.572	-124.602	-143.039	-139.413	-138.761	-133.621	-11.582	-134.577	-8191	255	
6615.290	1	1	0	0	0.28769	0.2447	0.33204	0.16937	0.19469	0.064524	0.31899	0.28638	0.17288	0.22056	0.18554	0.13239	0.11982	0.1008	0.19956	0.20194	-1.5667	-1.9917	-1.5729	-2.5187	-2.0125	-1.7521	-2.4167	-2.0375	-1.9667	-2.1188	-1.9312	-2.2583	-2.2354	-1.6854	-2.2875	-1.8958	184.633	86.378	-151.079	197.116	-32.379	154.483	131.633	162.864	56.835	-33.261	111.652	-160.319	157.783	141.328	-47.442	-96.642	0.0010562	0.00028968	8.0414e-05	1355.3	4.1079e-06	2.6441e-06	1350.4	367.2	9.8071e-07	4.6923e-06	417.62	140.31	121.47	41.571	1.4124e-06	51.535	0.0006093	0.00055422	0.0001464	1375.3	6.6401e-06	6.0184e-06	1370.8	374.27	6.5715e-06	5.9828e-06	424.71	143.36	125.17	42.828	5.6606e-06	53.356	128.575	-23.343	-76.677	-147.077	-18.763	-63.129	-147.422	-142.717	33.663	76.549	-142.821	-139.330	-138.673	-133.565	16.170	-134.738	-8191	255	
6615.386	1	1	0	0	0.20116	0.29167	0.24808	0.11352	0.075931	0.2063	0.17143	0.3058	0.25288	0.033324	0.21966	0.14909	0.12626	0.31206	0.15859	0.1344	-1.4417	-2.1771	-1.5771	-2.2354	-2.1	-1.6208	-2.4354	-1.9625	-1.9396	-2.1646	-1.7417	-2.1771	-2.3187	-1.7667	-2.1458	-1.9604	-57.306	5.261	139.761	162.439	-91.757	-91.534	140.530	158.118	-146.586	-119.289	126.458	134.709	33.269	-111.502	-65.726	177.678	0.00088389	0.00049257	0.00024898	1355.8	1.9233e-06	5.0683e-06	1350.4	366.96	7.3157e-06	5.0097e-06	417.02	139.95	121.77	41.861	3.9109e-06	51.516	0.0005915	0.00053508	0.0001442	1379.8	6.3693e-06	5.813e-06	1368.6	375.24	6.2668e-06	5.7744e-06	423.86	144.02	124.99	42.781	5.7127e-06	53.667	128.825	17.530	186.121	-147.212	-74.375	-31.900	-147.644	-142.598	-60.487	14.342	-143.132	-139.409	-138.480	-133.543	189.710	-134.502	-8191	255	
6615.481	1	1	0	0	0.25783	0.13105	0.14859	0.3113	0.2309	0.030661	0.28172	0.27121	0.13126	0.087665	0.29548	0.36001	0.02367	0.18078	0.25037	0.057586	-1.4146	-2.3479	-1.8646	-2.3667	-2.2021	-1.7104	-2.3458	-2.1021	-1.7292	-2.2438	-1.8729	-1.9646	-2.3812	-1.6833	-2.3104	-2.0563	179.096	-24.298	34.408	190.369	101.601	100.244	158.032	171.199	139.085	-47.295	140.594	-120.683	-74.343	152.025	6.874	132.329	0.0010835	0.0010767	2.3691e-05	1355.5	8.0933e-06	7.8391e-06	1350.3	367.33	4.0637e-06	2.6169e-06	417.11	139.87	121.45	41.763	2.2427e-06	51.658	0.00057187	0.00052725	0.000149	1382.8	6.1909e-06	5.7181e-06	1371.8	375.87	6.1271e-06	5.7235e-06	426.51	144.27	124.47	42.667	6.0086e-06	53.717	136.499	-23.088	-79.930	-147.056	-85.672	-46.948	-147.532	-142.809	-109.659	167.996	-143.023	-139.391	-138.618	-133.751	-96.108	-134.253	-8191	255	
6615.578	1	1	0	0	0.24847	0.19742	0.15239	0.08604	0.14234	0.14396	0.30055	0.49297	0.17377	0.20151	0.08286	0.14327	0.20341	0.084578	0.19478	0.087276	-1.05	-2.3063	-1.7208	-2.15	-2.2438	-1.6938	-2.4729	-2.1562	-1.7896	-2.2271	-1.9688	-1.8958	-2.1542	-1.7229	-2.0167	-2.0833	-79.555	-59.295	161.338	164.732	110.512	-127.222	136.431	150.372	-102.799	29.384	108.810	108.063	183.326	117.565	-118.626	-14.538	0.00099971	0.00075604	0.00014468	1353.9	5.2468e-06	1.8499e-06	1345	366.52	6.1939e-06	1.7318e-06	418.71	139.91	122.16	41.558	1.2892e-05	51.428	0.00054788	0.00051143	0.00015558	1380	5.9033e-06	5.6004e-06	1375.3	375.37	5.8996e-06	5.6327e-06	428.82	144.05	124.18	42.599	6.4527e-06	53.506	121.060	-51.114	-109.768	-147.233	-54.383	-48.985	-147.614	-142.469	-30.448	-87.924	-143.115	-139.067	-138.452	-133.595	-68.447	-134.310	-8191	255	
6615.697	1	1	0	0	0.27562	0.22195	0.18207	0.16987	0.173	0.21817	0.11343	0.21356	0.33057	0.17926	0.3014	0.32585	0.2053	0.25883	0.12016	0.30716	-1.1187	-2.3083	-1.7917	-1.9708	-2.2021	-1.6437	-2.3	-2.2417	-1.6208	-2.1583	-2.1188	-1.9854	-2.3854	-1.7229	-1.9604	-2.1458	-92.978	-119.651	37.951	140.250	81.764	-97.646	53.080	95.218	90.533	-33.519	177.171	185.691	176.969	101.890	-19.198	159.240	0.0010187	0.00014349	0.00010887	1357.6	4.0472e-06	5.0395e-06	1349.4	364.17	9.7894e-07	2.0236e-07	417.18	140.11	121.64	41.646	1.9015e-06	51.382	0.00053921	0.00050993	0.00016648	1378.8	5.8345e-06	5.6855e-06	1379.9	373.82	5.8221e-06	5.7597e-06	430	143.48	123.85	42.756	6.8016e-06	53.298	130.965	-79.348	171.984	-147.010	-43.386	-140.316	-147.517	-142.691	-65.027	46.863	-143.035	-139.116	-138.576	-133.515	-77.836	-134.575	-8191	255	
6615.793	1	1	0	0	0.15487	0.14628	0.11716	0.16774	0.16866	0.12916	0.44482	0.13436	0.21892	0.22055	0.25225	0.20389	0.11534	0.12093	0.08739	0.14347	-1.1958	-2.2313	-1.7854	-2.0396	-2.2812	-1.7417	-2.1021	-2.3771	-1.8271	-2.1188	-2.1396	-1.8729	-2.6021	-1.7792	-2.0146	-2.3812	65.326	49.281	0.969	122.329	-87.887	54.160	122.402	147.639	113.837	75.799	-131.600	83.298	146.895	-47.536	-26.231	-147.405	0.00087936	0.00026618	4.4383e-05	1350.7	4.784e-06	3.1113e-06	1350.2	366.33	1.6707e-06	3.1783e-06	418.67	140.25	121.62	41.562	1.023e-05	51.43	0.00054325	0.0005525	0.00017745	1377.2	5.9284e-06	6.1498e-06	1386.1	375.14	5.8756e-06	6.1684e-06	431.17	143.3	123.87	42.999	6.6643e-06	53.17	135.251	-150.522	192.330	-147.095	-96.904	-85.464	-147.430	-142.662	-21.510	-19.471	-142.733	-139.258	-138.577	-133.827	28.366	-134.405	-8191	255	
6615.890	1	1	0	0	0.1719	0.16233	0.07416	0.21446	0.30608	0.034662	0.2193	0.23285	0.09997	0.21462	0.33054	0.30463	0.29311	0.14477	0.085394	0.24891	-1.3563	-2.2396	-2.0979	-1.8833	-2.3833	-1.7896	-2.0396	-2.5563	-1.6187	-2.2271	-2.075	-2	-2.3021	-2	-1.8021	-2.3833	18.866	-151.443	-56.798	153.548	102.681	-33.921	67.582	173.040	-45.298	-137.769	-116.988	115.155	114.851	-144.734	-60.962	89.150	0.0010813	0.00018625	2.1394e-05	1354.9	6.6214e-06	4.8966e-06	1346.5	366.99	4.1194e-06	1.8141e-06	418.1	140.2	121.54	41.887	1.2019e-05	51.462	0.00052322	0.00057109	0.00016969	1373.6	5.6348e-06	6.3461e-06	1380.2	373.59	5.6671e-06	6.4116e-06	429.89	142.83	123.69	43.203	6.3618e-06	52.932	126.698	129.130	-49.274	-147.031	-56.883	-52.326	-147.491	-142.740	-143.622	-56.077	-142.865	-139.289	-138.628	-133.534	5.681	-134.390	-8191	255	
6615.986	1	1	0	0	0.27235	0.26073	0.24052	0.29673	0.14141	0.37192	0.34631	0.060911	0.25458	0.10391	0.18078	0.2131	0.24749	0.17926	0.28266	0.05219	-1.0833	-1.8771	-1.9333	-1.9271	-2.4437	-1.7333	-2.0521	-2.4562	-1.7854	-2.1854	-2.1917	-1.9688	-2.1854	-2.0708	-1.7375	-2.3688	102.501	-86.606	-7.672	185.062	159.387	-72.367	100.643	83.707	-144.492	-129.606	120.498	83.727	-142.308	170.926	-55.903	122.962	0.0010078	0.00018713	0.00014921	1354.5	4.3133e-06	2.2486e-06	1349.1	365.93	4.4723e-06	1.6935e-06	418.44	139.99	121.2	41.802	3.8728e-06	51.452	0.00051484	0.00058487	0.0001594	1370.5	5.5054e-06	6.3278e-06	1373	371.43	5.4678e-06	6.2964e-06	425.95	141.73	123.37	43.09	5.7853e-06	52.531	120.154	-52.161	-62.201	-146.918	163.924	106.836	-147.469	-142.631	-113.090	-29.568	-142.980	-139.358	-138.676	-133.559	-6.653	-134.237	-8191	255	
6616.082	1	1	0	0	0.34588	0.10012	0.20422	0.28042	0.12186	0.21459	0.17387	0.10491	0.18412	0.078218	0.30667	0.24302	0.26743	0.22002	0.15259	0.14694	-1.2604	-1.9917	-2.1437	-1.8479	-2.3375	-1.8875	-2.0354	-2.625	-1.9104	-2.0396	-2.45	-1.7354	-2.225	-2.1562	-1.6292	-2.4104	194.432	47.527	88.459	197.739	38.808	154.355	62.269	-156.848	18.931	96.736	167.911	82.624	186.113	-157.834	27.309	-60.662	0.0011024	0.00033301	0.00018952	1348.4	2.4276e-06	8.3612e-06	1349.8	364.52	5.9385e-06	5.3244e-06	415.5	139.61	121.79	41.68	1.2008e-05	51.515	0.00051189	0.00056814	0.00014694	1364.6	5.6567e-06	6.3427e-06	1367.7	371.05	5.8769e-06	6.3524e-06	424.53	141.73	124.24	43.037	5.8555e-06	52.634	123.389	-123.876	-60.551	-147.057	164.546	-105.406	-147.445	-142.726	-160.143	41.778	-143.123	-139.283	-138.655	-133.605	-13.034	-134.552	-8191	255	
6616.178	1	1	0	0	0.16277	0.17229	0.095912	0.20201	0.13474	0.13743	0.099822	0.40147	0.18632	0.15594	0.21864	0.31878	0.16231	0.12005	0.17017	0.087222	-1.5521	-1.8354	-2.2021	-1.8771	-2.2812	-1.9438	-1.8875	-2.3375	-1.8646	-1.7313	-2.2958	-1.7542	-2.3042	-2.2729	-1.7042	-2.6625	113.450	-75.388	82.749	193.749	-5.656	-41.799	193.570	68.877	58.365	44.285	168.087	-108.737	-29.523	-117.846	164.290	-127.881	0.001026	0.00073943	8.305e-05	1354.6	1.5997e-06	8.5336e-06	1349.3	366.41	4.0802e-06	6.5746e-06	417.13	139.95	121.98	41.763	9.1019e-06	51.211	0.00056601	0.00058036	0.00014879	1367.7	6.1885e-06	6.2548e-06	1368.4	371.42	6.2683e-06	6.1399e-06	424.45	141.77	124.81	42.93	5.6021e-06	52.618	127.465	-93.326	-60.746	-147.009	-151.146	-42.419	-147.468	-142.689	31.976	35.030	-142.959	-139.297	-138.703	-133.602	25.960	-134.731	-8191	255	
6616.299	1	1	0	0	0.23534	0.21269	0.17965	0.34022	0.18353	0.068287	0.23796	0.070992	0.26539	0.1446	0.085652	0.1578	0.1954	0.35962	0.15953	0.186	-1.4479	-1.725	-2.3604	-1.8083	-1.9521	-2.3208	-1.8875	-2.4	-1.9583	-2.0021	-2.4583	-1.6146	-2.1417	-2.5333	-1.3604	-2.2854	158.547	-71.372	-46.112	185.888	-109.031	-62.682	-150.819	-107.093	144.962	-127.104	-112.477	-131.753	164.784	-157.246	158.587	-149.912	0.001074	0.00069477	4.904e-05	1350.3	1.8185e-06	1.0345e-05	1348.1	365.72	7.4481e-06	6.305e-06	416.64	140.16	121.7	41.887	7.4776e-06	51.663	0.00057566	0.00054078	0.00014099	1367.7	6.2298e-06	5.8472e-06	1364.5	371.42	6.2719e-06	5.754e-06	422.88	142.53	124.83	42.876	5.4393e-06	53.056	123.437	-52.525	17.109	-147.207	157.322	-36.767	-147.646	-142.624	-103.723	29.381	-143.039	-139.334	-138.472	-133.598	0.584	-134.724	-8191	255	
6616.393	1	1	0	0	0.27453	0.20576	0.24889	0.20313	0.13073	0.037168	0.19665	0.2141	0.091391	0.29047	0.1419	0.17257	0.29497	0.27387	0.25895	0.18059	-1.5417	-1.6437	-2.1625	-1.9271	-2.0042	-2.0479	-1.6417	-2.4042	-1.9021	-1.6667	-2.2438	-1.7583	-2.2271	-2.2271	-1.6354	-2.2375	67.387	144.778	98.015	106.411	-134.343	141.133	-21.328	114.994	133.232	115.042	181.242	192.665	106.490	192.669	-132.259	155.962	0.00098305	0.00050271	0.00022073	1356.4	4.6877e-06	9.7036e-06	1346.2	366.1	3.6606e-06	7.51e-06	419.21	140.22	122.23	41.909	4.5045e-06	51.742	0.00057976	0.00052604	0.00013917	1375.4	6.3014e-06	5.7488e-06	1367.3	373.17	6.3892e-06	5.8101e-06	424.05	143.61	125.12	42.824	5.6257e-06	53.397	128.145	-43.258	-41.767	-147.189	-109.966	-5.492	-147.390	-142.650	38.811	26.623	-142.942	-139.382	-138.803	-133.593	-80.490	-134.337	-8191	255	
6616.489	1	1	0	0	0.10324	0.089144	0.1385	0.23233	0.20078	0.07934	0.18054	0.10132	0.15379	0.092197	0.11829	0.25529	0.26952	0.18583	0.11796	0.075079	-1.8021	-1.6229	-2.1583	-1.7604	-1.8333	-2.3458	-1.9021	-2.1813	-1.9833	-1.575	-2.3604	-2.1333	-1.9188	-2.4979	-1.5771	-2.1521	162.621	4.095	-40.163	-158.842	-95.839	-110.270	167.325	71.849	-48.214	122.295	-138.952	113.014	160.220	154.270	88.734	47.166	0.00092363	0.00082607	4.2079e-05	1356.9	7.1935e-06	6.1157e-06	1350.8	366.21	4.7688e-06	7.2977e-06	417.85	139.67	121.42	41.757	3.8783e-06	51.69	0.00058402	0.00053117	0.00014285	1378.5	6.2467e-06	5.7189e-06	1369.2	374.34	6.1871e-06	5.7258e-06	423.56	144.07	124.55	42.786	5.7432e-06	53.655	123.653	-18.340	-74.427	-147.163	-12.437	153.271	-147.272	-142.579	-137.188	32.479	-142.885	-139.667	-138.637	-133.679	-33.450	-134.387	-8191	255	
6616.563	1	1	0	0	0.23623	0.14322	0.2949	0.37486	0.18904	0.12385	0.26591	0.056276	0.34921	0.33379	0.17128	0.12177	0.25307	0.12932	0.15971	0.16899	-1.7333	-1.6042	-2.15	-2.2146	-1.7708	-2.3771	-1.7917	-2.1458	-2.2542	-1.7062	-2.3812	-2.1146	-1.8125	-2.2646	-1.6063	-2.0312	-18.785	-26.418	198.796	193.380	2.570	-32.070	185.231	2.805	126.781	52.835	193.979	-0.536	150.834	-0.051	146.351	155.003	0.00077917	0.00069302	0.0002056	1352.5	3.082e-06	1.1731e-05	1350.4	365.39	3.1426e-06	1.9856e-06	419.11	139.27	121.71	41.637	8.2343e-06	51.192	0.00055795	0.00051524	0.00014599	1381.2	5.9994e-06	5.6031e-06	1372.6	374.86	5.9395e-06	5.6116e-06	426.84	143.81	124.16	42.617	6.0993e-06	53.515	154.908	-76.510	-154.909	-147.209	64.895	-65.579	-147.434	-142.556	27.796	77.755	-142.951	-139.321	-138.647	-133.399	-154.551	-134.355	-8191	255	
6616.682	1	1	0	0	0.043977	0.23929	0.076599	0.17172	0.18533	0.12368	0.27487	0.084313	0.21297	0.14043	0.15259	0.20186	0.20146	0.29582	0.32829	0.12767	-1.8479	-1.7667	-2.1354	-1.9229	-1.5604	-2.3292	-2.0521	-2.2104	-2.3292	-1.6917	-2.1333	-2.2104	-1.7979	-2.3708	-1.6958	-1.6958	178.200	137.082	-82.525	-119.844	18.844	100.517	95.500	123.733	104.052	184.275	71.607	112.130	158.038	187.889	-64.671	125.571	0.0011579	0.00099228	0.0001372	1350	3.4852e-06	2.5619e-06	1344.4	365.77	5.6417e-07	6.1592e-06	419.94	140.08	121.88	41.868	2.3529e-06	51.554	0.00054136	0.00050962	0.00015655	1379.3	5.8694e-06	5.5321e-06	1375.9	374.94	5.8359e-06	5.572e-06	429.08	143.8	124.1	42.683	6.3887e-06	53.369	141.387	-71.315	-99.296	-146.980	196.155	81.989	-147.497	-142.540	-92.103	14.763	-143.095	-139.321	-138.718	-133.644	-68.603	-134.583	-8191	255	
6616.778	1	1	0	0	0.40853	0.091483	0.071547	0.28138	0.10685	0.1188	0.15856	0.11629	0.20869	0.27813	0.29444	0.15585	0.1956	0.21916	0.21023	0.17485	-1.7229	-1.6625	-2.0375	-2.2958	-1.6667	-1.9167	-1.8396	-1.9146	-2.1146	-1.7062	-2.0583	-1.9042	-1.7896	-2.2188	-1.8354	-1.8	-66.823	124.624	76.913	-98.600	82.242	-116.566	123.031	146.184	156.900	60.347	170.360	161.951	153.485	55.902	-44.512	-16.686	0.00093612	0.00060483	0.00016668	1353.1	4.1937e-06	1.3494e-06	1347.1	366.88	8.9339e-06	2.3287e-06	417.17	139.92	121.71	41.833	7.6842e-06	51.455	0.00052451	0.00050778	0.00016233	1375.7	5.6343e-06	5.5209e-06	1377.8	373.78	5.6141e-06	5.6462e-06	429.03	143.24	123.73	42.741	6.5299e-06	53.103	127.122	-121.053	-88.197	-147.061	-74.226	98.206	-147.340	-142.481	-55.129	83.901	-142.777	-139.231	-138.893	-133.651	-107.708	-134.234	-8191	255	
6616.874	1	1	0	0	0.17411	0.13864	0.077661	0.44074	0.068064	0.22286	0.068213	0.27623	0.13851	0.13363	0.13434	0.20698	0.28302	0.14577	0.010539	0.24427	-2.0521	-1.5604	-2.1458	-2.3542	-1.5042	-2.2542	-2.1562	-1.9062	-2.3021	-1.8188	-2.2208	-2.2687	-1.6542	-2.2188	-2.0167	-1.7437	103.237	67.430	173.178	129.696	61.171	105.579	123.172	-139.746	-103.491	140.521	-153.768	165.940	-20.756	149.512	177.283	169.570	0.0010443	0.00023043	0.00022735	1354.1	1.3026e-06	2.7694e-06	1346.6	366.2	2.0541e-06	1.0672e-06	417.43	140.66	121.77	41.637	9.7111e-06	51.401	0.00050958	0.0005228	0.00016512	1374.4	5.5274e-06	5.7841e-06	1379.3	372.75	5.4742e-06	5.9459e-06	428.96	142.81	123.42	42.878	6.4036e-06	52.932	140.089	193.357	-48.726	-147.197	-120.327	-86.915	-147.664	-142.589	-37.477	121.448	-142.990	-139.376	-138.681	-133.548	6.470	-134.177	-8191	255	
6616.970	1	1	0	0	0.15927	0.21125	0.086271	0.34345	0.13554	0.25853	0.42568	0.41811	0.30028	0.12437	0.23066	0.1609	0.15287	0.24848	0.088292	0.02641	-2	-1.7604	-1.9062	-2.3563	-1.6146	-2.1646	-2.3063	-1.8062	-2.3521	-1.9062	-1.8896	-2.425	-1.6646	-2.2354	-1.9458	-1.8979	86.175	70.783	164.310	94.369	-93.808	16.848	176.574	111.932	-6.119	105.102	-121.049	163.814	-106.970	58.399	128.673	-137.862	0.00095242	0.00043307	0.00021051	1355.4	7.705e-06	4.4764e-06	1347.5	366.8	2.2754e-06	3.2318e-06	419.06	139.8	121.28	41.77	6.3221e-06	51.383	0.00049761	0.00055334	0.00016107	1369.7	5.437e-06	6.0752e-06	1376.6	372.49	5.4411e-06	6.2613e-06	427.75	142.44	123.49	43.145	6.274e-06	52.867	124.026	-40.456	-85.613	-147.266	-77.187	-158.753	-147.435	-142.576	-136.437	-124.772	-143.117	-139.322	-138.512	-133.483	49.620	-134.146	-8191	255	
6617.091	1	1	0	0	0.15495	0.27444	0.022517	0.2913	0.11078	0.13791	0.21892	0.15973	0.091302	0.14616	0.43781	0.2425	0.2259	0.19093	0.096473	0.16744	-1.8354	-1.8958	-1.85	-2.5021	-1.6667	-1.9146	-2.3208	-1.7229	-2.2271	-1.9	-1.9625	-2.2542	-1.9104	-2.0812	-2.3271	-1.6729	123.298	-89.909	122.117	162.831	21.141	195.659	131.982	38.005	-32.000	192.778	156.165	-137.043	172.436	-150.538	-113.160	-100.476	0.0012943	0.00029415	0.00025422	1353.3	5.4096e-06	1.5208e-06	1348.1	367.4	6.106e-06	2.7836e-06	416.81	140.14	121.31	41.69	7.091e-06	51.699	0.00051353	0.00059165	0.00015772	1370.4	5.6556e-06	6.4544e-06	1372.5	372.32	5.6816e-06	6.5112e-06	426.83	142.22	123.9	43.163	5.9583e-06	52.774	115.130	-139.479	-34.435	-146.998	-112.752	-101.195	-147.560	-142.607	197.461	-121.146	-143.039	-139.127	-138.761	-133.562	27.922	-134.288	-8191	255	
6617.162	1	1	0	0	0.059863	0.051084	0.078977	0.12832	0.11145	0.2525	0.29487	0.097777	0.075927	0.36285	0.11523	0.20647	0.070613	0.1953	0.088804	0.21344	-1.6479	-2.1625	-1.6604	-2.3833	-1.8667	-2.0604	-2.3625	-1.9229	-2.1604	-1.9042	-1.7833	-2.5125	-1.8083	-2.1417	-2.1562	-1.8438	90.538	181.530	146.892	128.526	130.508	-105.664	141.744	-115.170	10.235	88.041	153.927	-50.446	126.758	-142.918	-32.023	89.780	0.0010194	0.00043655	9.7466e-05	1358	3.5176e-06	2.8343e-06	1348.9	367.27	8.2129e-06	5.0157e-06	418.65	140.13	121.99	41.91	3.8781e-06	51.634	0.00053309	0.00059234	0.00015089	1368.5	5.8845e-06	6.417e-06	1373.9	371.85	5.9918e-06	6.4106e-06	425.67	142.17	124.69	43.172	5.7771e-06	52.728	116.751	-66.648	-84.435	-147.066	186.308	-140.310	-147.461	-142.582	157.407	1.735	-143.245	-139.102	-138.724	-133.561	-122.851	-134.408	-8191	255	
6617.258	1	1	0	0	0.11716	0.11802	0.23142	0.28927	0.17418	0.12135	0.11764	0.11122	0.048715	0.25851	0.079016	0.17473	0.22509	0.13817	0.28962	0.26686	-1.8062	-2.0646	-1.6625	-2.3646	-1.8188	-1.8792	-2.3312	-1.7146	-1.95	-2.1854	-1.6667	-2.4792	-1.9417	-1.8521	-2.2375	-1.6708	133.725	182.286	-50.541	88.356	5.104	116.625	59.864	131.577	-153.312	45.495	69.968	-120.724	135.017	-150.746	167.244	178.428	0.0010751	0.00047883	0.00017995	1350.4	4.2892e-06	2.444e-06	1347.4	366.3	7.213e-06	3.8661e-06	417.16	139.96	121.13	41.682	1.043e-05	51.735	0.00056153	0.00057009	0.00014636	1367.5	6.1825e-06	6.1617e-06	1368.9	371.45	6.1829e-06	6.0646e-06	424.15	141.92	124.87	42.957	5.6046e-06	52.822	130.324	-19.992	-65.057	-147.223	-133.929	-89.432	-147.439	-142.692	184.024	57.194	-142.970	-139.176	-138.209	-133.660	-7.178	-134.516	-8191	255	
6617.379	1	1	0	0	0.24775	0.1785	0.08558	0.36905	0.045719	0.12856	0.33594	0.15108	0.12753	0.38801	0.31894	0.38669	0.13234	0.18633	0.31351	0.16915	-1.6333	-1.8792	-1.5354	-2.2938	-1.8833	-1.6833	-2.5333	-1.7417	-1.825	-2.2833	-1.6083	-2.1229	-1.8167	-1.7208	-2.175	-1.8062	-23.565	-149.773	184.331	148.303	40.304	-96.136	192.831	98.549	-28.743	66.754	108.869	85.335	107.873	142.586	-10.165	78.769	0.001057	0.00037749	0.00017322	1351	3.2935e-06	4.3832e-06	1352.3	367.06	5.5779e-06	3.5299e-06	419.43	140.19	121.91	41.93	3.3288e-06	51.591	0.00058036	0.00054277	0.00014215	1369.1	6.3428e-06	5.8848e-06	1368.6	372.45	6.3353e-06	5.809e-06	424.55	142.88	125.31	42.85	5.4707e-06	53.015	129.786	-30.238	-57.090	-147.031	88.798	-41.870	-147.508	-142.784	-17.397	-48.973	-143.099	-139.355	-138.556	-133.699	98.616	-134.526	-8191	255	
6617.473	1	1	0	0	0.07162	0.17737	0.052787	0.35096	0.12102	0.29288	0.22084	0.15683	0.11573	0.13851	0.099922	0.20057	0.18947	0.1542	0.055021	0.22905	-1.6688	-2.0938	-1.6479	-2.3646	-1.875	-1.6167	-2.4042	-1.9229	-2.1167	-2.15	-1.7542	-2.2083	-2.1229	-1.7917	-2.3208	-2.1708	146.720	-57.916	174.722	-123.521	-76.172	35.376	29.365	-147.754	-98.261	-144.092	48.522	166.026	-148.283	-34.268	104.408	143.479	0.00080877	0.00095828	0.00028888	1352.6	1.0296e-05	2.5918e-06	1347.4	367.16	1.0514e-05	2.7894e-06	416.67	140.38	121.9	41.828	5.5882e-06	51.608	0.00057761	0.00051849	0.00013895	1374.6	6.2693e-06	5.7173e-06	1366.7	374.37	6.2265e-06	5.7213e-06	423.03	143.43	124.97	42.804	5.4747e-06	53.387	133.826	-65.182	-51.594	-147.216	-30.886	33.733	-147.477	-142.573	-72.741	32.818	-143.009	-139.333	-138.571	-133.535	26.982	-134.292	-8191	255	
6617.571	1	1	0	0	0.18419	0.099489	0.1826	0.095048	0.16551	0.35571	0.37489	0.28906	0.35309	0.12095	0.048979	0.24101	0.41784	0.27177	0.28935	0.35205	-1.3896	-2.0729	-1.825	-2.2875	-2.0458	-1.75	-2.6437	-2.0417	-1.7188	-2.2854	-1.8333	-2.2104	-2.225	-1.8792	-2.3229	-1.9854	-13.414	97.814	-120.045	-59.688	85.537	41.283	-156.975	91.193	-28.291	153.805	-4.760	180.203	133.111	192.896	67.519	88.475	0.00094455	0.00018047	0.00012638	1353.7	9.3756e-06	8.5191e-06	1348.4	367.24	6.5229e-06	4.3879e-06	417.83	140.58	121.82	41.766	6.7379e-06	51.353	0.00057011	0.00051825	0.00014158	1379.4	6.1301e-06	5.6852e-06	1367.3	375.17	6.0527e-06	5.5833e-06	424.43	144.06	124.25	42.665	5.671e-06	53.533	129.799	87.601	-147.943	-147.146	-22.903	-10.007	-147.440	-142.449	-90.435	-60.872	-142.891	-139.383	-138.719	-133.264	-139.460	-134.083	-8191	255	
6617.690	1	1	0	0	0.34813	0.089131	0.30629	0.18201	0.15057	0.15825	0.097147	0.20304	0.18866	0.24939	0.21589	0.12037	0.047254	0.15681	0.10215	0.093026	-1.3438	-2.125	-1.5729	-2.2396	-2.1	-1.5896	-2.5104	-2.025	-1.6271	-2.1708	-1.9125	-2.0938	-2.2958	-1.6812	-2.3167	-2.15	-67.595	-12.809	119.287	-24.391	151.687	17.042	54.360	-125.260	-111.069	-58.121	-85.980	152.491	-57.086	-153.959	138.880	107.125	0.0011261	0.0007848	0.00023494	1354.9	6.5988e-06	6.4348e-06	1345.3	366.42	5.4202e-06	3.9392e-06	418.54	140.52	121.26	41.803	7.8494e-06	51.701	0.00055167	0.00051529	0.00014919	1380.7	6.0275e-06	5.6641e-06	1371.5	375.93	5.9901e-06	5.5873e-06	426.13	144.32	124.04	42.594	5.9973e-06	53.49	134.681	-11.385	174.872	-147.019	-48.736	-44.378	-147.381	-142.728	-45.511	73.352	-142.982	-139.194	-138.600	-133.688	-24.298	-134.282	-8191	255	
6617.786	1	1	0	0	0.09163	0.02961	0.25636	0.21863	0.3177	0.35958	0.23392	0.27589	0.17236	0.043431	0.14057	0.21094	0.41851	0.1362	0.1645	0.21046	-1.3542	-2.125	-1.7521	-2.0458	-2.2458	-1.5208	-2.3521	-2.0208	-1.8667	-2.2521	-1.9792	-1.8396	-2.3375	-1.8062	-1.9604	-2.0417	25.479	12.508	-84.643	186.392	149.675	88.847	173.680	-143.130	106.476	161.770	81.002	73.173	-142.150	115.833	170.785	184.726	0.00079448	0.00042933	4.0673e-05	1351.5	1.4491e-06	1.9093e-06	1346.7	366.68	5.899e-06	5.3887e-06	418.47	140.32	121.88	41.8	4.7734e-06	51.372	0.00053207	0.00049428	0.00015527	1377.1	5.6659e-06	5.4316e-06	1372.6	374.48	5.6651e-06	5.4333e-06	427.93	143.73	123.59	42.57	6.3354e-06	53.099	124.389	-47.490	16.054	-147.311	-68.483	-87.544	-147.321	-142.452	-134.284	66.944	-143.129	-139.031	-138.481	-133.586	-69.623	-134.523	-8191	255	
6617.858	1	1	0	0	0.36763	0.017384	0.11678	0.1405	0.15358	0.081076	0.13189	0.094401	0.16526	0.14496	0.29621	0.35881	0.176	0.088678	0.19377	0.12996	-1.0021	-2.4333	-1.9521	-2.1042	-2.2021	-1.8104	-2.2833	-2.1729	-1.4208	-2.2042	-1.8583	-1.8167	-2.2	-1.9021	-1.9479	-2.1063	-82.264	146.063	129.807	80.853	-122.110	-89.006	191.218	64.628	-139.979	-127.431	159.552	175.096	-152.080	-128.158	131.307	28.793	0.00088792	0.00044383	0.00010358	1350.2	1.9399e-06	2.8613e-06	1351.1	367.12	3.6297e-06	3.9512e-06	418.39	139.34	121.99	41.8	4.1124e-06	51.3	0.00051863	0.00049957	0.00016216	1372.2	5.5594e-06	5.5212e-06	1376.5	373.57	5.5648e-06	5.5297e-06	429.45	142.73	123.31	42.688	6.3814e-06	52.838	144.033	-88.382	-3.450	-146.974	-68.828	-121.274	-147.496	-142.449	-31.496	-124.690	-142.805	-139.339	-138.695	-133.455	-52.377	-134.688	-8191	255	
6617.979	1	1	0	0	0.12013	0.14107	0.021045	0.26388	0.054887	0.31359	0.28631	0.097827	0.22991	0.16257	0.048048	0.11681	0.13708	0.12149	0.032842	0.10039	-1.1917	-2.075	-1.925	-1.875	-2.2479	-1.675	-1.9979	-2.1875	-1.5146	-2.0938	-2.3292	-1.7729	-2.4208	-1.9208	-1.9167	-2.1833	-90.543	-90.250	164.130	180.785	-15.908	95.505	178.931	83.312	15.848	-120.153	69.659	186.077	184.480	87.173	-89.321	157.142	0.0010551	0.00050178	0.00016009	1350.7	4.8416e-06	1.1431e-06	1344.2	366.11	5.0065e-06	3.7767e-06	417.15	139.8	121.75	41.55	9.4137e-06	51.399	0.00050261	0.00051768	0.00016116	1367.5	5.3899e-06	5.7687e-06	1372.9	372.19	5.4487e-06	5.9051e-06	427.88	142.38	123.12	42.84	6.5781e-06	52.999	125.771	-144.763	5.339	-147.174	-6.810	-51.705	-147.545	-142.504	-107.561	-98.437	-143.171	-139.281	-138.588	-133.476	55.844	-134.636	-8191	255	
6618.075	1	1	0	0	0.10453	0.30616	0.15104	0.1769	0.17649	0.39395	0.19509	0.019577	0.089499	0.19001	0.46985	0.083193	0.18853	0.27767	0.085174	0.32165	-1.0688	-2.0979	-1.9396	-1.9208	-2.3229	-1.8146	-2.0625	-2.3375	-1.8792	-2.1875	-2.1021	-1.7375	-2.375	-1.8333	-1.7812	-2.2458	-155.777	-61.892	21.218	147.119	-49.473	167.507	172.466	-145.663	52.515	-21.448	-155.875	61.097	-111.813	-124.627	30.509	169.110	0.0011822	0.00071585	0.00026798	1350.8	2.8584e-06	6.1527e-06	1350.7	366.83	7.9355e-06	1.464e-06	418.97	140.14	121.49	41.925	5.3064e-06	51.732	0.00053072	0.00059289	0.0001723	1372.2	5.9015e-06	6.8171e-06	1383.5	374.54	6.1028e-06	6.9214e-06	432.44	143.76	124.09	43.439	6.6207e-06	53.233	140.792	135.097	-50.335	-147.126	51.909	-130.885	-147.495	-142.677	-85.247	96.303	-142.944	-139.103	-138.620	-133.700	39.972	-134.607	-8191	255	
6618.171	1	1	0	0	0.063328	0.18209	0.21355	0.28484	0.25063	0.09323	0.062814	0.32032	0.03633	0.27805	0.39471	0.076153	0.14414	0.25157	0.36739	0.13724	-1.2188	-1.925	-1.9	-1.9312	-2.1375	-1.7	-2.075	-2.4542	-1.6208	-1.925	-2.2271	-1.6479	-2.1	-2.0146	-1.7542	-2.1312	54.125	-89.518	47.052	168.583	-78.245	86.326	120.970	88.259	125.814	-8.135	163.484	78.025	-115.618	-109.222	25.404	147.920	0.0011359	0.00018539	0.00042295	1358.7	7.5797e-06	8.3919e-06	1350.8	366.9	4.6683e-06	3.0884e-06	418.32	140.22	121.73	41.774	7.2344e-06	51.638	0.00054807	0.00061731	0.00016371	1378.6	5.889e-06	6.7969e-06	1380.9	373.65	6.0239e-06	6.7967e-06	428.98	142.95	124.78	43.518	6.384e-06	53.055	121.907	125.341	-27.213	-147.167	-98.136	-50.324	-147.557	-142.674	-155.956	-13.543	-142.952	-139.144	-138.648	-133.566	75.579	-134.267	-8191	255	
6618.267	1	1	0	0	0.059194	0.11334	0.20152	0.38364	0.081416	0.24138	0.14937	0.092288	0.12376	0.22999	0.24458	0.09997	0.16064	0.14877	0.037126	0.15286	-1.1896	-1.9104	-2.0375	-1.9208	-2.0958	-1.9	-1.7875	-2.4271	-1.5625	-1.6021	-2.3479	-1.7563	-2.0604	-1.9	-1.6375	-2.2313	48.609	0.123	8.707	-159.167	188.555	2.047	-126.273	167.398	-151.014	70.735	92.283	34.883	39.674	80.236	97.131	23.761	0.0010685	0.00018267	0.00020546	1355.3	4.7157e-06	1.099e-05	1348.8	367.73	1.2075e-05	3.4672e-06	421.42	140.7	122	41.858	6.7384e-06	51.505	0.00058795	0.00064446	0.00016502	1378.9	6.5766e-06	7.1368e-06	1383.5	374.86	6.7475e-06	7.0494e-06	430.63	143.41	125.88	43.552	6.3421e-06	53.07	107.524	188.781	-90.172	-147.274	-111.818	-10.807	-147.567	-142.596	132.090	31.037	-142.923	-139.177	-138.563	-133.714	-21.661	-134.414	-8191	255	
6618.363	1	1	0	0	0.061736	0.19096	0.21648	0.26446	0.12029	0.11641	0.25655	0.036723	0.299	0.13287	0.17544	0.11454	0.087783	0.19365	0.11967	0.045067	-1.2792	-1.7021	-2.0646	-1.7583	-2.1979	-1.8271	-1.9583	-2.425	-1.7667	-1.925	-2.225	-1.8729	-1.9813	-2.1292	-1.5604	-2.175	-49.861	-117.311	-91.515	171.186	-30.653	89.924	169.680	-134.109	195.315	86.783	144.955	34.904	145.778	194.945	-19.438	155.863	0.00112	0.00082396	0.0002712	1355.5	6.748e-06	4.7409e-06	1349.8	368.13	1.3421e-05	1.2753e-06	420.66	139.99	122.33	41.638	1.2348e-05	51.313	0.00062241	0.00061952	0.00015976	1379.2	6.8444e-06	6.7383e-06	1379.6	374.77	6.9476e-06	6.699e-06	429.07	143.41	126.45	43.231	6.1917e-06	53.168	123.820	-1.789	-98.698	-147.221	-97.553	-30.589	-147.530	-142.679	-129.725	121.214	-142.799	-139.244	-138.796	-133.649	7.269	-134.423	-8191	255	
6618.458	1	1	0	0	0.1812	0.17858	0.14453	0.14429	0.24791	0.28418	0.28474	0.20977	0.22486	0.12197	0.11866	0.35629	0.12556	0.28277	0.10133	0.24323	-1.3208	-1.5104	-2.0896	-1.8188	-2.025	-2.0167	-1.9458	-2.1854	-1.8937	-1.5562	-2.3271	-1.6917	-1.8042	-2.1854	-1.6896	-2.3312	62.600	131.444	99.509	189.336	-32.897	-82.379	-135.165	127.323	-106.438	120.871	153.361	78.330	172.662	192.713	128.495	95.826	0.0010584	0.0010496	0.00012766	1357	4.5016e-06	2.7374e-06	1346.1	367.31	9.706e-06	5.7359e-06	418.89	139.69	121.49	41.735	7.0161e-06	51.157	0.00064253	0.00059644	0.0001562	1380.4	7.0308e-06	6.5074e-06	1375	375.73	7.1414e-06	6.5571e-06	428.33	144.1	126.44	43.207	6.2931e-06	53.618	124.564	-3.697	-134.960	-147.160	-96.710	61.127	-147.395	-142.702	-105.829	26.021	-142.929	-139.526	-138.800	-133.355	-69.667	-134.631	-8191	255	
6618.554	1	1	0	0	0.16003	0.26163	0.21127	0.24058	0.25389	0.17746	0.17453	0.22849	0.097908	0.11973	0.21545	0.18322	0.22688	0.27182	0.051469	0.209	-1.4438	-1.4771	-2.0271	-1.7292	-1.9104	-2.1667	-1.8833	-2.4417	-1.9896	-1.6771	-2.4521	-2.0229	-1.875	-2.125	-1.5583	-2.0563	-89.714	47.872	143.094	149.023	-127.752	24.937	198.543	-159.730	144.293	68.723	184.058	173.307	-81.776	137.316	-125.267	85.257	0.00070697	0.00059135	0.00018618	1365.5	6.7655e-06	2.8863e-06	1357.7	369.28	6.0256e-06	2.3655e-06	418.53	140.54	121.68	42.027	1.4236e-05	51.683	0.00067629	0.00061247	0.00016226	1393.5	7.3222e-06	6.6786e-06	1384.7	379.66	7.1973e-06	6.5449e-06	429.49	145.79	126.54	43.177	6.1746e-06	53.997	135.651	-113.881	-32.419	-147.143	-97.118	-28.189	-147.347	-142.606	-123.308	129.722	-143.270	-139.090	-138.662	-133.340	-6.439	-134.588	-8191	255	
6618.652	1	1	0	0	0.096037	0.13107	0.20436	0.49186	0.14353	0.10624	0.12564	0.24174	0.18048	0.15921	0.30531	0.32262	0.25377	0.21678	0.1603	0.26572	-1.4458	-1.5521	-2.1542	-1.9875	-1.8104	-2.2687	-1.7563	-2.05	-1.9813	-1.6125	-2.2542	-1.9625	-1.7729	-2.3063	-1.6792	-1.9271	12.489	-73.680	198.111	162.107	14.115	-84.740	143.729	186.328	-4.952	-28.897	189.647	161.044	164.550	-94.657	-55.171	154.876	0.00090877	0.00093315	0.00022194	1364.2	2.3471e-06	4.9855e-07	1356.5	369.5	1.1364e-05	3.8634e-06	420.38	140.12	122.23	41.85	5.4632e-06	51.604	0.00062855	0.00057148	0.00015519	1394.7	6.6417e-06	6.0895e-06	1381	378.89	6.4634e-06	5.99e-06	427.91	144.9	125.14	42.822	5.9835e-06	53.783	133.143	-69.286	-131.994	-147.003	-24.959	122.903	-147.587	-142.591	-72.455	10.694	-142.888	-139.407	-138.539	-133.666	-134.540	-134.332	-8191	255	
6618.771	1	1	0	0	0.20694	0.097832	0.15722	0.089039	0.12614	0.12314	0.16007	0.08555	0.086809	0.33595	0.23345	0.21902	0.054647	0.082575	0.31495	0.25801	-1.625	-1.5667	-2.0958	-1.8583	-1.6437	-2.1188	-2.0438	-1.9729	-2.1792	-1.6021	-2.3958	-1.8958	-1.8667	-2.4542	-1.7729	-1.9417	-138.936	110.514	-40.238	136.713	56.853	-7.868	57.549	-99.295	-107.269	51.764	175.364	151.679	-8.301	197.050	58.229	-4.900	0.00095456	0.00040595	0.00010284	1362.9	5.8748e-06	1.8965e-06	1353.1	368.17	6.5355e-06	2.2254e-06	420.01	140.66	122.04	41.784	6.6119e-06	51.411	0.00056723	0.00052633	0.00015343	1388.4	6.0982e-06	5.7298e-06	1379	377.27	6.0788e-06	5.7609e-06	429.17	144.66	124.59	42.734	6.3746e-06	53.705	144.689	-33.466	-4.775	-147.078	-80.337	-113.648	-147.461	-142.584	-76.125	45.346	-143.337	-139.164	-138.591	-133.474	-66.697	-134.257	-8191	255	
6618.867	1	1	0	0	0.1577	0.039245	0.20503	0.062739	0.13001	0.14079	0.26705	0.33018	0.08004	0.025979	0.088458	0.3191	0.14838	0.33262	0.12037	0.17081	-1.7417	-1.5312	-2.2042	-2.3021	-1.6562	-2.2375	-2.0458	-1.7771	-2.0625	-1.5229	-1.9083	-2.1	-1.8937	-2.3042	-1.8917	-1.6792	194.699	-5.260	129.927	-13.698	-9.681	-83.891	134.871	-155.203	151.927	147.113	103.817	128.182	197.863	139.680	144.255	-87.651	0.0010504	0.00076954	6.0664e-05	1354.2	4.901e-06	2.5574e-06	1342.8	367.02	2.4483e-06	8.5725e-07	418.02	139.9	121.32	41.591	4.9048e-06	51.372	0.00055139	0.00051942	0.00016393	1382.3	5.9833e-06	5.7189e-06	1378.4	376.45	6.0232e-06	5.7894e-06	430.97	144.05	124.26	42.627	6.802e-06	53.369	124.380	-2.037	144.062	-146.969	-67.504	-106.365	-147.559	-142.618	-104.563	85.909	-143.097	-139.149	-138.618	-133.342	-112.559	-134.197	-8191	255	
6618.963	1	1	0	0	0.090031	0.24798	0.1285	0.41412	0.20563	0.16089	0.39209	0.23358	0.12422	0.16746	0.2556	0.23871	0.23945	0.044736	0.10581	0.11334	-1.7042	-1.6271	-1.9042	-2.2458	-1.7875	-2.2021	-2.0104	-1.8042	-2.3146	-1.8292	-2.1542	-2.2292	-1.6896	-2.1417	-1.9792	-1.8687	-53.057	28.059	92.937	168.519	167.708	-82.531	110.572	-156.491	-0.302	183.107	-140.781	-104.784	-155.686	144.259	-152.530	-145.984	0.00079306	0.00026046	8.9728e-05	1349.4	1.9319e-06	1.8493e-06	1348.3	366.44	6.3437e-06	2.9843e-06	419.51	140.24	121.82	41.766	8.4536e-06	51.526	0.00054856	0.0005362	0.00017319	1377.8	5.9011e-06	5.8403e-06	1381.8	374.92	5.7317e-06	5.833e-06	431.27	143.09	123.5	42.654	6.4484e-06	52.851	134.611	131.510	-34.422	-146.970	-41.145	-141.173	-147.544	-142.604	193.062	-14.866	-142.861	-139.222	-138.740	-133.652	22.847	-134.223	-8191	255	
6619.059	1	1	0	0	0.14025	0.37829	0.172	0.37918	0.17674	0.12653	0.31889	0.42194	0.058893	0.29245	0.23102	0.064313	0.32252	0.013783	0.35142	0.014848	-1.8563	-1.5396	-1.9771	-2.3563	-1.3937	-2.15	-2.2167	-1.6792	-2.1542	-1.6437	-2	-2.4354	-1.6583	-2.1958	-1.9354	-2.0042	172.158	-101.046	-156.864	162.897	-118.833	42.274	194.414	109.513	58.540	54.138	-148.250	-129.283	-135.435	140.307	78.603	-123.107	0.00097763	0.0003031	0.00010686	1346.2	4.2959e-06	4.4218e-06	1346.5	367.47	4.4491e-06	2.4025e-06	418.09	139.26	121.27	41.472	8.6363e-06	51.569	0.00049892	0.00052177	0.00016148	1366.2	5.3673e-06	5.7608e-06	1375.4	372.72	5.3528e-06	5.9436e-06	428.71	142.18	123.12	42.837	6.3472e-06	52.875	125.200	90.207	-8.688	-147.118	-87.811	-106.103	-147.510	-142.578	-87.184	-71.579	-143.119	-139.227	-138.704	-133.499	-100.112	-134.249	-8191	255	
6619.155	1	1	0	0	0.28415	0.1089	0.15469	0.043931	0.064437	0.09485	0.05713	0.23058	0.30504	0.22888	0.37712	0.35261	0.015505	0.084864	0.067251	0.073759	-1.7625	-1.7625	-1.8625	-2.4875	-1.5938	-2.1146	-2.2271	-1.6688	-2.1312	-1.9	-1.9021	-2.4188	-1.7729	-2.2729	-2.0354	-1.7979	5.541	191.435	-3.407	165.934	59.949	56.878	-108.809	133.465	-119.508	136.007	142.852	80.029	-19.319	-135.681	-108.857	-26.185	0.0011639	0.00043659	0.00015485	1353.5	1.9606e-06	5.0596e-06	1352.1	366.5	7.5223e-06	4.4651e-06	418.14	139.85	121.35	41.738	6.4802e-06	51.464	0.00049975	0.0005659	0.00016044	1371.2	5.4601e-06	6.2264e-06	1375.2	372.93	5.5012e-06	6.387e-06	428.16	142.15	123.36	43.1	6.1755e-06	52.774	114.061	-135.187	-74.683	-147.336	-19.885	-67.384	-147.548	-142.777	-131.163	-134.902	-143.168	-139.319	-138.517	-133.558	0.546	-134.180	-8191	255	
6619.251	1	1	0	0	0.30744	0.091334	0.24257	0.25077	0.19987	0.17795	0.14203	0.10218	0.18859	0.34676	0.33328	0.35617	0.030187	0.065943	0.17439	0.092344	-1.6625	-1.8125	-1.6542	-2.3854	-1.8188	-1.9625	-2.3479	-1.5083	-2.0646	-2.1042	-1.775	-2.4833	-1.9917	-2.0375	-2.2188	-1.9417	116.453	-24.515	-160.340	165.678	67.220	-130.077	-85.544	-113.182	82.803	29.390	-105.313	137.788	80.075	-159.606	-112.590	112.959	0.0013735	0.00013733	0.00017551	1352.9	4.0346e-06	4.392e-06	1346.4	367	6.8348e-06	2.2054e-06	418.85	140.31	121.47	41.645	4.5083e-06	51.595	0.00051526	0.00058865	0.00015431	1369.2	5.6596e-06	6.4319e-06	1370.9	371.89	5.7162e-06	6.4369e-06	426.59	142.08	124.01	42.979	5.8498e-06	52.518	117.432	-20.857	-56.544	-147.142	166.260	27.574	-147.529	-142.634	-143.326	70.519	-142.921	-139.451	-138.653	-133.472	6.135	-134.341	-8191	255	
6619.372	1	1	0	0	0.070849	0.21411	0.43804	0.20419	0.26587	0.11185	0.19333	0.38764	0.19061	0.07832	0.17262	0.091288	0.087296	0.0996	0.22737	0.22514	-1.8146	-1.725	-1.6396	-2.4042	-1.5312	-1.7208	-2.4938	-1.6833	-2.3688	-2.0875	-1.65	-2.2083	-1.875	-1.825	-2.2625	-1.6729	26.932	-17.033	106.949	117.788	75.028	183.825	174.901	155.911	-121.025	-101.087	163.173	155.226	-129.405	184.911	131.785	176.188	0.0010984	0.00090946	8.4907e-05	1350.3	5.2632e-06	4.2258e-06	1349	369.05	7.9721e-06	8.9268e-06	417.41	139.72	121.37	41.904	7.4036e-06	51.123	0.00053652	0.00058106	0.00014628	1363.7	5.9496e-06	6.253e-06	1368	372.12	5.9926e-06	6.2191e-06	424.75	141.41	124.4	42.964	5.6633e-06	52.394	129.376	-53.163	45.949	-147.246	189.783	-45.014	-147.471	-142.727	-120.711	6.522	-142.847	-139.004	-138.790	-133.345	-10.230	-134.610	-8191	255	
6619.468	1	1	0	0	0.11604	0.36455	0.2225	0.27419	0.096661	0.2139	0.13199	0.23506	0.18443	0.020847	0.062118	0.19953	0.15266	0.092827	0.25459	0.14379	-1.7375	-1.8937	-1.5146	-2.375	-1.7	-1.8229	-2.3563	-1.7146	-2.0417	-2.0396	-1.625	-2.0938	-2.0167	-1.8292	-2.2062	-1.7	97.756	-38.057	18.201	-145.897	-1.335	26.991	118.755	164.991	167.302	71.030	184.268	180.003	-89.389	-145.668	8.629	99.853	0.0014455	0.00070199	5.5454e-05	1351.1	5.1139e-06	7.038e-06	1346.4	368.01	7.3743e-06	3.5861e-06	417.04	140.28	121.76	41.423	3.3613e-06	51.298	0.00056452	0.00055756	0.00014292	1365.1	6.1754e-06	6.0086e-06	1364.9	371.86	6.2331e-06	5.9713e-06	423.93	142.12	124.66	42.669	5.5308e-06	52.689	119.787	-32.653	195.994	-147.110	-93.504	-50.445	-147.418	-142.709	-31.085	29.527	-143.063	-139.200	-138.334	-133.576	29.172	-134.396	-8191	255	
6619.563	1	1	0	0	0.25827	0.049306	0.24607	0.35186	0.079387	0.12247	0.16229	0.40372	0.086892	0.10411	0.18178	0.17676	0.26959	0.32563	0.11262	0.18821	-1.4813	-2.225	-1.3458	-2.4604	-1.9146	-1.5479	-2.3792	-1.725	-2.0417	-2.2375	-1.6396	-2.3937	-2.075	-1.7521	-2.2708	-2.0333	7.453	87.925	17.179	142.863	62.541	-25.914	91.126	158.392	189.103	-102.765	84.130	-139.141	133.161	114.142	-78.064	134.933	0.001001	0.00040933	7.0174e-05	1347.3	1.9065e-06	7.9111e-06	1343.6	364.75	7.8265e-06	6.3019e-06	417.23	139.76	121.79	41.558	6.8408e-06	51.11	0.00058343	0.00053908	0.00014246	1367.1	6.4022e-06	5.9196e-06	1364.5	372.66	6.5286e-06	5.9731e-06	424.33	142.89	125.22	42.68	5.6279e-06	53.027	114.246	-21.695	-52.721	-147.045	-149.689	10.266	-147.494	-142.797	-19.635	33.759	-142.871	-139.678	-138.499	-133.388	-125.203	-134.243	-8191	255	
6619.659	1	1	0	0	0.24845	0.26051	0.13018	0.10655	0.24164	0.053704	0.51398	0.16457	0.15995	0.13422	0.19286	0.058127	0.18527	0.32872	0.099233	0.20398	-1.5958	-2.0896	-1.6167	-2.3667	-1.9625	-1.9375	-2.5479	-2.1437	-1.75	-2.0833	-1.4146	-2.2125	-1.975	-1.6271	-2.0875	-1.6333	-113.518	-128.563	168.428	-153.589	154.085	96.186	148.536	115.235	-139.382	-82.631	135.990	186.017	-160.613	-147.848	62.211	30.637	0.00087343	0.00039526	6.912e-05	1349.5	2.5374e-06	3.2862e-06	1343.5	367.61	3.4021e-06	2.6088e-06	416.73	139.52	121.35	41.452	7.4953e-06	51.21	0.00059586	0.00053578	0.00014333	1371.3	6.4235e-06	5.8375e-06	1362.7	374.36	6.3151e-06	5.7792e-06	423.41	143.4	124.52	42.543	5.5411e-06	53.291	127.169	-114.830	-54.804	-147.072	25.569	157.160	-147.588	-142.746	12.686	10.119	-143.033	-139.138	-138.643	-133.517	-23.407	-134.439	-8191	255	
6619.755	1	1	0	0	0.28569	0.30933	0.21882	0.23894	0.15006	0.27322	0.028327	0.40691	0.24281	0.10156	0.21645	0.30175	0.19543	0.22475	0.191	0.23379	-1.4229	-2	-1.6479	-2.1604	-2.0563	-1.5146	-2.3	-2.0229	-1.5896	-2.2104	-1.7354	-2.075	-2.2458	-1.6708	-2.225	-2.025	110.956	-35.142	22.412	143.891	79.143	148.353	-99.074	131.880	-103.347	92.951	118.725	-128.028	-150.624	158.946	-76.530	49.945	0.0007697	0.00040981	9.3521e-05	1348	3.7891e-06	3.6907e-06	1343.5	364.45	6.5587e-06	1.3158e-06	417.88	138.86	121.23	41.477	8.6656e-06	51.259	0.00056395	0.00051323	0.00014167	1373.6	5.9943e-06	5.5496e-06	1360.3	373.7	5.8775e-06	5.4538e-06	423.79	143.02	123.78	42.305	5.6551e-06	53.242	126.248	-55.718	193.799	-147.093	-40.890	40.653	-147.504	-142.681	-86.989	-40.156	-142.815	-139.196	-138.547	-133.642	-94.667	-134.432	-8191	255	
#DATA ENDS
