BOXY.EXE: ISS Imagent and Oximeter Data Acquisition Program Version 0.80
Ascii Record File

#ACQ INFORMATION
2  Detector Channels 
16  External MUX Channels 
1  Auxiliary Channels 
5000  Waveform (CCF) Frequency (Hz)
1  Waveforms Skipped 
30  Waveforms Averaged 
1  Cycles Averaged 
16  Acquisitions per Waveform 
10.0806  Updata Rate (Hz) 

#FILE INFORMATION
TRUE -- External MUX Channel results are PARSED.
FALSE -- AC DC and Phase are NOT grouped.
TRUE -- Companion Program Settings File CREATED.
FALSE -- AC data not excluded
FALSE -- DC data not excluded
FALSE -- Phase data not excluded
FALSE -- Auxillary Chn. data not excluded
Tab delimiters

#CALIBRATION STATE
TRUE -- Waveform Calibration Values APPLIED.


#AUX CALIBRATION VALUES
Val Type	aux-1	

Term	1.0000e+00	
Factor	0.0000e+00	


#WF CALIBRATION VALUES
A = Detector Channel
Val Type	A-AC1	A-AC2	A-AC3	A-AC4	A-AC5	A-AC6	A-AC7	A-AC8	A-AC9	A-AC10	A-AC11	A-AC12	A-AC13	A-AC14	A-AC15	A-AC16	A-DC1	A-DC2	A-DC3	A-DC4	A-DC5	A-DC6	A-DC7	A-DC8	A-DC9	A-DC10	A-DC11	A-DC12	A-DC13	A-DC14	A-DC15	A-DC16	A-Ph1	A-Ph2	A-Ph3	A-Ph4	A-Ph5	A-Ph6	A-Ph7	A-Ph8	A-Ph9	A-Ph10	A-Ph11	A-Ph12	A-Ph13	A-Ph14	A-Ph15	A-Ph16	

Term	0.00000e+00	0.00000e+00	0.00000e+00	0.00000e+00	0.00000e+00	0.00000e+00	0.00000e+00	0.00000e+00	0.00000e+00	0.00000e+00	0.00000e+00	0.00000e+00	0.00000e+00	0.00000e+00	0.00000e+00	0.00000e+00	0.00000e+00	0.00000e+00	0.00000e+00	0.00000e+00	0.00000e+00	0.00000e+00	0.00000e+00	0.00000e+00	0.00000e+00	0.00000e+00	0.00000e+00	0.00000e+00	0.00000e+00	0.00000e+00	0.00000e+00	0.00000e+00	0.00000e+00	0.00000e+00	0.00000e+00	0.00000e+00	0.00000e+00	0.00000e+00	0.00000e+00	0.00000e+00	0.00000e+00	0.00000e+00	0.00000e+00	0.00000e+00	0.00000e+00	0.00000e+00	0.00000e+00	0.00000e+00	
Factor	1.00000e+00	1.00000e+00	1.00000e+00	1.00000e+00	1.00000e+00	1.00000e+00	1.00000e+00	1.00000e+00	1.00000e+00	1.00000e+00	1.00000e+00	1.00000e+00	1.00000e+00	1.00000e+00	1.00000e+00	1.00000e+00	1.00000e+00	1.00000e+00	1.00000e+00	1.00000e+00	1.00000e+00	1.00000e+00	1.00000e+00	1.00000e+00	1.00000e+00	1.00000e+00	1.00000e+00	1.00000e+00	1.00000e+00	1.00000e+00	1.00000e+00	1.00000e+00	X	X	X	X	X	X	X	X	X	X	X	X	X	X	X	X	

B = Detector Channel
Val Type	B-AC1	B-AC2	B-AC3	B-AC4	B-AC5	B-AC6	B-AC7	B-AC8	B-AC9	B-AC10	B-AC11	B-AC12	B-AC13	B-AC14	B-AC15	B-AC16	B-DC1	B-DC2	B-DC3	B-DC4	B-DC5	B-DC6	B-DC7	B-DC8	B-DC9	B-DC10	B-DC11	B-DC12	B-DC13	B-DC14	B-DC15	B-DC16	B-Ph1	B-Ph2	B-Ph3	B-Ph4	B-Ph5	B-Ph6	B-Ph7	B-Ph8	B-Ph9	B-Ph10	B-Ph11	B-Ph12	B-Ph13	B-Ph14	B-Ph15	B-Ph16	

Term	0.00000e+00	0.00000e+00	0.00000e+00	0.00000e+00	0.00000e+00	0.00000e+00	0.00000e+00	0.00000e+00	0.00000e+00	0.00000e+00	0.00000e+00	0.00000e+00	0.00000e+00	0.00000e+00	0.00000e+00	0.00000e+00	0.00000e+00	0.00000e+00	0.00000e+00	0.00000e+00	0.00000e+00	0.00000e+00	0.00000e+00	0.00000e+00	0.00000e+00	0.00000e+00	0.00000e+00	0.00000e+00	0.00000e+00	0.00000e+00	0.00000e+00	0.00000e+00	-1.45867e+02	-1.23783e+02	-1.30834e+02	-1.84083e+02	-7.58095e+01	-7.30478e+01	-1.55713e+02	-1.62015e+02	-9.03867e+01	-7.43714e+01	-1.85725e+02	-1.70521e+02	-1.87050e+02	-1.76710e+02	-7.51131e+01	-1.49456e+02	
Factor	2.10453e-05	1.52073e-04	4.08231e-05	2.21187e-01	1.33617e-06	1.51758e-06	1.55432e-01	4.94518e-02	1.27884e-06	1.69986e-06	1.93204e-01	2.92118e-02	6.10080e-02	8.76291e-03	1.36065e-06	1.24210e-02	3.01981e-06	3.36426e-06	9.36133e-07	1.14310e-01	3.63966e-08	3.69298e-08	7.62793e-02	2.57675e-02	3.62490e-08	3.68367e-08	9.47209e-02	1.47461e-02	3.12550e-02	4.57521e-03	3.64405e-08	6.30051e-03	X	X	X	X	X	X	X	X	X	X	X	X	X	X	X	X	



#DISTANCE SETTINGS
A = Detector Channel
A-1	A-2	A-3	A-4	A-5	A-6	A-7	A-8	A-9	A-10	A-11	A-12	A-13	A-14	A-15	A-16	

2.5000e+00	3.0000e+00	2.5000e+00	3.0000e+00	2.0000e+00	3.0000e+00	1.5000e+00	3.0000e+00	3.0000e+00	3.0000e+00	3.0000e+00	3.0000e+00	3.0000e+00	3.0000e+00	1.5000e+00	3.0000e+00	

B = Detector Channel
B-1	B-2	B-3	B-4	B-5	B-6	B-7	B-8	B-9	B-10	B-11	B-12	B-13	B-14	B-15	B-16	

1.0000e+01	1.0000e+01	1.0000e+01	1.4400e+00	1.0000e+01	1.0000e+01	1.5100e+00	1.9400e+00	1.0000e+01	1.0000e+01	1.9900e+00	2.4900e+00	2.4100e+00	2.9000e+00	1.0000e+01	2.9800e+00	




#DATA BEGINS
time	group	step	mark	flag	A-AC1	A-AC2	A-AC3	A-AC4	A-AC5	A-AC6	A-AC7	A-AC8	A-AC9	A-AC10	A-AC11	A-AC12	A-AC13	A-AC14	A-AC15	A-AC16	A-DC1	A-DC2	A-DC3	A-DC4	A-DC5	A-DC6	A-DC7	A-DC8	A-DC9	A-DC10	A-DC11	A-DC12	A-DC13	A-DC14	A-DC15	A-DC16	A-Ph1	A-Ph2	A-Ph3	A-Ph4	A-Ph5	A-Ph6	A-Ph7	A-Ph8	A-Ph9	A-Ph10	A-Ph11	A-Ph12	A-Ph13	A-Ph14	A-Ph15	A-Ph16	B-AC1	B-AC2	B-AC3	B-AC4	B-AC5	B-AC6	B-AC7	B-AC8	B-AC9	B-AC10	B-AC11	B-AC12	B-AC13	B-AC14	B-AC15	B-AC16	B-DC1	B-DC2	B-DC3	B-DC4	B-DC5	B-DC6	B-DC7	B-DC8	B-DC9	B-DC10	B-DC11	B-DC12	B-DC13	B-DC14	B-DC15	B-DC16	B-Ph1	B-Ph2	B-Ph3	B-Ph4	B-Ph5	B-Ph6	B-Ph7	B-Ph8	B-Ph9	B-Ph10	B-Ph11	B-Ph12	B-Ph13	B-Ph14	B-Ph15	B-Ph16	aux-1	digaux	

11970.101	1	1	0	256	0.14028	0.13855	0.12556	0.12042	0.11848	0.43852	0.11528	0.18177	0.36186	0.21089	0.13347	0.14046	0.19182	0.20207	0.092543	0.4079	-1.5833	-2.3271	-1.8563	-2.2917	-1.9771	-1.8646	-2.4562	-2.0771	-1.9813	-2.3208	-1.8042	-2.325	-2.1729	-1.8542	-2.3667	-1.9583	182.739	81.176	97.538	104.388	28.008	107.257	96.445	55.199	109.698	-142.013	-141.969	-27.466	139.535	165.887	8.797	175.603	0.00077062	0.00024983	0.00020441	851.54	5.652e-06	3.9091e-06	841.28	289.77	5.3966e-06	4.3568e-06	316.47	130.62	111.12	54.847	5.9088e-06	66.249	0.00058862	0.00056593	0.00015801	841.87	6.2495e-06	6.3358e-06	833.53	286.98	6.1279e-06	6.314e-06	318.3	128.96	111.8	54.357	6.2948e-06	65.986	180.079	-78.473	-113.292	-162.254	-62.664	-18.053	-162.904	-156.849	-87.377	-37.554	-157.665	-153.219	-152.849	-146.797	-43.371	-149.471	-8191	255	
11970.197	1	1	0	0	0.044312	0.14741	0.14672	0.28345	0.11445	0.1082	0.12282	0.19917	0.33642	0.1447	0.059224	0.08567	0.17686	0.22326	0.051612	0.040952	-1.6125	-2.1125	-1.7729	-2.1396	-2.1292	-1.8625	-2.6229	-2.0125	-1.9167	-2.5042	-2.0604	-2.2812	-2.2479	-1.8646	-2.3104	-2.2896	-94.379	-50.415	115.131	127.468	-168.336	156.070	159.684	59.709	-85.289	102.879	33.712	-31.050	69.716	143.010	158.310	-170.167	0.00073415	0.00089103	0.00016768	851.17	1.8626e-06	3.615e-06	842.92	289.21	6.4363e-06	5.6737e-06	319.58	128.98	111.15	54.525	5.1487e-06	65.493	0.00058574	0.00057489	0.00015991	841.1	6.2039e-06	6.2191e-06	833.98	286.32	6.2039e-06	6.1613e-06	317.49	127.79	111.66	53.91	6.0984e-06	65.018	184.285	-103.141	-95.707	-162.089	168.266	-19.374	-162.529	-156.982	-96.698	-52.446	-158.246	-153.240	-152.852	-146.731	22.721	-149.719	-8191	255	
11970.293	1	1	0	0	0.42481	0.24473	0.3326	0.15547	0.30935	0.14861	0.26323	0.30736	0.065846	0.24134	0.24172	0.11768	0.12857	0.37348	0.12612	0.22968	-1.5625	-2.2917	-2.0021	-2.2292	-2.2167	-1.7521	-2.3875	-2.3167	-1.9479	-2.5354	-2.0229	-2.1646	-2.2938	-2.0292	-2.3563	-2.2083	-59.840	-129.722	63.390	143.068	181.496	-134.065	130.351	164.364	105.671	159.644	130.031	124.788	42.958	141.416	-9.383	137.204	0.00069282	0.00064934	0.00030323	855.22	5.3582e-06	1.2438e-06	844.35	289.1	5.4448e-06	7.3666e-06	318.53	127.82	111.39	53.932	3.0376e-06	64.332	0.00058001	0.00056357	0.00015846	841.96	6.1875e-06	6.2668e-06	830.51	286	6.3024e-06	6.3089e-06	317.45	127	111.43	53.476	6.3543e-06	64.01	179.949	-32.615	-95.554	-162.164	-16.094	-42.728	-162.819	-156.800	-125.299	-44.703	-157.573	-153.249	-152.453	-146.295	-75.383	-149.277	-8191	255	
11970.390	1	1	0	0	0.04984	0.4686	0.25838	0.093532	0.12246	0.19462	0.19293	0.34195	0.060726	0.042639	0.1156	0.25036	0.25401	0.17279	0.30801	0.29493	-1.6292	-2.3708	-1.9229	-1.8021	-2.35	-1.9312	-2.2562	-2.5458	-1.975	-2.1042	-2.2104	-1.9167	-2.4625	-1.9333	-1.9021	-2.45	93.638	-77.289	-83.739	-160.606	-69.452	-18.266	120.203	83.940	-5.393	177.524	71.229	-155.035	95.806	81.520	-130.181	138.367	0.00071843	0.00027686	0.00011208	857.38	4.694e-06	3.5049e-06	842.53	288.6	6.5745e-06	2.9172e-06	318.03	127.27	111.38	53.657	4.8346e-06	64.269	0.00059586	0.0005809	0.0001614	845.35	6.3783e-06	6.4071e-06	831.85	285.69	6.3388e-06	6.2492e-06	317.07	126.83	111.26	53.268	6.2852e-06	64.196	184.484	-103.138	-138.463	-161.907	14.639	44.722	-162.578	-156.727	-60.369	-46.703	-157.850	-153.070	-152.043	-146.322	-13.270	-149.226	-8191	255	
11970.486	1	1	0	0	0.23695	0.16782	0.11398	0.25455	0.21389	0.19872	0.17445	0.16038	0.20997	0.01852	0.054028	0.28787	0.24832	0.15487	0.26382	0.092725	-1.4771	-2.2208	-2	-2.1167	-2.2958	-1.8792	-2.2542	-2.4354	-1.8354	-2.425	-2.1958	-1.9292	-2.3688	-2.0271	-2.1771	-2.3479	-171.966	-73.661	180.995	-153.593	111.114	-86.651	74.220	127.697	104.174	42.644	-136.873	-174.503	52.505	125.229	-169.840	-0.717	0.00068401	0.00072215	0.00010928	856.55	5.496e-06	4.877e-06	843.78	289.01	6.7363e-06	7.2884e-06	320.39	128.59	110.87	53.748	2.471e-06	64.429	0.00059557	0.00057182	0.00015751	842.4	6.0807e-06	6.3424e-06	833.94	286.36	6.251e-06	6.29e-06	317.59	127.27	111.5	53.461	6.3078e-06	64.361	179.924	-48.944	-97.208	-162.170	-67.160	-40.545	-163.387	-157.497	-58.449	-19.424	-159.184	-153.951	-152.900	-146.069	-66.192	-149.302	-8191	255	
11970.582	1	1	0	0	0.30973	0.22394	0.14644	0.29632	0.14224	0.035156	0.42409	0.26434	0.074599	0.21688	0.14344	0.029695	0.16764	0.16927	0.16875	0.3375	-1.4729	-1.9896	-1.9833	-2.0396	-2.3917	-1.9688	-2.1125	-2.4417	-1.8208	-2.2646	-2.1583	-2.0062	-2.3812	-2.0604	-2.0271	-2.3063	-150.155	-29.289	-68.409	154.773	-146.908	132.524	48.174	103.868	118.916	69.527	108.769	153.897	-147.639	88.627	-16.647	82.013	0.00071158	0.00091315	0.00012286	857.38	5.9744e-06	3.7025e-06	849.58	289.58	6.1179e-06	3.6021e-06	319.14	128.76	111.45	53.877	3.292e-06	64.628	0.00060297	0.00058833	0.00016231	845.93	6.4233e-06	6.4659e-06	835.98	286.78	6.5278e-06	6.4518e-06	318.21	127.75	111.93	53.578	6.396e-06	64.289	180.617	-134.419	-85.936	-162.035	-15.989	-11.269	-163.008	-156.728	-109.797	-49.588	-158.017	-153.356	-152.407	-146.585	-29.454	-149.619	-8191	255	
11970.678	1	1	0	0	0.17258	0.10887	0.21935	0.15536	0.29971	0.082097	0.12623	0.12953	0.037102	0.10272	0.35294	0.12726	0.17249	0.1862	0.099834	0.40923	-1.3312	-2.2333	-2.0396	-1.8729	-2.2146	-2.2833	-1.9208	-2.3354	-1.8542	-2.2646	-2.2146	-1.8292	-2.3125	-2.3	-1.9646	-2.3271	68.007	159.450	-154.976	143.030	162.578	-57.971	164.336	157.299	172.967	43.552	153.254	171.934	141.761	-173.386	-71.866	182.741	0.00067407	0.0007986	0.00011339	856.3	8.6784e-06	2.9956e-06	840.15	288.17	4.8341e-06	3.7075e-06	316.1	128.69	110.84	54.108	5.0797e-06	65.241	0.00060706	0.00059798	0.00016235	844.22	6.3498e-06	6.4017e-06	830.27	285.8	6.4204e-06	6.3777e-06	316.87	127.46	111.63	53.781	6.3087e-06	64.809	180.261	-60.910	-17.536	-161.499	-36.606	3.049	-162.505	-156.691	-27.920	-111.754	-157.878	-153.286	-152.828	-146.581	-5.425	-148.965	-8191	255	
11970.799	1	1	0	0	0.2247	0.11896	0.20675	0.077971	0.10352	0.12632	0.322	0.19491	0.17798	0.088002	0.1762	0.18041	0.26032	0.15623	0.21973	0.27942	-1.5917	-2.2208	-2.2208	-1.7375	-2.2271	-2.0771	-2.0917	-2.6188	-1.9562	-2.2146	-2.4833	-1.875	-2.0917	-2.1542	-1.8229	-2.4313	-171.071	-78.415	157.004	23.372	88.903	8.472	134.138	-165.686	11.412	-15.754	120.670	145.158	178.639	94.632	-1.725	52.800	0.00064914	0.00046158	0.00018317	846.82	5.9275e-06	5.2754e-06	838.87	289.92	4.5924e-06	2.126e-06	317.05	128.79	111.4	54.503	1.3821e-06	65.586	0.00060334	0.00057989	0.00016382	838.48	6.3438e-06	6.4242e-06	826.39	286.98	6.4943e-06	6.4335e-06	316.9	128.12	112.23	54.262	6.3896e-06	65.356	-172.292	-67.654	-89.133	-161.455	-61.820	-55.668	-162.660	-156.534	-63.554	-33.274	-157.976	-153.120	-152.412	-146.180	-125.693	-149.317	-8191	255	
11970.893	1	1	0	0	0.060099	0.085572	0.12503	0.11595	0.12794	0.11044	0.1564	0.19035	0.16316	0.043352	0.24074	0.29923	0.11634	0.28191	0.11935	0.0059275	-1.4896	-2.0229	-2.2146	-2.0563	-2.2021	-2.2292	-1.8021	-2.3	-2.0687	-2.075	-2.4167	-1.9229	-2.2021	-2.3667	-1.8792	-2.3479	173.329	156.732	-168.644	-108.753	126.064	-64.493	121.026	152.351	26.023	3.881	-168.512	45.651	83.440	-145.545	-95.422	175.288	0.00074852	0.00091501	0.0001726	855.12	5.3882e-06	3.6844e-06	837.28	289.91	9.2635e-06	1.9241e-06	318.53	129.99	112.78	55.593	6.4524e-06	67.182	0.00059934	0.00057609	0.00016133	841.74	6.1258e-06	6.3422e-06	828.47	286.59	6.2421e-06	6.2055e-06	317.37	129.36	112.99	55.245	6.2524e-06	66.858	181.987	-89.857	-68.097	-161.688	-7.041	-15.113	-162.562	-156.848	-102.628	-83.278	-157.777	-153.367	-152.462	-146.745	-42.342	-150.039	-8191	255	
11970.991	1	1	0	0	0.25541	0.033018	0.11692	0.25684	0.13757	0.084566	0.080487	0.26771	0.35357	0.02914	0.07339	0.34272	0.22715	0.17136	0.13153	0.026352	-1.775	-1.9646	-2.4375	-1.9708	-2.1562	-2.2	-1.7958	-2.4188	-2.0687	-1.7229	-2.4104	-2.0687	-2.0563	-2.2771	-1.6354	-2.4146	179.339	-128.798	-103.020	-151.388	99.022	-63.599	82.328	132.673	-126.910	137.654	-27.018	103.145	-172.441	184.028	28.832	-154.841	0.0006787	0.00056659	0.00012656	852.75	5.4564e-07	3.3603e-06	841.93	289.41	6.9437e-06	3.4818e-06	321.78	131.18	112.1	55.709	6.5076e-06	67.884	0.00057409	0.00056026	0.00015796	840.71	6.1094e-06	6.1553e-06	830.04	286.56	6.1715e-06	6.1394e-06	319.9	130.24	112.62	55.489	6.0381e-06	67.475	183.223	-92.034	-24.017	-162.892	-40.903	-39.752	-163.330	-157.052	-86.901	-49.231	-158.990	-153.787	-153.124	-147.312	-85.673	-150.310	-8191	255	
11971.087	1	1	0	0	0.2484	0.32524	0.018233	0.04509	0.071963	0.13941	0.19685	0.29846	0.069575	0.052192	0.18971	0.13641	0.20656	0.15351	0.18593	0.22097	-1.55	-1.9125	-2.2896	-2.0375	-2.2062	-2.4313	-2.0729	-2.275	-2.1188	-1.8563	-2.3604	-2.0312	-1.8937	-2.6167	-1.7604	-2.2708	145.998	141.436	-129.447	128.983	-131.211	4.561	-125.248	182.898	-162.854	105.248	-166.657	-155.017	-151.917	129.976	70.398	23.294	0.00074138	0.00078771	6.3396e-05	848.86	3.49e-06	3.8676e-06	834.71	290.44	9.3728e-06	3.6499e-06	317.46	131.33	113.46	56.122	6.0869e-07	67.759	0.00058011	0.00055541	0.00015455	838.76	6.0793e-06	6.0339e-06	828.04	286.95	6.0675e-06	6.1317e-06	316.48	130.01	113.13	55.642	6.1045e-06	67.438	176.469	-90.383	-81.973	-162.186	18.845	-9.363	-162.954	-156.958	-57.082	-78.176	-158.598	-153.737	-152.837	-146.762	48.223	-149.528	-8191	255	
11971.181	1	1	0	0	0.37751	0.13672	0.079576	0.075085	0.14678	0.11456	0.28518	0.25818	0.033884	0.17181	0.1129	0.32462	0.20789	0.13559	0.14885	0.062566	-1.7604	-1.9167	-2.3042	-2.0917	-1.7229	-2.1583	-2.1958	-2.2604	-2.1833	-1.9292	-2.5208	-2.1188	-1.9625	-2.6479	-1.8021	-2.0125	181.211	-14.346	53.197	-95.479	87.415	-119.425	125.843	142.851	-44.370	-17.872	-101.229	158.652	-52.170	-139.934	142.882	-45.118	0.00081182	0.00088135	7.0033e-05	847.95	2.5233e-06	1.1974e-06	839.7	289.61	3.9319e-06	1.7155e-06	320.1	131.38	112.78	55.803	3.124e-06	68.038	0.0005834	0.00056931	0.00015766	835.67	6.196e-06	6.2488e-06	826.28	286.15	6.174e-06	6.2136e-06	318.68	129.6	113.15	55.426	6.1638e-06	67.431	179.508	-77.536	-86.875	-162.307	-52.314	182.715	-163.076	-156.934	-97.430	18.506	-158.883	-153.557	-152.540	-147.024	-20.577	-149.772	-8191	255	
11971.278	1	1	0	0	0.14908	0.069287	0.19102	0.21023	0.13369	0.19042	0.23621	0.16315	0.27324	0.15438	0.1681	0.28087	0.139	0.25716	0.29615	0.14117	-1.8396	-1.8125	-2.1833	-2.1792	-1.8292	-2.3479	-2.1833	-2.1188	-2.3708	-1.875	-2.1583	-2.4083	-1.7646	-2.45	-1.9	-2.2354	17.062	-171.434	72.510	2.087	-46.505	-49.928	-10.300	-25.189	-57.668	-110.218	-125.273	-152.306	-110.956	144.648	-149.347	-109.532	0.00081599	0.0004453	0.0001481	846.04	1.9522e-06	2.9284e-06	833.78	289.21	2.308e-06	7.986e-06	320.84	131.99	113.22	55.766	5.4629e-06	68.225	0.00057819	0.00056362	0.00015414	836.71	6.0793e-06	6.1684e-06	825.34	286.12	6.1274e-06	6.1243e-06	318.8	130.36	112.99	55.518	6.1042e-06	67.834	179.871	-85.050	-88.992	-162.198	-35.254	-45.376	-162.848	-157.137	-97.833	-12.226	-158.441	-153.581	-153.300	-146.784	-49.847	-150.292	-8191	255	
11971.398	1	1	0	0	0.21438	0.13183	0.33886	0.082751	0.27194	0.14632	0.22223	0.21864	0.063523	0.12953	0.14846	0.067871	0.21314	0.20823	0.019681	0.094928	-1.8875	-1.8479	-2.2021	-2.1937	-1.7354	-2.2458	-2.0146	-2.2354	-2.4062	-1.7917	-2.2979	-2.3792	-1.6833	-2.3396	-2.0396	-2.1604	-10.911	152.245	4.153	-71.967	11.617	-10.311	170.063	115.411	170.381	-84.192	-104.258	51.217	-145.861	-57.685	-12.046	-43.123	0.00078599	0.00056762	0.00018639	843.14	5.772e-06	2.2021e-06	834.72	288.61	6.6042e-06	6.7241e-06	318.81	131.73	113.13	56.025	3.8864e-06	68.944	0.00057815	0.0005586	0.00015376	835.96	6.0119e-06	6.0075e-06	827.84	286.09	5.9837e-06	5.8807e-06	318.31	130.64	112.85	55.708	5.9887e-06	68.351	180.382	-83.475	-73.782	-162.633	-55.583	10.950	-163.432	-157.389	-82.166	-9.510	-158.694	-154.265	-153.211	-147.473	45.731	-150.143	-8191	255	
11971.494	1	1	0	0	0.28423	0.06618	0.15906	0.19936	0.10771	0.059282	0.081721	0.23025	0.2545	0.40213	0.11349	0.23497	0.20574	0.3454	0.26923	0.12363	-1.9146	-2.0417	-2.1542	-2.4292	-1.7646	-2.3125	-2.1542	-2.0604	-2.3021	-1.8667	-2.1312	-2.2771	-1.925	-2.4562	-2.1125	-2.0833	34.901	-122.125	-73.320	144.208	-156.174	-73.837	57.547	141.876	-167.752	112.730	54.099	171.581	130.387	-171.808	-116.085	86.487	0.00074235	0.00093803	0.00010386	847.35	7.4237e-06	4.5266e-06	840.19	289.45	8.6791e-06	7.2781e-06	315.81	131.6	112.76	56.24	4.3277e-06	68.801	0.00057041	0.00054365	0.00015166	834.12	5.8642e-06	5.8995e-06	827.52	285.88	5.826e-06	5.8894e-06	316.7	130.52	112.94	55.824	5.8359e-06	68.295	172.766	-91.153	-113.775	-162.480	-35.124	-45.501	-163.461	-157.307	-61.828	-40.398	-158.597	-154.032	-152.699	-147.202	-14.024	-150.143	-8191	255	
11971.566	1	1	0	0	0.028307	0.31259	0.28588	0.025397	0.17632	0.22839	0.077583	0.33478	0.25345	0.055695	0.08819	0.34066	0.06431	0.11515	0.13116	0.30591	-1.7833	-2.0167	-2.1396	-2.4	-1.7	-2.1083	-2.3875	-2.0458	-2.2375	-2.0354	-2.1854	-2.5812	-1.9667	-2.3292	-2.0438	-1.8563	-101.153	147.950	151.267	184.042	122.591	-88.788	161.196	135.054	176.214	-37.163	127.727	-151.004	182.465	157.854	35.510	118.174	0.00085795	0.00025868	0.00014806	838.77	3.5867e-06	1.0016e-05	831.9	288.46	4.3697e-06	1.8256e-06	317.44	131.39	113.09	56.022	2.1717e-06	68.581	0.00056432	0.00053645	0.00014804	829.66	5.7513e-06	5.7365e-06	822.78	285.43	5.8025e-06	5.7418e-06	317	130.18	112.66	55.654	5.7378e-06	68.219	184.484	-47.236	-61.911	-162.481	-25.383	-43.251	-163.420	-157.194	-82.083	21.468	-158.562	-153.763	-152.972	-147.182	-48.729	-149.703	-8191	255	
11971.662	1	1	0	0	0.10673	0.057533	0.20339	0.33356	0.17811	0.2403	0.29989	0.1237	0.20216	0.14498	0.1105	0.13186	0.20281	0.092465	0.11527	0.27182	-1.9146	-1.9688	-1.8625	-2.4979	-1.9229	-2.1083	-2.3396	-1.8417	-2.2146	-1.9854	-1.8708	-2.4062	-1.8083	-2.2667	-2.1708	-1.9438	-72.897	-63.104	46.501	149.083	184.858	-99.681	101.695	96.741	-50.635	59.381	18.794	28.863	-114.806	83.892	-103.887	162.519	0.00072387	0.0008066	9.1083e-05	846.67	2.8251e-06	9.1922e-06	834.85	289.31	5.7574e-06	9.1724e-07	321.74	132.19	112.4	56.418	4.2603e-06	69.663	0.00054859	0.00053039	0.00014593	832	5.7237e-06	5.6669e-06	824.07	285.44	5.6893e-06	5.6877e-06	318.27	130.74	112.88	56.115	5.6187e-06	68.972	180.936	-74.362	-90.593	-162.233	-5.733	-7.126	-162.976	-156.825	-111.314	-20.867	-158.535	-153.686	-152.778	-146.704	-34.964	-149.182	-8191	255	
11971.758	1	1	0	0	0.3188	0.019241	0.12072	0.028081	0.32628	0.22021	0.14	0.22089	0.12395	0.078116	0.062764	0.15429	0.23067	0.15744	0.11236	0.21844	-1.875	-1.9208	-1.9813	-2.1583	-1.9979	-2.3271	-2.475	-1.9708	-2.0292	-2.2646	-1.8979	-2.3458	-1.9292	-2.2208	-2.1271	-1.9312	88.571	52.011	166.857	65.649	-153.100	-87.050	66.245	83.635	113.236	-151.633	-82.582	82.581	102.404	3.221	39.052	96.025	0.00074622	0.00076948	0.00031593	847.24	5.0248e-06	5.8584e-06	834.84	290.72	5.9967e-06	5.8393e-06	320.84	132.31	113.39	56.675	5.2598e-06	69.897	0.00054189	0.00051671	0.00014291	834.98	5.6684e-06	5.5618e-06	827.12	286.64	5.6245e-06	5.6101e-06	318.83	131.48	113.26	56.377	5.6175e-06	69.334	179.020	-56.751	-76.796	-162.021	16.557	-27.002	-162.739	-156.779	-55.530	-38.907	-158.183	-153.387	-152.880	-146.812	-40.737	-149.336	-8191	255	
11971.877	1	1	0	0	0.17978	0.1337	0.074126	0.076508	0.15145	0.090914	0.16312	0.052771	0.20463	0.078703	0.24599	0.16379	0.098895	0.31621	0.24387	0.20347	-1.6646	-1.9729	-1.75	-2.2938	-1.9229	-2.2292	-2.4146	-1.9771	-2.1833	-2.3937	-2.0625	-2.3812	-2.1562	-2.3125	-2.3375	-1.9542	21.923	126.868	-171.678	78.302	-39.476	11.941	171.024	-117.081	125.782	-55.386	69.596	-161.888	-45.340	-166.728	74.537	73.837	0.00081751	0.00075922	0.0001402	847.19	6.2397e-06	5.8154e-06	845.15	289.73	8.6822e-06	5.7933e-06	317.96	133.4	113.81	56.914	5.1202e-06	69.959	0.00053583	0.00051173	0.00014187	833.59	5.6639e-06	5.5685e-06	830.3	286.66	5.4629e-06	5.4384e-06	318.84	131.94	113.17	56.327	5.4618e-06	69.296	181.592	-97.113	-83.653	-162.112	-33.307	6.159	-163.070	-156.533	-57.743	-2.624	-158.293	-153.349	-152.677	-146.597	-46.208	-149.222	-8191	255	
11971.973	1	1	0	0	0.19704	0.31621	0.0053777	0.11496	0.05389	0.30498	0.25764	0.12344	0.12537	0.13376	0.15808	0.19488	0.036493	0.13587	0.23027	0.44919	-1.6187	-2.1562	-1.7917	-2.3521	-1.9625	-1.9937	-2.4021	-1.9417	-2.0396	-2.3292	-1.6187	-2.3396	-1.9625	-1.9292	-2.3167	-2.0271	108.915	63.400	39.481	106.588	88.727	60.445	166.745	180.073	150.446	42.634	-109.577	164.323	-78.043	-154.808	170.442	150.230	0.0007807	0.00032734	0.00015135	846.64	5.3384e-06	2.2614e-06	833.02	289.56	7.1765e-06	6.6092e-06	317.33	132.49	114.27	56.697	3.5838e-06	69.871	0.00052732	0.00049992	0.00013765	833.14	5.3533e-06	5.4171e-06	823.52	285.57	5.3887e-06	5.4166e-06	316.61	130.97	113.26	56.289	5.4277e-06	69.016	178.646	-73.649	-107.514	-161.662	-48.981	-21.122	-162.796	-156.433	-28.106	-79.284	-158.081	-153.052	-152.020	-146.418	-35.416	-149.294	-8191	255	
11972.071	1	1	0	0	0.11061	0.12994	0.2342	0.22217	0.18063	0.03347	0.17166	0.29141	0.036451	0.21834	0.17137	0.25541	0.015539	0.16103	0.17439	0.077513	-1.4896	-2.2542	-1.8729	-2.3896	-2.1604	-1.9833	-2.5958	-1.925	-1.8062	-2.0542	-2.0583	-2.2354	-2.075	-1.9896	-2.3292	-2.2604	14.479	131.106	-146.138	-138.589	-43.272	50.128	155.317	-153.144	16.644	117.090	-82.848	66.332	-155.123	-158.148	-114.517	93.568	0.00074249	0.00039883	8.5292e-05	844.78	2.7936e-06	3.5885e-06	837.13	290.97	5.0116e-06	5.9767e-06	318.85	132.68	114.23	56.667	4.4188e-06	69.51	0.00051861	0.00048771	0.00013536	830.92	5.3428e-06	5.3947e-06	824.82	286.36	5.3528e-06	5.3668e-06	316.36	131.22	113.11	56.22	5.2751e-06	68.99	180.652	-126.465	-98.307	-161.743	-80.872	-45.002	-162.561	-156.519	-102.772	-74.676	-158.230	-153.335	-152.448	-146.570	-42.943	-149.279	-8191	255	
11972.190	1	1	0	0	0.030137	0.15942	0.16672	0.083892	0.34074	0.15946	0.21514	0.28561	0.22143	0.10337	0.09413	0.20627	0.2244	0.26754	0.14506	0.21154	-1.5667	-2.1917	-1.7417	-2.0896	-2.5042	-1.9979	-2.4979	-2.1708	-1.9917	-2.3063	-2.0708	-2.2438	-2.0625	-1.9771	-2.2188	-2.2479	-44.332	-90.958	-36.492	146.541	-42.211	73.911	123.323	147.291	44.689	39.479	88.628	158.799	-168.209	126.550	178.156	139.568	0.00073807	0.00027682	7.8995e-05	840.26	7.7652e-06	5.0042e-06	839.63	290.11	6.8797e-06	5.191e-06	318.96	132.41	113.85	56.365	3.36e-06	69.188	0.00051173	0.00048166	0.00013564	830.69	5.2785e-06	5.3658e-06	824.49	286.41	5.3192e-06	5.3366e-06	317.45	131.06	112.81	55.95	5.3495e-06	68.743	178.527	-75.287	-44.155	-161.849	-38.853	-100.730	-163.385	-157.392	-47.218	-31.746	-158.371	-153.769	-153.145	-147.171	-54.322	-149.949	-8191	255	
11972.262	1	1	0	0	0.14337	0.19051	0.07537	0.12109	0.13432	0.095387	0.19176	0.15363	0.19846	0.10498	0.14736	0.22854	0.16063	0.38835	0.051289	0.094317	-1.5104	-2.4167	-2.0021	-2.2792	-2.35	-1.8125	-2.45	-2.1583	-1.8229	-2.1729	-2.1	-2.0917	-2.1875	-2.1396	-2.2562	-2.3312	170.937	86.933	64.509	96.933	-110.745	-18.917	123.525	129.202	-163.669	29.389	-41.901	-134.452	-109.926	133.177	-157.041	3.096	0.00077614	0.00077772	0.00010311	840.77	3.9966e-06	5.5323e-06	836.37	289.05	6.2197e-06	7.7866e-06	323.99	133.12	113.01	56.267	4.3892e-06	69.003	0.00051849	0.00048402	0.00013848	827.02	5.365e-06	5.4294e-06	825.74	285.63	5.3531e-06	5.375e-06	318.3	131.61	112.32	55.825	5.3228e-06	68.535	181.519	-85.088	-91.154	-162.433	-21.099	1.968	-163.324	-157.189	-52.775	-13.946	-158.316	-153.736	-153.128	-147.052	-60.094	-149.861	-8191	255	
11972.358	1	1	0	0	0.21044	0.2324	0.079809	0.066211	0.091385	0.159	0.34099	0.018927	0.1326	0.3191	0.24903	0.04419	0.066148	0.43417	0.13859	0.28562	-1.4375	-2.2708	-1.9479	-2.0625	-2.3667	-1.9375	-2.3667	-2.2292	-1.8708	-2.2354	-2.2	-2.0417	-2.0729	-1.9771	-2.2354	-2.2875	38.921	-90.304	-108.197	91.500	21.944	113.429	91.142	8.658	140.468	135.098	173.424	167.548	183.356	147.169	101.469	161.232	0.00076411	0.00049422	0.00015472	839.63	7.4148e-06	5.8638e-06	834.24	287.11	4.101e-06	6.8089e-06	319.45	131.15	112.7	56.192	5.0297e-06	68.309	0.00052284	0.00048967	0.00013912	826.49	5.3663e-06	5.4397e-06	823.81	284.58	5.3325e-06	5.3468e-06	316.33	130.24	112.28	55.659	5.3637e-06	67.979	182.497	-60.195	-35.939	-162.071	-65.310	-48.676	-163.117	-157.002	-49.856	-24.910	-158.476	-153.647	-152.941	-147.013	-43.861	-149.896	-8191	255	
11972.479	1	1	0	0	0.23431	0.11924	0.047731	0.25798	0.21099	0.20435	0.090331	0.028831	0.21179	0.034923	0.26294	0.24679	0.05161	0.16584	0.12888	0.042722	-1.45	-2.3	-2.0938	-1.8229	-2.2313	-2.1063	-2.1146	-2.3417	-1.8979	-2.4771	-1.9833	-2.0729	-2.4167	-2.0542	-2.1063	-2.3854	132.773	119.368	-117.031	89.266	88.077	173.239	-56.400	-169.882	-97.718	41.517	96.356	66.391	98.220	179.141	-45.101	-50.581	0.00071767	0.0009851	0.00011439	842.56	4.0805e-06	6.0511e-06	835.93	288.97	5.5235e-06	4.6474e-06	320.25	131.5	114.01	56.466	8.2314e-06	68.677	0.00051525	0.00048804	0.00013716	825.24	5.3999e-06	5.3204e-06	820.97	285.03	5.441e-06	5.2859e-06	315.59	130.57	113.01	55.854	5.444e-06	68.179	179.887	-84.338	-32.377	-161.746	-13.845	-41.553	-162.648	-156.747	-59.975	-4.503	-157.808	-153.071	-152.398	-146.713	-42.549	-149.384	-8191	255	
11972.575	1	1	0	0	0.22727	0.26099	0.16662	0.23471	0.1415	0.11031	0.44813	0.41351	0.052937	0.24719	0.094918	0.32248	0.043351	0.07971	0.16222	0.15212	-1.4667	-2.1917	-2.125	-1.8875	-2.2521	-1.9917	-2.3854	-2.3833	-1.7896	-2.2771	-2.2708	-2.0458	-2.3708	-2.2854	-1.8417	-2.4646	-121.619	-25.915	-80.928	146.479	47.675	-81.905	115.457	120.001	-2.033	-25.405	127.784	174.272	151.847	-92.431	-41.602	103.576	0.00070457	0.00079042	0.00014856	833.19	6.8249e-06	3.274e-06	828.34	287.68	3.0085e-06	7.2681e-06	317.05	131.27	112.92	55.925	5.1322e-06	68.952	0.00053301	0.00050671	0.0001422	821.16	5.4831e-06	5.5975e-06	819.31	284	5.5983e-06	5.5518e-06	316.51	130.51	112.88	55.524	5.528e-06	68.227	185.342	-62.359	-154.911	-161.581	-70.643	-53.246	-162.817	-156.601	-40.775	-38.110	-157.862	-153.395	-152.478	-146.587	-77.459	-149.288	-8191	255	
11972.671	1	1	0	0	0.28019	0.37236	0.37241	0.077873	0.31388	0.18752	0.26472	0.13048	0.079909	0.066478	0.24582	0.19648	0.092644	0.13761	0.078709	0.24628	-1.6792	-1.9792	-2.1417	-2.0542	-2.4021	-2.1458	-1.8417	-2.3792	-1.9229	-2.2604	-2.3375	-2.0187	-2.3917	-2.1937	-2.0958	-2.6229	-78.062	16.055	32.069	26.648	109.398	-98.217	164.290	172.445	2.152	-148.671	-87.609	120.158	98.997	34.618	-121.279	131.403	0.00080717	0.00053186	0.00024273	834.76	4.7799e-06	2.0397e-06	833.51	287.99	4.0645e-06	2.0607e-07	321.37	133.17	114.2	56.516	3.5704e-06	69.065	0.00053359	0.00049243	0.00013955	821.99	5.3598e-06	5.5147e-06	821.55	284.87	5.4237e-06	5.3274e-06	318.25	131.36	113.16	55.919	5.3581e-06	68.54	179.664	-94.800	-98.993	-161.959	-77.145	73.725	-162.689	-156.801	-74.225	-153.316	-158.022	-153.480	-152.644	-146.582	-45.758	-149.102	-8191	255	
11972.792	1	1	0	0	0.26312	0.11829	0.37698	0.23355	0.10477	0.17296	0.10417	0.1647	0.10483	0.43474	0.15237	0.20304	0.10928	0.19904	0.036695	0.26814	-1.4083	-2.2271	-2.2521	-1.8625	-2.3604	-2.0542	-2.1667	-2.3021	-2.0083	-1.95	-2.3417	-1.9937	-2.425	-2.2458	-2.0479	-2.4562	38.353	-76.541	-47.658	118.460	3.121	110.521	164.191	142.279	-107.729	-172.665	175.187	157.551	153.716	110.593	-71.436	117.823	0.00076486	0.0004366	0.00011505	835.34	3.6473e-06	2.984e-06	832.49	287.46	6.6366e-06	2.6127e-06	317.78	131.7	113.34	56.252	5.6415e-06	68.688	0.00051731	0.00049158	0.00013567	824.31	5.3427e-06	5.3388e-06	823.25	284.67	5.2836e-06	5.2113e-06	317.02	130.57	112.3	55.742	5.318e-06	68.198	181.630	-91.296	-126.431	-162.089	-77.259	-48.306	-163.135	-157.217	-46.081	-20.186	-158.272	-153.519	-152.926	-146.967	-57.398	-149.813	-8191	255	
11972.863	1	1	0	0	0.12148	0.10761	0.15482	0.2416	0.17402	0.071978	0.31071	0.24723	0.18557	0.22128	0.13573	0.22956	0.23045	0.24607	0.1996	0.2912	-1.6396	-2.0958	-2.3646	-1.8854	-2.2771	-2.0792	-1.9604	-2.4188	-2.1271	-2.0042	-2.3312	-1.9979	-2.1958	-2.3917	-1.8333	-2.3229	-108.186	-155.509	16.306	-153.470	131.911	154.493	114.297	114.512	-69.788	-133.587	61.195	157.973	-39.199	-128.634	35.490	109.794	0.00078121	0.00070126	0.00015035	838.34	5.3323e-06	4.3214e-06	835.88	287.87	3.7355e-06	3.6085e-06	321.44	131.38	113.42	56.637	1.0642e-05	68.807	0.00050825	0.00047928	0.00013273	824.59	5.1133e-06	5.1893e-06	820.59	284.29	5.1634e-06	5.098e-06	316.19	130.5	112.7	56.073	5.2188e-06	68.379	179.062	-88.523	-96.901	-162.295	-88.608	-6.004	-163.119	-157.199	-9.913	-25.335	-158.283	-153.834	-153.106	-146.891	-56.398	-149.754	-8191	255	
11972.959	1	1	0	0	0.074348	0.12886	0.32034	0.44469	0.36973	0.09166	0.32933	0.16476	0.045157	0.14575	0.21463	0.20046	0.3209	0.10487	0.27047	0.099755	-1.7375	-2.0083	-2.3104	-1.9792	-2.2479	-2.3375	-1.9083	-2.4229	-2.2687	-1.9354	-2.3896	-2.1271	-2.0396	-2.4625	-1.8354	-2.4437	38.862	-60.596	-38.503	134.589	26.745	-45.543	166.803	-157.350	-62.491	139.790	-112.895	139.193	-113.953	-153.340	-91.981	72.637	0.00069651	0.00030003	0.0001766	843.78	2.4395e-06	8.6558e-06	830.87	289.76	2.5234e-06	3.4805e-06	321.69	131.77	113.14	56.497	5.3038e-06	68.874	0.00049222	0.00046723	0.00013231	825.92	5.1249e-06	5.1583e-06	819.88	285.53	5.0644e-06	5.0849e-06	317.22	130.64	112.55	56	5.2665e-06	68.468	183.643	-99.406	-90.957	-162.184	65.615	-48.310	-162.948	-156.840	-38.234	-35.092	-158.265	-153.644	-152.867	-146.693	-32.624	-149.263	-8191	255	
11973.056	1	1	0	0	0.021781	0.054753	0.083443	0.047229	0.069946	0.11713	0.17225	0.33839	0.041176	0.18635	0.14607	0.07258	0.19742	0.35822	0.022023	0.41661	-1.8042	-1.9667	-2.2521	-2.1875	-1.9458	-2.2875	-1.9917	-2.3333	-2.2042	-1.975	-2.5521	-2.1167	-1.9771	-2.5208	-1.8375	-2.4042	159.613	55.972	49.745	-25.307	95.653	-55.381	148.390	104.157	-128.977	40.623	58.893	90.160	-127.034	109.541	-162.857	108.375	0.00076309	0.0007785	0.0001045	842.48	1.3844e-06	5.4294e-06	831.92	288.03	5.5551e-06	2.9492e-06	319.21	132.96	114.1	56.631	5.5533e-06	68.85	0.00051057	0.00047796	0.00013106	825.41	5.1457e-06	5.2313e-06	821.36	285.21	5.1739e-06	5.1396e-06	316.93	131.28	112.98	56.167	5.1904e-06	68.486	178.500	-91.068	-103.964	-161.773	-80.056	-80.267	-162.768	-157.173	-29.923	9.492	-158.609	-153.788	-152.732	-146.964	-68.814	-149.759	-8191	255	
11973.174	1	1	0	0	0.20074	0.29481	0.072712	0.09748	0.21086	0.32758	0.23123	0.13372	0.25283	0.21932	0.096314	0.15606	0.10885	0.12819	0.16655	0.25629	-1.6917	-1.6896	-2.1646	-2.1229	-2.0312	-2.5229	-2.0875	-2.2521	-2.3604	-1.9312	-2.4104	-2.2833	-1.8479	-2.6375	-1.9521	-2.3521	-51.664	103.541	161.161	181.356	95.339	166.253	126.008	86.358	178.472	57.509	149.701	125.581	-156.364	143.360	-159.395	107.022	0.00073547	0.00070808	0.00018702	838.22	7.9861e-06	5.1454e-06	834.1	289.33	7.2212e-06	6.4804e-06	320.92	132.96	114.5	56.459	1.3663e-06	68.436	0.00050569	0.00046692	0.00013146	824.97	5.2096e-06	5.1852e-06	824.08	285.66	5.3324e-06	5.2315e-06	317.89	131.5	113.23	55.903	5.2881e-06	68.156	182.093	-99.392	-112.466	-162.364	-8.588	-32.234	-162.995	-157.197	-79.797	-107.202	-158.295	-153.761	-152.822	-146.954	-40.419	-150.006	-8191	255	
11973.271	1	1	0	0	0.27363	0.048129	0.086771	0.25244	0.26498	0.15437	0.20421	0.13525	0.35987	0.16615	0.25771	0.086711	0.094847	0.076267	0.032766	0.19597	-1.8542	-1.7479	-2.2333	-2.2729	-1.9792	-2.5229	-2.2313	-2.1937	-2.2229	-1.875	-2.3354	-2.2229	-1.9937	-2.5	-2.1854	-2.3187	-142.231	-55.339	13.075	158.031	-152.223	58.339	-66.665	34.626	22.783	158.436	6.711	102.380	68.657	165.320	146.223	14.081	0.0007645	0.00083747	0.00012917	837.25	2.0019e-06	4.0117e-06	831.69	288.25	3.0994e-06	3.7839e-06	318.3	131.54	113.02	55.814	1.5373e-06	67.694	0.00051454	0.00048195	0.00013462	824.5	5.2965e-06	5.327e-06	821.51	285.29	5.3811e-06	5.3218e-06	315.76	130.01	112.77	55.383	5.3089e-06	67.293	183.228	-113.263	-131.716	-162.035	-24.935	-1.338	-163.058	-156.786	-47.974	-30.795	-158.329	-153.660	-153.258	-147.316	12.754	-149.682	-8191	255	
11973.367	1	1	0	0	0.11468	0.086908	0.20054	0.1976	0.10527	0.083938	0.20166	0.13755	0.063505	0.32892	0.16675	0.23948	0.034983	0.26367	0.17699	0.19616	-1.8083	-1.85	-2.0021	-2.2146	-1.925	-2.4479	-2.1833	-2.1937	-2.4333	-2.0021	-2.2021	-2.4313	-1.9625	-2.4708	-2.0083	-2.0479	-80.100	136.553	-9.564	-167.413	46.784	115.246	147.072	176.115	-31.824	144.274	-157.316	118.329	17.684	114.314	-88.634	170.505	0.00078882	0.00024011	0.00015689	839.45	4.0367e-06	7.6207e-06	830.45	287.84	5.193e-06	3.8811e-06	320.56	131.83	113.89	56.177	1.0198e-06	67.945	0.0005122	0.00048202	0.0001328	825.64	5.2782e-06	5.2165e-06	818.96	284.98	5.2327e-06	5.301e-06	316.34	130.45	112.85	55.581	5.2575e-06	67.538	185.054	-58.830	-89.530	-162.418	-31.486	-25.179	-163.221	-156.762	-43.749	-81.020	-158.493	-153.668	-153.031	-147.321	-86.819	-150.002	-8191	255	
11973.463	1	1	0	0	0.083708	0.31154	0.1149	0.25481	0.14665	0.16662	0.28059	0.16305	0.19513	0.24466	0.13987	0.20269	0.12351	0.37189	0.17177	0.18025	-1.7875	-1.6771	-2.0938	-2.3604	-1.7958	-2.4167	-2.275	-2.1229	-2.3521	-1.9646	-2.1104	-2.2667	-1.7271	-2.5021	-2.0708	-2.1042	72.636	-146.871	-26.044	124.263	-128.631	-55.101	34.122	-77.159	19.354	45.015	9.728	87.879	95.472	-139.290	71.182	-133.369	0.00077974	0.0006185	9.6358e-05	834.71	6.5926e-06	5.3911e-06	831.64	289.08	5.9308e-06	3.8155e-06	323.29	131.95	113.77	56.355	5.2488e-06	69.026	0.0005067	0.00048546	0.00013386	823.32	5.2006e-06	5.1975e-06	821.57	285.23	5.1294e-06	5.1147e-06	318.22	130.58	112.77	55.9	5.2747e-06	68.306	-174.236	-57.592	-80.047	-162.138	-2.851	-24.418	-163.132	-157.154	-87.755	-30.376	-158.441	-153.742	-153.067	-147.212	-52.387	-149.845	-8191	255	
11973.559	1	1	0	0	0.14827	0.10767	0.030952	0.15123	0.16423	0.1423	0.26978	0.20222	0.23525	0.046557	0.13672	0.22221	0.26756	0.17016	0.21647	0.32169	-1.9792	-1.8958	-2.1896	-2.4292	-2.0979	-2.3792	-2.3792	-1.9521	-2.3729	-2.1042	-2.1813	-2.4521	-1.9354	-2.2771	-2.1437	-1.9062	177.208	-170.738	-120.028	42.895	-22.259	46.478	165.853	107.245	-0.225	-151.522	79.294	-158.033	171.140	103.637	171.005	111.937	0.0007838	0.00066577	0.0001251	838.59	4.0032e-06	6.1002e-06	836.29	289.59	4.7475e-06	5.1008e-06	322.56	132.51	113.27	56.343	1.0781e-06	69.274	0.00049916	0.00047202	0.00013364	823.91	5.1272e-06	5.0288e-06	824.02	285.76	5.1714e-06	5.1966e-06	318.56	131.46	112.95	55.942	5.1724e-06	68.71	182.767	-71.473	-90.609	-162.263	-40.986	0.278	-162.836	-157.007	-53.758	-22.521	-158.858	-154.135	-153.230	-147.102	-155.090	-150.276	-8191	255	
11973.655	1	1	0	0	0.18511	0.13355	0.14577	0.10509	0.2284	0.11172	0.14934	0.18639	0.15298	0.094704	0.27634	0.17472	0.17177	0.11907	0.12541	0.22648	-1.9271	-2.0812	-2.0125	-2.4271	-1.875	-2.1208	-2.1667	-1.8083	-2.4062	-2.05	-1.9146	-2.3063	-1.9958	-2.3229	-2.2792	-1.8646	-36.187	160.721	-11.716	57.553	-136.896	103.424	-161.006	157.166	-109.906	-142.803	161.040	-71.160	-81.061	-149.355	180.402	122.162	0.0007997	0.00050614	5.6548e-05	835.63	2.799e-06	9.2793e-06	836.44	290.07	5.6142e-06	6.5914e-06	320.77	132.26	114.04	56.311	5.6284e-06	68.146	0.00049451	0.00047848	0.0001301	823.55	5.066e-06	5.1039e-06	823.08	285.98	5.1338e-06	5.1418e-06	317.31	130.96	113.11	55.699	5.2158e-06	67.769	181.793	-80.816	-93.117	-162.393	-122.454	-16.100	-163.719	-157.791	-89.526	-51.866	-158.485	-154.320	-153.552	-147.379	-88.622	-150.307	-8191	255	
11973.751	1	1	0	0	0.094213	0.044692	0.19791	0.058574	0.18126	0.21616	0.19153	0.21221	0.25834	0.067792	0.15987	0.075448	0.21689	0.33012	0.070676	0.17113	-1.9229	-2.0062	-1.8229	-2.3958	-2.0687	-2.0979	-2.3396	-1.95	-2.1104	-2.2396	-1.9479	-2.4521	-1.8833	-2.1646	-2.1792	-2.0979	-20.737	-109.228	-175.852	-13.285	-47.358	-76.978	89.699	-0.483	-145.076	69.594	78.201	-146.423	168.957	163.167	16.318	88.783	0.00073895	0.00050968	0.00019395	835.61	5.5563e-06	4.2435e-06	831.91	289.41	5.798e-06	6.6307e-06	321.98	131.66	113.46	55.789	1.1602e-05	68.563	0.00050536	0.00048234	0.00013128	823.69	5.1044e-06	5.1744e-06	820.51	285.09	5.0241e-06	5.1532e-06	316.7	130.39	112.56	55.525	5.1919e-06	67.991	181.215	-121.103	-94.143	-162.747	-3.194	-61.092	-163.925	-157.874	-88.038	-70.728	-159.119	-154.610	-153.372	-147.672	-40.017	-150.274	-8191	255	
11973.872	1	1	0	0	0.14035	0.063704	0.17016	0.27276	0.20849	0.045449	0.19545	0.1999	0.071047	0.23065	0.18268	0.15472	0.19435	0.14201	0.38755	0.2123	-1.8167	-2.0479	-2.0062	-2.2687	-1.8958	-2.0604	-2.375	-1.8792	-2.1437	-2.3229	-1.925	-2.3271	-1.7938	-1.9562	-2.2625	-1.8958	-152.873	-36.966	151.790	-126.916	144.993	149.482	141.840	101.039	136.777	0.968	-109.297	18.582	-118.449	135.477	-109.957	166.802	0.00077071	0.00038678	9.9854e-05	835.59	6.347e-06	6.3956e-06	833.2	289.3	1.5132e-06	1.9199e-06	319.94	133.08	114.09	56.735	4.4861e-06	69.469	0.00049585	0.0004745	0.00013233	824.51	5.1469e-06	5.1178e-06	821.94	285.23	5.0856e-06	5.1145e-06	316.98	131.37	113.06	56.15	5.2298e-06	68.755	181.173	-144.036	-34.044	-163.065	-46.443	-12.245	-163.363	-157.414	-49.200	11.546	-158.537	-153.608	-152.895	-147.204	-5.178	-150.522	-8191	255	
11973.966	1	1	0	0	0.16181	0.20176	0.12319	0.32397	0.14126	0.18599	0.2486	0.18251	0.10307	0.093002	0.074809	0.21809	0.10377	0.063399	0.18876	0.22337	-1.6354	-2.2292	-1.7479	-2.3542	-2.0771	-1.9813	-2.6104	-2.1271	-2.2292	-2.3833	-1.775	-2.3958	-2.2188	-2.0333	-2.4208	-2.1125	-91.900	-61.742	-89.909	-127.754	123.518	-43.902	-157.875	173.263	-13.975	-135.378	151.319	125.268	-147.933	40.240	-71.806	100.962	0.00078905	0.00056242	7.7656e-05	838.81	5.5568e-06	4.3916e-06	837.66	289.96	4.465e-06	1.0587e-05	322.58	133.96	114.79	57.144	5.8784e-06	70.278	0.00049421	0.00046021	0.00012851	825.94	4.9816e-06	4.9941e-06	824.03	285.92	5.0274e-06	4.9478e-06	318.81	132.55	113.43	56.637	4.9959e-06	69.718	-175.391	-64.400	-63.894	-162.503	-30.089	-30.953	-163.180	-157.450	-63.898	-40.793	-158.624	-154.063	-153.387	-147.189	-74.020	-149.911	-8191	255	
11974.062	1	1	0	0	0.19417	0.11661	0.24027	0.15476	0.22743	0.095486	0.14231	0.064863	0.16429	0.24393	0.38737	0.17864	0.10391	0.2189	0.042172	0.22761	-1.6667	-2.0312	-1.9208	-2.3021	-2.275	-1.9271	-2.3625	-2.2479	-2.1	-2.3542	-1.9396	-2.5229	-2.2125	-2.075	-2.4313	-2.3021	-84.663	-48.334	10.500	3.927	176.817	-76.344	125.571	-100.079	-125.025	-112.175	94.487	140.935	134.527	112.880	55.172	165.396	0.00079652	0.00062225	0.00017566	842.29	4.3772e-06	5.416e-06	837.57	289.62	6.8567e-06	5.0611e-06	323.84	134.3	114.55	56.941	5.1596e-06	69.819	0.00049884	0.00045388	0.00012738	826.49	5.0561e-06	5.0429e-06	825.91	285.97	5.0769e-06	4.9277e-06	318.54	132.42	113.85	56.62	5.0025e-06	69.206	180.338	-72.811	-105.810	-162.345	-75.218	2.868	-163.245	-157.031	-88.205	-13.809	-159.370	-153.723	-152.966	-147.456	-44.163	-150.039	-8191	255	
11974.160	1	1	0	0	0.2593	0.27269	0.25078	0.18059	0.1047	0.26861	0.066461	0.22623	0.10774	0.1152	0.16512	0.21259	0.19812	0.24474	0.20841	0.095204	-1.8021	-2.2687	-1.7896	-2.2479	-2.3208	-1.8687	-2.3583	-2.175	-1.9937	-2.3771	-2.2604	-2.2167	-2.2917	-2.0354	-2.3854	-2.2208	21.693	145.110	-147.433	123.446	-23.864	119.725	-97.736	133.256	-12.812	-18.721	-147.815	99.917	50.094	159.757	1.093	128.320	0.00080495	0.00075888	8.6933e-05	835.85	6.8495e-06	4.0125e-06	837.53	288.76	8.4008e-06	9.709e-06	320.04	132.94	113.85	56.84	4.687e-06	69.426	0.00049517	0.00046207	0.00013014	821.85	5.0559e-06	5.1564e-06	822.82	285.69	5.1095e-06	5.0974e-06	317.12	131.77	113.54	56.226	5.0882e-06	68.759	174.589	-82.778	-113.920	-162.402	-33.360	-98.385	-163.208	-157.324	-69.403	-64.982	-158.469	-153.745	-153.369	-147.284	37.801	-149.743	-8191	255	
11974.255	1	1	0	0	0.099881	0.13073	0.19135	0.19605	0.10186	0.24222	0.11274	0.19034	0.069453	0.051559	0.076064	0.12598	0.31155	0.35919	0.23166	0.39262	-1.5354	-2.2458	-1.9521	-2.3271	-2.3875	-2.1104	-2.3063	-2.2938	-1.9667	-2.4708	-2.1104	-2.1771	-2.3688	-2.0125	-2.3979	-2.2792	-107.662	-48.591	-28.243	-155.232	-13.064	-14.621	94.598	133.621	121.516	-117.844	157.473	7.160	8.072	164.284	42.271	137.285	0.00080857	0.00060986	9.7532e-05	829.27	4.7005e-06	2.8544e-06	830.55	288.43	5.2192e-06	1.466e-06	320.33	133.33	114.15	56.739	3.6669e-06	69.944	0.00049995	0.00046716	0.00012925	818.97	5.0351e-06	5.0741e-06	819.66	285.21	5.1501e-06	5.0805e-06	318.01	131.93	113.5	56.352	5.0493e-06	69.195	182.173	-86.724	-60.574	-162.223	-95.789	-96.386	-163.163	-157.141	-107.757	182.547	-158.426	-153.826	-153.011	-146.963	-118.366	-150.024	-8191	255	
11974.351	1	1	0	0	0.1396	0.068463	0.20773	0.19824	0.10145	0.12177	0.31833	0.24006	0.23264	0.040997	0.059259	0.071877	0.040697	0.20747	0.11985	0.14259	-1.5354	-2.2188	-2.2125	-2.1688	-2.4021	-1.9729	-2.4417	-2.25	-1.8813	-2.2854	-2.0125	-2.1146	-2.4896	-2.0312	-2.1604	-2.4333	30.959	-157.150	89.179	-80.864	-26.995	117.346	61.219	165.188	-168.672	-76.629	95.212	-95.860	-67.947	158.785	-2.326	71.102	0.0007738	0.00080222	0.00011376	835.52	2.1225e-06	6.5003e-06	837.41	289.71	1.3817e-06	7.3546e-06	324.88	133.4	114.54	56.965	4.1022e-06	70.056	0.00049875	0.00046436	0.00012851	822.55	5.2104e-06	5.1544e-06	823.8	285.96	5.0647e-06	5.1281e-06	319.46	132.1	113.34	56.407	5.0759e-06	69.262	184.803	-121.085	-112.312	-162.086	81.626	-60.957	-162.806	-157.068	-14.010	8.700	-157.989	-153.710	-152.754	-146.986	-16.576	-149.912	-8191	255	
11974.472	1	1	0	0	0.10193	0.15557	0.11541	0.13393	0.21012	0.2292	0.20187	0.12058	0.19526	0.022106	0.22327	0.35814	0.051922	0.088529	0.24349	0.23986	-1.3833	-2.3521	-2.1063	-1.9479	-2.4479	-2.0229	-2.2708	-2.2313	-1.9208	-2.3187	-2.2771	-2.0125	-2.3396	-2.2167	-1.8646	-2.4458	79.512	-40.351	-159.405	166.948	120.307	70.446	-162.790	30.095	-87.637	23.464	-34.371	144.065	-52.723	125.948	182.019	101.114	0.00073217	0.00052986	0.00031089	841.19	6.402e-06	1.6523e-06	835.51	290.4	5.5815e-06	3.5509e-06	323.01	134.08	113.65	56.801	5.2647e-06	68.999	0.00050315	0.00046807	0.00013127	824.94	5.0514e-06	5.1616e-06	825.48	286.56	5.2232e-06	5.13e-06	319.15	132.6	113.51	56.268	5.1865e-06	68.631	180.230	-96.582	-62.254	-162.016	-38.087	-116.251	-162.914	-156.850	-83.016	-64.703	-158.613	-153.509	-152.467	-146.881	-20.091	-150.184	-8191	255	
11974.568	1	1	0	0	0.26084	0.17797	0.10669	0.13181	0.22172	0.336	0.19845	0.37107	0.25045	0.037397	0.20935	0.29208	0.19835	0.15504	0.10622	0.25139	-1.3354	-2.2062	-2.3792	-1.9167	-2.3417	-1.9083	-2.2313	-2.4813	-1.7583	-2.4062	-2.0187	-1.9771	-2.3667	-1.9667	-2.0438	-2.5729	175.624	-130.627	-9.308	152.106	-77.641	54.834	122.268	136.383	-59.365	42.218	108.569	140.345	-173.211	54.907	-131.517	183.649	0.00081413	0.00067936	3.9729e-05	835	3.2195e-06	4.6287e-06	834.14	289.88	3.7137e-06	5.4257e-06	322.96	132.72	114.29	56.684	4.3181e-06	68.864	0.00049868	0.00046348	0.00013083	821.92	5.1897e-06	5.2165e-06	820.78	285.83	5.182e-06	5.0391e-06	317.76	131.42	113.3	56.193	5.1874e-06	68.52	179.281	-95.271	-112.248	-162.418	-83.275	-5.962	-162.946	-156.965	-158.392	1.619	-158.284	-153.278	-152.192	-146.648	-85.481	-149.319	-8191	255	
11974.664	1	1	0	0	0.2216	0.1685	0.093927	0.11205	0.17928	0.19018	0.30859	0.11604	0.072157	0.37939	0.31005	0.18203	0.18922	0.37081	0.21782	0.20809	-1.5146	-2.1437	-2.2604	-1.8021	-2.3396	-2.075	-1.8937	-2.4688	-1.8667	-2.125	-2.2562	-1.9438	-2.4771	-2.3083	-1.8167	-2.4042	-96.184	-29.570	-65.731	-161.586	8.180	-138.683	-167.605	87.830	-138.805	-166.148	157.033	-68.632	113.620	157.635	180.845	26.164	0.00068943	0.00025784	0.00018479	831.39	2.173e-06	9.6148e-06	830.01	290.15	3.0409e-06	1.407e-06	322.05	133.49	114.28	56.979	3.9016e-06	69.191	0.0004928	0.00046643	0.00012893	820.31	5.0521e-06	5.0919e-06	819.07	285.71	5.1255e-06	5.0844e-06	316.92	131.86	113.67	56.446	5.1684e-06	68.765	183.541	-115.641	-128.215	-161.656	-26.032	-30.682	-163.297	-157.091	178.738	-40.223	-158.769	-154.292	-153.148	-147.250	-88.579	-150.346	-8191	255	
11974.736	1	1	0	0	0.24218	0.23404	0.26633	0.07018	0.17103	0.19737	0.30902	0.32355	0.083867	0.17813	0.14005	0.17503	0.038068	0.19708	0.042818	0.20684	-1.475	-2.1417	-2.3458	-1.8896	-2.1896	-2.1896	-2.05	-2.4833	-1.9042	-2.0771	-2.3521	-2.0583	-2.3521	-2.2271	-1.8083	-2.4625	99.567	46.469	71.678	-170.837	-13.385	-141.616	40.879	159.034	-130.283	-132.194	151.277	64.836	2.361	-174.201	-114.213	122.808	0.00068931	0.00072461	0.00014952	832.06	1.8348e-06	1.8654e-06	829.97	289.09	5.1626e-06	2.7335e-06	320.01	134.08	115.51	56.937	6.8778e-06	68.758	0.00049678	0.00046599	0.00013198	821.35	5.1082e-06	5.2047e-06	819.64	286.05	5.164e-06	5.1777e-06	317.13	132.26	114.24	56.265	5.1967e-06	68.27	181.446	-63.506	-110.203	-162.040	-14.096	-26.002	-163.358	-157.147	-46.282	-66.811	-158.361	-153.570	-153.035	-147.052	-30.304	-149.829	-8191	255	
11974.856	1	1	0	0	0.24159	0.17201	0.1012	0.086155	0.040275	0.24996	0.24112	0.15519	0.063701	0.47157	0.12442	0.22643	0.092187	0.37602	0.06697	0.42608	-1.5542	-2.0104	-2.4188	-1.9229	-2.2292	-2.1458	-1.9792	-2.3479	-2.0833	-2.0458	-2.4146	-2.1021	-2.2167	-2.2687	-1.9042	-2.1583	10.580	-55.349	95.070	96.447	27.409	-102.312	109.686	158.359	101.063	-38.423	85.446	-102.134	-8.047	-129.615	88.229	124.267	0.00081441	0.00037328	0.00011926	839.15	3.6548e-06	4.486e-06	838.43	289.14	4.7974e-06	5.3672e-06	322.25	133.48	114.78	56.229	5.0103e-06	68.359	0.00050637	0.00047854	0.00013511	824.94	5.2394e-06	5.1753e-06	825.16	286.1	5.273e-06	5.2489e-06	318.51	131.87	113.71	55.768	5.3369e-06	67.726	179.290	-67.299	-80.099	-162.360	-46.884	9.620	-162.985	-156.952	-98.459	-52.392	-158.920	-153.805	-152.947	-146.984	-40.983	-150.314	-8191	255	
11974.951	1	1	0	0	0.3577	0.15998	0.16996	0.17533	0.048293	0.13372	0.059094	0.21908	0.07632	0.090726	0.046254	0.10013	0.090219	0.32367	0.164	0.20116	-1.5167	-2.0938	-2.2542	-1.9854	-2.0979	-2.1979	-2.0875	-2.4354	-1.9917	-1.8937	-2.525	-2.1542	-1.8958	-2.4813	-1.8646	-2.325	-102.980	108.017	113.517	154.249	168.946	-4.191	-151.710	136.411	93.194	-161.388	176.460	144.593	166.765	56.875	-71.159	134.506	0.00080599	0.00022561	0.00023917	827.75	4.8148e-06	5.8062e-06	830.7	288.94	8.3592e-06	6.2113e-06	320.53	131.98	113.36	56.155	5.821e-06	68.157	0.00051536	0.00048191	0.00013459	820.36	5.2047e-06	5.2384e-06	820.7	285.03	5.1687e-06	5.1954e-06	316.78	131.05	112.96	55.644	5.086e-06	67.805	174.858	-58.828	-87.986	-162.179	-27.191	-21.633	-163.384	-157.462	-49.137	-34.594	-158.771	-153.842	-153.561	-147.954	-58.683	-150.692	-8191	255	
11975.047	1	1	0	0	0.16398	0.18145	0.13905	0.086194	0.21011	0.13577	0.27195	0.09567	0.034878	0.27308	0.10294	0.15984	0.19419	0.24811	0.096123	0.10563	-1.6396	-1.9688	-2.3063	-2.0083	-1.9604	-2.1813	-1.9583	-2.2062	-2.1937	-1.8229	-2.4313	-2.0417	-2.0396	-2.4188	-1.9771	-2.4062	57.466	-171.821	10.540	-48.303	-89.958	-48.401	81.384	91.378	-24.481	114.276	82.930	-161.562	-153.027	12.931	-171.113	-105.000	0.00071769	0.00047612	0.0001791	829.97	5.4093e-06	2.261e-06	830.06	288.56	4.7332e-06	2.4416e-06	319.38	131.8	113.91	56.862	4.9306e-06	69.047	0.00049442	0.00046479	0.00012837	817.38	5.0177e-06	5.1226e-06	816.89	284.71	5.0443e-06	5.0621e-06	315.06	131	113.06	56.174	4.9712e-06	68.554	175.390	-119.209	-81.981	-163.306	-32.987	-52.963	-164.059	-157.899	-74.211	-70.537	-158.935	-154.403	-153.647	-147.880	-45.660	-150.588	-8191	255	
11975.143	1	1	0	0	0.13058	0.13699	0.013411	0.13385	0.27398	0.23036	0.07401	0.076855	0.13833	0.092755	0.17429	0.3771	0.019608	0.44898	0.03899	0.21861	-1.7875	-1.8042	-2.2708	-2.2479	-2.0312	-2.2917	-2.1271	-2.3	-2.4688	-1.9688	-2.3208	-2.2438	-1.9521	-2.55	-1.9937	-2.2125	-48.178	90.334	142.666	151.093	-9.302	-84.033	-73.835	146.864	-36.944	-123.662	93.833	178.458	-88.858	146.527	-163.594	154.418	0.0008264	0.00033976	0.00020903	833.99	2.0598e-06	1.1435e-06	827.26	288.97	5.7185e-06	1.7019e-06	320.54	133.87	114.51	57.292	2.5673e-06	69.657	0.00048833	0.00045388	0.00012596	820.34	4.9949e-06	5.0645e-06	816.2	285.37	4.979e-06	4.9058e-06	316.75	132.11	113.72	56.674	4.9939e-06	69.215	181.552	-72.165	-97.279	-162.531	32.375	-35.254	-162.885	-156.978	-72.468	29.735	-158.661	-154.019	-152.764	-147.099	-59.619	-149.766	-8191	255	
11975.263	1	1	0	0	0.074095	0.02057	0.12664	0.35439	0.096739	0.18215	0.018255	0.21886	0.079646	0.29423	0.063663	0.23903	0.12481	0.047164	0.24762	0.32888	-2.0146	-1.8125	-2.1104	-2.3375	-1.8375	-2.3812	-2.0792	-2.0646	-2.3521	-1.8312	-2.2729	-2.2229	-2.0604	-2.5125	-1.9021	-2.1333	-31.277	-163.581	125.028	-115.104	84.141	-45.745	-57.971	2.541	114.160	-173.545	101.982	126.926	-165.649	74.980	64.419	117.521	0.00075686	0.00035914	5.6706e-05	837.46	4.4574e-06	6.8602e-06	832.26	289.82	5.2058e-06	5.8e-06	319.72	133.58	114.71	57.119	4.4747e-06	69.981	0.00048181	0.00044993	0.00012604	821.36	4.9349e-06	4.928e-06	821.21	285.73	4.9897e-06	5.0099e-06	317.23	132.5	113.99	56.558	5.0327e-06	69.304	181.149	-63.943	-81.006	-162.314	-21.693	17.354	-163.099	-157.328	-90.534	-47.674	-158.997	-154.277	-153.408	-147.557	-56.406	-150.199	-8191	255	
11975.360	1	1	0	0	0.090073	0.13762	0.18311	0.13648	0.17369	0.2826	0.55444	0.19615	0.13247	0.11911	0.30984	0.29651	0.1034	0.1979	0.22478	0.15524	-1.8563	-1.8937	-2.2042	-2.3333	-1.8042	-2.3604	-2.3708	-2.025	-2.2542	-1.8229	-2.1771	-2.2542	-1.7583	-2.4708	-1.9646	-1.9917	-155.496	-58.360	163.467	132.355	-96.582	114.986	86.744	-141.386	83.380	12.676	-31.645	-59.187	159.829	-154.926	-5.606	95.538	0.00071963	0.00032257	9.4462e-05	841.2	3.3791e-06	7.8496e-06	837.25	288.07	8.383e-06	5.0689e-06	322.24	132.73	113.77	56.412	6.262e-06	68.728	0.00049072	0.00046088	0.00012727	823.44	4.9603e-06	5.0023e-06	823.48	285.38	5.0216e-06	5.0295e-06	317.29	131.31	113.35	56.078	5.0961e-06	68.372	181.379	-87.098	-79.662	-162.724	-10.764	-37.020	-163.070	-157.350	-45.409	-23.292	-158.983	-154.084	-153.125	-147.162	-47.656	-149.958	-8191	255	
11975.431	1	1	0	0	0.090583	0.37964	0.11598	0.31527	0.10329	0.34692	0.24253	0.36973	0.16965	0.092445	0.17745	0.14961	0.31396	0.307	0.21649	0.44831	-1.9833	-1.9958	-2.125	-2.3917	-1.7979	-2.2938	-2.1042	-2.0458	-2.4562	-1.9667	-2.2271	-2.3917	-1.7917	-2.3833	-2.0938	-2.2896	-8.899	-78.028	-81.859	146.267	-172.095	10.416	78.155	120.590	95.236	-8.079	15.674	115.175	98.251	174.616	-151.311	110.974	0.0007307	0.00037218	0.00018331	831.74	4.2171e-06	3.1446e-06	829.27	288.76	6.8347e-06	8.7866e-06	321.26	131.73	114.14	56.571	2.7583e-06	69.14	0.00048435	0.00045204	0.00012796	820.17	4.9535e-06	4.8701e-06	816.21	285.04	4.9151e-06	4.9486e-06	314.96	130.99	113.12	56.185	4.9599e-06	68.444	176.937	-76.209	-107.327	-162.492	-30.900	-9.652	-163.357	-157.628	-33.976	4.153	-158.532	-154.151	-153.266	-147.447	-82.001	-150.266	-8191	255	
11975.552	1	1	0	0	0.26704	0.12517	0.16435	0.44424	0.20758	0.074705	0.23202	0.25071	0.10921	0.074202	0.12811	0.078835	0.1778	0.10117	0.12357	0.14607	-2.0625	-1.9479	-2.0625	-2.325	-1.8667	-2.2083	-2.3167	-1.8708	-2.4375	-2.1625	-2.0458	-2.3396	-1.7812	-2.1917	-2.3917	-1.9396	0.740	-136.115	81.711	173.601	167.990	6.054	178.205	127.310	-77.427	147.188	-117.555	-168.893	181.711	145.239	12.461	-110.487	0.00083392	0.00032158	0.00012599	833.99	5.6862e-06	2.6337e-06	832.28	287.05	5.9e-06	1.4464e-06	320.96	132.52	114.06	56.941	4.1007e-06	69.016	0.00048357	0.00044759	0.00012464	819.84	4.9074e-06	4.874e-06	817.49	284.71	4.8688e-06	4.8779e-06	315.27	131.27	113.24	56.387	4.9507e-06	68.711	178.837	-136.149	-54.374	-162.709	-77.534	-47.827	-163.573	-157.596	-31.680	145.976	-159.351	-154.739	-153.526	-147.930	-25.085	-150.606	-8191	255	
11975.648	1	1	0	0	0.089719	0.041354	0.27226	0.095084	0.2402	0.092773	0.12154	0.097438	0.1534	0.11085	0.074938	0.049032	0.17617	0.18352	0.13733	0.27991	-1.9688	-1.9292	-2.0292	-2.5021	-1.7333	-2.225	-2.4604	-2.0229	-2.2729	-2.1937	-2.0729	-2.3458	-2.0104	-2.0333	-2.3458	-1.925	137.451	-65.606	47.097	-1.982	-14.931	87.959	80.838	-141.462	107.617	65.782	28.565	13.839	51.981	161.651	155.966	49.740	0.00075122	0.00045546	0.00013347	838	7.2213e-06	5.1267e-06	829.11	288.44	2.6233e-06	8.5191e-06	320.87	133.19	114.3	56.924	1.0736e-06	69.587	0.00047849	0.00045561	0.00012432	821.79	4.9486e-06	4.9144e-06	818.65	285.35	4.9302e-06	4.8518e-06	316.83	132.07	113.63	56.501	4.9268e-06	69.095	182.077	-8.095	-77.539	-163.315	-49.421	-85.234	-163.835	-157.736	-81.233	13.765	-159.687	-154.575	-153.389	-147.744	-137.754	-150.174	-8191	255	
11975.744	1	1	0	0	0.22335	0.13842	0.10683	0.42425	0.19214	0.26053	0.32747	0.071253	0.087303	0.21163	0.19047	0.25803	0.29822	0.44732	0.33338	0.012992	-1.8646	-2.0083	-1.7792	-2.4583	-1.8833	-2.0667	-2.3479	-1.9917	-2.3187	-2.1771	-1.7708	-2.4042	-2.0125	-2.1292	-2.2812	-2.1833	40.640	140.117	-133.875	-164.149	98.425	92.841	94.146	125.458	-6.285	152.781	71.630	166.354	76.645	-172.187	-46.043	-11.918	0.0007877	0.00018986	0.00016648	834.62	5.6187e-06	2.7853e-06	833.07	291.17	5.6202e-06	7.0874e-06	321.55	134.05	115.04	57.175	4.3259e-06	70.129	0.00048021	0.00045154	0.00012488	821.24	4.9789e-06	4.873e-06	821.77	286.96	4.9452e-06	4.9609e-06	317.85	132.61	113.7	56.703	4.9356e-06	69.298	181.111	-86.979	-95.542	-162.968	-6.133	-6.461	-163.700	-157.529	-47.704	-3.179	-158.932	-154.361	-153.673	-147.784	-47.464	-150.710	-8191	255	
11975.840	1	1	0	0	0.14817	0.15122	0.47947	0.1652	0.16599	0.15203	0.16544	0.11227	0.084891	0.10872	0.12766	0.20018	0.18391	0.3281	0.18847	0.32285	-1.8771	-2.2375	-1.8917	-2.3187	-1.9979	-1.8583	-2.525	-2.1813	-2.2812	-2.1125	-2.1833	-2.2375	-2.1063	-2.075	-2.2646	-2.0708	182.272	-78.794	-124.214	-156.613	175.999	-137.336	79.549	148.157	112.607	-72.435	118.336	-173.276	103.072	141.548	89.406	155.782	0.00076813	0.00032804	0.00012976	831.17	4.5681e-06	4.3396e-06	830.55	289.13	2.8906e-06	8.2839e-06	316.79	132.68	114.59	56.684	2.5977e-06	69.089	0.00048442	0.00045221	0.00012365	821.22	4.7592e-06	4.8603e-06	818.78	285.7	4.7826e-06	4.9198e-06	315.06	131.37	113.52	56.232	4.9797e-06	68.482	180.938	-93.193	-102.314	-162.599	-75.957	-88.990	-163.438	-157.813	-45.202	-27.128	-158.986	-154.129	-153.533	-147.575	-89.071	-150.298	-8191	255	
11975.961	1	1	0	0	0.31755	0.30381	0.28086	0.15652	0.20063	0.24774	0.085303	0.17521	0.1645	0.1886	0.2569	0.11267	0.063129	0.31106	0.2456	0.18934	-1.6833	-2.0042	-2.0312	-2.2375	-2.0208	-1.9625	-2.5229	-1.9813	-2.1562	-2.3271	-1.9833	-2.4104	-2.2771	-1.9188	-2.4125	-1.9937	16.280	166.291	-148.685	129.521	148.031	53.669	108.325	33.661	-170.908	16.838	181.583	-122.526	26.808	-137.036	-114.652	126.713	0.00083195	0.00057012	0.00011518	830.51	5.6688e-06	2.9697e-06	832.64	290.1	6.1162e-06	4.3388e-06	321.33	132.58	113.66	56.631	6.0254e-06	69.111	0.00048667	0.00045463	0.00012513	820.67	4.9966e-06	4.9774e-06	819.22	285.61	4.9708e-06	4.9245e-06	317.3	131.39	113	56.197	4.9511e-06	68.304	181.971	-115.799	-104.211	-162.348	-55.919	20.947	-163.853	-157.381	-94.177	4.946	-158.805	-154.303	-153.602	-147.348	-31.139	-150.266	-8191	255	
11976.033	1	1	0	0	0.22293	0.15322	0.2987	0.12757	0.093921	0.23774	0.11459	0.18877	0.052502	0.13184	0.091588	0.44701	0.31605	0.14312	0.22433	0.11558	-1.5562	-2.4021	-1.8333	-2.3312	-2.1375	-1.7667	-2.4583	-2.1146	-2.0833	-2.4125	-1.9854	-2.2687	-2.5167	-2.1063	-2.3292	-2.1437	68.086	73.116	149.001	-39.397	143.566	-57.804	48.304	149.061	-126.964	-174.071	-41.651	100.164	-154.759	129.312	-54.953	179.483	0.00076759	0.00047628	7.1998e-05	836.46	2.379e-06	1.7836e-06	833.91	289.25	1.9937e-06	5.0398e-06	321.05	132.92	113.52	56.632	7.1429e-07	69.007	0.0004888	0.00046067	0.00012766	821.17	4.9151e-06	4.9151e-06	821.16	285.56	4.9689e-06	4.9324e-06	316.54	131.41	113.09	56.116	4.9627e-06	68.51	177.122	-98.203	-87.197	-162.562	-18.960	37.142	-163.534	-157.438	-45.069	-37.845	-159.377	-154.633	-153.800	-147.702	169.095	-150.362	-8191	255	
11976.152	1	1	0	0	0.056986	0.04173	0.065146	0.028389	0.18991	0.01849	0.27173	0.49592	0.097928	0.20245	0.053481	0.35981	0.3235	0.10295	0.17337	0.11724	-1.6083	-2.3937	-2.1333	-2.2792	-2.4229	-2.0271	-2.3771	-2.2479	-1.9604	-2.4875	-2.0479	-2.2792	-2.4083	-2.0146	-2.2687	-2.2479	166.009	92.298	-171.816	-106.040	-85.258	139.886	-154.496	106.890	-164.584	4.352	-21.527	-149.933	154.660	-14.247	21.225	13.123	0.00073924	0.00047458	0.00015257	836.25	6.8399e-06	4.3511e-06	838.42	288.49	2.6713e-06	6.168e-06	322.27	133.99	114.68	57.104	4.4356e-06	69.657	0.0004842	0.00045562	0.00012538	821.4	4.9304e-06	4.9522e-06	823.22	285.14	4.9211e-06	4.8859e-06	318.24	132.43	113.4	56.577	4.837e-06	69.153	181.511	-106.901	-114.302	-162.274	-55.488	-61.823	-163.140	-157.205	-61.177	-59.089	-158.193	-153.597	-152.761	-147.257	-99.324	-149.832	-8191	255	
11976.248	1	1	0	0	0.21283	0.21286	0.16466	0.03737	0.095816	0.28205	0.14907	0.11174	0.26084	0.093281	0.12967	0.12414	0.21668	0.40587	0.23212	0.17897	-1.4542	-2.5646	-1.7979	-2.1917	-2.4062	-2.1312	-2.3417	-2.3958	-1.9229	-2.4437	-1.95	-2.0438	-2.4333	-1.8333	-2.2646	-2.4104	-165.359	44.377	60.477	163.885	-140.815	137.482	139.690	112.417	61.120	57.789	66.743	-90.395	125.382	-152.840	-87.751	85.479	0.00071422	0.00048863	0.00014418	836.64	4.7778e-06	3.8515e-06	837.6	289.07	5.6209e-06	1.9249e-06	321.39	133.89	114.99	56.91	5.0739e-06	69.42	0.00047598	0.00044743	0.0001231	820.34	4.8297e-06	4.7726e-06	822.72	285.27	4.8551e-06	4.7209e-06	316.4	131.98	113.13	56.36	4.7431e-06	68.876	177.847	-72.789	-85.577	-162.257	-114.685	-20.804	-163.016	-157.289	-65.656	51.798	-158.454	-153.923	-153.109	-147.252	-34.672	-149.805	-8191	255	
11976.344	1	1	0	0	0.16849	0.11688	0.2497	0.2353	0.1876	0.076963	0.13941	0.062833	0.16928	0.23859	0.11257	0.1815	0.088581	0.034221	0.22303	0.31448	-1.475	-2.6396	-2.0479	-2.0042	-2.4437	-2.1521	-2.3771	-2.3312	-2.0083	-2.3396	-2.175	-2.0604	-2.4667	-2.225	-2.1792	-2.3521	-127.194	-148.450	-124.999	-101.622	-51.733	170.377	96.234	67.164	-140.320	146.152	-94.055	63.079	69.526	-14.083	-120.412	125.274	0.00078666	0.00071917	5.7398e-05	830.42	7.2798e-06	6.7966e-06	830.34	289.28	7.4539e-06	6.7603e-06	320.34	132.72	114.67	56.958	7.1612e-06	69.872	0.00047342	0.00043091	0.00012079	818.26	4.7769e-06	4.7733e-06	818.53	284.77	4.8045e-06	4.7472e-06	316.22	131.65	113.24	56.486	4.711e-06	69.226	182.410	-63.266	-25.901	-162.297	-18.735	-18.691	-162.817	-156.812	-86.852	0.491	-157.993	-153.735	-152.808	-146.834	-65.472	-149.405	-8191	255	
11976.440	1	1	0	0	0.29238	0.13719	0.22948	0.073428	0.16376	0.12653	0.2686	0.11949	0.31064	0.14072	0.41199	0.17989	0.080948	0.075096	0.12987	0.23109	-1.4521	-2.2583	-2.1562	-2.0021	-2.2208	-2.1333	-2.2375	-2.4062	-1.7667	-2.2146	-2.3375	-1.8563	-2.3937	-2.0958	-1.9458	-2.4313	-147.097	-152.935	90.054	159.307	66.744	118.535	139.522	73.282	49.162	52.700	76.863	91.293	-125.455	71.013	-155.812	132.219	0.00082455	0.00030963	0.00023759	833.21	3.3558e-06	4.272e-06	833.77	289.51	4.025e-06	7.071e-06	322.56	134.74	114.39	57.316	7.5863e-06	70.337	0.00047338	0.0004236	0.00012008	819.41	4.7797e-06	4.715e-06	821.58	285.45	4.7487e-06	4.7143e-06	318.35	132.57	113.4	56.677	4.771e-06	69.606	182.998	-143.245	-85.277	-162.105	-28.130	-55.136	-162.696	-156.740	-76.987	-5.850	-157.655	-153.446	-152.773	-146.685	-72.425	-149.649	-8191	255	
11976.561	1	1	0	0	0.21543	0.14131	0.2935	0.33442	0.19069	0.051953	0.1147	0.16781	0.19135	0.20811	0.1358	0.16196	0.16794	0.099221	0.22856	0.24117	-1.4583	-2.2062	-2.0312	-1.9271	-2.3167	-1.9771	-2.2354	-2.6667	-1.8125	-2.2542	-2.2438	-1.9625	-2.2687	-2.1312	-2.0667	-2.5938	97.046	-161.122	161.119	26.338	85.817	93.868	130.576	105.430	-150.836	178.586	168.816	99.825	62.870	115.505	-84.969	157.272	0.00076472	0.00070758	0.00012406	839.57	4.9457e-06	3.2713e-06	835.59	288.66	6.0359e-06	3.019e-06	322.26	134.29	114.25	56.875	4.1929e-06	70.412	0.00046716	0.00043787	0.00011991	822.08	4.6786e-06	4.637e-06	825.9	285.71	4.6717e-06	4.7446e-06	317.78	132.73	113.27	56.531	4.7088e-06	69.669	181.120	-43.612	-80.572	-161.616	-71.444	34.212	-162.658	-156.755	-71.196	-91.081	-158.003	-153.544	-152.894	-146.761	-54.313	-149.316	-8191	255	
11976.657	1	1	0	0	0.22824	0.036293	0.052667	0.10862	0.11875	0.053174	0.21749	0.21908	0.30059	0.2948	0.20602	0.10011	0.10242	0.21877	0.24397	0.065096	-1.4271	-2.0292	-2.2396	-1.9604	-2.1729	-2.0917	-2.0958	-2.3854	-2.0604	-2.0667	-2.3229	-1.8979	-2.0604	-2.2083	-1.8229	-2.45	34.634	36.459	-38.529	100.970	97.571	120.634	89.333	177.415	-0.002	1.288	106.478	114.559	153.042	118.149	60.943	58.528	0.00075191	0.00041013	1.0506e-05	837.2	5.1184e-06	3.8607e-06	841.47	289.45	3.8538e-06	3.2017e-06	320.45	134.32	113.95	57.371	3.1475e-06	70.036	0.00046182	0.00043016	0.00012184	823.68	4.6308e-06	4.7335e-06	827.07	285.44	4.6789e-06	4.6232e-06	317.46	132.36	112.75	56.594	4.5996e-06	69.491	183.608	-100.108	170.127	-162.466	-57.651	-17.101	-163.202	-157.232	-46.761	3.148	-158.807	-153.658	-153.430	-147.136	-37.859	-150.054	-8191	255	
11976.728	1	1	0	0	0.26563	0.30886	0.16042	0.1118	0.20039	0.02398	0.13145	0.14726	0.1849	0.11739	0.13135	0.20642	0.24789	0.15607	0.079609	0.19495	-1.525	-2	-2.4229	-1.8188	-2.4104	-2.2208	-2.1417	-2.4854	-2.1125	-2.1021	-2.4646	-2.0167	-2.3583	-2.3958	-1.9292	-2.4396	-110.964	0.699	61.324	-50.581	56.738	26.453	86.941	180.251	170.842	162.888	-79.486	163.415	119.480	-116.865	-106.977	108.926	0.00073774	0.00042869	0.00011674	833.26	3.3255e-06	1.8711e-06	836.8	288.65	7.4268e-06	7.0474e-06	320.89	134	114.49	57.486	2.4304e-06	70.563	0.00046253	0.00042041	0.0001181	818.98	4.5879e-06	4.6075e-06	822.25	285.01	4.6106e-06	4.6602e-06	316.02	132.17	113.11	56.758	4.6294e-06	69.773	183.470	-101.986	-41.779	-162.141	-25.849	-27.642	-163.087	-157.033	-88.766	-28.283	-158.786	-153.756	-152.783	-147.031	-86.669	-150.345	-8191	255	
11976.825	1	1	0	0	0.33075	0.048354	0.12076	0.18176	0.089907	0.29384	0.20003	0.30167	0.1891	0.14152	0.13812	0.14978	0.15101	0.28325	0.081875	0.14183	-1.575	-1.9188	-2.3542	-1.8458	-2.25	-2.3521	-1.9792	-2.375	-2.0438	-1.9167	-2.4542	-2.175	-1.9583	-2.4042	-2.1021	-2.3833	-153.288	-3.716	-145.159	126.982	-148.263	-150.891	90.127	110.275	-38.883	-149.351	70.092	159.866	-87.757	153.492	-59.196	166.621	0.00076211	0.00059505	7.0629e-05	834.68	4.6782e-06	4.4031e-06	833.02	289.56	4.3803e-06	4.2025e-06	320.38	134.28	115.13	57.651	2.2332e-06	70.577	0.00046045	0.00041825	0.00011659	821.68	4.6015e-06	4.567e-06	823.02	285.85	4.5848e-06	4.6156e-06	317.24	132.86	113.42	57.065	4.617e-06	69.972	179.769	-132.860	-54.176	-162.355	-30.261	7.966	-163.539	-157.284	-75.082	-33.123	-158.820	-154.178	-153.128	-147.302	-87.964	-150.120	-8191	255	
11976.944	1	1	0	0	0.16393	0.11192	0.29395	0.16757	0.041173	0.14625	0.13972	0.13793	0.36914	0.10428	0.25926	0.24733	0.30672	0.34971	0.38961	0.087463	-1.6792	-1.8333	-2.4188	-2.075	-2.1021	-2.5042	-2.1813	-2.2438	-2.1562	-2.0896	-2.4188	-2.0875	-2.0042	-2.3688	-1.8729	-2.3354	91.701	156.737	-37.791	-155.492	-48.201	-41.097	166.521	42.971	150.565	37.204	174.960	177.946	65.124	164.225	69.661	-46.410	0.00081347	0.00056798	0.00012712	837.98	4.784e-06	3.7469e-06	835.15	289.77	6.4074e-06	5.4133e-06	318.14	134.18	114.89	57.166	4.6057e-06	69.958	0.00046575	0.00042366	0.00011818	822.79	4.7133e-06	4.689e-06	823.92	286.28	4.7883e-06	4.7909e-06	316.8	132.63	113.62	56.571	4.8319e-06	69.213	180.671	-132.603	-84.959	-162.450	-34.719	9.381	-163.196	-157.246	-71.358	7.371	-159.156	-153.770	-153.370	-147.277	-71.943	-150.008	-8191	255	
11977.040	1	1	0	0	0.23264	0.23549	0.24949	0.22886	0.17273	0.25154	0.24772	0.21704	0.13514	0.12903	0.098542	0.15575	0.078589	0.1317	0.13313	0.2237	-1.6688	-1.8146	-2.3917	-2.2458	-2.0312	-2.4208	-2.0375	-2.4604	-2.2833	-1.8854	-2.5542	-2.1479	-2.0625	-2.5917	-1.8417	-2.4062	-113.377	-151.722	-154.547	80.519	72.825	5.906	-64.505	151.869	131.160	-156.563	111.702	-164.076	24.949	172.547	9.783	144.470	0.00076237	0.00041153	9.8984e-05	835.52	4.0648e-06	3.8672e-06	834.84	288.86	5.8238e-06	1.1032e-05	324.12	134.14	114.24	56.937	6.399e-06	69.264	0.00046959	0.0004374	0.000123	822.97	4.7721e-06	4.7647e-06	824.62	286.21	4.7832e-06	4.7246e-06	317.94	132.24	113.21	56.175	4.8293e-06	68.611	-175.100	-75.799	-102.847	-162.616	-71.539	-53.613	-163.709	-157.625	-97.949	-26.459	-158.901	-154.236	-153.076	-147.448	-12.643	-150.455	-8191	255	
11977.136	1	1	0	0	0.16904	0.11208	0.23974	0.13909	0.24661	0.10809	0.51619	0.1167	0.13534	0.22924	0.1138	0.16472	0.11977	0.23285	0.20513	0.17797	-1.85	-1.7375	-2.2667	-2.2708	-2.0375	-2.4708	-2	-2.2854	-2.0979	-2.0417	-2.1437	-2.2292	-1.9979	-2.4417	-2.0021	-2.1833	-111.230	-59.484	49.331	-151.028	-116.314	-151.406	148.142	162.911	125.795	-93.166	-156.987	104.664	-110.936	-142.587	173.473	122.637	0.0006874	0.00062281	0.00011393	835.77	3.1779e-06	2.9474e-06	836.35	288.3	5.8603e-06	1.7028e-06	321.42	132.34	114.87	56.513	2.3603e-06	68.643	0.00046924	0.00043667	0.00012094	821.36	4.7814e-06	4.7671e-06	822.97	285.01	4.7618e-06	4.7061e-06	316.04	131.02	112.71	55.89	4.8004e-06	68.06	175.600	-97.319	-121.134	-162.509	-56.760	2.800	-163.301	-157.339	-84.698	-41.531	-158.682	-154.238	-153.361	-147.373	-88.219	-150.059	-8191	255	
11977.232	1	1	0	0	0.14189	0.19839	0.17963	0.1979	0.10635	0.41081	0.077509	0.24094	0.10314	0.31044	0.18436	0.31759	0.19512	0.14577	0.27077	0.035976	-1.7708	-1.8396	-2.2896	-2.1292	-1.9542	-2.275	-2.0521	-2.1292	-2.1667	-1.7271	-2.2687	-2.2875	-1.8458	-2.3667	-1.8125	-2.2229	179.857	-136.421	-57.609	136.981	72.593	-27.016	148.755	89.243	-165.712	-93.903	59.395	90.084	-126.720	138.361	-97.296	101.003	0.0007121	0.0004796	0.00019204	835.91	4.3536e-06	5.168e-06	839.37	289.78	4.2648e-06	2.1795e-06	320.8	132.89	113.61	56.409	4.2042e-06	68.411	0.00046877	0.00043861	0.00011984	819.47	4.72e-06	4.7613e-06	822.12	285.06	4.751e-06	4.7622e-06	316.15	131.27	112.57	55.772	4.8265e-06	68.019	175.185	-61.316	-54.208	-162.456	-26.128	-8.301	-162.343	-156.555	-84.718	-48.294	-158.059	-153.450	-152.818	-147.179	-24.087	-149.643	-8191	255	
11977.328	1	1	0	0	0.32758	0.30211	0.11443	0.35807	0.10183	0.12593	0.069397	0.22567	0.15316	0.1695	0.16323	0.11528	0.094806	0.23114	0.11457	0.17432	-1.9896	-1.7042	-2.2958	-2.2687	-1.8188	-2.2021	-2.1729	-2.2042	-2.1604	-1.9229	-2.2417	-2.3583	-1.7146	-2.2667	-2.0312	-2.0917	-133.591	-66.027	75.840	-138.534	18.185	16.240	141.464	16.430	97.004	-106.287	39.107	165.094	52.431	158.424	-73.256	-134.886	0.00074038	0.00054404	9.3797e-05	835.86	2.1048e-06	5.7654e-06	836.58	289.08	7.2799e-06	5.7708e-06	321.35	132.91	113.73	56.421	3.5525e-06	68.747	0.00046175	0.00042559	0.00012145	820.09	4.6816e-06	4.7052e-06	822.28	285.03	4.7581e-06	4.7105e-06	316.71	131.18	112.89	55.819	4.7234e-06	67.988	180.525	-99.569	-99.944	-162.130	-34.634	-65.272	-163.397	-157.272	-136.934	-28.849	-158.339	-153.886	-153.320	-147.095	-80.044	-150.020	-8191	255	
11977.424	1	1	0	0	0.18842	0.064723	0.18551	0.33514	0.48029	0.25716	0.28405	0.098183	0.22624	0.20713	0.24227	0.26413	0.22612	0.42342	0.31202	0.18989	-1.9583	-1.9771	-2.0583	-2.4521	-1.7313	-2.2708	-2.2604	-2	-2.5792	-1.8146	-2.0625	-2.3208	-1.825	-2.2125	-2.05	-1.9562	-56.855	168.588	-121.231	127.831	66.912	-159.084	-173.898	-170.512	89.705	48.503	172.623	123.845	71.139	153.044	14.486	-118.660	0.00068482	0.00018596	0.00020067	835.05	2.4774e-06	5.0559e-06	841.03	289.72	6.2332e-06	8.0285e-06	325.97	132.92	113.51	56.179	5.3217e-06	68.531	0.0004703	0.00043301	0.0001198	821.02	4.7111e-06	4.8274e-06	825.71	285.29	4.8081e-06	4.7595e-06	318.22	131.76	112.78	55.624	4.7711e-06	67.868	179.210	-101.977	-106.285	-162.304	27.515	-28.910	-163.326	-157.364	-43.057	-80.823	-158.806	-153.900	-153.143	-147.068	-39.572	-149.995	-8191	255	
11977.520	1	1	0	0	0.15113	0.059122	0.17003	0.35861	0.21683	0.21298	0.12948	0.34018	0.26308	0.026795	0.21329	0.28048	0.038926	0.068868	0.30295	0.075202	-1.9167	-1.8521	-2.025	-2.3625	-1.8583	-2.3208	-2.2812	-1.9792	-2.3375	-1.9583	-2.05	-2.5208	-1.9458	-2.2542	-2.1937	-1.9146	-39.314	-152.401	-134.241	159.571	51.415	-93.183	182.981	132.564	-25.635	4.501	-119.970	160.096	-37.044	-158.956	163.809	-59.856	0.00078556	0.00026613	0.00021329	837.31	6.1027e-06	5.8559e-06	837.39	288.97	4.2652e-06	4.5078e-06	320.8	132.34	113.21	55.665	3.9332e-07	67.75	0.00046295	0.00043016	0.00011982	821.37	4.766e-06	4.7421e-06	822.8	285.15	4.7173e-06	4.7504e-06	316.4	130.55	112.23	55.186	4.7256e-06	67.155	178.842	-74.351	-109.440	-162.449	-15.700	-17.237	-163.130	-157.180	-64.344	-79.591	-158.626	-153.756	-152.995	-147.141	-116.052	-149.814	-8191	255	
11977.641	1	1	0	0	0.15937	0.05734	0.26404	0.20724	0.17022	0.13366	0.053488	0.067589	0.2393	0.10263	0.10218	0.10687	0.21594	0.16303	0.25404	0.23442	-2.0208	-2.0563	-1.8	-2.3937	-1.9333	-1.9312	-2.5104	-1.9375	-2.275	-2.1375	-2.0396	-2.3146	-1.8979	-2.2042	-2.2313	-1.9	171.529	-15.041	111.905	66.754	110.937	-115.699	-169.574	182.042	105.744	-54.268	-21.260	103.197	-124.828	161.446	153.244	105.494	0.0007653	0.00013194	8.6492e-05	834.07	3.9158e-06	4.2154e-06	833.31	289.02	6.5779e-06	6.2608e-06	319.8	131.96	113.06	55.841	2.7639e-06	67.862	0.00046518	0.00043202	0.00011799	819.18	4.7114e-06	4.7203e-06	820.57	284.85	4.7509e-06	4.7575e-06	315.54	130.26	112.22	55.428	4.6643e-06	67.251	178.643	-119.660	-125.479	-162.083	-36.444	35.807	-163.341	-157.156	-53.173	-49.866	-158.555	-153.780	-153.677	-147.416	-0.212	-150.011	-8191	255	
11977.737	1	1	0	0	0.2591	0.17078	0.37477	0.16249	0.10511	0.1152	0.28342	0.21746	0.073577	0.10165	0.12353	0.14087	0.11066	0.13648	0.18382	0.11988	-1.8354	-2.1542	-1.7792	-2.4896	-1.9125	-1.9458	-2.3542	-1.9688	-2.3604	-2.0958	-1.8583	-2.4167	-2.1979	-2.0312	-2.1208	-1.9312	-67.524	77.920	-113.405	153.231	146.711	-13.453	-171.114	120.115	-108.485	-37.780	109.831	111.788	-42.768	108.971	95.287	-132.444	0.00069222	0.00062294	0.00010864	832.89	1.1253e-06	7.3056e-06	833.55	289.52	4.1823e-06	4.6673e-06	321.72	132.94	114.16	56.262	3.086e-06	68.612	0.00045848	0.00042716	0.00011978	818.5	4.7286e-06	4.6972e-06	821.28	285.76	4.6881e-06	4.7062e-06	316.7	131.18	113.06	55.808	4.7081e-06	68.023	182.818	-59.861	-77.207	-162.496	-108.937	-29.718	-163.561	-157.302	-107.929	-49.570	-158.485	-154.060	-152.814	-147.374	-36.571	-149.932	-8191	255	
11977.833	1	1	0	0	0.015274	0.15194	0.18135	0.17997	0.098497	0.34247	0.41471	0.053547	0.068291	0.14437	0.233	0.055251	0.21114	0.23632	0.21941	0.36272	-1.7271	-2.0771	-1.9312	-2.2521	-2.025	-1.9375	-2.375	-1.8687	-2.0917	-2.1958	-1.6875	-2.3896	-2.1479	-1.8917	-2.4021	-2.1	54.281	119.982	-18.311	149.826	-7.192	-19.042	140.932	169.969	-34.008	-48.691	85.041	-27.507	-100.501	179.431	-52.627	40.345	0.00076006	0.00067426	0.00019343	837.42	4.2757e-06	1.3493e-06	838.69	290.14	2.7653e-06	3.7928e-06	322.69	133.08	114.28	56.722	4.7287e-06	69.075	0.00046093	0.00043053	0.00011801	821.49	4.6692e-06	4.6658e-06	824.46	285.82	4.6523e-06	4.6613e-06	318.7	131.72	112.92	56.105	4.675e-06	68.48	181.926	-107.644	-101.307	-162.010	-82.890	-16.609	-162.974	-156.982	-55.232	-108.969	-158.338	-153.472	-152.694	-146.827	-50.864	-149.689	-8191	255	
11977.929	1	1	0	0	0.12898	0.20176	0.073226	0.23013	0.29195	0.21147	0.21362	0.12199	0.16307	0.08614	0.097218	0.5222	0.071711	0.17098	0.20157	0.29301	-1.7125	-2.2604	-1.9062	-2.2875	-2.0021	-1.8563	-2.3979	-2.0812	-2.2417	-2.4188	-1.8062	-2.3312	-2.1542	-2.1437	-2.3708	-2.1917	93.931	20.709	149.644	-156.403	171.454	-24.993	152.330	106.721	-12.667	-28.339	165.728	174.395	148.185	-133.087	-68.236	83.580	0.00077243	9.5628e-05	0.00022871	835.38	3.2142e-06	8.5571e-06	838.23	289.27	8.0988e-06	5.0229e-06	319.99	133.22	114.94	56.625	5.8403e-06	68.697	0.00045956	0.00042792	0.0001183	822.55	4.675e-06	4.6348e-06	825.12	286.05	4.6211e-06	4.6157e-06	316.37	131.48	113.06	55.908	4.6782e-06	68.081	183.255	40.230	-25.279	-161.855	-115.875	-32.304	-163.063	-156.854	-83.705	-45.805	-158.220	-154.336	-153.542	-147.338	-8.319	-150.082	-8191	255	
11978.026	1	1	0	0	0.26298	0.16155	0.17741	0.28586	0.029487	0.19903	0.11942	0.074269	0.18887	0.16555	0.034456	0.12982	0.19038	0.25096	0.035271	0.13583	-1.6562	-2.425	-1.8667	-2.1583	-2.3563	-2.1229	-2.4479	-2.1458	-2.0583	-2.3833	-1.825	-2.3625	-2.2625	-1.9479	-2.2542	-2.3479	-151.626	166.238	-103.273	155.177	-165.211	-128.208	165.268	132.382	-82.303	143.974	55.428	125.324	-111.414	-149.258	-56.255	135.500	0.00071695	0.00039479	5.6465e-05	840.62	2.3366e-06	2.6824e-06	836.54	288.93	1.9681e-06	7.061e-06	319.38	133.19	114.31	56.25	6.3697e-06	68.428	0.00046107	0.00042445	0.00011945	822.08	4.5855e-06	4.6729e-06	821.75	285.55	4.6376e-06	4.6126e-06	315.19	130.9	112.56	55.744	4.5675e-06	67.745	179.865	-24.794	-111.687	-162.191	-31.545	-3.996	-163.104	-157.236	-74.183	-17.081	-158.464	-153.492	-152.938	-146.732	-45.174	-149.263	-8191	255	
11978.120	1	1	0	0	0.12802	0.44663	0.25802	0.091572	0.080752	0.28759	0.21691	0.16237	0.091125	0.036602	0.075207	0.092542	0.23163	0.24693	0.10997	0.26178	-1.5063	-2.275	-1.7042	-1.9688	-2.3333	-1.8292	-2.4562	-2.2146	-1.9813	-2.3646	-2.0583	-2.0146	-2.2083	-1.8813	-2.3104	-2.1792	59.854	-49.794	169.016	63.823	-27.482	-24.983	87.133	162.405	-129.695	77.262	93.444	163.165	-87.064	166.262	14.785	75.956	0.00073718	0.00026297	0.00020316	840.37	2.7705e-06	3.4468e-06	833.83	289.54	5.9783e-06	6.0554e-06	322.08	133.14	114.08	56.318	6.7403e-06	68.366	0.00045945	0.00042682	0.00011898	821.94	4.6027e-06	4.6846e-06	820.13	286.09	4.7559e-06	4.7219e-06	316.9	131.39	113.3	55.888	4.7652e-06	67.917	178.653	-56.168	-110.565	-162.353	-6.018	-61.092	-163.647	-157.397	-67.215	-3.606	-159.007	-153.919	-152.572	-147.224	-38.423	-150.284	-8191	255	
11978.241	1	1	0	0	0.38438	0.37361	0.14416	0.32037	0.050983	0.15765	0.14974	0.12344	0.11035	0.0571	0.087934	0.18918	0.12891	0.11209	0.14575	0.27151	-1.425	-2.3417	-1.75	-2.0229	-2.2521	-1.8854	-2.2562	-2.3396	-1.8875	-2.2354	-2.0354	-2.0479	-2.3583	-1.9042	-2.1271	-2.3688	26.644	-2.226	-138.971	114.990	125.469	65.697	170.524	131.538	59.484	19.825	-111.621	-131.268	64.733	126.240	87.463	108.555	0.00076177	0.00055415	0.0002291	837.09	4.4113e-06	3.6033e-06	833.58	290.72	2.8878e-06	9.6253e-06	321.68	132.97	113.93	56.24	4.3894e-06	68.283	0.00046302	0.00043243	0.00011981	822.48	4.7909e-06	4.6995e-06	824.24	286.98	4.781e-06	4.7065e-06	317.52	131.48	112.95	55.745	4.8025e-06	67.732	177.382	-30.534	-109.053	-162.470	-35.980	6.246	-163.519	-157.389	-36.768	-33.622	-159.134	-154.512	-153.584	-147.499	-0.054	-150.224	-8191	255	
11978.337	1	1	0	0	0.21842	0.27535	0.15472	0.20721	0.33214	0.22709	0.15503	0.096075	0.068594	0.072452	0.061989	0.033762	0.072502	0.29919	0.1988	0.21008	-1.4208	-2.2188	-2.1729	-2.2125	-2.4146	-1.9771	-2.1625	-2.2667	-1.8708	-2.2958	-2.0896	-2.1375	-2.3771	-2.2417	-1.9438	-2.3688	107.126	39.008	28.276	178.962	-78.841	4.356	-12.231	107.820	-136.116	-17.273	59.485	51.061	-121.703	147.889	13.981	96.056	0.00070816	0.00033125	9.5543e-05	834.72	4.6375e-06	4.0986e-06	839.31	291.11	4.9471e-06	9.386e-07	322.04	133.04	113.98	56.015	3.4675e-06	68.209	0.00047936	0.00044113	0.0001214	823.09	4.7987e-06	4.818e-06	825.42	286.94	4.7576e-06	4.7013e-06	317.55	131.56	113.07	55.562	4.7682e-06	67.498	183.336	-75.613	-65.023	-162.841	-67.427	10.286	-163.263	-157.553	-58.095	-10.624	-159.150	-154.212	-153.116	-147.299	-53.903	-149.826	-8191	255	
11978.433	1	1	0	0	0.16246	0.22105	0.17256	0.23512	0.11455	0.16553	0.36769	0.14767	0.051143	0.25455	0.17277	0.20977	0.18775	0.27975	0.2834	0.40336	-1.6375	-2.2042	-1.9583	-2.2833	-2.4021	-1.8042	-2.3	-2.4625	-1.6854	-2.2542	-2.3583	-2.0167	-2.3479	-2.2146	-1.85	-2.4375	132.103	36.618	-154.437	159.746	70.771	117.108	-174.328	7.605	-145.861	-13.637	-0.410	148.967	78.364	173.747	-171.378	123.923	0.00071618	0.00052457	0.00019044	836.33	3.3799e-06	7.1207e-06	841.29	290.34	3.422e-06	6.2934e-06	324.8	131.99	113.99	56.141	4.9814e-06	67.627	0.00047782	0.00043895	0.000122	820.43	4.6895e-06	4.863e-06	824.63	286.93	4.7602e-06	4.6467e-06	318.16	130.95	112.75	55.545	4.806e-06	67.283	184.141	-138.042	-81.151	-161.945	-120.675	-11.363	-162.972	-157.207	-33.061	-42.149	-158.339	-154.032	-153.060	-147.504	-91.102	-150.125	-8191	255	
11978.529	1	1	0	0	0.16433	0.30183	0.066307	0.13375	0.1383	0.077877	0.11458	0.27473	0.086615	0.31139	0.19865	0.1502	0.1303	0.39336	0.24595	0.1522	-1.4833	-2.2938	-2.3375	-2.025	-2.3833	-2.1833	-2.2021	-2.5271	-1.9042	-2.2229	-2.1854	-1.9562	-2.3646	-2.1625	-2.1771	-2.5792	-6.032	87.029	57.119	-128.136	147.817	154.405	139.849	-166.798	-116.239	179.433	-142.807	183.726	7.618	-174.996	90.474	152.895	0.00081453	0.00053968	9.9026e-05	836.19	3.1014e-06	6.481e-06	831.83	289.73	4.5625e-06	4.5509e-06	319.5	132.92	113.76	56.053	5.7831e-06	67.743	0.00046706	0.0004329	0.00012208	822.04	4.7284e-06	4.836e-06	822.97	285.96	4.7835e-06	4.7393e-06	316.83	131.15	112.87	55.492	4.8405e-06	67.304	180.355	-158.685	-109.050	-162.473	60.677	-18.284	-163.392	-157.480	-49.349	-59.446	-158.521	-153.876	-153.181	-147.108	-27.741	-150.338	-8191	255	
11978.601	1	1	0	0	0.2543	0.16699	0.13737	0.089525	0.071318	0.01941	0.093019	0.24119	0.13467	0.30738	0.16776	0.28946	0.088598	0.5515	0.041051	0.4061	-1.4292	-2.3208	-2.2646	-1.8	-2.4896	-2.3479	-2.05	-2.5167	-1.7417	-2.2229	-2.3187	-1.9813	-2.1979	-2.1604	-1.8917	-2.5104	-142.977	67.747	115.382	-107.264	-107.992	89.251	175.664	143.992	6.369	127.162	-134.770	-175.685	41.921	118.996	-32.900	136.689	0.00078208	0.00086518	0.00013703	836.52	4.5154e-06	3.6412e-06	835.13	290.16	3.7223e-06	9.5538e-06	320.58	132.96	114.77	56.186	4.5119e-06	67.97	0.00047849	0.00044152	0.00012294	823.57	4.849e-06	4.857e-06	825.16	286.41	4.887e-06	4.8388e-06	316.74	131.03	112.98	55.567	4.8837e-06	67.475	182.796	-77.314	-66.272	-162.207	10.373	-35.853	-163.206	-158.290	-40.601	-40.424	-159.527	-154.678	-153.998	-147.876	-53.358	-150.656	-8191	255	
11978.721	1	1	0	0	0.26851	0.18003	0.11924	0.29693	0.073666	0.040273	0.18203	0.17716	0.22895	0.18736	0.1685	0.23451	0.22194	0.12796	0.11075	0.24709	-1.4979	-1.9583	-2.4125	-1.9917	-2.1917	-2.0792	-1.9146	-2.3438	-2.0208	-1.9104	-2.2875	-2.0271	-2.2208	-2.4271	-1.9	-2.5125	62.696	67.089	-93.351	132.596	-28.515	-21.476	112.424	170.944	-170.466	71.879	-19.470	-166.617	-163.694	-134.942	181.021	63.300	0.00080886	0.00066443	0.00022935	835.28	6.357e-06	2.7581e-06	842.61	290.45	3.7788e-06	6.5652e-06	324.18	133.34	113.5	56.584	6.4109e-06	69.143	0.0004698	0.00044133	0.00012315	822.09	4.8104e-06	4.7512e-06	828.01	286.63	4.7363e-06	4.794e-06	318.58	131.91	113.13	55.992	4.7613e-06	68.382	180.645	-52.011	-95.992	-163.166	-33.792	-6.507	-163.901	-157.923	-18.454	19.108	-159.736	-154.386	-153.691	-147.916	-45.265	-150.271	-8191	255	
11978.818	1	1	0	0	0.12882	0.33933	0.01337	0.11017	0.094698	0.2935	0.31699	0.20681	0.15812	0.10222	0.16906	0.41527	0.24942	0.12057	0.35723	0.21896	-1.7208	-2.0167	-2.5042	-1.8979	-2.0792	-2.2729	-1.9271	-2.3479	-1.9854	-2.1875	-2.4313	-1.9583	-2.0354	-2.4646	-1.8021	-2.45	110.667	-14.530	13.186	-50.743	-122.749	96.230	159.049	36.378	-100.563	89.700	34.062	157.825	19.018	-149.168	62.278	-172.143	0.00072862	0.00022927	7.7626e-05	833.2	4.0057e-06	7.1992e-06	840.86	288.66	3.692e-06	5.2498e-06	322.99	132.79	114.76	56.275	8.5905e-06	68.651	0.0004755	0.00043913	0.00011881	822.2	4.73e-06	4.7778e-06	827.63	286.28	4.7631e-06	4.6827e-06	318.62	131.4	113.18	55.896	4.7926e-06	68.013	178.033	-116.450	-100.517	-162.671	-12.464	10.295	-163.632	-157.681	-101.877	-70.694	-158.991	-154.255	-153.806	-147.355	-68.868	-150.345	-8191	255	
11978.914	1	1	0	0	0.14854	0.20279	0.12343	0.21072	0.079396	0.275	0.13957	0.14853	0.3166	0.24494	0.23163	0.12738	0.10881	0.21801	0.089498	0.3126	-1.6562	-1.8312	-2.3563	-2.2417	-1.9604	-2.4792	-1.95	-2.3104	-2.2562	-1.9771	-2.3708	-1.8396	-2.1021	-2.45	-1.9458	-2.2021	54.161	-48.091	60.679	-119.066	-124.273	-144.995	114.901	-57.659	-3.229	-27.486	96.291	5.030	93.978	173.134	46.337	102.482	0.00079699	0.00046432	0.0001849	836.33	3.354e-06	4.7914e-06	835	290.93	2.8994e-06	4.6793e-06	321.66	133.24	113.76	56.606	4.3184e-06	68.968	0.00046265	0.00043711	0.00011939	822.19	4.7335e-06	4.6135e-06	823.53	286.27	4.6809e-06	4.7549e-06	317.35	131.35	112.92	55.935	4.7581e-06	68.251	183.552	-107.134	-78.676	-162.581	-9.551	-34.133	-163.014	-157.131	-94.187	-31.252	-158.581	-153.888	-153.147	-147.193	-81.025	-150.029	-8191	255	
11979.034	1	1	0	0	0.20455	0.27072	0.15683	0.31915	0.13541	0.093539	0.36282	0.13579	0.080332	0.1624	0.081734	0.028906	0.057964	0.17104	0.30154	0.031023	-1.9604	-1.8896	-2.3229	-2.1771	-1.925	-2.3521	-2.0146	-2.4125	-2.1208	-1.7979	-2.4437	-2.2375	-2.1521	-2.3896	-1.9875	-2.3583	-127.434	64.119	3.008	142.405	27.463	-77.470	45.500	-24.726	77.216	160.761	-162.738	21.940	163.398	163.998	69.546	155.405	0.0007086	0.00048952	6.9878e-05	832.73	1.7237e-06	6.3565e-06	837.76	290.74	5.4308e-06	4.4005e-06	322.08	133.65	114.78	56.801	1.1242e-06	69.031	0.00046533	0.00043437	0.00011873	821.29	4.7044e-06	4.7259e-06	825.07	286.87	4.7204e-06	4.6159e-06	318.31	131.77	113.39	56.206	4.7096e-06	68.499	180.177	-49.786	44.459	-162.175	43.288	-85.047	-163.084	-157.185	-64.076	-83.423	-158.764	-153.590	-152.961	-147.037	-110.450	-149.674	-8191	255	
11979.129	1	1	0	0	0.078997	0.25064	0.1381	0.30325	0.045948	0.1062	0.22997	0.13667	0.1961	0.10511	0.18427	0.24343	0.052668	0.15559	0.18823	0.16398	-1.7583	-1.9583	-2.2104	-2.1833	-2.0583	-2.425	-2.0292	-2.4188	-2.2083	-1.8625	-2.5563	-2.1354	-2.1271	-2.675	-2.0167	-2.25	13.541	159.153	54.490	154.057	-39.195	133.944	122.893	93.277	-14.518	-47.684	-29.703	171.645	-53.933	50.754	-14.561	-127.861	0.00078888	0.00047625	9.7741e-05	837.62	2.596e-06	5.2003e-06	843.49	290	2.6813e-06	6.9191e-06	325.48	133.3	114.54	56.679	2.4084e-06	68.876	0.00046583	0.00043902	0.00012027	822.32	4.6315e-06	4.6922e-06	828.55	286.8	4.7102e-06	4.7042e-06	318.74	131.97	113.4	56.164	4.7868e-06	68.42	180.839	-39.040	-26.138	-162.829	-71.557	-16.753	-163.762	-157.519	-16.148	-43.147	-158.990	-154.368	-153.876	-147.273	-21.792	-150.242	-8191	255	
11979.202	1	1	0	0	0.2888	0.27537	0.13216	0.3975	0.060166	0.12863	0.29381	0.2654	0.11444	0.1862	0.14074	0.098435	0.12435	0.34233	0.1903	0.24401	-1.8833	-1.9021	-2.2375	-2.5125	-1.8604	-2.4979	-2.1271	-2.3104	-2.3229	-1.8375	-2.25	-2.3812	-1.7458	-2.3458	-2.2687	-2.0542	150.269	1.992	-139.192	148.592	-3.209	-63.812	85.462	60.521	-45.491	-64.569	155.201	184.127	76.304	-165.506	37.475	-139.912	0.00071823	0.00029701	8.4604e-05	840.72	5.0504e-06	1.7694e-06	840.82	291.09	4.239e-06	4.8576e-06	321.22	133.05	114.72	56.367	2.5315e-06	68.963	0.00046811	0.00044013	0.00011986	824.97	4.7437e-06	4.6799e-06	828.15	287.21	4.7284e-06	4.6894e-06	317.33	131.48	113.06	55.871	4.7365e-06	68.211	181.465	-65.680	-24.176	-162.523	-25.085	-163.268	-163.183	-157.221	-120.859	-4.997	-158.513	-153.619	-152.831	-147.299	-40.348	-150.123	-8191	255	
11979.321	1	1	0	0	0.12622	0.28049	0.11097	0.39188	0.11997	0.14875	0.32099	0.24303	0.29454	0.27443	0.24658	0.048615	0.17692	0.2993	0.10504	0.18247	-2.0312	-1.8729	-2.2458	-2.2542	-1.9417	-2.3917	-2.0854	-2.1646	-2.5563	-1.9083	-2.1813	-2.325	-1.8625	-2.4229	-2.2479	-1.9625	124.090	-46.624	109.987	86.413	-61.511	127.954	163.885	160.268	-118.772	-142.085	153.559	165.754	114.262	-158.567	82.232	132.358	0.00073214	0.00042942	9.1142e-05	834.62	6.8091e-06	6.569e-06	837.6	289.99	4.6927e-06	5.3691e-06	320.1	132.7	113.93	56.558	2.9892e-06	69.042	0.00046215	0.00042878	0.00011919	821.11	4.671e-06	4.6562e-06	823.68	286.1	4.673e-06	4.6489e-06	315.29	130.86	112.32	55.993	4.6762e-06	68.218	179.606	-55.864	-59.513	-162.249	-19.408	-14.804	-163.038	-156.938	-89.590	17.900	-158.400	-153.917	-153.309	-147.010	-33.469	-149.863	-8191	255	
11979.417	1	1	0	0	0.2089	0.17638	0.21684	0.089222	0.14353	0.27345	0.26213	0.24595	0.23053	0.16848	0.14507	0.096766	0.028987	0.082907	0.18781	0.26527	-1.9229	-2.0062	-2.2729	-2.3083	-2.0396	-2.3604	-2.5187	-1.9333	-2.3646	-1.9958	-2.1646	-2.6708	-1.8438	-2.4479	-2.2313	-2.1458	-55.718	32.832	-40.092	169.937	48.114	-125.422	118.254	140.828	-152.222	-171.360	130.242	-31.113	102.110	168.130	109.819	146.818	0.00078509	0.0009244	0.00011603	842.76	7.677e-06	4.9891e-06	838.95	290.19	8.3901e-06	6.5933e-06	322.24	133.63	114.85	56.92	5.5287e-06	69.555	0.0004595	0.00042231	0.00011863	822.05	4.6672e-06	4.6052e-06	824.81	286.23	4.6708e-06	4.6324e-06	317.22	132.07	113.36	56.394	4.6484e-06	68.83	180.352	-53.408	-73.420	-162.243	-39.887	-35.984	-163.155	-157.105	-73.347	-22.440	-158.480	-153.938	-153.007	-147.112	-64.901	-149.913	-8191	255	
11979.513	1	1	0	0	0.067805	0.09027	0.07063	0.21689	0.12849	0.28031	0.15702	0.16007	0.18847	0.17452	0.28863	0.04389	0.2842	0.11717	0.14306	0.090396	-1.925	-2.1188	-2.0333	-2.4896	-1.975	-2.4042	-2.2812	-1.9708	-2.3354	-2.0187	-2.0875	-2.5687	-2.0167	-2.2313	-2.2271	-1.9979	-69.525	-28.470	-99.164	118.289	106.677	59.144	50.166	-131.217	24.033	-21.580	-14.853	151.281	62.802	133.518	-157.621	156.067	0.00071742	0.00034419	0.00015824	839.67	3.7307e-06	5.6522e-06	837.91	290.5	8.3263e-06	5.0185e-06	322.71	133.85	114.34	56.874	8.2107e-07	69.549	0.00046244	0.00042697	0.00011758	824	4.6534e-06	4.6505e-06	824.95	286.36	4.7056e-06	4.6404e-06	317.6	132.3	113.76	56.407	4.6863e-06	68.727	182.489	-102.563	-71.328	-162.030	-73.140	-18.883	-163.271	-156.968	-64.783	-47.742	-158.430	-153.851	-153.068	-146.902	-32.355	-150.043	-8191	255	
11979.634	1	1	0	0	0.2259	0.19723	0.11068	0.037974	0.1918	0.059975	0.24204	0.1016	0.064371	0.14258	0.2647	0.16244	0.1855	0.19616	0.048374	0.18744	-1.7417	-2.0938	-2.0646	-2.4708	-1.9229	-2.2229	-2.3104	-1.975	-2.3104	-2.1833	-1.975	-2.3812	-1.9875	-2.3604	-2.0812	-1.8646	-154.649	160.354	55.518	-65.824	-155.563	134.448	83.228	5.404	-59.681	-106.788	-164.884	-115.887	171.156	171.748	-22.510	169.399	0.00081237	0.00050265	0.0001146	834.42	5.3757e-06	7.8878e-06	839.22	290.83	8.1637e-06	2.6296e-06	321.91	133.79	115.15	56.833	5.5854e-06	68.954	0.00046548	0.0004273	0.00011889	822.1	4.6738e-06	4.7325e-06	827.59	287.46	4.7037e-06	4.6637e-06	317.9	132.22	113.71	56.282	4.762e-06	68.374	183.283	-14.153	-91.267	-162.536	-56.724	-32.108	-163.180	-157.085	-75.046	-45.504	-158.922	-153.830	-152.704	-147.342	-106.508	-150.242	-8191	255	
11979.730	1	1	0	0	0.30962	0.15989	0.12886	0.2907	0.22199	0.061777	0.34604	0.41498	0.00099009	0.13431	0.12984	0.20588	0.1156	0.37762	0.25846	0.31966	-1.6625	-2.2188	-1.9208	-2.5625	-2.0521	-1.9937	-2.4146	-1.9958	-2.4437	-2.3417	-1.9354	-2.3771	-2.2	-2.2313	-2.3021	-2.0833	-85.155	184.650	-161.028	154.539	-122.446	143.517	158.350	148.387	180.000	82.746	-110.806	139.554	11.661	-171.287	181.595	121.812	0.00074907	0.00081822	0.00024384	838.46	5.5185e-06	7.1782e-07	839.58	290.57	5.9971e-06	7.0956e-06	322.08	132.48	113.29	56.815	6.5347e-06	68.765	0.00045992	0.00042887	0.00011772	823.88	4.6284e-06	4.7339e-06	823.51	286.9	4.7321e-06	4.7328e-06	317.49	131.22	112.86	56.202	4.6607e-06	67.891	183.734	-99.430	-98.047	-162.051	-42.840	33.240	-163.165	-156.876	-78.514	-25.252	-158.189	-153.624	-152.922	-146.940	-60.117	-149.843	-8191	255	
11979.826	1	1	0	0	0.10829	0.055583	0.29839	0.034727	0.11671	0.039912	0.27663	0.1984	0.088817	0.29231	0.064539	0.26332	0.35459	0.19699	0.086735	0.078498	-1.8625	-2.225	-1.9104	-2.5083	-2.1708	-1.9458	-2.5396	-2.0646	-2.0687	-2.3667	-1.8875	-2.3854	-2.175	-2.1063	-2.3812	-2.0917	-91.356	155.498	117.369	-22.424	1.158	184.885	101.430	103.166	-17.308	-128.355	-49.258	88.372	148.513	159.739	-77.811	60.221	0.00075412	0.00069529	0.00019538	837.53	7.1657e-06	6.7316e-07	835.18	289.71	5.8013e-06	3.3629e-06	320.75	131.92	114.75	56.519	3.754e-06	68.285	0.00046013	0.00042491	0.00012035	821.86	4.6878e-06	4.603e-06	822.96	285.82	4.6914e-06	4.6562e-06	315.51	130.96	113.24	55.907	4.7364e-06	67.867	181.387	-70.046	-111.584	-162.238	-62.644	-58.102	-163.072	-156.933	-69.260	-46.473	-158.374	-153.648	-152.805	-146.857	-41.861	-149.702	-8191	255	
11979.898	1	1	0	0	0.27445	0.15172	0.11016	0.21789	0.19361	0.055348	0.077357	0.34297	0.13619	0.026008	0.19649	0.0019536	0.01988	0.32751	0.05235	0.13385	-1.6187	-2.1896	-1.9604	-2.3979	-2.1104	-2.0083	-2.3167	-2.0542	-2.05	-2.4688	-1.9875	-2.4667	-2.2979	-2.0896	-2.4083	-2.1396	6.658	-164.569	-145.015	30.318	34.422	4.947	164.537	162.016	-109.624	-93.574	-25.015	180.000	90.083	146.383	-99.080	177.181	0.0007517	0.00058164	0.00017857	838.9	2.9152e-06	4.85e-06	837.95	289.19	5.5126e-06	4.0982e-06	321.93	133.25	113.63	56.848	1.9094e-06	69.278	0.00045825	0.00042676	0.00011621	821.28	4.5962e-06	4.6393e-06	823.36	285.64	4.6032e-06	4.5773e-06	315.36	131.37	112.6	56.259	4.633e-06	68.435	178.916	-90.863	-72.613	-162.137	-71.933	-10.041	-163.063	-156.907	-49.874	-70.190	-158.362	-153.096	-152.780	-146.558	-35.042	-149.181	-8191	255	
#DATA ENDS
