BOXY.EXE: ISS Imagent and Oximeter Data Acquisition Program Version 0.80
Ascii Record File

#ACQ INFORMATION
2  Detector Channels 
16  External MUX Channels 
1  Auxiliary Channels 
5000  Waveform (CCF) Frequency (Hz)
1  Waveforms Skipped 
30  Waveforms Averaged 
1  Cycles Averaged 
16  Acquisitions per Waveform 
10.0806  Updata Rate (Hz) 

#FILE INFORMATION
TRUE -- External MUX Channel results are PARSED.
FALSE -- AC DC and Phase are NOT grouped.
TRUE -- Companion Program Settings File CREATED.
FALSE -- AC data not excluded
FALSE -- DC data not excluded
FALSE -- Phase data not excluded
FALSE -- Auxillary Chn. data not excluded
Tab delimiters

#CALIBRATION STATE
TRUE -- Waveform Calibration Values APPLIED.


#AUX CALIBRATION VALUES
Val Type	aux-1	

Term	1.0000e+00	
Factor	0.0000e+00	


#WF CALIBRATION VALUES
A = Detector Channel
Val Type	A-AC1	A-AC2	A-AC3	A-AC4	A-AC5	A-AC6	A-AC7	A-AC8	A-AC9	A-AC10	A-AC11	A-AC12	A-AC13	A-AC14	A-AC15	A-AC16	A-DC1	A-DC2	A-DC3	A-DC4	A-DC5	A-DC6	A-DC7	A-DC8	A-DC9	A-DC10	A-DC11	A-DC12	A-DC13	A-DC14	A-DC15	A-DC16	A-Ph1	A-Ph2	A-Ph3	A-Ph4	A-Ph5	A-Ph6	A-Ph7	A-Ph8	A-Ph9	A-Ph10	A-Ph11	A-Ph12	A-Ph13	A-Ph14	A-Ph15	A-Ph16	

Term	0.00000e+00	0.00000e+00	0.00000e+00	0.00000e+00	0.00000e+00	0.00000e+00	0.00000e+00	0.00000e+00	0.00000e+00	0.00000e+00	0.00000e+00	0.00000e+00	0.00000e+00	0.00000e+00	0.00000e+00	0.00000e+00	0.00000e+00	0.00000e+00	0.00000e+00	0.00000e+00	0.00000e+00	0.00000e+00	0.00000e+00	0.00000e+00	0.00000e+00	0.00000e+00	0.00000e+00	0.00000e+00	0.00000e+00	0.00000e+00	0.00000e+00	0.00000e+00	0.00000e+00	0.00000e+00	0.00000e+00	0.00000e+00	0.00000e+00	0.00000e+00	0.00000e+00	0.00000e+00	0.00000e+00	0.00000e+00	0.00000e+00	0.00000e+00	0.00000e+00	0.00000e+00	0.00000e+00	0.00000e+00	
Factor	1.00000e+00	1.00000e+00	1.00000e+00	1.00000e+00	1.00000e+00	1.00000e+00	1.00000e+00	1.00000e+00	1.00000e+00	1.00000e+00	1.00000e+00	1.00000e+00	1.00000e+00	1.00000e+00	1.00000e+00	1.00000e+00	1.00000e+00	1.00000e+00	1.00000e+00	1.00000e+00	1.00000e+00	1.00000e+00	1.00000e+00	1.00000e+00	1.00000e+00	1.00000e+00	1.00000e+00	1.00000e+00	1.00000e+00	1.00000e+00	1.00000e+00	1.00000e+00	X	X	X	X	X	X	X	X	X	X	X	X	X	X	X	X	

B = Detector Channel
Val Type	B-AC1	B-AC2	B-AC3	B-AC4	B-AC5	B-AC6	B-AC7	B-AC8	B-AC9	B-AC10	B-AC11	B-AC12	B-AC13	B-AC14	B-AC15	B-AC16	B-DC1	B-DC2	B-DC3	B-DC4	B-DC5	B-DC6	B-DC7	B-DC8	B-DC9	B-DC10	B-DC11	B-DC12	B-DC13	B-DC14	B-DC15	B-DC16	B-Ph1	B-Ph2	B-Ph3	B-Ph4	B-Ph5	B-Ph6	B-Ph7	B-Ph8	B-Ph9	B-Ph10	B-Ph11	B-Ph12	B-Ph13	B-Ph14	B-Ph15	B-Ph16	

Term	0.00000e+00	0.00000e+00	0.00000e+00	0.00000e+00	0.00000e+00	0.00000e+00	0.00000e+00	0.00000e+00	0.00000e+00	0.00000e+00	0.00000e+00	0.00000e+00	0.00000e+00	0.00000e+00	0.00000e+00	0.00000e+00	0.00000e+00	0.00000e+00	0.00000e+00	0.00000e+00	0.00000e+00	0.00000e+00	0.00000e+00	0.00000e+00	0.00000e+00	0.00000e+00	0.00000e+00	0.00000e+00	0.00000e+00	0.00000e+00	0.00000e+00	0.00000e+00	-1.60165e+02	-1.56046e+02	-1.61601e+02	-1.84043e+02	-1.15639e+02	-8.35182e+01	-1.55479e+02	-1.62015e+02	-1.02200e+02	-1.19732e+02	-1.85372e+02	-1.70396e+02	-1.86982e+02	-1.76531e+02	-6.46452e+01	-1.49226e+02	
Factor	2.80052e-05	7.83278e-05	3.39611e-05	2.47397e-01	8.53685e-07	8.94540e-07	1.74294e-01	5.63954e-02	8.49358e-07	1.01448e-06	2.25253e-01	3.31667e-02	6.79303e-02	9.94483e-03	1.03214e-06	1.41766e-02	3.98363e-07	4.02558e-07	1.11943e-07	1.12903e-01	4.40606e-09	4.40072e-09	7.81490e-02	2.63565e-02	4.40888e-09	4.39813e-09	8.24592e-02	1.43961e-02	2.55369e-02	4.44917e-03	4.40686e-09	6.06539e-03	X	X	X	X	X	X	X	X	X	X	X	X	X	X	X	X	



#DISTANCE SETTINGS
A = Detector Channel
A-1	A-2	A-3	A-4	A-5	A-6	A-7	A-8	A-9	A-10	A-11	A-12	A-13	A-14	A-15	A-16	

2.5000e+00	3.0000e+00	2.5000e+00	3.0000e+00	2.0000e+00	3.0000e+00	1.5000e+00	3.0000e+00	3.0000e+00	3.0000e+00	3.0000e+00	3.0000e+00	3.0000e+00	3.0000e+00	1.5000e+00	3.0000e+00	

B = Detector Channel
B-1	B-2	B-3	B-4	B-5	B-6	B-7	B-8	B-9	B-10	B-11	B-12	B-13	B-14	B-15	B-16	

1.0000e+01	1.0000e+01	1.0000e+01	1.4400e+00	1.0000e+01	1.0000e+01	1.5100e+00	1.9400e+00	1.0000e+01	1.0000e+01	1.9900e+00	2.4900e+00	2.4100e+00	2.9000e+00	1.0000e+01	2.9800e+00	




#DATA BEGINS
time	group	step	mark	flag	A-AC1	A-AC2	A-AC3	A-AC4	A-AC5	A-AC6	A-AC7	A-AC8	A-AC9	A-AC10	A-AC11	A-AC12	A-AC13	A-AC14	A-AC15	A-AC16	A-DC1	A-DC2	A-DC3	A-DC4	A-DC5	A-DC6	A-DC7	A-DC8	A-DC9	A-DC10	A-DC11	A-DC12	A-DC13	A-DC14	A-DC15	A-DC16	A-Ph1	A-Ph2	A-Ph3	A-Ph4	A-Ph5	A-Ph6	A-Ph7	A-Ph8	A-Ph9	A-Ph10	A-Ph11	A-Ph12	A-Ph13	A-Ph14	A-Ph15	A-Ph16	B-AC1	B-AC2	B-AC3	B-AC4	B-AC5	B-AC6	B-AC7	B-AC8	B-AC9	B-AC10	B-AC11	B-AC12	B-AC13	B-AC14	B-AC15	B-AC16	B-DC1	B-DC2	B-DC3	B-DC4	B-DC5	B-DC6	B-DC7	B-DC8	B-DC9	B-DC10	B-DC11	B-DC12	B-DC13	B-DC14	B-DC15	B-DC16	B-Ph1	B-Ph2	B-Ph3	B-Ph4	B-Ph5	B-Ph6	B-Ph7	B-Ph8	B-Ph9	B-Ph10	B-Ph11	B-Ph12	B-Ph13	B-Ph14	B-Ph15	B-Ph16	aux-1	digaux	

19435.287	1	1	0	256	0.074636	0.089506	0.26894	0.14569	0.0034625	0.032207	0.16311	0.084884	0.24193	0.25864	0.31118	0.065594	0.30569	0.28839	0.13308	0.23461	-1.4021	-2.0292	-1.7062	-2.1542	-2.0062	-1.725	-2.4167	-1.8542	-1.9833	-2.2021	-1.6125	-2.0021	-1.9167	-1.8958	-2.0417	-1.9062	124.300	155.416	102.041	-65.273	150.713	-13.936	123.388	220.049	-27.988	49.345	224.162	-71.726	217.012	254.807	-80.739	147.371	0.00043647	0.00071208	0.00010973	1172.5	3.6858e-06	4.9814e-06	1297.3	454.27	3.3687e-06	6.6922e-06	572.56	234.1	173.22	81.267	8.2517e-06	114.22	0.0001714	0.00016586	4.6422e-05	1011.4	1.8052e-06	1.8105e-06	1141.8	395.9	1.8301e-06	1.8077e-06	423.22	195.35	128.64	67.588	1.8211e-06	93.378	160.296	-21.757	-43.251	-83.761	-48.067	23.421	-84.488	-78.772	129.851	11.724	-79.828	-76.257	-75.203	-70.113	-80.244	-72.567	-8191	255	
19435.383	1	1	0	0	0.15796	0.21285	0.13172	0.20304	0.1291	0.13993	0.051702	0.0901	0.28182	0.10234	0.081062	0.037509	0.23998	0.14895	0.057216	0.25966	-1.4937	-2.1146	-1.6104	-2.0104	-1.9729	-1.5646	-2.3896	-1.8354	-1.6313	-2.1458	-1.6646	-2.1396	-2.025	-1.8104	-2.2042	-2.1063	171.287	250.021	100.624	224.758	35.589	96.998	248.502	79.561	81.867	207.847	-40.703	-64.549	-49.184	211.685	69.868	191.579	0.00053525	0.00030848	0.00015141	1172.3	9.4319e-06	5.2462e-06	1296.4	458.53	2.7476e-06	3.9868e-06	571.55	235.25	174.24	81.349	8.2592e-06	114.67	0.00017235	0.00016533	4.5626e-05	1010.3	1.8056e-06	1.7868e-06	1145.1	396.92	1.7858e-06	1.7865e-06	424.76	196.19	128.96	67.687	1.7989e-06	93.425	151.908	33.446	-57.781	-83.216	-0.743	27.102	-84.704	-79.042	-45.806	-29.831	-79.739	-76.352	-75.428	-70.444	66.478	-72.669	-8191	255	
19435.480	1	1	0	0	0.11138	0.10423	0.12951	0.32269	0.23638	0.044388	0.2231	0.18619	0.091913	0.14937	0.1779	0.17333	0.2326	0.18117	0.22469	0.2621	-1.4583	-2.1104	-1.5792	-1.9521	-2.275	-1.6333	-2.2125	-2.0687	-1.5312	-2.1083	-1.9354	-2.2	-2.3625	-1.8104	-2.0104	-2.1937	11.448	29.209	225.431	202.893	254.223	86.554	166.409	259.061	-62.692	153.877	62.589	228.786	248.441	-34.390	181.250	235.488	0.00060193	0.00043122	0.0001073	1173.1	4.5974e-06	5.6701e-06	1288.5	454.33	1.0749e-06	4.8582e-06	569.23	234.49	174.8	81.381	9.2407e-06	114.43	0.00017171	0.00016333	4.5276e-05	1008.3	1.759e-06	1.7817e-06	1137.2	395.21	1.7955e-06	1.7809e-06	422.08	195.07	128.75	67.883	1.8182e-06	93.489	160.346	-22.516	33.273	-83.224	19.052	-2.952	-84.584	-78.838	46.868	118.047	-80.236	-76.452	-75.234	-70.215	14.125	-72.425	-8191	255	
19435.600	1	1	0	0	0.13608	0.10391	0.26047	0.12425	0.094733	0.054057	0.067291	0.1836	0.23353	0.11243	0.24176	0.12526	0.27759	0.063332	0.07509	0.036831	-1.1292	-1.8813	-1.8271	-1.8083	-2.1688	-1.7667	-2.0312	-2.1896	-1.6521	-2.2479	-1.9354	-1.725	-2.2021	-1.9729	-1.7479	-2.1708	188.533	108.818	57.921	-82.565	233.305	-44.762	82.729	181.005	-42.031	207.666	108.868	236.149	238.830	-85.400	35.439	155.543	0.00055372	0.00032262	5.6609e-05	1164.1	3.3514e-06	4.2354e-06	1289.2	455.96	2.4163e-06	1.1101e-05	571.96	234.48	174	81.755	1.6971e-06	114.56	0.00017042	0.0001653	4.5364e-05	1007.2	1.8063e-06	1.7803e-06	1136.5	396.14	1.7944e-06	1.7962e-06	423.02	195.59	129.1	67.948	1.7937e-06	93.711	156.962	3.767	66.325	-83.502	-6.395	50.431	-84.385	-78.638	-9.547	-15.646	-80.112	-76.387	-74.801	-69.913	203.757	-72.669	-8191	255	
19435.695	1	1	0	0	0.15219	0.13772	0.25395	0.095432	0.2724	0.22192	0.22486	0.26868	0.22025	0.076822	0.2004	0.17973	0.13254	0.22704	0.21772	0.21557	-1.0979	-2.0812	-1.9021	-1.9562	-2.3604	-1.775	-2.1417	-2.2188	-1.7021	-2.0208	-2.0021	-1.8667	-2.2729	-1.8625	-1.9083	-2.4104	193.576	123.080	247.744	-25.030	103.862	-53.914	247.188	254.205	170.240	-65.481	5.158	126.464	137.090	-56.910	245.044	169.868	0.00057942	0.00048467	0.0001688	1172.2	2.077e-06	4.2342e-06	1293.5	455.88	5.5893e-06	3.4205e-06	577.04	235.84	172.93	81.992	2.1722e-06	115.27	0.00016977	0.00016222	4.4715e-05	1008.6	1.7756e-06	1.7646e-06	1142.8	395.73	1.7531e-06	1.7256e-06	425.43	196.92	128.76	67.992	1.7354e-06	94.267	169.943	-5.004	-53.818	-83.472	-6.642	22.293	-84.529	-78.397	-23.226	63.022	-80.151	-76.169	-74.565	-70.521	-33.936	-72.284	-8191	255	
19435.791	1	1	0	0	0.085046	0.088126	0.10074	0.2006	0.079266	0.16502	0.32198	0.29783	0.25895	0.32688	0.29447	0.12612	0.077768	0.31625	0.22436	0.26114	-1.2812	-2.075	-1.8979	-1.6875	-2.2479	-1.7229	-1.9458	-2.1083	-1.5958	-2.0167	-2.1333	-1.7521	-2.1833	-1.7792	-1.7979	-2.3812	210.714	126.973	12.070	-63.799	140.172	191.475	207.099	185.835	-96.044	-7.819	-81.370	-56.536	-88.196	182.315	260.724	204.295	0.00065571	0.00070588	0.00026522	1168.9	1.774e-06	7.8733e-07	1310.6	459.57	5.5627e-06	5.5392e-06	579.89	237.29	174.12	81.92	3.9575e-06	115.84	0.00016678	0.00015999	4.4551e-05	1010.2	1.744e-06	1.7442e-06	1153	398.02	1.7676e-06	1.7532e-06	429.46	198.1	129.1	68.085	1.7598e-06	94.516	156.107	-18.199	-29.942	-83.624	205.581	223.585	-84.603	-78.795	-48.090	11.174	-80.226	-76.309	-75.157	-70.033	-7.830	-72.436	-8191	255	
19435.887	1	1	0	0	0.10578	0.027771	0.18593	0.15535	0.051482	0.25956	0.043389	0.096624	0.021937	0.090943	0.13197	0.22423	0.10531	0.37273	0.11419	0.29444	-1.3417	-1.8958	-2.0458	-1.725	-2.1021	-1.9021	-1.8646	-2.5104	-1.5896	-1.9458	-1.9438	-1.9083	-2.225	-2.0979	-1.7479	-2.3312	99.699	50.326	-3.471	157.861	-32.422	222.937	-74.999	258.288	-53.241	180.817	165.113	240.490	204.962	213.224	182.136	261.157	0.00071559	0.00034238	0.00013453	1174.5	6.1538e-06	7.8979e-06	1301.8	457.65	4.2387e-06	1.5304e-06	571.66	234.6	173.92	81.154	3.4315e-06	114.51	0.00016811	0.00015958	4.3855e-05	1010.2	1.7331e-06	1.74e-06	1149.7	396.88	1.7316e-06	1.7269e-06	424.33	195.86	128.6	67.671	1.7353e-06	93.338	164.142	-80.673	-85.520	-83.414	46.357	36.153	-84.274	-78.576	11.765	170.780	-80.022	-76.300	-74.886	-69.878	97.641	-72.432	-8191	255	
19435.982	1	1	0	0	0.23008	0.19587	0.17524	0.3691	0.1643	0.27614	0.078388	0.21643	0.067937	0.033055	0.15555	0.23429	0.057146	0.24821	0.096462	0.32	-1.4	-1.9208	-1.8687	-1.8021	-2.0979	-1.8271	-2.0396	-2.3187	-1.6167	-1.9458	-2.0958	-1.8563	-2.0354	-2.1875	-1.4083	-2.1833	-55.756	191.542	9.966	245.201	146.638	129.209	105.708	176.194	94.933	0.474	-44.378	253.471	-14.938	187.383	86.809	252.370	0.00049853	0.00031171	7.8834e-05	1167.2	6.2442e-06	2.8631e-06	1290.2	458.08	2.5206e-06	4.4375e-06	570.46	234.32	173.69	80.643	4.9502e-06	113.91	0.00016525	0.00015805	4.4106e-05	1004.8	1.7298e-06	1.7196e-06	1141.1	396.67	1.7266e-06	1.7175e-06	424.02	195.2	128.49	67.339	1.7451e-06	92.7	169.483	-22.536	-36.701	-83.085	23.758	-20.339	-84.819	-78.898	42.867	55.887	-80.313	-76.292	-75.323	-70.143	122.658	-72.685	-8191	255	
19436.078	1	1	0	0	0.18725	0.060403	0.091138	0.26625	0.16951	0.1311	0.11743	0.27694	0.084618	0.24318	0.14692	0.14842	0.32481	0.1122	0.12519	0.23704	-1.3667	-2.0417	-2.0896	-1.8479	-1.9312	-2.0083	-1.9562	-2.3479	-1.9167	-1.9542	-2.3063	-1.7854	-1.9083	-2.2562	-1.4479	-2.2313	260.297	135.209	142.306	-82.462	-32.006	213.067	152.200	228.752	4.273	-75.749	126.777	44.482	262.746	-67.930	151.754	-93.835	0.00043151	0.00024084	5.2519e-05	1167.2	5.5381e-06	4.5332e-06	1299.1	458.69	4.9089e-06	6.9748e-06	572.38	235.17	171.23	80.41	3.8389e-06	113.28	0.00016469	0.00015935	4.3775e-05	1006.8	1.7416e-06	1.7321e-06	1146.9	397.58	1.7286e-06	1.699e-06	424.08	195.77	127.76	67.027	1.7375e-06	92.571	172.612	-36.363	4.900	-83.623	17.670	38.070	-84.748	-78.549	-8.097	-24.705	-79.864	-76.455	-75.445	-70.293	-21.514	-72.471	-8191	255	
19436.199	1	1	0	0	0.1522	0.10265	0.29091	0.22063	0.089661	0.14018	0.19185	0.24425	0.13796	0.15573	0.17437	0.19206	0.12417	0.16724	0.16068	0.19747	-1.3833	-1.6146	-1.9354	-1.7458	-1.8979	-2.125	-1.85	-2.3875	-1.8438	-1.7271	-2.4188	-2.0146	-1.925	-2.2104	-1.7833	-2.2438	33.648	160.155	178.326	123.510	144.766	197.075	219.162	164.214	16.602	89.823	-71.586	249.422	91.544	225.603	170.072	207.979	0.00058818	0.00019202	0.00027346	1175.1	4.7111e-06	6.5649e-06	1305.5	458.83	2.2163e-06	1.4852e-06	571.86	234.93	174.16	80.44	6.5213e-06	113.61	0.00016391	0.00015863	4.4001e-05	1011.3	1.7533e-06	1.7149e-06	1151.5	397.96	1.7275e-06	1.7317e-06	425.4	195.96	128.45	66.939	1.7333e-06	92.705	153.251	99.922	-65.470	-83.286	31.286	43.789	-84.628	-78.536	41.273	-3.429	-80.113	-76.278	-74.780	-70.012	61.843	-72.550	-8191	255	
19436.295	1	1	0	0	0.10497	0.12449	0.08537	0.1647	0.16095	0.10392	0.25446	0.13058	0.17258	0.30012	0.10015	0.027973	0.38119	0.0096913	0.062433	0.072942	-1.4604	-1.3687	-2.0958	-1.9625	-1.8271	-2.0417	-2.025	-2.1833	-2.0687	-1.7979	-2.1896	-2.0354	-1.8479	-2.2875	-1.8021	-2.1396	90.692	30.851	78.144	185.692	-88.869	123.653	176.730	222.289	-85.735	118.186	97.433	-65.740	-74.439	129.426	214.202	164.282	0.00061699	0.00061905	0.00016226	1174.6	7.0346e-06	5.8899e-06	1312.4	458.97	1.2558e-06	4.0608e-06	573.18	235.37	172.49	80.121	2.9849e-06	112.98	0.0001658	0.0001573	4.3882e-05	1012.5	1.7253e-06	1.7078e-06	1155.5	398.44	1.7369e-06	1.7267e-06	427.07	196.36	128.02	66.575	1.7266e-06	92.08	159.297	-86.554	-29.356	-83.707	36.620	22.744	-84.408	-78.561	-34.180	14.111	-80.318	-76.168	-75.273	-70.266	126.088	-72.455	-8191	255	
19436.391	1	1	0	0	0.1367	0.22563	0.10379	0.06953	0.30576	0.085349	0.45874	0.2353	0.093973	0.069261	0.20668	0.0074352	0.15819	0.27455	0.35555	0.34719	-1.5979	-1.75	-2.2354	-1.9917	-1.6667	-2.3458	-1.6667	-2.2021	-2.1833	-1.6812	-2.2417	-2	-1.8542	-2.3646	-1.7917	-2.1104	77.686	-86.337	29.116	132.032	-58.609	220.463	232.540	181.117	178.642	-90.176	198.542	30.495	253.725	241.265	12.528	136.971	0.00060367	0.00056467	3.9998e-05	1169.8	1.7589e-06	6.9426e-06	1296.5	456.3	4.9977e-06	7.9375e-06	572.49	233.05	172.38	79.861	7.5384e-06	111.61	0.00016555	0.00015746	4.3771e-05	1010.5	1.7267e-06	1.7131e-06	1144.8	396.37	1.7413e-06	1.7235e-06	422.66	193.72	127.93	66.532	1.7538e-06	91.341	158.240	-23.709	153.264	-83.496	-20.863	27.661	-84.108	-78.578	-8.090	-16.958	-79.667	-76.252	-75.107	-69.881	82.428	-72.394	-8191	255	
19436.465	1	1	0	0	0.016151	0.23903	0.22499	0.19224	0.11783	0.087449	0.020136	0.35047	0.096358	0.30792	0.089532	0.23689	0.21659	0.26598	0.19242	0.25287	-1.3687	-1.5271	-1.9646	-2.0938	-1.4625	-2.3333	-1.8271	-1.9771	-2.0583	-1.7458	-2.1604	-1.9917	-1.8021	-2.2042	-1.7604	-1.9875	1.643	120.307	69.643	226.061	140.713	21.956	78.043	200.499	121.850	257.606	56.346	176.510	221.672	224.970	-17.769	-77.263	0.00057858	0.00035421	0.00014275	1173	6.257e-06	8.022e-06	1286.6	454.72	6.8992e-06	3.0365e-06	569.81	232	174.15	80.26	8.0872e-06	112.15	0.00016596	0.00016036	4.4239e-05	1008.6	1.7288e-06	1.7206e-06	1137.2	394.51	1.7317e-06	1.7167e-06	420.49	193.76	128.04	66.659	1.7507e-06	91.752	157.579	10.028	6.299	-83.456	-48.274	44.162	-85.256	-78.810	30.688	-69.576	-80.017	-76.154	-74.353	-70.110	56.569	-72.509	-8191	255	
19436.582	1	1	0	0	0.35224	0.14708	0.16729	0.17203	0.23928	0.11426	0.03627	0.24515	0.084621	0.13737	0.034147	0.17922	0.20436	0.29742	0.22688	0.33284	-1.7229	-1.5542	-2.025	-1.925	-1.8292	-2.1458	-1.9	-2.1854	-2.1167	-1.5354	-2.0104	-2.0438	-1.7292	-2.2583	-1.8625	-1.725	54.280	111.774	243.064	251.286	11.333	-42.954	258.755	207.626	23.413	-8.363	177.455	145.143	153.911	-78.088	79.516	180.785	0.00050129	0.00029854	0.00030573	1172.9	4.9455e-06	5.4563e-06	1297.4	457.07	5.4942e-06	3.8115e-06	570.15	232.64	171.49	79.708	4.0096e-06	111.89	0.00016586	0.00016014	4.3615e-05	1011.1	1.7757e-06	1.7535e-06	1144.9	397.01	1.7591e-06	1.7218e-06	423.79	194.15	127.95	66.303	1.7569e-06	91.377	167.777	-40.168	4.053	-83.522	23.427	-25.794	-84.476	-78.429	56.083	-90.628	-79.948	-76.268	-74.767	-70.187	93.752	-72.232	-8191	255	
19436.680	1	1	0	0	0.095881	0.067955	0.13173	0.062621	0.32261	0.1862	0.13056	0.30534	0.4234	0.057311	0.1241	0.32473	0.1538	0.098073	0.11086	0.12405	-1.7146	-1.5938	-1.8188	-1.9354	-1.5542	-2.1667	-1.9562	-1.7542	-2.0979	-1.6562	-1.8687	-2.2479	-1.6208	-2.225	-1.6854	-1.8271	247.772	106.340	174.070	221.898	19.915	245.531	221.060	169.479	-0.446	136.292	12.345	209.138	-61.354	236.686	-37.946	55.093	0.00053508	0.00054536	0.00016415	1173.7	6.9235e-06	6.4501e-06	1299.8	457.37	3.1429e-06	4.7354e-06	576.63	232.74	172.41	79.33	8.8134e-06	111.57	0.00016509	0.00015883	4.4146e-05	1011.1	1.7444e-06	1.7412e-06	1148.8	396.23	1.7555e-06	1.7283e-06	425.62	194.17	127.99	65.874	1.7635e-06	91.073	148.485	13.639	65.987	-83.389	19.317	45.708	-84.569	-78.803	-1.748	-57.311	-80.075	-76.345	-74.759	-70.033	13.358	-72.265	-8191	255	
19436.775	1	1	0	0	0.17328	0.19365	0.032536	0.2272	0.16876	0.05834	0.19974	0.34288	0.2337	0.041739	0.20293	0.3607	0.22998	0.48768	0.046354	0.24418	-1.7938	-1.85	-1.8833	-2.2042	-1.6646	-2.1188	-2.1021	-1.6479	-2.3167	-1.8708	-2.0229	-2.1271	-1.4542	-2.0917	-1.9083	-2.0167	25.008	-10.000	226.509	139.232	-13.756	3.960	140.094	228.158	33.119	6.210	131.563	209.131	225.276	-85.417	197.434	77.716	0.00040716	0.00015542	0.00027543	1180.6	3.2783e-06	9.0577e-06	1289	453.17	1.8516e-06	1.9934e-06	567.89	230.91	173.09	78.581	4.24e-07	109.79	0.00016788	0.00015898	4.4419e-05	1014.3	1.7568e-06	1.7637e-06	1141.7	395.08	1.7599e-06	1.7586e-06	421.48	192.61	127.65	65.439	1.7589e-06	89.789	157.051	-51.207	-9.212	-83.442	-7.467	27.792	-84.623	-78.703	166.832	-16.227	-80.364	-76.248	-74.734	-69.997	260.645	-72.184	-8191	255	
19436.871	1	1	0	0	0.070258	0.22645	0.10361	0.21305	0.14667	0.13469	0.33002	0.11762	0.22268	0.19119	0.3186	0.14224	0.016272	0.29295	0.12747	0.23916	-1.625	-1.8583	-1.7042	-2.3292	-1.7	-2.0354	-2.2938	-1.8875	-2.1833	-1.9625	-1.7687	-2.4062	-1.8833	-2.0667	-2.15	-1.6938	130.584	177.960	61.644	181.620	35.093	147.908	212.792	207.950	-69.285	-85.262	-86.407	240.853	59.497	244.582	7.601	150.798	0.00061639	0.0004451	0.0001672	1174.7	4.3835e-06	4.0014e-06	1286.8	452.92	2.8564e-06	4.1066e-06	564.43	230	170.37	78.206	4.3162e-06	109.36	0.00016511	0.00016083	4.4271e-05	1006.9	1.757e-06	1.7306e-06	1135.3	393.75	1.7281e-06	1.7302e-06	418.65	191.62	126.74	65.09	1.7022e-06	89.402	163.949	-69.720	-10.352	-83.227	-54.466	78.129	-84.416	-78.602	-26.158	-64.462	-80.361	-76.084	-74.709	-69.951	23.915	-72.272	-8191	255	
19436.992	1	1	0	0	0.35132	0.21892	0.22197	0.30234	0.12988	0.21196	0.19983	0.3636	0.17658	0.079672	0.049309	0.23414	0.12519	0.26045	0.28932	0.28586	-1.7792	-1.7375	-1.8292	-2.1833	-1.6417	-2.0229	-2.1583	-1.7979	-1.9521	-2.0042	-1.7979	-2.3479	-1.8083	-1.9854	-2.1188	-1.9688	205.779	37.535	228.136	205.084	-16.401	38.216	194.282	229.182	219.751	236.747	257.247	253.103	244.193	244.413	94.579	235.340	0.00052103	0.00023433	0.0002002	1165	4.6679e-06	3.5306e-06	1292.5	453.19	1.8567e-06	1.9975e-06	566.08	230.88	172.85	78.179	5.0047e-06	109.22	0.00016377	0.00015743	4.3013e-05	1005.1	1.7014e-06	1.6958e-06	1139.6	393.72	1.7051e-06	1.7043e-06	419.16	192.13	126.86	64.895	1.7056e-06	89.378	168.408	-12.953	-43.386	-83.311	35.706	92.678	-84.387	-78.651	208.372	12.259	-80.174	-76.203	-74.757	-69.952	143.074	-72.501	-8191	255	
19437.064	1	1	0	0	0.2256	0.31985	0.045823	0.085219	0.31977	0.3111	0.16515	0.15027	0.12425	0.12622	0.13674	0.34266	0.29372	0.48526	0.20849	0.2537	-1.6021	-1.9771	-1.7604	-2.2521	-1.8667	-1.9458	-2.3125	-1.8625	-2.0208	-1.8604	-1.7042	-2.3563	-1.9854	-1.8458	-2.1937	-1.8896	39.355	-39.609	53.295	205.455	47.687	171.017	219.106	46.788	230.130	124.847	174.022	237.784	256.908	-86.697	137.498	207.795	0.00059259	0.00012913	0.0002218	1168.7	1.4607e-06	4.1511e-06	1296.7	452.47	4.1184e-06	1.3576e-06	569.81	230.35	170.04	77.993	1.9086e-06	109.55	0.00016161	0.00015579	4.2898e-05	1003.7	1.6977e-06	1.7014e-06	1142.7	393.23	1.695e-06	1.7103e-06	421.18	192.36	126.3	64.876	1.7199e-06	89.526	147.170	-91.126	-52.923	-83.354	33.657	68.767	-84.404	-78.689	6.592	-53.741	-80.319	-76.129	-74.633	-69.954	125.958	-72.600	-8191	255	
19437.160	1	1	0	0	0.069586	0.11153	0.2433	0.25912	0.2291	0.29209	0.56638	0.15315	0.36081	0.29356	0.20976	0.23821	0.12393	0.2744	0.021494	0.1813	-1.6562	-2.0146	-1.5271	-2.2646	-1.7792	-1.7125	-2.2938	-1.7646	-1.7396	-2.2729	-1.7229	-1.9792	-1.8312	-1.8833	-2.2042	-1.8354	-1.181	-61.726	214.261	262.142	207.947	128.801	192.210	249.605	-78.282	-29.217	226.639	228.222	121.564	245.688	158.095	206.153	0.0005929	0.00021995	0.00021243	1167.8	9.2278e-06	1.2205e-06	1305.3	453.51	3.3701e-06	4.1455e-06	576.78	231.62	170.73	77.678	5.7517e-06	109.43	0.00016144	0.00015711	4.3669e-05	1004.9	1.691e-06	1.6891e-06	1149.3	393.87	1.7211e-06	1.6602e-06	424.81	193.24	126.41	64.677	1.6812e-06	89.513	156.637	-40.041	-77.939	-83.263	25.214	161.563	-84.352	-78.547	60.196	-7.662	-80.144	-76.145	-74.906	-70.171	-1.074	-72.322	-8191	255	
19437.279	1	1	0	0	0.043777	0.25326	0.014893	0.12747	0.10394	0.18036	0.27525	0.19433	0.2502	0.031062	0.090938	0.13388	0.13488	0.41886	0.12825	0.28297	-1.5667	-1.9208	-1.4896	-2.3583	-1.9625	-1.6104	-2.4292	-1.7437	-1.9646	-2.0208	-1.6875	-1.9333	-1.9979	-1.8604	-2.175	-1.9854	21.410	-66.709	90.957	-66.518	-70.292	-15.352	225.495	204.805	239.127	-55.128	52.670	184.308	245.928	216.400	16.917	240.038	0.00037662	0.00028451	0.00017831	1170.4	2.1536e-06	4.552e-06	1294.2	452.07	1.4263e-06	6.8117e-06	567.71	228.56	171.02	77.458	4.9892e-06	109.52	0.00016057	0.00015393	4.2734e-05	1006.4	1.6964e-06	1.6775e-06	1138.4	392.33	1.6654e-06	1.654e-06	419.37	191.1	126.04	64.577	1.6575e-06	89.313	153.980	-82.732	-76.470	-83.601	3.198	-6.945	-84.658	-78.571	129.334	-56.873	-79.461	-76.182	-74.864	-69.982	5.548	-72.545	-8191	255	
19437.375	1	1	0	0	0.22303	0.14498	0.21727	0.16813	0.15539	0.092913	0.31158	0.12424	0.39028	0.38131	0.22816	0.12077	0.18698	0.18209	0.043736	0.32461	-1.4875	-2.1292	-1.725	-2.1958	-1.9896	-1.6521	-2.4042	-1.95	-1.825	-2.0375	-1.8646	-2.2917	-2.2375	-1.8667	-2.1896	-2.0083	160.612	262.379	-53.731	173.644	141.064	-96.363	236.851	-66.485	-40.895	110.012	-11.037	12.184	166.205	216.667	35.537	138.607	0.00049816	0.00038659	1.2367e-05	1165.8	9.129e-06	6.6926e-06	1293.1	452.21	5.9308e-06	2.0642e-06	568.8	229.32	171.44	77.743	5.9833e-06	109.54	0.00015916	0.00015319	4.2363e-05	1002.5	1.6694e-06	1.6651e-06	1140.4	392.8	1.6908e-06	1.6594e-06	420.89	191.73	126.2	64.639	1.7021e-06	89.434	159.099	-61.177	225.824	-83.131	-14.075	76.279	-84.379	-78.532	56.872	47.977	-80.012	-76.032	-74.879	-70.004	56.153	-72.392	-8191	255	
19437.473	1	1	0	0	0.093941	0.24536	0.16188	0.13738	0.3858	0.087654	0.25042	0.21877	0.093597	0.043215	0.11148	0.40285	0.18222	0.45235	0.23648	0.1578	-1.2729	-2.2042	-1.725	-2.1333	-1.9833	-1.7667	-2.4792	-2.0312	-1.8792	-2.2604	-1.7729	-2.0938	-2.2313	-1.8583	-2.05	-1.9979	173.018	-36.064	-7.083	211.660	92.821	-62.221	241.205	167.244	44.702	-58.249	84.464	-78.064	61.890	257.475	167.334	-54.725	0.0004932	0.00028714	0.00032209	1171.2	8.5502e-06	3.794e-06	1295.4	454.9	4.0182e-06	5.4044e-07	567.92	230.85	170.91	78.143	7.4974e-06	109.6	0.00016211	0.00015477	4.2675e-05	1004.5	1.6813e-06	1.7015e-06	1143.5	393.8	1.7147e-06	1.6996e-06	421.3	192.45	126.4	64.858	1.7241e-06	89.709	152.282	13.031	-61.418	-83.440	-9.652	13.801	-84.510	-78.479	256.131	239.329	-80.540	-76.168	-75.115	-70.023	95.255	-72.356	-8191	255	
19437.592	1	1	0	0	0.18247	0.14011	0.17798	0.10306	0.28249	0.048397	0.11209	0.40975	0.060694	0.17612	0.19865	0.14569	0.37723	0.071827	0.078128	0.47092	-1.3146	-2.1896	-1.725	-1.9937	-2.2729	-1.7021	-2.2146	-2.2271	-1.5708	-2.1583	-1.925	-1.8771	-2.1854	-1.9021	-2.0229	-2.0062	91.576	103.436	248.347	35.517	24.453	142.636	-71.055	192.809	215.595	-51.347	-81.681	-80.550	258.569	190.285	-95.115	203.399	0.00053432	0.00065783	0.00027984	1172.6	4.8495e-06	5.8561e-06	1295.4	453.96	2.7781e-06	9.2253e-06	572.41	233.41	172.23	78.371	5.1681e-06	110.58	0.00016394	0.00015606	4.3303e-05	1007.2	1.7297e-06	1.6887e-06	1143	393.8	1.7004e-06	1.68e-06	423.07	194.12	126.62	65.262	1.7075e-06	90.695	171.706	19.208	-15.987	-83.409	-34.776	68.067	-84.505	-78.546	-38.073	-7.663	-79.878	-76.107	-74.889	-69.880	168.855	-72.537	-8191	255	
19437.688	1	1	0	0	0.39054	0.057424	0.11205	0.17135	0.32979	0.080396	0.1914	0.40418	0.18416	0.13098	0.21966	0.16875	0.12424	0.43738	0.057941	0.33616	-1.1542	-2.1688	-1.8583	-1.8312	-1.9667	-1.6604	-2.275	-2.3208	-1.8021	-2.3688	-1.9667	-1.9479	-2.1917	-1.9875	-1.8458	-2.2687	-37.564	176.222	-90.891	259.584	131.654	-93.389	211.157	161.132	225.461	170.104	95.737	226.722	-0.644	193.041	223.702	255.762	0.00043351	0.00097931	0.00017932	1166.1	2.8202e-06	6.4316e-06	1296.8	454.2	4.1309e-06	5.4798e-06	569.57	232.69	169.94	78.354	7.5614e-06	110.95	0.0001621	0.00015533	4.3275e-05	1006.2	1.6833e-06	1.7009e-06	1146.7	393.9	1.6959e-06	1.6877e-06	422.64	193.62	126.4	65.29	1.6863e-06	90.625	161.255	-34.068	-19.447	-83.301	-10.990	64.764	-84.332	-78.799	-26.905	0.437	-80.063	-76.135	-74.929	-70.186	74.913	-72.394	-8191	255	
19437.760	1	1	0	0	0.09301	0.055387	0.2027	0.26737	0.16821	0.21209	0.27197	0.079107	0.064112	0.1618	0.16738	0.14816	0.28248	0.30027	0.30245	0.23773	-1.4771	-2.0146	-1.7938	-1.9646	-2.1688	-1.8375	-2.3333	-2.1937	-1.725	-2.1667	-2.2125	-1.8687	-2.2958	-1.9646	-1.9417	-2.3833	53.671	212.788	222.629	216.020	246.319	189.319	149.466	211.337	150.789	78.091	188.739	-27.937	-91.948	211.060	211.082	231.203	0.00059661	0.0005869	0.00026291	1167.3	4.5008e-06	3.7041e-07	1293.2	453.9	8.4697e-06	1.0343e-05	570.43	232.91	170.57	78.958	5.7507e-06	111.39	0.00016056	0.00015353	4.2958e-05	1003.5	1.6767e-06	1.6804e-06	1141.3	393.93	1.696e-06	1.6958e-06	423.06	193.99	126.5	65.594	1.7016e-06	91.107	169.943	-67.124	-52.936	-83.353	-46.832	66.976	-84.662	-78.712	45.754	-80.174	-80.000	-76.053	-75.148	-70.089	33.824	-72.383	-8191	255	
19437.881	1	1	0	0	0.28231	0.18108	0.071156	0.11495	0.099796	0.10242	0.053101	0.36317	0.20423	0.17178	0.17908	0.078337	0.10159	0.32456	0.061892	0.31794	-1.3813	-2.1875	-1.8979	-1.7875	-2.2062	-1.9458	-1.9667	-2.4042	-1.7729	-1.9292	-2.2417	-1.7437	-2.2521	-2.0333	-1.7437	-2.3646	244.347	-43.266	216.893	261.003	8.070	256.545	122.407	217.729	-84.557	132.137	6.514	142.901	-37.073	-94.214	-40.221	155.741	0.00064393	0.00025817	0.00025149	1176.2	3.8841e-06	3.2922e-06	1301.8	455.58	2.45e-06	3.9303e-06	573.28	233.48	171.87	78.348	2.0835e-06	110.93	0.00016251	0.00015402	4.2995e-05	1005.9	1.6838e-06	1.6943e-06	1147.1	394.65	1.7032e-06	1.6976e-06	423.97	194.39	126.85	65.193	1.7131e-06	90.481	169.701	-7.152	-26.714	-82.874	5.090	2.010	-84.426	-78.680	1.748	13.375	-80.077	-76.273	-74.943	-69.987	236.387	-72.275	-8191	255	
19437.977	1	1	0	0	0.16582	0.077388	0.13286	0.40024	0.11108	0.17828	0.094548	0.3668	0.11903	0.18368	0.032766	0.18005	0.18746	0.21914	0.075343	0.028946	-1.2104	-2.0646	-2.1937	-1.7896	-2.1729	-2.0333	-1.8813	-2.2979	-1.8104	-2.0583	-2.3583	-1.8438	-2.1063	-2.2875	-1.8479	-2.4354	83.045	5.059	223.702	218.520	26.897	94.340	78.960	202.922	186.068	35.811	-93.029	-70.543	19.717	-87.504	41.195	161.660	0.00048978	0.00030496	0.00035316	1177.9	1.4397e-06	4.5284e-06	1302.8	456.02	1.1686e-06	7.6571e-07	576.06	234.83	171.53	78.691	5.2377e-06	112.14	0.00016194	0.00015614	4.3092e-05	1008.7	1.6837e-06	1.6837e-06	1153.2	395.57	1.7018e-06	1.6805e-06	426.9	195.75	126.86	65.363	1.6871e-06	91.581	160.700	-50.194	-38.093	-83.529	-10.681	-22.812	-84.555	-78.548	-11.871	-6.325	-79.730	-75.994	-74.852	-69.838	29.675	-72.207	-8191	255	
19438.072	1	1	0	0	0.17681	0.20524	0.10154	0.2188	0.051029	0.085985	0.4467	0.2651	0.23731	0.0069363	0.1081	0.052817	0.12351	0.24748	0.19887	0.27995	-1.4958	-2.0271	-2.2208	-1.7771	-2.1625	-2.0938	-2.0021	-2.2875	-1.7896	-2.0208	-2.3896	-2	-2.1354	-2.3292	-1.5146	-2.5479	224.608	0.673	71.816	186.765	16.353	-39.991	200.569	218.142	261.073	262.898	79.196	251.110	213.337	-80.024	164.558	234.265	0.00044967	0.00064734	0.00011918	1179.4	2.701e-06	3.7104e-06	1331	461.41	2.2102e-06	6.1139e-06	589.13	239.33	173.65	80.236	4.9953e-06	114.46	0.00016011	0.00015084	4.226e-05	1013.1	1.6647e-06	1.6764e-06	1172.4	399.79	1.6848e-06	1.6573e-06	433.66	199.28	128.46	66.672	1.6779e-06	93.28	151.382	-23.622	-61.101	-83.348	13.670	8.045	-84.161	-78.613	-74.457	-43.592	-79.801	-76.017	-74.567	-70.172	83.725	-72.455	-8191	255	
19438.170	1	1	0	0	0.15948	0.075383	0.14728	0.20593	0.058873	0.13209	0.29735	0.42322	0.14906	0.1062	0.21197	0.10206	0.18698	0.2309	0.078165	0.21014	-1.5187	-1.7167	-2.1021	-1.825	-2.2021	-2.1729	-1.8312	-2.2958	-2.0042	-2.0417	-2.3792	-2.0479	-2.0854	-2.1937	-1.8083	-2.25	107.139	130.125	195.428	256.503	-74.108	167.799	180.076	220.222	159.774	-41.677	-47.446	154.046	7.714	262.563	-67.256	254.410	0.00059143	0.00071044	0.00029554	1180.5	2.9624e-06	5.3523e-06	1317.6	460.72	2.6283e-06	3.3903e-06	582.96	236.71	172.72	80.212	1.189e-06	113.95	0.00016289	0.00015443	4.2952e-05	1018.9	1.6968e-06	1.678e-06	1163.6	398.74	1.7092e-06	1.6898e-06	430.45	197.09	128.09	66.623	1.7014e-06	92.986	156.779	9.159	-16.318	-83.246	-1.381	37.252	-84.491	-78.485	6.707	13.300	-80.032	-76.286	-74.856	-70.023	-31.630	-72.106	-8191	255	
19438.289	1	1	0	0	0.46788	0.098456	0.17661	0.095532	0.14705	0.062494	0.42736	0.23822	0.088114	0.28043	0.23232	0.29202	0.096912	0.10803	0.15462	0.22565	-1.6667	-1.8083	-2.3771	-1.7188	-2.1083	-2.0354	-1.9375	-2.3812	-2.1396	-1.9333	-2.5354	-1.9979	-1.9646	-2.3271	-1.7188	-2.4375	227.075	157.233	132.309	-19.869	171.856	-62.539	261.320	-84.963	225.470	-61.759	144.717	228.249	73.342	195.138	22.071	161.235	0.00060107	0.00049452	0.00028087	1181	8.693e-07	2.8035e-06	1315.1	460.12	6.4562e-06	3.149e-06	584.94	236.97	172.39	79.794	2.7323e-06	113.78	0.00016103	0.00015496	4.3393e-05	1015.5	1.6737e-06	1.6834e-06	1160.9	399.22	1.6898e-06	1.6748e-06	431.44	197.33	127.87	66.383	1.6832e-06	92.947	154.022	-47.376	-5.560	-83.462	84.373	-47.689	-84.349	-78.553	50.697	-9.118	-80.516	-75.967	-74.917	-70.124	98.973	-72.093	-8191	255	
19438.361	1	1	0	0	0.29109	0.18638	0.12212	0.042955	0.042071	0.11785	0.19255	0.35209	0.12795	0.1872	0.14591	0.16629	0.132	0.32808	0.16701	0.17793	-1.5271	-1.5312	-2.2812	-2.0083	-2.0208	-2.1354	-2.05	-2.3187	-2.1583	-1.6417	-2.2646	-2.1542	-1.7938	-2.3688	-1.7687	-2.4104	86.590	120.913	237.442	167.569	219.085	64.147	212.068	200.611	31.827	-3.856	195.990	259.424	227.299	196.201	211.991	124.181	0.00064131	0.00045708	0.00021148	1187	2.539e-06	6.2687e-06	1321.3	460.21	7.6295e-06	4.396e-06	584.67	237.47	173.89	80.645	7.9765e-06	115.39	0.00015967	0.00015335	4.2773e-05	1018.2	1.6698e-06	1.6754e-06	1167.3	399.33	1.6762e-06	1.6646e-06	432.43	198.34	128.21	66.788	1.69e-06	93.974	163.263	-72.508	24.934	-83.322	-55.155	37.240	-84.294	-78.697	-4.973	-48.168	-80.353	-75.774	-74.859	-70.071	86.330	-72.081	-8191	255	
19438.455	1	1	0	0	0.12583	0.18794	0.18153	0.18742	0.20662	0.33777	0.20347	0.13813	0.36292	0.30974	0.19584	0.087395	0.30635	0.21417	0.077883	0.16557	-1.6167	-1.6479	-2.2146	-2.0563	-1.8042	-2.3187	-1.8667	-2.1188	-2.1417	-1.8354	-2.3354	-2.0083	-1.9521	-2.4292	-1.8646	-2.225	58.908	48.586	39.580	-78.743	176.690	236.239	147.262	242.675	95.057	-87.209	113.213	241.537	183.200	209.392	138.910	206.118	0.00071207	0.00025414	7.8981e-05	1194.2	3.4277e-06	1.8156e-06	1340.6	464.56	2.1681e-06	2.7142e-06	590.85	240.38	175.94	81.257	2.8933e-06	116.88	0.00016014	0.00015122	4.2099e-05	1021.6	1.667e-06	1.6529e-06	1180.5	402.24	1.6643e-06	1.672e-06	436.51	200.75	129.07	67.454	1.6617e-06	95.518	165.337	30.054	-23.241	-83.321	-48.293	147.290	-84.471	-78.520	165.711	-52.122	-80.322	-76.011	-74.828	-70.091	15.587	-72.171	-8191	255	
19438.553	1	1	0	0	0.16523	0.069666	0.19426	0.15923	0.12076	0.18696	0.30871	0.18964	0.17665	0.08046	0.21679	0.2932	0.068925	0.24352	0.10866	0.26882	-1.6521	-1.5917	-1.9813	-1.9542	-1.825	-2.4625	-2.0042	-2.2458	-2.2062	-1.7417	-2.2188	-1.9958	-1.9083	-2.3896	-1.9292	-2.2292	88.911	34.240	133.683	212.074	209.502	-90.425	208.402	205.680	-40.353	228.398	-94.857	-85.710	81.445	-68.906	252.425	214.760	0.00063241	0.0003214	0.00011384	1190.2	6.6881e-06	6.797e-06	1332.5	463.21	3.6292e-06	2.7967e-06	586.44	240.24	175.53	81.863	3.1836e-06	117.42	0.00016025	0.00015093	4.2773e-05	1020.7	1.6584e-06	1.6615e-06	1180	401.04	1.7042e-06	1.6686e-06	433.92	200.41	128.99	67.982	1.6766e-06	95.704	158.621	-18.078	-42.810	-83.461	14.466	46.250	-84.119	-78.539	59.382	102.861	-80.336	-76.256	-74.784	-70.161	123.312	-72.228	-8191	255	
19438.672	1	1	0	0	0.18177	0.1803	0.12643	0.16226	0.12682	0.059903	0.36351	0.33482	0.22709	0.040032	0.22119	0.21292	0.29323	0.24769	0.18455	0.16294	-1.65	-1.6917	-2.0521	-2.1208	-1.8229	-2.325	-2.1146	-1.9479	-2.2292	-2.0104	-2.0375	-2.2417	-1.7208	-2.3187	-1.6729	-1.9604	222.261	108.790	188.230	245.150	-57.416	-93.162	183.846	208.137	201.028	233.574	212.139	191.449	228.030	175.156	178.743	140.323	0.00059743	0.00038765	0.00017534	1184	5.1156e-06	4.1376e-06	1317.2	461.35	2.9119e-06	7.7193e-06	585.69	241.21	176.3	82.309	3.4389e-06	118.09	0.00016216	0.00015162	4.204e-05	1013.2	1.6807e-06	1.6802e-06	1161.1	399.27	1.689e-06	1.6816e-06	431.2	200.05	129.45	68.409	1.702e-06	96.15	167.553	-50.373	-23.793	-83.432	5.585	13.071	-84.417	-78.623	-28.533	52.666	-79.934	-76.233	-75.542	-69.880	169.723	-72.264	-8191	255	
19438.768	1	1	0	0	0.17561	0.19063	0.3357	0.31675	0.20489	0.13242	0.40757	0.058281	0.32277	0.081456	0.19308	0.28715	0.25418	0.25916	0.066917	0.44815	-2	-1.6104	-2.0667	-2.0792	-1.7313	-2.4771	-2.225	-1.9542	-2.2771	-1.9104	-1.9146	-2.3979	-1.7521	-2.2313	-1.9833	-1.9271	122.511	15.943	187.828	209.807	239.046	-85.074	195.593	250.276	101.099	127.221	190.820	214.938	245.498	254.948	176.688	203.959	0.00062119	0.00044941	6.2059e-05	1175.9	7.1121e-06	2.0981e-06	1317.2	461.22	2.4932e-06	5.6806e-06	585.01	240.37	175.68	82.496	5.7617e-06	118.07	0.00016199	0.00015403	4.3191e-05	1010.7	1.6791e-06	1.6664e-06	1161.3	399.17	1.6896e-06	1.6908e-06	432.88	200.26	129.5	68.445	1.6964e-06	96.193	150.577	247.566	23.775	-83.267	12.355	23.844	-84.563	-78.566	-12.991	-0.215	-80.056	-76.151	-75.233	-69.975	25.338	-72.530	-8191	255	
19438.863	1	1	0	0	0.13977	0.073037	0.14096	0.18888	0.03651	0.41605	0.22616	0.39158	0.26647	0.04967	0.27535	0.12461	0.27348	0.27854	0.076796	0.19171	-1.8125	-1.6646	-2.0104	-2.3771	-1.7917	-2.0417	-2.2188	-1.9479	-2.1437	-1.9438	-1.9875	-2.4125	-1.8229	-2.1521	-2.1479	-1.825	241.881	142.702	137.006	246.260	-14.384	3.511	215.262	189.096	44.084	-68.313	-90.559	189.472	149.965	-90.180	-5.432	164.437	0.00055089	0.00010541	6.4651e-05	1178.6	2.7759e-06	6.6922e-06	1323.5	461.55	5.062e-06	3.045e-06	587.82	240.2	175.26	81.332	7.9129e-06	116.85	0.00016188	0.00015435	4.2685e-05	1012.5	1.6581e-06	1.678e-06	1164.7	398.82	1.647e-06	1.6547e-06	433.81	200.54	128.91	67.601	1.6569e-06	95.201	167.924	19.492	86.023	-83.150	19.438	11.693	-84.333	-78.667	-7.086	-13.649	-79.504	-76.168	-74.981	-70.047	32.104	-72.496	-8191	255	
19438.961	1	1	0	0	0.20876	0.15639	0.14318	0.25407	0.16515	0.35134	0.31475	0.13373	0.1573	0.13685	0.1941	0.28354	0.21673	0.073936	0.095747	0.27426	-1.9562	-1.7771	-1.7854	-2.3854	-1.7708	-2.0625	-2.2896	-1.8792	-2.2458	-1.9479	-1.9896	-2.4708	-1.9542	-2.3479	-2.1542	-1.9708	-90.356	9.146	93.613	224.965	261.862	261.311	231.414	253.830	-87.093	153.773	237.537	181.765	-29.934	229.937	-38.155	174.067	0.00066862	0.00030443	6.4344e-05	1176.4	3.9355e-06	4.3806e-06	1338.3	463.03	5.2692e-06	3.6636e-06	595.08	241.54	174.46	80.829	4.6781e-06	116.18	0.00015795	0.00015051	4.1781e-05	1013.4	1.6469e-06	1.6256e-06	1178.7	400.24	1.6258e-06	1.6177e-06	436.14	201.25	128.7	67.28	1.6355e-06	94.965	142.894	35.180	-63.877	-83.253	226.352	19.223	-84.569	-78.391	-21.557	110.909	-79.780	-76.042	-75.001	-70.059	189.880	-72.329	-8191	255	
19439.057	1	1	0	0	0.15612	0.077258	0.03724	0.15753	0.26306	0.27854	0.3178	0.23356	0.127	0.20691	0.087843	0.23321	0.16609	0.45906	0.15888	0.66064	-1.7792	-1.8771	-1.7563	-2.225	-1.7021	-1.9146	-2.35	-1.7646	-2.0687	-1.9604	-1.6417	-2.3063	-1.9875	-2.175	-2.0812	-1.8521	98.572	143.739	188.803	197.093	-70.685	57.389	231.310	193.971	101.459	191.487	-21.504	250.400	225.432	-91.128	-92.024	188.947	0.00062358	0.00045631	0.00020734	1180.2	4.8885e-06	4.9699e-06	1321	461.25	4.0019e-06	1.6714e-06	584.92	239.02	174.44	81.399	6.3274e-06	116.04	0.00015737	0.00014977	4.1559e-05	1015.5	1.6436e-06	1.6456e-06	1165.1	399.43	1.6513e-06	1.6433e-06	430.95	198.95	128.75	67.428	1.6467e-06	94.524	150.383	-25.229	-42.885	-83.374	9.516	45.002	-84.669	-78.705	18.962	222.174	-80.182	-76.242	-74.927	-70.225	-19.096	-72.151	-8191	255	
19439.152	1	1	0	0	0.078812	0.21683	0.27997	0.014434	0.32577	0.12751	0.044821	0.32872	0.1358	0.29439	0.22403	0.2182	0.16367	0.29938	0.17031	0.54952	-1.5729	-2.0396	-1.7396	-2.5104	-1.8896	-1.9958	-2.3917	-1.9917	-2.2167	-2.0917	-1.825	-2.5208	-1.8188	-1.9521	-2.2271	-2.1604	61.015	-4.567	105.035	125.619	55.709	-7.047	141.170	213.057	58.145	35.466	248.946	-79.177	251.748	260.796	92.701	206.411	0.00056581	0.00038102	0.00013943	1174.6	3.3365e-06	3.7034e-06	1316.1	459.43	3.9247e-06	3.855e-06	584.7	238.19	172.56	81.618	2.8505e-06	116.46	0.00015585	0.00014936	4.1866e-05	1007.2	1.641e-06	1.6594e-06	1157.7	397.73	1.6563e-06	1.6219e-06	429.75	198.78	128.07	67.548	1.6437e-06	95.148	168.643	226.494	-79.115	-83.053	29.232	25.880	-84.409	-78.542	-17.839	35.258	-79.889	-76.086	-74.743	-70.054	86.351	-72.208	-8191	255	
19439.273	1	1	0	0	0.043978	0.17214	0.11992	0.22519	0.18664	0.16843	0.17642	0.10763	0.23716	0.12498	0.11355	0.28647	0.24836	0.10004	0.16634	0.26192	-1.5938	-2.1063	-1.825	-2.2833	-1.9	-1.9021	-2.4542	-1.8708	-2.0854	-2.1063	-1.8167	-2.5146	-2.0979	-2.0104	-2.4146	-1.9396	74.920	-20.681	121.941	-86.792	102.497	-49.741	157.331	94.974	106.910	184.167	168.576	224.738	178.150	221.630	-55.125	260.547	0.00059525	0.00048258	0.00015891	1173.6	1.1698e-06	5.5601e-06	1321.7	461.34	3.0585e-06	4.5927e-06	584.84	241.78	176.39	83.268	3.6986e-06	120.02	0.00015659	0.00014962	4.0926e-05	1007.6	1.6295e-06	1.6152e-06	1161.3	399.43	1.6344e-06	1.6283e-06	431.54	201.25	129.9	69.13	1.6249e-06	97.847	153.084	-47.693	-42.771	-83.477	37.345	-34.624	-84.442	-78.504	64.258	-62.092	-79.846	-76.170	-74.987	-70.381	87.905	-72.375	-8191	255	
19439.369	1	1	0	0	0.21167	0.21086	0.075784	0.4406	0.12884	0.071419	0.34594	0.27515	0.1401	0.28342	0.16055	0.12378	0.25929	0.097097	0.091475	0.33002	-1.5729	-2.0125	-1.7042	-2.325	-1.9937	-1.6708	-2.5458	-1.9021	-2.025	-2.3667	-1.7229	-2.3208	-1.9333	-1.8646	-2.2667	-2.0479	-14.377	-88.985	47.080	237.156	-84.046	220.243	223.239	200.429	204.743	-15.984	247.554	178.781	-23.329	63.821	52.013	234.247	0.00063965	0.00057953	0.00021076	1188.9	1.1198e-06	5.9704e-06	1332.6	466.16	4.6267e-06	5.4992e-06	589.88	246.71	179.5	84.342	1.0034e-05	122.45	0.00015704	0.00014848	4.0904e-05	1015.3	1.6455e-06	1.617e-06	1172.6	403.6	1.649e-06	1.6289e-06	436.14	204.59	131.49	70.301	1.6212e-06	99.781	160.067	-32.352	-25.649	-83.591	-24.296	49.901	-84.475	-78.602	35.267	-22.762	-80.095	-75.966	-74.778	-70.260	22.311	-72.779	-8191	255	
19439.465	1	1	0	0	0.10612	0.035363	0.19909	0.072221	0.33456	0.19544	0.20569	0.16173	0.11252	0.087317	0.05999	0.14802	0.35514	0.10101	0.15449	0.07245	-1.475	-2.4229	-1.7583	-2.2938	-2.2583	-1.7542	-2.1937	-2.0479	-1.9583	-2.2375	-1.7938	-2.3729	-2.2188	-1.7896	-2.3042	-2.2354	-89.596	156.483	57.978	203.230	63.456	-11.435	90.653	208.799	50.293	-43.060	68.493	163.267	205.505	-14.845	-94.825	202.430	0.00057462	0.00060525	0.00017351	1189.1	3.8294e-06	3.9392e-06	1325.2	466.58	1.2118e-06	7.8494e-06	593.98	244.71	177.83	85.041	2.5275e-06	121.45	0.00015812	0.0001493	4.1449e-05	1018	1.6568e-06	1.625e-06	1168.8	403.43	1.6376e-06	1.6233e-06	435.44	204.01	130.85	70.501	1.6183e-06	99.124	155.734	-48.158	16.927	-83.380	12.714	-26.903	-84.416	-78.587	-57.593	14.656	-80.235	-76.192	-75.036	-70.292	64.220	-72.428	-8191	255	
19439.561	1	1	0	0	0.1253	0.25061	0.24004	0.32853	0.12881	0.16888	0.21868	0.2877	0.086934	0.13079	0.23732	0.20792	0.061622	0.39272	0.26209	0.22312	-1.2854	-2.1625	-1.6688	-2.1437	-2.1458	-1.6437	-2.4146	-2.1437	-1.825	-2.275	-2.0667	-2.0438	-2.0979	-1.8	-2.0958	-2.2229	-95.117	143.510	-38.613	-74.076	69.693	188.095	-94.948	137.352	159.643	-53.356	16.123	237.724	82.235	-84.939	94.192	178.916	0.00051578	0.00062409	0.00013052	1178.7	4.5632e-06	7.4768e-07	1313.5	464.56	6.0117e-06	7.0915e-06	589.8	244.86	178.57	86.389	2.2858e-06	124.04	0.00015596	0.00014858	4.1004e-05	1010.5	1.6015e-06	1.6018e-06	1157.7	402.49	1.6131e-06	1.6147e-06	432.83	203.72	131.6	71.406	1.6189e-06	101.02	163.065	-43.953	-88.969	-83.062	-39.817	239.843	-84.060	-78.467	-11.809	-5.924	-79.737	-76.465	-75.235	-70.510	56.755	-72.577	-8191	255	
19439.656	1	1	0	0	0.14383	0.16643	0.23846	0.32472	0.28302	0.11006	0.11822	0.16668	0.22076	0.14794	0.15199	0.48121	0.1736	0.12144	0.16326	0.26705	-1.2792	-2.2771	-1.6562	-2.0333	-2.2667	-1.7521	-2.3396	-2.2062	-1.7875	-2.1375	-2.0375	-2.1479	-2.2896	-1.825	-2.1437	-2.1437	224.411	-79.868	151.641	-77.239	56.251	19.921	-67.991	138.145	189.675	-26.551	5.449	190.805	201.386	-78.321	-48.410	212.659	0.00073891	0.0003319	0.00019108	1181.4	6.4459e-06	7.1016e-06	1318.7	467.55	2.6053e-06	5.3527e-06	591.26	248	182	87.202	3.0082e-06	126.37	0.00015446	0.00014673	4.072e-05	1013	1.6276e-06	1.5974e-06	1163.6	405.17	1.6158e-06	1.6003e-06	435.52	206.02	133.07	72.594	1.6209e-06	102.62	148.675	-71.308	-32.084	-83.261	3.894	54.347	-84.318	-78.951	47.684	2.383	-80.454	-76.029	-74.683	-70.522	-89.527	-72.541	-8191	255	
19439.752	1	1	0	0	0.27212	0.12722	0.24127	0.10833	0.15855	0.069481	0.21652	0.23854	0.057294	0.059369	0.15109	0.29632	0.044525	0.34025	0.16842	0.17784	-1.0833	-2.0542	-1.7104	-1.9521	-2.1312	-1.7583	-2.1854	-2.3187	-1.8	-2.1917	-1.9021	-1.95	-2.3125	-2.1688	-1.925	-2.3229	-10.537	258.660	180.883	238.092	-25.158	198.197	249.827	201.110	-60.994	138.214	70.275	211.886	119.858	200.695	145.673	243.976	0.00069521	0.00032538	0.00035465	1193.5	8.5907e-06	2.964e-06	1320.5	469.73	5.5483e-06	4.1093e-06	592.38	249.95	182.45	88.193	6.2571e-06	127.08	0.00015363	0.00014499	4.0567e-05	1017.3	1.5872e-06	1.594e-06	1164.8	405.44	1.6284e-06	1.5814e-06	436.45	207.3	133.34	73.01	1.6026e-06	103.58	162.107	-47.635	-41.781	-83.257	-23.498	49.804	-84.068	-78.534	-39.954	62.982	-80.167	-76.212	-75.212	-70.258	14.546	-72.443	-8191	255	
19439.850	1	1	0	0	0.1806	0.18768	0.052182	0.23363	0.070034	0.27544	0.14673	0.12208	0.16361	0.20351	0.153	0.060492	0.34292	0.19418	0.19674	0.15076	-1.375	-2.2104	-1.7417	-2.0646	-2.4229	-1.8333	-2.3312	-2.2354	-1.7396	-2.2667	-2.1875	-2.0854	-2.3688	-2.0333	-1.9667	-2.5292	258.734	186.646	12.190	-58.825	230.401	260.315	-79.842	-84.240	-66.269	-75.001	203.963	191.645	-37.162	-55.709	183.700	126.810	0.00055854	0.00038453	0.00014463	1181.8	4.1086e-06	5.2482e-06	1331.1	469.49	5.0159e-06	3.0754e-06	596	250.72	182.19	88.825	6.3628e-06	127.84	0.00015396	0.00014519	4.0463e-05	1012.9	1.5982e-06	1.5774e-06	1171.4	406.52	1.6144e-06	1.5972e-06	438.6	208.44	133.66	73.448	1.6127e-06	104.02	170.098	-34.779	-56.013	-83.594	17.504	30.377	-84.068	-78.403	11.716	17.939	-80.017	-75.855	-74.846	-70.098	26.943	-72.602	-8191	255	
19439.969	1	1	0	0	0.12514	0.14887	0.17658	0.13803	0.16195	0.088921	0.088025	0.28823	0.13106	0.16249	0.17447	0.44841	0.14432	0.16294	0.16975	0.078643	-1.2854	-1.9542	-1.9104	-1.8542	-2.1458	-1.7208	-2.1813	-2.1792	-1.7583	-2.1729	-1.9792	-1.9417	-2.1562	-1.9292	-1.7563	-2.2729	-96.023	181.827	43.838	177.281	56.231	66.640	227.491	204.301	-24.291	-16.608	86.121	225.686	-42.261	227.494	160.691	-49.779	0.00060488	0.00048754	3.888e-05	1172.5	4.8995e-06	2.5508e-06	1318.7	466.1	4.8767e-06	4.7771e-06	589.12	247.61	181.65	88.966	1.5356e-06	126.85	0.00015445	0.00014561	4.0858e-05	1009.7	1.5752e-06	1.6068e-06	1160.5	404.5	1.6024e-06	1.566e-06	433.81	206.25	132.73	73.445	1.5986e-06	103.15	158.438	-3.586	1.399	-83.429	3.784	113.230	-84.402	-78.630	-5.373	-0.272	-80.022	-76.052	-74.932	-70.328	259.492	-72.670	-8191	255	
19440.064	1	1	0	0	0.052035	0.23527	0.32692	0.20815	0.035273	0.30953	0.08941	0.30562	0.15536	0.18307	0.069283	0.42965	0.22702	0.23285	0.21788	0.23741	-1.2687	-1.825	-2.0021	-1.9458	-2.1646	-2.0458	-2.0583	-2.2979	-1.8583	-2.2583	-2.2271	-1.85	-2.2604	-2.0875	-1.6458	-2.2375	14.839	-26.470	-8.279	140.430	102.520	72.245	177.534	208.127	161.029	170.761	243.381	-92.637	154.366	-55.308	114.374	234.130	0.00062288	0.0006172	0.00016336	1175.1	6.5869e-06	5.4337e-06	1300.9	466.63	3.4414e-06	7.7455e-06	589	247.23	180.72	87.227	7.5627e-06	125.65	0.0001539	0.00014584	3.9981e-05	1008.3	1.5987e-06	1.5923e-06	1152.7	402.88	1.5921e-06	1.5753e-06	432.06	205.25	132.03	72.491	1.5689e-06	101.98	160.152	-52.907	-4.987	-83.195	-0.057	-1.876	-84.576	-78.479	7.049	21.067	-80.164	-76.301	-75.174	-70.117	88.575	-72.442	-8191	255	
19440.160	1	1	0	0	0.088919	0.1445	0.11965	0.18428	0.082153	0.43098	0.27772	0.14682	0.056821	0.072549	0.15524	0.15807	0.19334	0.54156	0.09828	0.26739	-1.4917	-1.9271	-2.2313	-1.7437	-2.1542	-1.8813	-1.9917	-2.2292	-1.8271	-2.1771	-2.1688	-1.8896	-2.2042	-2.2708	-1.8417	-2.2875	14.921	162.571	193.162	-60.760	207.578	-35.122	259.234	209.011	22.380	73.409	218.556	199.523	183.980	237.815	-81.592	226.685	0.00064342	0.00013205	0.00037911	1176.2	6.1368e-06	4.0933e-06	1321	466.25	4.8271e-06	6.2215e-06	591.91	247.53	179.33	86.775	3.0402e-06	124.93	0.00015089	0.00014356	4.0522e-05	1008	1.5777e-06	1.5757e-06	1159.9	403.11	1.5828e-06	1.5679e-06	433.38	205.28	131.87	71.942	1.5756e-06	101.53	172.539	-89.876	-30.310	-83.354	39.480	85.115	-84.344	-78.626	-25.014	-4.751	-79.821	-76.090	-75.650	-70.323	39.929	-72.652	-8191	255	
19440.232	1	1	0	0	0.36409	0.10645	0.1484	0.28876	0.17242	0.15885	0.18954	0.26497	0.080698	0.19908	0.11184	0.23322	0.13956	0.45841	0.14764	0.2234	-1.3729	-1.9312	-2.1396	-1.8917	-2.075	-2.0896	-1.9125	-2.3	-2.0146	-1.9312	-2.4708	-2.0479	-2.1375	-2.2896	-1.6896	-2.5	94.809	74.232	225.070	163.309	36.823	-46.721	171.148	203.071	45.349	-21.645	235.088	239.096	156.209	234.339	-47.871	93.729	0.00064874	0.00060731	9.4386e-05	1182.8	5.4977e-06	2.7468e-06	1323	465.39	7.6077e-06	8.6339e-06	590.09	249.13	179.04	86.623	4.7214e-06	125.11	0.00015208	0.00014517	4.0058e-05	1010.9	1.5743e-06	1.58e-06	1166	403.27	1.5984e-06	1.5936e-06	435.03	206.37	131.67	71.523	1.5747e-06	101.67	164.544	-0.845	19.457	-83.328	-35.823	106.529	-84.375	-78.528	32.017	16.190	-79.846	-76.076	-74.923	-70.385	73.110	-72.665	-8191	255	
19440.354	1	1	0	0	0.132	0.10183	0.19793	0.14815	0.19761	0.046409	0.28837	0.12057	0.088139	0.17614	0.24607	0.060968	0.26344	0.23505	0.16656	0.27006	-1.7458	-1.8188	-2.1813	-1.9917	-2.0625	-2.0667	-1.8729	-2.4354	-2.0604	-1.7729	-2.2042	-2.0104	-1.9125	-2.3104	-1.7062	-2.3187	232.155	207.799	174.131	212.086	-79.601	183.025	172.390	-70.326	125.616	-22.986	260.019	10.553	101.373	-76.541	-42.468	228.212	0.0006565	0.00016068	0.00016593	1179.4	1.7993e-06	6.1743e-06	1334.8	466.9	2.0334e-06	8.7952e-06	597.08	248.17	179.04	86.006	1.2992e-06	123.51	0.00014868	0.0001389	3.8039e-05	1010.3	1.4742e-06	1.466e-06	1170.4	402.83	1.5084e-06	1.4926e-06	435.97	205.63	131.19	71.196	1.5315e-06	100.54	165.204	52.386	-33.586	-82.925	9.465	119.860	-84.292	-78.752	13.886	-49.079	-80.138	-76.253	-75.011	-70.461	61.780	-72.874	-8191	255	
19440.447	1	1	0	0	0.14476	0.18791	0.05597	0.16175	0.2395	0.032408	0.25934	0.23887	0.21866	0.10794	0.087149	0.56028	0.19392	0.24288	0.25906	0.12214	-1.6542	-1.8	-2.1688	-2.0042	-2.0312	-2.3063	-2.0604	-2.3271	-2.0917	-1.8917	-2.2062	-2.0812	-1.9604	-2.1833	-1.6583	-2.2667	-62.521	77.440	37.713	-78.036	147.402	-61.202	208.261	256.034	243.130	-33.534	-87.231	176.203	255.732	-46.774	118.600	132.926	0.00059666	0.00025829	0.00023302	1180	4.4059e-06	5.1868e-07	1313.3	463.86	1.5263e-06	3.0203e-06	587.14	244.92	178.66	85.402	5.4974e-06	123.51	0.00014754	0.0001389	3.823e-05	1008.2	1.5314e-06	1.5007e-06	1156.4	401.29	1.5003e-06	1.4814e-06	429.99	203.42	130.24	70.865	1.5299e-06	100.24	166.328	10.574	-54.221	-83.395	-15.321	-80.934	-84.735	-78.927	107.800	18.403	-80.046	-75.878	-75.582	-70.320	107.024	-72.376	-8191	255	
19440.545	1	1	0	0	0.13119	0.16284	0.096909	0.27423	0.061932	0.12452	0.089161	0.21321	0.098836	0.29132	0.17262	0.11942	0.24525	0.27406	0.1254	0.20844	-1.6875	-1.9354	-2.2646	-2	-1.9167	-2.2021	-2.1292	-2.0854	-2.2687	-1.8521	-2.1937	-2.0104	-1.7354	-2.2771	-1.6375	-2.3812	-28.677	-54.846	25.692	200.965	81.280	159.782	67.715	184.803	196.814	157.534	8.783	-47.799	261.120	244.416	32.534	248.645	0.00055084	0.0007023	0.00013883	1173.9	3.0945e-06	4.3599e-06	1319.4	464.03	4.8494e-06	5.8109e-06	592.07	245.4	176.99	85.928	5.5825e-06	124.17	0.00014844	0.00014139	3.9702e-05	1007.3	1.5591e-06	1.5486e-06	1159.6	401.2	1.5546e-06	1.5627e-06	433.4	203.99	130.37	71.14	1.5624e-06	100.72	157.929	-33.380	-70.603	-83.359	11.943	0.350	-84.410	-78.310	-20.991	21.075	-80.004	-76.170	-75.071	-70.190	84.987	-72.443	-8191	255	
19440.641	1	1	0	0	0.20206	0.18073	0.1284	0.21503	0.17798	0.16168	0.25575	0.19119	0.07314	0.025473	0.20508	0.069395	0.3132	0.10887	0.13143	0.23533	-1.4958	-1.6229	-2.1813	-2.1146	-1.6854	-2.1646	-1.9479	-2.15	-2.1646	-1.7	-2.2792	-2.2771	-1.9521	-2.5917	-1.7938	-2.0583	201.988	-10.751	-77.565	85.071	195.508	227.609	203.223	-92.858	134.356	-25.209	253.916	232.097	261.321	230.934	129.940	183.049	0.00065974	0.00054937	0.00020594	1173	3.3976e-06	5.4578e-06	1315.7	462.94	3.3677e-06	5.3016e-06	586.68	246.5	178.87	86.259	6.9597e-06	123.92	0.00014911	0.00014027	3.8918e-05	1003.6	1.5037e-06	1.4899e-06	1157.2	399.64	1.4279e-06	1.4091e-06	428.53	204.1	129.68	70.928	1.3169e-06	100.54	170.864	215.274	-36.407	-83.549	-40.094	18.556	-84.334	-78.577	118.465	4.083	-80.053	-76.278	-75.030	-70.265	61.213	-72.356	-8191	255	
19440.762	1	1	0	0	0.25803	0.23188	0.13983	0.21177	0.21393	0.16713	0.20678	0.20232	0.10591	0.20448	0.060336	0.099666	0.26319	0.29159	0.043939	0.27685	-1.6792	-1.8563	-2.15	-2.1813	-1.6375	-2.2542	-2.0938	-1.95	-2.1437	-1.775	-2.0396	-2.2292	-1.7292	-2.4479	-2.0979	-1.9917	86.617	220.565	-94.329	253.382	80.423	11.328	207.167	161.352	27.260	-28.609	114.251	78.232	189.701	-66.271	-63.034	149.020	0.0006577	0.00040137	0.00016872	1178.5	7.2238e-06	3.1175e-06	1326.7	463.85	3.9295e-06	1.929e-06	592.99	247.67	177.77	85.22	7.5466e-06	123.34	0.00012614	0.00011898	3.365e-05	1001.2	1.357e-06	1.3576e-06	1163	399.7	1.4187e-06	1.4184e-06	433.61	204.71	130.03	70.383	1.4939e-06	100.19	155.338	-19.925	-38.483	-83.446	-35.155	4.097	-84.267	-78.696	-14.421	-2.046	-79.906	-76.197	-75.180	-70.191	59.386	-72.131	-8191	255	
19440.857	1	1	0	0	0.066897	0.18045	0.13918	0.17925	0.23741	0.22504	0.25806	0.17603	0.20869	0.2069	0.065512	0.21166	0.23244	0.062993	0.22786	0.19656	-1.8146	-1.6271	-2.0729	-1.9562	-1.8771	-2.15	-2.1479	-1.9771	-2.2958	-1.8583	-2.2188	-2.2708	-1.6583	-2.3646	-1.8521	-1.8833	66.909	50.049	257.251	11.064	182.829	213.655	216.812	181.976	199.806	148.346	-28.667	209.638	-74.736	175.414	-37.554	165.621	0.00058394	0.00067298	0.00014107	1176.3	3.9814e-06	1.6816e-06	1320.9	460.92	2.0762e-06	2.1584e-06	586.4	245.45	176.6	84.862	5.1915e-06	122.08	0.00014596	0.00014059	3.8563e-05	1004.9	1.535e-06	1.5076e-06	1159.9	399.28	1.5318e-06	1.5492e-06	430.41	203.01	129.83	70.212	1.5499e-06	99.446	163.901	-42.582	19.110	-83.585	-7.278	105.601	-84.447	-78.627	254.017	51.297	-79.918	-76.071	-75.128	-70.312	89.853	-72.780	-8191	255	
19440.953	1	1	0	0	0.080635	0.16154	0.089063	0.12756	0.10867	0.39064	0.1762	0.28974	0.087168	0.2281	0.21009	0.52909	0.097069	0.039632	0.16809	0.16157	-1.9479	-1.6417	-1.8854	-2.1312	-1.675	-2.1271	-2.2896	-1.7479	-2.25	-1.8125	-1.9771	-2.4562	-1.7812	-2.4292	-2.1417	-2.0062	115.599	152.677	-13.470	255.761	87.279	-80.537	261.697	237.198	214.254	33.785	115.309	244.113	165.940	148.190	127.553	143.314	0.00058011	0.0006727	8.6028e-05	1174.2	3.6431e-06	4.1919e-06	1310.5	460.47	8.0275e-07	5.5574e-06	590.61	244.06	177.25	84.509	4.342e-06	121.46	0.00015085	0.00014108	3.9693e-05	1004.4	1.5589e-06	1.5493e-06	1153.2	398.87	1.5734e-06	1.5537e-06	430.76	202.89	130.14	70.024	1.5395e-06	98.749	163.032	-9.468	250.279	-83.341	-25.264	74.201	-84.450	-78.736	63.970	93.890	-80.199	-75.999	-75.224	-70.171	97.029	-72.633	-8191	255	
19441.051	1	1	0	0	0.038398	0.12105	0.19096	0.22998	0.20046	0.2066	0.10073	0.3782	0.28007	0.10555	0.12167	0.13324	0.1114	0.18067	0.22466	0.25414	-1.7646	-1.9937	-1.9188	-2.3063	-1.7458	-2.1042	-2.2708	-2.0104	-2.1979	-1.7729	-1.9813	-2.3563	-1.7875	-2.2479	-2.0292	-1.7271	258.919	-82.867	-54.409	204.679	110.963	-17.238	85.070	229.757	-1.102	-71.434	215.798	213.999	224.742	40.434	104.060	232.665	0.00050649	0.00012309	0.00019358	1172.5	7.962e-06	4.3044e-06	1318.7	460.22	4.4257e-06	3.1492e-06	592.73	244.31	177.73	83.899	4.141e-06	121.44	0.00014975	0.00014026	3.9159e-05	1003.7	1.5534e-06	1.5375e-06	1159.9	399.1	1.535e-06	1.5455e-06	434.51	203.57	130.34	69.45	1.549e-06	98.648	155.803	-0.326	-58.454	-83.669	43.948	-52.170	-84.411	-78.870	-67.438	-72.121	-79.845	-76.032	-74.856	-70.449	122.822	-72.252	-8191	255	
19441.146	1	1	0	0	0.19846	0.11308	0.15084	0.26865	0.063026	0.18742	0.35692	0.24912	0.10609	0.18619	0.13754	0.26881	0.39559	0.34869	0.19738	0.32434	-1.5625	-2.0563	-1.7354	-2.2708	-1.6562	-2.0979	-2.375	-2.0625	-2.1354	-2.0625	-1.6979	-2.5271	-1.8438	-2.0396	-2.0312	-1.8083	-69.803	-5.519	212.338	137.677	110.099	-59.201	210.033	223.222	201.141	73.851	165.150	249.522	185.777	242.235	-34.137	207.148	0.0005599	0.00052281	0.00028413	1179.6	4.9853e-06	6.1869e-06	1342.3	467.49	6.9448e-06	4.4667e-06	599.47	247.08	177.87	83.946	3.2157e-06	121.68	0.00014744	0.00014101	3.9184e-05	1011	1.5433e-06	1.5254e-06	1177	403.32	1.5449e-06	1.5561e-06	439.23	205.57	130.69	69.536	1.5367e-06	99.05	154.816	39.937	-56.131	-83.255	-40.595	50.999	-84.433	-78.786	85.753	32.115	-80.187	-75.997	-75.122	-70.241	-67.326	-72.576	-8191	255	
19441.242	1	1	0	0	0.1411	0.25281	0.11514	0.27066	0.13641	0.058756	0.10925	0.33085	0.16866	0.36963	0.27157	0.41764	0.17644	0.22174	0.061476	0.080919	-1.6437	-2.0583	-1.8229	-2.3438	-1.8458	-2.0062	-2.4771	-2.1646	-2.1833	-2.1958	-1.7812	-2.3917	-1.9333	-2.0771	-2.2771	-1.8167	-87.906	51.479	-4.243	136.720	83.597	218.555	202.639	199.734	-18.542	109.736	218.160	215.206	123.945	-75.753	73.621	262.746	0.00057097	0.00039737	0.00012546	1184.6	3.6101e-06	5.0378e-06	1346.2	465.65	2.7729e-06	2.6749e-06	601.51	247.14	177.43	83.932	2.1438e-06	120.6	0.00015029	0.00014031	3.8911e-05	1013.1	1.5251e-06	1.5221e-06	1184.9	402.95	1.5256e-06	1.5071e-06	438.97	205	130.22	69.294	1.525e-06	98.157	141.586	-35.369	-19.589	-83.360	7.582	3.799	-84.473	-78.532	121.954	26.994	-80.110	-76.371	-74.994	-70.235	94.051	-72.211	-8191	255	
19441.361	1	1	0	0	0.14887	0.031066	0.1272	0.40753	0.27206	0.27495	0.30008	0.12996	0.11631	0.19341	0.1792	0.11193	0.15868	0.19589	0.15239	0.31859	-1.7458	-1.9458	-1.8312	-2.2271	-2.0083	-1.9229	-2.2958	-1.9958	-2.2604	-2.0792	-1.8271	-2.3833	-1.9083	-2.1125	-2.1063	-1.8729	98.497	54.472	232.738	202.244	242.552	248.470	228.237	195.064	64.010	62.317	2.440	57.800	-62.327	196.386	138.654	262.367	0.00050839	5.914e-05	0.00030224	1176.2	2.9779e-06	2.1504e-06	1333.5	463.1	2.2885e-06	1.0195e-05	593.05	244.9	177.11	83.52	6.2966e-06	120.16	0.00014574	0.00013763	3.8119e-05	1008.7	1.5056e-06	1.483e-06	1169.8	400.17	1.4914e-06	1.4933e-06	434.65	202.9	129.82	68.951	1.4885e-06	97.52	158.688	187.314	-45.077	-83.180	94.366	83.943	-84.382	-78.718	44.646	-3.733	-80.027	-75.957	-75.017	-70.158	100.053	-72.457	-8191	255	
19441.457	1	1	0	0	0.26268	0.13905	0.27486	0.28736	0.15299	0.0093611	0.071184	0.28904	0.16464	0.16961	0.22612	0.21209	0.36463	0.12764	0.2216	0.2844	-1.7083	-2.0687	-1.6354	-2.1875	-2.2146	-1.9792	-2.3479	-1.9854	-1.9917	-2.3125	-1.8937	-2.2687	-1.975	-1.8708	-2.2417	-2.1125	38.932	207.003	152.230	225.659	206.943	216.086	139.125	-82.953	152.570	125.423	232.786	198.440	-77.202	231.452	130.089	179.792	0.00069961	0.00054156	5.6928e-05	1174.5	4.7558e-06	2.1921e-06	1336.1	466.33	1.6292e-06	3.9299e-06	599.96	245.71	179.17	83.701	5.2818e-06	121.01	0.00014389	0.00013549	3.7699e-05	1005.4	1.4758e-06	1.4556e-06	1171.2	401.38	1.4421e-06	1.4092e-06	434.46	203.89	130.28	69.149	1.4235e-06	98.08	173.080	13.194	-33.310	-83.265	48.547	125.633	-84.443	-78.755	256.931	-13.288	-79.752	-76.285	-74.578	-70.175	34.832	-72.460	-8191	255	
19441.529	1	1	0	0	0.07614	0.24005	0.22731	0.29413	0.19051	0.29685	0.17323	0.058548	0.21272	0.090197	0.14378	0.43109	0.27457	0.27255	0.028385	0.48867	-1.6604	-2.05	-1.6917	-2.3333	-2.0854	-1.6917	-2.3667	-2.2021	-1.9167	-2.1021	-1.8625	-2.1854	-2.2354	-1.9062	-2.4208	-2.0354	-26.874	74.501	149.743	239.342	-92.641	78.132	134.124	155.230	96.084	114.219	148.113	217.448	243.331	-79.093	-71.797	210.915	0.00056189	0.00016267	1.5086e-05	1179.1	1.8008e-06	7.0883e-06	1338.9	469.41	1.2368e-06	5.8541e-06	596.02	248.36	178.23	83.72	6.2954e-06	121.65	0.00014039	0.00013151	3.7028e-05	1010.4	1.4563e-06	1.4452e-06	1179.5	403.52	1.4702e-06	1.4527e-06	437.77	205.92	130.36	69.367	1.4891e-06	98.764	153.781	-87.528	-43.638	-83.043	-30.193	60.046	-84.141	-78.890	-48.661	-32.131	-80.188	-76.179	-75.112	-70.334	56.591	-72.632	-8191	255	
19441.625	1	1	0	0	0.41516	0.17232	0.39613	0.20149	0.1979	0.24779	0.077846	0.31439	0.22637	0.2466	0.27556	0.12169	0.25678	0.1876	0.070265	0.31301	-1.5375	-2.2083	-1.7271	-2.1396	-2.1979	-1.6917	-2.2896	-2.0938	-1.8542	-2.425	-1.7146	-2.0979	-2.2771	-1.9479	-2.0646	-2.2271	-38.464	210.944	184.829	-49.401	151.435	117.870	134.910	217.033	122.095	-78.490	234.652	154.573	144.635	-85.178	16.938	195.199	0.00062674	0.00038186	0.00023343	1182.5	7.4708e-06	3.4906e-06	1351.7	467.13	3.8653e-06	6.1515e-06	610.54	250.71	178.57	83.986	7.638e-06	121.52	0.00014285	0.00013399	3.7498e-05	1013.4	1.4847e-06	1.4497e-06	1188.4	403.55	1.4625e-06	1.4495e-06	441.71	207.04	130.12	69.248	1.4187e-06	98.759	170.331	-4.937	-16.652	-83.353	2.566	2.387	-84.048	-78.783	-47.047	-21.050	-80.254	-76.026	-75.132	-70.197	50.907	-72.468	-8191	255	
19441.744	1	1	0	0	0.14412	0.15253	0.11216	0.29546	0.12034	0.16749	0.1904	0.35761	0.078403	0.19837	0.15739	0.29361	0.29879	0.20425	0.02458	0.34088	-1.1646	-2.2438	-1.8312	-2.0938	-2.0375	-1.8292	-2.2333	-2.0875	-1.7104	-2.2208	-2.0938	-1.9042	-2.2979	-1.8125	-2.1312	-2.0563	9.442	185.108	-33.662	254.276	76.825	88.424	-96.014	183.848	232.223	91.546	94.856	240.979	216.710	241.694	158.152	216.589	0.00084151	0.00040457	0.00020919	1180.2	2.8224e-06	6.131e-06	1345.4	464.53	5.5825e-06	9.1214e-06	595.61	245.47	176.56	82.99	3.8642e-06	119.25	0.00013791	0.00012809	3.5755e-05	1008.1	1.404e-06	1.3845e-06	1181.2	401.47	1.4173e-06	1.3903e-06	434.48	203.54	128.69	68.628	1.4016e-06	96.852	161.081	-43.495	9.315	-83.016	-6.196	4.752	-84.158	-78.832	-13.484	-55.169	-79.802	-76.418	-75.038	-70.480	131.743	-72.431	-8191	255	
19441.842	1	1	0	0	0.17925	0.15343	0.16161	0.057338	0.10109	0.12643	0.32613	0.23099	0.0458	0.14393	0.26187	0.20256	0.10721	0.070393	0.18811	0.50964	-1.3	-2.0792	-1.8438	-1.8792	-2.0854	-1.5646	-2.0958	-2.2021	-1.4729	-2.4313	-2.0375	-1.9104	-2.3542	-1.9438	-1.9417	-2.2938	-82.860	202.674	-86.818	151.130	117.893	14.328	242.490	200.391	168.847	228.281	48.631	204.124	26.423	214.405	-59.981	215.260	0.00056985	0.0002055	0.00019856	1184.3	2.9221e-06	4.403e-06	1336.1	463.31	3.8457e-06	5.1732e-06	591.85	244.51	177.64	82.43	7.4378e-06	118.67	0.00013334	0.00012672	3.5113e-05	1007.8	1.3834e-06	1.3926e-06	1171.3	400.46	1.3946e-06	1.3847e-06	432.61	202.39	128.89	68.133	1.4048e-06	96.574	164.136	-45.393	-39.825	-83.558	26.098	49.549	-84.204	-78.647	4.521	-43.382	-79.917	-76.255	-75.446	-70.070	70.675	-72.431	-8191	255	
19441.938	1	1	0	0	0.071761	0.1004	0.13901	0.24036	0.12529	0.18116	0.39555	0.35217	0.18194	0.17074	0.089129	0.28654	0.15518	0.42945	0.064135	0.037262	-1.2146	-2.1167	-2.0062	-1.8333	-2.2583	-2.0729	-2.1333	-2.4188	-1.6812	-2.2042	-2.0125	-1.9208	-2.2958	-2.0083	-2.0479	-2.4542	5.565	-91.628	-62.019	142.596	14.780	44.403	94.167	232.082	228.139	135.708	70.857	-93.180	129.083	209.219	-4.733	227.964	0.0006236	0.00038914	0.00012123	1183.3	2.2541e-06	8.5751e-06	1339.2	464.29	3.2205e-06	6.0683e-06	596.93	245.1	177.94	82.8	5.0491e-06	119.09	0.00013994	0.00013061	3.6832e-05	1010.9	1.4779e-06	1.4676e-06	1177	400.49	1.4892e-06	1.4681e-06	437.12	203.64	129.85	68.515	1.5191e-06	97.296	151.926	-43.334	231.338	-83.038	22.399	34.251	-84.144	-78.862	19.085	-39.949	-80.637	-76.265	-75.176	-70.252	31.739	-72.298	-8191	255	
19442.033	1	1	0	0	0.20959	0.27524	0.10052	0.14811	0.075612	0.062217	0.26153	0.34549	0.36338	0.24315	0.070422	0.4404	0.27845	0.24838	0.03907	0.11579	-1.3875	-2.1312	-2.1521	-1.9125	-2.1479	-1.9708	-2.2042	-2.3646	-1.7646	-2.2167	-2.2542	-1.8375	-2.2167	-2.1854	-1.9458	-2.4583	159.994	129.217	22.767	-38.829	242.719	140.604	164.789	210.584	193.145	230.447	214.452	254.715	262.312	230.207	104.614	117.988	0.00064074	0.0005348	0.00026075	1185.2	5.9034e-06	4.4167e-06	1347.1	466.64	3.0141e-07	5.8613e-06	600.71	247.14	177.54	83.018	1.7006e-06	120.86	0.00014466	0.00013756	3.7993e-05	1013	1.5129e-06	1.5047e-06	1181.8	402.37	1.5137e-06	1.4984e-06	438.64	205.16	129.9	68.889	1.5073e-06	98.345	160.874	-8.662	-57.109	-83.343	10.053	82.147	-84.004	-78.617	8.031	-25.314	-79.998	-76.112	-75.029	-70.236	228.449	-72.265	-8191	255	
19442.131	1	1	0	0	0.14463	0.2134	0.042223	0.32399	0.013334	0.074114	0.20402	0.23123	0.14465	0.23684	0.068278	0.085335	0.12231	0.1724	0.10057	0.20281	-1.2625	-2.0521	-2.0687	-1.7563	-2.1792	-1.8146	-1.9542	-2.2812	-1.8813	-2.1146	-2.0729	-1.9542	-2.1937	-2.0312	-1.7479	-2.4729	79.356	-85.930	24.712	176.063	192.859	171.786	-55.819	176.021	104.155	-43.412	219.078	123.309	210.379	-93.747	-16.033	146.562	0.0005852	0.00016834	0.00018731	1191.7	4.0472e-06	1.4649e-06	1347.5	466	5.6082e-06	5.8344e-06	599.02	246.54	178.83	83.827	3.4397e-06	121.71	0.00014546	0.000138	3.8049e-05	1015.1	1.5212e-06	1.4972e-06	1186.9	402.39	1.5035e-06	1.489e-06	437.97	205.39	130.1	69.286	1.4939e-06	98.728	168.949	44.385	-77.755	-83.535	-16.104	68.533	-84.376	-78.640	-59.479	17.495	-79.947	-76.190	-75.094	-70.184	-6.493	-72.507	-8191	255	
19442.227	1	1	0	0	0.23762	0.063669	0.13607	0.21524	0.043993	0.32399	0.19443	0.44325	0.096934	0.30712	0.19146	0.25008	0.24126	0.25872	0.24464	0.23549	-1.325	-2.0312	-2.2042	-1.7604	-1.9479	-1.9146	-1.8042	-2.5208	-1.9229	-1.8354	-2.2229	-1.8271	-2.2271	-2.3208	-1.8708	-2.2146	71.258	96.519	-5.098	129.523	-21.964	210.323	193.466	202.891	126.068	200.479	-88.413	243.061	-38.025	-76.019	105.138	154.420	0.00058399	0.00026975	0.00022349	1180.9	4.0413e-06	5.8545e-06	1331.1	462.56	1.4554e-06	1.0756e-05	598.06	247.03	178.84	84.466	5.1694e-06	121.86	0.00014587	0.00013573	3.7386e-05	1006.1	1.496e-06	1.4816e-06	1169.7	400.36	1.4835e-06	1.4639e-06	434.41	204.46	130.09	69.747	1.4323e-06	98.882	172.379	29.355	248.757	-82.942	-20.121	55.667	-84.293	-78.477	48.143	11.348	-80.326	-76.096	-74.989	-70.263	67.258	-72.558	-8191	255	
19442.322	1	1	0	0	0.15909	0.31466	0.17381	0.35673	0.22417	0.22323	0.36865	0.30948	0.2346	0.17843	0.038486	0.055328	0.091688	0.30781	0.13987	0.34739	-1.3979	-1.7437	-2.3104	-1.7437	-1.9333	-2.175	-2.1396	-2.3542	-1.8563	-1.8937	-2.25	-1.9521	-2.1458	-2.0312	-1.6313	-2.4562	-29.482	242.217	81.570	237.715	41.336	117.836	111.527	221.455	60.504	-73.045	3.297	-34.447	188.714	172.791	106.643	138.304	0.00063763	0.00017616	0.00013988	1174.6	5.4219e-06	4.784e-06	1324.9	462.53	6.7035e-06	2.7473e-06	597.39	246.74	178.29	84.699	3.7485e-06	122.06	0.0001378	0.00012819	3.5986e-05	1002.8	1.3707e-06	1.3613e-06	1164.8	399.71	1.3393e-06	1.3119e-06	431.95	203.97	128.74	69.584	1.2709e-06	98.963	150.488	-56.383	254.222	-83.094	-21.468	-7.858	-84.319	-78.505	-21.328	252.657	-80.219	-76.328	-75.032	-70.163	-61.498	-72.328	-8191	255	
19442.443	1	1	0	0	0.18404	0.31709	0.088699	0.39113	0.26711	0.12695	0.28455	0.38874	0.10935	0.30705	0.20784	0.20632	0.27837	0.15955	0.13857	0.35308	-1.6542	-1.9979	-2.2188	-1.9917	-1.9083	-2.0833	-1.925	-2.3958	-1.7104	-1.9271	-2.3833	-1.9292	-2.0938	-2.3729	-1.7313	-2.375	70.586	-85.950	83.605	228.361	105.078	0.244	122.534	149.442	74.363	-0.734	-88.531	236.934	-9.010	211.775	139.244	148.637	0.00061993	0.00050949	5.544e-05	1178.2	6.9941e-06	4.6965e-06	1343.2	464.62	4.3829e-06	3.1105e-06	599.33	248.81	177.01	84.667	7.3538e-06	122.38	0.00012416	0.00011671	3.2541e-05	1002.5	1.3194e-06	1.3289e-06	1174.4	399.73	1.4034e-06	1.3991e-06	436.75	205.55	129	69.687	1.4649e-06	99.624	156.652	-93.457	-10.027	-83.052	-9.656	10.283	-84.434	-78.602	-0.179	33.610	-80.055	-76.066	-75.034	-70.302	66.749	-72.473	-8191	255	
19442.537	1	1	0	0	0.088434	0.12439	0.14366	0.21615	0.42105	0.3225	0.2422	0.17208	0.25742	0.36632	0.13285	0.40488	0.26921	0.13655	0.057549	0.18772	-1.6	-1.7333	-2.0146	-1.9208	-1.9271	-2.0125	-1.8438	-2.3229	-2.1375	-1.8438	-2.2021	-2.0021	-1.8229	-2.2917	-1.6042	-2.2479	226.111	-47.102	91.950	149.437	180.891	-7.500	193.921	247.441	-53.208	-93.971	-14.948	211.745	204.309	236.396	6.335	237.586	0.00052958	0.00012357	0.00028228	1179.2	4.3398e-06	3.3332e-06	1340.1	463.89	2.4038e-06	7.0706e-06	599.7	248.55	176.91	83.806	8.2478e-06	122.59	0.00014201	0.00013376	3.701e-05	1005.9	1.451e-06	1.4503e-06	1178.8	400.46	1.4433e-06	1.4303e-06	437.84	205.87	129.39	69.478	1.4284e-06	99.531	167.661	169.631	-36.108	-83.424	-61.351	96.475	-84.272	-79.024	-59.569	1.384	-79.629	-76.475	-75.447	-70.416	56.428	-72.499	-8191	255	
19442.633	1	1	0	0	0.074398	0.21132	0.092592	0.20396	0.18916	0.1973	0.13564	0.13699	0.19376	0.13083	0.13586	0.37382	0.12627	0.40106	0.1677	0.31622	-1.5396	-1.6625	-1.8771	-1.9729	-1.8333	-2.3438	-1.9292	-2.2708	-1.9708	-1.7021	-2.1583	-1.8625	-1.9833	-2.2708	-1.5812	-2.1917	-10.186	129.460	52.146	176.185	50.376	254.279	253.102	226.292	62.989	140.346	156.626	244.576	226.857	257.040	177.871	244.048	0.00065874	0.00035486	3.1948e-05	1176.6	2.3897e-06	2.4026e-06	1334.2	461.93	2.8482e-06	5.9132e-06	595.16	245.61	176.75	83.144	3.2977e-06	119.96	0.00014006	0.00013133	3.6408e-05	1003.9	1.4377e-06	1.4277e-06	1175.7	399.88	1.4371e-06	1.4279e-06	433.35	203.57	128.78	68.734	1.4701e-06	97.464	164.471	48.773	-44.305	-83.277	-34.543	-29.968	-84.285	-78.639	33.460	27.704	-80.400	-76.480	-75.307	-70.358	156.185	-72.448	-8191	255	
19442.754	1	1	0	0	0.13394	0.22306	0.16278	0.15169	0.010036	0.22226	0.37919	0.35796	0.15251	0.22129	0.30548	0.14442	0.24333	0.37466	0.27063	0.34594	-1.7792	-1.4562	-2.1771	-2.0917	-1.8396	-2.2479	-2.0062	-1.9771	-2.2042	-2.025	-2.1583	-2.1292	-2.025	-2.5042	-1.9125	-2.1417	5.526	80.641	69.034	142.323	114.336	151.384	194.423	216.321	224.647	184.744	186.350	-61.347	203.775	-95.716	65.968	194.630	0.00050872	0.00011385	6.6804e-05	1181.5	2.6846e-06	5.0551e-06	1325.4	460.44	4.5478e-06	2.251e-06	589.36	244.36	175.98	82.065	2.6142e-06	119.15	0.00014019	0.0001336	3.7139e-05	1004.7	1.4598e-06	1.4742e-06	1162.7	397.6	1.4806e-06	1.4468e-06	431.49	202.11	128.13	67.88	1.47e-06	96.644	158.459	-50.159	13.230	-83.354	41.977	17.488	-84.226	-78.614	-16.560	-24.148	-79.852	-76.184	-74.970	-70.359	51.100	-72.510	-8191	255	
19442.826	1	1	0	0	0.13891	0.21314	0.49213	0.30485	0.15716	0.1221	0.42316	0.27673	0.11569	0.064082	0.097516	0.36756	0.080142	0.2635	0.11911	0.33825	-1.8333	-1.6333	-2.1271	-2.1146	-1.6812	-2.2854	-1.9813	-2.0979	-2.2042	-1.7646	-2.1229	-2.2146	-1.7563	-2.3354	-1.8958	-2.0458	235.926	54.350	41.111	-77.086	247.535	10.705	164.525	-81.493	105.882	20.787	195.931	183.906	85.065	194.287	88.800	182.310	0.00065532	0.00015359	0.00028838	1178.6	2.4071e-06	7.1789e-06	1331	462.62	4.3103e-06	6.6641e-06	591.67	243.74	175.89	82.076	5.1725e-06	118.53	0.00014081	0.0001316	3.6344e-05	1005.7	1.465e-06	1.4476e-06	1169.8	398.89	1.453e-06	1.4564e-06	431.94	202.3	128.08	67.749	1.4534e-06	96.687	159.482	190.703	1.436	-83.559	-3.981	45.131	-84.086	-78.369	-53.854	31.295	-79.788	-76.198	-75.213	-70.228	46.776	-72.389	-8191	255	
19442.922	1	1	0	0	0.13676	0.20828	0.25461	0.14633	0.40289	0.18565	0.37949	0.46173	0.28959	0.16343	0.15761	0.20524	0.11346	0.1706	0.17997	0.26514	-1.7458	-1.8021	-2.0187	-2.1333	-1.5833	-2.2708	-2.1646	-2.1167	-2.3771	-1.8917	-1.9188	-2.3458	-1.8333	-2.2521	-2.0479	-1.9875	-64.843	34.329	129.439	174.463	161.812	161.798	246.766	-89.272	20.676	2.814	-40.982	-90.410	258.915	231.326	212.960	205.372	0.00058298	0.00049718	0.0001103	1180	2.7158e-06	6.9846e-06	1340.6	462.21	5.0014e-06	4.7889e-06	599.65	246.81	176.01	82.151	3.0804e-06	119.11	0.00013873	0.00013237	3.6354e-05	1005.3	1.4324e-06	1.4197e-06	1176.2	399.07	1.4417e-06	1.4374e-06	436.8	203.91	128.49	67.696	1.4258e-06	96.981	160.826	-39.449	-48.002	-83.132	-11.407	26.709	-84.431	-78.771	22.425	8.080	-80.025	-76.345	-75.682	-70.301	-1.638	-72.268	-8191	255	
19443.043	1	1	0	0	0.11863	0.17155	0.16505	0.26621	0.087057	0.32815	0.21036	0.25952	0.20238	0.32276	0.13995	0.26885	0.11192	0.41861	0.095655	0.075884	-1.7771	-1.85	-1.9042	-2.2104	-1.8271	-2.275	-2.2125	-1.9208	-2.2542	-1.8854	-2.0583	-2.5167	-1.9208	-2.2188	-1.8687	-1.8625	246.279	-44.851	31.590	225.952	135.137	103.194	132.317	-95.536	99.836	229.837	218.204	-95.872	94.245	227.747	-64.010	172.585	0.00059055	0.0004739	0.00011945	1178	4.3817e-06	3.0342e-06	1350.3	463.76	3.5591e-06	3.5086e-06	605.94	246.11	175.21	82.026	1.9315e-07	118.23	0.0001377	0.00012892	3.6208e-05	1006.9	1.4108e-06	1.4227e-06	1183.1	399.64	1.4454e-06	1.4196e-06	438.78	203.57	128.08	67.715	1.4226e-06	96.352	150.483	-25.529	-4.367	-83.303	-15.204	42.524	-84.303	-78.675	42.489	-16.873	-79.882	-76.090	-74.697	-70.406	-43.322	-72.579	-8191	255	
19443.139	1	1	0	0	0.1922	0.092881	0.20736	0.21698	0.026025	0.20545	0.25487	0.18247	0.1629	0.04507	0.26565	0.17667	0.16591	0.13715	0.30512	0.31822	-1.7771	-1.7854	-1.7833	-2.2021	-1.6646	-2.0875	-2.1979	-1.9208	-2.1104	-1.9458	-1.6875	-2.2938	-1.7563	-2.2646	-2.0729	-2.0563	-85.411	59.647	99.303	229.860	-51.900	-60.906	253.163	165.064	10.107	-37.093	13.989	82.499	252.960	-0.584	33.272	261.686	0.00076914	0.00029751	2.9125e-05	1174.2	5.2872e-06	4.3751e-06	1332.3	458.88	1.6495e-06	6.7257e-06	594.25	243.1	175.75	81.712	4.0231e-06	118.68	0.00013763	0.00013252	3.6755e-05	1001.6	1.4547e-06	1.4371e-06	1166.5	397	1.4372e-06	1.4389e-06	430.84	201.63	127.87	67.685	1.4745e-06	96.278	157.410	-29.432	9.071	-83.755	-6.867	20.702	-84.541	-78.881	-79.216	60.421	-79.697	-76.445	-75.364	-70.492	67.702	-72.747	-8191	255	
19443.234	1	1	0	0	0.11354	0.13745	0.41675	0.19139	0.0087699	0.22679	0.14512	0.086458	0.11964	0.31376	0.16987	0.11669	0.26312	0.37916	0.19072	0.42054	-1.6354	-1.9604	-1.7271	-2.4083	-1.6958	-2.0146	-2.4333	-1.7812	-2.0417	-1.9604	-1.8021	-2.375	-1.8646	-2.1292	-2.2708	-2.0062	152.057	67.602	191.723	-83.871	246.192	155.509	197.173	-86.517	12.153	181.376	83.580	-66.609	164.872	-93.429	78.939	245.758	0.00041729	0.00048869	0.00014524	1175.2	2.4659e-06	1.2622e-06	1326.5	460.13	1.0292e-06	3.1098e-06	589.11	244.03	174.75	81.51	5.1743e-06	118.66	0.00014227	0.00013468	3.7245e-05	1002.4	1.4983e-06	1.4808e-06	1162.3	397.09	1.498e-06	1.4983e-06	431.41	202.1	127.68	67.559	1.5078e-06	96.507	159.055	-28.337	-74.555	-83.255	62.934	105.088	-84.152	-78.558	231.780	-50.979	-80.456	-76.397	-75.250	-70.622	76.098	-72.343	-8191	255	
19443.330	1	1	0	0	0.12668	0.13982	0.13089	0.14538	0.36097	0.12772	0.27591	0.050669	0.14109	0.27064	0.16243	0.23731	0.15785	0.38924	0.014612	0.22659	-1.7271	-2.0167	-1.9375	-2.3396	-1.9146	-1.8771	-2.3729	-1.9688	-2.0104	-2.1771	-1.5646	-2.3812	-1.8375	-2.1792	-2.2188	-2.0563	229.616	250.470	63.307	-39.602	74.122	-94.393	238.187	243.173	206.515	239.844	-28.610	203.275	-40.944	225.707	166.363	247.768	0.00067731	0.00063138	1.6221e-05	1171	1.3182e-06	4.1722e-06	1323.8	460.25	4.3607e-06	5.3154e-06	594.04	243.75	174.19	81.69	1.9478e-06	119.32	0.00014544	0.00013793	3.8533e-05	1002.3	1.505e-06	1.4887e-06	1164.2	397.51	1.5191e-06	1.4945e-06	432.62	202.57	127.74	67.661	1.5158e-06	97.06	162.882	-19.991	-8.078	-83.532	-15.683	78.731	-84.451	-78.721	-15.714	-65.083	-80.274	-76.096	-74.912	-70.163	92.936	-72.407	-8191	255	
19443.426	1	1	0	0	0.10025	0.046443	0.19447	0.37089	0.46549	0.12923	0.21765	0.24295	0.12607	0.22459	0.24535	0.12609	0.069997	0.21103	0.0076894	0.19368	-1.7979	-2.1063	-1.8104	-2.2792	-1.9792	-1.7833	-2.2625	-1.9708	-2.0438	-2.2667	-1.75	-2.4875	-1.9771	-1.9917	-2.3063	-1.9813	99.591	-16.036	19.129	-94.149	-5.832	-82.184	208.439	149.228	155.883	253.754	-86.352	143.659	26.888	218.253	30.074	197.943	0.00066715	0.00064087	0.00027761	1165.6	3.4998e-06	2.8194e-06	1335.6	459.64	4.7914e-06	5.9227e-06	601.18	245.78	175.57	82.049	4.4564e-06	119.95	0.00014401	0.00013664	3.8307e-05	1000.9	1.5171e-06	1.4829e-06	1171.7	396.9	1.521e-06	1.499e-06	436.73	203.79	128.09	67.996	1.5102e-06	97.477	149.704	-2.043	-54.293	-83.777	-37.523	-23.776	-84.339	-78.286	-82.528	-43.820	-79.861	-76.229	-74.859	-70.189	-26.434	-72.278	-8191	255	
19443.521	1	1	0	0	0.14358	0.28527	0.17759	0.3237	0.26083	0.15993	0.093246	0.24372	0.24939	0.20352	0.17005	0.22162	0.10365	0.20911	0.25484	0.11424	-1.5979	-2.1396	-1.7146	-2.1521	-1.9708	-1.6417	-2.4333	-1.8667	-1.9854	-2.1646	-1.8	-2.1042	-1.7458	-1.8563	-2.1375	-2.2979	3.802	-73.445	162.393	223.468	238.528	50.106	260.704	222.745	35.450	-61.052	222.742	188.397	186.739	-71.651	109.541	143.216	0.00055978	0.00026326	8.8406e-05	1172.8	5.3841e-06	6.4477e-06	1325.1	458.66	2.9625e-06	4.5476e-06	586.78	243.13	174.08	81.265	5.7694e-06	118.34	0.00014278	0.00013714	3.7631e-05	999.59	1.4754e-06	1.4923e-06	1166.5	395.84	1.4772e-06	1.4706e-06	430.36	201.49	127.42	67.343	1.4806e-06	96.022	167.849	-39.397	55.112	-83.124	-6.424	33.287	-84.572	-78.474	-6.981	6.366	-79.920	-76.366	-75.664	-70.180	125.365	-72.358	-8191	255	
19443.617	1	1	0	0	0.15017	0.33225	0.13406	0.11821	0.21331	0.17681	0.12152	0.23379	0.26769	0.083526	0.072514	0.14976	0.12536	0.33351	0.24597	0.30996	-1.3396	-2.1604	-1.6729	-2.2333	-2.1167	-1.7125	-2.375	-1.9292	-1.8458	-2.2417	-1.7625	-2.2708	-2.1312	-2.0687	-2.3146	-2.0333	95.789	-80.756	-51.084	-92.710	111.398	-23.876	119.876	-7.356	-84.519	74.121	61.350	-96.437	59.708	205.799	36.954	192.896	0.00068765	0.00021063	0.00023189	1164	4.1213e-06	5.2711e-06	1311.5	455.82	4.5473e-06	5.2106e-06	592.3	240.68	173.41	81.48	6.9463e-06	118.67	0.00014277	0.00013295	3.811e-05	995.85	1.4715e-06	1.4727e-06	1156.3	393.89	1.4936e-06	1.4844e-06	429.19	200.5	126.75	67.33	1.4945e-06	96.098	160.072	-66.850	-90.429	-83.425	-11.390	66.900	-84.417	-78.940	-1.430	-14.074	-79.816	-76.182	-75.135	-70.321	75.084	-72.380	-8191	255	
19443.715	1	1	0	0	0.32588	0.063115	0.26453	0.23667	0.20788	0.15594	0.097254	0.1081	0.06481	0.14096	0.057758	0.23668	0.1113	0.060587	0.15333	0.29735	-1.5896	-2.1292	-1.8354	-1.9542	-2.3417	-1.6167	-2.4292	-2.0125	-1.7542	-2.2104	-1.9396	-2.0875	-2.1646	-1.8625	-1.975	-2.2479	28.166	113.350	-82.046	248.844	186.883	182.624	156.743	192.858	-78.720	-76.656	245.938	244.192	-74.357	224.985	189.976	198.301	0.00072537	0.0003296	0.00010207	1160.1	4.3864e-06	7.1774e-06	1317	455.17	2.9909e-06	2.4441e-06	586.28	242.33	173.37	81.637	5.6745e-06	119.37	0.0001431	0.00013566	3.7729e-05	992.9	1.4895e-06	1.4887e-06	1157.9	393.06	1.4863e-06	1.4835e-06	429.84	201.51	127.04	67.684	1.4794e-06	97.107	161.713	-12.950	25.530	-83.105	-15.906	14.473	-84.144	-78.564	240.465	-6.544	-80.112	-76.061	-75.119	-70.409	11.824	-72.519	-8191	255	
19443.834	1	1	0	0	0.079314	0.28546	0.051801	0.24414	0.0045342	0.23991	0.14149	0.072201	0.0695	0.27513	0.17991	0.39253	0.094329	0.33831	0.16505	0.082933	-1.2396	-2.1417	-1.8062	-2.1896	-2.1146	-1.7812	-2.2167	-2.1458	-1.7354	-2.1875	-1.9021	-2.0125	-2.2125	-1.8937	-2.0854	-2.1937	-19.694	-71.491	-26.313	230.077	126.110	118.845	185.975	231.799	-0.741	-41.643	-45.651	240.741	104.217	193.138	241.081	-78.901	0.00047619	0.00034509	0.00028315	1157.4	5.0039e-06	1.4123e-06	1324.7	455.88	3.8887e-06	2.4751e-06	591.01	244.44	174.9	82.236	5.2514e-06	120.44	0.00014296	0.00013314	3.7304e-05	992.82	1.4768e-06	1.4485e-06	1163.6	393.14	1.4735e-06	1.4503e-06	432.33	202.73	127.84	67.814	1.4594e-06	97.588	160.850	-17.817	-44.991	-83.288	13.461	111.059	-84.217	-78.574	-32.839	-6.260	-80.349	-76.562	-75.275	-70.305	62.501	-72.804	-8191	255	
19443.932	1	1	0	0	0.11289	0.1566	0.19441	0.24373	0.18472	0.51336	0.24254	0.1694	0.14372	0.17567	0.24024	0.15933	0.15873	0.12651	0.31105	0.12664	-1.2604	-2.1437	-1.8083	-2.1292	-2.1437	-1.6812	-2.1208	-2.2042	-1.5938	-2.0229	-1.9958	-2.0958	-2.2396	-1.8062	-1.8792	-2.2979	-58.205	-30.137	48.308	97.350	151.769	11.228	210.900	224.966	-1.727	-21.843	-82.629	146.714	223.916	173.951	12.199	144.853	0.00058301	0.00034451	0.00016171	1156.8	4.9497e-06	3.0209e-06	1330.4	456.74	5.2879e-06	1.6988e-06	590.25	243.19	173.3	80.814	2.6344e-06	117.52	0.00014103	0.0001329	3.7646e-05	994.65	1.4629e-06	1.4585e-06	1169.2	393.73	1.4674e-06	1.4603e-06	432.05	201.79	126.59	66.796	1.4678e-06	95.348	173.421	-55.835	16.246	-83.055	6.903	-0.603	-84.340	-79.106	22.222	-37.007	-80.313	-76.542	-75.007	-70.235	97.000	-72.616	-8191	255	
19444.027	1	1	0	0	0.11392	0.44022	0.037854	0.35678	0.079081	0.072615	0.25231	0.28769	0.2022	0.034457	0.23589	0.31159	0.096781	0.27667	0.089583	0.20023	-1.2167	-2.0979	-1.8625	-2.0167	-2.1813	-1.775	-2.1063	-2.1021	-1.725	-2.0333	-1.8104	-1.7958	-2.2708	-1.9854	-1.9854	-2.2938	-63.697	69.177	47.491	236.777	-24.696	-63.187	183.045	260.024	70.836	129.221	213.189	248.609	246.983	-71.031	243.201	-80.559	0.0006157	0.00052892	0.0001585	1161.6	4.112e-06	8.202e-06	1323.9	454.66	4.1155e-06	3.6909e-06	585.49	240.94	172.5	79.01	4.626e-06	114.53	0.00014141	0.00013251	3.7664e-05	991.84	1.4512e-06	1.4587e-06	1159	392.16	1.4725e-06	1.4403e-06	429.06	199.32	125.76	65.217	1.4646e-06	93.539	151.714	-63.041	-28.985	-83.430	-78.721	67.613	-84.421	-78.788	4.263	18.198	-80.055	-75.910	-74.984	-70.250	15.185	-72.365	-8191	255	
19444.123	1	1	0	0	0.015852	0.17084	0.14572	0.23391	0.2711	0.22934	0.089722	0.18433	0.23217	0.27752	0.15164	0.20223	0.25226	0.14542	0.45441	0.34301	-1.1896	-2.1437	-1.9729	-1.8	-2.1188	-1.8625	-1.9875	-2.5083	-1.7812	-2.0687	-2.0167	-1.6708	-2.1	-1.975	-1.8833	-2.2604	220.857	91.333	86.672	187.805	27.673	44.372	204.619	225.942	43.037	218.131	38.308	90.515	164.601	255.191	10.348	221.321	0.00049383	0.0005407	0.00040677	1164.4	3.5648e-06	6.9849e-06	1332.4	453.13	2.6461e-06	1.6461e-06	589.28	241.48	171.05	78.426	5.7171e-06	114.64	0.00014021	0.00012943	3.6912e-05	996.96	1.4543e-06	1.444e-06	1165.6	392.01	1.4472e-06	1.4487e-06	430.97	199.46	125.3	64.859	1.4501e-06	93.208	159.698	11.759	-22.031	-83.175	-22.847	49.935	-84.013	-78.669	1.439	219.819	-80.152	-76.147	-74.890	-70.436	74.852	-72.122	-8191	255	
19444.219	1	1	0	0	0.13839	0.14865	0.064966	0.14556	0.072226	0.23059	0.23277	0.41598	0.20395	0.1576	0.15706	0.16551	0.048998	0.30223	0.10779	0.39863	-1.4854	-1.9729	-2.0083	-1.7354	-2.15	-1.9104	-2.0146	-2.4042	-1.8958	-2	-2.3271	-1.7979	-2.0958	-2.1437	-1.7708	-2.3875	186.184	143.625	-74.046	-17.434	-80.515	-37.737	125.588	201.692	112.539	-29.706	253.413	-91.149	260.259	-95.715	192.305	217.005	0.0005559	0.00015094	4.5996e-05	1170.4	5.0844e-06	3.6098e-06	1335.3	456.76	3.2306e-06	8.2351e-06	593.74	241.33	170.67	78.627	6.1227e-06	115.38	0.00014015	0.00013073	3.6212e-05	994.87	1.4342e-06	1.4214e-06	1172.6	393.25	1.4399e-06	1.4109e-06	432.71	200.01	125.35	65.056	1.4178e-06	93.846	154.069	22.325	-26.314	-83.278	26.496	61.396	-84.056	-78.579	-11.090	-39.703	-79.747	-76.153	-75.909	-70.484	35.654	-72.721	-8191	255	
19444.314	1	1	0	0	0.06601	0.17724	0.30655	0.2188	0.053891	0.23483	0.49835	0.16688	0.23155	0.035887	0.074707	0.11218	0.14006	0.26289	0.045746	0.16708	-1.7042	-2.0458	-2.1667	-1.7708	-2.2062	-1.9896	-1.7917	-2.4083	-1.9125	-1.8646	-2.2938	-1.925	-2.0687	-2.2146	-1.7687	-2.5438	83.284	34.895	231.316	132.101	198.518	51.954	221.958	225.789	121.099	233.890	187.782	200.365	201.352	238.301	116.810	196.102	0.00064531	0.00021685	0.00023109	1175.3	4.383e-06	3.7753e-06	1348	454.96	4.1041e-06	2.1409e-06	597.39	243.82	172.92	79.085	6.4418e-06	115.83	0.00013789	0.00013024	3.6371e-05	1000.1	1.4343e-06	1.4207e-06	1179	393.52	1.4435e-06	1.4422e-06	434.91	201.59	125.98	65.39	1.4525e-06	94.248	157.682	-67.554	-4.536	-83.180	31.059	18.047	-84.556	-78.637	-16.971	166.217	-80.154	-76.432	-74.865	-70.275	50.017	-72.396	-8191	255	
19444.434	1	1	0	0	0.10357	0.21199	0.036404	0.23726	0.077675	0.16647	0.36865	0.18978	0.12007	0.30598	0.20372	0.29263	0.25536	0.271	0.17284	0.37639	-1.2812	-1.8729	-2.2771	-1.7333	-2.0062	-1.9813	-1.9542	-2.3542	-1.8792	-1.8354	-2.2917	-2.0271	-2.1979	-2.1688	-1.8062	-2.4	-79.749	-71.646	147.332	-35.972	194.139	20.044	165.214	214.319	130.887	-12.212	255.388	215.450	-62.133	-50.246	178.673	218.323	0.00053447	0.00037749	7.1855e-05	1167.7	2.6453e-06	3.3475e-06	1336.9	453.66	2.7468e-06	4.052e-06	590.47	240.35	170.84	78.504	2.7876e-06	114.49	0.00014055	0.00013221	3.6897e-05	999.43	1.4475e-06	1.4469e-06	1174.6	393.43	1.4669e-06	1.4603e-06	431.1	199.27	125.36	65.135	1.4473e-06	93.175	163.224	-52.199	170.112	-83.347	50.318	44.180	-84.223	-78.716	-60.058	45.113	-79.857	-76.094	-74.923	-70.257	38.539	-72.503	-8191	255	
19444.529	1	1	0	0	0.06308	0.32351	0.20283	0.22332	0.25914	0.14319	0.30536	0.46641	0.28526	0.20549	0.07078	0.28418	0.05992	0.31669	0.1519	0.30436	-1.3708	-1.7792	-2.3875	-1.8729	-1.9396	-2.0187	-2.0417	-2.3625	-2.0417	-1.8479	-2.4542	-1.9542	-2.0833	-2.2646	-1.675	-2.275	98.386	180.828	-55.129	163.717	98.678	34.080	204.038	199.313	102.236	161.196	-78.271	208.297	-94.172	251.318	155.508	163.237	0.00061834	0.00057544	0.00024545	1158.2	6.5753e-06	8.3696e-07	1324.9	455.58	2.1718e-06	2.5028e-06	587	239.26	170.92	78.432	2.8767e-06	114.7	0.00013874	0.00013246	3.6635e-05	991.72	1.4423e-06	1.4412e-06	1165.2	391.96	1.4357e-06	1.4264e-06	428.93	198.61	125.16	64.886	1.4293e-06	93.251	164.214	-38.983	13.775	-83.518	34.480	113.988	-84.174	-78.558	-49.002	48.657	-80.057	-76.307	-74.863	-70.263	35.769	-72.389	-8191	255	
19444.627	1	1	0	0	0.057557	0.22937	0.27574	0.07515	0.11526	0.11965	0.050622	0.57939	0.19216	0.081844	0.10789	0.25496	0.18543	0.10972	0.2624	0.28289	-1.4375	-1.575	-2.0812	-1.9292	-2.0792	-2.175	-1.925	-2.1479	-2.075	-1.9312	-2.1542	-1.8104	-1.9771	-2.4583	-1.7333	-2.3563	152.530	25.808	4.695	19.157	232.098	63.602	221.232	206.990	89.548	-27.196	166.419	243.676	231.544	-78.657	107.258	193.776	0.00052451	0.00038497	4.4998e-05	1162	5.7484e-06	6.0362e-06	1327.8	454.67	2.3675e-06	8.3283e-06	589.42	241.06	171.77	78.482	2.439e-06	114.86	0.00013894	0.00013028	3.6284e-05	994.2	1.4417e-06	1.4365e-06	1168.4	392.71	1.4375e-06	1.4142e-06	430.84	199.65	125.33	64.785	1.4478e-06	93.349	173.982	0.353	-15.508	-83.051	-1.478	-8.788	-84.407	-78.410	-33.496	40.206	-80.070	-75.895	-75.213	-70.293	58.055	-72.400	-8191	255	
19444.723	1	1	0	0	0.031677	0.20309	0.13684	0.34184	0.13977	0.16713	0.10599	0.21736	0.10711	0.071416	0.24939	0.25176	0.1198	0.47395	0.033428	0.41248	-1.6875	-1.4604	-2.0771	-1.8896	-1.9333	-2.3875	-1.8979	-2.1521	-2.0708	-1.8687	-2.3292	-2.0042	-1.9937	-2.4271	-1.8542	-2.2438	106.996	-48.355	51.514	232.867	152.528	34.929	147.138	-89.377	123.788	6.408	111.473	-73.023	-72.486	-93.097	-42.853	162.537	0.00050638	0.00024422	1.0684e-05	1167.8	6.3438e-06	3.531e-06	1335.1	454.85	2.6968e-06	4.6397e-06	597.41	242.82	170.39	78.627	2.6527e-06	115.09	0.00013758	0.00013128	3.6632e-05	996.21	1.4195e-06	1.4144e-06	1174.9	392.51	1.4301e-06	1.42e-06	434.8	200.76	125.32	64.947	1.4181e-06	93.799	171.326	-15.337	81.453	-83.613	-1.150	38.672	-84.460	-78.794	27.115	51.959	-80.154	-76.493	-75.367	-70.521	49.661	-72.306	-8191	255	
19444.818	1	1	0	0	0.22332	0.1512	0.17261	0.13272	0.010402	0.091828	0.31041	0.3029	0.30756	0.138	0.13353	0.11623	0.17045	0.20518	0.35881	0.028048	-1.7625	-1.7896	-1.9375	-2.1521	-1.8354	-2.3375	-1.9021	-2.2042	-2.2313	-1.6562	-2.1333	-2.2562	-1.8083	-2.3229	-1.8708	-2.05	245.568	189.408	-52.920	211.694	184.182	211.256	162.614	220.453	38.706	-91.985	257.535	178.378	209.983	235.636	259.675	24.809	0.00060539	0.00071456	0.00017215	1176	4.7424e-06	1.4374e-06	1341.7	455.55	5.4986e-06	3.2408e-06	598.92	241.16	172.53	78.615	2.817e-06	115.16	0.00013924	0.00013003	3.6078e-05	999.9	1.4209e-06	1.4101e-06	1179.7	393.48	1.4148e-06	1.4153e-06	434.78	200.49	125.56	65.164	1.4455e-06	93.707	153.277	-91.201	-9.241	-83.320	13.979	118.608	-84.235	-78.912	6.151	-45.741	-79.651	-76.590	-75.055	-70.624	19.189	-72.676	-8191	255	
19444.914	1	1	0	0	0.13841	0.14368	0.20403	0.28341	0.15053	0.055592	0.18606	0.32695	0.031693	0.32278	0.14286	0.23628	0.32764	0.24272	0.052473	0.029501	-1.6063	-1.9042	-2.0667	-2.2604	-1.6229	-2.1833	-1.9771	-2.0062	-2.0646	-1.7458	-2.0667	-2.1333	-1.875	-2.3208	-1.95	-2.0521	-85.451	-8.232	179.365	215.570	104.327	177.963	194.888	224.982	254.471	218.200	50.089	65.663	243.188	224.764	68.184	245.994	0.00064208	0.00036976	0.00023308	1169.5	5.1162e-06	4.5764e-06	1323.8	454.36	7.3533e-07	2.6298e-06	591.41	238.59	171.58	78.156	5.3867e-06	114.04	0.00013641	0.00012967	3.6189e-05	996.59	1.4372e-06	1.4062e-06	1164.1	392.04	1.443e-06	1.4028e-06	428.33	197.99	124.87	64.821	1.426e-06	92.703	169.779	65.932	-32.002	-83.735	-9.738	47.158	-84.659	-78.991	-93.508	-31.687	-79.969	-76.472	-74.988	-70.248	25.577	-72.605	-8191	255	
19445.012	1	1	0	0	0.041572	0.035943	0.19506	0.066596	0.14094	0.146	0.31077	0.31054	0.086849	0.15382	0.13565	0.35416	0.12231	0.2344	0.20177	0.20947	-1.6604	-1.9646	-1.9625	-2.25	-1.5854	-2.2812	-2.2646	-1.925	-2.2188	-1.7792	-2.175	-2.1667	-1.6583	-2.4333	-2.0542	-1.975	221.449	142.534	139.416	82.873	110.266	240.919	235.352	210.768	250.493	185.586	-76.262	235.621	247.577	-72.795	124.642	243.217	0.00059871	0.00066	0.00023736	1157	2.3216e-06	3.3576e-06	1324.3	454	5.667e-06	7.09e-06	587.12	239.81	172.21	78.28	5.0525e-06	114.29	0.00013744	0.00012877	3.5987e-05	991.44	1.4205e-06	1.4114e-06	1161.5	390.85	1.4287e-06	1.4202e-06	428.07	198.4	125.48	64.818	1.4286e-06	92.923	165.400	-14.262	-58.244	-83.749	-11.258	-19.268	-84.523	-78.774	-12.641	12.467	-80.310	-76.472	-75.008	-70.308	142.016	-72.649	-8191	255	
19445.133	1	1	0	0	0.095638	0.16935	0.08838	0.28431	0.20886	0.15411	0.37486	0.3114	0.23456	0.016931	0.24933	0.42978	0.40631	0.26481	0.20174	0.33457	-1.7667	-1.7646	-2.0458	-2.0854	-1.5542	-2.275	-2.0708	-1.8042	-2.1646	-1.9146	-1.9292	-2.2333	-1.6625	-2.0875	-2.1833	-1.9	47.632	-11.009	-33.770	152.797	147.476	156.667	187.935	250.402	116.826	207.205	36.547	236.384	22.470	206.456	167.049	159.877	0.00068476	0.00058207	0.00019259	1161.1	4.2278e-06	5.349e-06	1330.6	454.21	4.7781e-06	4.1546e-06	590.35	241.02	170.76	78.679	2.918e-06	115.1	0.00013655	0.00012879	3.6084e-05	990.29	1.4109e-06	1.4157e-06	1165.9	391.71	1.4262e-06	1.4261e-06	430.44	199.6	124.79	65.072	1.4403e-06	93.621	162.926	-1.516	-54.760	-83.261	-12.704	93.152	-84.476	-78.858	19.557	-49.059	-80.117	-76.107	-75.664	-70.434	47.238	-72.356	-8191	255	
#DATA ENDS
