BOXY.EXE: ISS Imagent and Oximeter Data Acquisition Program Version 0.80
Ascii Record File

#ACQ INFORMATION
2  Detector Channels 
16  External MUX Channels 
1  Auxiliary Channels 
5000  Waveform (CCF) Frequency (Hz)
1  Waveforms Skipped 
30  Waveforms Averaged 
1  Cycles Averaged 
16  Acquisitions per Waveform 
10.0806  Updata Rate (Hz) 

#FILE INFORMATION
TRUE -- External MUX Channel results are PARSED.
FALSE -- AC DC and Phase are NOT grouped.
TRUE -- Companion Program Settings File CREATED.
FALSE -- AC data not excluded
FALSE -- DC data not excluded
FALSE -- Phase data not excluded
FALSE -- Auxillary Chn. data not excluded
Tab delimiters

#CALIBRATION STATE
TRUE -- Waveform Calibration Values APPLIED.


#AUX CALIBRATION VALUES
Val Type	aux-1	

Term	1.0000e+00	
Factor	0.0000e+00	


#WF CALIBRATION VALUES
A = Detector Channel
Val Type	A-AC1	A-AC2	A-AC3	A-AC4	A-AC5	A-AC6	A-AC7	A-AC8	A-AC9	A-AC10	A-AC11	A-AC12	A-AC13	A-AC14	A-AC15	A-AC16	A-DC1	A-DC2	A-DC3	A-DC4	A-DC5	A-DC6	A-DC7	A-DC8	A-DC9	A-DC10	A-DC11	A-DC12	A-DC13	A-DC14	A-DC15	A-DC16	A-Ph1	A-Ph2	A-Ph3	A-Ph4	A-Ph5	A-Ph6	A-Ph7	A-Ph8	A-Ph9	A-Ph10	A-Ph11	A-Ph12	A-Ph13	A-Ph14	A-Ph15	A-Ph16	

Term	0.00000e+00	0.00000e+00	0.00000e+00	0.00000e+00	0.00000e+00	0.00000e+00	0.00000e+00	0.00000e+00	0.00000e+00	0.00000e+00	0.00000e+00	0.00000e+00	0.00000e+00	0.00000e+00	0.00000e+00	0.00000e+00	0.00000e+00	0.00000e+00	0.00000e+00	0.00000e+00	0.00000e+00	0.00000e+00	0.00000e+00	0.00000e+00	0.00000e+00	0.00000e+00	0.00000e+00	0.00000e+00	0.00000e+00	0.00000e+00	0.00000e+00	0.00000e+00	0.00000e+00	0.00000e+00	0.00000e+00	0.00000e+00	0.00000e+00	0.00000e+00	0.00000e+00	0.00000e+00	0.00000e+00	0.00000e+00	0.00000e+00	0.00000e+00	0.00000e+00	0.00000e+00	0.00000e+00	0.00000e+00	
Factor	1.00000e+00	1.00000e+00	1.00000e+00	1.00000e+00	1.00000e+00	1.00000e+00	1.00000e+00	1.00000e+00	1.00000e+00	1.00000e+00	1.00000e+00	1.00000e+00	1.00000e+00	1.00000e+00	1.00000e+00	1.00000e+00	1.00000e+00	1.00000e+00	1.00000e+00	1.00000e+00	1.00000e+00	1.00000e+00	1.00000e+00	1.00000e+00	1.00000e+00	1.00000e+00	1.00000e+00	1.00000e+00	1.00000e+00	1.00000e+00	1.00000e+00	1.00000e+00	X	X	X	X	X	X	X	X	X	X	X	X	X	X	X	X	

B = Detector Channel
Val Type	B-AC1	B-AC2	B-AC3	B-AC4	B-AC5	B-AC6	B-AC7	B-AC8	B-AC9	B-AC10	B-AC11	B-AC12	B-AC13	B-AC14	B-AC15	B-AC16	B-DC1	B-DC2	B-DC3	B-DC4	B-DC5	B-DC6	B-DC7	B-DC8	B-DC9	B-DC10	B-DC11	B-DC12	B-DC13	B-DC14	B-DC15	B-DC16	B-Ph1	B-Ph2	B-Ph3	B-Ph4	B-Ph5	B-Ph6	B-Ph7	B-Ph8	B-Ph9	B-Ph10	B-Ph11	B-Ph12	B-Ph13	B-Ph14	B-Ph15	B-Ph16	

Term	0.00000e+00	0.00000e+00	0.00000e+00	0.00000e+00	0.00000e+00	0.00000e+00	0.00000e+00	0.00000e+00	0.00000e+00	0.00000e+00	0.00000e+00	0.00000e+00	0.00000e+00	0.00000e+00	0.00000e+00	0.00000e+00	0.00000e+00	0.00000e+00	0.00000e+00	0.00000e+00	0.00000e+00	0.00000e+00	0.00000e+00	0.00000e+00	0.00000e+00	0.00000e+00	0.00000e+00	0.00000e+00	0.00000e+00	0.00000e+00	0.00000e+00	0.00000e+00	-1.45867e+02	-1.23783e+02	-1.30834e+02	-1.84083e+02	-7.58095e+01	-7.30478e+01	-1.55713e+02	-1.62015e+02	-9.03867e+01	-7.43714e+01	-1.85725e+02	-1.70521e+02	-1.87050e+02	-1.76710e+02	-7.51131e+01	-1.49456e+02	
Factor	2.10453e-05	1.52073e-04	4.08231e-05	2.21187e-01	1.33617e-06	1.51758e-06	1.55432e-01	4.94518e-02	1.27884e-06	1.69986e-06	1.93204e-01	2.92118e-02	6.10080e-02	8.76291e-03	1.36065e-06	1.24210e-02	3.01981e-06	3.36426e-06	9.36133e-07	1.14310e-01	3.63966e-08	3.69298e-08	7.62793e-02	2.57675e-02	3.62490e-08	3.68367e-08	9.47209e-02	1.47461e-02	3.12550e-02	4.57521e-03	3.64405e-08	6.30051e-03	X	X	X	X	X	X	X	X	X	X	X	X	X	X	X	X	



#DISTANCE SETTINGS
A = Detector Channel
A-1	A-2	A-3	A-4	A-5	A-6	A-7	A-8	A-9	A-10	A-11	A-12	A-13	A-14	A-15	A-16	

2.5000e+00	3.0000e+00	2.5000e+00	3.0000e+00	2.0000e+00	3.0000e+00	1.5000e+00	3.0000e+00	3.0000e+00	3.0000e+00	3.0000e+00	3.0000e+00	3.0000e+00	3.0000e+00	1.5000e+00	3.0000e+00	

B = Detector Channel
B-1	B-2	B-3	B-4	B-5	B-6	B-7	B-8	B-9	B-10	B-11	B-12	B-13	B-14	B-15	B-16	

1.0000e+01	1.0000e+01	1.0000e+01	1.4400e+00	1.0000e+01	1.0000e+01	1.5100e+00	1.9400e+00	1.0000e+01	1.0000e+01	1.9900e+00	2.4900e+00	2.4100e+00	2.9000e+00	1.0000e+01	2.9800e+00	




#DATA BEGINS
time	group	step	mark	flag	A-AC1	A-AC2	A-AC3	A-AC4	A-AC5	A-AC6	A-AC7	A-AC8	A-AC9	A-AC10	A-AC11	A-AC12	A-AC13	A-AC14	A-AC15	A-AC16	A-DC1	A-DC2	A-DC3	A-DC4	A-DC5	A-DC6	A-DC7	A-DC8	A-DC9	A-DC10	A-DC11	A-DC12	A-DC13	A-DC14	A-DC15	A-DC16	A-Ph1	A-Ph2	A-Ph3	A-Ph4	A-Ph5	A-Ph6	A-Ph7	A-Ph8	A-Ph9	A-Ph10	A-Ph11	A-Ph12	A-Ph13	A-Ph14	A-Ph15	A-Ph16	B-AC1	B-AC2	B-AC3	B-AC4	B-AC5	B-AC6	B-AC7	B-AC8	B-AC9	B-AC10	B-AC11	B-AC12	B-AC13	B-AC14	B-AC15	B-AC16	B-DC1	B-DC2	B-DC3	B-DC4	B-DC5	B-DC6	B-DC7	B-DC8	B-DC9	B-DC10	B-DC11	B-DC12	B-DC13	B-DC14	B-DC15	B-DC16	B-Ph1	B-Ph2	B-Ph3	B-Ph4	B-Ph5	B-Ph6	B-Ph7	B-Ph8	B-Ph9	B-Ph10	B-Ph11	B-Ph12	B-Ph13	B-Ph14	B-Ph15	B-Ph16	aux-1	digaux	

12064.552	1	1	0	256	0.01382	0.15946	0.091201	0.39493	0.25937	0.096229	0.3816	0.37302	0.13692	0.061165	0.082064	0.29484	0.15965	0.42342	0.13081	0.31449	-1.75	-2.0125	-1.8417	-2.5729	-1.8854	-2.1396	-2.2896	-2.0563	-2.3688	-2.3521	-2.0854	-2.5792	-2.1646	-2.1896	-2.4417	-2.1417	-129.879	125.634	-104.988	-119.110	-61.311	97.623	122.929	139.678	-154.434	79.573	79.300	105.215	-101.411	107.458	141.230	100.864	0.0012628	0.00060329	0.0001292	727.98	3.9618e-06	2.6487e-06	779.81	317.34	7.7917e-06	6.2687e-06	393.94	209.04	151.06	85.209	8.0364e-06	115.47	0.00083878	0.00078022	0.00021888	728.07	8.4392e-06	8.7301e-06	778.06	314.94	8.6328e-06	8.5421e-06	396.7	207.62	151.71	84.553	8.734e-06	114.78	181.060	-134.871	-88.534	-160.097	10.028	24.486	-161.440	-155.502	-68.982	-67.936	-157.275	-154.181	-153.815	-148.872	-35.105	-151.407	-8191	255	
12064.648	1	1	0	0	0.24484	0.2278	0.062768	0.34693	0.32693	0.097968	0.28609	0.18296	0.19989	0.11198	0.18139	0.13648	0.07173	0.38278	0.23328	0.23349	-1.7833	-2.3542	-1.9771	-2.2979	-2.1583	-2.05	-2.6729	-2.2062	-2.2938	-2.3854	-1.9854	-2.5792	-2.1437	-2.2583	-2.575	-2.2354	31.342	154.803	154.937	-135.579	-40.170	61.364	126.712	60.112	-142.934	39.667	147.205	33.173	-51.724	169.768	-156.662	143.715	0.0012872	0.00035783	0.00017366	730.5	2.9134e-06	1.0619e-06	786.12	314.8	5.6162e-06	9.6154e-06	397.32	209.67	151.58	85.433	4.3165e-06	115.9	0.00085399	0.00080548	0.00022364	729.9	8.7481e-06	8.8321e-06	781.46	314.25	8.8782e-06	9.0709e-06	396.05	207.81	152.43	84.78	9.0598e-06	115.2	176.358	-97.207	-77.556	-160.009	-13.040	58.758	-160.788	-155.253	-66.277	-49.219	-157.168	-154.039	-153.677	-148.720	-43.134	-151.186	-8191	255	
12064.767	1	1	0	0	0.27533	0.25687	0.059107	0.27914	0.15423	0.35944	0.11814	0.37679	0.11045	0.15157	0.18415	0.30483	0.12513	0.32456	0.052287	0.3058	-1.8771	-2.2667	-1.775	-2.0917	-2.0312	-2.0812	-2.5271	-2.1021	-2.275	-2.2229	-1.8813	-2.4729	-2.3583	-2.075	-2.2958	-2.325	-123.324	130.740	20.587	124.284	-97.821	173.623	67.570	98.795	-136.658	-167.019	184.812	-164.015	-164.719	172.626	-131.215	95.696	0.0013119	0.0013003	0.00024822	727.12	7.967e-06	1.3206e-05	784.58	316.68	9.8345e-06	7.2472e-06	396.54	210.08	151.9	85.241	3.8106e-06	116.28	0.00086458	0.00082511	0.0002287	728.21	8.9957e-06	9.1415e-06	782.95	315.27	8.9613e-06	9.0449e-06	399.03	208.69	152.48	84.745	9.059e-06	115.28	181.692	-69.115	-93.832	-160.255	-43.274	-65.381	-161.182	-155.535	-50.500	-38.714	-157.565	-154.410	-154.209	-149.092	-20.135	-151.621	-8191	255	
12064.863	1	1	0	0	0.1007	0.063294	0.27388	0.40029	0.20833	0.27993	0.14797	0.10507	0.1373	0.28181	0.093979	0.11423	0.35966	0.11329	0.27247	0.40136	-1.575	-2.2417	-1.8771	-2.3729	-2.0979	-1.8292	-2.5042	-2.1979	-1.875	-2.425	-2.1375	-2.3063	-2.2313	-2.2292	-2.45	-2.3417	-100.564	52.229	172.835	177.443	-153.066	-159.802	63.788	168.501	-60.475	45.686	160.002	171.419	-154.018	132.303	-8.184	142.088	0.0013095	0.00059609	0.00014442	725.08	7.1839e-06	1.5682e-05	779.52	316.08	1.0689e-05	6.7147e-06	397.76	209.65	151	85.314	6.2936e-06	115.28	0.00087146	0.00082371	0.00022827	728.52	8.9289e-06	8.9684e-06	779.71	314.58	8.969e-06	8.903e-06	396.89	207.56	151.8	84.507	8.9055e-06	114.38	179.867	-99.932	-69.905	-160.142	-14.464	-22.481	-160.928	-155.322	-64.640	-71.995	-157.236	-154.091	-153.497	-148.715	-12.131	-150.929	-8191	255	
12064.937	1	1	0	0	0.18101	0.2908	0.23812	0.080412	0.099116	0.14368	0.062012	0.12783	0.063704	0.1307	0.21654	0.29617	0.22477	0.32453	0.26947	0.3583	-1.5729	-2.2667	-1.8854	-2.2875	-2.2146	-1.7875	-2.4146	-2.0833	-1.9833	-2.4188	-1.9583	-2.3063	-2.4125	-2.0208	-2.4458	-2.4333	-8.821	-102.104	-27.850	-162.066	35.103	87.048	16.589	145.668	-33.410	2.397	-62.587	136.540	96.431	155.435	-50.172	131.228	0.001228	0.00035643	0.00022701	723.83	5.5953e-06	3.1798e-06	781.04	316.4	4.4338e-06	4.2112e-06	392.95	209.88	151.42	85.21	4.4342e-06	115.85	0.00086088	0.00080526	0.00022909	725.42	8.711e-06	8.867e-06	776.98	314.68	8.7294e-06	8.6821e-06	395.44	207.83	151.52	84.596	8.716e-06	114.79	180.376	-161.258	-97.753	-159.731	-20.827	-25.070	-160.693	-155.065	-52.072	26.595	-157.085	-153.874	-153.611	-148.767	-87.225	-151.100	-8191	255	
12065.056	1	1	0	0	0.15308	0.12464	0.30401	0.10861	0.060296	0.14434	0.30835	0.18551	0.050859	0.18601	0.2516	0.24904	0.18907	0.21859	0.22736	0.32178	-1.4146	-2.2313	-2.0083	-2.1813	-2.2062	-1.8417	-2.3396	-2.2625	-2.0667	-2.2979	-2.1813	-2.3312	-2.1875	-2.2583	-2.2125	-2.275	-120.674	85.554	103.935	127.141	90.387	121.337	84.481	143.987	53.901	-129.109	185.746	-167.001	-94.826	185.331	-59.083	116.891	0.0012563	0.00032547	9.664e-05	726.31	7.8884e-06	8.3549e-06	786.62	316.27	7.9991e-06	6.3391e-06	395.71	212.12	152.84	85.832	6.0499e-06	116.52	0.00085003	0.00079366	0.0002241	726.79	8.6723e-06	8.7667e-06	781.95	314.98	8.6388e-06	8.6641e-06	397.29	209.39	152.66	85.024	8.7283e-06	115.68	178.398	-131.182	-118.381	-159.763	-69.299	-24.491	-161.075	-154.868	-24.938	-64.941	-156.486	-153.980	-153.325	-148.576	-30.727	-151.011	-8191	255	
12065.152	1	1	0	0	0.12241	0.19815	0.26488	0.25068	0.22715	0.13682	0.1162	0.29657	0.23012	0.21599	0.19608	0.29089	0.1052	0.070153	0.075439	0.10381	-1.6104	-2.4062	-1.8521	-2.3333	-2.4458	-1.8833	-2.2812	-2.3271	-1.8	-2.3229	-2.2958	-2.3937	-2.4167	-2.3812	-2.1875	-2.6083	-22.978	-3.000	170.266	129.331	70.504	94.078	75.603	151.722	35.795	131.073	-37.334	140.133	2.704	90.274	-166.051	72.128	0.0012946	0.0010069	0.00025524	724.66	4.3274e-06	3.6839e-06	787.43	318.34	7.0074e-06	1.5609e-06	400.51	211.91	152.42	85.344	6.4514e-06	116.35	0.00085279	0.0007986	0.00022231	727.97	8.7067e-06	8.825e-06	784.59	316.12	8.8591e-06	8.8005e-06	401.42	209.65	152.78	84.664	8.8344e-06	115.36	179.075	-66.389	-126.647	-159.276	-30.474	-50.962	-160.738	-154.828	-36.792	174.147	-156.595	-153.508	-152.768	-148.486	-75.732	-150.906	-8191	255	
12065.248	1	1	0	0	0.007455	0.036804	0.26306	0.11385	0.069861	0.2488	0.14491	0.19777	0.31221	0.1919	0.077127	0.052588	0.24579	0.18631	0.050922	0.21633	-1.4542	-2.3312	-2.2188	-2.1583	-2.4708	-2.0542	-2.2417	-2.5	-1.9271	-2.3812	-2.2396	-1.9854	-2.5167	-2.2292	-2.2687	-2.7229	-160.054	110.348	86.826	-74.088	73.105	132.560	122.961	137.152	-50.648	-75.793	-66.010	164.018	98.496	135.919	103.497	142.544	0.0012921	0.00036891	0.00029041	724.48	7.4966e-06	1.0848e-05	793.84	319.96	8.3648e-06	6.8128e-06	400.41	210.45	153.08	85.205	8.5809e-06	115.67	0.00085749	0.00079481	0.0002238	730.14	8.5581e-06	8.7554e-06	788.55	317.38	8.705e-06	8.6521e-06	401.13	209.32	153.38	84.476	8.6835e-06	114.55	182.272	-76.056	-90.291	-159.963	-35.358	-64.656	-160.897	-155.253	-48.600	-47.557	-156.856	-153.958	-153.315	-148.634	-48.129	-151.105	-8191	255	
12065.369	1	1	0	0	0.064079	0.17062	0.17889	0.22047	0.25359	0.15172	0.1045	0.32778	0.13636	0.15556	0.095565	0.15893	0.12973	0.41036	0.30264	0.1519	-1.575	-2.1833	-2.1792	-1.9771	-2.4354	-1.9292	-2.2271	-2.4667	-2.0896	-2.1875	-2.3083	-2.1125	-2.4708	-2.3167	-1.9542	-2.7271	-77.116	-32.849	-32.239	24.325	186.838	-47.531	-61.191	94.087	-82.675	-54.776	167.606	97.023	109.562	187.079	-91.612	102.383	0.0013098	0.00067407	0.00018018	727.33	5.612e-06	6.371e-06	785.38	317.83	5.4947e-06	7.5274e-06	396.71	210.13	152.04	85.311	8.825e-06	115.36	0.00084177	0.00078861	0.00022095	728.89	8.7018e-06	8.7365e-06	782.79	316.63	8.6564e-06	8.6668e-06	397.09	208.39	152.55	84.465	8.7705e-06	114.29	184.395	-112.035	-26.597	-159.508	-41.284	-37.243	-160.555	-154.857	-72.809	-16.738	-156.445	-153.630	-152.971	-148.441	-45.745	-150.677	-8191	255	
12065.465	1	1	0	0	0.18515	0.35137	0.11681	0.33973	0.15601	0.11858	0.15256	0.10331	0.22785	0.32979	0.2066	0.13638	0.13081	0.32926	0.22035	0.24081	-1.4958	-2.0708	-2.3167	-2.0396	-2.2833	-2.2583	-2.25	-2.5042	-1.8458	-2.2104	-2.3875	-2.2021	-2.4333	-2.3396	-1.8333	-2.625	-27.029	-36.161	139.008	15.168	-19.915	-163.100	-62.865	145.725	100.745	1.563	110.097	177.801	-136.637	95.013	-158.440	74.418	0.0012756	0.0010827	0.00024229	726.23	8.2783e-06	8.387e-06	783.41	318.83	1.2739e-05	6.9132e-06	397.59	210.94	152.24	85.138	3.5312e-06	115.65	0.00085136	0.00080191	0.00022586	729.44	8.7127e-06	8.8643e-06	782.3	316.71	8.7003e-06	8.7171e-06	398.84	208.91	152.58	84.349	8.5459e-06	114.84	178.619	-84.687	-119.631	-158.985	-18.476	-37.215	-160.701	-155.347	-51.438	-49.070	-157.377	-154.044	-153.625	-148.927	-28.486	-151.100	-8191	255	
12065.559	1	1	0	0	0.095815	0.14952	0.24434	0.33725	0.31303	0.046748	0.066617	0.18809	0.29934	0.14047	0.22379	0.46323	0.19718	0.13502	0.27732	0.17446	-1.7854	-2.1146	-2.4396	-1.9562	-2.2604	-2.3021	-2.1083	-2.3771	-2.2062	-2.15	-2.4042	-2.1042	-2.425	-2.4	-1.775	-2.6542	38.445	-126.481	149.355	135.488	157.864	-68.398	112.297	144.259	143.545	122.625	52.701	-133.126	-154.267	121.215	-148.632	118.896	0.0012786	0.00052518	0.00020431	726.03	8.7928e-06	8.4633e-06	785.16	318.5	2.7569e-06	4.3027e-06	400.61	210.79	152.67	85.483	7.7977e-06	115.69	0.00083627	0.00078714	0.00022279	728.29	8.6268e-06	8.7555e-06	785.1	316.87	8.6682e-06	8.712e-06	399.81	209.22	153.03	84.501	8.7512e-06	114.75	179.448	-106.180	-121.535	-159.513	-32.367	-7.208	-160.651	-155.078	-61.758	-80.781	-156.519	-154.286	-153.171	-148.880	-61.099	-151.017	-8191	255	
12065.657	1	1	0	0	0.035883	0.11095	0.073641	0.13978	0.098229	0.1644	0.18263	0.25362	0.095862	0.1602	0.19845	0.081072	0.18298	0.093556	0.1975	0.39589	-1.6812	-2.0625	-2.3958	-1.9854	-2.4125	-2.4792	-2.0917	-2.6229	-2.1312	-1.8208	-2.4167	-2.1833	-2.3375	-2.5771	-1.7583	-2.5104	73.697	-138.504	67.928	92.319	131.551	-116.851	67.943	114.630	39.155	-134.497	108.772	-52.124	-154.223	128.537	-13.815	128.162	0.0013567	0.00093037	8.1219e-05	722.85	5.4833e-06	1.1e-05	787.67	318.3	9.5424e-06	7.9429e-07	396.05	211.42	151.29	84.823	9.4743e-06	115.27	0.00085115	0.00079306	0.0002226	729.9	8.7227e-06	8.8521e-06	786.84	316.64	8.7769e-06	8.9365e-06	399.95	209.18	152.57	84.402	8.9209e-06	114.44	178.824	-92.857	68.565	-159.577	-94.651	-6.499	-160.772	-154.936	-64.833	-160.001	-156.590	-153.779	-153.353	-148.662	-31.308	-151.121	-8191	255	
12065.751	1	1	0	0	0.18234	0.41096	0.17445	0.20814	0.13488	0.082638	0.21302	0.17852	0.18678	0.11605	0.18198	0.29714	0.21817	0.2083	0.15463	0.31112	-1.675	-2.0021	-2.6521	-2.1417	-2.2875	-2.3542	-1.9438	-2.5917	-2.2917	-1.9854	-2.4938	-1.9813	-2.1	-2.6312	-1.9167	-2.4417	63.120	167.341	-103.779	37.557	126.469	10.049	116.304	158.441	12.387	-153.667	125.514	83.475	178.278	135.496	15.014	102.281	0.0012604	0.00040298	0.00020766	727.34	8.2499e-06	3.4591e-06	782.97	317.64	6.5703e-06	2.8956e-06	393.62	209.72	151.09	84.787	4.8822e-06	114.59	0.00086241	0.00082209	0.00022581	729.42	8.7351e-06	8.9344e-06	782.03	315.62	8.6075e-06	8.7602e-06	395.64	207.65	152.01	84.133	8.7547e-06	113.82	181.072	-93.620	-104.034	-159.664	-46.356	-34.339	-160.548	-155.048	-71.041	90.903	-156.619	-154.009	-153.268	-148.648	-39.365	-150.907	-8191	255	
12065.848	1	1	0	0	0.21152	0.13616	0.27648	0.27024	0.097417	0.18148	0.094021	0.17784	0.19726	0.1054	0.19307	0.14016	0.13466	0.090883	0.11964	0.27556	-1.7729	-1.8958	-2.1083	-2.1354	-2.1396	-2.4083	-2.175	-2.275	-2.2542	-1.8042	-2.3875	-2.1688	-2.2729	-2.5812	-1.7292	-2.6292	63.746	-57.121	50.874	122.752	-105.264	105.061	52.011	53.763	57.862	104.668	-52.992	132.705	103.549	144.855	97.902	116.167	0.0012096	0.0007823	0.00014052	726.98	2.6733e-06	3.2443e-06	784.54	318.67	9.425e-06	6.3084e-06	398.17	210.39	151.16	84.653	6.3121e-06	115.52	0.00083177	0.00079099	0.00022091	727.64	8.5442e-06	8.6037e-06	781.67	316.07	8.6041e-06	8.6425e-06	396.66	207.86	152.2	84.399	8.643e-06	114.53	176.404	-129.761	-70.601	-159.463	-47.712	-25.350	-160.704	-154.993	-86.046	-3.605	-156.573	-153.953	-153.215	-148.672	-53.177	-151.010	-8191	255	
12065.944	1	1	0	0	0.02464	0.071018	0.3181	0.09727	0.25399	0.1539	0.31817	0.3045	0.023861	0.29467	0.13688	0.15808	0.099066	0.15958	0.17055	0.25344	-1.7417	-1.675	-2.4896	-2.1937	-1.8146	-2.3187	-1.9229	-2.2917	-2.1958	-1.8188	-2.3125	-2.2708	-2.0646	-2.6917	-1.9021	-2.3563	-94.060	46.418	68.907	159.394	-149.823	67.445	157.534	166.182	127.839	5.669	-51.461	168.723	9.023	103.308	86.619	138.518	0.0012657	0.00068681	0.00019235	725.53	1.4599e-06	8.1484e-06	787.54	317.04	4.2765e-06	8.6864e-06	396.89	210.67	152.41	84.773	9.082e-06	115.57	0.00083905	0.00079619	0.00021741	728.25	8.6893e-06	8.6576e-06	783.07	316.44	8.5416e-06	8.8246e-06	397.63	208.44	152.36	84.346	8.6519e-06	114.85	179.964	-104.624	-136.556	-159.665	80.415	-21.281	-160.522	-154.912	-71.793	-17.818	-156.312	-153.490	-153.228	-148.290	-53.673	-150.645	-8191	255	
12066.064	1	1	0	0	0.19655	0.015996	0.20158	0.48522	0.12528	0.0088969	0.070363	0.30358	0.22092	0.37073	0.31076	0.42065	0.2429	0.29673	0.1088	0.30068	-1.85	-1.7292	-2.1021	-2.1667	-1.7917	-2.4562	-2.1708	-2.3688	-2.1854	-1.9229	-2.3042	-2.3375	-1.9771	-2.4813	-2.0146	-2.4	167.756	169.994	164.952	151.015	14.786	-84.060	27.254	-135.168	-24.810	-100.653	61.617	128.687	-136.991	133.809	72.935	151.305	0.001219	0.00099428	0.00015055	728.28	3.231e-06	5.2668e-06	788.68	319.4	8.4701e-06	5.0216e-06	399.17	211.84	152.12	85.288	4.6422e-06	115.72	0.00084677	0.00079711	0.00022026	731.1	8.5801e-06	8.6823e-06	786.35	317.58	8.5237e-06	8.5374e-06	399.21	209.53	152.43	84.511	8.6905e-06	115.1	180.767	-65.829	-79.285	-159.482	-48.853	-43.856	-160.640	-154.536	-73.011	-83.742	-156.617	-153.625	-152.916	-148.291	-104.484	-150.636	-8191	255	
12066.160	1	1	0	0	0.26369	0.045633	0.10076	0.14731	0.23077	0.23353	0.28609	0.34653	0.08522	0.07214	0.12387	0.3357	0.082389	0.44021	0.24119	0.23063	-1.9417	-1.95	-1.9833	-2.1562	-1.9167	-2.1562	-2.2083	-1.9958	-2.4833	-1.9625	-2.2479	-2.4708	-1.9292	-2.4083	-2.1688	-2.0938	144.556	33.740	3.627	-151.537	-23.074	-76.717	180.228	159.368	138.747	-20.954	-140.790	137.646	13.260	126.635	-172.540	116.035	0.0012967	0.00084709	0.00019577	730.66	5.2773e-06	9.5942e-06	786.69	319.27	1.4186e-06	1.0948e-05	398.63	210.05	152.95	84.964	1.0167e-05	114.91	0.00084043	0.00079027	0.00021997	731.4	8.4828e-06	8.5382e-06	784.84	317.47	8.4537e-06	8.46e-06	399.16	208.46	152.42	84.174	8.3167e-06	113.92	183.877	-120.205	-89.561	-159.536	-37.022	-50.123	-160.672	-154.894	-121.443	-24.631	-156.558	-153.678	-153.143	-148.403	-20.059	-150.773	-8191	255	
12066.232	1	1	0	0	0.14286	0.12923	0.095886	0.18452	0.1322	0.056981	0.15192	0.41788	0.23047	0.15981	0.13548	0.072697	0.22456	0.59576	0.15496	0.19651	-1.9438	-1.875	-2.2271	-2.3563	-1.8792	-2.3042	-2.1979	-1.8833	-2.3417	-1.9667	-2.3083	-2.525	-2.0625	-2.5271	-2.2833	-1.9271	171.969	-21.870	18.828	130.358	-51.883	-3.850	-115.672	176.040	-76.026	109.616	-118.583	174.719	-114.532	141.100	97.003	97.588	0.0012655	0.0004122	0.00015636	728.91	6.6691e-06	3.8258e-06	784.46	318.23	7.2627e-06	2.3316e-06	394.18	209.42	152.19	85.019	1.0767e-05	115.1	0.00081052	0.00077171	0.00021211	728.55	8.3855e-06	8.523e-06	781.82	316.47	8.3277e-06	8.5556e-06	395.93	207.47	152.46	84.129	8.5056e-06	114.01	179.243	-28.735	-144.790	-159.402	-20.486	-27.033	-160.423	-154.532	-67.868	-48.112	-156.180	-153.580	-153.207	-148.165	-36.369	-150.477	-8191	255	
12066.328	1	1	0	0	0.12303	0.19949	0.42539	0.10179	0.24458	0.20419	0.11851	0.085972	0.052123	0.35254	0.28873	0.18659	0.20477	0.31033	0.25596	0.41241	-1.9229	-2.0062	-2.0229	-2.3333	-1.8792	-2.2979	-2.325	-2.0354	-2.1646	-2.1042	-2.0125	-2.4062	-2.0438	-2.3833	-2.2708	-2.1729	-78.056	-68.371	109.655	-161.068	-10.307	53.711	150.454	135.564	-104.892	-43.535	124.406	132.332	-165.061	122.455	107.872	130.144	0.0012253	0.00060025	0.00049178	726.37	4.5068e-06	9.3335e-06	784.3	318.75	5.7994e-06	4.4024e-06	397.42	209.73	150.96	84.794	1.0556e-05	114.68	0.00083231	0.00078228	0.00021487	727.7	8.4531e-06	8.5736e-06	781.62	316.5	8.4304e-06	8.6593e-06	397.23	207.72	152.16	84.176	8.6924e-06	113.92	181.506	-82.397	-65.380	-159.122	-51.699	-30.604	-160.605	-155.186	-71.309	-14.138	-157.978	-154.861	-154.239	-149.763	-91.526	-152.189	-8191	255	
12066.449	1	1	0	0	0.06592	0.11921	0.077347	0.18771	0.19777	0.14729	0.13277	0.37844	0.10303	0.26401	0.20316	0.22144	0.15208	0.33877	0.43859	0.17816	-1.7792	-2.0917	-1.9667	-2.3125	-1.8188	-2.2417	-2.3021	-2.025	-2.2104	-1.975	-1.8708	-2.425	-1.8917	-2.4938	-2.2917	-2.1792	-142.262	-73.411	156.115	178.770	63.236	-30.373	40.787	98.374	-18.114	52.780	-31.962	138.361	130.600	113.686	-161.995	138.350	0.0012494	0.00021773	0.000245	724.52	9.245e-06	9.1031e-06	787.18	317.46	6.3858e-06	3.9511e-06	397.57	210.4	151.64	84.997	8.0819e-06	115.56	0.00083036	0.00078964	0.00021633	727.12	8.4649e-06	8.4848e-06	783.63	316.25	8.4102e-06	8.4493e-06	398.3	208.51	152.23	84.463	8.5931e-06	114.67	179.351	-50.252	-64.608	-161.043	-65.376	3.602	-161.754	-156.326	-104.998	-17.919	-158.140	-155.239	-154.471	-149.799	-92.217	-152.116	-8191	255	
12066.545	1	1	0	0	0.14073	0.10381	0.074351	0.13495	0.096213	0.072513	0.017706	0.20742	0.096425	0.25508	0.17194	0.14872	0.20023	0.18996	0.23927	0.34402	-1.8833	-2.1083	-1.8833	-2.3792	-1.9542	-2.1458	-2.5292	-2.0146	-2.1312	-2.2125	-1.8896	-2.5563	-2.0167	-2.1208	-2.2938	-2.1333	-134.717	-161.000	-59.065	-164.970	125.952	-136.723	35.734	154.619	-163.391	-111.619	22.855	152.776	92.950	180.381	-27.959	90.464	0.0012855	0.0010599	0.00031646	727.51	3.0593e-06	2.8685e-06	791.01	316.92	6.7221e-06	1.5661e-05	393.03	209.04	151.93	84.729	4.6205e-06	114.4	0.00083817	0.00077835	0.00022157	730.44	8.6104e-06	8.6805e-06	787.19	316.22	8.4823e-06	8.6018e-06	396.92	208.12	152.53	84.346	8.5786e-06	113.85	179.224	-84.524	-74.668	-160.544	-167.212	33.071	-161.976	-156.104	-61.665	-26.400	-158.203	-155.155	-154.536	-149.888	-89.815	-152.297	-8191	255	
12066.641	1	1	0	0	0.43906	0.064241	0.15712	0.19255	0.077533	0.10335	0.22929	0.12505	0.16202	0.10352	0.2685	0.3055	0.2468	0.27029	0.20141	0.37569	-1.5979	-2.1375	-1.7542	-2.5125	-1.9813	-2.1083	-2.6729	-2.1312	-2.3479	-2.1958	-1.8438	-2.425	-2.1604	-2.2438	-2.1875	-2.1792	-50.267	-161.363	-104.409	-67.685	83.614	4.418	119.726	-125.277	121.032	131.351	181.180	-126.209	12.901	145.286	136.874	146.743	0.0013478	0.0012525	0.00020886	721.53	6.6703e-06	4.7515e-06	782.88	316.19	1.1578e-05	6.7907e-06	395.98	208.64	152.06	84.56	7.9042e-06	114.16	0.00082905	0.00077867	0.00021795	726.92	8.4999e-06	8.4468e-06	779.4	315.31	8.4024e-06	8.5211e-06	394.81	206.82	152.23	84.162	8.4243e-06	113.48	180.329	-78.314	-96.890	-161.001	-75.973	59.513	-161.966	-155.934	-90.420	-31.069	-157.648	-155.170	-154.434	-149.750	-61.606	-152.128	-8191	255	
12066.737	1	1	0	0	0.2571	0.12274	0.19499	0.18185	0.18675	0.14956	0.25931	0.11759	0.16185	0.090764	0.090852	0.31894	0.13864	0.44779	0.37669	0.38447	-1.5729	-2.475	-1.9562	-2.325	-2.1146	-1.9979	-2.5312	-1.9708	-2.0729	-2.3438	-2.0146	-2.3604	-2.2354	-2.0292	-2.4479	-2.1312	184.678	-150.661	-107.156	-146.515	-51.377	152.716	135.631	152.242	64.768	117.775	-98.501	139.355	-94.828	125.707	-116.782	-155.878	0.0012615	0.00020939	0.00023637	723.83	7.1254e-06	5.559e-06	784.97	316.85	3.951e-06	6.3567e-06	392.22	209.74	151.42	85.189	6.1027e-06	114.72	0.00081953	0.00077906	0.00021546	726.69	8.4064e-06	8.5005e-06	781.05	315.89	8.5504e-06	8.5773e-06	395.42	207.8	152.14	84.548	8.5439e-06	114.12	180.146	-139.446	-104.359	-160.810	-36.094	-24.100	-161.763	-156.164	-37.253	-60.152	-157.801	-155.138	-154.059	-149.893	-35.908	-152.165	-8191	255	
12066.832	1	1	0	0	0.28813	0.1637	0.10597	0.20217	0.032844	0.2	0.17811	0.26792	0.11592	0.051396	0.23743	0.33275	0.0491	0.35394	0.19026	0.40693	-1.5833	-2.2562	-1.7313	-2.2062	-2.3042	-1.775	-2.5187	-2.2146	-2.0021	-2.1937	-1.9417	-2.3229	-2.1917	-1.9583	-2.2687	-2.2229	128.532	55.931	-39.772	173.862	-127.267	105.489	54.371	134.692	46.715	55.499	146.969	113.447	-29.612	138.138	-125.634	135.082	0.0012545	0.00061207	0.00021964	722.22	5.8906e-06	9.4191e-06	784.06	316.3	7.9932e-06	1.1416e-05	397.46	210.15	151.93	85.056	7.4299e-06	115.85	0.00083612	0.00078118	0.00021815	725.09	8.4284e-06	8.5515e-06	782.21	315.13	8.4073e-06	8.4701e-06	396.77	208.09	152.43	84.685	8.5703e-06	114.75	177.491	-94.227	-142.582	-160.462	-12.712	-11.319	-161.995	-156.042	-24.608	-0.223	-158.256	-155.255	-154.649	-149.970	-71.605	-152.619	-8191	255	
12066.928	1	1	0	0	0.31523	0.080953	0.18863	0.20568	0.25418	0.046741	0.31377	0.30265	0.16869	0.19821	0.073621	0.19148	0.16611	0.23201	0.20413	0.37002	-1.4896	-2.3583	-1.7354	-2.2625	-2.2188	-1.7938	-2.5292	-2.2875	-2.0021	-2.3229	-1.9813	-2.1375	-2.4229	-2.1646	-2.4167	-2.1896	12.195	-91.895	-101.571	87.362	-83.139	-18.470	122.784	146.079	-125.032	-33.215	124.692	-98.757	-158.849	152.528	-160.683	136.192	0.001259	0.00097877	0.00019058	722.75	3.0755e-06	5.6122e-06	788.33	317.39	6.6125e-06	1.2079e-05	396.92	210.87	151.17	85.356	3.6417e-06	115.38	0.0008263	0.00078333	0.00021627	726.59	8.52e-06	8.6477e-06	784.8	315.69	8.4375e-06	8.5044e-06	397.05	208.29	151.91	84.684	8.4692e-06	114.43	178.950	-69.125	-80.684	-160.962	-24.157	-44.289	-161.784	-156.163	-69.090	-46.922	-158.506	-154.745	-154.439	-149.750	-21.535	-152.068	-8191	255	
12067.049	1	1	0	0	0.09111	0.19337	0.053682	0.4336	0.056144	0.15074	0.22641	0.17352	0.052849	0.083617	0.19986	0.24716	0.033158	0.16517	0.18891	0.10151	-1.5417	-2.3896	-1.9521	-1.9396	-2.4083	-1.7583	-2.3833	-2.2146	-1.975	-2.3375	-2.0687	-2.0146	-2.2292	-1.9917	-2.1854	-2.5354	115.450	160.313	30.932	139.273	-10.826	-41.227	-109.917	140.447	107.530	-52.508	117.725	155.787	132.117	-11.326	142.832	29.046	0.0012726	0.0010439	0.00012805	724.81	4.5092e-06	5.7299e-06	778.49	316.09	1.3233e-05	4.9054e-06	389.7	208.22	152.02	84.495	3.5592e-06	113.61	0.00083478	0.00079078	0.00022149	725.83	8.4622e-06	8.6351e-06	777.08	314.67	8.4891e-06	8.6083e-06	392.59	205.91	151.66	83.95	8.6402e-06	112.82	179.893	-92.433	-117.821	-160.156	-28.952	-57.769	-161.567	-156.030	-60.727	-26.649	-157.792	-154.989	-154.286	-149.630	-57.524	-152.211	-8191	255	
12067.145	1	1	0	0	0.12249	0.1639	0.17642	0.15328	0.22977	0.15669	0.21097	0.13322	0.17946	0.10976	0.37853	0.24548	0.080039	0.2924	0.15052	0.10543	-1.4188	-2.3438	-1.8667	-2.0083	-2.4625	-1.9771	-2.325	-2.3042	-1.9229	-2.3396	-1.9729	-2.0542	-2.2479	-2.2104	-2.1958	-2.325	-88.281	-56.257	78.676	140.414	18.573	-9.264	142.151	98.266	-162.756	142.788	174.940	99.847	50.763	-167.741	-104.862	137.746	0.0013063	0.00035726	0.00017091	722.32	8.211e-06	8.1068e-06	779.64	315.85	8.3685e-06	1.5499e-06	389.7	207.69	152.6	84.897	3.9161e-06	113.6	0.00083814	0.00078242	0.00021713	725.18	8.575e-06	8.6229e-06	777.48	314.16	8.4921e-06	8.5683e-06	392.51	206.07	151.81	84.109	8.5149e-06	112.71	178.864	-27.618	-79.478	-160.552	-91.518	-50.821	-161.724	-155.969	-81.531	-32.414	-157.676	-154.821	-153.801	-149.415	-41.464	-152.183	-8191	255	
12067.241	1	1	0	0	0.16899	0.073936	0.10959	0.23823	0.28176	0.12297	0.28162	0.11007	0.25994	0.17924	0.23388	0.18104	0.20792	0.27239	0.25285	0.18113	-1.3375	-2.4021	-2.125	-2.1021	-2.3937	-2.0417	-2.2229	-2.3104	-1.8438	-2.2354	-2.1063	-1.8896	-2.4833	-2.1625	-2.025	-2.4604	-76.830	169.220	-56.614	-92.537	-133.197	-138.762	70.154	173.237	161.257	91.592	-167.818	-145.524	160.026	178.796	-78.039	134.344	0.0012785	0.0007022	0.00014829	722.6	1.0797e-06	1.1499e-05	780.89	317.07	4.6645e-06	6.978e-06	390.16	208.69	152.27	85.073	6.1084e-06	114.05	0.00082456	0.00077712	0.00021786	725.17	8.3657e-06	8.4925e-06	778.51	314.64	8.5136e-06	8.402e-06	392.72	206.64	152.06	84.273	8.5954e-06	113.28	185.112	-99.724	-82.098	-160.547	-44.843	-15.128	-161.723	-156.135	-65.107	-10.016	-157.644	-154.740	-153.823	-149.619	-127.136	-151.847	-8191	255	
12067.337	1	1	0	0	0.086242	0.19727	0.097012	0.05822	0.4521	0.22271	0.13075	0.34282	0.15155	0.22909	0.15099	0.064505	0.25539	0.20587	0.11288	0.16886	-1.6542	-2.1063	-2.1792	-1.9062	-2.5125	-1.9875	-2.2	-2.5062	-1.725	-2.2167	-2.2875	-2.0354	-2.3	-2.2229	-2.1104	-2.6146	-12.370	46.018	-112.814	129.850	174.084	129.318	70.601	115.225	130.606	104.875	-9.652	-44.638	83.717	184.307	-131.653	74.769	0.0012513	0.00083551	0.00026981	727.21	9.6184e-06	3.5933e-06	781.08	318.96	7.5463e-06	1.1354e-05	394.4	209.54	152.84	84.671	1.4172e-06	114.25	0.00083006	0.00076962	0.00021413	726.24	8.4483e-06	8.3994e-06	781.11	316.39	8.3999e-06	8.5239e-06	396.25	207.74	152.61	84.256	8.5724e-06	113.65	182.814	-48.378	-88.683	-160.198	-40.690	-59.546	-161.504	-155.907	-65.854	-23.393	-157.657	-154.780	-153.971	-149.192	-4.446	-151.694	-8191	255	
12067.458	1	1	0	0	0.45735	0.18538	0.11059	0.063298	0.2017	0.19506	0.40977	0.095521	0.15188	0.23273	0.13713	0.22488	0.41828	0.1334	0.4784	0.36846	-1.3708	-2.1312	-2.2812	-1.9813	-2.3917	-1.8687	-1.9417	-2.4667	-1.85	-2.1354	-2.3229	-2.0687	-2.2646	-2.3479	-1.9708	-2.5896	45.438	65.364	139.392	30.617	41.476	-68.539	143.039	138.841	-92.914	-29.932	36.193	-139.745	185.658	181.830	34.246	97.923	0.0013052	0.0012115	0.0001202	725.52	9.311e-06	3.2273e-06	786.37	316.36	6.0581e-06	7.5298e-06	390.66	208.56	151.33	84.558	8.4959e-06	113	0.00083758	0.00077768	0.0002188	727.25	8.4653e-06	8.4299e-06	780.87	315.48	8.4347e-06	8.5127e-06	393.51	206.57	151.69	83.802	8.5363e-06	112.2	178.138	-94.870	-113.894	-160.182	-46.591	-38.056	-161.458	-155.742	-127.024	-29.505	-157.606	-154.657	-153.600	-149.242	-48.364	-151.685	-8191	255	
12067.529	1	1	0	0	0.14022	0.21734	0.23182	0.053022	0.10924	0.42921	0.13226	0.27003	0.13595	0.19553	0.17456	0.39941	0.27698	0.14881	0.074901	0.13325	-1.4667	-2.0229	-2.2521	-1.8563	-2.3125	-2.1	-1.9854	-2.6146	-2.1312	-2.075	-2.4979	-1.9875	-2.3688	-2.3958	-1.8479	-2.6375	-37.509	99.277	166.161	-26.122	129.243	57.021	106.381	-118.323	95.698	95.430	-166.445	161.723	-145.928	142.018	-116.635	133.091	0.0013278	0.00042262	0.00029796	724.4	7.4833e-06	6.9468e-07	780.64	316.21	5.4688e-06	6.8472e-06	391.95	207.63	150.94	84.492	3.5557e-06	112.95	0.00084019	0.0007913	0.00022027	724.46	8.5621e-06	8.6814e-06	775.11	314.83	8.5162e-06	8.5297e-06	392.15	205.54	151.28	83.788	8.6632e-06	111.96	182.450	-21.594	-89.598	-160.511	-45.236	-91.417	-161.624	-155.728	-62.199	-46.463	-157.881	-154.736	-154.067	-149.388	-75.470	-151.892	-8191	255	
12067.625	1	1	0	0	0.14816	0.22772	0.15857	0.17981	0.18313	0.13257	0.021837	0.2323	0.21962	0.074758	0.10286	0.21627	0.22321	0.16361	0.36945	0.3463	-1.6063	-2.1	-2.3146	-2.1104	-2.3	-2.3479	-2.1854	-2.5521	-2.0292	-2.2375	-2.5292	-2.0583	-2.1542	-2.4458	-1.7958	-2.4583	151.481	113.770	-64.230	117.054	45.455	-28.635	-59.324	148.848	-7.721	-135.206	-89.770	-166.590	-148.156	153.105	-157.150	124.222	0.0013099	0.00077897	0.00022054	722.04	6.6899e-06	6.6724e-06	773.65	315.48	4.9896e-06	3.7298e-06	390.51	208.21	150.7	84.231	5.1276e-06	113.47	0.00083749	0.0007846	0.00021965	724.87	8.5393e-06	8.713e-06	775.73	314.29	8.5902e-06	8.5662e-06	392.82	205.71	151.68	83.699	8.6234e-06	112.63	180.850	-99.655	-59.654	-160.427	-37.530	16.556	-161.726	-155.809	-81.461	-61.612	-157.563	-154.746	-153.772	-149.504	-42.439	-151.640	-8191	255	
12067.744	1	1	0	0	0.21169	0.11658	0.14961	0.081933	0.093621	0.41273	0.25136	0.17535	0.35349	0.084037	0.15493	0.29724	0.22838	0.16713	0.21813	0.16363	-1.65	-1.9167	-2.2979	-1.8771	-2.1708	-2.2	-2.1292	-2.45	-2.2208	-2.0458	-2.4229	-2.0542	-2.2042	-2.4896	-1.8833	-2.2917	55.967	12.592	178.368	-2.507	-159.979	50.631	72.958	147.911	-117.831	-94.412	185.659	-170.224	-5.089	115.117	69.370	129.620	0.0012958	0.00057378	0.00025326	720.95	8.1049e-06	6.4922e-06	782.1	317.97	7.9462e-06	8.9325e-06	395.08	208.1	152.12	84.408	9.9599e-06	113.98	0.0008393	0.00078599	0.00022119	725.5	8.5209e-06	8.5989e-06	778.97	315.44	8.476e-06	8.6455e-06	394.33	206.45	152.22	83.888	8.4979e-06	113.19	183.209	-62.828	-77.126	-160.472	-52.160	2.777	-161.583	-155.549	-59.677	-29.219	-157.632	-154.426	-153.696	-149.221	-67.879	-151.709	-8191	255	
12067.840	1	1	0	0	0.15093	0.14972	0.24304	0.20644	0.16162	0.26733	0.34125	0.20535	0.014357	0.17556	0.17539	0.067609	0.04841	0.26317	0.13278	0.25962	-1.7938	-1.7625	-2.3104	-2.075	-1.9438	-2.2854	-1.8083	-2.4625	-2.1104	-1.9479	-2.4229	-2.2229	-2.1458	-2.6917	-1.9896	-2.525	-138.618	-147.638	72.671	185.613	-154.139	179.481	161.090	168.676	-16.528	139.252	92.497	100.769	-62.741	-127.593	32.845	127.523	0.0011286	0.00074165	0.00016134	723.95	4.9875e-06	2.1281e-06	783.86	317.73	5.9292e-06	7.9418e-06	396.56	208.92	152.86	84.71	7.4347e-06	114.22	0.00082827	0.00077854	0.00021516	725.47	8.3021e-06	8.5222e-06	782.27	316.34	8.3918e-06	8.4453e-06	395.11	206.81	152.24	84.119	8.507e-06	113.1	182.657	-70.626	-76.046	-159.940	-33.309	14.323	-161.406	-155.565	-58.168	-8.956	-157.529	-154.604	-154.102	-149.137	-54.114	-151.581	-8191	255	
12067.937	1	1	0	0	0.17996	0.31274	0.18852	0.25536	0.047522	0.25316	0.44428	0.20964	0.064598	0.16093	0.30784	0.35357	0.2077	0.044465	0.13625	0.32671	-1.8417	-1.7062	-2.1854	-2.0292	-2.0833	-2.4167	-2.0667	-2.3167	-2.1292	-2.0354	-2.4208	-2.1792	-1.9667	-2.6542	-1.9979	-2.5146	157.672	-43.482	-73.978	171.545	34.163	-1.009	71.402	115.046	-28.918	51.734	94.191	130.791	162.069	-45.392	-0.359	143.704	0.0012352	0.0002579	0.00013618	721.59	1.0884e-05	8.5759e-06	781.25	317.35	4.721e-06	6.0646e-06	390.88	208.12	151.68	84.347	9.256e-06	113.1	0.00081677	0.00077521	0.00021305	724.3	8.2103e-06	8.3251e-06	777.71	315.12	8.3271e-06	8.3278e-06	391.68	205.64	151.9	83.869	8.3702e-06	112.41	175.550	-90.586	-70.539	-159.896	-52.484	-23.362	-161.173	-155.546	-38.461	-38.177	-157.505	-154.338	-153.552	-149.040	-63.851	-151.508	-8191	255	
12068.033	1	1	0	0	0.27971	0.1436	0.079158	0.20843	0.14878	0.16858	0.32806	0.19681	0.1302	0.2142	0.079346	0.19873	0.015157	0.23874	0.15386	0.15787	-1.9292	-1.8958	-2.2271	-2.1958	-2.0854	-2.3167	-2.0521	-2.1063	-2.3833	-1.8792	-2.3396	-2.1688	-1.9833	-2.4604	-2.1042	-2.2729	-55.940	-130.215	-11.586	84.484	-161.100	-14.940	-157.020	168.336	82.338	6.431	-21.636	185.850	178.214	131.240	69.256	121.167	0.0012336	0.0007072	0.00018467	720.02	7.8713e-06	9.9017e-06	781.35	316.81	6.8136e-06	8.4289e-06	389.34	208.23	151.2	84.815	8.5561e-06	114.62	0.00081201	0.00076077	0.00021323	722.99	8.1782e-06	8.3973e-06	777.88	315.33	8.2441e-06	8.3547e-06	391.39	206.41	151.44	84.026	8.3254e-06	113.19	179.163	-65.933	-97.582	-159.974	-65.086	-12.990	-161.245	-155.426	-75.628	-43.959	-157.092	-154.431	-153.258	-149.108	-22.069	-151.455	-8191	255	
12068.129	1	1	0	0	0.19179	0.036947	0.099703	0.062332	0.14963	0.13794	0.11548	0.1984	0.24454	0.033675	0.038523	0.066866	0.12569	0.33878	0.18653	0.32718	-2.0271	-1.9354	-2	-2.2646	-1.8188	-2.2396	-2.0625	-2.0271	-2.3604	-1.75	-2.3042	-2.4792	-1.8667	-2.5875	-2.1125	-2.2208	-54.083	118.038	-52.567	-34.279	84.392	84.861	-146.769	69.907	-32.017	160.753	-108.686	134.889	176.396	153.116	152.192	99.308	0.001291	0.001052	0.00018465	724.83	7.2144e-06	4.9284e-06	787.02	316.8	7.984e-06	5.9156e-06	392.34	209.19	152.6	85.005	1.2406e-05	114.57	0.0008208	0.00076505	0.00021164	725.82	8.3465e-06	8.3426e-06	782.01	314.73	8.2025e-06	8.2461e-06	394.09	207.16	152.1	84.3	8.3997e-06	113.68	179.538	-96.506	-125.504	-159.713	11.148	-90.516	-161.070	-155.336	-66.120	-7.555	-157.117	-154.161	-153.580	-148.929	-57.172	-151.360	-8191	255	
12068.225	1	1	0	0	0.032025	0.13013	0.079068	0.096503	0.25114	0.14162	0.011688	0.46168	0.26366	0.088439	0.031262	0.36714	0.04844	0.18215	0.18837	0.072994	-1.95	-2	-2.0771	-2.2021	-2	-2.2333	-2.2396	-2	-2.45	-1.9625	-2.0542	-2.5417	-1.6437	-2.5563	-1.9646	-2.1042	-129.222	63.053	149.393	92.569	53.922	-162.985	-145.148	134.105	-171.161	-5.353	71.576	132.159	26.667	160.404	-46.357	95.795	0.0012498	0.00036628	0.00023068	727.21	4.8058e-06	1.0282e-05	786.97	316.51	1.0335e-05	5.289e-06	393.43	209.25	151.93	84.891	7.5253e-06	114.07	0.00080946	0.00075924	0.00021113	726.83	8.2423e-06	8.3384e-06	783.31	315.38	8.2494e-06	8.4364e-06	395.44	207.95	152.61	84.311	8.2959e-06	113.67	179.755	-133.046	-77.554	-161.508	-94.481	-26.610	-162.139	-156.309	-67.963	-50.316	-158.676	-155.279	-154.300	-149.919	-49.742	-152.355	-8191	255	
12068.321	1	1	0	0	0.22978	0.09904	0.24086	0.30479	0.04278	0.18242	0.057198	0.095688	0.20665	0.15526	0.15577	0.29087	0.12356	0.17085	0.050832	0.40682	-1.8312	-2.0646	-2.2875	-2.1083	-1.6854	-2.1813	-2.2438	-2.0146	-2.3458	-1.9729	-2.075	-2.5292	-1.9396	-2.2854	-2.1833	-2.2812	-113.665	-85.556	-140.363	83.824	-152.931	117.672	69.890	176.320	-2.400	-97.236	-59.812	180.765	68.233	161.846	178.314	110.500	0.0012814	0.00039082	0.00013936	725.85	3.7139e-06	3.5954e-06	780.99	317.04	5.171e-06	1.0139e-05	394.42	207.89	151.95	84.432	7.8836e-06	113.21	0.00080535	0.00076119	0.00020881	725.89	8.1818e-06	8.3157e-06	781.08	315.39	8.3121e-06	8.4863e-06	393.46	206.54	152.01	84.01	8.4499e-06	112.64	179.488	-127.285	-119.831	-160.543	13.753	-23.068	-161.951	-156.262	-59.406	-44.283	-158.055	-155.208	-154.395	-149.925	-45.690	-152.416	-8191	255	
12068.417	1	1	0	0	0.10179	0.090789	0.21844	0.13109	0.3094	0.2891	0.2499	0.30227	0.18064	0.19165	0.13209	0.3991	0.25793	0.14205	0.12856	0.4298	-1.8042	-2.0563	-1.9208	-2.5062	-1.9979	-2.1042	-2.3563	-1.8937	-2.2125	-2.2896	-1.8417	-2.6229	-2.125	-2.3875	-1.9521	-2.0792	1.757	-161.529	28.854	-112.462	-26.366	-19.153	144.506	112.305	135.167	65.549	82.921	148.721	-142.165	134.983	157.984	155.249	0.0013051	0.0006611	0.00023853	719.54	8.7054e-06	7.1715e-06	780.94	316.08	6.0118e-06	1.2866e-05	393.15	207.15	151.46	84.771	3.1069e-06	113.36	0.00081685	0.00077276	0.00021644	724.7	8.4977e-06	8.3918e-06	777.77	314.64	8.3496e-06	8.5648e-06	393.68	206.07	151.74	84.065	8.5769e-06	112.72	178.566	-68.500	-74.780	-161.047	-9.208	-9.699	-162.159	-156.365	-82.902	-43.365	-158.712	-155.374	-154.360	-149.849	-61.497	-152.494	-8191	255	
12068.538	1	1	0	0	0.11067	0.33773	0.30798	0.057271	0.27118	0.17284	0.20197	0.13207	0.28427	0.19537	0.11484	0.0085385	0.30912	0.27267	0.10463	0.29833	-1.8083	-1.9375	-1.8208	-2.2687	-1.9396	-2.2521	-2.4875	-1.7812	-2.2854	-2.0458	-1.9292	-2.4417	-1.9479	-2.2604	-2.3229	-1.9896	-56.697	174.482	-29.791	-34.057	91.881	-22.391	110.735	60.851	-92.408	9.087	53.754	11.921	33.168	143.673	173.328	139.766	0.0012501	0.00027573	0.00029284	720.58	4.2533e-06	1.5573e-05	781.19	316.66	7.2471e-06	1.0755e-05	394.68	209.37	152.83	85.025	1.1715e-05	114.68	0.00082097	0.00078583	0.00021502	724.7	8.4445e-06	8.6124e-06	779.76	315.36	8.4631e-06	8.4914e-06	395.17	207.3	152.35	84.431	8.6507e-06	113.76	184.443	-74.082	-96.489	-160.882	-20.147	-38.970	-162.434	-156.424	-104.219	-45.753	-158.706	-155.370	-154.542	-149.773	-75.790	-152.433	-8191	255	
12068.632	1	1	0	0	0.12873	0.17895	0.31746	0.22738	0.14893	0.38477	0.365	0.13907	0.074415	0.10691	0.0045686	0.034039	0.094103	0.37093	0.14337	0.19269	-1.6854	-2.2417	-1.9438	-2.3729	-1.9729	-2.025	-2.6458	-1.9979	-2.1771	-2.2875	-1.7667	-2.4229	-1.9	-2.1104	-2.4708	-2.0687	167.453	178.483	11.566	-143.209	86.034	177.686	107.348	61.692	1.328	5.481	-135.519	-116.565	151.277	146.916	169.746	126.197	0.0012771	0.00088145	0.00014075	720.51	6.3514e-06	2.8043e-06	788.4	317.99	8.2241e-06	1.4268e-05	397.65	210.56	152.33	84.844	1.0285e-05	115.23	0.0008217	0.00077979	0.00021646	726.24	8.462e-06	8.3531e-06	785.53	317.01	8.2597e-06	8.3508e-06	398.64	209.16	152.99	84.508	8.4486e-06	114.5	181.063	-84.872	-89.620	-160.770	-0.843	-27.840	-162.134	-156.371	-83.530	-36.397	-158.157	-155.093	-154.625	-150.123	-49.693	-152.805	-8191	255	
12068.730	1	1	0	0	0.30467	0.19102	0.20651	0.17768	0.25111	0.12366	0.25652	0.44604	0.10643	0.067537	0.2032	0.24298	0.17228	0.20283	0.35053	0.4766	-1.8125	-2.1729	-1.7604	-2.2375	-2.0854	-2.0042	-2.5333	-2.0271	-2.2229	-2.3042	-1.8792	-2.3688	-2.1875	-2.2333	-2.1333	-2.1417	-151.324	43.197	-102.556	-152.126	-148.791	23.372	109.901	118.057	94.623	95.032	-31.946	139.443	107.884	169.669	-119.227	109.407	0.0012845	0.00044676	0.00012595	727.45	6.7507e-06	4.0667e-06	788.96	319.32	6.8589e-06	4.5527e-06	394.8	209.62	152.73	84.72	7.9533e-06	114.03	0.00082233	0.00076943	0.00021336	727.89	8.2709e-06	8.3503e-06	786.6	317.71	8.4348e-06	8.4596e-06	397.25	208.23	152.97	84.288	8.4339e-06	113.04	178.950	-93.885	-80.845	-161.257	-76.330	-51.123	-162.693	-156.707	-69.767	-33.035	-158.444	-155.489	-154.882	-150.474	-41.647	-152.823	-8191	255	
12068.825	1	1	0	0	0.20935	0.23242	0.072096	0.18754	0.2054	0.12474	0.16969	0.063702	0.13403	0.17464	0.27462	0.19605	0.11235	0.21231	0.16621	0.18359	-1.6542	-2.2938	-1.7333	-2.2687	-2.1104	-1.8104	-2.4646	-2.1562	-2.0729	-2.2354	-1.9396	-2.4604	-2.1833	-2.0333	-2.2854	-2.2375	138.887	130.977	-7.399	-161.606	184.289	106.443	173.824	-5.521	-144.707	-50.858	-147.639	128.416	136.496	-166.312	28.076	130.802	0.0012778	0.00067715	0.0001826	722.62	2.9577e-06	8.7513e-06	782.86	315.67	1.1795e-05	3.6546e-06	389.53	208.79	151.6	84.634	5.6406e-06	113.39	0.00082628	0.00077771	0.00021731	725.31	8.4717e-06	8.5423e-06	779.07	315.64	8.514e-06	8.7119e-06	393.38	206.53	152.25	84.138	8.779e-06	112.64	180.092	-76.676	-94.962	-161.133	63.121	-30.536	-162.660	-156.595	-82.658	-24.031	-158.767	-155.636	-154.720	-150.064	-51.728	-152.557	-8191	255	
12068.921	1	1	0	0	0.24145	0.31389	0.041321	0.058056	0.22051	0.38096	0.084196	0.26135	0.20152	0.19522	0.21382	0.27775	0.18446	0.29873	0.058984	0.26134	-1.6875	-2.225	-1.9062	-2.2646	-2.1437	-1.6688	-2.4792	-2.3583	-1.9875	-2.2812	-2.2521	-2.3604	-2.2792	-2.0917	-2.3604	-2.4417	-94.649	-71.008	-136.674	41.141	30.410	25.079	151.447	131.977	-125.569	134.144	-62.077	140.686	-99.612	164.320	180.799	148.715	0.0013341	0.00064544	3.3921e-05	719.93	1.1592e-05	7.3682e-06	783.85	316.34	7.623e-06	8.8995e-06	389.61	207.95	152.06	84.53	5.3013e-06	113.57	0.00086155	0.00081597	0.00022628	724.86	8.8376e-06	8.8455e-06	779.71	315.56	8.9041e-06	9.0265e-06	393.95	206.64	152.17	84.195	9.1015e-06	112.9	181.609	-109.354	-143.557	-161.164	-17.757	-34.584	-162.478	-156.735	-50.999	-59.089	-158.221	-155.460	-154.695	-150.094	-37.513	-152.684	-8191	255	
12069.017	1	1	0	0	0.051792	0.27064	0.14774	0.15176	0.18379	0.12729	0.096297	0.20953	0.11102	0.3531	0.06846	0.31683	0.1945	0.27647	0.057294	0.22823	-1.6	-2.2188	-1.8646	-2.1021	-2.2313	-1.7812	-2.3583	-2.275	-1.9646	-2.2625	-1.9896	-2.2333	-2.5833	-1.9792	-2.2958	-2.3271	87.655	67.727	111.761	181.272	158.717	132.601	51.123	49.192	25.138	-10.978	-107.706	-106.208	-152.799	159.798	45.558	101.933	0.0012213	0.00068801	6.8877e-05	719.33	2.0789e-06	3.4259e-06	781.01	314.78	9.2961e-06	2.0314e-06	388.97	207.62	150.16	84.413	5.8624e-06	113.46	0.00088642	0.00084491	0.00023339	725.26	9.0706e-06	9.3292e-06	780.37	315.22	9.2396e-06	9.2507e-06	393.73	206.14	152.45	84.012	9.333e-06	112.8	175.437	-134.171	-120.006	-161.265	-2.264	-42.594	-162.059	-156.551	-35.530	8.131	-158.616	-155.311	-154.866	-150.077	-47.274	-152.497	-8191	255	
12069.138	1	1	0	0	0.13051	0.071058	0.17034	0.095962	0.15679	0.19111	0.072702	0.33913	0.15114	0.071458	0.10715	0.32632	0.17219	0.37716	0.052143	0.13186	-1.6146	-2.3187	-1.9729	-2.2188	-2.45	-1.7646	-2.3208	-2.2479	-1.6542	-2.3292	-2.1042	-2.2146	-2.3	-2.1646	-2.0167	-2.2875	-86.787	51.100	-73.331	-86.038	130.140	58.228	109.108	132.712	160.697	-96.752	61.830	141.356	95.076	149.171	130.622	127.859	0.0011962	0.00089258	0.00037218	720.36	1.2902e-05	7.6052e-06	779.37	315.9	7.8656e-06	4.7919e-06	389.45	208.07	150.87	84.091	7.4748e-06	112.83	0.00088948	0.00084602	0.00024118	725.88	9.2567e-06	9.3739e-06	778.94	314.68	9.4176e-06	9.3873e-06	394.63	206.1	152.34	83.718	9.3963e-06	112.11	179.090	-86.599	-81.985	-160.993	-42.794	-27.220	-162.200	-156.173	-71.852	-78.845	-157.986	-155.319	-154.229	-149.748	-11.076	-152.337	-8191	255	
12069.234	1	1	0	0	0.47049	0.20852	0.17464	0.10263	0.202	0.12582	0.37465	0.12266	0.042479	0.063294	0.21967	0.05461	0.043996	0.2127	0.2856	0.11584	-1.4188	-2.3625	-1.9083	-1.975	-2.4104	-1.7667	-2.175	-2.2667	-1.7896	-2.4083	-1.8917	-1.225	-1.8646	-1.2146	-1.6021	-1.8875	-30.746	161.636	184.709	-119.671	-172.533	-7.311	92.611	93.676	138.933	90.976	-141.947	-48.151	-23.826	-144.891	1.079	-125.982	0.0012627	0.0011623	0.00017705	719.44	8.6026e-06	8.1965e-06	774.21	314.15	6.9789e-06	1.957e-06	298.72	9.6821	1.1054	0.077013	1.7255e-07	0.00399	0.00091179	0.0008619	0.00024165	723.38	9.4207e-06	9.4995e-06	774.09	314	9.5521e-06	9.6159e-06	324.54	12.279	-0.036594	-0.062699	-1.2991e-06	-0.17305	180.129	-79.239	-114.802	-161.110	-43.130	-18.267	-161.563	-155.785	-59.248	-116.719	-147.839	-168.355	-109.949	-115.777	84.086	-72.936	-8191	255	
12069.330	1	1	0	0	0.31583	0.10296	0.063325	0.1906	0.29785	0.11503	0.31714	0.30883	0.3224	0.19193	0.15792	0.25054	0.19486	0.35987	0.16306	0.033889	-1.0333	-2.0708	-1.6562	-1.5312	-2.0479	-1.6688	-1.4562	-1.6437	-1.3062	-1.9833	-1.6021	-1.2896	-1.7437	-1.4979	-1.4958	-1.8813	376.337	60.932	74.011	175.863	262.481	382.765	36.786	313.808	64.051	58.384	188.848	302.362	344.214	336.065	306.742	346.580	5.8093e-07	2.1578e-05	8.375e-06	0.024534	9.4035e-08	6.4761e-08	0.023315	0.007948	1.1871e-07	1.549e-07	0.027036	0.003686	0.014497	0.0014011	7.7668e-08	0.0017482	-7.0122e-05	-6.826e-05	-1.6191e-05	-1.6875	-4.975e-07	-4.427e-07	-0.81667	-0.25698	-3.2163e-07	-3.1534e-07	-0.74336	-0.10316	-0.22959	-0.029787	-2.2297e-07	-0.038223	143.136	136.483	259.251	286.990	89.602	274.031	250.089	49.914	255.258	374.520	154.895	304.530	376.730	350.872	248.219	215.817	-8191	255	
12069.402	1	1	0	0	0.060595	0.037819	0.11295	0.12316	0.1301	0.19201	0.032295	0.18431	0.19006	0.19572	0.11488	0.15698	0.06991	0.066749	0.15833	0.07249	-0.93333	-1.65	-1.6333	-1.2458	-1.9083	-1.7771	-1.2833	-1.8896	-1.4104	-1.8542	-1.6812	-1.3125	-1.9271	-1.5812	-1.5708	-1.9417	137.553	25.607	254.517	63.052	232.597	171.877	64.191	191.634	144.032	57.539	120.051	220.683	368.688	149.323	57.899	26.055	3.0645e-06	1.2924e-05	4.8774e-06	0.01934	4.1266e-08	3.0678e-07	0.017743	0.0074905	6.5553e-08	4.082e-07	0.058204	0.0034229	0.020544	0.0021152	1.2998e-07	0.00046662	-1.4992e-05	-1.8553e-05	-4.9927e-06	-0.53487	-1.8145e-07	-1.7111e-07	-0.31847	-0.12256	-1.4235e-07	-1.4811e-07	-0.37928	-0.050751	-0.11447	-0.016414	-1.1623e-07	-0.023338	189.408	142.264	188.988	107.883	208.459	52.594	259.995	32.818	99.171	73.085	332.908	94.340	153.855	117.950	344.657	34.860	-8191	255	
12069.522	1	1	0	0	0.12903	0.051942	0.056274	0.039477	0.15401	0.15112	0.26767	0.12937	0.029813	0.13251	0.17412	0.14628	0.32598	0.042767	0.034774	0.041147	-0.92083	-1.6271	-1.6958	-1.4042	-1.9562	-1.6458	-1.3687	-1.7125	-1.5854	-1.5021	-1.8062	-1.1875	-1.8563	-1.5625	-1.3479	-1.8083	59.399	357.000	118.197	294.333	108.122	158.122	371.890	400.645	106.302	303.248	188.377	299.760	129.107	398.508	133.884	103.841	2.6336e-06	2.9039e-05	3.3311e-06	0.029628	1.1577e-07	1.1028e-07	0.021304	0.0058025	2.0131e-07	1.7878e-07	0.025434	0.002203	0.0055729	0.0015885	1.1816e-07	0.0019885	-7.7508e-06	-1.0443e-05	-3.0853e-06	-0.30983	-1.145e-07	-1.1064e-07	-0.19531	-0.078698	-9.4096e-08	-9.2552e-08	-0.27824	-0.032257	-0.083542	-0.011162	-8.2219e-08	-0.018206	137.009	206.606	357.694	266.944	195.244	171.648	327.913	71.755	338.995	406.128	141.981	165.248	218.107	177.172	409.252	255.158	-8191	255	
12069.618	1	1	0	0	0.12896	0.22052	0.29669	0.13466	0.12442	0.15813	0.11372	0.39323	0.083146	0.15267	0.24739	0.3085	0.17996	0.13579	0.14332	0.21589	-1.05	-1.5604	-1.8	-1.3083	-1.7	-1.7	-1.25	-1.8854	-1.4521	-1.6875	-1.8125	-1.15	-1.7208	-1.6458	-1.55	-1.8083	130.056	124.760	-50.820	-4.411	-93.999	-39.963	98.237	31.650	113.677	127.412	-28.139	169.419	194.423	121.607	65.582	53.227	2.3649e-06	1.2331e-05	7.8362e-06	0.042668	3.695e-07	2.5528e-07	0.027818	0.0086238	2.4057e-07	1.4306e-07	0.047407	0.0035823	0.013135	0.0016048	3.4511e-07	0.0019156	-5.637e-06	-7.9761e-06	-2.6485e-06	-0.2291	-8.5759e-08	-9.5171e-08	-0.15383	-0.06764	-7.8388e-08	-7.2906e-08	-0.23542	-0.027004	-0.069738	-0.010056	-7.0148e-08	-0.014832	16.765	59.090	-30.894	-63.984	2.103	50.006	171.075	-81.076	60.393	99.007	33.089	256.171	214.325	203.237	211.590	22.307	-8191	255	
12069.713	1	1	0	0	0.13656	0.21453	0.21867	0.058836	0.10179	0.038947	0.16746	0.28176	0.30713	0.15613	0.050325	0.23409	0.22729	0.043494	0.19455	0.22089	-0.86875	-1.5229	-1.7604	-1.4333	-1.6146	-1.6063	-1.2854	-1.8479	-1.6583	-1.4271	-1.8875	-1.3312	-1.4583	-1.6812	-1.3937	-1.6042	327.320	-6.846	287.759	316.243	34.741	156.434	308.446	249.288	150.425	218.983	125.804	292.092	152.882	117.506	269.587	305.559	2.883e-06	2.8471e-05	4.1228e-06	0.028641	1.8315e-07	3.2795e-08	0.031631	0.0053093	4.758e-07	2.6996e-07	0.042264	0.005059	0.0090513	0.0012469	1.8486e-07	0.0016141	-5.2218e-06	-5.9716e-06	-2.2311e-06	-0.21457	-7.2262e-08	-8.4169e-08	-0.13238	-0.059319	-7.2573e-08	-7.1832e-08	-0.20878	-0.025683	-0.057952	-0.0091886	-5.7849e-08	-0.012955	144.113	32.668	168.021	181.502	102.162	1.256	231.641	-2.854	87.583	141.433	272.981	320.544	13.169	262.867	74.695	117.836	-8191	255	
12069.833	1	1	0	0	0.18171	0.17234	0.066824	0.07295	0.32585	0.24808	0.27136	0.14134	0.18961	0.20574	0.1617	0.088648	0.19148	0.10905	0.24096	0.2961	-1.0771	-1.3188	-1.7208	-1.4292	-1.7188	-1.7708	-1.3271	-1.825	-1.6646	-1.5271	-1.9062	-1.4208	-1.5604	-1.6875	-1.2479	-1.9354	12.644	124.514	-43.843	158.514	265.430	285.789	167.651	196.107	100.654	262.517	158.233	278.389	-46.392	52.969	36.353	222.978	4.3306e-06	2.3443e-05	9.0242e-07	0.032103	3.1395e-07	2.1243e-07	0.016553	0.0087348	2.4843e-07	2.2699e-07	0.039369	0.0016479	0.001417	0.0012675	3.3261e-07	0.0049866	-4.4605e-06	-6.1047e-06	-2.1726e-06	-0.19885	-7.1125e-08	-8.3092e-08	-0.1292	-0.053092	-6.8042e-08	-6.5462e-08	-0.20779	-0.024362	-0.055934	-0.0092934	-5.7697e-08	-0.012706	198.130	247.073	125.184	264.643	61.835	-40.031	197.227	-37.320	53.512	289.863	87.655	-28.987	133.515	20.035	99.915	55.599	-8191	255	
12069.930	1	1	0	0	0.21582	0.30677	0.28607	0.11844	0.085906	0.19035	0.20854	0.14604	0.069686	0.14142	0.16697	0.13694	0.14743	0.1482	0.2289	0.029218	-1.3208	-1.3958	-1.8417	-1.5979	-1.3521	-1.8479	-1.3104	-1.5542	-1.7292	-1.3813	-1.8771	-1.7729	-1.4375	-1.8375	-1.2542	-1.4521	233.789	483.024	394.728	348.742	354.043	524.573	371.623	259.999	393.253	474.449	177.130	227.101	315.765	279.223	352.046	325.647	1.9447e-06	2.3552e-05	4.3905e-06	0.018281	3.2444e-07	2.0308e-07	0.011301	0.0028541	1.42e-07	3.7478e-07	0.026448	0.0038007	0.006922	0.0029485	1.3244e-07	0.0033057	-4.6996e-06	-5.6351e-06	-2.1161e-06	-0.20838	-5.4974e-08	-7.8707e-08	-0.13667	-0.050139	-7.129e-08	-5.4718e-08	-0.19812	-0.026144	-0.046948	-0.0095889	-6.6656e-08	-0.012155	518.547	393.514	220.657	292.522	178.244	392.746	359.557	190.337	216.037	469.512	189.208	298.601	208.989	352.706	398.211	416.942	-8191	255	
12070.001	1	1	0	0	0.14878	0.06704	0.064965	0.094677	0.046202	0.088578	0.33291	0.10104	0.10321	0.086932	0.41124	0.11778	0.25222	0.17819	0.14783	0.19908	-1.3625	-1.4542	-1.7062	-1.4396	-1.2854	-1.9479	-1.3354	-1.5312	-1.9167	-1.2229	-1.7771	-1.775	-1.3896	-1.9625	-1.5292	-1.5562	56.739	78.949	83.086	103.023	133.867	129.129	107.916	41.842	97.838	367.835	261.282	118.996	322.355	324.798	29.989	331.439	1.0622e-06	2.3039e-05	1.0307e-05	0.055021	1.4751e-07	1.6958e-07	0.018269	0.014166	1.7237e-07	2.2059e-07	0.014014	0.0030839	0.0086763	0.0017284	2.5066e-08	0.0018025	-5.486e-06	-5.4809e-06	-1.7182e-06	-0.20338	-5.2623e-08	-7.309e-08	-0.12014	-0.044342	-7.2271e-08	-5.2646e-08	-0.18826	-0.023532	-0.042715	-0.01017	-5.6407e-08	-0.010343	379.889	337.524	197.870	123.735	86.589	219.376	91.707	44.914	133.142	356.599	277.039	85.819	202.119	340.210	84.544	277.633	-8191	255	
12070.099	1	1	0	0	0.11991	0.042643	0.15084	0.16337	0.065678	0.14481	0.14574	0.073587	0.22564	0.31238	0.45684	0.15995	0.142	0.24147	0.064581	0.16556	-1.4104	-1.4292	-1.7646	-1.6583	-1.4813	-1.9958	-1.525	-1.5854	-1.9146	-1.4979	-1.8792	-1.6604	-1.3083	-1.6958	-1.5521	-1.3875	198.903	170.964	385.543	390.127	284.652	372.117	278.989	235.686	216.252	189.597	384.629	376.891	392.104	422.800	169.895	73.643	1.1863e-05	1.962e-05	9.4591e-06	0.048771	2.3949e-07	3.1922e-07	0.017004	0.0037479	1.8777e-07	1.861e-07	0.027133	0.011005	0.017033	0.0020052	1.9017e-07	0.0032894	-4.7122e-06	-4.738e-06	-1.9464e-06	-0.20457	-4.7316e-08	-7.5706e-08	-0.13206	-0.043536	-7.5896e-08	-5.8095e-08	-0.19122	-0.027557	-0.044213	-0.0088168	-5.914e-08	-0.010645	96.428	409.810	361.837	116.657	102.275	373.740	247.316	88.102	307.563	352.038	86.914	403.628	186.636	335.603	203.475	204.217	-8191	255	
12070.218	1	1	0	0	0.20444	0.1605	0.027385	0.095645	0.11127	0.19731	0.2256	0.23543	0.097994	0.19608	0.12003	0.043129	0.019221	0.29989	0.23359	0.15062	-1.4271	-1.4562	-1.7313	-1.4979	-1.4167	-1.9417	-1.5208	-1.4813	-1.9833	-1.4771	-1.625	-1.7979	-1.1521	-1.7479	-1.6271	-1.5292	285.441	265.228	456.379	263.827	512.338	268.352	389.536	284.916	518.167	457.744	224.578	258.892	498.558	529.587	468.453	489.932	2.6355e-06	8.0825e-06	6.1937e-06	0.031118	3.7838e-07	2.5826e-07	0.036342	0.006723	6.1781e-08	3.742e-07	0.023324	0.0027153	0.013838	0.0014464	1.11e-07	0.0033999	-4.9701e-06	-4.7941e-06	-1.6304e-06	-0.21647	-4.6861e-08	-7.4244e-08	-0.11664	-0.042892	-7.7331e-08	-4.9346e-08	-0.17267	-0.02768	-0.049487	-0.0089693	-7.0679e-08	-0.0094376	456.044	460.980	430.768	337.774	517.404	366.955	264.700	191.618	532.675	286.916	207.493	295.101	483.938	461.085	182.569	506.647	-8191	255	
12070.314	1	1	0	0	0.040679	0.33295	0.096817	0.21121	0.36661	0.11565	0.26672	0.28757	0.17453	0.16394	0.24002	0.19199	0.10307	0.075536	0.041088	0.084798	-1.4896	-1.4771	-1.6667	-1.9083	-1.475	-1.7437	-1.8188	-1.4083	-1.8271	-1.4479	-1.4792	-1.9271	-1.2708	-1.6958	-1.6854	-1.2646	337.859	337.642	351.140	175.221	354.519	86.853	397.520	416.035	396.345	121.476	278.719	315.665	232.144	102.003	213.516	414.758	2.7713e-06	2.3782e-05	1.1792e-05	0.015552	1.6004e-07	2.8929e-07	0.042961	0.0036761	1.3388e-07	4.8137e-07	0.011936	0.0050111	0.0070227	0.00047909	8.129e-08	0.0029081	-4.6052e-06	-4.6329e-06	-1.6831e-06	-0.21933	-5.0121e-08	-6.6166e-08	-0.12856	-0.042087	-6.9779e-08	-5.4718e-08	-0.16241	-0.026973	-0.035162	-0.0089026	-6.1266e-08	-0.0071931	319.275	334.934	384.690	188.522	171.003	108.990	250.429	103.326	360.871	248.265	342.571	253.401	417.112	362.770	297.341	206.640	-8191	255	
12070.410	1	1	0	0	0.10948	0.082343	0.14218	0.028571	0.17308	0.092384	0.073985	0.1483	0.24156	0.10104	0.21034	0.1514	0.1114	0.2208	0.17869	0.1506	-1.2479	-1.5708	-1.3729	-1.7875	-1.2396	-1.6	-1.75	-1.3312	-1.8604	-1.7083	-1.4062	-2.0146	-1.4958	-1.5938	-1.7271	-1.4	158.369	17.286	283.407	314.751	24.109	246.549	365.547	117.318	224.415	292.313	72.555	179.375	250.232	272.692	145.949	54.041	1.0163e-06	4.0571e-05	4.7247e-06	0.017488	2.0822e-07	1.1365e-07	0.043602	0.0047537	4.4361e-07	2.4278e-07	0.027014	0.0083348	0.0098057	0.0018532	1.5559e-07	0.0021915	-4.6304e-06	-5.6702e-06	-1.2287e-06	-0.20338	-5.4064e-08	-6.5858e-08	-0.12475	-0.033068	-7.1818e-08	-5.8709e-08	-0.15511	-0.028233	-0.046231	-0.0076635	-7.2729e-08	-0.0080069	243.046	56.750	118.397	350.924	323.627	153.535	343.302	32.364	77.077	75.683	332.913	357.006	75.329	210.911	282.339	191.356	-8191	255	
12070.531	1	1	0	0	0.21902	0.23974	0.18263	0.051846	0.13065	0.1106	0.25542	0.030499	0.2693	0.083919	0.05756	0.15492	0.12899	0.31637	0.34599	0.26497	-1.3396	-1.6229	-1.4021	-1.9354	-1.2938	-1.6375	-1.7708	-1.2646	-1.6667	-1.475	-1.4896	-1.7792	-1.5312	-1.6167	-1.7188	-1.3979	342.720	266.948	333.029	306.994	318.551	416.420	397.990	386.964	448.435	321.628	368.155	327.987	289.687	356.571	420.572	255.103	5.1698e-07	1.4369e-05	8.5553e-06	0.03454	1.6292e-07	3.0163e-07	0.021984	0.0073981	1.4808e-07	4.2716e-07	0.010769	0.0036184	0.011881	0.0011903	3.5684e-07	0.0026295	-4.3284e-06	-6.0487e-06	-1.2462e-06	-0.25077	-5.3609e-08	-6.1934e-08	-0.14255	-0.030492	-6.9779e-08	-5.3797e-08	-0.13261	-0.027802	-0.042976	-0.0062623	-6.3771e-08	-0.0080725	243.860	505.247	297.894	338.939	216.511	459.351	221.926	164.561	264.416	312.217	334.963	146.910	450.406	425.848	421.589	364.845	-8191	255	
12070.625	1	1	0	0	0.19214	0.15288	0.10617	0.17436	0.33153	0.24197	0.33089	0.21627	0.14936	0.30114	0.08111	0.10978	0.095211	0.11499	0.11946	0.15674	-1.1917	-1.6313	-1.3042	-1.8687	-1.325	-1.6729	-1.7917	-1.4896	-1.7437	-1.6083	-1.3583	-1.9438	-1.4083	-1.7417	-1.8708	-1.4021	61.633	-37.423	-91.599	108.127	215.911	-74.239	-31.502	35.920	-117.446	182.165	-93.944	-104.733	90.403	115.546	149.013	151.326	7.4989e-07	7.4137e-06	6.376e-06	0.028319	4.4489e-07	2.662e-07	0.027158	0.0065819	2.8099e-07	2.8821e-07	0.012248	0.003734	0.013288	0.00091053	4.0525e-07	0.002801	-4.2151e-06	-5.6842e-06	-1.2248e-06	-0.23481	-5.5201e-08	-5.9472e-08	-0.14445	-0.033605	-6.5097e-08	-6.6229e-08	-0.11939	-0.02983	-0.048576	-0.0067008	-6.9996e-08	-0.0083351	-118.262	74.255	47.730	-7.074	-80.366	-45.410	125.634	-103.920	-107.824	118.134	88.642	197.232	186.499	118.673	125.728	73.691	-8191	255	
12070.699	1	1	0	0	0.2095	0.070907	0.14741	0.15371	0.060153	0.17055	0.22305	0.15617	0.39207	0.19003	0.046258	0.34078	0.1529	0.14887	0.13058	0.11491	-1.1875	-1.7625	-1.3979	-1.8062	-1.5562	-1.6042	-2.0687	-1.275	-1.5292	-1.8479	-1.2	-1.8229	-1.7062	-1.4312	-1.9083	-1.3229	273.304	455.589	390.571	466.830	189.545	161.337	457.930	213.908	252.729	287.795	201.697	139.546	167.694	422.288	445.401	335.632	1.3304e-06	3.904e-05	6.7319e-06	0.042063	3.263e-07	3.0103e-07	0.036883	0.011171	1.9035e-07	5.7923e-07	0.010064	0.00067986	0.012421	0.0012075	1.2556e-07	0.0030046	-3.8628e-06	-5.6492e-06	-9.1078e-07	-0.21052	-5.3685e-08	-5.0317e-08	-0.16432	-0.033713	-5.5129e-08	-7.1218e-08	-0.13044	-0.027372	-0.047208	-0.0060336	-7.0907e-08	-0.009372	262.463	444.214	215.408	189.955	390.316	453.536	318.793	124.826	337.585	372.705	120.751	235.322	291.005	193.614	242.645	385.865	-8191	255	
12070.818	1	1	0	0	0.21388	0.097298	0.058375	0.058084	0.22791	0.15208	0.19801	0.21369	0.20553	0.1885	0.067314	0.040966	0.05319	0.079872	0.091072	0.18133	-1.2271	-1.8729	-1.2729	-1.6708	-1.5	-1.5812	-1.6625	-1.3125	-1.5646	-1.6562	-1.3896	-1.6042	-1.7896	-1.4125	-1.7604	-1.4521	243.844	410.981	481.463	357.700	445.167	301.155	426.470	319.449	480.514	456.260	372.021	427.378	468.214	424.296	458.242	226.356	1.161e-06	3.1179e-05	9.5287e-06	0.026353	2.449e-07	2.0681e-07	0.052881	0.0070813	1.849e-07	2.8776e-07	0.058311	0.0027605	0.0043843	0.0012918	9.8501e-08	0.0050337	-3.8377e-06	-5.6562e-06	-1.0219e-06	-0.20219	-6.4376e-08	-5.301e-08	-0.15256	-0.031726	-5.6261e-08	-7.0297e-08	-0.133	-0.023471	-0.050138	-0.0056046	-7.6373e-08	-0.0099364	434.974	150.658	491.553	448.557	482.896	460.992	465.767	168.591	170.087	153.656	390.349	325.527	168.092	156.759	456.405	371.606	-8191	255	
12070.914	1	1	0	0	0.23508	0.16932	0.16109	0.038442	0.21643	0.24568	0.11991	0.1222	0.16816	0.030835	0.12518	0.027586	0.26764	0.17028	0.086118	0.12177	-1.1313	-1.8146	-1.2833	-1.5208	-1.6313	-1.2979	-1.7167	-1.5479	-1.65	-1.9	-1.3667	-1.6208	-1.8542	-1.3042	-1.8229	-1.7542	-28.574	201.578	-4.080	206.805	55.063	125.949	210.970	87.648	231.378	204.608	278.124	52.852	243.230	-8.502	185.585	248.843	4.7985e-06	1.1737e-05	3.7694e-06	0.068232	1.5996e-07	2.9553e-07	0.030889	0.0048645	3.626e-07	3.4403e-07	0.016571	0.008228	0.0097729	0.00035956	1.7286e-07	0.002164	-3.7685e-06	-6.4271e-06	-1.1429e-06	-0.17789	-6.1798e-08	-4.7778e-08	-0.14128	-0.0379	-5.3996e-08	-7.5976e-08	-0.14465	-0.023071	-0.05372	-0.0061003	-6.5365e-08	-0.010225	323.247	297.428	111.579	19.672	20.343	73.954	0.892	-16.884	263.180	217.384	184.723	29.951	307.423	23.147	21.590	66.454	-8191	255	
12071.010	1	1	0	0	0.12641	0.41189	0.099082	0.021061	0.023014	0.21929	0.1857	0.07941	0.22687	0.13207	0.48478	0.25107	0.14473	0.27599	0.12433	0.15686	-1.025	-1.8229	-1.3333	-1.5167	-1.7333	-1.55	-1.8417	-1.4083	-1.4125	-1.925	-1.4521	-1.5438	-1.5812	-1.4292	-1.65	-1.5812	244.906	242.521	93.576	84.801	100.408	257.469	73.910	32.653	223.454	146.046	143.745	69.265	180.307	303.934	17.156	65.999	7.7503e-07	3.0908e-05	4.2323e-06	0.037081	1.3797e-07	4.0584e-07	0.019801	0.0050619	1.5045e-07	1.684e-07	0.026531	0.0016955	0.0042917	0.0026585	1.91e-07	0.00031125	-2.7682e-06	-6.1678e-06	-1.1019e-06	-0.17599	-6.7334e-08	-5.4702e-08	-0.12618	-0.04096	-4.5387e-08	-7.5745e-08	-0.13498	-0.024362	-0.057366	-0.0058715	-6.3467e-08	-0.01079	330.132	328.221	248.298	17.213	7.934	143.779	335.301	20.266	283.118	228.267	280.095	350.394	34.535	81.492	227.844	175.374	-8191	255	
12071.131	1	1	0	0	0.22971	0.30261	0.053434	0.13049	0.085051	0.19139	0.30287	0.15219	0.22712	0.17891	0.12266	0.11312	0.28462	0.15469	0.14327	0.2243	-0.975	-1.775	-1.425	-1.5688	-1.6396	-1.3604	-1.6604	-1.7062	-1.3521	-1.7958	-1.4479	-1.6604	-1.95	-1.4396	-1.7229	-1.7042	247.907	240.526	227.594	118.527	296.548	330.632	269.661	137.090	285.466	108.155	178.131	453.116	237.848	332.338	250.085	129.318	1.9248e-06	7.6095e-06	1.1642e-05	0.038615	3.8266e-08	6.0944e-07	0.022659	0.00086469	2.4024e-07	2.5234e-07	0.073221	0.0029546	0.030927	0.0022437	2.2802e-07	0.0038614	-2.1516e-06	-6.0767e-06	-1.3749e-06	-0.1617	-6.2708e-08	-4.8316e-08	-0.12618	-0.043536	-3.6702e-08	-6.4848e-08	-0.14465	-0.019907	-0.058994	-0.0061384	-6.1493e-08	-0.010041	341.457	186.582	228.666	252.638	147.109	414.010	262.388	111.918	399.234	169.902	194.657	157.595	200.127	100.347	202.159	310.447	-8191	255	
12071.227	1	1	0	0	0.22483	0.18415	0.19977	0.19634	0.23884	0.0021601	0.17119	0.071322	0.10797	0.029594	0.16277	0.19388	0.10941	0.21423	0.23951	0.086799	-0.925	-1.8208	-1.625	-1.4708	-1.8625	-1.6	-1.55	-1.5833	-1.3979	-1.9083	-1.5146	-1.5042	-1.8375	-1.3396	-1.6688	-1.7875	224.221	250.766	112.108	209.493	82.402	180.000	324.943	140.670	335.489	295.461	98.747	118.365	19.733	275.846	71.097	72.200	3.5779e-06	9.1262e-06	1.0318e-05	0.063159	2.0246e-07	3.7787e-07	0.032627	0.0041308	6.0064e-08	2.3708e-07	0.010516	0.00466	0.0015661	0.0015984	4.4323e-07	0.0010353	-2.9569e-06	-6.2099e-06	-1.4022e-06	-0.15265	-6.7637e-08	-4.6932e-08	-0.1195	-0.045469	-4.3952e-08	-6.9836e-08	-0.13695	-0.018863	-0.062315	-0.0069295	-5.1928e-08	-0.010448	357.065	326.822	156.688	357.155	315.290	109.472	20.318	18.716	76.110	264.385	40.647	311.643	307.451	195.769	348.603	119.899	-8191	255	
12071.298	1	1	0	0	0.10891	0.019166	0.12031	0.12966	0.16431	0.18521	0.051857	0.20972	0.13094	0.18993	0.10747	0.34511	0.18415	0.14059	0.18392	0.05552	-0.79792	-1.6688	-1.6854	-1.4688	-1.9646	-1.6417	-1.6271	-1.7667	-1.4062	-1.6688	-1.7083	-1.55	-1.9458	-1.5646	-1.7	-1.8771	137.897	-106.956	-121.758	138.934	-121.921	-30.060	-69.756	46.813	131.878	101.056	35.706	-55.951	168.409	-130.891	137.363	-89.024	2.5721e-06	6.2443e-05	3.0866e-06	0.054184	2.2438e-07	3.8049e-07	0.010107	0.008468	6.9849e-08	1.1531e-07	0.035781	0.0085739	0.010525	0.0005334	2.1425e-07	0.0013854	-2.3718e-06	-6.0346e-06	-1.4257e-06	-0.13979	-6.7637e-08	-4.9471e-08	-0.11521	-0.048099	-4.5915e-08	-6.7074e-08	-0.14109	-0.02046	-0.056129	-0.0073489	-5.4813e-08	-0.011367	66.423	139.142	-148.336	-66.996	134.716	29.497	11.086	-148.884	182.954	-111.654	-92.921	102.027	-125.474	-151.730	122.990	52.947	-8191	255	
12071.394	1	1	0	0	0.19044	0.1909	0.22512	0.24913	0.054949	0.28073	0.011702	0.103	0.17994	0.24149	0.032787	0.13748	0.13309	0.12993	0.17122	0.039037	-0.78333	-1.6	-1.7229	-1.2354	-1.8188	-1.3167	-1.6083	-1.8854	-1.3521	-1.8667	-1.8312	-1.5396	-1.825	-1.5729	-1.1792	-1.7042	90.950	152.882	194.548	13.339	-98.514	2.662	219.551	110.912	-55.420	-89.270	201.903	102.434	72.015	220.735	241.650	-69.266	3.2322e-06	1.9591e-05	5.4047e-06	0.065961	1.8671e-07	1.7343e-07	0.036199	0.0096367	2.8383e-07	1.4296e-07	0.044082	0.00018372	0.0015139	0.00080851	3.6924e-07	0.0028067	-2.8185e-06	-5.2987e-06	-1.4257e-06	-0.13717	-6.4376e-08	-5.8857e-08	-0.11347	-0.052233	-4.2064e-08	-6.6383e-08	-0.1776	-0.016835	-0.056194	-0.006472	-4.6917e-08	-0.011223	195.571	-66.977	212.717	249.801	9.361	-30.613	49.983	-88.111	246.674	-91.534	248.474	230.998	18.461	229.395	147.195	158.238	-8191	255	
12071.491	1	1	0	0	0.25218	0.28154	0.14033	0.42385	0.27469	0.16064	0.14186	0.21172	0.18238	0.12118	0.34384	0.28096	0.13378	0.35378	0.088754	0.25397	-1.05	-1.5312	-1.8521	-1.3708	-1.8417	-1.5292	-1.3687	-1.7437	-1.4	-1.5896	-1.5479	-1.3896	-1.7938	-1.6292	-1.3229	-1.8479	152.444	36.738	28.861	56.597	234.745	29.597	20.599	116.601	103.579	164.610	204.238	253.733	227.693	273.856	187.531	131.449	5.8433e-06	2.5631e-05	1.1135e-05	0.036388	2.523e-07	2.8039e-07	0.02875	0.015213	7.2179e-08	1.8898e-07	0.02851	0.0062839	0.002071	0.0012715	1.7679e-07	0.0019068	-2.4033e-06	-4.8431e-06	-1.7357e-06	-0.13455	-6.3921e-08	-6.2935e-08	-0.10234	-0.05073	-5.4222e-08	-5.4334e-08	-0.1855	-0.018648	-0.051831	-0.0075872	-4.6538e-08	-0.011341	289.719	3.021	102.506	191.376	253.801	162.321	-20.475	-27.045	284.250	214.754	163.040	212.241	158.984	273.833	189.236	175.444	-8191	255	
12071.610	1	1	0	0	0.18994	0.062763	0.30686	0.054193	0.25504	0.34621	0.12851	0.26585	0.28403	0.18593	0.19551	0.089117	0.28384	0.16755	0.041319	0.087176	-0.98333	-1.5458	-2.0896	-1.2146	-1.8104	-1.7938	-1.6688	-1.9958	-1.4771	-1.6083	-1.8083	-1.3896	-1.9625	-1.6583	-1.3229	-1.8021	23.843	-10.209	157.973	-16.123	102.605	179.810	30.056	8.274	231.674	269.868	139.227	-60.518	52.376	-22.520	109.954	231.722	4.3834e-06	2.3533e-05	9.9618e-06	0.032993	3.4714e-07	3.5184e-07	0.02306	0.0048503	2.0694e-07	2.9702e-07	0.035168	0.0066611	0.005469	0.00099235	9.8556e-09	0.00044154	-3.2589e-06	-4.8431e-06	-1.7474e-06	-0.1286	-6.4073e-08	-6.2088e-08	-0.09964	-0.048797	-5.8074e-08	-5.5178e-08	-0.18609	-0.020245	-0.050529	-0.0085404	-4.0236e-08	-0.010724	13.957	105.647	181.113	112.983	220.083	158.177	28.654	-48.996	281.879	57.158	237.179	98.883	275.665	38.444	261.656	9.833	-8191	255	
12071.706	1	1	0	0	0.03569	0.12482	0.31068	0.20286	0.14699	0.097357	0.1623	0.25144	0.25533	0.12236	0.20303	0.22149	0.10314	0.10613	0.084299	0.19423	-1.2146	-1.5917	-1.9625	-1.1708	-1.7958	-2.0208	-1.375	-1.8833	-1.4125	-1.4688	-1.8563	-1.4562	-1.5396	-1.7104	-1.3438	-1.8604	134.531	225.439	209.270	-26.658	118.652	209.632	210.007	237.384	-50.860	22.781	-1.504	158.853	113.678	-47.829	215.452	238.464	3.9201e-06	4.0888e-05	6.92e-06	0.042186	2.1671e-07	1.9669e-07	0.015647	0.0088654	1.0271e-07	1.847e-07	0.04043	0.0093002	0.0074387	0.0021843	2.4036e-07	0.0018672	-3.2463e-06	-4.8782e-06	-1.9776e-06	-0.14789	-6.468e-08	-6.8012e-08	-0.10473	-0.04461	-5.3845e-08	-5.1264e-08	-0.18313	-0.02172	-0.049487	-0.0080829	-4.2286e-08	-0.010987	-111.958	-9.326	117.827	41.647	162.485	104.797	83.390	-95.161	27.459	215.169	112.801	242.627	130.067	-68.457	-14.928	236.436	-8191	255	
12071.802	1	1	0	0	0.25418	0.086313	0.18128	0.022739	0.29727	0.14546	0.033227	0.17285	0.17082	0.12732	0.10447	0.36776	0.30846	0.11767	0.31125	0.16557	-1.1354	-1.3292	-1.8438	-1.4229	-1.6604	-1.7792	-1.4229	-1.7604	-1.4188	-1.3542	-1.8021	-1.475	-1.6917	-1.6396	-1.2021	-1.8646	335.394	187.292	239.715	12.035	9.715	195.634	278.112	210.500	341.606	179.984	100.943	230.936	309.034	67.170	114.303	152.785	5.1922e-06	2.9223e-05	9.878e-06	0.060431	2.6804e-07	1.6474e-07	0.042022	0.0053867	1.0674e-07	1.148e-07	0.024711	0.0008587	0.0063823	0.0045653	1.5485e-07	0.0038923	-3.1268e-06	-4.5347e-06	-1.6246e-06	-0.16503	-5.7552e-08	-6.6627e-08	-0.097097	-0.042409	-5.0749e-08	-4.0981e-08	-0.16971	-0.019446	-0.041999	-0.008121	-4.3805e-08	-0.010724	189.178	285.279	144.782	191.518	267.087	314.044	244.753	21.905	35.533	160.432	181.502	126.788	245.702	68.950	114.651	294.298	-8191	255	
12071.900	1	1	0	0	0.11189	0.12487	0.1342	0.078762	0.03386	0.15381	0.21796	0.14607	0.29265	0.2626	0.17783	0.039187	0.20066	0.25414	0.043249	0.24806	-1.4688	-1.3271	-1.8854	-1.5104	-1.6917	-1.8833	-1.375	-1.6458	-1.7896	-1.675	-1.8438	-1.5167	-1.5604	-1.7437	-1.2292	-1.5708	227.401	352.266	157.706	143.933	449.970	315.295	265.174	236.474	175.713	392.935	229.018	365.261	457.587	322.323	340.792	480.242	5.3401e-06	1.7649e-05	4.657e-06	0.035968	4.9483e-07	3.789e-07	0.03677	0.0062654	1.5308e-07	1.1085e-07	0.050161	0.0090155	0.0018943	0.0025541	1.3735e-07	0.0034748	-3.6993e-06	-3.8969e-06	-1.6928e-06	-0.14979	-4.6102e-08	-6.9936e-08	-0.10806	-0.041819	-6.5626e-08	-4.996e-08	-0.17879	-0.022058	-0.042129	-0.0080543	-4.3349e-08	-0.0092145	320.676	414.412	140.604	343.660	341.540	465.799	294.953	139.540	471.056	404.493	176.380	429.034	145.678	282.525	136.888	282.631	-8191	255	
12071.994	1	1	0	0	0.077182	0.1381	0.053675	0.31631	0.074999	0.098286	0.041937	0.2427	0.11452	0.050779	0.34841	0.33823	0.16881	0.31354	0.24285	0.16676	-1.2604	-1.2271	-1.7354	-1.5146	-1.3521	-1.9104	-1.6208	-1.5625	-1.5458	-1.3375	-1.6292	-1.5125	-1.4479	-1.7812	-1.5562	-1.6167	148.142	186.309	117.585	453.831	430.885	371.793	312.648	124.982	259.548	443.771	253.006	359.133	183.739	294.504	175.869	123.127	3.6827e-06	1.2567e-05	4.2908e-06	0.034433	9.2223e-08	3.5728e-07	0.03305	0.0056961	1.5682e-07	2.8137e-07	0.029552	0.0020483	0.0055116	0.0011992	2.1453e-07	0.0014387	-3.8503e-06	-4.3385e-06	-1.6148e-06	-0.1798	-4.4055e-08	-6.6243e-08	-0.098051	-0.038866	-5.9207e-08	-4.7734e-08	-0.16991	-0.023717	-0.041543	-0.0084927	-4.6006e-08	-0.010501	433.943	445.405	391.599	370.937	401.496	239.635	434.528	126.835	196.100	450.399	370.032	219.353	251.289	145.911	424.777	387.000	-8191	255	
12072.090	1	1	0	0	0.25931	0.337	0.26035	0.14297	0.096785	0.19814	0.069392	0.32062	0.10497	0.18052	0.03808	0.067513	0.16506	0.11952	0.099145	0.12732	-1.3	-1.2271	-1.8875	-1.5542	-1.2062	-1.7167	-1.5417	-1.6042	-1.925	-1.5042	-1.7083	-1.7313	-1.4438	-1.8458	-1.5104	-1.6104	156.647	207.078	-10.783	117.325	-19.565	234.580	164.413	213.939	-104.234	182.140	-55.286	-31.768	95.072	-7.562	145.346	68.415	1.6963e-06	2.4883e-05	3.2829e-06	0.049965	1.4682e-07	3.8213e-07	0.036046	0.0074087	1.7711e-07	3.3009e-07	0.02807	0.0060784	0.0097624	0.001323	1.6337e-07	0.0016307	-4.1145e-06	-4.6889e-06	-1.6246e-06	-0.18004	-4.5799e-08	-7.0397e-08	-0.1087	-0.037095	-6.4946e-08	-5.2185e-08	-0.15116	-0.024608	-0.036204	-0.0080447	-5.5116e-08	-0.0080857	250.546	-31.957	1.378	-84.051	57.510	252.139	-81.354	-87.077	140.263	168.533	120.035	-65.316	138.753	-47.371	200.816	27.951	-8191	255	
12072.211	1	1	0	0	0.28551	0.26942	0.1677	0.18806	0.10227	0.064066	0.12871	0.19	0.055616	0.1752	0.16319	0.13236	0.064338	0.18475	0.19699	0.12963	-1.4417	-1.3458	-1.6938	-1.8188	-1.3375	-1.8646	-1.525	-1.5167	-1.8979	-1.4354	-1.6875	-1.7104	-1.3521	-1.7437	-1.725	-1.45	81.723	-3.593	17.912	-55.368	-23.068	150.251	58.497	3.160	142.983	-68.827	-62.325	-81.639	46.900	231.992	182.927	200.232	2.9313e-06	5.02e-05	2.7918e-06	0.020029	2.1553e-07	2.206e-07	0.021328	0.01196	3.0657e-07	1.8659e-07	0.011171	0.0045642	0.006922	0.0013472	9.7686e-08	0.0018116	-4.6052e-06	-4.0862e-06	-1.4471e-06	-0.19266	-4.3979e-08	-6.8859e-08	-0.11092	-0.033498	-7.3027e-08	-5.1264e-08	-0.15649	-0.026912	-0.036464	-0.0084737	-5.504e-08	-0.0090701	109.822	106.312	-75.313	128.554	139.375	56.739	46.781	-68.948	-38.721	-71.673	154.387	77.129	-5.624	-78.035	103.003	231.989	-8191	255	
12072.307	1	1	0	0	0.16505	0.10865	0.11303	0.087453	0.12346	0.18218	0.011029	0.18018	0.21423	0.16743	0.1842	0.38181	0.14023	0.027461	0.27822	0.28072	-1.5146	-1.3292	-1.7104	-1.6792	-1.5562	-1.8188	-1.6375	-1.4917	-2.0083	-1.3792	-1.6771	-1.9083	-1.3833	-1.8229	-1.725	-1.6146	48.967	287.702	101.199	288.764	154.935	126.813	74.215	221.404	182.594	44.063	3.427	90.893	191.410	57.587	-38.782	247.544	3.6288e-06	8.5712e-06	7.2119e-06	0.036824	1.4178e-07	4.4651e-07	0.04953	0.010684	2.3053e-07	1.595e-07	0.040368	0.0049658	0.0050406	0.00116	3.1462e-07	0.0012076	-4.0138e-06	-4.8081e-06	-1.5095e-06	-0.20623	-3.8216e-08	-6.3088e-08	-0.11966	-0.030921	-6.7816e-08	-5.303e-08	-0.15155	-0.028939	-0.041608	-0.0080924	-6.0582e-08	-0.0069306	160.371	11.950	59.403	280.341	287.667	-25.878	209.083	-24.777	-31.501	274.094	109.318	-14.666	-32.726	-33.194	114.061	17.103	-8191	255	
12072.403	1	1	0	0	0.25164	0.11076	0.14217	0.1283	0.29767	0.19019	0.31582	0.16911	0.28832	0.28371	0.2078	0.2083	0.27563	0.02807	0.14663	0.32861	-1.2938	-1.475	-1.675	-1.775	-1.2938	-1.7625	-1.7333	-1.1208	-1.7188	-1.3854	-1.2646	-1.7917	-1.1542	-1.6583	-1.8146	-1.3396	117.159	241.577	-12.675	139.755	36.965	34.752	113.208	136.393	248.555	-29.169	181.416	1.861	238.131	234.437	152.920	256.755	2.8963e-06	9.9039e-06	9.6979e-06	0.040949	2.2167e-07	4.4921e-07	0.044319	0.0054947	3.9812e-07	3.0443e-07	0.016933	0.0061475	0.014254	0.001001	3.2601e-07	0.0024571	-5.0204e-06	-4.9833e-06	-1.4959e-06	-0.21004	-4.4283e-08	-6.0703e-08	-0.12427	-0.032532	-6.4266e-08	-5.5716e-08	-0.12432	-0.027495	-0.043301	-0.0079399	-6.1949e-08	-0.0092276	8.587	-87.035	136.513	81.587	79.738	195.515	192.097	-75.933	-86.929	66.266	-79.459	-43.824	-24.157	134.045	-24.510	-73.412	-8191	255	
12072.499	1	1	0	0	0.25447	0.10841	0.094086	0.26883	0.084009	0.069495	0.36434	0.097914	0.12589	0.051964	0.12444	0.14075	0.19187	0.2821	0.2373	0.13016	-1.2812	-1.6812	-1.6313	-1.8937	-1.4521	-1.7729	-1.7188	-1.25	-1.8021	-1.5521	-1.5583	-1.9312	-1.3917	-1.5438	-2.0146	-1.4062	174.592	62.408	356.755	177.600	94.855	87.718	106.889	328.948	255.135	230.658	177.809	270.642	394.575	325.354	386.513	385.642	4.616e-06	2.8802e-05	2.0432e-06	0.029016	3.5445e-07	3.1728e-07	0.01725	0.015185	4.3073e-07	2.5886e-07	0.032038	0.0040365	0.010824	0.0011694	3.5144e-07	0.0034286	-4.1837e-06	-4.7731e-06	-1.1e-06	-0.21433	-4.3524e-08	-5.4087e-08	-0.13921	-0.033015	-6.2303e-08	-5.2339e-08	-0.11564	-0.029277	-0.044148	-0.006758	-6.7339e-08	-0.0085582	140.503	207.112	65.346	283.109	79.940	393.790	313.928	69.461	176.639	396.878	144.326	111.434	352.733	80.622	120.769	63.299	-8191	255	
12072.596	1	1	0	0	0.2851	0.047323	0.17306	0.30007	0.30293	0.17614	0.078259	0.091956	0.12918	0.11919	0.1872	0.065622	0.071065	0.22092	0.14778	0.16852	-1.4271	-1.5958	-1.4396	-1.9104	-1.4229	-1.7	-1.6833	-1.1667	-1.7812	-1.8708	-1.2417	-1.8833	-1.6521	-1.5333	-1.6375	-1.3771	329.925	291.589	200.599	350.672	314.288	162.813	225.015	229.369	216.449	433.277	182.572	169.715	316.548	430.730	318.272	329.231	5.0331e-07	3.2943e-05	1.4981e-05	0.031548	3.0358e-07	1.9413e-07	0.011322	0.0048921	1.054e-07	1.0212e-07	0.01962	0.0037001	0.013307	0.0016666	4.4626e-08	0.0013233	-4.6241e-06	-5.4739e-06	-1.0668e-06	-0.21362	-4.8377e-08	-5.601e-08	-0.14604	-0.031404	-5.9433e-08	-5.6253e-08	-0.12748	-0.027495	-0.044799	-0.0081496	-7.0148e-08	-0.0082038	453.722	404.581	234.441	410.477	415.824	202.962	494.701	165.245	207.815	299.666	302.063	393.564	505.791	504.311	305.374	184.926	-8191	255	
12072.692	1	1	0	0	0.13923	0.13192	0.078207	0.38201	0.28565	0.19014	0.15367	0.13798	0.3394	0.22855	0.18283	0.20027	0.097919	0.045719	0.063972	0.116	-1.375	-1.5208	-1.4167	-2.0083	-1.5917	-1.5792	-1.6604	-1.5375	-1.8563	-1.8583	-1.4	-1.7542	-1.6125	-1.4562	-1.8333	-1.3875	238.624	460.177	303.745	398.545	424.320	431.367	133.342	367.374	342.095	436.202	357.457	291.694	464.334	450.061	465.533	283.445	3.5143e-06	3.1977e-05	1.3943e-05	0.030548	3.0762e-07	1.6221e-07	0.041443	0.0095018	1.8552e-07	3.6287e-07	0.024283	0.0087278	0.0078058	0.0032038	1.18e-07	0.0037775	-3.8377e-06	-4.9272e-06	-1.254e-06	-0.21243	-5.5429e-08	-4.9086e-08	-0.15224	-0.036719	-5.6337e-08	-6.3543e-08	-0.12669	-0.027034	-0.048966	-0.0057762	-6.2404e-08	-0.0068781	451.983	371.487	375.859	387.951	407.190	308.827	176.367	131.071	432.032	463.833	372.052	120.939	284.659	146.781	346.007	177.407	-8191	255	
12072.788	1	1	0	0	0.21221	0.16845	0.16143	0.091831	0.14607	0.18762	0.15822	0.25803	0.23025	0.24819	0.2067	0.18336	0.22148	0.1494	0.25742	0.17502	-1.0854	-1.6812	-1.2167	-1.7271	-1.7229	-1.5792	-1.9729	-1.4021	-1.7687	-1.825	-1.2208	-1.7708	-1.5479	-1.4208	-1.8583	-1.3854	377.730	185.724	300.809	452.452	226.183	203.279	359.988	409.450	377.772	280.455	356.100	265.026	261.535	234.056	212.331	198.395	3.5592e-06	3.1002e-05	3.4267e-06	0.059717	2.1935e-07	4.3112e-07	0.0058952	0.009438	2.9581e-07	2.634e-07	0.039683	0.0012203	0.0094523	0.0020828	1.7325e-08	0.00040286	-2.9695e-06	-6.5603e-06	-1.0434e-06	-0.19671	-5.778e-08	-4.9778e-08	-0.13921	-0.0379	-5.0371e-08	-7.1141e-08	-0.10873	-0.025468	-0.04825	-0.0054617	-7.1818e-08	-0.0082038	239.238	362.169	158.972	260.958	153.364	385.213	423.245	155.116	355.589	170.050	215.813	205.126	451.637	302.023	354.244	239.964	-8191	255	
12072.907	1	1	0	0	0.087713	0.42261	0.10191	0.20979	0.16406	0.21385	0.075738	0.16885	0.18651	0.19973	0.14874	0.20557	0.19137	0.2846	0.040012	0.090299	-1.2229	-1.9875	-1.2292	-1.6333	-1.6646	-1.5021	-1.8312	-1.6854	-1.7167	-1.9458	-1.3667	-1.7792	-1.6583	-1.2542	-1.8271	-1.5021	172.498	345.902	95.415	242.794	244.870	186.045	237.068	342.498	331.791	75.964	65.398	390.915	364.861	172.351	213.188	178.136	7.1034e-06	2.8e-05	7.6399e-06	0.014398	1.867e-07	1.4371e-07	0.0034276	0.0057292	2.021e-07	1.7172e-07	0.038696	0.00051865	0.0071268	0.0037815	9.5432e-08	0.0036155	-3.2148e-06	-6.4131e-06	-1.176e-06	-0.21338	-5.7704e-08	-4.5778e-08	-0.14795	-0.038866	-5.3618e-08	-7.1294e-08	-0.11919	-0.023194	-0.05411	-0.0051471	-6.1038e-08	-0.0084663	81.805	359.097	187.072	325.346	60.306	270.031	284.742	49.304	365.264	72.040	284.241	295.429	51.982	72.612	50.420	65.955	-8191	255	
12073.003	1	1	0	0	0.14756	0.094188	0.098451	0.16954	0.11466	0.22668	0.052911	0.12275	0.14562	0.12171	0.14977	0.18413	0.061608	0.41343	0.10662	0.26625	-0.90625	-1.8729	-1.1104	-1.6271	-1.8479	-1.3667	-2.0042	-1.5271	-1.5187	-1.7687	-1.3958	-1.7104	-1.7812	-1.5167	-1.7	-1.7792	-144.768	87.250	67.493	-93.664	87.094	81.302	65.472	144.838	-34.364	80.378	90.736	74.836	100.457	-138.192	-72.103	-21.579	3.5999e-06	4.3396e-05	3.1215e-06	0.0083857	2.4722e-07	2.4756e-07	0.0023173	0.0071874	5.2533e-07	3.3985e-07	0.025108	0.0014154	0.013186	0.0014418	2.889e-07	0.00060384	-2.8185e-06	-6.6584e-06	-1.1156e-06	-0.18956	-7.0594e-08	-4.9394e-08	-0.14414	-0.040799	-4.7501e-08	-7.398e-08	-0.13853	-0.025068	-0.060882	-0.0061384	-6.3695e-08	-0.01037	72.008	89.183	-71.306	96.098	-136.139	9.836	-12.014	-143.059	87.486	55.729	29.374	-118.380	114.827	191.961	-131.704	-73.817	-8191	255	
12073.099	1	1	0	0	0.21518	0.13555	0.19348	0.11224	0.082991	0.078456	0.074982	0.20834	0.29845	0.016328	0.27572	0.047601	0.31567	0.25303	0.076525	0.24078	-1.0729	-2.0687	-1.5521	-1.7604	-1.7917	-1.4562	-1.8521	-1.7687	-1.5667	-2.0917	-1.3708	-1.4833	-1.8667	-1.5125	-1.5729	-1.5354	242.752	154.935	153.432	62.177	210.229	84.336	110.668	190.049	122.292	116.662	190.680	227.844	-4.400	-1.234	270.973	153.502	2.4342e-06	3.9938e-05	5.4115e-06	0.044548	1.622e-07	1.2704e-07	0.0053099	0.010221	3.0087e-07	7.0463e-08	0.052434	0.0049521	0.0056824	0.0021151	2.8058e-07	0.0033066	-2.9191e-06	-7.0299e-06	-1.1955e-06	-0.14646	-6.3921e-08	-4.7547e-08	-0.1257	-0.042839	-4.7048e-08	-6.6613e-08	-0.13616	-0.021566	-0.057561	-0.0049755	-6.0734e-08	-0.011092	72.640	1.800	219.754	227.747	233.376	2.108	287.957	-32.128	307.415	53.411	120.743	-10.831	49.256	198.537	-14.041	-8.845	-8191	255	
12073.171	1	1	0	0	0.11646	0.10382	0.07709	0.17217	0.21964	0.3191	0.086764	0.24582	0.13603	0.12563	0.20487	0.18207	0.18961	0.12008	0.13678	0.10151	-0.875	-1.9042	-1.5417	-1.6229	-1.9354	-1.35	-1.625	-1.6063	-1.3208	-2.0625	-1.6708	-1.3896	-1.9125	-1.3792	-1.8188	-1.8125	181.826	139.245	-81.388	147.511	-20.331	48.043	199.733	206.403	226.775	107.084	111.263	-99.093	46.406	169.633	-9.464	222.747	5.3359e-06	3.1005e-05	6.0325e-06	0.053001	1.3317e-07	2.4569e-07	0.014453	0.0068442	1.599e-07	4.3684e-07	0.04352	0.0019348	0.0094385	0.0019328	3.3831e-07	0.0011274	-2.3341e-06	-6.4131e-06	-1.3125e-06	-0.13622	-6.9608e-08	-4.3546e-08	-0.1284	-0.044932	-5.241e-08	-6.7534e-08	-0.14583	-0.019078	-0.061598	-0.0064911	-6.1721e-08	-0.011092	57.383	53.238	69.882	20.026	45.051	147.543	-59.751	-100.620	113.538	48.001	-53.843	-87.916	-91.973	167.012	-112.246	-53.231	-8191	255	
12073.291	1	1	0	0	0.23704	0.033705	0.15414	0.1376	0.25509	0.10729	0.091856	0.25391	0.26119	0.14882	0.19221	0.052191	0.23837	0.14968	0.089674	0.085924	-0.94167	-1.7833	-1.6604	-1.5375	-1.8458	-1.5792	-1.625	-1.9646	-1.4062	-1.7958	-1.8042	-1.6771	-2.0729	-1.2958	-1.5917	-1.8667	-72.954	101.526	73.265	-98.273	-159.906	12.066	54.147	165.892	-137.676	-62.692	173.958	121.814	-120.937	4.270	-155.335	-4.456	1.9858e-06	4.1172e-05	3.9066e-06	0.037654	1.6875e-07	4.1173e-07	0.01522	0.0010843	2.7435e-07	2.7313e-07	0.029183	0.0034591	0.015644	0.00098549	3.4633e-07	0.001767	-2.1516e-06	-5.8945e-06	-1.6363e-06	-0.14717	-6.9002e-08	-5.1625e-08	-0.11887	-0.048905	-3.859e-08	-6.5078e-08	-0.16655	-0.019876	-0.063617	-0.0066912	-5.8684e-08	-0.012417	170.675	30.184	154.532	-113.323	-129.752	76.846	93.470	-159.842	56.377	12.896	-77.818	93.335	-170.655	-169.757	-130.956	-15.502	-8191	255	
12073.387	1	1	0	0	0.13095	0.26893	0.14007	0.3284	0.25499	0.30939	0.24742	0.31044	0.2619	0.05188	0.1088	0.05616	0.075619	0.22229	0.16232	0.1571	-0.91458	-1.7646	-1.7729	-1.4312	-1.9562	-1.5958	-1.725	-1.8125	-1.4375	-1.8729	-1.6688	-1.3833	-1.9167	-1.5562	-1.5521	-2.125	92.802	163.895	248.220	196.369	235.366	228.406	160.508	181.417	317.663	287.066	282.142	278.889	113.366	136.866	405.273	329.403	2.3515e-06	3.8584e-05	9.2191e-06	0.029539	4.5349e-08	1.9785e-07	0.028963	0.013904	9.1901e-08	2.1977e-07	0.065521	0.011621	0.0064991	0.0022717	4.4631e-07	0.0029948	-2.8751e-06	-5.9926e-06	-1.3944e-06	-0.16503	-6.5666e-08	-5.8318e-08	-0.11776	-0.049656	-4.7501e-08	-5.9936e-08	-0.17563	-0.020583	-0.059319	-0.0068342	-4.6006e-08	-0.012509	129.480	393.206	101.488	358.716	451.001	167.449	443.453	110.138	94.056	301.690	365.806	155.413	275.326	256.409	156.265	412.393	-8191	255	
12073.484	1	1	0	0	0.17519	0.075659	0.22173	0.18987	0.12263	0.15102	0.12871	0.33616	0.078615	0.17196	0.19453	0.20776	0.1907	0.13521	0.21003	0.19192	-0.83542	-1.9042	-1.7542	-1.3458	-1.8271	-1.5271	-1.4854	-1.8333	-1.4271	-1.9458	-1.8646	-1.1646	-2.0438	-1.55	-1.5604	-1.9188	235.981	188.112	202.299	232.117	263.209	201.950	175.585	373.644	328.660	168.718	65.164	313.417	178.959	332.789	120.479	152.936	2.0338e-06	6.6195e-06	6.0613e-06	0.040586	4.1475e-07	2.0129e-07	0.02003	0.0058163	1.084e-07	2.6775e-07	0.057732	0.0031083	0.011174	0.00079234	2.3441e-07	0.0012946	-2.9506e-06	-5.9085e-06	-1.6636e-06	-0.13193	-6.4452e-08	-6.0088e-08	-0.10711	-0.048207	-5.528e-08	-7.0527e-08	-0.17898	-0.021658	-0.053329	-0.0066436	-4.7297e-08	-0.012562	134.081	343.759	45.704	26.412	262.533	96.412	266.448	43.683	123.803	243.435	40.791	125.085	80.474	228.771	322.820	295.852	-8191	255	
12073.580	1	1	0	0	0.12713	0.08948	0.10338	0.22265	0.12599	0.18565	0.26515	0.061441	0.21635	0.27856	0.16756	0.081146	0.11955	0.067504	0.19336	0.17362	-1.25	-1.6625	-1.8771	-1.475	-1.7062	-1.8563	-1.3292	-1.9292	-1.6313	-1.7062	-1.8354	-1.3833	-2.0042	-1.6688	-1.3813	-1.8521	-109.999	198.556	158.261	185.481	231.479	-9.698	-106.016	-108.605	-71.645	-28.396	-40.375	-87.299	-20.409	145.187	101.207	153.311	2.8877e-06	5.6079e-05	1.0948e-05	0.047059	3.5637e-07	1.5847e-07	0.013452	0.014372	1.2759e-07	4.0891e-08	0.057482	0.0096435	0.013129	0.00044809	6.9291e-08	0.0031092	-2.9758e-06	-5.523e-06	-1.7728e-06	-0.13098	-5.8538e-08	-6.255e-08	-0.099322	-0.048744	-5.09e-08	-5.2569e-08	-0.19082	-0.017665	-0.05398	-0.0079399	-4.3045e-08	-0.012654	-116.754	-91.665	-20.607	77.670	43.941	43.478	112.951	-105.036	-63.322	30.400	-100.843	230.303	-46.757	129.405	196.339	136.578	-8191	255	
12073.699	1	1	0	0	0.14769	0.13771	0.032732	0.099454	0.14974	0.23356	0.37033	0.11734	0.14967	0.073343	0.15332	0.20938	0.32443	0.1595	0.33195	0.19837	-1.2479	-1.5042	-2.0458	-1.5396	-1.7542	-1.7563	-1.3375	-1.9146	-1.6938	-1.7271	-1.9	-1.3833	-1.6479	-1.8083	-1.3062	-1.8354	118.414	209.285	170.133	242.168	-45.685	-17.938	-95.257	-88.754	141.241	-78.891	134.207	-28.755	230.933	225.653	229.461	-89.375	3.4114e-06	1.4092e-05	8.3729e-06	0.018865	9.4594e-08	7.0528e-08	0.041297	0.018089	2.1695e-08	3.5803e-07	0.020347	0.0060969	0.021644	0.0025875	2.7325e-07	0.0012764	-2.9821e-06	-5.4179e-06	-1.8859e-06	-0.15789	-5.9144e-08	-6.632e-08	-0.10107	-0.051159	-5.4147e-08	-4.9192e-08	-0.17148	-0.01834	-0.052743	-0.008121	-4.8511e-08	-0.012614	77.623	137.594	-92.453	256.583	183.849	-47.279	86.854	-78.680	-36.611	8.086	-20.742	176.928	22.263	46.653	12.956	-58.697	-8191	255	
12073.795	1	1	0	0	0.23762	0.20328	0.38801	0.1535	0.19356	0.17617	0.15597	0.17164	0.092141	0.048889	0.26502	0.25304	0.20172	0.27039	0.073719	0.27072	-1.4958	-1.5917	-1.9312	-1.5167	-1.7375	-1.8625	-1.3729	-1.8	-1.4958	-1.6083	-2.0646	-1.4833	-1.4875	-1.9917	-1.3438	-1.7292	355.640	203.328	103.988	225.284	351.122	160.273	157.324	239.925	244.757	155.232	315.255	164.372	325.869	195.153	371.478	198.610	5.8133e-06	2.0674e-05	8.7944e-06	0.028253	1.1605e-07	2.8464e-07	0.022159	0.0086198	2.1364e-07	3.2715e-07	0.0080327	0.0016586	0.013906	0.0014339	1.6115e-07	0.0012774	-3.5609e-06	-4.1212e-06	-1.7884e-06	-0.14384	-5.4443e-08	-7.0859e-08	-0.095826	-0.045308	-5.9433e-08	-4.9346e-08	-0.18017	-0.023532	-0.041934	-0.0083974	-4.2058e-08	-0.010081	105.930	83.088	175.450	210.709	209.955	150.922	16.838	32.814	291.830	238.724	358.555	26.525	64.201	206.104	85.825	164.062	-8191	255	
12073.891	1	1	0	0	0.21458	0.12834	0.13028	0.058798	0.087389	0.19656	0.22528	0.16253	0.033733	0.094174	0.26294	0.13882	0.1953	0.30126	0.062179	0.055785	-1.225	-1.4375	-1.8583	-1.5375	-1.625	-1.9625	-1.5146	-1.8833	-1.5938	-1.5979	-2.1125	-1.6437	-1.6063	-1.7646	-1.3396	-1.6875	28.535	-3.594	155.275	9.884	229.488	-47.017	236.106	12.061	22.878	209.657	199.599	-96.366	13.854	106.539	-51.530	-95.601	4.4985e-06	3.8444e-05	7.6795e-06	0.0047714	1.4625e-07	2.5514e-07	0.034517	0.0054477	3.2448e-07	2.7617e-07	0.022078	0.0049398	0.0064656	0.0024535	5.0322e-08	0.0012169	-3.5042e-06	-4.2264e-06	-1.7767e-06	-0.16313	-4.6861e-08	-7.0936e-08	-0.11045	-0.042785	-6.5248e-08	-4.9653e-08	-0.17168	-0.023839	-0.040306	-0.0087406	-4.8511e-08	-0.010383	48.739	120.512	157.010	-41.569	199.742	-6.209	-46.512	-96.107	127.491	-57.384	-105.467	-101.283	-64.821	-74.034	2.642	18.330	-8191	255	
12073.987	1	1	0	0	0.20481	0.18266	0.14732	0.077527	0.13186	0.16036	0.11439	0.077323	0.16385	0.18472	0.2759	0.17247	0.36471	0.20425	0.19422	0.050028	-1.2458	-1.4875	-1.875	-1.4667	-1.7188	-1.8729	-1.6167	-1.4104	-1.6917	-1.2646	-1.6292	-1.3542	-1.5688	-1.7208	-1.4333	-1.6875	364.908	143.633	275.907	107.647	192.332	234.464	111.377	135.404	349.320	89.353	254.915	352.654	197.484	334.768	303.416	195.735	6.6722e-06	8.2048e-06	8.5564e-06	0.042762	7.4474e-08	1.354e-07	0.02028	0.010758	8.3208e-08	5.037e-07	0.027416	0.0050795	0.013505	0.0012864	4.9786e-07	0.002107	-4.2214e-06	-4.0652e-06	-1.765e-06	-0.1598	-5.1638e-08	-6.8859e-08	-0.10616	-0.040369	-6.4946e-08	-3.8295e-08	-0.15885	-0.023778	-0.037441	-0.0083784	-4.5019e-08	-0.0091357	231.612	120.209	222.271	278.343	345.446	132.769	107.916	103.898	438.103	315.528	412.508	298.083	393.955	241.434	231.383	111.147	-8191	255	
12074.083	1	1	0	0	0.17281	0.23394	0.20757	0.072873	0.11918	0.18149	0.10616	0.12595	0.019647	0.053391	0.13653	0.016168	0.14887	0.2167	0.070947	0.11752	-1.3458	-1.1313	-1.8292	-1.6979	-1.3979	-2.0708	-1.6604	-1.5854	-1.8813	-1.4708	-1.8354	-1.7646	-1.1292	-1.875	-1.6479	-1.6292	157.543	-131.351	-12.810	126.929	-63.390	205.855	-122.069	216.996	119.684	120.953	96.350	127.260	34.937	131.800	73.187	210.428	1.5239e-06	7.6837e-06	5.7474e-06	0.041259	2.382e-07	4.0038e-07	0.011615	0.0080548	2.1968e-07	3.7711e-07	0.0059019	0.010735	0.0097797	0.0002383	1.4756e-07	0.0023363	-3.9572e-06	-3.7427e-06	-1.726e-06	-0.15289	-4.5951e-08	-7.586e-08	-0.11092	-0.033068	-6.6758e-08	-4.7274e-08	-0.16872	-0.024884	-0.038157	-0.0084832	-5.4433e-08	-0.0081907	-59.045	160.627	80.813	50.035	192.794	91.434	162.246	-114.534	-79.063	173.205	210.274	148.058	-35.524	164.713	117.418	-44.617	-8191	255	
12074.202	1	1	0	0	0.074172	0.23225	0.16111	0.42115	0.17643	0.019517	0.14287	0.27853	0.21835	0.14452	0.21513	0.040435	0.22618	0.18759	0.031766	0.22587	-1.5063	-1.4896	-2.025	-1.7938	-1.4021	-1.8625	-1.975	-1.7125	-2.0312	-1.3604	-1.875	-1.925	-1.4521	-1.875	-1.6938	-1.5417	464.425	205.718	423.274	496.393	453.579	201.833	240.118	276.461	463.646	221.648	481.968	472.078	441.551	269.167	275.129	301.632	3.0772e-06	1.9951e-05	1.1582e-05	0.001752	9.5148e-08	1.9841e-07	0.018922	0.0078863	3.4302e-07	4.4577e-07	0.015306	0.0045628	0.0038655	0.00054227	3.7903e-07	0.0029813	-4.6807e-06	-3.5115e-06	-1.882e-06	-0.20719	-4.542e-08	-7.1782e-08	-0.11172	-0.036397	-6.1774e-08	-4.5816e-08	-0.16734	-0.026266	-0.040371	-0.0085118	-5.7318e-08	-0.0094376	314.262	315.366	337.434	173.930	231.793	465.341	266.266	182.277	235.650	332.452	167.496	267.227	333.480	351.282	469.012	220.961	-8191	255	
12074.298	1	1	0	0	0.14246	0.097556	0.20687	0.22413	0.23557	0.072548	0.21571	0.26038	0.20049	0.095031	0.31241	0.099868	0.13706	0.031355	0.15449	0.12659	-1.4729	-1.425	-1.7667	-1.8083	-1.3875	-1.9125	-1.6208	-1.4354	-1.9167	-1.4979	-1.7896	-1.7396	-1.5938	-1.7854	-1.875	-1.5083	235.661	120.520	256.781	229.924	32.555	301.707	291.509	-36.455	200.727	-41.560	0.641	144.778	129.186	130.695	222.755	302.551	2.4976e-06	1.9565e-05	1.1614e-05	0.038675	3.0437e-08	4.0661e-07	0.015299	0.0088611	8.7024e-08	1.5311e-07	0.013631	0.0042455	0.010901	0.0014126	1.3085e-07	0.0020234	-4.4291e-06	-5.2847e-06	-1.3749e-06	-0.19837	-4.3752e-08	-7.1782e-08	-0.12443	-0.035752	-7.061e-08	-5.2185e-08	-0.14899	-0.026481	-0.04252	-0.0076825	-5.8912e-08	-0.0083744	55.420	96.839	207.598	63.051	233.345	-25.549	85.933	-24.329	89.933	192.001	178.963	316.890	137.706	-38.249	28.297	255.122	-8191	255	
12074.394	1	1	0	0	0.14566	0.085966	0.26954	0.12463	0.1671	0.18233	0.12464	0.27588	0.25888	0.30775	0.037847	0.064981	0.21939	0.12883	0.19097	0.11412	-1.4479	-1.3937	-1.7812	-1.7021	-1.4188	-1.6812	-1.7896	-1.4896	-2.1063	-1.5938	-1.5688	-1.8667	-1.5438	-1.9479	-1.7687	-1.4458	251.162	132.648	129.594	256.981	145.530	9.592	93.454	211.735	104.490	336.900	323.569	164.129	344.795	216.841	0.725	322.727	1.3068e-06	1.6008e-05	2.7142e-06	0.044542	1.0549e-07	3.5349e-07	0.049929	0.0029961	2.5178e-07	3.0335e-07	0.026788	0.0028705	0.012092	0.001708	3.5525e-07	0.0021853	-4.234e-06	-4.1773e-06	-1.371e-06	-0.20647	-4.815e-08	-6.7551e-08	-0.1265	-0.039027	-7.2498e-08	-5.7174e-08	-0.11702	-0.029492	-0.041022	-0.0074347	-6.0962e-08	-0.0078625	206.844	315.796	256.460	51.481	349.200	328.174	311.503	10.890	218.102	133.194	68.940	20.365	153.577	46.314	350.536	190.971	-8191	255	
#DATA ENDS
