BOXY.EXE: ISS Imagent and Oximeter Data Acquisition Program Version 0.80
Ascii Record File

#ACQ INFORMATION
2  Detector Channels 
16  External MUX Channels 
1  Auxiliary Channels 
5000  Waveform (CCF) Frequency (Hz)
1  Waveforms Skipped 
30  Waveforms Averaged 
1  Cycles Averaged 
16  Acquisitions per Waveform 
10.0806  Updata Rate (Hz) 

#FILE INFORMATION
TRUE -- External MUX Channel results are PARSED.
FALSE -- AC DC and Phase are NOT grouped.
TRUE -- Companion Program Settings File CREATED.
FALSE -- AC data not excluded
FALSE -- DC data not excluded
FALSE -- Phase data not excluded
FALSE -- Auxillary Chn. data not excluded
Tab delimiters

#CALIBRATION STATE
TRUE -- Waveform Calibration Values APPLIED.


#AUX CALIBRATION VALUES
Val Type	aux-1	

Term	1.0000e+00	
Factor	0.0000e+00	


#WF CALIBRATION VALUES
A = Detector Channel
Val Type	A-AC1	A-AC2	A-AC3	A-AC4	A-AC5	A-AC6	A-AC7	A-AC8	A-AC9	A-AC10	A-AC11	A-AC12	A-AC13	A-AC14	A-AC15	A-AC16	A-DC1	A-DC2	A-DC3	A-DC4	A-DC5	A-DC6	A-DC7	A-DC8	A-DC9	A-DC10	A-DC11	A-DC12	A-DC13	A-DC14	A-DC15	A-DC16	A-Ph1	A-Ph2	A-Ph3	A-Ph4	A-Ph5	A-Ph6	A-Ph7	A-Ph8	A-Ph9	A-Ph10	A-Ph11	A-Ph12	A-Ph13	A-Ph14	A-Ph15	A-Ph16	

Term	0.00000e+00	0.00000e+00	0.00000e+00	0.00000e+00	0.00000e+00	0.00000e+00	0.00000e+00	0.00000e+00	0.00000e+00	0.00000e+00	0.00000e+00	0.00000e+00	0.00000e+00	0.00000e+00	0.00000e+00	0.00000e+00	0.00000e+00	0.00000e+00	0.00000e+00	0.00000e+00	0.00000e+00	0.00000e+00	0.00000e+00	0.00000e+00	0.00000e+00	0.00000e+00	0.00000e+00	0.00000e+00	0.00000e+00	0.00000e+00	0.00000e+00	0.00000e+00	0.00000e+00	0.00000e+00	0.00000e+00	0.00000e+00	0.00000e+00	0.00000e+00	0.00000e+00	0.00000e+00	0.00000e+00	0.00000e+00	0.00000e+00	0.00000e+00	0.00000e+00	0.00000e+00	0.00000e+00	0.00000e+00	
Factor	1.00000e+00	1.00000e+00	1.00000e+00	1.00000e+00	1.00000e+00	1.00000e+00	1.00000e+00	1.00000e+00	1.00000e+00	1.00000e+00	1.00000e+00	1.00000e+00	1.00000e+00	1.00000e+00	1.00000e+00	1.00000e+00	1.00000e+00	1.00000e+00	1.00000e+00	1.00000e+00	1.00000e+00	1.00000e+00	1.00000e+00	1.00000e+00	1.00000e+00	1.00000e+00	1.00000e+00	1.00000e+00	1.00000e+00	1.00000e+00	1.00000e+00	1.00000e+00	X	X	X	X	X	X	X	X	X	X	X	X	X	X	X	X	

B = Detector Channel
Val Type	B-AC1	B-AC2	B-AC3	B-AC4	B-AC5	B-AC6	B-AC7	B-AC8	B-AC9	B-AC10	B-AC11	B-AC12	B-AC13	B-AC14	B-AC15	B-AC16	B-DC1	B-DC2	B-DC3	B-DC4	B-DC5	B-DC6	B-DC7	B-DC8	B-DC9	B-DC10	B-DC11	B-DC12	B-DC13	B-DC14	B-DC15	B-DC16	B-Ph1	B-Ph2	B-Ph3	B-Ph4	B-Ph5	B-Ph6	B-Ph7	B-Ph8	B-Ph9	B-Ph10	B-Ph11	B-Ph12	B-Ph13	B-Ph14	B-Ph15	B-Ph16	

Term	0.00000e+00	0.00000e+00	0.00000e+00	0.00000e+00	0.00000e+00	0.00000e+00	0.00000e+00	0.00000e+00	0.00000e+00	0.00000e+00	0.00000e+00	0.00000e+00	0.00000e+00	0.00000e+00	0.00000e+00	0.00000e+00	0.00000e+00	0.00000e+00	0.00000e+00	0.00000e+00	0.00000e+00	0.00000e+00	0.00000e+00	0.00000e+00	0.00000e+00	0.00000e+00	0.00000e+00	0.00000e+00	0.00000e+00	0.00000e+00	0.00000e+00	0.00000e+00	-6.12039e+01	-1.44425e+02	-1.08068e+02	-1.84347e+02	-5.19798e+01	-7.86493e+01	-1.55676e+02	-1.62015e+02	-4.36136e+01	-4.70465e+01	-1.85868e+02	-1.70497e+02	-1.86153e+02	-1.76891e+02	-6.22403e+01	-1.49739e+02	
Factor	1.76752e-05	1.77526e-04	4.41225e-05	2.09872e-01	1.71985e-06	1.69135e-06	1.50687e-01	4.89530e-02	1.19486e-06	1.67719e-06	1.96740e-01	2.89969e-02	6.06658e-02	8.76056e-03	1.53137e-06	1.25586e-02	2.96907e-06	3.31255e-06	9.26113e-07	1.08229e-01	3.61040e-08	3.65309e-08	7.35335e-02	2.54357e-02	3.58943e-08	3.64924e-08	9.61184e-02	1.45856e-02	3.09233e-02	4.56795e-03	3.60924e-08	6.33166e-03	X	X	X	X	X	X	X	X	X	X	X	X	X	X	X	X	



#DISTANCE SETTINGS
A = Detector Channel
A-1	A-2	A-3	A-4	A-5	A-6	A-7	A-8	A-9	A-10	A-11	A-12	A-13	A-14	A-15	A-16	

2.5000e+00	3.0000e+00	2.5000e+00	3.0000e+00	2.0000e+00	3.0000e+00	1.5000e+00	3.0000e+00	3.0000e+00	3.0000e+00	3.0000e+00	3.0000e+00	3.0000e+00	3.0000e+00	1.5000e+00	3.0000e+00	

B = Detector Channel
B-1	B-2	B-3	B-4	B-5	B-6	B-7	B-8	B-9	B-10	B-11	B-12	B-13	B-14	B-15	B-16	

1.0000e+01	1.0000e+01	1.0000e+01	1.4400e+00	1.0000e+01	1.0000e+01	1.5100e+00	1.9400e+00	1.0000e+01	1.0000e+01	1.9900e+00	2.4900e+00	2.4100e+00	2.9000e+00	1.0000e+01	2.9800e+00	




#DATA BEGINS
time	group	step	mark	flag	A-AC1	A-AC2	A-AC3	A-AC4	A-AC5	A-AC6	A-AC7	A-AC8	A-AC9	A-AC10	A-AC11	A-AC12	A-AC13	A-AC14	A-AC15	A-AC16	A-DC1	A-DC2	A-DC3	A-DC4	A-DC5	A-DC6	A-DC7	A-DC8	A-DC9	A-DC10	A-DC11	A-DC12	A-DC13	A-DC14	A-DC15	A-DC16	A-Ph1	A-Ph2	A-Ph3	A-Ph4	A-Ph5	A-Ph6	A-Ph7	A-Ph8	A-Ph9	A-Ph10	A-Ph11	A-Ph12	A-Ph13	A-Ph14	A-Ph15	A-Ph16	B-AC1	B-AC2	B-AC3	B-AC4	B-AC5	B-AC6	B-AC7	B-AC8	B-AC9	B-AC10	B-AC11	B-AC12	B-AC13	B-AC14	B-AC15	B-AC16	B-DC1	B-DC2	B-DC3	B-DC4	B-DC5	B-DC6	B-DC7	B-DC8	B-DC9	B-DC10	B-DC11	B-DC12	B-DC13	B-DC14	B-DC15	B-DC16	B-Ph1	B-Ph2	B-Ph3	B-Ph4	B-Ph5	B-Ph6	B-Ph7	B-Ph8	B-Ph9	B-Ph10	B-Ph11	B-Ph12	B-Ph13	B-Ph14	B-Ph15	B-Ph16	aux-1	digaux	

27514.713	1	1	0	768	0.092585	0.16812	0.27971	0.28457	0.080897	0.080768	0.34756	0.50526	0.12643	0.096391	0.10021	0.23666	0.31583	0.29572	0.10195	0.19171	-1.7	-2.5083	-1.9	-2.3917	-1.9375	-1.9208	-2.3187	-2.0521	-1.9792	-2.1188	-1.8958	-2.4458	-1.9979	-1.9771	-2.3479	-2.1063	327.952	378.308	424.970	503.046	425.819	303.609	425.058	506.163	317.848	204.717	494.686	371.510	184.111	200.448	479.636	404.416	0.00096667	0.0011304	0.00023168	947.11	8.4271e-06	4.9503e-06	1067.5	435.18	5.5161e-06	7.5385e-06	508.63	227.24	176.17	82.356	6.1999e-06	105.06	0.00032387	0.00023091	6.5341e-05	924.61	2.5474e-06	2.4961e-06	1045.1	426.67	2.6251e-06	2.5516e-06	488.98	223.31	169.61	81.405	2.6387e-06	103.13	263.996	242.210	314.915	186.633	328.179	292.150	185.705	191.104	310.210	340.812	189.632	193.846	195.857	200.407	294.246	198.128	-8191	255	
27514.809	1	1	0	0	0.17327	0.11576	0.22277	0.027995	0.055618	0.1147	0.077636	0.22201	0.14696	0.11493	0.36259	0.21953	0.1242	0.15081	0.11429	0.19254	-1.7229	-1.9979	-1.6396	-2.425	-1.8396	-1.8646	-2.2625	-1.9917	-2.0667	-2.2375	-2.0667	-2.4437	-2.175	-2.0729	-2.4313	-2.1521	292.780	517.042	381.116	317.221	460.761	498.545	305.294	454.637	444.652	219.769	303.295	195.080	362.848	481.506	329.376	215.112	0.0010063	0.0010641	0.00016714	948.38	5.1794e-06	5.0202e-06	1072.2	435.17	6.7831e-06	9.6615e-06	504.83	229.26	177.66	83.489	6.8957e-06	105.98	0.00032826	0.00023638	6.514e-05	926.87	2.648e-06	2.6279e-06	1048.1	427.67	2.6979e-06	2.5e-06	488.65	224.52	170.87	82.25	2.6699e-06	104.28	265.260	240.350	303.141	186.683	355.181	285.843	185.508	191.185	341.705	330.211	189.438	193.821	195.662	200.279	305.428	197.952	-8191	255	
27514.904	1	1	0	0	0.097082	0.10597	0.37717	0.065434	0.35847	0.18352	0.48567	0.11148	0.33131	0.15391	0.2813	0.30509	0.17627	0.43561	0.2364	0.28791	-1.6187	-2.2562	-1.6396	-2.1625	-2.2417	-1.8792	-2.5229	-2.0292	-1.8896	-2.3	-1.8917	-2.2208	-2.175	-1.9479	-2.2396	-2.2229	253.445	506.510	485.856	182.426	452.531	513.318	436.425	467.451	496.372	221.455	371.255	517.053	422.721	486.675	284.735	501.994	0.0010613	0.00087407	0.0002305	955.83	6.8095e-06	6.3161e-06	1076.7	438.73	7.0153e-06	6.531e-06	513.33	230.62	177.08	84.154	3.7805e-06	106.65	0.00033708	0.00023763	6.6532e-05	929.62	2.5847e-06	2.564e-06	1052.6	429.65	2.6793e-06	2.5764e-06	491.73	226.04	170.96	82.86	2.7053e-06	105.04	262.893	244.792	271.377	186.516	321.894	319.251	185.645	191.358	339.087	364.542	189.377	193.888	195.451	200.229	330.155	198.053	-8191	255	
27515.002	1	1	0	0	0.21432	0.087378	0.15006	0.06743	0.073769	0.20293	0.12424	0.18268	0.17073	0.2166	0.32786	0.19456	0.3619	0.56918	0.27901	0.16368	-1.4771	-2.4333	-1.7542	-2.2062	-2.1292	-1.8625	-2.4208	-2.0521	-1.8438	-2.3688	-1.9417	-2.2146	-2.2708	-1.8646	-2.2667	-2.1312	378.924	280.537	361.448	494.644	458.335	425.107	442.769	386.242	508.072	490.102	501.859	490.473	385.680	515.268	468.081	398.939	0.0010536	0.00065929	0.00023837	952.89	8.6984e-06	6.7878e-06	1076.5	437.46	1.0087e-05	3.6388e-06	511.66	229.97	179.89	83.817	6.5101e-06	106.37	0.00033468	0.00024754	6.7357e-05	931.85	2.7002e-06	2.6197e-06	1054.7	429.92	2.7339e-06	2.5496e-06	491.53	226.06	172.18	82.855	2.7419e-06	104.66	263.836	221.047	266.793	186.620	331.586	332.558	185.801	191.149	335.003	370.666	190.137	193.904	195.783	200.211	316.729	197.979	-8191	255	
27515.096	1	1	0	0	0.20878	0.25594	0.13089	0.2706	0.016153	0.36302	0.24989	0.23452	0.067314	0.10528	0.22171	0.24295	0.41561	0.19162	0.1611	0.46096	-1.5229	-2.3542	-1.8042	-1.9521	-2.1771	-1.7083	-2.2667	-2.2438	-1.8292	-2.3187	-2.1646	-2.1354	-2.0146	-1.9813	-2.0625	-2.1542	520.448	297.892	335.206	523.698	198.690	404.347	458.247	506.817	417.379	347.596	501.394	515.067	193.099	456.435	204.587	506.657	0.0010277	0.00056794	0.00020293	953.44	8.4425e-06	8.2432e-06	1066.4	436.64	4.09e-06	5.1605e-06	505.6	227.84	176.82	82.803	6.5123e-06	105.09	0.00034525	0.0002479	6.9152e-05	930.18	2.8494e-06	2.7827e-06	1047.7	428.74	2.9059e-06	2.8683e-06	488.14	223.77	171.04	81.706	2.9769e-06	103.15	260.458	257.208	273.613	186.756	312.018	309.491	185.672	191.099	313.252	339.267	189.810	194.011	195.631	200.395	289.707	197.948	-8191	255	
27515.193	1	1	0	0	0.15805	0.23103	0.274	0.031298	0.23789	0.1315	0.37179	0.092107	0.093802	0.22729	0.26002	0.23907	0.10542	0.18768	0.074421	0.11593	-1.2958	-2.2625	-2.1792	-2.0771	-2.2583	-1.9042	-2.3125	-2.1396	-1.875	-2.2729	-2.0687	-1.975	-2.2896	-2.0312	-2.1979	-2.3646	250.713	471.070	294.328	321.353	525.612	437.111	468.905	460.592	241.486	189.148	204.025	472.047	173.294	497.199	353.528	379.733	0.0010301	0.0014873	0.00025048	953.52	5.3378e-06	5.1585e-06	1073.6	436.26	8.4456e-06	1.0034e-05	506.52	227.74	176.39	82.188	6.8564e-06	105.08	0.00036178	0.00026928	7.565e-05	932.18	2.9589e-06	2.9735e-06	1049.7	428.33	3.0507e-06	2.8703e-06	489.65	223.65	170.44	81.165	2.9921e-06	103.13	264.009	244.197	266.406	186.815	299.732	276.143	185.678	191.260	336.882	336.411	189.840	193.767	195.661	200.293	300.241	197.916	-8191	255	
27515.312	1	1	0	0	0.16359	0.089857	0.24004	0.30668	0.052269	0.2348	0.27964	0.081238	0.074484	0.33222	0.15224	0.37016	0.35633	0.27447	0.23053	0.30615	-1.3333	-2.1125	-1.9833	-2.1604	-2.3021	-1.9542	-2.3833	-2.275	-1.7229	-2.1271	-1.9188	-2.0583	-2.4208	-2.225	-2.2417	-2.4729	482.304	457.602	512.076	498.104	412.125	177.851	462.674	514.774	510.820	362.340	488.726	498.767	184.214	521.251	203.104	475.023	0.0010145	0.00090914	0.0002399	951.53	9.0695e-06	9.7946e-06	1070.7	435.27	6.6086e-06	5.7295e-06	504.46	228.08	175.48	81.946	8.0357e-06	104.51	0.000362	0.0002648	7.565e-05	931.45	3.0085e-06	2.9104e-06	1050.5	427.7	3.031e-06	2.9536e-06	490.23	223.73	170.3	80.926	3.0174e-06	102.86	265.461	250.574	268.524	186.710	363.415	323.828	185.567	191.233	327.235	343.381	189.838	193.909	195.711	200.419	298.764	197.945	-8191	255	
27515.408	1	1	0	0	0.31145	0.17199	0.061165	0.13952	0.25998	0.15923	0.15726	0.31574	0.1963	0.27383	0.065096	0.18044	0.28307	0.23865	0.014443	0.32634	-1.4396	-2.1479	-2.0042	-1.8521	-2.3167	-1.9458	-2.0938	-2.6625	-2.0563	-2.0354	-2.1271	-2.0708	-2.2271	-1.9438	-1.9833	-2.45	191.695	188.952	423.957	417.381	177.059	515.220	521.973	493.658	451.344	304.479	341.042	295.358	235.806	512.531	257.701	407.971	0.00097468	0.0010141	0.00020078	955.76	8.916e-06	8.3497e-06	1072.2	435.73	9.4952e-06	6.8552e-06	507.76	227.35	176.71	81.482	6.1609e-06	104.55	0.00036135	0.00026827	7.6128e-05	932.15	3.0008e-06	2.9865e-06	1049.1	427.76	3.1135e-06	3.0278e-06	489.71	223.15	170.08	80.672	3.1686e-06	102.61	263.105	241.212	298.197	186.667	339.735	308.987	185.698	191.110	322.137	358.911	190.121	193.769	195.596	200.619	320.844	197.799	-8191	255	
27515.506	1	1	0	0	0.27161	0.1453	0.10046	0.23768	0.046398	0.30353	0.43649	0.21581	0.17115	0.07118	0.059182	0.26371	0.024849	0.17077	0.16168	0.21195	-1.3729	-2.0958	-2.0396	-1.9771	-2.3146	-1.9688	-2.1542	-2.4875	-1.7021	-2.1312	-2.2417	-1.8917	-2.1604	-2.3375	-1.8167	-2.6125	395.966	350.840	304.211	509.495	422.733	379.853	478.513	448.606	455.261	246.950	469.263	483.974	457.219	515.526	331.264	478.667	0.00098626	0.00082058	0.00022533	951.07	8.0789e-06	1.0015e-05	1071.4	436.82	6.9269e-06	4.1021e-06	509.34	227.38	176.23	82.123	6.1257e-06	104.06	0.00036886	0.00028257	7.9428e-05	931.51	3.1054e-06	3.0624e-06	1048.9	428.63	3.1476e-06	3.06e-06	490.51	223.6	170.69	81.248	3.0893e-06	102.65	264.814	239.183	311.985	186.831	318.158	321.960	185.695	191.337	332.548	354.382	190.238	194.010	195.868	200.284	277.600	197.869	-8191	255	
27515.602	1	1	0	0	0.16149	0.073387	0.2353	0.10786	0.09288	0.050131	0.17958	0.026476	0.37215	0.22755	0.2896	0.10647	0.085605	0.21132	0.11164	0.32627	-1.3479	-2.1104	-2.1562	-1.7875	-2.1625	-2.1771	-1.9292	-2.4521	-2.025	-2.0146	-2.3083	-2.1604	-2.1646	-2.2562	-1.7812	-2.3125	471.474	203.379	513.906	430.818	198.878	353.387	521.676	194.950	348.459	499.817	483.805	466.995	357.342	448.118	282.028	382.604	0.00099374	0.00070242	0.00013072	954.48	8.6409e-06	7.7839e-06	1067.7	435.46	6.8453e-06	1.0757e-05	506.03	228.56	176.72	81.762	9.219e-06	105	0.00037471	0.00028701	7.7662e-05	932.33	3.088e-06	3.1209e-06	1047.8	428.21	3.221e-06	3.0509e-06	488.17	223.59	170.45	80.806	3.0983e-06	102.83	264.386	250.021	263.659	186.639	335.678	289.159	185.774	191.521	318.330	353.136	190.029	193.915	196.010	200.397	316.988	197.961	-8191	255	
27515.697	1	1	0	0	0.041124	0.15283	0.22889	0.17365	0.21313	0.061368	0.38528	0.5509	0.11769	0.084189	0.35926	0.093076	0.21113	0.25796	0.024847	0.1859	-1.4625	-1.9292	-2.0354	-1.4771	-2.0521	-2.275	-1.8833	-2.45	-2.0104	-1.925	-2.25	-1.9958	-2.0563	-2.4083	-1.7042	-2.4854	481.612	441.627	336.598	493.268	285.593	242.742	179.937	488.195	319.043	276.851	196.293	504.731	194.712	474.819	310.554	490.989	0.00098598	0.00052942	0.00029546	956.62	7.936e-06	6.0731e-06	1073.7	436.3	7.2465e-06	1.04e-05	507.05	228.43	178.19	82.082	6.906e-06	104.95	0.00037145	0.0002676	7.6244e-05	931.58	2.9589e-06	3.0044e-06	1048.4	428.32	3.1055e-06	3.0228e-06	489.6	224.46	171.83	81.268	3.0704e-06	103.33	265.157	252.284	268.111	186.750	333.207	312.496	185.804	191.198	333.696	357.064	189.757	193.875	195.770	200.504	295.984	198.051	-8191	255	
27515.793	1	1	0	0	0.17858	0.29464	0.15546	0.14538	0.20715	0.19019	0.30069	0.22581	0.15839	0.10799	0.28559	0.19132	0.12605	0.32532	0.19564	0.26568	-1.4146	-1.9	-2.4104	-1.9125	-1.9521	-2.3479	-2.0396	-2.2979	-1.9979	-1.9333	-2.4479	-1.9771	-2.4437	-2.3583	-1.7354	-2.3937	224.548	404.819	497.565	523.521	370.252	470.477	491.674	250.928	405.827	445.383	457.253	516.057	464.362	471.621	204.819	520.608	0.0010139	0.0007208	0.00020631	954.37	6.9907e-06	8.9158e-06	1077.7	433.86	5.7217e-06	4.5067e-06	508.64	227.81	175.47	81.701	7.8456e-06	104.09	0.00036207	0.00026467	7.6356e-05	932.09	2.9072e-06	2.9363e-06	1051.1	427.28	2.9661e-06	2.8933e-06	490.37	223.92	169.8	80.748	3.0617e-06	102.65	262.150	263.807	280.331	186.737	342.487	323.958	185.937	191.284	324.274	314.538	189.554	193.706	195.742	200.571	295.844	197.956	-8191	255	
27515.914	1	1	0	0	0.012997	0.049339	0.21155	0.37875	0.077634	0.225	0.27809	0.37052	0.2511	0.10099	0.23108	0.27923	0.12119	0.22976	0.13712	0.20505	-1.5479	-1.8813	-2.2146	-1.8792	-2.0458	-2.3688	-2.0479	-2.3125	-2.0563	-1.9354	-2.3521	-2.0396	-2.0417	-2.5604	-1.7979	-2.3479	306.248	444.409	457.811	484.849	392.689	328.459	436.038	475.391	327.059	385.032	373.297	499.360	219.374	516.373	261.405	392.874	0.00097202	0.00085378	0.00014484	943.18	8.112e-06	1.0143e-05	1067.9	431.57	7.9953e-06	6.9779e-06	504.12	225.5	174.16	81.102	7.3096e-06	103.13	0.00035728	0.00026403	7.5756e-05	924.68	2.8746e-06	2.8961e-06	1043.2	423.86	2.9881e-06	2.9259e-06	486.48	221.42	168.87	80.034	2.9113e-06	101.43	264.008	236.042	314.026	186.765	339.389	326.154	185.621	191.403	312.166	333.829	189.438	193.907	195.576	200.519	317.420	198.142	-8191	255	
27516.008	1	1	0	0	0.26007	0.30181	0.16831	0.13857	0.14615	0.25659	0.34486	0.066203	0.0037006	0.22944	0.14983	0.19835	0.21859	0.24332	0.083573	0.20354	-1.6	-1.9146	-2.2521	-2.0938	-1.7167	-2.2167	-1.8563	-2.3708	-1.9875	-1.7646	-2.3312	-2.0104	-2	-2.4646	-1.6708	-2.1521	367.006	245.012	283.762	488.644	335.591	454.281	469.454	214.181	382.998	478.049	519.628	501.192	422.337	455.327	452.780	451.321	0.00099885	0.0010652	0.0001572	945.76	6.2755e-06	6.5893e-06	1067.9	431.6	4.9778e-06	7.2336e-06	505.88	226.58	174.6	81.204	7.987e-06	103.48	0.00034936	0.00026387	7.3223e-05	924.75	2.9083e-06	2.8456e-06	1042.8	423.35	2.9558e-06	2.8357e-06	487.61	222.02	168.85	80.05	2.9812e-06	101.58	265.231	248.038	257.955	186.745	340.648	314.170	185.666	191.219	322.491	318.924	189.785	193.937	196.034	200.278	324.282	197.873	-8191	255	
27516.105	1	1	0	0	0.16322	0.10967	0.28433	0.3134	0.2036	0.23911	0.21699	0.1868	0.14838	0.21471	0.111	0.090707	0.089572	0.069029	0.13398	0.34139	-1.6625	-1.8563	-2.1562	-1.7958	-1.8125	-2.1271	-1.9771	-2.3625	-2.1354	-1.8104	-2.1771	-2.2792	-2.1125	-2.2417	-1.7792	-2.1229	242.551	512.339	338.490	212.041	515.906	221.855	436.201	468.737	212.459	533.313	491.826	423.772	470.226	291.023	243.375	479.498	0.0010289	0.00092809	0.00019815	948.48	7.0054e-06	7.1471e-06	1069	430.57	7.5785e-06	4.5061e-06	504.07	225.2	172.65	79.611	8.2013e-06	101.92	0.00035842	0.00026301	7.3329e-05	927.93	2.9393e-06	2.8575e-06	1044.8	423.1	3.0727e-06	2.8936e-06	487.22	220.35	167.34	78.453	3.1034e-06	99.97	262.126	248.379	282.394	186.720	319.961	317.916	185.817	191.329	334.294	351.742	189.509	193.800	195.668	200.376	315.268	198.069	-8191	255	
27516.201	1	1	0	0	0.17882	0.24896	0.15895	0.12673	0.18124	0.24502	0.15575	0.37347	0.19014	0.1848	0.22431	0.17323	0.084555	0.26633	0.26377	0.13931	-1.8604	-1.7292	-2.1354	-1.8687	-1.65	-2.3479	-2.0854	-2.1375	-2.3521	-1.8271	-2.0083	-2.3396	-1.9625	-2.5979	-1.9	-2.2583	383.759	493.386	465.565	449.871	325.705	188.313	501.354	477.611	468.682	407.947	425.210	222.951	197.197	183.357	396.415	264.635	0.001015	0.00042135	0.0001747	945.97	6.8614e-06	7.1826e-06	1066.6	430.29	5.3112e-06	9.5255e-06	502.89	223.14	172.28	79.013	6.7171e-06	101.27	0.00036011	0.00027148	7.6215e-05	924.09	3.0528e-06	2.9767e-06	1044.8	422.36	3.1414e-06	3.0334e-06	485.64	219.49	166.75	78.027	3.1785e-06	99.622	264.668	245.374	259.968	186.833	338.371	319.157	185.713	191.081	307.394	366.609	189.509	193.771	195.810	200.380	294.827	197.948	-8191	255	
27516.273	1	1	0	0	0.089113	0.25513	0.1164	0.17345	0.13396	0.29993	0.19428	0.44546	0.2057	0.34286	0.17415	0.18282	0.14049	0.19335	0.16989	0.22507	-1.75	-1.7271	-2.1667	-2.0708	-1.7667	-2.4021	-2.1333	-2.1146	-2.4292	-1.9396	-2.1312	-2.3146	-1.75	-2.5271	-2.1021	-2.0687	504.704	358.197	230.801	360.807	351.632	179.815	207.024	529.020	276.792	182.437	470.796	196.380	444.109	493.146	458.162	477.570	0.00095853	0.00094286	0.00023352	944.37	8.5925e-06	4.5947e-06	1066.1	429.99	5.739e-06	8.5862e-06	500.65	224.44	173.25	79.879	5.2438e-06	101.99	0.00036765	0.00027901	7.7657e-05	925.24	3.1082e-06	3.0448e-06	1043.5	422.94	3.0479e-06	2.995e-06	483.05	220.17	167.59	78.771	3.1549e-06	100.18	263.288	242.819	274.011	186.846	333.565	293.353	185.659	191.249	333.396	319.397	190.002	193.929	195.556	200.418	277.001	198.157	-8191	255	
27516.393	1	1	0	0	0.064375	0.36542	0.19662	0.06479	0.0649	0.22743	0.36926	0.1029	0.27817	0.020317	0.13472	0.16493	0.069669	0.052309	0.24354	0.2855	-1.8375	-1.7958	-1.8458	-2.2812	-1.7646	-2.0687	-2.1292	-1.9375	-2.25	-1.9354	-2.3271	-2.2	-1.7313	-2.4479	-2.1667	-2.0958	213.195	459.000	220.068	507.089	416.191	206.463	524.123	439.861	189.160	470.413	469.801	463.683	444.896	231.538	528.208	471.556	0.00098049	0.00054191	0.00016778	945.43	8.2982e-06	1.1486e-05	1067.2	432.48	5.9179e-06	5.6088e-06	499.96	224.54	174.14	79.48	8.3724e-06	101.42	0.00036172	0.00027576	7.6352e-05	927.45	3.0336e-06	2.9539e-06	1044	424.21	3.084e-06	3.0533e-06	484.16	220.18	168.07	78.545	3.1472e-06	99.788	264.413	258.135	268.562	186.659	322.110	284.600	185.686	191.470	317.565	323.539	189.839	193.849	195.783	200.332	319.422	198.085	-8191	255	
27516.488	1	1	0	0	0.16	0.10697	0.25656	0.26184	0.15201	0.20241	0.085869	0.20763	0.1515	0.18744	0.024289	0.32324	0.14433	0.19936	0.27949	0.18621	-1.9708	-1.9229	-1.95	-2.4542	-1.8229	-2.2417	-2.1979	-2.1813	-2.4583	-1.875	-1.9937	-2.2687	-1.8708	-2.2729	-2	-1.8438	505.604	465.377	480.481	248.380	404.862	366.079	525.256	228.397	296.011	394.265	495.566	513.900	293.916	443.634	525.164	413.626	0.00097371	0.00076933	0.00019688	951.1	7.9198e-06	6.8166e-06	1067.5	429.79	8.8542e-06	3.3857e-06	502.13	222.74	172.37	78.863	6.7645e-06	100.93	0.00035812	0.00027876	7.8108e-05	928.73	3.1198e-06	3.0267e-06	1044.5	422.08	3.104e-06	2.9833e-06	483.62	218.98	166.76	77.809	3.0922e-06	99.301	266.681	268.523	284.392	186.660	340.659	308.835	185.816	191.177	329.985	315.797	189.668	194.062	195.954	200.349	321.848	197.907	-8191	255	
27516.586	1	1	0	0	0.23201	0.0797	0.15988	0.24764	0.058866	0.092758	0.16529	0.3852	0.13404	0.091122	0.1984	0.33584	0.26266	0.29196	0.29407	0.27157	-1.7875	-1.8167	-1.9917	-2.3896	-1.6792	-2.2125	-2.3187	-2.0958	-2.2771	-1.8813	-1.8646	-2.3937	-1.8854	-2.2833	-2.1667	-1.8521	389.497	448.778	479.744	498.782	467.012	502.325	339.530	459.932	382.190	365.352	259.280	465.718	346.998	179.697	314.073	449.425	0.0010251	0.00093124	0.00025934	955.75	6.4833e-06	9.2506e-06	1065.8	431.12	9.0329e-06	6.7011e-06	505.29	223.8	173.98	79.329	4.5667e-06	102.81	0.00036964	0.00027342	7.7963e-05	927.74	3.0535e-06	2.9162e-06	1043.7	421.85	3.0004e-06	2.9258e-06	487.45	219.99	167.33	78.412	2.918e-06	100.89	262.909	251.001	281.989	186.560	344.289	285.343	185.865	191.290	314.712	357.620	189.753	193.838	195.731	200.528	331.648	197.999	-8191	255	
27516.682	1	1	0	0	0.12128	0.20026	0.083904	0.10055	0.096252	0.052606	0.086186	0.17815	0.21647	0.17293	0.35683	0.11468	0.13496	0.082637	0.20252	0.17044	-1.7687	-1.8083	-1.8708	-2.3604	-1.8708	-1.95	-2.2188	-1.7313	-2.2479	-2.1417	-1.6604	-2.5854	-1.8792	-2.325	-2.2354	-1.9792	450.239	209.134	255.067	462.317	256.165	411.364	195.493	177.012	326.782	174.258	192.351	179.241	443.737	529.209	436.253	485.483	0.0010277	0.00089804	0.00017549	940.62	7.3438e-06	5.1502e-06	1068.6	430.64	6.5153e-06	5.2521e-06	509.9	227.28	174.51	80.805	4.0577e-06	104.05	0.00035393	0.0002657	7.2769e-05	922.64	2.8183e-06	2.7776e-06	1044.1	423.58	2.8676e-06	2.7733e-06	491.84	222.54	168.81	80.007	2.9037e-06	102.21	264.261	271.991	294.007	186.602	327.523	327.451	185.966	191.327	316.262	323.170	189.688	193.781	195.665	200.564	326.086	198.266	-8191	255	
27516.803	1	1	0	0	0.064017	0.066771	0.04288	0.20273	0.23009	0.27909	0.19912	0.52686	0.20755	0.14965	0.084804	0.42555	0.16022	0.20863	0.12728	0.25602	-1.6292	-1.8646	-1.6625	-2.3812	-1.9833	-2.0083	-2.3792	-1.9667	-2.1542	-2.0563	-1.8667	-2.4562	-2.05	-2.0292	-2.1813	-2.0062	233.477	399.886	316.986	458.312	397.032	274.632	506.038	514.285	436.019	519.054	331.380	497.193	292.119	477.117	492.247	481.704	0.00099992	0.00057834	0.00017999	939.25	5.7228e-06	9.6525e-06	1065.4	431.69	6.4512e-06	9.567e-06	505.17	225.57	173.95	80.247	9.608e-06	102.98	0.00035135	0.00026768	7.3888e-05	920.51	2.8824e-06	2.8753e-06	1044.8	424.7	2.9059e-06	2.9272e-06	488.02	221.8	167.98	79.516	3.0425e-06	101.35	264.235	210.242	285.557	186.732	324.589	287.851	185.802	191.127	325.706	351.265	189.506	194.018	195.746	200.528	308.940	197.825	-8191	255	
27516.873	1	1	0	0	0.24734	0.036366	0.14005	0.23435	0.19581	0.21815	0.072636	0.14036	0.22754	0.15712	0.03357	0.22536	0.33814	0.13061	0.35304	0.21055	-1.5771	-1.9729	-1.8646	-2.5083	-1.9312	-1.9479	-2.6021	-1.9729	-1.8083	-2.1042	-1.7687	-2.3417	-2.1792	-1.8438	-2.2417	-2.1417	404.041	269.307	428.075	499.400	316.166	499.319	181.562	520.004	254.333	414.696	361.554	478.074	273.049	358.204	335.830	190.698	0.0010104	0.00059171	0.00029817	942.61	4.0284e-06	1.0609e-05	1066.6	431.39	8.5816e-06	7.3251e-06	499.79	224.4	172.29	79.354	2.4439e-06	102.12	0.00036174	0.00027665	7.7597e-05	925.01	3.0592e-06	3.0225e-06	1045.3	423.78	3.0562e-06	3.0492e-06	482.85	220.44	166.99	78.4	3.1349e-06	100.25	262.394	251.870	308.217	186.680	333.528	300.551	185.998	191.421	326.083	336.661	189.919	193.972	195.788	200.517	318.036	198.065	-8191	255	
27516.994	1	1	0	0	0.1355	0.27022	0.16422	0.28382	0.21076	0.28628	0.33852	0.43616	0.45889	0.058238	0.088351	0.20858	0.1037	0.14731	0.18397	0.31975	-1.6729	-2.2021	-1.625	-2.2292	-1.8687	-1.8625	-2.5354	-2.1021	-1.9813	-2.0792	-1.7771	-2.3187	-2.1146	-1.9208	-2.2125	-2.2708	264.998	453.258	216.360	462.775	502.768	355.902	428.627	483.556	404.262	316.599	179.813	425.993	375.771	491.989	483.119	478.624	0.00099048	0.00094918	0.00029806	948.22	8.0454e-06	7.4133e-06	1068.3	431.12	8.373e-06	7.4893e-06	501.34	225.67	174.94	79.539	8.4723e-06	102.71	0.00037248	0.0002802	7.845e-05	930.41	3.1265e-06	3.0282e-06	1045	423.42	3.1962e-06	3.0009e-06	482	221.38	168.26	78.749	3.0354e-06	100.97	264.016	233.823	272.525	186.506	321.958	332.058	185.662	191.408	337.062	347.933	189.843	193.843	195.541	200.421	287.271	198.016	-8191	255	
27517.090	1	1	0	0	0.22872	0.065535	0.4215	0.25087	0.024428	0.082734	0.34995	0.35756	0.07698	0.15835	0.30118	0.13676	0.15116	0.50978	0.043511	0.14716	-1.3854	-2.3417	-1.7875	-2.0208	-2.2146	-1.975	-2.5083	-2.1396	-1.6792	-2.2271	-1.925	-2.2208	-2.3167	-2.0042	-2.0521	-2.0938	396.255	274.699	434.693	497.839	224.801	250.635	400.621	503.547	297.631	256.122	223.931	305.974	175.809	499.878	483.081	391.624	0.00098239	0.00088346	0.0001484	945.94	1.0991e-05	6.3835e-06	1069.6	431.37	6.048e-06	7.5266e-06	500.69	225.52	175.14	80.466	9.2983e-06	102.83	0.00036458	0.00026683	7.7741e-05	927.38	3.045e-06	2.9617e-06	1047.4	423.85	3.0057e-06	2.9297e-06	483.35	221.62	168.51	79.342	2.9937e-06	101.14	264.707	245.818	265.664	186.417	320.113	361.295	185.634	191.134	302.019	327.170	189.738	193.906	196.240	200.498	285.016	197.804	-8191	255	
27517.186	1	1	0	0	0.32193	0.10394	0.028408	0.12219	0.14219	0.11113	0.31753	0.10888	0.20427	0.21229	0.26518	0.092545	0.13204	0.13582	0.14813	0.14367	-1.4292	-2.0917	-1.775	-2.1479	-2.2771	-1.6396	-2.3187	-2.1479	-1.6667	-2.2313	-1.9667	-2.0938	-2.2958	-1.9521	-2.3063	-2.2792	249.220	222.837	452.972	281.725	359.136	314.010	454.978	499.250	390.195	277.243	221.742	352.401	203.438	467.931	410.056	405.513	0.0010379	0.00050543	0.00026633	943.93	9.3159e-06	5.1274e-06	1063.7	431.23	4.1297e-06	1.086e-05	500.07	226.46	174.01	80.582	5.6328e-06	103.31	0.00035227	0.00026605	7.4928e-05	924.09	2.9762e-06	2.9329e-06	1042	424.42	3.0153e-06	2.8477e-06	483.41	221.81	168.42	79.604	3.0775e-06	101.56	263.280	231.567	276.125	186.694	342.379	318.041	186.038	191.206	360.464	347.490	189.875	193.809	196.052	200.392	324.935	198.202	-8191	255	
27517.281	1	1	0	0	0.058078	0.11168	0.16764	0.24389	0.13084	0.2625	0.12572	0.1612	0.019311	0.093426	0.034816	0.23563	0.1703	0.41519	0.29026	0.33965	-1.4125	-2.3563	-2.0333	-2.2083	-2.1958	-1.8042	-2.4458	-2.2562	-1.725	-2.0792	-2.1146	-2.2958	-2.4958	-2.0125	-2.0396	-2.4021	290.416	478.344	326.629	487.510	403.738	191.973	175.911	516.331	374.774	199.765	330.778	517.045	210.728	514.242	330.918	190.334	0.00095883	0.00067134	0.00021921	945.93	8.2271e-06	6.1501e-06	1068.1	432.51	6.1325e-06	9.1061e-06	499.01	224.47	173.12	80.366	1.1867e-05	102.49	0.00036248	0.00026887	7.5635e-05	924.88	2.9043e-06	3.0097e-06	1042.4	424.15	3.02e-06	2.9734e-06	483.97	220.96	168.02	79.282	3.1121e-06	100.82	265.548	203.573	298.107	186.512	329.230	323.179	185.779	191.172	340.944	353.174	189.784	194.229	195.578	200.489	326.917	198.124	-8191	255	
27517.402	1	1	0	0	0.0060107	0.13235	0.26957	0.20745	0.10998	0.095835	0.37942	0.24426	0.3326	0.15625	0.075247	0.4556	0.42232	0.061786	0.38859	0.43579	-1.4188	-2.3125	-1.9875	-1.9729	-2.4708	-1.8729	-2.3875	-2.35	-1.9458	-2.3208	-1.9896	-1.9688	-2.3271	-1.9667	-2.225	-2.3271	252.796	371.687	323.685	392.959	363.248	253.769	449.031	482.382	345.688	326.492	472.754	484.760	469.711	175.528	222.679	490.975	0.00098498	0.0011504	0.00020546	952.42	9.1709e-06	7.4854e-06	1060.7	431.88	6.0286e-06	5.6087e-06	500.72	225.14	172.59	79.227	7.2584e-06	101.43	0.00037037	0.00027977	7.8357e-05	927.46	3.0519e-06	3.0665e-06	1043.1	424.11	3.1683e-06	3.1095e-06	481.55	220.36	167.22	78.473	3.2175e-06	100.03	263.117	239.683	278.748	186.561	332.285	308.442	185.545	191.162	301.943	314.281	189.534	193.824	195.831	200.559	308.671	197.940	-8191	255	
27517.498	1	1	0	0	0.1333	0.10281	0.22172	0.048504	0.014471	0.0025445	0.42848	0.095096	0.17206	0.14085	0.18426	0.18358	0.043656	0.25961	0.28074	0.33693	-1.3521	-2.2313	-1.9667	-2.1333	-2.125	-2.0812	-2.1917	-2.4417	-1.7604	-2.3083	-2.225	-2.0292	-2.2771	-2.2146	-1.8771	-2.5625	461.082	284.516	499.475	196.645	380.902	187.277	507.237	175.103	372.834	379.790	466.845	437.365	435.362	491.832	249.329	481.595	0.00097491	0.00090867	0.00025811	945.18	1.0047e-05	1.0004e-05	1069.4	431.88	6.4351e-06	9.8891e-06	495.56	223.9	171.36	79.112	7.5985e-06	101.3	0.00038312	0.0002855	8.34e-05	927.35	3.2385e-06	3.1901e-06	1043.2	423.4	3.1585e-06	3.131e-06	479.85	219.33	166.67	78.21	3.1988e-06	99.658	265.583	269.069	289.495	186.840	352.714	318.749	185.788	191.413	313.138	327.388	190.158	193.847	195.725	200.443	345.947	198.322	-8191	255	
27517.594	1	1	0	0	0.13064	0.12357	0.165	0.10498	0.18686	0.25568	0.20647	0.39389	0.15408	0.1591	0.040554	0.24318	0.29939	0.325	0.05983	0.34954	-1.4188	-2.0542	-1.9438	-1.8687	-2.4042	-1.9958	-2.2188	-2.5771	-1.7583	-2.35	-2.3063	-1.9583	-2.3542	-2.2021	-1.8521	-2.7854	509.691	219.094	244.629	508.058	266.353	271.887	393.667	467.737	508.266	470.509	421.106	469.888	238.000	487.132	381.608	501.197	0.0010054	0.0007868	0.00023711	944.25	7.9988e-06	4.4704e-06	1061	432.25	8.1218e-06	7.5002e-06	490.76	223.29	173.36	78.99	7.9737e-06	100.89	0.00037084	0.00028306	7.9771e-05	925.67	3.1109e-06	3.15e-06	1041.3	423.32	3.1879e-06	3.286e-06	477.26	218.58	167.27	78.108	3.3501e-06	99.272	265.301	244.125	268.840	186.481	321.304	291.975	185.905	191.204	326.000	340.538	189.534	193.974	195.594	200.595	299.850	198.034	-8191	255	
27517.689	1	1	0	0	0.29457	0.30063	0.16563	0.16911	0.19565	0.028568	0.1873	0.1196	0.14276	0.04885	0.049839	0.17099	0.081927	0.11754	0.24902	0.33168	-1.5396	-2.1667	-2.275	-1.8125	-2.3063	-2.175	-1.9792	-2.4313	-1.9562	-2.3417	-2.3	-1.9417	-2.4083	-2.2313	-2.0563	-2.5	502.771	521.199	510.990	215.132	198.152	267.857	391.439	508.285	326.357	328.411	443.594	447.443	288.832	511.161	330.635	469.887	0.0009985	0.001034	0.00024935	948.47	8.8233e-06	1.0335e-05	1063.5	432.85	7.0093e-06	9.2249e-06	494.04	223.31	172.58	79.137	6.99e-06	101.2	0.00038285	0.00030277	8.4074e-05	928.36	3.3711e-06	3.3413e-06	1042.7	424.65	3.5161e-06	3.2905e-06	477.1	219.03	167.29	78.21	3.5512e-06	99.394	264.060	221.784	290.351	186.725	302.288	293.385	185.776	191.473	319.505	324.291	189.734	193.788	195.791	200.486	306.825	197.854	-8191	255	
27517.785	1	1	0	0	0.050128	0.10013	0.2436	0.039933	0.13792	0.19891	0.33145	0.10788	0.16883	0.15742	0.097347	0.39453	0.30306	0.4102	0.15823	0.15657	-1.7646	-2.0521	-2.2208	-1.7625	-2.0146	-2.0521	-2.0604	-2.4667	-1.9979	-2.2313	-2.35	-1.9375	-2.2625	-2.3646	-1.8729	-2.6125	467.567	416.356	335.271	371.773	236.656	275.410	415.533	395.387	295.647	341.054	225.933	494.084	458.873	464.284	291.132	446.949	0.00099921	0.001085	0.00019805	951.32	1.0209e-05	4.7155e-06	1062	431.83	7.0202e-06	1.0666e-05	491.69	223.35	173.15	79.332	8.2601e-06	101.43	0.0003897	0.00030903	8.7498e-05	932.16	3.4077e-06	3.3691e-06	1043.3	424.36	3.4841e-06	3.4593e-06	476.18	219.24	167.88	78.281	3.5228e-06	99.818	266.286	239.615	275.506	186.602	335.876	292.458	185.689	191.205	309.422	342.963	189.811	193.722	196.012	200.600	306.306	198.250	-8191	255	
27517.883	1	1	0	0	0.22248	0.13646	0.14642	0.13211	0.079133	0.07216	0.32389	0.3966	0.089325	0.12544	0.15975	0.16095	0.25365	0.32835	0.23556	0.37192	-1.4625	-2.1167	-2.4313	-1.9417	-2.2354	-2.1917	-2.1771	-2.5708	-2.0563	-2.0771	-2.4146	-2.0104	-2.1979	-2.5187	-1.8771	-2.5583	522.234	321.962	512.471	225.130	347.241	275.692	504.045	188.399	445.365	347.012	363.792	465.922	223.210	485.187	307.121	459.352	0.0010195	0.00088054	0.00026808	950.97	6.6472e-06	5.4745e-06	1064.8	431.2	1.0295e-05	5.492e-06	495.73	223.86	173.1	79.164	9.9297e-06	101.02	0.00040046	0.00030373	8.566e-05	930.64	3.3815e-06	3.4721e-06	1044.6	425.15	3.5724e-06	3.4303e-06	481.02	220.06	167.92	78.32	3.5391e-06	99.668	268.241	226.600	288.044	186.754	323.976	311.109	185.940	191.379	337.003	307.772	189.703	193.854	195.887	200.550	327.444	198.036	-8191	255	
27517.979	1	1	0	0	0.20633	0.086093	0.013479	0.083715	0.089344	0.20345	0.25491	0.37276	0.06044	0.10877	0.26346	0.297	0.12949	0.20436	0.055642	0.3366	-1.75	-1.9375	-2.2583	-2.0875	-2.2792	-2.2917	-1.8729	-2.2458	-2.0333	-2.0896	-2.4062	-1.9625	-2.2146	-2.5167	-1.6708	-2.5021	187.814	299.633	368.695	182.408	373.297	197.057	485.600	479.896	399.842	377.935	255.776	183.526	317.874	176.442	483.915	481.478	0.0010338	0.0012665	0.00022532	949.85	8.2577e-06	5.4446e-06	1061.8	431.03	7.0319e-06	6.8771e-06	491.82	222.58	174.04	79.031	7.3731e-06	100.63	0.00040359	0.00031901	8.8044e-05	930.98	3.4461e-06	3.5115e-06	1042.4	423.9	3.6204e-06	3.4852e-06	477.23	218.6	167.94	78.034	3.5962e-06	98.942	263.200	254.347	291.832	186.512	361.116	342.541	185.684	191.066	325.996	357.985	189.597	193.950	195.637	200.452	314.253	197.921	-8191	255	
27518.098	1	1	0	0	0.031431	0.38551	0.16309	0.17012	0.080401	0.051673	0.28361	0.12445	0.14154	0.15824	0.28992	0.43421	0.04601	0.055044	0.23184	0.17327	-1.6854	-1.85	-2.2604	-2.1271	-2.0563	-2.2875	-2.0729	-2.2979	-2.2083	-1.9479	-2.2979	-2.2229	-2.1646	-2.6063	-1.9438	-2.4375	516.082	320.549	524.602	451.787	342.660	361.348	444.011	471.178	335.932	505.898	428.881	489.892	217.829	267.483	525.419	483.409	0.0009531	0.0011654	0.00015644	948.27	1.1274e-05	1.2476e-05	1064.9	429.16	4.576e-06	4.0405e-06	488.47	221.24	172.06	77.894	4.1755e-06	99.043	0.00040895	0.00032527	9.14e-05	933.05	3.5449e-06	3.6307e-06	1041.3	422.3	3.7094e-06	3.5593e-06	473.66	217.28	166.7	77.073	3.7868e-06	97.597	264.294	237.857	255.509	186.989	355.991	280.729	185.807	191.342	325.892	375.841	189.532	193.916	195.749	200.648	335.922	197.893	-8191	255	
27518.170	1	1	0	0	0.26312	0.102	0.29725	0.11712	0.14342	0.16704	0.27625	0.5189	0.17718	0.024464	0.25831	0.47376	0.12009	0.33184	0.13955	0.22769	-1.875	-1.9188	-2.3312	-2.0875	-1.9458	-2.3083	-2.1375	-2.5292	-2.4479	-1.8312	-2.3479	-2.1937	-2.0146	-2.5792	-1.8333	-2.4083	202.961	305.496	474.199	510.688	325.422	272.007	478.652	499.188	301.959	412.510	465.747	481.109	291.549	492.458	286.674	443.326	0.00094811	0.00082994	0.00018834	949.83	9.7188e-06	6.4643e-06	1055.2	428.05	8.9176e-06	3.8411e-06	488.53	220.27	170.82	77.291	1.2879e-05	98.968	0.00041342	0.00033393	9.4045e-05	931.51	3.6725e-06	3.5917e-06	1036.8	420.66	3.646e-06	3.6037e-06	474.38	216.44	165.75	76.698	3.6479e-06	97.674	264.532	241.640	313.093	186.645	317.363	288.069	185.946	191.342	324.038	292.866	189.592	193.695	195.732	200.483	313.508	198.086	-8191	255	
27518.266	1	1	0	0	0.24049	0.11708	0.050291	0.042465	0.38936	0.18327	0.1705	0.15642	0.13315	0.038572	0.071981	0.14473	0.22974	0.1839	0.16087	0.27059	-1.9479	-1.6104	-2.2021	-2	-1.7229	-2.1833	-2.1125	-2.3688	-2.3042	-1.6604	-2.3229	-2.2188	-2.0833	-2.3083	-2.1208	-2.0438	504.970	265.101	177.427	373.385	394.887	292.648	485.169	448.983	254.606	240.717	498.883	277.639	438.358	470.119	449.947	490.368	0.00096828	0.00033389	0.00021998	950.63	6.1026e-06	1.002e-05	1059.4	427.1	7.1092e-06	7.2752e-06	488.2	220.4	171.26	77.353	9.5244e-06	99.034	0.00041308	0.00032928	9.0993e-05	930.41	3.6178e-06	3.5165e-06	1040.3	419.95	3.6302e-06	3.53e-06	475.14	216.76	165.68	76.383	3.6297e-06	97.565	264.838	252.527	260.127	186.355	377.020	274.704	185.852	191.129	340.597	341.640	189.818	193.988	196.079	200.534	301.190	198.122	-8191	255	
27518.361	1	1	0	0	0.086085	0.11293	0.10628	0.2003	0.051199	0.13328	0.063562	0.22943	0.063548	0.1105	0.10289	0.28558	0.3998	0.34291	0.30713	0.18272	-1.5917	-1.7667	-1.9167	-2.1083	-1.7938	-2.3375	-1.9854	-1.9604	-2.1604	-1.775	-2.0396	-2.2979	-1.8458	-2.4896	-2.0771	-2.0979	332.124	267.343	497.947	201.974	275.574	313.342	304.327	529.938	476.585	349.810	415.692	496.342	173.626	477.979	394.347	382.128	0.00093739	0.0010997	0.00017498	945.61	5.5619e-06	8.1457e-06	1057.4	427.9	4.7364e-06	8.0339e-06	486.98	218.19	169.42	76.17	5.7133e-06	97.857	0.00040326	0.00032534	8.9277e-05	927.41	3.5702e-06	3.492e-06	1036.4	419.2	3.6048e-06	3.5478e-06	471.75	214.43	164.64	75.448	3.5719e-06	96.235	266.315	219.616	297.625	186.432	348.452	328.623	185.930	191.478	338.222	310.523	190.046	193.814	195.596	200.580	288.566	197.996	-8191	255	
27518.482	1	1	0	0	0.097621	0.11631	0.1182	0.027445	0.096796	0.26687	0.29666	0.11392	0.25641	0.053359	0.094377	0.27083	0.21076	0.093689	0.17796	0.38243	-1.8354	-1.9062	-1.9729	-2.3979	-1.7375	-2.2396	-2.1208	-2.0708	-2.3167	-1.9708	-2.0625	-2.3479	-1.7021	-2.3646	-2	-1.9875	500.366	476.259	453.379	177.221	363.194	185.942	481.679	465.617	262.608	506.567	174.441	488.025	378.671	517.976	328.723	485.681	0.00095795	0.00065466	0.00023838	945.79	7.4877e-06	8.5977e-06	1053.4	425.74	4.6927e-06	9.605e-06	486.55	217.69	168.13	75.97	7.2253e-06	97.618	0.00039993	0.00031188	9.0151e-05	926.01	3.525e-06	3.5321e-06	1033.3	417.98	3.6497e-06	3.4843e-06	470.7	213.48	163.64	75.232	3.5911e-06	96.15	262.955	237.667	276.473	186.345	343.438	310.396	185.721	191.384	325.275	346.039	189.737	193.712	195.877	200.581	325.643	198.085	-8191	255	
27518.578	1	1	0	0	0.04037	0.038532	0.075371	0.15757	0.21086	0.29717	0.16436	0.16606	0.16327	0.16366	0.11098	0.38747	0.20082	0.1207	0.17832	0.20193	-1.7313	-1.7417	-1.9062	-2.0687	-1.875	-2.1667	-2.2083	-2.2062	-2.35	-2.0917	-1.9854	-2.4604	-1.8958	-2.4625	-2.125	-1.9958	345.318	453.897	255.638	194.948	227.582	306.832	353.504	462.883	382.156	510.214	425.862	486.081	407.468	447.875	207.923	424.260	0.00097648	0.00081529	0.00020358	949.42	5.9636e-06	6.8279e-06	1059.8	426.14	9.8928e-06	6.636e-06	486.3	218.67	168.58	76.395	6.4565e-06	98.504	0.00040171	0.00031935	8.8749e-05	926.47	3.5694e-06	3.4954e-06	1035.6	419.2	3.5774e-06	3.4529e-06	472.74	214.94	164.18	75.689	3.5639e-06	96.902	262.124	234.465	263.349	186.429	345.499	290.045	185.743	191.425	335.208	358.621	189.785	193.793	195.659	200.626	309.630	197.834	-8191	255	
27518.674	1	1	0	0	0.21236	0.044614	0.21068	0.24808	0.071146	0.079364	0.39432	0.13811	0.14109	0.29636	0.096725	0.21076	0.11194	0.29771	0.16172	0.3261	-1.6938	-1.8708	-1.9	-2.2729	-1.7521	-2.0667	-2.325	-1.8979	-2.175	-1.9021	-1.9062	-2.5187	-1.7708	-2.2333	-2.1667	-1.8312	408.189	410.639	454.678	490.695	371.644	523.424	488.251	505.189	526.799	266.872	176.290	469.091	179.002	185.866	419.402	437.103	0.00098503	0.00063632	0.00018307	944.49	2.8639e-06	5.3865e-06	1060.8	425.03	7.5363e-06	2.0094e-06	489.52	218.5	169.82	76.785	8.0661e-06	99.132	0.00039324	0.00031589	8.9731e-05	923.51	3.4862e-06	3.4701e-06	1036.3	418.9	3.5206e-06	3.5246e-06	474.46	215.52	164.67	75.794	3.5642e-06	97.302	264.511	218.021	250.396	186.460	324.901	302.803	185.640	191.098	308.179	402.431	189.552	194.004	195.730	200.431	315.843	198.397	-8191	255	
27518.771	1	1	0	0	0.13385	0.13915	0.072699	0.27852	0.099379	0.2592	0.21675	0.085539	0.16834	0.1886	0.3325	0.12737	0.10264	0.1985	0.12161	0.083173	-1.6562	-2.0125	-1.825	-2.4562	-1.9354	-1.975	-2.3354	-1.8167	-2.0979	-2.0625	-1.8396	-2.275	-1.9188	-2.2	-2.1604	-2.05	370.387	410.955	410.151	470.969	367.556	526.810	176.894	226.958	450.270	291.906	506.112	214.286	283.834	509.826	487.846	420.562	0.00094735	0.0012262	0.00022489	942.42	6.0271e-06	6.988e-06	1053.7	427.32	8.7402e-06	5.8773e-06	491.25	218.65	168.99	76.43	8.2046e-06	98.281	0.00039353	0.00031406	8.9889e-05	922.95	3.5388e-06	3.3717e-06	1033.5	419.15	3.5148e-06	3.4798e-06	474.01	214.95	163.87	75.703	3.4927e-06	96.653	264.282	244.272	278.740	186.769	333.016	301.968	185.777	191.429	324.636	377.138	189.620	194.120	196.400	200.509	310.491	198.164	-8191	255	
27518.867	1	1	0	0	0.13327	0.34655	0.1386	0.24502	0.079734	0.065773	0.20722	0.28645	0.18836	0.13859	0.14351	0.06957	0.38318	0.19958	0.18193	0.090872	-1.8604	-1.9354	-1.7521	-2.2313	-1.8375	-2.0771	-2.3521	-1.9	-1.9771	-2.025	-1.8167	-2.35	-1.85	-2.2146	-2.1417	-1.9604	302.095	337.679	211.634	488.033	526.966	229.471	447.793	501.718	420.581	214.340	438.676	395.108	531.904	487.849	478.033	525.629	0.00098901	0.0012565	0.00022374	939.46	6.301e-06	7.9943e-06	1051.7	423.84	6.2446e-06	8.7519e-06	489.2	218.3	168.96	76.411	7.4926e-06	97.839	0.00039144	0.00031286	8.7757e-05	921.83	3.5238e-06	3.4318e-06	1030	418.13	3.5126e-06	3.5009e-06	472.02	214.16	163.53	75.573	3.5468e-06	96.182	262.933	245.936	269.203	186.495	324.351	286.311	185.638	191.400	316.368	385.973	189.799	194.018	195.854	200.707	325.157	198.192	-8191	255	
27518.963	1	1	0	0	0.22765	0.25608	0.27514	0.27432	0.23068	0.50285	0.0849	0.17206	0.14667	0.12177	0.063564	0.41727	0.21617	0.059428	0.038905	0.39335	-1.4875	-2.0708	-1.7437	-2.0521	-1.8417	-1.9729	-2.4813	-1.7771	-2.0812	-2.2562	-1.9396	-2.1521	-2.2042	-2.0187	-2.1917	-2.0646	489.127	410.362	236.494	435.792	446.062	513.654	416.491	528.425	393.428	399.283	358.668	527.094	430.980	199.561	379.984	463.530	0.0009689	0.00084355	0.00022717	940.16	1.1705e-05	3.881e-06	1054.3	425.85	1.0256e-05	8.654e-06	485.58	218.2	170.56	76.539	9.3509e-06	97.988	0.00039568	0.00031969	9.0427e-05	922.19	3.5851e-06	3.404e-06	1032.1	418.85	3.5389e-06	3.464e-06	471.28	214.3	163.97	75.613	3.5186e-06	96.443	261.869	252.403	283.176	186.682	320.543	272.901	185.577	191.249	312.957	327.141	189.530	194.030	195.713	200.465	323.197	198.107	-8191	255	
27519.082	1	1	0	0	0.15424	0.24113	0.13783	0.37314	0.064416	0.14353	0.19846	0.38386	0.30686	0.024035	0.16264	0.38648	0.1622	0.21972	0.13937	0.17169	-1.5042	-2.1667	-1.7542	-2.1792	-1.9542	-1.8354	-2.5771	-1.9979	-2.0625	-2.1875	-1.6458	-2.1958	-2	-1.9375	-2.3354	-2.1229	467.310	275.541	370.760	471.592	340.505	307.412	508.823	444.341	395.312	262.146	496.528	525.961	207.963	192.477	438.705	459.219	0.00098497	0.0010463	0.00019461	937.43	8.669e-06	5.6888e-06	1056.1	426.17	5.2821e-06	6.8487e-06	489.04	219.18	170.33	76.901	8.5576e-06	98.429	0.00039499	0.00031235	8.9378e-05	921.55	3.5584e-06	3.5677e-06	1034.3	419.02	3.5515e-06	3.5665e-06	472.32	215.28	164.41	75.994	3.5252e-06	97.075	266.883	210.240	302.242	186.503	354.117	340.442	185.654	191.201	300.375	354.517	190.019	194.099	195.901	200.443	305.870	198.160	-8191	255	
27519.178	1	1	0	0	0.16809	0.1375	0.11975	0.11946	0.1888	0.15339	0.25035	0.18455	0.24982	0.23711	0.17491	0.11751	0.13659	0.052779	0.32346	0.42705	-1.6604	-2.1458	-1.8125	-2.1771	-2.0396	-1.6729	-2.4375	-2.0333	-1.9396	-2.2146	-1.8375	-2.4417	-2.1125	-1.9125	-2.2938	-2.075	435.782	232.675	202.771	369.791	406.825	242.938	456.320	412.882	339.660	270.838	279.695	235.630	235.872	179.202	411.881	448.312	0.00094572	0.00093565	0.00020614	943.38	7.1564e-06	1.0165e-05	1055.7	425.26	8.5287e-06	9.0821e-06	488.69	221.2	170.71	77.347	2.1284e-06	99.08	0.00039324	0.00031113	8.6997e-05	923.77	3.3574e-06	3.2481e-06	1037.8	418.88	3.2961e-06	3.2829e-06	473.01	216.7	164.77	76.502	3.2354e-06	97.81	263.818	237.924	270.503	186.474	361.845	321.157	185.712	191.339	311.310	379.772	189.580	193.966	195.692	200.335	402.251	198.233	-8191	255	
27519.273	1	1	0	0	0.28377	0.078734	0.21376	0.18339	0.065831	0.2494	0.15951	0.22632	0.20376	0.10465	0.19203	0.010085	0.071442	0.41062	0.14593	0.37267	-1.4438	-2.3896	-1.7708	-2.1125	-2.1521	-1.825	-2.325	-2.1958	-1.7812	-2.1167	-1.8687	-2.2583	-2.0917	-1.9917	-2.1271	-2.125	180.895	249.217	325.174	511.663	249.589	467.413	190.509	398.202	500.184	269.369	509.638	439.172	484.614	463.190	247.893	503.524	0.00091668	0.00080878	0.00022979	943.46	7.6356e-06	9.4694e-06	1053.6	428.3	8.3403e-06	7.3096e-06	490	220.09	170.31	77.209	6.7677e-06	98.716	0.00036953	0.00028238	8.3078e-05	919.15	3.1319e-06	3.1558e-06	1034.3	420.74	3.1622e-06	3.0829e-06	474.82	215.85	164.23	76.281	3.1738e-06	97.34	264.189	231.886	266.498	186.713	318.341	318.967	185.834	191.215	325.498	374.049	189.688	193.883	195.740	200.325	321.406	198.040	-8191	255	
27519.395	1	1	0	0	0.0655	0.12541	0.025453	0.1408	0.23771	0.033558	0.19578	0.056896	0.22408	0.20627	0.14154	0.20424	0.30122	0.24279	0.17512	0.080257	-1.4021	-2.2708	-1.8042	-2.2542	-2.0917	-1.7188	-2.1979	-1.95	-1.7583	-2.2896	-1.8875	-2.2458	-2.3375	-2.05	-2.1271	-2.2313	465.116	509.823	445.635	430.032	198.622	415.016	473.409	501.664	337.704	324.436	528.649	532.573	509.479	469.020	282.079	340.836	0.00092866	0.00108	0.00023197	937.16	8.2292e-06	6.3134e-06	1059.1	427.71	6.87e-06	8.5629e-06	488.2	219.73	170.21	77.158	8.6529e-06	98.629	0.00037079	0.00028875	8.0886e-05	918.95	3.128e-06	3.133e-06	1033.3	420.14	3.2045e-06	3.1132e-06	473.79	215.46	163.79	76.125	3.3038e-06	96.894	264.948	262.301	286.803	186.555	331.404	334.693	185.940	191.326	327.789	363.727	189.527	193.828	196.019	200.443	310.481	198.161	-8191	255	
27519.467	1	1	0	0	0.037299	0.056744	0.20914	0.13163	0.21253	0.30232	0.16682	0.13805	0.21112	0.16665	0.24865	0.17191	0.31641	0.36162	0.22404	0.48809	-1.4271	-2.3	-1.8083	-1.9167	-2.2313	-1.7167	-2.2354	-2.4125	-1.6875	-2.2188	-1.8875	-2.1729	-2.2854	-1.9375	-2.0062	-2.2917	377.567	423.658	366.829	363.712	202.566	500.252	307.658	235.004	467.776	448.880	224.943	518.076	243.580	512.386	521.321	522.666	0.00094524	0.00070827	0.00020525	944.4	7.3859e-06	3.7313e-06	1056.9	429.02	6.8831e-06	1.0278e-05	490.74	220.96	170.12	76.826	1.1428e-05	97.872	0.00037749	0.00028963	8.3655e-05	921.27	3.218e-06	3.1924e-06	1035.2	420.75	3.3155e-06	3.2158e-06	475.52	216.06	164.19	75.841	3.3782e-06	96.652	263.036	276.137	303.009	186.684	319.177	313.454	185.878	191.275	309.035	365.560	189.417	194.031	195.782	200.559	308.592	198.081	-8191	255	
27519.562	1	1	0	0	0.22656	0.18216	0.23872	0.31681	0.13026	0.07974	0.38182	0.28378	0.041816	0.10859	0.27199	0.15268	0.11325	0.64232	0.36666	0.047659	-1.1667	-1.9271	-1.8396	-1.9979	-2.3187	-1.6375	-2.1667	-2.4271	-1.6875	-2.2104	-2.1437	-1.9333	-2.3479	-2.1375	-1.7271	-2.2146	389.863	354.793	460.006	502.495	241.019	445.581	467.113	459.227	178.421	278.935	488.672	477.089	179.141	524.895	368.633	496.248	0.0009297	0.0011874	0.00029797	942.5	1.1933e-05	5.4747e-06	1059.7	427.15	9.308e-06	9.3676e-06	493.27	219.95	169.7	76.52	7.051e-06	98.283	0.00039397	0.00031212	8.6786e-05	923.32	3.3837e-06	3.376e-06	1037.1	420.03	3.4576e-06	3.3148e-06	476.57	215.86	164.23	75.663	3.4422e-06	96.947	262.618	238.080	281.887	186.398	333.320	322.726	185.612	191.137	336.818	346.255	189.642	194.061	195.784	200.523	305.737	197.960	-8191	255	
27519.658	1	1	0	0	0.11208	0.12423	0.14914	0.16435	0.25345	0.39728	0.036601	0.23368	0.25976	0.11585	0.26368	0.20921	0.24159	0.069467	0.10536	0.13627	-1.3	-2.1771	-2.1063	-1.8563	-2.3854	-1.8458	-2.1688	-2.4667	-1.7563	-2.0292	-1.9937	-1.9813	-2.4771	-2.1146	-1.8729	-2.3729	461.227	443.237	419.043	374.671	532.828	368.820	497.214	494.433	226.084	240.555	431.268	481.682	223.197	200.335	425.131	476.596	0.00098139	0.00046637	0.00012207	941.28	1.1864e-05	7.1665e-06	1058.7	426.87	4.2221e-06	8.3449e-06	489.96	219.09	169.47	76.586	9.4793e-06	97.924	0.00039083	0.00031003	8.6603e-05	920.65	3.3575e-06	3.335e-06	1035.5	420.28	3.4654e-06	3.3324e-06	474.43	215.29	164.06	75.889	3.5646e-06	96.738	262.576	230.840	296.085	186.652	327.865	307.753	185.862	191.415	320.437	335.116	189.526	194.103	196.248	200.451	309.561	198.077	-8191	255	
27519.779	1	1	0	0	0.23033	0.089687	0.14999	0.047534	0.11463	0.30061	0.19812	0.12165	0.30424	0.03065	0.28195	0.36279	0.10602	0.24563	0.22174	0.26734	-1.3583	-2.225	-1.95	-1.9896	-2.375	-1.9229	-2.0729	-2.575	-1.8521	-2.1542	-2.3208	-2.0146	-2.2188	-2.0333	-1.875	-2.4604	230.294	202.805	431.347	181.261	391.624	233.855	369.048	502.345	392.951	353.278	525.884	494.620	508.964	497.790	300.821	425.686	0.0010368	0.00089866	0.00024495	945.49	8.2375e-06	9.4579e-06	1055.5	426.71	4.4895e-06	2.8799e-06	489.71	220.05	169.86	76.8	4.5549e-06	98.507	0.0003986	0.0003076	8.8542e-05	922.66	3.4175e-06	3.4509e-06	1035.3	420.77	3.4977e-06	3.3889e-06	475.2	216.04	164.06	75.941	3.3966e-06	96.96	263.969	239.692	290.156	186.678	337.428	299.462	185.871	191.166	317.239	363.818	189.505	193.843	195.606	200.517	289.226	198.125	-8191	255	
27519.875	1	1	0	0	0.17577	0.19397	0.13102	0.076851	0.17278	0.26279	0.3193	0.42383	0.13128	0.20991	0.12346	0.060873	0.38981	0.28443	0.10961	0.13301	-1.25	-1.9813	-1.9083	-1.8312	-2.0812	-2.0083	-2.1417	-2.3646	-2.0771	-2.0375	-2.3896	-1.8896	-2.0771	-2.1729	-1.7313	-2.4854	409.740	210.240	481.136	492.838	513.171	320.240	424.532	518.189	311.065	294.280	327.602	216.400	266.623	181.455	232.382	206.483	0.00093186	0.00090321	0.00019266	943.97	8.8529e-06	1.0839e-05	1056.9	430.19	6.3701e-06	6.6601e-06	491.04	220.35	170.57	77.216	1.1254e-05	99.208	0.00038587	0.00030678	8.6441e-05	922.87	3.3492e-06	3.4033e-06	1036.5	422.46	3.5081e-06	3.35e-06	475.04	216.6	164.64	76.125	3.5072e-06	97.392	262.401	236.477	269.605	186.650	325.980	310.697	185.782	191.411	336.454	314.567	189.807	193.842	195.636	200.531	301.803	198.222	-8191	255	
27519.973	1	1	0	0	0.20364	0.082331	0.1822	0.14448	0.028482	0.22212	0.18472	0.2606	0.092955	0.22676	0.22763	0.29157	0.084632	0.2799	0.098738	0.21511	-1.5083	-1.8771	-2.2729	-2.0042	-2.1479	-2.1	-2.1437	-2.4271	-1.9271	-1.9542	-2.2646	-1.8979	-2.2521	-2.3125	-1.7833	-2.3292	291.878	375.986	373.246	531.475	525.775	231.788	461.257	466.002	491.489	509.555	270.162	514.660	177.834	409.055	446.714	494.549	0.00092912	0.00073341	0.00010737	943.9	8.7322e-06	5.256e-06	1058.1	429.64	7.6925e-06	3.9696e-06	492.98	221.5	169.69	76.971	1.0988e-05	99.186	0.00038956	0.00030281	8.7033e-05	921.92	3.3295e-06	3.3597e-06	1038.8	422.02	3.4057e-06	3.2953e-06	478.44	217.42	164.41	76.148	3.4983e-06	97.673	263.820	251.973	278.027	186.637	331.079	314.970	185.975	191.448	324.079	369.874	189.466	193.906	195.665	200.690	306.799	197.943	-8191	255	
27520.043	1	1	0	0	0.34301	0.17247	0.33186	0.15626	0.17031	0.13375	0.23131	0.24866	0.14104	0.12006	0.15844	0.039783	0.22834	0.36855	0.09595	0.37951	-1.5708	-1.9021	-2.1979	-1.9333	-2.1104	-2.2375	-1.9979	-2.5021	-1.9292	-1.6854	-2.3375	-1.8896	-2.2604	-2.325	-1.7354	-2.3271	301.971	358.927	362.595	438.043	468.757	471.945	482.873	494.089	380.936	496.854	459.626	479.278	179.118	497.101	292.096	501.530	0.00099048	0.00085761	0.00019193	939.05	7.5111e-06	1.1406e-05	1058	427.75	5.7567e-06	1.0581e-05	488.38	220.18	171	77.135	1.1292e-05	98.879	0.00038996	0.00031012	8.6422e-05	921.25	3.2725e-06	3.3809e-06	1036.5	421.28	3.4217e-06	3.2883e-06	476.73	216.67	165.15	76.17	3.4301e-06	97.391	264.164	289.414	310.395	186.801	326.062	335.355	185.701	191.215	302.208	333.074	189.907	193.752	195.661	200.434	313.732	198.073	-8191	255	
27520.162	1	1	0	0	0.22934	0.22682	0.18951	0.18063	0.054321	0.3004	0.082606	0.077428	0.25585	0.21377	0.42059	0.22507	0.10503	0.24624	0.28579	0.32346	-1.6458	-1.6646	-2.2354	-2.1208	-2.0729	-2.3208	-1.9333	-2.3292	-2	-1.7417	-2.325	-2.0792	-2.1063	-2.3729	-1.5833	-2.1708	488.314	475.716	283.587	442.513	212.594	435.251	176.814	401.932	466.563	441.780	488.756	489.409	263.047	385.902	244.088	531.941	0.00093253	0.00077738	0.00015195	941.5	1.0275e-05	2.1929e-06	1055.9	428.27	7.4646e-06	5.4989e-06	493.56	220.93	169.16	77.02	9.4673e-06	98.424	0.00038815	0.00030893	8.4583e-05	919.26	3.3095e-06	3.3328e-06	1034.8	421.37	3.3612e-06	3.365e-06	477.25	216.79	164.48	76.32	3.4519e-06	97.277	263.648	267.597	256.853	186.794	327.591	339.158	185.899	191.252	324.481	366.556	189.353	194.120	195.764	200.416	326.363	197.936	-8191	255	
27520.258	1	1	0	0	0.058643	0.1226	0.10802	0.16371	0.057426	0.40239	0.33008	0.23475	0.13605	0.054159	0.23767	0.1744	0.03892	0.33678	0.17042	0.21147	-1.6708	-1.7042	-2.3312	-1.9354	-1.7354	-2.1271	-1.9625	-2.2771	-2.1896	-1.7875	-2.4583	-2.0083	-1.9583	-2.4917	-1.7708	-2.3542	279.541	361.734	517.944	424.710	524.091	213.834	475.977	492.874	509.778	359.666	228.125	443.491	395.359	468.889	423.784	365.773	0.00094766	0.00087409	0.00025684	940.31	9.4986e-06	7.042e-06	1054.7	427.31	6.4826e-06	1.6634e-06	494.14	220.84	169.36	77.433	8.488e-06	99.035	0.00038923	0.00031184	8.3885e-05	920.14	3.3509e-06	3.2512e-06	1034.1	420.58	3.3192e-06	3.2014e-06	478.81	217.32	164.41	76.625	3.2997e-06	97.836	268.024	252.311	271.825	186.633	338.818	248.156	185.852	191.317	337.305	370.385	189.468	193.869	195.924	200.380	326.132	198.056	-8191	255	
27520.354	1	1	0	0	0.11646	0.014384	0.1356	0.28608	0.088488	0.15717	0.31573	0.19677	0.1571	0.16584	0.13918	0.098157	0.20607	0.20604	0.067406	0.21456	-1.6458	-1.7604	-2.0812	-2.0792	-1.9583	-2.2167	-2.1063	-2.2271	-2.1437	-1.8917	-2.4917	-2.25	-1.775	-2.3563	-1.7292	-2.2021	424.634	529.890	406.189	497.800	293.027	323.293	389.561	487.528	335.339	341.455	376.037	249.606	412.750	493.770	367.946	447.853	0.00097819	0.00095816	0.00011959	935.16	5.4405e-06	6.0807e-06	1057.8	428.68	9.3184e-06	9.3063e-06	497.01	221.49	170.51	77.378	5.8348e-06	99.191	0.00037896	0.00029795	8.0487e-05	918.39	3.2122e-06	3.2458e-06	1037.1	421.47	3.3806e-06	3.2092e-06	480.11	217.77	164.56	76.441	3.4104e-06	97.658	261.787	220.458	266.926	186.785	354.322	309.918	185.517	191.342	339.536	360.254	189.498	193.885	195.871	200.487	307.050	198.287	-8191	255	
27520.475	1	1	0	0	0.22904	0.075945	0.15699	0.34195	0.22628	0.054036	0.28568	0.13467	0.12784	0.1475	0.26025	0.32665	0.21635	0.3193	0.13941	0.16058	-1.8521	-1.7104	-2.1771	-2.0708	-1.6896	-2.1604	-1.9125	-2.1333	-2.2438	-1.8625	-2.1104	-2.2875	-1.6354	-2.3438	-1.8521	-2.0438	408.684	366.835	402.082	515.824	460.531	439.616	433.994	502.430	472.788	513.952	290.506	517.929	455.107	460.284	202.227	475.368	0.00095634	0.00078235	0.00019166	941.06	1.1659e-05	7.0208e-06	1060.6	427.08	6.772e-06	1.0891e-05	492.23	219.66	169.51	77.169	1.0195e-05	98.798	0.00038338	0.00030223	8.3543e-05	920.5	3.3096e-06	3.2599e-06	1036.6	420.4	3.3132e-06	3.3459e-06	477.41	216.34	164.13	76.305	3.3581e-06	97.332	263.539	244.549	259.138	186.677	316.767	298.331	185.536	191.311	304.842	359.127	190.109	194.037	195.612	200.420	336.304	198.137	-8191	255	
27520.570	1	1	0	0	0.079164	0.17214	0.14547	0.1548	0.15699	0.16656	0.24453	0.22013	0.132	0.15755	0.21287	0.37127	0.17866	0.34007	0.34162	0.27767	-1.7875	-1.825	-2.1604	-2.2583	-1.6854	-2.2125	-2.1688	-2.1417	-2.0583	-1.6854	-2.3271	-2.5333	-1.7229	-2.1521	-2.0104	-2.0354	513.046	426.195	364.977	176.230	213.138	422.459	439.046	438.344	362.479	258.227	448.580	513.940	371.537	239.163	203.666	506.876	0.00096673	0.00076294	0.00022906	941.49	8.8514e-06	6.2398e-06	1057.7	428.74	8.0376e-06	9.15e-06	495.17	221.9	171.67	77.851	6.8849e-06	99.499	0.00039032	0.00030433	8.5515e-05	921.98	3.3674e-06	3.2357e-06	1036.3	421.85	3.3972e-06	3.328e-06	478.93	217.5	165.27	76.905	3.2734e-06	97.799	262.133	197.068	272.763	186.809	342.426	286.164	185.801	191.359	315.037	320.313	189.766	194.150	195.619	200.470	302.458	198.157	-8191	255	
27520.668	1	1	0	0	0.19959	0.13861	0.2656	0.10635	0.16119	0.11082	0.21747	0.39653	0.23693	0.1241	0.169	0.22346	0.224	0.16405	0.12663	0.24638	-1.8729	-1.7792	-1.9917	-2.2854	-1.7625	-2.3396	-2.2375	-1.9979	-2.1375	-1.9792	-2.0438	-2.2812	-1.6458	-2.3146	-2.0062	-1.8438	530.027	316.399	392.089	390.909	428.347	398.785	507.029	504.230	429.877	458.811	251.507	468.062	257.960	464.465	232.640	471.215	0.00097628	0.00098366	0.00025298	934.3	1.1528e-05	7.2828e-06	1055.3	430.19	7.6183e-06	7.2476e-06	498.59	220.69	170.02	77.313	9.3281e-06	99.035	0.00038229	0.00029785	8.2721e-05	916.39	3.3084e-06	3.2498e-06	1034.9	421.9	3.2979e-06	3.2881e-06	479.02	217.06	164.87	76.432	3.2438e-06	97.439	263.478	278.382	302.094	186.476	313.005	317.571	185.672	191.410	314.598	347.242	189.732	193.984	195.930	200.598	341.118	198.058	-8191	255	
27520.764	1	1	0	0	0.17954	0.2653	0.12395	0.015898	0.13704	0.26948	0.25405	0.34069	0.036496	0.040158	0.092166	0.11969	0.2028	0.37363	0.049667	0.27481	-1.8979	-1.95	-1.9021	-2.2292	-1.9125	-2.1979	-2.3812	-1.8625	-2.225	-1.8563	-2.1312	-2.3937	-1.6437	-2.2667	-2.4604	-1.8875	325.201	306.974	382.168	391.713	438.872	369.065	445.382	452.075	444.013	376.546	231.450	488.612	178.811	487.858	261.191	451.094	0.00094154	0.00069459	0.00018924	938.88	5.0774e-06	9.2436e-06	1057.9	427.11	6.317e-06	4.8194e-06	492.33	220.04	169.72	76.756	4.5568e-06	98.492	0.00038151	0.00029641	8.3433e-05	918.3	3.2699e-06	3.2013e-06	1035.8	419.73	3.2904e-06	3.243e-06	477.54	215.99	163.51	75.709	3.2285e-06	96.963	263.786	267.214	287.811	186.533	312.311	305.483	186.003	191.099	328.602	339.656	189.763	193.748	195.785	200.626	296.919	198.168	-8191	255	
27520.859	1	1	0	0	0.13933	0.1801	0.20685	0.25584	0.24451	0.17214	0.057586	0.41553	0.10081	0.10062	0.066073	0.19774	0.19274	0.12228	0.16574	0.31952	-2.0958	-1.8	-1.9625	-2.3667	-2.0333	-2.1312	-2.2833	-2.0646	-2.0854	-1.9792	-1.9542	-2.2458	-1.8792	-2.1792	-2.1625	-1.9646	300.508	439.582	470.233	500.663	448.654	255.205	430.037	498.478	486.851	405.454	266.288	436.915	397.133	433.587	435.790	520.118	0.00097006	0.00080005	0.0001379	933.66	5.4853e-06	1.0131e-05	1057.3	426.7	4.8363e-06	9.3407e-06	489.46	220.24	167.3	76.353	6.4429e-06	97.7	0.00037301	0.0002932	8.3366e-05	917.38	3.2858e-06	3.1917e-06	1036.8	419.29	3.3467e-06	3.1864e-06	476.62	215.83	163.36	75.508	3.266e-06	96.519	265.965	244.283	275.490	186.660	352.630	333.144	185.626	191.403	318.740	339.428	189.747	193.825	195.700	200.426	318.489	198.107	-8191	255	
27520.955	1	1	0	0	0.37042	0.097229	0.11419	0.054366	0.2933	0.1132	0.19845	0.30781	0.12004	0.1659	0.23251	0.28515	0.11813	0.27793	0.082018	0.30396	-1.8312	-2.1625	-1.7917	-2.3917	-1.9167	-2.1042	-2.5042	-1.7292	-2.2687	-2.1917	-1.8792	-2.3417	-1.9542	-2.0646	-2.2854	-2.0312	393.969	352.043	364.535	232.663	348.186	242.240	446.177	461.550	257.388	409.377	419.946	211.626	484.217	491.396	310.246	530.000	0.00092298	0.00083704	0.00026357	933.87	5.5094e-06	4.6349e-06	1052.3	428.23	7.2409e-06	1.0264e-05	494.82	220.41	168.79	76.84	9.8531e-06	98.672	0.00037356	0.00028974	8.0371e-05	914.86	3.1848e-06	3.127e-06	1032.4	420.33	3.1875e-06	3.0785e-06	476.94	215.89	163.49	76.004	3.1536e-06	96.976	263.316	257.957	304.961	186.797	336.001	330.518	185.673	191.445	312.780	342.387	189.724	193.845	195.454	200.574	294.717	198.166	-8191	255	
27521.074	1	1	0	0	0.24396	0.13397	0.10877	0.011379	0.27278	0.15824	0.22738	0.23795	0.22109	0.07669	0.30059	0.45491	0.086765	0.22928	0.12965	0.29115	-1.7271	-1.7708	-1.7917	-2.325	-1.875	-1.8646	-2.4542	-1.6938	-2.2542	-2.0667	-1.9979	-2.325	-2.075	-2.0333	-2.2438	-2.0062	348.300	287.635	249.854	435.391	363.838	507.946	193.006	509.179	261.383	496.727	462.315	496.311	237.148	476.420	178.151	195.366	0.00098042	0.00040421	0.00022125	932.79	7.4518e-06	7.1095e-06	1053.9	426.63	8.0877e-06	5.9931e-06	495.38	220.93	168.64	77.102	7.7779e-06	98.512	0.00036195	0.0002778	7.8777e-05	913.61	3.0952e-06	3.0317e-06	1033.1	419.94	3.0897e-06	3.0372e-06	477.9	216.4	163.51	76.109	3.1069e-06	96.889	264.513	226.212	292.124	186.551	335.398	291.086	185.900	191.112	332.371	384.348	189.790	194.101	195.725	200.427	321.863	198.355	-8191	255	
27521.172	1	1	0	0	0.0966	0.21516	0.20673	0.21103	0.067475	0.043191	0.24948	0.37344	0.21873	0.1305	0.14714	0.36244	0.12862	0.3642	0.025698	0.18669	-1.5542	-2.0458	-1.4729	-2.425	-2.0229	-1.9896	-2.5146	-2.1333	-2.0792	-2.2604	-1.7354	-2.3521	-1.8687	-1.9896	-2.3583	-2.1146	198.753	389.819	465.727	514.350	323.224	400.715	513.347	207.083	185.684	382.330	505.919	174.828	400.212	528.435	505.239	501.374	0.00095421	0.00064773	0.00019217	938.81	5.1474e-06	6.4037e-06	1055.2	428.95	6.0623e-06	4.86e-06	493.94	220.84	168.37	76.904	9.2893e-06	98.368	0.00036633	0.00027919	7.9802e-05	916.75	3.1322e-06	3.1005e-06	1033.9	420.33	3.0996e-06	3.0023e-06	477.64	216.55	162.97	75.814	3.16e-06	96.885	264.994	258.873	263.866	187.022	288.496	303.032	185.866	191.129	319.359	377.333	189.874	193.740	196.093	200.460	327.249	197.947	-8191	255	
27521.268	1	1	0	0	0.049072	0.26446	0.073963	0.23084	0.28858	0.2225	0.044495	0.38299	0.13476	0.15937	0.26087	0.25167	0.14865	0.25081	0.16284	0.31301	-1.4708	-2.0625	-1.8312	-2.1896	-2.025	-1.8604	-2.3625	-2.1104	-2.0229	-2.1229	-1.7104	-2.3833	-2.0187	-2.0687	-2.1667	-2.2354	409.791	530.269	378.594	182.030	484.805	495.070	298.697	492.517	419.034	389.111	477.570	415.109	227.189	504.525	299.096	373.846	0.00095602	0.0011586	0.00014508	938.46	7.3944e-06	9.0393e-06	1058.3	430.1	6.1299e-06	5.4463e-06	497.01	219.96	169.03	76.708	8.0532e-06	98.781	0.00036056	0.00027369	7.7969e-05	916.65	3.0664e-06	3.0914e-06	1035.6	420.94	3.1172e-06	3.0172e-06	479.09	216.56	163.69	75.84	3.0755e-06	97.141	266.581	237.037	292.130	186.635	358.593	317.479	186.017	191.241	338.381	355.414	189.793	194.089	195.872	200.561	287.658	198.076	-8191	255	
27521.340	1	1	0	0	0.080722	0.081381	0.24423	0.26334	0.25365	0.24041	0.16541	0.38227	0.10653	0.18643	0.19074	0.15031	0.065675	0.31617	0.16505	0.17559	-1.5187	-2.2562	-1.8062	-1.9375	-2.1229	-1.7437	-2.3187	-2.0917	-1.7333	-2.0792	-1.8021	-2.2208	-2.3104	-1.9208	-2.2146	-2.0958	280.629	463.808	516.178	413.011	436.984	522.494	453.403	505.729	236.691	460.966	484.508	521.920	425.761	454.980	226.371	403.420	0.00093076	0.0008573	0.0001436	929.91	7.0489e-06	9.4624e-06	1057.1	429.63	5.5763e-06	7.3813e-06	497.55	221.26	168.44	77.084	5.7787e-06	98.477	0.00036069	0.00027628	7.7701e-05	913.84	3.0595e-06	2.9985e-06	1032.7	420.63	3.086e-06	2.9379e-06	478.96	216.61	163.41	76.179	2.9988e-06	97.064	264.120	265.196	289.852	186.656	314.646	329.477	185.696	191.432	342.496	342.287	190.055	194.055	195.879	200.437	348.249	197.992	-8191	255	
27521.459	1	1	0	0	0.29586	0.17398	0.095045	0.067768	0.20856	0.14956	0.22948	0.22702	0.21251	0.13347	0.32633	0.2536	0.139	0.055606	0.1942	0.18603	-1.2708	-2.1375	-1.7042	-2.1271	-2.2812	-1.6479	-2.2708	-2.1417	-1.7979	-2.2792	-1.7896	-2.0854	-1.9375	-1.8458	-2.1354	-2.1375	396.485	223.805	286.959	206.516	502.392	236.474	465.360	494.070	230.645	254.745	476.860	491.568	187.197	269.953	423.561	481.051	0.00092616	0.00091462	0.00037804	927.94	7.9252e-06	7.8308e-06	1057	427.8	5.5701e-06	6.6828e-06	499.23	219.87	167.41	76.811	8.3826e-06	98.389	0.00035328	0.00026628	7.3769e-05	909.49	2.9661e-06	2.9773e-06	1032.5	420.02	3.0382e-06	2.9693e-06	480.02	216.37	162.73	75.92	3.0208e-06	97.007	258.543	262.215	275.353	186.843	317.910	337.696	185.768	191.116	317.730	330.497	189.777	193.811	195.945	200.422	322.096	198.146	-8191	255	
27521.555	1	1	0	0	0.32497	0.072625	0.3135	0.41947	0.046589	0.24097	0.23873	0.4746	0.20957	0.2287	0.26824	0.25253	0.31363	0.17308	0.037526	0.11973	-1.1667	-2.1875	-1.7563	-1.8896	-2.3021	-1.6688	-2.1958	-2.1021	-1.7271	-2.2438	-2.0438	-1.9375	-2.2458	-1.9604	-2.0729	-2.3771	200.756	486.898	515.534	459.903	316.569	419.392	528.567	428.802	204.682	330.149	407.632	484.126	478.038	503.892	373.493	508.359	0.0010142	0.0010222	0.00017053	935.58	8.4796e-06	6.9785e-06	1055.5	428.24	6.5993e-06	7.0932e-06	495.71	221.04	168.3	76.437	8.9376e-06	98.332	0.00036246	0.00026671	7.4039e-05	913.15	3.049e-06	3.0242e-06	1035.2	420.38	3.0546e-06	2.9507e-06	478.52	216.4	162.92	75.579	3.1196e-06	96.713	262.340	262.772	295.815	186.592	364.292	290.276	186.053	191.448	321.110	311.343	189.705	193.801	195.801	200.386	313.327	198.173	-8191	255	
27521.652	1	1	0	0	0.43129	0.13069	0.13155	0.15705	0.10111	0.11951	0.28234	0.13744	0.29632	0.090975	0.18116	0.11957	0.25179	0.46354	0.063922	0.33557	-1.4312	-2.2854	-1.7646	-1.9542	-2.2021	-1.6104	-2.25	-2.0187	-1.625	-2.2583	-1.9083	-1.9208	-2.3708	-1.9354	-1.9562	-2.2562	429.789	292.121	334.104	391.312	209.346	337.985	453.042	506.598	406.081	422.978	517.249	260.542	425.177	509.557	395.623	431.351	0.00089752	0.00087273	0.00022519	936.94	9.4272e-06	6.7603e-06	1059.3	427.41	8.0002e-06	7.5227e-06	492.04	220.83	169.75	76.713	6.0432e-06	98.465	0.00035958	0.00027785	7.7963e-05	916.62	2.9969e-06	3.0569e-06	1036.7	419.75	3.1434e-06	2.9855e-06	477.73	216.72	163.83	75.739	3.07e-06	96.945	261.856	248.423	286.460	186.888	355.127	292.923	185.556	191.175	329.773	345.483	189.745	193.912	195.605	200.642	303.994	197.984	-8191	255	
27521.748	1	1	0	0	0.044455	0.10412	0.10261	0.18421	0.099486	0.16954	0.17466	0.33918	0.16051	0.21206	0.11969	0.097597	0.054748	0.30744	0.04228	0.27751	-1.2333	-2.0792	-1.825	-1.8917	-2.1604	-1.6562	-1.9854	-2.1771	-1.65	-2.0271	-2.0042	-1.8979	-2.3063	-1.9854	-2.0521	-2.3208	306.368	532.443	286.702	482.040	409.403	381.555	439.969	435.796	272.745	462.868	498.324	461.153	312.279	196.692	238.944	473.885	0.00092232	0.0010848	0.00027016	938.98	6.6658e-06	5.9159e-06	1056.2	428.1	6.7611e-06	2.6383e-06	490.92	219.86	169.06	77.001	9.0542e-06	98.886	0.00035437	0.000275	7.6306e-05	915.48	3.0456e-06	3.0006e-06	1033.5	420.35	3.094e-06	2.9686e-06	475.57	215.92	163.49	76.176	2.967e-06	97.095	263.404	238.669	272.977	187.207	344.626	331.285	185.600	191.352	334.613	293.850	189.864	193.818	195.846	200.382	323.910	197.972	-8191	255	
27521.867	1	1	0	0	0.14271	0.22217	0.069611	0.12136	0.24294	0.31281	0.14065	0.33505	0.053596	0.20002	0.1908	0.27317	0.10228	0.21408	0.12856	0.31135	-1.2458	-1.8896	-2.0062	-1.8438	-2.15	-1.9542	-2.0458	-2.4229	-1.7104	-2.0521	-2.2208	-1.8167	-2.3854	-1.7917	-1.9083	-2.5625	515.941	186.081	262.253	175.578	440.641	511.111	485.876	501.611	279.556	173.223	182.605	425.480	452.466	511.886	311.449	436.680	0.00093825	0.0011587	0.00022129	930.33	8.1506e-06	6.8698e-06	1056.8	427.71	7.7135e-06	8.1289e-06	495.33	221.13	169.52	77.833	9.531e-06	99.681	0.000354	0.00026507	7.5521e-05	910.82	2.9013e-06	2.9183e-06	1033.9	420.1	3.0956e-06	2.9374e-06	477.28	216.97	164.28	76.886	3.0228e-06	98.177	261.932	236.520	265.144	186.820	339.970	314.951	185.666	191.085	345.971	338.638	189.752	193.738	195.511	200.553	300.448	198.300	-8191	255	
27521.939	1	1	0	0	0.077776	0.082303	0.39977	0.25426	0.038658	0.08819	0.09099	0.156	0.063191	0.12979	0.23414	0.4987	0.14733	0.28686	0.12194	0.24395	-1.3208	-1.9604	-1.9604	-1.8813	-1.9937	-1.8146	-1.9458	-2.3792	-1.5625	-2.0708	-2.2708	-1.7979	-2.1646	-2.0812	-1.8312	-2.4062	453.458	217.724	289.632	314.407	212.356	363.163	441.878	456.116	521.478	401.202	479.096	478.330	447.090	480.064	286.481	518.437	0.00094983	0.00085083	0.00022445	931.37	8.2398e-06	7.0778e-06	1056.5	428.12	6.5427e-06	6.2423e-06	497.49	222.07	170.65	78.577	7.8598e-06	100.52	0.00035696	0.00025645	7.4074e-05	909.48	2.8992e-06	2.8939e-06	1034.4	421.34	2.9848e-06	2.8614e-06	479.82	218.44	165.37	77.528	3.0106e-06	98.87	262.973	241.848	286.033	186.469	349.372	337.427	185.824	191.377	343.760	331.418	189.318	193.913	196.036	200.504	306.111	198.020	-8191	255	
27522.035	1	1	0	0	0.34793	0.37881	0.26118	0.21031	0.17368	0.06274	0.24081	0.23564	0.36553	0.33638	0.14452	0.38009	0.35606	0.16125	0.07896	0.16224	-1.2771	-1.9396	-2.0187	-1.6625	-2.1792	-2.1	-2.0333	-2.3896	-1.6979	-2.0042	-2.0625	-1.9667	-2.05	-2.1458	-1.8438	-2.5062	331.767	307.693	441.296	452.772	208.129	524.000	503.876	470.492	233.776	363.257	450.682	488.342	527.720	489.200	373.693	386.551	0.00094737	0.00038365	0.00014703	933.32	7.829e-06	4.732e-06	1059.7	430	8.7756e-06	7.9355e-06	497.27	222.91	171.5	77.909	1.0039e-05	101.09	0.00035383	0.00026211	7.5222e-05	912.84	2.9395e-06	2.9387e-06	1037.2	421.63	2.9641e-06	2.91e-06	479.72	218.7	164.91	77.205	2.9952e-06	98.811	261.932	235.017	263.617	186.439	324.035	330.870	185.765	191.284	332.334	336.828	189.685	194.001	195.845	200.489	329.541	197.877	-8191	255	
27522.154	1	1	0	0	0.15998	0.1635	0.21903	0.10709	0.087359	0.43523	0.14797	0.25893	0.12791	0.006351	0.17898	0.2342	0.23256	0.21705	0.2771	0.16813	-1.4042	-1.6646	-2.1583	-1.8271	-2.1667	-1.8583	-1.8271	-2.0958	-1.9312	-1.9479	-2.1063	-1.8271	-2.1375	-2.1375	-1.5812	-2.2687	268.343	527.699	249.747	402.374	473.177	289.710	468.421	479.394	472.634	337.209	491.660	488.703	444.294	511.536	245.312	388.242	0.00099468	0.00071054	0.00019528	931.61	9.6435e-06	7.6744e-06	1057.2	426.3	6.028e-06	8.9376e-06	494.17	221.46	169.06	78.188	9.4586e-06	99.135	0.00035054	0.00026485	7.2273e-05	909.59	2.8375e-06	2.8792e-06	1033.9	419.39	2.9281e-06	2.8546e-06	478.71	217.16	163.73	77.134	2.8573e-06	97.78	264.341	250.090	252.960	186.416	343.256	310.558	185.837	191.262	326.304	333.667	189.128	193.724	195.594	200.323	298.772	197.897	-8191	255	
27522.252	1	1	0	0	0.38073	0.146	0.14802	0.34544	0.071718	0.21481	0.52284	0.27739	0.21711	0.0807	0.24101	0.21541	0.14646	0.58074	0.11192	0.42531	-1.6021	-1.8333	-2.0333	-1.7292	-1.9188	-2.1104	-1.8292	-2.2521	-1.9813	-1.7271	-2.3083	-2.0021	-1.8354	-2.1958	-1.6542	-2.1042	361.101	336.197	178.402	505.765	244.508	296.799	474.085	513.980	352.012	384.024	514.670	291.159	272.150	174.776	467.829	499.594	0.0009436	0.00069039	0.00016655	922.96	6.4655e-06	9.9145e-06	1049.1	427.25	8.2298e-06	5.9464e-06	497.9	222.08	170.79	78.297	4.3079e-06	99.828	0.00034916	0.00025881	7.3119e-05	905.27	2.8207e-06	2.8023e-06	1029.7	419.66	2.9001e-06	2.7781e-06	478.18	217.58	164.72	77.191	2.8574e-06	98.207	262.385	269.476	294.664	186.691	300.395	334.407	185.590	191.326	332.425	345.583	189.771	193.700	195.847	200.535	345.390	198.281	-8191	255	
27522.348	1	1	0	0	0.366	0.20793	0.18953	0.10002	0.067507	0.03176	0.37627	0.30108	0.12556	0.089331	0.032324	0.032327	0.18113	0.32957	0.15675	0.14697	-1.3729	-1.6729	-2.1646	-1.8646	-1.9438	-2.2854	-1.8167	-2.2979	-1.9875	-1.6979	-2.2417	-2.1125	-1.9896	-2.4021	-1.5958	-2.1958	469.471	427.522	399.954	474.494	429.802	247.489	527.803	479.750	177.432	262.442	352.825	464.551	317.902	494.281	269.074	457.287	0.00096234	0.00062102	0.00018631	929.5	6.5138e-06	5.3556e-06	1052.7	428.73	8.6232e-06	9.0038e-06	498.96	224.24	171.69	79.089	7.7638e-06	100.54	0.00034502	0.00025745	7.1125e-05	910.55	2.7975e-06	2.7623e-06	1032.3	421.21	2.8956e-06	2.7816e-06	480.28	219.2	165.71	78.068	2.8996e-06	99.152	265.762	240.492	301.770	186.645	350.386	320.118	185.515	191.311	324.688	363.004	189.740	193.834	195.749	200.629	311.794	197.802	-8191	255	
27522.443	1	1	0	0	0.25163	0.18857	0.12673	0.14045	0.17055	0.14155	0.29066	0.20471	0.23272	0.10871	0.17314	0.022327	0.26463	0.11183	0.17865	0.33775	-1.6542	-1.5958	-2.0083	-1.8083	-1.8521	-2.2	-1.9146	-2.3563	-1.9625	-1.7229	-2.1125	-2.0104	-1.8563	-2.3167	-1.8167	-1.9979	353.228	235.873	339.115	423.909	531.325	509.228	227.055	460.291	453.712	515.874	438.179	214.439	188.608	236.525	376.791	522.069	0.00098301	0.0012121	0.00024077	925.65	1.0204e-05	8.1724e-06	1054.1	429.54	6.4678e-06	8.4228e-06	499.93	223.01	173.03	78.665	6.864e-06	100.7	0.0003459	0.00026188	7.1135e-05	909.47	2.8187e-06	2.7965e-06	1034.7	421.12	2.9687e-06	2.8448e-06	480.15	218.83	165.7	77.953	2.9514e-06	99.058	261.339	239.193	282.837	186.688	329.913	300.048	185.707	191.374	315.685	338.316	189.699	193.859	195.919	200.242	298.380	198.071	-8191	255	
27522.564	1	1	0	0	0.13891	0.040598	0.30201	0.34582	0.19491	0.10355	0.26449	0.28292	0.093852	0.11126	0.078587	0.25719	0.26489	0.39104	0.085861	0.32941	-1.5604	-1.5125	-2.0646	-1.8958	-1.9021	-2.3333	-1.9917	-2.1437	-2.0896	-1.6875	-2.1646	-2.0812	-1.8167	-2.2792	-1.825	-2.2062	428.945	400.257	394.124	490.742	322.536	330.154	452.849	453.602	192.741	415.469	308.005	514.101	227.808	518.067	522.350	497.547	0.00090022	0.00078139	0.00012291	931.84	8.0215e-06	1.0375e-05	1054.8	425.47	7.319e-06	8.3704e-06	490.6	222.46	170.04	78.239	7.2746e-06	100.19	0.00034387	0.00025754	7.1978e-05	911.92	2.8218e-06	2.8163e-06	1035.6	419.27	2.9441e-06	2.838e-06	477.42	218.15	164.74	77.394	2.8893e-06	98.502	263.166	239.841	267.833	186.645	336.595	333.313	185.805	191.046	324.667	328.509	189.418	193.812	195.658	200.360	316.044	197.958	-8191	255	
27522.637	1	1	0	0	0.16735	0.23859	0.055387	0.19789	0.25179	0.20738	0.44203	0.48512	0.087086	0.45154	0.20706	0.26079	0.32547	0.39715	0.26463	0.13404	-1.7062	-1.6792	-2.1188	-2.0833	-1.5625	-2.2021	-2.0875	-2.1479	-2.125	-1.6979	-2.2146	-2.1604	-1.725	-2.1833	-1.9167	-1.8854	221.201	368.550	377.334	373.604	324.609	333.535	471.172	489.587	407.688	319.558	487.398	427.473	489.962	526.274	369.724	350.709	0.00098379	0.0011432	0.0001896	928.03	8.0364e-06	5.1804e-06	1055.9	426.68	8.3719e-06	8.2416e-06	494.49	221.5	170.62	78.977	5.514e-06	100.47	0.0003457	0.00025619	7.0678e-05	909.86	2.8341e-06	2.7891e-06	1030.8	418.86	2.8085e-06	2.7875e-06	476.98	217.75	165.45	78.022	2.8607e-06	99.29	264.729	263.381	266.971	186.411	360.668	311.773	185.651	191.340	327.536	325.502	189.917	193.887	196.214	200.319	296.942	197.943	-8191	255	
27522.732	1	1	0	0	0.051909	0.17614	0.33268	0.1654	0.26421	0.12536	0.53465	0.39181	0.15226	0.15731	0.12172	0.18865	0.13902	0.026529	0.18986	0.47073	-1.7	-1.8271	-1.8625	-1.9229	-1.7479	-2.1021	-2.1271	-2.0104	-2.1562	-1.7479	-2.0417	-2.3125	-1.525	-2.3979	-1.9125	-1.9167	329.380	326.456	305.739	181.887	366.725	288.985	525.176	509.577	447.161	466.355	217.242	464.200	509.717	487.833	374.558	465.043	0.00095689	0.0011033	0.00029477	934.97	9.1655e-06	1.0511e-05	1057	427.01	5.3809e-06	7.3052e-06	493.06	223.59	172.13	79.148	1.0858e-05	100.69	0.00033627	0.00024725	7.1016e-05	910.33	2.7277e-06	2.7273e-06	1035.3	420.02	2.7839e-06	2.773e-06	477.41	219.37	165.91	78.218	2.9305e-06	99.251	263.701	242.159	303.537	186.559	319.536	333.813	185.736	191.257	297.950	335.885	189.513	194.043	195.889	200.461	338.644	197.847	-8191	255	
27522.854	1	1	0	0	0.35529	0.18833	0.20416	0.28705	0.079343	0.26537	0.4024	0.20422	0.1459	0.12412	0.36142	0.40774	0.30029	0.24916	0.44639	0.10944	-1.9625	-1.8208	-1.85	-2.0646	-1.6333	-2.1208	-2.15	-1.9917	-2.3896	-1.8521	-1.9167	-2.2271	-1.7833	-2.3042	-2.0292	-1.9021	357.945	422.521	175.820	426.743	525.873	309.814	456.117	473.191	291.723	293.576	497.573	480.515	453.387	178.406	378.822	185.900	0.00096162	0.0011141	0.00021497	933.3	8.572e-06	4.7041e-06	1060	424.82	9.3014e-06	9.416e-06	490.66	220.05	169.91	77.442	7.8332e-06	98.734	0.00034158	0.00025215	7.2142e-05	912.35	2.7634e-06	2.7894e-06	1034.4	416.73	2.9618e-06	2.9609e-06	472.59	215.78	164.53	76.372	3.0576e-06	97.138	264.735	243.947	284.705	186.467	344.123	287.418	185.679	191.210	332.281	315.916	189.419	193.802	195.538	200.514	324.169	198.086	-8191	255	
27522.947	1	1	0	0	0.1776	0.078938	0.26815	0.30718	0.070429	0.16619	0.2704	0.31706	0.31756	0.13039	0.24442	0.51222	0.079896	0.27386	0.099549	0.16018	-1.7271	-1.8729	-1.8604	-2.2188	-1.6313	-2.2375	-2.2292	-1.8708	-2.1375	-1.8875	-2.0083	-2.2604	-1.6437	-2.3167	-2.075	-1.8667	205.439	415.013	415.421	476.055	188.976	214.894	450.293	461.658	481.672	322.843	516.320	477.857	279.840	514.098	507.687	501.475	0.00094483	0.0010023	0.00018725	933.83	5.0652e-06	9.9951e-06	1054.5	421.32	8.2843e-06	1.0089e-05	486.99	219.44	170.47	77.374	8.7087e-06	98.998	0.00035145	0.00027135	7.4286e-05	913.94	2.96e-06	2.8887e-06	1034.2	414.27	2.9869e-06	2.975e-06	471.62	215.24	164.12	76.265	3.0133e-06	97.246	264.993	233.773	296.035	186.621	359.423	329.368	185.817	191.156	324.112	344.966	189.935	193.874	196.060	200.403	344.955	197.971	-8191	255	
27523.043	1	1	0	0	0.18691	0.13084	0.17016	0.073252	0.16288	0.33803	0.32576	0.14422	0.19923	0.11077	0.28612	0.17006	0.16508	0.23668	0.11659	0.20066	-1.7208	-2.1042	-1.7375	-2.1708	-1.7354	-1.9792	-2.2979	-1.8333	-2.1771	-2.1729	-1.9792	-2.3104	-1.8708	-2.1125	-2.1042	-1.8375	179.242	520.978	210.868	302.545	209.140	414.118	510.644	452.617	237.816	369.124	520.560	500.177	280.199	494.689	240.519	189.076	0.0010063	0.00088005	0.0002556	934.95	8.5023e-06	6.927e-06	1052.2	424.11	7.6696e-06	6.3061e-06	492.56	218.74	170.07	77.705	7.743e-06	98.97	0.00035345	0.00026483	7.4118e-05	911.09	2.8677e-06	2.8813e-06	1029	416.14	2.9216e-06	2.8362e-06	473.2	215.07	164.53	76.692	2.8509e-06	97.174	261.369	242.269	278.044	186.449	338.758	279.228	185.678	191.227	324.887	353.197	189.864	193.888	195.740	200.457	309.181	197.879	-8191	255	
27523.164	1	1	0	0	0.14044	0.15871	0.21021	0.16988	0.29338	0.063395	0.25231	0.23548	0.033346	0.12037	0.22334	0.15536	0.12208	0.25377	0.061466	0.29856	-1.7938	-1.9042	-1.6125	-2.5042	-1.6375	-1.9792	-2.3729	-1.9729	-2.0833	-2.0896	-1.7604	-2.3146	-2.0208	-1.9583	-2.0708	-2.0563	192.018	408.335	438.097	505.966	185.067	344.683	447.788	404.795	309.472	309.406	497.076	444.930	526.479	512.938	333.854	485.281	0.00094748	0.00099478	0.00026892	931.43	7.0363e-06	9.3609e-06	1053.5	423.79	8.3328e-06	6.3496e-06	488.46	220.32	169.36	77.628	7.7009e-06	99.572	0.00034828	0.00026084	7.2839e-05	910.7	2.8153e-06	2.8094e-06	1028.5	414.79	2.8819e-06	2.8522e-06	472.65	215.26	163.99	76.777	2.9048e-06	97.824	265.480	261.838	282.362	186.411	351.071	320.794	185.734	191.114	325.297	396.475	189.441	193.945	195.611	200.518	338.178	198.064	-8191	255	
27523.234	1	1	0	0	0.056215	0.15596	0.099695	0.15271	0.39146	0.26819	0.13985	0.30681	0.087923	0.023238	0.10501	0.4534	0.062058	0.28407	0.12734	0.30677	-1.6354	-1.9354	-1.7687	-2.3667	-1.7687	-1.9542	-2.3875	-1.8417	-2.1792	-2.0521	-1.7979	-2.2708	-1.8	-2.0625	-2.3229	-1.7	319.657	367.640	422.367	493.182	194.823	469.620	469.613	480.623	350.185	192.652	405.190	448.274	301.180	511.192	221.818	453.701	0.00094879	0.0010089	0.00020649	927.45	6.338e-06	7.7068e-06	1051.2	424.21	7.7121e-06	4.8021e-06	492.7	220.44	169.95	78.093	8.1327e-06	99.854	0.00034207	0.00026158	7.1704e-05	908.7	2.8008e-06	2.7214e-06	1029.4	416.03	2.8303e-06	2.7622e-06	473.59	216.43	164.22	77.254	2.7907e-06	98.291	263.186	240.373	248.923	186.714	319.108	280.580	185.681	191.222	341.411	385.480	189.763	193.776	195.927	200.273	313.030	197.975	-8191	255	
27523.332	1	1	0	0	0.26115	0.19411	0.082904	0.17056	0.25309	0.067891	0.25246	0.22529	0.13101	0.23115	0.19132	0.27296	0.093322	0.077929	0.1541	0.48342	-1.5958	-1.9458	-1.7021	-2.2438	-2.0271	-1.8708	-2.2521	-1.975	-1.8729	-2.3292	-1.8021	-2.2604	-1.8854	-1.9458	-2.1875	-2.125	312.563	460.949	391.571	293.166	307.838	437.136	501.122	505.353	405.131	468.834	307.716	178.813	313.453	520.428	282.242	509.370	0.0010361	0.00090061	0.00019655	927.68	8.3489e-06	1.0734e-05	1049	423.06	8.4686e-06	5.0437e-06	491.71	220.19	168.36	77.654	6.9874e-06	99.23	0.00033717	0.00025255	7.1295e-05	904.88	2.7473e-06	2.6984e-06	1028.4	415.39	2.7708e-06	2.6953e-06	475.35	216.09	163.17	76.641	2.8097e-06	97.455	261.926	265.462	291.222	186.742	324.000	327.053	185.664	191.198	332.591	325.603	189.740	193.833	195.571	200.549	308.666	197.932	-8191	255	
27523.428	1	1	0	0	0.20539	0.21053	0.21181	0.10558	0.14284	0.20362	0.32174	0.47071	0.19545	0.31388	0.1398	0.21501	0.39271	0.16154	0.052568	0.13914	-1.525	-2.1188	-1.4667	-2.1729	-1.8521	-1.6688	-2.4583	-1.9708	-1.8438	-2.3312	-1.675	-2.1437	-2.0167	-2.0625	-2.15	-2.0229	395.614	220.546	439.621	522.365	413.325	403.888	472.583	494.125	399.711	437.064	413.013	448.928	204.742	184.334	303.458	516.996	0.00092678	0.0010839	0.00020181	924.5	6.8988e-06	4.4265e-06	1047.5	421.05	3.5876e-06	6.9052e-06	489.7	218.26	168.51	76.56	5.7033e-06	97.265	0.00033505	0.00024589	6.9896e-05	903.39	2.6548e-06	2.7378e-06	1023.3	413.16	2.7547e-06	2.6941e-06	471.14	214.02	162.42	75.73	2.6987e-06	95.897	262.808	237.005	273.940	186.951	311.134	344.714	185.851	191.220	317.493	332.295	189.964	194.031	195.774	200.594	317.266	198.085	-8191	255	
27523.523	1	1	0	0	0.043621	0.15796	0.31951	0.25838	0.15354	0.23923	0.2158	0.30244	0.10367	0.069483	0.13991	0.21379	0.31762	0.41893	0.24552	0.20363	-1.425	-2.1354	-1.5979	-1.9312	-1.8854	-1.575	-2.3458	-2.0146	-1.7167	-2.2479	-1.8646	-2.2104	-2.1271	-1.8042	-2.0417	-2.1208	525.237	402.128	342.653	486.235	304.469	285.859	467.654	479.074	352.993	249.740	231.112	384.673	467.545	190.776	329.405	470.125	0.00095338	0.00071878	0.00022791	923.68	8.2952e-06	3.6171e-06	1046.3	420.43	4.1828e-06	1.1537e-06	486.81	216.7	167.92	75.927	9.08e-06	96.648	0.00033616	0.00024768	6.9732e-05	902.01	2.7321e-06	2.7637e-06	1022.8	412.3	2.8273e-06	2.705e-06	470.45	212.76	162.14	75.13	2.845e-06	95.35	263.833	261.548	268.643	186.454	339.433	300.182	185.710	191.239	337.588	403.744	189.753	193.894	196.190	200.522	332.637	197.911	-8191	255	
27523.645	1	1	0	0	0.17379	0.16483	0.05339	0.22521	0.046586	0.16229	0.15206	0.31078	0.085045	0.10235	0.11321	0.061756	0.24233	0.19522	0.28789	0.24367	-1.1479	-1.9896	-1.7021	-1.9146	-2.0667	-1.8271	-2.2062	-2.0646	-1.7979	-2.0875	-1.8646	-2.1813	-2.0542	-1.9854	-1.9646	-2.0563	185.080	283.911	254.058	222.600	219.791	449.266	463.831	474.427	204.407	343.970	478.622	345.778	513.670	441.354	489.297	479.295	0.00091987	0.00078934	0.00021605	926.5	1.0597e-05	9.0966e-06	1047.1	420.32	8.8315e-06	6.5942e-06	484.45	217.14	169.05	76.517	9.1436e-06	97.507	0.00033625	0.00025656	7.1494e-05	907.31	2.8075e-06	2.719e-06	1026.5	412.6	2.8381e-06	2.8081e-06	469.94	213.16	162.91	75.607	2.7758e-06	96.054	265.068	242.508	276.498	186.661	321.436	314.260	185.710	191.365	334.743	316.626	189.831	193.694	195.789	200.621	329.506	198.065	-8191	255	
27523.740	1	1	0	0	0.15774	0.090603	0.12709	0.25703	0.15173	0.25962	0.144	0.077325	0.24043	0.26804	0.24648	0.36072	0.32874	0.15607	0.043737	0.15282	-1.3646	-2.1583	-1.9417	-1.7812	-2.1708	-1.7521	-2.0542	-2.0833	-1.6396	-2.0417	-1.8854	-1.9854	-2.15	-1.9417	-2.1562	-2.4396	506.409	423.639	467.898	450.581	333.192	472.604	437.344	337.424	300.778	281.582	395.595	221.507	507.985	233.517	175.788	464.295	0.0009125	0.00076104	0.00017207	930.26	5.2096e-06	8.9395e-06	1052	421.84	6.3634e-06	3.6486e-06	486.69	218.65	169.28	76.74	5.9761e-06	97.956	0.00032933	0.00025409	7.0894e-05	907.68	2.7623e-06	2.7497e-06	1029.5	412.71	2.8681e-06	2.7736e-06	470.56	214.35	163.14	75.777	2.8489e-06	96.195	261.730	259.774	258.391	186.543	322.464	291.355	185.896	191.290	315.439	356.708	189.929	193.776	195.775	200.582	288.763	197.851	-8191	255	
27523.838	1	1	0	0	0.1632	0.091555	0.18085	0.1598	0.141	0.13689	0.27876	0.38945	0.086089	0.26307	0.054538	0.068671	0.22441	0.2159	0.32529	0.20444	-1.175	-2.1937	-1.7646	-1.8563	-2.1125	-1.5938	-2.1896	-2.125	-1.5938	-2.1417	-1.7979	-1.9479	-2.0563	-1.9229	-1.9875	-2.2979	515.644	288.011	530.364	492.692	395.249	384.188	489.022	467.301	315.952	370.934	378.649	466.943	465.990	497.923	414.045	508.985	0.00096838	0.00055675	0.00015301	926.55	9.0621e-06	1.1386e-05	1044.7	418.59	3.1582e-06	4.966e-06	486.45	216.16	167.65	76.42	8.9906e-06	96.701	0.00034499	0.00025672	6.8723e-05	905.21	2.7698e-06	2.771e-06	1023.2	411.53	2.9179e-06	2.7792e-06	469.2	212.38	162.16	75.378	2.8163e-06	95.263	263.532	240.892	291.652	186.597	326.747	318.455	185.556	191.125	312.361	349.276	189.463	193.807	195.445	200.354	304.180	197.900	-8191	255	
27523.934	1	1	0	0	0.10585	0.10954	0.12119	0.17584	0.19161	0.27384	0.12278	0.16667	0.022236	0.09127	0.33994	0.32726	0.22017	0.31083	0.086899	0.38443	-1.2792	-1.9312	-1.6938	-1.8625	-2.1875	-1.8854	-2.1	-2.1917	-1.7875	-2	-2.0354	-1.8937	-2.225	-2.1646	-1.9083	-2.1104	304.789	348.183	307.419	229.861	390.580	430.647	466.098	479.817	270.392	451.933	265.802	183.262	273.002	501.309	369.753	484.868	0.00096185	0.00055967	0.00028301	924.13	8.6705e-06	7.6156e-06	1043.7	418.53	6.9573e-06	5.4103e-06	481.77	215.17	166.72	75.704	6.5812e-06	95.316	0.00034122	0.00025398	7.105e-05	904.39	2.806e-06	2.7792e-06	1020.1	410.4	2.8622e-06	2.7784e-06	466.98	210.92	161.61	74.667	2.849e-06	94.18	264.212	245.049	278.827	186.493	309.447	309.197	185.714	191.150	335.668	326.897	189.658	193.698	195.928	200.439	297.027	197.881	-8191	255	
27524.029	1	1	0	0	0.15248	0.18325	0.33515	0.097456	0.24167	0.094576	0.49797	0.23656	0.080773	0.15806	0.27143	0.2401	0.046761	0.21781	0.15058	0.21531	-1.2521	-1.9875	-1.9	-1.7062	-2.0521	-1.9042	-1.8625	-2.4292	-1.6208	-1.875	-2.0812	-1.9438	-2.1917	-1.9333	-1.7729	-2.3083	300.816	369.901	495.524	431.362	282.009	202.437	472.766	478.349	290.947	186.473	434.506	419.450	356.930	214.449	204.381	469.512	0.00099439	0.00069302	0.00019692	920.15	4.3558e-06	1.205e-05	1040.4	414.85	6.6166e-06	2.7732e-06	476.37	213.78	166.19	74.757	8.6638e-06	94.977	0.00035003	0.00025999	7.2464e-05	901.68	2.8504e-06	2.8496e-06	1017.8	407.89	2.9081e-06	2.7884e-06	465.65	209.62	160.47	73.73	2.9329e-06	93.697	262.695	253.383	266.473	186.696	301.276	300.593	185.895	191.103	356.396	354.422	189.584	193.821	195.902	200.479	315.340	197.943	-8191	255	
27524.125	1	1	0	0	0.059965	0.090773	0.078801	0.16912	0.25087	0.19835	0.057912	0.11158	0.25219	0.15533	0.024893	0.18158	0.23665	0.22979	0.17793	0.2539	-1.4604	-2.0646	-1.8771	-1.775	-2.1229	-2.0979	-1.9062	-2.4375	-1.775	-2.075	-2.1333	-1.5729	-2.0125	-1.9479	-1.8	-2.3417	221.899	525.760	480.880	428.018	233.482	366.462	243.344	415.959	419.598	479.618	281.851	178.770	423.841	210.267	358.188	444.529	0.00095888	0.0007161	6.785e-05	931.04	7.5394e-06	1.1947e-05	1043.9	414.58	7.7307e-06	6.343e-06	481.25	213.15	165.2	74.607	1.0017e-05	95.862	0.0003497	0.00026233	7.4373e-05	905.82	2.9634e-06	2.9373e-06	1021.1	408.47	3.0343e-06	2.9925e-06	464.75	210.3	160.47	73.824	3.1221e-06	94.075	263.568	266.123	290.069	186.630	335.435	342.706	185.725	191.352	331.563	343.950	189.997	193.968	195.609	200.342	293.381	197.926	-8191	255	
27524.244	1	1	0	0	0.084208	0.14149	0.10231	0.15915	0.14506	0.095973	0.30985	0.2741	0.21536	0.25353	0.2231	0.12852	0.1533	0.28311	0.16866	0.28049	-1.3646	-1.7979	-1.9479	-1.7958	-2.0417	-2.0187	-1.9208	-2.3812	-1.8479	-2.0083	-2.1667	-1.75	-2.1104	-2.0792	-1.7729	-2.4375	392.754	379.339	221.726	487.033	204.863	430.667	446.597	478.856	468.281	250.488	522.162	430.712	251.580	476.499	329.859	502.279	0.00099418	0.00057368	0.00023007	926.72	6.5869e-06	7.3017e-06	1041	415.82	5.7809e-06	8.606e-06	481.67	213.82	166.24	75.289	8.0872e-06	95.436	0.00036252	0.00026934	7.3902e-05	904.27	2.9589e-06	2.985e-06	1020.1	408.72	3.0903e-06	2.9503e-06	464.57	210.15	160.77	74.222	2.9806e-06	93.926	263.646	259.174	268.239	186.665	344.462	311.614	185.536	191.100	295.044	344.149	189.706	193.794	195.658	200.648	324.164	197.939	-8191	255	
27524.340	1	1	0	0	0.12379	0.13952	0.43479	0.23461	0.14918	0.47298	0.33175	0.31722	0.21592	0.20738	0.13828	0.096504	0.014695	0.063243	0.09273	0.32813	-1.5271	-1.7146	-2.1479	-1.7979	-1.9854	-2.1083	-1.8521	-2.1792	-2.0125	-1.7833	-2.2042	-2.0042	-1.9583	-2.125	-1.7646	-2.4875	340.148	424.574	385.272	383.591	325.700	354.133	463.059	440.720	173.564	327.235	201.637	502.891	338.020	320.697	383.948	476.097	0.00099775	0.0011398	0.00010038	923.64	5.2865e-06	9.4005e-06	1034.7	415.34	6.1348e-06	6.1919e-06	483.05	213.59	166.47	74.985	9.8554e-06	96.014	0.00035312	0.00027035	7.4998e-05	900.64	2.9266e-06	2.8716e-06	1016.3	407.73	2.9433e-06	2.8818e-06	464.54	209.52	160.31	74.156	2.9412e-06	94.239	262.061	247.970	280.626	186.812	303.349	314.883	185.944	191.181	334.808	351.070	189.982	193.845	196.007	200.528	303.917	197.990	-8191	255	
27524.436	1	1	0	0	0.14804	0.085322	0.18386	0.21837	0.13829	0.18068	0.37905	0.29757	0.13397	0.098414	0.1641	0.2738	0.24823	0.22443	0.27851	0.26419	-1.45	-1.8687	-2.2729	-1.6875	-1.8896	-2.3125	-1.9104	-2.2146	-2.0354	-1.9167	-2.325	-1.8146	-2.0542	-2.3333	-1.8521	-2.3	318.103	335.715	250.837	447.661	419.631	510.015	523.467	457.473	439.139	424.447	348.627	482.297	398.180	502.997	486.582	175.702	0.00094469	0.00092799	0.00019019	917.91	1.1282e-05	6.324e-06	1038.6	414.48	7.5817e-06	8.2709e-06	482.8	214.48	166.27	75.08	7.9974e-06	96.191	0.00034339	0.00025605	7.3717e-05	897.24	2.8844e-06	2.8609e-06	1017.3	407.44	2.9207e-06	2.8434e-06	464.66	210.16	160.69	74.223	2.9981e-06	94.347	263.844	247.145	297.752	186.775	333.970	293.896	185.587	191.081	316.915	354.388	190.030	193.874	195.622	200.524	291.559	197.942	-8191	255	
27524.533	1	1	0	0	0.25555	0.061593	0.15772	0.17177	0.28476	0.054273	0.18837	0.15013	0.20363	0.26464	0.13805	0.33943	0.1028	0.27169	0.15092	0.30509	-1.6313	-1.7875	-2.2562	-1.7021	-1.9292	-2.0979	-1.8354	-2.3542	-2.0521	-1.9125	-2.3521	-2.0812	-2.1708	-2.4271	-1.7	-2.1813	532.236	382.449	473.792	273.561	298.156	173.671	438.832	475.218	358.200	485.693	302.640	484.492	233.871	509.679	429.157	470.185	0.00097508	0.00056544	0.000109	920.03	5.7705e-06	7.4503e-06	1041.6	414.72	5.9954e-06	1.122e-05	483.22	215.66	167.68	75.975	8.3875e-06	96.743	0.00035032	0.00026639	7.4915e-05	902.01	2.9515e-06	2.9112e-06	1021	407.9	2.984e-06	2.8935e-06	464.65	211.02	161.55	74.828	3.0064e-06	95.255	263.192	271.146	273.753	186.488	328.318	333.619	185.785	191.205	311.713	332.109	189.926	193.743	195.676	200.628	326.832	197.949	-8191	255	
#DATA ENDS
