BOXY.EXE: ISS Imagent and Oximeter Data Acquisition Program Version 0.80
Ascii Record File

#ACQ INFORMATION
2  Detector Channels 
16  External MUX Channels 
1  Auxiliary Channels 
5000  Waveform (CCF) Frequency (Hz)
1  Waveforms Skipped 
30  Waveforms Averaged 
1  Cycles Averaged 
16  Acquisitions per Waveform 
10.0806  Updata Rate (Hz) 

#FILE INFORMATION
TRUE -- External MUX Channel results are PARSED.
FALSE -- AC DC and Phase are NOT grouped.
TRUE -- Companion Program Settings File CREATED.
FALSE -- AC data not excluded
FALSE -- DC data not excluded
FALSE -- Phase data not excluded
FALSE -- Auxillary Chn. data not excluded
Tab delimiters

#CALIBRATION STATE
TRUE -- Waveform Calibration Values APPLIED.


#AUX CALIBRATION VALUES
Val Type	aux-1	

Term	1.0000e+00	
Factor	0.0000e+00	


#WF CALIBRATION VALUES
A = Detector Channel
Val Type	A-AC1	A-AC2	A-AC3	A-AC4	A-AC5	A-AC6	A-AC7	A-AC8	A-AC9	A-AC10	A-AC11	A-AC12	A-AC13	A-AC14	A-AC15	A-AC16	A-DC1	A-DC2	A-DC3	A-DC4	A-DC5	A-DC6	A-DC7	A-DC8	A-DC9	A-DC10	A-DC11	A-DC12	A-DC13	A-DC14	A-DC15	A-DC16	A-Ph1	A-Ph2	A-Ph3	A-Ph4	A-Ph5	A-Ph6	A-Ph7	A-Ph8	A-Ph9	A-Ph10	A-Ph11	A-Ph12	A-Ph13	A-Ph14	A-Ph15	A-Ph16	

Term	0.00000e+00	0.00000e+00	0.00000e+00	0.00000e+00	0.00000e+00	0.00000e+00	0.00000e+00	0.00000e+00	0.00000e+00	0.00000e+00	0.00000e+00	0.00000e+00	0.00000e+00	0.00000e+00	0.00000e+00	0.00000e+00	0.00000e+00	0.00000e+00	0.00000e+00	0.00000e+00	0.00000e+00	0.00000e+00	0.00000e+00	0.00000e+00	0.00000e+00	0.00000e+00	0.00000e+00	0.00000e+00	0.00000e+00	0.00000e+00	0.00000e+00	0.00000e+00	0.00000e+00	0.00000e+00	0.00000e+00	0.00000e+00	0.00000e+00	0.00000e+00	0.00000e+00	0.00000e+00	0.00000e+00	0.00000e+00	0.00000e+00	0.00000e+00	0.00000e+00	0.00000e+00	0.00000e+00	0.00000e+00	
Factor	1.00000e+00	1.00000e+00	1.00000e+00	1.00000e+00	1.00000e+00	1.00000e+00	1.00000e+00	1.00000e+00	1.00000e+00	1.00000e+00	1.00000e+00	1.00000e+00	1.00000e+00	1.00000e+00	1.00000e+00	1.00000e+00	1.00000e+00	1.00000e+00	1.00000e+00	1.00000e+00	1.00000e+00	1.00000e+00	1.00000e+00	1.00000e+00	1.00000e+00	1.00000e+00	1.00000e+00	1.00000e+00	1.00000e+00	1.00000e+00	1.00000e+00	1.00000e+00	X	X	X	X	X	X	X	X	X	X	X	X	X	X	X	X	

B = Detector Channel
Val Type	B-AC1	B-AC2	B-AC3	B-AC4	B-AC5	B-AC6	B-AC7	B-AC8	B-AC9	B-AC10	B-AC11	B-AC12	B-AC13	B-AC14	B-AC15	B-AC16	B-DC1	B-DC2	B-DC3	B-DC4	B-DC5	B-DC6	B-DC7	B-DC8	B-DC9	B-DC10	B-DC11	B-DC12	B-DC13	B-DC14	B-DC15	B-DC16	B-Ph1	B-Ph2	B-Ph3	B-Ph4	B-Ph5	B-Ph6	B-Ph7	B-Ph8	B-Ph9	B-Ph10	B-Ph11	B-Ph12	B-Ph13	B-Ph14	B-Ph15	B-Ph16	

Term	0.00000e+00	0.00000e+00	0.00000e+00	0.00000e+00	0.00000e+00	0.00000e+00	0.00000e+00	0.00000e+00	0.00000e+00	0.00000e+00	0.00000e+00	0.00000e+00	0.00000e+00	0.00000e+00	0.00000e+00	0.00000e+00	0.00000e+00	0.00000e+00	0.00000e+00	0.00000e+00	0.00000e+00	0.00000e+00	0.00000e+00	0.00000e+00	0.00000e+00	0.00000e+00	0.00000e+00	0.00000e+00	0.00000e+00	0.00000e+00	0.00000e+00	0.00000e+00	-1.53398e+02	-1.29654e+02	-1.26074e+02	-1.83912e+02	-7.55620e+01	-6.87672e+01	-1.55668e+02	-1.62015e+02	-8.01815e+01	-7.08960e+01	-1.85569e+02	-1.70567e+02	-1.87259e+02	-1.76693e+02	-7.46193e+01	-1.49436e+02	
Factor	2.31531e-05	1.78356e-04	5.60774e-05	2.30928e-01	1.52510e-06	1.94289e-06	1.64567e-01	5.06850e-02	1.44833e-06	2.13848e-06	2.09326e-01	2.95219e-02	6.28061e-02	8.86269e-03	1.65171e-06	1.24599e-02	1.74899e-05	4.03054e-05	1.13277e-05	1.22350e-01	3.89920e-07	4.56949e-07	8.23138e-02	2.69963e-02	3.70752e-07	4.58795e-07	1.07547e-01	1.53148e-02	3.38387e-02	4.76071e-03	4.01584e-07	6.51452e-03	X	X	X	X	X	X	X	X	X	X	X	X	X	X	X	X	



#DISTANCE SETTINGS
A = Detector Channel
A-1	A-2	A-3	A-4	A-5	A-6	A-7	A-8	A-9	A-10	A-11	A-12	A-13	A-14	A-15	A-16	

2.5000e+00	3.0000e+00	2.5000e+00	3.0000e+00	2.0000e+00	3.0000e+00	1.5000e+00	3.0000e+00	3.0000e+00	3.0000e+00	3.0000e+00	3.0000e+00	3.0000e+00	3.0000e+00	1.5000e+00	3.0000e+00	

B = Detector Channel
B-1	B-2	B-3	B-4	B-5	B-6	B-7	B-8	B-9	B-10	B-11	B-12	B-13	B-14	B-15	B-16	

1.0000e+01	1.0000e+01	1.0000e+01	1.4400e+00	1.0000e+01	1.0000e+01	1.5100e+00	1.9400e+00	1.0000e+01	1.0000e+01	1.9900e+00	2.4900e+00	2.4100e+00	2.9000e+00	1.0000e+01	2.9800e+00	




#DATA BEGINS
time	group	step	mark	flag	A-AC1	A-AC2	A-AC3	A-AC4	A-AC5	A-AC6	A-AC7	A-AC8	A-AC9	A-AC10	A-AC11	A-AC12	A-AC13	A-AC14	A-AC15	A-AC16	A-DC1	A-DC2	A-DC3	A-DC4	A-DC5	A-DC6	A-DC7	A-DC8	A-DC9	A-DC10	A-DC11	A-DC12	A-DC13	A-DC14	A-DC15	A-DC16	A-Ph1	A-Ph2	A-Ph3	A-Ph4	A-Ph5	A-Ph6	A-Ph7	A-Ph8	A-Ph9	A-Ph10	A-Ph11	A-Ph12	A-Ph13	A-Ph14	A-Ph15	A-Ph16	B-AC1	B-AC2	B-AC3	B-AC4	B-AC5	B-AC6	B-AC7	B-AC8	B-AC9	B-AC10	B-AC11	B-AC12	B-AC13	B-AC14	B-AC15	B-AC16	B-DC1	B-DC2	B-DC3	B-DC4	B-DC5	B-DC6	B-DC7	B-DC8	B-DC9	B-DC10	B-DC11	B-DC12	B-DC13	B-DC14	B-DC15	B-DC16	B-Ph1	B-Ph2	B-Ph3	B-Ph4	B-Ph5	B-Ph6	B-Ph7	B-Ph8	B-Ph9	B-Ph10	B-Ph11	B-Ph12	B-Ph13	B-Ph14	B-Ph15	B-Ph16	aux-1	digaux	

33254.145	1	1	0	256	0.048524	0.26057	0.20334	0.13347	0.088091	0.3826	0.18152	0.16138	0.14415	0.15513	0.20226	0.22409	0.028214	0.042651	0.1705	0.21557	-1.3104	-1.8896	-1.9854	-1.7479	-1.7958	-1.8438	-1.6938	-2.0583	-1.6042	-1.7146	-2	-1.6729	-1.9271	-2.0917	-1.3542	-1.9958	-90.908	112.875	-5.485	-64.923	63.775	193.788	-79.453	13.785	32.395	86.488	-47.122	205.534	216.693	-93.171	18.778	122.184	0.00011074	0.00033883	8.2228e-05	1041.4	1.3129e-06	3.5195e-06	1121.7	211.91	1.5984e-06	2.6596e-06	273.25	77.418	59.964	17.942	1.7455e-06	24.97	0.00026209	0.00034428	9.4067e-05	1032.6	3.6847e-06	3.6232e-06	1117.6	213.28	3.6071e-06	3.5681e-06	273.92	78.617	61.914	18.302	3.5925e-06	25.482	176.182	-20.766	-10.623	-100.923	19.451	63.277	-101.051	-93.623	-23.183	50.532	-93.436	-87.169	-86.948	-79.448	12.345	-79.806	-8191	255	
33254.242	1	1	0	0	0.04552	0.16744	0.10342	0.13767	0.078353	0.07459	0.45193	0.15062	0.071562	0.26287	0.10916	0.37817	0.054139	0.46312	0.18946	0.095179	-1.2208	-1.5146	-1.8042	-1.7437	-1.8438	-1.7854	-1.7625	-2.0583	-1.9813	-1.6167	-2.1167	-1.6604	-1.8792	-1.9792	-1.45	-2.2125	150.416	-55.362	141.565	131.557	139.731	36.886	162.533	195.510	-91.391	-70.749	180.048	170.428	152.414	83.426	34.534	41.323	0.0001491	0.00025562	0.00010674	1036.7	1.6559e-06	2.3222e-06	1117.4	213.07	1.1053e-06	2.5196e-06	270.01	76.825	61.071	18.023	1.4843e-06	24.958	0.00026071	0.00033109	8.7247e-05	1029.4	3.7294e-06	3.49e-06	1114.3	212.66	3.5337e-06	3.5843e-06	272.43	78.32	61.973	18.309	3.626e-06	25.517	172.357	-12.233	-25.114	-100.539	62.153	35.203	-100.579	-93.468	-33.691	65.902	-93.804	-87.448	-87.576	-79.644	84.629	-79.971	-8191	255	
33254.316	1	1	0	0	0.1179	0.17894	0.061379	0.45346	0.04375	0.12213	0.13296	0.1499	0.20616	0.075534	0.10937	0.22458	0.14169	0.2621	0.14605	0.17061	-1.25	-1.5312	-2.1417	-1.825	-1.8813	-2.0792	-1.7917	-1.9667	-1.7938	-1.5792	-2.1667	-1.7687	-1.9229	-2.0438	-1.6063	-1.9188	13.539	5.002	144.459	199.418	192.609	156.855	240.757	114.606	182.072	48.518	220.559	211.985	-82.159	190.838	-9.652	58.403	0.00011117	0.00014703	8.5943e-05	1040.3	8.9586e-07	4.0951e-06	1113.7	211.72	6.8853e-07	3.3044e-06	272.14	77.442	60.903	18.002	2.4921e-06	24.968	0.00025615	0.00034856	8.4415e-05	1029.8	3.5036e-06	3.4205e-06	1111.8	212.12	3.4851e-06	3.5518e-06	272.93	78.391	62.176	18.302	3.4185e-06	25.463	176.504	-31.388	-2.717	-100.765	39.785	27.921	-100.731	-93.340	18.047	64.317	-93.970	-87.131	-87.462	-79.553	16.728	-80.023	-8191	255	
33254.434	1	1	0	0	0.28726	0.2248	0.19531	0.11159	0.09293	0.22359	0.26898	0.42593	0.64543	0.25997	0.22908	0.069585	0.44368	0.3132	0.071001	0.22488	-1.5604	-1.8083	-2.1708	-1.8188	-1.7375	-1.9312	-1.9708	-2.1021	-1.8417	-1.4729	-1.9458	-1.8667	-1.6833	-2.1229	-1.5708	-2.0271	70.481	36.245	-95.095	80.023	242.277	70.325	134.979	245.074	53.121	-45.239	-20.264	178.786	181.015	220.531	-14.953	72.960	0.00012546	0.00026713	0.00010247	1043.1	1.3253e-06	1.6778e-06	1123.9	212.65	1.5166e-06	2.3288e-06	269.47	77.872	60.568	17.919	1.397e-06	24.919	0.00025138	0.00031018	8.2102e-05	1031.2	3.385e-06	3.3414e-06	1115.2	213.18	3.2194e-06	3.6073e-06	272.41	78.75	61.899	18.277	3.339e-06	25.552	176.593	-14.838	-26.488	-100.839	22.420	42.439	-100.843	-93.303	-10.084	21.343	-93.829	-87.353	-87.143	-79.571	56.979	-80.056	-8191	255	
33254.531	1	1	0	0	0.18306	0.14849	0.34984	0.24162	0.079024	0.16687	0.21068	0.15278	0.22909	0.11938	0.093509	0.15944	0.059919	0.086741	0.048335	0.23674	-1.4333	-1.6187	-2.1479	-1.9646	-1.675	-2.1042	-1.6313	-1.9042	-1.9354	-1.7875	-1.8729	-1.8333	-1.6479	-2.0792	-1.4396	-1.8979	108.578	111.715	127.165	-38.331	87.624	181.734	149.853	190.293	89.144	21.027	83.407	181.612	180.777	-60.278	-8.076	195.941	0.00014184	0.00031341	0.0001043	1042	1.4223e-06	1.7222e-06	1121.6	212.13	1.4364e-06	4.0112e-06	273.15	77.852	60.879	18.045	2.3604e-06	24.806	0.00024701	0.00031363	7.9412e-05	1030.2	3.6165e-06	3.2462e-06	1116.2	212.83	3.441e-06	3.483e-06	272.88	78.53	62.144	18.35	3.411e-06	25.509	183.581	-11.900	14.651	-100.754	40.137	47.655	-101.101	-93.547	11.055	56.609	-93.938	-87.157	-86.884	-79.556	11.827	-79.833	-8191	255	
33254.629	1	1	0	0	0.24285	0.20656	0.27912	0.31191	0.33396	0.099308	0.26532	0.084793	0.13535	0.33646	0.21031	0.093496	0.10262	0.29909	0.14718	0.41979	-1.6	-1.5792	-2.2167	-2.0583	-1.775	-2.1667	-1.7458	-1.6437	-2.0563	-1.6417	-1.7396	-2.0625	-1.3896	-2.0875	-1.8417	-1.9	228.890	146.476	93.573	195.645	22.952	151.092	189.690	56.012	-75.325	244.110	75.552	117.763	-85.585	69.548	-76.365	175.911	0.00013484	0.00029332	6.8725e-05	1033.8	2.3039e-06	3.5354e-06	1114.4	212.11	4.6275e-07	2.1089e-06	272.64	77.539	60.044	17.828	1.6524e-06	24.87	0.00024825	0.00029717	8.6563e-05	1027	3.6116e-06	3.1625e-06	1113	212.47	3.2255e-06	3.2947e-06	273.15	78.609	61.791	18.258	3.2269e-06	25.503	171.353	-5.034	-44.861	-100.812	-17.496	42.123	-100.892	-93.258	-15.691	29.898	-94.070	-87.069	-86.991	-79.406	38.025	-79.588	-8191	255	
33254.746	1	1	0	0	0.12797	0.33292	0.18424	0.11721	0.076114	0.28454	0.035179	0.22719	0.2112	0.18501	0.11116	0.18067	0.13241	0.042129	0.10512	0.1102	-1.625	-1.6063	-1.9083	-2.0542	-1.6333	-2.0187	-1.9188	-1.7042	-2.0625	-1.7292	-1.9021	-1.9792	-1.6771	-2.0104	-1.8021	-1.7292	33.666	168.511	18.386	-70.104	121.987	38.625	-1.343	192.990	-94.221	177.372	-53.977	54.522	-69.465	236.510	39.755	116.524	0.00012511	0.00033841	6.2714e-05	1035.7	2.1798e-06	2.6811e-06	1114.3	211.31	2.2139e-06	3.0356e-06	271.93	78.053	60.616	18.086	3.0494e-06	24.82	0.0002403	0.00029515	8.9135e-05	1029.2	3.3005e-06	2.9806e-06	1113.2	212.29	3.1375e-06	3.3119e-06	273.58	78.624	62.102	18.33	3.1349e-06	25.408	172.493	-7.310	-29.964	-100.995	24.357	17.123	-100.802	-93.352	-36.398	37.340	-93.273	-87.016	-87.419	-79.091	28.627	-79.802	-8191	255	
33254.844	1	1	0	0	0.12559	0.15801	0.028919	0.20377	0.15885	0.20569	0.22472	0.153	0.1501	0.29082	0.23189	0.061474	0.18237	0.11224	0.11715	0.11267	-1.5792	-1.4771	-1.65	-2.0292	-1.2563	-1.9479	-2.0521	-1.6229	-2.0687	-1.7792	-1.7604	-1.9937	-1.5458	-1.7979	-1.8208	-1.8417	60.376	117.463	-65.872	143.340	-0.561	83.515	-101.226	-31.269	51.491	63.567	231.469	118.081	-94.598	-74.064	-58.506	-16.433	0.00013155	0.00029484	6.1224e-05	1039.3	2.2376e-06	2.4141e-06	1114.5	210.96	1.996e-06	9.3645e-07	273.37	77.617	61.163	18.092	1.3675e-06	24.925	0.00024005	0.00029205	7.7666e-05	1029.8	3.3931e-06	3.1377e-06	1113.5	212.21	3.3151e-06	2.8311e-06	273.79	78.529	62.151	18.373	2.8094e-06	25.458	175.880	-16.298	-38.771	-100.898	24.132	37.695	-100.804	-93.495	7.870	14.005	-93.495	-87.424	-87.329	-78.991	81.874	-79.704	-8191	255	
33254.914	1	1	0	0	0.15754	0.01924	0.17079	0.076737	0.24805	0.17308	0.10651	0.10551	0.14804	0.050316	0.22253	0.34704	0.062978	0.28196	0.17383	0.22028	-1.5688	-1.6333	-1.7521	-2.0083	-1.5708	-2.1167	-2.0667	-1.8146	-2.0938	-1.8458	-1.6938	-1.9646	-1.6458	-1.8646	-1.8333	-1.6896	192.501	114.551	188.296	-14.612	200.163	-17.352	94.726	-103.259	-106.737	161.146	135.954	174.247	-93.207	125.857	185.148	35.140	0.00012832	0.00026142	0.00012876	1035.4	1.3349e-06	2.7741e-06	1114.4	210.94	1.5239e-06	2.6584e-06	275.74	76.875	60.691	18.042	3.0246e-06	24.95	0.00023652	0.00030431	7.8728e-05	1028.8	3.2323e-06	2.9235e-06	1111.7	212.08	3.0155e-06	3.2011e-06	274.23	78.434	62.223	18.312	3.1382e-06	25.494	174.591	-25.911	0.247	-101.016	-0.870	48.583	-101.003	-93.629	-77.979	49.353	-94.015	-87.238	-87.504	-79.511	39.037	-79.400	-8191	255	
33255.035	1	1	0	0	0.15088	0.12422	0.10056	0.18659	0.079444	0.27661	0.08162	0.19607	0.12668	0.1589	0.15726	0.13018	0.084289	0.10054	0.19735	0.18565	-1.5167	-1.9292	-1.7125	-2.1083	-1.6208	-1.8375	-2.1917	-1.5667	-2.0312	-1.9083	-1.6938	-2.1229	-1.5375	-1.9708	-2.0833	-1.6521	205.070	10.417	107.750	187.825	120.969	144.152	161.649	-51.364	161.356	-12.085	224.614	25.970	107.354	-107.430	141.226	42.965	0.00013684	0.00028562	5.5204e-05	1034.2	1.9594e-06	3.7115e-06	1113	212.06	1.4591e-06	3.1537e-06	271.37	78.122	61.338	17.99	3.2084e-06	24.866	0.00022719	0.00026837	8.517e-05	1026.7	3.268e-06	3.1006e-06	1111.4	212.38	3.0935e-06	3.0701e-06	272.3	78.695	61.998	18.287	3.1114e-06	25.494	172.133	-13.241	-49.266	-100.592	15.402	6.218	-100.820	-93.363	-38.077	15.928	-93.887	-87.062	-87.494	-79.258	17.204	-79.901	-8191	255	
33255.129	1	1	0	0	0.16758	0.088675	0.08907	0.30625	0.26928	0.22192	0.1672	0.1784	0.17604	0.18551	0.18521	0.36256	0.30289	0.026572	0.18892	0.13204	-1.7667	-2.0667	-1.7062	-2.2896	-1.8333	-1.825	-2.1146	-1.5333	-1.9292	-1.9542	-1.5688	-1.9042	-1.7208	-1.6917	-1.9896	-1.5312	212.281	231.884	239.744	218.405	103.918	45.048	150.995	69.991	144.565	107.458	243.370	-87.068	124.554	150.328	111.882	220.200	0.00014702	0.00016586	0.00013024	1036.8	1.0146e-06	1.4604e-06	1115.6	209.97	1.9101e-06	2.7938e-06	274.13	77.498	61.104	17.974	2.4234e-06	24.948	0.00023633	0.00026157	8.4156e-05	1027.2	3.1892e-06	2.915e-06	1111	211.91	2.9892e-06	2.9019e-06	272.94	78.534	62.17	18.318	2.9592e-06	25.535	162.777	-11.323	-32.607	-100.707	41.625	72.184	-100.716	-93.453	2.780	32.324	-93.934	-87.055	-87.265	-79.271	23.039	-80.112	-8191	255	
33255.227	1	1	0	0	0.32927	0.25063	0.11767	0.049484	0.16618	0.15554	0.059353	0.32516	0.11379	0.15288	0.19538	0.11072	0.15839	0.25227	0.23336	0.14883	-1.5146	-2.0104	-1.6292	-2.1771	-1.7104	-1.8687	-2.1021	-1.725	-1.8937	-1.9417	-1.5875	-1.9208	-2.0167	-1.6333	-2.0333	-1.5979	157.822	-21.480	192.848	223.724	243.889	-94.737	-90.590	-107.653	-79.576	55.741	191.524	77.836	38.517	-86.498	35.134	242.665	0.00010901	0.00021337	0.000112	1037.9	1.9486e-06	3.0314e-06	1110.2	211.51	2.2886e-06	4.918e-06	271.02	77.035	61.202	18.018	1.3033e-06	24.927	0.00024169	0.00028441	8.3613e-05	1025.5	3.1462e-06	3.032e-06	1111.9	211.77	3.0417e-06	3.1695e-06	273.92	78.481	62.007	18.294	2.7467e-06	25.455	165.359	-17.460	-14.884	-100.796	3.793	49.781	-100.624	-93.529	-17.182	45.681	-93.482	-87.402	-87.141	-79.222	-2.254	-79.860	-8191	255	
33255.324	1	1	0	0	0.12465	0.08544	0.18045	0.24227	0.30045	0.24126	0.21865	0.16494	0.091489	0.053792	0.11398	0.16654	0.08967	0.16003	0.13694	0.092957	-1.3833	-2.1	-1.7	-1.9542	-1.925	-1.7	-2.2104	-1.6521	-1.8438	-1.9125	-1.5333	-2.0021	-1.8917	-1.7354	-2.1146	-1.6708	-71.620	212.011	-30.349	228.044	114.233	71.653	171.064	148.219	202.033	245.344	147.471	143.020	-85.322	209.219	62.151	-19.411	0.00011856	0.00023362	0.00011016	1032.8	1.4301e-06	2.1174e-06	1113.6	212.33	1.9369e-06	3.6289e-06	272.75	77.651	61.028	18.138	1.7907e-06	24.924	0.00024289	0.0002551	7.9389e-05	1025.8	3.2022e-06	3.0149e-06	1110.9	212.56	3.2379e-06	2.9783e-06	272.87	78.329	62.067	18.296	2.8236e-06	25.447	177.351	-33.172	0.691	-100.733	17.961	45.305	-101.011	-93.450	-46.156	28.591	-94.062	-87.122	-86.677	-79.360	59.549	-80.007	-8191	255	
33255.441	1	1	0	0	0.19612	0.064113	0.16113	0.12269	0.18119	0.18532	0.20594	0.27937	0.24537	0.1006	0.21545	0.27537	0.32266	0.024381	0.10917	0.3089	-1.2667	-2.0958	-1.6	-1.9271	-1.55	-1.5979	-2.2375	-1.8167	-1.8104	-2.0167	-1.6271	-1.9854	-1.8687	-1.5333	-1.8479	-1.9125	-79.824	32.894	-94.117	137.826	-63.798	220.249	187.950	214.687	95.927	9.385	-109.410	87.845	187.100	-104.973	176.355	74.840	0.00012725	0.00020832	0.00011891	1037.9	1.4718e-06	1.5191e-06	1122.8	210.82	1.2712e-06	3.3364e-06	274.13	77.682	60.476	17.895	2.0486e-06	24.966	0.00022668	0.00026895	8.0474e-05	1027.1	3.2753e-06	3.0663e-06	1112.3	212.05	3.1058e-06	2.7537e-06	273.94	78.556	61.814	18.248	2.822e-06	25.492	174.781	-1.489	-11.778	-100.752	26.675	25.493	-100.870	-93.252	-6.753	34.103	-93.687	-87.157	-86.760	-79.457	14.473	-79.554	-8191	255	
33255.539	1	1	0	0	0.21506	0.17667	0.054525	0.13093	0.029641	0.30045	0.55593	0.039058	0.022702	0.19134	0.16914	0.14974	0.16093	0.022342	0.082323	0.09434	-1.2729	-2.1875	-1.5792	-1.875	-2.0417	-1.5208	-2.275	-1.7354	-1.5625	-2.0687	-1.7646	-1.7167	-1.8208	-1.5562	-1.9229	-1.7812	19.176	237.974	95.329	176.400	26.822	-10.069	214.716	-37.758	143.188	-49.216	-101.100	-50.003	-72.855	42.800	134.240	160.577	0.00012547	0.00029093	6.6703e-05	1034.2	2.4375e-06	2.0043e-06	1117.6	211.88	1.5571e-06	3.6713e-06	272.78	77.539	60.174	18.021	2.2565e-06	24.824	0.00023225	0.00025191	7.6722e-05	1026.6	2.9731e-06	3.1425e-06	1110.5	212.24	3.2503e-06	2.9239e-06	273.39	78.559	61.763	18.324	3.0345e-06	25.506	173.463	-20.729	-19.471	-100.618	2.444	36.395	-100.851	-93.604	7.755	55.589	-93.851	-87.007	-88.007	-79.367	25.514	-79.583	-8191	255	
33255.609	1	1	0	0	0.31648	0.37289	0.15361	0.31056	0.21897	0.23542	0.34251	0.20439	0.25859	0.14062	0.1638	0.11369	0.18333	0.24936	0.17494	0.15798	-1.3021	-1.9708	-1.7021	-1.9521	-1.9792	-1.6479	-2.2438	-1.7583	-1.6042	-2.0792	-1.8354	-1.8021	-2.075	-1.4458	-2.0125	-1.9479	132.407	237.563	139.106	-85.178	-21.054	225.076	216.019	136.173	102.183	121.289	-9.966	106.175	97.068	175.908	181.893	156.882	0.00012332	0.00016921	8.4977e-05	1029.1	1.8591e-06	2.5206e-06	1113.9	212.31	3.457e-07	4.4211e-06	273.37	77.132	60.389	17.896	1.0335e-06	24.823	0.0002383	0.00025023	8.1678e-05	1025.1	3.0682e-06	3.0444e-06	1109.3	212.28	3.2688e-06	3.0309e-06	273.61	78.378	61.719	18.279	2.7877e-06	25.479	171.098	-18.780	8.553	-100.910	9.255	40.262	-100.872	-93.364	21.461	48.520	-93.578	-87.229	-87.169	-79.707	57.496	-79.431	-8191	255	
33255.707	1	1	0	0	0.011998	0.058473	0.23772	0.15772	0.1604	0.17756	0.22708	0.33989	0.16606	0.15261	0.18215	0.16591	0.092543	0.35393	0.065025	0.10388	-1.325	-1.9375	-1.7188	-1.9583	-1.8625	-1.6646	-2.0333	-1.9042	-1.5479	-1.9917	-1.8396	-1.8521	-2.1625	-1.6562	-1.8292	-2.1042	217.042	232.382	-37.444	154.379	112.357	-36.271	147.503	113.203	68.316	-3.582	231.743	-63.900	195.274	-92.649	-109.247	219.818	0.00014278	0.00028102	8.4316e-05	1034.4	1.6518e-06	3.0206e-06	1111.3	212.47	1.6512e-06	2.0014e-06	274.07	77.676	59.912	17.889	2.0712e-06	24.849	0.00023586	0.00028432	8.1796e-05	1023.6	3.2453e-06	3.0606e-06	1108	212.58	3.3661e-06	2.8617e-06	272.77	78.496	61.64	18.253	2.8563e-06	25.45	169.021	-6.640	3.667	-100.569	22.218	60.758	-100.849	-93.477	-37.853	19.898	-93.522	-87.277	-87.171	-79.592	34.092	-80.160	-8191	255	
33255.828	1	1	0	0	0.1826	0.12135	0.23635	0.11102	0.3142	0.15927	0.33336	0.40324	0.31135	0.15055	0.033738	0.18955	0.38281	0.17653	0.14112	0.058114	-1.1458	-1.8729	-1.8937	-1.8354	-2.0979	-1.6375	-2.1063	-2.1583	-1.6125	-1.8896	-1.7854	-1.6417	-2.1562	-1.7917	-1.9167	-2.1437	-76.309	246.674	9.470	244.073	157.461	188.713	99.588	224.167	45.917	81.626	-104.382	190.684	247.980	150.610	246.919	182.933	0.00013635	0.00031454	0.00013567	1033.9	1.9968e-06	2.7875e-06	1110.2	211.27	8.1325e-08	1.2316e-06	269.84	77.539	61.122	17.895	2.1621e-06	24.711	0.00024672	0.00027366	8.0946e-05	1024.3	3.2493e-06	2.9568e-06	1110.2	211.77	3.1661e-06	2.8216e-06	272.4	78.447	62.044	18.226	3.0069e-06	25.398	183.940	-35.878	-17.303	-100.670	42.757	44.620	-100.762	-93.431	78.470	17.058	-93.965	-86.925	-87.098	-79.511	34.375	-80.415	-8191	255	
33255.926	1	1	0	0	0.10175	0.12372	0.11441	0.092856	0.016192	0.2059	0.1073	0.16174	0.13877	0.15977	0.078855	0.086325	0.20339	0.38408	0.2251	0.2031	-1.0812	-1.8896	-1.8188	-1.7729	-2.0021	-1.4792	-2.0792	-2.0292	-1.7333	-2.0667	-1.8687	-1.5229	-2	-1.7167	-1.7458	-2.3271	-23.169	-81.108	166.693	132.434	159.809	194.760	142.721	107.351	177.366	183.550	-60.133	-102.373	205.314	-89.188	-52.395	-100.431	0.00012489	0.00028148	7.6508e-05	1030.9	1.7421e-07	2.6201e-06	1113.9	212.61	1.5115e-06	3.0223e-06	271.39	77.182	59.824	17.978	2.1056e-06	24.837	0.00024708	0.00029465	8.1064e-05	1026.2	2.9796e-06	3.4033e-06	1111.8	212.4	3.2387e-06	2.9114e-06	273.4	78.572	61.647	18.212	3.1926e-06	25.41	181.577	-36.873	-1.982	-100.680	13.675	49.217	-100.950	-93.289	-20.473	12.467	-93.799	-87.038	-87.926	-79.328	39.741	-79.964	-8191	255	
33256.020	1	1	0	0	0.17221	0.096394	0.053902	0.18316	0.11172	0.11812	0.074875	0.14446	0.051708	0.25332	0.27123	0.2258	0.14203	0.07792	0.31418	0.090399	-1.3146	-1.7042	-1.6896	-1.6792	-1.9646	-1.8062	-1.8687	-2.0542	-1.5458	-1.7729	-1.8708	-1.5979	-2.0458	-1.7563	-1.5604	-2.2729	90.511	-33.747	148.335	210.196	-70.663	-49.316	123.552	102.128	-69.446	-100.358	231.559	159.813	-13.762	50.921	82.776	93.273	0.00013401	0.00025751	0.00010787	1037.4	2.74e-06	3.6877e-06	1114	211.23	2.4952e-06	3.4931e-06	273.93	77.26	60.939	17.999	3.6715e-06	24.664	0.00024136	0.00027979	7.4267e-05	1028.4	3.108e-06	3.0987e-06	1111.7	211.79	3.3375e-06	2.9114e-06	273.46	78.514	61.942	18.285	3.2302e-06	25.368	176.457	-25.536	-2.710	-100.640	26.326	36.858	-100.660	-93.380	-1.324	38.574	-93.710	-87.016	-86.491	-79.529	29.864	-79.710	-8191	255	
33256.117	1	1	0	0	0.10346	0.10875	0.091138	0.28797	0.1143	0.14275	0.20689	0.07092	0.16457	0.21828	0.13291	0.14439	0.044222	0.16063	0.07152	0.25103	-1.2125	-1.9792	-1.9625	-1.5271	-1.9688	-1.9125	-1.6979	-2.0354	-1.5375	-1.8167	-1.9729	-1.6	-1.8708	-1.8354	-1.5271	-2.125	-32.904	248.113	55.801	-42.039	-97.949	23.378	165.456	244.725	91.049	235.858	7.508	63.797	-65.869	244.349	44.604	47.678	0.00013912	0.00025995	6.6035e-05	1035.2	1.823e-06	2.089e-06	1114.9	210.49	2.1235e-06	4.2237e-06	275.74	76.697	61.314	17.857	2.2966e-06	24.721	0.00023914	0.00028944	7.6203e-05	1027.4	3.4938e-06	3.1434e-06	1110.6	211.85	3.0973e-06	3.3244e-06	274.46	78.221	62.123	18.179	3.0688e-06	25.346	173.864	-14.013	-54.746	-100.776	49.587	43.458	-100.867	-93.481	1.050	32.362	-93.797	-87.264	-87.626	-79.760	43.995	-79.605	-8191	255	
33256.211	1	1	0	0	0.14633	0.17045	0.033693	0.11477	0.096373	0.12897	0.37269	0.18361	0.16535	0.037206	0.075821	0.13055	0.11511	0.28818	0.10112	0.13228	-1.2417	-1.5042	-1.7583	-1.6688	-1.7292	-1.9333	-1.7479	-1.95	-1.8625	-1.7875	-1.9479	-1.6229	-1.975	-1.9646	-1.5667	-2.0187	105.106	-33.137	185.622	230.624	132.632	-54.583	204.318	-21.863	109.137	-25.371	6.394	221.673	142.877	232.909	164.504	154.908	0.00013326	0.0003587	6.3912e-05	1035.8	2.0238e-06	1.5102e-06	1112	211.91	1.0526e-06	2.1906e-06	274.32	77.279	60.313	17.727	1.5123e-06	25.155	0.00025816	0.0002881	7.9648e-05	1028.7	3.1811e-06	3.0282e-06	1110	212.03	3.2665e-06	3.2555e-06	274.29	78.348	61.823	18.131	3.2252e-06	25.449	171.877	-21.004	-46.741	-101.199	25.020	9.727	-100.913	-93.450	-15.781	52.637	-93.910	-86.926	-87.110	-79.172	56.750	-79.921	-8191	255	
33256.309	1	1	0	0	0.05433	0.075788	0.20137	0.23581	0.28435	0.14301	0.037607	0.35923	0.21158	0.049474	0.23539	0.11597	0.25143	0.16825	0.11098	0.18887	-1.2917	-1.6417	-2.0542	-1.7021	-1.9146	-1.8479	-1.8354	-2.1021	-1.8729	-1.5646	-2.0833	-1.8604	-1.8104	-2.225	-1.6417	-1.9813	244.118	55.360	218.023	-65.821	245.165	105.322	125.854	198.969	-36.854	48.285	-109.182	37.696	137.530	15.466	77.557	199.199	0.00015035	0.00030074	8.7653e-05	1034.5	3.1115e-07	2.2866e-06	1110.6	211.32	4.886e-07	2.8329e-06	271.33	77.835	60.295	17.805	1.4718e-06	24.947	0.00023291	0.00026929	7.6509e-05	1026.1	3.4354e-06	2.8407e-06	1108.9	212.17	3.2495e-06	3.2345e-06	272.7	78.388	61.704	18.193	3.1984e-06	25.444	172.317	4.286	-5.647	-100.798	36.681	45.214	-100.951	-93.517	-15.550	39.592	-94.092	-87.353	-87.146	-79.695	40.224	-79.855	-8191	255	
33256.426	1	1	0	0	0.066165	0.20339	0.17239	0.26266	0.057449	0.16655	0.23015	0.17077	0.16616	0.206	0.19319	0.095199	0.17819	0.087067	0.073993	0.070494	-1.4604	-1.6667	-1.9937	-1.6875	-1.7604	-2.0938	-1.6688	-2.0042	-1.9375	-1.525	-1.8375	-1.7917	-1.7021	-2.025	-1.7	-1.8542	136.076	112.584	3.144	-108.864	198.299	-48.480	193.064	-34.538	244.021	133.612	217.825	174.265	-95.051	204.618	39.331	162.652	0.00011984	0.00016255	8.7918e-05	1032.9	3.0414e-06	2.8883e-06	1113.2	211.64	2.2625e-06	1.8232e-06	270.09	77.005	60.531	17.771	8.9114e-07	24.862	0.00023936	0.00030758	8.0569e-05	1024.7	3.5873e-06	3.0025e-06	1109.7	211.94	3.4967e-06	3.2288e-06	272.26	78.172	61.665	18.209	3.0813e-06	25.33	180.361	-38.676	-31.229	-100.627	19.103	59.999	-100.749	-93.828	12.708	7.281	-93.611	-87.533	-87.452	-79.249	26.360	-79.641	-8191	255	
33256.523	1	1	0	0	0.075413	0.17296	0.12296	0.12506	0.27454	0.1956	0.087628	0.16198	0.16593	0.1275	0.27397	0.30722	0.27767	0.13955	0.070636	0.21791	-1.4771	-1.4271	-2.05	-1.8875	-1.8583	-2.1562	-1.6917	-2.15	-2.0167	-1.5104	-2.0021	-1.8792	-1.55	-1.8771	-1.4729	-1.7938	22.831	-69.318	-13.125	182.586	-7.634	89.958	113.158	209.504	-23.602	218.417	235.242	242.804	101.206	169.381	-66.813	152.503	0.00016006	0.00024496	7.9142e-05	1032.8	1.019e-06	3.4256e-06	1113.3	212.22	1.0578e-06	1.4984e-06	273.34	77.245	59.244	17.971	1.9744e-06	24.474	0.00024202	0.00030624	7.8303e-05	1023.6	3.3972e-06	2.9825e-06	1110.3	211.77	3.3653e-06	3.1714e-06	273.26	78.348	61.487	18.262	3.1382e-06	25.271	178.197	-41.937	-32.061	-100.983	9.882	30.548	-100.838	-93.699	-25.702	65.574	-94.131	-86.961	-87.119	-79.911	22.585	-80.016	-8191	255	
33256.621	1	1	0	0	0.14778	0.14977	0.16649	0.075679	0.28194	0.076898	0.22903	0.28564	0.093442	0.12658	0.088207	0.078308	0.10167	0.26656	0.054216	0.051445	-1.4521	-1.5854	-1.7812	-1.5542	-1.5729	-1.9354	-1.7792	-1.7687	-2.0229	-1.6375	-1.8458	-1.7812	-1.55	-2.0875	-1.6875	-1.8188	248.334	73.012	225.417	93.027	71.580	92.090	128.949	177.718	122.592	192.085	35.809	194.899	80.832	146.270	170.894	226.865	0.00012604	0.00033827	0.00011459	1032.3	1.6654e-06	1.9194e-06	1112.1	210.96	1.1172e-06	3.539e-06	274.06	77.342	60.963	18.017	1.313e-06	24.887	0.00024111	0.00030128	7.2663e-05	1026.9	3.4329e-06	3.133e-06	1110.8	211.74	3.0348e-06	3.2833e-06	273.16	78.228	62.309	18.232	2.6764e-06	25.439	166.327	-23.305	-14.898	-100.642	50.698	75.022	-100.765	-93.334	-12.027	50.624	-93.889	-87.193	-87.210	-78.774	-4.745	-79.847	-8191	255	
33256.715	1	1	0	0	0.22029	0.31596	0.29971	0.22992	0.28291	0.24718	0.2142	0.37416	0.052067	0.28595	0.36978	0.22055	0.17787	0.21949	0.12356	0.25356	-1.3646	-1.65	-1.9521	-1.9896	-1.5458	-1.8417	-2.0021	-1.8438	-2.0896	-1.425	-1.6229	-1.8958	-1.5271	-2.2167	-1.7083	-1.5708	-101.558	9.252	184.953	217.601	-108.454	243.568	146.160	120.351	164.975	168.147	220.616	-95.964	95.183	-82.878	-30.015	182.482	0.00010892	0.00023022	8.2051e-05	1035.1	1.7922e-06	1.7427e-06	1113.8	211.31	2.2505e-06	3.8363e-06	270.12	77.424	60.739	17.92	8.8353e-07	25.071	0.00022996	0.00028071	7.6439e-05	1025.8	3.281e-06	2.6532e-06	1111.1	212.02	3.1352e-06	3.1915e-06	272.65	78.517	61.548	18.224	2.8538e-06	25.402	169.714	-7.362	-37.375	-100.884	48.135	36.045	-101.024	-93.591	-28.814	26.376	-93.778	-87.638	-87.746	-79.236	23.615	-79.665	-8191	255	
33256.836	1	1	0	0	0.14252	0.34556	0.33299	0.11591	0.13473	0.071259	0.12713	0.34551	0.049481	0.16542	0.11426	0.11316	0.2435	0.13043	0.051343	0.074916	-1.7062	-1.5646	-1.7292	-2.0187	-1.4146	-2.1021	-1.8167	-1.6521	-2.1813	-1.6667	-1.7125	-1.9771	-1.725	-2.1958	-1.6833	-1.4708	30.012	213.137	-58.604	166.502	29.593	-94.122	73.184	170.084	-48.164	-10.132	213.937	64.822	-78.919	79.026	197.188	123.512	0.0001291	0.00030029	8.4173e-05	1029.4	1.3769e-06	3.6784e-06	1109	210.69	7.9002e-07	3.4228e-06	271.46	76.91	60.489	17.824	9.4421e-07	24.685	0.00023203	0.00029339	7.9294e-05	1024.1	3.4743e-06	2.756e-06	1109.8	211.34	3.0942e-06	3.2039e-06	273.9	78.171	62.248	18.148	3.0328e-06	25.396	174.910	-36.640	-26.305	-100.618	-6.385	38.463	-100.894	-93.340	-32.657	45.717	-93.941	-87.389	-87.045	-79.437	58.775	-79.664	-8191	255	
33256.906	1	1	0	0	0.13279	0.088505	0.12553	0.2175	0.28437	0.23466	0.053728	0.19245	0.17016	0.28179	0.2624	0.3424	0.20196	0.31251	0.038474	0.1433	-1.4	-1.4667	-1.6875	-2.1229	-1.5312	-1.8833	-1.8333	-1.6104	-1.8333	-1.7479	-1.7	-2.0375	-1.5979	-2.0021	-1.9312	-1.6167	209.163	-79.744	62.798	207.444	59.427	-35.078	154.192	179.468	68.769	-32.733	-63.026	170.325	31.037	131.189	-20.089	-57.551	0.00014273	0.00027279	8.9066e-05	1029.1	1.3151e-06	3.3283e-06	1109.4	211.7	1.5425e-06	2.7128e-06	273.02	77.034	59.881	17.938	1.4434e-06	24.696	0.00023972	0.00027273	8.3141e-05	1024.3	3.2542e-06	2.9654e-06	1109.3	211.97	3.1653e-06	3.1724e-06	273.04	78.21	61.613	18.224	3.0897e-06	25.318	175.471	-6.591	-2.819	-100.778	43.321	53.889	-100.900	-93.391	-14.481	34.158	-93.942	-87.068	-87.578	-78.937	33.649	-79.970	-8191	255	
33257.004	1	1	0	0	0.1198	0.15108	0.16844	0.13552	0.27583	0.10756	0.13557	0.29282	0.22886	0.23722	0.26824	0.1071	0.14716	0.08337	0.091329	0.020942	-1.6854	-1.7812	-1.5042	-2.1167	-1.5646	-1.9	-1.9813	-1.6271	-1.8729	-1.8042	-1.5938	-2.0146	-1.6104	-1.7687	-1.8917	-1.5104	17.775	241.060	25.848	144.333	125.366	128.756	173.459	196.455	169.268	211.564	-39.244	-1.241	121.383	-93.466	155.035	246.202	0.00013677	0.00030201	8.0849e-05	1035.2	2.6541e-06	2.5339e-06	1114.1	211.26	8.0036e-07	3.0833e-06	271.02	77.339	60.204	17.892	1.056e-06	25.075	0.00023211	0.00028105	7.9223e-05	1025	3.2989e-06	2.954e-06	1110.2	211.59	3.1112e-06	3.0414e-06	273.21	78.373	61.69	18.216	2.9441e-06	25.464	165.062	-23.026	-38.866	-100.831	10.396	29.745	-100.654	-93.561	-31.053	54.179	-94.164	-87.048	-87.220	-79.118	11.535	-79.630	-8191	255	
33257.102	1	1	0	0	0.17794	0.067724	0.084194	0.085063	0.15122	0.1918	0.11763	0.20658	0.19386	0.17148	0.14358	0.17773	0.10357	0.18101	0.2413	0.16253	-1.3646	-1.6667	-1.6229	-2.1271	-1.5083	-1.6958	-2.0875	-1.4312	-2.0083	-1.9625	-1.6896	-2.025	-1.55	-1.7958	-2.0104	-1.5854	-48.898	195.452	3.525	229.840	-1.508	18.321	167.557	-84.171	-92.731	171.270	-55.272	-73.181	1.901	11.748	88.097	126.902	0.00013382	0.00019425	8.1628e-05	1032.9	2.2332e-06	1.4518e-06	1111.4	211.21	1.7169e-06	3.151e-06	271.81	77.234	60.524	17.941	2.1144e-06	24.652	0.00023488	0.00028659	8.5524e-05	1025.2	3.4134e-06	2.8854e-06	1110.2	211.85	3.0981e-06	2.9277e-06	273.4	78.345	61.98	18.278	2.7709e-06	25.338	168.668	-37.974	-8.554	-100.788	17.591	49.977	-100.912	-93.548	-45.205	58.448	-93.616	-87.251	-87.356	-79.237	34.775	-79.912	-8191	255	
33257.219	1	1	0	0	0.13345	0.11921	0.067599	0.053187	0.12417	0.24072	0.14139	0.0080256	0.36708	0.066374	0.19124	0.22397	0.20208	0.17567	0.18287	0.30423	-1.4271	-1.7479	-1.5521	-1.9417	-1.5063	-1.7792	-2.1562	-1.7563	-1.75	-1.9396	-1.6375	-2.15	-1.6708	-1.7667	-2.1562	-1.3771	-69.201	-18.189	33.438	-86.559	-30.745	195.090	24.003	141.414	200.127	240.781	158.395	176.382	167.716	149.342	72.923	160.387	0.00014386	0.00037762	0.00010452	1038.5	1.5804e-06	2.0956e-06	1113.4	211.5	1.0926e-06	1.0529e-06	271.33	76.862	60.369	17.916	2.3428e-06	25.078	0.00023947	0.00027819	8.484e-05	1024.3	3.2664e-06	2.8302e-06	1110.1	212.03	3.1514e-06	2.9019e-06	274.12	78.401	62.09	18.279	2.7927e-06	25.452	179.254	1.874	-45.022	-100.574	40.558	43.700	-100.820	-93.172	23.064	-10.439	-93.733	-87.109	-87.359	-79.584	26.977	-79.896	-8191	255	
33257.316	1	1	0	0	0.049035	0.082915	0.10155	0.3441	0.16441	0.21619	0.30964	0.15968	0.24534	0.13493	0.15519	0.3086	0.1073	0.38943	0.12413	0.19272	-1.5938	-1.7604	-1.6854	-2.0917	-1.9417	-1.6708	-2.0125	-1.8583	-1.9188	-1.9333	-1.6562	-1.8937	-1.725	-1.8646	-2.2375	-1.7	179.064	40.065	100.451	200.200	159.498	56.056	131.176	-86.371	-12.407	236.289	-103.799	127.425	156.096	245.076	168.349	170.767	0.00012955	0.00019318	6.6456e-05	1025.2	2.3688e-06	1.6256e-06	1114.7	210.84	1.2203e-06	2.8088e-06	272.47	77.644	60.688	17.908	2.4392e-06	25.07	0.00023069	0.00028147	7.2734e-05	1019.4	3.1998e-06	3.1149e-06	1110.2	211.41	3.0332e-06	2.7748e-06	272.84	78.453	61.969	18.249	2.786e-06	25.451	175.803	-8.853	-26.311	-100.731	-12.667	18.250	-100.736	-93.780	-44.354	26.663	-93.771	-86.872	-87.091	-79.152	-2.348	-79.484	-8191	255	
33257.410	1	1	0	0	0.10049	0.17032	0.18025	0.3416	0.10633	0.21674	0.026627	0.12629	0.25844	0.038115	0.28733	0.068205	0.10509	0.15883	0.11028	0.070288	-1.5271	-1.8188	-1.4979	-1.8771	-1.8833	-1.5833	-2.1771	-1.6313	-1.7333	-1.925	-1.5854	-1.8479	-1.8062	-1.6625	-2.05	-1.6458	22.871	94.151	72.315	172.101	25.400	111.287	146.751	242.875	96.800	130.724	243.396	-96.856	122.290	-94.989	-7.236	93.569	0.00012432	0.00020218	8.1657e-05	1029.4	1.3748e-06	2.7052e-06	1113.7	210.21	2.1272e-06	3.8655e-06	274.71	77.454	60.182	18.091	2.3951e-06	24.861	0.00024807	0.00026686	7.5188e-05	1025.3	3.2152e-06	2.9873e-06	1110.8	211.96	3.329e-06	2.79e-06	274.34	78.534	61.717	18.284	2.9642e-06	25.397	174.696	-0.989	14.450	-100.816	29.535	27.140	-100.849	-93.735	-31.502	45.239	-93.289	-87.207	-87.174	-79.407	6.018	-79.874	-8191	255	
33257.508	1	1	0	0	0.081445	0.049507	0.19335	0.26505	0.1624	0.33941	0.19124	0.096164	0.1473	0.16576	0.21468	0.15329	0.17024	0.15865	0.12562	0.20877	-1.1979	-1.8354	-1.5104	-2.0792	-1.9875	-1.3479	-2	-1.5792	-1.6479	-2.1604	-1.6187	-1.9562	-1.8771	-1.4521	-2.1833	-1.8604	112.413	155.211	87.556	58.588	-76.354	-66.900	-98.087	164.888	27.000	215.154	57.962	213.317	198.692	114.204	-65.207	-67.291	0.00012243	0.00023824	0.00011237	1034.3	6.1113e-07	2.6389e-06	1111.7	211.22	5.8146e-07	1.6005e-06	272.69	77.323	59.869	17.899	2.8021e-06	24.955	0.00023149	0.00025476	7.9719e-05	1025.3	3.1096e-06	2.9959e-06	1109.9	212.17	3.1344e-06	2.8101e-06	274.41	78.505	61.526	18.21	2.9123e-06	25.452	173.641	-25.086	-13.013	-100.912	6.994	61.209	-100.736	-93.523	-42.322	57.185	-93.919	-87.153	-87.262	-79.703	56.927	-79.810	-8191	255	
33257.605	1	1	0	0	0.2163	0.16933	0.20093	0.092579	0.11104	0.31576	0.14158	0.17578	0.16995	0.26223	0.23958	0.25054	0.056061	0.14295	0.25697	0.15214	-1.2	-2.0271	-1.5333	-2	-1.7458	-1.4438	-1.9917	-1.9458	-1.4125	-2	-1.6604	-1.7479	-2.0687	-1.5854	-1.775	-1.9479	152.120	136.763	10.920	-96.293	42.696	-74.458	187.878	241.361	119.468	216.361	132.201	129.960	110.375	136.139	54.878	164.354	0.00014442	0.00031624	0.00011312	1038.3	1.2818e-06	2.8037e-06	1111.3	209.71	1.3128e-06	2.4752e-06	272.65	77.544	60.027	17.965	1.4615e-06	24.897	0.0002492	0.00027727	7.9082e-05	1028.1	3.1023e-06	2.9311e-06	1109.2	211.95	3.37e-06	2.9736e-06	274.6	78.629	61.576	18.297	2.7651e-06	25.512	180.405	-15.328	-41.161	-100.426	-10.257	30.203	-100.706	-93.340	-20.070	-2.630	-93.651	-87.263	-87.502	-79.348	25.004	-80.226	-8191	255	
33257.699	1	1	0	0	0.078369	0.11825	0.23569	0.21775	0.16982	0.18756	0.12212	0.36186	0.095026	0.26596	0.10838	0.11449	0.13784	0.2293	0.078569	0.09725	-1.1792	-1.825	-1.6771	-1.8708	-1.9521	-1.6187	-2.1021	-1.8604	-1.6083	-1.9875	-1.6896	-1.4667	-2	-1.7313	-1.9	-2.0604	10.438	155.517	-65.546	217.199	207.838	127.681	145.561	200.706	115.396	34.958	183.054	-46.559	48.516	214.371	31.208	79.478	0.00011971	0.00035218	7.6688e-05	1028.1	1.7067e-06	2.1434e-06	1111.5	212.04	2.0582e-06	3.5474e-06	273.09	77.465	60.567	18.005	2.6139e-06	24.957	0.00023513	0.00024821	7.6911e-05	1023.9	3.307e-06	2.7845e-06	1111.2	212	3.3723e-06	2.9946e-06	273.32	78.612	61.875	18.279	2.827e-06	25.516	166.351	-14.965	-9.084	-100.818	16.421	36.554	-100.710	-93.371	8.658	41.844	-93.743	-87.206	-86.876	-79.259	30.250	-79.668	-8191	255	
33257.797	1	1	0	0	0.12076	0.29083	0.09533	0.21951	0.17351	0.069785	0.25055	0.16858	0.16308	0.069717	0.1457	0.35627	0.07997	0.080261	0.27886	0.03944	-1.2021	-1.7771	-1.65	-1.7208	-1.8354	-1.6167	-2.0812	-2.0708	-1.4979	-1.9104	-1.7083	-1.5625	-1.9333	-1.6938	-1.775	-1.9896	180.372	64.039	182.191	-93.312	211.313	195.013	201.246	-72.171	29.630	245.729	-80.213	-82.798	106.973	152.094	-32.277	-90.032	0.00014213	0.0002586	5.6754e-05	1034.1	2.5106e-06	2.7724e-06	1110.1	211.03	1.0889e-06	2.2105e-06	272.26	77.163	61.101	18.055	1.9918e-06	24.801	0.00023644	0.00025896	7.186e-05	1026.7	2.857e-06	2.8883e-06	1110.5	211.74	3.1182e-06	3.0777e-06	272.7	78.463	62.054	18.273	2.7283e-06	25.433	172.182	-24.845	-66.944	-100.847	31.556	76.779	-101.055	-93.662	-38.982	47.184	-94.052	-86.978	-87.683	-79.535	20.550	-79.991	-8191	255	
33257.918	1	1	0	0	0.14038	0.084261	0.020313	0.354	0.069405	0.066927	0.25014	0.24101	0.079657	0.23962	0.20174	0.15614	0.072851	0.041723	0.056701	0.13688	-1.0438	-1.8604	-1.8479	-1.6396	-2.0687	-1.7083	-1.9083	-1.9104	-1.5438	-1.8417	-1.8312	-1.5938	-2.0438	-1.7333	-1.5979	-2.0292	-61.661	-98.149	15.060	237.359	233.812	83.008	148.716	-93.505	-10.984	10.970	206.390	-110.480	220.004	-57.622	142.839	-37.039	0.00013538	0.00026611	5.1391e-05	1030.9	7.829e-07	3.9543e-06	1115.9	211.94	1.873e-06	2.7373e-06	272.52	76.955	60.225	18.034	2.5461e-06	24.87	0.00022493	0.00026047	7.2238e-05	1022.4	2.8237e-06	3.33e-06	1112.2	212.08	3.1653e-06	2.6906e-06	273.2	78.395	61.683	18.299	2.8872e-06	25.46	173.899	-31.506	-31.228	-100.792	38.320	21.874	-100.876	-93.618	-12.078	7.596	-93.651	-87.056	-87.287	-79.059	11.604	-79.713	-8191	255	
33258.012	1	1	0	0	0.21739	0.17583	0.036602	0.15887	0.15993	0.067769	0.11753	0.098708	0.14623	0.10814	0.15092	0.071487	0.14333	0.26513	0.18045	0.146	-1.2271	-1.6229	-1.9729	-1.6792	-2.0021	-1.7958	-1.8188	-2.2313	-1.7208	-1.8021	-1.8854	-1.5854	-1.9562	-1.6292	-1.6958	-2.1792	72.045	18.842	16.337	-84.647	-57.489	240.999	190.490	188.359	99.444	170.402	162.893	-17.514	206.984	22.613	17.640	237.404	0.00015727	0.00015925	6.8468e-05	1033.8	2.0374e-06	2.8274e-06	1113.2	210.71	8.2311e-07	2.9582e-06	273.55	77.312	60.053	17.898	1.5122e-06	24.757	0.00024176	0.00025132	7.3559e-05	1022.9	2.9496e-06	3.0863e-06	1108.5	211.41	3.0417e-06	2.8015e-06	274.15	78.371	61.494	18.233	3.0412e-06	25.43	170.799	-40.542	-31.479	-100.827	35.945	77.458	-100.839	-93.985	-35.708	35.877	-93.684	-87.342	-87.486	-79.553	66.748	-79.695	-8191	255	
33258.109	1	1	0	0	0.33739	0.041315	0.18942	0.17976	0.056241	0.16374	0.32486	0.02146	0.10656	0.24046	0.11265	0.19085	0.079762	0.16613	0.31298	0.23637	-1.2271	-1.6875	-1.6625	-1.4854	-2.0729	-1.9958	-1.65	-2.0083	-1.6688	-1.7833	-1.975	-1.5479	-1.8896	-1.9104	-1.6	-2.0187	58.484	146.053	40.733	-62.486	80.566	236.952	237.421	188.535	-85.101	33.243	-62.223	-103.591	242.752	96.572	4.392	-89.465	0.00012817	0.00019688	7.6638e-05	1034.6	1.9542e-06	7.4556e-07	1114	211.41	1.7009e-06	2.4732e-06	275	77.024	60.726	17.943	1.7211e-06	24.769	0.00022686	0.00028734	7.566e-05	1024.8	3.0852e-06	2.7522e-06	1108.7	211.97	3.2858e-06	3.1217e-06	273.72	78.326	61.909	18.245	2.7718e-06	25.391	175.658	-1.979	-39.692	-100.918	22.363	38.953	-100.965	-93.561	-24.746	25.329	-93.457	-87.200	-87.541	-79.043	6.837	-79.745	-8191	255	
33258.203	1	1	0	0	0.088718	0.35628	0.13195	0.27932	0.091929	0.047585	0.27796	0.066899	0.072935	0.049922	0.080795	0.23604	0.032185	0.25673	0.10321	0.15247	-1.325	-1.7313	-1.9146	-1.8167	-1.6854	-1.8875	-1.8167	-1.9708	-1.7354	-1.6375	-2.0083	-1.5938	-1.7417	-2.0062	-1.8396	-2.0625	238.548	-69.931	-91.213	198.635	-94.408	13.611	235.115	-103.757	100.472	33.238	224.066	-17.611	116.190	-81.100	33.582	119.361	0.00012373	0.00023213	8.2018e-05	1037	1.934e-06	2.123e-06	1111.7	212.01	1.2555e-06	2.5584e-06	271.83	77.055	60.003	17.948	2.6794e-06	25.102	0.00023262	0.00028323	7.1341e-05	1024.8	3.3761e-06	2.8064e-06	1108.5	212.09	3.122e-06	3.0003e-06	273.13	78.265	61.72	18.242	2.7994e-06	25.442	162.956	22.273	8.872	-100.940	20.742	34.034	-100.700	-93.373	-35.929	37.666	-94.142	-87.372	-86.487	-79.045	39.277	-79.843	-8191	255	
33258.301	1	1	0	0	0.15679	0.14242	0.16727	0.046543	0.15999	0.062621	0.17504	0.16648	0.21616	0.14601	0.12792	0.28795	0.12415	0.072331	0.14006	0.12886	-1.1938	-1.5812	-1.9604	-1.6708	-1.8375	-1.8479	-1.5729	-2.0792	-1.8625	-1.5375	-1.9292	-1.5604	-1.8188	-1.9542	-1.5354	-1.9542	55.473	205.497	226.849	203.090	40.541	65.952	189.789	138.865	29.334	-73.127	205.627	15.465	199.631	14.056	92.192	197.074	0.00012235	0.00033005	9.7144e-05	1033	1.328e-06	2.8885e-06	1114.1	212.05	1.279e-06	3.7291e-06	274.89	77.551	60.832	17.852	1.0151e-06	24.818	0.00023502	0.00028163	7.238e-05	1025.4	3.0089e-06	2.7093e-06	1110.8	211.7	2.9444e-06	2.9889e-06	273.54	78.643	61.989	18.206	3.0361e-06	25.43	172.773	-29.201	-10.126	-100.861	64.438	-6.614	-100.704	-93.540	-30.656	44.919	-93.794	-87.085	-87.448	-79.146	-12.748	-79.364	-8191	255	
33258.395	1	1	0	0	0.30147	0.092892	0.041414	0.21952	0.18132	0.15802	0.21523	0.34662	0.11362	0.11002	0.1106	0.38802	0.034545	0.28194	0.18691	0.107	-1.4771	-1.6396	-2.0708	-1.6562	-1.7771	-2.0062	-1.5875	-1.7979	-1.6938	-1.6792	-1.9833	-1.6104	-1.55	-1.9354	-1.4229	-1.9792	114.215	-54.591	118.164	225.427	100.494	-48.238	169.960	201.942	174.117	14.699	170.653	222.955	-16.132	162.288	241.496	-16.162	0.00013261	0.00030742	8.177e-05	1028.2	1.8771e-06	4.4535e-06	1114.4	210.91	1.1247e-06	3.2251e-06	273.01	76.771	60.014	17.941	2.5027e-06	24.757	0.00022748	0.00029725	7.6698e-05	1023.4	3.1778e-06	3.1301e-06	1111.9	211.99	3.0201e-06	3.1246e-06	274.34	78.331	61.597	18.208	3.1508e-06	25.411	172.112	5.254	-4.918	-100.683	39.127	26.900	-100.931	-93.598	-14.134	38.790	-93.934	-86.710	-87.068	-79.619	12.395	-79.607	-8191	255	
33258.516	1	1	0	0	0.14641	0.13656	0.15056	0.062736	0.073417	0.46949	0.26	0.21292	0.049924	0.13399	0.058097	0.22912	0.43057	0.12178	0.28297	0.026155	-1.5208	-1.3083	-1.8542	-1.7583	-1.5167	-2.0229	-1.5333	-1.7625	-1.9729	-1.45	-2.0375	-1.6187	-1.7687	-2.1417	-1.5187	-1.9479	48.494	128.642	177.872	-46.327	147.618	33.609	196.269	106.439	130.795	99.064	-31.076	191.977	-100.057	48.480	-50.492	-52.788	0.00011901	0.00029394	9.6014e-05	1033.4	1.1485e-06	1.7211e-06	1113.5	211.01	5.8127e-07	3.0443e-06	273.66	77.637	60.308	17.976	3.0929e-06	24.832	0.00023422	0.0002729	7.4716e-05	1024.9	3.3549e-06	2.8788e-06	1110.2	211.95	3.1128e-06	3.1322e-06	272.35	78.388	61.909	18.232	2.7893e-06	25.422	173.247	-34.306	-13.427	-100.711	27.655	55.776	-100.876	-93.486	-15.918	47.297	-93.285	-87.085	-87.585	-79.487	28.048	-79.938	-8191	255	
33258.613	1	1	0	0	0.12636	0.21335	0.18725	0.24817	0.099302	0.1854	0.14058	0.074559	0.20186	0.25132	0.068733	0.075015	0.081168	0.24921	0.16869	0.18643	-1.5396	-1.3333	-1.8208	-1.8354	-1.6437	-2.1917	-1.9542	-1.5958	-2.0875	-1.525	-1.7333	-1.7917	-1.5104	-1.9896	-1.7167	-1.7729	204.164	-25.990	169.805	183.757	33.007	139.980	176.755	9.078	210.331	146.971	-81.617	-93.180	222.845	37.383	-20.453	-93.240	0.00010159	0.0001635	7.5275e-05	1028.9	2.9425e-06	2.1363e-06	1112.8	211.16	1.2798e-06	3.3841e-06	273.34	77.616	60.77	17.939	2.8362e-06	24.969	0.00022901	0.00026702	7.6958e-05	1023.1	3.346e-06	2.8893e-06	1110.4	212.01	3.129e-06	3.2259e-06	273.59	78.57	62.019	18.217	3.1457e-06	25.47	175.436	-41.874	-26.277	-100.966	36.953	47.716	-100.972	-93.644	-0.048	72.695	-93.652	-87.177	-86.852	-79.070	52.927	-79.989	-8191	255	
33258.711	1	1	0	0	0.10255	0.20923	0.092662	0.30737	0.24535	0.025542	0.20303	0.21536	0.15699	0.14356	0.061656	0.21227	0.05462	0.23751	0.067265	0.17728	-1.5229	-1.4208	-1.7021	-1.8167	-1.4333	-1.8396	-1.9021	-1.7812	-2.0687	-1.3125	-1.9354	-1.8917	-1.4438	-1.9042	-1.6771	-1.5917	-39.641	-107.011	-76.820	-105.491	-35.703	49.329	190.989	-101.495	242.969	89.998	218.574	203.271	-93.231	177.455	110.428	162.208	0.00014532	0.00028107	9.9349e-05	1029.8	1.6772e-06	2.3392e-06	1118.1	211.16	6.4246e-07	2.9877e-06	270.99	77.58	60.075	17.894	2.3452e-06	24.893	0.00023429	0.00028508	7.6226e-05	1023.8	3.3541e-06	2.7046e-06	1109.7	212.03	2.7459e-06	3.1303e-06	273	78.373	61.631	18.238	2.95e-06	25.439	176.099	-38.229	-0.077	-100.908	27.466	28.297	-100.778	-93.433	-19.112	41.562	-94.026	-87.513	-87.265	-79.568	-5.067	-79.410	-8191	255	
33258.781	1	1	0	0	0.2024	0.24844	0.099203	0.32673	0.32534	0.19675	0.2033	0.29542	0.30242	0.28556	0.085591	0.21994	0.13164	0.080812	0.18636	0.30507	-1.7417	-1.5646	-1.8542	-2.0208	-1.6187	-1.9438	-1.9562	-1.6562	-2.075	-1.5333	-1.7104	-1.8687	-1.5812	-1.9729	-1.8292	-1.7167	207.556	150.360	83.987	-105.776	92.815	208.783	183.155	213.130	-72.032	-97.341	199.292	144.370	202.947	-95.149	109.170	-98.485	0.00011764	0.00025127	0.00011204	1029.1	3.2314e-06	2.7766e-06	1112.9	211.33	1.7662e-06	3.5552e-06	273.81	78.016	60.577	18.013	2.495e-06	24.986	0.00021571	0.00027391	7.0798e-05	1023.2	3.3289e-06	2.9092e-06	1108.2	211.87	3.0085e-06	3.0233e-06	273.46	78.417	61.894	18.279	2.8404e-06	25.505	164.840	-42.540	-8.293	-100.777	44.404	38.243	-100.670	-93.280	2.833	31.515	-93.759	-87.329	-87.324	-79.471	15.906	-79.937	-8191	255	
33258.902	1	1	0	0	0.21803	0.081363	0.33402	0.18805	0.28747	0.061873	0.29301	0.26986	0.22315	0.23851	0.068727	0.096536	0.062509	0.036555	0.16532	0.12009	-1.6187	-1.7271	-1.8104	-2.1771	-1.7396	-2.0187	-2.1646	-1.65	-1.9625	-1.6938	-1.9146	-2.0875	-1.6646	-1.7417	-1.8521	-1.6396	125.528	-32.988	-56.531	226.217	158.503	171.301	140.087	151.613	95.779	3.308	54.534	141.794	40.225	201.036	80.328	216.172	0.00014275	0.00029668	7.3469e-05	1035	1.9038e-06	3.1349e-06	1118.7	211.49	1.2928e-06	2.2179e-06	271.32	77.069	60.716	17.997	3.2093e-06	24.848	0.0002301	0.00026123	7.5518e-05	1024.5	3.1559e-06	2.6617e-06	1111.4	212.07	2.9652e-06	3.0691e-06	272.72	78.398	61.761	18.27	3.1382e-06	25.493	171.659	-14.226	-14.382	-100.578	7.399	26.385	-100.991	-93.275	6.423	24.901	-93.727	-87.025	-87.790	-79.357	48.715	-79.424	-8191	255	
33258.996	1	1	0	0	0.18835	0.23511	0.23455	0.17574	0.17208	0.28678	0.41417	0.19367	0.18984	0.1644	0.23685	0.16058	0.14371	0.28475	0.29058	0.16228	-1.3813	-1.8854	-1.6896	-2.0604	-1.6271	-1.9562	-2.0583	-1.4375	-2.0687	-1.7667	-1.6562	-2.25	-1.5896	-1.9438	-1.8604	-1.6021	-42.062	79.395	-68.760	-76.588	135.068	-11.270	152.258	228.932	-44.657	114.736	85.487	182.996	128.599	75.884	-44.460	64.385	0.00012637	0.00032867	7.6668e-05	1034	2.6678e-06	2.1086e-06	1113.9	211.78	7.8366e-07	2.1587e-06	272.01	77.13	60.084	17.923	1.7408e-06	24.805	0.00023236	0.00025829	7.3607e-05	1023.9	3.1681e-06	3.072e-06	1111.9	212.25	3.0765e-06	2.9955e-06	273.09	78.417	61.753	18.28	3.0219e-06	25.539	169.019	-18.045	-24.088	-100.770	23.967	32.669	-100.816	-93.720	-29.817	54.039	-93.777	-87.515	-87.735	-79.233	35.604	-79.951	-8191	255	
33259.094	1	1	0	0	0.18058	0.24686	0.23799	0.33159	0.28732	0.091594	0.066156	0.18903	0.26098	0.304	0.25015	0.12769	0.11583	0.11473	0.16778	0.039402	-1.5583	-1.6479	-1.5812	-2.0187	-1.5896	-1.8896	-1.925	-1.625	-1.9708	-1.8396	-1.6104	-1.9833	-1.7354	-1.7563	-1.9917	-1.4208	82.562	-66.920	114.743	-71.943	225.086	-16.969	16.406	137.352	-70.647	151.692	64.467	22.012	242.421	-97.267	234.869	143.121	0.00012667	0.00026432	9.7173e-05	1034.8	1.7784e-06	3.029e-06	1118.6	210.83	1.0966e-06	3.2423e-06	273.11	77.503	60.512	18.135	1.4638e-06	25.082	0.0002273	0.0002766	7.5589e-05	1027.9	3.2412e-06	2.9911e-06	1115	212.13	3.1738e-06	3.3186e-06	274.96	78.542	62.14	18.376	2.7492e-06	25.578	177.000	-29.589	-12.228	-100.738	17.749	56.756	-100.755	-93.671	7.353	29.660	-94.381	-87.331	-86.744	-78.914	24.740	-79.722	-8191	255	
33259.191	1	1	0	0	0.19833	0.22077	0.17374	0.24374	0.41002	0.078023	0.24402	0.29457	0.056813	0.10611	0.1602	0.25688	0.22183	0.047488	0.14349	0.1627	-1.4083	-1.85	-1.4146	-1.9375	-1.5938	-1.725	-2.2188	-1.6313	-1.7	-1.9646	-1.4375	-1.9417	-1.7146	-1.7479	-2.0667	-1.7083	86.994	116.222	-16.350	-23.691	221.334	5.514	168.789	184.054	173.547	87.443	-73.296	-105.286	66.040	79.760	-56.459	161.435	0.00013697	0.00021155	7.7096e-05	1033.8	7.9747e-07	2.2878e-06	1115.8	211.58	2.0924e-06	4.3527e-06	273.58	77.38	60.303	18.019	2.4288e-06	24.974	0.00023291	0.00028155	7.3512e-05	1028.1	3.1088e-06	2.8388e-06	1114.1	212.23	3.3661e-06	3.1332e-06	273.7	78.635	61.849	18.336	3.1625e-06	25.502	169.486	8.484	-2.101	-100.756	16.571	57.999	-100.885	-93.743	-0.344	54.682	-93.301	-87.470	-87.145	-79.722	33.624	-79.779	-8191	255	
33259.309	1	1	0	0	0.14633	0.15442	0.29713	0.25188	0.063005	0.14799	0.084444	0.21163	0.043424	0.18542	0.13227	0.17537	0.13435	0.17924	0.24687	0.14276	-1.1688	-1.925	-1.5542	-2.0271	-1.5312	-1.7083	-1.9875	-1.8062	-1.6938	-2.0479	-1.6313	-2.0854	-1.6938	-1.6187	-2.2313	-1.8771	50.702	223.543	1.010	117.663	218.573	-58.633	-42.693	174.690	81.981	61.717	162.811	220.438	7.488	234.010	118.765	59.653	0.00013424	0.00026839	3.9042e-05	1041.4	1.6475e-06	3.3676e-06	1118.1	212.24	1.607e-06	3.179e-06	272.26	77.269	60.185	17.907	1.3905e-06	25.008	0.00023961	0.00028037	8.2362e-05	1031.2	3.2656e-06	2.7579e-06	1114.8	212.25	3.0633e-06	2.9e-06	273.87	78.621	61.712	18.301	2.9341e-06	25.507	179.953	-31.135	-14.258	-100.753	57.119	60.279	-100.882	-93.483	-51.058	36.954	-93.847	-87.182	-87.530	-79.472	35.798	-80.040	-8191	255	
33259.379	1	1	0	0	0.070993	0.1704	0.08291	0.26538	0.14022	0.017295	0.1331	0.17553	0.19048	0.34944	0.26131	0.1343	0.022306	0.10535	0.10101	0.092726	-1.4083	-2.0708	-1.4438	-1.9937	-1.7646	-1.5792	-2.1917	-1.8312	-1.7812	-1.9937	-1.6583	-1.9417	-1.7042	-1.625	-2.0417	-1.6354	60.270	-81.507	238.708	117.148	170.965	-107.769	84.448	178.933	158.903	81.124	120.321	9.998	-8.673	81.068	-11.957	56.322	0.00013458	0.00023094	0.0001195	1037.4	1.044e-06	2.6043e-06	1115.1	212.29	1.2295e-06	2.778e-06	270.65	76.804	60.649	17.968	2.1128e-06	24.922	0.00025022	0.00027475	8.4156e-05	1027.2	3.2924e-06	3.0749e-06	1112.6	212.29	3.3167e-06	3.1093e-06	273.21	78.382	62.052	18.255	2.9985e-06	25.473	183.899	8.462	-4.322	-100.859	54.590	27.392	-100.949	-93.671	-11.081	31.767	-93.764	-86.948	-87.732	-79.018	14.944	-80.244	-8191	255	
33259.477	1	1	0	0	0.23869	0.16933	0.19543	0.054271	0.20596	0.23664	0.089637	0.25844	0.19462	0.14325	0.11337	0.27689	0.21061	0.020475	0.054659	0.10995	-1.2833	-1.8708	-1.4896	-1.9375	-1.8729	-1.6708	-1.9833	-1.6771	-1.6437	-1.9646	-1.6292	-1.6854	-1.9292	-1.5479	-1.9333	-1.6771	35.115	-54.534	-37.410	-101.774	218.402	96.734	146.887	-38.805	220.001	15.678	121.109	197.223	155.616	128.320	143.464	119.150	0.00013337	0.00029266	6.4205e-05	1034.2	2.3702e-06	1.8033e-06	1117.3	211.76	1.5563e-06	3.3401e-06	271.63	77.509	60.444	17.983	2.2012e-06	24.726	0.00023961	0.00027307	8.2032e-05	1027.2	3.255e-06	3.0273e-06	1113.9	212.16	3.1769e-06	2.6524e-06	273.45	78.495	61.946	18.292	3.1892e-06	25.447	168.010	-35.307	-14.747	-101.005	-1.891	31.702	-100.718	-93.308	-37.171	-3.929	-93.802	-87.087	-87.574	-78.898	25.264	-79.978	-8191	255	
33259.598	1	1	0	0	0.096851	0.20808	0.21955	0.32301	0.26991	0.0096596	0.26123	0.26547	0.029087	0.067847	0.18122	0.32693	0.10396	0.20596	0.16973	0.20407	-1.1479	-1.9854	-1.5292	-1.7437	-1.9438	-1.4854	-2.1271	-1.8375	-1.575	-1.9396	-1.7563	-1.7333	-1.8729	-1.675	-1.875	-1.9396	86.807	-59.349	130.667	202.934	188.642	196.758	159.554	117.348	188.560	-6.725	133.328	-95.746	1.048	-97.673	33.508	229.029	0.00015064	0.00015184	8.0333e-05	1034	2.3003e-06	4.02e-06	1113.2	211.24	1.1999e-06	4.219e-06	274.15	77.789	60.727	17.996	2.4954e-06	25.053	0.0002391	0.00026106	7.2521e-05	1027.1	3.3103e-06	3.2072e-06	1112.5	212.01	3.207e-06	2.8302e-06	274.1	78.772	62.083	18.318	2.7751e-06	25.554	172.566	4.488	-16.699	-100.646	4.510	42.752	-100.976	-93.592	-41.154	36.820	-93.848	-87.410	-86.997	-79.161	36.799	-79.578	-8191	255	
33259.691	1	1	0	0	0.12177	0.21645	0.17105	0.2972	0.065747	0.073474	0.16733	0.1764	0.045124	0.27932	0.3576	0.17958	0.12636	0.23434	0.35838	0.093213	-0.9625	-1.9875	-1.6167	-1.6875	-2.0687	-1.65	-1.9542	-1.8417	-1.4417	-2.1396	-1.7563	-1.5688	-1.8417	-1.7083	-1.8875	-2.1063	78.854	247.813	-79.059	194.395	35.223	172.465	197.583	241.139	175.378	49.970	-14.276	86.257	-16.421	14.410	210.980	233.434	0.00011425	0.00018321	6.914e-05	1034.6	1.9115e-06	3.0206e-06	1119	211.7	1.4105e-06	3.0921e-06	271.72	77.874	60.675	18.032	2.4474e-06	24.91	0.00025127	0.00027718	7.7406e-05	1026.9	2.9926e-06	3.2148e-06	1112.6	212.47	3.1784e-06	3.0797e-06	273.86	78.894	62.15	18.306	2.8136e-06	25.481	173.396	-33.445	-58.730	-100.747	33.168	17.938	-101.068	-93.781	-38.231	63.237	-93.454	-87.134	-87.531	-80.045	10.692	-79.777	-8191	255	
33259.789	1	1	0	0	0.14779	0.21431	0.24851	0.3098	0.16864	0.40301	0.183	0.15778	0.26791	0.22902	0.05797	0.12893	0.1264	0.090806	0.23361	0.13553	-1.2021	-1.9542	-1.6417	-1.65	-1.9125	-1.8125	-2.0167	-2.0812	-1.3583	-1.9833	-1.7604	-1.4813	-2.0417	-1.7188	-1.7979	-2.0292	247.263	-31.288	195.206	188.116	241.636	-67.531	207.717	178.250	184.563	159.304	118.904	196.031	217.096	177.735	-69.466	97.330	0.00014314	0.00033835	9.316e-05	1040.1	1.755e-06	2.8348e-06	1116.2	211.68	2.2626e-06	3.4528e-06	274.06	77.972	60.358	17.879	1.9511e-06	24.961	0.00023939	0.0002556	8.2008e-05	1032	3.2087e-06	3.113e-06	1114.6	212.46	3.2981e-06	3.0395e-06	273.98	78.844	61.963	18.336	2.9232e-06	25.538	171.932	-39.451	-2.699	-100.794	-0.334	46.874	-100.993	-93.582	-74.920	45.406	-94.037	-87.290	-87.623	-79.415	44.099	-79.873	-8191	255	
33259.910	1	1	0	0	0.14989	0.15197	0.30727	0.17197	0.16841	0.098534	0.13726	0.16116	0.23875	0.37552	0.084485	0.19917	0.083773	0.29364	0.18418	0.12194	-1.2125	-1.9896	-1.6562	-1.6167	-1.9104	-1.6437	-1.7146	-1.9708	-1.3979	-1.8271	-1.8792	-1.6208	-1.9146	-1.6958	-1.7458	-2.1	79.753	158.184	2.691	192.450	141.814	80.119	-101.945	-58.955	246.273	151.985	-33.894	-97.203	8.591	217.216	-27.206	-89.182	0.00014593	0.00022585	8.3996e-05	1036.3	1.4544e-06	2.8531e-06	1114.4	211.02	2.3504e-06	2.6355e-06	273.03	77.581	61.217	18.047	2.1673e-06	25.057	0.00025073	0.00025502	7.7406e-05	1028.5	3.3151e-06	2.9549e-06	1114.5	212.14	3.292e-06	2.9133e-06	273.87	78.695	62.089	18.344	3.0077e-06	25.556	168.233	-57.225	-34.982	-100.861	23.982	45.627	-100.926	-93.727	-8.446	25.914	-93.446	-87.192	-87.611	-79.353	44.442	-79.785	-8191	255	
33260.008	1	1	0	0	0.27745	0.085617	0.15912	0.10089	0.062815	0.026811	0.32022	0.067405	0.24136	0.44007	0.17545	0.21921	0.094147	0.17425	0.035379	0.38377	-0.91875	-1.8167	-2.0979	-1.5438	-1.8917	-1.8896	-1.7292	-2.0729	-1.6333	-1.8188	-1.9375	-1.4333	-1.9646	-1.7979	-1.6604	-2.0667	-49.423	157.882	-102.218	210.036	226.781	45.798	181.583	176.775	135.966	-94.032	30.263	-52.508	-16.712	98.171	-81.764	72.322	0.00014358	0.00036023	2.9134e-05	1040	1.4994e-06	3.4977e-06	1117.4	211.48	1.9776e-06	2.4811e-06	271.95	77.72	60.673	18.08	1.7368e-06	24.89	0.00024909	0.00026954	7.2899e-05	1029.7	3.0722e-06	3.1282e-06	1112.7	212.51	3.4588e-06	3.0242e-06	272.2	78.683	61.878	18.35	3.1733e-06	25.499	172.803	-27.368	-5.766	-101.017	12.993	49.387	-100.976	-93.044	-39.630	16.062	-93.788	-87.137	-87.806	-79.679	-10.777	-79.744	-8191	255	
33260.078	1	1	0	0	0.48435	0.14747	0.15365	0.16191	0.048824	0.19931	0.14236	0.17269	0.1017	0.3676	0.34935	0.29163	0.20147	0.055537	0.23268	0.19413	-1.2208	-1.8021	-1.8354	-1.5542	-2.0292	-1.8563	-1.8583	-2.1542	-1.7625	-1.5833	-2.1583	-1.5396	-2.0104	-1.925	-1.4396	-2.0583	180.896	58.028	102.819	-86.069	14.400	220.485	166.184	98.571	-29.794	-72.228	-34.759	113.436	143.635	27.690	21.061	12.142	0.00013297	0.0001447	0.00010033	1037.6	1.5061e-06	3.689e-06	1111.1	211.5	2.8448e-06	2.3012e-06	274.21	77.758	60.875	18.123	6.6879e-07	24.996	0.00024169	0.00028399	7.0492e-05	1027.6	3.1778e-06	3.0444e-06	1110.7	212.39	3.2201e-06	2.9678e-06	273.98	78.661	62.037	18.351	3.0813e-06	25.541	166.391	-15.664	20.250	-100.579	50.641	24.733	-100.850	-93.630	-4.761	41.913	-93.333	-87.121	-87.469	-79.513	37.897	-80.108	-8191	255	
33260.199	1	1	0	0	0.084377	0.045343	0.30267	0.1237	0.047272	0.27283	0.089062	0.22461	0.11023	0.19519	0.20474	0.17447	0.31863	0.16726	0.26789	0.16261	-1.325	-1.6146	-1.9562	-1.525	-1.775	-1.9375	-1.5375	-2.0354	-1.7646	-1.7167	-2.1458	-1.6	-1.8646	-2.0458	-1.4979	-2.0833	194.756	168.701	-97.669	103.346	112.363	-43.240	234.702	170.318	-81.429	-40.276	149.438	108.690	127.782	49.544	-107.501	100.304	0.00014513	0.00025976	9.4023e-05	1038.4	2.1723e-06	3.7695e-06	1112	212.12	2.1102e-06	2.5653e-06	274.77	77.783	61.052	18.119	2.1917e-06	25.084	0.0002313	0.00026173	7.4787e-05	1028.5	3.0235e-06	2.9578e-06	1110.4	212.58	3.3839e-06	2.9669e-06	274.46	78.547	61.792	18.333	3.0094e-06	25.632	177.576	-15.523	-1.270	-100.629	29.610	23.078	-100.906	-93.307	14.495	59.086	-94.387	-87.551	-87.773	-78.721	14.945	-79.848	-8191	255	
33260.293	1	1	0	0	0.10074	0.17243	0.1775	0.059795	0.20594	0.22449	0.20804	0.25319	0.27497	0.1704	0.12836	0.29427	0.28699	0.13465	0.087959	0.28727	-1.2375	-1.5167	-2.0208	-1.6562	-1.7812	-2.1021	-1.7333	-2.0125	-1.8042	-1.7687	-2.0792	-1.5146	-1.925	-1.9646	-1.6167	-1.6854	-106.653	99.232	105.131	68.168	-70.558	76.430	-51.140	191.326	173.060	96.483	-84.515	-80.201	188.884	94.850	239.963	138.576	0.00012712	0.00033477	7.096e-05	1037.5	1.4364e-06	1.6862e-06	1115.5	210.28	1.9138e-06	2.6048e-06	274.42	77.336	60.677	18.045	3.1434e-06	24.921	0.00023815	0.00028617	7.1058e-05	1028.2	3.398e-06	2.8017e-06	1112	211.94	3.3314e-06	2.9669e-06	274.94	78.47	61.925	18.342	3.2578e-06	25.464	179.156	-25.140	-29.948	-100.871	1.532	33.929	-100.788	-93.340	-20.993	62.592	-94.178	-86.770	-87.778	-79.266	64.221	-80.107	-8191	255	
33260.391	1	1	0	0	0.13017	0.02075	0.27729	0.054718	0.1709	0.20639	0.15478	0.37944	0.23639	0.22267	0.18639	0.097961	0.066343	0.075203	0.17555	0.4446	-1.3083	-1.4188	-1.8396	-1.7146	-1.9104	-2.1688	-1.7208	-1.9646	-1.8771	-1.5958	-2.0812	-1.6521	-1.6313	-2.1417	-1.4542	-2.0062	167.729	7.329	-40.497	11.979	186.725	193.116	199.122	162.265	-75.312	-86.434	-57.825	21.127	95.694	-96.098	148.590	159.054	0.00013037	0.00022007	0.00010108	1032.8	2.2289e-06	1.3995e-06	1113.4	211.95	1.8379e-06	2.5497e-06	272.64	77.55	60.881	17.963	1.1435e-06	25.027	0.00022937	0.00027374	7.8846e-05	1024.6	3.2648e-06	2.8226e-06	1112.5	212.43	3.0487e-06	2.9669e-06	274.41	78.735	62.159	18.324	2.873e-06	25.639	173.375	14.543	-29.073	-100.845	53.874	24.206	-100.954	-93.611	-0.544	24.675	-93.716	-86.714	-87.509	-79.420	14.987	-79.624	-8191	255	
33260.484	1	1	0	0	0.22407	0.17091	0.055968	0.2091	0.27431	0.094439	0.3868	0.20215	0.13465	0.063794	0.093976	0.27803	0.24381	0.21954	0.053848	0.26096	-1.4312	-1.5771	-1.7896	-1.8292	-1.7104	-1.8771	-1.7875	-1.9042	-2.0042	-1.5104	-1.8667	-1.7021	-1.475	-1.925	-1.6167	-1.9396	160.843	234.646	116.181	127.160	-82.429	-105.636	133.702	247.278	166.546	-75.265	55.212	-82.264	213.164	20.377	138.951	-64.122	0.0001405	0.0002268	8.6529e-05	1034.4	1.6291e-06	3.9307e-06	1111.6	211.5	2.0652e-06	3.0868e-06	272.36	77.003	61.14	18.22	1.74e-06	24.981	0.00023156	0.00026341	6.9005e-05	1025	3.1754e-06	2.6836e-06	1110.5	212.35	2.8795e-06	3.0166e-06	274.32	78.43	62.067	18.438	2.8554e-06	25.615	181.445	-20.287	-31.743	-100.943	0.014	52.338	-100.881	-93.407	-5.236	58.721	-93.565	-87.358	-86.899	-79.232	30.343	-79.958	-8191	255	
33260.605	1	1	0	0	0.26214	0.16247	0.14623	0.13286	0.25298	0.15221	0.46089	0.035905	0.22374	0.20229	0.13825	0.09574	0.37291	0.18003	0.20975	0.2838	-1.325	-1.3896	-1.9854	-1.6396	-1.5063	-2.1146	-1.6604	-1.8146	-1.9833	-1.2354	-1.9167	-1.9	-1.5542	-2.1146	-1.7563	-1.7354	215.686	-39.751	98.145	-97.402	0.154	244.558	184.956	-68.699	219.717	142.813	-11.967	212.704	216.386	156.194	-18.749	199.468	0.00011983	0.0002015	7.0122e-05	1034.2	1.2948e-06	3.0798e-06	1110.1	211.21	1.5754e-06	3.6056e-06	272.97	77.526	61.128	18.022	1.5923e-06	24.999	0.00023852	0.00026476	7.1483e-05	1024.2	3.2826e-06	3.0463e-06	1110.4	212.32	3.0525e-06	3.1791e-06	273.6	78.664	62.128	18.342	2.9366e-06	25.577	176.104	-17.253	-17.186	-101.130	-8.542	31.540	-100.577	-93.574	-19.140	39.504	-93.651	-87.351	-87.457	-79.371	44.807	-79.937	-8191	255	
33260.676	1	1	0	0	0.13445	0.024091	0.21697	0.2984	0.1301	0.074226	0.34726	0.22227	0.21051	0.16135	0.17719	0.30074	0.098318	0.24359	0.012158	0.12605	-1.4875	-1.6375	-1.9833	-1.9417	-1.4729	-1.9333	-1.8458	-1.7479	-1.9021	-1.6042	-2.0563	-1.8833	-1.4312	-2.0354	-1.8479	-1.65	32.986	-53.893	110.521	-95.854	219.548	132.290	222.042	182.348	-3.456	155.415	-36.570	202.158	229.299	222.900	76.818	-15.767	0.00012753	0.0002302	6.9504e-05	1031.7	1.011e-06	2.4579e-06	1117.2	210.68	2.4218e-06	3.7342e-06	272.27	77.486	61.196	18.08	3.1345e-06	24.945	0.00023134	0.00026047	7.9365e-05	1026.2	3.1787e-06	2.6674e-06	1113	212.41	3.1591e-06	3.1485e-06	273.63	78.639	62.146	18.371	2.8747e-06	25.568	173.121	-27.422	-32.785	-100.749	14.962	74.227	-100.806	-93.369	-33.400	22.096	-94.079	-87.256	-87.036	-78.970	35.156	-79.708	-8191	255	
33260.773	1	1	0	0	0.16317	0.11095	0.063621	0.2139	0.23291	0.04155	0.17293	0.14433	0.059152	0.14596	0.2971	0.15284	0.19864	0.4245	0.08165	0.12179	-1.5063	-1.5396	-1.75	-2.0583	-1.5646	-2.0333	-2.025	-1.7458	-1.9604	-1.6792	-1.9813	-1.9521	-1.3937	-2.0958	-1.8146	-1.8333	199.341	49.555	80.158	-103.790	121.736	167.453	247.338	210.674	-31.933	-74.952	-34.700	215.345	202.028	-104.783	-73.992	-88.322	0.0001432	0.00021735	9.3127e-05	1041.6	2.9539e-07	2.391e-06	1117.6	211.24	2.3259e-06	3.289e-06	271.87	77.552	60.438	18.101	2.102e-06	25.062	0.00022588	0.00028163	7.6203e-05	1028.7	3.0942e-06	2.8245e-06	1113	211.98	3.1468e-06	2.9315e-06	273.53	78.749	61.951	18.351	2.668e-06	25.589	176.143	-27.649	-8.283	-100.832	-13.663	33.523	-100.842	-93.264	-16.614	54.332	-93.691	-86.984	-87.606	-79.053	50.992	-80.007	-8191	255	
33260.871	1	1	0	0	0.10953	0.043085	0.31323	0.031507	0.097642	0.040085	0.12853	0.10603	0.18816	0.35311	0.27738	0.21157	0.21037	0.11771	0.26019	0.14652	-1.8146	-1.7458	-1.6396	-1.9917	-1.5792	-1.9667	-2.0021	-1.7021	-2.0542	-1.8604	-1.8771	-2.0292	-1.8958	-1.8458	-1.8125	-1.3542	89.349	-41.986	-99.096	109.541	-106.674	-91.448	-108.439	-80.706	78.498	-95.910	-73.737	203.942	-11.069	-53.661	55.306	-83.364	0.00012944	0.00034319	8.9393e-05	1037.3	1.3685e-06	2.5076e-06	1113.3	212.91	1.5503e-06	3.3944e-06	272.52	77.434	60.338	18.018	2.2683e-06	24.866	0.00022821	0.00027475	7.7949e-05	1027.4	3.3704e-06	2.7969e-06	1112.1	212.61	3.0131e-06	3.1102e-06	273.95	78.468	61.892	18.359	2.8546e-06	25.568	164.506	-17.486	-6.509	-101.017	50.371	49.345	-100.691	-93.650	-17.176	35.063	-93.537	-87.185	-87.566	-79.568	31.022	-79.972	-8191	255	
33260.988	1	1	0	0	0.17281	0.093968	0.091127	0.20685	0.20696	0.067629	0.2429	0.22031	0.18469	0.22782	0.25764	0.017627	0.24392	0.11046	0.11964	0.14355	-1.5312	-1.6437	-1.5604	-1.9854	-1.6354	-1.8521	-2.0083	-1.6146	-2	-1.6896	-1.5917	-2.1771	-1.6562	-1.7354	-1.9604	-1.4958	-35.392	-14.837	-81.577	-108.994	47.651	176.956	124.526	187.577	-0.113	116.832	180.871	223.058	148.933	-106.001	-103.290	133.042	0.00012771	0.00025945	0.00010823	1035.8	2.1715e-06	2.6683e-06	1113.3	211.96	2.4724e-06	4.0711e-06	272.97	77.436	60.017	18.102	2.2901e-06	25.097	0.00024081	0.00027223	7.5613e-05	1025.4	3.2485e-06	3.0873e-06	1110.3	212.43	3.1074e-06	3.093e-06	273.04	78.701	61.765	18.346	2.9023e-06	25.514	176.887	-47.454	-21.682	-100.869	14.663	41.095	-100.934	-93.557	-18.437	30.297	-93.613	-87.254	-87.378	-79.468	36.643	-80.009	-8191	255	
33261.086	1	1	0	0	0.31966	0.14093	0.045863	0.14985	0.24836	0.15085	0.10261	0.11393	0.078636	0.27948	0.22032	0.1522	0.13339	0.14935	0.38007	0.24766	-1.475	-1.8854	-1.5917	-2.2292	-1.5021	-1.7354	-2.3625	-1.4937	-2.025	-1.8813	-1.7208	-2.2146	-1.5417	-1.7771	-2.0146	-1.625	131.394	151.023	218.146	213.159	-26.646	17.156	137.371	-40.990	-53.294	37.892	-75.266	-104.161	107.346	122.283	-95.893	142.619	0.00015026	0.00017205	0.00010409	1035.4	2.4245e-06	2.0007e-06	1113.4	211.47	1.1532e-06	1.9718e-06	272.45	77.389	60.848	17.925	2.0805e-06	25.032	0.00022828	0.00026173	7.9058e-05	1027.4	3.333e-06	3.0977e-06	1111.4	211.92	2.9011e-06	3.0653e-06	273.88	78.729	61.975	18.313	2.9801e-06	25.641	174.275	-34.366	-5.115	-100.864	33.163	31.045	-100.809	-93.582	-7.191	52.426	-93.340	-87.176	-86.969	-78.986	11.716	-79.710	-8191	255	
33261.180	1	1	0	0	0.21353	0.20941	0.14909	0.23326	0.070869	0.16312	0.32823	0.24053	0.3254	0.25154	0.049915	0.20469	0.24819	0.28202	0.10832	0.17333	-1.5021	-1.7792	-1.7313	-2.1792	-1.7354	-1.7375	-2.2042	-1.6708	-2.0167	-1.8333	-1.5333	-1.9396	-1.5708	-1.725	-2.0604	-1.7646	-3.385	-5.371	-52.913	244.582	165.214	236.065	123.275	140.770	182.825	78.908	205.882	74.550	181.649	110.536	215.670	245.184	0.00013757	0.00023388	8.9261e-05	1037	2.0413e-06	3.2649e-06	1112.7	211.2	1.5954e-07	4.029e-06	273.13	77.923	61.307	17.955	2.6134e-06	24.886	0.00022551	0.00024175	7.7241e-05	1027.4	3.4272e-06	2.8131e-06	1109.3	212.65	2.9707e-06	2.9525e-06	273.77	78.715	62.109	18.331	2.8487e-06	25.5	175.274	3.866	-10.033	-101.041	18.345	50.428	-100.979	-93.572	38.023	42.052	-94.563	-87.038	-87.178	-79.305	29.585	-80.328	-8191	255	
33261.277	1	1	0	0	0.058699	0.28589	0.16284	0.13257	0.20047	0.26451	0.1052	0.046647	0.22485	0.082126	0.17235	0.030302	0.15354	0.02162	0.030065	0.059645	-1.45	-1.8708	-1.3583	-2.0896	-1.7958	-1.8167	-2.1875	-1.5896	-1.9521	-1.9542	-1.4125	-2.0312	-1.8479	-1.6	-1.9979	-1.6417	-65.881	-16.866	166.625	235.917	114.295	174.523	88.659	190.055	19.339	40.499	-81.268	-10.373	-25.419	38.389	58.804	-19.155	0.00015875	0.00036873	8.5324e-05	1037.1	3.0623e-06	3.4699e-06	1112.4	211.44	1.5273e-06	3.6877e-06	271.91	77.75	60.343	18.073	1.7534e-06	24.994	0.00024052	0.0002666	7.9908e-05	1028.2	3.1177e-06	3.2167e-06	1113.9	212.39	3.1815e-06	2.8455e-06	273.86	78.746	62.02	18.385	2.7274e-06	25.636	172.370	-39.424	3.417	-100.856	33.917	49.853	-101.063	-93.286	-17.644	46.665	-94.216	-87.038	-87.295	-79.719	50.562	-79.838	-8191	255	
33261.371	1	1	0	0	0.056286	0.20048	0.23548	0.14929	0.13667	0.05792	0.26267	0.26588	0.072244	0.21207	0.22249	0.24799	0.054615	0.33661	0.051023	0.38422	-1.2854	-1.9813	-1.6375	-1.9208	-1.8896	-1.5958	-2.1167	-1.725	-1.5562	-1.9708	-1.4896	-1.9937	-1.6458	-1.7313	-1.9583	-1.7188	42.187	107.313	-45.450	233.895	-5.441	165.154	223.038	195.654	12.863	99.424	37.957	-39.613	-78.513	-11.596	224.194	-107.321	0.00010605	0.0002121	8.3918e-05	1040.2	2.4231e-06	2.8243e-06	1115.7	212.41	1.7677e-06	1.7476e-06	274.13	77.49	60.054	18.004	2.2383e-06	24.741	0.0002266	0.00025602	7.7076e-05	1027.9	3.0893e-06	3.0616e-06	1113.5	212.49	3.173e-06	2.9219e-06	274.86	78.574	61.999	18.34	2.8663e-06	25.428	171.218	-23.502	-12.740	-100.917	4.501	49.110	-100.877	-93.625	-40.209	70.667	-93.769	-87.015	-86.991	-79.154	11.168	-79.946	-8191	255	
33261.469	1	1	0	0	0.12684	0.064863	0.21094	0.38419	0.13737	0.32398	0.12394	0.13891	0.095063	0.14134	0.087662	0.18604	0.24155	0.080393	0.27388	0.085263	-1.3083	-1.8896	-1.5604	-1.9021	-1.8833	-1.5479	-2.1688	-1.7417	-1.8188	-2.0167	-1.6646	-1.7979	-2.0687	-1.6604	-1.7833	-1.6833	184.058	-3.060	43.815	-99.805	-49.647	25.274	-108.841	78.051	-78.947	108.463	176.295	222.503	-6.280	94.710	104.408	-55.815	0.00012462	0.00023971	0.00011666	1036.6	1.493e-06	2.6757e-06	1118.8	212.03	9.3762e-07	2.6473e-06	273.07	77.942	60.46	17.973	1.8728e-06	24.969	0.00023622	0.00025703	8.5265e-05	1030.4	3.3306e-06	3.2491e-06	1115.5	212.45	3.2425e-06	2.9917e-06	273.9	78.808	62.164	18.265	2.8872e-06	25.567	171.516	1.519	-1.278	-100.677	79.550	0.524	-100.643	-93.629	28.434	30.985	-93.715	-87.247	-87.190	-79.307	37.105	-80.184	-8191	255	
33261.590	1	1	0	0	0.24372	0.26471	0.069682	0.37182	0.13048	0.15739	0.27742	0.070714	0.069763	0.19349	0.30326	0.26724	0.24749	0.2447	0.13001	0.042836	-1.2313	-2.0187	-1.5833	-2.025	-1.9667	-1.5604	-2.0229	-1.7979	-1.6562	-2.1625	-1.7062	-1.7938	-1.7938	-1.5729	-2.0146	-1.8583	-27.448	100.428	-46.101	202.622	-102.281	98.862	214.724	-56.287	-105.097	190.530	-50.338	193.835	-47.558	-39.906	-19.895	-95.953	0.00013749	0.00026494	5.9264e-05	1042	1.2405e-06	2.5453e-06	1118.9	211.93	1.0982e-06	2.9423e-06	271.79	77.67	59.991	18.029	2.3553e-06	24.89	0.0002536	0.00028029	8.3117e-05	1033.1	3.3013e-06	3.2386e-06	1118.3	212.95	3.5662e-06	2.8914e-06	273.85	78.775	61.907	18.365	2.7659e-06	25.492	175.105	-22.167	-46.268	-100.810	9.267	47.306	-100.951	-93.201	5.984	17.434	-94.227	-87.395	-86.968	-79.175	59.066	-80.110	-8191	255	
33261.684	1	1	0	0	0.15701	0.11266	0.08724	0.082818	0.11692	0.29959	0.34207	0.3682	0.10548	0.070277	0.28805	0.11775	0.070106	0.24869	0.23814	0.32784	-0.93125	-1.975	-1.7396	-1.825	-2.0542	-1.6667	-1.9979	-1.9	-1.6625	-2.0667	-1.6646	-1.9167	-1.9583	-1.5458	-1.8083	-1.7792	84.086	-20.119	-6.230	-23.191	139.132	-32.425	207.822	226.472	17.728	168.184	204.808	144.644	41.757	-58.881	69.287	-83.025	0.00013789	0.00024218	0.00012545	1045	1.4589e-06	2.2262e-06	1123.7	211.81	7.9727e-07	2.9614e-06	275.59	77.723	61.326	18.07	1.2015e-06	25.123	0.00023947	0.00028306	7.7548e-05	1034.6	3.2786e-06	3.4128e-06	1118.7	212.29	3.2757e-06	3.0472e-06	275.21	78.883	62.258	18.394	3.0102e-06	25.55	171.151	-22.210	-34.165	-100.829	-10.520	30.628	-101.070	-93.608	-10.463	57.817	-93.867	-87.024	-87.068	-79.406	2.471	-80.118	-8191	255	
33261.781	1	1	0	0	0.12044	0.15076	0.17593	0.13952	0.16781	0.17462	0.072481	0.042854	0.067888	0.16195	0.35469	0.28742	0.1244	0.2074	0.065776	0.25637	-1.1083	-2.0708	-1.7167	-1.7271	-1.8396	-1.6042	-2.1479	-1.8396	-1.4458	-1.9688	-1.8708	-1.7104	-2.1896	-1.6292	-1.6104	-1.9854	-80.490	218.567	-89.146	229.638	209.768	201.026	221.965	24.227	156.429	219.962	-104.205	235.088	-9.538	43.158	-48.261	91.733	0.00014847	0.00024744	9.4992e-05	1037	8.8066e-07	3.1646e-06	1125.1	213.22	1.3483e-06	2.7194e-06	273.66	77.747	60.738	17.964	3.2408e-06	25.207	0.00025419	0.00025476	8.1064e-05	1034.5	3.1324e-06	3.0587e-06	1120.2	212.97	3.4109e-06	3.1045e-06	275.41	78.888	62.08	18.352	3.0328e-06	25.68	172.472	-12.908	-20.530	-100.475	20.280	37.616	-100.933	-93.595	-5.864	54.029	-93.741	-87.265	-87.296	-79.102	34.891	-80.116	-8191	255	
33261.902	1	1	0	0	0.21321	0.42279	0.046298	0.22456	0.34039	0.25923	0.19778	0.23824	0.17797	0.046219	0.4212	0.11618	0.23071	0.27647	0.10433	0.20268	-0.9875	-1.8896	-1.9542	-1.8771	-1.9104	-1.6917	-2.0042	-2.075	-1.4958	-1.9271	-1.8083	-1.7125	-2.15	-1.6896	-1.6771	-2.1708	-111.216	21.067	-27.090	216.712	153.762	146.978	241.593	150.572	-27.209	89.229	242.934	164.241	6.652	-55.462	-96.139	16.651	0.00013022	0.00022829	8.3978e-05	1044.7	4.4544e-07	3.0099e-06	1125.6	211.7	1.285e-06	1.9194e-06	275.05	77.842	61.204	18.114	1.9383e-06	24.946	0.00023258	0.00026904	7.7666e-05	1032.4	3.1372e-06	2.9568e-06	1120.8	212.64	3.4156e-06	3.2412e-06	274.57	78.913	62.335	18.388	2.9901e-06	25.545	175.392	-23.097	-28.280	-100.860	35.146	70.175	-100.686	-93.551	3.121	63.584	-93.554	-87.349	-87.718	-79.299	26.897	-79.911	-8191	255	
33261.973	1	1	0	0	0.076319	0.090025	0.065417	0.25012	0.18341	0.26344	0.31921	0.10662	0.26711	0.20369	0.15693	0.058416	0.27539	0.067002	0.29611	0.054137	-1.0542	-1.8813	-1.825	-1.7083	-1.9979	-1.8958	-1.8854	-2.2687	-1.7646	-1.7833	-1.8854	-1.4146	-1.7875	-1.8604	-1.5667	-2.1292	191.650	70.357	115.308	187.091	212.424	130.858	179.294	183.849	114.130	104.935	99.093	-26.975	106.150	63.743	185.521	-106.931	0.000144	0.00028251	1.7329e-05	1041.9	5.6454e-07	2.742e-06	1121.2	212.09	1.3474e-06	2.1491e-06	278.48	78.136	60.635	17.968	2.8727e-06	24.844	0.0002391	0.00030599	7.6509e-05	1033.4	3.3736e-06	3.0682e-06	1118.9	212.98	3.3406e-06	3.0739e-06	276.28	78.764	62.124	18.337	3.0428e-06	25.538	172.747	0.692	-19.528	-100.878	23.209	39.044	-100.898	-93.558	6.371	35.978	-94.095	-87.177	-87.316	-79.547	37.774	-80.274	-8191	255	
33262.070	1	1	0	0	0.25399	0.088151	0.063136	0.091632	0.12565	0.2117	0.19357	0.022564	0.1101	0.23956	0.038942	0.067903	0.11792	0.11053	0.078651	0.25739	-1.2625	-1.8729	-1.9479	-1.6083	-1.9583	-1.8854	-1.6812	-2.1	-1.7458	-1.7875	-2.0125	-1.4708	-1.9583	-1.8229	-1.575	-2.1854	-48.162	-72.411	157.270	-68.845	-99.360	-27.402	207.186	-20.211	-68.921	190.492	-102.182	-95.883	164.329	124.993	-87.654	-21.350	0.00011567	0.00023205	0.00012231	1044	1.8559e-06	3.8334e-06	1124.8	212.46	1.4502e-06	3.299e-06	277.84	77.663	60.281	18.014	1.3988e-06	24.931	0.00023936	0.00027215	7.6557e-05	1032.6	3.2851e-06	3.1349e-06	1119.7	212.77	3.4101e-06	3.4505e-06	276.28	78.801	62.087	18.377	3.1031e-06	25.597	177.348	-12.612	-3.752	-101.033	15.897	48.184	-101.065	-93.447	17.347	48.676	-93.945	-87.688	-87.664	-79.071	25.664	-79.812	-8191	255	
33262.164	1	1	0	0	0.37938	0.25236	0.073038	0.46498	0.09096	0.10938	0.10339	0.15098	0.1336	0.15537	0.29838	0.2286	0.10809	0.19641	0.22322	0.19458	-1.2396	-1.7021	-2.0396	-1.7188	-1.7979	-1.9646	-1.7313	-1.8312	-1.95	-1.7229	-1.9729	-1.6812	-1.9562	-1.9937	-1.4021	-2.0396	133.017	-2.833	40.640	193.216	181.705	-59.259	226.754	97.199	-90.405	3.549	163.280	207.607	-47.524	59.603	221.041	-33.415	0.00012573	0.00033075	5.5409e-05	1042.6	2.7218e-06	3.0432e-06	1120.3	212.59	1.2449e-06	3.0488e-06	270.66	77.975	60.892	17.939	1.308e-06	24.979	0.00023772	0.00027534	7.6155e-05	1033.8	3.2566e-06	3.2501e-06	1117.4	213.04	3.2379e-06	3.1513e-06	273.68	78.892	62.308	18.31	3.3315e-06	25.507	169.490	-36.922	-40.066	-101.031	62.933	46.306	-100.992	-93.355	-17.291	32.201	-93.880	-87.074	-87.191	-79.261	43.799	-79.616	-8191	255	
33262.285	1	1	0	0	0.084514	0.12075	0.20136	0.039532	0.22328	0.042215	0.15726	0.32966	0.26817	0.1606	0.19329	0.076936	0.1462	0.13665	0.15817	0.091787	-1.6104	-1.4521	-1.9646	-1.8875	-1.8417	-2.0521	-1.6958	-1.9042	-1.7458	-1.6938	-2.1063	-1.6313	-1.7062	-1.8708	-1.4917	-1.9833	18.919	50.918	36.160	185.073	19.982	125.702	130.686	-53.415	148.108	123.588	-39.182	81.164	-86.797	131.184	113.318	-87.145	0.00012554	0.00028148	7.1055e-05	1035.3	2.3857e-06	3.7487e-06	1120.5	212.71	1.8103e-06	2.4459e-06	276.79	77.491	60.451	17.982	2.4939e-06	24.676	0.00024792	0.00025997	8.2338e-05	1030.9	3.3176e-06	3.0149e-06	1117	213	3.231e-06	3.569e-06	275.06	78.727	61.808	18.331	3.3608e-06	25.455	178.445	-25.988	-22.851	-100.999	33.774	63.884	-100.740	-93.501	-8.498	31.275	-94.083	-87.162	-87.374	-79.537	34.947	-79.957	-8191	255	
33262.383	1	1	0	0	0.22873	0.062126	0.18567	0.11211	0.14471	0.27097	0.17246	0.12155	0.18754	0.20883	0.15774	0.16301	0.048001	0.080354	0.0664	0.13221	-1.4271	-1.6875	-1.9813	-1.6479	-1.7229	-2.0375	-1.7292	-2.0208	-1.9042	-1.6917	-2.0583	-1.6437	-1.75	-1.9104	-1.6271	-1.9979	48.483	108.313	74.977	-38.959	19.220	133.254	215.192	189.749	247.775	0.452	130.626	80.021	109.234	248.020	115.968	177.521	0.00015016	0.00030731	8.1748e-05	1044	1.1348e-06	2.5847e-06	1121.5	212.56	1.3657e-06	3.9295e-06	275.86	78.205	61.196	18.05	1.761e-06	24.868	0.0002446	0.00029818	8.0144e-05	1034.3	3.5548e-06	2.9492e-06	1117.6	213.01	3.4434e-06	3.3368e-06	275.21	78.896	62.12	18.415	3.3323e-06	25.532	178.196	-27.723	-20.808	-100.912	17.866	66.732	-100.791	-93.730	22.942	49.769	-93.477	-87.166	-87.569	-79.286	63.328	-80.601	-8191	255	
33262.477	1	1	0	0	0.20644	0.14909	0.10546	0.19263	0.13826	0.048688	0.33738	0.22726	0.29564	0.29108	0.20441	0.14183	0.14024	0.2963	0.20825	0.032863	-1.3521	-1.5708	-1.9458	-1.6458	-1.7687	-2.0854	-1.9271	-1.9813	-1.9646	-1.4937	-1.9854	-1.7375	-1.6562	-2.1021	-1.45	-1.9542	-84.058	58.052	30.970	208.983	145.395	103.134	217.591	218.138	92.106	-5.275	4.396	-14.132	12.265	194.708	102.056	-104.508	0.0001266	0.00028528	0.00011525	1040.5	2.8737e-06	2.4282e-06	1119.7	212.71	1.8337e-06	1.9509e-06	272.43	77.307	61.03	18.092	1.4828e-06	25.028	0.00025255	0.00031018	7.7878e-05	1033.9	3.4549e-06	3.053e-06	1117.5	213.54	3.2317e-06	3.2574e-06	274.67	78.785	62.352	18.321	3.093e-06	25.563	172.441	-29.397	-12.769	-100.721	23.832	18.605	-100.856	-93.619	-5.562	50.669	-93.675	-87.123	-87.268	-79.181	32.954	-79.865	-8191	255	
33262.551	1	1	0	0	0.06145	0.11823	0.1273	0.20625	0.23873	0.17068	0.24802	0.31924	0.023768	0.065058	0.071883	0.047972	0.18604	0.080151	0.105	0.2044	-1.5417	-1.4542	-1.9229	-1.9979	-1.6562	-2.0854	-1.8104	-1.8333	-1.9188	-1.4604	-1.8646	-1.8229	-1.6417	-1.9625	-1.5792	-1.8875	145.797	-0.371	203.310	129.260	-85.983	186.045	151.387	201.575	160.538	207.814	237.037	-59.425	72.438	166.358	-55.802	175.527	0.00012041	0.00015292	3.4905e-05	1043.3	1.6581e-06	2.7416e-06	1119.8	212.21	1.9389e-06	3.6068e-06	274.17	77.923	60.545	18.122	2.1745e-06	25.002	0.00023393	0.00030347	7.9884e-05	1033.9	3.3769e-06	3.0301e-06	1119.1	212.88	3.0626e-06	3.1666e-06	274.1	78.842	62.061	18.405	3.1399e-06	25.596	169.799	-31.615	13.761	-100.561	34.518	32.563	-100.899	-93.406	13.288	31.557	-94.163	-87.352	-87.409	-79.119	35.288	-80.164	-8191	255	
33262.668	1	1	0	0	0.097251	0.29663	0.056956	0.379	0.37374	0.10531	0.082754	0.10144	0.17654	0.42469	0.054541	0.24415	0.2172	0.12488	0.055668	0.28875	-1.5604	-1.4667	-1.7833	-1.9875	-1.4771	-1.9583	-1.8396	-1.8792	-2.0271	-1.4042	-1.9417	-1.9021	-1.6146	-1.9708	-1.6521	-1.8208	69.566	-91.949	111.432	-70.986	-1.350	171.539	209.311	204.029	85.944	240.406	85.541	208.864	-24.709	-9.077	-29.966	38.383	0.00012349	0.00017964	7.4277e-05	1045.6	1.2177e-06	1.5343e-06	1123.7	212.98	1.7975e-06	3.7279e-06	272.58	78.012	61.056	18.161	2.2847e-06	24.854	0.00023127	0.00028264	7.5141e-05	1035.3	3.3956e-06	2.8531e-06	1120.1	213	3.1135e-06	3.1858e-06	274.09	79.129	62.163	18.472	3.1064e-06	25.569	172.071	-25.002	-18.928	-101.068	41.200	61.658	-100.928	-93.557	-20.452	34.146	-93.537	-87.247	-88.356	-78.886	26.645	-80.019	-8191	255	
33262.766	1	1	0	0	0.14799	0.060576	0.10664	0.11024	0.35074	0.16543	0.22767	0.26818	0.17747	0.12131	0.18655	0.17518	0.18415	0.14227	0.08538	0.11126	-1.6521	-1.4771	-1.7229	-1.9708	-1.4792	-2.1646	-1.8979	-1.5521	-2.0229	-1.6917	-1.875	-2.0021	-1.5542	-2.05	-1.8208	-1.5833	149.426	-12.257	31.206	177.665	97.899	182.465	247.002	221.666	193.757	100.933	164.867	159.138	162.606	-18.062	-32.021	179.102	0.00013081	0.00023275	8.6373e-05	1039.3	2.0571e-06	2.2195e-06	1123.5	211.91	4.6128e-07	2.9804e-06	272.89	78.16	61.093	18.037	2.061e-06	25.207	0.00023196	0.00027257	7.297e-05	1034.7	3.437e-06	2.7817e-06	1120.5	213.12	2.9135e-06	2.9133e-06	274.53	79.144	62.328	18.398	2.8228e-06	25.654	176.165	-2.678	-23.369	-100.898	11.954	67.944	-100.725	-93.390	-21.855	39.266	-93.917	-86.862	-87.230	-79.462	12.901	-80.027	-8191	255	
33262.859	1	1	0	0	0.033945	0.17113	0.15655	0.27915	0.22685	0.043884	0.046022	0.1082	0.11075	0.14127	0.27641	0.20866	0.25194	0.16522	0.1139	0.13757	-1.6146	-1.6708	-1.6	-2.1375	-1.4521	-1.9833	-1.9708	-1.6292	-1.925	-1.7542	-1.8479	-1.9333	-1.3937	-1.8687	-1.9062	-1.6042	87.497	168.221	109.980	-75.182	14.779	63.714	119.226	239.933	68.631	-84.932	89.524	-94.112	133.384	-109.561	2.847	80.673	0.00013193	0.00029475	7.1941e-05	1043.4	1.5875e-06	2.8291e-06	1121.8	212.31	2.5481e-06	2.8091e-06	271.69	77.944	61.169	17.938	2.6101e-06	25.08	0.00023462	0.00028012	7.7217e-05	1034.6	3.3809e-06	3.2967e-06	1119.7	213.34	3.1421e-06	3.0252e-06	274.83	78.79	62.296	18.332	2.9232e-06	25.678	180.054	-38.499	11.747	-100.675	32.679	27.613	-101.099	-93.651	-19.950	36.199	-93.961	-86.976	-87.432	-79.628	69.036	-80.292	-8191	255	
33262.980	1	1	0	0	0.16266	0.1665	0.25072	0.091569	0.061686	0.25566	0.27201	0.090091	0.38026	0.14019	0.26507	0.37478	0.19458	0.066445	0.17975	0.15705	-1.4188	-1.7917	-1.6562	-2.2083	-1.5521	-1.9646	-1.9542	-1.5708	-1.8188	-1.775	-1.6667	-2.0625	-1.5333	-1.7396	-1.8896	-1.6521	178.672	119.367	-35.566	205.671	148.694	53.562	176.940	37.910	-65.295	-31.467	166.620	-20.301	230.568	134.810	172.429	-82.191	0.00014557	0.00026546	6.6757e-05	1041.7	2.2995e-06	2.245e-06	1114.9	212.9	1.5197e-06	3.7298e-06	277.69	78.383	61.083	18.033	2.292e-06	25.124	0.00023713	0.00027886	7.6037e-05	1034.9	3.5101e-06	3.0606e-06	1119.2	213.54	3.0294e-06	3.0663e-06	276.72	79.232	62.26	18.421	2.7416e-06	25.676	176.195	-27.206	-6.733	-100.836	14.833	71.523	-101.023	-93.430	-13.167	18.732	-94.044	-87.192	-87.546	-79.287	21.130	-80.285	-8191	255	
33263.078	1	1	0	0	0.2794	0.23306	0.030575	0.11778	0.18394	0.25832	0.10308	0.057727	0.038948	0.28029	0.28046	0.017062	0.27648	0.1523	0.18849	0.05377	-1.4292	-1.7896	-1.6417	-2	-1.5562	-1.775	-2.1729	-1.4667	-1.8792	-1.7375	-1.7021	-1.975	-1.8125	-1.7708	-2.0312	-1.475	-15.110	-0.555	-58.730	-92.740	22.947	-32.341	232.664	40.681	21.817	177.395	149.378	179.174	-100.934	-97.949	-90.796	104.306	0.0001272	0.000231	8.7902e-05	1045.2	2.5794e-06	1.1486e-06	1128.4	212.59	1.6752e-06	2.656e-06	272.37	78.336	61.097	18.174	2.2604e-06	24.91	0.00023582	0.00027912	7.9082e-05	1034.7	3.1153e-06	2.9978e-06	1120.2	213.67	2.9946e-06	2.7891e-06	275.16	79.017	62.3	18.47	2.8814e-06	25.612	168.178	10.520	-2.169	-101.087	43.222	50.657	-100.694	-93.314	-9.918	73.288	-93.720	-86.776	-87.040	-79.700	26.028	-80.000	-8191	255	
33263.176	1	1	0	0	0.13108	0.095081	0.23004	0.28117	0.23168	0.16426	0.24796	0.17052	0.035382	0.13534	0.10871	0.31097	0.18129	0.17296	0.13995	0.23559	-1.35	-1.8729	-1.5271	-2.2292	-1.6604	-1.6229	-2.025	-1.5125	-2.025	-1.7812	-1.5417	-1.9167	-1.5167	-1.5417	-2.0104	-1.6625	29.152	82.651	-19.814	-94.736	-95.703	22.863	223.447	106.658	114.959	32.738	156.387	-57.955	191.223	-110.387	-1.428	158.149	0.00013173	0.00037214	8.4372e-05	1047.7	7.6049e-07	2.0354e-06	1116.9	213.67	1.3066e-06	1.2179e-06	275.68	77.523	60.844	18.075	2.5086e-06	25.031	0.00022923	0.00026417	8.1961e-05	1035.3	3.3273e-06	3.1339e-06	1117.9	213.57	3.0301e-06	2.9583e-06	276.61	78.959	62.362	18.418	3.0269e-06	25.69	174.506	-19.481	-21.699	-101.028	-11.306	13.161	-101.076	-93.572	34.559	23.168	-94.390	-87.301	-87.466	-79.567	40.011	-80.313	-8191	255	
33263.270	1	1	0	0	0.26732	0.22841	0.17679	0.31551	0.18947	0.39172	0.35778	0.077606	0.12001	0.15351	0.17479	0.14452	0.15783	0.038045	0.15337	0.063116	-1.3146	-1.9	-1.5688	-1.9438	-1.8792	-1.6354	-2.1125	-1.5875	-1.8312	-1.8771	-1.4729	-1.8813	-1.8271	-1.5646	-2.2292	-1.55	173.624	-19.380	116.567	84.084	23.570	57.072	149.043	115.329	129.237	79.725	-103.367	-48.679	239.026	-17.043	190.119	-17.371	0.00011909	0.0001652	9.3427e-05	1037.3	5.2719e-07	2.944e-06	1120.7	212.42	8.4252e-07	4.9258e-06	276.14	78.589	61.206	17.97	1.3674e-06	25.175	0.00024071	0.00028306	8.0781e-05	1033.2	3.1973e-06	2.8578e-06	1120.2	213.28	3.2217e-06	3.1475e-06	275.77	79.322	62.4	18.379	2.7274e-06	25.747	166.080	-24.550	-0.976	-100.776	-0.292	39.014	-100.788	-93.543	-30.474	28.306	-93.743	-87.316	-87.238	-79.235	10.285	-80.098	-8191	255	
33263.367	1	1	0	0	0.034873	0.1783	0.20085	0.060521	0.059322	0.10893	0.14289	0.19871	0.50196	0.20485	0.20455	0.19161	0.15294	0.23034	0.20013	0.15321	-1.5	-1.9688	-1.45	-1.9188	-1.7	-1.6792	-1.9854	-1.5875	-1.6375	-2.0229	-1.6063	-1.95	-1.8958	-1.6437	-2.0625	-1.8333	230.425	36.559	0.819	-7.729	43.326	-6.416	-64.251	204.291	180.333	-89.753	112.600	80.853	-20.639	178.524	-61.435	-44.420	0.00011346	0.00038107	0.00012108	1039.3	2.191e-06	2.3935e-06	1119.4	213.75	1.7385e-06	4.5571e-06	273.86	77.847	60.999	18.121	1.6513e-06	25.009	0.00023364	0.00028046	8.399e-05	1033.2	3.3809e-06	3.113e-06	1118.7	213.77	3.0935e-06	2.8742e-06	275.72	78.925	62.276	18.413	3.0228e-06	25.655	170.647	-14.834	-29.325	-100.837	32.599	48.557	-100.923	-93.533	8.116	41.216	-93.989	-87.223	-87.028	-79.349	46.203	-79.891	-8191	255	
33263.461	1	1	0	0	0.11022	0.29853	0.074946	0.32084	0.050502	0.071688	0.2101	0.16469	0.15419	0.33712	0.20198	0.11636	0.17057	0.2694	0.12181	0.077738	-1.2958	-2	-1.4792	-1.7854	-1.9604	-1.6417	-2.0229	-1.6812	-1.7458	-2.0667	-1.5146	-1.9958	-1.8646	-1.5396	-2.3229	-1.8521	-100.817	69.147	189.740	196.423	17.346	71.781	166.584	223.204	49.202	137.610	89.716	-107.336	222.210	-67.930	115.478	-102.802	0.00013768	0.00036662	0.00011721	1048.5	2.3325e-06	2.6879e-06	1129.2	213.01	5.9825e-07	2.439e-06	275.12	77.976	59.88	18.113	2.2941e-06	25.183	0.00025091	0.00026904	8.1088e-05	1036.7	3.1559e-06	3.0777e-06	1122.2	213.15	3.2935e-06	3.0453e-06	275.9	79.074	61.867	18.424	2.8805e-06	25.697	177.782	-15.737	-15.174	-100.991	28.992	41.124	-100.793	-93.614	0.600	45.989	-94.300	-87.273	-87.104	-79.064	8.014	-79.793	-8191	255	
33263.582	1	1	0	0	0.23879	0.16074	0.16112	0.11851	0.21223	0.12167	0.23572	0.17283	0.087925	0.23094	0.11279	0.073508	0.060773	0.07001	0.16146	0.13573	-1.3458	-2.0125	-1.575	-1.6271	-2.0167	-1.4188	-2.2146	-1.7771	-1.5271	-1.9833	-1.5208	-1.8458	-1.9083	-1.5958	-1.7062	-1.9813	-16.350	139.672	178.378	-53.769	179.687	165.985	222.536	-58.544	17.372	25.226	-16.312	223.294	52.635	209.999	206.437	-20.716	0.00013246	0.00033669	7.9551e-05	1048.5	1.6128e-06	3.8901e-06	1127	212.84	2.5364e-06	2.5637e-06	276.02	77.924	61.333	18.029	1.6265e-06	24.993	0.00024304	0.00025997	7.2993e-05	1036.6	3.1055e-06	3.549e-06	1119.4	213.21	3.3901e-06	3.1991e-06	275.52	79.124	62.321	18.385	3.0654e-06	25.545	178.411	-29.351	-22.921	-100.718	27.200	23.614	-100.857	-93.321	-4.687	59.049	-94.128	-87.274	-87.256	-79.181	20.523	-79.779	-8191	255	
33263.676	1	1	0	0	0.30179	0.089431	0.2274	0.44579	0.18331	0.16235	0.086984	0.25951	0.093734	0.18385	0.091437	0.13925	0.08416	0.083552	0.25063	0.10844	-1.1	-2.0625	-1.725	-1.8042	-1.9875	-1.8021	-2.2396	-2.0187	-1.7125	-2.2333	-1.4604	-1.6333	-1.9958	-1.6354	-1.8521	-2.0104	193.544	162.253	161.803	-101.592	-3.141	150.768	151.793	69.814	-37.065	151.613	189.861	-89.110	224.721	-26.326	55.061	-17.828	0.0001445	0.00039954	5.7353e-05	1045.2	2.1801e-06	3.0955e-06	1126.9	213.55	1.5224e-06	2.5138e-06	273	77.77	60.444	18.153	2.08e-06	25.293	0.00025247	0.00028105	7.8539e-05	1038.1	3.3947e-06	3.3757e-06	1122.2	213.36	3.3847e-06	2.8378e-06	274.74	79.055	62.422	18.384	3.2804e-06	25.613	174.907	-1.048	-23.726	-100.874	18.702	33.752	-100.848	-93.636	-9.688	21.452	-93.749	-87.083	-87.645	-79.572	26.202	-79.497	-8191	255	
33263.773	1	1	0	0	0.26547	0.060502	0.18315	0.081361	0.36418	0.27522	0.30902	0.16672	0.071418	0.24354	0.22468	0.13221	0.31056	0.24279	0.18326	0.029725	-1.0771	-1.9062	-1.9125	-1.7479	-2.1125	-1.6479	-2.2375	-2.0396	-1.5667	-1.8167	-1.5271	-1.5667	-1.9042	-1.7271	-1.8854	-2.0708	-16.067	96.297	122.580	-72.294	-6.794	224.093	176.333	248.225	62.085	-89.198	-42.280	196.277	245.622	-43.092	166.949	133.424	0.00012309	0.00027321	0.00010425	1045	1.8447e-06	2.6141e-06	1127.2	211.69	1.5629e-06	3.0148e-06	277.08	78.341	61.206	18.027	1.0903e-06	24.934	0.00023764	0.00027147	8.2716e-05	1037.5	3.2761e-06	3.1311e-06	1121.1	213.14	3.2804e-06	3.2307e-06	276.66	78.978	62.175	18.316	3.1098e-06	25.55	177.142	-8.318	-13.160	-100.645	43.549	42.299	-100.889	-93.578	-13.180	31.617	-94.035	-87.391	-87.450	-79.425	-5.465	-79.784	-8191	255	
33263.844	1	1	0	0	0.32672	0.17741	0.058679	0.10936	0.30017	0.33475	0.20072	0.2272	0.068524	0.28874	0.058508	0.10505	0.28802	0.094967	0.18583	0.16936	-1.0312	-2.1271	-1.7479	-1.5604	-2.0896	-1.6667	-1.8813	-2.2062	-1.4479	-2.0312	-1.7729	-1.6688	-2.0854	-1.6521	-1.7854	-2.0563	-72.378	-6.637	149.184	-105.167	105.405	80.852	189.046	51.433	193.961	192.868	-75.680	134.183	243.379	-19.873	0.939	93.512	0.00012643	0.00035054	5.0967e-05	1044.4	1.5348e-06	3.571e-06	1128.3	213.64	9.3244e-07	2.2572e-06	275.02	77.966	60.361	18.12	1.953e-06	24.976	0.00025284	0.00027668	7.6486e-05	1037.9	3.2826e-06	3.5014e-06	1123.9	213.71	3.2842e-06	3.2202e-06	275.74	78.902	62.37	18.333	3.2461e-06	25.578	171.750	-7.379	-23.090	-100.848	34.988	57.564	-101.014	-93.410	-33.034	19.417	-93.801	-87.199	-87.621	-79.490	43.646	-80.159	-8191	255	
33263.941	1	1	0	0	0.18322	0.043763	0.19349	0.13287	0.27327	0.11359	0.099651	0.060659	0.18006	0.060457	0.11413	0.28591	0.01834	0.36878	0.052066	0.098878	-1.0562	-1.9562	-1.7146	-1.775	-1.9875	-1.9188	-1.8646	-2.15	-1.6437	-1.9333	-1.875	-1.6583	-1.9958	-1.6771	-1.4729	-2.1021	192.413	-52.370	75.773	-38.923	-59.405	212.849	154.310	-61.724	-105.494	-36.656	-5.486	-21.748	9.300	222.006	42.817	-49.295	0.00012112	0.00024787	9.0062e-05	1047.4	2.2835e-06	3.9615e-06	1130.1	212.94	1.9378e-06	3.1472e-06	273.75	77.688	60.674	18.175	1.3897e-06	25.103	0.0002446	0.00027223	8.1843e-05	1039.8	3.3168e-06	3.4062e-06	1126.1	213.32	3.533e-06	3.0787e-06	275.44	78.974	62.052	18.448	3.2311e-06	25.656	170.801	-18.106	-28.119	-100.952	31.215	32.258	-101.089	-93.419	-4.759	72.223	-93.640	-87.056	-87.584	-78.991	11.410	-79.922	-8191	255	
#DATA ENDS
