BOXY.EXE: ISS Imagent and Oximeter Data Acquisition Program Version 0.80
Ascii Record File

#ACQ INFORMATION
2  Detector Channels 
16  External MUX Channels 
1  Auxiliary Channels 
5000  Waveform (CCF) Frequency (Hz)
1  Waveforms Skipped 
30  Waveforms Averaged 
1  Cycles Averaged 
16  Acquisitions per Waveform 
10.0806  Updata Rate (Hz) 

#FILE INFORMATION
TRUE -- External MUX Channel results are PARSED.
FALSE -- AC DC and Phase are NOT grouped.
TRUE -- Companion Program Settings File CREATED.
FALSE -- AC data not excluded
FALSE -- DC data not excluded
FALSE -- Phase data not excluded
FALSE -- Auxillary Chn. data not excluded
Tab delimiters

#CALIBRATION STATE
TRUE -- Waveform Calibration Values APPLIED.


#AUX CALIBRATION VALUES
Val Type	aux-1	

Term	1.0000e+00	
Factor	0.0000e+00	


#WF CALIBRATION VALUES
A = Detector Channel
Val Type	A-AC1	A-AC2	A-AC3	A-AC4	A-AC5	A-AC6	A-AC7	A-AC8	A-AC9	A-AC10	A-AC11	A-AC12	A-AC13	A-AC14	A-AC15	A-AC16	A-DC1	A-DC2	A-DC3	A-DC4	A-DC5	A-DC6	A-DC7	A-DC8	A-DC9	A-DC10	A-DC11	A-DC12	A-DC13	A-DC14	A-DC15	A-DC16	A-Ph1	A-Ph2	A-Ph3	A-Ph4	A-Ph5	A-Ph6	A-Ph7	A-Ph8	A-Ph9	A-Ph10	A-Ph11	A-Ph12	A-Ph13	A-Ph14	A-Ph15	A-Ph16	

Term	0.00000e+00	0.00000e+00	0.00000e+00	0.00000e+00	0.00000e+00	0.00000e+00	0.00000e+00	0.00000e+00	0.00000e+00	0.00000e+00	0.00000e+00	0.00000e+00	0.00000e+00	0.00000e+00	0.00000e+00	0.00000e+00	0.00000e+00	0.00000e+00	0.00000e+00	0.00000e+00	0.00000e+00	0.00000e+00	0.00000e+00	0.00000e+00	0.00000e+00	0.00000e+00	0.00000e+00	0.00000e+00	0.00000e+00	0.00000e+00	0.00000e+00	0.00000e+00	0.00000e+00	0.00000e+00	0.00000e+00	0.00000e+00	0.00000e+00	0.00000e+00	0.00000e+00	0.00000e+00	0.00000e+00	0.00000e+00	0.00000e+00	0.00000e+00	0.00000e+00	0.00000e+00	0.00000e+00	0.00000e+00	
Factor	1.00000e+00	1.00000e+00	1.00000e+00	1.00000e+00	1.00000e+00	1.00000e+00	1.00000e+00	1.00000e+00	1.00000e+00	1.00000e+00	1.00000e+00	1.00000e+00	1.00000e+00	1.00000e+00	1.00000e+00	1.00000e+00	1.00000e+00	1.00000e+00	1.00000e+00	1.00000e+00	1.00000e+00	1.00000e+00	1.00000e+00	1.00000e+00	1.00000e+00	1.00000e+00	1.00000e+00	1.00000e+00	1.00000e+00	1.00000e+00	1.00000e+00	1.00000e+00	X	X	X	X	X	X	X	X	X	X	X	X	X	X	X	X	

B = Detector Channel
Val Type	B-AC1	B-AC2	B-AC3	B-AC4	B-AC5	B-AC6	B-AC7	B-AC8	B-AC9	B-AC10	B-AC11	B-AC12	B-AC13	B-AC14	B-AC15	B-AC16	B-DC1	B-DC2	B-DC3	B-DC4	B-DC5	B-DC6	B-DC7	B-DC8	B-DC9	B-DC10	B-DC11	B-DC12	B-DC13	B-DC14	B-DC15	B-DC16	B-Ph1	B-Ph2	B-Ph3	B-Ph4	B-Ph5	B-Ph6	B-Ph7	B-Ph8	B-Ph9	B-Ph10	B-Ph11	B-Ph12	B-Ph13	B-Ph14	B-Ph15	B-Ph16	

Term	0.00000e+00	0.00000e+00	0.00000e+00	0.00000e+00	0.00000e+00	0.00000e+00	0.00000e+00	0.00000e+00	0.00000e+00	0.00000e+00	0.00000e+00	0.00000e+00	0.00000e+00	0.00000e+00	0.00000e+00	0.00000e+00	0.00000e+00	0.00000e+00	0.00000e+00	0.00000e+00	0.00000e+00	0.00000e+00	0.00000e+00	0.00000e+00	0.00000e+00	0.00000e+00	0.00000e+00	0.00000e+00	0.00000e+00	0.00000e+00	0.00000e+00	0.00000e+00	-1.53398e+02	-1.29654e+02	-1.26074e+02	-1.83912e+02	-7.55620e+01	-6.87672e+01	-1.55668e+02	-1.62015e+02	-8.01815e+01	-7.08960e+01	-1.85569e+02	-1.70567e+02	-1.87259e+02	-1.76693e+02	-7.46193e+01	-1.49436e+02	
Factor	2.31531e-05	1.78356e-04	5.60774e-05	2.30928e-01	1.52510e-06	1.94289e-06	1.64567e-01	5.06850e-02	1.44833e-06	2.13848e-06	2.09326e-01	2.95219e-02	6.28061e-02	8.86269e-03	1.65171e-06	1.24599e-02	1.74899e-05	4.03054e-05	1.13277e-05	1.22350e-01	3.89920e-07	4.56949e-07	8.23138e-02	2.69963e-02	3.70752e-07	4.58795e-07	1.07547e-01	1.53148e-02	3.38387e-02	4.76071e-03	4.01584e-07	6.51452e-03	X	X	X	X	X	X	X	X	X	X	X	X	X	X	X	X	



#DISTANCE SETTINGS
A = Detector Channel
A-1	A-2	A-3	A-4	A-5	A-6	A-7	A-8	A-9	A-10	A-11	A-12	A-13	A-14	A-15	A-16	

2.5000e+00	3.0000e+00	2.5000e+00	3.0000e+00	2.0000e+00	3.0000e+00	1.5000e+00	3.0000e+00	3.0000e+00	3.0000e+00	3.0000e+00	3.0000e+00	3.0000e+00	3.0000e+00	1.5000e+00	3.0000e+00	

B = Detector Channel
B-1	B-2	B-3	B-4	B-5	B-6	B-7	B-8	B-9	B-10	B-11	B-12	B-13	B-14	B-15	B-16	

1.0000e+01	1.0000e+01	1.0000e+01	1.4400e+00	1.0000e+01	1.0000e+01	1.5100e+00	1.9400e+00	1.0000e+01	1.0000e+01	1.9900e+00	2.4900e+00	2.4100e+00	2.9000e+00	1.0000e+01	2.9800e+00	




#DATA BEGINS
time	group	step	mark	flag	A-AC1	A-AC2	A-AC3	A-AC4	A-AC5	A-AC6	A-AC7	A-AC8	A-AC9	A-AC10	A-AC11	A-AC12	A-AC13	A-AC14	A-AC15	A-AC16	A-DC1	A-DC2	A-DC3	A-DC4	A-DC5	A-DC6	A-DC7	A-DC8	A-DC9	A-DC10	A-DC11	A-DC12	A-DC13	A-DC14	A-DC15	A-DC16	A-Ph1	A-Ph2	A-Ph3	A-Ph4	A-Ph5	A-Ph6	A-Ph7	A-Ph8	A-Ph9	A-Ph10	A-Ph11	A-Ph12	A-Ph13	A-Ph14	A-Ph15	A-Ph16	B-AC1	B-AC2	B-AC3	B-AC4	B-AC5	B-AC6	B-AC7	B-AC8	B-AC9	B-AC10	B-AC11	B-AC12	B-AC13	B-AC14	B-AC15	B-AC16	B-DC1	B-DC2	B-DC3	B-DC4	B-DC5	B-DC6	B-DC7	B-DC8	B-DC9	B-DC10	B-DC11	B-DC12	B-DC13	B-DC14	B-DC15	B-DC16	B-Ph1	B-Ph2	B-Ph3	B-Ph4	B-Ph5	B-Ph6	B-Ph7	B-Ph8	B-Ph9	B-Ph10	B-Ph11	B-Ph12	B-Ph13	B-Ph14	B-Ph15	B-Ph16	aux-1	digaux	

33199.863	1	1	0	256	0.048037	0.22165	0.16223	0.072664	0.13091	0.21782	0.41805	0.27621	0.22957	0.19656	0.18928	0.088009	0.13887	0.19138	0.065089	0.12237	-1.7146	-1.6063	-1.6833	-2.0708	-1.6938	-1.9688	-1.8729	-1.7667	-2.0542	-1.7229	-1.7271	-2	-1.6938	-2.0104	-1.9042	-1.6604	210.408	-86.573	41.842	98.360	-57.793	-60.596	180.620	219.622	-96.659	196.261	216.378	37.445	-21.127	-100.784	159.697	58.948	0.00010195	0.0004043	5.7862e-05	1037.2	3.1445e-06	2.7947e-06	1126.9	211.44	8.4469e-07	3.3603e-06	273.8	76.454	59.32	17.377	2.6295e-06	24.615	0.00045456	0.00080552	0.00022483	1029.3	8.4093e-06	9.0828e-06	1119.4	211.73	7.7951e-06	8.9092e-06	276.23	77.434	60.84	17.769	8.1689e-06	25.123	167.512	14.852	-18.374	-100.643	18.949	25.630	-100.947	-93.680	77.722	60.624	-94.457	-87.611	-87.666	-79.203	22.778	-79.415	-8191	255	
33199.961	1	1	0	0	0.069446	0.35208	0.21817	0.30737	0.13732	0.11569	0.25373	0.40491	0.20372	0.19024	0.27429	0.15525	0.091858	0.10568	0.084723	0.16769	-1.7396	-1.6875	-1.6646	-2.15	-1.5812	-2.0854	-2.0312	-1.5187	-1.9375	-1.8417	-1.7479	-2.0229	-1.6417	-1.9396	-1.8542	-1.6896	209.108	-68.390	229.940	-79.453	207.991	154.260	183.338	211.331	38.515	16.952	29.480	199.580	183.174	23.633	-81.121	99.559	0.00011077	0.00011188	9.2087e-05	1038.6	2.9632e-06	3.497e-06	1125.4	211.44	7.4682e-07	3.9908e-06	275.99	76.318	58.514	17.469	2.8331e-06	24.387	0.00045652	0.00082013	0.00022707	1029	8.3443e-06	9.0942e-06	1117.9	212.1	8.3682e-06	8.7926e-06	276.21	77.301	60.768	17.8	8.3203e-06	25.065	168.156	13.443	-6.350	-100.874	46.815	56.924	-101.103	-93.813	-7.939	10.816	-93.938	-87.217	-87.686	-79.412	51.677	-79.849	-8191	255	
33200.055	1	1	0	0	0.32377	0.1984	0.11182	0.18938	0.34539	0.16178	0.19906	0.28381	0.12596	0.12788	0.29762	0.12047	0.16906	0.079677	0.34985	0.2203	-1.3854	-1.8375	-1.6417	-2.175	-1.6021	-1.7938	-2.2979	-1.6333	-1.9771	-1.7708	-1.6167	-2.275	-1.6875	-1.6208	-2.0687	-1.5896	-7.430	23.703	164.282	221.581	-91.246	65.282	216.022	125.671	110.926	-69.471	248.241	-36.916	215.845	180.762	188.089	-99.905	0.00013618	0.00018232	0.00010588	1034.7	1.718e-06	2.1329e-06	1126	212.05	8.0252e-07	2.4842e-06	276.65	76.378	59.363	17.407	1.9866e-06	24.572	0.00043677	0.00080779	0.00023127	1027.6	8.445e-06	8.9019e-06	1118.8	211.57	7.8337e-06	8.7439e-06	275.67	77.248	60.864	17.774	7.9095e-06	25.154	169.800	27.774	-11.400	-101.008	13.261	10.653	-100.845	-93.728	-12.320	159.486	-93.804	-87.565	-87.443	-79.441	35.266	-80.056	-8191	255	
33200.152	1	1	0	0	0.10747	0.28869	0.19754	0.12635	0.15774	0.15085	0.25651	0.18293	0.21061	0.32585	0.16007	0.01525	0.26523	0.18916	0.16457	0.23623	-1.6229	-1.9896	-1.5854	-2.2833	-1.7167	-1.9	-2.3479	-1.7146	-2.0625	-2.075	-1.4813	-2.1125	-1.7917	-1.7375	-1.9625	-1.7375	116.625	-5.747	231.885	121.834	223.923	154.515	97.800	165.960	75.761	-77.977	182.442	60.644	-82.575	197.260	207.288	-104.546	0.00015453	0.0002988	9.0921e-05	1038.1	1.3091e-06	1.9798e-06	1122.6	211.14	1.9473e-06	1.3984e-06	273.41	76.503	59.716	17.421	2.6449e-06	24.495	0.00045886	0.00079738	0.00022401	1028	8.6692e-06	8.682e-06	1119.6	211.3	7.8615e-06	9.022e-06	275.4	77.273	60.888	17.774	8.1957e-06	25.075	176.552	-7.363	-18.564	-100.794	63.552	67.346	-100.821	-93.441	-63.606	6.137	-93.340	-87.297	-87.395	-79.005	42.783	-79.912	-8191	255	
33200.273	1	1	0	0	0.098921	0.066299	0.13554	0.13231	0.18313	0.22984	0.095246	0.15941	0.086594	0.058541	0.2057	0.18839	0.40876	0.1491	0.14812	0.12562	-1.3729	-2.0687	-1.7583	-2.3208	-1.8062	-1.7125	-2.2125	-1.8021	-1.8229	-2.1417	-1.4479	-2.0542	-1.9979	-1.6875	-2.2125	-1.8917	144.112	5.549	-61.078	194.471	-93.881	1.478	-107.215	115.706	-88.448	178.947	-92.128	-86.655	-30.670	189.558	70.393	-102.541	0.00012013	0.00034622	7.3363e-05	1029.5	1.5554e-06	2.383e-06	1120.6	211.31	3.2553e-06	1.117e-06	274.7	75.971	58.865	17.447	2.6165e-06	24.49	0.00046636	0.00080762	0.00022743	1024.3	8.4694e-06	9.237e-06	1113.8	211.17	8.2183e-06	8.9933e-06	275.46	77.056	60.665	17.719	8.0175e-06	25.04	177.941	-23.830	-40.969	-100.771	20.067	42.584	-100.833	-93.770	8.776	33.732	-93.597	-87.499	-87.492	-79.278	22.584	-80.045	-8191	255	
33200.344	1	1	0	0	0.21617	0.10271	0.15791	0.25049	0.057734	0.21337	0.16797	0.17237	0.063588	0.12761	0.22633	0.18861	0.28215	0.12775	0.08325	0.26555	-1.4479	-1.8854	-1.5542	-2.0208	-1.8292	-1.4583	-2.3937	-1.9458	-1.6979	-2.0667	-1.4958	-1.9646	-1.9292	-1.6938	-1.9396	-1.8333	0.916	136.339	94.056	-88.249	-97.601	215.135	34.160	152.160	130.652	-99.269	157.030	77.704	175.022	-12.803	96.330	178.249	0.00014183	0.0003257	0.00015313	1029	2.6788e-06	1.8997e-06	1117	210.39	1.7209e-06	4.6321e-06	273.66	76.435	59.391	17.426	5.892e-08	24.379	0.00046068	0.00077462	0.00023557	1023.4	8.4938e-06	8.9876e-06	1114.9	211.32	8.3048e-06	9.1195e-06	275.21	77.406	60.715	17.761	8.0384e-06	25.016	166.609	27.777	-1.255	-101.080	54.765	27.010	-101.060	-93.979	-33.732	62.277	-93.954	-87.475	-88.145	-79.796	-25.477	-79.844	-8191	255	
33200.441	1	1	0	0	0.074793	0.026506	0.16512	0.24609	0.22464	0.15799	0.15922	0.053618	0.075516	0.048092	0.3125	0.36548	0.14248	0.06356	0.19928	0.23713	-1.2875	-1.975	-1.5042	-2.0021	-1.8896	-1.4438	-2.2313	-1.8229	-1.575	-2.1833	-1.7104	-2.0708	-2.0646	-1.7313	-2	-1.9604	100.351	-63.250	-63.048	80.399	104.945	-89.769	34.639	155.156	25.308	-103.562	72.367	243.547	-73.678	105.030	80.264	83.519	0.00013224	0.00029593	9.0979e-05	1032.8	5.8084e-07	2.4398e-06	1121	211.28	1.8132e-06	2.3873e-06	275.18	75.842	58.917	17.346	2.6611e-06	24.567	0.00046746	0.00081476	0.00023663	1024.5	8.3979e-06	8.9362e-06	1114.8	211.47	8.0994e-06	9.2007e-06	275.38	77.023	60.506	17.676	8.2852e-06	25.015	162.826	0.241	-35.903	-100.876	-55.168	16.731	-101.172	-93.629	-53.689	45.957	-93.603	-86.763	-86.823	-79.151	31.014	-80.363	-8191	255	
33200.535	1	1	0	0	0.1339	0.16996	0.040174	0.086726	0.10904	0.070281	0.17503	0.12683	0.1699	0.044549	0.12881	0.15701	0.046945	0.13181	0.10874	0.1894	-1.1938	-1.8563	-1.7417	-1.9813	-1.9708	-1.5021	-2.1729	-2.0187	-1.6375	-2.2896	-1.8188	-1.9083	-1.9438	-1.6917	-1.9729	-1.875	-99.970	-11.024	109.933	-80.605	-105.437	211.818	195.396	-91.150	93.475	115.462	126.881	236.035	-19.535	203.568	-111.518	-47.450	0.00014037	0.00037982	3.4427e-05	1035	1.5757e-06	3.8525e-06	1118.8	210.19	1.8171e-06	5.3629e-06	274.38	76.157	59.152	17.389	1.3856e-06	24.374	0.00045692	0.00079805	0.00022009	1024.8	8.3029e-06	8.981e-06	1114.6	210.72	8.2431e-06	9.1931e-06	275.41	77.163	60.524	17.747	8.24e-06	25.041	183.259	-56.120	24.338	-101.019	-3.762	54.022	-101.101	-93.567	-28.350	13.907	-93.927	-87.567	-86.779	-79.667	119.950	-80.210	-8191	255	
33200.656	1	1	0	0	0.40992	0.13182	0.23477	0.055882	0.14081	0.039382	0.09704	0.23551	0.10983	0.20645	0.17285	0.15586	0.12623	0.043049	0.21219	0.25487	-0.96042	-2.0333	-1.6146	-1.9937	-2.0542	-1.6771	-2.0958	-2.0729	-1.4104	-2.1833	-1.8375	-1.6979	-1.8937	-1.7708	-1.8125	-2.1437	6.619	23.423	226.689	-90.803	185.548	-95.270	198.767	131.471	10.771	12.046	80.785	115.653	-78.065	55.004	199.294	236.937	0.0001114	0.00025957	0.00014933	1033.5	3.2973e-06	5.2123e-06	1119.1	209.33	1.0263e-06	4.0009e-06	273.46	76.165	59.266	17.477	3.9499e-06	24.414	0.00047044	0.00081963	0.00022965	1024.5	8.337e-06	9.3913e-06	1115.2	211.08	8.2407e-06	8.9102e-06	275.57	77.101	60.68	17.759	8.363e-06	25	164.884	-43.436	-19.128	-100.980	49.850	49.030	-100.849	-93.523	65.340	-21.105	-93.686	-87.371	-87.476	-79.431	46.382	-80.245	-8191	255	
33200.750	1	1	0	0	0.04053	0.28053	0.059531	0.036295	0.091924	0.068852	0.23945	0.3111	0.17035	0.17453	0.12195	0.12651	0.21055	0.12263	0.24632	0.045808	-1.1562	-1.8167	-1.7646	-1.725	-2.0479	-1.5125	-2.1146	-1.9229	-1.4479	-1.8042	-1.7812	-1.7667	-1.9875	-1.7479	-1.8312	-2.0542	133.571	-56.513	-67.589	-100.757	209.934	18.185	235.598	234.819	-92.613	-28.217	181.961	-53.568	191.520	-69.076	58.653	116.147	0.00011733	0.0002299	0.00016882	1033.1	2.0864e-06	3.3959e-06	1124.3	211.07	2.1835e-06	2.1776e-06	275.96	76.53	58.864	17.368	1.9854e-06	24.395	0.00047073	0.00080393	0.00022769	1023.6	8.2005e-06	9.6274e-06	1115.4	211.24	7.8476e-06	9.0497e-06	276	77.315	60.553	17.767	8.0626e-06	24.972	171.240	0.431	-25.518	-100.948	51.050	35.359	-101.253	-93.791	-36.490	76.980	-94.767	-87.379	-87.263	-79.372	74.651	-80.103	-8191	255	
33200.848	1	1	0	0	0.35018	0.12843	0.094035	0.075083	0.26972	0.32048	0.1192	0.19896	0.099818	0.2899	0.19537	0.32421	0.20652	0.15698	0.17989	0.11123	-1.2417	-1.9688	-1.8563	-1.6771	-1.9292	-1.5479	-1.9521	-2.1375	-1.6063	-1.9458	-1.8104	-1.6771	-1.9458	-1.6729	-1.8521	-2.0229	-38.643	130.038	217.709	73.568	-71.471	-21.012	160.058	228.121	137.947	173.543	240.977	197.514	-69.941	81.543	6.541	-77.277	0.00010595	0.00024256	0.00012084	1040	1.6788e-06	2.7455e-06	1122.5	209.97	7.0361e-07	1.631e-06	272.5	76.306	59.546	17.434	2.4162e-06	24.264	0.00046851	0.00082677	0.00022693	1026.2	8.5189e-06	9.1628e-06	1115.5	210.88	8.0546e-06	9.087e-06	275.29	77.116	60.673	17.677	8.5579e-06	24.984	169.822	36.520	26.696	-100.828	-17.172	48.184	-100.972	-93.765	237.043	56.461	-94.057	-87.650	-87.212	-79.164	66.451	-79.863	-8191	255	
33200.945	1	1	0	0	0.033752	0.23493	0.12381	0.21684	0.31115	0.22937	0.29479	0.24912	0.049116	0.19919	0.24791	0.084609	0.12816	0.1667	0.1263	0.25424	-1.1667	-1.8583	-1.9333	-1.7583	-1.8438	-1.5542	-1.9625	-2.175	-1.6458	-1.8875	-1.975	-1.6854	-2.0687	-1.8667	-1.7437	-1.8979	54.977	19.535	-61.922	240.701	-26.694	-27.596	217.084	-111.773	101.173	-79.550	-52.747	11.329	210.941	233.812	44.529	188.501	0.00012554	0.00038016	7.7983e-05	1033.5	5.7483e-07	2.9472e-06	1119.1	211.13	1.2982e-06	2.3868e-06	273.69	76.269	58.83	17.47	3.4453e-06	24.351	0.00047205	0.00080569	0.00022556	1023.8	8.1144e-06	8.9191e-06	1115.7	211.09	8.6038e-06	8.9264e-06	275.27	77.041	60.649	17.714	8.2994e-06	24.965	170.008	17.439	27.478	-100.885	66.733	64.332	-101.053	-93.838	28.622	51.485	-93.734	-86.953	-87.033	-79.040	29.936	-79.925	-8191	255	
33201.039	1	1	0	0	0.11485	0.12709	0.053637	0.18524	0.35637	0.031299	0.2226	0.18216	0.14745	0.44093	0.1492	0.16048	0.17619	0.17677	0.50421	0.18398	-1.1104	-2.0125	-1.9125	-1.7229	-1.8229	-1.8229	-1.8479	-2.2604	-1.7667	-1.9312	-1.9604	-1.6729	-2.0396	-1.7271	-1.6187	-2.225	19.461	194.627	21.765	205.352	217.008	-3.736	142.146	182.398	115.407	104.532	114.529	244.894	96.037	194.721	-108.259	220.933	0.00013042	6.908e-05	6.4472e-05	1037.7	1.646e-06	3.017e-06	1120.1	211.21	2.0452e-06	3.8345e-06	272.06	75.963	58.629	17.517	2.7561e-06	24.208	0.00048389	0.00080922	0.00023024	1024.9	8.2517e-06	9.4627e-06	1115.3	211.62	8.4091e-06	9.0708e-06	274.09	77.022	60.428	17.729	8.3136e-06	24.916	180.030	5.718	-34.449	-100.745	109.754	40.193	-101.020	-93.476	-6.435	60.290	-94.069	-87.353	-86.943	-78.898	32.303	-80.452	-8191	255	
33201.137	1	1	0	0	0.27177	0.22229	0.19923	0.3361	0.10739	0.085101	0.20626	0.10061	0.32284	0.28552	0.27495	0.065868	0.18192	0.26663	0.072621	0.11203	-1.1583	-1.6187	-1.9937	-1.5042	-1.8458	-1.9	-1.825	-2.1021	-1.8375	-1.7854	-1.8917	-1.6458	-1.8188	-1.9208	-1.6167	-2.2083	7.908	173.372	198.640	-104.110	157.140	52.660	197.920	136.426	7.776	44.031	40.772	211.913	30.638	175.323	126.796	215.844	0.00015241	0.00032911	6.111e-05	1030.4	3.396e-06	2.5102e-06	1122.9	210.55	1.2601e-06	2.4932e-06	270.71	75.994	58.931	17.424	1.7273e-06	24.441	0.00047216	0.00081996	0.00022958	1024.2	8.6026e-06	8.7677e-06	1116.7	211.02	8.3659e-06	9.2371e-06	274.76	77.122	60.471	17.725	8.9394e-06	24.967	178.473	-34.573	-21.575	-100.833	35.834	69.692	-101.037	-93.701	-2.041	23.549	-93.797	-87.596	-87.612	-79.103	22.501	-80.478	-8191	255	
33201.258	1	1	0	0	0.19309	0.15715	0.18038	0.09615	0.40787	0.24967	0.24968	0.096572	0.070595	0.038358	0.18087	0.11952	0.12926	0.19149	0.15006	0.13458	-1.2021	-1.7083	-2.1104	-1.5333	-1.9125	-2.1562	-1.6771	-2.0167	-1.9021	-1.6417	-2.0083	-1.6417	-1.8917	-1.85	-1.6042	-2.1354	108.645	234.764	163.265	-83.076	138.813	177.258	204.358	197.434	-76.353	201.502	-58.573	149.074	46.895	114.692	145.657	121.351	0.00013828	0.00033883	3.7943e-05	1032.4	2.4633e-06	3.2839e-06	1121.7	211.52	1.6353e-06	3.1954e-06	272.57	76.516	58.986	17.237	1.7376e-06	24.323	0.00048433	0.00081577	0.00022191	1023.9	8.4783e-06	9.2599e-06	1114.9	211.39	8.274e-06	9.2667e-06	274.9	77.074	60.362	17.699	8.5362e-06	24.97	176.466	-22.451	-37.161	-100.607	70.967	33.797	-101.072	-93.919	39.251	64.200	-93.713	-87.234	-87.413	-79.431	47.400	-79.660	-8191	255	
33201.352	1	1	0	0	0.081519	0.12327	0.083053	0.11683	0.061765	0.19977	0.40871	0.18596	0.089148	0.080675	0.17536	0.17213	0.23874	0.063333	0.050784	0.21314	-1.2646	-1.6896	-1.9229	-1.8271	-1.6812	-1.9625	-1.8042	-1.9958	-1.8667	-1.5938	-2.0438	-1.8188	-1.9104	-2.1125	-1.5271	-2.1146	-2.818	-92.538	-109.183	207.957	-17.569	98.963	182.235	227.843	-36.291	18.546	62.255	213.413	150.924	205.924	208.217	211.147	0.00014068	0.00051869	7.8535e-05	1034.9	3.0087e-07	2.1543e-06	1117.8	210.63	2.4455e-06	3.596e-06	273.73	75.873	58.832	17.422	2.6541e-06	24.479	0.00046064	0.00082072	0.0002207	1025	8.4458e-06	9.298e-06	1114	210.9	8.26e-06	9.5123e-06	275.49	77.069	60.626	17.747	8.4651e-06	24.989	172.525	-6.757	35.726	-101.229	89.539	18.098	-100.812	-93.663	-47.375	48.629	-93.633	-87.291	-86.970	-79.354	11.367	-80.164	-8191	255	
33201.449	1	1	0	0	0.1394	0.10699	0.17882	0.16956	0.43318	0.22315	0.086039	0.18418	0.27186	0.095823	0.046245	0.3803	0.19026	0.45385	0.087447	0.25697	-1.4896	-1.5604	-2.2354	-1.7667	-1.6875	-1.9167	-1.8271	-1.8937	-1.9271	-1.5063	-2.1	-1.9521	-1.7188	-1.9604	-1.5229	-1.9125	48.481	-88.349	42.736	141.815	187.722	200.646	38.933	112.078	119.068	-20.033	108.050	227.207	26.068	208.789	-64.361	-93.459	0.00011542	0.00037146	7.8349e-05	1034.7	1.9957e-06	2.9903e-06	1117.5	209.96	2.1727e-06	3.3823e-06	272.78	76.324	58.197	17.438	1.6498e-06	24.269	0.0004805	0.00084692	0.00023378	1026.1	8.7773e-06	9.4865e-06	1113.7	210.79	8.087e-06	9.7446e-06	274.16	77.054	60.033	17.683	8.7964e-06	24.951	168.613	8.266	6.567	-101.026	30.601	66.902	-101.152	-93.529	-45.596	23.394	-93.540	-87.131	-87.250	-79.784	69.756	-79.755	-8191	255	
33201.547	1	1	0	0	0.19669	0.111	0.25067	0.15792	0.11677	0.22995	0.33207	0.10535	0.15571	0.068816	0.1119	0.22732	0.36238	0.18211	0.28757	0.054522	-1.6354	-1.425	-2.0125	-1.7667	-1.6875	-2.0375	-1.6896	-1.8792	-1.9854	-1.5812	-2.0542	-1.9417	-1.7021	-1.9417	-1.6792	-1.8708	-69.689	89.802	-9.336	-82.831	83.812	111.033	168.912	-61.922	243.852	225.536	97.324	202.594	122.702	57.605	134.673	141.805	0.00014274	0.00031996	3.997e-05	1032.2	1.3107e-06	2.9106e-06	1121.8	210.88	2.0928e-06	3.2898e-06	273.96	75.723	58.884	17.449	2.8536e-06	24.272	0.00047784	0.00085918	0.00023649	1026.2	8.7764e-06	9.0048e-06	1114.5	211.17	8.5041e-06	9.4407e-06	275.28	76.891	60.511	17.745	8.5671e-06	24.891	175.266	-20.251	-53.415	-101.175	-72.084	8.517	-101.085	-93.668	6.919	52.493	-93.813	-87.372	-87.281	-79.318	-0.439	-79.906	-8191	255	
33201.641	1	1	0	0	0.26081	0.050681	0.28397	0.09798	0.084387	0.054138	0.047443	0.31667	0.14723	0.11085	0.068165	0.1791	0.12021	0.050534	0.032085	0.18153	-1.4333	-1.5063	-2.025	-1.8271	-1.6896	-2.0729	-2.0583	-1.7833	-1.8417	-1.6292	-1.8833	-1.875	-1.6729	-2.0708	-1.4354	-1.6083	-88.078	83.061	140.152	-55.062	-72.414	-39.859	223.882	168.284	226.582	-65.869	-20.381	117.531	-14.571	247.130	213.098	230.690	0.00011488	0.00029126	5.0891e-05	1032	1.886e-06	3.0581e-06	1124.7	209.39	1.9852e-06	3.5624e-06	273.23	76.575	58.721	17.471	2.7233e-06	24.228	0.00048553	0.00085179	0.00024307	1024.9	8.5693e-06	9.8054e-06	1115.5	210.52	8.043e-06	9.0956e-06	275.8	77.201	60.518	17.716	8.9938e-06	24.891	158.722	-7.633	-23.128	-100.996	38.809	42.709	-101.017	-93.869	23.476	71.278	-93.495	-87.094	-87.783	-79.206	52.473	-79.817	-8191	255	
33201.734	1	1	0	0	0.2098	0.12292	0.10533	0.36681	0.10744	0.098012	0.23153	0.34112	0.26988	0.31491	0.22043	0.090104	0.099027	0.14299	0.32142	0.28609	-1.5125	-1.5729	-1.7542	-2.0187	-1.4937	-1.975	-2.0062	-1.7062	-2.1229	-1.8	-1.9042	-2.0146	-1.5812	-1.9625	-1.7229	-1.775	-65.736	83.835	55.984	190.078	-38.826	13.674	177.876	194.078	243.484	45.817	159.319	50.872	161.828	37.593	137.578	46.505	0.00018104	0.00027936	8.8365e-05	1034.5	1.8234e-06	3.4971e-06	1120.9	210.57	2.469e-06	3.3712e-06	274.13	75.571	58.983	17.423	2.2737e-06	24.325	0.0004864	0.00086783	0.00023165	1025.8	8.7927e-06	9.4284e-06	1116.2	211.08	8.2492e-06	9.6232e-06	275.64	76.904	60.444	17.705	8.5094e-06	24.896	170.974	-34.948	-15.839	-100.819	-1.291	29.279	-101.088	-93.632	15.936	25.677	-94.096	-87.312	-87.561	-79.382	21.710	-79.688	-8191	255	
33201.832	1	1	0	0	0.076148	0.22327	0.14641	0.031457	0.15037	0.39732	0.098459	0.29714	0.054775	0.18646	0.071716	0.22306	0.051705	0.2149	0.058027	0.1091	-1.7521	-1.6667	-1.7667	-2.1104	-1.675	-2.1583	-2.0771	-1.6688	-2.1146	-1.7979	-1.8646	-2.1396	-1.4604	-1.9396	-1.9104	-1.7646	-58.322	29.427	17.497	-59.257	-87.872	123.612	118.463	225.041	-60.692	182.671	195.223	205.349	-2.467	165.507	32.716	144.779	9.3388e-05	0.00030337	9.16e-05	1038.2	2.6706e-06	1.848e-06	1121.6	210.49	1.8233e-06	2.1099e-06	270.86	75.752	59.02	17.398	1.1e-06	24.456	0.00045339	0.00085053	0.0002338	1028.4	8.7375e-06	9.3256e-06	1116.1	211.04	8.4933e-06	9.693e-06	274.97	76.734	60.762	17.675	8.45e-06	24.994	158.426	-45.636	27.973	-100.921	12.539	51.086	-100.909	-93.818	-55.998	33.639	-93.631	-87.080	-87.953	-79.417	23.160	-80.057	-8191	255	
33201.953	1	1	0	0	0.39387	0.074339	0.029415	0.39202	0.16438	0.26166	0.16217	0.064396	0.48656	0.20396	0.13134	0.17027	0.1768	0.30245	0.23011	0.10345	-1.7	-1.6125	-1.9042	-2.0167	-1.5917	-2.1063	-2.05	-1.6146	-2.0854	-2.0479	-1.9083	-2.1312	-1.6167	-1.85	-2.15	-1.55	-47.997	64.934	-95.701	206.356	139.861	9.519	135.745	-105.429	16.783	220.318	238.061	167.378	-105.219	194.864	-88.768	155.112	0.00011841	0.00046851	0.0001248	1041.6	1.4955e-06	2.7515e-06	1124.4	210.78	1.6773e-06	2.4929e-06	273.86	75.909	59.051	17.471	2.8112e-06	24.398	0.00046837	0.00083525	0.00023177	1029.2	8.6554e-06	8.9676e-06	1119	211.19	7.9727e-06	8.7209e-06	275.97	77.031	60.601	17.742	8.3663e-06	24.929	178.688	0.215	-14.070	-101.130	26.413	29.687	-100.847	-93.613	34.012	17.832	-93.845	-87.464	-87.203	-79.346	11.008	-79.670	-8191	255	
33202.047	1	1	0	0	0.27272	0.12147	0.13683	0.22697	0.064263	0.077194	0.18988	0.22932	0.079904	0.30055	0.38187	0.051862	0.23875	0.20206	0.11812	0.16233	-1.6646	-1.8062	-1.5292	-2.1813	-1.7437	-1.8354	-2.1042	-1.5562	-2.1937	-1.825	-1.5771	-2.1792	-1.6708	-1.8958	-1.9583	-1.5729	135.184	-23.504	177.467	177.269	163.612	-30.487	188.441	219.183	79.088	93.654	220.052	-76.743	36.137	-38.575	235.382	-88.568	0.00012906	0.00033596	0.00010015	1031.8	2.5293e-06	1.3084e-06	1123.8	212.09	1.3753e-06	3.309e-06	274.81	76.14	58.232	17.311	2.5048e-06	24.451	0.00045612	0.00080493	0.00022436	1024	7.9877e-06	8.5307e-06	1116	211.55	8.0824e-06	8.742e-06	275	76.977	60.183	17.715	8.2643e-06	24.982	173.564	-39.411	-29.642	-101.142	47.231	42.501	-101.062	-93.837	3.448	45.017	-94.066	-87.092	-87.250	-79.831	65.782	-80.333	-8191	255	
33202.145	1	1	0	0	0.086086	0.32724	0.16216	0.15603	0.076848	0.091362	0.093827	0.17074	0.27674	0.16564	0.094446	0.24542	0.19113	0.2871	0.065046	0.055128	-1.4688	-1.7667	-1.5562	-2.2542	-1.6833	-1.8167	-2.1833	-1.5375	-2.0542	-2.0083	-1.6562	-2.2208	-1.5458	-1.7104	-2.0979	-1.7458	147.936	236.796	94.455	78.974	23.156	205.217	10.202	-84.215	47.125	214.403	-39.312	-101.332	-110.461	-54.171	169.584	97.193	0.00011536	0.00030429	9.4354e-05	1035.7	1.9231e-06	3.2095e-06	1127.3	210.98	2.1348e-06	2.8382e-06	272.7	76.087	59.006	17.454	1.1864e-06	24.399	0.00044439	0.00078923	0.00021584	1024.8	8.1193e-06	8.8087e-06	1118.4	210.77	7.7294e-06	8.6397e-06	275.49	77.278	60.768	17.747	7.7966e-06	24.996	185.897	-47.474	-73.777	-100.886	62.681	101.964	-100.922	-93.688	-12.992	29.041	-93.733	-87.062	-87.275	-79.231	45.601	-79.803	-8191	255	
33202.215	1	1	0	0	0.11848	0.18875	0.051224	0.092003	0.28526	0.11553	0.44158	0.25488	0.089489	0.19859	0.14129	0.053498	0.16484	0.10958	0.19555	0.093269	-1.4875	-1.8667	-1.6042	-2.1	-1.925	-1.6271	-2.1646	-1.6042	-1.9	-1.9062	-1.5917	-2.1417	-1.8062	-1.7021	-2.0917	-1.6792	-2.258	233.171	-23.587	-18.585	80.376	-91.746	222.324	-89.012	-51.812	101.893	110.299	18.647	119.109	186.507	-14.410	146.219	0.00013186	0.00034956	6.2592e-05	1034.6	1.9059e-06	3.9704e-06	1117	210.88	1.5919e-06	4.3962e-06	274.37	75.9	58.838	17.438	2.0337e-06	24.694	0.00045204	0.00075153	0.00022427	1026.8	8.3037e-06	8.9943e-06	1115.4	211.26	7.7897e-06	8.8308e-06	276.18	76.974	60.704	17.746	7.8961e-06	25.083	175.221	-5.871	-34.969	-101.050	51.540	52.392	-101.025	-94.049	-51.321	37.303	-94.176	-87.356	-87.485	-79.289	47.242	-79.894	-8191	255	
33202.336	1	1	0	0	0.27763	0.36642	0.24012	0.19205	0.21	0.107	0.26111	0.21702	0.23944	0.16268	0.11314	0.18472	0.25521	0.073396	0.13082	0.31956	-1.6792	-1.975	-1.5542	-2.0187	-1.7792	-1.8312	-2.3854	-1.7292	-1.9708	-1.9708	-1.6708	-2.0792	-1.9771	-1.6187	-2.0292	-1.7771	188.600	-30.015	168.102	191.838	120.973	144.885	58.817	212.402	6.055	-38.897	55.645	150.581	1.001	227.087	-99.954	-6.488	0.00015331	0.00025048	8.9402e-05	1039.7	9.53e-07	2.2628e-06	1122.4	211.26	1.569e-06	2.8116e-06	273.65	76.185	59.276	17.454	1.7585e-06	24.308	0.00045605	0.00081854	0.00022379	1027.5	8.1826e-06	9.0276e-06	1117.4	211.33	8.0059e-06	9.4454e-06	274.91	77.192	60.621	17.711	7.999e-06	24.92	168.858	-27.048	-57.404	-100.880	116.267	2.343	-100.933	-93.595	0.032	44.296	-93.777	-87.063	-87.402	-79.166	2.725	-79.629	-8191	255	
33202.434	1	1	0	0	0.064304	0.21298	0.19619	0.20521	0.1166	0.33094	0.38982	0.2834	0.073567	0.13098	0.27714	0.21419	0.30824	0.17424	0.068343	0.23771	-1.4208	-2.1167	-1.5625	-1.95	-1.65	-1.5792	-2.1542	-1.7146	-1.8917	-2.0875	-1.6729	-1.9021	-1.9167	-1.6458	-2.0208	-1.875	-4.403	59.458	160.174	-22.953	34.250	-2.464	153.781	-109.801	5.664	232.210	196.041	-64.784	-86.087	187.886	-7.511	244.493	0.00014179	0.00032857	5.9665e-05	1033.5	1.5596e-06	4.0989e-06	1117.3	211.34	1.2467e-06	4.0045e-06	276.26	76.27	59.203	17.542	1.6186e-06	24.362	0.00046403	0.00076035	0.00022589	1025.8	8.6652e-06	9.4541e-06	1115.9	211.21	7.585e-06	8.7735e-06	275.73	77.056	60.544	17.783	8.1095e-06	24.966	185.734	3.960	6.118	-101.100	54.464	56.145	-100.775	-93.528	-78.581	15.261	-94.191	-87.293	-87.377	-80.040	6.301	-80.079	-8191	255	
33202.527	1	1	0	0	0.16195	0.33632	0.21433	0.39204	0.15585	0.054719	0.27259	0.21244	0.2631	0.18264	0.23087	0.074355	0.14182	0.03985	0.11091	0.1607	-1.2521	-1.9229	-1.5375	-1.9458	-1.9688	-1.4521	-2.1292	-1.8646	-1.7875	-2.1083	-1.6771	-1.9229	-2.0396	-1.7521	-2.075	-2.0438	183.925	230.495	-15.365	-97.185	203.756	-42.000	57.833	187.507	115.243	63.987	237.288	-101.048	184.706	87.764	49.844	82.699	0.00014378	0.0002951	0.00010368	1033.3	3.1501e-06	2.1212e-06	1120.2	211.32	3.3242e-06	3.1854e-06	273.96	75.853	58.083	17.526	1.3781e-06	24.469	0.00045802	0.00079973	0.00022644	1026.9	8.2964e-06	9.3789e-06	1117.8	211.13	8.2021e-06	8.7295e-06	275.12	77.107	60.391	17.782	8.5512e-06	24.945	180.205	1.990	-55.486	-101.068	33.765	25.970	-101.026	-93.527	14.775	56.032	-93.962	-87.251	-86.789	-78.853	-16.064	-80.158	-8191	255	
33202.625	1	1	0	0	0.16244	0.19411	0.20673	0.13458	0.55309	0.16221	0.28738	0.097863	0.020828	0.13326	0.20996	0.043172	0.26409	0.10881	0.099243	0.15349	-1.2521	-2.0938	-1.7729	-1.9813	-2.15	-1.6125	-2.15	-1.8833	-1.6125	-2.0583	-1.7729	-1.8083	-2.0208	-1.6667	-2.0271	-2.0521	126.487	71.575	164.109	94.262	178.724	-50.422	167.847	82.579	157.089	53.956	-89.961	-72.149	-89.294	31.723	85.910	-25.758	0.00013468	0.0001612	0.00010303	1036.1	2.0999e-06	2.0452e-06	1123	211.04	2.236e-06	2.6185e-06	275.63	76.278	58.573	17.404	2.3958e-06	24.498	0.00046917	0.00079729	0.00023205	1023.9	8.1046e-06	9.1856e-06	1115.6	211.2	8.372e-06	8.9207e-06	275.66	77.157	60.537	17.734	8.148e-06	24.988	185.119	20.246	3.383	-100.928	-4.795	32.822	-100.958	-93.787	-40.192	30.348	-93.878	-87.287	-87.042	-79.599	38.839	-79.748	-8191	255	
33202.742	1	1	0	0	0.17102	0.2262	0.091646	0.14301	0.23593	0.14176	0.35001	0.30078	0.059548	0.27762	0.081131	0.218	0.16764	0.232	0.28483	0.12251	-1.2021	-2.0125	-1.7292	-1.8542	-2.0208	-1.7354	-2.1021	-1.9688	-1.5812	-2.1063	-1.8458	-1.8271	-1.9229	-1.5729	-1.8833	-2.1271	95.448	124.305	226.197	-0.885	-106.525	20.985	199.779	209.106	142.502	73.544	25.443	215.025	-63.991	165.709	-59.309	30.913	0.00012394	0.0004022	4.3216e-05	1037.4	3.3487e-06	3.2194e-06	1116.6	211.46	1.3088e-06	1.5797e-06	275.14	76.2	58.818	17.46	4.1253e-06	24.413	0.00046272	0.00082441	0.00022776	1026.1	8.2907e-06	9.0828e-06	1114.3	210.99	8.2933e-06	9.1272e-06	275.23	76.981	60.377	17.791	8.6608e-06	25.023	178.068	-21.391	5.199	-101.107	62.713	65.338	-101.087	-93.858	-53.778	82.863	-93.703	-87.532	-87.548	-79.146	20.392	-79.819	-8191	255	
33202.840	1	1	0	0	0.24779	0.15615	0.16807	0.36187	0.076878	0.15717	0.089667	0.18627	0.038907	0.051398	0.22123	0.081711	0.18125	0.035902	0.17593	0.22374	-0.94375	-2.0083	-2.0167	-2.0125	-1.9771	-1.8625	-1.9521	-2.0438	-1.5167	-2	-1.8875	-1.675	-2.1708	-1.725	-1.8604	-2.125	-12.169	67.884	198.592	234.140	175.303	192.779	193.119	155.156	-40.287	126.518	-81.810	-30.890	42.592	-23.243	-47.879	240.459	0.00013768	0.00041183	7.0792e-05	1036.8	6.8846e-07	2.8552e-06	1121.4	209.76	1.7959e-06	4.643e-06	276.7	76.002	59.137	17.508	3.8908e-06	24.482	0.00048341	0.00080099	0.00023024	1026.7	8.415e-06	9.5455e-06	1114.7	210.48	8.3543e-06	9.3212e-06	275.85	76.909	60.312	17.732	8.583e-06	24.999	185.423	-26.105	20.833	-100.921	30.623	68.771	-101.039	-94.124	-6.864	26.568	-94.269	-87.372	-87.340	-79.868	18.241	-79.907	-8191	255	
33202.938	1	1	0	0	0.083375	0.074499	0.28998	0.24392	0.059948	0.13775	0.049764	0.098834	0.15327	0.089426	0.21222	0.26757	0.15955	0.19749	0.17762	0.12883	-1.1896	-2.0417	-1.75	-1.8333	-1.8854	-1.5792	-2.05	-2.1521	-1.2437	-1.8188	-1.7896	-1.65	-2.1562	-1.6125	-1.7	-1.8563	120.034	-8.291	-63.921	-86.785	49.007	120.380	118.075	165.036	240.087	150.397	189.851	181.385	88.767	3.516	118.915	141.382	0.00011404	0.00022636	0.00014878	1034.5	2.2587e-06	3.5463e-06	1115.5	211.31	6.0785e-07	4.5058e-06	271.31	75.64	59	17.29	2.8978e-06	24.656	0.00047882	0.00084196	0.00023526	1024.2	8.9698e-06	9.9206e-06	1113.8	211.13	8.2299e-06	9.0363e-06	274.86	76.984	60.805	17.721	8.6165e-06	25.053	195.155	-19.354	-63.061	-101.026	31.417	16.683	-100.957	-93.854	196.029	34.399	-94.132	-87.184	-87.309	-79.220	39.178	-79.770	-8191	255	
33203.031	1	1	0	0	0.10514	0.14792	0.24127	0.080752	0.12377	0.12748	0.25835	0.059515	0.12303	0.2017	0.077266	0.051741	0.19081	0.265	0.27621	0.050935	-1.1375	-1.8896	-1.8813	-1.6042	-2.0292	-1.8979	-1.8854	-2.2854	-1.7458	-2.0479	-2.0417	-1.6896	-2.1125	-1.8167	-1.6729	-2.2042	-106.807	165.779	228.908	-61.911	240.157	41.094	227.594	236.748	91.454	18.006	157.228	151.010	57.365	2.881	95.586	171.194	0.00012451	0.00033154	0.00014441	1032	6.824e-07	1.9327e-06	1120.7	209.58	2.622e-07	4.6713e-06	273.35	76.243	58.84	17.352	6.4467e-07	24.423	0.00047343	0.00085019	0.00023689	1024.9	8.7789e-06	9.6978e-06	1112.4	210.39	8.4199e-06	9.5372e-06	274.61	76.945	60.729	17.732	8.7453e-06	25.049	176.998	4.150	-15.236	-100.889	44.039	12.862	-100.792	-93.938	110.013	56.226	-94.014	-86.820	-87.855	-79.365	-13.796	-79.985	-8191	255	
33203.129	1	1	0	0	0.23342	0.061274	0.16912	0.15631	0.14382	0.23697	0.19218	0.19536	0.14289	0.28144	0.07889	0.51154	0.33417	0.19516	0.092958	0.18072	-1.1833	-1.875	-2.2042	-1.6688	-2.1583	-1.8042	-1.7583	-2.1396	-1.7083	-1.8813	-2.0875	-1.7479	-1.9479	-1.9542	-1.8083	-2.1521	-98.154	130.077	162.709	-15.742	1.673	-48.031	98.962	165.736	78.948	-33.090	45.920	-97.965	-57.609	194.648	127.746	229.519	0.00011154	0.00048771	2.0203e-05	1036.2	9.585e-07	7.4061e-07	1116.4	209.98	1.8655e-06	1.4117e-06	273.32	75.406	58.988	17.398	2.9663e-06	24.493	0.00049333	0.00087614	0.00024208	1023.3	8.6375e-06	9.7273e-06	1112.7	210.57	8.9212e-06	9.7188e-06	274.38	76.864	60.493	17.729	8.8348e-06	24.959	177.838	-19.089	88.748	-101.075	245.885	27.939	-100.826	-93.821	-16.416	77.286	-93.767	-87.429	-87.202	-79.302	17.436	-80.543	-8191	255	
33203.227	1	1	0	0	0.056296	0.20084	0.018569	0.2136	0.27342	0.18057	0.045938	0.1328	0.14062	0.042275	0.16441	0.11326	0.212	0.29888	0.13038	0.25529	-1.3125	-1.9625	-1.9979	-1.9	-2.0271	-1.9646	-1.6771	-2.1542	-1.7521	-1.9479	-2.1354	-1.5187	-2.0625	-1.875	-1.7167	-2.0687	-72.136	-19.836	147.242	131.953	-9.228	218.437	137.470	180.465	242.983	-72.734	-38.931	56.068	218.680	126.155	19.571	17.511	0.00014581	0.00034873	8.6326e-05	1031.1	1.809e-06	3.796e-06	1115.4	210	2.3362e-06	4.8671e-06	273.89	75.575	58.362	17.261	3.2358e-06	24.345	0.00048218	0.00086774	0.00024522	1022.1	8.9324e-06	9.6407e-06	1109.4	210.7	8.7011e-06	9.9195e-06	273.93	76.829	60.327	17.617	9.2414e-06	24.893	177.239	-65.497	-12.516	-100.952	33.339	45.125	-100.775	-93.772	-34.631	77.533	-93.686	-87.359	-87.536	-79.601	52.378	-80.385	-8191	255	
33203.348	1	1	0	0	0.18869	0.19476	0.12677	0.33514	0.24595	0.14681	0.17314	0.062457	0.1838	0.24144	0.15066	0.18081	0.089423	0.16177	0.081097	0.098969	-1.3708	-1.5896	-2.1271	-1.7375	-1.8229	-2.0771	-1.8417	-2.2062	-1.9188	-1.8583	-2.2667	-1.8667	-1.7875	-2.1125	-1.7271	-1.9583	147.725	-21.978	142.385	-57.463	-1.753	144.987	-109.542	172.049	-72.993	82.755	-7.631	215.078	-81.473	-105.241	173.208	199.354	0.00011559	0.00023622	0.00011889	1027.7	2.6691e-06	1.7744e-06	1108.4	210.6	1.2697e-06	1.7651e-06	270.24	75.501	58.397	17.33	1.0573e-06	24.033	0.00050145	0.0008627	0.00023562	1018.2	8.787e-06	9.7226e-06	1106	210.33	8.4416e-06	9.4617e-06	274.57	76.71	60.528	17.682	9.0315e-06	24.885	179.851	-27.238	-28.272	-100.632	16.684	-42.158	-100.858	-93.520	-18.147	42.299	-93.910	-86.738	-86.991	-79.346	-0.069	-80.027	-8191	255	
33203.441	1	1	0	0	0.25688	0.20008	0.098704	0.21455	0.26506	0.060604	0.34345	0.17954	0.25516	0.10915	0.18789	0.19447	0.20411	0.25661	0.11956	0.12203	-1.65	-1.5854	-2.2417	-1.75	-1.9937	-2.0187	-1.6646	-2.1958	-2.0208	-1.8167	-2.1667	-1.8021	-1.6542	-2.2188	-1.7604	-1.9062	-36.619	182.105	-88.133	122.384	202.428	-14.845	182.210	216.961	29.263	181.849	5.557	89.619	66.583	114.321	-105.684	-104.200	0.00010673	0.000331	9.0976e-05	1023.8	1.2676e-06	2.0954e-06	1115.9	209.36	2.4532e-06	1.8732e-06	274	75.62	58.917	17.402	1.4719e-06	24.28	0.00049704	0.00089033	0.00023791	1017.9	8.9024e-06	9.8263e-06	1109.7	210.38	8.2724e-06	1.0238e-05	275.51	76.725	60.588	17.667	9.1611e-06	24.937	152.474	-31.983	30.579	-100.817	82.743	-66.397	-101.089	-93.576	-28.972	47.772	-93.957	-87.402	-87.144	-79.593	-33.514	-79.777	-8191	255	
33203.512	1	1	0	0	0.076021	0.11774	0.22587	0.1687	0.092135	0.02957	0.207	0.19487	0.15426	0.26058	0.13008	0.29154	0.20386	0.17462	0.024735	0.16049	-1.6604	-1.5896	-2.2646	-1.95	-1.7146	-2.0062	-1.9667	-1.975	-1.9646	-1.5167	-2.2521	-1.9083	-1.7229	-2.1229	-1.8375	-1.9146	-39.505	-16.655	-96.757	209.549	221.584	9.124	241.381	-59.351	-63.544	79.421	-89.656	75.915	194.202	113.305	99.056	37.210	0.00011444	0.00044257	4.3284e-05	1038	2.0658e-06	3.6526e-06	1109.7	210.24	2.0185e-06	3.6987e-06	271.55	75.004	58.401	17.551	1.6989e-06	24.22	0.00049092	0.00090528	0.00024244	1022.7	9.2257e-06	9.9034e-06	1107.8	210.41	8.6154e-06	1.0169e-05	274.79	76.626	60.333	17.703	8.9997e-06	24.919	174.647	-27.488	-75.880	-100.982	11.337	69.830	-100.711	-93.883	-34.036	73.967	-93.549	-87.237	-87.478	-79.153	104.314	-80.345	-8191	255	
33203.609	1	1	0	0	0.35679	0.086698	0.15991	0.20171	0.21344	0.23871	0.03172	0.034347	0.12427	0.079421	0.45332	0.13192	0.20969	0.1532	0.2155	0.18237	-1.5979	-1.6979	-1.8563	-1.8917	-1.6938	-2.1437	-1.8292	-2.2396	-2.1813	-1.6437	-1.8625	-1.85	-1.7958	-2.1688	-1.7375	-1.9396	203.813	-51.031	14.142	99.984	73.041	184.652	-40.874	108.718	218.661	15.471	-65.802	50.464	203.873	64.028	184.163	-67.248	0.00012607	0.00043772	6.1507e-05	1025.9	2.2539e-06	2.9238e-06	1117.1	209.18	1.6906e-06	4.747e-06	272.67	75.434	58.313	17.308	1.67e-06	24.311	0.00049289	0.00085263	0.00023439	1018.6	9.4742e-06	9.7635e-06	1109.9	210.15	8.389e-06	1.0702e-05	273.48	76.738	60.325	17.63	9.0105e-06	24.933	176.301	-22.950	-71.262	-101.041	28.950	39.016	-101.125	-93.868	-47.179	36.610	-93.428	-87.115	-86.968	-79.731	42.550	-80.340	-8191	255	
33203.727	1	1	0	0	0.17809	0.028148	0.17663	0.23261	0.25822	0.13786	0.22612	0.23856	0.17663	0.25194	0.019881	0.094664	0.30191	0.04313	0.4015	0.15569	-1.5458	-1.5604	-1.8292	-1.9813	-1.4979	-2.1125	-1.8062	-1.9438	-2.0625	-1.3729	-1.9438	-1.9792	-1.6917	-2.0187	-1.5812	-1.9979	-20.147	26.999	217.879	-20.051	113.060	184.491	171.082	184.601	-84.911	-96.600	95.781	-73.672	5.051	-50.315	-7.264	127.809	0.00011303	0.0003413	7.4127e-05	1032.3	1.8884e-06	2.0999e-06	1117.8	209.74	1.1258e-06	4.0213e-06	272.77	75.331	59.456	17.215	2.8045e-06	24.216	0.00049435	0.00093215	0.00025492	1022.5	9.2289e-06	1.0232e-05	1109.4	210.48	8.7737e-06	9.9702e-06	274.24	76.567	60.466	17.58	9.2339e-06	24.842	182.777	-18.395	1.702	-101.291	39.251	13.334	-100.876	-93.860	-19.488	25.379	-93.571	-87.349	-87.683	-79.763	58.433	-80.196	-8191	255	
33203.824	1	1	0	0	0.078017	0.1196	0.13811	0.11702	0.035145	0.11646	0.22301	0.043405	0.081033	0.20198	0.012438	0.10748	0.14236	0.3504	0.1237	0.30034	-1.8708	-1.7062	-1.8875	-2.0604	-1.5938	-2.1396	-2.0917	-1.8458	-2.2438	-1.7417	-1.9375	-2.1063	-1.3646	-2.0333	-1.9021	-1.8771	-77.447	166.958	-56.084	209.897	-62.722	163.165	-49.469	96.865	163.012	-56.265	198.867	172.699	125.545	-89.394	-97.299	-38.289	0.00011612	0.00023409	6.8427e-05	1027.3	2.4354e-06	2.2672e-06	1110.6	209.86	2.3103e-06	2.6446e-06	271.27	75.271	58.734	17.215	2.1648e-06	24.357	0.00051195	0.00086354	0.00024397	1020.2	9.1883e-06	9.833e-06	1105.6	210.32	8.9274e-06	1.0364e-05	272.81	76.555	60.436	17.614	9.1411e-06	24.929	161.226	5.739	-26.397	-101.045	23.972	45.105	-101.002	-93.684	-52.534	61.967	-93.558	-87.148	-87.451	-79.763	40.097	-80.066	-8191	255	
33203.922	1	1	0	0	0.30704	0.12093	0.15137	0.16203	0.27584	0.15453	0.14136	0.22715	0.038132	0.31855	0.22021	0.14646	0.20781	0.18709	0.062661	0.12955	-1.6313	-1.5063	-1.8917	-2.0521	-1.5458	-2.0146	-2.0271	-1.5333	-1.9625	-1.8083	-1.85	-2.1917	-1.4396	-1.7188	-1.8667	-1.6125	-31.901	66.059	62.198	235.450	133.649	31.338	168.644	-109.850	-66.656	210.865	79.032	69.341	169.125	-103.298	197.484	116.475	0.00014443	0.00014074	8.6474e-05	1029.6	7.8791e-07	3.5156e-06	1119.1	209.96	1.1707e-06	2.6384e-06	272.04	76.098	58.232	17.302	3.1933e-06	24.174	0.00051577	0.00090536	0.00025735	1020.4	9.3134e-06	1.0005e-05	1109.6	210.41	8.8108e-06	1.042e-05	274.46	76.896	60.188	17.674	8.7587e-06	24.806	183.804	-56.300	2.009	-101.220	128.775	59.998	-100.939	-93.649	-34.793	-5.643	-94.327	-87.080	-86.890	-79.359	55.405	-80.298	-8191	255	
33204.016	1	1	0	0	0.17462	0.32819	0.25404	0.13283	0.11275	0.21943	0.29418	0.34586	0.15348	0.29634	0.095025	0.26318	0.18806	0.076827	0.075404	0.1634	-1.4604	-1.7625	-1.6021	-2.2354	-1.575	-2.05	-2.0896	-1.6958	-1.925	-1.9188	-1.7458	-2.1729	-1.625	-1.9604	-1.9042	-1.5875	48.972	71.695	178.775	41.044	165.045	-59.205	179.868	218.015	76.154	153.497	199.146	-86.932	234.716	127.504	43.527	-104.575	0.0001015	0.00026392	0.00012098	1023.9	1.675e-06	3.6979e-06	1112	209.37	2.2834e-06	4.1989e-06	271.24	75.743	58.903	17.262	1.4911e-06	24.204	0.00050054	0.00089873	0.00024919	1017.6	9.4344e-06	9.8301e-06	1108	210.17	8.7837e-06	9.9807e-06	273.79	76.666	60.47	17.628	9.3494e-06	24.822	175.188	-16.385	-31.475	-100.871	17.654	56.582	-100.873	-93.623	-40.735	57.620	-93.831	-87.126	-87.834	-78.725	-43.620	-79.772	-8191	255	
33204.113	1	1	0	0	0.1865	0.15748	0.15511	0.318	0.14716	0.22944	0.085219	0.2416	0.20124	0.30395	0.12742	0.24245	0.21216	0.11041	0.042909	0.18859	-1.7292	-1.7646	-1.7188	-2.2646	-1.6625	-1.9792	-2.2208	-1.5958	-2.0729	-2.0479	-1.6063	-2.3937	-1.7854	-1.7979	-1.8771	-1.5792	-101.513	172.039	162.829	-90.377	19.977	-88.956	101.924	-74.854	-107.825	65.629	216.736	153.169	-79.034	6.909	-50.208	-2.672	9.7849e-05	0.00020582	2.6766e-05	1032.8	1.6596e-06	1.6777e-06	1115.5	209.29	2.136e-06	4.6606e-06	271.77	75.566	59.208	17.263	3.0681e-06	24.137	0.00048972	0.00087706	0.00025749	1021	9.1363e-06	1.0022e-05	1109.3	209.96	8.9027e-06	1.0394e-05	274.19	76.73	60.733	17.701	8.9428e-06	24.772	171.050	107.939	-10.199	-101.135	46.154	115.178	-100.805	-93.855	4.751	13.128	-93.568	-87.588	-87.282	-79.087	16.690	-80.016	-8191	255	
33204.211	1	1	0	0	0.099569	0.22687	0.27298	0.082939	0.082161	0.31861	0.10187	0.36874	0.066864	0.1284	0.19645	0.30945	0.053166	0.17271	0.11867	0.1533	-1.5417	-1.8104	-1.5875	-2.3438	-1.5417	-1.9937	-2.3583	-1.6583	-1.9688	-1.8729	-1.6437	-2.1292	-1.7875	-1.7979	-1.9042	-1.8021	-29.043	73.778	32.510	66.406	179.784	86.128	152.951	224.180	-52.055	-100.881	155.011	238.518	194.211	222.426	144.599	40.632	0.00012361	0.00034626	0.00014638	1032.5	1.5019e-06	2.414e-06	1119.3	210.67	1.0327e-06	2.4259e-06	271.77	75.339	58.695	17.285	3.5296e-06	24.298	0.00050152	0.00086329	0.00025679	1021.7	9.3394e-06	9.8425e-06	1112.1	210.66	8.5605e-06	9.9893e-06	273.94	76.632	60.362	17.633	9.5385e-06	24.896	174.016	-19.804	2.379	-100.809	71.738	23.922	-100.852	-93.687	19.624	16.858	-93.908	-87.237	-87.230	-79.261	56.932	-80.244	-8191	255	
33204.305	1	1	0	0	0.032574	0.077098	0.18381	0.020894	0.09591	0.037697	0.20547	0.1079	0.16244	0.15215	0.28145	0.26447	0.10722	0.17555	0.26408	0.047118	-1.4354	-1.8104	-1.5646	-2.0812	-1.7542	-1.825	-2.3646	-1.5896	-1.8937	-1.8833	-1.625	-2.1333	-1.7583	-1.6313	-1.9667	-1.9729	160.248	-56.937	-82.798	27.889	222.907	-76.575	225.782	217.573	-10.181	199.445	112.066	190.392	236.163	202.138	-38.650	-89.608	0.00015912	0.00034867	0.00014207	1038.6	3.0934e-06	2.3289e-06	1114.1	209.59	1.2861e-06	3.2191e-06	272.64	75.401	58.457	17.307	1.4217e-06	24.384	0.00049719	0.00091157	0.00025818	1025.4	9.0713e-06	9.9805e-06	1110.7	210.45	8.9869e-06	1.0007e-05	273.91	76.664	60.202	17.683	9.0298e-06	24.93	172.765	-13.677	-35.895	-100.877	-13.283	35.565	-101.107	-93.840	-59.248	32.324	-93.943	-87.097	-86.754	-79.000	26.022	-80.176	-8191	255	
33204.426	1	1	0	0	0.28029	0.098708	0.081635	0.17492	0.26586	0.18863	0.15115	0.12599	0.15178	0.21267	0.19946	0.25223	0.19089	0.28341	0.18311	0.1775	-1.5042	-1.8188	-1.7208	-2.1688	-1.7542	-1.8771	-2.2104	-1.6146	-1.9146	-2.0833	-1.4937	-2.1063	-1.8687	-1.6708	-2.3292	-1.825	175.235	-100.281	190.102	-101.332	138.326	-18.403	110.681	71.783	115.219	234.455	142.874	131.738	-41.687	242.414	-98.388	64.351	0.00013398	0.00027091	1.7593e-05	1027.1	3.3302e-06	1.432e-06	1114.1	208.36	2.1869e-06	3.1803e-06	270.05	75.617	58.117	17.165	2.1288e-06	24.328	0.0004993	0.00088832	0.00025431	1020.6	9.3248e-06	1.002e-05	1110.9	210.06	8.7413e-06	9.9855e-06	273.64	76.763	60.328	17.649	9.4556e-06	24.874	180.877	-33.244	23.840	-101.113	-6.906	6.074	-100.765	-93.753	37.193	41.663	-93.836	-87.239	-87.694	-79.306	-13.359	-79.988	-8191	255	
33204.520	1	1	0	0	0.22852	0.10793	0.13324	0.34075	0.27303	0.12047	0.21934	0.035694	0.038049	0.078873	0.22585	0.072283	0.16247	0.089908	0.26743	0.22748	-1.5438	-2.0104	-1.6417	-2.0229	-1.8604	-1.4979	-2.2833	-1.9021	-1.8104	-2.2687	-1.6604	-1.8958	-2.0792	-1.6625	-2.1937	-1.9042	-65.623	68.731	207.283	234.557	169.969	137.896	176.636	165.332	160.912	36.354	233.554	174.426	28.390	-14.318	170.209	149.932	0.00013439	0.00014535	0.00011206	1033.3	1.4837e-06	2.7666e-06	1117.6	210.02	1.9132e-06	1.3527e-06	272.74	75.402	59.115	17.215	7.4139e-07	24.199	0.00051114	0.00088168	0.00025084	1023.5	9.1136e-06	9.9577e-06	1111.4	210.63	9.2549e-06	1.0244e-05	274.41	76.629	60.384	17.638	9.1494e-06	24.869	173.867	-32.015	-31.679	-100.793	47.471	2.727	-101.054	-94.103	-11.513	76.680	-93.981	-87.416	-87.937	-79.678	48.656	-79.637	-8191	255	
33204.617	1	1	0	0	0.15687	0.11264	0.25289	0.14067	0.027781	0.16098	0.24738	0.40322	0.28139	0.35756	0.17799	0.093518	0.25799	0.16723	0.10116	0.22666	-1.4229	-2.1646	-1.7146	-2.0792	-2.1125	-1.65	-2.1854	-2.0208	-1.725	-2.3292	-1.9667	-1.9937	-2.1083	-1.6646	-2.0958	-1.9271	67.404	26.903	25.041	105.281	-91.974	-41.095	195.345	235.956	184.298	-0.700	-58.408	210.898	-17.288	-76.400	14.679	236.525	0.0001594	0.0002103	8.955e-05	1028.3	3.8574e-06	2.9437e-06	1115.6	209.67	7.0333e-07	2.6796e-06	271.38	75.233	58.523	17.119	3.073e-06	24.329	0.00052608	0.00092543	0.00026672	1022.7	9.2476e-06	1.0705e-05	1112.6	210.22	9.4395e-06	1.0419e-05	273.79	76.649	60.163	17.619	9.5928e-06	24.844	186.465	-6.813	-0.744	-101.093	28.057	74.170	-101.143	-93.916	-25.346	50.825	-93.929	-86.797	-87.166	-79.503	33.699	-80.110	-8191	255	
33204.738	1	1	0	0	0.2783	0.26318	0.12498	0.16751	0.21545	0.052599	0.37281	0.080966	0.16995	0.19268	0.10933	0.25039	0.21548	0.1386	0.18593	0.30811	-1.3667	-2.0563	-1.9188	-1.825	-2.1021	-1.6542	-2.1896	-1.9208	-1.825	-2.0542	-1.8521	-1.8333	-2.1437	-1.5854	-2.0042	-1.9958	67.417	120.836	133.596	32.465	-76.306	27.412	197.840	147.249	50.791	185.097	99.195	-33.633	17.521	195.126	235.640	242.857	0.00014621	0.00050374	4.6476e-05	1033.1	1.6583e-06	1.6781e-06	1121.8	209.87	1.557e-06	3.2423e-06	275.04	75.608	58.155	17.227	3.3779e-06	24.27	0.00052361	0.00089696	0.00026073	1022.2	9.4621e-06	1.03e-05	1113	209.95	8.8795e-06	1.0351e-05	274.91	76.422	60.215	17.639	9.6238e-06	24.846	178.329	4.098	-58.354	-100.713	104.762	136.604	-100.936	-93.875	-51.228	32.377	-93.759	-87.280	-87.952	-79.842	30.341	-79.827	-8191	255	
33204.809	1	1	0	0	0.24916	0.16241	0.19989	0.14344	0.3343	0.22758	0.22157	0.16537	0.0052791	0.1784	0.27755	0.25274	0.18648	0.42865	0.17462	0.344	-1.3188	-1.9375	-1.6479	-2.1333	-2.1208	-1.7396	-2.2417	-2.0458	-1.8375	-2.1042	-1.825	-1.6875	-2.0167	-1.7292	-1.9354	-2.0417	137.096	121.314	-15.282	212.806	53.290	-13.026	128.634	109.800	225.014	233.955	102.930	231.570	-39.406	-16.986	218.147	-16.205	0.00013327	0.00021292	9.3302e-05	1030.8	1.6584e-06	2.8654e-06	1118.6	210.5	2.3004e-06	1.0559e-06	271.14	75.423	58.203	17.147	2.1034e-06	24.381	0.00052058	0.00086699	0.00025159	1023.1	9.3508e-06	1.0501e-05	1112.3	210.32	9.2333e-06	1.0717e-05	273.5	76.631	60.161	17.563	9.3519e-06	24.881	173.382	-47.409	2.881	-100.639	-19.723	30.239	-101.176	-93.706	-23.372	48.260	-94.076	-87.224	-87.179	-79.342	80.486	-79.691	-8191	255	
33204.906	1	1	0	0	0.20029	0.25777	0.12472	0.19769	0.20754	0.13508	0.22164	0.16433	0.33102	0.24803	0.22396	0.10728	0.07788	0.20229	0.19065	0.15182	-1.075	-2.0875	-1.9354	-1.7667	-2.0812	-1.8813	-1.9667	-2.1604	-1.6562	-2.1479	-1.9104	-1.7583	-2.1104	-1.8042	-1.7375	-2.025	185.047	-62.585	150.055	201.847	237.228	55.458	202.043	147.307	201.875	-95.958	213.198	239.972	87.061	16.188	-4.678	185.306	0.00013876	0.00022717	0.00010648	1033	2.6391e-06	4.0823e-06	1118.7	210.7	2.6415e-06	2.0971e-06	273.58	75.322	58.6	17.315	3.0631e-06	24.399	0.00053348	0.00092509	0.00026863	1021.9	9.6335e-06	1.0934e-05	1109.9	210.61	9.3321e-06	1.0348e-05	274.16	76.681	60.125	17.615	9.6514e-06	24.885	173.816	-47.710	-60.398	-101.151	10.279	46.771	-100.909	-93.640	-27.674	33.360	-93.961	-87.505	-87.556	-79.619	13.193	-80.180	-8191	255	
33205.027	1	1	0	0	0.29034	0.01864	0.15971	0.19786	0.14568	0.07652	0.080036	0.09544	0.14338	0.11265	0.18016	0.29782	0.15892	0.22395	0.23784	0.15521	-1.05	-1.8958	-1.7708	-1.6875	-1.9375	-1.7083	-2.0479	-2.2417	-1.4688	-1.9042	-1.825	-1.7396	-2.0583	-1.8896	-1.7521	-2.1021	56.967	-45.299	-98.477	183.340	-30.521	108.147	-91.327	122.955	110.226	52.869	180.799	208.435	240.352	217.007	87.663	-90.619	0.00011729	0.00029092	9.676e-05	1033.1	7.1618e-07	1.2868e-06	1116.9	209.38	1.3094e-06	2.0047e-06	273.66	75.832	58.522	17.195	2.1246e-06	24.15	0.00054521	0.00094676	0.0002688	1021.5	9.7391e-06	1.0783e-05	1112.7	210.14	9.5639e-06	1.0695e-05	274.84	76.535	60.18	17.594	9.8162e-06	24.828	184.785	11.925	-8.851	-100.892	228.082	88.510	-101.097	-93.954	-17.855	66.251	-94.543	-87.543	-87.860	-79.911	5.084	-79.680	-8191	255	
33205.121	1	1	0	0	0.26317	0.1066	0.19649	0.059448	0.24365	0.10763	0.46308	0.084345	0.24644	0.28259	0.11758	0.22328	0.061823	0.082017	0.092332	0.095038	-1.3458	-1.8875	-1.8604	-1.6271	-2.2083	-1.7979	-1.7313	-2.1292	-1.6521	-1.8563	-2.0563	-1.6333	-2.0563	-1.8604	-1.6958	-2.2958	247.599	25.798	167.481	-33.854	11.309	70.678	181.605	109.954	75.485	143.730	112.783	-79.696	116.062	199.190	40.042	-69.157	0.00012575	0.0002983	8.8362e-05	1031.8	1.328e-06	2.658e-06	1118.8	209.36	5.4879e-07	2.9214e-06	270.1	75.45	58.137	17.199	2.2313e-06	24.041	0.00051147	0.00093828	0.00027769	1022.1	9.9998e-06	1.1087e-05	1114.4	210.35	9.6573e-06	1.0447e-05	274.36	76.485	60.041	17.638	1.0229e-05	24.762	186.493	-55.620	-8.049	-100.917	43.456	55.395	-100.968	-94.165	245.397	1.781	-93.593	-87.601	-87.135	-79.354	46.047	-80.244	-8191	255	
33205.219	1	1	0	0	0.16089	0.19102	0.21234	0.063159	0.12424	0.25762	0.22901	0.085339	0.25878	0.32879	0.20814	0.29679	0.32831	0.11212	0.10635	0.06714	-1.2667	-1.9229	-1.9917	-1.6875	-2.1208	-2.0312	-1.8125	-2.1188	-1.6729	-1.7042	-2.1437	-1.8396	-2.1021	-1.9625	-1.5854	-1.9583	248.004	126.929	172.468	-83.875	221.974	3.372	79.567	-83.789	118.157	157.221	93.141	-77.601	200.673	128.437	-37.660	164.378	0.00012121	0.00044086	0.000149	1027.9	7.5458e-07	2.7473e-06	1116.5	210.71	4.7568e-08	3.2671e-06	273.98	76.058	58.631	17.153	1.1717e-06	24.126	0.00055436	0.001005	0.00028421	1021.6	9.9227e-06	1.0729e-05	1112.6	210.88	9.6419e-06	1.1192e-05	275.3	76.723	60.309	17.556	1.0222e-05	24.789	191.990	-38.985	-21.704	-101.078	-18.794	42.145	-100.866	-93.735	39.577	68.763	-94.304	-87.464	-86.888	-79.266	75.449	-79.757	-8191	255	
33205.312	1	1	0	0	0.091219	0.3621	0.20149	0.10543	0.40835	0.077339	0.12422	0.16563	0.25127	0.074793	0.16272	0.16648	0.069672	0.14521	0.2291	0.18568	-1.3604	-1.6708	-1.95	-1.8729	-1.9458	-1.9	-1.8167	-2.2104	-1.8958	-1.7062	-2.1333	-1.8188	-1.9188	-1.9062	-1.6042	-2.0708	109.992	166.947	87.942	186.038	-93.456	133.267	144.657	171.171	-87.566	-45.507	239.642	221.411	-62.914	75.505	-68.621	-36.944	0.00010313	0.00035158	7.4859e-05	1042.6	3.4572e-06	4.3073e-06	1120.4	209.44	1.417e-06	3.445e-06	272	75.261	58.232	17.253	7.9759e-07	24.008	0.00052262	0.001013	0.00027621	1027.3	9.8747e-06	1.1373e-05	1116	210.39	9.4998e-06	1.1331e-05	274.01	76.605	60.416	17.588	9.8873e-06	24.786	177.534	-10.741	-20.541	-100.994	19.615	44.553	-101.031	-93.831	-55.837	59.441	-94.271	-87.288	-87.158	-79.477	7.913	-79.886	-8191	255	
33205.410	1	1	0	0	0.17802	0.10336	0.21702	0.14263	0.18545	0.084366	0.43938	0.35358	0.14416	0.097375	0.12957	0.18261	0.205	0.15153	0.18837	0.20893	-1.3854	-1.6354	-2.2229	-1.9354	-1.9396	-2.1021	-1.9333	-1.9375	-1.7896	-1.7521	-2.1375	-1.8521	-1.975	-2.0812	-1.7083	-2.0271	220.409	218.208	178.632	236.675	111.361	241.656	165.035	225.274	104.373	-109.779	44.407	80.669	239.680	226.289	238.962	234.192	0.00014498	0.00049917	0.0001544	1039.6	2.0576e-06	1.8229e-06	1119.6	209.86	1.9189e-07	1.1816e-06	273.8	75.589	58.681	17.219	4.4653e-06	24.192	0.00052758	0.0010068	0.00027161	1027.9	9.6335e-06	1.1012e-05	1114	210.29	9.5507e-06	1.0953e-05	275.48	76.429	60.284	17.562	9.9191e-06	24.77	175.079	4.854	-11.389	-100.720	-12.364	-52.229	-100.985	-93.603	-100.626	93.830	-93.690	-87.314	-87.413	-79.480	-18.314	-80.561	-8191	255	
33205.508	1	1	0	0	0.30439	0.088209	0.24349	0.027988	0.13763	0.1587	0.19922	0.18001	0.18408	0.17318	0.11859	0.14561	0.14764	0.078627	0.14758	0.23324	-1.4458	-1.7354	-2.0521	-1.7479	-1.5854	-2.2167	-1.8021	-2.0833	-1.9333	-1.8021	-2.0292	-1.775	-1.85	-2.0521	-1.8	-1.8667	204.083	223.816	48.382	-38.337	155.518	-97.003	197.609	153.125	231.423	217.123	122.786	-73.065	40.611	244.771	145.917	192.309	0.00014186	0.00010453	9.584e-05	1033.5	1.4906e-06	3.6285e-06	1117	210.33	2.9653e-06	8.8792e-07	273.06	75.625	58.857	17.237	2.7035e-06	23.991	0.0005466	0.00096641	0.00028459	1024.8	1.0069e-05	1.0881e-05	1114.3	210.37	9.6712e-06	1.0761e-05	273.65	76.629	60.341	17.596	1.0526e-05	24.672	172.484	-76.796	13.760	-101.086	-51.366	-47.298	-100.839	-93.986	-36.757	-11.820	-94.023	-87.329	-87.282	-79.075	-0.674	-79.884	-8191	255	
33205.602	1	1	0	0	0.19748	0.3574	0.032108	0.10624	0.22595	0.12277	0.33173	0.23545	0.095628	0.12133	0.14614	0.24384	0.1156	0.073637	0.23929	0.087	-1.45	-1.7667	-2.1083	-2.0854	-1.7	-2.0938	-2.0229	-1.8563	-2.0458	-1.75	-2.125	-1.9542	-1.7896	-2.0896	-1.8813	-1.9438	-46.507	111.189	-43.159	14.605	45.157	10.299	150.583	149.480	110.983	-103.189	-44.971	-80.360	-40.272	-98.606	127.632	113.869	0.00011708	0.0003494	8.433e-05	1032.2	2.6502e-06	2.2495e-06	1118.1	210.39	1.5965e-06	3.9444e-06	268.99	75.64	58.795	17.2	1.3367e-06	24.033	0.00053636	0.00099714	0.00026582	1022.8	9.3873e-06	1.1122e-05	1113.9	210.12	9.5847e-06	1.0502e-05	273.31	76.642	60.341	17.593	1.0451e-05	24.774	165.662	17.120	-12.688	-101.194	41.626	31.416	-100.916	-93.874	192.192	19.924	-93.876	-87.118	-87.215	-79.575	77.027	-79.869	-8191	255	
33205.699	1	1	0	0	0.36661	0.23455	0.3635	0.15246	0.13275	0.081072	0.042918	0.042149	0.13476	0.18702	0.18293	0.22885	0.20046	0.40106	0.27009	0.18203	-1.7375	-1.6479	-2.0479	-1.9021	-1.6104	-2.1958	-1.8354	-2.0646	-2.0771	-1.85	-2.1292	-1.9458	-1.5708	-2.1167	-1.7479	-1.9438	176.273	-31.835	50.489	233.542	143.715	-82.954	-85.109	-67.583	-80.151	59.539	29.048	152.924	171.038	-59.287	179.916	31.985	0.00013847	0.00028017	0.00013117	1035.1	1.2625e-06	1.2781e-06	1123.1	210.27	2.081e-06	4.6939e-06	272.11	76.105	58.607	17.237	1.411e-06	24.421	0.00053862	0.0010159	0.00028275	1026.1	1.007e-05	1.0952e-05	1116.6	210.46	9.3012e-06	1.1254e-05	274.29	76.669	60.364	17.584	9.3795e-06	24.896	172.980	-43.571	-29.483	-101.019	10.820	21.423	-100.978	-93.629	-26.735	49.263	-94.447	-86.866	-87.008	-79.531	-1.794	-80.396	-8191	255	
33205.816	1	1	0	0	0.0149	0.074475	0.12489	0.09752	0.019725	0.10119	0.22385	0.19963	0.23877	0.37391	0.14245	0.20384	0.12321	0.23064	0.25215	0.17613	-1.6625	-1.5604	-1.9229	-2.0208	-1.6396	-2.1458	-2.0438	-1.8979	-1.9917	-1.5979	-1.95	-1.9062	-1.6562	-2.0458	-1.9188	-1.7479	240.750	174.739	203.931	135.474	123.972	25.851	160.088	-97.109	245.195	245.959	185.219	202.220	176.144	-103.208	75.583	50.054	0.00013338	0.00015925	6.688e-05	1038.7	1.6474e-06	4.7168e-06	1116.9	209.82	1.6542e-06	2.0561e-06	274.17	75.637	58.957	17.248	2.5076e-06	24.164	0.0005447	0.00097413	0.00025966	1027.5	9.7147e-06	1.0826e-05	1114.4	210.63	9.5005e-06	1.1031e-05	274.36	76.669	60.563	17.597	9.8171e-06	24.773	180.393	160.341	-17.670	-100.860	36.925	53.017	-101.078	-93.836	40.003	12.354	-94.086	-87.133	-86.995	-79.169	24.787	-80.016	-8191	255	
33205.914	1	1	0	0	0.20804	0.13794	0.29627	0.20561	0.2743	0.17729	0.2899	0.12976	0.21139	0.1108	0.17441	0.25426	0.2376	0.13388	0.17719	0.038585	-1.5396	-1.6625	-1.7292	-2	-1.6375	-1.9979	-2.125	-1.6729	-2.0979	-1.7687	-1.8583	-2.0458	-1.5729	-2.1188	-1.9417	-1.7208	-101.244	-31.555	26.982	-42.431	-92.021	177.865	138.410	236.427	-22.785	98.987	211.955	238.258	98.337	191.598	228.800	245.764	0.00014603	0.00025516	0.00014538	1036.1	6.4493e-07	3.3352e-06	1118	209.84	7.782e-07	3.8033e-06	271.61	75.698	58.36	17.134	1.1287e-06	24.332	0.00053942	0.00095893	0.00027106	1025.7	1.0141e-05	1.085e-05	1116.2	210.8	8.9846e-06	1.1025e-05	274.36	76.624	60.368	17.564	1.0499e-05	24.779	173.190	-52.576	-15.930	-101.037	2.578	28.356	-100.821	-93.940	-75.068	57.106	-93.980	-87.269	-87.827	-79.389	8.512	-79.786	-8191	255	
33206.012	1	1	0	0	0.068556	0.25775	0.14225	0.29904	0.16044	0.1426	0.33572	0.17898	0.044106	0.21637	0.29898	0.04405	0.23368	0.22393	0.12179	0.23843	-1.7188	-1.8292	-1.9333	-2.3375	-1.5333	-1.9042	-2.0792	-1.7292	-2.2875	-1.6833	-1.7396	-2.2562	-1.5063	-2.1667	-1.8625	-1.6458	166.205	-62.554	1.282	235.009	225.447	129.993	174.725	119.442	135.089	-61.960	-77.069	98.543	146.063	177.803	186.601	-97.793	9.546e-05	0.00027714	2.6223e-05	1030.9	6.8283e-07	3.8694e-06	1114.8	210.44	9.7768e-07	1.3009e-06	273.57	74.893	58.99	17.357	1.5908e-06	24.156	0.00053836	0.00097841	0.00027071	1026.7	1.0263e-05	1.1159e-05	1112.6	210.4	9.5075e-06	1.1558e-05	275.21	76.507	60.37	17.639	1.0045e-05	24.755	189.278	-50.462	-60.578	-100.997	155.676	56.432	-101.015	-94.095	14.617	9.370	-93.802	-87.002	-87.304	-79.253	82.115	-80.123	-8191	255	
33206.105	1	1	0	0	0.098362	0.25504	0.1929	0.18877	0.24509	0.21714	0.12945	0.18202	0.31234	0.13638	0.15473	0.092427	0.12201	0.20272	0.055111	0.3024	-1.7333	-1.7229	-1.6292	-2.1562	-1.6333	-1.9104	-2.1375	-1.5479	-2.0333	-1.6938	-1.5979	-1.9833	-1.6333	-1.8	-2.0146	-1.5667	91.951	4.870	191.715	186.104	42.848	-60.203	181.232	70.078	3.983	-107.494	99.944	-91.683	198.346	153.147	33.103	-110.500	0.0001219	8.363e-05	8.3277e-05	1038	1.865e-06	2.4587e-06	1121.9	210.1	1.7059e-06	4.418e-06	272.72	75.47	59.487	17.258	1.2854e-06	24.104	0.00053825	0.00098715	0.00027975	1027.5	9.7472e-06	1.0954e-05	1113.4	210.53	9.302e-06	1.121e-05	274.7	76.594	60.709	17.578	9.6924e-06	24.749	167.509	-70.586	15.536	-100.678	-15.379	36.709	-101.077	-93.719	-59.931	50.446	-94.019	-87.448	-87.177	-79.607	22.858	-80.052	-8191	255	
33206.203	1	1	0	0	0.35254	0.21817	0.22588	0.14268	0.083663	0.050563	0.013892	0.1743	0.15444	0.091798	0.18267	0.08401	0.19476	0.31236	0.098212	0.15271	-1.6625	-1.8021	-1.7917	-2.2938	-1.475	-1.75	-2.1625	-1.6	-2.1979	-1.9583	-1.7313	-1.9813	-1.8854	-1.7437	-1.9521	-1.5229	70.636	-21.207	102.165	163.751	65.940	90.456	54.652	183.769	208.911	15.594	-10.945	34.043	36.210	-100.942	217.207	247.880	0.00012227	0.00028083	5.7419e-05	1032.3	2.8046e-06	2.5603e-06	1116.9	210.33	6.8641e-07	5.0805e-06	272.38	75.162	59.226	17.329	2.767e-06	24.19	0.00052441	0.0009722	0.00027255	1023.5	1.0178e-05	1.0985e-05	1112.9	210.52	9.38e-06	1.1092e-05	274.72	76.451	60.601	17.603	1.0012e-05	24.66	173.910	-71.464	-3.850	-101.196	-17.848	34.922	-100.978	-94.005	177.554	-2.745	-94.169	-87.548	-87.376	-79.552	15.689	-79.659	-8191	255	
33206.297	1	1	0	0	0.11383	0.23196	0.11597	0.1055	0.11716	0.23816	0.040066	0.20611	0.25707	0.12745	0.034338	0.36893	0.043036	0.080673	0.14768	0.30606	-1.7583	-1.8896	-1.5208	-2.1063	-1.4917	-1.6729	-2.1979	-1.55	-1.8479	-1.9937	-1.6	-2.2625	-1.8854	-1.7479	-2.2146	-1.5542	218.793	118.843	199.428	217.873	47.825	40.853	127.915	169.302	112.205	-81.020	92.817	239.865	243.296	18.884	173.118	195.602	0.00013229	0.00015245	9.8045e-05	1036.6	2.5625e-06	4.573e-06	1120.2	210.2	2.0526e-06	2.7211e-06	272.13	75.337	58.166	17.067	1.1495e-06	23.864	0.0005423	0.00096103	0.00028841	1023.4	1.0178e-05	1.1516e-05	1111.8	210.29	9.5314e-06	1.1147e-05	274.42	76.493	60.145	17.493	9.9124e-06	24.559	170.633	-67.630	24.850	-100.794	11.718	33.035	-100.835	-93.761	36.967	-44.522	-94.020	-87.485	-86.807	-79.216	-32.400	-80.187	-8191	255	
33206.418	1	1	0	0	0.063213	0.10577	0.11959	0.18439	0.12051	0.14143	0.14131	0.32848	0.23359	0.19535	0.051309	0.073795	0.22949	0.16247	0.19099	0.25254	-1.375	-1.9458	-1.5125	-2.1417	-1.6729	-1.6313	-2.2292	-1.7	-1.8062	-1.8188	-1.4521	-1.9771	-1.7833	-1.5771	-2.1354	-1.7104	86.158	77.670	169.368	-93.248	119.713	161.424	175.554	118.109	-56.004	2.071	-53.676	124.720	222.375	237.490	221.074	93.090	0.00011687	0.00034671	5.8285e-05	1026.4	2.6157e-06	3.2692e-06	1114.9	209.75	3.9819e-06	2.9066e-06	270.11	75.35	58.882	17.206	1.2966e-06	24.087	0.00054077	0.0009502	0.00027847	1019.4	1.0091e-05	1.0904e-05	1109.3	210.03	9.7508e-06	1.1284e-05	273.48	76.401	60.274	17.531	9.4891e-06	24.672	188.852	-3.079	-34.063	-100.769	52.278	18.148	-101.032	-93.797	-45.698	66.116	-93.745	-87.031	-87.478	-79.068	25.523	-79.649	-8191	255	
33206.516	1	1	0	0	0.10378	0.28026	0.16077	0.15481	0.11805	0.19174	0.36507	0.3351	0.21165	0.34793	0.29355	0.061838	0.14722	0.09971	0.1571	0.25396	-1.3833	-1.7125	-1.5146	-2.1167	-1.8771	-1.7292	-2.2729	-1.5792	-1.8271	-2.1437	-1.5938	-2.0292	-1.9625	-1.5917	-2.0604	-1.625	-24.027	209.589	73.597	172.275	64.135	-54.668	153.926	139.677	238.506	98.163	34.810	-81.669	100.602	242.457	95.086	232.485	0.00014942	0.00011512	7.2703e-05	1030.8	1.1073e-07	7.1344e-07	1110.5	209.59	1.4722e-06	4.5693e-06	269.91	75.25	58.008	17.149	2.8012e-06	24.065	0.00052339	0.0009188	0.00025612	1020.3	9.7261e-06	1.0852e-05	1107	210	9.0348e-06	1.0363e-05	272.59	76.356	59.807	17.451	9.1569e-06	24.651	167.807	14.904	-39.624	-101.202	135.885	44.609	-101.152	-93.671	-17.780	39.238	-93.907	-87.099	-86.637	-79.195	36.101	-79.716	-8191	255	
33206.609	1	1	0	0	0.18627	0.18251	0.18063	0.058691	0.11836	0.19233	0.15534	0.15101	0.12805	0.098456	0.24174	0.19285	0.080986	0.14704	0.16234	0.17703	-1.1604	-2.0354	-1.6979	-2.0167	-1.9333	-1.7583	-2.1271	-1.7542	-1.8479	-2.1646	-1.6562	-2.0312	-2.0062	-1.6854	-2.0312	-1.6458	127.960	-56.731	67.405	113.350	-57.112	88.168	91.539	174.064	-93.828	-94.412	162.340	-84.193	212.243	7.252	223.627	-108.499	0.00012752	0.00020195	0.00011541	1028.3	5.3173e-07	3.4769e-06	1112.7	209.4	2.0649e-06	5.6674e-06	269.49	74.91	58.484	17.159	1.8778e-06	24.056	0.00052029	0.00094667	0.00026698	1019.6	9.4125e-06	9.9215e-06	1106.5	209.31	9.4032e-06	1.0402e-05	272.66	76.133	60.063	17.507	9.0867e-06	24.646	168.314	-14.103	9.644	-101.131	165.794	41.629	-100.937	-93.596	-64.603	21.527	-94.387	-87.538	-87.345	-79.270	38.074	-80.004	-8191	255	
33206.707	1	1	0	0	0.13805	0.20414	0.10392	0.10135	0.11415	0.078835	0.25588	0.11376	0.19973	0.20221	0.23557	0.070365	0.085628	0.26017	0.062793	0.17197	-1.2708	-1.8896	-1.6313	-2.0833	-1.9479	-1.5396	-2.1958	-1.7292	-1.4625	-2.1729	-1.8042	-1.95	-2.0917	-1.7563	-2.0438	-1.8875	-37.189	199.017	-63.748	61.028	171.318	81.052	157.684	130.084	-19.850	-85.144	-110.352	-83.885	-4.126	189.766	19.188	107.033	0.00013011	0.00040492	3.9744e-05	1026.4	2.2605e-06	1.9916e-06	1108	208.82	1.0632e-06	2.3117e-06	270.5	74.761	57.893	17.158	3.0713e-06	24.089	0.0005099	0.00087899	0.00025277	1018.8	8.8528e-06	1.0112e-05	1107.3	209.38	8.7096e-06	9.5965e-06	273.41	76.13	59.871	17.499	8.6642e-06	24.644	152.105	-10.151	37.067	-100.809	-4.677	127.564	-100.940	-93.336	22.762	-15.565	-93.966	-87.169	-87.634	-79.226	28.005	-80.083	-8191	255	
33206.801	1	1	0	0	0.099019	0.13855	0.21381	0.1657	0.1517	0.14861	0.27699	0.092676	0.24476	0.31197	0.12612	0.19106	0.17863	0.19759	0.42804	0.19708	-1.1854	-1.8875	-1.6021	-1.925	-2.1125	-1.6771	-2.1312	-2.0042	-1.6604	-2.2958	-1.6396	-1.5896	-2.0104	-1.5333	-1.825	-2.0229	64.097	119.463	212.504	211.631	-62.592	-17.795	122.673	204.965	97.825	-83.988	52.987	82.627	48.870	236.178	-17.289	139.057	0.00015037	0.0005165	5.7356e-05	1026.5	8.9305e-07	1.4224e-06	1112.7	207.02	9.3694e-07	3.1563e-06	272.01	75.335	57.567	17.19	2.5677e-06	24.287	0.00049981	0.00085238	0.00023401	1018.4	9.0145e-06	9.6597e-06	1107.7	208.56	8.2817e-06	9.3193e-06	272.87	76.335	59.7	17.512	8.8842e-06	24.716	179.807	-37.070	-17.378	-100.917	-20.968	22.416	-100.881	-93.927	31.870	42.606	-93.708	-87.202	-87.303	-79.547	4.568	-79.487	-8191	255	
33206.898	1	1	0	0	0.22484	0.090472	0.21503	0.13589	0.01939	0.17249	0.16914	0.4032	0.3038	0.10283	0.16881	0.23945	0.18012	0.21105	0.10957	0.18009	-1.0771	-1.9688	-1.8312	-1.8458	-1.9333	-1.7479	-1.975	-2.0479	-1.6667	-2.0687	-2	-1.7062	-2.0333	-1.8375	-1.9646	-2.0271	129.283	-105.501	2.717	207.555	140.383	164.044	204.033	184.529	-13.433	-7.435	-23.335	195.962	-25.558	79.439	202.312	244.773	0.00010814	0.0003824	0.00010183	1029.9	1.0533e-06	2.7223e-06	1112	207.96	1.1147e-06	2.9684e-06	272.68	75.148	57.297	17.154	1.9123e-06	24.123	0.00048112	0.00083155	0.00024895	1018.4	8.4905e-06	9.3989e-06	1107.7	208.96	8.3659e-06	9.7207e-06	273.42	76.323	59.751	17.518	8.1128e-06	24.746	172.889	-37.146	27.898	-100.913	32.978	47.486	-100.789	-93.955	29.871	-3.797	-93.691	-87.042	-87.345	-79.324	2.450	-79.988	-8191	255	
33206.992	1	1	0	0	0.092441	0.24049	0.26517	0.15455	0.13151	0.029209	0.11076	0.41246	0.12313	0.081422	0.16479	0.19221	0.083168	0.23449	0.15995	0.12978	-0.95833	-1.9979	-1.8771	-1.7479	-2.1708	-1.7521	-2.0771	-2.1521	-1.6562	-2.0125	-1.9479	-1.65	-1.9229	-1.7042	-1.8083	-2.2667	22.978	197.537	96.538	229.427	6.955	247.406	151.841	157.811	-82.849	114.786	227.046	158.277	204.096	246.356	-91.567	4.426	0.00013065	0.00034875	0.00011299	1029.8	7.6415e-07	3.2031e-06	1114.9	208.69	1.5326e-06	4.5816e-06	272.46	74.999	58.321	17.265	1.9028e-06	23.959	0.00047769	0.00083105	0.00024598	1018.7	8.5206e-06	9.0952e-06	1106.8	209.34	8.2222e-06	9.4894e-06	273.42	76.208	60.232	17.552	8.4098e-06	24.684	165.033	-21.879	-28.279	-101.018	-44.531	30.684	-101.043	-93.903	-44.810	23.880	-93.792	-87.307	-87.515	-79.124	42.100	-79.651	-8191	255	
33207.113	1	1	0	0	0.022278	0.22567	0.10187	0.06795	0.13846	0.26206	0.20949	0.076516	0.13644	0.069237	0.32263	0.33516	0.21366	0.20122	0.17313	0.21473	-1.3792	-2.075	-1.9625	-1.6562	-2.2917	-1.8583	-2.0938	-2.2562	-1.6979	-2.0146	-2.1	-1.5688	-2.1667	-1.7771	-1.7812	-2.2812	229.446	134.358	-15.023	-2.505	-13.461	79.488	176.561	240.442	170.085	-38.717	-88.982	233.371	-67.476	-63.822	10.586	38.903	0.00010275	0.00048263	9.615e-05	1025.7	2.3685e-06	1.5143e-06	1107.7	209.47	2.0641e-06	2.9151e-06	271.57	75.542	58.187	17.149	3.1517e-07	24.128	0.0004879	0.00081744	0.00022606	1015.5	8.4101e-06	9.1752e-06	1104.8	209.58	8.6115e-06	9.0545e-06	273.57	76.229	59.956	17.52	8.568e-06	24.671	174.072	-1.801	14.161	-100.980	-59.022	-48.002	-101.079	-93.833	34.693	74.094	-93.119	-86.982	-87.496	-79.380	142.727	-79.619	-8191	255	
33207.211	1	1	0	0	0.047669	0.079819	0.25874	0.12217	0.29278	0.097227	0.20611	0.41076	0.19726	0.044002	0.12282	0.19969	0.17751	0.23219	0.11096	0.055771	-1.3646	-1.95	-2.175	-1.6979	-2.3042	-2.1375	-1.975	-2.2396	-1.7313	-2.0583	-2.0438	-1.7208	-1.9771	-1.9354	-1.7208	-2.2854	118.611	-85.006	187.498	202.666	-67.469	11.226	226.830	233.950	138.729	127.466	229.261	198.605	211.995	-89.890	-20.429	238.849	0.00012919	0.00044657	0.00011706	1025.9	5.5569e-07	4.5623e-06	1111.7	207.17	1.8711e-06	2.0487e-06	270.54	74.853	58.253	17.111	1.8154e-06	24.083	0.00047332	0.00082777	0.00022431	1017	8.1997e-06	9.2009e-06	1105.1	209	8.389e-06	9.1683e-06	272.57	76.272	60.001	17.509	8.2274e-06	24.626	160.551	-22.194	46.532	-100.954	204.470	87.715	-100.857	-93.715	-58.277	19.995	-93.886	-86.963	-87.772	-79.515	46.473	-79.434	-8191	255	
33207.281	1	1	0	0	0.056175	0.14523	0.20205	0.056867	0.20931	0.060723	0.32579	0.14491	0.081298	0.18813	0.21865	0.2164	0.071517	0.077693	0.15475	0.18806	-1.5396	-2.0312	-2.0229	-1.7604	-2.0042	-2.0583	-1.8062	-2.2646	-1.7833	-1.7875	-2.1917	-1.6771	-2.1583	-1.7958	-1.4021	-2.2542	241.112	104.039	120.169	185.508	-77.675	40.554	179.110	166.429	59.802	137.024	-7.868	216.877	188.443	118.110	116.051	83.983	0.00012633	0.00022068	7.8075e-05	1025.5	2.2856e-06	3.5963e-06	1104.6	208.79	2.5704e-06	6.2148e-06	269.06	74.928	58.612	17.125	2.5543e-06	24.141	0.00048567	0.00083164	0.00023562	1017.1	8.6513e-06	9.2485e-06	1103.5	209.46	8.4439e-06	9.4808e-06	272.36	76.272	60.113	17.501	8.1697e-06	24.712	165.091	-38.252	1.498	-100.927	38.977	29.621	-101.042	-93.470	-4.911	30.581	-94.281	-87.255	-87.314	-79.152	32.152	-79.564	-8191	255	
33207.379	1	1	0	0	0.3785	0.37914	0.29499	0.071686	0.26967	0.25634	0.16215	0.11922	0.1354	0.2254	0.21289	0.27894	0.092575	0.042316	0.059746	0.32823	-1.3146	-1.8125	-2.0021	-1.8937	-2.0104	-2.0875	-1.8563	-2.0667	-1.9396	-1.7083	-2.1604	-1.8062	-2.0083	-2.1021	-1.8417	-2.0563	170.690	-73.628	177.795	11.121	-54.255	89.652	116.861	26.186	164.372	15.942	244.116	188.454	-60.047	129.449	-110.794	165.628	9.4472e-05	0.00041625	7.8259e-05	1027.4	1.4085e-06	4.8517e-06	1102.4	208.1	2.0818e-06	1.0629e-06	272.13	74.821	58.225	17.197	2.4572e-06	24.273	0.00047026	0.00078646	0.00023009	1017.5	8.3175e-06	9.0514e-06	1104.5	209.12	7.8121e-06	9.3967e-06	272.93	76.275	59.988	17.553	8.6516e-06	24.728	168.433	-46.875	16.056	-100.932	-7.166	54.283	-100.821	-93.916	-42.251	17.066	-93.797	-87.297	-87.606	-78.705	41.427	-80.000	-8191	255	
33207.500	1	1	0	0	0.041842	0.21989	0.12292	0.094136	0.25932	0.15782	0.088053	0.11685	0.21615	0.045075	0.24871	0.019118	0.14188	0.10111	0.25216	0.2166	-1.5646	-1.8292	-1.9937	-1.8	-2.0229	-2.3	-1.9354	-2.3833	-1.8062	-1.7542	-2.2083	-1.8979	-1.7687	-2.2021	-1.725	-2.1229	-32.913	220.702	124.718	-37.847	83.632	182.070	108.094	-78.902	85.575	216.988	-94.229	160.430	-95.599	121.267	147.710	-96.875	0.00010409	0.00016394	8.4254e-05	1030.3	2.9121e-06	3.1194e-06	1110.5	209.94	2.9382e-06	1.2069e-06	269.72	75.217	57.947	17.361	3.7088e-06	24.094	0.00046385	0.00082509	0.00022283	1017.6	8.5807e-06	8.9705e-06	1107.3	209.55	8.3937e-06	9.3298e-06	272.99	76.351	59.801	17.651	8.4441e-06	24.717	178.407	-20.068	28.946	-101.176	23.975	95.315	-100.891	-93.704	-2.648	30.732	-93.916	-87.806	-87.381	-79.051	58.589	-79.829	-8191	255	
33207.594	1	1	0	0	0.11547	0.41606	0.074995	0.16088	0.059435	0.071694	0.27946	0.12185	0.20249	0.30565	0.17943	0.037994	0.22215	0.14495	0.033905	0.16851	-1.625	-1.5667	-2.1417	-2.075	-1.8167	-2.1813	-1.8771	-1.9958	-1.8833	-1.8042	-2.1188	-1.8354	-1.5667	-2.4333	-1.6583	-2.0521	67.114	219.355	97.662	233.516	195.377	-65.496	104.786	106.863	174.567	80.547	166.458	185.921	16.144	174.120	34.351	218.698	0.00012948	0.0003322	7.8237e-05	1029.8	1.8178e-06	3.5025e-06	1110.1	208.92	2.3917e-06	2.8159e-06	272.29	75.531	57.935	17.232	2.6869e-06	24.184	0.00045824	0.00081526	0.00021643	1018.4	8.6603e-06	9.1552e-06	1105.5	209.05	8.0306e-06	8.9484e-06	272.65	76.388	59.907	17.562	8.5211e-06	24.702	179.743	-65.820	22.567	-101.150	15.358	110.398	-100.781	-93.765	-72.990	58.626	-93.688	-87.327	-87.638	-79.130	24.118	-79.904	-8191	255	
33207.691	1	1	0	0	0.18414	0.21984	0.21353	0.14826	0.25251	0.13087	0.15705	0.15864	0.19358	0.33633	0.52013	0.12744	0.19257	0.1785	0.37839	0.2293	-1.525	-1.7375	-2.0083	-1.8979	-1.7167	-2.0542	-2.0417	-2.0646	-2.0208	-1.6271	-2.025	-1.975	-1.6604	-2.225	-1.6146	-2.1833	206.377	29.450	27.702	245.421	-59.185	156.177	196.291	209.020	-8.424	219.911	37.365	157.311	-12.398	-90.320	190.820	76.455	0.00012777	6.1874e-05	0.00010138	1029.4	1.925e-06	2.9405e-06	1112.9	208.94	2.707e-06	2.9534e-06	272.01	75.169	58.506	17.222	9.9202e-07	24.046	0.00046858	0.00082651	0.00023958	1018.8	8.3418e-06	9.2123e-06	1107.6	209.46	8.2152e-06	9.4904e-06	273.55	76.174	60.174	17.577	8.1488e-06	24.739	165.925	40.481	-11.680	-100.841	85.079	79.958	-101.060	-93.785	-45.936	112.449	-93.603	-87.284	-87.936	-79.379	39.151	-80.303	-8191	255	
33207.789	1	1	0	0	0.18641	0.34054	0.25178	0.31103	0.1253	0.040894	0.47743	0.15811	0.054021	0.081092	0.27254	0.19733	0.13912	0.12436	0.13838	0.16459	-1.6229	-1.6458	-2.1646	-2.0771	-1.6771	-2.2125	-1.9354	-1.9042	-2.1958	-1.6375	-1.9375	-2.0625	-1.8146	-2.0958	-1.8521	-1.8042	31.915	-13.043	-96.885	-99.838	113.909	104.493	143.991	-106.850	-18.091	-4.388	178.294	182.224	-77.650	157.816	203.004	-86.257	0.00014262	0.0002625	7.3138e-05	1031.8	1.6602e-06	3.2596e-06	1106.9	209.26	2.0728e-06	3.5802e-06	270.12	74.768	58.191	17.242	2.1072e-06	24.284	0.0004539	0.00080065	0.00021327	1017.8	8.315e-06	8.7116e-06	1103.9	209.54	8.0036e-06	9.0153e-06	272.01	76.177	60.009	17.535	8.2392e-06	24.707	176.486	28.573	4.628	-100.734	-4.097	55.604	-101.155	-93.576	-25.856	82.630	-93.515	-87.157	-87.204	-79.553	3.916	-80.355	-8191	255	
33207.906	1	1	0	0	0.1535	0.03773	0.2724	0.122	0.19561	0.059176	0.15644	0.1964	0.047032	0.19352	0.1601	0.26373	0.25095	0.067203	0.13169	0.13988	-1.7479	-1.6646	-1.8188	-1.9083	-1.7521	-2.2687	-1.9	-1.7875	-2.1229	-1.7354	-2.05	-2.0521	-1.6938	-2.0833	-2.0187	-1.8687	239.927	-95.082	157.204	-111.732	154.763	-7.319	-85.263	-106.081	92.049	-38.780	36.950	87.005	-109.111	10.922	-69.396	168.692	0.00013055	0.00021841	9.8897e-05	1027.6	6.0308e-07	3.7516e-06	1105.6	209.34	2.4489e-06	1.3724e-06	270.82	74.912	58.499	17.396	2.988e-06	24.076	0.0004445	0.00077135	0.00022106	1016.4	8.0819e-06	8.7239e-06	1102.2	209.44	7.6931e-06	8.071e-06	272.13	76.126	59.652	17.575	7.8292e-06	24.633	158.350	-25.492	-61.572	-100.968	-25.323	41.511	-100.863	-93.940	-5.806	-13.495	-94.047	-87.356	-87.936	-79.200	27.249	-80.423	-8191	255	
33207.977	1	1	0	0	0.19858	0.023223	0.23854	0.1352	0.11027	0.29014	0.15363	0.23515	0.14086	0.27071	0.19267	0.053339	0.10799	0.20816	0.13455	0.24132	-1.6333	-1.7542	-1.7729	-2.0917	-1.6125	-2.025	-2.075	-1.8667	-2.1813	-1.7396	-1.9521	-2.1458	-1.7479	-2.0729	-2.0021	-1.8896	48.139	142.199	179.666	94.602	109.532	52.004	100.865	-111.690	159.622	241.171	62.136	-55.192	206.205	-80.522	219.638	-32.817	0.00012896	0.00029586	3.5671e-05	1026.7	3.0683e-06	3.3582e-06	1108.2	207.74	1.8655e-06	3.689e-06	270.63	75.244	58.583	17.314	2.4255e-06	24.047	0.00045204	0.00076891	0.00020857	1015.2	8.1136e-06	8.0442e-06	1104.5	208.98	7.7171e-06	8.0605e-06	272.44	76.25	60.061	17.542	7.7263e-06	24.665	171.678	-40.889	41.069	-101.055	22.012	16.383	-101.239	-93.766	-40.514	14.655	-93.287	-87.630	-87.500	-79.457	15.545	-80.014	-8191	255	
33208.098	1	1	0	0	0.15161	0.018701	0.086081	0.23158	0.14616	0.14905	0.24991	0.11572	0.16518	0.04738	0.20189	0.11293	0.21476	0.22038	0.076303	0.15687	-1.7771	-1.6667	-1.85	-1.975	-1.6667	-2.1875	-2.0812	-1.6979	-2.0687	-1.8188	-1.8021	-2.0875	-1.5604	-1.95	-1.9688	-1.75	60.459	115.677	-14.991	229.963	232.434	-41.968	167.431	23.262	-67.804	210.618	155.703	-0.404	141.527	-65.309	125.526	-14.442	9.5633e-05	0.00012512	0.0001379	1021.3	1.1841e-06	3.7777e-06	1104.6	208.42	3.9235e-07	2.091e-06	270.75	74.922	58.721	17.229	1.2801e-06	24.043	0.00044377	0.00075867	0.00019991	1013.4	7.731e-06	8.1765e-06	1100.2	208.89	7.2861e-06	8.0824e-06	272.11	76.177	60.173	17.528	7.2595e-06	24.598	172.518	-88.598	-50.180	-100.922	11.202	6.428	-101.206	-93.772	-12.915	62.658	-93.924	-86.976	-87.084	-79.314	126.533	-80.005	-8191	255	
33208.195	1	1	0	0	0.12624	0.31528	0.091633	0.14314	0.2294	0.12495	0.27238	0.094234	0.13885	0.10804	0.13771	0.06248	0.26199	0.25871	0.23796	0.25381	-1.6625	-1.8937	-1.7583	-2.1104	-1.8312	-1.8	-2.0333	-1.6042	-2.1354	-1.9042	-1.9542	-2.2958	-1.7542	-2.1	-1.9625	-1.6104	63.424	222.766	15.884	155.678	-18.090	162.161	186.984	228.248	-50.019	-20.947	89.620	203.074	-10.870	-81.276	121.140	-31.875	0.00012712	0.0004113	0.00011463	1020.5	1.6453e-06	9.8386e-07	1103.9	208.68	1.2625e-06	5.9874e-06	273.61	75.388	57.986	17.176	2.7429e-06	24.016	0.00043397	0.00074254	0.0002127	1013.2	7.7245e-06	8.3327e-06	1100.2	208.92	7.354e-06	8.4045e-06	272.57	76.12	59.915	17.518	7.7322e-06	24.605	183.031	-23.513	8.889	-101.127	2.350	-27.732	-100.875	-93.398	-46.992	15.951	-94.150	-87.471	-87.384	-79.619	47.839	-80.076	-8191	255	
33208.289	1	1	0	0	0.3108	0.12651	0.098097	0.31635	0.2137	0.061154	0.41854	0.13984	0.19486	0.26347	0.057175	0.23488	0.21574	0.13518	0.14991	0.28534	-1.8521	-1.9125	-1.8	-2.2417	-1.8687	-1.8292	-2.2354	-1.8188	-1.9979	-2.0479	-1.7625	-2.125	-1.7292	-1.5854	-2.0667	-1.7354	229.157	205.443	185.376	-86.177	143.498	153.219	126.857	129.651	48.328	-108.735	76.131	141.059	232.808	69.401	-61.430	-104.023	0.00013081	0.00040897	4.9117e-05	1019.3	9.1213e-07	3.2326e-06	1106.9	208.38	2.9911e-06	1.6907e-06	270.93	75.161	58.259	17.233	3.8365e-06	24.198	0.00043229	0.0007768	0.0002149	1013.1	7.5758e-06	8.5573e-06	1099.8	209.08	7.5464e-06	8.6875e-06	271.01	76.172	59.883	17.557	8.0718e-06	24.753	173.910	-56.620	-1.189	-101.281	47.012	100.887	-100.854	-93.616	24.722	2.229	-94.138	-87.310	-87.414	-79.515	45.751	-80.219	-8191	255	
33208.387	1	1	0	0	0.28646	0.19652	0.41363	0.0988	0.084793	0.19315	0.085883	0.074102	0.048813	0.16283	0.4187	0.051662	0.29024	0.15167	0.12946	0.092363	-1.5187	-1.9167	-1.5708	-2.0542	-1.8729	-1.9813	-2.2792	-1.7604	-1.975	-2.1083	-1.6521	-2.1625	-1.7938	-1.8292	-2.0958	-1.7104	59.573	65.573	108.427	-95.066	-101.428	129.712	204.733	-98.100	-34.479	132.123	230.808	57.164	75.066	30.601	22.901	19.124	0.00011263	0.00017045	5.0184e-05	1020.3	2.1621e-06	4.315e-06	1110.4	208.24	1.4466e-06	3.6187e-06	271.65	74.536	57.807	17.135	1.855e-06	24.229	0.00044843	0.00082567	0.00021865	1014.4	8.3215e-06	8.9924e-06	1104.5	209.03	7.734e-06	9.0277e-06	272.34	76.018	59.978	17.591	8.1011e-06	24.787	170.382	-4.007	-49.212	-100.848	22.344	32.717	-100.774	-93.773	8.173	37.913	-93.470	-87.234	-87.181	-79.404	4.969	-80.314	-8191	255	
33208.508	1	1	0	0	0.17432	0.095739	0.17049	0.24053	0.051709	0.21334	0.15995	0.055586	0.082932	0.27502	0.22598	0.18145	0.34322	0.24171	0.17327	0.22904	-1.3854	-2	-1.4875	-2.1458	-1.8854	-1.8312	-2.3812	-1.7021	-1.9521	-2.0771	-1.6875	-2.05	-2.0021	-1.7708	-2.0333	-1.7021	169.549	128.611	95.186	208.546	228.855	24.616	205.127	113.469	182.412	28.520	219.101	206.830	188.316	244.804	118.563	146.748	0.00013315	0.00033213	4.6261e-05	1029.9	2.6739e-06	1.1666e-06	1109.1	208.89	2.4274e-06	3.0338e-06	272.81	74.844	58.416	17.238	2.1658e-06	24.125	0.00045372	0.00075993	0.00021365	1016.8	8.0738e-06	8.683e-06	1103.8	209.37	7.2019e-06	8.1436e-06	272.42	76.236	59.907	17.559	6.9566e-06	24.739	180.057	-31.908	-52.807	-100.789	54.401	52.391	-101.207	-93.681	-17.394	38.126	-94.014	-87.163	-87.744	-79.310	65.849	-79.935	-8191	255	
33208.578	1	1	0	0	0.23897	0.22363	0.23027	0.20377	0.44274	0.039524	0.13641	0.18642	0.093036	0.15935	0.22618	0.14716	0.066042	0.054364	0.15605	0.28803	-1.3729	-2.1146	-1.5917	-2.2292	-1.7667	-1.7479	-2.3	-1.7708	-1.9021	-1.9229	-1.7271	-2.0417	-1.8958	-1.8167	-2.2292	-1.9521	-6.482	93.522	-32.138	-104.822	211.151	131.651	133.170	207.461	116.578	-21.675	55.950	136.388	87.714	156.970	91.210	201.140	0.00014172	0.00013068	7.7029e-05	1028	1.4863e-06	3.7665e-06	1104.8	208.56	2.2218e-06	3.0305e-06	269.56	75.214	57.722	17.314	1.4055e-06	24.085	0.00042041	0.00065983	0.00019488	1015.6	7.3744e-06	7.8757e-06	1103.9	209.1	7.171e-06	7.9448e-06	271.26	76.184	59.57	17.61	6.6554e-06	24.668	168.419	0.019	26.482	-100.982	-2.858	23.842	-101.036	-93.630	-10.270	42.530	-93.653	-87.191	-87.000	-79.400	26.156	-79.883	-8191	255	
33208.676	1	1	0	0	0.23192	0.10851	0.2542	0.09894	0.25768	0.18596	0.1323	0.08192	0.2096	0.10476	0.10367	0.24503	0.070773	0.1853	0.19009	0.18612	-1.2646	-2.1625	-1.6437	-2.0062	-2.0271	-1.7083	-2.2917	-1.9354	-1.5667	-2.2646	-1.8396	-2.0042	-1.8792	-1.8021	-2.2396	-1.8083	211.871	-28.860	218.027	210.308	-44.061	23.988	130.179	190.856	79.836	66.175	-76.896	-16.431	119.525	-29.959	30.961	150.007	0.00013075	0.0004199	9.7477e-05	1023.1	2.266e-06	4.0374e-06	1105.8	208.69	1.0747e-06	3.9315e-06	272.7	75.144	58.263	17.306	1.2018e-06	24.006	0.00043182	0.00069703	0.00020166	1013.1	7.4418e-06	7.9109e-06	1102.6	209.09	7.2343e-06	8.0576e-06	271.96	76.12	59.899	17.557	7.5498e-06	24.623	179.205	-13.703	-0.853	-100.939	35.609	45.813	-100.854	-93.450	-59.473	33.687	-93.924	-87.053	-87.367	-79.558	-37.317	-80.047	-8191	255	
33208.797	1	1	0	0	0.19911	0.28629	0.043551	0.2937	0.31061	0.26589	0.15969	0.24704	0.11832	0.076215	0.25063	0.29728	0.15521	0.065329	0.22454	0.25612	-1.3292	-2.0333	-1.6187	-1.9125	-2.0396	-1.7188	-2.125	-1.8354	-1.6417	-2.1792	-1.6833	-1.9229	-2.1479	-1.7125	-1.8813	-2.1667	117.055	244.252	-68.172	182.025	-44.225	-108.712	-89.848	170.049	-93.066	-11.895	-95.349	-46.507	52.469	131.948	54.854	113.280	0.00013094	0.00022151	9.8111e-05	1022.9	1.2302e-06	2.4514e-06	1104.8	208.77	2.5794e-06	2.5248e-06	270.06	74.8	58.281	17.203	1.3709e-06	24.074	0.00042901	0.00067654	0.00019897	1011.4	7.2533e-06	8.1308e-06	1098.7	208.94	7.1347e-06	7.7508e-06	271.82	75.934	59.838	17.484	7.2285e-06	24.703	169.044	-69.530	-27.769	-100.655	17.676	89.178	-100.920	-93.654	9.137	87.921	-93.990	-87.226	-87.670	-79.245	21.692	-79.962	-8191	255	
33208.891	1	1	0	0	0.24396	0.035548	0.14342	0.26921	0.14178	0.2246	0.1432	0.12127	0.13706	0.15685	0.074606	0.27904	0.16308	0.024408	0.17014	0.15967	-1.1646	-2	-1.7104	-1.9854	-2.0938	-1.5063	-2.1667	-1.8375	-1.7854	-1.9833	-1.7583	-1.8146	-2.3375	-1.675	-1.9188	-1.9771	70.038	217.026	-47.703	159.971	-24.999	82.033	-99.130	239.438	-40.235	102.903	90.878	153.501	52.778	231.758	18.569	113.188	0.00013015	0.00017175	9.0903e-05	1018.4	4.2529e-07	3.0448e-06	1109.5	209.74	1.4967e-06	3.0538e-06	269.61	75.446	58.331	17.236	4.7216e-07	24.23	0.00043222	0.00067898	0.0002043	1010.2	7.3321e-06	8.3165e-06	1102.1	209.23	7.1115e-06	7.855e-06	271.25	76.073	59.879	17.532	7.5439e-06	24.68	175.307	-3.157	5.781	-100.924	17.767	60.318	-100.810	-93.462	-49.885	48.510	-93.764	-87.545	-88.424	-79.242	-97.679	-79.986	-8191	255	
33208.988	1	1	0	0	0.24107	0.031919	0.23617	0.1676	0.22644	0.15349	0.22863	0.070723	0.1938	0.1521	0.28464	0.15573	0.14248	0.19694	0.13094	0.15824	-1.1521	-2.0021	-1.7875	-1.8854	-2.15	-1.6938	-1.8729	-2.3083	-1.6688	-2.1583	-1.9562	-1.8667	-2.375	-1.6521	-1.9833	-2.1458	197.933	-65.885	232.897	161.386	245.957	118.183	172.820	188.861	43.918	126.472	-41.192	113.357	-23.394	222.243	247.030	115.984	0.00012652	0.00010553	5.5364e-05	1024.9	2.4583e-07	1.9411e-06	1107.9	208.16	1.0856e-06	2.1961e-06	270.83	74.872	57.905	17.243	2.3837e-06	24.153	0.00042963	0.00070039	0.00020088	1014.4	6.8748e-06	8.1489e-06	1102.9	208.71	7.5464e-06	8.4724e-06	271.79	75.877	59.731	17.5	7.4419e-06	24.681	167.727	-63.584	-7.612	-100.889	18.002	24.140	-101.126	-93.766	-5.256	17.828	-93.774	-87.122	-87.345	-79.850	27.927	-79.791	-8191	255	
33209.082	1	1	0	0	0.11703	0.22091	0.29071	0.14697	0.26875	0.17635	0.3284	0.17261	0.27936	0.11217	0.3182	0.1749	0.11759	0.19234	0.20001	0.39941	-1.1604	-2.0458	-1.8188	-1.825	-2.0938	-1.9125	-2.1021	-2.2417	-1.7229	-2.1188	-2.1	-1.675	-2.2021	-1.8542	-1.8542	-2.0938	90.291	68.860	190.803	176.112	1.618	80.519	190.443	184.862	-42.107	224.546	242.164	-15.929	-10.423	161.159	103.672	-92.688	0.00011552	0.00029895	8.6163e-05	1022	1.661e-06	1.9341e-06	1107.7	208.4	1.2335e-07	2.8858e-06	270.05	74.99	58.107	17.226	1.8671e-06	24.084	0.00042639	0.0007543	0.00019904	1013.4	7.2777e-06	7.8938e-06	1100.5	208.89	7.0968e-06	7.9219e-06	271.49	76.122	59.626	17.475	7.4134e-06	24.643	164.446	-38.354	-73.629	-100.930	18.202	6.334	-101.175	-93.756	-2.600	13.237	-94.125	-87.196	-87.781	-79.578	48.461	-79.817	-8191	255	
33209.203	1	1	0	0	0.24604	0.086565	0.11028	0.088184	0.013307	0.13345	0.15987	0.10213	0.18584	0.10137	0.13583	0.10396	0.0081012	0.18954	0.20656	0.29394	-1.1979	-2.0208	-2.0792	-1.6313	-2.1104	-1.9979	-2.1	-2.0438	-1.4312	-1.8563	-1.9875	-1.6063	-2.0625	-1.7292	-1.5625	-2.1312	34.476	101.797	101.786	40.133	36.641	212.983	96.903	215.137	-109.396	61.103	-103.525	91.762	208.542	40.875	39.290	-107.098	0.00012046	0.00018762	0.00011648	1026.4	1.9399e-06	1.0315e-06	1104	207.36	9.2567e-07	2.6351e-06	267.95	75.138	58.229	17.159	9.2326e-07	24.149	0.00043728	0.00071542	0.00020343	1011.4	7.2314e-06	8.3641e-06	1100.8	208.46	7.4521e-06	7.9524e-06	270.42	75.926	59.863	17.505	7.4695e-06	24.639	176.443	-21.832	-35.109	-101.075	43.846	48.359	-100.847	-93.747	-109.552	27.746	-93.816	-86.955	-87.406	-79.234	1.954	-80.089	-8191	255	
33209.273	1	1	0	0	0.10691	0.10488	0.20002	0.19092	0.2174	0.19302	0.35125	0.041474	0.17983	0.21768	0.28982	0.1395	0.13617	0.073132	0.15687	0.12785	-1.3979	-1.8583	-2.05	-1.725	-1.8854	-1.9479	-1.9396	-2.1562	-1.8542	-2.05	-2.2188	-1.8062	-2.0333	-1.8833	-1.6333	-2.25	99.616	-67.934	-83.080	229.211	-97.906	57.562	202.181	154.482	-4.676	247.048	172.350	174.091	-78.399	115.364	-101.773	209.454	0.00013425	0.00022619	0.00014725	1021.3	1.4128e-06	2.5775e-06	1105.6	208.44	1.0874e-06	3.9631e-06	270.2	74.586	57.975	17.123	1.6201e-06	24.06	0.00042395	0.00066999	0.0002018	1008.4	7.8829e-06	7.89e-06	1099.7	208.63	7.4907e-06	8.3013e-06	270.9	75.687	59.682	17.413	7.1607e-06	24.522	176.754	-57.113	1.294	-100.708	-13.976	10.299	-101.116	-93.419	-48.572	29.822	-93.452	-87.519	-87.808	-79.432	-93.248	-79.932	-8191	255	
33209.371	1	1	0	0	0.22306	0.069243	0.22382	0.25285	0.13665	0.14585	0.10041	0.090142	0.25476	0.35333	0.075293	0.20674	0.3502	0.34235	0.27178	0.49532	-1.3188	-1.7396	-1.9833	-1.6375	-1.7812	-2.0958	-1.9	-2.2292	-1.8208	-1.8833	-2.1583	-1.7625	-1.8583	-1.9292	-1.6625	-2.4	219.188	108.535	207.034	217.594	197.584	154.786	-44.986	-89.384	-21.466	204.843	-17.445	-64.849	241.549	137.727	-38.303	98.511	0.0001705	0.00025975	6.8025e-05	1022.3	1.2123e-06	1.6661e-06	1104	207.57	2.5732e-06	3.0381e-06	268.85	74.537	57.669	17.148	1.2548e-06	24.186	0.00043969	0.00071047	0.00020366	1011.4	7.6156e-06	7.8919e-06	1100.8	208.82	7.1238e-06	8.2459e-06	271.17	75.686	59.582	17.469	7.4577e-06	24.592	176.052	-1.087	-33.241	-100.972	-51.702	8.416	-100.850	-93.908	-25.150	29.600	-93.672	-87.434	-87.452	-79.060	7.890	-79.778	-8191	255	
33209.465	1	1	0	0	0.18255	0.17385	0.24254	0.41937	0.11671	0.19158	0.17432	0.12209	0.10152	0.17943	0.34867	0.26989	0.23626	0.14147	0.23688	0.006656	-1.7021	-1.7208	-2.1813	-1.5479	-1.8479	-1.95	-1.7667	-2.1021	-1.875	-1.7437	-1.9583	-1.6562	-1.925	-2.1458	-1.7062	-2.0708	103.540	-32.567	-17.547	247.130	27.570	19.258	158.546	201.434	-49.069	-55.858	234.199	215.629	200.778	-67.586	-26.018	211.848	0.00013065	0.00052225	0.00011644	1022.4	2.0612e-06	2.8103e-06	1105.3	207.78	1.0711e-06	2.1498e-06	268.16	74.653	57.954	17.21	1.984e-06	23.934	0.00044574	0.00077428	0.00019786	1013.1	7.5336e-06	8.2774e-06	1100.9	208.55	7.5626e-06	8.156e-06	270.72	75.802	59.629	17.405	7.7163e-06	24.595	172.632	-32.983	-23.029	-100.896	11.715	9.314	-100.981	-93.769	-69.939	-0.736	-93.864	-87.211	-87.458	-79.667	-33.208	-79.806	-8191	255	
33209.586	1	1	0	0	0.19852	0.46701	0.1583	0.10498	0.28203	0.15622	0.59583	0.34077	0.094098	0.12303	0.075819	0.16852	0.13325	0.10492	0.13365	0.28189	-1.3521	-1.575	-2.2125	-1.875	-1.9208	-2.1396	-1.7167	-2.1396	-1.9396	-1.7729	-2.2	-1.875	-1.7667	-1.8792	-1.6063	-2.05	172.365	-6.738	42.938	112.852	247.605	136.266	179.508	242.906	229.994	-3.982	31.656	19.885	152.834	81.714	90.761	46.111	0.00015138	0.00021567	5.1749e-05	1019.8	1.7914e-06	1.6984e-06	1104.4	207.16	2.5601e-06	3.7636e-06	269.78	74.707	57.977	17.05	3.7383e-06	24.161	0.00042934	0.00075035	0.00020659	1012.1	7.6156e-06	8.1832e-06	1100.6	208.26	7.3424e-06	8.5728e-06	271.55	75.725	59.554	17.374	7.9279e-06	24.584	168.633	10.713	9.035	-100.811	18.040	41.431	-100.891	-93.704	-17.186	84.547	-93.910	-87.313	-88.046	-79.268	-5.011	-79.572	-8191	255	
33209.684	1	1	0	0	0.05482	0.078977	0.15399	0.32262	0.04038	0.103	0.24279	0.38769	0.050351	0.25632	0.20804	0.26797	0.13686	0.083042	0.053308	0.25223	-1.4312	-1.7375	-1.9771	-1.7458	-1.7208	-1.9813	-1.7729	-2.0062	-2.0458	-1.6271	-2.0229	-1.9521	-1.8125	-2.1688	-1.7792	-1.8604	183.479	-80.780	-42.626	-92.540	-94.530	-20.109	180.830	-106.237	-89.684	215.869	76.199	-67.315	177.772	127.839	-47.993	-22.320	9.7686e-05	0.00045884	0.00011286	1025.8	1.1582e-06	3.7251e-06	1112	207.79	1.7693e-06	3.6929e-06	267.69	74.687	57.407	17.198	3.0391e-06	23.997	0.00043251	0.00076043	0.00020796	1013.9	7.6952e-06	8.505e-06	1102.3	208.08	7.7294e-06	8.7716e-06	271.55	75.734	59.292	17.454	7.6686e-06	24.492	188.062	-26.656	-52.544	-100.973	14.047	61.229	-101.121	-93.566	-70.239	62.299	-93.807	-87.203	-87.397	-79.010	26.005	-80.133	-8191	255	
#DATA ENDS
