BOXY.EXE: ISS Imagent and Oximeter Data Acquisition Program Version 0.80
Ascii Record File

#ACQ INFORMATION
2  Detector Channels 
16  External MUX Channels 
1  Auxiliary Channels 
5000  Waveform (CCF) Frequency (Hz)
1  Waveforms Skipped 
30  Waveforms Averaged 
1  Cycles Averaged 
16  Acquisitions per Waveform 
10.0806  Updata Rate (Hz) 

#FILE INFORMATION
TRUE -- External MUX Channel results are PARSED.
FALSE -- AC DC and Phase are NOT grouped.
TRUE -- Companion Program Settings File CREATED.
FALSE -- AC data not excluded
FALSE -- DC data not excluded
FALSE -- Phase data not excluded
FALSE -- Auxillary Chn. data not excluded
Tab delimiters

#CALIBRATION STATE
TRUE -- Waveform Calibration Values APPLIED.


#AUX CALIBRATION VALUES
Val Type	aux-1	

Term	1.0000e+00	
Factor	0.0000e+00	


#WF CALIBRATION VALUES
A = Detector Channel
Val Type	A-AC1	A-AC2	A-AC3	A-AC4	A-AC5	A-AC6	A-AC7	A-AC8	A-AC9	A-AC10	A-AC11	A-AC12	A-AC13	A-AC14	A-AC15	A-AC16	A-DC1	A-DC2	A-DC3	A-DC4	A-DC5	A-DC6	A-DC7	A-DC8	A-DC9	A-DC10	A-DC11	A-DC12	A-DC13	A-DC14	A-DC15	A-DC16	A-Ph1	A-Ph2	A-Ph3	A-Ph4	A-Ph5	A-Ph6	A-Ph7	A-Ph8	A-Ph9	A-Ph10	A-Ph11	A-Ph12	A-Ph13	A-Ph14	A-Ph15	A-Ph16	

Term	0.00000e+00	0.00000e+00	0.00000e+00	0.00000e+00	0.00000e+00	0.00000e+00	0.00000e+00	0.00000e+00	0.00000e+00	0.00000e+00	0.00000e+00	0.00000e+00	0.00000e+00	0.00000e+00	0.00000e+00	0.00000e+00	0.00000e+00	0.00000e+00	0.00000e+00	0.00000e+00	0.00000e+00	0.00000e+00	0.00000e+00	0.00000e+00	0.00000e+00	0.00000e+00	0.00000e+00	0.00000e+00	0.00000e+00	0.00000e+00	0.00000e+00	0.00000e+00	0.00000e+00	0.00000e+00	0.00000e+00	0.00000e+00	0.00000e+00	0.00000e+00	0.00000e+00	0.00000e+00	0.00000e+00	0.00000e+00	0.00000e+00	0.00000e+00	0.00000e+00	0.00000e+00	0.00000e+00	0.00000e+00	
Factor	1.00000e+00	1.00000e+00	1.00000e+00	1.00000e+00	1.00000e+00	1.00000e+00	1.00000e+00	1.00000e+00	1.00000e+00	1.00000e+00	1.00000e+00	1.00000e+00	1.00000e+00	1.00000e+00	1.00000e+00	1.00000e+00	1.00000e+00	1.00000e+00	1.00000e+00	1.00000e+00	1.00000e+00	1.00000e+00	1.00000e+00	1.00000e+00	1.00000e+00	1.00000e+00	1.00000e+00	1.00000e+00	1.00000e+00	1.00000e+00	1.00000e+00	1.00000e+00	X	X	X	X	X	X	X	X	X	X	X	X	X	X	X	X	

B = Detector Channel
Val Type	B-AC1	B-AC2	B-AC3	B-AC4	B-AC5	B-AC6	B-AC7	B-AC8	B-AC9	B-AC10	B-AC11	B-AC12	B-AC13	B-AC14	B-AC15	B-AC16	B-DC1	B-DC2	B-DC3	B-DC4	B-DC5	B-DC6	B-DC7	B-DC8	B-DC9	B-DC10	B-DC11	B-DC12	B-DC13	B-DC14	B-DC15	B-DC16	B-Ph1	B-Ph2	B-Ph3	B-Ph4	B-Ph5	B-Ph6	B-Ph7	B-Ph8	B-Ph9	B-Ph10	B-Ph11	B-Ph12	B-Ph13	B-Ph14	B-Ph15	B-Ph16	

Term	0.00000e+00	0.00000e+00	0.00000e+00	0.00000e+00	0.00000e+00	0.00000e+00	0.00000e+00	0.00000e+00	0.00000e+00	0.00000e+00	0.00000e+00	0.00000e+00	0.00000e+00	0.00000e+00	0.00000e+00	0.00000e+00	0.00000e+00	0.00000e+00	0.00000e+00	0.00000e+00	0.00000e+00	0.00000e+00	0.00000e+00	0.00000e+00	0.00000e+00	0.00000e+00	0.00000e+00	0.00000e+00	0.00000e+00	0.00000e+00	0.00000e+00	0.00000e+00	-1.39278e+02	-1.18623e+02	-1.35795e+02	-1.82111e+02	-6.77916e+01	-8.69060e+01	-1.58920e+02	-1.62015e+02	-8.07281e+01	-9.04246e+01	-1.70527e+02	-1.72392e+02	-1.77825e+02	-1.76618e+02	-8.58281e+01	-1.49177e+02	
Factor	2.08840e-05	1.12845e-04	4.51227e-05	1.72743e-01	1.01973e-06	1.29749e-06	1.94666e-01	5.53233e-02	1.05499e-06	1.31565e-06	9.43069e-02	3.35196e-02	2.78317e-02	9.88634e-03	1.30373e-06	1.45576e-02	1.37347e-06	1.43500e-06	4.00220e-07	8.51377e-02	1.56614e-08	1.57660e-08	8.99492e-02	2.72962e-02	1.56928e-08	1.57274e-08	4.45325e-02	1.58891e-02	1.37582e-02	4.84121e-03	1.57627e-08	6.86061e-03	X	X	X	X	X	X	X	X	X	X	X	X	X	X	X	X	



#DISTANCE SETTINGS
A = Detector Channel
A-1	A-2	A-3	A-4	A-5	A-6	A-7	A-8	A-9	A-10	A-11	A-12	A-13	A-14	A-15	A-16	

2.5000e+00	3.0000e+00	2.5000e+00	3.0000e+00	2.0000e+00	3.0000e+00	1.5000e+00	3.0000e+00	3.0000e+00	3.0000e+00	3.0000e+00	3.0000e+00	3.0000e+00	3.0000e+00	1.5000e+00	3.0000e+00	

B = Detector Channel
B-1	B-2	B-3	B-4	B-5	B-6	B-7	B-8	B-9	B-10	B-11	B-12	B-13	B-14	B-15	B-16	

1.0000e+01	1.0000e+01	1.0000e+01	1.4400e+00	1.0000e+01	1.0000e+01	1.5100e+00	1.9400e+00	1.0000e+01	1.0000e+01	1.9900e+00	2.4900e+00	2.4100e+00	2.9000e+00	1.0000e+01	2.9800e+00	




#DATA BEGINS
time	group	step	mark	flag	A-AC1	A-AC2	A-AC3	A-AC4	A-AC5	A-AC6	A-AC7	A-AC8	A-AC9	A-AC10	A-AC11	A-AC12	A-AC13	A-AC14	A-AC15	A-AC16	A-DC1	A-DC2	A-DC3	A-DC4	A-DC5	A-DC6	A-DC7	A-DC8	A-DC9	A-DC10	A-DC11	A-DC12	A-DC13	A-DC14	A-DC15	A-DC16	A-Ph1	A-Ph2	A-Ph3	A-Ph4	A-Ph5	A-Ph6	A-Ph7	A-Ph8	A-Ph9	A-Ph10	A-Ph11	A-Ph12	A-Ph13	A-Ph14	A-Ph15	A-Ph16	B-AC1	B-AC2	B-AC3	B-AC4	B-AC5	B-AC6	B-AC7	B-AC8	B-AC9	B-AC10	B-AC11	B-AC12	B-AC13	B-AC14	B-AC15	B-AC16	B-DC1	B-DC2	B-DC3	B-DC4	B-DC5	B-DC6	B-DC7	B-DC8	B-DC9	B-DC10	B-DC11	B-DC12	B-DC13	B-DC14	B-DC15	B-DC16	B-Ph1	B-Ph2	B-Ph3	B-Ph4	B-Ph5	B-Ph6	B-Ph7	B-Ph8	B-Ph9	B-Ph10	B-Ph11	B-Ph12	B-Ph13	B-Ph14	B-Ph15	B-Ph16	aux-1	digaux	

3285.688	1	1	0	256	0.067459	0.10689	0.18756	0.07046	0.03204	0.22637	0.27823	0.13676	0.20901	0.17882	0.18841	0.27322	0.27291	0.069489	0.18384	0.12132	-1.2979	-1.6021	-1.65	-1.8729	-1.4958	-1.8458	-1.8833	-1.4604	-1.8708	-1.6896	-1.7583	-1.7708	-1.5896	-1.9688	-1.6292	-1.4521	243.408	-99.788	-49.234	157.820	213.019	241.010	75.857	-72.447	239.966	-74.401	137.700	17.095	139.514	70.683	-98.035	227.832	0.00014404	0.00029789	7.9951e-05	383.67	1.6063e-06	1.2314e-06	553.83	115.1	5.9645e-07	3.4405e-06	204.41	67.701	28.651	10.005	2.2439e-06	31.226	0.00028954	0.00032159	8.4184e-05	388.22	3.2472e-06	3.52e-06	555.27	116.85	3.267e-06	3.5104e-06	205.58	68.809	30.632	10.759	3.28e-06	31.342	173.265	214.027	136.143	-95.054	-81.053	8.402	-94.913	-90.523	241.579	-11.739	-90.918	-86.316	-86.431	-80.142	32.059	-80.528	-8191	255	
3285.784	1	1	0	0	0.073767	0.16309	0.1484	0.089339	0.1691	0.24654	0.34713	0.25774	0.05999	0.11303	0.37623	0.33572	0.15709	0.15339	0.15992	0.3387	-1.6104	-1.3312	-1.5938	-1.8646	-1.4062	-2.0208	-1.8458	-1.4542	-1.9208	-1.6437	-1.6063	-2.0479	-1.5771	-1.8271	-1.9417	-1.5729	148.940	-23.295	89.454	-94.931	121.589	-98.857	223.725	-58.041	32.838	-48.339	-45.707	89.667	-73.427	-98.794	-80.958	-104.412	0.00016762	0.00047553	9.7081e-05	383.63	1.2578e-06	3.5558e-06	549.82	115.38	2.4195e-06	4.0339e-06	205.04	68.466	29.068	10.409	2.7763e-06	31.947	0.00030534	0.00032003	8.3392e-05	387.67	3.4776e-06	3.5198e-06	553.29	117.41	3.5019e-06	3.5397e-06	205.65	69.856	31.208	11.115	3.4062e-06	32.24	178.715	-32.136	-32.923	-94.718	23.552	-15.990	-94.881	-90.718	-101.114	-33.196	-90.866	-86.155	-86.245	-79.560	133.298	-80.230	-8191	255	
3285.856	1	1	0	0	0.22567	0.28262	0.17437	0.3132	0.063635	0.29489	0.14497	0.070046	0.087065	0.20288	0.32402	0.24322	0.12855	0.099066	0.13889	0.25273	-1.3729	-1.5875	-1.4271	-1.8896	-1.4333	-1.7667	-1.9292	-1.5417	-1.6938	-1.6187	-1.7042	-1.8333	-1.5208	-1.75	-1.6979	-1.3542	79.859	-102.684	224.233	140.849	-88.890	233.090	-67.780	198.504	160.203	139.399	174.847	-41.590	-62.547	62.569	77.913	180.980	0.00017016	8.7882e-05	7.0408e-05	376.8	1.9371e-06	2.4075e-06	548.79	113.51	2.7437e-06	4.7411e-06	204.59	69.47	29.08	10.71	2.3008e-06	32.976	0.00033018	0.0003258	8.6644e-05	384.2	3.7166e-06	3.5585e-06	550.65	116.52	3.7614e-06	3.5829e-06	205.95	71.004	31.533	11.406	3.4308e-06	33.24	186.726	63.157	-61.789	-94.896	191.965	172.467	-94.665	-89.981	45.012	-17.762	-90.464	-85.957	-85.692	-79.361	37.411	-80.322	-8191	255	
3285.976	1	1	0	0	0.035866	0.18504	0.19083	0.15415	0.025767	0.14971	0.23237	0.044733	0.10364	0.1016	0.12692	0.15889	0.14615	0.18571	0.21016	0.14092	-1.4188	-1.5542	-1.2667	-1.7542	-1.5729	-1.7479	-1.8813	-1.4479	-1.8875	-1.6729	-1.4813	-1.8563	-1.6083	-1.6125	-2.0042	-1.5167	60.845	121.850	51.773	145.689	154.999	31.642	166.749	34.740	236.791	164.351	212.185	223.901	-90.684	64.189	127.439	138.776	0.00016161	0.00032457	0.00011968	373.1	1.7068e-06	4.0995e-06	546.69	113.35	1.4698e-06	2.6691e-06	205.95	70.109	29.388	10.905	2.5596e-06	33.298	0.00034109	0.00032131	8.7246e-05	380.91	3.7695e-06	3.5406e-06	548.76	116.24	3.7721e-06	3.5405e-06	207.09	71.988	31.746	11.551	3.4969e-06	33.683	184.474	-40.016	-3.530	-94.834	-31.009	-37.020	-94.824	-89.998	19.067	21.161	-90.440	-85.472	-86.122	-79.771	-9.458	-80.246	-8191	255	
3286.072	1	1	0	0	0.22562	0.27561	0.26686	0.15194	0.10416	0.19042	0.052317	0.10636	0.3597	0.10984	0.10935	0.12161	0.1652	0.19146	0.19531	0.042452	-1.3062	-1.5938	-1.5583	-1.8333	-1.7437	-1.6708	-1.9979	-1.4792	-1.775	-2.075	-1.4083	-1.6729	-1.6313	-1.4813	-2.0187	-1.6417	197.603	217.345	83.898	223.107	-99.542	85.022	140.946	6.170	22.660	-40.047	-61.469	11.165	-57.392	-92.197	-83.857	222.160	0.00010288	0.00021448	3.8201e-05	378.67	4.2439e-06	2.6808e-06	550.95	114.61	4.6458e-06	2.9551e-06	205.81	69.899	29.493	10.707	2.5876e-06	32.938	0.00034567	0.00032815	9.0318e-05	387.23	3.8494e-06	3.6499e-06	554.17	118.45	3.7943e-06	3.5428e-06	207.77	71.753	31.875	11.481	3.5679e-06	33.456	209.982	-6.297	-52.205	-94.763	26.871	78.250	-94.635	-90.159	20.763	37.535	-90.329	-85.603	-85.780	-79.744	75.996	-80.448	-8191	255	
3286.169	1	1	0	0	0.30344	0.20527	0.10906	0.31301	0.11439	0.19727	0.065317	0.28041	0.084147	0.15645	0.050014	0.17898	0.1434	0.29785	0.20829	0.053932	-1.3937	-1.7896	-1.475	-1.975	-1.6313	-1.6187	-2.0896	-1.6979	-1.6333	-1.7896	-1.5312	-1.7042	-1.7396	-1.675	-1.8	-1.7104	43.953	-82.701	-87.137	133.965	77.319	88.787	152.410	47.062	-88.908	-62.603	188.511	-92.723	-45.358	52.876	-76.914	-66.483	0.00015559	0.00023977	5.3321e-05	382.06	3.2971e-06	3.8906e-06	546.05	113.68	2.4964e-06	3.0574e-06	204.59	69.689	29.167	10.787	2.3236e-06	32.538	0.0003357	0.00032163	9.1141e-05	389.39	3.6567e-06	3.4855e-06	552.49	117.34	3.6005e-06	3.4306e-06	206.18	71.228	31.351	11.345	3.5541e-06	33.074	183.922	17.441	-63.788	-94.825	-41.380	37.102	-94.458	-90.084	-27.873	-44.928	-90.633	-85.771	-85.826	-79.295	-90.199	-79.993	-8191	255	
3286.287	1	1	0	0	0.1884	0.12205	0.27355	0.099791	0.36424	0.29986	0.021508	0.074285	0.3242	0.2055	0.042434	0.22956	0.20269	0.10989	0.035897	0.14571	-1.2917	-1.8563	-1.4583	-1.7229	-1.9042	-1.525	-1.9729	-1.6646	-1.6083	-1.8875	-1.5438	-1.8708	-1.5708	-1.4667	-1.9729	-1.6646	10.856	-28.731	-53.439	-74.304	-22.343	246.963	127.599	200.664	-105.910	-1.178	-62.241	-34.810	25.676	-44.618	216.972	-96.575	0.00015283	0.00037756	0.00014305	377.46	3.0527e-06	8.2512e-07	544.19	113.2	1.4369e-06	3.9101e-06	205.26	69.084	28.899	10.416	1.252e-06	32.603	0.00031501	0.0003066	9.1773e-05	384.77	3.5032e-06	3.3315e-06	549.15	116.42	3.4489e-06	3.3146e-06	206.27	70.677	30.872	11.152	3.628e-06	32.881	182.412	-68.402	35.044	-94.645	-8.562	189.332	-94.696	-90.372	-89.605	25.244	-91.168	-85.970	-86.146	-79.443	131.410	-80.067	-8191	255	
3286.384	1	1	0	0	0.39042	0.16815	0.068585	0.23008	0.049119	0.1971	0.065386	0.083468	0.36786	0.073903	0.31881	0.1418	0.027415	0.16318	0.22407	0.099271	-1.35	-1.9125	-1.5104	-1.6146	-1.8104	-1.6604	-1.8729	-1.8625	-1.4542	-1.8354	-1.5396	-1.7687	-1.9	-1.5083	-1.6125	-1.7771	204.710	-5.406	122.104	-9.918	-31.612	243.391	220.307	-35.291	169.882	106.623	107.093	130.505	40.911	100.184	-25.069	189.289	0.00012675	0.0001418	0.00010308	374.66	7.2802e-07	4.7268e-06	546.7	113.58	4.4291e-07	4.4538e-06	205.18	69.099	29.149	10.403	1.5413e-06	32.06	0.0003032	0.00029829	9.2986e-05	381.77	3.3436e-06	3.3537e-06	551.35	116.15	3.3628e-06	3.3219e-06	206.84	70.505	30.957	11.086	3.6871e-06	32.504	209.836	-59.650	73.187	-94.859	107.560	-19.578	-95.052	-90.136	186.872	-21.556	-90.429	-85.465	-86.321	-79.785	51.762	-80.124	-8191	255	
3286.455	1	1	0	0	0.15526	0.11729	0.21347	0.063024	0.23154	0.23514	0.077449	0.20406	0.21615	0.026164	0.16582	0.31948	0.23467	0.24295	0.10501	0.27765	-0.87917	-1.7917	-1.6583	-1.6479	-1.9104	-1.4979	-1.9604	-1.9708	-1.4667	-1.7833	-1.5354	-1.6792	-1.9042	-1.5167	-1.6083	-1.8813	-70.516	-39.692	104.730	-99.386	-86.711	69.010	-77.887	175.647	26.402	-87.723	-7.676	-59.334	99.195	238.109	237.785	216.268	8.8393e-05	0.00020667	7.4399e-05	377.02	3.6466e-06	3.4789e-06	544.38	112.92	1.3671e-06	4.5062e-06	203.61	68.009	28.444	9.9761	1.204e-06	30.893	0.00029914	0.00031613	9.2754e-05	382.5	3.2993e-06	3.4794e-06	550.91	115.19	3.2788e-06	3.434e-06	204.62	68.968	30.169	10.701	3.5433e-06	31.273	155.557	18.393	-29.096	-94.882	40.166	-5.855	-94.575	-90.158	155.511	-16.637	-90.682	-85.744	-85.823	-79.796	64.295	-80.520	-8191	255	
3286.576	1	1	0	0	0.08329	0.13861	0.17104	0.041062	0.076285	0.12679	0.19121	0.19237	0.03803	0.24221	0.10314	0.24847	0.15711	0.21944	0.10907	0.28771	-1.0771	-1.9542	-1.4021	-1.4354	-1.8521	-1.5	-1.8104	-1.8188	-1.3896	-1.9354	-1.7083	-1.5146	-1.9604	-1.3771	-1.7062	-1.7521	239.427	-88.354	179.154	2.157	104.798	46.482	242.535	94.556	41.255	193.010	175.826	166.648	-93.578	8.961	11.949	134.596	0.00018534	0.00023424	0.00015536	378.74	1.9882e-06	1.6467e-06	544.34	113.19	1.1554e-06	1.4987e-06	203.18	67.069	28.196	9.9396	4.5676e-06	30.913	0.00029029	0.00031853	8.9065e-05	383.01	3.2356e-06	3.571e-06	549.78	115.65	3.2657e-06	3.5587e-06	203.86	68.419	30.113	10.657	3.4746e-06	30.992	196.250	145.836	-18.819	-95.083	221.042	182.951	-94.856	-90.282	-88.887	164.003	-90.618	-86.056	-86.270	-79.875	-3.783	-80.200	-8191	255	
3286.672	1	1	0	0	0.13121	0.23192	0.061305	0.14132	0.26485	0.27816	0.085427	0.16221	0.27096	0.10431	0.1237	0.079982	0.2253	0.21816	0.11084	0.21826	-1.0417	-1.7938	-1.6167	-1.6104	-1.7521	-1.4146	-1.6833	-1.7521	-1.5604	-1.8229	-1.6812	-1.8104	-2.0729	-1.4854	-1.7104	-2.025	168.906	-37.061	186.955	203.160	200.851	-17.474	113.527	-101.712	209.594	-39.286	-16.543	185.154	-104.489	144.430	10.725	134.015	0.00016558	0.00027739	0.00016554	379.83	1.0215e-06	3.6708e-06	547.44	113.58	1.1938e-06	3.6054e-06	202.55	66.77	28.067	9.9427	2.9165e-06	30.959	0.00029777	0.00032385	8.5734e-05	384.26	3.261e-06	3.5785e-06	551.02	115.39	3.3168e-06	3.5296e-06	203.53	68.485	30.16	10.613	3.3154e-06	31.137	174.397	-7.504	-40.598	-95.136	19.379	125.734	-94.770	-90.633	-20.430	15.522	-90.801	-86.259	-86.155	-80.045	72.385	-80.121	-8191	255	
3286.768	1	1	0	0	0.099125	0.18343	0.13415	0.16815	0.10495	0.2976	0.24729	0.06442	0.21167	0.20974	0.21583	0.18244	0.10401	0.11893	0.14864	0.12249	-1.0979	-1.8458	-1.7125	-1.4396	-1.9167	-1.7563	-1.4875	-1.7188	-1.2708	-1.7938	-1.8375	-1.4833	-1.675	-1.3354	-1.45	-1.8792	-57.068	129.641	208.519	177.786	37.195	-26.057	234.676	181.183	245.070	120.927	190.078	127.837	-12.797	-94.244	84.050	-24.573	0.00015839	0.00012486	0.0001495	378.51	2.5418e-06	3.4855e-06	551.26	113.27	7.0746e-07	2.1756e-06	203.12	67.466	28.038	9.8376	2.0368e-06	30.808	0.0003053	0.00032226	8.5407e-05	384.04	3.4042e-06	3.5182e-06	552.67	115.52	3.4935e-06	3.4781e-06	203.82	68.659	30.336	10.595	3.2732e-06	30.932	191.405	28.798	-66.939	-94.830	118.555	36.768	-94.806	-90.331	-38.803	-22.473	-90.897	-86.220	-86.098	-79.713	68.102	-80.200	-8191	255	
3286.889	1	1	0	0	0.11738	0.24832	0.10913	0.27458	0.092319	0.11477	0.113	0.30182	0.2556	0.062218	0.098799	0.13364	0.12732	0.17236	0.10315	0.089538	-1.0417	-1.5625	-1.5896	-1.5063	-1.8521	-1.5104	-1.5021	-1.9438	-1.7	-1.8125	-1.8896	-1.4688	-1.9188	-1.6208	-1.4396	-1.8042	83.350	250.983	208.153	40.685	-74.735	-90.812	-95.697	26.833	-11.119	179.644	242.933	161.619	221.656	171.165	-88.006	-8.894	0.00019272	0.00026656	0.00015677	380.69	2.0088e-06	4.6195e-07	548.59	113.06	1.105e-06	1.5403e-06	203.84	67.228	28.17	9.9284	4.2966e-06	30.629	0.00031614	0.00031407	8.2109e-05	385.75	3.5381e-06	3.4357e-06	551.89	115.92	3.5697e-06	3.4085e-06	203.67	68.482	30.534	10.579	3.2249e-06	30.883	194.316	-46.847	-73.422	-95.204	29.717	-30.266	-94.770	-90.059	-5.443	1.657	-91.001	-85.760	-85.982	-80.237	-5.505	-80.359	-8191	255	
3286.985	1	1	0	0	0.15924	0.1135	0.18505	0.15891	0.26431	0.18905	0.084634	0.16983	0.11297	0.17412	0.15525	0.12638	0.14589	0.27757	0.12165	0.10544	-1.0917	-1.4583	-1.7604	-1.4292	-1.6437	-1.7729	-1.4083	-1.7854	-1.5417	-1.7729	-1.9292	-1.5479	-1.7	-1.7583	-1.5021	-1.8021	162.444	-15.344	27.976	113.084	103.854	61.324	239.440	141.383	155.020	-30.227	73.747	224.902	20.986	41.121	201.946	146.311	0.0001777	0.00011854	9.9191e-05	383.09	3.1525e-06	2.0051e-06	550.67	114.44	1.1595e-06	2.3386e-06	203.32	66.75	28.405	9.9159	2.7892e-06	30.636	0.00032075	0.00030849	8.1103e-05	387.74	3.6037e-06	3.3468e-06	552.38	117.08	3.5547e-06	3.2936e-06	203.95	68.605	30.532	10.525	3.1791e-06	30.861	208.384	-13.306	-72.973	-95.111	-5.619	133.118	-94.716	-90.261	75.362	63.413	-90.968	-86.385	-86.164	-79.680	-75.098	-80.085	-8191	255	
3287.079	1	1	0	0	0.25409	0.29414	0.024705	0.17694	0.073654	0.1423	0.18564	0.19445	0.094963	0.23838	0.10504	0.091718	0.13906	0.093524	0.25935	0.11712	-1.1	-1.5562	-1.8729	-1.7833	-1.7354	-1.7167	-1.5354	-1.8542	-1.6604	-1.5187	-1.8896	-1.5708	-1.7417	-1.8542	-1.3937	-1.9062	214.242	-99.746	-97.017	-18.370	40.983	224.482	0.707	6.393	-66.218	228.937	90.527	-19.893	93.228	135.112	12.947	105.428	0.00013744	0.0004252	0.00014909	385.54	1.2786e-06	2.4653e-06	552.39	114.81	1.5886e-06	2.3505e-06	203.58	67.574	28.712	9.9856	2.3376e-06	30.938	0.00031003	0.00029508	8.0673e-05	390.41	3.4128e-06	3.2165e-06	552.58	117.63	3.4193e-06	3.1987e-06	204.89	69.323	30.72	10.573	3.1189e-06	31.232	186.147	-13.864	-30.302	-94.903	94.168	82.426	-94.901	-90.325	41.297	171.806	-91.177	-85.710	-86.156	-79.743	26.595	-80.129	-8191	255	
3287.153	1	1	0	0	0.16228	0.12882	0.11711	0.17773	0.12385	0.089659	0.051267	0.011352	0.24795	0.16358	0.23312	0.24669	0.044837	0.13956	0.11985	0.20387	-1.1646	-1.5208	-1.9188	-1.7062	-1.7542	-1.8687	-1.5729	-2.0208	-1.7958	-1.5354	-2.0271	-1.7646	-1.6375	-1.8583	-1.7021	-2.0125	-34.776	-65.935	-22.125	-69.998	92.492	-94.718	11.755	222.702	21.194	9.436	35.664	-23.916	140.092	220.408	231.747	163.037	0.00013471	0.00024422	4.2607e-05	387.8	7.1885e-07	5.5888e-06	555.55	116.28	3.3422e-06	4.1431e-06	205.68	68.057	29.396	9.9911	3.0341e-06	30.769	0.00029826	0.00028384	7.9505e-05	392.64	3.2408e-06	3.0772e-06	557.27	119.1	3.1703e-06	3.0359e-06	207.02	69.62	31.098	10.595	3.2298e-06	30.952	186.038	-21.356	171.483	-94.711	105.649	2.310	-94.729	-90.615	251.191	-23.676	-90.382	-86.575	-86.453	-80.153	23.662	-80.223	-8191	255	
3287.249	1	1	0	0	0.13985	0.17899	0.083122	0.11777	0.24052	0.15922	0.094947	0.27818	0.1474	0.14633	0.068342	0.26741	0.12109	0.22575	0.35394	0.11975	-1.2708	-1.5688	-1.8792	-1.7062	-1.8646	-2.0146	-1.675	-2.1	-1.6729	-1.6187	-2.0021	-1.6583	-1.6604	-1.9833	-1.6375	-1.9021	144.549	29.940	201.304	237.688	-33.573	93.500	-48.194	-1.810	199.908	29.512	12.729	205.765	5.608	237.953	83.341	179.281	0.00014834	0.00020217	8.4573e-05	394.06	3.0861e-06	1.0865e-06	558.84	119.26	1.2909e-06	2.846e-06	208.03	68.333	29.432	10.11	7.0911e-07	30.431	0.00028273	0.00027583	8.281e-05	398.32	3.1617e-06	3.0423e-06	562.64	121.33	3.1488e-06	3.0807e-06	208.04	69.644	31.388	10.669	3.4429e-06	30.748	153.570	1.304	-99.348	-94.701	48.523	145.984	-94.588	-90.023	158.762	134.260	-90.540	-85.793	-86.168	-79.920	-18.742	-80.028	-8191	255	
3287.368	1	1	0	0	0.043084	0.24075	0.064601	0.064819	0.24736	0.066023	0.29493	0.13659	0.17687	0.32073	0.12465	0.13508	0.14068	0.065796	0.11729	0.14489	-1.5646	-1.4979	-1.9083	-1.6125	-1.6333	-1.9875	-1.8146	-1.7437	-1.9042	-1.45	-1.8708	-1.7708	-1.6417	-1.7854	-1.5792	-1.8625	130.164	74.243	44.764	219.654	-73.927	195.416	155.807	-58.926	142.794	167.022	-37.142	210.256	-1.493	91.136	18.453	-69.399	0.00014582	8.4622e-05	0.0001111	393.66	1.3425e-06	2.2323e-06	560.23	119.19	1.6232e-06	2.2093e-06	206.93	68.305	29.52	10.088	1.3606e-06	30.837	0.00028894	0.0002862	8.7588e-05	400.18	3.1528e-06	3.1787e-06	563.46	120.73	3.1116e-06	3.1965e-06	208.08	69.774	31.297	10.723	3.4501e-06	31.052	186.021	42.694	-21.696	-94.481	-35.136	-67.308	-94.860	-90.522	0.773	-73.210	-90.943	-86.142	-86.198	-79.947	78.160	-80.350	-8191	255	
3287.464	1	1	0	0	0.33848	0.24202	0.067899	0.20536	0.13837	0.40076	0.15169	0.19922	0.077975	0.16528	0.1731	0.10368	0.044865	0.19165	0.2897	0.22195	-1.6917	-1.5042	-1.8708	-1.8271	-1.5938	-2.0729	-1.8458	-1.8438	-1.9625	-1.575	-1.825	-1.8104	-1.7021	-1.9042	-1.3813	-1.6146	-52.119	16.547	-69.926	246.815	-11.765	22.917	-100.623	236.659	123.078	203.862	86.752	191.821	-73.993	122.946	156.686	-98.440	0.00017394	5.6623e-05	8.1988e-05	393.62	2.9558e-06	1.6294e-06	559.3	118.76	8.3051e-07	4.9005e-06	207.72	69.248	29.848	10.189	1.645e-06	31.288	0.00027831	0.00029306	8.6549e-05	397.08	3.0819e-06	3.2618e-06	562.91	120.24	3.0461e-06	3.2469e-06	208.77	70.281	31.396	10.845	3.3304e-06	31.382	184.642	-77.965	-1.256	-94.803	-2.748	108.017	-95.269	-90.505	-73.665	14.866	-90.675	-85.836	-86.426	-79.697	72.731	-80.141	-8191	255	
3287.560	1	1	0	0	0.1376	0.16237	0.15201	0.086114	0.22379	0.29791	0.11549	0.29622	0.2261	0.27682	0.070889	0.18481	0.16212	0.17988	0.032656	0.17854	-1.5354	-1.7125	-1.6833	-1.7604	-1.5625	-1.9271	-1.8229	-1.5312	-1.8062	-1.7313	-1.8125	-1.8083	-1.5875	-2.0167	-1.7479	-1.5542	83.849	-97.891	-106.307	-84.582	-80.210	122.092	229.783	191.136	147.069	-46.425	-104.453	246.607	112.784	231.715	118.481	171.232	0.00012267	0.00038746	8.0183e-05	391.12	1.5191e-06	4.1222e-06	559.69	119.35	3.2923e-06	3.2479e-06	206.88	68.633	29.832	10.144	1.013e-06	31.264	0.00027259	0.00030394	8.4749e-05	395.67	3.1081e-06	3.3719e-06	562.55	120.53	3.0451e-06	3.397e-06	207.99	69.876	31.449	10.878	3.2511e-06	31.193	211.671	90.087	-29.730	-95.028	186.566	52.384	-94.962	-90.444	-21.900	29.128	-91.073	-86.468	-86.744	-79.722	171.201	-80.653	-8191	255	
3287.681	1	1	0	0	0.14803	0.39472	0.19397	0.15956	0.20438	0.10304	0.14873	0.30361	0.1255	0.1393	0.023222	0.23416	0.12592	0.1028	0.14364	0.083814	-1.5479	-1.6667	-1.8062	-1.9188	-1.675	-1.8021	-1.8146	-1.6708	-2.1417	-1.45	-1.9833	-2.0229	-1.5562	-1.8042	-1.925	-1.5854	-26.718	-75.684	107.152	79.113	88.896	174.218	61.784	239.707	8.641	238.198	187.359	80.703	162.275	148.734	-29.675	143.328	0.00021219	0.00054215	0.00020031	392.89	1.4338e-06	3.6367e-06	558.44	118.6	1.4014e-06	2.5785e-06	206.57	68.576	29.859	10.362	1.2058e-06	31.178	0.00028141	0.00031284	8.2838e-05	395.86	3.1389e-06	3.4063e-06	561.07	120.17	3.1867e-06	3.4157e-06	207.8	70.032	31.749	10.97	3.2389e-06	31.434	167.928	-10.163	-31.745	-94.811	-74.545	117.427	-95.060	-90.376	-7.685	-50.131	-90.810	-86.108	-86.042	-79.794	-7.989	-80.575	-8191	255	
3287.752	1	1	0	0	0.18907	0.1949	0.0703	0.20351	0.27344	0.10792	0.23325	0.33478	0.14261	0.28503	0.33812	0.027364	0.26402	0.13146	0.36713	0.15285	-1.4708	-1.6771	-1.7208	-2.0417	-1.4583	-1.8604	-2.0917	-1.6417	-1.8875	-1.7958	-1.6938	-2.0792	-1.8104	-1.9354	-1.7792	-1.6	-33.051	-31.053	-63.928	-95.010	-98.118	32.748	192.952	235.908	-54.392	66.117	159.006	-77.388	-61.437	-53.028	170.437	36.313	0.00019707	0.00057195	8.0486e-06	387.36	5.1923e-07	2.2719e-06	556.2	117.56	6.2465e-07	3.4096e-06	207.78	69.047	29.745	10.415	1.7075e-06	31.93	0.00029561	0.00031265	8.1159e-05	393.29	3.3528e-06	3.384e-06	558.95	119.63	3.3578e-06	3.384e-06	207.34	70.12	31.641	11.04	3.1664e-06	31.923	186.959	-19.298	11.363	-94.753	-62.759	139.352	-94.831	-90.326	104.124	-32.113	-91.287	-86.593	-87.088	-80.132	-12.308	-80.806	-8191	255	
3287.849	1	1	0	0	0.078699	0.14057	0.23205	0.23738	0.12025	0.18053	0.059038	0.24563	0.29253	0.20887	0.060516	0.31536	0.21907	0.15979	0.12008	0.16865	-1.5354	-1.6521	-1.4604	-1.8833	-1.7167	-1.6792	-1.8604	-1.6187	-1.8708	-1.7521	-1.6229	-2.0062	-1.4958	-1.6938	-2	-1.4438	-15.973	101.036	198.141	223.006	-52.231	6.242	-67.189	224.912	238.216	181.332	61.429	-49.643	150.536	142.853	28.720	132.016	0.00016323	0.00018045	7.0655e-05	386.5	3.5335e-06	2.1442e-06	558.03	117.33	2.763e-06	2.7423e-06	207.56	69.903	29.573	10.482	1.9653e-06	31.984	0.00030739	0.00030588	8.0092e-05	392.56	3.4546e-06	3.3496e-06	558.07	119.5	3.4647e-06	3.2866e-06	207.71	70.858	31.911	11.124	3.1604e-06	32.277	177.432	25.046	-2.764	-95.318	-88.399	57.168	-95.182	-90.844	60.055	-34.894	-91.200	-86.372	-87.052	-80.372	-77.953	-81.071	-8191	255	
3287.969	1	1	0	0	0.05454	0.24663	0.20152	0.10114	0.11923	0.15173	0.40896	0.30293	0.073388	0.14779	0.11938	0.073343	0.25187	0.14733	0.20028	0.15559	-1.4083	-1.6938	-1.3917	-1.9542	-1.6271	-1.7417	-2.0875	-1.6625	-1.8333	-1.9333	-1.5521	-1.9771	-1.7271	-1.5521	-1.875	-1.7104	-81.747	100.536	30.237	192.949	155.801	29.757	178.430	79.810	30.801	198.968	-58.970	174.942	20.255	-105.296	-64.802	246.014	0.00015359	0.0002192	0.00015074	387.58	2.0086e-06	1.1808e-06	557.3	116.2	2.9311e-06	3.1047e-06	206.25	69.646	29.59	10.548	2.8648e-06	31.595	0.00031711	0.00029653	8.0569e-05	392.91	3.4457e-06	3.2744e-06	556.25	119.05	3.4852e-06	3.2368e-06	206.38	70.887	31.938	11.164	3.164e-06	32.097	194.090	-53.640	243.198	-95.022	154.528	4.076	-95.116	-90.942	61.508	-12.314	-91.249	-86.225	-86.511	-79.825	19.281	-80.820	-8191	255	
3288.065	1	1	0	0	0.2945	0.12872	0.075831	0.17887	0.2293	0.31021	0.028275	0.17157	0.20088	0.084779	0.17352	0.16996	0.086687	0.1252	0.27322	0.27275	-1.2708	-1.8563	-1.4958	-1.85	-1.7396	-1.575	-2.0333	-1.5229	-1.9479	-1.7812	-1.4396	-2.0687	-1.5604	-1.3792	-2.0083	-1.7333	169.650	-100.382	-105.855	-7.834	168.664	213.965	12.278	96.883	99.378	116.063	212.277	230.959	40.968	74.141	59.146	76.197	9.5053e-05	0.000409	0.00013506	391.82	2.8485e-06	4.5784e-06	559.51	117.51	1.1318e-06	2.1296e-06	207.17	69.639	29.752	10.567	2.7976e-06	32.041	0.00031211	0.00029851	8.2013e-05	397.56	3.5181e-06	3.3041e-06	559.73	120.26	3.4906e-06	3.2874e-06	206.95	71.168	31.904	11.207	3.2763e-06	32.365	157.145	-70.169	-69.294	-94.950	91.964	-31.893	-95.033	-90.207	21.497	135.838	-91.201	-86.529	-86.426	-80.164	21.788	-81.042	-8191	255	
3288.161	1	1	0	0	0.1339	0.24491	0.15279	0.13238	0.18047	0.10791	0.28967	0.28172	0.06873	0.095435	0.31982	0.295	0.14393	0.30624	0.1005	0.31629	-1.4833	-1.625	-1.4396	-1.8646	-1.7563	-1.5292	-1.9229	-1.7167	-1.7917	-1.9042	-1.5979	-1.9708	-1.7708	-1.5458	-1.6792	-1.5438	128.653	-6.300	196.549	14.004	21.551	199.076	141.596	237.043	-91.675	125.452	-93.922	196.411	100.028	200.748	207.737	-49.536	0.00017502	0.00018208	4.9255e-05	385.77	3.0746e-06	2.1392e-06	550.92	116.45	2.4901e-06	3.5587e-06	205.44	70.313	29.98	10.782	2.8327e-06	32.412	0.00031264	0.0002992	8.4499e-05	395.13	3.4157e-06	3.2757e-06	557.64	119.3	3.3638e-06	3.3034e-06	207.19	71.573	31.869	11.317	3.4737e-06	32.836	181.078	48.027	153.649	-95.479	74.536	107.102	-95.972	-90.664	-19.407	231.673	-91.368	-85.925	-86.850	-80.461	-103.607	-80.694	-8191	255	
3288.258	1	1	0	0	0.076548	0.13374	0.025643	0.1951	0.34997	0.27373	0.37642	0.20976	0.090286	0.25736	0.090253	0.21074	0.19212	0.088762	0.1432	0.12633	-1.1021	-2.0187	-1.6604	-1.9708	-1.8917	-1.7771	-2.0708	-1.6458	-1.7854	-1.9688	-1.5187	-1.8438	-1.6812	-1.4208	-2.0875	-1.6875	207.397	69.898	40.490	155.426	193.729	151.932	-76.838	119.974	24.006	7.425	160.878	-92.538	135.919	-34.762	220.281	149.628	0.00010568	0.00027269	0.0001161	385.91	1.0593e-06	3.7835e-06	550.27	115.45	2.1266e-06	2.9356e-06	205.59	69.21	29.664	10.572	1.6916e-06	31.88	0.00030751	0.00029534	8.8153e-05	392.36	3.3708e-06	3.2423e-06	555.26	118.59	3.3667e-06	3.2593e-06	207.44	71.008	31.699	11.214	3.5317e-06	32.33	175.270	12.384	18.219	-95.654	49.198	49.934	-95.390	-90.667	3.854	-7.482	-91.242	-86.865	-86.286	-80.009	104.047	-80.352	-8191	255	
3288.352	1	1	0	0	0.18311	0.17905	0.10731	0.15108	0.25592	0.13432	0.31718	0.20583	0.12877	0.10808	0.11452	0.20343	0.11094	0.22693	0.21046	0.31085	-1.1333	-1.8771	-1.5417	-1.8062	-1.9562	-1.5646	-1.9875	-1.7979	-1.7583	-1.8417	-1.5979	-1.8	-1.6688	-1.6333	-1.9208	-1.7833	-38.906	217.321	11.368	183.147	198.284	28.792	230.194	241.793	-79.116	-51.088	-45.022	-92.819	-41.381	-64.035	92.543	-25.800	0.00014921	0.00022742	2.343e-05	387.91	3.4875e-06	4.4673e-06	553.71	117.04	7.9694e-07	1.1251e-06	202.73	67.716	29.243	10.232	4.6228e-06	31.095	0.00029731	0.00029602	9.0621e-05	392.59	3.2219e-06	3.2692e-06	557.34	119.12	3.2284e-06	3.2485e-06	205.99	69.316	31.036	10.849	3.525e-06	31.204	202.267	5.642	-84.107	-95.278	90.771	-51.938	-95.247	-90.388	246.580	11.353	-91.283	-86.059	-86.667	-80.184	-48.638	-80.365	-8191	255	
3288.448	1	1	0	0	0.2531	0.1562	0.16871	0.23745	0.13317	0.12376	0.17959	0.16327	0.30333	0.21489	0.10073	0.099468	0.24514	0.15971	0.051136	0.27575	-0.95417	-2.1104	-1.5729	-1.6562	-1.7812	-1.5479	-1.8687	-1.8583	-1.6896	-1.8646	-1.7	-1.7125	-2.1813	-1.4458	-1.7792	-1.925	113.926	80.560	237.636	-32.617	168.818	-47.683	240.614	159.023	213.337	36.985	-80.646	218.408	172.172	-63.708	116.442	191.246	0.00017051	0.00035732	0.00018374	386.39	1.2545e-06	3.521e-06	548.6	116.57	3.1363e-06	2.6711e-06	203.01	67.329	28.882	9.707	4.0672e-06	30.096	0.00028984	0.0002943	8.8781e-05	392.63	3.1256e-06	3.3222e-06	555.35	119.05	3.1355e-06	3.3546e-06	205	68.266	30.722	10.513	3.5006e-06	30.275	179.061	89.339	-86.344	-94.893	85.505	-44.554	-95.428	-90.730	78.686	-46.951	-91.447	-86.777	-87.130	-80.092	16.340	-80.974	-8191	255	
3288.569	1	1	0	0	0.059673	0.093802	0.38289	0.19809	0.28348	0.026246	0.16612	0.088458	0.30152	0.23988	0.33217	0.2297	0.2601	0.28362	0.31198	0.067423	-0.95208	-2.0792	-1.6792	-1.8312	-2.0792	-1.7083	-2.0438	-1.7521	-1.5729	-1.7542	-1.7042	-1.5521	-1.9979	-1.4583	-1.8896	-1.9083	2.882	-38.062	-9.050	196.546	143.072	115.784	117.220	53.214	189.137	202.719	200.321	185.938	224.225	206.839	-27.665	146.772	0.00019201	0.00039264	7.0144e-05	387.71	1.1448e-06	1.1879e-06	550.84	117.13	2.039e-06	2.6834e-06	202.67	67.047	28.625	9.8709	4.6547e-06	30.413	0.00028552	0.00031152	8.8274e-05	394.15	3.1947e-06	3.5043e-06	555.42	119.01	3.2506e-06	3.5316e-06	204.86	68.565	30.664	10.68	3.4562e-06	30.656	177.245	-47.689	42.883	-95.309	196.307	175.062	-95.370	-90.769	-8.454	38.163	-91.092	-86.545	-86.833	-79.927	105.903	-80.592	-8191	255	
3288.665	1	1	0	0	0.086947	0.033533	0.087129	0.13716	0.13921	0.13519	0.37102	0.1331	0.11021	0.062223	0.10462	0.19861	0.24304	0.050531	0.13206	0.072577	-1.1354	-1.9083	-1.7313	-1.7292	-1.9229	-1.4438	-1.8833	-1.9125	-1.475	-1.8208	-1.7521	-1.6125	-1.9354	-1.7833	-1.8708	-1.9375	-31.991	158.733	-53.584	118.411	-45.469	125.025	43.600	178.021	106.853	-25.034	-0.260	-6.744	-86.740	173.365	205.832	139.715	0.00017451	0.0002716	6.9776e-05	384.11	1.0483e-06	1.1648e-06	544.84	114.53	3.7937e-06	5.2844e-06	201.13	65.959	28.307	9.5254	2.168e-06	29.192	0.00030077	0.00032801	8.678e-05	388.67	3.2817e-06	3.5536e-06	549.66	116.52	3.3431e-06	3.5177e-06	201.95	67.241	30.18	10.299	3.2989e-06	29.533	186.288	41.542	37.210	-95.405	55.080	-12.846	-95.109	-91.101	-22.147	-10.295	-91.443	-86.581	-86.708	-80.166	-22.687	-80.564	-8191	255	
3288.759	1	1	0	0	0.041898	0.21539	0.25824	0.3558	0.10939	0.34928	0.30872	0.23442	0.20636	0.11533	0.356	0.089797	0.194	0.0488	0.1977	0.25432	-1.0417	-1.8354	-1.5375	-1.6063	-1.9708	-1.7208	-1.8396	-1.8292	-1.4625	-1.8583	-1.9417	-1.6396	-1.8583	-1.6729	-1.7042	-1.9708	228.090	211.816	-71.387	-55.203	118.627	44.947	161.570	131.634	5.693	55.784	211.363	29.094	176.819	7.345	-29.819	-37.292	0.00013067	0.00033306	0.00011514	390.04	7.9425e-07	5.9805e-06	552.38	118.13	2.9927e-06	7.9773e-07	203.89	66.486	29.223	9.779	8.8452e-07	29.022	0.00030592	0.00032252	8.4839e-05	395.42	3.5013e-06	3.6803e-06	558.01	120.63	3.6409e-06	3.6915e-06	206.13	67.971	31.593	10.546	3.5432e-06	29.495	190.817	14.474	249.535	-95.144	100.917	39.034	-94.731	-90.419	-94.880	-22.105	-90.920	-85.891	-86.444	-80.772	11.841	-80.920	-8191	255	
3288.855	1	1	0	0	0.18741	0.11753	0.1078	0.33651	0.082149	0.069015	0.17751	0.18694	0.1274	0.12068	0.199	0.063965	0.13194	0.15382	0.22352	0.22851	-1.1396	-1.6542	-2.0375	-1.6104	-1.8146	-1.7208	-1.6542	-1.9	-1.425	-1.6396	-1.8813	-1.5271	-1.7708	-1.7313	-1.5167	-1.9312	178.668	-50.622	207.851	226.348	-85.069	116.001	77.654	24.545	-72.122	12.982	140.842	133.254	-50.296	195.072	137.795	187.302	0.00016755	0.00033145	7.404e-05	400.2	1.1906e-06	5.8881e-06	561.93	120.84	7.0225e-07	1.6726e-06	204.24	65.968	29.388	9.6694	3.1595e-06	28.828	0.00033853	0.00033607	8.6961e-05	406.56	3.7239e-06	3.6357e-06	565.62	123.12	3.7141e-06	3.5691e-06	205.74	67.644	31.596	10.331	3.357e-06	29.292	194.917	-45.793	209.558	-95.021	194.219	66.719	-94.768	-90.415	-95.446	-10.111	-91.141	-86.333	-86.484	-79.928	-4.861	-80.507	-8191	255	
3288.952	1	1	0	0	0.14314	0.15111	0.15058	0.22149	0.10907	0.12914	0.28919	0.22387	0.068531	0.21991	0.090684	0.03831	0.30829	0.13315	0.12927	0.18106	-1.3229	-1.7437	-2.0104	-1.5396	-1.9396	-1.8604	-1.4292	-1.7313	-1.5292	-1.8604	-2.2083	-1.4208	-2.0125	-1.9604	-1.5812	-1.9917	29.408	153.599	-45.781	150.180	42.557	-90.695	-66.961	-32.052	237.064	-20.207	-75.350	64.713	190.633	-91.213	-76.981	218.177	0.00011876	0.00016076	0.00012394	397	3.5314e-06	1.6357e-06	556.04	119.95	1.1774e-06	1.1503e-06	204.16	65.913	28.913	9.4753	2.0648e-06	28.613	0.00033189	0.00031577	8.3974e-05	402.25	3.6373e-06	3.4053e-06	558.97	122.16	3.5878e-06	3.3768e-06	204.91	67.334	31.154	10.176	3.2965e-06	29.108	135.129	-14.918	-0.241	-95.598	20.318	-1.419	-94.789	-90.625	186.101	41.271	-91.075	-86.460	-86.261	-80.382	3.882	-80.448	-8191	255	
3289.048	1	1	0	0	0.31366	0.24261	0.3382	0.14278	0.28317	0.093775	0.24348	0.096148	0.29332	0.017652	0.44464	0.055174	0.049564	0.26364	0.083144	0.17429	-1.2687	-1.8896	-1.8563	-1.6604	-1.925	-1.9646	-1.7563	-1.9354	-1.6292	-1.7146	-2.0083	-1.8896	-1.9375	-1.7833	-1.5604	-1.8396	50.207	60.031	77.517	247.295	-8.141	-44.035	133.441	-39.907	63.966	90.344	115.092	158.767	20.394	171.621	-70.236	70.248	0.0001377	0.00022997	9.7255e-05	393.64	6.0891e-06	3.2527e-06	549.38	118.9	2.7461e-06	2.8067e-06	201.55	65.185	28.881	9.5963	2.5684e-06	28.862	0.00032233	0.00030347	8.2455e-05	400.07	3.5513e-06	3.3725e-06	552.99	121	3.5577e-06	3.3536e-06	202.97	67.3	30.959	10.312	3.3248e-06	29.315	192.320	-29.575	185.238	-95.235	65.707	22.188	-95.637	-91.095	35.318	-1.077	-91.941	-86.814	-87.029	-80.654	-80.204	-80.597	-8191	255	
3289.144	1	1	0	0	0.070564	0.227	0.28041	0.18839	0.1488	0.32024	0.15055	0.17018	0.1528	0.18704	0.10965	0.18361	0.071636	0.26509	0.058503	0.10905	-1.1833	-1.5479	-1.7313	-1.7062	-1.8167	-2.0042	-1.5729	-1.8771	-1.8667	-1.4479	-1.8125	-1.6229	-1.6521	-1.9396	-1.6271	-1.9625	150.864	-53.872	147.821	247.540	15.532	162.650	63.914	-54.429	149.495	223.682	149.890	205.520	182.841	69.652	167.212	148.644	0.00014341	0.0004319	9.9745e-05	389.87	1.4081e-06	2.0851e-06	543.87	116.3	2.6939e-06	4.3478e-06	200.25	65.208	27.99	9.434	2.6435e-06	28.509	0.00031672	0.00030689	8.4983e-05	396.03	3.4412e-06	3.2728e-06	548.24	119.32	3.3597e-06	3.2009e-06	201.75	66.754	30.097	10.017	3.2795e-06	28.849	162.861	-41.227	223.747	-95.165	38.668	33.961	-95.363	-90.748	-5.464	-60.765	-91.499	-86.502	-87.068	-80.623	-38.041	-80.667	-8191	255	
3289.240	1	1	0	0	0.13695	0.22914	0.318	0.13542	0.090607	0.068676	0.1433	0.10813	0.1351	0.23029	0.086064	0.074831	0.051503	0.090761	0.2045	0.10424	-1.2938	-1.4521	-1.8479	-1.5729	-1.6104	-1.9937	-1.5583	-1.8354	-1.5479	-1.5792	-1.925	-1.6479	-1.5104	-1.8042	-1.7208	-1.9521	181.011	250.600	-2.109	-70.199	208.950	237.893	192.439	-46.890	104.294	70.605	-25.496	209.666	152.863	-101.607	-68.053	7.255	0.00019001	0.00012112	0.00010515	386.84	1.859e-06	2.2806e-06	549.43	117.42	9.7374e-07	2.8239e-06	200.26	64.372	27.986	9.1459	4.5408e-06	27.94	0.00029102	0.00028337	8.3763e-05	392.02	3.1557e-06	3.0484e-06	551.36	119.23	3.1613e-06	3.0142e-06	202.01	65.663	29.632	9.6962	3.3126e-06	28.309	181.784	14.917	34.555	-95.605	-61.804	40.002	-95.511	-90.686	-99.360	-30.498	-91.702	-86.600	-87.339	-80.144	-45.152	-81.203	-8191	255	
3289.336	1	1	0	0	0.29733	0.19899	0.31777	0.19381	0.22691	0.28347	0.31136	0.047563	0.11657	0.16235	0.17004	0.25304	0.083901	0.17708	0.18259	0.18696	-1.2437	-1.3729	-1.9875	-1.5896	-1.625	-2.0583	-1.7229	-1.5917	-1.7521	-1.4125	-1.8375	-1.7375	-1.5063	-1.9167	-1.6375	-1.4458	74.457	-78.364	-70.720	-8.570	131.629	87.271	-58.863	206.128	135.849	166.639	197.924	-25.508	-86.190	-102.577	-62.245	115.643	0.00015871	8.9107e-05	7.7948e-05	386.06	4.5805e-07	4.0887e-06	547.32	115.89	2.5538e-06	3.2404e-06	200.88	63.69	27.628	8.9349	4.2616e-06	27.526	0.00027677	0.00027395	8.4205e-05	390.58	3.0151e-06	3.0333e-06	551.81	118.32	3.0309e-06	3.0033e-06	201.59	65.15	29.326	9.565	3.3261e-06	27.761	189.925	-42.073	-87.986	-95.800	-41.972	77.628	-95.827	-91.305	22.820	64.654	-91.777	-86.895	-86.746	-80.410	7.355	-80.792	-8191	255	
3289.457	1	1	0	0	0.14353	0.23131	0.23507	0.15759	0.10933	0.18065	0.050394	0.031654	0.22726	0.26369	0.2604	0.087098	0.076632	0.29456	0.2151	0.099749	-1.3896	-1.5	-1.8813	-1.7062	-1.5542	-2.1375	-1.7062	-1.6083	-2.0729	-1.6104	-1.8958	-1.9104	-1.4458	-1.8229	-1.7437	-1.7625	116.195	67.644	169.478	182.846	104.649	-68.098	171.414	163.900	111.123	-50.648	-69.697	-99.828	181.914	146.504	61.839	56.489	9.9994e-05	0.00011976	5.5054e-05	385.03	4.2993e-06	7.574e-07	548.71	116.43	1.6822e-06	4.5599e-06	200.12	63.407	27.347	8.8566	9.21e-07	27.12	0.00027032	0.00028103	8.3222e-05	389.92	2.9418e-06	3.1066e-06	551.51	118.13	2.9697e-06	3.1628e-06	200.9	64.521	29.199	9.5399	3.2816e-06	27.552	201.028	132.097	-6.341	-95.633	-42.079	115.235	-95.282	-90.878	68.129	248.706	-91.452	-86.931	-87.277	-80.007	71.849	-81.278	-8191	255	
3289.551	1	1	0	0	0.094015	0.2753	0.20352	0.22439	0.058211	0.1219	0.35723	0.082927	0.28848	0.14746	0.15988	0.32145	0.14675	0.2599	0.20065	0.11314	-1.6063	-1.4521	-1.775	-1.9021	-1.4562	-1.9312	-1.9438	-1.5667	-1.8208	-1.6604	-1.6792	-1.8771	-1.7292	-1.9479	-1.7938	-1.7625	57.606	12.761	-56.117	208.358	143.420	149.169	171.542	209.299	201.878	43.064	-83.706	241.137	154.083	-83.855	240.593	112.066	0.00014099	0.00032323	0.00014662	392.12	1.8701e-06	1.0783e-06	553.48	116.09	1.2478e-06	9.028e-07	199.81	63.672	27.505	8.6954	1.8002e-06	26.976	0.00027059	0.00029901	8.3187e-05	393.42	3.0005e-06	3.2659e-06	554.4	118.36	2.9896e-06	3.276e-06	201.15	64.565	29.269	9.4632	3.2163e-06	27.293	193.099	116.787	49.967	-95.543	-50.379	135.260	-95.468	-91.284	32.161	-79.961	-91.370	-86.977	-87.250	-81.161	-59.912	-80.553	-8191	255	
3289.649	1	1	0	0	0.32773	0.092175	0.13113	0.18747	0.074693	0.13876	0.12021	0.12281	0.23133	0.25045	0.17494	0.17555	0.078185	0.12691	0.25598	0.14864	-1.475	-1.7417	-1.6375	-1.7917	-1.5812	-2.0062	-1.4937	-1.7521	-1.8229	-1.6208	-1.9167	-1.9229	-1.6521	-1.9292	-1.6479	-1.7625	29.853	216.674	52.082	-31.847	45.032	-22.012	239.362	241.821	95.665	94.051	228.374	141.423	101.572	34.991	-54.792	-4.366	0.00012903	0.0002086	0.00019365	384.82	2.7787e-06	3.1212e-06	547.98	114.81	8.1947e-07	5.2968e-06	198.26	62.96	26.801	8.6875	2.4459e-06	27.066	0.00027201	0.00030266	7.9365e-05	389.68	3.0422e-06	3.2651e-06	552.37	116.97	3.0658e-06	3.289e-06	199.49	64.046	28.797	9.3977	3.1114e-06	27.392	186.367	161.364	14.511	-95.374	109.931	-25.749	-95.412	-91.199	-86.920	15.762	-92.101	-87.074	-87.118	-80.749	109.823	-80.970	-8191	255	
3289.744	1	1	0	0	0.085311	0.33109	0.34046	0.07733	0.11836	0.17256	0.064887	0.12575	0.23754	0.17818	0.3888	0.23137	0.15138	0.28776	0.18821	0.20949	-1.4542	-1.6125	-1.6229	-1.9188	-1.525	-2.0979	-2.0312	-1.6125	-1.9083	-1.9062	-1.6479	-2.1167	-1.575	-1.6896	-1.6562	-1.6396	-94.804	155.610	90.879	96.021	-105.151	-34.328	242.050	-83.925	58.988	74.152	156.723	-79.202	145.420	44.713	121.426	185.720	0.00015024	0.00022716	5.0518e-05	382.63	2.295e-06	1.9665e-06	543.66	113.04	1.3048e-06	2.586e-06	197.39	62.496	26.589	8.5393	5.4835e-06	26.916	0.00028409	0.00030306	7.8584e-05	385.35	3.2225e-06	3.3028e-06	547.13	115.04	3.2873e-06	3.3122e-06	197.78	63.642	28.66	9.345	3.1317e-06	27.291	196.376	-9.900	-65.935	-95.564	248.092	-53.846	-95.336	-91.494	39.075	-4.716	-91.614	-86.874	-87.479	-80.010	16.298	-80.701	-8191	255	
3289.840	1	1	0	0	0.21781	0.23144	0.1013	0.14051	0.23242	0.1142	0.12206	0.09016	0.10253	0.27769	0.20108	0.28504	0.16254	0.19582	0.1264	0.20663	-1.4083	-1.7042	-1.5833	-2.0146	-1.4604	-1.8875	-2.0667	-1.6396	-1.8312	-1.7708	-1.6042	-1.9833	-1.475	-1.7208	-2.0167	-1.7083	61.992	116.210	31.541	-27.077	-65.193	11.751	214.268	6.444	133.940	79.965	87.588	124.259	138.807	-77.516	53.455	127.083	0.00017023	0.00032772	0.00011809	378.63	2.8821e-06	4.6424e-06	537.12	109.6	2.0067e-06	4.9051e-06	192.99	61.333	25.824	8.5626	2.0475e-06	27.008	0.00030323	0.00030139	8.0494e-05	381.58	3.4431e-06	3.3251e-06	539.49	111.97	3.4935e-06	3.3285e-06	193.94	63.04	27.993	9.2885	3.124e-06	27.531	170.721	-39.647	34.906	-95.669	-24.141	9.453	-95.687	-90.983	-63.768	6.855	-91.582	-86.585	-87.141	-81.202	-68.667	-80.640	-8191	255	
3289.936	1	1	0	0	0.25459	0.20683	0.0075949	0.39717	0.15478	0.18008	0.071245	0.29438	0.24115	0.17762	0.13958	0.23799	0.25599	0.17315	0.10969	0.027147	-1.3521	-1.6125	-1.3667	-2.0417	-1.4667	-1.5583	-2.0167	-1.4479	-1.8375	-2.0438	-1.3896	-1.8979	-1.5938	-1.7208	-1.9625	-1.6063	220.250	183.246	-102.740	-62.564	-32.610	-3.763	214.065	15.015	183.933	216.705	38.343	153.893	-69.783	-78.928	-105.080	-38.092	0.00015126	6.6529e-05	8.2778e-05	369.51	2.4118e-06	2.0898e-06	531.49	106.9	4.8572e-06	2.7857e-06	191.71	62.286	25.714	8.6687	3.7304e-06	27.778	0.00031044	0.00029941	7.9124e-05	374.07	3.423e-06	3.2429e-06	533.77	109.73	3.4213e-06	3.199e-06	193.09	63.759	27.892	9.349	3.0316e-06	28.25	184.278	-11.198	115.358	-95.691	198.853	35.865	-95.857	-91.228	-70.025	-50.410	-91.528	-86.652	-86.851	-80.640	-10.728	-80.756	-8191	255	
3290.056	1	1	0	0	0.17101	0.31657	0.037992	0.2405	0.10014	0.30926	0.17472	0.24357	0.25353	0.40901	0.10675	0.015121	0.060667	0.18612	0.13702	0.2886	-1.3583	-1.5938	-1.6167	-1.8833	-1.4396	-1.8958	-1.9583	-1.7104	-1.95	-1.6271	-1.7167	-2.0187	-1.6792	-1.4958	-2.0333	-1.7313	169.103	52.776	76.908	36.957	-75.991	154.473	-59.238	-95.290	-54.681	-38.880	-48.069	44.416	121.474	209.779	226.510	117.609	0.00011538	3.1084e-05	0.00012	364.01	9.8156e-07	3.8883e-07	529.63	106.65	9.6523e-07	4.5242e-06	193.77	63.287	26.044	8.8603	4.1813e-06	28.317	0.00030711	0.00028888	7.8048e-05	370.73	3.3635e-06	3.1508e-06	533.45	109.83	3.3319e-06	3.1343e-06	195.07	64.986	28.033	9.5305	3.0991e-06	28.765	180.978	106.253	-39.966	-95.624	118.034	9.097	-95.889	-90.936	40.336	32.974	-91.496	-86.587	-86.608	-80.269	127.700	-80.860	-8191	255	
3290.153	1	1	0	0	0.099947	0.21989	0.060323	0.17023	0.13274	0.33834	0.18156	0.089727	0.25855	0.35606	0.20706	0.19808	0.015808	0.22656	0.29325	0.14442	-1.1	-2.0583	-1.6646	-1.9813	-1.6333	-1.5375	-2.0771	-1.7542	-1.6979	-1.8646	-1.5979	-2.0375	-1.875	-1.5125	-1.8771	-1.8104	-90.744	207.182	92.667	-35.833	-106.441	218.499	60.133	133.735	57.870	4.146	29.692	201.665	234.473	248.366	250.123	145.888	0.00010368	0.00043376	0.000123	369.76	1.7797e-06	3.4059e-06	535.59	107.84	2.883e-06	2.5328e-06	194.77	63.295	26.427	8.9662	2.1522e-06	28.194	0.0002928	0.00028135	8.0114e-05	374.63	3.2259e-06	3.0897e-06	536.64	111.19	3.2055e-06	3.0558e-06	195.62	65.014	28.375	9.5797	3.2206e-06	28.714	178.707	-14.148	43.661	-95.694	42.427	18.046	-95.757	-91.147	52.987	99.133	-91.605	-86.712	-87.463	-80.497	93.521	-80.780	-8191	255	
3290.249	1	1	0	0	0.11481	0.10004	0.2388	0.11492	0.15319	0.047154	0.41311	0.13546	0.12338	0.097625	0.18013	0.11646	0.071443	0.16239	0.22992	0.25731	-1.1917	-1.8271	-1.4521	-1.8396	-1.7625	-1.5812	-1.8604	-1.5896	-1.3583	-1.9854	-1.6292	-1.7521	-1.6021	-1.4729	-1.7333	-1.8729	96.601	159.380	224.080	124.360	140.568	223.774	171.065	79.805	-99.572	39.188	22.242	-15.335	-22.163	-40.716	111.481	-68.337	0.0001816	0.0002962	9.8942e-05	369.01	1.3926e-06	3.9724e-06	539.1	109.64	1.5839e-06	5.0535e-07	196.34	63.875	26.523	9.0853	1.5912e-06	28.522	0.00028559	0.00027769	8.3078e-05	375.38	3.1626e-06	3.1034e-06	540.4	112.36	3.1204e-06	3.0794e-06	197.89	65.283	28.498	9.6434	3.3502e-06	28.817	179.411	39.678	-81.622	-96.030	7.205	-13.236	-96.021	-91.166	75.474	46.118	-91.840	-86.776	-87.513	-80.551	26.644	-80.934	-8191	255	
3290.345	1	1	0	0	0.058406	0.14205	0.11033	0.23098	0.14007	0.29456	0.16489	0.34204	0.079337	0.098767	0.16303	0.21931	0.15577	0.143	0.1755	0.31598	-1.0708	-1.8271	-1.5333	-1.9104	-1.6542	-1.4854	-1.9146	-1.6729	-1.4562	-1.8771	-1.6396	-1.7375	-1.8896	-1.4792	-2.025	-1.7	197.692	106.145	-26.178	226.389	174.896	-94.375	-60.508	84.695	159.951	238.985	141.667	233.930	86.559	207.814	49.890	105.084	0.00018944	0.00033106	0.00010213	371.39	3.7639e-06	1.8654e-06	537.46	110.26	3.5831e-06	1.5802e-06	197.76	64.32	26.579	9.0382	5.2277e-06	28.398	0.00028077	0.00027848	8.5697e-05	377.96	3.09e-06	3.1264e-06	543.72	112.95	3.1004e-06	3.1393e-06	199.56	65.722	28.628	9.7019	3.4374e-06	28.769	206.641	38.622	-95.859	-95.563	57.583	61.148	-95.920	-90.938	125.780	75.970	-91.728	-86.946	-86.785	-80.339	-32.591	-80.740	-8191	255	
3290.441	1	1	0	0	0.090824	0.2097	0.18651	0.18598	0.24336	0.28549	0.30355	0.22923	0.068032	0.10328	0.24819	0.11481	0.19378	0.072902	0.077784	0.17902	-1.2479	-1.8646	-1.5583	-1.5042	-2	-1.5625	-1.8937	-1.7437	-1.4292	-1.9271	-1.6333	-1.5438	-1.9521	-1.6146	-1.7896	-1.6792	42.532	-47.919	54.538	235.899	-33.624	58.247	157.053	-64.110	-36.115	133.348	141.192	-85.562	162.164	134.895	37.531	-85.801	0.00012445	0.00014353	6.4129e-05	377.78	1.4402e-06	1.3257e-06	545.64	112.69	1.2575e-06	1.9968e-06	198.48	64.564	26.966	9.043	5.1081e-06	28.37	0.00027757	0.00028829	8.6727e-05	383.46	3.0714e-06	3.2472e-06	549.37	114.42	3.0398e-06	3.2095e-06	200.53	65.867	28.88	9.7586	3.32e-06	28.526	210.889	56.233	-93.116	-96.062	-40.123	121.486	-95.866	-91.327	-4.456	7.433	-91.453	-87.282	-87.261	-81.217	5.168	-80.923	-8191	255	
3290.535	1	1	0	0	0.040023	0.013155	0.30316	0.07402	0.080407	0.20739	0.1094	0.19909	0.087313	0.067365	0.18423	0.41053	0.18162	0.19121	0.15123	0.019208	-1.0333	-1.925	-1.7583	-1.7271	-2.1125	-1.6396	-1.7604	-1.9104	-1.475	-1.8479	-1.8896	-1.5729	-1.8521	-1.6562	-1.7062	-1.9333	156.243	-68.220	45.966	-10.189	35.663	38.880	101.777	120.860	72.200	209.677	-83.751	232.732	119.022	116.478	133.706	40.772	0.00013477	0.00025397	0.00010134	378.69	3.0097e-06	2.1574e-06	541.47	112.21	1.0167e-06	2.8298e-06	197.41	63.945	27.195	9.0672	3.7974e-06	28.044	0.00027448	0.00029751	8.415e-05	384.16	3.003e-06	3.3034e-06	546.68	114.8	3.0386e-06	3.3097e-06	199.03	65.28	28.913	9.7341	3.2008e-06	28.414	180.537	18.035	-49.598	-95.855	59.633	-11.536	-95.768	-91.411	-9.366	-0.447	-91.774	-87.126	-87.054	-80.800	19.055	-81.003	-8191	255	
3290.632	1	1	0	0	0.045419	0.15548	0.12386	0.23412	0.11712	0.35877	0.25728	0.19766	0.14764	0.10549	0.22878	0.14055	0.43094	0.22857	0.08355	0.20095	-1.1854	-1.9646	-1.6167	-1.6417	-1.6833	-1.5979	-1.7313	-1.8687	-1.5729	-1.9125	-1.5875	-1.35	-1.7938	-1.7125	-1.6542	-1.9021	62.585	230.247	-77.925	103.522	-32.143	6.927	189.612	139.412	232.312	218.088	222.471	-5.524	210.549	146.159	106.796	180.978	0.00014755	0.00017509	0.00016224	377.75	7.4393e-07	3.786e-06	545.29	112.56	2.3882e-06	2.4715e-06	198.64	64.333	27.034	9.0971	7.6236e-07	28.421	0.00027568	0.00030163	8.092e-05	382.37	3.0539e-06	3.2949e-06	546.27	114.63	3.0959e-06	3.2953e-06	198.98	65.511	29.011	9.796	3.138e-06	28.671	196.673	46.836	9.556	-96.146	-29.470	-73.193	-95.723	-91.615	53.011	66.350	-92.144	-86.846	-87.102	-80.227	-47.235	-81.363	-8191	255	
3290.752	1	1	0	0	0.29712	0.20802	0.25701	0.41809	0.14595	0.21818	0.26635	0.10973	0.3539	0.059442	0.085222	0.031195	0.4481	0.061784	0.11708	0.046943	-0.97083	-1.7354	-1.6458	-1.6396	-1.9042	-1.5229	-1.8479	-1.9708	-1.5292	-1.7875	-1.7542	-1.5625	-1.7708	-1.725	-1.3854	-1.9417	-58.521	47.631	-0.840	121.844	97.180	16.912	92.980	172.598	225.292	109.094	-0.087	232.865	-102.683	49.624	-44.764	33.010	0.00014665	0.00015068	0.00011785	378.33	3.0786e-06	1.6815e-06	545.72	111.83	2.9106e-06	4.8848e-06	198.92	65.056	27.089	9.1882	1.9351e-06	28.696	0.00028479	0.00030455	7.862e-05	381.01	3.2036e-06	3.3077e-06	546.29	114.27	3.2565e-06	3.2944e-06	199.83	66.234	29.279	9.8803	3.1218e-06	29.123	183.012	34.153	-45.724	-95.368	36.455	-90.189	-95.777	-91.500	236.127	-9.890	-91.683	-86.812	-87.224	-80.024	-22.487	-80.932	-8191	255	
3290.848	1	1	0	0	0.25892	0.11111	0.099703	0.12749	0.10035	0.029376	0.10894	0.063617	0.021984	0.053207	0.031684	0.064113	0.072957	0.099088	0.13211	0.14113	-1.0458	-1.7646	-1.625	-1.4896	-1.9583	-1.4771	-1.5396	-1.7729	-1.375	-1.7083	-1.8792	-1.3771	-1.8271	-1.6896	-1.4979	-1.9813	27.816	100.449	170.587	94.474	35.130	72.751	-104.895	74.278	-2.428	92.684	242.541	54.200	-58.590	-49.366	33.946	243.464	0.00011139	0.0001575	0.00010626	377.52	1.2678e-06	4.5422e-06	542.56	112.65	2.8352e-06	1.6672e-06	199.58	64.75	27.342	9.16	2.0972e-06	28.861	0.00030122	0.00029729	7.8413e-05	381.05	3.3155e-06	3.2116e-06	546.62	114.55	3.3385e-06	3.2055e-06	200.13	66.155	29.401	9.8573	3.0336e-06	29.049	171.326	-45.548	-89.463	-95.937	114.963	43.300	-95.807	-91.089	-15.787	57.163	-91.591	-86.895	-87.091	-80.614	-70.497	-80.973	-8191	255	
3290.920	1	1	0	0	0.29762	0.24108	0.20559	0.13516	0.12282	0.17501	0.095992	0.26384	0.18784	0.3536	0.16073	0.045464	0.26134	0.20763	0.15919	0.056442	-1	-1.6313	-1.9708	-1.4562	-1.7146	-1.9667	-1.4979	-1.7812	-1.7062	-1.5583	-1.9854	-1.6604	-1.6979	-1.6729	-1.5354	-1.8271	57.079	-73.881	108.453	1.130	23.869	-40.587	-31.302	-38.567	244.231	104.550	-48.645	116.773	244.411	-51.329	152.937	247.459	0.00013161	0.00016653	0.00011128	375.66	3.3222e-06	3.5897e-06	540.25	112.07	1.7255e-06	2.1729e-06	200.02	64.732	27.605	9.2981	3.1688e-06	28.743	0.00030174	0.00028479	7.6229e-05	380.89	3.3036e-06	3.1223e-06	543.1	114.42	3.3524e-06	3.1126e-06	199.99	66.308	29.534	9.9036	3.0337e-06	29.217	215.864	99.217	-85.882	-95.606	48.454	19.688	-95.991	-90.988	206.768	-25.046	-91.448	-87.053	-87.084	-80.405	-82.349	-80.927	-8191	255	
3291.016	1	1	0	0	0.25111	0.1145	0.16299	0.10366	0.17529	0.12122	0.21202	0.13123	0.093766	0.086927	0.069112	0.26381	0.12549	0.11359	0.050238	0.19857	-1.1688	-1.575	-1.7646	-1.6187	-1.8	-1.8542	-1.5875	-1.9188	-1.6375	-1.5229	-1.8708	-1.5063	-1.7583	-1.7021	-1.3271	-1.8438	215.045	-1.929	215.865	136.875	153.436	192.278	132.093	-38.654	61.693	-0.230	-76.017	237.240	38.957	-72.785	-75.907	-94.269	0.00014504	0.00040172	5.101e-05	373.92	1.1535e-06	3.3858e-06	542.3	111.7	4.879e-06	1.8277e-06	199.02	65.482	27.347	9.3547	1.7362e-06	29.048	0.00029665	0.00028278	7.652e-05	381.57	3.2664e-06	3.0878e-06	544.25	114.42	3.29e-06	3.124e-06	199.96	66.922	29.416	9.9525	3.0658e-06	29.593	194.869	-36.839	-2.120	-95.695	-22.398	215.059	-95.730	-91.309	55.159	-6.971	-91.376	-86.787	-87.389	-80.952	71.990	-80.819	-8191	255	
3291.137	1	1	0	0	0.070922	0.028311	0.18447	0.10064	0.18957	0.10147	0.038687	0.087935	0.25041	0.21631	0.090775	0.12	0.046758	0.2939	0.034495	0.43179	-1.2729	-1.4208	-1.725	-1.6354	-1.6583	-1.8771	-1.6	-1.8604	-1.4667	-1.3542	-1.8396	-1.5646	-1.6625	-1.6667	-1.4583	-1.675	7.062	20.338	-83.374	192.559	-59.860	-14.690	35.887	54.399	-72.465	123.503	-29.584	92.450	-105.114	206.597	115.370	215.959	0.00013765	0.00022056	6.876e-05	375.58	4.2473e-06	1.5194e-06	543.22	111.98	1.5955e-06	3.0244e-06	199.76	66.097	27.378	9.421	3.348e-06	29.5	0.0002907	0.00027837	7.8817e-05	381.4	3.2235e-06	3.0554e-06	544.63	114.52	3.1733e-06	3.0427e-06	200.71	67.272	29.429	10.049	3.1812e-06	29.806	195.920	67.721	-22.394	-95.629	30.496	248.054	-95.633	-91.443	81.793	33.727	-91.452	-86.709	-87.406	-80.539	-38.910	-80.896	-8191	255	
3291.233	1	1	0	0	0.14471	0.0673	0.021419	0.38703	0.13529	0.18597	0.074321	0.22647	0.24148	0.14848	0.028307	0.15511	0.23835	0.086913	0.037253	0.066559	-1.2021	-1.4604	-1.7188	-1.8271	-1.7396	-1.8813	-1.7104	-1.7854	-1.6167	-1.5	-2.0854	-1.7062	-1.4937	-1.8958	-1.5875	-1.7687	60.702	82.331	-76.606	-19.869	-62.472	-100.066	233.856	23.167	96.106	201.709	42.531	173.934	-53.021	169.920	-83.296	-74.166	0.00016434	0.00047823	2.797e-05	373.5	2.5719e-06	5.0228e-06	539.79	111.83	3.3081e-06	3.8534e-06	198.84	65.519	27.324	9.4228	2.5991e-06	29.508	0.00028404	0.00027642	8.2632e-05	380.4	3.1267e-06	3.008e-06	544.26	114.05	3.1602e-06	3.0251e-06	200.36	66.801	29.222	10.005	3.2904e-06	29.744	185.956	32.412	25.074	-95.627	35.510	95.009	-95.895	-91.435	5.741	-41.137	-91.511	-86.825	-87.172	-80.508	46.503	-81.012	-8191	255	
3291.329	1	1	0	0	0.1804	0.22187	0.21832	0.066835	0.11968	0.042857	0.11462	0.41419	0.16146	0.08281	0.35194	0.18137	0.17014	0.15872	0.20445	0.18214	-1.3875	-1.575	-1.6896	-1.6542	-1.6083	-2.1125	-1.7167	-1.6	-1.6812	-1.5396	-1.8667	-1.7396	-1.4771	-1.9479	-1.5896	-1.8542	49.973	23.412	164.229	160.206	-72.949	13.535	190.501	-99.662	77.085	-62.030	105.410	38.458	203.806	96.321	169.052	-104.719	0.00015461	0.00013991	2.7674e-05	374.55	3.5978e-07	2.5279e-07	539.9	110.92	1.9438e-06	3.4297e-06	198.49	65.745	27.242	9.4476	1.649e-06	29.451	0.00027798	0.00027489	8.4408e-05	378.8	3.0954e-06	3.0373e-06	543.5	113.44	3.0818e-06	3.0798e-06	200.23	66.934	29.14	10.108	3.4073e-06	29.839	196.083	88.210	-62.728	-95.537	-23.177	76.877	-95.559	-91.076	34.089	-28.064	-91.502	-86.943	-87.236	-80.690	174.170	-80.618	-8191	255	
3291.450	1	1	0	0	0.39085	0.29186	0.092561	0.24829	0.063705	0.13846	0.067881	0.11397	0.071165	0.22696	0.12626	0.0411	0.12229	0.067081	0.18654	0.16192	-1.3646	-1.4958	-1.775	-1.5958	-1.4292	-2.0208	-1.5625	-1.6187	-1.725	-1.3833	-1.8771	-1.7313	-1.4542	-1.9542	-1.775	-1.7083	8.970	195.573	21.948	151.117	-74.526	-59.555	37.405	10.183	-69.759	22.043	-93.612	191.141	21.328	109.661	-49.449	-59.407	0.00016381	0.00015277	4.8139e-05	372.69	2.7385e-06	3.8125e-06	539.36	110.19	2.0997e-06	8.2686e-07	198.54	65.662	27.266	9.4579	8.7432e-07	29.782	0.00027782	0.00028809	8.5731e-05	377.06	3.0256e-06	3.1668e-06	542.74	112.83	3.0264e-06	3.2016e-06	200.47	66.804	29.055	10.129	3.358e-06	30.07	227.662	216.708	-3.646	-95.523	32.054	-44.365	-95.622	-91.204	-2.507	147.425	-91.198	-86.630	-87.040	-80.148	183.493	-80.907	-8191	255	
3291.521	1	1	0	0	0.05597	0.20205	0.14925	0.26689	0.20112	0.54299	0.17816	0.11632	0.03412	0.084305	0.20279	0.1822	0.085649	0.17464	0.024648	0.13344	-1.3062	-1.4354	-1.8042	-1.7062	-1.4833	-1.6063	-1.6729	-1.5604	-1.9917	-1.5	-1.6917	-1.8208	-1.375	-1.6979	-1.7479	-1.7938	62.781	219.697	197.260	180.635	184.152	141.222	231.954	115.929	56.801	64.797	-81.623	-40.253	88.661	-48.014	-80.835	250.044	0.00016548	0.0002291	0.00014327	370.41	3.3141e-06	5.3997e-06	542.88	110.12	1.2418e-06	2.3344e-06	198.7	65.457	27.121	9.4439	1.4128e-06	29.892	0.00027666	0.00029939	8.3695e-05	374.51	3.0063e-06	3.3144e-06	544.84	112.28	3.0496e-06	3.337e-06	200.06	66.908	29.014	10.165	3.2812e-06	29.987	197.679	55.804	234.353	-95.603	25.681	-11.759	-95.429	-91.023	155.462	35.412	-91.371	-86.790	-86.761	-80.233	10.849	-80.582	-8191	255	
3291.618	1	1	0	0	0.1349	0.098649	0.049299	0.051793	0.13783	0.19574	0.063541	0.02294	0.16707	0.03486	0.09065	0.16308	0.25526	0.12655	0.24922	0.2932	-1.5271	-1.6708	-1.6063	-1.7979	-1.4438	-1.8646	-1.8167	-1.4125	-1.9479	-1.5104	-1.6938	-1.7104	-1.4771	-1.7875	-1.6979	-1.55	82.465	153.994	73.596	137.304	225.774	120.237	92.120	-95.295	237.357	-68.575	-23.482	208.143	245.179	-20.003	174.331	141.656	0.00011171	0.00033101	0.00018628	371.03	2.1003e-06	2.3438e-06	541.92	111.16	1.2329e-06	4.869e-06	198.94	65.206	27.388	9.3838	2.609e-06	29.308	0.00027948	0.00030743	8.1426e-05	376.86	3.1239e-06	3.3706e-06	544.57	112.89	3.1347e-06	3.3561e-06	199.75	66.423	29.175	10.067	3.1658e-06	29.468	171.495	60.000	-64.033	-95.930	117.146	-51.868	-96.303	-91.728	242.332	28.347	-92.132	-87.564	-88.327	-82.025	-88.657	-81.710	-8191	255	
3291.737	1	1	0	0	0.10768	0.20608	0.20579	0.27207	0.24072	0.13332	0.19604	0.22546	0.22438	0.4133	0.091364	0.29509	0.041856	0.16471	0.098086	0.20261	-1.2687	-1.275	-1.3542	-1.8333	-1.3104	-1.6	-1.7708	-1.1854	-1.8146	-1.4667	-1.4583	-1.6875	-1.5667	-1.6437	-1.5917	-1.4979	-69.713	163.057	166.359	-24.958	-37.427	-18.257	21.705	48.842	-69.914	60.468	232.077	166.287	195.589	95.655	-6.740	56.510	0.00016121	9.9993e-05	8.501e-05	376.69	3.4976e-06	2.8e-06	540.86	110.94	4.1304e-06	1.4054e-06	199.17	65.038	27.228	9.335	1.5422e-06	29.109	0.000292	0.00030524	8.0845e-05	379.13	3.2335e-06	3.3607e-06	545.46	113.7	3.2814e-06	3.3151e-06	200.31	66.254	29.392	10.009	3.1346e-06	29.423	184.648	99.323	-48.825	-96.831	-107.386	28.023	-96.523	-92.089	121.027	64.019	-92.704	-87.567	-87.949	-81.272	205.193	-81.987	-8191	255	
3291.833	1	1	0	0	0.050253	0.15185	0.16641	0.25661	0.16337	0.20495	0.27399	0.21573	0.072119	0.11405	0.23792	0.17174	0.065669	0.20963	0.19958	0.14104	-1.3729	-1.4917	-1.5312	-1.8854	-1.4688	-1.5271	-1.7	-1.375	-1.5229	-1.7375	-1.2938	-1.7479	-1.4146	-1.5729	-1.8062	-1.6542	124.672	148.545	204.473	107.385	40.252	-2.565	198.727	207.610	-40.017	73.923	-109.081	229.515	-85.140	-100.413	142.636	122.025	0.00015061	0.00032619	0.00015978	374.75	1.72e-06	4.4378e-06	544.7	112.36	1.1364e-06	5.4266e-06	199.16	65.434	27.267	9.3842	3.0976e-06	29.298	0.00030254	0.00030256	7.8697e-05	379.63	3.3148e-06	3.247e-06	546.77	113.89	3.3386e-06	3.2241e-06	200.61	66.766	29.404	10.048	3.0798e-06	29.74	184.973	26.694	-98.288	-96.694	8.869	52.864	-96.687	-92.105	16.237	24.058	-92.713	-88.325	-88.577	-80.929	-22.001	-82.101	-8191	255	
3291.929	1	1	0	0	0.16716	0.25253	0.06521	0.074944	0.040253	0.033977	0.24414	0.15142	0.10603	0.27357	0.19487	0.095075	0.096117	0.19897	0.14826	0.19476	-1.2021	-1.6042	-1.5271	-1.7313	-1.5396	-1.4125	-1.9917	-1.2979	-1.5938	-1.5708	-1.6333	-1.6792	-1.4354	-1.5063	-1.6542	-1.4146	178.197	209.325	-12.966	130.722	4.090	173.983	110.126	-38.212	87.483	110.452	92.354	68.620	119.128	25.862	169.989	-83.845	0.00012895	0.0005312	0.00013525	374.17	4.2872e-06	9.5853e-07	542.73	111.06	1.0924e-06	5.9304e-06	200.47	65.612	27.393	9.3936	1.9992e-07	29.292	0.00030513	0.0002892	7.8476e-05	379.34	3.357e-06	3.177e-06	544.77	113.73	3.3575e-06	3.1144e-06	200.54	66.853	29.451	10.031	3.0192e-06	29.637	193.614	24.216	13.063	-96.696	92.570	158.724	-96.789	-91.959	-32.993	69.309	-93.037	-88.348	-88.082	-81.571	204.892	-82.214	-8191	255	
3292.049	1	1	0	0	0.036001	0.19463	0.11854	0.14028	0.17404	0.22487	0.41848	0.099118	0.13512	0.17861	0.063856	0.13192	0.32298	0.11822	0.32393	0.1722	-1.2542	-1.7104	-1.4625	-1.7958	-1.5688	-1.5604	-1.7812	-1.6667	-1.6917	-1.6583	-1.4937	-1.825	-1.8271	-1.4729	-1.7687	-1.5958	-82.486	214.565	34.167	107.162	-40.985	-105.132	242.275	246.464	70.232	77.762	87.497	167.202	238.602	160.528	213.779	-96.995	0.00010109	0.00023119	7.1285e-05	374.14	2.0089e-06	1.9284e-06	539.86	112.17	2.7394e-06	2.773e-06	199.79	65.473	27.676	9.3818	1.553e-06	28.937	0.00029979	0.00028703	7.5852e-05	379.81	3.2878e-06	3.1059e-06	543.13	114.37	3.2822e-06	3.0488e-06	200.35	66.959	29.501	10.006	3.1003e-06	29.508	173.870	-3.855	-87.940	-96.475	136.672	55.930	-96.709	-91.766	84.671	170.067	-92.667	-87.883	-87.788	-81.651	-102.836	-82.050	-8191	255	
3292.146	1	1	0	0	0.08043	0.27517	0.4243	0.14868	0.37763	0.14905	0.15934	0.20122	0.037405	0.10386	0.044602	0.030878	0.31419	0.15431	0.22362	0.15527	-1.1083	-1.6958	-1.5875	-1.7417	-1.5292	-1.6333	-1.7625	-1.5167	-1.4583	-1.7646	-1.5417	-1.75	-1.6688	-1.3563	-1.9479	-1.5292	200.219	122.186	-108.396	-94.450	90.970	40.609	-34.609	106.603	-23.779	190.179	-22.451	-14.336	30.367	88.694	-46.616	-22.240	0.00017185	0.00047255	0.00015838	374.23	1.5573e-06	2.6512e-06	542.26	112.16	1.0709e-06	2.5927e-06	200.47	65.92	27.716	9.3566	2.8408e-06	29.324	0.00029573	0.0002811	7.8881e-05	381.65	3.218e-06	3.0958e-06	546.83	114.83	3.1969e-06	3.0598e-06	201.55	67.232	29.621	10.044	3.1807e-06	29.625	192.935	25.049	135.692	-96.684	59.465	52.296	-96.590	-92.294	-11.993	-107.204	-92.518	-88.221	-88.124	-81.708	-84.324	-81.952	-8191	255	
3292.217	1	1	0	0	0.19264	0.16365	0.20852	0.024653	0.11867	0.2099	0.15892	0.20106	0.042193	0.33036	0.096179	0.24763	0.018429	0.30236	0.26331	0.24309	-1.0458	-1.6917	-1.3646	-1.8333	-1.7417	-1.4188	-1.9396	-1.5	-1.4333	-1.7062	-1.4292	-1.7687	-1.6771	-1.3875	-1.7896	-1.5458	42.053	24.900	197.256	89.718	231.499	-62.570	-95.398	179.461	183.848	101.233	209.808	233.960	199.128	-100.556	143.465	60.840	0.00012793	0.00040512	0.0001466	378.16	1.3559e-06	2.9677e-06	547.63	112.43	1.7245e-06	5.698e-06	200.49	65.985	27.607	9.4307	1.4837e-06	29.525	0.00029003	0.00028084	8.3334e-05	384.14	3.1728e-06	3.0861e-06	548.52	115.15	3.1851e-06	3.0656e-06	202.38	67.689	29.649	10.117	3.3559e-06	29.953	189.890	7.922	235.320	-96.633	120.585	-6.778	-96.502	-92.026	23.088	29.811	-92.283	-87.423	-88.484	-81.126	-22.865	-81.760	-8191	255	
3292.313	1	1	0	0	0.1863	0.33424	0.15935	0.079561	0.17101	0.055506	0.20868	0.06154	0.15391	0.084717	0.083491	0.21367	0.13241	0.094734	0.37472	0.045088	-1.1792	-1.925	-1.5083	-1.7708	-1.6646	-1.4042	-1.9396	-1.4542	-1.4312	-1.7229	-1.5542	-1.5146	-1.6583	-1.4854	-1.7229	-1.7167	-107.750	105.893	-90.593	-43.135	135.556	38.162	179.511	-94.639	248.575	158.147	161.937	-23.564	248.540	-56.582	103.347	220.113	0.00012408	0.00011288	0.00016149	377.13	2.9938e-06	8.9093e-07	542.83	112.24	1.2446e-06	1.2269e-06	200.97	65.613	27.516	9.426	2.1705e-06	29.324	0.00028142	0.00028067	8.6022e-05	382.51	3.0854e-06	3.1283e-06	548.43	114.63	3.0838e-06	3.0941e-06	202.19	66.985	29.398	10.066	3.3994e-06	29.545	173.391	29.438	-34.927	-96.617	21.576	211.616	-97.019	-92.091	186.695	-81.742	-92.277	-87.401	-88.512	-80.991	-45.280	-81.819	-8191	255	
3292.434	1	1	0	0	0.15322	0.13752	0.17684	0.30661	0.061092	0.1685	0.15226	0.3194	0.23347	0.3052	0.15489	0.046661	0.17924	0.097074	0.074542	0.18377	-1.1458	-1.6521	-1.6938	-1.6583	-1.8021	-1.4562	-1.8146	-1.6021	-1.3646	-1.7	-1.5167	-1.5646	-1.8875	-1.6	-1.7313	-1.65	101.973	147.542	165.678	114.814	96.293	78.928	203.923	-49.304	134.883	-3.304	180.365	213.712	153.860	63.735	180.634	-73.623	0.00015839	0.0001382	0.00016648	377.66	3.7141e-06	9.7043e-07	544.47	113.03	5.9525e-07	4.9433e-06	200.33	65.963	27.649	9.4371	2.0826e-06	29.116	0.00028061	0.00028793	8.707e-05	382.41	3.0827e-06	3.2136e-06	549.2	115.21	3.0471e-06	3.2195e-06	202.21	67.031	29.562	10.095	3.4238e-06	29.463	188.588	98.861	-12.091	-96.738	-55.273	-82.166	-96.522	-92.098	97.808	92.389	-92.407	-87.926	-87.965	-80.761	230.277	-81.997	-8191	255	
3292.528	1	1	0	0	0.51432	0.053824	0.27415	0.099874	0.24314	0.21744	0.3661	0.25963	0.12167	0.17475	0.13172	0.074236	0.14774	0.31569	0.28844	0.33559	-1.0021	-1.9083	-1.5917	-1.4188	-1.7979	-1.5812	-1.7458	-1.6646	-1.4521	-1.8771	-1.5958	-1.4167	-1.8188	-1.3312	-1.7604	-1.8479	-66.349	240.644	229.498	161.568	208.383	224.074	-40.776	42.971	-18.940	70.894	233.463	-13.283	41.259	103.175	194.136	184.062	0.00010498	0.00035844	4.9192e-05	378.81	1.2562e-06	1.3609e-06	545.4	112.62	1.334e-06	2.416e-06	200.62	66.021	27.672	9.4975	4.4735e-06	29.406	0.00027801	0.0003007	8.5552e-05	383.56	3.0732e-06	3.3803e-06	549	115.14	3.1221e-06	3.3587e-06	201.75	67.232	29.517	10.187	3.3061e-06	29.685	180.857	14.247	-85.735	-96.662	81.187	6.888	-96.514	-92.227	53.259	-76.071	-92.699	-87.626	-87.779	-81.560	-24.987	-81.954	-8191	255	
3292.625	1	1	0	0	0.14649	0.41844	0.092117	0.11237	0.10896	0.028641	0.17036	0.31744	0.22308	0.09171	0.059375	0.073326	0.080962	0.080445	0.14576	0.20826	-0.95	-1.9104	-1.7812	-1.4521	-1.7292	-1.6063	-1.6375	-1.9104	-1.6083	-1.8667	-1.5979	-1.3667	-1.7479	-1.3979	-1.5417	-1.9854	244.626	-43.429	106.620	162.871	-75.677	219.690	152.815	241.773	174.552	107.698	162.456	138.017	152.624	15.818	95.199	211.423	0.00014852	0.00019903	0.00018087	376.44	2.5356e-06	2.6498e-06	546.4	112.34	1.6547e-06	3.4015e-06	200.91	66.438	27.663	9.5434	4.2742e-06	29.552	0.00028212	0.00030557	8.2309e-05	382.62	3.0847e-06	3.4234e-06	549.12	114.74	3.1653e-06	3.3827e-06	202.25	67.494	29.757	10.257	3.2353e-06	29.83	173.689	27.961	-78.278	-96.217	85.616	89.713	-96.281	-91.934	247.791	81.004	-92.827	-87.833	-87.978	-81.199	-19.197	-81.759	-8191	255	
3292.721	1	1	0	0	0.36097	0.16476	0.22985	0.40555	0.19515	0.14572	0.028704	0.14863	0.075654	0.10094	0.31812	0.059807	0.064809	0.10774	0.1492	0.11583	-0.98333	-1.625	-1.7167	-1.3396	-1.6354	-1.5854	-1.7104	-1.9792	-1.3979	-1.9396	-1.8438	-1.5083	-1.7563	-1.6229	-1.5438	-1.8438	-42.124	78.834	6.107	190.356	-44.222	115.741	182.735	131.757	11.636	51.278	185.086	117.325	193.154	200.991	40.440	-97.406	0.00012308	0.00014845	8.7943e-05	377.09	1.9906e-06	2.4966e-06	545.9	113.27	1.8665e-06	4.8925e-06	199.57	65.951	27.814	9.5763	9.1501e-07	29.636	0.00029059	0.00030905	8.1025e-05	382.03	3.2943e-06	3.4409e-06	547.44	115.04	3.3311e-06	3.3397e-06	201.04	67.273	29.841	10.271	3.1506e-06	29.842	201.617	-23.948	-73.585	-96.519	-77.343	94.927	-96.801	-92.227	117.620	-2.326	-92.259	-87.841	-88.341	-81.842	-67.471	-82.185	-8191	255	
3292.817	1	1	0	0	0.26108	0.048252	0.26464	0.065597	0.047131	0.075217	0.070236	0.053445	0.13581	0.075388	0.14065	0.27294	0.37924	0.28126	0.11717	0.16413	-0.88958	-1.5542	-1.6771	-1.5083	-1.7729	-1.6375	-1.8271	-2.0417	-1.6146	-1.8813	-1.725	-1.4271	-1.6708	-1.6979	-1.4729	-1.9958	112.978	160.614	204.120	155.518	-6.336	-54.752	-72.698	206.632	69.889	-15.476	-86.346	175.407	-26.636	59.543	241.668	213.581	0.00012709	0.00037532	2.5886e-05	377.49	1.7043e-06	5.3037e-06	540.93	112.35	8.1689e-07	2.6065e-06	200.12	66.231	27.823	9.633	2.0116e-06	29.645	0.00030507	0.00030378	7.9876e-05	382.1	3.3719e-06	3.3396e-06	544.31	114.53	3.4321e-06	3.2835e-06	201.3	67.301	29.957	10.298	3.1514e-06	29.972	194.115	-48.100	-103.117	-96.484	117.850	-5.342	-96.454	-91.818	-77.635	49.505	-92.610	-87.668	-87.788	-81.586	50.268	-81.424	-8191	255	
3292.913	1	1	0	0	0.087074	0.20464	0.13182	0.30563	0.053681	0.15274	0.14858	0.086606	0.18637	0.16526	0.11251	0.24155	0.050993	0.13429	0.096829	0.37389	-1.0479	-1.7021	-1.8937	-1.35	-1.6333	-1.4917	-1.6833	-1.7354	-1.3208	-1.65	-1.8125	-1.5104	-1.6229	-1.7771	-1.2812	-1.6854	15.589	-40.125	62.521	-8.437	199.886	44.524	70.395	157.882	-73.586	133.987	-90.303	153.850	-63.528	146.997	-94.148	218.622	0.00016077	0.00032887	0.00019476	376.87	3.6945e-06	2.3617e-06	542.47	112.79	1.5509e-06	3.8282e-06	202.09	66.103	28.142	9.7216	2.168e-06	29.826	0.00031041	0.0002923	7.8306e-05	381.84	3.4343e-06	3.226e-06	546.03	115.18	3.401e-06	3.2088e-06	202.27	67.82	30.164	10.281	3.1572e-06	30.223	206.500	239.884	-39.776	-96.631	-8.623	39.299	-96.453	-92.366	26.038	-7.263	-92.206	-87.638	-87.607	-81.346	-43.525	-81.519	-8191	255	
3293.009	1	1	0	0	0.12222	0.11119	0.12192	0.2676	0.060545	0.23403	0.098984	0.26727	0.16534	0.12356	0.39166	0.27066	0.16747	0.088575	0.2431	0.20293	-1.0354	-1.3708	-1.75	-1.45	-1.5438	-1.5979	-1.4042	-1.7729	-1.6187	-1.6292	-1.6708	-1.3521	-1.6896	-1.9208	-1.2729	-1.775	-92.130	123.885	195.067	222.250	6.003	79.723	-12.397	-10.104	-100.262	109.234	63.881	-64.824	197.604	141.227	61.744	190.498	0.00014437	0.00046037	5.5042e-05	376.73	3.4731e-06	4.6269e-06	547.05	114.01	2.0684e-06	2.9701e-06	201.34	66.083	28.14	9.6016	1.0519e-06	29.529	0.00031199	0.00029194	7.8191e-05	384.28	3.3907e-06	3.208e-06	550.82	116.35	3.383e-06	3.1964e-06	202.47	67.852	30.027	10.215	3.1547e-06	29.949	200.363	-31.092	25.999	-96.570	28.976	9.723	-96.403	-92.210	12.150	30.643	-92.290	-87.671	-87.765	-81.262	72.649	-81.866	-8191	255	
3293.130	1	1	0	0	0.080281	0.12406	0.021563	0.10654	0.20794	0.07691	0.2663	0.064677	0.11684	0.1419	0.14281	0.09582	0.33708	0.17695	0.20958	0.10322	-1.2229	-1.3417	-1.825	-1.5125	-1.6104	-1.6208	-1.5021	-1.6917	-1.4875	-1.2792	-1.8271	-1.6208	-1.4229	-1.7104	-1.4104	-1.5917	235.562	-77.657	185.508	-22.117	82.568	200.817	199.146	-54.934	158.383	28.448	145.817	232.052	-79.161	194.215	129.168	73.696	0.00014433	0.00056009	0.00014375	380.26	2.8304e-06	3.4736e-06	545.64	114.17	3.8433e-06	4.3435e-06	200.07	65.861	27.952	9.5803	3.212e-06	29.217	0.00029582	0.00028835	7.9298e-05	386.46	3.2782e-06	3.1405e-06	549.7	116.86	3.2533e-06	3.1197e-06	201.94	67.517	29.929	10.161	3.2828e-06	29.632	214.739	9.037	-7.932	-96.721	55.093	-64.286	-96.528	-91.995	-15.193	44.298	-92.287	-88.094	-88.129	-80.973	-54.245	-81.895	-8191	255	
3293.226	1	1	0	0	0.21042	0.22519	0.099065	0.22764	0.13033	0.19853	0.097562	0.1325	0.098002	0.29724	0.1205	0.25154	0.061035	0.072565	0.15131	0.031253	-1.2313	-1.2333	-1.8188	-1.3813	-1.6104	-1.85	-1.5083	-1.4292	-1.6208	-1.5792	-1.6604	-1.5708	-1.3083	-1.8271	-1.4271	-1.6854	180.479	239.983	132.502	221.909	143.957	76.413	-56.904	-40.255	159.296	-108.513	137.479	244.858	150.990	165.928	14.005	-56.903	0.00014752	0.00013203	0.00012918	381.49	4.5647e-07	3.6797e-06	545.51	114	1.683e-06	1.4013e-06	200.77	66.045	27.975	9.4808	2.1568e-06	29.132	0.000289	0.00028496	8.307e-05	387.24	3.2263e-06	3.1144e-06	551.25	116.67	3.2221e-06	3.0962e-06	202.84	67.473	29.935	10.122	3.4234e-06	29.544	194.219	54.629	214.800	-96.417	-76.087	-36.183	-96.456	-91.763	29.371	2.411	-92.225	-87.559	-87.958	-81.260	89.159	-81.972	-8191	255	
3293.322	1	1	0	0	0.088768	0.1734	0.23071	0.15573	0.16116	0.091561	0.33291	0.021523	0.19214	0.23333	0.086768	0.1081	0.15085	0.13084	0.2189	0.066044	-1.1021	-1.3792	-1.5417	-1.6	-1.5063	-1.9208	-1.4646	-1.7042	-2.0125	-1.3958	-1.8563	-1.4625	-1.5208	-1.6979	-1.5604	-1.7188	52.592	134.223	4.923	10.336	-28.275	-49.847	228.334	111.642	-27.019	228.258	74.873	-52.972	240.166	89.658	-22.313	139.793	0.00013574	0.00034755	0.00012926	386.58	1.7306e-06	3.4786e-06	550.23	114.72	1.5985e-06	1.0392e-06	202.84	66.023	28.06	9.5328	1.1144e-06	29.059	0.00028757	0.00028533	8.6418e-05	389.73	3.1608e-06	3.1527e-06	553.21	117.32	3.1812e-06	3.1355e-06	203.93	67.406	29.961	10.126	3.4943e-06	29.551	191.088	-68.013	40.310	-96.878	-99.749	-3.602	-96.850	-92.038	48.321	98.342	-92.437	-87.910	-87.673	-81.161	125.216	-81.651	-8191	255	
3293.418	1	1	0	0	0.24397	0.23085	0.098469	0.086072	0.10875	0.15103	0.16418	0.094345	0.163	0.19804	0.031764	0.33577	0.29904	0.11957	0.14708	0.10883	-1.4688	-1.225	-1.9375	-1.5458	-1.4417	-1.7896	-1.5604	-1.5896	-1.7938	-1.4021	-1.6583	-1.6146	-1.4562	-1.9125	-1.6146	-1.675	94.150	-39.955	59.137	205.711	248.856	216.927	199.735	104.642	-68.879	230.102	127.084	-45.863	165.686	41.552	107.120	-109.474	0.00010116	0.00026823	8.7485e-05	381.55	2.8737e-06	1.9462e-06	548.39	114.8	1.2012e-06	2.5246e-06	201.98	65.898	28.071	9.4386	4.3164e-06	29.051	0.00028519	0.00029186	8.8289e-05	387.97	3.1234e-06	3.2201e-06	552.56	117.01	3.069e-06	3.272e-06	203.5	67.081	29.833	10.102	3.3957e-06	29.37	180.499	-5.825	-74.550	-96.529	55.786	76.933	-96.731	-92.109	7.554	43.819	-92.285	-87.925	-88.350	-81.902	84.815	-82.255	-8191	255	
3293.514	1	1	0	0	0.29514	0.3487	0.29038	0.077171	0.18242	0.17352	0.16718	0.12121	0.40882	0.21001	0.13589	0.18224	0.20357	0.19561	0.063387	0.10582	-1.4646	-1.475	-1.6396	-1.8021	-1.3875	-1.9396	-1.6562	-1.6833	-1.7083	-1.5521	-1.6146	-1.9625	-1.4188	-1.8521	-1.5146	-1.5333	-9.050	177.293	-27.325	-105.842	186.784	176.120	157.163	-101.692	-4.597	-102.525	165.881	41.735	159.564	219.944	111.169	168.631	0.00015424	0.00026583	5.586e-05	383.45	1.1165e-06	1.3361e-06	547.85	114.29	2.4116e-06	9.3204e-07	199.57	65.534	27.736	9.3235	3.3866e-06	28.96	0.00027782	0.00030489	8.5455e-05	387.2	3.0941e-06	3.3604e-06	551.79	116.61	3.0863e-06	3.375e-06	202.32	66.696	29.666	10.072	3.3051e-06	29.191	181.657	-0.929	-63.189	-96.628	-4.469	89.855	-96.564	-91.694	51.434	68.388	-92.548	-87.702	-87.937	-81.527	-3.543	-81.768	-8191	255	
3293.611	1	1	0	0	0.14441	0.14988	0.20061	0.076897	0.21167	0.14025	0.24177	0.22437	0.26919	0.061814	0.16273	0.16308	0.19092	0.0089582	0.26356	0.25242	-1.4167	-1.4729	-1.4979	-1.7833	-1.4813	-1.7396	-1.6854	-1.5125	-1.8917	-1.3271	-1.7062	-2.0312	-1.525	-1.7437	-1.7146	-1.2896	88.451	207.836	159.400	157.937	193.957	-58.336	171.641	42.095	235.741	-8.670	149.616	85.732	34.503	-26.685	30.284	-18.940	0.00016513	3.6339e-05	6.6089e-05	382.47	2.1388e-06	4.1576e-06	545.29	114.56	2.2943e-06	1.3597e-06	200.67	65.5	27.954	9.3875	1.5689e-06	28.912	0.00028229	0.00031192	8.2831e-05	386.88	3.124e-06	3.4095e-06	549.78	116.67	3.1932e-06	3.4338e-06	202.19	66.587	29.83	10.122	3.2216e-06	29.195	157.843	166.145	9.509	-96.809	-106.129	-23.064	-96.547	-92.173	-63.599	114.342	-92.729	-87.425	-88.582	-81.720	61.670	-81.638	-8191	255	
3293.729	1	1	0	0	0.094452	0.21282	0.19172	0.10019	0.23563	0.26527	0.12681	0.2012	0.041489	0.15109	0.084079	0.036787	0.16927	0.17581	0.27372	0.14955	-1.3792	-1.3271	-1.6771	-1.8854	-1.5333	-2	-1.7229	-1.3729	-1.8917	-1.5854	-1.6229	-1.8042	-1.5771	-1.6042	-1.4958	-1.6354	182.777	-35.614	241.620	5.608	112.329	248.083	-94.894	-40.007	-89.106	167.253	221.742	225.622	247.554	189.077	-6.788	-60.654	0.00015388	0.00018266	0.00016456	380.54	1.4767e-06	5.4722e-06	546.78	113.7	2.5511e-06	5.0555e-06	201.02	65.968	27.949	9.4843	3.5593e-06	29.001	0.00029037	0.00031433	8.2401e-05	385.94	3.2814e-06	3.4276e-06	550.07	116.32	3.3202e-06	3.4155e-06	202.83	66.965	30.089	10.19	3.2104e-06	29.285	204.490	-20.421	-48.532	-96.510	181.283	14.956	-96.536	-91.513	34.451	-48.115	-92.644	-87.871	-87.909	-81.301	-8.902	-81.876	-8191	255	
3293.826	1	1	0	0	0.092427	0.093514	0.25039	0.25388	0.35825	0.22356	0.19119	0.26687	0.24454	0.30659	0.11551	0.20232	0.12584	0.16742	0.068469	0.27689	-1.3521	-1.3583	-1.4167	-1.9458	-1.3042	-1.6583	-1.6271	-1.3813	-1.5688	-1.6083	-1.625	-1.6437	-1.4	-1.525	-1.9104	-1.5	-76.382	-18.960	-54.717	-106.657	134.648	43.980	193.045	179.332	-95.254	200.245	-103.249	237.306	97.242	102.453	58.468	129.188	9.4398e-05	3.7054e-05	0.0001699	383.13	9.4738e-07	4.7408e-06	546.27	113.82	1.3802e-06	2.3855e-06	201.12	65.13	28.074	9.401	1.1754e-06	28.619	0.00030461	0.00030783	7.9499e-05	387.69	3.3987e-06	3.336e-06	550.46	116.74	3.4183e-06	3.2837e-06	202.06	66.639	30.089	10.035	3.1169e-06	29.031	165.720	-40.534	78.356	-96.297	120.127	80.714	-96.746	-92.079	206.419	-30.704	-92.590	-87.803	-88.212	-81.663	203.629	-81.639	-8191	255	
3293.922	1	1	0	0	0.036259	0.27114	0.24691	0.26565	0.20076	0.42046	0.11541	0.19828	0.094276	0.22823	0.28858	0.1994	0.061401	0.049474	0.092171	0.043031	-1.4167	-1.5896	-1.3438	-1.7833	-1.5167	-1.5833	-1.7188	-1.2896	-1.7604	-1.6625	-1.4854	-1.7333	-1.3521	-1.7125	-1.7125	-1.4021	95.237	151.460	105.971	186.699	126.029	174.443	20.738	194.476	178.677	-92.223	154.365	-93.876	193.985	127.838	-102.817	195.458	0.00015295	0.0004211	0.00011307	382.51	4.6023e-06	3.4891e-06	548.86	114.67	2.271e-06	5.8969e-06	200.09	65.105	27.89	9.4117	2.6614e-06	28.599	0.00030953	0.00029294	7.9441e-05	387.7	3.426e-06	3.2092e-06	549.85	116.94	3.4333e-06	3.1515e-06	201.4	66.704	29.99	10.033	3.0805e-06	29.053	162.172	1.372	-33.501	-96.562	79.336	-74.555	-96.472	-91.901	-61.017	12.525	-92.543	-87.862	-88.011	-81.125	55.345	-81.499	-8191	255	
3294.018	1	1	0	0	0.20363	0.15069	0.11202	0.31316	0.19162	0.29854	0.17726	0.12601	0.16301	0.18267	0.10827	0.27432	0.10489	0.18858	0.19827	0.2519	-1.1875	-1.5708	-1.2875	-1.8521	-1.4604	-1.6083	-1.9396	-1.4458	-1.6688	-1.7667	-1.5187	-1.8937	-1.5083	-1.6396	-1.7313	-1.5167	-69.663	211.716	210.237	107.616	63.417	147.378	-28.763	198.893	192.538	181.347	156.042	-106.513	-57.431	-2.098	-35.007	127.697	0.0001303	0.00017548	4.0549e-05	382.83	3.2707e-06	2.696e-06	545.29	113.89	1.6699e-06	3.9825e-07	200.4	65.342	27.867	9.3695	2.8716e-06	28.799	0.00030273	0.00028978	7.8482e-05	388.39	3.3661e-06	3.2173e-06	548.8	117.2	3.3771e-06	3.2042e-06	201.74	66.829	29.931	10.001	3.1479e-06	29.226	167.961	13.665	36.642	-96.421	-19.891	101.921	-96.369	-92.536	101.256	18.831	-92.452	-87.604	-88.179	-81.599	241.771	-81.871	-8191	255	
3294.114	1	1	0	0	0.24036	0.044017	0.16883	0.053698	0.054688	0.077944	0.12289	0.14335	0.27442	0.21934	0.0483	0.15414	0.36145	0.3232	0.13054	0.27045	-1.0625	-1.675	-1.5146	-1.6063	-1.7979	-1.1604	-1.6208	-1.5312	-1.5875	-1.7854	-1.5083	-1.6333	-1.5917	-1.6229	-1.9292	-1.5521	115.157	245.479	-87.540	62.618	-61.379	-45.055	160.036	194.316	63.195	-13.900	59.927	-6.011	-35.198	18.898	-92.080	172.151	5.9855e-05	0.00028443	0.00012876	382.16	3.505e-06	3.0132e-06	546.4	114.58	2.9236e-06	2.432e-06	200.66	65.702	27.603	9.4555	6.3983e-07	29.062	0.00030264	0.00029126	8.1563e-05	388.22	3.3584e-06	3.1888e-06	549.82	117.12	3.3526e-06	3.2144e-06	201.73	67.176	29.72	10.074	3.3021e-06	29.423	171.981	-57.089	-35.126	-96.489	72.698	57.883	-96.287	-92.073	36.636	-76.250	-92.332	-87.739	-87.825	-81.578	128.631	-82.141	-8191	255	
3294.210	1	1	0	0	0.13204	0.10976	0.12846	0.12108	0.31647	0.14534	0.25071	0.21804	0.33484	0.25048	0.17206	0.14311	0.11059	0.23242	0.21328	0.035272	-1.1354	-1.8833	-1.4354	-1.8458	-1.7271	-1.4438	-1.6875	-1.5938	-1.5354	-1.7146	-1.4083	-1.7938	-1.4896	-1.3271	-1.7062	-1.5542	-7.362	78.443	125.128	-70.796	40.436	132.173	155.031	123.816	-31.718	103.521	15.670	215.891	-61.494	114.201	-51.225	122.646	0.0001039	0.00026199	0.00010257	381.81	2.5368e-06	1.5439e-06	547.4	113.76	1.2556e-06	3.822e-06	200.93	65.21	27.508	9.2852	1.2127e-06	28.604	0.00029563	0.00028869	8.4761e-05	387.54	3.2807e-06	3.1942e-06	550.49	116.86	3.2681e-06	3.1289e-06	202.02	66.719	29.673	9.9521	3.422e-06	29.096	170.861	-30.243	-66.816	-96.477	22.620	119.917	-96.687	-91.800	31.220	11.100	-92.442	-87.308	-87.761	-81.269	22.248	-81.887	-8191	255	
3294.306	1	1	0	0	0.14753	0.24766	0.19388	0.26976	0.24866	0.09696	0.29383	0.060645	0.3979	0.011118	0.19494	0.20433	0.22205	0.14126	0.15895	0.28589	-0.92917	-1.8292	-1.3396	-1.7062	-1.5771	-1.3792	-1.75	-1.7042	-1.5208	-1.7188	-1.4917	-1.625	-1.9292	-1.3	-1.6729	-1.6125	100.145	160.206	64.104	-86.273	-60.952	40.126	243.462	98.071	157.945	227.648	12.745	-81.755	217.944	-62.185	51.158	167.712	0.0001543	0.00020457	0.00018654	376.87	2.6865e-06	3.4938e-06	540.27	113.5	3.3389e-06	8.385e-07	201.16	64.561	27.837	9.389	2.2692e-06	28.843	0.00029012	0.00028807	8.7539e-05	385.19	3.235e-06	3.1778e-06	548.75	116.31	3.2376e-06	3.1586e-06	201.97	66.553	29.713	10.005	3.4843e-06	29.215	192.289	126.063	-19.813	-96.423	42.205	50.058	-96.494	-91.847	7.968	-87.782	-92.679	-87.742	-87.831	-81.089	164.771	-81.408	-8191	255	
3294.402	1	1	0	0	0.29702	0.054495	0.31656	0.14063	0.10721	0.079113	0.43482	0.11025	0.10363	0.42029	0.19531	0.15956	0.14937	0.25653	0.094547	0.25966	-0.9125	-1.7667	-1.5396	-1.5896	-1.7167	-1.675	-1.8333	-1.6792	-1.375	-1.9292	-1.7542	-1.5562	-1.7313	-1.5354	-1.8	-1.5125	-40.560	117.873	120.572	160.776	-8.488	-53.964	-98.721	-3.459	33.968	29.148	229.501	-93.426	60.605	161.543	-60.673	-47.208	0.00013865	0.00011736	6.2811e-05	379.42	2.0796e-06	4.2747e-06	547.76	113.65	3.1875e-06	5.8327e-06	201.5	65.834	27.494	9.4558	3.1722e-06	28.977	0.00028768	0.0002933	8.8267e-05	385.96	3.153e-06	3.2706e-06	550.95	116.45	3.1812e-06	3.3389e-06	202.6	66.968	29.612	10.135	3.4953e-06	29.386	196.669	-54.551	84.671	-95.874	-10.056	152.496	-96.066	-92.190	-6.655	9.057	-91.853	-87.426	-86.619	-80.720	-37.756	-81.474	-8191	255	
3294.499	1	1	0	0	0.38655	0.13055	0.076078	0.086873	0.31193	0.049064	0.21032	0.54586	0.22626	0.14995	0.13034	0.23951	0.17052	0.22614	0.37257	0.11617	-0.92917	-1.8458	-1.6521	-1.5479	-1.7229	-1.65	-1.7458	-1.8167	-1.5354	-1.8979	-1.7729	-1.4875	-1.7917	-1.4729	-1.6521	-1.85	-58.574	234.131	153.079	-41.936	176.396	-87.161	-56.376	244.937	-53.376	17.050	199.175	198.704	81.693	153.037	-67.901	-18.995	0.00014622	0.00027845	1.7932e-05	378.48	2.0656e-06	3.8723e-06	547.6	114.57	4.5958e-07	1.9632e-06	201.74	65.854	28.024	9.4435	7.8572e-07	28.95	0.00028722	0.00030939	8.7956e-05	385.89	3.1474e-06	3.4541e-06	551.81	117.05	3.196e-06	3.4537e-06	203.17	67.161	29.99	10.195	3.4271e-06	29.355	187.612	205.394	-42.221	-96.097	33.937	133.887	-96.169	-91.613	208.844	-21.877	-91.769	-87.401	-88.272	-81.065	130.325	-81.657	-8191	255	
3294.618	1	1	0	0	0.10915	0.038286	0.15848	0.15086	0.12495	0.023753	0.10909	0.26973	0.13538	0.1027	0.33594	0.29835	0.1536	0.23044	0.12049	0.28121	-1.0625	-1.6104	-1.5854	-1.375	-1.5271	-1.4604	-1.6396	-1.825	-1.4604	-1.7667	-1.6063	-1.5063	-1.7167	-1.6979	-1.6771	-1.925	130.960	-49.542	229.369	109.885	138.442	195.980	59.127	-94.989	71.865	241.753	241.621	-93.916	240.774	-81.069	-83.684	214.939	0.00017735	0.00036239	0.00015084	381.29	1.4781e-06	2.231e-06	547.94	114.72	3.0074e-06	5.5575e-06	200.48	65.298	28.229	9.3543	8.6162e-07	28.845	0.00028678	0.00031801	8.6839e-05	387.73	3.2029e-06	3.5439e-06	551.05	116.87	3.2383e-06	3.521e-06	202.22	66.639	30.018	10.185	3.356e-06	29.14	179.891	-89.366	-33.209	-96.186	80.589	-66.380	-96.503	-91.350	-1.530	60.820	-92.030	-87.445	-87.345	-80.785	-29.727	-81.567	-8191	255	
3294.691	1	1	0	0	0.31244	0.23674	0.081277	0.14469	0.12782	0.11705	0.062114	0.32182	0.12688	0.15228	0.10314	0.12803	0.11788	0.25584	0.058201	0.23027	-1.0125	-1.5792	-1.6646	-1.4104	-1.8479	-1.5312	-1.5979	-1.9042	-1.3958	-1.7896	-1.6083	-1.525	-1.7917	-1.6	-1.4292	-1.8771	88.547	-64.280	-72.219	190.852	9.202	91.618	-63.811	177.898	148.016	-25.818	51.780	186.238	39.921	152.856	29.387	177.286	6.402e-05	0.00023563	0.00014137	385.76	6.7139e-07	4.571e-06	548.79	115.18	1.319e-06	4.2668e-06	201.39	65.913	28.264	9.454	6.3753e-06	28.822	0.00030001	0.00032299	8.4308e-05	389.62	3.4283e-06	3.5952e-06	550.61	117.6	3.4691e-06	3.5804e-06	202.8	67.069	30.339	10.221	3.3354e-06	29.222	160.446	-32.124	-4.934	-95.855	42.511	13.400	-95.690	-91.728	224.220	-21.862	-92.026	-87.194	-87.332	-81.379	21.527	-81.479	-8191	255	
3294.810	1	1	0	0	0.1569	0.19039	0.050191	0.44392	0.24221	0.27319	0.11866	0.17684	0.23264	0.33779	0.17741	0.18746	0.077306	0.19154	0.15351	0.22322	-0.96042	-1.8479	-1.5521	-1.5208	-1.8062	-1.5542	-1.5875	-1.8917	-1.4125	-1.6604	-2.0792	-1.3833	-1.7208	-1.8792	-1.5812	-1.9417	83.794	2.835	156.540	170.942	81.150	-4.724	198.100	210.207	138.048	149.613	111.595	13.912	182.454	-26.881	-35.153	139.308	0.00016654	0.00052143	0.00012779	383.48	1.7758e-06	3.2624e-06	549.87	115.82	2.7968e-06	3.4801e-06	202.27	66.136	28.474	9.5225	7.0759e-07	28.992	0.00031563	0.00032353	8.431e-05	389.13	3.5856e-06	3.5536e-06	551.84	118.18	3.6108e-06	3.4808e-06	203.32	67.239	30.583	10.236	3.3471e-06	29.337	180.692	-21.686	-6.402	-96.345	114.091	67.890	-96.064	-92.229	68.173	-28.188	-92.162	-87.744	-87.733	-81.509	79.254	-81.465	-8191	255	
3294.906	1	1	0	0	0.29457	0.1996	0.22431	0.31929	0.21983	0.22268	0.15738	0.1189	0.16381	0.2463	0.13281	0.1295	0.12255	0.061896	0.26084	0.26746	-0.85417	-1.7292	-1.8042	-1.3125	-1.6708	-1.575	-1.425	-1.7917	-1.6833	-1.4875	-1.8521	-1.4625	-1.7583	-1.4854	-1.4708	-1.8312	44.074	51.419	107.185	141.500	191.281	134.077	174.792	-92.413	78.592	-35.939	-27.012	4.606	239.818	69.237	-39.980	166.998	0.00010512	6.3908e-05	3.4684e-05	383.76	2.8144e-06	1.6575e-06	547.36	114.64	2.3309e-06	2.266e-06	201.81	65.795	27.964	9.4654	2.5876e-06	28.795	0.00032763	0.00031466	8.4321e-05	389.08	3.6295e-06	3.4463e-06	550.02	117.78	3.6438e-06	3.3965e-06	202.73	67.225	30.284	10.162	3.2872e-06	29.322	192.342	3.913	-14.419	-96.667	13.851	132.200	-96.793	-92.053	-10.180	239.015	-92.522	-87.696	-88.223	-81.525	114.084	-81.750	-8191	255	
3295.002	1	1	0	0	0.20388	0.13971	0.14616	0.090172	0.28266	0.1062	0.16784	0.2822	0.23793	0.23135	0.16348	0.0072534	0.12621	0.20349	0.16206	0.069296	-0.99583	-1.5562	-1.5583	-1.5021	-1.6708	-1.8833	-1.3604	-1.8292	-1.475	-1.7	-1.7771	-1.4854	-1.6854	-1.75	-1.4396	-1.8396	0.061	234.373	41.130	80.291	117.506	182.027	-82.549	-90.285	132.804	142.240	188.447	219.702	194.871	172.906	-79.472	237.640	0.00018994	0.00020016	0.0001646	380.02	3.808e-06	1.8586e-06	544.76	114.45	1.7345e-06	3.2007e-06	199.87	65.339	27.964	9.4653	3.7898e-06	28.835	0.00031948	0.00030642	8.1299e-05	388.31	3.5326e-06	3.3098e-06	548.62	117.6	3.5428e-06	3.3474e-06	201.96	67.24	30.235	10.193	3.3454e-06	29.613	191.442	-19.375	-83.594	-96.230	-24.665	176.672	-96.542	-92.412	97.029	83.637	-92.277	-87.556	-88.096	-81.634	0.334	-81.927	-8191	255	
3295.098	1	1	0	0	0.13865	0.13544	0.10625	0.17227	0.30408	0.32163	0.090419	0.30857	0.1871	0.22259	0.22026	0.23743	0.22985	0.14918	0.13147	0.20107	-1.1417	-1.4854	-1.8271	-1.3042	-1.8	-1.6708	-1.4625	-1.9688	-1.4958	-1.4333	-1.7938	-1.4479	-1.3875	-1.7313	-1.4062	-1.8458	84.039	174.241	130.416	191.018	83.872	187.778	223.499	-72.395	-52.414	-11.400	128.635	210.008	55.684	9.608	135.230	173.758	0.00018488	0.00032447	1.8784e-05	379.2	1.503e-06	1.6981e-06	542.9	113.92	4.2393e-07	3.27e-06	200.55	65.484	27.723	9.3885	1.4457e-06	29.38	0.00031853	0.00030647	8.5616e-05	387.76	3.5027e-06	3.3094e-06	548.48	116.97	3.474e-06	3.3146e-06	201.42	67.293	29.826	10.092	3.3696e-06	29.784	213.721	11.306	72.685	-96.367	25.703	-50.636	-96.369	-92.007	89.076	-9.560	-92.567	-87.966	-87.406	-81.509	-67.619	-81.641	-8191	255	
3295.219	1	1	0	0	0.069627	0.28129	0.23797	0.1425	0.12934	0.14461	0.19763	0.19361	0.012987	0.29599	0.15403	0.11789	0.26286	0.087672	0.14073	0.14933	-1.2396	-1.4542	-1.625	-1.4958	-1.3896	-1.8583	-1.4875	-1.7771	-1.5104	-1.2938	-1.8833	-1.3521	-1.3167	-1.9375	-1.4292	-1.7021	105.083	-97.290	84.086	-28.744	203.663	-61.981	120.933	137.145	24.788	178.762	92.696	-11.806	192.378	-30.306	182.242	235.755	0.00018938	8.2024e-05	8.0103e-05	376.76	5.9197e-06	3.8939e-06	542.66	114.47	2.3316e-06	1.8986e-06	201.99	66.312	28.019	9.5664	3.3443e-06	29.69	0.00030183	0.00029738	8.6358e-05	385.52	3.3925e-06	3.2641e-06	547.96	116.7	3.3947e-06	3.3106e-06	203.5	67.861	30.146	10.258	3.551e-06	30.148	169.663	170.729	36.853	-96.426	20.083	-61.076	-96.391	-92.211	27.750	85.329	-91.953	-87.669	-87.616	-81.075	194.684	-81.684	-8191	255	
3295.315	1	1	0	0	0.15686	0.23304	0.034828	0.14758	0.12922	0.04161	0.11383	0.17643	0.068676	0.21843	0.19552	0.15782	0.22753	0.25278	0.19487	0.14659	-1.1688	-1.6229	-1.6708	-1.5688	-1.5792	-1.725	-1.5333	-1.6125	-1.5271	-1.525	-1.7938	-1.6833	-1.4125	-1.775	-1.5333	-1.7396	-21.707	103.380	-58.661	13.807	78.240	-95.549	131.682	30.907	29.776	9.029	177.206	202.553	249.588	138.361	-90.213	72.971	0.00010802	0.00014349	0.00015875	379.29	3.3884e-06	2.6759e-06	546.26	113.58	2.3255e-06	2.0986e-06	200.4	65.822	28.179	9.4189	2.9364e-06	29.377	0.00030267	0.00030043	9.1179e-05	386.01	3.3481e-06	3.2809e-06	550.19	116.3	3.3381e-06	3.3278e-06	202.67	67.513	30.012	10.154	3.6266e-06	29.696	174.878	40.143	-95.627	-96.674	103.240	10.815	-96.445	-91.900	-13.556	9.362	-92.127	-87.234	-87.551	-80.725	83.310	-81.406	-8191	255	
3295.411	1	1	0	0	0.10491	0.15555	0.13584	0.12603	0.027832	0.22006	0.17905	0.12704	0.15662	0.2107	0.15385	0.095583	0.117	0.27898	0.18932	0.30569	-1.4312	-1.4417	-1.6854	-1.7042	-1.4792	-1.6521	-1.5583	-1.6979	-1.7042	-1.5667	-1.6646	-1.5729	-1.2104	-1.9292	-1.3833	-1.6646	119.280	21.305	24.609	-19.696	12.347	-67.261	88.903	148.354	44.004	230.977	164.619	-83.476	-78.915	90.963	52.987	168.950	4.9161e-05	4.678e-05	0.00012426	377.85	1.4181e-06	1.429e-06	543.4	114.11	2.0633e-06	1.1732e-07	199.64	65.637	27.974	9.4786	2.5302e-06	29.155	0.00029962	0.00030703	9.2152e-05	386.33	3.3399e-06	3.4405e-06	550.48	116.94	3.3098e-06	3.4354e-06	203.3	67.322	30.128	10.253	3.6756e-06	29.655	184.243	142.077	26.088	-96.579	61.364	-19.504	-96.540	-91.982	180.912	113.070	-92.622	-87.493	-88.055	-81.248	32.269	-81.400	-8191	255	
3295.507	1	1	0	0	0.12842	0.16517	0.11945	0.1457	0.15589	0.17142	0.2345	0.073506	0.063515	0.2977	0.33245	0.23121	0.23759	0.046483	0.064006	0.12543	-1.4167	-1.4479	-1.6729	-1.6375	-1.3604	-1.8188	-1.5854	-1.6021	-1.8229	-1.5667	-1.7708	-1.6	-1.4646	-1.8917	-1.5063	-1.4521	176.291	99.737	29.642	78.883	220.935	18.487	-65.243	201.938	25.895	121.486	114.594	12.061	-11.564	43.710	206.995	-22.359	0.00016963	0.00020324	0.00012728	381.28	2.2602e-06	2.9972e-06	545.37	115.26	2.1039e-06	3.6352e-06	200.59	65.635	28.063	9.393	2.2416e-06	29.068	0.00030254	0.00032274	9.3999e-05	387.74	3.3106e-06	3.5698e-06	551.94	117.32	3.3219e-06	3.5712e-06	203.54	67.277	30.114	10.207	3.5242e-06	29.426	190.158	53.344	1.840	-96.378	100.788	234.255	-96.041	-92.046	112.595	-10.200	-92.510	-88.168	-87.722	-81.459	43.870	-81.631	-8191	255	
#DATA ENDS
