BOXY.EXE: ISS Imagent and Oximeter Data Acquisition Program Version 0.80
Ascii Record File

#ACQ INFORMATION
2  Detector Channels 
16  External MUX Channels 
1  Auxiliary Channels 
5000  Waveform (CCF) Frequency (Hz)
1  Waveforms Skipped 
30  Waveforms Averaged 
1  Cycles Averaged 
16  Acquisitions per Waveform 
10.0806  Updata Rate (Hz) 

#FILE INFORMATION
TRUE -- External MUX Channel results are PARSED.
FALSE -- AC DC and Phase are NOT grouped.
TRUE -- Companion Program Settings File CREATED.
FALSE -- AC data not excluded
FALSE -- DC data not excluded
FALSE -- Phase data not excluded
FALSE -- Auxillary Chn. data not excluded
Tab delimiters

#CALIBRATION STATE
TRUE -- Waveform Calibration Values APPLIED.


#AUX CALIBRATION VALUES
Val Type	aux-1	

Term	1.0000e+00	
Factor	0.0000e+00	


#WF CALIBRATION VALUES
A = Detector Channel
Val Type	A-AC1	A-AC2	A-AC3	A-AC4	A-AC5	A-AC6	A-AC7	A-AC8	A-AC9	A-AC10	A-AC11	A-AC12	A-AC13	A-AC14	A-AC15	A-AC16	A-DC1	A-DC2	A-DC3	A-DC4	A-DC5	A-DC6	A-DC7	A-DC8	A-DC9	A-DC10	A-DC11	A-DC12	A-DC13	A-DC14	A-DC15	A-DC16	A-Ph1	A-Ph2	A-Ph3	A-Ph4	A-Ph5	A-Ph6	A-Ph7	A-Ph8	A-Ph9	A-Ph10	A-Ph11	A-Ph12	A-Ph13	A-Ph14	A-Ph15	A-Ph16	

Term	0.00000e+00	0.00000e+00	0.00000e+00	0.00000e+00	0.00000e+00	0.00000e+00	0.00000e+00	0.00000e+00	0.00000e+00	0.00000e+00	0.00000e+00	0.00000e+00	0.00000e+00	0.00000e+00	0.00000e+00	0.00000e+00	0.00000e+00	0.00000e+00	0.00000e+00	0.00000e+00	0.00000e+00	0.00000e+00	0.00000e+00	0.00000e+00	0.00000e+00	0.00000e+00	0.00000e+00	0.00000e+00	0.00000e+00	0.00000e+00	0.00000e+00	0.00000e+00	0.00000e+00	0.00000e+00	0.00000e+00	0.00000e+00	0.00000e+00	0.00000e+00	0.00000e+00	0.00000e+00	0.00000e+00	0.00000e+00	0.00000e+00	0.00000e+00	0.00000e+00	0.00000e+00	0.00000e+00	0.00000e+00	
Factor	1.00000e+00	1.00000e+00	1.00000e+00	1.00000e+00	1.00000e+00	1.00000e+00	1.00000e+00	1.00000e+00	1.00000e+00	1.00000e+00	1.00000e+00	1.00000e+00	1.00000e+00	1.00000e+00	1.00000e+00	1.00000e+00	1.00000e+00	1.00000e+00	1.00000e+00	1.00000e+00	1.00000e+00	1.00000e+00	1.00000e+00	1.00000e+00	1.00000e+00	1.00000e+00	1.00000e+00	1.00000e+00	1.00000e+00	1.00000e+00	1.00000e+00	1.00000e+00	X	X	X	X	X	X	X	X	X	X	X	X	X	X	X	X	

B = Detector Channel
Val Type	B-AC1	B-AC2	B-AC3	B-AC4	B-AC5	B-AC6	B-AC7	B-AC8	B-AC9	B-AC10	B-AC11	B-AC12	B-AC13	B-AC14	B-AC15	B-AC16	B-DC1	B-DC2	B-DC3	B-DC4	B-DC5	B-DC6	B-DC7	B-DC8	B-DC9	B-DC10	B-DC11	B-DC12	B-DC13	B-DC14	B-DC15	B-DC16	B-Ph1	B-Ph2	B-Ph3	B-Ph4	B-Ph5	B-Ph6	B-Ph7	B-Ph8	B-Ph9	B-Ph10	B-Ph11	B-Ph12	B-Ph13	B-Ph14	B-Ph15	B-Ph16	

Term	0.00000e+00	0.00000e+00	0.00000e+00	0.00000e+00	0.00000e+00	0.00000e+00	0.00000e+00	0.00000e+00	0.00000e+00	0.00000e+00	0.00000e+00	0.00000e+00	0.00000e+00	0.00000e+00	0.00000e+00	0.00000e+00	0.00000e+00	0.00000e+00	0.00000e+00	0.00000e+00	0.00000e+00	0.00000e+00	0.00000e+00	0.00000e+00	0.00000e+00	0.00000e+00	0.00000e+00	0.00000e+00	0.00000e+00	0.00000e+00	0.00000e+00	0.00000e+00	-1.39278e+02	-1.18623e+02	-1.35795e+02	-1.82111e+02	-6.77916e+01	-8.69060e+01	-1.58920e+02	-1.62015e+02	-8.07281e+01	-9.04246e+01	-1.70527e+02	-1.72392e+02	-1.77825e+02	-1.76618e+02	-8.58281e+01	-1.49177e+02	
Factor	2.08840e-05	1.12845e-04	4.51227e-05	1.72743e-01	1.01973e-06	1.29749e-06	1.94666e-01	5.53233e-02	1.05499e-06	1.31565e-06	9.43069e-02	3.35196e-02	2.78317e-02	9.88634e-03	1.30373e-06	1.45576e-02	1.37347e-06	1.43500e-06	4.00220e-07	8.51377e-02	1.56614e-08	1.57660e-08	8.99492e-02	2.72962e-02	1.56928e-08	1.57274e-08	4.45325e-02	1.58891e-02	1.37582e-02	4.84121e-03	1.57627e-08	6.86061e-03	X	X	X	X	X	X	X	X	X	X	X	X	X	X	X	X	



#DISTANCE SETTINGS
A = Detector Channel
A-1	A-2	A-3	A-4	A-5	A-6	A-7	A-8	A-9	A-10	A-11	A-12	A-13	A-14	A-15	A-16	

2.5000e+00	3.0000e+00	2.5000e+00	3.0000e+00	2.0000e+00	3.0000e+00	1.5000e+00	3.0000e+00	3.0000e+00	3.0000e+00	3.0000e+00	3.0000e+00	3.0000e+00	3.0000e+00	1.5000e+00	3.0000e+00	

B = Detector Channel
B-1	B-2	B-3	B-4	B-5	B-6	B-7	B-8	B-9	B-10	B-11	B-12	B-13	B-14	B-15	B-16	

1.0000e+01	1.0000e+01	1.0000e+01	1.4400e+00	1.0000e+01	1.0000e+01	1.5100e+00	1.9400e+00	1.0000e+01	1.0000e+01	1.9900e+00	2.4900e+00	2.4100e+00	2.9000e+00	1.0000e+01	2.9800e+00	




#DATA BEGINS
time	group	step	mark	flag	A-AC1	A-AC2	A-AC3	A-AC4	A-AC5	A-AC6	A-AC7	A-AC8	A-AC9	A-AC10	A-AC11	A-AC12	A-AC13	A-AC14	A-AC15	A-AC16	A-DC1	A-DC2	A-DC3	A-DC4	A-DC5	A-DC6	A-DC7	A-DC8	A-DC9	A-DC10	A-DC11	A-DC12	A-DC13	A-DC14	A-DC15	A-DC16	A-Ph1	A-Ph2	A-Ph3	A-Ph4	A-Ph5	A-Ph6	A-Ph7	A-Ph8	A-Ph9	A-Ph10	A-Ph11	A-Ph12	A-Ph13	A-Ph14	A-Ph15	A-Ph16	B-AC1	B-AC2	B-AC3	B-AC4	B-AC5	B-AC6	B-AC7	B-AC8	B-AC9	B-AC10	B-AC11	B-AC12	B-AC13	B-AC14	B-AC15	B-AC16	B-DC1	B-DC2	B-DC3	B-DC4	B-DC5	B-DC6	B-DC7	B-DC8	B-DC9	B-DC10	B-DC11	B-DC12	B-DC13	B-DC14	B-DC15	B-DC16	B-Ph1	B-Ph2	B-Ph3	B-Ph4	B-Ph5	B-Ph6	B-Ph7	B-Ph8	B-Ph9	B-Ph10	B-Ph11	B-Ph12	B-Ph13	B-Ph14	B-Ph15	B-Ph16	aux-1	digaux	

2343.748	1	1	0	256	0.25004	0.30006	0.065363	0.11996	0.057047	0.10003	0.47194	0.29917	0.12682	0.12101	0.14352	0.0918	0.23717	0.1463	0.088755	0.053667	-1.5146	-1.7583	-1.5	-2.1437	-1.8062	-1.7792	-2.2604	-1.6146	-1.9375	-1.9229	-1.6313	-1.9146	-1.5729	-1.7	-2	-1.5792	206.186	198.808	448.222	515.413	256.445	460.948	494.086	215.226	284.273	378.371	524.609	373.609	253.338	212.861	300.048	486.977	0.0010141	0.00060376	0.00027255	885	5.0004e-06	6.4522e-06	1352.9	286.45	6.1194e-06	6.4982e-06	531.05	193.94	82.858	36.813	3.039e-06	106.4	0.00032967	0.00026579	7.033e-05	802.04	3.2014e-06	2.9167e-06	1222.7	259	3.2042e-06	2.8987e-06	475.71	175.16	74.973	33.554	2.721e-06	95.543	184.929	284.085	281.232	188.717	356.602	300.508	188.544	193.071	218.132	356.141	192.995	197.068	197.043	203.627	360.119	202.606	-8191	255	
2343.844	1	1	0	0	0.16434	0.06667	0.1668	0.11322	0.13198	0.17017	0.13485	0.10285	0.17438	0.1355	0.23794	0.16375	0.47174	0.23903	0.16255	0.042859	-1.475	-1.7979	-1.3458	-1.9062	-1.5917	-1.4937	-1.9312	-1.7938	-1.8521	-2.0208	-1.4958	-1.8375	-1.6292	-1.5854	-1.6479	-1.75	507.691	517.515	347.049	419.288	325.479	403.084	414.612	481.805	363.944	525.736	493.277	432.718	451.471	482.737	479.536	365.599	0.0010916	0.00052142	0.00012064	880.18	2.9607e-06	1.1872e-05	1354.9	284.87	2.5197e-06	2.4072e-06	529.53	192.59	80.517	36.05	5.1547e-06	103.8	0.000317	0.00026012	7.0851e-05	798.62	3.082e-06	2.8968e-06	1224.2	258.7	3.0389e-06	2.794e-06	476.64	174.35	73.86	32.84	2.8171e-06	93.809	185.688	262.258	293.026	188.455	333.842	297.790	188.834	193.118	325.794	357.552	192.873	197.387	197.776	203.685	291.617	202.852	-8191	255	
2343.940	1	1	0	0	0.23345	0.17148	0.21158	0.40871	0.20092	0.46758	0.25514	0.12462	0.23311	0.20187	0.12174	0.11013	0.26078	0.13711	0.20462	0.32765	-1.0042	-1.8333	-1.475	-1.7896	-1.8062	-1.5812	-1.9125	-1.5583	-1.4604	-1.9604	-1.4646	-1.9396	-1.8396	-1.6625	-1.9333	-1.9	286.060	462.806	308.334	522.831	222.382	390.271	530.216	227.217	515.021	299.657	203.557	443.976	441.237	350.574	255.767	533.830	0.00088022	0.00042063	0.00017368	874.73	1.9434e-06	2.536e-07	1345.9	282.87	5.4621e-06	8.5894e-06	528.55	191.29	81.219	36.2	2.9668e-06	103.33	0.00030521	0.00025197	7.3462e-05	794.67	2.9559e-06	2.7631e-06	1217	257.49	2.9723e-06	2.7332e-06	473.74	172.88	73.599	32.896	3.1047e-06	93.177	186.667	267.638	202.019	188.715	304.543	298.011	188.615	192.721	344.512	285.964	193.135	197.458	197.099	203.542	313.738	202.880	-8191	255	
2344.061	1	1	0	0	0.1989	0.23398	0.19532	0.24093	0.23893	0.10755	0.10777	0.22041	0.27688	0.37066	0.12377	0.35476	0.085972	0.36459	0.075738	0.17248	-1.2854	-1.8125	-1.5354	-1.975	-1.8271	-1.6812	-2.2042	-1.8104	-1.7313	-1.7375	-1.6271	-1.9438	-1.8896	-1.4	-1.7521	-1.8771	534.343	330.934	477.704	492.508	433.755	462.980	523.763	439.917	183.023	343.197	490.085	521.668	175.836	515.168	357.403	523.557	0.0010589	0.00057165	0.00019555	876.11	3.9797e-06	5.0387e-06	1339.1	282.93	6.1808e-06	1.2514e-05	524.21	189.13	79.9	35.735	5.5407e-06	103.23	0.00030239	0.00024668	7.9828e-05	795.57	2.8847e-06	2.7166e-06	1214.6	255.36	2.8513e-06	2.6503e-06	470.92	171.33	72.627	32.323	3.1973e-06	92.697	186.790	271.489	282.545	188.360	350.780	289.154	188.396	192.937	287.775	314.456	193.480	197.363	197.504	203.992	290.400	203.061	-8191	255	
2344.157	1	1	0	0	0.18845	0.091607	0.1295	0.055284	0.26301	0.17441	0.21836	0.2221	0.050196	0.17222	0.23205	0.17974	0.11238	0.205	0.11111	0.31749	-0.95	-1.8125	-1.3625	-1.5896	-1.8271	-1.4646	-1.7875	-1.6646	-1.4167	-1.8062	-1.6562	-1.9021	-1.8583	-1.7833	-1.8917	-2.0563	527.147	517.148	388.098	271.163	352.099	487.976	458.098	526.990	261.587	270.074	523.993	449.590	276.491	460.813	331.820	469.201	0.0010631	5.9284e-05	0.0002703	873.95	5.6667e-06	6.4622e-06	1342.4	282.38	5.3417e-06	5.5344e-06	525.61	190.33	79.882	35.543	7.4098e-06	103.43	0.00029449	0.00025981	8.2557e-05	793.26	2.7872e-06	2.8358e-06	1216.7	255.31	2.739e-06	2.8335e-06	473.84	171.7	72.658	32.352	3.2535e-06	92.92	178.945	282.400	225.297	188.484	293.396	305.869	188.888	193.146	288.840	339.697	192.949	197.296	197.403	203.788	312.848	202.572	-8191	255	
2344.253	1	1	0	0	0.38544	0.23485	0.077793	0.29723	0.30906	0.13214	0.078522	0.1133	0.17871	0.10245	0.13377	0.056737	0.19127	0.33959	0.16564	0.067446	-1.2542	-1.8354	-1.4354	-1.5458	-1.9854	-1.4833	-2.0167	-1.9771	-1.625	-1.9813	-1.7604	-1.5854	-1.8146	-1.5812	-1.9	-2.0979	215.570	487.947	294.831	499.482	391.545	389.383	498.765	453.379	469.028	243.120	399.985	292.557	331.478	531.705	363.496	420.706	0.0010116	0.00059765	0.00034873	879.95	2.5479e-06	9.0178e-06	1357	283.17	6.4571e-06	8.5748e-06	531.11	194.15	81.327	36.606	8.0766e-06	105.03	0.0002856	0.00027254	8.218e-05	795.77	2.7436e-06	3.084e-06	1228.6	256.91	2.7784e-06	3.2014e-06	477.66	174.78	73.763	33.291	3.176e-06	94.642	188.212	254.200	278.877	188.576	299.435	338.167	188.852	192.961	292.594	327.113	193.111	197.532	197.349	203.512	241.941	202.855	-8191	255	
2344.347	1	1	0	0	0.09375	0.20088	0.085632	0.13185	0.052038	0.033132	0.18186	0.20722	0.11628	0.052919	0.12166	0.14985	0.063977	0.13765	0.14692	0.23888	-1.2292	-1.6562	-1.7542	-1.3917	-1.6688	-1.5375	-1.8104	-1.775	-1.5458	-1.7646	-1.7417	-1.8188	-2.0708	-1.7854	-1.6896	-2.0646	248.010	294.088	386.871	498.985	433.554	534.966	438.553	432.382	529.678	328.844	471.790	258.402	510.632	180.856	372.723	446.615	0.0010228	0.00067694	0.00032972	878.78	2.8519e-06	2.6998e-06	1354.8	283.05	5.9751e-06	4.446e-06	531.6	191.95	80.181	36.477	4.7501e-06	104.72	0.00029172	0.00028867	7.7988e-05	799.02	2.6729e-06	3.2269e-06	1226.8	256.61	2.8232e-06	3.2317e-06	475.34	173.23	73.274	33.221	3.0398e-06	93.958	183.668	250.288	291.852	188.792	338.552	252.145	188.729	193.110	307.550	303.218	193.118	197.483	197.125	203.677	222.939	202.666	-8191	255	
2344.443	1	1	0	0	0.11858	0.17598	0.19895	0.20941	0.096366	0.12639	0.056832	0.092897	0.090488	0.21187	0.29229	0.23344	0.19542	0.055259	0.23931	0.18052	-1.1021	-1.775	-1.8125	-1.6417	-1.875	-1.7687	-1.7771	-1.9146	-1.5021	-2.0146	-2.0292	-1.5333	-2.0771	-1.4792	-1.5229	-2.0812	221.250	519.139	210.403	208.314	395.787	205.358	494.655	221.819	200.844	298.557	457.880	465.481	468.387	471.373	384.597	465.322	0.0010905	0.00041336	0.0001875	873.26	4.7212e-06	7.8577e-06	1349.3	283.06	6.0657e-06	1.1961e-05	527.54	192	80.494	36.35	2.8573e-06	104.6	0.0002943	0.00029514	7.5306e-05	793.67	2.8977e-06	3.2026e-06	1220.7	256.9	3.0372e-06	3.1822e-06	472.93	172.85	73.824	33.085	2.967e-06	93.792	187.768	272.713	254.657	188.809	307.699	299.401	188.498	192.958	247.372	320.867	193.400	197.537	197.526	203.541	299.913	202.517	-8191	255	
2344.540	1	1	0	0	0.22354	0.038726	0.09191	0.23505	0.13147	0.3023	0.12463	0.018459	0.17135	0.13923	0.13152	0.068177	0.10988	0.15119	0.15025	0.11162	-1.1417	-1.7625	-1.8667	-1.8479	-2.0604	-1.7667	-1.6583	-2.2229	-1.3979	-1.8188	-2.0979	-1.6562	-1.9479	-1.5729	-1.4875	-1.8542	285.658	376.429	442.915	484.714	363.488	482.854	313.239	179.500	279.060	534.543	505.181	474.153	344.384	497.386	398.468	335.461	0.00098476	0.00042456	0.00014992	880.68	5.0568e-06	5.6279e-06	1349.2	282.1	4.8643e-06	5.6099e-06	529.68	192.59	80.631	36.326	3.9033e-06	105.2	0.00031464	0.00029143	7.4587e-05	798.22	3.1037e-06	3.1285e-06	1220.1	256.58	3.1831e-06	3.1084e-06	474.88	173.46	73.961	33.185	2.873e-06	94.513	186.957	330.633	272.452	188.638	342.643	311.261	188.605	193.080	261.352	364.073	192.787	197.329	197.717	203.447	310.245	202.910	-8191	255	
2344.660	1	1	0	0	0.18117	0.16193	0.14484	0.35786	0.12905	0.21663	0.15872	0.12878	0.16795	0.092972	0.28496	0.1665	0.12279	0.099195	0.18591	0.183	-1.1729	-1.6417	-1.7417	-1.6375	-1.8125	-1.5396	-1.6562	-2.1479	-1.4854	-1.8417	-2.0583	-1.6708	-1.8438	-1.8729	-1.4833	-1.9625	446.049	480.275	355.999	401.394	495.518	321.552	227.557	234.471	464.061	271.778	464.991	524.731	449.769	313.253	184.970	470.671	0.0010423	0.0009902	0.00012085	876.32	6.6906e-06	3.542e-06	1357.9	283.46	3.3374e-06	1.0217e-05	530.85	193.98	81.685	36.69	6.019e-06	106.66	0.00032373	0.00027903	7.103e-05	795.5	3.2129e-06	2.9675e-06	1223.8	257.6	3.2531e-06	2.9921e-06	476.16	174.55	74.424	33.398	2.7287e-06	95.461	183.714	267.400	274.190	188.571	304.469	309.148	188.761	192.987	272.821	309.897	193.368	197.065	197.727	203.776	278.154	202.732	-8191	255	
2344.756	1	1	0	0	0.27771	0.15145	0.21242	0.18716	0.070967	0.19941	0.45215	0.21106	0.1031	0.11427	0.040845	0.53469	0.31319	0.19599	0.20536	0.18911	-1.3667	-1.45	-1.7667	-1.6271	-1.6583	-2.0083	-1.5896	-1.9958	-1.5104	-1.4521	-1.9958	-1.5479	-1.5667	-1.8396	-1.4125	-1.9375	451.370	190.584	351.427	175.279	462.763	420.186	453.932	499.490	454.900	257.694	241.722	195.433	422.980	469.980	526.958	509.750	0.001008	0.00024859	0.00014441	883.87	4.4661e-06	8.3353e-06	1355.8	284.93	8.7506e-06	5.5659e-06	532.66	193.45	80.775	36.481	2.9347e-06	106.02	0.00032479	0.00027078	6.8252e-05	800.47	3.1626e-06	2.942e-06	1225.4	258.4	3.125e-06	2.8979e-06	476.41	174.28	74.089	33.198	2.6872e-06	95.044	184.784	280.067	218.162	188.449	322.017	328.833	188.618	192.958	258.472	324.415	192.756	197.421	197.725	203.243	224.947	202.634	-8191	255	
2344.852	1	1	0	0	0.11927	0.17302	0.22345	0.049591	0.127	0.15706	0.18521	0.063551	0.076827	0.24174	0.23409	0.10896	0.20997	0.13101	0.18264	0.22052	-1.2396	-1.7646	-1.9125	-1.7479	-1.8771	-1.95	-1.7833	-2.0021	-1.7208	-1.4708	-1.8896	-1.6229	-1.7667	-1.9479	-1.3646	-2.0229	317.386	336.976	504.912	418.167	438.749	344.312	511.837	225.090	197.864	475.170	238.200	198.253	402.444	401.870	217.861	486.959	0.00094843	0.00068532	0.00011672	878.51	5.6695e-06	6.4218e-06	1358.7	281.97	6.7789e-06	8.4376e-06	528.62	191.16	80.868	36.323	3.7868e-06	104.78	0.00031959	0.00026232	6.8833e-05	800.83	3.0326e-06	2.8441e-06	1224.8	257.21	3.0584e-06	2.765e-06	474.06	173.16	73.948	32.951	2.8425e-06	93.851	181.901	279.857	528.749	188.436	311.932	353.698	188.887	193.231	297.795	328.697	193.093	197.458	197.606	203.698	280.231	202.852	-8191	255	
2344.949	1	1	0	0	0.1921	0.16017	0.030021	0.028601	0.15374	0.096188	0.17606	0.082293	0.2054	0.36552	0.13058	0.22632	0.15219	0.1959	0.24759	0.29511	-1.5	-1.5	-1.7667	-1.6667	-1.6688	-2.1333	-1.6083	-1.6854	-1.625	-1.4604	-2.1542	-1.7708	-1.7542	-2.0917	-1.6854	-2.2313	280.405	260.320	233.040	206.767	197.074	338.877	484.144	180.592	216.014	445.352	438.625	513.004	448.102	238.032	358.018	176.988	0.00095628	0.0005682	0.0002515	879.31	4.9287e-06	6.3419e-06	1351.4	284.56	4.2931e-06	5.8976e-06	529.88	192.04	80.514	36.121	2.2399e-06	104.08	0.00030816	0.00025688	7.329e-05	800.4	2.9538e-06	2.7186e-06	1223.3	258	2.9565e-06	2.7022e-06	476.56	173.84	73.696	32.795	3.1035e-06	93.537	188.615	301.258	260.199	188.776	304.116	332.274	189.042	192.929	348.440	298.391	193.232	197.371	197.442	203.924	257.224	202.451	-8191	255	
2345.045	1	1	0	0	0.11969	0.050243	0.05021	0.24712	0.1911	0.090126	0.042383	0.19823	0.1439	0.17382	0.20926	0.24024	0.27251	0.37711	0.17502	0.39421	-1.3458	-1.5292	-2.0208	-1.6083	-1.6875	-1.9146	-1.8104	-1.7938	-1.7	-1.4792	-1.9521	-1.8042	-1.7042	-2.1167	-1.7292	-2.1042	389.913	452.048	374.197	469.672	255.440	384.602	458.149	363.089	457.640	253.965	530.382	535.039	187.923	520.407	217.533	478.782	0.00095727	0.00034318	0.00042649	879.34	9.7185e-06	1.3733e-06	1357.8	283.7	5.7753e-06	1.8333e-06	531.64	192.49	80.185	36.134	1.2176e-05	104.56	0.00029883	0.00024671	7.8234e-05	798.99	2.9104e-06	2.6939e-06	1230	258.31	2.883e-06	2.7461e-06	477.57	173.63	73.407	32.775	3.1659e-06	93.937	185.881	295.403	236.791	188.349	331.224	236.084	188.768	193.213	293.780	268.200	193.357	197.192	197.280	203.850	264.893	202.915	-8191	255	
2345.141	1	1	0	0	0.20291	0.18539	0.18458	0.14472	0.15285	0.1659	0.079066	0.1231	0.19504	0.3361	0.11923	0.1719	0.083854	0.24203	0.16108	0.39279	-1.4271	-1.5063	-2.0729	-1.7979	-1.5104	-1.9896	-1.6792	-1.6792	-2.1063	-1.4813	-2.0021	-1.9062	-1.4292	-1.9083	-1.4521	-1.9125	180.953	522.849	245.983	189.459	195.897	374.827	527.682	408.784	248.832	466.623	501.993	204.895	248.961	206.944	298.025	192.981	0.00090639	0.00065178	0.00037253	880.67	2.056e-06	2.1535e-06	1362.1	284.45	4.7612e-06	6.1258e-06	530.86	194.2	80.584	36.223	4.4037e-06	104.38	0.00029156	0.00025366	8.1562e-05	801.45	2.819e-06	2.7971e-06	1234.2	258.39	2.772e-06	2.829e-06	478.2	174.49	73.472	32.867	3.2445e-06	93.937	186.201	291.048	270.916	188.790	378.765	494.590	188.916	193.081	302.806	250.455	193.253	197.236	197.021	203.278	361.993	203.091	-8191	255	
2345.237	1	1	0	0	0.10048	0.2915	0.044522	0.15126	0.2852	0.20469	0.25291	0.10285	0.15179	0.21236	0.18026	0.30983	0.091101	0.13239	0.30695	0.27336	-1.3521	-1.4667	-2.0021	-1.9896	-1.4292	-2.075	-2.0167	-1.8667	-2.0208	-1.6812	-2.0708	-2.0563	-1.6458	-1.925	-1.8458	-1.7625	366.209	267.556	180.591	515.942	477.085	373.644	493.068	247.846	459.851	283.359	233.363	466.044	306.181	238.627	448.660	499.054	0.0010256	0.00047988	0.00024605	884.8	5.5557e-06	4.776e-06	1353.9	286.33	4.8206e-06	2.8839e-06	533.59	193.28	81.424	36.542	5.2476e-06	105.27	0.00027943	0.00026773	8.0674e-05	800.76	2.6731e-06	2.9806e-06	1229.2	258.88	2.7066e-06	3.0415e-06	478.15	174	73.912	33.293	3.1109e-06	94.588	187.165	226.528	263.580	188.594	319.126	302.098	188.673	193.141	313.310	265.707	193.444	197.129	197.049	203.685	283.889	202.974	-8191	255	
2345.333	1	1	0	0	0.21989	0.37091	0.13961	0.49843	0.072219	0.13344	0.16016	0.25361	0.3783	0.2833	0.27398	0.37171	0.10259	0.046757	0.086451	0.42524	-1.7229	-1.475	-1.8333	-1.9188	-1.6625	-1.9771	-1.8438	-1.5854	-1.8021	-1.3833	-1.7208	-1.8958	-1.3542	-1.8375	-1.5521	-1.6271	274.031	332.706	183.711	434.562	454.719	253.482	449.285	487.173	355.258	224.300	533.043	446.919	494.852	433.559	464.823	187.930	0.0010308	0.00025076	0.00026679	885.65	3.788e-06	5.1343e-06	1360.5	286.3	4.1794e-06	3.4412e-06	531.87	194.48	82.357	36.858	6.462e-06	107.49	0.00028065	0.00028418	7.7305e-05	800.81	2.6452e-06	3.056e-06	1231.6	259.02	2.6353e-06	3.092e-06	477.85	174.88	74.592	33.707	2.8618e-06	96.113	188.494	339.668	266.612	188.503	296.975	298.551	188.785	193.247	280.870	205.932	193.279	197.437	197.209	203.673	340.336	202.584	-8191	255	
2345.452	1	1	0	0	0.2548	0.17068	0.35019	0.20615	0.23744	0.098737	0.257	0.20779	0.13538	0.26821	0.19734	0.18884	0.049566	0.21412	0.10115	0.15616	-1.3042	-1.325	-1.5438	-1.9417	-1.2917	-1.9667	-1.9646	-1.6854	-2.1875	-1.6104	-1.7479	-1.9792	-1.5208	-1.9729	-1.8021	-1.7854	384.355	340.579	419.936	188.125	387.198	393.010	449.328	515.274	422.314	425.327	372.582	519.272	475.800	181.266	285.619	327.043	0.0010979	0.0012119	7.7045e-05	887.49	3.5148e-06	6.7517e-06	1359	287.46	8.0178e-06	9.7733e-06	536.49	195.89	81.556	37.349	5.1344e-06	107.46	0.00027921	0.00027973	7.1699e-05	801.47	2.7022e-06	2.9477e-06	1232.2	259.76	2.6575e-06	2.8456e-06	480.77	175.8	74.591	33.88	2.5345e-06	96.108	185.179	291.565	481.449	188.479	246.538	308.298	188.886	192.987	249.794	301.015	193.101	197.332	197.370	203.545	315.544	202.779	-8191	255	
2345.548	1	1	0	0	0.19519	0.03875	0.12307	0.21671	0.087489	0.13787	0.22343	0.16675	0.082145	0.19945	0.31465	0.19148	0.12864	0.16988	0.19255	0.26173	-1.5938	-1.6229	-1.5812	-2.1646	-1.6583	-1.7833	-2.025	-1.6583	-1.6583	-1.6167	-1.5542	-1.6979	-1.8104	-1.7479	-1.8729	-1.6729	364.770	306.741	297.747	208.262	511.265	342.129	451.114	483.647	287.530	261.154	511.087	486.963	290.116	431.199	393.864	517.041	0.0011055	0.00043952	0.00017545	888.73	5.7706e-06	3.7727e-06	1369	287.9	6.8698e-06	5.584e-06	538.3	198.13	83.284	37.616	3.4554e-06	108.36	0.00027938	0.00025035	6.4337e-05	803.21	2.6855e-06	2.7853e-06	1237.4	260.56	2.7336e-06	2.7126e-06	482.6	177.79	75.464	34.12	2.4567e-06	97.056	185.600	249.918	296.813	188.754	335.726	342.270	188.768	192.818	269.576	340.069	192.983	197.228	197.394	203.552	274.056	203.028	-8191	255	
2345.622	1	1	0	0	0.34816	0.1415	0.20982	0.14972	0.23187	0.15134	0.1979	0.091204	0.35315	0.12752	0.24581	0.02143	0.24201	0.20519	0.091232	0.28895	-1.4646	-1.6479	-1.6292	-2.1208	-1.5438	-1.7896	-1.9104	-1.6521	-1.7104	-1.5333	-1.6375	-1.9562	-1.3896	-1.7896	-1.8667	-1.7042	460.763	305.503	232.904	522.839	238.027	202.680	433.535	448.226	296.581	463.879	481.530	187.946	185.125	393.814	304.595	504.978	0.0010576	0.00076168	0.00021983	888.31	5.004e-06	2.2515e-06	1367.9	287.62	7.7429e-06	5.9905e-06	535.89	196.18	82.412	37.295	5.6724e-06	107.84	0.00029063	0.00024299	6.1053e-05	802.87	2.7528e-06	2.5756e-06	1233.1	260.03	2.794e-06	2.5587e-06	479.11	176.33	75.035	33.841	2.374e-06	96.472	186.549	269.405	331.002	188.858	325.113	271.166	188.597	193.158	270.103	347.339	193.294	197.156	197.427	203.444	266.641	202.487	-8191	255	
2345.741	1	1	0	0	0.12914	0.13241	0.15184	0.16177	0.14858	0.14652	0.27672	0.080777	0.047683	0.15657	0.37881	0.31076	0.18492	0.14141	0.20885	0.34615	-1.2604	-1.8396	-1.4083	-2.0333	-1.5354	-1.6104	-2.1	-1.75	-1.8729	-1.8062	-1.7292	-2.0167	-1.7	-1.85	-2.1	-1.6604	363.084	421.338	460.319	203.692	323.497	519.973	483.511	243.063	196.023	469.836	459.181	520.457	502.534	529.037	409.169	444.246	0.0011018	0.00044673	0.00031398	893.45	3.3069e-06	7.1972e-06	1363.6	288.51	4.3346e-06	2.1318e-06	535.55	195.94	82.134	37.143	3.0062e-06	106.59	0.00028447	0.00023157	5.9499e-05	805.2	2.7688e-06	2.4987e-06	1232.1	259.88	2.7715e-06	2.4955e-06	479.12	175.83	74.819	33.668	2.3528e-06	96.154	186.512	215.668	242.639	188.649	314.757	294.972	188.768	193.147	291.598	264.334	193.025	197.466	197.468	203.959	357.729	202.931	-8191	255	
2345.837	1	1	0	0	0.13693	0.045749	0.22132	0.21061	0.066167	0.1168	0.20096	0.30914	0.20074	0.22941	0.27151	0.24821	0.086128	0.092872	0.098298	0.20444	-1.2917	-1.8396	-1.5958	-1.9917	-1.4833	-1.5417	-2.1521	-1.6625	-1.8542	-1.8958	-1.6917	-1.9208	-1.5729	-1.5667	-1.95	-1.7271	343.218	457.554	326.447	374.533	180.000	387.686	514.446	464.093	286.533	413.499	445.614	489.942	198.801	323.807	351.669	466.204	0.0010304	0.00070035	8.8641e-05	892.24	4.4794e-06	6.5138e-06	1360	288.15	7.3719e-06	7.5805e-06	537.61	197	82.865	37.551	7.1867e-06	108.71	0.00028831	0.0002274	6.0068e-05	806.04	2.7407e-06	2.4781e-06	1232.4	260.88	2.6609e-06	2.4415e-06	481.29	177.11	75.231	33.997	2.4698e-06	97.417	185.931	279.776	279.844	188.609	306.036	294.194	188.722	193.075	299.976	335.319	193.160	197.095	197.703	203.703	335.442	202.818	-8191	255	
2345.933	1	1	0	0	0.19981	0.20896	0.13809	0.11344	0.25898	0.38235	0.45554	0.20528	0.15516	0.22005	0.10418	0.18993	0.23233	0.15594	0.22527	0.43625	-1.1771	-1.8354	-1.4271	-1.8458	-1.7146	-1.4229	-1.8667	-1.7167	-1.6167	-1.8979	-1.5875	-1.9562	-1.8	-1.6271	-1.9333	-1.9458	308.782	236.396	304.444	426.454	391.637	465.944	517.354	187.660	418.749	232.951	534.246	285.596	464.844	441.009	377.214	523.900	0.0011179	0.00039558	0.00013694	887.07	6.88e-06	8.4186e-06	1375.4	291.24	3.1777e-06	8.6662e-06	542.04	198.61	82.856	38.428	5.4985e-06	110.65	0.00027474	0.00021624	6.3313e-05	807.32	2.5754e-06	2.4334e-06	1242.4	262.85	2.6343e-06	2.3409e-06	485.65	179.2	75.588	34.672	2.5972e-06	99.442	189.009	309.446	240.158	188.707	331.990	311.531	188.706	192.943	293.882	306.450	193.099	197.281	197.610	204.003	261.151	202.824	-8191	255	
2346.053	1	1	0	0	0.17058	0.18244	0.21564	0.22648	0.094671	0.11356	0.13216	0.21455	0.08784	0.21461	0.10913	0.19222	0.14405	0.2842	0.18699	0.12201	-1.4771	-1.8271	-1.6625	-2.0271	-1.6313	-1.6208	-2.1958	-1.8667	-1.4562	-1.6854	-1.4562	-1.725	-1.8333	-1.5708	-2.0271	-1.7625	320.728	318.934	357.465	471.458	385.199	421.149	433.259	482.195	349.628	265.958	479.780	508.676	502.649	215.049	191.659	451.472	0.001101	0.00057643	0.00011004	893.17	5.1236e-06	4.1053e-06	1383.7	289.79	4.051e-06	6.7945e-06	543.38	198.01	83.503	38.211	7.6725e-06	109.83	0.00027175	0.00021296	6.8674e-05	809.95	2.578e-06	2.3916e-06	1247.1	263.48	2.5339e-06	2.3302e-06	486.46	178.67	75.719	34.605	2.7766e-06	98.439	185.219	263.405	226.171	188.928	322.623	263.885	189.053	193.153	322.210	293.829	193.280	197.607	197.376	203.854	269.294	202.663	-8191	255	
2346.150	1	1	0	0	0.18686	0.20939	0.28847	0.11767	0.15177	0.10251	0.24471	0.1538	0.16122	0.18134	0.3605	0.051902	0.38386	0.20529	0.20483	0.098144	-1.1896	-1.9042	-1.6021	-1.7667	-1.7563	-1.3479	-1.7958	-1.7167	-1.3	-1.7333	-1.8354	-1.8229	-1.8625	-1.3979	-1.7708	-1.875	355.707	308.037	433.263	252.425	178.317	451.794	518.704	251.041	312.628	504.750	485.522	182.402	475.749	525.275	466.511	224.646	0.0009572	0.00045388	0.00017232	895.13	3.85e-06	4.3429e-06	1369.7	287.95	8.9871e-06	6.7232e-06	540.88	197.62	83.343	38.202	2.2292e-06	109.43	0.00026465	0.00022047	7.1086e-05	808.04	2.4111e-06	2.3878e-06	1239.7	261.57	2.4633e-06	2.5015e-06	483.87	177.84	75.463	34.61	2.8537e-06	98.288	185.972	245.862	226.345	188.620	340.387	297.874	188.476	192.875	277.978	273.068	193.266	197.065	197.322	203.643	248.186	202.696	-8191	255	
2346.221	1	1	0	0	0.15062	0.20405	0.068431	0.23443	0.23597	0.060541	0.10991	0.12422	0.14044	0.1043	0.13392	0.15983	0.2266	0.2299	0.1177	0.12952	-0.87708	-1.8583	-1.375	-1.9333	-2.0187	-1.6333	-2.2167	-1.8687	-1.4875	-2.0292	-1.7417	-1.6812	-2.025	-1.5	-1.7062	-1.9083	242.213	265.324	334.738	390.393	236.797	437.241	470.073	424.825	181.338	534.179	219.339	253.181	426.940	507.546	221.931	497.272	0.0010247	0.00029417	0.0001106	896.88	6.0028e-06	3.8749e-06	1368.5	289.82	2.6756e-06	6.3551e-06	540.17	197.62	83.754	38.092	3.5801e-06	109.59	0.0002583	0.00023213	7.0553e-05	808.44	2.308e-06	2.6081e-06	1239.7	261.88	2.4278e-06	2.5988e-06	484.54	178.01	75.42	34.644	2.7981e-06	98.245	188.495	301.102	517.198	188.527	290.477	228.026	189.021	192.901	312.088	320.701	193.468	197.540	197.418	203.414	306.815	202.624	-8191	255	
2346.342	1	1	0	0	0.13509	0.074911	0.10856	0.37971	0.10693	0.142	0.19751	0.23222	0.23162	0.21471	0.18477	0.43685	0.07955	0.13805	0.081508	0.39736	-1.0854	-1.9021	-1.7521	-1.6625	-1.8146	-1.6021	-1.8521	-1.7188	-1.5917	-1.9354	-1.7938	-1.7729	-2.0667	-1.7812	-1.9	-1.9375	300.639	499.582	534.037	517.751	273.406	497.077	479.916	490.250	342.618	494.209	520.859	524.181	486.852	468.827	403.219	444.261	0.0010098	0.00049907	0.00027723	894.45	2.8819e-06	1.9923e-06	1370.9	290.58	6.2974e-06	8.6705e-06	539.75	197.69	83.027	38.08	8.3236e-06	109.51	0.00025378	0.00024511	6.8462e-05	807.94	2.3532e-06	2.7486e-06	1240.5	261.88	2.3909e-06	2.7463e-06	484.16	178.08	75.385	34.559	2.6921e-06	98.216	184.080	280.290	285.973	188.711	285.245	224.399	188.831	193.130	276.390	341.064	193.272	197.258	197.477	203.822	331.447	202.630	-8191	255	
2346.436	1	1	0	0	0.12254	0.15213	0.33997	0.4838	0.27438	0.19796	0.15676	0.21142	0.15403	0.035933	0.15863	0.20645	0.093869	0.20452	0.029811	0.28621	-1.1	-1.6729	-1.8854	-1.7062	-1.9229	-1.5396	-1.85	-2.1354	-1.55	-1.8125	-1.8833	-1.5333	-1.8042	-1.6708	-1.7458	-2.0729	447.337	416.144	196.802	175.830	272.557	411.289	384.165	494.047	274.613	288.496	431.363	422.003	298.317	324.982	332.334	451.851	0.00096012	0.00012211	0.00028895	901.16	5.9575e-06	3.7486e-06	1372.3	289.33	6.9651e-06	4.9447e-06	539.49	196.44	82.077	37.677	4.0169e-06	108.77	0.00026518	0.00026376	6.6512e-05	809.59	2.4752e-06	2.8598e-06	1241.1	261.69	2.5788e-06	2.7746e-06	483.05	176.88	75.089	34.106	2.6024e-06	97.208	185.672	309.665	275.996	188.562	298.220	332.438	188.781	193.037	262.107	314.946	192.785	197.414	197.458	203.688	345.837	202.808	-8191	255	
2346.532	1	1	0	0	0.23315	0.12735	0.20239	0.22316	0.10105	0.097355	0.3736	0.11334	0.1899	0.16716	0.24235	0.18848	0.08283	0.13762	0.35812	0.2391	-1.3479	-1.7146	-1.7667	-1.5688	-1.7354	-1.6167	-1.6042	-2.0125	-1.2687	-1.8687	-2.0021	-1.775	-2.0083	-1.9958	-1.975	-2.3083	186.471	363.660	199.759	515.115	333.441	435.115	452.143	437.418	186.487	349.479	464.384	430.507	310.383	423.766	358.680	482.669	0.001048	0.00074087	0.0001625	893.61	4.9726e-06	5.0371e-06	1364.9	289.08	5.4317e-06	2.6048e-06	538.02	195.48	83.212	37.253	6.7391e-06	107.16	0.00028217	0.00025715	6.4937e-05	809.81	2.7116e-06	2.8412e-06	1239	261.78	2.789e-06	2.7777e-06	482.06	176.07	75.521	33.99	2.6042e-06	96.203	185.994	251.180	244.597	188.671	306.711	310.309	188.983	192.922	279.745	271.223	193.430	197.332	197.817	203.411	230.074	202.667	-8191	255	
2346.629	1	1	0	0	0.24573	0.22243	0.068994	0.23144	0.051399	0.38688	0.33497	0.27549	0.21988	0.19307	0.073647	0.12601	0.23709	0.27932	0.19906	0.28529	-1.4271	-1.6938	-2.0312	-1.6792	-1.8312	-1.6854	-1.7875	-2.2479	-1.7021	-1.7896	-2.2438	-1.9708	-2.1312	-1.8083	-1.7417	-2.325	260.311	314.328	344.398	531.091	225.701	397.517	452.371	176.467	518.334	329.426	199.298	485.050	442.452	465.941	204.912	378.165	0.0010314	0.00022705	0.0001994	896.42	4.2391e-06	4.0469e-06	1376.4	289.5	3.3184e-06	8.3076e-06	540.82	198.15	83.365	38.304	8.9326e-06	109.59	0.00029875	0.0002568	6.5418e-05	810.87	2.9317e-06	2.7808e-06	1241.3	262.95	2.9846e-06	2.7845e-06	483.54	177.69	76.098	34.614	2.6133e-06	98.021	184.892	344.160	283.964	188.912	321.964	327.467	188.997	193.213	270.395	306.955	193.130	197.379	197.179	204.000	276.028	203.068	-8191	255	
2346.725	1	1	0	0	0.054278	0.24607	0.15085	0.14775	0.22324	0.0569	0.099688	0.077128	0.18784	0.0528	0.29841	0.10617	0.2176	0.065903	0.14056	0.25079	-1.3417	-1.6958	-2.1417	-1.6417	-2.0187	-1.8312	-1.6458	-2.0417	-1.5625	-1.6083	-2.1708	-1.7146	-1.975	-1.9354	-1.5938	-2.1292	294.013	423.430	436.677	406.450	264.882	505.262	198.805	461.809	219.534	258.066	179.696	447.004	260.026	422.150	274.568	488.328	0.0010746	0.00071071	4.3624e-05	893.11	3.9154e-06	6.431e-06	1377.9	291.75	8.112e-06	4.8649e-06	543.63	199	83.331	38.37	4.659e-06	111.02	0.00031055	0.00024991	6.3733e-05	811.45	3.0064e-06	2.7311e-06	1244.1	264.05	2.9741e-06	2.7053e-06	485.43	179.19	76.356	34.801	2.5864e-06	99.41	185.610	294.027	239.024	188.848	268.843	305.538	188.853	192.911	302.717	281.384	193.368	197.387	197.401	203.743	257.952	202.713	-8191	255	
2346.845	1	1	0	0	0.27339	0.089585	0.12512	0.23344	0.141	0.1163	0.17525	0.40704	0.20497	0.047541	0.22511	0.22188	0.25858	0.46167	0.238	0.142	-1.1812	-1.2729	-2.1125	-1.7062	-1.9021	-1.8875	-2.0042	-2.1167	-1.8125	-1.8458	-2.3229	-1.6313	-1.9125	-2.2062	-1.4833	-2.1562	471.026	319.164	251.091	446.762	281.076	449.779	465.998	190.820	451.920	270.739	522.517	458.888	287.502	496.401	341.070	495.183	0.0010368	0.00067751	0.00012271	896.27	5.4249e-06	5.0242e-06	1381.1	292.24	2.4774e-06	8.2723e-07	541.04	198.67	83.838	38.469	6.0251e-06	110.62	0.00031352	0.00024632	6.5131e-05	815.82	2.9237e-06	2.6791e-06	1247.2	264.66	2.9367e-06	2.662e-06	485.73	179.38	76.349	34.812	2.6498e-06	99.116	184.595	268.136	220.218	188.635	328.037	394.387	188.975	192.957	297.739	525.765	193.302	197.459	197.332	203.600	319.531	202.605	-8191	255	
2346.917	1	1	0	0	0.17284	0.18797	0.13909	0.15264	0.076967	0.074822	0.37446	0.18027	0.10953	0.18005	0.12485	0.45097	0.079861	0.074961	0.17656	0.2447	-1.2875	-1.725	-1.8521	-1.8708	-1.6625	-1.9042	-1.5688	-1.9021	-1.7083	-1.4729	-1.9917	-1.7833	-1.9167	-2.0896	-1.625	-1.9896	230.680	406.251	502.251	531.345	335.466	431.098	474.381	433.987	413.474	282.758	490.217	492.885	412.106	478.822	505.558	469.243	0.001007	0.00067814	0.00027727	902.91	5.4631e-06	1.3338e-06	1381.8	290.89	4.4777e-06	2.0233e-06	541.35	198.72	83.662	38.305	8.504e-06	109.09	0.00029408	0.00024346	6.7421e-05	818.34	2.866e-06	2.5704e-06	1246	263.98	2.8361e-06	2.6133e-06	484.44	178.74	76.202	34.65	2.9194e-06	98.154	185.429	252.502	216.159	188.607	333.070	354.736	188.938	192.940	346.475	297.249	193.204	197.548	197.627	203.664	264.824	202.561	-8191	255	
2347.013	1	1	0	0	0.047546	0.053743	0.21433	0.23619	0.18726	0.3193	0.11041	0.4328	0.11259	0.068568	0.33756	0.3879	0.082653	0.2676	0.28286	0.21491	-1.2938	-1.6021	-1.9312	-1.8021	-1.85	-2.1146	-1.8458	-2.125	-1.8896	-1.5812	-2.3625	-1.9312	-1.7812	-2.0563	-1.6479	-2.1292	223.143	199.787	399.222	485.937	443.473	200.404	405.127	487.272	444.645	178.690	512.593	513.194	271.434	177.246	515.545	478.532	0.001059	0.00028353	0.0002488	894.26	9.7416e-06	2.5426e-06	1372.9	291.96	8.8614e-06	7.4554e-06	539.22	198.06	84.147	38.699	8.2629e-06	110.01	0.00028969	0.00023988	7.3873e-05	813.45	2.7733e-06	2.558e-06	1243.9	264.14	2.8033e-06	2.5503e-06	484.82	178.76	76.316	34.805	3.012e-06	98.915	185.552	204.104	232.781	188.801	302.879	328.395	188.801	192.870	284.788	347.567	193.340	197.354	197.775	203.488	247.160	202.848	-8191	255	
2347.134	1	1	0	0	0.18682	0.12157	0.22099	0.44926	0.28435	0.16753	0.095742	0.14652	0.20991	0.27741	0.13813	0.052291	0.1393	0.24865	0.086111	0.18949	-1.5479	-1.5979	-2.0583	-1.8438	-1.5896	-2.2354	-1.8167	-2.0229	-1.9917	-1.6021	-2.0875	-1.8937	-1.7792	-2.2292	-1.7542	-2.0125	294.620	349.017	531.931	481.633	363.934	464.119	452.635	497.659	518.031	474.904	422.378	279.458	456.797	201.335	330.496	431.417	0.0010166	0.00022663	0.0001934	897.21	3.6338e-06	4.9198e-06	1375.7	291.38	3.3883e-06	8.0962e-06	539.05	199.08	83.265	38.101	3.333e-06	109.4	0.00029005	0.00023957	7.806e-05	813.53	2.7143e-06	2.5939e-06	1247.9	263.39	2.7009e-06	2.6573e-06	485.84	179	75.985	34.665	3.1598e-06	98.542	189.090	250.439	264.671	188.348	345.707	273.744	188.884	193.274	282.282	310.008	193.497	197.300	197.436	203.725	368.114	202.611	-8191	255	
2347.230	1	1	0	0	0.026446	0.038781	0.20821	0.12589	0.12651	0.41364	0.28816	0.2996	0.13831	0.09741	0.30834	0.13341	0.097872	0.074658	0.43992	0.21761	-1.6958	-1.7104	-2.0667	-1.9188	-1.6125	-2.0125	-2.0333	-1.7604	-1.7979	-1.4854	-1.8521	-1.95	-1.65	-2.2125	-1.6604	-1.9646	417.373	356.410	522.141	392.644	509.983	504.611	433.116	464.618	510.320	305.413	211.685	405.805	201.459	226.285	387.819	528.907	0.00089845	0.00046742	9.7799e-05	903.35	5.0688e-06	7.2227e-06	1378.8	290.89	4.1136e-06	5.2902e-06	540.14	198.81	83.232	37.783	4.9413e-06	109.51	0.0002806	0.00025689	8.0197e-05	815.53	2.6276e-06	2.8407e-06	1250.9	263.59	2.6342e-06	2.9108e-06	486.81	179.04	75.491	34.401	3.036e-06	98.002	185.529	278.702	270.559	188.675	316.231	254.023	188.803	193.147	297.119	265.805	193.287	197.362	197.410	203.777	316.023	202.601	-8191	255	
2347.324	1	1	0	0	0.12654	0.16625	0.21514	0.36119	0.11761	0.32479	0.44441	0.2852	0.18506	0.14446	0.10273	0.22789	0.2434	0.11905	0.11107	0.18239	-1.675	-1.6125	-1.8917	-1.8062	-1.3396	-1.725	-1.8021	-1.6771	-1.9646	-1.5958	-2.0187	-1.925	-1.6729	-2.0958	-1.8563	-1.8417	314.773	350.078	473.229	526.382	209.532	357.492	505.502	340.081	415.111	500.599	393.720	453.359	401.925	321.031	283.622	427.361	0.0010964	0.00078044	9.8247e-05	894.21	2.6401e-06	4.8446e-06	1384.1	291.71	6.5412e-06	5.5676e-06	536.32	196.26	83.277	37.687	6.2046e-06	108.62	0.00027353	0.00027409	7.576e-05	811.16	2.5936e-06	2.9899e-06	1245.9	263.43	2.5859e-06	3.0262e-06	483.8	177.37	75.462	34.259	2.9403e-06	97.309	184.043	239.180	286.675	188.658	295.006	269.723	188.829	193.148	242.874	294.827	193.136	197.408	196.889	203.626	347.836	202.712	-8191	255	
2347.422	1	1	0	0	0.15928	0.12413	0.23108	0.20669	0.19573	0.17751	0.37391	0.36975	0.16225	0.068403	0.11115	0.22157	0.16679	0.073152	0.144	0.30339	-1.6979	-1.8146	-1.7833	-2.0938	-1.4167	-1.6375	-1.8479	-1.6167	-1.8604	-1.6479	-1.9479	-2.125	-1.6458	-2.0479	-2.0375	-1.7354	475.276	379.899	449.839	498.726	358.340	434.350	438.895	422.109	460.450	336.378	527.189	417.503	285.832	356.211	485.855	525.566	0.0010348	0.0004855	0.00028402	893.63	6.959e-06	8.557e-06	1374.9	289.13	6.6289e-06	3.6368e-06	540.39	196.8	83.19	37.798	6.3212e-06	108.97	0.00028386	0.00028012	7.3846e-05	807.67	2.7017e-06	3.0963e-06	1245.4	262.07	2.8329e-06	3.1508e-06	483.89	177.77	75.875	34.512	2.9003e-06	97.74	186.586	238.559	240.664	188.753	291.892	302.975	189.004	193.049	263.892	307.092	193.118	197.137	197.741	203.667	307.209	202.744	-8191	255	
2347.517	1	1	0	0	0.09868	0.27769	0.11065	0.088752	0.16925	0.36759	0.23629	0.1859	0.12114	0.3583	0.25815	0.1369	0.13034	0.15373	0.1606	0.44685	-1.4396	-1.3479	-1.65	-1.9646	-1.3458	-1.8417	-1.9792	-1.7125	-1.8021	-1.7792	-1.8021	-2.1667	-1.6854	-1.975	-1.8438	-1.6542	389.834	245.234	488.548	282.201	311.127	521.147	412.281	515.687	295.610	235.480	469.747	470.997	424.935	265.370	457.615	446.116	0.0010434	0.00034028	0.00012742	895.85	6.8819e-06	5.6563e-06	1387.3	290.18	2.4498e-06	2.1463e-06	543.71	198.71	83.925	38.439	6.9695e-06	109.81	0.00030236	0.00028656	7.362e-05	811.69	2.9741e-06	3.1311e-06	1249.5	263.38	3.064e-06	3.0346e-06	487.21	179.01	76.451	34.825	2.8372e-06	98.736	185.092	295.469	237.739	188.824	308.645	312.804	189.025	193.184	228.523	413.086	193.156	197.291	197.382	203.708	290.959	202.613	-8191	255	
2347.613	1	1	0	0	0.2396	0.057168	0.34569	0.36251	0.13529	0.19608	0.19569	0.18024	0.14388	0.11804	0.14982	0.25496	0.44286	0.074525	0.18893	0.29717	-1.2979	-1.5562	-1.4646	-1.8958	-1.5438	-1.7521	-2.1146	-1.7396	-2.0125	-1.8479	-1.8333	-2.2146	-1.8479	-2.025	-2.0042	-1.7542	357.930	270.476	428.122	203.414	393.202	442.619	209.759	484.793	338.363	430.008	507.122	220.646	462.401	282.711	305.923	490.204	0.0010458	0.0008557	0.00025924	902.04	8.0573e-06	7.0575e-06	1386.6	292.61	5.2497e-06	5.306e-06	548.07	201.66	85.056	38.872	6.785e-06	111.24	0.00031962	0.00027313	7.2083e-05	814.72	3.1941e-06	3.0069e-06	1252.6	265.2	3.1774e-06	2.9468e-06	490.85	181.19	77.186	35.323	2.6914e-06	100.19	185.717	285.521	255.200	188.695	324.133	303.108	188.689	192.942	297.170	353.668	193.358	197.634	197.237	203.635	287.181	202.748	-8191	255	
2347.733	1	1	0	0	0.028447	0.14856	0.19143	0.25322	0.1363	0.19719	0.26405	0.16113	0.079832	0.067529	0.19214	0.293	0.20175	0.32866	0.26635	0.23701	-1.225	-1.8687	-1.6063	-1.9396	-1.7667	-1.8833	-2.2438	-1.6958	-1.725	-1.8729	-1.475	-2.0667	-1.6708	-1.6979	-2.0583	-1.7792	249.553	180.167	498.730	525.074	240.528	405.133	463.511	493.091	395.819	240.185	242.780	531.665	445.674	177.477	252.603	183.025	0.0011705	0.00081315	0.00025624	896.04	3.8869e-06	4.1623e-06	1386.3	293.46	5.4774e-06	5.7075e-06	544.18	199.91	84.044	38.51	4.9121e-06	110.42	0.00032689	0.00026574	6.7917e-05	813.22	3.2223e-06	2.8634e-06	1250.9	266.15	3.1653e-06	2.865e-06	487.49	179.97	76.854	34.893	2.6183e-06	99.119	184.269	264.060	274.056	188.608	348.097	341.492	188.780	193.258	273.116	238.213	193.022	197.174	197.132	203.361	303.903	202.788	-8191	255	
2347.830	1	1	0	0	0.20774	0.070337	0.26679	0.47547	0.23645	0.081539	0.068956	0.14067	0.25385	0.086312	0.18589	0.16735	0.019703	0.04353	0.13396	0.10565	-1.4937	-1.8958	-1.5583	-2.1542	-1.6292	-1.6479	-2.0979	-1.8188	-1.8563	-1.8917	-1.7833	-2.075	-2.1167	-1.7125	-2.1437	-1.95	262.754	246.648	197.262	508.910	500.116	307.089	501.450	231.277	406.419	468.086	218.749	495.901	529.594	232.012	268.772	228.025	0.0011129	0.0004444	0.00014443	897.96	3.6802e-06	1.0819e-05	1375.4	292.06	5.1108e-06	8.1305e-06	542.38	199.74	84.097	38.591	3.1695e-06	110.53	0.00031673	0.00025727	6.6102e-05	815.7	3.0499e-06	2.8062e-06	1245.7	265.06	3.062e-06	2.7835e-06	488.41	180.59	76.818	35.073	2.6926e-06	99.356	184.533	260.813	216.047	188.778	301.962	315.209	188.746	192.846	325.129	277.305	193.113	197.605	197.713	203.846	382.820	202.401	-8191	255	
2347.926	1	1	0	0	0.1199	0.20399	0.16003	0.32762	0.050925	0.057941	0.089722	0.2554	0.16008	0.22115	0.017456	0.12598	0.40666	0.22733	0.14343	0.16448	-1.4333	-1.9292	-1.5625	-2.1521	-1.8937	-1.4542	-1.975	-1.8188	-1.7625	-1.6375	-1.7812	-2.1417	-1.9562	-1.8167	-2.1104	-1.9479	207.207	393.318	233.284	510.157	480.910	420.780	484.062	495.243	329.257	495.073	313.021	272.063	461.235	516.894	388.195	185.325	0.0011526	0.00045195	0.00014327	899.44	5.719e-06	9.8482e-06	1373.3	291.72	7.6978e-06	7.5871e-06	542.31	200.59	83.788	38.495	3.8342e-06	110.51	0.00030604	0.00024904	6.9687e-05	815.49	2.9918e-06	2.6939e-06	1247.7	265.55	2.9302e-06	2.7146e-06	487.76	180.29	76.443	34.863	2.849e-06	99.277	190.050	332.349	235.216	188.806	313.682	293.176	188.683	193.054	290.712	280.943	193.096	197.285	197.426	203.413	393.220	202.812	-8191	255	
2348.022	1	1	0	0	0.1733	0.096887	0.20946	0.079386	0.16302	0.34965	0.27446	0.15836	0.23486	0.0074709	0.25841	0.16774	0.17516	0.27772	0.13418	0.32174	-1.5271	-2.2479	-1.7021	-2.0979	-1.8312	-1.8	-1.9396	-1.7333	-1.4729	-1.8438	-1.6187	-1.9646	-1.9042	-1.6437	-1.6771	-1.7229	448.327	259.899	279.510	363.859	477.145	513.827	460.357	532.281	359.528	409.302	503.124	507.957	331.323	457.029	243.824	483.700	0.0011624	0.00051806	0.00017752	892.93	8.0736e-06	2.9151e-06	1380.3	292.66	1.2494e-06	2.2804e-06	546.22	200.94	84.13	38.701	6.3068e-06	111.51	0.00030054	0.00024261	7.5843e-05	813.39	2.9197e-06	2.6554e-06	1250.5	266.08	2.8793e-06	2.6164e-06	491.19	181.29	76.668	35.144	3.1465e-06	100.29	191.236	281.614	283.032	188.888	321.385	382.686	188.852	192.737	211.557	341.077	193.383	197.429	197.378	204.131	289.146	203.055	-8191	255	
2348.143	1	1	0	0	0.13153	0.069645	0.096281	0.079956	0.14125	0.087572	0.067443	0.13727	0.092133	0.15899	0.25386	0.39501	0.2552	0.34821	0.25807	0.25501	-1.1104	-1.8	-1.65	-2.0771	-1.9917	-1.7667	-2.1021	-1.825	-1.45	-2.1542	-1.8042	-1.9042	-2.1208	-1.7396	-1.8896	-2.0125	231.998	242.159	449.883	484.863	481.349	531.472	383.312	441.113	359.922	394.796	492.475	183.912	337.678	519.173	302.823	534.046	0.001099	0.00055999	0.00012819	902.81	3.0087e-06	3.183e-06	1383.7	290.81	4.8954e-06	2.651e-06	542.04	198.89	83.733	38.122	2.4486e-06	109.81	0.00029783	0.00024439	7.9902e-05	815.88	2.7577e-06	2.7397e-06	1253.6	264.18	2.768e-06	2.7057e-06	487.6	179.08	76.294	34.551	3.2466e-06	98.524	185.192	267.350	250.744	188.534	271.360	241.935	188.782	193.301	308.069	276.532	193.200	197.194	197.547	203.546	334.987	202.786	-8191	255	
2348.214	1	1	0	0	0.24478	0.19976	0.0448	0.29793	0.12754	0.12018	0.32973	0.28006	0.055705	0.090878	0.42718	0.18467	0.17501	0.25848	0.30728	0.23692	-0.95	-1.8729	-1.5229	-1.8604	-1.8583	-1.6125	-1.9104	-1.9375	-1.1812	-2.1375	-1.8542	-1.7479	-2.0708	-1.625	-1.7313	-1.9792	476.564	478.603	404.456	488.840	277.253	262.647	456.737	186.048	485.701	431.948	457.003	456.259	359.472	522.395	476.901	392.615	0.0010058	0.00051489	0.00026392	895.62	6.2683e-06	8.2934e-06	1374.2	289.82	5.9026e-06	8.8549e-06	539.82	197.67	83.139	37.737	9.9047e-06	108.35	0.00028705	0.00026434	8.2059e-05	812.88	2.7205e-06	2.9259e-06	1247.9	262.92	2.7015e-06	2.9117e-06	485.38	178.12	75.505	34.167	3.1753e-06	97.547	188.749	280.489	241.278	188.690	377.372	257.614	189.012	193.301	292.961	302.312	193.377	197.311	197.386	203.476	299.175	202.926	-8191	255	
2348.310	1	1	0	0	0.041913	0.32667	0.13576	0.33207	0.21714	0.2079	0.32491	0.10833	0.22834	0.24688	0.16749	0.14341	0.11986	0.083373	0.25757	0.14984	-0.86875	-1.7729	-1.7208	-1.7687	-2.0438	-1.7146	-2.1688	-2.1167	-1.6521	-1.8312	-1.9979	-1.7583	-1.95	-1.9021	-1.9083	-2.0521	223.049	178.063	183.477	483.411	408.056	288.371	526.764	479.760	216.509	190.226	472.899	440.864	200.261	481.333	330.560	534.425	0.001008	0.00041993	0.00025009	898.31	4.7748e-06	1.8215e-06	1380.8	289.29	3.8255e-06	1.6657e-06	541.71	198.24	83.225	37.454	7.8209e-06	109.01	0.00028672	0.00028935	8.0601e-05	812.47	2.699e-06	3.1124e-06	1250.1	263.05	2.7558e-06	3.1472e-06	487.69	178.85	75.726	34.345	3.0359e-06	97.813	187.865	253.251	251.047	188.823	322.265	318.156	188.827	193.134	284.740	243.181	193.240	197.688	197.498	203.540	341.062	202.867	-8191	255	
2348.407	1	1	0	0	0.4883	0.14852	0.16899	0.26894	0.03386	0.06282	0.30535	0.23666	0.18701	0.12319	0.33606	0.12487	0.22065	0.053393	0.099387	0.17983	-0.9125	-1.6083	-1.6437	-1.6938	-1.9104	-1.5521	-2.1312	-2.0271	-1.4021	-1.7771	-1.8646	-1.6521	-2.1042	-1.8104	-1.8188	-2.1271	277.474	297.255	182.573	485.192	525.714	445.182	460.686	465.456	458.205	330.581	498.600	464.549	325.321	381.919	365.532	191.268	0.00105	8.3033e-05	0.00019398	892.75	2.7848e-06	2.8321e-06	1388.5	291.66	7.0274e-06	4.7078e-06	545.01	201.36	83.641	38.339	6.207e-06	111.2	0.00029991	0.00029447	7.7487e-05	810.46	2.8316e-06	3.2347e-06	1255.8	263.98	2.8954e-06	3.3322e-06	490.45	180.92	76.447	34.993	2.9703e-06	99.836	183.097	477.112	284.689	188.921	269.014	247.877	189.075	193.296	284.790	316.455	193.269	197.545	197.456	203.527	283.416	202.803	-8191	255	
2348.525	1	1	0	0	0.23466	0.11303	0.26957	0.14158	0.143	0.11392	0.20803	0.13466	0.061628	0.27577	0.24693	0.17827	0.23059	0.3577	0.14205	0.15405	-1.1562	-2.1104	-1.9271	-1.8229	-2.0208	-1.8563	-1.9875	-2.2167	-1.6958	-1.8937	-1.8417	-1.6417	-2.0354	-1.7646	-1.8917	-2.3146	325.935	378.327	249.130	482.235	454.730	218.876	181.849	475.189	387.531	453.386	484.888	528.125	470.085	516.229	467.173	423.893	0.0012468	0.00052953	0.00019938	897.64	1.4572e-06	6.4798e-06	1392.7	292.46	2.9975e-06	5.2017e-06	546.89	200.45	84.018	38.308	4.7609e-06	111.18	0.00031343	0.00029776	7.473e-05	813.67	3.0561e-06	3.1584e-06	1259.8	264.57	3.1051e-06	3.1666e-06	491.1	180.09	76.669	34.828	2.8981e-06	99.513	185.530	283.948	291.209	188.816	260.382	252.678	189.119	193.337	260.619	310.883	193.177	197.256	197.271	203.926	311.961	202.945	-8191	255	
2348.622	1	1	0	0	0.04735	0.19075	0.063622	0.34678	0.26204	0.10057	0.11986	0.1007	0.067239	0.56069	0.090621	0.15157	0.40184	0.070747	0.17958	0.19587	-1.225	-1.8875	-1.8875	-1.8062	-2.0312	-1.9292	-1.8563	-2.0792	-1.4729	-1.7396	-1.9333	-1.4729	-1.9375	-1.8583	-1.6375	-2.4125	249.145	199.455	394.183	510.101	272.525	310.139	211.444	448.674	318.327	305.395	506.000	524.550	470.564	349.132	500.383	482.085	0.00098997	0.00072022	0.00027761	900.41	2.3121e-06	3.3136e-06	1387.8	291.23	3.6885e-06	8.0726e-06	543.42	199.49	84.074	38.533	4.7673e-06	110.96	0.0003186	0.0002828	7.1295e-05	814.2	3.1379e-06	3.0038e-06	1253.8	264.47	3.2244e-06	2.99e-06	488.2	180.07	76.853	35.009	2.8298e-06	99.46	184.693	315.927	245.828	188.698	307.613	306.584	188.523	193.043	310.614	386.048	193.133	197.106	197.423	203.680	318.641	202.760	-8191	255	
2348.718	1	1	0	0	0.082039	0.053883	0.25395	0.31311	0.23354	0.17632	0.36503	0.19761	0.16686	0.33452	0.22549	0.18012	0.18188	0.27772	0.098802	0.23364	-1.3646	-1.6812	-1.9854	-1.6562	-2.0125	-1.9042	-1.5875	-1.9542	-1.5917	-1.5938	-2.2333	-1.7875	-1.9083	-2	-1.6458	-2.1813	194.660	339.411	335.702	450.764	293.673	333.566	494.386	523.713	534.442	184.413	201.259	204.852	439.859	507.973	340.699	439.079	0.001108	0.00053205	0.0001624	897.96	6.0829e-06	5.1998e-06	1386.4	291.9	4.6014e-06	6.9575e-06	545.75	200.14	84.119	38.446	6.434e-06	111.05	0.00033758	0.00027066	6.9052e-05	814.87	3.1911e-06	2.9806e-06	1252.7	264.55	3.2427e-06	2.9402e-06	489.02	180.5	76.913	34.908	2.7824e-06	99.768	183.659	322.526	310.419	188.505	283.741	312.345	188.926	193.082	336.622	316.718	193.441	197.164	197.430	203.738	276.712	202.961	-8191	255	
2348.814	1	1	0	0	0.43308	0.1298	0.20361	0.20634	0.14689	0.16591	0.12517	0.36256	0.20445	0.26708	0.24282	0.07275	0.13393	0.17082	0.42656	0.35022	-1.2938	-1.6083	-1.8646	-1.6854	-1.8917	-1.9208	-1.8854	-2.0604	-1.8021	-1.6396	-2.0875	-1.85	-1.8646	-1.9188	-1.3625	-1.975	355.326	416.263	243.757	507.558	268.258	216.327	413.278	508.321	181.833	468.025	490.347	514.316	188.158	454.410	469.365	467.627	0.00095651	0.00048919	0.00021187	899.44	5.8312e-06	5.0249e-06	1389.1	291.48	7.0991e-06	5.0261e-06	549.47	201.65	84.073	38.503	8.1366e-06	112.3	0.00032745	0.00027213	6.956e-05	817.78	3.1987e-06	2.9186e-06	1257.6	266.23	3.1871e-06	2.8754e-06	491.07	181.8	77.037	34.971	2.857e-06	100.7	189.426	333.505	244.245	188.527	334.156	292.188	188.854	193.052	322.704	277.793	193.138	197.472	197.658	204.107	313.562	202.674	-8191	255	
2348.910	1	1	0	0	0.24217	0.12844	0.29009	0.15929	0.13586	0.17863	0.34165	0.12513	0.211	0.14287	0.2126	0.10881	0.092557	0.096001	0.33306	0.32741	-1.2625	-1.3521	-1.7	-1.6771	-1.5312	-1.875	-1.6875	-1.8729	-1.8104	-1.7229	-2.1771	-1.9729	-1.9292	-2.0312	-1.8667	-2.0354	250.337	524.881	220.454	395.713	259.337	516.956	424.314	224.857	289.739	354.037	400.451	467.175	217.985	369.634	249.504	417.985	0.001044	0.00074506	0.00016933	901.32	2.6952e-06	5.1101e-06	1387.3	293.59	7.6009e-06	3.1016e-06	547.66	200.36	84.17	38.229	5.8734e-06	110.57	0.00032359	0.00026425	7.2436e-05	820.65	3.1334e-06	2.8628e-06	1259.7	266.38	3.143e-06	2.8604e-06	492.59	181.32	76.893	34.755	3.0598e-06	99.66	183.537	307.739	271.603	188.630	264.152	283.647	189.000	192.874	309.199	328.392	193.055	197.668	197.339	203.581	298.851	203.086	-8191	255	
2349.006	1	1	0	0	0.10348	0.2274	0.14638	0.094803	0.0070651	0.029717	0.3134	0.41684	0.3972	0.17409	0.30957	0.19042	0.1762	0.22957	0.22794	0.075712	-1.4396	-1.5771	-1.9813	-1.9146	-1.65	-2.1167	-1.7	-2.0187	-2.0542	-1.4375	-2.2521	-1.9229	-1.7792	-2.1042	-1.5	-1.7896	482.289	184.618	499.930	299.215	373.581	278.385	504.559	508.490	475.030	440.000	511.805	499.194	474.096	451.759	181.632	440.717	0.0011121	0.00026972	0.0001336	900.51	5.2911e-06	5.2166e-06	1393.6	290.16	3.4389e-06	6.6419e-06	545.21	197.28	83.858	37.825	5.2805e-06	109.82	0.00031503	0.00025908	7.8506e-05	820.18	3.0117e-06	2.833e-06	1263	265.36	3.091e-06	2.8479e-06	489.67	179.58	76.203	34.36	3.2647e-06	98.491	188.390	276.595	519.683	188.563	315.068	310.003	188.643	192.887	343.589	294.821	193.299	197.346	197.622	203.742	310.837	202.876	-8191	255	
2349.102	1	1	0	0	0.16312	0.2729	0.28519	0.064851	0.15477	0.12427	0.16114	0.36035	0.092813	0.18188	0.075193	0.16945	0.15437	0.25248	0.13243	0.26044	-1.4188	-1.7188	-1.8146	-2.0271	-1.6458	-2.2812	-1.8708	-1.8417	-1.9125	-1.5167	-1.9271	-1.7979	-1.45	-1.9958	-1.6417	-1.9208	363.923	398.187	418.532	495.256	525.189	411.385	480.094	431.047	265.066	229.114	506.086	533.064	242.938	533.520	188.361	479.834	0.0010373	0.00052968	0.00028095	893.33	1.0165e-06	7.7678e-06	1381.8	288.6	2.3652e-06	4.999e-06	543.05	197.97	82.85	37.546	5.5991e-06	109.2	0.00031199	0.00025615	8.3171e-05	814.94	2.9814e-06	2.864e-06	1254.8	263.42	2.9599e-06	2.9337e-06	489.05	178.75	75.701	34.167	3.4364e-06	98.088	187.317	262.931	263.825	188.527	414.174	269.793	188.782	193.048	403.578	241.704	193.167	197.489	197.596	203.642	296.597	202.582	-8191	255	
2349.223	1	1	0	0	0.15589	0.27939	0.10045	0.1998	0.053626	0.14839	0.13316	0.27614	0.16732	0.33727	0.3176	0.41171	0.14401	0.20164	0.1798	0.53215	-1.5479	-1.5	-1.8062	-1.7792	-1.4771	-1.9	-1.7188	-1.8667	-1.8354	-1.7292	-2.0438	-1.9917	-1.4312	-1.9833	-1.7396	-1.7458	342.917	469.348	395.491	522.587	524.378	207.433	440.030	473.756	313.278	182.250	475.159	459.933	517.117	199.290	427.787	438.122	0.0010196	0.00059126	0.00027282	897.35	5.8082e-06	9.3569e-06	1383.4	292.12	4.8043e-06	1.1507e-05	542	197.82	82.88	37.457	6.0379e-06	109.91	0.00030043	0.00027097	8.3869e-05	813.49	2.8316e-06	2.9638e-06	1255.2	263.37	2.7958e-06	3.0279e-06	488.4	179.05	75.643	34.19	3.2829e-06	98.712	185.223	238.470	236.258	188.725	333.779	345.060	188.901	193.274	279.280	298.045	193.226	197.469	197.342	203.580	329.984	203.074	-8191	255	
2349.317	1	1	0	0	0.28519	0.13583	0.28958	0.23804	0.20886	0.072966	0.11124	0.064137	0.12859	0.030678	0.10688	0.31558	0.2365	0.25968	0.31432	0.12384	-1.3937	-1.6292	-1.6854	-1.7875	-1.475	-2.0208	-1.7979	-1.6208	-1.8417	-1.6875	-1.975	-2.1583	-1.6542	-2.0104	-1.75	-1.75	491.086	347.017	225.174	459.626	222.600	258.962	446.446	525.633	467.726	194.337	455.061	485.794	180.252	458.272	528.407	483.747	0.0010868	0.00020781	0.00022528	898.9	4.0639e-06	1.0117e-05	1380.1	292.17	7.1537e-06	5.4004e-06	545.93	200.59	83.529	38.013	7.4629e-06	109.88	0.00028817	0.00028448	8.2083e-05	812.01	2.7314e-06	3.1767e-06	1256.3	264.18	2.7501e-06	3.2414e-06	490.67	180.17	75.803	34.583	3.1246e-06	98.984	184.163	274.687	262.587	188.567	368.239	303.941	189.072	193.122	272.291	282.782	193.352	197.480	197.404	203.641	295.730	202.787	-8191	255	
2349.415	1	1	0	0	0.10111	0.097168	0.27465	0.22629	0.052316	0.21016	0.044124	0.24216	0.23093	0.16043	0.20196	0.048706	0.13115	0.16021	0.13343	0.13134	-1.7479	-1.6354	-1.8833	-2.2021	-1.6792	-1.9875	-1.975	-1.7792	-2.0729	-1.6125	-1.7104	-1.9312	-1.4583	-1.9562	-1.775	-1.9417	334.581	427.625	327.165	488.735	510.222	418.420	383.121	509.212	260.915	512.084	463.546	419.398	291.970	274.833	200.800	404.132	0.0011373	0.00068542	0.00035589	897.78	3.5456e-06	2.349e-06	1385.8	291.5	6.5981e-06	6.332e-06	543.65	198.54	83.365	38.22	4.5446e-06	110.54	0.00029135	0.00029858	7.7264e-05	813.18	2.866e-06	3.2155e-06	1252.8	263.63	2.8361e-06	3.265e-06	488.47	179.14	75.719	34.565	2.8977e-06	98.964	186.552	248.916	267.056	188.528	367.927	286.560	188.819	192.896	287.132	304.130	193.255	197.405	197.444	203.706	354.388	202.573	-8191	255	
2349.510	1	1	0	0	0.039186	0.15353	0.19102	0.20275	0.16405	0.087085	0.085839	0.17772	0.078746	0.25586	0.31513	0.26684	0.12879	0.086436	0.18068	0.24989	-1.5771	-1.7104	-1.6771	-1.8625	-1.6125	-1.9146	-2.0729	-1.6729	-1.9562	-1.8521	-1.9521	-1.9229	-1.6271	-1.7812	-2.0167	-1.8188	414.898	219.183	242.589	451.743	485.464	415.305	351.698	441.301	239.040	209.666	480.256	207.051	256.028	511.189	382.079	485.519	0.001133	0.00058593	9.4049e-05	896.21	1.3724e-06	6.0387e-06	1382	289.96	6.8637e-06	3.3535e-06	544.55	199.49	83.016	38.194	6.6517e-06	110.68	0.00030223	0.00028648	7.197e-05	810.47	2.9549e-06	3.0995e-06	1251.9	262.22	2.9609e-06	3.0764e-06	488.58	179.58	76.127	34.737	2.7211e-06	99.393	189.310	291.249	300.467	188.860	236.286	340.639	189.097	193.342	293.645	315.138	193.361	197.449	197.604	203.724	329.365	202.737	-8191	255	
2349.606	1	1	0	0	0.22636	0.070015	0.11419	0.24709	0.14345	0.066416	0.31881	0.11542	0.05764	0.14246	0.14864	0.2655	0.30465	0.20313	0.094455	0.25187	-1.5021	-1.6125	-1.6958	-2.0792	-1.6792	-1.8792	-2.2042	-1.5521	-1.8771	-1.7667	-1.8146	-2.1813	-1.7271	-1.75	-1.9417	-1.7667	286.443	177.408	356.191	517.690	234.487	285.556	184.116	192.731	471.000	332.421	297.190	442.037	463.861	444.891	490.709	214.487	0.001132	0.00035263	0.00032962	894.78	5.3833e-06	8.5561e-06	1387.1	290.43	2.642e-06	8.3955e-06	546.25	200.46	83.74	38.468	6.3791e-06	111.74	0.00031507	0.00027299	6.8637e-05	808.15	3.0085e-06	2.9001e-06	1251.7	262.94	3.1028e-06	2.8668e-06	489.92	180.47	76.382	34.824	2.6518e-06	100.23	185.630	258.690	267.694	188.670	248.737	323.188	188.516	193.057	345.743	279.246	193.078	197.094	197.231	203.733	223.066	202.887	-8191	255	
2349.702	1	1	0	0	0.36801	0.23306	0.12191	0.12494	0.039971	0.26974	0.31037	0.19017	0.12142	0.067085	0.13143	0.22134	0.16089	0.028082	0.14183	0.25366	-1.5333	-1.925	-1.6562	-2.1375	-1.9292	-1.8208	-2.075	-1.6375	-2.0208	-1.9083	-1.9521	-2.3354	-1.6938	-1.7167	-1.9771	-1.9104	473.542	352.573	490.093	201.226	312.924	377.346	506.203	527.209	460.417	462.619	492.471	196.848	530.077	498.749	321.919	453.594	0.0010898	0.00050549	0.00013164	899.73	5.0191e-06	9.6613e-06	1380.4	291.66	4.0686e-06	7.6454e-06	545.57	201.22	84.078	38.423	1.701e-07	111.2	0.0003196	0.00026014	6.7146e-05	811.15	3.1243e-06	2.7538e-06	1252.3	264.34	2.9978e-06	2.7588e-06	489.68	181.28	76.433	34.764	2.5559e-06	100.25	185.355	294.178	192.785	188.812	307.719	306.934	188.965	193.117	312.369	321.044	193.170	197.358	197.198	203.828	220.579	202.836	-8191	255	
2349.823	1	1	0	0	0.14699	0.10989	0.18214	0.17855	0.14812	0.016979	0.38711	0.20046	0.12166	0.25743	0.1341	0.2108	0.18736	0.2777	0.20877	0.090637	-1.45	-1.9	-1.5271	-2.1083	-1.7792	-1.7313	-2.4062	-1.9292	-2.0417	-2.0146	-1.9479	-2.2792	-1.9854	-1.7792	-2.0979	-1.8583	495.134	365.250	285.648	495.465	329.873	533.451	500.378	211.902	213.046	527.724	458.861	499.257	522.888	388.616	398.276	245.784	0.0011245	0.00042547	0.00032376	899.25	5.8541e-06	5.2081e-06	1384.3	290.93	5.4354e-06	7.6542e-06	547.59	200.26	83.097	37.949	2.0581e-06	110.79	0.00030783	0.00024286	6.2779e-05	813.85	2.9812e-06	2.678e-06	1252.4	263.89	2.8984e-06	2.5845e-06	490	180.71	75.748	34.564	2.5179e-06	99.377	188.272	303.679	252.809	188.438	318.195	274.247	188.769	193.274	305.672	322.812	193.459	197.128	197.629	203.700	298.206	202.915	-8191	255	
2349.919	1	1	0	0	0.083537	0.12778	0.0994	0.14786	0.16287	0.063786	0.23704	0.35371	0.038825	0.16471	0.29611	0.080661	0.15744	0.063723	0.10411	0.18494	-1.3146	-1.5938	-1.6083	-2.1083	-1.7542	-1.5167	-2.0604	-1.6417	-1.8104	-2.1021	-1.9188	-2.0417	-1.7708	-1.6688	-2.1333	-1.7833	395.411	442.061	483.003	400.397	304.753	376.662	457.427	384.167	311.433	501.458	515.154	217.467	283.045	352.535	194.636	471.827	0.0010445	0.000238	0.00023687	890.6	5.895e-06	5.4506e-06	1379.3	290.36	6.722e-06	7.4987e-06	542.14	199	82.147	37.865	7.9548e-06	109.99	0.00028718	0.00023247	6.4472e-05	808.69	2.7422e-06	2.5651e-06	1249	262.8	2.7644e-06	2.4771e-06	487.62	179.49	75.088	34.25	2.6546e-06	99.064	186.748	259.245	264.811	188.409	355.144	301.727	188.538	192.809	282.537	337.041	193.180	197.565	197.871	203.484	272.565	202.910	-8191	255	
2350.015	1	1	0	0	0.14205	0.14495	0.14177	0.29919	0.082678	0.04898	0.44271	0.20377	0.10252	0.27671	0.1129	0.29657	0.1685	0.11858	0.17808	0.18041	-1.375	-1.9479	-1.3896	-1.9333	-1.9062	-1.4896	-2.2562	-1.8625	-1.7062	-2.1312	-1.5833	-1.6625	-1.8875	-1.6667	-1.9021	-1.9125	384.320	195.855	472.328	525.583	477.698	505.882	449.483	401.587	297.126	533.021	489.982	527.153	503.545	531.370	248.695	247.096	0.0010643	0.00037481	0.00015498	889.92	5.6189e-06	2.0904e-06	1375.8	289	6.4163e-06	7.4878e-06	543.3	199.51	82.47	37.972	4.0326e-06	110.64	0.00028294	0.00022229	6.8966e-05	806.14	2.6389e-06	2.4459e-06	1247.4	263.15	2.6027e-06	2.3792e-06	487.61	179.73	74.979	34.202	2.8206e-06	99.599	186.691	210.731	519.443	188.552	359.508	247.956	188.726	193.085	310.422	331.749	193.225	197.369	197.371	203.874	259.507	202.898	-8191	255	
2350.087	1	1	0	0	0.064931	0.11119	0.051989	0.14508	0.07131	0.11181	0.19003	0.15253	0.098332	0.19391	0.4824	0.21937	0.25638	0.28093	0.20458	0.21954	-1.2062	-1.9521	-1.575	-1.7208	-1.5063	-1.4146	-1.9937	-1.9021	-1.45	-2.0104	-1.6958	-1.8375	-2.025	-1.7521	-1.8125	-1.9979	343.139	179.498	212.272	499.643	325.358	389.817	454.899	529.757	421.118	293.756	515.246	179.457	456.703	202.897	412.248	507.547	0.0011081	5.6641e-05	0.00010168	890.52	5.0219e-06	1.1812e-06	1384.3	290.34	2.7474e-06	3.3548e-06	545.95	200.43	83.085	38.261	5.3005e-06	111.63	0.00027401	0.00021843	7.2422e-05	805.76	2.5732e-06	2.4744e-06	1250.3	262.81	2.61e-06	2.4673e-06	490.82	181.19	75.221	34.503	2.9127e-06	100.03	189.048	310.795	233.963	189.144	355.486	234.691	188.805	193.330	314.993	255.637	193.364	197.636	197.279	203.396	289.443	202.768	-8191	255	
2350.207	1	1	0	0	0.22878	0.074879	0.14559	0.10155	0.047748	0.050413	0.24899	0.47608	0.19946	0.17782	0.31048	0.037309	0.30486	0.19152	0.06081	0.23683	-1.425	-1.8625	-1.7812	-1.925	-1.8062	-1.675	-1.9271	-1.7146	-1.2062	-1.9146	-1.8958	-1.8542	-2.075	-1.8167	-1.9125	-2.0542	214.864	233.912	237.050	461.025	363.040	196.985	461.132	498.154	460.169	225.618	488.556	481.899	282.879	518.979	475.208	423.298	0.0010266	0.00084709	0.00021263	890.26	5.044e-06	6.4282e-06	1383.7	287.51	4.7599e-06	1.9743e-06	548.51	199.69	81.944	37.707	5.7629e-06	110.08	0.00026618	0.00022975	7.351e-05	805.27	2.4678e-06	2.5594e-06	1246.5	260.69	2.478e-06	2.5991e-06	489.55	179.19	74.583	34.221	2.8759e-06	98.956	187.199	309.826	244.367	188.730	309.252	303.523	189.159	193.186	307.428	215.616	193.369	197.395	197.612	203.843	257.273	202.795	-8191	255	
2350.303	1	1	0	0	0.23002	0.20875	0.12237	0.21846	0.079809	0.0557	0.38933	0.15971	0.13787	0.17232	0.06673	0.3159	0.15903	0.1228	0.014407	0.3645	-1.1333	-1.8917	-1.6812	-1.7854	-2.0229	-1.5604	-2.0854	-1.9896	-1.7042	-2.0229	-1.9083	-1.9167	-2.0771	-1.5	-1.6458	-1.9896	202.547	457.214	500.325	511.757	454.691	294.330	512.416	522.615	343.043	428.404	452.633	482.590	435.752	237.446	513.280	501.590	0.0010767	0.00033213	0.00010687	889.49	2.5188e-06	5.2275e-06	1371.5	287.8	2.4424e-06	3.7698e-06	543.05	197.94	82.721	37.435	7.8684e-06	110	0.00026035	0.00024899	7.3143e-05	802.04	2.4138e-06	2.7688e-06	1243.5	260.7	2.4567e-06	2.7752e-06	486.29	178.28	74.592	33.999	2.7185e-06	98.614	185.407	322.570	498.806	188.899	339.912	294.189	188.787	193.050	356.406	303.485	193.317	197.625	197.502	203.756	316.182	202.824	-8191	255	
2350.398	1	1	0	0	0.20605	0.027366	0.099762	0.081563	0.23398	0.119	0.14852	0.094486	0.19344	0.30732	0.45177	0.082006	0.075451	0.05129	0.051071	0.31221	-1.2542	-2.0542	-1.9125	-1.6229	-1.9125	-1.75	-2.0833	-2.2625	-1.7062	-2.0729	-1.725	-1.7313	-2.1562	-1.7625	-1.675	-2.1021	388.162	292.625	286.801	476.773	251.110	335.851	413.615	478.584	478.061	211.836	464.491	462.324	338.291	444.808	295.959	464.450	0.001029	0.0005367	0.00030752	890.59	3.7521e-06	5.7967e-06	1374.7	288.25	7.7828e-06	8.5184e-06	543.37	198.29	82.127	37.423	5.8688e-06	110.07	0.00026252	0.00025932	6.8732e-05	801.42	2.4852e-06	2.9026e-06	1245.6	260.96	2.5184e-06	2.8769e-06	487.52	178.91	74.727	34.07	2.6024e-06	98.822	184.896	278.531	250.038	188.770	366.060	282.972	188.749	192.930	311.310	309.703	193.298	197.457	197.185	203.984	263.587	203.106	-8191	255	
2350.496	1	1	0	0	0.18264	0.13161	0.24788	0.22458	0.34617	0.10218	0.068321	0.059179	0.2075	0.25284	0.21551	0.35273	0.19101	0.26346	0.1994	0.37898	-1.0854	-2.0958	-1.9917	-1.5146	-2.1354	-1.8708	-1.7625	-2.0104	-1.6979	-1.8937	-2.0958	-1.8125	-2.2104	-1.8042	-1.7708	-2.2438	230.147	353.433	455.905	444.548	443.115	308.360	228.431	187.606	482.681	255.712	196.317	454.784	229.381	196.306	285.861	199.411	0.0011191	0.00045987	0.00016805	890.81	5.0758e-06	2.6473e-06	1375.7	289.74	4.623e-06	7.3397e-06	548.19	201.71	82.874	37.978	6.9423e-06	111.83	0.00027522	0.00025877	6.6084e-05	801.6	2.6276e-06	2.7943e-06	1247.4	261.16	2.7261e-06	2.8359e-06	490.86	180.63	75.317	34.455	2.582e-06	100.27	187.322	289.033	298.496	188.614	267.815	239.761	188.912	192.865	239.160	307.065	193.113	197.746	197.540	203.838	279.181	202.798	-8191	255	
2350.615	1	1	0	0	0.18986	0.28088	0.21244	0.3249	0.010878	0.1688	0.038241	0.18245	0.1165	0.18996	0.15745	0.18919	0.22424	0.19381	0.12097	0.3528	-1.2938	-2.0125	-2	-1.5708	-1.7021	-1.5771	-1.65	-1.9271	-1.7396	-1.8292	-2.0333	-1.3917	-1.8563	-1.7708	-1.7792	-2.0687	357.627	501.623	368.531	522.736	251.340	431.248	457.563	341.790	194.726	494.784	200.799	390.175	490.767	386.185	444.681	462.912	0.0010897	0.00058653	0.00040073	889.19	3.4912e-06	1.024e-05	1389.3	289.24	5.4139e-06	3.543e-06	545.91	200.39	82.283	37.582	8.5888e-06	111.27	0.00029062	0.000249	6.289e-05	803.37	2.8088e-06	2.6805e-06	1253.9	261.71	2.826e-06	2.728e-06	489.13	179.86	75.351	34.062	2.4901e-06	99.343	186.520	272.758	283.255	188.482	325.490	303.651	188.651	192.958	276.132	401.357	192.985	197.341	197.765	203.618	308.360	202.736	-8191	255	
2350.686	1	1	0	0	0.15619	0.050959	0.066241	0.027693	0.21107	0.028486	0.028414	0.28406	0.051869	0.088123	0.17143	0.24969	0.37726	0.089896	0.14905	0.16246	-1.3604	-1.8458	-2.0792	-1.8021	-1.9937	-1.8333	-1.7542	-1.9562	-1.6354	-1.6208	-2.1208	-1.5604	-1.7958	-1.7188	-1.4104	-1.925	382.891	526.078	255.933	212.416	229.750	321.840	392.001	495.612	179.918	186.038	460.530	458.941	481.064	480.359	350.315	341.026	0.0010641	0.0006871	0.00020859	893.57	1.2163e-06	3.3805e-06	1385.9	288.36	6.6082e-06	4.908e-06	541.3	199.74	82.324	37.631	5.6832e-06	110.09	0.00029911	0.00023805	6.12e-05	805.95	2.8715e-06	2.6253e-06	1250	261.5	2.9219e-06	2.5655e-06	487.69	179.53	74.791	33.943	2.3877e-06	98.758	181.027	262.918	273.777	188.332	433.637	230.782	188.830	193.159	317.310	265.653	193.298	197.495	197.152	203.531	311.259	202.686	-8191	255	
2350.782	1	1	0	0	0.16342	0.077258	0.26751	0.16116	0.27061	0.084962	0.087764	0.15278	0.14135	0.065421	0.1525	0.060026	0.040383	0.18372	0.26706	0.046522	-1.3208	-1.7396	-2.0333	-1.75	-1.8875	-1.8979	-1.6667	-1.8458	-1.6854	-1.6542	-2.0083	-1.6833	-1.8604	-1.9896	-1.5375	-2.1479	187.729	414.444	460.029	460.013	503.567	216.685	440.874	529.737	406.836	385.238	329.989	299.089	423.993	373.870	392.025	184.569	0.0010859	0.00052038	0.00026156	885.19	5.124e-06	7.4943e-06	1388.4	289.4	7.6174e-06	5.0099e-06	544.7	199.05	82.6	37.4	2.3235e-06	110.7	0.00029787	0.00023054	6.0542e-05	803.35	2.7577e-06	2.5272e-06	1250.2	261.75	2.7598e-06	2.4932e-06	487.68	179.6	74.801	33.857	2.415e-06	99.142	184.358	320.649	262.737	188.609	333.089	315.258	188.985	193.408	291.151	370.975	193.332	197.456	197.260	203.988	253.754	203.124	-8191	255	
2350.903	1	1	0	0	0.36251	0.13726	0.20742	0.19601	0.037827	0.22161	0.26937	0.055293	0.20449	0.31611	0.31146	0.39761	0.1841	0.050756	0.14209	0.1215	-1.3229	-1.6771	-1.9	-1.6542	-1.725	-1.8708	-1.575	-1.9542	-1.825	-1.4333	-1.9354	-1.6021	-1.7271	-1.9875	-1.3354	-1.9875	530.944	298.619	393.828	328.060	323.804	255.756	443.044	470.847	428.877	491.618	363.772	498.939	293.323	262.871	424.090	317.978	0.0010828	0.00034286	0.00014589	894.62	7.6192e-06	5.9181e-06	1393.9	287.94	6.3442e-06	1.706e-06	548.85	201.03	83.325	37.775	6.3575e-06	111.5	0.00028425	0.00022491	6.1213e-05	808.11	2.6446e-06	2.4304e-06	1256.6	262.28	2.6862e-06	2.4338e-06	491.33	181.32	75.42	34.211	2.5906e-06	100.43	188.025	347.225	262.255	188.544	325.198	339.984	188.813	192.799	306.613	295.732	193.039	197.134	197.420	203.346	294.522	202.906	-8191	255	
2350.999	1	1	0	0	0.096736	0.21568	0.17403	0.1483	0.16332	0.12563	0.19469	0.071845	0.074732	0.11699	0.11207	0.19005	0.19397	0.1195	0.31657	0.17575	-1.2125	-1.3458	-1.8417	-1.7229	-1.4688	-1.9312	-1.7792	-2.1625	-1.6667	-1.5292	-2.2812	-1.9354	-1.8604	-2.2146	-1.7542	-2.0396	451.545	320.475	180.911	501.364	439.885	493.151	461.562	224.470	414.732	516.462	200.632	189.641	471.908	510.855	532.654	440.669	0.0011201	0.00082393	4.4576e-05	889.88	4.3971e-06	8.9773e-06	1401.2	291.19	8.7328e-06	3.2526e-06	545.24	200.9	83.006	37.795	5.0839e-06	111.58	0.00027442	0.00022064	6.6358e-05	807.8	2.5772e-06	2.336e-06	1260.3	263.24	2.5611e-06	2.3856e-06	491.35	181.23	75.334	34.177	2.8077e-06	100.33	184.661	315.293	222.389	188.969	234.095	283.254	188.564	192.724	286.855	350.385	193.287	197.602	197.205	203.522	216.210	202.923	-8191	255	
2351.095	1	1	0	0	0.090925	0.16361	0.13383	0.099779	0.038819	0.2398	0.2029	0.05524	0.1539	0.16363	0.17249	0.25421	0.069776	0.16358	0.26723	0.35206	-1.375	-1.5771	-1.6688	-1.5917	-1.5854	-1.8333	-1.6688	-1.7229	-1.8208	-1.6333	-1.9646	-1.8188	-1.4062	-2.0083	-1.4125	-1.7812	295.514	199.147	358.457	458.645	248.895	198.851	437.612	379.675	475.620	215.647	512.494	515.015	475.205	256.662	181.332	464.300	0.0010701	0.00066915	0.0002594	895.9	7.0836e-06	2.2601e-06	1385.6	291.47	2.844e-06	3.2521e-06	549.57	200.98	82.962	37.892	6.1347e-06	111.23	0.00026588	0.00021958	7.1192e-05	810.62	2.5057e-06	2.3943e-06	1254.5	263.26	2.5654e-06	2.4365e-06	492.03	180.5	75.081	34.281	2.9147e-06	99.689	182.802	269.188	259.156	188.866	313.366	315.787	188.529	192.947	378.793	291.952	193.739	197.317	197.358	203.522	255.254	202.900	-8191	255	
2351.216	1	1	0	0	0.17343	0.072425	0.039069	0.15567	0.29135	0.12484	0.24046	0.1012	0.20885	0.18471	0.13536	0.25806	0.24571	0.063829	0.20315	0.14454	-1.4021	-1.4625	-1.8583	-1.8354	-1.4979	-1.9813	-1.8479	-1.7604	-1.8229	-1.5708	-2.0062	-1.9625	-1.8	-2.1042	-1.6375	-1.8458	225.626	197.941	249.680	338.517	412.716	249.673	491.934	189.302	514.454	306.357	436.129	491.675	435.919	501.853	509.249	524.742	0.0010663	0.00077408	0.00028671	889.42	5.2105e-06	8.0308e-06	1391.9	289.21	5.8471e-06	7.3486e-06	547.15	202.33	83.275	38.3	1.5496e-06	112.2	0.00026129	0.00022669	7.2788e-05	806.56	2.4342e-06	2.5384e-06	1258.3	262.6	2.4265e-06	2.6107e-06	492.21	181.47	75.358	34.635	2.9281e-06	100.66	188.472	215.252	273.576	188.619	355.287	343.796	188.856	192.860	266.293	242.822	193.663	197.133	197.653	203.314	460.321	202.997	-8191	255	
2351.310	1	1	0	0	0.13098	0.21824	0.33428	0.29196	0.023628	0.14608	0.35546	0.05176	0.13066	0.054997	0.17916	0.23419	0.090886	0.24379	0.22638	0.2483	-1.6146	-1.5229	-1.6354	-1.8333	-1.5542	-1.9	-1.6354	-1.6292	-1.7854	-1.5854	-1.9479	-1.9062	-1.2875	-2.0187	-1.4354	-1.7333	190.959	514.738	334.073	182.322	419.179	232.877	438.489	379.886	527.429	305.846	207.063	176.178	233.752	219.728	359.945	414.916	0.0010021	0.00066908	0.00013674	888.21	3.9386e-06	4.955e-06	1389.3	291.88	4.9684e-06	7.3358e-06	549.85	202.2	83.036	38	5.867e-06	112.98	0.00025376	0.00024882	7.3231e-05	807.56	2.4311e-06	2.7047e-06	1259.6	263.22	2.4335e-06	2.7787e-06	493.43	181.83	75.437	34.616	2.747e-06	101.36	181.512	295.304	224.281	188.682	364.609	263.435	188.911	193.143	288.894	302.574	193.350	197.408	197.729	203.673	340.618	202.878	-8191	255	
2351.384	1	1	0	0	0.45262	0.21006	0.026163	0.45294	0.14464	0.17615	0.25443	0.22846	0.11783	0.21376	0.14945	0.37911	0.40785	0.17307	0.097616	0.34294	-1.4792	-1.55	-1.8708	-2.1875	-1.5896	-1.8792	-1.8417	-1.6833	-1.7729	-1.4542	-1.7125	-1.8042	-1.5604	-1.8396	-1.5958	-1.6854	522.015	459.326	230.211	437.225	408.280	465.733	501.469	460.705	421.286	239.151	185.845	483.819	502.837	440.212	415.585	463.172	0.0010444	7.3876e-05	0.0003498	891.16	2.8191e-06	7.1695e-06	1398.1	291.48	3.6769e-06	5.0328e-06	551.67	201.52	83.494	38.076	6.1967e-06	112.54	0.00025976	0.00026051	6.9693e-05	808.32	2.5181e-06	2.8203e-06	1263.3	263.6	2.5166e-06	2.8969e-06	494.38	181.5	75.537	34.577	2.6895e-06	100.9	184.094	364.196	227.479	188.529	274.285	274.077	188.952	193.285	290.873	264.021	193.228	197.362	197.122	203.557	303.095	202.739	-8191	255	
2351.503	1	1	0	0	0.20171	0.15032	0.14961	0.39998	0.15604	0.32552	0.3751	0.34416	0.20859	0.051305	0.32428	0.040614	0.18029	0.23137	0.22075	0.36206	-1.5125	-1.6437	-1.7	-2.1542	-1.7667	-1.9042	-2.2562	-1.7021	-2.0375	-1.7521	-1.7854	-2.2104	-1.4708	-2.0042	-1.7188	-1.4937	388.628	360.779	529.135	495.710	359.001	474.690	473.941	516.696	455.299	263.955	447.771	403.563	489.727	258.755	416.800	450.000	0.00097638	0.00085428	0.00016476	894.08	5.0624e-06	5.7971e-06	1400	291.29	6.2841e-06	1.8676e-06	547.89	201.25	82.695	37.607	5.9653e-06	110.93	0.00027867	0.00026467	6.7401e-05	807.02	2.6531e-06	2.8345e-06	1258	262.07	2.6913e-06	2.8146e-06	490.98	180.1	75.07	34.078	2.5569e-06	99.335	186.955	291.414	222.673	188.748	300.858	339.529	189.092	193.025	267.574	298.473	193.143	197.763	197.617	203.632	330.356	202.610	-8191	255	
2351.599	1	1	0	0	0.069232	0.25563	0.16556	0.28147	0.22305	0.053758	0.065392	0.054555	0.25139	0.28321	0.3038	0.19972	0.23992	0.30129	0.080675	0.14899	-1.4146	-1.4646	-1.6521	-2.0812	-1.4062	-1.8125	-1.9479	-1.725	-2.0333	-1.7833	-1.7458	-2.0604	-1.55	-1.6917	-1.6521	-1.7646	445.287	529.373	186.180	184.365	430.907	405.271	404.951	407.776	345.519	466.300	490.924	183.885	471.942	476.353	482.941	391.653	0.0010403	0.00048889	0.00029951	898.1	3.8691e-06	5.308e-06	1394.7	289.66	7.689e-06	5.6267e-06	551.76	200.9	83.117	37.656	3.7849e-06	111.76	0.00028936	0.00025144	6.4036e-05	806.88	2.7715e-06	2.7517e-06	1258.3	262.28	2.8621e-06	2.738e-06	492.66	180.63	75.437	34.149	2.4763e-06	99.728	188.995	243.614	225.059	188.633	289.198	306.730	189.000	193.300	261.981	311.037	193.189	197.467	197.085	203.658	300.110	202.782	-8191	255	
2351.695	1	1	0	0	0.081379	0.21174	0.044718	0.25599	0.28487	0.20581	0.13343	0.19708	0.27152	0.21987	0.093152	0.28716	0.1969	0.1795	0.1219	0.12442	-1.3667	-1.7563	-1.6292	-2.0125	-1.7417	-1.8937	-1.9708	-1.6042	-1.7	-1.7396	-1.7167	-2.1771	-1.6979	-1.7333	-2.0958	-1.7479	441.143	389.895	267.204	483.509	240.895	453.682	507.826	183.342	472.644	335.327	369.747	516.201	508.336	513.081	505.470	524.533	0.0010788	0.00039968	0.00020206	890.17	7.4945e-06	6.3359e-06	1396.4	289.71	2.6285e-06	6.5188e-06	550.33	200.37	82.723	37.513	4.8517e-06	111.29	0.000303	0.00024204	6.2335e-05	806.22	2.9519e-06	2.6502e-06	1260.5	262.95	2.9555e-06	2.6587e-06	491.79	180.6	75.24	34.025	2.5314e-06	100.3	188.821	315.289	272.029	188.631	293.524	292.953	188.668	193.300	291.772	309.852	193.234	197.429	197.353	203.745	233.003	203.021	-8191	255	
2351.791	1	1	0	0	0.31062	0.21289	0.026064	0.15296	0.098634	0.26537	0.18027	0.1423	0.22354	0.056328	0.31208	0.30706	0.080689	0.094214	0.2067	0.31465	-1.3875	-1.8458	-1.4125	-1.8625	-1.6771	-1.3813	-2.0521	-1.725	-1.7833	-2.0667	-1.75	-1.8188	-1.6521	-1.65	-1.8521	-1.9104	446.570	477.297	503.411	219.387	379.661	506.494	421.367	516.417	310.289	275.406	205.913	442.790	215.552	283.533	498.730	488.664	0.00098632	0.00034253	0.00018305	890.21	4.6912e-06	3.7058e-06	1398.3	291.48	5.5739e-06	8.2952e-06	550.05	202.45	83.055	37.596	5.8444e-06	112.08	0.00031035	0.00024613	6.3402e-05	811.38	3.0508e-06	2.7478e-06	1263.5	264.31	3.0346e-06	2.7322e-06	494.38	182.27	75.676	34.238	2.5847e-06	100.72	186.331	269.900	240.957	188.643	277.811	230.407	188.877	192.964	300.249	324.681	193.447	197.548	197.525	203.604	236.329	202.735	-8191	255	
2351.912	1	1	0	0	0.21966	0.16456	0.11929	0.143	0.17834	0.16827	0.21317	0.063547	0.08516	0.2412	0.29651	0.24317	0.32303	0.15756	0.10086	0.24231	-1.1354	-1.8458	-1.3521	-1.9521	-1.6729	-1.5958	-2.0396	-1.6812	-1.7	-1.9042	-1.9042	-2.0542	-1.9667	-1.7375	-1.9917	-1.7646	330.688	256.913	360.569	530.826	334.520	421.631	445.576	525.312	378.259	208.717	176.108	462.851	463.652	464.995	299.839	476.368	0.0010211	0.00095107	0.00026902	897.63	4.5022e-06	6.4747e-06	1390.4	291.13	3.5099e-06	2.2054e-06	549.71	200.08	82.618	37.752	7.2271e-06	111.7	0.00030422	0.00024346	6.7458e-05	813.18	2.8812e-06	2.6471e-06	1261.9	263.7	2.8455e-06	2.5956e-06	491.83	181.06	75.22	34.153	2.6849e-06	100.11	182.498	288.370	206.110	188.888	267.812	340.401	188.695	192.971	367.763	350.039	193.075	197.371	197.396	203.437	309.970	202.662	-8191	255	
2351.983	1	1	0	0	0.20235	0.28404	0.1508	0.18424	0.21325	0.23882	0.30577	0.17271	0.24746	0.24844	0.2308	0.40044	0.1018	0.09328	0.2383	0.16035	-1.225	-1.8271	-1.5042	-1.9813	-1.7375	-1.6771	-2.0646	-1.6021	-1.6313	-2.0208	-1.8563	-2.0938	-2.0438	-1.6917	-2.0833	-2.1	353.596	189.563	401.035	311.436	320.299	519.057	480.604	515.542	304.328	381.006	188.352	499.123	263.921	192.741	289.508	475.184	0.0011062	0.0005185	0.0001802	890.13	5.0142e-06	4.1431e-06	1396.7	289.95	3.3444e-06	5.0908e-06	547.02	200.4	81.794	37.933	4.1653e-06	112.37	0.00028865	0.00022479	6.9216e-05	808.22	2.7174e-06	2.4633e-06	1260	262.29	2.6979e-06	2.4215e-06	490.82	180.81	74.904	34.253	2.7899e-06	100.59	186.148	222.645	533.658	188.824	343.146	310.436	188.944	192.908	276.308	243.892	193.199	197.427	197.457	203.976	290.465	202.865	-8191	255	
2352.079	1	1	0	0	0.29333	0.22611	0.28379	0.011105	0.12901	0.24375	0.14003	0.25216	0.19131	0.091907	0.24999	0.24944	0.049854	0.15758	0.22531	0.1321	-1.3542	-2.2104	-1.6292	-1.8729	-1.9354	-1.7208	-2.2125	-1.9833	-1.6271	-2.0396	-1.6917	-2.0021	-1.8167	-1.4625	-1.7208	-1.9229	211.212	516.941	377.970	384.227	216.918	405.635	466.950	515.721	362.506	375.876	458.975	200.595	505.770	256.577	357.802	477.462	0.0010696	0.00054278	0.00022868	890.13	6.0229e-06	5.6841e-06	1386.2	290.24	4.4358e-06	6.2741e-06	553.22	202.19	83.781	38.363	3.7227e-06	113.41	0.00027334	0.00022026	7.0374e-05	808.27	2.5109e-06	2.4227e-06	1260.6	262.74	2.5684e-06	2.4413e-06	495.72	182.17	75.582	34.62	2.8703e-06	102.09	183.826	312.246	286.418	188.937	308.415	272.855	188.636	193.331	314.497	319.583	193.365	197.594	197.366	203.719	292.846	203.008	-8191	255	
2352.176	1	1	0	0	0.16342	0.19803	0.13327	0.33724	0.1833	0.085377	0.31336	0.11908	0.25149	0.17936	0.17138	0.27664	0.12933	0.31686	0.18561	0.17627	-1.0292	-1.8146	-1.375	-1.7354	-1.6313	-1.5917	-2.0604	-1.7188	-1.4583	-1.95	-1.8417	-1.8563	-2.0479	-1.6146	-1.8208	-2.0604	247.000	323.378	485.261	458.733	530.217	417.305	438.180	391.984	367.757	522.258	411.316	491.788	520.915	494.796	232.121	464.283	0.0010685	0.00055043	0.00018527	894.37	1.9287e-06	4.0225e-06	1404.1	294.04	4.8869e-06	5.9823e-06	560.02	204.84	84.046	39.065	6.6198e-06	115.46	0.00026431	0.00022755	7.3885e-05	810	2.4059e-06	2.5918e-06	1271	265.33	2.4414e-06	2.6006e-06	500.67	184.43	76.279	35.53	2.8545e-06	103.78	186.002	295.386	265.845	188.974	394.986	310.804	188.750	193.071	295.275	308.460	193.303	197.546	197.188	203.410	284.443	202.500	-8191	255	
2352.296	1	1	0	0	0.087652	0.31267	0.28855	0.30244	0.22405	0.054303	0.10902	0.13296	0.29904	0.21469	0.3651	0.16679	0.067071	0.31507	0.25888	0.13232	-1.0979	-1.8937	-1.6646	-1.9937	-2.0625	-1.5812	-2.0479	-1.875	-1.5	-2.0167	-1.7021	-1.7208	-1.9479	-1.5521	-1.7604	-2.0354	423.519	245.594	325.874	477.058	431.014	389.398	411.012	387.649	384.509	286.410	390.364	346.800	177.812	210.290	477.845	502.648	0.001087	0.00058092	0.00012125	903.71	4.5791e-06	5.0004e-06	1398.4	294.84	8.5231e-06	3.313e-06	554.86	205.48	84.213	39.489	6.3976e-06	117.07	0.00025957	0.00024514	7.1939e-05	815.49	2.3399e-06	2.7626e-06	1270.3	265.97	2.4633e-06	2.7123e-06	497.77	184.61	76.467	35.864	2.7447e-06	104.56	185.470	272.467	201.064	188.686	300.048	282.778	189.099	193.009	301.492	192.673	193.290	197.518	197.449	203.478	335.849	202.765	-8191	255	
2352.391	1	1	0	0	0.16483	0.29695	0.29225	0.13788	0.16217	0.24794	0.22918	0.063008	0.092999	0.27472	0.08363	0.44617	0.13932	0.1275	0.21928	0.15542	-1.1688	-1.7583	-1.5333	-1.9292	-2.0292	-1.6479	-2.0542	-1.9479	-1.5667	-1.9438	-1.825	-1.6479	-1.9021	-1.6688	-1.5667	-2.0583	406.139	508.576	252.643	526.939	370.203	395.228	464.681	298.798	487.173	245.045	209.923	459.531	331.319	492.776	377.090	485.840	0.0011674	0.00064045	0.00031425	902.83	6.3464e-06	4.9666e-06	1395.6	296.43	5.954e-06	3.873e-06	557.88	206.42	85.289	40.043	5.9416e-06	118.24	0.00026791	0.00025958	6.9172e-05	815.2	2.5064e-06	2.8497e-06	1270	266.86	2.5199e-06	2.8362e-06	499.32	185.63	77.258	36.279	2.6701e-06	105.73	187.882	522.311	249.279	188.767	297.488	253.665	188.937	192.883	321.308	351.520	193.141	197.485	197.294	203.215	328.098	202.708	-8191	255	
2352.487	1	1	0	0	0.048267	0.10224	0.20795	0.14595	0.032732	0.25841	0.44628	0.11014	0.085116	0.19482	0.35802	0.54318	0.11121	0.038721	0.1617	0.32176	-1.1375	-1.7521	-1.6333	-1.5979	-1.8333	-1.5979	-1.8021	-2.1458	-1.3813	-1.6604	-1.9708	-1.525	-1.9021	-1.8708	-1.6521	-2.2229	387.351	277.171	374.706	525.509	334.289	448.168	465.580	362.642	492.266	424.081	204.293	499.086	524.529	374.272	199.391	449.777	0.0011737	0.00083886	0.00031126	900.75	2.7973e-06	4.0641e-06	1404.4	293.11	6.2693e-06	2.4144e-06	560.94	208.79	85.026	40.698	5.3444e-06	119.04	0.00027381	0.00026067	6.5252e-05	815.92	2.5842e-06	2.8384e-06	1272.7	266.6	2.7564e-06	2.7904e-06	501.01	186.79	77.505	36.749	2.5941e-06	106.67	186.122	286.134	286.952	188.796	314.430	278.626	188.749	193.139	319.753	289.118	193.169	197.572	197.593	203.838	306.248	202.697	-8191	255	
2352.583	1	1	0	0	0.073154	0.0033597	0.12372	0.3411	0.18146	0.1306	0.28714	0.12803	0.096452	0.26731	0.30357	0.22736	0.25964	0.26892	0.070817	0.083785	-1.2188	-1.7271	-1.8771	-1.4229	-1.925	-1.7104	-1.9229	-2.25	-1.6083	-1.6771	-2.0146	-1.7021	-1.8396	-1.7437	-1.7	-2.1854	353.305	230.477	215.638	497.733	210.674	255.245	511.332	197.532	261.838	225.988	491.586	368.946	532.609	242.696	321.586	190.261	0.0012405	0.00084339	0.00015592	906.86	5.9726e-06	6.8541e-06	1408.5	295.87	4.0313e-06	8.1416e-06	565.57	209.87	85.943	40.69	5.6715e-06	119.97	0.00029755	0.0002516	6.2438e-05	817.78	2.8135e-06	2.7782e-06	1278.5	267.6	2.8659e-06	2.7286e-06	505.43	189.09	78.44	37.033	2.4905e-06	107.6	186.830	292.697	273.292	188.544	256.063	335.792	188.974	193.128	326.723	271.714	193.313	197.781	197.884	203.705	251.303	202.413	-8191	255	
2352.679	1	1	0	0	0.26037	0.08764	0.15981	0.20846	0.14997	0.10569	0.33252	0.20248	0.23111	0.12795	0.18683	0.084601	0.11467	0.072685	0.22787	0.42254	-1.3292	-1.8188	-2.1417	-1.6063	-2.0667	-2.0312	-1.7833	-2.125	-1.6854	-1.8583	-2.1562	-1.7458	-1.8854	-1.7958	-1.6708	-2.1625	247.570	354.874	379.178	502.780	512.064	508.692	465.878	302.414	429.827	196.865	195.685	483.861	356.372	369.854	216.460	477.068	0.0011388	0.0005061	0.00012357	907.34	7.4565e-06	6.7827e-06	1412.8	296.65	4.4163e-06	4.9936e-06	564.16	208.72	86.223	40.505	6.7977e-06	119.65	0.0003062	0.0002421	6.1177e-05	819.84	2.8311e-06	2.6245e-06	1274.7	268.26	2.8564e-06	2.5709e-06	503.06	188.16	78.465	36.726	2.3934e-06	107.11	185.377	247.746	231.741	188.623	325.637	358.744	188.557	193.258	308.286	288.141	193.427	197.742	197.694	203.491	286.753	202.682	-8191	255	
2352.775	1	1	0	0	0.17906	0.12572	0.13098	0.26459	0.11336	0.20233	0.33708	0.19808	0.35371	0.31546	0.28885	0.2355	0.14409	0.23052	0.19556	0.37837	-1.1104	-1.6646	-1.975	-1.475	-1.6812	-1.8604	-1.7771	-1.9792	-1.7396	-1.6292	-2.1542	-1.9167	-1.8271	-1.9646	-1.5187	-2.0917	368.000	342.453	364.814	492.586	260.982	344.998	461.971	444.725	258.034	430.141	417.162	451.997	443.339	213.510	489.816	452.404	0.0010786	0.00059622	0.00011633	904.05	3.2094e-06	7.6998e-06	1414.5	295.03	6.1589e-06	5.716e-06	559.96	208.76	85.709	40.259	3.6558e-06	118.41	0.00029983	0.00023594	6.101e-05	820.14	2.8404e-06	2.5787e-06	1279.4	267.86	2.8695e-06	2.5526e-06	500.74	187.55	77.801	36.374	2.4608e-06	106.37	185.753	259.097	247.331	188.530	326.602	269.092	189.057	192.906	298.426	314.985	193.672	197.604	198.230	203.319	280.686	202.788	-8191	255	
2352.896	1	1	0	0	0.14857	0.2285	0.019382	0.22748	0.10276	0.080481	0.13541	0.14379	0.22381	0.18637	0.28401	0.50193	0.079999	0.27399	0.16966	0.21865	-1.3292	-1.65	-2.0292	-1.6938	-1.8792	-1.9562	-1.6479	-2.0167	-1.7479	-1.6187	-2.0938	-1.6021	-1.825	-2.0271	-1.7062	-2.1937	468.998	424.596	342.592	415.573	271.208	459.920	459.999	189.627	492.401	522.961	437.149	453.239	290.111	195.369	461.183	483.125	0.0011161	0.00029131	0.00014764	905.07	4.6091e-06	4.4218e-07	1416.7	296.7	7.6552e-06	8.1167e-06	562.54	209.47	85.645	40.698	5.8615e-06	118.94	0.00029202	0.00022784	6.3056e-05	822.33	2.7624e-06	2.4748e-06	1280.9	268.83	2.6933e-06	2.4641e-06	504.07	188.67	78.187	36.595	2.6238e-06	106.97	189.771	289.997	233.009	188.585	302.899	213.107	188.839	192.939	287.289	293.905	193.478	197.505	197.293	203.792	266.414	202.776	-8191	255	
2352.992	1	1	0	0	0.04465	0.25778	0.13229	0.27758	0.24868	0.13498	0.36622	0.39534	0.26055	0.044195	0.2854	0.26272	0.40862	0.12561	0.0678	0.19707	-1.4271	-1.5146	-2.1167	-1.6167	-1.5396	-1.9021	-1.8083	-2.0833	-1.7896	-1.6833	-2.1604	-1.9896	-1.7958	-2.3854	-1.7563	-2.1917	491.993	312.147	176.897	479.730	521.791	205.339	486.573	438.515	220.426	339.761	305.548	465.395	504.036	190.492	516.101	484.373	0.0010637	0.00048653	0.00015059	910.64	2.9374e-06	2.7942e-06	1424.3	298.46	2.8918e-06	2.0809e-06	565.01	210.78	86.2	40.736	4.121e-06	120.83	0.00028906	0.00022773	6.6939e-05	822.93	2.6715e-06	2.4558e-06	1286.2	270.05	2.6515e-06	2.4736e-06	507.28	189.95	78.449	36.82	2.7828e-06	107.96	183.693	285.733	184.215	188.907	238.131	272.678	188.874	193.132	252.958	332.952	193.427	197.553	196.973	203.091	386.966	202.800	-8191	255	
2353.088	1	1	0	0	0.12761	0.039254	0.23502	0.13888	0.11531	0.16028	0.59805	0.22592	0.10509	0.18706	0.24174	0.52345	0.022013	0.12298	0.12347	0.15125	-1.5562	-1.5854	-2.0021	-1.9292	-1.7062	-1.9083	-1.9104	-1.9417	-1.9479	-1.6167	-1.8583	-1.8458	-1.8375	-2.0687	-1.6583	-1.9854	289.911	228.864	355.180	179.453	304.714	308.758	483.480	185.031	461.968	201.530	445.180	193.505	237.381	296.232	509.615	461.481	0.0011812	0.00055765	0.00028333	908.34	3.4581e-06	1.7875e-06	1423.3	298.88	5.1122e-06	4.2745e-06	564.9	208.56	86.757	40.251	9.8677e-06	119.03	0.00028097	0.00022006	7.1949e-05	824.04	2.5456e-06	2.4197e-06	1288.9	270.13	2.5376e-06	2.4761e-06	505.92	188.35	78.252	36.511	2.9851e-06	107.05	187.297	298.944	232.594	188.581	301.395	244.312	188.839	193.122	298.893	285.702	193.329	197.855	197.149	203.684	254.645	202.699	-8191	255	
2353.184	1	1	0	0	0.27743	0.090428	0.095458	0.21242	0.19141	0.21339	0.16489	0.35225	0.069168	0.064931	0.3075	0.18782	0.15806	0.048619	0.18375	0.071992	-1.6021	-1.6396	-1.9771	-2.0167	-1.6896	-2.1646	-2.0125	-1.8979	-2.0208	-1.7563	-2.0583	-1.9208	-1.4583	-2.025	-1.6396	-1.9917	349.284	451.370	329.365	434.798	183.489	247.209	465.705	515.613	502.779	298.763	527.808	502.168	330.896	456.975	514.010	293.726	0.0011294	0.00068135	0.00015821	914.11	5.7661e-06	4.4284e-06	1426	299.69	5.9547e-06	7.3277e-06	562.06	208.8	86.017	40.537	2.1745e-06	119.47	0.00026894	0.00023159	7.4112e-05	825.77	2.5028e-06	2.6319e-06	1287.4	269.67	2.4873e-06	2.5988e-06	505.29	187.93	78.021	36.649	2.9216e-06	106.97	184.428	276.450	209.115	188.973	278.537	316.864	188.746	193.107	292.123	285.884	193.328	197.588	197.353	203.654	295.134	202.790	-8191	255	
2353.280	1	1	0	0	0.28828	0.098673	0.26801	0.46961	0.43721	0.24313	0.29764	0.19363	0.065775	0.24792	0.25789	0.097287	0.11391	0.089162	0.26933	0.2498	-1.55	-1.3229	-1.6562	-2.0729	-1.4271	-1.8625	-1.8	-1.7083	-1.6667	-1.5312	-1.9917	-2.0354	-1.7667	-2.1917	-1.7646	-1.9979	431.793	320.448	229.848	516.690	184.276	452.918	475.000	484.465	448.999	218.563	213.409	407.334	510.651	255.253	328.262	488.600	0.0011432	0.00071789	4.6626e-05	912.23	9.9875e-06	8.5626e-06	1426.2	298.6	1.002e-05	8.203e-06	564.88	210.31	86.708	40.648	3.3021e-06	120.66	0.00026568	0.00024676	7.3902e-05	825.87	2.4704e-06	2.7621e-06	1288.8	270.14	2.4849e-06	2.8506e-06	507.03	189.21	78.462	36.931	2.81e-06	107.83	188.154	251.141	188.300	188.564	302.567	300.428	189.069	193.407	297.037	259.628	193.375	197.497	197.437	203.629	309.326	202.700	-8191	255	
2353.375	1	1	0	0	0.07656	0.050729	0.21948	0.073691	0.11415	0.29933	0.44379	0.39895	0.055546	0.18527	0.27851	0.29647	0.27355	0.14243	0.22914	0.24187	-1.5958	-1.6021	-1.675	-2.0333	-1.5979	-1.8417	-1.9229	-1.45	-1.9417	-1.7188	-2.0021	-2.1458	-1.6938	-2.0938	-1.8583	-1.775	340.398	373.874	179.565	364.451	446.031	342.044	480.363	500.367	236.240	238.293	202.071	442.179	452.022	534.821	360.966	453.398	0.00118	0.00013132	6.4152e-05	911.04	1.9786e-06	7.6053e-06	1430.6	300.19	5.4207e-06	2.2308e-06	566.11	212.1	86.66	41.029	3.3976e-06	121.8	0.0002661	0.0002654	7.0786e-05	825.94	2.5534e-06	2.9204e-06	1293.8	270.92	2.5263e-06	2.9381e-06	508.3	190.21	78.74	37.2	2.7342e-06	108.88	183.944	265.834	231.748	188.500	283.443	295.459	188.926	193.383	252.999	332.276	193.088	197.343	197.526	203.623	290.227	202.622	-8191	255	
2353.471	1	1	0	0	0.26906	0.21235	0.049257	0.11842	0.11292	0.075957	0.23308	0.27734	0.15383	0.20277	0.049774	0.1915	0.13266	0.081852	0.16756	0.09502	-1.675	-1.6583	-1.5167	-2.1562	-1.8021	-2.0208	-2.2083	-1.7521	-2.1437	-1.8875	-1.9979	-2.2896	-1.8	-2.1125	-1.9208	-1.9125	424.865	383.927	291.741	532.394	390.481	269.507	325.601	463.997	203.437	202.939	483.793	215.163	496.126	179.419	350.735	526.088	0.0011639	0.00087879	0.00028654	913.31	1.8428e-06	6.2694e-06	1431.1	300.08	4.4046e-06	1.016e-05	566.1	210.89	87.146	40.776	6.5109e-06	120.46	0.00028647	0.0002677	6.8894e-05	827.14	2.6719e-06	2.989e-06	1293	270.41	2.7504e-06	2.9006e-06	508.22	189.51	78.99	36.921	2.6154e-06	107.66	187.201	229.053	272.628	188.322	311.672	294.303	188.750	193.159	318.695	326.250	193.303	197.322	197.422	203.786	263.800	202.677	-8191	255	
2353.592	1	1	0	0	0.13553	0.21987	0.10099	0.15664	0.10816	0.19148	0.21416	0.18811	0.24563	0.15177	0.090934	0.28704	0.16479	0.13634	0.19706	0.2986	-1.4604	-1.8646	-1.6583	-1.8854	-1.6021	-1.825	-2.1312	-1.7625	-2.1	-1.8646	-1.8458	-2.1875	-1.7375	-1.7229	-1.6792	-1.925	267.698	420.655	220.111	488.486	245.340	458.252	512.817	520.879	313.329	202.248	343.846	232.611	197.229	434.961	345.013	484.715	0.0011402	0.00033669	0.00022862	915.5	4.1882e-06	6.8025e-06	1412.4	296.64	6.0505e-06	1.0977e-05	565.63	208.36	86.167	40.312	7.0693e-06	119.09	0.0003044	0.00025441	6.599e-05	826.02	2.8936e-06	2.8353e-06	1282.9	268.98	2.894e-06	2.7842e-06	505.49	188.1	78.452	36.579	2.5584e-06	106.58	188.060	208.061	298.133	188.690	284.907	356.567	189.024	193.038	264.836	349.948	193.096	197.548	197.425	203.258	315.260	202.716	-8191	255	
#DATA ENDS
