BOXY.EXE: ISS Imagent and Oximeter Data Acquisition Program Version 0.80
Ascii Record File

#ACQ INFORMATION
2  Detector Channels 
16  External MUX Channels 
1  Auxiliary Channels 
5000  Waveform (CCF) Frequency (Hz)
1  Waveforms Skipped 
30  Waveforms Averaged 
1  Cycles Averaged 
16  Acquisitions per Waveform 
10.0806  Updata Rate (Hz) 

#FILE INFORMATION
TRUE -- External MUX Channel results are PARSED.
FALSE -- AC DC and Phase are NOT grouped.
TRUE -- Companion Program Settings File CREATED.
FALSE -- AC data not excluded
FALSE -- DC data not excluded
FALSE -- Phase data not excluded
FALSE -- Auxillary Chn. data not excluded
Tab delimiters

#CALIBRATION STATE
TRUE -- Waveform Calibration Values APPLIED.


#AUX CALIBRATION VALUES
Val Type	aux-1	

Term	1.0000e+00	
Factor	0.0000e+00	


#WF CALIBRATION VALUES
A = Detector Channel
Val Type	A-AC1	A-AC2	A-AC3	A-AC4	A-AC5	A-AC6	A-AC7	A-AC8	A-AC9	A-AC10	A-AC11	A-AC12	A-AC13	A-AC14	A-AC15	A-AC16	A-DC1	A-DC2	A-DC3	A-DC4	A-DC5	A-DC6	A-DC7	A-DC8	A-DC9	A-DC10	A-DC11	A-DC12	A-DC13	A-DC14	A-DC15	A-DC16	A-Ph1	A-Ph2	A-Ph3	A-Ph4	A-Ph5	A-Ph6	A-Ph7	A-Ph8	A-Ph9	A-Ph10	A-Ph11	A-Ph12	A-Ph13	A-Ph14	A-Ph15	A-Ph16	

Term	0.00000e+00	0.00000e+00	0.00000e+00	0.00000e+00	0.00000e+00	0.00000e+00	0.00000e+00	0.00000e+00	0.00000e+00	0.00000e+00	0.00000e+00	0.00000e+00	0.00000e+00	0.00000e+00	0.00000e+00	0.00000e+00	0.00000e+00	0.00000e+00	0.00000e+00	0.00000e+00	0.00000e+00	0.00000e+00	0.00000e+00	0.00000e+00	0.00000e+00	0.00000e+00	0.00000e+00	0.00000e+00	0.00000e+00	0.00000e+00	0.00000e+00	0.00000e+00	0.00000e+00	0.00000e+00	0.00000e+00	0.00000e+00	0.00000e+00	0.00000e+00	0.00000e+00	0.00000e+00	0.00000e+00	0.00000e+00	0.00000e+00	0.00000e+00	0.00000e+00	0.00000e+00	0.00000e+00	0.00000e+00	
Factor	1.00000e+00	1.00000e+00	1.00000e+00	1.00000e+00	1.00000e+00	1.00000e+00	1.00000e+00	1.00000e+00	1.00000e+00	1.00000e+00	1.00000e+00	1.00000e+00	1.00000e+00	1.00000e+00	1.00000e+00	1.00000e+00	1.00000e+00	1.00000e+00	1.00000e+00	1.00000e+00	1.00000e+00	1.00000e+00	1.00000e+00	1.00000e+00	1.00000e+00	1.00000e+00	1.00000e+00	1.00000e+00	1.00000e+00	1.00000e+00	1.00000e+00	1.00000e+00	X	X	X	X	X	X	X	X	X	X	X	X	X	X	X	X	

B = Detector Channel
Val Type	B-AC1	B-AC2	B-AC3	B-AC4	B-AC5	B-AC6	B-AC7	B-AC8	B-AC9	B-AC10	B-AC11	B-AC12	B-AC13	B-AC14	B-AC15	B-AC16	B-DC1	B-DC2	B-DC3	B-DC4	B-DC5	B-DC6	B-DC7	B-DC8	B-DC9	B-DC10	B-DC11	B-DC12	B-DC13	B-DC14	B-DC15	B-DC16	B-Ph1	B-Ph2	B-Ph3	B-Ph4	B-Ph5	B-Ph6	B-Ph7	B-Ph8	B-Ph9	B-Ph10	B-Ph11	B-Ph12	B-Ph13	B-Ph14	B-Ph15	B-Ph16	

Term	0.00000e+00	0.00000e+00	0.00000e+00	0.00000e+00	0.00000e+00	0.00000e+00	0.00000e+00	0.00000e+00	0.00000e+00	0.00000e+00	0.00000e+00	0.00000e+00	0.00000e+00	0.00000e+00	0.00000e+00	0.00000e+00	0.00000e+00	0.00000e+00	0.00000e+00	0.00000e+00	0.00000e+00	0.00000e+00	0.00000e+00	0.00000e+00	0.00000e+00	0.00000e+00	0.00000e+00	0.00000e+00	0.00000e+00	0.00000e+00	0.00000e+00	0.00000e+00	-1.60165e+02	-1.56046e+02	-1.61601e+02	-1.84043e+02	-1.15639e+02	-8.35182e+01	-1.55479e+02	-1.62015e+02	-1.02200e+02	-1.19732e+02	-1.85372e+02	-1.70396e+02	-1.86982e+02	-1.76531e+02	-6.46452e+01	-1.49226e+02	
Factor	2.80052e-05	7.83278e-05	3.39611e-05	2.47397e-01	8.53685e-07	8.94540e-07	1.74294e-01	5.63954e-02	8.49358e-07	1.01448e-06	2.25253e-01	3.31667e-02	6.79303e-02	9.94483e-03	1.03214e-06	1.41766e-02	3.98363e-07	4.02558e-07	1.11943e-07	1.12903e-01	4.40606e-09	4.40072e-09	7.81490e-02	2.63565e-02	4.40888e-09	4.39813e-09	8.24592e-02	1.43961e-02	2.55369e-02	4.44917e-03	4.40686e-09	6.06539e-03	X	X	X	X	X	X	X	X	X	X	X	X	X	X	X	X	



#DISTANCE SETTINGS
A = Detector Channel
A-1	A-2	A-3	A-4	A-5	A-6	A-7	A-8	A-9	A-10	A-11	A-12	A-13	A-14	A-15	A-16	

2.5000e+00	3.0000e+00	2.5000e+00	3.0000e+00	2.0000e+00	3.0000e+00	1.5000e+00	3.0000e+00	3.0000e+00	3.0000e+00	3.0000e+00	3.0000e+00	3.0000e+00	3.0000e+00	1.5000e+00	3.0000e+00	

B = Detector Channel
B-1	B-2	B-3	B-4	B-5	B-6	B-7	B-8	B-9	B-10	B-11	B-12	B-13	B-14	B-15	B-16	

1.0000e+01	1.0000e+01	1.0000e+01	1.4400e+00	1.0000e+01	1.0000e+01	1.5100e+00	1.9400e+00	1.0000e+01	1.0000e+01	1.9900e+00	2.4900e+00	2.4100e+00	2.9000e+00	1.0000e+01	2.9800e+00	




#DATA BEGINS
time	group	step	mark	flag	A-AC1	A-AC2	A-AC3	A-AC4	A-AC5	A-AC6	A-AC7	A-AC8	A-AC9	A-AC10	A-AC11	A-AC12	A-AC13	A-AC14	A-AC15	A-AC16	A-DC1	A-DC2	A-DC3	A-DC4	A-DC5	A-DC6	A-DC7	A-DC8	A-DC9	A-DC10	A-DC11	A-DC12	A-DC13	A-DC14	A-DC15	A-DC16	A-Ph1	A-Ph2	A-Ph3	A-Ph4	A-Ph5	A-Ph6	A-Ph7	A-Ph8	A-Ph9	A-Ph10	A-Ph11	A-Ph12	A-Ph13	A-Ph14	A-Ph15	A-Ph16	B-AC1	B-AC2	B-AC3	B-AC4	B-AC5	B-AC6	B-AC7	B-AC8	B-AC9	B-AC10	B-AC11	B-AC12	B-AC13	B-AC14	B-AC15	B-AC16	B-DC1	B-DC2	B-DC3	B-DC4	B-DC5	B-DC6	B-DC7	B-DC8	B-DC9	B-DC10	B-DC11	B-DC12	B-DC13	B-DC14	B-DC15	B-DC16	B-Ph1	B-Ph2	B-Ph3	B-Ph4	B-Ph5	B-Ph6	B-Ph7	B-Ph8	B-Ph9	B-Ph10	B-Ph11	B-Ph12	B-Ph13	B-Ph14	B-Ph15	B-Ph16	aux-1	digaux	

19569.949	1	1	0	256	0.19955	0.18967	0.17475	0.09161	0.12762	0.41226	0.10732	0.30305	0.03908	0.084749	0.30437	0.19946	0.2615	0.16684	0.12339	0.29567	-1.575	-1.6021	-1.7	-1.9667	-1.5354	-1.8729	-2.0896	-1.4979	-2.0125	-1.5167	-1.7	-2.1542	-1.5167	-1.9125	-1.8937	-1.6313	-38.462	191.837	93.338	232.164	-51.311	45.024	151.442	179.571	9.756	-30.460	-10.217	98.788	-48.999	182.106	164.370	121.766	0.00043279	0.0012541	0.00029608	714.02	1.171e-05	6.3745e-06	813.94	238.58	4.2487e-06	2.4763e-05	317.72	119.3	76.601	39.368	7.9094e-06	63.68	0.0013946	0.0014104	0.00039483	1000.7	1.575e-05	1.5864e-05	995.85	302.43	1.6334e-05	1.6523e-05	539.58	154.32	153.23	50.258	1.7473e-05	76.088	185.721	-28.245	153.088	-81.768	47.168	241.352	-82.998	-76.779	-89.964	62.077	-78.095	-73.469	-72.027	-66.023	33.506	-68.531	-8191	255	
19570.047	1	1	0	0	0.15274	0.15736	0.16475	0.19249	0.24135	0.021923	0.040481	0.17233	0.13837	0.057923	0.20747	0.1798	0.15157	0.20947	0.10473	0.062926	-1.3354	-1.7125	-1.4771	-1.9188	-1.5438	-1.8312	-2.0417	-1.5104	-1.9167	-1.5229	-1.5187	-2.0604	-1.6042	-1.8646	-1.9458	-1.6604	-93.978	130.194	-64.116	-1.696	205.487	-86.582	-61.640	240.147	61.522	253.446	159.147	67.510	-9.305	245.126	41.490	255.267	3.4059e-05	0.00033881	7.902e-05	696.36	1.5246e-05	5.8895e-06	805.13	234.43	6.2444e-06	1.2711e-05	324.04	119.83	78.636	41.098	1.683e-06	67.479	0.0015877	0.0016075	0.00044671	1035.8	1.7414e-05	1.739e-05	1013.4	305.25	1.6903e-05	1.6831e-05	539.8	154.53	152.94	51.108	1.7218e-05	79.021	116.673	-18.978	-51.493	-81.878	49.317	-80.331	-82.733	-76.548	36.264	167.137	-78.009	-73.100	-71.772	-65.723	184.250	-68.838	-8191	255	
19570.168	1	1	0	0	0.16171	0.20174	0.0029275	0.16913	0.16463	0.18695	0.16356	0.17788	0.067071	0.056895	0.089935	0.22969	0.15051	0.16131	0.093529	0.24581	-1.5521	-1.6833	-1.5063	-2.0042	-1.7104	-1.9062	-1.8458	-1.5458	-1.9458	-1.8604	-1.6063	-2.2979	-1.7979	-1.9083	-1.9688	-1.525	156.248	175.227	109.857	218.009	27.772	100.950	-85.183	-93.749	123.135	-44.383	249.461	16.595	73.924	-3.731	169.200	-62.951	0.00025876	0.00086729	0.0006066	711.63	4.3433e-06	5.4922e-06	820.29	243.94	1.6756e-05	1.5153e-05	328.48	122.84	82.108	42.222	4.9444e-06	68.555	0.0015952	0.0016286	0.00045113	1058.2	1.7868e-05	1.7821e-05	1039.1	317.47	1.803e-05	1.812e-05	573.03	162.27	163.37	53.563	1.8148e-05	80.607	206.434	232.485	-69.765	-82.169	-13.943	-26.029	-82.713	-77.078	25.749	206.350	-77.522	-73.406	-73.036	-66.549	55.332	-69.048	-8191	255	
19570.264	1	1	0	0	0.095144	0.21358	0.24005	0.09363	0.22509	0.2645	0.12229	0.20842	0.16321	0.087042	0.074543	0.16063	0.17924	0.10766	0.20287	0.1167	-1.4375	-1.7708	-1.5167	-2.1542	-1.6479	-1.7062	-2.0187	-1.5167	-1.9062	-1.8333	-1.5562	-2.0333	-1.7375	-1.7062	-2.0958	-1.6313	14.002	212.577	148.060	-56.777	179.962	185.548	148.810	65.492	241.886	-85.035	244.450	127.293	240.952	202.696	206.271	154.402	0.00081119	0.00056024	0.00014839	717.33	4.4183e-06	8.4262e-06	817.95	243.64	3.823e-06	4.2223e-06	326.01	124.66	81.047	43.497	1.9131e-05	70.787	0.0016234	0.0016376	0.00045708	1064.4	1.8259e-05	1.8527e-05	1053.9	325.94	1.9721e-05	2.0161e-05	612.21	169.44	172.55	55.733	1.8988e-05	83.551	125.691	-7.518	69.005	-81.914	-5.377	-80.345	-82.403	-77.242	191.330	-89.120	-78.833	-73.063	-72.683	-66.280	79.803	-68.714	-8191	255	
19570.359	1	1	0	0	0.20985	0.076028	0.22625	0.29761	0.28218	0.078269	0.33384	0.16899	0.18432	0.15566	0.1579	0.18821	0.31539	0.52548	0.15682	0.25579	-1.4188	-1.8417	-1.4833	-2.1167	-1.6854	-1.6	-1.9062	-1.5938	-1.4646	-1.8146	-1.5667	-1.9604	-1.8625	-1.5021	-2.0417	-1.6146	-31.750	179.810	174.828	13.566	152.122	-4.458	259.928	255.957	238.102	112.687	222.409	138.769	81.176	245.143	152.360	213.898	0.00053202	0.00036528	0.00033458	709.11	4.8809e-06	3.6552e-06	815.38	245.2	1.1416e-05	1.0829e-05	330.57	125.99	83.216	44.369	3.0017e-06	71.978	0.0016796	0.0016646	0.00045429	1041.9	1.6937e-05	1.6547e-05	1004.7	307.39	1.6337e-05	1.6567e-05	550.46	161.47	160.06	54.898	1.8e-05	83.4	168.170	-32.755	-94.310	-81.953	90.974	-6.338	-82.841	-76.848	-33.884	245.366	-77.856	-73.093	-71.730	-66.526	-73.993	-69.541	-8191	255	
19570.432	1	1	0	0	0.21271	0.17067	0.19772	0.26032	0.16768	0.098696	0.14914	0.1089	0.053341	0.20751	0.2561	0.17191	0.28002	0.074001	0.33798	0.33992	-1.3604	-1.8521	-1.4667	-1.8563	-1.7542	-1.4937	-2.1979	-1.7583	-1.6	-2.0563	-1.6479	-1.8917	-1.9167	-1.6417	-1.9417	-1.7062	257.494	165.429	104.940	-10.273	-78.500	166.657	93.648	113.116	79.080	218.672	138.490	117.089	-72.725	116.531	217.157	211.763	0.00067479	0.001716	0.00027471	718.33	5.9563e-06	1.0865e-05	827.1	252.02	7.8094e-06	2.2684e-06	342.5	130.22	85.963	45.23	3.6112e-06	74.144	0.0016061	0.001601	0.0004368	1038.2	1.6409e-05	1.592e-05	1003.2	307.22	1.4466e-05	1.4109e-05	496.83	151.36	135.99	50.654	1.251e-05	77.181	137.240	-15.090	66.608	-81.966	-32.079	54.073	-83.070	-77.514	18.412	-15.676	-78.578	-73.895	-72.880	-66.395	223.043	-69.079	-8191	255	
19570.551	1	1	0	0	0.13919	0.16457	0.14459	0.10828	0.16147	0.17328	0.16764	0.027065	0.19241	0.13705	0.2087	0.11374	0.14055	0.35659	0.059167	0.095868	-1.1104	-1.9208	-1.4604	-2.0208	-1.8521	-1.5688	-1.9917	-1.7729	-1.6375	-1.9792	-1.6417	-1.8875	-1.85	-1.5792	-1.8062	-1.7542	163.243	-40.960	222.391	-51.335	65.613	125.462	-81.812	240.111	57.719	-81.420	121.535	125.970	-46.065	215.085	-20.910	202.693	0.00073156	0.0017474	0.00039902	736.4	1.5913e-05	8.8182e-06	841.6	261.07	4.5487e-06	1.944e-06	346.04	131.79	86.831	44.839	8.6788e-06	73.341	0.0010798	0.0010498	0.00028581	899.36	1.0826e-05	1.0588e-05	922.15	283.95	1.0288e-05	1.024e-05	434.06	141.47	119.58	47.315	1.019e-05	73.426	153.215	-7.611	-24.918	-81.840	-34.967	110.878	-82.658	-77.058	218.231	119.583	-77.343	-73.757	-72.015	-66.203	39.675	-68.637	-8191	255	
19570.646	1	1	0	0	0.31265	0.12164	0.21201	0.19065	0.063706	0.25022	0.28613	0.11163	0.25578	0.21878	0.13648	0.20808	0.19607	0.05819	0.023849	0.15765	-0.92708	-1.8854	-1.6208	-1.75	-1.8417	-1.5854	-1.9583	-1.8979	-1.4729	-1.9729	-1.6	-1.8875	-1.9854	-1.4417	-1.75	-1.8896	213.191	152.700	182.085	143.325	-7.363	75.164	206.745	-67.812	209.302	183.040	-91.577	172.645	120.567	122.928	-82.216	170.066	0.00039073	0.0003998	0.00017856	740.69	7.0555e-06	7.3841e-06	841.55	259.01	1.9612e-06	1.55e-05	345.08	129.74	87.367	43.773	2.1102e-05	71.224	0.00093057	0.0009336	0.00026156	881.24	1.0206e-05	1.0091e-05	914.98	282.34	9.8494e-06	9.7574e-06	424.75	138.26	115.97	45.782	9.2918e-06	70.701	201.014	18.339	113.625	-81.845	137.108	34.055	-82.493	-77.067	65.866	-19.097	-78.999	-73.837	-73.242	-67.145	53.272	-69.688	-8191	255	
19570.742	1	1	0	0	0.14264	0.096456	0.30007	0.20678	0.10528	0.15834	0.27648	0.23818	0.046363	0.25221	0.10117	0.17061	0.12575	0.15298	0.25738	0.063146	-1.0896	-1.9542	-1.7604	-1.5583	-1.8292	-1.4125	-1.9562	-1.8188	-1.3083	-1.9	-1.5271	-1.6229	-2.0021	-1.6104	-1.6125	-1.8229	-94.950	233.113	215.770	257.262	226.042	-49.264	129.551	177.094	166.088	62.061	130.447	-12.627	157.384	127.941	-19.393	7.990	0.00043018	0.00077015	0.00039684	741.94	4.1294e-06	1.8302e-05	844.43	259.29	1.6302e-06	1.3378e-05	348.16	129.7	87.576	44.625	6.9392e-06	73.096	0.00081971	0.00081841	0.00022586	844.75	8.7881e-06	8.7385e-06	890.55	275.69	8.8178e-06	8.8224e-06	408.26	136.32	113.13	45.911	8.9578e-06	71.909	160.845	67.534	39.605	-82.457	-61.670	-16.896	-83.391	-77.475	186.612	44.469	-78.995	-74.331	-74.051	-66.985	-29.680	-69.642	-8191	255	
19570.838	1	1	0	0	0.073344	0.069396	0.26256	0.21242	0.24359	0.18812	0.074719	0.21151	0.24734	0.11987	0.22969	0.34479	0.24691	0.11105	0.17498	0.23052	-1.0312	-1.8354	-1.625	-1.5292	-1.8979	-1.6042	-1.9708	-2.0312	-1.4125	-1.7396	-1.5854	-1.6208	-2.0333	-1.6083	-1.7104	-2.125	173.840	214.045	-44.562	262.980	203.178	20.460	-76.630	92.555	237.805	52.033	223.949	225.157	187.851	-88.107	244.280	199.841	0.0004818	0.0010058	0.00047536	749.76	2.1731e-06	2.635e-06	854.04	263.53	1.7323e-05	8.1589e-06	349.1	133.12	90.853	46.167	6.2711e-06	74.979	0.00081554	0.00081824	0.00022872	858.48	8.9967e-06	9.0458e-06	904.35	281.57	9.1278e-06	9.0819e-06	415.02	139.7	115.73	47.268	9.1769e-06	73.759	164.245	247.310	253.916	-82.163	163.378	30.399	-82.916	-77.359	58.775	100.433	-78.687	-74.068	-73.128	-67.139	247.570	-69.452	-8191	255	
19570.959	1	1	0	0	0.03709	0.14137	0.24407	0.31734	0.22069	0.016995	0.31267	0.044452	0.20896	0.25093	0.1859	0.49808	0.040437	0.24232	0.068236	0.11216	-1.0312	-1.6313	-1.4875	-1.4479	-1.8646	-1.4021	-1.6688	-2.1708	-1.4417	-1.8042	-1.7458	-1.6812	-2.025	-1.7417	-1.8396	-2.175	68.584	177.747	-48.795	179.447	129.581	35.215	241.280	136.796	234.661	199.063	254.230	241.831	235.457	43.405	-56.796	209.056	0.00031498	0.0012926	0.00057813	757.22	6.3034e-06	6.9499e-06	851.18	265.35	2.1991e-06	4.9342e-06	352.51	133.29	90.71	46.026	5.562e-06	76.033	0.00083795	0.00084896	0.00023618	869.8	9.335e-06	9.3816e-06	912.65	284.17	9.4036e-06	9.3757e-06	420.86	140.84	116.91	47.532	9.3214e-06	74.483	120.897	233.005	-34.202	-82.798	135.737	-35.753	-82.878	-77.634	178.261	-2.291	-78.342	-73.817	-72.926	-66.722	96.332	-69.184	-8191	255	
19571.055	1	1	0	0	0.25549	0.020187	0.46112	0.19161	0.1144	0.10538	0.25648	0.16159	0.079834	0.19546	0.13048	0.19282	0.24343	0.31559	0.16017	0.19029	-1.175	-1.7167	-1.6667	-1.4083	-1.8521	-1.6604	-1.65	-2.1458	-1.4396	-1.8563	-1.85	-1.575	-1.9208	-1.8625	-1.4083	-2.1542	245.179	3.695	132.086	219.157	87.016	136.522	167.816	113.514	-37.141	110.945	105.999	-5.727	172.893	260.389	-36.112	244.892	0.00015828	0.00049119	0.00014793	760.63	7.5204e-06	7.9999e-06	856.02	264.91	1.2471e-05	1.1521e-05	353.81	134.24	90.44	46.433	2.9691e-06	76.386	0.00084816	0.00085635	0.00023791	874.35	9.3753e-06	9.41e-06	915.33	284.58	9.3362e-06	9.3625e-06	421.11	141.44	116.79	47.757	9.1801e-06	74.541	135.774	63.239	153.383	-81.829	-32.035	191.620	-83.057	-77.794	29.135	-1.116	-77.851	-73.533	-73.867	-66.383	3.674	-69.869	-8191	255	
19571.127	1	1	0	0	0.047434	0.1511	0.20015	0.2933	0.20234	0.26098	0.13718	0.19874	0.16297	0.074284	0.29659	0.12981	0.21481	0.25075	0.1127	0.096621	-1.1542	-1.6083	-1.8042	-1.3896	-1.8396	-1.6625	-1.7188	-2.0438	-1.6938	-1.7375	-1.8917	-1.4771	-1.8062	-1.9062	-1.3333	-2.0667	100.969	-22.261	-85.089	174.639	202.411	113.590	206.926	-60.051	35.007	203.346	194.073	211.894	243.114	231.516	-25.129	152.961	0.00047609	0.00076679	0.0004603	747.93	9.3815e-06	7.6037e-06	851.05	266.07	5.2636e-06	1.6727e-06	353	134.27	90.451	47.17	3.1563e-06	77.329	0.0008286	0.00083105	0.00023052	863.69	9.0282e-06	9.0163e-06	906.01	282.73	9.0102e-06	9.0088e-06	413.62	140.51	116.79	48.21	9.2217e-06	75.595	173.582	25.688	217.575	-82.012	5.476	176.193	-83.637	-77.712	-77.198	174.647	-78.479	-74.033	-73.349	-66.462	89.557	-69.257	-8191	255	
19571.246	1	1	0	0	0.12454	0.044608	0.18835	0.05008	0.25232	0.16055	0.24085	0.31009	0.33865	0.092012	0.18379	0.19444	0.14571	0.19806	0.10418	0.13424	-1.2646	-1.5187	-1.9792	-1.5083	-1.8729	-1.8292	-1.6313	-1.9354	-1.6333	-1.6938	-1.9896	-1.4125	-1.8979	-2.0271	-1.4438	-1.9562	118.370	157.494	-23.617	100.277	239.412	101.235	114.738	260.267	104.340	133.290	42.547	244.626	197.695	235.725	-61.317	158.426	0.00036086	0.00073672	0.00046644	759.65	4.9192e-06	5.0137e-06	855.04	267.04	5.8336e-06	1.5792e-05	353.99	135.77	91.262	47.691	6.6545e-06	78.41	0.00084585	0.00085276	0.00023702	875.28	9.3638e-06	9.3617e-06	913.69	285.56	9.2264e-06	9.2241e-06	418.19	141.69	117.1	48.775	9.1884e-06	76.412	154.854	67.765	-72.931	-82.420	149.435	116.065	-83.268	-77.596	117.889	-42.062	-77.584	-73.620	-72.615	-66.822	64.391	-69.089	-8191	255	
19571.344	1	1	0	0	0.36964	0.1739	0.21726	0.085866	0.15853	0.16441	0.22458	0.0096749	0.10044	0.10418	0.15362	0.31991	0.14151	0.16761	0.19635	0.28156	-1.2646	-1.6104	-1.8167	-1.6854	-1.8875	-1.9667	-1.5958	-1.9438	-1.6271	-1.4396	-1.8875	-1.6292	-1.7375	-1.9458	-1.5208	-1.9562	186.476	39.930	32.551	37.358	215.191	96.347	217.404	75.729	248.487	115.561	89.653	177.522	21.322	45.213	-41.721	-84.786	0.00044434	0.00059142	0.0003052	760.63	5.1957e-06	2.993e-06	859.66	268.8	2.3173e-06	7.7023e-06	353.38	136.78	91.856	47.894	8.0837e-06	79.425	0.00083867	0.00084205	0.00023475	872.27	9.185e-06	9.2292e-06	916.65	286.61	9.2189e-06	9.2753e-06	420.39	143.3	119.04	49.149	9.424e-06	77.328	147.669	-24.014	239.465	-82.447	9.247	-35.960	-82.610	-77.253	73.814	154.385	-78.402	-73.939	-73.050	-66.784	44.854	-69.134	-8191	255	
19571.439	1	1	0	0	0.14127	0.21737	0.07921	0.30256	0.045154	0.32994	0.071956	0.24747	0.2003	0.17887	0.083039	0.16408	0.10646	0.045771	0.23513	0.18422	-1.5208	-1.4833	-1.9375	-1.7042	-1.7542	-2.0229	-1.6417	-1.95	-1.6812	-1.4104	-2.1458	-1.6833	-1.6562	-1.9458	-1.4792	-2.1125	119.054	100.865	94.435	59.653	249.327	83.931	256.718	187.833	150.673	36.565	-35.829	-78.239	168.280	181.302	230.078	201.877	0.00073592	0.00038236	0.00019657	765.52	7.8459e-06	7.5765e-06	863.2	269.18	1.0016e-05	4.9582e-06	355.36	137.42	92.52	48.408	8.4611e-06	80.051	0.00085688	0.00085517	0.00023877	879.5	9.2837e-06	9.2956e-06	919.09	286.16	9.2677e-06	9.239e-06	420.18	143.81	118.88	49.481	9.4357e-06	78.031	164.707	143.178	214.795	-81.986	131.099	-8.168	-82.568	-77.212	71.587	180.600	-78.008	-73.861	-73.283	-66.663	-53.615	-69.220	-8191	255	
19571.535	1	1	0	0	0.1804	0.12665	0.10907	0.16462	0.14622	0.048996	0.16102	0.30946	0.19571	0.13698	0.11199	0.41015	0.13053	0.021735	0.31672	0.12147	-1.4229	-1.5604	-2.0438	-1.5917	-1.6542	-1.9979	-1.5896	-1.9354	-1.6896	-1.4458	-1.9375	-1.7021	-1.6292	-2.1854	-1.3583	-1.8042	62.479	100.126	124.957	175.223	52.335	183.347	185.554	220.314	-56.054	108.055	193.002	223.850	119.494	-84.942	162.386	187.898	0.00059016	0.00059967	0.00039847	760.83	6.9668e-06	1.2845e-06	868.24	269.77	5.817e-06	8.7664e-06	355.76	137.06	93.079	48.477	1.8258e-05	80.226	0.00086147	0.0008621	0.00023966	880.4	9.4074e-06	9.3699e-06	922.42	287.33	9.3598e-06	9.3147e-06	421.83	143.74	119.2	49.496	9.3568e-06	77.994	142.847	35.636	20.141	-81.639	49.779	60.300	-82.575	-77.281	49.402	-80.037	-79.025	-73.446	-72.009	-66.761	-59.779	-68.935	-8191	255	
19571.654	1	1	0	0	0.072465	0.35835	0.078061	0.075675	0.089172	0.12092	0.19633	0.2884	0.11317	0.1297	0.13366	0.15798	0.016914	0.20398	0.11291	0.248	-1.5688	-1.0938	-1.7437	-1.7687	-1.5646	-2.0187	-1.7375	-1.7708	-2.1208	-1.425	-1.8292	-1.9667	-1.5688	-1.975	-1.6104	-1.8625	67.636	19.394	-76.141	51.962	234.939	171.884	227.505	230.209	134.611	-90.109	-75.851	237.452	-5.642	256.951	114.016	249.752	0.00035469	0.00041807	0.000355	763.66	7.2041e-06	8.1758e-06	869.44	269.01	1.3543e-06	4.916e-06	351.2	136.02	92.422	48.862	1.6116e-05	79.913	0.00085499	0.00086696	0.00024056	884.73	9.6371e-06	9.6494e-06	928.45	289.74	9.7663e-06	9.7983e-06	431.67	145.13	121.66	50.327	9.8569e-06	78.447	156.999	139.088	-34.290	-82.043	-16.156	178.510	-82.713	-77.035	146.774	-22.055	-77.893	-73.810	-72.834	-66.623	220.132	-69.800	-8191	255	
19571.727	1	1	0	0	0.28029	0.015431	0.13664	0.26828	0.27958	0.098883	0.41343	0.090814	0.33492	0.034692	0.080536	0.22174	0.30913	0.15553	0.06779	0.16015	-1.6521	-1.4646	-2.0354	-1.9396	-1.6167	-2.0292	-1.6625	-1.8146	-1.9271	-1.6604	-1.8687	-2.0021	-1.3271	-2.0438	-1.7938	-1.7208	130.394	-24.374	-30.488	147.570	25.886	115.658	178.990	85.774	121.999	106.926	88.513	-54.379	122.892	236.431	241.616	212.506	0.00015668	0.00044397	0.00019321	774.7	1.1447e-05	1.5291e-05	869.95	268.49	4.3212e-06	5.8401e-06	352.59	136.98	92.711	48.623	5.7588e-06	79.989	0.00090433	0.00091304	0.00025246	901.71	1.0029e-05	1.0017e-05	937.79	291.8	1.0109e-05	1.0066e-05	436.6	146.45	123.78	50.664	1.0198e-05	79.174	152.078	205.054	-81.004	-82.033	163.543	89.636	-82.666	-77.008	129.338	103.966	-78.725	-73.912	-74.078	-66.997	-90.622	-69.436	-8191	255	
19571.848	1	1	0	0	0.10168	0.26864	0.21301	0.17059	0.18536	0.17737	0.21102	0.071221	0.060619	0.18634	0.31677	0.21206	0.118	0.22767	0.056276	0.34691	-1.6979	-1.4688	-1.6208	-2	-1.5167	-1.7167	-1.6729	-1.5604	-1.9021	-1.5354	-1.8458	-1.8917	-1.5292	-2.0312	-1.7521	-1.5792	238.964	199.099	261.541	143.973	72.848	225.309	-60.239	125.099	139.796	225.152	17.796	257.283	260.563	8.363	150.835	227.412	0.00028803	0.0007153	0.00033599	771.12	9.568e-06	4.963e-06	876.54	270.36	6.0268e-06	1.3008e-06	357.55	136.71	93.781	48.887	8.8263e-06	80.756	0.00092433	0.0009237	0.00025604	902.61	1.0025e-05	9.9793e-06	939.16	291.79	9.9992e-06	9.957e-06	434.36	146.21	123.14	50.68	1.0035e-05	79.489	170.692	257.596	-26.476	-82.124	-4.308	76.971	-82.907	-77.422	-48.479	56.141	-78.553	-73.922	-73.482	-66.843	231.946	-69.375	-8191	255	
19571.943	1	1	0	0	0.078913	0.18569	0.096877	0.11491	0.14672	0.14315	0.10744	0.08731	0.12315	0.1626	0.06229	0.31463	0.20792	0.3717	0.060784	0.46504	-1.65	-1.4708	-1.5938	-1.8458	-1.5854	-1.8292	-1.8875	-1.7167	-1.7062	-1.6688	-1.6708	-1.9146	-1.5292	-2.0438	-1.7687	-1.5979	236.268	151.302	181.751	1.980	47.561	228.494	185.054	248.732	238.128	115.169	-93.694	182.454	240.175	-43.512	250.287	210.592	0.0005356	0.00071826	0.00018148	773.94	6.9388e-06	8.925e-06	873.68	271.84	9.9924e-06	6.9459e-06	357.5	138.46	93.576	49.122	1.3335e-05	80.729	0.00091968	0.00092397	0.00026123	912.46	1.0317e-05	1.0343e-05	948.5	295.72	1.04e-05	1.039e-05	443.79	147.95	125.09	51.144	1.0272e-05	79.744	166.754	-86.540	-23.949	-82.133	13.179	45.495	-83.004	-77.409	13.247	-74.222	-78.780	-73.659	-73.026	-67.213	34.071	-69.410	-8191	255	
19572.039	1	1	0	0	0.097958	0.11841	0.10328	0.269	0.22575	0.23019	0.26589	0.10977	0.05422	0.33656	0.18585	0.37664	0.058152	0.12357	0.016623	0.17984	-1.4208	-1.7333	-1.4792	-1.7188	-1.5312	-1.9833	-2.1104	-1.4354	-2.0875	-1.725	-1.6708	-2.0604	-1.8458	-2.0021	-1.7458	-1.6313	60.464	-69.267	134.272	263.608	112.513	-81.323	164.671	-12.224	249.286	217.745	194.292	125.241	183.698	-41.242	264.447	214.596	0.00056824	7.9462e-05	0.00037516	782.12	3.7815e-06	1.6215e-05	869.72	270.9	9.6895e-06	3.8291e-06	352.87	137.35	94.484	49.169	1.0528e-05	80.448	0.00093368	0.00094112	0.00026051	914.54	1.0307e-05	1.033e-05	946.65	293.99	1.0203e-05	1.0142e-05	436.81	146.48	123.53	50.693	9.8694e-06	78.863	163.537	39.083	68.850	-82.227	131.616	104.743	-82.808	-77.449	6.745	57.260	-78.686	-73.792	-72.687	-66.888	41.555	-69.460	-8191	255	
19572.135	1	1	0	0	0.14419	0.15577	0.14878	0.13061	0.21276	0.19072	0.019836	0.14352	0.2431	0.19943	0.048424	0.21678	0.087802	0.22307	0.15377	0.19775	-1.4375	-1.8188	-1.4083	-2.0458	-1.6063	-1.7396	-2.1792	-1.5229	-2.2604	-1.8396	-1.6771	-2.2313	-1.3292	-1.8104	-1.8563	-1.4875	130.515	-2.075	-77.814	-6.252	102.574	-72.754	248.976	226.935	165.098	258.115	-85.263	144.437	-18.659	-63.130	80.826	228.893	0.00031758	0.00072353	0.00029734	772.05	9.5907e-06	1.3505e-05	870.02	270.59	3.3588e-06	6.467e-06	354.55	136.5	93.653	48.793	9.9249e-06	80.181	0.00089405	0.00089143	0.0002461	894.26	9.6463e-06	9.6351e-06	930.43	289.38	9.5806e-06	9.53e-06	426.46	144.2	119.96	49.804	9.3929e-06	77.839	181.455	58.919	147.068	-82.231	-34.638	22.518	-82.747	-77.269	244.959	-18.633	-78.430	-73.910	-73.540	-66.673	-10.153	-68.957	-8191	255	
19572.256	1	1	0	0	0.083309	0.3058	0.21822	0.052814	0.087382	0.19904	0.20586	0.15217	0.036277	0.23844	0.1728	0.13557	0.42335	0.44096	0.19464	0.084736	-1.5833	-1.8542	-1.4792	-2.0667	-1.7083	-1.8146	-2.0833	-1.4854	-1.9875	-2.0417	-1.6562	-1.9521	-1.5792	-1.7625	-1.8896	-1.6229	-54.742	-49.586	214.902	-67.401	139.800	189.171	167.140	250.892	85.344	233.667	13.523	-62.516	-78.187	-86.025	69.880	95.190	0.00018507	0.00032433	0.00011182	773.39	5.8059e-06	6.5548e-06	864.39	268.61	1.0619e-05	9.2301e-06	357.92	137.85	93.765	48.594	1.908e-05	80.307	0.0008479	0.00085364	0.00023878	886.34	9.3924e-06	9.5174e-06	929.26	288.89	9.7387e-06	9.8413e-06	433.48	146.06	123.83	50.607	1.0312e-05	79.438	135.315	-92.807	-61.289	-82.369	176.701	-42.455	-83.117	-77.516	218.083	31.320	-78.857	-73.926	-72.923	-66.897	217.936	-69.294	-8191	255	
19572.328	1	1	0	0	0.14253	0.11837	0.14728	0.03272	0.088502	0.23264	0.37138	0.2278	0.12943	0.10875	0.15062	0.13428	0.14257	0.078679	0.21641	0.1274	-1.3667	-1.8188	-1.6167	-2.075	-1.975	-1.7667	-1.9979	-1.6875	-1.7812	-1.8958	-1.5542	-2.0708	-1.7833	-1.7792	-2.075	-1.8312	-39.585	121.767	66.326	88.034	-17.340	5.092	201.054	190.435	129.744	-24.287	204.574	-29.996	-70.803	255.022	-34.067	91.858	0.00020222	0.00024817	0.00030686	774.83	2.368e-06	1.5369e-06	866.72	270.15	1.4415e-05	4.7959e-07	353.78	137.21	93.025	48.523	3.1966e-06	80.116	0.00093837	0.0009481	0.00026305	913.23	1.0345e-05	1.0301e-05	944.81	292.83	1.0172e-05	1.0146e-05	437.7	146.98	123.98	50.576	1.0225e-05	79.14	169.393	76.465	-43.577	-82.415	179.500	162.210	-82.816	-77.481	119.830	96.293	-78.861	-73.998	-72.844	-66.603	127.598	-69.075	-8191	255	
19572.424	1	1	0	0	0.2018	0.17826	0.23505	0.19455	0.21284	0.072631	0.27988	0.038258	0.34567	0.18771	0.22921	0.047859	0.24619	0.485	0.17306	0.008568	-1.3917	-1.8958	-1.5333	-1.9021	-1.6708	-1.725	-2.1146	-1.7958	-1.8333	-2.0667	-1.5708	-1.7458	-1.875	-1.5396	-2.0604	-1.9188	172.599	237.826	46.078	236.792	196.953	22.668	160.367	93.583	261.676	157.865	-55.723	239.703	256.049	208.690	-23.197	213.850	0.00050696	0.00081732	0.00044669	774.58	1.276e-05	6.3365e-06	873.07	267.41	6.6096e-06	6.0314e-06	352.94	137.34	93.747	48.483	1.1492e-05	79.092	0.00092623	0.0009352	0.00026177	914.06	1.0357e-05	1.034e-05	946.22	291.89	1.0283e-05	1.0202e-05	436.9	146	122.98	50.138	1.0029e-05	78.159	153.531	-21.843	-53.815	-82.451	-80.894	17.769	-82.810	-77.569	-32.376	149.400	-78.340	-73.854	-73.069	-66.765	-91.148	-69.220	-8191	255	
19572.520	1	1	0	0	0.11488	0.055795	0.018891	0.2611	0.13748	0.0054521	0.19396	0.33147	0.13107	0.072346	0.25954	0.17552	0.081699	0.13822	0.075291	0.27734	-1.1562	-2.1063	-1.5542	-2.0104	-1.9688	-1.6812	-2.2521	-1.7667	-1.7917	-2.2021	-1.7458	-2.0333	-1.9937	-1.8062	-2.0271	-1.9292	120.020	166.208	-93.556	4.813	134.407	115.067	139.061	210.053	162.369	199.852	148.030	-90.860	50.230	94.289	71.261	228.596	0.00038684	0.00047509	0.00015818	773.79	1.315e-05	1.0196e-05	867.09	267.66	3.2841e-06	4.464e-06	350.94	136.25	92.459	48.446	5.3652e-06	78.916	0.0009118	0.00092465	0.00025841	907.22	1.0336e-05	1.034e-05	943.38	292.5	1.036e-05	1.0244e-05	436.58	146.02	123.33	50.14	1.0026e-05	77.96	131.825	11.971	189.201	-81.667	20.925	-46.849	-83.066	-77.348	94.154	-89.990	-78.525	-74.249	-72.971	-67.054	-50.990	-69.646	-8191	255	
19572.615	1	1	0	0	0.17934	0.29392	0.14715	0.030129	0.1728	0.2264	0.22647	0.33425	0.20912	0.0884	0.1094	0.31185	0.29545	0.074442	0.17273	0.1919	-1.1562	-1.9854	-1.7021	-1.9688	-1.9792	-1.4396	-2.075	-1.8875	-1.6729	-2.0729	-1.7667	-1.8146	-1.9937	-1.6271	-1.9667	-1.9583	113.998	253.360	-22.813	-48.046	211.952	129.716	249.121	207.748	-82.155	-31.788	-1.375	239.804	6.632	263.703	81.700	176.679	0.00040998	0.00045816	0.00034068	767.98	3.1352e-06	1.3896e-05	863.44	267.66	7.1829e-06	5.2975e-06	352.79	135.78	92.88	48.501	5.3218e-06	79.875	0.00090792	0.00091599	0.000253	901.49	9.96e-06	9.9372e-06	934.2	289.24	9.844e-06	9.84e-06	430.67	144.59	121.37	49.963	9.8266e-06	78.281	125.524	62.581	246.145	-82.239	-75.655	113.211	-82.702	-77.326	-60.895	112.289	-78.435	-73.804	-73.173	-66.759	72.482	-69.118	-8191	255	
19572.734	1	1	0	0	0.16786	0.25805	0.28216	0.13285	0.29366	0.079148	0.10563	0.13531	0.17061	0.10753	0.15151	0.11266	0.31921	0.16772	0.14211	0.33849	-1.125	-1.8708	-1.5938	-1.7667	-1.8167	-1.5854	-2.0708	-1.9958	-1.4458	-2.0812	-1.8917	-1.7083	-2.0833	-1.7667	-1.8062	-1.8521	106.900	263.915	205.662	114.359	185.729	28.097	86.181	187.280	234.066	12.626	100.126	162.587	-53.522	-62.424	1.474	171.738	0.00066743	0.0010272	0.00025028	771.07	1.3661e-05	4.9271e-06	863.6	267.76	4.4836e-06	1.9672e-06	348.8	137.5	92.155	48.415	1.137e-05	79.829	0.00089814	0.0009029	0.00025206	900.98	9.908e-06	9.9196e-06	933.1	289.62	9.8338e-06	9.8312e-06	428.24	145.07	121.17	49.791	9.5975e-06	78.018	172.523	-74.545	171.505	-82.525	91.929	105.232	-82.762	-77.414	136.615	261.030	-78.179	-73.937	-73.735	-66.891	8.482	-69.291	-8191	255	
19572.830	1	1	0	0	0.17011	0.12108	0.044931	0.26907	0.23204	0.2164	0.32797	0.21087	0.11777	0.39564	0.17566	0.29953	0.15722	0.10785	0.28389	0.31364	-1.3062	-1.8229	-1.8271	-1.9167	-2.0875	-1.675	-2.0792	-1.9438	-1.5458	-1.6979	-1.8396	-1.6521	-2.1271	-1.8979	-1.6375	-1.9333	-57.962	51.071	-37.021	202.444	53.714	-61.428	213.860	150.434	116.756	-29.644	108.558	244.276	-88.709	221.446	142.588	237.811	0.00046306	0.00029963	0.00033322	773.04	3.8105e-06	8.2727e-06	865.65	268.05	7.1605e-06	4.25e-06	352.87	137.21	93.447	48.822	9.7773e-06	80.224	0.00086265	0.00087039	0.00024146	887.9	9.5034e-06	9.4588e-06	927.54	287.26	9.3998e-06	9.3216e-06	422.16	144.04	118.7	49.643	9.2245e-06	78.002	159.149	43.944	-23.734	-82.200	51.837	261.403	-83.098	-77.784	92.268	-56.603	-78.918	-73.570	-73.471	-67.113	24.191	-69.457	-8191	255	
19572.928	1	1	0	0	0.21773	0.25095	0.11993	0.36291	0.20839	0.16459	0.27848	0.40993	0.085024	0.13301	0.13479	0.17224	0.042943	0.18671	0.22338	0.15698	-1.05	-2.0146	-1.9625	-1.6125	-1.8271	-1.45	-1.8958	-2.1458	-1.3917	-1.8188	-1.8188	-1.575	-1.9875	-1.8042	-1.8542	-2.0771	-62.316	130.568	166.038	212.587	245.336	188.779	29.161	90.779	-74.041	-42.597	247.363	214.344	27.067	242.921	235.151	-80.680	0.00026561	0.00069795	0.00024186	772.34	7.566e-06	1.0628e-05	868.16	269.7	4.1066e-06	8.0506e-06	357.92	136.75	93.304	47.964	6.1337e-06	79.054	0.00084113	0.0008412	0.00023533	884.59	9.263e-06	9.2611e-06	920.92	286.43	9.2199e-06	9.1726e-06	418.23	142.66	117.66	49.02	9.0884e-06	76.905	150.712	-70.690	113.808	-82.442	111.634	44.431	-83.325	-77.461	87.139	10.393	-78.515	-73.719	-73.433	-67.160	-12.239	-69.595	-8191	255	
19573.023	1	1	0	0	0.32617	0.20555	0.092375	0.16562	0.075649	0.082348	0.039815	0.24306	0.25216	0.030295	0.17172	0.23862	0.074202	0.28396	0.18533	0.15657	-0.98542	-1.8583	-1.9729	-1.6708	-2.1271	-1.6521	-1.8396	-2.2833	-1.65	-1.95	-2.025	-1.4083	-1.7583	-1.8854	-1.5688	-2.1771	77.270	112.097	221.824	-65.436	57.176	-22.909	8.387	205.124	-46.815	75.911	139.039	205.097	125.311	-88.536	25.184	177.878	0.00014821	0.00082929	0.0002759	771.22	7.2734e-06	1.364e-05	862.19	266.23	6.4258e-06	4.7252e-06	346.8	135.57	91.928	47.575	1.3203e-05	78.569	0.000831	0.00083104	0.00023173	878.54	9.2138e-06	9.1967e-06	919.31	284.78	9.2284e-06	9.2059e-06	416.01	142.24	117.17	48.695	9.1092e-06	76.153	186.073	-79.041	-14.147	-82.192	101.499	-63.665	-82.982	-77.547	197.404	-82.678	-79.517	-74.043	-73.136	-67.277	23.292	-69.292	-8191	255	
19573.119	1	1	0	0	0.12792	0.25784	0.14712	0.21129	0.11644	0.097269	0.22137	0.27366	0.17526	0.14423	0.17307	0.12889	0.18771	0.11005	0.29624	0.22786	-1.1854	-1.7271	-1.8625	-1.5833	-1.9042	-1.8458	-1.6729	-2.1688	-1.5688	-1.8438	-1.9562	-1.6021	-1.925	-1.775	-1.7833	-2.2062	81.115	243.809	-37.522	175.884	-39.243	246.870	-84.603	-44.236	163.624	-14.919	225.315	76.961	175.490	-12.884	-5.274	137.151	0.00033239	0.0010357	0.00036476	765.96	7.2353e-06	5.3312e-06	864.66	265.6	7.544e-06	1.5853e-05	351.36	135.01	92.356	47.74	7.6818e-06	78.043	0.00082528	0.00083061	0.00023156	875.37	9.0452e-06	9.068e-06	915.94	282.85	9.1221e-06	9.1216e-06	417	141.83	117.3	48.786	9.2395e-06	76.53	107.141	9.447	72.222	-82.617	-82.503	24.537	-83.001	-77.551	-92.626	-8.654	-78.766	-73.781	-72.543	-67.164	32.314	-69.296	-8191	255	
19573.217	1	1	0	0	0.13777	0.14794	0.054146	0.10828	0.19299	0.083173	0.19639	0.083047	0.21938	0.21343	0.1708	0.1366	0.068766	0.085054	0.38518	0.29934	-1.1979	-1.6	-1.7896	-1.5562	-1.925	-1.9958	-1.6458	-2.1583	-1.8	-1.6042	-1.9125	-1.4708	-1.6729	-1.7792	-1.5417	-2.1	151.344	-71.650	-66.999	211.150	28.784	78.598	113.521	215.306	230.720	207.000	-72.679	248.801	244.152	-64.126	46.206	211.805	0.00059818	0.00095143	0.00014993	766.61	5.6931e-06	6.5223e-06	865.2	264.64	8.853e-06	1.425e-05	350.58	135.39	91.267	47.205	6.0482e-06	78.237	0.00084657	0.00084732	0.00023684	882.16	9.2167e-06	9.2332e-06	919.3	282.85	9.1351e-06	9.1139e-06	416.17	141.39	116.31	48.189	8.9849e-06	75.943	189.129	217.812	50.595	-82.387	-15.648	84.124	-82.867	-77.414	45.893	-85.093	-79.651	-74.156	-73.859	-67.341	-67.521	-68.996	-8191	255	
19573.338	1	1	0	0	0.10074	0.042614	0.050055	0.22917	0.12236	0.24163	0.17422	0.030117	0.27759	0.11212	0.16213	0.20264	0.21072	0.12304	0.14457	0.21066	-1.3937	-1.6375	-1.9417	-1.5146	-1.8042	-1.75	-1.575	-2.2313	-1.5562	-1.6417	-1.9813	-1.4438	-1.8729	-2.0583	-1.55	-2.1979	99.838	259.682	219.703	203.728	12.355	74.884	234.985	48.478	125.660	230.981	-94.386	-5.437	261.876	-66.626	244.738	188.745	0.000398	0.00083618	0.00033242	766.83	2.5838e-06	2.5242e-06	862.35	263.52	8.214e-06	1.0957e-05	350.97	134.9	91.282	47.122	6.3877e-06	77.77	0.0008216	0.00083174	0.00023021	874.58	9.0811e-06	9.0771e-06	917.26	281.56	9.0606e-06	9.0029e-06	411.44	140.53	115.11	47.787	8.8046e-06	75.44	217.488	16.284	-90.421	-81.903	-50.505	-88.052	-82.846	-77.276	62.181	-75.943	-78.489	-73.548	-72.948	-66.903	-17.944	-69.303	-8191	255	
19573.434	1	1	0	0	0.31722	0.16173	0.25104	0.32334	0.28738	0.24174	0.11651	0.19016	0.38864	0.22212	0.14056	0.19056	0.067437	0.18117	0.26356	0.21271	-1.3062	-1.5625	-2.0583	-1.5708	-1.7292	-2.0417	-1.8396	-1.9333	-1.8125	-1.7646	-2.2438	-1.775	-1.6604	-2.0667	-1.5083	-2.0938	167.454	-13.359	143.869	230.945	-83.251	-21.051	9.190	-56.066	83.528	40.820	1.550	62.160	0.755	179.058	46.337	173.544	0.00023355	0.0009104	0.00012359	763.61	7.4953e-06	5.4603e-06	857.58	264.6	1.0996e-05	1.1577e-05	348.51	135.04	91.023	47.539	7.13e-06	78.317	0.0008024	0.00080221	0.00022325	865.76	8.7374e-06	8.7187e-06	904.34	279.63	8.739e-06	8.7364e-06	407.14	140.07	115.04	48.189	8.8305e-06	75.931	193.837	-69.821	1.702	-81.772	75.442	-15.755	-82.561	-77.224	251.862	3.185	-78.309	-73.594	-72.980	-66.986	39.960	-68.921	-8191	255	
19573.529	1	1	0	0	0.11191	0.080662	0.1334	0.23873	0.1508	0.061337	0.22492	0.082874	0.23884	0.21153	0.29345	0.097915	0.1675	0.19436	0.33493	0.23698	-1.5	-1.3687	-2.0792	-1.8667	-1.5438	-1.9792	-1.7812	-1.9771	-1.7812	-1.5625	-2.1708	-1.8125	-1.5562	-2.1312	-1.5146	-1.9646	242.620	138.453	59.332	200.452	-80.237	104.035	173.968	-29.527	133.497	223.493	-62.842	-0.710	86.697	210.821	107.753	93.359	0.00028253	0.00057882	0.00022786	758.88	8.8095e-06	1.4298e-05	856.84	264.85	1.1021e-05	3.0035e-07	345.05	135.67	91.466	47.515	2.1011e-06	79.026	0.00080488	0.00080626	0.00022417	861.92	8.7861e-06	8.813e-06	906.45	280.34	8.8075e-06	8.8524e-06	409.49	140.99	115.73	48.363	8.9935e-06	76.501	120.260	29.717	-80.494	-82.373	1.167	109.180	-82.863	-77.539	18.384	49.206	-78.226	-73.925	-73.545	-67.066	-80.679	-69.282	-8191	255	
19573.625	1	1	0	0	0.11233	0.25321	0.24763	0.26922	0.19853	0.11008	0.28763	0.10079	0.1797	0.14194	0.23877	0.10796	0.30574	0.19449	0.27895	0.21374	-1.4104	-1.5146	-1.6729	-1.9792	-1.5917	-2.0896	-1.7625	-1.8312	-1.8729	-1.6437	-2.0021	-1.8875	-1.6083	-2.0563	-1.7292	-1.6229	219.744	174.629	89.441	130.481	-88.771	-39.713	218.612	197.352	242.738	174.090	226.760	-77.904	235.829	249.179	249.853	-50.181	0.00044283	0.00015363	0.00015639	763.12	5.625e-06	8.0765e-06	861.7	264.02	5.8665e-06	6.9972e-06	353.33	134.69	90.474	47.551	3.1834e-06	78.911	0.0008178	0.00082455	0.00022696	866.95	8.8878e-06	8.8284e-06	907.85	279.92	8.7356e-06	8.6967e-06	406.53	139.97	113.96	47.91	8.6562e-06	76.066	169.042	-54.092	-69.678	-81.920	46.674	58.417	-82.822	-77.104	16.439	132.561	-78.415	-73.662	-72.681	-66.881	181.190	-68.928	-8191	255	
19573.719	1	1	0	0	0.22769	0.16226	0.22687	0.23968	0.23496	0.13384	0.06108	0.18944	0.094693	0.40782	0.21338	0.10355	0.23075	0.20024	0.12608	0.21529	-1.3604	-1.4417	-1.85	-1.7104	-1.5187	-1.9688	-1.8354	-1.7271	-1.8771	-1.5521	-1.8917	-1.975	-1.6187	-2.0896	-1.6646	-1.9042	120.818	-14.941	71.633	203.919	171.127	253.826	45.214	214.345	-76.829	182.738	190.504	50.684	-17.555	-86.323	-2.771	149.751	0.00049519	0.00098889	0.00057772	759.43	1.0073e-05	5.9922e-06	860.57	264.6	1.5398e-06	6.5689e-06	349.75	135.6	92.007	47.301	1.2878e-05	79.362	0.00078092	0.00077575	0.00021491	852.36	8.4273e-06	8.4001e-06	900.1	277.09	8.3915e-06	8.4109e-06	402.29	139.77	113.14	47.858	8.605e-06	76.39	143.490	-83.879	-20.320	-82.096	-62.173	-17.615	-82.704	-77.347	148.569	-88.688	-77.981	-73.714	-72.958	-66.749	-77.489	-69.073	-8191	255	
19573.816	1	1	0	0	0.12556	0.13977	0.010012	0.18079	0.18808	0.17285	0.25888	0.21033	0.059384	0.088837	0.080961	0.012154	0.11532	0.1961	0.09474	0.22037	-1.5458	-1.4125	-1.8146	-1.8625	-1.4417	-1.9312	-1.8208	-1.7646	-2.0312	-1.6437	-1.8896	-2.2083	-1.5417	-2.1375	-1.6792	-1.75	70.644	193.572	210.202	138.414	158.365	89.735	160.971	199.296	6.123	255.157	56.041	64.211	50.190	233.453	193.777	182.251	0.0003777	0.00028986	1.9742e-05	760.16	4.1607e-06	2.3978e-06	855.02	263.85	3.2738e-06	5.628e-06	349.14	135.34	89.706	47.477	1.1125e-05	79.169	0.00078454	0.00078299	0.00021756	856.62	8.5592e-06	8.5357e-06	901.35	277.67	8.5802e-06	8.6478e-06	405.69	140.22	113.67	48	8.7262e-06	76.168	156.157	254.117	175.090	-82.167	-56.016	151.292	-82.983	-77.400	-57.751	225.122	-79.081	-73.977	-72.748	-66.873	124.175	-69.067	-8191	255	
19573.912	1	1	0	0	0.1265	0.23461	0.13782	0.29726	0.11007	0.1051	0.13138	0.38849	0.16878	0.033632	0.28408	0.05378	0.053509	0.23253	0.34039	0.23518	-1.6021	-1.4646	-1.775	-1.9396	-1.4438	-2.0375	-2.0104	-1.6625	-1.8833	-1.5917	-1.6083	-1.8312	-1.5271	-2	-1.75	-1.65	138.043	-62.496	87.801	171.173	23.233	89.771	48.194	213.225	-3.038	218.924	241.678	263.878	-73.507	208.463	232.822	112.021	0.00033922	0.00060102	0.00035915	757.17	1.7836e-06	2.1132e-06	853.8	264.29	8.2562e-06	1.4673e-05	353.22	134.51	90.493	47.139	2.6496e-06	78.01	0.00079527	0.00079395	0.00022027	855.81	8.5462e-06	8.578e-06	900.46	277.75	8.6023e-06	8.5771e-06	404.55	139.32	112.9	47.658	8.5571e-06	75.441	175.474	164.212	120.740	-82.177	207.002	85.134	-82.747	-77.370	-20.705	-22.709	-78.551	-73.736	-72.917	-66.718	145.306	-69.101	-8191	255	
19574.031	1	1	0	0	0.11779	0.55082	0.081303	0.11471	0.18878	0.052898	0.19736	0.29309	0.34177	0.44196	0.3679	0.37064	0.20817	0.10512	0.17246	0.042876	-1.6812	-1.6208	-1.6333	-2.0708	-1.6292	-1.8583	-1.8813	-1.7854	-2.0771	-1.7062	-1.8125	-1.9979	-1.5292	-1.7812	-1.8333	-1.5958	260.201	61.260	51.990	-7.148	67.660	251.245	16.757	195.377	-41.487	63.133	224.485	190.710	99.764	164.392	177.275	42.499	0.00039853	0.00061694	0.00015013	752.94	8.2875e-06	5.0735e-06	853.4	260.49	5.7725e-06	6.8336e-06	349.4	134.06	88.905	46.271	1.2289e-05	77.764	0.00077828	0.00077618	0.00021573	850.53	8.4303e-06	8.3231e-06	894.96	274.63	8.2024e-06	8.2106e-06	396.24	137.28	109.48	46.376	8.1573e-06	74.163	166.176	32.902	128.600	-82.512	-5.924	216.315	-82.710	-77.222	2.775	-45.483	-78.619	-73.465	-72.656	-66.773	8.726	-69.023	-8191	255	
19574.129	1	1	0	0	0.12948	0.17695	0.31042	0.14052	0.096036	0.16603	0.10322	0.20574	0.25846	0.33056	0.10894	0.2602	0.088167	0.073886	0.18166	0.28783	-1.7104	-1.8354	-1.6229	-1.9833	-1.6375	-1.7146	-1.9062	-1.4333	-2.1	-1.9167	-1.6271	-2.1813	-1.8146	-1.7729	-1.9417	-1.5458	255.902	189.419	-49.441	191.697	-25.924	249.181	240.879	221.170	-38.731	-8.476	111.418	-81.513	-79.417	202.312	-47.593	238.633	0.00041011	0.00076245	0.0003957	753.33	6.1478e-06	4.694e-06	855.06	260.14	6.7128e-07	7.3051e-06	348.97	134.79	90.747	46.518	2.014e-06	77.755	0.00074193	0.0007479	0.00021007	841.38	8.3522e-06	8.3388e-06	896.19	274.81	8.4909e-06	8.5677e-06	403.94	138.94	112.62	47.13	8.6364e-06	75.177	206.111	-31.819	256.626	-82.567	-94.617	54.296	-82.737	-77.248	59.106	-33.054	-78.953	-73.748	-73.616	-66.776	16.752	-69.120	-8191	255	
19574.225	1	1	0	0	0.31849	0.078628	0.23584	0.31098	0.24141	0.21995	0.059258	0.066327	0.046825	0.16049	0.14575	0.068709	0.11286	0.11646	0.15338	0.13854	-1.4875	-1.7417	-1.4667	-2.1667	-1.5667	-1.5854	-2.0146	-1.5229	-1.7938	-1.8375	-1.5521	-2.0104	-1.6313	-1.6542	-1.9688	-1.4813	51.695	238.451	29.546	160.522	105.912	115.696	140.473	217.980	165.776	38.827	192.680	224.635	98.486	234.696	-31.222	223.637	0.00042005	0.00017599	0.00025711	754.66	4.0821e-06	5.5909e-06	852.85	261.19	4.1587e-06	1.1597e-05	349.74	134.36	89.619	46.451	6.5303e-06	77.767	0.00078536	0.00079317	0.00022149	855.59	8.7487e-06	8.7474e-06	902.37	277.38	8.796e-06	8.7941e-06	407.58	139.75	112.85	47.243	8.6409e-06	75.01	177.597	177.657	14.674	-82.302	-0.016	32.012	-82.928	-77.504	102.553	-5.533	-78.190	-73.764	-72.480	-66.620	238.301	-69.023	-8191	255	
19574.297	1	1	0	0	0.26918	0.37583	0.16775	0.12086	0.12101	0.10979	0.2693	0.087282	0.15596	0.088098	0.20316	0.11427	0.12531	0.16602	0.14075	0.19054	-1.4854	-1.7917	-1.3771	-1.8125	-1.8687	-1.5479	-1.9646	-1.5312	-1.8333	-1.7979	-1.5604	-1.9958	-1.65	-1.7292	-1.8479	-1.6604	19.153	55.766	-78.396	208.562	-61.773	176.395	224.757	220.215	223.847	67.316	73.361	-16.786	-6.181	-84.074	-43.881	180.841	0.00065181	0.00058102	0.00032539	742.37	2.5886e-06	6.8349e-06	845.7	260.5	1.1222e-05	1.2094e-05	342.99	133.39	88.332	45.919	6.8692e-06	77.388	0.00078131	0.00077996	0.00021494	842.96	8.3631e-06	8.2827e-06	889.72	273.55	8.3983e-06	8.5205e-06	403.8	138.6	113.23	47.227	9.2063e-06	75.704	197.101	-23.732	130.065	-82.316	149.786	-94.758	-82.686	-77.094	-16.081	46.178	-78.681	-73.670	-73.170	-66.764	25.431	-69.072	-8191	255	
19574.418	1	1	0	0	0.20158	0.10415	0.16191	0.26938	0.027362	0.038979	0.076532	0.1695	0.20589	0.17202	0.31729	0.36426	0.080183	0.12295	0.12838	0.092275	-1.1896	-1.9708	-1.4333	-1.6854	-1.6875	-1.5812	-1.9167	-1.8521	-1.7313	-1.7896	-1.8292	-1.9667	-1.6313	-1.5417	-2.0583	-1.6917	78.471	132.577	66.757	-92.109	99.794	212.593	-50.795	211.077	87.632	-55.778	247.727	-78.826	198.016	212.927	216.713	256.102	0.00042632	0.0006581	0.000421	742.53	3.6305e-06	9.2101e-06	844.23	258.09	5.4855e-06	8.1179e-06	344.2	132.54	88.549	45.808	9.6154e-06	76.656	0.00085981	0.00087787	0.00024669	873.4	9.8529e-06	9.8658e-06	913.28	282.31	1.0246e-05	1.0348e-05	438.69	144.94	125.1	49.153	1.1319e-05	78.076	154.865	244.264	-78.654	-81.997	208.558	140.982	-82.792	-77.775	60.962	-3.850	-78.228	-73.439	-73.981	-66.531	-52.442	-68.822	-8191	255	
19574.514	1	1	0	0	0.1355	0.026383	0.11979	0.070418	0.28392	0.17359	0.17408	0.10404	0.12291	0.21287	0.19763	0.13493	0.081742	0.11703	0.10315	0.040714	-1.2896	-1.9104	-1.4167	-1.8583	-1.8833	-1.5333	-2.1	-1.8646	-1.6979	-2.0604	-1.6688	-1.8813	-1.9167	-1.6729	-1.85	-1.7083	54.895	139.987	106.984	165.488	-93.616	109.907	182.501	229.462	116.508	145.429	228.910	209.349	11.309	-34.792	-13.283	-13.707	0.00050232	0.00067229	0.00054348	746.26	7.7747e-07	6.8774e-06	831.88	254.7	1.1188e-05	6.4348e-06	343.43	131.01	85.772	45.191	1.2384e-05	75.737	0.0010436	0.0010572	0.00029384	919.98	1.1858e-05	1.2115e-05	950.42	295.61	1.3085e-05	1.3604e-05	502.84	156.97	148.92	53.491	1.6557e-05	85.715	130.536	-70.877	103.525	-82.221	9.825	-58.310	-82.691	-77.236	-4.924	-12.764	-77.978	-73.457	-72.265	-66.523	173.292	-68.895	-8191	255	
19574.609	1	1	0	0	0.11831	0.26834	0.12878	0.16667	0.19945	0.21632	0.24982	0.10889	0.20847	0.066525	0.19565	0.17566	0.17238	0.36978	0.13339	0.098863	-1.0396	-2.0208	-1.3625	-1.7313	-1.8792	-1.3958	-2.0708	-2.0146	-1.6104	-2.0583	-1.7208	-1.8	-1.85	-1.6208	-1.9688	-1.9188	0.489	177.296	-2.905	123.400	105.591	-28.478	109.758	100.803	183.148	16.668	-74.213	208.846	39.933	51.868	157.222	-91.105	0.00022287	0.00041002	0.00063007	732.13	1.657e-05	5.5902e-06	830.34	252.52	8.7251e-06	1.7085e-05	335.65	131.56	84.622	45.008	1.2579e-05	75.269	0.0016234	0.0017061	0.00048338	1117.1	2.0145e-05	2.0814e-05	1115.2	354.54	2.4048e-05	2.5079e-05	727.04	197.7	222.6	67.003	3.0189e-05	104.59	85.727	-47.184	106.408	-81.834	197.519	-14.794	-82.592	-77.538	-10.195	-34.026	-78.925	-73.317	-72.354	-66.701	162.586	-68.853	-8191	255	
19574.729	1	1	0	0	0.12614	0.079916	0.20856	0.38585	0.21253	0.1976	0.25397	0.16417	0.16574	0.19259	0.11801	0.082368	0.14746	0.23803	0.071916	0.24311	-1.2167	-2.2125	-1.65	-1.7625	-2.1063	-1.4146	-2.0542	-1.9667	-1.6458	-1.9854	-1.7479	-1.7917	-1.9771	-1.8167	-2.0167	-1.9396	192.057	6.673	46.438	-68.383	146.961	252.502	223.525	126.916	71.361	27.490	56.823	131.222	205.844	106.413	211.078	238.170	0.00090124	0.0011761	0.00026291	727.17	1.3108e-05	2.9666e-05	823.36	251.71	6.068e-06	1.1194e-05	331.35	128.42	81.914	43.832	2.8682e-05	73.615	0.0028833	0.0029882	0.00085311	1497.8	3.5087e-05	3.573e-05	1370.4	435.59	3.6401e-05	3.629e-05	906.33	221.88	259.46	71.002	3.3111e-05	104.51	160.060	130.124	131.743	-81.878	194.717	105.816	-82.936	-77.342	135.981	63.667	-78.593	-73.355	-73.353	-66.605	160.575	-69.045	-8191	255	
19574.824	1	1	0	0	0.10836	0.13626	0.15755	0.032961	0.20016	0.37108	0.15866	0.25537	0.22858	0.16154	0.13973	0.25449	0.094926	0.2725	0.083429	0.12871	-1.2771	-2.0146	-1.6854	-1.5583	-2.0167	-1.6583	-2.0104	-1.9	-1.525	-2.1354	-1.7875	-1.5021	-2.0604	-1.5917	-1.9167	-2.0604	69.766	255.016	-47.884	15.386	117.964	242.530	182.255	141.365	111.346	21.792	105.653	139.586	-17.598	-65.309	137.202	254.459	0.00095463	0.0017186	3.728e-05	725.23	1.2196e-05	1.364e-06	813.67	249.74	4.6153e-06	8.3927e-06	334.71	127.73	85.14	44.249	8.8699e-06	73.974	0.002829	0.0027726	0.00075312	1356	2.8694e-05	2.8411e-05	1222.5	386.13	2.8498e-05	2.8732e-05	780.13	202.54	230.52	66.815	2.9929e-05	102.12	114.799	20.824	-3.932	-81.921	45.679	200.677	-82.699	-77.277	119.906	11.704	-77.777	-73.376	-73.034	-66.347	42.224	-69.215	-8191	255	
19574.896	1	1	0	0	0.117	0.15129	0.27559	0.29332	0.079143	0.15562	0.11561	0.18053	0.11798	0.25057	0.1642	0.29732	0.2259	0.063323	0.14281	0.23966	-1.2042	-2.0833	-1.8604	-1.5521	-1.9625	-1.8813	-2.0312	-2.0375	-1.4562	-2.1063	-1.8021	-1.725	-2.2	-1.7771	-1.8167	-2.3708	101.017	156.109	108.730	223.246	150.086	178.372	234.327	250.818	77.500	-1.837	89.811	-93.007	240.186	49.758	-87.313	-59.465	8.9494e-05	0.00076211	0.00042534	747.39	1.0836e-05	1.4113e-05	847.09	258.41	1.9159e-05	1.4126e-05	343.04	134.89	92.875	47.578	8.8503e-06	78.837	0.0027481	0.0027956	0.00078901	1430.3	3.1348e-05	3.1525e-05	1312.2	415.95	3.2425e-05	3.2578e-05	862.28	221.46	259.22	74.033	3.4011e-05	111.32	139.653	148.435	243.121	-82.240	-30.397	-38.746	-83.473	-77.897	199.268	86.509	-78.737	-73.951	-74.584	-67.276	169.232	-69.703	-8191	255	
19575.018	1	1	0	0	0.39151	0.060317	0.10824	0.22036	0.098335	0.29558	0.097999	0.088911	0.010958	0.069573	0.1276	0.059853	0.092697	0.27676	0.15817	0.11071	-1.1521	-1.8229	-1.8937	-1.5292	-2.15	-1.7896	-1.9521	-2.0521	-1.5042	-1.8687	-2.1708	-1.4875	-2.0917	-1.9354	-1.8042	-2.1979	13.139	-46.181	-7.040	217.757	89.101	233.031	249.061	228.569	232.700	202.371	22.123	-68.929	38.934	-93.422	40.021	131.085	0.00086537	0.0022799	0.0011586	785.88	9.3278e-06	3.3409e-06	879.98	268.66	1.6919e-05	9.8753e-06	353.82	141.36	96.096	50.285	1.5828e-06	82.257	0.0030345	0.0030405	0.00083906	1505.1	3.2593e-05	3.2215e-05	1346.1	421.4	3.0541e-05	3.0002e-05	804.29	211.6	230.6	69.927	2.7447e-05	105.09	108.358	-39.770	14.569	-83.215	235.607	-57.461	-82.982	-77.825	-71.324	-36.174	-79.559	-73.911	-73.449	-67.261	135.340	-69.484	-8191	255	
19575.113	1	1	0	0	0.24574	0.1361	0.12695	0.19935	0.08855	0.1727	0.34773	0.057363	0.12776	0.20166	0.10205	0.38769	0.20753	0.14102	0.12782	0.17827	-1.2625	-1.7292	-2.0333	-1.65	-1.8708	-1.825	-1.5812	-2.0729	-1.5458	-1.7188	-2.1521	-1.7896	-1.7104	-1.8104	-1.4792	-2.1375	-77.786	107.060	-3.835	-62.076	180.906	232.772	152.603	123.564	-4.086	-3.581	-90.046	-83.692	263.369	5.076	-70.595	169.623	0.00060237	0.001021	0.00039223	804.86	4.9899e-06	1.1967e-05	901.49	278.08	1.6433e-05	1.9091e-05	368.96	144.64	99.27	52.203	1.1128e-05	83.481	0.0024465	0.0024424	0.00066711	1342.9	2.5609e-05	2.5553e-05	1242.3	388.8	2.4405e-05	2.4054e-05	700.24	197.18	203.68	66.617	2.3011e-05	99.95	99.039	198.411	81.516	-82.708	184.072	247.077	-83.244	-77.604	-79.039	77.495	-79.320	-73.590	-72.499	-67.172	178.931	-69.487	-8191	255	
19575.209	1	1	0	0	0.26123	0.19039	0.30853	0.15839	0.13792	0.15205	0.087739	0.25464	0.20775	0.22438	0.13175	0.25726	0.33836	0.1916	0.2593	0.09157	-1.2021	-1.7396	-2.0438	-1.6708	-2.0125	-1.7625	-1.5667	-2.1521	-1.6854	-1.6979	-2.0521	-1.575	-1.9292	-1.9271	-1.4312	-2.3271	61.218	88.349	73.942	79.727	74.242	-44.000	210.043	218.532	21.197	-57.938	185.432	180.639	238.187	-44.967	133.424	254.334	0.00060597	0.0014898	0.0004416	815.89	1.0207e-05	1.1772e-05	910.89	282.06	1.1737e-05	2.3869e-05	367.56	146.51	100.88	51.94	9.3355e-06	83.203	0.0020738	0.0020835	0.00058058	1280.6	2.3458e-05	2.361e-05	1222	386.43	2.4266e-05	2.4704e-05	730.26	204.54	219.5	68.985	2.5718e-05	103.03	101.218	53.910	-68.531	-81.785	-68.483	44.284	-82.742	-77.839	-63.530	34.782	-78.775	-73.905	-73.707	-67.202	223.236	-69.412	-8191	255	
19575.328	1	1	0	0	0.21011	0.26453	0.13218	0.27017	0.16161	0.11608	0.14401	0.30064	0.19883	0.1842	0.086559	0.21479	0.17857	0.10983	0.16446	0.26801	-1.1958	-1.5438	-1.8375	-1.6771	-1.8125	-1.8167	-1.6042	-2.1792	-1.7583	-1.5375	-2.275	-1.7146	-1.7542	-2.0125	-1.4708	-2.1396	258.894	50.007	192.168	196.006	-14.516	141.007	104.840	-74.268	74.174	-59.097	-35.303	-46.169	-55.970	246.213	-19.540	251.542	0.00031696	0.0015136	0.0003328	825.07	1.3779e-05	1.1678e-05	925.72	287.72	9.4892e-06	2.0642e-05	373.64	149.17	103.76	54.142	7.632e-06	85.832	0.0022923	0.002289	0.00062831	1323.5	2.4025e-05	2.3825e-05	1233.8	387.48	2.2998e-05	2.2466e-05	676.4	194.9	193.98	65.325	1.9393e-05	95.907	-59.695	66.751	-95.194	-82.468	-27.157	68.753	-82.833	-77.813	43.116	98.615	-78.730	-74.068	-73.267	-67.423	191.266	-69.391	-8191	255	
19575.426	1	1	0	0	0.11589	0.26385	0.043407	0.2825	0.21488	0.062897	0.27629	0.20264	0.3043	0.21212	0.16446	0.33452	0.2363	0.18208	0.26225	0.19221	-1.3	-1.5562	-2.0021	-1.6271	-1.6292	-1.8875	-1.5146	-2.0354	-1.8667	-1.5542	-2.1813	-1.8208	-1.625	-2.0771	-1.3396	-1.8896	37.602	172.664	23.674	191.034	13.449	-36.945	168.195	220.973	33.839	158.302	122.978	-88.373	-67.593	234.254	-79.698	213.223	0.00044577	0.00093058	0.00039506	826.89	5.0604e-06	6.9105e-06	937.35	289.23	3.1861e-06	8.5191e-06	382.97	154.01	107.03	53.298	2.5493e-06	86.954	0.0016077	0.0015448	0.00040924	1087.8	1.4562e-05	1.3819e-05	1054.8	325.67	1.2258e-05	1.1738e-05	476.95	162.32	135.68	54.729	1.0389e-05	85.334	128.721	93.308	209.948	-82.137	172.922	-0.154	-83.001	-77.514	152.709	130.009	-78.275	-73.847	-73.706	-66.910	104.348	-69.351	-8191	255	
19575.496	1	1	0	0	0.13577	0.21556	0.20063	0.21784	0.3374	0.29431	0.19882	0.13141	0.19901	0.13053	0.32209	0.126	0.29392	0.29627	0.25374	0.23713	-1.625	-1.3958	-1.9521	-1.6521	-1.6375	-2.0021	-1.7542	-2.0229	-1.8083	-1.4333	-2.0229	-1.825	-1.8167	-2.3042	-1.5875	-2.05	248.048	80.734	148.906	174.963	24.109	167.435	167.694	123.371	86.455	142.709	-27.953	254.625	200.244	259.773	170.671	230.761	0.00094847	0.00069272	5.3757e-05	845.31	2.786e-06	1.0109e-05	964.43	296.11	6.8478e-06	1.356e-05	395.56	159.16	111.21	57.748	1.198e-05	92.399	0.00095966	0.00097195	0.00027146	984.73	1.0791e-05	1.0765e-05	1035.1	318.58	1.0741e-05	1.0778e-05	477.84	167.49	143.17	59.434	1.1861e-05	91.541	145.142	167.908	-68.781	-82.206	95.320	14.677	-82.976	-77.327	132.465	-43.006	-77.939	-73.858	-72.913	-67.100	146.045	-69.191	-8191	255	
19575.594	1	1	0	0	0.24991	0.032598	0.25807	0.10209	0.086184	0.1504	0.18661	0.27988	0.15859	0.19492	0.42263	0.32781	0.38984	0.3214	0.1247	0.25936	-1.35	-1.5312	-1.8479	-1.8813	-1.7313	-2.0021	-1.8625	-1.8354	-2.0187	-1.4333	-1.9	-1.8604	-1.5854	-2.1854	-1.6354	-1.7083	27.176	-56.763	193.979	189.333	5.485	196.661	150.244	230.488	211.056	198.234	-74.395	252.885	-20.161	231.664	0.596	190.091	0.00015681	0.00056669	0.00033624	892.83	9.2171e-06	7.6292e-06	1012.6	308.99	2.4817e-06	2.4844e-05	401.4	164.69	115.51	61.593	2.0197e-05	97.196	0.0011282	0.0011645	0.00033183	1091.3	1.3657e-05	1.3868e-05	1136.7	348.74	1.4193e-05	1.4209e-05	548.5	182.58	164.68	65.686	1.489e-05	100.15	76.866	14.011	-12.125	-82.631	153.368	92.347	-83.205	-77.590	255.238	-5.501	-78.996	-73.879	-73.304	-67.332	175.096	-69.651	-8191	255	
19575.713	1	1	0	0	0.13848	0.13605	0.036302	0.39204	0.041615	0.19044	0.10665	0.28277	0.20187	0.2399	0.052999	0.40849	0.16821	0.053565	0.27369	0.10613	-1.5875	-1.4521	-2.05	-1.7229	-1.5521	-1.9438	-1.7771	-1.9521	-2.0146	-1.5333	-1.8958	-2.1813	-1.5708	-2.1188	-1.7188	-1.9062	109.219	24.809	70.250	215.284	205.107	27.999	124.615	230.994	15.153	-91.185	167.399	234.848	8.185	227.201	99.816	201.703	0.00053345	0.00086066	0.00014627	936.77	8.7067e-06	9.7298e-06	1033.8	308.34	1.2377e-05	1.4107e-05	406.37	167.83	118.77	63.661	1.1139e-05	98.748	0.0014043	0.0014445	0.00040696	1197.9	1.603e-05	1.5953e-05	1189.8	363.44	1.5859e-05	1.5913e-05	582.55	191.14	174.89	68.671	1.5743e-05	102.18	129.207	19.308	45.743	-82.871	212.682	60.073	-83.189	-78.021	87.729	36.192	-79.182	-74.212	-72.862	-67.366	-77.770	-69.568	-8191	255	
19575.809	1	1	0	0	0.061643	0.073628	0.17448	0.044938	0.32529	0.0042829	0.088475	0.24115	0.11319	0.088954	0.068729	0.22295	0.19718	0.2096	0.12956	0.36382	-1.3646	-1.4979	-1.8646	-1.9979	-1.4792	-1.9875	-1.9229	-1.6417	-2.1521	-1.5729	-1.8771	-1.8958	-1.5521	-2.0875	-1.7146	-1.7125	247.269	134.380	222.072	188.274	-60.879	-78.210	106.516	251.692	-53.691	151.186	105.362	-45.597	226.261	-91.125	83.612	211.725	0.00042166	0.00092343	0.00044531	941.53	1.4689e-05	7.3973e-06	1034	306.39	1.2607e-05	1.4078e-05	392.49	156.26	109.89	58.695	1.2245e-05	92.444	0.0014367	0.0014312	0.0003946	1177.8	1.4938e-05	1.4463e-05	1156.2	345.9	1.3683e-05	1.3425e-05	521.53	170.6	148.86	60.902	1.2407e-05	92.454	143.970	-60.872	-44.159	-82.749	52.823	23.832	-83.119	-77.938	90.424	99.259	-78.713	-73.767	-73.105	-67.263	70.314	-69.531	-8191	255	
19575.904	1	1	0	0	0.071796	0.35976	0.098251	0.33619	0.20376	0.26606	0.17633	0.33435	0.2319	0.3472	0.27986	0.18532	0.10695	0.32826	0.32786	0.15062	-1.6875	-1.7021	-1.6042	-2.0646	-1.4521	-1.8687	-1.8271	-1.4062	-2.0687	-1.5104	-1.7062	-2.0021	-1.3479	-1.9688	-1.8312	-1.6625	71.865	-77.002	74.416	211.004	159.614	140.312	257.890	187.538	-62.379	175.902	52.376	194.436	181.782	184.986	171.951	169.170	0.00013983	0.00084563	0.00027644	926.84	6.0389e-06	1.0982e-05	1024.4	297.6	3.7908e-06	5.9304e-06	394.54	154.24	106.23	58.968	1.6977e-05	94.142	0.0011429	0.0011529	0.0003194	1088.6	1.1953e-05	1.1388e-05	1090.8	319.14	1.0154e-05	9.9642e-06	456.29	159.33	130.38	58.414	9.6318e-06	89.79	141.494	124.443	27.537	-83.137	1.285	-21.132	-83.456	-77.783	123.647	183.574	-78.719	-73.656	-72.348	-67.041	-18.931	-69.540	-8191	255	
19576.002	1	1	0	0	0.045647	0.1791	0.12649	0.04981	0.10296	0.034167	0.10415	0.20889	0.020314	0.15945	0.2268	0.24174	0.23586	0.056406	0.23335	0.24068	-1.5521	-1.5583	-1.725	-1.8521	-1.5729	-1.8083	-1.8646	-1.6437	-1.9729	-1.6542	-1.6063	-2.1375	-1.5312	-1.9292	-1.8083	-1.5229	-76.522	178.974	81.264	185.408	96.280	28.879	254.407	225.359	-37.630	150.009	6.278	261.989	204.596	-92.077	41.017	172.719	0.00049279	0.00059981	8.0553e-05	939.82	4.9065e-06	8.8364e-06	1044.5	305.25	5.7707e-06	8.7492e-06	398.47	164.45	114.29	63.547	9.0872e-06	98.708	0.00090213	0.00092344	0.00026553	1058.7	1.1053e-05	1.1309e-05	1120.1	333.71	1.1929e-05	1.2043e-05	506.03	175.28	151.29	64.823	1.2533e-05	98.028	157.364	228.368	31.499	-82.568	147.422	-21.466	-83.123	-77.629	254.273	-67.610	-78.597	-73.609	-72.683	-66.879	141.463	-69.524	-8191	255	
19576.121	1	1	0	0	0.15373	0.096475	0.032178	0.26411	0.1702	0.077143	0.25461	0.21251	0.12815	0.18109	0.16905	0.17263	0.20019	0.30016	0.26305	0.055736	-1.2729	-1.7708	-1.6021	-2.0917	-1.4562	-1.8167	-1.8854	-1.4667	-1.8438	-1.775	-1.4833	-1.8521	-1.4042	-1.9	-1.8833	-1.6396	130.968	21.516	-75.772	213.208	-4.197	28.888	172.859	256.299	76.727	132.025	-82.130	212.627	111.030	-92.899	216.033	-41.904	0.00047698	0.0012361	0.00033964	969.82	1.4632e-05	1.3605e-05	1054.2	309.05	1.6555e-05	4.7429e-06	406.02	169.18	118.97	64.673	7.8494e-06	100.09	0.0011946	0.0012415	0.00035524	1179.9	1.463e-05	1.4785e-05	1189.2	355.9	1.4902e-05	1.4789e-05	554.06	185.79	162.59	67.309	1.3435e-05	99.629	205.438	-55.239	107.504	-82.901	257.006	-45.653	-83.092	-77.396	225.710	154.686	-78.543	-73.531	-72.517	-67.080	35.650	-69.404	-8191	255	
19576.193	1	1	0	0	0.084079	0.06565	0.20915	0.090703	0.077809	0.11871	0.30532	0.10911	0.10396	0.15627	0.16887	0.11659	0.32093	0.28835	0.15199	0.18349	-1.525	-1.7083	-1.4354	-2.0208	-1.5271	-1.6063	-2.1813	-1.4042	-2.0083	-1.9167	-1.6792	-2.0146	-1.7583	-1.6646	-1.8396	-1.5875	109.299	41.913	120.135	191.949	189.470	181.500	215.155	-85.085	110.522	219.105	183.126	121.634	103.499	244.732	194.620	210.344	0.00085677	0.00071749	0.00039441	982	7.132e-06	1.2807e-05	1062.6	311.19	1.4054e-05	1.5794e-05	410.13	168.07	117.53	65.915	1.7812e-05	100.23	0.0011984	0.0011892	0.00032348	1141.4	1.2239e-05	1.2099e-05	1144.2	339.68	1.2369e-05	1.251e-05	520.03	180.19	155.04	67.002	1.2433e-05	98.668	139.503	-40.446	-68.379	-82.574	76.229	106.631	-82.940	-77.557	2.104	34.655	-78.444	-73.728	-72.433	-67.153	259.384	-69.280	-8191	255	
19576.289	1	1	0	0	0.34955	0.15893	0.064842	0.48901	0.12643	0.29012	0.14338	0.1872	0.11675	0.17864	0.12996	0.16487	0.21964	0.24795	0.19504	0.051405	-1.3667	-1.6333	-1.4896	-1.9458	-1.6667	-1.5917	-2.1333	-1.7583	-1.9146	-1.8813	-1.6125	-2.1146	-1.8062	-1.6396	-1.8458	-1.6771	24.521	-66.515	260.621	229.861	24.405	51.324	201.907	262.618	170.263	161.705	66.088	250.753	-50.437	-84.568	261.804	113.171	0.00080393	0.0001768	0.00070087	1003.7	1.161e-05	6.7002e-06	1099.4	321.43	2.8815e-05	8.1906e-06	437.49	190.59	134.65	73.606	1.4267e-05	106.75	0.0011518	0.0012143	0.00036255	1239.4	1.6993e-05	1.8781e-05	1333.1	413.49	2.2698e-05	1.9145e-05	609.64	205.01	174.54	74.991	1.5038e-05	109.98	140.441	-91.811	-74.317	-82.694	-30.469	115.795	-82.953	-77.190	161.928	180.232	-77.766	-74.018	-72.992	-67.187	-73.511	-69.378	-8191	255	
19576.410	1	1	0	0	0.11766	0.30333	0.16082	0.3218	0.14333	0.21943	0.18545	0.19452	0.15578	0.055938	0.34718	0.30824	0.12804	0.22029	0.13727	0.10218	-1.3771	-1.7375	-1.6063	-1.9604	-1.7125	-1.6646	-2.1583	-1.7229	-1.8208	-1.9438	-1.4708	-2.1333	-1.8458	-1.7458	-1.95	-1.6521	-36.486	109.247	57.658	253.146	134.717	-48.062	187.765	224.680	173.098	94.285	252.197	263.435	-79.039	254.770	128.022	-25.578	0.00025237	0.0017381	0.00037737	1227.5	1.4524e-05	4.5296e-05	1276	389.99	1.3711e-05	1.6127e-05	476.77	209.55	152.14	73.526	3.3477e-05	102.13	0.0017203	0.0020034	0.00063559	1753.1	3.0939e-05	3.3429e-05	1759.1	556.36	3.6855e-05	3.6746e-05	1016	288.62	297.28	92.241	2.863e-05	120.3	-33.096	-44.661	-46.303	-83.197	38.901	12.076	-83.654	-78.524	142.070	171.675	-78.266	-74.321	-73.889	-67.675	255.796	-69.953	-8191	255	
19576.504	1	1	0	0	0.19915	0.034393	0.26257	0.28674	0.29219	0.18178	0.29906	0.3178	0.31245	0.12631	0.22907	0.39556	0.07974	0.13814	0.14826	0.16491	-1.1646	-1.7646	-1.4833	-1.9646	-1.6979	-1.4917	-2.0708	-1.6958	-1.6	-1.975	-1.5229	-2.0896	-2.1458	-1.5354	-1.8417	-1.6979	243.045	108.128	40.662	245.018	80.289	85.999	197.354	89.512	73.080	0.422	214.777	216.190	113.681	185.034	178.073	217.541	0.00062157	0.00071854	0.0009496	1234.9	1.5082e-05	3.1137e-06	1239.2	367.11	9.0523e-06	1.35e-05	454.43	187.23	137.57	67.712	6.7687e-06	97.449	0.0022285	0.0021197	0.00055696	1565.3	1.9734e-05	1.8927e-05	1412.9	421.94	1.7363e-05	1.6879e-05	621.47	205.4	178.62	69.037	1.1806e-05	93.763	172.339	-95.322	-73.726	-83.969	152.716	244.885	-83.882	-78.846	251.907	-0.639	-78.746	-74.114	-73.608	-67.306	94.047	-69.356	-8191	255	
19576.600	1	1	0	0	0.15589	0.13155	0.065208	0.13879	0.11994	0.089681	0.13784	0.041556	0.075948	0.14255	0.16534	0.090274	0.059171	0.48687	0.30319	0.061497	-1.2104	-1.9083	-1.6271	-1.8	-1.8354	-1.5104	-2.0146	-1.7625	-1.4854	-1.8625	-1.4062	-1.7542	-1.7812	-1.4542	-1.7583	-1.8542	-29.359	115.682	4.717	243.545	-23.688	1.094	149.044	-95.872	88.986	-12.578	165.315	-77.044	-94.412	228.376	-65.699	21.341	0.00045918	0.00053822	0.00012789	1193.7	3.8908e-06	4.64e-06	1212.7	358.29	6.6094e-06	7.4447e-06	455.36	185.89	135.2	68.139	7.784e-06	100.26	0.00087596	0.00080543	0.00020505	1190.8	7.0103e-06	6.5898e-06	1172.5	341.97	5.484e-06	5.1977e-06	408.63	168.55	119.25	60.462	3.9835e-06	86.732	159.739	25.373	202.075	-83.495	6.930	168.275	-83.484	-78.073	47.368	-96.004	-79.120	-73.629	-73.035	-66.927	70.156	-69.474	-8191	255	
19576.697	1	1	0	0	0.0091923	0.16751	0.094417	0.16575	0.15323	0.11497	0.24534	0.24996	0.13238	0.11509	0.16993	0.15991	0.066098	0.056409	0.2649	0.025241	-0.85833	-1.9646	-1.4167	-1.7271	-1.9292	-1.5312	-1.8021	-1.75	-1.5479	-1.8167	-1.7146	-1.7333	-1.9438	-1.5	-1.8083	-2.0917	-67.593	86.154	220.174	225.802	194.499	-86.800	149.364	245.214	-88.625	153.270	237.990	166.413	-72.909	251.248	-41.883	-72.867	0.00039778	0.00066478	7.4821e-05	1189.9	5.4377e-06	8.9116e-06	1246.2	366.26	3.797e-06	4.4321e-07	475.86	195.43	139.81	71.733	5.8858e-06	107.14	0.00033704	0.00031903	8.623e-05	1078.3	3.0948e-06	3.0043e-06	1137.1	330.42	2.769e-06	2.7034e-06	381.17	169.84	112.89	61.679	2.6046e-06	90.233	164.922	182.796	-35.005	-83.389	106.368	58.205	-83.778	-78.452	-19.235	24.229	-78.482	-74.104	-73.249	-67.298	64.440	-69.553	-8191	255	
19576.793	1	1	0	0	0.10593	0.23689	0.37425	0.19838	0.33799	0.12181	0.15007	0.18567	0.416	0.20536	0.26578	0.14682	0.14889	0.40939	0.20259	0.35313	-1.0896	-1.8708	-1.575	-1.7083	-1.9333	-1.5333	-1.9979	-1.9917	-1.5896	-2.05	-1.7583	-1.5812	-1.9833	-1.6229	-1.8188	-1.9604	-44.891	-64.592	50.982	243.939	-91.497	30.527	193.370	116.571	11.324	-6.852	170.612	231.884	19.969	222.555	45.535	214.927	0.00065776	0.00046984	0.00020672	1217.5	4.0265e-06	4.7244e-06	1284.4	376.77	5.158e-06	1.263e-05	491.05	199.1	140.14	72.215	3.1471e-06	110.42	0.00024105	0.00023143	6.3762e-05	1082.8	2.4679e-06	2.4641e-06	1166.5	337.54	2.3917e-06	2.3703e-06	383.1	171.55	110.65	61.679	2.204e-06	92.151	171.794	-53.095	-80.598	-83.567	69.935	85.992	-83.664	-78.234	-50.347	-29.859	-79.052	-73.996	-73.136	-67.417	-88.030	-69.745	-8191	255	
19576.889	1	1	0	0	0.1485	0.050922	0.079883	0.31011	0.24357	0.14706	0.064326	0.34911	0.14394	0.14071	0.28175	0.14507	0.35673	0.4196	0.13663	0.37593	-0.85833	-1.9792	-1.8042	-1.6458	-1.8937	-1.5521	-1.8479	-2.0708	-1.3458	-1.9	-1.6333	-1.6958	-2.0542	-1.7021	-1.7771	-2.1271	119.540	-94.353	235.501	165.060	234.864	-83.515	133.047	176.787	-86.798	44.076	-84.844	193.451	1.075	223.582	127.977	165.963	0.00057929	0.00019256	0.00010424	1220.3	7.1324e-06	4.4184e-06	1303	374.09	3.2712e-06	8.5968e-06	496.27	198.26	135.84	72.362	5.3113e-06	111.92	0.00020213	0.00019428	5.3482e-05	1070.2	2.0987e-06	2.0666e-06	1170.3	333.84	2.0973e-06	2.0741e-06	380.84	170	106.43	61.81	2.0668e-06	93.598	163.112	-94.569	249.396	-83.368	-39.755	48.509	-83.891	-78.594	18.716	16.793	-79.261	-74.133	-73.109	-67.300	54.223	-69.449	-8191	255	
19577.010	1	1	0	0	0.17641	0.23886	0.079284	0.24645	0.23529	0.26808	0.15234	0.31232	0.086571	0.20066	0.20594	0.058801	0.10424	0.32053	0.25139	0.30746	-1.0438	-1.7146	-1.7812	-1.5646	-1.975	-1.6271	-1.85	-2.0375	-1.425	-1.7896	-1.7354	-1.5646	-2.2042	-1.7958	-1.6708	-2.0771	133.066	245.180	-51.480	246.845	256.190	231.679	73.916	233.649	-35.198	33.685	-86.473	152.552	14.361	223.247	-89.076	246.210	0.00063105	0.00023061	9.4296e-05	1185.6	5.9853e-06	1.2947e-06	1285.6	366.88	4.9871e-06	1.3785e-05	484.82	192.87	130.91	70.571	1.0808e-05	110.48	0.00019699	0.00018944	5.2418e-05	1042.7	2.0531e-06	2.0551e-06	1153.9	327	2.0665e-06	2.0746e-06	374.77	165.58	103.15	60.169	2.1328e-06	92.397	152.290	-30.299	-40.200	-83.348	59.383	103.855	-83.761	-78.264	248.790	10.338	-78.944	-74.112	-73.290	-67.386	33.177	-69.291	-8191	255	
19577.105	1	1	0	0	0.082745	0.12562	0.23857	0.1463	0.25154	0.021974	0.1332	0.24463	0.387	0.23963	0.35023	0.1698	0.18376	0.2231	0.054496	0.24405	-1.0229	-1.6667	-1.6104	-1.4562	-1.8667	-1.4958	-1.7542	-2.2271	-1.6479	-1.8375	-1.9813	-1.5354	-1.8875	-2.0104	-1.5583	-2.1688	226.752	72.645	-31.344	-90.665	137.562	6.250	151.167	234.227	253.907	-54.118	149.620	136.224	60.075	243.262	-19.047	160.359	0.00058446	0.00039763	0.00020407	1179.7	5.1923e-06	6.9637e-06	1284.6	365.66	4.0803e-06	1.0791e-05	486.06	194.69	131.31	71.274	4.9767e-06	111.63	0.00020458	0.00019785	5.5573e-05	1039.8	2.2326e-06	2.214e-06	1157.8	327.07	2.2724e-06	2.2664e-06	378.84	167.91	104.48	60.964	2.2765e-06	93.464	155.211	-48.825	-26.176	-83.590	25.593	28.507	-83.786	-78.454	24.112	7.299	-79.274	-73.956	-73.646	-67.135	39.616	-69.421	-8191	255	
19577.201	1	1	0	0	0.050352	0.098084	0.092344	0.34252	0.18893	0.28186	0.22766	0.3394	0.10408	0.28159	0.16373	0.055911	0.15293	0.264	0.076341	0.35697	-1.2146	-1.6229	-1.7167	-1.4188	-1.8104	-1.8667	-1.6375	-2.0417	-1.6396	-1.6437	-1.8375	-1.6333	-1.7604	-1.8687	-1.5	-1.9646	-6.450	13.931	-63.316	216.774	-48.093	115.813	207.449	223.250	221.300	6.823	-77.559	6.666	95.502	212.356	207.820	198.533	0.00055009	0.00039968	0.00031578	1186.5	3.3349e-06	3.2824e-06	1295.4	368.31	2.1658e-06	1.9177e-06	489.76	196.15	133.14	71.862	7.1027e-06	112.36	0.00021474	0.00021138	5.8533e-05	1052.6	2.3592e-06	2.3814e-06	1171	330.5	2.4156e-06	2.4259e-06	386.77	169.81	106.39	61.677	2.5177e-06	94.488	150.122	-38.965	-59.810	-83.738	-24.004	159.255	-83.933	-78.469	130.585	158.097	-79.293	-74.244	-73.928	-67.417	44.684	-70.242	-8191	255	
19577.299	1	1	0	0	0.15052	0.093666	0.039246	0.10819	0.088345	0.24388	0.21513	0.25608	0.25433	0.14831	0.092296	0.13733	0.066319	0.34382	0.27521	0.22502	-1.3	-1.5812	-1.7812	-1.5896	-1.7875	-1.8062	-1.65	-2.1312	-1.6042	-1.5021	-2.0583	-1.6854	-1.6354	-2.0208	-1.4396	-2.0625	190.146	-71.181	-22.851	134.809	-60.884	97.065	224.379	175.048	82.835	117.904	-13.808	-45.762	238.925	244.379	243.422	223.962	0.0006311	0.00038684	0.00018	1195.3	3.116e-06	5.2406e-06	1292.3	369.76	2.0485e-06	6.0496e-06	491.64	197.89	132.17	71.611	8.7228e-06	112.56	0.00024	0.00023281	6.4035e-05	1061	2.5541e-06	2.5453e-06	1175.8	332.41	2.5603e-06	2.52e-06	389.61	171.03	106.38	61.541	2.5159e-06	94.92	142.498	-44.397	-24.595	-83.860	38.589	80.282	-84.316	-79.090	16.335	260.880	-79.067	-74.264	-73.966	-67.619	-5.953	-69.826	-8191	255	
19577.420	1	1	0	0	0.23642	0.1404	0.29642	0.17338	0.1323	0.21884	0.27566	0.39254	0.19184	0.23862	0.058595	0.24266	0.071584	0.32597	0.069385	0.20901	-1.1146	-1.4625	-1.775	-1.6896	-1.725	-1.8854	-1.6146	-2.0833	-1.8042	-1.6542	-1.9875	-1.725	-1.8687	-2.1063	-1.3667	-1.9625	114.107	-57.685	-88.428	213.493	232.222	-58.316	70.226	174.882	-82.471	188.389	96.724	250.241	67.247	246.636	27.608	246.269	0.00053493	0.00029451	0.00022209	1190.8	3.1687e-06	4.7373e-06	1302.3	369.28	2.7723e-06	7.6444e-06	492.12	194.09	130.2	69.94	2.4691e-06	110.6	0.00023681	0.00022838	6.3178e-05	1060.4	2.5213e-06	2.5212e-06	1181.3	331.39	2.4919e-06	2.4992e-06	387.06	168.69	104.94	60.184	2.4753e-06	93.155	169.227	-35.549	1.404	-83.708	97.952	65.932	-83.892	-78.735	39.470	52.435	-79.217	-73.984	-73.820	-67.327	58.325	-69.731	-8191	255	
19577.490	1	1	0	0	0.1865	0.28089	0.24587	0.20413	0.059702	0.061715	0.23117	0.1519	0.24719	0.015123	0.072537	0.2131	0.023374	0.31935	0.41252	0.15422	-1.1875	-1.3896	-1.875	-1.675	-1.7458	-1.7812	-1.8042	-1.7812	-1.9125	-1.3542	-1.825	-1.8708	-1.6729	-2.1312	-1.4292	-2.0542	199.879	20.421	129.984	34.100	-33.735	24.123	-69.069	207.461	-95.752	260.670	162.724	262.627	63.805	177.132	154.395	158.748	0.00049499	0.00074761	0.00025169	1194.2	5.4826e-06	3.6591e-06	1304.3	370.73	2.9631e-06	4.4337e-06	490.18	194.47	131.86	69.936	6.0264e-06	110.77	0.00023117	0.00022418	6.2478e-05	1058.5	2.4267e-06	2.4295e-06	1180.6	332.27	2.4413e-06	2.4431e-06	386.64	168.72	105.14	60.169	2.4848e-06	93.184	177.280	-72.749	8.434	-83.879	1.724	21.101	-83.908	-79.072	6.351	258.767	-79.531	-74.536	-73.445	-67.242	69.748	-69.749	-8191	255	
19577.586	1	1	0	0	0.19358	0.17593	0.10661	0.32951	0.13684	0.22404	0.36082	0.12435	0.071852	0.075311	0.06043	0.2156	0.31075	0.16838	0.18605	0.33594	-1.4396	-1.3563	-1.9854	-1.6833	-1.4875	-1.9979	-1.6979	-1.8083	-1.7646	-1.3167	-1.9104	-1.8188	-1.5646	-2.1792	-1.4958	-2.0438	42.474	99.591	172.134	250.061	-89.703	-41.902	216.208	28.023	71.047	167.725	-58.604	156.260	-55.309	-88.819	224.628	142.006	0.00061557	0.0002938	0.0001098	1210.8	6.4113e-06	3.2771e-06	1317.2	372.58	4.4905e-06	1.321e-06	490.21	193.92	128.96	68.519	7.5384e-06	108.23	0.00023528	0.00022695	6.4062e-05	1070.9	2.4873e-06	2.49e-06	1190.5	334.38	2.4939e-06	2.4593e-06	387.49	167.42	104.71	59.043	2.4423e-06	91.435	171.152	58.057	98.224	-83.589	28.189	-5.326	-83.868	-78.715	57.559	-26.282	-79.701	-74.450	-73.468	-67.564	87.534	-69.722	-8191	255	
19577.682	1	1	0	0	0.051718	0.11199	0.22262	0.11694	0.039234	0.13103	0.34474	0.20594	0.086633	0.23164	0.17721	0.252	0.1835	0.22843	0.39492	0.13117	-1.3854	-1.3208	-1.7	-1.7812	-1.5833	-2.0021	-2.0354	-1.8083	-2.0125	-1.5208	-1.9146	-1.9146	-1.5625	-2.1708	-1.6063	-1.825	-33.205	180.771	211.102	215.530	-93.512	32.096	241.851	178.581	179.080	-60.127	224.356	180.082	164.031	235.288	228.340	-50.924	0.00067273	0.00023624	3.2575e-05	1217.1	6.358e-06	6.1401e-06	1320.8	372.83	3.7318e-06	4.1641e-06	494.39	190.08	128.38	65.938	6.9163e-06	105.84	0.000227	0.00022061	6.1143e-05	1076.7	2.4042e-06	2.3839e-06	1196.6	334.08	2.3649e-06	2.3509e-06	384.82	163.92	102.33	56.788	2.3145e-06	89.063	143.984	-87.888	-91.892	-83.658	20.472	56.070	-84.153	-79.374	-54.672	21.924	-79.724	-74.605	-73.888	-67.584	62.681	-69.618	-8191	255	
19577.801	1	1	0	0	0.1712	0.25255	0.23989	0.23221	0.11013	0.15041	0.32769	0.21372	0.089786	0.036675	0.25513	0.24469	0.14013	0.2093	0.24282	0.23383	-1.3958	-1.4771	-1.6104	-1.7604	-1.2208	-1.8708	-1.8188	-1.65	-1.8687	-1.6396	-1.8208	-2.0146	-1.3583	-2.2229	-1.625	-1.6083	77.838	77.663	82.331	200.037	238.186	188.830	-89.180	239.029	113.896	164.804	257.784	170.462	137.571	227.390	112.326	203.530	0.00039443	0.00054891	0.00030624	1209.5	1.1604e-06	5.0186e-06	1327.1	371.09	3.6196e-06	1.2877e-06	486.42	190.16	127.59	65.824	1.1283e-06	105.7	0.00021537	0.00020815	5.7976e-05	1070.2	2.2894e-06	2.2831e-06	1197.8	331.31	2.282e-06	2.2788e-06	383.49	163.87	102.07	56.443	2.2707e-06	88.787	165.481	10.099	-82.700	-83.784	153.531	-31.939	-84.143	-78.994	11.069	-78.907	-79.205	-74.389	-73.977	-67.192	-50.165	-69.582	-8191	255	
19577.898	1	1	0	0	0.30406	0.19216	0.29086	0.28768	0.083671	0.18609	0.29053	0.19208	0.26371	0.071581	0.36567	0.21888	0.39777	0.15074	0.091648	0.20853	-1.5333	-1.4521	-1.8146	-2.0042	-1.4479	-2.0458	-1.8958	-1.6146	-1.9062	-1.6542	-1.6958	-2.0521	-1.4771	-2.0458	-1.7146	-1.5646	208.743	122.594	170.177	-80.621	227.849	182.667	190.918	242.557	-81.732	-15.452	218.350	244.212	253.224	238.269	50.923	214.341	0.00057987	0.00069193	0.00022644	1212	7.0055e-06	7.6919e-06	1314.1	370.81	3.6086e-06	4.2737e-06	487.92	187.81	127.31	65.278	1.6408e-06	104.63	0.00021281	0.00020987	5.8335e-05	1068.4	2.281e-06	2.2811e-06	1190.8	330.65	2.2874e-06	2.2698e-06	381.48	162.45	101.55	56.037	2.2701e-06	87.829	160.979	-69.956	-9.097	-83.634	7.953	12.244	-84.340	-79.554	85.524	-23.209	-80.247	-74.529	-73.720	-67.437	260.749	-69.419	-8191	255	
19577.994	1	1	0	0	0.052828	0.23363	0.14685	0.13386	0.046787	0.19666	0.23355	0.26139	0.080245	0.13704	0.059544	0.3182	0.15824	0.33367	0.35081	0.22356	-1.4229	-1.5417	-1.5875	-2.1188	-1.4375	-1.8521	-2.0854	-1.6458	-2.2083	-1.6375	-1.8	-2.0375	-1.3521	-1.9771	-2.0187	-1.6	34.760	73.755	-95.825	-72.073	46.147	117.320	239.682	213.589	246.342	107.092	-41.555	225.654	257.066	-78.639	28.034	198.949	0.00065612	0.00044304	0.00023048	1215.2	1.5087e-06	1.9209e-06	1314.7	368.39	4.4645e-06	7.701e-06	488.35	186.9	126.94	64.275	8.9401e-06	104.85	0.00021153	0.00020669	5.6906e-05	1066.6	2.2359e-06	2.2408e-06	1188	329.56	2.2633e-06	2.2605e-06	379.95	161.24	100.61	55.512	2.235e-06	87.962	165.470	-38.353	-42.262	-83.751	-62.966	10.036	-84.069	-79.122	60.055	5.511	-80.168	-75.107	-74.363	-68.060	44.876	-69.577	-8191	255	
19578.090	1	1	0	0	0.27151	0.2307	0.21352	0.403	0.2265	0.082248	0.34519	0.41294	0.14782	0.040987	0.15885	0.10857	0.090765	0.34752	0.18624	0.049184	-1.5292	-1.5354	-1.5896	-2.0479	-1.6896	-1.8521	-1.9562	-1.4396	-2.0687	-1.7083	-1.5146	-2.0479	-1.475	-1.8854	-1.85	-1.8667	209.372	121.913	194.919	230.101	105.427	-10.308	216.941	238.660	249.587	106.373	141.649	169.863	224.811	-92.404	41.375	201.359	0.00067634	0.00049123	9.5072e-05	1213.6	6.5887e-06	8.8151e-06	1321.8	371.23	7.2053e-06	7.0197e-06	485.69	189.37	126.99	65.833	3.211e-06	106.88	0.00021209	0.00020413	5.6818e-05	1067.3	2.2301e-06	2.1984e-06	1190.4	330.6	2.209e-06	2.2105e-06	379.22	163.19	100.88	56.389	2.211e-06	89.727	181.372	-17.650	15.325	-83.550	11.118	38.049	-83.989	-78.812	-38.971	9.069	-79.228	-74.351	-74.197	-67.650	-8.852	-69.772	-8191	255	
19578.186	1	1	0	0	0.12726	0.22083	0.20305	0.17609	0.2003	0.049765	0.27406	0.20023	0.1333	0.069885	0.27099	0.134	0.1592	0.20264	0.13276	0.27739	-1.5771	-1.6208	-1.5354	-2.0708	-1.3875	-1.8458	-2.1417	-1.6979	-1.8708	-1.9396	-1.5729	-2.0854	-1.575	-1.925	-1.9521	-1.7687	201.360	81.059	134.199	-89.014	139.188	82.259	255.859	-84.362	230.569	-15.416	186.647	55.754	230.777	-50.266	187.050	153.211	0.00065797	0.00038203	7.2003e-05	1205.3	1.6677e-06	2.8669e-06	1321.2	371.73	3.8366e-06	6.3373e-06	494.2	191.68	127.9	66.547	6.4035e-06	107.61	0.0002095	0.00020155	5.5506e-05	1066	2.2095e-06	2.2054e-06	1192.6	331.27	2.2272e-06	2.2071e-06	382.86	165.12	101.59	56.874	2.2065e-06	90.414	158.997	214.653	246.385	-83.622	-68.846	10.441	-84.083	-78.827	10.856	-71.383	-79.442	-74.304	-73.718	-67.532	83.758	-69.410	-8191	255	
19578.281	1	1	0	0	0.067682	0.20944	0.15852	0.14203	0.12552	0.24827	0.21161	0.31069	0.16225	0.21592	0.043519	0.20918	0.18904	0.43323	0.20925	0.19333	-1.3292	-1.8417	-1.4604	-2.0646	-1.6646	-1.3833	-2.3396	-1.7188	-1.7375	-1.9375	-1.6042	-2.1542	-1.7687	-1.6771	-2.1396	-1.7	214.514	205.127	-1.720	177.067	103.369	57.181	172.034	238.697	256.231	196.325	141.224	194.990	-58.879	-88.450	-39.071	161.601	0.00049316	0.00021445	0.00016296	1198.6	4.6716e-06	2.9122e-06	1327.3	368.69	5.5041e-06	7.4337e-06	484.87	187.96	125.1	64.428	1.9742e-06	104.49	0.00020756	0.00020129	5.5771e-05	1061.5	2.184e-06	2.1658e-06	1196.9	329.71	2.1756e-06	2.1643e-06	379.15	161.77	99.408	55.071	2.1416e-06	87.506	155.599	-14.368	3.083	-84.542	-26.103	18.782	-84.883	-79.451	-51.341	57.937	-79.887	-75.066	-74.589	-68.249	169.551	-70.309	-8191	255	
19578.379	1	1	0	0	0.24001	0.18628	0.12482	0.020071	0.12185	0.17469	0.1441	0.21861	0.25113	0.20566	0.23304	0.27943	0.30524	0.17569	0.17901	0.18059	-1.4167	-1.775	-1.4354	-2.05	-1.9854	-1.5917	-2.0625	-1.6667	-1.7208	-1.8458	-1.4021	-2.05	-1.6646	-1.5208	-2.0375	-1.6646	-33.427	-58.477	233.902	-18.824	172.930	-7.336	204.876	-36.171	16.501	125.210	221.369	-46.425	253.791	-80.089	-89.563	168.916	0.00051915	0.00011999	5.9401e-05	1201.8	7.1903e-06	3.2506e-06	1318	363.79	2.342e-06	2.7008e-06	480.01	186.33	122.72	63.908	6.5246e-06	103.94	0.0002012	0.00019723	5.4177e-05	1056.8	2.1435e-06	2.1305e-06	1187	325.35	2.1305e-06	2.1252e-06	374.99	160.44	98.482	54.679	2.1223e-06	87.242	152.972	124.296	76.317	-84.510	79.838	48.756	-84.471	-79.462	25.292	-69.425	-80.405	-74.944	-74.906	-68.344	50.077	-70.508	-8191	255	
19578.498	1	1	0	0	0.28955	0.22922	0.14978	0.2899	0.28877	0.2985	0.16418	0.21982	0.12764	0.074811	0.065038	0.26897	0.13009	0.1549	0.22785	0.1078	-1.2062	-1.9229	-1.4854	-1.95	-1.6938	-1.2896	-2.1979	-1.6979	-1.6271	-2.0104	-1.6354	-1.7854	-1.6938	-0.83333	-1.4958	-1.0354	171.816	-72.003	177.662	246.283	-28.953	248.560	191.420	213.254	158.383	162.971	-14.013	250.140	213.306	-18.875	171.264	88.815	0.00066912	0.0004276	0.00031049	1197.8	7.1001e-06	2.7581e-06	1320.7	364.8	3.701e-06	8.586e-07	481.5	187.27	124.31	26.904	5.9729e-07	0.34357	0.00019981	0.00019077	5.3571e-05	1052.4	2.1056e-06	2.0826e-06	1188.1	324.6	2.0855e-06	2.0778e-06	375.02	161.17	98.539	26.738	-2.4309e-07	0.15985	168.184	77.371	11.765	-84.159	16.577	49.579	-84.324	-79.438	17.471	-16.474	-80.316	-75.127	-74.771	-48.930	-92.930	-23.262	-8191	255	
19578.594	1	1	0	0	0.10453	0.15212	0.12503	0.17202	0.15472	0.20077	0.086297	0.042198	0.080468	0.068172	0.22309	0.28276	0.21768	0.088789	0.33001	0.18048	-0.71042	-1.4104	-1.1229	-1.3375	-1.3062	-0.9875	-1.275	-1.1812	-1.0312	-1.6375	-1.0667	-1.2125	-1.3188	-0.92083	-1.4062	-1.1771	186.643	269.426	-8.218	-26.432	156.671	177.279	200.797	263.713	31.067	-6.595	69.129	243.450	26.481	-14.553	204.200	271.416	3.166e-06	3.5962e-05	1.1182e-05	0.10492	6.7923e-08	1.7052e-07	0.035061	0.0068715	1.0392e-07	1.4307e-07	0.018245	0.0044861	0.0011717	0.0015671	1.3987e-07	0.0034184	-1.645e-05	-1.3671e-05	-3.0302e-06	-2.5248	-8.5083e-08	-7.1512e-08	-1.138	-0.33643	-4.9673e-08	-4.6877e-08	-0.76464	-0.12552	-0.21355	-0.032748	-3.1325e-08	-0.04031	-44.185	231.576	46.224	81.536	54.382	267.154	198.783	-68.710	18.959	224.502	272.680	199.435	124.854	73.648	96.902	59.766	-8191	255	
19578.691	1	1	0	0	0.33128	0.16083	0.055356	0.23445	0.11586	0.14894	0.17056	0.20151	0.028032	0.16308	0.31182	0.16349	0.081352	0.098339	0.11175	0.14049	-0.72917	-1.2917	-0.80833	-1.1625	-1.4813	-1.0083	-1.2604	-1.2292	-1.0958	-1.4104	-0.98958	-1.2354	-1.3396	-0.91875	-1.2854	-1.3792	296.990	321.960	327.369	61.004	136.638	145.570	110.663	92.300	26.927	364.151	183.695	201.228	83.049	60.060	305.269	296.707	8.5591e-07	3.3603e-06	8.3462e-06	0.052914	1.4124e-07	2.2269e-07	0.024936	0.0051682	1.2465e-07	2.096e-07	0.041098	0.0044688	0.015285	0.00035668	2.4665e-07	0.00060047	-2.2425e-06	-2.4313e-06	-6.0426e-07	-0.58639	-2.3242e-08	-1.995e-08	-0.37446	-0.11547	-1.7727e-08	-1.9223e-08	-0.31111	-0.054975	-0.1013	-0.014831	-1.5699e-08	-0.02061	241.436	286.018	206.456	318.244	47.644	285.354	91.575	27.601	85.920	359.685	215.877	21.154	104.851	323.485	330.119	301.679	-8191	255	
19578.785	1	1	0	0	0.19506	0.27046	0.1483	0.12265	0.079024	0.096185	0.1776	0.074594	0.22913	0.095074	0.05858	0.12296	0.35081	0.3792	0.16347	0.187	-0.54792	-1.3875	-1.1292	-1.1812	-1.5187	-0.90208	-1.2958	-1.3646	-0.83542	-1.5167	-1.1958	-1.0938	-1.3729	-1.0417	-1.3458	-1.2833	25.771	89.155	194.868	-16.865	80.564	-114.923	134.778	-111.048	-6.627	154.095	9.503	-58.910	152.893	-45.932	-26.155	-143.414	1.786e-06	2.9185e-06	3.2933e-06	0.034902	1.7655e-07	1.5186e-07	0.0082421	0.0064485	9.0696e-08	8.3265e-08	0.016775	0.0022082	0.00090168	0.0020666	3.518e-08	0.0023426	-1.005e-06	-1.357e-06	-3.5076e-07	-0.31636	-1.3705e-08	-1.1075e-08	-0.21638	-0.077477	-9.7914e-09	-1.2544e-08	-0.21147	-0.032211	-0.069269	-0.008852	-1.0815e-08	-0.015896	-117.398	13.807	-67.342	99.097	165.184	29.812	12.814	-136.625	34.647	-57.961	103.483	113.150	-87.013	195.791	-83.874	143.477	-8191	255	
19578.883	1	1	0	0	0.038195	0.079765	0.22938	0.19548	0.14644	0.29758	0.097132	0.181	0.04379	0.16275	0.26984	0.016889	0.16198	0.29773	0.12583	0.30128	-0.625	-1.4062	-1.1604	-1.0125	-1.7146	-1.0646	-1.1479	-1.4062	-1.0292	-1.4771	-1.0063	-0.88333	-1.5375	-1.0646	-1.2125	-1.2521	424.331	298.393	130.838	375.564	281.532	227.501	129.616	222.795	178.343	214.412	366.479	423.375	243.839	377.098	148.733	291.194	8.0012e-06	1.1666e-05	6.2064e-06	0.036073	2.106e-07	1.4423e-07	0.034999	0.0017973	1.8847e-07	1.9788e-07	0.045542	0.0073202	0.0071921	0.00095075	1.576e-07	0.00077137	-5.9256e-07	-1.019e-06	-2.5001e-07	-0.21828	-1.2098e-08	-7.8754e-09	-0.1633	-0.060894	-8.2207e-09	-1.0271e-08	-0.16835	-0.024713	-0.059427	-0.0081661	-7.9783e-09	-0.013584	146.256	277.145	140.627	135.505	240.251	281.465	148.390	94.771	376.184	419.763	433.087	390.162	222.540	434.476	403.832	162.326	-8191	255	
19578.979	1	1	0	0	0.3105	0.23148	0.30894	0.067083	0.19839	0.13692	0.50409	0.18826	0.15099	0.23014	0.10753	0.28329	0.36299	0.18851	0.38047	0.1053	-0.50833	-1.8979	-2.2	-1.9167	-1.9521	-1.8	-1.6896	-2.0646	-1.4354	-1.7458	-1.6917	-1.5729	-1.9354	-1.9125	-1.4542	-2.0708	226.771	133.138	112.893	109.199	244.489	167.014	231.255	-66.351	69.922	-40.681	152.260	199.117	229.775	243.992	195.295	-0.227	8.2788e-06	0.00026077	2.5534e-05	14.207	3.9215e-06	2.5981e-06	1304.3	360.97	4.055e-06	2.7962e-06	482.01	184.35	121.27	61.534	5.6825e-06	101.88	3.1612e-06	4.7301e-05	2.0111e-05	26.304	1.0749e-06	1.9536e-06	1172.1	321.57	2.1267e-06	2.112e-06	374.74	158.58	96.246	52.752	2.1621e-06	85.44	-4.636	-81.580	99.594	199.438	-13.396	26.366	-86.919	-80.463	-57.725	-28.898	-80.952	-75.617	-75.042	-68.195	107.843	-70.476	-8191	255	
19579.100	1	1	0	0	0.1785	0.088739	0.13136	0.022874	0.10801	0.3438	0.18628	0.080821	0.17909	0.10474	0.14537	0.02898	0.18796	0.23935	0.11912	0.36726	-1.1146	-1.8042	-1.9708	-1.5729	-1.7125	-1.7208	-1.6208	-2.1688	-1.6583	-1.675	-1.8563	-1.5146	-1.9229	-1.9167	-1.5604	-2.1979	-82.149	160.008	88.391	197.253	-40.435	-3.144	210.948	153.557	146.020	-97.084	-26.694	249.549	209.606	234.504	137.518	158.067	0.00041925	0.00055979	0.00010619	1194.9	4.6077e-06	4.8571e-06	1322.4	362.7	3.7824e-06	3.7414e-06	483.91	184.24	120.94	60.873	9.029e-06	100.97	0.00020441	0.00019724	5.4642e-05	1054	2.1783e-06	2.1824e-06	1193.1	324.15	2.187e-06	2.1777e-06	376.2	158.27	96.343	52.245	2.1882e-06	84.937	168.228	-40.318	-13.873	-84.462	-9.334	15.698	-84.693	-79.906	-68.612	-22.797	-80.248	-74.987	-74.572	-68.219	102.772	-69.865	-8191	255	
19579.195	1	1	0	0	0.17873	0.14437	0.16942	0.2809	0.10152	0.23403	0.20145	0.30326	0.23142	0.16217	0.061164	0.22928	0.24386	0.2513	0.084118	0.054258	-1.25	-1.7354	-1.7479	-1.4292	-1.9458	-1.7979	-1.5771	-2.05	-1.5604	-1.6646	-1.7542	-1.4542	-1.6812	-1.8333	-1.4917	-1.9917	14.655	86.485	-42.088	208.173	-64.253	-8.558	214.377	247.636	22.256	137.340	156.571	-3.841	83.063	206.149	-81.650	44.290	0.00053222	0.00049955	0.00020196	1196.5	5.9327e-06	1.7328e-06	1329	362.71	1.8684e-06	4.2909e-06	484.08	184.67	121.85	61.772	6.5389e-06	102.86	0.00020173	0.00019623	5.4734e-05	1051.4	2.1359e-06	2.1462e-06	1194	323.23	2.1391e-06	2.1097e-06	376.54	159.36	96.601	52.955	2.0953e-06	86.28	157.555	-1.902	10.796	-84.663	71.389	256.404	-85.047	-79.951	234.043	-55.814	-79.783	-74.847	-74.159	-67.862	60.490	-69.786	-8191	255	
19579.291	1	1	0	0	0.21809	0.30652	0.19846	0.096363	0.18494	0.12935	0.18302	0.21809	0.23789	0.22226	0.21122	0.11954	0.15665	0.12211	0.076561	0.27735	-1.0896	-1.6542	-1.9729	-1.5187	-1.6646	-1.9542	-1.7375	-2.2021	-1.6313	-1.3771	-1.9667	-1.6771	-1.6063	-1.9542	-1.5896	-2.0667	-63.302	233.890	-1.178	91.459	22.799	51.614	236.379	191.255	75.814	91.579	-14.111	-3.984	7.939	134.091	-73.180	241.748	0.00049963	0.00049602	0.00019964	1192.5	3.4082e-06	1.8329e-06	1319.2	363.58	2.9758e-06	6.6719e-06	486.35	186.38	122.01	62.911	6.6527e-06	104.86	0.00019671	0.0001915	5.2963e-05	1047.4	2.0697e-06	2.0564e-06	1188.7	324.24	2.1089e-06	2.0815e-06	376.24	160.76	97.099	53.971	2.1001e-06	87.855	158.365	-34.944	39.263	-83.876	5.539	20.987	-84.636	-79.816	3.857	55.802	-79.719	-74.875	-74.370	-67.994	2.699	-70.112	-8191	255	
19579.361	1	1	0	0	0.28574	0.26051	0.3355	0.04764	0.16102	0.21833	0.1419	0.11118	0.13689	0.12395	0.16299	0.18901	0.068294	0.15341	0.13036	0.1452	-1.2625	-1.4667	-2.0708	-1.8125	-1.8021	-1.9292	-1.7646	-2.1	-1.6729	-1.5354	-1.9438	-1.5729	-1.7687	-1.8896	-1.3354	-1.8792	-73.961	172.290	125.486	7.143	-88.002	-54.658	193.258	97.366	185.392	-21.101	247.427	-56.014	-13.273	218.709	20.482	194.793	0.00037653	0.0002094	0.00030141	1192.1	8.7807e-06	3.6888e-06	1323.7	363.12	6.5252e-07	5.4094e-06	488.7	187.33	121.42	62.568	5.0703e-06	104.37	0.00019705	0.00019042	5.3784e-05	1048.4	2.0809e-06	2.089e-06	1192.3	324.39	2.0839e-06	2.1125e-06	378.24	161.29	96.948	53.725	2.1174e-06	87.51	158.784	23.880	-39.186	-84.443	-27.794	18.826	-84.455	-79.585	177.545	36.895	-79.582	-74.446	-74.523	-67.927	134.729	-69.661	-8191	255	
19579.480	1	1	0	0	0.051311	0.17913	0.1293	0.22235	0.10597	0.2719	0.29619	0.24118	0.032271	0.056953	0.17237	0.27612	0.067833	0.37164	0.17001	0.31756	-1.2437	-1.2979	-1.8792	-1.6896	-1.5396	-1.9104	-1.5271	-1.9375	-1.8479	-1.3542	-1.9125	-1.7583	-1.6229	-1.8771	-1.3312	-2.0187	48.736	73.313	243.937	244.454	24.830	53.616	179.922	190.785	-56.769	142.369	-45.135	240.505	-66.906	232.055	100.036	-95.992	0.00056451	0.00015877	4.3258e-05	1190.8	3.6052e-06	7.7777e-06	1328.2	364.3	2.069e-06	4.8956e-06	487.65	187.66	122.15	62.821	4.7003e-06	105.29	0.00019712	0.00019181	5.3701e-05	1047.2	2.0884e-06	2.1243e-06	1194.2	325.19	2.1239e-06	2.096e-06	379.06	161.78	97.125	54.042	2.1081e-06	88.338	161.513	231.211	250.610	-84.626	94.849	-8.484	-84.805	-79.769	-14.154	-8.228	-80.133	-74.753	-74.623	-68.041	81.090	-70.018	-8191	255	
19579.578	1	1	0	0	0.08323	0.087005	0.20739	0.28106	0.11196	0.29326	0.40756	0.24108	0.22034	0.15702	0.19445	0.15619	0.12729	0.093631	0.48928	0.14564	-1.5187	-1.4479	-1.9813	-1.775	-1.5583	-1.9229	-1.6812	-1.7354	-1.75	-1.4896	-1.8458	-1.8833	-1.2729	-2.0563	-1.5083	-1.75	110.338	3.872	88.216	210.348	31.680	5.220	225.214	256.706	128.988	180.018	171.663	196.388	68.562	-75.260	93.450	-97.546	0.0004787	0.00030816	0.00035219	1188.7	2.1548e-06	5.688e-06	1328.8	366.52	8.9772e-06	4.2202e-06	491.79	189.95	123.66	64.143	2.5338e-06	107.35	0.00019717	0.00019248	5.3471e-05	1046.9	2.1037e-06	2.0982e-06	1197	326.38	2.1054e-06	2.087e-06	380.83	163.49	97.744	54.845	2.074e-06	89.978	171.350	205.828	-72.388	-84.778	-86.860	37.236	-84.817	-79.716	13.492	36.625	-79.509	-74.808	-74.496	-68.092	-78.370	-70.133	-8191	255	
19579.674	1	1	0	0	0.35493	0.35922	0.13934	0.18262	0.046809	0.33427	0.19191	0.12408	0.22491	0.091336	0.33424	0.31356	0.12903	0.28404	0.10053	0.40669	-1.4875	-1.4813	-1.7521	-1.6646	-1.525	-1.7771	-1.65	-1.7792	-1.8375	-1.5771	-1.8	-2.0417	-1.5708	-2.2188	-1.4833	-1.9708	137.830	232.715	-58.443	249.511	11.762	-34.207	157.328	195.380	219.296	-9.981	214.754	229.692	125.833	183.046	261.930	-67.785	0.00065556	0.00027416	0.00017129	1194.6	3.3509e-06	3.1681e-06	1325.6	365.43	4.8123e-06	5.5351e-06	492.03	190.07	124.23	64.943	2.4289e-06	107.79	0.00019757	0.00018939	5.2361e-05	1047.7	2.089e-06	2.0738e-06	1191.9	326.21	2.0796e-06	2.0814e-06	380.17	163.9	98.473	55.548	2.0883e-06	90.274	152.754	-37.926	46.713	-84.599	219.844	-80.922	-84.830	-79.071	69.808	-90.379	-79.748	-74.057	-73.161	-67.385	44.982	-69.524	-8191	255	
19579.771	1	1	0	0	0.080302	0.1308	0.20458	0.46083	0.27551	0.099942	0.43406	0.28945	0.22317	0.14762	0.056934	0.15627	0.14384	0.13116	0.29558	0.38624	-1.4229	-1.5021	-1.7062	-1.975	-1.3417	-1.95	-1.9125	-1.9813	-1.9771	-1.4312	-1.7854	-1.9354	-1.3	-2.1583	-1.8062	-1.7417	33.620	128.804	55.078	210.816	152.424	138.180	166.729	256.581	-62.302	82.029	1.001	241.416	166.344	229.560	233.594	185.956	0.00044499	0.00030745	0.00011071	1189.8	8.4403e-07	6.0159e-06	1320.8	365.32	3.504e-06	3.7021e-06	491.34	191.25	124.62	64.741	3.5247e-06	107.52	0.00019766	0.0001926	5.2846e-05	1044.8	2.0812e-06	2.0665e-06	1190.5	325.72	2.0799e-06	2.0884e-06	380.29	164.53	98.303	55.414	2.0832e-06	90.377	149.116	25.707	-46.611	-84.031	20.207	13.082	-84.132	-79.209	-1.970	-2.350	-79.941	-74.435	-73.673	-67.483	104.822	-69.411	-8191	255	
#DATA ENDS
