BOXY.EXE: ISS Imagent and Oximeter Data Acquisition Program Version 0.80
Ascii Record File

#ACQ INFORMATION
2  Detector Channels 
16  External MUX Channels 
1  Auxiliary Channels 
5000  Waveform (CCF) Frequency (Hz)
1  Waveforms Skipped 
30  Waveforms Averaged 
1  Cycles Averaged 
16  Acquisitions per Waveform 
10.0806  Updata Rate (Hz) 

#FILE INFORMATION
TRUE -- External MUX Channel results are PARSED.
FALSE -- AC DC and Phase are NOT grouped.
TRUE -- Companion Program Settings File CREATED.
FALSE -- AC data not excluded
FALSE -- DC data not excluded
FALSE -- Phase data not excluded
FALSE -- Auxillary Chn. data not excluded
Tab delimiters

#CALIBRATION STATE
TRUE -- Waveform Calibration Values APPLIED.


#AUX CALIBRATION VALUES
Val Type	aux-1	

Term	1.0000e+00	
Factor	0.0000e+00	


#WF CALIBRATION VALUES
A = Detector Channel
Val Type	A-AC1	A-AC2	A-AC3	A-AC4	A-AC5	A-AC6	A-AC7	A-AC8	A-AC9	A-AC10	A-AC11	A-AC12	A-AC13	A-AC14	A-AC15	A-AC16	A-DC1	A-DC2	A-DC3	A-DC4	A-DC5	A-DC6	A-DC7	A-DC8	A-DC9	A-DC10	A-DC11	A-DC12	A-DC13	A-DC14	A-DC15	A-DC16	A-Ph1	A-Ph2	A-Ph3	A-Ph4	A-Ph5	A-Ph6	A-Ph7	A-Ph8	A-Ph9	A-Ph10	A-Ph11	A-Ph12	A-Ph13	A-Ph14	A-Ph15	A-Ph16	

Term	0.00000e+00	0.00000e+00	0.00000e+00	0.00000e+00	0.00000e+00	0.00000e+00	0.00000e+00	0.00000e+00	0.00000e+00	0.00000e+00	0.00000e+00	0.00000e+00	0.00000e+00	0.00000e+00	0.00000e+00	0.00000e+00	0.00000e+00	0.00000e+00	0.00000e+00	0.00000e+00	0.00000e+00	0.00000e+00	0.00000e+00	0.00000e+00	0.00000e+00	0.00000e+00	0.00000e+00	0.00000e+00	0.00000e+00	0.00000e+00	0.00000e+00	0.00000e+00	0.00000e+00	0.00000e+00	0.00000e+00	0.00000e+00	0.00000e+00	0.00000e+00	0.00000e+00	0.00000e+00	0.00000e+00	0.00000e+00	0.00000e+00	0.00000e+00	0.00000e+00	0.00000e+00	0.00000e+00	0.00000e+00	
Factor	1.00000e+00	1.00000e+00	1.00000e+00	1.00000e+00	1.00000e+00	1.00000e+00	1.00000e+00	1.00000e+00	1.00000e+00	1.00000e+00	1.00000e+00	1.00000e+00	1.00000e+00	1.00000e+00	1.00000e+00	1.00000e+00	1.00000e+00	1.00000e+00	1.00000e+00	1.00000e+00	1.00000e+00	1.00000e+00	1.00000e+00	1.00000e+00	1.00000e+00	1.00000e+00	1.00000e+00	1.00000e+00	1.00000e+00	1.00000e+00	1.00000e+00	1.00000e+00	X	X	X	X	X	X	X	X	X	X	X	X	X	X	X	X	

B = Detector Channel
Val Type	B-AC1	B-AC2	B-AC3	B-AC4	B-AC5	B-AC6	B-AC7	B-AC8	B-AC9	B-AC10	B-AC11	B-AC12	B-AC13	B-AC14	B-AC15	B-AC16	B-DC1	B-DC2	B-DC3	B-DC4	B-DC5	B-DC6	B-DC7	B-DC8	B-DC9	B-DC10	B-DC11	B-DC12	B-DC13	B-DC14	B-DC15	B-DC16	B-Ph1	B-Ph2	B-Ph3	B-Ph4	B-Ph5	B-Ph6	B-Ph7	B-Ph8	B-Ph9	B-Ph10	B-Ph11	B-Ph12	B-Ph13	B-Ph14	B-Ph15	B-Ph16	

Term	0.00000e+00	0.00000e+00	0.00000e+00	0.00000e+00	0.00000e+00	0.00000e+00	0.00000e+00	0.00000e+00	0.00000e+00	0.00000e+00	0.00000e+00	0.00000e+00	0.00000e+00	0.00000e+00	0.00000e+00	0.00000e+00	0.00000e+00	0.00000e+00	0.00000e+00	0.00000e+00	0.00000e+00	0.00000e+00	0.00000e+00	0.00000e+00	0.00000e+00	0.00000e+00	0.00000e+00	0.00000e+00	0.00000e+00	0.00000e+00	0.00000e+00	0.00000e+00	-1.60165e+02	-1.56046e+02	-1.61601e+02	-1.84043e+02	-1.15639e+02	-8.35182e+01	-1.55479e+02	-1.62015e+02	-1.02200e+02	-1.19732e+02	-1.85372e+02	-1.70396e+02	-1.86982e+02	-1.76531e+02	-6.46452e+01	-1.49226e+02	
Factor	2.80052e-05	7.83278e-05	3.39611e-05	2.47397e-01	8.53685e-07	8.94540e-07	1.74294e-01	5.63954e-02	8.49358e-07	1.01448e-06	2.25253e-01	3.31667e-02	6.79303e-02	9.94483e-03	1.03214e-06	1.41766e-02	3.98363e-07	4.02558e-07	1.11943e-07	1.12903e-01	4.40606e-09	4.40072e-09	7.81490e-02	2.63565e-02	4.40888e-09	4.39813e-09	8.24592e-02	1.43961e-02	2.55369e-02	4.44917e-03	4.40686e-09	6.06539e-03	X	X	X	X	X	X	X	X	X	X	X	X	X	X	X	X	



#DISTANCE SETTINGS
A = Detector Channel
A-1	A-2	A-3	A-4	A-5	A-6	A-7	A-8	A-9	A-10	A-11	A-12	A-13	A-14	A-15	A-16	

2.5000e+00	3.0000e+00	2.5000e+00	3.0000e+00	2.0000e+00	3.0000e+00	1.5000e+00	3.0000e+00	3.0000e+00	3.0000e+00	3.0000e+00	3.0000e+00	3.0000e+00	3.0000e+00	1.5000e+00	3.0000e+00	

B = Detector Channel
B-1	B-2	B-3	B-4	B-5	B-6	B-7	B-8	B-9	B-10	B-11	B-12	B-13	B-14	B-15	B-16	

1.0000e+01	1.0000e+01	1.0000e+01	1.4400e+00	1.0000e+01	1.0000e+01	1.5100e+00	1.9400e+00	1.0000e+01	1.0000e+01	1.9900e+00	2.4900e+00	2.4100e+00	2.9000e+00	1.0000e+01	2.9800e+00	




#DATA BEGINS
time	group	step	mark	flag	A-AC1	A-AC2	A-AC3	A-AC4	A-AC5	A-AC6	A-AC7	A-AC8	A-AC9	A-AC10	A-AC11	A-AC12	A-AC13	A-AC14	A-AC15	A-AC16	A-DC1	A-DC2	A-DC3	A-DC4	A-DC5	A-DC6	A-DC7	A-DC8	A-DC9	A-DC10	A-DC11	A-DC12	A-DC13	A-DC14	A-DC15	A-DC16	A-Ph1	A-Ph2	A-Ph3	A-Ph4	A-Ph5	A-Ph6	A-Ph7	A-Ph8	A-Ph9	A-Ph10	A-Ph11	A-Ph12	A-Ph13	A-Ph14	A-Ph15	A-Ph16	B-AC1	B-AC2	B-AC3	B-AC4	B-AC5	B-AC6	B-AC7	B-AC8	B-AC9	B-AC10	B-AC11	B-AC12	B-AC13	B-AC14	B-AC15	B-AC16	B-DC1	B-DC2	B-DC3	B-DC4	B-DC5	B-DC6	B-DC7	B-DC8	B-DC9	B-DC10	B-DC11	B-DC12	B-DC13	B-DC14	B-DC15	B-DC16	B-Ph1	B-Ph2	B-Ph3	B-Ph4	B-Ph5	B-Ph6	B-Ph7	B-Ph8	B-Ph9	B-Ph10	B-Ph11	B-Ph12	B-Ph13	B-Ph14	B-Ph15	B-Ph16	aux-1	digaux	

19503.471	1	1	0	256	0.11609	0.22939	0.22561	0.18392	0.14186	0.021531	0.21436	0.54604	0.056073	0.36134	0.27057	0.28013	0.077801	0.22962	0.20763	0.23953	-1.5562	-1.5208	-1.6875	-1.8458	-1.4708	-1.9292	-1.8229	-1.8583	-2.0104	-1.3542	-1.9521	-2.0458	-1.6292	-2.1	-1.6625	-1.5646	257.889	115.915	107.922	250.508	-14.132	6.002	115.210	173.075	236.608	156.316	239.796	217.676	127.115	-63.723	88.484	228.362	0.00043842	0.00065941	5.4008e-05	1306.7	6.6195e-06	6.379e-06	1472.1	479.23	4.1835e-06	1.4038e-05	614.37	237.07	182.93	67.05	4.7831e-06	105.24	0.00047654	0.00047775	0.00013373	1210.9	5.4252e-06	5.5129e-06	1366.1	437.73	5.7916e-06	5.8404e-06	529.51	211.95	159.15	60.437	6.1203e-06	92.729	166.814	-35.498	253.657	-85.191	111.609	85.359	-85.880	-81.269	-30.426	-23.882	-82.924	-80.097	-79.819	-71.738	-51.057	-73.105	-8191	255	
19503.566	1	1	0	0	0.043372	0.081413	0.17418	0.3065	0.071783	0.33717	0.24759	0.1394	0.10993	0.12853	0.10658	0.16837	0.28728	0.237	0.16947	0.21228	-1.4542	-1.3479	-1.7938	-2.0625	-1.3146	-1.9354	-1.9792	-1.7083	-2.0583	-1.6646	-1.9312	-1.8833	-1.45	-1.9771	-1.7563	-1.4854	186.529	-11.968	-7.572	186.760	136.058	185.758	214.622	221.756	81.676	16.548	-86.324	117.156	225.980	229.298	35.126	216.157	0.00035704	0.00031948	0.00022232	1325.1	5.1764e-06	6.7481e-06	1506.6	490.86	6.0767e-06	1.0613e-05	627.97	248.27	190.2	68.148	3.9009e-06	105.29	0.00057537	0.00058482	0.00016524	1261.2	6.6676e-06	6.8304e-06	1417.1	456.74	7.2378e-06	7.2856e-06	569.18	226.41	175.96	63.099	8.0093e-06	95.464	180.498	-38.004	26.875	-85.649	91.138	-88.995	-86.202	-82.188	33.769	33.091	-82.849	-80.076	-80.651	-72.218	92.587	-73.144	-8191	255	
19503.662	1	1	0	0	0.25927	0.17692	0.21697	0.20504	0.10815	0.040731	0.07267	0.30245	0.10869	0.31314	0.13347	0.32508	0.15481	0.23942	0.31102	0.21057	-1.4625	-1.3438	-1.675	-2.125	-1.3333	-1.9354	-1.9167	-1.5438	-1.9979	-1.5688	-1.6708	-2.2125	-1.6417	-2.0125	-1.7479	-1.7083	140.426	85.239	250.364	-31.640	-4.332	-88.361	177.979	162.442	56.437	79.456	146.792	183.990	-78.314	-77.376	57.678	159.354	0.00078541	0.0011733	0.00083445	1359	1.1212e-05	1.028e-05	1510.6	493.26	2.4966e-06	1.6674e-05	627.75	244.75	186.59	67.808	5.9684e-06	105.77	0.00074703	0.00075191	0.00021048	1329.7	8.2626e-06	8.2566e-06	1450.2	464.58	8.0582e-06	8.0049e-06	577.54	223.6	171.78	62.627	7.3763e-06	94.45	146.983	204.229	-28.334	-85.829	4.576	68.033	-86.127	-81.995	219.948	-34.208	-83.488	-79.808	-80.257	-71.346	238.644	-72.620	-8191	255	
19503.760	1	1	0	0	0.22817	0.23584	0.31005	0.25225	0.13159	0.072156	0.053654	0.34099	0.12455	0.34704	0.21323	0.19685	0.14396	0.31887	0.14805	0.19558	-1.5312	-1.6229	-1.7458	-2.25	-1.5833	-1.7979	-2.0208	-1.8396	-1.9021	-1.6854	-1.4729	-2.1729	-1.5896	-1.9979	-1.7292	-1.6	-57.142	49.263	113.602	239.649	-69.932	178.096	238.946	224.952	161.466	109.176	199.273	218.432	228.509	249.838	54.381	241.656	0.00046876	0.00085749	0.00027821	1327.1	2.7071e-06	1.5525e-06	1485.3	472.43	6.6759e-06	2.9652e-06	604.26	226.55	173.65	64.861	7.2625e-06	102.61	0.00066108	0.00065748	0.00018157	1272.5	7.0131e-06	6.9381e-06	1397.5	440.73	6.7337e-06	6.6325e-06	535.73	205.07	155.63	59.235	6.4326e-06	90.623	151.062	-79.475	-75.781	-84.904	128.910	250.754	-85.765	-81.328	-1.138	186.728	-82.428	-79.411	-79.691	-71.337	36.103	-72.460	-8191	255	
19503.855	1	1	0	0	0.096103	0.14476	0.15086	0.10375	0.25727	0.15165	0.45369	0.085174	0.097965	0.18801	0.084828	0.15082	0.22133	0.53736	0.087295	0.24412	-1.3542	-1.6313	-1.5812	-2.2229	-1.3646	-1.6354	-2.0125	-1.3583	-1.9146	-1.6458	-1.6979	-2.1292	-1.5083	-1.8333	-1.9875	-1.5771	208.194	91.251	-76.921	201.052	33.450	151.889	227.943	237.104	100.170	55.359	-77.504	-82.910	-82.586	220.888	244.616	157.845	0.00041562	0.00068288	0.00045845	1293.3	4.2037e-06	8.6686e-06	1446	455.09	9.5996e-06	6.2632e-06	577.57	207.46	156.69	63.098	1.2878e-06	100.83	0.00057095	0.00057059	0.00015579	1220	5.9106e-06	5.8742e-06	1345.6	417.78	5.5807e-06	5.5033e-06	496.08	185.75	136.76	56.05	4.7584e-06	86.695	166.981	162.429	-19.195	-85.219	190.460	-20.679	-86.279	-82.063	-54.519	106.269	-82.700	-79.156	-78.823	-71.099	-93.326	-72.495	-8191	255	
19503.951	1	1	0	0	0.1393	0.027274	0.04435	0.0050466	0.064973	0.1589	0.22019	0.1367	0.36647	0.073529	0.2288	0.26609	0.10736	0.24046	0.052756	0.27085	-1.3646	-1.7875	-1.5333	-2.0104	-1.5	-1.5396	-2.3021	-1.5688	-1.8729	-1.8354	-1.7375	-2.0646	-1.5333	-1.5958	-1.9021	-1.7	133.424	152.801	23.807	160.906	171.892	191.861	189.494	191.139	37.203	148.975	-26.715	182.379	154.250	202.730	28.172	-93.447	0.00060134	0.00054564	0.00041525	1238.5	9.8579e-06	5.3691e-06	1384.3	424.09	6.3411e-06	5.4959e-06	544.85	195.36	142.62	62.452	6.4959e-06	101.85	0.00040883	0.00039205	0.00010411	1117.6	3.884e-06	3.76e-06	1250.6	379.76	3.5468e-06	3.4688e-06	435.67	168.42	116.56	53.927	3.1932e-06	85.256	156.548	46.818	-65.235	-85.547	-19.867	7.328	-86.271	-81.251	-63.513	91.518	-81.851	-77.796	-77.163	-70.200	132.283	-72.481	-8191	255	
19504.047	1	1	0	0	0.23973	0.31148	0.27382	0.35432	0.10348	0.12699	0.46475	0.12514	0.17468	0.19465	0.23929	0.37621	0.22203	0.31726	0.29023	0.092732	-1.3042	-1.7708	-1.3604	-1.8188	-1.7833	-1.6167	-2.1312	-1.7125	-1.8625	-1.8896	-1.6146	-2.0938	-1.7792	-1.5604	-1.8646	-1.7354	6.026	123.058	94.568	-66.294	125.126	132.893	225.277	133.262	71.342	106.760	45.871	-90.692	217.802	228.816	39.296	165.980	0.00065582	0.00047155	2.8626e-05	1213.4	7.2046e-06	5.4714e-06	1370.9	417.83	4.9401e-06	2.4543e-06	535.56	191.74	137.16	62.409	1.5969e-06	101.65	0.0002886	0.00028287	7.8295e-05	1075.1	3.0037e-06	2.9621e-06	1227.3	368.84	2.9217e-06	2.8827e-06	418.56	163.92	110.04	53.193	2.6453e-06	84.234	149.984	2.462	67.732	-85.182	-38.604	29.241	-85.932	-81.167	-58.703	71.695	-82.050	-77.636	-77.336	-70.269	22.850	-72.101	-8191	255	
19504.168	1	1	0	0	0.093302	0.3421	0.0694	0.16882	0.14874	0.21882	0.20994	0.071826	0.264	0.17687	0.35298	0.1726	0.19782	0.26691	0.12857	0.25093	-1.2271	-1.8813	-1.4458	-2.2042	-1.7938	-1.5146	-2.2812	-1.7188	-1.6125	-1.8813	-1.5688	-1.8521	-1.7375	-1.6125	-1.7625	-1.7667	-86.366	-79.928	100.659	246.816	128.520	138.429	212.300	-98.955	150.185	205.651	228.444	-67.314	-31.211	184.055	235.675	127.337	0.00039	0.00070876	0.00019433	1202.8	2.66e-06	3.7004e-06	1366.7	409.41	4.2678e-06	9.1714e-06	533.32	185.64	133.6	59.923	5.6286e-06	97.293	0.00023821	0.00023122	6.3134e-05	1052.9	2.4052e-06	2.3397e-06	1212	358.95	2.1944e-06	2.1249e-06	398.95	156.72	102.18	50.078	1.7563e-06	79.968	151.168	-40.997	11.963	-85.282	17.349	154.445	-86.300	-81.548	251.743	-20.657	-81.950	-77.764	-76.816	-70.455	-30.794	-72.035	-8191	255	
19504.264	1	1	0	0	0.22037	0.17879	0.11533	0.30304	0.047298	0.22299	0.56021	0.35979	0.2966	0.15021	0.11735	0.25374	0.05667	0.019519	0.1904	0.34776	-1.3396	-2.0458	-1.4771	-1.9625	-1.7708	-1.4854	-2.1208	-1.7083	-1.5479	-1.9813	-1.6042	-1.7583	-1.9583	-1.4917	-1.925	-1.8479	229.196	-35.371	244.549	221.788	69.973	70.747	254.495	225.943	220.836	204.167	-64.785	210.043	160.981	186.614	70.119	159.422	0.00046304	0.00041299	8.1654e-05	1205.8	1.571e-06	6.7742e-06	1364.3	408.1	2.7846e-06	7.3263e-06	527.61	181.95	133.04	57.54	3.5212e-06	93.907	0.00015393	0.00014154	3.7408e-05	1027.9	1.4038e-06	1.3475e-06	1191.9	352.04	1.2574e-06	1.2162e-06	383.55	151.04	97.252	47.569	1.1548e-06	76.427	185.741	-62.563	-50.305	-85.220	53.013	-14.428	-85.834	-81.490	80.425	37.939	-82.060	-77.527	-76.834	-70.688	65.453	-72.206	-8191	255	
19504.359	1	1	0	0	0.20842	0.21312	0.20201	0.17917	0.35312	0.13834	0.378	0.19612	0.15948	0.21864	0.21907	0.17127	0.12956	0.099419	0.12374	0.29731	-1.0729	-1.8813	-1.5187	-1.8417	-1.7042	-1.4167	-2.0021	-2.0292	-1.5146	-2.0521	-1.5771	-1.7896	-1.7938	-1.4854	-1.8396	-1.925	-53.171	-28.575	32.795	-86.421	106.890	73.990	157.876	149.846	-10.577	-99.243	200.824	221.652	218.722	-33.592	225.229	213.233	0.00046657	0.00036365	0.00020674	1211.7	1.2147e-06	3.9745e-06	1376.2	415.52	3.5845e-06	6.8914e-06	536.04	184.44	134.96	58.969	4.5337e-06	96.587	0.00010974	0.00010205	2.8138e-05	1022	1.1149e-06	1.103e-06	1193.7	356.35	1.0986e-06	1.1049e-06	386.37	152.59	98.476	48.666	1.1093e-06	78.198	159.755	-36.959	-37.829	-85.350	79.032	28.740	-86.080	-81.432	-25.688	-27.582	-81.510	-77.418	-77.648	-70.343	48.163	-71.867	-8191	255	
19504.455	1	1	0	0	0.34719	0.16743	0.13949	0.1404	0.14886	0.29023	0.33027	0.16141	0.067093	0.33992	0.073653	0.28662	0.32692	0.36402	0.15368	0.35408	-1.1979	-1.8438	-1.4854	-1.8417	-1.9667	-1.525	-2.0146	-2.0979	-1.5229	-1.8771	-1.8396	-1.7479	-2.0208	-1.8021	-1.5688	-1.9417	143.853	146.285	10.653	100.601	-35.712	164.728	180.212	222.315	156.082	238.805	-11.567	230.358	259.628	243.896	-94.972	241.116	0.00046043	9.5188e-05	9.7001e-05	1220.7	1.9977e-06	6.3221e-06	1374.3	417.79	1.2435e-06	2.9205e-06	540.71	187.92	137.23	60.679	1.4569e-06	98.803	0.00010717	0.00010188	2.767e-05	1026.3	1.12e-06	1.1159e-06	1194.5	358.07	1.1435e-06	1.1056e-06	387.83	155.35	99.749	49.997	1.1263e-06	80.262	173.622	-79.840	-36.013	-85.173	-94.185	80.654	-85.992	-81.335	94.344	-38.711	-82.427	-77.436	-76.841	-70.507	46.296	-71.983	-8191	255	
19504.551	1	1	0	0	0.27315	0.23674	0.42488	0.47871	0.32533	0.26952	0.32021	0.15511	0.33557	0.10084	0.22628	0.26432	0.065335	0.26207	0.051451	0.22622	-1.2146	-1.8687	-1.4729	-1.8417	-1.8813	-1.4646	-1.975	-2.0687	-1.4792	-2.1188	-1.5479	-1.575	-2.0271	-1.7146	-1.7167	-2.0125	-72.540	17.626	169.070	202.465	133.903	-48.193	215.335	168.688	115.000	129.813	-38.367	187.199	-68.749	169.061	113.898	202.893	0.0004986	0.00056799	5.9074e-05	1211.4	1.916e-06	4.8929e-06	1372	418.48	5.4333e-06	6.8741e-06	539.2	187.03	137.96	60.19	3.4924e-06	98.578	0.00010932	0.00010271	2.9209e-05	1026.2	1.1761e-06	1.2038e-06	1201.9	359.72	1.2934e-06	1.2962e-06	394.58	156.19	101.36	50.134	1.3688e-06	80.332	149.474	-18.617	-80.205	-84.806	-50.425	-29.599	-86.280	-81.324	-20.947	25.870	-82.030	-77.351	-77.164	-70.614	154.774	-72.007	-8191	255	
19504.648	1	1	0	0	0.41079	0.099568	0.12493	0.47367	0.11155	0.21745	0.31322	0.30246	0.26156	0.18463	0.18465	0.26807	0.27172	0.27859	0.18063	0.14553	-1.0167	-1.8271	-1.7083	-1.5812	-1.9104	-1.5667	-1.7542	-2.125	-1.1812	-1.8458	-1.6542	-1.5938	-1.9083	-1.5896	-1.6	-2.0083	-67.454	-47.008	40.190	254.625	48.297	-93.917	194.458	126.618	260.257	34.601	150.236	219.203	184.800	177.398	24.900	152.162	0.00049124	0.00036864	0.00010154	1230.2	1.3061e-06	6.2408e-06	1393.4	417.05	3.0705e-06	2.5051e-06	545.38	187.55	136.2	59.241	2.7269e-06	97.305	0.00013607	0.00012992	3.6316e-05	1043.6	1.4413e-06	1.4245e-06	1218.1	360.24	1.432e-06	1.438e-06	397.51	156.22	101.19	49.501	1.5011e-06	79.504	167.146	-1.005	28.437	-85.390	-72.774	56.536	-86.152	-81.352	106.750	103.513	-82.071	-77.433	-76.708	-69.856	239.110	-71.917	-8191	255	
19504.768	1	1	0	0	0.18313	0.092477	0.10956	0.42261	0.089806	0.13992	0.44946	0.15458	0.064857	0.16589	0.086122	0.28501	0.24445	0.20103	0.31362	0.047256	-0.88333	-1.7292	-1.7271	-1.5083	-1.7729	-1.5417	-1.8833	-2.0042	-1.5875	-1.9208	-1.9583	-1.5646	-1.8021	-1.8229	-1.4479	-2.0375	81.332	238.290	190.204	210.735	81.484	-34.751	211.033	197.299	27.065	256.477	-61.973	158.918	242.329	243.687	161.401	-1.513	0.00057555	0.00035911	0.00016356	1241.4	2.7024e-06	9.3381e-06	1416	427.58	1.1367e-06	5.4947e-06	557.68	192.66	143.64	61.452	9.1464e-06	99.685	0.0001509	0.00014732	4.337e-05	1063.6	1.8485e-06	1.8893e-06	1248.6	371.61	2.0953e-06	2.1791e-06	421.47	163.83	111.94	52.176	2.5777e-06	82.772	153.145	-74.937	222.759	-85.393	-67.350	74.440	-85.818	-81.006	-83.333	-20.533	-81.789	-77.411	-77.085	-70.015	70.571	-71.851	-8191	255	
19504.863	1	1	0	0	0.16885	0.055337	0.063892	0.076219	0.18146	0.14579	0.23541	0.076156	0.28077	0.33682	0.24723	0.34811	0.27108	0.22744	0.044057	0.095435	-0.9875	-1.6896	-1.8917	-1.5375	-1.7458	-1.7979	-1.7396	-2.1646	-1.5646	-1.8667	-1.8708	-1.4792	-1.9083	-1.9	-1.65	-2.025	166.021	212.652	181.388	255.871	90.175	193.088	238.469	-89.793	71.598	220.603	177.591	175.417	185.500	-86.205	194.451	191.910	0.00058497	0.00075988	0.00020252	1266.5	4.7508e-06	1.6162e-06	1439.4	441.49	2.2044e-06	3.9477e-06	569.49	200.71	149.18	64.309	6.3928e-06	103.57	0.00024958	0.00025108	7.0823e-05	1113.9	2.8445e-06	2.9086e-06	1285	389.3	2.8834e-06	2.8289e-06	442.37	171.29	117.71	54.719	2.749e-06	86.263	166.699	-36.917	-51.176	-85.092	-21.337	160.733	-85.330	-80.858	111.547	36.924	-82.117	-77.330	-76.712	-70.501	153.802	-72.300	-8191	255	
19504.961	1	1	0	0	0.14867	0.053534	0.10126	0.1914	0.14309	0.15726	0.3032	0.12215	0.23864	0.23386	0.18095	0.2544	0.20411	0.37504	0.077494	0.067032	-1.0312	-1.675	-1.8104	-1.6229	-1.8312	-1.7479	-1.6208	-2.0667	-1.7479	-1.7792	-1.8042	-1.5438	-1.7687	-1.9646	-1.3167	-2.1312	-86.790	183.593	176.681	218.849	-92.500	74.318	149.197	-32.832	146.623	182.195	89.723	-88.862	194.080	-88.289	145.720	97.507	0.00046694	0.00037653	0.00015103	1262.3	8.9248e-06	3.8141e-06	1441.2	441.89	3.0508e-07	9.225e-06	569.72	201.5	150.1	63.942	1.1943e-05	101.93	0.00025894	0.0002563	7.1133e-05	1110.6	2.8345e-06	2.8381e-06	1283.3	389.79	2.926e-06	2.9376e-06	443.45	173.09	119.3	54.558	2.9162e-06	85.278	153.087	-95.919	227.257	-85.212	31.560	0.771	-85.850	-80.994	-29.084	27.572	-81.875	-78.173	-77.905	-70.369	-2.632	-72.239	-8191	255	
19505.057	1	1	0	0	0.17676	0.18667	0.066355	0.27945	0.12839	0.11945	0.030661	0.26976	0.12137	0.15188	0.24479	0.39191	0.25964	0.2346	0.059322	0.48269	-1.2708	-1.5875	-1.8896	-1.4375	-1.5562	-1.75	-1.5812	-2.1312	-1.6958	-1.5688	-2.0396	-1.5854	-1.7313	-1.9312	-1.425	-1.8854	143.475	195.599	127.879	195.740	198.196	-69.179	244.426	212.254	-24.065	89.740	244.093	224.711	-52.907	227.980	126.001	175.377	0.00042263	0.00036046	0.00026503	1255.6	4.8757e-06	2.9814e-06	1416.4	428.75	2.177e-06	4.5226e-06	554.06	190.68	139.07	59.95	3.5062e-06	96.828	0.00026289	0.00025377	6.8433e-05	1099.6	2.5091e-06	2.4297e-06	1257	374.9	2.1873e-06	2.113e-06	416.01	160.56	105.75	50.406	1.8119e-06	79.666	162.808	77.355	12.161	-84.984	-28.012	3.247	-85.636	-81.260	208.534	7.988	-82.075	-77.352	-77.034	-70.457	172.500	-72.043	-8191	255	
19505.152	1	1	0	0	0.11729	0.40078	0.099298	0.26392	0.32769	0.02347	0.32718	0.20512	0.26759	0.1025	0.15914	0.20257	0.1978	0.16119	0.11767	0.32117	-0.98542	-1.5833	-1.9708	-1.5771	-1.7062	-1.9167	-1.6208	-2.0625	-1.8021	-1.6375	-1.9958	-1.5646	-1.5187	-1.8792	-1.5396	-2.0104	210.576	-1.804	245.845	197.339	-51.950	109.087	175.756	121.070	91.125	110.941	-24.631	-67.487	212.857	161.781	260.262	188.587	0.00057205	0.0001286	0.00025588	1245.3	2.4738e-06	9.6377e-06	1399.4	423.45	3.3228e-06	8.4805e-06	547.28	186.66	136.99	57.932	5.9981e-06	94.022	0.00016484	0.00015687	4.278e-05	1061.4	1.6014e-06	1.5885e-06	1231.9	365.65	1.5469e-06	1.5081e-06	400.66	156.04	101.9	48.456	1.5138e-06	76.796	156.830	-45.996	-1.970	-85.340	-0.782	29.715	-86.248	-81.668	-34.045	30.624	-82.249	-78.026	-77.599	-70.553	105.247	-72.209	-8191	255	
19505.248	1	1	0	0	0.41777	0.24525	0.1909	0.054502	0.10598	0.17683	0.17331	0.349	0.30059	0.14844	0.15529	0.10002	0.11025	0.45139	0.18324	0.35504	-1.2771	-1.55	-1.8542	-1.7604	-1.5042	-1.8833	-1.8146	-1.9333	-1.6625	-1.425	-1.8813	-1.8687	-1.6542	-1.9292	-1.4854	-2	234.535	48.869	69.985	-96.185	121.771	-75.058	175.972	191.030	163.575	216.675	185.348	258.132	204.453	241.533	-55.889	204.140	0.00038645	0.00020738	0.00016472	1242.2	5.3279e-06	3.4471e-06	1401.1	425.54	4.4906e-06	1.3459e-06	550.06	187.7	138	58.325	1.1096e-06	93.909	0.00014001	0.00013293	3.7403e-05	1052.7	1.4686e-06	1.4756e-06	1228.9	366.75	1.5005e-06	1.4817e-06	401.28	155.87	101.87	48.555	1.4581e-06	76.771	152.472	-54.881	39.711	-85.442	8.651	14.610	-86.378	-81.310	-49.623	-36.998	-82.137	-77.623	-77.301	-70.368	148.017	-72.207	-8191	255	
19505.344	1	1	0	0	0.1228	0.17832	0.10806	0.22384	0.35484	0.15437	0.20479	0.27593	0.3745	0.23071	0.18457	0.36194	0.02784	0.13581	0.32229	0.029367	-1.3417	-1.5854	-1.6562	-1.6625	-1.5271	-1.8917	-1.5333	-1.8167	-1.7667	-1.1708	-1.9167	-1.7625	-1.5417	-2.1	-1.3104	-1.9729	92.223	132.869	-82.936	249.768	115.726	128.949	-84.531	188.684	-1.822	168.974	11.580	235.574	54.410	210.294	248.969	9.083	0.00051218	0.0005785	0.0001895	1231.4	1.0111e-06	1.1831e-06	1394.4	419.77	2.5084e-06	6.4665e-06	538.07	186.17	135.62	58.197	4.7916e-06	94.006	0.00013656	0.00012982	3.5983e-05	1046.2	1.3891e-06	1.3825e-06	1220.4	362.17	1.3823e-06	1.3608e-06	392.97	154.62	100.25	48.468	1.3853e-06	76.706	162.195	-56.455	-80.698	-85.449	103.132	-10.413	-86.165	-81.525	26.605	-9.698	-82.231	-77.674	-77.511	-70.292	33.070	-71.949	-8191	255	
19505.463	1	1	0	0	0.21955	0.31118	0.09818	0.22325	0.10967	0.2276	0.3705	0.28836	0.11263	0.22784	0.30496	0.024737	0.20641	0.37909	0.26407	0.069092	-1.5083	-1.3354	-1.7271	-1.7062	-1.4333	-1.9896	-1.5875	-1.8354	-2.0271	-1.3333	-1.9937	-1.8917	-1.3479	-2.275	-1.6417	-1.9583	209.012	-33.682	255.188	228.133	93.359	183.336	202.433	220.195	103.212	25.855	224.260	-13.179	97.898	217.028	72.022	156.898	0.00049776	0.00029844	0.00017436	1228.2	6.2585e-06	3.499e-06	1395.8	420.34	6.3907e-06	2.7675e-06	541.66	185.46	133.82	57.649	5.4102e-06	93.765	0.00013277	0.00012628	3.5016e-05	1040.6	1.3659e-06	1.3607e-06	1217.7	361.43	1.3284e-06	1.2919e-06	392.94	153.71	98.979	47.815	1.258e-06	76.029	157.735	107.963	-32.856	-85.343	27.927	-83.592	-85.853	-80.947	28.568	45.452	-81.564	-77.439	-76.739	-69.971	131.155	-71.684	-8191	255	
19505.559	1	1	0	0	0.19082	0.092865	0.04239	0.3103	0.15592	0.080714	0.42434	0.2399	0.27919	0.34342	0.14937	0.19299	0.24404	0.11398	0.15948	0.080019	-1.5625	-1.3062	-1.7396	-1.8833	-1.4208	-2.0479	-1.7313	-1.5479	-1.8729	-1.4354	-1.8333	-1.8771	-1.4104	-1.8979	-1.4917	-1.6979	237.211	101.469	60.356	259.285	131.337	-45.601	218.549	241.873	-82.689	122.653	207.367	138.190	213.969	168.163	-6.525	241.547	0.00046703	0.00036641	4.4576e-05	1220.6	3.5174e-06	3.6631e-06	1394	422.17	1.544e-06	4.4973e-06	549.1	185.9	135.13	56.85	2.0453e-07	92.621	0.00011818	0.00011283	3.1151e-05	1036.9	1.2352e-06	1.2191e-06	1218.9	361.69	1.2225e-06	1.2196e-06	395.95	153.81	99.285	47.24	1.2603e-06	75.012	157.330	-19.598	186.077	-85.280	-5.090	-12.437	-85.756	-81.333	-12.195	34.188	-81.871	-77.423	-77.001	-70.117	-35.109	-71.654	-8191	255	
19505.631	1	1	0	0	0.095372	0.075628	0.2927	0.2306	0.12896	0.21294	0.24014	0.37109	0.16188	0.1798	0.077343	0.30366	0.17231	0.22725	0.090294	0.21834	-1.3833	-1.4542	-1.6437	-1.9708	-1.3021	-1.8521	-1.7	-1.5708	-1.9083	-1.5312	-1.7417	-1.9604	-1.4521	-1.9896	-1.6708	-1.6646	-16.861	184.504	35.612	218.279	44.590	24.503	253.279	201.744	233.523	74.656	192.468	231.446	60.142	218.911	69.763	214.087	0.00050063	0.00051432	9.2312e-05	1228.1	1.4807e-06	1.2451e-06	1395.5	420.9	2.6735e-06	4.9955e-06	540.32	183.94	135.14	56.16	3.5461e-06	90.347	0.00011906	0.00011245	3.0931e-05	1040.5	1.2186e-06	1.2158e-06	1217.4	362.07	1.2455e-06	1.2513e-06	393.81	152.78	99.404	46.542	1.2615e-06	73.526	147.171	-32.474	-4.310	-85.225	-26.576	69.728	-85.830	-81.394	23.947	-11.487	-81.409	-77.400	-77.008	-70.211	99.691	-71.970	-8191	255	
19505.729	1	1	0	0	0.15682	0.14234	0.095192	0.24415	0.024578	0.038964	0.12355	0.34337	0.24377	0.29381	0.23985	0.30549	0.26557	0.22712	0.17404	0.08912	-1.5083	-1.3875	-1.5771	-1.9917	-1.5312	-1.8667	-1.7646	-1.4104	-1.9417	-1.5104	-1.6208	-1.7979	-1.3625	-1.9479	-1.6958	-1.5521	212.787	-89.631	256.591	197.551	39.094	254.419	77.883	212.838	29.453	52.227	-48.408	-89.706	-98.930	249.731	-49.822	244.719	0.00035237	0.00049187	0.0002575	1240.2	2.9617e-06	3.1583e-06	1396.9	427.82	2.6168e-06	3.1717e-06	547.32	184.52	137.29	55.198	3.4484e-06	88.747	0.00012078	0.00011311	3.105e-05	1044	1.2073e-06	1.1952e-06	1219.8	366.4	1.1851e-06	1.174e-06	396.16	152.71	99.74	45.737	1.211e-06	72.186	170.930	-3.623	-44.994	-85.023	84.601	-1.341	-85.731	-81.220	-2.247	218.776	-81.756	-77.289	-77.571	-70.280	73.038	-71.798	-8191	255	
19505.848	1	1	0	0	0.29198	0.32599	0.39461	0.24161	0.09823	0.13754	0.11186	0.34141	0.060411	0.090365	0.29875	0.10127	0.21475	0.25927	0.20453	0.11576	-1.325	-1.5521	-1.5375	-2.1583	-1.2875	-1.7229	-1.8833	-1.3708	-1.9729	-1.5167	-1.5354	-1.9	-1.3625	-1.9188	-1.7167	-1.5375	207.547	-46.747	-38.750	80.586	36.196	224.494	253.107	259.994	-30.370	199.651	256.498	210.622	2.107	218.469	211.639	-61.867	0.00039275	0.00013222	0.0002106	1241	3.7921e-06	3.8113e-06	1404.4	429.55	5.0316e-07	5.428e-06	545.99	185.12	136.48	55.362	8.4842e-06	88.998	0.00011814	0.00011306	3.1993e-05	1050	1.2634e-06	1.2617e-06	1228.1	369.66	1.2839e-06	1.2872e-06	399.61	153.75	100.5	46.057	1.2982e-06	72.671	167.022	-4.424	-26.372	-85.039	2.203	-29.754	-85.703	-81.139	-8.787	-32.488	-81.726	-77.375	-77.109	-70.347	30.923	-71.556	-8191	255	
19505.943	1	1	0	0	0.296	0.048715	0.18853	0.12968	0.06921	0.20472	0.13194	0.4087	0.072441	0.2347	0.013218	0.14496	0.16107	0.073497	0.10422	0.19424	-1.4396	-1.6021	-1.5271	-1.9042	-1.3417	-1.6417	-2.1292	-1.4833	-1.8729	-1.725	-1.3979	-1.9833	-1.4813	-1.7292	-1.8375	-1.5167	67.418	-3.141	-83.048	-91.164	240.990	-48.284	155.024	234.653	-10.747	89.445	25.263	173.786	-19.529	210.073	224.665	-94.388	0.00040057	0.0005712	0.00021561	1240.5	4.9407e-06	3.3629e-06	1419.2	431	4.3655e-07	9.457e-06	553.6	187.4	137.99	55.754	4.2356e-06	89.599	0.00012276	0.00011976	3.2799e-05	1050.9	1.3045e-06	1.3098e-06	1234.3	370.03	1.3515e-06	1.3412e-06	403.89	155.29	102.22	46.367	1.3906e-06	73.13	172.875	-64.592	-29.504	-85.221	50.332	56.960	-85.515	-81.034	58.372	-4.036	-81.781	-77.580	-77.422	-70.508	8.887	-71.284	-8191	255	
19506.039	1	1	0	0	0.14267	0.26421	0.073721	0.13105	0.39467	0.09794	0.2187	0.62923	0.077789	0.18419	0.17136	0.36061	0.33009	0.43117	0.19686	0.21172	-1.2687	-1.7792	-1.475	-1.9354	-1.5292	-1.5792	-2.0021	-1.5375	-1.675	-1.7125	-1.4896	-2.0104	-1.6271	-1.6417	-1.7958	-1.6208	-54.858	256.727	84.077	189.616	248.345	170.237	232.087	187.801	-17.238	4.614	-12.679	216.796	-16.958	253.647	158.311	254.905	0.00041797	0.00038582	0.0002973	1248.6	1.9518e-06	3.3353e-06	1424.8	436.24	5.3018e-06	5.222e-06	562.8	185.77	139.85	56.023	3.1604e-06	89.46	0.00013389	0.00012695	3.504e-05	1061.8	1.4024e-06	1.3791e-06	1242.7	375.23	1.3821e-06	1.3629e-06	406.97	155.36	102.98	46.595	1.4014e-06	73.102	162.501	-5.217	-14.201	-85.202	13.497	70.526	-85.614	-81.153	20.071	9.030	-81.844	-77.309	-77.460	-70.459	13.734	-71.881	-8191	255	
19506.160	1	1	0	0	0.078429	0.17712	0.15097	0.15589	0.25693	0.026717	0.23394	0.34961	0.17081	0.051501	0.01597	0.31342	0.095634	0.2383	0.031476	0.11256	-1.1104	-1.8208	-1.1833	-2.0021	-1.575	-1.4833	-1.8979	-1.6521	-1.7604	-1.85	-1.3563	-1.9479	-1.6313	-1.5708	-1.9979	-1.7042	239.305	136.158	164.115	245.879	179.254	150.971	203.525	207.345	194.871	255.797	-27.570	-83.401	127.352	-58.099	25.337	257.717	0.00044583	0.00037726	0.0001868	1252.8	3.7402e-06	2.9892e-06	1415.9	433.59	6.7303e-06	4.1232e-06	551.62	184.52	137.64	55.32	3.8482e-06	88.197	0.00013018	0.00012653	3.4856e-05	1060.7	1.3828e-06	1.3691e-06	1238.2	373.13	1.3498e-06	1.3246e-06	402.32	153.35	100.93	46.026	1.2898e-06	72.018	151.334	-47.039	-63.629	-84.884	-21.577	-18.798	-85.875	-81.558	-4.366	11.624	-82.360	-77.613	-77.679	-70.170	175.589	-71.591	-8191	255	
19506.258	1	1	0	0	0.24939	0.33238	0.1196	0.29186	0.1271	0.24233	0.26034	0.17897	0.2607	0.097284	0.12814	0.12325	0.20887	0.23401	0.021876	0.19573	-1.2896	-1.7167	-1.2854	-1.9458	-1.5542	-1.6646	-2.0521	-1.6771	-1.4625	-1.7708	-1.5104	-2.2417	-1.6812	-1.5583	-1.8188	-1.6167	99.946	2.638	147.269	255.815	-23.933	-12.974	83.140	-75.417	152.567	134.453	27.998	247.844	-85.120	252.370	164.435	-81.506	0.00030612	0.00033231	0.00018578	1244.3	2.8899e-06	7.0064e-06	1402.1	430.44	3.8414e-06	3.2926e-06	548.23	184.04	137.25	54.126	5.7238e-07	86.919	0.00012312	0.00011806	3.2772e-05	1051.8	1.291e-06	1.2688e-06	1225.2	369.1	1.2754e-06	1.2516e-06	398.09	152.42	100.2	45.061	1.2418e-06	70.935	173.373	-75.223	-22.481	-85.002	28.425	65.119	-85.473	-81.227	23.872	95.998	-82.305	-77.414	-77.289	-69.947	15.724	-71.564	-8191	255	
19506.328	1	1	0	0	0.30981	0.14077	0.1122	0.098038	0.0016142	0.29209	0.088314	0.17437	0.15344	0.27835	0.20354	0.16456	0.32495	0.30914	0.096137	0.050839	-1.1812	-1.8917	-1.2188	-1.8458	-1.5958	-1.4604	-2.1229	-1.8792	-1.6208	-1.9396	-1.4167	-2.0042	-1.7792	-1.7	-1.9062	-1.9625	56.607	75.313	238.092	-43.000	180.000	-97.493	217.137	211.483	251.612	69.274	209.667	172.228	-65.650	-90.345	174.615	123.897	0.00034746	0.00011059	0.00021086	1227.5	5.4311e-06	1.9313e-06	1384.4	427.42	1.6717e-06	2.1771e-06	544.72	182.26	134.56	54.106	5.5722e-06	87.013	0.0001165	0.00011205	3.0925e-05	1038.2	1.205e-06	1.1959e-06	1212.6	367.14	1.1834e-06	1.1636e-06	393.2	150.84	98.313	44.674	1.1511e-06	70.73	163.131	223.926	1.143	-84.951	-7.628	15.384	-86.410	-81.722	37.539	45.609	-81.787	-77.707	-77.291	-70.466	44.803	-72.028	-8191	255	
19506.449	1	1	0	0	0.048977	0.11005	0.22549	0.14489	0.053286	0.10003	0.32145	0.36567	0.22645	0.20502	0.028055	0.22639	0.15006	0.18661	0.18069	0.39388	-1.25	-1.9417	-1.6333	-1.9688	-1.6313	-1.5417	-2.0667	-1.9771	-1.5708	-2.0229	-1.4792	-1.8104	-1.9062	-1.5229	-1.9042	-1.6167	161.851	254.064	-45.039	193.426	64.968	-27.921	225.442	166.684	146.595	177.346	6.151	-59.319	-46.262	157.034	11.656	226.451	0.0004315	0.00054679	0.00011656	1221.2	4.2356e-06	1.4543e-06	1378.1	423.41	1.541e-06	4.5192e-06	541.98	181.59	132.81	53.584	1.5948e-06	87.324	0.00010909	0.00010352	2.8608e-05	1028.9	1.108e-06	1.0732e-06	1197	362.07	1.0644e-06	1.0561e-06	387.52	150.11	96.782	44.406	1.0805e-06	70.444	165.206	-8.502	14.896	-84.711	12.865	-4.294	-85.569	-81.120	49.319	16.225	-82.308	-77.348	-77.368	-70.421	148.946	-71.986	-8191	255	
19506.545	1	1	0	0	0.12305	0.18815	0.018682	0.29893	0.16111	0.14609	0.19375	0.15425	0.1579	0.29423	0.13902	0.26293	0.077999	0.10575	0.31392	0.22865	-1.0063	-1.9771	-1.35	-1.6708	-1.8979	-1.4688	-2.05	-1.8208	-1.4083	-1.8687	-1.6208	-1.8708	-1.8417	-1.4354	-1.8229	-2.0083	248.190	130.995	122.646	-58.681	-86.089	219.049	175.784	118.618	82.348	34.400	190.449	168.585	238.796	-53.975	199.888	95.600	0.00043711	0.00024526	0.00021648	1211	5.7143e-06	2.7629e-06	1364.4	420.92	3.669e-06	4.1493e-06	530.56	178.42	131.43	52.234	3.8923e-06	84.596	0.00010556	0.00010014	2.7434e-05	1020.1	1.076e-06	1.0836e-06	1187.3	359.73	1.0791e-06	1.029e-06	382.17	147.55	95.18	43.289	1.0368e-06	68.58	141.012	-54.437	-36.809	-85.152	19.177	18.234	-86.188	-81.460	-50.709	62.456	-82.137	-77.551	-77.250	-70.310	120.386	-71.607	-8191	255	
19506.641	1	1	0	0	0.1835	0.079177	0.13327	0.22649	0.15753	0.25756	0.21325	0.25427	0.27966	0.2418	0.080115	0.27384	0.24338	0.13521	0.17663	0.13344	-0.80625	-1.775	-1.5708	-1.6146	-1.7896	-1.4708	-1.9229	-1.9312	-1.4458	-2.0542	-1.5833	-1.6104	-2.0792	-1.4896	-1.8042	-2.025	-73.276	161.951	-89.694	-35.648	65.970	13.581	222.030	209.382	166.027	-43.143	102.233	140.831	177.838	163.410	176.307	68.188	0.0004666	1.6554e-05	0.00010074	1194.6	2.1098e-06	5.5643e-06	1344.5	415.56	3.5294e-06	2.8047e-06	522.94	176.84	128.14	51.684	2.0135e-06	83.868	9.7498e-05	9.1319e-05	2.532e-05	1005	9.6696e-07	9.365e-07	1167.7	354.53	9.303e-07	9.2013e-07	373.99	145.52	93.029	42.624	9.0654e-07	67.864	154.284	204.590	12.657	-85.352	-60.099	10.250	-85.488	-81.281	30.385	-21.265	-81.652	-77.245	-77.317	-70.025	115.853	-71.601	-8191	255	
19506.760	1	1	0	0	0.2193	0.17056	0.17175	0.063494	0.10579	0.25492	0.28221	0.21481	0.0853	0.17188	0.10339	0.29972	0.12996	0.21698	0.34898	0.068075	-1.0354	-1.8708	-1.5333	-1.6667	-2.0479	-1.6875	-1.8354	-1.9167	-1.5104	-1.9021	-1.8813	-1.5875	-1.7646	-1.4646	-1.6646	-1.8875	-44.160	113.085	141.042	-73.244	186.911	11.316	182.943	185.936	208.678	223.691	-86.362	215.523	230.333	233.450	39.841	217.222	0.00029489	0.000245	0.00014737	1195.8	3.3296e-06	1.5339e-06	1336.8	416.13	2.6374e-06	3.3216e-06	524.68	176.64	128.76	51.684	3.6863e-06	83.03	9.0387e-05	8.4415e-05	2.3389e-05	1001.3	9.324e-07	9.2279e-07	1164.3	354.68	9.8053e-07	9.4191e-07	377.15	145.78	93.544	42.617	9.7534e-07	67.369	159.385	-61.431	-23.656	-85.009	-40.422	-10.197	-85.739	-81.187	28.869	-39.096	-81.704	-77.319	-77.776	-70.883	97.522	-72.371	-8191	255	
19506.855	1	1	0	0	0.1351	0.12814	0.08305	0.26491	0.34529	0.21869	0.23402	0.10522	0.054052	0.27105	0.17172	0.16581	0.14618	0.19264	0.081597	0.11998	-1.0938	-1.7896	-1.7604	-1.5604	-1.7604	-1.5	-1.7687	-1.9083	-1.4	-1.7917	-1.8312	-1.5625	-1.8979	-1.4396	-1.5021	-1.9562	203.273	30.632	106.273	-98.834	120.875	63.515	178.841	-16.365	227.950	-84.988	-65.121	214.443	-98.869	225.217	-65.419	120.740	0.00040598	0.0004643	0.00023409	1192.6	4.1402e-06	4.6391e-06	1348.6	416.72	2.6485e-06	1.1586e-06	529.67	177.69	131.15	51.535	5.9326e-06	84.362	9.6242e-05	9.1243e-05	2.5042e-05	1002.9	9.8266e-07	9.967e-07	1168.4	355.96	9.9925e-07	9.8236e-07	379.58	146.7	94.091	42.638	9.4613e-07	68.154	144.707	-61.994	-40.539	-85.763	8.831	6.231	-86.352	-81.848	259.206	22.492	-82.236	-77.830	-77.417	-70.731	108.486	-72.253	-8191	255	
19506.928	1	1	0	0	0.2113	0.12148	0.13636	0.10442	0.14351	0.050203	0.16	0.068996	0.14697	0.10905	0.25981	0.20974	0.11128	0.19059	0.2632	0.058149	-1.0625	-1.675	-1.6708	-1.5125	-1.8271	-1.7229	-1.7542	-2.0229	-1.4271	-1.7583	-1.8875	-1.3833	-1.8292	-1.8312	-1.5354	-1.9562	-40.297	54.327	125.210	207.165	-0.530	69.497	203.967	214.995	16.058	-51.210	-79.557	159.169	4.459	19.436	-90.758	195.199	0.00037992	0.00029828	0.00027485	1194.5	3.1024e-06	2.4641e-06	1351.3	419.75	1.9924e-06	1.3152e-06	538.55	178.28	131.14	52.3	3.3559e-06	84.917	9.0597e-05	8.4618e-05	2.3453e-05	1006.3	9.2822e-07	9.3166e-07	1175.4	359.2	9.5315e-07	9.2253e-07	381.96	147.34	94.497	43.184	9.3729e-07	68.714	165.587	-35.655	-12.731	-85.711	-0.357	15.004	-86.193	-81.895	25.224	-55.181	-82.439	-77.743	-77.427	-70.839	-11.531	-72.129	-8191	255	
19507.023	1	1	0	0	0.33219	0.29737	0.11351	0.20283	0.10551	0.22518	0.38006	0.1695	0.07028	0.28091	0.19258	0.12889	0.075718	0.062376	0.046382	0.15504	-1.2542	-1.5708	-1.775	-1.4667	-1.8583	-1.7167	-1.6313	-2.0187	-1.425	-1.7146	-2.0375	-1.6625	-1.75	-2.1063	-1.5042	-2.15	131.551	77.165	204.745	149.844	95.504	123.135	196.922	250.927	60.164	73.016	-29.077	186.240	35.557	198.389	54.756	157.552	0.00049818	0.00042589	0.00018659	1202.1	5.791e-06	3.4818e-06	1357.7	422.21	3.4903e-06	8.351e-06	539.15	178.71	130.43	52.711	3.2451e-06	85.461	9.1191e-05	8.4671e-05	2.3656e-05	1010.7	9.3044e-07	9.1989e-07	1176.7	360.54	9.5897e-07	9.5009e-07	383.79	147.93	94.743	43.593	9.624e-07	69.283	161.345	-37.253	-87.672	-85.357	-27.504	58.004	-85.912	-81.433	-27.992	-31.842	-82.334	-77.525	-77.248	-70.767	69.612	-71.786	-8191	255	
19507.119	1	1	0	0	0.083995	0.14556	0.18401	0.024155	0.12307	0.049522	0.26423	0.3956	0.12435	0.064482	0.035334	0.056604	0.13601	0.28918	0.12785	0.23279	-1.3208	-1.5625	-1.9021	-1.3771	-1.8125	-1.8271	-1.6354	-2.0187	-1.5438	-1.7458	-2.0187	-1.4979	-1.8875	-1.8208	-1.4229	-2.0354	117.505	173.294	140.783	146.487	244.425	-18.226	196.657	210.833	28.760	184.352	245.399	247.953	-71.304	205.769	257.395	-94.559	0.00038076	0.00017969	9.8949e-05	1194.3	4.4996e-06	3.9162e-06	1360.4	423.65	5.2475e-06	3.3565e-06	537.33	179.36	132.39	53.445	1.647e-06	87.075	9.3795e-05	8.6965e-05	2.4506e-05	1010.1	9.573e-07	9.515e-07	1181.5	360.99	9.5865e-07	9.3914e-07	383.42	148.19	95.548	44.115	9.3156e-07	70.215	172.714	-52.317	-54.993	-85.738	-22.481	82.222	-85.980	-81.633	-22.011	-31.977	-82.090	-77.841	-77.182	-70.398	127.913	-72.385	-8191	255	
19507.240	1	1	0	0	0.24993	0.16687	0.14992	0.20485	0.082055	0.31025	0.31127	0.093266	0.14729	0.25365	0.18915	0.1983	0.26665	0.11863	0.049048	0.087271	-1.1167	-1.3792	-1.8708	-1.4083	-1.6187	-1.8104	-1.6021	-2.0979	-1.7479	-1.6313	-1.9188	-1.4271	-1.6729	-2.0167	-1.4062	-1.9229	236.946	53.573	-33.888	-95.369	-44.221	221.945	207.001	233.702	-81.143	-84.411	-39.560	101.286	131.001	155.203	145.447	1.528	0.00036083	0.00050198	6.8026e-05	1208.2	4.6184e-06	4.5602e-06	1367.7	424.71	1.6446e-06	7.367e-06	539.58	181.66	132.93	54.23	3.4435e-06	88.02	9.3086e-05	8.5823e-05	2.336e-05	1013	9.3169e-07	9.0948e-07	1185.3	362.36	9.2586e-07	9.1672e-07	385.95	149.43	95.76	44.601	9.3002e-07	71.11	170.410	-82.673	-14.388	-85.310	-29.802	-60.624	-86.072	-81.601	5.288	-19.863	-82.299	-78.097	-77.331	-70.406	38.734	-72.105	-8191	255	
19507.338	1	1	0	0	0.22404	0.153	0.20947	0.2153	0.13487	0.1873	0.18567	0.31428	0.077612	0.31676	0.24179	0.22729	0.034954	0.20505	0.37659	0.22607	-1.1542	-1.4792	-1.9562	-1.6625	-1.7563	-1.8021	-1.6646	-1.9542	-1.7271	-1.45	-2.0083	-1.6708	-1.8208	-2.1625	-1.4417	-2.0979	-75.923	88.792	127.854	196.898	129.125	37.076	144.974	-68.077	80.940	90.080	251.070	228.076	68.014	-86.863	6.263	202.905	0.00034927	0.00038157	6.4921e-05	1207.3	2.7916e-06	4.9987e-06	1359.5	424.2	3.7511e-06	4.0795e-06	535.54	181.58	132.82	54.163	2.5811e-06	88.06	8.8903e-05	8.1761e-05	2.2286e-05	1011.5	8.7927e-07	8.5868e-07	1181.3	361.77	8.5876e-07	8.6158e-07	382.41	149.58	94.913	44.538	8.3686e-07	71.106	150.269	-89.392	-66.659	-85.141	51.779	33.112	-85.793	-81.535	-13.070	55.621	-82.629	-77.253	-77.736	-70.628	23.466	-72.426	-8191	255	
19507.432	1	1	0	0	0.19916	0.088905	0.1156	0.36049	0.18421	0.25896	0.20559	0.30464	0.35624	0.19859	0.2004	0.19283	0.21038	0.20521	0.21318	0.28055	-1.2604	-1.2646	-1.95	-1.8667	-1.5375	-1.8625	-1.5063	-1.8729	-1.6708	-1.3646	-1.9083	-1.6292	-1.6292	-2.1	-1.6042	-1.9271	35.745	219.438	109.152	196.038	-18.743	51.763	181.290	254.436	148.163	-41.455	179.213	13.755	80.950	225.786	112.268	213.658	0.00042096	0.0002801	0.0001455	1197.1	3.893e-06	5.6438e-07	1347.7	421.14	5.9036e-07	5.3289e-06	527.1	179.24	130.97	53.85	1.8177e-06	88.097	8.1101e-05	7.7154e-05	2.0893e-05	1002.5	8.1551e-07	8.0218e-07	1169.6	358.13	7.6891e-07	7.5316e-07	375.01	147.53	93.302	44.179	7.1589e-07	70.886	164.859	-39.481	-72.201	-85.163	32.796	68.865	-85.601	-81.354	-5.162	-17.594	-82.370	-77.561	-77.363	-70.280	85.121	-71.941	-8191	255	
19507.529	1	1	0	0	0.023206	0.13599	0.097609	0.24667	0.16172	0.21667	0.34243	0.14847	0.13398	0.23101	0.15059	0.010081	0.097545	0.37319	0.20072	0.068627	-1.3188	-1.2792	-1.8292	-1.7812	-1.5938	-2.0917	-1.6854	-1.7896	-1.6854	-1.3917	-1.7979	-1.7333	-1.3521	-2.1063	-1.6396	-1.7833	186.452	-81.976	17.120	156.749	247.995	160.773	177.712	182.185	-2.007	210.293	-33.006	59.457	-65.313	230.881	59.569	188.021	0.00048363	0.00029422	6.9555e-05	1176.8	1.137e-06	3.8982e-06	1331.9	414.46	2.7044e-06	2.8562e-06	522.89	179.31	128.78	52.507	3.5496e-06	85.835	7.0544e-05	6.3516e-05	1.7566e-05	984.2	6.8147e-07	6.6195e-07	1148.8	351.93	6.6395e-07	6.3708e-07	368.37	145.96	90.982	42.963	6.072e-07	69.215	160.784	-25.588	-39.684	-85.059	15.474	35.651	-85.945	-81.441	-8.039	5.702	-81.866	-77.130	-77.023	-70.308	77.435	-71.937	-8191	255	
19507.623	1	1	0	0	0.038018	0.10803	0.036411	0.19495	0.21727	0.23828	0.32183	0.2086	0.059459	0.078366	0.19023	0.096746	0.04148	0.10676	0.12479	0.19618	-1.4292	-1.3333	-1.9625	-1.6479	-1.3729	-1.9562	-1.8354	-1.6688	-2.0062	-1.7271	-1.9583	-1.9542	-1.3813	-2.1562	-1.7563	-1.7104	-16.018	23.620	-38.999	145.634	219.152	-90.471	185.544	227.166	251.104	4.688	161.518	-49.311	193.860	258.398	-21.160	185.107	0.00040898	0.00017157	0.00013542	1151.4	2.6553e-06	3.09e-06	1303.9	407.09	4.0643e-07	4.1157e-06	511.38	174.92	124.84	50.562	2.3858e-06	83.346	6.0834e-05	5.5032e-05	1.4857e-05	961.62	5.9048e-07	5.8082e-07	1125.3	344.25	5.954e-07	5.9638e-07	360.62	143.07	88.06	41.307	6.6053e-07	67.063	161.921	16.748	-28.188	-85.269	-8.780	16.707	-85.871	-81.159	154.034	22.868	-81.755	-77.353	-77.021	-70.057	17.116	-71.585	-8191	255	
19507.723	1	1	0	0	0.20431	0.21648	0.26583	0.41264	0.22949	0.17752	0.2657	0.16404	0.25207	0.1881	0.21501	0.097867	0.41552	0.080402	0.08593	0.11287	-1.2875	-1.45	-1.6708	-1.7167	-1.3833	-1.6917	-1.725	-1.5417	-1.9396	-1.45	-1.7896	-1.7875	-1.4875	-1.9792	-1.6313	-1.5792	200.733	104.763	200.404	223.601	244.855	219.958	-54.465	175.641	251.021	155.535	-77.273	168.041	-63.977	124.753	222.377	71.964	0.00039197	0.00045549	0.0002218	1139	4.7076e-06	6.1669e-06	1291.5	399.25	1.8922e-07	2.7235e-06	510.28	171.8	122.08	48.71	3.6392e-06	80.707	6.6677e-05	6.3629e-05	1.8297e-05	954.71	7.9656e-07	8.333e-07	1122.6	341.37	1.062e-06	1.1338e-06	369.44	143	90.955	40.664	1.4705e-06	66.433	152.275	-88.404	-81.531	-84.985	-8.964	47.805	-85.695	-81.179	227.950	226.709	-81.464	-76.929	-76.330	-69.808	12.783	-71.189	-8191	255	
19507.842	1	1	0	0	0.031631	0.14815	0.10334	0.10243	0.10086	0.15772	0.079121	0.27517	0.26551	0.13859	0.13531	0.19612	0.1993	0.19755	0.18695	0.26327	-1.425	-1.5	-1.6688	-2.0125	-1.3104	-1.9958	-1.7542	-1.5021	-1.9104	-1.5083	-1.6958	-1.8917	-1.3604	-1.7062	-1.5958	-1.7958	-87.179	-2.421	258.048	162.405	124.493	52.063	216.494	215.270	16.264	233.541	-22.186	-31.981	-87.969	61.941	157.295	176.959	0.00047748	0.00041996	7.4634e-05	1126	6.3376e-06	2.0754e-06	1272.9	389.89	4.6699e-06	5.1789e-06	495.04	166.33	118.33	46.488	2.9145e-06	77.407	0.00014644	0.00014659	4.2683e-05	969.3	1.7967e-06	1.8465e-06	1124.9	339.33	1.9861e-06	1.9916e-06	376.89	141.51	92.416	39.773	2.0962e-06	64.365	156.027	183.877	148.851	-85.783	-23.027	132.195	-86.425	-81.535	-43.832	-31.762	-82.153	-77.574	-77.995	-70.464	140.650	-72.190	-8191	255	
19507.938	1	1	0	0	0.25203	0.25879	0.13536	0.1365	0.32468	0.061175	0.25551	0.28644	0.13179	0.20651	0.36356	0.16236	0.10102	0.10988	0.25148	0.33213	-1.5271	-1.7229	-1.6896	-1.9458	-1.2271	-1.9229	-1.8958	-1.5375	-1.9854	-1.6104	-1.6542	-2.0146	-1.4917	-1.7875	-1.7604	-1.4833	258.139	-59.605	13.144	-79.235	39.573	239.527	173.067	132.305	-52.247	-47.206	236.836	216.740	5.438	240.159	114.376	254.044	0.00030927	0.00036157	9.9693e-05	1100.7	4.7616e-06	3.1933e-06	1250.2	382.06	2.5596e-06	7.2504e-06	497.28	165.34	116.6	46.424	4.8733e-06	77.265	0.00019959	0.00019842	5.4849e-05	961.14	2.2047e-06	2.194e-06	1111.1	335.86	2.0583e-06	2.036e-06	375.08	140.34	91.195	39.336	1.8676e-06	63.884	164.108	7.502	126.338	-85.492	-20.393	5.214	-86.244	-81.656	-31.071	5.239	-82.527	-77.623	-77.543	-70.364	90.508	-71.946	-8191	255	
19508.033	1	1	0	0	0.13046	0.14439	0.20274	0.21914	0.072604	0.17209	0.20063	0.31619	0.1595	0.1757	0.039621	0.32639	0.18319	0.13091	0.17514	0.093489	-1.3729	-1.4062	-1.3333	-2.1583	-1.4646	-1.7479	-1.9771	-1.4188	-1.9	-1.7208	-1.4896	-1.9208	-1.5375	-1.7229	-1.8479	-1.4667	39.301	-97.379	-76.557	165.168	-25.316	-1.896	116.256	-50.285	-61.518	13.685	184.023	209.040	158.218	130.835	246.251	-65.688	0.00027455	0.00044526	8.8456e-05	1108.5	3.1617e-06	7.6981e-06	1258.5	387.74	1.6713e-06	6.8941e-06	504.77	170.4	121	48.183	4.3021e-06	80.044	0.00016763	0.00016476	4.5191e-05	951.17	1.7514e-06	1.7447e-06	1111.7	336.99	1.7428e-06	1.7048e-06	373.37	142.37	91.246	40.4	1.5938e-06	65.684	153.620	-20.792	228.381	-85.707	69.756	121.235	-86.189	-81.608	134.387	9.748	-82.238	-77.716	-77.233	-70.631	121.601	-71.816	-8191	255	
19508.129	1	1	0	0	0.2284	0.079308	0.086539	0.39458	0.12689	0.39522	0.10979	0.34586	0.13293	0.10618	0.27707	0.53929	0.17561	0.18669	0.20312	0.037362	-1.3708	-1.5458	-1.4604	-1.9771	-1.5667	-1.6688	-1.8979	-1.6125	-1.7271	-1.8083	-1.5604	-1.9062	-1.3521	-1.7125	-1.7729	-1.5146	233.386	209.676	183.822	237.408	-71.601	-13.631	194.465	236.143	252.514	155.821	259.804	-99.704	-49.574	253.557	34.990	12.027	0.0002464	0.00048958	0.00026995	1120.1	2.4262e-06	3.1363e-06	1284.6	394.97	3.0065e-06	3.4548e-06	508.93	174.27	122.51	49.875	1.6475e-06	82.694	0.00014801	0.00014305	3.8737e-05	958.75	1.507e-06	1.4908e-06	1126.7	341.36	1.4492e-06	1.4058e-06	371.94	144.69	91.526	41.557	1.3024e-06	67.914	172.113	-78.616	-26.384	-85.288	-31.505	0.783	-86.043	-81.820	157.754	186.633	-82.486	-77.702	-77.164	-70.461	-69.212	-72.250	-8191	255	
19508.225	1	1	0	0	0.37191	0.1201	0.36205	0.18162	0.081155	0.23995	0.20309	0.18477	0.24333	0.017657	0.35341	0.25083	0.062554	0.16022	0.11935	0.11992	-1.1208	-1.6729	-1.2479	-2.0667	-1.6667	-1.5792	-1.9521	-1.3604	-1.7146	-1.8813	-1.425	-1.8542	-1.6604	-1.6104	-1.9438	-1.5875	8.400	178.990	-68.528	-58.241	130.653	1.893	196.829	-91.958	0.777	-9.630	-93.325	222.808	-25.644	49.013	1.137	202.434	0.00041416	0.00019601	0.00013735	1143.6	4.8616e-06	5.9584e-06	1317.4	403.27	4.6946e-06	1.7626e-06	516.93	178.57	127.08	51.994	5.339e-06	86.858	0.00012355	0.00011659	3.2368e-05	969.23	1.2445e-06	1.2055e-06	1147.4	346.71	1.0991e-06	1.0598e-06	373.11	147.8	92.185	43.077	9.6642e-07	70.209	166.147	8.281	-81.037	-85.304	38.383	19.366	-86.163	-81.628	-72.851	-47.524	-82.086	-77.647	-77.121	-70.468	46.483	-72.395	-8191	255	
19508.320	1	1	0	0	0.14115	0.19758	0.060631	0.24946	0.13205	0.17825	0.031558	0.0046705	0.090486	0.11647	0.067966	0.12741	0.10415	0.077367	0.26788	0.10606	-1.1229	-1.7437	-1.1125	-1.8937	-1.5167	-1.3188	-2.0458	-1.5083	-1.5458	-1.7104	-1.1771	-1.8292	-1.6354	-1.3354	-1.9896	-1.6187	63.790	-0.204	-11.032	134.345	-26.657	141.104	-55.879	64.410	149.388	184.364	-79.381	208.672	53.586	165.612	117.476	-59.933	0.00056119	0.00015997	0.00014221	1169.1	1.9875e-06	4.4011e-06	1326.9	412.24	4.7607e-06	3.8889e-06	524.67	180.5	129.02	52.983	2.0626e-06	87.564	9.1232e-05	8.3539e-05	2.3038e-05	980.08	8.9705e-07	8.9556e-07	1155.2	352.75	8.8431e-07	8.6897e-07	375.29	148.55	92.976	43.741	8.7999e-07	70.802	170.046	-33.526	-22.556	-85.485	108.759	-8.484	-86.282	-81.733	-43.172	31.914	-82.051	-77.792	-77.264	-70.688	50.346	-72.171	-8191	255	
19508.418	1	1	0	0	0.063891	0.28851	0.16851	0.076953	0.26456	0.13291	0.16628	0.37059	0.35806	0.11996	0.11041	0.092448	0.23706	0.12476	0.036031	0.50461	-1.1167	-1.7812	-1.3354	-2.0292	-1.6625	-1.4188	-2.0542	-1.675	-1.5125	-2.0625	-1.4604	-1.8917	-1.6375	-1.3979	-1.6938	-1.75	146.147	237.001	99.150	182.107	251.146	46.833	147.871	236.001	-33.012	124.122	-65.129	129.992	124.249	184.448	-94.475	190.430	0.00047025	0.00039777	0.00016011	1177	7.3397e-06	3.9115e-06	1332.9	412.71	8.6031e-07	3.9226e-06	528.08	181.82	128.81	53.34	4.6581e-06	87.18	8.6809e-05	8.1273e-05	2.2623e-05	985.6	8.7695e-07	8.7234e-07	1157.3	352.63	8.5473e-07	8.6502e-07	375.76	149.26	93.029	43.818	8.9073e-07	70.719	169.146	-92.213	260.282	-85.562	16.773	71.967	-86.213	-81.697	173.419	-5.791	-82.555	-77.899	-77.905	-70.769	142.618	-72.264	-8191	255	
19508.537	1	1	0	0	0.15216	0.12662	0.11469	0.24843	0.037928	0.38586	0.13967	0.31286	0.30122	0.224	0.057448	0.22595	0.14182	0.16493	0.31053	0.29029	-1.2437	-1.875	-1.175	-1.8021	-1.9229	-1.5479	-1.9083	-1.9167	-1.4	-1.9479	-1.5938	-1.8563	-1.8563	-1.4396	-1.7729	-1.8958	65.545	-24.760	214.012	223.993	110.150	-25.597	116.783	208.833	-91.954	86.629	205.769	169.116	252.127	-85.856	-86.328	34.393	0.00042175	8.3591e-05	0.00017214	1185.5	3.8635e-06	1.3783e-06	1345.2	419.12	2.9449e-06	9.943e-07	527.78	181.06	131.54	53.443	4.305e-06	88.768	8.7031e-05	7.9801e-05	2.1912e-05	991.82	8.7593e-07	8.4491e-07	1167.2	357.14	8.4602e-07	8.2751e-07	378.27	149.5	93.908	44.103	8.135e-07	71.397	160.393	-2.196	-3.580	-85.624	28.269	8.557	-86.128	-81.734	252.369	75.194	-81.906	-77.883	-77.159	-70.617	11.241	-72.168	-8191	255	
19508.633	1	1	0	0	0.12157	0.085973	0.20511	0.16664	0.056601	0.31568	0.25406	0.36322	0.092229	0.31314	0.1759	0.092404	0.28808	0.10611	0.089014	0.16209	-1.0333	-2.0271	-1.5125	-1.75	-1.8833	-1.1917	-1.775	-1.8042	-1.5729	-2.0083	-1.6604	-1.6833	-1.9	-1.5229	-1.7687	-2.0271	186.360	105.934	253.841	-79.229	231.396	91.964	194.288	231.524	248.277	220.110	-1.788	244.309	-77.296	247.972	194.638	150.471	0.0003368	0.00038519	0.00013448	1187.5	3.2646e-06	6.8522e-06	1347.4	419.58	3.6007e-06	5.8564e-06	535.6	183.41	131.84	54.188	2.4381e-06	89.524	8.0527e-05	7.3303e-05	2.0507e-05	994.29	8.0048e-07	8.0632e-07	1168	357.67	7.9339e-07	7.7209e-07	379.93	150.57	94.014	44.451	7.7509e-07	71.974	157.870	-33.039	-51.663	-85.588	-27.768	49.501	-85.905	-81.449	-30.550	0.221	-81.541	-77.627	-76.815	-70.206	30.400	-71.966	-8191	255	
19508.729	1	1	0	0	0.26888	0.12265	0.17225	0.092566	0.33397	0.189	0.10561	0.30294	0.22631	0.089195	0.159	0.32814	0.18528	0.23766	0.11741	0.20747	-0.90625	-1.9042	-1.3479	-1.7125	-1.8417	-1.5938	-1.7938	-1.7604	-1.4062	-2.0208	-1.5875	-1.7229	-1.85	-1.625	-1.65	-2.0917	-85.063	24.899	232.022	161.430	245.927	-33.350	135.490	215.086	-88.456	242.044	-1.779	176.663	-86.251	135.380	-25.351	226.354	0.00042821	0.00040268	0.00011043	1194.8	2.8849e-06	2.3625e-06	1340.5	421.6	1.3705e-06	5.0497e-06	533.28	183.85	131.8	53.878	1.1929e-06	89.197	7.582e-05	6.9202e-05	1.9351e-05	994.49	7.6167e-07	7.5221e-07	1165.8	358.64	7.5899e-07	7.391e-07	378.3	150.68	93.857	44.189	7.2917e-07	71.655	160.640	-80.673	-39.274	-85.489	-3.629	57.552	-86.074	-81.620	-5.570	43.031	-82.186	-77.548	-77.172	-70.074	86.259	-71.535	-8191	255	
19508.803	1	1	0	0	0.22039	0.028619	0.08784	0.16323	0.18687	0.2008	0.13878	0.26956	0.081538	0.21808	0.39797	0.25624	0.16257	0.18262	0.21172	0.12613	-0.95417	-1.8875	-1.6146	-1.775	-2.0625	-1.6958	-1.9688	-2.0896	-1.375	-1.7854	-1.6708	-1.7917	-2.0021	-1.5729	-1.6875	-2.1333	173.856	60.090	256.064	220.853	165.704	-6.106	-4.553	217.329	56.665	115.872	168.613	214.198	-91.979	-77.833	-28.046	137.729	0.00043595	0.00028639	0.00016492	1194.7	4.0672e-06	1.0222e-06	1346.2	421.23	4.9976e-06	3.3251e-06	532.19	183.03	131.34	53.797	2.066e-06	88.465	7.3193e-05	6.6492e-05	1.8523e-05	997.9	7.3931e-07	7.2594e-07	1165.4	358.63	7.4252e-07	7.3219e-07	376.79	150.08	93.805	44.152	7.3993e-07	71.552	150.013	38.944	-28.546	-84.746	-12.111	-95.667	-85.451	-80.951	-54.248	-34.228	-81.480	-77.012	-76.917	-70.200	49.975	-71.550	-8191	255	
19508.922	1	1	0	0	0.11073	0.14892	0.045276	0.090166	0.18856	0.13157	0.093493	0.30448	0.33367	0.13081	0.13322	0.40473	0.25059	0.18458	0.019209	0.24214	-1.0729	-1.8563	-1.7042	-1.5542	-1.9229	-1.6562	-1.6417	-1.8375	-1.3625	-2.0292	-1.6458	-1.5833	-1.9521	-1.8125	-1.6083	-2	238.097	43.378	0.093	237.100	-1.729	-58.610	49.837	182.074	162.931	138.833	57.983	-42.668	-98.921	-72.534	181.455	199.069	0.00050217	0.00020305	0.0001088	1187	1.3351e-06	2.7464e-06	1343.8	420.24	2.3519e-06	3.8974e-06	535.99	183.3	132.48	53.749	2.0027e-06	89.01	7.3453e-05	6.5921e-05	1.8449e-05	993.54	7.2297e-07	7.2034e-07	1163.7	358	7.2856e-07	7.0909e-07	377.54	150.15	94.017	44.257	7.1466e-07	71.641	156.751	-36.758	-62.379	-85.481	20.678	18.011	-85.936	-81.420	-71.415	16.698	-82.392	-77.298	-76.713	-70.196	117.874	-71.747	-8191	255	
19509.018	1	1	0	0	0.065565	0.049572	0.10399	0.22866	0.25602	0.043454	0.047703	0.28688	0.27388	0.15591	0.11605	0.14428	0.1992	0.17671	0.22347	0.29474	-1.2479	-1.8208	-1.6271	-1.6583	-1.8937	-1.7125	-1.7979	-2.0583	-1.2896	-1.625	-2.0062	-1.6	-1.8875	-1.7667	-1.4521	-2.0125	244.031	215.678	27.064	247.578	241.743	89.507	251.472	242.383	-82.596	43.045	16.407	204.396	-16.675	233.014	41.231	215.195	0.00048823	0.00032804	0.00012	1190	1.572e-06	4.6411e-06	1347.6	421.63	1.4393e-06	3.5613e-06	534.9	182.37	132.75	53.669	4.7564e-06	88.328	7.1151e-05	6.4504e-05	1.7996e-05	994.52	7.1319e-07	7.1271e-07	1167.3	358.59	7.1986e-07	7.0149e-07	377.72	150.25	93.756	43.977	7.1249e-07	71.202	173.678	-18.786	-22.625	-85.015	-0.869	57.306	-85.338	-81.014	9.732	-14.196	-81.550	-77.061	-77.004	-70.430	113.289	-72.253	-8191	255	
19509.113	1	1	0	0	0.05277	0.22877	0.3156	0.11465	0.0033827	0.28891	0.29519	0.32392	0.25226	0.013896	0.12256	0.15715	0.26271	0.14269	0.15424	0.26037	-1.0229	-1.6167	-1.8125	-1.5042	-1.825	-1.6292	-1.6167	-2.0312	-1.6083	-1.6208	-1.7875	-1.4896	-1.8813	-1.75	-1.5396	-2.0146	-94.512	124.506	104.839	59.726	194.747	208.736	241.371	198.704	124.909	-82.081	128.715	-85.595	48.581	-73.084	-85.644	135.289	0.00044282	7.7779e-05	0.0001621	1195.9	2.7801e-06	4.0989e-06	1357.3	422.25	2.8127e-06	1.3512e-06	537.16	181.65	130.51	52.826	2.4703e-06	86.845	7.2444e-05	6.4403e-05	1.832e-05	999.9	7.4707e-07	7.3703e-07	1173.1	359.81	7.7429e-07	7.5802e-07	380.51	149.66	93.756	43.38	8.1243e-07	70.217	167.684	-23.132	11.773	-85.617	-15.691	86.921	-86.385	-81.815	14.243	120.605	-82.397	-77.646	-77.391	-71.243	74.711	-71.798	-8191	255	
19509.211	1	1	0	0	0.26277	0.17128	0.15584	0.14778	0.12794	0.17013	0.28958	0.21062	0.020202	0.14873	0.24614	0.16559	0.080699	0.11872	0.24861	0.14592	-1.1417	-1.4542	-1.8583	-1.5688	-1.9021	-1.8104	-1.7313	-2.0938	-1.4896	-1.6854	-2.0125	-1.6	-1.9333	-1.8375	-1.5271	-2.0438	199.324	159.395	97.570	115.508	111.824	249.094	170.425	255.232	0.844	25.828	237.417	169.915	-84.789	248.084	-36.858	206.343	0.00049076	0.00025386	0.00014047	1195	2.9891e-06	3.3131e-06	1360.7	420.52	4.4935e-07	4.5559e-06	533.26	180.36	130.72	52.305	2.6219e-06	85.741	8.1347e-05	7.686e-05	2.1198e-05	1004.4	8.6137e-07	8.6173e-07	1178.2	359.4	9.0785e-07	8.9951e-07	380.92	148.97	94.223	43.196	9.4302e-07	69.524	161.290	-46.805	-38.747	-85.330	14.637	42.181	-85.859	-81.567	181.786	6.817	-82.196	-77.324	-76.537	-70.276	-69.656	-72.205	-8191	255	
19509.330	1	1	0	0	0.17793	0.065082	0.099473	0.26669	0.089264	0.32435	0.14064	0.087143	0.094861	0.1499	0.21998	0.17578	0.078584	0.13383	0.1012	0.021439	-1.1437	-1.3542	-1.8958	-1.4896	-1.7708	-1.8	-1.5146	-2.0958	-1.8208	-1.4875	-1.9521	-1.5208	-1.7146	-1.8625	-1.6021	-1.9583	246.257	244.270	51.436	257.313	259.384	178.896	258.352	-17.908	222.798	-14.412	178.109	218.646	215.963	-83.181	-90.717	-94.204	0.00042757	0.00012814	0.00020836	1194.5	2.0442e-06	5.8731e-06	1360.8	421.93	3.4309e-06	2.247e-06	534.96	180.44	131.15	52.666	5.1622e-06	86.728	9.3282e-05	8.9567e-05	2.4623e-05	1008.2	9.9623e-07	1.0081e-06	1181.6	361.04	1.0473e-06	1.0643e-06	385.92	149.28	95.209	43.698	1.1399e-06	70.548	167.186	-47.251	-42.349	-85.019	31.784	24.954	-85.871	-81.505	-4.396	-71.491	-81.914	-77.625	-77.531	-70.596	14.861	-72.210	-8191	255	
19509.426	1	1	0	0	0.19427	0.18677	0.091998	0.24052	0.24332	0.13577	0.1608	0.16956	0.095537	0.18311	0.07371	0.24684	0.17494	0.29759	0.18924	0.18907	-1.2729	-1.3854	-1.95	-1.425	-1.6562	-1.8604	-1.6583	-2.0583	-1.8104	-1.3521	-1.9813	-1.7146	-1.4979	-1.9792	-1.3854	-1.9937	14.413	141.977	254.466	218.907	179.564	251.144	100.679	229.242	0.850	-83.468	-87.490	184.379	9.129	-98.989	127.484	-90.415	0.00045877	0.00044382	5.515e-05	1205.5	4.3867e-06	1.1775e-06	1360.2	419.51	3.3675e-06	5.9186e-06	531.75	180.16	129.86	52.816	3.8283e-07	85.923	0.00011169	0.00010761	2.9978e-05	1015.6	1.1854e-06	1.1666e-06	1184.6	359.84	1.1831e-06	1.1738e-06	384.93	149.39	94.986	43.704	1.1696e-06	70.303	183.331	6.411	-11.009	-85.326	-7.467	86.525	-85.933	-81.581	-40.771	-8.410	-82.151	-77.506	-77.462	-70.668	218.636	-71.866	-8191	255	
19509.521	1	1	0	0	0.11927	0.092028	0.23615	0.23132	0.1451	0.10027	0.041433	0.24376	0.23546	0.24791	0.40694	0.38866	0.20097	0.1691	0.35198	0.26937	-1.4	-1.3521	-1.7375	-1.6833	-1.5458	-1.9312	-1.7542	-1.8896	-1.6542	-1.475	-1.8104	-1.7792	-1.6125	-1.9396	-1.3937	-1.8312	252.541	17.715	179.378	130.598	1.986	180.774	78.047	152.124	82.340	150.302	-56.640	192.124	-53.096	-70.440	131.948	-84.244	0.00033215	0.00034617	0.00011394	1196.1	2.3851e-07	4.0165e-06	1351	419.04	3.1823e-06	5.6373e-06	531.2	180.51	129.54	51.952	2.8828e-06	85.85	0.00011247	0.00010641	2.99e-05	1009.5	1.1762e-06	1.1599e-06	1179.9	358.5	1.1738e-06	1.1528e-06	382.6	149.32	94.917	43.187	1.1566e-06	69.774	177.754	-41.830	47.920	-85.308	-22.052	60.948	-85.976	-81.224	17.040	28.779	-81.955	-77.230	-76.878	-69.978	78.598	-72.288	-8191	255	
19509.619	1	1	0	0	0.10223	0.2172	0.28474	0.057346	0.25018	0.10175	0.4202	0.23998	0.1525	0.050546	0.34709	0.21426	0.1986	0.11141	0.089631	0.1481	-1.225	-1.2125	-1.7708	-1.7417	-1.4354	-2.1083	-1.5646	-1.8625	-1.85	-1.425	-1.7083	-1.7271	-1.325	-1.9479	-1.4375	-1.7833	-69.301	128.078	177.583	130.496	113.248	112.674	189.510	-39.980	224.952	214.265	-99.224	163.062	244.194	139.813	-3.057	235.031	0.00051082	0.00058999	0.00014526	1186.3	3.0615e-06	3.6806e-06	1351.5	417.77	5.157e-06	5.0453e-06	533.74	179.28	129.09	51.964	6.2513e-06	85.275	0.00011129	0.00010666	2.9512e-05	1006.7	1.1618e-06	1.1617e-06	1180	358.09	1.1702e-06	1.1602e-06	384.29	149.05	94.927	43.268	1.1806e-06	69.465	149.883	-58.022	-23.298	-85.833	-58.818	42.525	-86.398	-81.857	-9.655	-29.497	-82.641	-78.219	-78.034	-70.872	73.380	-72.330	-8191	255	
19509.713	1	1	0	0	0.32447	0.15347	0.19399	0.30749	0.1229	0.082843	0.098178	0.24883	0.11262	0.10931	0.19039	0.090691	0.26404	0.20572	0.27862	0.35632	-1.3729	-1.3563	-1.7313	-1.7687	-1.5083	-1.8	-1.6167	-1.9917	-1.7417	-1.6125	-1.725	-2.1146	-1.4396	-2.1625	-1.4958	-1.8604	-73.479	42.293	22.502	250.981	88.434	-91.248	-71.346	181.005	54.460	85.206	163.537	246.062	179.086	230.498	152.068	233.745	0.00042957	0.00041694	0.00013384	1198.7	2.501e-06	4.492e-06	1353.7	421.67	3.5365e-06	4.3274e-06	533.53	179.99	131.02	52.366	1.6881e-06	86.308	0.00011401	0.00010777	3.0357e-05	1014.7	1.1832e-06	1.2011e-06	1183.3	360.77	1.1859e-06	1.1836e-06	385.77	148.88	95.23	43.555	1.1824e-06	70.039	156.258	-39.539	-25.157	-85.796	-39.490	115.643	-85.950	-81.740	157.303	21.772	-81.794	-77.216	-77.428	-70.406	173.315	-72.004	-8191	255	
19509.809	1	1	0	0	0.37112	0.043939	0.12349	0.29961	0.16741	0.12867	0.32811	0.23953	0.013733	0.092099	0.36118	0.099249	0.28951	0.22203	0.066843	0.33144	-1.4833	-1.5875	-1.6875	-1.8083	-1.225	-1.9937	-1.8438	-1.7229	-1.9042	-1.4792	-1.6396	-2.0146	-1.3646	-2.0146	-1.7042	-1.6771	189.153	88.175	10.579	258.953	17.211	173.281	187.410	-97.819	9.968	136.414	251.135	242.242	212.410	159.881	37.905	187.072	0.00041463	0.00038648	0.00026934	1195.3	1.0746e-06	3.209e-06	1355.6	419.73	1.8333e-06	2.4967e-06	527.91	179.21	128.56	52.842	2.1248e-06	86.216	0.0001134	0.00010897	3.0644e-05	1013.3	1.2441e-06	1.2333e-06	1184.5	361.03	1.2515e-06	1.2463e-06	385.72	148.97	95.212	43.717	1.272e-06	70.142	177.985	-30.076	-20.986	-85.659	-10.493	-24.399	-86.613	-81.825	112.324	234.392	-82.512	-78.007	-77.335	-70.652	113.544	-72.180	-8191	255	
19509.930	1	1	0	0	0.13184	0.06707	0.25376	0.095565	0.1227	0.28357	0.18725	0.11011	0.076724	0.081616	0.04262	0.38013	0.086361	0.23771	0.33768	0.068705	-1.6896	-1.4625	-1.7104	-1.8271	-1.5375	-1.9813	-1.8042	-1.7771	-2.05	-1.5625	-1.75	-2.125	-1.2417	-1.8625	-1.8792	-1.4062	193.590	54.044	256.313	229.727	54.716	91.927	255.958	166.185	98.740	175.537	72.296	209.131	-10.615	256.189	-21.535	239.307	0.00037255	0.00056889	9.2575e-05	1197.7	8.9243e-07	4.576e-06	1352.6	418.1	5.8506e-06	4.4744e-06	530.76	179.84	129.42	52.451	8.9393e-07	86.446	0.00012022	0.00011526	3.1898e-05	1013.7	1.2503e-06	1.2287e-06	1183.9	359.13	1.2256e-06	1.2257e-06	384.09	149.14	95.184	43.664	1.2143e-06	70.242	178.913	-0.362	29.083	-85.215	16.571	-53.599	-85.707	-80.891	29.115	34.418	-82.513	-77.681	-78.044	-70.590	226.521	-72.002	-8191	255	
19510.025	1	1	0	0	0.058915	0.13579	0.13648	0.16083	0.15478	0.21907	0.076172	0.042788	0.42084	0.11116	0.14445	0.069531	0.16682	0.23336	0.21685	0.10766	-1.3646	-1.5021	-1.6875	-2.0458	-1.3667	-1.875	-1.95	-1.4875	-1.8521	-1.5812	-1.7458	-1.7521	-1.5104	-1.8854	-1.8604	-1.6708	-87.176	98.616	-36.104	187.179	164.775	-24.108	225.466	191.482	-7.240	26.002	222.611	128.428	-90.890	189.924	-70.384	153.316	0.00051731	0.00035352	0.00010697	1187.8	4.7661e-06	2.3565e-06	1358.7	420.54	4.0518e-06	6.5932e-06	531.85	180	128.77	52.475	4.3215e-06	86.908	0.00011482	0.00010851	2.9978e-05	1006.4	1.1991e-06	1.19e-06	1181.7	359.39	1.1759e-06	1.1556e-06	383.02	148.95	94.362	43.523	1.0913e-06	70.135	163.897	-38.959	-72.663	-85.534	10.629	158.634	-85.427	-81.252	-79.135	9.606	-82.026	-77.041	-76.743	-70.111	104.085	-71.799	-8191	255	
19510.098	1	1	0	0	0.097013	0.15017	0.15582	0.11195	0.24129	0.031832	0.27862	0.27976	0.1026	0.072212	0.038582	0.58835	0.12202	0.38802	0.23328	0.12642	-1.3458	-1.6417	-1.4667	-2.0167	-1.5104	-1.7625	-1.9896	-1.4896	-1.8896	-1.7021	-1.6125	-1.9917	-1.45	-1.8833	-1.6146	-1.675	24.589	252.945	218.115	241.073	-21.077	211.532	158.891	218.758	228.889	-9.929	181.633	236.096	-8.330	253.890	209.021	243.918	0.00051731	0.00028257	0.00016289	1180.6	4.824e-06	5.8625e-06	1336.3	416.05	3.9067e-06	2.9154e-06	522.4	177.67	128.39	51.707	2.0819e-06	85.237	0.0001026	9.5863e-05	2.6623e-05	995.15	1.0324e-06	1.0246e-06	1161.4	355.11	1.0369e-06	1.0144e-06	375.68	146.89	92.907	42.929	1.0252e-06	68.992	163.818	44.072	-50.109	-84.897	7.134	-3.177	-85.292	-80.718	-54.974	-46.708	-81.619	-77.113	-76.701	-69.930	131.506	-71.807	-8191	255	
19510.219	1	1	0	0	0.22671	0.23578	0.34769	0.30914	0.17169	0.30953	0.34641	0.55568	0.21113	0.027496	0.087834	0.3247	0.33797	0.24878	0.33698	0.11177	-1.3021	-1.7083	-1.3479	-2.0604	-1.5417	-1.6521	-1.9625	-1.5646	-1.8563	-1.6271	-1.5562	-2.1208	-1.6479	-1.6208	-1.75	-1.6187	185.408	-35.359	-51.982	202.224	-41.666	-79.975	176.742	197.989	-37.984	244.042	21.750	174.258	-41.370	-70.508	-53.245	237.812	0.00042348	0.00013893	0.00014162	1172.8	4.0359e-06	5.1426e-06	1319	411.79	7.3727e-07	1.6816e-06	519.92	178.67	128.09	51.83	4.5238e-06	84.655	9.6264e-05	9.1373e-05	2.5446e-05	987	1.0129e-06	9.9644e-07	1151.1	351.83	1.0024e-06	9.9945e-07	374.41	147.05	93.016	42.892	1.0136e-06	68.88	162.443	-17.572	1.765	-84.896	28.799	28.234	-85.404	-81.216	147.190	196.730	-81.154	-76.828	-76.929	-70.633	69.561	-72.381	-8191	255	
19510.314	1	1	0	0	0.2185	0.17476	0.34551	0.15608	0.12366	0.14959	0.083298	0.24947	0.30219	0.37112	0.24611	0.29214	0.18468	0.26497	0.098418	0.27413	-1.3208	-1.6812	-1.4438	-1.9646	-1.6437	-1.8604	-2.2062	-1.4542	-1.7667	-2.0062	-1.4333	-2.0479	-1.7417	-1.575	-1.7812	-1.6125	73.484	195.645	-2.149	249.973	-30.549	173.104	-80.651	206.688	-34.280	-77.391	236.111	233.299	104.426	252.158	-21.308	228.741	0.00040404	0.00035992	0.00010046	1178.5	1.0425e-06	3.6963e-06	1325	411.32	1.5854e-06	4.4299e-06	524.68	178.49	126.51	51.334	3.8375e-06	84.862	9.8181e-05	9.176e-05	2.5522e-05	986.05	1.001e-06	1.005e-06	1153.3	351.68	9.9378e-07	9.881e-07	375.21	147.28	92.7	42.637	1.0056e-06	68.705	168.071	-40.608	29.686	-84.690	256.681	28.687	-85.379	-80.855	194.842	-52.094	-81.691	-77.343	-77.144	-70.393	102.994	-71.803	-8191	255	
19510.410	1	1	0	0	0.14675	0.34416	0.37837	0.24612	0.053027	0.18473	0.249	0.166	0.038898	0.0728	0.11186	0.11763	0.22862	0.099021	0.077184	0.17439	-1.1021	-1.8083	-1.0958	-2.0104	-1.5479	-1.2687	-2.0625	-1.5938	-1.6938	-1.8521	-1.3771	-1.8563	-1.6896	-1.5063	-1.8375	-1.6938	177.023	211.820	-89.525	-57.144	119.608	73.321	-82.445	141.813	199.068	114.621	249.257	-32.201	-78.640	-65.095	-50.924	-40.026	0.00039048	0.00049963	0.00029608	1167.6	3.8858e-06	1.4501e-06	1329.4	413.97	2.7833e-06	3.0184e-06	522.16	177.89	127.93	51.39	3.6107e-06	84.679	9.6929e-05	9.1402e-05	2.574e-05	987.36	1.0047e-06	9.9953e-07	1155.1	353.22	1.0048e-06	1.0072e-06	377.02	147.3	92.983	42.589	1.0159e-06	68.803	163.477	11.628	-1.455	-85.133	-33.554	16.852	-85.743	-81.206	-60.085	-66.390	-82.125	-77.105	-76.915	-70.129	9.427	-72.425	-8191	255	
19510.508	1	1	0	0	0.17895	0.18577	0.076435	0.30773	0.21422	0.010735	0.20618	0.093213	0.13284	0.19094	0.075315	0.17227	0.26851	0.11073	0.20602	0.10901	-1.1958	-1.9542	-1.4708	-1.75	-1.4813	-1.3896	-2.1	-1.4833	-1.6604	-1.9292	-1.4604	-1.85	-1.6938	-1.4042	-1.7812	-1.7104	-8.938	43.501	4.889	-62.393	175.324	-14.238	244.044	235.191	124.122	200.981	31.328	146.287	-72.595	-87.124	139.994	224.867	0.00043027	0.00043757	7.5956e-05	1173.4	5.5014e-06	6.6368e-06	1333.1	411.47	4.297e-06	2.682e-06	522.92	178.21	128.14	51.293	2.1225e-06	84.496	9.7694e-05	9.2457e-05	2.5519e-05	988.41	1.0097e-06	1.0134e-06	1158.3	352.83	1.0214e-06	1.003e-06	375.71	147.01	93.011	42.424	1.0259e-06	68.656	158.991	-44.006	-35.388	-85.804	-26.807	71.880	-86.142	-81.832	-30.014	-36.334	-82.080	-77.908	-77.388	-70.607	-93.465	-71.961	-8191	255	
19510.627	1	1	0	0	0.21834	0.2999	0.06864	0.12539	0.020442	0.19642	0.22013	0.25369	0.1046	0.17453	0.24266	0.29973	0.16559	0.24232	0.19565	0.34978	-1.0208	-1.8188	-1.5229	-1.8062	-2.0146	-1.4312	-2.0917	-1.7979	-1.6396	-1.9625	-1.5875	-1.6125	-1.8646	-1.5375	-1.7667	-1.9417	79.185	2.649	153.119	115.358	60.729	109.943	207.116	179.551	11.878	218.969	221.417	178.434	-55.354	231.879	58.859	217.433	0.00042511	0.00028019	0.00013871	1169.1	2.2301e-06	1.2743e-06	1322.7	410.33	8.2108e-07	6.0742e-06	521.71	177.35	127.18	51.178	4.7773e-06	84.186	9.806e-05	9.2893e-05	2.5836e-05	984.12	1.0179e-06	1.0184e-06	1151.9	351.7	1.0259e-06	1.0098e-06	374.86	146.35	92.512	42.374	1.0241e-06	68.325	141.217	0.144	-28.775	-85.515	11.681	1.879	-86.372	-81.824	177.055	-46.180	-82.413	-77.938	-77.342	-70.866	79.140	-72.486	-8191	255	
19510.723	1	1	0	0	0.047578	0.27765	0.070621	0.045069	0.25779	0.27663	0.48131	0.21992	0.20148	0.16963	0.27967	0.28505	0.2657	0.25522	0.072127	0.30803	-1.0792	-1.9667	-1.3438	-1.775	-1.7396	-1.5458	-1.9625	-1.875	-1.4375	-1.8646	-1.4542	-1.8021	-1.9542	-1.3625	-1.7583	-1.6938	176.039	-95.950	-27.251	191.042	73.496	258.408	183.729	252.634	-19.225	18.666	253.282	161.286	93.829	-96.027	-22.612	-78.934	0.0003249	0.00040147	0.00023349	1166.8	3.2101e-06	1.1324e-06	1316.6	408.26	7.8123e-07	5.0842e-06	521.72	177.29	126.78	50.632	2.3096e-06	83.83	9.5939e-05	9.0902e-05	2.5047e-05	980.6	9.6734e-07	9.6707e-07	1145.8	349.89	9.7149e-07	9.637e-07	373.97	146.35	92.105	42.019	9.5591e-07	68.102	148.629	-28.253	4.336	-85.714	-13.905	69.788	-86.183	-81.840	200.062	-31.077	-83.008	-78.242	-77.934	-70.909	6.183	-72.457	-8191	255	
19510.793	1	1	0	0	0.31475	0.22016	0.21534	0.21453	0.099711	0.11147	0.24279	0.36175	0.23925	0.25695	0.17012	0.25905	0.25825	0.10505	0.33262	0.20369	-0.98125	-1.8958	-1.4979	-1.5812	-1.8042	-1.5167	-1.9583	-1.9021	-1.1208	-1.7437	-1.6208	-1.5917	-1.8792	-1.4937	-1.8104	-2.0458	251.990	54.815	-72.453	189.191	14.476	-7.537	177.946	247.324	-29.042	244.250	-99.638	170.871	222.747	244.896	-37.637	181.390	0.00035214	0.00016658	0.0002174	1161.3	4.5838e-06	4.4162e-06	1315.8	407.89	1.6027e-06	2.6772e-06	524.11	177.57	127.03	50.682	4.0936e-06	83.965	9.3622e-05	8.7117e-05	2.4677e-05	978.65	9.6814e-07	9.4366e-07	1147.5	349.57	9.5621e-07	9.5322e-07	372.56	146.35	91.765	41.871	9.2674e-07	68.075	152.754	-48.094	-87.945	-85.544	47.480	32.489	-86.586	-82.027	61.492	-24.251	-82.780	-78.095	-77.922	-70.876	21.065	-72.401	-8191	255	
19510.891	1	1	0	0	0.032561	0.08686	0.32573	0.14755	0.26835	0.13866	0.24493	0.22293	0.16146	0.14765	0.12553	0.13793	0.21162	0.061004	0.18913	0.20023	-0.97917	-1.7917	-1.6667	-1.6896	-1.9062	-1.5417	-1.9625	-1.9062	-1.3146	-1.7354	-1.7938	-1.7271	-2.1771	-1.6667	-1.7854	-1.9625	-43.155	-11.519	82.666	-69.313	169.045	148.379	202.911	194.300	10.039	3.791	86.956	220.439	-98.919	220.036	-69.670	-28.494	0.00040912	0.00023032	0.00016795	1162.6	3.0185e-06	1.5978e-06	1322.9	409.75	1.9084e-06	1.2506e-06	518.87	177.31	126.21	50.714	7.4596e-07	83.723	8.9271e-05	8.4477e-05	2.3398e-05	974.93	9.1734e-07	9.1343e-07	1147.5	349.45	9.2449e-07	8.9808e-07	372.82	146.26	91.014	41.715	9.082e-07	67.72	159.925	1.429	-38.534	-85.499	-9.259	24.735	-86.275	-81.754	-70.051	35.929	-82.217	-77.986	-77.701	-70.377	73.997	-72.248	-8191	255	
19511.010	1	1	0	0	0.11282	0.19386	0.22643	0.186	0.35574	0.12355	0.2797	0.22951	0.21859	0.058236	0.031074	0.2494	0.12271	0.067552	0.1229	0.061202	-0.93125	-1.8708	-1.6125	-1.65	-1.9479	-1.5729	-1.9	-1.9542	-1.4021	-1.7188	-1.8687	-1.4896	-2.05	-1.7125	-1.4125	-2.075	0.395	-73.314	178.886	90.944	7.701	119.161	177.771	245.671	-91.132	207.810	159.112	202.910	146.576	148.840	-64.369	-69.515	0.00040687	0.00059783	3.6414e-05	1160.6	3.167e-06	2.016e-06	1317.4	406.78	4.6539e-06	4.936e-06	513.9	176.46	126.13	50.416	4.8342e-06	83.666	8.7529e-05	8.1769e-05	2.1969e-05	971.34	8.8098e-07	8.5665e-07	1140	347.48	8.6588e-07	8.603e-07	369.66	145.46	90.957	41.652	8.5847e-07	67.541	172.456	-38.312	-94.819	-85.583	-51.994	-6.483	-85.955	-81.902	-46.024	27.466	-81.698	-77.865	-77.243	-70.708	7.175	-72.014	-8191	255	
19511.105	1	1	0	0	0.25073	0.14665	0.18153	0.018935	0.2411	0.31446	0.11031	0.082172	0.14955	0.174	0.27543	0.08518	0.29449	0.16978	0.10946	0.1359	-1.0625	-1.775	-1.5938	-1.5958	-1.7375	-1.6646	-1.7354	-1.9146	-1.3417	-1.8312	-1.8354	-1.5771	-1.9021	-1.6667	-1.6292	-2.0687	-88.432	-72.095	-18.593	5.165	227.787	187.635	199.710	258.669	-17.275	251.512	-6.495	106.670	170.809	247.344	78.405	189.637	0.00029829	0.0002109	0.00013649	1157.1	2.9817e-06	1.9221e-06	1306.2	405.42	1.8134e-06	1.3211e-06	519.28	176.95	126.87	50.349	1.68e-06	83.562	8.4076e-05	7.7912e-05	2.1688e-05	967.96	8.7465e-07	8.6208e-07	1135.9	347.18	8.8579e-07	8.648e-07	370.27	145.58	91.141	41.614	9.0063e-07	67.577	164.025	-16.760	-41.571	-85.010	-25.588	41.565	-85.996	-81.820	60.004	29.716	-82.232	-78.081	-77.243	-70.824	101.116	-72.212	-8191	255	
19511.201	1	1	0	0	0.18091	0.12391	0.055498	0.14185	0.26615	0.26878	0.29703	0.23702	0.072792	0.29707	0.044624	0.28195	0.24865	0.1197	0.15089	0.18881	-1.0646	-1.5083	-1.8312	-1.5604	-1.8396	-1.7167	-1.6458	-2.1271	-1.4396	-1.5958	-1.9292	-1.5208	-1.7146	-1.6854	-1.6458	-1.8521	-48.259	93.253	-92.687	242.230	-30.036	82.538	214.215	194.664	-93.899	223.103	111.545	168.579	259.798	188.839	71.002	136.823	0.00028715	0.0003354	5.8093e-05	1156.2	2.4084e-06	7.4779e-07	1310.4	408.58	4.6769e-06	2.477e-06	521.53	177.05	125.17	50.714	3.2231e-06	83.372	8.7993e-05	8.4078e-05	2.3333e-05	970.02	9.2132e-07	9.333e-07	1138.1	348.32	9.5504e-07	9.3843e-07	371.64	145.91	90.914	41.795	9.6751e-07	67.786	162.845	-52.389	-98.734	-85.286	-65.307	36.959	-85.669	-81.255	41.337	-13.045	-82.080	-77.494	-76.843	-70.101	125.557	-71.859	-8191	255	
19511.322	1	1	0	0	0.097717	0.12256	0.039351	0.24723	0.076813	0.21381	0.15048	0.22175	0.37413	0.075665	0.031356	0.23311	0.073494	0.25083	0.062559	0.19579	-1.2625	-1.7479	-1.9229	-1.4438	-1.8438	-1.7833	-1.5771	-1.9854	-1.4854	-1.6271	-1.9521	-1.6792	-1.8312	-1.6938	-1.3292	-2.0979	189.059	67.861	35.518	-12.592	10.785	253.874	-83.647	-98.090	247.680	8.843	207.521	-56.174	142.949	-56.478	122.839	236.144	0.00045622	0.00021926	6.4386e-05	1155.7	8.7531e-07	6.3036e-06	1315.5	407.71	1.9507e-06	2.6615e-06	519.6	177.07	125.82	50.523	6.0045e-06	84.368	9.4949e-05	8.8106e-05	2.4593e-05	973.08	9.6781e-07	9.6862e-07	1145.4	348.45	9.7923e-07	9.5088e-07	371.92	146.23	91.372	41.704	9.8854e-07	68.113	141.990	-70.585	21.324	-85.246	171.609	51.134	-85.646	-81.392	-48.898	0.730	-81.873	-77.420	-76.975	-70.155	37.531	-71.638	-8191	255	
19511.395	1	1	0	0	0.13716	0.079789	0.18248	0.16558	0.21866	0.23602	0.4913	0.19635	0.16421	0.23883	0.18207	0.27288	0.18744	0.16588	0.093545	0.39151	-1.2354	-1.4896	-2.0667	-1.5333	-1.8563	-1.8917	-1.5875	-2.0563	-1.7271	-1.5729	-2.0125	-1.5521	-1.7229	-1.6104	-1.3687	-1.9417	99.424	-20.538	248.002	-65.935	-68.896	-22.373	198.505	185.082	201.004	130.709	215.087	236.667	184.057	185.444	144.928	170.218	0.00033374	0.00015652	6.3209e-05	1155.7	2.136e-07	1.069e-06	1319.5	407.93	2.5121e-06	4.4797e-06	521.03	177.62	126.19	50.355	5.642e-06	83.619	9.7357e-05	9.1473e-05	2.5494e-05	974.16	1.0141e-06	1.0156e-06	1148	349.55	1.0229e-06	1.019e-06	374.74	146.69	92.122	41.779	1.0563e-06	67.791	153.268	-54.753	-44.554	-84.565	-20.924	15.269	-85.690	-80.857	-48.755	-79.156	-81.505	-76.967	-76.753	-69.784	46.209	-71.827	-8191	255	
19511.490	1	1	0	0	0.22471	0.32878	0.23559	0.27036	0.18745	0.092299	0.21129	0.26486	0.24536	0.20604	0.15945	0.25219	0.16828	0.14411	0.17182	0.34134	-1.2271	-1.4813	-2.0167	-1.4854	-1.5896	-2.0375	-1.5042	-1.8646	-1.5021	-1.4042	-1.8583	-1.6354	-1.6042	-1.9062	-1.5104	-1.8167	13.730	106.555	257.596	226.499	41.166	113.669	-48.845	162.047	184.089	247.577	124.679	128.467	184.644	169.736	259.529	180.703	0.00037438	0.0001851	0.00010118	1157.5	2.8801e-06	5.0824e-06	1313.2	405.42	3.5513e-06	3.7598e-06	517.26	176.35	126.52	50.371	2.6639e-06	82.927	0.00010155	9.6702e-05	2.6597e-05	976.82	1.0513e-06	1.055e-06	1145.8	348.63	1.0541e-06	1.0457e-06	373.2	145.88	92.197	41.83	1.0592e-06	67.417	167.915	96.717	-29.322	-85.276	20.896	79.677	-85.966	-81.531	-33.474	-62.106	-82.716	-77.469	-77.245	-70.665	148.728	-72.131	-8191	255	
19511.609	1	1	0	0	0.16905	0.41057	0.15834	0.024453	0.19072	0.16588	0.26384	0.45136	0.084546	0.18203	0.16579	0.32269	0.34204	0.33863	0.30121	0.17897	-1.4146	-1.4479	-1.9333	-1.7437	-1.5208	-1.9542	-1.5542	-1.9625	-1.8312	-1.5354	-1.9813	-1.5542	-1.6229	-1.8188	-1.3417	-1.8875	-11.536	1.934	-11.510	-88.209	183.540	237.541	200.480	225.220	93.419	-98.945	217.224	174.192	-41.176	-2.217	24.732	198.090	0.00038157	0.00050058	8.1242e-05	1150.7	4.763e-06	1.0604e-06	1309.4	405.48	4.1033e-06	4.0419e-06	516.15	176.22	125.11	50.284	2.1305e-06	83.109	0.00010441	9.7041e-05	2.7467e-05	972.48	1.0627e-06	1.0597e-06	1139.9	347.47	1.0841e-06	1.0747e-06	372.86	145.89	91.581	41.583	1.0954e-06	67.476	145.982	-49.147	-32.588	-85.593	2.595	-1.553	-86.206	-81.621	50.478	42.166	-81.841	-77.603	-77.376	-70.696	129.228	-72.031	-8191	255	
19511.705	1	1	0	0	0.38181	0.32224	0.25432	0.22297	0.1176	0.10327	0.26209	0.16464	0.060597	0.18141	0.17778	0.15015	0.23313	0.29829	0.047743	0.22511	-1.1437	-1.3062	-1.8208	-1.7188	-1.5708	-1.7583	-1.6125	-1.6708	-2.0312	-1.375	-1.9188	-1.8729	-1.5896	-2.0021	-1.3083	-1.8021	222.410	30.430	104.163	249.629	259.320	158.587	198.959	160.204	-65.792	-82.113	198.977	158.058	176.686	229.617	14.445	202.459	0.00032299	0.00058587	0.00016955	1154	5.2191e-06	3.9415e-06	1307.7	405.09	2.0188e-06	8.3116e-06	515.32	174.82	124.99	49.982	2.6232e-06	82.452	0.00010636	0.00010168	2.8294e-05	974.9	1.14e-06	1.1386e-06	1145.3	348.24	1.1714e-06	1.1572e-06	375.13	145.3	92.227	41.473	1.1715e-06	66.985	175.084	-28.043	-48.198	-85.374	128.089	18.764	-86.176	-81.711	159.830	31.978	-81.854	-77.614	-77.571	-70.512	-79.334	-72.208	-8191	255	
19511.803	1	1	0	0	0.11927	0.11876	0.34386	0.10586	0.22806	0.19786	0.17207	0.24422	0.1808	0.45109	0.04486	0.22902	0.086959	0.19718	0.17368	0.38589	-1.3667	-1.3896	-1.7646	-1.7521	-1.4438	-1.9896	-1.7833	-1.7563	-1.8062	-1.5375	-1.7458	-1.9417	-1.3687	-2.1083	-1.5729	-1.6437	223.709	-11.432	-87.434	-64.256	140.674	161.998	205.749	-96.142	88.607	-70.575	213.757	-53.929	-73.901	216.129	148.238	211.006	0.00026033	0.00052036	0.00012978	1156.2	2.4962e-06	1.2204e-06	1311.8	406.49	3.5582e-06	1.9327e-06	518.54	176.39	126.52	50.058	2.6227e-06	82.471	0.0001111	0.00010577	2.9373e-05	975.36	1.1678e-06	1.1535e-06	1147.8	349.29	1.1823e-06	1.1764e-06	376.08	146.39	92.5	41.666	1.1848e-06	67.542	185.793	-18.115	-23.550	-85.453	43.499	54.998	-86.098	-81.786	13.925	-84.068	-82.292	-77.321	-77.489	-70.738	120.537	-71.879	-8191	255	
19511.924	1	1	0	0	0.028773	0.14497	0.23242	0.1312	0.27252	0.11857	0.20418	0.25675	0.16879	0.24017	0.0968	0.15581	0.19314	0.17745	0.17312	0.096455	-1.3438	-1.4333	-1.6208	-1.8521	-1.3563	-2.0812	-1.8833	-1.5875	-1.8667	-1.4208	-2.0021	-1.8917	-1.2917	-1.7854	-1.6958	-1.5333	66.090	95.328	-61.814	210.750	-26.274	-40.118	224.124	256.299	127.415	133.523	193.032	-8.449	101.044	158.997	-27.874	163.123	0.00053391	0.00022611	0.00017596	1150.3	2.2515e-06	1.9853e-06	1311.5	406.37	4.0831e-06	9.942e-06	517.08	176.49	125.43	50.148	3.839e-06	82.118	0.00011243	0.00010648	2.9625e-05	973.05	1.1602e-06	1.1511e-06	1144.2	348.49	1.1693e-06	1.1644e-06	374.64	145.95	92.227	41.69	1.1798e-06	67.141	163.235	129.835	235.822	-85.543	-34.047	16.800	-86.069	-81.719	69.002	-47.467	-82.269	-77.338	-77.177	-70.888	66.364	-72.243	-8191	255	
19511.994	1	1	0	0	0.03274	0.21654	0.13248	0.10161	0.20844	0.10954	0.26725	0.11154	0.2422	0.1155	0.27175	0.14312	0.11094	0.16865	0.10073	0.096961	-1.5917	-1.3417	-1.6604	-2.025	-1.4229	-1.9792	-1.7917	-1.8	-1.9417	-1.5229	-1.6437	-1.9458	-1.5833	-2.0417	-1.8	-1.5979	94.780	-38.785	-27.180	164.015	8.713	60.541	176.617	205.738	87.350	202.945	-85.807	239.233	222.857	185.849	211.111	-62.185	0.00034923	0.00036223	0.00011075	1154	2.657e-06	4.3729e-06	1308.7	403.31	3.0254e-06	4.9239e-06	516.2	175.33	125.27	49.945	1.4745e-06	82.268	0.0001138	0.0001091	3.0441e-05	977.04	1.2424e-06	1.2006e-06	1143.8	348.08	1.2421e-06	1.2215e-06	375.63	145.79	92.541	41.699	1.2728e-06	67.212	156.220	30.859	-53.728	-85.536	-74.786	-37.640	-86.034	-81.591	-0.418	-49.753	-82.499	-77.249	-77.417	-70.553	81.369	-71.945	-8191	255	
19512.092	1	1	0	0	0.17345	0.1527	0.25502	0.14855	0.124	0.11468	0.19579	0.2329	0.13376	0.1595	0.21134	0.20049	0.18653	0.12076	0.15376	0.34669	-1.6812	-1.5438	-1.5125	-1.9583	-1.4167	-1.8625	-1.95	-1.625	-1.7583	-1.4979	-1.4729	-2.025	-1.5667	-1.6437	-1.7083	-1.5604	50.817	205.491	18.490	72.525	48.321	96.382	249.187	-58.294	-63.444	118.245	213.457	-23.209	19.890	145.971	161.039	-81.288	0.00043201	6.4902e-05	0.00011295	1154.9	8.9106e-07	3.8478e-06	1305.4	405.09	2.164e-06	7.115e-06	514.34	174.3	125.5	49.946	1.9916e-06	82.723	0.00012163	0.00011712	3.24e-05	979.9	1.2724e-06	1.2569e-06	1144.3	348.84	1.2976e-06	1.2944e-06	375.74	145.54	92.535	41.863	1.274e-06	67.591	159.656	-1.248	-40.632	-85.162	-76.032	31.054	-85.855	-81.241	-73.964	21.626	-82.392	-77.913	-77.850	-70.690	72.964	-71.937	-8191	255	
19512.188	1	1	0	0	0.059394	0.34882	0.21161	0.23051	0.12195	0.24273	0.25753	0.089171	0.22788	0.043483	0.068354	0.069041	0.33589	0.19635	0.10299	0.2837	-1.5063	-1.6542	-1.5229	-1.9958	-1.5	-1.8292	-2.1479	-1.4813	-1.8563	-1.7979	-1.5375	-2.1792	-1.4688	-1.5292	-1.725	-1.6521	184.514	210.360	48.997	-92.343	112.260	102.299	220.336	248.752	84.785	26.272	90.252	211.425	-54.687	208.701	-84.529	231.935	0.00029698	0.00018546	6.1385e-05	1152.1	2.9084e-06	2.7331e-06	1311.5	406.44	4.2888e-06	9.121e-06	518.78	175.73	125.66	50.865	3.4737e-06	83.446	0.0001208	0.00011553	3.2036e-05	979.62	1.2907e-06	1.2644e-06	1148.9	348.96	1.2643e-06	1.2689e-06	376.82	146.26	93.083	42.292	1.2626e-06	68.116	180.821	-5.776	-28.414	-84.670	-97.653	58.389	-85.766	-81.143	27.980	34.838	-81.695	-76.820	-76.724	-70.005	44.310	-71.644	-8191	255	
19512.307	1	1	0	0	0.055479	0.27784	0.19931	0.19595	0.067366	0.080798	0.34002	0.27792	0.066633	0.19306	0.16607	0.27921	0.22981	0.18787	0.36545	0.055759	-1.4688	-1.6146	-1.3438	-2.0896	-1.4792	-1.7292	-2.1896	-1.5708	-1.8875	-1.7354	-1.625	-1.9917	-1.5021	-1.6354	-1.8896	-1.5083	154.509	112.244	225.854	237.868	57.205	55.450	201.273	258.034	-81.445	14.738	-58.535	246.835	-75.281	145.555	-56.966	233.125	0.00047	4.3531e-05	0.000217	1156.6	5.1608e-06	4.7366e-06	1316.3	404.79	4.8336e-06	2.8723e-06	518.55	176.14	126.68	50.412	4.043e-06	83.757	0.00012132	0.00011442	3.1618e-05	981.73	1.2698e-06	1.2431e-06	1149.3	347.83	1.2555e-06	1.2361e-06	375.6	146.27	92.779	42.093	1.2324e-06	67.947	147.731	97.633	-74.712	-85.201	-72.785	-19.335	-85.546	-81.257	0.661	65.114	-81.213	-76.689	-76.769	-70.005	21.572	-71.507	-8191	255	
19512.402	1	1	0	0	0.14615	0.13574	0.15248	0.16889	0.038658	0.075213	0.020362	0.19282	0.037546	0.041381	0.13316	0.20203	0.27405	0.15672	0.19454	0.27694	-1.4021	-1.7854	-1.6021	-2.1479	-1.7646	-1.6604	-2.1542	-1.5792	-1.9438	-1.8917	-1.5833	-2.0417	-1.6625	-1.7958	-2.0354	-1.65	179.359	64.398	83.777	-72.162	202.351	29.459	233.253	152.577	195.261	1.044	226.669	184.712	-33.877	166.512	235.718	136.443	0.00050058	0.00031206	0.00022308	1150.7	3.8728e-06	3.8675e-06	1317.6	407.58	7.7436e-07	2.4142e-06	519.73	174.81	126.04	50.455	3.2592e-06	82.755	0.00011651	0.00011094	3.0687e-05	975.33	1.2184e-06	1.1925e-06	1143.9	348.41	1.1973e-06	1.1622e-06	375.44	145.57	92.325	41.866	1.1965e-06	67.43	170.880	-54.834	-54.665	-84.910	-13.091	49.897	-85.356	-81.327	-36.227	-22.324	-81.541	-76.848	-76.618	-69.746	65.244	-71.842	-8191	255	
19512.498	1	1	0	0	0.12201	0.18463	0.08366	0.27953	0.24839	0.11165	0.31616	0.31161	0.23856	0.17308	0.069409	0.26575	0.1667	0.3798	0.25899	0.41039	-1.2396	-1.9583	-1.5417	-1.8104	-1.8771	-1.4604	-2.0917	-1.6021	-1.7938	-1.7979	-1.5229	-2.0125	-1.85	-1.525	-1.7167	-1.7375	103.544	-72.684	188.572	-18.305	156.492	252.936	233.594	195.504	-0.908	201.769	178.976	251.122	-1.383	27.451	-92.462	221.784	0.00053965	0.00014505	9.0278e-05	1159.5	1.0749e-06	1.1757e-06	1313.6	407.07	4.6525e-06	4.8811e-06	515.47	174.71	126.37	50.175	7.0244e-06	82.838	0.00011464	0.0001093	3.0153e-05	979.84	1.1822e-06	1.1857e-06	1147.1	348.89	1.2096e-06	1.2167e-06	377.11	145.54	92.456	41.967	1.2429e-06	67.542	168.257	-96.616	248.259	-85.656	161.537	96.789	-86.028	-81.984	-52.101	10.875	-82.472	-77.685	-77.549	-70.885	38.050	-72.177	-8191	255	
19512.594	1	1	0	0	0.18827	0.033953	0.3368	0.14364	0.15997	0.14555	0.098038	0.13886	0.074707	0.074067	0.19115	0.23394	0.14629	0.055446	0.2683	0.12465	-1.1875	-1.9292	-1.4854	-1.8208	-1.6979	-1.4937	-2.0271	-1.525	-1.6458	-1.9625	-1.4667	-1.9062	-1.7938	-1.5146	-1.8062	-1.7313	64.000	16.630	72.152	-49.673	-79.613	122.485	25.640	185.917	167.689	-76.227	-93.800	231.725	128.174	-32.100	42.805	136.183	0.00044202	9.0514e-05	0.00014915	1162.4	2.2594e-06	5.4545e-06	1319.6	409.93	3.2456e-06	7.0348e-06	521.39	177.06	126.9	51.321	2.4632e-06	84.217	0.00011785	0.00011274	3.1207e-05	986.12	1.2464e-06	1.2294e-06	1153.5	350.45	1.2218e-06	1.1991e-06	378.22	146.89	93.199	42.518	1.1649e-06	68.633	172.627	31.263	14.898	-85.838	-18.973	51.114	-85.581	-81.483	-40.199	10.921	-82.415	-77.922	-78.142	-70.794	199.853	-72.169	-8191	255	
19512.689	1	1	0	0	0.22448	0.13033	0.16051	0.21678	0.094933	0.18058	0.2058	0.35043	0.18155	0.20636	0.13079	0.093488	0.15576	0.1048	0.11604	0.1979	-1.1583	-1.7021	-1.4	-1.8062	-1.9354	-1.3417	-2.0854	-1.7625	-1.5021	-1.9458	-1.4813	-1.6521	-1.8875	-1.3687	-1.8083	-1.7083	9.611	-54.331	-37.991	242.630	88.014	258.927	206.528	175.671	-37.140	-3.258	180.280	-60.070	247.698	190.383	119.081	169.865	0.00043915	0.000116	0.00015794	1157.6	1.7144e-06	3.0302e-06	1325.4	410.89	4.9728e-06	2.5845e-06	526.7	176.97	128.02	51.267	6.9945e-06	83.673	0.000113	0.00010592	2.9897e-05	984.45	1.1899e-06	1.1819e-06	1159	352.57	1.1985e-06	1.2033e-06	382	147.4	93.91	42.64	1.2881e-06	68.449	152.609	-37.582	-88.075	-85.826	-27.332	61.274	-86.658	-81.929	-21.306	-19.130	-82.403	-77.640	-77.170	-70.034	64.760	-71.872	-8191	255	
19512.785	1	1	0	0	0.073785	0.075877	0.083535	0.14934	0.068667	0.045735	0.31099	0.10804	0.072815	0.46725	0.13607	0.063338	0.1096	0.2056	0.21858	0.046825	-1.0812	-1.8792	-1.5396	-1.8771	-1.6625	-1.35	-1.9333	-1.8333	-1.3563	-1.7479	-1.3271	-1.7458	-1.9292	-1.5917	-1.8125	-1.9062	10.260	171.642	119.370	-4.450	-7.914	17.059	195.786	74.607	-39.400	-84.943	227.245	214.816	197.341	-96.647	65.137	15.888	0.0005186	0.00026841	0.00016423	1169.8	3.7112e-06	1.4586e-06	1325.8	408.56	3.2536e-06	1.9397e-06	519.73	175.3	125.44	50.579	7.1341e-06	82.107	0.00012399	0.00012076	3.3666e-05	994.21	1.3516e-06	1.3307e-06	1165.4	351.63	1.3688e-06	1.3446e-06	380.49	146.19	93.4	42.248	1.3534e-06	67.238	142.709	-60.886	246.758	-85.566	69.218	-34.211	-86.389	-81.960	-88.819	87.049	-82.353	-77.881	-77.939	-70.748	-36.459	-72.425	-8191	255	
19512.883	1	1	0	0	0.084972	0.1592	0.13462	0.12446	0.15078	0.15311	0.18086	0.095223	0.14694	0.053118	0.35237	0.1578	0.29603	0.044694	0.086863	0.28184	-1.0771	-2.1417	-1.4646	-1.65	-1.8333	-1.4583	-1.9479	-1.8625	-1.6479	-2.0104	-1.6229	-1.6229	-1.9083	-1.6479	-1.9583	-1.9375	58.156	143.609	70.523	216.238	143.619	-55.303	257.833	163.559	15.794	19.974	256.611	241.949	-86.111	-76.078	-32.274	239.709	0.00035294	7.9745e-05	0.00031939	1163.3	2.6371e-06	2.6044e-06	1320.7	405.47	3.0439e-06	2.5681e-06	517.13	175.2	125.29	50.766	4.9077e-06	83.002	0.00012765	0.00012279	3.3506e-05	986.18	1.2994e-06	1.2826e-06	1155.1	348.91	1.2459e-06	1.2141e-06	376.86	145.55	92.334	42.212	1.1977e-06	67.72	170.437	201.404	-44.823	-85.604	235.432	-25.882	-85.887	-81.840	9.302	68.199	-82.278	-77.578	-77.817	-70.433	-45.267	-71.870	-8191	255	
19513.004	1	1	0	0	0.23813	0.17452	0.13044	0.083582	0.12208	0.21282	0.085444	0.20392	0.11213	0.30161	0.20849	0.20529	0.16004	0.24189	0.2282	0.1856	-1.1063	-1.9208	-1.5938	-1.8542	-1.9229	-1.4729	-1.8333	-1.8479	-1.2792	-2.0271	-1.6521	-1.5042	-2.1437	-1.5417	-1.6729	-2.0146	164.148	-8.796	121.756	181.169	11.783	24.942	236.918	259.213	217.094	229.411	212.025	226.955	49.376	176.879	143.940	169.028	0.00039474	0.00045617	1.6097e-05	1169.1	1.551e-06	5.8708e-06	1320.8	408.81	4.3379e-06	5.7911e-06	521.59	176.72	126.69	50.792	5.6746e-06	83.637	0.00011268	0.00010586	2.9383e-05	985.22	1.137e-06	1.1474e-06	1157.4	350.46	1.1605e-06	1.1384e-06	377.2	146.58	92.787	42.268	1.1911e-06	67.92	175.304	-37.285	133.408	-85.096	49.339	38.948	-85.838	-81.219	-93.019	-92.345	-82.164	-77.816	-77.582	-70.507	42.725	-72.090	-8191	255	
19513.100	1	1	0	0	0.18931	0.10569	0.22877	0.16731	0.11143	0.089812	0.17771	0.40991	0.13551	0.24713	0.2682	0.4234	0.059695	0.12324	0.17189	0.22377	-0.98958	-1.8333	-1.7062	-1.4937	-2.0604	-1.4833	-1.8583	-2.0167	-1.6125	-1.7458	-1.6292	-1.475	-2.0062	-1.8625	-1.6417	-1.9583	-77.142	-83.868	-73.199	257.548	139.356	129.035	-93.145	249.773	96.569	145.681	164.017	248.701	247.695	203.392	-48.828	249.731	0.00039082	0.00030561	4.8967e-05	1169.1	1.0506e-06	2.7734e-06	1330.6	409.2	2.0564e-06	4.9023e-06	519.85	175.82	125.81	50.186	5.3587e-06	82.297	0.00011393	0.00010968	3.1071e-05	990.76	1.2247e-06	1.2183e-06	1163.4	350.52	1.2186e-06	1.1873e-06	377.33	145.65	92.384	41.764	1.1766e-06	66.961	162.677	-40.706	-47.127	-85.868	20.458	72.677	-86.295	-81.958	-67.666	-22.700	-82.250	-77.492	-77.222	-70.900	12.329	-71.993	-8191	255	
19513.195	1	1	0	0	0.15953	0.016729	0.12027	0.02086	0.1668	0.15745	0.33567	0.079022	0.03915	0.16669	0.2315	0.23108	0.21708	0.3163	0.17955	0.43367	-1.2083	-1.8042	-1.8771	-1.5667	-2.1188	-1.7542	-1.6146	-2.0812	-1.5812	-1.7458	-1.9854	-1.3771	-2.0521	-1.8458	-1.4521	-1.95	239.319	-10.650	257.620	255.415	152.945	69.051	148.545	166.827	87.341	24.138	256.204	194.077	-61.131	-58.581	158.271	205.814	0.0004607	0.0005255	8.3314e-05	1160	1.6363e-06	8.3719e-07	1323	404.19	3.1403e-06	4.0348e-06	521.31	175	123.65	49.482	6.8913e-07	80.632	0.00011251	0.00010526	2.8911e-05	982.66	1.1329e-06	1.0995e-06	1154.8	347.16	1.092e-06	1.0687e-06	373.42	144.47	90.401	40.971	1.0255e-06	65.581	160.474	-7.716	15.257	-85.616	59.652	159.699	-86.021	-81.863	-59.475	-6.768	-82.161	-77.425	-77.025	-70.496	65.715	-71.678	-8191	255	
19513.293	1	1	0	0	0.26658	0.15011	0.19858	0.22617	0.079343	0.10771	0.42827	0.4553	0.16006	0.05792	0.21994	0.24701	0.024866	0.24092	0.15752	0.21158	-1.0021	-1.7875	-1.8687	-1.5375	-2.0375	-1.825	-1.7958	-2.0458	-1.4458	-1.8771	-1.8667	-1.45	-1.8104	-1.7104	-1.5438	-2.2583	216.960	4.071	-21.536	-13.939	-42.832	161.503	170.569	178.605	120.029	201.304	-71.153	220.145	56.580	159.904	-13.849	64.918	0.00039836	0.00057882	0.00022051	1150.9	2.4789e-06	3.042e-06	1304.3	404.39	9.2647e-07	3.2884e-06	520.49	173.69	124.46	48.912	7.6133e-06	80.738	9.5655e-05	8.8974e-05	2.397e-05	968.55	9.3115e-07	9.1046e-07	1135.2	346.08	9.0336e-07	8.8206e-07	369.23	143.84	89.761	40.534	8.6554e-07	65.285	162.224	-35.905	-80.581	-85.243	-24.281	69.288	-85.937	-81.627	50.711	24.513	-82.220	-77.505	-76.858	-70.649	61.662	-71.858	-8191	255	
#DATA ENDS
