BOXY.EXE: ISS Imagent and Oximeter Data Acquisition Program Version 0.80
Ascii Record File

#ACQ INFORMATION
2  Detector Channels 
16  External MUX Channels 
1  Auxiliary Channels 
5000  Waveform (CCF) Frequency (Hz)
1  Waveforms Skipped 
30  Waveforms Averaged 
1  Cycles Averaged 
16  Acquisitions per Waveform 
10.0806  Updata Rate (Hz) 

#FILE INFORMATION
TRUE -- External MUX Channel results are PARSED.
FALSE -- AC DC and Phase are NOT grouped.
TRUE -- Companion Program Settings File CREATED.
FALSE -- AC data not excluded
FALSE -- DC data not excluded
FALSE -- Phase data not excluded
FALSE -- Auxillary Chn. data not excluded
Tab delimiters

#CALIBRATION STATE
TRUE -- Waveform Calibration Values APPLIED.


#AUX CALIBRATION VALUES
Val Type	aux-1	

Term	1.0000e+00	
Factor	0.0000e+00	


#WF CALIBRATION VALUES
A = Detector Channel
Val Type	A-AC1	A-AC2	A-AC3	A-AC4	A-AC5	A-AC6	A-AC7	A-AC8	A-AC9	A-AC10	A-AC11	A-AC12	A-AC13	A-AC14	A-AC15	A-AC16	A-DC1	A-DC2	A-DC3	A-DC4	A-DC5	A-DC6	A-DC7	A-DC8	A-DC9	A-DC10	A-DC11	A-DC12	A-DC13	A-DC14	A-DC15	A-DC16	A-Ph1	A-Ph2	A-Ph3	A-Ph4	A-Ph5	A-Ph6	A-Ph7	A-Ph8	A-Ph9	A-Ph10	A-Ph11	A-Ph12	A-Ph13	A-Ph14	A-Ph15	A-Ph16	

Term	0.00000e+00	0.00000e+00	0.00000e+00	0.00000e+00	0.00000e+00	0.00000e+00	0.00000e+00	0.00000e+00	0.00000e+00	0.00000e+00	0.00000e+00	0.00000e+00	0.00000e+00	0.00000e+00	0.00000e+00	0.00000e+00	0.00000e+00	0.00000e+00	0.00000e+00	0.00000e+00	0.00000e+00	0.00000e+00	0.00000e+00	0.00000e+00	0.00000e+00	0.00000e+00	0.00000e+00	0.00000e+00	0.00000e+00	0.00000e+00	0.00000e+00	0.00000e+00	0.00000e+00	0.00000e+00	0.00000e+00	0.00000e+00	0.00000e+00	0.00000e+00	0.00000e+00	0.00000e+00	0.00000e+00	0.00000e+00	0.00000e+00	0.00000e+00	0.00000e+00	0.00000e+00	0.00000e+00	0.00000e+00	
Factor	1.00000e+00	1.00000e+00	1.00000e+00	1.00000e+00	1.00000e+00	1.00000e+00	1.00000e+00	1.00000e+00	1.00000e+00	1.00000e+00	1.00000e+00	1.00000e+00	1.00000e+00	1.00000e+00	1.00000e+00	1.00000e+00	1.00000e+00	1.00000e+00	1.00000e+00	1.00000e+00	1.00000e+00	1.00000e+00	1.00000e+00	1.00000e+00	1.00000e+00	1.00000e+00	1.00000e+00	1.00000e+00	1.00000e+00	1.00000e+00	1.00000e+00	1.00000e+00	X	X	X	X	X	X	X	X	X	X	X	X	X	X	X	X	

B = Detector Channel
Val Type	B-AC1	B-AC2	B-AC3	B-AC4	B-AC5	B-AC6	B-AC7	B-AC8	B-AC9	B-AC10	B-AC11	B-AC12	B-AC13	B-AC14	B-AC15	B-AC16	B-DC1	B-DC2	B-DC3	B-DC4	B-DC5	B-DC6	B-DC7	B-DC8	B-DC9	B-DC10	B-DC11	B-DC12	B-DC13	B-DC14	B-DC15	B-DC16	B-Ph1	B-Ph2	B-Ph3	B-Ph4	B-Ph5	B-Ph6	B-Ph7	B-Ph8	B-Ph9	B-Ph10	B-Ph11	B-Ph12	B-Ph13	B-Ph14	B-Ph15	B-Ph16	

Term	0.00000e+00	0.00000e+00	0.00000e+00	0.00000e+00	0.00000e+00	0.00000e+00	0.00000e+00	0.00000e+00	0.00000e+00	0.00000e+00	0.00000e+00	0.00000e+00	0.00000e+00	0.00000e+00	0.00000e+00	0.00000e+00	0.00000e+00	0.00000e+00	0.00000e+00	0.00000e+00	0.00000e+00	0.00000e+00	0.00000e+00	0.00000e+00	0.00000e+00	0.00000e+00	0.00000e+00	0.00000e+00	0.00000e+00	0.00000e+00	0.00000e+00	0.00000e+00	-1.16717e+02	-1.28277e+02	-1.24506e+02	-1.84222e+02	-6.48796e+01	-7.37143e+01	-1.55551e+02	-1.62015e+02	-6.77154e+01	-7.63690e+01	-1.85578e+02	-1.70212e+02	-1.86462e+02	-1.76328e+02	-7.41004e+01	-1.49054e+02	
Factor	1.76598e-05	1.99690e-04	4.62465e-05	2.35127e-01	1.54018e-06	2.15216e-06	1.68154e-01	5.23665e-02	1.25402e-06	1.89719e-06	2.11363e-01	3.03039e-02	6.28153e-02	9.25575e-03	1.72904e-06	1.34168e-02	5.03454e-06	6.21185e-06	1.73046e-06	1.19993e-01	6.64790e-08	6.80636e-08	8.13144e-02	2.69714e-02	6.62130e-08	6.81072e-08	1.03436e-01	1.51751e-02	3.23738e-02	4.78296e-03	6.70269e-08	6.72889e-03	X	X	X	X	X	X	X	X	X	X	X	X	X	X	X	X	



#DISTANCE SETTINGS
A = Detector Channel
A-1	A-2	A-3	A-4	A-5	A-6	A-7	A-8	A-9	A-10	A-11	A-12	A-13	A-14	A-15	A-16	

2.5000e+00	3.0000e+00	2.5000e+00	3.0000e+00	2.0000e+00	3.0000e+00	1.5000e+00	3.0000e+00	3.0000e+00	3.0000e+00	3.0000e+00	3.0000e+00	3.0000e+00	3.0000e+00	1.5000e+00	3.0000e+00	

B = Detector Channel
B-1	B-2	B-3	B-4	B-5	B-6	B-7	B-8	B-9	B-10	B-11	B-12	B-13	B-14	B-15	B-16	

1.0000e+01	1.0000e+01	1.0000e+01	1.4400e+00	1.0000e+01	1.0000e+01	1.5100e+00	1.9400e+00	1.0000e+01	1.0000e+01	1.9900e+00	2.4900e+00	2.4100e+00	2.9000e+00	1.0000e+01	2.9800e+00	




#DATA BEGINS
time	group	step	mark	flag	A-AC1	A-AC2	A-AC3	A-AC4	A-AC5	A-AC6	A-AC7	A-AC8	A-AC9	A-AC10	A-AC11	A-AC12	A-AC13	A-AC14	A-AC15	A-AC16	A-DC1	A-DC2	A-DC3	A-DC4	A-DC5	A-DC6	A-DC7	A-DC8	A-DC9	A-DC10	A-DC11	A-DC12	A-DC13	A-DC14	A-DC15	A-DC16	A-Ph1	A-Ph2	A-Ph3	A-Ph4	A-Ph5	A-Ph6	A-Ph7	A-Ph8	A-Ph9	A-Ph10	A-Ph11	A-Ph12	A-Ph13	A-Ph14	A-Ph15	A-Ph16	B-AC1	B-AC2	B-AC3	B-AC4	B-AC5	B-AC6	B-AC7	B-AC8	B-AC9	B-AC10	B-AC11	B-AC12	B-AC13	B-AC14	B-AC15	B-AC16	B-DC1	B-DC2	B-DC3	B-DC4	B-DC5	B-DC6	B-DC7	B-DC8	B-DC9	B-DC10	B-DC11	B-DC12	B-DC13	B-DC14	B-DC15	B-DC16	B-Ph1	B-Ph2	B-Ph3	B-Ph4	B-Ph5	B-Ph6	B-Ph7	B-Ph8	B-Ph9	B-Ph10	B-Ph11	B-Ph12	B-Ph13	B-Ph14	B-Ph15	B-Ph16	aux-1	digaux	

26801.902	1	1	0	768	0.17944	0.052361	0.081627	0.15183	0.12635	0.098138	0.26691	0.32799	0.18604	0.049815	0.088259	0.1164	0.48839	0.21187	0.078777	0.27914	-1.2271	-1.8	-1.3958	-1.9104	-1.7062	-1.6271	-2.1771	-1.575	-1.6833	-1.9229	-1.4396	-2.1021	-1.6229	-1.6479	-2.0729	-1.5562	-77.029	133.678	191.379	-83.384	83.746	-77.988	197.874	-37.527	121.231	49.423	32.776	-1.518	237.715	204.452	-60.997	206.236	0.00019871	0.0006183	8.0195e-05	1376	1.0535e-06	6.5672e-06	1371.2	370.71	3.5084e-06	1.1079e-06	424.66	141.19	120.6	42.413	2.2034e-06	52.508	0.00052295	0.00057297	0.00015988	1385.4	6.2608e-06	6.2653e-06	1383.3	375.51	6.2953e-06	6.2847e-06	429.78	144.04	125.26	43.301	6.3438e-06	53.502	198.776	-1.399	26.320	-85.490	-73.666	44.291	-85.412	-81.011	27.618	92.942	-81.489	-77.168	-76.790	-72.119	-70.657	-72.458	-8191	255	
26801.998	1	1	0	0	0.11784	0.066485	0.27078	0.16016	0.40033	0.26041	0.35284	0.15892	0.12191	0.20503	0.25292	0.403	0.074487	0.34693	0.26703	0.093113	-1.2188	-1.9438	-1.5812	-2.0458	-1.6292	-1.4208	-2.2062	-1.6292	-1.6958	-1.9979	-1.4833	-1.9562	-1.8896	-1.5063	-1.7938	-1.8708	43.549	213.882	-7.480	188.644	218.562	-44.057	196.912	138.085	78.519	-67.183	19.562	246.691	242.448	160.573	-46.355	126.810	0.00018052	0.00056779	0.00016092	1381.2	5.9058e-06	4.6748e-06	1375	371.05	1.501e-06	4.9199e-06	427.53	141.23	121.09	42.519	4.5345e-06	52.45	0.00053469	0.00057819	0.00016127	1386.1	6.3893e-06	6.3282e-06	1385.1	376.17	6.374e-06	6.2693e-06	430.47	143.94	125.24	43.232	6.2272e-06	53.427	214.214	28.020	-30.901	-85.640	49.405	24.592	-85.562	-80.894	55.240	48.840	-81.478	-76.975	-76.687	-71.979	38.478	-72.965	-8191	255	
26802.096	1	1	0	0	0.052817	0.13232	0.18057	0.23407	0.34843	0.030387	0.36458	0.19913	0.071362	0.24091	0.20791	0.11501	0.10657	0.12875	0.17668	0.039864	-1.0312	-1.9646	-1.3854	-1.9979	-1.7437	-1.6104	-2.1042	-1.8229	-1.6292	-2.1333	-1.4979	-1.8813	-1.8708	-1.5583	-1.6354	-1.7062	46.597	184.218	97.228	254.462	88.237	225.166	258.551	257.042	198.875	225.919	-7.805	19.464	110.620	107.742	85.210	-18.200	0.00017722	0.00054941	0.00011565	1374.7	3.2269e-06	3.3919e-06	1373.4	370.22	1.8588e-06	8.1261e-06	422.91	140.88	120.93	42.499	3.4535e-06	52.557	0.00053071	0.00057251	0.00016184	1385.4	6.3154e-06	6.3513e-06	1384.5	375.7	6.4258e-06	6.2869e-06	428.3	143.89	125.19	43.301	6.3392e-06	53.546	210.218	0.830	-1.230	-85.485	-41.054	52.088	-85.427	-81.189	-17.795	50.131	-81.392	-77.002	-77.202	-72.175	9.810	-72.603	-8191	255	
26802.191	1	1	0	0	0.033529	0.17801	0.073855	0.11675	0.099579	0.093168	0.044687	0.031851	0.053341	0.20538	0.14081	0.3187	0.01027	0.25983	0.36035	0.16821	-1.1667	-1.9917	-1.7396	-1.6437	-1.9167	-1.6271	-2.1958	-1.8771	-1.4604	-2.1021	-1.7208	-1.7313	-1.8854	-1.6104	-1.8729	-1.9188	-23.409	44.200	106.268	-77.390	-25.904	173.616	208.037	3.948	246.669	74.257	253.352	235.989	197.969	229.201	-11.792	235.877	0.0001484	0.00081816	0.00018552	1380.5	5.0706e-06	8.0078e-06	1379.4	371.26	2.4988e-06	5.1142e-06	424.95	141.25	121.71	42.537	6.4513e-06	52.481	0.00052914	0.00058192	0.00016195	1389.6	6.2489e-06	6.4302e-06	1386.3	375.96	6.366e-06	6.3604e-06	430.1	144.08	125.53	43.281	6.3392e-06	53.531	210.410	-24.438	-24.586	-85.704	29.642	42.697	-85.433	-81.022	41.292	28.178	-81.710	-77.213	-77.114	-72.150	40.502	-72.538	-8191	255	
26802.287	1	1	0	0	0.25128	0.18283	0.17488	0.19183	0.18947	0.13107	0.13214	0.21033	0.18858	0.095666	0.20508	0.17276	0.14723	0.33331	0.24019	0.040045	-1.2646	-2.0146	-1.6688	-1.7292	-1.7687	-1.6271	-2.1646	-2.0125	-1.6333	-2.0167	-1.775	-1.6208	-1.9792	-1.725	-1.7458	-1.9917	167.372	132.819	38.726	141.992	150.420	-37.854	102.585	227.030	-63.866	126.327	-11.833	161.052	103.176	213.072	-1.261	109.038	0.00016402	0.00012921	0.00011584	1380.3	3.9448e-06	1.0735e-05	1375.4	370.66	2.3916e-06	2.8567e-06	425.01	140.71	120.55	42.384	3.2672e-06	52.492	0.00052766	0.00057275	0.00016444	1385.9	6.2992e-06	6.2745e-06	1384.6	375.8	6.3592e-06	6.2308e-06	429.19	143.68	124.95	43.244	6.3571e-06	53.498	207.029	36.949	-3.130	-85.610	87.277	45.034	-85.485	-81.182	76.257	72.429	-81.229	-76.974	-77.208	-72.075	70.282	-72.742	-8191	255	
26802.383	1	1	0	0	0.20455	0.31184	0.041346	0.21051	0.099227	0.20704	0.32616	0.070909	0.2379	0.10827	0.17855	0.23429	0.12378	0.085578	0.44708	0.12825	-1.2188	-1.6917	-1.5458	-1.8875	-2.0812	-1.5625	-1.8396	-2.1	-1.2458	-1.8771	-1.8771	-1.7896	-2.1104	-1.6812	-1.8667	-2.2271	210.919	229.589	-73.981	-24.659	-80.547	240.764	197.738	-46.487	13.704	-11.001	240.639	200.877	91.624	-49.500	-38.849	170.130	0.00019589	0.00055342	8.3213e-05	1375.5	4.8542e-06	4.237e-06	1371.9	370.92	3.8731e-06	2.8885e-06	424.97	141.08	120.97	42.385	3.6954e-06	52.648	0.00053061	0.00058611	0.00016159	1384	6.2638e-06	6.3437e-06	1384.7	375.59	6.4102e-06	6.3809e-06	429.48	143.72	124.95	43.208	6.3322e-06	53.546	210.425	1.458	-54.844	-85.567	39.982	52.568	-85.496	-81.054	26.296	43.872	-81.489	-77.008	-76.991	-72.081	-6.912	-72.383	-8191	255	
26802.504	1	1	0	0	0.09075	0.076838	0.21113	0.23311	0.20128	0.19619	0.21693	0.19966	0.16738	0.32421	0.25013	0.08955	0.059713	0.26744	0.06606	0.25918	-0.91875	-1.95	-1.6917	-1.7479	-2.0333	-1.6646	-2.1104	-1.9833	-1.4854	-2.0125	-1.7812	-1.4854	-2.1562	-1.8563	-1.7958	-2.0021	87.258	-94.628	56.764	188.356	235.943	-82.606	217.232	206.011	250.831	108.190	-92.904	169.581	48.846	175.096	-14.898	203.365	0.00022688	0.00059468	0.00018337	1379.8	3.6908e-06	5.0474e-06	1374.7	370.47	1.6737e-06	5.6641e-06	426.97	141.27	121.92	42.25	3.0091e-06	52.432	0.0005339	0.0005764	0.00016291	1385.6	6.3368e-06	6.3006e-06	1385.8	375.99	6.4796e-06	6.2775e-06	430.01	143.79	125.34	43.19	6.3381e-06	53.412	205.598	37.839	-4.926	-85.354	50.112	54.113	-85.414	-81.137	-3.722	16.161	-81.380	-77.085	-76.755	-72.162	35.971	-72.549	-8191	255	
26802.598	1	1	0	0	0.12774	0.22046	0.16949	0.29453	0.11879	0.103	0.04794	0.12202	0.076692	0.13411	0.12528	0.25778	0.096937	0.15069	0.041516	0.19261	-1.1604	-1.9583	-1.9896	-1.4854	-2.1979	-1.6354	-1.9188	-2.175	-1.7125	-1.8813	-1.8729	-1.6396	-2.2104	-1.9104	-1.7229	-2.0854	164.431	2.757	74.546	219.244	98.219	252.578	204.545	259.555	-1.091	94.583	63.091	128.431	-38.096	-1.181	130.188	221.915	0.00022058	0.00067943	5.1869e-05	1376.7	2.4185e-06	5.8029e-06	1368.5	369.78	1.0928e-06	7.3656e-06	424.39	141.32	121.37	42.571	4.3864e-06	52.409	0.00053082	0.00057781	0.00015916	1383.4	6.2927e-06	6.2928e-06	1382.2	374.86	6.2269e-06	6.3351e-06	429.76	143.99	125.37	43.285	6.3722e-06	53.413	197.147	-30.783	-5.869	-85.573	87.372	35.329	-85.303	-81.028	170.517	58.856	-81.743	-77.312	-76.949	-72.059	48.988	-72.791	-8191	255	
26802.693	1	1	0	0	0.25396	0.23369	0.034312	0.0088641	0.16392	0.080839	0.30585	0.34771	0.18306	0.21809	0.051138	0.32247	0.084578	0.19142	0.10527	0.18177	-1.1812	-1.7958	-1.9396	-1.5604	-2.0625	-1.75	-1.9146	-2.1729	-1.4646	-1.8208	-1.8167	-1.6583	-1.9062	-2.0354	-1.6125	-2.1542	69.557	0.332	12.469	237.139	9.573	-43.586	200.122	133.022	-56.861	20.840	5.315	252.296	-31.090	245.113	158.050	142.156	0.00015377	0.00045339	0.00012737	1380.8	4.7653e-06	6.943e-06	1375.5	371.47	1.281e-06	6.35e-06	422.73	140.67	121.73	42.326	4.4381e-06	52.382	0.00053781	0.00056998	0.00016188	1387.1	6.3494e-06	6.3729e-06	1386.8	376.4	6.3832e-06	6.3711e-06	428.79	144.03	125.55	43.308	6.3245e-06	53.574	204.735	22.065	-4.868	-85.526	38.731	37.625	-85.550	-81.007	24.622	22.109	-81.616	-77.363	-76.921	-71.938	70.524	-72.754	-8191	255	
26802.789	1	1	0	0	0.1685	0.12704	0.094164	0.058175	0.22909	0.052037	0.30505	0.26101	0.13649	0.15448	0.26086	0.2188	0.1781	0.15456	0.25429	0.15204	-1.275	-1.7833	-1.9583	-1.5771	-2.0333	-1.6958	-1.8062	-2.2	-1.6479	-1.6688	-2.125	-1.5167	-1.8417	-1.7625	-1.4104	-2.2708	202.104	237.063	180.981	239.764	199.974	73.514	199.154	234.413	-3.726	17.535	-15.629	216.638	236.532	-63.455	-7.592	245.309	0.00019575	0.00082694	7.7602e-05	1380.5	2.9429e-06	8.4035e-06	1373.6	372.12	4.3775e-06	4.1993e-06	426.56	140.87	120.89	42.516	4.2903e-06	52.499	0.00053834	0.00057473	0.00016246	1386.8	6.2468e-06	6.2637e-06	1384.1	376.15	6.3574e-06	6.3035e-06	429.69	143.84	125.12	43.315	6.4175e-06	53.487	192.842	5.479	-3.772	-85.613	65.509	77.526	-85.571	-81.112	19.511	20.138	-81.736	-77.193	-76.905	-72.084	-15.165	-72.685	-8191	255	
26802.887	1	1	0	0	0.075566	0.17167	0.1139	0.11317	0.37782	0.30761	0.19427	0.11853	0.22119	0.15633	0.17045	0.17242	0.21276	0.30073	0.021414	0.18634	-1.2687	-1.6583	-1.9896	-1.525	-1.6125	-1.8542	-1.6021	-2.2271	-1.6708	-1.4354	-2.0438	-1.5875	-1.8042	-1.9604	-1.5146	-2.1625	235.533	-69.020	-18.590	-91.701	115.135	-12.863	206.177	189.434	244.805	-53.410	135.239	125.568	-82.865	183.021	-27.936	-78.959	0.00017547	0.0007511	0.00011659	1379.1	2.6626e-06	9.5345e-06	1377	371.65	2.1882e-06	6.3889e-06	422.29	141.25	120.84	42.563	5.4972e-06	52.601	0.00053364	0.00058452	0.00016272	1384.7	6.2968e-06	6.3291e-06	1387.3	376.17	6.4541e-06	6.3504e-06	429.16	143.97	125.15	43.313	6.4044e-06	53.596	203.192	-4.975	0.957	-85.692	32.882	67.654	-85.320	-81.032	17.658	27.344	-81.529	-77.216	-76.628	-72.117	41.038	-72.462	-8191	255	
26802.982	1	1	0	0	0.022279	0.20806	0.20456	0.32181	0.10569	0.12165	0.10629	0.24027	0.11091	0.14715	0.039633	0.35622	0.050219	0.12289	0.10775	0.28916	-1.2021	-1.5812	-1.8854	-1.5688	-1.8146	-1.9521	-1.6167	-2.0958	-1.6146	-1.4479	-1.9792	-1.7917	-1.7958	-1.9208	-1.5479	-1.9354	-63.121	-76.095	239.586	-2.528	-80.569	84.521	106.853	222.712	15.348	-35.320	217.622	228.766	9.032	-88.022	-19.925	186.935	0.00017969	0.00067712	0.00016671	1375.3	2.9475e-06	5.5348e-06	1375.4	370.07	1.1221e-06	5.1385e-06	424.23	141.13	120.55	42.323	6.3295e-06	52.496	0.00054017	0.00058956	0.00016396	1385.2	6.2986e-06	6.3567e-06	1384.1	376.04	6.3633e-06	6.4306e-06	430.02	144.16	125.24	43.26	6.3839e-06	53.455	206.979	10.990	-5.395	-85.711	67.242	59.300	-85.507	-80.921	3.897	58.094	-81.356	-76.930	-76.828	-72.173	59.021	-72.644	-8191	255	
26803.104	1	1	0	0	0.080397	0.21632	0.1631	0.10112	0.10954	0.094175	0.1718	0.15006	0.22773	0.11212	0.069905	0.16048	0.35815	0.17692	0.024834	0.25107	-1.1688	-1.5917	-1.9854	-1.5729	-1.5917	-1.9625	-1.4042	-2.1896	-1.8917	-1.4417	-1.825	-1.7167	-1.6708	-1.9937	-1.4521	-1.8583	40.896	63.130	159.561	197.279	13.204	194.193	217.670	11.995	198.625	-42.169	-66.765	-84.069	-71.196	156.662	-64.761	219.305	0.00021035	0.00074157	0.00015055	1380.1	2.0603e-06	8.7335e-06	1374	370.08	2.4686e-06	4.3642e-06	425.5	141.32	120.94	42.524	2.1322e-06	52.711	0.00053887	0.00058086	0.00016205	1384.5	6.2958e-06	6.473e-06	1385	375.93	6.3062e-06	6.2934e-06	429.86	143.82	125.13	43.283	6.4857e-06	53.587	202.378	-36.426	16.995	-85.660	77.913	52.320	-85.483	-80.941	-57.516	39.968	-81.626	-77.452	-76.764	-72.217	60.762	-72.409	-8191	255	
26803.199	1	1	0	0	0.22286	0.27881	0.10019	0.09392	0.23762	0.078913	0.13036	0.34164	0.092444	0.18082	0.033196	0.082577	0.029966	0.27644	0.18213	0.31812	-1.3854	-1.2833	-1.9167	-1.875	-1.5458	-2.1354	-1.7271	-1.9167	-1.8458	-1.4771	-1.9896	-1.8271	-1.8958	-2.0083	-1.525	-1.8375	77.304	246.914	22.210	224.158	103.771	-70.927	-97.834	226.036	-53.055	233.509	168.911	-73.402	-2.620	243.558	42.511	179.081	0.00017957	0.00075597	0.00011697	1382.2	3.0799e-06	9.6086e-06	1370.7	371.59	3.3548e-06	3.175e-06	424.16	140.79	121.99	42.426	5.4294e-06	52.515	0.00055004	0.00059244	0.00016294	1388.4	6.3828e-06	6.5711e-06	1385	376.92	6.4512e-06	6.4449e-06	429.81	144.14	125.53	43.328	6.2968e-06	53.534	204.128	-18.424	-3.957	-85.374	21.469	35.061	-85.539	-80.907	49.179	12.866	-81.456	-77.065	-76.725	-71.860	8.893	-72.576	-8191	255	
26803.297	1	1	0	0	0.079832	0.065177	0.078978	0.12983	0.25763	0.27047	0.31651	0.092049	0.21593	0.13717	0.16477	0.39871	0.22639	0.091311	0.121	0.1189	-1.4771	-1.2417	-1.8729	-1.8687	-1.5646	-2.2646	-1.7125	-1.7104	-1.9167	-1.3146	-1.8542	-1.7625	-1.4438	-2.1479	-1.6833	-1.6625	60.503	159.982	133.489	230.725	-42.467	4.475	199.969	38.254	-8.714	28.213	188.624	169.147	157.248	-92.191	66.990	223.379	0.00016348	0.00055562	7.4709e-05	1374.6	3.8713e-06	6.0655e-06	1370.5	371.24	1.1721e-06	5.4699e-06	424.97	141.54	121.18	42.747	2.7819e-06	52.462	0.0005347	0.00059101	0.00016173	1385.8	6.3935e-06	6.2742e-06	1383.5	376.24	6.4571e-06	6.4828e-06	429.34	144.21	125.45	43.374	6.4621e-06	53.531	213.818	-13.687	-12.818	-85.592	65.702	53.794	-85.357	-81.085	-27.394	66.690	-81.515	-77.285	-76.857	-72.109	2.371	-72.565	-8191	255	
26803.391	1	1	0	0	0.1253	0.12014	0.20047	0.26196	0.16737	0.12313	0.2165	0.1619	0.11513	0.18054	0.24504	0.3258	0.11581	0.20584	0.19596	0.20671	-1.6708	-1.4062	-2.1063	-1.8958	-1.4813	-2.1896	-1.8188	-1.6417	-1.8813	-1.3042	-1.9833	-1.9937	-1.4479	-1.7313	-1.4854	-1.6688	238.333	-84.212	149.505	208.964	-17.071	89.655	241.311	212.232	-93.057	15.129	-73.668	-84.627	242.082	-71.549	221.354	205.696	0.00018481	0.00075883	0.00014969	1377.6	3.5322e-06	3.3355e-06	1375.3	372.46	5.2796e-06	5.7458e-06	425.41	141.56	121.82	42.31	4.2634e-06	52.49	0.00053596	0.00059306	0.00016372	1386	6.3526e-06	6.2322e-06	1386	376.74	6.333e-06	6.4391e-06	429.09	144.07	125.49	43.197	6.3184e-06	53.43	197.166	32.579	-3.089	-85.643	9.956	59.420	-85.546	-80.902	24.322	55.064	-81.693	-77.246	-76.952	-72.046	0.383	-72.508	-8191	255	
26803.486	1	1	0	0	0.15186	0.21464	0.11084	0.40117	0.10394	0.2318	0.36205	0.14012	0.34068	0.13268	0.22937	0.21942	0.23137	0.19095	0.14133	0.30857	-1.6417	-1.6938	-1.7625	-2.2042	-1.5021	-1.9771	-1.9583	-1.5812	-1.9021	-1.7646	-1.5958	-1.8833	-1.4771	-2.1562	-1.8333	-1.5583	10.101	33.099	2.419	182.674	-16.241	22.836	243.656	219.145	160.010	8.026	109.365	-77.669	-78.202	137.071	184.470	-75.602	0.00016047	0.00048992	0.00017318	1377.5	1.4536e-06	7.8402e-06	1374.6	370.96	3.5348e-06	7.5656e-06	424.61	141.17	121.49	42.442	4.2329e-06	52.588	0.00052745	0.00057707	0.00015822	1384.2	6.2025e-06	6.2179e-06	1384.7	375.92	6.2302e-06	6.2826e-06	428.29	144.01	125.15	43.182	6.3102e-06	53.554	197.748	-34.264	-20.308	-85.522	47.972	42.626	-85.486	-81.014	-4.015	48.194	-81.740	-77.079	-76.781	-72.266	29.519	-72.167	-8191	255	
26803.582	1	1	0	0	0.16521	0.1471	0.40781	0.48378	0.090537	0.22075	0.30764	0.37794	0.11384	0.12965	0.23185	0.18465	0.27146	0.11188	0.071041	0.12477	-1.5729	-1.4604	-1.8417	-1.9646	-1.3896	-1.7479	-1.9312	-1.7271	-1.9167	-1.6021	-1.7417	-2.0771	-1.425	-1.9125	-1.8417	-1.6896	76.076	-4.884	189.260	133.418	210.144	158.370	188.491	168.166	201.818	129.463	236.727	193.874	-38.672	104.944	-82.225	36.739	0.00021194	0.00043769	0.00015412	1375.2	3.9101e-06	5.7557e-06	1370.5	370.65	1.8586e-06	8.2191e-06	425.9	141.32	120.95	42.471	5.3266e-06	52.537	0.0005219	0.00057586	0.00015724	1384.4	6.223e-06	6.1613e-06	1383.9	375.58	6.2302e-06	6.3099e-06	430.14	144.03	125.34	43.274	6.3058e-06	53.543	214.559	-24.641	20.747	-85.574	93.989	50.291	-85.516	-81.023	41.668	35.637	-81.654	-77.131	-76.455	-71.935	5.812	-72.751	-8191	255	
26803.680	1	1	0	0	0.061196	0.17303	0.17795	0.16807	0.095377	0.25688	0.19333	0.041914	0.069079	0.086275	0.08138	0.31399	0.085058	0.21745	0.33145	0.29468	-1.6396	-1.7021	-1.7083	-2.2333	-1.3563	-1.8937	-2.0854	-1.6437	-1.9062	-1.7375	-1.6917	-2.0958	-1.5333	-2.0604	-1.8417	-1.5083	2.884	159.385	6.316	243.021	39.496	46.653	102.917	145.905	-70.781	24.652	119.946	153.528	30.310	103.417	229.777	-80.766	0.0002006	0.00030722	0.00011479	1381.2	3.5447e-06	5.4644e-06	1371.7	371.16	2.9593e-06	6.9615e-06	428.97	141.16	121.43	42.781	6.1872e-06	52.588	0.00053738	0.00058521	0.00016275	1387.4	6.3915e-06	6.3535e-06	1385.2	376.32	6.3326e-06	6.4903e-06	431.15	144.27	125.72	43.379	6.4533e-06	53.585	204.280	42.878	-22.602	-85.571	57.274	10.896	-85.643	-80.982	42.382	63.577	-81.790	-77.094	-77.114	-72.171	44.736	-72.694	-8191	255	
26803.775	1	1	0	0	0.34516	0.17543	0.12824	0.14545	0.30262	0.34484	0.068699	0.065155	0.26611	0.18486	0.14868	0.36177	0.080975	0.11384	0.040311	0.13078	-1.5958	-1.7958	-1.5688	-2.0625	-1.4125	-1.8292	-2.1854	-1.5125	-1.9479	-1.7042	-1.75	-2.1729	-1.5792	-1.8667	-1.8125	-1.75	36.042	-81.780	251.728	217.111	189.194	-81.829	228.291	137.904	234.116	138.669	215.601	196.655	145.090	107.120	-16.989	52.653	0.00017696	0.00082162	0.0001389	1380.7	4.6645e-06	5.3571e-06	1370.8	371.13	2.7596e-06	4.4124e-06	427.21	141.38	121.02	42.537	1.4563e-06	52.531	0.00054157	0.0005898	0.00016462	1386.9	6.3918e-06	6.4224e-06	1385	376.31	6.4083e-06	6.4478e-06	430.54	144.22	125.43	43.295	6.4747e-06	53.542	204.010	-5.207	-20.962	-85.348	44.750	64.792	-85.466	-81.010	-3.391	55.503	-81.209	-77.188	-76.507	-71.938	92.703	-72.609	-8191	255	
26803.871	1	1	0	0	0.10337	0.28623	0.1103	0.19255	0.1954	0.020919	0.45583	0.13716	0.37795	0.11787	0.14551	0.2668	0.23421	0.17844	0.14822	0.041719	-1.3542	-1.8833	-1.4146	-2.25	-1.6104	-1.6812	-2.0208	-1.6458	-1.7	-1.8396	-1.6333	-2.1708	-1.6313	-1.7229	-1.9542	-1.6167	145.687	177.801	-17.574	218.943	114.207	216.507	225.450	-74.941	42.691	84.447	-27.796	214.783	-35.140	186.276	59.459	57.238	0.00018997	0.00043835	0.00017531	1381.7	4.2483e-06	1.8041e-06	1375.2	371.34	2.0017e-06	5.9968e-06	425.77	141.61	121.96	42.674	1.8523e-06	52.622	0.00054217	0.0005919	0.00016389	1388.2	6.4792e-06	6.3866e-06	1386.8	376.5	6.4646e-06	6.4527e-06	430.37	144.38	126.11	43.428	6.4339e-06	53.6	198.512	-36.792	-31.724	-85.486	37.650	6.458	-85.580	-81.008	3.143	65.176	-81.891	-77.086	-76.576	-71.940	57.415	-72.572	-8191	255	
26803.990	1	1	0	0	0.12284	0.21751	0.1883	0.13257	0.10507	0.14451	0.38772	0.17873	0.12465	0.23021	0.14637	0.21827	0.12378	0.16172	0.091761	0.05294	-1.3708	-1.7271	-1.5167	-1.9583	-1.7812	-1.4833	-2.2396	-1.775	-1.6833	-1.6979	-1.4979	-2.0396	-1.5688	-1.5333	-1.9896	-1.5146	-46.941	84.502	-68.934	-74.465	11.663	160.430	194.152	232.008	166.270	72.783	243.796	222.450	-59.447	-69.740	1.900	131.040	0.00017975	0.00030177	0.00018187	1386.6	4.8817e-06	8.0639e-06	1375.6	372.09	2.7572e-06	5.3947e-06	425.05	141.46	120.82	42.444	4.8825e-06	52.68	0.0005421	0.00060111	0.00016629	1389.2	6.5347e-06	6.5625e-06	1387.1	376.66	6.4507e-06	6.5333e-06	430.38	144.32	125.55	43.334	6.4076e-06	53.648	204.380	56.880	2.565	-85.648	85.483	62.582	-85.449	-81.043	0.206	44.258	-81.336	-77.125	-76.531	-71.960	40.181	-72.491	-8191	255	
26804.062	1	1	0	0	0.36486	0.17298	0.087694	0.17972	0.38096	0.13024	0.3406	0.17221	0.06183	0.23379	0.15778	0.060375	0.094535	0.10842	0.044754	0.18969	-1.3354	-1.925	-1.5271	-2.1146	-1.7771	-1.5125	-2.0062	-1.6979	-1.6729	-1.9708	-1.4167	-2.0979	-1.7396	-1.6771	-2.0604	-1.9229	78.008	90.368	114.308	-44.289	-11.215	48.128	220.720	125.578	210.297	92.041	83.727	120.751	85.254	-81.850	45.243	-90.350	0.00020176	0.00047584	0.00020642	1379.6	4.4485e-06	2.7312e-06	1378.2	370.81	1.3946e-06	6.5577e-06	423.57	141.6	120.35	42.704	4.0732e-06	52.609	0.00054868	0.00059369	0.00016736	1388.6	6.5551e-06	6.5352e-06	1387.1	376.51	6.4042e-06	6.5357e-06	430.18	144.18	125.34	43.41	6.5326e-06	53.596	197.298	-27.025	-4.569	-85.476	49.504	70.841	-85.437	-81.009	-13.051	83.967	-81.584	-77.191	-76.698	-72.124	26.774	-72.833	-8191	255	
26804.184	1	1	0	0	0.14148	0.18073	0.21458	0.16183	0.06702	0.10256	0.15764	0.16273	0.13058	0.090308	0.052553	0.13153	0.1421	0.19298	0.068682	0.037877	-1.2417	-1.7313	-1.5458	-1.9729	-1.7292	-1.4438	-2.2188	-1.7812	-1.7188	-1.9438	-1.4542	-1.8854	-1.8792	-1.6333	-1.8021	-1.6708	-95.241	-90.366	99.621	-31.625	196.747	109.515	182.750	48.593	95.570	224.995	202.903	-39.797	209.813	62.028	80.255	87.595	0.00018887	0.00073613	9.8338e-05	1381.3	4.5607e-06	5.1212e-06	1376	371.96	4.8075e-07	5.3111e-06	425.87	140.84	120.28	42.441	2.8498e-06	52.52	0.00054708	0.00058934	0.00016486	1387.1	6.5295e-06	6.4904e-06	1386.7	376.54	6.4391e-06	6.4283e-06	430.15	143.84	125.08	43.266	6.3839e-06	53.456	206.339	-16.875	7.110	-85.614	72.535	98.850	-85.599	-81.089	28.126	28.237	-81.749	-77.072	-76.648	-71.968	17.908	-72.702	-8191	255	
26804.279	1	1	0	0	0.033754	0.15578	0.076811	0.26517	0.12064	0.14156	0.2857	0.21618	0.16557	0.079109	0.21634	0.34743	0.16151	0.31885	0.1554	0.070335	-1.3083	-1.8021	-1.2563	-1.8417	-1.5562	-1.45	-2.1667	-1.7792	-1.5479	-1.9	-1.5917	-1.8917	-1.85	-1.5312	-1.825	-1.7604	30.288	106.086	103.275	253.614	-2.599	-24.192	187.470	144.750	-18.072	-39.915	-47.886	166.218	234.912	-22.117	-65.315	-7.267	0.00020126	0.0006154	0.00010866	1377.2	5.5679e-06	2.2675e-06	1370.1	371.27	2.3366e-06	4.1746e-06	424.58	140.8	120.79	42.598	1.3435e-06	52.597	0.00053262	0.00058417	0.00016322	1385.4	6.387e-06	6.3393e-06	1385.4	375.94	6.2973e-06	6.3205e-06	429.69	144	125.36	43.328	6.4103e-06	53.548	206.453	43.435	-35.852	-85.646	80.666	94.679	-85.468	-81.158	26.438	29.418	-81.624	-77.345	-76.850	-72.092	124.343	-72.621	-8191	255	
26804.377	1	1	0	0	0.12444	0.15418	0.18603	0.192	0.18133	0.15327	0.29932	0.12794	0.17513	0.082521	0.22117	0.13376	0.016806	0.039755	0.1082	0.062766	-1.0354	-1.9917	-1.5271	-1.7917	-1.8312	-1.4271	-2.1229	-1.9688	-1.4188	-2.15	-1.3896	-1.7542	-2.0333	-1.7687	-1.7646	-1.8854	-3.290	59.593	-91.929	122.428	153.981	-67.120	197.667	215.098	138.042	70.375	34.929	192.496	-80.922	174.861	253.648	43.241	0.00017106	0.00066811	0.00019903	1380.4	6.2617e-06	3.5653e-06	1373.5	371.56	2.8327e-06	7.8789e-06	426.4	140.46	121.08	42.38	3.5327e-06	52.453	0.00055324	0.0005916	0.00016373	1387	6.4082e-06	6.436e-06	1385.4	376.51	6.4623e-06	6.3941e-06	429.86	143.82	125.56	43.23	6.2683e-06	53.554	206.670	33.013	-23.547	-85.540	20.596	93.067	-85.618	-81.048	25.204	43.847	-81.696	-77.304	-76.607	-71.977	12.076	-72.504	-8191	255	
26804.473	1	1	0	0	0.1543	0.16143	0.34409	0.1308	0.18633	0.045611	0.24825	0.27312	0.22228	0.34749	0.18507	0.050306	0.10768	0.06579	0.19367	0.20369	-1.0729	-2.0229	-1.5583	-1.8229	-2.0875	-1.5063	-1.95	-1.8458	-1.5979	-2.0667	-1.8417	-1.7375	-1.9646	-1.6417	-1.7188	-1.8333	66.048	222.311	22.224	28.682	-46.007	85.620	111.546	224.404	127.718	16.924	192.897	-80.036	253.380	174.242	61.959	252.514	0.00015722	0.00083279	0.00012928	1381.4	3.3353e-06	6.7814e-06	1372	371.6	1.3824e-06	3.1847e-06	424.06	141.71	121.39	42.625	2.6759e-06	52.574	0.00054736	0.0005856	0.0001621	1389.1	6.3766e-06	6.4407e-06	1385.1	376.91	6.5194e-06	6.4164e-06	430.16	144.69	125.99	43.527	6.5647e-06	53.683	202.719	-25.755	1.605	-85.544	7.358	51.851	-85.405	-80.914	-8.484	20.775	-81.299	-77.013	-76.943	-72.004	71.732	-72.562	-8191	255	
26804.592	1	1	0	0	0.20446	0.12654	0.063942	0.21096	0.15525	0.0828	0.21639	0.23383	0.18201	0.043482	0.14234	0.12378	0.18103	0.08431	0.093991	0.12304	-1.0792	-1.8854	-1.7729	-1.7958	-1.9958	-1.5021	-1.9604	-1.9875	-1.3438	-1.8833	-1.8125	-1.6875	-1.9813	-1.8229	-1.7146	-1.9792	130.792	241.883	65.459	-85.055	81.519	114.432	211.159	-94.717	250.268	-55.384	141.844	257.432	-67.124	156.188	241.296	172.916	0.00018808	0.00075818	0.00011265	1382.5	5.8368e-06	6.5525e-06	1380	372.43	1.9367e-06	4.3543e-06	427.09	141.25	120.98	42.389	3.3388e-06	52.495	0.0005558	0.00059793	0.00016787	1391.1	6.548e-06	6.5799e-06	1389.6	377.21	6.4229e-06	6.408e-06	431.55	144.29	125.39	43.31	6.5012e-06	53.595	202.719	-29.012	10.488	-85.532	66.054	17.595	-85.518	-81.110	-48.743	28.410	-81.489	-76.959	-76.324	-71.970	11.391	-72.813	-8191	255	
26804.688	1	1	0	0	0.30266	0.27762	0.083925	0.21653	0.055996	0.11218	0.2082	0.26617	0.18361	0.14851	0.17209	0.31448	0.11532	0.10929	0.16833	0.12072	-1.0021	-2.0083	-1.575	-1.7417	-1.9521	-1.5146	-2.0167	-1.8979	-1.4771	-1.8667	-1.7458	-1.4813	-1.9458	-1.9208	-1.575	-2.1063	102.405	185.624	114.741	215.082	43.689	207.765	232.220	-75.510	-7.810	-73.486	235.825	77.691	-28.849	193.039	-71.726	183.668	0.00021079	0.00034207	1.8095e-05	1383.8	5.1596e-06	4.8166e-06	1372.1	369.71	2.6106e-06	4.5769e-06	427.03	140.72	121.19	42.45	4.6339e-06	52.553	0.00054295	0.00058267	0.00016365	1389.5	6.4407e-06	6.3812e-06	1386.2	375.55	6.3971e-06	6.2694e-06	430.8	143.95	125.48	43.245	6.4473e-06	53.607	206.241	-34.714	130.774	-85.332	61.397	81.711	-85.395	-81.141	19.140	41.302	-81.667	-77.391	-76.857	-71.973	0.729	-72.405	-8191	255	
26804.783	1	1	0	0	0.21373	0.092248	0.076998	0.25055	0.13752	0.15546	0.13532	0.064741	0.16059	0.29349	0.15378	0.10749	0.13792	0.11472	0.16591	0.23091	-1.0021	-1.8771	-1.8	-1.6354	-1.9792	-1.6771	-1.9417	-2.2354	-1.45	-1.9729	-1.9583	-1.6375	-1.8708	-1.7687	-1.5854	-1.9417	209.841	19.052	165.373	216.127	167.352	116.090	252.064	-88.886	39.890	161.355	255.925	-95.753	213.834	192.332	156.342	-20.824	0.00020074	0.00013791	0.00010317	1382.6	3.1261e-06	4.607e-06	1371.7	370.91	4.1136e-06	4.4457e-06	424.66	140.25	120.56	42.342	1.8569e-06	52.544	0.00053948	0.00058741	0.00016362	1387.2	6.3796e-06	6.4356e-06	1386.1	376.23	6.4871e-06	6.3455e-06	429.98	143.78	125.01	43.229	6.3849e-06	53.365	210.960	-22.281	41.904	-85.497	53.055	27.012	-85.472	-81.056	69.923	41.063	-81.534	-76.865	-76.841	-72.111	67.363	-72.414	-8191	255	
26804.881	1	1	0	0	0.17899	0.21484	0.28135	0.12704	0.28932	0.11337	0.30853	0.091594	0.13001	0.099704	0.2061	0.14514	0.2679	0.21725	0.12608	0.099828	-1.1437	-1.8417	-1.8458	-1.7521	-1.8375	-1.725	-1.7958	-2.0708	-1.5083	-1.6208	-1.8104	-1.4792	-1.8813	-1.8771	-1.5125	-2.0563	71.042	36.415	231.738	-25.332	89.056	4.095	142.470	238.764	-57.237	196.876	-7.661	212.271	-20.471	226.247	-55.021	141.212	0.00020043	0.00062676	6.4187e-05	1383.3	3.0452e-06	5.2959e-06	1375.7	370.84	1.2464e-06	3.324e-06	426.01	140.78	120.44	42.217	2.7009e-06	52.364	0.00053475	0.00056835	0.00016063	1389.1	6.3413e-06	6.3868e-06	1386.3	375.88	6.3679e-06	6.2236e-06	429.53	143.75	125.28	43.164	6.4777e-06	53.489	197.236	9.101	-18.740	-85.501	72.612	52.665	-85.640	-80.938	51.390	43.881	-81.516	-77.128	-76.805	-72.350	27.906	-72.454	-8191	255	
26804.977	1	1	0	0	0.041955	0.2138	0.21607	0.059245	0.22182	0.27876	0.097773	0.2183	0.16933	0.32049	0.055573	0.26175	0.11074	0.32135	0.13508	0.088932	-1.0187	-1.65	-2.0083	-1.4021	-1.8438	-1.9	-1.5979	-2.1521	-1.7313	-1.4271	-2.1562	-1.5063	-1.7729	-1.9958	-1.5792	-1.9646	244.182	-21.834	107.980	-93.868	251.570	-28.592	-92.550	163.260	-24.095	103.935	198.838	200.692	247.087	239.706	-2.495	139.784	0.0002023	0.00051227	0.00012964	1381.9	5.1959e-06	6.088e-06	1374.2	370.58	4.2523e-07	6.7184e-06	421.86	140.72	120.99	42.481	3.6583e-06	52.39	0.00054069	0.00058598	0.00016164	1386.2	6.2515e-06	6.4344e-06	1385.1	376.1	6.4235e-06	6.3711e-06	430.09	143.64	125.17	43.168	6.4085e-06	53.422	210.111	-19.162	-17.790	-85.682	31.391	70.365	-85.480	-81.103	-61.423	49.663	-81.751	-77.176	-77.252	-71.840	40.744	-72.503	-8191	255	
26805.072	1	1	0	0	0.025412	0.22561	0.17774	0.29266	0.27802	0.027051	0.26873	0.4227	0.036738	0.19471	0.15715	0.30802	0.20362	0.095162	0.055314	0.21641	-1.1833	-1.4667	-1.7687	-1.5312	-1.8438	-2	-1.7104	-1.8937	-1.4667	-1.5021	-2.1125	-1.6729	-1.7917	-2.025	-1.6167	-1.9375	40.254	-47.883	59.077	-70.487	-10.626	125.721	216.143	182.126	20.519	-46.101	-4.808	194.532	225.432	-25.970	-14.106	63.455	0.00020833	0.0004155	0.00016562	1382.2	4.6388e-06	7.7999e-06	1377.6	370.52	2.6957e-06	4.7367e-06	425.73	140.77	121.3	42.404	2.5369e-06	52.277	0.00053322	0.00058344	0.00016165	1386.9	6.2877e-06	6.4066e-06	1387	375.81	6.4754e-06	6.3395e-06	430.08	143.89	125.4	43.229	6.5114e-06	53.464	213.621	-13.490	10.691	-85.549	110.132	28.440	-85.468	-81.075	1.271	44.476	-81.407	-77.158	-76.889	-72.001	44.687	-72.554	-8191	255	
26805.168	1	1	0	0	0.085043	0.097416	0.275	0.20897	0.23196	0.088146	0.47113	0.19731	0.11814	0.15103	0.045961	0.16583	0.1665	0.2459	0.27317	0.41928	-1.0896	-1.4771	-1.8833	-1.8042	-1.6354	-2.0167	-1.6896	-1.875	-1.6625	-1.5292	-1.9833	-1.9229	-1.6583	-1.875	-1.5771	-1.9833	113.917	-33.535	257.827	195.595	-71.067	-2.140	205.566	243.599	56.251	-84.219	219.166	105.794	122.265	188.527	70.173	207.280	0.00016782	0.0004129	0.00017501	1380.1	7.4708e-07	6.2041e-06	1374.9	370.38	1.9912e-06	3.0736e-06	424.51	140.84	120.77	42.444	4.3281e-06	52.302	0.00054202	0.00059627	0.00016165	1386	6.3684e-06	6.3946e-06	1386.2	375.88	6.3999e-06	6.3486e-06	429.56	143.82	125.41	43.204	6.3588e-06	53.418	212.028	-11.342	-19.662	-85.576	99.475	28.704	-85.452	-81.158	94.718	32.633	-81.446	-77.006	-76.929	-71.992	-22.815	-72.563	-8191	255	
26805.287	1	1	0	0	0.2829	0.046169	0.22354	0.11811	0.29055	0.17542	0.045857	0.075257	0.293	0.063478	0.046413	0.11621	0.12447	0.22322	0.072159	0.15394	-1.2437	-1.5479	-2.1042	-1.8167	-1.7042	-1.7667	-1.675	-1.9458	-1.6812	-1.4792	-1.9167	-1.8146	-1.5875	-2.0396	-1.4917	-1.9562	167.763	-89.145	-12.349	159.959	120.401	160.528	193.877	253.897	-39.895	249.822	36.647	247.409	29.068	248.446	228.210	168.184	0.0001759	0.00043801	0.00013076	1377.6	2.0849e-06	4.1976e-06	1375.3	370.33	2.0607e-06	6.3543e-06	425.65	141.35	120.36	42.376	3.2202e-06	52.231	0.00053853	0.00057893	0.00016291	1385.7	6.3687e-06	6.2455e-06	1386.3	376.03	6.4202e-06	6.2907e-06	429.23	143.81	125.06	43.155	6.2861e-06	53.334	198.172	-19.392	45.541	-85.421	39.435	81.033	-85.593	-81.042	3.392	67.159	-81.301	-77.392	-76.561	-72.118	29.498	-72.419	-8191	255	
26805.359	1	1	0	0	0.034373	0.17829	0.28865	0.29829	0.17023	0.099203	0.30608	0.21251	0.08928	0.19092	0.090115	0.061023	0.16397	0.23465	0.31073	0.47357	-1.1396	-1.3937	-1.8271	-1.8354	-1.5812	-1.9813	-1.7792	-1.8937	-1.9896	-1.5042	-1.7667	-1.7104	-1.5729	-2.075	-1.6854	-1.9917	240.320	-92.578	111.726	211.937	89.198	219.852	192.088	184.532	187.387	-47.356	155.994	-60.855	-3.303	188.740	86.702	236.815	0.00018544	0.00067995	0.00014418	1378.6	3.193e-06	4.7331e-06	1375.1	371.41	2.9532e-06	5.3573e-06	424.47	141.1	120.77	42.499	3.3908e-06	52.372	0.0005314	0.00058182	0.00016117	1386.1	6.2356e-06	6.2454e-06	1386.6	376.42	6.4827e-06	6.3832e-06	429.41	144.2	125.16	43.279	6.4406e-06	53.491	197.189	12.817	-5.691	-85.473	25.481	-19.749	-85.479	-81.116	87.449	8.681	-81.516	-77.038	-76.586	-72.021	47.647	-72.472	-8191	255	
26805.455	1	1	0	0	0.19481	0.046269	0.28555	0.16338	0.088886	0.072778	0.22455	0.20836	0.13547	0.13791	0.27911	0.058402	0.09574	0.31731	0.08941	0.16781	-1.5562	-1.3875	-1.6646	-1.9	-1.4792	-2.0604	-1.7917	-1.825	-2.0458	-1.4104	-1.7854	-1.7229	-1.5	-2.0938	-1.7	-1.8167	206.431	154.551	206.581	-11.259	202.379	-89.019	225.300	195.700	-56.405	241.812	233.958	207.997	30.858	237.640	-81.793	7.067	0.00016355	0.00096623	0.00011	1382.7	1.6957e-06	6.2483e-06	1374.2	371.72	3.3964e-06	3.3251e-06	425.38	141.72	121.01	42.825	6.5383e-06	52.454	0.00054338	0.0005827	0.00016038	1388.1	6.5285e-06	6.4156e-06	1386	376.77	6.4981e-06	6.4143e-06	430.08	144.25	125.53	43.427	6.4691e-06	53.528	211.530	-0.772	-20.320	-85.549	73.910	19.990	-85.438	-81.103	21.248	31.487	-81.202	-77.150	-76.637	-72.037	42.823	-72.541	-8191	255	
26805.553	1	1	0	0	0.033421	0.033671	0.22068	0.2543	0.22225	0.22415	0.28134	0.32168	0.15254	0.21272	0.069793	0.16282	0.23905	0.27828	0.12268	0.085938	-1.325	-1.3417	-1.7979	-1.9021	-1.4125	-1.9125	-1.7938	-1.6229	-1.9479	-1.5542	-1.8438	-1.9479	-1.4333	-1.9458	-1.5688	-1.7042	59.347	157.393	-38.985	231.193	22.025	-22.198	144.552	-80.871	55.466	37.127	146.343	29.533	249.909	252.516	65.614	-3.317	0.00018156	0.0008763	0.0002116	1383.4	1.4864e-06	4.964e-06	1377.8	370.7	1.2233e-06	3.541e-06	426.46	141.34	121.1	42.813	4.523e-06	52.687	0.00053838	0.00059072	0.0001647	1389.3	6.5174e-06	6.2623e-06	1388.7	376.7	6.3582e-06	6.4733e-06	430.67	144.41	125.68	43.509	6.4404e-06	53.675	210.773	1.633	-9.976	-85.576	45.627	50.965	-85.528	-81.010	76.307	97.989	-81.254	-77.132	-76.407	-72.024	19.902	-72.823	-8191	255	
26805.672	1	1	0	0	0.13727	0.27155	0.44331	0.23653	0.22646	0.20706	0.33767	0.19658	0.092416	0.23411	0.18658	0.13184	0.38392	0.14001	0.1757	0.11863	-1.2563	-1.4583	-1.5458	-2.0146	-1.3979	-1.8375	-1.8813	-1.5958	-1.9062	-1.4625	-1.6063	-1.8667	-1.4813	-1.9625	-1.775	-1.6063	-28.487	5.224	43.836	-68.093	-60.881	86.626	199.179	256.084	184.861	216.067	97.562	22.465	-51.159	100.694	54.361	112.349	0.00017722	0.00063996	9.7045e-05	1383.2	3.9156e-06	6.5589e-06	1376.4	372.64	1.4825e-06	7.8148e-06	427.36	141.31	121.18	42.69	5.7331e-06	52.582	0.00054613	0.0005955	0.00016487	1389.1	6.4913e-06	6.4384e-06	1387.9	377.5	6.4468e-06	6.5736e-06	431.87	144.38	125.62	43.362	6.6207e-06	53.687	200.853	-10.832	34.039	-85.739	52.639	50.609	-85.481	-80.995	2.549	26.415	-81.181	-77.049	-76.884	-72.145	7.124	-72.409	-8191	255	
26805.768	1	1	0	0	0.21279	0.3816	0.15001	0.25899	0.14011	0.084274	0.084091	0.23093	0.2175	0.099609	0.10699	0.22919	0.087998	0.052483	0.15744	0.34221	-1.6229	-1.6083	-1.6396	-1.9813	-1.4583	-2.0104	-1.8458	-1.4396	-1.9	-1.775	-1.6333	-1.9625	-1.2938	-1.9542	-1.6292	-1.4833	109.472	91.850	7.015	196.613	49.388	0.247	99.288	205.065	47.773	89.335	106.350	139.106	94.523	103.096	172.941	216.926	0.00021658	0.00077119	0.00017478	1383.5	4.8377e-06	6.8952e-06	1377.2	371.73	2.4472e-06	6.4123e-06	424.09	141.09	120.8	42.641	4.8373e-06	52.681	0.00053607	0.00059121	0.00016432	1390.6	6.5032e-06	6.4204e-06	1386.8	377.08	6.4427e-06	6.3781e-06	429.49	144.12	125.55	43.405	6.5658e-06	53.76	199.596	-17.296	-47.383	-85.720	70.697	25.040	-85.571	-81.113	37.601	64.181	-81.903	-77.053	-77.177	-72.212	39.857	-72.793	-8191	255	
26805.863	1	1	0	0	0.1652	0.38398	0.25133	0.3384	0.089686	0.19581	0.20982	0.22977	0.16142	0.37945	0.28572	0.10186	0.063015	0.2532	0.060818	0.28947	-1.3854	-1.5083	-1.5979	-1.8979	-1.5583	-1.8479	-1.975	-1.5708	-1.9271	-1.6146	-1.675	-2.1229	-1.4104	-1.8229	-1.9	-1.5312	-73.811	-9.542	246.407	207.252	178.810	-46.371	225.007	161.593	-91.635	232.478	-80.370	154.675	255.939	155.539	-12.101	96.414	0.00016528	0.00071229	0.00018337	1383.1	2.9274e-06	2.8911e-06	1375.3	370.3	2.0027e-06	2.9303e-06	424.86	141.04	120.92	42.522	7.0828e-06	52.626	0.00054185	0.00059671	0.00016449	1388.4	6.4713e-06	6.5138e-06	1386.6	376.59	6.3731e-06	6.4489e-06	430.7	144.33	125.17	43.312	6.5386e-06	53.584	209.050	23.436	-0.100	-85.533	5.628	100.076	-85.430	-81.072	51.934	33.198	-81.587	-77.092	-76.462	-72.240	18.552	-72.509	-8191	255	
26805.961	1	1	0	0	0.31964	0.38215	0.12063	0.22434	0.15737	0.089146	0.16685	0.1649	0.15985	0.069309	0.048854	0.15363	0.088649	0.31759	0.25861	0.26821	-1.5521	-1.6625	-1.3729	-1.8917	-1.3583	-1.7958	-2.0708	-1.4083	-1.7792	-1.6583	-1.6542	-2.05	-1.5208	-1.5729	-1.7333	-1.4604	63.467	-33.261	259.791	230.855	159.320	24.779	224.976	-97.720	12.856	260.331	232.991	178.873	-75.645	202.419	-49.493	-59.757	0.00021725	0.00048216	0.00012564	1379.7	4.5263e-06	3.8946e-06	1371.8	370.99	1.6389e-06	5.7692e-06	425.64	141.24	120.28	42.491	3.7884e-06	52.394	0.00053628	0.00058697	0.00016253	1388.4	6.4134e-06	6.3594e-06	1387.1	376.09	6.4482e-06	6.4424e-06	430.12	143.95	124.89	43.31	6.5009e-06	53.537	209.612	-7.794	-23.002	-85.403	89.471	59.978	-85.518	-81.092	1.784	100.206	-81.771	-77.068	-76.445	-71.795	44.885	-72.585	-8191	255	
26806.057	1	1	0	0	0.11016	0.4362	0.036167	0.14772	0.29302	0.15834	0.20186	0.11997	0.066849	0.051715	0.15054	0.068296	0.14618	0.21069	0.1383	0.25658	-1.4271	-1.8229	-1.4896	-2.1333	-1.6	-1.6917	-2.1292	-1.6833	-1.7875	-1.7042	-1.6313	-2.1604	-1.7292	-1.5729	-2.1063	-1.5167	175.878	-32.976	29.113	205.433	-53.777	-29.674	172.241	200.788	177.109	-31.666	-84.016	-78.227	143.733	-25.504	203.494	171.383	0.00020879	0.00054197	0.00015991	1382.9	6.2916e-06	5.1973e-06	1375.6	370.47	2.8717e-06	5.1378e-06	424.53	141.36	121.02	42.487	3.8283e-06	52.479	0.00053926	0.00059741	0.00016394	1387.4	6.4077e-06	6.465e-06	1386.7	376.47	6.4005e-06	6.389e-06	430.3	143.94	125.03	43.198	6.3023e-06	53.409	210.236	6.869	-5.232	-85.838	42.878	51.504	-85.597	-80.983	22.171	40.832	-81.409	-77.149	-76.876	-72.001	24.958	-72.634	-8191	255	
26806.152	1	1	0	0	0.29871	0.13045	0.20474	0.27767	0.18261	0.14908	0.32523	0.13228	0.17407	0.036083	0.10709	0.24747	0.21728	0.030961	0.22369	0.30915	-1.2271	-1.8417	-1.5667	-1.8583	-1.6583	-1.4646	-2.2	-1.6375	-1.7458	-1.8479	-1.5979	-2.0333	-1.8354	-1.8312	-1.8896	-1.6	44.562	139.232	207.648	-62.294	64.262	-67.015	154.874	214.350	-43.183	-11.706	-75.767	140.994	187.448	-88.702	191.423	183.220	0.0001862	0.00050426	0.00020561	1383.9	2.1345e-06	5.5587e-06	1369.6	370.27	1.6012e-06	6.5723e-06	423.88	141.27	120.61	42.157	3.2027e-06	52.248	0.00053651	0.00057981	0.00016297	1386.3	6.4125e-06	6.3595e-06	1385.1	375.78	6.3614e-06	6.3277e-06	427.55	143.73	124.65	43.064	6.2704e-06	53.236	205.126	-26.910	14.202	-85.566	36.169	71.649	-85.510	-81.096	88.993	26.346	-81.626	-77.181	-77.300	-72.039	51.155	-72.545	-8191	255	
26806.273	1	1	0	0	0.11663	0.2237	0.10896	0.1206	0.20982	0.21505	0.14186	0.3254	0.10592	0.16454	0.13289	0.18626	0.38847	0.20175	0.047823	0.10868	-1.3958	-1.95	-1.4667	-2.0042	-1.8167	-1.5812	-2.2542	-1.5271	-1.6542	-1.8646	-1.6021	-2.0167	-1.725	-1.5167	-1.9312	-1.7854	94.003	249.789	80.017	252.373	194.771	199.688	128.479	241.119	-61.226	-72.394	-97.768	-23.001	177.455	236.892	-0.010	6.975	0.00019517	0.00017517	8.345e-05	1377.1	2.9355e-06	8.3687e-06	1371.8	368.76	1.5326e-06	5.4355e-06	423.76	140.06	120.48	42.091	2.8977e-06	52.04	0.0005328	0.00057539	0.00015992	1383.4	6.3014e-06	6.3119e-06	1382.4	374.02	6.333e-06	6.2633e-06	428.46	143.18	124.51	42.963	6.2688e-06	53.205	212.185	-16.206	59.191	-85.579	76.805	62.321	-85.499	-81.113	-39.029	64.601	-81.613	-77.102	-76.505	-71.926	31.916	-72.283	-8191	255	
26806.369	1	1	0	0	0.081694	0.035359	0.043083	0.18405	0.3131	0.091741	0.41115	0.071033	0.12147	0.25739	0.20937	0.099116	0.19169	0.43163	0.16576	0.28401	-1.0458	-1.9979	-1.5833	-1.9062	-1.8875	-1.6437	-2.3042	-1.95	-1.4229	-1.9354	-1.5146	-1.8396	-1.9417	-1.6583	-2.0292	-1.9104	61.094	245.289	159.824	179.488	71.944	45.293	229.734	3.976	239.638	89.950	15.373	175.736	-80.872	259.824	4.668	248.280	0.00016612	0.00063031	0.00012912	1379.7	5.0016e-06	4.4728e-06	1372.6	369.86	4.269e-06	5.6603e-06	419.58	140.33	120.51	42.341	5.4325e-06	52.418	0.00052751	0.00056727	0.00015821	1385.2	6.2417e-06	6.2582e-06	1383.1	374.49	6.2122e-06	6.1607e-06	426.38	143.19	124.64	43.084	6.349e-06	53.366	199.937	3.476	21.261	-85.554	82.714	39.456	-85.594	-81.016	29.250	51.418	-81.421	-77.306	-76.815	-72.197	32.295	-72.574	-8191	255	
26806.463	1	1	0	0	0.035448	0.37209	0.10242	0.2617	0.15736	0.093826	0.229	0.22859	0.37296	0.021917	0.33927	0.18963	0.054603	0.2274	0.17804	0.090219	-1.1833	-2.1083	-1.5542	-1.9854	-1.95	-1.4062	-2.1875	-1.8375	-1.5354	-2.0438	-1.5104	-1.9	-1.9583	-1.4458	-1.875	-1.9021	173.919	-49.432	161.912	217.785	218.696	212.978	182.407	192.794	-11.412	223.388	107.218	221.606	211.769	216.843	-61.448	256.239	0.00017024	0.0006055	0.00021684	1379.3	4.358e-06	5.2431e-06	1373.4	368.82	2.1458e-06	7.7818e-06	426.36	140.46	120.49	42.345	2.9942e-06	52.503	0.00053374	0.00056906	0.00015824	1385.8	6.3597e-06	6.2645e-06	1383.7	375.02	6.3036e-06	6.26e-06	429.07	143.72	124.83	43.175	6.1641e-06	53.453	209.795	3.831	8.209	-85.534	5.120	79.251	-85.357	-81.046	36.360	41.781	-81.624	-77.082	-76.807	-72.035	119.022	-72.879	-8191	255	
26806.584	1	1	0	0	0.40615	0.15398	0.17335	0.036849	0.221	0.11303	0.044912	0.14886	0.044648	0.23752	0.13475	0.3215	0.2459	0.089583	0.38581	0.22215	-1.1792	-2.1833	-1.475	-1.7083	-1.9146	-1.7208	-2.0292	-2.0083	-1.4604	-2.1167	-1.8104	-1.8125	-2.0146	-1.525	-1.7958	-1.9333	246.312	213.529	96.418	196.416	23.340	-76.025	-80.973	-23.405	10.166	163.511	257.749	221.538	-25.727	228.117	8.992	227.112	0.00016528	0.00038613	0.0001456	1377.3	1.9912e-06	6.915e-06	1372.1	370.19	4.3829e-06	3.3208e-06	422.79	140.92	120.69	42.511	4.8959e-06	52.575	0.00052111	0.0005611	0.00015878	1384.9	6.2132e-06	6.1209e-06	1384.5	375.33	6.2984e-06	6.1978e-06	428.64	144.01	124.91	43.235	6.2928e-06	53.46	205.271	26.745	-26.401	-85.646	61.345	29.014	-85.473	-80.946	9.292	2.745	-81.833	-77.125	-76.789	-72.039	41.987	-72.540	-8191	255	
26806.656	1	1	0	0	0.14302	0.22343	0.32483	0.14751	0.15431	0.084261	0.14886	0.17765	0.084381	0.10768	0.12831	0.072307	0.18873	0.22443	0.17989	0.26871	-1.2	-2.1146	-1.4708	-1.6146	-1.8687	-1.6875	-2.05	-1.9167	-1.4896	-1.9792	-1.7333	-1.8188	-1.9271	-1.4708	-1.8813	-1.9167	-12.657	151.451	181.242	-89.498	17.753	-54.017	218.821	183.524	118.615	-65.790	97.708	-77.510	198.207	205.436	200.179	59.177	0.0001775	0.00052525	0.0001253	1380.4	2.8682e-06	3.8819e-06	1373	370.61	2.5205e-06	7.7654e-06	426.12	141.04	120.31	42.276	5.6477e-06	52.52	0.0005361	0.0005786	0.00015916	1387	6.2773e-06	6.3024e-06	1384.9	375.64	6.3639e-06	6.1658e-06	429.95	143.74	124.9	43.189	6.2286e-06	53.516	196.999	-19.846	-13.928	-85.373	16.680	83.867	-85.570	-81.078	25.405	56.525	-81.532	-77.181	-76.342	-72.192	25.224	-72.831	-8191	255	
26806.752	1	1	0	0	0.066414	0.03137	0.12108	0.46758	0.13348	0.41979	0.33001	0.072836	0.23654	0.041701	0.18471	0.28497	0.065489	0.19635	0.043026	0.257	-1.0438	-2.0083	-1.6521	-1.5562	-2.0917	-1.4562	-1.8833	-2.1688	-1.4896	-2.0083	-1.6979	-1.8167	-1.9646	-1.5479	-1.7229	-1.9833	77.537	10.597	123.647	228.341	45.590	-23.801	206.827	231.425	72.186	235.082	-2.612	190.490	6.313	-96.279	197.714	203.694	0.00018987	0.00044355	0.00020458	1383.6	3.0523e-06	5.1322e-06	1374.7	369.82	3.581e-06	4.6168e-06	422.3	140.91	120.49	42.474	4.7061e-06	52.392	0.0005261	0.00056133	0.00015733	1386.8	6.196e-06	6.1402e-06	1384.4	375.11	6.1875e-06	6.1314e-06	428.82	143.64	124.94	43.216	6.1454e-06	53.388	210.541	-7.162	6.225	-85.414	82.737	60.589	-85.471	-80.993	39.782	38.359	-81.440	-76.903	-76.883	-72.028	51.579	-72.484	-8191	255	
26806.848	1	1	0	0	0.083137	0.17043	0.11045	0.18013	0.22526	0.093424	0.21972	0.22854	0.36848	0.25753	0.11217	0.23208	0.14253	0.24154	0.16665	0.19384	-1.0625	-1.7604	-1.6729	-1.5979	-2.0917	-1.6333	-1.7833	-1.8542	-1.4854	-1.8833	-1.8667	-1.5792	-2.0563	-1.775	-1.5771	-2.225	55.979	124.690	-93.652	-36.073	188.734	-34.091	197.116	210.814	83.302	74.729	226.142	203.772	-89.674	222.134	67.772	227.343	0.00020277	0.00045068	0.0002223	1378.5	4.1006e-06	4.211e-06	1373.6	370.57	4.5381e-06	6.0063e-06	424.68	140.43	120.48	42.262	4.9782e-06	52.208	0.00052517	0.00055311	0.00015868	1384.4	6.049e-06	6.1544e-06	1384.1	375.23	6.2232e-06	6.1445e-06	427.82	143.52	124.69	43.153	6.1394e-06	53.331	196.632	-18.555	-9.702	-85.593	52.713	73.568	-85.577	-81.112	-33.176	53.743	-81.343	-77.389	-76.793	-71.816	32.203	-72.460	-8191	255	
26806.969	1	1	0	0	0.2434	0.19341	0.1634	0.17995	0.16617	0.2414	0.20636	0.31453	0.24868	0.2189	0.11303	0.28341	0.098826	0.20559	0.28276	0.085905	-1.1313	-1.7208	-1.9708	-1.4542	-1.9646	-1.8125	-1.625	-2.1813	-1.6437	-1.8729	-2.0229	-1.6625	-2.0417	-1.8167	-1.4937	-2.1521	246.251	183.688	67.633	114.042	163.900	-36.859	201.551	89.294	224.906	117.663	162.607	160.665	-4.702	-83.146	214.624	67.503	0.00022655	0.00052912	0.00019639	1384	5.0596e-06	7.3024e-06	1368.1	370.27	2.2985e-06	5.3613e-06	423.16	140.88	120.42	42.5	3.394e-06	52.364	0.00052792	0.00055968	0.00016011	1386.5	6.2252e-06	6.2852e-06	1382.5	375.29	6.1861e-06	6.2791e-06	428.96	143.45	124.87	43.257	6.1869e-06	53.401	207.624	-2.746	2.498	-85.443	36.300	43.462	-85.671	-81.212	-25.797	4.857	-81.177	-76.971	-76.775	-72.040	56.646	-72.721	-8191	255	
26807.064	1	1	0	0	0.07228	0.21718	0.17916	0.2911	0.03578	0.19745	0.25863	0.20052	0.064349	0.11871	0.2336	0.1004	0.17098	0.35281	0.19466	0.1473	-1.0875	-1.6667	-1.8125	-1.6667	-1.7875	-1.8188	-1.9354	-2.2562	-1.5063	-1.7667	-1.9667	-1.6625	-1.8958	-1.9479	-1.5042	-1.9979	231.210	158.084	37.390	208.297	251.030	86.237	203.865	224.053	22.048	25.796	249.417	15.608	-52.612	233.760	88.346	168.839	0.00016101	0.0004683	0.00014069	1381	2.7751e-06	3.3139e-06	1364	368.41	1.4141e-06	4.3844e-06	421.19	140.78	119.51	42.328	4.6743e-06	52.258	0.00051087	0.00056239	0.000156	1384.8	6.0863e-06	6.0944e-06	1379.9	374.25	6.1497e-06	5.9819e-06	427.12	143.29	124.15	42.974	6.0024e-06	53.26	205.967	1.992	-13.247	-85.677	72.938	-7.958	-85.518	-81.070	-70.932	55.813	-81.454	-76.880	-76.822	-72.118	29.084	-72.694	-8191	255	
26807.160	1	1	0	0	0.21093	0.17958	0.061014	0.069401	0.31127	0.036722	0.50977	0.14647	0.20771	0.1274	0.14703	0.18622	0.079516	0.14728	0.14498	0.19536	-1.1437	-1.4896	-1.9667	-1.5833	-1.7417	-1.9229	-1.7062	-2.025	-1.5146	-1.5646	-1.9312	-1.6979	-1.8	-2.0396	-1.275	-1.975	11.998	-95.110	252.851	146.586	45.255	92.264	185.561	238.738	109.222	163.710	256.006	-48.510	234.093	258.088	48.676	-27.270	0.000214	0.00077217	0.00019202	1374.4	2.8918e-06	9.1314e-06	1367.1	369.8	1.4617e-06	3.8722e-06	424.48	139.98	119.91	42.175	3.1445e-07	52.172	0.00051396	0.00055916	0.00015467	1382.6	5.9869e-06	6.2342e-06	1380.7	374.17	6.2617e-06	6.0498e-06	427.84	143.05	124.44	42.98	6.1781e-06	53.208	216.012	6.663	1.516	-85.456	119.277	61.194	-85.479	-81.042	34.427	63.253	-81.396	-77.137	-77.012	-72.138	-3.767	-72.503	-8191	255	
26807.232	1	1	0	0	0.34108	0.1182	0.012089	0.17468	0.13477	0.099518	0.28084	0.092114	0.071495	0.20715	0.089368	0.28553	0.25403	0.47943	0.17274	0.14538	-1.2125	-1.6896	-1.9917	-1.4875	-1.6708	-1.9354	-1.525	-1.9729	-1.8062	-1.6562	-2.0458	-1.5646	-1.7854	-2.1021	-1.4458	-1.975	-8.675	217.341	68.574	99.972	113.789	124.905	167.417	147.306	83.325	37.459	-40.143	-89.475	-72.092	230.442	12.315	-48.130	0.00020609	0.00032023	0.00015755	1371.8	1.8793e-06	6.2131e-06	1371.6	368.77	1.1268e-06	2.9195e-06	421.84	140.09	119.97	42.073	2.9853e-06	52.174	0.00052181	0.00056704	0.00015753	1381.6	6.126e-06	6.3024e-06	1382.6	373.87	6.2638e-06	6.21e-06	427.5	143.05	124.26	42.929	6.2692e-06	53.198	198.761	-1.463	-10.509	-85.477	55.047	48.496	-85.357	-80.937	16.016	56.277	-81.260	-76.962	-76.892	-72.179	9.384	-72.389	-8191	255	
26807.354	1	1	0	0	0.21748	0.11223	0.066041	0.19737	0.034583	0.047639	0.272	0.12812	0.13638	0.14435	0.33135	0.078199	0.22148	0.18273	0.25434	0.1423	-1.3146	-1.4042	-1.775	-1.6542	-1.6063	-1.8937	-1.6646	-1.8542	-1.8729	-1.6688	-1.9042	-1.6729	-1.6104	-2.25	-1.5646	-1.9292	215.129	107.222	-92.986	175.206	122.497	92.400	231.020	18.437	189.246	140.999	240.821	84.411	206.967	210.146	-71.948	215.233	0.00017311	0.00070598	0.00015666	1377.9	3.6157e-06	1.5199e-06	1368	368.73	1.4924e-06	8.8796e-06	422.79	140.62	120.88	42.009	5.535e-06	52.069	0.00053366	0.00057576	0.00015974	1383.1	6.2381e-06	6.4741e-06	1382	374.09	6.3498e-06	6.3282e-06	428.03	143.25	124.65	42.917	6.3396e-06	53.145	196.211	-9.083	14.950	-85.475	65.427	9.085	-85.331	-80.938	-28.385	72.691	-81.615	-77.179	-76.851	-72.147	41.231	-72.482	-8191	255	
26807.449	1	1	0	0	0.24805	0.089355	0.083576	0.15328	0.43696	0.41206	0.054373	0.098523	0.11595	0.17693	0.14278	0.084141	0.068851	0.0614	0.22666	0.25464	-1.3167	-1.6063	-1.8125	-1.7313	-1.675	-1.8292	-1.725	-1.9937	-1.8625	-1.3708	-1.8333	-2.0042	-1.6521	-1.975	-1.5521	-1.8083	-28.379	228.881	233.017	15.478	9.757	172.744	186.080	190.990	193.428	-50.482	201.741	-49.899	-3.952	23.337	-74.537	-25.100	0.00015135	0.00050531	0.00015933	1375.7	1.0156e-06	5.8496e-06	1369.2	369.51	6.7205e-07	5.9153e-06	424.05	140.23	120.53	42.168	2.4587e-06	52.211	0.00052986	0.00058243	0.00016072	1386.2	6.2172e-06	6.2525e-06	1381.9	374.48	6.3221e-06	6.4158e-06	428.1	143.27	124.25	43.001	6.2595e-06	53.179	211.984	9.914	-10.036	-85.791	17.104	57.900	-85.510	-80.952	103.924	55.839	-81.081	-77.128	-76.760	-72.251	43.268	-72.568	-8191	255	
26807.547	1	1	0	0	0.26784	0.11508	0.2865	0.33548	0.075672	0.12735	0.17975	0.018856	0.07247	0.17635	0.29396	0.14965	0.056164	0.30877	0.16329	0.13591	-1.6042	-1.4438	-1.8354	-1.8083	-1.5896	-2.0417	-1.7667	-1.7583	-1.9771	-1.5125	-2.0354	-1.8354	-1.3937	-2.3167	-1.7167	-1.7458	71.439	45.692	129.930	224.096	240.271	6.038	102.394	235.914	14.615	132.671	239.936	146.305	176.275	-70.320	55.493	134.820	0.00018709	0.00034719	0.00013563	1378.8	7.5639e-07	5.4967e-06	1374.8	369.12	3.6962e-06	6.8428e-06	424.16	141.16	120.75	42.284	3.7203e-06	52.494	0.00053275	0.00058958	0.00016123	1384.5	6.4058e-06	6.2826e-06	1385.2	374.74	6.5023e-06	6.3249e-06	428.38	143.6	124.76	43.159	6.4249e-06	53.391	194.174	-80.844	6.957	-85.549	-92.512	68.754	-85.599	-80.965	14.803	43.605	-81.376	-77.111	-76.596	-72.018	40.065	-72.643	-8191	255	
26807.664	1	1	0	0	0.1347	0.25504	0.14333	0.19419	0.053689	0.16559	0.095159	0.15638	0.14273	0.1487	0.16599	0.22797	0.12232	0.22092	0.20012	0.13635	-1.5771	-1.4562	-1.9562	-2.0104	-1.5583	-1.9979	-1.7542	-1.6958	-1.7854	-1.5854	-2.025	-1.8292	-1.5438	-1.9833	-1.65	-1.8062	153.676	-95.022	119.267	223.726	-20.069	-53.539	212.394	141.221	69.961	-84.723	152.128	178.876	-56.600	253.765	204.623	183.252	0.00014523	0.00084947	0.00011593	1379.5	2.0898e-06	6.0718e-06	1370.8	370.28	3.137e-06	6.8564e-06	424.87	141.07	120.67	42.199	3.1701e-06	52.26	0.00054406	0.00058833	0.00016276	1386.8	6.3533e-06	6.3322e-06	1384.9	374.86	6.4107e-06	6.4374e-06	428.71	143.59	124.77	43.016	6.5001e-06	53.257	214.547	-9.395	3.029	-85.289	46.140	64.403	-85.628	-80.983	-7.591	58.448	-81.647	-77.041	-77.022	-72.092	53.383	-72.404	-8191	255	
26807.762	1	1	0	0	0.043098	0.12369	0.1313	0.18272	0.05868	0.2335	0.17586	0.14848	0.20849	0.12322	0.22597	0.17259	0.15699	0.22615	0.13056	0.21064	-1.4271	-1.5688	-1.6979	-2.0271	-1.5688	-1.8563	-1.9146	-1.7375	-1.9333	-1.7271	-1.8458	-1.9458	-1.5208	-2.0187	-1.7417	-1.7812	-72.950	127.977	180.594	238.918	212.928	4.124	193.665	205.866	258.847	91.517	66.873	195.185	-0.996	-10.461	181.646	123.320	0.00017246	0.00057191	0.00017066	1379.1	3.299e-06	5.8058e-06	1367.4	369.91	2.556e-06	4.7684e-06	426.77	140.45	121.02	42.047	4.3201e-06	52.127	0.00053947	0.00058747	0.00015919	1386.2	6.3454e-06	6.3464e-06	1383.5	374.87	6.2958e-06	6.4194e-06	428.88	143.51	124.57	42.936	6.4009e-06	53.232	207.652	-14.153	-20.088	-85.637	42.373	69.578	-85.562	-81.048	-48.843	51.226	-81.492	-77.094	-76.681	-72.068	62.013	-72.808	-8191	255	
26807.857	1	1	0	0	0.19408	0.16078	0.15295	0.10018	0.1439	0.070821	0.026744	0.35272	0.28012	0.21829	0.05603	0.24402	0.10792	0.16167	0.1643	0.10507	-1.4479	-1.4688	-1.7188	-1.9458	-1.5896	-1.9354	-2.0042	-1.8583	-1.9062	-1.6187	-1.8167	-2.0042	-1.5021	-2.05	-1.8542	-1.5333	201.530	-93.856	247.671	-83.840	140.572	237.117	-74.939	-93.806	-53.951	138.865	-85.274	27.230	235.902	183.977	-20.673	-89.385	0.0002064	0.00059359	0.00015281	1380.8	3.5255e-06	7.0648e-06	1373.9	369.43	3.2714e-06	5.0924e-06	422.94	140.33	119.79	42.138	5.0883e-06	52.258	0.00052351	0.00057989	0.00016064	1385.8	6.371e-06	6.3288e-06	1386	374.72	6.4007e-06	6.3536e-06	428.01	143.03	124.26	42.929	6.399e-06	53.179	198.616	0.035	7.255	-85.561	45.248	58.751	-85.561	-81.144	29.578	82.613	-81.565	-77.016	-76.419	-71.961	87.752	-72.517	-8191	255	
26807.953	1	1	0	0	0.23732	0.097206	0.16006	0.47361	0.11061	0.29049	0.42647	0.21128	0.10694	0.21861	0.12688	0.1283	0.23227	0.15724	0.062691	0.1268	-1.5167	-1.6521	-1.6479	-1.9813	-1.4688	-1.5917	-1.9875	-1.5604	-1.8375	-1.7208	-1.5063	-2.0917	-1.7167	-1.8604	-1.5354	-1.475	-2.087	-4.824	96.542	254.175	126.335	170.418	210.235	19.448	-13.530	16.963	-89.815	142.065	232.052	-91.269	227.287	88.573	0.00018204	0.00037644	0.00013464	1376	2.2362e-06	7.5587e-06	1366.8	369.19	3.4137e-06	4.7787e-06	424.31	139.87	120.17	42.166	7.7199e-06	52.312	0.0005383	0.00059845	0.00016291	1384.1	6.4048e-06	6.4276e-06	1382.7	374.7	6.5036e-06	6.4295e-06	428.45	143.2	124.36	42.92	6.3428e-06	53.222	202.268	-48.192	-18.297	-85.589	32.811	57.900	-85.477	-80.845	-12.890	19.427	-81.400	-77.215	-76.783	-71.926	47.711	-72.755	-8191	255	
26808.049	1	1	0	0	0.27195	0.20018	0.09281	0.17023	0.27671	0.062474	0.2233	0.17426	0.25055	0.10783	0.1495	0.074119	0.18698	0.23176	0.3306	0.035679	-1.3792	-1.725	-1.475	-2.1625	-1.5792	-1.85	-1.8854	-1.6458	-1.8896	-1.5854	-1.5417	-2.1104	-1.4271	-1.8292	-1.85	-1.4833	236.914	67.330	251.037	248.173	248.728	236.166	183.893	250.372	43.954	183.584	61.357	206.515	-31.599	-93.952	-37.963	-76.729	0.00018443	0.0006418	0.00022869	1378	4.2246e-06	5.0712e-06	1372.9	368.88	3.0098e-06	5.7047e-06	423.06	140.62	120.59	42.113	7.0138e-06	52.04	0.00053598	0.00058179	0.00016101	1384.5	6.3745e-06	6.2231e-06	1383.5	374.11	6.2613e-06	6.3012e-06	427.95	143.17	124.35	42.897	6.4104e-06	53.175	205.808	-34.678	-4.394	-85.521	52.972	56.886	-85.556	-81.098	80.846	44.165	-81.249	-77.171	-76.716	-72.032	38.343	-72.695	-8191	255	
26808.145	1	1	0	0	0.067946	0.17405	0.040749	0.27682	0.21541	0.20675	0.21268	0.35111	0.25956	0.17242	0.31117	0.036877	0.16406	0.12404	0.12649	0.19081	-1.5312	-1.8062	-1.5708	-2.125	-1.4958	-1.6583	-2.025	-1.5479	-1.9167	-1.8813	-1.3396	-1.8979	-1.6667	-1.7375	-1.8	-1.4042	162.779	131.027	14.023	235.715	-84.105	251.204	205.513	-90.871	-16.509	113.205	118.560	-88.163	260.653	-56.175	-8.147	129.606	0.00017381	0.00078298	0.00011872	1373.9	3.0413e-06	5.1787e-06	1369.4	370	2.409e-06	4.0259e-06	425.2	140.87	119.89	42.165	6.7016e-06	52.369	0.00053113	0.00057843	0.00016177	1383.9	6.4335e-06	6.4229e-06	1383.6	374.49	6.3311e-06	6.4368e-06	428.93	143.54	124.45	43.04	6.4816e-06	53.329	203.526	-17.655	-9.156	-85.584	42.219	62.608	-85.353	-81.025	23.702	70.360	-81.535	-77.050	-76.867	-72.124	-16.238	-72.465	-8191	255	
26808.266	1	1	0	0	0.1034	0.11892	0.086921	0.082045	0.085495	0.21782	0.36492	0.096881	0.097444	0.14246	0.20259	0.22378	0.35819	0.29306	0.16374	0.36439	-1.4833	-1.8292	-1.3479	-2.1271	-1.5354	-1.5854	-2.0021	-1.6063	-1.7521	-1.7812	-1.5625	-1.9813	-1.7729	-1.7708	-1.9937	-1.5292	202.322	197.274	95.871	157.915	52.153	-31.084	239.315	250.388	132.149	200.305	-60.888	6.720	-92.373	257.036	128.632	126.538	0.00018598	0.00074712	8.9121e-05	1378.8	3.1527e-06	3.4223e-06	1370.4	369.48	3.7143e-06	6.8525e-06	423.63	140.36	119.83	42.097	7.8955e-06	51.863	0.00053285	0.00058715	0.00016322	1384.4	6.3058e-06	6.2949e-06	1385.3	374.32	6.3821e-06	6.3615e-06	428.04	143.34	124.54	42.941	6.3882e-06	53.114	205.776	-8.010	-3.057	-85.561	29.726	11.081	-85.520	-81.060	37.593	64.564	-81.552	-76.997	-76.543	-72.139	45.040	-72.835	-8191	255	
26808.359	1	1	0	0	0.041369	0.13202	0.17555	0.29902	0.11621	0.096487	0.18242	0.40736	0.16058	0.10317	0.17814	0.050626	0.12151	0.32444	0.16173	0.19386	-1.4813	-1.6625	-1.4708	-2.0417	-1.5958	-1.6042	-2.3896	-1.6667	-1.6917	-1.8021	-1.6104	-1.9562	-1.6833	-1.6646	-1.9854	-1.7396	9.497	95.577	5.843	-97.472	148.731	-96.215	180.809	162.067	-35.659	253.506	-81.831	-64.306	-54.780	156.683	53.992	80.466	0.00017181	0.00046022	0.00012416	1380.2	1.2018e-06	3.4243e-06	1377.5	370.76	3.7544e-06	7.9462e-06	424.62	140.93	120.55	42.272	1.6634e-06	52.457	0.000533	0.00058653	0.00016358	1386.2	6.3854e-06	6.5454e-06	1386.4	375.68	6.4494e-06	6.4347e-06	430.09	143.75	125.16	43.147	6.4773e-06	53.399	207.364	10.028	0.152	-85.411	47.610	65.668	-85.603	-80.915	40.679	55.636	-81.237	-77.059	-76.956	-72.031	147.339	-72.575	-8191	255	
26808.455	1	1	0	0	0.092814	0.28914	0.1191	0.18834	0.15492	0.23913	0.3371	0.076287	0.23502	0.074002	0.071766	0.21449	0.35085	0.12616	0.33344	0.11187	-1.2437	-1.6917	-1.3854	-2.0771	-1.8042	-1.5542	-2.1354	-1.6125	-1.825	-1.9292	-1.6812	-1.9438	-1.6542	-1.5458	-2.0521	-1.6313	168.520	165.798	68.992	-90.409	6.003	-61.369	249.589	182.579	103.433	179.965	132.779	244.081	142.717	1.205	-78.335	111.895	0.00020214	0.00035839	0.00012704	1378.8	4.6307e-06	2.6195e-06	1377.8	369.38	1.6612e-06	1.0254e-05	424.61	140.81	120.47	42.317	3.3833e-06	52.105	0.00053988	0.00058657	0.0001658	1387.4	6.4417e-06	6.3357e-06	1386.7	375.26	6.4374e-06	6.5007e-06	429.79	143.81	124.95	43.162	6.4896e-06	53.333	197.087	-22.298	-21.171	-85.561	38.369	44.637	-85.429	-81.040	28.026	43.557	-81.945	-76.952	-76.821	-72.080	108.146	-72.644	-8191	255	
26808.529	1	1	0	0	0.0071431	0.29203	0.097059	0.22359	0.095452	0.15516	0.054713	0.088147	0.211	0.097617	0.29035	0.16741	0.17443	0.2051	0.1871	0.1991	-1.0938	-2.0042	-1.5458	-1.8958	-1.7583	-1.3875	-2.0208	-1.9167	-1.4562	-1.9688	-1.4167	-1.8396	-1.6958	-1.5146	-1.8667	-1.5896	238.555	91.674	7.300	246.338	157.273	14.489	21.656	159.758	164.788	225.969	118.442	146.139	224.411	-90.110	74.154	-65.011	0.00017644	0.00072712	0.00019977	1379.7	5.67e-06	4.3556e-06	1369.7	368.97	3.8722e-06	8.3224e-06	426.24	140.62	120.98	42.296	2.982e-06	52.006	0.00054011	0.00059393	0.00016273	1388.7	6.3324e-06	6.4297e-06	1385.6	375.38	6.3901e-06	6.3646e-06	430.59	143.42	125.06	43.106	6.3885e-06	53.292	192.961	2.613	16.921	-85.660	43.911	14.027	-85.588	-81.089	-37.751	24.093	-81.577	-77.008	-76.904	-72.123	-7.472	-72.603	-8191	255	
26808.648	1	1	0	0	0.20003	0.079107	0.17483	0.14831	0.20345	0.22922	0.2345	0.25378	0.23233	0.13815	0.24416	0.2133	0.10732	0.43258	0.19506	0.1388	-0.85	-1.8521	-1.4771	-1.7854	-1.6917	-1.4292	-2.0521	-1.7542	-1.4729	-2.0354	-1.5271	-1.7458	-1.9271	-1.5229	-1.5958	-1.8208	165.902	4.221	6.757	-91.373	250.399	-21.975	-98.423	108.476	236.333	21.036	231.627	-68.819	239.398	226.345	192.631	-95.108	0.00018319	0.00065841	0.00014065	1379.5	4.3272e-06	6.0196e-06	1375.3	368.36	1.7185e-06	2.6178e-06	422.91	141.12	120.49	42.247	4.3189e-06	52.484	0.00053565	0.00057262	0.00016179	1387.2	6.2791e-06	6.3825e-06	1384.4	374.77	6.388e-06	6.3601e-06	428.62	143.78	124.8	43.082	6.3812e-06	53.306	204.074	-43.437	-0.885	-85.313	27.504	50.336	-85.587	-81.121	64.951	61.823	-81.302	-77.116	-76.809	-71.873	-1.595	-72.557	-8191	255	
26808.744	1	1	0	0	0.19762	0.22622	0.15149	0.25666	0.041491	0.23968	0.069584	0.13096	0.051685	0.089071	0.072645	0.402	0.21005	0.25639	0.11136	0.27058	-1.1542	-2.0792	-1.6521	-1.7812	-2.0375	-1.3167	-1.9688	-2.0271	-1.5875	-2	-1.7354	-1.7333	-2.0062	-1.2333	-1.8604	-2.0208	54.022	154.472	36.137	215.616	-65.185	92.019	-5.884	225.515	-60.673	59.861	182.392	-96.894	244.305	244.440	140.143	149.067	0.00017191	0.00050379	0.00014078	1379.2	3.1683e-06	2.3347e-06	1371.2	370.17	3.5681e-06	7.5071e-06	423.24	140	120.07	42.191	4.7101e-06	52.238	0.00053813	0.00057546	0.00016278	1384.7	6.3899e-06	6.376e-06	1384.4	375.49	6.3516e-06	6.2705e-06	428.21	143.39	124.44	43.06	6.3051e-06	53.295	200.447	11.686	51.118	-85.467	17.870	39.333	-85.541	-80.948	-5.850	23.133	-81.566	-77.148	-76.844	-72.047	62.140	-72.493	-8191	255	
26808.842	1	1	0	0	0.1981	0.35032	0.34248	0.22016	0.27021	0.17463	0.25689	0.1309	0.30193	0.17808	0.23665	0.21008	0.14832	0.076285	0.067916	0.078344	-0.95833	-1.9292	-1.7396	-1.7604	-1.8438	-1.3958	-1.9479	-1.9854	-1.5063	-1.9375	-1.7854	-1.5562	-2.0458	-1.6	-1.8312	-1.8354	245.405	-73.490	24.997	224.653	-20.497	40.560	-91.824	162.099	190.506	226.815	202.881	-96.046	-40.905	39.539	-0.644	177.069	0.00016857	0.0007135	0.00023162	1380.7	5.4047e-07	6.1284e-06	1368.4	370.83	3.9614e-06	6.5377e-06	422.94	140.93	120.69	42.249	4.3337e-06	52.057	0.00053229	0.00057625	0.00016193	1386.4	6.2422e-06	6.3176e-06	1382.5	375.39	6.3907e-06	6.3713e-06	427.74	143.48	124.83	43.04	6.3213e-06	53.18	193.850	-28.914	-8.608	-85.423	105.833	38.540	-85.401	-81.086	19.810	44.513	-81.591	-76.942	-76.620	-71.914	62.674	-72.669	-8191	255	
26808.938	1	1	0	0	0.19367	0.1779	0.29356	0.18742	0.21451	0.23247	0.25342	0.30529	0.15072	0.45361	0.20214	0.19604	0.32242	0.16899	0.0628	0.14101	-1.1063	-1.9042	-1.475	-1.5271	-1.9958	-1.3458	-1.8958	-2.0042	-1.5375	-1.8813	-1.9625	-1.2667	-2.0042	-1.7333	-1.7583	-2.0833	61.934	44.790	179.762	-83.179	-66.361	15.127	74.160	233.679	65.410	-61.392	-73.555	-76.160	-94.828	141.964	8.421	205.543	0.0001812	0.00049018	0.00015389	1377.2	4.776e-06	4.3637e-06	1372.1	369.68	8.52e-07	1.8988e-06	423.43	140.33	120.2	42.146	2.5038e-06	51.966	0.00052964	0.00057263	0.00016019	1384.3	6.2591e-06	6.2854e-06	1384	374.69	6.2987e-06	6.2119e-06	428.37	143.06	124.42	42.97	6.2359e-06	53.099	212.344	-42.561	-1.843	-85.759	46.789	69.039	-85.371	-80.941	-58.338	87.313	-81.331	-77.111	-76.955	-72.076	-27.704	-72.746	-8191	255	
26809.033	1	1	0	0	0.063255	0.22305	0.087322	0.070032	0.079589	0.11238	0.3761	0.25965	0.094631	0.086669	0.18689	0.23604	0.074413	0.10642	0.25364	0.20247	-1.1125	-1.8375	-1.9667	-1.5708	-1.9562	-1.6896	-1.9458	-2.0896	-1.5333	-1.6708	-1.8792	-1.5833	-1.8771	-1.8583	-1.4333	-2.0958	247.331	-71.809	63.409	82.032	251.182	-73.414	133.632	238.354	228.929	-22.835	18.644	67.944	74.690	0.115	171.245	229.030	0.00019984	0.00063311	7.1963e-05	1379.4	1.6489e-06	2.8214e-06	1365.2	369.36	3.1842e-06	3.9772e-06	420.83	140.46	120.46	42.094	3.873e-06	52.205	0.00052131	0.0005645	0.00015977	1382.6	6.1863e-06	6.1503e-06	1381.5	374.34	6.2447e-06	6.1224e-06	426.93	143.25	124.57	42.931	6.3286e-06	53.219	208.053	-16.413	35.462	-85.363	9.757	8.264	-85.563	-80.897	52.453	23.442	-81.491	-77.046	-76.595	-71.940	56.986	-72.573	-8191	255	
26809.129	1	1	0	0	0.11431	0.28822	0.21453	0.18048	0.144	0.237	0.29081	0.46036	0.17613	0.18155	0.28768	0.30638	0.18976	0.087167	0.09615	0.22436	-1.2271	-1.9542	-1.875	-1.7104	-1.7417	-1.725	-1.6167	-2.1417	-1.4021	-1.8	-1.9479	-1.5417	-1.7833	-1.8854	-1.45	-2.0979	8.395	175.681	85.910	-61.006	237.316	-34.504	199.363	246.832	123.437	77.225	195.151	-45.746	219.922	121.365	138.654	-87.569	0.00019953	0.00071991	0.00018125	1373.7	4.2303e-06	7.1694e-06	1368.5	370.17	3.1281e-06	4.6617e-06	425.98	139.92	120.01	42.204	3.7357e-06	52.062	0.00053597	0.00057324	0.00016314	1384	6.1291e-06	6.2438e-06	1381.8	375.05	6.2614e-06	6.1897e-06	428.41	142.96	124.01	42.917	6.2188e-06	53.153	217.988	-13.176	-26.065	-85.553	42.185	58.166	-85.667	-80.991	-7.728	39.304	-81.559	-77.049	-76.833	-72.046	51.682	-72.481	-8191	255	
26809.227	1	1	0	0	0.24963	0.24253	0.24006	0.27325	0.084642	0.11096	0.22398	0.087613	0.014539	0.13144	0.27527	0.44675	0.096174	0.19723	0.15826	0.11775	-1.1125	-1.4708	-1.8229	-1.75	-1.7792	-1.7521	-1.75	-2.2542	-1.6583	-1.6396	-2.0083	-1.5312	-1.8583	-1.9771	-1.4479	-2.0771	-28.578	76.189	-86.759	-30.166	234.192	-14.157	172.772	214.283	148.093	-17.201	194.680	-94.626	90.032	199.681	23.681	47.226	0.0001748	0.00062941	8.5535e-05	1378	4.7632e-06	4.9978e-06	1370.5	369.28	1.3123e-06	7.832e-06	424.21	140.2	120.98	42.158	5.9532e-06	52.194	0.00052695	0.00056677	0.00016022	1384.1	6.1882e-06	6.1744e-06	1383.6	374.49	6.228e-06	6.2075e-06	428.02	143.17	124.6	42.932	6.2836e-06	53.259	198.972	-31.576	1.042	-85.306	12.737	66.320	-85.447	-81.073	52.894	32.205	-81.497	-77.161	-77.232	-71.899	37.565	-72.501	-8191	255	
26809.346	1	1	0	0	0.27772	0.14795	0.26501	0.19278	0.14279	0.30557	0.27564	0.31882	0.27231	0.29583	0.18683	0.1233	0.14371	0.18763	0.45604	0.19785	-1.1021	-1.6229	-1.9438	-1.6917	-1.7625	-1.7583	-1.5896	-1.9	-1.7	-1.5438	-1.9104	-1.6229	-1.7354	-1.9312	-1.4854	-2.0667	77.666	-67.806	122.496	259.775	92.997	-8.630	186.958	211.413	106.936	51.139	182.190	-50.194	176.254	-66.069	204.778	210.951	0.00015665	0.00036882	0.00011485	1377.9	2.9618e-06	7.6672e-06	1377	370.33	1.6625e-07	6.196e-06	421.41	140.41	120.9	41.921	5.4969e-06	52.155	0.0005299	0.00057272	0.00015931	1385.4	6.2524e-06	6.2797e-06	1385.4	374.65	6.2242e-06	6.2104e-06	427.09	143.13	124.49	42.815	6.3312e-06	53.18	209.846	-21.397	-16.464	-85.673	66.515	32.176	-85.477	-81.004	-10.222	44.495	-81.253	-77.079	-76.776	-72.042	46.813	-72.496	-8191	255	
26809.441	1	1	0	0	0.1639	0.12068	0.074014	0.40548	0.25079	0.14114	0.38137	0.13036	0.06653	0.089286	0.2191	0.29341	0.12417	0.29595	0.24217	0.066756	-1.1187	-1.4937	-1.9125	-1.6437	-1.5938	-1.7812	-1.6542	-1.9042	-1.7771	-1.3167	-1.9708	-1.7188	-1.725	-1.7563	-1.5438	-1.9979	109.173	-84.499	126.937	218.976	-37.163	23.025	101.820	-48.585	-47.425	64.095	-80.658	-93.166	172.950	209.155	57.232	226.864	0.00018521	0.0005156	7.5484e-05	1380.3	2.3295e-06	1.0305e-05	1371.4	369.41	7.147e-07	4.1472e-06	422.97	140.39	120.06	42.149	6.7654e-06	52.267	0.00053518	0.00057295	0.00016104	1386.9	6.2974e-06	6.3637e-06	1384.2	375.56	6.4159e-06	6.3368e-06	428.42	143.31	124.5	43.002	6.4117e-06	53.275	198.997	-11.753	-72.455	-85.514	72.489	52.143	-85.476	-81.120	160.405	30.770	-81.563	-77.058	-76.942	-71.972	34.056	-72.391	-8191	255	
26809.537	1	1	0	0	0.26125	0.1932	0.07658	0.11675	0.21954	0.12172	0.46341	0.090492	0.046093	0.19076	0.16137	0.32509	0.12418	0.27501	0.20394	0.073623	-1.3375	-1.5625	-2	-1.6854	-1.6313	-2.0417	-1.7417	-2.0021	-1.8979	-1.5479	-1.9813	-1.9333	-1.6896	-2.0604	-1.4937	-1.8708	-98.249	5.370	-13.693	208.217	-91.738	162.396	171.234	163.473	73.458	214.303	126.732	243.667	151.058	-79.730	-37.949	74.854	0.00018338	0.00040948	0.00010964	1380.4	2.7606e-06	4.0321e-06	1374.4	369.97	1.2513e-06	2.7874e-06	425.38	140.19	119.73	42.172	3.0868e-06	52.046	0.00053877	0.00058513	0.00015989	1384.6	6.2533e-06	6.4229e-06	1383.2	375.04	6.3493e-06	6.461e-06	429.82	143.2	124.46	42.949	6.4096e-06	53.235	202.331	-26.703	-10.899	-85.450	101.132	44.272	-85.572	-80.883	-50.492	76.291	-81.209	-77.331	-76.828	-71.967	50.026	-72.637	-8191	255	
26809.635	1	1	0	0	0.1448	0.24891	0.21023	0.23472	0.1007	0.27405	0.20177	0.097836	0.067991	0.25432	0.14418	0.15755	0.28034	0.095111	0.073882	0.090295	-1.425	-1.4479	-1.9333	-1.7146	-1.5688	-2.0479	-1.6313	-1.8875	-1.9625	-1.2958	-1.7979	-1.8083	-1.5104	-1.9833	-1.7479	-1.8229	213.857	183.394	-31.097	186.021	29.994	-26.455	194.916	28.155	228.728	176.712	246.021	-80.606	-82.254	187.460	135.627	-81.033	0.00019729	0.00080205	0.00011691	1380.6	2.6668e-06	7.297e-06	1371.1	369.8	5.6466e-07	6.6105e-06	426.14	140.32	121.35	42.295	3.0967e-06	52.106	0.00054194	0.00059011	0.00016053	1388.2	6.4048e-06	6.4489e-06	1384.2	375.15	6.4781e-06	6.515e-06	429.51	143.4	125.13	43.009	6.3934e-06	53.12	191.416	-12.290	-15.379	-85.356	17.293	27.379	-85.553	-81.006	21.615	39.133	-81.814	-77.189	-76.533	-72.035	27.958	-72.427	-8191	255	
26809.754	1	1	0	0	0.16687	0.36423	0.15875	0.37148	0.25297	0.084864	0.16496	0.2547	0.15531	0.2217	0.19966	0.28108	0.1094	0.31046	0.16795	0.1119	-1.4875	-1.2188	-1.7792	-1.8083	-1.4583	-2.0229	-1.8458	-1.8292	-1.8625	-1.7833	-1.7146	-2.0167	-1.5854	-2.1396	-1.7042	-1.5438	7.234	-93.114	-21.438	251.688	71.361	191.557	253.328	224.847	42.720	-9.715	126.592	-91.837	-77.888	225.028	209.099	173.214	0.00023496	0.00033934	0.00015429	1380.4	1.6766e-06	9.4755e-06	1373.1	369	2.9643e-06	4.1907e-06	424.17	140.81	121.3	42.264	3.6499e-06	52.281	0.00054868	0.00059432	0.00016453	1388.2	6.519e-06	6.4826e-06	1385.8	375.49	6.5624e-06	6.6027e-06	429.76	143.84	125.27	43.133	6.5861e-06	53.364	195.576	-48.749	-0.190	-85.658	30.403	52.793	-85.557	-81.135	54.359	28.075	-81.663	-77.183	-76.775	-72.057	-9.280	-72.657	-8191	255	
26809.824	1	1	0	0	0.13851	0.25506	0.10183	0.22322	0.31704	0.15136	0.2919	0.20085	0.053583	0.11937	0.22059	0.19838	0.12061	0.28373	0.23813	0.17448	-1.5646	-1.5208	-1.9979	-2.1688	-1.5312	-2.0375	-1.7208	-1.6417	-1.9021	-1.4	-1.8542	-1.9292	-1.5063	-2.0125	-1.6604	-1.7854	36.751	19.595	-27.933	178.799	-60.563	58.685	205.477	203.561	222.435	42.457	-3.158	-48.404	-75.999	254.616	54.474	-31.476	0.00020676	0.00056838	0.00011701	1381.4	1.6306e-07	7.846e-06	1376	371.59	2.0081e-06	3.704e-06	423.87	141.62	120.33	42.355	1.109e-06	52.267	0.00054695	0.00060852	0.00016879	1388.8	6.6345e-06	6.5321e-06	1387.9	376.55	6.6688e-06	6.6474e-06	430	144.1	125.21	43.178	6.5443e-06	53.45	214.444	32.153	14.031	-85.714	4.497	86.529	-85.526	-80.992	65.166	31.219	-81.600	-77.103	-76.553	-72.043	-51.451	-72.634	-8191	255	
26809.945	1	1	0	0	0.33342	0.11738	0.14633	0.076601	0.20868	0.13326	0.44938	0.24952	0.23744	0.13704	0.093127	0.32094	0.30936	0.22615	0.40017	0.18924	-1.3937	-1.3958	-1.7687	-2.0021	-1.4083	-1.8479	-1.9521	-1.5292	-1.8125	-1.4958	-1.9062	-1.8542	-1.3917	-1.9771	-1.6521	-1.7021	257.429	146.869	-38.260	125.640	99.033	79.868	-93.410	-98.045	212.902	18.520	72.017	242.004	-79.989	211.435	177.144	260.208	0.00019164	0.00052286	0.00018032	1383.4	3.847e-07	8.7687e-06	1377.2	370.69	3.3049e-06	6.6076e-06	424.82	141.55	120.54	42.375	4.5959e-06	52.488	0.00054745	0.00060403	0.00016627	1388.7	6.4832e-06	6.4287e-06	1389.9	375.89	6.5831e-06	6.5223e-06	430.63	143.97	125.16	43.157	6.6555e-06	53.478	208.341	-7.016	5.187	-85.475	-43.819	50.746	-85.514	-80.919	39.558	14.145	-81.344	-77.019	-77.275	-71.979	30.500	-72.599	-8191	255	
26810.043	1	1	0	0	0.12707	0.24705	0.36886	0.22867	0.075387	0.25662	0.16935	0.28491	0.26763	0.16368	0.37303	0.23771	0.21138	0.22457	0.12635	0.22814	-1.5396	-1.55	-1.4625	-2.1354	-1.4458	-1.8396	-1.7542	-1.6063	-1.8417	-1.5854	-1.6771	-1.8979	-1.4062	-1.6896	-1.7938	-1.7854	-5.909	-16.199	-48.867	146.245	-5.577	242.539	188.616	-91.838	-2.446	80.705	177.994	245.215	155.260	-97.466	49.382	-71.171	0.00019053	0.00035585	0.0001107	1385.9	2.1014e-06	4.6978e-06	1377.9	370.54	2.0148e-06	3.8132e-06	424.38	140.79	121.58	42.445	4.2801e-06	52.387	0.00055496	0.00059858	0.00016446	1391.2	6.6703e-06	6.4313e-06	1388.1	376.33	6.4803e-06	6.5559e-06	429.75	143.87	125.15	43.173	6.6417e-06	53.434	199.681	-29.293	-10.887	-85.554	105.643	29.036	-85.376	-80.962	30.315	4.656	-81.216	-77.069	-76.712	-71.990	33.675	-72.385	-8191	255	
26810.139	1	1	0	0	0.13587	0.24642	0.082149	0.20183	0.18678	0.43684	0.23846	0.1199	0.29607	0.036221	0.17322	0.18456	0.095624	0.13715	0.075767	0.20823	-1.5708	-1.6437	-1.5896	-2.0229	-1.4271	-1.7208	-1.8833	-1.6771	-1.9854	-1.8271	-1.6667	-1.975	-1.375	-1.8813	-1.75	-1.5125	17.949	5.814	121.584	260.839	81.774	-81.120	-96.389	-88.052	107.757	9.205	22.983	226.054	-91.731	-85.603	-0.836	-79.225	0.00019225	0.00040583	0.00013335	1383.2	5.6077e-06	4.6576e-06	1372.3	370.98	3.0599e-06	2.45e-06	423.36	141	120.43	42.383	3.1199e-06	52.448	0.00054948	0.00059625	0.00016757	1390	6.4774e-06	6.4879e-06	1387	376.26	6.5751e-06	6.5352e-06	429.45	143.79	124.95	43.153	6.5283e-06	53.401	201.198	8.400	-26.776	-85.295	58.776	93.429	-85.695	-81.093	-16.555	33.955	-81.785	-77.238	-76.993	-72.117	71.362	-72.554	-8191	255	
26810.234	1	1	0	0	0.14341	0.24519	0.090379	0.1856	0.21467	0.32145	0.19882	0.12225	0.24209	0.21387	0.28299	0.17274	0.11094	0.22217	0.095513	0.22001	-1.2375	-1.8375	-1.4333	-2.2333	-1.625	-1.5958	-2.0563	-1.625	-1.8917	-1.7687	-1.6417	-1.95	-1.7125	-1.9458	-1.8687	-1.5729	-32.548	11.387	259.243	255.220	-3.817	-47.346	256.996	260.639	97.244	253.933	-69.570	253.828	166.988	238.649	-26.496	96.061	0.00017558	0.00045694	4.8342e-05	1382.5	2.2644e-06	6.111e-06	1374.3	371.23	1.3197e-06	8.233e-06	425.55	140.53	121.13	42.273	5.552e-06	52.595	0.00054966	0.00060202	0.00017019	1389.3	6.5215e-06	6.6005e-06	1387.8	376.04	6.4577e-06	6.6498e-06	428.84	143.65	125.22	43.142	6.5397e-06	53.494	204.615	-22.025	-78.979	-85.526	80.940	70.744	-85.476	-80.961	69.705	64.339	-81.439	-77.082	-76.616	-72.108	27.889	-72.617	-8191	255	
26810.330	1	1	0	0	0.12476	0.063799	0.26299	0.17638	0.13219	0.14775	0.5196	0.29286	0.21214	0.12322	0.30411	0.099324	0.15899	0.20377	0.3734	0.038636	-1.4042	-1.7083	-1.3333	-1.9708	-1.5083	-1.4896	-2.0125	-1.4354	-1.8896	-1.8104	-1.6146	-2.1458	-1.5729	-1.8229	-1.9604	-1.7437	-0.324	190.912	-49.248	-66.757	-63.876	233.752	-91.781	-51.235	203.478	83.247	175.028	-38.371	120.643	216.750	46.975	-29.371	0.00019661	0.00063571	0.00017169	1382.2	6.0961e-06	4.5167e-06	1374.4	370.41	1.8359e-06	8.3301e-06	424.35	140.82	120.78	42.253	4.5726e-06	52.368	0.00054769	0.0006018	0.00016689	1388.3	6.3601e-06	6.3614e-06	1387.8	375.39	6.4069e-06	6.4754e-06	429.42	143.66	125.06	42.989	6.4649e-06	53.31	214.937	-11.239	30.732	-85.782	46.601	56.462	-85.413	-81.035	26.600	64.359	-81.454	-76.962	-76.689	-72.179	40.907	-72.786	-8191	255	
26810.428	1	1	0	0	0.20998	0.12069	0.18849	0.40313	0.15544	0.17077	0.034119	0.33704	0.13842	0.25168	0.093646	0.14164	0.40527	0.089622	0.22441	0.067921	-1.3312	-1.7833	-1.5271	-2.0312	-1.4979	-1.5104	-2.1312	-1.6104	-1.8083	-1.9292	-1.3979	-2.0771	-1.6354	-1.4271	-1.8438	-1.6729	210.568	34.482	145.127	257.642	-57.734	-92.933	5.544	198.885	-80.645	-6.372	88.829	224.720	-41.211	33.257	81.037	-65.721	0.00018557	0.00025317	0.00022663	1382.2	5.407e-06	6.4267e-06	1375.9	370.83	2.6652e-06	4.189e-06	420.95	140.44	120.41	42.226	5.3483e-06	52.081	0.00053815	0.00059017	0.00016753	1388.6	6.5588e-06	6.5413e-06	1386.8	376.04	6.418e-06	6.543e-06	428.97	143.37	124.86	43.053	6.4698e-06	53.229	204.443	16.113	5.881	-85.737	0.165	-6.144	-85.403	-80.848	104.514	14.401	-81.488	-77.025	-76.859	-71.989	62.202	-72.449	-8191	255	
26810.523	1	1	0	0	0.44822	0.033504	0.18927	0.12086	0.2234	0.010823	0.33223	0.21344	0.2566	0.10252	0.080335	0.13265	0.18724	0.15667	0.17193	0.13591	-1.1917	-1.9792	-1.2208	-2.0208	-1.6792	-1.4729	-2.1125	-1.5812	-1.7042	-1.7292	-1.5854	-1.925	-1.8729	-1.3896	-1.8687	-1.7083	54.500	-68.692	75.922	176.177	-80.771	161.955	189.345	234.990	-12.546	-15.960	196.933	75.966	247.635	-51.806	114.897	154.750	0.00020594	0.00072682	0.00014575	1384.2	3.1178e-06	4.9867e-06	1373.4	369.9	2.2626e-06	3.8727e-06	427.06	141.14	119.85	42.136	2.5897e-06	52.114	0.00054734	0.00060799	0.00016759	1388.8	6.4267e-06	6.5032e-06	1386.4	375.32	6.4981e-06	6.4434e-06	429.82	143.7	124.73	43.076	6.5013e-06	53.226	200.471	-20.513	-35.980	-85.436	33.730	44.109	-85.637	-80.978	27.556	49.039	-81.293	-77.065	-76.503	-71.992	18.056	-72.623	-8191	255	
26810.617	1	1	0	0	0.12957	0.12637	0.19613	0.0894	0.12613	0.27217	0.29435	0.12541	0.14734	0.24351	0.098483	0.0046109	0.26908	0.12991	0.097094	0.1594	-1.1458	-1.9083	-1.4583	-1.9396	-1.9833	-1.4333	-2.2188	-1.6437	-1.5125	-1.7938	-1.5021	-1.9438	-1.8396	-1.5458	-1.9771	-1.8563	145.259	219.737	-30.751	113.505	24.068	-5.277	170.376	175.147	252.801	-39.415	215.062	-33.479	232.760	160.424	147.213	-95.988	0.00018148	0.00078203	0.00010749	1380.1	3.6861e-06	7.0246e-06	1376.6	370.13	2.4273e-07	3.1665e-06	423.37	140.85	120.33	42.053	5.1094e-06	52.202	0.00053903	0.00059265	0.00016594	1388	6.4595e-06	6.5541e-06	1388.3	375.9	6.4515e-06	6.5111e-06	428.83	143.59	124.94	42.954	6.5152e-06	53.21	209.001	26.628	11.803	-85.579	20.617	59.138	-85.544	-81.008	239.196	57.339	-81.469	-77.004	-76.713	-72.138	31.900	-72.538	-8191	255	
26810.715	1	1	0	0	0.27196	0.49261	0.13418	0.18936	0.070676	0.10786	0.11948	0.38491	0.18071	0.10978	0.23642	0.066451	0.12393	0.19948	0.22263	0.19293	-1.2104	-1.8083	-1.575	-2.0875	-1.8521	-1.3542	-2.1479	-1.7646	-1.6708	-1.8687	-1.6938	-1.9438	-1.9042	-1.4625	-1.8438	-1.9208	28.401	-70.622	28.855	207.161	244.751	36.047	133.231	217.777	180.193	182.273	138.006	238.353	-18.684	102.206	116.699	121.091	0.0001882	0.00013476	0.00010801	1381.5	7.5032e-06	7.5028e-06	1374	370.92	8.9102e-07	5.6226e-06	424.32	140.7	121.55	42.398	1.3969e-06	52.197	0.00055415	0.00059151	0.0001656	1387.2	6.4954e-06	6.6118e-06	1386.4	375.95	6.5668e-06	6.5461e-06	430.03	143.8	125.2	43.143	6.5274e-06	53.349	206.337	-7.686	-31.126	-85.495	85.245	30.864	-85.553	-80.972	27.300	7.536	-81.279	-77.109	-76.638	-72.100	6.459	-72.527	-8191	255	
26810.834	1	1	0	0	0.086051	0.070931	0.1847	0.078451	0.1564	0.058196	0.3226	0.22999	0.1546	0.07678	0.027442	0.25273	0.18979	0.23311	0.17238	0.34047	-0.97292	-1.7271	-1.5479	-1.8042	-1.9229	-1.5021	-1.9208	-1.9354	-1.4896	-1.9792	-1.6875	-1.6625	-1.8208	-1.6167	-1.9667	-1.7958	31.088	72.717	36.765	155.787	182.093	32.856	216.099	96.597	-79.870	14.568	-6.358	-82.997	184.471	129.101	195.716	164.961	0.00018889	0.00047881	9.8767e-05	1376.4	3.0758e-06	7.096e-06	1375.3	369.71	2.9904e-06	5.7986e-06	424.41	140.12	120.85	42.192	2.4125e-06	51.935	0.000546	0.00059449	0.00016757	1388	6.4299e-06	6.5592e-06	1386	375.08	6.4686e-06	6.3372e-06	429.48	143.47	124.82	43.041	6.4215e-06	53.095	205.598	-0.937	-34.658	-85.686	69.018	68.725	-85.541	-80.915	-9.885	33.572	-81.329	-77.067	-77.041	-71.985	78.635	-72.509	-8191	255	
26810.930	1	1	0	0	0.22444	0.1399	0.025473	0.24536	0.36984	0.14213	0.036173	0.52569	0.29871	0.11585	0.15674	0.15072	0.30525	0.13613	0.092087	0.035487	-1.0167	-1.8521	-1.5896	-1.4854	-1.8667	-1.5792	-1.7396	-1.9167	-1.3875	-1.8667	-1.6708	-1.7229	-1.9833	-1.5625	-1.7729	-1.9833	22.448	249.084	14.819	192.078	242.793	128.641	-54.349	192.673	166.520	53.261	199.282	-67.537	-33.565	171.163	81.686	34.319	0.00017703	0.00079739	0.0001678	1378.8	2.1645e-06	5.3995e-06	1372.1	369.77	4.0278e-06	6.2746e-06	428.62	140.76	120.53	42.26	1.4267e-06	52.36	0.0005546	0.00059042	0.00016677	1387.2	6.5255e-06	6.5335e-06	1386.3	375.5	6.6159e-06	6.5301e-06	430.53	143.77	125.01	43.1	6.5073e-06	53.39	205.567	-5.078	-40.446	-85.420	37.166	27.289	-85.634	-81.066	95.216	3.544	-81.693	-77.141	-76.752	-71.891	20.281	-72.651	-8191	255	
26811.025	1	1	0	0	0.16193	0.14349	0.23269	0.4062	0.179	0.047969	0.33598	0.022712	0.19156	0.20708	0.34943	0.061757	0.21975	0.22015	0.16355	0.094653	-0.86875	-1.8021	-1.8229	-1.6437	-2.2208	-1.5667	-2.0187	-2.2292	-1.3979	-1.9	-1.7104	-1.4396	-1.9667	-1.7333	-1.5438	-1.9354	155.772	71.357	-11.882	255.188	147.776	-79.117	221.027	61.521	126.878	194.035	212.619	3.103	171.225	233.522	246.542	193.422	0.00018867	0.00024579	0.00010109	1378.7	1.5866e-06	7.7006e-06	1371	370.13	2.2082e-06	4.9209e-06	424.96	141.06	119.74	42.236	7.1617e-06	52.455	0.00055849	0.00059211	0.00016641	1389.1	6.4787e-06	6.5111e-06	1386.9	375.46	6.5298e-06	6.416e-06	429.92	143.59	124.59	43.044	6.5075e-06	53.301	198.150	41.202	-0.161	-85.546	-9.319	48.134	-85.565	-80.979	260.150	32.914	-81.574	-77.349	-76.865	-72.243	5.351	-72.569	-8191	255	
26811.121	1	1	0	0	0.023704	0.069016	0.18123	0.20718	0.080878	0.13673	0.20574	0.21517	0.20022	0.21832	0.20573	0.21749	0.2246	0.079092	0.10422	0.088796	-0.9125	-1.7833	-1.5979	-1.5854	-1.8458	-1.4021	-1.8146	-2.0271	-1.5083	-1.825	-1.8	-1.6437	-2.0979	-1.6229	-1.6917	-2	192.857	226.439	83.692	-89.942	34.789	115.886	230.681	213.344	181.101	11.113	41.864	-39.294	106.933	-96.052	1.106	248.458	0.00020148	0.00060577	0.00021072	1380.3	3.6719e-06	5.5265e-06	1379.7	369.97	4.4205e-06	5.2655e-06	425.45	141.1	120.31	42.223	4.0462e-06	52.095	0.00054569	0.00058706	0.00016942	1389.6	6.4532e-06	6.5392e-06	1388	375.38	6.7346e-06	6.4822e-06	430.32	143.81	125.03	43.075	6.657e-06	53.354	205.094	-26.924	-13.102	-85.637	28.371	76.246	-85.549	-80.969	42.234	5.594	-81.537	-76.980	-76.767	-72.222	26.675	-72.422	-8191	255	
26811.219	1	1	0	0	0.087921	0.16367	0.15208	0.14286	0.073736	0.28666	0.37131	0.023374	0.19501	0.17711	0.20337	0.41833	0.069581	0.23069	0.097928	0.10959	-1.0208	-1.7604	-1.7687	-1.4292	-1.9458	-1.7667	-1.7021	-2.0521	-1.6604	-1.8312	-1.9937	-1.5417	-1.8292	-1.7625	-1.6458	-2.1479	44.436	25.054	-42.216	189.137	-2.287	10.446	176.546	-6.528	-1.564	166.192	16.654	-39.489	222.046	221.310	27.155	-35.303	0.00021789	0.0008635	0.00011389	1383.1	5.1088e-06	7.9419e-06	1376.6	370.87	1.2253e-06	6.123e-06	428.48	140.14	120.06	42.18	2.6872e-06	52.315	0.00056151	0.00060148	0.00016821	1388.8	6.5785e-06	6.5762e-06	1387.9	375.92	6.6114e-06	6.6661e-06	430.52	143.77	125.12	43.096	6.5957e-06	53.398	201.792	26.089	15.627	-85.394	-22.674	46.028	-85.502	-80.961	-96.300	16.054	-81.550	-77.154	-76.434	-72.198	97.374	-72.742	-8191	255	
26811.314	1	1	0	0	0.29929	0.25294	0.17191	0.14798	0.084034	0.11492	0.080195	0.34144	0.071423	0.18378	0.087201	0.09202	0.12646	0.16399	0.2241	0.099132	-1.0875	-1.6646	-1.8896	-1.5083	-1.7771	-1.85	-1.5229	-2.1875	-1.6708	-1.7021	-1.7833	-1.6042	-1.8854	-1.7479	-1.3958	-2.0687	-32.325	38.149	-9.681	-66.035	236.445	105.018	218.811	222.792	64.431	-37.360	-44.764	-50.977	-89.269	56.909	-98.708	-95.474	0.00020114	0.00054606	0.00018678	1382.3	2.9308e-06	6.4708e-06	1375.5	371.38	9.5068e-07	6.3234e-06	424.73	140.58	119.6	42.338	3.7599e-06	52.163	0.00055682	0.0006014	0.00016865	1390.5	6.5781e-06	6.6424e-06	1387.4	376.1	6.6368e-06	6.6058e-06	430.1	143.71	124.77	43.132	6.5943e-06	53.328	209.451	-41.848	-24.728	-85.435	70.965	46.894	-85.387	-81.168	87.105	15.001	-81.198	-77.198	-77.081	-71.957	72.078	-72.515	-8191	255	
26811.436	1	1	0	0	0.081067	0.18168	0.27473	0.22225	0.20251	0.32716	0.66657	0.41378	0.22486	0.14454	0.11249	0.035908	0.083855	0.24307	0.34952	0.16946	-1.1979	-1.5438	-1.8729	-1.4625	-1.7729	-1.8792	-1.5562	-2.1396	-1.6479	-1.5542	-1.8917	-1.6146	-1.65	-1.7667	-1.4271	-2.1437	-31.528	-86.806	-94.404	73.477	77.916	182.689	156.488	197.432	45.800	147.442	196.475	256.971	-89.650	258.746	8.075	168.175	0.00018907	0.00077531	0.00022979	1384.9	2.3161e-06	3.3256e-06	1372.3	371.61	1.0925e-06	4.7787e-06	423.14	141.25	120.84	42.339	5.4805e-06	52.428	0.00056634	0.00061299	0.00016981	1390.5	6.6296e-06	6.7294e-06	1387.6	376.25	6.6939e-06	6.6325e-06	429.27	144.05	125.06	43.122	6.6936e-06	53.347	204.375	-12.815	-8.013	-85.510	23.264	27.609	-85.530	-81.031	11.135	35.724	-81.475	-77.059	-76.988	-71.927	44.672	-72.671	-8191	255	
26811.529	1	1	0	0	0.25241	0.15827	0.17627	0.078793	0.25281	0.32658	0.25221	0.13769	0.080768	0.33029	0.11047	0.05831	0.21304	0.16179	0.21973	0.20716	-1.2729	-1.5562	-2.0021	-1.65	-1.675	-1.8833	-1.7792	-2.1167	-1.6479	-1.375	-1.9562	-1.6458	-1.6958	-1.9542	-1.3604	-2.0438	92.206	-58.636	95.086	247.870	-56.550	130.527	-71.831	257.305	64.626	-89.255	-82.659	177.384	-92.895	129.542	138.227	140.446	0.00021643	0.00028825	9.0553e-05	1383.5	2.0444e-06	1.9458e-06	1378.6	369.77	8.5251e-07	4.2184e-06	423.99	141.1	119.89	42.136	4.0355e-06	52.454	0.00056448	0.00061572	0.00016966	1389.6	6.6137e-06	6.6084e-06	1388.4	376.03	6.6831e-06	6.6596e-06	429.54	143.9	124.82	43.046	6.5442e-06	53.442	212.343	-26.079	-38.453	-85.361	55.611	24.469	-85.418	-81.154	152.011	25.209	-81.487	-76.979	-76.992	-72.181	46.415	-72.550	-8191	255	
26811.627	1	1	0	0	0.079737	0.14769	0.055991	0.1989	0.23411	0.061423	0.22151	0.10339	0.024342	0.070754	0.13868	0.024634	0.13787	0.25432	0.11257	0.098622	-1.1146	-1.4771	-1.9562	-1.7021	-1.55	-1.8542	-1.6125	-1.9562	-1.7812	-1.5333	-1.8979	-1.5938	-1.6938	-1.8604	-1.4188	-1.7833	-87.389	-21.597	49.433	86.653	-67.190	50.122	207.541	207.247	-47.453	-54.524	231.191	251.241	28.316	-96.940	190.710	117.882	0.00016633	0.00075962	0.00018491	1381.2	5.0665e-06	3.4885e-06	1375.1	370.64	1.4278e-06	3.7058e-06	423.81	141.24	120.5	42.066	5.7685e-06	52.115	0.00056762	0.00060484	0.00016945	1388.7	6.5018e-06	6.5935e-06	1387.3	375.47	6.6083e-06	6.6522e-06	429.23	143.41	124.63	43.011	6.5787e-06	53.306	210.927	7.929	-30.187	-85.513	47.677	55.422	-85.492	-80.895	19.982	75.180	-81.470	-76.978	-76.714	-72.016	57.715	-72.657	-8191	255	
26811.723	1	1	0	0	0.19014	0.081538	0.28994	0.09818	0.25702	0.17276	0.45687	0.098229	0.28236	0.12301	0.078461	0.26726	0.11244	0.033975	0.13661	0.27749	-1.2458	-1.3188	-1.9958	-1.8958	-1.5438	-2.0042	-1.5979	-1.9188	-1.8896	-1.5562	-1.7792	-1.7208	-1.5354	-2.1229	-1.6833	-1.8687	26.340	45.222	127.632	-9.477	47.809	-43.511	167.012	70.427	-3.754	228.581	5.383	157.510	54.977	120.353	2.907	-95.202	0.00020947	0.00059722	0.00015542	1377.9	3.5594e-06	7.1019e-06	1377.9	371.59	2.3971e-06	6.341e-06	422.29	140.48	120.59	42.274	5.461e-07	52.282	0.00056222	0.00061074	0.00016891	1388	6.6052e-06	6.6128e-06	1388.3	375.8	6.6448e-06	6.4831e-06	429.84	143.62	124.95	43.075	6.6217e-06	53.269	210.356	-22.601	-46.993	-85.698	73.423	45.308	-85.412	-80.970	64.627	36.549	-81.563	-77.125	-76.825	-72.093	-30.086	-72.436	-8191	255	
#DATA ENDS
