BOXY.EXE: ISS Imagent and Oximeter Data Acquisition Program Version 0.80
Ascii Record File

#ACQ INFORMATION
2  Detector Channels 
16  External MUX Channels 
1  Auxiliary Channels 
5000  Waveform (CCF) Frequency (Hz)
1  Waveforms Skipped 
30  Waveforms Averaged 
1  Cycles Averaged 
16  Acquisitions per Waveform 
10.0806  Updata Rate (Hz) 

#FILE INFORMATION
TRUE -- External MUX Channel results are PARSED.
FALSE -- AC DC and Phase are NOT grouped.
TRUE -- Companion Program Settings File CREATED.
FALSE -- AC data not excluded
FALSE -- DC data not excluded
FALSE -- Phase data not excluded
FALSE -- Auxillary Chn. data not excluded
Tab delimiters

#CALIBRATION STATE
TRUE -- Waveform Calibration Values APPLIED.


#AUX CALIBRATION VALUES
Val Type	aux-1	

Term	1.0000e+00	
Factor	0.0000e+00	


#WF CALIBRATION VALUES
A = Detector Channel
Val Type	A-AC1	A-AC2	A-AC3	A-AC4	A-AC5	A-AC6	A-AC7	A-AC8	A-AC9	A-AC10	A-AC11	A-AC12	A-AC13	A-AC14	A-AC15	A-AC16	A-DC1	A-DC2	A-DC3	A-DC4	A-DC5	A-DC6	A-DC7	A-DC8	A-DC9	A-DC10	A-DC11	A-DC12	A-DC13	A-DC14	A-DC15	A-DC16	A-Ph1	A-Ph2	A-Ph3	A-Ph4	A-Ph5	A-Ph6	A-Ph7	A-Ph8	A-Ph9	A-Ph10	A-Ph11	A-Ph12	A-Ph13	A-Ph14	A-Ph15	A-Ph16	

Term	0.00000e+00	0.00000e+00	0.00000e+00	0.00000e+00	0.00000e+00	0.00000e+00	0.00000e+00	0.00000e+00	0.00000e+00	0.00000e+00	0.00000e+00	0.00000e+00	0.00000e+00	0.00000e+00	0.00000e+00	0.00000e+00	0.00000e+00	0.00000e+00	0.00000e+00	0.00000e+00	0.00000e+00	0.00000e+00	0.00000e+00	0.00000e+00	0.00000e+00	0.00000e+00	0.00000e+00	0.00000e+00	0.00000e+00	0.00000e+00	0.00000e+00	0.00000e+00	0.00000e+00	0.00000e+00	0.00000e+00	0.00000e+00	0.00000e+00	0.00000e+00	0.00000e+00	0.00000e+00	0.00000e+00	0.00000e+00	0.00000e+00	0.00000e+00	0.00000e+00	0.00000e+00	0.00000e+00	0.00000e+00	
Factor	1.00000e+00	1.00000e+00	1.00000e+00	1.00000e+00	1.00000e+00	1.00000e+00	1.00000e+00	1.00000e+00	1.00000e+00	1.00000e+00	1.00000e+00	1.00000e+00	1.00000e+00	1.00000e+00	1.00000e+00	1.00000e+00	1.00000e+00	1.00000e+00	1.00000e+00	1.00000e+00	1.00000e+00	1.00000e+00	1.00000e+00	1.00000e+00	1.00000e+00	1.00000e+00	1.00000e+00	1.00000e+00	1.00000e+00	1.00000e+00	1.00000e+00	1.00000e+00	X	X	X	X	X	X	X	X	X	X	X	X	X	X	X	X	

B = Detector Channel
Val Type	B-AC1	B-AC2	B-AC3	B-AC4	B-AC5	B-AC6	B-AC7	B-AC8	B-AC9	B-AC10	B-AC11	B-AC12	B-AC13	B-AC14	B-AC15	B-AC16	B-DC1	B-DC2	B-DC3	B-DC4	B-DC5	B-DC6	B-DC7	B-DC8	B-DC9	B-DC10	B-DC11	B-DC12	B-DC13	B-DC14	B-DC15	B-DC16	B-Ph1	B-Ph2	B-Ph3	B-Ph4	B-Ph5	B-Ph6	B-Ph7	B-Ph8	B-Ph9	B-Ph10	B-Ph11	B-Ph12	B-Ph13	B-Ph14	B-Ph15	B-Ph16	

Term	0.00000e+00	0.00000e+00	0.00000e+00	0.00000e+00	0.00000e+00	0.00000e+00	0.00000e+00	0.00000e+00	0.00000e+00	0.00000e+00	0.00000e+00	0.00000e+00	0.00000e+00	0.00000e+00	0.00000e+00	0.00000e+00	0.00000e+00	0.00000e+00	0.00000e+00	0.00000e+00	0.00000e+00	0.00000e+00	0.00000e+00	0.00000e+00	0.00000e+00	0.00000e+00	0.00000e+00	0.00000e+00	0.00000e+00	0.00000e+00	0.00000e+00	0.00000e+00	-1.45867e+02	-1.23783e+02	-1.30834e+02	-1.84083e+02	-7.58095e+01	-7.30478e+01	-1.55713e+02	-1.62015e+02	-9.03867e+01	-7.43714e+01	-1.85725e+02	-1.70521e+02	-1.87050e+02	-1.76710e+02	-7.51131e+01	-1.49456e+02	
Factor	2.10453e-05	1.52073e-04	4.08231e-05	2.21187e-01	1.33617e-06	1.51758e-06	1.55432e-01	4.94518e-02	1.27884e-06	1.69986e-06	1.93204e-01	2.92118e-02	6.10080e-02	8.76291e-03	1.36065e-06	1.24210e-02	3.01981e-06	3.36426e-06	9.36133e-07	1.14310e-01	3.63966e-08	3.69298e-08	7.62793e-02	2.57675e-02	3.62490e-08	3.68367e-08	9.47209e-02	1.47461e-02	3.12550e-02	4.57521e-03	3.64405e-08	6.30051e-03	X	X	X	X	X	X	X	X	X	X	X	X	X	X	X	X	



#DISTANCE SETTINGS
A = Detector Channel
A-1	A-2	A-3	A-4	A-5	A-6	A-7	A-8	A-9	A-10	A-11	A-12	A-13	A-14	A-15	A-16	

2.5000e+00	3.0000e+00	2.5000e+00	3.0000e+00	2.0000e+00	3.0000e+00	1.5000e+00	3.0000e+00	3.0000e+00	3.0000e+00	3.0000e+00	3.0000e+00	3.0000e+00	3.0000e+00	1.5000e+00	3.0000e+00	

B = Detector Channel
B-1	B-2	B-3	B-4	B-5	B-6	B-7	B-8	B-9	B-10	B-11	B-12	B-13	B-14	B-15	B-16	

1.0000e+01	1.0000e+01	1.0000e+01	1.4400e+00	1.0000e+01	1.0000e+01	1.5100e+00	1.9400e+00	1.0000e+01	1.0000e+01	1.9900e+00	2.4900e+00	2.4100e+00	2.9000e+00	1.0000e+01	2.9800e+00	




#DATA BEGINS
time	group	step	mark	flag	A-AC1	A-AC2	A-AC3	A-AC4	A-AC5	A-AC6	A-AC7	A-AC8	A-AC9	A-AC10	A-AC11	A-AC12	A-AC13	A-AC14	A-AC15	A-AC16	A-DC1	A-DC2	A-DC3	A-DC4	A-DC5	A-DC6	A-DC7	A-DC8	A-DC9	A-DC10	A-DC11	A-DC12	A-DC13	A-DC14	A-DC15	A-DC16	A-Ph1	A-Ph2	A-Ph3	A-Ph4	A-Ph5	A-Ph6	A-Ph7	A-Ph8	A-Ph9	A-Ph10	A-Ph11	A-Ph12	A-Ph13	A-Ph14	A-Ph15	A-Ph16	B-AC1	B-AC2	B-AC3	B-AC4	B-AC5	B-AC6	B-AC7	B-AC8	B-AC9	B-AC10	B-AC11	B-AC12	B-AC13	B-AC14	B-AC15	B-AC16	B-DC1	B-DC2	B-DC3	B-DC4	B-DC5	B-DC6	B-DC7	B-DC8	B-DC9	B-DC10	B-DC11	B-DC12	B-DC13	B-DC14	B-DC15	B-DC16	B-Ph1	B-Ph2	B-Ph3	B-Ph4	B-Ph5	B-Ph6	B-Ph7	B-Ph8	B-Ph9	B-Ph10	B-Ph11	B-Ph12	B-Ph13	B-Ph14	B-Ph15	B-Ph16	aux-1	digaux	

12023.377	1	1	0	256	0.132	0.27236	0.15897	0.128	0.11809	0.077312	0.4722	0.15374	0.39732	0.082454	0.22139	0.35426	0.207	0.34487	0.32283	0.15397	-1.6521	-2.4583	-2.0021	-2.3771	-2.2271	-2.0187	-2.5542	-2.1937	-2.0458	-2.3896	-2	-2.3375	-2.2667	-2.0354	-2.375	-2.2417	-6.998	-106.296	-159.166	76.189	180.783	0.163	133.726	143.080	-32.329	-125.303	80.072	65.619	102.784	169.935	39.997	-17.765	0.00069264	0.0014221	0.00032587	1052.1	5.6844e-06	8.912e-07	914.12	397.22	1.3028e-05	1.1186e-05	383.79	156.37	143.42	54.859	3.87e-06	69.779	0.0037076	0.0040007	0.0011013	1149.9	4.1745e-05	4.2125e-05	977.09	416.13	4.0768e-05	4.1219e-05	471.84	168.84	171.66	58.735	4.1717e-05	75.466	-175.281	8.830	35.641	-161.387	-56.216	155.437	-162.911	-157.565	-51.709	-126.593	-159.351	-155.366	-154.569	-149.090	158.698	-151.191	-8191	255	
12023.473	1	1	0	0	0.23843	0.16644	0.38097	0.25063	0.25506	0.18936	0.33926	0.38224	0.014085	0.19331	0.12633	0.20287	0.1399	0.3858	0.06937	0.29774	-1.4062	-2.2	-2.0312	-2.3375	-2.5271	-1.8271	-2.5167	-2.3667	-2.025	-2.4542	-2.1958	-2.4375	-2.3792	-1.8417	-2.3583	-2.2958	-137.240	-133.725	-54.041	90.241	162.469	-144.689	86.324	98.920	51.356	-130.328	-32.940	32.253	-172.360	178.379	-11.609	170.149	0.00073674	0.0006868	0.00062365	1057.3	3.0382e-06	2.9414e-06	922.04	398.95	2.2253e-06	2.067e-06	388.14	156.8	143.05	55.138	8.2083e-06	69.933	0.0035701	0.0039217	0.0010839	1153.9	4.2178e-05	4.2702e-05	983.21	418.3	4.2136e-05	4.2853e-05	477.47	169.59	172.95	59.013	4.3035e-05	75.747	184.221	-30.964	-36.519	-161.399	-90.813	-99.560	-162.889	-157.500	-7.683	103.624	-159.301	-155.102	-154.402	-148.889	-10.457	-151.166	-8191	255	
12023.592	1	1	0	0	0.13313	0.14152	0.064425	0.19834	0.19271	0.087	0.28347	0.28603	0.08274	0.25889	0.096625	0.26003	0.33202	0.30495	0.29888	0.29325	-1.5417	-2.4771	-2.0375	-2.1312	-2.3771	-1.9479	-2.35	-2.5563	-1.9542	-2.2271	-2.1146	-2.1458	-2.4625	-2.0667	-2.2062	-2.6688	-115.187	-164.603	-103.615	151.376	21.397	-27.283	-59.463	150.010	-87.172	-119.961	58.129	-173.251	63.051	180.900	124.562	87.757	0.0011055	0.00022782	0.00034995	1059.4	1.0561e-05	2.1641e-06	917.15	398.31	7.8387e-06	7.7953e-06	384.64	157.13	143.58	54.775	1.3896e-05	70.389	0.0036577	0.003986	0.0011167	1158.2	4.3152e-05	4.3266e-05	984.48	417.37	4.2076e-05	4.2682e-05	475.2	169.57	172.56	58.913	4.1817e-05	76.016	180.223	122.504	-72.508	-161.453	37.157	97.707	-163.133	-157.491	173.040	-142.267	-159.630	-155.503	-154.788	-149.071	-66.687	-151.151	-8191	255	
12023.664	1	1	0	0	0.31753	0.13144	0.15549	0.18974	0.22287	0.17232	0.15808	0.38909	0.076119	0.35819	0.19407	0.12301	0.16663	0.10713	0.11282	0.16769	-1.4604	-2.5438	-2.0687	-2.2417	-2.4875	-2.0417	-2.4833	-2.5083	-2.0021	-2.2875	-2.2708	-2.1875	-2.4833	-2.2687	-2.0667	-2.625	-117.370	-59.624	13.461	170.358	134.572	98.806	-0.735	156.030	-166.023	32.127	115.423	-175.221	-118.081	-105.948	95.439	134.126	0.00085216	0.0014241	4.2377e-05	1055.8	1.0636e-05	2.4062e-05	916.09	397.47	5.7343e-06	5.5196e-06	383.97	157.09	143.86	55.629	9.3307e-06	71.127	0.0035719	0.0038887	0.0010893	1149.4	4.2239e-05	4.2836e-05	979.56	415.77	4.1821e-05	4.2357e-05	472.83	169.88	171.92	59.489	4.095e-05	76.791	-174.782	-55.930	46.294	-161.687	-107.719	-27.151	-162.979	-157.699	-81.180	80.161	-159.318	-155.159	-154.306	-149.074	-32.586	-152.185	-8191	255	
12023.762	1	1	0	0	0.22864	0.1542	0.037296	0.32793	0.12062	0.14763	0.27291	0.14994	0.11096	0.21922	0.14761	0.10994	0.10025	0.11423	0.18491	0.26137	-1.5146	-2.3583	-2.0646	-2.0125	-2.2417	-2.0333	-2.4021	-2.3875	-1.725	-2.2396	-2.3438	-2.0979	-2.3125	-2	-2.0438	-2.6646	166.090	-172.693	44.105	114.962	26.133	138.259	111.352	72.426	-24.573	29.038	-115.862	-52.335	-15.553	-165.167	61.899	103.336	0.00080159	0.0010117	0.00017424	1041.9	9.9802e-06	4.5785e-06	909.82	395.57	1.0866e-05	1.1696e-05	385.87	159.64	144.19	56.636	3.8382e-06	72.873	0.0034872	0.0038032	0.0010585	1139.8	4.1333e-05	4.2177e-05	976.06	414.5	4.1342e-05	4.2115e-05	476.16	172.09	173.26	60.633	4.181e-05	78.737	177.966	163.053	0.178	-162.034	-25.116	45.777	-163.936	-158.341	-92.203	41.348	-160.220	-156.098	-155.393	-149.797	74.200	-152.068	-8191	255	
12023.881	1	1	0	0	0.25719	0.22129	0.23742	0.098832	0.073181	0.12906	0.18941	0.32679	0.21512	0.043168	0.088721	0.09011	0.10318	0.12334	0.081632	0.24159	-1.6708	-2.0542	-2.1542	-2.0125	-2.4125	-2.1417	-2.3063	-2.5833	-1.8896	-2.2521	-2.3083	-1.9646	-2.4375	-2.0917	-2.0229	-2.4854	95.983	-93.840	-61.574	158.144	-29.436	99.519	134.914	132.172	-30.235	110.366	165.418	129.921	27.233	142.128	130.144	115.630	0.00070917	0.0011637	0.00025482	1042	5.0095e-06	9.5475e-06	915.5	394.59	6.3553e-06	1.8238e-05	390.45	161.07	144.36	57.467	9.5053e-06	74.673	0.0035554	0.0038665	0.0010815	1139.6	4.1562e-05	4.2025e-05	977.93	413.62	4.0843e-05	4.1112e-05	474.12	173.3	172.73	61.288	3.9946e-05	79.892	-175.836	-23.231	134.152	-162.017	-93.904	-137.447	-163.447	-158.305	-100.602	-65.195	-159.402	-156.022	-155.280	-149.547	-103.919	-151.853	-8191	255	
12023.977	1	1	0	0	0.42636	0.12281	0.13718	0.1688	0.20524	0.12168	0.10291	0.12879	0.027873	0.13876	0.2757	0.17583	0.20061	0.060352	0.25883	0.28014	-1.4813	-2.2208	-2.3375	-1.8271	-2.3688	-2.2708	-2.1542	-2.4437	-2.0312	-2.05	-2.3583	-2.0021	-2.3396	-2.2167	-1.85	-2.5167	-90.463	-118.445	145.177	105.802	-102.713	-143.558	-15.447	-34.280	-29.988	119.917	-73.613	34.949	111.295	-85.697	137.664	96.527	0.00088414	0.00051722	0.00019698	1039.3	4.2431e-07	1.2572e-05	916.08	394.8	2.1268e-06	1.1405e-05	390.98	162.27	144.68	57.486	1.1847e-06	74.598	0.0034126	0.003689	0.0010311	1132.4	4.0147e-05	4.1245e-05	977.69	414.12	4.056e-05	4.1112e-05	477.75	174.66	173.34	61.318	4.0264e-05	79.999	180.573	159.241	-144.556	-162.035	-60.337	-24.060	-163.778	-158.228	-109.248	-50.356	-159.650	-155.896	-155.669	-149.806	134.561	-151.928	-8191	255	
12024.073	1	1	0	0	0.24311	0.14311	0.1619	0.16327	0.2253	0.045554	0.061976	0.33361	0.12755	0.081174	0.21417	0.2129	0.16999	0.088281	0.086343	0.037109	-1.5562	-1.9354	-2.2146	-2.25	-2.2229	-2.2604	-1.9458	-2.3771	-2.0479	-1.9708	-2.4271	-2.1312	-2.0812	-2.2313	-1.9688	-2.3917	113.363	-33.800	156.227	168.895	-99.222	62.299	103.036	134.055	-75.157	-46.771	140.269	160.485	164.443	66.927	-78.427	-76.611	0.00081525	0.0017677	0.00020257	1040.8	5.9481e-06	1.4282e-05	918	395.93	8.7507e-06	3.6849e-06	387.49	161.06	144.86	57.177	5.4964e-06	73.762	0.0033702	0.0036459	0.0010128	1129.8	3.8681e-05	3.9244e-05	976.11	413.04	3.8358e-05	3.8315e-05	467.8	171.86	169.35	60.383	3.5673e-05	78.195	182.287	-100.058	-112.063	-162.577	-70.852	-38.305	-163.629	-158.511	-49.218	-25.963	-160.547	-156.221	-155.833	-150.458	-45.177	-152.293	-8191	255	
12024.169	1	1	0	0	0.16988	0.068654	0.16154	0.23205	0.17039	0.15152	0.27376	0.20349	0.16469	0.17654	0.09351	0.081543	0.11561	0.14521	0.23285	0.13078	-1.7188	-1.8771	-2.4021	-2.1208	-2.0979	-2.4125	-1.8375	-2.4917	-2.1458	-1.8896	-2.5292	-2.075	-2.0875	-2.5167	-1.8042	-2.3937	40.723	-120.696	106.292	174.646	-43.682	48.838	163.646	52.775	-174.980	-16.064	-91.896	139.015	22.457	-128.103	33.307	-161.417	0.00075044	0.00067521	0.00018781	1044.3	1.0151e-05	1.1933e-05	910.82	398.13	1.4637e-05	6.3918e-06	391.13	161	147.24	57.326	1.416e-05	73.824	0.0029902	0.0031859	0.00087804	1114.9	3.3482e-05	3.3668e-05	960.73	409.81	3.301e-05	3.381e-05	458.08	170.77	167.82	60.114	3.4075e-05	78.285	181.476	-140.579	-97.554	-162.332	-0.743	15.504	-163.650	-158.431	-45.475	-100.874	-160.378	-156.242	-155.535	-150.182	-12.201	-152.133	-8191	255	
12024.290	1	1	0	0	0.25873	0.18732	0.1834	0.24767	0.070422	0.19718	0.065716	0.42148	0.11567	0.11142	0.28176	0.15423	0.10066	0.25045	0.043282	0.21721	-1.7042	-1.9896	-2.4646	-2.2521	-2.025	-2.3771	-1.9958	-2.4083	-2.3021	-1.9354	-2.4417	-2.1917	-2.0958	-2.425	-1.8875	-2.4292	-152.224	-123.933	31.912	126.158	92.693	46.068	152.465	110.759	-71.241	-85.582	95.197	157.988	-131.679	96.044	-123.744	52.344	0.00081914	0.0010043	0.00014681	1039.4	7.0729e-06	8.268e-06	918.17	395.02	1.9263e-05	1.1872e-05	392.19	161.03	145.08	56.364	1.0085e-05	72.978	0.0029239	0.0031779	0.00088555	1115.4	3.4156e-05	3.4548e-05	965.13	409.81	3.3383e-05	3.3656e-05	456.62	169.82	165.81	59.239	3.2325e-05	77.06	182.516	103.544	174.891	-162.492	-148.189	-59.267	-163.654	-158.431	-105.118	22.038	-160.455	-155.697	-155.066	-149.829	-38.156	-151.623	-8191	255	
12024.361	1	1	0	0	0.1103	0.096459	0.28549	0.13386	0.10709	0.22764	0.073822	0.27711	0.035781	0.39795	0.14172	0.14716	0.1094	0.27217	0.17286	0.19993	-1.7292	-1.6979	-2.3438	-2.2875	-2.0708	-2.3854	-1.9667	-2.3875	-2.2729	-1.9479	-2.3958	-2.1708	-2.0625	-2.4938	-1.925	-2.1854	-124.392	-116.316	107.440	-150.938	-91.989	21.854	-118.651	124.855	-100.607	76.773	-124.609	142.894	-38.497	89.684	53.491	-79.104	0.00070772	0.0010117	0.00016636	1045.5	1.2136e-05	1.0034e-05	922.46	398.13	5.2181e-06	1.6929e-05	392.31	161.08	145.04	56.593	1.1766e-06	73.267	0.0027563	0.0029535	0.00082757	1111.7	3.197e-05	3.2635e-05	965.35	411.06	3.215e-05	3.3009e-05	454.87	169.62	166.69	59.429	3.3024e-05	77.417	179.820	-50.822	10.562	-162.251	-72.962	-30.825	-163.510	-158.351	-74.348	70.201	-160.387	-156.161	-155.622	-149.579	-64.959	-151.630	-8191	255	
12024.457	1	1	0	0	0.079265	0.081687	0.26566	0.13819	0.23632	0.2308	0.1289	0.14431	0.21132	0.11727	0.11421	0.28256	0.2485	0.31959	0.24355	0.24339	-1.8062	-1.7833	-2.3521	-2.3063	-1.9458	-2.5292	-2.3083	-2.3604	-2.3604	-1.9188	-2.3583	-2.4062	-1.9375	-2.4437	-1.9792	-2.1208	118.968	-25.419	137.105	71.886	-42.049	163.818	-1.864	156.539	169.568	49.495	158.172	22.294	-10.180	94.807	104.741	73.877	0.00068293	0.00073812	0.00030353	1045	6.0366e-06	1.2743e-05	920.22	398.24	3.6503e-06	1.9777e-05	391.64	161.3	145.7	57.261	6.0871e-06	73.997	0.0028334	0.0031026	0.00086985	1118.9	3.4196e-05	3.5143e-05	970.92	413.13	3.4919e-05	3.579e-05	464.04	171.93	169.73	60.535	3.5913e-05	78.576	181.229	-161.608	-113.391	-162.454	-99.594	-2.407	-163.782	-158.809	168.831	2.075	-160.516	-156.464	-155.750	-150.250	-53.276	-152.346	-8191	255	
12024.576	1	1	0	0	0.2444	0.19756	0.23228	0.23473	0.14131	0.16283	0.11902	0.090692	0.083874	0.19327	0.13889	0.32201	0.19688	0.40483	0.19938	0.26309	-1.9771	-1.9604	-2.3167	-2.3896	-1.8687	-2.3479	-2.1208	-2.2271	-2.4771	-1.8542	-2.1854	-2.2896	-2.0667	-2.6188	-2.1688	-2.1229	-174.100	139.932	89.640	102.477	-65.312	32.838	124.479	27.737	-140.803	-5.940	-87.427	142.373	173.821	131.181	25.300	-134.135	0.00085496	0.00094232	0.0003634	1050	1.6345e-06	4.5497e-06	924.67	397.44	1.0639e-05	8.9516e-06	389.1	161.47	146.21	57.131	7.2939e-06	73.656	0.0030407	0.0033249	0.00092085	1126	3.5583e-05	3.596e-05	973.7	413.04	3.591e-05	3.6556e-05	465.79	171.88	171.02	60.665	3.704e-05	78.896	-168.507	-88.148	-58.663	-162.646	-49.513	-1.114	-163.957	-158.464	-125.077	-26.054	-160.281	-155.759	-155.426	-149.780	-73.128	-152.057	-8191	255	
12024.672	1	1	0	0	0.34885	0.17403	0.24438	0.26852	0.086187	0.27742	0.14747	0.030857	0.10464	0.11015	0.11899	0.27411	0.29669	0.31872	0.095929	0.13061	-2.0687	-2.1063	-2.3	-2.5083	-1.9271	-2.4125	-2.4708	-2.1063	-2.3125	-2.0458	-2.3	-2.3708	-2.0146	-2.6542	-2.1937	-2.3208	-110.373	157.181	-67.835	-162.990	-45.962	-142.707	37.731	-161.557	149.158	50.759	69.323	168.756	-175.462	105.476	82.086	-166.234	0.00082616	0.00082414	0.00016633	1049.6	1.2554e-05	1.1364e-05	917.17	397.9	3.5572e-06	8.3357e-06	392.25	162.53	145.92	57.466	3.2471e-06	74.524	0.0031685	0.0034304	0.00095583	1130.1	3.7772e-05	3.8097e-05	977.16	414.41	3.7906e-05	3.864e-05	470.9	173.29	172.32	60.955	3.8739e-05	79.414	179.830	-52.891	-56.436	-162.400	-13.832	-25.067	-163.758	-158.217	-115.797	-71.220	-159.432	-156.016	-155.128	-149.892	37.416	-151.955	-8191	255	
12024.769	1	1	0	0	0.053728	0.18943	0.22884	0.35792	0.20227	0.05961	0.072275	0.39608	0.18154	0.3452	0.36555	0.19419	0.16095	0.1412	0.064558	0.21158	-2.1708	-1.9583	-2.2021	-2.3708	-1.725	-2.3937	-2.475	-1.9417	-2.2625	-1.9104	-2.1979	-2.425	-1.8312	-2.2917	-2.1	-2.1833	-55.718	-133.953	-64.674	-131.507	10.779	61.451	-115.221	94.353	-72.658	121.464	83.363	-73.788	-72.281	-4.208	13.425	-147.233	0.00097517	0.0012177	0.00015765	1048.5	5.9055e-06	1.1054e-05	924.48	397.8	5.3073e-06	4.6785e-06	394.8	161.98	145.45	56.903	1.3225e-05	73.446	0.0033203	0.0036206	0.0010137	1137.7	3.9564e-05	4.0189e-05	982.73	416.59	3.9449e-05	3.9704e-05	476.36	173.49	172.9	60.514	3.9634e-05	78.633	179.567	-78.725	-25.671	-162.221	-75.174	-71.608	-163.541	-158.137	-93.237	-96.688	-160.165	-155.545	-155.468	-149.539	-53.919	-151.894	-8191	255	
12024.889	1	1	0	0	0.11908	0.35601	0.22106	0.24862	0.083253	0.2806	0.078071	0.20492	0.25908	0.15872	0.062727	0.12042	0.074751	0.056076	0.091895	0.18846	-2.0708	-2.0854	-2.1729	-2.4979	-2.0417	-2.2542	-2.2375	-2.0146	-2.3604	-1.9958	-2.0417	-2.4583	-2.1312	-2.425	-2.4688	-2.0167	-175.729	68.875	-111.679	-162.521	-152.033	-140.156	75.787	87.741	-64.774	93.078	-62.116	86.175	-38.108	-10.887	84.912	14.014	0.000833	0.00053828	0.0003092	1054.6	1.2296e-05	9.1268e-06	927.77	398	3.7311e-06	4.7613e-06	395.06	161.03	144.17	55.975	5.631e-06	72.419	0.0033404	0.0035963	0.0009975	1139	3.7721e-05	3.8243e-05	981.06	414.62	3.6156e-05	3.6667e-05	468.9	171.54	168.52	59.349	3.545e-05	76.991	182.321	-158.746	-67.211	-162.119	-73.601	68.682	-163.544	-158.218	-93.124	-3.004	-159.689	-155.745	-155.001	-149.493	131.477	-151.495	-8191	255	
12024.961	1	1	0	0	0.021869	0.081101	0.1509	0.083068	0.085883	0.26023	0.17386	0.29151	0.071314	0.13223	0.064314	0.19399	0.10736	0.20345	0.053083	0.15581	-1.8937	-2.1396	-1.9208	-2.4458	-2.0667	-2.1771	-2.2687	-1.9979	-2.3667	-2.0271	-1.8438	-2.4708	-1.9083	-2.0292	-2.3833	-2.0542	3.634	174.908	-102.880	-64.527	-25.974	-60.579	51.114	131.297	72.228	-89.938	-7.847	-170.701	-38.750	144.029	-87.622	164.012	0.00086238	0.00040529	0.0002815	1053.1	2.3833e-06	1.4895e-05	927.23	400.39	1.2887e-05	1.496e-05	389.93	161.72	145.77	56.524	6.9077e-06	73.336	0.0030328	0.0032796	0.00091618	1132	3.5928e-05	3.6101e-05	976.41	414.71	3.5382e-05	3.6107e-05	466.21	171.56	169.78	59.893	3.6031e-05	77.928	-171.372	-71.614	-123.661	-162.247	-20.388	-44.828	-163.417	-157.925	148.276	12.483	-159.762	-155.546	-155.119	-149.606	-86.059	-151.711	-8191	255	
12025.057	1	1	0	0	0.2413	0.16829	0.30278	0.11113	0.10771	0.064213	0.11242	0.41746	0.043805	0.054449	0.043579	0.20291	0.2485	0.17632	0.20808	0.13628	-1.9229	-2.1729	-1.8604	-2.4083	-2.0958	-1.9979	-2.5875	-2.0646	-2.2521	-2.3563	-2.0167	-2.6271	-2.0854	-2.1646	-2.4333	-2.0208	-170.002	76.581	170.547	-106.167	175.332	47.856	5.861	114.820	80.395	149.129	-23.961	-166.873	20.525	165.331	11.983	145.889	0.00084566	0.0015525	0.0002432	1058.4	7.7177e-06	5.5041e-06	926.4	402.3	1.2961e-05	1.2202e-05	391.33	161.98	146.19	57.147	5.2366e-06	73.561	0.0030786	0.0033212	0.00093824	1131.2	3.5715e-05	3.6016e-05	975.32	415.14	3.4809e-05	3.5174e-05	461.86	171.58	168.64	60.21	3.3934e-05	77.952	174.277	-106.201	-27.192	-161.971	-17.405	-108.009	-163.318	-158.098	-60.410	-67.547	-160.199	-155.309	-155.244	-149.379	-115.364	-151.535	-8191	255	
12025.153	1	1	0	0	0.15584	0.13553	0.42444	0.10679	0.32518	0.15625	0.38723	0.34613	0.050358	0.23187	0.030605	0.26376	0.079448	0.08361	0.2133	0.21493	-1.7271	-2.3208	-1.7062	-2.4229	-2.1771	-2.0854	-2.5187	-2.2542	-2.2125	-2.3292	-1.8333	-2.5	-2.075	-2.2021	-2.3917	-2.1583	-83.553	-10.434	-122.893	56.658	-67.691	-117.004	139.341	102.781	-19.180	-96.676	84.200	38.548	-91.993	-155.687	-27.317	165.525	0.00087694	0.00089186	0.00037073	1056.2	7.3035e-06	7.4538e-06	927.91	397.92	5.4648e-06	1.533e-05	397.43	161.17	146.67	56.675	1.8167e-05	72.744	0.0028927	0.0031377	0.00087492	1125.2	3.3694e-05	3.4228e-05	972.17	412.16	3.2714e-05	3.3149e-05	456.13	169.61	166.14	59.444	3.1881e-05	76.931	179.809	-86.537	-70.970	-162.163	-24.190	-37.543	-163.322	-157.720	-126.109	-33.855	-159.312	-155.257	-154.642	-149.041	-35.800	-151.054	-8191	255	
12025.249	1	1	0	0	0.23574	0.21895	0.22932	0.24707	0.05264	0.30847	0.25225	0.19327	0.078939	0.24859	0.031862	0.12447	0.18139	0.16737	0.17201	0.37489	-1.5417	-2.2104	-1.9479	-2.3375	-2.2333	-1.9333	-2.6792	-2.2396	-2.1	-2.4208	-2.0083	-2.3542	-2.2417	-2.0833	-2.3	-2.2	183.430	-158.462	174.242	147.994	-72.467	98.761	158.598	169.194	93.496	-68.468	58.425	-33.043	146.639	-103.964	-111.393	143.390	0.00093723	0.00097018	0.00031634	1055.1	7.3426e-06	5.9588e-06	925.3	396.83	4.8866e-06	1.716e-05	394.64	162.03	146.64	57.179	4.0997e-06	74.083	0.0027041	0.0029614	0.00081054	1118	3.1906e-05	3.2346e-05	967.18	410.84	3.1389e-05	3.1915e-05	454.76	170.43	166.77	60.025	3.2279e-05	78.157	-172.722	-127.395	-50.071	-161.427	-51.430	-64.892	-162.854	-157.633	-71.354	17.851	-158.957	-155.010	-154.930	-148.941	-102.623	-151.313	-8191	255	
12025.370	1	1	0	0	0.44377	0.14765	0.033803	0.007983	0.081801	0.23914	0.4475	0.50188	0.10385	0.1583	0.11348	0.076154	0.17193	0.10147	0.027634	0.21126	-1.4146	-2.3271	-1.8979	-2.3271	-2.3104	-1.8708	-2.6125	-2.3812	-2	-2.4188	-2.0583	-2.4354	-2.2521	-2.1375	-2.3438	-2.0271	-139.460	-27.078	156.832	-4.624	162.328	122.332	125.463	125.097	167.743	-63.629	138.863	174.221	27.523	115.314	-81.974	139.385	0.00081073	0.00081672	0.00016618	1051.6	9.0933e-06	1.0284e-05	922.49	401.51	1.615e-05	1.1179e-05	393.49	162.41	146.66	58.062	1.0278e-05	74.8	0.0027635	0.0030171	0.0008438	1123.1	3.3277e-05	3.3805e-05	970.36	414.06	3.341e-05	3.3632e-05	458.99	171.79	168.79	60.957	3.2998e-05	78.784	181.579	-139.945	-25.140	-162.028	3.128	-39.062	-163.247	-157.957	-78.935	-3.892	-159.619	-155.550	-154.920	-149.315	-71.609	-151.545	-8191	255	
12025.466	1	1	0	0	0.12705	0.023073	0.13112	0.15915	0.086503	0.13469	0.1069	0.32141	0.26016	0.051502	0.078241	0.35839	0.068835	0.10378	0.30269	0.26475	-1.65	-2.4625	-1.8854	-2.2792	-2.1354	-1.8312	-2.4271	-2.2292	-1.8667	-2.4333	-2.0625	-2.3729	-2.2958	-1.8813	-2.2854	-2.0708	181.940	140.210	160.994	-144.830	64.811	141.539	102.029	121.434	57.850	151.890	159.483	-172.556	-127.816	-170.623	-90.839	99.668	0.00079157	0.0012172	0.00012459	1055.2	1.0856e-05	1.1489e-05	923.72	401.8	1.3007e-05	7.2611e-06	393.27	163.55	147.84	58.715	3.1747e-06	75.177	0.0028164	0.0030606	0.00086106	1124	3.3211e-05	3.3615e-05	968.46	414.44	3.2215e-05	3.2551e-05	454.49	171.82	168.11	61.137	3.0636e-05	78.743	184.149	-55.844	90.876	-161.856	-67.578	-72.239	-163.180	-157.767	-82.438	-143.704	-159.529	-155.320	-154.899	-149.662	8.029	-151.727	-8191	255	
12025.562	1	1	0	0	0.094112	0.24362	0.050401	0.14368	0.21077	0.083155	0.1082	0.32016	0.15606	0.21574	0.10568	0.091375	0.20461	0.21548	0.062214	0.032716	-1.5208	-2.3438	-1.9958	-2.1146	-2.2958	-1.8604	-2.3042	-2.3667	-1.8563	-2.3542	-2.1437	-1.9937	-2.4688	-2.1625	-2.2812	-2.3479	112.001	128.974	147.724	89.289	141.582	65.898	102.862	-142.938	-166.756	104.708	-18.382	-142.486	72.432	155.143	-167.438	-126.374	0.00092299	0.0010205	0.00028867	1058.8	9.0709e-06	4.4602e-06	930.78	403.76	1.4279e-05	2.5402e-06	398.9	164.53	149.42	59.115	9.2286e-06	75.96	0.0025858	0.0027811	0.00077042	1116.7	2.9768e-05	3.0131e-05	965.92	414.91	2.995e-05	3.0607e-05	454.17	172.21	168.38	61.568	3.0201e-05	79.32	-173.155	-114.910	-114.986	-161.520	-30.561	7.676	-162.765	-157.438	-88.769	56.893	-158.635	-154.570	-154.155	-148.781	-98.417	-150.803	-8191	255	
12025.657	1	1	0	0	0.20282	0.038284	0.20746	0.22979	0.065982	0.22319	0.1659	0.28356	0.11719	0.17054	0.20573	0.091995	0.06613	0.30974	0.19088	0.13163	-1.3792	-2.3187	-2.125	-2.0542	-2.3604	-1.9396	-2.1833	-2.6021	-1.5917	-2.2396	-2.2229	-1.9562	-2.3479	-2.1	-2.1271	-2.4479	-100.452	-29.595	-109.203	-109.188	73.188	-47.173	-134.573	132.973	-17.891	67.725	101.295	-41.402	182.101	-158.713	-67.908	93.648	0.00085814	0.00032505	0.00019137	1067.7	8.3617e-06	7.5771e-06	929.58	405.93	7.2366e-06	1.5463e-05	397.23	164.68	149.88	59.059	4.4578e-06	75.936	0.0025747	0.0027401	0.00076027	1120.6	2.9313e-05	2.935e-05	966.3	415.74	2.8866e-05	2.9343e-05	451.75	172.54	168.16	61.528	2.9791e-05	79.432	184.161	60.656	-71.629	-160.837	14.837	11.881	-162.335	-157.119	-70.049	-136.562	-159.019	-154.927	-154.477	-148.975	14.098	-150.964	-8191	255	
12025.753	1	1	0	0	0.23749	0.18152	0.057828	0.16556	0.11076	0.1516	0.025823	0.20501	0.14788	0.2989	0.3222	0.29298	0.15881	0.2413	0.103	0.14363	-1.5521	-2.2542	-2.0271	-1.9979	-2.2708	-2.0104	-2.0896	-2.4354	-1.8979	-2.1375	-2.3312	-1.9771	-2.2625	-2.1979	-2.1708	-2.5646	-11.174	-3.829	156.693	86.147	110.187	-135.091	-85.753	76.579	-23.609	74.670	143.804	-75.237	-22.844	-143.496	129.973	93.856	0.00084364	0.0013887	0.00025208	1068.1	1.1084e-05	1.3718e-05	931.91	405.66	8.2964e-06	1.5543e-05	397.67	163.99	148.85	58.497	1.4299e-05	74.503	0.0025898	0.0027968	0.00077899	1126	3.0484e-05	3.0724e-05	971.17	416.22	2.996e-05	2.9667e-05	451.85	170.94	167.58	60.806	2.943e-05	77.779	184.376	-59.689	-114.030	-161.155	-40.860	-65.676	-162.306	-157.135	-113.697	-52.936	-159.894	-155.286	-154.539	-149.249	-58.422	-151.115	-8191	255	
12025.849	1	1	0	0	0.22164	0.25431	0.088315	0.19862	0.24144	0.28781	0.083907	0.14583	0.06835	0.23987	0.098304	0.19552	0.094905	0.26097	0.022973	0.04572	-1.4292	-2.3854	-2.125	-2.0229	-2.2125	-2.1021	-2.0729	-2.4792	-1.8083	-2.3667	-2.1896	-2.0083	-2.4417	-2.2938	-1.9917	-2.4604	-161.268	-80.916	150.909	46.174	-82.582	149.538	8.444	112.458	-84.992	35.936	-171.921	148.795	-151.215	150.376	-12.904	101.615	0.00079529	0.00060112	0.00020525	1064.2	1.4896e-05	8.5718e-06	925.93	404.47	3.7143e-06	4.1754e-06	394.75	161.65	149.16	57.836	9.6396e-06	73.557	0.0024941	0.0027185	0.00075285	1119.8	2.9314e-05	3.0166e-05	963.14	415.13	2.939e-05	3.0015e-05	449.77	169.43	167.23	60.308	2.9724e-05	77.132	-172.975	-98.379	111.801	-162.268	-48.489	93.683	-163.489	-158.059	-21.624	-15.258	-160.158	-155.716	-155.765	-149.945	63.178	-152.037	-8191	255	
12025.970	1	1	0	0	0.17778	0.25208	0.29358	0.23791	0.078843	0.16965	0.33938	0.49105	0.19106	0.020002	0.099941	0.17835	0.22907	0.20857	0.038955	0.099591	-1.6625	-2.2625	-2.2854	-1.8854	-2.3208	-2.1063	-2.1312	-2.4271	-1.8729	-2.075	-2.6354	-1.925	-2.1625	-2.4083	-1.8708	-2.3833	-91.530	14.675	-108.943	-164.518	-157.752	59.734	113.499	125.112	-106.705	-147.104	82.110	128.952	122.247	71.885	-88.324	180.964	0.0009037	0.0010139	0.00029429	1061.5	2.6277e-06	6.8693e-06	924.71	402.33	9.6609e-06	1.5653e-05	389.72	161.59	147.51	58.059	1.6603e-05	73.344	0.0025341	0.0026901	0.00075442	1118.1	2.9215e-05	2.9857e-05	960.33	414.22	2.9596e-05	3.0303e-05	449.4	169.76	167.38	60.564	3.1113e-05	77.365	182.528	-119.659	-7.085	-162.277	-21.699	-44.548	-163.576	-157.986	-137.411	-56.075	-160.231	-155.896	-155.310	-149.793	-74.353	-151.858	-8191	255	
12026.066	1	1	0	0	0.26561	0.24466	0.086753	0.1131	0.10727	0.10183	0.10957	0.29203	0.11391	0.073855	0.19296	0.11058	0.10535	0.22225	0.21138	0.18087	-1.5542	-1.875	-2.3771	-1.8521	-2.0438	-2.1562	-1.9833	-2.5333	-2.1979	-1.9438	-2.5229	-2.1125	-2.2208	-2.3688	-1.8333	-2.5354	31.962	-98.757	102.068	180.645	-19.206	22.542	126.015	157.393	69.971	-175.886	-160.969	152.178	84.643	-166.855	150.475	176.593	0.00090284	0.0017318	0.00042341	1058.9	3.3634e-06	3.06e-06	923.23	402.39	3.5876e-06	7.5601e-06	392.83	161.89	148.48	58.112	3.5631e-06	73.575	0.0027065	0.0029092	0.00081259	1124.5	3.143e-05	3.2112e-05	962.92	414.95	3.1184e-05	3.1646e-05	452.59	170.04	168.25	60.507	3.1052e-05	77.48	178.809	-23.095	-143.982	-162.055	56.256	7.641	-163.326	-158.021	18.058	-155.687	-159.728	-155.868	-155.308	-149.873	-32.758	-151.513	-8191	255	
12026.162	1	1	0	0	0.0063927	0.11355	0.16486	0.05255	0.11535	0.33433	0.25308	0.21668	0.087813	0.22274	0.20446	0.13713	0.13193	0.10408	0.22203	0.18459	-1.8062	-1.875	-2.2229	-2.0854	-2.1271	-2.3125	-2.1	-2.3958	-2	-1.8792	-2.3833	-2.1604	-2.2333	-2.5312	-1.8229	-2.475	-10.495	30.521	-78.587	125.500	-155.892	20.566	106.132	147.851	-144.787	-1.627	125.311	108.134	-112.667	117.807	79.121	42.525	0.00064989	0.0014435	0.00033703	1061.4	8.602e-06	1.0832e-05	922.73	404.15	6.8652e-06	1.0693e-05	391	162.78	150.03	58.186	1.6915e-05	73.841	0.0026603	0.0028708	0.00080534	1123.9	3.1103e-05	3.1477e-05	962.87	415.34	3.0456e-05	3.0642e-05	449.18	169.84	167.37	60.396	2.9787e-05	77.415	182.356	-107.323	-103.254	-162.208	-169.862	-26.260	-163.604	-158.325	81.604	49.666	-160.061	-155.813	-154.881	-149.894	-88.645	-151.642	-8191	255	
12026.258	1	1	0	0	0.10916	0.17921	0.077167	0.11348	0.09874	0.19643	0.19154	0.44692	0.18102	0.21025	0.098664	0.094681	0.26793	0.19785	0.12117	0.15386	-1.5667	-1.8354	-2.3438	-1.9958	-2.3417	-2.3271	-2.1542	-2.3271	-2.1688	-1.9375	-2.3708	-2.2625	-2.1813	-2.4792	-1.9354	-2.3042	-49.289	110.242	56.832	149.585	-83.558	-173.366	37.870	136.968	-131.177	46.983	39.308	-158.091	59.727	125.120	74.936	128.248	0.00089893	0.0018276	0.00013351	1056.6	6.7859e-06	8.9028e-06	920.05	403.23	6.131e-06	3.7712e-06	389.71	160.98	148.2	57.74	9.0799e-06	73.361	0.0025766	0.0027561	0.00076583	1118.2	2.9925e-05	3.0313e-05	959.9	414.45	3.0112e-05	3.0761e-05	448.66	169.08	167.13	60.382	3.0615e-05	77.073	182.521	-58.684	-157.263	-161.906	-112.047	-90.145	-163.347	-157.898	-112.724	57.025	-159.958	-155.810	-154.969	-149.674	-62.953	-151.612	-8191	255	
12026.354	1	1	0	0	0.12237	0.27366	0.39773	0.25873	0.12289	0.12658	0.22321	0.069497	0.21114	0.20821	0.16365	0.22983	0.12626	0.165	0.24332	0.20494	-1.9375	-1.8792	-2.1604	-2.1917	-2.1063	-2.4313	-1.9458	-2.2938	-2.1729	-1.9521	-2.2646	-2.1833	-1.8667	-2.5875	-1.8667	-2.5	44.160	-37.193	52.422	143.338	66.099	18.736	114.027	128.798	-20.925	-41.037	-87.311	132.468	-155.631	180.511	32.247	118.424	0.00077644	0.0011825	0.0002282	1059.9	8.0595e-06	5.6775e-06	915.56	403.53	2.4091e-06	4.3903e-06	388.34	160.98	149.27	57.745	3.6299e-06	73.363	0.0026161	0.0028028	0.00078137	1120.1	2.9982e-05	3.0517e-05	956.5	414.15	3.0075e-05	3.0594e-05	447.49	168.95	167.56	60.243	3.0094e-05	76.913	174.307	-120.567	-58.254	-162.090	15.025	61.989	-163.203	-157.974	-159.780	76.072	-159.349	-155.764	-154.887	-149.532	-51.640	-151.443	-8191	255	
12026.450	1	1	0	0	0.080488	0.24242	0.073032	0.14317	0.2618	0.20824	0.13572	0.16077	0.11139	0.32454	0.061574	0.10844	0.32318	0.36795	0.10263	0.32637	-1.9625	-1.7417	-2.1729	-2.425	-1.7854	-2.4062	-2.2438	-2.3042	-2.4125	-1.9521	-2.5125	-2.3479	-1.8104	-2.5583	-1.8312	-2.1479	-112.766	130.963	-54.197	-0.285	-125.828	63.464	163.210	67.784	-172.333	82.425	8.148	-164.901	-143.843	136.764	-13.341	173.525	0.00072627	0.00089806	0.00021829	1061.7	1.1579e-05	6.9429e-06	923.79	404.25	7.4878e-06	7.1286e-06	391.08	161.71	149.32	58.281	9.4955e-06	73.428	0.002572	0.0027487	0.0007649	1119.1	2.942e-05	2.9879e-05	958.84	415.02	2.8961e-05	2.9582e-05	447.29	169.25	167.33	60.496	2.9538e-05	77.209	173.291	-102.041	-150.360	-161.534	-94.965	32.894	-163.322	-157.640	-11.562	44.815	-159.261	-155.594	-154.802	-149.322	-69.509	-150.890	-8191	255	
12026.547	1	1	0	0	0.18046	0.19971	0.20558	0.046583	0.074497	0.15512	0.046641	0.14732	0.20694	0.20617	0.052654	0.2961	0.11789	0.34914	0.10775	0.31808	-1.925	-1.8229	-2.3375	-2.5146	-2.0375	-2.5021	-2.2604	-2.4083	-2.4979	-2.0542	-2.4375	-2.4062	-1.9	-2.5062	-2.2	-2.1396	69.556	85.815	118.401	92.917	-115.601	73.330	166.857	-161.658	-48.379	-168.359	36.648	136.366	-124.801	139.674	-8.173	148.871	0.0008369	0.00096176	0.00018312	1068.4	8.6628e-06	7.1706e-06	925.69	406.92	7.3455e-06	5.3575e-06	392.08	162.54	149.58	58.446	4.6295e-06	74.302	0.0025437	0.0027467	0.00076652	1121	2.9775e-05	2.9941e-05	962.24	416.77	2.9491e-05	2.9698e-05	448.53	169.79	167.32	60.626	2.9245e-05	77.659	182.288	-16.514	-19.354	-160.826	14.308	127.674	-162.456	-156.939	-126.820	-68.553	-158.851	-154.560	-153.913	-148.733	-40.157	-150.679	-8191	255	
12026.665	1	1	0	0	0.20834	0.26788	0.26829	0.22263	0.27628	0.2369	0.089612	0.19388	0.23505	0.21029	0.18515	0.22524	0.049385	0.098713	0.19546	0.14877	-1.8875	-1.95	-2.1063	-2.4875	-2.075	-2.4917	-2.1896	-2.2083	-2.4854	-2.0417	-2.2333	-2.5438	-1.8625	-2.4521	-2.0375	-2.1833	-122.877	-8.796	51.926	-69.879	2.433	148.372	129.461	161.000	115.640	81.495	182.181	87.667	11.004	128.341	54.043	88.046	0.00086403	0.000656	0.00013245	1068.5	5.1349e-06	7.4997e-06	926.52	408	8.8115e-06	1.4382e-07	391.68	162.25	149.9	58.628	1.0634e-05	74.191	0.0024894	0.0026975	0.00075196	1123.4	2.9567e-05	3.0007e-05	963.93	418	2.9668e-05	3.021e-05	450.21	169.82	168.22	60.846	2.9579e-05	77.609	175.640	-95.831	39.844	-160.877	-42.240	112.895	-162.264	-157.123	-77.730	-173.216	-159.183	-154.732	-154.274	-148.700	-165.947	-150.660	-8191	255	
12026.762	1	1	0	0	0.20467	0.19459	0.26875	0.24559	0.20945	0.019136	0.11582	0.4109	0.094753	0.15328	0.11961	0.24351	0.144	0.20908	0.35135	0.21517	-1.85	-1.9271	-2.2	-2.3146	-1.9833	-2.1937	-2.5396	-2.2562	-2.4208	-2.0979	-2.2687	-2.4146	-1.9417	-2.4042	-2.3292	-2.2062	25.474	-40.795	169.527	179.967	-22.855	150.794	131.220	142.500	-13.659	-103.343	-55.864	163.342	100.477	158.375	83.059	170.521	0.00086581	0.00057932	0.00016695	1064.5	1.232e-05	5.3099e-06	925.22	407.72	6.191e-06	1.9413e-06	394.77	163.45	150.19	58.779	2.8762e-06	75.11	0.0025176	0.0026773	0.00074269	1116.6	2.8921e-05	2.9198e-05	959.92	415.95	2.8763e-05	2.9231e-05	448.73	170.32	168.08	61.073	2.97e-05	78.393	-168.484	-73.106	-73.396	-160.551	-35.235	-20.276	-162.511	-157.147	-41.977	-151.497	-159.194	-154.636	-154.249	-148.839	-23.076	-150.767	-8191	255	
12026.833	1	1	0	0	0.18545	0.26597	0.25399	0.16085	0.18229	0.20719	0.23307	0.32911	0.14611	0.19618	0.25782	0.16897	0.23175	0.15659	0.14058	0.20032	-1.8104	-2.0625	-1.8958	-2.5563	-1.9562	-2.2042	-2.3625	-2.1417	-2.3521	-2.2542	-2.0208	-2.4542	-2.1104	-2.4875	-2.2375	-2.2812	166.921	13.963	77.860	-156.445	61.760	-128.743	128.306	146.738	34.893	35.384	-110.570	-153.410	159.129	104.119	-120.783	142.925	0.00091371	0.00075786	0.00015823	1063.7	5.0097e-06	7.8277e-06	926.11	405.11	5.3339e-06	2.1409e-05	396.31	162.41	150.21	58.062	6.254e-06	73.668	0.0025761	0.002786	0.00078238	1124.5	3.0497e-05	3.0828e-05	965.13	417.08	3.0545e-05	3.1166e-05	455.13	170.62	169.55	60.827	3.2601e-05	77.59	-174.590	-112.330	61.171	-161.197	38.707	-31.319	-162.519	-157.331	-5.209	-76.717	-159.090	-154.870	-154.358	-148.659	-27.263	-150.847	-8191	255	
12026.931	1	1	0	0	0.24641	0.080591	0.051356	0.31112	0.042236	0.13661	0.099444	0.12848	0.20197	0.15935	0.10541	0.15288	0.28864	0.18659	0.048684	0.33271	-1.8958	-2.1312	-1.9958	-2.4437	-2.1875	-2.1417	-2.4271	-2.1708	-2.4208	-2.1	-2.1562	-2.4958	-1.925	-2.1688	-2.2646	-1.9375	-8.974	-46.774	-124.713	46.869	-160.851	-174.735	-83.718	117.761	64.521	-101.680	-122.511	174.306	72.202	145.403	149.066	-171.512	0.00091281	0.0013706	0.00026076	1064.9	5.0288e-06	2.0117e-05	930.09	407.5	9.1642e-06	1.2496e-05	395.3	161.35	148.94	57.756	9.541e-06	73.202	0.0028007	0.0030311	0.0008502	1135.3	3.3086e-05	3.357e-05	972.55	420.3	3.3155e-05	3.3981e-05	460.26	171.18	171.23	60.747	3.491e-05	77.796	-162.063	-48.966	-117.165	-161.231	-88.816	-67.557	-162.389	-158.448	-119.459	-20.138	-160.711	-156.300	-155.578	-150.190	-32.352	-152.144	-8191	255	
12027.050	1	1	0	0	0.18354	0.10101	0.27995	0.11036	0.18111	0.2	0.384	0.3701	0.17761	0.2093	0.15275	0.17173	0.13281	0.32289	0.1524	0.053055	-1.7604	-2.3146	-1.8188	-2.3354	-2.0583	-2.0417	-2.3979	-2.2208	-2.0521	-2.2021	-2.0917	-2.5542	-2.0604	-2.2792	-2.2875	-2.1896	-15.531	112.461	12.507	180.164	143.008	-50.612	50.515	119.675	87.103	-164.541	-139.294	124.801	25.741	160.648	-46.098	-113.500	0.00087616	0.00067144	0.00026633	1065.8	1.3981e-05	1.5845e-06	928.09	405.75	1.2591e-05	1.8161e-05	391.62	161.8	149.54	57.978	7.1063e-06	73.443	0.0030231	0.0033103	0.00093608	1146	3.7182e-05	3.8114e-05	983.99	422.24	3.7607e-05	3.8262e-05	471.3	172.92	174.5	61.506	3.7649e-05	78.483	183.592	-38.905	36.564	-162.881	-37.118	17.952	-163.835	-158.324	-104.099	-39.370	-159.827	-155.669	-154.912	-149.840	-92.553	-151.455	-8191	255	
12027.146	1	1	0	0	0.23941	0.14396	0.21958	0.22683	0.16335	0.11749	0.25322	0.1957	0.074491	0.1417	0.12361	0.19594	0.12418	0.19591	0.052281	0.15533	-1.7271	-2.1479	-1.8625	-2.5458	-2.0917	-1.9937	-2.5104	-2.0708	-2.2583	-2.4417	-1.8208	-2.5458	-2.1604	-2.0458	-2.4167	-2.1792	-69.544	-136.771	-74.538	46.015	-5.428	-68.227	132.021	50.231	8.500	-12.494	-173.155	-174.828	183.272	106.194	-116.227	133.678	0.00067228	0.0011209	0.00021064	1061.7	3.087e-06	1.1731e-05	917.04	404.77	3.5564e-06	8.3101e-06	390.02	161.16	148.79	57.997	7.8971e-06	73.689	0.003197	0.0034875	0.00097512	1146.7	3.7894e-05	3.8314e-05	977.59	421.03	3.8114e-05	3.8826e-05	471.22	173.11	175.8	61.698	3.9659e-05	78.996	176.079	-101.778	-10.184	-161.982	-26.993	18.160	-163.312	-158.021	-13.510	28.556	-160.118	-155.695	-155.178	-149.796	-53.266	-151.130	-8191	255	
12027.242	1	1	0	0	0.27582	0.24147	0.17725	0.21572	0.094752	0.11117	0.048103	0.068321	0.16728	0.1324	0.12947	0.2749	0.26671	0.36016	0.090969	0.12648	-1.8604	-2.425	-1.8521	-2.5979	-2.2771	-1.9833	-2.5021	-2.0625	-2.0938	-2.2875	-2.0125	-2.5708	-2.4583	-2.0854	-2.1896	-2.3271	1.670	79.041	141.531	169.460	10.038	-19.767	-51.100	109.240	141.523	97.579	-91.765	159.963	66.275	156.004	113.713	-34.520	0.00091645	0.00028645	0.00021368	1064.6	6.8608e-06	9.1776e-06	916.86	404.71	9.7608e-06	1.4294e-05	392.82	161.08	149.35	58.144	1.534e-06	74.238	0.0033594	0.0036529	0.0010149	1153	3.9095e-05	3.9901e-05	978.69	421.48	3.8778e-05	3.9425e-05	471.62	173.03	174.63	61.789	3.8985e-05	79.297	179.887	157.095	-62.241	-161.209	105.191	-66.783	-162.768	-157.825	82.757	5.569	-159.352	-155.270	-154.492	-149.131	102.303	-151.541	-8191	255	
12027.363	1	1	0	0	0.22438	0.047227	0.28202	0.20247	0.15579	0.14632	0.2451	0.19124	0.10366	0.12057	0.033723	0.095831	0.25881	0.33478	0.1254	0.28876	-1.5354	-2.325	-1.9042	-2.2229	-2.2542	-1.8188	-2.4938	-2.2896	-2.1146	-2.4375	-2.2646	-2.1521	-2.4104	-2.0646	-2.4604	-2.3542	-163.411	-138.628	17.021	110.237	121.078	164.400	-148.292	108.427	-98.659	-43.949	34.449	181.449	179.643	121.830	-39.166	94.045	0.00087665	0.00055604	0.00027216	1069.4	2.7683e-06	2.4532e-06	920.32	403.91	6.1219e-06	6.4874e-06	386.64	162.53	149.15	58.417	4.714e-06	74.537	0.0033521	0.0036715	0.0010254	1153.8	3.9854e-05	4.047e-05	980.56	421.91	3.9437e-05	3.9935e-05	472.4	173.75	175.95	61.936	3.9542e-05	79.381	177.175	-102.953	-169.533	-161.986	88.106	19.424	-162.868	-157.499	-117.597	42.366	-159.140	-155.205	-154.800	-149.311	-4.429	-151.328	-8191	255	
12027.459	1	1	0	0	0.25613	0.22142	0.25897	0.033121	0.16276	0.30013	0.20506	0.33608	0.046714	0.013957	0.231	0.22169	0.085035	0.3315	0.12277	0.13153	-1.4333	-2.3896	-2.0687	-2.0646	-2.375	-1.8792	-2.4688	-2.4104	-1.8917	-2.4833	-2.1562	-2.0104	-2.3521	-1.95	-2.2438	-2.4188	-93.016	-166.288	148.097	-142.033	-151.156	-132.251	180.988	139.129	114.233	120.696	105.875	167.298	46.684	91.767	-53.502	47.822	0.00076856	0.00041573	0.00017107	1068.7	5.6184e-06	8.1902e-06	925.42	404.95	8.7555e-06	8.4651e-06	394.34	162.79	148.64	58.505	3.4293e-06	74.407	0.0033365	0.0036318	0.0010106	1153.8	3.9231e-05	3.9793e-05	981.42	422.21	3.8869e-05	3.9456e-05	474.12	174.28	175.58	61.997	3.902e-05	79.612	-172.434	-71.225	33.335	-161.678	8.517	-75.380	-162.885	-157.707	-94.062	-70.991	-159.517	-155.295	-154.806	-149.335	-17.282	-151.535	-8191	255	
12027.531	1	1	0	0	0.35069	0.061073	0.2461	0.039054	0.093151	0.093073	0.21726	0.35176	0.29798	0.12946	0.15665	0.063161	0.18222	0.239	0.29913	0.4256	-1.3813	-2.4396	-2.0375	-2.0667	-2.4542	-2.1083	-2.3958	-2.5104	-1.8062	-2.4354	-2.0604	-2.0667	-2.525	-2.1292	-2.1063	-2.3375	43.453	-89.172	136.239	81.184	-85.610	154.066	173.508	-172.346	-79.538	167.599	-168.131	-127.861	121.971	-172.852	159.853	81.198	0.00081318	0.00094561	1.2056e-05	1060.6	5.9532e-06	8.3553e-06	923.32	404.61	7.8768e-06	1.1961e-05	392.12	161.94	149.15	58.737	9.9323e-06	74.534	0.0033086	0.0035924	0.0010043	1149.7	3.8976e-05	3.9474e-05	980.31	421.4	3.906e-05	3.9666e-05	473.25	173.68	175.56	62.213	3.9109e-05	79.522	-175.824	159.204	166.533	-161.865	-140.270	-43.705	-162.958	-157.882	-117.489	1.453	-159.177	-155.490	-154.830	-149.207	-116.649	-151.630	-8191	255	
12027.651	1	1	0	0	0.030016	0.2461	0.21764	0.04438	0.21984	0.12282	0.27835	0.29789	0.21896	0.20439	0.25102	0.37974	0.12586	0.36029	0.16107	0.26289	-1.475	-2.3438	-2.2833	-2.0708	-2.4833	-1.9146	-2.3354	-2.4792	-1.6542	-2.4479	-2.1437	-2.1729	-2.4958	-2.0521	-2.1896	-2.5125	125.929	-0.902	23.973	-17.517	-45.728	7.288	127.877	116.924	-44.139	-132.859	127.692	139.165	-115.472	160.481	125.777	125.382	0.00072021	0.0008484	0.0003374	1063	6.6656e-06	7.9731e-06	921.62	405.04	6.661e-06	1.4234e-05	393.56	162.9	150	58.683	3.3798e-06	74.399	0.003287	0.0035498	0.00098942	1148	3.8228e-05	3.8636e-05	977.13	421.42	3.8244e-05	3.9259e-05	472.86	174.15	176.09	62.265	3.8751e-05	79.622	178.909	-137.433	-82.549	-162.158	35.924	-75.236	-163.250	-157.844	181.678	-36.362	-159.963	-155.554	-154.574	-149.428	-135.535	-151.446	-8191	255	
12027.746	1	1	0	0	0.23855	0.16554	0.032535	0.061401	0.12575	0.26135	0.099863	0.15108	0.12988	0.31431	0.11626	0.048609	0.13998	0.29763	0.14476	0.3659	-1.5271	-2.3125	-2.25	-2.0104	-2.4458	-2.125	-2.2229	-2.5792	-1.7062	-2.2188	-2.2729	-1.8396	-2.3958	-2.4021	-2.05	-2.6208	177.161	76.988	-115.872	170.732	-139.660	155.919	121.479	138.788	70.102	-168.214	-146.057	55.548	-157.520	126.758	-131.589	113.924	0.00082554	0.00053925	0.00025195	1065.2	1.1843e-05	4.8377e-06	921.89	402.17	1.5159e-05	7.4487e-06	392.93	162.9	148.94	58.557	7.2067e-06	74.833	0.0033065	0.0035779	0.0010039	1150.9	3.8844e-05	3.9356e-05	980.4	421.73	3.8506e-05	3.9204e-05	473.25	174.25	175.14	62.059	3.8365e-05	79.909	176.743	93.657	-114.873	-161.989	180.465	-47.829	-163.346	-157.813	-31.071	33.996	-159.799	-155.090	-155.012	-149.299	4.570	-151.271	-8191	255	
12027.842	1	1	0	0	0.28658	0.14976	0.29893	0.10238	0.12632	0.42005	0.16065	0.11825	0.10458	0.15032	0.2421	0.071284	0.35947	0.044567	0.045656	0.20614	-1.5875	-2.1063	-2.3688	-1.9146	-2.3063	-2.2146	-2.0062	-2.5167	-2.1958	-2.25	-2.2771	-2.0417	-2.4875	-2.4208	-1.8708	-2.4479	155.971	116.666	-31.624	163.489	149.311	-14.529	-120.183	174.695	-65.024	178.108	-172.334	-159.371	-164.965	83.862	183.564	-117.860	0.0007339	0.00045337	0.00011737	1062.6	8.4534e-06	3.5394e-06	929.65	405.64	1.498e-06	5.0163e-06	397.53	164.6	149.86	58.956	1.5318e-05	75.313	0.0032306	0.0035115	0.00097199	1147.5	3.7861e-05	3.843e-05	982.23	422.28	3.7374e-05	3.8013e-05	472.37	175.34	175.08	62.276	3.7518e-05	80.302	180.331	82.170	115.417	-161.732	-151.380	-122.337	-163.073	-157.684	-137.546	72.691	-159.388	-155.320	-154.627	-149.375	-18.381	-151.505	-8191	255	
12027.963	1	1	0	0	0.062752	0.17133	0.028023	0.19867	0.13383	0.20067	0.12422	0.62833	0.24386	0.19556	0.23759	0.044112	0.22544	0.29378	0.12441	0.048626	-1.6729	-2.2583	-2.45	-1.9604	-2.2979	-2.2479	-2.0896	-2.6583	-2.0417	-2.1917	-2.3125	-2.0771	-2.475	-2.5333	-1.975	-2.5792	-143.445	-0.194	-35.083	-166.521	-24.261	156.810	75.823	142.117	-102.695	-10.757	153.629	108.411	152.522	107.581	-86.380	23.699	0.00083974	0.00058968	0.00020754	1064.8	1.394e-05	5.3457e-06	934.22	407.6	1.015e-05	5.9164e-06	397.91	164.81	151.77	59.095	4.1433e-06	75.501	0.0032291	0.0035105	0.00098722	1151.3	3.8247e-05	3.9322e-05	990.75	424.73	3.8489e-05	3.9006e-05	478.68	176.19	177.22	62.761	3.9327e-05	80.785	-174.105	-96.935	134.979	-161.496	-85.240	-109.839	-163.271	-157.692	19.263	-30.715	-159.571	-155.395	-154.592	-149.281	-87.169	-151.519	-8191	255	
12028.059	1	1	0	0	0.16633	0.12351	0.18177	0.36048	0.1515	0.16769	0.14625	0.24721	0.34535	0.12468	0.22956	0.25282	0.078617	0.10811	0.29995	0.14915	-1.7021	-2.0979	-2.3896	-1.9708	-2.2188	-2.5396	-2.05	-2.5208	-1.9875	-2.2188	-2.5938	-1.9104	-2.2396	-2.45	-1.9667	-2.6146	35.325	173.123	-103.234	103.611	44.146	-59.776	121.711	110.518	-169.774	-71.067	126.151	-169.004	-24.114	135.333	142.545	59.629	0.00081803	0.001118	0.00050242	1072.3	1.2222e-05	6.2216e-06	933.78	408.21	2.0264e-05	1.2772e-05	393.12	164.65	150.93	59.215	1.0096e-05	75.545	0.0033934	0.0036897	0.0010373	1164.4	4.04e-05	4.1064e-05	993.49	426.24	4.0331e-05	4.1015e-05	481.92	176.46	178.69	62.917	4.0336e-05	80.939	183.555	-154.267	-86.074	-161.905	-63.978	101.283	-162.999	-157.842	-32.033	-67.372	-159.550	-155.186	-154.862	-149.196	161.010	-151.427	-8191	255	
12028.130	1	1	0	0	0.057956	0.14057	0.29906	0.27665	0.44938	0.06074	0.32274	0.24663	0.24095	0.12099	0.10314	0.18088	0.38236	0.25232	0.075077	0.15667	-1.7667	-1.8958	-2.3833	-2.2042	-2.2167	-2.3458	-2.0958	-2.5646	-2.0958	-1.9833	-2.3271	-2.1875	-2.2292	-2.6417	-2.0625	-2.1917	16.406	57.030	-10.276	-82.400	-167.916	98.351	39.034	143.400	1.919	77.354	49.626	78.084	168.663	28.957	182.384	36.861	0.00089812	0.0011228	0.00022277	1075.9	6.2931e-06	1.0121e-05	935.32	409.52	1.0455e-05	8.1199e-06	399.69	165.3	151.3	59.113	7.8648e-06	75.547	0.003409	0.0036873	0.001033	1163.1	4.0097e-05	4.1221e-05	997.78	427.8	4.0973e-05	4.1886e-05	486.34	177.8	180.22	63.316	4.2344e-05	81.355	183.661	-78.124	126.345	-161.854	-138.050	-9.498	-163.033	-157.703	-69.530	-122.374	-159.562	-155.399	-154.941	-149.160	-89.249	-151.402	-8191	255	
12028.227	1	1	0	0	0.06393	0.12846	0.098778	0.20339	0.028139	0.18631	0.34832	0.23128	0.06078	0.080827	0.20571	0.1965	0.47895	0.24274	0.10931	0.11989	-1.7292	-1.9354	-2.4313	-2.1146	-2.0438	-2.3042	-1.9646	-2.3875	-2.3	-2.0583	-2.4833	-2.4271	-2.1437	-2.6417	-1.9521	-2.4813	173.992	-73.671	127.636	34.869	-17.095	-120.455	166.906	179.090	62.261	-157.264	153.804	74.586	-81.613	174.672	151.943	1.971	0.00085434	0.0010928	0.00022503	1075.3	6.0344e-06	1.5355e-05	938.66	410.69	1.3073e-05	2.1415e-05	400.91	165.03	151.25	59.367	8.5738e-06	75.952	0.0035982	0.0039135	0.0010829	1172	4.2115e-05	4.301e-05	1001.7	429.26	4.1805e-05	4.246e-05	488.23	178.22	180.34	63.374	4.2077e-05	81.677	181.190	-102.829	-139.433	-161.527	-11.825	-164.112	-163.025	-157.716	51.831	-78.333	-159.886	-155.451	-155.024	-149.529	-18.353	-151.597	-8191	255	
12028.347	1	1	0	0	0.28997	0.20099	0.12933	0.30536	0.18744	0.12406	0.14045	0.27894	0.24176	0.045372	0.22628	0.11586	0.034329	0.21917	0.30262	0.12222	-1.9854	-1.8521	-2.1708	-2.3146	-2.0604	-2.4083	-2.2521	-2.2979	-2.2896	-1.9583	-2.6	-2.2792	-2.1354	-2.525	-1.9583	-2.2313	112.538	46.080	169.754	169.089	-175.037	40.094	145.955	49.713	2.171	-17.478	-153.992	157.232	-22.310	159.473	-87.985	-121.379	0.00086714	0.0010002	0.00032858	1076.2	1.3647e-05	9.5425e-06	940.15	411.31	1.5584e-05	7.7048e-06	404.07	165.83	151.15	59.452	5.8426e-06	76.069	0.0036008	0.0039101	0.001083	1174.5	4.2203e-05	4.2735e-05	1006.6	430.73	4.262e-05	4.2912e-05	492.89	178.88	180.47	63.407	4.2255e-05	81.831	181.645	-175.196	179.771	-161.624	-2.713	-90.457	-163.010	-157.569	-107.478	6.868	-159.518	-155.331	-154.672	-149.439	53.472	-151.164	-8191	255	
12028.443	1	1	0	0	0.062654	0.072307	0.066761	0.035246	0.073226	0.2	0.37059	0.097142	0.038588	0.18934	0.22473	0.14222	0.21844	0.23278	0.26956	0.16427	-1.9062	-1.7917	-2.3875	-2.2792	-1.6875	-2.4667	-2.1021	-2.2562	-2.4854	-1.9917	-2.5604	-2.3979	-2.1042	-2.5354	-2.1292	-2.3729	17.666	102.125	122.196	71.327	-56.271	164.032	109.816	-170.975	16.881	26.749	104.250	156.791	106.343	-140.140	-64.394	-19.277	0.0010358	0.0006213	9.326e-05	1079.1	7.0907e-06	1.4674e-05	938.2	410.64	1.0592e-05	9.403e-06	397.72	165.23	151.57	59.546	3.1166e-06	76.221	0.0035481	0.0038523	0.0010749	1173.5	4.2179e-05	4.2686e-05	1005.8	430.78	4.2662e-05	4.3294e-05	493.25	179.42	182.28	63.821	4.4933e-05	82.462	178.181	-105.712	-46.735	-161.918	-82.334	16.383	-162.815	-157.732	-102.570	-157.832	-159.515	-155.308	-154.842	-149.311	-133.708	-151.282	-8191	255	
12028.539	1	1	0	0	0.15422	0.081109	0.08432	0.1354	0.068954	0.084712	0.072091	0.16354	0.23578	0.085345	0.09345	0.19209	0.089784	0.27022	0.14155	0.17633	-1.9958	-2.0771	-2.0625	-2.5312	-1.9208	-2.4688	-2.1937	-2.1667	-2.3625	-2.0375	-2.3792	-2.6583	-2.0792	-2.4771	-2.1667	-2.0792	-137.634	-21.525	-111.080	137.058	-89.270	-36.332	164.110	30.357	123.729	-61.207	146.521	130.206	20.196	91.305	33.436	101.797	0.00099176	0.001228	5.8876e-05	1072.5	8.4049e-06	5.9618e-06	937.57	410.34	1.2091e-05	9.5481e-06	401.66	166.36	151.82	59.874	6.4994e-06	76.557	0.0038878	0.0042405	0.0011816	1184.6	4.5815e-05	4.6816e-05	1013.1	432.45	4.5611e-05	4.6018e-05	500.59	180.91	183.25	64.216	4.5646e-05	83.032	-174.443	-34.721	-81.695	-162.619	-21.737	104.567	-163.044	-157.974	-57.488	33.529	-159.705	-155.279	-154.786	-149.232	-63.682	-151.252	-8191	255	
12028.634	1	1	0	0	0.1777	0.22967	0.11671	0.44581	0.095215	0.15387	0.18382	0.41539	0.16673	0.14892	0.19802	0.28032	0.1741	0.24675	0.036419	0.12026	-1.9833	-1.8229	-2.1771	-2.4417	-2.0312	-2.1229	-2.2021	-2.3292	-2.3292	-2.1083	-2.2687	-2.5708	-2.0646	-2.5458	-2.2479	-2.0271	-2.898	153.173	-86.750	151.548	48.503	43.546	-65.030	105.577	-157.935	172.907	166.826	145.411	64.556	170.084	164.148	115.727	0.0007751	0.0005734	0.00023828	1075.4	5.8539e-06	1.4776e-05	947.62	410.53	5.4648e-06	2.2845e-05	405.7	168.38	152.61	60.235	1.203e-05	77.446	0.0038887	0.0042468	0.001186	1186	4.6311e-05	4.7203e-05	1020.3	433.12	4.634e-05	4.745e-05	506.36	182.65	185.23	64.865	4.8024e-05	84.156	178.357	-69.149	42.813	-161.796	93.634	152.319	-162.937	-157.795	-110.960	-75.032	-159.486	-155.336	-154.862	-149.591	-99.836	-151.438	-8191	255	
12028.730	1	1	0	0	0.14732	0.098972	0.0034242	0.10387	0.15876	0.058913	0.26206	0.27345	0.23664	0.2689	0.14507	0.18448	0.08567	0.055198	0.14761	0.14065	-2.1271	-1.8854	-2.0187	-2.4354	-1.9479	-2.2854	-2.5333	-2.0521	-2.3396	-2.0875	-2.0167	-2.5187	-2.0438	-2.5187	-2.2667	-2.1208	51.000	17.370	-3.470	-129.790	165.869	28.086	135.031	155.936	-43.760	88.366	-143.516	-159.700	91.938	177.378	-169.007	97.967	0.0010752	0.0011121	0.00023254	1081.7	1.6876e-05	1.4796e-05	954.44	412.64	5.8447e-06	6.1614e-06	410.32	168.85	152.41	60.347	2.8671e-06	77.653	0.0040575	0.0044576	0.0012289	1194.6	4.7509e-05	4.8431e-05	1030.3	435.95	4.8275e-05	4.9443e-05	514.67	184.37	187.71	65.241	5.0435e-05	84.745	170.849	-30.804	-22.308	-161.812	-42.572	59.710	-162.992	-157.679	-27.541	-103.950	-159.965	-155.272	-154.995	-149.312	-117.094	-151.465	-8191	255	
12028.826	1	1	0	0	0.026515	0.31857	0.17016	0.21613	0.13595	0.2021	0.15592	0.24203	0.084314	0.19371	0.33188	0.1659	0.14048	0.3671	0.071787	0.29999	-2.0854	-1.8792	-2.0812	-2.4313	-2.0187	-2.375	-2.4667	-1.8917	-2.3771	-2.1146	-2.0771	-2.4917	-2.1125	-2.3729	-2.4854	-2.0604	90.816	90.810	79.563	-135.747	-126.447	-31.898	-151.701	141.410	44.368	141.043	-172.291	107.721	-35.490	162.657	-174.874	136.803	0.00097125	0.0013689	0.00021196	1082.5	3.3675e-06	6.9574e-06	952.21	412.41	1.4423e-05	2.1322e-05	406.61	167.24	152.42	60.143	4.5719e-06	76.747	0.0043	0.0047038	0.001315	1207.1	5.1299e-05	5.2077e-05	1038.4	439.23	5.1361e-05	5.2782e-05	521.18	184.16	189.77	65.154	5.1846e-05	84.251	176.917	-130.991	-75.030	-161.675	-69.045	-26.059	-163.209	-157.941	-55.201	-107.194	-159.129	-155.508	-154.890	-149.347	120.921	-151.495	-8191	255	
12028.922	1	1	0	0	0.1468	0.19654	0.1344	0.13305	0.11264	0.076825	0.2106	0.34508	0.2354	0.26904	0.10628	0.26582	0.15165	0.1008	0.34758	0.2622	-1.8625	-2.2875	-1.8813	-2.5187	-2.0563	-2.1479	-2.5229	-1.8271	-2.3146	-2.1813	-2.05	-2.4979	-2.1146	-2.2917	-2.3604	-2.0458	-95.443	-33.141	62.501	129.486	-38.519	77.401	92.027	105.035	-133.552	177.441	149.972	175.466	56.602	96.314	-112.764	91.203	0.00063292	0.00074337	0.0004124	1086.1	1.1166e-05	9.5297e-06	952.35	412.5	2.301e-05	9.9203e-06	410.35	167.77	153.04	60.138	3.8279e-06	76.934	0.0043745	0.0048217	0.0013532	1213.4	5.3451e-05	5.4575e-05	1043.6	440.57	5.454e-05	5.5422e-05	528.31	185.32	191.78	65.635	5.4516e-05	84.786	162.862	-79.410	-73.429	-162.060	-40.674	39.265	-163.227	-157.645	-110.885	-6.136	-159.188	-155.357	-154.714	-149.295	-97.379	-151.484	-8191	255	
12029.043	1	1	0	0	0.13539	0.10669	0.083634	0.14568	0.15535	0.054172	0.3979	0.1623	0.1159	0.12677	0.17978	0.21419	0.060118	0.12728	0.20033	0.11014	-1.7396	-2.1542	-2.0625	-2.4479	-2.1521	-1.9271	-2.4729	-2.4083	-2.4875	-2.4562	-2.0917	-2.5104	-2.3479	-2.1167	-2.3354	-2.3167	141.472	-12.736	-133.900	-128.169	-169.751	94.424	146.735	132.533	-46.720	-2.300	43.677	-158.326	54.386	104.441	24.820	158.846	0.0006462	0.0016423	0.00079651	1086.6	4.4961e-06	1.7891e-06	954.07	411.31	8.9105e-06	2.584e-05	405.71	167.73	152.06	60.253	9.5783e-06	77.397	0.004646	0.0051064	0.0014188	1221.9	5.5743e-05	5.6309e-05	1046.1	441.07	5.5362e-05	5.7072e-05	531.99	186.7	192.79	65.954	5.5582e-05	85.404	-161.701	-26.657	-27.763	-161.374	92.665	97.262	-162.800	-157.641	25.181	-69.078	-159.601	-155.459	-155.196	-149.082	147.477	-151.350	-8191	255	
12029.139	1	1	0	0	0.10268	0.11137	0.095326	0.27276	0.31047	0.043297	0.34276	0.17167	0.27397	0.02579	0.017657	0.26536	0.061082	0.37557	0.29071	0.039275	-1.6063	-2.3625	-1.9646	-2.4854	-2.0667	-1.7625	-2.4667	-2.1604	-2.1813	-2.3458	-1.925	-2.4083	-2.1604	-2.0563	-2.2646	-2.2583	163.246	157.978	113.293	-169.462	-130.270	98.500	123.523	183.647	111.040	-164.334	89.079	-171.445	26.942	-113.911	-168.670	125.377	0.00092018	0.00055725	0.00018445	1075.6	6.6016e-06	8.7177e-06	949	413.11	9.7956e-06	1.1956e-05	403.16	168.09	151.56	60.015	8.3237e-06	77.139	0.0046396	0.0050517	0.0013922	1215.5	5.4067e-05	5.4592e-05	1041.9	439.79	5.3373e-05	5.4617e-05	526.6	185.72	191.34	65.568	5.3914e-05	85.037	183.317	-107.707	77.502	-161.688	161.822	38.950	-163.171	-157.601	-37.090	-80.649	-160.977	-156.543	-156.025	-150.650	-72.858	-152.834	-8191	255	
12029.235	1	1	0	0	0.17041	0.22687	0.071855	0.12357	0.13975	0.12771	0.35463	0.10669	0.12794	0.21099	0.24456	0.12504	0.16033	0.17352	0.21824	0.27722	-1.6854	-2.3396	-1.6771	-2.4104	-2.2729	-1.9146	-2.4292	-2.1792	-1.9792	-2.4646	-2.0312	-2.3104	-2.3396	-1.9729	-2.2854	-2.2396	-62.733	157.809	145.473	170.854	144.437	-53.134	139.812	-175.949	128.667	154.139	34.629	114.541	-146.360	176.300	-16.408	164.765	0.00084956	0.0010444	0.00027236	1080.2	7.2783e-06	8.4264e-06	948.88	412.28	1.3709e-06	5.11e-06	407.35	168.34	152.15	59.949	1.2783e-05	76.926	0.0045512	0.0049728	0.0013731	1214.4	5.2898e-05	5.372e-05	1039	439.01	5.1875e-05	5.2338e-05	518.28	184.61	189	65.259	5.1321e-05	84.514	-174.924	97.282	-92.380	-162.795	-143.158	-126.554	-164.060	-158.684	5.716	-56.317	-160.749	-156.739	-156.260	-150.673	-12.910	-152.096	-8191	255	
12029.331	1	1	0	0	0.13033	0.23323	0.061126	0.20889	0.46313	0.18267	0.054906	0.13847	0.24734	0.034294	0.24236	0.087394	0.13416	0.26492	0.064438	0.27003	-1.4417	-2.4021	-1.7979	-2.2125	-2.2042	-1.9562	-2.6	-2.2188	-1.8937	-2.4229	-2.0375	-2.2896	-2.4208	-2.1104	-2.2625	-2.3	27.536	-112.738	-131.433	-175.520	-16.029	8.892	-165.326	87.802	-125.994	155.316	102.332	59.141	142.091	-129.065	31.175	119.148	0.0010047	0.00094296	0.00024025	1081.4	4.5999e-06	9.4894e-06	946.45	410.14	1.9868e-05	1.7568e-05	402.57	167.08	151.86	60.081	2.3414e-05	77.504	0.0043194	0.0047371	0.001316	1206.9	5.1794e-05	5.2688e-05	1033.1	438.06	5.2025e-05	5.2615e-05	518.66	184.29	189.49	65.401	5.1259e-05	84.682	-174.131	-108.470	-93.850	-162.135	-59.450	-106.791	-163.183	-157.832	-56.842	-63.947	-159.902	-155.705	-155.146	-149.671	-8.243	-151.705	-8191	255	
12029.428	1	1	0	0	0.14172	0.049854	0.18482	0.26898	0.14653	0.40348	0.17442	0.15279	0.057746	0.26322	0.50796	0.096528	0.12364	0.26309	0.2558	0.37293	-1.3312	-2.3458	-1.9521	-2.3375	-2.4354	-1.7313	-2.3042	-2.5292	-1.8875	-2.5229	-2.0979	-2.2917	-2.4521	-2.0375	-2.1792	-2.1937	150.513	109.196	153.085	121.032	177.274	135.847	129.165	141.065	-140.142	-129.038	-146.422	181.521	139.706	162.971	52.322	96.884	0.00092973	0.0010559	0.00024636	1075.4	1.025e-05	1.0613e-05	950.56	409.2	9.1443e-06	4.8394e-06	405.41	168.19	153.06	60.528	3.4344e-06	77.393	0.0043384	0.0047456	0.0013205	1203.1	5.1755e-05	5.2678e-05	1033.7	436.82	5.1144e-05	5.175e-05	517.58	184.32	188.47	65.453	5.0519e-05	84.599	177.962	164.182	-72.024	-161.799	36.907	-133.037	-163.375	-158.052	-62.146	-151.656	-160.055	-155.553	-155.506	-149.645	14.592	-151.880	-8191	255	
12029.524	1	1	0	0	0.062673	0.21531	0.1329	0.029342	0.1866	0.14624	0.35788	0.095382	0.06467	0.035203	0.18407	0.15777	0.19707	0.45251	0.23185	0.18572	-1.3625	-2.4854	-2.1188	-2.1792	-2.4583	-1.9417	-2.3875	-2.5312	-1.7229	-2.5458	-2.1375	-2.1708	-2.5208	-2.0979	-2.1708	-2.3396	-161.279	-73.422	169.594	-130.688	11.210	125.527	72.825	148.277	176.411	126.498	156.666	-125.747	-137.514	146.703	77.227	-168.212	0.0011088	0.001404	0.00061044	1076	2.5092e-06	4.8862e-06	949.27	410.23	8.5837e-06	1.5534e-05	403.93	167.65	151.82	59.71	1.718e-05	76.635	0.0042721	0.0046914	0.0013059	1202.9	5.1097e-05	5.1434e-05	1030.1	436.31	5.0437e-05	5.1705e-05	515.15	183.66	187.85	64.868	5.1447e-05	84.153	183.236	-63.337	-151.187	-161.906	-130.891	-22.603	-163.291	-158.107	-163.185	-106.817	-160.092	-155.662	-155.418	-149.615	25.658	-151.782	-8191	255	
12029.644	1	1	0	0	0.14402	0.15833	0.17564	0.24149	0.099026	0.089584	0.18954	0.3725	0.029927	0.099545	0.10335	0.2873	0.18705	0.51165	0.15559	0.13846	-1.4208	-2.2938	-2.0917	-2.2875	-2.4792	-2.0229	-2.1271	-2.5854	-1.9667	-2.3542	-2.1729	-2.1688	-2.7104	-2.2646	-2.2	-2.6063	-173.337	63.393	174.372	110.001	-146.642	-90.939	114.328	139.483	25.610	74.991	63.391	53.500	173.111	167.087	83.666	-145.678	0.00083216	0.0023245	0.00026379	1081	9.2698e-06	9.5651e-06	946.7	409.66	8.9648e-06	1.8201e-05	407.74	167.47	152.51	59.329	8.5758e-06	76.559	0.0043439	0.0047327	0.0013175	1204.2	5.0668e-05	5.1029e-05	1028.6	435.62	4.8703e-05	4.9427e-05	512.75	182.83	186.12	64.316	4.8926e-05	83.128	-175.627	-124.280	-135.227	-161.945	-45.704	-22.792	-163.189	-157.828	-84.789	4.515	-159.762	-155.469	-155.334	-149.820	-23.543	-151.776	-8191	255	
12029.739	1	1	0	0	0.10669	0.057547	0.11035	0.35304	0.35758	0.21067	0.10588	0.32062	0.35613	0.12872	0.12908	0.15993	0.12836	0.14	0.08715	0.089885	-1.4917	-2.1417	-2.1937	-1.9021	-2.6604	-2.0583	-2.175	-2.575	-1.8896	-2.2729	-2.4062	-1.9708	-2.4458	-2.2896	-2.0271	-2.5375	-72.641	128.924	165.462	88.970	-154.726	109.708	125.633	133.354	102.349	177.928	-32.121	108.711	-47.498	160.437	155.035	126.279	0.00096778	0.0011698	0.00010174	1079.8	5.1096e-06	3.2855e-06	939.68	410.27	1.099e-05	9.3049e-06	402.64	166.3	149.99	59.738	1.343e-05	75.868	0.0041292	0.0045136	0.0012679	1198.7	4.9472e-05	5.0233e-05	1024.8	435.47	4.9332e-05	5.0402e-05	509.48	181.71	186.3	64.416	4.9196e-05	82.891	170.205	31.496	-143.571	-162.180	-17.632	-82.778	-163.620	-158.032	-12.599	-35.768	-159.818	-155.656	-155.632	-149.568	-32.617	-151.650	-8191	255	
12029.835	1	1	0	0	0.32786	0.15099	0.204	0.19604	0.051643	0.083258	0.14996	0.37633	0.14792	0.15561	0.12087	0.34632	0.11517	0.30932	0.18229	0.18501	-1.5938	-2.2542	-2.2292	-1.8958	-2.4229	-2.1271	-1.9708	-2.4104	-1.9375	-2.2625	-2.3583	-2.0958	-2.3708	-2.2313	-1.9458	-2.5833	-156.176	-168.703	164.894	89.437	31.217	137.175	-171.701	111.505	109.801	-110.399	61.841	147.657	123.707	-168.762	131.805	92.559	0.00094024	0.0015072	0.00019577	1074.9	1.4326e-05	1.4487e-05	941.43	409.72	1.5172e-05	1.7908e-05	400.02	166.24	151.32	59.599	9.6989e-06	75.622	0.0041756	0.004559	0.0012772	1195.7	4.9199e-05	5.0509e-05	1021.8	435.15	4.9773e-05	5.0237e-05	509.05	181.8	186.81	64.433	4.9696e-05	82.904	-175.249	8.346	-26.799	-161.770	-12.923	-45.436	-163.484	-158.032	-60.270	-59.291	-159.563	-155.778	-155.231	-149.548	-82.908	-151.651	-8191	255	
12029.931	1	1	0	0	0.21633	0.28599	0.1216	0.31263	0.21259	0.068138	0.30677	0.13941	0.054784	0.1129	0.32514	0.16214	0.14592	0.098922	0.16907	0.31154	-1.6646	-2.0687	-2.2687	-1.9125	-2.2333	-2.4313	-2.1354	-2.475	-1.8771	-2.0458	-2.4583	-1.9083	-2.2938	-2.4646	-1.8	-2.3833	4.380	-51.961	-106.697	-155.784	40.348	24.124	144.663	-159.135	172.169	66.556	147.417	-129.961	67.306	155.408	-51.558	80.318	0.00090494	0.0020391	0.00037134	1077.6	1.1804e-05	7.1658e-06	938.11	409.83	1.6127e-06	7.1747e-06	402.59	165.19	151.62	58.979	2.0787e-05	75.258	0.0041825	0.0045432	0.0012636	1196.4	4.9048e-05	4.9432e-05	1019.3	434.01	4.8397e-05	4.9375e-05	506.53	180.66	185.53	63.781	4.8132e-05	81.908	175.285	-100.818	-85.984	-162.030	17.583	3.014	-163.364	-158.066	-26.935	94.209	-159.769	-155.820	-155.085	-149.712	-117.984	-152.182	-8191	255	
12030.004	1	1	0	0	0.12031	0.082392	0.17727	0.39695	0.10994	0.13446	0.1529	0.25791	0.09498	0.30179	0.11761	0.28018	0.14125	0.18364	0.13959	0.41594	-1.6083	-1.95	-2.3792	-2.0104	-2.1625	-2.1917	-1.925	-2.2896	-2.2667	-2.0208	-2.2479	-2.2229	-2.0563	-2.4083	-1.9229	-2.5875	88.882	14.189	-106.277	-158.287	-145.198	87.107	57.155	119.063	-74.636	9.634	-47.634	140.300	75.588	162.197	80.667	127.488	0.00076946	0.00091979	0.00011148	1077.1	3.4987e-06	4.0223e-06	937.55	409.15	1.1551e-05	5.2872e-06	398.12	164.57	150.61	58.127	5.4011e-06	74.91	0.0040068	0.0043214	0.0012004	1189.1	4.5467e-05	4.5565e-05	1009	430.87	4.3381e-05	4.385e-05	491.43	177.26	179.14	62.287	4.0523e-05	80.103	170.227	-26.608	-7.977	-162.419	141.492	-34.948	-163.848	-158.460	-86.096	-153.406	-160.741	-155.960	-155.366	-149.919	6.592	-151.878	-8191	255	
12030.123	1	1	0	0	0.08449	0.087381	0.24522	0.3299	0.049636	0.17543	0.077981	0.15546	0.13319	0.15939	0.12113	0.085113	0.042884	0.21965	0.18248	0.12129	-1.6896	-1.8687	-2.2771	-2.3292	-2.225	-2.4625	-1.925	-2.2646	-2.1479	-1.9854	-2.6083	-2.1542	-2.1188	-2.5646	-2.1188	-2.4375	-159.645	180.095	-81.878	69.170	-136.252	51.483	114.554	150.996	68.437	-52.063	-118.283	170.192	145.334	126.412	45.199	79.268	0.00095733	0.0020138	0.0003345	1076.4	7.355e-06	5.9048e-06	941.39	410.18	3.239e-06	6.5034e-06	397.16	162.6	150.28	58.064	1.1599e-05	73.865	0.0033498	0.0036602	0.0010077	1166.4	3.9422e-05	4.0111e-05	1001.6	429.13	4.0192e-05	4.1413e-05	486.06	175.84	179	62.114	4.2545e-05	79.744	-175.885	-9.902	-121.529	-162.448	-88.411	40.943	-163.838	-158.609	-3.194	44.812	-160.202	-156.209	-155.173	-150.204	-61.399	-151.837	-8191	255	
12030.219	1	1	0	0	0.22641	0.099858	0.1177	0.10702	0.26888	0.069628	0.21307	0.27862	0.27657	0.16712	0.14823	0.12907	0.063776	0.32393	0.10598	0.29283	-1.7687	-1.8583	-2.4417	-2.0667	-1.9833	-2.3187	-2.1583	-2.55	-2.1375	-2.0104	-2.4	-2.1917	-2.1396	-2.6708	-2.0396	-2.3312	-25.103	-25.686	70.152	93.050	-33.926	26.806	-19.511	-170.479	39.212	-160.899	80.910	79.147	133.050	113.302	-144.639	166.004	0.00079082	0.00065917	0.00012481	1077.6	2.8433e-06	1.243e-05	935.47	409.39	1.092e-05	1.9324e-05	396.59	161.88	150.29	57.507	1.3372e-05	72.513	0.0036782	0.0040038	0.0011331	1182.6	4.4455e-05	4.509e-05	1007.5	432.64	4.5398e-05	4.6514e-05	497.19	176.91	183.22	62.222	4.8207e-05	79.628	-171.817	-77.712	-120.579	-162.774	57.946	-8.585	-163.488	-158.365	-83.190	-98.623	-160.764	-156.377	-155.647	-149.928	-4.233	-152.046	-8191	255	
12030.316	1	1	0	0	0.16328	0.16864	0.17723	0.101	0.047129	0.19536	0.4568	0.26018	0.13021	0.1006	0.23266	0.1421	0.15906	0.37527	0.28995	0.090651	-1.9	-1.9917	-2.2792	-2.3396	-1.8625	-2.3708	-2.0917	-2.4417	-2.2958	-1.6979	-2.3833	-2.3688	-2.0917	-2.5354	-2.0396	-2.175	-98.204	-3.867	-138.743	98.727	174.694	161.623	118.892	143.069	77.902	27.203	-107.478	-167.131	163.454	165.865	77.870	132.661	0.00070936	0.00096632	0.00010307	1095.2	4.559e-06	6.2909e-06	938.35	410.58	1.3747e-05	4.0652e-06	396.41	160.53	149.4	56.847	1.0647e-05	71.274	0.0041749	0.0046446	0.0013061	1215.3	5.1468e-05	5.3248e-05	1026.5	437.84	5.338e-05	5.4199e-05	515.84	178.36	188.78	62.294	5.4787e-05	79.365	-176.095	-82.407	-28.134	-162.195	-103.038	86.144	-163.327	-158.490	-85.629	35.521	-160.226	-156.161	-155.606	-149.941	-69.537	-151.686	-8191	255	
12030.436	1	1	0	0	0.084892	0.1565	0.24923	0.26096	0.17765	0.1803	0.2408	0.45352	0.16151	0.052183	0.2426	0.10935	0.16473	0.1629	0.12368	0.18132	-1.9104	-2.0312	-2.2333	-2.3021	-2.0417	-2.4542	-2.0917	-2.3583	-2.2938	-2.025	-2.1229	-2.4167	-1.8771	-2.4354	-1.9042	-2.2021	2.975	7.634	105.795	121.254	-85.657	143.457	132.286	149.523	159.203	160.836	181.763	147.992	61.330	110.604	-44.112	-147.458	0.00075267	0.00039717	8.2993e-05	1084.9	1.7129e-05	6.6089e-06	936.6	409.26	9.4244e-06	1.0361e-05	396.73	160.62	148.88	56.626	1.0057e-05	71.862	0.0046339	0.0050435	0.0014131	1223.9	5.4977e-05	5.5956e-05	1030.3	438.34	5.4703e-05	5.5637e-05	518.41	178.7	187.98	62.212	5.332e-05	79.738	179.942	-61.492	106.743	-162.475	6.968	-23.587	-163.808	-158.143	-22.714	-72.543	-159.781	-155.675	-155.431	-149.920	-63.624	-151.825	-8191	255	
12030.531	1	1	0	0	0.14118	0.063713	0.15434	0.25674	0.14253	0.047192	0.30454	0.21386	0.090547	0.025504	0.19695	0.221	0.12008	0.080906	0.059921	0.28049	-2.0583	-1.8188	-2.2167	-2.4917	-1.9708	-2.3833	-2.3042	-2.1333	-2.6188	-2.0021	-2.0208	-2.4208	-1.9229	-2.3458	-2.1146	-2.0667	-159.038	-56.917	23.037	141.218	-124.612	54.976	124.632	136.464	-4.858	-5.854	-82.146	85.980	-80.177	-169.079	5.264	-139.077	0.00095747	0.0010304	0.00057013	1083	1.3872e-05	1.1868e-05	941.7	408.94	1.0218e-05	1.5736e-05	395.59	161.95	148.56	57.454	1.3749e-05	73.291	0.0044603	0.0049009	0.0013649	1215.4	5.2178e-05	5.2645e-05	1025.9	435.67	5.1013e-05	5.1546e-05	507.06	178.46	185.48	62.58	5.0636e-05	80.358	163.494	-18.022	-97.725	-162.016	-17.015	-31.779	-163.583	-158.234	-88.720	120.507	-160.084	-156.087	-155.296	-149.995	-35.905	-151.434	-8191	255	
12030.627	1	1	0	0	0.31006	0.11296	0.019979	0.21	0.17874	0.11802	0.44432	0.33844	0.22262	0.10596	0.089139	0.23051	0.35275	0.27627	0.028496	0.27921	-2.0687	-2.0208	-2.1146	-2.2708	-1.8667	-2.3271	-2.3771	-2.0646	-2.3333	-1.9708	-2.1562	-2.6292	-1.85	-2.2458	-2.3125	-2.0458	137.489	53.035	62.923	54.152	159.650	-152.922	133.474	169.448	118.327	95.085	-156.495	77.438	-166.901	167.550	143.780	172.156	0.00074453	0.00039482	0.00022858	1085.9	1.0377e-05	1.0143e-05	934.67	408.56	1.0628e-05	1.7601e-05	394.56	161.88	149.86	57.762	6.3453e-06	72.745	0.0042412	0.0046305	0.0012956	1205.4	5.0864e-05	5.2059e-05	1020.4	435.94	5.2639e-05	5.4197e-05	514.48	179.36	189.17	63.352	5.4648e-05	80.946	-169.885	-26.622	-126.148	-161.803	178.123	-50.582	-163.975	-158.736	-123.619	96.908	-159.794	-155.802	-155.053	-149.669	30.220	-151.560	-8191	255	
12030.723	1	1	0	0	0.10494	0.13481	0.061097	0.12223	0.074588	0.19027	0.092798	0.12471	0.034585	0.20997	0.21926	0.086667	0.19447	0.18478	0.14838	0.2552	-1.8646	-2.0583	-2.0729	-2.4979	-1.9896	-2.2542	-2.4292	-1.9854	-2.3979	-2.0042	-1.95	-2.5687	-2.0771	-2.4313	-2.2604	-1.9146	130.663	40.706	-77.495	-147.960	-139.035	104.845	133.099	-2.017	32.531	-108.140	-107.881	178.700	-167.441	147.194	-175.166	-133.834	0.00091065	0.00037827	0.00016304	1081.4	3.9424e-06	1.6644e-05	933.74	407.06	3.6562e-06	1.693e-05	393.98	161.21	149.66	57.76	4.8683e-06	73.305	0.0046238	0.0050425	0.0014051	1216.6	5.3831e-05	5.4316e-05	1023.1	434.63	5.2399e-05	5.3251e-05	512.17	178.54	187	62.893	5.2683e-05	80.89	182.100	-63.622	-123.251	-161.572	10.449	-55.617	-163.124	-157.873	-144.372	-1.229	-159.682	-155.537	-155.222	-149.380	-19.078	-151.520	-8191	255	
12030.819	1	1	0	0	0.43582	0.26746	0.22405	0.14811	0.11863	0.20532	0.3718	0.24363	0.19	0.36214	0.3288	0.33131	0.30812	0.15768	0.059779	0.050506	-1.9396	-2.0521	-1.9521	-2.6125	-2.1479	-1.9688	-2.3417	-1.9417	-2.3563	-2.0979	-1.9188	-2.4562	-1.8729	-2.275	-2.2458	-1.9937	-94.498	-158.940	-144.398	166.697	4.916	154.772	104.167	107.146	-89.300	-86.139	-167.830	-161.917	65.498	168.495	-114.566	-106.300	0.00072864	0.0013241	0.00029495	1080.2	2.0544e-05	5.6888e-06	937.51	406.98	1.2907e-05	2.4882e-05	398.5	162.95	148.5	58.461	1.3322e-05	74.551	0.0044992	0.0049238	0.0013716	1211.7	5.3498e-05	5.4607e-05	1025.9	434.95	5.3496e-05	5.4815e-05	515.86	180.85	189.16	64.078	5.4413e-05	82.523	183.365	-99.314	-150.708	-161.869	112.718	-37.218	-163.132	-157.984	-39.528	4.717	-159.589	-155.462	-155.099	-149.736	-40.975	-151.590	-8191	255	
12030.915	1	1	0	0	0.12057	0.27057	0.12489	0.071031	0.24702	0.08162	0.27822	0.18387	0.04221	0.14619	0.18701	0.30794	0.27872	0.3718	0.11065	0.34036	-1.8604	-2.0667	-1.8792	-2.5729	-2.1625	-1.9354	-2.4396	-2.0458	-2.2458	-2.2729	-1.7146	-2.4792	-2.2438	-1.9604	-2.3792	-2.0062	94.408	167.341	119.439	97.427	-16.795	182.363	51.957	-89.369	57.632	150.079	17.708	155.489	-65.917	160.484	59.563	121.754	0.0008484	0.0011717	0.00045496	1074.6	1.0259e-05	6.3175e-06	933.84	406.78	8.3122e-06	1.03e-05	394.46	165.39	150.73	58.844	5.5328e-06	75.254	0.0046309	0.0050987	0.0014184	1215.5	5.5579e-05	5.64e-05	1030.6	435.46	5.4858e-05	5.5455e-05	516.3	182.2	189.37	64.338	5.2682e-05	82.644	182.584	7.725	-116.202	-162.055	-93.010	-88.275	-163.666	-157.901	-25.073	-54.117	-159.726	-155.523	-155.139	-149.419	-51.563	-151.818	-8191	255	
12031.011	1	1	0	0	0.20185	0.24661	0.17406	0.47366	0.20624	0.21643	0.12376	0.071918	0.1724	0.24929	0.12038	0.27665	0.20706	0.10652	0.22535	0.13594	-1.7146	-2.1813	-1.8625	-2.3708	-2.1729	-2.025	-2.6208	-2.1542	-2.3688	-2.4896	-2.0021	-2.3625	-2.2396	-2.1146	-2.4021	-2.1521	27.375	-137.204	-78.577	159.960	-62.650	-36.443	-171.830	151.322	146.885	-87.195	-145.297	-98.637	162.211	-84.300	92.992	177.678	0.00085536	0.0003748	0.00017595	1082.3	1.1454e-05	1.1058e-05	933.75	405.86	6.715e-06	1.4515e-05	394.91	163	149.79	58.02	6.2646e-06	74.391	0.0043781	0.004765	0.0013115	1200.6	5.0007e-05	5.0604e-05	1014.4	431.54	4.8526e-05	4.9334e-05	501.22	178.61	184.35	62.966	4.8505e-05	80.985	183.313	-112.276	-92.237	-162.195	22.407	-19.583	-163.683	-158.199	-67.139	-69.051	-160.417	-155.641	-155.042	-149.646	-46.839	-151.802	-8191	255	
12031.132	1	1	0	0	0.11282	0.24011	0.24278	0.11154	0.16301	0.16445	0.18286	0.34514	0.1788	0.10947	0.16833	0.071815	0.1633	0.29062	0.27207	0.28414	-1.7333	-2.15	-1.8646	-2.4125	-2.0104	-1.8687	-2.5	-2.2583	-2.1229	-2.5542	-1.9542	-2.4875	-2.0625	-1.9625	-2.4021	-2.3125	85.892	-36.932	-150.124	139.456	-91.475	-115.442	164.962	-168.103	65.639	-94.377	145.971	-22.581	44.826	100.607	-137.429	142.836	0.00074264	0.0010269	0.00027379	1077.1	6.6086e-06	9.5052e-06	932.41	406.44	1.1964e-05	1.8762e-06	394.98	162.93	148.83	57.989	1.0798e-05	73.909	0.0040848	0.0044487	0.0012328	1191.9	4.7452e-05	4.8275e-05	1007.8	429.57	4.6717e-05	4.7323e-05	494.79	177.21	181.74	62.471	4.6494e-05	80.421	178.146	108.763	-148.162	-162.158	51.903	17.860	-163.031	-158.223	-49.425	86.085	-159.477	-155.532	-154.973	-149.572	-103.911	-151.673	-8191	255	
12031.228	1	1	0	0	0.17772	0.24637	0.3061	0.25964	0.22101	0.19133	0.26848	0.30265	0.18741	0.16808	0.025062	0.1346	0.17025	0.4128	0.1235	0.28265	-1.7271	-2.2562	-1.7729	-2.1583	-2.1375	-1.9813	-2.3771	-2.2229	-2.0208	-2.2708	-1.8708	-2.45	-2.4188	-1.9646	-2.4646	-2.2438	-12.031	156.363	-75.136	138.647	-157.007	-161.150	-150.469	149.263	-146.178	32.089	0.129	111.703	101.870	-108.483	142.231	66.649	0.00085225	0.0011742	0.00031162	1078.3	1.1797e-05	3.7859e-06	929.25	408.72	3.5258e-06	1.0391e-05	396.73	162.88	148.84	57.356	1.2518e-05	73.842	0.0038829	0.0042295	0.0011756	1184.8	4.5612e-05	4.6114e-05	1003.7	429.79	4.5172e-05	4.5787e-05	493.51	177.01	181.12	61.981	4.5281e-05	79.929	178.352	144.475	-109.719	-162.519	-36.226	74.154	-163.709	-158.302	-117.537	-85.196	-159.405	-155.528	-154.931	-149.805	-128.542	-151.682	-8191	255	
12031.324	1	1	0	0	0.096449	0.14056	0.21909	0.13441	0.15154	0.20427	0.32311	0.2331	0.16285	0.097709	0.40435	0.21182	0.12357	0.4245	0.13965	0.19876	-1.4562	-2.3979	-1.7208	-2.2167	-2.3187	-1.8417	-2.4375	-2.0187	-1.8271	-2.2521	-2.0208	-2.1479	-2.2896	-2.0521	-2.2792	-2.1771	100.193	36.113	103.517	48.943	-0.648	17.597	116.568	158.204	-109.126	-123.215	98.026	-78.279	-114.998	112.113	140.288	117.621	0.00092677	0.0013771	3.7673e-05	1079.8	7.8951e-06	4.6773e-06	935.87	408.17	6.3203e-06	7.7113e-06	395.49	162.75	148.38	57.618	5.5647e-06	73.601	0.0038618	0.0041972	0.001171	1186.3	4.5898e-05	4.637e-05	1008.9	430.2	4.5709e-05	4.6579e-05	495.84	176.73	181.82	62.254	4.7057e-05	80.164	173.845	-76.636	-168.530	-161.815	13.375	-18.810	-163.082	-157.807	-77.696	-8.969	-159.664	-155.479	-155.138	-149.474	32.350	-151.448	-8191	255	
12031.420	1	1	0	0	0.13347	0.045176	0.15595	0.097538	0.20583	0.24282	0.22368	0.41042	0.14855	0.11683	0.29976	0.18382	0.10785	0.13613	0.10756	0.3086	-1.3708	-2.3937	-2.0812	-2.0958	-2.4062	-2.0604	-2.4167	-2.4021	-1.7146	-2.5375	-2.1292	-2.0917	-2.3875	-1.9521	-2.1854	-2.4021	-135.953	27.269	90.363	-95.656	32.961	-12.484	148.741	138.753	85.632	-67.626	61.101	177.183	160.962	128.007	55.260	159.120	0.00085601	0.00086443	5.939e-05	1084	6.624e-06	4.0978e-06	938.84	407.33	4.1164e-06	1.8433e-05	392.56	161.73	148.85	57.42	1.5488e-05	73.038	0.0040208	0.0043793	0.0012215	1196.2	4.7583e-05	4.8088e-05	1012.2	431.39	4.7354e-05	4.7914e-05	496.54	176.71	182.4	61.992	4.6544e-05	79.273	-169.505	-65.886	-101.802	-162.142	-143.593	-103.182	-163.428	-158.137	90.654	-19.892	-159.732	-155.692	-155.074	-149.630	23.029	-151.745	-8191	255	
12031.517	1	1	0	0	0.041769	0.13815	0.10881	0.089621	0.10018	0.13524	0.15246	0.23425	0.16725	0.2316	0.15009	0.1733	0.19111	0.34694	0.20777	0.049654	-1.4062	-2.325	-1.975	-2.2	-2.4417	-1.9688	-2.3125	-2.4813	-1.9438	-2.3146	-1.9875	-2.1437	-2.1479	-2.0854	-1.9708	-2.4188	36.751	134.813	49.069	-107.521	129.437	-169.090	-168.415	105.022	154.368	-34.213	-12.473	109.866	155.009	140.464	134.766	170.721	0.00091474	0.0017224	0.00015184	1076.7	2.7695e-06	8.2406e-06	930.04	406.17	1.3358e-05	3.6395e-06	393.36	161.86	148.27	57.218	5.0659e-06	72.647	0.0038872	0.0042427	0.0011806	1188	4.6143e-05	4.702e-05	1005.4	429.59	4.6911e-05	4.7659e-05	496.63	176.51	182.08	62.003	4.764e-05	79.477	178.183	-54.988	-1.483	-161.988	-123.472	-59.865	-163.160	-158.181	-71.463	45.020	-160.180	-155.680	-155.607	-149.642	-85.836	-151.618	-8191	255	
12031.611	1	1	0	0	0.122	0.059281	0.073491	0.248	0.21803	0.33094	0.14977	0.38635	0.30973	0.18868	0.049955	0.2636	0.17972	0.26353	0.2611	0.10778	-1.3438	-2.2	-1.925	-2.075	-2.3167	-1.8833	-2.1854	-2.5687	-2.0062	-2.1979	-2.1771	-2.0104	-2.4708	-2.1063	-2.0479	-2.4646	-91.076	-82.695	-107.737	140.177	-92.249	-0.523	84.438	146.339	-168.157	-136.443	-31.191	138.469	-124.448	121.290	176.953	165.148	0.00074635	0.00059998	0.0002489	1078	8.8226e-06	1.9004e-05	934.65	405.8	1.4989e-05	4.8567e-06	395.25	161.42	147.92	56.988	5.8455e-06	72.82	0.0040049	0.0043859	0.0012161	1189.7	4.6681e-05	4.6803e-05	1005.5	429.39	4.4617e-05	4.5057e-05	490.16	174.86	179.13	61.229	4.4535e-05	78.817	181.205	-27.672	-52.906	-161.900	-52.486	-74.527	-163.389	-158.100	-92.171	4.274	-160.308	-155.738	-155.038	-149.418	25.715	-151.618	-8191	255	
12031.709	1	1	0	0	0.09484	0.13145	0.20351	0.10389	0.34204	0.040886	0.14313	0.13421	0.077496	0.13023	0.17645	0.13837	0.19532	0.10725	0.06961	0.10691	-1.4292	-2.1479	-2.2875	-1.9375	-2.1479	-2.0396	-2.1646	-2.3208	-1.9062	-2.0729	-2.2687	-2.0042	-2.4708	-2.2625	-1.9021	-2.4354	95.647	-39.947	-96.423	151.582	-10.511	-134.524	-166.975	152.869	63.523	-101.735	-135.022	114.060	144.786	-162.889	-50.274	-138.917	0.00067978	0.0003657	0.00019476	1084.7	5.0772e-06	6.19e-06	936.58	406.49	1.0342e-05	1.6715e-05	393.91	160.77	149.14	56.826	9.9643e-06	72.636	0.003798	0.0041962	0.0011718	1188.7	4.5988e-05	4.6786e-05	1008.2	429.49	4.6214e-05	4.6993e-05	492.58	174.79	179.89	61.115	4.4487e-05	78.399	170.768	-112.922	-88.885	-162.015	181.972	42.226	-163.493	-158.020	-66.689	-72.534	-160.384	-155.703	-154.762	-149.593	-157.588	-151.548	-8191	255	
12031.828	1	1	0	0	0.30585	0.14617	0.17859	0.16542	0.24293	0.10948	0.23406	0.1465	0.16817	0.12888	0.18865	0.15876	0.30952	0.26244	0.21244	0.038591	-1.5	-2.2812	-2.2958	-2.1167	-2.4125	-2.0729	-1.9979	-2.5938	-2.0563	-2.2625	-2.4	-1.9333	-2.2271	-2.1896	-1.8083	-2.4771	-97.748	-45.842	66.539	167.133	-96.879	37.450	58.089	179.944	45.413	15.385	5.361	94.036	39.344	-167.109	-26.677	73.896	0.00067524	0.00085387	0.00027017	1082.5	5.5493e-06	1.1458e-05	931.32	407.87	1.4586e-05	1.6064e-05	393	159.31	147.57	56.251	6.6867e-06	71.631	0.0036918	0.0039793	0.0011035	1178.5	4.2678e-05	4.3542e-05	999.16	428.48	4.2927e-05	4.4036e-05	486.12	173.16	177.98	60.518	4.3554e-05	77.517	178.676	-132.512	-101.787	-162.138	-26.334	42.019	-163.138	-158.286	-86.276	123.931	-160.027	-155.584	-155.394	-149.507	18.483	-151.666	-8191	255	
12031.899	1	1	0	0	0.10936	0.13626	0.13475	0.24474	0.16967	0.17947	0.29889	0.14294	0.067206	0.23598	0.25888	0.18955	0.23358	0.31546	0.22924	0.17658	-1.6354	-2.1208	-2.2271	-1.9667	-2.1542	-2.0583	-2.025	-2.5187	-1.9542	-2.0625	-2.4521	-2.0833	-2.2667	-2.3646	-1.9667	-2.4396	-116.873	19.024	-75.085	176.511	-98.644	132.878	135.200	143.859	-6.614	-68.739	168.569	181.445	-157.955	74.891	101.252	32.739	0.00070305	0.00076937	0.00027658	1081.1	7.0084e-06	4.5448e-06	928.32	406.89	3.2895e-06	2.6674e-06	391.39	159.58	147.23	56.4	1.4901e-05	71.217	0.0036635	0.0039866	0.0010999	1177.8	4.2481e-05	4.3269e-05	995.26	427.27	4.2482e-05	4.3379e-05	481.78	172.61	177.78	60.602	4.4317e-05	77.378	172.057	-160.867	-93.976	-162.089	-142.764	-23.796	-163.532	-158.010	45.624	-120.910	-159.944	-155.888	-155.035	-149.685	-55.661	-151.641	-8191	255	
12031.996	1	1	0	0	0.23454	0.02692	0.23916	0.088841	0.40155	0.089148	0.41393	0.31631	0.24131	0.24346	0.1604	0.19227	0.12402	0.15295	0.17476	0.26129	-1.5854	-1.9854	-2.1771	-2.0229	-2.1333	-2.2062	-1.8708	-2.4938	-2.1437	-2.1708	-2.5917	-1.9229	-2.2208	-2.3812	-1.8604	-2.4083	-74.470	-19.163	177.155	-171.576	-45.231	-0.902	119.765	109.675	24.932	43.473	-112.859	98.302	109.851	-110.449	-161.562	-162.711	0.00078791	0.0016363	0.00028164	1082	1.0207e-05	1.7332e-06	925.12	406.21	1.2193e-05	1.959e-06	392.4	158.59	147.51	56.509	1.5219e-05	70.557	0.0037864	0.0041632	0.0011644	1187.6	4.587e-05	4.6919e-05	999.27	429.06	4.5423e-05	4.5969e-05	487.78	172.6	179.26	60.572	4.4788e-05	77.042	163.640	-98.330	-168.287	-161.774	-24.409	-25.817	-163.309	-158.021	-70.189	151.029	-160.116	-155.749	-155.124	-149.632	-60.985	-151.628	-8191	255	
12032.092	1	1	0	0	0.14454	0.17136	0.52064	0.3053	0.23577	0.13165	0.13309	0.26357	0.1962	0.041115	0.16626	0.10148	0.20171	0.21002	0.26614	0.098108	-1.6417	-1.9937	-2.2375	-2.2229	-1.925	-2.3771	-1.9979	-2.3979	-2.1375	-1.875	-2.3104	-2.05	-2.0292	-2.3521	-1.8813	-2.3979	65.906	147.666	93.237	120.547	-61.492	42.722	123.339	151.832	94.632	117.177	146.157	-84.378	134.575	-173.233	181.142	101.175	0.00083533	0.00083589	0.00010287	1074.2	2.1102e-06	8.3659e-06	919.49	405.64	9.5285e-06	1.5316e-05	388.56	158.71	146.7	55.542	7.0279e-06	70.844	0.0037739	0.0040776	0.0011264	1177.2	4.2935e-05	4.3475e-05	988.23	425.45	4.22e-05	4.3015e-05	479.42	170.91	175.94	59.93	4.2358e-05	76.583	180.081	-159.928	-139.821	-162.262	-165.862	-106.725	-163.456	-158.269	-82.906	6.395	-160.076	-155.808	-155.227	-149.576	-101.921	-151.372	-8191	255	
12032.212	1	1	0	0	0.26392	0.2339	0.1968	0.085382	0.090983	0.21243	0.17599	0.3225	0.24297	0.21781	0.2089	0.10504	0.13817	0.098841	0.21549	0.13348	-1.9854	-1.8667	-2.3229	-2.1875	-1.9562	-2.5083	-2.1312	-2.4083	-2.3396	-2.0208	-2.3896	-2.2417	-2.1063	-2.4333	-1.9729	-2.2708	95.098	153.077	34.601	53.783	49.667	-55.797	-69.562	135.601	113.620	113.418	182.630	-98.268	53.797	-145.541	-164.613	-118.770	0.00075699	0.00058362	0.0002546	1073.4	7.6908e-06	3.1283e-06	928.42	405.22	4.7605e-06	6.6905e-06	391.85	159.63	147.61	56.387	3.3655e-06	71.225	0.0035516	0.0038585	0.0010799	1168.5	4.1653e-05	4.2046e-05	989.53	425.11	4.1385e-05	4.2198e-05	479.39	172.23	176.3	60.347	4.3053e-05	77.269	-170.805	-66.848	55.072	-162.193	98.714	4.641	-163.292	-158.010	162.036	62.485	-159.184	-155.691	-155.209	-149.659	-83.586	-151.557	-8191	255	
12032.309	1	1	0	0	0.19611	0.022123	0.22674	0.17746	0.033441	0.11385	0.3375	0.15861	0.10883	0.21641	0.32262	0.24753	0.10441	0.10697	0.27856	0.23725	-1.825	-1.6979	-2.2646	-2.1958	-1.9396	-2.5208	-1.9292	-2.3854	-2.4604	-1.9188	-2.3917	-2.2875	-1.9188	-2.5938	-2.0958	-2.2	-157.806	34.808	155.401	-174.246	8.571	-50.534	75.977	170.968	154.565	9.659	162.387	178.991	95.388	-103.664	109.544	-20.932	0.00083175	0.0017738	0.00021518	1073.8	8.4056e-06	4.1539e-06	922.65	404.8	9.4103e-06	1.0527e-05	389.95	156.92	145.51	55.856	1.0576e-05	70.021	0.003715	0.0040974	0.0011479	1181.2	4.548e-05	4.6091e-05	992.93	427.03	4.6042e-05	4.6346e-05	486.62	171.76	178.77	60.469	4.6809e-05	76.704	180.660	50.431	-143.765	-161.896	-89.985	158.766	-163.343	-158.177	167.358	-32.328	-159.927	-155.551	-154.792	-149.802	-51.346	-151.588	-8191	255	
12032.405	1	1	0	0	0.075517	0.24207	0.19126	0.11657	0.019019	0.18798	0.11972	0.24916	0.091736	0.028794	0.21407	0.30267	0.17062	0.34116	0.2272	0.10135	-1.9833	-1.7521	-2.0896	-2.4	-1.9542	-2.3187	-2.2125	-2.2438	-2.3937	-1.9667	-2.4729	-2.4604	-1.9562	-2.6625	-1.8917	-2.0896	147.965	-50.339	29.243	124.899	140.055	159.936	76.991	157.585	162.283	130.417	121.431	176.446	152.495	141.790	84.964	-139.579	0.00077443	0.00012752	3.1546e-05	1081.5	1.7618e-05	1.7918e-05	916.11	402.38	1.0435e-05	1.828e-05	384.71	155.62	147.61	55.424	6.7234e-06	70.031	0.0039714	0.0043765	0.0012295	1191.3	4.7398e-05	4.8302e-05	994.29	427.24	4.7605e-05	4.8449e-05	488.7	171.53	180.87	60.398	4.8483e-05	76.935	174.841	57.859	-146.725	-161.825	-46.880	-30.596	-163.319	-158.046	-57.871	-14.186	-159.837	-155.904	-154.913	-149.630	-30.644	-151.668	-8191	255	
12032.525	1	1	0	0	0.24723	0.098159	0.02319	0.19288	0.11428	0.21151	0.33679	0.18307	0.11164	0.33159	0.23671	0.24629	0.23885	0.24585	0.16952	0.088707	-1.9729	-1.9021	-2.1854	-2.375	-1.7958	-2.3875	-2.2125	-2.2854	-2.4896	-2.0958	-2.0333	-2.3812	-1.8438	-2.5042	-2.1021	-2.0187	56.368	98.056	-119.725	63.881	22.192	-31.219	87.955	156.491	-35.021	84.540	-135.913	147.009	101.037	-173.467	-2.711	-141.095	0.00077421	0.00024716	0.00033114	1073	6.0514e-06	2.9721e-06	913.26	402.32	1.0767e-05	7.9344e-06	385.23	157.07	146.58	56.021	5.78e-06	70.721	0.0040344	0.0044437	0.0012222	1187.4	4.7386e-05	4.7491e-05	989.81	424.89	4.5184e-05	4.5286e-05	481.89	171.05	176.85	60.368	4.4464e-05	77.039	-169.363	-82.918	-117.667	-161.954	-169.193	-74.407	-163.060	-158.238	133.164	-158.936	-159.840	-155.390	-155.133	-149.749	-51.486	-151.596	-8191	255	
12032.597	1	1	0	0	0.070352	0.13578	0.035648	0.12773	0.27019	0.26891	0.33614	0.21061	0.14419	0.269	0.15584	0.055026	0.056244	0.16488	0.099495	0.35418	-1.9729	-1.9333	-2.1188	-2.3083	-1.725	-2.3021	-2.5104	-2.0062	-2.4229	-1.9646	-2.0521	-2.4062	-1.7833	-2.3479	-2.2271	-2.0771	39.181	44.756	-38.788	-65.803	-104.795	173.874	85.126	130.857	20.596	136.799	160.423	-74.592	-110.167	87.052	-136.373	12.929	0.00078636	0.00080514	0.00025238	1068.2	6.0234e-06	1.5557e-05	919.81	403.48	3.3197e-06	2.0644e-06	385.38	156.76	145.28	55.976	7.4274e-06	70.529	0.0038138	0.0042053	0.001183	1178.7	4.6127e-05	4.7271e-05	991.93	426.28	4.5936e-05	4.683e-05	485.59	171.09	177.67	60.249	4.4283e-05	76.637	182.512	-105.796	-121.286	-162.191	-145.593	-62.262	-163.480	-158.407	-154.089	-120.344	-159.912	-155.755	-155.421	-149.749	8.301	-151.664	-8191	255	
12032.693	1	1	0	0	0.21109	0.07276	0.079673	0.23316	0.047354	0.13746	0.14458	0.23306	0.17422	0.1965	0.14573	0.15209	0.21008	0.14729	0.10707	0.1686	-1.9021	-1.8771	-1.85	-2.5667	-1.8646	-2.1125	-2.3229	-1.9125	-2.325	-1.9729	-2.0563	-2.4854	-2.0771	-2.4062	-2.2438	-2.075	-166.040	-86.331	13.966	162.401	-131.643	-12.568	127.591	163.079	138.837	103.864	140.054	-99.674	-143.111	157.525	-162.756	84.792	0.0008551	0.00060424	0.00036216	1069.5	8.5925e-06	6.6081e-06	919.44	403.86	1.2114e-05	1.8543e-05	385.24	156.36	145.83	55.436	1.9998e-06	70.041	0.0037153	0.0040456	0.0011265	1172.3	4.3844e-05	4.448e-05	987.97	424.45	4.4557e-05	4.5287e-05	483.03	170.57	177.64	60.034	4.5801e-05	76.314	-169.136	-52.861	-57.951	-162.093	84.420	-147.051	-163.466	-158.242	-80.259	15.568	-159.768	-155.639	-155.201	-149.800	-66.334	-151.677	-8191	255	
12032.812	1	1	0	0	0.069693	0.21982	0.16774	0.18456	0.25091	0.11236	0.26252	0.34228	0.23204	0.075508	0.1922	0.2425	0.12632	0.28968	0.1256	0.31875	-1.8458	-2.0271	-1.8458	-2.5271	-1.7625	-2.175	-2.2917	-2.0333	-2.3417	-2.1833	-2.1104	-2.3979	-1.8958	-2.2313	-2.4854	-2.0375	-24.850	136.196	86.838	83.884	124.972	16.912	53.974	154.903	-141.338	-42.753	7.828	117.074	122.227	142.046	-4.909	176.337	0.00082232	0.0013109	3.1005e-05	1068.2	1.9424e-05	6.7454e-06	908.68	401.07	9.8226e-06	6.3206e-06	382.82	156.13	144.76	55.957	5.294e-06	70.252	0.0038719	0.0041911	0.0011694	1176.8	4.5519e-05	4.6346e-05	983.66	423.33	4.4944e-05	4.5624e-05	482.03	170.36	177.98	60.354	4.6495e-05	76.781	175.941	-98.412	144.370	-162.339	2.529	-44.866	-163.337	-158.066	-28.286	-108.493	-159.993	-155.902	-155.403	-149.876	-86.089	-151.502	-8191	255	
12032.908	1	1	0	0	0.2698	0.37859	0.23951	0.12026	0.084702	0.040902	0.22693	0.15449	0.19311	0.073319	0.26101	0.24038	0.26907	0.076493	0.19991	0.16637	-1.9562	-2.3354	-1.8625	-2.4604	-2.0438	-2.1188	-2.5021	-2.1271	-2.2083	-2.2021	-2.125	-2.4521	-2.1146	-2.2125	-2.5229	-2.0854	106.503	34.417	131.607	-151.672	181.051	-152.930	88.562	77.166	106.142	-168.785	21.899	175.494	-75.951	164.131	87.183	126.313	0.00092081	0.0029644	0.00036528	1060.9	1.2452e-05	8.2745e-06	907.43	399.3	6.4397e-06	1.0136e-05	382.79	156.79	145.06	56.015	6.8466e-06	70.715	0.003953	0.0043623	0.0012192	1179.4	4.6979e-05	4.7397e-05	983.66	423.23	4.4963e-05	4.5439e-05	480.39	170.78	177.17	60.3	4.474e-05	77.143	-174.846	-61.072	-39.117	-162.380	124.481	-61.144	-163.459	-158.203	-26.356	-141.940	-159.708	-155.711	-155.560	-149.754	16.437	-151.851	-8191	255	
12033.004	1	1	0	0	0.22066	0.057955	0.14511	0.21077	0.17796	0.094629	0.129	0.23123	0.13236	0.322	0.14265	0.12879	0.10186	0.26321	0.39969	0.28129	-1.8312	-2.2	-1.8458	-2.4667	-2.1604	-1.8937	-2.5042	-2.1833	-2.2188	-2.2729	-2.0438	-2.2854	-2.275	-1.9958	-2.3917	-2.1	15.806	-144.910	25.563	-147.421	-4.447	-55.490	85.112	129.120	14.422	-9.573	-122.942	177.780	-18.813	-160.237	110.208	140.443	0.00071598	0.00098195	0.00022878	1063	6.259e-06	1.2674e-05	914.78	400.65	1.0948e-05	6.3642e-07	382.59	157.96	146.19	56.398	7.9816e-06	71.201	0.0038311	0.0042025	0.0011808	1174.9	4.6295e-05	4.7472e-05	987.31	424.01	4.6582e-05	4.7532e-05	485.46	172.2	179.07	60.934	4.6919e-05	77.95	181.237	-97.649	-75.048	-162.055	-31.788	21.313	-163.283	-158.338	-156.424	113.713	-160.423	-155.708	-155.307	-149.748	-25.483	-151.620	-8191	255	
12033.125	1	1	0	0	0.1809	0.22038	0.19071	0.077344	0.20041	0.017404	0.068379	0.11694	0.17876	0.10476	0.048076	0.22662	0.29398	0.19955	0.20455	0.19041	-1.8292	-2.4021	-1.9188	-2.4875	-2.3375	-1.7375	-2.6229	-2.1562	-1.9562	-2.3854	-1.9167	-2.3187	-2.3167	-2.1146	-2.4813	-1.9771	-118.011	34.881	-124.029	-49.864	-6.760	-12.428	144.480	102.657	-116.923	50.875	-140.022	107.847	176.211	143.551	-54.020	18.953	0.00052357	0.0012772	9.6957e-05	1068.7	1.6308e-05	1.9204e-06	912.07	400.48	3.0393e-06	1.3815e-05	383.98	156.87	145.62	55.705	8.0647e-06	70.451	0.0039338	0.0042815	0.0011943	1174.9	4.6288e-05	4.6832e-05	986.76	423.56	4.5939e-05	4.7137e-05	485.8	171.79	178.67	60.444	4.6332e-05	76.878	-172.280	-85.605	147.009	-162.121	42.949	101.592	-163.745	-158.147	60.912	2.863	-160.164	-155.851	-155.396	-149.843	-52.044	-151.476	-8191	255	
12033.197	1	1	0	0	0.064738	0.16087	0.2353	0.086715	0.18979	0.074004	0.13672	0.24509	0.10514	0.095153	0.14028	0.30207	0.12412	0.10363	0.1639	0.32861	-1.6333	-2.3271	-1.8354	-2.1708	-2.2771	-1.8563	-2.5396	-2.3396	-2.0354	-2.4125	-1.8771	-2.3604	-2.2812	-2.0708	-2.1375	-2.4604	-118.714	-175.606	-70.787	38.529	-3.697	166.486	-156.666	86.549	41.937	-143.001	81.731	121.808	60.611	-133.611	119.243	131.486	0.00079121	0.0009942	0.00036775	1062.1	8.9453e-06	7.8089e-06	909.94	398.38	1.2754e-05	1.6808e-05	382.91	154.71	143.26	55.655	8.2854e-06	70.205	0.0039072	0.0042578	0.0011773	1172	4.5726e-05	4.6433e-05	980.94	421.89	4.5823e-05	4.6477e-05	482.11	170.01	176.93	60.037	4.5258e-05	76.35	182.008	-59.563	-83.681	-162.262	124.424	-78.033	-163.257	-157.924	-64.373	-125.551	-159.497	-155.630	-155.359	-149.684	-29.067	-151.451	-8191	255	
#DATA ENDS
