BOXY.EXE: ISS Imagent and Oximeter Data Acquisition Program Version 0.80
Ascii Record File

#ACQ INFORMATION
2  Detector Channels 
16  External MUX Channels 
1  Auxiliary Channels 
5000  Waveform (CCF) Frequency (Hz)
1  Waveforms Skipped 
30  Waveforms Averaged 
1  Cycles Averaged 
16  Acquisitions per Waveform 
10.0806  Updata Rate (Hz) 

#FILE INFORMATION
TRUE -- External MUX Channel results are PARSED.
FALSE -- AC DC and Phase are NOT grouped.
TRUE -- Companion Program Settings File CREATED.
FALSE -- AC data not excluded
FALSE -- DC data not excluded
FALSE -- Phase data not excluded
FALSE -- Auxillary Chn. data not excluded
Tab delimiters

#CALIBRATION STATE
TRUE -- Waveform Calibration Values APPLIED.


#AUX CALIBRATION VALUES
Val Type	aux-1	

Term	1.0000e+00	
Factor	0.0000e+00	


#WF CALIBRATION VALUES
A = Detector Channel
Val Type	A-AC1	A-AC2	A-AC3	A-AC4	A-AC5	A-AC6	A-AC7	A-AC8	A-AC9	A-AC10	A-AC11	A-AC12	A-AC13	A-AC14	A-AC15	A-AC16	A-DC1	A-DC2	A-DC3	A-DC4	A-DC5	A-DC6	A-DC7	A-DC8	A-DC9	A-DC10	A-DC11	A-DC12	A-DC13	A-DC14	A-DC15	A-DC16	A-Ph1	A-Ph2	A-Ph3	A-Ph4	A-Ph5	A-Ph6	A-Ph7	A-Ph8	A-Ph9	A-Ph10	A-Ph11	A-Ph12	A-Ph13	A-Ph14	A-Ph15	A-Ph16	

Term	0.00000e+00	0.00000e+00	0.00000e+00	0.00000e+00	0.00000e+00	0.00000e+00	0.00000e+00	0.00000e+00	0.00000e+00	0.00000e+00	0.00000e+00	0.00000e+00	0.00000e+00	0.00000e+00	0.00000e+00	0.00000e+00	0.00000e+00	0.00000e+00	0.00000e+00	0.00000e+00	0.00000e+00	0.00000e+00	0.00000e+00	0.00000e+00	0.00000e+00	0.00000e+00	0.00000e+00	0.00000e+00	0.00000e+00	0.00000e+00	0.00000e+00	0.00000e+00	0.00000e+00	0.00000e+00	0.00000e+00	0.00000e+00	0.00000e+00	0.00000e+00	0.00000e+00	0.00000e+00	0.00000e+00	0.00000e+00	0.00000e+00	0.00000e+00	0.00000e+00	0.00000e+00	0.00000e+00	0.00000e+00	
Factor	1.00000e+00	1.00000e+00	1.00000e+00	1.00000e+00	1.00000e+00	1.00000e+00	1.00000e+00	1.00000e+00	1.00000e+00	1.00000e+00	1.00000e+00	1.00000e+00	1.00000e+00	1.00000e+00	1.00000e+00	1.00000e+00	1.00000e+00	1.00000e+00	1.00000e+00	1.00000e+00	1.00000e+00	1.00000e+00	1.00000e+00	1.00000e+00	1.00000e+00	1.00000e+00	1.00000e+00	1.00000e+00	1.00000e+00	1.00000e+00	1.00000e+00	1.00000e+00	X	X	X	X	X	X	X	X	X	X	X	X	X	X	X	X	

B = Detector Channel
Val Type	B-AC1	B-AC2	B-AC3	B-AC4	B-AC5	B-AC6	B-AC7	B-AC8	B-AC9	B-AC10	B-AC11	B-AC12	B-AC13	B-AC14	B-AC15	B-AC16	B-DC1	B-DC2	B-DC3	B-DC4	B-DC5	B-DC6	B-DC7	B-DC8	B-DC9	B-DC10	B-DC11	B-DC12	B-DC13	B-DC14	B-DC15	B-DC16	B-Ph1	B-Ph2	B-Ph3	B-Ph4	B-Ph5	B-Ph6	B-Ph7	B-Ph8	B-Ph9	B-Ph10	B-Ph11	B-Ph12	B-Ph13	B-Ph14	B-Ph15	B-Ph16	

Term	0.00000e+00	0.00000e+00	0.00000e+00	0.00000e+00	0.00000e+00	0.00000e+00	0.00000e+00	0.00000e+00	0.00000e+00	0.00000e+00	0.00000e+00	0.00000e+00	0.00000e+00	0.00000e+00	0.00000e+00	0.00000e+00	0.00000e+00	0.00000e+00	0.00000e+00	0.00000e+00	0.00000e+00	0.00000e+00	0.00000e+00	0.00000e+00	0.00000e+00	0.00000e+00	0.00000e+00	0.00000e+00	0.00000e+00	0.00000e+00	0.00000e+00	0.00000e+00	-7.31199e+01	-1.32799e+02	-1.26468e+02	-1.82714e+02	-5.26673e+01	-6.72776e+01	-1.58600e+02	-1.62015e+02	-4.81301e+01	-6.81745e+01	-1.74789e+02	-1.71091e+02	-1.81647e+02	-1.76664e+02	-5.28905e+01	-1.49745e+02	
Factor	1.45622e-05	1.40397e-04	4.03230e-05	1.48927e-01	1.29784e-06	1.50963e-06	1.69133e-01	4.23035e-02	9.54360e-07	1.51249e-06	7.52042e-02	2.43297e-02	1.97584e-02	7.93508e-03	1.28624e-06	1.14015e-02	1.42596e-05	3.90213e-05	1.10580e-05	7.54603e-02	3.58379e-07	4.54558e-07	8.02644e-02	2.15652e-02	3.46059e-07	4.54774e-07	3.70643e-02	1.20591e-02	1.01503e-02	4.07504e-03	3.89001e-07	5.66024e-03	X	X	X	X	X	X	X	X	X	X	X	X	X	X	X	X	



#DISTANCE SETTINGS
A = Detector Channel
A-1	A-2	A-3	A-4	A-5	A-6	A-7	A-8	A-9	A-10	A-11	A-12	A-13	A-14	A-15	A-16	

2.5000e+00	3.0000e+00	2.5000e+00	3.0000e+00	2.0000e+00	3.0000e+00	1.5000e+00	3.0000e+00	3.0000e+00	3.0000e+00	3.0000e+00	3.0000e+00	3.0000e+00	3.0000e+00	1.5000e+00	3.0000e+00	

B = Detector Channel
B-1	B-2	B-3	B-4	B-5	B-6	B-7	B-8	B-9	B-10	B-11	B-12	B-13	B-14	B-15	B-16	

1.0000e+01	1.0000e+01	1.0000e+01	1.4400e+00	1.0000e+01	1.0000e+01	1.5100e+00	1.9400e+00	1.0000e+01	1.0000e+01	1.9900e+00	2.4900e+00	2.4100e+00	2.9000e+00	1.0000e+01	2.9800e+00	




#DATA BEGINS
time	group	step	mark	flag	A-AC1	A-AC2	A-AC3	A-AC4	A-AC5	A-AC6	A-AC7	A-AC8	A-AC9	A-AC10	A-AC11	A-AC12	A-AC13	A-AC14	A-AC15	A-AC16	A-DC1	A-DC2	A-DC3	A-DC4	A-DC5	A-DC6	A-DC7	A-DC8	A-DC9	A-DC10	A-DC11	A-DC12	A-DC13	A-DC14	A-DC15	A-DC16	A-Ph1	A-Ph2	A-Ph3	A-Ph4	A-Ph5	A-Ph6	A-Ph7	A-Ph8	A-Ph9	A-Ph10	A-Ph11	A-Ph12	A-Ph13	A-Ph14	A-Ph15	A-Ph16	B-AC1	B-AC2	B-AC3	B-AC4	B-AC5	B-AC6	B-AC7	B-AC8	B-AC9	B-AC10	B-AC11	B-AC12	B-AC13	B-AC14	B-AC15	B-AC16	B-DC1	B-DC2	B-DC3	B-DC4	B-DC5	B-DC6	B-DC7	B-DC8	B-DC9	B-DC10	B-DC11	B-DC12	B-DC13	B-DC14	B-DC15	B-DC16	B-Ph1	B-Ph2	B-Ph3	B-Ph4	B-Ph5	B-Ph6	B-Ph7	B-Ph8	B-Ph9	B-Ph10	B-Ph11	B-Ph12	B-Ph13	B-Ph14	B-Ph15	B-Ph16	aux-1	digaux	

1883.080	1	1	0	768	0.087581	0.13731	0.22333	0.15732	0.099765	0.075015	0.16231	0.23496	0.21938	0.46763	0.045824	0.085549	0.19569	0.10488	0.11985	0.3346	-2.6396	-2.7458	-2.7917	-2.95	-2.6063	-3.0792	-3.0021	-2.6667	-3.0542	-2.7229	-2.8021	-3.0917	-2.7104	-2.9792	-3.1	-2.5604	336.480	247.228	439.097	419.018	436.871	445.330	479.643	386.244	437.536	322.228	337.037	356.846	355.792	183.070	309.990	298.629	0.00015979	0.00021912	5.6632e-05	426.68	2.3746e-06	1.8892e-06	602.42	138.79	1.7714e-06	2.2034e-06	171.19	48.077	31.592	8.7358	1.7439e-06	16.889	0.00011818	4.4549e-05	1.5274e-05	417.39	9.0864e-07	2.6326e-07	586.39	136.19	7.4691e-07	4.3867e-07	166.84	47.153	31.017	8.6458	5.13e-07	16.723	257.787	258.875	255.522	182.508	335.741	319.492	181.697	188.124	315.292	326.438	185.732	191.017	193.411	200.086	311.860	196.674	-8191	255	
1883.176	1	1	0	0	0.11878	0.14488	0.1608	0.23748	0.062756	0.052161	0.18818	0.18561	0.19639	0.21907	0.25545	0.11907	0.1721	0.25762	0.27084	0.20963	-2.6479	-2.6625	-2.8	-2.9229	-2.5854	-3.0646	-3.1521	-2.6646	-3.2521	-2.8812	-2.8375	-3.0167	-2.5333	-2.8833	-3.0875	-2.6458	321.151	453.351	349.837	521.618	243.035	343.796	187.976	527.250	329.277	471.534	459.839	492.991	171.672	301.845	181.637	462.783	0.00016286	0.00018225	5.0097e-05	428.02	1.4064e-06	1.6347e-06	599.4	140.15	2.102e-06	2.2342e-06	171.02	47.778	31.459	8.7873	2.0318e-06	16.904	0.0001297	4.398e-05	1.426e-05	417.84	8.631e-07	4.3467e-07	585.69	136.78	8.3054e-07	4.6425e-07	166.87	47.267	30.965	8.6841	4.2628e-07	16.773	254.639	253.058	271.942	182.871	322.776	349.590	181.515	187.742	319.270	315.190	185.874	191.231	193.824	200.281	333.685	197.045	-8191	255	
1883.272	1	1	0	0	0.13996	0.14236	0.05463	0.20072	0.15576	0.15144	0.14069	0.11399	0.14803	0.10167	0.30065	0.16858	0.28755	0.1183	0.14669	0.12894	-2.6437	-2.7896	-2.5958	-3.2083	-2.6208	-2.7396	-3.2479	-3.0208	-3.0042	-3.0812	-2.8146	-3.2729	-2.8854	-2.9771	-3.0792	-2.75	368.016	221.938	406.145	178.144	204.412	343.906	439.009	408.525	435.422	349.877	252.806	183.301	261.184	239.547	252.958	367.226	0.00016966	0.00022697	6.1764e-05	428.1	1.7041e-06	2.4422e-06	598.62	138.91	2.1143e-06	1.5175e-06	169.51	47.847	31.74	8.6256	1.826e-06	16.802	0.00012816	4.2354e-05	1.1311e-05	417.28	6.5329e-07	4.1668e-07	583.12	136.09	8.6082e-07	3.2876e-07	166.03	46.988	31.099	8.5804	3.3551e-07	16.591	252.581	253.547	264.977	182.598	333.914	325.619	181.631	188.025	317.670	326.533	185.672	190.929	193.642	200.110	332.591	196.983	-8191	255	
1883.368	1	1	0	0	0.3047	0.035593	0.021175	0.1449	0.31428	0.14504	0.119	0.15803	0.22648	0.05366	0.25284	0.24252	0.28164	0.2847	0.14515	0.018446	-2.6083	-2.9167	-2.4562	-3.2083	-2.8	-2.8292	-3.2208	-2.8042	-2.9667	-3.1854	-2.5438	-2.9938	-2.7438	-2.7229	-3.2104	-2.6	453.864	503.101	350.990	224.687	246.789	422.044	511.342	512.990	216.523	464.799	254.501	330.145	331.586	275.031	373.932	369.207	0.00016633	0.00023296	6.2143e-05	424.38	1.976e-06	1.1768e-06	599.88	138.76	1.9004e-06	2.234e-06	169.74	48.041	31.665	8.7403	2.1451e-06	16.903	0.00012427	4.0485e-05	1.5458e-05	414.97	7.2422e-07	2.1023e-07	583.42	136.33	7.2312e-07	3.0697e-07	166.26	47.373	31.092	8.7128	4.9273e-07	16.81	255.367	229.957	261.684	182.437	305.098	322.922	181.631	187.815	325.356	330.464	186.024	191.220	193.210	200.459	328.497	197.046	-8191	255	
1883.464	1	1	0	0	0.14509	0.30293	0.19077	0.067241	0.024222	0.094317	0.26212	0.12487	0.24132	0.10257	0.16367	0.12397	0.064682	0.12539	0.33264	0.32662	-2.5375	-2.8292	-2.6188	-3.1562	-2.6646	-2.7146	-3.0646	-2.9375	-3.0083	-2.9437	-2.8042	-3.1937	-2.7958	-2.5292	-3.1146	-2.6771	235.926	282.337	486.618	520.128	405.005	376.239	520.585	500.358	360.676	243.039	499.673	502.570	181.594	438.823	440.803	399.225	0.00015591	0.00021503	4.3233e-05	427.17	1.8372e-06	2.5547e-06	597.79	137.87	1.5804e-06	2.3398e-06	169.17	48.619	31.631	8.8646	1.8391e-06	17.172	0.00012338	4.3005e-05	1.0874e-05	415.57	6.4732e-07	3.1914e-07	583.49	135.94	7.6782e-07	2.3212e-07	166.54	47.735	31.181	8.8411	3.7684e-07	17.052	254.390	246.904	270.371	182.778	331.913	324.055	181.617	187.464	308.759	325.372	185.823	191.125	193.361	200.671	325.011	196.638	-8191	255	
1883.560	1	1	0	0	0.1916	0.023624	0.2364	0.15572	0.19472	0.26006	0.064721	0.078413	0.12564	0.099279	0.33245	0.18696	0.13488	0.030717	0.066751	0.15939	-2.3979	-3.1167	-2.7146	-3.2125	-2.825	-2.6437	-3.2521	-2.8542	-2.8583	-3.0229	-2.6854	-3.0792	-2.9583	-2.7896	-3.1771	-2.7875	515.493	511.246	356.734	288.249	257.502	412.439	398.615	298.126	469.853	473.672	449.013	306.822	427.500	246.407	391.078	506.136	0.0001625	0.0002049	7.0783e-05	425.74	2.6757e-06	2.0769e-06	604.92	139.58	1.7851e-06	1.8261e-06	172.03	48.628	31.89	8.844	1.6718e-06	16.953	0.00013226	1.3251e-05	1.9651e-05	415.28	6.7569e-07	6.61e-07	587.5	136.6	9.4085e-07	1.2317e-07	167.72	47.67	31.348	8.7796	2.1557e-07	16.875	254.686	242.362	271.265	182.967	320.144	320.147	182.090	188.259	315.404	324.960	185.544	191.093	193.690	200.729	329.728	197.040	-8191	255	
1883.681	1	1	0	0	0.19793	0.14704	0.31741	0.071336	0.094801	0.091177	0.022468	0.18673	0.2668	0.10005	0.09421	0.10975	0.10635	0.21041	0.28072	0.083028	-2.4417	-3.0167	-2.5812	-3.1167	-3.0354	-2.7354	-3.1167	-2.8937	-2.8333	-2.9813	-2.6312	-3.0458	-3.0146	-2.6104	-3.1521	-2.8708	297.835	432.182	474.437	476.832	372.752	432.410	342.025	433.674	325.896	461.964	212.798	390.016	476.133	271.918	325.479	440.662	0.0001714	0.00022357	6.407e-05	427.87	1.7828e-06	2.0707e-06	599.93	139.2	1.9612e-06	1.831e-06	171.05	48.658	32.017	8.735	2.398e-06	16.95	0.00014147	2.4063e-05	1.6863e-05	416.62	6.6225e-07	5.1706e-07	584.27	136.45	8.0242e-07	1.0138e-07	166.61	47.646	31.429	8.7114	5.1137e-07	16.856	250.432	251.302	270.619	182.588	323.494	307.917	181.735	187.831	316.339	293.170	185.907	191.075	193.115	200.172	329.193	196.733	-8191	255	
1883.777	1	1	0	0	0.17641	0.097152	0.12797	0.16634	0.24945	0.063265	0.14569	0.19941	0.16914	0.079383	0.12144	0.11302	0.12043	0.14761	0.22539	0.24845	-2.1625	-3.0438	-2.7146	-2.9833	-2.9	-2.6229	-3.0979	-2.9792	-2.7021	-3.2333	-2.9458	-3.1042	-2.9667	-2.6875	-2.9396	-2.9	199.645	309.841	258.240	426.390	177.945	400.305	445.776	524.984	197.887	223.492	295.896	273.438	281.376	491.276	325.164	471.900	0.00014992	0.0002212	6.2089e-05	429.85	1.9649e-06	2.4821e-06	600.49	140.15	1.8422e-06	2.5773e-06	171.82	49.01	32.472	8.7921	1.8966e-06	16.921	0.00012355	2.0242e-05	1.2648e-05	417.01	5.9132e-07	5.2558e-07	584.47	137.11	8.1684e-07	2.2928e-07	167.82	48.281	31.954	8.7425	3.6145e-07	16.831	252.446	261.487	254.705	182.761	348.898	318.128	181.775	188.159	314.869	322.914	185.973	191.432	193.772	200.569	325.385	196.691	-8191	255	
1883.873	1	1	0	0	0.3374	0.28482	0.38157	0.19176	0.068558	0.12452	0.1559	0.17835	0.24208	0.25334	0.11104	0.10905	0.10717	0.038437	0.11552	0.32027	-2.1958	-3.0333	-2.6958	-2.7917	-2.9667	-2.6813	-3.0333	-2.9979	-2.6604	-3.2042	-2.8187	-2.7042	-3.2625	-2.5354	-2.9917	-3.0208	469.889	390.892	367.905	181.195	498.302	397.014	516.804	485.128	209.407	396.896	460.331	464.277	316.150	381.749	436.149	416.276	0.0001732	0.00019151	6.7026e-05	431.24	1.0263e-06	1.6901e-06	604.3	140.63	2.2481e-06	1.3514e-06	174.91	50.285	32.915	8.9016	1.8444e-06	17.298	0.00014572	3.3412e-05	1.1565e-05	418.73	5.3309e-07	4.7255e-07	588.98	138.23	9.1922e-07	1.3927e-07	170.72	49.631	32.581	8.8293	7.075e-07	17.138	255.315	266.217	258.333	182.562	318.492	343.505	181.518	187.866	330.204	308.930	185.567	191.010	193.601	200.472	335.455	196.468	-8191	255	
1883.969	1	1	0	0	0.30344	0.16663	0.071046	0.10349	0.071654	0.10605	0.21415	0.16711	0.08186	0.11586	0.20625	0.025967	0.03748	0.22177	0.25211	0.26827	-2.2521	-3.2333	-2.6833	-2.7562	-3.225	-2.5646	-3.0208	-3.1625	-2.7542	-2.9979	-2.9021	-2.8375	-3.1354	-2.6688	-2.9896	-3.0479	173.715	446.231	399.802	419.781	469.607	521.035	444.834	442.917	249.972	210.654	210.667	474.064	427.858	221.931	397.219	184.945	0.0001702	0.00020422	7.468e-05	431.4	2.0643e-06	1.7094e-06	609.46	143.3	1.7114e-06	2.4884e-06	178.07	51.165	33.569	8.9761	1.7848e-06	17.303	0.00013258	3.7233e-05	1.2049e-05	420.08	5.8461e-07	4.9244e-07	595.77	140.66	9.4734e-07	2.0939e-07	173.92	50.571	33.249	8.9224	4.0116e-07	17.146	254.541	250.531	258.922	182.686	312.484	334.764	181.408	188.096	321.491	319.826	185.753	191.144	193.517	200.206	334.582	196.688	-8191	255	
1884.066	1	1	0	0	0.14136	0.085542	0.0748	0.25923	0.15679	0.19628	0.19591	0.063115	0.18361	0.028824	0.15996	0.11353	0.11748	0.088022	0.30596	0.14243	-2.0812	-2.8688	-2.7854	-2.775	-3.1917	-2.9167	-2.95	-3.1229	-2.7208	-3.1625	-2.9313	-2.7	-3.1354	-2.7542	-2.9208	-3.1521	314.714	505.673	243.629	500.412	291.424	222.209	413.777	267.045	186.786	378.238	258.933	498.746	401.930	345.336	334.226	202.837	0.00016546	0.0002667	5.5543e-05	437	1.4245e-06	2.1478e-06	618.46	145.5	1.7579e-06	2.3468e-06	179.71	51.997	34.147	9.066	1.4463e-06	17.304	0.00013778	4.4062e-05	1.1749e-05	426.54	5.4205e-07	5.5873e-07	600.68	142.26	9.5743e-07	3.6287e-07	175.62	51.051	33.6	8.9697	5.5027e-07	17.203	255.617	246.039	278.882	182.587	328.608	315.934	181.717	187.722	315.461	327.717	185.880	190.933	193.741	200.689	334.793	196.822	-8191	255	
1884.162	1	1	0	0	0.17223	0.29729	0.20093	0.15938	0.068987	0.15453	0.11247	0.15565	0.1438	0.18042	0.022103	0.30121	0.25034	0.068006	0.071513	0.058411	-2.3479	-3.0542	-2.9	-2.7125	-3.05	-2.7917	-2.9646	-3.2833	-2.6083	-2.9021	-2.9521	-2.4833	-2.975	-2.8812	-2.6729	-3.1458	283.168	367.893	425.266	498.159	173.156	426.609	306.445	313.969	175.768	359.594	488.404	447.256	200.798	329.162	387.291	479.999	0.00016343	0.00015939	7.5728e-05	435.55	2.5733e-06	2.3485e-06	617.36	144.86	1.9835e-06	2.8145e-06	180.8	52.593	34.63	8.9999	1.828e-06	17.355	0.00013339	3.6908e-05	1.1772e-05	426.39	6.966e-07	4.735e-07	601.21	142.52	9.8266e-07	4.074e-07	176.78	51.752	34.002	9.0141	5.6972e-07	17.311	253.479	249.121	273.676	182.594	327.756	336.738	181.768	187.784	310.208	318.941	185.809	191.044	193.645	200.073	327.770	196.961	-8191	255	
1884.281	1	1	0	0	0.079592	0.23007	0.13613	0.06202	0.16693	0.069344	0.12568	0.17	0.1451	0.16409	0.25267	0.11755	0.074736	0.061712	0.11149	0.070746	-2.1437	-2.8292	-3.0146	-2.6417	-3.2479	-2.9583	-2.8292	-2.975	-2.8708	-2.8917	-3.1792	-2.6208	-3.0333	-3.1021	-2.7375	-3.3417	302.126	474.793	243.347	439.190	430.984	241.539	207.457	466.267	282.412	466.296	206.274	515.515	486.208	404.661	443.029	266.458	0.00016281	0.00016867	7.1932e-05	438.69	2.2285e-06	2.1854e-06	620.93	147.13	2.0434e-06	2.385e-06	181.92	52.435	34.331	9.1062	2.5021e-06	17.635	0.00013288	5.1541e-05	1.6311e-05	428.55	5.7415e-07	2.9546e-07	605.32	143.75	9.805e-07	4.1688e-07	177.67	51.794	33.845	9.0712	5.4541e-07	17.556	251.716	252.312	274.337	182.575	321.072	315.700	181.512	187.714	315.821	320.280	185.616	191.309	193.372	200.072	324.776	196.690	-8191	255	
1884.377	1	1	0	0	0.25067	0.30677	0.13246	0.3339	0.20011	0.25319	0.1373	0.10115	0.31465	0.17416	0.11419	0.15478	0.20699	0.18611	0.045338	0.080493	-2.2875	-2.9896	-2.9375	-2.7896	-2.9104	-3.0646	-2.7938	-3.2125	-2.7875	-2.825	-3.2687	-2.7208	-3.2104	-2.9458	-2.6458	-3.15	478.838	401.098	483.450	480.092	306.384	227.377	398.007	175.055	190.372	419.904	500.803	396.247	210.427	183.570	364.690	504.272	0.00016928	0.00024896	5.7901e-05	441.9	2.1933e-06	2.3902e-06	619.8	145.87	1.7235e-06	2.1524e-06	179.08	52.003	34.14	9.0465	1.4349e-06	17.424	0.00013903	4.3249e-05	7.2568e-06	430.2	6.7495e-07	4.5172e-07	604.78	143.06	9.495e-07	2.9087e-07	175.62	51.036	33.615	8.9832	6.8561e-07	17.245	254.916	257.932	242.596	182.526	321.640	306.128	181.810	187.736	312.558	307.265	185.704	190.927	193.387	200.127	326.962	196.816	-8191	255	
1884.473	1	1	0	0	0.22588	0.22145	0.18101	0.087687	0.04923	0.012744	0.099384	0.12438	0.11814	0.24087	0.21598	0.061778	0.068644	0.1914	0.07474	0.15898	-2.4917	-2.7938	-3.0167	-2.5812	-2.9854	-3.0438	-2.4417	-3.0896	-2.8771	-2.8063	-3.1583	-2.675	-2.8229	-2.9833	-2.5667	-3.1562	470.314	339.860	188.086	440.335	297.948	184.797	509.437	501.060	318.255	273.435	510.221	406.952	480.388	342.099	423.420	255.658	0.00016138	0.00023519	6.454e-05	440.43	1.8445e-06	2.1356e-06	621.93	145.12	2.0927e-06	1.8408e-06	177.92	51.153	33.649	9.0798	2.4613e-06	17.379	0.00013083	5.3817e-05	9.0768e-06	429.84	7.6305e-07	2.9357e-07	602.35	142.66	9.7473e-07	3.9509e-07	174.11	50.405	33.078	9.0066	6.0781e-07	17.262	255.674	244.551	259.091	182.251	328.016	318.086	181.259	187.838	337.020	332.047	185.541	190.933	194.080	200.050	323.202	196.481	-8191	255	
1884.569	1	1	0	0	0.098696	0.086881	0.16777	0.29199	0.20267	0.25484	0.12183	0.20341	0.078949	0.16623	0.097189	0.14772	0.15962	0.23241	0.11215	0.056074	-2.325	-2.5208	-3.0479	-2.6208	-2.9542	-3.1083	-2.7146	-3.0333	-3.0167	-2.7333	-3.1562	-2.75	-2.8958	-3.0667	-2.7146	-2.9917	411.234	246.067	452.295	489.537	430.561	331.131	431.649	430.643	452.915	440.541	442.397	299.231	490.465	501.152	383.416	375.169	0.00016659	0.00024753	6.5877e-05	438.9	2.2706e-06	2.2053e-06	614.89	145.08	2.3354e-06	2.8519e-06	178.34	51.242	33.366	9.1259	1.8442e-06	17.436	0.00013205	5.9101e-05	7.7637e-06	427.19	6.3911e-07	3.9206e-07	601.59	142.08	9.6824e-07	6.0542e-07	174.14	50.31	33.133	9.0329	7.2046e-07	17.326	251.192	252.215	274.080	182.640	326.262	326.359	181.423	187.897	325.597	318.975	185.624	191.318	192.965	200.123	320.749	197.146	-8191	255	
1884.641	1	1	0	0	0.22178	0.12553	0.11135	0.074532	0.23665	0.10325	0.16009	0.14436	0.18832	0.14159	0.0295	0.22995	0.1273	0.092676	0.12295	0.077097	-2.3083	-2.6333	-3.1375	-2.725	-2.7042	-3.1667	-2.7875	-2.9771	-2.8833	-2.5917	-3.0167	-2.7812	-2.9042	-3.1979	-2.7104	-3.0521	172.776	270.231	463.704	470.925	329.148	520.001	412.392	469.549	193.386	357.014	481.104	319.050	417.749	403.317	431.122	511.103	0.0001583	0.00021877	4.0819e-05	436.88	1.9428e-06	2.6498e-06	613.71	144.1	2.1237e-06	2.056e-06	179.21	50.873	33.443	9.1377	1.6326e-06	17.776	0.00012935	5.7475e-05	6.3584e-06	426.3	7.4737e-07	3.3145e-07	599.5	141.31	9.6824e-07	7.049e-07	174.3	50.201	32.957	9.0759	5.7783e-07	17.495	255.867	265.655	255.224	182.314	345.317	331.617	181.589	187.889	318.266	315.146	185.995	191.388	193.409	200.053	329.831	196.927	-8191	255	
1884.761	1	1	0	0	0.13262	0.078883	0.14981	0.10403	0.094826	0.18115	0.1882	0.22566	0.027184	0.22987	0.29447	0.030567	0.12195	0.17931	0.31485	0.15857	-2.6688	-2.6833	-3.0563	-2.6604	-2.7021	-3.2042	-2.6104	-2.9083	-3.1542	-2.8708	-3.0104	-2.8917	-2.7354	-3.0187	-2.6542	-2.8563	523.701	289.084	442.820	224.416	228.283	511.768	485.115	266.336	223.680	440.825	213.262	255.887	379.389	499.969	197.642	305.818	0.00016418	0.00022039	8.3292e-05	441.15	2.1792e-06	1.8529e-06	616.52	144.95	2.0218e-06	2.0708e-06	177.09	50.322	33.093	9.1212	1.6474e-06	17.275	0.00013538	5.8125e-05	5.529e-06	427.02	8.3398e-07	9.7541e-08	598.97	141.49	8.0675e-07	4.6425e-07	172.85	49.61	32.654	9.0034	6.6049e-07	17.18	254.447	244.031	269.673	182.780	320.855	315.105	181.522	187.929	317.049	329.452	185.955	190.920	193.148	200.616	333.294	196.607	-8191	255	
1884.858	1	1	0	0	0.13538	0.055691	0.35824	0.074654	0.18088	0.21833	0.1092	0.24027	0.28339	0.18454	0.062951	0.073649	0.12355	0.33047	0.024991	0.22634	-2.5958	-2.5938	-2.9729	-2.8771	-2.7562	-3.2229	-2.6896	-2.8021	-3.0646	-2.6292	-2.8521	-2.7417	-2.5521	-3.0958	-2.8917	-2.8125	319.184	404.332	370.746	424.193	425.180	177.536	397.492	219.304	224.932	191.166	468.915	451.590	485.842	424.191	264.212	522.429	0.0001579	0.00025229	5.5223e-05	434.66	1.6492e-06	2.2166e-06	613.9	143.72	1.243e-06	2.2319e-06	175.15	49.957	33.037	9.024	2.6438e-06	17.496	0.00012991	6.8856e-05	1.1358e-05	424.64	8.5787e-07	2.1686e-07	596.13	140.44	6.5319e-07	5.9026e-07	171.65	49.162	32.469	8.9949	7.1965e-07	17.265	254.817	265.414	240.007	182.328	332.251	316.479	181.515	187.765	323.141	318.694	185.455	191.219	193.476	199.773	320.115	196.080	-8191	255	
1884.954	1	1	0	0	0.054905	0.15168	0.19344	0.036216	0.33954	0.10665	0.14905	0.063653	0.10547	0.16282	0.14323	0.1175	0.088314	0.099714	0.21868	0.11665	-2.5708	-2.5208	-2.8979	-2.9021	-2.5896	-3.0312	-2.6688	-2.775	-3.1229	-2.7687	-2.9646	-3.0333	-2.6833	-3.175	-2.9333	-2.7083	334.302	412.000	497.101	377.768	424.857	514.167	432.769	495.617	290.059	237.482	412.904	188.427	262.967	196.697	390.669	525.780	0.00017856	0.00024227	5.2887e-05	434.15	2.3309e-06	1.7125e-06	610.26	143.55	1.6419e-06	2.0094e-06	175.1	49.698	32.798	9.2325	1.8062e-06	17.545	0.00013844	4.2029e-05	6.8652e-06	423.43	8.2502e-07	2.0645e-07	594.52	140.18	7.3249e-07	5.3436e-07	171.82	48.989	32.336	9.0872	5.7459e-07	17.436	252.732	247.926	250.227	182.738	328.694	305.561	181.479	188.157	316.450	316.487	185.942	190.990	193.397	200.176	327.693	196.677	-8191	255	
1885.050	1	1	0	0	0.26691	0.17419	0.1319	0.029678	0.17473	0.18993	0.15254	0.2358	0.21359	0.11387	0.18406	0.1644	0.19094	0.14578	0.11676	0.28614	-2.6833	-2.675	-2.8708	-3.1021	-2.6521	-2.9604	-3.0187	-2.7292	-3.1063	-2.7896	-3.0021	-2.9917	-2.7	-2.9208	-2.8104	-2.7208	267.457	335.134	269.471	527.508	450.937	508.928	458.137	502.526	488.966	351.355	518.724	224.016	240.666	254.737	225.805	450.063	0.00016078	0.00022832	6.6256e-05	429.77	1.8273e-06	2.3142e-06	610.9	141.72	1.7931e-06	2.1517e-06	175.05	49.971	32.794	9.1658	2.0259e-06	17.46	0.00012866	4.4793e-05	1.0298e-05	421.16	8.952e-07	2.1118e-07	594.59	139.41	7.9666e-07	5.3341e-07	171.35	49.15	32.392	9.0661	5.1137e-07	17.353	251.904	255.170	268.015	182.514	325.972	317.537	181.540	187.875	324.573	322.515	185.678	191.095	193.415	200.363	322.642	196.683	-8191	255	
1885.169	1	1	0	0	0.22322	0.22581	0.09408	0.12924	0.1325	0.17037	0.096501	0.2791	0.072645	0.10372	0.11857	0.10783	0.063053	0.1041	0.1184	0.14952	-2.5396	-2.6479	-2.8542	-3.2438	-2.5708	-3.1917	-3.0271	-2.7604	-3.125	-2.6646	-2.7729	-3.1458	-2.6604	-2.8792	-3.0333	-2.5833	322.577	284.747	307.973	408.593	373.512	373.323	476.088	374.199	358.500	496.029	200.561	359.049	366.122	368.917	242.819	468.089	0.00016542	0.00022421	6.2935e-05	430.27	1.6278e-06	1.6534e-06	608.56	142.91	2.0404e-06	2.2542e-06	175.16	50.773	33.002	8.9891	1.9185e-06	17.181	0.00012456	4.7313e-05	1.274e-05	420.08	7.1601e-07	3.1061e-07	591.6	139.81	6.8202e-07	3.7519e-07	170.72	49.765	32.684	8.9542	5.3082e-07	17.042	252.837	248.893	268.030	182.742	321.598	321.401	181.229	188.146	315.047	324.876	185.786	190.672	193.535	200.348	324.212	196.817	-8191	255	
1885.242	1	1	0	0	0.18112	0.11283	0.24803	0.16644	0.19726	0.033675	0.185	0.10372	0.32817	0.18499	0.031196	0.2159	0.26166	0.18298	0.034134	0.053987	-2.7313	-2.6437	-2.8083	-3.2146	-2.6521	-3.2167	-3.1417	-2.6583	-3.0417	-2.9604	-2.7562	-3.2729	-2.7417	-2.8958	-3.0542	-2.5792	197.686	406.097	499.534	479.309	259.852	206.343	436.488	477.412	467.714	436.028	377.618	191.733	336.671	352.870	492.962	451.810	0.0001584	0.00010928	5.9135e-05	427.62	2.2776e-06	2.3935e-06	606.31	142.58	1.8879e-06	1.4195e-06	176.84	51.315	33.791	8.9658	1.2761e-06	17.241	0.00012124	3.7558e-05	1.3408e-05	417.71	7.9142e-07	2.3296e-07	591.81	139.88	8.1901e-07	3.4392e-07	172.59	50.682	33.271	8.9411	3.8738e-07	17.089	252.737	252.746	257.496	182.482	331.609	313.471	181.567	187.852	322.615	311.090	185.732	190.954	193.565	200.481	335.604	196.487	-8191	255	
1885.361	1	1	0	0	0.17983	0.070547	0.18879	0.27535	0.10851	0.1684	0.10018	0.025429	0.18258	0.16771	0.12126	0.098008	0.1556	0.09714	0.31819	0.29349	-2.7396	-2.8354	-2.55	-3.1562	-2.9417	-2.8375	-3.1833	-2.6375	-2.9771	-2.9667	-2.8312	-3.1875	-2.7125	-2.8292	-3.0833	-2.5396	472.864	329.476	293.432	498.457	282.058	423.349	328.457	362.657	517.482	436.481	397.901	484.472	444.414	181.826	349.258	335.682	0.0001615	0.00023504	6.5756e-05	430.96	1.5179e-06	1.7013e-06	611.82	144.1	1.6192e-06	1.7811e-06	179.38	52.339	34.421	9.17	2.6246e-06	17.722	0.00012584	4.7557e-05	1.2878e-05	419.08	6.7121e-07	4.8486e-07	596.69	141.41	8.3415e-07	4.7372e-07	174.98	51.536	33.832	9.1089	5.3082e-07	17.471	252.423	260.557	266.457	182.631	341.959	307.937	181.668	188.115	315.511	315.676	185.826	191.127	193.248	200.476	324.886	197.409	-8191	255	
1885.457	1	1	0	0	0.054776	0.071614	0.099911	0.08748	0.20731	0.17568	0.12095	0.19026	0.15216	0.14625	0.2198	0.10336	0.18548	0.28715	0.2314	0.15077	-2.6542	-3.0062	-2.5354	-3.0292	-2.9313	-2.8563	-3.0667	-2.7292	-3.1708	-3.0687	-2.6354	-3.0708	-2.7375	-2.7708	-3.1708	-2.6292	523.264	441.495	295.148	491.223	473.952	356.632	340.714	522.266	331.875	347.299	302.840	518.144	455.701	230.134	319.552	414.574	0.00016799	0.00026779	5.0723e-05	434.54	2.2228e-06	2.2715e-06	618.79	146.79	1.9011e-06	2.5358e-06	182.35	53.62	34.752	9.2995	2.1665e-06	18.03	0.0001393	3.9834e-05	1.3316e-05	424.42	7.4364e-07	4.0721e-07	604.95	143.99	8.1684e-07	4.5667e-07	178.94	52.716	34.403	9.3094	3.2174e-07	17.769	254.744	250.748	262.976	182.596	318.595	326.776	181.894	187.568	321.817	317.759	186.205	190.770	193.176	200.082	339.611	196.685	-8191	255	
1885.553	1	1	0	0	0.093859	0.051987	0.24333	0.28258	0.27732	0.13221	0.16752	0.15798	0.10758	0.28402	0.20134	0.26348	0.081804	0.12809	0.18764	0.2337	-2.5333	-2.8896	-2.5396	-3.0167	-2.9188	-2.7271	-2.9896	-2.6979	-3.0708	-3.1083	-2.8021	-3.0583	-2.7896	-2.825	-3.2229	-2.7667	370.268	394.076	480.898	496.032	420.701	259.572	379.562	451.760	365.613	461.777	521.255	221.066	331.345	506.069	238.064	412.856	0.00017881	0.000183	5.4464e-05	439.77	2.1803e-06	1.3554e-06	624.38	148.23	1.9435e-06	2.525e-06	184.57	54.223	35.406	9.3348	2.0438e-06	17.952	0.00013832	4.7313e-05	1.5965e-05	429.83	9.1387e-07	3.7312e-07	609.64	145.68	9.4445e-07	3.8656e-07	180.47	53.202	34.887	9.2775	4.2142e-07	17.649	253.895	255.801	269.290	182.825	328.383	324.716	181.578	187.714	316.851	323.340	185.924	190.752	193.535	199.554	325.425	196.968	-8191	255	
1885.649	1	1	0	0	0.11139	0.22235	0.13189	0.14204	0.15093	0.056613	0.14648	0.25413	0.16221	0.030164	0.12034	0.091238	0.048882	0.095203	0.23868	0.22949	-2.5	-3.0062	-2.5458	-3.0812	-3.0125	-2.8271	-3.2125	-2.6167	-2.8375	-3.1083	-2.7917	-2.9583	-2.9104	-2.7229	-2.9917	-2.7729	456.851	525.431	218.539	296.753	290.148	319.186	436.762	358.701	436.052	307.012	282.309	412.770	236.888	240.154	389.192	468.178	0.00017017	0.00036458	7.5776e-05	440.06	2.0736e-06	2.4482e-06	629.12	148.81	1.6522e-06	2.1454e-06	184.99	53.696	35.123	9.2578	2.0162e-06	17.789	0.00013966	5.4874e-05	1.4629e-05	430.3	6.7644e-07	5.36e-07	610.08	145.84	8.8606e-07	3.5056e-07	180.23	52.741	34.381	9.2915	4.4492e-07	17.663	255.772	256.840	256.324	182.617	346.912	320.079	181.644	187.944	309.828	336.847	185.603	190.845	193.589	200.180	331.229	196.682	-8191	255	
1885.770	1	1	0	0	0.21932	0.094494	0.025644	0.33504	0.18422	0.32762	0.051823	0.16882	0.065463	0.21911	0.13295	0.11613	0.13727	0.18734	0.12932	0.22882	-2.1479	-3.0917	-2.7458	-2.8729	-2.9062	-2.8104	-3.0792	-2.7854	-2.9854	-2.9917	-2.7313	-3.0042	-2.975	-2.7188	-2.9208	-2.9042	207.357	469.024	294.967	491.767	213.260	441.969	335.548	399.487	223.053	404.539	323.897	448.366	186.478	182.468	496.351	517.349	0.00016691	0.00025706	7.6305e-05	438.43	2.1361e-06	2.1897e-06	621.88	146.71	1.8079e-06	2.5313e-06	182.56	52.505	34.725	9.3772	2.0476e-06	18.25	0.000136	4.2761e-05	1.9467e-05	428.64	7.7126e-07	6.6763e-07	607.92	144.48	9.8483e-07	4.6804e-07	178.37	51.751	33.968	9.3417	5.0408e-07	18.045	254.087	251.061	259.128	182.411	312.608	311.946	181.528	187.655	324.166	307.236	186.092	191.038	193.583	200.492	336.923	196.926	-8191	255	
1885.866	1	1	0	0	0.29882	0.10621	0.14621	0.24363	0.12082	0.11503	0.16278	0.16216	0.16747	0.14109	0.10987	0.18317	0.12067	0.10037	0.019724	0.18168	-2.0729	-3.0667	-2.6292	-2.9792	-2.925	-2.5292	-3.1063	-2.8479	-2.7229	-3.1917	-2.7062	-2.9042	-2.9792	-2.5479	-3.1583	-2.7833	232.273	237.720	400.636	424.784	305.298	394.264	471.634	499.048	275.110	220.905	171.550	440.457	367.024	320.323	312.704	220.973	0.00015925	0.00018634	6.5358e-05	434.7	1.4916e-06	2.103e-06	617.46	146.87	2.1767e-06	2.497e-06	181.13	51.734	34.082	9.3257	1.8518e-06	17.914	0.00013671	3.8127e-05	1.2026e-05	424.08	5.8386e-07	5.7861e-07	603.87	143.98	1.0735e-06	3.8751e-07	177.15	51.159	33.683	9.2533	4.8139e-07	17.749	252.527	243.314	253.872	182.463	343.504	312.696	181.703	187.737	318.098	300.550	185.705	191.561	193.393	200.345	331.603	196.410	-8191	255	
1885.962	1	1	0	0	0.28385	0.013955	0.13454	0.17556	0.16792	0.21967	0.072066	0.23469	0.087575	0.12198	0.22709	0.16003	0.18918	0.28732	0.050883	0.22509	-2.0667	-3.0854	-2.6	-2.7396	-2.9625	-2.6646	-2.9813	-2.9604	-2.575	-3.0792	-2.8479	-2.8208	-3.1417	-2.6937	-2.9229	-2.8563	472.436	363.141	356.578	332.859	262.620	185.164	521.684	506.306	366.368	354.469	475.490	476.682	521.523	506.294	270.524	402.958	0.00015216	0.00027091	4.7612e-05	433.15	1.7672e-06	2.4097e-06	617.05	145.87	1.7987e-06	2.119e-06	178.97	51.605	33.95	9.34	2.4241e-06	17.842	0.00012958	4.2192e-05	1.1588e-05	423.49	6.3612e-07	4.2425e-07	600.34	142.96	9.4662e-07	3.2118e-07	175.16	50.795	33.416	9.2686	5.3893e-07	17.663	253.398	240.078	261.398	182.553	319.721	319.915	181.469	187.904	313.219	312.671	185.433	190.662	193.363	200.252	321.381	196.670	-8191	255	
1886.059	1	1	0	0	0.19924	0.13149	0.27377	0.041625	0.22604	0.18058	0.45392	0.12177	0.19151	0.20593	0.20288	0.049836	0.2535	0.12878	0.046019	0.11874	-2.2167	-3.0417	-2.7479	-2.8917	-3.0271	-2.4542	-2.875	-3.0479	-2.5979	-3.2708	-2.7396	-2.8271	-3.1625	-2.75	-2.8063	-3.0312	525.204	263.530	441.433	228.841	464.424	480.664	325.983	456.973	384.484	438.927	275.592	175.036	302.331	215.844	354.369	362.077	0.00017932	0.00026466	5.3844e-05	431.07	1.8089e-06	2.2344e-06	612	144.68	1.8823e-06	2.2759e-06	179.35	51.525	33.601	9.2815	1.9524e-06	17.83	0.00014191	3.4794e-05	1.3247e-05	421.1	4.7187e-07	4.9907e-07	598.06	141.78	9.4734e-07	3.6003e-07	175.26	50.615	32.99	9.2559	6.3861e-07	17.758	250.837	271.370	260.039	182.767	337.210	308.056	181.574	187.830	316.236	321.447	185.851	191.037	193.564	200.421	336.217	196.509	-8191	255	
1886.153	1	1	0	0	0.30699	0.26377	0.24843	0.069699	0.1943	0.22199	0.13115	0.083933	0.052624	0.27625	0.32768	0.21044	0.15911	0.043663	0.40409	0.27	-2.1042	-2.8312	-2.9208	-2.6562	-2.9917	-2.6604	-2.9875	-2.9271	-2.6146	-3.1104	-2.7917	-2.6875	-3.0646	-2.7646	-2.7458	-2.9625	466.088	302.785	354.622	481.043	438.121	408.077	271.702	425.043	391.659	363.472	439.528	183.910	316.048	251.569	193.230	178.515	0.00017391	0.00023339	6.6816e-05	431.62	1.7009e-06	3.015e-06	615.92	143.96	1.7173e-06	1.8878e-06	178.97	51.357	33.497	9.3597	1.7195e-06	18.06	0.00014025	4.1704e-05	9.2841e-06	419.99	5.5847e-07	4.6024e-07	598.38	141.25	9.4806e-07	2.4065e-07	175.11	50.592	33.009	9.2969	5.3893e-07	17.872	255.903	249.840	256.941	182.560	337.622	343.579	181.881	187.906	334.539	334.857	185.751	190.643	193.537	200.355	330.461	196.317	-8191	255	
1886.249	1	1	0	0	0.11384	0.31214	0.24489	0.0037408	0.19521	0.029627	0.26538	0.084759	0.30477	0.13734	0.2044	0.1439	0.16148	0.14824	0.025675	0.064811	-2.1271	-2.8479	-2.8312	-2.5687	-3.0875	-2.8667	-2.8729	-3.2062	-2.5854	-2.9604	-3.05	-2.6458	-3.1354	-2.7375	-2.625	-3.1688	296.806	312.059	372.676	509.646	453.225	172.166	353.027	315.344	186.666	307.151	475.627	285.020	170.137	326.766	354.092	477.564	0.00017344	0.00020343	5.4288e-05	432.36	2.2939e-06	2.1027e-06	614.74	143.75	2.3012e-06	2.1509e-06	178.97	51.075	33.32	9.3584	1.7729e-06	17.889	0.00014958	2.8859e-05	1.1035e-05	421.19	6.2418e-07	4.6687e-07	597.68	141.46	1.0685e-06	4.6899e-07	174.46	50.147	32.76	9.2383	5.8917e-07	17.708	255.001	242.096	290.549	182.613	322.913	324.383	181.527	187.838	322.781	322.692	185.921	191.491	193.452	200.633	337.783	196.390	-8191	255	
1886.345	1	1	0	0	0.21555	0.52582	0.12251	0.045054	0.085141	0.25651	0.34515	0.17058	0.16334	0.1036	0.1651	0.245	0.32009	0.2435	0.019259	0.14898	-2.2146	-2.8333	-2.8333	-2.6167	-3.0833	-2.8167	-2.8	-3.3167	-2.6208	-2.7479	-3.0667	-2.5833	-3.0083	-2.5958	-2.6396	-3.1063	460.500	224.073	526.327	460.254	178.416	381.718	521.350	172.010	278.591	471.309	502.342	170.374	422.069	213.182	468.528	286.532	0.00016856	0.00019786	7.5249e-05	430.51	2.3214e-06	2.0891e-06	613.21	143.14	1.8353e-06	2.3466e-06	177.12	50.824	33.099	9.3391	1.8235e-06	17.921	0.00014182	4.2354e-05	1.0275e-05	419.61	6.3239e-07	3.3145e-07	595.38	140.77	8.4929e-07	4.3014e-07	173.9	49.913	32.635	9.2587	7.1074e-07	17.745	251.905	234.978	257.123	182.472	339.017	295.956	181.379	187.940	309.931	305.558	185.697	190.930	193.348	200.419	331.136	196.946	-8191	255	
1886.466	1	1	0	0	0.16432	0.20368	0.19748	0.19547	0.12731	0.088706	0.096847	0.2993	0.10164	0.12188	0.14692	0.090086	0.19289	0.1614	0.31976	0.08174	-2.3792	-2.7667	-2.9188	-2.5854	-2.925	-2.9813	-2.6937	-3.2	-2.7333	-2.8042	-3.0917	-2.7604	-2.8417	-2.8396	-2.6625	-2.9146	485.871	458.714	207.466	526.021	471.100	473.079	412.381	361.560	479.658	393.257	300.062	386.568	285.088	415.004	317.303	331.470	0.00015948	0.00019436	7.5425e-05	426.59	1.9513e-06	3.3869e-06	609.55	144.12	1.6414e-06	2.4513e-06	178.4	51.155	33.206	9.3607	1.6088e-06	18.014	0.00013059	4.837e-05	1.1726e-05	417.62	6.1148e-07	4.6213e-07	595.64	140.75	9.0913e-07	4.9267e-07	174.04	50.214	32.69	9.2917	6.0619e-07	17.89	254.669	254.664	257.518	182.615	337.427	328.348	181.811	188.165	328.470	311.973	185.825	191.757	193.444	200.184	333.704	196.850	-8191	255	
1886.538	1	1	0	0	0.196	0.082669	0.055751	0.30219	0.14033	0.19497	0.17872	0.19114	0.15772	0.10921	0.12043	0.067898	0.23731	0.12291	0.11897	0.06299	-2.3146	-2.6312	-3.1417	-2.5438	-2.8583	-2.9375	-2.6542	-3.0771	-2.9125	-2.6771	-3.1625	-2.5833	-2.7708	-2.9688	-2.5333	-2.95	369.911	361.204	332.025	406.032	387.357	312.146	455.220	473.754	276.883	479.429	336.425	173.897	258.835	443.568	370.826	295.026	0.0001786	0.0002131	4.297e-05	429.91	1.6247e-06	1.6316e-06	613.13	144.45	2.2928e-06	1.899e-06	180	52.014	33.755	9.399	1.6427e-06	18.128	0.00014108	4.6256e-05	6.6118e-06	418.77	8.1904e-07	2.5758e-07	597.89	141.47	1.0713e-06	5.6942e-07	176.14	51.111	33.356	9.3627	7.1803e-07	17.986	254.599	238.118	265.608	182.687	322.168	313.411	181.681	187.697	319.145	318.261	185.976	190.955	193.403	200.079	324.050	196.982	-8191	255	
1886.634	1	1	0	0	0.23682	0.19005	0.031559	0.095359	0.29665	0.16384	0.10315	0.26636	0.22493	0.3722	0.12814	0.091436	0.073998	0.057864	0.059754	0.066916	-2.3458	-2.6292	-2.8812	-2.7062	-2.8625	-2.9813	-2.625	-3.0833	-2.8104	-2.6458	-3.1521	-2.65	-2.8646	-3.0958	-2.5563	-3.0708	226.321	434.140	217.145	337.960	347.439	327.756	482.695	427.922	336.010	211.048	232.569	511.730	505.240	170.970	310.824	515.438	0.00016981	0.00017529	4.0944e-05	432.3	2.0614e-06	2.3242e-06	616.11	145.72	1.6583e-06	2.0896e-06	181.58	52.822	34.368	9.4401	1.6134e-06	18.01	0.00014699	4.8208e-05	6.151e-06	421.14	8.0038e-07	3.9395e-07	602.22	143.03	8.7236e-07	4.8793e-07	178.34	51.855	33.761	9.3832	6.686e-07	17.894	254.911	255.500	269.708	182.654	327.609	329.627	181.447	187.941	301.802	322.664	185.801	190.752	193.559	200.000	331.320	196.528	-8191	255	
1886.730	1	1	0	0	0.13832	0.075917	0.024227	0.059963	0.16305	0.3609	0.19252	0.13089	0.20973	0.076796	0.12146	0.11188	0.083248	0.078894	0.15309	0.26456	-2.35	-2.6833	-3.1021	-2.8104	-2.8542	-3.1229	-2.6271	-3.0854	-3.0187	-2.5375	-3.1625	-2.8792	-2.6937	-3.0958	-2.6875	-2.9479	234.440	362.520	255.732	467.763	448.976	392.380	339.609	223.284	461.438	460.387	360.811	206.461	376.794	348.949	437.221	517.542	0.0001616	0.00020705	6.923e-05	434.77	2.4231e-06	2.0868e-06	618.16	146.2	1.6746e-06	2.0581e-06	182.7	53.288	34.531	9.4866	2.7998e-06	18.193	0.00013612	5.7231e-05	6.3584e-06	422.47	7.6454e-07	2.9357e-07	601.67	143.44	7.6061e-07	5.5331e-07	179.64	52.273	34.067	9.409	7.6828e-07	17.989	250.741	239.866	240.354	182.254	320.207	307.928	181.519	187.696	327.831	309.496	186.185	191.010	193.601	200.304	320.098	196.336	-8191	255	
1886.850	1	1	0	0	0.030398	0.16218	0.044088	0.16991	0.25939	0.11512	0.029958	0.067453	0.22779	0.097538	0.073345	0.078974	0.19257	0.17569	0.13947	0.13285	-2.5792	-2.5438	-2.9854	-2.8	-2.6646	-3.1021	-2.7771	-3.0167	-2.9396	-2.6333	-2.9729	-2.8875	-2.6958	-3.1188	-2.7687	-2.9062	299.339	375.479	376.854	457.741	388.662	172.543	272.149	354.564	515.433	296.387	314.195	170.260	220.463	485.036	426.665	298.447	0.00018908	0.00019859	5.7103e-05	433.54	2.9398e-06	1.7066e-06	620.43	146.75	1.9609e-06	2.8973e-06	185.8	54.383	34.973	9.561	1.9513e-06	18.42	0.00013781	4.8451e-05	8.8695e-06	423.12	8.5115e-07	2.197e-07	605.57	144.62	8.9254e-07	6.0542e-07	181.96	53.284	34.508	9.5518	7.1803e-07	18.3	254.809	236.974	250.674	182.949	323.879	304.695	181.544	188.239	310.806	311.067	185.947	191.033	193.376	200.539	308.044	196.594	-8191	255	
1886.947	1	1	0	0	0.082251	0.13576	0.27084	0.35835	0.14823	0.24139	0.24047	0.20093	0.11499	0.096248	0.033565	0.072483	0.17654	0.12862	0.23931	0.20665	-2.6146	-2.5021	-3.0583	-2.8771	-2.6646	-3.0896	-2.5938	-2.8729	-3.0896	-2.6229	-2.9625	-2.7896	-2.6542	-3.2021	-2.7	-2.6958	236.644	204.612	316.818	414.336	466.651	507.593	426.984	520.383	319.893	442.192	317.319	201.565	524.593	283.973	239.594	283.906	0.00017136	0.00019932	6.5689e-05	437.69	2.1076e-06	2.5488e-06	629.24	148.67	2.0282e-06	1.8468e-06	188.98	54.738	35.861	9.6135	2.0018e-06	18.758	0.00014349	6.4873e-05	1.0897e-05	426.49	8.3547e-07	2.8789e-07	613.92	146.31	8.3991e-07	5.8647e-07	184.81	53.971	35.046	9.5831	6.9129e-07	18.462	254.725	242.243	246.264	182.861	337.408	319.605	181.538	188.202	320.635	312.753	185.740	190.899	193.500	200.335	328.705	196.426	-8191	255	
1887.043	1	1	0	0	0.17974	0.24704	0.11083	0.11192	0.3199	0.27966	0.16561	0.20279	0.054001	0.28597	0.21346	0.17323	0.048306	0.18534	0.20647	0.082451	-2.4833	-2.6646	-2.6875	-2.8771	-2.55	-3.0438	-2.7875	-2.7354	-3.1021	-2.6792	-2.8833	-2.875	-2.6979	-2.9875	-2.6937	-2.5542	267.949	227.028	386.634	430.061	408.912	331.471	474.539	374.000	280.337	256.495	346.665	238.705	450.090	314.793	178.363	333.606	0.00017501	0.00026897	6.0341e-05	440.08	1.7593e-06	2.6286e-06	626.33	148.53	1.6881e-06	1.347e-06	186.83	54.195	35.24	9.721	1.4639e-06	18.439	0.00013674	6.593e-05	1.4928e-05	429.12	8.1307e-07	3.7028e-07	613.08	146.24	7.9017e-07	5.0594e-07	182.79	53.341	34.449	9.6017	6.4915e-07	18.29	253.514	240.298	278.136	182.741	326.327	301.421	181.590	187.873	314.605	317.349	185.902	190.762	193.255	199.941	319.071	196.668	-8191	255	
1887.139	1	1	0	0	0.18453	0.20198	0.12056	0.12805	0.18559	0.055867	0.1972	0.15226	0.33729	0.20609	0.34814	0.27545	0.13723	0.068093	0.1887	0.14604	-2.4813	-2.725	-2.8292	-3.0625	-2.3833	-2.9583	-2.8792	-2.6042	-3.0208	-2.6813	-2.6188	-2.7938	-2.7542	-2.8438	-2.6917	-2.6979	353.401	496.214	323.308	196.645	508.941	368.546	427.875	442.285	346.367	426.525	186.002	217.668	270.057	435.004	263.451	266.104	0.00016738	0.00033093	7.1771e-05	435.94	2.2976e-06	2.3067e-06	623.93	147.47	1.6306e-06	1.7791e-06	185.85	53.258	34.474	9.7255	2.3426e-06	18.511	0.00013107	7.032e-05	1.4214e-05	425.97	9.5866e-07	3.6081e-07	610.02	144.82	8.2766e-07	4.8699e-07	180.86	52.407	33.83	9.6429	4.6842e-07	18.42	253.507	242.811	263.217	182.691	329.224	322.225	181.720	187.901	320.960	307.680	185.778	190.979	193.586	199.648	333.954	196.706	-8191	255	
1887.233	1	1	0	0	0.30886	0.12451	0.15213	0.0994	0.26137	0.13651	0.1921	0.28878	0.094624	0.1906	0.052445	0.18688	0.20829	0.26913	0.11359	0.054152	-2.675	-2.6854	-2.7438	-3.0125	-2.6708	-2.8792	-2.8542	-2.5542	-2.9104	-2.7104	-2.6667	-3.1042	-2.4958	-2.825	-2.8625	-2.6042	400.717	428.462	515.621	523.745	213.141	306.096	417.032	501.075	353.493	222.614	181.339	255.008	312.800	510.072	434.935	215.676	0.00016315	0.00015479	6.6737e-05	435.22	2.2932e-06	1.8393e-06	623.58	146.72	2.1806e-06	2.5763e-06	185.31	53.294	34.098	9.7019	2.5684e-06	18.672	0.00013345	4.7964e-05	1.6633e-05	425.56	9.3552e-07	2.7179e-07	609.16	143.76	8.5361e-07	4.7183e-07	180.58	52.141	33.647	9.6799	5.7945e-07	18.471	253.765	274.461	267.599	182.451	337.648	299.809	181.705	187.991	303.653	320.391	185.837	191.280	193.555	199.930	334.634	196.777	-8191	255	
1887.331	1	1	0	0	0.14724	0.14403	0.15493	0.35877	0.15415	0.066903	0.055304	0.14921	0.17483	0.11049	0.035197	0.19445	0.14024	0.2191	0.088063	0.12265	-2.7479	-2.6479	-2.4938	-3.1979	-2.7125	-2.9562	-2.9479	-2.7333	-2.9354	-2.9646	-2.7208	-3.1625	-2.6896	-2.9125	-2.9729	-2.7333	382.444	330.462	220.133	193.169	512.789	208.963	491.528	243.581	193.500	412.423	290.693	513.935	358.503	277.374	181.588	214.520	0.00017804	0.00027353	7.3659e-05	431.22	2.3061e-06	1.6573e-06	622.74	145.99	1.8458e-06	2.0494e-06	183.26	52.803	34.016	9.668	1.9897e-06	18.358	0.00013992	6.1296e-05	1.4468e-05	421.41	7.959e-07	3.2103e-07	607.63	143.41	7.7214e-07	4.1024e-07	179.08	51.822	33.499	9.5702	5.9647e-07	18.205	254.613	248.579	264.527	182.752	307.779	342.082	181.837	188.005	326.363	327.170	186.084	191.299	193.218	199.966	343.637	196.740	-8191	255	
1887.450	1	1	0	0	0.27533	0.21271	0.25813	0.21941	0.19345	0.17968	0.026889	0.05654	0.15553	0.18668	0.01298	0.10286	0.19541	0.12978	0.08819	0.15132	-2.5458	-2.7646	-2.675	-3.0938	-2.6854	-3.0167	-3.0771	-2.6688	-3.1271	-2.875	-2.7521	-3.1312	-2.7417	-2.8187	-3.1312	-2.7292	323.337	211.969	494.530	440.496	524.167	452.201	408.894	451.928	342.182	339.689	190.541	431.318	320.029	478.055	412.477	176.561	0.00015847	0.00016455	5.5985e-05	434.27	2.0311e-06	1.9161e-06	619.31	145.42	2.2783e-06	2.3626e-06	182.88	52.633	33.896	9.5489	1.9631e-06	18.172	0.00013315	3.9265e-05	1.714e-05	422.47	8.0411e-07	4.8107e-07	604.68	142.76	1.0021e-06	3.9698e-07	178.74	51.681	33.398	9.493	5.5109e-07	18.016	254.568	266.231	248.928	182.545	329.804	327.674	181.404	188.053	323.348	309.762	185.572	191.051	193.193	200.025	339.890	196.408	-8191	255	
1887.546	1	1	0	0	0.13836	0.1595	0.085651	0.30723	0.15879	0.10611	0.18661	0.078527	0.16955	0.073029	0.11586	0.12442	0.047036	0.12513	0.12117	0.2	-2.4	-2.8063	-2.4813	-3.2313	-2.7646	-2.7938	-3.1312	-2.8542	-2.7917	-2.7604	-2.5646	-3.0812	-2.8625	-2.5167	-2.9729	-2.7771	457.161	502.146	510.023	505.790	462.969	245.743	479.081	187.740	344.169	524.946	309.206	235.990	442.966	514.086	464.329	527.478	0.00016898	0.00021271	4.8053e-05	431.97	2.4294e-06	2.1219e-06	618.98	144.78	1.9291e-06	1.7725e-06	182.44	52.422	33.685	9.5225	2.1213e-06	18.408	0.00013642	3.39e-05	1.3661e-05	420.57	8.1979e-07	4.5077e-07	602.93	142.24	8.4568e-07	4.0077e-07	178.29	51.677	33.272	9.5127	4.822e-07	18.205	251.104	250.991	260.683	182.642	314.172	328.669	181.626	188.113	325.253	324.969	186.084	190.679	192.828	200.038	323.515	196.205	-8191	255	
1887.642	1	1	0	0	0.17231	0.18792	0.15626	0.14399	0.13955	0.044554	0.23912	0.07136	0.15133	0.23501	0.040884	0.10397	0.21297	0.19042	0.23014	0.11877	-2.6333	-2.7875	-2.5375	-2.9417	-2.7938	-2.6104	-3.1979	-2.8042	-2.8625	-3.0208	-2.6354	-2.9729	-2.8771	-2.5729	-3.0604	-2.5812	523.410	409.427	492.690	435.235	256.554	364.292	522.832	181.666	334.348	453.917	523.106	511.501	504.445	237.237	368.911	340.657	0.00016621	0.00021094	6.8264e-05	426.84	2.3496e-06	2.176e-06	622.31	144.87	1.6321e-06	2.5237e-06	181.87	52.682	33.594	9.529	1.7128e-06	18.506	0.00013481	4.1867e-05	1.4997e-05	417.76	7.0705e-07	4.7823e-07	603.85	141.87	9.6392e-07	3.6098e-07	178.69	51.814	33.253	9.5237	5.0084e-07	18.34	254.056	240.175	256.863	182.583	320.586	319.425	181.255	187.810	311.869	311.268	185.972	190.982	193.451	199.746	315.243	196.441	-8191	255	
1887.763	1	1	0	0	0.050134	0.082056	0.13645	0.034085	0.4403	0.10075	0.12004	0.18811	0.13818	0.16738	0.20095	0.051639	0.12179	0.092874	0.092418	0.083482	-2.3917	-2.9271	-2.4354	-2.9688	-2.8021	-2.7562	-3.2	-2.8146	-2.7125	-2.9583	-2.525	-2.8063	-2.7083	-2.4625	-3.05	-2.6542	327.943	215.849	254.294	460.689	424.836	494.704	464.444	487.460	366.713	225.211	245.543	425.774	455.841	527.213	282.195	175.640	0.00017119	0.00022734	5.1429e-05	428.69	2.2508e-06	1.177e-06	617.52	144.17	1.9291e-06	1.9187e-06	181.94	52.462	33.518	9.4639	2.2887e-06	18.28	0.00014141	4.6175e-05	1.4168e-05	418.99	7.175e-07	5.0285e-07	601.36	141.26	7.9017e-07	3.0981e-07	177.67	51.459	33.039	9.3809	5.0732e-07	17.977	252.635	247.366	267.515	182.423	316.387	311.482	181.606	188.013	320.172	306.046	185.871	191.091	193.545	199.863	333.780	196.196	-8191	255	
1887.835	1	1	0	0	0.13325	0.1079	0.19269	0.1831	0.17163	0.073669	0.065539	0.26071	0.21072	0.23319	0.14294	0.074045	0.11049	0.17426	0.19726	0.22647	-2.4021	-3.025	-2.6771	-2.9667	-3.0021	-2.6417	-3.1479	-2.8042	-2.7604	-2.8729	-2.7104	-2.9042	-3.0583	-2.4771	-3.0187	-2.9208	415.737	208.901	234.980	281.420	432.222	401.852	236.307	448.845	268.436	234.094	458.341	403.108	441.274	186.649	332.629	175.446	0.00017684	0.00017262	5.9564e-05	424.94	2.2057e-06	2.4313e-06	613.08	143.12	1.9766e-06	1.7992e-06	181.05	52.116	33.368	9.3328	1.9308e-06	18.035	0.00013948	3.0892e-05	1.5504e-05	416.1	6.6151e-07	6.8373e-07	597.87	140.57	9.9492e-07	1.6012e-07	176.49	51.026	32.884	9.3077	4.9679e-07	17.843	255.001	234.582	278.094	182.501	332.812	328.956	181.702	187.708	338.398	309.500	185.538	191.066	193.399	199.694	333.001	196.454	-8191	255	
1887.931	1	1	0	0	0.055159	0.22293	0.22404	0.15197	0.031804	0.052249	0.23896	0.15127	0.1406	0.1341	0.11391	0.09179	0.047477	0.08887	0.091984	0.072453	-2.2167	-3.0604	-2.6125	-2.9042	-2.9958	-2.4417	-2.8229	-2.7646	-2.775	-3.0229	-2.6813	-2.9313	-3.1271	-2.5979	-3.0708	-2.8854	186.247	230.787	467.084	383.207	354.561	413.310	470.081	374.697	489.126	373.146	483.557	237.789	435.528	335.804	184.762	433.079	0.00019132	0.00023465	5.6357e-05	425.06	1.9939e-06	2.3291e-06	612.84	143.79	1.416e-06	2.3395e-06	180.58	52.295	33.21	9.4586	1.6289e-06	18.207	0.00015516	4.0485e-05	1.4422e-05	414.61	5.5773e-07	5.5305e-07	596	140.51	1.0173e-06	1.8001e-07	176.8	51.429	32.983	9.3728	5.1462e-07	18.096	253.145	256.932	276.985	182.841	323.323	313.537	181.395	187.855	308.962	322.742	185.722	191.087	193.291	200.074	314.727	196.937	-8191	255	
1888.027	1	1	0	0	0.23126	0.053203	0.23204	0.1927	0.34682	0.20104	0.15892	0.28194	0.10436	0.10172	0.26161	0.25607	0.11032	0.30158	0.19299	0.12703	-2.3667	-3.1021	-2.8187	-2.7625	-3.0812	-2.7396	-3.1208	-2.8667	-2.725	-3.0542	-2.8583	-2.6354	-2.9771	-2.5708	-2.75	-3.0187	429.827	490.419	256.627	227.685	457.567	490.879	319.247	316.535	201.568	284.833	461.335	489.299	499.586	189.067	395.564	514.323	0.00016218	0.00024463	5.777e-05	427.87	2.007e-06	2.2957e-06	611.7	144.38	1.6488e-06	2.6097e-06	180.95	52.654	33.894	9.6248	1.6645e-06	18.546	0.00013645	3.1786e-05	1.1012e-05	414.92	5.6669e-07	5.4358e-07	596.44	141.26	1.0411e-06	2.2644e-07	177.49	52.19	33.447	9.5085	5.5027e-07	18.322	253.367	237.080	257.631	182.499	327.631	312.806	181.547	187.965	325.372	319.885	185.938	191.000	193.594	200.109	332.151	196.190	-8191	255	
1888.146	1	1	0	0	0.19646	0.19158	0.15964	0.33951	0.1048	0.3128	0.17903	0.24087	0.20564	0.095833	0.11477	0.019743	0.26985	0.063479	0.13213	0.23713	-2.1833	-3.1437	-2.8312	-2.8542	-3.0438	-2.6521	-3.0375	-3.0812	-2.4271	-3.0146	-2.9979	-2.7313	-3.1188	-2.9167	-2.85	-3.1708	298.585	367.738	221.959	430.109	251.525	344.831	311.395	516.431	494.278	510.560	301.532	452.521	259.010	385.947	511.517	261.535	0.00018433	0.00022602	7.5609e-05	424.75	2.2139e-06	2.087e-06	613.35	145	2.1846e-06	1.8951e-06	182.45	53.81	34.724	9.435	1.6755e-06	18.13	0.00015386	2.9103e-05	1.2993e-05	414.81	6.3687e-07	5.9377e-07	598.03	142.19	1.0764e-06	2.8139e-07	178.58	53.034	34.041	9.4352	5.8593e-07	17.99	254.673	256.326	264.769	182.576	318.875	324.690	181.819	188.007	317.610	318.799	185.573	190.942	193.188	199.476	326.874	196.476	-8191	255	
1888.242	1	1	0	0	0.017376	0.11678	0.13903	0.26625	0.074246	0.28303	0.096485	0.081187	0.19644	0.12886	0.1577	0.064939	0.22582	0.087464	0.14347	0.10944	-2.1562	-3.1063	-2.9292	-2.5833	-3.1063	-2.7625	-2.7875	-3.0167	-2.7167	-3.0938	-2.9667	-2.6542	-3.1458	-2.8354	-2.7792	-3.1708	252.572	284.620	401.350	452.100	458.531	201.939	512.008	403.415	456.336	176.857	513.023	495.571	435.012	280.555	395.476	482.546	0.00016315	0.00017007	4.5751e-05	428.91	1.6343e-06	1.8923e-06	613.45	145.43	1.6694e-06	2.0411e-06	183.42	54.166	34.639	9.4852	1.5385e-06	17.92	0.00014028	2.951e-05	7.971e-06	415.62	5.7415e-07	4.8202e-07	598.77	142.54	1.005e-06	4.1024e-07	179.24	53.432	34.27	9.4266	5.2677e-07	17.805	253.222	254.694	260.490	182.543	316.304	312.449	181.718	187.783	329.870	348.593	185.969	190.972	193.830	199.930	315.780	196.494	-8191	255	
1888.338	1	1	0	0	0.13105	0.15857	0.1588	0.13426	0.16697	0.094515	0.20921	0.32471	0.16034	0.10931	0.12513	0.051071	0.22562	0.20112	0.28929	0.045924	-2.2938	-2.8146	-2.8667	-2.7854	-3.1333	-2.6979	-2.8438	-2.9792	-2.6437	-3.0625	-3.0375	-2.5458	-3.025	-2.7979	-2.6	-3.1146	298.557	349.960	194.113	499.733	364.467	509.494	172.865	419.745	394.487	317.716	247.550	418.240	465.980	252.603	338.167	172.005	0.00016901	0.00019272	5.9691e-05	427.9	2.603e-06	1.6913e-06	616.78	144.68	2.1191e-06	2.5837e-06	184.88	54.865	35.117	9.6078	1.5333e-06	18.332	0.00014545	4.3492e-05	9.5375e-06	416.68	5.9431e-07	2.7747e-07	602.14	142.55	1.0396e-06	3.7424e-07	180.65	54.041	34.472	9.4895	6.7589e-07	18.135	253.099	248.546	262.128	182.625	330.898	343.634	181.593	188.012	314.324	318.757	186.163	190.344	193.365	199.603	312.186	196.701	-8191	255	
1888.412	1	1	0	0	0.045155	0.19117	0.16195	0.064314	0.05096	0.093503	0.0066737	0.17224	0.2646	0.23585	0.29751	0.21333	0.069014	0.056391	0.16905	0.084343	-2.3375	-2.5938	-3.2	-2.5667	-2.9104	-2.8333	-2.6646	-3.0667	-2.7562	-2.8896	-2.9188	-2.5354	-3.0521	-2.7042	-2.6042	-3.1271	400.351	457.078	284.019	521.616	308.081	415.781	181.756	506.483	415.751	298.728	305.980	501.634	461.660	260.731	202.988	393.906	0.00017693	0.00022695	6.0008e-05	429.07	2.0067e-06	2.5944e-06	621.81	146.51	1.9363e-06	1.6908e-06	186.16	55.732	35.585	9.5976	2.3189e-06	18.468	0.00014515	5.3979e-05	1.0482e-05	418.55	7.9665e-07	3.6175e-07	605.07	143.54	9.5959e-07	2.3307e-07	182.1	54.668	34.915	9.5284	6.8642e-07	18.29	254.089	242.727	262.401	182.869	322.649	322.709	181.377	188.178	332.287	329.447	185.860	191.145	193.301	199.652	342.292	196.662	-8191	255	
1888.530	1	1	0	0	0.12659	0.15177	0.21352	0.16917	0.16645	0.1662	0.057727	0.081029	0.19475	0.089689	0.15998	0.078237	0.17583	0.1006	0.084271	0.21465	-2.325	-2.7917	-2.9583	-2.4417	-3.025	-2.95	-2.55	-3.1083	-2.8125	-2.7354	-2.9875	-2.5604	-2.9896	-2.7833	-2.5896	-3.0146	310.174	185.785	502.721	216.745	319.495	521.613	385.931	479.246	498.064	414.189	292.388	383.619	518.459	505.790	297.129	462.982	0.00017061	0.00025052	6.9476e-05	433.67	2.1776e-06	2.4426e-06	622.27	148.01	1.57e-06	2.5908e-06	184.67	55.606	35.289	9.5818	2.7638e-06	18.343	0.00014432	3.7883e-05	9.6758e-06	421.36	7.4588e-07	4.3088e-07	606.79	144.62	8.875e-07	5.3152e-07	181.69	54.377	34.617	9.5044	6.8886e-07	18.162	253.234	260.838	251.149	182.617	334.159	323.116	181.196	187.677	326.998	327.739	185.749	191.073	193.541	199.893	324.695	196.041	-8191	255	
1888.627	1	1	0	0	0.026712	0.19798	0.20535	0.057645	0.12945	0.096001	0.07511	0.27544	0.15249	0.087452	0.093296	0.18987	0.30399	0.13461	0.083475	0.11147	-2.3208	-2.7792	-2.8958	-2.7229	-2.7854	-3.0375	-2.6375	-3.0479	-2.7833	-2.6375	-2.9292	-2.6542	-2.9104	-2.9146	-2.65	-2.9437	415.533	436.908	444.675	217.064	221.681	412.628	428.049	502.358	212.854	299.006	329.842	262.752	356.776	290.576	214.358	477.426	0.00017276	0.00021378	4.5288e-05	431.14	1.8278e-06	2.1136e-06	619.86	145.25	1.7777e-06	2.9095e-06	183.81	54.17	34.297	9.4354	1.5994e-06	18.037	0.00014515	5.3329e-05	8.5009e-06	420.5	7.1377e-07	1.9319e-07	603.49	142.47	8.7019e-07	4.7088e-07	179.42	53.043	33.846	9.4047	6.9858e-07	17.976	253.597	250.544	270.368	182.887	319.295	326.747	181.487	188.115	318.442	319.090	185.904	191.098	193.321	199.612	340.941	196.069	-8191	255	
1888.723	1	1	0	0	0.15162	0.19675	0.12386	0.11464	0.15003	0.22838	0.12624	0.078293	0.15753	0.15456	0.17009	0.10072	0.081543	0.032091	0.1306	0.080375	-2.5021	-2.6021	-3.1917	-2.7604	-2.7604	-2.8438	-2.5792	-3.1958	-2.8854	-2.7042	-3.1021	-2.8042	-2.8417	-3.05	-2.6417	-2.9542	519.737	307.516	193.906	416.148	201.808	371.929	431.782	468.750	258.952	237.681	389.418	204.308	212.982	480.490	330.899	485.277	0.00016947	0.00016128	6.45e-05	424.57	1.4642e-06	2.4116e-06	616.26	143.98	2.0948e-06	2.634e-06	181.79	53.328	33.726	9.3296	1.6359e-06	17.806	0.00013125	4.5687e-05	1.1634e-05	416.39	5.8311e-07	2.0266e-07	600.18	141.08	8.2189e-07	5.4289e-07	177.92	52.468	33.506	9.2977	6.4915e-07	17.795	255.406	242.162	255.757	182.775	331.421	315.258	181.593	187.959	334.487	325.014	185.957	190.932	192.938	199.905	322.538	196.669	-8191	255	
1888.843	1	1	0	0	0.11861	0.082889	0.22573	0.19294	0.17898	0.10664	0.16602	0.13382	0.21769	0.078775	0.24618	0.1991	0.17724	0.057234	0.24172	0.07601	-2.4396	-2.6833	-3.15	-2.6479	-2.7354	-3.0708	-2.7354	-3.1771	-2.8187	-2.7188	-3.0896	-2.6875	-2.5396	-3.0563	-2.6396	-2.8417	458.059	346.437	332.146	248.878	496.809	504.155	217.813	441.955	307.444	288.217	480.035	217.253	353.592	184.918	210.251	421.858	0.00017548	0.00015378	8.1734e-05	427.31	2.6107e-06	1.8114e-06	611.09	143.12	1.754e-06	2.1217e-06	180.5	52.45	33.859	9.244	1.9923e-06	17.823	0.00013906	4.6826e-05	9.192e-06	416.02	9.1088e-07	1.4489e-07	596.85	140.12	7.7575e-07	4.9078e-07	177.02	52.043	33.263	9.2445	5.7864e-07	17.684	252.182	245.128	261.230	182.581	325.198	323.427	181.434	187.830	307.404	315.494	185.809	191.367	193.514	200.037	321.542	196.594	-8191	255	
1888.940	1	1	0	0	0.076793	0.13508	0.23269	0.28692	0.11024	0.1755	0.032121	0.071074	0.026413	0.19374	0.40002	0.13843	0.086041	0.01609	0.14735	0.23767	-2.3792	-2.5167	-3.1271	-2.825	-2.725	-3.2208	-2.7896	-2.7687	-2.9521	-2.6792	-2.9146	-2.9271	-2.8396	-3.1312	-2.7375	-2.8688	382.765	182.774	321.618	426.626	275.430	344.076	517.254	318.402	270.874	469.608	443.001	466.660	377.145	174.548	305.178	458.539	0.00016388	0.00020558	5.3925e-05	421.53	1.6899e-06	1.8351e-06	609.38	141.75	1.4239e-06	2.6393e-06	178.27	52.148	33.496	9.2439	2.6376e-06	17.643	0.00012605	5.211e-05	9.1229e-06	411.84	7.5857e-07	2.6232e-07	592.69	139.15	9.1561e-07	5.2489e-07	175.11	51.44	32.901	9.1876	7.0263e-07	17.612	254.462	247.572	255.882	182.450	313.563	320.746	181.634	187.939	310.164	315.533	185.784	191.064	193.419	200.811	319.975	196.525	-8191	255	
1889.036	1	1	0	0	0.22545	0.045666	0.15623	0.038729	0.25381	0.088588	0.21049	0.24665	0.20047	0.072768	0.037354	0.17541	0.10131	0.031557	0.25389	0.25964	-2.5146	-2.7583	-2.7812	-2.95	-2.6562	-3.1021	-2.5146	-2.7458	-3.0625	-2.6479	-2.8583	-2.8187	-2.6521	-3.1063	-2.8563	-2.7833	424.768	517.326	439.498	209.389	454.008	313.423	526.308	347.295	179.542	516.880	317.610	458.124	414.940	191.235	460.394	477.571	0.00017184	0.00017118	6.2063e-05	420.13	1.6728e-06	1.7116e-06	605.47	140.75	1.4703e-06	2.107e-06	177.76	52.071	33.409	9.3132	1.9063e-06	17.862	0.00013279	3.5444e-05	1.0597e-05	409.74	6.6076e-07	6.2502e-08	589.5	138.07	7.1735e-07	3.4487e-07	173.96	51.199	32.707	9.2025	6.6697e-07	17.687	252.915	236.325	262.423	182.617	333.345	350.477	181.789	187.904	322.966	305.463	186.165	190.869	193.747	199.889	328.132	196.331	-8191	255	
1889.132	1	1	0	0	0.10703	0.081725	0.28894	0.33011	0.14894	0.17196	0.068361	0.3792	0.082316	0.11856	0.20156	0.2977	0.25978	0.08425	0.11322	0.16043	-2.8042	-2.6521	-2.8646	-3.0187	-2.6	-3.1437	-2.7687	-2.9062	-3.0396	-2.6854	-2.9042	-2.9562	-2.7354	-3.1937	-2.8854	-2.4271	309.358	208.674	237.031	504.398	259.110	208.491	205.141	208.406	287.608	318.196	368.008	478.989	389.423	227.743	256.332	395.762	0.00016905	0.0002522	7.5991e-05	420.02	2.2519e-06	2.2742e-06	604.51	140.6	1.6475e-06	2.4572e-06	177.16	52.016	33.014	9.2743	2.0065e-06	17.937	0.00012825	5.7882e-05	1.115e-05	408.43	8.295e-07	2.358e-07	587.77	137.45	6.7121e-07	4.4056e-07	173.2	51.14	32.511	9.2261	6.0295e-07	17.828	255.031	241.158	251.864	182.730	320.719	330.895	181.488	187.999	313.378	309.533	185.679	191.014	194.134	199.866	335.502	196.752	-8191	255	
1889.226	1	1	0	0	0.21421	0.035441	0.15912	0.156	0.066458	0.039359	0.13303	0.2008	0.26633	0.29135	0.18295	0.18945	0.22873	0.084311	0.23419	0.20176	-2.7521	-2.65	-2.7583	-3.0042	-2.6063	-3.1	-3.0187	-2.8125	-2.8563	-2.5687	-2.9375	-3.2792	-2.8375	-2.9875	-2.8917	-2.7146	420.719	271.140	381.290	319.416	296.734	201.681	412.032	418.634	201.238	451.362	376.736	353.582	508.569	358.343	474.940	500.550	0.00016423	0.00017278	6.7791e-05	418.1	1.8083e-06	2.2794e-06	597.99	140.08	2.2059e-06	2.5319e-06	177.06	51.531	33.017	9.3165	2.033e-06	17.934	0.00013009	5.2354e-05	1.0321e-05	406.77	7.9441e-07	2.8694e-07	585.43	137.01	8.7019e-07	4.4435e-07	173	50.732	32.503	9.1943	5.1705e-07	17.685	252.237	259.079	245.835	182.505	331.308	315.144	181.973	188.015	327.007	323.062	185.702	191.042	193.516	199.445	339.438	196.502	-8191	255	
1889.322	1	1	0	0	0.11405	0.070352	0.22338	0.22146	0.14216	0.33453	0.096408	0.048764	0.11588	0.16286	0.3904	0.26233	0.13736	0.082882	0.2003	0.085353	-2.5812	-2.8208	-2.6875	-3.0438	-2.7042	-2.9792	-3.1063	-2.6396	-2.9542	-2.8187	-2.5917	-3.1333	-2.6708	-2.9042	-3.0729	-2.6917	357.720	271.164	249.335	482.209	187.596	310.431	493.962	461.176	305.047	452.278	171.504	258.005	331.254	438.734	461.196	360.407	0.00017423	0.00022245	6.219e-05	415.16	1.8832e-06	2.3964e-06	596.73	137.77	1.1949e-06	2.369e-06	174.12	51.176	32.642	9.2816	1.8012e-06	17.796	0.00013045	4.0485e-05	1.608e-05	405.34	8.4667e-07	3.4471e-07	581.22	135.66	7.2817e-07	4.0361e-07	170.48	50.311	32.123	9.1623	3.6388e-07	17.615	252.470	254.637	262.151	182.421	315.606	321.009	181.495	187.730	341.003	322.623	185.671	190.889	193.291	199.811	325.852	196.184	-8191	255	
1889.443	1	1	0	0	0.071437	0.092265	0.16156	0.24148	0.2066	0.17474	0.10089	0.46943	0.075597	0.13186	0.1195	0.039953	0.26256	0.10234	0.34915	0.16794	-2.4562	-2.8167	-2.8667	-3.1	-2.7042	-2.975	-3.0042	-2.4667	-2.9875	-2.8187	-2.6979	-3.2313	-2.675	-2.8771	-2.9708	-2.6458	228.806	375.931	396.036	233.938	398.294	452.532	399.876	417.050	508.420	354.583	205.363	322.228	464.934	526.774	241.695	464.630	0.00017335	0.00018854	6.3225e-05	412.7	1.9211e-06	1.8053e-06	596.79	138.09	2.2352e-06	2.6081e-06	173.62	51.196	32.399	9.3169	1.7811e-06	17.793	0.0001322	4.081e-05	1.1381e-05	401.91	7.6902e-07	2.3959e-07	579.4	134.84	8.1036e-07	2.5392e-07	169.83	50.502	32.132	9.2118	4.125e-07	17.71	254.734	250.875	259.672	182.434	327.909	313.256	181.121	187.906	317.028	322.880	185.823	191.100	193.345	199.500	326.158	196.260	-8191	255	
1889.539	1	1	0	0	0.12486	0.080825	0.17596	0.070973	0.22858	0.23515	0.13076	0.11078	0.29885	0.13815	0.048801	0.28058	0.30757	0.10206	0.17813	0.091362	-2.7417	-2.8354	-2.5812	-3.1188	-2.7958	-2.9375	-3.1813	-2.5771	-3.175	-3.0479	-2.7583	-3.0521	-2.8271	-2.6562	-3.0104	-2.7271	332.794	451.934	471.779	227.246	364.053	451.790	185.483	494.686	506.708	181.575	255.574	386.674	243.704	478.220	418.101	439.134	0.0001794	0.00021734	7.738e-05	411.04	2.3736e-06	1.7914e-06	593.01	137.6	2.1147e-06	1.5718e-06	174.89	52.706	33.143	9.3154	2.27e-06	17.904	0.00014298	4.3086e-05	1.532e-05	401.12	6.9436e-07	3.3618e-07	577.68	134.83	7.6638e-07	2.0181e-07	171.33	51.592	32.686	9.2061	4.8544e-07	17.663	255.860	265.574	250.590	182.464	337.199	322.332	181.774	187.939	316.683	317.794	185.541	190.805	193.621	199.629	329.956	196.393	-8191	255	
1889.635	1	1	0	0	0.32994	0.099154	0.0067858	0.040336	0.093695	0.072396	0.36262	0.0879	0.4019	0.15824	0.17195	0.0065039	0.11644	0.13586	0.087278	0.21596	-2.4521	-2.7979	-2.5833	-3.1146	-2.7833	-2.5771	-3.1688	-2.7417	-3.025	-2.9771	-2.5521	-2.9958	-2.6937	-2.9313	-3.1937	-2.6917	347.528	405.718	462.742	476.914	389.520	357.480	508.577	373.302	464.157	406.889	435.048	342.654	426.681	382.379	472.182	352.987	0.00016606	0.00025018	6.7257e-05	413.49	1.9346e-06	2.1259e-06	596.47	139.53	1.5328e-06	1.2782e-06	177.76	53.584	34.15	9.0868	2.378e-06	17.518	0.0001295	3.5282e-05	1.3615e-05	403.31	6.8839e-07	4.877e-07	581.23	136.65	7.1663e-07	1.3738e-07	173.5	52.588	33.389	9.0988	3.9062e-07	17.437	253.502	254.207	267.073	182.604	338.285	329.819	181.625	188.062	308.221	315.153	185.683	190.824	193.434	199.614	314.406	196.607	-8191	255	
1889.707	1	1	0	0	0.031881	0.25266	0.17983	0.14898	0.18191	0.21958	0.0889	0.37966	0.27317	0.13602	0.15951	0.11394	0.25064	0.056974	0.34548	0.097291	-2.5333	-2.875	-2.6542	-3.1188	-2.8729	-2.6958	-3.0729	-2.9562	-2.9917	-2.8812	-2.6854	-3.1083	-2.8438	-2.8417	-3.3479	-2.7604	309.072	285.012	326.566	480.247	297.696	510.149	273.414	512.514	338.011	247.930	173.813	454.521	191.256	359.848	209.381	439.052	0.0001764	0.00018682	4.8291e-05	413.98	1.9137e-06	1.732e-06	594.96	140.08	1.8979e-06	1.6596e-06	180.38	53.784	34.314	9.2308	2.3287e-06	17.577	0.00013663	3.2355e-05	1.5942e-05	403.86	7.4961e-07	5.1422e-07	582.39	137.41	9.3941e-07	1.6296e-07	176.03	53.025	33.616	9.1638	4.587e-07	17.507	253.771	253.798	247.319	182.507	320.281	317.480	181.572	188.017	323.080	333.958	185.775	191.346	193.292	199.893	340.523	195.965	-8191	255	
1889.803	1	1	0	0	0.12959	0.073026	0.15973	0.27683	0.084639	0.28627	0.20164	0.23429	0.19248	0.062661	0.22694	0.19214	0.29129	0.25574	0.067496	0.043722	-2.3354	-3.1813	-2.725	-3.025	-2.8646	-2.7833	-3.1792	-2.8417	-2.7979	-3.1625	-2.5417	-3.0208	-2.8875	-2.5458	-2.9708	-3.0292	237.922	318.358	338.152	471.440	230.650	487.704	519.732	434.913	388.451	180.496	379.774	305.510	180.184	180.174	449.434	243.896	0.00016826	0.00020907	6.0076e-05	414.83	2.1188e-06	2.5882e-06	598.03	140.75	1.768e-06	2.2832e-06	180.8	54.884	34.56	9.3223	2.052e-06	17.728	0.00013535	2.9835e-05	1.3638e-05	403.78	6.8017e-07	3.5323e-07	583.35	138.54	8.911e-07	1.9707e-07	176.6	53.772	33.903	9.2069	5.3812e-07	17.628	254.789	250.091	263.753	182.578	335.641	319.742	181.477	188.039	305.009	326.658	185.919	191.095	193.154	199.883	315.571	196.303	-8191	255	
1889.924	1	1	0	0	0.18225	0.134	0.25297	0.094706	0.28568	0.15888	0.16427	0.17751	0.23696	0.14468	0.31437	0.11988	0.34424	0.19518	0.11085	0.1031	-2.3187	-3.0979	-2.5896	-3.0042	-2.8354	-2.7396	-3.2979	-2.8854	-2.7313	-3.1958	-2.475	-2.925	-2.9813	-2.5083	-3.0833	-2.8333	488.109	329.162	186.322	172.782	405.261	294.768	317.757	243.837	406.958	374.592	442.305	281.763	519.325	405.563	505.943	270.421	0.00016479	0.0002341	6.5239e-05	415.38	2.1499e-06	2.263e-06	600.96	141.82	2.3069e-06	1.9302e-06	184.51	55.674	34.913	9.3159	1.5657e-06	17.851	0.00013523	3.2193e-05	1.4214e-05	405.06	6.6151e-07	5.3126e-07	588.07	139.72	1.0526e-06	1.0896e-07	179.77	54.61	34.464	9.2557	4.9517e-07	17.733	253.351	255.029	257.681	182.831	302.959	325.899	181.552	187.717	321.904	332.561	186.137	190.947	193.541	199.739	335.499	196.325	-8191	255	
1890.020	1	1	0	0	0.28633	0.11546	0.10877	0.13125	0.11152	0.20178	0.10508	0.058638	0.31727	0.20969	0.12443	0.26153	0.045862	0.27926	0.080013	0.070396	-2.1813	-2.9688	-2.5021	-2.8167	-2.9875	-2.6042	-3.1792	-2.9417	-2.8521	-3.1896	-2.8937	-2.7521	-3.1333	-2.7562	-2.8604	-2.9562	498.417	391.867	319.838	379.028	178.696	275.863	395.017	340.150	197.741	511.652	311.630	431.984	273.615	333.745	406.901	446.616	0.0001588	0.00024216	8.2022e-05	417.51	1.8967e-06	1.9004e-06	604.02	142.14	2.45e-06	2.302e-06	181.89	54.482	34.349	9.1852	1.9389e-06	17.701	0.00014566	2.9429e-05	1.6426e-05	407.22	6.0999e-07	5.4263e-07	588.05	139.62	1.08e-06	2.3118e-07	177.83	53.451	33.867	9.1508	5.2677e-07	17.553	253.871	257.814	259.162	182.417	336.148	319.476	181.722	187.548	325.089	323.836	185.642	191.209	193.012	199.641	328.249	196.046	-8191	255	
1890.116	1	1	0	0	0.20686	0.053703	0.081409	0.13588	0.018521	0.15628	0.18422	0.23599	0.19148	0.1756	0.22782	0.35061	0.15266	0.15577	0.094473	0.27755	-2.2646	-3.0292	-2.8	-2.9208	-3.1854	-2.7417	-3.0083	-2.8167	-2.4354	-3.1646	-2.7146	-2.6521	-3.0563	-2.5833	-2.9729	-2.8667	378.124	402.253	440.116	362.251	445.136	424.933	517.182	181.478	496.999	334.164	418.988	471.598	379.685	220.847	306.123	425.967	0.00016105	0.00018357	5.6188e-05	412.98	1.9368e-06	1.8412e-06	598.26	139.79	1.5706e-06	2.0851e-06	177.94	53.36	33.812	9.1738	2.041e-06	17.551	0.00013909	2.5933e-05	1.4491e-05	402.91	5.5623e-07	4.4225e-07	581.48	137.32	8.6587e-07	1.6201e-07	174.02	52.367	33.11	9.104	4.8301e-07	17.447	253.770	261.867	275.034	182.162	333.662	312.632	181.123	188.065	336.713	325.607	185.879	190.951	193.170	199.566	328.732	196.599	-8191	255	
1890.235	1	1	0	0	0.23775	0.33525	0.25177	0.033863	0.13454	0.13696	0.14085	0.32761	0.087968	0.13264	0.055753	0.077521	0.23412	0.15527	0.16889	0.11944	-2.1063	-2.9646	-2.8	-2.7333	-2.9875	-2.6063	-2.9042	-3.0625	-2.35	-3.0396	-3.1229	-2.4896	-3.2167	-2.7708	-2.9	-3.175	528.919	412.957	486.331	379.511	378.970	505.839	519.351	181.876	360.878	483.590	259.794	381.593	190.445	176.813	204.686	459.384	0.00016072	0.00025791	5.0729e-05	409.98	2.3282e-06	2.2273e-06	588.36	138.06	1.9892e-06	2.9744e-06	177.37	52.588	33.365	9.0888	2.1407e-06	17.569	0.00013368	4.0322e-05	1.3984e-05	400.11	5.3533e-07	5.1422e-07	575.52	135.53	9.9132e-07	2.5581e-07	172.2	51.683	32.754	9.0409	6.1187e-07	17.452	254.662	238.383	248.838	182.298	317.892	331.989	181.552	187.781	317.525	338.483	186.035	190.906	193.591	199.676	322.385	195.684	-8191	255	
1890.307	1	1	0	0	0.18355	0.042782	0.091312	0.12908	0.16073	0.071897	0.12188	0.045652	0.11077	0.28391	0.38507	0.13243	0.082853	0.032548	0.32902	0.15871	-2.2104	-2.9979	-2.7396	-2.7062	-3.1	-2.7729	-2.8292	-3.125	-2.6292	-2.9396	-2.7479	-2.7	-3.15	-2.7542	-2.7938	-2.9833	279.017	465.059	447.993	173.775	463.143	259.566	464.396	526.027	189.744	456.522	467.896	528.602	460.468	407.211	453.022	439.306	0.00016548	0.00024863	5.6164e-05	406.07	2.3235e-06	1.9483e-06	591.27	136.98	1.8533e-06	1.672e-06	175.84	52.095	32.855	9.0373	1.9941e-06	17.372	0.0001379	3.3575e-05	1.2694e-05	396.88	5.5026e-07	4.716e-07	574.16	134.68	8.5289e-07	3.0697e-07	170.99	51.19	32.393	9.0025	5.4055e-07	17.276	252.253	254.960	259.884	182.483	333.171	311.542	181.587	188.042	321.270	320.406	185.912	190.974	193.433	199.482	336.470	196.432	-8191	255	
1890.405	1	1	0	0	0.13944	0.23161	0.22723	0.17198	0.10192	0.16465	0.045849	0.27462	0.16925	0.28556	0.14817	0.14512	0.10023	0.14134	0.25014	0.092864	-2.1667	-2.8917	-2.7729	-2.4771	-3.0917	-2.9062	-2.7396	-3.0687	-2.6229	-3.1417	-2.9646	-2.6542	-3.0667	-2.7938	-2.8042	-3.0542	294.806	361.173	307.647	461.477	200.090	499.911	330.044	412.320	462.917	210.054	175.544	483.249	173.815	323.595	267.633	351.522	0.00015899	0.00024692	5.6331e-05	407.24	1.4355e-06	1.6529e-06	581.37	135.34	1.1731e-06	3.3011e-06	172.54	51.559	32.404	8.9612	1.9973e-06	17.429	0.00012884	3.8534e-05	7.7637e-06	395.75	4.5917e-07	4.0626e-07	567.95	133.11	8.6947e-07	2.3307e-07	168.8	50.662	32.003	8.9231	5.2677e-07	17.184	253.392	260.166	238.315	182.711	308.144	304.293	181.746	187.853	320.702	325.566	186.040	190.971	193.063	199.495	334.556	196.443	-8191	255	
1890.523	1	1	0	0	0.36588	0.2251	0.10052	0.32226	0.18921	0.13307	0.22405	0.14764	0.082136	0.14523	0.16339	0.073573	0.039553	0.092241	0.41436	0.045142	-2.2	-2.7792	-3.0771	-2.5583	-2.8271	-2.8917	-2.7687	-3.0375	-2.6312	-2.9917	-3.1646	-2.6354	-3.0062	-2.9	-2.5542	-3.0542	429.126	326.131	529.714	217.286	175.306	270.753	469.332	266.718	329.156	346.602	510.127	515.900	224.352	360.161	415.067	435.613	0.00016767	0.00019857	6.5958e-05	402.7	2.1135e-06	2.5309e-06	581.38	135.15	1.6576e-06	1.4464e-06	172.51	51.051	32.346	9.0087	1.4837e-06	17.388	0.00013229	4.6013e-05	9.4915e-06	392.48	6.7495e-07	3.6459e-07	565.55	132.26	8.6731e-07	2.8234e-07	168.01	50.16	31.836	8.9386	5.5838e-07	17.174	253.004	242.541	270.835	182.353	330.169	338.200	181.458	187.844	321.741	330.509	185.674	190.846	193.398	199.585	326.774	196.051	-8191	255	
1890.620	1	1	0	0	0.15934	0.29072	0.10697	0.085682	0.08531	0.068239	0.41632	0.0774	0.18264	0.13421	0.12606	0.36019	0.20166	0.13312	0.10363	0.045355	-2.2938	-2.65	-3.1042	-2.75	-2.8729	-2.9875	-2.6437	-3.0479	-2.6229	-2.9104	-3.1125	-2.5979	-2.9479	-2.7896	-2.7375	-3.075	512.203	291.729	495.185	398.694	182.166	201.521	463.762	191.431	402.116	450.292	208.428	186.307	387.339	422.507	333.639	529.688	0.00015879	0.00015035	7.3615e-05	397.92	2.2933e-06	2.0418e-06	573.49	133.93	1.7379e-06	1.4828e-06	170.65	50.747	32.155	9.0552	1.7715e-06	17.404	0.00012652	4.2517e-05	8.2935e-06	389.59	5.5175e-07	1.5057e-07	558.98	131.6	7.8945e-07	3.5056e-07	166.68	50.04	31.611	8.9363	6.2726e-07	17.199	252.004	244.868	251.071	182.425	328.062	321.542	181.463	187.859	326.715	303.643	185.835	190.605	193.725	199.391	341.073	196.168	-8191	255	
1890.716	1	1	0	0	0.22799	0.13183	0.307	0.12666	0.1518	0.041592	0.34972	0.11719	0.21349	0.22303	0.021686	0.25291	0.045619	0.22205	0.10354	0.048588	-2.3854	-2.6833	-3.1396	-2.6333	-2.7208	-3.0083	-2.725	-2.9646	-2.825	-2.6479	-3.2021	-2.7396	-3.0479	-3.1104	-2.4875	-2.8833	215.532	404.834	319.901	494.358	320.788	252.031	518.025	349.353	409.110	523.883	462.099	416.103	185.547	202.014	456.206	353.251	0.00015404	0.00016489	4.2528e-05	399.05	2.4243e-06	1.9884e-06	572.39	132.8	1.526e-06	2.0891e-06	169.66	50.526	31.653	8.9169	1.8711e-06	16.962	0.00012846	4.7476e-05	7.5333e-06	388.72	6.4284e-07	2.6705e-07	556.43	130.55	8.9254e-07	4.8793e-07	165.9	49.613	31.414	8.8061	5.2596e-07	16.876	256.902	257.884	256.098	182.418	312.891	323.754	181.446	187.810	319.939	322.785	185.756	190.706	193.077	199.557	319.484	195.879	-8191	255	
1890.812	1	1	0	0	0.054625	0.14209	0.14413	0.036924	0.086043	0.17945	0.08565	0.1822	0.1438	0.042276	0.20761	0.2293	0.1901	0.19862	0.10142	0.16224	-2.5417	-2.5563	-3.2167	-2.7229	-2.7417	-3.0187	-2.6813	-3.1583	-2.9021	-2.6063	-3.0729	-3.0021	-2.8646	-3.0854	-2.7354	-3.0583	424.221	313.465	411.881	284.501	334.475	490.645	279.150	428.538	427.754	330.885	448.932	220.938	237.755	393.997	385.272	500.547	0.0001503	0.00023946	3.2266e-05	394.27	2.0217e-06	2.1208e-06	565.69	131.67	1.0048e-06	1.7357e-06	168.18	50.026	31.489	8.7184	2.2401e-06	16.996	0.00012106	4.2598e-05	3.087e-06	384.36	6.0626e-07	3.949e-07	551.24	129.54	7.5773e-07	3.9698e-07	164.18	49.151	31.057	8.7106	4.9841e-07	16.814	254.961	255.711	260.408	182.480	331.358	316.535	181.385	187.774	328.538	328.765	185.860	191.023	193.610	199.562	344.655	195.927	-8191	255	
1890.932	1	1	0	0	0.075905	0.079892	0.061822	0.11946	0.087673	0.26191	0.41885	0.094292	0.10502	0.16996	0.22836	0.22632	0.18685	0.27323	0.11632	0.145	-2.6667	-2.6417	-3.2562	-2.8646	-2.8667	-3.1125	-2.6292	-3.0417	-2.9396	-2.5208	-3.1333	-3.025	-2.6188	-3.0708	-2.6188	-2.8521	304.285	491.285	477.828	306.674	310.521	439.378	222.415	346.564	269.289	404.438	455.125	450.862	492.357	492.587	279.876	244.195	0.00017111	0.00021805	6.8851e-05	393.91	2.1387e-06	2.6678e-06	562.99	131.53	1.9304e-06	1.3709e-06	168.68	49.741	31.636	8.8185	1.7478e-06	16.972	0.00013045	4.7557e-05	7.948e-06	381.81	6.309e-07	6.9131e-08	547.66	128.76	7.671e-07	3.3634e-07	163.71	49.078	31.009	8.7157	5.3082e-07	16.844	252.026	253.173	256.442	182.423	327.928	322.513	181.782	187.830	333.250	326.829	186.138	190.788	193.665	199.537	309.148	196.127	-8191	255	
1891.004	1	1	0	0	0.2184	0.28745	0.24923	0.077999	0.20669	0.21108	0.1196	0.10309	0.093554	0.10432	0.075621	0.23177	0.086165	0.051047	0.1718	0.086243	-2.6833	-2.4771	-3.0625	-2.9083	-2.8125	-3.1958	-2.7125	-2.8583	-3.025	-2.5104	-3.0792	-2.9188	-2.7167	-3.1167	-2.7479	-2.8292	245.810	202.957	386.996	517.300	289.167	376.539	501.505	175.538	267.178	475.990	385.886	510.533	438.417	484.023	175.970	289.053	0.00015877	0.00018874	5.9109e-05	389.14	1.6717e-06	2.4023e-06	561.74	131.32	1.5942e-06	2.8536e-06	169.07	50.438	31.821	8.7752	1.8614e-06	16.95	0.00012644	4.1948e-05	1.0551e-05	380	5.8759e-07	4.4698e-07	546.25	128.99	6.4021e-07	4.7657e-07	164.87	49.644	31.315	8.7384	4.3276e-07	16.855	254.040	237.111	248.855	182.637	314.716	343.285	181.477	188.313	324.072	317.092	185.864	191.091	193.359	199.873	345.921	196.218	-8191	255	
1891.125	1	1	0	0	0.1651	0.26258	0.054971	0.42828	0.11322	0.19732	0.17718	0.27872	0.11054	0.061088	0.12394	0.24505	0.22554	0.14299	0.11075	0.1577	-2.5583	-2.5917	-2.7917	-2.8937	-2.5875	-3.1146	-2.9708	-2.7042	-2.95	-2.5521	-2.9146	-3.0542	-2.5938	-3.1521	-2.7375	-2.6375	295.417	316.312	364.950	399.045	454.118	477.933	370.685	410.088	419.062	394.201	406.385	189.210	171.837	216.807	240.872	263.683	0.0001642	0.00028796	5.3241e-05	387.3	9.2575e-07	2.4805e-06	564.68	132.62	1.6269e-06	2.3064e-06	170.65	50.867	32.004	8.7257	1.7352e-06	16.882	0.0001267	5.6093e-05	9.9983e-06	379.24	7.175e-07	1.43e-07	548.93	130.23	6.2723e-07	5.9121e-07	166.56	50.214	31.769	8.6446	4.6113e-07	16.67	253.186	255.268	268.104	181.936	339.966	332.942	181.577	187.915	313.946	309.003	185.753	191.380	193.421	199.556	305.791	196.214	-8191	255	
1891.219	1	1	0	0	0.18059	0.030092	0.27108	0.28546	0.1448	0.095474	0.12571	0.12076	0.22999	0.19362	0.16675	0.1635	0.15283	0.042747	0.090084	0.12405	-2.7271	-2.6479	-2.6979	-2.9083	-2.6937	-3.0708	-2.9667	-2.8104	-3.1229	-2.6396	-2.8083	-2.9771	-2.5167	-2.9146	-2.9104	-2.6458	508.096	439.492	363.791	278.182	305.230	296.824	179.303	424.286	350.751	419.858	192.015	250.324	438.910	515.543	400.476	443.480	0.00016372	0.00028268	3.8755e-05	390.19	1.8268e-06	1.9633e-06	562.93	133.86	1.841e-06	1.6485e-06	170.75	51.735	32.593	8.7081	1.5448e-06	16.698	0.00012863	5.5768e-05	4.5614e-06	380.69	6.2716e-07	2.3675e-07	549.15	131.07	6.3805e-07	3.3729e-07	167.46	50.787	31.99	8.6696	3.6793e-07	16.629	257.112	243.357	276.066	182.463	307.414	307.192	181.446	187.984	310.397	319.866	186.311	190.556	193.453	199.735	331.571	196.353	-8191	255	
1891.315	1	1	0	0	0.15519	0.22055	0.23149	0.064163	0.12935	0.16946	0.31809	0.15856	0.13271	0.0841	0.050106	0.084524	0.24627	0.079463	0.12336	0.075987	-2.6688	-2.5521	-2.7333	-3.125	-2.5062	-2.9729	-2.9875	-2.5125	-3.2167	-2.7	-2.8063	-3.0771	-2.7687	-2.8396	-2.9146	-2.7021	196.323	475.228	317.959	385.843	300.772	415.372	410.170	518.303	262.528	388.091	519.032	210.150	324.975	299.789	397.176	338.081	0.00014599	0.00018217	5.9763e-05	391.17	1.677e-06	2.7528e-06	567.87	133.76	1.334e-06	2.492e-06	173.57	52.528	32.933	8.8431	2.2706e-06	16.892	0.00011907	4.3086e-05	8.8695e-06	381.11	7.0929e-07	2.9073e-07	552.2	131.18	4.7799e-07	5.931e-07	169.24	51.541	32.406	8.7629	4.5546e-07	16.813	254.627	253.669	265.177	182.726	317.614	333.816	181.598	188.018	328.840	328.242	185.650	190.846	193.452	199.119	333.437	196.338	-8191	255	
1891.411	1	1	0	0	0.053137	0.27589	0.089017	0.27627	0.091721	0.14069	0.12612	0.20347	0.1906	0.092952	0.30643	0.068573	0.11153	0.17978	0.17714	0.23475	-2.6083	-2.6937	-2.5917	-2.9979	-2.7042	-2.9083	-3.0396	-2.6896	-3.025	-2.7729	-2.7646	-3.1562	-2.5646	-2.9833	-2.9708	-2.5917	326.089	396.836	237.155	526.313	352.776	320.659	353.781	263.829	371.873	245.975	455.533	406.066	288.240	363.516	459.782	351.881	0.0001627	0.00018185	5.2159e-05	391.7	1.3746e-06	2.0979e-06	569.68	134.69	2.1182e-06	1.9404e-06	176.54	53.349	33.221	8.9517	2.1713e-06	17.257	0.00012739	4.0728e-05	1.1404e-05	381.8	6.3239e-07	4.2141e-07	554.94	132.52	7.5196e-07	3.3824e-07	172.6	52.546	32.93	8.8794	5.0165e-07	17.02	252.892	236.729	253.556	182.634	329.133	314.761	181.634	187.929	303.949	307.131	185.688	190.990	193.022	199.494	335.520	196.231	-8191	255	
1891.532	1	1	0	0	0.071611	0.34912	0.16222	0.076243	0.16392	0.1767	0.13799	0.14904	0.15715	0.1716	0.13702	0.35219	0.13348	0.16004	0.20438	0.29218	-2.5083	-2.7729	-2.6604	-3.0062	-2.7125	-2.8396	-3.1375	-2.4083	-3.1354	-3.0167	-2.6667	-3.0312	-2.6917	-2.9188	-3.1125	-2.5271	189.556	259.581	436.939	245.047	240.271	182.713	377.889	476.610	409.540	338.259	345.087	413.045	279.018	501.619	526.943	496.845	0.00017303	0.00025377	7.8769e-05	396.39	2.1187e-06	1.5113e-06	575.28	136.8	2.0329e-06	2.5807e-06	177.18	53.587	33.788	8.9199	1.9383e-06	17.031	0.00013446	3.5607e-05	1.5343e-05	386.11	7.7723e-07	3.305e-07	559.99	134.31	8.017e-07	2.2739e-07	173.31	52.715	33.304	8.8661	4.2223e-07	16.901	253.554	257.578	249.496	182.726	314.130	313.453	181.703	188.242	316.281	317.578	185.868	191.021	193.343	199.433	340.143	195.943	-8191	255	
1891.604	1	1	0	0	0.25957	0.089774	0.11991	0.14918	0.36541	0.063325	0.18606	0.26797	0.20937	0.25913	0.2576	0.030276	0.34053	0.15777	0.063146	0.11276	-2.5875	-2.9208	-2.7917	-3.025	-2.8958	-2.6833	-3.0833	-2.6354	-2.9938	-2.8792	-2.4833	-3.1167	-2.7125	-2.6958	-3.1083	-2.8021	171.156	294.280	339.793	520.574	262.118	205.724	266.431	494.113	402.666	462.034	491.220	499.595	228.130	370.238	282.301	379.421	0.00015524	0.00025999	6.1032e-05	395.81	1.4881e-06	2.6419e-06	575.8	135.69	1.4721e-06	1.7276e-06	175.65	52.924	33.446	8.9323	2.0229e-06	17.096	0.00013074	4.1541e-05	1.3224e-05	385.68	6.1746e-07	3.9869e-07	559.2	133.55	6.5463e-07	2.6813e-07	171.56	52.005	32.78	8.8661	4.587e-07	16.998	254.741	251.849	264.265	182.892	321.625	306.475	181.239	187.868	328.986	323.028	185.931	190.886	192.926	199.480	314.404	196.214	-8191	255	
1891.700	1	1	0	0	0.26605	0.21317	0.23969	0.24929	0.070271	0.21969	0.1104	0.090405	0.12269	0.066263	0.10463	0.10387	0.12137	0.15373	0.16171	0.105	-2.4875	-2.8667	-2.5563	-3.0646	-2.7771	-2.6729	-3.0938	-2.6521	-3.125	-2.9021	-2.6562	-3.0563	-2.8479	-2.8896	-2.8438	-2.5938	222.972	309.078	265.353	220.697	447.905	379.614	410.662	499.353	364.008	494.321	354.727	230.525	493.998	177.496	474.331	362.395	0.00015526	0.00021389	4.8682e-05	394.71	1.6354e-06	2.7819e-06	573.84	134.4	2.0081e-06	2.9138e-06	173.83	51.618	32.499	8.931	2.108e-06	17.244	0.00012718	3.4225e-05	1.4237e-05	385.49	6.3239e-07	4.252e-07	556.14	131.88	7.6277e-07	2.6907e-07	169.88	50.836	31.955	8.8435	3.3065e-07	17.067	254.242	254.855	262.267	182.325	325.894	334.643	181.488	187.930	316.155	310.212	185.697	191.107	193.407	199.546	343.048	196.430	-8191	255	
1891.796	1	1	0	0	0.12765	0.13231	0.072762	0.14142	0.29375	0.06962	0.26921	0.13939	0.2521	0.18313	0.28411	0.04143	0.19889	0.090085	0.16847	0.22338	-2.4833	-2.925	-2.5354	-3.2958	-3.0542	-2.6188	-3.1646	-2.6979	-2.8833	-2.9854	-2.6167	-3.1208	-2.9708	-2.6188	-2.9667	-2.7771	227.525	505.500	182.594	339.313	405.904	320.015	317.399	510.195	384.876	175.641	483.668	311.776	202.709	307.791	419.117	391.693	0.00016306	0.00023206	6.9727e-05	390.74	1.663e-06	1.4778e-06	564.45	133.36	1.4891e-06	1.9967e-06	171.31	51.166	32.383	8.8136	2.1254e-06	17.118	0.00012923	3.9997e-05	1.4859e-05	382.97	5.4951e-07	4.2709e-07	552.34	130.75	7.0798e-07	2.5392e-07	167.25	50.203	31.702	8.7391	3.4605e-07	16.828	254.279	264.775	253.551	182.543	325.285	315.750	181.766	187.925	311.644	337.962	185.864	191.016	193.179	199.552	318.374	196.427	-8191	255	
1891.892	1	1	0	0	0.19903	0.097926	0.164	0.06882	0.093631	0.13412	0.10811	0.13604	0.14737	0.30424	0.39915	0.14232	0.16436	0.17295	0.06426	0.17086	-2.3792	-3.1167	-2.5042	-2.8167	-2.9417	-2.675	-3.0687	-2.65	-2.6479	-3.1312	-2.7	-2.8479	-2.9875	-2.6458	-2.9	-2.7167	239.587	177.148	209.994	213.023	196.362	381.637	193.077	489.057	228.269	391.611	514.674	293.720	512.870	293.516	319.326	440.128	0.00015069	0.00020512	4.9204e-05	393.1	1.7883e-06	2.1e-06	556.81	131.5	1.7818e-06	2.1745e-06	169.72	49.989	31.543	8.7098	1.4285e-06	16.869	0.00012456	2.1462e-05	1.0782e-05	381.83	4.0318e-07	4.6592e-07	545.38	129.1	9.0768e-07	1.4306e-07	165.52	49.347	31.171	8.6764	3.7847e-07	16.772	251.950	249.201	269.430	182.484	329.023	345.756	181.626	187.964	319.621	305.379	186.136	190.820	193.297	199.360	327.477	196.182	-8191	255	
1892.013	1	1	0	0	0.26237	0.17671	0.49584	0.068087	0.31231	0.18693	0.12934	0.13355	0.10073	0.047176	0.21613	0.12449	0.23403	0.21634	0.0903	0.096657	-2.2146	-3.0146	-2.675	-2.8688	-2.9562	-2.55	-2.9292	-2.975	-2.7104	-3.1479	-2.7583	-2.7521	-2.9167	-2.5292	-2.9583	-2.8396	308.303	344.864	358.222	474.231	326.518	478.763	315.793	422.821	251.355	369.322	277.778	445.889	211.169	488.251	403.726	370.138	0.00016823	0.00025782	6.7361e-05	383.18	2.0761e-06	2.4036e-06	553.82	131.34	1.7536e-06	1.0282e-06	168.83	50.03	31.475	8.839	1.6602e-06	17.062	0.00012869	2.5608e-05	1.221e-05	374.89	5.749e-07	4.1857e-07	540.67	128.67	7.1735e-07	2.9371e-08	164.96	49.208	31.041	8.7249	4.4816e-07	16.858	253.255	258.228	259.161	182.226	320.300	323.547	181.562	187.857	307.696	306.816	185.918	190.761	193.438	199.454	340.493	196.384	-8191	255	
1892.109	1	1	0	0	0.33592	0.15103	0.14756	0.047048	0.23412	0.24426	0.11057	0.15913	0.26178	0.25447	0.27398	0.25859	0.40013	0.18413	0.1677	0.1944	-2.1875	-3.05	-2.6458	-2.6375	-3.0938	-2.825	-3.1083	-2.8646	-2.5646	-3.1542	-2.7354	-2.6833	-3.0167	-2.5583	-2.9958	-2.7146	451.629	261.747	288.937	294.478	450.532	264.441	340.554	402.665	397.674	225.131	495.789	229.772	486.523	413.483	230.840	466.017	0.00015764	0.00018467	7.2134e-05	381.68	2.0597e-06	2.4993e-06	548.52	130.85	1.6974e-06	1.9911e-06	168.85	49.934	31.364	8.904	1.6589e-06	17.4	0.0001352	2.0567e-05	1.1427e-05	372.04	5.1218e-07	5.6725e-07	537.71	128.22	8.3703e-07	1.5443e-07	164.93	49.106	30.884	8.8479	3.7117e-07	17.222	252.857	244.237	271.771	182.685	335.813	327.410	181.487	188.179	320.303	319.814	185.975	190.889	193.216	199.419	331.826	196.791	-8191	255	
1892.205	1	1	0	0	0.20976	0.078385	0.19933	0.29992	0.035684	0.14169	0.045499	0.046307	0.070827	0.1199	0.1953	0.11662	0.27534	0.2351	0.14622	0.0042778	-2.1188	-2.9021	-2.5583	-2.6937	-3.05	-2.6188	-2.925	-2.925	-2.6771	-3.075	-2.7229	-2.8354	-3.075	-2.5271	-2.7833	-3.0312	220.214	343.367	268.343	451.912	368.993	340.317	282.848	395.635	229.887	387.058	368.972	416.689	248.407	229.339	342.640	460.499	0.00017109	0.00026122	4.2823e-05	382.1	1.495e-06	1.916e-06	552.94	130.95	1.7087e-06	2.2031e-06	169.77	49.85	31.275	8.9742	1.8612e-06	17.113	0.00014075	3.4957e-05	9.3993e-06	373.12	3.8152e-07	3.9584e-07	540.31	128.42	9.668e-07	1.2127e-07	165.67	48.85	30.93	8.8555	4.2223e-07	16.989	251.464	257.810	262.034	182.397	318.376	335.303	181.899	187.799	308.661	346.295	185.823	190.918	193.197	199.587	330.305	196.601	-8191	255	
1892.300	1	1	0	0	0.18534	0.23407	0.1105	0.3988	0.071465	0.10225	0.07473	0.31473	0.2763	0.16129	0.15641	0.14572	0.097781	0.13445	0.1278	0.26142	-2.2521	-2.9271	-2.9833	-2.6188	-3.1646	-2.8396	-2.8104	-3.1396	-2.5833	-3	-3.1771	-2.7604	-3.1063	-2.7396	-2.7562	-3.1354	495.105	351.741	189.429	285.217	523.127	450.901	443.050	419.287	302.139	496.076	528.490	201.592	376.850	401.693	337.124	407.016	0.00016671	0.00015837	7.9582e-05	380.77	1.8449e-06	2.225e-06	552	130.62	1.8561e-06	2.1363e-06	168.61	49.455	31.016	8.872	2.3101e-06	16.869	0.00014075	1.0487e-05	1.4053e-05	373.15	4.8157e-07	3.305e-07	538.97	128.19	9.6103e-07	1.5917e-07	164.72	48.581	30.692	8.7642	4.514e-07	16.857	252.095	259.499	267.354	182.264	306.972	341.968	181.820	188.001	326.916	303.790	185.442	190.962	193.292	199.868	322.165	195.566	-8191	255	
1892.396	1	1	0	0	0.24313	0.10346	0.35318	0.28157	0.10296	0.13227	0.20662	0.22348	0.073441	0.11851	0.26718	0.10533	0.14751	0.23105	0.22338	0.33819	-2.1688	-2.9271	-2.7938	-2.7417	-3.1271	-3.0167	-2.9458	-3.0979	-2.625	-3.0521	-2.9125	-2.7062	-3.0229	-2.725	-2.9479	-3.1688	488.328	484.374	483.476	412.982	402.904	173.016	464.102	497.338	227.253	195.506	492.358	291.742	284.089	466.167	342.672	346.709	0.00017293	0.0001699	7.0212e-05	379.95	2.2753e-06	1.6926e-06	552.93	129.92	1.0893e-06	2.5936e-06	169.11	50.216	31.523	8.8403	1.783e-06	17.206	0.00013707	2.7721e-05	9.1689e-06	371.15	5.1816e-07	2.7368e-07	538.07	128.09	7.361e-07	2.8802e-07	165.13	49.099	31.001	8.7743	5.4946e-07	17.018	253.960	255.765	268.706	182.414	317.958	327.626	181.891	187.812	324.756	303.633	185.679	191.112	193.547	199.507	305.178	196.256	-8191	255	
1892.492	1	1	0	0	0.16075	0.36924	0.14095	0.21217	0.30012	0.25437	0.2809	0.26167	0.058585	0.073195	0.16327	0.16119	0.21041	0.11097	0.35894	0.045745	-2.3521	-2.8375	-3.0417	-2.7083	-3.0083	-2.8375	-2.5875	-3.1667	-2.5896	-2.9396	-3.025	-2.6	-2.9896	-2.9583	-2.825	-3.1271	259.605	514.016	506.037	254.898	375.676	217.916	471.588	377.754	283.201	251.906	479.077	438.742	293.332	175.230	276.829	489.993	0.00015772	0.00017881	7.4881e-05	380.36	1.6336e-06	1.9424e-06	554.02	131.57	1.846e-06	1.9176e-06	172.19	51.238	31.906	8.9531	1.8716e-06	17.279	0.00013309	2.829e-05	7.5794e-06	370.89	5.2637e-07	2.6516e-07	540.48	129.39	8.0098e-07	3.0792e-07	168.43	50.288	31.66	8.9	4.3682e-07	17.147	255.565	230.841	268.976	182.774	333.263	324.369	181.626	187.991	326.195	315.757	186.106	190.746	193.425	199.671	333.881	196.333	-8191	255	
1892.612	1	1	0	0	0.25882	0.19111	0.14552	0.035825	0.24028	0.17296	0.057465	0.10794	0.037031	0.23108	0.18291	0.1708	0.12753	0.20958	0.39124	0.056565	-2.1875	-2.7167	-2.9833	-2.6542	-2.9688	-2.8833	-2.7313	-3.1937	-2.8396	-2.8396	-3.1312	-2.55	-2.9854	-2.9396	-2.5938	-3.0583	436.038	239.695	198.795	198.592	517.326	256.930	418.019	452.527	523.848	288.298	278.898	175.944	491.029	501.034	382.811	206.671	0.00016055	0.00022374	5.3002e-05	385.99	2.2048e-06	2.0846e-06	560.04	133.99	1.6601e-06	1.5607e-06	175.69	51.856	32.618	8.8732	2.1946e-06	17.104	0.00013612	3.4631e-05	1.1496e-05	376.05	7.7574e-07	2.3296e-07	546.43	131.38	7.6061e-07	3.4203e-07	170.93	51.018	32.199	8.8192	6.767e-07	16.924	254.799	240.439	283.255	182.725	312.716	329.397	181.549	187.916	313.901	301.499	185.841	190.621	193.159	199.519	318.592	196.197	-8191	255	
1892.709	1	1	0	0	0.13664	0.26891	0.18533	0.099955	0.096836	0.10903	0.17371	0.09675	0.16417	0.17691	0.074321	0.1184	0.075363	0.11192	0.23488	0.19862	-2.3354	-2.6771	-3.1083	-2.7271	-2.9646	-3.0687	-2.5146	-2.9271	-2.8458	-2.8812	-3.1979	-2.8417	-2.8083	-3.0062	-2.5125	-3.1458	395.169	259.537	441.191	321.134	485.243	178.955	466.320	479.290	328.946	245.034	283.986	322.861	217.245	487.585	245.268	479.542	0.00015908	0.00025413	4.3471e-05	385.83	2.0104e-06	1.2071e-06	561.26	134.46	2.1243e-06	2.33e-06	176.94	52.352	32.801	8.831	1.2871e-06	17.211	0.00012373	5.8451e-05	7.5333e-06	376.65	5.5175e-07	2.1876e-07	545.77	132.09	7.8296e-07	5.4289e-07	172.11	51.087	32.297	8.8139	5.5757e-07	16.952	255.067	243.532	257.764	182.851	332.373	298.740	181.607	187.800	329.704	324.053	185.512	190.930	193.220	199.695	324.898	196.086	-8191	255	
1892.805	1	1	0	0	0.12883	0.17624	0.1071	0.19767	0.14469	0.17503	0.028706	0.16223	0.20553	0.23214	0.046561	0.179	0.20236	0.13669	0.38276	0.22371	-2.3375	-2.5312	-3.025	-2.8125	-2.8896	-3.1604	-2.6167	-3.0229	-2.8979	-2.6042	-3.1083	-2.85	-2.7458	-3.1354	-2.5833	-2.925	374.294	401.575	414.784	446.737	432.438	445.989	516.086	361.006	438.925	238.088	190.494	376.731	457.073	464.471	173.376	390.665	0.00016684	0.00024374	7.952e-05	385.19	1.8929e-06	1.6817e-06	565.48	135.7	1.5249e-06	2.0511e-06	178.28	52.691	33.456	9.1172	2.5363e-06	17.464	0.00012985	5.8613e-05	8.7312e-06	377.33	5.8759e-07	2.0929e-07	550.27	133.33	8.3703e-07	4.0266e-07	174.26	52.068	32.865	9.0096	5.8188e-07	17.415	251.800	242.921	259.691	182.710	322.953	312.001	181.697	187.733	320.787	319.765	185.671	190.832	193.522	199.565	343.834	196.249	-8191	255	
1892.901	1	1	0	0	0.15383	0.091129	0.036322	0.18472	0.22293	0.078575	0.064239	0.13095	0.071414	0.14285	0.13453	0.19579	0.11246	0.074579	0.10544	0.079021	-2.3708	-2.5229	-3.1833	-2.8708	-2.8438	-2.9167	-2.6292	-2.925	-3.0792	-2.55	-3.1375	-2.9604	-2.7083	-3.0687	-2.6604	-2.8229	216.211	213.064	336.644	227.860	408.521	404.796	418.307	195.118	230.697	422.264	282.321	457.944	331.749	295.151	471.976	220.804	0.00017379	0.00021874	4.9444e-05	393.95	1.8568e-06	1.3674e-06	574.72	138.42	2.3193e-06	2.673e-06	181.86	54.053	34.04	9.2888	2.4174e-06	17.989	0.00014188	4.1867e-05	6.7039e-06	383.84	8.3472e-07	2.5474e-07	560.19	135.93	8.2189e-07	5.2868e-07	178.07	53.172	33.553	9.2244	6.5806e-07	17.839	253.750	251.651	239.724	182.596	328.381	321.464	181.794	187.917	322.836	319.687	185.964	190.864	193.297	199.689	314.397	195.963	-8191	255	
#DATA ENDS
