BOXY.EXE: ISS Imagent and Oximeter Data Acquisition Program Version 0.80
Ascii Record File

#ACQ INFORMATION
2  Detector Channels 
16  External MUX Channels 
1  Auxiliary Channels 
5000  Waveform (CCF) Frequency (Hz)
1  Waveforms Skipped 
30  Waveforms Averaged 
1  Cycles Averaged 
16  Acquisitions per Waveform 
10.0806  Updata Rate (Hz) 

#FILE INFORMATION
TRUE -- External MUX Channel results are PARSED.
FALSE -- AC DC and Phase are NOT grouped.
TRUE -- Companion Program Settings File CREATED.
FALSE -- AC data not excluded
FALSE -- DC data not excluded
FALSE -- Phase data not excluded
FALSE -- Auxillary Chn. data not excluded
Tab delimiters

#CALIBRATION STATE
TRUE -- Waveform Calibration Values APPLIED.


#AUX CALIBRATION VALUES
Val Type	aux-1	

Term	1.0000e+00	
Factor	0.0000e+00	


#WF CALIBRATION VALUES
A = Detector Channel
Val Type	A-AC1	A-AC2	A-AC3	A-AC4	A-AC5	A-AC6	A-AC7	A-AC8	A-AC9	A-AC10	A-AC11	A-AC12	A-AC13	A-AC14	A-AC15	A-AC16	A-DC1	A-DC2	A-DC3	A-DC4	A-DC5	A-DC6	A-DC7	A-DC8	A-DC9	A-DC10	A-DC11	A-DC12	A-DC13	A-DC14	A-DC15	A-DC16	A-Ph1	A-Ph2	A-Ph3	A-Ph4	A-Ph5	A-Ph6	A-Ph7	A-Ph8	A-Ph9	A-Ph10	A-Ph11	A-Ph12	A-Ph13	A-Ph14	A-Ph15	A-Ph16	

Term	0.00000e+00	0.00000e+00	0.00000e+00	0.00000e+00	0.00000e+00	0.00000e+00	0.00000e+00	0.00000e+00	0.00000e+00	0.00000e+00	0.00000e+00	0.00000e+00	0.00000e+00	0.00000e+00	0.00000e+00	0.00000e+00	0.00000e+00	0.00000e+00	0.00000e+00	0.00000e+00	0.00000e+00	0.00000e+00	0.00000e+00	0.00000e+00	0.00000e+00	0.00000e+00	0.00000e+00	0.00000e+00	0.00000e+00	0.00000e+00	0.00000e+00	0.00000e+00	0.00000e+00	0.00000e+00	0.00000e+00	0.00000e+00	0.00000e+00	0.00000e+00	0.00000e+00	0.00000e+00	0.00000e+00	0.00000e+00	0.00000e+00	0.00000e+00	0.00000e+00	0.00000e+00	0.00000e+00	0.00000e+00	
Factor	1.00000e+00	1.00000e+00	1.00000e+00	1.00000e+00	1.00000e+00	1.00000e+00	1.00000e+00	1.00000e+00	1.00000e+00	1.00000e+00	1.00000e+00	1.00000e+00	1.00000e+00	1.00000e+00	1.00000e+00	1.00000e+00	1.00000e+00	1.00000e+00	1.00000e+00	1.00000e+00	1.00000e+00	1.00000e+00	1.00000e+00	1.00000e+00	1.00000e+00	1.00000e+00	1.00000e+00	1.00000e+00	1.00000e+00	1.00000e+00	1.00000e+00	1.00000e+00	X	X	X	X	X	X	X	X	X	X	X	X	X	X	X	X	

B = Detector Channel
Val Type	B-AC1	B-AC2	B-AC3	B-AC4	B-AC5	B-AC6	B-AC7	B-AC8	B-AC9	B-AC10	B-AC11	B-AC12	B-AC13	B-AC14	B-AC15	B-AC16	B-DC1	B-DC2	B-DC3	B-DC4	B-DC5	B-DC6	B-DC7	B-DC8	B-DC9	B-DC10	B-DC11	B-DC12	B-DC13	B-DC14	B-DC15	B-DC16	B-Ph1	B-Ph2	B-Ph3	B-Ph4	B-Ph5	B-Ph6	B-Ph7	B-Ph8	B-Ph9	B-Ph10	B-Ph11	B-Ph12	B-Ph13	B-Ph14	B-Ph15	B-Ph16	

Term	0.00000e+00	0.00000e+00	0.00000e+00	0.00000e+00	0.00000e+00	0.00000e+00	0.00000e+00	0.00000e+00	0.00000e+00	0.00000e+00	0.00000e+00	0.00000e+00	0.00000e+00	0.00000e+00	0.00000e+00	0.00000e+00	0.00000e+00	0.00000e+00	0.00000e+00	0.00000e+00	0.00000e+00	0.00000e+00	0.00000e+00	0.00000e+00	0.00000e+00	0.00000e+00	0.00000e+00	0.00000e+00	0.00000e+00	0.00000e+00	0.00000e+00	0.00000e+00	-7.31199e+01	-1.32799e+02	-1.26468e+02	-1.82714e+02	-5.26673e+01	-6.72776e+01	-1.58600e+02	-1.62015e+02	-4.81301e+01	-6.81745e+01	-1.74789e+02	-1.71091e+02	-1.81647e+02	-1.76664e+02	-5.28905e+01	-1.49745e+02	
Factor	1.45622e-05	1.40397e-04	4.03230e-05	1.48927e-01	1.29784e-06	1.50963e-06	1.69133e-01	4.23035e-02	9.54360e-07	1.51249e-06	7.52042e-02	2.43297e-02	1.97584e-02	7.93508e-03	1.28624e-06	1.14015e-02	1.42596e-05	3.90213e-05	1.10580e-05	7.54603e-02	3.58379e-07	4.54558e-07	8.02644e-02	2.15652e-02	3.46059e-07	4.54774e-07	3.70643e-02	1.20591e-02	1.01503e-02	4.07504e-03	3.89001e-07	5.66024e-03	X	X	X	X	X	X	X	X	X	X	X	X	X	X	X	X	



#DISTANCE SETTINGS
A = Detector Channel
A-1	A-2	A-3	A-4	A-5	A-6	A-7	A-8	A-9	A-10	A-11	A-12	A-13	A-14	A-15	A-16	

2.5000e+00	3.0000e+00	2.5000e+00	3.0000e+00	2.0000e+00	3.0000e+00	1.5000e+00	3.0000e+00	3.0000e+00	3.0000e+00	3.0000e+00	3.0000e+00	3.0000e+00	3.0000e+00	1.5000e+00	3.0000e+00	

B = Detector Channel
B-1	B-2	B-3	B-4	B-5	B-6	B-7	B-8	B-9	B-10	B-11	B-12	B-13	B-14	B-15	B-16	

1.0000e+01	1.0000e+01	1.0000e+01	1.4400e+00	1.0000e+01	1.0000e+01	1.5100e+00	1.9400e+00	1.0000e+01	1.0000e+01	1.9900e+00	2.4900e+00	2.4100e+00	2.9000e+00	1.0000e+01	2.9800e+00	




#DATA BEGINS
time	group	step	mark	flag	A-AC1	A-AC2	A-AC3	A-AC4	A-AC5	A-AC6	A-AC7	A-AC8	A-AC9	A-AC10	A-AC11	A-AC12	A-AC13	A-AC14	A-AC15	A-AC16	A-DC1	A-DC2	A-DC3	A-DC4	A-DC5	A-DC6	A-DC7	A-DC8	A-DC9	A-DC10	A-DC11	A-DC12	A-DC13	A-DC14	A-DC15	A-DC16	A-Ph1	A-Ph2	A-Ph3	A-Ph4	A-Ph5	A-Ph6	A-Ph7	A-Ph8	A-Ph9	A-Ph10	A-Ph11	A-Ph12	A-Ph13	A-Ph14	A-Ph15	A-Ph16	B-AC1	B-AC2	B-AC3	B-AC4	B-AC5	B-AC6	B-AC7	B-AC8	B-AC9	B-AC10	B-AC11	B-AC12	B-AC13	B-AC14	B-AC15	B-AC16	B-DC1	B-DC2	B-DC3	B-DC4	B-DC5	B-DC6	B-DC7	B-DC8	B-DC9	B-DC10	B-DC11	B-DC12	B-DC13	B-DC14	B-DC15	B-DC16	B-Ph1	B-Ph2	B-Ph3	B-Ph4	B-Ph5	B-Ph6	B-Ph7	B-Ph8	B-Ph9	B-Ph10	B-Ph11	B-Ph12	B-Ph13	B-Ph14	B-Ph15	B-Ph16	aux-1	digaux	

1606.295	1	1	0	256	0.18418	0.15479	0.1468	0.10465	0.27312	0.12141	0.25954	0.10684	0.10208	0.15806	0.040681	0.062667	0.24591	0.079393	0.099643	0.069644	-2.4	-2.8729	-2.7292	-3.05	-2.7792	-2.5896	-2.7708	-2.9396	-2.5021	-3.1167	-2.7979	-2.7792	-3.0458	-2.5229	-3.0396	-3.0083	415.156	106.289	379.035	143.604	205.408	105.634	356.443	179.857	111.251	235.004	390.727	198.227	254.584	282.139	226.695	354.967	0.00023224	0.00018242	5.2353e-05	183.36	2.1142e-06	2.4765e-06	332.84	64.078	7.8748e-07	1.7834e-06	111.64	51.841	25.241	11.52	1.9139e-06	24.785	0.00019072	2.1868e-05	1.6979e-05	184.04	5.189e-07	4.8297e-07	334.77	64.901	5.7388e-07	1.6107e-07	112.84	52.621	25.54	11.859	4.6275e-07	25.298	226.031	148.871	184.261	100.641	235.922	227.973	99.436	105.433	253.009	252.367	102.799	108.290	109.922	114.313	262.633	111.075	-8191	255	
1606.415	1	1	0	0	0.10992	0.10065	0.14271	0.16149	0.1078	0.070139	0.050248	0.089644	0.32833	0.17568	0.20673	0.095882	0.23833	0.12032	0.16652	0.25925	-2.2146	-2.9479	-2.9	-2.6854	-3.1354	-2.8333	-3.0271	-3.0062	-2.6562	-2.9813	-2.8833	-3.0604	-2.9188	-2.5875	-3.0708	-2.9521	142.355	260.154	305.288	344.042	189.598	192.936	208.287	168.732	377.327	306.738	397.847	311.562	445.807	358.365	370.245	192.079	0.00023147	0.00017794	4.2958e-05	182.51	2.4212e-06	2.3357e-06	333.77	63.898	1.4706e-06	1.5964e-06	111.42	51.897	25.271	11.54	1.9065e-06	24.844	0.00019444	3.39e-05	1.479e-05	183.44	4.0691e-07	4.735e-07	334.9	64.735	5.9623e-07	2.5771e-07	112.75	52.81	25.673	11.886	5.0327e-07	25.419	226.919	167.890	190.805	100.048	257.394	243.695	99.662	106.009	266.304	218.171	102.488	108.318	109.915	114.230	250.325	111.055	-8191	255	
1606.510	1	1	0	0	0.23903	0.25444	0.052521	0.13985	0.1473	0.32018	0.028011	0.065295	0.21031	0.23244	0.16011	0.26726	0.034979	0.21874	0.10392	0.16565	-2.1437	-3.0833	-2.7979	-2.9	-3.0667	-2.9104	-2.9917	-3.0333	-2.6271	-3.0646	-2.7708	-2.7812	-3.0229	-2.5958	-2.95	-3.1	176.372	418.536	440.737	226.771	329.510	93.180	261.900	379.886	410.312	202.837	321.262	414.775	307.964	333.391	114.538	268.855	0.00024188	0.00014217	5.4812e-05	183.23	2.0908e-06	1.8586e-06	332.65	64.284	1.4554e-06	2.07e-06	111.45	51.672	25.3	11.625	2.0397e-06	25.04	0.00019402	2.2925e-05	1.0298e-05	184.01	3.8675e-07	4.3372e-07	335.05	64.947	5.7604e-07	1.9328e-07	113.3	52.9	25.781	11.927	3.89e-07	25.576	227.616	172.800	188.105	100.318	251.247	230.456	99.956	105.467	256.223	234.546	102.198	107.881	110.048	114.902	248.268	110.903	-8191	255	
1606.607	1	1	0	0	0.22235	0.071897	0.16643	0.070429	0.27633	0.15732	0.12617	0.36276	0.19646	0.24527	0.04338	0.30899	0.2422	0.099511	0.062925	0.075916	-2.1667	-2.9396	-2.7583	-2.6646	-3.0917	-2.6312	-2.8646	-3.0208	-2.6042	-3.0812	-2.8021	-2.6979	-2.8083	-2.6688	-2.7042	-2.7854	274.515	382.991	367.150	187.403	124.800	323.535	179.859	371.968	432.101	374.833	137.505	93.623	94.418	126.581	283.045	275.485	0.00022855	0.00023509	4.5966e-05	180.62	1.2769e-06	2.0325e-06	334.53	64.25	9.9134e-07	1.6333e-06	112.18	51.649	25.432	11.649	1.7938e-06	24.923	0.00019304	4.1704e-05	8.8695e-06	182.96	2.643e-07	3.8543e-07	335.98	65.219	4.9458e-07	1.6012e-07	113.36	52.793	25.81	11.942	6.4834e-07	25.426	228.560	161.735	171.192	100.787	244.395	254.580	99.497	105.672	257.477	233.947	102.214	108.184	110.181	114.485	240.227	111.059	-8191	255	
1606.726	1	1	0	0	0.18161	0.13355	0.26185	0.25402	0.24199	0.079627	0.025547	0.23155	0.082308	0.21372	0.10409	0.13055	0.21754	0.19053	0.13277	0.40953	-2.2188	-2.8729	-2.7687	-2.6896	-3.0542	-2.6167	-2.9313	-2.9604	-2.5729	-2.9833	-2.825	-2.7729	-3.1	-2.8	-2.7833	-3.1167	282.525	152.400	220.681	104.494	179.533	442.854	279.171	411.818	233.461	396.693	279.777	427.681	349.133	364.509	275.369	434.313	0.00021693	0.00019895	5.8042e-05	180.87	1.6108e-06	2.0895e-06	332.64	63.797	1.3747e-06	1.8234e-06	111.75	51.86	25.21	11.613	1.6928e-06	24.572	0.00018258	2.6177e-05	8.5009e-06	183.42	2.3892e-07	4.2804e-07	333.79	64.696	5.5946e-07	2.397e-07	112.9	52.513	25.645	11.926	5.6e-07	25.28	228.569	148.458	172.920	100.916	264.315	247.593	99.761	105.671	247.715	245.649	102.548	108.359	110.121	114.561	242.894	110.812	-8191	255	
1606.798	1	1	0	0	0.13665	0.19323	0.1453	0.14104	0.12773	0.29044	0.1005	0.14532	0.11842	0.13204	0.2238	0.24197	0.28473	0.084997	0.28761	0.20224	-2.1583	-2.8667	-2.6958	-2.5854	-2.6667	-2.9333	-2.7542	-3.0417	-2.5958	-2.9188	-3.1958	-2.5521	-3.1562	-2.8583	-2.6375	-2.9417	184.948	301.632	293.835	384.286	365.574	374.703	381.944	392.508	111.307	368.542	178.516	410.462	321.471	235.285	338.072	87.958	0.00021413	0.00019755	4.7766e-05	179.78	1.2077e-06	2.4157e-06	327.75	64.055	1.1144e-06	1.7303e-06	111.07	51.705	25.335	11.64	1.3032e-06	24.849	0.00017994	2.764e-05	9.9522e-06	181.73	3.2926e-07	8.7124e-08	332.19	64.756	5.1548e-07	2.8329e-07	112.37	52.48	25.773	11.963	5.13e-07	25.374	225.148	168.675	181.141	100.758	251.527	244.641	99.542	105.679	248.062	240.147	102.180	108.166	110.010	114.784	269.461	110.926	-8191	255	
1606.894	1	1	0	0	0.23036	0.034941	0.1502	0.15233	0.27718	0.2519	0.044811	0.13886	0.0095113	0.21087	0.17224	0.28341	0.15522	0.13715	0.15165	0.041667	-2.2292	-2.8	-2.9583	-2.4813	-2.9938	-3.2396	-2.7708	-2.9938	-2.5375	-2.875	-3.1125	-2.7021	-2.8688	-2.9875	-2.7104	-3.1125	447.507	212.454	325.618	348.004	229.236	314.316	443.096	378.782	252.431	91.124	224.935	336.596	227.566	371.451	156.982	410.079	0.00020604	0.00016923	5.0269e-05	180.79	1.4824e-06	2.1103e-06	328.21	63.782	1.7977e-06	1.7626e-06	111.76	51.861	25.348	11.711	1.8969e-06	25.016	0.00017741	3.7883e-05	5.8055e-06	181.79	3.7256e-07	6.9131e-08	332.31	64.984	5.6595e-07	3.6287e-07	112.87	52.776	25.789	12.003	7.1074e-07	25.595	227.294	168.236	157.826	100.878	249.823	232.787	100.015	105.758	257.216	207.205	102.436	108.220	109.876	114.830	240.364	110.835	-8191	255	
1607.015	1	1	0	0	0.092922	0.14656	0.036942	0.19332	0.24359	0.073839	0.063641	0.17067	0.1013	0.16047	0.090414	0.16857	0.1726	0.072414	0.39331	0.13861	-2.2646	-2.7917	-3.2458	-2.6604	-3.0542	-2.8729	-2.4313	-3.2479	-2.9813	-2.6937	-3.0667	-2.7875	-2.8167	-3.1271	-2.5062	-2.9771	348.240	370.001	353.562	404.602	379.657	320.386	256.315	398.798	400.888	207.815	132.123	130.214	150.661	219.632	223.553	335.628	0.00022583	0.00021064	4.5976e-05	179.83	1.7116e-06	2.4019e-06	332.37	63.776	9.8598e-07	2.257e-06	111.36	51.781	25.3	11.687	1.7508e-06	24.767	0.00018737	3.9672e-05	5.7594e-06	182.51	2.7401e-07	2.216e-07	333.48	64.886	4.506e-07	3.335e-07	112.8	52.717	25.769	12	5.2191e-07	25.368	224.730	168.434	175.738	100.314	236.622	245.253	99.586	106.116	244.349	223.232	102.336	108.017	110.335	114.551	252.182	111.270	-8191	255	
1607.111	1	1	0	0	0.085092	0.15386	0.14864	0.27275	0.1143	0.11665	0.29821	0.13876	0.16139	0.1122	0.16247	0.14608	0.12784	0.12964	0.090158	0.19118	-2.4708	-2.6792	-2.9208	-2.7667	-2.8167	-3.0146	-2.5292	-2.9437	-2.8438	-2.5458	-3.1729	-2.7333	-2.7938	-3.0125	-2.4125	-2.9542	269.026	231.292	426.439	302.545	176.318	234.895	387.488	268.235	174.973	118.746	90.544	93.943	413.967	368.545	129.751	200.771	0.00022871	0.00019695	5.9167e-05	181.42	2.2037e-06	1.6016e-06	326.43	63.666	1.5304e-06	2.3311e-06	111.3	51.608	25.265	11.626	1.7909e-06	24.699	0.00018686	4.5362e-05	5.1374e-06	181.73	4.7261e-07	-1.7993e-08	331	64.668	4.9025e-07	4.8604e-07	112.19	52.336	25.651	11.969	4.6032e-07	25.279	224.395	172.479	177.676	100.323	245.880	244.092	99.737	105.986	246.363	241.630	102.474	108.521	110.346	114.367	264.453	110.914	-8191	255	
1607.207	1	1	0	0	0.098025	0.1787	0.12443	0.2605	0.25773	0.24463	0.084461	0.047221	0.1078	0.10588	0.40503	0.068894	0.20703	0.17919	0.29182	0.28222	-2.5104	-2.6729	-2.9354	-2.7479	-2.825	-3.1688	-2.6813	-2.7417	-2.7938	-2.5625	-3.0646	-2.5729	-2.6146	-3.0396	-2.5833	-2.8438	388.506	107.988	304.517	170.753	150.460	284.904	103.391	326.797	176.925	406.334	388.159	116.790	443.762	299.108	97.074	351.986	0.00021926	0.00017509	4.5788e-05	180.29	9.1968e-07	2.2303e-06	329.69	63.591	1.1804e-06	1.4857e-06	111.15	51.531	25.635	11.689	1.654e-06	24.925	0.00017415	3.4144e-05	7.6254e-06	181.88	3.5539e-07	8.523e-08	331.98	64.768	4.1815e-07	3.2308e-07	112.35	52.529	25.894	12.007	5.5352e-07	25.408	225.169	181.369	172.563	100.218	248.545	231.836	100.127	105.861	265.011	235.104	102.356	108.286	110.283	114.812	268.881	111.226	-8191	255	
1607.328	1	1	0	0	0.0518	0.11341	0.19679	0.20462	0.19807	0.17635	0.26355	0.051619	0.058609	0.21553	0.23475	0.097626	0.073219	0.16212	0.11174	0.10538	-2.5687	-2.4604	-2.8396	-2.9062	-2.8708	-3.1437	-2.6	-2.8354	-2.9521	-2.625	-3.2083	-2.8688	-2.3896	-3.1396	-2.7292	-2.8167	315.355	263.221	370.926	423.440	315.291	438.691	108.173	212.097	375.350	363.651	439.394	275.240	92.380	206.224	222.355	344.629	0.00022635	0.00018694	6.331e-05	182.41	1.5011e-06	2.097e-06	331.17	63.765	1.0843e-06	1.5719e-06	110.97	51.772	25.562	11.772	1.5397e-06	24.882	0.00017227	3.3249e-05	8.2935e-06	183.03	3.8152e-07	2.841e-08	333.22	64.81	4.1022e-07	3.1455e-07	112.77	52.796	25.952	12.039	5.7621e-07	25.516	226.819	160.521	191.187	100.778	253.994	225.499	99.292	105.786	256.818	228.896	102.533	108.357	110.637	114.345	258.163	111.079	-8191	255	
1607.399	1	1	0	0	0.13494	0.19379	0.01552	0.17209	0.21995	0.098744	0.32129	0.12317	0.27095	0.26858	0.24373	0.070792	0.23644	0.078212	0.17837	0.21357	-2.3792	-2.4708	-2.9188	-2.7958	-2.5792	-2.9813	-2.7042	-2.7188	-2.9562	-2.6229	-3.0333	-2.9271	-2.4396	-3.0625	-2.9042	-2.9125	278.688	338.581	442.405	105.959	104.250	237.451	342.495	253.141	193.896	119.259	149.162	335.621	309.829	135.403	427.860	376.610	0.00024312	0.00014662	6.8233e-05	181.85	1.5366e-06	2.0758e-06	330.79	64.552	1.6662e-06	2.1336e-06	111.66	51.767	25.386	11.661	1.6358e-06	24.468	0.00019069	4.1948e-05	6.6809e-06	182.66	4.5469e-07	4.5456e-08	332.81	65.27	3.9364e-07	4.4719e-07	112.39	52.582	25.878	11.993	4.3357e-07	25.202	225.094	164.004	177.304	100.462	247.995	225.775	99.593	105.863	249.064	248.634	102.357	108.329	110.107	114.861	249.289	111.039	-8191	255	
1607.496	1	1	0	0	0.20931	0.2551	0.14851	0.12026	0.27954	0.15826	0.11094	0.14157	0.26882	0.16674	0.1525	0.10951	0.19885	0.18041	0.15098	0.055957	-2.6188	-2.5417	-3.0438	-2.8604	-2.4562	-3.0167	-2.6958	-2.6104	-3.3063	-2.5917	-2.9938	-2.9896	-2.6312	-3.0187	-2.7854	-2.6208	132.927	90.520	163.756	304.542	360.047	402.602	115.476	330.577	208.628	268.343	304.136	335.213	155.157	207.370	409.959	128.761	0.00022169	0.00020666	5.7663e-05	181.85	1.98e-06	2.2891e-06	328.62	63.631	1.5337e-06	1.5757e-06	110.34	51.312	25.5	11.73	1.922e-06	24.833	0.0001748	4.3411e-05	4.9761e-06	182.32	5.1368e-07	7.576e-08	330.37	64.704	2.7396e-07	2.2549e-07	111.83	52.25	25.82	11.991	5.1462e-07	25.232	227.521	186.279	175.773	100.610	249.919	233.063	99.376	105.916	268.018	227.930	102.292	108.182	110.259	114.896	254.491	111.337	-8191	255	
1607.590	1	1	0	0	0.062255	0.092541	0.23279	0.25475	0.019559	0.16594	0.24388	0.15896	0.26112	0.072186	0.12641	0.035126	0.28256	0.23867	0.068864	0.18308	-2.6979	-2.6312	-2.6646	-2.9229	-2.6437	-2.9792	-2.7292	-2.6625	-3.225	-2.7583	-2.6417	-3.1125	-2.7167	-2.8208	-2.8792	-2.8	252.924	218.330	330.561	413.276	129.170	317.645	263.148	90.933	316.189	170.050	413.679	362.732	268.298	159.311	193.621	182.037	0.00023209	0.00018992	5.3785e-05	180.38	2.271e-06	1.9565e-06	329.42	63.915	1.4776e-06	2.0499e-06	111.13	51.469	25.399	11.732	2.3346e-06	24.698	0.00017825	3.6582e-05	1.1081e-05	182.11	4.8456e-07	9.1859e-08	330.75	64.733	3.6048e-07	2.9181e-07	111.96	52.337	25.839	12.006	4.4735e-07	25.328	227.196	154.012	176.685	100.415	259.274	237.898	99.235	105.892	268.292	240.111	102.611	108.012	110.334	114.630	236.851	111.060	-8191	255	
1607.688	1	1	0	0	0.11798	0.13167	0.15846	0.25236	0.099157	0.18028	0.13697	0.048458	0.26226	0.089335	0.093187	0.095036	0.14911	0.092643	0.14313	0.16121	-2.7438	-2.6167	-2.4375	-2.9229	-2.6542	-2.9313	-2.9688	-2.6125	-3.0687	-3.0917	-2.9125	-3.1021	-2.5417	-2.6875	-2.8104	-2.8458	361.380	108.415	317.975	350.314	326.046	269.628	159.376	382.293	355.592	108.506	307.434	383.350	432.846	174.375	402.827	366.585	0.00023497	0.00016408	5.6352e-05	181.2	1.4056e-06	1.7202e-06	330.32	63.69	1.3299e-06	1.9089e-06	110.92	51.989	25.237	11.795	1.632e-06	25.057	0.00018624	2.7315e-05	9.3993e-06	182.49	3.5241e-07	2.3391e-07	332.43	65.157	3.7418e-07	2.776e-07	112.64	52.712	25.878	12.086	3.3227e-07	25.514	225.716	169.811	177.480	100.368	247.910	235.725	99.509	106.042	277.082	235.307	102.630	107.993	110.435	114.503	240.545	111.155	-8191	255	
1607.807	1	1	0	0	0.23385	0.065591	0.14262	0.18007	0.057804	0.12969	0.38175	0.0737	0.20923	0.080964	0.20933	0.069236	0.32604	0.11398	0.20662	0.26977	-2.5583	-2.5917	-2.5938	-3.1854	-2.6958	-2.9062	-2.9813	-2.3063	-3.0708	-2.8125	-2.8271	-3.0042	-2.4437	-2.85	-2.9792	-2.5729	261.051	411.176	289.596	445.784	100.003	434.846	298.823	195.010	398.057	253.356	356.662	357.969	195.698	139.275	443.755	447.310	0.00021912	0.00016347	6.2518e-05	180.27	2.2561e-06	1.6586e-06	328.99	63.938	1.6075e-06	1.4133e-06	110.29	51.527	25.465	11.726	1.4701e-06	24.7	0.00017058	3.8127e-05	1.3477e-05	182.69	4.5469e-07	1.9603e-07	332.51	65.118	3.3957e-07	1.5443e-07	112.19	52.578	25.881	12.084	4.044e-07	25.31	225.966	158.876	159.577	100.666	253.061	233.899	99.355	105.949	252.351	237.130	102.773	108.329	110.430	114.516	248.772	111.278	-8191	255	
1607.903	1	1	0	0	0.12233	0.37003	0.096762	0.31849	0.1641	0.11934	0.19001	0.14923	0.12147	0.092447	0.16731	0.23698	0.054753	0.17463	0.074852	0.07003	-2.4958	-2.6562	-2.5875	-3.1688	-2.7542	-2.9062	-2.9917	-2.6521	-2.7646	-2.9042	-2.7396	-3.125	-2.8792	-2.7604	-2.7917	-2.6667	153.847	284.685	185.518	120.447	157.694	121.264	399.993	219.753	368.181	263.718	192.076	355.538	383.358	96.957	92.406	173.335	0.00022706	0.00023037	5.1051e-05	181.32	2.1815e-06	1.8786e-06	331.59	64.062	1.7219e-06	1.4891e-06	110.61	51.465	25.508	11.746	1.7921e-06	24.84	0.00017816	2.2356e-05	1.1887e-05	182.7	4.1811e-07	2.3959e-07	332.3	65.02	4.1383e-07	1.9896e-07	111.96	52.444	25.887	12.093	3.9711e-07	25.34	232.215	172.151	169.822	100.456	256.204	218.624	99.519	106.005	259.005	231.283	102.701	108.198	110.389	114.911	260.572	111.052	-8191	255	
1607.975	1	1	0	0	0.18991	0.2567	0.19643	0.16699	0.14091	0.27241	0.22424	0.078576	0.086881	0.084942	0.23432	0.1943	0.16075	0.24636	0.18778	0.09252	-2.5208	-2.9292	-2.4771	-2.8625	-2.9437	-2.7896	-3.0625	-2.5771	-2.8708	-3.0021	-2.6104	-3.0875	-2.6937	-2.5333	-3.1	-2.7833	111.151	276.544	425.072	392.891	96.066	307.348	123.210	136.830	196.619	383.713	441.775	354.909	436.515	387.248	297.879	203.249	0.00023771	0.00022158	4.2292e-05	181.24	1.5249e-06	2.2234e-06	331.38	65.071	1.4669e-06	1.311e-06	111.91	51.631	25.504	11.841	1.4498e-06	24.898	0.00019075	2.5689e-05	1.0436e-05	182.93	4.4424e-07	4.11e-07	333.07	65.505	4.4267e-07	4.453e-08	112.63	52.768	26.02	12.151	2.5609e-07	25.494	225.284	159.468	172.073	100.338	224.171	222.726	99.504	106.116	266.410	201.397	102.595	108.112	110.171	114.611	234.991	110.994	-8191	255	
1608.095	1	1	0	0	0.077897	0.265	0.27667	0.098675	0.022865	0.15069	0.10245	0.1389	0.20228	0.030738	0.12305	0.049778	0.11011	0.097574	0.23174	0.34351	-2.4792	-2.8792	-2.5646	-3.0125	-2.8708	-2.7417	-3.1083	-2.6813	-2.8312	-3.0104	-2.6042	-3.0792	-2.9979	-2.6917	-2.9479	-2.8396	401.111	214.654	135.912	98.026	315.169	196.292	434.307	112.278	206.633	345.459	177.460	224.372	286.218	255.812	224.160	397.145	0.000235	0.00020363	6.7879e-05	182.64	1.5125e-06	1.0901e-06	333.07	64.354	1.1627e-06	1.8574e-06	112.65	52.153	25.73	11.81	2.4388e-06	25.076	0.00018546	2.1462e-05	1.1795e-05	183.75	3.8078e-07	2.9357e-07	334.43	65.544	4.4339e-07	2.3118e-07	112.88	53.137	26.154	12.177	4.9517e-07	25.631	227.371	180.471	175.632	100.780	250.917	241.342	99.944	106.082	249.300	235.827	102.629	108.280	109.918	114.558	255.009	110.713	-8191	255	
1608.191	1	1	0	0	0.19007	0.017998	0.09683	0.21541	0.27393	0.27616	0.010738	0.11062	0.062046	0.018297	0.19005	0.20352	0.39925	0.23997	0.23012	0.1412	-2.2479	-2.8417	-2.6542	-2.925	-2.8854	-2.5417	-3.1333	-2.5875	-2.7292	-3.1917	-2.5271	-2.9062	-3.1083	-2.6896	-3.0812	-2.8667	274.756	215.943	296.978	383.734	257.224	265.909	373.855	112.011	364.234	291.727	303.455	361.383	92.405	371.940	339.856	417.100	0.00023464	0.00016451	4.4568e-05	183.29	2.0008e-06	2.2571e-06	332.32	64.874	1.4532e-06	2.0243e-06	110.87	51.831	25.821	11.819	2.4327e-06	24.858	0.00018876	1.634e-05	9.2381e-06	184.59	3.9422e-07	4.3183e-07	333.68	65.754	4.8376e-07	6.8216e-08	112.44	52.943	26.201	12.159	4.7247e-07	25.414	226.456	154.594	178.844	100.759	248.162	239.384	99.091	105.938	246.403	253.387	102.237	108.540	110.158	114.655	266.311	110.698	-8191	255	
1608.287	1	1	0	0	0.16792	0.20268	0.31971	0.17801	0.026958	0.10441	0.02303	0.30304	0.14025	0.15828	0.095869	0.37922	0.24441	0.25277	0.25591	0.085126	-2.2687	-3.1458	-2.5146	-2.8417	-2.875	-2.7938	-3.2479	-2.8542	-2.7188	-3.05	-2.7562	-3.0458	-3.0396	-2.3521	-2.9229	-2.9813	361.308	196.888	419.999	184.920	178.790	325.536	127.580	156.297	176.706	379.229	424.957	440.271	388.282	306.992	224.875	282.911	0.00022463	0.00022906	6.4708e-05	184.72	1.9651e-06	1.4152e-06	331.08	64.336	1.4343e-06	1.525e-06	111.32	51.766	25.631	11.831	2.0372e-06	24.78	0.00018437	1.447e-05	7.9249e-06	184.74	3.1358e-07	3.0588e-07	333.48	65.428	5.1548e-07	2.1791e-08	112.49	52.569	26.138	12.117	4.2304e-07	25.386	226.803	175.870	185.942	100.886	254.186	222.855	99.778	105.737	249.812	214.988	102.562	108.422	110.265	114.699	243.385	111.019	-8191	255	
1608.408	1	1	0	0	0.022862	0.066905	0.12175	0.13243	0.14721	0.11296	0.12953	0.10284	0.19467	0.24509	0.24434	0.015752	0.1655	0.099985	0.25234	0.22848	-2.35	-3.0396	-2.5625	-2.9125	-3.1104	-2.75	-2.9021	-2.9	-2.725	-3.0062	-2.7854	-2.7125	-2.9542	-2.65	-3.1104	-3.0167	383.325	117.622	92.945	212.548	125.329	265.484	342.465	207.522	163.733	428.826	342.538	299.553	356.998	205.635	146.231	417.981	0.00021816	0.00018756	4.7707e-05	183.75	1.3863e-06	1.7771e-06	331.1	63.994	1.4736e-06	1.9435e-06	110.96	51.726	25.777	11.925	1.6483e-06	25.024	0.00018535	2.0893e-05	1.0989e-05	184.6	2.5609e-07	3.466e-07	333.89	65.641	5.7677e-07	4.6425e-08	112.5	52.785	26.209	12.188	4.5302e-07	25.551	226.735	160.402	169.213	100.578	242.101	239.888	99.894	105.817	258.144	245.968	102.704	108.565	110.206	115.070	250.447	111.108	-8191	255	
1608.503	1	1	0	0	0.14614	0.049666	0.14347	0.18572	0.073474	0.17219	0.099234	0.060238	0.32444	0.039469	0.36475	0.15095	0.24249	0.080286	0.29605	0.30196	-2.0417	-2.975	-2.7229	-2.7792	-3.2938	-2.7854	-2.8917	-2.9208	-2.5917	-3.1583	-2.9396	-2.7062	-3.0542	-2.4896	-2.7917	-2.9625	92.483	277.292	357.290	180.535	151.351	94.854	196.817	106.558	314.456	297.188	428.737	329.599	252.020	430.082	409.367	308.157	0.00022966	0.00017381	5.5133e-05	183.09	1.3635e-06	1.7423e-06	333.72	64.833	1.3514e-06	2.0023e-06	111.93	51.951	25.751	11.968	1.7213e-06	25.125	0.00019224	2.7559e-05	8.8925e-06	185.1	2.1503e-07	2.7936e-07	335.41	65.849	5.3423e-07	1.6107e-08	113.16	53.074	26.269	12.244	3.9873e-07	25.645	227.492	154.699	184.829	100.865	230.859	232.238	99.854	105.999	259.634	213.728	102.422	108.258	110.681	114.680	235.478	110.826	-8191	255	
1608.599	1	1	0	0	0.26481	0.16991	0.10146	0.037529	0.12074	0.057689	0.31746	0.13274	0.21142	0.16726	0.063143	0.077447	0.095559	0.15504	0.47506	0.21562	-2.1125	-3.15	-3.0104	-2.6396	-2.9875	-2.5687	-2.8063	-3.0333	-2.4604	-2.825	-2.8896	-2.6375	-3.1292	-2.8125	-2.7833	-3.1896	416.404	235.766	108.920	289.304	335.160	362.477	428.303	373.044	269.966	189.209	443.362	90.657	440.489	110.316	94.640	287.943	0.00023236	0.00018253	4.8895e-05	181.17	1.9146e-06	1.7502e-06	332.47	64.656	1.6328e-06	1.7136e-06	111.22	52.249	25.669	11.965	1.3325e-06	25.033	0.0001966	2.3006e-05	9.3532e-06	184	3.0686e-07	3.163e-07	333.64	65.609	4.8232e-07	1.5254e-07	112.69	52.965	26.21	12.277	4.6518e-07	25.541	224.664	176.354	189.843	100.400	238.925	232.491	99.492	105.970	245.853	242.378	102.373	108.189	110.350	114.405	242.989	111.198	-8191	255	
1608.695	1	1	0	0	0.1113	0.05674	0.23178	0.11129	0.1094	0.12522	0.099321	0.28756	0.23372	0.040836	0.23996	0.14688	0.13436	0.188	0.066669	0.19374	-2.1	-2.9875	-3.0083	-2.6896	-3.0771	-2.5917	-2.6333	-2.9521	-2.6417	-3.0938	-2.9854	-2.7604	-3.2438	-2.7958	-2.4104	-3.0083	193.399	362.054	120.393	220.987	236.478	245.379	328.947	305.662	109.874	439.986	376.937	92.832	432.119	142.871	223.907	385.248	0.00022935	0.00025981	6.4469e-05	182.1	1.6662e-06	1.8469e-06	329.06	65.035	1.242e-06	1.6859e-06	111.74	51.823	25.764	11.873	2.532e-06	25.038	0.00019485	2.4551e-05	7.1416e-06	183.97	1.986e-07	2.0739e-07	332.59	65.729	4.7727e-07	1.8759e-07	112.64	52.736	26.189	12.219	6.143e-07	25.538	227.372	187.012	188.696	100.402	256.650	242.326	99.282	105.720	262.267	235.439	102.644	108.374	110.128	114.795	245.854	111.174	-8191	255	
1608.791	1	1	0	0	0.079926	0.3252	0.053592	0.041025	0.14156	0.13582	0.19214	0.066232	0.23057	0.10082	0.09737	0.15592	0.10451	0.086804	0.13342	0.1896	-2.4208	-2.9021	-2.9771	-2.5375	-3.1146	-2.9417	-2.6729	-2.9938	-2.7188	-2.8479	-3.0479	-2.4062	-3.2188	-2.9646	-2.5667	-3.2792	193.236	423.330	312.472	300.764	233.192	284.121	432.049	370.004	426.062	364.027	429.340	189.882	233.747	207.458	438.305	415.176	0.00023709	0.00019791	5.915e-05	183.64	1.8596e-06	2.1746e-06	330.83	64.742	1.5757e-06	1.9138e-06	110.99	51.876	26.025	11.872	1.5342e-06	25.144	0.00019248	1.6747e-05	6.3814e-06	184.39	3.2254e-07	4.252e-07	333.1	65.768	4.0734e-07	2.5297e-07	112.56	52.91	26.354	12.213	5.1948e-07	25.621	224.314	178.556	174.594	101.040	237.343	251.491	99.522	105.807	252.907	238.176	102.488	108.522	110.283	114.699	253.543	110.927	-8191	255	
1608.887	1	1	0	0	0.21238	0.20971	0.13851	0.22802	0.11234	0.092783	0.20929	0.088761	0.2358	0.28383	0.17232	0.184	0.23	0.067538	0.09854	0.25877	-2.3167	-2.8833	-2.9562	-2.4708	-3.0187	-2.8646	-2.5729	-3.1292	-2.7979	-2.875	-3.0938	-2.7271	-2.9583	-2.8229	-2.7104	-3.0625	388.520	134.327	338.857	257.160	166.348	312.943	199.832	300.544	408.266	331.654	312.138	363.583	350.175	360.946	129.413	422.160	0.00023597	0.00019869	6.0893e-05	182	2.0725e-06	2.2884e-06	330.67	65.192	1.3019e-06	1.8093e-06	111.78	51.743	26.007	11.951	1.2592e-06	25.234	0.0001887	3.1461e-05	2.2116e-06	184.34	2.8372e-07	1.5625e-07	333.55	66.019	4.2681e-07	1.3643e-07	113.42	52.988	26.369	12.295	6.0133e-07	25.757	227.755	182.023	176.214	100.374	239.591	226.513	99.575	106.089	272.804	213.633	102.353	108.548	109.750	114.910	236.080	111.090	-8191	255	
1608.983	1	1	0	0	0.13985	0.05886	0.20468	0.20969	0.098633	0.10081	0.11005	0.070017	0.2301	0.039795	0.21799	0.30091	0.18255	0.086973	0.22138	0.063003	-2.3187	-2.6104	-3.1937	-2.8438	-2.85	-3.1125	-2.7333	-3.2083	-2.6854	-2.6437	-3.1417	-2.7646	-2.8021	-3.0896	-2.5208	-2.8146	307.858	417.236	444.965	370.673	175.148	368.700	402.407	287.375	144.716	315.798	102.489	446.623	273.732	384.448	101.263	186.138	0.00021986	0.00016837	5.665e-05	182.26	2.3937e-06	2.5094e-06	332.3	64.99	1.1563e-06	1.9211e-06	112.51	52.153	25.787	11.985	1.342e-06	25.061	0.00017866	3.7802e-05	6.0589e-06	184.56	4.6739e-07	1.6667e-07	334.56	65.941	4.2032e-07	3.6477e-07	113.41	53.178	26.308	12.293	5.6405e-07	25.682	225.925	163.755	193.598	100.531	245.399	233.257	99.644	105.822	259.367	226.210	102.214	108.513	110.648	114.974	265.452	111.116	-8191	255	
1609.104	1	1	0	0	0.25235	0.17807	0.065306	0.30889	0.13673	0.10634	0.041501	0.24984	0.079456	0.2185	0.11857	0.037415	0.16192	0.11427	0.29481	0.12066	-2.6021	-2.7	-3.0104	-2.5646	-2.8125	-3.0604	-2.5667	-2.8625	-2.7854	-2.7646	-2.9938	-2.7729	-3.0042	-3.0458	-2.6771	-3.0062	153.789	317.740	276.280	423.009	431.669	281.176	211.957	92.066	130.334	242.608	399.735	292.032	356.905	382.018	424.298	442.007	0.00022792	0.00017547	5.0004e-05	182.02	1.2981e-06	2.0253e-06	330.05	65.019	1.0694e-06	1.4392e-06	111.37	51.34	25.998	11.923	2.1463e-06	25.117	0.00018175	2.3331e-05	1.3823e-06	184.54	4.3155e-07	1.0322e-07	332.24	65.824	4.7872e-07	2.6244e-07	113	52.715	26.248	12.226	6.8318e-07	25.561	225.595	171.270	186.879	100.470	244.121	231.880	99.856	105.612	236.793	219.400	102.857	108.475	110.321	115.044	240.988	111.299	-8191	255	
1609.200	1	1	0	0	0.41503	0.28006	0.099915	0.3242	0.16884	0.26856	0.15873	0.18466	0.31012	0.18722	0.094404	0.12467	0.13864	0.27259	0.31113	0.020013	-2.3125	-2.5146	-2.925	-2.8812	-2.7729	-3.1771	-2.8812	-2.7562	-2.8396	-2.6229	-3.0042	-2.7792	-2.8438	-2.9208	-2.4667	-2.8271	243.630	283.836	224.113	262.265	414.891	342.600	416.473	371.477	351.411	363.675	141.789	421.468	212.489	437.914	122.088	153.148	0.000235	0.00019431	6.6533e-05	182.59	1.7999e-06	2.0691e-06	329.8	65.141	1.5987e-06	2.246e-06	111.17	52.069	25.752	11.912	1.7131e-06	25.002	0.00018246	4.4468e-05	3.087e-06	183.51	3.5241e-07	1.2216e-07	332.12	65.946	3.4894e-07	4.0172e-07	112.79	52.969	26.298	12.272	6.0214e-07	25.705	226.253	175.308	174.587	100.848	247.334	239.212	99.462	105.711	250.396	245.144	102.650	108.334	110.100	114.664	246.117	111.307	-8191	255	
1609.272	1	1	0	0	0.15712	0.07749	0.1047	0.16399	0.049338	0.047113	0.067867	0.18109	0.0953	0.099955	0.11873	0.066003	0.043793	0.010035	0.18118	0.22303	-2.5167	-2.6562	-2.7896	-2.6063	-3.0167	-3.0875	-2.7354	-2.7062	-2.7458	-2.5854	-3.2438	-2.7917	-2.5771	-2.9354	-2.6604	-2.6937	289.923	118.250	234.269	403.597	353.963	330.542	364.827	99.684	207.903	323.193	133.105	352.932	421.712	398.375	205.219	111.539	0.00022898	0.000237	5.0563e-05	182.03	1.3777e-06	1.7019e-06	332.29	64.302	1.7498e-06	1.9749e-06	112.61	52.41	25.892	12.016	1.8895e-06	25.179	0.00018416	3.3087e-05	4.0316e-06	183.59	3.972e-07	4.8297e-08	334.12	65.846	4.0301e-07	3.5624e-07	113.73	53.261	26.404	12.341	4.6842e-07	25.843	226.652	154.168	173.520	100.795	270.764	219.284	99.675	106.218	256.506	237.679	102.540	108.300	110.259	115.079	262.736	111.442	-8191	255	
1609.368	1	1	0	0	0.074595	0.092303	0.045247	0.11958	0.22594	0.17408	0.2335	0.29886	0.21414	0.26616	0.24349	0.18919	0.033692	0.1417	0.11944	0.21254	-2.4979	-2.7313	-2.8937	-3.0542	-2.4833	-3.1479	-2.7896	-2.9542	-3.15	-2.4229	-2.9979	-3.0604	-2.5938	-2.9813	-2.7771	-2.8167	216.418	229.201	264.962	410.759	411.457	215.477	406.332	106.840	144.572	393.160	431.251	211.802	288.554	220.771	272.142	429.357	0.00021777	0.00018602	5.9055e-05	183.37	1.9846e-06	2.3977e-06	330.04	65.379	1.3803e-06	2e-06	112.45	51.98	26.063	12.032	2.2059e-06	25.138	0.00017554	3.7152e-05	5.8976e-06	184.79	4.4349e-07	1.6004e-07	334.21	65.994	3.3452e-07	4.3393e-07	113.81	53.261	26.442	12.353	4.7815e-07	25.817	225.833	161.982	190.733	100.917	239.682	250.755	99.559	105.663	236.725	245.866	102.677	108.386	110.388	114.388	253.072	111.696	-8191	255	
1609.487	1	1	0	0	0.1593	0.096444	0.1787	0.10331	0.067101	0.10682	0.10538	0.37416	0.048811	0.095693	0.12679	0.18261	0.23505	0.24855	0.1786	0.20076	-2.6521	-2.4021	-2.9646	-3.2167	-2.625	-3.0187	-2.8521	-2.6312	-2.9958	-2.5333	-2.8292	-3.2271	-2.5708	-3.1271	-2.9646	-2.7146	219.394	174.707	415.795	114.236	296.284	351.061	112.404	154.810	442.605	107.999	258.475	371.200	248.093	130.799	202.652	385.877	0.00024163	0.00019646	5.7333e-05	182.68	1.9127e-06	2.8457e-06	330.82	64.79	1.5895e-06	1.2357e-06	111.66	51.867	26.005	11.99	1.7496e-06	25.154	0.00018466	5.0728e-05	5.3447e-06	184.5	5.1218e-07	3.0304e-08	333.08	65.664	3.028e-07	2.5202e-07	112.86	52.908	26.396	12.316	4.0116e-07	25.678	226.514	158.211	179.919	100.414	268.983	239.019	99.624	105.669	263.174	237.818	102.430	108.264	110.486	115.123	244.974	111.491	-8191	255	
1609.583	1	1	0	0	0.083149	0.2425	0.12743	0.087265	0.30553	0.14479	0.13106	0.28012	0.12099	0.11333	0.16724	0.25728	0.043558	0.081527	0.17147	0.2281	-2.5812	-2.7396	-2.7979	-3.0021	-2.6063	-3.1375	-2.8979	-2.3646	-3.1688	-2.7979	-2.6521	-2.8542	-2.5167	-2.9583	-2.7104	-2.5042	159.890	348.755	201.908	390.144	124.581	156.848	357.172	238.780	247.949	142.940	261.749	274.051	427.686	421.887	244.491	220.312	0.00021928	0.00018478	5.176e-05	182.32	1.8268e-06	1.6605e-06	332.31	65.121	1.6063e-06	1.4425e-06	111.75	51.965	25.974	12.043	1.4125e-06	25.34	0.00017551	3.1867e-05	6.0128e-06	184.4	4.2184e-07	6.7237e-08	333.85	66.046	4.0085e-07	1.4117e-07	113.08	53.081	26.454	12.338	4.2142e-07	25.743	226.903	179.558	189.553	100.573	236.084	228.983	99.449	106.019	263.192	216.869	102.657	108.276	110.619	114.500	246.475	111.344	-8191	255	
1609.679	1	1	0	0	0.097965	0.20858	0.12092	0.050587	0.15978	0.19853	0.10037	0.094411	0.20029	0.098702	0.12435	0.064406	0.22687	0.078672	0.31152	0.15108	-2.7104	-2.9083	-2.8833	-2.9979	-2.5667	-3.0938	-2.8438	-2.5187	-2.9229	-2.8625	-2.9542	-3.1333	-2.7	-2.8208	-2.9188	-2.4708	384.339	194.183	361.107	437.708	307.308	372.765	127.210	228.408	173.179	396.585	240.226	353.339	296.210	373.664	103.382	178.703	0.00023207	0.00021853	3.8987e-05	182.26	2.2288e-06	1.8274e-06	332.1	64.787	1.3066e-06	2.618e-06	112.11	52.364	26.199	12.066	1.9395e-06	25.376	0.00018591	4.0891e-05	4.5384e-06	185.23	5.6445e-07	2.5569e-08	334.72	66.173	5.0034e-07	3.9509e-07	113.53	53.301	26.511	12.364	3.1768e-07	25.938	225.526	171.973	197.498	100.565	259.285	225.414	99.644	105.875	261.746	224.996	102.778	108.199	110.473	114.915	267.615	111.599	-8191	255	
1609.777	1	1	0	0	0.1141	0.11035	0.13449	0.15109	0.1712	0.12039	0.077108	0.25354	0.26161	0.29982	0.044361	0.16838	0.020622	0.09688	0.27747	0.25398	-2.6854	-2.7875	-2.7854	-3.175	-2.7854	-2.8625	-3.0396	-2.5604	-2.9813	-2.8271	-2.525	-3.1708	-2.7938	-2.6854	-3.0604	-2.5	402.832	333.799	432.060	140.919	376.659	152.880	372.658	103.781	368.394	315.920	372.393	402.052	102.208	158.284	113.591	428.550	0.00023868	7.6095e-05	4.7209e-05	184.5	1.9745e-06	1.9478e-06	335.68	65.021	1.2958e-06	1.4752e-06	111.8	52.355	26.196	12.096	2.2895e-06	25.315	0.00018404	2.5689e-05	7.9019e-06	185.81	4.2856e-07	1.9508e-07	336.15	66.227	2.6964e-07	1.1369e-07	113.38	53.309	26.514	12.373	4.352e-07	25.866	226.613	163.533	173.265	100.745	255.603	242.625	99.719	105.736	253.473	237.523	102.658	108.317	110.386	114.712	244.723	110.989	-8191	255	
1609.896	1	1	0	0	0.12623	0.29109	0.23029	0.22516	0.16684	0.16146	0.048619	0.26095	0.19225	0.23207	0.14192	0.19805	0.13767	0.15362	0.2305	0.16409	-2.6833	-2.9292	-2.5521	-2.9771	-2.9062	-2.8292	-3.1104	-2.5563	-3.0438	-3.0542	-2.6208	-2.9417	-2.6958	-2.8438	-3.2562	-2.6542	241.635	243.620	197.284	273.188	189.689	330.278	288.329	397.396	205.475	435.479	292.117	428.968	435.540	392.635	278.738	140.203	0.00022363	0.0001802	6.0924e-05	183.92	1.888e-06	1.7584e-06	332.23	65.13	1.6111e-06	1.7955e-06	112.26	52.033	25.898	12.005	2.3611e-06	25.193	0.00017732	2.6827e-05	1.1058e-05	185.83	4.3603e-07	1.2784e-07	335.02	66.029	4.3762e-07	1.478e-07	113.02	53.032	26.371	12.298	3.112e-07	25.729	226.447	165.982	162.734	101.055	250.568	232.337	99.563	106.004	254.004	243.163	102.676	108.203	110.516	114.894	239.317	111.216	-8191	255	
1609.968	1	1	0	0	0.2195	0.11616	0.10861	0.15891	0.024783	0.032695	0.17614	0.11277	0.225	0.1827	0.23978	0.070015	0.29692	0.13428	0.11777	0.10162	-2.4	-2.925	-2.6208	-3.1458	-2.5333	-2.6125	-3.1208	-2.8125	-2.9313	-2.9167	-2.5167	-2.9313	-2.8646	-2.7188	-2.8812	-2.7583	313.183	341.334	269.384	131.355	447.018	372.041	408.914	111.195	313.669	121.010	384.755	233.541	426.216	329.368	394.561	324.050	0.00023075	0.00020386	4.5747e-05	183.76	1.4047e-06	1.9698e-06	332.94	65.031	1.5774e-06	1.5686e-06	111.55	51.958	25.903	12.099	1.8191e-06	25.465	0.00018823	2.6908e-05	9.3302e-06	185.37	3.3374e-07	3.163e-07	335.45	66.076	4.2464e-07	1.1938e-07	112.93	53.102	26.401	12.369	3.6793e-07	25.88	226.522	183.638	191.391	100.948	259.560	238.367	99.528	105.740	245.931	218.516	102.780	108.449	110.597	114.802	249.031	111.114	-8191	255	
1610.088	1	1	0	0	0.27027	0.15485	0.12955	0.1524	0.11587	0.01685	0.21253	0.12379	0.20989	0.11134	0.24167	0.074158	0.096756	0.16768	0.049371	0.13551	-2.6021	-2.9021	-2.4542	-2.9625	-2.9104	-2.6292	-3.0312	-2.8333	-2.8271	-2.8563	-2.5812	-3.0438	-2.8521	-2.95	-3.0896	-2.6604	434.381	189.675	276.910	136.132	141.942	387.109	220.171	150.884	219.940	265.307	209.672	389.483	96.924	302.663	306.090	179.119	0.00023354	0.00015306	6.4511e-05	184	2.5439e-06	2.0537e-06	333.48	65.387	1.8476e-06	1.7386e-06	112.15	52.383	26.077	12.042	2.0658e-06	25.534	0.00018793	2.447e-05	1.3638e-05	185.64	3.7779e-07	2.6421e-07	335.85	66.38	4.5492e-07	2.2549e-07	113.41	53.464	26.473	12.385	4.6761e-07	25.979	225.288	185.813	173.458	100.756	247.658	244.809	99.679	105.965	256.366	246.868	102.368	108.332	110.507	114.869	248.051	111.542	-8191	255	
1610.184	1	1	0	0	0.056791	0.073288	0.082015	0.15481	0.076238	0.0637	0.36295	0.16972	0.17848	0.20973	0.10753	0.16339	0.18797	0.08391	0.060222	0.21418	-2.3937	-3.1437	-2.6792	-3.0354	-2.7521	-2.5917	-3.0979	-2.7771	-2.5583	-3.1	-2.5417	-2.9708	-2.9417	-2.3937	-3.025	-3.0896	231.411	338.227	383.018	366.420	309.579	333.694	324.762	332.844	421.028	418.468	203.874	291.511	285.060	333.641	313.614	412.174	0.00023105	0.0001871	4.017e-05	184.27	1.4748e-06	1.9643e-06	333.54	65.019	1.5223e-06	1.9331e-06	112.58	52.631	26.205	12.082	1.731e-06	25.491	0.00018549	2.0324e-05	6.6118e-06	185.57	3.3673e-07	2.4432e-07	336.32	66.155	4.8592e-07	9.4745e-09	113.73	53.487	26.595	12.398	3.7036e-07	26.031	224.497	174.797	179.436	100.638	256.469	238.356	99.690	106.005	259.483	242.853	102.733	108.158	110.594	114.476	262.159	111.334	-8191	255	
1610.280	1	1	0	0	0.10465	0.29531	0.2248	0.097622	0.13248	0.073628	0.25296	0.21242	0.064159	0.04022	0.17928	0.27974	0.31698	0.20971	0.12162	0.055015	-1.9937	-3	-2.5438	-2.875	-2.8917	-2.4792	-3.1354	-2.7396	-2.5312	-3.1542	-2.7833	-3.0208	-3.0229	-2.45	-3.1771	-3.0125	299.518	164.609	217.694	220.402	284.524	261.907	276.008	162.474	362.357	241.836	169.203	419.292	287.758	140.520	298.553	443.437	0.0002269	0.0001896	4.0537e-05	184.16	1.5065e-06	1.91e-06	333.76	65.409	1.7739e-06	1.8255e-06	111.62	52.273	26.142	12.047	1.8468e-06	25.296	0.00018962	2.1949e-06	1.1242e-05	185.2	3.0089e-07	4.3846e-07	335.23	66.348	6.2219e-07	-4.7372e-09	113.18	53.297	26.549	12.377	3.9711e-07	25.856	226.877	181.520	179.517	100.598	251.070	235.449	99.892	106.026	268.039	214.705	102.533	108.332	110.447	114.900	244.276	111.255	-8191	255	
1610.377	1	1	0	0	0.29295	0.17706	0.09792	0.07306	0.33099	0.063747	0.054707	0.16986	0.075249	0.034825	0.25735	0.12289	0.14605	0.14832	0.12332	0.13011	-2.2792	-3.0833	-2.575	-2.8375	-2.8854	-2.4646	-2.8937	-2.9458	-2.6125	-2.8229	-2.8125	-2.8375	-2.8771	-2.5021	-2.8167	-2.7812	232.137	254.892	236.105	270.928	395.135	186.241	88.699	359.140	391.953	355.630	343.786	97.307	402.526	438.069	96.174	151.693	0.00022231	0.00020631	3.9664e-05	183.37	1.646e-06	1.4153e-06	333.93	65.115	1.2596e-06	1.6824e-06	111.65	52.306	26.146	12.063	1.934e-06	25.332	0.00018677	1.3088e-05	1.115e-05	185.37	2.7849e-07	4.3183e-07	335.37	66.171	5.7677e-07	1.478e-07	113.34	53.393	26.493	12.383	4.4492e-07	25.927	225.848	176.111	180.339	100.749	253.191	243.840	99.583	105.941	244.750	235.488	101.981	108.629	110.255	114.568	235.236	111.269	-8191	255	
1610.497	1	1	0	0	0.22881	0.039856	0.26979	0.012326	0.14559	0.2823	0.073412	0.12141	0.17542	0.19267	0.11542	0.23826	0.18222	0.082649	0.04789	0.193	-2.3104	-3.2875	-2.7479	-2.475	-3.1021	-2.6708	-2.9583	-2.7313	-2.5687	-3.0062	-2.9	-2.7542	-3.0521	-2.6188	-3.1229	-3.0229	155.468	143.279	395.762	91.581	217.243	380.933	427.110	404.772	335.249	325.614	376.039	428.822	280.749	425.396	366.488	273.007	0.00023356	0.00017822	5.5353e-05	183.62	1.9991e-06	2.1366e-06	334.39	65.499	1.3265e-06	1.6009e-06	112	52.794	26.136	12.018	1.8472e-06	25.517	0.0001969	1.6259e-05	1.0044e-05	185.75	2.1951e-07	4.3088e-07	336.38	66.414	4.6718e-07	1.4875e-07	113.45	53.68	26.559	12.385	5.057e-07	26.046	225.028	166.993	184.090	100.241	272.937	239.021	99.689	106.118	273.708	217.777	102.209	108.672	110.098	114.840	253.711	111.150	-8191	255	
1610.567	1	1	0	0	0.39658	0.081687	0.073897	0.12176	0.1532	0.11355	0.1306	0.11062	0.053755	0.017808	0.082689	0.15136	0.16038	0.081538	0.11195	0.1916	-2.2125	-3.0479	-2.8917	-2.5812	-3.0646	-2.7562	-2.7438	-3.0083	-2.4917	-3.0104	-2.8604	-2.5958	-2.9271	-2.7625	-2.9229	-3.0812	134.628	237.782	260.848	236.684	188.616	158.717	325.111	224.098	400.731	125.330	266.480	234.032	93.061	239.871	442.911	354.612	0.0002298	0.00019289	6.2426e-05	185.56	2.0092e-06	1.4593e-06	334.67	64.791	1.558e-06	2.3207e-06	112.99	52.788	26.066	12.078	2.1061e-06	25.273	0.0001912	2.9998e-05	1.1058e-05	186.49	2.3444e-07	8.7124e-08	337.61	66.283	4.7944e-07	1.5064e-07	114.08	53.634	26.523	12.388	5.5271e-07	26.025	226.128	188.321	178.867	100.724	260.845	245.202	99.841	105.908	257.756	231.388	102.868	108.574	110.037	114.708	239.336	111.464	-8191	255	
1610.665	1	1	0	0	0.084127	0.11838	0.12051	0.35298	0.036878	0.17165	0.30686	0.10575	0.15927	0.04862	0.099197	0.18104	0.19662	0.20422	0.14259	0.27503	-2.2833	-2.9729	-2.875	-2.4708	-3.1271	-2.6354	-2.9417	-3.0979	-2.4104	-3.1042	-2.9062	-2.525	-2.8854	-2.7708	-2.7292	-3.1396	180.612	288.369	433.039	397.117	349.539	116.962	390.501	102.789	396.124	113.419	358.638	378.757	213.976	317.431	96.123	126.287	0.00022466	0.00019176	6.4493e-05	185.75	2.0009e-06	2.1522e-06	333.02	65.53	1.2285e-06	2.5523e-06	112.18	52.224	26.127	12.021	1.9158e-06	25.388	0.00018407	2.4795e-05	6.7039e-06	187.02	1.8143e-07	2.5758e-07	336.08	66.392	5.1332e-07	2.3307e-07	113.36	53.289	26.485	12.359	4.7572e-07	25.894	226.599	170.614	162.312	100.455	260.378	226.465	99.540	105.692	251.971	229.191	102.780	108.345	110.182	114.818	247.999	111.084	-8191	255	
1610.784	1	1	0	0	0.21306	0.10716	0.019316	0.1943	0.1952	0.27128	0.12406	0.27924	0.18991	0.11605	0.048437	0.060541	0.092983	0.13725	0.10564	0.024458	-2.3542	-2.8104	-2.8583	-2.8458	-2.9542	-2.75	-2.6917	-3.0771	-2.7792	-2.8542	-3.0354	-2.7708	-2.9979	-2.8542	-2.5979	-3.1958	358.014	434.308	402.487	358.058	263.904	399.895	167.735	341.504	230.862	332.849	95.394	211.700	343.186	252.455	167.194	177.931	0.00022895	0.00022928	4.2e-05	186.16	1.8812e-06	2.0985e-06	334.79	65.532	1.447e-06	2.1603e-06	112.43	52.223	26.186	12.157	1.0069e-06	25.548	0.00018526	2.1949e-05	5.0452e-06	187.07	2.9566e-07	2.5095e-07	337.5	66.459	4.8953e-07	2.6718e-07	113.74	53.511	26.579	12.412	5.908e-07	26.018	227.072	164.403	159.973	100.731	250.432	228.969	99.746	106.092	269.396	260.132	102.666	108.226	110.154	114.619	257.098	111.248	-8191	255	
1610.880	1	1	0	0	0.25656	0.12388	0.22502	0.1061	0.096631	0.03674	0.19242	0.15742	0.057118	0.17966	0.076974	0.21719	0.17449	0.29171	0.10596	0.29053	-2.15	-2.7438	-3.1729	-2.5875	-3.0021	-2.8125	-2.7146	-3.0479	-2.7396	-2.8333	-3	-2.4875	-2.8958	-2.9437	-2.4562	-3.2396	143.689	174.142	424.286	439.663	304.574	316.153	388.902	412.576	338.532	299.692	316.139	101.373	391.090	347.215	201.533	360.834	0.00022685	0.00014325	5.064e-05	185.35	1.896e-06	1.755e-06	337.23	65.887	1.8836e-06	2.114e-06	112.84	52.837	26.136	12.089	2.0466e-06	25.708	0.00018817	2.9754e-05	2.9488e-06	186.94	2.6505e-07	1.7614e-07	338.09	66.833	5.5874e-07	3.136e-07	113.97	53.78	26.559	12.425	5.1137e-07	26.149	227.562	191.661	165.897	100.642	255.366	247.173	99.305	106.089	249.055	238.876	102.503	108.387	110.143	114.920	243.610	111.332	-8191	255	
1610.976	1	1	0	0	0.07121	0.12347	0.12163	0.25887	0.09949	0.05044	0.18137	0.14879	0.16178	0.36552	0.10338	0.22887	0.19863	0.2437	0.15892	0.22735	-2.2167	-2.7167	-3.1167	-2.7313	-2.7771	-3.0771	-2.6083	-3.1896	-2.8583	-2.6646	-3.0917	-2.4646	-2.8708	-2.7646	-2.4854	-3.1542	305.080	177.065	411.564	410.512	295.426	234.419	215.209	444.358	313.855	172.170	215.530	324.851	286.069	200.756	232.277	306.153	0.00023634	0.00016918	5.8205e-05	184.71	1.2433e-06	1.546e-06	335.35	65.376	1.5749e-06	2.5804e-06	112.92	52.947	26.092	12.034	2.3897e-06	25.603	0.00019034	3.9509e-05	4.6075e-06	186.91	2.9044e-07	4.9244e-08	338.46	66.608	4.2104e-07	4.6046e-07	114.17	53.989	26.521	12.393	6.532e-07	26.141	229.020	173.519	185.151	100.721	258.956	249.727	100.018	106.103	283.067	228.544	102.711	108.302	110.422	114.991	240.482	111.420	-8191	255	
1611.072	1	1	0	0	0.21583	0.18856	0.22288	0.21918	0.059557	0.14849	0.30573	0.11007	0.2265	0.11471	0.14513	0.23604	0.073442	0.15106	0.25398	0.10933	-2.2062	-2.5729	-2.9979	-2.5292	-3.0292	-3.0208	-2.475	-3.1417	-2.7854	-2.4021	-3.0229	-2.7125	-2.8542	-2.9104	-2.7458	-2.9667	198.588	116.004	113.208	447.148	286.185	157.008	364.049	282.510	212.791	219.674	337.039	425.533	124.097	114.758	133.907	381.648	0.00021942	0.00024616	6.3339e-05	184.96	1.6479e-06	2.1909e-06	336.66	65.801	1.2742e-06	2.1123e-06	112.73	52.407	26.157	11.997	1.5179e-06	25.467	0.00017878	4.6582e-05	3.5708e-06	186.16	3.7406e-07	1.8277e-07	338.38	66.506	3.5759e-07	2.1981e-07	113.65	53.489	26.527	12.355	4.8544e-07	25.942	226.948	162.982	188.916	100.591	243.243	233.533	99.695	105.950	244.434	234.089	102.701	108.429	110.316	115.045	251.275	111.121	-8191	255	
1611.169	1	1	0	0	0.2029	0.051811	0.053561	0.21403	0.06148	0.17009	0.22399	0.19726	0.24603	0.1965	0.089208	0.15104	0.22546	0.23948	0.17917	0.18438	-2.3688	-2.7104	-3.2333	-2.7521	-2.7375	-2.9979	-2.5833	-2.8896	-2.8854	-2.7125	-3.0333	-2.8354	-2.6771	-3.0187	-2.6458	-2.9021	362.913	106.112	440.148	373.939	121.499	170.157	139.133	331.333	218.338	251.685	346.715	174.872	434.351	376.288	204.403	240.980	0.00023667	0.00015547	6.5029e-05	184.81	2.3076e-06	2.0075e-06	335.59	65.957	1.2201e-06	2.3873e-06	112.43	52.647	26.128	11.978	2.1041e-06	25.4	0.00018924	3.6908e-05	1.244e-06	186.67	3.8526e-07	2.1402e-07	338.39	66.567	3.6913e-07	3.8277e-07	113.98	53.57	26.502	12.344	6.3537e-07	26.034	226.372	158.941	177.230	100.658	253.725	233.401	99.368	105.780	244.685	235.215	102.810	108.386	110.670	114.520	261.150	111.412	-8191	255	
1611.265	1	1	0	0	0.11321	0.21023	0.19365	0.1873	0.21664	0.30228	0.15353	0.26174	0.18455	0.030185	0.29336	0.13365	0.28681	0.12261	0.10365	0.22146	-2.7542	-2.575	-2.9896	-2.875	-2.4875	-3.0312	-2.7854	-2.9229	-2.7521	-2.7604	-2.9979	-2.8917	-2.7938	-3.0875	-2.7875	-2.8688	117.025	187.859	325.757	188.541	279.829	216.016	386.342	321.583	321.484	121.841	168.163	216.975	377.600	196.389	171.824	102.802	0.00022865	0.00020472	4.2778e-05	186.7	1.654e-06	1.2894e-06	334.63	65.813	1.352e-06	1.9889e-06	112.22	53.004	26.266	12.054	1.9395e-06	25.651	0.00017932	3.9834e-05	6.3123e-06	187.49	3.3747e-07	1.8656e-07	338.34	66.668	4.0806e-07	3.714e-07	114.09	53.865	26.61	12.394	4.9273e-07	26.214	226.964	176.000	184.556	100.612	243.309	231.441	99.704	106.027	275.442	224.610	102.698	108.506	110.141	114.740	250.828	111.402	-8191	255	
1611.361	1	1	0	0	0.058535	0.090764	0.23068	0.20742	0.13031	0.18737	0.092772	0.17885	0.052284	0.25324	0.20375	0.19927	0.16179	0.30435	0.21304	0.37569	-2.5104	-2.6667	-2.9333	-2.7708	-2.7542	-3.1458	-2.6437	-2.7375	-3.1625	-2.6146	-3.0271	-2.7875	-2.5854	-2.9938	-2.5708	-3.0604	309.485	222.800	351.682	440.376	274.391	386.559	93.048	96.203	348.424	187.650	191.255	422.187	291.465	274.848	204.658	371.819	0.00023459	0.00015584	6.2612e-05	185.35	2.2312e-06	1.4997e-06	337.29	65.705	1.4603e-06	1.4499e-06	112.61	52.873	26.275	12.125	2.2296e-06	25.638	0.00018793	3.7558e-05	6.1741e-06	187.54	4.4573e-07	6.5343e-08	339.86	66.648	4.2464e-07	3.515e-07	114.63	53.862	26.673	12.407	6.5644e-07	26.153	224.995	184.545	161.309	100.463	240.031	235.043	99.659	106.397	259.394	222.476	102.701	108.243	110.178	114.599	241.951	111.136	-8191	255	
1611.457	1	1	0	0	0.06841	0.27731	0.15181	0.05831	0.29646	0.15795	0.15182	0.068037	0.16681	0.087585	0.18947	0.19336	0.15546	0.30324	0.11602	0.2576	-2.3312	-2.525	-2.9521	-2.8333	-2.6146	-3.1771	-2.7083	-2.7271	-2.8458	-2.5229	-2.8417	-3	-2.3604	-2.9417	-2.8542	-2.7167	137.276	141.866	370.246	324.651	168.633	231.973	409.465	402.864	249.309	326.015	255.540	154.233	257.701	439.636	337.773	414.867	0.00024226	0.00024966	5.1929e-05	186.93	1.3235e-06	1.835e-06	336.41	65.678	1.5329e-06	2.1873e-06	112.95	52.444	26.17	12.043	2.2064e-06	25.401	0.00018921	5.4548e-05	7.8788e-06	187.58	4.6216e-07	8.0495e-08	339.06	66.496	3.8787e-07	5.2015e-07	114.24	53.646	26.544	12.338	5.5027e-07	25.984	226.029	167.240	185.998	100.963	248.956	261.435	99.978	106.098	245.626	248.015	102.500	108.111	110.219	114.310	244.157	111.136	-8191	255	
1611.576	1	1	0	0	0.3103	0.1464	0.086617	0.047505	0.14596	0.085788	0.17223	0.35272	0.057177	0.046858	0.057901	0.24346	0.33191	0.12177	0.083619	0.23978	-2.5958	-2.5771	-2.7792	-3.0646	-2.7083	-3.0354	-3.0083	-2.6208	-2.9958	-2.7354	-2.8312	-3.1458	-2.6979	-2.9396	-3.0229	-2.6896	368.731	326.985	405.331	360.855	427.276	115.096	427.711	264.892	311.638	283.576	441.342	199.322	351.155	447.692	278.329	367.529	0.00022851	0.00018151	6.0157e-05	185.63	1.3137e-06	1.5717e-06	337.02	65.645	1.1981e-06	1.4612e-06	112.7	52.703	26.019	12.086	1.6831e-06	25.721	0.00017489	4.3818e-05	9.6527e-06	186.93	5.2861e-07	8.9965e-08	338.41	66.522	3.0785e-07	1.9707e-07	114.11	53.778	26.483	12.38	4.4978e-07	26.205	225.179	178.967	158.459	100.360	260.795	237.238	99.561	105.756	248.868	253.124	102.593	108.055	110.098	114.926	261.927	111.102	-8191	255	
1611.672	1	1	0	0	0.053684	0.079943	0.13344	0.27825	0.11841	0.20928	0.14146	0.22013	0.17493	0.071236	0.072228	0.17996	0.021256	0.081945	0.2329	0.31894	-2.7271	-2.7708	-2.5667	-2.9167	-2.525	-2.975	-2.9667	-2.5167	-3.1854	-2.5521	-2.6875	-3.0646	-2.5875	-2.9229	-3.0979	-2.5687	129.406	188.363	367.689	132.451	163.229	431.763	394.774	415.372	386.905	98.323	421.400	350.680	429.587	110.346	171.276	99.869	0.00022968	0.00016903	6.3595e-05	186.68	1.7187e-06	1.9195e-06	336.86	65.596	1.6483e-06	2.0033e-06	113.39	52.958	26.169	12.055	2.8169e-06	25.629	0.00018499	2.7803e-05	1.0735e-05	187.36	4.4573e-07	1.7235e-07	339.34	66.588	3.2299e-07	2.8423e-07	114.53	53.966	26.608	12.378	3.9548e-07	26.311	226.061	169.532	171.562	100.327	237.970	249.167	99.685	105.620	253.005	233.739	102.571	108.300	110.240	114.776	247.758	111.000	-8191	255	
1611.768	1	1	0	0	0.1431	0.0524	0.30783	0.045534	0.31244	0.2236	0.28586	0.054622	0.13955	0.29956	0.14486	0.19146	0.15373	0.057954	0.15401	0.2153	-2.6292	-2.85	-2.6104	-3.3333	-2.6458	-2.85	-2.9771	-2.4875	-3.1479	-2.8979	-2.6	-3.2229	-2.4354	-2.7354	-3.0625	-2.5292	335.396	198.143	239.911	310.599	321.288	174.916	146.809	361.696	426.205	146.336	300.198	402.764	432.695	238.928	93.034	104.459	0.00023263	0.00016054	3.0337e-05	185.66	2.2048e-06	2.5772e-06	337.77	65.662	1.295e-06	1.6157e-06	113.97	52.833	26.011	12.039	2.2154e-06	25.871	0.00018169	3.138e-05	8.7773e-06	187.58	5.2786e-07	1.7993e-07	339.75	66.677	2.8766e-07	2.0749e-07	115	54.04	26.546	12.382	4.4087e-07	26.304	229.296	178.822	193.861	100.745	249.165	232.940	99.628	105.513	245.086	240.131	102.339	108.510	110.091	114.968	248.093	111.268	-8191	255	
1611.864	1	1	0	0	0.098589	0.19037	0.17793	0.39134	0.25355	0.23133	0.082015	0.065616	0.22395	0.16959	0.20139	0.24764	0.15173	0.026282	0.19226	0.055411	-2.5729	-2.8146	-2.4458	-3.2083	-2.7229	-2.8646	-2.8396	-2.7208	-2.9833	-2.9313	-2.4417	-3.1271	-2.7271	-2.7062	-3.0917	-2.65	260.197	124.952	444.138	424.036	97.411	238.572	435.131	353.518	233.324	91.328	234.508	187.954	249.243	157.404	103.981	188.168	0.00023828	0.00016606	6.1357e-05	186.89	1.5591e-06	1.633e-06	335.21	65.64	1.585e-06	1.9895e-06	113.08	52.724	26.168	12.021	1.6692e-06	25.612	0.00018817	3.2111e-05	1.2717e-05	186.82	4.3677e-07	2.4622e-07	338.5	66.612	3.8283e-07	1.478e-07	114.38	53.788	26.537	12.343	2.9094e-07	26.208	226.138	182.049	176.565	100.334	264.184	254.416	99.614	105.563	249.261	226.796	102.399	108.347	110.335	114.657	262.848	111.278	-8191	255	
1611.959	1	1	0	0	0.11605	0.049726	0.15571	0.21047	0.0944	0.050867	0.034056	0.36955	0.18634	0.11397	0.08024	0.23173	0.053503	0.25249	0.16433	0.30918	-2.3708	-2.8125	-2.6625	-3.0208	-2.7167	-2.8833	-3.1042	-2.7687	-2.8896	-3.075	-2.7375	-2.9188	-2.6646	-2.7479	-2.9583	-2.5917	304.256	271.094	327.251	310.734	299.693	303.912	100.394	91.626	420.817	301.200	183.449	415.278	132.872	163.273	288.949	410.150	0.0002309	0.00018116	6.0719e-05	187.5	1.6684e-06	2.1059e-06	337.35	65.6	1.7436e-06	2.3074e-06	113.58	52.477	26.07	12.061	1.6252e-06	25.688	0.00018223	1.8291e-05	9.2841e-06	188.07	5.5325e-07	3.4471e-07	340.12	66.627	4.1167e-07	1.3643e-07	114.56	53.848	26.543	12.354	4.3033e-07	26.232	227.090	165.897	174.485	100.751	242.842	231.969	99.858	106.437	261.489	236.242	102.472	108.482	110.339	114.546	239.754	111.267	-8191	255	
1612.079	1	1	0	0	0.092977	0.1936	0.091375	0.089414	0.23089	0.22434	0.15256	0.13181	0.14519	0.27451	0.22247	0.25172	0.10206	0.26207	0.165	0.24003	-2.6708	-2.8667	-2.3625	-3.1542	-2.8812	-2.8854	-3.1917	-3.0854	-2.8833	-2.9042	-2.5687	-2.9	-2.8229	-2.6917	-3.0125	-2.6354	90.176	309.957	378.461	390.529	350.139	413.214	92.757	281.220	328.240	280.453	280.678	361.165	308.995	99.504	257.687	310.313	0.00023456	0.00020289	5.8697e-05	185.78	1.6153e-06	2.0716e-06	335.61	65.579	1.3386e-06	2.5225e-06	113.52	52.907	26.007	12.056	2.2944e-06	25.617	0.00018989	1.9917e-05	1.4583e-05	187.25	2.4937e-07	3.3997e-07	340.22	66.459	4.953e-07	9.0955e-08	114.48	54.101	26.485	12.348	4.5221e-07	26.346	227.219	174.300	184.714	100.674	258.114	226.471	99.674	105.883	251.864	257.346	102.144	108.476	110.678	114.776	252.904	111.449	-8191	255	
1612.175	1	1	0	0	0.29235	0.22585	0.19359	0.24765	0.077063	0.24775	0.22087	0.21423	0.13248	0.16257	0.31592	0.15074	0.16976	0.26913	0.10931	0.25344	-2.3625	-2.8521	-2.5438	-3.0375	-2.9917	-2.7812	-2.95	-2.7146	-2.5771	-3.2083	-2.6833	-2.8312	-2.7583	-2.4792	-3.1375	-2.9104	306.573	406.396	88.553	124.047	330.237	346.635	90.864	113.715	96.555	239.033	150.507	187.298	306.702	444.126	134.301	342.504	0.00022607	0.00020791	6.3367e-05	186.49	2.0709e-06	1.719e-06	338	65.211	1.4995e-06	1.8347e-06	113.18	52.913	25.995	11.988	2.3969e-06	25.824	0.00018243	2.7721e-05	1.168e-05	187.51	2.5908e-07	2.8126e-07	339.93	66.355	4.6213e-07	1.3643e-07	114.66	54.071	26.531	12.36	3.9062e-07	26.341	226.540	152.014	179.681	100.705	254.972	231.224	99.592	106.169	255.098	236.619	102.531	108.384	110.017	115.124	257.694	111.366	-8191	255	
1612.272	1	1	0	0	0.19287	0.1469	0.50354	0.24114	0.14686	0.10117	0.21967	0.093577	0.11095	0.086778	0.25246	0.14676	0.13926	0.21264	0.03196	0.20174	-2.3354	-3.0583	-2.4521	-2.9958	-2.9208	-2.5875	-3.075	-2.8521	-2.6813	-3.0438	-2.6063	-2.9729	-3.0042	-2.4292	-2.8854	-2.6917	260.503	146.946	408.504	441.672	99.096	128.357	335.946	285.761	105.248	240.874	316.090	108.890	151.253	440.524	253.232	110.839	0.00022742	0.00024993	5.029e-05	187.88	1.6215e-06	1.9552e-06	336.51	65.664	1.61e-06	1.4121e-06	112.81	52.484	26.024	11.971	1.7582e-06	25.672	0.00018282	1.8616e-05	1.0459e-05	187.72	2.9566e-07	3.769e-07	339.42	66.423	5.1476e-07	9.664e-08	114.4	53.691	26.396	12.287	3.7198e-07	26.138	226.672	190.490	171.635	100.993	238.867	242.152	100.003	106.196	275.079	231.834	102.040	108.309	110.098	114.214	271.475	111.253	-8191	255	
1612.368	1	1	0	0	0.22955	0.019811	0.16327	0.25844	0.17804	0.098508	0.22476	0.056046	0.31993	0.19952	0.23665	0.095606	0.27424	0.085183	0.15985	0.26035	-2.1583	-2.9667	-2.5417	-2.8417	-3.2021	-2.5396	-2.9854	-2.8458	-2.6667	-3.0812	-2.7958	-2.8125	-3.0229	-2.5021	-2.9604	-2.7729	241.542	123.681	230.864	114.015	261.124	231.247	171.046	419.566	423.431	256.926	364.537	101.366	323.839	114.297	132.852	335.834	0.00023045	0.00019201	3.6143e-05	186.45	1.9019e-06	2.171e-06	335.72	65.079	1.1864e-06	1.8221e-06	113.12	52.941	25.692	11.915	1.5399e-06	25.639	0.00019212	1.9023e-05	8.6391e-06	187.61	2.9492e-07	5.3979e-07	339.12	66.29	4.9313e-07	1.3738e-07	114.32	53.823	26.346	12.261	4.4249e-07	26.174	227.719	179.706	167.618	100.715	262.439	237.432	99.634	105.968	271.960	231.743	102.564	108.199	110.613	114.755	256.035	111.090	-8191	255	
1612.464	1	1	0	0	0.29855	0.32905	0.020902	0.26887	0.10963	0.24469	0.30922	0.18372	0.12773	0.20709	0.19416	0.10301	0.27351	0.16771	0.093523	0.21674	-2.2292	-2.9083	-2.8187	-2.5458	-3.0021	-2.5104	-2.9271	-2.9521	-2.5938	-3.0667	-2.9729	-2.6063	-2.9458	-2.6458	-2.8958	-3.0042	303.520	278.696	343.194	236.265	368.417	428.000	203.492	426.457	382.760	328.159	160.619	441.403	351.276	355.330	179.642	430.971	0.00024265	0.00022561	5.9714e-05	184.44	1.3623e-06	1.7877e-06	335.79	65.129	1.2828e-06	1.7454e-06	113.22	53.31	26.083	12.015	1.7773e-06	25.589	0.00020326	1.7722e-05	7.5102e-06	187.03	2.1055e-07	2.822e-07	339.78	66.245	4.542e-07	6.7269e-08	114.65	54.05	26.449	12.269	4.4978e-07	26.294	225.622	171.337	181.154	100.518	266.132	234.105	99.629	106.204	240.823	232.357	102.436	108.204	110.061	114.407	250.093	111.088	-8191	255	
1612.560	1	1	0	0	0.056103	0.23847	0.066913	0.26537	0.082131	0.061284	0.10753	0.10628	0.072992	0.22719	0.093327	0.10924	0.084372	0.14099	0.15828	0.35554	-1.9917	-3.0687	-2.8333	-2.5854	-3.0604	-2.7792	-2.7417	-2.9437	-2.5896	-3.0021	-2.9875	-2.7417	-2.8583	-2.8063	-2.6417	-3.0167	380.090	351.591	290.240	172.678	348.712	415.971	438.509	221.905	165.220	378.121	303.468	206.357	248.448	122.449	190.428	378.002	0.00022278	0.00018498	5.8821e-05	185.8	1.7276e-06	1.5781e-06	337.48	65.818	1.6007e-06	1.6534e-06	113.51	52.725	26.126	12.014	1.5907e-06	25.607	0.0001923	2.1299e-05	8.5469e-06	187.14	3.315e-07	1.8656e-07	339.81	66.533	5.1116e-07	1.6675e-07	114.93	53.988	26.471	12.295	4.6356e-07	26.218	227.575	167.741	168.790	100.763	235.460	221.638	99.671	105.972	253.530	234.598	102.438	108.469	110.185	114.823	256.629	111.348	-8191	255	
1612.656	1	1	0	0	0.2118	0.13406	0.12758	0.27129	0.12832	0.18531	0.16506	0.06587	0.089025	0.12434	0.20595	0.052571	0.11845	0.14315	0.13063	0.18804	-2.1167	-2.7938	-2.8812	-2.7375	-2.7875	-2.7104	-2.9271	-2.9417	-2.6646	-3.0875	-2.8458	-2.4833	-3.0542	-2.6604	-2.7542	-3.0771	254.273	207.033	391.143	142.569	364.311	386.542	386.298	143.098	364.865	322.593	439.166	395.314	284.102	193.976	278.140	403.110	0.00024491	0.00021171	5.1749e-05	184.5	1.6485e-06	1.5514e-06	336.01	65.277	1.5149e-06	1.6107e-06	113.12	52.824	26.057	11.909	1.8435e-06	25.614	0.00020041	2.1137e-05	7.1186e-06	186.74	3.2851e-07	4.1478e-07	338.45	66.159	5.436e-07	8.2428e-08	114.09	53.792	26.417	12.265	5.6324e-07	26.102	226.427	151.883	174.916	100.656	246.478	205.060	99.584	105.970	264.459	256.448	102.540	108.305	110.257	114.546	251.312	111.294	-8191	255	
1612.752	1	1	0	0	0.16215	0.25865	0.11612	0.21224	0.094808	0.24833	0.30442	0.23754	0.14841	0.11724	0.10032	0.28993	0.15674	0.098806	0.13072	0.20541	-2.2583	-2.9125	-2.6813	-2.5542	-2.9875	-2.8708	-2.4479	-3.2375	-2.6937	-2.9021	-2.9771	-2.6188	-3.0292	-2.6562	-2.7646	-3.0208	131.103	274.797	344.341	110.228	312.913	359.042	305.523	145.106	317.563	140.097	268.656	174.372	363.038	243.502	197.072	296.819	0.00022404	0.00018834	5.4843e-05	184.04	1.7879e-06	2.1839e-06	336.49	65.023	1.1444e-06	1.3817e-06	113.04	52.748	25.851	11.995	1.6304e-06	25.668	0.00018618	2.1624e-05	1.0805e-05	186.31	2.4191e-07	2.8789e-07	338.39	66.017	4.643e-07	5.9689e-08	114.14	53.83	26.283	12.273	5.6648e-07	26.14	224.767	161.970	178.911	100.679	245.737	237.358	99.647	106.099	265.019	268.017	102.366	108.782	110.471	114.556	261.290	111.278	-8191	255	
1612.871	1	1	0	0	0.26866	0.22527	0.043068	0.0506	0.11128	0.081193	0.30425	0.10667	0.21836	0.091681	0.15384	0.17022	0.10384	0.13136	0.21221	0.22371	-2.3021	-2.725	-3.0833	-2.6312	-2.8125	-2.9875	-2.6667	-3.1542	-2.8083	-2.7646	-3.1063	-2.5812	-2.8125	-2.9646	-2.6437	-2.9729	445.848	400.416	359.547	367.503	402.818	168.600	186.914	337.207	346.953	133.714	162.570	426.439	381.718	225.972	321.209	346.739	0.00022122	0.00020721	3.9427e-05	184.26	1.8702e-06	1.8326e-06	334.66	65.498	1.2964e-06	2.0646e-06	113.38	53.055	26.057	11.957	2.3096e-06	25.741	0.0001811	2.8941e-05	6.3123e-06	186.06	2.5385e-07	2.3675e-08	337.58	66.313	4.2248e-07	3.7424e-07	114.32	53.985	26.417	12.282	5.5514e-07	26.337	226.568	181.239	167.144	100.309	263.366	259.699	99.680	105.771	264.537	251.083	102.598	108.334	110.700	114.824	261.014	111.175	-8191	255	
1612.967	1	1	0	0	0.25801	0.065933	0.20497	0.12317	0.21795	0.30427	0.1341	0.23079	0.13898	0.17069	0.050027	0.16883	0.28916	0.10661	0.26004	0.10765	-2.3937	-2.6646	-2.8354	-2.65	-2.9208	-2.8604	-2.7375	-3.0104	-2.7167	-2.9146	-2.9875	-2.8083	-2.9708	-2.9771	-2.4646	-3.0479	429.784	293.066	186.942	328.660	215.804	389.982	310.308	338.637	274.945	331.446	404.099	144.458	412.372	375.623	332.692	203.472	0.00023679	0.00014361	4.307e-05	184.66	1.2963e-06	1.599e-06	336.28	64.958	1.4923e-06	2.2592e-06	113.13	53.176	25.975	11.913	2.0229e-06	25.817	0.000189	2.9103e-05	4.6997e-06	185.76	2.5684e-07	1.6762e-07	337.96	66.098	3.2515e-07	2.0939e-07	114.62	54.151	26.443	12.282	5.6486e-07	26.298	226.855	180.992	164.085	101.037	271.382	248.786	99.970	106.038	258.660	227.933	102.814	108.369	110.352	114.166	246.387	111.008	-8191	255	
1613.064	1	1	0	0	0.13752	0.26136	0.111	0.079408	0.05073	0.0424	0.21742	0.051496	0.22166	0.070844	0.20772	0.28086	0.088763	0.020686	0.035841	0.13632	-2.3187	-2.5542	-3.0396	-2.7479	-2.8792	-2.8667	-2.5625	-3.0563	-2.7896	-2.65	-3.3208	-2.8083	-2.8146	-2.775	-2.4396	-2.9542	315.581	218.747	184.192	248.553	402.214	262.373	247.993	155.869	272.908	277.369	233.595	444.571	372.066	271.959	114.898	351.380	0.00022817	0.00020165	5.9774e-05	184.98	1.3485e-06	2.1038e-06	335.65	65.465	1.3104e-06	1.5306e-06	112.63	52.705	25.882	11.863	1.4768e-06	25.591	0.00018261	4.6338e-05	6.773e-06	185.94	3.8526e-07	5.3979e-08	337.97	66.176	4.7583e-07	3.2971e-07	114.2	53.857	26.303	12.226	5.8107e-07	26.151	227.740	169.264	163.642	100.929	232.011	224.647	99.741	106.058	254.907	234.244	102.198	108.366	110.413	114.597	248.807	111.434	-8191	255	
1613.160	1	1	0	0	0.065884	0.065391	0.32005	0.24117	0.10065	0.38715	0.18154	0.14627	0.16496	0.19791	0.12219	0.2249	0.15398	0.12196	0.15443	0.18005	-2.4771	-2.5875	-2.9875	-2.7292	-2.8438	-3.0979	-2.575	-2.9854	-2.8625	-2.5542	-2.9688	-2.7521	-2.8812	-2.9688	-2.5646	-3.175	328.372	374.783	272.605	308.855	308.484	308.902	105.840	112.608	92.643	312.501	407.254	245.517	92.660	101.019	180.031	211.551	0.00024231	0.00019686	6.8678e-05	184.72	1.5635e-06	2.3497e-06	334.97	64.743	1.4186e-06	1.8765e-06	112.65	52.701	25.862	11.868	1.8558e-06	25.523	0.000192	4.3411e-05	5.8746e-06	185.23	4.8008e-07	1.0606e-07	337.09	65.935	2.8189e-07	2.8423e-07	113.84	53.681	26.268	12.193	6.2889e-07	26.155	227.391	164.415	173.865	100.184	248.999	250.487	99.744	105.742	252.720	237.525	102.542	108.142	110.054	114.703	251.250	111.027	-8191	255	
1613.256	1	1	0	0	0.19959	0.23408	0.15016	0.20114	0.26911	0.064449	0.2461	0.44007	0.18874	0.058279	0.12854	0.37816	0.076038	0.11278	0.10836	0.26304	-2.5812	-2.4625	-3.0208	-2.6625	-2.6646	-3.0396	-2.5875	-2.9417	-3.0042	-2.7146	-2.875	-2.85	-2.8021	-3.0542	-2.5229	-2.75	358.736	380.770	284.553	335.021	145.794	130.047	279.871	367.820	368.028	193.729	373.579	442.067	424.940	231.271	193.243	352.759	0.00024862	0.00011196	6.1409e-05	184.07	2.1209e-06	1.6645e-06	334.77	65.026	1.4676e-06	1.9158e-06	112.4	52.849	25.591	11.913	1.8368e-06	25.604	0.00018962	3.9916e-05	3.8242e-06	185.34	4.4424e-07	-1.4773e-07	337.86	66.086	3.439e-07	4.0077e-07	113.88	53.941	26.226	12.209	5.7216e-07	26.247	225.623	169.369	166.662	100.636	238.877	261.433	99.899	105.966	255.445	240.651	102.349	108.432	110.287	114.645	249.824	111.493	-8191	255	
1613.352	1	1	0	0	0.10193	0.17408	0.13957	0.18624	0.079946	0.13664	0.17189	0.12168	0.14519	0.35147	0.28702	0.16308	0.067246	0.18259	0.29517	0.094518	-2.55	-2.6188	-2.8646	-2.7188	-2.6771	-2.9167	-2.6708	-2.875	-3.0104	-2.5167	-2.7812	-2.9125	-2.6271	-2.7062	-2.7625	-2.8042	144.152	232.495	272.506	440.262	295.680	264.952	324.613	271.815	275.587	256.127	179.361	446.111	183.862	91.562	250.048	261.818	0.00024301	0.00013394	4.5603e-05	182.79	1.8355e-06	1.2526e-06	336.23	65.102	1.7563e-06	1.7498e-06	112.67	53.079	25.947	12.003	1.8606e-06	25.922	0.00018855	4.4956e-05	4.1237e-06	185.32	4.6365e-07	7.7654e-08	338.34	65.98	3.5111e-07	3.7898e-07	114.53	54.156	26.34	12.263	4.4087e-07	26.367	228.009	175.248	177.197	100.528	240.054	225.169	99.555	105.690	257.176	217.191	102.548	108.876	110.367	114.707	243.163	111.476	-8191	255	
1613.448	1	1	0	0	0.20996	0.25011	0.099377	0.17982	0.2232	0.24302	0.11364	0.043588	0.03673	0.092788	0.21271	0.13714	0.17883	0.16635	0.14126	0.09197	-2.5458	-2.3375	-2.9479	-2.8771	-2.5292	-3.1542	-2.5208	-2.6604	-3.1917	-2.7917	-2.9646	-2.7625	-2.5312	-3.1562	-2.8417	-2.7333	420.156	382.396	442.525	182.998	334.455	299.358	375.705	393.092	184.631	286.669	441.706	357.853	436.501	285.760	261.089	337.929	0.00023306	0.000224	5.3583e-05	183.45	2.0353e-06	1.6283e-06	332.71	64.607	1.6049e-06	2.3267e-06	112.22	52.799	25.749	11.682	1.4034e-06	25.386	0.00018475	4.4956e-05	4.6997e-06	185.02	4.7784e-07	3.1251e-08	336.81	65.777	2.0764e-07	2.3212e-07	113.84	53.736	26.214	12.126	4.125e-07	26.133	225.945	180.976	172.705	100.824	237.132	230.163	99.712	105.808	256.050	223.081	102.836	108.538	110.352	114.738	251.313	111.367	-8191	255	
1613.569	1	1	0	0	0.32633	0.097002	0.13943	0.1464	0.111	0.1124	0.16721	0.084972	0.094341	0.096374	0.18219	0.07019	0.038871	0.30713	0.056638	0.20124	-2.5167	-2.7208	-2.8083	-2.9167	-2.6917	-2.95	-2.6958	-2.7771	-2.9292	-2.6417	-2.825	-3.0438	-2.4333	-2.8708	-2.9562	-2.5604	337.118	293.344	210.791	93.639	339.429	116.182	319.639	113.725	113.271	243.943	311.549	220.055	224.983	325.154	291.491	436.503	0.00024014	0.00016147	5.1252e-05	181.84	2.1224e-06	1.4629e-06	336.41	64.915	1.09e-06	1.8592e-06	112.41	52.658	25.789	11.816	1.8483e-06	25.642	0.00018636	3.455e-05	8.5239e-06	184.28	5.8013e-07	4.5456e-08	338.08	65.91	2.0691e-07	3.136e-07	113.85	53.788	26.25	12.174	3.809e-07	26.201	226.617	164.263	176.822	100.929	266.466	247.239	99.797	105.958	241.502	247.034	102.632	108.320	110.102	114.608	246.170	111.078	-8191	255	
1613.665	1	1	0	0	0.081637	0.31662	0.042067	0.12807	0.16248	0.11568	0.22214	0.17125	0.099297	0.076646	0.16933	0.22088	0.25593	0.089363	0.1119	0.13444	-2.6146	-2.975	-2.7271	-2.8896	-2.4583	-3.0625	-2.7875	-2.4771	-3.1625	-2.5583	-2.9667	-3.0438	-2.5208	-2.9437	-2.8771	-2.525	420.303	443.144	369.550	384.090	430.071	191.844	96.195	275.142	358.537	400.017	272.457	325.950	335.236	117.862	386.814	358.202	0.00023468	0.00023895	7.143e-05	185.1	1.5268e-06	1.924e-06	336.66	64.521	1.0909e-06	1.7938e-06	112.8	53.075	25.725	11.769	2.7245e-06	25.688	0.00018089	4.8858e-05	1.0528e-05	185.32	4.9874e-07	2.3296e-07	338.98	65.805	3.5255e-07	4.1119e-07	114.33	53.937	26.245	12.164	5.2434e-07	26.263	228.337	174.106	168.576	100.131	261.118	225.407	99.999	105.883	264.504	233.799	102.634	108.157	110.586	114.741	256.955	111.457	-8191	255	
1613.761	1	1	0	0	0.034957	0.048389	0.13623	0.073717	0.091922	0.072418	0.043148	0.074206	0.092597	0.20604	0.074835	0.080069	0.016065	0.086149	0.18248	0.19895	-2.6521	-2.7625	-2.4854	-3.0479	-2.6896	-2.7417	-2.8812	-2.5542	-3	-2.7104	-2.7396	-3.1167	-2.5854	-2.8833	-3.0229	-2.5833	161.814	278.242	112.125	402.968	278.393	109.752	284.757	376.672	183.551	100.104	157.188	364.726	123.683	254.282	426.970	426.512	0.00025043	0.00017261	5.3003e-05	184.58	1.9297e-06	2.3944e-06	337.94	64.601	1.4621e-06	1.6181e-06	113.66	53.248	25.71	11.796	1.8317e-06	25.837	0.00019497	3.39e-05	1.3108e-05	185.38	4.8978e-07	2.4527e-07	339.2	65.894	4.4195e-07	1.6296e-07	114.85	54.225	26.332	12.187	3.4362e-07	26.367	225.964	174.957	159.849	100.718	253.218	226.730	99.397	105.951	260.110	226.140	102.392	108.258	109.847	114.943	257.652	110.919	-8191	255	
1613.857	1	1	0	0	0.12153	0.084821	0.17374	0.01824	0.020819	0.1889	0.11505	0.17603	0.01485	0.124	0.19524	0.080173	0.26557	0.16394	0.19923	0.20133	-2.4208	-2.8667	-2.4708	-3.0646	-2.7146	-2.7729	-2.8354	-2.5938	-3.0458	-2.9354	-2.5	-2.9938	-2.7083	-2.9625	-2.9917	-2.5208	413.026	410.300	324.783	392.462	293.955	399.319	200.675	343.149	374.792	94.155	424.183	400.875	443.930	113.625	166.961	260.914	0.00024406	0.0002035	4.8644e-05	183.77	1.6805e-06	1.6122e-06	338.25	64.887	1.195e-06	1.7149e-06	113.23	52.818	25.809	11.821	1.4248e-06	25.663	0.0001915	2.9672e-05	1.5205e-05	185.69	3.2179e-07	2.7463e-08	339.97	65.858	3.5976e-07	1.2033e-07	114.49	53.984	26.248	12.155	2.9418e-07	26.219	225.293	171.211	173.742	100.654	237.419	228.621	99.815	106.009	231.936	236.796	102.276	108.517	109.893	114.760	247.180	111.077	-8191	255	
1613.952	1	1	0	0	0.25271	0.083774	0.14886	0.11766	0.039118	0.14756	0.084501	0.37638	0.1703	0.10271	0.17288	0.21299	0.0091786	0.1489	0.094795	0.22863	-2.45	-2.9646	-2.55	-2.8458	-2.8896	-2.9854	-3.075	-2.3688	-2.8771	-3.0146	-2.7812	-3.0687	-2.9792	-2.8604	-3.3208	-2.6896	253.083	385.351	402.115	236.282	366.059	127.704	278.070	332.983	369.020	167.318	106.056	328.571	232.846	365.855	259.869	384.865	0.00023611	0.00019709	4.613e-05	183.86	1.7917e-06	2.1089e-06	336.23	64.938	1.5095e-06	2.2092e-06	112.78	52.785	25.723	11.736	1.9787e-06	25.545	0.00018237	3.0404e-05	1.2164e-05	185.39	4.2931e-07	1.591e-07	338.41	65.755	4.0446e-07	2.5392e-07	114.17	53.712	26.18	12.099	3.0958e-07	26.126	225.931	156.579	176.649	100.145	252.848	236.647	99.995	106.084	253.844	222.991	102.284	108.589	110.420	114.583	241.272	111.320	-8191	255	
1614.048	1	1	0	0	0.21729	0.044799	0.33587	0.14179	0.18079	0.065132	0.10242	0.057913	0.077488	0.084333	0.057244	0.028096	0.068582	0.078027	0.012602	0.24394	-2.4229	-3.0854	-2.5896	-3.2188	-2.9437	-2.6896	-3.1646	-2.6771	-2.9229	-2.9208	-2.6	-3.0021	-2.9333	-2.6521	-3.2188	-2.6396	432.202	376.145	262.532	179.876	215.492	354.860	223.994	140.189	301.332	357.772	424.473	293.130	395.348	115.315	286.131	417.822	0.00024632	0.00018957	5.602e-05	184.32	1.7652e-06	2.0096e-06	337.01	65.033	1.5022e-06	1.4988e-06	112.71	53.016	25.817	11.874	1.8211e-06	25.463	0.00019476	1.2682e-05	1.3177e-05	185.81	3.3523e-07	2.9452e-07	339.72	66.034	3.8787e-07	2.8423e-09	114.29	53.883	26.179	12.126	2.877e-07	26.139	227.613	163.370	168.517	100.448	246.742	255.098	99.810	105.774	255.144	232.458	102.433	108.638	110.210	114.782	249.460	111.475	-8191	255	
1614.146	1	1	0	0	0.043038	0.19288	0.253	0.14952	0.06867	0.17157	0.21297	0.1403	0.07179	0.21155	0.18375	0.11327	0.21836	0.41111	0.12526	0.21093	-2.2396	-2.9875	-2.6312	-2.8104	-2.9771	-2.95	-3.0187	-2.8146	-2.8979	-2.7687	-2.6021	-3.0542	-3.0062	-2.6729	-2.9479	-2.8292	129.161	308.287	332.121	434.690	312.375	155.191	297.783	407.424	154.580	121.036	167.802	368.578	329.366	337.292	203.832	199.233	0.00024291	0.00014499	5.5971e-05	184.63	1.9383e-06	2.5878e-06	337.57	64.899	9.0748e-07	2.1834e-06	112.84	53.313	25.863	11.812	1.8085e-06	25.798	0.00019369	7.3165e-06	1.062e-05	185.95	2.6878e-07	2.6611e-07	340.85	65.878	4.2176e-07	1.838e-07	114.5	54.024	26.202	12.13	2.6014e-07	26.305	227.196	153.179	169.553	100.691	250.255	249.050	99.562	105.989	259.961	244.761	102.052	108.584	109.958	114.796	246.510	111.397	-8191	255	
1614.265	1	1	0	0	0.1116	0.19557	0.1797	0.30018	0.15044	0.19832	0.094646	0.14314	0.069161	0.10322	0.14672	0.16056	0.12938	0.24233	0.15969	0.099315	-2.3583	-3.2708	-2.7604	-2.7646	-2.9083	-2.7146	-3.075	-2.6479	-2.7271	-3.0812	-2.6667	-2.9229	-2.9688	-2.4042	-2.9708	-2.9875	116.619	237.532	253.480	334.888	118.006	88.475	372.621	266.924	151.694	282.268	426.667	376.087	222.644	170.727	275.206	420.023	0.00022987	0.00023443	4.7935e-05	185.27	1.5093e-06	1.4075e-06	337.37	65.25	1.1553e-06	1.862e-06	113.48	52.849	25.877	11.875	2.0932e-06	25.619	0.00018609	2.0811e-05	7.6715e-06	186.88	3.0686e-07	3.324e-07	340.54	66.143	4.8304e-07	1.5159e-08	114.79	53.914	26.126	12.13	4.0359e-07	26.145	227.979	165.865	171.779	100.842	265.040	249.470	99.644	105.978	245.052	230.755	102.977	108.355	110.523	114.508	255.329	111.284	-8191	255	
1614.336	1	1	0	0	0.0199	0.14812	0.11849	0.12296	0.19016	0.25628	0.14053	0.11849	0.26977	0.26409	0.11621	0.11715	0.11174	0.29356	0.17072	0.075664	-2.3063	-2.85	-2.5979	-2.8688	-3.0604	-2.4938	-3.1625	-2.8688	-2.7125	-3.2542	-2.7875	-2.8604	-3.2	-2.5792	-3.0583	-3.0625	209.513	358.591	397.935	187.274	428.478	225.943	269.544	396.023	447.039	395.680	253.102	96.526	131.050	321.471	217.640	410.976	0.000228	0.00017673	4.4623e-05	184.44	1.5737e-06	1.9286e-06	336.93	64.952	1.6024e-06	1.647e-06	112.65	52.52	25.689	11.737	1.8583e-06	25.432	0.00019087	1.4877e-05	9.814e-06	185.95	2.0383e-07	3.6743e-07	339.87	65.884	6.3012e-07	1.2222e-07	113.99	53.621	26.085	12.048	4.4654e-07	26.045	226.251	173.379	173.401	101.037	266.187	242.172	99.993	105.929	259.627	252.003	102.955	108.117	109.995	114.985	253.269	111.298	-8191	255	
1614.432	1	1	0	0	0.29866	0.18273	0.041853	0.02562	0.16648	0.2198	0.29811	0.18291	0.25612	0.22807	0.25565	0.083727	0.16774	0.1494	0.13542	0.050768	-2.4979	-3.0625	-2.8375	-2.7687	-2.8958	-2.6729	-2.9083	-2.8021	-2.5062	-3.0604	-2.7896	-2.8875	-3.0542	-2.6229	-2.8312	-2.9875	248.816	174.541	309.900	367.741	107.002	148.151	104.055	379.774	191.359	297.411	388.809	376.237	231.212	128.228	217.003	118.371	0.0002279	0.00014982	5.5397e-05	184.16	1.7373e-06	1.9038e-06	335.96	65.319	1.5196e-06	2.341e-06	112.71	52.772	25.432	11.745	1.9818e-06	25.589	0.00018502	1.4796e-05	1.1242e-05	185.78	2.7998e-07	4.1952e-07	339.13	65.897	5.573e-07	4.3583e-08	114.07	53.669	26.01	12.06	4.2871e-07	26.143	226.194	173.642	173.444	100.397	244.331	243.591	99.781	105.865	259.567	246.291	102.439	108.421	109.880	114.775	250.216	111.330	-8191	255	
1614.529	1	1	0	0	0.22071	0.42765	0.13584	0.24974	0.15253	0.21904	0.12766	0.08551	0.18058	0.039145	0.11632	0.21473	0.058494	0.15426	0.21003	0.15264	-2.0771	-3.0833	-2.6021	-2.7979	-3.2729	-2.6104	-3.0292	-3.0271	-2.4938	-3.1958	-2.9833	-2.7104	-3.1833	-2.5833	-2.9167	-3.1271	269.363	208.289	355.817	342.742	285.656	151.562	420.888	126.744	232.847	273.317	202.669	176.405	256.911	348.696	175.669	93.355	0.00022594	0.0001958	5.4992e-05	183.85	1.5744e-06	2.1702e-06	338.57	64.519	1.097e-06	1.7248e-06	113.16	52.842	25.705	11.736	1.478e-06	25.698	0.00018701	3.2924e-05	9.2841e-06	185.13	1.6575e-07	3.1251e-07	339.86	65.694	5.3711e-07	6.6321e-09	114.3	53.995	26.096	12.067	5.3082e-07	26.242	228.097	171.681	169.555	100.686	260.143	249.346	99.561	105.839	271.723	237.540	102.531	108.198	110.210	114.521	254.914	111.491	-8191	255	
1614.649	1	1	0	0	0.26588	0.11426	0.15241	0.057332	0.12254	0.12668	0.13577	0.089409	0.020965	0.046644	0.17408	0.11263	0.071013	0.29201	0.095468	0.36471	-2.1562	-3.0625	-2.8208	-2.6333	-3.1292	-2.6771	-2.8438	-3.1229	-2.6917	-2.8792	-3.1063	-2.5375	-2.9313	-2.8146	-2.8354	-3.0771	264.506	224.716	377.076	383.567	174.830	307.255	324.259	403.901	408.595	162.122	199.675	327.296	350.608	188.945	430.141	412.129	0.00022887	0.00016592	5.5194e-05	183.01	2.1936e-06	1.9599e-06	338.81	65.56	1.0352e-06	1.468e-06	113.17	52.681	25.552	11.742	2.4107e-06	25.574	0.00018748	2.8778e-05	5.9206e-06	184.66	2.7102e-07	2.3201e-07	340.4	65.845	4.816e-07	2.6244e-07	114.27	53.9	26.04	12.059	4.6923e-07	26.119	226.390	190.570	155.396	100.199	261.466	237.517	99.500	105.961	244.771	236.063	102.648	108.308	110.254	114.324	251.285	111.244	-8191	255	
1614.745	1	1	0	0	0.029283	0.023824	0.16527	0.2186	0.12224	0.056979	0.09871	0.06677	0.094861	0.17288	0.11299	0.10608	0.11348	0.1929	0.35529	0.13049	-1.9813	-2.9604	-2.8354	-2.5062	-2.9917	-2.6604	-2.625	-3.0333	-2.6292	-3.0583	-3.0375	-2.525	-2.9521	-2.7771	-2.5563	-3.0792	205.748	91.790	310.367	108.447	160.113	419.541	400.425	219.964	341.721	97.835	342.516	189.533	293.069	305.315	280.659	268.927	0.00022615	0.00020909	4.39e-05	184.59	1.9221e-06	2.593e-06	336.96	65.087	1.8485e-06	1.4946e-06	111.95	52.517	25.882	11.804	2.1542e-06	25.331	0.0001909	2.8778e-05	4.9991e-06	185.09	2.8969e-07	2.1876e-07	337.89	65.787	5.1765e-07	1.6012e-07	113.81	53.679	26.079	12.029	5.0732e-07	25.989	226.057	182.370	176.990	100.739	250.697	243.534	99.838	105.962	260.243	222.000	102.723	108.390	110.064	114.551	253.190	111.106	-8191	255	
1614.841	1	1	0	0	0.12524	0.23557	0.17537	0.14154	0.15616	0.14155	0.14308	0.14178	0.1039	0.14135	0.14249	0.023436	0.098927	0.15409	0.15842	0.14649	-2.3354	-2.7771	-2.6813	-2.6813	-3.0729	-2.7	-2.6667	-3.2292	-2.6125	-2.7646	-3.0333	-2.4958	-2.9083	-2.8333	-2.6125	-2.9667	118.500	200.944	334.682	173.256	214.277	266.661	251.611	304.054	310.821	370.833	237.928	136.368	279.769	126.828	159.252	439.410	0.00023105	0.0001473	5.156e-05	183.87	1.5838e-06	1.6678e-06	336.91	64.359	1.4128e-06	1.9429e-06	112.83	52.461	25.576	11.757	2.0016e-06	25.61	0.0001879	2.2193e-05	5.1604e-06	184.62	2.5236e-07	2.1781e-07	338	65.606	5.2558e-07	2.4255e-07	113.89	53.736	25.991	11.997	4.6923e-07	26.098	224.145	180.142	179.073	100.641	254.473	239.806	99.620	105.903	254.112	234.862	102.503	108.445	109.988	114.821	252.492	111.471	-8191	255	
1614.960	1	1	0	0	0.29139	0.23762	0.22312	0.17342	0.22296	0.15666	0.26142	0.037117	0.25811	0.11279	0.21535	0.071364	0.15398	0.24986	0.043621	0.060154	-2.3479	-2.8396	-3.0104	-2.6417	-2.8438	-3.0458	-2.5417	-2.8458	-2.6375	-2.7125	-3.1917	-2.7042	-2.8187	-2.8708	-2.6479	-3.0771	223.633	188.466	200.937	96.408	272.293	99.538	386.496	191.670	90.548	179.139	340.596	156.282	318.241	392.922	181.227	234.559	0.00023555	0.00023025	5.2469e-05	183.67	2.1115e-06	1.1939e-06	338.48	64.515	1.616e-06	1.911e-06	112.39	52.572	25.533	11.767	1.5985e-06	25.639	0.00019022	4.0485e-05	1.4744e-06	185.25	2.9492e-07	7.4813e-08	339.66	65.665	5.4432e-07	2.8802e-07	114.37	53.919	26.019	12.062	6.4996e-07	26.178	224.683	180.778	165.201	100.612	262.078	248.460	99.488	105.736	249.858	222.357	102.604	108.229	110.130	114.784	249.959	111.148	-8191	255	
1615.032	1	1	0	0	0.16461	0.22773	0.23009	0.19265	0.071004	0.16117	0.075454	0.22395	0.11875	0.0075558	0.31903	0.10401	0.11012	0.061534	0.19637	0.25792	-2.4396	-2.6667	-3.0146	-2.6167	-2.7625	-3.1042	-2.7313	-2.9521	-2.5917	-2.6417	-3.1	-2.7313	-2.8625	-2.8875	-2.4375	-3.0938	95.174	92.285	349.683	192.338	260.884	359.026	94.158	258.998	422.538	144.007	281.479	100.821	228.290	225.974	321.704	96.814	0.00023387	0.00018377	4.0824e-05	184.49	2.094e-06	2.0427e-06	337.17	64.942	1.5207e-06	1.7774e-06	113.46	52.778	25.665	11.667	1.2526e-06	25.566	0.00018846	4.2761e-05	4.5845e-06	185.28	4.5843e-07	-1.894e-09	340.42	65.804	4.6358e-07	3.9603e-07	114.74	53.953	26.033	12.028	5.5757e-07	26.105	226.498	170.999	192.712	100.835	242.552	240.168	99.635	105.864	253.681	237.634	102.436	108.706	110.155	114.621	250.931	111.111	-8191	255	
1615.130	1	1	0	0	0.18801	0.2267	0.062012	0.1365	0.18757	0.098235	0.23692	0.30573	0.089294	0.069125	0.076239	0.23292	0.19706	0.043972	0.04374	0.14295	-2.5417	-2.6396	-2.9417	-2.6854	-2.9458	-3.0104	-2.5417	-3.0708	-2.7958	-2.4979	-3.1604	-2.8	-2.8125	-2.9771	-2.7167	-2.8958	426.434	201.394	170.999	245.778	419.018	288.710	87.561	150.760	154.298	106.224	263.757	329.163	368.362	266.720	375.594	412.682	0.00023834	0.00019407	4.5291e-05	183.6	1.8095e-06	2.0343e-06	334.93	64.557	1.3246e-06	2.3814e-06	112.16	52.329	25.494	11.618	2.0464e-06	25.251	0.00019185	3.6582e-05	6.3353e-06	185.9	3.8227e-07	1.2879e-07	337.78	65.623	3.7634e-07	5.9973e-07	113.65	53.51	25.954	11.927	5.7459e-07	25.908	225.091	163.895	183.147	100.915	262.647	241.049	99.529	105.242	250.767	228.506	102.744	108.411	110.763	114.585	254.443	110.881	-8191	255	
1615.249	1	1	0	0	0.30903	0.16572	0.13485	0.12289	0.15235	0.18308	0.18541	0.1147	0.20347	0.18826	0.086525	0.08637	0.10614	0.2536	0.10392	0.17121	-2.4979	-2.6292	-3.0021	-2.8063	-2.725	-3.1188	-2.6875	-2.6917	-3.0062	-2.7708	-3.1854	-2.8146	-2.7167	-3.0396	-2.4896	-2.9479	443.494	335.219	172.316	285.183	212.630	343.825	176.908	315.148	104.918	440.773	214.720	430.961	329.727	425.143	329.612	260.091	0.00023034	0.00021898	4.8831e-05	183.68	1.7846e-06	1.9107e-06	334.95	64.526	1.3005e-06	1.9281e-06	112.45	52.422	25.385	11.57	1.554e-06	25.488	0.00018255	3.6501e-05	2.3959e-06	184.66	3.763e-07	-7.0078e-08	338.38	65.42	2.7685e-07	2.7381e-07	113.6	53.455	25.842	11.975	5.7297e-07	25.985	227.440	177.575	178.994	100.917	244.376	248.867	99.489	105.831	257.020	218.239	102.429	108.473	110.527	114.634	244.343	111.292	-8191	255	
1615.345	1	1	0	0	0.16782	0.22411	0.11099	0.20015	0.036457	0.35713	0.1412	0.11168	0.053851	0.2894	0.25457	0.27896	0.137	0.060851	0.12944	0.074724	-2.6188	-2.525	-3.0333	-2.6896	-2.8917	-3.2062	-2.6292	-2.8146	-3.1833	-2.7542	-3.0812	-3.0271	-2.6771	-3.0979	-2.7625	-2.7583	350.033	264.928	400.644	413.560	310.988	194.688	230.196	320.460	418.071	332.324	383.443	434.394	444.164	198.775	408.809	297.593	0.00024306	0.00018308	4.3838e-05	183.85	1.8311e-06	1.9136e-06	335.36	64.381	1.5314e-06	1.7492e-06	112.26	52.551	25.539	11.638	1.431e-06	25.61	0.00019331	3.8615e-05	2.9488e-06	184.65	4.6888e-07	-2.4811e-07	337.79	65.466	2.6747e-07	2.5013e-07	113.64	53.65	25.964	11.972	3.9305e-07	26.088	227.468	170.314	184.436	100.700	245.674	222.507	99.638	105.945	260.249	243.273	102.553	108.351	110.523	114.370	244.886	111.279	-8191	255	
1615.441	1	1	0	0	0.20587	0.14697	0.23164	0.22457	0.10543	0.18824	0.10193	0.096886	0.090334	0.08472	0.0929	0.078879	0.18511	0.20801	0.36112	0.081207	-2.6583	-2.7667	-2.8354	-2.8979	-2.6063	-2.9229	-2.7021	-2.8521	-3.0229	-2.75	-3.0042	-2.8479	-2.5563	-3.3688	-2.7333	-2.6	168.343	191.445	370.460	341.512	271.913	167.384	408.399	398.480	398.296	240.492	306.521	174.864	102.185	158.304	432.624	136.099	0.00024637	0.00017946	7.1683e-05	182.81	1.7575e-06	2.1798e-06	332.49	64.108	1.2429e-06	1.7621e-06	112.71	52.642	25.634	11.705	1.6245e-06	25.706	0.00018936	4.5769e-05	9.0307e-06	184.15	3.5166e-07	2.3864e-07	337.09	65.429	3.7057e-07	3.1455e-07	113.86	53.646	25.997	11.993	4.2385e-07	26.062	226.319	171.674	183.101	100.945	248.399	217.837	100.078	106.421	248.084	213.168	102.942	108.976	110.102	114.481	254.158	111.265	-8191	255	
1615.562	1	1	0	0	0.22784	0.15059	0.099133	0.1796	0.28668	0.2484	0.24452	0.072135	0.12988	0.15987	0.21516	0.20779	0.15209	0.13595	0.11779	0.13301	-2.6708	-2.4896	-2.8021	-3.0229	-2.5792	-3.0271	-2.6875	-2.7583	-3.1271	-2.7208	-2.8958	-3.0458	-2.5875	-2.9521	-2.7229	-2.5771	384.135	121.224	290.687	128.317	327.323	303.886	393.031	164.351	235.907	167.153	95.362	405.425	267.645	375.574	92.071	228.639	0.00023279	0.00015662	6.006e-05	180.77	1.8818e-06	2.5813e-06	334.6	63.67	1.2281e-06	2.2249e-06	111.73	52.121	25.397	11.573	1.6543e-06	25.181	0.0001786	3.6826e-05	4.3771e-06	182.05	3.4121e-07	3.5986e-08	335	64.948	3.8211e-07	3.5813e-07	113.23	53.19	25.877	11.895	4.6761e-07	25.815	227.950	173.007	170.325	100.658	244.736	252.567	99.824	105.806	246.323	222.009	102.114	108.702	110.501	114.578	259.934	111.236	-8191	255	
1615.633	1	1	0	0	0.077718	0.07309	0.13731	0.15127	0.10619	0.065469	0.23502	0.17693	0.32762	0.078399	0.32272	0.14008	0.29239	0.25394	0.097237	0.10592	-2.475	-2.7021	-2.6604	-2.9896	-2.6271	-3.0062	-2.8271	-2.6271	-3.0583	-2.6021	-2.9562	-3.1021	-2.4771	-2.9375	-2.6792	-2.4188	132.161	337.135	378.222	224.278	249.901	155.948	317.727	314.946	314.908	108.246	375.681	120.932	435.903	152.252	208.763	386.600	0.00023586	0.00021299	5.0386e-05	181.27	1.9028e-06	2.528e-06	333.14	64.469	1.5937e-06	2.1299e-06	111.39	52.605	25.446	11.622	2.3063e-06	25.415	0.00018936	3.3656e-05	7.5333e-06	181.46	4.6589e-07	9.3753e-08	334.23	65.096	2.8694e-07	4.4056e-07	113.23	53.371	25.825	11.921	5.4298e-07	25.956	226.394	173.503	193.140	100.508	244.126	235.007	99.633	106.020	261.365	232.497	102.692	108.507	110.233	114.912	249.317	111.414	-8191	255	
1615.730	1	1	0	0	0.11988	0.19246	0.18652	0.37296	0.12993	0.16479	0.098385	0.19199	0.14791	0.079537	0.1425	0.12262	0.11857	0.15402	0.097001	0.12559	-2.7167	-2.8208	-2.7062	-3.0146	-2.5458	-3	-2.8917	-2.4604	-3.0354	-2.8563	-2.7812	-3.0563	-2.5833	-2.9271	-2.8812	-2.5854	131.702	287.826	221.062	124.779	344.009	353.029	360.143	278.590	266.864	386.552	402.694	124.958	139.691	216.540	392.866	408.983	0.00022919	0.00011682	4.7252e-05	181.75	2.0426e-06	2.014e-06	331.84	64.187	1.3442e-06	1.6279e-06	112.75	52.961	25.519	11.6	1.4247e-06	25.381	0.00017905	1.9836e-05	8.2705e-06	181.79	4.9128e-07	4.1668e-08	333.91	64.995	2.9055e-07	1.0706e-07	113.62	53.724	25.893	11.918	3.8819e-07	26.011	225.247	171.329	168.774	100.650	246.257	246.734	99.495	105.605	251.873	236.606	102.502	108.591	110.132	114.679	246.838	111.107	-8191	255	
1615.850	1	1	0	0	0.20895	0.063017	0.18808	0.35996	0.13004	0.16167	0.10974	0.067477	0.057262	0.093955	0.30402	0.018416	0.097727	0.12929	0.077387	0.14035	-2.5333	-2.8417	-2.6312	-2.9979	-2.5375	-2.9208	-3.0708	-2.5375	-2.8646	-2.9396	-2.8021	-3.0938	-2.5563	-2.9938	-3.1583	-2.5708	168.211	412.213	342.102	355.722	105.004	267.536	153.057	279.182	92.862	170.282	302.569	145.545	196.973	311.118	153.513	168.536	0.00023961	0.00015084	6.2197e-05	178.8	2.4507e-06	1.9382e-06	334.74	63.947	1.7126e-06	1.7175e-06	112.66	52.812	25.581	11.707	1.8834e-06	25.456	0.00018716	2.6827e-05	1.3154e-05	181.84	5.8013e-07	1.4584e-07	336.74	65.15	4.542e-07	1.6012e-07	114.18	53.845	25.95	11.976	4.2304e-07	26.109	225.955	166.974	170.896	100.550	247.565	239.611	99.816	105.965	268.143	243.487	102.734	108.269	110.265	114.581	260.036	111.318	-8191	255	
1615.945	1	1	0	0	0.21328	0.14896	0.19241	0.22216	0.14375	0.092964	0.051875	0.16548	0.084152	0.16646	0.088295	0.11144	0.1677	0.14465	0.41081	0.17839	-2.3875	-2.8	-2.5771	-3	-2.6896	-2.6813	-3.15	-2.5958	-2.7771	-3.0021	-2.6958	-2.9958	-2.7833	-2.925	-3.0354	-2.5938	253.326	419.808	397.746	441.247	231.047	221.522	221.244	404.134	120.008	112.632	232.345	291.688	213.915	188.202	185.017	434.599	0.00023725	0.00019138	4.822e-05	181.73	1.9062e-06	1.2147e-06	334.37	64.236	1.1933e-06	1.4436e-06	112.17	52.61	25.571	11.574	2.0826e-06	25.308	0.00018971	2.3575e-05	1.4168e-05	182.72	4.1512e-07	4.3467e-07	336.04	65.383	3.9076e-07	-1.4212e-08	113.55	53.541	25.906	11.925	4.9273e-07	25.902	226.616	155.837	168.634	100.460	256.826	237.909	99.594	106.255	246.349	226.981	102.927	108.396	110.473	114.539	255.915	111.212	-8191	255	
1616.041	1	1	0	0	0.085807	0.25	0.064827	0.29376	0.054425	0.23307	0.059884	0.12149	0.098023	0.18221	0.39576	0.21217	0.13839	0.22053	0.041748	0.13285	-2.5271	-2.9562	-2.6708	-2.9396	-2.8458	-2.775	-2.9542	-2.6937	-2.8229	-2.9292	-2.4979	-2.875	-2.8375	-2.7354	-3.2188	-2.7062	141.537	240.029	116.099	412.632	389.047	333.854	117.228	440.198	192.049	187.593	432.903	326.870	433.215	196.759	293.413	104.191	0.00022408	0.00014799	6.2573e-05	181.61	1.8742e-06	1.9577e-06	332.67	64.448	1.3617e-06	1.6246e-06	111.21	52.254	25.539	11.566	2.0582e-06	25.344	0.0001824	1.3983e-05	1.0712e-05	182.86	3.763e-07	2.377e-07	335.6	65.261	3.165e-07	2.2928e-07	113.32	53.383	25.867	11.909	2.9661e-07	25.875	225.466	173.931	180.201	100.798	239.966	243.562	99.836	106.295	251.052	239.131	102.613	108.588	110.537	114.549	233.222	111.084	-8191	255	
1616.137	1	1	0	0	0.086413	0.24999	0.11866	0.042067	0.17584	0.19671	0.072531	0.098749	0.19195	0.069093	0.14011	0.13512	0.31502	0.24026	0.32516	0.099333	-2.4167	-2.9979	-2.5812	-2.9458	-3.0021	-2.7062	-3.1958	-2.8063	-2.9437	-3.1354	-2.4562	-2.9417	-2.9104	-2.4813	-3.1271	-2.6437	130.599	231.196	187.086	421.627	206.284	96.770	302.980	344.290	375.654	140.696	116.778	236.763	393.323	143.360	303.842	324.339	0.00022238	0.00017133	4.4434e-05	182.53	1.9501e-06	2.0344e-06	335.93	64.401	1.2939e-06	1.7458e-06	112.69	52.832	25.445	11.64	2.1397e-06	25.289	0.00018012	8.9424e-06	1.3224e-05	183.7	2.755e-07	3.6459e-07	337.29	65.255	4.0446e-07	-8.8113e-08	113.67	53.605	25.881	11.943	3.1039e-07	25.922	227.358	177.150	178.833	100.509	247.681	230.841	99.905	105.781	259.183	249.692	102.706	108.120	110.687	115.087	266.892	111.182	-8191	255	
#DATA ENDS
