BOXY.EXE: ISS Imagent and Oximeter Data Acquisition Program Version 0.80
Ascii Record File

#ACQ INFORMATION
2  Detector Channels 
16  External MUX Channels 
1  Auxiliary Channels 
5000  Waveform (CCF) Frequency (Hz)
1  Waveforms Skipped 
30  Waveforms Averaged 
1  Cycles Averaged 
16  Acquisitions per Waveform 
10.0806  Updata Rate (Hz) 

#FILE INFORMATION
TRUE -- External MUX Channel results are PARSED.
FALSE -- AC DC and Phase are NOT grouped.
TRUE -- Companion Program Settings File CREATED.
FALSE -- AC data not excluded
FALSE -- DC data not excluded
FALSE -- Phase data not excluded
FALSE -- Auxillary Chn. data not excluded
Tab delimiters

#CALIBRATION STATE
TRUE -- Waveform Calibration Values APPLIED.


#AUX CALIBRATION VALUES
Val Type	aux-1	

Term	1.0000e+00	
Factor	0.0000e+00	


#WF CALIBRATION VALUES
A = Detector Channel
Val Type	A-AC1	A-AC2	A-AC3	A-AC4	A-AC5	A-AC6	A-AC7	A-AC8	A-AC9	A-AC10	A-AC11	A-AC12	A-AC13	A-AC14	A-AC15	A-AC16	A-DC1	A-DC2	A-DC3	A-DC4	A-DC5	A-DC6	A-DC7	A-DC8	A-DC9	A-DC10	A-DC11	A-DC12	A-DC13	A-DC14	A-DC15	A-DC16	A-Ph1	A-Ph2	A-Ph3	A-Ph4	A-Ph5	A-Ph6	A-Ph7	A-Ph8	A-Ph9	A-Ph10	A-Ph11	A-Ph12	A-Ph13	A-Ph14	A-Ph15	A-Ph16	

Term	0.00000e+00	0.00000e+00	0.00000e+00	0.00000e+00	0.00000e+00	0.00000e+00	0.00000e+00	0.00000e+00	0.00000e+00	0.00000e+00	0.00000e+00	0.00000e+00	0.00000e+00	0.00000e+00	0.00000e+00	0.00000e+00	0.00000e+00	0.00000e+00	0.00000e+00	0.00000e+00	0.00000e+00	0.00000e+00	0.00000e+00	0.00000e+00	0.00000e+00	0.00000e+00	0.00000e+00	0.00000e+00	0.00000e+00	0.00000e+00	0.00000e+00	0.00000e+00	0.00000e+00	0.00000e+00	0.00000e+00	0.00000e+00	0.00000e+00	0.00000e+00	0.00000e+00	0.00000e+00	0.00000e+00	0.00000e+00	0.00000e+00	0.00000e+00	0.00000e+00	0.00000e+00	0.00000e+00	0.00000e+00	
Factor	1.00000e+00	1.00000e+00	1.00000e+00	1.00000e+00	1.00000e+00	1.00000e+00	1.00000e+00	1.00000e+00	1.00000e+00	1.00000e+00	1.00000e+00	1.00000e+00	1.00000e+00	1.00000e+00	1.00000e+00	1.00000e+00	1.00000e+00	1.00000e+00	1.00000e+00	1.00000e+00	1.00000e+00	1.00000e+00	1.00000e+00	1.00000e+00	1.00000e+00	1.00000e+00	1.00000e+00	1.00000e+00	1.00000e+00	1.00000e+00	1.00000e+00	1.00000e+00	X	X	X	X	X	X	X	X	X	X	X	X	X	X	X	X	

B = Detector Channel
Val Type	B-AC1	B-AC2	B-AC3	B-AC4	B-AC5	B-AC6	B-AC7	B-AC8	B-AC9	B-AC10	B-AC11	B-AC12	B-AC13	B-AC14	B-AC15	B-AC16	B-DC1	B-DC2	B-DC3	B-DC4	B-DC5	B-DC6	B-DC7	B-DC8	B-DC9	B-DC10	B-DC11	B-DC12	B-DC13	B-DC14	B-DC15	B-DC16	B-Ph1	B-Ph2	B-Ph3	B-Ph4	B-Ph5	B-Ph6	B-Ph7	B-Ph8	B-Ph9	B-Ph10	B-Ph11	B-Ph12	B-Ph13	B-Ph14	B-Ph15	B-Ph16	

Term	0.00000e+00	0.00000e+00	0.00000e+00	0.00000e+00	0.00000e+00	0.00000e+00	0.00000e+00	0.00000e+00	0.00000e+00	0.00000e+00	0.00000e+00	0.00000e+00	0.00000e+00	0.00000e+00	0.00000e+00	0.00000e+00	0.00000e+00	0.00000e+00	0.00000e+00	0.00000e+00	0.00000e+00	0.00000e+00	0.00000e+00	0.00000e+00	0.00000e+00	0.00000e+00	0.00000e+00	0.00000e+00	0.00000e+00	0.00000e+00	0.00000e+00	0.00000e+00	-7.31199e+01	-1.32799e+02	-1.26468e+02	-1.82714e+02	-5.26673e+01	-6.72776e+01	-1.58600e+02	-1.62015e+02	-4.81301e+01	-6.81745e+01	-1.74789e+02	-1.71091e+02	-1.81647e+02	-1.76664e+02	-5.28905e+01	-1.49745e+02	
Factor	1.45622e-05	1.40397e-04	4.03230e-05	1.48927e-01	1.29784e-06	1.50963e-06	1.69133e-01	4.23035e-02	9.54360e-07	1.51249e-06	7.52042e-02	2.43297e-02	1.97584e-02	7.93508e-03	1.28624e-06	1.14015e-02	1.42596e-05	3.90213e-05	1.10580e-05	7.54603e-02	3.58379e-07	4.54558e-07	8.02644e-02	2.15652e-02	3.46059e-07	4.54774e-07	3.70643e-02	1.20591e-02	1.01503e-02	4.07504e-03	3.89001e-07	5.66024e-03	X	X	X	X	X	X	X	X	X	X	X	X	X	X	X	X	



#DISTANCE SETTINGS
A = Detector Channel
A-1	A-2	A-3	A-4	A-5	A-6	A-7	A-8	A-9	A-10	A-11	A-12	A-13	A-14	A-15	A-16	

2.5000e+00	3.0000e+00	2.5000e+00	3.0000e+00	2.0000e+00	3.0000e+00	1.5000e+00	3.0000e+00	3.0000e+00	3.0000e+00	3.0000e+00	3.0000e+00	3.0000e+00	3.0000e+00	1.5000e+00	3.0000e+00	

B = Detector Channel
B-1	B-2	B-3	B-4	B-5	B-6	B-7	B-8	B-9	B-10	B-11	B-12	B-13	B-14	B-15	B-16	

1.0000e+01	1.0000e+01	1.0000e+01	1.4400e+00	1.0000e+01	1.0000e+01	1.5100e+00	1.9400e+00	1.0000e+01	1.0000e+01	1.9900e+00	2.4900e+00	2.4100e+00	2.9000e+00	1.0000e+01	2.9800e+00	




#DATA BEGINS
time	group	step	mark	flag	A-AC1	A-AC2	A-AC3	A-AC4	A-AC5	A-AC6	A-AC7	A-AC8	A-AC9	A-AC10	A-AC11	A-AC12	A-AC13	A-AC14	A-AC15	A-AC16	A-DC1	A-DC2	A-DC3	A-DC4	A-DC5	A-DC6	A-DC7	A-DC8	A-DC9	A-DC10	A-DC11	A-DC12	A-DC13	A-DC14	A-DC15	A-DC16	A-Ph1	A-Ph2	A-Ph3	A-Ph4	A-Ph5	A-Ph6	A-Ph7	A-Ph8	A-Ph9	A-Ph10	A-Ph11	A-Ph12	A-Ph13	A-Ph14	A-Ph15	A-Ph16	B-AC1	B-AC2	B-AC3	B-AC4	B-AC5	B-AC6	B-AC7	B-AC8	B-AC9	B-AC10	B-AC11	B-AC12	B-AC13	B-AC14	B-AC15	B-AC16	B-DC1	B-DC2	B-DC3	B-DC4	B-DC5	B-DC6	B-DC7	B-DC8	B-DC9	B-DC10	B-DC11	B-DC12	B-DC13	B-DC14	B-DC15	B-DC16	B-Ph1	B-Ph2	B-Ph3	B-Ph4	B-Ph5	B-Ph6	B-Ph7	B-Ph8	B-Ph9	B-Ph10	B-Ph11	B-Ph12	B-Ph13	B-Ph14	B-Ph15	B-Ph16	aux-1	digaux	

956.730	1	1	0	768	0.10559	0.096605	0.058468	0.10139	0.14142	0.26615	0.21558	0.35365	0.2242	0.12898	0.054299	0.16005	0.2519	0.11238	0.061151	0.16969	-2.6458	-2.8958	-3.1708	-3.1	-3.2333	-3.2125	-3.0062	-3.4313	-3.05	-2.7792	-3.3375	-3.0875	-3.1708	-3.2812	-2.6708	-3.25	72.477	83.107	33.995	155.157	16.039	-68.119	146.733	177.713	165.445	196.138	88.190	-125.346	205.224	-121.059	98.731	133.499	0.0003885	0.00056874	0.00013853	1376.8	4.0005e-06	5.0936e-06	1373.1	375.13	4.0709e-06	4.2131e-06	430.19	141.62	123.22	42.302	4.0362e-06	52.235	0.00049181	0.00053264	0.00014332	1388.5	5.8326e-06	5.4263e-06	1386.9	381.3	5.8203e-06	5.5918e-06	434.8	144.49	125.87	43.195	5.9866e-06	53.499	-103.337	-68.407	-59.114	-138.552	-20.403	1.119	-138.673	-133.949	-23.734	-11.325	-134.529	-130.081	-129.755	-125.283	2.799	-125.750	-8191	255	
956.826	1	1	0	0	0.060404	0.28147	0.12127	0.3336	0.15707	0.17103	0.16271	0.33448	0.085602	0.13533	0.18326	0.19909	0.17392	0.12636	0.27401	0.09074	-2.5438	-2.7375	-3.1521	-3.1375	-2.975	-3.2396	-3.0604	-3.2375	-2.9437	-2.8312	-3.3792	-2.9167	-2.9313	-3.2792	-2.7833	-3.1562	-70.353	52.694	-89.657	201.809	127.167	45.686	137.222	123.461	14.909	-124.821	-150.092	189.709	90.410	203.024	184.075	162.709	0.00039409	0.00049251	0.00017548	1379.8	4.3099e-06	4.5601e-06	1374.9	375.92	3.7404e-06	4.6826e-06	429.39	141.71	123.44	42.24	3.413e-06	52.254	0.00049178	0.0005202	0.0001353	1390	5.9155e-06	5.5162e-06	1387.6	381.08	5.7511e-06	5.878e-06	435.04	144.61	126.01	43.259	5.7216e-06	53.575	-102.295	-61.962	-67.040	-138.506	-0.539	-1.165	-138.701	-133.918	-22.973	-6.884	-134.674	-130.145	-129.534	-125.177	13.662	-125.892	-8191	255	
956.922	1	1	0	0	0.15656	0.11151	0.17336	0.30147	0.45297	0.16629	0.16363	0.19047	0.2519	0.19814	0.11653	0.18118	0.16054	0.17262	0.42208	0.25615	-2.5854	-2.7729	-3.2354	-3.1646	-2.9229	-3.1479	-3.0979	-3.0833	-3.125	-2.8229	-3.2521	-3.0479	-3.175	-3.4104	-2.725	-2.9979	-25.055	-114.651	110.104	176.805	181.204	-109.308	125.204	-63.100	-106.632	182.599	202.635	-142.547	195.801	126.081	76.432	89.340	0.00036586	0.00053343	0.00015543	1381	3.9662e-06	5.3632e-06	1371.9	374.96	4.6312e-06	5.7225e-06	429.86	141.54	123.41	42.404	4.8445e-06	52.248	0.00046962	0.00051955	0.00014774	1391.4	5.7318e-06	5.8183e-06	1386.9	381.19	5.8794e-06	5.8154e-06	434.8	144.75	125.94	43.216	5.8172e-06	53.457	-101.542	-72.989	-65.674	-138.550	-1.016	2.422	-138.770	-133.883	-18.299	-5.556	-134.549	-130.257	-129.569	-124.970	2.487	-125.784	-8191	255	
957.018	1	1	0	0	0.050515	0.15861	0.20079	0.24019	0.11074	0.26865	0.17388	0.294	0.17924	0.23896	0.22686	0.18632	0.34458	0.13068	0.27077	0.23971	-2.6792	-2.6792	-3.0417	-3.1708	-2.8354	-3.1	-3.0375	-3.0771	-3.0938	-2.8083	-3.2583	-2.8542	-2.8375	-3.2458	-2.8729	-2.9979	44.921	130.629	-93.012	154.548	125.545	68.937	173.970	146.416	179.977	-100.683	201.376	-117.364	206.307	204.740	112.351	172.681	0.000387	0.00045014	0.00017435	1381.7	2.9036e-06	3.9815e-06	1374	375.03	3.7124e-06	5.3155e-06	427.92	141.55	123.35	42.223	4.6718e-06	52.252	0.00047485	0.00050459	0.00014753	1391.1	5.7161e-06	5.7151e-06	1388.7	380.49	5.7186e-06	5.8808e-06	434.68	144.6	125.9	43.239	5.8512e-06	53.554	-101.344	-55.668	-54.620	-138.484	-4.008	5.915	-138.569	-134.005	-18.590	10.528	-134.529	-130.187	-129.721	-124.848	-1.289	-125.635	-8191	255	
957.113	1	1	0	0	0.12022	0.13629	0.047198	0.26799	0.21099	0.009296	0.48459	0.29769	0.17182	0.28464	0.40042	0.088057	0.17758	0.030996	0.13019	0.17609	-2.7271	-2.5438	-2.9875	-3.2104	-2.5667	-3.1854	-3.1688	-2.8729	-3.0875	-2.9604	-3.1854	-3.1479	-2.9875	-3.225	-2.9271	-2.8646	47.778	157.075	161.869	178.491	-20.993	199.030	172.964	160.785	3.268	32.448	96.946	142.912	175.288	141.429	94.143	196.876	0.00038002	0.00053656	0.00016908	1380.8	3.8454e-06	4.7764e-06	1369.5	375.74	3.9893e-06	5.8038e-06	429.84	141.93	123.28	42.405	3.7706e-06	52.091	0.0004782	0.00052728	0.00014357	1391.7	5.8707e-06	5.4206e-06	1385.9	380.96	5.9565e-06	5.8372e-06	435.01	144.78	125.95	43.244	5.8131e-06	53.44	-103.766	-59.154	-66.689	-138.462	-18.379	-13.464	-138.454	-133.947	-12.685	-3.512	-134.535	-130.191	-129.673	-125.086	-13.903	-125.673	-8191	255	
957.211	1	1	0	0	0.068733	0.073432	0.1832	0.19392	0.096688	0.081334	0.43649	0.23697	0.089391	0.082561	0.13408	0.14882	0.10214	0.10438	0.15357	0.34231	-2.7875	-2.8167	-2.9896	-3.0396	-2.7771	-3.1833	-3.1792	-2.9646	-3.1896	-2.7979	-3.1833	-3.1271	-2.8167	-3.3187	-2.8979	-2.9583	-122.515	143.717	-119.893	-140.566	173.139	-18.132	171.653	162.100	70.633	154.989	-150.701	-150.695	134.133	-145.997	2.280	198.026	0.00039341	0.00049371	0.00014587	1383.5	4.0614e-06	5.0466e-06	1374.3	376.53	4.3296e-06	4.7894e-06	429.74	141.84	123.25	42.311	4.4645e-06	52.289	0.00048625	0.00054061	0.00014249	1391.4	5.8655e-06	5.8846e-06	1389.2	380.99	5.795e-06	5.6335e-06	435.04	144.65	125.98	43.157	5.728e-06	53.498	-102.295	-63.233	-63.712	-138.438	-6.194	3.220	-138.701	-133.836	-24.726	-0.644	-134.569	-130.230	-129.702	-125.024	1.263	-125.706	-8191	255	
957.329	1	1	0	0	0.030235	0.09136	0.1361	0.20284	0.057783	0.090375	0.29687	0.27448	0.048861	0.17709	0.2288	0.1282	0.14223	0.36365	0.12136	0.21655	-2.75	-2.7417	-2.7687	-3.4292	-2.8083	-2.9313	-3.2167	-2.8667	-3.0792	-2.7938	-2.9896	-3.4333	-2.9104	-3.1292	-3.1542	-2.9	45.416	40.704	-146.612	-126.919	57.371	-122.719	138.711	135.824	83.470	97.267	180.774	-141.116	64.614	201.114	117.714	-133.786	0.00038593	0.00045141	0.00016684	1378	3.8435e-06	4.8402e-06	1374	375.16	3.6279e-06	4.1696e-06	428.18	141.71	123.34	42.188	4.5877e-06	52.352	0.00049439	0.00051809	0.00014765	1390.4	5.8625e-06	5.6716e-06	1388.5	380.91	5.6674e-06	5.6989e-06	434.86	144.65	125.89	43.132	5.8909e-06	53.409	-101.152	-68.789	-58.469	-138.405	-2.544	-0.151	-138.519	-133.936	-12.962	5.291	-134.306	-130.272	-129.541	-124.936	8.675	-125.704	-8191	255	
957.426	1	1	0	0	0.10987	0.0072405	0.11263	0.17952	0.088496	0.12779	0.1097	0.39295	0.047841	0.13175	0.080415	0.15406	0.43163	0.14165	0.1096	0.18127	-2.7208	-2.7604	-2.7562	-3.1771	-2.7208	-3.0479	-3.4062	-2.8104	-3.1	-2.9417	-2.9062	-3.2542	-2.8063	-3.0521	-3.0417	-2.8583	-6.058	43.366	-44.460	164.191	-22.539	116.113	113.646	175.602	203.255	98.757	-6.575	-81.238	-151.735	101.819	155.776	109.705	0.00037371	0.0004302	0.00016683	1376.2	3.2531e-06	5.6523e-06	1370.3	375.05	4.6695e-06	4.906e-06	429.08	141.11	123.34	42.287	4.2095e-06	52.136	0.00047779	0.00049671	0.0001502	1388.7	5.8782e-06	5.7757e-06	1386.9	380.52	5.8015e-06	5.7093e-06	434.33	144.24	125.84	43.127	5.8285e-06	53.474	-103.931	-80.546	-69.720	-138.588	-4.428	-0.136	-138.476	-133.846	-17.793	6.219	-134.530	-130.211	-129.596	-125.029	-6.575	-125.757	-8191	255	
957.522	1	1	0	0	0.101	0.4042	0.072808	0.15714	0.21021	0.063312	0.34252	0.18508	0.25582	0.083832	0.15176	0.23698	0.26934	0.1335	0.16469	0.14036	-2.7021	-3.0438	-2.7458	-3.4354	-2.8104	-2.9792	-3.1396	-2.6875	-3.1021	-2.9458	-2.8646	-3.4083	-3.0208	-2.9979	-3.2646	-2.7083	-49.810	96.935	-8.254	-99.295	-53.915	-1.405	193.847	149.479	-91.426	67.539	-25.580	201.311	195.050	-74.791	-79.216	203.772	0.00036306	0.00051138	0.0001151	1378.5	3.0997e-06	5.37e-06	1372.4	374.95	3.6296e-06	4.997e-06	429.25	141.35	123.01	42.177	5.109e-06	52.146	0.0004774	0.00053719	0.00014555	1389.8	5.8938e-06	6.004e-06	1386.3	380.94	5.9068e-06	5.8277e-06	434.47	144.53	125.78	43.152	5.8099e-06	53.472	-101.092	-78.527	-46.741	-138.543	-4.365	-3.131	-138.545	-133.935	-24.878	-2.682	-134.339	-130.107	-129.643	-124.948	2.276	-125.595	-8191	255	
957.618	1	1	0	0	0.13867	0.29772	0.011361	0.23722	0.044593	0.11715	0.13472	0.22838	0.27361	0.26603	0.1744	0.13922	0.20829	0.21863	0.15866	0.43198	-2.6208	-2.9833	-2.6875	-3.425	-2.7667	-2.9771	-3.5229	-2.9125	-2.9854	-3.1083	-3.1042	-3.2958	-2.9229	-2.9104	-3.0812	-2.9521	40.379	162.226	50.983	207.811	14.301	-2.461	176.735	192.440	148.534	-38.926	139.245	129.870	207.296	68.575	-120.436	172.519	0.00038304	0.00056055	0.00011964	1382.7	3.5067e-06	3.9666e-06	1370.6	374.28	3.761e-06	4.5997e-06	429.38	141.47	123.44	42.234	3.5729e-06	52.136	0.00048501	0.00052508	0.00014597	1391.3	5.7901e-06	5.7094e-06	1388.2	380.47	5.9738e-06	5.7358e-06	434.67	144.55	125.82	43.206	5.8836e-06	53.396	-100.966	-62.206	-59.406	-138.533	-1.311	-13.696	-138.662	-133.930	-26.782	2.393	-134.713	-130.336	-129.655	-125.120	-10.046	-125.711	-8191	255	
957.714	1	1	0	0	0.10021	0.26659	0.05907	0.11381	0.19547	0.16165	0.18905	0.24791	0.29912	0.28936	0.31321	0.037986	0.21029	0.11512	0.12478	0.031835	-2.4583	-3.0687	-2.5458	-3.2646	-2.9813	-2.8812	-3.4917	-3.0354	-2.9604	-3.125	-2.9083	-3.2646	-3.0375	-2.9313	-3.025	-3.0104	-123.872	165.211	-104.468	163.606	-66.006	-64.149	-90.446	157.339	-20.385	-68.531	132.887	-108.444	-117.447	124.302	103.034	186.647	0.0003706	0.00052318	0.00010079	1378.8	4.2855e-06	4.6712e-06	1373.6	374.72	4.3965e-06	4.2415e-06	430.28	141.46	123.33	42.382	4.9285e-06	52.562	0.00048257	0.00051118	0.00015048	1389.4	5.7303e-06	5.86e-06	1387.6	381.09	5.9039e-06	5.5151e-06	434.89	144.57	125.92	43.298	5.5595e-06	53.61	-102.454	-64.765	-64.616	-138.503	9.090	3.525	-138.557	-133.920	-23.171	-3.940	-134.437	-130.251	-129.713	-125.002	6.350	-125.759	-8191	255	
957.810	1	1	0	0	0.082086	0.093165	0.12916	0.42252	0.10493	0.18445	0.25936	0.14743	0.086944	0.0044296	0.24499	0.25338	0.28715	0.060743	0.11645	0.067062	-2.5875	-3.1667	-2.7333	-3.3646	-2.9458	-2.6604	-3.3229	-2.9562	-2.9521	-3.0583	-2.95	-2.9333	-3.0938	-2.7958	-3.0917	-2.9542	181.714	150.282	38.377	187.609	35.573	198.583	106.419	115.913	111.748	-140.195	172.700	183.463	177.306	-147.811	-61.270	-118.278	0.00038481	0.00051101	0.00015063	1378.9	4.4835e-06	5.4561e-06	1370.6	376.09	3.8482e-06	4.2486e-06	430.88	141.06	123.18	42.135	5.3899e-06	52.084	0.00048919	0.00050443	0.00015149	1390.3	5.7714e-06	5.8089e-06	1386.4	381.08	5.741e-06	5.7728e-06	435.21	144.48	125.77	43.17	5.7726e-06	53.422	-100.237	-58.096	-48.863	-138.418	-8.848	-8.629	-138.456	-134.086	-14.775	5.078	-134.617	-130.280	-129.573	-125.182	-5.483	-125.679	-8191	255	
957.906	1	1	0	0	0.11357	0.086742	0.25705	0.18853	0.17587	0.0030978	0.18685	0.28774	0.21725	0.089368	0.0984	0.35494	0.086998	0.44418	0.20099	0.12425	-2.5375	-3.1375	-2.8312	-3.2771	-3.0708	-2.6917	-3.4562	-2.9958	-2.8063	-3.0687	-2.8708	-3.3125	-3.225	-2.8833	-3.1437	-2.9479	-14.689	189.048	72.498	77.559	28.710	14.730	162.673	171.235	155.835	175.856	-11.751	151.061	94.803	125.178	127.998	90.168	0.00038835	0.00059036	0.00014117	1382.3	4.4809e-06	4.6758e-06	1369.4	375.18	3.9118e-06	5.3019e-06	430.57	141.36	123.23	42.293	4.1432e-06	52.236	0.00049029	0.00051402	0.00014894	1394	5.7169e-06	5.9339e-06	1385.9	381.1	6.0315e-06	5.6041e-06	435.19	144.61	125.88	43.2	5.6243e-06	53.44	-103.016	-65.162	-60.888	-138.434	-0.031	-11.729	-138.591	-133.961	-17.409	13.712	-134.599	-130.373	-129.643	-125.093	-8.093	-125.892	-8191	255	
958.025	1	1	0	0	0.051317	0.13525	0.15737	0.19544	0.28734	0.31256	0.23922	0.11642	0.026308	0.18509	0.10031	0.21095	0.33309	0.13996	0.076381	0.22959	-2.375	-3.1229	-2.7542	-3.2438	-3.0125	-2.5771	-3.2062	-3.4354	-2.6792	-3.2146	-3.0396	-3.1875	-3.3021	-2.6792	-3.0375	-3.0729	-51.266	-6.470	140.047	-146.627	111.123	87.244	122.623	160.033	-89.208	-90.210	207.574	160.443	159.921	-83.217	32.449	185.902	0.00035964	0.00056547	0.00012283	1375.8	5.3059e-06	4.5437e-06	1369.1	375.7	3.9153e-06	5.2079e-06	430.23	141.45	123.46	42.343	3.5735e-06	52.46	0.00047621	0.00049687	0.00014753	1390.5	5.587e-06	5.9689e-06	1385.7	381.56	5.9573e-06	5.5852e-06	435.17	144.56	126.01	43.234	5.6648e-06	53.515	-102.714	-74.208	-53.110	-138.504	-4.459	-11.340	-138.581	-133.927	-17.717	-15.263	-134.442	-130.086	-129.563	-125.052	-10.431	-125.830	-8191	255	
958.121	1	1	0	0	0.078875	0.12982	0.3675	0.068858	0.2651	0.12469	0.36866	0.058324	0.28662	0.13795	0.087053	0.49129	0.13814	0.16123	0.21184	0.13327	-2.1896	-3.2729	-2.8187	-3.1562	-3.075	-2.8083	-3.2979	-3.2875	-2.7438	-3.1688	-3.0917	-2.9813	-3.2729	-2.9188	-2.9688	-3.2125	-80.313	-109.189	128.014	189.682	-148.789	-117.516	137.007	64.113	36.777	-101.777	163.794	-123.507	50.145	186.055	-47.271	62.530	0.00037549	0.0005096	0.00013585	1378.6	3.7496e-06	5.7738e-06	1375.1	375.39	5.0067e-06	5.3821e-06	429.59	141.73	123.52	42.388	4.2288e-06	52.478	0.00048786	0.00051793	0.0001462	1390.6	5.6243e-06	5.8818e-06	1388.4	381.67	5.9198e-06	5.8306e-06	434.79	144.65	126.01	43.255	5.6365e-06	53.491	-102.707	-69.391	-66.594	-138.567	-8.499	-0.376	-138.523	-134.012	-22.356	-15.536	-134.574	-130.182	-129.503	-125.157	0.084	-125.681	-8191	255	
958.218	1	1	0	0	0.15148	0.12325	0.10987	0.13013	0.10322	0.30686	0.039322	0.2888	0.17317	0.22841	0.064834	0.31405	0.13556	0.14001	0.17069	0.15311	-2.2625	-3.2042	-2.8708	-3.0292	-3.2438	-2.8812	-3.2188	-3.2125	-2.7521	-3.1708	-3.1958	-3.0354	-3.3229	-2.8604	-3.025	-3.2313	47.938	57.737	11.208	170.042	-79.024	-29.774	150.059	149.980	94.081	128.004	-140.275	148.582	172.946	136.519	-21.953	156.760	0.00036915	0.00053238	0.0001508	1379.4	4.091e-06	5.1919e-06	1376.3	375.25	3.5589e-06	5.1595e-06	429.92	141.51	124.08	42.333	3.8869e-06	52.098	0.00048144	0.00049126	0.0001509	1392.7	5.7348e-06	5.9187e-06	1390.5	381.02	5.7367e-06	5.4184e-06	435.45	144.7	126.24	43.278	5.9242e-06	53.481	-101.110	-69.938	-60.363	-138.588	-1.202	-8.312	-138.441	-134.016	-21.347	-16.189	-134.514	-130.352	-129.725	-125.155	5.310	-125.680	-8191	255	
958.291	1	1	0	0	0.068926	0.2835	0.26246	0.16548	0.040487	0.14574	0.21354	0.44476	0.2225	0.32659	0.20246	0.37766	0.30426	0.21771	0.22911	0.13166	-2.4333	-3.025	-2.9813	-2.9771	-3.275	-2.8417	-3.1312	-3.2729	-2.6292	-3.1	-3.1792	-2.9292	-3.3	-2.9771	-2.9104	-3.3312	145.901	-15.963	91.710	177.766	-16.891	-143.239	67.081	149.676	206.889	62.887	139.486	173.533	-98.093	145.515	-96.948	-73.707	0.00037232	0.00048816	0.00014834	1383.7	3.9823e-06	4.0727e-06	1374.1	376.43	5.0106e-06	4.1588e-06	431.09	141.63	123.5	42.34	3.3272e-06	52.227	0.00049772	0.00050606	0.00014841	1392.9	5.7326e-06	5.8562e-06	1387.8	381.44	6.1923e-06	5.7387e-06	435.33	144.78	126.1	43.255	5.6097e-06	53.447	-100.384	-67.794	-51.528	-138.637	-3.734	-8.172	-138.464	-134.085	-23.380	-0.687	-134.487	-129.986	-129.603	-125.103	-6.250	-125.444	-8191	255	
958.410	1	1	0	0	0.052991	0.04807	0.10006	0.14054	0.10615	0.12364	0.16146	0.15932	0.25454	0.051827	0.10468	0.13416	0.29248	0.27425	0.15386	0.18214	-2.3771	-3.0896	-2.9083	-3.0958	-3.2229	-2.9062	-3.1104	-3.3312	-2.7521	-3.0771	-3.2313	-2.8208	-3.2167	-2.9875	-2.8208	-3.3812	-18.314	138.391	165.007	187.364	-74.996	153.658	180.312	192.844	134.869	77.304	-64.865	28.073	186.965	181.189	-86.381	204.035	0.0003719	0.0003945	0.00018118	1380	4.6964e-06	5.2248e-06	1377.9	375.36	3.8188e-06	4.5559e-06	431.11	141.13	123.33	42.313	5.2022e-06	51.939	0.00048893	0.00049386	0.00014548	1391.7	5.6676e-06	5.9149e-06	1389.6	381.05	5.8686e-06	5.7595e-06	435.19	144.48	125.95	43.243	6.0328e-06	53.344	-101.127	-73.468	-51.316	-138.625	-5.779	4.452	-138.398	-133.934	-15.681	1.109	-134.554	-130.142	-129.629	-125.056	-4.395	-125.687	-8191	255	
958.506	1	1	0	0	0.10079	0.26183	0.12294	0.30817	0.35871	0.11397	0.2577	0.062287	0.17229	0.28711	0.079418	0.12108	0.34152	0.053255	0.12103	0.46724	-2.2375	-2.9854	-3.1375	-2.9479	-3.2333	-2.9458	-2.9896	-3.4271	-2.8896	-3.0563	-3.1354	-2.8	-3.0687	-3.1771	-2.8625	-3.2687	-13.686	-82.841	-60.924	-94.113	0.089	139.165	186.469	112.812	-16.514	115.216	-123.226	189.827	187.829	3.747	-141.511	162.460	0.00037776	0.00055355	0.00013911	1380.7	4.7471e-06	5.5616e-06	1374.9	375.47	3.6949e-06	6.0316e-06	430.59	141.56	123.43	42.331	3.4344e-06	52.162	0.00049558	0.00052914	0.00015228	1393.8	5.7841e-06	5.8496e-06	1390	381.47	5.8931e-06	5.8647e-06	435.19	144.67	126.13	43.172	5.9104e-06	53.522	-100.948	-49.658	-71.502	-138.546	-6.986	5.500	-138.423	-133.863	-23.388	4.303	-134.546	-129.849	-129.593	-125.185	1.639	-125.795	-8191	255	
958.602	1	1	0	0	0.2985	0.082527	0.18444	0.13565	0.14672	0.10287	0.17599	0.15843	0.040091	0.12248	0.15022	0.10296	0.11376	0.096433	0.19621	0.20504	-2.2021	-2.8042	-3.025	-2.8146	-3.0125	-3.05	-2.8729	-3.3146	-2.9458	-2.8521	-3.3312	-2.8208	-3.0604	-2.9562	-2.8167	-3.3125	111.676	127.073	31.740	-86.766	-96.053	-120.503	151.686	173.841	206.681	6.812	193.424	-90.473	-115.503	122.795	24.294	6.769	0.00037578	0.00048123	0.00012652	1382	3.9881e-06	4.9725e-06	1381.5	375.75	4.1828e-06	5.1687e-06	430.72	141.57	123.31	42.408	3.8491e-06	52.448	0.00048842	0.00053817	0.00013947	1394.2	5.8647e-06	5.9822e-06	1392.2	381.16	5.8354e-06	6.0229e-06	435.54	144.73	126.21	43.239	5.7904e-06	53.558	-102.968	-64.524	-65.005	-138.621	-5.940	1.212	-138.619	-133.909	-24.829	-1.306	-134.705	-130.219	-129.597	-125.105	-2.465	-125.437	-8191	255	
958.723	1	1	0	0	0.089443	0.3598	0.12151	0.23035	0.22663	0.069985	0.20303	0.21986	0.21923	0.18092	0.029807	0.20041	0.20024	0.09383	0.12858	0.25778	-2.3438	-2.8583	-3.1146	-2.7062	-3.0812	-2.9583	-3.0438	-3.2938	-2.8792	-2.8125	-3.3583	-2.8458	-3.1958	-3.1729	-2.7438	-3.1646	178.942	32.240	194.025	174.580	198.708	110.872	160.580	152.641	95.309	-111.486	116.971	148.076	164.738	-54.113	-27.076	-46.622	0.00037508	0.00050081	0.00015945	1386.3	4.0136e-06	5.3635e-06	1375.8	375.2	3.4268e-06	4.5663e-06	429.03	141.9	123.56	42.349	4.3717e-06	52.172	0.00049133	0.000525	0.00014608	1394.5	5.5168e-06	5.8392e-06	1391.3	381.57	5.8924e-06	5.8012e-06	435.06	144.88	126.3	43.302	6.0093e-06	53.508	-101.938	-66.784	-62.358	-138.614	-5.898	-2.542	-138.516	-133.969	-23.604	-9.531	-134.730	-130.263	-129.467	-125.072	11.924	-125.577	-8191	255	
958.819	1	1	0	0	0.057356	0.036309	0.14768	0.21685	0.083909	0.19563	0.26543	0.41375	0.21059	0.040633	0.22546	0.066641	0.15052	0.039617	0.20413	0.23002	-2.4417	-2.5979	-2.9333	-2.8063	-2.8979	-2.9562	-2.8958	-3.2271	-2.9188	-2.8271	-3.2875	-2.8479	-3.1	-3.2458	-2.625	-3.3458	-3.826	197.065	-118.886	191.702	23.003	132.491	178.840	155.957	-78.717	189.587	122.438	71.220	-88.445	107.533	-94.570	95.519	0.00039539	0.00047166	0.00019304	1381.7	4.8301e-06	4.4651e-06	1376.8	377.26	3.4755e-06	5.2927e-06	430.1	141.91	123.93	42.353	3.5356e-06	52.539	0.00048587	0.00053695	0.00014249	1395.5	5.6833e-06	5.5948e-06	1391.3	381.73	5.741e-06	5.6866e-06	436.07	144.83	126.37	43.378	6.0012e-06	53.627	-103.662	-45.330	-52.896	-138.507	-1.716	4.696	-138.661	-133.813	-31.539	-11.937	-134.422	-129.968	-129.799	-125.228	-1.626	-125.507	-8191	255	
958.891	1	1	0	0	0.088787	0.088144	0.017351	0.3036	0.15405	0.10665	0.31734	0.52817	0.075791	0.15409	0.03822	0.13422	0.04198	0.26325	0.16874	0.32343	-2.5021	-2.6208	-3.1042	-3	-3.025	-3.1417	-2.9313	-3.2938	-2.8521	-2.6333	-3.2729	-3.1042	-3	-3.2333	-2.7792	-3.2583	3.973	23.735	5.433	148.227	-10.972	53.347	201.708	106.947	85.436	-34.020	-129.908	56.762	68.186	-112.495	48.824	181.280	0.00038474	0.00051052	0.0001549	1385.9	3.7462e-06	5.8147e-06	1375.3	376.82	3.983e-06	5.058e-06	431.16	141.9	123.76	42.332	3.6076e-06	52.316	0.00050057	0.00053817	0.00014638	1393.9	5.7288e-06	5.8553e-06	1391.5	382.19	5.6847e-06	5.7491e-06	436.43	144.93	126.32	43.288	5.9671e-06	53.607	-101.515	-65.099	-61.500	-138.573	-4.536	4.732	-138.666	-133.788	-14.589	-3.864	-134.579	-130.117	-129.677	-124.863	-4.355	-125.879	-8191	255	
959.011	1	1	0	0	0.12681	0.077188	0.12645	0.33289	0.076665	0.30089	0.19166	0.1907	0.15483	0.049661	0.19143	0.079496	0.22961	0.45828	0.18795	0.1889	-2.5479	-2.5021	-3.1354	-2.9813	-2.8833	-3.1583	-2.9271	-2.975	-3.0938	-2.8771	-3.3167	-2.9396	-2.9208	-3.1542	-2.6833	-3.025	80.432	37.902	-85.473	148.327	-107.327	96.292	-117.832	-122.014	-56.461	63.291	-144.494	-25.063	142.820	135.910	-143.600	37.119	0.00037224	0.00044587	0.0001317	1385.9	3.6512e-06	5.2121e-06	1376.7	375.81	3.1467e-06	5.4395e-06	431.18	142.09	123.46	42.176	3.7413e-06	52.336	0.00049395	0.00052337	0.00014339	1395.4	5.7049e-06	5.6252e-06	1391.3	382.04	5.6617e-06	6.058e-06	436.68	145.05	126.25	43.292	5.7532e-06	53.609	-102.447	-85.746	-60.524	-138.568	6.038	-5.371	-138.649	-134.190	-25.748	2.268	-134.570	-130.004	-129.739	-125.296	2.427	-125.674	-8191	255	
959.106	1	1	0	0	0.1541	0.062551	0.063831	0.15499	0.11478	0.21097	0.39872	0.20816	0.068465	0.20074	0.067749	0.37073	0.13982	0.19938	0.26998	0.17025	-2.5729	-2.6396	-3.1021	-3.3	-2.9458	-3.275	-3.0042	-3.1	-2.9813	-2.6729	-3.3104	-3.0458	-2.8	-3.2354	-2.8417	-3.0771	-24.297	5.179	50.949	142.497	102.912	182.326	162.687	109.500	87.679	21.861	44.388	182.478	-66.319	136.357	180.435	145.006	0.00036509	0.00049998	0.0001083	1384	4.5269e-06	4.5999e-06	1380.4	376.11	3.8656e-06	5.5527e-06	431.12	142.05	123.79	42.514	3.2083e-06	52.31	0.00048581	0.00052223	0.00014117	1395.9	5.8266e-06	5.5399e-06	1393.7	382.34	5.741e-06	5.7453e-06	436.21	144.96	126.48	43.431	5.7872e-06	53.646	-102.353	-64.553	-59.517	-138.570	-3.591	1.952	-138.619	-134.041	-32.312	-8.337	-134.706	-130.019	-129.575	-124.869	-2.457	-125.668	-8191	255	
959.202	1	1	0	0	0.12216	0.23765	0.078907	0.28674	0.22411	0.31127	0.14435	0.35059	0.23689	0.10269	0.12802	0.23399	0.2341	0.035674	0.11272	0.050574	-2.7875	-2.7583	-2.8771	-3.0646	-2.6958	-3.1167	-3.1375	-3.0396	-3.0792	-2.9271	-3.0979	-2.9917	-2.9354	-3.1083	-2.75	-2.8125	-149.809	152.167	60.990	196.935	205.800	-63.761	189.922	140.071	151.322	-49.703	-122.321	172.432	-114.378	131.270	-123.775	13.698	0.00036539	0.00055196	0.00016304	1383.7	4.4801e-06	4.0834e-06	1376.1	376.88	4.5228e-06	4.7423e-06	431.2	141.92	123.55	42.457	4.7219e-06	52.217	0.00047767	0.00052719	0.00015228	1395.7	5.8274e-06	5.7e-06	1391.1	382.24	5.7871e-06	5.7984e-06	436.67	145.03	126.25	43.345	5.7921e-06	53.556	-103.405	-66.493	-59.941	-138.511	-14.012	-20.837	-138.573	-133.866	-22.226	-11.950	-134.505	-130.132	-129.917	-125.119	-1.460	-125.765	-8191	255	
959.322	1	1	0	0	0.084426	0.1803	0.12268	0.28804	0.1499	0.14992	0.20243	0.31248	0.16661	0.077816	0.11711	0.22934	0.16115	0.087222	0.0083428	0.071	-2.7542	-2.8458	-2.9625	-3.2417	-2.7167	-3.275	-3.15	-3.0625	-2.9625	-2.8771	-3.2542	-3.0875	-2.8146	-3.0792	-3.1729	-2.7521	-131.960	145.667	-70.731	191.504	114.211	154.364	-100.804	178.449	-22.215	169.130	128.136	143.670	147.256	134.539	13.554	-132.281	0.0003697	0.00061642	0.00013389	1386.2	3.2784e-06	5.5466e-06	1377.4	376.55	3.9834e-06	4.2771e-06	432.53	142.36	123.82	42.477	4.4281e-06	52.313	0.00048319	0.00052606	0.00014405	1397.6	5.9028e-06	5.5702e-06	1392.4	381.98	5.764e-06	5.6174e-06	436.52	144.91	126.32	43.313	5.9501e-06	53.525	-103.800	-67.529	-51.627	-138.545	-5.506	0.471	-138.600	-133.979	-28.129	16.148	-134.540	-130.108	-129.605	-125.029	-8.618	-125.734	-8191	255	
959.419	1	1	0	0	0.053404	0.24414	0.062291	0.39322	0.17498	0.19829	0.33949	0.2078	0.058601	0.16229	0.13956	0.20809	0.29401	0.050609	0.20707	0.27254	-2.8833	-2.7958	-2.8917	-3.2083	-2.6771	-3.1625	-3.0708	-2.8979	-3.1937	-2.8729	-2.8729	-3.2896	-2.7812	-3.1583	-2.9271	-2.6833	10.571	-35.331	-65.727	147.303	14.542	-126.162	178.574	178.047	113.536	-5.163	129.036	-89.129	-116.994	175.216	177.963	98.582	0.0003793	0.00057021	0.00014684	1383.3	4.8371e-06	3.6091e-06	1374.3	376.27	3.1781e-06	4.7517e-06	430.61	141.73	123.44	42.314	4.7105e-06	52.305	0.00050482	0.00053866	0.00014873	1396	5.8461e-06	5.8714e-06	1393.1	381.95	5.6148e-06	5.7444e-06	436.22	144.85	126.26	43.266	5.7248e-06	53.507	-100.947	-65.584	-61.893	-138.799	-6.251	4.866	-138.595	-133.876	-11.576	5.112	-134.571	-130.122	-129.542	-124.981	0.824	-125.621	-8191	255	
959.515	1	1	0	0	0.094455	0.27999	0.20507	0.12316	0.091876	0.19923	0.14856	0.28417	0.27685	0.15176	0.25112	0.14143	0.084547	0.06318	0.22286	0.21959	-2.6458	-2.7271	-2.6667	-3.2604	-2.8375	-2.9813	-3.2938	-2.7979	-3.175	-2.8854	-3.1667	-3.3083	-2.8333	-3.1896	-3.1583	-2.7313	146.689	-110.865	76.120	121.379	-134.977	-134.117	101.355	138.457	-107.396	-100.700	125.357	-139.804	177.550	138.105	6.385	82.539	0.00038372	0.00049078	0.00014704	1387.4	4.5103e-06	4.8601e-06	1378.7	376.85	4.591e-06	4.6897e-06	430.81	141.89	123.95	42.276	3.6733e-06	52.356	0.00048429	0.00053077	0.00015069	1395.5	6.0245e-06	5.5589e-06	1393.9	381.87	5.8376e-06	5.7747e-06	436.26	145.05	126.42	43.341	5.5514e-06	53.579	-101.560	-67.402	-61.010	-138.550	0.500	-10.280	-138.548	-134.089	-21.666	2.054	-134.686	-130.115	-129.489	-124.945	-4.068	-125.653	-8191	255	
959.586	1	1	0	0	0.29263	0.080145	0.071427	0.2509	0.22482	0.081489	0.37234	0.2881	0.064733	0.29817	0.14526	0.079146	0.19173	0.17537	0.065385	0.16264	-2.6833	-2.8333	-2.7542	-3.3146	-2.8229	-3.1604	-3.4208	-2.8937	-3.0458	-2.9083	-2.9437	-3.2896	-2.8604	-3.0167	-3.1312	-2.5875	-11.144	103.073	-80.026	141.008	22.009	98.846	125.512	156.495	91.669	72.693	153.109	-2.426	165.789	204.538	86.084	117.858	0.00038653	0.00055051	0.00017313	1383.4	3.7728e-06	4.6218e-06	1377.4	377.26	4.0602e-06	4.157e-06	431.75	141.63	123.42	42.315	5.6212e-06	52.284	0.00048893	0.00052102	0.0001488	1395.1	5.8625e-06	5.7786e-06	1392	382.16	5.8124e-06	5.8268e-06	436.51	144.88	126.12	43.31	5.8075e-06	53.581	-102.622	-68.199	-48.364	-138.470	-3.997	2.813	-138.665	-133.941	-35.391	-2.374	-134.443	-130.207	-129.684	-124.980	0.830	-125.974	-8191	255	
959.707	1	1	0	0	0.077593	0.04494	0.28108	0.22838	0.13683	0.2245	0.18615	0.093508	0.044661	0.17771	0.38106	0.22047	0.13124	0.23271	0.10202	0.14206	-2.6604	-2.9917	-2.7667	-3.4167	-2.8708	-2.9854	-3.3063	-2.8271	-3.0583	-2.9458	-2.8417	-3.3354	-3.05	-2.9313	-3.0354	-2.8625	-103.933	-17.613	6.653	172.274	30.181	202.403	-148.196	157.090	193.517	105.122	149.917	186.240	-125.608	193.498	83.437	-143.886	0.00037745	0.00063547	0.00014158	1386.5	5.1106e-06	5.0803e-06	1382.2	376.16	3.5983e-06	5.1383e-06	430.26	141.72	123.7	42.55	4.7925e-06	52.499	0.00049026	0.0005241	0.00014788	1397.3	5.8065e-06	5.9102e-06	1393.3	382.19	5.7785e-06	5.806e-06	435.89	144.98	126.35	43.382	5.7459e-06	53.562	-101.315	-55.375	-68.748	-138.476	-4.588	-6.754	-138.544	-133.939	-14.368	3.437	-134.534	-130.129	-129.651	-125.052	18.667	-125.812	-8191	255	
959.803	1	1	0	0	0.13691	0.12448	0.15116	0.19653	0.11065	0.28707	0.33984	0.11349	0.20788	0.18117	0.077166	0.10901	0.3055	0.16374	0.21656	0.25852	-2.7188	-3.0208	-2.8604	-3.4437	-2.8375	-2.9958	-3.2292	-2.9729	-2.9583	-3.1188	-2.9167	-3.2438	-3.0271	-2.9604	-3.0854	-2.7646	42.911	-135.187	-86.444	170.442	36.581	-126.211	152.232	143.552	-104.942	124.176	-85.815	171.431	91.930	180.424	140.508	163.128	0.00037472	0.00056443	0.00014807	1383.9	4.1565e-06	4.6825e-06	1381	376.6	4.1221e-06	4.8211e-06	430.33	141.81	123.27	42.386	4.7317e-06	52.383	0.00047936	0.00051232	0.00015073	1396.7	5.8035e-06	5.6195e-06	1394.3	382.21	5.8534e-06	5.427e-06	436.3	145.08	126.32	43.325	5.848e-06	53.617	-100.497	-64.436	-59.460	-138.467	8.219	2.610	-138.830	-134.034	-28.983	-4.154	-134.629	-130.198	-129.584	-125.266	-12.766	-125.769	-8191	255	
959.899	1	1	0	0	0.1716	0.28838	0.22445	0.036828	0.05175	0.098987	0.28077	0.34616	0.12482	0.10027	0.074464	0.18862	0.23394	0.11915	0.16192	0.078192	-2.3979	-3.1479	-2.6979	-3.2146	-2.8708	-2.8688	-3.4771	-2.9792	-2.8917	-3.1354	-2.95	-3.3187	-3.2042	-2.825	-2.9979	-2.8083	137.705	190.999	25.459	122.386	58.746	-125.093	158.693	154.468	58.906	61.045	98.821	-107.594	147.249	110.736	-9.821	187.399	0.00037333	0.00055643	0.00016336	1386.6	4.5561e-06	4.456e-06	1375.2	375.69	4.1303e-06	5.399e-06	431.79	142.21	123.98	42.453	4.5981e-06	52.428	0.00048548	0.00048451	0.00015283	1397.3	5.9715e-06	5.6981e-06	1391	381.84	5.878e-06	5.3654e-06	436.57	145.06	126.55	43.349	5.6535e-06	53.617	-101.243	-63.491	-55.217	-138.471	1.042	-5.596	-138.559	-133.976	-14.570	-8.042	-134.490	-130.229	-129.531	-125.205	-16.767	-125.868	-8191	255	
959.995	1	1	0	0	0.35158	0.1462	0.29995	0.19948	0.092349	0.25831	0.11366	0.31466	0.26393	0.16849	0.23664	0.21928	0.22699	0.20399	0.29045	0.23609	-2.6729	-3.0042	-2.8125	-3.2417	-2.775	-2.6708	-3.3833	-3.0396	-2.9562	-3.2271	-2.9604	-3.2125	-3.1646	-2.7208	-3.0271	-3.0667	-59.788	114.995	111.205	163.236	16.128	52.626	171.645	161.227	122.484	169.651	124.080	156.810	115.847	195.276	105.750	108.792	0.00038963	0.00050936	0.0001141	1385.7	4.1366e-06	4.3605e-06	1381.1	376.53	4.3746e-06	5.4358e-06	429.49	141.59	123.78	42.323	4.488e-06	52.493	0.00049306	0.00050898	0.00014299	1396.9	5.6572e-06	5.5967e-06	1392.3	383.14	5.8318e-06	5.7027e-06	436.3	145.1	126.51	43.37	5.7126e-06	53.669	-102.249	-68.290	-60.994	-138.446	-6.830	-1.049	-138.491	-133.913	-10.600	9.031	-134.397	-130.151	-129.714	-125.360	4.640	-125.892	-8191	255	
960.114	1	1	0	0	0.060175	0.15111	0.12356	0.10603	0.091749	0.075235	0.031547	0.11819	0.12835	0.31776	0.24206	0.13279	0.19071	0.1834	0.13746	0.056401	-2.2875	-3.1417	-2.6958	-3.2458	-3.1458	-2.7375	-3.3688	-3.0563	-2.7167	-3.3417	-2.9146	-3.2375	-3.1646	-2.9708	-3.1937	-3.1667	59.660	24.531	-1.949	117.787	129.681	-55.396	195.179	170.579	-39.907	154.197	151.117	-111.727	-57.264	-131.654	13.948	169.148	0.00037285	0.0005409	0.00013004	1387.1	3.3911e-06	4.6319e-06	1382.1	376.76	4.3139e-06	4.8369e-06	430.7	141.8	123.81	42.455	4.9319e-06	52.61	0.00048688	0.00049525	0.00015023	1398.1	5.7841e-06	5.4509e-06	1396	382.75	6.0863e-06	5.6136e-06	436.44	145.08	126.45	43.333	5.6316e-06	53.722	-103.590	-75.720	-60.173	-138.384	3.417	-6.744	-138.534	-134.051	-29.268	-3.255	-134.578	-130.102	-129.760	-125.053	14.831	-125.666	-8191	255	
960.186	1	1	0	0	0.024518	0.16863	0.12569	0.257	0.13239	0.28712	0.21918	0.32304	0.14678	0.14703	0.15982	0.1635	0.14845	0.052915	0.096205	0.15809	-2.2646	-3.225	-2.8042	-3.1208	-3.2083	-2.7333	-3.4125	-3.1979	-2.9146	-3.1271	-2.8354	-3.1104	-3.2188	-2.7354	-2.9896	-3.2125	-151.399	-124.034	88.741	203.711	199.991	-99.092	141.874	174.771	-114.961	114.135	-88.458	-29.260	116.568	-107.895	-47.330	-76.026	0.00035906	0.0005244	0.00016158	1385.9	3.6702e-06	4.7609e-06	1380.1	376.63	4.1274e-06	4.7688e-06	430	141.61	123.86	42.447	3.9637e-06	52.5	0.00048364	0.00051598	0.00015546	1397.5	5.5832e-06	5.843e-06	1392.6	382.49	5.7871e-06	5.6875e-06	435.92	145.05	126.46	43.38	5.694e-06	53.658	-103.338	-70.515	-56.540	-138.447	-5.492	-5.449	-138.743	-133.917	-16.751	-1.874	-134.760	-130.069	-129.587	-124.972	1.585	-125.827	-8191	255	
960.284	1	1	0	0	0.18253	0.11583	0.2556	0.17429	0.112	0.10238	0.3967	0.24416	0.19676	0.11293	0.30081	0.40475	0.30395	0.1314	0.16458	0.21334	-2.275	-3.2021	-2.5667	-3.0625	-3.2417	-2.6708	-3.225	-3.1646	-2.6875	-3.1958	-3	-2.8479	-3.2875	-2.8	-2.9437	-3.2271	134.508	-40.429	130.873	184.266	-90.551	45.976	156.187	144.424	15.756	-25.676	112.997	206.395	-74.227	199.258	-140.715	152.824	0.00039006	0.00052981	0.0001457	1387.5	5.039e-06	4.952e-06	1374.3	376.26	3.6613e-06	5.8628e-06	431.19	141.54	123.96	42.379	2.8866e-06	52.328	0.00048611	0.00050378	0.00014555	1395.1	5.7005e-06	5.5911e-06	1391.3	381.9	6.1663e-06	5.6515e-06	436.04	144.87	126.41	43.277	5.8261e-06	53.626	-100.599	-68.979	-68.136	-138.554	-9.774	-6.049	-138.513	-134.106	-31.202	-7.443	-134.537	-130.211	-129.604	-124.935	-16.243	-125.754	-8191	255	
960.403	1	1	0	0	0.34853	0.10458	0.11451	0.16389	0.11263	0.21506	0.24448	0.32999	0.12737	0.061947	0.12011	0.17682	0.21666	0.18053	0.26459	0.12809	-2.2646	-3.1188	-2.6708	-3.0062	-3.3333	-2.8125	-3.2125	-3.2979	-2.7687	-3.1688	-2.9854	-2.7292	-3.2667	-2.8208	-2.8396	-3.3646	157.709	2.397	163.688	166.228	120.024	-105.994	56.465	171.350	46.101	195.709	178.859	-149.749	156.915	-134.110	170.218	183.259	0.00038442	0.00046562	0.00013939	1381.6	4.4146e-06	4.3401e-06	1376.5	375.8	4.0134e-06	4.0558e-06	433	141.58	123.98	42.456	4.2112e-06	52.556	0.00050075	0.00047655	0.0001456	1392.4	5.6377e-06	5.7814e-06	1390.1	381.88	5.9991e-06	5.4639e-06	437.05	144.96	126.3	43.36	5.7815e-06	53.646	-103.719	-71.074	-55.431	-138.626	7.217	-3.953	-138.568	-133.889	-6.767	-0.124	-134.686	-130.151	-129.743	-125.164	-1.674	-125.742	-8191	255	
960.499	1	1	0	0	0.1607	0.12007	0.21025	0.23742	0.21882	0.13935	0.056271	0.21927	0.19901	0.23646	0.18898	0.1884	0.36504	0.18692	0.16487	0.3164	-2.4042	-3.1	-2.8833	-2.9188	-3.0917	-2.6479	-3.1188	-3.2979	-2.6729	-3.1083	-2.9354	-3.0021	-3.2458	-3.0625	-2.7354	-3.1833	-42.957	177.875	-151.238	189.776	-102.580	-147.000	137.371	206.444	120.579	142.318	186.492	131.631	30.747	41.569	-89.934	126.599	0.0003918	0.00052907	0.00014096	1381.6	3.722e-06	5.0219e-06	1378.1	376.57	3.9027e-06	5.1366e-06	431.2	142.18	124.27	42.688	4.2805e-06	52.642	0.00048619	0.00050776	0.00014212	1394.9	5.6937e-06	5.8505e-06	1393.7	382.01	6.0683e-06	6.1196e-06	437.2	145.2	126.7	43.43	6.0279e-06	53.757	-102.270	-67.817	-70.932	-138.503	3.879	9.809	-138.553	-133.874	-20.495	-2.744	-134.573	-130.109	-129.531	-125.195	-8.653	-125.683	-8191	255	
960.595	1	1	0	0	0.12334	0.046409	0.13686	0.18215	0.093207	0.26266	0.28307	0.31157	0.11381	0.064867	0.014576	0.16424	0.15397	0.070732	0.066667	0.079258	-2.0583	-2.9917	-2.8625	-2.6333	-2.9667	-2.8521	-2.9417	-3.2771	-2.7229	-2.8812	-3.0708	-2.7438	-3.1229	-2.8812	-2.6813	-3.1063	136.221	-10.181	-20.545	-131.969	30.760	-44.712	175.496	165.726	172.249	110.354	14.299	150.422	149.169	-109.172	92.870	59.172	0.00037003	0.00054688	0.00012587	1386.7	4.6253e-06	3.5571e-06	1374.1	376.22	3.8328e-06	4.8808e-06	430.64	141.72	123.83	42.445	4.3929e-06	52.633	0.00049641	0.00051858	0.00014134	1396.8	5.6773e-06	5.6517e-06	1391.1	382.18	5.728e-06	5.7794e-06	436.08	145.06	126.6	43.389	5.9801e-06	53.746	-100.336	-73.563	-57.903	-138.449	-12.961	-14.797	-138.763	-134.042	-25.580	-6.495	-134.436	-130.262	-129.610	-125.253	3.737	-125.682	-8191	255	
960.691	1	1	0	0	0.13716	0.039341	0.20024	0.2292	0.058129	0.28394	0.16121	0.28399	0.07855	0.14907	0.038376	0.18604	0.30464	0.28527	0.11569	0.1515	-2.4375	-2.7625	-2.9958	-2.8583	-3.1146	-2.9708	-2.9646	-3.1688	-2.8667	-2.9167	-3.2333	-2.6896	-3.1375	-3.0417	-2.7417	-3.3583	199.382	-86.788	-117.440	126.374	20.824	-15.036	158.029	198.867	-129.807	-34.895	75.747	149.660	155.625	170.232	46.151	54.709	0.00038879	0.00042137	0.00018797	1386.1	4.7003e-06	3.1206e-06	1379.8	376.24	3.3125e-06	5.5001e-06	431.23	142.02	123.85	42.433	4.7814e-06	52.582	0.00049252	0.00050939	0.00015285	1395.4	5.4317e-06	5.5986e-06	1392.8	382.05	5.7121e-06	5.9376e-06	436.84	145.06	126.58	43.354	5.8942e-06	53.774	-103.064	-58.422	-61.581	-138.377	2.390	13.281	-138.571	-134.080	-14.179	-2.182	-134.715	-130.075	-129.641	-125.114	-6.468	-125.584	-8191	255	
960.787	1	1	0	0	0.14253	0.11561	0.068985	0.22925	0.068907	0.016341	0.32526	0.30754	0.11789	0.20265	0.10232	0.34078	0.10131	0.10051	0.12191	0.15348	-2.4625	-2.7792	-3.2667	-2.8688	-2.9833	-3.075	-2.9896	-3.2917	-2.7313	-2.9208	-3.2188	-2.7938	-3.1979	-2.8646	-2.6875	-3.1917	-55.837	26.172	51.079	-122.644	100.705	161.295	163.980	184.863	-34.890	-3.971	110.702	173.718	-136.871	123.168	-35.945	-100.809	0.0003695	0.00052241	0.00012461	1383.9	5.0072e-06	5.2441e-06	1377.1	376.91	3.7177e-06	5.2918e-06	431.24	141.81	123.51	42.285	3.5943e-06	52.529	0.00048168	0.00053654	0.00014256	1395.7	5.8177e-06	5.5428e-06	1391.7	382.74	5.6328e-06	5.8088e-06	436.18	145.2	126.38	43.336	5.7143e-06	53.731	-102.066	-54.734	-67.750	-138.450	2.812	-9.734	-138.489	-134.081	-16.415	-1.059	-134.569	-130.128	-129.531	-124.992	-0.987	-125.702	-8191	255	
960.883	1	1	0	0	0.14798	0.092667	0.12174	0.062133	0.16263	0.13521	0.2976	0.30481	0.097812	0.063819	0.23877	0.30259	0.075824	0.18345	0.088104	0.12195	-2.3021	-2.6167	-3.0375	-2.8104	-3.1396	-2.9208	-2.8063	-3.2	-2.825	-2.85	-3.4875	-2.7792	-3.2042	-3.2021	-2.6833	-3.2125	-37.563	203.680	99.689	-151.294	195.941	125.011	147.638	-149.242	187.576	4.326	141.079	175.764	137.156	189.232	186.652	-121.893	0.00038416	0.00057623	0.00014426	1384.5	4.4657e-06	4.6166e-06	1374.9	377.16	4.3005e-06	4.9193e-06	433.32	141.68	123.62	42.484	4.3774e-06	52.68	0.00048634	0.00052695	0.00013871	1397.1	5.6168e-06	5.5664e-06	1391.2	382.81	5.9046e-06	5.7662e-06	436.86	145.08	126.54	43.447	6.1722e-06	53.745	-101.928	-65.789	-61.353	-138.461	-2.965	-0.858	-138.533	-134.028	-24.734	1.358	-134.600	-129.972	-129.653	-125.201	6.406	-125.474	-8191	255	
961.004	1	1	0	0	0.2119	0.25421	0.10294	0.23424	0.075961	0.19792	0.10765	0.21446	0.29088	0.073079	0.23201	0.14471	0.06458	0.23424	0.14836	0.054841	-2.5458	-2.7292	-2.9854	-3.0312	-2.8396	-3.1521	-2.9479	-3.1646	-2.9688	-2.7812	-3.1708	-2.925	-3.1333	-3.2167	-2.6604	-3.3312	-43.972	152.378	-81.951	191.192	-9.148	-120.499	130.007	147.652	76.364	34.263	-137.645	-141.990	-141.070	171.687	-151.546	-22.023	0.00038592	0.00041429	0.00013991	1387.1	4.5333e-06	4.6572e-06	1382.9	377.79	3.8983e-06	4.9962e-06	432.22	142.13	124.25	42.577	4.2735e-06	52.524	0.00049214	0.00050858	0.00014451	1398.4	5.9715e-06	5.4992e-06	1395.9	383.23	5.7792e-06	5.8391e-06	437.69	145.51	126.75	43.482	5.7564e-06	53.769	-102.487	-50.398	-64.382	-138.559	12.263	8.700	-138.516	-133.872	-21.609	4.382	-134.649	-130.178	-129.655	-125.213	7.996	-125.643	-8191	255	
961.099	1	1	0	0	0.21833	0.15864	0.070767	0.4054	0.12178	0.36441	0.1558	0.2993	0.17877	0.10871	0.1943	0.16908	0.19389	0.27806	0.1955	0.30914	-2.6479	-2.6375	-2.8979	-3.0812	-2.7854	-3.1417	-2.8167	-3.1437	-3.0875	-2.7542	-3.2458	-2.9437	-2.8542	-3.2729	-2.9437	-3.0708	160.211	112.032	-42.708	152.045	-79.588	111.627	96.702	76.350	4.984	-86.830	189.929	136.842	-128.458	148.467	-82.505	102.653	0.00038816	0.00042645	0.0001453	1389.8	3.1188e-06	5.6273e-06	1381.2	377.16	3.6778e-06	3.7348e-06	431.75	141.9	124.19	42.686	5.2905e-06	52.696	0.00048771	0.00050573	0.0001441	1399.4	5.6206e-06	5.5314e-06	1394.4	383.16	5.6847e-06	5.66e-06	437.81	145.52	126.84	43.571	5.7953e-06	53.972	-103.037	-66.052	-59.216	-138.313	-11.752	-1.741	-138.605	-134.038	-21.872	11.050	-134.525	-130.224	-129.623	-125.123	6.416	-125.661	-8191	255	
961.195	1	1	0	0	0.085387	0.19391	0.36469	0.27416	0.051719	0.082727	0.23169	0.14229	0.10282	0.1834	0.26684	0.19585	0.1872	0.15181	0.12733	0.15955	-2.3312	-2.6771	-3.0812	-2.9458	-2.55	-3.225	-3	-3.125	-3.0625	-2.6063	-3.2042	-3.1729	-2.7604	-3.2104	-2.8896	-2.9458	96.732	-52.614	-62.720	189.050	-145.686	110.587	91.616	-144.238	-45.713	137.338	200.143	155.534	180.305	77.395	-40.474	126.371	0.00037557	0.00053096	0.0001631	1389.8	3.9285e-06	4.3277e-06	1379.3	378.2	4.3411e-06	5.2552e-06	432.64	142.21	124.62	42.438	3.7708e-06	52.623	0.00048599	0.00050622	0.00013694	1399.6	5.8864e-06	5.5172e-06	1396.1	383.71	5.8124e-06	5.7946e-06	437.74	145.41	126.99	43.421	5.7232e-06	53.717	-101.785	-60.290	-65.634	-138.461	2.651	11.129	-138.476	-133.934	-27.690	-7.820	-134.610	-130.122	-129.527	-125.180	10.449	-125.847	-8191	255	
961.291	1	1	0	0	0.0020661	0.1717	0.36728	0.093797	0.25578	0.081168	0.38654	0.34827	0.28505	0.11543	0.14948	0.17532	0.37523	0.12805	0.076703	0.083588	-2.7896	-2.6917	-3.0146	-3.1271	-2.7271	-3.1917	-2.8896	-2.8812	-3.1354	-2.5792	-3.2458	-3.0854	-2.7583	-3.175	-2.7229	-2.9083	180.000	-98.320	-51.119	167.506	-94.564	178.363	125.851	144.287	100.128	50.883	193.119	191.819	-150.261	-134.765	-137.273	156.813	0.00039065	0.00050772	0.00012958	1386.8	3.5538e-06	4.9308e-06	1381.5	377.73	4.0489e-06	6.9676e-06	431.78	142.49	123.62	42.362	4.6518e-06	52.502	0.00048275	0.00055183	0.00014746	1396.4	5.914e-06	5.6422e-06	1393.9	382.84	5.653e-06	5.7159e-06	437.13	145.28	126.5	43.38	5.7515e-06	53.697	-102.274	-68.771	-59.450	-138.625	-7.141	10.364	-138.570	-133.904	-17.898	9.379	-134.368	-130.025	-129.538	-125.034	-12.658	-125.637	-8191	255	
961.411	1	1	0	0	0.080729	0.15784	0.16436	0.24031	0.049725	0.26393	0.064162	0.15533	0.19583	0.086264	0.096555	0.18644	0.20254	0.073923	0.2394	0.097995	-2.5583	-2.7208	-2.8333	-3.25	-2.575	-3.1125	-2.9167	-2.9125	-3.1312	-2.7083	-3.0458	-3.2333	-2.7687	-3.1562	-2.8583	-2.7854	71.556	20.930	-96.117	181.595	184.752	-15.665	187.062	-139.235	36.064	-110.008	26.493	-42.216	179.169	182.077	-42.948	-78.673	0.00037308	0.00055374	0.0001682	1387.6	3.3969e-06	3.744e-06	1376.9	377.01	3.9861e-06	4.5654e-06	431.41	141.92	123.86	42.451	3.9593e-06	52.53	0.00047565	0.00052183	0.00014479	1397.1	5.6363e-06	5.574e-06	1390.9	383.03	5.8253e-06	5.7311e-06	437.2	145.34	126.59	43.408	5.8561e-06	53.7	-101.981	-74.462	-49.316	-138.496	-5.739	-9.570	-138.647	-134.022	-21.836	0.418	-134.346	-130.417	-129.737	-125.124	1.116	-125.590	-8191	255	
961.483	1	1	0	0	0.11552	0.054853	0.18973	0.22516	0.1006	0.14831	0.07458	0.32144	0.25161	0.11802	0.13772	0.50942	0.3567	0.15227	0.12264	0.20011	-2.5729	-2.5021	-2.9625	-3.275	-2.6333	-3.025	-3.1312	-2.9229	-2.9833	-2.8125	-2.9	-3.0667	-2.7167	-3.1354	-3.1688	-2.6875	-43.086	155.800	-82.011	-145.355	-14.895	-47.540	136.252	87.753	167.581	-85.256	86.788	163.314	196.387	204.365	-5.941	-120.329	0.00040742	0.00043661	0.0001265	1386	3.4523e-06	6.3113e-06	1377.3	378.48	3.7431e-06	4.9021e-06	431.71	141.73	123.85	42.44	3.9e-06	52.45	0.00049632	0.00052662	0.00013919	1396	5.7117e-06	5.3628e-06	1392.5	383.46	5.6299e-06	5.7737e-06	437.98	145.24	126.43	43.35	5.8342e-06	53.755	-101.999	-61.321	-59.275	-138.339	-16.713	-7.552	-138.577	-133.902	-22.931	2.735	-134.576	-130.282	-129.564	-125.231	4.458	-125.719	-8191	255	
961.579	1	1	0	0	0.19103	0.20496	0.10305	0.23569	0.11979	0.18199	0.11342	0.35204	0.16948	0.083906	0.052314	0.22301	0.096987	0.24798	0.17289	0.18727	-2.6479	-2.8333	-2.8917	-3.3667	-2.6521	-3.0417	-2.9521	-2.8563	-3.1625	-2.8312	-2.8542	-3.1729	-2.8438	-3.1375	-2.8021	-2.8583	-2.471	201.338	134.241	156.849	29.787	127.294	-128.626	163.239	-129.659	-151.812	-131.294	84.383	-145.232	113.095	185.575	155.227	0.00037138	0.00050382	0.00012179	1387.6	4.8261e-06	5.8696e-06	1378.5	377.95	4.1342e-06	5.0311e-06	433.86	142.05	123.79	42.614	4.8268e-06	52.506	0.00047419	0.00050744	0.00014157	1397.5	6.029e-06	5.5314e-06	1394.2	383.7	5.6696e-06	5.9016e-06	437.6	145.31	126.62	43.499	5.7459e-06	53.725	-103.274	-72.563	-70.163	-138.569	-11.990	-1.861	-138.715	-134.032	-22.475	-6.098	-134.483	-130.188	-129.674	-125.384	-8.602	-125.695	-8191	255	
961.675	1	1	0	0	0.053752	0.11933	0.073603	0.21481	0.14482	0.21699	0.16602	0.23118	0.027753	0.13333	0.17157	0.17999	0.12513	0.085829	0.13745	0.25646	-2.7479	-2.7625	-2.6896	-3.125	-2.7396	-2.9875	-3.225	-2.8	-3.1625	-3.0354	-2.9167	-3.2729	-2.9521	-3.1562	-3.0646	-2.5292	-116.105	194.810	157.038	110.556	51.939	71.552	95.944	206.492	-56.658	128.869	115.119	-144.960	71.005	130.898	49.455	-150.486	0.00037856	0.00062496	0.00013015	1383	4.0186e-06	5.3e-06	1376.2	378.35	3.5019e-06	4.9633e-06	433.14	142.59	124.53	42.42	4.4684e-06	52.517	0.00048242	0.00051695	0.00013832	1394.7	5.5944e-06	5.6933e-06	1392.1	383.7	5.9003e-06	5.8363e-06	437.94	145.62	126.77	43.424	5.6186e-06	53.72	-102.128	-55.627	-64.127	-138.536	-2.467	-0.027	-138.619	-134.010	-12.736	1.245	-134.540	-130.327	-129.725	-124.983	-6.539	-125.711	-8191	255	
961.772	1	1	0	0	0.097049	0.16419	0.090534	0.099409	0.29158	0.060562	0.098225	0.23244	0.23673	0.090685	0.17819	0.060325	0.22415	0.12073	0.11831	0.21236	-2.5875	-2.8354	-2.7583	-3.4667	-2.7229	-2.9938	-3.1646	-2.9271	-3.0563	-3.125	-2.9604	-3.2687	-3.0792	-3.0125	-3.0042	-2.8167	73.264	167.091	73.946	171.401	168.357	-66.134	66.153	104.079	-24.862	174.119	145.616	-54.789	154.715	168.118	-137.529	189.454	0.00037483	0.00051952	0.00013852	1386	4.6506e-06	6.49e-06	1379.3	378.11	4.2418e-06	4.1716e-06	430.47	142.01	123.95	42.838	4.687e-06	52.762	0.00047428	0.00050996	0.00013463	1398	5.8543e-06	5.645e-06	1393.8	383.77	5.9738e-06	5.7396e-06	437.36	145.32	126.8	43.574	5.5562e-06	53.86	-101.828	-70.621	-64.337	-138.565	-10.745	-2.287	-138.568	-133.867	-16.814	4.621	-134.469	-130.113	-129.620	-125.141	0.668	-125.626	-8191	255	
961.892	1	1	0	0	0.081209	0.11595	0.099287	0.094351	0.27368	0.15929	0.11221	0.26628	0.13887	0.1974	0.066709	0.17032	0.11952	0.26737	0.019413	0.11835	-2.5021	-2.9667	-2.7562	-3.3292	-2.9146	-2.8771	-3.3771	-2.8854	-3.05	-3.1688	-2.7771	-3.2812	-3.0333	-2.9375	-3.2146	-2.8583	-130.834	183.868	191.009	125.469	-57.525	173.669	70.575	193.094	-3.637	195.363	-138.684	179.758	96.409	164.239	83.711	-88.049	0.00040155	0.0004912	0.0001551	1388.5	4.8716e-06	5.3621e-06	1383.1	378.94	3.7367e-06	4.7571e-06	434.72	143.23	125.17	42.617	4.0309e-06	52.749	0.00050357	0.00050614	0.00013949	1399.3	5.6176e-06	5.5769e-06	1396.4	384.48	5.852e-06	5.624e-06	439.58	146.43	127.79	43.589	5.6648e-06	53.968	-101.450	-70.442	-59.475	-138.430	-4.297	6.084	-138.660	-133.944	-23.592	-3.609	-134.627	-130.017	-129.495	-125.391	0.758	-125.768	-8191	255	
961.987	1	1	0	0	0.17765	0.19391	0.18518	0.40619	0.14329	0.25158	0.11268	0.21539	0.17774	0.2624	0.13055	0.22932	0.26714	0.15618	0.038272	0.35732	-2.5958	-2.9042	-2.6208	-3.2646	-2.9813	-2.6979	-3.5062	-2.7875	-3.0104	-3.0417	-2.7458	-3.1729	-2.975	-2.6292	-3.125	-2.8583	-55.896	-68.292	2.710	133.602	11.309	-35.345	167.378	-143.499	104.087	-38.354	157.015	154.258	108.587	139.888	27.048	116.289	0.000385	0.00044839	0.00016643	1389.7	4.9753e-06	4.2556e-06	1379.8	378.07	3.8986e-06	5.5154e-06	431.71	143.25	124.97	42.606	3.7168e-06	52.686	0.00049915	0.00050785	0.00015138	1400.5	5.8423e-06	5.4045e-06	1397.9	383.73	6.0568e-06	5.8476e-06	438.18	146.35	127.6	43.602	5.8423e-06	54.022	-101.977	-66.912	-53.286	-138.439	-14.819	-3.840	-138.549	-133.998	-1.457	-0.703	-134.666	-130.222	-129.655	-125.119	-2.307	-125.882	-8191	255	
962.084	1	1	0	0	0.12258	0.20332	0.055607	0.20743	0.11952	0.12325	0.11582	0.11755	0.16293	0.087873	0.056156	0.13042	0.065697	0.15694	0.027544	0.11492	-2.4333	-3.0146	-2.6146	-3.1792	-2.8979	-2.6854	-3.4688	-2.9313	-2.8688	-3.2396	-2.9167	-3.0896	-3.0646	-2.6583	-3.1937	-2.9396	32.948	19.020	-37.364	152.410	-8.967	67.831	36.104	186.553	-24.661	164.950	-150.350	137.845	147.935	203.505	20.742	138.862	0.00036618	0.00059619	0.0001481	1395.8	4.6171e-06	5.0597e-06	1382.6	378.23	3.2178e-06	4.6749e-06	431.78	143.55	125.01	42.736	4.501e-06	52.755	0.00048676	0.00048508	0.00014394	1404.3	5.7542e-06	5.7331e-06	1400.3	383.53	5.6516e-06	5.7529e-06	438.62	146.5	127.78	43.694	5.6705e-06	54.033	-101.822	-59.205	-71.716	-138.571	-18.048	1.635	-138.643	-133.832	-25.278	-14.291	-134.599	-130.155	-129.474	-125.268	6.711	-125.597	-8191	255	
962.179	1	1	0	0	0.17697	0.15128	0.18884	0.23757	0.07048	0.056905	0.18438	0.22987	0.099531	0.049882	0.2135	0.18294	0.10679	0.10506	0.30319	0.13309	-2.2604	-3.2687	-2.6063	-3.0333	-3.0458	-2.7604	-3.2375	-3.0458	-2.7188	-3.0667	-2.8271	-2.9354	-3.1979	-2.8875	-3.0417	-3.0062	31.224	-68.877	-34.427	70.840	133.633	95.671	167.024	81.143	-89.621	-104.266	154.826	-133.111	-63.652	204.489	183.760	207.408	0.00039308	0.00046881	0.00015661	1394.9	3.5182e-06	3.4349e-06	1385.5	379.32	4.1883e-06	5.0879e-06	432.58	143.73	125.59	42.701	3.7129e-06	52.588	0.00049383	0.00052597	0.00014885	1406	5.6146e-06	5.7227e-06	1399.7	384.22	5.6797e-06	5.6373e-06	438.22	146.69	127.97	43.659	5.7167e-06	53.939	-102.524	-56.996	-51.592	-138.652	-10.670	6.449	-138.552	-134.111	-28.340	-2.705	-134.498	-130.507	-129.672	-124.997	-0.924	-125.783	-8191	255	
962.275	1	1	0	0	0.089846	0.28779	0.090786	0.30366	0.079648	0.090116	0.31401	0.13586	0.031456	0.11213	0.21681	0.12103	0.12965	0.18815	0.22509	0.052497	-2.3354	-3.0167	-2.6562	-2.95	-3.1646	-2.7229	-3.2917	-3.025	-2.6521	-3.0187	-3.0062	-2.9813	-3.1771	-2.8229	-2.9562	-3.0312	77.558	-113.459	117.367	165.680	-10.466	58.106	151.614	114.490	126.269	57.051	131.868	194.320	173.443	-121.994	-140.808	123.259	0.00039372	0.00051861	0.0001503	1395.9	4.5419e-06	5.1512e-06	1384.8	378.1	4.1602e-06	4.8634e-06	431.56	143.6	124.95	42.829	4.4416e-06	52.787	0.00048527	0.00048842	0.00014809	1404.6	5.5011e-06	5.8515e-06	1400.7	383.54	5.7655e-06	5.5644e-06	437.68	146.6	127.67	43.727	5.8772e-06	53.964	-102.219	-78.218	-74.608	-138.468	1.165	-3.941	-138.504	-134.009	-18.449	2.857	-134.543	-130.166	-129.537	-125.085	2.159	-125.842	-8191	255	
962.371	1	1	0	0	0.13933	0.22792	0.27319	0.241	0.25929	0.34179	0.25587	0.34074	0.24054	0.19862	0.083289	0.10226	0.22568	0.2559	0.11584	0.11562	-2.3042	-3.0333	-2.8625	-3.0396	-2.9542	-2.6063	-3.1625	-3.1833	-2.7479	-3.0854	-2.9833	-2.8833	-3.2021	-2.8896	-3.0021	-3.1271	10.585	206.219	17.696	-140.421	200.803	-19.489	170.540	204.292	188.798	-122.820	87.635	195.620	163.393	159.629	114.718	-45.168	0.00038247	0.00052749	0.00015861	1393.4	3.7114e-06	4.0698e-06	1386.6	377.64	4.362e-06	4.5212e-06	434.6	143.04	125.14	42.725	4.701e-06	52.648	0.00048911	0.00051906	0.00014419	1405.1	5.5765e-06	5.735e-06	1400.4	383.46	5.9486e-06	5.5208e-06	438.43	146.51	127.75	43.693	5.7491e-06	53.976	-101.744	-70.604	-63.947	-138.486	-10.162	15.071	-138.526	-133.928	-25.035	-7.809	-134.579	-130.207	-129.757	-125.229	-12.087	-125.913	-8191	255	
962.492	1	1	0	0	0.13558	0.096281	0.053997	0.28565	0.12718	0.12569	0.13987	0.385	0.13201	0.17669	0.26287	0.17672	0.088198	0.27632	0.19446	0.23709	-2.2854	-3.0042	-2.7792	-2.9833	-3.2417	-2.8292	-3.1792	-3.1333	-2.6083	-3.0917	-2.9854	-2.7875	-3.1813	-2.7812	-2.8854	-3.0583	-142.398	-81.436	174.950	169.791	-143.668	-137.576	121.896	171.975	-26.380	168.460	205.623	53.095	203.239	-111.397	-110.603	-78.021	0.00037986	0.00052104	0.0001578	1396.1	4.0525e-06	4.9497e-06	1389.8	376.92	4.0043e-06	4.0434e-06	432.11	143.7	125.47	42.762	2.9748e-06	52.794	0.00050256	0.00048777	0.00014242	1404.2	5.6348e-06	6.0522e-06	1400.9	383.3	5.8607e-06	5.3142e-06	438.26	146.46	127.93	43.681	5.728e-06	54.042	-101.922	-68.859	-61.921	-138.454	-0.691	0.221	-138.661	-134.014	-26.364	-13.992	-134.370	-130.270	-129.793	-124.999	9.953	-125.716	-8191	255	
962.588	1	1	0	0	0.20483	0.19123	0.22314	0.31689	0.060484	0.099256	0.16507	0.26209	0.078357	0.25021	0.089355	0.35281	0.24167	0.36276	0.18964	0.12302	-2.1771	-3.0625	-2.9792	-2.7771	-3.1896	-2.9771	-3.1208	-3.2313	-2.6479	-3.0021	-3.1208	-2.7229	-3.1937	-2.8646	-2.9104	-2.9729	-51.769	41.738	178.335	173.528	-124.182	-54.955	127.039	131.945	-29.154	108.576	-122.988	-130.772	206.690	116.246	-97.946	186.137	0.00037939	0.0005177	0.00016891	1394.4	4.002e-06	5.1748e-06	1389.2	377.23	4.0693e-06	5.3627e-06	432.46	143.68	125.05	42.711	4.3339e-06	52.739	0.00050292	0.00051484	0.00014083	1405.9	5.5056e-06	5.6725e-06	1401.2	383.34	6.0034e-06	5.6364e-06	438.29	146.79	127.8	43.664	5.7491e-06	54.021	-101.553	-66.313	-57.513	-138.488	-1.472	4.532	-138.635	-133.890	-31.433	9.617	-134.590	-130.232	-129.645	-125.090	8.818	-125.807	-8191	255	
962.684	1	1	0	0	0.15995	0.2692	0.167	0.25632	0.23689	0.064205	0.14904	0.17261	0.35156	0.18525	0.25384	0.23133	0.21647	0.08793	0.068394	0.16988	-2.2917	-2.9333	-2.7833	-2.6937	-3.0917	-2.7208	-3.0771	-3.1583	-2.6708	-2.9771	-3.2083	-2.7771	-3.2083	-2.9729	-2.625	-3.3438	-0.223	-58.768	-59.900	173.202	-64.392	23.372	109.161	184.205	-23.041	-8.499	206.431	18.344	131.496	-30.026	166.375	2.581	0.00037889	0.00052052	0.00014705	1396.6	5.1166e-06	5.3069e-06	1381.2	377.42	4.6556e-06	5.1958e-06	433.51	142.85	124.97	42.601	4.2166e-06	52.933	0.00049252	0.00050768	0.00014028	1406.6	5.7251e-06	5.718e-06	1400	383.82	5.8369e-06	5.8438e-06	437.79	146.34	127.84	43.647	5.6381e-06	53.975	-103.149	-67.490	-61.358	-138.628	-9.076	0.688	-138.554	-133.867	-24.090	-5.394	-134.601	-130.435	-129.628	-125.166	-6.615	-125.725	-8191	255	
962.780	1	1	0	0	0.22749	0.069744	0.24665	0.31605	0.25448	0.29243	0.23416	0.3044	0.1385	0.14729	0.1407	0.17821	0.15697	0.29449	0.084088	0.098447	-2.4792	-2.9792	-2.9167	-2.7542	-3.1063	-2.8396	-2.8667	-3.3917	-2.8063	-2.7896	-3.1396	-2.7938	-3.3312	-2.9146	-2.5208	-3.2771	65.086	-71.191	169.029	185.994	71.757	64.155	121.261	148.792	35.124	111.571	-16.056	-93.944	-138.739	172.115	7.094	9.433	0.00038836	0.00044033	0.00013946	1389.6	3.8643e-06	4.3413e-06	1383	377.37	4.2762e-06	5.7248e-06	431.7	143.23	124.99	42.647	4.1894e-06	52.713	0.00049555	0.00052158	0.00014051	1403.6	5.46e-06	5.5305e-06	1399.8	383.53	5.958e-06	5.8126e-06	437.11	146.37	127.72	43.608	5.8131e-06	53.875	-101.290	-66.667	-55.989	-138.520	-0.384	-2.545	-138.636	-134.087	-22.506	-3.122	-134.483	-130.231	-129.765	-125.097	5.874	-125.681	-8191	255	
962.876	1	1	0	0	0.12367	0.15027	0.1044	0.18688	0.12335	0.10899	0.10599	0.053045	0.14887	0.19365	0.36267	0.14516	0.25249	0.13225	0.21257	0.21076	-2.1937	-2.925	-2.9062	-2.9896	-3.1167	-2.8479	-2.8229	-3.1625	-2.6771	-2.8563	-3.0042	-2.6688	-3.1042	-2.9229	-2.6958	-3.2646	-131.701	64.134	176.177	199.413	13.284	-39.744	68.670	171.346	90.214	15.926	170.343	116.934	187.318	8.874	-115.943	93.898	0.00037096	0.00039246	0.00011568	1390.3	4.1689e-06	4.9043e-06	1386.8	378.06	3.5666e-06	4.1525e-06	433.1	143.16	125.07	42.665	4.9158e-06	52.766	0.0004919	0.00049825	0.00014099	1403.8	5.6818e-06	5.6668e-06	1400.9	383.43	5.7525e-06	5.7235e-06	437.69	146.41	127.68	43.62	5.8731e-06	53.971	-103.657	-67.919	-63.816	-138.542	-5.868	2.507	-138.606	-134.051	-14.664	-5.480	-134.519	-130.085	-129.555	-125.164	-2.664	-125.610	-8191	255	
962.973	1	1	0	0	0.045606	0.20026	0.20083	0.087231	0.070822	0.11196	0.16155	0.16651	0.25306	0.12423	0.13607	0.17481	0.28937	0.18703	0.10967	0.26285	-2.4229	-2.8417	-2.9083	-2.9396	-2.8958	-2.9229	-2.8375	-3.0333	-2.8583	-2.8521	-3.1479	-2.7917	-3.0458	-3.2125	-2.5708	-3.1396	200.421	73.829	-118.574	171.050	-5.578	-43.400	154.534	82.847	-111.441	161.286	106.069	177.013	182.849	-140.803	11.543	95.633	0.00037433	0.00048373	0.00015577	1392.4	4.8668e-06	5.5836e-06	1385.4	378.06	3.8121e-06	4.7594e-06	433.38	143.08	125.4	42.728	4.3801e-06	52.763	0.00048628	0.00050427	0.00013848	1404.9	5.6348e-06	5.468e-06	1399.9	383.72	5.8333e-06	5.6401e-06	437.61	146.37	127.89	43.648	5.7394e-06	53.983	-103.631	-56.043	-61.018	-138.435	4.112	-0.389	-138.730	-133.962	-29.983	-3.462	-134.627	-130.114	-129.639	-125.017	-13.083	-125.651	-8191	255	
963.069	1	1	0	0	0.23839	0.2457	0.11726	0.27555	0.14637	0.052601	0.12872	0.20543	0.32256	0.091566	0.19765	0.1706	0.03459	0.28865	0.22268	0.16063	-2.3563	-2.6479	-2.8937	-2.825	-2.7938	-3.1396	-2.8208	-3.1771	-3.0354	-2.7646	-3.1188	-2.9854	-2.9979	-3.2042	-2.6521	-3.15	-108.786	-104.815	-2.243	173.664	143.482	201.810	135.864	51.043	110.242	126.608	-140.235	195.831	42.389	145.029	20.363	-151.141	0.0003844	0.00045005	0.00012359	1394.8	4.3817e-06	4.8882e-06	1389.9	378.24	4.5408e-06	5.0706e-06	431.2	142.98	125.03	42.533	3.9422e-06	52.697	0.00049246	0.00052045	0.00014371	1404.3	5.7863e-06	5.7653e-06	1400.7	383.23	5.8599e-06	5.9348e-06	437.18	146.47	127.68	43.656	5.8504e-06	54.017	-100.621	-50.672	-44.283	-138.384	4.935	-1.499	-138.661	-134.100	-17.792	-4.694	-134.360	-130.213	-129.707	-125.045	0.904	-125.724	-8191	255	
963.188	1	1	0	0	0.10966	0.13002	0.20453	0.33065	0.081196	0.17661	0.34682	0.028154	0.12806	0.21423	0.1238	0.19112	0.15174	0.19289	0.171	0.1578	-2.5625	-2.7417	-3.0229	-2.825	-2.9042	-3.1333	-2.925	-2.9917	-2.8583	-2.8229	-3.1646	-2.8896	-2.9604	-3.2583	-2.9604	-3.1521	115.544	10.368	-51.936	141.066	164.209	-128.286	140.816	71.064	-141.685	154.494	173.736	129.358	147.026	171.375	-1.152	112.527	0.00038209	0.00048194	0.00013123	1397.4	4.8463e-06	6.0342e-06	1385.1	378.86	4.3756e-06	4.4648e-06	431.87	142.82	125.54	42.753	4.38e-06	52.807	0.00049142	0.00052492	0.00013993	1405.3	5.7288e-06	5.7255e-06	1400.5	383.92	5.8578e-06	5.5805e-06	437.65	146.25	127.9	43.628	5.8577e-06	53.961	-100.772	-67.568	-60.056	-138.656	-10.465	-4.496	-138.600	-133.951	-15.979	-11.793	-134.550	-130.105	-129.725	-125.080	-4.794	-125.689	-8191	255	
963.284	1	1	0	0	0.069931	0.17628	0.21547	0.16664	0.097371	0.026774	0.18127	0.097348	0.10686	0.082278	0.20049	0.1007	0.23276	0.191	0.16996	0.063242	-2.3958	-2.6292	-2.9604	-3.2667	-2.7188	-3.0521	-2.9583	-2.9854	-3.0812	-2.6604	-3.25	-2.9229	-2.7458	-3.2417	-2.7708	-2.9896	33.149	53.732	-89.118	151.771	135.010	132.678	115.068	70.261	-147.103	-138.983	154.149	-6.200	-106.306	-124.301	-88.782	113.552	0.00037619	0.00043343	0.00017088	1397.6	3.5277e-06	4.3051e-06	1390	377.89	4.795e-06	5.5147e-06	430.71	142.97	125.26	42.79	4.1481e-06	52.803	0.00049243	0.00051069	0.00014567	1405.8	5.6467e-06	5.6413e-06	1400	383.42	5.9486e-06	5.6439e-06	437.16	146.4	127.84	43.654	5.9541e-06	53.995	-100.914	-59.165	-56.376	-138.522	-0.458	-2.511	-138.729	-133.898	-20.116	6.501	-134.646	-130.157	-129.458	-125.272	-7.109	-125.792	-8191	255	
963.355	1	1	0	0	0.12233	0.096865	0.21222	0.15696	0.148	0.11211	0.090596	0.24656	0.093053	0.097705	0.17605	0.25261	0.10816	0.14959	0.1631	0.21483	-2.5583	-2.525	-3.0583	-3.0312	-2.7083	-3.0687	-3.025	-3.1	-3.0187	-2.7542	-3.3063	-3.0625	-2.85	-3.1854	-2.8771	-2.9792	90.555	113.045	-52.739	153.115	204.685	168.938	-64.067	115.090	-31.845	194.198	201.197	-147.782	112.675	191.676	141.275	-68.487	0.00038805	0.00052675	0.00014839	1390	3.7098e-06	5.488e-06	1383.5	377.34	3.7294e-06	6.2418e-06	433.75	142.83	125.04	42.664	4.1027e-06	52.806	0.00049139	0.00050451	0.0001429	1403	5.7064e-06	5.3401e-06	1398.9	383.25	5.5874e-06	6.04e-06	438.03	146.04	127.52	43.551	5.7937e-06	53.871	-103.049	-58.715	-57.808	-138.694	10.369	17.465	-138.776	-133.994	-18.552	23.190	-134.585	-130.249	-129.639	-125.154	7.165	-125.621	-8191	255	
963.452	1	1	0	0	0.22475	0.15837	0.34684	0.40156	0.18671	0.17926	0.27089	0.18572	0.22086	0.22022	0.24198	0.27217	0.19821	0.1607	0.19	0.20026	-2.675	-2.6688	-2.7313	-3.1354	-2.7854	-3.0875	-2.9333	-3.075	-3.2812	-2.7458	-3.0521	-3.0146	-2.7604	-3.1854	-2.7812	-3.0167	0.842	121.370	-145.560	182.257	120.501	-135.562	151.223	112.148	7.396	56.576	198.770	116.886	187.020	140.270	-113.954	99.655	0.00039907	0.00060675	0.00012968	1393.7	3.8637e-06	4.7867e-06	1380.7	377.2	4.5776e-06	5.186e-06	431.07	142.43	124.57	42.543	4.4338e-06	52.258	0.00047996	0.00051053	0.00014182	1401.7	5.8304e-06	5.6356e-06	1398	382.96	5.8996e-06	5.8192e-06	437.12	145.71	127.35	43.446	5.7013e-06	53.731	-100.758	-67.291	-66.020	-138.417	1.720	-12.082	-138.577	-134.021	-34.063	-2.900	-134.337	-130.234	-129.722	-124.987	-4.197	-125.828	-8191	255	
963.572	1	1	0	0	0.030702	0.064068	0.039474	0.12074	0.15883	0.15571	0.3127	0.12777	0.060501	0.16566	0.22824	0.2283	0.28358	0.26865	0.18948	0.35647	-2.6562	-2.8063	-2.9708	-3.2708	-2.6583	-3.2167	-3.0708	-3.0438	-3.1833	-2.8021	-2.9938	-3.1937	-2.8021	-3.1375	-2.8646	-2.7958	44.648	-45.693	146.886	-110.549	176.368	180.383	168.728	60.520	129.504	188.360	173.395	150.367	132.739	-136.618	19.093	112.036	0.00038738	0.00043186	0.00014854	1388.4	3.9351e-06	5.1284e-06	1380.4	376.82	4.3995e-06	5.1317e-06	432.09	142.94	124.52	42.639	4.0201e-06	52.339	0.00049237	0.00052475	0.0001385	1400.3	5.8132e-06	5.4935e-06	1397.6	382.81	5.9508e-06	5.8893e-06	437.07	146.09	127.41	43.5	5.6794e-06	53.736	-101.600	-65.716	-54.802	-138.694	-1.624	-5.581	-138.738	-133.875	-13.884	-1.823	-134.509	-129.855	-129.721	-125.320	2.273	-125.689	-8191	255	
963.668	1	1	0	0	0.11771	0.15095	0.10479	0.34382	0.15552	0.19563	0.34893	0.21255	0.16134	0.26001	0.086397	0.13909	0.31145	0.27479	0.17444	0.056868	-2.7833	-2.7188	-2.7354	-3.2417	-2.6479	-3.0021	-3.15	-2.9333	-3.0896	-3.0146	-3.0208	-3.1771	-2.9458	-3.1521	-2.9125	-2.7646	-53.835	204.620	187.236	-134.017	-118.002	124.428	188.404	116.264	135.392	101.577	187.684	109.436	192.067	5.070	162.393	108.049	0.00039667	0.00047438	0.00014475	1390.3	4.4021e-06	5.2247e-06	1380.3	377.21	4.7356e-06	5.8971e-06	432.46	142.98	124.53	42.695	3.3305e-06	52.378	0.00048596	0.00052638	0.00014392	1402.6	5.8998e-06	5.6195e-06	1395.8	382.77	5.7547e-06	5.8249e-06	437.42	145.79	127.08	43.537	5.6981e-06	53.674	-101.822	-79.905	-63.117	-138.443	-1.402	-5.635	-138.481	-133.960	-17.207	6.678	-134.595	-130.091	-129.445	-125.035	-10.814	-125.571	-8191	255	
963.764	1	1	0	0	0.17901	0.27409	0.12692	0.30394	0.079636	0.075757	0.1576	0.1667	0.040815	0.24131	0.033549	0.14572	0.16727	0.17284	0.21428	0.20592	-2.5812	-2.7812	-2.7542	-3.2812	-2.6437	-2.9583	-3.2708	-2.8187	-3.1042	-2.9479	-2.6875	-3.1229	-2.9688	-2.8646	-2.9479	-2.7521	115.864	-31.785	144.442	155.744	-112.622	188.085	88.533	178.978	-86.997	205.850	67.461	-129.793	-105.731	174.486	53.368	194.077	0.000384	0.00045618	0.00013758	1383.2	3.3153e-06	5.7231e-06	1384	375.77	3.9712e-06	4.2302e-06	431.86	142.52	124.54	42.46	4.171e-06	52.457	0.00049422	0.00054475	0.00014813	1399.6	6.0028e-06	5.8202e-06	1395.9	381.94	5.7886e-06	5.823e-06	436.87	145.79	127.21	43.416	5.566e-06	53.7	-103.036	-59.779	-53.789	-138.720	1.000	-1.384	-138.724	-133.968	-22.880	-0.195	-134.645	-130.231	-129.495	-124.933	5.818	-125.701	-8191	255	
963.885	1	1	0	0	0.078837	0.19267	0.03478	0.089801	0.038725	0.041425	0.32309	0.19379	0.13683	0.27912	0.11885	0.35382	0.27647	0.067485	0.16114	0.15619	-2.3917	-3.0083	-2.5854	-3.3875	-2.6813	-2.9437	-3.2229	-2.6	-3.0479	-2.7979	-2.9062	-3.1375	-2.9875	-2.9542	-3.0062	-2.7646	175.935	-30.107	196.381	164.735	119.398	207.586	183.775	125.396	123.237	127.610	51.368	-128.543	-149.863	167.142	93.233	27.649	0.00039075	0.00048213	0.00013259	1389.6	4.0206e-06	5.2526e-06	1373.9	377.23	3.6777e-06	5.1586e-06	430.88	142.93	124.53	42.499	3.5151e-06	52.562	0.00049068	0.00050939	0.00014903	1399.5	5.7072e-06	5.8278e-06	1394.6	382.4	5.5889e-06	5.5283e-06	436.68	145.77	127.25	43.486	5.7783e-06	53.778	-102.984	-63.082	-64.863	-138.602	-1.314	2.070	-138.498	-133.940	-20.326	-15.618	-134.595	-130.154	-129.565	-125.109	6.778	-125.799	-8191	255	
963.957	1	1	0	0	0.15976	0.047114	0.19389	0.19358	0.06752	0.058057	0.15805	0.35663	0.31442	0.098336	0.19826	0.19866	0.23697	0.27466	0.082704	0.21459	-2.7354	-3.0312	-2.6542	-3.3875	-2.7687	-2.8771	-3.2729	-2.8917	-2.8688	-2.9583	-2.8438	-3.2229	-2.8604	-2.825	-2.9583	-2.7896	60.976	198.194	37.402	-145.306	119.994	68.668	-126.691	170.005	-145.178	53.274	187.068	94.173	144.296	-146.703	42.937	153.939	0.00039426	0.00054408	0.0001682	1385.4	4.3429e-06	5.2816e-06	1383.4	376.31	4.0661e-06	5.7808e-06	430.74	142.23	124.46	42.531	3.4715e-06	52.345	0.00048498	0.0005102	0.00014712	1400.5	5.973e-06	5.7322e-06	1396.2	382.02	5.7871e-06	5.9329e-06	436.64	145.67	127.16	43.447	5.3763e-06	53.63	-102.771	-80.421	-55.621	-138.536	-8.111	6.014	-138.611	-133.925	-18.715	-8.220	-134.480	-130.150	-129.872	-125.081	-13.110	-125.491	-8191	255	
964.053	1	1	0	0	0.11065	0.24996	0.062536	0.18754	0.15785	0.25623	0.11337	0.34311	0.21935	0.16216	0.16045	0.23462	0.17329	0.16028	0.045407	0.042101	-2.5771	-2.9854	-2.5417	-3.3229	-3.0438	-2.7646	-3.4313	-2.8396	-3.0229	-3.0187	-2.7292	-3.2583	-3.05	-2.6854	-3.0479	-2.8271	206.792	-94.243	-141.691	185.388	36.303	7.929	106.625	168.999	189.679	86.055	-151.353	187.308	168.865	169.135	-56.631	38.123	0.00037639	0.00042098	0.00012071	1381.1	4.5956e-06	5.6462e-06	1380.7	375.93	3.8158e-06	4.4491e-06	430.54	142.15	124.48	42.592	4.4235e-06	52.484	0.0004834	0.00051028	0.00014044	1398.4	5.4936e-06	5.8534e-06	1395.4	381.95	5.7965e-06	5.5805e-06	436.29	145.6	127.13	43.428	5.7329e-06	53.684	-99.239	-56.042	-58.614	-138.693	-11.541	-8.686	-138.812	-133.918	-21.992	4.522	-134.358	-130.261	-129.604	-125.132	-0.198	-125.556	-8191	255	
964.172	1	1	0	0	0.23719	0.17879	0.23946	0.043034	0.23759	0.16954	0.17239	0.10227	0.067224	0.28487	0.12959	0.3928	0.19061	0.09954	0.26198	0.17194	-2.5458	-3.1271	-2.6125	-3.1375	-2.8417	-2.7396	-3.3833	-2.9458	-2.8187	-3.0021	-2.7771	-2.9042	-2.9313	-2.7625	-3.0812	-2.7604	-100.131	20.819	-126.303	-133.866	-112.918	181.452	174.656	85.358	149.737	-102.445	-149.646	207.202	143.079	116.841	154.176	26.427	0.00037458	0.00046569	0.0001388	1386.4	3.745e-06	4.0309e-06	1379.2	375.81	4.2932e-06	5.2957e-06	430.76	142.54	124.09	42.524	4.3539e-06	52.563	0.00048397	0.00050069	0.00015046	1397.5	5.7229e-06	5.5627e-06	1395.5	382.26	5.9681e-06	5.3493e-06	436.55	145.66	126.96	43.456	5.6413e-06	53.724	-103.148	-60.683	-59.043	-138.593	2.677	2.810	-138.538	-133.942	-9.739	-0.435	-134.527	-129.959	-129.565	-125.100	14.359	-125.613	-8191	255	
964.268	1	1	0	0	0.15835	0.1195	0.12302	0.23283	0.32552	0.17904	0.17485	0.24935	0.2284	0.1137	0.22166	0.093928	0.06037	0.18277	0.10792	0.058411	-2.2542	-3.0292	-2.6188	-3.2	-2.8438	-2.5625	-3.2479	-2.9208	-2.6063	-2.9604	-2.8563	-2.925	-2.925	-2.7313	-2.8063	-3.0125	88.105	10.957	-36.646	166.252	-116.339	175.399	192.214	132.242	82.502	-11.510	151.701	-132.858	-82.682	167.106	-40.213	150.124	0.00039113	0.00046575	0.00010885	1382.8	4.0543e-06	5.1479e-06	1379.6	377.71	3.7416e-06	4.9547e-06	431.4	142.35	124.04	42.495	3.6033e-06	52.677	0.00048955	0.00049329	0.00014131	1397.3	5.64e-06	5.7985e-06	1395.2	382.87	6.0092e-06	5.3607e-06	436.57	145.58	127.05	43.452	5.5327e-06	53.766	-103.120	-69.588	-60.561	-138.519	-15.477	9.219	-138.526	-133.975	-12.099	-16.334	-134.569	-130.247	-129.591	-125.160	-2.346	-125.628	-8191	255	
964.364	1	1	0	0	0.156	0.098374	0.10721	0.058909	0.097491	0.14066	0.17083	0.30291	0.19022	0.19273	0.27094	0.15955	0.21227	0.24798	0.13054	0.056046	-2.3271	-2.9708	-2.7208	-3.2	-3.0792	-2.6417	-3.2208	-3.0604	-2.8583	-3.2146	-2.7625	-3.0292	-3.1771	-2.8375	-3.0312	-2.9583	-3.914	-114.154	-137.248	-136.997	44.136	-85.168	176.010	177.255	134.847	64.445	194.416	-111.646	-29.694	-90.412	25.134	65.873	0.00038927	0.00050108	0.00015642	1388.7	5.1408e-06	5.4531e-06	1379	375.9	4.3389e-06	4.2286e-06	430.9	142.85	124.6	42.454	4.0297e-06	52.496	0.00049178	0.00050695	0.00014477	1399.4	5.6109e-06	5.6555e-06	1394.8	382.24	5.8917e-06	5.3408e-06	436.87	145.73	127.15	43.4	5.5708e-06	53.838	-99.944	-65.542	-69.024	-138.535	-0.688	1.964	-138.504	-134.006	-23.510	-11.796	-134.679	-130.153	-129.768	-125.270	-11.402	-125.606	-8191	255	
964.485	1	1	0	0	0.17699	0.21118	0.16038	0.298	0.097017	0.15398	0.29749	0.10764	0.10718	0.092819	0.11053	0.081241	0.23996	0.12814	0.096761	0.084392	-2.3458	-3.1083	-2.7333	-3.1292	-3.0083	-2.7604	-3.1833	-3.1417	-2.7104	-2.9833	-2.8042	-2.8063	-3.0604	-2.85	-3.0187	-2.8812	174.670	102.325	10.917	184.753	-143.571	110.901	94.510	165.702	116.776	27.388	139.801	173.308	-140.147	162.653	-133.120	-93.621	0.00037978	0.00046103	0.00013891	1385.8	4.4428e-06	5.4356e-06	1381.8	376.34	3.6851e-06	5.2147e-06	429.46	142.48	124.66	42.593	4.6315e-06	52.701	0.00049151	0.00050142	0.00013613	1400.3	5.6848e-06	5.5399e-06	1396.8	382.35	5.8131e-06	5.3455e-06	436.02	145.7	127.32	43.488	5.4525e-06	53.79	-102.606	-79.786	-57.104	-138.567	-9.422	-8.907	-138.430	-133.765	-18.809	-16.868	-134.726	-130.163	-129.525	-125.021	2.801	-125.858	-8191	255	
964.581	1	1	0	0	0.10571	0.19217	0.083167	0.067893	0.2991	0.043728	0.20453	0.28871	0.17998	0.11811	0.070609	0.30334	0.14249	0.21931	0.15757	0.19504	-2.0625	-3.2479	-2.8292	-2.7833	-2.9667	-2.7458	-3.2	-3.2208	-2.6729	-3.1813	-3.0146	-2.9625	-3.2125	-2.7062	-2.8542	-3.2687	-31.676	39.693	46.873	-130.863	184.710	185.006	44.856	183.164	-118.492	72.395	64.749	-126.065	-140.702	125.476	-150.883	111.455	0.00037075	0.00046817	0.00016306	1384.1	3.666e-06	5.4547e-06	1374.1	375.32	4.1247e-06	5.0868e-06	431.25	142.1	124.17	42.335	4.5025e-06	52.326	0.00048783	0.0004872	0.00014555	1396.3	5.2995e-06	5.8392e-06	1391.5	381.59	5.7633e-06	5.859e-06	435.95	145.5	126.88	43.368	5.8739e-06	53.619	-102.181	-67.748	-54.479	-138.434	3.887	3.929	-138.564	-133.906	-16.335	-1.102	-134.553	-129.994	-129.650	-125.257	1.411	-125.620	-8191	255	
964.653	1	1	0	0	0.077357	0.1789	0.25333	0.10129	0.11189	0.35567	0.080196	0.14637	0.20269	0.12621	0.20929	0.014458	0.18093	0.34307	0.051546	0.30192	-2.2271	-2.8312	-3.0667	-2.9646	-3.1188	-2.7646	-3.1458	-3.3458	-2.8187	-2.9813	-3.1854	-2.8875	-3.1667	-2.9875	-3.0667	-3.0333	68.241	170.333	44.888	-112.500	-88.616	-68.897	-134.696	88.656	14.976	-98.717	106.705	-74.968	170.411	-148.275	188.532	-125.480	0.00035515	0.00050254	0.00014447	1385.5	4.7252e-06	4.3148e-06	1382	376.26	3.9464e-06	4.8437e-06	430.72	142.5	124.3	42.598	3.9225e-06	52.759	0.0004853	0.00049346	0.00013588	1396.5	5.5847e-06	5.4926e-06	1394	381.94	5.8686e-06	5.4402e-06	436.2	145.64	127.15	43.524	5.7078e-06	53.785	-102.357	-61.082	-55.646	-138.284	-7.356	8.767	-138.422	-133.957	-18.177	-2.348	-134.305	-130.188	-129.540	-125.051	6.732	-125.788	-8191	255	
964.749	1	1	0	0	0.1487	0.31082	0.27693	0.18013	0.34283	0.26962	0.10719	0.35749	0.10234	0.21801	0.25888	0.38144	0.035428	0.19764	0.071261	0.30625	-2.2896	-2.9708	-2.9083	-2.7646	-3.0875	-2.8667	-2.8438	-3.1917	-2.6063	-2.9292	-3.0312	-2.7104	-3.1708	-2.9417	-2.8438	-3.2396	43.828	-82.933	-28.735	145.727	164.560	3.369	198.918	174.743	-67.163	-50.580	-36.690	196.412	61.443	2.629	-69.270	117.200	0.00038314	0.00051585	0.0001505	1387.7	4.3469e-06	4.2704e-06	1387.6	376.66	3.6148e-06	5.5145e-06	430.08	142.36	124.33	42.5	4.9095e-06	52.629	0.00049427	0.0004837	0.00013901	1400.1	5.5317e-06	5.307e-06	1397.7	382.25	5.7121e-06	5.3464e-06	436.18	145.61	127.05	43.398	5.587e-06	53.779	-103.244	-69.681	-66.791	-138.512	0.269	0.694	-138.637	-133.962	-20.827	3.505	-134.612	-130.149	-129.598	-125.035	2.664	-125.612	-8191	255	
964.869	1	1	0	0	0.18513	0.097682	0.30093	0.14063	0.15411	0.25065	0.22879	0.20579	0.02731	0.12763	0.11738	0.24086	0.10682	0.15885	0.035584	0.14144	-2.3979	-2.8354	-2.9604	-3.0208	-3.0521	-2.8812	-2.9104	-3.425	-2.9396	-2.8125	-3.0792	-2.7042	-3.1312	-3.0187	-2.7542	-3.0792	159.486	32.665	-32.964	205.617	-13.078	-49.241	122.738	153.977	-96.221	36.073	54.885	-124.629	-95.620	-119.763	207.155	141.585	0.00037653	0.00057633	0.00013326	1384.7	5.2262e-06	5.4394e-06	1374.9	376.03	4.0063e-06	4.857e-06	429.83	142.01	123.84	42.371	3.5762e-06	52.341	0.00047987	0.00049825	0.00013922	1396.5	5.4593e-06	5.5418e-06	1391.3	381.18	5.9097e-06	5.6326e-06	435.29	145.43	126.6	43.324	5.805e-06	53.609	-102.597	-66.208	-53.425	-138.370	-18.836	14.473	-138.529	-134.099	-17.765	4.371	-134.656	-130.085	-129.727	-125.071	1.089	-125.719	-8191	255	
964.964	1	1	0	0	0.26276	0.12096	0.17621	0.28925	0.1705	0.16742	0.26109	0.31855	0.011434	0.11477	0.18897	0.40701	0.074137	0.05439	0.10731	0.097467	-2.2562	-2.9	-3.2438	-2.9396	-3.0438	-2.925	-2.9062	-3.2125	-2.7	-2.8646	-3.0896	-2.725	-3.0521	-2.8917	-2.6708	-3.0708	-4.853	105.701	105.060	189.669	190.234	39.101	137.049	179.320	-118.736	116.529	196.851	157.294	-54.617	-122.019	90.142	22.988	0.00038305	0.00055053	0.00013755	1385.7	4.6914e-06	5.637e-06	1370.7	375.2	4.0167e-06	5.3359e-06	428.29	141.81	123.7	42.299	4.2347e-06	52.545	0.00048305	0.0004985	0.00013988	1396.1	5.9192e-06	5.7587e-06	1390.1	380.5	5.8945e-06	5.8855e-06	434.82	145.11	126.39	43.262	5.7256e-06	53.601	-102.894	-60.298	-52.244	-138.422	3.228	-7.316	-138.477	-133.950	-21.158	11.368	-134.420	-130.094	-129.720	-125.210	6.242	-125.735	-8191	255	
965.060	1	1	0	0	0.096595	0.2741	0.074889	0.20103	0.15631	0.26781	0.18881	0.42433	0.18119	0.044445	0.21001	0.31053	0.36625	0.1656	0.075444	0.13829	-2.3521	-2.8312	-3.1583	-2.9479	-2.9062	-3.0479	-2.7792	-3.1708	-2.9646	-2.7562	-3.3312	-2.9396	-2.9188	-3.0542	-2.6583	-3.2896	-42.030	126.948	-112.447	185.737	95.677	16.111	-136.176	137.622	10.955	134.860	-74.850	165.865	148.948	-82.804	-12.040	-144.441	0.00037779	0.0005009	0.00016095	1382	3.9544e-06	4.5411e-06	1376.1	373.69	3.9074e-06	5.8337e-06	429.97	142.27	123.97	42.424	4.7526e-06	52.407	0.00049332	0.00051337	0.00014486	1394.9	5.5429e-06	5.3751e-06	1392	380.59	6.1087e-06	5.8429e-06	435.23	145.3	126.78	43.293	5.7596e-06	53.615	-100.935	-68.968	-67.197	-138.455	9.183	-9.442	-138.547	-133.824	-10.048	3.966	-134.311	-130.174	-129.650	-125.098	-0.323	-125.727	-8191	255	
965.156	1	1	0	0	0.073427	0.24846	0.1419	0.44381	0.18608	0.050909	0.33924	0.040415	0.16318	0.11127	0.1217	0.2398	0.1208	0.14005	0.1323	0.18214	-2.3312	-2.7583	-3.0333	-2.9667	-2.9083	-2.8917	-2.8146	-3.2604	-2.9396	-2.7604	-3.1479	-2.8208	-2.9167	-3.0333	-2.7583	-3.0104	123.215	58.132	0.244	165.305	16.545	182.709	119.177	-13.706	-3.969	-110.631	-136.492	193.787	165.313	190.516	-29.484	190.444	0.0003828	0.00051079	0.00013554	1385.3	3.9162e-06	6.2008e-06	1379.7	375.47	3.8514e-06	5.2662e-06	428.27	142.17	123.8	42.333	4.6571e-06	52.333	0.00048875	0.00053093	0.00014659	1396.4	5.808e-06	5.3969e-06	1392.3	381.23	5.8981e-06	6.0011e-06	434.8	145.2	126.67	43.283	6.096e-06	53.585	-102.075	-74.525	-44.765	-138.563	-10.505	6.439	-138.503	-133.798	-17.883	-7.601	-134.639	-129.914	-129.504	-125.025	-3.252	-125.538	-8191	255	
965.252	1	1	0	0	0.12636	0.065188	0.16341	0.05574	0.11217	0.097398	0.26876	0.15092	0.34101	0.019427	0.30213	0.36943	0.15954	0.24785	0.28353	0.041007	-2.4667	-2.6333	-3.0479	-3.1	-2.5167	-3.1958	-2.8771	-3.2333	-3.0167	-2.6292	-3.2604	-2.9792	-3.0271	-3.1875	-2.5167	-2.9458	206.342	-1.239	191.673	169.705	-19.307	110.396	170.923	206.962	139.778	163.895	-142.903	184.148	72.961	-142.473	-30.721	-76.781	0.00037823	0.00056138	0.00016411	1388.9	4.6071e-06	6.9999e-06	1376.3	375.49	4.389e-06	4.0701e-06	430.08	141.4	124.03	42.366	4.5729e-06	52.37	0.00048616	0.00053532	0.00014539	1398.2	5.9625e-06	5.7028e-06	1392.9	381.15	6.0402e-06	5.6998e-06	435.46	145.08	126.65	43.349	6.0465e-06	53.589	-101.335	-80.609	-53.678	-138.579	2.648	-13.610	-138.600	-133.885	-15.770	2.354	-134.647	-130.139	-129.726	-124.929	-3.383	-125.503	-8191	255	
965.348	1	1	0	0	0.1648	0.15075	0.088261	0.14587	0.2002	0.23291	0.21189	0.35847	0.1108	0.22772	0.24823	0.26119	0.13741	0.068482	0.13604	0.056487	-2.3708	-2.7729	-3.1875	-3.2438	-2.6396	-3.2604	-2.8271	-3.1562	-3.1208	-2.6625	-3.2938	-2.9208	-2.8833	-3.1333	-2.9042	-2.8917	148.763	-14.796	130.186	143.212	159.473	-77.852	80.045	176.851	-142.548	16.804	147.308	175.232	-58.487	112.223	95.068	-72.329	0.00038947	0.00062915	0.00012926	1385.2	3.1563e-06	5.0399e-06	1376.5	374.89	3.9126e-06	6.2349e-06	428.64	141.96	124.01	42.348	3.8876e-06	52.226	0.00048952	0.00054353	0.0001394	1395.8	5.7385e-06	5.6981e-06	1391.7	381.33	5.6999e-06	6.1565e-06	435.26	144.93	126.54	43.303	5.6567e-06	53.487	-100.668	-58.849	-66.400	-138.329	-3.816	4.538	-138.641	-133.959	-15.170	-1.687	-134.548	-130.094	-129.745	-124.981	1.452	-125.437	-8191	255	
965.445	1	1	0	0	0.13346	0.15937	0.20276	0.013565	0.022993	0.15375	0.13434	0.21394	0.038257	0.16066	0.16489	0.10795	0.1694	0.10367	0.013351	0.17278	-2.8021	-2.6979	-2.9562	-3.0917	-2.7958	-3.1958	-2.7771	-3.0708	-2.9604	-2.7521	-3.1625	-2.9313	-2.9188	-3.2125	-2.7687	-2.9854	-52.779	-136.028	160.469	72.424	108.459	-141.830	50.176	204.280	-122.770	33.589	-143.967	173.499	108.424	119.459	65.067	182.681	0.00037998	0.00055057	0.00015707	1383.3	4.8929e-06	5.2667e-06	1371.4	375.88	4.0838e-06	5.3622e-06	427.57	142.13	123.96	42.38	4.5662e-06	52.173	0.00048697	0.00054898	0.00014203	1394.9	5.9312e-06	5.7407e-06	1389.4	381.5	6.0632e-06	5.7766e-06	434.55	145.09	126.65	43.225	5.9541e-06	53.46	-103.044	-69.216	-66.181	-138.628	-8.598	3.984	-138.597	-133.923	-8.152	3.296	-134.678	-130.293	-129.497	-125.026	13.447	-125.766	-8191	255	
965.565	1	1	0	0	0.085017	0.093029	0.38199	0.43882	0.19296	0.19166	0.18599	0.43338	0.065462	0.26092	0.38778	0.1949	0.17605	0.28888	0.12058	0.24022	-2.7292	-2.5458	-2.9813	-3.1104	-2.7125	-3.0542	-2.925	-2.9354	-3.0708	-2.8542	-3.0125	-3.175	-2.8167	-3.2271	-2.8063	-2.8187	170.044	-58.288	16.403	172.038	-10.280	134.934	82.922	136.527	133.539	-27.691	123.043	122.636	-106.168	57.205	111.130	203.493	0.00036843	0.00051696	0.00011219	1383.6	3.3696e-06	4.274e-06	1375.9	374.14	3.749e-06	4.6036e-06	429.32	141.85	123.46	42.378	4.18e-06	52.203	0.00048174	0.00051825	0.00013852	1394.9	5.8177e-06	5.6375e-06	1391.6	381.04	5.9428e-06	5.6752e-06	434.98	144.88	126.43	43.246	5.8293e-06	53.497	-103.796	-75.504	-63.897	-138.591	-3.579	3.106	-138.613	-133.899	-17.274	-7.374	-134.500	-130.242	-129.609	-124.975	3.762	-125.575	-8191	255	
965.661	1	1	0	0	0.15021	0.34075	0.31047	0.42024	0.19258	0.081592	0.15217	0.30866	0.12765	0.069329	0.10843	0.36374	0.28587	0.27006	0.11267	0.07192	-2.5125	-2.6875	-2.8979	-3.1667	-2.5312	-3.1437	-2.9437	-3.0542	-2.9583	-2.8438	-2.8937	-3.1542	-2.7729	-3.1729	-3.0292	-2.8667	161.461	-5.246	160.245	200.084	-103.994	-33.676	113.465	158.174	180.322	118.086	-64.773	146.654	-136.091	154.093	-150.555	56.089	0.00036828	0.00061363	0.00013735	1380.8	2.962e-06	4.7447e-06	1380	375.01	4.3249e-06	6.0689e-06	429.03	142.1	124.01	42.37	3.0811e-06	52.297	0.00048034	0.00055345	0.00014405	1395.6	5.7826e-06	5.3837e-06	1393.4	381.27	5.7367e-06	5.967e-06	435.1	145.13	126.7	43.306	5.519e-06	53.593	-102.326	-69.392	-74.184	-138.457	-8.023	5.733	-138.773	-133.907	-20.612	-7.327	-134.442	-130.196	-129.502	-125.138	-9.560	-125.559	-8191	255	
965.757	1	1	0	0	0.019388	0.1852	0.082159	0.23828	0.29451	0.27756	0.085571	0.27371	0.27248	0.24454	0.13425	0.2353	0.20812	0.3248	0.1969	0.11223	-2.5917	-2.8625	-2.9104	-3.1833	-2.6604	-2.8937	-3.0542	-2.9958	-3.1604	-2.9	-2.9417	-3.1146	-2.5833	-3.0042	-2.8354	-2.6708	115.663	82.259	-60.336	164.798	29.012	-69.065	163.848	138.997	84.950	127.099	-142.356	168.687	39.712	152.511	136.279	52.385	0.00037969	0.00046599	0.00013627	1384.3	3.7066e-06	4.31e-06	1377.6	374.93	4.3342e-06	4.4677e-06	428.25	142.32	123.68	42.389	4.2871e-06	52.296	0.00048343	0.00051313	0.00014668	1396.3	5.8147e-06	5.7861e-06	1392.9	381.49	5.6783e-06	5.8344e-06	435.13	145.28	126.58	43.342	5.6348e-06	53.574	-101.417	-63.160	-65.804	-138.483	-14.076	-1.163	-138.508	-133.884	-23.548	-0.493	-134.570	-129.978	-129.508	-124.831	-1.294	-125.734	-8191	255	
965.854	1	1	0	0	0.064929	0.20362	0.16271	0.1663	0.19133	0.062598	0.13658	0.25663	0.13495	0.17495	0.31121	0.32996	0.033992	0.15448	0.19719	0.10189	-2.9021	-2.7104	-2.6854	-3.2167	-2.8167	-2.7646	-3.1437	-2.9562	-3.1479	-2.8583	-3.0292	-3.2354	-2.7604	-3.0271	-3.0583	-2.7812	-123.723	70.245	-45.683	194.116	28.224	108.374	143.067	167.371	-127.562	36.581	-132.452	152.874	109.554	149.479	141.108	167.843	0.00037099	0.00061811	0.00012574	1384.7	5.5028e-06	5.4902e-06	1376.4	375.33	4.2891e-06	4.4173e-06	429.63	142.13	124.14	42.46	4.758e-06	52.445	0.00048447	0.00051191	0.00014076	1397.4	5.8139e-06	5.8127e-06	1392.4	381.87	5.8434e-06	5.7794e-06	435.33	145.16	126.87	43.404	5.6146e-06	53.625	-99.605	-68.024	-59.072	-138.527	-7.428	5.993	-138.619	-133.900	-15.275	-6.808	-134.394	-130.162	-129.662	-124.867	-5.117	-125.792	-8191	255	
965.950	1	1	0	0	0.13513	0.35216	0.40112	0.029527	0.15317	0.12905	0.24457	0.29785	0.041885	0.25703	0.26037	0.17332	0.2386	0.04706	0.11823	0.20268	-2.4458	-2.7313	-2.7146	-3.1833	-2.6958	-2.9396	-2.9938	-2.9521	-3.0125	-2.9521	-2.8042	-3.3375	-2.7354	-2.8604	-3.1688	-2.9104	-10.420	-107.516	-148.957	-147.598	147.446	166.596	76.731	182.171	-131.930	84.328	161.406	66.832	-133.616	142.047	-33.175	-144.508	0.00038701	0.00052231	0.00014454	1381.7	4.2828e-06	4.0875e-06	1377.5	375.68	3.5453e-06	5.8042e-06	430.02	142.18	123.87	42.269	3.525e-06	52.3	0.00049015	0.00050321	0.00013885	1395.8	5.8125e-06	5.5333e-06	1391.5	381.55	5.7359e-06	5.7813e-06	435.82	145.33	126.74	43.269	5.6794e-06	53.626	-100.691	-62.891	-60.053	-138.430	8.090	1.394	-138.534	-134.035	-21.603	-5.695	-134.577	-130.232	-129.693	-125.046	-0.315	-125.651	-8191	255	
966.046	1	1	0	0	0.16446	0.20246	0.26779	0.37648	0.15809	0.22262	0.16956	0.37532	0.2982	0.10829	0.51346	0.13378	0.30324	0.28685	0.23579	0.28641	-2.7854	-2.9062	-2.5958	-3.3542	-2.9042	-2.8208	-3.2458	-2.8375	-3.0583	-2.9521	-2.6375	-3.1854	-2.8333	-2.7917	-3.0729	-2.7854	85.866	117.453	-15.231	184.576	140.502	176.379	103.094	163.930	-129.961	129.274	163.044	-53.815	165.777	188.152	8.187	-120.129	0.00038632	0.00042737	0.00014155	1386.3	3.1012e-06	4.8411e-06	1377.5	375.93	3.5784e-06	5.9869e-06	430.76	142.12	124.15	42.401	3.4947e-06	52.332	0.00049243	0.00050427	0.00014196	1398.7	5.8602e-06	5.7795e-06	1393	381.65	5.7871e-06	5.7832e-06	436	145.48	126.81	43.413	5.4914e-06	53.656	-102.272	-72.756	-65.203	-138.434	0.916	8.209	-138.706	-133.826	-21.823	-6.099	-134.416	-130.084	-129.604	-124.939	-14.022	-126.015	-8191	255	
966.165	1	1	0	0	0.45341	0.073364	0.029545	0.17124	0.052559	0.093986	0.12815	0.24607	0.19374	0.28702	0.34441	0.15436	0.07294	0.19614	0.16672	0.059048	-2.6271	-2.9583	-2.6917	-3.1896	-2.8438	-2.7417	-3.5208	-2.9	-2.9062	-2.95	-2.8958	-3.2396	-2.9375	-2.7729	-3.1771	-2.8125	-18.085	128.787	52.463	-149.822	140.730	-117.508	131.028	121.077	25.906	68.060	-121.714	91.671	171.062	136.712	-72.845	-103.661	0.0003662	0.0004455	0.00016997	1387.7	4.3724e-06	4.8666e-06	1378.8	375.99	4.1447e-06	5.6845e-06	431.41	142.02	124.09	42.651	4.2441e-06	52.373	0.00047152	0.00050402	0.00014196	1398.5	5.6482e-06	5.6678e-06	1395.2	381.97	5.6047e-06	5.4507e-06	436.33	145.43	126.95	43.468	5.5254e-06	53.765	-103.204	-54.883	-55.258	-138.460	-7.016	-8.207	-138.614	-133.678	-20.570	0.975	-134.608	-130.284	-129.617	-125.038	-17.939	-125.917	-8191	255	
966.261	1	1	0	0	0.11727	0.11256	0.0047791	0.18575	0.18107	0.1042	0.35391	0.10488	0.17354	0.12458	0.2504	0.11079	0.20987	0.038563	0.12088	0.19788	-2.3979	-3.0062	-2.5333	-3.1688	-3.0083	-2.6896	-3.35	-2.8646	-2.9146	-3.3187	-2.8542	-3.2479	-2.9667	-2.6958	-3.1708	-2.775	-77.620	87.581	-61.276	198.248	25.254	106.528	123.400	172.506	-63.993	37.146	-60.891	201.091	-123.380	132.107	-10.725	50.351	0.00039207	0.00047671	0.00015409	1388	4.0331e-06	5.1799e-06	1377.3	375.39	4.2948e-06	4.4464e-06	430.91	142.43	124.65	42.619	4.5169e-06	52.476	0.00048322	0.0005102	0.00014415	1397.9	5.7326e-06	5.8884e-06	1394	382.11	5.8066e-06	5.5852e-06	436.35	145.69	127.19	43.516	5.6656e-06	53.751	-101.156	-74.176	-67.655	-138.576	1.062	1.196	-138.666	-133.845	-19.662	-10.123	-134.666	-130.252	-129.673	-124.962	1.881	-126.019	-8191	255	
966.357	1	1	0	0	0.28197	0.20108	0.14655	0.24872	0.16094	0.25594	0.17625	0.40198	0.23746	0.055011	0.24695	0.17843	0.29929	0.085299	0.13717	0.073629	-2.4375	-3.05	-2.5958	-3.3354	-2.9417	-2.8271	-3.2854	-3.0979	-2.9521	-3.0646	-2.9583	-3.0833	-2.975	-2.7375	-3.0292	-3.0208	-16.296	87.512	-149.123	125.080	145.644	36.817	126.916	178.762	117.123	65.383	116.688	56.141	124.169	66.535	194.924	144.135	0.00037006	0.00056559	0.000119	1384.4	3.9941e-06	5.4851e-06	1373.2	376.7	4.4674e-06	4.7581e-06	430.77	141.96	123.99	42.463	4.2447e-06	52.37	0.00047978	0.00050841	0.0001432	1398.1	5.5332e-06	5.8477e-06	1392.4	382.34	5.7568e-06	5.7245e-06	436.18	145.33	126.83	43.336	5.4314e-06	53.62	-102.612	-63.265	-56.412	-138.429	-2.844	-5.555	-138.601	-133.979	-23.183	-4.936	-134.381	-129.948	-129.716	-125.055	2.700	-125.616	-8191	255	
966.453	1	1	0	0	0.079532	0.028383	0.11698	0.32549	0.10694	0.37729	0.21517	0.24487	0.093882	0.12039	0.089678	0.10138	0.23104	0.38384	0.019305	0.16911	-2.2062	-3.175	-2.7104	-3.1354	-3.1958	-2.6167	-3.1708	-3.0542	-2.7833	-3.1937	-2.7083	-3.1188	-3.1312	-2.7562	-3.0271	-2.9396	50.297	-116.713	202.328	187.071	46.726	19.057	143.413	180.903	-44.177	-101.597	31.213	-113.113	185.881	-85.753	-9.263	141.063	0.00039108	0.00047273	0.00012925	1382.9	4.337e-06	4.8148e-06	1377.8	375.47	4.2847e-06	4.8573e-06	430.49	142.41	124.63	42.447	4.5442e-06	52.469	0.00049698	0.00048663	0.00014364	1395.7	5.5728e-06	5.7928e-06	1393.6	381.82	5.8527e-06	5.6487e-06	435.44	145.36	127.11	43.4	5.7183e-06	53.66	-101.607	-64.504	-49.269	-138.429	-11.512	4.014	-138.624	-133.987	-21.898	5.710	-134.534	-130.182	-129.704	-124.983	-5.029	-125.397	-8191	255	
966.549	1	1	0	0	0.10531	0.28513	0.019615	0.23989	0.15965	0.091529	0.32919	0.02085	0.28268	0.14851	0.2115	0.25133	0.35769	0.10036	0.10873	0.40594	-2.2958	-3.0187	-2.4854	-3.0708	-3.0042	-2.6917	-3.2313	-3.1354	-2.625	-3.0375	-2.8333	-2.9792	-3.2542	-2.6625	-3.0375	-3.1708	152.572	159.905	158.666	184.265	127.029	-93.853	99.949	141.362	90.944	151.141	-118.421	-137.323	195.933	-124.826	-82.021	140.683	0.00038074	0.00048095	0.00016485	1389	3.9175e-06	5.7196e-06	1381.3	375.82	4.2913e-06	5.3126e-06	430.21	142.72	124.21	42.457	5.0832e-06	52.529	0.00048673	0.00050337	0.00014567	1400.8	5.5347e-06	5.6526e-06	1395.4	381.93	5.8736e-06	5.8022e-06	436.19	145.64	127.2	43.449	5.758e-06	53.742	-102.988	-52.551	-62.396	-138.479	-2.634	0.875	-138.398	-134.050	-21.977	-2.452	-134.648	-130.106	-129.351	-125.145	-7.594	-125.709	-8191	255	
#DATA ENDS
