BOXY.EXE: ISS Imagent and Oximeter Data Acquisition Program Version 0.80
Ascii Record File

#ACQ INFORMATION
2  Detector Channels 
16  External MUX Channels 
1  Auxiliary Channels 
5000  Waveform (CCF) Frequency (Hz)
1  Waveforms Skipped 
30  Waveforms Averaged 
1  Cycles Averaged 
16  Acquisitions per Waveform 
10.0806  Updata Rate (Hz) 

#FILE INFORMATION
TRUE -- External MUX Channel results are PARSED.
FALSE -- AC DC and Phase are NOT grouped.
TRUE -- Companion Program Settings File CREATED.
FALSE -- AC data not excluded
FALSE -- DC data not excluded
FALSE -- Phase data not excluded
FALSE -- Auxillary Chn. data not excluded
Tab delimiters

#CALIBRATION STATE
TRUE -- Waveform Calibration Values APPLIED.


#AUX CALIBRATION VALUES
Val Type	aux-1	

Term	1.0000e+00	
Factor	0.0000e+00	


#WF CALIBRATION VALUES
A = Detector Channel
Val Type	A-AC1	A-AC2	A-AC3	A-AC4	A-AC5	A-AC6	A-AC7	A-AC8	A-AC9	A-AC10	A-AC11	A-AC12	A-AC13	A-AC14	A-AC15	A-AC16	A-DC1	A-DC2	A-DC3	A-DC4	A-DC5	A-DC6	A-DC7	A-DC8	A-DC9	A-DC10	A-DC11	A-DC12	A-DC13	A-DC14	A-DC15	A-DC16	A-Ph1	A-Ph2	A-Ph3	A-Ph4	A-Ph5	A-Ph6	A-Ph7	A-Ph8	A-Ph9	A-Ph10	A-Ph11	A-Ph12	A-Ph13	A-Ph14	A-Ph15	A-Ph16	

Term	0.00000e+00	0.00000e+00	0.00000e+00	0.00000e+00	0.00000e+00	0.00000e+00	0.00000e+00	0.00000e+00	0.00000e+00	0.00000e+00	0.00000e+00	0.00000e+00	0.00000e+00	0.00000e+00	0.00000e+00	0.00000e+00	0.00000e+00	0.00000e+00	0.00000e+00	0.00000e+00	0.00000e+00	0.00000e+00	0.00000e+00	0.00000e+00	0.00000e+00	0.00000e+00	0.00000e+00	0.00000e+00	0.00000e+00	0.00000e+00	0.00000e+00	0.00000e+00	0.00000e+00	0.00000e+00	0.00000e+00	0.00000e+00	0.00000e+00	0.00000e+00	0.00000e+00	0.00000e+00	0.00000e+00	0.00000e+00	0.00000e+00	0.00000e+00	0.00000e+00	0.00000e+00	0.00000e+00	0.00000e+00	
Factor	1.00000e+00	1.00000e+00	1.00000e+00	1.00000e+00	1.00000e+00	1.00000e+00	1.00000e+00	1.00000e+00	1.00000e+00	1.00000e+00	1.00000e+00	1.00000e+00	1.00000e+00	1.00000e+00	1.00000e+00	1.00000e+00	1.00000e+00	1.00000e+00	1.00000e+00	1.00000e+00	1.00000e+00	1.00000e+00	1.00000e+00	1.00000e+00	1.00000e+00	1.00000e+00	1.00000e+00	1.00000e+00	1.00000e+00	1.00000e+00	1.00000e+00	1.00000e+00	X	X	X	X	X	X	X	X	X	X	X	X	X	X	X	X	

B = Detector Channel
Val Type	B-AC1	B-AC2	B-AC3	B-AC4	B-AC5	B-AC6	B-AC7	B-AC8	B-AC9	B-AC10	B-AC11	B-AC12	B-AC13	B-AC14	B-AC15	B-AC16	B-DC1	B-DC2	B-DC3	B-DC4	B-DC5	B-DC6	B-DC7	B-DC8	B-DC9	B-DC10	B-DC11	B-DC12	B-DC13	B-DC14	B-DC15	B-DC16	B-Ph1	B-Ph2	B-Ph3	B-Ph4	B-Ph5	B-Ph6	B-Ph7	B-Ph8	B-Ph9	B-Ph10	B-Ph11	B-Ph12	B-Ph13	B-Ph14	B-Ph15	B-Ph16	

Term	0.00000e+00	0.00000e+00	0.00000e+00	0.00000e+00	0.00000e+00	0.00000e+00	0.00000e+00	0.00000e+00	0.00000e+00	0.00000e+00	0.00000e+00	0.00000e+00	0.00000e+00	0.00000e+00	0.00000e+00	0.00000e+00	0.00000e+00	0.00000e+00	0.00000e+00	0.00000e+00	0.00000e+00	0.00000e+00	0.00000e+00	0.00000e+00	0.00000e+00	0.00000e+00	0.00000e+00	0.00000e+00	0.00000e+00	0.00000e+00	0.00000e+00	0.00000e+00	-7.31199e+01	-1.32799e+02	-1.26468e+02	-1.82714e+02	-5.26673e+01	-6.72776e+01	-1.58600e+02	-1.62015e+02	-4.81301e+01	-6.81745e+01	-1.74789e+02	-1.71091e+02	-1.81647e+02	-1.76664e+02	-5.28905e+01	-1.49745e+02	
Factor	1.45622e-05	1.40397e-04	4.03230e-05	1.48927e-01	1.29784e-06	1.50963e-06	1.69133e-01	4.23035e-02	9.54360e-07	1.51249e-06	7.52042e-02	2.43297e-02	1.97584e-02	7.93508e-03	1.28624e-06	1.14015e-02	1.42596e-05	3.90213e-05	1.10580e-05	7.54603e-02	3.58379e-07	4.54558e-07	8.02644e-02	2.15652e-02	3.46059e-07	4.54774e-07	3.70643e-02	1.20591e-02	1.01503e-02	4.07504e-03	3.89001e-07	5.66024e-03	X	X	X	X	X	X	X	X	X	X	X	X	X	X	X	X	



#DISTANCE SETTINGS
A = Detector Channel
A-1	A-2	A-3	A-4	A-5	A-6	A-7	A-8	A-9	A-10	A-11	A-12	A-13	A-14	A-15	A-16	

2.5000e+00	3.0000e+00	2.5000e+00	3.0000e+00	2.0000e+00	3.0000e+00	1.5000e+00	3.0000e+00	3.0000e+00	3.0000e+00	3.0000e+00	3.0000e+00	3.0000e+00	3.0000e+00	1.5000e+00	3.0000e+00	

B = Detector Channel
B-1	B-2	B-3	B-4	B-5	B-6	B-7	B-8	B-9	B-10	B-11	B-12	B-13	B-14	B-15	B-16	

1.0000e+01	1.0000e+01	1.0000e+01	1.4400e+00	1.0000e+01	1.0000e+01	1.5100e+00	1.9400e+00	1.0000e+01	1.0000e+01	1.9900e+00	2.4900e+00	2.4100e+00	2.9000e+00	1.0000e+01	2.9800e+00	




#DATA BEGINS
time	group	step	mark	flag	A-AC1	A-AC2	A-AC3	A-AC4	A-AC5	A-AC6	A-AC7	A-AC8	A-AC9	A-AC10	A-AC11	A-AC12	A-AC13	A-AC14	A-AC15	A-AC16	A-DC1	A-DC2	A-DC3	A-DC4	A-DC5	A-DC6	A-DC7	A-DC8	A-DC9	A-DC10	A-DC11	A-DC12	A-DC13	A-DC14	A-DC15	A-DC16	A-Ph1	A-Ph2	A-Ph3	A-Ph4	A-Ph5	A-Ph6	A-Ph7	A-Ph8	A-Ph9	A-Ph10	A-Ph11	A-Ph12	A-Ph13	A-Ph14	A-Ph15	A-Ph16	B-AC1	B-AC2	B-AC3	B-AC4	B-AC5	B-AC6	B-AC7	B-AC8	B-AC9	B-AC10	B-AC11	B-AC12	B-AC13	B-AC14	B-AC15	B-AC16	B-DC1	B-DC2	B-DC3	B-DC4	B-DC5	B-DC6	B-DC7	B-DC8	B-DC9	B-DC10	B-DC11	B-DC12	B-DC13	B-DC14	B-DC15	B-DC16	B-Ph1	B-Ph2	B-Ph3	B-Ph4	B-Ph5	B-Ph6	B-Ph7	B-Ph8	B-Ph9	B-Ph10	B-Ph11	B-Ph12	B-Ph13	B-Ph14	B-Ph15	B-Ph16	aux-1	digaux	

1470.745	1	1	0	768	0.33854	0.043033	0.097722	0.1819	0.10302	0.22479	0.15553	0.19191	0.29633	0.14597	0.04775	0.32105	0.19005	0.19944	0.11669	0.102	-2.5812	-2.8187	-2.7812	-3.0979	-2.8063	-2.9313	-3.0125	-2.4917	-2.9896	-2.6083	-2.8812	-3.1542	-2.8917	-3.2104	-3.1188	-2.8688	-65.576	130.486	-66.205	-75.369	188.921	126.478	37.360	101.342	73.885	205.927	243.727	-57.260	97.385	50.383	166.649	101.367	0.00013314	0.00026282	5.9373e-05	492.59	1.5211e-06	3.2959e-06	557.81	143.13	1.0783e-06	2.3061e-06	203.78	83.631	52.395	21.383	2.2586e-06	37.259	0.0002166	0.00017974	4.5084e-05	492.26	1.8113e-06	1.7775e-06	559.62	144.85	1.8543e-06	1.7424e-06	205.52	85.232	53.827	21.687	1.9491e-06	37.764	247.165	-2.383	6.957	-86.799	46.243	57.152	-86.992	-81.195	40.439	36.455	-82.790	-77.415	-75.902	-71.004	71.697	-73.427	-8191	255	
1470.842	1	1	0	0	0.088406	0.12044	0.038912	0.17267	0.2706	0.22804	0.21631	0.14172	0.078465	0.19578	0.20898	0.19537	0.17585	0.27899	0.065238	0.15712	-2.7604	-2.4813	-2.7583	-2.8812	-2.5667	-2.7479	-3.1625	-2.8167	-3.3292	-2.8688	-2.7896	-3.3625	-2.7083	-3.1479	-3.2062	-2.6229	180.567	-14.019	-32.851	-2.478	194.606	93.668	141.530	-72.330	19.596	75.681	259.237	-44.975	239.017	228.669	134.894	10.739	0.0001259	0.00026979	9.2605e-05	491.28	2.1261e-06	3.8504e-06	554.68	143.68	1.5074e-06	3.7337e-06	203.26	83.009	52.081	21.034	1.9992e-06	36.647	0.00021874	0.00017023	5.3954e-05	492.01	2.0555e-06	1.6639e-06	559.48	145.1	1.8637e-06	1.7386e-06	204.76	84.668	53.378	21.436	1.697e-06	37.29	249.815	-13.706	10.366	-86.999	67.204	56.614	-86.954	-81.036	52.379	45.298	-82.593	-77.789	-76.539	-70.597	54.166	-73.248	-8191	255	
1470.938	1	1	0	0	0.15287	0.17257	0.18644	0.092347	0.11576	0.1608	0.06255	0.17342	0.14528	0.056013	0.066002	0.1711	0.16826	0.19492	0.06094	0.26152	-2.5729	-2.9458	-2.7708	-3.075	-2.7687	-2.9562	-3.25	-2.6292	-3.1354	-3.2812	-2.7938	-3.2292	-2.8417	-2.9167	-3.225	-2.7562	173.990	76.403	22.068	-83.190	196.291	-39.907	-79.898	107.149	112.715	167.310	106.818	157.202	3.330	38.046	246.742	114.682	0.00014225	0.00032067	8.4516e-05	492.32	1.7928e-06	3.4818e-06	550.97	142.72	1.3953e-06	2.7218e-06	203.34	82.573	52.291	20.882	1.3269e-06	36.816	0.0002119	0.00014926	4.6282e-05	491.39	2.0323e-06	1.5464e-06	555.84	144.24	1.7692e-06	1.5917e-06	204.2	84.157	53.355	21.372	1.7845e-06	37.308	246.457	-10.078	9.138	-87.011	64.635	54.249	-87.079	-81.258	43.618	54.783	-82.644	-77.774	-75.892	-70.590	58.529	-73.509	-8191	255	
1471.034	1	1	0	0	0.10706	0.015655	0.067563	0.049538	0.11374	0.20306	0.2543	0.076139	0.028031	0.084865	0.17743	0.16875	0.17807	0.12261	0.26985	0.057926	-2.4729	-2.9667	-2.7313	-3.3646	-2.8729	-2.5458	-3.0854	-2.7104	-3.0271	-3.1979	-2.6458	-3.1667	-2.8063	-2.7458	-3.275	-2.7375	20.599	102.351	72.594	121.618	-19.985	-89.540	126.837	138.375	237.098	-77.819	198.774	134.177	-41.917	186.835	102.143	1.821	0.00012782	0.00032974	8.8107e-05	489.52	1.9803e-06	2.4179e-06	556.97	143.16	8.8104e-07	2.5424e-06	203.63	83.478	52.626	21.133	2.4059e-06	37.215	0.00021431	0.00015235	4.7112e-05	491.99	1.6657e-06	1.7434e-06	559.15	144.82	1.8839e-06	1.4941e-06	205.16	85.073	53.832	21.735	1.6533e-06	37.842	248.419	-15.805	-20.240	-87.142	45.555	62.566	-87.256	-81.204	35.929	50.528	-82.670	-77.495	-76.114	-70.712	55.854	-73.436	-8191	255	
1471.130	1	1	0	0	0.11937	0.076286	0.1163	0.052951	0.18367	0.1592	0.077148	0.03191	0.084922	0.13073	0.14722	0.030389	0.32043	0.23246	0.074422	0.27606	-2.4875	-3.1083	-2.9104	-3.2104	-2.9083	-2.7417	-3.4479	-2.7313	-2.8542	-3.0542	-2.8688	-3.1688	-2.9938	-2.7083	-3.1354	-2.7438	37.424	64.976	224.835	-10.928	210.781	-45.234	137.673	30.397	150.729	55.259	98.680	228.177	-30.664	-80.633	73.525	-55.470	0.00014561	0.00026425	7.5074e-05	496.39	1.6893e-06	2.4246e-06	560.56	144.04	9.4689e-07	3.1223e-06	205.9	83.84	53.432	21.53	2.3566e-06	37.595	0.00021681	0.00015901	5.2387e-05	497.56	1.7531e-06	1.768e-06	563.26	146.01	1.8024e-06	1.6211e-06	207.25	85.701	54.476	21.929	1.8883e-06	38.19	249.497	-15.530	-8.737	-86.900	64.586	47.746	-87.251	-81.206	34.568	37.003	-82.958	-77.580	-75.937	-70.807	64.356	-73.601	-8191	255	
1471.226	1	1	0	0	0.030949	0.12162	0.28752	0.083584	0.12829	0.13489	0.19632	0.14388	0.1608	0.23896	0.1554	0.15997	0.06514	0.37647	0.28759	0.34169	-2.3479	-3.1604	-2.7125	-3.1333	-2.8771	-2.7583	-3.2417	-2.8208	-2.8896	-3.3375	-2.6958	-2.8937	-2.9083	-2.8063	-3.2792	-3.0021	17.840	109.308	26.655	71.795	257.692	206.878	145.855	130.418	174.258	-98.650	164.178	207.188	259.165	-62.368	212.839	215.463	0.0001242	0.0002579	0.00010921	497.39	1.8565e-06	2.8579e-06	564.76	145.51	1.634e-06	2.2949e-06	205.36	84.038	52.808	21.455	2.2638e-06	37.067	0.00022732	0.000153	5.165e-05	498.8	1.9532e-06	2.0256e-06	564.88	146.69	2.0562e-06	1.6163e-06	206.88	85.676	54.328	21.866	1.7481e-06	37.709	246.521	-13.448	-16.920	-86.901	59.599	42.232	-86.971	-81.078	61.513	54.711	-82.535	-77.528	-76.078	-70.598	64.090	-73.312	-8191	255	
1471.347	1	1	0	0	0.10777	0.19648	0.13322	0.12687	0.021207	0.34835	0.13778	0.14272	0.16066	0.25051	0.13675	0.16131	0.22998	0.050383	0.24166	0.14121	-2.4104	-3.2375	-2.7062	-2.9562	-2.8979	-2.7542	-3.2125	-3.1417	-2.7708	-3.1813	-3.0146	-2.8208	-3.2313	-2.7438	-3.0354	-2.9521	-87.641	151.631	105.328	226.999	-57.630	168.838	217.077	208.668	-42.180	1.442	184.003	-93.558	256.897	132.696	129.951	35.936	0.00013282	0.00035147	8.2187e-05	496.42	2.234e-06	3.1569e-06	558.22	144.65	1.0264e-06	2.4655e-06	205.49	82.992	52.908	21.227	2.3389e-06	36.946	0.00022501	0.00016039	4.8264e-05	497.13	1.7673e-06	1.8703e-06	560.23	146.04	1.7649e-06	1.3861e-06	206.02	84.87	54.147	21.689	1.8713e-06	37.443	243.255	-13.439	-18.160	-86.918	66.729	47.207	-87.098	-80.940	60.788	49.083	-82.602	-77.623	-75.740	-70.853	60.102	-73.445	-8191	255	
1471.443	1	1	0	0	0.1459	0.16463	0.12216	0.084901	0.13432	0.13358	0.27271	0.28476	0.2122	0.16957	0.21707	0.10789	0.046956	0.3373	0.097498	0.14412	-2.2125	-3.0771	-2.9062	-2.775	-2.9146	-2.4021	-2.9854	-2.8187	-2.8042	-3.3396	-2.7604	-2.725	-2.9521	-2.7042	-3.2667	-3.1375	93.984	240.614	113.250	-31.648	231.087	25.544	194.677	-98.973	51.482	140.304	177.365	33.498	242.274	80.762	25.950	14.973	0.00013329	0.00027895	8.6673e-05	494.15	2.7401e-06	3.5e-06	556.25	143.54	1.2828e-06	3.0968e-06	205.08	82.613	52.823	21.168	1.9809e-06	36.548	0.00022385	0.00015812	4.725e-05	495.58	1.7695e-06	1.9963e-06	558.24	145.07	1.9264e-06	1.6618e-06	205.21	84.554	53.898	21.533	1.8056e-06	37.103	249.833	-21.969	-21.504	-86.657	78.627	64.090	-87.107	-81.043	32.410	46.935	-82.751	-77.533	-76.136	-71.203	75.709	-73.388	-8191	255	
1471.539	1	1	0	0	0.28148	0.13274	0.23979	0.11388	0.14489	0.11578	0.015607	0.1475	0.25077	0.20485	0.028773	0.10773	0.20194	0.17093	0.24141	0.16625	-2.1896	-3.0396	-2.5021	-2.7542	-3.1479	-2.7729	-3.1437	-3.1979	-2.6562	-3.3187	-2.9	-2.9104	-3.0646	-2.5938	-2.9167	-3.0729	216.253	22.542	29.520	73.307	37.133	93.374	9.755	239.303	235.307	202.909	179.894	223.158	42.156	16.561	-4.215	144.414	0.00013642	0.00026647	8.0045e-05	496.52	1.6438e-06	3.2694e-06	559.67	143.27	9.7845e-07	2.8942e-06	203.15	82.579	52.63	20.955	2.0776e-06	36.374	0.00021737	0.00014787	4.4509e-05	497.25	1.7157e-06	1.9328e-06	560.69	144.79	1.8889e-06	1.6334e-06	204.94	84.449	53.853	21.364	2.0333e-06	37.029	247.507	-11.191	0.967	-86.596	65.245	60.197	-86.852	-81.095	52.150	47.171	-82.510	-77.624	-76.402	-70.870	66.567	-73.332	-8191	255	
1471.635	1	1	0	0	0.19575	0.15034	0.015752	0.099871	0.13605	0.107	0.18799	0.0891	0.1749	0.043436	0.24951	0.23637	0.20549	0.092152	0.11924	0.050298	-2.2042	-3.1583	-2.8458	-2.9896	-3.1063	-2.7792	-2.825	-2.8812	-2.6417	-2.9521	-2.8625	-2.5792	-2.9854	-2.6188	-2.8771	-3.0646	73.091	230.632	225.065	156.175	-15.796	164.303	94.795	67.585	184.031	-24.735	-49.340	-53.751	14.291	32.224	-94.926	239.546	0.00013046	0.00033882	7.3668e-05	497.31	3.135e-06	2.8745e-06	558.88	143.28	9.9604e-07	2.7242e-06	203.86	83.035	52.649	20.986	2.0901e-06	36.264	0.00022551	0.00017356	4.9715e-05	498.02	1.6448e-06	1.7643e-06	561.39	145.16	1.9278e-06	1.5927e-06	205.14	84.608	53.642	21.396	2.112e-06	36.995	251.390	-10.483	-9.713	-86.836	58.807	45.135	-86.905	-81.159	79.206	50.612	-82.736	-77.683	-75.943	-70.816	70.867	-73.468	-8191	255	
1471.731	1	1	0	0	0.084851	0.27708	0.18763	0.08353	0.11721	0.17139	0.16429	0.19745	0.15694	0.19042	0.34324	0.071159	0.16718	0.066384	0.1473	0.31454	-2.2146	-2.8042	-2.8312	-2.6562	-3.1958	-2.9333	-3.0042	-3.2125	-2.6708	-3.0771	-2.9167	-2.6583	-3.0667	-2.8625	-2.6875	-3.2687	-66.079	122.975	-17.416	176.261	245.907	118.088	-30.797	176.391	55.561	163.488	-86.621	216.035	54.837	159.799	35.696	228.978	0.00013659	0.00025224	8.1811e-05	497.71	2.4476e-06	2.2187e-06	556.06	143.63	1.5777e-06	3.8432e-06	203.67	82.406	52.329	20.815	2.6131e-06	36.099	0.0002283	0.00016186	4.7457e-05	497.24	1.9196e-06	1.3807e-06	559.77	145.11	1.9985e-06	1.7954e-06	204.9	84.186	53.633	21.268	2.1274e-06	36.639	249.881	-14.393	-26.125	-87.122	51.086	61.829	-87.112	-81.135	47.580	40.193	-82.988	-77.743	-75.853	-70.776	59.565	-73.515	-8191	255	
1471.828	1	1	0	0	0.22173	0.089757	0.21456	0.15742	0.28201	0.089789	0.13045	0.101	0.045759	0.15469	0.095291	0.17858	0.26769	0.12944	0.15357	0.1825	-2.3021	-3.0812	-3.0333	-2.8667	-3.1917	-2.9875	-2.9167	-3.2375	-2.625	-3.0771	-3.0167	-2.7042	-3.1146	-2.975	-2.5771	-3.0646	117.107	-54.038	21.374	-74.529	97.862	65.244	66.119	125.540	128.469	230.037	210.312	79.517	121.901	136.919	153.718	255.378	0.00013608	0.00026268	6.6754e-05	493.05	1.5836e-06	2.7852e-06	552.58	144.08	1.4868e-06	2.6024e-06	201.53	82.164	52.314	20.65	2.1287e-06	35.828	0.00021883	0.00014186	4.4624e-05	495.3	1.8031e-06	1.6014e-06	557.71	145.05	1.8702e-06	1.7092e-06	203.53	83.902	53.481	21.155	2.1427e-06	36.412	250.131	-15.218	-16.181	-86.989	74.405	51.727	-86.938	-80.987	38.202	52.299	-82.531	-77.427	-75.976	-70.594	41.066	-73.266	-8191	255	
1471.922	1	1	0	0	0.13535	0.0041536	0.24188	0.20298	0.099151	0.02053	0.32238	0.19256	0.32184	0.22559	0.18118	0.2463	0.3477	0.15995	0.19789	0.18628	-2.2896	-2.8604	-2.9938	-2.7188	-3.1083	-3.0667	-2.8417	-3.2604	-2.8854	-2.9521	-3.2708	-2.6875	-2.9562	-3.0271	-2.5625	-3.0854	187.338	10.965	1.083	151.606	121.959	221.769	224.599	195.167	161.229	103.662	258.889	197.361	46.153	7.237	26.281	171.742	0.00011963	0.00027952	8.7417e-05	493.95	2.2613e-06	2.9616e-06	554.37	142.18	1.9615e-06	2.7188e-06	200.96	80.685	51.862	20.345	2.3359e-06	35.172	0.0002098	0.0001734	4.4578e-05	496.2	1.7762e-06	1.6913e-06	557.73	144.15	1.9985e-06	1.5728e-06	202.62	82.635	52.887	20.762	1.9499e-06	35.712	248.638	-21.223	6.709	-86.939	79.678	49.022	-87.004	-81.113	55.817	57.653	-82.211	-77.454	-76.026	-70.492	59.352	-73.143	-8191	255	
1472.043	1	1	0	0	0.073072	0.080403	0.30221	0.10447	0.076256	0.17971	0.21481	0.12934	0.082673	0.097174	0.039485	0.21647	0.23866	0.087572	0.30379	0.024589	-2.1375	-2.8563	-3.0646	-2.7896	-3.0229	-3.1375	-2.6333	-3.1854	-2.8104	-2.8708	-3.0167	-2.5646	-3.0146	-3.3	-2.5917	-3.2833	137.690	177.781	222.467	247.313	-43.941	-12.277	217.656	180.060	-88.269	-59.273	-1.542	213.660	168.846	260.661	130.246	148.511	0.00011735	0.00027075	7.419e-05	495.36	2.3737e-06	3.0507e-06	559.4	141.29	1.7656e-06	2.9376e-06	201.16	82.437	52.398	21.192	1.2027e-06	36.471	0.00021996	0.00017381	4.5545e-05	497.71	1.7822e-06	1.573e-06	563.13	143.13	1.912e-06	1.767e-06	202.74	84.232	53.704	21.625	2.0244e-06	37.148	245.727	-12.368	4.339	-86.814	41.837	44.741	-87.123	-80.994	43.642	50.048	-82.400	-77.459	-75.810	-70.511	60.826	-73.510	-8191	255	
1472.139	1	1	0	0	0.2042	0.069127	0.033539	0.11558	0.28332	0.086797	0.10592	0.2848	0.34455	0.16535	0.25683	0.23584	0.038797	0.15258	0.20709	0.1963	-2.3896	-2.7938	-3.1188	-2.8729	-2.8312	-3.0271	-2.8292	-3.0146	-2.8979	-2.8708	-3.1479	-2.8458	-2.75	-3.0521	-2.575	-3.1562	96.028	150.549	134.309	183.834	110.520	-73.611	236.998	248.625	242.988	137.429	155.541	203.983	63.796	-47.395	195.109	171.745	0.00012425	0.00036359	7.859e-05	501.39	1.3309e-06	2.8818e-06	567.34	140.68	1.3946e-06	2.7821e-06	199.09	84.958	53.738	21.993	2.0854e-06	36.687	0.00021	0.00015909	4.5131e-05	503.13	1.712e-06	1.5588e-06	568.29	142.26	1.8384e-06	1.8977e-06	200.96	86.881	55.182	22.37	2.0544e-06	37.248	248.004	-18.225	-13.786	-87.026	60.109	52.537	-87.200	-81.099	48.195	52.107	-82.413	-77.410	-76.234	-70.863	69.861	-73.395	-8191	255	
1472.235	1	1	0	0	0.21522	0.044928	0.12734	0.3175	0.26345	0.22572	0.39885	0.318	0.10288	0.091953	0.33502	0.19757	0.18798	0.19272	0.086451	0.14014	-2.425	-2.8104	-3.1479	-2.8312	-2.8125	-3.1583	-2.8438	-3.0292	-2.8917	-2.6208	-2.9646	-2.8417	-3.0146	-3.1562	-2.4792	-2.9604	109.091	108.591	146.660	227.843	219.137	212.819	227.156	-89.116	124.611	-26.448	206.746	176.656	223.696	232.614	93.187	247.780	0.00013016	0.00035261	6.6649e-05	499.34	1.8163e-06	2.5938e-06	559.2	140.38	8.108e-07	2.8817e-06	198.72	84.144	53.757	21.661	1.8489e-06	35.914	0.00021817	0.00017999	4.1445e-05	501.32	1.7732e-06	1.4972e-06	561.95	141.82	1.8082e-06	1.9745e-06	200.28	85.835	54.991	22.089	2.0795e-06	36.548	246.108	-22.147	-21.573	-86.892	65.052	63.241	-86.968	-81.382	19.981	40.008	-82.490	-77.939	-75.851	-70.900	62.336	-73.428	-8191	255	
1472.307	1	1	0	0	0.088329	0.23785	0.059272	0.13884	0.16541	0.11711	0.29801	0.22555	0.15121	0.15364	0.15056	0.10736	0.084564	0.17725	0.084969	0.13415	-2.775	-2.8167	-3.0458	-2.8917	-2.8292	-3.1083	-2.7333	-3.0333	-3.2	-2.7958	-3.0125	-2.7938	-2.5812	-3.0312	-2.6333	-3.0792	140.880	-12.264	-55.978	253.855	89.019	7.137	251.232	154.468	137.066	238.670	236.909	219.194	179.798	236.076	117.426	-18.003	0.00013406	0.00022141	8.5983e-05	500.05	2.0923e-06	3.6138e-06	558.1	140.34	1.2968e-06	2.8507e-06	199.87	83.884	53.658	21.489	1.7951e-06	35.995	0.00021434	0.0001656	4.2251e-05	500	1.9338e-06	1.5588e-06	561.41	141.77	1.6834e-06	1.8655e-06	200.68	85.647	54.927	22.02	2.026e-06	36.521	250.656	-13.562	-9.118	-86.867	68.589	59.492	-87.187	-81.280	47.152	29.769	-82.783	-77.541	-75.995	-70.660	55.591	-73.304	-8191	255	
1472.427	1	1	0	0	0.10797	0.085216	0.34729	0.10075	0.13416	0.1012	0.10012	0.37244	0.17301	0.1929	0.083518	0.082527	0.072304	0.022227	0.28761	0.066054	-2.6792	-2.7896	-2.9667	-2.9062	-2.5146	-2.9979	-2.6021	-2.9354	-3.2875	-2.8833	-3.1979	-2.925	-2.5708	-2.9875	-2.6792	-2.6937	216.375	122.541	-58.212	253.313	159.164	109.601	189.345	259.908	103.050	92.117	1.838	188.191	-52.019	115.023	129.508	205.657	0.00013402	0.00032998	7.3366e-05	500.89	2.3782e-06	2.0086e-06	561.24	139.14	1.0545e-06	2.4221e-06	199.13	84.53	53.974	21.8	1.5144e-06	36.211	0.00021713	0.00017316	4.0569e-05	500.41	1.9016e-06	1.5057e-06	562.95	141.23	1.8082e-06	1.7528e-06	200.08	86.108	54.99	22.293	1.9134e-06	36.801	244.948	-16.416	-18.313	-86.893	47.273	41.093	-87.412	-81.066	56.581	37.510	-82.493	-77.675	-76.074	-70.665	67.685	-73.555	-8191	255	
1472.523	1	1	0	0	0.20109	0.19114	0.18269	0.19093	0.19922	0.20778	0.24444	0.084249	0.36904	0.10702	0.13469	0.33993	0.13173	0.057142	0.22574	0.034271	-2.6688	-2.6729	-2.9833	-3.1125	-2.8042	-3.3104	-3.0271	-2.7125	-3.05	-2.8792	-3.0083	-3.0146	-2.5708	-3.0646	-2.8354	-2.8875	152.185	173.664	85.420	-94.524	-43.116	158.137	235.582	138.360	194.858	-0.931	235.632	-94.037	203.076	-60.431	218.806	-85.571	0.00013024	0.00027374	7.1167e-05	498.77	1.9494e-06	2.8552e-06	562.07	139.08	1.2591e-06	2.7765e-06	197.49	82.858	53.164	21.403	2.4131e-06	35.681	0.0002223	0.00016129	4.3564e-05	499.98	1.9121e-06	1.5332e-06	564.35	140.69	1.7152e-06	1.6902e-06	199.59	85.102	54.319	21.875	2.0982e-06	36.166	250.241	-17.494	-1.740	-86.645	62.129	54.810	-86.994	-81.002	59.879	54.085	-82.693	-77.688	-76.126	-70.886	65.550	-73.457	-8191	255	
1472.620	1	1	0	0	0.21518	0.11827	0.061987	0.090157	0.05477	0.080642	0.31693	0.18504	0.12709	0.11023	0.16517	0.10711	0.14527	0.11817	0.2047	0.11744	-2.7542	-2.7167	-2.9292	-3.0542	-2.5208	-3.1188	-2.8729	-2.5354	-3.2271	-2.7396	-3.0792	-3.2479	-2.4854	-3.0354	-2.9667	-2.8438	-73.604	-50.169	76.850	254.158	79.165	112.656	-92.669	-10.252	80.523	111.769	-60.904	169.127	55.405	95.686	3.968	13.334	0.00013941	0.00037457	7.1359e-05	495.73	1.6493e-06	2.2392e-06	556.44	138.11	6.9753e-07	2.8289e-06	197.09	81.978	52.411	20.895	1.9373e-06	34.801	0.00021072	0.00019129	3.8749e-05	497.68	1.9248e-06	1.5436e-06	558.31	140.48	1.7772e-06	1.7651e-06	198.71	83.483	53.605	21.325	1.7975e-06	35.314	247.894	-11.701	5.890	-86.886	47.554	74.909	-87.256	-81.205	38.510	26.575	-82.735	-77.559	-76.412	-70.870	70.315	-73.415	-8191	255	
1472.716	1	1	0	0	0.23538	0.21662	0.16682	0.079951	0.17575	0.081935	0.17143	0.15371	0.23402	0.070206	0.3912	0.11137	0.16189	0.047213	0.15436	0.17278	-2.7042	-2.775	-2.7542	-3.0687	-2.4896	-2.9729	-3.0042	-2.6813	-3.0042	-2.625	-2.8021	-3.2292	-2.7375	-2.9833	-2.8812	-2.525	80.637	-27.576	18.851	2.894	213.845	-71.644	147.149	207.771	143.206	-44.910	175.217	-80.152	-47.038	-74.378	-94.119	-38.588	0.00012744	0.00029405	9.1546e-05	495.3	1.8996e-06	3.0122e-06	555.31	138.89	1.2962e-06	3.0572e-06	198.17	81.28	52.298	20.647	2.1611e-06	34.505	0.00020801	0.00017039	4.7596e-05	495.68	1.886e-06	1.7785e-06	556.72	140.53	1.7368e-06	1.6732e-06	199.53	83.007	53.31	21.039	1.7991e-06	35.134	246.512	-16.418	-19.530	-86.832	65.175	49.087	-86.918	-81.245	65.855	46.969	-82.807	-77.648	-76.366	-70.547	48.349	-73.437	-8191	255	
1472.835	1	1	0	0	0.078641	0.13259	0.16505	0.32686	0.10222	0.13896	0.17591	0.058128	0.13357	0.07942	0.133	0.16419	0.090143	0.36046	0.090907	0.14131	-2.6333	-2.6063	-2.675	-3.1708	-2.7917	-2.9229	-2.8208	-2.6479	-3.2125	-3.0812	-3.0042	-3.2479	-2.6833	-2.9667	-3.1354	-2.8771	70.597	11.677	229.798	162.479	161.644	142.356	142.724	-84.632	-50.966	-94.672	151.777	67.667	-22.573	-19.659	-33.526	-8.393	0.00012149	0.00025547	7.8544e-05	495.12	2.2265e-06	2.6736e-06	558.84	138.98	1.0567e-06	3.1986e-06	197.75	81.444	51.819	20.436	1.4608e-06	34.594	0.00020344	0.000153	4.6951e-05	496.29	1.8389e-06	1.5606e-06	558.59	140.87	1.7433e-06	1.4648e-06	199.75	82.659	53.014	20.837	1.7837e-06	35.223	245.451	-20.678	-6.585	-86.906	49.243	62.058	-87.039	-81.001	54.617	55.712	-82.889	-77.897	-76.063	-70.740	74.824	-73.147	-8191	255	
1472.908	1	1	0	0	0.16074	0.17369	0.16503	0.36476	0.18089	0.17771	0.10026	0.35395	0.27238	0.11084	0.29612	0.21543	0.20191	0.087162	0.071905	0.17752	-2.5958	-2.6271	-2.4458	-3.1229	-2.6875	-2.9	-2.9625	-2.7188	-3.0625	-3.0208	-2.6167	-3.0625	-2.8042	-2.8396	-2.9813	-2.7146	4.658	-26.585	-79.736	259.494	9.762	144.390	-39.278	103.166	248.892	237.920	136.836	-83.685	154.171	190.643	-57.809	-86.571	0.00013025	0.00031121	8.0664e-05	496.58	1.4986e-06	2.5179e-06	557.19	140.25	9.0245e-07	3.7712e-06	198.96	80.405	51.634	20.322	2.7707e-06	34.512	0.0002106	0.00016226	4.9369e-05	497.58	1.8822e-06	1.7728e-06	559.51	141.51	1.7736e-06	1.8684e-06	200.91	82.107	52.804	20.745	1.8421e-06	35.215	245.601	-23.921	-5.128	-86.966	71.905	66.104	-87.074	-81.036	66.887	49.397	-82.524	-77.756	-76.155	-70.538	68.270	-73.215	-8191	255	
1473.027	1	1	0	0	0.026591	0.16792	0.20267	0.056217	0.17627	0.12429	0.1995	0.072775	0.058224	0.35263	0.13597	0.22722	0.22457	0.24229	0.071954	0.15509	-2.3271	-2.9604	-2.6521	-3.0146	-2.7458	-2.7729	-3.3375	-2.7562	-2.9062	-3.0917	-2.7271	-2.9729	-2.7083	-2.6063	-3.1729	-2.9146	222.368	3.564	45.078	23.426	257.631	198.872	-24.857	-81.520	-23.367	20.007	243.731	34.992	-31.672	212.410	113.580	-95.309	0.0001254	0.00025663	8.3582e-05	494.25	1.8901e-06	2.4374e-06	551.28	140.27	1.3574e-06	2.6881e-06	197.94	79.873	50.925	20.213	2.0147e-06	34.23	0.00020255	0.00015039	4.6927e-05	495.42	1.833e-06	1.6961e-06	555	141.48	1.7289e-06	1.5197e-06	199.74	81.371	52.282	20.64	1.7327e-06	34.899	247.069	-29.179	-3.904	-86.944	68.556	51.309	-86.719	-81.080	34.327	67.498	-82.453	-77.157	-75.943	-70.764	68.841	-73.702	-8191	255	
1473.123	1	1	0	0	0.1032	0.30036	0.10158	0.19356	0.10765	0.2626	0.051902	0.18716	0.077361	0.14937	0.074608	0.35417	0.20575	0.13138	0.12474	0.070297	-2.4333	-2.9229	-2.8542	-3.3	-2.8854	-2.8354	-3.2646	-2.7062	-2.7771	-2.9583	-2.6854	-3.0417	-2.9479	-2.6646	-3.1875	-2.6542	25.550	33.436	154.690	167.614	3.956	243.750	96.978	-68.818	28.736	1.337	-80.526	220.678	247.611	257.630	-50.329	167.436	0.00011764	0.00024096	6.6756e-05	491.63	1.8013e-06	2.408e-06	549.96	139.15	1.3363e-06	2.9728e-06	197.2	79.674	51.05	20.33	1.9108e-06	34.418	0.00021651	0.00014397	5.066e-05	492.59	1.6859e-06	1.6989e-06	552.81	141.23	1.9754e-06	1.5093e-06	199.8	81.45	52.336	20.726	1.7756e-06	35.114	250.311	-3.491	-17.277	-86.834	85.353	46.627	-87.003	-81.086	62.963	42.537	-82.820	-77.793	-76.347	-70.184	70.622	-73.152	-8191	255	
1473.219	1	1	0	0	0.02916	0.15333	0.21694	0.025326	0.072698	0.22662	0.26204	0.2157	0.29311	0.18115	0.3419	0.10807	0.076545	0.30035	0.0074674	0.25539	-2.5583	-2.8125	-2.7042	-2.9792	-2.9813	-2.6333	-3.1333	-2.8563	-2.7021	-3.0396	-2.6417	-2.9188	-2.9062	-2.6271	-2.8708	-2.8646	58.059	250.204	140.173	134.118	-8.358	252.532	74.082	-78.319	-61.289	95.016	159.893	30.925	-70.874	8.500	62.007	219.077	0.00011192	0.0002723	7.5489e-05	490.38	1.8242e-06	2.7713e-06	551.12	140.25	1.2262e-06	2.7342e-06	199.34	80.116	51.342	20.373	1.9006e-06	34.796	0.00021196	0.00014031	5.1881e-05	490.85	1.7493e-06	1.6478e-06	553.6	141.97	1.8803e-06	1.5936e-06	201.13	81.761	52.493	20.805	1.8072e-06	35.434	246.813	-18.267	-18.944	-86.840	76.838	54.076	-86.937	-81.275	69.575	62.294	-82.780	-77.668	-75.913	-70.709	74.902	-72.985	-8191	255	
1473.315	1	1	0	0	0.13255	0.1511	0.1288	0.19987	0.12369	0.20653	0.12508	0.13764	0.18759	0.15898	0.21754	0.22015	0.20659	0.17878	0.23594	0.28156	-2.2708	-2.925	-2.6479	-3.0875	-3.0312	-2.8229	-3.2771	-2.9854	-2.9042	-3.2042	-2.8354	-3.0771	-3.0187	-2.6312	-3.2188	-2.9021	172.814	-54.945	122.158	-17.895	49.361	62.005	235.566	14.050	-11.295	25.642	-58.482	90.776	128.319	6.497	76.002	197.370	0.00013777	0.00023778	9.9448e-05	492.79	2.3401e-06	3.2811e-06	553.94	140.36	9.0501e-07	2.9057e-06	201.54	80.844	51.499	20.55	2.7897e-06	35.166	0.00021695	0.00015617	4.9139e-05	491.75	1.7956e-06	1.9385e-06	555.89	142.22	1.8795e-06	1.4903e-06	202.09	82.287	52.601	20.939	1.7456e-06	35.648	245.978	-7.456	-22.563	-86.932	54.027	45.256	-87.262	-81.204	42.835	38.534	-82.681	-77.551	-76.233	-70.364	68.186	-73.156	-8191	255	
1473.436	1	1	0	0	0.14779	0.13767	0.052461	0.11188	0.25009	0.27411	0.14902	0.19065	0.23483	0.022861	0.20054	0.13092	0.018875	0.26674	0.22508	0.2842	-2.375	-3.2313	-2.6688	-2.7917	-3.0917	-2.5583	-3.1771	-2.8771	-2.7271	-3.2771	-2.9125	-2.775	-3.2375	-2.4813	-3.0271	-3.1375	137.004	256.635	5.440	-82.257	225.500	206.675	229.064	-55.648	-3.296	91.542	147.170	225.749	39.699	30.716	121.407	242.254	0.00013039	0.00025695	7.2519e-05	490.48	2.3187e-06	2.1805e-06	552.3	140.9	1.0334e-06	3.1165e-06	197.74	79.705	51.625	20.334	2.2057e-06	34.367	0.00021743	0.00015129	4.5499e-05	490.72	1.774e-06	1.751e-06	553.65	142.13	1.925e-06	1.55e-06	200.18	81.549	52.601	20.797	1.8478e-06	35.097	250.059	-24.697	-10.824	-87.092	61.474	72.464	-86.901	-81.124	33.281	43.909	-82.379	-77.779	-76.195	-70.742	55.001	-73.154	-8191	255	
1473.532	1	1	0	0	0.2499	0.11812	0.18379	0.11239	0.11763	0.15565	0.22347	0.12584	0.19452	0.1542	0.31718	0.21672	0.2177	0.072908	0.1168	0.33979	-2.1208	-2.9042	-2.4417	-2.875	-3.0563	-2.5083	-2.8792	-3.0417	-2.5438	-3.1042	-2.8083	-2.8979	-3.0896	-2.6667	-2.95	-3.0396	181.199	54.999	-39.471	-49.465	17.898	235.724	114.774	185.880	247.276	76.787	165.891	162.134	189.579	223.032	244.219	46.090	0.00011878	0.0002677	6.5187e-05	489.66	2.4252e-06	3.3238e-06	545.03	139.16	1.1335e-06	1.9895e-06	196.97	78.88	50.398	19.874	2.4194e-06	34.109	0.00021081	0.00015641	4.9508e-05	490.76	1.7478e-06	1.8836e-06	548.74	140.89	2.0086e-06	1.5207e-06	198.34	80.313	51.383	20.233	1.9628e-06	34.639	245.330	-11.114	-0.571	-86.923	53.249	41.213	-87.000	-81.142	73.987	60.484	-82.832	-77.504	-76.033	-70.958	56.958	-73.795	-8191	255	
1473.604	1	1	0	0	0.20122	0.16634	0.15223	0.11639	0.10689	0.044583	0.11495	0.18319	0.33156	0.18751	0.16572	0.24232	0.054553	0.10947	0.034778	0.084317	-1.9104	-2.9542	-2.7521	-2.8104	-3.1521	-2.775	-2.9917	-3.1979	-2.7083	-2.8542	-2.6854	-2.6312	-3.0208	-2.7438	-2.9167	-3.2521	73.159	248.734	210.520	255.725	195.614	79.298	-67.189	-30.308	57.123	-54.954	233.909	8.010	235.456	103.146	-44.237	229.149	0.00012263	0.00026247	8.9034e-05	484.17	1.8042e-06	2.9644e-06	548.9	139.85	8.4444e-07	2.1638e-06	199.96	79.79	51.557	20.306	1.5271e-06	34.639	0.00020507	0.00015137	4.52e-05	487.23	1.7785e-06	1.8476e-06	552.32	141.35	1.8183e-06	1.6988e-06	200.58	81.436	52.318	20.698	1.9418e-06	35.352	248.869	-19.174	13.997	-86.788	58.271	43.255	-87.178	-81.236	44.637	50.637	-82.511	-77.599	-75.849	-70.603	49.557	-73.288	-8191	255	
1473.724	1	1	0	0	0.21502	0.18042	0.073599	0.025522	0.13511	0.07518	0.020114	0.094271	0.11304	0.028366	0.15072	0.091864	0.021138	0.20722	0.13402	0.22871	-2.1625	-2.9833	-2.9333	-2.7479	-2.9958	-2.7729	-2.8292	-2.9729	-2.5146	-2.7812	-2.9792	-2.7354	-3.2333	-3.025	-2.7333	-3.2104	115.589	69.132	-16.310	202.728	240.896	219.099	221.017	244.763	21.947	33.103	188.532	115.257	253.106	-11.063	-32.407	205.269	0.00012297	0.00020227	6.5056e-05	489.06	2.1313e-06	2.2126e-06	551.38	140.95	1.2527e-06	2.4928e-06	200.24	80.417	51.165	20.297	2.2176e-06	34.757	0.00021271	0.00013275	4.4462e-05	489.61	1.6859e-06	1.5474e-06	553.57	142.18	1.9761e-06	1.8238e-06	201.48	81.911	52.314	20.706	1.868e-06	35.456	250.990	-23.561	-6.359	-87.096	53.159	29.211	-87.147	-80.994	65.428	67.159	-82.640	-77.587	-76.288	-70.863	53.955	-73.413	-8191	255	
1473.819	1	1	0	0	0.23572	0.10644	0.25297	0.14051	0.043779	0.12525	0.099216	0.12834	0.12736	0.064656	0.23113	0.0015837	0.19906	0.11052	0.10436	0.11406	-2.3271	-2.9833	-3.0875	-2.8292	-3.1625	-2.8979	-2.7479	-3.1542	-2.7979	-2.9062	-3.0833	-2.8646	-3.0104	-2.9292	-2.7229	-3.0729	80.162	-15.255	-91.537	-19.459	-24.592	-25.008	10.244	151.745	137.152	45.149	259.899	180.000	-97.688	-66.864	-29.760	223.492	0.00013743	0.00025899	7.8363e-05	490.18	2.0093e-06	2.6937e-06	547.65	139.86	1.5458e-06	2.3608e-06	196.85	79.43	50.788	19.832	2.5072e-06	33.714	0.0002103	0.00015763	4.4647e-05	490.43	1.7068e-06	1.6601e-06	552.28	141.43	1.9329e-06	1.8513e-06	199.15	80.731	51.75	20.238	1.945e-06	34.396	247.986	-27.038	1.154	-86.865	61.793	56.266	-87.247	-81.038	72.272	55.877	-82.684	-77.449	-75.936	-70.647	54.628	-73.344	-8191	255	
1473.915	1	1	0	0	0.11078	0.29198	0.050877	0.13904	0.054785	0.083387	0.014504	0.13319	0.28161	0.094603	0.11615	0.13058	0.046085	0.19873	0.075572	0.04981	-2.1188	-2.6813	-2.925	-2.7917	-2.9333	-2.8729	-2.6021	-2.85	-2.6125	-2.8979	-2.9271	-2.5333	-2.8521	-2.6875	-2.6917	-3.0979	-74.294	-60.592	-68.613	40.556	240.700	9.967	163.004	107.672	187.234	124.328	73.657	171.107	108.039	50.387	177.761	39.797	0.00012555	0.00034708	8.3822e-05	488.62	2.2852e-06	3.274e-06	548.87	138.85	1.1589e-06	2.8839e-06	196.27	78.817	50.439	19.742	1.6039e-06	33.979	0.00020899	0.00016869	4.3956e-05	490.54	1.5851e-06	1.7254e-06	549.71	140.67	1.8817e-06	1.784e-06	197.9	80.243	51.549	20.198	1.9839e-06	34.48	246.862	-8.049	-10.208	-86.908	63.657	53.975	-87.094	-80.951	45.001	48.676	-82.435	-77.529	-76.087	-70.551	57.816	-73.207	-8191	255	
1474.011	1	1	0	0	0.19975	0.10118	0.1514	0.1181	0.067766	0.087113	0.11803	0.093027	0.24125	0.10421	0.11734	0.17997	0.14504	0.28545	0.13943	0.16981	-2.4521	-2.825	-2.9729	-2.6542	-3.0896	-2.9417	-2.7188	-3.2667	-2.8792	-2.9604	-3.1813	-2.7771	-2.9958	-3.0229	-2.6708	-3.2292	61.765	-24.802	142.104	86.485	151.796	139.100	-68.804	65.139	81.910	136.582	-13.319	198.143	107.585	73.858	161.799	-50.858	0.00012565	0.00026438	6.7346e-05	486.72	2.2149e-06	3.0828e-06	548.5	139.65	1.5786e-06	2.4922e-06	198	79.077	50.577	19.986	1.6063e-06	34.248	0.00020611	0.0001547	3.8012e-05	488.92	1.6157e-06	1.6345e-06	550.07	140.99	1.8593e-06	1.6798e-06	199.12	80.833	51.725	20.358	1.9661e-06	34.783	245.287	-19.833	-6.087	-86.956	83.465	30.620	-87.081	-81.227	65.342	45.721	-82.780	-77.571	-75.893	-70.653	66.641	-73.034	-8191	255	
1474.132	1	1	0	0	0.36363	0.10478	0.054696	0.11799	0.17392	0.1605	0.05177	0.12084	0.037217	0.10634	0.17665	0.066241	0.1974	0.26283	0.19823	0.23546	-2.4375	-2.6333	-3.0979	-2.7104	-3.0917	-3.1417	-2.65	-3.0771	-2.6708	-2.7438	-3.0271	-2.7438	-2.8083	-3.0687	-2.65	-3.1813	173.700	153.385	-25.775	217.683	-58.706	185.145	-36.402	144.413	-84.010	78.988	96.144	142.076	-74.230	-86.586	90.650	46.218	0.00012483	0.00021237	9.6449e-05	489.02	1.7208e-06	2.1851e-06	549.75	139.24	1.4094e-06	3.0949e-06	198.18	79.049	50.716	19.836	1.9525e-06	34.371	0.00021196	0.00016739	4.0776e-05	489.41	1.6553e-06	1.7756e-06	551.87	140.89	1.9473e-06	1.8608e-06	199.3	80.641	51.689	20.268	2.0933e-06	34.911	246.530	-4.465	14.626	-86.903	57.787	40.285	-87.110	-81.206	61.743	48.628	-82.766	-77.420	-76.203	-70.788	71.670	-73.213	-8191	255	
1474.203	1	1	0	0	0.1911	0.22277	0.17587	0.091139	0.021743	0.087684	0.18571	0.22851	0.20319	0.27491	0.1239	0.15129	0.27739	0.078402	0.12743	0.22567	-2.5042	-2.5958	-3.0833	-2.7188	-2.8125	-3.0833	-2.65	-3.0062	-3.0104	-2.7875	-3.1437	-2.9896	-2.7229	-3.2167	-2.8125	-3.1021	66.670	15.996	109.546	124.370	152.250	241.069	-56.107	-17.803	-28.953	102.415	180.250	195.290	204.996	239.969	162.105	125.821	0.000123	0.00029812	5.2389e-05	490.13	2.5745e-06	2.931e-06	544.86	139.87	1.3205e-06	2.8688e-06	197.05	78.995	50.493	19.82	1.5106e-06	34.123	0.00020679	0.00017373	3.974e-05	490.75	1.8613e-06	1.5389e-06	549.7	141.28	1.8168e-06	1.8911e-06	198.79	80.552	51.624	20.261	1.9491e-06	34.676	251.032	-34.995	-17.168	-86.996	76.565	42.047	-87.170	-81.179	48.349	55.911	-82.787	-77.475	-76.132	-70.788	65.206	-73.203	-8191	255	
1474.300	1	1	0	0	0.1576	0.065344	0.12758	0.15384	0.3538	0.14563	0.23183	0.14508	0.17783	0.27	0.23193	0.11367	0.1348	0.13693	0.21971	0.087753	-2.5708	-2.5062	-3.0917	-2.9375	-2.7708	-3.0438	-2.7625	-2.8542	-2.9896	-2.6771	-3.0917	-2.9708	-2.8937	-3.1437	-2.5396	-2.85	162.855	-15.247	235.041	87.959	-98.474	92.589	-50.719	36.552	-43.247	0.510	238.726	54.604	201.662	-62.510	208.432	127.590	0.00012431	0.00030655	7.7386e-05	486.01	1.1964e-06	2.9057e-06	546.39	139.94	9.4587e-07	2.6984e-06	197.51	79.129	50.615	19.943	1.7741e-06	34.283	0.00020938	0.00016673	4.2113e-05	487.56	1.6478e-06	1.6052e-06	547.84	140.92	1.8089e-06	1.8797e-06	198.25	80.533	51.739	20.374	1.9726e-06	34.866	245.974	-0.563	-2.075	-87.016	53.144	63.333	-86.841	-81.027	45.843	57.803	-82.553	-77.454	-76.011	-70.816	62.796	-73.183	-8191	255	
1474.396	1	1	0	0	0.16271	0.29672	0.30838	0.23233	0.13736	0.20063	0.13158	0.27805	0.20307	0.13314	0.33317	0.071246	0.1131	0.029401	0.19935	0.29763	-2.7562	-2.4854	-2.8958	-3.0312	-2.7854	-2.9917	-2.6958	-2.9188	-2.9583	-2.5125	-2.9813	-2.9229	-2.7208	-3.0479	-2.825	-2.9354	170.165	-74.881	-82.708	123.014	199.570	-24.274	201.549	241.846	41.608	242.157	-94.973	118.741	20.497	38.255	235.187	183.050	0.00012891	0.00026693	7.0861e-05	487.5	2.5007e-06	2.6791e-06	545.63	139.18	1.391e-06	2.5101e-06	198.59	79.34	51.024	20.136	2.2875e-06	34.644	0.00021574	0.00017202	4.4509e-05	487.08	1.7665e-06	1.715e-06	547.33	140.87	1.9415e-06	1.8144e-06	199.38	80.94	51.965	20.577	1.9102e-06	35.196	244.655	-24.161	2.560	-87.027	72.039	53.977	-86.960	-81.020	35.916	39.264	-82.519	-77.400	-75.847	-70.995	62.002	-73.629	-8191	255	
1474.516	1	1	0	0	0.26482	0.080395	0.15456	0.26298	0.16251	0.028509	0.15114	0.042003	0.16693	0.13381	0.14186	0.24628	0.21138	0.21537	0.055348	0.31556	-2.6792	-2.625	-2.8	-3.1125	-2.6896	-3.1875	-2.8438	-3.0271	-3.1771	-2.7313	-2.8667	-2.8583	-2.6979	-3.2	-2.6104	-2.7562	13.302	-15.258	56.239	237.220	-19.261	145.005	239.757	61.930	162.089	87.167	56.481	227.257	-73.026	186.254	81.394	233.991	0.00012955	0.0003137	7.3418e-05	484.99	1.6619e-06	3.1192e-06	547.78	139.82	1.4118e-06	2.259e-06	198.59	79.667	50.634	20.243	2.11e-06	35.071	0.00020861	0.00017608	4.5131e-05	485.96	1.9674e-06	1.5152e-06	549.87	141.4	1.7786e-06	1.766e-06	199.63	81.498	51.952	20.682	1.9847e-06	35.52	249.126	-22.662	-22.803	-86.732	64.830	61.676	-87.125	-80.982	36.560	43.323	-82.639	-77.724	-76.007	-70.869	60.922	-73.103	-8191	255	
1474.612	1	1	0	0	0.14884	0.1353	0.16009	0.10863	0.10442	0.32783	0.34351	0.24119	0.11339	0.019619	0.14211	0.16578	0.15191	0.17857	0.21438	0.19755	-2.6396	-2.5875	-3.1	-3.1646	-2.8479	-3.0583	-2.8708	-2.5312	-2.925	-2.5271	-2.8417	-3.1771	-2.7313	-3.0646	-2.7229	-2.6167	31.324	53.966	-21.982	61.297	244.401	-57.877	137.781	209.031	224.589	239.821	133.055	-14.906	193.876	-95.486	98.852	-84.484	0.00013682	0.00021284	6.9838e-05	487.59	1.9991e-06	2.4656e-06	546.93	140.06	1.3082e-06	2.5561e-06	199.04	80.454	51.577	20.438	2.0722e-06	35.315	0.00020617	0.00016999	4.7319e-05	487.4	1.8516e-06	1.5285e-06	551.23	141.93	1.8831e-06	1.8475e-06	201.19	82.124	52.606	20.928	1.8534e-06	35.826	245.743	-21.852	-9.107	-86.817	68.491	66.800	-87.073	-80.877	45.690	47.153	-82.561	-77.454	-76.011	-70.848	62.780	-73.098	-8191	255	
1474.709	1	1	0	0	0.28645	0.10318	0.14169	0.050295	0.16022	0.085938	0.2837	0.10664	0.11336	0.14224	0.052507	0.65651	0.20333	0.29327	0.19169	0.18661	-2.8312	-2.6729	-2.9521	-3.0146	-2.6792	-3.0354	-2.8396	-2.4062	-2.8896	-2.8042	-2.8125	-2.9354	-2.5396	-2.9375	-2.9062	-2.6312	-3.543	-74.572	210.799	246.667	-84.816	222.308	200.948	141.151	44.085	-61.298	-21.232	214.507	254.805	204.227	-0.374	58.316	0.00013427	0.00026193	7.7421e-05	485.22	1.8855e-06	2.6324e-06	546.11	140.32	1.6693e-06	2.9354e-06	198.37	80.432	51.178	20.355	2.2724e-06	34.895	0.00020974	0.00015722	4.6536e-05	487.18	1.8016e-06	1.5483e-06	549.71	142.01	1.8507e-06	1.7954e-06	199.86	81.836	52.469	20.81	1.9191e-06	35.507	248.984	-16.323	-5.822	-87.135	54.148	45.457	-86.888	-81.060	49.448	54.226	-82.692	-77.764	-76.131	-70.616	42.780	-73.249	-8191	255	
1474.805	1	1	0	0	0.018053	0.12461	0.11357	0.13181	0.26474	0.10966	0.19465	0.24259	0.10801	0.17978	0.019085	0.057303	0.32176	0.20574	0.15011	0.28621	-2.7125	-2.7542	-2.5917	-2.9625	-2.4688	-2.8833	-3.1583	-2.6875	-3.1	-2.7854	-2.6458	-3.0667	-2.7812	-2.8521	-2.95	-2.6625	251.361	-4.544	204.444	187.208	113.408	-39.519	51.275	216.215	136.439	17.479	158.075	-91.771	233.254	34.950	-36.133	199.105	0.00013809	0.00028047	7.6195e-05	486.31	1.9927e-06	2.5117e-06	546.18	140.51	1.3219e-06	2.8881e-06	197.99	79.903	50.964	20.134	2.0686e-06	34.399	0.00021042	0.00017177	5.013e-05	487.07	1.9748e-06	1.7993e-06	548.74	141.88	1.7699e-06	1.8238e-06	199.85	81.33	52.071	20.522	1.8559e-06	35.016	247.332	-20.797	7.898	-86.895	60.762	52.756	-87.327	-81.001	43.697	50.364	-82.516	-77.455	-76.200	-70.403	66.272	-73.250	-8191	255	
1474.899	1	1	0	0	0.13268	0.072274	0.14104	0.11597	0.16333	0.13088	0.17641	0.064981	0.11178	0.10923	0.1528	0.08063	0.13673	0.11402	0.18561	0.23179	-2.6021	-2.6188	-2.5687	-3.0187	-2.5854	-3.0396	-3.2292	-2.6333	-2.9583	-2.8812	-2.85	-3.1792	-2.7875	-2.8917	-3.2792	-2.7208	210.125	7.012	196.595	62.011	25.918	14.466	-66.035	-31.565	224.745	103.849	217.822	233.395	201.569	-14.749	137.690	172.831	0.00012851	0.0003026	6.2943e-05	488.29	2.5338e-06	2.8917e-06	551.25	141.17	1.0652e-06	3.0621e-06	198.21	78.967	50.809	19.675	2.3436e-06	33.933	0.00020561	0.00015901	4.8909e-05	488.35	1.945e-06	1.7283e-06	550.76	141.77	1.7144e-06	1.7234e-06	199.18	80.696	51.662	20.155	2.0431e-06	34.465	247.950	-11.095	21.085	-86.716	64.638	63.341	-87.012	-80.990	36.423	33.517	-82.522	-77.475	-75.926	-70.315	55.819	-73.049	-8191	255	
1474.997	1	1	0	0	0.16221	0.16115	0.13006	0.13837	0.16611	0.091162	0.12787	0.23724	0.051236	0.077851	0.11446	0.097398	0.17255	0.19236	0.042909	0.16836	-2.4854	-2.9542	-2.7354	-3.0375	-2.7583	-2.9208	-3.2042	-2.7104	-3.0354	-2.9104	-2.8083	-3.1875	-2.7687	-2.575	-3	-2.5604	176.578	111.902	1.901	-95.408	206.909	18.288	33.383	236.602	-45.091	196.959	137.365	81.994	-89.964	189.246	-0.005	104.832	0.00012632	0.00021086	8.2231e-05	488.4	1.4776e-06	2.7369e-06	549.71	139.4	1.2039e-06	3.0226e-06	196.31	78.848	50.423	19.58	1.7744e-06	33.486	0.00021131	0.00016682	5.0153e-05	488.36	1.7016e-06	1.8694e-06	551.63	141.1	1.8478e-06	1.8039e-06	198.77	80.493	51.465	20.027	1.7578e-06	34.058	247.896	-15.419	0.142	-86.740	34.597	75.806	-86.961	-81.069	40.261	37.523	-82.642	-77.381	-75.962	-70.535	71.451	-73.109	-8191	255	
1475.116	1	1	0	0	0.062415	0.11042	0.055857	0.11232	0.061356	0.034923	0.14925	0.12805	0.18512	0.11906	0.27355	0.21684	0.13822	0.20114	0.042413	0.20585	-2.4667	-2.8417	-2.3833	-2.8771	-2.6125	-2.6562	-3.0729	-2.6562	-2.7313	-2.6542	-2.4479	-3.0438	-2.7646	-2.5167	-3.0833	-2.6042	-16.656	148.942	70.916	127.637	163.297	-13.923	214.678	-79.829	-94.864	247.580	154.343	-92.697	168.714	-57.705	120.149	137.068	0.00010707	0.0002144	8.897e-05	483.07	1.6366e-06	2.4289e-06	542.25	138.44	9.5947e-07	3.1021e-06	195.23	77.812	49.735	19.405	1.1871e-06	33.011	0.00020581	0.00015869	4.7895e-05	485.14	1.768e-06	1.8059e-06	545.94	140.09	1.7678e-06	1.6097e-06	196.55	79.25	50.808	19.772	1.6233e-06	33.655	246.061	-20.486	-22.349	-86.575	59.002	38.279	-87.121	-81.168	75.731	44.414	-82.553	-77.733	-75.966	-70.600	49.660	-73.290	-8191	255	
1475.212	1	1	0	0	0.093643	0.31362	0.053777	0.17198	0.1188	0.081166	0.091665	0.28409	0.16827	0.23441	0.10965	0.28743	0.18286	0.084492	0.085811	0.17925	-2.3	-2.8458	-2.5646	-3.0563	-2.8083	-2.6833	-3.0229	-2.7479	-2.6083	-3.0333	-2.5479	-3.1271	-3.1125	-2.7333	-3.1708	-2.8917	221.096	-73.661	46.102	192.947	121.845	-92.736	250.319	234.540	-80.737	-34.153	71.789	-79.618	94.413	181.546	64.470	148.841	0.00012298	0.00018887	9.4268e-05	480.47	1.9987e-06	1.9594e-06	542.37	138.56	1.1289e-06	2.8811e-06	195.5	77.792	49.846	19.365	2.1096e-06	33.292	0.00020394	0.00014056	4.566e-05	483.36	1.6821e-06	1.7027e-06	545.14	139.79	1.8608e-06	1.6561e-06	196.64	79.444	50.859	19.871	1.6808e-06	33.959	251.561	-14.573	-9.492	-86.805	61.307	59.395	-87.146	-81.075	66.830	69.789	-82.833	-77.535	-75.888	-70.354	73.319	-73.212	-8191	255	
1475.308	1	1	0	0	0.20198	0.12065	0.18071	0.14199	0.1731	0.17691	0.20794	0.16923	0.024258	0.041334	0.22394	0.082819	0.051083	0.18486	0.12644	0.26002	-2.4729	-3.2667	-2.6688	-2.8563	-2.8958	-2.4813	-3.1479	-2.7958	-2.5375	-3.1458	-2.8875	-2.9708	-3.2542	-2.7	-3.1271	-3.0292	-62.252	103.111	-43.587	103.618	52.147	101.111	230.146	142.286	203.667	-78.295	195.865	117.234	78.446	97.072	225.203	-89.650	0.00012189	0.00035543	6.7548e-05	483.95	1.6934e-06	2.557e-06	544.29	138.37	1.4762e-06	3.0162e-06	196.21	78.374	49.853	19.604	2.2383e-06	33.598	0.00020495	0.00015031	5.0107e-05	484.08	1.7195e-06	1.8438e-06	546.27	140	1.8976e-06	1.5292e-06	197.54	79.963	51.016	20.054	1.9256e-06	34.291	246.844	-7.376	1.598	-86.937	83.043	42.725	-86.874	-80.994	59.855	43.753	-82.642	-77.447	-75.867	-70.659	68.322	-73.125	-8191	255	
1475.429	1	1	0	0	0.19118	0.037016	0.13786	0.083016	0.10866	0.077507	0.035722	0.021175	0.046836	0.25082	0.089652	0.075265	0.071299	0.12361	0.040721	0.19382	-2.3083	-3.1396	-2.7271	-3.0354	-3.1292	-2.6813	-3.0042	-2.8854	-2.5875	-2.9938	-2.7021	-2.6937	-3.1125	-2.575	-2.9	-2.9896	246.722	-63.440	-42.207	124.101	85.087	-41.813	-56.797	25.921	225.717	-0.217	102.202	26.896	218.075	245.282	174.133	9.149	0.00012147	0.0003195	7.9086e-05	483.99	2.4308e-06	1.9767e-06	546.33	138.3	1.1725e-06	4.027e-06	196.27	78.909	49.911	19.596	2.0366e-06	33.873	0.00021134	0.00014552	4.9623e-05	484.87	1.7016e-06	1.9537e-06	548.53	140.19	2.0338e-06	1.8399e-06	198.13	80.339	51.22	20.03	1.7837e-06	34.416	247.528	-10.191	-2.166	-86.932	55.967	81.017	-86.941	-81.137	46.205	64.607	-82.474	-77.285	-76.063	-70.506	68.207	-73.130	-8191	255	
1475.501	1	1	0	0	0.14646	0.10206	0.20831	0.085649	0.15315	0.14284	0.14955	0.20807	0.15083	0.36786	0.22644	0.068841	0.39764	0.19445	0.13795	0.23049	-2.2562	-3.0312	-2.5563	-2.8354	-3.1729	-2.7104	-2.9729	-2.9958	-2.6667	-2.9396	-2.6854	-2.5187	-3.0396	-2.6771	-3.0062	-3.0208	33.355	-75.209	-73.020	101.970	116.396	150.730	-12.649	-20.862	39.739	202.112	181.034	24.338	114.801	182.155	73.889	177.413	0.00011468	0.00020723	8.1706e-05	484.39	1.7973e-06	2.7204e-06	543.96	138.43	1.0664e-06	3.2066e-06	195.44	78.235	49.73	19.553	2.6715e-06	33.386	0.0002128	0.00016389	4.7734e-05	484.96	1.7665e-06	1.823e-06	545.81	139.88	1.8536e-06	1.622e-06	196.99	79.652	50.793	19.974	1.9466e-06	33.999	249.673	-27.461	-14.065	-86.698	59.504	49.365	-87.156	-81.349	58.358	56.209	-82.687	-77.558	-75.563	-70.553	45.462	-73.257	-8191	255	
1475.597	1	1	0	0	0.16279	0.086451	0.095258	0.2764	0.12596	0.11012	0.16627	0.050457	0.058318	0.34127	0.15357	0.064317	0.12136	0.16825	0.21423	0.25076	-2.2917	-3.0333	-2.8333	-2.9833	-3.1437	-2.7417	-3.0354	-3.0708	-2.4062	-2.7958	-2.7729	-2.4979	-3.1104	-2.6458	-2.9208	-3.1646	247.434	120.166	84.830	-89.051	-57.989	139.974	-45.157	94.253	-83.681	-69.149	248.457	2.863	84.834	127.290	-94.383	91.751	0.00012274	0.00029201	7.9101e-05	481.72	1.4775e-06	2.3274e-06	539.46	138.05	1.5595e-06	2.3402e-06	193.11	78.306	49.768	19.468	2.1329e-06	33.637	0.0002111	0.00014747	4.3956e-05	482.75	1.5784e-06	1.7415e-06	543.66	139.68	2.1326e-06	1.5273e-06	195.81	79.418	50.732	19.898	1.8226e-06	34.106	246.771	-26.093	-2.921	-87.079	74.141	59.471	-87.110	-80.962	26.855	60.340	-82.840	-77.362	-76.084	-70.689	66.105	-73.327	-8191	255	
1475.693	1	1	0	0	0.14772	0.13705	0.26645	0.3253	0.067607	0.19502	0.14772	0.10303	0.22455	0.198	0.19238	0.17457	0.061731	0.088558	0.13338	0.092455	-2.2021	-2.9021	-2.8229	-2.8333	-3.1917	-2.7062	-2.8104	-3.05	-2.5542	-3	-2.8833	-2.8333	-3.15	-2.8833	-2.7958	-2.9667	68.888	243.521	40.708	113.891	221.125	215.714	59.383	25.255	26.207	-95.107	-44.825	135.009	-78.367	-30.673	109.885	193.426	0.00012782	0.00027908	7.1875e-05	481.34	1.2278e-06	2.6651e-06	544.23	139.71	1.5131e-06	2.8577e-06	196.23	78.876	50.252	19.675	1.9696e-06	33.925	0.00021128	0.000166	4.6305e-05	483.16	1.5836e-06	1.7785e-06	546.73	140.69	1.8428e-06	1.6438e-06	197.98	80.312	51.268	20.117	1.9126e-06	34.486	249.751	-12.192	-12.489	-86.733	75.405	55.522	-87.189	-81.204	71.305	46.884	-82.693	-77.480	-75.754	-70.742	37.433	-73.285	-8191	255	
1475.812	1	1	0	0	0.1062	0.2026	0.35787	0.079299	0.064168	0.10142	0.08007	0.24714	0.25584	0.26597	0.24679	0.16819	0.29402	0.3527	0.39958	0.08141	-2.125	-2.9437	-2.8	-2.675	-3.3	-2.6437	-2.9667	-3.1708	-2.675	-3.1146	-2.8896	-2.9271	-3.4	-2.9042	-2.8438	-3.2229	141.504	161.893	166.219	-76.471	-7.789	165.998	-74.129	58.136	254.316	132.171	156.057	-85.536	52.466	223.490	-66.292	14.351	0.00011267	0.00029538	6.3241e-05	484.27	1.2075e-06	2.9482e-06	548.68	139.16	1.1733e-06	2.8394e-06	197.78	79.053	50.161	19.607	2.0651e-06	33.791	0.00021366	0.00016714	4.7227e-05	483.93	1.6941e-06	1.7453e-06	548.78	140.66	1.9617e-06	1.5955e-06	198.64	80.502	51.129	20.031	1.8251e-06	34.435	241.611	-23.611	-5.273	-86.913	51.137	40.525	-87.106	-81.047	68.468	51.337	-82.510	-77.130	-75.815	-70.517	65.960	-73.355	-8191	255	
1475.908	1	1	0	0	0.074546	0.016926	0.07136	0.13293	0.095884	0.21007	0.18937	0.091354	0.2982	0.069325	0.19481	0.17513	0.17698	0.083373	0.12251	0.066772	-2.225	-2.95	-3.0646	-2.8125	-3.0729	-2.9833	-2.8271	-3.3646	-2.8125	-3.0833	-3.3	-2.9521	-3.1896	-3.0229	-2.6646	-3.0417	261.043	-81.534	123.137	239.393	114.181	115.770	23.310	-10.618	-73.257	-94.012	249.248	243.290	-64.264	-87.768	152.414	202.398	0.00013281	0.00024482	6.2373e-05	482.07	1.8346e-06	1.9399e-06	543.93	138.15	1.4177e-06	2.307e-06	196.37	78.067	49.544	19.475	2.3247e-06	33.573	0.00021425	0.00016869	3.9371e-05	483.7	1.6986e-06	1.5976e-06	548.24	139.99	1.7966e-06	1.7509e-06	197.41	79.815	50.683	19.836	1.9977e-06	34.187	244.131	3.794	17.514	-86.799	68.452	48.678	-87.112	-80.945	28.116	46.804	-82.790	-77.377	-75.919	-70.581	66.791	-72.876	-8191	255	
1476.004	1	1	0	0	0.20006	0.1273	0.14843	0.27406	0.14637	0.14558	0.26886	0.058198	0.16344	0.10419	0.173	0.078795	0.072186	0.032382	0.23786	0.19475	-2.1437	-2.7687	-2.8937	-2.7812	-3.0479	-3.1333	-2.9292	-3.2562	-2.8979	-2.8458	-3.0458	-2.9021	-3.1437	-3.0146	-2.6312	-3.1667	-30.189	95.927	112.786	137.208	12.169	209.833	179.682	50.845	-7.468	183.239	149.733	170.340	125.008	174.086	32.819	148.275	0.00012466	0.00028663	8.132e-05	480.47	2.3699e-06	2.7213e-06	542.65	138.67	1.188e-06	2.746e-06	194.14	78.3	49.597	19.531	1.4025e-06	33.716	0.00021009	0.00017511	3.8012e-05	482.69	1.7075e-06	1.483e-06	545.56	139.82	1.925e-06	1.7907e-06	196.31	79.537	50.548	19.887	1.7894e-06	34.269	246.914	-10.981	-25.047	-86.656	62.089	54.810	-86.949	-80.955	58.840	41.382	-82.654	-77.356	-76.034	-70.925	63.059	-73.593	-8191	255	
1476.077	1	1	0	0	0.28569	0.14987	0.18766	0.26071	0.015583	0.37278	0.1804	0.11211	0.29978	0.062786	0.16423	0.25785	0.057162	0.22221	0.20973	0.19895	-2.0917	-2.6188	-3.2042	-2.6625	-3.0417	-2.9917	-2.6063	-3.0375	-2.8937	-2.9333	-3.1312	-2.6521	-2.7458	-2.8438	-2.5167	-2.9667	29.942	-7.203	-21.216	-94.130	-79.993	14.372	218.997	-88.783	218.114	1.763	204.221	255.138	72.016	79.680	-36.015	-4.819	0.00012378	0.00034592	7.2203e-05	481.74	2.5441e-06	2.9094e-06	541.9	138.28	1.1604e-06	2.8089e-06	195.04	77.875	49.358	19.623	1.1355e-06	33.759	0.00020528	0.00015869	3.9394e-05	482.78	1.8419e-06	1.6752e-06	545.28	139.96	1.8471e-06	1.6874e-06	197.02	79.773	50.715	19.959	2.0074e-06	34.407	246.103	-15.641	-8.181	-87.103	84.167	51.724	-87.122	-80.980	43.767	68.471	-82.808	-77.456	-75.824	-70.473	86.004	-73.135	-8191	255	
1476.196	1	1	0	0	0.23991	0.23908	0.074886	0.14511	0.052691	0.17707	0.033285	0.16361	0.34934	0.059973	0.086208	0.30587	0.28017	0.21339	0.17838	0.11219	-2.5792	-2.6729	-3.0812	-2.6437	-2.8	-3.0854	-2.3708	-2.9938	-2.6646	-2.6396	-2.9396	-3	-2.7542	-3.1896	-2.6021	-3.1312	-94.976	62.720	175.346	-67.012	-7.260	140.166	-18.746	-12.315	239.405	59.375	-53.445	237.549	232.716	31.840	-40.310	83.051	0.00011877	0.00024303	8.1125e-05	482.7	1.929e-06	2.4975e-06	543.81	138.45	1.325e-06	2.6703e-06	195.75	78.249	49.469	19.449	1.1705e-06	33.851	0.00020264	0.00015267	4.3334e-05	482.55	1.7531e-06	1.679e-06	546.96	139.86	1.8226e-06	1.6969e-06	197.41	79.852	50.694	19.919	1.9142e-06	34.423	247.690	5.427	-9.179	-86.842	55.317	51.884	-86.745	-81.183	54.896	50.361	-82.528	-77.179	-75.742	-70.536	29.874	-72.972	-8191	255	
1476.292	1	1	0	0	0.10805	0.48769	0.1782	0.15017	0.10046	0.081214	0.067688	0.16811	0.019023	0.11873	0.046899	0.087706	0.17391	0.083814	0.23502	0.27556	-2.4458	-2.5917	-3.0833	-2.9188	-2.9792	-3.2917	-2.8	-2.9125	-3.0792	-2.5625	-3.1	-2.7542	-2.7417	-3.0833	-2.6271	-2.9146	-19.505	16.833	-19.556	-89.176	146.129	-98.626	97.030	87.121	22.797	173.864	-20.814	171.693	-92.357	-80.023	108.802	227.535	0.00012485	0.00035737	5.9771e-05	479.68	2.0086e-06	1.9849e-06	545.85	137.59	1.618e-06	2.704e-06	194.33	78.121	49.039	19.417	1.9821e-06	33.425	0.00020923	0.00017031	4.4301e-05	481.31	1.9562e-06	1.6374e-06	546.58	139.39	1.8175e-06	1.7869e-06	196.27	79.388	50.341	19.796	2.0196e-06	34.062	246.565	-10.986	6.391	-86.906	66.105	64.679	-87.150	-81.118	55.783	46.928	-82.665	-77.423	-76.033	-70.705	46.893	-73.112	-8191	255	
1476.389	1	1	0	0	0.2424	0.076683	0.068069	0.11464	0.2789	0.18263	0.22123	0.29643	0.071838	0.10873	0.042782	0.21554	0.14661	0.27793	0.084377	0.099715	-2.4271	-2.7021	-2.9979	-3.0229	-2.7438	-3.2062	-2.5167	-2.8479	-3.1521	-2.5958	-3.1125	-2.8396	-2.7188	-3.0729	-2.8937	-2.9708	66.014	119.181	-55.795	164.198	9.119	74.579	195.961	-88.353	-80.900	-91.237	34.679	137.429	194.957	-90.342	53.390	163.796	0.00011964	0.00021247	7.9644e-05	476	1.9933e-06	3.3145e-06	537.31	136.19	8.3102e-07	2.3164e-06	194.72	77.583	48.893	19.32	2.1644e-06	33.533	0.00020234	0.00016877	4.361e-05	477.62	1.8218e-06	1.5872e-06	541.29	138.31	1.7144e-06	1.8058e-06	195.6	79.022	50.079	19.705	1.9628e-06	34.131	246.007	-3.891	-14.533	-86.718	58.964	56.124	-87.305	-81.025	45.333	67.122	-82.541	-77.437	-75.724	-70.849	81.824	-73.325	-8191	255	
1476.509	1	1	0	0	0.31327	0.16693	0.075016	0.15459	0.044996	0.12505	0.12163	0.02907	0.1635	0.22562	0.21835	0.035962	0.14952	0.32141	0.17976	0.17866	-2.7896	-2.7354	-3.0125	-2.8937	-2.8354	-3.1312	-2.8688	-2.8208	-2.9292	-2.7375	-2.9875	-2.9604	-2.6833	-3.1521	-2.9417	-2.7812	28.687	203.546	203.116	-31.739	63.476	249.075	203.977	-4.343	190.062	79.999	-54.761	56.477	187.594	51.850	188.477	253.272	0.00011256	0.00030646	6.4e-05	475.69	2.3141e-06	3.2094e-06	536.15	136.8	1.2455e-06	2.8886e-06	193.63	77.408	48.929	19.291	2.4665e-06	33.706	0.00019687	0.00017112	4.285e-05	476.36	1.9815e-06	1.6232e-06	540.76	138.38	1.6863e-06	1.9404e-06	195.7	79.178	50.144	19.748	1.8688e-06	34.262	244.082	-6.228	-15.955	-86.802	57.779	70.837	-86.960	-81.045	36.575	42.691	-82.375	-77.607	-76.131	-70.668	48.689	-73.566	-8191	255	
1476.605	1	1	0	0	0.22776	0.12771	0.20001	0.21441	0.059441	0.071139	0.01264	0.10826	0.25183	0.26637	0.19361	0.060424	0.10505	0.22113	0.034621	0.034666	-2.5708	-2.5625	-2.6854	-2.9208	-2.7229	-3.0042	-3.2396	-2.7854	-3.2146	-2.7375	-3.0229	-2.9229	-2.6333	-3.0396	-2.7958	-2.7188	247.446	22.463	128.022	168.857	-16.846	46.271	225.830	-92.744	-2.574	103.432	191.411	180.618	220.035	252.641	-23.992	-66.553	0.00011666	0.00029068	6.6343e-05	474.49	1.7022e-06	3.4112e-06	539.94	136.91	1.2691e-06	2.3657e-06	195.6	77.476	49.269	19.556	2.1189e-06	34.039	0.00020314	0.00016999	4.3195e-05	476.05	1.8748e-06	1.5474e-06	544.43	138.37	1.5565e-06	1.7774e-06	196.22	79.54	50.356	19.929	1.8996e-06	34.622	247.268	-14.485	-17.121	-87.161	40.040	45.332	-87.031	-80.898	25.445	37.048	-82.483	-77.413	-76.010	-70.657	62.152	-73.125	-8191	255	
1476.702	1	1	0	0	0.14798	0.14274	0.12714	0.082497	0.2108	0.10224	0.20492	0.20501	0.11532	0.092735	0.15119	0.13143	0.17801	0.18724	0.098001	0.32687	-2.8625	-2.7271	-3.0354	-2.9688	-2.6188	-3.1542	-3.1604	-2.8479	-3.1104	-2.8542	-2.8896	-3.2	-2.7042	-3.0542	-2.9562	-2.5396	-30.247	-76.387	53.444	230.211	27.653	23.373	184.262	141.054	26.822	-80.439	231.855	-84.012	199.654	-4.335	143.338	219.138	0.00012592	0.00032456	6.7566e-05	476.96	2.2858e-06	3.0294e-06	545.12	137.98	1.5386e-06	3.1847e-06	195.59	78.172	49.031	19.501	2.0635e-06	33.81	0.0002057	0.0001747	4.5154e-05	477.74	1.9793e-06	1.6392e-06	545.83	138.66	1.9336e-06	1.9281e-06	196.71	79.756	50.318	19.952	1.9296e-06	34.572	247.687	-20.148	-16.286	-86.975	68.039	47.865	-87.017	-81.036	67.465	44.237	-82.487	-77.586	-76.349	-70.795	54.419	-72.990	-8191	255	
1476.798	1	1	0	0	0.13564	0.063394	0.053779	0.25125	0.091333	0.19021	0.23739	0.053042	0.14369	0.11878	0.20811	0.13467	0.15559	0.036706	0.057231	0.1487	-2.5417	-2.4125	-2.6354	-3.0167	-2.675	-2.775	-2.9208	-2.7646	-2.7604	-2.6354	-2.5417	-3.0896	-2.5	-2.7833	-2.875	-2.4375	43.113	-64.147	228.641	135.784	215.783	67.462	237.630	248.262	202.681	-73.870	183.481	26.853	222.561	170.844	197.179	-51.323	0.00013311	0.00021024	6.7121e-05	474.45	1.8668e-06	2.0375e-06	541.68	137.06	1.321e-06	2.5079e-06	194.03	78.291	49.075	19.546	2.2341e-06	34	0.0002103	0.00016812	4.4393e-05	476.31	1.9211e-06	1.5029e-06	542.48	138.55	1.687e-06	1.8049e-06	195.67	79.666	50.224	19.924	1.8275e-06	34.547	249.102	-4.415	-10.220	-86.900	48.827	64.872	-87.195	-81.114	51.817	31.918	-82.534	-77.501	-76.093	-70.733	50.783	-73.310	-8191	255	
1476.892	1	1	0	0	0.15176	0.2368	0.2467	0.24844	0.13992	0.13543	0.095144	0.2978	0.19854	0.070998	0.17062	0.096802	0.21183	0.23669	0.092375	0.20568	-2.5646	-2.8333	-2.6021	-3.0604	-2.5438	-2.7875	-2.9	-2.55	-3.1646	-2.9688	-2.8771	-3.0417	-2.8229	-2.6583	-2.8063	-2.5042	-3.207	47.031	-45.116	168.052	51.965	21.575	151.787	195.679	69.426	239.669	-4.540	25.077	9.777	-28.331	57.664	243.890	0.00011408	0.00027605	6.1973e-05	477.08	1.7698e-06	2.526e-06	541.53	136.91	1.2024e-06	3.1727e-06	194.35	78.42	49.273	19.555	1.1883e-06	34.036	0.00020587	0.00017088	4.7872e-05	476.65	1.8568e-06	1.697e-06	543.25	138.51	1.8442e-06	1.7244e-06	196.39	79.776	50.307	19.93	1.8559e-06	34.698	251.460	-9.896	-8.592	-86.915	83.412	53.391	-87.193	-80.950	54.896	44.222	-82.472	-77.365	-75.828	-70.726	60.221	-72.971	-8191	255	
1476.988	1	1	0	0	0.035411	0.093689	0.10195	0.22614	0.12678	0.10362	0.039568	0.13566	0.11866	0.10793	0.1611	0.09774	0.067238	0.27977	0.17806	0.086233	-2.6917	-2.925	-2.7729	-3.2313	-2.8604	-2.9021	-3.0125	-2.8354	-3.0104	-2.9604	-2.5	-2.9729	-2.925	-2.8271	-3.2	-2.7958	43.914	182.553	183.128	-85.663	-20.610	-36.780	-10.202	193.624	168.350	-24.095	-62.287	110.669	260.184	218.477	92.987	66.856	0.00012392	0.000312	8.2834e-05	477.08	2.0226e-06	3.3235e-06	540.85	137.03	1.257e-06	2.3178e-06	195.72	78.613	49.152	19.525	1.8054e-06	34.243	0.00020498	0.00015698	4.2781e-05	476.38	1.7187e-06	1.7216e-06	544.05	138.45	1.8774e-06	1.4107e-06	196.82	80.073	50.361	19.977	1.6533e-06	34.801	252.356	-14.409	-1.115	-86.911	60.408	51.008	-87.126	-80.883	50.962	46.576	-82.649	-77.287	-76.367	-70.628	60.002	-73.128	-8191	255	
1477.109	1	1	0	0	0.1453	0.16935	0.064457	0.042003	0.082608	0.14923	0.22312	0.20864	0.098059	0.25736	0.11686	0.10137	0.23846	0.11474	0.11476	0.071146	-2.6396	-2.8167	-2.6063	-3.0833	-2.8583	-2.7313	-3.0646	-2.7438	-2.9313	-3.2167	-2.7896	-3.0563	-2.7896	-2.7396	-3.2521	-2.8438	-92.705	-26.190	66.187	59.108	45.993	141.573	3.435	142.440	216.342	177.531	114.011	80.050	-31.885	205.279	61.782	188.038	0.00013141	0.00032787	9.5608e-05	474.04	2.2073e-06	3.0259e-06	546.13	137.09	1.8462e-06	1.7521e-06	194.48	78.333	48.846	19.5	2.4152e-06	33.9	0.00020418	0.00016316	5.0014e-05	476.8	1.9733e-06	1.7131e-06	546.42	138.35	1.8709e-06	1.5766e-06	196.1	79.777	50.135	19.88	1.6249e-06	34.515	248.333	-22.074	-6.711	-86.942	59.960	44.912	-87.042	-80.843	56.383	26.630	-82.577	-77.271	-76.012	-70.625	64.389	-73.145	-8191	255	
1477.205	1	1	0	0	0.18758	0.067862	0.20483	0.046584	0.20373	0.11297	0.3148	0.19722	0.26383	0.10034	0.1623	0.14624	0.25309	0.32023	0.17442	0.095302	-2.4833	-3.0438	-2.6667	-3.1208	-2.8937	-2.4729	-3.075	-2.6688	-2.7708	-2.9417	-2.5958	-2.9542	-3.0333	-2.5812	-3.0083	-2.875	74.944	-70.231	101.116	206.821	116.131	-35.298	199.608	161.410	155.756	-22.647	201.618	-36.629	-64.429	250.841	20.237	129.829	0.00011267	0.00024235	6.7929e-05	474.83	1.6584e-06	2.0926e-06	540.79	136.58	9.0973e-07	2.6828e-06	194.51	77.982	48.841	19.426	2.1182e-06	33.867	0.00021288	0.00013763	4.6881e-05	475.65	1.7262e-06	1.7415e-06	542.98	137.99	1.8788e-06	1.5472e-06	195.61	79.4	49.932	19.843	1.8234e-06	34.566	247.306	3.602	-3.526	-86.816	90.166	61.759	-87.067	-81.042	59.100	48.737	-82.588	-77.297	-75.781	-70.817	52.421	-73.236	-8191	255	
1477.301	1	1	0	0	0.11583	0.25291	0.053864	0.26059	0.12242	0.17174	0.097265	0.30855	0.24782	0.19306	0.11258	0.15559	0.03696	0.2849	0.14302	0.15497	-2.4167	-3.1458	-2.6312	-2.9625	-3.1333	-2.5042	-3.0354	-2.6625	-2.7208	-2.9813	-2.8063	-2.8979	-3.0396	-2.7562	-3.15	-2.9979	-35.990	10.110	195.576	-90.725	149.132	118.524	-63.707	249.503	252.843	45.367	132.635	189.858	141.109	205.126	-87.420	192.826	0.0001289	0.00023117	7.6321e-05	472.24	2.5878e-06	2.2753e-06	538.75	135.9	1.4234e-06	2.0603e-06	194.33	77.899	48.985	19.585	1.8791e-06	34.174	0.00020896	0.00013218	4.6513e-05	474.44	1.5828e-06	1.8523e-06	540.85	137.72	1.9228e-06	1.6296e-06	195.49	79.535	50.134	19.916	1.5649e-06	34.766	248.647	-16.043	-14.682	-86.787	69.408	49.908	-86.517	-81.037	46.827	55.492	-82.253	-77.375	-75.910	-70.468	73.107	-73.045	-8191	255	
1477.373	1	1	0	0	0.21587	0.074482	0.044767	0.16887	0.068459	0.14249	0.067052	0.019068	0.023423	0.1379	0.39763	0.013082	0.27026	0.010483	0.11796	0.23324	-2.3542	-3.0979	-2.6917	-2.9917	-2.9062	-2.7146	-2.9771	-2.8333	-2.6917	-3.0083	-2.5417	-2.8396	-2.9646	-2.6229	-2.8354	-2.9104	93.699	257.669	193.608	37.100	83.187	133.249	242.510	210.102	-11.747	39.510	-72.416	240.909	85.759	256.392	-20.843	256.427	0.00012605	0.0003765	6.3816e-05	472.66	2.3529e-06	2.2469e-06	539.07	135.9	1.3519e-06	2.3642e-06	193.89	78.26	49.347	19.606	2.3022e-06	34.357	0.0002095	0.00015007	4.5868e-05	473.75	1.8173e-06	1.7785e-06	542.11	137.73	1.8788e-06	1.4629e-06	195.96	79.95	50.314	20.017	1.8818e-06	34.926	250.088	-18.673	-10.123	-86.913	65.989	61.200	-87.172	-80.883	57.217	40.026	-82.721	-77.192	-75.802	-70.744	72.274	-73.052	-8191	255	
1477.493	1	1	0	0	0.092075	0.24952	0.23697	0.22709	0.12455	0.11456	0.12678	0.11114	0.18499	0.14624	0.091129	0.19838	0.21617	0.13254	0.094056	0.1804	-2.5187	-3.1958	-2.7896	-2.9437	-2.975	-2.5146	-2.9604	-2.8875	-2.8104	-3.2646	-2.8896	-3.0563	-3.0062	-2.6562	-3.0146	-3.0417	80.755	7.472	-46.041	188.776	46.744	101.182	-54.432	-26.901	134.059	-13.368	162.479	50.884	184.195	200.180	138.628	188.631	0.00012178	0.00029952	6.2449e-05	473.46	1.8056e-06	2.9356e-06	540.81	136.62	1.1369e-06	2.8774e-06	193.97	78.294	49.234	19.619	2.1555e-06	34.228	0.00021164	0.00015226	4.2113e-05	474.89	1.6792e-06	2.0247e-06	543.65	138.03	1.9797e-06	1.5946e-06	196.26	79.807	50.139	19.962	1.9742e-06	34.816	245.317	-16.306	-3.302	-87.236	60.852	61.725	-86.955	-81.158	63.339	52.723	-82.525	-77.193	-76.025	-70.637	49.588	-73.448	-8191	255	
1477.590	1	1	0	0	0.1409	0.11549	0.15053	0.16387	0.18524	0.16751	0.17851	0.09246	0.11661	0.054403	0.39247	0.25631	0.026766	0.17115	0.30669	0.066324	-2.1021	-3.2438	-2.8875	-2.75	-3.2021	-2.7208	-3.1792	-2.9708	-2.7271	-3.3333	-3.0458	-2.825	-3.0563	-2.8854	-2.9583	-3.1792	13.751	106.123	109.618	255.987	-40.704	133.008	227.063	149.920	208.357	110.734	215.438	-81.727	15.678	-55.566	-32.229	192.387	0.00012755	0.00033951	5.9924e-05	472.67	1.6457e-06	1.7272e-06	538.91	136.34	1.0407e-06	3.6021e-06	193.34	78.39	49.083	19.45	1.7445e-06	34.137	0.00021458	0.00015064	4.3564e-05	472.76	1.7083e-06	1.591e-06	541.65	137.78	1.9163e-06	1.6306e-06	195.06	79.443	50.035	19.938	1.9061e-06	34.636	247.433	-7.578	-12.706	-87.172	59.216	51.001	-86.976	-81.099	59.400	56.955	-82.632	-77.478	-75.640	-70.576	58.952	-73.258	-8191	255	
1477.686	1	1	0	0	0.16094	0.12715	0.08998	0.19638	0.08462	0.12135	0.10859	0.17847	0.20307	0.23186	0.086275	0.19618	0.20731	0.034082	0.024351	0.099375	-2.3187	-3.1708	-2.7354	-2.75	-3.1562	-2.7729	-3.0771	-3.1542	-2.6396	-3.1042	-3.0917	-2.6604	-3.2229	-2.8021	-2.8792	-3	61.763	191.432	-61.267	94.516	-83.272	187.041	-1.933	156.020	-49.207	239.383	256.612	248.786	247.189	161.445	206.016	171.512	0.00012058	0.00024164	6.7448e-05	470.81	1.9758e-06	3.1481e-06	536.05	136.61	1.364e-06	2.6786e-06	193.49	77.826	49.129	19.637	1.5319e-06	34.147	0.00021277	0.00014812	4.5683e-05	471.77	1.6314e-06	1.9347e-06	539.95	137.57	1.974e-06	1.461e-06	195.47	79.518	50.147	19.99	1.8405e-06	34.716	245.620	-11.357	5.962	-86.910	68.720	45.753	-87.045	-81.041	45.621	24.523	-82.519	-77.155	-75.650	-70.900	57.482	-73.131	-8191	255	
1477.782	1	1	0	0	0.12669	0.080243	0.19745	0.067722	0.1807	0.038063	0.1906	0.13754	0.074318	0.19934	0.10132	0.12106	0.19978	0.13261	0.23069	0.24197	-2.3542	-2.9521	-2.9917	-2.8021	-3.1813	-2.8771	-2.8	-3.1271	-2.5812	-2.9771	-2.875	-2.5833	-2.9083	-2.6188	-2.4604	-3.0729	156.165	98.069	-26.266	216.809	84.429	148.188	141.227	106.682	14.213	233.293	62.215	114.146	-77.944	4.129	176.187	225.929	0.00012334	0.00033226	7.2871e-05	468.86	2.1165e-06	2.7115e-06	537.68	134.92	9.6295e-07	3.0277e-06	193.52	77.959	48.767	19.388	1.9404e-06	34.204	0.00021407	0.00016234	3.9164e-05	470.43	1.7449e-06	1.6023e-06	539.54	136.86	1.9639e-06	1.6467e-06	195.08	79.425	49.964	19.853	1.808e-06	34.698	244.289	-22.586	0.286	-86.741	73.994	47.971	-87.379	-81.089	68.340	42.372	-82.566	-77.465	-75.685	-70.522	68.588	-73.313	-8191	255	
1477.901	1	1	0	0	0.29048	0.093386	0.010836	0.13814	0.25506	0.18837	0.062872	0.1824	0.27742	0.34378	0.26299	0.23065	0.22729	0.27301	0.074816	0.28139	-2.2438	-3.0438	-2.9792	-2.7042	-2.8104	-2.5417	-2.925	-3.0146	-2.5396	-2.6771	-3.0563	-2.4313	-2.9292	-2.8	-2.7604	-3.025	67.385	108.066	-93.847	-45.260	148.140	-96.847	253.665	-6.166	33.179	17.191	51.366	87.186	-8.706	-81.294	-82.844	-85.360	0.0001156	0.00022338	7.7421e-05	469.73	1.6499e-06	3.3776e-06	539.05	135.29	1.1595e-06	3.2371e-06	194.85	78.083	48.961	19.602	1.3773e-06	34.314	0.00021283	0.00015039	4.4509e-05	470.94	1.7411e-06	1.804e-06	541.55	137.18	1.9906e-06	1.9726e-06	196.16	79.735	50.154	20.008	2.1006e-06	34.902	248.209	9.765	-7.424	-86.775	57.330	47.188	-87.002	-80.844	68.739	40.618	-82.156	-77.482	-75.822	-70.445	71.480	-73.136	-8191	255	
1477.972	1	1	0	0	0.067097	0.043898	0.16693	0.15991	0.13089	0.28374	0.12836	0.27663	0.12651	0.23659	0.28265	0.26851	0.10069	0.0766	0.088705	0.13632	-2.1896	-2.6688	-2.8646	-2.6021	-2.8083	-2.8146	-2.7396	-3.2062	-2.75	-2.6833	-3.2604	-2.6729	-2.8875	-2.8792	-2.4729	-3.1625	29.547	59.041	116.755	57.592	123.879	39.120	212.956	120.698	127.666	30.619	186.823	139.789	-30.701	-7.440	40.325	-58.761	0.00011693	0.00024571	7.554e-05	470.74	1.93e-06	2.616e-06	537.42	135.82	1.3952e-06	2.6378e-06	194.02	77.478	49.079	19.472	1.9581e-06	33.928	0.00021179	0.00018137	4.7112e-05	472.77	1.821e-06	1.7264e-06	540.8	137.49	1.8305e-06	1.8399e-06	195.35	79.105	50.091	19.974	2.1695e-06	34.534	244.362	-15.979	-2.694	-86.750	47.104	62.518	-86.833	-80.764	55.299	46.234	-82.323	-77.692	-75.762	-70.650	78.743	-73.123	-8191	255	
1478.070	1	1	0	0	0.22293	0.31543	0.0662	0.19879	0.099911	0.13409	0.047437	0.27011	0.17261	0.0889	0.32186	0.22593	0.14884	0.18148	0.32945	0.3371	-2.2792	-2.6625	-2.8958	-2.7271	-2.8604	-3.1333	-2.8042	-3.1375	-2.9167	-2.7667	-3.1333	-2.8667	-2.9813	-2.8792	-2.4813	-2.8458	24.226	135.897	248.657	-70.846	209.576	85.441	-93.976	201.367	100.114	-78.703	163.210	249.925	129.330	-15.446	-71.907	111.915	0.00012552	0.00031242	9.828e-05	469.28	2.086e-06	2.8964e-06	537.12	135.64	1.4051e-06	3.6641e-06	192.38	77.193	49.051	19.582	1.6152e-06	34.152	0.0002193	0.00018641	4.566e-05	470.98	1.7478e-06	1.7538e-06	539.85	137.3	1.917e-06	1.8627e-06	194.85	79.081	50.067	19.944	1.9523e-06	34.665	249.736	-13.198	-20.208	-86.889	64.021	42.620	-86.995	-80.953	56.101	60.528	-82.813	-77.212	-75.940	-70.561	69.187	-73.105	-8191	255	
1478.189	1	1	0	0	0.23868	0.28918	0.17656	0.15195	0.058088	0.058146	0.15513	0.25267	0.15001	0.29534	0.13075	0.058972	0.18984	0.069815	0.085425	0.17271	-2.15	-2.4042	-3.0667	-2.575	-2.8625	-3.0229	-2.5875	-3.1875	-2.8604	-2.6458	-3.0938	-2.6667	-2.5917	-3.0042	-2.4667	-3.1104	-64.814	109.226	242.719	-32.754	87.410	87.025	-76.199	234.017	-7.154	-78.534	208.026	209.864	190.988	-77.396	20.739	231.586	0.00011921	0.0003186	8.117e-05	472.24	1.9761e-06	3.1177e-06	537.29	136.97	1.1688e-06	2.1969e-06	194.79	77.772	49.07	19.673	1.0759e-06	34.25	0.00020941	0.0001747	4.1421e-05	472.43	1.8315e-06	1.6232e-06	541.26	137.75	1.8024e-06	1.7964e-06	195.84	79.401	50.146	20.086	2.0949e-06	34.791	248.610	-24.152	-13.830	-86.891	53.858	55.955	-86.811	-80.715	36.941	41.853	-82.319	-77.439	-75.643	-70.681	66.131	-72.823	-8191	255	
1478.285	1	1	0	0	0.062688	0.1095	0.07483	0.28875	0.055296	0.33706	0.069028	0.39459	0.11438	0.074973	0.030537	0.15914	0.33195	0.15805	0.16677	0.16623	-2.4167	-2.525	-2.9437	-2.725	-3.0625	-3.0604	-2.6875	-3.0854	-3.0333	-2.6521	-3.4062	-2.7896	-2.7667	-2.9396	-2.4875	-2.9646	35.383	83.454	190.496	199.918	91.931	40.797	134.881	232.750	199.100	121.122	-17.705	125.231	190.265	-47.490	139.161	174.437	0.00012572	0.00031339	7.7529e-05	472.3	1.8109e-06	3.1743e-06	540.65	136.66	1.3587e-06	2.9486e-06	194.61	78.077	49.208	19.625	1.7605e-06	34.038	0.00021182	0.00018543	4.4278e-05	473.29	1.9741e-06	1.7339e-06	543.17	138.22	1.8911e-06	1.8542e-06	196.89	79.56	50.148	20.005	2.0358e-06	34.714	246.917	-15.335	-11.651	-86.962	78.621	65.583	-86.987	-80.592	35.699	56.991	-82.601	-77.446	-75.922	-70.436	53.816	-72.991	-8191	255	
1478.382	1	1	0	0	0.20446	0.1426	0.10091	0.058762	0.096837	0.24965	0.30023	0.11673	0.19482	0.11657	0.10112	0.18654	0.408	0.083703	0.30898	0.20854	-2.4125	-2.4917	-2.9417	-2.7313	-2.6333	-2.9875	-2.5458	-2.6604	-2.8417	-2.7625	-3.0896	-2.7958	-2.7313	-2.95	-2.7875	-2.9646	122.890	147.205	190.058	213.974	-37.276	142.467	133.495	218.230	206.809	151.013	158.379	-14.158	-53.922	155.869	44.283	-57.565	0.00012159	0.0002956	6.4477e-05	472.51	2.6394e-06	2.8547e-06	540.62	137.37	1.5724e-06	2.5704e-06	193.91	77.44	49.046	19.638	1.6483e-06	34.021	0.00020739	0.00018917	4.3979e-05	474.48	1.8957e-06	1.7889e-06	544.82	138.9	1.8226e-06	1.7935e-06	195.92	79.034	50.125	19.963	1.9823e-06	34.606	244.293	-10.450	10.037	-86.877	47.162	48.335	-87.130	-81.178	37.365	72.456	-82.296	-77.292	-75.964	-70.566	58.464	-73.076	-8191	255	
1478.478	1	1	0	0	0.27858	0.15684	0.092573	0.10652	0.23939	0.15221	0.077968	0.088218	0.18739	0.079999	0.37364	0.17021	0.083441	0.10313	0.094296	0.42414	-2.3833	-2.5354	-2.85	-2.9917	-2.7542	-3.1208	-2.9667	-2.7271	-2.8937	-2.7729	-3.0958	-2.9729	-2.7729	-3.3	-2.7146	-2.7625	212.619	153.396	148.106	229.706	163.727	-88.693	27.736	250.107	229.253	59.976	193.496	-92.831	153.932	175.024	105.073	254.100	0.00012275	0.00029243	7.3544e-05	475.14	1.6235e-06	2.8759e-06	541.83	137.14	1.0866e-06	2.5063e-06	194.84	77.497	49.189	19.572	2.2182e-06	33.897	0.00020807	0.00017747	4.3564e-05	474.48	1.8591e-06	1.7321e-06	542.62	138.66	1.7577e-06	1.8115e-06	195.86	78.839	50.137	19.895	1.9588e-06	34.509	247.296	-12.110	-10.332	-86.869	57.123	53.273	-86.992	-81.086	74.222	60.754	-82.353	-77.279	-75.904	-70.631	63.190	-73.216	-8191	255	
1478.598	1	1	0	0	0.10137	0.20451	0.17503	0.13153	0.1092	0.10785	0.13971	0.17714	0.14482	0.15179	0.16788	0.06873	0.1057	0.22524	0.17785	0.098005	-2.4521	-2.6396	-3.0458	-3.2521	-2.7938	-3.0438	-2.7625	-2.5771	-3.0208	-2.6	-3.0312	-3.0896	-2.9271	-3.0687	-2.9521	-2.9625	140.730	-26.971	1.464	109.634	-79.609	-58.416	-88.116	71.758	199.005	-48.678	168.494	31.686	148.116	105.429	225.231	143.172	0.0001285	0.00030273	9.9253e-05	472.19	2.1257e-06	2.2068e-06	539.93	136.89	1.7822e-06	2.722e-06	194.82	77.938	49.153	19.601	1.8329e-06	34.287	0.00020225	0.0001686	4.4301e-05	474.77	1.9599e-06	1.6563e-06	543.3	138.8	1.8392e-06	1.9489e-06	196.55	79.458	50.419	20.12	1.7975e-06	34.78	246.322	-9.374	-2.280	-87.110	52.703	58.249	-87.034	-80.972	52.053	50.901	-82.075	-77.336	-75.905	-70.614	62.485	-73.210	-8191	255	
1478.670	1	1	0	0	0.15048	0.20062	0.16512	0.19605	0.2328	0.12642	0.051653	0.30814	0.26709	0.10128	0.27035	0.14237	0.18528	0.028893	0.36126	0.26025	-2.5812	-2.5563	-2.8396	-3.0938	-2.6167	-2.9833	-3.0187	-2.8771	-3.2771	-2.8271	-2.9313	-3.1	-2.6813	-3.0396	-2.7979	-2.6375	-36.538	86.731	-97.770	-6.616	-3.713	-83.831	256.163	-89.682	174.721	55.515	154.135	125.077	-11.683	5.249	-18.747	222.976	0.00013121	0.00028324	6.4929e-05	474.19	2.3151e-06	2.556e-06	544.96	136.96	1.2888e-06	2.9768e-06	195.35	77.952	49.236	19.629	2.1331e-06	34.051	0.00020332	0.00018015	4.6006e-05	475.89	1.8143e-06	1.6696e-06	545.47	138.7	1.7332e-06	1.7651e-06	196.77	79.565	50.343	20.054	1.8024e-06	34.771	245.489	-11.269	-16.504	-86.554	59.573	50.554	-87.191	-81.148	39.459	39.245	-82.414	-77.510	-76.063	-70.506	50.110	-72.976	-8191	255	
1478.766	1	1	0	0	0.15938	0.14628	0.18833	0.26093	0.10101	0.46974	0.15563	0.24933	0.17082	0.20694	0.2037	0.12767	0.096289	0.21124	0.17361	0.28706	-2.4979	-2.5354	-2.7021	-3.0917	-2.675	-3.0646	-3.0229	-2.6583	-3.075	-2.4833	-2.7708	-2.9271	-2.5875	-3.0958	-3.1542	-2.7604	137.208	125.047	144.280	243.367	59.557	23.460	-64.318	-27.238	158.703	-78.463	186.179	214.399	33.708	34.811	159.350	78.215	0.00012441	0.00019475	9.5947e-05	475.33	2.5192e-06	2.5167e-06	541.07	136.57	9.517e-07	3.0369e-06	194.22	76.955	48.982	19.486	1.705e-06	33.587	0.00021054	0.00016755	4.4255e-05	476.51	2.104e-06	1.6061e-06	544.07	138.51	1.7389e-06	1.766e-06	195.59	78.741	50.082	19.883	1.7319e-06	34.239	243.849	-17.464	-5.778	-86.969	50.199	46.533	-86.946	-81.031	41.843	48.907	-82.687	-77.164	-75.903	-70.530	57.670	-73.248	-8191	255	
1478.885	1	1	0	0	0.21257	0.13188	0.053877	0.075844	0.19704	0.16281	0.08991	0.10433	0.194	0.094595	0.25318	0.08873	0.23498	0.029898	0.12515	0.11756	-2.7625	-3.0354	-2.8417	-3.1854	-2.7333	-2.9271	-3.05	-2.5229	-3.0333	-2.7521	-2.5167	-3.1188	-2.4958	-2.9125	-2.7812	-2.4708	64.487	186.299	143.406	-22.337	51.921	114.536	229.410	68.752	238.608	192.278	250.351	222.040	237.731	202.722	-52.708	-91.625	0.00012516	0.00029543	7.2769e-05	473.44	1.8347e-06	2.6057e-06	537.36	135.25	1.2821e-06	3.2501e-06	192.16	76.165	48.74	19.323	2.2169e-06	33.511	0.00020477	0.00015657	4.3956e-05	473.55	1.8345e-06	1.7131e-06	540.75	137.38	1.8413e-06	1.7897e-06	193.9	77.815	49.587	19.645	1.774e-06	34.026	246.608	-18.871	-3.593	-86.794	63.152	59.471	-86.994	-81.146	51.904	46.690	-82.538	-77.415	-75.782	-70.607	70.303	-73.450	-8191	255	
1478.981	1	1	0	0	0.052033	0.15021	0.16633	0.098207	0.18745	0.098243	0.13165	0.21065	0.18472	0.12987	0.16928	0.28517	0.01538	0.15221	0.2016	0.19171	-2.5708	-2.775	-2.8292	-3.1833	-2.6229	-2.8917	-3.1813	-2.7562	-3.1771	-3.0354	-2.7771	-3.1479	-2.725	-3.0062	-3.225	-2.7229	143.521	254.397	27.094	190.841	-43.813	40.993	-96.938	217.465	138.334	-70.978	64.546	176.901	139.337	47.327	-0.141	130.726	0.00012224	0.00026973	6.718e-05	470.8	1.9834e-06	2.3988e-06	536.83	135.42	1.1849e-06	3.3741e-06	192.56	76.317	48.653	19.16	2.0711e-06	33.693	0.00019815	0.0001521	4.573e-05	472.29	1.83e-06	1.7728e-06	540.23	137.37	1.7721e-06	1.7035e-06	194.06	78.077	49.535	19.643	1.7789e-06	34.195	247.819	-16.345	-16.047	-86.864	47.639	61.511	-87.049	-80.947	61.571	58.431	-82.349	-77.349	-75.923	-71.004	78.654	-73.211	-8191	255	
1479.077	1	1	0	0	0.085355	0.34809	0.055354	0.076473	0.21066	0.21474	0.18517	0.30383	0.051548	0.20752	0.24814	0.11792	0.11674	0.19273	0.16196	0.25101	-2.8208	-2.8792	-2.6063	-3.1021	-3.0104	-2.7687	-3.2458	-2.7333	-2.9125	-3.0271	-2.8021	-2.9896	-2.7854	-2.8271	-3.225	-2.6646	-6.924	11.337	-49.230	207.458	60.829	78.247	180.373	-97.676	158.843	79.860	132.319	218.279	-7.073	220.319	112.691	144.519	0.00012129	0.00027503	8.5796e-05	471.32	1.5438e-06	2.7863e-06	539.13	136.34	1.2368e-06	3.173e-06	194.54	77.625	49.011	19.556	1.7459e-06	34.183	0.00020896	0.00016096	4.907e-05	472.52	1.7426e-06	1.6923e-06	542.66	138.24	2.0273e-06	1.6959e-06	195.92	79.154	50.099	20.011	1.5276e-06	34.825	248.822	-20.945	2.097	-86.889	56.066	42.853	-87.230	-81.054	60.149	48.850	-82.407	-77.241	-75.761	-70.492	71.210	-73.222	-8191	255	
1479.173	1	1	0	0	0.2282	0.14607	0.12493	0.34144	0.049319	0.090948	0.059961	0.14277	0.24188	0.17777	0.21538	0.20126	0.09275	0.20621	0.19238	0.15979	-2.5417	-2.9083	-2.4771	-2.9708	-2.8438	-2.7687	-3.1125	-2.6667	-2.9583	-2.9313	-2.4917	-3.2146	-2.9396	-2.6479	-3.0938	-2.9521	-17.047	-48.266	-87.150	43.049	16.218	33.042	90.710	28.718	-0.398	-46.713	181.909	241.689	134.214	243.606	207.430	153.102	0.00011056	0.00018774	7.9686e-05	474.76	2.1239e-06	2.8938e-06	544.75	138.34	1.717e-06	3.3488e-06	196.24	78.536	49.97	20.12	2.0869e-06	34.821	0.00021446	0.00014031	4.7895e-05	475.69	1.8464e-06	1.9887e-06	547.17	139.93	1.9048e-06	1.6372e-06	198.02	80.302	50.963	20.544	1.7789e-06	35.511	250.055	0.841	-2.700	-86.880	72.208	43.373	-86.902	-80.945	56.774	46.109	-82.588	-77.436	-75.798	-70.643	69.278	-73.584	-8191	255	
1479.270	1	1	0	0	0.32336	0.12698	0.043167	0.17764	0.04621	0.28107	0.26876	0.13998	0.085449	0.090811	0.077828	0.23763	0.12239	0.19112	0.1729	0.2101	-2.3375	-3.175	-2.7083	-3.0479	-2.8667	-2.7771	-3.1792	-3.0312	-3.1833	-3.2646	-2.9	-3.1396	-3.1167	-2.7354	-2.9896	-2.8208	5.052	232.107	-12.551	131.596	-10.765	163.539	231.683	253.537	136.924	43.052	51.360	229.123	19.780	235.840	51.678	230.877	0.00013496	0.00034619	9.1072e-05	478.62	2.2745e-06	3.2666e-06	542.88	138.61	1.2568e-06	2.7589e-06	193.99	78.655	50.045	19.903	1.8891e-06	34.19	0.00021722	0.00016673	4.8632e-05	479.13	1.7702e-06	1.859e-06	544.27	140.09	1.7779e-06	1.5131e-06	196.32	80.058	51.044	20.339	1.7918e-06	34.831	246.556	6.526	11.563	-86.732	66.015	44.496	-87.379	-81.042	45.621	40.617	-82.506	-77.301	-76.142	-70.635	54.451	-73.228	-8191	255	
1479.366	1	1	0	0	0.13845	0.26355	0.22766	0.0846	0.18776	0.1793	0.23757	0.19551	0.059715	0.18707	0.10042	0.22598	0.22167	0.16166	0.26925	0.088174	-2.3042	-2.9792	-2.575	-2.975	-3.0479	-2.6958	-3.2854	-2.9042	-2.8354	-3.075	-2.8812	-3	-3.2125	-2.7062	-3.1021	-3.1146	-49.600	-2.376	155.058	2.328	-61.355	-30.380	80.960	125.694	9.492	100.357	225.936	178.163	182.462	86.999	56.783	14.036	0.00012196	0.00025542	5.9994e-05	477.68	2.2614e-06	2.8969e-06	541.06	137.53	8.0525e-07	3.2472e-06	193.6	77.9	49.735	19.749	2.0167e-06	34.18	0.00021143	0.00016259	4.8586e-05	478.06	1.7493e-06	1.841e-06	543.1	139.1	1.9711e-06	1.6021e-06	195.76	79.781	50.909	20.21	1.9247e-06	34.739	246.015	-13.143	-14.592	-86.907	67.365	51.838	-86.571	-80.878	32.553	49.056	-82.665	-77.205	-75.689	-70.595	72.557	-73.372	-8191	255	
1479.462	1	1	0	0	0.24608	0.12748	0.17844	0.17727	0.1753	0.078577	0.092723	0.24931	0.17176	0.095962	0.034095	0.14548	0.049519	0.20876	0.18048	0.28829	-2.1854	-3.2771	-2.8375	-3.0021	-3.1	-2.7396	-3.1792	-3.0104	-2.5938	-3.0958	-2.9229	-2.825	-3.1	-2.8104	-2.9604	-3.2229	77.951	164.536	-41.094	257.580	10.288	124.376	-12.570	198.060	125.512	-20.497	153.367	-57.644	209.128	203.330	8.696	176.086	0.00012863	0.00023196	8.9748e-05	477.81	1.7831e-06	2.491e-06	540.42	137.02	1.6577e-06	3.1504e-06	194.63	78.343	49.549	19.618	2.0508e-06	33.904	0.0002133	0.00016129	5.1212e-05	478.47	1.7172e-06	1.9432e-06	544.49	138.87	1.9711e-06	1.6988e-06	196.43	79.69	50.72	20.091	1.8056e-06	34.502	250.683	-15.944	-17.628	-86.907	62.884	42.324	-87.007	-81.347	56.338	54.025	-82.298	-77.293	-76.123	-70.898	75.896	-73.262	-8191	255	
1479.558	1	1	0	0	0.32836	0.053026	0.27367	0.17108	0.074945	0.18031	0.070657	0.054902	0.2366	0.06459	0.051654	0.16661	0.08441	0.1308	0.21428	0.13764	-2.4104	-3.1729	-2.9	-2.9896	-3.2271	-2.7583	-3.0479	-2.8792	-2.4646	-2.9083	-2.7958	-2.8229	-3.1917	-2.7271	-2.9729	-3.0542	48.511	257.997	10.234	-9.147	5.380	229.742	22.993	-27.861	-2.993	27.796	89.002	19.449	216.115	114.795	67.977	189.817	0.00013311	0.00030158	8.0887e-05	480.1	2.0676e-06	3.224e-06	544.45	137.06	8.5975e-07	2.753e-06	194.27	77.436	49.263	19.357	1.9635e-06	33.455	0.00021452	0.00016121	4.3149e-05	478.57	1.7232e-06	1.8987e-06	545.84	138.2	2.1189e-06	1.7641e-06	195.49	79.061	50.357	19.768	1.8397e-06	33.98	249.404	-14.022	2.747	-86.778	71.271	40.097	-87.258	-80.894	60.041	40.811	-82.291	-77.355	-75.850	-70.419	80.161	-73.132	-8191	255	
1479.679	1	1	0	0	0.30288	0.082694	0.12851	0.064756	0.04922	0.18923	0.27487	0.43421	0.20428	0.043137	0.27381	0.33056	0.24083	0.10335	0.13637	0.15988	-2.1521	-2.9708	-2.8542	-2.8875	-3.2521	-2.7188	-2.9854	-3.1688	-2.75	-3.0104	-2.9729	-2.8708	-3.1771	-2.8479	-2.9042	-3.1479	55.599	79.593	-39.508	-29.874	24.728	-60.442	245.272	215.144	-27.731	63.655	256.924	257.309	170.692	152.825	34.109	234.579	0.00013021	0.00024609	9.1741e-05	477.36	2.2726e-06	2.4709e-06	539.11	135.46	1.0246e-06	2.6654e-06	192.19	76.88	49.152	19.246	1.5487e-06	33.228	0.00021066	0.00014584	4.8471e-05	477.56	1.6411e-06	1.6345e-06	541.79	137.25	1.8413e-06	1.8333e-06	193.71	78.598	50.345	19.739	2.1014e-06	33.817	244.182	-15.697	-12.284	-86.820	67.055	49.498	-87.083	-81.107	64.374	56.462	-82.655	-77.345	-75.894	-70.770	51.008	-73.155	-8191	255	
1479.775	1	1	0	0	0.16599	0.21042	0.26279	0.33414	0.181	0.1862	0.17748	0.16014	0.22545	0.20512	0.25358	0.057981	0.26428	0.12359	0.078126	0.092896	-2.1208	-3.0792	-3.0021	-2.6542	-3.0271	-2.7375	-2.9229	-3.0979	-2.7208	-3.1208	-3.0187	-2.8292	-3.2146	-3.0062	-2.9708	-3.1167	12.477	233.804	166.802	228.453	46.935	52.614	242.025	127.700	246.242	-87.670	186.600	120.093	182.205	9.964	126.635	180.519	0.00012333	0.00026266	0.00010179	474.6	2.0438e-06	2.9819e-06	538.47	135.88	1.5102e-06	2.4593e-06	191.66	76.911	49.143	19.299	1.5395e-06	32.905	0.00020813	0.0001747	4.5591e-05	475.88	1.6493e-06	1.7103e-06	539.73	137.01	2.0727e-06	1.5898e-06	193.12	78.289	50.142	19.678	1.8737e-06	33.592	247.859	-25.469	-13.655	-86.881	65.208	33.073	-86.914	-81.140	64.716	69.141	-82.586	-77.448	-75.774	-70.772	56.165	-73.310	-8191	255	
1479.871	1	1	0	0	0.15356	0.19933	0.26836	0.082031	0.064014	0.24448	0.20693	0.083075	0.23788	0.14678	0.21145	0.374	0.25774	0.24205	0.1702	0.18004	-2.2667	-2.7438	-2.8438	-2.4625	-3.05	-2.7562	-2.7208	-3.0438	-2.6813	-2.7833	-2.9396	-2.6625	-3.0812	-3.0062	-2.6188	-3.1458	214.666	-85.621	121.672	-62.824	148.128	-47.837	258.051	26.506	-44.608	193.157	161.203	-51.626	-26.079	37.252	98.002	46.647	0.00011439	0.00026241	8.461e-05	475.93	1.6714e-06	2.6181e-06	536.59	134.83	1.1573e-06	2.6656e-06	192.36	77.042	48.86	19.374	2.1774e-06	33.248	0.00020736	0.00016795	4.9001e-05	476.35	1.7986e-06	1.9262e-06	539.69	136.91	2.0655e-06	1.8485e-06	193.85	78.623	50.087	19.718	2.0471e-06	33.779	245.958	-18.186	3.365	-86.769	64.720	69.460	-86.998	-80.764	45.661	68.342	-82.382	-77.359	-75.851	-70.588	52.441	-73.114	-8191	255	
1479.965	1	1	0	0	0.059704	0.12171	0.21655	0.065987	0.22205	0.10276	0.037416	0.15305	0.034947	0.18706	0.048107	0.082663	0.077939	0.28006	0.16468	0.079075	-2.5312	-2.8375	-2.9583	-2.6	-3.05	-3.1104	-2.7208	-3.1437	-2.5833	-2.7687	-2.7792	-2.7208	-2.9375	-2.9417	-2.6	-2.9813	-51.993	-11.532	53.141	67.797	245.274	98.040	119.259	95.202	148.543	207.804	-95.343	239.246	179.371	-68.436	52.819	144.823	0.00012361	0.00022407	6.1759e-05	473.9	1.9406e-06	3.6142e-06	538.21	135.27	1.3214e-06	2.6376e-06	193.17	77.116	49.204	19.404	1.9853e-06	33.361	0.00020584	0.00015389	4.5061e-05	474.89	1.7911e-06	2.1194e-06	542.38	137.14	2.0115e-06	1.9233e-06	194.23	78.828	50.17	19.724	1.9726e-06	33.871	246.737	-22.169	-3.823	-86.822	72.182	53.548	-87.267	-81.033	82.949	45.662	-82.420	-77.373	-75.758	-70.587	83.176	-73.166	-8191	255	
1480.062	1	1	0	0	0.26919	0.23289	0.24845	0.042945	0.26864	0.054321	0.10964	0.34879	0.25107	0.095441	0.05929	0.21724	0.17867	0.19213	0.032105	0.15765	-2.4125	-2.8354	-3.1458	-2.7833	-3.0792	-3.2438	-2.8375	-3.0667	-3.0417	-2.8229	-3.2812	-2.6125	-2.7687	-2.8979	-2.6	-3.1479	101.636	98.781	81.235	225.436	-91.072	-38.334	175.626	129.336	242.682	-62.612	149.559	-91.837	187.015	-17.369	188.696	138.796	0.00011699	0.00031119	8.4881e-05	475.62	2.3233e-06	2.7313e-06	535.37	135.5	1.2668e-06	2.5285e-06	192.07	76.877	49.059	19.314	2.0583e-06	33.125	0.00020908	0.00018088	4.4808e-05	475.2	1.7463e-06	1.8438e-06	539.68	136.79	1.894e-06	1.9176e-06	193.43	78.448	50.203	19.729	1.9839e-06	33.605	248.346	-16.782	-4.510	-86.858	36.895	46.723	-86.674	-80.598	47.900	61.561	-82.674	-77.175	-76.201	-70.411	59.052	-73.171	-8191	255	
1480.158	1	1	0	0	0.10551	0.20635	0.25598	0.11721	0.043439	0.17693	0.1711	0.27568	0.17521	0.18069	0.21634	0.10681	0.016949	0.11757	0.042968	0.05866	-2.4708	-2.7292	-3.1917	-2.7792	-2.8563	-3.0208	-2.7396	-3.0292	-2.9646	-2.7313	-3.1854	-2.8083	-2.8812	-3.0354	-2.5625	-3.1917	216.874	92.858	26.842	-35.502	-67.932	156.173	162.690	-84.540	-8.569	-22.185	233.462	-12.010	135.811	182.376	-67.987	172.452	0.00012218	0.00023571	9.1793e-05	468.72	2.0366e-06	3.2148e-06	532.12	134.7	1.458e-06	2.7038e-06	191.41	76.863	48.659	19.246	1.2436e-06	33.179	0.00021182	0.00018763	4.778e-05	470.8	1.7113e-06	1.5966e-06	535.96	136.27	1.9004e-06	1.8807e-06	192.79	78.347	49.849	19.678	2.056e-06	33.754	248.158	-13.672	-19.265	-86.963	53.031	50.993	-87.288	-80.774	57.671	53.762	-82.495	-77.356	-75.760	-70.690	77.718	-72.964	-8191	255	
1480.278	1	1	0	0	0.034241	0.18573	0.09194	0.09823	0.27244	0.12723	0.19915	0.077134	0.2528	0.083994	0.22752	0.22309	0.14217	0.12382	0.12474	0.22179	-2.5708	-2.5854	-3.1792	-2.6396	-2.85	-3.1021	-2.5896	-2.8688	-2.7938	-2.4625	-3.0896	-2.8792	-2.8937	-3.2208	-2.6854	-3.1063	-57.590	125.415	168.453	-39.453	241.952	11.819	242.418	-0.877	-32.723	-2.823	169.934	-49.640	-56.885	234.169	156.162	84.851	0.00012437	0.00032921	7.9148e-05	470.15	2.1225e-06	2.7134e-06	535.31	135.28	1.1796e-06	2.1134e-06	192.43	77.175	49.026	19.479	1.0459e-06	33.605	0.00020584	0.00017535	4.2435e-05	470.7	1.9935e-06	1.7264e-06	537.46	136.74	2.103e-06	1.8115e-06	194.06	78.855	50.134	19.909	2.0009e-06	34.15	248.695	-14.764	-6.181	-86.595	63.235	58.483	-87.030	-81.106	65.476	29.864	-82.349	-77.654	-75.626	-70.401	63.132	-73.154	-8191	255	
1480.374	1	1	0	0	0.20482	0.13017	0.026023	0.041375	0.2095	0.14784	0.079058	0.034352	0.055995	0.24741	0.31231	0.043029	0.18334	0.29641	0.18396	0.17751	-2.6417	-2.6042	-3.1375	-2.8833	-2.675	-2.9625	-2.6104	-3.0667	-2.8896	-2.4542	-3.0438	-2.8146	-2.6	-3.2042	-2.7729	-2.8833	190.015	208.485	-83.853	2.806	111.673	-25.688	12.333	-84.713	-91.431	19.776	235.770	45.663	237.140	126.924	260.708	241.151	0.00012193	0.00024646	7.9313e-05	471.88	2.12e-06	2.3667e-06	537.49	135.92	8.0301e-07	2.8075e-06	193.5	77.853	49.083	19.314	1.8386e-06	33.651	0.00020356	0.0001886	4.3702e-05	471.76	1.8964e-06	1.5606e-06	540.48	137.27	1.8687e-06	1.8437e-06	194.71	79.081	50.151	19.817	1.9547e-06	34.149	246.747	-4.171	2.759	-86.915	88.022	55.296	-87.045	-80.951	81.404	58.124	-82.328	-77.211	-75.765	-70.357	58.805	-72.997	-8191	255	
1480.471	1	1	0	0	0.17032	0.076504	0.18977	0.15737	0.28541	0.14551	0.16053	0.20249	0.041988	0.18003	0.17445	0.074532	0.35883	0.14547	0.27748	0.25589	-2.6271	-2.4479	-2.95	-2.9542	-2.575	-3.0896	-2.8104	-2.85	-3.3083	-2.7625	-3.1354	-2.9292	-2.9313	-3.1708	-2.7917	-2.9917	102.563	150.100	81.600	-47.994	-8.968	243.219	253.645	234.349	245.897	-3.762	26.711	228.229	21.744	42.911	-25.862	206.661	0.00011778	0.00028709	8.5118e-05	469.49	2.0177e-06	2.2462e-06	535.19	136.13	1.4895e-06	2.3036e-06	191.01	77.54	49.116	19.492	1.3953e-06	33.302	0.00020822	0.0001847	4.5338e-05	470.6	1.986e-06	1.6364e-06	538.27	137.35	1.9156e-06	2.0332e-06	194.14	78.811	50.206	19.872	1.817e-06	33.943	247.464	-22.288	-10.701	-86.741	75.733	57.314	-87.124	-80.907	53.517	50.196	-82.616	-77.582	-75.600	-70.562	68.653	-73.199	-8191	255	
1480.567	1	1	0	0	0.12505	0.027407	0.24233	0.10179	0.10743	0.22996	0.091696	0.10935	0.18538	0.061138	0.098862	0.032684	0.18338	0.14316	0.15527	0.38195	-2.7313	-2.5104	-2.85	-2.8563	-2.5062	-2.9604	-2.5646	-2.6437	-2.9792	-2.6813	-2.875	-3.0187	-2.65	-3.1646	-2.8792	-2.6562	62.076	20.422	201.447	88.059	120.833	244.314	135.694	122.439	-97.132	84.085	67.968	123.108	128.493	122.400	-76.956	168.203	0.00012049	0.0001668	7.1097e-05	470.45	1.3562e-06	2.4151e-06	534.28	135.52	1.4584e-06	3.9364e-06	192.57	77.389	49.094	19.527	2.5035e-06	33.554	0.0002043	0.00016519	4.573e-05	469.34	2.0039e-06	1.8571e-06	538.07	137.2	1.8781e-06	2.0465e-06	194.11	78.925	50.296	19.932	1.9434e-06	34.101	246.272	-21.146	6.140	-87.089	69.285	46.959	-87.025	-80.966	57.429	48.357	-82.583	-77.269	-76.128	-70.579	47.978	-73.090	-8191	255	
#DATA ENDS
