BOXY.EXE: ISS Imagent and Oximeter Data Acquisition Program Version 0.80
Ascii Record File

#ACQ INFORMATION
2  Detector Channels 
16  External MUX Channels 
1  Auxiliary Channels 
5000  Waveform (CCF) Frequency (Hz)
1  Waveforms Skipped 
30  Waveforms Averaged 
1  Cycles Averaged 
16  Acquisitions per Waveform 
10.0806  Updata Rate (Hz) 

#FILE INFORMATION
TRUE -- External MUX Channel results are PARSED.
FALSE -- AC DC and Phase are NOT grouped.
TRUE -- Companion Program Settings File CREATED.
FALSE -- AC data not excluded
FALSE -- DC data not excluded
FALSE -- Phase data not excluded
FALSE -- Auxillary Chn. data not excluded
Tab delimiters

#CALIBRATION STATE
TRUE -- Waveform Calibration Values APPLIED.


#AUX CALIBRATION VALUES
Val Type	aux-1	

Term	1.0000e+00	
Factor	0.0000e+00	


#WF CALIBRATION VALUES
A = Detector Channel
Val Type	A-AC1	A-AC2	A-AC3	A-AC4	A-AC5	A-AC6	A-AC7	A-AC8	A-AC9	A-AC10	A-AC11	A-AC12	A-AC13	A-AC14	A-AC15	A-AC16	A-DC1	A-DC2	A-DC3	A-DC4	A-DC5	A-DC6	A-DC7	A-DC8	A-DC9	A-DC10	A-DC11	A-DC12	A-DC13	A-DC14	A-DC15	A-DC16	A-Ph1	A-Ph2	A-Ph3	A-Ph4	A-Ph5	A-Ph6	A-Ph7	A-Ph8	A-Ph9	A-Ph10	A-Ph11	A-Ph12	A-Ph13	A-Ph14	A-Ph15	A-Ph16	

Term	0.00000e+00	0.00000e+00	0.00000e+00	0.00000e+00	0.00000e+00	0.00000e+00	0.00000e+00	0.00000e+00	0.00000e+00	0.00000e+00	0.00000e+00	0.00000e+00	0.00000e+00	0.00000e+00	0.00000e+00	0.00000e+00	0.00000e+00	0.00000e+00	0.00000e+00	0.00000e+00	0.00000e+00	0.00000e+00	0.00000e+00	0.00000e+00	0.00000e+00	0.00000e+00	0.00000e+00	0.00000e+00	0.00000e+00	0.00000e+00	0.00000e+00	0.00000e+00	0.00000e+00	0.00000e+00	0.00000e+00	0.00000e+00	0.00000e+00	0.00000e+00	0.00000e+00	0.00000e+00	0.00000e+00	0.00000e+00	0.00000e+00	0.00000e+00	0.00000e+00	0.00000e+00	0.00000e+00	0.00000e+00	
Factor	1.00000e+00	1.00000e+00	1.00000e+00	1.00000e+00	1.00000e+00	1.00000e+00	1.00000e+00	1.00000e+00	1.00000e+00	1.00000e+00	1.00000e+00	1.00000e+00	1.00000e+00	1.00000e+00	1.00000e+00	1.00000e+00	1.00000e+00	1.00000e+00	1.00000e+00	1.00000e+00	1.00000e+00	1.00000e+00	1.00000e+00	1.00000e+00	1.00000e+00	1.00000e+00	1.00000e+00	1.00000e+00	1.00000e+00	1.00000e+00	1.00000e+00	1.00000e+00	X	X	X	X	X	X	X	X	X	X	X	X	X	X	X	X	

B = Detector Channel
Val Type	B-AC1	B-AC2	B-AC3	B-AC4	B-AC5	B-AC6	B-AC7	B-AC8	B-AC9	B-AC10	B-AC11	B-AC12	B-AC13	B-AC14	B-AC15	B-AC16	B-DC1	B-DC2	B-DC3	B-DC4	B-DC5	B-DC6	B-DC7	B-DC8	B-DC9	B-DC10	B-DC11	B-DC12	B-DC13	B-DC14	B-DC15	B-DC16	B-Ph1	B-Ph2	B-Ph3	B-Ph4	B-Ph5	B-Ph6	B-Ph7	B-Ph8	B-Ph9	B-Ph10	B-Ph11	B-Ph12	B-Ph13	B-Ph14	B-Ph15	B-Ph16	

Term	0.00000e+00	0.00000e+00	0.00000e+00	0.00000e+00	0.00000e+00	0.00000e+00	0.00000e+00	0.00000e+00	0.00000e+00	0.00000e+00	0.00000e+00	0.00000e+00	0.00000e+00	0.00000e+00	0.00000e+00	0.00000e+00	0.00000e+00	0.00000e+00	0.00000e+00	0.00000e+00	0.00000e+00	0.00000e+00	0.00000e+00	0.00000e+00	0.00000e+00	0.00000e+00	0.00000e+00	0.00000e+00	0.00000e+00	0.00000e+00	0.00000e+00	0.00000e+00	-7.31199e+01	-1.32799e+02	-1.26468e+02	-1.82714e+02	-5.26673e+01	-6.72776e+01	-1.58600e+02	-1.62015e+02	-4.81301e+01	-6.81745e+01	-1.74789e+02	-1.71091e+02	-1.81647e+02	-1.76664e+02	-5.28905e+01	-1.49745e+02	
Factor	1.45622e-05	1.40397e-04	4.03230e-05	1.48927e-01	1.29784e-06	1.50963e-06	1.69133e-01	4.23035e-02	9.54360e-07	1.51249e-06	7.52042e-02	2.43297e-02	1.97584e-02	7.93508e-03	1.28624e-06	1.14015e-02	1.42596e-05	3.90213e-05	1.10580e-05	7.54603e-02	3.58379e-07	4.54558e-07	8.02644e-02	2.15652e-02	3.46059e-07	4.54774e-07	3.70643e-02	1.20591e-02	1.01503e-02	4.07504e-03	3.89001e-07	5.66024e-03	X	X	X	X	X	X	X	X	X	X	X	X	X	X	X	X	



#DISTANCE SETTINGS
A = Detector Channel
A-1	A-2	A-3	A-4	A-5	A-6	A-7	A-8	A-9	A-10	A-11	A-12	A-13	A-14	A-15	A-16	

2.5000e+00	3.0000e+00	2.5000e+00	3.0000e+00	2.0000e+00	3.0000e+00	1.5000e+00	3.0000e+00	3.0000e+00	3.0000e+00	3.0000e+00	3.0000e+00	3.0000e+00	3.0000e+00	1.5000e+00	3.0000e+00	

B = Detector Channel
B-1	B-2	B-3	B-4	B-5	B-6	B-7	B-8	B-9	B-10	B-11	B-12	B-13	B-14	B-15	B-16	

1.0000e+01	1.0000e+01	1.0000e+01	1.4400e+00	1.0000e+01	1.0000e+01	1.5100e+00	1.9400e+00	1.0000e+01	1.0000e+01	1.9900e+00	2.4900e+00	2.4100e+00	2.9000e+00	1.0000e+01	2.9800e+00	




#DATA BEGINS
time	group	step	mark	flag	A-AC1	A-AC2	A-AC3	A-AC4	A-AC5	A-AC6	A-AC7	A-AC8	A-AC9	A-AC10	A-AC11	A-AC12	A-AC13	A-AC14	A-AC15	A-AC16	A-DC1	A-DC2	A-DC3	A-DC4	A-DC5	A-DC6	A-DC7	A-DC8	A-DC9	A-DC10	A-DC11	A-DC12	A-DC13	A-DC14	A-DC15	A-DC16	A-Ph1	A-Ph2	A-Ph3	A-Ph4	A-Ph5	A-Ph6	A-Ph7	A-Ph8	A-Ph9	A-Ph10	A-Ph11	A-Ph12	A-Ph13	A-Ph14	A-Ph15	A-Ph16	B-AC1	B-AC2	B-AC3	B-AC4	B-AC5	B-AC6	B-AC7	B-AC8	B-AC9	B-AC10	B-AC11	B-AC12	B-AC13	B-AC14	B-AC15	B-AC16	B-DC1	B-DC2	B-DC3	B-DC4	B-DC5	B-DC6	B-DC7	B-DC8	B-DC9	B-DC10	B-DC11	B-DC12	B-DC13	B-DC14	B-DC15	B-DC16	B-Ph1	B-Ph2	B-Ph3	B-Ph4	B-Ph5	B-Ph6	B-Ph7	B-Ph8	B-Ph9	B-Ph10	B-Ph11	B-Ph12	B-Ph13	B-Ph14	B-Ph15	B-Ph16	aux-1	digaux	

1487.518	1	1	0	768	0.33076	0.18489	0.04379	0.15012	0.0093101	0.22324	0.23606	0.092551	0.10538	0.056999	0.11497	0.069302	0.15321	0.11483	0.23282	0.091109	-2.4	-2.9604	-2.55	-2.9958	-2.8229	-2.4562	-3.1292	-2.8104	-2.8292	-3.0292	-2.3917	-2.9833	-3.0417	-2.7021	-2.9833	-2.8708	191.672	215.484	174.867	338.735	416.461	431.030	364.730	407.521	353.833	107.862	427.952	311.735	310.341	86.155	435.985	331.179	0.00030752	0.00022889	7.7108e-05	515.72	2.4919e-06	2.4876e-06	570.78	149.54	2.8151e-06	3.275e-06	202.22	81.095	53.828	19.766	3.9815e-06	33.357	0.00033207	0.00025754	8.0585e-05	522.29	2.817e-06	3.1137e-06	574.59	151.56	2.891e-06	2.9939e-06	204.97	82.846	54.901	20.295	3.0836e-06	34.057	224.887	162.531	151.415	92.068	239.321	224.445	91.557	97.783	252.545	228.104	96.268	101.522	103.156	108.114	239.895	105.511	-8191	255	
1487.614	1	1	0	0	0.20794	0.080604	0.083024	0.30497	0.1594	0.39127	0.063747	0.11849	0.14674	0.08831	0.12161	0.075933	0.10845	0.24409	0.18405	0.19266	-2.4042	-2.9896	-2.5896	-3.0667	-3.0687	-2.4542	-3.2146	-2.95	-2.725	-2.9875	-2.5938	-3.0583	-3.2104	-2.4875	-3.2042	-2.7854	150.689	181.985	394.597	347.771	317.595	326.974	149.012	142.458	235.507	394.699	347.625	234.531	116.528	144.516	166.028	302.204	0.0002978	0.00028297	7.972e-05	515.61	2.2909e-06	3.796e-06	565.75	148.66	2.669e-06	2.2466e-06	202.28	81.328	53.909	19.633	2.8591e-06	33.319	0.0003332	0.00026063	7.9111e-05	520.68	2.7662e-06	3.3902e-06	572.2	150.85	3.0078e-06	3.0546e-06	204.95	82.93	55.01	20.275	3.035e-06	34.06	223.469	171.760	159.007	91.753	235.711	229.033	91.535	97.665	258.125	218.264	96.380	101.552	102.821	108.118	245.460	105.129	-8191	255	
1487.710	1	1	0	0	0.23063	0.27817	0.057548	0.17769	0.075115	0.27996	0.05477	0.14095	0.06201	0.13402	0.11735	0.28446	0.18374	0.28383	0.097694	0.26638	-2.1458	-2.8917	-2.7812	-2.925	-3.0729	-2.5104	-3.0021	-2.9271	-2.5187	-3.2062	-2.9021	-2.85	-3.2583	-2.8063	-2.9	-2.7917	135.492	228.706	257.417	308.393	320.087	187.559	417.367	193.224	166.764	190.787	101.858	368.037	353.136	99.419	102.147	159.552	0.00029719	0.00022949	8.4943e-05	512.95	3.0908e-06	2.1213e-06	569.79	147.27	2.4343e-06	1.5134e-06	200.93	80.711	53.473	19.545	3.0011e-06	33.125	0.00032539	0.00026185	7.7475e-05	518.85	2.7237e-06	3.1166e-06	573.77	149.73	3.0122e-06	2.7874e-06	204.25	82.54	54.748	20.126	3.1031e-06	33.879	222.046	176.351	174.927	92.093	257.355	210.279	91.676	97.783	249.966	215.695	96.425	101.357	102.988	107.928	250.985	105.523	-8191	255	
1487.806	1	1	0	0	0.15951	0.22547	0.1696	0.2173	0.3228	0.060711	0.26437	0.050753	0.10275	0.18284	0.22771	0.088018	0.17441	0.17368	0.13754	0.29645	-2.1854	-3.0042	-2.8458	-2.8688	-3.0542	-2.8875	-3.1937	-3.1583	-2.7021	-3.1542	-2.9854	-3.0208	-3.0646	-2.7083	-2.9458	-3.0271	371.636	422.684	432.840	360.608	426.780	234.266	376.475	240.012	430.768	424.199	384.777	406.128	301.163	323.660	224.101	365.600	0.00029366	0.00033005	9.0984e-05	514.29	2.7621e-06	3.2025e-06	571.55	146.14	2.2046e-06	2.4099e-06	201.27	80.512	53.369	19.341	2.9261e-06	32.781	0.00032182	0.0002803	7.607e-05	519.72	2.6184e-06	3.0948e-06	575.43	148.99	2.8427e-06	2.9361e-06	204.34	82.324	54.398	19.949	2.9896e-06	33.57	225.348	164.396	161.699	91.844	256.174	222.056	91.810	97.783	266.526	219.432	96.220	101.572	102.876	108.291	256.034	105.225	-8191	255	
1487.902	1	1	0	0	0.21754	0.17898	0.17082	0.24239	0.04972	0.27967	0.18902	0.24953	0.081338	0.074867	0.18536	0.37861	0.11837	0.17858	0.16044	0.13434	-2.1875	-3.0312	-2.9021	-2.8708	-2.9792	-2.7896	-2.875	-3.0229	-2.4292	-3.0292	-2.9729	-2.5167	-2.875	-2.7646	-2.7812	-2.8187	374.704	188.813	319.958	382.447	139.732	300.919	215.228	368.510	246.812	145.458	356.474	360.383	345.500	429.960	103.082	217.699	0.00029065	0.00028975	9.0007e-05	510.49	2.882e-06	2.4755e-06	563.72	145.79	2.6037e-06	2.0317e-06	198.76	79.319	52.755	19.242	2.8627e-06	32.475	0.00031772	0.00026721	7.6485e-05	516.59	2.6244e-06	2.9423e-06	568.43	147.89	3.0251e-06	2.812e-06	201.68	80.995	53.675	19.75	3.1371e-06	33.224	223.221	170.560	158.579	92.102	233.820	250.465	91.731	97.934	246.055	233.276	96.414	101.847	103.038	108.378	241.502	105.694	-8191	255	
1487.998	1	1	0	0	0.27171	0.051636	0.16959	0.1402	0.1678	0.10868	0.315	0.17718	0.21497	0.17135	0.15331	0.23892	0.035024	0.2482	0.022487	0.21314	-2.1479	-2.8937	-2.5854	-2.9125	-3.0625	-2.8896	-2.8229	-3.2938	-2.7229	-3.0021	-3.1042	-2.7313	-3.325	-2.8187	-2.8354	-3.0229	283.695	309.583	180.955	365.322	319.737	84.843	120.879	380.010	144.633	232.044	127.699	320.530	205.071	432.337	126.489	382.523	0.00028121	0.00021155	5.6457e-05	503.95	3.2753e-06	2.3414e-06	557.98	143.82	2.8536e-06	2.428e-06	198.04	79.923	52.825	19.48	1.9755e-06	33.079	0.00031235	0.00024957	7.5287e-05	508.98	2.5258e-06	2.9726e-06	563.43	146.56	2.9422e-06	2.8594e-06	201.24	81.549	53.884	20.068	2.9588e-06	33.936	223.435	154.656	164.006	92.139	248.860	221.853	91.885	97.945	262.086	227.587	96.443	101.723	103.092	108.346	256.390	105.488	-8191	255	
1488.119	1	1	0	0	0.067919	0.1043	0.079257	0.23328	0.25102	0.28974	0.10648	0.077068	0.045444	0.028161	0.14461	0.19256	0.13833	0.1983	0.27424	0.15478	-2.2313	-2.7938	-2.7792	-2.6292	-3.0458	-2.9021	-2.8125	-3.1688	-2.9271	-2.8438	-3.1396	-2.7479	-2.9083	-2.8667	-2.5938	-3.2021	430.475	236.869	253.017	95.299	202.234	106.603	411.244	338.430	422.702	433.787	421.968	377.668	80.086	426.216	298.931	201.329	0.00029906	0.00020211	7.5478e-05	505.38	3.4069e-06	1.8845e-06	558.63	144.45	2.4465e-06	2.6321e-06	199.59	80.152	52.966	19.787	2.7473e-06	33.588	0.00031906	0.00025502	7.1209e-05	510.2	2.6826e-06	2.8334e-06	564.66	147.02	2.6538e-06	2.7921e-06	202.15	82.006	54.103	20.289	2.8243e-06	34.279	223.144	167.255	169.686	91.926	255.015	228.191	91.907	97.953	250.054	226.258	96.263	101.761	102.958	108.243	241.218	105.566	-8191	255	
1488.215	1	1	0	0	0.086652	0.21009	0.052707	0.17923	0.10779	0.35544	0.11362	0.13561	0.22823	0.065255	0.15184	0.23024	0.21627	0.091682	0.10781	0.15356	-2.475	-2.9458	-3.0896	-2.5438	-3.0312	-2.8479	-2.6875	-3.1875	-2.8271	-2.7396	-3.0583	-2.7229	-2.975	-3.0833	-2.7229	-3.3208	203.048	118.623	97.251	363.688	220.666	366.582	188.004	439.214	436.948	111.424	115.944	363.094	92.665	212.689	324.968	373.718	0.0002802	0.00039662	8.0392e-05	505.46	2.8837e-06	2.6582e-06	561.83	143.85	2.9472e-06	2.6219e-06	199.64	79.988	53.218	19.657	3.2048e-06	33.379	0.00030652	0.00024722	6.8836e-05	510.7	2.7155e-06	2.5853e-06	566.48	146.94	2.6459e-06	3.0081e-06	202.41	81.95	53.957	20.203	2.8259e-06	34.183	225.406	165.888	177.790	92.148	251.233	236.918	91.711	98.050	254.671	236.986	96.107	101.465	103.249	108.095	242.968	105.633	-8191	255	
1488.311	1	1	0	0	0.27883	0.25958	0.086971	0.17455	0.0099994	0.12248	0.26022	0.050777	0.091415	0.13779	0.27723	0.10083	0.17757	0.26576	0.28655	0.27856	-2.2875	-2.7062	-3.0479	-2.8563	-3.025	-3.2083	-2.7167	-3.0479	-2.65	-2.7875	-3.2917	-2.6854	-3.0479	-3.1625	-2.3708	-2.9146	163.473	333.846	164.323	377.467	407.345	403.542	112.744	321.367	429.583	276.576	426.974	435.051	326.499	428.825	227.919	289.689	0.00029248	0.00031933	8.9269e-05	500.18	3.1258e-06	2.4461e-06	555.44	143.77	2.6047e-06	2.37e-06	198.08	79.583	52.584	19.601	3.3784e-06	33.08	0.0003053	0.00025486	6.909e-05	506.77	2.6423e-06	2.6961e-06	562.11	146.46	2.5154e-06	2.6055e-06	201.5	81.491	53.59	20.118	2.9248e-06	33.851	226.417	160.999	163.517	92.141	263.627	232.572	91.907	98.141	258.362	233.816	96.420	101.612	103.038	108.246	255.760	105.934	-8191	255	
1488.407	1	1	0	0	0.17256	0.15588	0.20318	0.078147	0.086622	0.24256	0.23408	0.033698	0.16354	0.020618	0.28156	0.1645	0.32738	0.17206	0.097526	0.19989	-2.3542	-2.6	-3.1104	-2.8521	-3.0062	-3.1375	-2.75	-3.1083	-2.9313	-2.5979	-3.2542	-2.5083	-2.9979	-3.0708	-2.8208	-3.0042	282.836	437.809	393.428	410.281	90.903	187.059	346.853	273.024	265.939	207.996	99.072	108.088	303.800	222.818	86.132	356.604	0.00029215	0.00024772	9.2931e-05	501.92	2.2948e-06	3.6703e-06	555.97	143.51	2.0889e-06	2.4654e-06	197.84	79.883	52.063	19.333	2.7657e-06	33.069	0.00030741	0.00025632	6.4943e-05	506.18	2.4392e-06	2.5209e-06	561.85	145.7	2.4073e-06	2.5354e-06	200.88	81.276	53.334	19.92	2.6776e-06	33.875	224.786	165.719	174.852	92.078	244.170	247.631	91.472	97.956	254.735	238.427	96.317	101.776	103.142	108.165	249.924	105.612	-8191	255	
1488.504	1	1	0	0	0.28774	0.23973	0.11442	0.12526	0.13834	0.059948	0.13463	0.16115	0.054634	0.11836	0.081413	0.093194	0.13724	0.14954	0.15222	0.22421	-2.4667	-2.4583	-2.7938	-2.7646	-2.9437	-3.2521	-2.7854	-3.0625	-2.9604	-2.5583	-3.0625	-2.9479	-3	-3.1979	-2.7521	-2.9146	321.797	368.362	206.233	188.654	259.145	159.968	270.477	113.563	139.849	234.375	384.643	86.471	398.851	318.257	403.902	308.534	0.0002967	0.00033499	9.1529e-05	501.96	3.2415e-06	2.8213e-06	561.75	143.34	2.2025e-06	2.3131e-06	198.21	79.012	52.049	19.211	2.8891e-06	33.102	0.00030878	0.00024681	6.5542e-05	506.81	2.4989e-06	2.4783e-06	565.03	145.39	2.4289e-06	2.5875e-06	201.46	80.734	53.005	19.778	2.599e-06	33.867	223.650	175.908	179.721	92.240	237.406	233.033	91.737	97.794	253.424	235.736	96.401	101.694	103.015	108.273	240.538	105.581	-8191	255	
1488.598	1	1	0	0	0.05171	0.26243	0.14662	0.15721	0.22142	0.12894	0.24737	0.31582	0.14349	0.13864	0.15839	0.043904	0.1094	0.089633	0.21896	0.14877	-2.6083	-2.3187	-2.8542	-2.8146	-2.7729	-3.1583	-2.9625	-2.9667	-2.9708	-2.6792	-3.25	-2.9292	-2.7979	-3.0167	-2.4917	-2.7396	275.925	416.276	303.577	392.692	278.639	436.878	406.370	367.156	223.126	144.987	339.170	155.485	366.147	296.863	86.439	101.033	0.00029752	0.00027661	8.2431e-05	506.1	2.7991e-06	2.0412e-06	562.17	143	1.7049e-06	2.8165e-06	198.36	79.13	51.733	19.289	2.1322e-06	32.931	0.00030296	0.00023925	5.9944e-05	512.27	2.5773e-06	2.2037e-06	568.37	146.22	2.1629e-06	2.5827e-06	201.14	80.493	52.739	19.726	2.3883e-06	33.577	225.030	184.052	170.680	92.208	231.845	225.836	91.862	98.062	259.585	237.585	96.063	101.562	103.059	108.069	249.149	105.555	-8191	255	
1488.719	1	1	0	0	0.20701	0.14966	0.3224	0.1376	0.078034	0.05885	0.19458	0.16384	0.013464	0.47132	0.31545	0.16614	0.13063	0.15837	0.12323	0.14566	-2.6688	-2.5479	-3.0687	-3.1833	-2.8708	-3.0667	-2.7938	-3.1417	-3.1688	-2.5875	-3.0167	-2.925	-2.6021	-3.0396	-2.4938	-2.6958	390.788	216.038	270.350	417.293	90.749	407.911	394.494	250.121	117.443	399.326	365.314	105.511	210.576	289.153	221.426	136.391	0.00029422	0.00029138	8.3874e-05	506.41	2.2687e-06	2.5425e-06	564.37	143.15	2.5173e-06	2.4471e-06	196.56	77.528	51.222	18.795	3.3818e-06	32.179	0.00028864	0.00022949	6.1234e-05	512.41	2.434e-06	2.0663e-06	568.19	145.61	2.2177e-06	2.4804e-06	198.62	79.11	52.176	19.325	2.4402e-06	32.808	223.175	172.192	168.999	92.026	251.501	231.683	91.564	97.837	248.039	240.935	96.270	101.850	103.269	108.147	242.602	105.725	-8191	255	
1488.815	1	1	0	0	0.10866	0.15237	0.090854	0.16617	0.15397	0.054066	0.19442	0.1119	0.19103	0.2604	0.12144	0.11477	0.1908	0.23753	0.091377	0.090627	-2.6896	-2.5	-2.9188	-3.0375	-2.7062	-3.3083	-3.1583	-2.9125	-3.2062	-2.7562	-2.9771	-2.925	-2.4167	-2.85	-2.8417	-2.7021	295.329	423.782	192.783	204.045	200.408	262.118	425.126	152.863	289.641	100.630	147.391	148.815	373.243	331.885	301.110	421.613	0.00029938	0.00025949	7.2569e-05	508.53	2.2205e-06	2.7492e-06	562.43	142.27	2.3107e-06	2.316e-06	195.99	77.206	51.103	18.812	2.8624e-06	32.003	0.0002963	0.00021779	5.7893e-05	512.39	2.216e-06	2.3419e-06	565.96	144.79	2.1888e-06	2.4378e-06	198.24	78.699	52.162	19.323	2.4572e-06	32.844	223.124	172.720	192.952	92.096	242.962	236.971	91.745	97.729	251.803	220.626	96.289	101.422	102.732	108.211	241.681	105.338	-8191	255	
1488.911	1	1	0	0	0.06954	0.29509	0.0048699	0.24225	0.12055	0.19944	0.18493	0.3521	0.10152	0.14093	0.063532	0.071154	0.11391	0.17559	0.1019	0.27665	-2.6	-2.6562	-2.8667	-2.9062	-2.5167	-3.0292	-3.025	-2.775	-3.0104	-2.7146	-2.8146	-3.2958	-2.6021	-2.9437	-2.6208	-2.7458	403.601	121.485	177.820	101.535	421.682	284.889	425.596	370.358	395.523	219.957	166.847	436.315	181.711	402.051	438.593	425.250	0.00030374	0.00022036	7.82e-05	511.45	2.2965e-06	2.7232e-06	564.22	143.15	2.2569e-06	2.7622e-06	195.17	77.69	51.473	18.89	2.857e-06	32.443	0.00029292	0.00021876	5.893e-05	516.14	2.3892e-06	2.2122e-06	569.04	145.62	2.3049e-06	2.253e-06	198.26	79.099	52.332	19.45	2.4086e-06	33.072	223.979	170.684	166.361	92.018	246.876	247.411	91.932	97.822	256.617	225.964	96.215	101.474	102.745	108.307	240.417	105.568	-8191	255	
1489.007	1	1	0	0	0.17901	0.13275	0.22743	0.14558	0.15543	0.12322	0.084053	0.12764	0.17113	0.18408	0.17611	0.052199	0.064813	0.15246	0.038189	0.1393	-2.8583	-2.8333	-2.825	-3.0312	-2.4458	-2.825	-3.0563	-2.6708	-3.0687	-2.7833	-2.8396	-3.2479	-2.5792	-3.1333	-2.9667	-2.4021	160.359	192.730	294.109	393.403	339.496	283.487	379.642	387.249	196.380	196.149	148.785	304.307	93.844	357.142	185.112	388.368	0.00031796	0.00032555	9.6342e-05	511.74	2.5702e-06	2.3725e-06	567.2	143.35	2.3087e-06	2.1971e-06	197.07	77.535	51.21	18.793	1.9645e-06	31.977	0.00029933	0.00023429	6.0266e-05	516.97	2.3967e-06	2.0607e-06	570.51	145.92	2.3208e-06	2.3032e-06	198.96	79.06	52.313	19.372	2.0974e-06	32.87	223.689	174.485	175.137	91.794	246.522	222.233	91.796	97.817	256.752	231.190	96.292	101.438	103.085	108.247	244.131	105.590	-8191	255	
1489.079	1	1	0	0	0.15854	0.10959	0.04711	0.16152	0.22395	0.049208	0.22866	0.22979	0.20898	0.25566	0.21672	0.17726	0.16427	0.13905	0.21371	0.20105	-2.7542	-2.7104	-2.7792	-3.1104	-2.5521	-2.6854	-3.1208	-2.75	-3.1958	-2.8438	-2.6833	-3.1208	-2.8104	-3.1688	-3.2396	-2.5229	145.392	164.489	160.278	423.891	146.450	164.034	434.661	395.732	112.897	319.320	338.549	180.461	413.805	284.093	105.050	338.171	0.00029384	0.000262	8.1177e-05	514.17	2.5782e-06	2.2242e-06	565.6	142.73	1.929e-06	2.7803e-06	193.31	76.454	50.583	18.613	2.7156e-06	31.828	0.00029015	0.00021275	5.9667e-05	517.15	2.2339e-06	2.4953e-06	566.92	145.16	2.1232e-06	2.3203e-06	196.69	77.979	51.789	19.121	1.9207e-06	32.453	223.824	160.290	185.990	92.102	234.805	229.716	91.505	98.069	269.675	207.372	96.236	101.517	102.877	108.277	244.057	105.432	-8191	255	
1489.199	1	1	0	0	0.21466	0.038237	0.3235	0.1224	0.21662	0.11206	0.20664	0.036137	0.090526	0.20626	0.12479	0.072533	0.23955	0.2677	0.07174	0.097008	-2.7104	-3	-2.7542	-3.3479	-2.7979	-2.9208	-2.8354	-2.4375	-2.9708	-2.9229	-2.725	-3.2687	-2.825	-2.9708	-3.1312	-2.6333	411.162	215.423	100.350	266.332	354.504	158.317	228.047	254.834	280.303	156.391	101.946	406.476	274.076	170.399	319.155	137.834	0.00027752	0.00024635	8.304e-05	507.62	2.5062e-06	2.7427e-06	560.27	141.94	2.3205e-06	3.3425e-06	193.57	76.663	51.299	18.561	2.323e-06	31.802	0.00028825	0.00019348	5.8746e-05	512.74	2.2667e-06	2.1696e-06	566.56	144.42	2.2523e-06	2.3004e-06	196.38	78.144	51.994	19.148	2.1816e-06	32.467	224.737	146.829	170.785	91.966	247.284	222.374	91.687	97.652	258.804	223.988	96.137	101.381	103.225	108.150	264.898	105.498	-8191	255	
1489.295	1	1	0	0	0.18066	0.088875	0.25394	0.21004	0.1655	0.1622	0.259	0.11727	0.048816	0.25078	0.063677	0.095748	0.17136	0.23138	0.21785	0.13047	-2.5438	-2.8375	-2.4688	-2.9771	-2.8271	-2.8917	-3.2417	-2.5833	-2.9146	-2.8583	-2.5479	-3.0125	-2.8187	-2.6604	-3.2146	-2.6667	162.385	204.360	115.862	83.992	221.679	352.496	282.843	211.655	285.410	195.184	83.791	417.210	303.540	110.113	425.603	307.176	0.00028447	0.00027373	7.6994e-05	510.02	2.6571e-06	2.6666e-06	562.88	142.22	1.8812e-06	3.2687e-06	193.83	76.909	51.006	18.62	2.3723e-06	31.685	0.00028944	0.00021421	6.0635e-05	515.92	2.1555e-06	2.2207e-06	566.4	144.6	2.1138e-06	2.2208e-06	197.05	78.493	52.021	19.186	1.9588e-06	32.552	226.742	158.441	175.345	92.056	250.010	229.113	91.959	98.038	241.223	226.622	96.114	101.346	102.923	107.780	245.348	105.406	-8191	255	
1489.392	1	1	0	0	0.10381	0.091835	0.21893	0.10293	0.028837	0.093612	0.27811	0.097231	0.21188	0.11883	0.17005	0.21474	0.095323	0.055536	0.089013	0.070684	-2.3229	-2.9417	-2.7396	-3.1312	-2.8646	-2.6562	-3.1917	-2.4958	-3.1479	-2.9208	-2.7271	-2.9771	-2.8333	-2.6188	-3.1188	-2.6937	112.339	215.279	220.215	435.628	413.342	139.706	363.624	151.880	283.131	324.603	340.455	391.044	163.845	156.812	278.145	367.457	0.00028983	0.00027057	6.0912e-05	515.51	3.3013e-06	3.1848e-06	566.01	143.25	1.9482e-06	2.2765e-06	196.03	77.374	51.494	18.804	3.0639e-06	31.812	0.0002892	0.00019787	5.9022e-05	518.24	2.3183e-06	2.287e-06	570.95	145.81	2.2299e-06	2.1033e-06	198.82	78.954	52.372	19.311	2.1687e-06	32.667	222.603	154.929	172.205	92.094	251.387	218.023	91.634	97.975	259.323	206.910	96.215	101.223	102.842	108.251	261.512	105.549	-8191	255	
1489.512	1	1	0	0	0.20845	0.20741	0.087155	0.10382	0.070205	0.064121	0.033858	0.046467	0.12508	0.19867	0.10806	0.28849	0.051302	0.13482	0.28001	0.11619	-2.2646	-3.0208	-2.6042	-3.0604	-3.1312	-2.6688	-3.2229	-2.7604	-2.9354	-3.0667	-2.6417	-2.8292	-2.8958	-2.6312	-3.1479	-2.8229	162.037	273.562	340.122	178.281	144.854	429.365	352.956	328.146	125.072	132.626	155.207	384.106	247.439	347.891	181.099	231.354	0.00029231	0.00023273	8.0189e-05	517.51	3.1453e-06	2.8345e-06	566.02	143.69	2.6047e-06	3.7055e-06	195.79	77.08	51.436	18.745	3.36e-06	31.858	0.00029411	0.00019901	5.9875e-05	522.07	2.1144e-06	2.179e-06	571.07	146.27	2.1607e-06	2.0787e-06	198.16	78.689	52.477	19.253	2.2392e-06	32.474	224.378	183.900	182.432	91.939	241.734	224.829	91.537	97.656	262.047	224.991	96.167	101.712	103.029	107.781	254.342	105.622	-8191	255	
1489.607	1	1	0	0	0.16012	0.034821	0.13038	0.30431	0.14345	0.21108	0.13476	0.12785	0.17396	0.23014	0.04599	0.16058	0.17056	0.1526	0.15684	0.1473	-2.4333	-3.1729	-2.5458	-3.0563	-3.1625	-2.5854	-2.9875	-2.7375	-2.7062	-3.2021	-2.7021	-3.0563	-3.0771	-2.8354	-3.0187	-2.8104	149.385	101.050	396.795	404.100	126.811	97.522	384.058	135.383	137.497	271.897	330.201	351.427	409.948	86.958	297.237	268.014	0.00028076	0.00019001	6.4291e-05	518.03	2.004e-06	2.1928e-06	568.01	143.74	1.7045e-06	2.8756e-06	196.65	77.606	52.034	18.655	1.9433e-06	31.793	0.00028775	0.00018389	5.4023e-05	523.29	1.93e-06	2.0948e-06	574.44	146.5	2.1376e-06	1.9887e-06	199.02	79.143	52.742	19.254	1.9888e-06	32.564	225.828	154.759	169.262	92.115	249.992	236.946	91.716	97.595	261.616	228.747	96.138	101.515	102.731	108.249	259.497	105.075	-8191	255	
1489.680	1	1	0	0	0.10666	0.035462	0.13907	0.079271	0.11754	0.16628	0.24999	0.13465	0.09918	0.17335	0.0999	0.17594	0.064471	0.15527	0.30684	0.08202	-2.3	-3.05	-2.7646	-2.8187	-3.0417	-2.6646	-3.1292	-2.9021	-2.7125	-3.0667	-2.6833	-2.7896	-3.0604	-2.3542	-2.8771	-2.9437	265.499	101.902	346.032	427.157	313.773	120.199	97.647	124.112	377.921	168.795	421.881	299.438	203.583	365.022	248.482	228.551	0.00027824	0.00025512	6.2592e-05	523.5	2.6037e-06	3.2272e-06	571.68	145.03	1.9802e-06	2.808e-06	197.65	78.15	52.335	18.873	3.0874e-06	31.86	0.00028674	0.00017535	5.946e-05	525.53	2.2458e-06	2.2775e-06	575.8	147.4	2.1845e-06	1.8655e-06	200.35	79.752	53.265	19.411	2.21e-06	32.707	224.535	167.043	163.627	92.061	249.175	225.487	91.948	97.714	226.920	230.079	96.110	102.021	103.099	108.087	235.016	105.684	-8191	255	
1489.799	1	1	0	0	0.064465	0.16429	0.093682	0.20647	0.21267	0.41392	0.10042	0.20443	0.073494	0.21518	0.21947	0.10819	0.2112	0.10037	0.16152	0.17275	-2.1	-3.1104	-2.6813	-2.7729	-3.1229	-2.6021	-2.8937	-2.9979	-2.6396	-2.9958	-2.9042	-2.9604	-3.3104	-2.6354	-2.9313	-3.3396	174.467	289.154	92.414	127.931	338.355	204.305	392.328	115.731	261.591	387.908	170.620	292.878	182.605	347.582	88.669	184.652	0.00029324	0.00032125	8.3638e-05	523.48	3.552e-06	2.1583e-06	577.17	145.67	2.187e-06	2.6757e-06	197.54	78.544	52.173	18.766	2.7285e-06	31.606	0.00030661	0.00018576	5.6949e-05	529.8	2.2175e-06	2.2984e-06	581.55	148.11	2.2681e-06	2.1033e-06	200.62	79.961	53.162	19.219	2.2076e-06	32.314	222.668	164.638	160.569	91.843	246.438	228.028	91.391	97.738	266.537	247.573	96.355	101.430	102.797	108.214	248.859	105.628	-8191	255	
1489.895	1	1	0	0	0.099051	0.16054	0.094999	0.12377	0.12723	0.32737	0.23453	0.053671	0.052665	0.24481	0.14487	0.17706	0.10196	0.069431	0.11712	0.3152	-2.2604	-2.8708	-2.8333	-2.7438	-3.1458	-2.5542	-2.9375	-3.025	-2.5125	-3.0542	-2.7667	-2.5417	-3.0396	-2.8771	-2.8583	-3.1167	226.109	132.726	352.754	427.241	323.293	413.285	407.151	363.149	399.959	200.139	158.645	367.481	340.192	111.635	381.803	365.384	0.00027931	0.00027628	7.7244e-05	520.12	2.0586e-06	3.1838e-06	574.02	145.2	2.4822e-06	2.9168e-06	197.14	78.116	52.125	18.411	2.3062e-06	31.124	0.00028626	0.00020446	5.0291e-05	526.75	2.0017e-06	2.359e-06	577.27	147.55	2.2335e-06	1.983e-06	199.73	79.447	53.043	19.023	2.2846e-06	31.861	225.739	157.270	179.981	92.245	253.138	242.342	91.946	97.877	245.179	226.499	96.158	101.365	103.151	107.886	244.287	105.443	-8191	255	
1489.991	1	1	0	0	0.079258	0.18146	0.15549	0.17455	0.086844	0.032479	0.067559	0.20455	0.18043	0.23037	0.19033	0.084535	0.066704	0.32818	0.028538	0.15912	-2.3083	-3.0333	-3.0812	-2.7333	-3.0646	-2.8937	-3.0229	-3.1479	-2.65	-3.0083	-2.8875	-2.5875	-3	-2.7417	-2.4875	-3.2562	111.184	200.845	153.999	389.774	141.681	99.329	346.652	333.584	353.444	427.195	177.953	169.695	199.192	159.148	340.514	276.412	0.00027918	0.0002446	7.1894e-05	517.57	2.7455e-06	3.0443e-06	571.25	144.68	2.388e-06	2.5267e-06	197.44	78.148	51.998	18.567	2.6574e-06	31.211	0.00028237	0.00017787	5.2802e-05	523.65	1.9181e-06	2.108e-06	576.13	146.93	1.9682e-06	1.8987e-06	199.87	79.394	53.107	19.07	2.0909e-06	31.98	224.374	166.530	163.409	92.229	262.742	237.892	91.686	97.834	250.642	218.158	96.192	101.476	103.114	108.015	254.991	105.605	-8191	255	
1490.112	1	1	0	0	0.37637	0.16711	0.2628	0.31071	0.18527	0.084476	0.23091	0.069064	0.12803	0.097166	0.29425	0.08491	0.1428	0.070876	0.1014	0.09543	-2.2604	-3.0521	-2.9625	-2.6958	-3.1854	-2.8333	-2.9521	-3.2417	-2.65	-2.7604	-2.8167	-2.7938	-3.1167	-2.8854	-2.6875	-3.2062	154.628	117.753	370.573	121.856	231.657	352.800	394.155	236.433	401.156	178.907	99.353	88.786	94.766	253.986	351.587	268.570	0.00027317	0.00023326	4.5574e-05	522.08	3.7996e-06	2.1922e-06	573.64	145.48	2.2565e-06	2.6874e-06	198.48	78.542	52.339	18.567	3.0356e-06	31.465	0.0002761	0.00018844	4.4278e-05	526.77	2.1413e-06	2.1137e-06	579.04	147.56	2.1182e-06	1.911e-06	200.75	79.977	53.411	19.087	2.2538e-06	32.048	223.864	149.955	172.291	92.042	247.367	209.854	91.770	97.908	252.573	237.994	96.314	101.565	103.175	108.095	252.049	105.526	-8191	255	
1490.208	1	1	0	0	0.2864	0.243	0.25478	0.1972	0.12916	0.23495	0.039246	0.077592	0.10966	0.040479	0.11373	0.046141	0.056182	0.14645	0.2835	0.079668	-2.2521	-2.9521	-3.0917	-2.7521	-3.1437	-2.7188	-2.6771	-3.1583	-2.5687	-2.7458	-3.1104	-2.8021	-2.9896	-2.9813	-2.7	-3.0187	373.562	436.539	228.103	355.741	367.826	202.528	339.204	353.597	326.626	283.590	172.196	344.081	339.591	99.570	367.239	340.714	0.00027667	0.00036867	0.00010711	519.55	2.8292e-06	2.4614e-06	577.72	145.25	2.5229e-06	2.6229e-06	197.76	78.689	52.278	18.429	3.1173e-06	31.101	0.00027432	0.000196	5.3793e-05	526.49	2.1361e-06	2.1667e-06	581.37	147.51	2.129e-06	2.0711e-06	200.75	80.073	53.168	19.004	2.2165e-06	31.877	225.064	178.300	175.707	92.076	245.003	207.769	91.616	97.471	251.534	234.110	96.058	101.703	103.216	108.159	253.337	105.430	-8191	255	
1490.304	1	1	0	0	0.17864	0.25229	0.058339	0.36278	0.079247	0.12621	0.14635	0.42134	0.11277	0.21051	0.15426	0.19739	0.10297	0.15261	0.057499	0.31177	-2.0833	-2.7125	-3.1667	-2.6479	-2.8563	-2.9458	-2.5333	-3.125	-2.9396	-3.0208	-3.1042	-2.825	-3.0646	-2.9104	-2.4562	-3.025	320.661	267.749	424.270	109.831	308.371	102.182	324.836	404.831	273.380	433.079	263.685	289.357	94.894	94.265	267.315	358.526	0.00028037	0.00024864	9.7303e-05	520.34	2.8465e-06	2.1141e-06	571.79	144.5	2.1029e-06	2.3842e-06	197.73	78.182	51.916	18.469	2.6185e-06	31.116	0.00028787	0.0001882	4.7918e-05	526.57	1.9479e-06	2.0559e-06	578.05	147.07	2.2032e-06	2.1204e-06	199.75	79.619	53.279	18.974	2.2181e-06	31.792	225.284	158.139	180.461	91.969	230.713	240.288	91.818	97.797	254.482	234.030	96.349	101.262	102.878	108.222	252.141	105.573	-8191	255	
1490.376	1	1	0	0	0.27665	0.18247	0.13156	0.17267	0.10879	0.2429	0.21043	0.12237	0.12415	0.14242	0.35612	0.12734	0.39266	0.094174	0.13003	0.16692	-2.2438	-2.6167	-2.9708	-2.6729	-2.6813	-2.8167	-2.4833	-2.9667	-2.7479	-2.6042	-2.95	-2.8563	-2.8792	-3.0333	-2.5833	-3.1021	259.660	347.526	269.641	83.702	430.924	138.420	364.406	408.361	198.245	379.819	407.699	318.765	434.477	79.883	108.525	256.417	0.00027308	0.00035738	8.3781e-05	520.23	3.4379e-06	3.2185e-06	573.36	144.86	2.1032e-06	2.5298e-06	196.75	78.043	52.256	18.261	2.9109e-06	30.856	0.00027803	0.00021161	5.1097e-05	526.83	2.1144e-06	2.2273e-06	576.78	146.8	2.0396e-06	1.9783e-06	199.37	79.569	53.19	18.872	2.1581e-06	31.624	223.402	164.581	180.278	92.024	252.602	238.264	91.616	97.708	258.055	230.038	96.148	101.589	103.098	108.135	248.397	105.234	-8191	255	
1490.495	1	1	0	0	0.093106	0.1434	0.023699	0.22764	0.18137	0.13266	0.24667	0.1425	0.10346	0.21641	0.23813	0.1787	0.13635	0.2185	0.19273	0.12275	-2.4458	-2.7542	-3.0563	-2.9	-2.9396	-3.1604	-2.7979	-3.05	-2.8958	-2.8146	-3.1396	-2.6167	-2.7938	-2.9062	-2.4896	-2.7646	388.800	251.660	263.200	108.518	255.028	164.954	386.805	270.676	414.957	95.984	401.428	81.829	399.331	168.919	374.562	313.014	0.00028295	0.00029384	6.7193e-05	522.17	2.4588e-06	2.53e-06	574.94	144.93	3.1557e-06	2.2724e-06	197	78.715	52.202	18.379	2.7935e-06	31.093	0.00027616	0.00019446	4.6236e-05	528.03	2.0345e-06	1.8656e-06	580.26	147.37	2.1679e-06	2.092e-06	200.34	79.945	53.226	18.901	2.3324e-06	31.79	223.051	181.763	161.302	91.991	244.846	238.149	91.769	97.785	254.279	245.734	95.943	101.499	103.101	108.251	235.829	105.765	-8191	255	
1490.591	1	1	0	0	0.053624	0.22148	0.2301	0.28305	0.38081	0.0060447	0.19882	0.2133	0.05537	0.1705	0.077035	0.165	0.11561	0.14859	0.10437	0.18344	-2.4667	-2.4417	-2.8833	-2.7229	-2.6208	-3.1375	-2.6792	-3.0583	-3.225	-2.8438	-3.2083	-2.9708	-2.8125	-3.2062	-2.8333	-3.0125	264.606	437.416	304.526	143.246	436.449	323.278	392.537	333.505	219.851	80.052	334.748	301.859	133.898	141.292	415.078	386.061	0.00026961	0.00024974	8.1069e-05	525.68	3.0897e-06	2.7558e-06	578.71	144.64	2.4364e-06	2.3747e-06	197.7	78.22	52.109	18.295	2.6458e-06	30.797	0.00026829	0.00020234	4.9968e-05	530.18	2.1152e-06	1.9745e-06	582.77	147.44	2.1232e-06	1.9281e-06	200.56	79.756	53.269	18.894	2.1103e-06	31.722	224.471	155.588	164.768	92.213	240.297	229.123	91.842	97.725	255.476	238.019	96.213	101.403	102.864	108.140	233.069	105.649	-8191	255	
1490.687	1	1	0	0	0.14706	0.064109	0.061488	0.066689	0.015044	0.10642	0.22981	0.14537	0.028533	0.082796	0.24163	0.0957	0.19292	0.083232	0.096729	0.21743	-2.4688	-2.5229	-2.8688	-2.8479	-2.8083	-3.2708	-2.8937	-2.9396	-3.0812	-2.6854	-2.9146	-2.8792	-2.5083	-2.9708	-2.7167	-2.8271	332.759	186.892	189.236	104.145	315.772	183.799	397.756	438.596	98.996	217.605	413.185	105.044	362.766	256.965	201.938	408.896	0.00028064	0.00028145	5.8081e-05	524.26	2.6362e-06	2.5621e-06	575.81	144.56	2.599e-06	2.9334e-06	195.83	77.533	51.822	18.285	2.3681e-06	30.596	0.00027417	0.00019909	5.5106e-05	529.1	2.1562e-06	1.9139e-06	578.5	147.22	2.1023e-06	2.0759e-06	198.51	79.094	52.89	18.761	2.21e-06	31.462	224.556	161.157	170.911	91.978	254.247	233.729	91.736	97.695	253.763	241.928	96.280	101.710	102.954	107.964	251.963	105.404	-8191	255	
1490.783	1	1	0	0	0.31746	0.13134	0.2643	0.19462	0.038297	0.084536	0.028306	0.11783	0.26952	0.10322	0.1936	0.39674	0.25535	0.064378	0.25689	0.20539	-2.5521	-2.35	-2.7938	-2.7917	-2.5833	-3.075	-2.8083	-3.0083	-3.2292	-2.8	-3.1458	-3.0708	-2.6437	-3.0438	-2.6688	-2.75	259.492	317.211	148.545	185.465	201.134	372.023	296.850	425.635	396.507	350.232	344.913	434.037	123.075	406.322	247.663	339.337	0.00030581	0.0002359	8.2295e-05	524.61	2.768e-06	3.1547e-06	574.98	144.6	2.4345e-06	3.0267e-06	197.32	77.836	52.188	18.342	2.865e-06	31.174	0.00029188	0.00020673	5.3009e-05	527.77	2.3339e-06	1.9953e-06	578.2	146.86	1.9387e-06	1.9896e-06	199.97	79.409	53.07	18.915	2.1663e-06	31.803	222.893	152.075	171.300	91.925	262.991	218.191	91.623	97.726	251.052	229.700	96.316	101.332	102.765	108.355	249.528	105.372	-8191	255	
1490.904	1	1	0	0	0.18129	0.18583	0.10184	0.4312	0.16506	0.041176	0.22686	0.24841	0.15097	0.090933	0.11407	0.10022	0.10551	0.15324	0.11569	0.23384	-2.8667	-2.6292	-2.9375	-3.0667	-2.4833	-3.1	-2.8667	-2.5958	-3.15	-2.8187	-2.6312	-2.9354	-2.5271	-3.1146	-3.0896	-3.0333	85.838	310.265	160.872	427.493	334.162	364.225	382.743	157.767	119.665	113.214	211.659	400.346	293.767	404.426	311.708	359.619	0.00030221	0.00033046	7.2744e-05	522.93	2.7652e-06	3.0955e-06	575.08	144.49	2.8928e-06	2.102e-06	198.35	78.311	51.94	18.394	2.2752e-06	31.101	0.00028047	0.00020836	5.5613e-05	527.82	2.0525e-06	1.9792e-06	579.68	147.23	2.1239e-06	1.9906e-06	200.77	79.765	53.1	18.964	2.0487e-06	31.929	225.919	165.739	162.943	92.102	244.930	234.454	91.883	97.856	249.830	232.794	96.288	101.351	102.839	107.851	251.435	105.805	-8191	255	
1490.975	1	1	0	0	0.12992	0.17468	0.14522	0.13525	0.26492	0.067432	0.16358	0.14473	0.14207	0.27025	0.20669	0.11728	0.22392	0.14327	0.32364	0.13757	-2.7583	-2.6146	-2.7479	-3.0146	-2.6813	-2.8312	-2.9313	-2.7438	-3.0771	-2.6771	-2.9958	-3.1917	-2.8146	-3.1208	-2.9521	-2.7375	296.566	182.748	271.627	387.309	437.813	147.940	133.033	398.170	95.149	180.743	360.404	255.843	381.985	425.831	173.949	369.260	0.00027412	0.00028099	7.7157e-05	523.24	2.8409e-06	2.4914e-06	572.89	144.59	2.3164e-06	1.8631e-06	197.96	78.234	51.858	18.472	2.9893e-06	31.244	0.00026357	0.00020559	4.9807e-05	528.1	2.1607e-06	1.8107e-06	579.69	147.2	1.9487e-06	2.0436e-06	200.35	79.633	52.898	18.951	2.0982e-06	31.934	221.752	173.289	172.988	91.883	250.369	229.621	91.541	97.689	254.002	240.026	96.322	101.372	102.943	108.241	257.152	105.332	-8191	255	
1491.072	1	1	0	0	0.033034	0.22862	0.097644	0.082861	0.1141	0.1263	0.083985	0.11025	0.13338	0.14587	0.3502	0.19473	0.39002	0.10058	0.11138	0.042511	-2.6833	-2.6271	-2.7042	-3	-2.7771	-3.0292	-3.0979	-2.6479	-3.1354	-2.6521	-2.4958	-3.0521	-2.8187	-2.9458	-3.1646	-2.5042	288.125	296.302	173.754	187.889	353.809	133.187	304.434	381.306	136.236	237.437	333.761	399.656	162.990	297.796	191.788	90.708	0.00028836	0.00021509	6.2625e-05	520.29	2.504e-06	2.3103e-06	568.73	143.34	1.9743e-06	2.7017e-06	195.09	77.436	51.011	18.382	2.3718e-06	30.928	0.00027676	0.0001895	5.5382e-05	525.34	2.2436e-06	1.8864e-06	575.14	146.34	1.7252e-06	2.0389e-06	199.15	78.999	52.368	18.863	1.9523e-06	31.69	222.622	158.809	189.318	91.894	251.636	242.169	91.732	97.852	247.125	220.169	96.038	101.555	102.834	108.281	238.834	105.656	-8191	255	
1491.192	1	1	0	0	0.07514	0.17265	0.14012	0.13683	0.39851	0.045987	0.19251	0.15046	0.12356	0.083548	0.10939	0.07285	0.16455	0.054102	0.12228	0.19809	-2.6562	-2.6937	-2.5729	-3.1042	-2.7062	-2.9521	-3.1708	-2.5979	-2.9104	-2.8937	-2.8125	-3.1667	-2.7562	-2.7479	-3.1437	-2.9188	244.016	331.496	193.310	292.293	339.718	343.341	349.304	404.894	387.032	201.521	98.837	92.917	212.437	367.062	363.551	109.394	0.00027758	0.00027477	8.657e-05	515.81	2.4055e-06	2.0528e-06	566.29	143.12	2.4128e-06	1.7717e-06	195.24	77.129	51.398	18.273	1.7631e-06	30.944	0.00026906	0.00018608	5.3977e-05	519.79	2.0659e-06	2.0398e-06	571.94	145.61	1.9624e-06	2.1933e-06	198.56	78.715	52.28	18.745	1.8145e-06	31.631	223.324	150.751	180.098	91.899	242.046	246.938	91.858	97.894	248.011	224.817	96.039	101.588	103.005	107.939	247.912	105.255	-8191	255	
1491.288	1	1	0	0	0.18554	0.17617	0.12909	0.31185	0.061371	0.08542	0.36104	0.25855	0.087836	0.17724	0.13937	0.16961	0.077817	0.21705	0.10268	0.36841	-2.6729	-2.8563	-2.7958	-3.0938	-2.7583	-2.8229	-3.1125	-2.7562	-3.0479	-3.0563	-2.7188	-2.9437	-2.8396	-2.6063	-3.0042	-2.7479	258.600	153.444	295.300	388.239	256.254	383.053	79.779	300.286	106.158	266.934	397.222	384.473	82.874	165.054	121.123	437.485	0.00028983	0.00025021	8.3397e-05	514.45	3.3545e-06	2.9535e-06	564.38	142.72	1.4836e-06	2.808e-06	194.82	76.981	50.779	18.066	2.0215e-06	30.764	0.00027753	0.00018267	5.4576e-05	518.81	2.2107e-06	2.18e-06	571.17	144.88	1.9451e-06	2.0863e-06	198.34	78.547	51.863	18.579	1.8591e-06	31.493	222.704	168.707	177.212	92.012	257.704	239.579	91.843	97.736	268.145	215.592	96.169	101.430	102.853	108.242	232.931	105.470	-8191	255	
1491.385	1	1	0	0	0.27305	0.18542	0.24699	0.17122	0.25248	0.055375	0.13009	0.25308	0.33069	0.087322	0.17478	0.13128	0.15525	0.23524	0.20956	0.17111	-2.2646	-2.8958	-2.35	-3.1188	-2.8771	-2.6063	-3.3104	-2.7438	-2.9	-3.0583	-2.7958	-3.0729	-2.8812	-2.7562	-3.0833	-2.8542	278.311	102.191	91.574	105.787	137.078	175.766	364.072	425.446	269.325	412.351	258.620	231.493	391.923	165.642	287.156	334.060	0.00027136	0.00026539	4.3152e-05	509.68	2.679e-06	2.8995e-06	567.47	142.54	1.941e-06	2.6671e-06	193.77	76.764	50.479	17.932	2.7893e-06	30.345	0.00026995	0.00017584	5.4299e-05	514.99	2.1816e-06	2.1942e-06	570.61	144.52	2.0727e-06	1.7964e-06	197.84	78.399	51.619	18.447	2.035e-06	31.126	222.551	161.134	178.386	91.923	252.449	223.172	91.882	97.748	242.406	248.836	96.147	101.587	102.953	108.061	253.827	105.388	-8191	255	
1491.481	1	1	0	0	0.25307	0.16353	0.1165	0.1733	0.10453	0.12242	0.089769	0.1922	0.10047	0.10147	0.17962	0.097406	0.38267	0.015514	0.22162	0.061259	-2.3417	-2.9708	-2.475	-3.0812	-2.7979	-2.5354	-3.0125	-2.6021	-2.6896	-3.0938	-2.6354	-3.0583	-2.9208	-2.7854	-3.225	-2.7854	234.395	217.662	95.777	405.802	83.318	434.647	394.715	210.472	361.217	330.709	419.534	241.352	350.370	98.664	398.943	370.183	0.00027441	0.00026702	6.2049e-05	507.59	2.3925e-06	2.0179e-06	561.54	140.27	2.567e-06	2.9323e-06	192.81	75.992	50.245	17.813	2.4588e-06	30.221	0.0002674	0.00017779	5.2572e-05	511.98	2.0077e-06	1.9868e-06	564.64	143.05	2.1009e-06	1.821e-06	195.95	77.482	51.244	18.343	1.9936e-06	30.919	223.086	163.050	172.900	91.910	258.773	221.548	91.755	97.566	249.577	228.420	96.142	101.602	102.826	108.206	226.678	105.403	-8191	255	
1491.575	1	1	0	0	0.22325	0.13756	0.073324	0.27302	0.084502	0.3223	0.23059	0.22866	0.099603	0.10397	0.23872	0.23806	0.044752	0.18446	0.15325	0.092167	-2.4729	-2.9479	-2.525	-2.9875	-2.9021	-2.6937	-2.9938	-2.8875	-2.5563	-2.8021	-2.6208	-3.1333	-3.0292	-2.5375	-2.8312	-2.8771	124.831	219.486	79.902	420.905	190.879	191.042	396.205	162.969	153.063	252.059	398.484	280.415	113.850	95.438	428.606	391.362	0.0002738	0.00024719	8.4937e-05	504.66	2.8602e-06	2.5903e-06	558.36	140.39	2.5285e-06	2.7681e-06	193.81	76.337	50.343	17.933	3.0353e-06	30.468	0.00027447	0.00017885	5.5912e-05	510.61	2.0047e-06	2.0872e-06	564.21	143.13	2.2278e-06	1.7859e-06	196.43	77.739	51.277	18.398	2.146e-06	31.11	223.564	151.831	151.355	92.098	246.889	240.015	91.822	97.506	261.018	222.172	96.181	101.487	102.783	108.021	249.455	105.567	-8191	255	
1491.671	1	1	0	0	0.18938	0.012529	0.19369	0.050285	0.24517	0.15259	0.11189	0.26932	0.11716	0.19047	0.19391	0.19037	0.0076094	0.19299	0.13789	0.29854	-2.4167	-3.0646	-2.4813	-2.9	-3.0625	-2.7417	-3.1458	-2.8146	-2.5542	-2.9354	-2.8438	-2.7375	-2.9479	-2.7271	-3.0333	-3.0021	263.427	369.510	266.884	372.674	299.413	418.922	92.485	95.789	347.049	435.251	426.788	397.478	164.950	431.021	340.836	262.656	0.00028665	0.00023009	8.0852e-05	507.95	2.1387e-06	2.2628e-06	561.77	140.48	2.1543e-06	1.9517e-06	194.81	76.174	50.583	17.863	3.1578e-06	30.324	0.00027999	0.00016804	5.3424e-05	511.82	1.8442e-06	2.0105e-06	566.12	143.47	2.1117e-06	1.9224e-06	197.47	77.803	51.445	18.411	2.0593e-06	31.142	224.620	174.666	179.907	92.114	256.254	237.266	91.552	98.038	254.666	231.807	96.185	101.496	102.755	108.096	243.824	105.444	-8191	255	
1491.792	1	1	0	0	0.1838	0.23371	0.17903	0.20701	0.12735	0.13287	0.20807	0.12586	0.28792	0.3964	0.16239	0.073601	0.049011	0.13814	0.10961	0.31572	-2.1146	-3.3604	-2.7562	-2.6479	-3.0396	-2.7167	-2.8521	-2.8208	-2.6792	-2.9938	-2.8292	-2.6521	-3.3	-2.8333	-3.1104	-2.8937	244.391	216.710	297.771	416.330	122.575	127.218	368.539	255.213	155.496	244.340	123.116	238.657	179.466	170.849	133.357	427.473	0.00028909	0.00027578	8.2551e-05	507.65	3.0366e-06	2.667e-06	564.56	141.26	2.0344e-06	2.8302e-06	194.93	76.212	50.366	17.692	2.7591e-06	30.015	0.0002805	0.00016958	5.3102e-05	512.88	1.9181e-06	2.0019e-06	569.26	143.79	2.2068e-06	1.9669e-06	197.3	77.456	51.213	18.261	1.9442e-06	30.78	226.064	164.870	173.023	91.939	252.704	237.727	91.641	97.908	250.455	219.955	96.062	101.761	102.766	107.824	237.045	105.968	-8191	255	
1491.888	1	1	0	0	0.16543	0.062915	0.21634	0.09276	0.090494	0.15524	0.33604	0.046339	0.16893	0.15006	0.074741	0.12334	0.024685	0.18135	0.14938	0.05184	-2.0396	-3.125	-2.9333	-2.7479	-3.1104	-2.6271	-2.7313	-2.8271	-2.7208	-3.0083	-2.8	-2.8146	-3.1688	-2.775	-3.0375	-3.1771	219.593	338.192	286.480	125.231	406.984	97.082	374.683	286.950	184.419	123.878	371.622	154.354	110.214	218.448	138.068	166.215	0.00026774	0.00022554	6.5032e-05	507.53	2.3573e-06	2.2681e-06	559.39	141.26	2.2534e-06	1.9726e-06	192.29	75.228	49.922	17.627	2.3765e-06	29.848	0.00027673	0.00017495	5.3217e-05	513.08	1.7665e-06	1.8912e-06	565.16	143.04	2.0735e-06	1.8352e-06	194.75	76.574	50.851	18.077	2.1103e-06	30.578	225.545	169.246	167.676	91.902	250.113	221.961	91.464	97.682	251.257	232.441	96.087	101.355	102.943	107.769	251.754	105.291	-8191	255	
1491.984	1	1	0	0	0.22759	0.26702	0.089587	0.13338	0.11657	0.1255	0.2415	0.2595	0.16888	0.18525	0.023538	0.01671	0.21211	0.21419	0.10774	0.13188	-2.0687	-2.8563	-2.8	-2.6958	-3.2333	-2.8042	-2.9208	-2.9979	-2.3521	-3.0125	-3	-2.7812	-3.0604	-2.6458	-2.6833	-3.0625	296.572	203.243	285.348	376.268	154.909	400.949	98.058	348.588	125.629	165.613	185.972	382.138	408.179	150.162	166.850	170.697	0.00026057	0.00027146	8.5432e-05	505.44	2.3899e-06	2.6634e-06	558.71	141.33	2.015e-06	3.2912e-06	191.97	75.221	49.977	17.667	2.2056e-06	29.971	0.00027049	0.0001734	4.831e-05	513.35	1.9158e-06	1.9963e-06	564.89	143.06	2.1311e-06	1.9318e-06	195.01	76.537	50.835	18.079	2.1744e-06	30.639	223.373	158.920	154.451	92.027	258.675	230.859	91.324	97.627	245.704	237.631	96.212	101.443	102.669	107.832	253.515	105.500	-8191	255	
1492.080	1	1	0	0	0.014227	0.12552	0.13795	0.12527	0.24331	0.27515	0.15017	0.12894	0.25616	0.13349	0.091876	0.40335	0.2028	0.054579	0.20132	0.085594	-2.3646	-3.1271	-3.0042	-2.725	-3.1292	-3.1	-2.7792	-3.1958	-2.6083	-3.0021	-2.9271	-2.6667	-3.2458	-2.875	-2.7417	-3.1208	281.891	217.180	311.150	352.393	354.878	259.506	374.457	438.086	182.367	317.644	117.862	392.273	390.383	272.651	331.602	100.021	0.00026114	0.00024689	7.5934e-05	509.07	3.047e-06	2.5682e-06	559.38	140.33	1.9699e-06	2.3367e-06	191.17	74.993	49.567	17.543	2.4103e-06	30.061	0.00026695	0.00017267	4.8402e-05	513.56	1.8987e-06	1.9896e-06	565.91	142.63	2.1456e-06	1.8722e-06	194.97	76.547	50.502	18.038	2.1241e-06	30.722	224.280	163.481	161.886	91.959	247.767	227.633	91.828	97.513	261.278	234.675	96.355	101.444	103.033	108.073	254.360	105.523	-8191	255	
1492.201	1	1	0	0	0.30943	0.071034	0.10475	0.13726	0.16038	0.093846	0.055108	0.062233	0.30302	0.24771	0.18073	0.38644	0.060377	0.098842	0.18769	0.23752	-2.1833	-2.775	-2.8417	-2.7208	-3.15	-2.9333	-2.8688	-3.1771	-2.4979	-2.8146	-3.1625	-2.7875	-3.3187	-2.7604	-2.6562	-3.0792	387.203	368.796	379.086	155.285	338.198	407.309	433.288	376.079	144.377	126.167	418.681	336.883	317.276	360.253	246.282	253.024	0.00027645	0.00029459	7.8637e-05	510.16	2.7834e-06	2.8913e-06	561.54	139.55	2.5475e-06	2.3633e-06	190.75	74.73	49.589	17.464	2.5704e-06	29.614	0.00027361	0.0001995	4.3288e-05	514.72	1.8964e-06	1.8959e-06	567.29	142.46	2.1463e-06	2.0105e-06	194.22	76.145	50.655	17.917	2.0406e-06	30.279	224.211	167.900	164.690	91.905	253.161	218.582	91.675	97.844	250.268	235.392	96.020	101.350	102.947	108.031	246.586	105.633	-8191	255	
1492.273	1	1	0	0	0.1571	0.16688	0.13378	0.057423	0.085862	0.23422	0.18203	0.034956	0.25787	0.068121	0.029759	0.061913	0.090581	0.13963	0.14974	0.12329	-2.3667	-2.875	-3.1979	-2.8896	-3.0833	-2.975	-2.7167	-3.1167	-2.6708	-2.8	-3.2938	-2.6271	-3.1	-2.8208	-2.5333	-3.0167	397.179	239.934	360.340	217.608	162.242	141.304	120.164	344.802	118.839	427.443	132.333	257.890	360.817	129.575	387.177	128.333	0.00026059	0.00015958	6.9449e-05	511.38	2.8544e-06	3.0585e-06	562.52	139.5	2.5224e-06	2.6698e-06	189.71	74.029	49.312	17.306	2.123e-06	29.508	0.00026039	0.00017478	4.1445e-05	516.01	1.8434e-06	1.7415e-06	566.67	142.39	1.966e-06	2.0635e-06	192.93	75.554	50.305	17.792	2.0042e-06	30.1	223.824	180.347	166.016	92.015	234.452	234.885	91.658	97.661	247.587	237.679	96.116	101.088	102.931	107.720	248.632	105.717	-8191	255	
1492.369	1	1	0	0	0.10978	0.074676	0.19454	0.50903	0.17306	0.20411	0.16253	0.026259	0.25013	0.067416	0.30748	0.37244	0.1811	0.18886	0.11096	0.032646	-2.3937	-2.9208	-3.175	-2.7687	-2.9042	-2.9042	-2.5104	-2.8958	-2.7271	-2.7583	-2.8354	-2.7604	-3.0229	-2.95	-2.5021	-2.9792	140.715	328.415	169.958	378.119	115.679	386.275	154.037	167.280	243.836	97.990	350.477	110.857	82.888	436.758	372.036	123.904	0.0002729	0.00028624	9.274e-05	509.81	3.1625e-06	2.1096e-06	559.38	139.82	2.0947e-06	2.5084e-06	190.11	74.055	49.361	17.368	2.8437e-06	29.825	0.00026437	0.00017478	4.4808e-05	516.39	1.7941e-06	1.84e-06	565.57	142.1	1.8002e-06	1.7281e-06	192.59	75.461	50.174	17.826	1.9799e-06	30.459	222.907	181.612	176.389	91.924	251.181	236.657	91.261	97.967	269.527	236.363	95.919	101.493	102.676	107.861	242.920	105.472	-8191	255	
1492.465	1	1	0	0	0.085583	0.2223	0.06097	0.189	0.15673	0.144	0.3417	0.2163	0.050098	0.19002	0.13072	0.24002	0.030161	0.11128	0.092475	0.13424	-2.4917	-2.7375	-3.0375	-2.9521	-2.7812	-3.0271	-2.7833	-3.1021	-2.8896	-2.5292	-3.1813	-2.7583	-3.0146	-2.9479	-2.5563	-3.0563	232.625	367.113	193.947	104.071	184.737	159.801	429.384	423.719	133.226	83.834	177.042	436.449	137.195	322.779	311.890	106.389	0.00027521	0.00030594	5.4708e-05	513.68	2.8002e-06	2.6016e-06	563.87	140.68	2.3631e-06	2.556e-06	192.83	75.341	49.838	17.729	1.4175e-06	30.491	0.00026273	0.00016999	3.8933e-05	518.33	2.0069e-06	1.7349e-06	570.48	143.23	1.9019e-06	1.7878e-06	194.91	76.755	50.757	18.222	1.8502e-06	31.153	225.309	150.664	182.568	92.194	244.756	238.643	91.718	97.908	270.693	231.809	96.004	101.377	102.742	108.073	254.796	105.439	-8191	255	
1492.584	1	1	0	0	0.069238	0.1128	0.060385	0.25327	0.097067	0.23971	0.31899	0.16803	0.15489	0.20887	0.30841	0.12551	0.086119	0.30516	0.152	0.1316	-2.4354	-2.8	-3.0792	-2.8271	-2.7125	-3.2875	-2.9396	-3.1063	-2.8354	-2.6333	-3.2292	-2.8667	-2.6208	-3.0896	-2.5792	-2.9188	326.530	252.040	377.987	251.699	150.610	269.779	97.611	385.134	404.716	344.650	307.307	111.638	432.086	82.153	336.531	96.074	0.00026595	0.00028173	8.3203e-05	515.84	2.9074e-06	2.9928e-06	567.37	141.87	2.4236e-06	2.9607e-06	193.01	75.199	49.738	17.763	2.686e-06	30.258	0.00025338	0.00017096	4.027e-05	521.17	1.9061e-06	1.4641e-06	572.79	144.22	1.7274e-06	1.7935e-06	195.23	76.682	50.784	18.174	1.8786e-06	30.969	224.531	161.332	184.406	92.026	249.902	229.246	91.208	97.635	246.138	223.579	96.206	101.264	102.722	108.247	254.899	105.501	-8191	255	
1492.680	1	1	0	0	0.13626	0.044125	0.055956	0.25177	0.18123	0.29643	0.083399	0.25272	0.32126	0.037973	0.2246	0.10094	0.19876	0.12154	0.24738	0.28652	-2.7729	-2.6896	-2.9688	-2.7458	-2.9146	-3.3708	-2.8708	-2.8458	-3.2042	-2.9208	-3.0792	-2.8458	-2.6063	-3.3063	-2.8333	-2.9292	266.189	364.548	207.366	340.159	338.659	87.576	272.342	428.350	376.403	327.066	433.959	328.820	138.555	275.925	157.750	404.899	0.0002896	0.00028796	8.0298e-05	515.9	2.7966e-06	2.6753e-06	568.42	141.58	2.2582e-06	2.676e-06	191.74	74.572	50.068	17.717	2.3852e-06	30.081	0.00026416	0.00016332	4.5614e-05	521.1	2.0256e-06	1.5313e-06	571.39	143.88	1.7548e-06	1.784e-06	194.39	76.283	50.826	18.128	1.9628e-06	30.79	223.859	165.292	170.413	91.688	227.222	231.171	91.684	97.593	251.337	235.062	95.980	101.158	103.008	108.050	243.281	105.384	-8191	255	
1492.776	1	1	0	0	0.039888	0.21489	0.094154	0.32552	0.22905	0.15995	0.16396	0.22687	0.10142	0.032471	0.064952	0.1714	0.047757	0.1076	0.043801	0.15557	-2.5187	-2.7646	-2.9833	-2.7104	-2.7792	-3.2833	-2.8583	-2.6937	-2.9708	-2.5958	-3.2042	-2.8708	-2.7375	-3.0229	-2.9542	-2.7687	309.516	122.605	386.225	379.539	288.732	370.093	344.759	347.183	349.628	276.206	341.621	112.009	358.959	179.785	243.505	382.524	0.00025688	0.00028444	7.4212e-05	515.74	2.9873e-06	2.6265e-06	568.17	141.94	2.2487e-06	2.3461e-06	190.35	75.583	49.977	17.681	2.4346e-06	30.206	0.00025263	0.00017121	4.1606e-05	521.09	2.042e-06	1.4953e-06	572.21	144.16	1.7779e-06	1.5832e-06	194.81	76.816	51.098	18.197	1.7667e-06	30.838	222.426	167.607	177.777	92.048	246.094	240.698	91.526	97.451	243.676	224.201	95.833	101.267	102.678	107.835	244.531	105.416	-8191	255	
1492.872	1	1	0	0	0.30498	0.23253	0.10874	0.064082	0.34857	0.082537	0.24984	0.18575	0.065755	0.13053	0.1786	0.28429	0.058061	0.047401	0.097634	0.10799	-2.5604	-2.5208	-3.0854	-3.075	-2.6979	-3.0729	-3.0208	-2.7771	-2.9396	-2.525	-3.0292	-3.0854	-2.5583	-2.975	-2.6125	-2.875	277.339	111.516	264.295	386.364	118.581	294.626	400.917	380.453	291.956	327.610	343.276	438.868	371.166	268.769	319.712	166.013	0.0002862	0.00019434	7.0254e-05	518.2	2.8004e-06	2.4049e-06	570.35	141.99	2.3115e-06	2.4215e-06	193.06	75.035	50.207	17.724	2.2289e-06	30.099	0.00026752	0.00017771	4.1652e-05	521.88	1.9046e-06	1.6326e-06	574.84	144.23	1.7692e-06	2.1308e-06	195.73	76.822	51.091	18.199	1.8875e-06	30.804	223.940	141.346	191.837	91.975	243.666	223.779	91.576	97.780	248.171	241.466	96.147	101.335	102.652	107.947	235.587	105.531	-8191	255	
1492.968	1	1	0	0	0.18971	0.11526	0.19122	0.18858	0.17231	0.23001	0.20067	0.24563	0.39623	0.24271	0.13494	0.082551	0.22477	0.19854	0.14836	0.17924	-2.9083	-2.7667	-2.8	-3.0479	-2.5125	-3.1354	-2.9458	-2.5438	-3.0354	-2.8979	-2.8688	-3.0563	-2.5229	-3.1	-3.1167	-2.7167	171.777	424.246	94.879	137.617	355.940	82.358	178.342	274.129	406.255	192.506	437.230	162.642	384.634	94.717	263.124	342.002	0.00026306	0.00024459	8.3121e-05	514.34	2.6758e-06	3.0209e-06	568.27	140.13	2.3416e-06	2.7016e-06	190.06	73.995	49.451	17.341	3.4561e-06	29.211	0.00025103	0.00016421	5.1558e-05	518.83	2.0002e-06	1.7955e-06	569.99	142.71	1.7945e-06	1.9906e-06	192.81	75.532	50.275	17.766	2.0042e-06	29.86	222.406	155.456	164.544	91.777	242.806	237.916	91.712	97.769	254.453	229.100	95.912	101.244	102.649	107.679	240.654	105.564	-8191	255	
1493.065	1	1	0	0	0.18438	0.054994	0.17597	0.087926	0.054119	0.098389	0.19212	0.16344	0.1089	0.12815	0.11654	0.061046	0.25117	0.059386	0.21333	0.10993	-2.4229	-2.4917	-2.6875	-3.1646	-2.6042	-2.9167	-3.1521	-2.6917	-3.0292	-2.7583	-2.9313	-3.2604	-2.7562	-3.0083	-2.9333	-2.6042	221.824	390.990	220.883	410.051	418.111	297.849	97.883	172.817	431.746	397.240	156.181	143.678	417.329	304.163	344.153	414.400	0.00028056	0.00024047	5.8112e-05	511.18	2.8416e-06	2.6444e-06	561.82	139.56	1.935e-06	1.7116e-06	188.27	73.273	48.761	17.083	2.6211e-06	29.055	0.00026119	0.00018714	4.907e-05	514.68	2.0584e-06	1.7965e-06	564.64	141.65	1.8204e-06	1.9186e-06	191.09	74.812	49.981	17.593	1.8478e-06	29.656	223.972	163.478	173.661	91.684	249.679	237.219	91.464	97.643	258.058	221.279	96.013	101.487	102.436	108.198	253.030	105.446	-8191	255	
1493.161	1	1	0	0	0.25534	0.32356	0.14808	0.11463	0.024677	0.36513	0.18521	0.14833	0.13537	0.055703	0.073384	0.14898	0.04833	0.21744	0.049157	0.098172	-2.7521	-2.7521	-2.8542	-2.9688	-2.8021	-3.0208	-2.9958	-2.5458	-3.1583	-3.0062	-2.925	-3.1417	-2.6479	-2.7375	-3.1354	-2.7062	207.765	229.639	150.383	430.567	382.561	407.407	125.415	386.390	91.460	306.706	139.631	360.988	326.591	95.760	81.719	234.385	0.00026694	0.00017155	6.7075e-05	509.94	2.6603e-06	2.1767e-06	558.99	139.27	2.2435e-06	2.7267e-06	189.4	73.494	48.942	17.179	2.644e-06	28.929	0.00026202	0.00016275	5.0314e-05	515.46	1.8994e-06	1.7851e-06	566.07	141.48	1.9055e-06	1.9963e-06	191.66	74.961	50.129	17.684	1.8802e-06	29.727	221.061	186.222	174.787	91.911	243.555	249.012	91.258	97.632	251.155	223.496	95.827	101.317	103.040	108.070	250.109	105.366	-8191	255	
1493.281	1	1	0	0	0.16319	0.14221	0.17159	0.24103	0.15591	0.0085731	0.27082	0.090701	0.1391	0.06516	0.2186	0.090406	0.19502	0.10097	0.22919	0.077518	-2.35	-2.975	-2.5271	-2.9854	-2.9458	-2.9646	-3.1292	-2.5146	-2.9583	-2.9437	-2.5604	-3.1333	-2.8729	-2.85	-3.1479	-2.5812	412.007	174.895	246.585	334.709	311.407	423.348	206.862	178.354	181.596	369.993	374.775	355.371	317.881	231.117	287.346	426.551	0.00026147	0.00030678	5.8815e-05	509.41	3.1548e-06	2.6827e-06	562.38	139.96	2.5583e-06	2.5388e-06	190.24	73.871	49.064	17.303	2.7383e-06	29.253	0.00025759	0.00016153	5.0014e-05	515.65	2.0047e-06	1.9868e-06	567.56	142.07	2.0381e-06	1.8077e-06	192.82	75.508	50.163	17.749	1.7562e-06	30.013	225.261	161.540	178.206	91.783	246.576	238.313	91.704	97.742	258.047	229.300	95.798	101.516	102.710	108.115	257.350	105.292	-8191	255	
1493.377	1	1	0	0	0.026928	0.13639	0.051589	0.23576	0.088824	0.30358	0.093313	0.1323	0.32906	0.32517	0.26004	0.15688	0.092057	0.21503	0.17854	0.31014	-2.5438	-2.9938	-2.5854	-3.1562	-2.8438	-2.8521	-3.1688	-2.6646	-2.8521	-3.075	-2.5271	-3.0563	-2.6729	-2.75	-3.1312	-2.7229	104.623	219.537	170.830	89.563	247.129	125.381	333.690	378.657	317.189	250.595	437.840	141.939	136.534	183.769	264.291	410.957	0.00026188	0.00030018	6.2133e-05	512.54	3.0815e-06	2.6302e-06	561.26	139.87	2.477e-06	3.0435e-06	190.11	73.488	49.204	17.306	2.6929e-06	29.298	0.00026006	0.00017088	4.8471e-05	516.84	2.1712e-06	1.8211e-06	566.52	142.42	1.9855e-06	1.7736e-06	192.31	75.101	50.136	17.739	1.8777e-06	29.873	224.867	149.391	171.853	91.849	244.696	222.008	91.699	97.738	255.567	239.161	95.918	101.425	102.559	108.276	237.640	105.135	-8191	255	
1493.474	1	1	0	0	0.17997	0.20801	0.22718	0.18658	0.19931	0.23718	0.14664	0.092821	0.098429	0.10689	0.33064	0.20561	0.093587	0.0085467	0.28053	0.10286	-2.2583	-2.9437	-2.4667	-3.1813	-2.7917	-2.7167	-3.1604	-2.8979	-2.8688	-2.8625	-2.6083	-2.9917	-3.1083	-2.6667	-3.1875	-2.8312	311.466	96.444	131.525	355.778	139.433	137.483	147.119	363.487	120.296	372.347	401.423	123.976	372.034	408.007	124.297	246.588	0.00026318	0.00025618	6.4459e-05	509.01	2.7747e-06	2.8139e-06	560.4	140.15	2.1257e-06	3.1004e-06	189.54	73.743	49.243	17.28	2.8642e-06	29.216	0.00026556	0.00019332	5.1305e-05	514.7	2.0121e-06	2.019e-06	565.05	142.11	2.0367e-06	1.7518e-06	192.25	75.115	50.153	17.749	1.744e-06	29.824	223.146	160.516	164.179	91.818	238.525	239.180	91.644	97.693	249.233	235.927	95.747	101.326	103.053	108.194	237.120	105.412	-8191	255	
1493.570	1	1	0	0	0.13359	0.27054	0.21283	0.14845	0.14661	0.22874	0.12054	0.18502	0.21108	0.15266	0.13212	0.093167	0.030088	0.043064	0.17265	0.18877	-2.2104	-3.0125	-2.7167	-3.0125	-3.0729	-2.5292	-3.2354	-2.85	-2.7458	-3.1688	-2.7812	-2.9083	-2.8646	-2.5563	-3.1042	-2.9396	385.666	438.520	397.429	358.198	210.604	235.367	310.222	396.663	342.179	357.798	290.170	278.212	235.350	163.491	226.076	356.701	0.00025727	0.0002724	5.1195e-05	510.38	2.634e-06	2.6433e-06	564.69	139.77	2.2606e-06	2.1928e-06	189.55	73.565	49.444	17.304	1.581e-06	29.23	0.00026395	0.00016031	4.9208e-05	517.29	1.9345e-06	1.8893e-06	568.46	142.4	2.1521e-06	1.766e-06	192.64	75.159	50.333	17.712	1.8656e-06	29.946	223.673	168.576	176.792	91.875	255.412	226.508	91.795	97.569	257.899	215.730	95.936	101.409	102.821	108.152	241.940	105.355	-8191	255	
1493.664	1	1	0	0	0.13093	0.26347	0.17893	0.080708	0.12793	0.26181	0.020276	0.16193	0.22956	0.21783	0.028667	0.18289	0.083234	0.068954	0.041453	0.22769	-2.0771	-3.1042	-2.7333	-3.0458	-2.9375	-2.6104	-3.1354	-2.7542	-2.6646	-3.0438	-2.8521	-2.9042	-2.9771	-2.6042	-3.0958	-2.9542	295.277	87.240	209.633	99.211	85.810	395.654	354.326	276.081	423.755	279.925	397.327	383.207	410.607	101.614	237.546	129.751	0.00026595	0.00024483	7.0529e-05	517.55	3.3412e-06	2.6426e-06	564.87	140.8	1.8994e-06	2.831e-06	189.43	73.52	49.335	17.146	2.6252e-06	29.029	0.00027078	0.00016178	5.0637e-05	519.81	1.9965e-06	2.072e-06	569.33	142.81	1.9206e-06	1.6429e-06	192.62	75.081	50.167	17.602	1.9807e-06	29.646	224.131	157.854	172.388	91.756	251.747	241.861	91.546	97.943	256.878	238.228	96.210	101.142	102.676	107.793	237.319	105.368	-8191	255	
1493.760	1	1	0	0	0.26191	0.28112	0.17885	0.21326	0.034981	0.13581	0.18387	0.20712	0.053193	0.088693	0.2975	0.046111	0.070669	0.16262	0.21614	0.068773	-2.2	-3.0604	-2.5833	-2.9062	-2.9792	-2.6875	-2.8958	-2.9292	-2.6354	-3.0729	-2.7438	-2.7271	-3.0229	-2.4667	-2.8208	-2.9979	383.561	155.529	90.763	96.167	388.846	192.414	348.886	311.644	287.218	257.327	435.395	427.923	106.845	84.600	344.465	169.268	0.00026477	0.00023037	6.5659e-05	514.53	2.8836e-06	1.868e-06	562.32	139.7	1.8306e-06	2.487e-06	188.71	73.272	49.074	16.929	2.5857e-06	28.57	0.00025857	0.00016804	4.9277e-05	518.97	1.8695e-06	1.8447e-06	567.01	142.24	1.9423e-06	1.9366e-06	191.01	74.337	49.957	17.424	2.0536e-06	29.251	224.500	167.043	155.891	91.816	238.604	226.633	91.514	97.565	245.971	222.488	96.189	101.157	102.681	108.154	251.408	105.316	-8191	255	
1493.881	1	1	0	0	0.17515	0.39524	0.083868	0.047018	0.21004	0.17673	0.293	0.21778	0.092562	0.1755	0.11675	0.25629	0.063021	0.22509	0.027261	0.037375	-2.2062	-3.2479	-2.7438	-2.825	-3.1354	-2.6521	-2.975	-3.0833	-2.675	-2.9562	-2.6688	-2.6125	-3.0729	-2.7	-2.8229	-2.9437	198.143	141.688	125.636	368.691	256.018	353.366	427.130	174.338	124.123	314.825	393.982	321.302	117.295	409.764	117.539	153.146	0.00025878	0.00022685	8.1152e-05	514.62	3.3252e-06	2.8718e-06	564.55	139.95	2.254e-06	2.5258e-06	187.68	73.257	49.306	17.03	2.5991e-06	28.783	0.00026481	0.00017186	5.0775e-05	518.99	1.9382e-06	1.9025e-06	567.69	142.27	2.0374e-06	1.9167e-06	191.2	74.583	50.147	17.496	1.958e-06	29.337	223.377	174.192	182.496	91.771	238.343	213.386	91.618	97.343	264.477	235.083	95.824	101.735	102.698	107.872	233.487	105.454	-8191	255	
1493.977	1	1	0	0	0.13795	0.13291	0.1307	0.32281	0.077579	0.32283	0.084056	0.29793	0.18428	0.23639	0.12768	0.12983	0.34963	0.16265	0.22912	0.20651	-1.95	-3.0979	-2.8312	-2.6937	-3.1125	-2.325	-2.7521	-3.1708	-2.5021	-2.7771	-2.8896	-2.7792	-3.0979	-2.7021	-2.625	-3.2042	192.497	392.073	242.637	102.431	328.344	408.478	168.617	353.648	140.307	222.131	413.797	432.593	92.119	111.965	352.816	418.068	0.00023236	0.00031855	6.4594e-05	517.87	2.193e-06	2.9034e-06	565.12	141.28	2.078e-06	1.5567e-06	189.24	72.928	49.371	16.995	2.3199e-06	28.301	0.00024934	0.00018787	5.1443e-05	522.7	1.9151e-06	2.1932e-06	571.23	143.16	2.2148e-06	1.9423e-06	191.91	74.713	50.3	17.421	2.1606e-06	29.052	223.602	179.346	173.568	92.017	263.063	207.930	91.881	97.528	269.634	221.147	95.881	101.300	102.703	108.053	263.839	105.590	-8191	255	
1494.073	1	1	0	0	0.27295	0.16408	0.035362	0.0098353	0.37283	0.02735	0.18648	0.38751	0.10127	0.23623	0.068238	0.28615	0.36685	0.16341	0.045286	0.0522	-2.2562	-2.9833	-2.9229	-2.8271	-3.1	-2.8292	-2.7229	-3.0375	-2.7562	-2.9208	-2.7958	-2.5271	-3.1188	-2.9042	-2.6104	-2.925	358.134	111.925	383.447	115.435	404.888	281.488	128.503	372.375	281.847	200.447	421.243	80.762	406.722	353.948	183.310	172.927	0.00027512	0.00035135	9.2988e-05	514.01	2.2715e-06	2.2902e-06	565.83	139.83	2.1887e-06	1.4933e-06	188.07	73.269	49.063	16.857	2.6669e-06	27.946	0.00027322	0.0001847	5.5428e-05	520.01	1.8964e-06	2.0929e-06	569.27	142.05	2.1485e-06	1.8286e-06	190.79	74.627	50.198	17.284	2.1865e-06	28.744	223.291	155.404	171.911	91.856	252.712	229.365	91.554	97.904	258.930	243.440	95.947	101.311	102.578	107.776	251.759	105.223	-8191	255	
1494.145	1	1	0	0	0.10551	0.21927	0.034825	0.21206	0.1452	0.12423	0.26641	0.039256	0.05602	0.11139	0.23395	0.25292	0.14729	0.093353	0.16363	0.084761	-2.3958	-2.8792	-2.9833	-2.5458	-3.1458	-2.75	-2.7021	-3.1042	-2.8021	-3.0187	-3.0146	-2.6583	-3.05	-2.9583	-2.4104	-3.2208	184.908	153.685	176.962	369.247	403.341	188.870	412.843	254.724	227.083	362.385	370.877	396.534	363.947	436.063	310.160	249.199	0.00025424	0.0002309	4.5215e-05	513.41	2.6559e-06	2.6846e-06	559.75	139.11	2.1949e-06	1.9958e-06	187.55	72.704	49.208	16.769	2.4453e-06	28.062	0.00026559	0.00017942	4.8817e-05	518.63	2.1055e-06	1.7908e-06	565.87	141.54	2.0208e-06	1.8191e-06	190.05	74.279	50.186	17.281	2.1922e-06	28.742	223.557	159.053	180.307	91.927	253.304	223.272	91.501	97.550	255.607	231.358	96.017	101.404	102.670	107.641	224.870	105.079	-8191	255	
1494.241	1	1	0	0	0.36046	0.21906	0.042632	0.32597	0.19817	0.20798	0.18372	0.16123	0.22049	0.076035	0.16608	0.13997	0.14648	0.15531	0.19883	0.084567	-2.0854	-2.6771	-3.1708	-2.7146	-3.0375	-3.1083	-2.8604	-3.2958	-2.6417	-2.8104	-3.0646	-2.7938	-2.8937	-2.9375	-2.7146	-3.1729	406.537	117.623	415.961	370.007	226.525	100.667	144.280	317.967	351.237	149.807	214.592	356.612	147.686	386.139	338.484	159.093	0.00025527	0.00032845	8.321e-05	516.88	3.3607e-06	2.4782e-06	565.52	140.18	2.3335e-06	2.9122e-06	188.18	73.79	50.449	17.062	2.9425e-06	28.358	0.00026021	0.00019641	5.1028e-05	520.99	2.1174e-06	2.0578e-06	569.22	142.39	2.0994e-06	2.2028e-06	190.78	75.233	51.257	17.501	2.176e-06	28.98	224.072	164.722	167.852	91.856	248.099	218.485	91.577	97.647	242.957	232.905	96.013	101.311	102.700	107.455	249.180	105.619	-8191	255	
1494.362	1	1	0	0	0.2019	0.089409	0.26642	0.16948	0.21224	0.20361	0.069943	0.23566	0.16475	0.026893	0.12009	0.13319	0.16624	0.22727	0.14257	0.19971	-2.1854	-2.8063	-3.0875	-2.6833	-2.8375	-3.0583	-2.7542	-3.1958	-3.0354	-2.7583	-3.1125	-2.7938	-2.975	-3.0521	-2.5292	-3.1083	110.341	220.610	174.574	386.138	335.888	174.871	215.973	323.802	208.368	84.201	401.641	423.401	134.843	403.507	234.133	391.755	0.00025535	0.0002891	8.1431e-05	521.87	3.126e-06	3.461e-06	564.17	140.62	2.3428e-06	1.7664e-06	189.01	74.864	50.576	17.088	2.6308e-06	28.459	0.00026535	0.0001934	5.195e-05	525.24	2.2346e-06	1.9603e-06	570.78	143.05	2.1239e-06	2.1213e-06	191.31	75.769	51.512	17.629	2.1363e-06	29.12	222.886	165.968	176.747	91.896	247.615	232.892	91.403	97.630	261.205	228.847	95.524	101.151	102.833	107.593	249.246	105.468	-8191	255	
1494.458	1	1	0	0	0.19303	0.16126	0.0087507	0.18484	0.16353	0.18298	0.31753	0.080229	0.075543	0.14727	0.04993	0.095391	0.30477	0.040531	0.27131	0.20349	-2.3667	-2.4688	-3.1917	-2.7938	-2.9021	-3.0792	-2.6625	-3.0021	-2.6604	-2.7062	-3.1521	-2.8229	-2.8396	-3.0354	-2.7708	-3.1354	406.797	94.677	181.452	437.845	374.229	258.722	369.424	288.648	148.504	391.583	431.073	181.973	392.068	238.679	429.396	382.116	0.00026897	0.00024839	5.7591e-05	521.51	3.1806e-06	2.6147e-06	567.53	140.46	1.9697e-06	2.4001e-06	187.39	73.903	50.468	17.033	2.7374e-06	28.105	0.00026933	0.00020665	4.9462e-05	526.5	2.1137e-06	2.0645e-06	571.7	143.02	1.9307e-06	2.056e-06	190.37	75.337	51.53	17.507	2.1565e-06	28.84	224.159	181.620	166.504	91.731	247.491	238.186	91.706	97.697	252.368	242.798	95.643	100.907	102.860	107.547	252.453	105.525	-8191	255	
1494.554	1	1	0	0	0.018214	0.17864	0.16885	0.15892	0.15424	0.39948	0.17054	0.25564	0.051335	0.36535	0.052442	0.11012	0.22084	0.18172	0.29116	0.2458	-2.5083	-2.4521	-3.1937	-2.8833	-2.6792	-3.0417	-2.6917	-3.1292	-2.9458	-2.5833	-3.3042	-2.8875	-2.6125	-3.0646	-2.7104	-2.9646	198.966	277.886	274.396	403.170	387.701	102.225	334.294	413.677	290.096	412.591	424.628	132.512	139.277	344.261	290.167	413.965	0.00024586	0.00016358	7.58e-05	518.51	1.806e-06	2.6891e-06	566.27	140.94	2.1988e-06	2.9097e-06	187.58	74.15	50.924	17.129	2.2683e-06	28.663	0.00024675	0.00019559	4.7365e-05	524.2	2.051e-06	1.9404e-06	568.75	142.96	2.0929e-06	2.0152e-06	190.63	75.676	51.808	17.687	2.2278e-06	29.281	223.177	154.510	169.022	91.941	251.359	209.769	91.686	97.716	253.255	235.590	95.898	101.427	102.895	107.899	241.610	105.445	-8191	255	
1494.673	1	1	0	0	0.12924	0.16984	0.12064	0.25791	0.11804	0.20977	0.23725	0.31077	0.10642	0.14576	0.33715	0.028826	0.24612	0.16667	0.19961	0.20397	-2.4708	-2.7167	-3.0229	-2.7333	-2.6646	-3.0875	-2.7375	-2.9562	-3.0312	-2.8438	-3.05	-3.0333	-2.7	-3.2958	-2.6979	-2.9354	362.231	238.842	387.606	323.313	190.477	271.892	345.806	336.700	273.152	195.404	382.625	81.489	339.062	192.961	252.332	104.118	0.00026137	0.00026343	8.2624e-05	520.78	2.7329e-06	1.767e-06	568.83	141.41	2.427e-06	3.2255e-06	189.56	75.012	51.127	17.461	3.4965e-06	29.012	0.00026669	0.00018706	5.1397e-05	526.55	2.1212e-06	1.751e-06	574.24	143.7	2.0987e-06	2.1554e-06	192.17	76.47	52.092	17.936	2.2246e-06	29.603	226.466	157.738	167.551	92.087	250.321	229.664	91.607	97.587	259.650	220.673	96.177	101.254	102.969	108.043	258.415	105.252	-8191	255	
1494.745	1	1	0	0	0.083268	0.19228	0.37052	0.25744	0.13533	0.24455	0.14052	0.27293	0.058501	0.32481	0.17579	0.064348	0.30649	0.127	0.17298	0.19416	-2.5854	-2.5854	-3	-2.8833	-2.7875	-3.0229	-3.0375	-2.9417	-3.1083	-2.5771	-3.1354	-3.1021	-2.8104	-2.9375	-2.7646	-2.9833	150.495	91.007	261.674	378.488	354.187	122.486	431.837	283.203	199.268	168.893	311.898	101.793	133.233	344.103	416.224	169.387	0.00027136	0.00026905	7.5264e-05	524.46	2.84e-06	2.3635e-06	571.91	141.84	2.2387e-06	2.5623e-06	189.97	75.021	50.853	17.361	2.7741e-06	28.822	0.00025878	0.00019527	5.4737e-05	528.77	2.21e-06	1.8173e-06	575.5	143.69	1.956e-06	2.0219e-06	192.59	76.45	51.763	17.899	2.3073e-06	29.417	224.065	176.571	166.610	91.879	254.201	218.390	91.729	97.731	233.794	222.704	96.121	101.324	102.515	107.648	242.027	105.257	-8191	255	
1494.842	1	1	0	0	0.081076	0.062949	0.052516	0.098641	0.063913	0.14885	0.17002	0.13014	0.11003	0.093897	0.10988	0.099361	0.017636	0.13991	0.13628	0.17887	-2.6437	-2.6292	-2.9896	-3.1958	-2.7229	-3.1312	-2.7792	-2.8	-3.2604	-2.75	-2.8458	-3.2417	-2.7792	-2.8125	-2.8937	-2.6875	373.239	318.798	229.225	82.046	95.372	351.042	366.742	86.131	87.834	112.665	151.926	193.558	249.226	159.837	325.897	246.003	0.00025367	0.00032781	3.9464e-05	521.14	3.0426e-06	2.8965e-06	568.29	140.24	2.3841e-06	2.1035e-06	189.79	74.482	50.531	17.276	2.9342e-06	28.554	0.00025243	0.00018454	4.8517e-05	526.22	2.2115e-06	1.9906e-06	572.83	142.97	1.8183e-06	2.0531e-06	191.44	75.676	51.335	17.741	2.0495e-06	29.176	226.069	157.055	186.944	91.751	248.111	244.536	91.532	97.501	258.107	228.813	96.120	101.141	102.872	108.252	249.997	105.675	-8191	255	
1494.961	1	1	0	0	0.20865	0.13074	0.12539	0.084313	0.18936	0.16028	0.17114	0.15169	0.029461	0.082168	0.40399	0.16334	0.18273	0.21481	0.39169	0.25663	-2.8229	-2.6208	-2.7667	-2.9208	-2.6479	-3.1896	-2.9917	-2.6729	-2.95	-2.7708	-2.925	-2.9958	-2.6583	-2.9125	-3.1271	-2.7417	79.862	159.210	101.988	355.084	337.426	288.247	327.019	114.189	301.355	381.764	122.936	342.650	111.013	435.685	332.378	317.996	0.00025504	0.00034846	7.6855e-05	515.21	1.6766e-06	3.0795e-06	567.53	140.82	2.5395e-06	2.076e-06	190.72	74.579	50.769	17.577	2.9027e-06	29.091	0.00025857	0.00018974	4.8125e-05	523.19	2.1779e-06	1.7018e-06	572.56	143.19	1.9588e-06	2.0389e-06	192.72	76.11	51.679	17.986	2.1679e-06	29.772	221.075	159.715	177.506	91.929	261.369	239.065	91.197	97.719	248.221	237.178	96.077	101.045	102.641	108.426	242.685	105.377	-8191	255	
1495.057	1	1	0	0	0.20105	0.22455	0.10224	0.22941	0.25544	0.17358	0.11147	0.17467	0.17436	0.18384	0.25125	0.12023	0.21565	0.063979	0.19085	0.11967	-2.7104	-2.8354	-2.7042	-3.0521	-2.6917	-2.9625	-2.9417	-2.7792	-3.0062	-2.8125	-2.8	-3.0333	-2.7687	-2.8896	-2.8438	-2.7917	397.103	160.795	369.791	426.819	335.854	168.399	334.441	359.298	368.393	306.393	336.887	402.607	417.792	248.813	235.135	375.590	0.0002758	0.00019787	7.5344e-05	523.67	2.4465e-06	2.6594e-06	573	143.31	2.68e-06	2.4842e-06	192.72	75.998	51.333	17.848	2.2547e-06	29.442	0.00026936	0.00020161	5.4115e-05	529.5	2.1533e-06	2.1866e-06	578.45	145.19	2.0389e-06	1.9347e-06	194.81	77.498	52.454	18.33	2.0374e-06	30.299	223.478	160.598	170.953	92.071	240.518	220.533	91.645	97.765	248.964	248.905	96.395	101.279	102.934	107.894	250.558	105.457	-8191	255	
1495.154	1	1	0	0	0.19159	0.18535	0.16163	0.060669	0.038045	0.18446	0.0078388	0.092439	0.2418	0.20862	0.1474	0.20162	0.25881	0.099805	0.33858	0.042537	-2.8146	-2.8854	-2.65	-3.1604	-2.7583	-2.9417	-3.0771	-2.6667	-2.875	-2.7812	-2.6271	-3.2271	-2.6813	-2.9562	-3.1063	-2.6875	323.431	236.555	289.140	232.761	209.509	89.119	101.014	396.123	119.013	408.470	93.823	224.293	388.365	135.790	204.195	194.772	0.00028371	0.00030542	8.5381e-05	522.42	2.6382e-06	2.8922e-06	572.03	142.78	2.4104e-06	2.1968e-06	192.62	75.891	51.469	17.828	2.9021e-06	29.601	0.0002772	0.00018454	5.3125e-05	526.69	2.2167e-06	1.8533e-06	576.41	145.07	2.1074e-06	2.0901e-06	195.25	77.521	52.313	18.359	1.8777e-06	30.292	224.864	164.822	153.972	92.013	246.824	237.607	91.597	97.648	244.430	219.760	96.096	101.293	102.650	107.731	253.194	105.385	-8191	255	
1495.274	1	1	0	0	0.27877	0.16335	0.1568	0.13767	0.050683	0.095373	0.072365	0.29911	0.066955	0.26719	0.12963	0.12345	0.36515	0.081606	0.051149	0.22872	-2.7771	-2.8729	-2.5792	-3.0521	-2.8792	-3.0708	-3.1792	-2.6979	-2.9125	-2.8521	-2.8083	-3.0896	-2.8271	-2.7042	-2.8667	-2.8542	210.404	356.824	266.880	99.760	234.126	359.196	350.121	377.629	281.094	169.355	87.403	182.361	114.824	97.431	224.367	190.671	0.00028452	0.00022779	8.226e-05	518.37	2.7726e-06	2.956e-06	567.11	142.22	2.2999e-06	2.5765e-06	191.41	76.041	51.147	17.742	2.9005e-06	29.458	0.00027735	0.0001899	5.476e-05	524.02	2.1294e-06	2.0152e-06	572.6	144.36	2.0663e-06	1.8665e-06	194.24	77.185	52.008	18.303	1.9118e-06	30.255	222.845	164.822	162.290	92.157	234.048	236.978	91.621	97.872	243.247	229.731	95.800	101.274	102.594	107.972	241.219	105.125	-8191	255	
1495.370	1	1	0	0	0.32828	0.2021	0.0994	0.36914	0.1115	0.22963	0.096344	0.21389	0.082982	0.169	0.15553	0.19912	0.13328	0.25237	0.15395	0.030961	-2.6833	-3.0542	-2.7562	-3.2354	-2.7687	-2.9104	-3.0979	-2.5917	-2.9479	-2.9396	-2.7042	-2.9729	-3.0896	-2.8875	-3.2292	-2.7708	325.406	337.161	304.501	117.416	216.257	383.329	339.311	365.536	81.958	208.922	406.964	370.584	129.064	382.986	300.767	255.033	0.00027034	0.00015609	7.498e-05	516.04	2.7775e-06	3.3458e-06	568.77	142.2	2.7154e-06	2.4807e-06	192.68	76.316	50.869	18.053	2.3521e-06	30.026	0.0002671	0.00016771	5.4369e-05	521.05	1.9412e-06	1.9262e-06	573.26	144.52	2.1506e-06	1.8134e-06	195.8	77.787	51.976	18.543	2.0901e-06	30.879	225.342	154.935	160.270	91.946	255.535	221.196	91.850	97.414	253.635	231.779	95.780	101.657	102.895	107.895	241.903	105.342	-8191	255	
1495.442	1	1	0	0	0.1001	0.25064	0.13812	0.081158	0.09243	0.10166	0.13867	0.30542	0.29427	0.14161	0.11954	0.098572	0.3455	0.13421	0.1459	0.21082	-2.5792	-3.0896	-2.5542	-3.0438	-2.6604	-2.6188	-3.1937	-2.8042	-3.0417	-3.1479	-2.6833	-3.0146	-2.5187	-2.65	-2.9896	-2.8021	306.387	411.235	80.081	424.577	109.585	411.618	396.943	343.352	271.927	400.865	378.807	228.360	432.961	428.549	281.904	338.226	0.00026206	0.00027504	7.5149e-05	513.39	2.7514e-06	2.5398e-06	572.08	142.08	2.5398e-06	2.4016e-06	194.93	76.996	51.365	18.077	2.0438e-06	30.429	0.0002652	0.00017047	5.1351e-05	519.49	2.0883e-06	1.9821e-06	574.72	144.76	2.0814e-06	1.8703e-06	197.67	78.388	52.082	18.633	1.8486e-06	31.156	224.220	150.803	171.073	91.785	248.124	233.555	91.893	97.671	256.512	217.942	96.040	101.363	102.528	108.050	248.503	105.160	-8191	255	
1495.538	1	1	0	0	0.050043	0.26689	0.15063	0.20106	0.26259	0.23516	0.23636	0.15257	0.013703	0.23603	0.12015	0.13489	0.15525	0.24127	0.20602	0.16706	-2.3688	-3.1937	-2.6583	-3.1562	-3.0646	-2.8688	-3.1708	-2.7333	-2.75	-3.1813	-2.7438	-3.1479	-2.9833	-2.6771	-3.0625	-2.7938	385.178	147.906	120.636	394.215	111.948	354.146	384.714	412.429	87.315	368.144	275.137	267.270	109.031	188.082	82.719	157.691	0.00028175	0.00028037	7.6971e-05	512.92	3.2988e-06	3.2037e-06	565.73	142.17	2.5381e-06	2.3103e-06	194.53	76.436	50.767	17.989	3.0338e-06	30.224	0.00027788	0.00017291	5.8723e-05	517.16	2.0002e-06	2.0502e-06	570.65	144.22	2.1247e-06	1.9281e-06	196.75	77.89	51.751	18.493	1.9491e-06	30.977	223.300	152.530	178.872	92.061	238.811	230.188	91.800	97.730	247.268	244.292	96.069	101.451	102.845	108.062	246.835	105.491	-8191	255	
1495.657	1	1	0	0	0.27924	0.16877	0.16241	0.14475	0.095535	0.31077	0.015206	0.11105	0.11181	0.12826	0.39952	0.27347	0.1637	0.094016	0.046576	0.22579	-2.4375	-3.2104	-2.8063	-3.0104	-2.8604	-2.5187	-2.9771	-2.7896	-2.5896	-3.0958	-2.5271	-2.7208	-3.0104	-2.8854	-3.2854	-2.8187	204.296	411.529	312.453	402.878	182.239	165.310	315.200	230.651	385.098	229.416	399.310	414.156	423.751	83.855	331.200	318.831	0.0002724	0.00027354	9.2102e-05	510.12	2.5633e-06	2.6643e-06	563.8	142.04	2.3902e-06	2.4876e-06	192.72	76.117	50.782	18.017	3.0714e-06	30.143	0.000266	0.00016381	5.5797e-05	514.04	2.1256e-06	2.0048e-06	568.62	144.06	2.1311e-06	1.9726e-06	196.07	77.689	51.674	18.484	1.8931e-06	30.956	222.659	174.569	175.227	91.814	253.751	244.241	91.759	97.572	264.808	229.014	96.025	101.580	102.891	107.936	246.355	105.649	-8191	255	
1495.753	1	1	0	0	0.092629	0.24163	0.11576	0.079518	0.038549	0.31939	0.088533	0.15223	0.12163	0.16069	0.20994	0.24617	0.059412	0.21664	0.18951	0.15262	-2.3708	-3.1292	-2.725	-2.9208	-3.1333	-2.4646	-3.0771	-2.9437	-2.7729	-3.1208	-3.0229	-3.1562	-3.2625	-2.7208	-2.9625	-3.1625	160.615	163.236	378.017	252.099	96.349	94.545	322.020	329.365	299.986	286.518	413.491	421.551	345.431	347.734	389.762	117.753	0.00027711	0.00026516	8.255e-05	509.09	2.388e-06	3.374e-06	563.85	141.37	2.0591e-06	2.5953e-06	192.81	75.71	50.28	17.695	2.8687e-06	29.889	0.00027346	0.00017519	5.552e-05	513.92	2.0069e-06	2.1222e-06	568.4	143.52	2.1506e-06	1.6523e-06	195.56	77.121	51.214	18.262	2.1168e-06	30.701	225.649	159.595	169.737	91.943	250.005	232.955	91.516	97.484	260.396	232.506	96.224	101.455	103.078	108.240	245.023	105.628	-8191	255	
1495.849	1	1	0	0	0.21966	0.26551	0.091779	0.12057	0.20648	0.086759	0.32314	0.15064	0.25573	0.26495	0.26536	0.11303	0.14877	0.029961	0.21502	0.027138	-2.2021	-3.3063	-2.9208	-2.8979	-3.0812	-2.6021	-3.1542	-3.1021	-2.8958	-3.0917	-2.6917	-2.7271	-3.2104	-2.7438	-2.9479	-3.125	252.481	110.620	416.205	403.023	267.916	204.048	327.063	92.196	427.825	323.002	414.191	320.718	217.696	110.136	170.081	323.275	0.00026832	0.00017824	5.7748e-05	507.87	2.1015e-06	2.9091e-06	563.95	140.75	2.0389e-06	2.8135e-06	191.97	75.077	49.958	17.564	2.3689e-06	29.597	0.00027622	0.00016421	5.0913e-05	513.14	1.8867e-06	2.0862e-06	567.97	142.81	1.961e-06	1.8295e-06	194.58	76.613	50.953	18.073	1.9466e-06	30.287	224.696	163.532	165.398	92.078	249.517	229.230	91.685	97.592	251.160	234.267	96.220	101.480	102.750	108.082	251.959	105.416	-8191	255	
1495.946	1	1	0	0	0.38504	0.076568	0.058853	0.15393	0.044814	0.059601	0.11927	0.31398	0.2064	0.17494	0.049945	0.16152	0.124	0.23482	0.11159	0.2899	-2.0146	-2.9104	-2.8021	-2.8479	-3.2583	-2.8583	-2.7542	-2.925	-2.6	-3.0292	-3.0854	-2.8083	-3.1583	-2.5167	-2.7438	-2.8917	303.177	205.062	124.759	315.256	379.642	88.027	113.746	164.537	162.330	222.840	392.350	320.230	392.449	223.275	238.621	278.969	0.00025936	0.00027015	7.6375e-05	504.46	3.7272e-06	2.2832e-06	562.3	140.23	2.5123e-06	2.8901e-06	190.02	74.948	49.845	17.491	2.8218e-06	29.172	0.00026666	0.00016885	5.1189e-05	509.66	1.871e-06	2.0919e-06	565.6	142.3	2.023e-06	2.0493e-06	192.99	76.294	50.896	17.998	2.0025e-06	30.034	223.729	163.144	168.102	91.858	247.112	232.442	91.626	97.619	256.817	230.428	96.231	101.348	102.851	108.118	252.850	105.453	-8191	255	
1496.042	1	1	0	0	0.036081	0.10206	0.094903	0.2788	0.1318	0.051839	0.17372	0.31889	0.23414	0.35012	0.041919	0.12841	0.20268	0.12625	0.091663	0.045792	-2.1021	-2.8979	-2.9542	-2.6625	-3.125	-2.6875	-3.0042	-3.2125	-2.575	-2.9375	-3.0042	-2.6354	-3.1083	-2.95	-2.8438	-2.9708	373.847	228.712	234.084	406.598	439.393	420.625	293.847	434.009	420.513	347.357	115.839	329.732	383.310	201.760	219.575	246.777	0.00026552	0.00028525	6.3173e-05	506.67	3.3546e-06	2.985e-06	560.16	140.23	1.9281e-06	2.6828e-06	191.62	75.087	50.112	17.453	2.6179e-06	29.285	0.00027349	0.0001682	4.566e-05	510.59	1.989e-06	2.019e-06	564.34	142.35	2.0497e-06	1.9034e-06	193.96	76.377	50.944	18.04	2.0795e-06	30.07	223.905	156.091	161.712	91.966	239.752	233.929	91.693	97.876	252.465	215.236	96.080	101.359	103.188	108.052	237.127	105.692	-8191	255	
1496.138	1	1	0	0	0.24381	0.14163	0.16197	0.2051	0.090503	0.22372	0.20331	0.058493	0.086187	0.10943	0.28889	0.1706	0.089421	0.17971	0.033194	0.19159	-2.0125	-2.9333	-3.0333	-2.7958	-3.0604	-2.9813	-2.7313	-2.9833	-2.7417	-3.0938	-3.2146	-2.8812	-3.2417	-3.0604	-2.9688	-3.2208	260.313	183.503	86.866	282.811	336.273	331.410	349.647	142.663	135.049	130.427	433.325	301.218	396.288	386.671	92.242	105.794	0.00026989	0.00025094	7.087e-05	506.85	2.7152e-06	2.6942e-06	561.87	140.35	1.9221e-06	2.4443e-06	191.3	75.15	49.96	17.471	3.0481e-06	29.499	0.00027075	0.0001799	4.672e-05	511.49	1.8815e-06	1.9612e-06	566.59	142.36	2.1845e-06	1.9366e-06	193.77	76.561	51.054	18	2.2351e-06	30.191	224.448	167.432	179.597	92.105	256.500	230.945	91.839	97.495	263.231	231.918	96.326	101.262	102.895	108.106	251.257	105.691	-8191	255	
1496.234	1	1	0	0	0.038883	0.20603	0.042161	0.1971	0.099546	0.16858	0.25073	0.30764	0.20966	0.13666	0.063869	0.067661	0.14432	0.17996	0.10961	0.15421	-2.3479	-3.1458	-3.1896	-2.7354	-3.0958	-2.85	-2.5271	-3.3333	-2.8729	-3.0396	-3.0271	-2.8042	-3.0021	-2.7146	-2.6562	-3.0854	97.187	169.755	106.154	343.570	220.537	269.897	360.908	431.564	262.001	267.687	236.873	127.366	99.602	293.418	107.496	406.690	0.00027993	0.00033141	9.1333e-05	505.54	3.5516e-06	3.4134e-06	561.97	140.13	2.1781e-06	2.5912e-06	190.74	74.536	49.93	17.288	2.4875e-06	29.108	0.00027655	0.00017625	4.649e-05	512.9	1.8628e-06	2.0389e-06	568.03	142.71	2.1348e-06	1.9508e-06	193.71	76.054	50.895	17.837	2.0439e-06	29.747	222.633	158.140	165.290	91.902	247.543	231.740	91.638	97.502	250.827	230.714	95.726	101.506	102.969	108.205	240.914	105.396	-8191	255	
1496.355	1	1	0	0	0.065105	0.14591	0.079813	0.11273	0.13718	0.14122	0.14037	0.15473	0.16398	0.11225	0.20729	0.18845	0.1345	0.19628	0.068744	0.15756	-2.4521	-2.9813	-3.2521	-2.9125	-3.0146	-3.2042	-2.7375	-3.2313	-2.7521	-2.6958	-3.1771	-2.6333	-2.9479	-3.0542	-2.6917	-3.0667	322.249	421.889	404.762	345.138	231.989	364.870	91.669	232.683	215.955	428.754	191.597	87.074	355.875	434.591	351.630	214.098	0.00026161	0.00028366	7.5657e-05	507.45	2.5956e-06	1.9963e-06	559.49	140.01	2.6073e-06	2.4694e-06	189.57	74.207	49.688	17.292	2.057e-06	29.085	0.00026336	0.00018104	4.8909e-05	513.4	1.9853e-06	1.6724e-06	565.56	141.97	2.1326e-06	2.1128e-06	192.7	75.66	50.585	17.762	2.0317e-06	29.787	223.773	180.412	177.871	91.908	245.138	219.089	91.210	97.523	249.441	241.631	95.980	101.566	102.703	108.005	251.856	105.310	-8191	255	
1496.451	1	1	0	0	0.18441	0.13082	0.18768	0.21623	0.21155	0.21433	0.14851	0.2459	0.20287	0.074474	0.28822	0.10029	0.17809	0.17118	0.10096	0.041811	-2.2562	-2.6813	-3.1458	-2.9062	-2.8979	-2.9146	-2.4104	-3.0708	-3.05	-2.8292	-3.2667	-2.8375	-3.0417	-3.1292	-2.6604	-3.1021	289.730	255.222	393.592	385.565	363.728	384.722	327.499	368.000	189.378	103.570	399.499	425.756	117.136	413.055	190.975	120.489	0.00025377	0.00024408	8.2413e-05	508.93	3.0161e-06	2.4161e-06	560.96	140.37	2.3039e-06	1.952e-06	190.28	74.34	49.774	17.455	2.7837e-06	29.299	0.00025834	0.00018779	5.2065e-05	514.45	1.936e-06	1.5824e-06	567.79	142.47	1.9487e-06	1.8447e-06	193.1	75.717	50.701	17.866	2.0617e-06	29.886	224.916	138.767	161.806	92.089	235.242	232.645	91.579	97.720	264.192	240.577	96.038	101.466	102.833	107.964	255.474	105.222	-8191	255	
1496.545	1	1	0	0	0.049445	0.1391	0.16389	0.1011	0.082547	0.18418	0.20958	0.12213	0.0098877	0.079015	0.025026	0.1578	0.23826	0.13566	0.037806	0.3464	-2.5563	-2.675	-3.0833	-2.7812	-2.9292	-3.1396	-2.8521	-3.1875	-3.0396	-2.6521	-3.1688	-2.7333	-2.6958	-3.1146	-2.8229	-3.1542	316.375	174.019	284.835	426.011	340.338	289.158	347.685	291.609	281.932	320.738	328.702	117.163	405.149	305.400	320.746	384.198	0.00026348	0.0002965	6.8915e-05	514.82	2.7283e-06	2.3134e-06	567	140.77	2.0498e-06	2.9118e-06	191.62	74.546	49.876	17.402	2.6274e-06	29.266	0.00026181	0.00018015	4.8817e-05	519.82	1.9517e-06	1.644e-06	571.67	142.88	1.9149e-06	2.1251e-06	193.72	75.894	51.018	17.932	2.197e-06	29.944	222.675	166.685	168.433	91.933	244.049	221.025	91.807	97.766	265.086	221.839	96.111	101.191	103.006	108.038	235.796	105.278	-8191	255	
1496.643	1	1	0	0	0.29048	0.11106	0.18796	0.1889	0.19506	0.1364	0.19078	0.099077	0.09852	0.22863	0.23892	0.058712	0.24488	0.21163	0.16629	0.23345	-2.6417	-2.5229	-3.0854	-2.675	-2.8375	-3.125	-2.8167	-3.0646	-3.125	-2.9729	-3.1688	-3.0187	-2.7438	-3.3042	-2.7896	-3.0646	232.667	328.436	351.459	375.421	166.020	354.353	106.282	96.029	372.977	282.267	91.802	230.931	197.077	330.430	116.858	288.783	0.00025931	0.00020944	5.1089e-05	515.51	2.5097e-06	2.5258e-06	565.61	141.16	1.7444e-06	2.3751e-06	188.95	74.011	49.792	17.354	2.4945e-06	28.792	0.00025388	0.00018787	4.3725e-05	520.07	1.986e-06	1.9584e-06	570.23	142.86	1.7988e-06	2.128e-06	192.03	75.352	50.711	17.777	1.8526e-06	29.39	221.761	163.372	157.117	92.007	255.760	231.051	91.533	97.608	251.167	216.059	95.934	101.360	102.803	107.764	231.675	105.083	-8191	255	
1496.737	1	1	0	0	0.17245	0.28016	0.18129	0.19865	0.26722	0.25584	0.025802	0.20925	0.18804	0.38854	0.15939	0.29482	0.33393	0.1926	0.11666	0.05152	-2.65	-2.4167	-3.0563	-3.0417	-2.775	-3.1042	-2.8	-2.8688	-2.85	-2.7771	-3.0687	-2.7979	-2.6104	-2.9688	-2.6896	-2.9062	256.817	116.137	142.942	413.757	388.754	154.024	236.735	336.406	289.225	139.841	214.120	433.157	410.561	351.642	129.620	148.849	0.00027054	0.00024352	8.3693e-05	512.08	2.4715e-06	2.5303e-06	563.55	140.35	1.9235e-06	3.4612e-06	188.38	73.631	49.471	17.102	2.6442e-06	28.657	0.00026829	0.00018535	4.9185e-05	517.45	2.051e-06	1.6809e-06	568.38	142.23	1.8846e-06	1.8778e-06	191.39	75.062	50.627	17.632	2.1541e-06	29.284	224.579	165.171	145.807	91.762	242.488	227.649	91.667	97.779	242.409	230.852	96.024	101.582	102.714	108.175	246.496	105.358	-8191	255	
1496.834	1	1	0	0	0.15465	0.23232	0.18188	0.10679	0.019108	0.08859	0.36938	0.12755	0.2702	0.15472	0.10661	0.25877	0.13402	0.054078	0.14325	0.31015	-2.7167	-2.7042	-2.8458	-2.8979	-2.5708	-3.4479	-2.9479	-2.8187	-3.2833	-2.7771	-2.9625	-3.0917	-2.6958	-3.1625	-2.825	-2.9458	209.730	128.630	169.491	243.874	241.066	213.196	326.803	305.433	90.778	230.672	228.445	437.829	278.925	394.200	262.000	424.212	0.00026857	0.00025561	6.8075e-05	515.2	2.5166e-06	3.1944e-06	566.26	140.23	2.0754e-06	2.4562e-06	188.55	73.939	49.952	17.076	3.14e-06	28.698	0.00025599	0.00018706	4.5983e-05	519.15	2.1204e-06	1.8912e-06	571.37	142.66	1.9293e-06	1.838e-06	192.03	75.223	50.813	17.613	2.035e-06	29.298	226.837	164.725	188.927	92.174	244.062	234.523	91.645	97.865	250.272	232.864	95.847	101.680	102.745	107.885	236.491	105.206	-8191	255	
1496.954	1	1	0	0	0.17114	0.17125	0.10453	0.077568	0.028801	0.082578	0.31746	0.27494	0.22203	0.014053	0.33412	0.20943	0.18703	0.17898	0.10376	0.067692	-2.6813	-2.4229	-2.825	-2.9562	-2.4875	-2.9604	-2.9292	-2.6417	-3.1396	-2.8896	-2.8937	-3.0896	-2.7125	-3.2104	-2.8104	-2.6646	254.230	291.855	435.586	229.819	184.658	342.632	423.031	91.628	99.870	160.049	217.156	277.655	270.209	341.181	89.243	437.367	0.00026276	0.00022493	8.4658e-05	515.71	2.5832e-06	2.4883e-06	568.39	141.09	2.3e-06	2.2084e-06	189.74	74.265	49.667	17.08	2.6946e-06	28.551	0.00026339	0.00019307	4.9669e-05	520.94	2.0002e-06	1.7368e-06	574.09	142.91	1.7656e-06	1.6031e-06	192.2	75.56	50.857	17.571	1.9126e-06	29.15	222.974	171.627	162.699	91.854	242.290	217.799	91.535	97.654	259.846	227.296	96.087	101.469	102.524	107.824	240.023	105.354	-8191	255	
1497.050	1	1	0	0	0.38119	0.15391	0.05688	0.12867	0.098967	0.38994	0.33804	0.14065	0.18327	0.15063	0.22491	0.066024	0.14346	0.11462	0.21661	0.1249	-2.5729	-2.6937	-2.8104	-3.0771	-2.9021	-3.1813	-2.9979	-2.6667	-3.1083	-2.8521	-2.8771	-3.1625	-2.8146	-3.1188	-2.9854	-2.7687	411.919	280.598	368.630	388.420	350.370	271.127	88.783	390.922	243.120	210.030	137.384	112.590	302.867	400.591	84.782	418.653	0.00025973	0.00019589	7.8759e-05	513.51	2.8298e-06	2.6384e-06	565.05	140.12	2.2609e-06	2.31e-06	188.43	74.11	50.072	16.971	2.4616e-06	28.307	0.00024898	0.00015958	4.7711e-05	520.65	1.9084e-06	1.8391e-06	572.63	142.11	2.0302e-06	1.8532e-06	191.27	75.618	51.077	17.41	1.7732e-06	28.872	223.014	173.067	185.684	92.238	238.537	238.031	91.433	97.828	246.372	232.909	96.032	101.129	102.523	107.681	243.579	105.403	-8191	255	
1497.147	1	1	0	0	0.072953	0.18985	0.32592	0.087853	0.070412	0.12306	0.048908	0.11871	0.041695	0.28739	0.18793	0.22772	0.18612	0.078933	0.16883	0.15741	-2.6937	-2.8063	-2.7562	-2.9792	-2.5812	-3.0438	-3.0375	-2.7521	-2.9208	-2.8187	-2.8396	-3.1479	-2.6813	-2.9854	-3.1104	-2.7083	115.989	127.509	362.217	241.540	220.744	379.196	271.485	234.289	251.179	405.151	256.365	379.274	360.298	110.148	399.264	409.394	0.00025681	0.00026895	6.6739e-05	514.7	2.4012e-06	2.685e-06	571.05	139.02	2.0753e-06	2.5531e-06	188.77	74.593	50.248	16.908	2.0694e-06	28.073	0.0002483	0.00017348	4.8563e-05	521.06	1.983e-06	1.6232e-06	573.67	141.74	1.8125e-06	1.893e-06	191.36	76.382	51.427	17.346	1.9102e-06	28.712	224.362	163.950	168.993	91.996	246.631	241.541	91.788	97.736	268.178	220.651	96.006	101.351	102.690	108.169	258.776	105.181	-8191	255	
1497.243	1	1	0	0	0.19831	0.27383	0.21264	0.1894	0.045113	0.058608	0.18254	0.27828	0.30672	0.081962	0.10277	0.34677	0.26205	0.22498	0.24951	0.067408	-2.6958	-2.7729	-2.6792	-3.2208	-2.875	-2.9146	-2.9792	-2.5771	-3.1083	-2.7958	-2.6688	-3.125	-2.5083	-2.8125	-2.9	-2.4229	117.714	187.564	409.341	370.554	407.895	232.045	368.371	364.945	171.576	264.442	312.735	143.767	406.605	384.562	386.099	436.189	0.00026097	0.00025607	7.9631e-05	516.08	2.4e-06	2.1086e-06	572.45	138.95	2.2404e-06	2.5119e-06	188.73	76.694	51.541	17.065	2.8665e-06	28.28	0.00025347	0.00017072	5.1235e-05	520.79	1.8904e-06	1.787e-06	575.91	141.39	1.8219e-06	1.821e-06	191.68	78.15	52.493	17.595	1.8234e-06	28.989	224.091	182.329	146.887	92.098	251.710	227.841	91.668	97.657	257.804	236.604	95.939	101.027	102.689	108.083	233.031	105.514	-8191	255	
1497.339	1	1	0	0	0.27472	0.26439	0.068519	0.11842	0.10523	0.082673	0.18768	0.14998	0.25294	0.18837	0.088873	0.17924	0.25299	0.10068	0.11246	0.10834	-2.5604	-2.7417	-2.7167	-2.9854	-2.5917	-2.7812	-2.9542	-2.6521	-2.8146	-2.8604	-2.7375	-3.1771	-2.8438	-2.9146	-3.1292	-2.825	279.299	345.039	166.206	265.884	134.369	111.291	281.839	420.254	362.323	318.261	177.727	93.288	361.424	227.828	419.318	123.339	0.00025344	0.0002933	7.5065e-05	515.91	2.5697e-06	2.8164e-06	570.75	138.11	2.7426e-06	2.3132e-06	187.72	76.148	50.675	16.811	2.7038e-06	27.753	0.00025281	0.00017478	4.7596e-05	520.17	1.93e-06	1.912e-06	574.9	140.69	1.9725e-06	1.7926e-06	190.28	77.592	51.811	17.345	1.774e-06	28.341	220.602	149.749	177.830	91.998	251.841	233.895	91.581	97.712	250.528	227.214	95.942	101.137	102.900	108.200	243.333	105.671	-8191	255	
#DATA ENDS
