BOXY.EXE: ISS Imagent and Oximeter Data Acquisition Program Version 0.80
Ascii Record File

#ACQ INFORMATION
2  Detector Channels 
16  External MUX Channels 
1  Auxiliary Channels 
5000  Waveform (CCF) Frequency (Hz)
1  Waveforms Skipped 
30  Waveforms Averaged 
1  Cycles Averaged 
16  Acquisitions per Waveform 
10.0806  Updata Rate (Hz) 

#FILE INFORMATION
TRUE -- External MUX Channel results are PARSED.
FALSE -- AC DC and Phase are NOT grouped.
TRUE -- Companion Program Settings File CREATED.
FALSE -- AC data not excluded
FALSE -- DC data not excluded
FALSE -- Phase data not excluded
FALSE -- Auxillary Chn. data not excluded
Tab delimiters

#CALIBRATION STATE
TRUE -- Waveform Calibration Values APPLIED.


#AUX CALIBRATION VALUES
Val Type	aux-1	

Term	1.0000e+00	
Factor	0.0000e+00	


#WF CALIBRATION VALUES
A = Detector Channel
Val Type	A-AC1	A-AC2	A-AC3	A-AC4	A-AC5	A-AC6	A-AC7	A-AC8	A-AC9	A-AC10	A-AC11	A-AC12	A-AC13	A-AC14	A-AC15	A-AC16	A-DC1	A-DC2	A-DC3	A-DC4	A-DC5	A-DC6	A-DC7	A-DC8	A-DC9	A-DC10	A-DC11	A-DC12	A-DC13	A-DC14	A-DC15	A-DC16	A-Ph1	A-Ph2	A-Ph3	A-Ph4	A-Ph5	A-Ph6	A-Ph7	A-Ph8	A-Ph9	A-Ph10	A-Ph11	A-Ph12	A-Ph13	A-Ph14	A-Ph15	A-Ph16	

Term	0.00000e+00	0.00000e+00	0.00000e+00	0.00000e+00	0.00000e+00	0.00000e+00	0.00000e+00	0.00000e+00	0.00000e+00	0.00000e+00	0.00000e+00	0.00000e+00	0.00000e+00	0.00000e+00	0.00000e+00	0.00000e+00	0.00000e+00	0.00000e+00	0.00000e+00	0.00000e+00	0.00000e+00	0.00000e+00	0.00000e+00	0.00000e+00	0.00000e+00	0.00000e+00	0.00000e+00	0.00000e+00	0.00000e+00	0.00000e+00	0.00000e+00	0.00000e+00	0.00000e+00	0.00000e+00	0.00000e+00	0.00000e+00	0.00000e+00	0.00000e+00	0.00000e+00	0.00000e+00	0.00000e+00	0.00000e+00	0.00000e+00	0.00000e+00	0.00000e+00	0.00000e+00	0.00000e+00	0.00000e+00	
Factor	1.00000e+00	1.00000e+00	1.00000e+00	1.00000e+00	1.00000e+00	1.00000e+00	1.00000e+00	1.00000e+00	1.00000e+00	1.00000e+00	1.00000e+00	1.00000e+00	1.00000e+00	1.00000e+00	1.00000e+00	1.00000e+00	1.00000e+00	1.00000e+00	1.00000e+00	1.00000e+00	1.00000e+00	1.00000e+00	1.00000e+00	1.00000e+00	1.00000e+00	1.00000e+00	1.00000e+00	1.00000e+00	1.00000e+00	1.00000e+00	1.00000e+00	1.00000e+00	X	X	X	X	X	X	X	X	X	X	X	X	X	X	X	X	

B = Detector Channel
Val Type	B-AC1	B-AC2	B-AC3	B-AC4	B-AC5	B-AC6	B-AC7	B-AC8	B-AC9	B-AC10	B-AC11	B-AC12	B-AC13	B-AC14	B-AC15	B-AC16	B-DC1	B-DC2	B-DC3	B-DC4	B-DC5	B-DC6	B-DC7	B-DC8	B-DC9	B-DC10	B-DC11	B-DC12	B-DC13	B-DC14	B-DC15	B-DC16	B-Ph1	B-Ph2	B-Ph3	B-Ph4	B-Ph5	B-Ph6	B-Ph7	B-Ph8	B-Ph9	B-Ph10	B-Ph11	B-Ph12	B-Ph13	B-Ph14	B-Ph15	B-Ph16	

Term	0.00000e+00	0.00000e+00	0.00000e+00	0.00000e+00	0.00000e+00	0.00000e+00	0.00000e+00	0.00000e+00	0.00000e+00	0.00000e+00	0.00000e+00	0.00000e+00	0.00000e+00	0.00000e+00	0.00000e+00	0.00000e+00	0.00000e+00	0.00000e+00	0.00000e+00	0.00000e+00	0.00000e+00	0.00000e+00	0.00000e+00	0.00000e+00	0.00000e+00	0.00000e+00	0.00000e+00	0.00000e+00	0.00000e+00	0.00000e+00	0.00000e+00	0.00000e+00	-7.31199e+01	-1.32799e+02	-1.26468e+02	-1.82714e+02	-5.26673e+01	-6.72776e+01	-1.58600e+02	-1.62015e+02	-4.81301e+01	-6.81745e+01	-1.74789e+02	-1.71091e+02	-1.81647e+02	-1.76664e+02	-5.28905e+01	-1.49745e+02	
Factor	1.45622e-05	1.40397e-04	4.03230e-05	1.48927e-01	1.29784e-06	1.50963e-06	1.69133e-01	4.23035e-02	9.54360e-07	1.51249e-06	7.52042e-02	2.43297e-02	1.97584e-02	7.93508e-03	1.28624e-06	1.14015e-02	1.42596e-05	3.90213e-05	1.10580e-05	7.54603e-02	3.58379e-07	4.54558e-07	8.02644e-02	2.15652e-02	3.46059e-07	4.54774e-07	3.70643e-02	1.20591e-02	1.01503e-02	4.07504e-03	3.89001e-07	5.66024e-03	X	X	X	X	X	X	X	X	X	X	X	X	X	X	X	X	



#DISTANCE SETTINGS
A = Detector Channel
A-1	A-2	A-3	A-4	A-5	A-6	A-7	A-8	A-9	A-10	A-11	A-12	A-13	A-14	A-15	A-16	

2.5000e+00	3.0000e+00	2.5000e+00	3.0000e+00	2.0000e+00	3.0000e+00	1.5000e+00	3.0000e+00	3.0000e+00	3.0000e+00	3.0000e+00	3.0000e+00	3.0000e+00	3.0000e+00	1.5000e+00	3.0000e+00	

B = Detector Channel
B-1	B-2	B-3	B-4	B-5	B-6	B-7	B-8	B-9	B-10	B-11	B-12	B-13	B-14	B-15	B-16	

1.0000e+01	1.0000e+01	1.0000e+01	1.4400e+00	1.0000e+01	1.0000e+01	1.5100e+00	1.9400e+00	1.0000e+01	1.0000e+01	1.9900e+00	2.4900e+00	2.4100e+00	2.9000e+00	1.0000e+01	2.9800e+00	




#DATA BEGINS
time	group	step	mark	flag	A-AC1	A-AC2	A-AC3	A-AC4	A-AC5	A-AC6	A-AC7	A-AC8	A-AC9	A-AC10	A-AC11	A-AC12	A-AC13	A-AC14	A-AC15	A-AC16	A-DC1	A-DC2	A-DC3	A-DC4	A-DC5	A-DC6	A-DC7	A-DC8	A-DC9	A-DC10	A-DC11	A-DC12	A-DC13	A-DC14	A-DC15	A-DC16	A-Ph1	A-Ph2	A-Ph3	A-Ph4	A-Ph5	A-Ph6	A-Ph7	A-Ph8	A-Ph9	A-Ph10	A-Ph11	A-Ph12	A-Ph13	A-Ph14	A-Ph15	A-Ph16	B-AC1	B-AC2	B-AC3	B-AC4	B-AC5	B-AC6	B-AC7	B-AC8	B-AC9	B-AC10	B-AC11	B-AC12	B-AC13	B-AC14	B-AC15	B-AC16	B-DC1	B-DC2	B-DC3	B-DC4	B-DC5	B-DC6	B-DC7	B-DC8	B-DC9	B-DC10	B-DC11	B-DC12	B-DC13	B-DC14	B-DC15	B-DC16	B-Ph1	B-Ph2	B-Ph3	B-Ph4	B-Ph5	B-Ph6	B-Ph7	B-Ph8	B-Ph9	B-Ph10	B-Ph11	B-Ph12	B-Ph13	B-Ph14	B-Ph15	B-Ph16	aux-1	digaux	

1409.232	1	1	0	768	0.14699	0.16892	0.11013	0.10072	0.21544	0.30396	0.085658	0.2539	0.1675	0.025557	0.24939	0.31728	0.095788	0.13586	0.053555	0.14436	-2.5042	-3.1167	-2.5958	-3.0896	-3.1146	-3.0187	-3.2083	-2.9854	-2.9271	-3.0708	-2.6667	-3.1833	-2.9458	-2.7333	-3.1208	-3.1292	348.250	428.729	132.780	205.789	412.435	92.716	239.448	300.419	316.558	164.163	431.635	396.045	407.537	414.186	282.616	405.545	0.00067433	0.00042285	0.00013102	545.93	5.5137e-06	3.2748e-06	687.85	201.53	4.4414e-06	4.5644e-06	296.03	135.18	84.821	45.622	5.133e-06	76.198	0.00058265	0.00023055	6.6141e-05	552.14	2.3959e-06	2.4527e-06	692.47	204.66	2.6164e-06	2.217e-06	300.08	138.19	86.373	46.904	2.8097e-06	78.122	228.561	174.636	174.456	102.993	244.642	245.990	102.594	107.932	268.842	237.994	106.438	111.116	112.249	116.578	258.402	114.043	-8191	255	
1409.328	1	1	0	0	0.021624	0.18851	0.046471	0.03323	0.072172	0.066338	0.10652	0.06845	0.04672	0.25579	0.18082	0.26609	0.3098	0.30648	0.046159	0.21934	-2.5333	-3.1417	-2.8104	-3.1937	-3.0312	-2.9021	-3.2667	-2.8979	-3.0896	-3.2188	-2.8438	-3.1521	-3.2375	-2.8229	-2.9375	-3.1167	213.353	426.850	304.867	412.886	400.563	318.195	98.189	348.222	396.312	441.444	419.145	447.531	432.520	384.345	416.688	399.628	0.00068758	0.00050064	0.00013369	545.89	4.5664e-06	4.6887e-06	686.47	203.75	4.1495e-06	4.3352e-06	296.33	135.77	85.245	45.568	4.7096e-06	75.654	0.0005981	0.0002286	6.6717e-05	552.57	2.3138e-06	2.4934e-06	692.18	206.33	2.7555e-06	2.3951e-06	300.5	138.3	86.594	46.927	2.8081e-06	77.54	227.922	176.510	182.543	102.650	255.735	237.122	102.453	108.168	268.445	241.606	106.027	110.986	112.403	116.391	250.604	114.050	-8191	255	
1409.424	1	1	0	0	0.16337	0.16045	0.022134	0.030529	0.084886	0.17802	0.2111	0.23246	0.41278	0.31245	0.28371	0.072608	0.21113	0.25378	0.24135	0.17335	-2.2604	-3.1958	-2.7958	-3.0583	-2.8708	-2.6104	-3.2313	-2.9375	-2.675	-3.2313	-2.9167	-3.0958	-3.2646	-2.7875	-3.0667	-2.9938	314.256	374.378	191.220	207.189	447.340	240.661	177.211	376.964	246.136	347.105	101.068	431.366	381.298	130.896	278.165	99.402	0.00070637	0.00049162	0.0001309	543.68	4.4961e-06	4.9247e-06	684.34	200.55	4.0256e-06	5.1202e-06	293.14	134.19	83.926	45.18	6.0014e-06	75.262	0.00061189	0.00022226	6.204e-05	548.45	2.4303e-06	2.358e-06	686.46	203.72	2.6647e-06	2.2208e-06	297.12	136.98	85.586	46.509	3.1047e-06	77.007	226.779	171.174	182.284	103.242	248.502	233.311	102.326	107.882	260.008	234.928	105.948	110.998	112.450	116.607	253.808	114.001	-8191	255	
1409.520	1	1	0	0	0.12921	0.16912	0.35342	0.1811	0.21165	0.22753	0.01982	0.13204	0.067889	0.16477	0.044605	0.2367	0.17648	0.14469	0.088668	0.2721	-2.2646	-3.15	-2.8875	-3.0062	-3.2917	-2.8292	-3.0312	-3.025	-3.0708	-3.2729	-2.8604	-2.775	-3.3354	-2.9979	-3.2875	-3.0521	425.116	122.913	428.566	401.392	181.994	145.034	424.330	96.480	371.073	266.608	242.716	430.556	325.402	440.284	343.661	439.810	0.00067785	0.00049721	0.00014796	543.45	5.0612e-06	4.7183e-06	681.58	200.02	3.7711e-06	5.9414e-06	293.49	134.77	84.252	45.255	4.7483e-06	75.387	0.00059415	0.00021722	6.4298e-05	548.62	2.1667e-06	2.252e-06	687.7	202.98	2.6603e-06	2.307e-06	297.63	137.08	85.826	46.576	2.6817e-06	77.333	226.833	175.808	189.564	103.077	249.223	240.563	102.426	107.747	258.978	244.488	105.711	110.832	112.447	116.453	239.199	114.102	-8191	255	
1409.617	1	1	0	0	0.18357	0.10276	0.233	0.04529	0.062565	0.10614	0.15596	0.10766	0.09827	0.21996	0.035222	0.031532	0.14813	0.26921	0.21477	0.11499	-2.0938	-3.1042	-3.0729	-3.0604	-3.1083	-2.6479	-2.975	-3.1646	-2.7646	-3.2167	-2.8563	-2.9292	-3.2313	-2.6729	-2.9917	-3.4792	415.345	414.236	196.408	208.400	358.145	265.442	314.275	344.454	403.977	158.674	98.818	94.381	410.841	94.278	148.173	152.407	0.00067883	0.00052718	0.0001344	546.04	4.9605e-06	5.3833e-06	687.32	201.6	3.691e-06	4.6978e-06	295.35	135.02	84.932	45.721	5.6329e-06	76.027	0.00059501	0.00021153	6.2547e-05	550.7	2.2107e-06	2.4887e-06	690.06	205.14	2.6531e-06	2.3193e-06	299.97	138.09	86.502	47.005	2.9669e-06	77.827	226.346	173.727	179.781	102.814	251.906	230.871	102.348	107.900	261.951	241.499	105.948	110.770	112.325	116.621	253.344	114.001	-8191	255	
1409.713	1	1	0	0	0.17526	0.14624	0.22528	0.19152	0.07471	0.27861	0.20532	0.18825	0.092019	0.09264	0.20301	0.27111	0.17427	0.16559	0.16062	0.15901	-2.3958	-3.225	-2.9458	-2.6437	-3.1688	-2.8187	-3.1292	-3.2854	-2.7562	-3.0417	-2.8958	-2.8917	-3.2417	-2.9667	-2.7625	-3.0396	292.432	295.985	422.310	155.522	378.740	420.928	364.703	400.123	250.337	348.393	381.237	438.019	378.300	94.453	195.665	375.032	0.00068949	0.00042506	0.00014044	547.35	4.3446e-06	4.2743e-06	688.09	203.31	3.9737e-06	5.2014e-06	297.64	135.73	84.766	45.581	5.4893e-06	75.416	0.00060568	0.00021315	6.2317e-05	551.87	2.2324e-06	2.2198e-06	692.97	205.83	2.7879e-06	2.362e-06	300.79	138.24	86.373	46.777	3.0058e-06	77.159	227.619	169.515	189.464	102.897	250.084	245.908	102.385	107.805	257.347	235.908	106.259	110.958	112.292	116.239	251.499	114.070	-8191	255	
1409.833	1	1	0	0	0.1007	0.16249	0.23402	0.21584	0.099712	0.11574	0.40332	0.11768	0.17207	0.10437	0.16153	0.22241	0.17189	0.26306	0.12519	0.13983	-2.2042	-2.9042	-3.0187	-2.7146	-3.0375	-2.925	-2.9417	-3.3042	-2.8312	-2.8042	-2.9896	-3.0083	-3.2375	-2.9667	-2.7812	-3.4062	111.856	357.069	149.591	162.944	263.203	410.159	422.546	304.840	362.390	370.172	440.296	349.013	440.696	130.462	369.173	377.880	0.0006999	0.000464	0.0001664	542.5	4.7663e-06	4.2853e-06	681.08	200.56	3.9521e-06	4.737e-06	293.28	134.24	83.95	44.685	5.795e-06	73.979	0.00060553	0.00021275	6.2155e-05	547.31	2.3198e-06	2.3476e-06	685.37	203.14	2.6214e-06	2.2748e-06	296.99	136.82	85.219	46.031	3.0755e-06	75.934	227.629	181.937	180.232	103.121	250.814	239.986	102.356	107.684	259.088	239.942	106.201	110.932	112.397	116.398	255.093	114.050	-8191	255	
1409.930	1	1	0	0	0.084959	0.24374	0.076842	0.28319	0.050237	0.1064	0.15636	0.12482	0.23922	0.08348	0.18941	0.30583	0.21639	0.10902	0.16849	0.40153	-2.4083	-3.0021	-2.9021	-2.8688	-3.0771	-3.0583	-2.8063	-3.2375	-2.6188	-2.8333	-3.3271	-2.7729	-3.0792	-2.95	-2.6479	-3.4875	421.490	205.732	130.208	402.800	304.358	208.500	297.027	296.392	101.512	191.451	140.861	239.642	391.089	394.598	283.155	375.152	0.00067615	0.00055533	0.00014642	540.04	3.9792e-06	4.3046e-06	677.82	197.37	3.6195e-06	5.169e-06	290.69	132.74	83.333	44.527	5.2393e-06	74.54	0.00059739	0.00022071	6.3468e-05	545.39	2.0779e-06	2.2633e-06	684.48	200.77	2.4325e-06	2.3099e-06	295.1	135.59	84.511	45.741	2.8697e-06	76.3	226.652	173.933	177.763	102.912	255.537	237.166	102.520	108.095	270.166	231.968	106.138	110.888	112.264	116.326	249.397	114.130	-8191	255	
1410.026	1	1	0	0	0.2098	0.17851	0.089089	0.27179	0.20429	0.052302	0.36261	0.14932	0.09778	0.2491	0.30107	0.11197	0.18709	0.088578	0.090687	0.15457	-2.45	-2.7375	-3.025	-2.7729	-3.075	-3.0583	-2.6167	-3.3583	-2.9104	-2.9938	-3.0354	-2.825	-3.2521	-3.2542	-2.8021	-3.0604	373.348	183.397	139.852	391.789	417.211	284.286	289.122	307.387	149.199	213.145	400.408	120.834	364.839	132.314	364.491	299.161	0.00068658	0.0004508	0.00012736	545.01	4.8118e-06	4.8314e-06	683.2	199.9	4.123e-06	4.4646e-06	292.2	134.56	83.703	45.019	4.5896e-06	75.031	0.00058958	0.00021445	5.7571e-05	547.89	2.2511e-06	2.304e-06	686.96	202.6	2.6841e-06	2.2066e-06	296.55	136.86	85.255	46.172	2.9856e-06	76.919	227.521	172.858	193.172	102.787	245.686	245.116	102.393	107.749	263.700	240.812	106.157	110.771	112.144	116.344	253.806	114.290	-8191	255	
1410.122	1	1	0	0	0.08322	0.093572	0.3559	0.10822	0.12392	0.16695	0.34403	0.1731	0.2478	0.22187	0.42	0.41193	0.2169	0.19039	0.14297	0.23434	-2.4479	-2.8875	-3.0271	-2.6083	-2.9604	-3.1542	-2.9437	-3.1542	-2.6167	-2.8042	-3.2667	-2.8729	-2.9062	-3.1708	-2.8458	-3.0187	379.977	341.400	403.675	326.012	270.308	140.108	324.473	424.509	199.869	148.769	422.761	388.808	438.591	437.626	388.861	379.100	0.00068265	0.00049493	0.00013862	541.21	4.848e-06	4.1422e-06	683.62	197.1	4.3949e-06	6.3318e-06	290.77	133.2	82.273	44.018	5.381e-06	73.964	0.00058922	0.00021828	6.0151e-05	547.69	2.4332e-06	2.2633e-06	687.7	200.64	2.6776e-06	2.452e-06	294.45	135.64	83.767	45.272	2.9394e-06	75.71	227.557	167.659	173.209	102.894	249.053	246.650	102.286	107.806	271.482	234.368	106.236	111.102	112.510	116.585	251.522	114.198	-8191	255	
1410.218	1	1	0	0	0.12477	0.42823	0.23194	0.082283	0.13791	0.19796	0.14929	0.19666	0.11811	0.17431	0.044117	0.01468	0.30762	0.32141	0.37981	0.32597	-2.6021	-2.8271	-3.2812	-2.8125	-2.8042	-3.1521	-2.8479	-3.3146	-2.8875	-2.4792	-3.2375	-3.0083	-3.0187	-3.2313	-2.4479	-3.1896	312.076	417.981	187.331	114.251	318.431	158.668	408.862	98.075	386.703	288.282	397.759	300.805	406.347	413.014	330.282	403.933	0.0006614	0.00049859	0.00012166	540.32	4.9161e-06	4.2405e-06	676.21	195.5	3.4392e-06	3.9547e-06	287.55	131.95	81.792	43.719	4.9362e-06	73.045	0.00058245	0.00021852	5.6419e-05	545.04	2.4011e-06	2.1374e-06	682.25	199.17	2.4303e-06	2.3421e-06	291.66	134.44	83.335	44.961	3.0164e-06	74.91	227.731	170.047	181.066	102.912	253.284	239.387	102.301	107.969	262.736	230.574	106.354	111.058	112.298	116.689	250.717	114.438	-8191	255	
1410.314	1	1	0	0	0.078984	0.086442	0.057898	0.10621	0.14933	0.046722	0.27626	0.32146	0.097006	0.070488	0.11097	0.22093	0.15364	0.17518	0.22189	0.038784	-2.5438	-2.7542	-3.1396	-2.8979	-2.7833	-3.2604	-2.7208	-3.1396	-2.9292	-2.8187	-3.2667	-2.875	-2.725	-3.2958	-2.7188	-3.1146	350.302	402.743	203.190	105.427	151.950	304.763	356.820	394.028	90.654	389.294	337.028	411.130	138.296	447.553	91.582	403.217	0.00065549	0.00050406	0.00014152	538.9	4.4683e-06	4.7157e-06	679.46	197.33	3.9927e-06	4.2497e-06	290.62	133.22	83.501	44.722	6.0889e-06	74.775	0.00056774	0.00022608	6.022e-05	543.62	2.331e-06	1.9877e-06	681.91	200.41	2.4729e-06	2.3572e-06	294.62	135.76	84.827	45.854	3.1088e-06	76.309	227.722	174.458	170.319	102.887	253.182	245.250	102.194	108.127	253.539	232.382	106.344	110.906	112.217	116.301	252.630	114.180	-8191	255	
1410.410	1	1	0	0	0.14667	0.10427	0.031226	0.13169	0.059647	0.14777	0.082814	0.064271	0.1297	0.1723	0.15788	0.23242	0.33267	0.12771	0.16997	0.13091	-2.5875	-2.7875	-3.1229	-2.7854	-2.5146	-3.2938	-2.9313	-3.0563	-3.2125	-2.7854	-3.3458	-2.9875	-2.6708	-3.3771	-2.8688	-3.1625	444.180	205.577	250.224	122.636	321.818	172.167	163.029	391.896	104.936	105.568	359.547	97.001	409.596	425.462	438.216	336.154	0.00068039	0.00042019	0.000139	538.58	4.7624e-06	5.2405e-06	682.43	199.99	3.5789e-06	4.9319e-06	292.96	134.65	84.526	45.284	5.1729e-06	75.521	0.0005779	0.00023413	6.1395e-05	545.97	2.3571e-06	2.1573e-06	686.28	203.27	2.5046e-06	2.3279e-06	297.95	137.2	85.99	46.622	3.005e-06	77.312	227.251	177.093	182.590	103.023	250.843	240.184	102.922	107.935	256.709	236.084	106.045	110.850	112.367	116.098	262.626	114.287	-8191	255	
1410.529	1	1	0	0	0.25422	0.092757	0.14668	0.22472	0.23582	0.11334	0.22316	0.26074	0.072137	0.067584	0.061572	0.091088	0.27236	0.14431	0.1337	0.23427	-2.8125	-2.625	-3.0812	-2.8396	-2.6375	-3.2792	-2.8583	-3.0875	-3.2188	-2.6646	-2.9625	-2.9917	-2.5958	-3.1104	-2.8375	-3.0625	417.203	214.229	369.471	359.281	302.010	314.027	407.487	393.039	241.202	419.573	192.969	204.426	364.936	404.933	303.434	383.836	0.00070943	0.00055322	0.00012648	541.01	5.0005e-06	4.8177e-06	679.08	201.88	3.5993e-06	4.4313e-06	295.09	135.25	85.03	45.609	4.7318e-06	75.854	0.00060194	0.00024291	5.9322e-05	548.11	2.5176e-06	2.2984e-06	688.52	204.82	2.5399e-06	2.4795e-06	299.68	138.01	86.424	46.952	3.0083e-06	77.843	227.417	171.051	184.502	102.836	258.543	245.795	102.575	107.929	263.447	245.294	106.181	110.566	112.488	116.160	258.428	114.072	-8191	255	
1410.625	1	1	0	0	0.13752	0.080552	0.13705	0.21388	0.20815	0.17425	0.093205	0.41214	0.11833	0.039066	0.23715	0.13531	0.28074	0.21944	0.13867	0.14255	-2.8312	-2.5438	-2.7812	-2.9292	-2.6708	-3.2625	-3.1521	-2.6063	-3.0479	-2.7562	-3.3187	-3.2042	-2.6083	-3.1375	-2.9208	-2.9208	307.661	131.755	139.056	397.985	124.294	136.407	352.545	414.699	436.663	266.670	330.719	218.009	158.504	301.896	110.567	135.978	0.00068566	0.00045954	0.00013259	542.87	4.114e-06	4.6201e-06	682.44	201.98	4.2603e-06	4.6416e-06	296.25	135.31	84.916	45.327	5.5698e-06	75.322	0.00059175	0.00025185	6.2063e-05	548.43	2.5497e-06	2.2292e-06	689.71	205.42	2.6214e-06	2.3402e-06	300.26	137.82	86.309	46.656	2.9126e-06	77.063	227.041	177.499	180.229	103.151	250.461	238.496	102.262	107.792	261.349	247.723	106.464	110.699	112.218	116.449	256.324	113.977	-8191	255	
1410.721	1	1	0	0	0.13833	0.14436	0.039166	0.4384	0.097311	0.1552	0.20888	0.213	0.14853	0.10335	0.31375	0.14254	0.12248	0.20431	0.13997	0.2042	-2.6437	-2.7	-2.7438	-3.1042	-2.6146	-2.975	-3.075	-2.6813	-3.0667	-2.9062	-3.0833	-3.3292	-2.7333	-3.3646	-3.0958	-2.8333	408.260	439.554	302.011	365.335	221.133	246.392	428.974	246.821	371.785	301.896	438.098	95.841	131.005	437.539	296.814	409.674	0.00067397	0.00042275	0.00013197	537.43	4.8553e-06	4.0441e-06	679.17	200.03	4.5652e-06	3.9557e-06	291.69	133.14	83.049	44.545	6.1142e-06	74.203	0.00058295	0.00023705	5.8631e-05	544.68	2.5109e-06	2.1307e-06	683.31	202.59	2.4916e-06	2.2256e-06	295.76	135.71	84.658	45.758	2.9597e-06	75.887	227.790	168.423	182.872	102.983	249.159	244.206	102.591	107.591	264.158	233.971	106.098	110.709	112.526	116.119	261.088	114.144	-8191	255	
1410.793	1	1	0	0	0.17811	0.30158	0.17699	0.13276	0.21287	0.19605	0.24458	0.18263	0.18243	0.16907	0.25863	0.094813	0.11665	0.16738	0.11593	0.14124	-2.6208	-2.9375	-2.8146	-3.0938	-2.6729	-3.1958	-3.2979	-2.9333	-2.9521	-2.9062	-2.85	-3.25	-2.6542	-3.1625	-2.9125	-2.7979	213.320	228.829	442.277	295.993	229.340	348.980	322.550	340.883	256.452	178.122	108.501	350.421	233.583	382.621	448.761	113.262	0.00068179	0.00047331	0.00012931	541	4.7717e-06	5.5926e-06	681.11	200.67	3.8721e-06	4.0192e-06	295.4	135.22	84.659	45.36	5.0541e-06	75.331	0.00058283	0.00022827	5.8124e-05	544.06	2.5206e-06	2.0294e-06	685.08	203.7	2.5392e-06	2.3231e-06	299.12	137.68	86.165	46.696	2.8875e-06	77.233	226.863	166.158	177.477	102.850	253.754	231.886	102.224	107.802	261.920	239.017	106.034	110.804	112.106	116.407	255.747	114.100	-8191	255	
1410.914	1	1	0	0	0.1053	0.15312	0.19721	0.18933	0.19243	0.32687	0.15191	0.22594	0.085362	0.056788	0.14353	0.16424	0.28277	0.21302	0.20455	0.11207	-2.8375	-3.0542	-2.6896	-3.2104	-2.8104	-3.1188	-3.0521	-2.6854	-3.2625	-3.0438	-2.8542	-3.1667	-3.0062	-3.0208	-2.8187	-2.8375	411.059	250.084	241.636	96.143	235.456	345.336	350.618	408.183	195.883	415.061	225.406	176.806	394.836	385.752	197.674	100.905	0.0006805	0.00040989	0.00014987	540.39	4.3119e-06	4.478e-06	681.6	200.53	4.0175e-06	4.4446e-06	295.13	134.68	84.165	45.041	5.758e-06	75.436	0.00059246	0.00021714	6.7454e-05	546.93	2.331e-06	2.2302e-06	688.18	203.95	2.2962e-06	2.2132e-06	299.02	137.29	85.733	46.395	2.9183e-06	77.308	226.095	182.858	172.512	102.866	246.651	243.242	102.066	107.846	269.854	235.609	106.036	110.825	112.098	116.302	252.566	113.981	-8191	255	
1411.010	1	1	0	0	0.09199	0.10243	0.093349	0.24651	0.23842	0.13839	0.48532	0.096451	0.14563	0.22646	0.22241	0.27242	0.18794	0.08823	0.20492	0.31937	-2.5833	-2.9104	-2.6688	-3.2458	-2.7083	-2.9604	-3.1208	-2.5792	-2.8875	-3.0312	-3.0396	-3.3396	-2.6667	-2.9208	-3.0979	-2.9292	218.038	281.017	154.759	397.145	95.537	125.818	395.954	147.928	375.729	360.667	400.259	440.077	112.789	146.190	337.956	112.658	0.00068638	0.00045336	0.00015039	543.61	5.3093e-06	5.0477e-06	680.29	201	3.809e-06	4.5989e-06	294.57	134.01	83.433	44.615	4.9017e-06	74.668	0.00059475	0.00022015	6.9873e-05	548.15	2.3563e-06	2.5162e-06	688.67	204.11	2.5032e-06	2.2871e-06	298.6	137.18	85.295	45.974	2.8194e-06	76.461	227.915	169.056	185.264	103.276	251.475	238.786	102.294	107.946	260.529	231.340	106.549	110.779	112.276	116.582	252.220	114.031	-8191	255	
1411.106	1	1	0	0	0.069069	0.31995	0.19911	0.27551	0.050163	0.04449	0.10218	0.30085	0.31189	0.21917	0.21748	0.37616	0.19421	0.15399	0.076694	0.023175	-2.5438	-3.1292	-2.5979	-2.9792	-2.8312	-2.9542	-3.1625	-2.6604	-3.0125	-2.9813	-2.5479	-3.3667	-2.9542	-2.7729	-3.0812	-2.8312	227.393	120.475	352.677	381.704	185.594	350.115	206.784	371.081	110.720	139.299	387.837	95.109	186.741	367.239	114.022	295.365	0.00070067	0.00045261	0.00015399	539.06	3.909e-06	4.9452e-06	675.65	197.74	3.8801e-06	4.2112e-06	290.35	132.12	81.976	43.744	5.4394e-06	73.019	0.00060078	0.00021226	6.5012e-05	544.6	2.2705e-06	2.269e-06	683.4	201.16	2.3712e-06	2.0995e-06	294.08	134.75	83.614	45.051	2.8624e-06	74.947	227.940	167.476	179.732	102.878	257.425	232.192	102.399	107.902	259.858	237.720	105.994	111.149	112.269	116.300	252.849	114.023	-8191	255	
1411.202	1	1	0	0	0.075101	0.13973	0.078847	0.18499	0.077503	0.11912	0.28833	0.15626	0.082782	0.1316	0.36201	0.11865	0.14891	0.082708	0.068811	0.30105	-2.6688	-2.9521	-2.4292	-3.2083	-2.9083	-2.7521	-3.2083	-2.7458	-2.9583	-3.0417	-2.7792	-3.3937	-2.9125	-2.9313	-3.1771	-2.9083	148.304	107.019	280.380	445.182	215.799	208.287	364.037	436.505	227.344	388.407	340.985	90.604	338.660	284.052	195.760	399.364	0.00068069	0.00048668	0.00014446	534.58	4.3659e-06	4.4468e-06	674.38	195.93	3.6901e-06	4.6066e-06	287.8	132.33	82.078	43.672	4.7756e-06	73.12	0.00058569	0.00020649	7.0403e-05	541.91	2.2346e-06	2.2226e-06	681.49	199.68	2.3993e-06	2.127e-06	292.83	134.89	83.547	44.986	2.6638e-06	74.994	227.492	179.757	178.863	102.619	252.569	244.976	102.273	108.115	263.267	238.993	106.248	111.217	112.284	116.303	257.387	114.149	-8191	255	
1411.321	1	1	0	0	0.18709	0.24597	0.37012	0.087053	0.294	0.35337	0.09047	0.1423	0.20702	0.23226	0.097716	0.20712	0.088842	0.16386	0.14413	0.2477	-2.375	-3.1646	-2.4562	-3.2062	-3.1271	-2.7292	-3.4271	-2.8604	-2.7354	-3.3438	-2.6646	-3.1208	-3.2583	-2.85	-3.1312	-3.2625	396.996	185.563	313.090	336.760	109.697	115.557	372.467	431.385	379.578	124.326	293.305	136.937	263.092	93.799	302.763	393.037	0.00067822	0.00049423	0.00010542	536.75	5.0764e-06	3.887e-06	678.78	196.23	3.858e-06	4.0936e-06	287.9	131.68	81.685	43.392	5.4165e-06	73.155	0.00058367	0.00020868	6.8306e-05	542.19	2.2623e-06	2.2046e-06	681.89	199.01	2.4412e-06	2.0114e-06	292.84	134.69	83.184	44.743	2.8551e-06	75.106	227.929	176.396	171.421	103.103	257.143	241.480	102.408	107.632	254.905	241.141	106.089	110.972	112.111	116.355	247.090	114.179	-8191	255	
1411.395	1	1	0	0	0.051531	0.1478	0.34463	0.19268	0.20436	0.12397	0.221	0.30419	0.13478	0.10216	0.039764	0.049285	0.12842	0.22445	0.13792	0.11496	-2.475	-2.9062	-2.6958	-3.0521	-2.9604	-2.7313	-3.2521	-2.8958	-2.8167	-3.2062	-2.6458	-2.9604	-3.3229	-2.8042	-3.1292	-3.1188	367.475	282.831	292.713	385.921	121.695	106.358	143.032	391.655	137.667	425.081	411.462	381.803	107.589	417.751	413.556	423.013	0.00068038	0.0005167	0.00012383	534.42	5.1797e-06	4.7829e-06	677.23	196.83	3.7899e-06	4.3222e-06	288.98	132.62	82.162	43.846	4.4367e-06	73.523	0.00057555	0.00020868	6.5427e-05	541.3	2.2608e-06	2.3845e-06	683.28	199.39	2.5803e-06	2.0389e-06	293.48	135.47	83.474	44.923	2.6282e-06	75.2	228.546	168.113	181.254	103.111	260.986	237.573	102.296	107.918	259.173	241.640	106.131	110.775	112.258	116.388	257.926	114.259	-8191	255	
1411.513	1	1	0	0	0.23047	0.2094	0.2537	0.29902	0.23212	0.20766	0.12049	0.12182	0.27265	0.093215	0.18328	0.18111	0.042079	0.20175	0.30814	0.27406	-2.1542	-3.0979	-2.8187	-2.9229	-3.0187	-2.5167	-3.1458	-3.1146	-2.6792	-3.1729	-2.825	-2.925	-3.2229	-2.7104	-2.9917	-3.2562	220.468	315.387	353.610	361.011	330.880	432.875	387.129	414.319	185.268	258.782	248.819	422.377	425.319	150.747	392.025	407.793	0.00067242	0.00051964	0.00015006	534.81	4.6651e-06	4.5358e-06	672.77	193.98	3.4913e-06	5.3125e-06	287.21	131.61	81.435	43.563	4.6795e-06	73.35	0.00058904	0.00021673	6.4989e-05	539.59	2.325e-06	2.3826e-06	679.38	197.51	2.4635e-06	2.0645e-06	291.46	134.31	83.03	44.819	2.6266e-06	75.07	228.623	174.101	171.923	102.898	246.631	242.271	102.432	107.847	251.666	239.333	105.959	110.923	112.316	116.473	252.116	114.152	-8191	255	
1411.610	1	1	0	0	0.13569	0.22118	0.1057	0.29078	0.1186	0.089991	0.27172	0.1548	0.23017	0.10894	0.12242	0.2183	0.15268	0.15289	0.043858	0.27918	-2.1646	-2.925	-3.0563	-2.8958	-3.0812	-2.6958	-3.1937	-2.9271	-2.3625	-3.2667	-2.9542	-2.7188	-3.275	-2.7479	-3.0083	-3.225	320.386	247.027	226.939	155.134	351.267	321.341	438.481	405.681	367.257	178.817	339.898	399.259	211.950	369.373	425.849	420.980	0.00065986	0.00045104	0.00013588	533.35	4.7453e-06	4.8141e-06	671.35	193.98	3.6016e-06	5.0497e-06	287.63	132.27	81.933	43.768	5.4692e-06	73.26	0.00057282	0.00020885	6.6187e-05	539.1	2.1958e-06	2.2804e-06	678.14	197.71	2.483e-06	2.2426e-06	291.71	134.82	83.318	44.889	2.9321e-06	75.191	227.212	179.955	179.498	102.675	249.187	241.406	102.296	107.821	262.532	229.653	106.060	110.993	112.320	116.304	256.433	114.129	-8191	255	
1411.706	1	1	0	0	0.12687	0.18994	0.082148	0.066664	0.13839	0.08749	0.16974	0.17817	0.17129	0.13749	0.099545	0.13466	0.084069	0.16449	0.11128	0.19134	-2.2396	-3.1562	-2.7938	-2.7333	-3.0604	-2.7896	-3.025	-3.1625	-2.4271	-3.1604	-3.0771	-2.8021	-3.1417	-2.8833	-2.8812	-2.8771	379.046	137.130	132.470	119.303	125.767	431.194	365.954	132.368	96.070	148.414	117.408	384.523	398.709	314.301	434.009	396.292	0.00067705	0.00046489	0.00012308	533.13	4.8995e-06	4.4593e-06	674.48	195.08	3.7977e-06	5.1701e-06	289.18	132.25	81.48	43.66	5.0042e-06	73.242	0.00058518	0.000226	6.2409e-05	538.66	2.26e-06	2.2491e-06	678.45	197.88	2.5644e-06	2.2587e-06	292.54	135.04	83.226	44.918	2.8041e-06	75.344	227.585	176.318	186.553	102.865	256.493	234.448	102.484	107.857	259.977	238.035	106.077	110.730	112.363	116.396	264.826	114.204	-8191	255	
1411.802	1	1	0	0	0.096853	0.081246	0.068185	0.16652	0.19964	0.16683	0.29218	0.11421	0.35578	0.15922	0.23771	0.30758	0.095428	0.31185	0.34111	0.37218	-2.1146	-3.1229	-3.0438	-2.7167	-2.9479	-2.8667	-2.7979	-3.15	-2.8333	-3.0042	-2.9313	-2.6813	-3.0667	-3.0187	-2.6083	-3.25	152.577	370.822	102.670	176.071	107.765	114.584	362.341	375.013	98.763	377.298	171.955	404.428	431.894	446.188	231.016	412.657	0.00067331	0.00051422	0.00010818	533.97	4.7329e-06	4.1901e-06	673.6	194.85	3.4188e-06	4.2584e-06	289.6	132.92	82.088	43.8	4.6818e-06	73.948	0.0005858	0.00022608	5.6212e-05	538.97	2.2802e-06	2.2472e-06	680.75	198.33	2.6286e-06	2.2104e-06	293.89	135.78	83.682	45.115	2.9086e-06	76.02	225.729	173.876	186.428	103.022	254.372	231.994	102.313	107.734	265.836	233.284	106.159	110.960	112.339	116.638	243.368	114.052	-8191	255	
1411.922	1	1	0	0	0.064566	0.18078	0.139	0.12125	0.15494	0.1085	0.10886	0.33684	0.065388	0.19993	0.11521	0.074683	0.14061	0.15248	0.27202	0.30323	-2.2125	-2.9229	-2.8146	-2.5625	-3.1688	-2.8354	-2.6958	-3.1937	-2.7771	-3.0062	-3.0021	-2.6271	-3.1625	-2.9188	-2.3604	-3.3375	447.042	361.038	367.982	418.997	106.118	413.810	334.897	412.486	386.442	378.984	373.724	409.722	418.264	404.377	124.851	129.148	0.00067648	0.00050938	0.00013664	533.47	4.7298e-06	4.8093e-06	676.29	194.41	4.0361e-06	4.6875e-06	287.49	132.45	82.324	43.622	5.9306e-06	73.417	0.00058441	0.00022364	6.0289e-05	538.89	2.2018e-06	2.323e-06	680.12	197.42	2.5017e-06	2.1839e-06	292.49	135.1	83.214	44.851	3.1614e-06	75.251	225.779	176.540	181.286	103.078	249.889	243.276	102.339	107.797	259.251	226.656	105.817	110.950	112.274	116.147	257.798	114.144	-8191	255	
1412.019	1	1	0	0	0.2079	0.23099	0.19329	0.21434	0.07629	0.23794	0.057816	0.23489	0.037115	0.15478	0.099475	0.14919	0.28329	0.22144	0.1602	0.027084	-2.3187	-2.8271	-2.925	-2.7021	-3.0667	-3.1208	-2.4813	-3.2313	-2.8854	-2.8187	-3.0083	-2.6792	-3.2562	-3.0208	-2.7812	-3.3458	156.570	261.928	446.476	180.119	249.906	343.448	428.099	290.991	360.091	164.545	431.724	439.402	341.140	442.287	91.271	118.416	0.0006829	0.00042067	0.00012927	528.13	4.1431e-06	4.8703e-06	672.55	194.94	3.981e-06	4.9272e-06	288.21	132.22	81.366	43.648	5.0654e-06	73.35	0.0005951	0.00021454	5.6304e-05	535.86	2.2107e-06	2.2643e-06	677.59	197.58	2.5313e-06	2.4482e-06	291.85	134.82	83.124	44.884	2.988e-06	75.238	228.172	176.913	184.648	102.719	254.969	242.688	102.469	107.729	261.877	236.188	106.035	111.024	112.216	116.284	269.936	114.191	-8191	255	
1412.090	1	1	0	0	0.11968	0.18782	0.14353	0.22813	0.088895	0.068135	0.18482	0.14737	0.045034	0.2094	0.22443	0.20201	0.11632	0.1209	0.13712	0.13846	-2.3354	-2.6625	-3.05	-2.8729	-3.0146	-2.8479	-2.7125	-3.3667	-2.7875	-2.6937	-3.2208	-2.8229	-3.0479	-2.9313	-2.5563	-2.9542	123.644	236.392	166.252	148.354	220.220	430.005	92.160	361.318	267.952	371.885	136.114	382.209	369.379	262.183	286.405	329.596	0.00067993	0.00047822	0.00012962	527.52	4.8966e-06	4.2066e-06	673.15	194.38	3.7454e-06	4.413e-06	287.87	132.38	81.575	43.8	5.8212e-06	73.926	0.00058946	0.00022486	5.8654e-05	534.68	2.207e-06	2.0607e-06	678.51	197.42	2.5111e-06	2.3999e-06	293.18	135.32	83.252	45.073	3.065e-06	75.812	226.962	169.309	191.214	102.952	248.695	229.346	102.236	107.821	258.321	232.006	106.135	110.828	112.183	116.161	251.677	114.131	-8191	255	
1412.211	1	1	0	0	0.13524	0.15897	0.026278	0.10365	0.13636	0.32523	0.22855	0.070635	0.12434	0.16078	0.25415	0.27719	0.15245	0.40099	0.13684	0.32345	-2.4875	-2.8271	-2.9813	-2.7188	-2.8896	-3.0042	-2.85	-3.0875	-2.9313	-2.6125	-3.2396	-2.9854	-2.9104	-2.9354	-2.6688	-3.2417	182.386	361.953	300.006	358.087	434.436	285.396	332.530	207.383	402.461	385.139	413.742	191.060	387.977	419.526	198.251	384.291	0.0006948	0.00048495	0.00014967	532.49	4.8975e-06	6.1325e-06	671.72	195.09	4.0903e-06	4.5851e-06	289.41	133.07	82.343	44.025	5.5615e-06	74.639	0.00059466	0.00023974	5.7018e-05	536.65	2.5348e-06	2.2368e-06	679.09	198.21	2.3993e-06	2.1914e-06	293.46	135.86	83.667	45.279	3.0812e-06	76.276	226.179	168.741	174.193	102.828	250.486	247.653	102.463	107.883	264.837	241.916	106.008	111.103	112.390	116.235	260.975	113.963	-8191	255	
1412.305	1	1	0	0	0.19874	0.23471	0.072487	0.14035	0.16448	0.095218	0.26295	0.22963	0.25914	0.12371	0.095303	0.051945	0.10418	0.12084	0.094501	0.11438	-2.5833	-2.6833	-3.0542	-2.7333	-2.8083	-3.0729	-2.6167	-3.1104	-2.9521	-2.7083	-3.1312	-3.0333	-2.8458	-3.0625	-2.7708	-3.1417	142.813	306.761	125.722	322.575	257.985	195.041	352.523	100.238	305.940	271.708	431.738	296.514	419.211	142.901	164.748	142.984	0.00068912	0.0005107	0.0001299	529.8	4.1545e-06	4.0903e-06	676.55	195.57	3.6407e-06	4.1426e-06	289.73	132.88	82.395	44.058	5.4049e-06	74.383	0.00058973	0.00023575	6.2524e-05	536.21	2.1839e-06	2.0976e-06	681.15	198.26	2.4484e-06	2.2341e-06	294.2	135.7	83.727	45.261	2.9524e-06	76.07	227.745	171.605	174.478	102.975	251.948	238.296	102.351	107.686	270.193	233.571	105.853	111.007	112.114	116.321	251.782	114.056	-8191	255	
1412.401	1	1	0	0	0.22687	0.2478	0.20068	0.053814	0.1142	0.11598	0.10835	0.14713	0.14383	0.14388	0.23044	0.21471	0.24864	0.17069	0.21286	0.24432	-2.55	-2.7083	-2.9708	-2.9583	-2.6688	-3.0125	-2.7958	-2.9062	-3.025	-2.7833	-3.1396	-3.1875	-2.6813	-3.2646	-2.7771	-3.1229	200.739	412.370	278.021	333.885	251.834	417.593	401.683	363.943	425.150	249.191	369.032	129.114	413.231	228.616	412.013	405.160	0.00066912	0.00049645	0.00013917	529.78	4.9773e-06	5.1701e-06	674.43	194.35	4.3743e-06	4.7635e-06	288.83	132.64	81.974	43.769	5.3787e-06	74.134	0.00057677	0.00023535	5.9506e-05	535.06	2.2989e-06	2.1004e-06	679.53	197.82	2.4779e-06	2.4908e-06	293.33	135.26	83.347	45.088	3.0626e-06	75.724	225.803	178.563	166.905	103.149	255.243	250.086	102.151	107.891	257.831	237.166	106.060	110.882	112.019	116.221	250.987	113.989	-8191	255	
1412.498	1	1	0	0	0.1029	0.31917	0.32157	0.10807	0.10223	0.21574	0.13463	0.041126	0.28025	0.20797	0.38868	0.29829	0.10155	0.094032	0.12235	0.10072	-2.5854	-2.7104	-3.2458	-2.8729	-2.6063	-3.2646	-2.9125	-2.8708	-3.0521	-3.0271	-3.1979	-2.8125	-2.5521	-3.2687	-2.8021	-3.0125	236.422	432.714	224.345	183.555	200.131	415.506	157.193	119.589	377.058	378.117	418.774	388.367	107.043	442.905	398.749	381.880	0.0006745	0.00047071	0.00013803	530.54	4.6691e-06	4.7771e-06	671.83	194.26	3.7774e-06	4.6915e-06	290.03	133.66	81.797	44.25	5.2999e-06	74.263	0.00058277	0.00022039	6.0704e-05	534.7	2.552e-06	2.2198e-06	677.89	198.06	2.4166e-06	2.3904e-06	294.61	136.06	83.739	45.364	2.9913e-06	76.195	226.905	175.945	171.956	102.832	247.902	247.118	102.264	108.016	251.048	244.302	106.134	110.997	112.232	116.258	252.875	114.219	-8191	255	
1412.618	1	1	0	0	0.070333	0.10013	0.10909	0.15201	0.21152	0.17504	0.10838	0.14165	0.19505	0.13917	0.16468	0.26249	0.096311	0.15245	0.043213	0.0811	-2.7958	-2.7271	-2.9313	-2.9521	-2.7479	-3.3438	-2.7646	-2.8104	-3.2604	-2.8333	-3.1792	-3.1667	-2.6083	-3.3104	-2.9792	-3.0146	307.219	264.805	333.328	129.336	181.785	428.540	405.968	381.271	210.903	351.088	378.826	449.565	141.514	144.005	251.666	383.875	0.00069306	0.00049315	0.00012187	527.11	4.714e-06	5.0312e-06	673.08	194.02	3.9586e-06	4.8293e-06	289.97	133.41	81.846	44.241	5.6906e-06	74.707	0.00059281	0.00024453	6.1349e-05	533.3	2.3563e-06	2.1743e-06	678.66	197.5	2.439e-06	2.3288e-06	294.15	136.11	83.493	45.434	2.8097e-06	76.666	226.881	169.315	175.387	103.017	254.896	238.227	102.076	107.817	267.757	250.577	106.091	110.755	112.138	116.127	255.394	114.067	-8191	255	
1412.690	1	1	0	0	0.11214	0.25698	0.12592	0.087616	0.28238	0.19073	0.20709	0.20023	0.2356	0.1185	0.20228	0.16523	0.26183	0.076597	0.26999	0.20995	-2.7896	-2.7438	-2.9271	-3.0938	-2.5417	-3.1083	-3.0354	-2.8875	-3.1083	-2.85	-3.0354	-3.2104	-2.5479	-3.2667	-2.9875	-2.725	311.075	274.224	103.240	417.858	250.365	361.471	409.828	138.367	294.354	124.159	436.841	411.901	131.460	304.179	321.818	341.867	0.0006985	0.00051829	0.00013028	528.17	5.5237e-06	5.2791e-06	676.46	194.26	3.7505e-06	5.3544e-06	289.1	133.9	82.266	44.147	4.578e-06	74.507	0.00059418	0.00024754	6.1556e-05	532.71	2.4482e-06	2.2718e-06	679.33	197.12	2.4866e-06	2.524e-06	294.4	136.47	83.531	45.382	2.6946e-06	76.458	227.159	175.973	167.596	102.730	252.264	235.462	102.395	108.094	259.413	244.273	106.163	110.904	112.131	116.330	251.464	114.043	-8191	255	
1412.786	1	1	0	0	0.14015	0.065888	0.10465	0.10777	0.20903	0.084008	0.26743	0.033753	0.3874	0.13014	0.13557	0.31042	0.21115	0.10132	0.056304	0.23322	-2.6604	-2.8979	-2.9562	-3.0563	-2.7875	-3.2125	-2.95	-2.6396	-3.1063	-3.0208	-2.8375	-3.0687	-2.8333	-3.2562	-2.8771	-2.7625	103.657	248.175	447.178	398.777	264.674	371.319	373.394	96.135	396.835	100.917	347.060	440.581	385.209	327.739	125.392	398.207	0.00070261	0.00046478	0.00014607	527.6	3.8922e-06	4.247e-06	671.32	194.21	3.5722e-06	5.2892e-06	287.32	132.44	81.776	43.879	5.735e-06	73.604	0.00060078	0.00022063	6.0589e-05	532.53	2.3541e-06	2.037e-06	676.92	196.94	2.4001e-06	2.4747e-06	292.1	135.51	83.294	44.995	2.9199e-06	75.583	228.795	180.352	171.851	103.218	254.279	242.342	102.527	107.864	259.513	238.412	106.326	110.849	112.419	116.200	253.536	114.175	-8191	255	
1412.882	1	1	0	0	0.35874	0.028725	0.19565	0.034047	0.13333	0.28708	0.14927	0.14798	0.054431	0.2177	0.11716	0.13912	0.16999	0.32313	0.25665	0.33608	-2.7104	-3.0104	-2.7958	-3.1562	-2.7125	-3.1021	-3.1625	-2.5458	-2.9437	-3.0271	-2.9083	-3.2542	-2.7125	-2.7583	-3.0563	-2.9229	352.511	125.154	330.749	366.755	114.471	208.894	381.525	437.497	408.151	141.838	406.217	316.810	339.917	410.252	211.334	385.630	0.00068177	0.0004863	0.00015152	521.9	4.2379e-06	4.0472e-06	667.36	191.87	4.1044e-06	4.6219e-06	288.71	132.29	80.975	43.785	4.1325e-06	74.213	0.00057582	0.00022445	6.9274e-05	527.94	2.2951e-06	2.1478e-06	673.08	195.26	2.3698e-06	2.2369e-06	291.71	135.04	82.813	44.987	2.659e-06	75.946	228.527	173.388	182.508	102.817	249.424	240.852	102.206	107.919	261.147	237.175	106.139	111.045	112.462	116.452	261.632	114.061	-8191	255	
1413.003	1	1	0	0	0.059374	0.21486	0.15388	0.41123	0.078454	0.17799	0.049477	0.29067	0.13374	0.13222	0.084567	0.26851	0.11542	0.22306	0.1059	0.13404	-2.3854	-2.7667	-2.4167	-3.1208	-2.5479	-2.825	-2.9917	-2.7146	-3.1688	-3.1813	-2.7562	-3.3104	-2.8125	-2.7354	-2.9458	-2.8396	242.438	259.978	333.609	97.798	302.666	143.782	425.808	377.490	379.805	152.395	393.439	329.134	339.322	362.873	159.353	417.692	0.00065729	0.00042174	0.00015095	521.41	4.5777e-06	5.2208e-06	667.66	193.66	4.0758e-06	4.8718e-06	290.6	133.57	82.484	44.526	5.8484e-06	75.154	0.00057484	0.00020177	6.6993e-05	527.89	2.3623e-06	2.6023e-06	674.81	196.87	2.674e-06	2.235e-06	294.56	136.51	84.065	45.9	2.7911e-06	77.226	227.078	178.411	185.241	102.944	254.550	238.942	102.148	107.825	261.244	234.427	105.891	110.906	112.342	116.100	260.351	114.013	-8191	255	
1413.099	1	1	0	0	0.19171	0.098498	0.25048	0.11677	0.16838	0.33945	0.047366	0.16575	0.11092	0.08872	0.19867	0.27175	0.20492	0.068421	0.1111	0.21477	-2.5792	-2.9583	-2.7313	-3.0917	-2.7125	-2.7125	-3.3187	-2.8104	-2.8125	-3.1083	-2.7979	-3.2771	-2.9333	-2.7396	-3.0917	-2.9708	239.001	310.122	351.954	108.334	418.951	270.163	440.479	133.901	245.222	169.740	435.470	441.029	344.885	320.027	264.323	416.083	0.00070301	0.00047653	0.00013531	523.36	4.6552e-06	5.5618e-06	674.77	195.19	3.7752e-06	5.723e-06	293.16	135.41	83.277	45.301	5.1351e-06	76.335	0.00061566	0.00022754	6.5887e-05	528.77	2.4512e-06	2.6203e-06	678.36	198.82	2.545e-06	2.4672e-06	298	138.44	85.094	46.636	2.7254e-06	78.269	226.107	176.100	185.597	102.656	252.834	245.041	102.292	107.848	263.008	239.592	106.375	110.777	112.265	116.348	252.895	114.034	-8191	255	
1413.195	1	1	0	0	0.27027	0.25814	0.34314	0.19977	0.16681	0.23199	0.035614	0.18071	0.1768	0.52984	0.21532	0.14431	0.15011	0.10066	0.14022	0.052593	-2.5438	-2.8354	-2.4521	-3.0583	-3.1708	-2.7062	-3.0667	-2.7687	-2.9062	-2.9729	-2.7292	-3.25	-3.1937	-2.7917	-3.1021	-2.9792	231.449	252.315	199.889	287.232	343.640	339.594	342.789	94.132	290.434	251.823	94.343	429.806	420.840	96.829	166.020	301.833	0.00067576	0.00051785	0.00012597	523.3	4.2864e-06	5.6638e-06	670.58	195.45	3.7753e-06	3.8936e-06	292.56	135.41	83.449	45.402	5.0171e-06	75.89	0.00059077	0.00022112	6.3699e-05	529.36	2.207e-06	2.7065e-06	677.47	199.17	2.5507e-06	2.1791e-06	297.1	138.11	85.019	46.508	2.766e-06	77.695	225.919	170.599	175.484	102.658	243.808	236.094	102.382	107.994	264.761	241.186	106.064	110.930	112.133	116.182	257.539	113.990	-8191	255	
1413.291	1	1	0	0	0.1775	0.26405	0.030774	0.02624	0.098368	0.072722	0.10081	0.055777	0.031869	0.22145	0.16114	0.1792	0.1652	0.090104	0.25648	0.1948	-2.325	-3.0833	-2.5896	-2.9792	-3.1167	-2.6562	-3.1208	-2.9417	-2.9375	-3.2396	-2.6667	-3.0687	-3.1063	-2.9062	-3.2208	-3.075	317.033	169.234	200.660	244.006	295.473	249.847	354.050	290.082	447.737	360.232	122.999	398.965	95.192	418.501	174.519	376.200	0.00069505	0.00047382	0.00011565	523.22	4.3444e-06	4.9229e-06	669.31	193.91	3.7518e-06	5.0898e-06	289.42	134.37	82.915	44.913	4.4885e-06	75.449	0.00059893	0.00021722	6.5334e-05	527.88	2.1928e-06	2.4972e-06	674.5	197.44	2.4686e-06	2.1867e-06	295.39	137.02	84.523	46.196	2.7733e-06	77.376	228.292	163.805	181.248	102.920	246.069	230.247	102.746	107.765	255.058	236.571	106.137	110.809	112.276	116.303	255.218	114.048	-8191	255	
1413.387	1	1	0	0	0.11847	0.32886	0.067939	0.31654	0.040725	0.10869	0.075361	0.043621	0.15805	0.24292	0.24149	0.06761	0.29258	0.14874	0.25579	0.21962	-2.4437	-3.2938	-2.7687	-2.7396	-3.0354	-2.6937	-3.2	-3.15	-2.6583	-3.1021	-2.8604	-2.7938	-3.1375	-2.8604	-3.0438	-3.1208	293.411	269.602	151.483	401.214	115.690	426.675	114.490	214.411	369.682	380.597	420.208	284.179	427.263	356.676	380.851	185.822	0.00066571	0.0005965	0.00014269	523.21	5.2144e-06	4.6898e-06	668.07	195.15	3.7043e-06	3.9714e-06	291.26	134.05	82.749	44.708	5.1018e-06	75.903	0.00059047	0.00022201	7.1716e-05	529.03	2.387e-06	2.3495e-06	676.26	198.35	2.6127e-06	1.9915e-06	295.97	137.35	84.488	46.182	2.9045e-06	77.633	227.766	176.848	186.538	103.062	256.653	236.193	102.411	107.704	259.344	238.144	105.901	110.848	112.278	116.193	252.499	114.026	-8191	255	
1413.484	1	1	0	0	0.069503	0.16368	0.14747	0.19997	0.064297	0.12251	0.21675	0.10534	0.27801	0.090516	0.15535	0.27261	0.17854	0.1912	0.095585	0.27927	-2.2125	-3.0271	-2.6479	-3.1396	-3.3146	-2.7583	-2.9896	-2.95	-2.6583	-3.1312	-2.7229	-3.0333	-3.1208	-2.9271	-3.0062	-3.1125	119.880	352.539	240.891	372.518	195.172	435.167	342.434	409.006	308.336	398.562	111.408	380.156	294.343	421.929	246.690	377.765	0.00068917	0.0005021	0.0001455	523.68	4.6327e-06	4.7702e-06	671.03	195.7	4.2396e-06	4.9463e-06	291.18	134.84	82.905	44.776	5.8422e-06	75.616	0.00060081	0.0002273	6.7177e-05	528.29	2.3168e-06	2.4177e-06	677.33	198.26	2.6178e-06	2.1952e-06	295.93	137.46	84.373	46.084	2.9167e-06	77.564	226.280	167.634	181.800	102.967	262.294	240.816	102.159	107.835	263.170	245.848	106.008	110.850	112.144	116.141	253.924	114.026	-8191	255	
1413.602	1	1	0	0	0.25896	0.20734	0.032797	0.13103	0.15451	0.09824	0.21336	0.23133	0.32299	0.15818	0.16904	0.22545	0.024472	0.22514	0.15984	0.17424	-2.2646	-3.1042	-2.8771	-2.9104	-3.1312	-2.6896	-2.9354	-3.0208	-2.7833	-3.1375	-3.0312	-2.9229	-3.0062	-2.6271	-2.9979	-3.2854	289.718	442.021	108.733	210.271	354.309	133.239	447.111	420.144	338.660	405.291	428.418	403.371	309.106	98.713	119.462	347.233	0.00068704	0.00046931	0.00015087	523.2	4.0057e-06	4.3445e-06	674.27	194.26	3.8767e-06	5.4683e-06	291.01	133.71	82.585	44.391	5.1155e-06	74.645	0.00060196	0.00022169	6.5588e-05	528.67	2.2899e-06	2.4281e-06	678	197.67	2.6344e-06	2.2521e-06	295.32	136.87	84.013	45.762	2.9913e-06	76.657	228.427	175.470	178.761	102.715	246.899	240.497	102.540	107.748	255.306	241.027	105.830	110.799	112.266	116.284	263.097	114.027	-8191	255	
1413.699	1	1	0	0	0.151	0.18051	0.083371	0.18485	0.17623	0.15118	0.061665	0.13745	0.19945	0.23858	0.12155	0.4047	0.10778	0.26743	0.23825	0.1461	-2.1396	-3.0417	-2.9292	-2.9208	-3.1292	-2.5979	-2.9771	-3.1375	-2.5938	-2.8875	-3.1813	-2.8729	-3.3083	-2.8563	-2.8063	-3.1813	305.880	95.379	251.863	417.245	418.701	390.513	232.973	362.167	244.015	374.424	194.270	446.018	97.453	436.436	302.177	385.694	0.00068707	0.00046881	0.0001337	519.25	4.5796e-06	5.6321e-06	667.82	193.84	3.7616e-06	5.5417e-06	290.54	134.25	82.141	44.329	4.8397e-06	74.926	0.00059703	0.00021096	6.1326e-05	526.45	2.2137e-06	2.5844e-06	673.94	196.97	2.6906e-06	2.4349e-06	294.88	136.67	83.758	45.639	2.8908e-06	76.71	227.574	172.531	182.609	102.660	246.960	243.509	102.262	107.909	255.300	234.977	105.999	110.855	112.225	116.319	257.884	114.092	-8191	255	
1413.795	1	1	0	0	0.021117	0.25028	0.16276	0.14419	0.14112	0.177	0.13331	0.28158	0.082544	0.23884	0.34111	0.10769	0.13545	0.3008	0.37628	0.13849	-2.4125	-3.0167	-2.6479	-2.5125	-3.1813	-2.9813	-2.9396	-3.1063	-2.5854	-3.2292	-2.9604	-2.7042	-3.1083	-2.9813	-2.8688	-3.2208	313.920	419.956	420.690	370.390	439.727	279.825	354.871	376.546	283.562	233.850	388.656	91.154	350.057	339.006	356.612	403.131	0.00067826	0.00040614	0.00013952	522	4.8225e-06	4.8827e-06	670.18	194.42	4.3652e-06	3.9184e-06	289.91	133.82	82.67	44.584	4.7701e-06	75.315	0.00058655	0.00020063	5.8608e-05	528.43	2.1928e-06	2.2169e-06	675.73	197.72	2.7231e-06	2.0247e-06	295.04	136.92	84.175	45.841	2.8843e-06	77.054	227.064	180.418	171.890	102.980	257.298	233.629	102.259	108.045	263.217	229.957	105.918	110.966	112.162	116.428	253.723	113.938	-8191	255	
1413.915	1	1	0	0	0.12776	0.18585	0.092669	0.066923	0.034168	0.19197	0.22319	0.27928	0.1783	0.1296	0.10747	0.13628	0.20612	0.15222	0.27421	0.14623	-2.2021	-2.8958	-2.9938	-2.8542	-2.9813	-2.8187	-2.7354	-3.1396	-2.7604	-2.9792	-2.8417	-2.7958	-3.3354	-3.1208	-2.8312	-3.2896	322.912	114.027	263.688	351.555	117.399	380.146	90.758	369.207	224.667	101.365	183.911	339.623	273.618	124.909	120.763	371.860	0.00067485	0.00045506	0.0001392	523.22	4.7463e-06	5.1658e-06	672.41	193.78	4.071e-06	4.4992e-06	289.28	133.82	81.995	44.396	5.8173e-06	74.928	0.00059023	0.00023413	6.0335e-05	528.12	2.1533e-06	2.4508e-06	677.27	196.82	2.7094e-06	2.2653e-06	294.37	136.76	83.622	45.623	3.0002e-06	77.037	227.092	172.142	181.184	102.899	256.490	244.316	102.415	107.811	262.986	238.565	106.002	110.880	112.406	115.947	250.683	113.902	-8191	255	
1413.987	1	1	0	0	0.10406	0.072671	0.023523	0.25989	0.19767	0.21996	0.30907	0.22899	0.1036	0.28517	0.1498	0.27621	0.28909	0.26155	0.15993	0.45032	-2.2562	-2.8875	-3.0396	-2.7021	-3.0812	-2.9354	-2.6375	-3.2667	-2.7083	-2.8708	-3.2292	-2.8729	-3.1146	-2.9333	-2.7604	-3.2271	217.161	116.094	276.329	120.487	344.722	323.155	383.086	102.557	349.999	240.245	255.216	423.644	99.734	101.179	343.218	412.084	0.00068459	0.00043381	0.00015815	524.16	5.191e-06	5.5193e-06	668	193.28	3.906e-06	4.8519e-06	291.2	133.89	82.355	44.395	5.4184e-06	74.696	0.00059172	0.000226	6.181e-05	527.78	2.3646e-06	2.4603e-06	677.32	196.49	2.687e-06	2.3288e-06	294.63	136.82	83.673	45.535	2.9572e-06	76.686	226.900	168.971	177.885	102.725	251.255	240.152	102.222	108.096	259.169	234.876	105.971	110.980	112.422	116.358	247.758	113.960	-8191	255	
1414.083	1	1	0	0	0.25476	0.18603	0.32884	0.23109	0.19502	0.10946	0.20685	0.096392	0.059138	0.24557	0.25397	0.15103	0.259	0.21119	0.12609	0.19787	-2.5083	-2.9167	-3.1875	-2.7771	-2.8812	-2.9729	-2.6542	-3.4083	-2.9083	-2.7021	-3.15	-2.8438	-3.0417	-3.1417	-2.6646	-3.3083	434.634	268.905	211.214	126.036	234.954	244.041	306.513	275.397	246.090	249.272	300.986	318.390	440.194	427.678	167.906	351.991	0.00067311	0.00044437	0.00011697	519.64	4.4435e-06	5.0976e-06	670.67	194.51	3.5812e-06	4.7979e-06	291.28	133.99	82.61	44.42	5.1304e-06	75.102	0.00058046	0.00022892	5.5613e-05	526.19	2.3466e-06	2.162e-06	675.53	197.47	2.4484e-06	2.3345e-06	295.28	136.84	83.82	45.718	2.9483e-06	76.949	226.631	162.196	179.081	102.648	255.172	237.095	102.595	107.734	264.989	246.981	105.926	110.774	112.319	116.203	249.859	114.070	-8191	255	
1414.179	1	1	0	0	0.18911	0.067224	0.088167	0.10199	0.05916	0.21408	0.19162	0.32565	0.2772	0.13375	0.22355	0.082672	0.023656	0.055369	0.19378	0.18997	-2.2875	-2.8187	-3.3396	-2.9938	-2.9188	-3.2333	-2.7375	-3.0271	-2.9667	-2.8542	-3.2292	-2.8708	-2.8396	-3.0604	-2.5625	-3.1146	440.034	397.988	176.989	255.878	162.961	145.135	99.789	432.349	240.494	168.939	401.522	370.847	293.080	319.087	240.506	96.685	0.00067972	0.00043435	0.00013206	518.74	4.4266e-06	4.6528e-06	669.75	193.4	4.4875e-06	4.8118e-06	292	134.2	82.308	44.281	5.0909e-06	75.076	0.00059148	0.00020933	6.022e-05	526.3	2.2563e-06	2.1667e-06	675.92	196.88	2.4556e-06	2.3743e-06	295.91	136.87	83.793	45.527	3.1015e-06	76.863	226.686	166.715	170.061	103.005	249.082	238.944	102.198	107.472	263.513	250.148	105.803	110.896	112.216	116.313	249.545	114.043	-8191	255	
1414.298	1	1	0	0	0.13916	0.15167	0.1683	0.08472	0.22282	0.051634	0.2537	0.16876	0.31465	0.078392	0.13852	0.27247	0.2384	0.086026	0.13318	0.1995	-2.1813	-2.5479	-2.9437	-2.7938	-2.8604	-2.9875	-2.6063	-2.8292	-2.8354	-2.7479	-3.3396	-3.1333	-2.9604	-3.0625	-2.5208	-3.0833	198.846	125.507	343.659	420.593	337.656	212.225	389.457	448.191	245.675	300.186	378.041	400.773	172.185	184.228	231.240	278.618	0.00067264	0.00052881	0.00014256	522.16	4.9248e-06	4.6782e-06	669.46	193.19	4.18e-06	4.865e-06	288.04	132.76	81.43	43.837	5.4587e-06	74.489	0.00057882	0.00025624	5.529e-05	527.51	2.2891e-06	2.34e-06	675.92	196.04	2.5515e-06	2.398e-06	293.24	135.85	83.058	45.221	3.1031e-06	76.542	227.569	166.783	176.480	102.737	247.583	245.037	102.412	107.720	254.742	239.820	106.134	110.856	112.195	116.377	262.386	114.052	-8191	255	
1414.394	1	1	0	0	0.066241	0.19236	0.35268	0.34444	0.12905	0.085812	0.24278	0.11513	0.2841	0.25619	0.2555	0.11162	0.16483	0.18711	0.19389	0.31383	-2.5646	-2.3396	-2.9771	-2.9292	-2.8917	-3.2	-2.9854	-3.0833	-2.9646	-2.6937	-3.2729	-2.9479	-2.8458	-2.9771	-2.5333	-2.9667	392.187	267.300	216.248	113.594	231.341	157.166	387.281	440.762	418.363	248.768	104.051	404.133	448.032	390.773	233.730	439.997	0.00070522	0.00052493	0.00014083	522.12	4.9113e-06	4.6917e-06	670.7	193.91	3.7782e-06	4.5349e-06	290.31	133.76	81.802	44.415	5.5176e-06	75.076	0.00060098	0.0002321	5.7363e-05	527.37	2.4205e-06	2.1544e-06	676.79	196.51	2.4974e-06	2.4548e-06	294.64	136.66	83.391	45.621	3.0674e-06	76.824	226.312	167.052	186.348	102.798	255.245	237.088	102.526	107.766	267.291	237.748	106.212	110.782	112.078	116.407	254.529	114.207	-8191	255	
1414.491	1	1	0	0	0.14931	0.23995	0.10402	0.088119	0.086167	0.16554	0.20889	0.11833	0.018089	0.23178	0.2543	0.25051	0.2702	0.21567	0.12776	0.23267	-2.6833	-2.9271	-2.9583	-2.7875	-2.8667	-3.3396	-2.8917	-2.8458	-3.0458	-2.7667	-2.8292	-2.8937	-2.7104	-3.225	-2.8125	-2.9542	351.447	137.172	158.134	91.039	184.120	342.982	349.112	100.001	263.022	419.655	164.701	378.367	396.146	327.479	123.316	405.889	0.00068742	0.0004434	0.00014091	520.65	4.1965e-06	4.3249e-06	665.04	192.77	3.8552e-06	3.8597e-06	289.49	133.01	82.259	44.102	5.076e-06	74.509	0.00058687	0.00021933	6.128e-05	526.14	2.3407e-06	2.2084e-06	673.53	195.57	2.3395e-06	2.3686e-06	293.63	135.92	83.406	45.488	2.9848e-06	76.438	227.124	177.961	186.461	102.873	259.793	239.892	102.286	107.553	257.915	232.021	106.064	110.682	112.369	116.096	254.772	114.015	-8191	255	
1414.564	1	1	0	0	0.16684	0.15664	0.042	0.043378	0.036517	0.22062	0.046215	0.18759	0.38678	0.17105	0.12314	0.20014	0.20983	0.36908	0.07406	0.13279	-2.4562	-2.7417	-3.0729	-2.9062	-2.7375	-3.2958	-2.8438	-2.8146	-3.1146	-2.5938	-3.1146	-3.0458	-2.5271	-3.1292	-2.8	-3.0771	390.135	283.542	267.818	384.122	154.714	200.831	400.712	346.943	426.707	441.918	390.578	381.241	361.922	430.333	382.010	402.439	0.00069076	0.00048699	0.00012589	520.63	4.7663e-06	4.9457e-06	667.09	191.51	3.7886e-06	5.4183e-06	289.67	132.76	81.474	43.893	4.9241e-06	74.376	0.0005905	0.00022949	6.3699e-05	524.13	2.3683e-06	2.3201e-06	673.06	195.42	2.4246e-06	2.4141e-06	293.55	135.7	83.231	45.352	2.9167e-06	76.338	226.330	163.045	172.084	102.779	254.376	233.768	102.236	107.800	259.183	241.903	106.260	110.843	112.423	116.119	249.126	113.922	-8191	255	
1414.683	1	1	0	0	0.1358	0.31191	0.02274	0.19431	0.06972	0.25708	0.12084	0.15462	0.088503	0.045328	0.18976	0.14347	0.22628	0.38542	0.13717	0.25654	-3.0042	-2.5979	-2.8396	-2.9917	-2.7979	-3.1729	-2.9208	-2.6937	-3.0958	-2.7938	-2.9917	-3.15	-2.75	-3.1771	-2.9604	-2.7458	136.971	97.550	445.832	123.998	129.869	162.072	326.700	406.729	210.528	103.893	151.918	423.972	428.864	373.628	127.206	389.650	0.00068197	0.00044179	0.00012734	519.66	4.5314e-06	4.3853e-06	667.47	192.03	3.2425e-06	5.579e-06	289.63	133.51	81.654	44.074	6.3993e-06	74.989	0.00057829	0.00022876	6.6671e-05	525.43	2.4325e-06	2.0796e-06	674.07	195.41	2.3381e-06	2.5581e-06	293.68	136.17	83.228	45.416	3.082e-06	76.685	228.888	179.439	177.974	102.828	255.757	240.043	102.296	107.657	257.143	241.669	105.984	110.761	112.298	116.218	253.226	114.005	-8191	255	
1414.779	1	1	0	0	0.11549	0.011055	0.052084	0.095926	0.21321	0.11594	0.30611	0.1699	0.12775	0.24703	0.14533	0.24841	0.14247	0.061487	0.34528	0.20078	-2.7	-2.7708	-3.0021	-3.0458	-2.5667	-2.9688	-3.1104	-2.7708	-3.3396	-3.0458	-2.9625	-3.3063	-2.7604	-2.9542	-2.7917	-2.9437	117.691	202.466	437.949	348.961	352.590	152.021	346.408	127.138	248.739	372.925	112.856	374.798	431.181	179.096	319.945	445.767	0.00068193	0.00049467	0.00013402	519.46	4.446e-06	5.4159e-06	669.01	190.89	3.8583e-06	5.3485e-06	289.22	133.14	80.886	43.668	4.8722e-06	74.373	0.00058209	0.00022966	6.4229e-05	525.15	2.4751e-06	2.2188e-06	674.31	194.77	2.3417e-06	2.1858e-06	292.43	135.76	82.463	45.015	2.8113e-06	76.271	227.212	173.871	178.487	102.793	248.283	226.315	102.034	107.712	261.373	235.625	105.784	110.914	112.227	116.305	260.333	114.016	-8191	255	
1414.875	1	1	0	0	0.10863	0.21658	0.32199	0.13104	0.21845	0.086189	0.15768	0.16117	0.32104	0.2566	0.22841	0.16925	0.19515	0.14288	0.19554	0.12056	-2.8625	-2.6729	-2.475	-3.2604	-2.7229	-2.8354	-3.0542	-2.9521	-3.1625	-2.8125	-2.8333	-3.2062	-2.9479	-3.1021	-3.0458	-2.6833	244.616	144.353	125.945	376.953	287.295	215.765	319.669	437.347	411.158	163.871	346.120	374.974	346.001	401.274	235.068	289.593	0.00068765	0.00047323	0.00013855	518.52	4.2276e-06	5.068e-06	669.44	191.63	3.514e-06	4.6148e-06	287.86	131.81	80.772	43.304	4.7512e-06	73.447	0.00058687	0.00022827	6.4989e-05	525.43	2.3548e-06	2.4025e-06	673.9	194.62	2.3417e-06	1.9063e-06	291.54	134.89	82.355	44.652	2.6873e-06	75.305	226.549	168.123	181.102	102.711	254.299	247.482	102.386	107.716	262.598	233.807	105.900	110.864	112.228	116.377	254.780	114.190	-8191	255	
1414.996	1	1	0	0	0.23167	0.15265	0.14215	0.37362	0.2202	0.10358	0.21108	0.29166	0.21482	0.15119	0.27678	0.15151	0.3141	0.073467	0.083466	0.2169	-2.6667	-3.1146	-2.75	-2.9542	-2.6604	-2.9896	-3.1396	-2.5792	-2.9667	-2.8625	-2.8729	-3.1292	-2.8708	-3.1146	-3.0792	-2.7396	338.718	346.093	440.596	111.042	210.741	261.047	409.737	424.096	297.882	404.817	426.236	370.448	445.530	182.041	152.581	423.229	0.00065599	0.00051761	0.0001396	515.5	4.6786e-06	4.4669e-06	666.25	189.89	3.459e-06	4.7372e-06	285.35	131.45	80.329	43.276	4.0362e-06	73.415	0.0005629	0.00021754	6.1856e-05	523.69	2.2981e-06	2.1629e-06	671.93	193.25	2.47e-06	2.2606e-06	289.78	134.15	81.79	44.445	2.7076e-06	75.193	227.070	179.553	177.041	102.985	260.397	243.214	102.368	107.676	255.837	244.116	106.228	110.586	112.402	116.260	251.397	114.029	-8191	255	
1415.092	1	1	0	0	0.28034	0.12345	0.15704	0.089199	0.16189	0.083917	0.087342	0.30405	0.14263	0.10212	0.24664	0.17287	0.24742	0.25836	0.22782	0.075198	-2.6042	-2.9271	-2.7313	-3.1333	-2.7979	-2.8187	-2.9458	-2.8333	-3.1292	-2.8979	-2.6542	-3.2208	-2.9562	-2.8854	-3.025	-2.7812	368.763	277.754	305.326	355.836	299.964	265.402	294.952	106.841	268.291	146.698	428.554	145.361	407.950	385.040	371.000	305.772	0.00066341	0.00047804	0.00012424	518.34	4.0478e-06	4.8768e-06	667.48	190.29	3.5531e-06	4.7622e-06	285.03	131.27	79.992	42.91	4.8521e-06	73.336	0.00057651	0.00022681	5.9759e-05	524.3	2.2473e-06	2.6004e-06	672.91	193.26	2.364e-06	2.1517e-06	290.12	134.28	81.616	44.283	2.736e-06	75.303	227.151	174.618	175.290	102.759	245.726	245.001	102.032	107.837	261.436	237.021	106.152	110.902	112.244	116.429	252.133	114.115	-8191	255	
1415.188	1	1	0	0	0.3479	0.083918	0.028551	0.42037	0.17566	0.15304	0.099681	0.1554	0.16199	0.085138	0.085969	0.49301	0.12143	0.10708	0.34947	0.23173	-2.65	-2.7792	-2.4167	-3.1792	-2.9271	-2.7958	-3.25	-2.9354	-2.8229	-2.8604	-2.8229	-3.3	-2.9958	-2.8833	-3.1312	-2.9854	108.960	122.772	233.233	328.038	258.403	208.788	260.543	375.258	392.316	365.800	152.218	443.720	399.281	421.422	140.319	363.795	0.00068307	0.00043748	0.00012569	519.1	4.8506e-06	4.649e-06	667.12	190.51	4.1515e-06	4.8655e-06	287.27	132.09	80.403	43.445	4.9998e-06	73.974	0.00058949	0.0002047	6.3538e-05	524.51	2.1488e-06	2.3258e-06	673.68	192.95	2.5507e-06	2.1952e-06	291.6	135.06	82.057	44.685	2.6938e-06	75.911	226.829	171.598	172.540	102.803	257.799	241.476	102.121	107.648	264.760	241.866	106.266	110.922	112.175	116.191	248.973	113.898	-8191	255	
1415.284	1	1	0	0	0.035915	0.10691	0.18928	0.21189	0.051082	0.1049	0.14268	0.052724	0.061049	0.051924	0.071059	0.17395	0.13879	0.077135	0.049461	0.38596	-2.525	-3.0438	-2.4396	-2.9458	-2.8375	-2.6333	-3.1562	-2.8667	-2.8479	-3.0396	-2.5479	-2.9146	-3.1792	-2.7354	-3.2771	-2.9354	201.159	423.078	131.131	375.896	123.593	159.004	94.463	306.273	322.487	212.840	201.151	191.296	119.663	373.541	319.997	394.682	0.00069157	0.0003226	0.0001204	519.19	4.4978e-06	4.8584e-06	668.71	189.32	3.5981e-06	3.8972e-06	286.04	131.27	79.83	42.922	4.4779e-06	73.062	0.00059739	0.00019982	6.333e-05	525.17	2.2473e-06	2.3968e-06	673.95	192.75	2.4354e-06	2.091e-06	289.98	134.06	81.638	44.161	2.6728e-06	74.871	226.940	182.107	177.226	102.905	255.547	241.720	102.281	107.788	255.528	235.340	105.953	110.888	112.331	116.311	259.810	114.179	-8191	255	
1415.379	1	1	0	0	0.061541	0.21317	0.11408	0.31708	0.18166	0.16843	0.24498	0.32623	0.15074	0.21637	0.033219	0.1841	0.22972	0.1206	0.11555	0.41205	-2.3479	-3.05	-2.5771	-2.8604	-2.7938	-2.4521	-2.9938	-2.8854	-2.6583	-3.2104	-2.7646	-2.9458	-3.0479	-2.6792	-2.9938	-2.9167	103.698	131.104	114.936	375.956	190.046	172.829	392.657	233.205	192.237	150.043	90.208	435.233	146.077	127.345	191.091	428.479	0.0006498	0.0004626	0.00011976	515.21	4.5243e-06	4.3872e-06	665.33	189.79	3.7087e-06	4.9348e-06	287.11	131.56	80.748	43.297	6.243e-06	73.227	0.00056747	0.00021958	6.2777e-05	523.05	2.3003e-06	2.3883e-06	671.92	193.53	2.5306e-06	2.2075e-06	291.72	134.51	82.217	44.608	2.9313e-06	75.218	226.638	180.298	177.537	102.895	259.960	239.613	102.221	107.981	257.694	247.997	105.956	110.844	112.178	116.469	254.212	114.002	-8191	255	
1415.475	1	1	0	0	0.12784	0.043896	0.22632	0.021076	0.3207	0.1115	0.051894	0.3073	0.060918	0.10812	0.17366	0.16852	0.26543	0.13212	0.15678	0.32751	-2.3	-3.175	-2.9292	-2.9396	-2.9958	-2.6604	-3.1354	-2.9437	-2.5729	-3.1146	-2.6667	-3.0271	-3.1021	-2.7896	-2.9375	-2.925	180.331	238.785	253.895	210.988	436.769	159.333	147.722	323.404	366.850	219.213	107.569	402.358	407.268	376.697	444.662	405.219	0.00066468	0.00041192	0.00013779	515.5	5.0168e-06	4.6538e-06	666.52	189.89	3.41e-06	5.0649e-06	287.23	131.67	80.345	43.197	5.3398e-06	73.262	0.00058399	0.00020137	6.2478e-05	523.26	2.266e-06	2.3448e-06	672.66	193.23	2.4772e-06	2.1734e-06	290.42	134.31	81.819	44.483	2.8324e-06	75.193	227.753	180.816	176.836	102.833	253.123	243.345	102.275	107.707	262.422	243.462	105.882	110.873	112.313	116.417	262.522	114.081	-8191	255	
1415.595	1	1	0	0	0.31387	0.09232	0.37027	0.15419	0.23888	0.12096	0.17483	0.20466	0.11521	0.32648	0.12172	0.1109	0.32406	0.15226	0.06597	0.11493	-2.2229	-3.1813	-2.7479	-2.9229	-3.15	-2.6021	-2.9229	-2.9313	-2.7938	-3.2771	-3.0417	-2.9167	-3.2729	-2.6854	-2.9521	-3.0479	270.179	266.566	446.477	380.491	357.638	121.370	419.885	225.430	302.717	339.524	240.132	432.351	421.574	153.004	250.582	134.147	0.00067533	0.00045419	0.00013029	518.62	4.7953e-06	4.8535e-06	665.29	188.17	4.2014e-06	5.389e-06	285.49	131.93	80.4	43.023	4.5654e-06	73.449	0.00058613	0.00020665	6.0704e-05	524.03	2.1592e-06	2.4025e-06	672.8	192.16	2.475e-06	2.2028e-06	290.73	134.47	81.699	44.338	2.7822e-06	75.372	227.564	167.131	184.601	102.800	256.364	241.513	102.115	107.613	254.472	247.469	106.498	110.963	112.292	116.202	255.337	114.183	-8191	255	
1415.692	1	1	0	0	0.11989	0.13652	0.18102	0.24399	0.28653	0.19161	0.067447	0.012888	0.043474	0.18606	0.050604	0.2202	0.16432	0.2252	0.17796	0.16841	-2.1854	-2.8208	-2.7833	-2.925	-3.25	-2.8417	-3.1833	-3.1979	-2.4688	-3.0438	-3.0542	-2.9104	-3.2604	-2.8646	-2.8583	-3.375	129.157	362.285	248.049	438.905	226.345	355.846	128.698	294.620	382.301	198.555	433.124	407.284	267.144	329.982	411.638	365.263	0.00067763	0.0004553	0.00012572	517.61	5.1725e-06	3.9633e-06	667.61	188.57	4.3722e-06	4.9666e-06	286.34	131.09	80.031	43.029	5.3381e-06	73.105	0.00059671	0.00020657	6.0105e-05	523.94	2.2078e-06	2.2728e-06	673.22	192	2.5219e-06	2.1147e-06	290.31	134.11	81.446	44.247	2.8997e-06	74.948	227.473	167.812	172.240	102.877	255.840	241.630	102.191	107.980	258.823	239.667	105.742	111.112	112.330	116.253	247.922	113.810	-8191	255	
1415.788	1	1	0	0	0.12356	0.06326	0.10065	0.079649	0.084163	0.042872	0.34491	0.11712	0.296	0.18086	0.13915	0.20328	0.12334	0.36725	0.11886	0.033584	-2.3729	-3.1333	-2.9625	-2.7687	-3.2229	-2.9646	-2.8896	-3.1	-2.7625	-3.1375	-3.2229	-2.9333	-3.2667	-3.0354	-2.9125	-3.2833	282.648	293.106	389.380	357.513	312.762	265.745	409.252	157.458	256.405	288.894	438.245	407.247	103.982	421.929	291.632	185.613	0.00067444	0.00047416	0.00012472	516.67	4.8141e-06	4.847e-06	663.65	189.51	3.5484e-06	4.2161e-06	283.98	130.47	80.317	42.94	4.3816e-06	72.586	0.00058839	0.00020933	5.7824e-05	522.85	2.2406e-06	2.4328e-06	671.07	192.57	2.589e-06	2.1715e-06	288.75	133.64	81.393	44.218	2.8583e-06	74.651	227.497	179.425	179.937	103.002	253.928	236.126	102.392	107.766	259.954	237.071	105.907	110.953	112.108	116.364	251.154	114.237	-8191	255	
1415.859	1	1	0	0	0.051828	0.29554	0.017521	0.17747	0.21903	0.027124	0.14755	0.08866	0.078997	0.082122	0.37579	0.17114	0.13193	0.10301	0.1807	0.057685	-2.2104	-2.9375	-3.1562	-2.6896	-3.1	-2.8063	-2.8021	-3.1729	-2.8625	-3.0854	-3.1625	-2.5896	-3	-2.9458	-2.6667	-3.3667	418.279	413.332	432.155	439.136	143.009	242.452	156.863	198.034	94.966	294.426	428.677	435.519	121.163	120.485	213.098	150.390	0.00067176	0.00051097	0.00013488	515.19	5.1151e-06	4.5531e-06	661.69	188.72	3.6626e-06	4.4925e-06	284.13	130.59	79.807	43.166	4.5566e-06	73.635	0.00058462	0.00022323	5.4415e-05	522.07	2.1936e-06	2.376e-06	669.93	192.18	2.3496e-06	2.2492e-06	289.07	133.87	81.524	44.353	2.8665e-06	75.063	227.150	169.846	175.507	102.912	260.328	239.842	102.436	107.737	256.536	237.265	105.968	111.063	112.231	116.184	258.701	113.926	-8191	255	
1415.956	1	1	0	0	0.13143	0.15881	0.1441	0.19684	0.16518	0.052697	0.13601	0.27462	0.1413	0.090532	0.047217	0.15166	0.25051	0.22295	0.11245	0.13695	-2.3937	-2.9833	-3.1937	-2.7583	-3.15	-2.8979	-2.7271	-3.3083	-2.6792	-2.8958	-3.2083	-2.6688	-3.2062	-3.0354	-2.7542	-3.1896	346.658	334.911	314.857	404.100	106.500	246.716	164.763	350.735	100.469	215.398	144.128	334.700	432.383	432.502	269.150	445.894	0.00068805	0.00048175	0.00013372	516.93	4.9492e-06	4.4638e-06	665.86	188.7	4.4183e-06	5.3892e-06	284.71	131.61	80.607	43.293	5.4492e-06	73.224	0.00059062	0.00021974	5.9483e-05	521.57	2.3586e-06	2.1762e-06	671.75	192.49	2.5803e-06	2.2e-06	290.16	134.56	81.848	44.595	3.0861e-06	75.437	227.305	169.799	173.489	102.854	254.535	233.390	102.563	107.960	258.234	233.216	106.182	110.839	112.197	116.236	253.478	114.016	-8191	255	
1416.076	1	1	0	0	0.24287	0.15074	0.098862	0.16848	0.13035	0.16206	0.15444	0.33056	0.002918	0.25497	0.074274	0.16726	0.27629	0.063313	0.18035	0.61189	-2.2625	-2.6375	-3.0708	-2.6688	-3.0438	-2.8458	-2.625	-3.0896	-3.0479	-2.9479	-3.3688	-2.8979	-3.1542	-3.1958	-2.6083	-3.1896	303.346	192.339	282.970	109.836	281.088	268.918	433.230	380.292	394.328	414.017	365.736	400.942	424.962	122.545	143.994	383.857	0.00068563	0.00046372	0.00013636	517.22	4.2148e-06	4.7367e-06	667	188.92	3.4509e-06	4.1242e-06	284.96	131.62	79.805	42.938	5.1756e-06	72.917	0.00059011	0.00022128	6.0013e-05	523.08	2.1831e-06	2.4205e-06	673.14	192.33	2.5003e-06	2.2815e-06	290.11	134.44	81.558	44.301	3.0115e-06	74.869	228.179	178.247	175.329	102.671	246.372	238.291	102.208	107.747	260.811	246.467	106.241	110.906	112.094	116.467	254.948	114.040	-8191	255	
1416.172	1	1	0	0	0.17731	0.19042	0.12213	0.15566	0.082447	0.096835	0.076919	0.092739	0.077446	0.086506	0.23499	0.096802	0.36194	0.39338	0.14733	0.12109	-2.5292	-2.7687	-3.0854	-2.6375	-2.9854	-2.9833	-2.5062	-2.9688	-2.8667	-2.7938	-3.2042	-2.7562	-2.9313	-3.1208	-2.6	-3.2875	342.754	359.543	340.326	434.024	363.613	94.364	291.219	120.555	110.059	427.761	376.708	334.989	425.572	125.515	157.897	401.755	0.00065218	0.00045886	0.00012377	516.47	5.5908e-06	5.1379e-06	664.18	188.55	3.166e-06	5.2496e-06	285.13	130.43	79.942	43.009	4.9181e-06	72.852	0.00057199	0.00023299	5.6465e-05	521.86	2.266e-06	2.3268e-06	670.25	191.9	2.439e-06	2.361e-06	289.26	133.3	81.496	44.26	2.9094e-06	74.61	225.951	182.998	188.482	103.156	250.589	244.372	102.436	107.643	250.208	234.676	106.128	110.822	112.268	116.401	248.172	114.039	-8191	255	
1416.268	1	1	0	0	0.28215	0.077098	0.12602	0.096944	0.0122	0.022699	0.079204	0.036335	0.21655	0.0068594	0.1706	0.18136	0.27712	0.34413	0.18305	0.28754	-2.5875	-2.6354	-3.2229	-3.0104	-3.0563	-3.2313	-2.8667	-3.1625	-3.1083	-2.6562	-3.1542	-2.8042	-2.8792	-3.2354	-2.375	-2.9854	268.673	179.580	434.891	89.921	357.196	244.969	368.566	400.104	150.480	417.583	417.587	439.474	127.800	386.858	143.506	368.419	0.00064506	0.00049025	0.00011422	515.29	4.5701e-06	5.4992e-06	663.91	188.61	4.1143e-06	3.4795e-06	282.91	130.76	80.224	43.134	4.5359e-06	72.743	0.00055815	0.00022876	5.9345e-05	520.74	2.2063e-06	2.2368e-06	669.63	191.88	2.3907e-06	2.2805e-06	288.73	133.64	81.556	44.341	2.9135e-06	74.693	227.370	174.708	180.276	102.789	247.731	244.676	102.479	107.738	256.818	243.980	106.251	110.791	112.232	116.253	251.440	114.171	-8191	255	
1416.365	1	1	0	0	0.20162	0.34381	0.024334	0.13054	0.24941	0.21433	0.15096	0.097828	0.14571	0.055811	0.11268	0.28987	0.016705	0.07852	0.16675	0.22833	-2.3729	-2.4917	-3.0604	-2.9021	-2.75	-3.05	-2.6979	-2.9396	-2.9917	-2.7562	-3.2271	-2.9021	-2.8479	-3.3042	-2.8521	-3.0854	161.046	411.272	156.852	232.733	233.102	285.114	348.549	389.605	333.563	241.552	316.724	328.353	247.405	114.863	316.611	317.570	0.00067524	0.00049301	0.00014608	518.03	4.3124e-06	4.7122e-06	662.78	188.35	3.4594e-06	4.7875e-06	283.25	130.17	79.326	42.626	4.1469e-06	72.675	0.00057861	0.00022332	5.6695e-05	522.78	2.4564e-06	2.001e-06	670.12	191.17	2.2631e-06	2.4747e-06	287.94	133.24	80.792	43.924	2.6776e-06	74.508	225.896	175.821	173.941	102.641	257.882	235.038	102.363	107.730	259.846	231.951	106.272	110.854	112.375	116.185	253.032	113.971	-8191	255	
1416.461	1	1	0	0	0.058195	0.1601	0.18956	0.099167	0.25101	0.22766	0.11143	0.16268	0.075646	0.20656	0.14274	0.27621	0.13835	0.18467	0.12004	0.081677	-2.5604	-2.5708	-3.1146	-2.9375	-2.95	-3.2271	-2.8771	-3.1	-3.0979	-2.6042	-3.0917	-2.9354	-2.5542	-3.1729	-3.0333	-2.95	117.901	382.144	146.390	279.620	311.717	276.694	341.622	397.400	301.920	224.994	296.321	101.536	143.741	433.671	429.609	101.039	0.00066272	0.00043361	0.00012802	514.48	4.1943e-06	4.9279e-06	668	186.58	3.4987e-06	4.2041e-06	284.01	130.31	79.144	42.407	4.6697e-06	72.092	0.00057199	0.00021242	5.9575e-05	520.69	2.4123e-06	2.1516e-06	671.1	189.98	2.2797e-06	2.2833e-06	288	133.13	80.625	43.689	2.8616e-06	73.99	226.635	167.807	184.490	102.790	253.146	239.585	102.337	107.924	257.599	241.904	106.268	110.935	112.416	116.353	253.668	114.145	-8191	255	
1416.557	1	1	0	0	0.212	0.20865	0.094721	0.25992	0.1292	0.069679	0.15359	0.17157	0.16489	0.0061738	0.34215	0.18481	0.22285	0.17665	0.04412	0.12835	-2.7875	-2.5938	-3.0333	-3.2104	-2.7792	-3.4437	-3.0917	-2.9417	-3.0167	-2.5812	-3.0042	-3.125	-2.525	-2.9354	-2.8021	-2.8792	120.103	384.263	443.729	362.334	223.451	132.388	409.181	304.786	158.650	206.140	197.484	405.176	227.063	442.634	312.740	345.432	0.00066846	0.00047753	0.00013127	513.95	4.4871e-06	4.9957e-06	662.53	185.78	3.7969e-06	5.1076e-06	281.83	128.77	78.533	42.162	4.5132e-06	71.748	0.00057422	0.00022315	5.4829e-05	519.49	2.1652e-06	2.0777e-06	667.79	189.14	2.2912e-06	2.2445e-06	285.84	131.77	80.054	43.4	2.6679e-06	73.515	227.803	172.919	173.643	102.645	254.550	233.157	102.331	107.697	259.738	240.203	106.016	111.133	112.382	116.309	255.426	113.994	-8191	255	
1416.676	1	1	0	0	0.077747	0.29216	0.18478	0.12166	0.1186	0.14869	0.31439	0.21254	0.11162	0.12484	0.33782	0.1482	0.1353	0.31548	0.104	0.025554	-2.675	-2.7396	-2.9167	-2.9208	-2.5563	-3.1042	-2.8896	-2.7708	-3.0896	-2.6813	-2.7354	-3.0187	-2.6896	-3.1104	-2.9021	-2.9229	127.289	91.653	116.406	341.649	371.843	172.988	444.866	174.979	123.125	166.662	429.848	307.562	362.795	356.804	181.769	282.032	0.00065063	0.0004216	0.00011983	512.62	4.6778e-06	5.0814e-06	661.83	185.82	3.412e-06	4.6321e-06	282.84	129.45	79.21	42.582	5.285e-06	72.283	0.00055651	0.00019714	5.4599e-05	518.79	2.3899e-06	2.1648e-06	667.49	189.35	2.2696e-06	2.3146e-06	286.74	132.49	80.607	43.845	2.7587e-06	74.166	225.733	170.684	172.120	102.695	254.866	245.740	102.546	108.056	255.600	245.317	106.159	111.028	112.291	116.308	253.939	114.340	-8191	255	
1416.772	1	1	0	0	0.17669	0.17947	0.35443	0.23021	0.17674	0.31619	0.22467	0.21502	0.065642	0.090634	0.15214	0.067106	0.11311	0.059958	0.18989	0.19967	-2.9708	-2.7208	-2.7521	-3.0979	-2.4646	-3.0208	-3.0271	-2.7042	-3.2542	-2.8021	-3.0917	-3.2896	-2.875	-3.2	-3.1604	-2.9208	362.571	446.212	124.021	139.014	92.384	349.360	320.484	339.282	356.454	437.559	285.713	364.318	368.726	368.521	443.775	354.505	0.00066507	0.00048964	9.2563e-05	512.68	4.4678e-06	4.2108e-06	663.91	187.2	3.8312e-06	4.9501e-06	284.43	130.09	79.2	42.754	5.2958e-06	72.763	0.00056795	0.00022917	5.8469e-05	519.21	2.3548e-06	2.162e-06	670.13	191.03	2.3669e-06	2.3525e-06	288.53	133.1	80.94	44.049	2.7911e-06	74.562	227.311	185.390	187.349	102.963	243.461	234.022	102.267	107.807	255.996	246.612	106.063	110.770	112.363	116.481	251.168	113.992	-8191	255	
1416.868	1	1	0	0	0.095344	0.098432	0.17164	0.10984	0.23503	0.072479	0.20868	0.045511	0.24409	0.20788	0.16662	0.21089	0.15063	0.19132	0.33243	0.32424	-2.7417	-2.7396	-2.6333	-2.9562	-2.6521	-3.0104	-3.1375	-2.6229	-3.1646	-3.0229	-2.9417	-3.2292	-2.7917	-2.7271	-3.0708	-2.7479	343.448	137.714	173.559	286.912	98.694	217.296	417.663	295.711	330.356	108.936	353.782	392.526	341.118	409.621	142.116	437.364	0.00067521	0.00050343	0.00015154	513.71	4.6816e-06	4.6868e-06	661.93	186.55	4.0558e-06	3.8157e-06	283.49	130.15	78.992	42.582	5.0363e-06	72.54	0.0005817	0.00021958	6.3538e-05	520.28	2.4609e-06	2.2548e-06	669.6	189.99	2.2919e-06	2.1924e-06	287.82	133.16	80.525	43.794	2.7749e-06	74.351	227.386	167.808	180.890	102.598	248.189	236.119	102.210	107.823	264.172	233.951	106.115	110.938	112.289	116.470	251.281	114.138	-8191	255	
1416.964	1	1	0	0	0.15958	0.1471	0.13827	0.20057	0.14852	0.070381	0.19409	0.14835	0.22834	0.069363	0.21799	0.24149	0.12733	0.30795	0.085688	0.16989	-2.7792	-2.7958	-2.7396	-3.2438	-2.6854	-2.9479	-3.3375	-2.8312	-3.0167	-2.8833	-2.6875	-3.2667	-2.775	-3.0708	-3.2354	-3.0167	109.368	204.481	209.425	352.456	287.948	428.563	169.574	164.670	246.298	308.993	141.255	385.194	142.679	123.708	155.076	328.943	0.0006731	0.00041868	0.000145	514.93	4.2177e-06	4.6473e-06	662.93	186.85	3.7079e-06	4.4088e-06	283.65	129.42	78.91	42.427	4.5149e-06	71.728	0.0005768	0.00019608	6.3722e-05	520.65	2.2555e-06	2.3249e-06	668.82	190.35	2.4109e-06	2.1033e-06	287.42	132.48	80.348	43.669	2.5366e-06	73.741	226.609	175.555	183.099	102.799	251.777	243.342	102.065	107.714	261.598	239.746	106.223	111.107	112.294	116.502	263.070	113.899	-8191	255	
1417.085	1	1	0	0	0.13148	0.14312	0.25711	0.10239	0.19003	0.11457	0.088997	0.12663	0.13626	0.14995	0.19708	0.2267	0.045018	0.19926	0.21621	0.18967	-2.7917	-2.8854	-2.5833	-3.1063	-2.6354	-2.9458	-3.3542	-2.6	-3.0062	-2.8521	-2.6312	-3.3187	-2.975	-2.8229	-3.0563	-2.8438	317.360	163.318	328.259	438.550	408.051	278.199	415.590	368.447	273.158	368.134	122.492	263.252	93.336	386.761	425.027	384.887	0.00066294	0.00042925	0.00013324	515.28	4.4393e-06	5.6943e-06	660.1	187.16	3.9148e-06	5.2749e-06	281.96	129.47	78.999	42.544	4.6162e-06	72.13	0.00056899	0.0001947	6.4874e-05	518.9	2.2615e-06	2.2794e-06	667.11	189.99	2.3186e-06	2.2796e-06	286.82	132.52	80.443	43.777	2.7433e-06	73.947	227.801	164.481	179.062	102.709	255.700	237.297	102.167	107.820	261.378	241.849	106.136	110.761	112.461	116.181	258.333	114.109	-8191	255	
1417.157	1	1	0	0	0.18939	0.14579	0.079154	0.080202	0.22356	0.14511	0.25361	0.29263	0.064129	0.16272	0.18485	0.15568	0.182	0.1197	0.074378	0.34008	-2.575	-2.9167	-2.6437	-3.3021	-2.6917	-2.6979	-3.1562	-2.675	-2.9208	-3.0187	-2.6437	-3.2208	-3.0479	-2.9625	-3.1979	-2.8646	196.531	353.057	192.071	383.466	204.526	400.122	368.994	90.819	90.259	147.043	435.139	439.197	112.119	108.172	300.805	403.319	0.00066173	0.00048993	0.00014851	514.2	4.224e-06	4.2343e-06	660.9	185.89	4.0907e-06	4.8012e-06	282.34	130.17	79.178	42.57	5.7943e-06	72.459	0.00056747	0.00019234	6.2939e-05	519.36	2.1331e-06	2.1838e-06	667.51	189.79	2.4613e-06	2.2303e-06	287.14	132.75	80.553	43.867	2.71e-06	74.318	226.800	179.019	188.177	102.605	257.265	232.289	102.049	107.657	259.716	238.952	106.210	111.016	112.337	116.316	256.727	113.842	-8191	255	
1417.277	1	1	0	0	0.20219	0.17572	0.10832	0.10335	0.26623	0.41477	0.20531	0.083811	0.23433	0.25693	0.16175	0.30723	0.040269	0.19226	0.092795	0.43925	-2.3646	-2.7479	-2.6125	-3.0521	-3.1021	-2.8438	-3.3979	-2.7229	-2.8042	-3.2979	-2.8229	-3.1292	-3.0708	-2.8208	-3.0292	-2.7896	160.506	416.517	156.484	317.764	353.142	339.248	345.139	119.339	206.856	384.223	108.581	376.993	381.274	436.686	410.606	402.890	0.0006525	0.00045523	0.00012374	514.15	4.1801e-06	3.4751e-06	665.84	187.93	3.4367e-06	4.7977e-06	284.15	130.44	78.741	42.749	4.8022e-06	72.809	0.00055919	0.00020754	6.386e-05	519.78	2.154e-06	2.1658e-06	670.42	190.57	2.47e-06	2.1839e-06	288.64	133.15	80.557	43.98	2.7287e-06	74.809	227.575	175.705	170.100	102.917	250.694	239.999	102.688	108.023	259.807	237.207	106.167	111.107	112.392	116.382	263.830	114.201	-8191	255	
1417.372	1	1	0	0	0.16283	0.21746	0.1526	0.082389	0.1457	0.20486	0.18599	0.1424	0.12906	0.14371	0.088589	0.1952	0.19846	0.17749	0.21549	0.20579	-2.3021	-3.0708	-2.5167	-3.0938	-3.1104	-2.7604	-3.1417	-2.9917	-2.7917	-3.0333	-2.825	-3.1354	-3.0646	-2.725	-3.0687	-3.0229	438.043	396.001	354.295	129.487	445.957	439.035	444.354	399.909	239.464	432.036	105.236	422.727	350.451	339.026	203.779	384.647	0.00066219	0.00061645	0.00014025	514.68	4.4285e-06	5.1853e-06	665.84	187.19	3.6729e-06	4.3933e-06	284.68	129.63	78.97	42.47	5.4594e-06	71.985	0.00057621	0.00022624	6.1695e-05	520.27	2.1824e-06	2.251e-06	669.99	190.51	2.4556e-06	1.9754e-06	287.75	132.58	80.516	43.776	2.7919e-06	73.856	227.747	175.742	188.766	103.165	258.530	238.786	102.272	107.836	265.295	240.106	106.083	110.975	112.521	116.495	255.941	113.967	-8191	255	
1417.468	1	1	0	0	0.25189	0.14307	0.16142	0.18384	0.23394	0.1257	0.12542	0.069381	0.14238	0.30746	0.28694	0.37089	0.18066	0.07342	0.169	0.17436	-2.3146	-3.2625	-2.6604	-3.0812	-3.1479	-2.6021	-3.0354	-2.8521	-2.8271	-3.1667	-2.9354	-3.0042	-3.0938	-2.8187	-2.8688	-2.9479	352.980	389.460	183.895	137.670	160.136	409.229	282.580	318.081	99.326	136.109	104.460	423.224	330.553	95.711	228.073	398.124	0.0006582	0.00048326	0.0001317	512.25	4.4236e-06	4.9242e-06	661.82	187.34	3.8033e-06	5.3029e-06	282.52	129.6	78.96	42.607	5.2927e-06	72.487	0.00057238	0.0001912	6.4275e-05	518.79	2.1697e-06	2.3931e-06	667.95	190.1	2.4455e-06	2.2786e-06	286.93	132.5	80.651	43.952	2.8065e-06	74.062	227.576	167.716	179.265	102.835	257.214	238.006	102.241	107.904	261.528	231.662	106.041	110.952	112.237	116.550	259.421	113.891	-8191	255	
1417.564	1	1	0	0	0.080754	0.071018	0.16411	0.22639	0.064141	0.099443	0.39018	0.28588	0.055349	0.085239	0.26726	0.13293	0.04095	0.17559	0.061729	0.15741	-2.4354	-3.0854	-2.6813	-2.8271	-3.0625	-2.4958	-2.9562	-2.8917	-2.6625	-3.1417	-3.0604	-3.0438	-3.2313	-2.8312	-3.1063	-3.2188	314.396	289.104	113.744	368.297	99.828	406.523	407.440	398.987	349.981	166.160	108.766	385.308	118.511	203.177	326.854	413.636	0.00064871	0.00044524	0.00013643	513.93	4.155e-06	4.7419e-06	660.63	186.2	3.8318e-06	5.6105e-06	281.9	129.8	79.184	42.804	4.4842e-06	72.656	0.00056433	0.00018787	6.31e-05	519.11	2.0898e-06	2.4934e-06	666.57	189.8	2.5839e-06	2.1877e-06	286.97	132.83	80.788	44.083	2.6882e-06	74.609	227.684	181.317	178.920	102.981	244.626	236.799	102.074	107.710	262.497	243.251	106.010	110.882	112.103	116.125	252.669	114.203	-8191	255	
1417.660	1	1	0	0	0.23593	0.077065	0.13533	0.25039	0.1345	0.26242	0.077945	0.098352	0.20553	0.31953	0.13988	0.10322	0.29188	0.40027	0.10323	0.46755	-2.25	-3.1146	-2.7333	-2.7396	-3.0312	-2.6583	-2.9729	-2.9833	-2.7375	-2.8542	-2.9188	-2.7042	-3.1813	-2.9979	-2.8958	-3.0104	319.330	424.635	276.725	188.700	285.909	397.895	321.911	407.981	195.898	356.642	431.555	409.806	92.063	102.392	235.285	373.740	0.00066241	0.00043216	0.00013091	514.84	4.3402e-06	4.5447e-06	665.65	187.75	3.4815e-06	4.4294e-06	283.57	130.26	79.111	42.906	5.2182e-06	73.476	0.00057529	0.00020177	5.5981e-05	519.99	2.2242e-06	2.3145e-06	670.11	190.53	2.4224e-06	2.0853e-06	287.48	133.16	80.869	44.159	2.9329e-06	75.063	226.311	192.317	179.568	102.624	257.752	232.761	102.509	107.813	256.692	233.626	106.116	111.156	112.443	116.516	260.146	114.098	-8191	255	
1417.756	1	1	0	0	0.20069	0.15949	0.24577	0.23142	0.32698	0.19395	0.25436	0.14003	0.067113	0.21148	0.0753	0.15866	0.078454	0.21006	0.18948	0.39021	-2.1083	-2.9396	-2.95	-2.7375	-3.0833	-2.5708	-2.7979	-3.2146	-2.6708	-2.9896	-3.0583	-2.6625	-3.1042	-2.8021	-2.6375	-3.3479	332.750	395.621	412.125	420.888	280.159	112.654	330.074	433.991	364.497	265.014	365.801	345.086	323.061	178.432	387.324	420.061	0.00065678	0.00045746	0.00013412	515.23	4.8083e-06	4.3789e-06	666.31	187.52	3.9689e-06	4.6808e-06	283.93	129.96	79.167	42.529	5.0375e-06	72.485	0.00057585	0.00018868	5.552e-05	521.06	2.2593e-06	2.3362e-06	672	190.63	2.6293e-06	2.0057e-06	288.06	133.29	80.693	43.934	2.9799e-06	74.328	226.167	173.121	178.485	102.722	260.609	241.180	102.635	107.867	262.328	243.415	105.956	110.792	112.434	116.280	258.422	114.100	-8191	255	
1417.852	1	1	0	0	0.52856	0.12907	0.20776	0.097676	0.19987	0.30124	0.079843	0.12368	0.22934	0.068399	0.29104	0.2165	0.18014	0.14006	0.21798	0.29242	-2.2229	-2.8833	-3.0187	-2.7854	-3.0479	-2.9313	-2.6604	-3.1188	-2.6292	-2.9271	-3.0896	-2.6396	-3.0646	-2.9813	-2.7604	-3.5104	140.194	381.666	174.794	128.680	272.785	392.491	115.430	246.714	216.427	343.861	415.315	113.808	154.142	348.987	269.461	92.983	0.00068069	0.00054157	0.00010613	515.49	5.5212e-06	4.4064e-06	662.96	187.33	3.5598e-06	4.2412e-06	281.78	130.03	78.784	42.546	5.1879e-06	72.068	0.00058334	0.00022551	5.1166e-05	518.95	2.1503e-06	2.43e-06	669.12	190.14	2.5262e-06	2.1128e-06	286.51	132.72	80.323	43.759	2.937e-06	73.805	226.968	179.219	178.111	102.952	255.723	240.435	102.378	107.704	269.522	237.416	106.122	111.038	112.466	116.262	252.220	114.124	-8191	255	
1417.948	1	1	0	0	0.13892	0.1457	0.12438	0.17579	0.28644	0.16646	0.14172	0.086792	0.13401	0.29996	0.087709	0.17144	0.16064	0.15777	0.18296	0.095103	-2.3958	-2.8042	-2.8479	-2.5563	-3.1125	-2.7062	-2.8	-3.1875	-2.6042	-2.775	-3.0146	-2.5771	-2.9146	-2.9104	-2.7292	-3.2292	263.558	275.104	250.827	358.849	155.071	149.005	97.208	151.311	421.364	397.159	412.806	405.512	109.839	120.927	328.527	245.593	0.00065811	0.00046792	0.00013166	513.61	4.3071e-06	5.2045e-06	661.38	186.77	4.0083e-06	4.242e-06	281.76	129.83	78.904	42.589	4.8344e-06	72.308	0.00056507	0.00021226	6.1257e-05	519.39	2.1562e-06	2.3296e-06	668	189.94	2.55e-06	2.2701e-06	287.15	132.44	80.532	43.803	2.5236e-06	74.122	227.954	179.031	171.018	102.954	240.582	244.103	102.612	107.591	262.932	247.478	106.044	110.691	112.637	116.394	257.494	114.117	-8191	255	
1418.045	1	1	0	0	0.18157	0.15584	0.15636	0.071138	0.17528	0.12402	0.24868	0.21839	0.085929	0.066221	0.30937	0.099978	0.24697	0.28069	0.17449	0.061541	-2.4917	-2.8	-2.9333	-2.7771	-2.8583	-2.7958	-2.7292	-3.1479	-2.9562	-2.925	-3.2792	-2.5854	-2.9458	-3.175	-2.6021	-3.4292	138.811	337.718	264.991	364.825	164.698	174.666	362.458	425.089	385.212	130.909	90.548	362.516	415.624	448.558	350.598	91.737	0.00065485	0.00045641	0.00012626	513.45	4.4767e-06	4.2018e-06	663.68	186.93	3.692e-06	4.5909e-06	282.29	130.29	78.735	42.543	4.5831e-06	72.61	0.0005645	0.00020893	5.552e-05	519.09	2.2727e-06	2.252e-06	669.73	190.17	2.3792e-06	2.2094e-06	287.42	132.74	80.623	43.943	2.9564e-06	74.486	227.836	172.463	173.461	102.840	252.479	237.860	102.289	107.929	258.400	238.631	105.995	110.966	112.355	116.331	244.132	114.324	-8191	255	
1418.165	1	1	0	0	0.1023	0.24429	0.15027	0.12204	0.13146	0.17282	0.20974	0.30236	0.089084	0.19682	0.14445	0.046932	0.33447	0.13884	0.29479	0.36609	-2.4375	-2.7333	-3.0917	-2.6458	-2.7354	-3.0687	-2.6083	-3.0583	-2.8937	-2.7438	-3.2229	-2.9292	-3.0563	-2.9896	-2.6625	-3.1042	301.876	303.122	176.938	293.451	150.898	369.276	226.198	306.469	344.668	161.960	376.056	149.101	324.851	401.858	407.291	444.343	0.00065698	0.00047536	0.00014579	508.61	4.1863e-06	4.2512e-06	658.95	188.44	3.5824e-06	4.3666e-06	286.51	131.03	80.075	43.314	5.2465e-06	72.957	0.0005664	0.00021218	5.9391e-05	515.6	2.2936e-06	2.1591e-06	664.2	191.5	2.3777e-06	2.1251e-06	290.77	134.12	81.602	44.614	3.0358e-06	75.053	227.148	178.837	177.083	102.513	252.979	245.911	102.193	107.988	255.947	240.812	106.129	110.839	112.445	116.472	253.349	113.958	-8191	255	
1418.261	1	1	0	0	0.11297	0.30922	0.12732	0.042072	0.095378	0.11013	0.13047	0.29812	0.041433	0.037629	0.2341	0.25139	0.21368	0.18348	0.16651	0.16658	-2.3354	-2.5042	-2.9625	-2.7979	-2.9417	-3.0479	-2.7167	-2.9562	-2.6896	-2.5333	-3.0604	-2.8292	-2.75	-3.2833	-2.5708	-3.2042	111.383	376.713	353.985	210.692	409.336	192.698	362.078	446.032	211.245	410.595	400.139	432.720	442.533	108.018	116.308	283.006	0.0006621	0.00042085	0.00014803	510.83	3.4293e-06	4.8414e-06	658.15	189.73	3.8154e-06	4.4584e-06	286.48	130.67	79.879	42.727	5.1047e-06	71.692	0.00057143	0.00022787	6.227e-05	516.34	2.1114e-06	2.0872e-06	666.67	192.91	2.4159e-06	2.596e-06	290.7	133.82	81.521	44.148	2.9159e-06	73.599	226.873	185.457	187.933	102.905	249.990	246.518	102.249	107.645	258.711	231.592	106.030	111.075	112.156	116.331	266.803	114.257	-8191	255	
1418.358	1	1	0	0	0.19192	0.051861	0.18244	0.14959	0.29492	0.09134	0.10328	0.24781	0.03446	0.065894	0.10494	0.3352	0.086794	0.071855	0.10786	0.10433	-2.4792	-2.8521	-3.125	-2.8333	-2.8354	-3.2	-2.6458	-3.0875	-2.75	-2.5125	-2.9042	-2.5875	-2.6542	-2.9917	-2.5938	-2.9771	353.789	319.574	145.513	197.984	195.737	432.346	434.824	399.103	250.641	447.169	118.174	377.394	183.736	438.850	359.593	230.071	0.0006364	0.00054541	0.00011454	509.17	4.8415e-06	4.5701e-06	656.74	186.66	3.5977e-06	3.8316e-06	282.83	129.76	79.628	42.446	4.6508e-06	71.915	0.0005443	0.00021738	5.9299e-05	515.24	2.2122e-06	1.9148e-06	663.95	190.83	2.3337e-06	2.3544e-06	287.63	132.58	81.039	43.753	2.9718e-06	73.745	228.214	172.706	182.462	102.951	255.280	250.211	102.286	107.738	262.902	232.511	105.900	110.968	112.624	116.419	250.849	114.069	-8191	255	
1418.452	1	1	0	0	0.1817	0.27794	0.31723	0.076255	0.17395	0.18672	0.17659	0.20727	0.3278	0.19361	0.10154	0.43314	0.39694	0.11286	0.18023	0.13809	-2.6208	-2.4938	-2.9458	-2.8063	-2.5208	-3.1958	-2.7167	-3.0646	-3	-2.4167	-3.0438	-3.0417	-2.5938	-3.1271	-2.6479	-2.9354	308.765	334.822	181.466	376.052	426.033	394.812	307.857	358.206	205.487	272.596	299.207	340.486	302.459	103.334	287.010	383.930	0.00066679	0.00051738	0.00014212	507.74	3.8488e-06	4.7979e-06	660.3	187.31	3.2791e-06	4.0096e-06	283.05	129.69	79.269	42.612	4.7839e-06	71.945	0.00057359	0.00022933	5.787e-05	516.35	2.2503e-06	1.8769e-06	665.15	190.57	2.2696e-06	2.469e-06	287.81	132.64	80.828	43.857	2.8389e-06	73.935	226.955	173.037	185.502	103.006	255.112	238.293	102.261	108.010	259.370	246.625	106.275	111.049	112.507	116.425	249.487	114.114	-8191	255	
1418.548	1	1	0	0	0.11655	0.22601	0.043639	0.082623	0.10089	0.16098	0.51822	0.21877	0.24989	0.13614	0.21599	0.15718	0.33902	0.19445	0.20208	0.26924	-2.4875	-2.5354	-2.9271	-2.8896	-2.6146	-3.0062	-2.7938	-2.8688	-3.0438	-2.7333	-2.9354	-3.0646	-2.7125	-3.1667	-2.7958	-2.8458	336.094	275.601	398.156	381.368	192.073	173.021	143.337	389.267	377.729	314.605	448.129	175.880	444.190	396.170	104.922	314.838	0.00065968	0.00045385	0.00011825	508.03	4.2587e-06	5.2067e-06	659.48	187.41	3.668e-06	5.2937e-06	284.19	130.39	79.285	42.612	4.2369e-06	71.838	0.0005637	0.00023331	6.6901e-05	515.57	2.3399e-06	2.1137e-06	666.83	190.48	2.2537e-06	2.4539e-06	288.71	133.2	80.827	43.794	2.8235e-06	73.755	227.884	179.941	178.005	102.873	248.676	243.082	102.435	108.086	262.780	234.754	105.995	111.057	112.423	116.529	252.780	114.126	-8191	255	
1418.644	1	1	0	0	0.19507	0.10311	0.032181	0.15442	0.20279	0.1844	0.027654	0.29338	0.1359	0.23481	0.27532	0.082012	0.26387	0.06725	0.12009	0.27499	-2.5625	-2.6937	-2.9458	-3.2167	-2.4521	-2.9688	-2.9167	-2.7208	-3.1562	-2.9375	-3.0167	-3.15	-2.8812	-3.1042	-2.9896	-2.8625	100.753	400.419	390.639	297.431	208.248	132.914	444.013	114.691	126.828	208.348	183.979	363.268	119.049	426.064	404.411	422.281	0.00064668	0.00044625	0.00012754	508.94	4.3716e-06	4.5195e-06	657.19	186.45	3.5487e-06	4.1747e-06	283.35	128.72	78.395	42.042	4.6231e-06	70.843	0.00055651	0.00022047	5.635e-05	515.4	2.4004e-06	2.0143e-06	665.16	189.74	2.1304e-06	2.2473e-06	287.55	131.83	80.299	43.344	2.8e-06	72.748	228.396	175.724	176.416	102.754	252.154	254.796	102.259	107.908	256.183	239.810	106.105	110.984	112.330	116.471	249.070	114.132	-8191	255	
1418.765	1	1	0	0	0.26818	0.38807	0.18615	0.13503	0.24117	0.14523	0.39562	0.21657	0.36981	0.26708	0.12401	0.3511	0.14051	0.15974	0.10405	0.029502	-2.7083	-2.5896	-2.8167	-3.0021	-2.4375	-2.8	-2.825	-2.6458	-3.0208	-2.7208	-2.9813	-3.2167	-2.7125	-3.1625	-3.0083	-2.9771	401.181	305.530	362.897	218.904	99.894	145.548	318.676	217.841	218.867	395.195	259.886	347.448	138.657	419.602	368.767	274.290	0.00064807	0.00049212	0.00015898	508.81	4.5466e-06	4.7236e-06	657.6	186.37	3.6408e-06	5.1397e-06	283.35	129.4	79.198	42.344	4.7221e-06	71.247	0.00055289	0.00021941	6.1671e-05	513.81	2.3444e-06	2.2775e-06	663.59	189.72	2.2458e-06	2.434e-06	287.94	132.01	80.666	43.447	2.6476e-06	73.044	228.509	176.105	180.746	102.734	258.872	238.870	102.224	107.620	259.902	235.000	106.189	111.154	112.414	116.410	252.788	114.039	-8191	255	
1418.861	1	1	0	0	0.28841	0.17985	0.15925	0.14589	0.021108	0.29492	0.063298	0.20991	0.25776	0.25048	0.12431	0.29022	0.18159	0.36386	0.10999	0.16744	-2.8104	-2.9	-2.8646	-3.2542	-2.5667	-3.0187	-3.1792	-2.8125	-3.0438	-2.75	-2.8667	-3.2458	-2.6063	-2.7896	-3.1292	-2.7625	241.394	271.750	143.598	397.791	346.624	300.228	138.594	109.801	268.848	262.230	229.823	423.447	363.021	436.020	344.227	396.452	0.0006793	0.00048741	0.00015008	510.47	3.8984e-06	4.0184e-06	657.9	187.57	3.8817e-06	4.6496e-06	283.56	128.54	78.487	41.99	5.1737e-06	71.026	0.00057808	0.00021283	6.7592e-05	516.46	2.092e-06	2.2188e-06	666.3	190.45	2.2415e-06	2.4615e-06	287.99	131.51	80.137	43.207	2.6873e-06	72.846	226.527	184.548	175.093	102.894	249.844	237.592	102.384	107.872	262.197	236.755	106.088	111.026	112.383	116.484	256.490	114.130	-8191	255	
1418.957	1	1	0	0	0.083055	0.12179	0.102	0.36026	0.08384	0.10398	0.16735	0.31494	0.19445	0.18064	0.1579	0.13195	0.14469	0.19729	0.18936	0.15572	-2.6604	-2.8375	-2.6667	-3.225	-2.7604	-2.9104	-3.0583	-2.7229	-3.0083	-2.7771	-2.5021	-2.9646	-2.8333	-2.8563	-2.9188	-2.8125	407.229	273.351	309.858	321.848	106.300	104.392	90.829	391.030	181.769	194.829	144.469	397.351	357.563	113.562	386.437	421.194	0.00063896	0.00049	0.00011422	510.6	4.6163e-06	4.639e-06	660.81	186.81	3.9411e-06	4.5856e-06	283.39	129.1	78.353	42.005	4.7181e-06	71.135	0.00055862	0.0002147	6.2317e-05	516.37	2.3787e-06	2.3343e-06	667.33	190.41	2.2703e-06	2.2265e-06	287.99	132.08	80.107	43.268	2.7262e-06	73.111	227.277	171.422	174.911	102.835	247.900	236.981	102.291	107.872	258.958	246.731	106.066	111.193	112.257	116.633	252.953	114.117	-8191	255	
1419.053	1	1	0	0	0.087975	0.033652	0.033892	0.076448	0.28104	0.19162	0.40582	0.29356	0.21497	0.10848	0.063613	0.2038	0.36407	0.20375	0.040153	0.24936	-2.4437	-2.8688	-2.3021	-3.1458	-2.75	-2.7729	-3.2417	-2.6875	-2.9083	-3.0812	-2.8875	-3.2188	-3.1	-2.9229	-3.1333	-2.8667	329.938	176.602	225.629	273.374	306.756	260.740	102.799	434.856	129.595	93.184	419.080	430.782	445.888	92.055	245.866	370.223	0.00067384	0.00042131	0.0001373	510.39	4.2569e-06	4.0377e-06	657.57	186.69	3.0828e-06	4.332e-06	282.27	128.84	79.085	42.251	5.2924e-06	70.98	0.00057273	0.00022177	6.1049e-05	514.15	2.3847e-06	2.2851e-06	665.28	189.83	2.3049e-06	2.1204e-06	287.93	131.85	80.49	43.384	2.5933e-06	72.905	227.285	178.596	183.093	103.051	252.163	241.559	102.412	107.785	257.429	238.947	106.264	110.956	112.494	116.486	254.264	114.166	-8191	255	
#DATA ENDS
