BOXY.EXE: ISS Imagent and Oximeter Data Acquisition Program Version 0.80
Ascii Record File

#ACQ INFORMATION
2  Detector Channels 
16  External MUX Channels 
1  Auxiliary Channels 
5000  Waveform (CCF) Frequency (Hz)
1  Waveforms Skipped 
30  Waveforms Averaged 
1  Cycles Averaged 
16  Acquisitions per Waveform 
10.0806  Updata Rate (Hz) 

#FILE INFORMATION
TRUE -- External MUX Channel results are PARSED.
FALSE -- AC DC and Phase are NOT grouped.
TRUE -- Companion Program Settings File CREATED.
FALSE -- AC data not excluded
FALSE -- DC data not excluded
FALSE -- Phase data not excluded
FALSE -- Auxillary Chn. data not excluded
Tab delimiters

#CALIBRATION STATE
TRUE -- Waveform Calibration Values APPLIED.


#AUX CALIBRATION VALUES
Val Type	aux-1	

Term	1.0000e+00	
Factor	0.0000e+00	


#WF CALIBRATION VALUES
A = Detector Channel
Val Type	A-AC1	A-AC2	A-AC3	A-AC4	A-AC5	A-AC6	A-AC7	A-AC8	A-AC9	A-AC10	A-AC11	A-AC12	A-AC13	A-AC14	A-AC15	A-AC16	A-DC1	A-DC2	A-DC3	A-DC4	A-DC5	A-DC6	A-DC7	A-DC8	A-DC9	A-DC10	A-DC11	A-DC12	A-DC13	A-DC14	A-DC15	A-DC16	A-Ph1	A-Ph2	A-Ph3	A-Ph4	A-Ph5	A-Ph6	A-Ph7	A-Ph8	A-Ph9	A-Ph10	A-Ph11	A-Ph12	A-Ph13	A-Ph14	A-Ph15	A-Ph16	

Term	0.00000e+00	0.00000e+00	0.00000e+00	0.00000e+00	0.00000e+00	0.00000e+00	0.00000e+00	0.00000e+00	0.00000e+00	0.00000e+00	0.00000e+00	0.00000e+00	0.00000e+00	0.00000e+00	0.00000e+00	0.00000e+00	0.00000e+00	0.00000e+00	0.00000e+00	0.00000e+00	0.00000e+00	0.00000e+00	0.00000e+00	0.00000e+00	0.00000e+00	0.00000e+00	0.00000e+00	0.00000e+00	0.00000e+00	0.00000e+00	0.00000e+00	0.00000e+00	0.00000e+00	0.00000e+00	0.00000e+00	0.00000e+00	0.00000e+00	0.00000e+00	0.00000e+00	0.00000e+00	0.00000e+00	0.00000e+00	0.00000e+00	0.00000e+00	0.00000e+00	0.00000e+00	0.00000e+00	0.00000e+00	
Factor	1.00000e+00	1.00000e+00	1.00000e+00	1.00000e+00	1.00000e+00	1.00000e+00	1.00000e+00	1.00000e+00	1.00000e+00	1.00000e+00	1.00000e+00	1.00000e+00	1.00000e+00	1.00000e+00	1.00000e+00	1.00000e+00	1.00000e+00	1.00000e+00	1.00000e+00	1.00000e+00	1.00000e+00	1.00000e+00	1.00000e+00	1.00000e+00	1.00000e+00	1.00000e+00	1.00000e+00	1.00000e+00	1.00000e+00	1.00000e+00	1.00000e+00	1.00000e+00	X	X	X	X	X	X	X	X	X	X	X	X	X	X	X	X	

B = Detector Channel
Val Type	B-AC1	B-AC2	B-AC3	B-AC4	B-AC5	B-AC6	B-AC7	B-AC8	B-AC9	B-AC10	B-AC11	B-AC12	B-AC13	B-AC14	B-AC15	B-AC16	B-DC1	B-DC2	B-DC3	B-DC4	B-DC5	B-DC6	B-DC7	B-DC8	B-DC9	B-DC10	B-DC11	B-DC12	B-DC13	B-DC14	B-DC15	B-DC16	B-Ph1	B-Ph2	B-Ph3	B-Ph4	B-Ph5	B-Ph6	B-Ph7	B-Ph8	B-Ph9	B-Ph10	B-Ph11	B-Ph12	B-Ph13	B-Ph14	B-Ph15	B-Ph16	

Term	0.00000e+00	0.00000e+00	0.00000e+00	0.00000e+00	0.00000e+00	0.00000e+00	0.00000e+00	0.00000e+00	0.00000e+00	0.00000e+00	0.00000e+00	0.00000e+00	0.00000e+00	0.00000e+00	0.00000e+00	0.00000e+00	0.00000e+00	0.00000e+00	0.00000e+00	0.00000e+00	0.00000e+00	0.00000e+00	0.00000e+00	0.00000e+00	0.00000e+00	0.00000e+00	0.00000e+00	0.00000e+00	0.00000e+00	0.00000e+00	0.00000e+00	0.00000e+00	-7.31199e+01	-1.32799e+02	-1.26468e+02	-1.82714e+02	-5.26673e+01	-6.72776e+01	-1.58600e+02	-1.62015e+02	-4.81301e+01	-6.81745e+01	-1.74789e+02	-1.71091e+02	-1.81647e+02	-1.76664e+02	-5.28905e+01	-1.49745e+02	
Factor	1.45622e-05	1.40397e-04	4.03230e-05	1.48927e-01	1.29784e-06	1.50963e-06	1.69133e-01	4.23035e-02	9.54360e-07	1.51249e-06	7.52042e-02	2.43297e-02	1.97584e-02	7.93508e-03	1.28624e-06	1.14015e-02	1.42596e-05	3.90213e-05	1.10580e-05	7.54603e-02	3.58379e-07	4.54558e-07	8.02644e-02	2.15652e-02	3.46059e-07	4.54774e-07	3.70643e-02	1.20591e-02	1.01503e-02	4.07504e-03	3.89001e-07	5.66024e-03	X	X	X	X	X	X	X	X	X	X	X	X	X	X	X	X	



#DISTANCE SETTINGS
A = Detector Channel
A-1	A-2	A-3	A-4	A-5	A-6	A-7	A-8	A-9	A-10	A-11	A-12	A-13	A-14	A-15	A-16	

2.5000e+00	3.0000e+00	2.5000e+00	3.0000e+00	2.0000e+00	3.0000e+00	1.5000e+00	3.0000e+00	3.0000e+00	3.0000e+00	3.0000e+00	3.0000e+00	3.0000e+00	3.0000e+00	1.5000e+00	3.0000e+00	

B = Detector Channel
B-1	B-2	B-3	B-4	B-5	B-6	B-7	B-8	B-9	B-10	B-11	B-12	B-13	B-14	B-15	B-16	

1.0000e+01	1.0000e+01	1.0000e+01	1.4400e+00	1.0000e+01	1.0000e+01	1.5100e+00	1.9400e+00	1.0000e+01	1.0000e+01	1.9900e+00	2.4900e+00	2.4100e+00	2.9000e+00	1.0000e+01	2.9800e+00	




#DATA BEGINS
time	group	step	mark	flag	A-AC1	A-AC2	A-AC3	A-AC4	A-AC5	A-AC6	A-AC7	A-AC8	A-AC9	A-AC10	A-AC11	A-AC12	A-AC13	A-AC14	A-AC15	A-AC16	A-DC1	A-DC2	A-DC3	A-DC4	A-DC5	A-DC6	A-DC7	A-DC8	A-DC9	A-DC10	A-DC11	A-DC12	A-DC13	A-DC14	A-DC15	A-DC16	A-Ph1	A-Ph2	A-Ph3	A-Ph4	A-Ph5	A-Ph6	A-Ph7	A-Ph8	A-Ph9	A-Ph10	A-Ph11	A-Ph12	A-Ph13	A-Ph14	A-Ph15	A-Ph16	B-AC1	B-AC2	B-AC3	B-AC4	B-AC5	B-AC6	B-AC7	B-AC8	B-AC9	B-AC10	B-AC11	B-AC12	B-AC13	B-AC14	B-AC15	B-AC16	B-DC1	B-DC2	B-DC3	B-DC4	B-DC5	B-DC6	B-DC7	B-DC8	B-DC9	B-DC10	B-DC11	B-DC12	B-DC13	B-DC14	B-DC15	B-DC16	B-Ph1	B-Ph2	B-Ph3	B-Ph4	B-Ph5	B-Ph6	B-Ph7	B-Ph8	B-Ph9	B-Ph10	B-Ph11	B-Ph12	B-Ph13	B-Ph14	B-Ph15	B-Ph16	aux-1	digaux	

1574.964	1	1	0	256	0.15057	0.14891	0.072985	0.035724	0.16772	0.14485	0.072723	0.21241	0.10264	0.045673	0.07293	0.18947	0.19555	0.12949	0.018674	0.049567	-2.3229	-2.9417	-3.1	-2.6896	-2.8917	-3	-2.7687	-3.0396	-2.7167	-2.8417	-3.0417	-2.6167	-2.7958	-2.9646	-2.6167	-3.25	155.147	394.978	200.699	263.591	106.189	275.319	409.624	240.468	233.043	127.867	186.756	265.590	321.420	286.798	111.451	288.370	0.0002259	0.00016945	4.6385e-05	176.28	1.5649e-06	1.3508e-06	318.69	60.546	1.5463e-06	1.6664e-06	110.32	51.307	24.401	11.765	1.1763e-06	24.468	0.00019057	4.5444e-05	7.5563e-06	178.03	4.7784e-07	3.1061e-07	322.21	61.522	5.71e-07	2.6434e-07	111.56	52.45	24.721	12.126	5.4217e-07	25.042	225.929	165.295	175.447	100.680	252.566	252.151	99.365	105.863	255.826	235.159	102.686	108.533	110.500	114.894	232.474	111.594	-8191	255	
1575.035	1	1	0	0	0.24302	0.26294	0.090322	0.023814	0.15489	0.1099	0.16732	0.21146	0.24565	0.068635	0.23156	0.23277	0.23281	0.19803	0.26287	0.19535	-2.4354	-2.6312	-3.1542	-2.9458	-3.1208	-2.9604	-2.6229	-3.1667	-2.5833	-2.7021	-3.3354	-2.8792	-2.8208	-3.2625	-2.4938	-2.9437	390.251	435.113	179.305	410.756	239.933	335.983	440.450	90.728	305.408	98.685	217.649	170.037	395.848	374.733	292.313	101.236	0.00023378	0.00019002	6.2431e-05	177.55	1.4453e-06	2.0434e-06	321.76	60.714	1.1245e-06	1.9283e-06	110.54	51.735	24.39	11.764	1.8644e-06	24.619	0.00019803	5.9101e-05	8.9616e-06	178.42	4.0318e-07	2.1023e-07	323.21	61.66	5.0539e-07	4.273e-07	111.97	52.834	24.741	12.15	7.1965e-07	25.223	226.650	172.590	174.943	100.355	248.701	231.515	99.501	106.300	263.400	248.731	102.669	108.461	110.666	114.473	250.200	111.142	-8191	255	
1575.131	1	1	0	0	0.12754	0.083788	0.25853	0.23601	0.14753	0.13409	0.12494	0.21524	0.13599	0.11605	0.027314	0.15041	0.30963	0.077298	0.13512	0.20763	-2.5812	-2.7083	-2.9	-2.5771	-2.7979	-2.8688	-2.7979	-2.9958	-3.0292	-2.6688	-2.9604	-2.6688	-2.9	-3.1854	-2.7917	-3.125	261.604	436.338	239.656	335.152	120.662	288.766	213.469	212.636	264.522	247.118	145.798	437.692	437.399	408.004	372.765	98.587	0.00022646	0.00015312	5.1148e-05	176.37	1.5376e-06	2.3872e-06	323.41	60.946	1.4229e-06	1.8286e-06	110.42	51.689	24.392	11.903	2.0257e-06	24.731	0.0001928	4.6175e-05	6.5887e-06	178	5.0546e-07	2.7368e-07	323.58	61.843	4.5564e-07	3.2971e-07	111.89	52.911	24.812	12.157	5.4865e-07	25.233	225.074	158.455	189.965	100.474	260.838	248.263	99.648	106.398	254.093	223.977	103.026	108.577	110.381	114.630	257.858	111.307	-8191	255	
1575.252	1	1	0	0	0.18053	0.38656	0.058842	0.13969	0.19442	0.1526	0.067238	0.18773	0.031718	0.13591	0.25378	0.22967	0.095384	0.2389	0.15487	0.040914	-2.4688	-2.6771	-3.0938	-2.7229	-2.8479	-3.4188	-2.6104	-3.0979	-3.1104	-2.6312	-3.1646	-2.7833	-2.6958	-3.2188	-2.7188	-3.0271	148.881	225.995	247.959	241.462	143.650	305.336	432.170	379.262	353.571	309.217	121.292	128.611	281.648	311.087	400.148	120.518	0.00021225	0.00015556	6.2675e-05	175.54	1.6476e-06	1.378e-06	318.19	60.663	1.427e-06	2.2694e-06	109.56	51.52	24.427	11.828	2.0885e-06	24.553	0.00017899	4.5931e-05	7.0264e-06	177.84	5.0696e-07	8.2389e-08	321.76	61.734	4.643e-07	4.4056e-07	111.23	52.614	24.698	12.096	5.1462e-07	25.036	226.328	159.213	179.583	100.250	268.982	248.176	100.004	106.319	250.973	237.071	102.882	108.576	110.602	115.198	248.230	111.469	-8191	255	
1575.348	1	1	0	0	0.15566	0.20732	0.13311	0.2051	0.12388	0.16339	0.17782	0.12772	0.13983	0.2972	0.35609	0.18579	0.27544	0.058974	0.25926	0.18021	-2.5333	-2.7104	-3.1667	-3.0563	-2.7458	-2.9354	-2.6271	-2.925	-3.0812	-2.7687	-3.1333	-2.7646	-2.4292	-3.0375	-2.6813	-3.0208	345.222	406.071	381.761	306.684	265.022	315.587	412.015	358.675	397.857	236.031	410.028	397.761	190.657	316.444	240.826	223.441	0.00021972	0.00020215	5.424e-05	175.85	2.1816e-06	1.4979e-06	319.51	60.762	1.6391e-06	1.7379e-06	110.73	51.803	24.325	11.789	1.8658e-06	24.606	0.00017887	4.6013e-05	7.0956e-06	177.29	4.2632e-07	-4.5456e-08	322.07	61.598	3.9725e-07	3.4961e-07	111.72	52.767	24.778	12.079	5.0489e-07	25.103	226.140	186.060	180.613	100.195	245.383	247.446	99.398	106.336	268.389	255.581	102.880	108.362	110.467	114.967	251.897	111.524	-8191	255	
1575.444	1	1	0	0	0.10596	0.11608	0.27944	0.084997	0.10381	0.14224	0.19595	0.2301	0.15418	0.041863	0.24654	0.091966	0.062362	0.14295	0.24929	0.24063	-2.6458	-2.5896	-2.9125	-2.8208	-2.7	-3.2292	-2.9042	-2.9708	-3.2687	-2.5979	-2.7708	-2.9229	-2.6417	-3.2146	-2.85	-2.9938	115.180	238.857	431.999	133.223	153.403	303.354	104.559	273.906	251.385	361.795	421.537	406.457	328.740	393.847	103.122	381.559	0.00022281	0.00013848	5.1659e-05	177.36	1.2606e-06	1.733e-06	320.83	60.911	1.6062e-06	1.6661e-06	110.28	51.816	24.339	11.786	1.4922e-06	24.73	0.00017322	3.9021e-05	9.8831e-06	178	4.42e-07	4.5456e-08	321.98	61.862	3.1866e-07	4.813e-07	112.32	52.952	24.83	12.186	4.7653e-07	25.319	227.137	157.620	170.796	100.345	261.334	242.929	99.747	106.324	255.551	235.883	102.968	108.908	110.191	114.470	256.682	111.941	-8191	255	
1575.563	1	1	0	0	0.099392	0.22323	0.14558	0.049177	0.13538	0.2009	0.28101	0.092083	0.12376	0.034937	0.25991	0.0763	0.19335	0.067977	0.13683	0.29077	-2.6625	-2.5708	-2.7604	-2.8917	-2.5375	-3.4458	-2.9104	-2.5917	-3.1229	-2.8708	-2.9896	-3.0292	-2.7625	-3.1437	-2.9521	-2.8979	213.191	244.654	196.988	250.837	370.874	223.381	337.823	426.315	219.321	356.231	406.084	208.929	361.266	398.403	322.069	235.761	0.00022264	0.00019077	3.7685e-05	177.09	1.5089e-06	2.4069e-06	322.15	60.998	1.7614e-06	1.6272e-06	111.55	52.389	24.657	11.976	1.8407e-06	24.957	0.00018294	4.1135e-05	6.8652e-06	178.55	5.0173e-07	1.7425e-07	324.63	62.214	4.0446e-07	2.8139e-07	112.94	53.291	25.011	12.269	4.4492e-07	25.512	227.040	175.195	171.278	100.213	260.374	230.156	99.567	106.134	247.964	251.992	103.032	108.647	110.494	115.042	239.316	111.574	-8191	255	
1575.635	1	1	0	0	0.20605	0.11075	0.20194	0.13545	0.13823	0.094256	0.25	0.16934	0.052421	0.11522	0.087385	0.09875	0.15928	0.062614	0.0734	0.091575	-2.6875	-2.7958	-2.9125	-3.2771	-2.5563	-2.9542	-2.7979	-2.6771	-2.9896	-2.8958	-2.9167	-3.15	-2.6188	-2.9083	-2.8604	-2.7146	200.009	303.183	286.551	321.638	382.136	126.315	436.385	167.572	269.539	399.105	236.909	328.669	381.870	360.767	358.056	143.149	0.00023021	0.00025959	7.144e-05	178.13	1.3585e-06	1.9899e-06	322.68	61.641	1.0181e-06	1.5638e-06	111.56	52.069	24.484	11.967	2.1532e-06	24.892	0.00018401	4.0891e-05	1.0206e-05	179.24	4.9874e-07	1.5531e-07	324.27	62.636	3.165e-07	3.2782e-07	112.93	53.078	24.91	12.25	5.6486e-07	25.347	226.171	161.864	182.206	100.330	266.064	257.904	99.369	105.828	255.020	242.953	103.031	108.777	110.471	114.424	248.249	111.516	-8191	255	
1575.733	1	1	0	0	0.13497	0.31945	0.16007	0.086752	0.25901	0.37822	0.22781	0.11713	0.23599	0.04638	0.20382	0.11921	0.05796	0.20369	0.053756	0.12951	-2.8271	-2.75	-2.7292	-3.2271	-2.8417	-3.0312	-2.8771	-2.4833	-3.0312	-2.8104	-2.8187	-2.9646	-2.8042	-3.0125	-3.0354	-2.6437	181.488	235.915	327.871	360.387	199.126	266.071	233.121	367.854	423.586	432.727	332.781	92.711	148.443	346.669	348.290	405.252	0.00023267	0.00018986	4.2374e-05	177.78	1.7252e-06	1.8411e-06	321.14	61.749	1.6472e-06	1.6565e-06	111.51	52.126	24.546	11.832	1.3052e-06	24.904	0.00018668	3.3656e-05	1.0275e-05	179.26	4.3827e-07	1.6572e-07	323.76	62.667	3.922e-07	1.9044e-07	112.78	53.107	24.921	12.218	3.9143e-07	25.34	227.196	160.536	167.145	100.358	264.325	257.865	99.921	106.079	255.550	257.640	102.620	108.483	110.181	114.223	260.970	111.386	-8191	255	
1575.852	1	1	0	0	0.13748	0.12866	0.15496	0.0126	0.031352	0.1987	0.23309	0.082717	0.1284	0.098792	0.12354	0.058675	0.089796	0.11549	0.15639	0.076857	-2.7292	-2.7854	-2.5521	-3.1937	-2.8104	-2.9854	-2.8979	-2.6583	-3.1146	-2.7708	-2.6292	-3.3063	-2.7271	-3.1063	-2.7979	-2.4	276.977	293.018	263.313	241.135	159.625	369.292	406.038	444.224	220.981	90.154	139.457	381.660	439.585	344.232	259.749	269.141	0.00022369	0.00018907	5.5241e-05	178.39	1.5985e-06	1.7217e-06	321.47	61.831	1.2839e-06	1.612e-06	112.78	52.219	24.489	11.951	1.7248e-06	24.925	0.00017444	2.7396e-05	1.0805e-05	179.38	4.6216e-07	1.6478e-07	325.17	62.481	2.6531e-07	1.5917e-07	113.27	53.237	24.922	12.248	4.1899e-07	25.424	225.104	176.220	179.994	100.879	236.148	243.437	99.725	106.035	253.596	236.427	102.636	108.380	110.787	114.812	250.725	111.365	-8191	255	
1575.948	1	1	0	0	0.28226	0.15065	0.13429	0.064848	0.067589	0.12323	0.35068	0.10608	0.14227	0.28433	0.23699	0.17904	0.097947	0.20182	0.21656	0.13401	-2.7979	-2.8583	-2.75	-3.0042	-2.7792	-3.0625	-2.8792	-2.6771	-3.2083	-2.9479	-2.5708	-2.9979	-2.7104	-2.8479	-3.2229	-2.6312	198.192	95.678	400.080	189.632	104.253	426.193	429.603	215.925	271.459	417.906	443.988	365.398	227.933	397.341	174.965	378.403	0.0002338	0.00023859	4.5565e-05	177.68	1.4414e-06	1.9739e-06	325.54	61.609	1.5638e-06	2.3019e-06	111.86	52.145	24.621	11.874	1.754e-06	25.035	0.00018686	2.6502e-05	1.1427e-05	179	4.965e-07	2.0929e-07	325.91	62.723	4.5204e-07	2.5771e-07	113.37	53.431	25.119	12.278	4.1899e-07	25.598	224.406	175.126	206.683	100.579	258.737	249.047	100.122	105.976	254.076	226.387	103.347	108.429	110.594	114.329	254.711	111.539	-8191	255	
1576.044	1	1	0	0	0.14009	0.16196	0.16455	0.06697	0.15668	0.11135	0.22726	0.18144	0.21919	0.14286	0.079278	0.1451	0.13947	0.13605	0.20541	0.039565	-2.6813	-2.8333	-2.3646	-3.1021	-3.0104	-2.7896	-3.1229	-2.6646	-3.0875	-2.9062	-2.9271	-2.9896	-2.8896	-2.8187	-3.4417	-2.7896	392.754	179.968	131.341	94.888	368.125	390.700	355.047	214.722	221.201	350.490	303.168	350.371	138.294	294.085	195.509	317.219	0.00021397	0.00018267	6.4066e-05	177.69	1.3736e-06	1.7565e-06	321.45	61.59	1.8134e-06	1.9491e-06	111.42	52.116	24.594	11.939	1.6379e-06	24.865	0.000174	2.6746e-05	1.4698e-05	179.07	2.8222e-07	2.519e-07	325.01	62.496	4.5564e-07	1.4685e-07	112.88	53.219	24.956	12.26	2.1071e-07	25.368	226.731	192.065	192.411	100.557	252.659	252.186	99.617	106.009	242.140	230.602	102.699	108.459	110.504	114.713	245.130	111.299	-8191	255	
1576.165	1	1	0	0	0.3554	0.1382	0.084227	0.20977	0.1693	0.21427	0.064103	0.32175	0.070019	0.055158	0.1458	0.21773	0.27347	0.078801	0.16397	0.09093	-2.2812	-3.0042	-2.7458	-3.3417	-2.9958	-2.6667	-3.1458	-2.8458	-3.0812	-3.1583	-2.8458	-2.9958	-2.9354	-2.7875	-3.2167	-2.6583	137.812	225.748	144.456	257.448	366.906	303.786	133.017	434.096	334.848	94.217	420.345	315.721	388.169	423.485	323.639	349.895	0.00022794	0.00016674	5.7616e-05	177.83	1.4435e-06	1.5949e-06	320.67	61.434	1.6947e-06	2.4047e-06	110.97	52.031	24.641	11.949	1.8965e-06	24.784	0.00018829	2.2031e-05	1.0966e-05	178.51	3.4718e-07	2.9925e-07	323.38	62.538	4.5853e-07	-3.2213e-08	112.57	53.023	24.993	12.229	3.9224e-07	25.326	228.355	177.930	174.438	100.575	227.392	230.876	99.366	105.994	266.008	246.705	102.491	108.336	110.170	114.499	251.564	111.606	-8191	255	
1576.236	1	1	0	0	0.25565	0.057558	0.15457	0.075404	0.17207	0.09186	0.11507	0.21377	0.13706	0.014178	0.10641	0.052219	0.12783	0.0784	0.053499	0.23858	-2.4729	-3.1312	-2.7292	-2.975	-2.9792	-2.7812	-3.1063	-2.7	-2.8583	-3.1688	-2.7021	-2.8667	-2.9854	-2.7896	-3.0646	-2.8667	406.343	336.895	203.812	230.585	186.006	199.315	372.531	376.100	293.435	435.966	379.224	127.686	242.558	269.033	110.685	330.363	0.00023694	0.00017549	4.0575e-05	177.39	1.7544e-06	2.0505e-06	321.18	61.533	1.6823e-06	2.5198e-06	111.25	52.345	24.74	11.89	1.9026e-06	25	0.00019441	1.8129e-05	1.0229e-05	178.79	2.5609e-07	3.324e-07	324.68	62.551	5.2414e-07	8.6218e-08	112.88	53.328	25.016	12.268	3.42e-07	25.515	228.319	167.222	176.758	100.953	260.315	225.874	99.703	105.954	246.835	227.935	103.602	108.365	110.488	114.400	270.100	111.423	-8191	255	
1576.332	1	1	0	0	0.10934	0.33146	0.097712	0.15831	0.27817	0.1371	0.05523	0.13627	0.15586	0.18603	0.25241	0.13433	0.052465	0.059019	0.24067	0.2053	-2.325	-3.175	-2.6562	-3.0292	-3.2042	-2.5896	-2.9562	-3.0979	-2.8708	-3.15	-2.7313	-2.9604	-2.8604	-2.5687	-3.0229	-2.9771	438.318	359.662	327.090	355.755	317.744	380.817	197.618	266.763	406.816	208.729	174.925	133.483	195.749	356.887	236.060	383.150	0.00022348	0.00019986	4.8892e-05	178.53	1.591e-06	1.6565e-06	322.43	61.641	1.4463e-06	2.5263e-06	112.11	52.447	24.752	12.023	1.8233e-06	24.978	0.00018169	1.3495e-05	9.0077e-06	179.21	2.7102e-07	3.5891e-07	325.01	62.631	4.6213e-07	1.7907e-07	113.32	53.543	25.081	12.303	4.2304e-07	25.645	228.238	155.727	185.848	100.923	239.370	238.787	99.661	106.234	249.610	247.008	102.846	108.374	110.237	114.403	263.282	111.519	-8191	255	
1576.429	1	1	0	0	0.16068	0.35675	0.10783	0.15741	0.28084	0.15855	0.17606	0.13062	0.2825	0.14059	0.12472	0.17254	0.20394	0.25107	0.042869	0.057149	-2.3937	-2.9042	-2.8979	-2.8646	-3.1542	-2.4313	-3.0812	-2.8271	-2.5167	-3.2417	-2.7917	-2.7938	-3.1583	-2.7521	-3.0396	-2.8646	131.184	237.341	246.322	175.711	381.262	187.497	384.027	291.444	443.395	322.330	414.841	359.164	114.197	434.286	254.047	401.061	0.00022534	0.00014554	5.3955e-05	177.24	2.2127e-06	1.927e-06	323.56	61.393	1.3343e-06	1.6709e-06	111.15	52.748	24.869	12.004	1.4144e-06	24.899	0.00018154	1.1706e-05	1.0828e-05	178.95	3.0388e-07	1.9792e-07	325.15	62.694	5.6883e-07	1.2791e-07	112.81	53.379	25.085	12.269	3.5902e-07	25.391	229.654	185.963	179.176	100.874	256.954	231.215	99.396	105.633	248.385	239.742	103.268	108.286	111.067	114.650	246.204	111.190	-8191	255	
1576.547	1	1	0	0	0.20872	0.34075	0.056787	0.26449	0.085153	0.074289	0.071861	0.11676	0.18271	0.10076	0.20886	0.084023	0.22051	0.34135	0.30941	0.088993	-2.1958	-3.1063	-2.8875	-2.8354	-3.2521	-2.6562	-2.9583	-3.0271	-2.6562	-3.2	-2.6979	-2.8187	-3.3187	-2.5667	-2.9688	-3.2417	305.230	421.242	210.830	349.786	306.242	306.469	293.984	406.428	394.545	110.420	115.274	395.869	113.113	144.169	301.823	336.675	0.00022035	0.0001959	4.9316e-05	179.13	1.8997e-06	2.0104e-06	323.44	62.072	1.3165e-06	1.9819e-06	111.29	52.375	24.43	12.017	2.1433e-06	24.942	0.00018496	1.8535e-05	7.7867e-06	179.74	2.9268e-07	2.7652e-07	325.65	62.907	4.5564e-07	-1.8949e-09	112.87	53.393	24.961	12.32	4.0359e-07	25.563	225.393	160.927	153.739	100.528	245.328	233.748	99.771	106.105	268.291	252.875	103.013	108.130	110.245	114.520	244.243	111.595	-8191	255	
1576.644	1	1	0	0	0.052843	0.25722	0.11084	0.05842	0.10649	0.17815	0.080189	0.15304	0.25113	0.11244	0.19819	0.13549	0.089155	0.042932	0.16979	0.0142	-2.3583	-2.875	-2.8333	-2.9146	-3.2771	-2.5896	-3.0563	-2.9875	-2.6188	-3.1937	-2.9396	-2.6021	-3.2104	-2.6604	-2.8896	-3.1521	335.727	356.204	437.423	357.097	234.876	397.199	417.544	394.405	104.317	429.981	156.557	155.565	187.846	197.024	375.192	179.158	0.00022702	0.00016662	4.131e-05	180.2	1.9699e-06	1.8657e-06	325.49	62.385	1.5515e-06	1.8337e-06	111.54	52.582	24.757	12.097	1.799e-06	25.138	0.00018924	1.4308e-05	6.0128e-06	180.93	1.7396e-07	1.8182e-07	329.01	63.279	5.5442e-07	6.9164e-08	113.41	53.614	25.149	12.417	4.8463e-07	25.665	226.053	155.675	147.573	101.092	258.636	219.978	99.518	106.268	265.439	241.652	103.087	108.476	110.534	114.681	250.258	111.305	-8191	255	
1576.740	1	1	0	0	0.1723	0.011671	0.096562	0.14603	0.11963	0.16416	0.25889	0.18247	0.15036	0.10209	0.040193	0.11102	0.08657	0.26542	0.05003	0.31813	-2.1729	-2.925	-2.9562	-2.6292	-3.0979	-2.7	-2.75	-3.3375	-2.4833	-3.0708	-2.925	-2.7708	-2.8375	-2.9562	-2.6292	-3.0479	119.884	248.434	284.559	374.648	113.686	297.075	399.238	269.612	257.358	300.071	342.813	272.984	311.791	99.383	446.883	120.934	0.00023629	0.00015144	6.0823e-05	178.86	2.2434e-06	1.9645e-06	325.05	61.882	1.5909e-06	2.2897e-06	111.8	52.809	24.768	12.232	1.8937e-06	25.172	0.00019604	2.3738e-05	6.9113e-06	181.08	3.6584e-07	1.6667e-07	329.27	63.082	4.4411e-07	2.1033e-07	113.92	53.685	25.065	12.411	4.6599e-07	25.722	227.186	170.491	171.847	100.665	257.727	227.528	99.586	105.589	263.398	224.152	102.767	108.559	110.250	114.699	242.404	111.832	-8191	255	
1576.836	1	1	0	0	0.23185	0.26244	0.1833	0.17887	0.22993	0.095574	0.1365	0.19935	0.11815	0.0528	0.069035	0.16577	0.15019	0.14188	0.082722	0.16248	-2.2396	-2.6333	-3.0167	-2.6292	-2.9354	-2.9958	-2.8708	-3.2375	-2.5646	-2.6667	-3.0312	-2.5583	-3.175	-3.0375	-2.5687	-3.2354	443.369	269.573	251.850	416.290	306.460	351.989	422.008	91.075	403.828	188.749	124.370	93.910	185.522	322.293	146.957	378.690	0.00023174	0.00022074	5.2466e-05	178.69	1.615e-06	2.117e-06	326.43	62.107	1.5308e-06	1.4932e-06	111.97	51.972	24.361	12.115	1.7815e-06	24.936	0.00018618	3.4875e-05	4.0085e-06	180.67	3.5913e-07	1.9413e-07	328.19	62.98	5.7893e-07	3.0318e-08	112.76	53.206	24.913	12.358	5.7702e-07	25.486	227.699	152.830	178.167	100.448	243.441	245.002	99.681	106.298	271.943	247.462	102.561	108.575	110.459	114.693	251.711	111.612	-8191	255	
1576.930	1	1	0	0	0.054753	0.25909	0.12218	0.27725	0.20141	0.090274	0.05918	0.024193	0.18345	0.047607	0.022637	0.12514	0.13379	0.11218	0.28018	0.043557	-2.2062	-2.8167	-3.0917	-2.4979	-2.775	-2.9562	-3.0146	-3.1958	-2.6562	-2.7521	-2.8812	-2.7042	-2.7833	-3.1729	-2.4625	-3.0104	383.528	240.562	187.689	332.384	171.713	392.142	353.066	305.895	388.489	166.154	152.549	275.057	441.101	413.815	268.481	386.341	0.00023207	0.00015558	5.2153e-05	177.56	1.2916e-06	1.8745e-06	325.33	61.789	1.9594e-06	1.5843e-06	111.04	52.088	24.611	12.002	1.9425e-06	24.868	0.00019506	3.5932e-05	4.4693e-06	179.75	3.2777e-07	2.1497e-07	327.38	62.732	4.3329e-07	4.0645e-07	112.24	53.189	25.033	12.305	6.3456e-07	25.428	224.968	171.201	169.787	100.330	252.823	237.907	99.389	105.863	257.053	232.008	102.844	108.419	110.408	114.553	247.584	111.284	-8191	255	
1577.026	1	1	0	0	0.25533	0.35225	0.1167	0.19466	0.013077	0.17322	0.35093	0.092784	0.10677	0.17881	0.18622	0.11719	0.13423	0.11325	0.16702	0.092501	-2.3937	-2.7521	-3.2458	-2.6688	-3.0792	-2.8646	-2.5604	-3.2292	-2.7333	-2.7375	-2.975	-2.5854	-2.775	-2.8312	-2.6458	-3.175	155.904	201.889	124.954	417.435	434.018	407.078	361.023	357.806	229.973	119.785	250.584	233.307	260.514	355.847	331.758	379.186	0.00022745	0.00014513	5.1519e-05	179.89	1.3653e-06	1.5434e-06	324.59	61.916	1.4469e-06	1.409e-06	111.84	52.545	24.659	11.948	2.0328e-06	25.012	0.00018285	3.5119e-05	3.9855e-06	180.14	3.3299e-07	1.8277e-07	327.78	62.705	4.0229e-07	2.1981e-07	113.13	53.555	25.005	12.329	6.1025e-07	25.589	227.102	176.541	168.498	100.530	240.712	248.619	99.944	106.126	260.749	237.890	102.707	108.819	110.568	114.704	240.119	111.546	-8191	255	
1577.124	1	1	0	0	0.14174	0.27516	0.22746	0.060553	0.16657	0.14165	0.1472	0.21496	0.097497	0.18598	0.31673	0.21221	0.13258	0.13183	0.045194	0.17688	-2.3729	-2.5396	-3.0062	-2.5771	-2.8708	-2.8792	-2.8063	-3.1083	-2.9521	-2.6417	-3.1396	-2.6958	-2.875	-2.9958	-2.625	-3.2604	373.816	186.490	385.337	427.942	395.343	154.106	277.298	208.354	166.189	143.832	102.985	422.868	394.779	93.775	350.834	140.770	0.00023723	0.0001883	3.6452e-05	177.81	2.0053e-06	1.3761e-06	322.74	61.845	1.4079e-06	2.2644e-06	111.53	52.654	24.561	11.954	1.869e-06	24.946	0.00018956	3.6176e-05	6.3814e-06	179.51	3.3598e-07	8.9018e-08	326.81	62.852	4.6213e-07	3.0413e-07	113.16	53.606	24.995	12.311	6.7994e-07	25.627	226.864	170.136	172.706	100.473	243.299	243.496	99.637	105.991	255.263	236.201	102.542	108.862	110.071	114.646	247.329	111.534	-8191	255	
1577.243	1	1	0	0	0.1293	0.18681	0.13723	0.18643	0.18217	0.24837	0.094137	0.21374	0.20666	0.28462	0.098494	0.17964	0.10514	0.22081	0.21765	0.1532	-2.6167	-2.5479	-3.0479	-2.5604	-2.7271	-3.2771	-2.6833	-3.0479	-2.8604	-2.7833	-3.1083	-2.7792	-2.7708	-3.2458	-2.6083	-3.0312	274.292	252.648	147.311	255.145	122.516	97.880	149.479	149.259	228.982	227.199	398.686	388.477	364.035	275.503	207.137	428.204	0.00021617	0.00017278	7.213e-05	178.77	1.1039e-06	1.8105e-06	324.17	61.751	1.2609e-06	1.9447e-06	111.2	52.404	24.801	11.939	1.5615e-06	24.887	0.00017866	4.4062e-05	7.1877e-06	179.9	3.9571e-07	1.3447e-07	326.72	62.686	3.648e-07	2.9845e-07	112.66	53.453	24.948	12.245	4.3763e-07	25.469	225.447	161.468	172.369	100.345	230.164	244.815	99.812	105.726	257.192	231.348	103.014	108.353	110.309	114.323	252.745	111.567	-8191	255	
1577.339	1	1	0	0	0.14536	0.13895	0.18896	0.16284	0.16152	0.090858	0.22547	0.025329	0.30082	0.17142	0.27521	0.10796	0.05769	0.16992	0.09916	0.12705	-2.6333	-2.6417	-2.8833	-2.6021	-2.5917	-3.1688	-2.875	-3.0229	-3.0042	-2.6979	-3.2104	-3.0375	-2.5479	-3.0521	-2.8187	-2.8208	263.896	357.714	230.968	300.803	410.436	291.877	194.405	261.676	113.749	434.157	288.058	384.481	314.374	291.255	319.695	106.111	0.00023344	0.00012061	3.8308e-05	175.33	1.8676e-06	1.8323e-06	321.71	61.598	1.5607e-06	1.6747e-06	110	51.971	24.551	12.012	2.1554e-06	25.046	0.00018615	2.7559e-05	2.0734e-06	178.07	5.2189e-07	8.7124e-08	323.62	62.43	4.1743e-07	3.335e-07	111.95	53.196	24.888	12.263	5.7054e-07	25.495	227.711	130.567	189.871	101.019	263.796	218.184	99.713	106.148	255.580	216.120	103.011	108.578	110.299	114.423	256.851	111.962	-8191	255	
1577.436	1	1	0	0	0.15283	0.4378	0.16315	0.13746	0.13738	0.1386	0.22461	0.051474	0.0742	0.13583	0.20485	0.18909	0.12002	0.18488	0.14079	0.33819	-2.6625	-2.5375	-3.0625	-2.8083	-2.7062	-3.1	-2.8187	-3.1792	-3.0604	-2.6271	-2.9521	-2.9042	-2.5167	-3.1104	-2.5917	-2.6542	112.907	305.978	416.550	389.091	170.658	344.315	225.944	219.003	343.634	223.322	356.829	147.412	380.636	135.416	319.009	218.054	0.00023603	0.00022097	6.149e-05	174.81	1.7119e-06	2.1167e-06	322.48	61.248	1.4201e-06	1.9479e-06	111.3	52.49	24.532	11.902	2.376e-06	25.109	0.00017875	4.4549e-05	4.3311e-06	178.15	3.8899e-07	1.0512e-07	325.59	62.446	3.3452e-07	3.9414e-07	112.77	53.368	24.949	12.235	5.8431e-07	25.639	225.171	166.145	164.971	100.710	266.676	226.905	99.731	106.201	261.181	227.078	103.312	108.680	110.712	114.866	254.776	111.654	-8191	255	
1577.532	1	1	0	0	0.22498	0.12233	0.19764	0.18771	0.15619	0.050975	0.21244	0.042292	0.2448	0.10269	0.14957	0.20979	0.20357	0.085678	0.17612	0.047836	-2.5646	-2.7271	-3.1417	-3.2	-2.8458	-3.05	-2.7104	-2.8771	-3.0792	-2.7479	-2.9958	-3.0771	-2.9042	-3.0062	-3.0417	-2.7438	207.574	425.557	370.812	157.871	185.135	163.229	361.010	170.376	276.748	317.985	163.052	140.065	272.800	285.873	386.066	172.311	0.00022981	0.00020644	5.8773e-05	175.61	1.5625e-06	2.1888e-06	325.8	61.771	1.5581e-06	1.6967e-06	111.57	52.58	24.616	11.94	2.2316e-06	25.065	0.00017539	4.5606e-05	4.285e-06	178.63	4.0542e-07	4.735e-08	328.01	62.694	3.0713e-07	3.155e-07	113.08	53.686	25.03	12.31	4.9841e-07	25.679	227.840	177.709	185.538	100.265	254.417	230.952	99.666	106.149	242.439	251.108	102.925	108.589	110.169	114.537	250.490	111.668	-8191	255	
1577.628	1	1	0	0	0.041849	0.24356	0.16684	0.17388	0.11456	0.21086	0.13703	0.20597	0.27893	0.31275	0.17763	0.15423	0.14278	0.12875	0.056099	0.13783	-2.6708	-2.6292	-2.8458	-2.8771	-2.7771	-3.0771	-3.0771	-2.7854	-3.0354	-2.6375	-2.7625	-2.8604	-2.5479	-3.0833	-2.8563	-2.6708	341.149	160.756	282.272	235.639	269.839	437.257	117.273	402.089	354.153	218.843	340.391	425.089	431.773	387.411	174.552	319.965	0.0002239	0.00017713	4.6969e-05	178.25	1.7491e-06	1.8404e-06	325.83	61.835	1.5783e-06	1.6358e-06	111.29	52.242	24.584	11.933	1.8171e-06	24.861	0.00017608	4.1948e-05	6.75e-06	179.23	4.7858e-07	2.3012e-07	327.08	62.758	3.5471e-07	2.3307e-07	112.69	53.4	24.978	12.265	3.9305e-07	25.501	227.581	172.027	150.464	100.403	259.870	240.052	99.709	106.047	255.142	232.916	103.087	108.507	110.236	114.612	261.495	111.457	-8191	255	
1577.724	1	1	0	0	0.34768	0.24814	0.18414	0.095827	0.25206	0.15518	0.063669	0.16699	0.11488	0.10066	0.11513	0.1784	0.24456	0.2481	0.095386	0.2086	-2.9229	-2.6688	-2.7667	-2.9333	-2.5438	-2.6833	-2.825	-2.8208	-3.1521	-2.8958	-2.9021	-3.0938	-2.7208	-3.1854	-3.1271	-2.6625	216.988	277.112	399.085	359.924	89.095	267.757	162.908	204.501	341.580	357.153	404.773	91.783	334.611	356.762	102.563	155.524	0.00022918	0.00018936	5.3182e-05	176.37	1.6639e-06	2.0199e-06	324.96	61.6	1.367e-06	2.0356e-06	111.74	52.177	24.463	11.871	1.784e-06	24.869	0.00017525	3.6257e-05	8.0631e-06	178.91	4.9352e-07	1.8372e-07	326.74	62.618	2.1557e-07	1.7054e-07	112.5	53.363	24.891	12.24	3.501e-07	25.477	227.835	176.714	171.150	100.912	254.315	228.814	99.917	106.565	267.021	229.792	102.737	108.701	110.617	114.750	247.592	111.371	-8191	255	
1577.845	1	1	0	0	0.45716	0.11853	0.21752	0.20464	0.22755	0.14988	0.24561	0.058473	0.15984	0.14154	0.11234	0.16668	0.29567	0.1818	0.19819	0.23555	-2.5438	-2.7104	-2.8479	-3.1042	-2.7167	-2.9062	-3.0458	-2.7021	-3.2333	-2.9354	-2.6813	-2.9313	-2.6063	-3.0146	-3.1937	-2.6188	379.311	295.557	275.860	400.408	262.179	414.853	386.536	319.012	379.097	323.693	397.536	264.562	372.922	126.360	89.955	108.056	0.00024352	0.00019248	4.1238e-05	177.61	1.6638e-06	1.7033e-06	323.31	62.507	1.3004e-06	1.7388e-06	111.23	52.749	24.505	11.936	2.3843e-06	25.127	0.00018514	2.6258e-05	8.9846e-06	179.07	3.9496e-07	1.6099e-07	325.92	62.903	3.1722e-07	2.0749e-07	113	53.676	24.925	12.284	3.4848e-07	25.675	226.627	165.128	178.316	100.654	256.951	248.514	99.600	106.103	262.716	240.541	102.913	108.732	110.338	114.885	255.124	111.455	-8191	255	
1577.939	1	1	0	0	0.15874	0.18607	0.3012	0.1109	0.060402	0.06116	0.24951	0.093333	0.16897	0.12842	0.27516	0.0915	0.14564	0.12879	0.0868	0.15074	-2.7313	-2.8167	-2.6979	-3.3167	-2.8146	-3.0792	-3.1708	-2.75	-2.975	-2.9229	-2.8521	-3.1958	-2.6958	-2.9917	-3.0729	-2.5062	341.498	216.096	264.945	100.342	274.646	327.532	417.764	186.972	225.534	199.369	411.197	285.029	424.952	375.115	431.034	421.403	0.00022454	0.00015119	4.6028e-05	178.08	2.0663e-06	1.7097e-06	323.52	62.128	1.5853e-06	2.1282e-06	112.11	52.73	24.767	11.958	1.7175e-06	25.137	0.00018044	2.6421e-05	9.837e-06	179.47	3.6883e-07	2.4906e-07	326.76	63.146	3.0496e-07	1.838e-07	113.47	53.761	25.089	12.273	2.6014e-07	25.643	226.089	180.063	178.353	100.627	250.816	238.961	99.520	105.972	263.550	242.773	103.204	108.528	110.368	114.741	253.916	111.643	-8191	255	
1578.035	1	1	0	0	0.10434	0.36937	0.13416	0.086748	0.18191	0.15696	0.36372	0.1305	0.16775	0.15808	0.15531	0.12019	0.24406	0.13157	0.096319	0.17579	-2.2812	-2.8375	-2.6167	-3.2729	-2.9604	-2.8396	-3.1188	-2.5229	-2.8812	-3.0438	-2.8083	-3.3667	-2.8625	-2.6937	-3.0604	-2.7792	146.501	257.901	221.459	223.840	89.256	197.140	399.836	332.451	93.627	304.496	321.712	130.011	295.468	315.361	407.932	447.725	0.00023232	0.00023295	4.9918e-05	177.71	1.1583e-06	2.1449e-06	323.19	61.95	1.4031e-06	1.3103e-06	111.01	52.257	24.597	11.925	1.8574e-06	24.831	0.0001803	1.821e-05	8.9616e-06	178.96	3.5539e-07	1.9698e-07	327.19	62.811	5.4432e-07	1.118e-07	112.55	53.416	24.95	12.249	3.2741e-07	25.478	226.440	180.060	188.102	100.767	251.344	242.347	99.587	106.264	262.646	260.406	102.918	108.504	110.309	114.698	262.734	111.662	-8191	255	
1578.131	1	1	0	0	0.22015	0.20084	0.18197	0.077169	0.09947	0.18061	0.22107	0.27717	0.22302	0.19103	0.24074	0.16666	0.24542	0.16453	0.17752	0.1195	-2.5479	-3.05	-2.7292	-3.0229	-2.8792	-2.7229	-2.9958	-2.575	-2.9771	-3.0396	-2.7646	-3.0667	-2.9062	-2.8354	-3.2083	-2.7167	433.219	265.496	217.181	99.575	324.258	270.613	421.109	362.145	236.783	289.023	368.368	317.534	412.686	322.392	157.260	308.633	0.00022587	0.00020541	5.825e-05	177.49	1.8953e-06	1.8685e-06	323.17	61.361	1.1523e-06	1.6123e-06	111.68	52.393	24.438	11.884	2.2467e-06	25	0.00018555	1.756e-05	1.3846e-05	179.01	4.2259e-07	2.9546e-07	326.54	62.588	3.0424e-07	6.7269e-08	112.64	53.44	24.887	12.225	2.958e-07	25.548	226.946	171.058	173.579	100.338	266.933	245.254	99.440	106.076	259.718	231.435	103.139	108.511	110.776	114.899	261.085	111.323	-8191	255	
1578.227	1	1	0	0	0.16108	0.10178	0.089143	0.16486	0.27871	0.27537	0.15336	0.15935	0.11647	0.23686	0.036483	0.15459	0.19129	0.21446	0.10064	0.065326	-2.4313	-3.0438	-2.6771	-2.8875	-2.9437	-2.7438	-3.2208	-3.0271	-2.7708	-3.0583	-2.6771	-3.1896	-3.0521	-2.6708	-3	-2.8083	159.217	250.882	391.823	383.474	185.039	422.038	331.176	156.370	398.572	401.620	385.770	170.668	360.871	374.723	117.221	140.184	0.00023548	0.00020392	4.6211e-05	177.86	1.6431e-06	2.2623e-06	323.69	61.237	1.0703e-06	1.324e-06	111.11	52.973	24.612	11.945	1.9902e-06	25.086	0.00018662	1.5771e-05	7.372e-06	178.87	3.7032e-07	2.3107e-07	326.43	62.461	4.5637e-07	-1.0043e-07	112.71	53.879	24.982	12.248	3.1039e-07	25.674	226.556	176.970	186.745	100.866	258.928	241.946	99.445	106.156	264.749	225.588	103.121	108.701	110.672	114.196	251.389	111.816	-8191	255	
1578.324	1	1	0	0	0.11205	0.15335	0.15351	0.13394	0.12594	0.12412	0.11176	0.10671	0.27195	0.13348	0.23089	0.1566	0.12913	0.14269	0.18683	0.13802	-2.4562	-3.1354	-2.6458	-2.9167	-3.1833	-2.6958	-3.2646	-2.5896	-2.8375	-3.4125	-2.8812	-2.975	-3.0104	-2.7271	-3.2208	-3.0292	354.052	325.911	370.873	325.701	396.425	250.528	132.259	347.475	131.622	374.226	134.645	260.026	191.614	347.575	382.709	277.797	0.00023463	0.0002008	4.862e-05	175.91	1.2909e-06	1.7097e-06	324.36	61.783	1.1777e-06	2.0624e-06	111.3	52.675	24.642	11.978	1.7309e-06	25.171	0.00019467	2.1787e-05	1.0021e-05	178.52	1.538e-07	3.9016e-07	326.89	62.649	5.3855e-07	1.6486e-07	113.04	53.814	24.99	12.273	3.0391e-07	25.639	226.863	168.986	180.892	100.587	258.095	246.737	99.774	106.287	259.619	242.024	102.879	108.340	110.563	114.622	246.730	111.944	-8191	255	
1578.420	1	1	0	0	0.24754	0.2809	0.087021	0.052376	0.089425	0.12536	0.13657	0.11622	0.010492	0.20141	0.20797	0.2082	0.11033	0.040039	0.13002	0.12229	-2.4417	-3.175	-3.0438	-3.0229	-3.1771	-2.8354	-3.2708	-3.0708	-2.875	-3.1646	-2.7375	-3.0146	-3.0792	-2.6521	-3.0812	-3.0062	364.961	189.701	103.862	413.348	166.761	341.312	152.103	91.676	411.610	212.757	432.626	142.176	267.794	342.242	271.544	339.977	0.00023259	0.00019114	4.5239e-05	179.1	1.9614e-06	2.2709e-06	322.84	61.511	1.3276e-06	1.8979e-06	111.86	52.225	24.595	11.839	1.2235e-06	24.883	0.000192	1.8779e-05	8.2474e-06	179.24	2.7326e-07	2.7652e-07	325.77	62.594	4.1599e-07	-1.3264e-08	112.85	53.428	24.938	12.182	3.0715e-07	25.454	227.895	167.262	165.192	100.529	253.694	243.462	99.693	105.988	240.837	236.483	102.708	108.601	110.789	114.304	240.701	111.481	-8191	255	
1578.516	1	1	0	0	0.21268	0.21218	0.052471	0.049641	0.2394	0.11903	0.16997	0.11808	0.10066	0.055302	0.19672	0.20539	0.3424	0.25301	0.21382	0.24456	-2.1125	-2.9125	-2.5104	-2.7875	-3.1479	-2.9833	-3.1229	-2.9938	-2.6937	-3.0354	-2.7188	-2.7958	-3.0021	-2.4313	-2.7812	-3.0167	339.499	212.860	96.166	190.798	378.062	160.127	379.760	214.909	418.432	413.169	412.785	358.066	338.501	349.682	412.894	340.554	0.00021633	0.00024572	5.3783e-05	178.09	1.5081e-06	2.2109e-06	325.49	61.598	1.4527e-06	1.2353e-06	111.39	52.453	24.605	11.914	1.5527e-06	24.989	0.0001775	2.9103e-05	8.2705e-06	178.77	2.5012e-07	3.466e-07	325.96	62.62	5.2269e-07	6.6321e-09	112.75	53.652	24.946	12.196	4.3844e-07	25.526	228.171	173.661	166.480	100.867	262.483	234.727	99.582	105.542	277.847	241.860	102.899	108.376	110.165	114.646	243.259	111.601	-8191	255	
1578.637	1	1	0	0	0.116	0.27807	0.12869	0.15874	0.21216	0.092097	0.13065	0.39286	0.1201	0.11127	0.21033	0.15139	0.078718	0.24447	0.14516	0.074656	-2.0938	-2.9813	-2.7792	-2.8	-3.1042	-3	-2.9146	-2.9917	-2.6729	-3.0958	-3.1646	-2.5833	-3.2583	-2.7792	-2.9125	-3.0583	204.180	391.785	169.661	434.008	309.141	261.104	176.983	375.003	161.318	115.286	173.296	203.537	108.994	223.226	332.711	333.819	0.00022125	0.00022874	5.409e-05	175.98	1.4741e-06	1.6062e-06	323.19	61.457	1.1959e-06	2.3194e-06	111.01	52.603	24.634	11.89	2.4394e-06	25.165	0.00018686	3.7314e-05	7.0264e-06	178.33	1.4932e-07	1.0417e-07	325.86	62.545	5.6163e-07	2.0465e-07	112.62	53.79	24.993	12.228	3.2012e-07	25.692	227.151	176.662	180.962	100.743	233.750	224.665	99.625	105.901	247.952	229.777	102.833	108.668	110.353	114.796	249.908	111.438	-8191	255	
1578.733	1	1	0	0	0.24931	0.085836	0.030675	0.15679	0.31157	0.057889	0.095404	0.028379	0.14736	0.17471	0.19371	0.16596	0.0887	0.19149	0.072708	0.23215	-2.1896	-2.8375	-2.9792	-2.7562	-3.2333	-2.8333	-3.0229	-3.0854	-2.6896	-2.7354	-2.8646	-2.75	-3.3667	-2.7917	-2.6042	-2.9938	184.434	228.289	151.582	274.447	107.791	177.083	194.658	98.906	290.835	393.401	139.164	188.490	285.549	89.573	162.898	437.531	0.00023561	0.00019714	4.8681e-05	177.35	1.6843e-06	1.9281e-06	325.8	61.846	1.2942e-06	2.7812e-06	112.39	52.739	24.671	11.998	1.3342e-06	25.11	0.00019426	2.0242e-05	7.0725e-06	178.53	1.3215e-07	1.7425e-07	327.79	62.772	4.9313e-07	3.4677e-07	113.53	53.926	24.983	12.288	3.9224e-07	25.71	225.848	175.353	162.608	101.071	251.747	235.067	99.514	106.329	255.326	225.719	103.382	108.277	110.493	114.724	240.247	111.629	-8191	255	
1578.804	1	1	0	0	0.15765	0.23783	0.34028	0.088191	0.1419	0.11251	0.20377	0.27123	0.045065	0.081482	0.065374	0.11183	0.12095	0.11653	0.080004	0.13007	-2.5042	-2.8479	-2.9521	-2.7854	-3.2062	-2.9229	-3.0062	-3.1021	-2.4979	-2.7687	-3.0938	-2.6917	-3.1333	-2.8521	-2.6771	-3.1729	354.085	157.644	138.349	151.382	182.282	372.402	352.428	365.799	180.419	386.828	378.163	105.742	436.064	182.137	367.311	402.796	0.00022729	0.00016998	7.1452e-05	177.74	1.8443e-06	1.9232e-06	325.15	62.353	1.6544e-06	1.6244e-06	111.17	52.398	24.678	11.868	1.5846e-06	24.994	0.00018484	1.5039e-05	5.529e-06	178.7	2.979e-07	2.4338e-07	326.98	62.888	5.5874e-07	2.5013e-07	112.29	53.452	24.97	12.188	5.1624e-07	25.527	226.424	186.683	177.618	100.635	250.248	233.892	99.611	105.981	250.258	220.190	102.813	108.587	110.743	114.610	265.930	111.841	-8191	255	
1578.925	1	1	0	0	0.23709	0.18553	0.1874	0.21311	0.29614	0.094737	0.060524	0.14765	0.12589	0.089428	0.047171	0.11569	0.17346	0.14699	0.25866	0.22056	-2.2438	-3.1104	-3.0062	-2.6625	-2.9979	-3.0417	-2.6375	-3.2521	-2.9542	-2.9792	-2.9104	-2.75	-3.0563	-2.9375	-2.6875	-3.1896	87.717	182.403	290.458	418.659	340.546	250.006	385.684	439.840	340.406	438.727	294.128	212.515	292.566	338.383	179.711	255.012	0.00022647	0.00014206	4.9237e-05	175.89	1.6538e-06	1.9502e-06	324.44	62.028	1.3423e-06	2.0855e-06	111.09	52.556	24.602	11.86	1.8517e-06	25.039	0.00018561	2.6421e-05	3.5247e-06	177.91	3.6584e-07	2.2728e-07	326.7	62.666	5.0106e-07	2.8044e-07	112.26	53.475	24.858	12.179	5.0975e-07	25.603	228.549	186.851	175.069	100.826	252.413	243.456	99.840	105.662	247.323	251.157	102.645	108.697	110.410	114.659	259.616	111.685	-8191	255	
1579.019	1	1	0	0	0.15591	0.043944	0.17178	0.181	0.16553	0.15365	0.10008	0.2133	0.021501	0.06111	0.181	0.21489	0.21311	0.34013	0.069214	0.088085	-2.2979	-2.9396	-3.1917	-2.5479	-2.9333	-3.1312	-2.8271	-3.025	-2.6667	-2.6208	-3.1708	-2.7417	-3.0104	-3.0229	-2.6646	-3.0854	397.766	189.264	98.909	95.716	285.702	192.208	446.359	374.650	374.271	290.731	98.977	403.583	447.222	229.750	202.495	268.158	0.00022861	0.00019416	6.9788e-05	176.4	1.7569e-06	2.3294e-06	324.67	61.667	1.275e-06	1.9768e-06	111.01	52.479	24.574	11.913	1.779e-06	25.013	0.00018627	2.5283e-05	3.8473e-06	178.17	3.2553e-07	1.0417e-07	327.03	62.543	4.1815e-07	2.7002e-07	112.76	53.603	24.873	12.191	6.4104e-07	25.59	225.365	177.200	177.964	100.806	228.075	245.379	99.478	106.050	262.324	235.628	102.686	108.532	110.216	114.388	235.342	111.873	-8191	255	
1579.117	1	1	0	0	0.15667	0.18443	0.25868	0.17032	0.13759	0.060506	0.049853	0.11199	0.088406	0.29025	0.25219	0.067605	0.10031	0.053374	0.18216	0.13665	-2.1021	-2.8292	-3.2042	-2.8708	-2.9396	-3.0312	-2.5458	-2.9958	-2.9917	-2.7687	-3.2188	-2.7583	-2.9292	-3.175	-2.4625	-3.075	110.126	336.403	91.920	91.396	275.861	221.304	238.154	295.488	288.065	319.356	403.587	200.456	228.999	367.609	154.162	321.549	0.00022795	0.00013405	6.0729e-05	177.03	1.7077e-06	1.2539e-06	324.71	61.653	1.1009e-06	1.8123e-06	110.83	52.983	24.662	11.992	1.9717e-06	24.999	0.00018754	2.8453e-05	2.7415e-06	178.52	2.5236e-07	3.5039e-08	326.72	62.488	4.3834e-07	2.7286e-07	112.73	53.839	24.975	12.228	6.1268e-07	25.642	225.575	151.909	182.063	100.771	251.626	236.234	99.520	106.037	266.714	211.307	102.898	108.474	110.421	114.167	249.365	111.480	-8191	255	
1579.236	1	1	0	0	0.10641	0.097178	0.10314	0.19615	0.12369	0.03488	0.18101	0.089121	0.062416	0.33217	0.18428	0.24122	0.17011	0.13413	0.15201	0.19175	-2.3396	-2.6208	-3.2625	-2.8396	-2.7729	-2.9208	-2.7375	-3.2917	-2.9938	-2.9104	-2.9771	-2.7938	-2.9562	-3.1042	-2.4667	-2.8729	257.318	210.287	368.969	95.841	225.612	129.576	406.187	190.747	358.974	90.293	249.404	279.737	157.156	425.856	183.180	135.494	0.00021717	0.0001416	4.8846e-05	176.94	1.7711e-06	2.4586e-06	323.57	61.212	1.2924e-06	1.8667e-06	110.07	52.155	24.244	11.777	2.7493e-06	24.751	0.00017738	3.138e-05	-1.3592e-06	178.09	4.3677e-07	2.4432e-07	326.01	62.291	3.1001e-07	3.0887e-07	111.71	53.258	24.749	12.084	6.3213e-07	25.389	226.633	166.490	168.864	99.993	248.197	243.153	99.671	106.593	259.992	223.796	103.172	108.373	110.528	114.160	250.285	111.746	-8191	255	
1579.332	1	1	0	0	0.18	0.18851	0.34509	0.26491	0.15877	0.022703	0.16669	0.31523	0.06553	0.12452	0.32727	0.14025	0.031912	0.086126	0.16109	0.29524	-2.6646	-2.6708	-3.1271	-2.8333	-2.7521	-3.0812	-2.7208	-3.0833	-3.0708	-2.4667	-2.9	-2.8937	-2.7667	-3.2729	-2.9625	-2.9896	438.385	396.637	231.195	407.411	440.989	263.311	400.508	345.388	173.533	190.917	339.290	342.043	92.722	353.857	336.370	135.413	0.00021789	0.00019694	4.3602e-05	176.24	1.4766e-06	1.6142e-06	324.09	61.344	1.2871e-06	1.4544e-06	111.03	52.197	24.234	11.763	2.2601e-06	24.914	0.00017516	3.6339e-05	2.9949e-06	178.36	4.1064e-07	1.0512e-07	325.9	62.127	3.9725e-07	3.9224e-07	112.15	53.235	24.749	12.113	4.976e-07	25.499	225.041	164.672	189.995	100.823	266.234	245.889	99.742	105.909	260.807	233.403	103.005	108.641	110.522	114.569	250.401	111.733	-8191	255	
1579.404	1	1	0	0	0.12629	0.3096	0.11129	0.075676	0.10585	0.18706	0.12426	0.20036	0.16195	0.19993	0.15158	0.15782	0.21842	0.24163	0.11022	0.11641	-2.4625	-2.6042	-3.0146	-2.9021	-2.7729	-2.9604	-2.7542	-2.8208	-3.1375	-2.7875	-3.1292	-2.9896	-2.7792	-3.1979	-2.8	-2.6583	223.312	341.748	245.587	318.491	288.517	215.718	386.888	201.321	211.613	99.089	414.153	421.879	267.612	392.247	206.767	428.453	0.00022992	0.00018181	5.5972e-05	176.14	2.0147e-06	1.2269e-06	322.11	61.119	1.3508e-06	1.3605e-06	110.55	52.646	24.309	11.869	1.8293e-06	25.102	0.00018392	3.5688e-05	3.9625e-06	177.62	3.9944e-07	-1.1364e-08	325.63	61.925	3.0929e-07	2.7855e-07	112.12	53.559	24.8	12.174	5.5757e-07	25.66	226.045	177.295	178.593	100.853	258.061	265.171	99.536	106.148	250.731	224.359	102.865	108.607	110.590	114.449	242.535	111.449	-8191	255	
1579.525	1	1	0	0	0.1846	0.18085	0.17744	0.24496	0.24341	0.2579	0.14379	0.17638	0.13111	0.15053	0.14909	0.23735	0.055443	0.031708	0.079206	0.12101	-2.65	-2.775	-2.9396	-2.8354	-2.7375	-3.0667	-2.9938	-2.8208	-3.2396	-2.6583	-2.9604	-2.9958	-2.7208	-2.9958	-2.6708	-2.5958	277.597	244.873	154.591	392.326	176.324	157.156	434.980	348.641	279.728	180.316	289.876	407.862	184.938	144.857	130.889	431.635	0.00022896	0.00019117	5.8164e-05	177.7	1.8255e-06	1.3139e-06	326.59	61.243	1.464e-06	1.9252e-06	111.23	52.814	24.553	11.926	1.9828e-06	24.957	0.0001805	3.1054e-05	7.2799e-06	178.22	4.0318e-07	2.3864e-07	328.45	62.339	2.4729e-07	3.7993e-07	112.55	53.718	24.918	12.155	4.198e-07	25.608	227.274	181.441	173.197	100.415	262.109	230.446	99.833	106.356	270.503	240.077	103.100	108.661	110.197	114.788	245.571	111.687	-8191	255	
1579.621	1	1	0	0	0.15568	0.2596	0.22617	0.056599	0.25	0.15868	0.13732	0.22176	0.062266	0.27232	0.18019	0.088665	0.050697	0.26622	0.18012	0.18393	-2.7292	-2.8208	-3.0042	-3.0125	-2.4771	-3.1396	-3.1271	-2.8208	-3.1229	-2.7354	-3.0062	-2.9125	-2.4667	-3.0833	-2.8104	-2.6229	252.527	237.536	210.643	132.467	294.861	385.981	420.397	148.079	249.280	139.989	403.890	424.804	349.353	386.397	266.632	354.333	0.00023116	0.00010957	3.4836e-05	175.42	1.655e-06	2.1251e-06	325.84	61.744	1.3268e-06	1.7711e-06	110.65	52.284	24.287	11.819	2.038e-06	25.024	0.00017631	3.0404e-05	2.6263e-06	178.17	4.965e-07	1.411e-07	326.93	62.441	3.0641e-07	1.2317e-07	112.51	53.292	24.689	12.131	3.1606e-07	25.452	226.904	171.146	191.791	101.026	249.440	244.313	99.441	106.029	250.121	239.443	102.949	108.726	110.633	114.557	258.027	111.652	-8191	255	
1579.717	1	1	0	0	0.17197	0.058541	0.072651	0.037304	0.18778	0.055948	0.13116	0.14662	0.18816	0.14957	0.11476	0.13277	0.2154	0.11341	0.11719	0.15096	-2.6063	-2.6312	-2.8063	-3.0563	-2.4958	-2.8	-2.8958	-2.6292	-2.9771	-2.7583	-2.5687	-3.0354	-2.9208	-2.9	-2.9062	-2.5563	306.537	433.662	325.261	319.097	410.580	186.417	126.773	130.727	438.694	256.390	112.694	308.759	420.385	248.578	112.433	370.026	0.00023255	0.00016141	5.7249e-05	176.35	1.6936e-06	2.1017e-06	324.24	61.57	1.4704e-06	1.7697e-06	111.68	52.227	24.134	11.806	1.5634e-06	24.976	0.0001767	3.3493e-05	6.9113e-06	178.76	3.8227e-07	1.6762e-07	326.92	62.414	3.1145e-07	3.2497e-07	112.4	53.396	24.665	12.111	3.809e-07	25.506	225.871	185.607	173.485	100.602	256.357	235.519	99.899	106.054	265.206	239.220	102.415	108.473	110.407	114.501	240.031	111.594	-8191	255	
1579.813	1	1	0	0	0.14237	0.055415	0.145	0.34011	0.20771	0.20469	0.26125	0.0646	0.12794	0.18977	0.10753	0.14276	0.16269	0.29581	0.21018	0.19293	-2.6667	-2.7521	-2.7542	-3.0938	-2.8292	-2.9625	-3.0896	-2.5542	-2.9042	-2.575	-2.8375	-3.2042	-2.7687	-3.0208	-2.9396	-2.6021	284.787	132.012	402.112	90.127	447.465	212.657	146.511	114.152	337.819	103.525	256.207	256.486	362.905	415.511	145.894	319.494	0.00024557	0.0001314	6.2716e-05	177.86	2.2885e-06	1.1314e-06	324.94	61.365	1.3776e-06	1.8332e-06	110.91	52.395	24.565	11.825	2.1675e-06	25.076	0.00019182	2.1218e-05	1.0528e-05	178.82	4.7709e-07	-6.5343e-08	327.11	62.093	4.8376e-07	2.0844e-07	112.17	53.483	24.838	12.147	3.8414e-07	25.607	226.120	153.478	193.044	100.881	244.501	211.342	99.792	106.240	253.567	243.557	103.076	108.722	110.388	114.385	255.826	111.603	-8191	255	
1579.934	1	1	0	0	0.15341	0.072405	0.1414	0.11893	0.027841	0.24158	0.098925	0.20095	0.18068	0.012313	0.033944	0.057972	0.1376	0.1476	0.17387	0.2493	-2.6813	-3.0167	-2.5375	-2.9688	-2.7229	-3.0083	-3.0938	-2.5	-3.0187	-2.975	-2.8021	-3.2062	-2.8146	-2.5563	-3.2667	-2.8771	128.392	292.660	340.510	353.574	212.150	152.528	372.930	416.882	317.846	104.659	209.078	113.452	111.166	332.632	248.934	433.673	0.00023878	0.00020475	5.8516e-05	177.21	1.1917e-06	1.6464e-06	326.7	61.327	1.5508e-06	1.9434e-06	112.06	52.32	24.426	11.82	2.3675e-06	25.019	0.0001797	2.4957e-05	1.2509e-05	178.55	3.9422e-07	5.1138e-08	328.84	62.431	3.8932e-07	2.5581e-07	112.94	53.66	24.838	12.163	4.7734e-07	25.579	227.292	175.352	185.356	100.652	243.198	204.529	99.828	105.901	258.646	232.707	102.917	108.499	110.537	114.091	264.980	111.901	-8191	255	
1580.028	1	1	0	0	0.18361	0.19057	0.093037	0.18104	0.07981	0.22691	0.050038	0.22761	0.10004	0.4155	0.30053	0.23554	0.23031	0.05789	0.38654	0.26761	-2.3854	-2.8042	-2.6833	-3.1458	-2.8542	-2.6562	-3.1271	-2.8063	-2.8812	-2.95	-2.6542	-3.1229	-2.7604	-2.9229	-3.0021	-2.6458	386.845	413.702	236.614	151.335	109.957	184.874	430.665	405.879	227.251	184.085	392.554	160.695	420.155	416.532	319.140	313.730	0.00022212	0.00016781	4.4682e-05	177.4	1.472e-06	2.4009e-06	324.19	61.378	1.2291e-06	1.9815e-06	110.95	52.567	24.257	11.777	1.9881e-06	24.857	0.00017762	1.7153e-05	1.0067e-05	178.7	3.5315e-07	3.0872e-07	327.14	62.362	2.7108e-07	2.3876e-07	112.36	53.415	24.697	12.085	3.6307e-07	25.403	225.419	153.245	179.271	100.306	256.216	243.922	99.438	106.060	258.892	249.667	103.149	108.623	110.237	114.679	241.104	111.659	-8191	255	
1580.100	1	1	0	0	0.23014	0.15532	0.20349	0.29537	0.037048	0.145	0.20083	0.32383	0.2245	0.14557	0.2323	0.25928	0.27857	0.12418	0.18514	0.10201	-2.6958	-2.9313	-2.4396	-3.1958	-2.8292	-2.8917	-3.2104	-2.6583	-2.8271	-3.3125	-2.8104	-3.1937	-2.7833	-2.7812	-3.4313	-2.8042	341.496	98.871	164.198	225.111	402.124	109.447	284.807	256.684	263.619	181.011	427.057	442.917	162.708	427.327	436.781	405.992	0.00021811	0.00018309	5.2964e-05	176.03	1.963e-06	1.9583e-06	325.71	61.368	1.6316e-06	1.6779e-06	110.22	52.219	24.384	11.783	2.1199e-06	24.949	0.00017732	1.4145e-05	1.1726e-05	177.92	3.0238e-07	1.4016e-07	326.86	62.189	4.3546e-07	1.8475e-07	111.96	53.434	24.654	12.093	1.8883e-07	25.467	228.142	177.604	173.259	101.001	252.096	258.317	99.548	105.581	248.522	226.222	103.023	108.790	110.214	114.445	254.775	111.405	-8191	255	
1580.198	1	1	0	0	0.14964	0.18983	0.20934	0.091118	0.087584	0.20163	0.069799	0.23334	0.30027	0.13829	0.13748	0.24729	0.30596	0.17787	0.13966	0.06464	-2.4208	-3.0667	-2.6458	-3.0229	-2.9542	-2.5729	-3.2167	-2.7625	-2.9542	-3.2125	-2.6854	-2.9979	-2.9896	-2.6979	-3.0667	-2.9271	306.356	406.077	207.239	317.677	178.886	350.783	402.830	202.322	347.881	424.620	165.665	101.598	287.514	253.466	138.561	125.161	0.00023619	0.00021352	5.5218e-05	176.91	1.2848e-06	1.5294e-06	326.16	61.192	1.5023e-06	1.8238e-06	110.67	52.657	24.355	11.732	1.4013e-06	25.037	0.00018407	1.9429e-05	1.0505e-05	178.38	2.8148e-07	3.0588e-07	327.75	62.081	4.2464e-07	-1.4212e-08	112.58	53.612	24.717	12.09	2.7797e-07	25.575	226.947	148.463	182.173	100.197	260.584	234.734	99.635	106.153	252.446	234.411	102.894	108.661	110.827	114.962	238.932	111.569	-8191	255	
1580.317	1	1	0	0	0.21591	0.1604	0.036294	0.18876	0.12721	0.12744	0.089357	0.070654	0.041595	0.014546	0.18555	0.18988	0.13086	0.090023	0.11376	0.27774	-2.4958	-3.0271	-2.6854	-3.1646	-3.0458	-2.5521	-3.0604	-2.9062	-2.7208	-3.1021	-2.5875	-2.9479	-3.0667	-2.5458	-3.1479	-2.9625	407.468	91.910	305.504	94.951	304.768	398.268	326.333	165.041	339.332	338.285	213.037	222.807	397.888	342.371	137.121	399.708	0.00022501	0.00018281	5.1665e-05	176.44	1.6283e-06	2.0135e-06	325.34	61.297	1.4558e-06	1.9944e-06	110.46	52.882	24.417	11.834	2.2658e-06	24.851	0.00017697	2.0974e-05	1.1542e-05	178.29	2.1577e-07	3.9111e-07	327.35	62.221	4.6069e-07	5.1162e-08	112.74	53.895	24.752	12.125	2.6906e-07	25.519	228.033	186.750	168.885	100.522	243.829	231.056	99.838	106.163	276.868	235.049	102.798	108.873	110.486	114.713	256.365	111.808	-8191	255	
1580.413	1	1	0	0	0.17764	0.27429	0.34838	0.1008	0.13245	0.26729	0.13839	0.14093	0.13159	0.14579	0.36742	0.30128	0.2167	0.26205	0.15275	0.16888	-2.1479	-2.9292	-2.8146	-2.9104	-2.9021	-2.8667	-3.1521	-2.8375	-2.5	-3.225	-2.8958	-2.7083	-3.1125	-2.6646	-3.0604	-3.0542	204.149	347.514	415.917	412.825	257.408	336.363	158.269	210.739	408.562	237.593	109.638	177.257	381.117	124.572	191.273	345.587	0.00022376	0.00012373	5.0821e-05	175.49	1.5197e-06	1.816e-06	324.16	60.972	1.8289e-06	1.7654e-06	111.28	52.545	24.412	11.779	1.6072e-06	24.859	0.0001792	1.1056e-05	5.2526e-06	177.55	3.4046e-07	2.7463e-07	326.14	62.151	5.1044e-07	-2.0844e-08	112.13	53.478	24.7	12.094	3.2336e-07	25.456	225.987	174.404	162.255	100.450	262.667	224.178	99.864	106.219	259.262	221.459	102.890	108.550	110.470	114.814	241.962	111.232	-8191	255	
1580.509	1	1	0	0	0.19436	0.062887	0.055761	0.1031	0.082892	0.17315	0.19343	0.1002	0.1361	0.24909	0.22839	0.11878	0.10086	0.13379	0.11905	0.19676	-2.25	-3.0854	-2.8146	-2.7396	-3.1167	-2.6625	-3.1146	-2.9479	-2.6354	-3.1458	-2.7208	-2.7896	-3.225	-2.6167	-3.1417	-2.8979	430.806	241.829	270.983	238.444	371.235	400.556	264.908	290.644	236.021	286.834	112.161	334.184	395.967	186.800	382.817	92.779	0.00022268	0.00021361	5.9487e-05	177.29	1.6813e-06	1.9385e-06	323.02	61.001	9.8409e-07	1.1406e-06	111.2	52.453	24.299	11.796	1.7519e-06	24.93	0.00018243	1.8291e-05	8.9155e-06	178.29	2.0681e-07	2.7273e-07	326.6	62.158	4.7078e-07	-1.5538e-07	112.19	53.458	24.646	12.04	4.4573e-07	25.465	225.909	166.532	178.116	100.521	260.038	227.520	99.625	105.976	240.522	248.053	102.825	108.489	110.427	114.646	252.337	111.682	-8191	255	
1580.605	1	1	0	0	0.12643	0.096306	0.11308	0.14587	0.11895	0.11271	0.087058	0.30172	0.11996	0.24565	0.11687	0.16263	0.11492	0.17261	0.076861	0.020657	-2.1333	-3.1396	-2.9437	-2.8833	-3.0042	-2.8667	-3.1375	-3.2583	-2.55	-3.1833	-3.0667	-2.8271	-3.1875	-2.7917	-2.9771	-3.2354	308.711	281.071	421.219	90.462	340.843	438.212	259.848	258.319	274.742	125.751	205.013	225.094	172.723	260.124	434.551	260.988	0.00021089	0.00019352	5.2814e-05	176.13	1.5431e-06	1.7976e-06	326.56	61.189	1.2381e-06	1.9676e-06	111.9	52.438	24.417	11.834	1.7338e-06	24.749	0.00017637	4.2273e-06	3.663e-06	177.65	2.1577e-07	2.6421e-07	327.7	62.28	5.6811e-07	3.6003e-08	112.49	53.419	24.745	12.089	4.2547e-07	25.496	225.934	171.396	173.993	100.445	275.319	230.866	99.322	105.961	256.892	242.697	102.847	108.567	110.630	114.383	252.267	111.606	-8191	255	
1580.701	1	1	0	0	0.079227	0.065072	0.24442	0.24733	0.2739	0.14586	0.076605	0.14097	0.28615	0.17608	0.099507	0.16326	0.15388	0.10088	0.15753	0.087078	-2.2146	-2.9896	-2.8625	-2.7021	-3.0771	-2.95	-2.9417	-2.9708	-2.5417	-3.0604	-3.1771	-2.8229	-3.1063	-2.9979	-2.7542	-2.9813	170.755	176.348	424.538	113.581	169.217	202.195	345.547	294.834	370.056	177.430	95.953	435.547	349.967	186.196	437.784	296.898	0.00023073	0.00020572	4.996e-05	177.15	1.887e-06	1.6585e-06	326.16	61.44	1.4754e-06	2.1081e-06	111.12	52.674	24.395	11.82	2.2725e-06	25.033	0.00018939	3.6908e-05	6.4044e-06	178.52	2.2772e-07	2.6421e-07	328.14	62.259	5.6307e-07	1.3643e-07	112.67	53.807	24.761	12.101	6.1592e-07	25.56	228.423	166.569	178.628	100.248	239.429	235.144	99.675	106.223	261.448	235.727	102.774	108.717	110.355	114.354	241.232	111.821	-8191	255	
1580.797	1	1	0	0	0.2584	0.20747	0.15715	0.12131	0.12282	0.067118	0.15956	0.095936	0.11831	0.076176	0.11306	0.18149	0.10784	0.056957	0.10036	0.093037	-2.4792	-3.0708	-2.9458	-2.6771	-3.2854	-2.7812	-2.7375	-3.0563	-2.4938	-3.0125	-3.1417	-2.7604	-3.1542	-2.8458	-2.8667	-3.2854	376.479	399.839	202.852	101.563	379.365	296.259	340.981	292.020	211.254	213.793	395.090	202.874	107.960	214.532	102.048	412.605	0.00021578	0.00017692	4.4562e-05	176.69	1.6625e-06	1.3653e-06	324.85	61.313	1.6146e-06	2.0134e-06	111.02	52.61	24.232	11.764	2.2468e-06	24.806	0.00018214	8.6985e-06	6.75e-06	178.47	1.5007e-07	1.0038e-07	328.33	62.277	4.5925e-07	3.335e-07	112.25	53.458	24.634	12.054	6.1835e-07	25.412	225.863	162.705	175.401	100.280	246.202	229.787	99.699	106.013	263.807	226.404	102.914	108.588	110.464	114.345	254.638	111.757	-8191	255	
1580.918	1	1	0	0	0.26398	0.14653	0.059132	0.10389	0.044031	0.14694	0.14861	0.050068	0.18157	0.02562	0.18599	0.13596	0.10631	0.08532	0.19864	0.25168	-2.2167	-2.9833	-3.1729	-2.6625	-2.9188	-2.9354	-2.7313	-3.0833	-2.7396	-3.075	-3.1771	-2.5979	-3.2833	-3.0771	-2.7812	-3.0833	225.368	92.046	269.274	299.089	266.416	287.838	151.913	183.905	242.951	387.560	101.228	147.277	241.264	305.797	91.816	320.013	0.00022796	0.00017161	5.0991e-05	176.61	1.4867e-06	1.7317e-06	327.43	61.554	1.5567e-06	1.5155e-06	110.53	52.54	24.233	11.798	1.6824e-06	24.928	0.00018208	3.1786e-05	5.3217e-06	177.7	3.5166e-07	1.2784e-07	327.97	62.341	4.0229e-07	1.2127e-07	112.21	53.469	24.704	12.078	4.6194e-07	25.532	227.076	170.850	180.525	100.690	245.470	223.468	99.687	106.358	263.761	235.212	102.912	108.765	110.538	114.648	243.658	111.490	-8191	255	
1581.014	1	1	0	0	0.15675	0.018959	0.24888	0.11706	0.19367	0.29131	0.06206	0.003906	0.23227	0.086199	0.11023	0.13201	0.14052	0.095781	0.12737	0.10799	-2.3937	-2.7375	-3.1021	-2.75	-2.9104	-3.1167	-2.6312	-3.0625	-2.9437	-3.0187	-3.1854	-2.6	-2.7792	-2.9667	-2.7438	-3.2771	259.977	102.401	359.683	217.116	187.504	249.175	401.807	186.214	89.723	349.976	317.428	435.109	232.889	200.659	354.594	349.333	0.00022323	0.00014215	7.3077e-05	178.28	2.2723e-06	1.6834e-06	324.24	61.445	1.4966e-06	1.5307e-06	111.58	52.615	24.565	11.872	1.9216e-06	25.269	0.00018059	3.0648e-05	5.8515e-06	178.95	3.0537e-07	1.0038e-07	328.16	62.453	4.8232e-07	3.136e-07	112.66	53.622	24.86	12.177	4.8625e-07	25.732	228.264	176.039	175.224	100.555	245.719	228.904	99.670	105.869	261.562	238.781	102.824	108.749	110.886	114.816	267.792	111.335	-8191	255	
1581.108	1	1	0	0	0.13622	0.15308	0.18273	0.31524	0.17626	0.16548	0.15782	0.21518	0.13801	0.20899	0.17015	0.19893	0.14804	0.093555	0.12337	0.13151	-2.2854	-2.7833	-3.2292	-2.7479	-2.9771	-3.0833	-2.6333	-3.1542	-3.1312	-2.8229	-3.1021	-2.8396	-2.75	-3.0687	-2.7083	-2.95	252.331	299.730	396.469	371.106	154.469	213.657	397.467	359.657	424.951	297.529	274.078	339.781	354.800	286.643	205.227	106.466	0.00021843	0.00015492	5.2053e-05	177.64	1.222e-06	2.0714e-06	327.57	61.557	1.1181e-06	1.9403e-06	111.4	52.68	24.416	11.84	2.3841e-06	25.252	0.00017091	2.5039e-05	-1.5205e-06	178.91	2.6878e-07	4.3562e-08	330.13	62.706	3.4822e-07	1.9138e-07	113	54.019	24.798	12.184	6.7589e-07	25.856	228.361	163.819	186.896	100.336	249.073	252.121	99.889	105.925	268.237	227.535	103.013	108.614	110.562	114.387	274.303	111.703	-8191	255	
1581.205	1	1	0	0	0.26131	0.11343	0.25734	0.30689	0.069856	0.077164	0.055536	0.15958	0.072459	0.15364	0.17711	0.13793	0.18348	0.088263	0.22283	0.13822	-2.4021	-2.7021	-3.0312	-2.7521	-2.9354	-2.9646	-2.5938	-2.8312	-2.9313	-2.8625	-3.0854	-2.7583	-2.875	-3.0917	-2.5917	-3.0563	358.771	415.563	288.828	427.442	128.688	108.973	435.524	247.144	102.546	346.164	112.525	429.115	134.734	315.870	120.166	356.502	0.00023196	0.0001987	5.0157e-05	177.37	2.0413e-06	2.1347e-06	325.93	61.87	1.2217e-06	2.3228e-06	110.2	52.726	24.332	11.8	2.0381e-06	25.136	0.00018428	3.6013e-05	1.4514e-06	178.81	2.9342e-07	1.5625e-07	328.97	62.569	3.785e-07	2.1602e-07	112.07	53.617	24.683	12.116	5.8999e-07	25.595	224.641	170.604	161.780	100.570	241.276	236.151	99.480	106.090	267.180	224.748	102.943	108.359	110.314	114.712	263.409	111.424	-8191	255	
1581.325	1	1	0	0	0.20002	0.11103	0.1593	0.15363	0.08937	0.24712	0.070697	0.3604	0.17076	0.3136	0.21595	0.078843	0.17291	0.075011	0.10768	0.073252	-2.6771	-2.5375	-3.2188	-2.8292	-2.7167	-3.2125	-2.5667	-2.9625	-3.2521	-2.6	-3.1146	-2.9938	-2.7542	-3.3146	-2.7646	-3.2146	173.711	167.039	130.088	248.406	219.513	157.414	296.822	319.793	431.812	247.493	423.403	163.284	384.691	402.369	120.219	420.540	0.00021815	0.00013216	4.9506e-05	179.15	1.6711e-06	2.1493e-06	326.58	61.218	1.2105e-06	1.7018e-06	110.6	52.394	24.188	11.796	2.0538e-06	24.93	0.00017361	3.8859e-05	2.6954e-06	178.6	4.084e-07	4.6403e-08	327.47	62.285	2.5089e-07	2.5013e-07	111.82	53.408	24.643	12.102	5.446e-07	25.538	227.391	186.852	178.867	100.715	245.853	243.017	99.772	105.843	244.239	229.081	103.223	108.482	110.530	114.359	262.645	111.711	-8191	255	
1581.397	1	1	0	0	0.22193	0.14014	0.032087	0.29079	0.30045	0.051061	0.14845	0.15422	0.078867	0.26367	0.14467	0.021601	0.18488	0.28196	0.16953	0.19965	-2.7021	-2.5583	-2.95	-3.075	-2.8187	-3.1646	-2.8021	-3.0396	-2.8792	-2.7396	-3.1979	-2.8688	-2.7438	-3.3417	-2.5979	-3.0875	306.506	139.263	262.337	290.178	350.946	120.842	136.744	312.344	156.218	325.175	345.253	176.803	444.915	288.195	280.114	367.588	0.00022995	0.00017446	6.5378e-05	176.16	1.9478e-06	1.402e-06	324.17	61.325	1.2122e-06	2.6038e-06	110.88	52.486	24.275	11.809	2.3491e-06	25.137	0.00018353	3.8615e-05	5.7594e-06	177.79	5.3234e-07	8.6177e-08	327.99	62.157	1.9682e-07	3.6571e-07	112.05	53.464	24.627	12.101	5.5595e-07	25.688	225.118	158.535	182.373	100.574	234.436	231.031	99.640	105.911	262.848	246.973	103.243	108.770	110.231	114.831	265.290	111.150	-8191	255	
1581.493	1	1	0	0	0.10201	0.27917	0.02633	0.28641	0.18712	0.068112	0.10817	0.10916	0.2724	0.038135	0.1598	0.31179	0.29575	0.21873	0.098056	0.10595	-2.8521	-2.7021	-3.125	-2.9625	-2.7208	-3.2854	-3.0125	-2.7438	-3.1771	-3.0104	-3.0354	-3.0833	-2.7396	-3.0958	-2.7667	-2.8792	378.126	148.582	156.135	288.637	98.943	382.589	125.063	118.170	302.948	273.576	413.879	327.616	362.925	392.411	199.987	364.230	0.00022949	0.0001938	4.7436e-05	177.06	1.6845e-06	2.0673e-06	328.1	61.272	1.1064e-06	1.6208e-06	110.71	52.22	24.144	11.729	2.2482e-06	25.201	0.00018288	3.0729e-05	3.1792e-06	178.29	4.5171e-07	-9.6594e-08	329.35	62.187	1.6654e-07	1.3833e-07	112.22	53.704	24.661	12.106	5.1543e-07	25.799	227.801	183.383	168.295	100.349	261.311	243.674	99.853	106.333	246.529	235.992	102.653	108.359	110.537	114.709	269.589	111.639	-8191	255	
1581.614	1	1	0	0	0.06909	0.36032	0.12079	0.085929	0.20543	0.082319	0.16642	0.28855	0.17782	0.0051617	0.18615	0.11097	0.0992	0.066404	0.061018	0.11886	-2.8354	-2.4437	-2.9167	-3.0521	-2.6021	-2.9729	-2.75	-2.925	-3.2125	-2.9146	-2.9417	-3.0104	-2.7208	-2.8292	-3.2062	-2.7146	348.097	312.770	282.131	147.391	148.486	221.916	343.707	229.948	369.994	192.445	206.990	269.787	422.534	197.085	288.201	90.953	0.00023265	0.00015975	4.2448e-05	177.56	1.954e-06	2.2381e-06	327.57	61.188	1.8809e-06	1.7786e-06	111.31	52.937	24.31	11.708	1.6354e-06	24.892	0.00017703	3.3737e-05	7.4872e-06	178.49	3.6286e-07	1.8656e-07	328.9	62.23	3.6841e-07	2.0181e-07	112.13	53.64	24.691	12.068	2.8284e-07	25.586	227.049	183.877	188.407	100.234	255.861	219.732	100.379	106.097	269.355	228.847	102.797	108.285	110.507	114.251	244.702	111.457	-8191	255	
1581.710	1	1	0	0	0.16532	0.10221	0.26011	0.092347	0.19656	0.30824	0.12942	0.12578	0.024928	0.32083	0.093539	0.12665	0.16708	0.21293	0.0108	0.39668	-2.9896	-2.7146	-2.65	-3.1771	-2.7167	-2.9479	-2.9458	-2.7167	-3.2021	-3.0208	-2.8521	-3.1583	-2.7708	-2.8917	-3.1063	-2.4167	437.562	140.779	304.542	404.848	178.004	181.341	115.896	173.545	233.713	273.791	102.111	395.485	315.193	245.621	346.718	384.499	0.00023469	0.0001808	5.5472e-05	176.01	1.6988e-06	2.1997e-06	326.57	61.152	1.2135e-06	2.146e-06	109.94	52.414	24.226	11.867	2.203e-06	25.016	0.00017997	3.5282e-05	1.0067e-05	177.82	3.8376e-07	7.576e-09	328.02	62.132	2.5017e-07	1.9802e-07	111.66	53.422	24.574	12.09	3.1849e-07	25.606	225.382	168.002	172.930	100.839	253.111	242.296	99.537	106.067	252.923	250.576	102.864	108.828	110.643	113.980	248.953	111.530	-8191	255	
1581.806	1	1	0	0	0.081931	0.26638	0.068612	0.30544	0.10967	0.12233	0.057512	0.34596	0.18097	0.25623	0.24847	0.12862	0.13226	0.24024	0.05131	0.11097	-2.6917	-2.7479	-2.8146	-3.3438	-2.6688	-2.9792	-2.9896	-2.7229	-3.0938	-2.8417	-2.7562	-3.0333	-2.7854	-2.8438	-2.8625	-2.7646	418.229	210.391	424.740	216.297	220.355	158.672	186.938	408.597	273.531	107.903	176.699	389.760	345.272	401.507	258.052	89.192	0.0002293	0.00011865	7.2056e-05	176.59	1.6485e-06	1.5111e-06	325.47	61.472	1.359e-06	1.4143e-06	110.42	52.538	24.26	11.861	1.2472e-06	25.167	0.00018249	2.2112e-05	1.0113e-05	178.02	3.1731e-07	1.6951e-07	328.67	62.279	3.0641e-07	1.9423e-07	111.65	53.598	24.6	12.12	2.8527e-07	25.629	226.494	163.110	173.244	100.704	229.561	218.762	99.527	106.039	261.759	253.696	103.495	108.518	110.804	114.654	250.779	111.702	-8191	255	
1581.900	1	1	0	0	0.28807	0.094695	0.29342	0.045153	0.18364	0.19683	0.2429	0.15268	0.052391	0.1457	0.25339	0.14153	0.093006	0.25495	0.12737	0.30317	-2.6312	-2.7708	-2.5229	-3.0917	-2.8875	-2.7708	-3.1562	-2.75	-2.8771	-3.0792	-2.8125	-3.1	-2.7104	-2.8187	-3.1917	-2.6021	197.711	287.347	307.002	134.527	355.557	199.533	405.977	94.467	119.395	390.673	404.241	373.316	127.820	336.775	239.216	420.073	0.00022114	0.00017722	6.2586e-05	177.95	1.891e-06	1.9725e-06	327.6	61.511	1.3904e-06	1.9842e-06	110.35	52.505	24.274	11.909	1.5446e-06	25.11	0.00017599	2.8778e-05	8.2935e-06	178.89	4.5395e-07	2.5664e-07	329.67	62.299	3.0208e-07	3.1834e-07	112.12	53.668	24.672	12.132	3.736e-07	25.734	225.237	169.446	173.303	100.540	245.084	249.215	99.541	105.860	262.588	219.819	103.094	108.902	110.516	114.657	247.455	111.667	-8191	255	
1581.998	1	1	0	0	0.2066	0.24535	0.033362	0.44294	0.16026	0.043829	0.1695	0.13853	0.11081	0.13485	0.19384	0.072154	0.15528	0.16337	0.23362	0.15237	-2.4813	-2.8812	-2.7271	-3.0771	-2.7271	-3.0354	-3.1417	-2.5708	-3.2646	-3.1229	-2.4	-3.1229	-2.9437	-2.4375	-3.2896	-2.7792	391.298	315.346	365.525	201.186	294.485	280.072	205.431	403.269	341.777	120.760	97.368	238.959	180.431	430.936	374.446	214.264	0.00022726	0.0002406	4.0812e-05	178.28	1.6975e-06	1.7276e-06	328.45	61.811	1.626e-06	1.8081e-06	111.02	52.43	24.19	11.815	2.2854e-06	24.882	0.00017727	3.2193e-05	8.4548e-06	178.97	2.8446e-07	1.3826e-07	330.43	62.522	2.8045e-07	1.6107e-07	112.09	53.563	24.581	12.085	3.4443e-07	25.515	229.045	156.358	162.689	100.478	233.797	242.018	99.497	105.821	254.676	224.622	102.954	108.235	110.318	114.550	249.625	111.360	-8191	255	
1582.093	1	1	0	0	0.30726	0.11172	0.1753	0.26683	0.18493	0.084767	0.3148	0.052333	0.068149	0.095609	0.1269	0.1581	0.30573	0.13487	0.15584	0.25449	-2.425	-3.1625	-2.6458	-2.8438	-3.0479	-2.6896	-3.0958	-2.6312	-2.7771	-2.9667	-2.7125	-3.1896	-2.9062	-2.7854	-3.2229	-2.7854	279.342	440.707	361.890	328.684	269.962	214.486	89.410	222.751	239.766	376.195	113.435	432.383	407.740	295.112	336.047	326.724	0.0002257	0.00020779	4.4273e-05	177.52	1.4486e-06	1.7361e-06	324.28	61.264	1.3326e-06	2.3277e-06	109.89	52.439	24.237	11.753	1.783e-06	24.877	0.00018205	1.9836e-05	9.7679e-06	178.69	2.4937e-07	1.3731e-07	327.89	62.068	2.8406e-07	1.5064e-07	111.71	53.394	24.544	12.046	2.642e-07	25.423	225.722	176.176	159.116	100.825	245.946	248.832	99.632	106.228	268.078	240.618	102.849	108.615	110.156	114.330	251.197	111.491	-8191	255	
1582.189	1	1	0	0	0.050412	0.1358	0.0433	0.091862	0.046245	0.2209	0.3702	0.13237	0.26097	0.17898	0.1537	0.10257	0.058334	0.18916	0.056514	0.23516	-2.5271	-2.9604	-2.4854	-3.1688	-3.0854	-2.7542	-3.0687	-2.7625	-2.8646	-3.1271	-2.5812	-3.1	-3.1021	-2.6354	-3.0792	-2.9521	257.389	90.662	313.515	428.680	370.057	235.543	354.960	284.638	142.575	434.845	144.113	276.672	188.000	119.707	218.608	337.918	0.00023046	0.00019709	4.7378e-05	177.69	1.1241e-06	1.5321e-06	326.1	61.275	1.552e-06	1.8813e-06	109.89	52.54	24.175	11.743	1.3989e-06	25.086	0.00018035	6.8287e-06	1.2026e-05	178.29	1.553e-07	2.1402e-07	329.57	62.31	3.7922e-07	-1.0327e-07	111.77	53.438	24.568	12.051	2.2368e-07	25.569	226.816	176.903	189.352	100.908	265.641	241.086	99.708	105.981	250.759	251.884	103.283	108.323	110.583	114.519	238.868	111.672	-8191	255	
1582.285	1	1	0	0	0.069341	0.060105	0.27934	0.21263	0.10884	0.22397	0.19204	0.12723	0.22845	0.059453	0.17812	0.15795	0.17376	0.13534	0.088349	0.17443	-2.1917	-2.9167	-2.6583	-2.8833	-2.9271	-2.6708	-3.075	-2.8563	-2.8271	-3.1312	-2.8667	-2.975	-2.9813	-2.9083	-3.1771	-2.8771	328.723	160.992	258.442	444.997	257.127	312.681	414.796	162.312	241.080	409.966	353.361	376.451	347.265	313.896	273.390	298.501	0.00022524	0.0001147	3.621e-05	175.84	1.9326e-06	1.9369e-06	327.4	61.43	1.3818e-06	2.1917e-06	111.08	52.756	24.248	11.816	2.1721e-06	25.102	0.00018356	1.7966e-05	8.7773e-06	178.49	3.1657e-07	2.0739e-07	330.02	62.248	3.9004e-07	3.7898e-08	112.37	53.707	24.627	12.113	2.7068e-07	25.672	227.945	180.912	167.131	100.384	251.509	230.198	99.960	106.155	263.772	222.746	103.012	108.666	110.492	114.544	263.878	111.813	-8191	255	
1582.406	1	1	0	0	0.35996	0.26164	0.33469	0.39967	0.09116	0.16308	0.3581	0.18952	0.14547	0.31813	0.20408	0.014763	0.02655	0.24275	0.082943	0.078084	-2.2979	-3.1729	-2.7208	-3.0521	-3.1354	-2.6042	-3.1312	-2.8688	-2.5229	-3.3271	-2.8354	-2.8083	-3.1646	-2.6583	-3.1604	-3.1083	112.004	254.966	440.861	314.787	239.117	223.867	369.611	141.499	282.330	404.313	416.115	380.334	195.506	339.129	367.689	398.172	0.00022613	0.00021122	4.748e-05	176.53	1.9277e-06	2.0864e-06	329.43	61.162	1.1045e-06	1.4565e-06	110.5	52.302	24.297	11.692	2.1631e-06	25.033	0.00018172	1.2926e-05	9.6988e-06	178.56	2.1129e-07	2.6421e-07	330.79	62.481	4.3978e-07	-9.4745e-08	112.44	53.536	24.663	12.048	2.8932e-07	25.605	229.057	179.602	188.176	100.390	264.856	215.158	99.598	105.920	266.265	236.459	102.486	108.247	110.183	114.509	248.390	111.479	-8191	255	
1582.502	1	1	0	0	0.06485	0.053457	0.19983	0.13238	0.31284	0.15918	0.13105	0.34686	0.28151	0.29515	0.19026	0.13386	0.261	0.20877	0.086733	0.055816	-2.025	-3.0792	-2.8563	-2.8312	-2.9521	-2.9437	-3.1917	-3.0187	-2.7208	-3.1646	-2.8458	-2.8417	-3.0646	-2.9	-3.0812	-3.0208	394.895	315.692	136.054	440.967	231.282	433.589	194.045	379.865	322.251	95.152	113.324	406.668	336.907	113.732	440.213	151.107	0.00022202	0.00014045	3.7284e-05	176.71	1.7991e-06	1.4556e-06	326.9	61.882	1.047e-06	1.747e-06	110.69	52.38	24.15	11.641	1.9831e-06	24.796	0.00018237	7.3978e-06	7.4411e-06	177.75	3.5241e-07	1.4773e-07	328.37	62.414	4.9386e-07	-1.2885e-07	111.81	53.251	24.519	12.003	4.0197e-07	25.444	225.683	189.340	157.452	100.571	253.617	237.305	99.545	105.923	259.929	246.065	102.902	108.841	110.498	114.655	240.505	111.641	-8191	255	
1582.598	1	1	0	0	0.19158	0.173	0.099661	0.078063	0.15365	0.3243	0.26234	0.16809	0.08504	0.1991	0.18372	0.33593	0.14569	0.13823	0.22353	0.24305	-2.2479	-2.9771	-2.7521	-2.8729	-3.1396	-2.6312	-2.9625	-3.0792	-2.7208	-3.1979	-2.9896	-2.7979	-3.2833	-2.8458	-3.0375	-3.1083	343.028	117.839	205.586	310.063	96.392	143.161	423.441	111.681	196.919	182.542	302.985	395.370	226.719	166.249	341.338	378.176	0.00023049	0.00016969	6.1396e-05	178.07	2.1035e-06	1.9178e-06	329.18	61.734	1.0565e-06	1.5461e-06	110.34	52.687	24.33	11.76	2.4216e-06	25.032	0.00018407	-2.4388e-07	9.5145e-06	178.1	2.0607e-07	3.3334e-07	330.01	62.41	5.847e-07	9.285e-08	112.1	53.734	24.613	12.058	3.3713e-07	25.567	229.017	171.741	163.034	101.179	249.125	227.100	99.786	105.773	268.410	259.273	102.978	108.514	109.998	114.882	249.145	111.411	-8191	255	
1582.694	1	1	0	0	0.14836	0.22293	0.21084	0.15162	0.21158	0.41012	0.16867	0.044286	0.15774	0.15407	0.1693	0.32674	0.2252	0.13429	0.33881	0.062255	-2.2146	-3.1063	-2.8333	-2.5333	-3.0979	-2.9167	-2.7354	-3.1083	-2.6479	-3.1312	-3.0521	-2.7521	-3.2417	-2.7729	-2.75	-3.1542	327.158	121.517	210.148	279.382	274.840	402.174	135.312	195.794	109.142	87.663	394.514	167.013	161.117	103.449	314.492	400.971	0.00023647	0.00023569	6.5575e-05	177.79	1.5133e-06	1.5544e-06	328.95	61.795	1.5825e-06	1.9965e-06	111.33	52.716	24.177	11.781	2.0593e-06	25.005	0.00019473	2.1462e-05	4.7918e-06	178.92	2.2623e-07	1.733e-07	331.02	62.453	5.0323e-07	9.3797e-08	112.91	53.886	24.652	12.062	6.3942e-07	25.728	227.135	167.654	160.563	100.653	244.165	245.463	99.623	105.586	262.829	238.870	102.818	108.857	110.507	114.838	263.161	111.734	-8191	255	
1582.790	1	1	0	0	0.072783	0.11095	0.11149	0.23045	0.11092	0.28253	0.083324	0.091951	0.089403	0.21237	0.087743	0.16273	0.07118	0.16983	0.27635	0.21985	-2.3875	-2.9625	-3.1917	-2.5479	-3.0563	-2.9854	-2.7708	-3.0896	-2.8646	-3.1229	-2.9708	-2.7313	-3.1125	-2.8833	-2.9729	-3.4042	102.401	302.962	180.689	89.510	326.179	253.043	298.091	386.301	107.473	333.404	159.861	318.859	415.551	244.652	374.728	348.429	0.00022943	0.00016856	6.1584e-05	176.36	1.9223e-06	2.4744e-06	328.46	61.279	1.2397e-06	1.6492e-06	110.86	52.799	24.538	11.812	1.7096e-06	24.956	0.00018442	2.512e-05	3.3865e-06	178.04	2.8446e-07	1.4678e-07	331.22	62.439	4.3906e-07	1.8096e-07	112.75	53.855	24.747	12.087	4.7085e-07	25.607	224.105	171.550	182.356	100.669	248.988	230.197	99.515	105.585	260.498	240.326	103.054	108.776	109.820	114.427	251.833	111.513	-8191	255	
1582.886	1	1	0	0	0.039	0.033395	0.14781	0.35577	0.25929	0.23542	0.0062818	0.079617	0.20062	0.22753	0.19224	0.22671	0.12017	0.11316	0.11015	0.22777	-2.4292	-2.9458	-3.1146	-2.5542	-3.0062	-2.8729	-2.5812	-3.225	-2.8458	-2.7979	-3.1208	-2.8042	-2.9854	-3.0271	-2.5854	-2.9854	385.935	110.298	189.861	388.105	122.170	366.202	218.486	396.923	184.885	234.110	170.855	297.125	129.327	331.847	434.547	106.268	0.00023543	0.00023479	5.181e-05	174.99	1.955e-06	1.932e-06	328.93	61.905	1.231e-06	2.1076e-06	110.61	52.351	24.32	11.735	2.0735e-06	25.037	0.00019022	2.3006e-05	3.663e-06	177.91	3.5017e-07	1.5625e-07	330.51	62.463	3.9148e-07	2.6813e-07	112.15	53.53	24.576	12.052	5.6162e-07	25.586	225.727	161.245	183.459	100.228	249.827	242.289	99.665	105.562	270.891	239.695	103.133	108.540	110.284	114.693	242.375	111.496	-8191	255	
1583.005	1	1	0	0	0.1641	0.18826	0.1064	0.083198	0.27131	0.084904	0.11445	0.061325	0.34208	0.1655	0.073275	0.34347	0.20108	0.14902	0.16462	0.22854	-2.6208	-2.8812	-3.0812	-2.675	-2.8771	-3.0687	-2.6	-3.1937	-2.9229	-2.7458	-3.4021	-2.6521	-2.7958	-2.8104	-2.7708	-3.1042	131.287	234.875	183.975	154.047	304.059	388.784	200.862	215.141	148.455	229.561	428.656	443.557	358.884	119.718	98.019	278.304	0.00021605	0.00019692	4.8764e-05	176.14	1.9327e-06	2.1528e-06	329.76	61.077	1.5638e-06	1.4424e-06	111.65	52.509	24.26	11.739	1.789e-06	25.178	0.00017578	2.3819e-05	4.4923e-06	178.26	2.546e-07	6.7237e-08	330.52	62.383	4.2248e-07	1.6012e-07	112.57	53.761	24.664	12.033	5.519e-07	25.631	228.816	160.767	175.194	100.383	260.618	234.194	99.899	106.098	257.108	249.649	102.782	108.582	110.393	114.159	258.587	111.626	-8191	255	
1583.101	1	1	0	0	0.26998	0.17429	0.14753	0.15977	0.18747	0.059919	0.16268	0.37274	0.26006	0.1203	0.23825	0.045975	0.30564	0.088131	0.069347	0.1153	-2.4604	-2.7458	-3.0938	-2.55	-2.9875	-3.0875	-2.4667	-3.1562	-2.9979	-2.7125	-2.975	-2.9167	-2.85	-3.0542	-2.6063	-3.2396	384.664	222.874	105.392	209.763	217.024	428.644	369.917	100.776	137.330	222.569	194.487	281.957	168.628	264.266	426.054	365.862	0.00022866	0.00018935	6.4875e-05	177.08	1.6728e-06	1.9353e-06	327.85	61.291	1.694e-06	1.9199e-06	111.66	52.991	23.982	11.731	1.4775e-06	25.257	0.00018413	2.9835e-05	3.2713e-06	178.13	2.6356e-07	-4.735e-08	329.95	62.403	3.2227e-07	2.7192e-07	112.37	53.948	24.587	12.086	5.1381e-07	25.76	226.589	178.349	172.209	100.472	257.397	226.590	99.927	105.855	254.976	237.518	103.087	108.797	110.183	114.340	250.959	111.629	-8191	255	
1583.198	1	1	0	0	0.19356	0.1024	0.16662	0.1752	0.24866	0.13404	0.15903	0.19335	0.14883	0.15324	0.23596	0.087182	0.12044	0.026587	0.036274	0.051322	-2.4083	-2.6167	-3.2354	-2.6208	-2.6562	-3.1521	-2.8354	-2.9437	-2.6937	-2.7229	-3.1708	-2.8208	-2.8917	-3.1729	-2.6896	-2.8292	304.986	352.855	332.600	347.703	288.243	384.179	200.469	343.745	442.540	200.656	386.920	350.870	321.129	224.550	144.745	354.859	0.00023659	0.00017532	5.6234e-05	176.93	1.643e-06	2.3604e-06	328.66	61.48	1.4568e-06	2.0022e-06	110.62	52.605	24.32	11.83	1.5347e-06	25.047	0.00018353	4.1785e-05	1.7048e-06	178.23	3.0388e-07	7.6707e-08	331.73	62.488	4.0013e-07	1.9138e-07	112.26	53.808	24.652	12.086	4.8625e-07	25.611	226.246	166.316	171.576	100.377	253.003	248.259	99.612	105.753	267.127	228.593	102.883	108.514	110.300	114.176	251.482	111.429	-8191	255	
1583.269	1	1	0	0	0.14999	0.15758	0.23663	0.14197	0.11002	0.24593	0.22534	0.1543	0.21438	0.15877	0.24107	0.028	0.20622	0.20254	0.13151	0.18021	-2.4458	-2.7875	-3.1063	-2.7292	-2.8021	-3.2375	-2.6896	-2.9688	-3.1083	-2.6208	-2.8729	-2.7167	-2.9417	-3.2354	-2.6875	-2.9417	160.681	240.395	216.567	332.134	185.884	168.102	89.699	407.341	117.347	312.177	260.867	303.358	303.549	325.971	307.153	437.211	0.00022529	0.00020844	7.7987e-05	176.86	2.0592e-06	1.9316e-06	326.53	61.263	1.3301e-06	2.1123e-06	110.89	52.288	24.185	11.79	1.3637e-06	25.059	0.00018145	3.8046e-05	2.8567e-06	178.06	3.8078e-07	-2.0834e-08	330	62.26	3.7778e-07	3.5624e-07	112.37	53.439	24.531	12.062	4.044e-07	25.587	225.323	163.158	173.295	100.262	245.978	221.153	99.862	105.256	250.235	223.249	102.908	108.638	110.411	114.489	241.505	111.338	-8191	255	
1583.390	1	1	0	0	0.19806	0.16305	0.11392	0.14405	0.14861	0.10892	0.072083	0.25421	0.1021	0.078867	0.13564	0.21754	0.1697	0.16993	0.0038734	0.13489	-2.8187	-2.4708	-3.1521	-2.9375	-2.9333	-3.1146	-2.8625	-3.0604	-3.0271	-2.6375	-3.0646	-2.9062	-2.5521	-2.9562	-2.8229	-2.9062	399.273	318.080	271.408	181.977	209.892	301.116	91.305	293.572	290.956	417.434	270.101	354.025	425.458	265.168	128.134	207.102	0.00022267	0.00019343	5.1191e-05	176.24	1.5246e-06	2.0355e-06	328.4	61.527	1.7697e-06	1.674e-06	110.67	52.591	23.999	11.791	1.8876e-06	25.151	0.00017343	3.7883e-05	4.7457e-06	178.23	3.4419e-07	1.0606e-07	331.2	62.466	3.3524e-07	2.0654e-07	112.13	53.636	24.575	12.091	5.4622e-07	25.666	228.143	174.661	176.464	100.285	243.487	242.777	99.766	106.100	259.808	225.068	102.882	108.459	110.409	114.357	250.850	111.636	-8191	255	
1583.486	1	1	0	0	0.098909	0.12417	0.019383	0.075611	0.13328	0.099501	0.16731	0.23339	0.12228	0.16995	0.13815	0.16392	0.10263	0.072652	0.18409	0.091271	-2.5729	-2.4708	-3.1229	-2.9167	-2.7604	-3.1063	-2.7104	-2.8646	-3.2438	-2.7562	-2.9875	-3.1	-2.8104	-3.1	-2.8521	-2.8646	268.817	256.723	239.248	233.076	265.404	306.382	151.479	213.711	400.900	367.422	201.037	167.866	231.763	201.845	166.695	254.173	0.0002157	0.00018482	6.6809e-05	176.57	1.4852e-06	2.0427e-06	326.43	61.915	1.6799e-06	2.0292e-06	110.8	52.589	24.203	11.765	2.0828e-06	25.124	0.00016948	3.5282e-05	5.3677e-06	178.24	3.9571e-07	5.5873e-08	330.36	62.356	3.2876e-07	3.3919e-07	112.04	53.598	24.551	12.091	4.3033e-07	25.725	230.276	173.797	173.933	100.627	266.475	257.484	99.681	105.650	254.362	231.744	103.234	108.162	110.209	114.596	252.837	111.514	-8191	255	
1583.582	1	1	0	0	0.19665	0.17314	0.30427	0.27933	0.19179	0.36367	0.13162	0.12331	0.042617	0.049942	0.13702	0.20549	0.10816	0.20332	0.04281	0.098431	-2.7646	-2.475	-2.7896	-3.0375	-2.6292	-3.0271	-2.9354	-2.75	-3.1708	-2.825	-2.8833	-3.0312	-2.6688	-3.175	-3.0312	-2.8333	217.017	189.165	309.405	185.217	312.496	282.296	353.172	400.451	436.773	192.001	91.395	383.443	94.396	411.968	95.278	343.414	0.00023541	0.00023036	4.8033e-05	177.9	1.6899e-06	1.9555e-06	327.35	61.217	1.6217e-06	1.2045e-06	110.71	52.48	24.122	11.805	1.9927e-06	25.071	0.00017997	4.6744e-05	3.8933e-06	178.46	4.2632e-07	-2.9357e-08	330.74	62.006	2.3864e-07	1.099e-07	112.02	53.62	24.51	12.091	3.9224e-07	25.651	228.203	172.885	192.797	101.031	236.016	246.915	99.694	105.730	265.168	230.910	103.123	108.240	110.045	114.112	250.599	111.686	-8191	255	
1583.678	1	1	0	0	0.22249	0.067337	0.18498	0.12714	0.064325	0.17221	0.045479	0.050674	0.10555	0.14322	0.16759	0.14613	0.14441	0.19681	0.14406	0.10352	-2.7021	-2.7104	-2.9396	-3.2729	-2.6375	-3.1021	-2.8187	-2.6146	-3.2021	-2.85	-2.9875	-3.0625	-2.5521	-2.9188	-2.8521	-2.5938	268.746	425.873	295.395	443.667	383.572	197.799	419.774	254.133	295.429	339.408	273.572	249.670	283.499	391.014	142.820	224.805	0.00023161	0.00019814	4.8607e-05	176.85	1.1468e-06	1.59e-06	325.92	61.318	1.5291e-06	2.2958e-06	110.21	52.347	23.966	11.756	1.4883e-06	25.066	0.00017444	3.6501e-05	4.5614e-06	178.08	3.2627e-07	1.1364e-07	329.27	62.14	3.028e-07	2.8423e-07	111.51	53.267	24.418	12.027	4.3438e-07	25.533	225.781	175.585	172.204	100.325	228.493	242.402	99.615	105.931	269.164	231.949	102.946	108.102	110.380	114.080	258.466	111.618	-8191	255	
1583.797	1	1	0	0	0.056404	0.17825	0.1759	0.18942	0.092313	0.24756	0.039301	0.40612	0.3274	0.10002	0.2172	0.18663	0.28871	0.12216	0.028788	0.12512	-2.7479	-2.7833	-2.6792	-3.05	-2.8479	-3.1646	-2.9417	-2.6167	-3.2854	-3.0125	-2.7833	-3.1125	-2.6979	-3.0583	-3.0104	-2.6625	264.872	168.138	366.607	138.845	149.161	120.468	334.926	96.783	291.898	407.405	203.548	386.827	427.379	117.453	446.172	94.780	0.00024045	0.00024796	5.0054e-05	177.13	1.7848e-06	1.8218e-06	326.62	61.342	1.695e-06	2.0311e-06	110.86	52.612	24.135	11.763	2.182e-06	25.122	0.00018689	3.1298e-05	9.5145e-06	177.95	3.9422e-07	3.2293e-07	329.71	62.159	2.8766e-07	3.0224e-07	112.13	53.514	24.488	12.073	4.4735e-07	25.656	224.262	160.716	186.649	100.208	263.114	232.273	99.580	105.813	257.071	220.741	103.018	108.312	110.285	114.293	267.861	111.058	-8191	255	
1583.871	1	1	0	0	0.25787	0.25419	0.25411	0.044588	0.11816	0.13568	0.10928	0.030615	0.22538	0.16488	0.27255	0.15542	0.048222	0.30009	0.11321	0.037959	-2.6979	-2.8021	-2.5479	-3.4104	-2.9375	-3.0062	-2.9833	-2.6312	-3.0479	-3.0812	-2.5458	-3.075	-2.7979	-2.7958	-3.1729	-2.7375	333.652	230.753	424.598	386.722	219.087	300.679	368.975	137.384	224.124	317.330	113.594	238.506	325.460	389.330	446.951	349.673	0.00023432	0.00021993	4.3501e-05	176.92	1.9144e-06	1.8096e-06	327.46	61.487	1.1817e-06	1.072e-06	110.32	52.738	24.019	11.746	2.0085e-06	25.341	0.00018193	1.2682e-05	9.3532e-06	177.62	3.3075e-07	1.1459e-07	330.39	62.404	2.9343e-07	8.3375e-08	112.4	53.749	24.534	12.08	4.0278e-07	25.771	226.556	171.463	193.077	100.466	232.063	239.392	99.563	106.082	251.200	227.250	102.635	108.553	109.986	114.347	252.485	111.377	-8191	255	
1583.967	1	1	0	0	0.081417	0.17473	0.1574	0.18651	0.11467	0.23312	0.099246	0.22083	0.12925	0.16938	0.098553	0.11822	0.20372	0.19207	0.18658	0.24105	-2.4938	-2.9271	-2.8	-2.8604	-2.7958	-2.9646	-3.1875	-2.6417	-3.0792	-3.2021	-2.6521	-3.1292	-2.9042	-2.8354	-3.2042	-2.7854	127.782	402.086	335.711	95.413	404.392	217.049	236.169	300.127	239.583	435.635	308.281	355.994	374.969	117.867	209.750	330.448	0.00021722	0.00018863	5.627e-05	175.88	1.6094e-06	1.7639e-06	330.03	60.711	1.2714e-06	2.7415e-06	110.93	52.643	24.139	11.696	1.8488e-06	25.111	0.00017129	2.6583e-05	1.1726e-05	178.55	4.0691e-07	2.377e-07	331.85	62.311	2.9055e-07	1.3264e-07	112.58	53.688	24.509	12.074	1.4101e-07	25.589	226.288	162.537	176.670	100.687	266.463	218.430	99.708	106.204	271.997	236.129	102.750	108.530	110.172	114.546	255.404	111.714	-8191	255	
1584.086	1	1	0	0	0.31473	0.20173	0.13212	0.10199	0.14819	0.15928	0.18448	0.13091	0.2185	0.22739	0.020589	0.026503	0.038874	0.059333	0.11443	0.12219	-2.3583	-2.8	-2.7313	-3.0021	-2.7917	-2.8688	-3.4	-2.8896	-2.8229	-3.05	-2.8167	-3.0062	-2.7375	-2.8312	-3.2562	-2.8417	327.350	125.598	237.979	269.025	360.211	187.639	383.722	414.357	107.948	170.236	271.550	246.569	187.621	167.445	222.137	182.079	0.00023393	0.0001955	4.8334e-05	176.37	1.8667e-06	1.512e-06	325.14	61.072	1.7218e-06	1.7343e-06	110.3	52.269	24.113	11.651	2.2358e-06	24.919	0.00018757	2.5526e-05	6.4966e-06	177.37	3.6137e-07	3.3524e-07	328.87	62.087	3.4173e-07	5.211e-08	111.49	53.291	24.503	12.04	2.334e-07	25.488	225.296	161.253	178.338	100.337	252.933	231.046	99.667	106.082	258.339	231.851	102.709	108.765	110.061	114.236	249.999	111.723	-8191	255	
1584.182	1	1	0	0	0.22721	0.23622	0.17455	0.21232	0.15815	0.07164	0.028672	0.24641	0.026549	0.19776	0.045115	0.1333	0.30056	0.062104	0.25405	0.33782	-2.4229	-3.0125	-2.7583	-2.8417	-2.7771	-2.6979	-3.3792	-3.0083	-2.75	-3.0938	-2.7958	-3.0333	-2.875	-2.6562	-3.2646	-2.8667	250.145	189.583	388.594	267.399	217.629	289.931	364.355	145.507	216.632	313.703	250.690	259.385	401.278	218.038	191.274	417.763	0.00022972	0.00019245	6.02e-05	176.66	2.0819e-06	2.4825e-06	328.07	61.744	1.6307e-06	1.8652e-06	110.91	52.631	24.133	11.724	1.588e-06	24.958	0.00018312	2.1949e-05	1.3615e-05	177.42	3.86e-07	3.8069e-07	330.37	62.415	4.8881e-07	4.453e-08	112.02	53.413	24.535	12.08	1.8315e-07	25.562	227.541	177.043	155.626	100.847	251.811	239.178	99.272	105.557	250.626	248.929	102.845	108.415	110.504	114.460	265.633	111.881	-8191	255	
1584.278	1	1	0	0	0.10631	0.19762	0.19074	0.22284	0.25549	0.063181	0.24154	0.22924	0.10731	0.101	0.1571	0.10288	0.25103	0.19499	0.14548	0.22454	-2.2188	-3.0958	-2.4271	-3.0708	-2.9875	-2.7188	-3.3	-2.5167	-2.8333	-3.1625	-3.0125	-3.1125	-2.9083	-2.7188	-3.0083	-2.9958	242.652	149.356	138.904	137.601	403.160	100.380	98.172	315.035	270.821	262.523	353.110	190.621	390.166	388.326	361.156	214.820	0.00021955	0.0002168	4.2205e-05	176.17	1.8797e-06	2.0429e-06	327.03	61.488	1.1411e-06	1.6993e-06	110.92	52.171	24.116	11.786	1.863e-06	25.075	0.00017685	1.008e-05	8.0401e-06	178.3	2.643e-07	1.4678e-07	330.8	62.223	4.5204e-07	-8.0533e-08	112.36	53.568	24.518	12.087	2.1557e-07	25.679	222.236	185.766	189.389	100.593	254.807	225.990	99.903	105.653	250.134	211.156	102.454	108.599	110.274	114.429	256.152	111.287	-8191	255	
1584.399	1	1	0	0	0.13956	0.10654	0.1001	0.32342	0.1653	0.18643	0.26932	0.14066	0.036736	0.049181	0.17479	0.22361	0.22161	0.2646	0.31329	0.17268	-2.2687	-3.1646	-2.8083	-2.8187	-3.0812	-2.6958	-3.0979	-2.6854	-2.8229	-3.0792	-2.7042	-2.8354	-3.0958	-2.5187	-3.125	-3.0979	97.995	113.488	111.050	144.951	257.073	174.346	330.703	355.738	424.945	208.352	122.471	383.664	139.684	249.040	333.522	315.162	0.00023127	0.00014464	5.1618e-05	177.21	1.8194e-06	1.6329e-06	327.32	61.542	1.6825e-06	1.5161e-06	110.68	52.668	24.142	11.735	2.5396e-06	24.965	0.00018707	3.9834e-06	8.3396e-06	178.13	3.3971e-07	2.3391e-07	330.18	62.34	5.1837e-07	-8.3375e-08	111.54	53.589	24.584	12.058	3.1039e-07	25.555	226.632	174.361	173.075	100.283	252.273	232.568	99.814	105.990	261.474	260.409	102.619	108.670	110.520	114.689	257.123	111.941	-8191	255	
1584.495	1	1	0	0	0.21013	0.23309	0.18189	0.18078	0.10941	0.41538	0.10573	0.13356	0.095423	0.14857	0.14226	0.23551	0.24344	0.063157	0.24367	0.044641	-2.2687	-3.2167	-2.9167	-2.9771	-2.9917	-2.8833	-3.1854	-2.8812	-2.5687	-3.0896	-2.8688	-2.8521	-3.2708	-2.7958	-2.9875	-2.9104	105.529	408.448	309.860	263.562	428.604	417.249	370.880	253.351	294.367	199.752	149.323	328.116	204.860	382.511	284.831	353.728	0.00023663	0.00023955	4.7595e-05	177.31	1.6436e-06	2.4971e-06	327.58	61.702	1.5987e-06	1.5517e-06	110.66	52.57	24.139	11.672	1.3722e-06	25.052	0.00019218	2.3494e-05	9.0538e-06	177.75	1.9562e-07	2.1876e-07	329.47	62.566	4.9818e-07	-2.8423e-08	111.63	53.5	24.555	12.02	4.1412e-07	25.493	223.864	166.589	193.107	100.920	244.227	243.849	99.732	105.959	250.276	225.383	102.858	108.600	110.310	114.260	264.378	111.458	-8191	255	
1584.566	1	1	0	0	0.10861	0.46893	0.1827	0.25182	0.12443	0.27617	0.11318	0.22473	0.21416	0.28254	0.19615	0.25511	0.22005	0.052039	0.23204	0.11175	-2.1521	-3.1583	-3.1042	-2.8083	-3.1479	-2.6646	-2.9958	-3.1042	-2.6	-3.0958	-2.875	-2.5938	-3.2375	-3.0021	-2.9083	-2.9562	373.572	381.855	351.068	256.130	441.413	230.528	255.622	344.277	309.245	136.176	312.663	439.958	162.101	301.250	225.209	380.520	0.00023668	0.00020599	7.0336e-05	176.08	1.8049e-06	2.1042e-06	327.55	61.438	1.4088e-06	2.6021e-06	110.62	52.615	24.285	11.719	1.8303e-06	25.212	0.00019551	1.8779e-05	5.5751e-06	178.18	3.2478e-07	3.7122e-07	330.57	62.41	6.0128e-07	-2.2739e-08	111.84	53.581	24.573	12.039	3.347e-07	25.595	223.798	171.296	161.746	100.621	239.984	233.827	99.580	105.807	270.892	251.564	102.783	108.287	110.456	114.076	255.727	111.622	-8191	255	
1584.687	1	1	0	0	0.29188	0.32137	0.22612	0.11255	0.26363	0.25152	0.23802	0.28088	0.13029	0.18125	0.33138	0.067784	0.14708	0.097342	0.38345	0.069788	-2.2021	-3.1188	-2.9083	-2.6708	-2.7854	-2.6646	-3.1542	-2.8833	-2.5583	-3.125	-2.9958	-2.6583	-3.1979	-3.0292	-2.6292	-3.1188	307.945	91.905	372.174	296.218	292.574	248.571	387.502	104.458	89.454	332.093	386.498	89.517	141.298	374.926	97.402	281.666	0.00023109	0.00016265	4.2904e-05	177.4	1.4632e-06	1.6935e-06	330.36	61.225	1.6189e-06	1.6711e-06	110.67	52.645	24.199	11.793	1.5801e-06	25.084	0.00018927	7.3978e-06	2.2346e-06	178.64	2.6505e-07	4.091e-07	331.6	62.267	5.9623e-07	5.6847e-09	112.1	53.676	24.562	12.077	4.279e-07	25.731	226.655	157.491	168.563	100.686	268.200	230.853	99.366	105.962	243.264	229.474	102.750	108.707	110.468	114.267	268.259	111.374	-8191	255	
1584.783	1	1	0	0	0.29011	0.16559	0.096317	0.046861	0.044737	0.14575	0.018245	0.10599	0.12366	0.18387	0.145	0.22109	0.14808	0.18927	0.08135	0.081547	-2.2646	-3.0729	-2.9458	-2.4042	-3.05	-2.9437	-2.9188	-3.125	-2.8083	-2.8958	-3.0542	-2.6063	-2.95	-2.8833	-2.7292	-3.3	261.358	229.204	345.739	156.160	143.711	394.716	297.338	357.875	115.529	414.086	150.445	267.698	282.172	179.654	247.750	219.426	0.00023196	0.00022447	5.7108e-05	177.32	2.2508e-06	1.7708e-06	329.22	61.117	1.4662e-06	1.4545e-06	109.57	52.343	24.077	11.647	2.3867e-06	24.747	0.00018704	2.9022e-05	7.2108e-06	178.45	2.8596e-07	1.2406e-07	331.52	62.322	5.6883e-07	1.2601e-07	111.36	53.509	24.574	12.037	5.446e-07	25.414	226.698	166.697	172.136	99.979	256.538	232.339	99.591	105.828	265.751	256.279	102.701	108.642	110.249	114.603	245.119	111.169	-8191	255	
#DATA ENDS
