BOXY.EXE: ISS Imagent and Oximeter Data Acquisition Program Version 0.80
Ascii Record File

#ACQ INFORMATION
2  Detector Channels 
16  External MUX Channels 
1  Auxiliary Channels 
5000  Waveform (CCF) Frequency (Hz)
1  Waveforms Skipped 
30  Waveforms Averaged 
1  Cycles Averaged 
16  Acquisitions per Waveform 
10.0806  Updata Rate (Hz) 

#FILE INFORMATION
TRUE -- External MUX Channel results are PARSED.
FALSE -- AC DC and Phase are NOT grouped.
TRUE -- Companion Program Settings File CREATED.
FALSE -- AC data not excluded
FALSE -- DC data not excluded
FALSE -- Phase data not excluded
FALSE -- Auxillary Chn. data not excluded
Tab delimiters

#CALIBRATION STATE
TRUE -- Waveform Calibration Values APPLIED.


#AUX CALIBRATION VALUES
Val Type	aux-1	

Term	1.0000e+00	
Factor	0.0000e+00	


#WF CALIBRATION VALUES
A = Detector Channel
Val Type	A-AC1	A-AC2	A-AC3	A-AC4	A-AC5	A-AC6	A-AC7	A-AC8	A-AC9	A-AC10	A-AC11	A-AC12	A-AC13	A-AC14	A-AC15	A-AC16	A-DC1	A-DC2	A-DC3	A-DC4	A-DC5	A-DC6	A-DC7	A-DC8	A-DC9	A-DC10	A-DC11	A-DC12	A-DC13	A-DC14	A-DC15	A-DC16	A-Ph1	A-Ph2	A-Ph3	A-Ph4	A-Ph5	A-Ph6	A-Ph7	A-Ph8	A-Ph9	A-Ph10	A-Ph11	A-Ph12	A-Ph13	A-Ph14	A-Ph15	A-Ph16	

Term	0.00000e+00	0.00000e+00	0.00000e+00	0.00000e+00	0.00000e+00	0.00000e+00	0.00000e+00	0.00000e+00	0.00000e+00	0.00000e+00	0.00000e+00	0.00000e+00	0.00000e+00	0.00000e+00	0.00000e+00	0.00000e+00	0.00000e+00	0.00000e+00	0.00000e+00	0.00000e+00	0.00000e+00	0.00000e+00	0.00000e+00	0.00000e+00	0.00000e+00	0.00000e+00	0.00000e+00	0.00000e+00	0.00000e+00	0.00000e+00	0.00000e+00	0.00000e+00	0.00000e+00	0.00000e+00	0.00000e+00	0.00000e+00	0.00000e+00	0.00000e+00	0.00000e+00	0.00000e+00	0.00000e+00	0.00000e+00	0.00000e+00	0.00000e+00	0.00000e+00	0.00000e+00	0.00000e+00	0.00000e+00	
Factor	1.00000e+00	1.00000e+00	1.00000e+00	1.00000e+00	1.00000e+00	1.00000e+00	1.00000e+00	1.00000e+00	1.00000e+00	1.00000e+00	1.00000e+00	1.00000e+00	1.00000e+00	1.00000e+00	1.00000e+00	1.00000e+00	1.00000e+00	1.00000e+00	1.00000e+00	1.00000e+00	1.00000e+00	1.00000e+00	1.00000e+00	1.00000e+00	1.00000e+00	1.00000e+00	1.00000e+00	1.00000e+00	1.00000e+00	1.00000e+00	1.00000e+00	1.00000e+00	X	X	X	X	X	X	X	X	X	X	X	X	X	X	X	X	

B = Detector Channel
Val Type	B-AC1	B-AC2	B-AC3	B-AC4	B-AC5	B-AC6	B-AC7	B-AC8	B-AC9	B-AC10	B-AC11	B-AC12	B-AC13	B-AC14	B-AC15	B-AC16	B-DC1	B-DC2	B-DC3	B-DC4	B-DC5	B-DC6	B-DC7	B-DC8	B-DC9	B-DC10	B-DC11	B-DC12	B-DC13	B-DC14	B-DC15	B-DC16	B-Ph1	B-Ph2	B-Ph3	B-Ph4	B-Ph5	B-Ph6	B-Ph7	B-Ph8	B-Ph9	B-Ph10	B-Ph11	B-Ph12	B-Ph13	B-Ph14	B-Ph15	B-Ph16	

Term	0.00000e+00	0.00000e+00	0.00000e+00	0.00000e+00	0.00000e+00	0.00000e+00	0.00000e+00	0.00000e+00	0.00000e+00	0.00000e+00	0.00000e+00	0.00000e+00	0.00000e+00	0.00000e+00	0.00000e+00	0.00000e+00	0.00000e+00	0.00000e+00	0.00000e+00	0.00000e+00	0.00000e+00	0.00000e+00	0.00000e+00	0.00000e+00	0.00000e+00	0.00000e+00	0.00000e+00	0.00000e+00	0.00000e+00	0.00000e+00	0.00000e+00	0.00000e+00	-7.31199e+01	-1.32799e+02	-1.26468e+02	-1.82714e+02	-5.26673e+01	-6.72776e+01	-1.58600e+02	-1.62015e+02	-4.81301e+01	-6.81745e+01	-1.74789e+02	-1.71091e+02	-1.81647e+02	-1.76664e+02	-5.28905e+01	-1.49745e+02	
Factor	1.45622e-05	1.40397e-04	4.03230e-05	1.48927e-01	1.29784e-06	1.50963e-06	1.69133e-01	4.23035e-02	9.54360e-07	1.51249e-06	7.52042e-02	2.43297e-02	1.97584e-02	7.93508e-03	1.28624e-06	1.14015e-02	1.42596e-05	3.90213e-05	1.10580e-05	7.54603e-02	3.58379e-07	4.54558e-07	8.02644e-02	2.15652e-02	3.46059e-07	4.54774e-07	3.70643e-02	1.20591e-02	1.01503e-02	4.07504e-03	3.89001e-07	5.66024e-03	X	X	X	X	X	X	X	X	X	X	X	X	X	X	X	X	



#DISTANCE SETTINGS
A = Detector Channel
A-1	A-2	A-3	A-4	A-5	A-6	A-7	A-8	A-9	A-10	A-11	A-12	A-13	A-14	A-15	A-16	

2.5000e+00	3.0000e+00	2.5000e+00	3.0000e+00	2.0000e+00	3.0000e+00	1.5000e+00	3.0000e+00	3.0000e+00	3.0000e+00	3.0000e+00	3.0000e+00	3.0000e+00	3.0000e+00	1.5000e+00	3.0000e+00	

B = Detector Channel
B-1	B-2	B-3	B-4	B-5	B-6	B-7	B-8	B-9	B-10	B-11	B-12	B-13	B-14	B-15	B-16	

1.0000e+01	1.0000e+01	1.0000e+01	1.4400e+00	1.0000e+01	1.0000e+01	1.5100e+00	1.9400e+00	1.0000e+01	1.0000e+01	1.9900e+00	2.4900e+00	2.4100e+00	2.9000e+00	1.0000e+01	2.9800e+00	




#DATA BEGINS
time	group	step	mark	flag	A-AC1	A-AC2	A-AC3	A-AC4	A-AC5	A-AC6	A-AC7	A-AC8	A-AC9	A-AC10	A-AC11	A-AC12	A-AC13	A-AC14	A-AC15	A-AC16	A-DC1	A-DC2	A-DC3	A-DC4	A-DC5	A-DC6	A-DC7	A-DC8	A-DC9	A-DC10	A-DC11	A-DC12	A-DC13	A-DC14	A-DC15	A-DC16	A-Ph1	A-Ph2	A-Ph3	A-Ph4	A-Ph5	A-Ph6	A-Ph7	A-Ph8	A-Ph9	A-Ph10	A-Ph11	A-Ph12	A-Ph13	A-Ph14	A-Ph15	A-Ph16	B-AC1	B-AC2	B-AC3	B-AC4	B-AC5	B-AC6	B-AC7	B-AC8	B-AC9	B-AC10	B-AC11	B-AC12	B-AC13	B-AC14	B-AC15	B-AC16	B-DC1	B-DC2	B-DC3	B-DC4	B-DC5	B-DC6	B-DC7	B-DC8	B-DC9	B-DC10	B-DC11	B-DC12	B-DC13	B-DC14	B-DC15	B-DC16	B-Ph1	B-Ph2	B-Ph3	B-Ph4	B-Ph5	B-Ph6	B-Ph7	B-Ph8	B-Ph9	B-Ph10	B-Ph11	B-Ph12	B-Ph13	B-Ph14	B-Ph15	B-Ph16	aux-1	digaux	

1452.281	1	1	0	256	0.12611	0.05509	0.12755	0.24198	0.27708	0.14447	0.16358	0.16822	0.13939	0.13798	0.26934	0.22344	0.20722	0.242	0.10945	0.055232	-2.7667	-2.8292	-2.9979	-3.1479	-2.4771	-2.9854	-3.0042	-2.875	-3.1312	-2.7958	-2.9917	-3.2833	-2.5938	-3.0354	-3.0917	-2.6479	181.400	358.196	289.394	387.055	439.891	384.763	347.719	363.996	437.225	183.285	295.726	373.085	414.878	406.256	214.129	367.224	0.00039051	0.00026996	9.7471e-05	517.07	3.27e-06	3.4901e-06	596.8	161.53	2.8607e-06	2.763e-06	222.71	91.083	59.868	26.291	3.0559e-06	42.381	0.00034541	0.00017665	4.9646e-05	522.42	2.1062e-06	1.7434e-06	601.14	165.13	2.0035e-06	1.7831e-06	227.28	92.956	61.216	27.113	2.1087e-06	43.521	228.650	169.479	183.524	103.106	261.131	240.000	102.451	109.094	268.869	245.485	107.287	112.706	114.528	118.933	259.724	116.428	-8191	255	
1452.400	1	1	0	0	0.11073	0.23436	0.11189	0.21907	0.15081	0.27824	0.24415	0.09804	0.13706	0.17945	0.1875	0.25782	0.25948	0.23348	0.097196	0.065707	-2.6021	-2.6042	-3.0167	-2.8604	-2.4583	-2.9917	-3.0687	-2.6396	-3.2729	-3.0187	-2.9417	-3.2896	-2.9125	-3.075	-3.0104	-2.7667	292.708	263.667	174.543	323.203	228.370	403.067	359.851	263.302	162.541	341.063	414.584	427.540	249.272	158.688	255.319	427.343	0.00041389	0.00031076	9.6596e-05	516.64	3.6432e-06	3.1112e-06	592.92	163.06	2.9976e-06	3.2837e-06	222.77	91.111	60.089	26.288	2.9075e-06	42.792	0.00036267	0.00017332	4.8955e-05	520.99	2.0166e-06	1.8514e-06	597.86	165.38	1.9718e-06	1.8229e-06	226.63	93.096	61.374	27.134	2.1338e-06	43.625	227.513	170.530	176.794	103.024	253.839	243.681	102.670	109.134	259.933	229.174	107.142	112.899	114.860	118.947	248.687	115.999	-8191	255	
1452.496	1	1	0	0	0.060263	0.0094558	0.074908	0.26039	0.13171	0.27319	0.2119	0.21531	0.15774	0.18703	0.12432	0.20398	0.13656	0.24489	0.21401	0.20178	-2.7417	-2.7542	-2.4875	-3.0958	-2.5667	-2.7917	-3.0333	-2.6437	-2.9104	-2.7792	-2.775	-3.2313	-2.8521	-3.0812	-3.1229	-2.5687	316.400	269.376	333.256	115.530	357.911	439.352	293.802	174.441	126.945	238.669	92.966	435.378	354.294	132.392	276.531	337.874	0.00040054	0.00035268	0.00010715	516.74	3.2561e-06	2.8174e-06	596.74	162.31	2.9226e-06	4.1442e-06	224.06	91.148	59.946	26.232	3.5623e-06	42.87	0.0003545	0.00018031	5.0429e-05	522.8	2.0435e-06	1.7491e-06	600.18	165.51	1.8709e-06	1.8797e-06	227.18	93.143	61.285	27.123	2.0179e-06	43.98	227.192	187.142	179.328	103.292	251.209	244.942	102.731	108.984	253.149	242.608	107.124	112.670	114.654	119.120	257.421	116.007	-8191	255	
1452.592	1	1	0	0	0.24625	0.036268	0.20528	0.2596	0.092248	0.026813	0.39132	0.20688	0.15139	0.089846	0.21562	0.20547	0.22452	0.092331	0.1586	0.1719	-2.6646	-2.8792	-2.6917	-3.2417	-2.6646	-2.7271	-3.0229	-2.3833	-2.7646	-2.9333	-2.7854	-3.1792	-2.8375	-2.9542	-3.1875	-2.8021	376.681	133.853	393.784	416.679	357.838	266.493	377.870	320.669	318.733	225.589	392.809	418.152	432.687	394.891	431.510	411.355	0.00040519	0.0003545	9.1636e-05	517.17	2.4301e-06	2.6208e-06	596.27	162.44	2.5975e-06	3.7139e-06	222.53	91.054	59.796	26.118	3.5151e-06	42.726	0.00036181	0.00017015	4.7734e-05	521.98	1.9733e-06	1.8978e-06	599.91	165.22	1.8882e-06	1.5993e-06	226.69	93.058	60.931	26.998	1.9693e-06	43.721	228.164	180.849	181.065	103.030	260.357	256.410	102.632	108.963	264.073	246.575	107.200	112.576	114.544	119.327	255.451	116.377	-8191	255	
1452.690	1	1	0	0	0.24685	0.12145	0.056398	0.2724	0.14079	0.24227	0.14949	0.21091	0.12953	0.077244	0.18635	0.038651	0.13279	0.12481	0.1764	0.044481	-2.5833	-2.9271	-2.6125	-3.2771	-2.7896	-2.8542	-3.2625	-2.8458	-3.1771	-3.1	-2.8458	-3.1729	-3.05	-2.8438	-3.2562	-2.8583	273.645	239.307	387.558	101.339	235.478	389.121	375.421	450.590	202.616	154.122	221.884	179.286	380.595	380.391	211.217	391.676	0.00040655	0.000359	8.6931e-05	510	2.8212e-06	2.8157e-06	589.04	160.2	2.9264e-06	3.3307e-06	220.44	90.222	59.345	25.748	2.8906e-06	41.805	0.00035714	0.00015893	5.0867e-05	516.92	1.8748e-06	1.8021e-06	595.34	163.27	2.0302e-06	1.8191e-06	224.33	92.218	60.353	26.568	1.8348e-06	42.863	228.944	168.943	178.040	103.120	243.831	252.113	102.628	108.902	255.732	232.048	107.516	112.850	114.680	119.153	252.908	116.020	-8191	255	
1452.785	1	1	0	0	0.082798	0.11502	0.23409	0.12054	0.28874	0.069708	0.255	0.31903	0.15288	0.080578	0.04974	0.28378	0.21723	0.10357	0.134	0.032419	-2.6375	-3.1375	-2.5854	-3.0167	-2.7562	-2.7812	-3.2167	-2.7042	-2.6979	-2.9458	-2.7292	-3.0521	-3.0375	-2.8063	-3.1792	-2.7438	364.634	112.973	169.431	290.395	232.420	307.753	98.726	326.246	300.060	134.419	447.486	425.556	234.313	390.829	344.412	295.720	0.00037808	0.00038221	9.4728e-05	508.58	3.858e-06	3.1937e-06	584.16	159.09	2.9486e-06	3.4385e-06	218.75	89.072	58.325	25.366	2.2708e-06	41.338	0.00033825	0.00017308	5.2456e-05	514.06	1.9375e-06	1.7197e-06	589.34	161.8	1.9401e-06	1.7424e-06	222.56	90.806	59.643	26.176	1.8251e-06	42.37	229.389	180.413	179.085	103.163	251.562	241.641	102.670	108.878	261.777	238.115	107.269	112.432	114.688	119.043	256.833	116.239	-8191	255	
1452.881	1	1	0	0	0.22456	0.43722	0.1463	0.064193	0.1441	0.16484	0.21653	0.086606	0.24555	0.013832	0.20531	0.11558	0.14803	0.26424	0.23092	0.21809	-2.5292	-2.7375	-2.4771	-3.0646	-2.9771	-2.875	-3.2104	-2.8708	-2.7292	-3.1333	-2.8083	-3.025	-3.0583	-2.4854	-3.1167	-2.8854	190.319	377.605	138.229	249.209	288.142	185.032	369.550	390.625	140.285	99.663	441.665	224.842	132.644	107.019	208.181	131.336	0.00039564	0.00022319	8.8456e-05	505.34	3.0954e-06	3.4739e-06	585.09	157.48	2.7176e-06	3.2927e-06	218.8	88.9	58.257	25.516	3.0166e-06	41.706	0.0003575	0.00017047	5.1558e-05	510.79	1.7083e-06	1.8779e-06	589.08	160.84	2.0843e-06	1.5377e-06	222.23	91.055	59.5	26.204	1.757e-06	42.674	228.606	174.519	178.993	103.022	254.156	240.615	102.706	109.182	264.726	248.273	107.265	112.689	114.640	118.865	263.394	116.265	-8191	255	
1453.001	1	1	0	0	0.27106	0.061351	0.066279	0.092655	0.097369	0.11308	0.19519	0.22124	0.0078785	0.27374	0.12584	0.16703	0.18636	0.056105	0.1733	0.10232	-2.3979	-3.0833	-2.7438	-3.0104	-3.0229	-2.6792	-3.1708	-3.0396	-3.0167	-2.9417	-2.6208	-3.0042	-3.1104	-2.7458	-3.0125	-3.1417	147.828	221.511	340.962	374.012	437.068	234.025	414.896	365.938	268.899	118.851	189.075	319.421	129.655	373.770	208.635	353.182	0.00038901	0.00035102	9.8497e-05	506.02	2.6046e-06	2.6456e-06	580.95	158.94	2.8254e-06	3.4004e-06	218.91	89.294	58.03	25.327	3.2275e-06	41.619	0.00034532	0.00014869	4.7365e-05	509.84	1.6896e-06	1.6904e-06	588.32	160.89	1.9574e-06	1.6144e-06	222.31	91.263	59.252	26.12	1.6832e-06	42.678	228.340	161.876	187.384	103.209	258.087	250.324	102.627	109.128	266.819	244.139	106.863	112.433	114.416	118.879	246.653	116.192	-8191	255	
1453.098	1	1	0	0	0.17028	0.16087	0.23776	0.084165	0.17031	0.094053	0.11885	0.16298	0.099004	0.062491	0.19953	0.23762	0.066152	0.039396	0.24618	0.2221	-2.6458	-3.3979	-2.7812	-2.9854	-3.0542	-2.5479	-2.9875	-2.9354	-2.6688	-3.0521	-2.7458	-2.5604	-3.125	-3.1417	-3.0479	-3.1396	264.177	298.692	369.014	390.490	404.084	95.638	433.082	310.812	193.179	218.447	102.022	102.447	426.507	429.238	138.991	427.005	0.00038495	0.00033726	9.8917e-05	501.79	3.2231e-06	3.6593e-06	585.24	157.01	3.1582e-06	3.4439e-06	218.92	88.941	57.722	25.327	3.1e-06	41.398	0.00033855	0.00015275	4.8402e-05	508.66	1.7523e-06	1.8125e-06	588.19	160.24	2.1074e-06	1.6438e-06	221.61	90.951	59.258	26.087	1.9385e-06	42.346	228.638	169.514	172.086	102.968	252.469	240.015	102.724	109.132	260.026	243.523	107.182	112.758	114.619	118.877	256.024	116.213	-8191	255	
1453.194	1	1	0	0	0.038109	0.095005	0.14764	0.057916	0.1384	0.11493	0.30195	0.25304	0.17764	0.13135	0.17429	0.23854	0.16589	0.18716	0.073969	0.030484	-2.3688	-2.9896	-2.6771	-2.575	-3.2104	-2.7021	-2.9208	-3.0229	-2.6083	-3.1146	-2.6417	-2.8896	-2.9979	-2.6542	-2.8688	-2.8708	280.599	115.090	122.377	101.205	298.750	203.758	331.969	110.567	236.811	366.445	268.533	151.061	401.886	98.521	158.520	265.723	0.00038991	0.00020393	8.6745e-05	500.32	2.6502e-06	3.2135e-06	579.86	157.17	2.3102e-06	2.9991e-06	217.18	89.04	57.831	25.251	3.4259e-06	41.32	0.0003439	0.00013536	4.6835e-05	506.92	1.6627e-06	1.7586e-06	585.29	159.52	1.8803e-06	1.4932e-06	220.81	90.589	59.197	26.025	2.1436e-06	42.237	225.184	174.752	180.154	103.055	261.378	251.137	102.699	108.851	277.048	228.928	106.975	112.654	114.157	118.967	255.189	115.885	-8191	255	
1453.290	1	1	0	0	0.055021	0.10791	0.1056	0.11326	0.13667	0.12701	0.22557	0.24263	0.087439	0.083747	0.061978	0.26557	0.16989	0.1771	0.077778	0.10323	-2.0687	-2.9667	-2.7625	-2.7562	-3.1375	-2.75	-3.0438	-3.0563	-2.5646	-3.2479	-2.9542	-2.6042	-3.0875	-2.7938	-2.775	-2.9125	161.624	248.775	269.292	382.983	387.345	291.439	320.081	391.517	184.724	413.387	187.305	386.486	414.270	100.202	305.026	124.405	0.00039719	0.00029914	8.5632e-05	501.82	2.9252e-06	2.6931e-06	582.07	156.39	2.54e-06	3.5573e-06	216.59	89.091	57.86	25.179	3.0108e-06	41.406	0.00035364	0.0001647	4.6605e-05	506.64	1.6254e-06	1.6847e-06	586.3	159.59	1.7714e-06	1.5244e-06	220.06	90.966	59.186	25.98	1.9426e-06	42.529	228.409	179.282	167.630	103.138	251.545	235.161	102.704	109.042	266.081	237.349	107.094	112.684	114.232	118.996	246.210	115.747	-8191	255	
1453.386	1	1	0	0	0.35247	0.21312	0.13714	0.16698	0.085128	0.26539	0.23412	0.31867	0.072015	0.1653	0.065434	0.2143	0.090554	0.12688	0.24548	0.078003	-2.1063	-3.0271	-3.0479	-2.6583	-3.2	-2.6667	-2.8708	-3.0667	-2.7313	-2.8187	-2.9979	-2.7188	-3.2521	-2.8521	-2.9333	-3.1979	210.268	407.375	145.437	326.951	283.206	189.100	450.862	408.300	448.851	274.707	437.700	329.338	91.657	394.658	347.376	439.896	0.00039148	0.00031722	8.9456e-05	507.92	4.0138e-06	3.4475e-06	586.75	157.55	2.8515e-06	3.2613e-06	217.09	88.542	57.509	24.798	3.3387e-06	40.852	0.00035566	0.00016568	4.6213e-05	512.54	1.7777e-06	1.893e-06	590.85	160.58	2.0756e-06	1.7196e-06	221.05	90.553	58.783	25.587	2.1663e-06	41.922	226.670	173.204	179.863	103.084	261.707	233.253	102.456	108.996	265.798	248.176	106.965	112.329	114.437	118.808	249.596	116.052	-8191	255	
1453.480	1	1	0	0	0.18276	0.14838	0.10959	0.28871	0.088063	0.10863	0.19676	0.13097	0.26926	0.27703	0.18833	0.17092	0.06313	0.24132	0.1458	0.14987	-2.2458	-2.775	-2.8688	-2.7083	-2.925	-2.8271	-2.7938	-3.0271	-2.7354	-2.9813	-2.9229	-2.6417	-2.8396	-2.8292	-2.5812	-3.1792	188.724	441.476	282.515	280.383	180.401	188.124	415.792	252.207	295.557	373.072	379.922	331.712	367.994	118.553	401.347	396.623	0.00037533	0.00029802	8.6828e-05	506	3.3024e-06	3.0457e-06	584.85	157.07	2.5499e-06	3.0883e-06	215.31	87.464	57.004	24.414	3.5346e-06	39.9	0.0003466	0.00016283	3.9555e-05	512.95	1.6082e-06	1.5853e-06	590.67	159.34	1.9019e-06	1.5595e-06	219.21	89.291	58.153	25.122	1.9693e-06	41.013	227.019	179.917	184.731	102.846	263.538	247.352	102.548	108.676	267.249	225.459	106.823	112.616	114.132	119.171	255.864	116.445	-8191	255	
1453.577	1	1	0	0	0.022505	0.12068	0.24861	0.11403	0.090254	0.0093392	0.081709	0.12416	0.14627	0.093407	0.12635	0.096687	0.26979	0.16151	0.23501	0.09237	-2.1625	-2.7854	-2.9688	-2.4896	-2.9729	-3.1167	-2.8521	-3.3937	-2.8646	-2.875	-3.2375	-2.8646	-3.0792	-3.1396	-2.8438	-3.3417	218.431	308.021	360.298	306.092	267.110	115.493	311.177	278.519	376.897	386.829	223.174	430.309	132.768	326.771	171.513	92.081	0.00038347	0.00028037	7.5007e-05	504.78	3.1469e-06	2.9325e-06	586.82	156.08	2.6678e-06	2.9856e-06	214.02	87.137	56.67	24.089	2.9925e-06	39.941	0.00034214	0.000156	4.4094e-05	512.82	1.7501e-06	1.6146e-06	590.69	159.2	1.8536e-06	1.5491e-06	218.03	88.696	57.853	24.874	1.9685e-06	40.937	226.734	179.681	185.959	102.929	261.519	222.479	102.944	108.676	267.246	228.549	106.998	112.394	114.062	118.827	252.210	116.038	-8191	255	
1453.697	1	1	0	0	0.090993	0.24375	0.10174	0.028297	0.068959	0.083299	0.021185	0.13555	0.13317	0.087208	0.13119	0.083304	0.19489	0.10578	0.055604	0.013971	-2.3854	-2.7313	-3.0812	-2.7083	-3.1562	-2.9938	-2.7188	-3.3708	-3.0229	-2.8896	-3.3937	-2.9458	-3.1792	-3.0625	-2.7583	-3.1646	364.322	235.591	349.682	186.347	219.247	128.839	158.186	386.165	247.827	377.440	434.408	434.272	404.975	443.600	206.806	213.343	0.00039763	0.00031139	0.0001127	512.7	3.7095e-06	3.0182e-06	587.96	156.82	2.6033e-06	2.8166e-06	213.41	85.722	56.036	23.731	3.4453e-06	39.403	0.00034247	0.00014885	3.8035e-05	517.77	1.6627e-06	1.3968e-06	594.17	159.27	1.7325e-06	1.713e-06	217.27	87.994	57.274	24.476	2.0009e-06	40.416	228.679	181.056	191.796	103.022	249.112	248.183	102.396	108.724	251.779	237.535	107.298	112.376	114.069	118.645	250.449	116.495	-8191	255	
1453.793	1	1	0	0	0.13988	0.14288	0.25251	0.22368	0.18885	0.43267	0.1326	0.24982	0.1932	0.087645	0.17251	0.21381	0.16821	0.41648	0.19602	0.09355	-2.325	-2.6542	-3.2479	-2.8292	-2.6854	-2.9792	-2.4479	-3.0458	-2.775	-2.7292	-3.1875	-2.7333	-2.7917	-3.1562	-2.6083	-2.9125	365.292	384.955	262.393	355.046	290.425	318.443	405.956	343.083	375.146	385.594	388.736	99.039	384.778	390.734	148.961	421.300	0.00035859	0.00032893	9.403e-05	513.48	3.0145e-06	3.0969e-06	589.72	155.45	2.5233e-06	3.6165e-06	213.65	86.54	55.5	23.59	3.0519e-06	39.224	0.00031365	0.00017348	4.1744e-05	518.33	1.8173e-06	1.5625e-06	594.69	158.25	1.8082e-06	1.7092e-06	217.53	88.085	56.813	24.323	1.8753e-06	40.278	228.981	170.501	184.492	103.224	258.704	239.412	102.500	108.905	254.365	232.659	107.126	112.379	114.175	118.719	259.213	116.344	-8191	255	
1453.889	1	1	0	0	0.17373	0.13465	0.089498	0.095894	0.2356	0.21634	0.19466	0.17008	0.24865	0.098039	0.17574	0.30052	0.30367	0.053896	0.10647	0.26158	-2.4875	-2.5333	-2.9229	-2.5792	-2.7917	-3.1667	-2.7125	-2.9625	-2.8146	-2.6146	-3.0438	-3.0104	-2.8208	-3.2417	-2.7792	-3.0625	217.885	109.066	138.251	239.944	346.514	131.184	348.206	103.959	93.822	235.268	394.517	315.338	402.440	442.216	296.047	223.568	0.00036018	0.00035696	8.1294e-05	510.18	3.1911e-06	3.2077e-06	587.6	154.91	2.6029e-06	3.1781e-06	211.95	85.108	55.216	23.337	3.1601e-06	38.791	0.0003239	0.000166	3.7966e-05	516.28	1.6112e-06	1.4499e-06	592.59	157.51	1.7887e-06	1.6609e-06	215.42	86.956	56.599	24.096	1.864e-06	39.782	228.873	179.746	198.947	102.902	248.793	244.018	102.702	108.658	264.785	239.605	107.009	112.420	114.243	118.588	241.382	116.208	-8191	255	
1453.961	1	1	0	0	0.054291	0.061038	0.19319	0.070996	0.2293	0.1134	0.11329	0.19444	0.18908	0.092925	0.16743	0.31383	0.32084	0.23856	0.26161	0.22406	-2.6063	-2.6125	-3.1146	-3.0271	-2.8104	-3.1688	-2.8312	-2.8292	-2.9542	-2.4208	-3.0042	-2.8312	-2.7292	-3.0583	-2.6562	-2.8583	150.140	353.365	152.556	321.474	239.595	421.152	367.982	290.894	359.007	224.488	241.036	370.018	359.369	293.028	229.470	421.315	0.00036459	0.00023942	9.0881e-05	503	2.8135e-06	3.6408e-06	581.16	153.57	2.6748e-06	3.0579e-06	211.23	85.391	55.169	23.383	2.8661e-06	38.892	0.00032144	0.00015527	4.0293e-05	509.88	1.6971e-06	1.4177e-06	586.91	156.34	1.6777e-06	1.6722e-06	214.55	87.119	56.434	24.176	1.8931e-06	39.997	228.768	174.184	174.285	102.908	267.047	245.880	102.449	108.959	265.564	243.904	107.046	112.231	114.270	118.770	250.336	116.066	-8191	255	
1454.082	1	1	0	0	0.1078	0.027028	0.075969	0.15705	0.083989	0.11911	0.1159	0.092015	0.12307	0.09428	0.22598	0.3053	0.044447	0.10487	0.10632	0.092349	-2.5604	-2.6021	-2.8063	-2.9667	-2.8312	-3.2396	-2.8583	-2.9833	-3.1292	-2.875	-3.1104	-3.2375	-2.7833	-3.1771	-2.9104	-2.7417	189.498	273.351	252.214	116.001	138.145	106.973	444.154	150.951	359.736	119.182	119.330	440.752	229.235	437.641	339.214	121.148	0.00036427	0.00023777	7.5698e-05	507.47	4.1171e-06	3.4267e-06	583.38	153.48	2.4698e-06	3.1337e-06	213.98	85.339	55.357	23.589	2.9113e-06	39.314	0.00032381	0.00016072	3.4741e-05	510.61	1.6441e-06	1.3627e-06	588.66	156.74	1.7577e-06	1.6599e-06	216.35	87.534	56.683	24.328	1.8218e-06	40.38	227.263	179.133	184.508	102.765	254.130	255.620	102.220	108.722	248.508	231.591	107.037	112.414	113.994	118.855	255.514	116.180	-8191	255	
1454.178	1	1	0	0	0.033209	0.17594	0.10149	0.1934	0.30238	0.33367	0.080385	0.067838	0.045832	0.14681	0.23297	0.27891	0.31665	0.073876	0.028736	0.16075	-2.8875	-2.7792	-2.8771	-3.0271	-2.6667	-2.9688	-2.5583	-2.7771	-3.1292	-2.5229	-2.9229	-2.8146	-2.4167	-2.9208	-2.9771	-2.7792	306.856	157.227	218.445	109.760	168.152	92.991	381.710	414.525	413.429	137.312	400.178	446.182	100.389	121.669	320.787	394.002	0.00037375	0.00030338	8.7706e-05	503.61	2.8071e-06	3.0047e-06	589.14	153.79	2.2346e-06	3.0924e-06	213.21	85.698	55.417	23.544	3.6327e-06	39.185	0.00032158	0.00015568	3.9187e-05	511.87	1.9853e-06	1.4432e-06	593.47	157.31	1.5306e-06	1.6846e-06	216.9	87.878	56.54	24.222	1.7165e-06	40.269	229.209	173.820	170.883	103.065	263.466	241.236	102.486	108.678	255.245	248.845	106.914	112.596	114.082	118.667	256.100	116.282	-8191	255	
1454.274	1	1	0	0	0.32863	0.14461	0.23217	0.22364	0.043704	0.16021	0.24982	0.061782	0.20872	0.09258	0.3735	0.39705	0.11576	0.19286	0.22435	0.3204	-2.775	-2.7396	-2.9854	-2.9729	-2.7354	-3.0271	-2.8333	-2.8729	-3.2562	-2.8229	-2.8458	-3.1729	-2.4979	-2.9	-2.9979	-2.7687	298.945	91.864	323.569	384.614	176.795	312.700	382.545	434.689	269.084	108.900	445.115	449.108	115.235	446.818	239.312	367.410	0.00037513	0.00032198	8.1949e-05	505.38	2.5705e-06	2.3949e-06	585.77	153.5	2.5207e-06	2.6158e-06	211.84	85.273	55.188	23.144	2.752e-06	38.678	0.00032574	0.00015202	3.7735e-05	511.73	1.8121e-06	1.3646e-06	590.5	156.44	1.6553e-06	1.6126e-06	215.38	86.876	56.273	23.851	1.6265e-06	39.554	227.310	173.700	185.574	102.703	245.322	253.998	102.457	108.604	261.394	260.705	106.973	112.478	114.115	118.723	263.999	116.091	-8191	255	
1454.370	1	1	0	0	0.15023	0.097409	0.056988	0.11305	0.029129	0.11574	0.07317	0.20879	0.086465	0.053337	0.24048	0.17191	0.1301	0.077902	0.45946	0.23605	-2.5833	-2.6542	-2.6813	-3.0646	-2.6458	-2.9854	-3.0438	-2.8354	-3.1667	-3.0375	-2.9771	-3.3063	-2.8292	-2.8854	-2.9188	-2.6833	419.723	301.307	255.268	340.411	149.726	300.519	400.062	284.319	443.583	371.512	167.672	307.332	377.215	305.671	248.309	98.621	0.00035714	0.00038064	8.9564e-05	508.23	2.5963e-06	2.9582e-06	584.04	154.03	3.1491e-06	3.7025e-06	212.78	85.037	54.873	23.074	3.3055e-06	38.482	0.00031811	0.0001517	4.0799e-05	514.01	1.6874e-06	1.4546e-06	591.1	156.69	1.6834e-06	1.5822e-06	215.6	86.493	55.967	23.654	1.7302e-06	39.349	226.945	165.662	190.560	102.883	261.190	246.233	102.568	108.468	254.776	233.834	106.876	112.348	114.087	118.521	256.212	116.072	-8191	255	
1454.489	1	1	0	0	0.22118	0.16898	0.12336	0.21949	0.16467	0.21099	0.091556	0.05798	0.11549	0.11419	0.18792	0.12698	0.22004	0.19804	0.056727	0.27972	-2.8438	-2.9083	-2.7708	-3.1688	-2.575	-2.7896	-2.8979	-2.7771	-3.0833	-2.5812	-2.6271	-2.9042	-2.6792	-2.8146	-3.0292	-2.6146	303.840	184.268	196.151	383.245	241.043	386.476	194.516	122.873	129.993	326.700	397.271	111.928	133.074	125.383	205.772	403.943	0.00036537	0.00030751	5.8496e-05	511.77	3.5202e-06	3.4502e-06	593.11	153.03	3.0059e-06	2.8539e-06	211.59	83.766	54.203	22.711	3.1158e-06	38.328	0.0003165	0.00014389	4.0892e-05	515.1	1.7673e-06	1.411e-06	595.62	155.99	1.6892e-06	1.5008e-06	214.55	85.958	55.414	23.407	1.6565e-06	39.25	227.160	177.486	169.557	102.801	266.552	245.522	102.498	108.797	262.964	236.760	106.827	112.633	114.062	118.694	250.665	116.156	-8191	255	
1454.562	1	1	0	0	0.18935	0.14307	0.15318	0.23694	0.25875	0.23775	0.19587	0.084532	0.13594	0.18732	0.089318	0.43346	0.067756	0.074581	0.10032	0.068021	-2.6417	-2.9542	-2.7625	-3.0979	-2.9979	-2.825	-3.2771	-2.7729	-3.0062	-2.9521	-2.7979	-3.3271	-2.8375	-2.8375	-2.8688	-2.7542	449.639	113.514	409.373	150.981	293.759	450.080	360.915	324.655	423.015	285.812	99.590	131.797	358.244	277.875	282.043	374.463	0.00036109	0.00030691	9.0644e-05	513.82	3.3055e-06	3.0557e-06	597.03	154.21	2.4544e-06	2.9507e-06	213.52	85.193	54.739	23.04	3.1049e-06	38.536	0.00031609	0.00013755	3.9855e-05	519.15	1.706e-06	1.3495e-06	600.43	156.91	1.6589e-06	1.2942e-06	217.13	86.903	55.816	23.622	1.6597e-06	39.506	228.736	176.302	177.409	102.881	261.112	234.384	102.419	108.581	262.717	249.165	106.959	112.146	114.173	118.759	251.980	115.979	-8191	255	
1454.681	1	1	0	0	0.13366	0.10685	0.24206	0.25462	0.34597	0.24336	0.14664	0.14154	0.13105	0.15413	0.097882	0.26691	0.052552	0.27739	0.24898	0.052453	-2.5271	-2.8292	-2.7271	-3.1437	-2.8292	-2.8292	-3.2	-2.6	-2.8625	-2.9417	-2.7229	-3.1813	-3.1	-2.8187	-3.1771	-2.8187	226.502	215.890	333.526	99.868	421.433	237.190	272.348	143.249	264.259	175.858	216.636	446.102	178.283	152.267	99.916	445.587	0.0003621	0.00031272	9.7176e-05	513.36	3.393e-06	3.2124e-06	592.56	154.52	2.9563e-06	3.1979e-06	211.11	84.387	54.573	22.949	3.221e-06	38.454	0.00031805	0.00014178	4.0984e-05	518.63	1.7441e-06	1.3703e-06	595.97	157.07	1.6993e-06	1.4382e-06	214.84	86.11	55.745	23.665	1.5366e-06	39.235	228.558	170.556	172.667	103.003	262.635	234.756	102.372	108.530	258.091	234.736	106.485	112.201	114.220	118.849	249.669	116.235	-8191	255	
1454.778	1	1	0	0	0.067745	0.12008	0.12248	0.10399	0.090296	0.21876	0.040205	0.20619	0.15327	0.20361	0.085416	0.088811	0.20444	0.028528	0.10853	0.2023	-2.6063	-3.0875	-2.6479	-3.0812	-2.8167	-2.675	-3.0229	-2.4917	-2.6292	-3.0646	-2.7854	-3.0458	-2.8937	-2.9667	-3.3063	-2.95	331.576	409.497	98.861	129.223	104.474	269.891	336.016	445.092	170.569	434.538	433.356	170.651	450.052	340.936	416.144	270.891	0.00035702	0.00030275	6.9936e-05	509.71	3.6865e-06	4.0905e-06	586.73	153.21	2.4623e-06	3.1513e-06	210.65	83.934	54.296	22.928	3.2566e-06	38.204	0.00031668	0.00012877	3.8565e-05	515	1.721e-06	1.7519e-06	591.42	156.07	1.8132e-06	1.2326e-06	214.04	85.868	55.633	23.607	1.633e-06	39.212	227.358	168.493	171.670	103.108	251.815	241.540	102.412	108.510	267.032	233.227	106.702	112.487	113.851	118.986	255.498	116.178	-8191	255	
1454.874	1	1	0	0	0.18506	0.24942	0.075801	0.17028	0.096341	0.17508	0.30489	0.1022	0.13292	0.082497	0.18911	0.091451	0.15382	0.099608	0.27031	0.21597	-2.3542	-3.0708	-2.6083	-2.9813	-3.0521	-2.6875	-3.0708	-2.9333	-2.6854	-2.9875	-2.5979	-3.0208	-2.9917	-2.5333	-3.2208	-3.0146	262.174	387.053	95.343	427.214	417.626	404.656	329.532	328.685	275.799	412.993	348.770	126.753	441.191	250.172	117.782	403.021	0.00035694	0.00025499	9.5434e-05	507.2	2.8546e-06	3.533e-06	590.82	153.71	2.2712e-06	3.65e-06	211.57	84.228	54.33	22.745	3.3341e-06	38.125	0.00031095	0.00012706	4.2044e-05	513.11	1.6597e-06	1.6639e-06	592.39	156.06	1.762e-06	1.4875e-06	214.4	86.023	55.48	23.488	1.6249e-06	39.206	228.289	176.566	179.408	102.883	252.573	250.400	102.201	108.730	254.654	237.934	107.162	112.298	114.158	118.846	259.742	116.151	-8191	255	
1454.970	1	1	0	0	0.26589	0.15867	0.10354	0.22455	0.24775	0.2162	0.063045	0.15605	0.058999	0.20529	0.10851	0.13057	0.11672	0.23868	0.089949	0.17162	-2.3417	-3.1	-2.7833	-2.9708	-2.8563	-2.5958	-3.0771	-3.0604	-2.9917	-3.15	-2.8187	-2.7167	-2.9333	-2.8125	-3.2167	-2.9604	142.212	230.634	245.617	435.454	221.214	249.449	425.841	368.188	338.602	371.586	287.088	375.550	155.729	113.049	407.017	190.204	0.00035809	0.00025053	0.00010928	505.87	3.3101e-06	2.9015e-06	587.25	152.54	2.6118e-06	2.8004e-06	211.97	85.079	54.444	22.852	3.1753e-06	38.482	0.00032007	0.00012609	4.1491e-05	511.91	1.547e-06	1.5928e-06	593.53	155.2	1.6849e-06	1.2781e-06	215.07	86.566	55.546	23.607	1.7805e-06	39.416	226.075	180.868	188.378	102.754	264.101	251.033	102.519	108.774	258.661	253.829	106.909	112.389	114.113	118.706	256.525	115.878	-8191	255	
1455.090	1	1	0	0	0.097212	0.14773	0.19155	0.097205	0.17807	0.17587	0.3126	0.23054	0.39661	0.22095	0.055549	0.31329	0.26251	0.016925	0.18885	0.14551	-2.3771	-3.1667	-2.7	-2.9021	-3.0812	-2.6312	-2.9708	-2.75	-2.8771	-3.0854	-2.9167	-2.8729	-3.2583	-2.6292	-2.9188	-2.9062	92.790	416.036	436.630	326.195	138.740	346.299	426.118	345.693	377.143	134.257	271.875	395.390	140.707	235.411	438.311	427.420	0.00035795	0.00029568	7.3351e-05	504.96	3.2732e-06	2.7669e-06	585.18	152.65	3.0377e-06	2.5478e-06	212.6	84.101	54.231	22.898	2.9775e-06	37.984	0.00032069	0.00013682	4.2205e-05	510.68	1.5955e-06	1.6175e-06	588.69	155.11	1.7937e-06	1.2743e-06	214.61	85.838	55.45	23.542	1.65e-06	39.026	227.588	174.220	181.057	102.863	258.868	251.809	102.554	108.392	262.247	235.932	107.277	112.537	114.174	118.651	261.562	116.180	-8191	255	
1455.187	1	1	0	0	0.11193	0.19735	0.088476	0.26214	0.10376	0.067199	0.10573	0.097557	0.021694	0.087623	0.13017	0.21523	0.21827	0.036627	0.264	0.064806	-2.2479	-3.1729	-2.675	-2.7146	-3.0187	-2.6729	-3.0333	-2.9896	-2.6146	-3.1708	-2.9167	-2.7958	-3.1708	-2.6229	-2.7604	-3.1	323.058	302.207	224.878	107.259	144.856	367.887	434.727	187.460	415.352	239.086	434.574	444.565	241.897	338.397	356.913	173.012	0.00036493	0.00029191	8.2995e-05	502.39	3.6516e-06	2.8752e-06	582.23	151.75	2.3751e-06	2.8108e-06	210.35	83.95	54.242	22.767	3.4079e-06	38.478	0.00032135	0.00013763	3.7897e-05	508.49	1.4634e-06	1.7122e-06	586.71	154.37	1.6488e-06	1.1578e-06	213.4	85.703	55.411	23.55	1.8048e-06	39.323	227.700	159.955	190.343	102.947	251.862	226.760	102.557	108.649	266.010	227.359	106.991	112.584	114.263	118.821	254.933	116.245	-8191	255	
1455.258	1	1	0	0	0.067288	0.18596	0.088527	0.06864	0.3408	0.13262	0.23835	0.33822	0.21308	0.15589	0.082089	0.2795	0.12408	0.17506	0.20522	0.1725	-2.0604	-2.9521	-2.7917	-2.5396	-2.9792	-2.9104	-3.0292	-3.0833	-2.5417	-3.0729	-2.8937	-2.8667	-3.2375	-2.6562	-3.0208	-3.2375	120.923	438.443	167.827	232.184	384.065	223.195	387.055	366.774	401.007	181.684	382.765	345.166	384.516	157.282	333.937	424.848	0.00035778	0.00029899	8.6032e-05	504.3	3.2489e-06	2.4556e-06	584.26	152.56	2.5348e-06	2.4596e-06	211.64	84.172	54.445	22.877	3.6914e-06	38.473	0.00032393	0.00015039	3.9993e-05	508.63	1.5642e-06	1.43e-06	588.73	154.95	1.8002e-06	1.2222e-06	214.58	86.104	55.49	23.595	1.8842e-06	39.386	228.115	171.437	177.949	102.861	257.469	244.334	102.387	108.743	271.241	221.086	106.861	112.499	113.900	118.874	260.228	115.946	-8191	255	
1455.354	1	1	0	0	0.14748	0.083425	0.36689	0.20578	0.13481	0.012496	0.32219	0.093812	0.15074	0.13721	0.11957	0.17969	0.1502	0.14909	0.142	0.33615	-2.3187	-2.9437	-3.0708	-2.3833	-3.0521	-2.7062	-2.7438	-2.9396	-2.6333	-2.9521	-2.7354	-2.8125	-2.9375	-2.8854	-2.8333	-3.3229	174.743	422.499	438.283	437.846	144.292	204.206	322.721	433.449	165.655	278.364	439.587	222.180	325.781	263.265	278.147	414.402	0.00035886	0.00028166	0.00010499	502.06	2.5736e-06	2.4624e-06	582.81	151.65	2.7512e-06	2.7501e-06	210.73	84.308	54.295	22.942	2.8536e-06	38.306	0.00032188	0.00013397	4.49e-05	507.55	1.5373e-06	1.357e-06	589.01	154.48	1.819e-06	1.4884e-06	214.05	86.175	55.452	23.6	1.808e-06	39.35	225.251	168.829	185.751	102.790	242.942	232.639	102.430	108.795	261.473	250.256	106.683	112.730	114.165	119.060	262.102	116.029	-8191	255	
1455.473	1	1	0	0	0.21812	0.084434	0.024129	0.32445	0.14862	0.1097	0.21282	0.19764	0.20433	0.14624	0.23505	0.31435	0.11673	0.083834	0.15067	0.21735	-2.4938	-2.9854	-3.0708	-2.7104	-3.2458	-3.0104	-2.9771	-3.325	-2.875	-3.0833	-3.0833	-2.7354	-3.0625	-2.8563	-2.6	-3.2229	291.512	333.253	119.492	154.061	447.114	288.952	331.138	128.026	208.339	256.184	373.847	409.828	118.855	433.130	229.223	363.557	0.00034731	0.00039182	7.2717e-05	501.76	3.3385e-06	2.9158e-06	579.53	151.08	2.561e-06	3.1371e-06	208.66	83.358	53.753	22.646	2.4932e-06	37.844	0.00031024	0.00013446	3.4026e-05	506.27	1.5836e-06	1.2784e-06	585.83	153.57	1.7173e-06	1.4704e-06	211.96	85.346	54.95	23.305	1.8648e-06	38.752	227.861	173.099	188.217	102.733	255.301	249.604	102.309	108.530	274.634	232.779	106.748	112.227	113.849	118.732	266.838	116.118	-8191	255	
1455.569	1	1	0	0	0.29404	0.12643	0.25177	0.18432	0.032793	0.14924	0.15556	0.068786	0.12855	0.25138	0.14596	0.023714	0.23119	0.092734	0.21053	0.11691	-2.375	-2.8875	-3.175	-2.8833	-3.1208	-2.9396	-2.925	-3.0083	-2.8167	-2.7438	-2.9792	-2.7333	-2.825	-2.9875	-2.5646	-3.1354	284.081	279.234	299.653	198.678	139.777	433.650	330.074	416.691	141.653	213.570	119.619	426.992	366.444	230.846	172.742	101.158	0.00036275	0.00028708	9.2713e-05	500.54	3.3608e-06	2.9611e-06	579.66	150.95	2.6109e-06	3.4933e-06	208.62	83.337	53.821	22.537	3.5048e-06	37.811	0.00032043	0.00013162	3.7805e-05	503.37	1.5276e-06	1.4745e-06	584.19	153.31	1.5955e-06	1.4828e-06	212.1	84.898	54.789	23.191	1.7294e-06	38.607	228.332	176.776	182.656	102.683	260.154	236.839	102.266	108.627	269.079	238.063	106.839	112.402	114.099	118.481	253.544	115.985	-8191	255	
1455.666	1	1	0	0	0.17544	0.101	0.23195	0.16583	0.040733	0.049591	0.06023	0.10024	0.29375	0.10935	0.20688	0.13402	0.32406	0.20834	0.18499	0.047659	-2.4062	-2.7646	-3.2146	-2.7354	-2.8146	-2.9583	-2.7833	-3.2938	-2.7917	-2.6188	-3.1813	-2.8146	-2.8021	-3.0375	-2.5729	-3.0687	316.806	265.579	263.431	347.614	414.243	244.272	194.985	336.563	135.619	246.335	341.325	324.124	382.478	364.591	435.051	366.049	0.000348	0.00031561	9.2813e-05	498.45	3.5968e-06	3.249e-06	580.28	150.35	2.7458e-06	2.9698e-06	208.51	82.755	53.247	22.204	3.7785e-06	37.489	0.00030985	0.00014552	3.4119e-05	504.97	1.5791e-06	1.4262e-06	585.83	152.83	1.7245e-06	1.478e-06	211.37	84.578	54.348	22.866	1.9231e-06	38.462	228.350	174.830	184.610	102.787	247.876	242.081	102.476	108.572	257.094	239.639	106.651	112.322	113.874	118.985	252.168	116.124	-8191	255	
1455.762	1	1	0	0	0.10705	0.12706	0.063244	0.16591	0.089201	0.11163	0.15566	0.058026	0.073775	0.094459	0.05029	0.040947	0.14143	0.071273	0.17826	0.1725	-2.5875	-2.8479	-2.9583	-2.6667	-2.9229	-3.1604	-2.6542	-3.0687	-2.8458	-2.6396	-3.0375	-2.7083	-2.7792	-3.0958	-2.7271	-3.0375	409.548	251.336	184.191	124.073	258.148	391.987	388.833	246.983	226.310	122.945	99.700	253.492	219.675	357.927	210.600	427.947	0.00036237	0.00029643	0.00010177	502.97	3.2859e-06	2.8083e-06	581.4	151.01	2.5905e-06	2.5379e-06	208.54	82.838	53.226	22.087	2.5197e-06	37.408	0.00031656	0.00014576	3.8749e-05	507.75	1.6762e-06	1.2074e-06	587.77	153.27	1.7555e-06	1.4837e-06	211.61	84.734	54.349	22.808	1.774e-06	38.213	226.507	173.755	184.893	103.004	248.282	255.004	102.545	108.547	260.007	240.219	106.575	112.522	114.043	118.780	246.940	116.244	-8191	255	
1455.858	1	1	0	0	0.17273	0.16154	0.11868	0.032712	0.23346	0.28972	0.12243	0.14398	0.11573	0.18507	0.24386	0.095993	0.17923	0.13999	0.29645	0.09823	-2.6146	-2.5062	-3.3812	-2.8917	-2.7583	-3.2396	-2.6063	-2.9542	-2.9562	-2.7604	-3.1021	-3.05	-2.8187	-3.3396	-2.8542	-3.0771	239.376	223.640	120.972	291.978	316.097	143.068	173.716	364.169	190.622	183.303	421.827	425.324	407.101	255.266	279.117	201.794	0.00034578	0.00032518	8.4033e-05	501.95	2.9442e-06	3.116e-06	582.51	150.77	2.4958e-06	3.4083e-06	206.76	82.32	53.297	22.117	2.7312e-06	37.128	0.0002999	0.00013934	3.0225e-05	506.34	1.7008e-06	1.2718e-06	585.63	153.37	1.4837e-06	1.5074e-06	210.24	84.153	54.418	22.817	1.6322e-06	38.028	228.199	174.074	173.174	103.054	251.248	247.459	102.406	108.547	272.765	243.092	106.828	112.251	113.938	118.942	259.552	116.170	-8191	255	
1455.954	1	1	0	0	0.14013	0.1591	0.081322	0.041671	0.18978	0.22958	0.053498	0.11229	0.26348	0.35071	0.30928	0.1389	0.17999	0.11702	0.18031	0.27946	-2.6875	-2.4917	-2.9042	-2.8917	-2.5938	-3.0979	-2.7396	-3.0812	-3.1813	-2.7333	-2.9688	-3.0146	-2.8625	-3.0604	-2.7396	-2.9146	285.258	424.908	258.377	204.977	429.959	393.751	361.067	413.143	306.429	434.195	195.255	381.978	325.041	428.779	270.905	275.162	0.00034676	0.00024665	7.7952e-05	499.09	3.4709e-06	2.8797e-06	580.05	150.74	2.795e-06	3.0636e-06	207.75	82.251	53.089	22.241	2.409e-06	37.535	0.00030064	0.00014373	3.4303e-05	506.32	1.8083e-06	1.305e-06	585.28	153.38	1.5342e-06	1.4903e-06	211.01	84.297	54.29	22.894	1.7497e-06	38.313	226.254	178.848	170.121	102.618	254.072	243.379	102.465	108.618	257.189	232.586	106.981	112.598	113.928	118.690	249.579	116.110	-8191	255	
1456.050	1	1	0	0	0.19067	0.076437	0.28421	0.29843	0.2102	0.044143	0.054359	0.30505	0.32489	0.19987	0.23564	0.11633	0.26693	0.21236	0.10562	0.22639	-2.8812	-2.8063	-3.0125	-3.0479	-2.4646	-3.0146	-2.8833	-2.9062	-3.2708	-2.7875	-3.1542	-3.1188	-2.6375	-3.25	-2.9104	-2.6792	167.905	97.773	280.162	410.225	202.205	426.417	155.114	369.155	300.903	413.855	331.929	309.399	276.952	121.098	171.734	311.310	0.00036801	0.00024142	8.6667e-05	503.4	3.2751e-06	3.2699e-06	579.27	149.58	2.2723e-06	2.9027e-06	207.18	83.404	53.392	22.324	3.0693e-06	37.563	0.00030634	0.00013974	4.1007e-05	506.48	1.768e-06	1.3665e-06	584.43	152.75	1.4844e-06	1.532e-06	210.88	84.675	54.423	22.981	1.7627e-06	38.547	228.177	179.948	177.672	102.684	257.144	233.183	102.191	108.674	260.377	227.764	107.024	112.548	114.149	118.582	267.971	116.185	-8191	255	
1456.171	1	1	0	0	0.12704	0.18824	0.18373	0.15929	0.44324	0.28212	0.13226	0.21376	0.15557	0.29245	0.26954	0.033717	0.31562	0.091493	0.21401	0.17358	-2.6396	-2.5771	-2.9708	-3.0208	-2.6937	-2.9708	-2.8521	-2.7083	-3.1979	-2.8187	-2.8854	-2.9813	-2.7229	-3.2083	-2.8396	-2.6979	153.995	188.734	310.583	420.589	178.194	185.610	321.459	364.419	137.267	299.070	188.358	184.382	113.447	401.916	402.754	392.803	0.00036723	0.00030075	8.6179e-05	498.61	3.0336e-06	3.0962e-06	577.64	150.05	2.7265e-06	2.8682e-06	207.59	82.688	53.201	22.049	3.1725e-06	37.51	0.00031056	0.00016226	3.6261e-05	504.98	1.7867e-06	1.4101e-06	586.02	152.59	1.4888e-06	1.4856e-06	211.31	84.55	54.328	22.843	1.5228e-06	38.305	227.437	165.404	190.226	102.934	254.296	242.745	102.139	108.705	258.426	232.399	106.998	112.482	114.086	118.499	259.988	116.139	-8191	255	
1456.267	1	1	0	0	0.20966	0.15281	0.39709	0.1383	0.35948	0.054545	0.17695	0.1094	0.31839	0.4491	0.083601	0.051827	0.092169	0.28363	0.043544	0.31896	-2.9396	-2.9104	-2.7771	-3.1042	-2.7979	-2.9667	-2.8063	-2.6708	-2.9562	-2.6646	-2.9458	-3.1063	-2.4938	-2.9813	-2.9792	-2.6542	365.015	311.979	102.628	351.517	408.713	343.747	388.620	373.850	329.068	354.911	356.676	91.017	193.478	405.433	110.590	121.430	0.00035638	0.00029943	0.0001022	497.39	2.4959e-06	3.667e-06	576.33	149.86	2.719e-06	2.9529e-06	207.27	82.4	53.023	22.087	3.3625e-06	37.43	0.00030379	0.00014568	3.9532e-05	503.09	1.7807e-06	1.4603e-06	582	152.4	1.5284e-06	1.5188e-06	210.04	84.114	54.188	22.849	1.6614e-06	38.218	227.885	168.703	180.604	102.599	254.560	228.184	102.278	108.768	260.951	247.968	106.761	112.627	114.026	118.875	259.195	115.684	-8191	255	
1456.363	1	1	0	0	0.32331	0.1656	0.10089	0.056975	0.02215	0.31922	0.038776	0.082994	0.059076	0.057709	0.19365	0.099836	0.15446	0.13588	0.27612	0.28675	-2.7875	-2.8708	-2.825	-3.2812	-2.7854	-2.9729	-2.9354	-2.6396	-3.3417	-3.0146	-2.8625	-3.325	-2.9604	-2.9229	-3.1562	-2.7333	209.194	174.380	423.905	380.805	224.663	180.806	410.995	449.118	260.277	259.496	333.449	122.344	167.734	321.851	381.871	180.549	0.00033612	0.00034511	8.7579e-05	496.68	2.5908e-06	3.9635e-06	577.73	149.6	2.6225e-06	3.2083e-06	207.99	82.6	53.056	22.439	3.1629e-06	37.632	0.00029553	0.00013088	3.8933e-05	502.88	1.5701e-06	1.5275e-06	582.93	152.61	1.6914e-06	1.316e-06	211.16	84.551	54.245	22.996	1.5422e-06	38.481	227.490	168.689	181.374	102.755	256.222	236.982	102.432	108.633	258.994	247.838	107.000	112.237	114.012	118.728	252.157	116.155	-8191	255	
1456.482	1	1	0	0	0.093383	0.034107	0.14174	0.18051	0.1684	0.22468	0.18451	0.13739	0.056181	0.11737	0.25846	0.17916	0.10069	0.20499	0.17104	0.089623	-2.7271	-2.7854	-2.8833	-3.3312	-2.6542	-3.1042	-3.2458	-2.7229	-3.2125	-3.075	-2.8375	-3.2229	-2.8958	-2.7792	-3.1083	-2.7083	437.700	383.341	207.250	157.872	238.471	325.408	439.380	377.547	365.546	159.872	397.780	375.617	404.589	264.236	134.882	289.535	0.00035382	0.00033707	8.8465e-05	499.25	3.1051e-06	2.8894e-06	578.73	149.16	2.3371e-06	3.2663e-06	208.87	82.755	53.177	22.276	3.5831e-06	37.584	0.00030337	0.00014186	3.8588e-05	503.91	1.5492e-06	1.2008e-06	584.74	152.27	1.5818e-06	1.2639e-06	211.33	84.638	54.245	22.913	1.539e-06	38.643	227.331	186.900	183.965	102.799	266.402	247.478	102.409	108.541	259.931	248.351	106.965	112.321	113.935	118.796	271.375	116.064	-8191	255	
1456.554	1	1	0	0	0.02363	0.23595	0.033917	0.11669	0.096903	0.078281	0.1069	0.28028	0.28123	0.24803	0.1399	0.32088	0.10874	0.057188	0.12745	0.15048	-2.5917	-2.8604	-2.55	-2.9688	-2.8042	-2.7604	-3.0729	-2.7354	-3.1021	-2.9021	-2.7375	-3.1937	-2.8458	-2.8229	-3.1625	-2.7646	236.369	193.460	152.284	246.553	380.494	358.524	182.266	398.536	388.299	193.964	237.108	367.889	196.095	378.685	160.670	345.568	0.00035287	0.00035092	0.00010311	499.56	3.505e-06	3.0714e-06	579.19	150.69	2.6467e-06	2.6003e-06	207.92	82.978	53.228	22.401	3.5913e-06	37.746	0.00030664	0.000146	4.6052e-05	504.49	1.5769e-06	1.4707e-06	585.34	152.94	1.5775e-06	1.2999e-06	211.66	84.813	54.372	23.071	1.4442e-06	38.643	228.457	171.208	184.518	102.697	258.126	235.475	102.317	108.801	265.529	237.208	107.305	112.543	114.150	118.589	251.137	116.111	-8191	255	
1456.652	1	1	0	0	0.17749	0.16629	0.30153	0.12109	0.15196	0.2343	0.16508	0.20553	0.1929	0.23571	0.25491	0.049799	0.04308	0.31715	0.10296	0.090654	-2.6396	-2.9792	-2.5542	-3.0167	-2.6729	-2.7	-3.1833	-2.8229	-2.9542	-2.9958	-2.7313	-3.1229	-2.7354	-2.6667	-3.2708	-2.8563	384.860	312.720	280.041	201.010	345.522	423.779	319.206	396.531	117.841	253.923	128.920	407.923	144.358	439.255	406.633	132.130	0.00036002	0.00034355	6.5301e-05	496.46	2.8116e-06	2.9209e-06	579.62	150.37	2.2577e-06	3.2436e-06	208.11	83.454	53.279	22.483	2.6732e-06	37.845	0.00031139	0.00013869	4.1905e-05	503	1.6933e-06	1.6838e-06	583.71	152.81	1.6712e-06	1.3226e-06	211.11	84.805	54.441	23.132	1.5682e-06	38.682	228.065	174.659	173.510	103.071	255.738	254.143	102.215	108.482	262.453	236.877	106.979	112.435	113.905	118.941	254.471	116.087	-8191	255	
1456.770	1	1	0	0	0.099431	0.12618	0.201	0.072964	0.074339	0.23337	0.43149	0.15001	0.061212	0.45995	0.18078	0.090485	0.15263	0.15307	0.18932	0.20026	-2.5958	-3.1792	-2.7729	-2.9417	-2.7917	-2.6229	-3.0667	-2.6125	-2.6354	-3.0062	-2.6917	-2.9271	-2.8271	-2.4875	-3.1063	-2.925	287.212	422.821	222.024	410.125	148.818	290.945	321.708	319.965	379.429	350.373	145.246	368.473	286.301	182.923	401.041	396.820	0.00035681	0.00024505	7.2237e-05	497.73	3.6291e-06	2.2372e-06	578.03	150.67	2.6142e-06	2.3119e-06	208.63	83.694	53.14	22.705	3.3031e-06	38.051	0.00031044	0.00011641	4.2205e-05	503.1	1.594e-06	1.4262e-06	584.67	153.44	1.6676e-06	1.4515e-06	212.04	85.455	54.607	23.308	1.723e-06	39.078	229.125	171.253	191.324	102.984	248.869	229.804	102.431	108.830	262.578	237.773	106.915	112.094	114.226	118.642	245.631	115.946	-8191	255	
1456.867	1	1	0	0	0.045649	0.061373	0.25097	0.13709	0.045604	0.23343	0.21783	0.13221	0.11531	0.095102	0.13379	0.17174	0.17056	0.33357	0.13744	0.15516	-2.1833	-2.9729	-2.4042	-2.9458	-2.7583	-2.7479	-3.0583	-2.8542	-2.8708	-3.2125	-2.375	-2.8	-2.7938	-2.5208	-3.0146	-2.8104	179.707	277.468	383.581	106.185	188.008	346.207	402.352	426.747	153.719	260.110	353.310	394.733	123.214	429.132	388.768	392.625	0.00035701	0.00031273	9.3234e-05	499.06	2.8773e-06	2.4314e-06	580.4	150.85	2.6719e-06	2.7241e-06	210.03	84.335	54.178	22.822	2.8656e-06	38.603	0.0003182	0.00013283	3.9832e-05	504	1.6814e-06	1.6222e-06	585.37	153.62	1.7411e-06	1.3378e-06	213.04	86.205	55.165	23.483	1.6573e-06	39.54	229.881	166.355	176.270	102.695	265.012	233.181	102.139	108.602	258.573	233.523	106.755	112.546	113.836	119.103	261.862	115.959	-8191	255	
1456.963	1	1	0	0	0.29966	0.1794	0.19833	0.085521	0.17442	0.15135	0.32606	0.13375	0.15663	0.10688	0.078763	0.21397	0.17663	0.028643	0.097545	0.11815	-2.1354	-2.9688	-2.5583	-2.8604	-3.2313	-2.75	-3.2208	-3.0521	-2.7979	-3.2604	-2.9625	-2.9542	-3.0438	-2.7313	-2.9875	-3.0563	316.781	247.363	240.471	260.149	281.092	438.329	397.950	320.570	253.403	135.638	411.779	389.502	140.304	146.918	153.051	265.368	0.00036134	0.00026038	8.4148e-05	498.09	3.247e-06	3.1418e-06	583.07	150.72	2.7584e-06	2.7811e-06	209.59	83.764	54	22.596	2.8863e-06	38.482	0.00032259	0.00013389	4.4071e-05	503.45	1.5739e-06	1.5966e-06	586.2	153.46	1.8197e-06	1.0479e-06	211.88	85.596	54.993	23.356	1.5276e-06	39.324	226.697	186.800	193.425	103.228	251.108	236.051	102.006	108.671	262.213	236.201	106.906	112.190	113.966	118.818	260.075	116.023	-8191	255	
1457.059	1	1	0	0	0.30021	0.2343	0.14443	0.12123	0.032565	0.27274	0.20789	0.23024	0.23989	0.22143	0.16513	0.14959	0.089962	0.11012	0.10437	0.12925	-2.2438	-3.0396	-2.7104	-2.775	-2.9708	-2.6	-3.0271	-3.1125	-2.6854	-3.1292	-2.9	-2.9021	-3.15	-2.8125	-2.9125	-3.0979	179.498	351.674	209.926	424.052	333.895	412.226	353.259	357.202	235.122	434.501	199.035	315.784	216.333	277.142	133.129	133.760	0.00035855	0.00037539	8.3685e-05	495.57	2.9525e-06	3.7764e-06	582.11	150.79	2.4361e-06	2.4427e-06	208	83.675	54.072	22.885	2.9234e-06	38.489	0.00031704	0.00015064	4.2481e-05	502.73	1.503e-06	1.5256e-06	585.82	153.37	1.731e-06	1.1331e-06	211.81	85.574	55.073	23.478	1.6557e-06	39.37	228.663	168.282	189.177	102.944	260.215	249.307	102.571	108.453	265.998	250.557	106.743	112.340	113.803	118.777	243.487	115.975	-8191	255	
1457.155	1	1	0	0	0.20825	0.2047	0.08667	0.077914	0.092694	0.14077	0.31271	0.080553	0.075808	0.048364	0.09321	0.054315	0.054517	0.20441	0.075745	0.099565	-2.0708	-2.9833	-2.725	-2.5792	-2.9625	-2.6708	-2.9792	-2.9792	-2.4417	-2.8854	-2.8792	-2.6792	-3.0104	-2.7396	-2.9521	-3.2354	425.274	379.320	434.755	367.932	440.188	327.897	380.476	283.644	291.615	155.520	245.395	105.783	296.430	442.742	357.315	275.279	0.00034298	0.00032673	9.39e-05	497.66	3.8425e-06	3.0544e-06	581.97	151.29	2.2688e-06	3.6131e-06	210.04	84.512	53.86	22.851	3.0026e-06	38.35	0.00031374	0.00013958	3.9256e-05	503.73	1.4813e-06	1.4659e-06	586.54	154.14	1.8139e-06	1.3444e-06	213.08	86.046	55.173	23.483	1.727e-06	39.449	227.383	166.833	174.842	102.894	258.314	227.543	102.340	108.564	266.031	241.431	106.784	112.385	113.631	118.804	256.727	116.049	-8191	255	
1457.251	1	1	0	0	0.19044	0.057543	0.17912	0.11908	0.15455	0.22064	0.17797	0.092877	0.098442	0.30171	0.28739	0.20586	0.046262	0.07087	0.0237	0.22039	-2.2542	-2.9167	-3.0646	-2.8042	-3.2313	-2.8438	-3.0792	-3.2958	-2.7687	-3.0958	-2.8354	-2.8125	-3.1437	-3.0438	-2.9271	-3.1625	113.242	149.812	194.817	342.882	407.304	313.736	308.198	374.329	406.875	169.697	440.406	435.758	118.432	226.926	265.243	450.075	0.00035695	0.00030033	8.6347e-05	500.93	3.2567e-06	2.8573e-06	581.04	151.3	2.742e-06	2.6905e-06	210.07	85.445	54.576	23.049	3.1393e-06	39.032	0.00031894	0.00012527	3.7851e-05	506.36	1.4163e-06	1.3675e-06	587.67	154.53	1.8867e-06	1.2696e-06	213.8	86.739	55.576	23.741	1.8607e-06	39.977	227.920	173.691	185.345	102.902	251.037	227.177	102.338	108.736	272.330	231.742	106.788	112.237	114.089	118.463	248.676	115.758	-8191	255	
1457.347	1	1	0	0	0.036435	0.26109	0.1101	0.04898	0.20126	0.247	0.2472	0.21452	0.15192	0.066812	0.073221	0.17554	0.16113	0.24122	0.17866	0.10571	-2.3271	-3.2271	-3.0229	-2.8021	-3.1646	-3.0167	-2.8458	-3.2354	-2.5187	-2.9292	-3.075	-2.5896	-3.0271	-2.9104	-2.6771	-3.0208	123.533	162.682	178.747	125.753	288.785	351.155	286.942	362.881	228.832	113.081	357.313	194.644	351.900	361.919	413.832	376.454	0.00037068	0.00033584	8.176e-05	500.95	2.3588e-06	2.9462e-06	580.49	152.42	2.5024e-06	2.7332e-06	209.87	84.61	54.049	23.171	3.1812e-06	39.04	0.00032129	0.00013389	3.7067e-05	504.96	1.2932e-06	1.3514e-06	586.15	154.3	1.7988e-06	1.4771e-06	213.14	86.437	55.42	23.819	1.8704e-06	39.926	229.419	178.985	186.954	102.941	248.709	240.204	102.306	108.733	264.302	244.543	106.515	112.247	113.926	118.429	255.104	115.881	-8191	255	
1457.444	1	1	0	0	0.061098	0.24129	0.23577	0.09615	0.22961	0.054725	0.11352	0.26576	0.35033	0.20029	0.10578	0.31232	0.13692	0.11754	0.078961	0.31031	-2.3646	-2.5583	-2.9646	-2.7104	-3.0583	-2.9521	-2.7208	-3.0229	-2.6396	-2.9562	-3.1979	-2.9167	-3.2229	-3.0729	-2.7812	-3.3104	419.295	305.417	266.265	214.895	307.295	226.959	317.711	163.321	161.314	445.362	102.543	413.229	389.909	360.201	171.228	316.008	0.00036685	0.00029327	8.8883e-05	499.27	3.5855e-06	2.9116e-06	580.07	152.4	2.2852e-06	2.8561e-06	209.52	84.369	54.392	22.862	3.5837e-06	38.411	0.00032589	0.00016413	4.0247e-05	504.99	1.6023e-06	1.5029e-06	587.34	154.55	1.6755e-06	1.4231e-06	212.79	86.129	55.411	23.543	1.7732e-06	39.473	227.249	162.889	193.785	103.106	254.534	244.645	102.320	108.673	269.043	232.454	106.687	112.218	114.069	118.653	246.437	115.804	-8191	255	
1457.562	1	1	0	0	0.26445	0.098786	0.0534	0.021852	0.13933	0.16378	0.072066	0.1943	0.46165	0.1298	0.21544	0.082495	0.10907	0.23864	0.16245	0.2471	-2.3146	-2.9562	-3.0833	-2.7042	-2.9792	-3.0208	-2.8	-3.0333	-2.6521	-2.7542	-2.9208	-2.6542	-2.975	-2.9917	-2.6417	-3.1854	136.192	356.871	424.901	191.341	213.110	159.928	378.337	398.337	258.341	447.212	143.377	241.770	370.145	342.017	208.313	436.962	0.00036206	0.0003093	8.2176e-05	501.5	3.1808e-06	3.76e-06	582.61	151.43	2.294e-06	3.3039e-06	210.02	84.808	53.829	22.74	2.6603e-06	38.653	0.00031493	0.00014096	3.3266e-05	505.88	1.5649e-06	1.5048e-06	587.6	153.61	1.682e-06	1.6088e-06	212.77	86.155	55.061	23.428	1.599e-06	39.607	228.713	187.147	176.152	102.643	265.032	247.534	102.135	108.703	257.252	239.534	106.774	112.137	114.275	118.476	258.319	116.045	-8191	255	
1457.659	1	1	0	0	0.39031	0.23412	0.18804	0.4072	0.069433	0.23422	0.10155	0.16354	0.12018	0.11638	0.25703	0.2549	0.077794	0.062924	0.12811	0.26178	-2.4188	-2.8187	-3.1021	-2.8271	-2.9542	-3.0875	-2.55	-3.0563	-3.1188	-2.7208	-3.1854	-2.8604	-3.0979	-3.1188	-2.6792	-3.1521	402.339	104.606	153.288	141.342	154.773	429.388	223.097	446.106	245.961	268.644	217.420	160.664	340.198	175.260	369.298	170.437	0.00037092	0.00033043	0.00010075	500.02	2.7149e-06	2.6491e-06	581.55	152.21	2.4725e-06	2.7052e-06	210.67	84.658	54.097	22.924	3.4236e-06	38.868	0.00032304	0.00014454	3.6215e-05	506.35	1.6082e-06	1.3485e-06	589.3	154.35	1.607e-06	1.4809e-06	213.6	86.403	55.182	23.543	1.8469e-06	39.694	228.345	177.243	174.209	102.599	242.696	247.909	102.465	108.589	254.121	236.425	106.553	112.122	114.056	118.816	255.253	116.137	-8191	255	
1457.732	1	1	0	0	0.29132	0.073667	0.13155	0.1211	0.16583	0.15347	0.18587	0.050855	0.059933	0.12466	0.15367	0.20935	0.15808	0.11098	0.23189	0.20651	-2.3896	-2.7188	-3.2167	-2.7875	-2.9021	-3.1708	-2.75	-3.0771	-3.0042	-2.7958	-3.0958	-2.5708	-2.7896	-2.9979	-2.5687	-3.1479	266.725	199.186	324.195	260.385	400.291	107.110	144.877	221.634	160.516	193.600	94.793	394.295	358.953	431.419	117.018	343.281	0.00036104	0.00026984	7.7573e-05	501.72	2.4973e-06	3.6624e-06	579.65	151.17	2.7802e-06	2.4585e-06	209	83.913	53.689	22.632	2.2679e-06	38.374	0.00031665	0.00014584	3.3497e-05	506.21	1.4865e-06	1.1676e-06	586.85	153.62	1.6705e-06	1.4922e-06	211.65	85.798	54.885	23.273	1.8518e-06	39.257	227.308	167.240	168.658	102.696	260.062	245.022	102.212	108.605	259.829	227.951	106.770	112.407	113.898	118.833	243.000	116.132	-8191	255	
1457.851	1	1	0	0	0.1462	0.15893	0.11384	0.24355	0.22753	0.1606	0.30759	0.087211	0.10029	0.10875	0.2059	0.038178	0.18381	0.30907	0.11882	0.25639	-2.5708	-2.925	-3.0771	-2.9375	-2.8458	-3.1146	-2.7917	-2.9062	-3.0333	-2.4208	-3.1854	-2.9562	-3.0375	-3.4042	-2.6792	-2.8896	351.098	315.882	256.378	423.307	362.510	410.613	435.746	397.402	273.701	217.031	414.013	361.269	215.906	144.018	268.303	97.025	0.00035715	0.00031291	0.00011356	500.88	2.5867e-06	2.7138e-06	579.89	150.91	2.3109e-06	3.7813e-06	208.99	84.647	53.683	22.779	2.5794e-06	38.863	0.0003105	0.00015121	3.5294e-05	504.68	1.5754e-06	1.1014e-06	586.53	153.24	1.6409e-06	1.6249e-06	212.16	86.23	55.024	23.454	1.6468e-06	39.831	228.751	171.557	177.475	102.881	258.012	251.778	102.298	108.623	258.619	251.137	106.873	112.182	113.855	118.624	258.620	115.668	-8191	255	
1457.947	1	1	0	0	0.32872	0.30249	0.11255	0.16419	0.21829	0.12504	0.1748	0.29323	0.18121	0.088396	0.079705	0.22047	0.15188	0.14415	0.16598	0.18458	-2.5042	-2.6292	-3.1104	-2.7854	-2.7104	-3.3333	-2.8354	-3.05	-3.2229	-2.8	-3.0187	-2.8812	-2.6479	-3.1229	-2.6312	-2.8438	327.590	244.311	283.610	364.201	131.706	264.063	411.579	390.222	243.320	197.438	153.816	408.457	425.652	164.947	264.278	440.939	0.00038004	0.00029277	9.8506e-05	502.08	2.9826e-06	2.9265e-06	584.74	151.76	2.3475e-06	2.9362e-06	209.37	84.9	54.358	22.903	3.0602e-06	38.969	0.00032747	0.00015316	3.7137e-05	505.69	1.6859e-06	1.1515e-06	588.65	153.94	1.385e-06	1.4648e-06	213.12	86.756	55.316	23.603	1.9239e-06	40.019	228.323	179.807	189.206	102.689	264.918	242.751	102.384	108.550	258.479	243.187	107.029	112.235	113.859	118.615	252.266	116.027	-8191	255	
1458.043	1	1	0	0	0.087466	0.055903	0.13491	0.1794	0.078704	0.08103	0.13736	0.09005	0.10417	0.14826	0.19721	0.14678	0.07601	0.11665	0.14279	0.094443	-2.6583	-2.5396	-2.875	-2.9021	-2.7687	-3.1458	-2.6854	-2.8021	-3.1146	-2.7062	-3.125	-3.1458	-2.9604	-3.1437	-2.9437	-2.8146	369.954	148.221	161.909	407.404	205.874	229.485	118.872	135.747	220.778	421.434	321.801	352.362	357.918	111.839	385.088	372.935	0.00035892	0.00032294	7.0665e-05	497.43	3.1728e-06	2.8813e-06	583.23	150.8	2.9533e-06	2.7278e-06	210.62	84.75	53.741	22.687	3.3527e-06	38.7	0.00030899	0.00015844	3.9555e-05	503.5	1.8389e-06	1.3324e-06	588.68	153.19	1.5717e-06	1.4458e-06	212.95	86.334	54.95	23.408	1.851e-06	39.643	227.981	166.009	167.117	102.923	251.168	235.430	102.692	108.445	267.746	237.092	106.536	112.117	114.334	118.816	261.571	116.173	-8191	255	
1458.164	1	1	0	0	0.3841	0.14321	0.087869	0.26382	0.17011	0.40638	0.21745	0.11399	0.19135	0.061822	0.13756	0.45519	0.14359	0.18516	0.23451	0.090648	-2.8354	-2.825	-3.0167	-2.9979	-2.7146	-3.0938	-3.1604	-3.0083	-3.2083	-2.8083	-3.0583	-3.1312	-2.7208	-2.9875	-2.8021	-2.8896	104.529	230.544	260.363	423.095	178.323	410.996	413.818	204.586	106.521	141.874	122.206	396.233	91.741	115.120	167.114	249.703	0.00036564	0.00030734	7.5753e-05	496.73	2.412e-06	2.9497e-06	577.09	149.81	2.3636e-06	2.9899e-06	208.26	84.42	54.324	22.795	3.4818e-06	38.957	0.00031264	0.00013137	3.3635e-05	500.72	1.5694e-06	1.3618e-06	582.88	152.21	1.5068e-06	1.5387e-06	212.14	86.343	55.023	23.522	1.7221e-06	39.964	228.830	172.606	183.925	103.003	244.264	253.013	102.268	108.569	260.591	229.670	106.694	112.261	113.717	118.639	252.916	116.088	-8191	255	
1458.260	1	1	0	0	0.19532	0.19225	0.029371	0.15464	0.13245	0.25848	0.089964	0.11605	0.087593	0.045767	0.074383	0.2345	0.16959	0.32327	0.27412	0.21313	-2.7604	-2.8271	-2.8625	-2.9	-2.7458	-3.2333	-2.925	-2.625	-3.0938	-2.8854	-2.8375	-3.0187	-2.7292	-3.1167	-3.2354	-2.8979	386.067	198.732	445.840	152.176	152.713	403.409	339.525	127.556	108.004	330.341	195.134	109.682	203.985	222.402	245.843	345.421	0.00036127	0.00029511	8.3517e-05	494.02	3.3068e-06	2.5177e-06	581.16	151.05	2.68e-06	3.4669e-06	211.09	85.116	54.129	22.963	3.0364e-06	39.421	0.00031374	0.00013763	3.3427e-05	499.36	1.7023e-06	1.375e-06	586.59	153.44	1.4534e-06	1.6097e-06	213.35	87.019	55.228	23.687	1.7465e-06	40.337	227.856	175.440	191.745	102.835	251.645	238.801	102.122	108.768	259.945	234.345	106.645	112.321	113.832	118.508	265.299	115.792	-8191	255	
1458.356	1	1	0	0	0.047618	0.16971	0.18152	0.29489	0.11797	0.14073	0.29205	0.16799	0.12185	0.28752	0.16106	0.19424	0.061094	0.16414	0.1725	0.048637	-2.7917	-2.9604	-2.7188	-3.1312	-2.8042	-3.0167	-3.1979	-2.7917	-3.0729	-3.0625	-2.7125	-3.2021	-2.7583	-2.6979	-3.0833	-2.5396	113.298	381.650	173.633	117.950	239.272	341.738	417.889	445.269	237.719	98.547	134.643	440.752	440.106	421.581	441.901	294.213	0.00036135	0.00034245	0.00010059	496.29	3.2279e-06	2.6972e-06	587.72	150.55	2.576e-06	3.108e-06	210.27	85.371	54.086	22.929	3.5501e-06	39.252	0.00031722	0.00014804	4.1445e-05	503.09	1.6082e-06	1.2576e-06	590.3	153.45	1.4664e-06	1.4809e-06	213.58	86.932	55.18	23.52	1.7011e-06	40.178	227.226	184.696	183.949	102.856	263.973	234.143	102.374	108.562	258.963	243.845	106.908	112.492	113.817	118.575	252.387	115.833	-8191	255	
1458.452	1	1	0	0	0.19757	0.099346	0.14977	0.099992	0.25232	0.13758	0.15589	0.17097	0.14199	0.16853	0.15327	0.19094	0.22039	0.21448	0.064139	0.19532	-2.5354	-2.8729	-2.675	-3.175	-2.6396	-2.9375	-3.2542	-2.8083	-3.1292	-3.0521	-2.7938	-3.375	-2.9437	-2.9083	-3.3063	-2.7438	190.461	287.024	112.670	208.267	104.480	425.254	149.734	94.402	249.496	274.421	109.131	125.339	394.086	443.148	412.234	129.682	0.00036676	0.00028556	8.7246e-05	497.11	3.0305e-06	2.9253e-06	584.8	150.26	2.5647e-06	3.2495e-06	208.62	85.089	53.889	22.757	3.12e-06	38.722	0.00031454	0.00013893	3.9095e-05	502.72	1.6582e-06	1.5711e-06	589.11	152.91	1.4455e-06	1.5225e-06	213.16	86.763	54.984	23.415	1.5876e-06	39.776	227.476	182.453	187.528	102.902	256.446	246.698	102.204	108.515	263.361	243.928	106.789	112.122	113.778	118.606	249.877	116.004	-8191	255	
1458.547	1	1	0	0	0.091172	0.19671	0.18921	0.23386	0.019273	0.11711	0.074939	0.209	0.066575	0.13555	0.13684	0.15637	0.14306	0.18242	0.26534	0.20242	-2.475	-2.7042	-2.6042	-3.3042	-2.8354	-2.7958	-3.2958	-2.8563	-3.0583	-2.8792	-2.6521	-3.0687	-2.7708	-2.7438	-3.1292	-2.8063	288.071	285.185	318.073	345.269	207.656	429.968	233.356	318.465	292.233	147.223	271.725	109.732	430.322	119.560	280.684	402.563	0.00035332	0.00028773	9.1485e-05	498.23	3.5545e-06	2.9817e-06	580.68	149.74	2.5236e-06	3.6644e-06	209.09	84.526	53.861	22.62	2.7736e-06	38.732	0.00031532	0.00013227	4.4278e-05	503.07	1.6553e-06	1.6014e-06	585.46	152.35	1.6207e-06	1.3795e-06	211.82	86.119	54.848	23.297	1.5114e-06	39.682	226.788	157.259	186.755	102.826	254.937	245.281	102.130	108.469	262.770	226.039	106.862	112.420	113.824	118.446	248.853	116.058	-8191	255	
1458.643	1	1	0	0	0.18881	0.29198	0.19113	0.21521	0.20487	0.24203	0.10029	0.21732	0.0087648	0.26911	0.046369	0.17051	0.14434	0.093958	0.21706	0.056225	-2.7438	-3.0563	-2.6958	-2.9417	-2.7104	-2.5667	-3.0271	-2.7979	-2.8771	-2.9417	-2.5771	-3.0333	-2.6458	-2.7687	-3.1229	-2.9375	247.978	343.902	264.681	433.260	343.667	118.721	391.919	400.757	241.182	133.719	323.396	197.969	340.356	203.906	317.408	285.198	0.00035371	0.00036461	8.4168e-05	493.9	3.0615e-06	2.7837e-06	580.72	149.69	2.755e-06	3.3057e-06	207.05	84.132	53.437	22.515	3.5949e-06	38.371	0.0003144	0.00013836	4.2044e-05	499.82	1.659e-06	1.6269e-06	584.34	152.21	1.7015e-06	1.3511e-06	211.31	85.763	54.423	23.113	1.5827e-06	39.297	227.491	176.814	191.926	102.743	251.931	237.313	102.089	108.695	267.922	242.295	106.909	112.234	113.924	118.697	253.899	116.209	-8191	255	
1458.739	1	1	0	0	0.14315	0.10156	0.25791	0.1988	0.28671	0.14601	0.26699	0.036737	0.035653	0.13147	0.11956	0.24122	0.047289	0.046451	0.13195	0.15519	-2.5792	-3.0458	-2.5729	-3.125	-2.8688	-2.6667	-3.1396	-2.7542	-2.5958	-3.0375	-2.675	-3.0167	-3.0458	-2.7438	-3.2625	-2.8208	276.029	419.073	397.295	223.554	163.140	272.126	102.758	131.176	423.126	390.233	348.600	437.024	131.744	164.479	427.840	350.956	0.00035912	0.00030507	6.6276e-05	491.85	3.3325e-06	2.241e-06	578.16	149.02	2.6815e-06	3.1479e-06	208.13	84.181	53.161	22.464	2.8105e-06	38.596	0.00031012	0.00011869	3.4073e-05	496.87	1.4985e-06	1.3836e-06	582.65	151.55	1.7627e-06	1.316e-06	211.2	85.907	54.431	23.164	1.522e-06	39.598	227.334	170.250	204.617	102.800	258.720	237.692	102.448	108.726	255.342	244.948	106.635	112.216	114.197	118.764	246.139	116.069	-8191	255	
1458.860	1	1	0	0	0.069924	0.078127	0.0056763	0.13974	0.13671	0.20965	0.22089	0.2355	0.22198	0.16739	0.1305	0.1668	0.15991	0.33093	0.30932	0.19477	-2.625	-3.1167	-2.7313	-3.0333	-2.8583	-2.6937	-3.1021	-2.9167	-2.6771	-3.0833	-2.575	-2.9417	-3.0104	-2.6188	-3.1188	-2.9521	358.752	349.176	316.100	400.323	429.660	339.437	391.770	384.855	113.737	414.193	438.596	403.147	164.469	137.027	318.916	408.280	0.00036923	0.00033821	8.0763e-05	493.5	3.1151e-06	2.8921e-06	575.87	148.21	2.6148e-06	3.1826e-06	206.86	82.943	53.106	22.197	2.732e-06	37.805	0.00031704	0.00013202	3.709e-05	497.82	1.4522e-06	1.4906e-06	580.88	150.89	1.7231e-06	1.0128e-06	209.82	84.735	53.997	22.807	1.5463e-06	38.72	227.371	176.567	189.474	102.885	259.828	240.961	102.519	108.613	256.973	252.867	106.850	112.156	114.032	118.578	249.016	116.083	-8191	255	
1458.956	1	1	0	0	0.1932	0.055554	0.13992	0.25231	0.22844	0.13583	0.10429	0.05221	0.057756	0.15101	0.2365	0.17319	0.30985	0.36816	0.16297	0.049813	-2.325	-2.9792	-2.5979	-2.8604	-2.975	-2.4271	-2.9729	-2.9958	-2.6375	-3.0896	-2.8333	-2.975	-3.0563	-2.6979	-3.1562	-3.2375	195.464	398.492	251.804	92.738	434.728	306.900	279.032	338.872	381.721	100.150	438.610	433.314	389.178	415.949	414.976	132.601	0.00035465	0.00029617	0.00010807	489.67	3.2993e-06	3.8281e-06	574.17	147.66	2.2302e-06	3.5105e-06	205.85	82.82	52.306	22.158	3.0668e-06	38.199	0.00031858	0.00013064	4.2919e-05	495.49	1.5836e-06	1.7643e-06	578.52	150.14	1.757e-06	1.4591e-06	208.63	84.372	53.71	22.78	1.6289e-06	38.879	226.585	171.407	177.375	102.680	262.348	240.352	102.633	108.773	253.527	248.791	106.602	112.306	113.817	118.744	261.637	115.717	-8191	255	
1459.027	1	1	0	0	0.14602	0.23781	0.055277	0.22856	0.10545	0.034525	0.12865	0.17507	0.27765	0.22534	0.2994	0.28047	0.3852	0.079924	0.21829	0.37923	-2.4938	-3.1312	-2.8396	-2.8521	-3.0125	-2.6771	-2.9917	-3.1708	-2.4688	-3.1771	-2.7833	-2.9729	-3.2729	-2.5021	-2.8438	-2.9333	257.163	339.961	322.459	197.406	224.546	216.666	372.870	447.048	341.219	384.595	333.285	399.176	411.020	369.344	417.329	346.594	0.00034661	0.00032732	8.1238e-05	492.06	3.7946e-06	3.128e-06	574.41	149.15	2.6191e-06	3.0112e-06	208.54	83.71	53.787	22.472	3.0334e-06	38.58	0.0003089	0.00012682	3.6123e-05	496.42	1.4746e-06	1.5493e-06	579.95	151.25	1.6373e-06	1.4685e-06	210.76	85.547	54.56	23.172	1.526e-06	39.489	228.125	171.591	174.592	102.784	252.278	243.577	102.273	108.621	266.729	241.068	106.926	112.475	113.792	118.705	257.320	115.897	-8191	255	
1459.124	1	1	0	0	0.19092	0.20799	0.15222	0.032478	0.35611	0.026886	0.19196	0.035192	0.15115	0.10178	0.21296	0.36835	0.19694	0.08237	0.060942	0.25663	-2.1646	-3.15	-2.5938	-2.725	-3.1021	-2.6208	-2.9604	-3.0208	-2.6667	-2.9667	-2.8812	-2.6937	-3.1937	-2.6042	-2.7979	-3.05	391.639	170.169	431.411	443.288	344.617	128.548	360.060	364.740	136.601	100.776	337.887	382.897	201.215	132.298	274.183	430.802	0.00036035	0.00025032	9.4186e-05	490.53	3.0495e-06	2.6363e-06	575.46	148.33	2.5687e-06	2.807e-06	207.87	83.863	53.154	22.555	3.7257e-06	38.714	0.00032485	0.00013292	3.9855e-05	496.65	1.4791e-06	1.5843e-06	580.97	150.79	1.7714e-06	1.3501e-06	210.98	85.779	54.29	23.169	1.8137e-06	39.661	226.768	193.660	188.129	102.628	245.541	233.934	102.130	108.612	264.332	243.994	106.723	112.151	113.953	118.500	257.664	116.037	-8191	255	
1459.244	1	1	0	0	0.12329	0.14892	0.09912	0.19762	0.13494	0.17223	0.063092	0.088086	0.067627	0.12964	0.14305	0.038746	0.25378	0.21286	0.10918	0.034115	-1.9708	-2.9958	-2.9417	-2.7875	-3.125	-2.7562	-2.7771	-3.1521	-2.7	-3.0083	-3.075	-2.6562	-3.0333	-2.8292	-2.7792	-3.0896	204.403	130.317	161.656	424.494	442.376	403.852	421.307	188.251	267.981	428.392	442.015	377.216	96.601	417.842	394.429	152.890	0.00037852	0.00036115	7.1814e-05	486.65	3.2576e-06	2.6851e-06	575.99	147.64	2.552e-06	2.8953e-06	206.97	83.432	52.506	22.4	3.237e-06	38.58	0.00033169	0.00013275	3.5823e-05	493.3	1.5881e-06	1.3589e-06	579.23	150.05	1.7822e-06	1.2857e-06	209.63	85.103	53.832	23.031	1.7351e-06	39.345	226.988	177.376	191.752	102.942	257.686	229.659	102.451	108.596	272.148	236.402	106.878	112.474	114.156	118.614	249.169	116.086	-8191	255	
1459.340	1	1	0	0	0.29293	0.18865	0.071017	0.10832	0.18207	0.084537	0.042701	0.20891	0.15683	0.19895	0.078166	0.22707	0.085727	0.0055045	0.23171	0.20064	-2.2562	-2.975	-3.0521	-2.6354	-3.0792	-2.8063	-2.7021	-3.0417	-2.5521	-2.7896	-3.1292	-2.6854	-3.0208	-2.7625	-2.7958	-3.175	330.778	382.995	311.311	295.100	191.097	374.892	262.125	367.849	300.675	410.812	443.344	391.353	293.723	168.325	273.455	320.025	0.00036839	0.00029214	8.6225e-05	485.54	2.4562e-06	2.5818e-06	570.57	147.57	2.2759e-06	2.7199e-06	205.81	83.199	52.822	22.386	2.7e-06	38.495	0.00033026	0.00012942	3.716e-05	490.28	1.2722e-06	1.3741e-06	576.45	149.69	1.8687e-06	1.4562e-06	209.36	84.899	53.84	23.013	1.7059e-06	39.311	227.518	171.965	183.113	102.646	258.495	247.202	102.337	108.560	265.124	246.954	106.838	112.231	113.746	118.812	255.784	116.179	-8191	255	
1459.436	1	1	0	0	0.14925	0.25666	0.29581	0.14572	0.1382	0.30122	0.066704	0.18684	0.24912	0.17014	0.11802	0.099598	0.098395	0.14193	0.16308	0.18866	-2.4667	-3.0021	-3.0312	-2.7938	-2.9458	-2.9979	-2.7771	-3.15	-2.7708	-3.0042	-3.2583	-2.8417	-3.0479	-3.0125	-2.7729	-3.1917	368.356	367.598	315.046	378.869	181.324	278.970	351.985	406.112	147.511	219.508	199.613	344.070	103.253	393.474	241.645	412.958	0.00034996	0.00025038	9.4715e-05	484.59	3.3773e-06	2.7103e-06	570.54	146.18	2.4591e-06	2.7311e-06	205.22	82.825	53.055	22.148	3.0314e-06	38.454	0.00031466	0.00012804	3.5294e-05	489.83	1.5896e-06	1.375e-06	575.23	148.99	1.5479e-06	1.226e-06	208.84	84.77	53.854	22.878	1.7813e-06	39.225	229.158	148.960	171.757	102.923	255.257	246.464	102.615	108.750	272.655	230.755	106.882	112.223	113.900	118.805	259.933	116.129	-8191	255	
1459.533	1	1	0	0	0.2304	0.082987	0.13937	0.04231	0.16764	0.24868	0.045501	0.1602	0.12542	0.27283	0.24801	0.28612	0.22396	0.28379	0.20411	0.068647	-2.3417	-2.8833	-3.2333	-2.7896	-3.0542	-3.1271	-2.8708	-3.2438	-3.0333	-2.9833	-3.2708	-2.8583	-3.1167	-2.8458	-2.55	-3.0458	239.423	323.436	302.503	439.918	450.503	98.469	147.850	103.448	279.854	373.393	94.359	397.490	411.204	116.309	159.848	394.060	0.00035004	0.00033904	9.0171e-05	482.67	2.6002e-06	3.6906e-06	570.81	146.57	2.4715e-06	2.8911e-06	207.44	83.592	53.023	22.293	3.4659e-06	38.455	0.00031633	0.0001443	2.9995e-05	488.41	1.4865e-06	1.3258e-06	574.89	149.28	1.6733e-06	1.5102e-06	210.3	85.381	54.034	23.049	1.7108e-06	39.35	225.727	174.993	188.952	103.026	258.965	244.976	102.396	108.710	252.244	236.848	106.769	112.681	113.908	118.819	246.052	116.356	-8191	255	
1459.651	1	1	0	0	0.11423	0.10618	0.13877	0.16919	0.13152	0.095824	0.066107	0.22357	0.071914	0.15174	0.21406	0.25947	0.097236	0.1397	0.034882	0.074349	-2.3042	-2.7542	-3.2812	-2.8563	-2.9188	-3.0354	-2.6646	-3.1854	-2.8312	-2.5792	-2.9833	-2.8271	-2.7875	-2.9208	-2.5812	-3.0438	94.124	406.938	346.139	328.690	255.268	450.445	391.065	256.685	235.306	199.325	414.435	332.847	396.084	417.243	183.657	162.183	0.00035373	0.00029178	7.4046e-05	480.68	2.4858e-06	2.6738e-06	569.08	146.97	2.5416e-06	3.1886e-06	205.82	83.518	52.778	22.331	3.3961e-06	38.018	0.00030765	0.00012877	3.4625e-05	485.84	1.5358e-06	1.2245e-06	573.51	148.91	1.6885e-06	1.46e-06	209.09	85.138	53.8	22.923	1.7983e-06	38.937	229.387	171.686	172.442	102.890	252.159	229.819	102.419	108.504	258.293	258.107	106.681	112.466	114.056	118.821	251.086	116.084	-8191	255	
1459.725	1	1	0	0	0.081607	0.045283	0.20463	0.11113	0.031532	0.17459	0.25532	0.25723	0.026575	0.034247	0.10678	0.11285	0.065402	0.25179	0.10487	0.19275	-2.5229	-2.6021	-3.1396	-3.0646	-2.9854	-3.1854	-2.7354	-2.9625	-2.8688	-2.5708	-2.9604	-2.6604	-2.5854	-3.0958	-2.5833	-2.9333	354.013	301.583	302.719	241.737	365.587	142.870	341.813	215.621	99.883	290.658	417.916	319.935	162.735	436.750	350.738	393.164	0.00035766	0.00029279	9.2292e-05	479.87	3.3444e-06	2.9881e-06	563.66	146.01	2.5243e-06	2.8831e-06	205.16	82.577	52.248	22.082	3.8039e-06	37.804	0.00031579	0.00013755	3.3681e-05	485.34	1.6635e-06	1.197e-06	570.87	148.4	1.6423e-06	1.6201e-06	208.19	84.36	53.449	22.71	1.9547e-06	38.663	227.610	186.402	181.588	102.811	255.899	234.141	102.431	108.614	255.670	250.722	107.081	112.379	113.730	118.438	267.787	116.200	-8191	255	
1459.844	1	1	0	0	0.1282	0.14874	0.16258	0.068631	0.10765	0.11521	0.28199	0.14893	0.23655	0.2408	0.15392	0.23885	0.077412	0.19385	0.10292	0.14468	-2.5271	-2.4688	-3.0812	-2.8979	-2.8521	-3.1937	-2.6833	-3.1875	-2.975	-2.7313	-3.0417	-2.9958	-2.5521	-3.1417	-2.6167	-2.9688	145.111	157.861	171.962	368.788	392.603	320.322	327.441	415.682	387.710	221.503	118.771	427.797	442.956	159.637	368.539	232.047	0.00036077	0.00025913	0.0001122	484.37	2.6417e-06	3.0154e-06	565.47	146.11	2.7567e-06	3.2228e-06	204.85	83.145	52.201	22.024	2.9884e-06	38.152	0.00031282	0.00014178	3.557e-05	487.82	1.5843e-06	1.1137e-06	571.95	148.41	1.4765e-06	1.6685e-06	207.99	84.513	53.369	22.679	1.6022e-06	38.867	229.304	180.856	184.931	102.856	254.281	244.101	102.303	108.424	248.628	243.202	106.899	112.226	113.870	118.418	250.697	115.663	-8191	255	
1459.940	1	1	0	0	0.15116	0.26066	0.13537	0.084029	0.22024	0.10537	0.23171	0.13913	0.10518	0.11224	0.23821	0.3034	0.084417	0.044449	0.30801	0.13089	-2.5312	-2.4562	-3.175	-2.9604	-2.6688	-3.0667	-2.7125	-2.9583	-3.0208	-2.7542	-3.2292	-2.7354	-2.5146	-2.9208	-2.85	-2.8958	120.364	184.824	130.168	414.523	346.952	137.375	442.424	295.312	204.221	262.732	92.086	132.676	407.715	294.843	372.941	251.044	0.00035756	0.00023552	8.51e-05	480.67	2.7552e-06	3.416e-06	569.92	145.98	2.9242e-06	3.3106e-06	205	82.894	52.279	21.859	2.9698e-06	37.75	0.00030385	0.00013771	3.3381e-05	487.06	1.715e-06	1.3589e-06	573.57	148.25	1.656e-06	1.6097e-06	208.24	84.478	53.263	22.532	1.6687e-06	38.681	228.074	180.083	175.257	103.061	257.451	252.042	102.247	108.819	262.885	236.728	106.839	112.566	114.048	118.831	259.718	116.155	-8191	255	
1460.036	1	1	0	0	0.19679	0.16423	0.10222	0.034741	0.39982	0.12741	0.27324	0.20858	0.22474	0.26781	0.19278	0.28998	0.06066	0.14821	0.26574	0.17012	-2.5521	-2.6354	-2.7104	-2.7938	-2.4271	-2.9229	-2.8	-2.7833	-3.1813	-2.6292	-2.8604	-2.9396	-2.7167	-3.0833	-2.9542	-2.875	267.046	149.924	409.374	276.624	205.952	116.130	417.968	151.041	367.796	169.608	348.559	437.342	119.740	376.650	95.923	109.385	0.00034569	0.00025593	7.5744e-05	478.54	3.2144e-06	2.6033e-06	566.48	144.13	2.3265e-06	2.9257e-06	202.25	81.905	51.933	21.665	2.9215e-06	37.202	0.00029535	0.00013714	3.9371e-05	484	1.5201e-06	1.1629e-06	570.46	147.02	1.545e-06	1.5424e-06	205.77	83.542	52.912	22.303	1.6857e-06	38.155	225.609	176.191	177.579	102.901	256.223	248.899	102.314	108.631	268.324	236.409	106.830	112.236	114.096	118.654	259.583	116.145	-8191	255	
1460.132	1	1	0	0	0.04696	0.18145	0.22532	0.098617	0.15413	0.046903	0.15729	0.13705	0.35261	0.13116	0.031065	0.12258	0.30122	0.23146	0.40734	0.1853	-2.7375	-2.5146	-2.6979	-2.9771	-2.6354	-3.1979	-2.9688	-2.7042	-2.9521	-2.6437	-2.9313	-2.9521	-2.4958	-2.9792	-2.8125	-2.9042	134.872	441.782	167.133	147.692	284.663	106.958	383.252	418.113	337.605	140.649	191.206	388.325	115.129	102.192	417.939	430.252	0.00035329	0.00029262	9.2911e-05	480.49	2.9138e-06	2.9767e-06	563.81	143.82	2.651e-06	2.6901e-06	202.88	81.908	51.514	21.663	2.7045e-06	37.434	0.00030168	0.00015251	4.1053e-05	483.25	1.6769e-06	1.3097e-06	568.58	147.04	1.5255e-06	1.4458e-06	206	83.502	52.674	22.239	1.5844e-06	38.287	228.875	169.218	183.118	102.633	259.497	251.766	102.218	108.671	263.652	237.595	106.787	112.390	114.101	118.830	267.090	115.980	-8191	255	
1460.253	1	1	0	0	0.10326	0.063439	0.067836	0.23218	0.14343	0.24432	0.15024	0.068449	0.084088	0.15479	0.094641	0.32975	0.15507	0.099638	0.22629	0.070348	-2.6792	-2.7896	-2.9292	-3.1167	-2.6188	-3.0979	-3.0542	-2.6333	-3.1708	-2.7354	-2.8854	-3.0646	-2.6854	-2.9292	-2.9604	-2.5375	162.098	410.917	431.063	396.029	419.331	111.255	218.287	103.019	173.625	224.497	169.873	432.802	102.747	256.327	279.145	299.900	0.00034321	0.00036752	7.9615e-05	480.28	3.1473e-06	2.4016e-06	564.24	144.43	2.8018e-06	2.8965e-06	202.17	81.416	51.545	21.307	2.4632e-06	37.045	0.00029387	0.00014413	4.1514e-05	484.87	1.597e-06	1.1222e-06	569.54	146.97	1.4909e-06	1.4051e-06	205.76	83.192	52.431	22.005	1.4912e-06	37.889	227.661	186.006	189.126	102.688	252.523	251.816	102.102	108.546	265.697	245.204	106.696	112.228	113.968	118.827	269.369	116.220	-8191	255	
1460.325	1	1	0	0	0.18456	0.13905	0.12603	0.07162	0.11117	0.15104	0.28242	0.033662	0.18516	0.056356	0.1831	0.16122	0.27481	0.13016	0.030551	0.080556	-2.6833	-2.9188	-2.6437	-3.1625	-2.4729	-2.8625	-2.9479	-2.6104	-2.9583	-3.0167	-2.7458	-3.2042	-2.6479	-2.7812	-2.9708	-2.5187	153.377	335.349	322.995	402.254	148.302	351.656	341.446	427.156	332.487	126.603	220.149	305.588	131.189	341.719	200.406	424.779	0.00033765	0.00032803	0.0001043	480.72	2.6664e-06	1.849e-06	565.34	143.61	2.3018e-06	3.2569e-06	202.86	80.934	51.077	21.204	2.8669e-06	36.633	0.00029197	0.00013283	3.9855e-05	484.38	1.6523e-06	1.2813e-06	570.18	146.35	1.4282e-06	1.3548e-06	205.46	82.691	52.154	21.815	1.6006e-06	37.571	227.301	172.405	177.844	102.915	264.360	229.270	102.329	108.554	265.907	235.840	106.811	112.388	113.663	118.448	248.525	116.306	-8191	255	
1460.421	1	1	0	0	0.073934	0.024606	0.20153	0.11791	0.11579	0.15026	0.10789	0.18838	0.13266	0.14315	0.274	0.29267	0.16541	0.04862	0.18642	0.19495	-2.4667	-2.7333	-2.5125	-3.0479	-2.7458	-2.8583	-3.0438	-2.5771	-3.0021	-2.9771	-2.7375	-3.025	-2.7313	-2.8354	-3.0375	-2.5854	314.684	346.288	117.641	361.879	168.292	111.361	318.793	313.665	335.927	377.525	276.798	428.639	315.741	278.481	151.189	422.487	0.00034826	0.00029332	8.5143e-05	479.3	2.5002e-06	2.9176e-06	562.74	143.09	2.4206e-06	2.9935e-06	202.13	80.65	50.937	21.17	2.6899e-06	36.624	0.00030079	0.00013893	4.1445e-05	483.28	1.5784e-06	1.3675e-06	567.03	145.68	1.527e-06	1.2146e-06	204.74	82.302	52.006	21.821	1.5293e-06	37.601	227.548	177.095	186.383	102.965	266.576	242.761	102.273	108.350	265.090	241.563	106.719	112.430	114.061	118.475	231.634	116.099	-8191	255	
1460.540	1	1	0	0	0.28886	0.064878	0.23629	0.25694	0.20307	0.053636	0.09379	0.13754	0.38507	0.19648	0.18214	0.10565	0.12818	0.069468	0.22338	0.37632	-2.5479	-2.9062	-2.5187	-2.9958	-2.5479	-2.7479	-3.225	-2.5771	-2.7625	-2.7021	-2.5229	-3.0396	-2.8083	-2.5917	-3.1292	-2.8417	110.611	419.068	266.790	379.750	226.922	219.096	413.548	426.847	156.003	389.836	314.514	416.607	367.678	114.067	338.600	90.929	0.00034307	0.000285	6.89e-05	477.35	3.0218e-06	2.9095e-06	558.58	143.33	2.7305e-06	2.862e-06	201.94	81.316	51.265	21.351	3.6993e-06	36.925	0.00030317	0.00012048	4.3057e-05	481.09	1.5395e-06	1.3258e-06	565.72	145.67	1.5162e-06	1.4733e-06	204.71	82.777	52.235	21.974	1.5098e-06	37.885	230.280	180.675	193.169	102.871	252.037	227.573	102.383	108.287	252.958	231.014	106.771	112.275	113.942	118.496	250.980	116.222	-8191	255	
1460.636	1	1	0	0	0.21899	0.12776	0.19223	0.24294	0.17331	0.076607	0.30418	0.01052	0.15106	0.24451	0.25995	0.44377	0.20566	0.21291	0.22852	0.1056	-2.6021	-2.8812	-2.5625	-3.1688	-2.7271	-2.5938	-3.0583	-2.5187	-2.8812	-2.9625	-2.5042	-3.1833	-2.9792	-2.8958	-3.2083	-2.8979	163.574	261.220	130.844	424.327	198.079	176.571	98.774	324.141	398.668	103.914	377.845	359.686	434.959	190.665	232.406	134.917	0.00036182	0.00030331	6.5875e-05	474.31	2.8233e-06	2.4631e-06	561.2	143.53	2.4429e-06	2.7239e-06	201.66	81.495	51.233	21.459	3.2828e-06	37.476	0.00031015	0.00012284	4.0707e-05	479.99	1.441e-06	1.1979e-06	565.42	145.77	1.6286e-06	1.1417e-06	204.93	83.011	52.266	22.055	1.4669e-06	38.3	228.375	181.581	180.041	102.832	256.761	257.172	102.353	108.517	264.131	236.736	106.866	112.352	113.878	118.721	259.803	116.097	-8191	255	
1460.732	1	1	0	0	0.11864	0.1054	0.30122	0.072951	0.11226	0.079614	0.04874	0.059166	0.078257	0.2391	0.28004	0.10081	0.074661	0.13914	0.1532	0.14629	-2.5625	-3.0687	-2.5042	-2.9167	-2.8063	-2.4542	-3.0417	-2.9521	-2.8271	-3.0687	-2.5083	-2.9979	-2.8417	-2.5292	-2.9125	-2.9042	230.733	306.348	304.298	255.167	291.532	280.445	218.849	412.834	275.555	409.739	421.134	286.688	101.387	127.906	152.488	131.834	0.00035987	0.00031583	7.8526e-05	476.62	2.7992e-06	2.887e-06	561.08	143.62	2.3958e-06	2.918e-06	203.54	81.943	51.471	21.623	3.1229e-06	37.272	0.00030798	0.0001217	4.3956e-05	480.87	1.4903e-06	1.3892e-06	566.07	146.46	1.6661e-06	1.4212e-06	206.12	83.505	52.544	22.266	1.7554e-06	38.18	229.306	167.842	182.861	102.658	264.226	249.938	102.476	108.683	260.316	230.964	106.965	112.282	114.075	118.687	263.360	115.991	-8191	255	
1460.828	1	1	0	0	0.15995	0.1701	0.35748	0.10399	0.12499	0.11889	0.044142	0.22817	0.19357	0.19982	0.091423	0.04226	0.17483	0.20898	0.092706	0.19604	-2.3833	-3.0375	-2.4167	-3.0271	-2.975	-2.6083	-3.1625	-2.725	-2.8021	-3.0083	-2.6354	-2.8937	-3.0229	-2.4958	-3.0625	-2.9146	181.954	334.857	257.068	450.522	374.921	190.266	95.995	404.763	386.548	421.893	411.614	310.701	364.552	294.419	305.463	138.881	0.00034171	0.00032416	8.4357e-05	472.71	2.7774e-06	3.079e-06	556.1	143.7	2.1304e-06	2.9085e-06	201.6	81.125	51.327	21.227	3.0192e-06	36.988	0.00029877	0.00012942	3.6745e-05	477.13	1.4619e-06	1.5048e-06	562.17	145.52	1.5472e-06	1.407e-06	204.33	82.579	52.331	21.96	1.5771e-06	37.828	229.165	178.236	182.415	102.725	260.114	256.572	102.413	108.537	255.295	245.868	106.805	112.493	113.699	118.583	259.117	115.895	-8191	255	
1460.924	1	1	0	0	0.28303	0.22226	0.1409	0.16853	0.075486	0.12697	0.2648	0.091785	0.13206	0.40696	0.073625	0.020086	0.034656	0.18739	0.092102	0.12142	-2.4521	-3.1167	-2.6958	-3.0271	-3.2458	-2.6479	-3.0896	-2.9208	-2.7375	-3.1813	-2.9813	-2.9458	-3.1083	-2.7062	-2.9437	-2.8625	365.843	369.463	170.577	142.773	204.847	145.037	400.208	429.947	223.650	367.990	401.120	376.249	433.450	221.195	188.894	122.166	0.00034403	0.00029914	9.1686e-05	471.91	2.6657e-06	3.4308e-06	556.81	142.69	2.2666e-06	2.7953e-06	199.87	81.419	51.164	21.349	2.7808e-06	36.888	0.0003053	0.00011804	4.1997e-05	477.27	1.3208e-06	1.4584e-06	561.04	145.23	1.6647e-06	1.1644e-06	203.74	82.764	52.199	21.925	1.6241e-06	37.754	227.671	186.029	183.874	102.695	254.386	247.335	102.196	108.496	261.053	236.175	106.637	112.286	113.803	118.448	251.221	115.616	-8191	255	
1461.020	1	1	0	0	0.19198	0.11869	0.27584	0.13597	0.10175	0.21752	0.082527	0.17194	0.11041	0.085711	0.048866	0.14424	0.032609	0.12807	0.20104	0.23901	-2.1021	-3.0583	-2.6208	-2.5521	-3.1021	-2.5812	-2.9354	-2.8917	-2.6083	-3.05	-2.7896	-2.6667	-3.0458	-2.5375	-2.9188	-3.0042	255.916	312.059	314.894	242.157	227.191	348.443	271.501	434.368	428.089	156.180	371.656	184.728	315.615	342.158	329.215	413.882	0.00033751	0.00027676	7.3177e-05	472.77	3.2334e-06	2.8297e-06	558.7	143.52	2.6233e-06	3.1361e-06	201.22	81.23	51.268	21.425	2.5888e-06	37.151	0.00030046	0.00011771	3.8334e-05	477.29	1.4679e-06	1.394e-06	564.59	145.65	1.6979e-06	1.3624e-06	204.93	83.061	52.174	22	1.6516e-06	38.061	228.268	188.377	195.400	102.735	258.922	255.383	102.173	108.689	263.368	227.152	106.686	112.466	113.807	118.524	264.141	116.437	-8191	255	
1461.116	1	1	0	0	0.1455	0.16087	0.192	0.24843	0.21658	0.073164	0.21692	0.33545	0.30162	0.22469	0.13995	0.28182	0.091882	0.13446	0.17385	0.16147	-2.0417	-2.9042	-2.9021	-2.8	-3.0271	-2.7792	-2.8979	-3.0563	-2.6917	-3.0292	-2.9375	-2.8021	-3.1813	-2.7146	-2.8146	-3.1813	230.846	383.395	166.775	265.503	415.967	342.622	347.416	389.732	437.373	199.650	426.744	387.608	318.001	154.489	148.925	162.753	0.00034809	0.00027144	0.00010125	473.58	3.4207e-06	3.0323e-06	560.68	142.93	2.2702e-06	2.4271e-06	201.78	81.326	50.991	21.184	3.1227e-06	36.914	0.00030777	0.00012397	3.974e-05	478.23	1.5679e-06	1.144e-06	563.96	145.62	1.6539e-06	1.0555e-06	205.12	82.83	52.12	21.873	1.6857e-06	37.718	228.025	172.228	182.673	102.659	249.425	241.443	102.331	108.518	262.983	240.576	107.101	112.189	113.876	118.533	258.885	116.458	-8191	255	
1461.213	1	1	0	0	0.068511	0.16551	0.16529	0.24773	0.18156	0.13347	0.27936	0.19553	0.032105	0.09102	0.29012	0.12607	0.17844	0.20567	0.010402	0.08782	-2.1854	-2.8042	-2.8292	-2.9021	-3.1354	-2.825	-2.8604	-3.0667	-2.6854	-3.1729	-3.0187	-2.75	-2.9917	-2.5792	-2.6646	-3.175	105.422	288.003	404.872	450.403	128.056	139.265	445.869	421.877	328.351	320.010	403.979	199.497	334.049	391.992	371.912	243.178	0.00035055	0.00025153	7.7618e-05	470.06	3.1773e-06	2.4912e-06	557.2	143.39	2.6534e-06	3.003e-06	200.41	81.474	51.124	21.2	2.3998e-06	36.76	0.00031493	0.00012869	3.504e-05	476.21	1.4328e-06	1.5114e-06	560.71	145.45	1.6575e-06	1.4287e-06	203.94	82.702	52.014	21.84	1.7108e-06	37.798	228.721	174.859	185.423	102.936	253.476	247.813	102.342	108.754	263.306	232.481	106.871	112.340	113.869	118.723	258.474	116.041	-8191	255	
1461.331	1	1	0	0	0.13554	0.075567	0.15426	0.12362	0.092084	0.02372	0.13966	0.092311	0.32879	0.22091	0.11825	0.087055	0.087258	0.32338	0.088433	0.14054	-2.2917	-3.1396	-2.9958	-2.8292	-3.2958	-3.0146	-2.9229	-3.2938	-2.8104	-3.1312	-3.1333	-2.775	-3.1146	-2.9646	-2.8979	-3.1604	240.757	231.752	271.821	250.576	312.213	337.139	115.161	353.229	221.894	256.761	175.124	352.137	168.986	124.401	443.347	269.534	0.00033915	0.00024434	9.9283e-05	470.13	3.5018e-06	2.0013e-06	557.7	142.48	2.1834e-06	2.8893e-06	201.62	81.261	50.821	21.139	2.9961e-06	36.901	0.00031134	0.00011958	3.5708e-05	475.15	1.4186e-06	1.2207e-06	560.99	145.1	1.6935e-06	1.298e-06	204.47	82.655	51.937	21.787	1.6403e-06	37.685	227.498	181.784	180.998	102.854	245.810	237.730	102.383	108.731	268.212	239.375	106.799	112.635	113.706	118.684	256.712	116.123	-8191	255	
1461.428	1	1	0	0	0.10058	0.30267	0.089679	0.094582	0.097995	0.10242	0.22456	0.1218	0.1124	0.13484	0.081951	0.24259	0.15839	0.38317	0.055072	0.087353	-2.4188	-3.0354	-3.2146	-2.725	-3.1063	-3.0687	-2.7333	-3.2042	-2.6583	-2.9833	-3.0208	-2.8167	-3.1292	-3.1063	-2.7854	-3.2562	218.611	370.368	224.963	326.918	325.284	431.067	235.107	355.189	380.030	303.416	443.248	408.792	125.520	109.124	101.580	264.610	0.00034607	0.00027948	7.0308e-05	470.53	4.0017e-06	2.9932e-06	559.66	142.43	2.8636e-06	3.6624e-06	201.76	81.258	51.041	21.203	2.8159e-06	36.855	0.00030412	0.00013901	3.0824e-05	475.5	1.429e-06	1.2264e-06	561.95	144.88	1.788e-06	1.7016e-06	204.34	82.889	51.845	21.758	1.5001e-06	37.805	225.925	177.298	182.248	102.785	263.048	257.398	102.512	108.463	263.460	238.888	106.640	112.275	114.388	118.648	243.084	116.026	-8191	255	
1461.524	1	1	0	0	0.33766	0.1737	0.083906	0.079279	0.39474	0.13422	0.17932	0.06695	0.082967	0.30248	0.12098	0.31646	0.11014	0.092574	0.17654	0.013074	-2.3646	-2.7	-2.9354	-2.6333	-2.9083	-3.1375	-2.8438	-3.225	-2.7562	-2.8937	-3.0812	-2.6354	-3.0333	-3.1437	-2.8354	-3.2625	347.829	120.836	274.076	119.584	249.565	175.613	368.495	400.555	97.748	371.107	391.734	111.530	436.799	347.411	280.146	329.890	0.00033528	0.00029035	6.6327e-05	471.97	2.9353e-06	2.5785e-06	555.41	143.04	2.3776e-06	2.6809e-06	201.11	81.125	50.798	21.077	2.7316e-06	36.79	0.00029862	0.00013747	2.8129e-05	477.54	1.6015e-06	1.1118e-06	563.96	145.34	1.5428e-06	1.5368e-06	204.88	82.68	51.86	21.739	1.7886e-06	37.793	228.316	174.835	187.934	102.913	266.621	258.659	102.665	108.534	257.925	243.230	106.864	112.716	113.902	118.817	249.654	116.103	-8191	255	
1461.620	1	1	0	0	0.031571	0.25727	0.071165	0.20972	0.10226	0.23204	0.010759	0.3485	0.3702	0.274	0.060247	0.18711	0.20794	0.14954	0.18602	0.11685	-2.3271	-2.6458	-3.0646	-2.675	-3.0062	-2.9271	-2.6667	-3.0479	-2.975	-2.7458	-3.3104	-2.8646	-3.025	-3.1667	-2.5917	-3.0458	129.459	202.162	121.959	221.924	365.876	291.660	357.867	371.643	419.480	265.367	292.055	248.973	393.609	388.728	168.380	240.192	0.00035192	0.00031437	8.2952e-05	469.93	2.6123e-06	2.9125e-06	554.38	141.91	2.3497e-06	3.0373e-06	200.69	81.209	50.645	21.04	2.8695e-06	36.835	0.0003048	0.00014422	3.4234e-05	475.65	1.4305e-06	1.448e-06	559.92	144.54	1.4419e-06	1.3804e-06	203.96	82.393	51.646	21.612	1.7764e-06	37.699	227.573	176.265	187.679	102.873	270.420	243.660	102.307	108.795	274.637	226.740	106.969	112.416	114.088	118.464	254.339	115.956	-8191	255	
1461.716	1	1	0	0	0.13102	0.057924	0.087467	0.076935	0.17612	0.1593	0.048209	0.053469	0.34378	0.093654	0.32299	0.19994	0.22002	0.17281	0.096849	0.046662	-2.3375	-2.6083	-2.9437	-2.5396	-2.9021	-3.0958	-2.8917	-3.1771	-3.1063	-2.6875	-3.175	-2.9188	-2.7062	-2.9437	-2.4917	-2.9062	446.097	167.785	126.598	376.421	327.760	114.333	423.527	280.464	112.952	216.312	450.548	94.598	99.932	384.247	118.482	404.966	0.00033106	0.00029326	7.9248e-05	467.39	2.6829e-06	3.3354e-06	554.51	142.31	2.3159e-06	2.9711e-06	201.11	80.741	50.339	20.852	3.0602e-06	36.723	0.00029087	0.00014267	3.034e-05	472.36	1.5298e-06	1.197e-06	558.92	144.52	1.3857e-06	1.479e-06	203.49	82.205	51.433	21.521	1.7027e-06	37.583	226.364	171.538	186.932	102.579	254.497	239.586	102.455	108.815	259.656	248.360	106.898	112.132	113.914	118.699	261.960	115.990	-8191	255	
1461.837	1	1	0	0	0.10893	0.14511	0.18307	0.14529	0.072722	0.085275	0.076598	0.095788	0.056976	0.18347	0.26245	0.041238	0.14434	0.068991	0.24125	0.40707	-2.5292	-2.4542	-3.0208	-2.5229	-2.4562	-2.9542	-2.7208	-2.8354	-3.0417	-2.6396	-2.9396	-2.8771	-2.7479	-3.2667	-2.8396	-2.8563	441.047	339.137	121.818	389.198	296.640	321.278	344.667	358.973	169.818	357.973	181.918	123.612	285.610	376.026	207.422	418.610	0.00033015	0.00024212	9.0706e-05	469.83	3.4769e-06	3.587e-06	557.81	142.15	2.245e-06	2.5291e-06	200.79	80.796	50.727	21.015	3.6077e-06	36.916	0.00029559	0.00015365	3.4787e-05	474.08	1.6724e-06	1.2955e-06	560.71	144.54	1.4484e-06	1.2971e-06	204.08	82.339	51.571	21.568	1.7311e-06	37.747	228.309	178.494	179.153	102.917	256.778	232.554	102.214	108.575	248.756	236.848	107.102	112.482	114.113	118.774	264.120	116.032	-8191	255	
1461.933	1	1	0	0	0.064425	0.11803	0.1534	0.18044	0.014846	0.1714	0.17536	0.17848	0.20714	0.15968	0.12055	0.091206	0.040905	0.14499	0.083314	0.034903	-2.6042	-2.65	-2.9958	-3.0167	-2.6896	-3.0917	-2.7479	-2.9896	-3.0521	-2.7438	-3.2	-3.05	-2.8312	-3.0979	-2.8875	-3.0771	445.538	283.378	280.875	430.590	363.642	275.549	335.939	364.931	266.713	348.671	447.690	443.789	143.875	356.420	219.124	297.555	0.00034133	0.00019172	9.4189e-05	468.34	2.4279e-06	3.523e-06	553.83	141.62	2.3786e-06	3.6199e-06	201.03	80.966	50.468	20.891	2.4643e-06	36.564	0.00029387	0.00014487	3.3842e-05	474.27	1.5365e-06	1.2519e-06	561.6	144.13	1.4527e-06	1.4562e-06	203.95	82.384	51.439	21.492	1.5244e-06	37.542	230.020	169.865	177.938	102.528	257.650	230.539	102.167	108.466	248.241	234.433	107.089	112.518	113.969	118.611	251.893	116.240	-8191	255	
1462.027	1	1	0	0	0.20783	0.20903	0.020793	0.075616	0.25129	0.1207	0.069901	0.21369	0.04864	0.28559	0.030747	0.1123	0.040694	0.18806	0.13029	0.19989	-2.6083	-2.5417	-3.0583	-3.0083	-2.7562	-3.2271	-2.9667	-2.9958	-3.2479	-2.7188	-2.9083	-3.0125	-2.5479	-3.0042	-2.8896	-2.9521	263.368	109.472	124.015	114.955	187.095	219.129	155.341	341.964	267.863	133.379	271.038	144.928	158.094	326.438	127.780	98.901	0.00032836	0.00027545	7.5222e-05	468.37	2.7331e-06	2.8195e-06	553.97	141.64	2.6535e-06	3.4345e-06	201.35	80.374	50.13	20.745	2.6316e-06	36.329	0.00028258	0.0001308	3.1838e-05	473.16	1.5336e-06	1.2197e-06	558.6	143.67	1.5219e-06	1.5159e-06	203.82	81.976	51.121	21.317	1.5674e-06	37.303	231.285	175.312	188.859	102.765	244.907	239.512	102.581	108.442	267.845	238.827	106.455	112.276	113.983	118.871	258.952	116.012	-8191	255	
1462.123	1	1	0	0	0.165	0.065443	0.14765	0.29897	0.12581	0.14649	0.062283	0.1876	0.42122	0.031642	0.08474	0.25062	0.16399	0.082422	0.23876	0.18819	-2.8937	-2.6667	-2.7417	-3.0229	-2.5771	-3.2438	-3.1	-2.8563	-3.1875	-2.7521	-3.1375	-3.1854	-2.5958	-3.1771	-3.0042	-2.8167	422.800	216.650	131.485	347.206	293.626	402.629	123.981	329.688	224.484	404.245	422.012	121.504	343.172	320.031	115.417	401.970	0.00034784	0.00029301	7.634e-05	465.15	2.9148e-06	2.1294e-06	550.81	140.88	2.7742e-06	2.9759e-06	200	80.169	49.996	20.747	3.1497e-06	36.493	0.00029785	0.0001221	3.2921e-05	470.76	1.5224e-06	1.1705e-06	556.78	143.31	1.4484e-06	1.5188e-06	202.7	81.677	51.029	21.303	1.5179e-06	37.417	227.389	169.164	180.082	102.843	253.467	255.045	102.512	108.625	267.914	250.040	107.099	112.335	114.192	118.632	268.447	116.191	-8191	255	
#DATA ENDS
