BOXY.EXE: ISS Imagent and Oximeter Data Acquisition Program Version 0.80
Ascii Record File

#ACQ INFORMATION
2  Detector Channels 
16  External MUX Channels 
1  Auxiliary Channels 
5000  Waveform (CCF) Frequency (Hz)
1  Waveforms Skipped 
30  Waveforms Averaged 
1  Cycles Averaged 
16  Acquisitions per Waveform 
10.0806  Updata Rate (Hz) 

#FILE INFORMATION
TRUE -- External MUX Channel results are PARSED.
FALSE -- AC DC and Phase are NOT grouped.
TRUE -- Companion Program Settings File CREATED.
FALSE -- AC data not excluded
FALSE -- DC data not excluded
FALSE -- Phase data not excluded
FALSE -- Auxillary Chn. data not excluded
Tab delimiters

#CALIBRATION STATE
TRUE -- Waveform Calibration Values APPLIED.


#AUX CALIBRATION VALUES
Val Type	aux-1	

Term	1.0000e+00	
Factor	0.0000e+00	


#WF CALIBRATION VALUES
A = Detector Channel
Val Type	A-AC1	A-AC2	A-AC3	A-AC4	A-AC5	A-AC6	A-AC7	A-AC8	A-AC9	A-AC10	A-AC11	A-AC12	A-AC13	A-AC14	A-AC15	A-AC16	A-DC1	A-DC2	A-DC3	A-DC4	A-DC5	A-DC6	A-DC7	A-DC8	A-DC9	A-DC10	A-DC11	A-DC12	A-DC13	A-DC14	A-DC15	A-DC16	A-Ph1	A-Ph2	A-Ph3	A-Ph4	A-Ph5	A-Ph6	A-Ph7	A-Ph8	A-Ph9	A-Ph10	A-Ph11	A-Ph12	A-Ph13	A-Ph14	A-Ph15	A-Ph16	

Term	0.00000e+00	0.00000e+00	0.00000e+00	0.00000e+00	0.00000e+00	0.00000e+00	0.00000e+00	0.00000e+00	0.00000e+00	0.00000e+00	0.00000e+00	0.00000e+00	0.00000e+00	0.00000e+00	0.00000e+00	0.00000e+00	0.00000e+00	0.00000e+00	0.00000e+00	0.00000e+00	0.00000e+00	0.00000e+00	0.00000e+00	0.00000e+00	0.00000e+00	0.00000e+00	0.00000e+00	0.00000e+00	0.00000e+00	0.00000e+00	0.00000e+00	0.00000e+00	0.00000e+00	0.00000e+00	0.00000e+00	0.00000e+00	0.00000e+00	0.00000e+00	0.00000e+00	0.00000e+00	0.00000e+00	0.00000e+00	0.00000e+00	0.00000e+00	0.00000e+00	0.00000e+00	0.00000e+00	0.00000e+00	
Factor	1.00000e+00	1.00000e+00	1.00000e+00	1.00000e+00	1.00000e+00	1.00000e+00	1.00000e+00	1.00000e+00	1.00000e+00	1.00000e+00	1.00000e+00	1.00000e+00	1.00000e+00	1.00000e+00	1.00000e+00	1.00000e+00	1.00000e+00	1.00000e+00	1.00000e+00	1.00000e+00	1.00000e+00	1.00000e+00	1.00000e+00	1.00000e+00	1.00000e+00	1.00000e+00	1.00000e+00	1.00000e+00	1.00000e+00	1.00000e+00	1.00000e+00	1.00000e+00	X	X	X	X	X	X	X	X	X	X	X	X	X	X	X	X	

B = Detector Channel
Val Type	B-AC1	B-AC2	B-AC3	B-AC4	B-AC5	B-AC6	B-AC7	B-AC8	B-AC9	B-AC10	B-AC11	B-AC12	B-AC13	B-AC14	B-AC15	B-AC16	B-DC1	B-DC2	B-DC3	B-DC4	B-DC5	B-DC6	B-DC7	B-DC8	B-DC9	B-DC10	B-DC11	B-DC12	B-DC13	B-DC14	B-DC15	B-DC16	B-Ph1	B-Ph2	B-Ph3	B-Ph4	B-Ph5	B-Ph6	B-Ph7	B-Ph8	B-Ph9	B-Ph10	B-Ph11	B-Ph12	B-Ph13	B-Ph14	B-Ph15	B-Ph16	

Term	0.00000e+00	0.00000e+00	0.00000e+00	0.00000e+00	0.00000e+00	0.00000e+00	0.00000e+00	0.00000e+00	0.00000e+00	0.00000e+00	0.00000e+00	0.00000e+00	0.00000e+00	0.00000e+00	0.00000e+00	0.00000e+00	0.00000e+00	0.00000e+00	0.00000e+00	0.00000e+00	0.00000e+00	0.00000e+00	0.00000e+00	0.00000e+00	0.00000e+00	0.00000e+00	0.00000e+00	0.00000e+00	0.00000e+00	0.00000e+00	0.00000e+00	0.00000e+00	-7.31199e+01	-1.32799e+02	-1.26468e+02	-1.82714e+02	-5.26673e+01	-6.72776e+01	-1.58600e+02	-1.62015e+02	-4.81301e+01	-6.81745e+01	-1.74789e+02	-1.71091e+02	-1.81647e+02	-1.76664e+02	-5.28905e+01	-1.49745e+02	
Factor	1.45622e-05	1.40397e-04	4.03230e-05	1.48927e-01	1.29784e-06	1.50963e-06	1.69133e-01	4.23035e-02	9.54360e-07	1.51249e-06	7.52042e-02	2.43297e-02	1.97584e-02	7.93508e-03	1.28624e-06	1.14015e-02	1.42596e-05	3.90213e-05	1.10580e-05	7.54603e-02	3.58379e-07	4.54558e-07	8.02644e-02	2.15652e-02	3.46059e-07	4.54774e-07	3.70643e-02	1.20591e-02	1.01503e-02	4.07504e-03	3.89001e-07	5.66024e-03	X	X	X	X	X	X	X	X	X	X	X	X	X	X	X	X	



#DISTANCE SETTINGS
A = Detector Channel
A-1	A-2	A-3	A-4	A-5	A-6	A-7	A-8	A-9	A-10	A-11	A-12	A-13	A-14	A-15	A-16	

2.5000e+00	3.0000e+00	2.5000e+00	3.0000e+00	2.0000e+00	3.0000e+00	1.5000e+00	3.0000e+00	3.0000e+00	3.0000e+00	3.0000e+00	3.0000e+00	3.0000e+00	3.0000e+00	1.5000e+00	3.0000e+00	

B = Detector Channel
B-1	B-2	B-3	B-4	B-5	B-6	B-7	B-8	B-9	B-10	B-11	B-12	B-13	B-14	B-15	B-16	

1.0000e+01	1.0000e+01	1.0000e+01	1.4400e+00	1.0000e+01	1.0000e+01	1.5100e+00	1.9400e+00	1.0000e+01	1.0000e+01	1.9900e+00	2.4900e+00	2.4100e+00	2.9000e+00	1.0000e+01	2.9800e+00	




#DATA BEGINS
time	group	step	mark	flag	A-AC1	A-AC2	A-AC3	A-AC4	A-AC5	A-AC6	A-AC7	A-AC8	A-AC9	A-AC10	A-AC11	A-AC12	A-AC13	A-AC14	A-AC15	A-AC16	A-DC1	A-DC2	A-DC3	A-DC4	A-DC5	A-DC6	A-DC7	A-DC8	A-DC9	A-DC10	A-DC11	A-DC12	A-DC13	A-DC14	A-DC15	A-DC16	A-Ph1	A-Ph2	A-Ph3	A-Ph4	A-Ph5	A-Ph6	A-Ph7	A-Ph8	A-Ph9	A-Ph10	A-Ph11	A-Ph12	A-Ph13	A-Ph14	A-Ph15	A-Ph16	B-AC1	B-AC2	B-AC3	B-AC4	B-AC5	B-AC6	B-AC7	B-AC8	B-AC9	B-AC10	B-AC11	B-AC12	B-AC13	B-AC14	B-AC15	B-AC16	B-DC1	B-DC2	B-DC3	B-DC4	B-DC5	B-DC6	B-DC7	B-DC8	B-DC9	B-DC10	B-DC11	B-DC12	B-DC13	B-DC14	B-DC15	B-DC16	B-Ph1	B-Ph2	B-Ph3	B-Ph4	B-Ph5	B-Ph6	B-Ph7	B-Ph8	B-Ph9	B-Ph10	B-Ph11	B-Ph12	B-Ph13	B-Ph14	B-Ph15	B-Ph16	aux-1	digaux	

1694.214	1	1	0	768	0.18301	0.13086	0.30791	0.12707	0.22085	0.11872	0.31782	0.18153	0.055396	0.19422	0.11343	0.21887	0.141	0.25999	0.24863	0.22503	-2.5062	-2.6583	-3.1562	-3.1125	-2.8729	-3.3396	-3.0479	-3.2417	-3.1063	-2.9688	-3.4146	-3.175	-3.1771	-3.3479	-2.7167	-3.3521	119.376	421.582	452.730	452.264	319.112	223.252	401.309	435.078	410.382	253.429	412.982	355.767	435.074	294.207	248.422	126.746	0.00076384	0.0006475	0.0001138	1073.1	6.7196e-06	6.0676e-06	1284.7	337.06	5.9851e-06	6.0846e-06	444.66	180.7	114.43	46.164	6.552e-06	84.35	0.00073556	0.00052996	0.00014117	1017.1	5.9752e-06	5.9784e-06	1210	322.26	5.7907e-06	6.3157e-06	423.44	172.81	109.59	44.457	6.3253e-06	81.285	230.266	190.889	197.193	111.553	253.875	247.515	110.969	117.401	272.993	265.461	116.102	120.909	122.433	126.436	251.507	123.861	-8191	255	
1694.310	1	1	0	0	0.24309	0.11235	0.24413	0.20599	0.037133	0.22921	0.17894	0.28531	0.087905	0.11514	0.24258	0.15265	0.1154	0.28684	0.29552	0.069329	-2.5	-2.9271	-3.2146	-3	-3.0187	-3.2958	-2.9958	-3.3375	-3.0583	-2.8688	-3.4604	-3.0062	-3.0354	-3.3	-2.8563	-3.3833	432.656	308.721	117.128	447.818	164.752	267.327	371.042	376.552	418.478	226.937	397.380	369.464	183.299	379.593	204.781	354.693	0.00073517	0.00046379	0.00013935	1073	7.4524e-06	6.6924e-06	1281.4	339.62	5.7441e-06	7.1173e-06	445.8	181.42	115.26	46.105	6.2493e-06	84.5	0.00072127	0.00050711	0.00014219	1018.2	5.4944e-06	5.8079e-06	1210.1	322.9	5.5045e-06	5.95e-06	424.09	173.31	109.96	44.557	5.6162e-06	81.477	231.304	188.716	190.880	111.585	248.135	249.373	111.089	117.324	281.191	247.037	116.176	121.038	122.594	126.157	268.105	123.825	-8191	255	
1694.405	1	1	0	0	0.063048	0.12906	0.072357	0.13121	0.16898	0.054895	0.29422	0.14977	0.11794	0.27587	0.23508	0.2647	0.31719	0.13977	0.17926	0.42246	-2.7417	-2.6875	-3.2854	-3.1	-2.8125	-3.1417	-3.0542	-3.2771	-3.1854	-2.8708	-3.2708	-3.1937	-3.0542	-3.2708	-2.6771	-3.1208	260.118	158.581	352.028	428.446	333.579	128.946	430.842	150.230	458.916	434.106	119.997	368.673	390.175	374.723	385.665	396.621	0.00075934	0.00060771	0.00017041	1074	7.5437e-06	4.4757e-06	1282.8	339.98	5.3397e-06	5.8109e-06	449.32	183.03	116.37	46.382	7.1048e-06	85.557	0.00073806	0.0005463	0.00015016	1021.1	5.6631e-06	5.5039e-06	1214.6	324.06	5.4576e-06	6.0314e-06	428.17	174.94	111.04	44.885	6.0149e-06	82.257	231.278	179.173	203.380	111.257	254.102	250.443	111.218	117.114	269.037	243.508	116.076	120.990	122.543	126.091	271.075	123.715	-8191	255	
1694.503	1	1	0	0	0.30169	0.15639	0.12493	0.061353	0.12602	0.20172	0.48599	0.18856	0.04762	0.18751	0.16593	0.3012	0.22121	0.18835	0.24106	0.063072	-2.6729	-2.7021	-3.0875	-3.2562	-2.8458	-2.925	-2.9313	-3.1021	-3.1979	-2.8	-3.1208	-3.1562	-2.8479	-3.325	-2.6917	-3.1688	365.958	233.520	357.966	206.249	133.791	214.673	398.098	318.903	279.063	430.218	107.406	378.526	434.252	408.844	225.262	376.992	0.00076605	0.00046754	0.00019401	1074.8	5.9784e-06	6.2385e-06	1283.5	339.92	5.4527e-06	6.1765e-06	448.07	182.54	116.34	46.744	7.2496e-06	85.313	0.00073951	0.00056833	0.00014956	1021.3	5.7826e-06	5.7217e-06	1213.5	324.76	5.5341e-06	5.7425e-06	427.65	174.68	110.99	45.226	5.9939e-06	82.276	230.864	195.412	184.277	111.574	259.730	252.917	111.169	117.468	266.312	252.372	116.144	120.814	122.290	126.067	262.486	123.720	-8191	255	
1694.597	1	1	0	0	0.16028	0.10399	0.175	0.19525	0.062181	0.1993	0.26621	0.078591	0.017134	0.09569	0.10619	0.047095	0.22156	0.22369	0.22731	0.17314	-2.8937	-2.7479	-3.1604	-3.0167	-2.7667	-3.1458	-3.0396	-2.8312	-3.2521	-2.6937	-3.3458	-3.0667	-2.6917	-3.2646	-2.875	-2.8937	429.593	134.324	115.815	424.973	451.249	440.358	399.513	306.666	184.217	417.027	385.693	456.587	111.501	439.605	300.259	429.870	0.00078137	0.00058485	0.00016297	1079.5	6.1928e-06	5.6256e-06	1280.3	342.22	5.4078e-06	5.4002e-06	451.07	183.38	116.66	46.782	5.6515e-06	86.159	0.00074833	0.00054378	0.00014645	1022.4	5.4869e-06	5.4594e-06	1210.8	326.58	5.6984e-06	6.0646e-06	428.4	175.64	111.76	45.398	5.9687e-06	82.764	229.232	182.915	194.502	111.523	250.982	235.198	111.114	117.223	257.204	247.887	116.095	120.955	122.542	126.041	262.679	123.978	-8191	255	
1694.693	1	1	0	0	0.15753	0.072607	0.22062	0.10269	0.024459	0.16188	0.25818	0.25767	0.24228	0.1624	0.16079	0.23701	0.11387	0.1181	0.0086519	0.29675	-2.7979	-2.7729	-2.9313	-3.1771	-2.6	-3.0729	-3.0083	-2.9875	-3.1417	-2.9229	-3.1417	-3.2125	-2.9667	-3.1021	-3.05	-2.9333	304.214	411.219	217.806	434.253	328.878	401.236	402.875	447.994	228.428	428.493	363.238	432.743	428.922	398.622	397.623	456.320	0.00077372	0.00069216	0.00018314	1082.1	6.3045e-06	7.9229e-06	1281.1	344.91	5.3535e-06	7.1195e-06	452.43	185.51	117.32	47.249	6.1151e-06	86.719	0.00074168	0.00055069	0.00015011	1026.4	5.7639e-06	5.7322e-06	1214.6	328.39	5.7698e-06	5.805e-06	431.36	177.13	112.33	45.564	5.8699e-06	83.157	231.149	173.216	191.310	111.312	263.214	244.681	111.238	117.270	262.959	246.095	116.037	120.907	122.377	126.224	258.827	124.126	-8191	255	
1694.814	1	1	0	0	0.085809	0.38289	0.34009	0.3328	0.12686	0.043179	0.1381	0.086812	0.19659	0.13104	0.13205	0.079797	0.37488	0.1754	0.183	0.21037	-2.7667	-2.8417	-2.9583	-3.2438	-2.6583	-3.1688	-3.2083	-2.8208	-3.1229	-2.9833	-2.7875	-3.2417	-2.9	-3.0646	-2.9146	-2.8187	344.732	425.180	388.368	375.154	202.595	276.836	330.691	365.427	436.986	416.803	261.595	147.099	446.299	398.847	134.590	399.151	0.0007698	0.00057211	0.00018903	1082.4	7.1966e-06	7.1238e-06	1292.2	344.84	4.9618e-06	6.2708e-06	454.52	186.7	117.81	47.354	6.093e-06	86.847	0.00075142	0.00049931	0.00015845	1027	5.6661e-06	6.0437e-06	1222.7	329.03	5.3113e-06	5.679e-06	432.77	177.95	112.66	45.675	5.6859e-06	83.416	230.612	202.163	184.684	111.458	261.866	237.176	111.218	117.256	262.577	236.816	116.071	120.807	122.463	126.131	266.785	123.773	-8191	255	
1694.910	1	1	0	0	0.23341	0.22695	0.18836	0.14496	0.035415	0.13626	0.27383	0.10188	0.03619	0.18592	0.19679	0.15824	0.0065979	0.39902	0.21295	0.40044	-2.7667	-2.7396	-2.8563	-3.2646	-2.8729	-3.0042	-3.4229	-2.9333	-3.1458	-2.85	-2.8917	-3.35	-2.9708	-3.1542	-3.1	-2.8333	277.409	190.978	175.228	117.365	123.139	278.528	376.311	411.480	428.639	123.739	432.297	134.212	114.083	413.732	365.610	404.587	0.00078455	0.0005477	0.00019604	1084.4	7.0295e-06	7.8736e-06	1289.7	343.43	5.199e-06	8.4424e-06	454.48	184.4	116.88	47.168	7.3668e-06	85.963	0.00075641	0.00050915	0.00015223	1029.1	5.8692e-06	5.9594e-06	1221.7	327.84	5.5377e-06	6.1679e-06	430.7	176.35	111.74	45.487	5.8366e-06	82.763	230.177	195.636	193.909	111.437	259.873	256.207	111.284	117.285	262.150	266.104	116.182	121.001	122.487	126.046	263.722	123.941	-8191	255	
1695.006	1	1	0	0	0.33889	0.17167	0.15303	0.087394	0.10988	0.26628	0.29397	0.31332	0.12972	0.17656	0.27113	0.13439	0.37416	0.19295	0.30173	0.25744	-2.7292	-3.0708	-2.5062	-3.4833	-2.65	-3.0417	-3.2083	-2.9833	-3.1375	-3.1146	-2.75	-3.2333	-2.8333	-3.1688	-3.1271	-3.0042	106.145	126.605	204.126	366.968	222.991	196.417	425.711	426.669	264.065	218.354	381.961	444.838	379.511	403.679	101.407	430.224	0.00079375	0.00071461	0.00015492	1087.9	5.7412e-06	5.3832e-06	1286.1	341.86	6.3802e-06	6.1075e-06	450.79	184.23	116.24	46.979	6.4696e-06	86.123	0.00075787	0.00056947	0.00015424	1027.9	5.7214e-06	5.5645e-06	1219.8	326.04	5.6076e-06	5.4507e-06	429.25	176.15	111.6	45.454	6.0692e-06	82.758	228.932	180.317	186.824	111.159	269.221	250.096	111.145	117.465	258.537	252.255	116.284	120.933	122.500	126.344	263.198	123.860	-8191	255	
1695.102	1	1	0	0	0.20819	0.12989	0.24827	0.15812	0.30833	0.25558	0.25109	0.14732	0.14364	0.020763	0.47946	0.045787	0.18566	0.32698	0.049032	0.083748	-2.5542	-3.2875	-2.6125	-3.425	-2.9021	-2.8458	-3.2979	-2.8271	-3.1188	-3.175	-2.8896	-3.2292	-2.9688	-3.0771	-3.2521	-2.9542	314.898	126.482	193.330	409.154	281.761	362.254	391.601	379.148	259.595	143.355	435.834	265.471	413.862	446.935	260.716	428.792	0.00081703	0.00065171	0.00020003	1087.4	7.1009e-06	7.078e-06	1291.4	342.51	5.8839e-06	6.3096e-06	452.17	185.01	117.12	47.28	6.1036e-06	87.141	0.00077932	0.00052297	0.00015456	1030.8	5.6027e-06	5.7615e-06	1222.6	327.38	5.7741e-06	5.6203e-06	430.64	177.2	112.07	45.714	5.8877e-06	83.471	229.577	178.499	196.608	111.321	264.924	245.318	111.205	117.159	270.508	261.763	116.100	120.943	122.507	125.965	263.802	123.932	-8191	255	
1695.199	1	1	0	0	0.08865	0.1338	0.054129	0.21922	0.080243	0.1557	0.37601	0.2052	0.15008	0.22833	0.19447	0.1578	0.17332	0.096038	0.19581	0.1579	-2.575	-2.9667	-2.675	-3.1688	-3.0604	-2.8146	-3.2042	-2.8542	-2.9021	-3.1312	-2.6604	-3.2146	-3.2062	-2.9271	-3.3042	-2.9146	113.127	201.381	198.602	325.528	120.985	313.619	442.210	438.568	211.906	117.526	453.972	419.145	117.162	451.019	429.553	452.606	0.00078262	0.0006346	0.00015945	1089.2	7.3195e-06	6.9953e-06	1289.6	342.27	5.6838e-06	6.1719e-06	452.95	186.19	117.78	47.132	6.9448e-06	87.041	0.00075701	0.00054768	0.00015546	1030.3	5.6467e-06	6.3221e-06	1223.6	327.36	5.8253e-06	5.9111e-06	430.58	177.68	112.41	45.543	5.9606e-06	83.394	231.260	185.694	187.289	111.380	262.319	257.099	110.987	117.085	273.329	233.350	115.935	120.957	122.674	126.296	272.161	123.908	-8191	255	
1695.295	1	1	0	0	0.37538	0.15305	0.15275	0.26523	0.28422	0.04206	0.19222	0.11301	0.19465	0.17507	0.067001	0.17407	0.23388	0.28573	0.11679	0.10732	-2.6	-2.9437	-2.6188	-3.2458	-2.8792	-2.7833	-3.2333	-3.0792	-2.9646	-3.1833	-3.0062	-3.4875	-3.1771	-2.8146	-3.1604	-2.9667	303.914	335.188	205.529	406.123	430.086	132.792	391.450	445.965	325.996	158.823	165.423	134.379	392.001	399.388	272.630	433.733	0.00079623	0.00062166	0.00018727	1086.1	6.2719e-06	6.8473e-06	1293.7	343.1	6.2772e-06	5.8526e-06	448.35	184.39	117.29	47.186	6.596e-06	86.379	0.00075698	0.00051719	0.0001576	1030.3	5.5713e-06	6.3458e-06	1224.4	328.06	5.772e-06	5.9376e-06	428.13	176.57	112.25	45.659	6.0854e-06	83.054	231.158	172.149	199.197	111.537	268.681	262.164	111.095	117.095	266.325	261.808	116.042	120.782	122.357	126.251	266.511	123.864	-8191	255	
1695.414	1	1	0	0	0.152	0.078188	0.2694	0.17831	0.21176	0.35761	0.12886	0.4041	0.028504	0.10336	0.25064	0.21203	0.19652	0.21005	0.29481	0.05227	-2.5729	-3.1604	-2.7479	-2.9229	-3.1146	-2.6333	-3.3479	-2.9688	-2.8187	-3.1208	-3.075	-2.9896	-2.9688	-2.7417	-3.1104	-3.0812	229.475	262.421	350.992	99.192	198.444	182.228	169.911	405.469	449.887	405.093	140.347	419.675	111.315	393.341	99.455	429.298	0.00079927	0.0006463	0.00022736	1084.5	5.7852e-06	6.6504e-06	1285.2	344.08	6.1372e-06	7.0344e-06	450.23	184.46	116.62	47.151	6.5933e-06	86.599	0.00077403	0.00053093	0.00015253	1028	5.3548e-06	5.7161e-06	1220.6	328.01	5.5348e-06	6.1205e-06	428.37	176.37	111.97	45.639	5.8674e-06	83.159	231.369	188.220	197.954	111.420	260.539	264.389	111.133	117.108	276.517	245.090	115.995	121.062	122.506	126.147	255.803	123.715	-8191	255	
1695.510	1	1	0	0	0.12389	0.20312	0.080718	0.066948	0.18102	0.10285	0.2564	0.061259	0.087508	0.092868	0.16905	0.25273	0.15305	0.1243	0.20744	0.26088	-2.3271	-3.125	-2.8396	-3.1854	-3.125	-2.9188	-3.2979	-3.2958	-2.8937	-3.5083	-3.075	-3.1104	-3.2271	-2.9021	-3.1458	-3.3375	133.229	276.720	377.082	319.293	362.345	139.465	413.538	346.126	365.739	178.263	428.573	394.067	125.460	105.550	444.637	404.655	0.00081311	0.00061465	0.00018208	1087.7	6.7071e-06	5.4966e-06	1291.2	343.76	6.0299e-06	6.7737e-06	449.9	184.69	117.2	47.378	6.2162e-06	86.977	0.00077225	0.00053093	0.00014947	1029.2	5.2473e-06	5.8856e-06	1221.6	327.67	5.994e-06	5.9196e-06	429.58	177.24	112.3	45.725	5.9768e-06	83.459	230.545	182.702	179.023	111.644	251.021	240.460	111.120	117.150	274.753	250.518	116.013	120.759	122.204	125.935	256.076	123.804	-8191	255	
1695.606	1	1	0	0	0.23265	0.090128	0.17034	0.044678	0.11769	0.10334	0.1917	0.072099	0.1802	0.059531	0.12436	0.099773	0.25677	0.39001	0.090628	0.31638	-2.2396	-3.2479	-2.9521	-3.1958	-3.2562	-2.7521	-3.2583	-3.1813	-2.8833	-3.2854	-2.9854	-3.2604	-3.1771	-2.9667	-3.0542	-3.2729	454.631	290.654	392.124	179.260	191.758	267.097	441.312	124.013	203.409	214.055	142.388	440.243	395.880	435.591	249.386	409.959	0.00079548	0.00077642	0.00016261	1086.3	6.2659e-06	6.0991e-06	1295.6	343.98	5.8428e-06	5.8884e-06	451.31	185.44	117.63	47.293	6.3072e-06	86.597	0.0007732	0.00051622	0.00014449	1029.4	5.2965e-06	5.7104e-06	1227	328.52	5.7777e-06	5.4658e-06	430.43	177.59	112.31	45.717	6.1122e-06	83.281	230.447	189.383	202.359	111.129	258.715	255.240	110.927	117.198	274.078	242.458	116.002	120.929	122.290	126.107	265.942	124.092	-8191	255	
1695.702	1	1	0	0	0.068941	0.20421	0.16305	0.23436	0.072606	0.14876	0.096513	0.17547	0.19192	0.15653	0.086284	0.15711	0.12041	0.33139	0.0064204	0.12728	-2.2812	-3.3667	-2.8229	-2.7833	-3.2917	-2.8958	-3.1	-3.3438	-2.75	-3.3708	-2.9417	-2.9896	-3.2479	-2.825	-2.9479	-3.3563	253.419	311.558	358.957	366.192	209.870	420.283	159.668	444.073	206.935	410.044	261.108	123.515	166.131	435.898	268.759	348.663	0.00082208	0.00065029	0.00021053	1084.2	6.9455e-06	4.8657e-06	1286.5	343.62	5.0631e-06	5.699e-06	449.58	183.8	116.42	47.147	7.4744e-06	86.481	0.00078401	0.0005124	0.00015785	1027.9	5.5922e-06	5.7824e-06	1219.7	327.35	5.5168e-06	5.4279e-06	427.99	176	111.67	45.615	5.8626e-06	83.013	230.312	191.403	202.077	111.470	266.252	248.649	111.062	117.471	267.359	253.351	116.174	121.050	122.384	126.296	268.000	124.120	-8191	255	
1695.774	1	1	0	0	0.29876	0.27701	0.20247	0.23745	0.34675	0.31887	0.068504	0.18917	0.18519	0.22891	0.26515	0.25312	0.12056	0.094918	0.30266	0.24848	-2.2479	-3.1521	-2.8563	-2.7708	-3.2917	-2.7521	-3.225	-3.2521	-2.7042	-3.0271	-3.1479	-3.0812	-3.2354	-3.0708	-2.8396	-3.4104	413.337	312.103	343.997	384.623	139.881	147.299	422.651	421.094	130.725	404.598	414.465	407.093	181.542	300.397	317.970	366.268	0.00077768	0.00062789	0.00019185	1088	6.2836e-06	7.7802e-06	1284	342.56	5.3001e-06	7.2204e-06	446.75	184.25	116.59	47.127	5.9239e-06	86.658	0.00076001	0.00052541	0.00015527	1028.2	5.4197e-06	6.1593e-06	1217.3	326.94	5.6876e-06	5.9244e-06	425.68	176.29	111.81	45.641	6.096e-06	83.044	232.223	175.732	186.073	111.518	259.567	249.573	110.999	117.184	274.657	257.232	116.189	120.946	122.844	126.034	259.244	123.949	-8191	255	
1695.894	1	1	0	0	0.15604	0.11703	0.032557	0.28555	0.14692	0.18002	0.17214	0.23701	0.19714	0.098625	0.25365	0.18114	0.042926	0.174	0.069706	0.21506	-2.1167	-3.0458	-2.9229	-3.0667	-3.1792	-2.8771	-3.1125	-3.3604	-2.85	-2.9938	-3.1312	-2.8729	-3.3604	-3.0375	-2.8708	-3.325	192.692	159.183	203.652	396.083	393.306	315.165	427.183	423.640	164.583	222.832	449.951	110.843	392.599	444.010	408.218	405.026	0.00078695	0.00063489	0.00022071	1081.4	6.6339e-06	5.9499e-06	1291.5	342.46	5.8779e-06	7.1586e-06	447.51	185.48	117.6	47.226	6.1036e-06	86.908	0.00075757	0.00053232	0.00015235	1028.4	5.413e-06	5.5409e-06	1221.1	327.55	5.741e-06	5.95e-06	427.34	177.16	112.11	45.699	5.9347e-06	83.524	230.409	191.233	187.241	111.215	260.190	242.498	111.195	117.283	265.407	254.804	116.123	121.014	122.487	126.122	255.045	123.838	-8191	255	
1695.990	1	1	0	0	0.20805	0.24345	0.34538	0.1111	0.30896	0.16724	0.17635	0.22961	0.22756	0.30842	0.15346	0.27109	0.24682	0.19433	0.039607	0.34045	-2.3146	-3.0896	-2.9396	-2.8083	-2.9875	-2.9771	-3.0625	-3.375	-2.8542	-2.8688	-3.2708	-2.8167	-3.3625	-2.9938	-2.7896	-3.4167	281.154	159.424	400.145	357.426	351.407	415.362	414.988	397.474	270.719	425.414	341.117	397.993	447.095	361.216	285.931	418.873	0.00081124	0.00076639	0.00018105	1086.5	5.9262e-06	6.7353e-06	1293.3	343.22	4.8315e-06	5.6286e-06	448.68	185.13	117.82	46.946	6.5942e-06	86.633	0.0007773	0.00055776	0.00014942	1029.8	5.6079e-06	5.4405e-06	1225.4	328.25	5.7136e-06	6.0561e-06	427.74	177.27	112.39	45.568	5.788e-06	83.176	229.415	193.151	190.981	111.284	252.115	246.572	111.124	117.198	271.117	236.102	115.987	121.097	122.465	126.219	263.811	123.927	-8191	255	
1696.087	1	1	0	0	0.037918	0.16152	0.23619	0.16075	0.30641	0.12881	0.23298	0.20196	0.22945	0.26158	0.29219	0.18071	0.062661	0.23791	0.22149	0.26423	-2.5312	-3.1083	-3.1854	-2.8271	-3.1	-3.1688	-2.8229	-3.3479	-2.9125	-2.9625	-3.4292	-2.9271	-3.0938	-3.0438	-2.9917	-3.2938	197.215	358.724	247.443	426.270	365.733	161.014	395.340	443.383	413.682	130.560	381.211	437.465	312.879	373.675	319.066	401.942	0.00079986	0.00057694	0.00014654	1078.9	7.1903e-06	5.4458e-06	1285.6	343.83	4.7487e-06	5.2399e-06	447.42	184.87	117.54	47.47	6.8571e-06	86.914	0.00076441	0.00052614	0.00014792	1024.6	5.6952e-06	5.7975e-06	1218	328.41	5.4771e-06	5.3929e-06	426.08	177.08	112.57	45.832	5.7678e-06	83.368	233.691	192.986	187.684	111.465	260.927	255.015	111.140	117.259	270.077	256.997	116.151	120.953	122.376	125.986	269.980	124.104	-8191	255	
1696.183	1	1	0	0	0.061338	0.12331	0.28273	0.14536	0.23492	0.21607	0.21023	0.056146	0.44327	0.24252	0.38934	0.19143	0.16236	0.18815	0.21637	0.28621	-2.7458	-2.7229	-3.1646	-2.7125	-3.0833	-3.2021	-2.9167	-3.4104	-2.9229	-2.6625	-3.3354	-2.9375	-3.1875	-3.2167	-2.7333	-3.1771	237.369	315.650	210.612	458.760	271.604	143.541	337.626	400.709	255.796	316.095	391.816	453.230	356.025	413.695	258.665	407.692	0.00079637	0.00063308	0.00020679	1084.1	7.1157e-06	6.8832e-06	1284.7	345.88	5.5154e-06	7.3012e-06	450.83	186.07	118.37	47.683	6.6448e-06	87.172	0.00076473	0.00055134	0.00014364	1028.1	5.4974e-06	5.843e-06	1219	330.11	5.9147e-06	5.9102e-06	429.44	178.26	113.13	46.135	5.9128e-06	83.814	230.717	176.445	188.731	111.421	276.100	246.531	111.110	117.454	275.895	233.154	115.983	120.766	122.726	126.137	256.591	123.668	-8191	255	
1696.302	1	1	0	0	0.2244	0.17555	0.25405	0.38826	0.21263	0.10502	0.21177	0.11249	0.097382	0.11962	0.2222	0.044712	0.21676	0.037336	0.17817	0.19697	-2.5958	-2.6958	-3.0833	-2.9104	-2.95	-3.3812	-2.8396	-3.325	-2.8312	-2.8979	-3.4125	-2.9896	-3.2375	-3.2958	-2.4896	-3.2083	141.202	299.314	113.197	436.674	215.704	455.572	364.962	323.865	216.687	240.254	399.667	146.167	157.504	167.913	223.123	389.053	0.00078975	0.00067088	0.00016846	1084.2	6.6899e-06	7.5738e-06	1296.4	346.16	5.4603e-06	5.1262e-06	454.62	187.9	118.73	47.857	6.7547e-06	88.129	0.00075909	0.00054662	0.00014714	1030.1	5.5907e-06	5.8534e-06	1226	330.34	5.5961e-06	5.6563e-06	432.11	179.98	113.86	46.292	5.8123e-06	84.61	231.202	183.027	183.560	111.383	268.521	246.050	111.224	117.074	264.595	248.740	116.353	120.925	122.785	126.212	261.720	123.813	-8191	255	
1696.375	1	1	0	0	0.11133	0.22409	0.11062	0.095484	0.19151	0.16184	0.13868	0.2405	0.25712	0.22347	0.16676	0.42426	0.1793	0.2246	0.35634	0.19713	-2.5938	-2.7229	-3.1625	-2.7708	-2.8458	-3.275	-2.8646	-3.0938	-2.9458	-2.6271	-3.35	-3.0812	-3.0125	-3.2771	-2.7396	-3.2583	360.539	232.362	103.153	434.434	139.373	312.320	267.533	413.771	364.366	110.727	419.952	429.252	443.051	412.033	352.274	408.148	0.00080149	0.00056641	0.00016205	1092.1	7.2472e-06	4.1486e-06	1297.2	345.74	5.3522e-06	6.3803e-06	453.62	187.83	118.57	48.138	6.7945e-06	87.619	0.0007601	0.00055061	0.00014016	1034.9	5.4951e-06	5.5371e-06	1230.4	331.22	5.7886e-06	5.8988e-06	431.77	179.7	113.59	46.344	6.0587e-06	84.382	231.651	175.123	192.608	111.383	251.579	254.735	111.109	117.144	280.414	244.504	116.175	120.857	122.691	126.144	258.178	123.997	-8191	255	
1696.496	1	1	0	0	0.23025	0.19374	0.29728	0.090053	0.12943	0.18364	0.39635	0.147	0.036266	0.16551	0.14786	0.25241	0.094692	0.2002	0.18309	0.21454	-2.6458	-2.8042	-3.2104	-3.0792	-2.8458	-3.2271	-2.8625	-3.2396	-3.0271	-2.8521	-3.1104	-3.1604	-2.9521	-3.275	-2.9	-3.0792	336.443	184.258	170.666	296.492	200.642	393.765	413.634	405.886	370.559	374.937	405.787	437.525	430.709	145.200	356.815	397.123	0.00079595	0.00054762	0.00014998	1089.9	8.6889e-06	5.9817e-06	1293.7	346.24	6.2773e-06	7.0419e-06	451.15	186.58	118.02	47.878	6.0693e-06	87.554	0.0007554	0.00052378	0.00014007	1033.6	5.7087e-06	5.7833e-06	1226.8	330	5.6927e-06	5.733e-06	429.63	178.79	112.83	46.108	5.8561e-06	83.815	230.530	178.596	186.640	111.386	265.458	257.239	111.210	117.214	275.290	246.985	115.858	120.841	122.643	126.183	263.488	124.003	-8191	255	
1696.590	1	1	0	0	0.16466	0.035008	0.056884	0.25341	0.24192	0.12026	0.23671	0.17277	0.14488	0.15901	0.27044	0.05385	0.14803	0.14774	0.18966	0.49622	-2.7292	-2.5042	-3.025	-2.9354	-2.7417	-2.9771	-2.9646	-2.8812	-3.2667	-2.8812	-3.2021	-3.1833	-2.7375	-3.2542	-3.0042	-3.05	174.437	352.516	459.303	411.556	132.562	330.686	437.044	380.044	356.337	318.186	446.210	333.456	225.777	422.490	198.017	361.501	0.00077423	0.00068392	0.00016773	1082.7	6.0889e-06	6.3923e-06	1294.8	344.09	5.4677e-06	6.3092e-06	450.27	186.58	116.96	47.579	5.9745e-06	87.59	0.00074664	0.00052955	0.00014348	1031.1	5.4742e-06	5.4945e-06	1226.5	328	5.3315e-06	5.7946e-06	429.05	178.55	112.49	46.019	5.7345e-06	84.218	231.317	180.868	193.300	111.342	262.703	229.058	111.087	117.361	269.713	245.471	116.083	121.126	122.610	126.230	266.258	123.695	-8191	255	
1696.686	1	1	0	0	0.15128	0.29144	0.25384	0.36135	0.039406	0.19236	0.07661	0.56629	0.043158	0.021041	0.040435	0.22681	0.15844	0.16651	0.20474	0.26556	-2.7479	-2.7042	-2.8333	-3.0458	-2.9396	-3.1083	-3.0646	-2.8125	-3.4313	-2.8458	-3.2625	-3.0979	-2.8563	-3.2479	-3.0208	-2.7875	154.881	201.807	358.336	415.030	364.859	306.716	215.185	411.849	300.820	144.275	167.664	405.357	113.936	448.178	436.997	108.020	0.00078736	0.00066432	0.0001802	1091.5	7.1544e-06	5.439e-06	1301.1	344.45	5.6739e-06	6.539e-06	452.3	187.52	117.93	47.914	5.2922e-06	87.932	0.00074049	0.00052996	0.00014246	1035.3	5.74e-06	5.7047e-06	1231.4	330.18	5.6523e-06	5.8495e-06	430.94	179.73	113.15	46.223	5.5344e-06	84.38	230.824	188.167	197.176	111.280	265.985	256.737	111.196	117.358	264.164	238.244	116.162	120.947	122.360	126.291	273.347	124.001	-8191	255	
1696.782	1	1	0	0	0.098936	0.16545	0.14612	0.16368	0.063764	0.13274	0.22267	0.26365	0.25997	0.10017	0.28733	0.21214	0.20219	0.095416	0.041404	0.14006	-2.8771	-2.6542	-2.9313	-3.1208	-2.7125	-3.2313	-3.0687	-2.9229	-3.1937	-2.8688	-2.9813	-3.2479	-2.8521	-3.0146	-2.7979	-2.8833	124.262	137.390	239.123	412.853	347.154	166.602	435.079	439.630	129.827	386.002	407.899	132.070	431.079	191.992	392.686	343.548	0.00082236	0.00055779	0.00018506	1089	7.9775e-06	9.3227e-06	1300	340.57	5.2405e-06	6.6784e-06	449.85	184.96	116.55	47.62	7.0251e-06	86.588	0.00078366	0.00052345	0.00014633	1032.5	5.5295e-06	5.9348e-06	1229.2	325.52	5.733e-06	6.0817e-06	426.65	177.57	111.64	45.808	5.6673e-06	83.376	230.725	185.012	186.736	111.512	258.598	238.304	111.415	117.330	270.605	243.996	115.993	121.052	122.512	126.021	266.330	124.059	-8191	255	
1696.903	1	1	0	0	0.28829	0.082098	0.37418	0.077687	0.0071401	0.18064	0.30901	0.21047	0.12426	0.2142	0.23058	0.21671	0.33336	0.2124	0.11358	0.29709	-2.5292	-2.8438	-2.8375	-3.1417	-2.8375	-3.1146	-3.2417	-2.7104	-3.2521	-2.8104	-3.0667	-3.3729	-2.7542	-3.2333	-3.0062	-2.9396	253.643	357.479	150.298	454.437	297.237	378.089	394.316	433.365	415.453	338.057	304.889	305.956	392.510	411.997	388.110	385.630	0.00079494	0.00056778	0.00017123	1080.5	7.0934e-06	5.2656e-06	1292.4	338.32	5.995e-06	5.587e-06	445.08	184.32	116.23	47.403	7.6405e-06	86.69	0.00076515	0.00051923	0.00014643	1027.6	5.5452e-06	5.8136e-06	1224.1	324.36	5.5247e-06	5.6487e-06	423.76	176.41	111.15	45.549	5.9169e-06	83.308	230.167	190.242	181.492	111.423	259.423	236.732	111.360	117.275	273.813	244.623	116.029	120.934	122.411	126.191	272.950	123.849	-8191	255	
1696.999	1	1	0	0	0.12723	0.17584	0.06626	0.24806	0.17483	0.13415	0.34802	0.48103	0.18353	0.035629	0.1344	0.24346	0.30572	0.25935	0.1989	0.13698	-2.6396	-2.9813	-2.725	-3.2708	-2.6354	-2.8083	-3.1604	-2.7062	-2.9979	-3.0333	-2.8979	-3.325	-2.8542	-3.1021	-3.1104	-2.7917	367.023	177.308	284.534	399.750	141.799	314.681	421.093	421.718	283.322	420.905	370.292	418.734	385.224	437.854	179.428	359.673	0.00083155	0.00065181	0.00017436	1086.2	6.7571e-06	6.8235e-06	1292.9	339.28	6.1873e-06	7.3428e-06	445.5	184.97	116.48	47.102	7.1343e-06	86.983	0.00077335	0.00051549	0.00014627	1028.9	5.6661e-06	5.7653e-06	1227.5	324.73	5.6458e-06	6.0059e-06	425.02	176.95	111.41	45.572	5.861e-06	83.582	232.241	181.187	184.881	111.369	269.243	240.086	111.320	117.171	268.158	251.429	116.212	120.966	122.945	126.238	256.089	123.949	-8191	255	
1697.071	1	1	0	0	0.10786	0.25035	0.32387	0.15755	0.043974	0.15787	0.1994	0.19579	0.13436	0.1659	0.12136	0.18983	0.16688	0.34124	0.11378	0.061476	-2.5729	-3.0458	-2.7	-3.3729	-2.8771	-3.0312	-3.1854	-2.8146	-2.8729	-2.9479	-2.9313	-3.25	-2.9208	-2.9917	-2.9583	-3.125	355.578	179.732	110.895	375.382	339.227	197.164	310.890	415.561	414.629	292.739	379.437	381.096	429.424	123.687	104.574	324.319	0.00081553	0.00065731	0.00016664	1087.8	9.0249e-06	5.523e-06	1293.9	343.6	6.6664e-06	5.8645e-06	448.53	186.63	117.41	47.438	6.7528e-06	87.186	0.00076886	0.00054158	0.00015216	1031.2	5.7139e-06	5.6431e-06	1228.3	327.78	5.7713e-06	5.9395e-06	428.07	178.48	112.1	45.82	5.7969e-06	83.935	228.742	192.274	198.367	111.387	259.625	244.895	111.094	117.159	266.015	264.036	116.039	120.970	122.420	126.343	268.456	124.035	-8191	255	
1697.191	1	1	0	0	0.065709	0.25486	0.20612	0.2292	0.18353	0.14267	0.10459	0.069739	0.11676	0.075081	0.33646	0.23666	0.069524	0.22331	0.085683	0.2201	-2.7271	-3.0083	-2.8271	-3.2604	-2.8646	-2.8625	-3.0812	-3.0958	-2.9146	-3.0708	-2.8667	-3.3167	-2.9771	-3.1	-3.1875	-2.9562	129.699	324.146	191.981	434.814	330.860	297.329	403.753	391.395	409.621	413.460	118.567	429.435	173.305	418.252	310.247	438.270	0.00080416	0.00073737	0.00014933	1086.4	7.1663e-06	6.313e-06	1297.6	343.76	5.2812e-06	5.9019e-06	448.99	185.37	116.53	47.168	6.5665e-06	86.47	0.00076559	0.000545	0.00014055	1031.9	5.7886e-06	5.8657e-06	1227.2	328	5.8953e-06	5.8836e-06	426.97	177.58	111.78	45.646	5.6786e-06	83.364	230.577	186.564	185.483	111.352	268.543	259.535	111.159	117.142	256.399	248.140	116.133	120.829	122.481	126.290	266.038	123.734	-8191	255	
1697.286	1	1	0	0	0.12309	0.16484	0.15792	0.35818	0.28119	0.15553	0.24337	0.19022	0.18238	0.27622	0.24134	0.27987	0.028855	0.25362	0.19583	0.26633	-2.5354	-3.0208	-2.7271	-3.3229	-2.9354	-2.9729	-3.2646	-2.9875	-3.0687	-3.1646	-2.7021	-3.3812	-2.8417	-2.8854	-3.1562	-2.9688	111.559	175.070	427.942	372.591	131.198	458.384	382.247	374.529	450.670	231.811	391.396	435.547	454.577	396.376	412.254	373.595	0.00077562	0.00072139	0.00020594	1088.2	7.197e-06	7.4132e-06	1291.6	339.7	4.8783e-06	4.7095e-06	446.82	184.46	116.07	47.25	6.6692e-06	86.501	0.00074441	0.00052874	0.00014348	1029.1	5.5123e-06	5.6772e-06	1222.9	325.4	5.8174e-06	5.1768e-06	424.8	176.76	111.72	45.671	5.8221e-06	83.35	230.758	186.426	198.156	111.482	260.945	239.923	111.275	117.248	267.091	241.342	116.104	120.799	122.529	126.346	268.077	124.179	-8191	255	
1697.382	1	1	0	0	0.062324	0.15087	0.1507	0.1822	0.12015	0.0506	0.33838	0.4103	0.15335	0.21704	0.012605	0.18537	0.24935	0.28503	0.243	0.25521	-2.6542	-3.0375	-2.6229	-3.1146	-2.7292	-2.7417	-3.2271	-2.9833	-2.8083	-3.1542	-2.9104	-3.1125	-3.1083	-2.7208	-3.2708	-2.9271	145.988	148.128	295.458	100.237	375.091	305.789	439.051	427.729	383.962	394.744	165.477	102.141	436.584	271.652	216.437	346.661	0.00079706	0.00053922	0.00016728	1083.7	5.8539e-06	6.9386e-06	1291.4	341.3	6.3705e-06	7.374e-06	446.82	185.22	116.19	47.135	7.7388e-06	86.93	0.00075689	0.00049305	0.00015076	1028.5	5.3458e-06	5.6924e-06	1224.6	325.06	5.4663e-06	5.4222e-06	424.38	176.88	111.35	45.546	5.9298e-06	83.555	229.898	173.222	199.008	111.277	264.164	243.323	111.168	117.090	267.654	250.066	115.846	121.023	122.379	126.179	260.232	124.058	-8191	255	
1697.478	1	1	0	0	0.24192	0.17302	0.15978	0.30097	0.307	0.20262	0.11991	0.25309	0.35373	0.2246	0.12475	0.19815	0.23929	0.14317	0.083368	0.24377	-2.4437	-3.0521	-2.5729	-3.4354	-3.0958	-2.8187	-3.4125	-3.1625	-2.7979	-3.1271	-2.7833	-3.0938	-3.2583	-2.6125	-3.1979	-3.0438	250.709	262.252	140.101	404.264	317.918	242.809	186.275	427.416	244.636	428.863	145.075	434.798	391.356	117.472	283.977	306.605	0.00080278	0.00060522	0.00013776	1082.3	5.6701e-06	6.3916e-06	1296	340.44	5.7653e-06	6.1127e-06	447.38	185.14	116.82	47.152	5.7823e-06	86.856	0.00075846	0.00051362	0.0001479	1027.6	5.2323e-06	5.52e-06	1227.8	325.35	5.542e-06	5.5255e-06	425.97	177.49	111.67	45.669	5.5635e-06	83.743	231.516	166.049	182.364	111.217	270.087	254.116	110.861	116.946	268.850	253.442	116.072	121.074	122.630	126.216	261.085	123.903	-8191	255	
1697.599	1	1	0	0	0.16687	0.22484	0.29805	0.14122	0.35851	0.29275	0.16345	0.17857	0.15935	0.11999	0.13093	0.51233	0.35131	0.27359	0.21199	0.14749	-2.5021	-3.1375	-2.6917	-3.1063	-3.1	-2.8688	-3.2833	-3.2396	-2.675	-3.2625	-2.8937	-3.1542	-3.2083	-2.7562	-3.0875	-3.0333	412.932	431.581	430.629	374.500	364.811	168.860	404.996	419.223	408.474	413.480	119.553	397.255	409.396	382.883	279.243	424.321	0.00081282	0.00054166	0.00021178	1086	6.6645e-06	5.7574e-06	1298.3	340.37	6.1672e-06	6.9132e-06	443.54	184.9	116.55	47.03	5.6705e-06	86.799	0.00077323	0.00052215	0.00014548	1028.4	5.4847e-06	5.7833e-06	1227.5	324.85	5.6098e-06	5.5824e-06	423.55	176.92	111.26	45.418	5.4509e-06	83.361	230.051	189.268	185.919	111.323	259.787	254.562	111.183	117.187	259.908	251.233	116.279	120.893	122.703	125.954	255.319	123.916	-8191	255	
1697.671	1	1	0	0	0.14188	0.16531	0.18543	0.30316	0.22554	0.095086	0.3348	0.26808	0.066169	0.12996	0.23847	0.34239	0.1153	0.13954	0.2252	0.22349	-2.3146	-3.2313	-2.5292	-3.0208	-3.0667	-2.875	-3.3187	-3.1583	-2.8104	-3.2792	-2.9542	-3	-3.2167	-3.0021	-3.1	-3.25	448.387	201.086	247.973	408.899	320.776	339.109	413.532	387.746	215.979	329.326	99.453	399.962	304.217	437.809	167.915	364.365	0.00077505	0.00058797	0.00013961	1081.9	7.2107e-06	6.3674e-06	1296.7	340.17	6.3936e-06	4.7601e-06	446.42	184.89	116.87	47.439	5.3078e-06	87.138	0.00075956	0.00051768	0.00014018	1025.4	5.4115e-06	5.7161e-06	1225.1	325.33	5.5889e-06	5.5842e-06	424.4	177.03	111.84	45.78	5.6454e-06	83.701	230.642	174.127	188.421	111.228	262.707	250.048	111.246	117.226	274.424	244.427	115.869	120.810	122.148	126.278	274.375	123.870	-8191	255	
1697.767	1	1	0	0	0.05752	0.2403	0.038598	0.37516	0.069181	0.094805	0.184	0.16667	0.14591	0.25147	0.33924	0.33672	0.34452	0.27701	0.1243	0.16529	-2.2667	-2.9979	-2.9271	-2.7812	-3.4542	-2.7396	-3.3125	-3.1458	-2.6646	-3.0292	-2.8792	-2.9854	-3.2625	-2.8583	-2.7229	-3.2417	427.535	273.322	369.376	384.698	442.920	205.255	312.147	408.002	266.508	140.980	119.637	411.599	409.195	419.798	437.104	399.559	0.00081336	0.00053771	0.00017895	1082.4	6.3063e-06	5.8279e-06	1292.1	340.79	6.3675e-06	5.6335e-06	446.39	184.95	117.1	47.117	7.4104e-06	86.879	0.00077394	0.00049972	0.00014415	1028.6	5.0651e-06	5.7587e-06	1225.5	325.26	5.3034e-06	5.7652e-06	424.03	177.2	111.43	45.579	5.9541e-06	83.513	230.685	200.369	188.864	111.287	272.127	239.169	111.263	117.202	278.840	253.551	115.849	120.895	122.458	126.039	267.940	123.722	-8191	255	
1697.863	1	1	0	0	0.062296	0.17417	0.29828	0.21635	0.24232	0.039169	0.20011	0.35179	0.38297	0.21762	0.15921	0.15021	0.21118	0.12262	0.16494	0.25815	-2.2083	-3.1	-2.9271	-2.9292	-3.2562	-2.8396	-3.0042	-3.2542	-2.7625	-2.9938	-3.1437	-2.9292	-3.2479	-2.7938	-2.7417	-3.2479	239.548	390.919	420.662	413.990	102.545	154.565	382.029	441.321	128.802	198.152	403.662	362.802	443.521	415.442	142.393	411.364	0.00077335	0.00059718	0.00014387	1081.2	7.7603e-06	6.2627e-06	1297	340.64	5.6768e-06	6.8891e-06	445.59	186.28	116.79	47.102	7.2706e-06	86.558	0.00074361	0.00053329	0.00014157	1026.8	5.4563e-06	5.7113e-06	1229.1	325.54	5.6126e-06	5.6762e-06	425.55	178.36	111.31	45.496	5.8772e-06	83.323	230.218	172.974	190.965	111.431	256.721	251.164	111.111	117.317	275.639	243.616	116.178	121.046	122.133	126.136	266.861	123.908	-8191	255	
1697.983	1	1	0	0	0.018605	0.041415	0.11196	0.21278	0.18275	0.13322	0.31119	0.056258	0.034462	0.096425	0.15829	0.16692	0.16356	0.33594	0.10161	0.35189	-2.2646	-3.0292	-2.9813	-2.7625	-3.1958	-2.8646	-2.8646	-3.2729	-2.625	-3.0375	-3.3063	-2.8958	-3.2417	-3.0563	-2.5917	-3.3042	113.884	187.423	306.421	99.145	413.657	441.766	384.794	372.957	363.575	314.587	412.558	436.805	362.567	425.258	193.674	448.029	0.00081339	0.00060355	0.00013201	1073.7	6.9264e-06	6.33e-06	1291.1	333.66	4.9666e-06	5.6333e-06	441.86	183.77	113.84	46.1	6.3785e-06	85.816	0.00076767	0.0005076	0.00014108	1018.9	5.3391e-06	5.4812e-06	1224.4	318.9	5.4072e-06	5.2337e-06	419.96	175.62	109.35	44.64	5.5887e-06	82.359	231.277	179.353	185.676	111.389	263.340	259.383	111.072	117.060	262.115	255.023	116.059	121.075	122.238	126.227	258.076	123.960	-8191	255	
1698.080	1	1	0	0	0.14684	0.12584	0.29251	0.20284	0.11029	0.068435	0.11927	0.070534	0.12325	0.14104	0.17183	0.38237	0.16451	0.13097	0.13628	0.10997	-2.2583	-3.1083	-3.0438	-2.9375	-2.9188	-2.9333	-2.8521	-3.2208	-2.7062	-2.9896	-3.1667	-2.7583	-3.2438	-2.9083	-2.6708	-3.2146	445.059	349.769	371.222	432.860	283.815	399.113	412.505	399.117	399.610	339.034	376.350	431.866	116.610	161.534	211.076	433.092	0.00080203	0.00068718	0.00018065	1076.1	6.8496e-06	7.5045e-06	1291.9	334.61	5.2948e-06	7.0355e-06	438.8	182.02	113.32	46.005	6.358e-06	85.12	0.00075122	0.00050622	0.00014055	1020	5.0942e-06	5.1564e-06	1224.1	319.22	5.3992e-06	5.6752e-06	417.69	174.27	108.35	44.274	5.8302e-06	81.927	230.503	173.283	190.523	111.164	259.687	257.606	111.137	117.404	271.762	247.126	115.977	121.081	122.469	126.097	254.284	124.097	-8191	255	
1698.176	1	1	0	0	0.11433	0.17765	0.31815	0.30336	0.21055	0.12682	0.19622	0.27426	0.15782	0.36817	0.41374	0.20768	0.22869	0.27606	0.15748	0.092311	-2.4896	-2.9208	-3.0604	-2.9333	-2.9958	-2.8688	-2.7	-3.2417	-2.6063	-2.9562	-3.1708	-2.7917	-3.0833	-3.3	-2.6	-3.2646	359.156	239.427	351.382	101.927	293.197	414.578	173.291	370.020	440.816	234.342	393.028	388.114	433.219	423.539	381.404	376.893	0.00079737	0.00058322	0.00019092	1072.8	6.3387e-06	6.1239e-06	1298.6	332.78	5.1972e-06	6.9473e-06	437.45	181.51	113.08	45.745	5.7485e-06	85.524	0.00075621	0.00050606	0.00013968	1017	5.1368e-06	5.6394e-06	1225.8	316.86	5.183e-06	5.7169e-06	418.1	173.91	108.34	44.156	5.9971e-06	82.002	231.118	190.041	191.843	111.055	248.310	234.557	111.085	117.232	264.453	246.582	115.943	121.077	122.848	126.212	262.355	124.221	-8191	255	
1698.272	1	1	0	0	0.097898	0.23883	0.099637	0.24114	0.074211	0.084899	0.26615	0.28709	0.18839	0.28528	0.33248	0.10298	0.39243	0.12478	0.22684	0.24598	-2.4271	-2.6625	-3.1604	-2.7396	-2.9667	-3.0875	-2.9479	-3.2646	-2.8396	-2.8021	-3.4437	-2.9208	-3.0458	-3.1813	-2.7271	-3.2854	104.117	210.667	136.624	437.741	233.848	331.990	405.390	411.397	428.123	147.660	99.737	111.006	426.733	405.714	233.526	412.516	0.00079684	0.0006224	0.00016224	1077.2	6.2533e-06	5.5089e-06	1297.3	334.65	5.9253e-06	6.7027e-06	442.68	182.87	113.89	45.823	6.2451e-06	85.268	0.00076051	0.00050793	0.00013998	1022	5.2637e-06	5.5769e-06	1228.1	318.89	5.6855e-06	5.9348e-06	421.3	175.06	109.14	44.356	5.8447e-06	82.076	231.222	186.512	173.201	111.204	261.744	267.734	111.033	117.317	272.824	243.570	116.420	121.153	122.567	126.304	256.779	123.732	-8191	255	
1698.368	1	1	0	0	0.29234	0.14375	0.14519	0.52383	0.27047	0.12091	0.32228	0.33976	0.19816	0.21375	0.28139	0.46394	0.22909	0.063822	0.31043	0.19286	-2.3646	-2.7417	-3.1292	-2.8	-2.9	-3.1729	-2.625	-3.2083	-2.8625	-2.6979	-3.4688	-2.7792	-2.8312	-3.1958	-2.6292	-3.1625	259.338	147.736	323.099	101.034	185.258	116.780	400.282	376.997	324.011	311.679	390.315	102.302	103.524	128.323	296.922	438.451	0.00075242	0.00072636	0.00014415	1071	6.3322e-06	5.562e-06	1289	330.97	5.4024e-06	5.8538e-06	436.79	181.09	113.45	45.581	6.7769e-06	85.23	0.00074073	0.00052492	0.00013318	1018.5	5.1845e-06	5.5115e-06	1220.9	316.85	5.2594e-06	5.5416e-06	416.28	173.52	108.37	44.166	5.8634e-06	81.798	230.732	189.868	181.826	111.285	261.588	259.827	111.047	117.314	263.597	248.390	115.988	121.087	122.682	125.952	259.561	124.057	-8191	255	
1698.464	1	1	0	0	0.058965	0.21874	0.10786	0.26913	0.28836	0.16621	0.087638	0.28246	0.11414	0.23838	0.22352	0.25701	0.15228	0.26759	0.059148	0.24772	-2.4104	-2.6875	-3.0875	-2.9146	-2.7958	-3.1667	-2.85	-3.0021	-3.0271	-2.5292	-3.2625	-3.0896	-3.0563	-3.2354	-2.5312	-3.15	292.116	173.206	284.325	138.678	327.932	225.435	117.216	379.656	252.594	201.136	367.714	423.463	123.294	369.615	222.874	431.161	0.00079225	0.00072077	0.00018788	1078.3	6.5883e-06	5.7216e-06	1290.7	333.45	5.8384e-06	5.2471e-06	439.25	181.7	113.02	45.783	5.9454e-06	84.703	0.00074536	0.00052459	0.00014608	1019.7	5.2383e-06	5.3477e-06	1222	318.56	5.4771e-06	5.6146e-06	417.29	173.9	108.43	44.237	5.7313e-06	81.763	230.048	177.298	183.648	111.440	268.820	246.899	111.259	117.282	279.454	247.907	116.098	120.988	122.365	126.156	264.872	124.038	-8191	255	
1698.583	1	1	0	0	0.035088	0.071439	0.15892	0.21582	0.14395	0.090936	0.21914	0.3049	0.046545	0.10218	0.23619	0.28665	0.012052	0.1283	0.11657	0.15896	-2.5938	-2.5542	-3.1542	-3.075	-2.825	-2.9375	-3.0312	-3.0417	-3.0521	-2.5708	-3.3604	-2.7812	-2.9604	-3.2396	-2.6	-3.1063	153.867	285.314	202.963	444.172	187.651	447.436	363.996	101.018	395.757	443.080	136.168	449.839	391.889	193.026	229.322	442.714	0.00081675	0.0006162	0.00015093	1073.9	6.4636e-06	6.4654e-06	1295.3	334.51	6.1377e-06	5.6687e-06	436.96	182.58	113.35	45.933	6.1976e-06	85.952	0.00075029	0.00052028	0.00014345	1020.8	5.425e-06	5.6337e-06	1223.5	318.79	5.3841e-06	5.606e-06	417.27	174.73	108.79	44.5	5.8026e-06	82.499	229.211	176.341	183.232	111.448	260.506	264.887	111.237	117.358	271.940	249.561	116.037	121.061	122.513	126.067	256.226	123.698	-8191	255	
1698.679	1	1	0	0	0.18996	0.24056	0.095838	0.37428	0.16111	0.12099	0.17009	0.13965	0.062936	0.24321	0.20153	0.16388	0.15836	0.43836	0.19047	0.15296	-2.5563	-2.4792	-3.0604	-3.1458	-2.6604	-3.2042	-3.0333	-3.0021	-3.1083	-2.4167	-3.3479	-3.0646	-2.8292	-3.0292	-2.9729	-3.1896	373.492	248.063	113.784	387.542	199.703	109.333	373.605	375.267	363.431	151.168	417.208	413.615	263.678	113.194	182.051	396.234	0.00081023	0.00062332	0.00015731	1075.8	6.0476e-06	6.8485e-06	1293.9	334.31	4.7852e-06	5.92e-06	438.38	183.97	113.9	46.487	7.1891e-06	86.251	0.00075594	0.00050354	0.00014214	1023.7	5.5847e-06	5.3969e-06	1226.5	320.36	5.0078e-06	5.7984e-06	418.7	175.97	109.22	44.668	5.8123e-06	82.711	230.269	182.195	193.675	111.171	259.121	240.803	111.199	117.289	277.080	247.428	116.134	121.134	122.365	126.023	259.567	123.742	-8191	255	
1698.775	1	1	0	0	0.080491	0.21743	0.16549	0.12876	0.17452	0.23812	0.13034	0.017008	0.17134	0.27	0.18227	0.21995	0.080418	0.24064	0.23064	0.10457	-2.8292	-2.6625	-3	-2.9792	-2.6771	-3.0479	-2.8958	-3.0021	-3.0833	-2.75	-2.9313	-3.1688	-2.7792	-3.3125	-2.9917	-2.9729	117.143	226.319	386.745	231.588	430.433	223.481	113.547	103.426	441.332	115.234	444.739	382.452	371.159	440.819	366.420	395.300	0.00077995	0.00069595	0.00016822	1079.6	5.6019e-06	6.9282e-06	1295.7	334.06	4.8723e-06	5.5189e-06	435.84	182	113.86	46.006	5.112e-06	85.419	0.00074147	0.00054418	0.00014002	1021.9	5.5063e-06	5.4566e-06	1224.8	318.84	5.1512e-06	5.157e-06	416.01	174.33	108.54	44.391	5.3917e-06	82.107	229.943	198.145	201.491	111.252	270.113	259.176	110.854	117.006	269.820	259.829	116.212	120.958	122.603	126.240	269.189	123.925	-8191	255	
1698.896	1	1	0	0	0.19512	0.020471	0.050295	0.12697	0.1109	0.17238	0.35119	0.095747	0.2693	0.012114	0.13354	0.4325	0.049205	0.15672	0.18032	0.086811	-2.8917	-2.7042	-2.9396	-3.2438	-2.6521	-3.3104	-3.3187	-2.9458	-3.3	-2.7125	-2.9667	-3.1854	-2.8979	-3.0708	-2.9396	-3.0375	363.591	184.283	287.968	108.936	407.245	354.915	409.381	456.056	160.157	413.692	269.946	452.710	446.808	406.582	435.840	102.616	0.00080955	0.00051169	0.00022317	1075.1	6.1872e-06	5.308e-06	1293.8	334.64	5.7398e-06	6.1888e-06	438.89	183.23	114.13	46.061	5.5657e-06	85.764	0.00076173	0.00048468	0.00014451	1021.4	5.4093e-06	5.4831e-06	1225.2	320.31	5.1404e-06	5.3142e-06	417.66	175.24	109.44	44.718	5.6227e-06	82.539	231.928	182.265	188.078	111.541	256.711	243.656	111.173	117.247	278.980	256.063	116.010	121.071	122.735	126.155	263.766	123.985	-8191	255	
1698.968	1	1	0	0	0.34162	0.1583	0.14387	0.25814	0.17064	0.18307	0.22515	0.30029	0.073876	0.28711	0.32626	0.35399	0.22648	0.23214	0.13563	0.13009	-2.6437	-2.8292	-2.8937	-3.2125	-2.7333	-3.1375	-3.2396	-2.9646	-3.3208	-2.8458	-3.2833	-3.0833	-2.8521	-2.9479	-3.1562	-3.0104	116.702	434.070	113.266	435.476	399.578	386.325	411.355	367.570	216.311	445.477	108.376	403.856	146.279	388.305	377.646	413.616	0.00078393	0.00074712	0.00018808	1078.6	5.1532e-06	5.6343e-06	1293.9	336.62	5.2833e-06	5.2256e-06	441.12	183.15	114.05	46.351	7.1548e-06	86.065	0.00073779	0.00050386	0.00013201	1023.7	5.0009e-06	5.2975e-06	1225.7	320.47	5.2269e-06	5.5549e-06	418.8	175.39	109.36	44.769	5.4322e-06	82.788	229.957	188.710	199.117	111.228	263.174	242.673	111.210	117.433	270.927	242.800	116.217	120.912	122.583	126.255	261.358	123.890	-8191	255	
1699.064	1	1	0	0	0.048437	0.073728	0.28741	0.23604	0.20908	0.13118	0.15342	0.3722	0.080546	0.44414	0.13456	0.18252	0.1482	0.41547	0.17539	0.22742	-2.8542	-3.0146	-2.8792	-3.0792	-2.7396	-3.1458	-3.3729	-2.8458	-3.0104	-2.9854	-2.9604	-3.3917	-2.7521	-3.0271	-3.0083	-2.8583	116.072	285.738	271.608	447.495	386.699	277.479	115.285	379.020	159.468	412.834	455.288	425.473	369.469	388.089	197.987	422.284	0.00079111	0.00058069	0.00018423	1077.3	6.1561e-06	5.7885e-06	1300	337.56	5.793e-06	8.0491e-06	442.18	185.18	114.8	46.477	5.5532e-06	86.277	0.00074319	0.00049232	0.00014675	1023.3	5.1816e-06	5.2625e-06	1230.5	321.6	5.4209e-06	5.5018e-06	420.97	176.49	109.95	44.902	5.2969e-06	83.21	230.868	200.736	186.381	111.488	255.708	256.242	111.207	117.245	270.989	240.060	116.067	121.013	122.471	126.129	253.827	124.001	-8191	255	
1699.160	1	1	0	0	0.344	0.041985	0.10058	0.24974	0.071191	0.10155	0.19053	0.19427	0.0074751	0.29639	0.094382	0.37308	0.21633	0.40906	0.20952	0.3267	-2.5979	-2.9208	-2.8521	-3.4042	-2.7771	-2.9188	-3.3625	-2.65	-3.2104	-3.0104	-2.9667	-3.3375	-2.7896	-3.1667	-3.2104	-2.9688	410.923	403.827	127.098	451.196	205.049	238.215	432.015	107.507	412.239	412.341	403.332	420.481	133.704	400.914	274.886	389.221	0.00079305	0.0004951	0.00017323	1083.2	5.3312e-06	6.8101e-06	1298.4	337.55	5.3148e-06	6.8896e-06	439.56	184.23	114.97	46.423	6.8067e-06	85.868	0.00075921	0.00049053	0.00014502	1024.2	5.0673e-06	5.3609e-06	1226.8	321.35	5.4324e-06	5.2811e-06	418.21	176.06	109.83	44.751	5.4598e-06	82.718	229.195	182.893	195.384	111.464	261.129	254.460	111.439	117.271	263.706	243.173	116.160	121.081	122.367	126.169	260.748	123.981	-8191	255	
1699.279	1	1	0	0	0.27153	0.12291	0.28466	0.22039	0.24973	0.16553	0.2444	0.20701	0.22233	0.093094	0.12692	0.22577	0.20209	0.2103	0.13576	0.22819	-2.6562	-2.8458	-2.7917	-3.175	-3.0083	-2.8271	-3.2604	-3.0333	-3.0979	-3.2583	-2.7479	-3.2771	-2.9792	-2.9729	-3.1583	-3.0604	218.197	435.217	401.746	141.699	149.990	336.593	346.128	450.353	257.765	432.689	143.599	443.636	314.934	441.792	117.950	396.937	0.00075792	0.00069668	0.00017157	1078.6	6.7654e-06	6.1561e-06	1290.8	334.07	5.8592e-06	6.6382e-06	438.77	183.02	115.04	46.5	6.699e-06	86.688	0.00072608	0.00051329	0.00013624	1023.6	5.1263e-06	5.4064e-06	1225.1	319.9	5.3452e-06	5.1096e-06	417.54	175.39	109.84	44.859	5.5587e-06	83.088	231.672	177.714	182.315	111.301	261.323	235.385	111.180	117.162	270.321	247.846	116.187	121.106	122.668	126.155	256.521	123.968	-8191	255	
1699.375	1	1	0	0	0.23003	0.15794	0.14763	0.1013	0.069065	0.15201	0.09464	0.11109	0.22333	0.13204	0.19089	0.072836	0.33799	0.20479	0.20937	0.10249	-2.7125	-2.9292	-2.7438	-3.3271	-2.8937	-2.9	-3.3917	-2.8104	-2.875	-3.1188	-2.925	-3.0187	-3.1646	-2.9437	-3.1063	-2.8771	340.420	295.910	346.951	311.686	456.715	100.007	385.437	437.159	434.534	434.564	349.697	291.274	450.340	148.279	452.410	134.693	0.00073812	0.0005625	0.00021737	1077.2	6.108e-06	6.9703e-06	1301.8	337.17	5.298e-06	6.1161e-06	438.98	183.9	115.15	46.55	6.912e-06	86.424	0.00071191	0.00047004	0.00014318	1023.7	5.3167e-06	5.3297e-06	1230.7	321.61	5.0856e-06	5.7036e-06	418.48	176.38	110	44.921	5.6964e-06	83.323	230.545	194.524	179.242	111.287	266.604	256.118	111.196	117.352	277.720	246.836	116.406	121.024	122.647	126.165	259.186	123.836	-8191	255	
1699.471	1	1	0	0	0.11753	0.074336	0.14373	0.34335	0.10014	0.099853	0.20901	0.18243	0.22152	0.19029	0.068733	0.26101	0.38899	0.097195	0.24387	0.27532	-2.6729	-3.1021	-2.5938	-3.3208	-3.0333	-2.9271	-3.3396	-3	-2.7333	-3.4188	-2.7938	-3.3688	-3.2062	-2.9625	-3.3208	-3.0896	219.132	250.274	238.917	421.161	301.673	279.839	369.181	240.549	284.248	128.600	406.280	130.374	422.262	449.980	300.565	331.440	0.00079207	0.00056799	0.00019473	1082.7	6.2371e-06	5.9162e-06	1303.1	335.6	6.495e-06	6.918e-06	440.82	185.35	114.37	46.417	7.5433e-06	86.341	0.00075083	0.00049443	0.00014703	1024.2	5.4765e-06	5.556e-06	1231.4	320.65	5.5867e-06	5.3891e-06	419.35	176.96	109.57	44.847	5.771e-06	83.126	230.530	185.304	192.149	111.456	258.978	256.173	111.122	117.260	268.586	249.549	116.273	121.033	122.536	126.404	258.777	123.992	-8191	255	
1699.545	1	1	0	0	0.13594	0.16966	0.11759	0.093303	0.057645	0.04888	0.10558	0.36441	0.3182	0.14877	0.1325	0.32751	0.084009	0.28866	0.16988	0.10337	-2.1729	-3.1	-2.7562	-3.2104	-3.15	-2.7792	-3.3104	-2.8271	-2.8583	-3.3187	-2.9833	-3.2396	-3.1875	-2.875	-3.2938	-3.2167	334.013	323.166	291.708	186.267	178.565	385.860	280.332	442.350	425.544	386.790	394.700	420.027	144.927	165.521	162.808	314.548	0.0008143	0.00051998	0.00016643	1079.7	5.5635e-06	5.9596e-06	1298.1	335.64	4.6425e-06	5.3036e-06	436.14	184.21	113.76	46.075	6.6346e-06	85.75	0.00076955	0.00047541	0.00014719	1024.5	4.9606e-06	5.5712e-06	1230.2	320.21	5.3596e-06	5.1892e-06	417.05	176.05	109.07	44.478	5.4541e-06	82.551	230.039	185.882	186.934	111.363	272.454	249.131	111.161	117.219	275.333	248.569	116.271	121.076	122.775	126.408	271.189	123.813	-8191	255	
1699.663	1	1	0	0	0.045338	0.30405	0.048757	0.1386	0.14773	0.093077	0.22395	0.14127	0.12081	0.11422	0.35646	0.1671	0.12894	0.1417	0.17101	0.28753	-2.4917	-3.1958	-2.7333	-3.1042	-3.2083	-2.875	-3.3375	-3.0146	-2.8167	-3.1083	-3.0187	-2.8625	-3.2271	-2.8563	-3.0458	-3.2604	129.490	141.403	190.870	417.102	174.592	286.234	387.441	397.855	180.619	238.965	431.930	439.332	423.611	371.581	412.627	457.527	0.0007867	0.00057598	0.00017242	1075.8	7.0833e-06	5.1154e-06	1302.6	335.41	5.4525e-06	6.3164e-06	436.81	182.82	114.25	46.412	5.3741e-06	85.933	0.00074293	0.00045151	0.00013615	1020.2	5.1509e-06	5.4897e-06	1229.9	319.61	5.6227e-06	5.2593e-06	416.95	175.44	108.95	44.687	5.5011e-06	82.811	231.285	180.039	188.878	111.284	262.657	255.330	111.203	117.314	273.365	251.408	115.979	121.173	122.722	125.954	257.686	123.891	-8191	255	
1699.760	1	1	0	0	0.28926	0.27821	0.071069	0.052445	0.25092	0.23615	0.25974	0.29077	0.18189	0.11856	0.20303	0.19903	0.12632	0.17306	0.16356	0.32307	-2.3667	-3.1167	-2.7917	-2.9208	-3.1688	-2.6208	-3.0958	-3.3	-2.5479	-3.1917	-2.9125	-2.9938	-3.2625	-2.7938	-3.1208	-3.1042	254.263	191.130	341.208	323.678	425.224	101.246	375.011	383.532	324.651	258.559	106.118	343.519	441.578	372.449	276.091	425.558	0.0008083	0.00059401	0.00019949	1075.2	5.7807e-06	6.4484e-06	1306.9	335.67	5.1115e-06	7.077e-06	438.57	183.91	114.2	46.394	6.3665e-06	86.345	0.00076037	0.00047939	0.0001494	1022.3	5.1726e-06	5.4822e-06	1232.9	320.49	5.6372e-06	5.5321e-06	419.29	176.47	109.5	44.798	5.523e-06	83.073	231.782	175.708	190.636	111.290	257.295	254.214	111.374	117.162	271.170	248.387	116.117	121.063	122.531	126.048	264.049	123.951	-8191	255	
1699.856	1	1	0	0	0.16448	0.23707	0.14826	0.12087	0.18598	0.098894	0.085581	0.17411	0.14632	0.13118	0.28877	0.12019	0.22161	0.34754	0.13731	0.031452	-2.2292	-3.2333	-2.9708	-2.7938	-3.2833	-2.5917	-3.1333	-3.075	-2.6604	-3.0146	-3.0563	-3.0854	-3.4021	-2.6208	-3.0083	-3.3417	380.523	434.773	247.622	179.902	161.929	367.649	396.973	447.852	404.099	401.410	107.053	149.544	435.109	438.808	348.539	209.891	0.00077921	0.00056414	0.00018261	1082.8	6.3877e-06	5.382e-06	1304.8	335.3	5.6157e-06	5.8446e-06	439.07	183.95	114.1	46.347	7.1187e-06	86.047	0.00074807	0.00048435	0.00013668	1024.8	5.2107e-06	5.3098e-06	1235.6	319.82	5.4317e-06	5.2849e-06	418.59	176.54	109.43	44.623	5.677e-06	83.032	230.087	187.575	194.210	111.188	260.038	261.482	111.158	117.086	269.443	259.276	116.192	121.281	122.467	126.079	251.639	123.981	-8191	255	
1699.976	1	1	0	0	0.19704	0.11221	0.13333	0.24102	0.20105	0.21329	0.3305	0.32225	0.053141	0.11404	0.13672	0.24124	0.21342	0.25766	0.12365	0.12733	-2.2354	-2.9875	-3.0208	-2.7479	-3.2292	-2.9896	-3.1042	-3.0833	-2.6854	-3.0563	-2.8292	-2.8937	-3.1937	-2.9062	-2.8937	-3.35	197.545	288.709	308.024	405.642	380.747	269.854	295.782	442.294	208.046	239.049	406.445	324.630	126.682	408.670	375.418	451.977	0.00077906	0.00042981	0.00019569	1072.5	5.1942e-06	6.752e-06	1296.3	331.22	5.325e-06	6.2703e-06	435.68	181.53	112.36	45.687	6.5078e-06	85.752	0.00073098	0.00046265	0.00014564	1018.6	5.1032e-06	5.4897e-06	1227.5	316.34	5.245e-06	5.4725e-06	413.43	173.72	107.73	44.061	5.6883e-06	82.243	230.956	187.707	185.503	111.335	264.113	256.453	111.326	117.307	271.834	250.457	116.241	121.387	122.652	126.247	261.167	124.048	-8191	255	
1700.073	1	1	0	0	0.15821	0.090871	0.10983	0.3161	0.034447	0.14599	0.14955	0.22331	0.062406	0.28673	0.282	0.28962	0.14809	0.17482	0.2066	0.17918	-2.1979	-3.2938	-2.7625	-2.7729	-3.3	-2.9833	-3.0833	-3.2938	-2.6688	-3.1083	-3.1792	-2.6854	-3.2812	-3.0125	-2.8917	-3.3	230.554	165.783	362.993	390.706	319.237	429.856	424.224	379.724	446.677	405.678	439.822	451.463	302.533	107.403	181.904	369.766	0.00078767	0.00058209	0.00015284	1072.8	5.1868e-06	6.8688e-06	1295.6	331.65	5.7272e-06	7.4982e-06	433.92	182.11	113.28	45.802	6.3691e-06	85.576	0.00075166	0.0004759	0.0001332	1016.3	5.0688e-06	5.1706e-06	1227.5	316.41	5.121e-06	5.2053e-06	413.55	174.48	108.26	44.159	5.4136e-06	82.368	230.763	191.689	181.094	111.363	248.411	247.277	111.362	117.100	269.053	255.596	116.099	121.292	122.482	126.227	265.668	123.925	-8191	255	
1700.169	1	1	0	0	0.11953	0.21819	0.095187	0.18499	0.15087	0.16035	0.42124	0.19252	0.22921	0.2352	0.15626	0.24906	0.29075	0.28422	0.06623	0.31387	-2.3792	-3.0125	-3.0354	-2.9333	-3.1354	-3.1083	-2.9583	-3.2167	-2.7771	-3.1583	-3.0687	-2.7896	-2.9604	-3.1146	-2.8833	-3.2917	431.706	346.620	302.616	421.415	439.714	184.748	410.935	411.429	112.805	185.680	250.671	405.799	108.861	335.412	236.798	394.630	0.00077962	0.00057596	0.00020375	1069.7	5.0403e-06	6.5701e-06	1294.9	332.03	5.1397e-06	4.9333e-06	438.11	181.89	112.78	45.793	6.8318e-06	85.931	0.00074602	0.00045817	0.00014193	1016.5	5.0098e-06	5.4367e-06	1228.6	316.05	5.3358e-06	5.3749e-06	415.51	174.68	108.19	44.177	5.9266e-06	82.757	230.301	181.798	189.286	111.368	266.452	240.652	111.004	117.254	270.864	251.827	116.040	121.161	122.502	126.090	262.947	124.094	-8191	255	
1700.265	1	1	0	0	0.13078	0.071719	0.19548	0.052303	0.096492	0.33304	0.10408	0.20805	0.2734	0.24762	0.041154	0.23336	0.18661	0.21759	0.15257	0.075452	-2.3646	-3.0271	-3.0896	-2.7292	-3.2458	-2.8729	-2.8646	-3.1937	-2.7542	-2.9646	-3.0833	-3.1021	-3.0646	-3.1625	-2.7812	-3.3792	122.018	428.242	379.999	287.526	344.552	437.787	139.302	101.181	208.385	284.699	125.158	426.403	424.542	458.811	209.267	442.309	0.00079223	0.00068231	0.00017243	1076.5	6.2447e-06	6.4203e-06	1301.5	332.29	5.1168e-06	6.1455e-06	436.8	184.13	113.72	46.052	5.364e-06	86.45	0.00072617	0.00049646	0.00013472	1021.8	5.0584e-06	5.4036e-06	1233.5	318.64	5.2421e-06	5.3862e-06	415.97	176.17	108.82	44.424	5.7904e-06	83.155	230.270	179.448	193.575	111.640	257.539	255.034	111.183	117.245	264.061	262.607	116.063	121.170	122.669	126.148	270.163	123.977	-8191	255	
1700.361	1	1	0	0	0.28273	0.11811	0.1662	0.17277	0.12993	0.12298	0.19426	0.30031	0.10815	0.22474	0.073165	0.32276	0.26919	0.13425	0.19459	0.18788	-2.3292	-2.9688	-3.0938	-2.9354	-2.9125	-2.9479	-2.9125	-3.3083	-2.6729	-2.7917	-3.3208	-2.8667	-3.0604	-3.1896	-2.6979	-3.1396	151.719	251.305	105.097	348.584	263.599	388.557	416.772	419.665	107.380	165.879	321.559	104.960	140.528	363.331	340.682	367.554	0.00079935	0.00059627	0.00013546	1078.7	6.3226e-06	5.0809e-06	1302.3	335.77	4.5617e-06	6.2822e-06	436.87	185.07	114.7	46.288	6.9639e-06	87.059	0.00074729	0.00048581	0.00013894	1020.5	5.0867e-06	5.3259e-06	1233.2	319.9	5.361e-06	5.3796e-06	417.5	176.69	109.71	44.699	5.7118e-06	83.41	230.106	181.306	194.250	111.572	259.680	246.042	110.929	117.013	257.628	248.415	116.390	121.339	122.346	126.109	266.092	124.133	-8191	255	
1700.455	1	1	0	0	0.20335	0.24007	0.083443	0.31185	0.14031	0.084943	0.48308	0.10663	0.14694	0.22842	0.24401	0.1236	0.10997	0.13579	0.2808	0.18469	-2.45	-2.7188	-3.2771	-2.9979	-2.9854	-3.1562	-2.8271	-3.3521	-2.8167	-2.8312	-3.1562	-2.9062	-3.1917	-3.2062	-2.8479	-3.0521	429.262	358.613	312.105	100.224	226.852	168.168	383.996	370.735	275.893	320.943	371.537	387.065	452.057	152.586	131.159	447.608	0.00079443	0.00059044	0.00019936	1077.8	6.6724e-06	7.2731e-06	1302.1	337.74	5.8669e-06	4.8474e-06	442.18	185.32	114.42	46.509	6.2212e-06	86.624	0.00074325	0.00048777	0.00013272	1022.5	5.2331e-06	5.217e-06	1234.3	321.83	5.3848e-06	5.3474e-06	420.24	177.24	109.91	44.909	5.7232e-06	83.363	230.157	180.694	199.064	111.361	268.179	248.074	111.229	117.296	269.508	240.956	115.876	121.237	122.762	126.084	252.003	124.059	-8191	255	
1700.576	1	1	0	0	0.18382	0.072214	0.30698	0.29147	0.17911	0.15262	0.036681	0.53694	0.083548	0.26691	0.10637	0.1828	0.17694	0.2781	0.22005	0.22585	-2.5875	-2.8583	-3.0521	-3.0083	-3.025	-3.2208	-2.9104	-3.2542	-2.85	-2.7875	-3.2062	-2.9688	-3.0042	-3.3646	-2.7854	-3.1354	294.922	320.731	457.939	435.837	228.105	261.289	357.614	422.461	172.357	336.790	236.042	371.741	391.525	411.612	183.040	351.470	0.00078404	0.00061944	0.00018617	1078.4	6.6596e-06	5.1953e-06	1306.9	336.42	5.452e-06	5.5719e-06	440.97	184.76	114.52	46.529	5.7623e-06	87.177	0.0007369	0.00052028	0.00014113	1022.7	5.2346e-06	5.4102e-06	1235	320.89	5.3214e-06	5.7283e-06	420.47	177.41	109.93	44.967	5.5733e-06	83.99	230.150	185.770	173.964	111.189	268.696	249.532	111.188	117.213	277.488	266.285	116.292	121.041	122.769	126.184	268.054	124.005	-8191	255	
1700.672	1	1	0	0	0.1258	0.33455	0.13029	0.13802	0.21362	0.056011	0.26011	0.17654	0.18293	0.13923	0.14361	0.31949	0.26429	0.36778	0.31253	0.18829	-2.6917	-2.65	-3.1167	-2.9479	-2.6125	-3.1	-2.7854	-3.3167	-3.0917	-2.8646	-3.1875	-3.0729	-2.8854	-3.2667	-2.7458	-3.0312	379.142	368.059	189.914	102.235	441.097	407.188	393.138	352.480	188.083	151.024	448.629	456.322	385.491	106.435	112.763	387.953	0.00077404	0.0007186	0.00018658	1078.7	7.4362e-06	4.683e-06	1309.4	335.13	5.0258e-06	7.3818e-06	439.81	184.64	115.05	46.48	5.9453e-06	87.05	0.00072501	0.00052419	0.00013447	1022.9	5.4847e-06	5.1242e-06	1236.1	320.04	5.1361e-06	5.571e-06	418.75	177.36	109.75	44.787	5.4006e-06	83.751	230.403	174.560	180.624	111.436	269.713	241.481	111.251	117.387	273.699	250.836	116.447	121.106	122.513	126.037	267.035	123.924	-8191	255	
1700.768	1	1	0	0	0.20071	0.32927	0.10822	0.22299	0.11389	0.048498	0.26404	0.14771	0.15611	0.18998	0.18019	0.37024	0.11574	0.19539	0.12132	0.075232	-2.5979	-2.6479	-3.1104	-3.0438	-2.8458	-3.3208	-2.9625	-3.2771	-3.1562	-2.7854	-3.1771	-3.2604	-2.9688	-3.1875	-2.8667	-3.0083	391.188	369.573	272.381	412.362	420.412	193.436	368.410	112.835	181.157	400.943	155.596	405.184	402.024	177.446	259.696	392.047	0.00079363	0.00057724	0.00018785	1071.3	6.5498e-06	5.9672e-06	1305.8	334.32	5.1355e-06	6.5522e-06	438.08	184.71	114.15	46.338	6.602e-06	87.14	0.00074492	0.00048736	0.00012767	1019.3	5.1226e-06	5.0409e-06	1235	319.19	5.1347e-06	5.3787e-06	417.51	176.71	109.26	44.713	5.6924e-06	83.563	230.654	165.432	199.403	111.290	263.991	251.019	111.328	117.231	262.684	248.614	116.270	121.072	122.631	125.806	263.939	124.047	-8191	255	
1700.840	1	1	0	0	0.25625	0.026228	0.11913	0.27984	0.13057	0.16606	0.12611	0.1999	0.34608	0.20851	0.18822	0.087455	0.11439	0.12322	0.2271	0.28921	-2.6625	-2.5958	-3.0292	-3.1479	-2.6896	-2.975	-2.7354	-2.9188	-3.0375	-2.7458	-3.2812	-3.1312	-2.7604	-3.3792	-2.7167	-3.1354	218.515	232.568	425.740	411.842	171.985	349.826	432.873	363.411	110.727	145.298	164.559	360.645	317.180	171.017	274.367	383.750	0.00080312	0.00060409	0.00016805	1070.3	6.6729e-06	6.6419e-06	1301.3	333.72	5.8144e-06	5.9709e-06	435.42	184.05	114.19	46.08	5.8634e-06	86.306	0.00074637	0.00046265	0.00013668	1016	5.2032e-06	5.3401e-06	1230.4	317.87	5.0885e-06	5.445e-06	415.77	176.17	108.94	44.55	5.2985e-06	83.332	230.590	189.200	192.235	111.382	259.618	252.933	111.216	117.214	271.034	242.585	116.200	121.223	122.564	125.992	267.455	124.006	-8191	255	
1700.961	1	1	0	0	0.18402	0.021799	0.22889	0.076489	0.12105	0.11862	0.28763	0.19422	0.13746	0.067728	0.27084	0.22124	0.13481	0.087918	0.1738	0.15993	-2.8479	-2.6979	-3.0042	-3.1708	-2.5229	-3.025	-3.0938	-3.0167	-3.1583	-2.8729	-3.0604	-3.1854	-2.8729	-3.1875	-2.7771	-2.8583	220.788	372.905	396.495	153.450	284.955	438.823	453.571	396.005	344.695	341.912	126.671	452.135	449.886	445.888	341.090	394.928	0.00082509	0.00059605	0.00019664	1074.8	6.8996e-06	6.013e-06	1303.1	333.95	6.1471e-06	7.0861e-06	438.42	184.31	114.23	46.43	5.9226e-06	86.977	0.00075133	0.00050012	0.00013629	1017.6	5.0434e-06	5.4661e-06	1233.2	319.11	5.4627e-06	5.4071e-06	416.33	176.37	109.17	44.7	5.3228e-06	83.562	232.529	189.323	194.657	111.259	262.563	246.343	111.231	117.182	263.160	246.912	116.314	120.882	122.589	126.129	264.422	123.936	-8191	255	
1701.057	1	1	0	0	0.14143	0.031593	0.046361	0.17207	0.1508	0.088596	0.33577	0.1934	0.20045	0.22653	0.092308	0.047366	0.19861	0.31065	0.27577	0.17327	-2.8208	-2.5958	-3.0354	-3.1646	-2.7417	-3.0062	-3.3292	-2.9979	-3.0542	-2.9875	-2.9396	-3.375	-2.7458	-3.0458	-2.9521	-2.8646	335.644	100.472	257.439	439.886	334.589	251.518	398.426	374.256	151.228	150.623	145.954	258.955	431.118	351.317	298.044	420.180	0.00081203	0.00047258	0.00019266	1072.4	6.5935e-06	6.6525e-06	1304.4	333.07	5.0582e-06	5.4057e-06	436.95	184.09	113.99	46.176	7.222e-06	87.129	0.00074625	0.00048053	0.00014401	1017.8	5.2555e-06	5.5655e-06	1233.8	318.33	5.3084e-06	5.1266e-06	415.8	176.45	109.01	44.559	5.5935e-06	83.764	231.317	182.468	195.289	111.366	260.215	246.011	111.222	117.171	256.017	240.653	116.241	121.025	122.771	126.165	266.020	124.112	-8191	255	
1701.153	1	1	0	0	0.18611	0.097662	0.37271	0.32534	0.12421	0.15302	0.16633	0.10352	0.21185	0.12335	0.14555	0.21738	0.20246	0.14195	0.26093	0.33554	-2.6729	-2.8833	-2.7271	-3.4708	-2.5542	-3.0896	-3.1167	-2.7729	-3.1437	-2.9958	-2.9667	-3.3292	-2.8396	-2.9833	-3.2083	-2.7083	198.619	299.739	305.317	425.160	129.022	258.297	143.757	413.672	346.763	268.994	437.933	454.035	383.654	440.513	315.011	412.283	0.00080454	0.00051684	0.00018886	1078.5	6.803e-06	6.061e-06	1306.7	331.78	3.845e-06	6.9282e-06	435.79	184.44	114.24	46.115	6.8547e-06	86.849	0.00073624	0.00048419	0.000133	1017.9	5.3764e-06	5.3411e-06	1237.3	317.22	4.9349e-06	5.3237e-06	416.02	176.75	108.89	44.539	5.4217e-06	83.542	231.965	181.043	186.372	111.430	260.383	253.927	111.348	117.152	263.348	243.452	116.292	121.252	122.366	126.128	265.099	124.191	-8191	255	
1701.249	1	1	0	0	0.076948	0.1363	0.24956	0.09048	0.15438	0.04766	0.26243	0.051961	0.047853	0.24227	0.090468	0.11554	0.29274	0.23827	0.074786	0.073487	-2.9042	-2.8958	-2.9708	-3.1083	-2.7208	-2.8479	-3.3688	-2.7667	-3.15	-2.7146	-2.8354	-3.2167	-2.9396	-3.1042	-3.0271	-2.925	383.081	417.784	126.843	114.372	242.993	236.169	405.959	399.923	242.649	333.380	422.800	350.706	441.220	119.022	235.768	425.961	0.00080693	0.00055786	0.0002143	1070.2	6.2471e-06	5.568e-06	1302.7	334.37	5.5935e-06	6.5034e-06	437.35	184.17	113.76	46.184	7.2662e-06	87.017	0.00074964	0.00050134	0.00013765	1016.2	5.2301e-06	5.3297e-06	1233.9	319.01	5.1851e-06	5.2451e-06	415.55	176.09	108.94	44.629	5.4987e-06	83.634	231.574	189.314	193.084	111.291	266.265	250.551	111.011	117.232	263.715	245.444	116.212	121.048	122.598	125.929	260.472	123.883	-8191	255	
1701.345	1	1	0	0	0.10594	0.15426	0.049832	0.10951	0.28721	0.27262	0.26329	0.19319	0.21063	0.0658	0.23633	0.22586	0.20812	0.12418	0.20368	0.26299	-2.4	-3.1042	-2.5521	-3.2417	-2.55	-2.9104	-3.2854	-3.0708	-2.8146	-3.0979	-2.7833	-3.4042	-2.9771	-2.9188	-3.0604	-2.9562	308.138	161.237	191.115	383.940	437.170	452.961	401.793	400.452	313.669	331.298	396.246	417.255	116.161	391.054	286.558	364.293	0.0007993	0.00075879	0.00017869	1074.3	6.1442e-06	4.9511e-06	1304.7	333.34	5.7531e-06	5.2858e-06	437.03	183.72	114.48	46.249	6.9436e-06	87.325	0.00075175	0.00050142	0.00013919	1016.7	5.0733e-06	5.3221e-06	1232.9	318.76	5.0042e-06	5.2782e-06	416.65	176.4	109.47	44.714	5.3788e-06	83.93	230.627	180.921	186.763	111.247	260.269	247.956	111.271	117.021	271.389	257.433	116.057	121.208	122.601	126.090	252.987	123.977	-8191	255	
1701.441	1	1	0	0	0.12978	0.072	0.14404	0.39491	0.057323	0.13175	0.16935	0.28565	0.17647	0.17263	0.059992	0.29679	0.14131	0.16491	0.090267	0.088717	-2.3875	-2.8812	-2.5187	-3.1771	-2.7729	-2.9646	-3.3563	-2.8063	-2.9625	-3.1083	-2.7625	-3.2125	-3.0604	-2.8479	-3.1833	-2.9625	397.489	330.917	333.671	388.448	258.122	410.139	106.407	363.372	147.719	103.538	314.507	409.498	234.227	109.799	153.488	101.859	0.00077944	0.00059341	0.00020815	1070.2	6.9332e-06	5.4479e-06	1308.5	336.42	4.7594e-06	7.2615e-06	439.13	184.27	114.56	46.514	6.1049e-06	87.965	0.00074198	0.00046687	0.00014643	1017.9	5.307e-06	5.0882e-06	1235.6	320.91	5.139e-06	5.0707e-06	418.02	177.09	109.82	45.033	5.057e-06	84.511	231.168	173.615	188.603	111.481	266.627	253.739	111.106	117.298	273.784	251.314	116.182	121.010	122.630	125.967	263.382	124.088	-8191	255	
1701.537	1	1	0	0	0.063377	0.079897	0.044025	0.23521	0.14927	0.18921	0.10479	0.38177	0.22905	0.15547	0.23549	0.1333	0.3139	0.16797	0.33275	0.054574	-2.6979	-3.1229	-2.5083	-3.0875	-2.9437	-2.6479	-3.2771	-2.8	-2.8354	-3.1958	-2.8021	-3.1688	-3.0687	-2.7583	-3.3667	-2.6646	286.523	166.165	166.389	404.707	412.440	175.035	339.640	371.986	209.512	440.677	402.793	403.749	427.060	368.625	176.467	431.888	0.00080626	0.00058199	0.00019196	1078	6.5061e-06	5.3891e-06	1307.2	336.42	6.4205e-06	5.302e-06	441.93	185.97	115.33	47.032	6.6459e-06	88.2	0.00075344	0.00048907	0.00014292	1019.1	4.9404e-06	5.182e-06	1236.9	321.48	5.2551e-06	5.0148e-06	419.69	178.33	110.37	45.284	5.4112e-06	84.681	231.275	186.140	195.707	111.436	257.648	243.408	111.198	117.086	273.659	252.714	116.202	121.117	122.584	125.974	263.829	123.788	-8191	255	
1701.656	1	1	0	0	0.18099	0.18639	0.1321	0.33607	0.25396	0.13738	0.21753	0.20309	0.2294	0.1591	0.22896	0.28799	0.22714	0.14333	0.017426	0.14072	-2.5312	-3.05	-2.9333	-2.9813	-2.9854	-2.6437	-3.2958	-3.0646	-2.8625	-3.1063	-2.8583	-2.9854	-3.3771	-2.8083	-3.25	-3.0042	373.715	209.100	395.458	443.720	130.239	380.669	380.409	457.711	270.167	453.073	113.579	435.712	362.364	263.745	142.932	111.257	0.0007986	0.00071301	0.00017866	1072.1	7.1938e-06	7.3754e-06	1299.7	337.63	5.1791e-06	6.0501e-06	437.37	186.04	115.08	46.433	6.7204e-06	87.795	0.00073847	0.00051329	0.00013617	1018.3	5.1174e-06	5.3685e-06	1231.6	320.98	5.4396e-06	5.0129e-06	416.7	177.63	110.03	44.952	5.2329e-06	84.315	230.586	182.211	197.395	111.428	259.238	243.312	111.308	117.145	272.387	258.871	116.190	121.095	122.636	126.180	250.592	123.874	-8191	255	
1701.753	1	1	0	0	0.12528	0.027386	0.20797	0.35316	0.20447	0.12128	0.16881	0.25713	0.20284	0.10937	0.12931	0.442	0.3085	0.10017	0.12039	0.184	-2.2208	-3.1937	-2.7188	-3.2271	-3.2354	-2.9271	-3.1104	-3.2104	-2.775	-3.3146	-2.8417	-3.2021	-3.2687	-2.8979	-3.0917	-3.2125	161.605	353.061	181.599	398.119	406.737	324.404	371.843	424.657	321.307	246.585	449.089	402.812	124.788	288.038	150.376	410.278	0.00080945	0.00066397	0.00017226	1075.3	7.1178e-06	6.0596e-06	1302.8	337.58	4.7805e-06	5.9006e-06	439.48	185.32	115.08	46.902	7.4568e-06	88.203	0.00075223	0.00047208	0.00013433	1017.7	4.8896e-06	5.2577e-06	1233.4	321.21	5.5175e-06	4.8396e-06	418.31	177.94	110.61	45.32	5.2961e-06	84.668	230.063	181.185	192.596	111.134	262.478	252.321	110.875	117.349	277.232	251.342	116.341	121.058	122.612	126.028	258.102	124.166	-8191	255	
1701.849	1	1	0	0	0.10931	0.11212	0.1276	0.071968	0.21206	0.11173	0.23872	0.36139	0.32372	0.1782	0.19381	0.23783	0.092486	0.23926	0.38206	0.09131	-2.3187	-3.2083	-2.6958	-3.0083	-3.2438	-2.7521	-3.2062	-2.9292	-2.6354	-3.1437	-3.0271	-2.9833	-3.3396	-2.8083	-2.9771	-3.0625	332.636	243.870	110.898	395.270	235.641	202.034	373.017	415.991	251.566	236.458	155.537	367.175	162.436	386.741	197.428	172.171	0.00083951	0.00056321	0.00016744	1075.8	5.9389e-06	6.1411e-06	1309.1	337.67	5.726e-06	7.1797e-06	441.28	186.93	115.98	47.424	7.0389e-06	88.897	0.00077941	0.0004776	0.00012961	1019.9	5.0673e-06	5.1204e-06	1234.8	322.55	5.361e-06	5.2517e-06	419.74	178.94	111	45.579	5.4282e-06	85.278	229.480	190.564	189.302	111.243	266.492	257.462	111.113	117.070	259.748	256.432	116.231	121.136	122.499	125.990	263.696	124.069	-8191	255	
1701.945	1	1	0	0	0.026669	0.07897	0.063517	0.22085	0.10804	0.29859	0.32342	0.022614	0.11321	0.078525	0.29202	0.20007	0.015451	0.10213	0.12586	0.13789	-2.2958	-3.1833	-2.7	-3.0625	-3.1458	-2.7	-3.0583	-3.1833	-2.5896	-3.1375	-3.0396	-2.8646	-3.2896	-2.8521	-2.9667	-3.1708	193.390	258.620	164.218	436.423	400.588	157.485	399.281	360.692	240.724	260.203	349.983	401.976	340.254	411.208	145.831	360.794	0.00079649	0.00063492	0.00017036	1074.9	6.7291e-06	5.4996e-06	1307.3	337	6.145e-06	7.0173e-06	442.59	187.89	115.37	46.974	6.9197e-06	88.641	0.00073595	0.00046939	0.00013841	1018.1	4.8941e-06	5.1412e-06	1236.3	322.06	5.2615e-06	5.1787e-06	420.11	179.62	110.47	45.383	5.3796e-06	85.213	230.871	177.497	197.951	111.232	263.052	250.313	111.151	117.101	277.135	244.396	116.289	120.859	122.562	125.848	251.547	124.041	-8191	255	
1702.065	1	1	0	0	0.11592	0.35421	0.2629	0.014126	0.1072	0.14613	0.33324	0.15412	0.086119	0.13849	0.14839	0.26443	0.19646	0.076957	0.094221	0.28289	-2.2438	-3.0938	-3.0708	-2.8896	-3.2083	-2.8438	-3.2771	-3.3458	-2.4437	-3.2292	-2.8875	-3.0458	-3.25	-2.8729	-2.9562	-3.3271	170.858	200.909	361.573	153.366	131.480	426.473	319.057	344.092	225.240	431.697	375.417	411.927	191.925	360.590	264.227	438.025	0.00080755	0.00061422	0.00014243	1067.2	6.0928e-06	6.288e-06	1308	338.35	4.9569e-06	7.6926e-06	442.42	188.97	117.18	47.43	6.1568e-06	89.408	0.0007628	0.00046045	0.00013152	1014.5	4.921e-06	5.1062e-06	1236.8	322.81	5.0553e-06	5.3483e-06	421.6	180.79	111.87	45.869	5.3253e-06	86.286	230.510	183.425	185.958	111.506	257.742	241.916	111.399	117.365	274.917	248.070	116.192	120.915	122.346	126.008	270.692	123.923	-8191	255	
1702.137	1	1	0	0	0.069087	0.32025	0.21272	0.13761	0.11605	0.077066	0.40325	0.34227	0.20252	0.32626	0.095801	0.22314	0.20376	0.13197	0.061204	0.22406	-2.1083	-3.0062	-2.8833	-2.8312	-3.0042	-2.8646	-2.8375	-3.2646	-2.7458	-3.1	-2.9333	-2.9125	-3.1792	-2.9292	-2.7792	-3.4771	228.945	307.128	257.737	187.040	359.687	144.006	408.293	407.089	318.204	170.233	124.601	120.845	422.296	108.063	118.012	412.881	0.00083445	0.00069876	0.00019701	1083.9	7.2514e-06	5.2844e-06	1314.7	346.64	5.7202e-06	7.2148e-06	450.05	190.5	119.43	48.407	6.8733e-06	90.734	0.00075858	0.00049037	0.00012293	1026	5.0263e-06	5.2719e-06	1244.4	330.37	5.4324e-06	5.2612e-06	427.87	183.03	113.97	46.838	5.3463e-06	87.238	230.079	191.451	189.617	111.445	275.786	245.457	111.069	117.338	265.864	252.627	116.300	121.068	122.492	125.704	262.013	123.778	-8191	255	
1702.258	1	1	0	0	0.1524	0.21016	0.33707	0.40958	0.056626	0.22006	0.38009	0.25265	0.23821	0.21417	0.097751	0.19643	0.14735	0.12484	0.070041	0.30543	-2.3333	-2.8396	-3.0312	-2.8146	-3.1771	-3.0083	-2.8292	-3.3292	-2.5708	-2.9708	-3.1562	-2.7667	-3.1542	-2.8792	-2.6167	-3.3708	119.580	105.509	334.300	416.983	167.166	241.810	406.538	394.210	155.057	254.661	304.509	448.811	132.450	217.983	162.323	423.423	0.0008231	0.00065289	0.00018217	1084.9	6.1781e-06	5.6581e-06	1319	342.65	4.9404e-06	5.9322e-06	451.39	190.41	117.82	47.855	7.4273e-06	90.273	0.00078086	0.00046655	0.00013357	1029.6	5.0434e-06	5.3609e-06	1246.5	327.81	5.1433e-06	5.3673e-06	429.79	182.31	112.78	46.312	5.4274e-06	86.864	230.809	182.618	195.461	111.306	261.792	248.359	111.130	117.226	274.415	241.777	115.960	120.808	122.606	126.053	270.304	123.958	-8191	255	
1702.352	1	1	0	0	0.10484	0.062617	0.19374	0.24437	0.057174	0.19381	0.22627	0.20403	0.063226	0.085366	0.24298	0.20024	0.18694	0.34816	0.080972	0.051321	-2.2229	-2.8604	-3.1083	-2.7625	-3.0146	-2.8896	-2.9833	-3.2833	-2.7062	-2.8625	-3.3187	-2.8417	-3.1229	-3.1333	-2.7354	-3.5354	154.825	426.216	412.060	125.132	412.366	285.890	387.350	400.000	400.890	315.121	419.687	372.164	386.648	419.677	172.933	457.941	0.00084835	0.00065164	0.00022275	1086.9	5.894e-06	7.4902e-06	1322.6	344.06	5.2152e-06	6.8829e-06	454.02	191.51	118.5	48.157	7.321e-06	91.442	0.0007874	0.00048931	0.00014479	1029.6	5.1248e-06	5.5466e-06	1252.4	328.57	5.4137e-06	5.5435e-06	432.42	183.3	113.73	46.442	5.5911e-06	87.676	231.576	193.240	191.094	111.609	259.527	241.003	111.149	117.549	265.337	250.582	116.189	121.233	122.401	126.252	275.029	123.823	-8191	255	
1702.448	1	1	0	0	0.18368	0.095539	0.19988	0.20757	0.053141	0.1219	0.29639	0.32404	0.16687	0.051977	0.14341	0.26146	0.23659	0.3004	0.18659	0.027766	-2.3771	-2.8083	-3.0229	-2.7104	-3.1125	-3.15	-2.6937	-3.2479	-2.925	-2.8063	-3.3104	-2.9625	-2.9125	-3.0771	-2.65	-3.0854	379.169	199.596	403.882	120.590	320.225	378.640	334.730	433.774	223.320	168.550	425.351	453.767	375.615	372.130	124.759	175.962	0.00084126	0.00062616	0.00020491	1094	6.9436e-06	6.4362e-06	1333	350.11	5.0319e-06	5.881e-06	457.67	194.21	120.33	48.589	6.9066e-06	91.658	0.00079192	0.00053223	0.00014546	1037.5	5.3585e-06	5.7445e-06	1259.1	333.73	5.4584e-06	5.8533e-06	435.81	185.54	115.19	47.093	5.8731e-06	88.151	230.218	192.518	197.600	111.390	273.068	243.485	111.395	117.094	261.916	242.879	116.323	120.831	122.625	126.065	265.383	124.060	-8191	255	
1702.544	1	1	0	0	0.14365	0.13392	0.17051	0.41467	0.092486	0.079588	0.19996	0.31825	0.30006	0.059573	0.040744	0.29476	0.14174	0.084788	0.36222	0.37143	-2.4521	-2.7208	-3.1125	-2.7271	-3.0062	-3.1479	-2.9667	-3.1167	-2.9104	-2.7625	-3.3979	-2.8542	-2.7542	-3.2958	-2.5292	-3.2938	155.580	398.897	209.291	451.963	318.176	453.511	417.520	444.065	234.658	142.230	113.103	448.485	127.318	118.500	266.704	435.998	0.00083717	0.0007475	0.00015599	1094.1	6.1363e-06	5.722e-06	1326.3	352.61	4.908e-06	5.7809e-06	461.84	194.76	121.3	49.228	6.2562e-06	92.791	0.0007915	0.00053841	0.00014518	1040.3	5.3652e-06	5.5911e-06	1256.6	337.35	5.7813e-06	5.8268e-06	439.94	186.51	116.44	47.599	6.2824e-06	89.184	230.968	169.740	192.618	111.402	259.239	246.093	111.263	117.244	271.836	244.120	116.202	120.963	122.391	126.085	261.320	123.899	-8191	255	
1702.665	1	1	0	0	0.29205	0.35732	0.15333	0.081095	0.20021	0.09686	0.2837	0.18736	0.26885	0.194	0.43845	0.14245	0.30739	0.23323	0.1124	0.16355	-2.6583	-2.5125	-3.0708	-2.9229	-2.8917	-3.0375	-2.9292	-3.2375	-2.9062	-2.6625	-3.3896	-2.8083	-2.7792	-3.2271	-2.6437	-3.3458	390.348	336.763	281.675	334.276	158.421	401.707	99.938	254.075	116.687	406.781	422.321	422.693	389.755	417.080	346.456	400.838	0.00086108	0.0006433	0.00019762	1097.4	6.3042e-06	5.8304e-06	1337.6	354.06	5.2417e-06	5.6468e-06	465.37	195.77	123.44	49.728	6.398e-06	93.799	0.00079584	0.00054191	0.00015525	1042.4	5.2898e-06	5.6289e-06	1259.3	339.01	5.2313e-06	5.8922e-06	443.9	187.76	117.84	48.126	6.0417e-06	90.042	231.223	191.805	192.247	111.566	281.153	239.846	111.375	117.419	259.670	253.654	116.188	120.984	122.486	126.173	256.321	124.096	-8191	255	
1702.737	1	1	0	0	0.17471	0.046292	0.10396	0.3654	0.20745	0.20589	0.30681	0.31216	0.16393	0.11306	0.18906	0.086802	0.32496	0.17197	0.097709	0.22999	-2.3667	-2.7208	-3.0938	-3.1521	-2.6917	-3.075	-2.8354	-3.1396	-2.9979	-2.8083	-3.2667	-2.8896	-2.8875	-3.3063	-2.8146	-2.9437	380.522	148.927	110.694	392.836	358.992	345.067	362.482	411.284	374.087	125.935	459.270	382.615	442.355	136.969	441.526	158.045	0.000882	0.0006116	0.00019622	1100.8	6.747e-06	6.4688e-06	1325.3	357.64	6.4031e-06	6.6189e-06	468.38	198.04	124.27	50.269	6.2568e-06	94.68	0.00081996	0.00050378	0.00014682	1044.7	5.6161e-06	5.6299e-06	1259.1	341.25	5.56e-06	5.9983e-06	447.69	189.67	119.02	48.664	5.8836e-06	90.806	229.975	179.215	191.391	111.719	253.704	247.875	111.146	117.362	268.399	255.843	116.228	121.094	122.439	126.211	263.791	123.974	-8191	255	
1702.833	1	1	0	0	0.095649	0.12795	0.194	0.2049	0.05631	0.20264	0.088906	0.10287	0.10275	0.11445	0.078117	0.13894	0.42303	0.13667	0.13268	0.31119	-2.7375	-2.7812	-3.1083	-3.2667	-2.7167	-3.2875	-2.7208	-3.2958	-3.0833	-2.6354	-3.2896	-2.9688	-2.7438	-3.2938	-2.8438	-3.0833	357.140	330.621	313.402	440.736	193.465	184.321	135.563	164.856	317.837	146.755	413.246	99.955	105.341	103.207	397.194	376.581	0.00087273	0.00067554	0.00020301	1102.9	7.2767e-06	7.4085e-06	1329.4	358.25	5.4447e-06	6.4236e-06	468.26	198.06	124.49	50.445	7.117e-06	94.147	0.00081449	0.00051346	0.00014207	1045.3	5.6497e-06	5.7833e-06	1260.9	341.7	5.3171e-06	5.6979e-06	447.45	189.74	119.16	48.71	6.0976e-06	90.838	231.355	187.966	201.433	111.434	253.868	250.861	111.445	117.348	264.913	249.079	116.240	120.883	122.280	125.829	259.099	124.116	-8191	255	
1702.929	1	1	0	0	0.07191	0.14206	0.14702	0.34829	0.14889	0.074279	0.054661	0.40285	0.1003	0.27313	0.11488	0.33639	0.27164	0.084894	0.23485	0.29683	-2.625	-2.6792	-2.8917	-3.2396	-2.7042	-3.0083	-3.1625	-2.9104	-3.1896	-2.8563	-3.0833	-3.2958	-2.6917	-3.2667	-2.7188	-3.0563	242.570	225.023	158.729	408.784	348.766	119.525	269.789	400.887	359.543	163.364	323.502	412.011	412.500	261.506	264.124	401.868	0.00088208	0.00068127	0.00016288	1107.4	5.8649e-06	6.4705e-06	1330.4	360.21	6.3656e-06	8.1285e-06	472.8	198.67	125.6	51.089	5.2499e-06	95.001	0.00082165	0.00054394	0.00014115	1048.3	5.6975e-06	6.1583e-06	1259	344.65	5.2053e-06	6.1982e-06	450.15	190.27	119.96	49.226	5.7945e-06	91.472	230.528	181.067	181.446	111.416	266.407	251.055	111.256	117.457	269.797	236.083	115.934	120.809	122.482	126.021	263.048	124.119	-8191	255	
1703.025	1	1	0	0	0.17322	0.055078	0.14763	0.17092	0.13848	0.12558	0.35897	0.40052	0.028851	0.15385	0.036893	0.28268	0.28672	0.1525	0.16859	0.35834	-2.575	-2.7354	-2.9958	-3.1688	-2.7854	-3.0875	-3.1	-2.9771	-3.2333	-2.8	-3.0229	-3.3521	-2.8146	-3.2	-2.8979	-2.925	414.578	388.498	452.950	329.159	367.452	201.156	414.388	366.844	385.287	153.362	408.931	412.824	395.013	386.029	210.694	409.866	0.00087924	0.00070598	0.00017821	1105.6	6.7194e-06	7.1488e-06	1335.6	362.13	5.6944e-06	4.7701e-06	471.9	199.45	125.11	50.974	6.9141e-06	95.02	0.00082492	0.00051833	0.00014546	1049.3	5.631e-06	5.8808e-06	1263.2	345.58	5.3834e-06	5.589e-06	449.67	190.95	119.82	49.133	5.6049e-06	91.278	229.739	175.274	193.173	111.616	270.834	257.803	111.389	117.169	267.052	250.130	115.946	120.940	122.306	125.900	264.670	124.011	-8191	255	
1703.146	1	1	0	0	0.26016	0.13923	0.34144	0.095509	0.11474	0.13702	0.18735	0.22042	0.13159	0.096487	0.10553	0.13849	0.20417	0.45219	0.229	0.23584	-2.8187	-2.8021	-2.9521	-3.2229	-2.7938	-3.0125	-3.1521	-3.0104	-3.2146	-2.7687	-2.8812	-3.4167	-2.7313	-3.1729	-2.9458	-3.0479	228.639	185.987	419.898	192.323	426.040	414.831	409.366	405.048	356.796	162.482	356.060	375.537	102.704	410.163	173.454	387.566	0.0008638	0.00055315	0.0002049	1098.6	6.7056e-06	6.7415e-06	1330.3	353.6	5.4788e-06	6.5894e-06	467.6	197.12	122.94	50.621	5.8358e-06	94.76	0.00079714	0.00049272	0.00014541	1040.9	5.3145e-06	5.5077e-06	1256.2	338.31	5.5247e-06	5.6591e-06	446.19	188.78	117.78	48.753	5.5546e-06	91.19	230.237	191.662	192.131	111.375	259.443	252.038	111.204	117.424	271.436	240.736	116.326	120.977	122.396	126.091	260.744	124.045	-8191	255	
1703.242	1	1	0	0	0.18211	0.05615	0.26883	0.24351	0.19969	0.25221	0.19787	0.26078	0.20712	0.20283	0.15237	0.299	0.14574	0.21026	0.027601	0.24014	-2.6917	-2.7396	-2.6396	-3.2292	-2.7021	-3.0687	-3.0479	-2.8542	-3.3333	-3.0563	-3.0812	-3.3417	-3.05	-3.1604	-2.7562	-2.8396	146.922	110.474	398.285	433.501	377.603	455.403	405.904	431.706	456.585	143.961	288.659	447.766	420.209	251.018	329.724	382.247	0.00088357	0.00073252	0.00021286	1094.6	6.1687e-06	7.983e-06	1325.8	355.66	5.7599e-06	7.5443e-06	468.93	198.88	123.47	50.649	8.0953e-06	95.094	0.0008221	0.00049118	0.00014177	1036.8	5.1017e-06	5.5579e-06	1258.3	339.41	5.5744e-06	5.7823e-06	447.33	189.91	118.62	48.929	5.7572e-06	91.424	229.515	183.563	182.648	111.553	259.010	249.470	111.352	117.464	263.542	251.876	116.340	120.969	122.334	125.789	263.073	123.753	-8191	255	
1703.338	1	1	0	0	0.18312	0.2854	0.34707	0.12378	0.0851	0.1309	0.25573	0.31088	0.19635	0.11354	0.22767	0.17783	0.40477	0.20721	0.061615	0.24645	-2.6875	-2.8521	-2.8354	-3.4292	-2.6729	-2.975	-3.4188	-2.7812	-3.1542	-2.9354	-3.0021	-3.2812	-2.8979	-2.9792	-3.1292	-2.6437	242.100	308.740	176.051	416.244	206.379	262.177	364.767	353.226	383.549	423.333	385.230	359.533	386.369	440.862	214.343	372.662	0.00088476	0.00074719	0.00020818	1096.9	6.4813e-06	7.4507e-06	1326	356.99	5.6193e-06	7.8783e-06	467.51	197.63	124.13	50.688	6.507e-06	94.974	0.00081414	0.00047297	0.00013859	1040	5.4638e-06	5.4471e-06	1257.1	340.5	5.1505e-06	5.5369e-06	445.44	189.14	118.53	49	5.6859e-06	91.25	230.308	195.324	196.601	111.566	269.613	260.992	111.457	117.298	266.016	247.355	116.303	120.878	122.246	125.885	256.449	124.049	-8191	255	
1703.434	1	1	0	0	0.16816	0.23136	0.31647	0.013172	0.11453	0.20366	0.22187	0.53227	0.086049	0.033819	0.30483	0.20844	0.17014	0.29303	0.071925	0.20873	-2.5229	-2.85	-2.8021	-3.0708	-2.9042	-2.875	-3.3125	-2.9771	-2.8583	-3.1771	-2.8125	-3.5896	-3.0375	-3.0104	-3.0062	-2.9646	263.049	224.232	369.338	194.313	301.690	224.725	402.399	404.970	173.020	293.680	172.096	101.014	128.879	124.400	306.951	419.121	0.00088443	0.00052013	0.00018054	1096.2	6.2343e-06	6.9363e-06	1325.7	355.98	5.6675e-06	7.0566e-06	466.86	197.55	123.95	50.633	5.4304e-06	95.143	0.00080576	0.00046882	0.00013823	1038.4	5.3092e-06	5.646e-06	1254.1	338.96	5.3949e-06	5.3218e-06	444.78	189.42	118.46	48.994	5.3779e-06	91.451	229.389	165.234	186.586	111.572	266.960	254.738	111.524	117.345	269.936	251.380	116.288	120.819	122.218	125.838	258.890	123.756	-8191	255	
1703.529	1	1	0	0	0.24497	0.23449	0.22484	0.21353	0.088242	0.19506	0.38314	0.3604	0.11705	0.15528	0.091228	0.32209	0.08651	0.37291	0.20636	0.46766	-2.5354	-3.1688	-2.5021	-3.1417	-2.7792	-2.7521	-3.2938	-2.9521	-3.1417	-3.0833	-2.6417	-3.2812	-3.1083	-2.9188	-3.2417	-2.8625	118.096	289.431	191.070	425.241	99.964	459.391	399.110	433.570	412.487	351.039	387.821	102.185	159.156	445.841	178.230	407.783	0.0008844	0.0006293	0.00021075	1094.6	6.241e-06	5.9107e-06	1334.7	357.06	6.4702e-06	5.1746e-06	467.99	200.15	124.64	51.107	6.3124e-06	96.316	0.00080784	0.00046273	0.00014802	1038.5	5.2293e-06	5.6536e-06	1260.6	341.17	5.3459e-06	5.1588e-06	447.47	191.4	119.43	49.379	5.5773e-06	92.444	231.317	181.081	191.962	111.665	258.707	251.996	111.522	117.420	266.609	249.899	116.244	120.986	122.462	126.108	252.791	123.894	-8191	255	
1703.627	1	1	0	0	0.17345	0.084719	0.096352	0.2092	0.088152	0.12829	0.36415	0.12869	0.1593	0.20549	0.15456	0.24145	0.13137	0.18988	0.08274	0.24043	-2.4083	-3.0875	-2.5083	-3.2792	-2.9292	-2.8854	-3.2125	-3.0333	-2.8812	-3.0375	-2.9479	-3.1771	-3.1271	-2.7562	-3.0646	-3.05	137.599	263.310	343.767	322.355	120.435	113.311	375.136	370.802	403.018	402.402	236.599	386.537	126.287	413.189	364.350	380.817	0.00088557	0.00066466	0.00018293	1097.5	7.8201e-06	7.5074e-06	1337.7	357.55	5.1395e-06	4.8884e-06	468.62	200.27	124.78	51.169	6.9789e-06	96.169	0.00082507	0.00048573	0.00014518	1039.5	5.2077e-06	5.2596e-06	1263.5	340.57	5.312e-06	5.0196e-06	447.51	191.86	119.19	49.396	5.4087e-06	92.453	231.168	179.926	185.229	111.562	260.681	245.405	111.327	117.295	261.354	249.582	116.471	121.013	122.283	126.066	266.033	123.932	-8191	255	
1703.745	1	1	0	0	0.13445	0.24245	0.20192	0.21578	0.069486	0.074026	0.40165	0.19074	0.23788	0.16458	0.007694	0.09751	0.17668	0.45993	0.18892	0.17257	-2.2354	-3.1125	-2.6021	-3.0458	-3.1417	-2.725	-3.275	-3.0292	-2.7896	-2.9833	-2.9437	-3.125	-3.1312	-2.8167	-3.1771	-3.175	180.998	367.777	176.186	100.188	206.174	210.330	385.596	420.542	99.718	152.663	370.268	293.694	420.830	389.264	244.073	319.669	0.00089481	0.00060864	0.00022116	1091.3	7.2682e-06	7.2586e-06	1334.4	355.75	5.398e-06	6.9641e-06	466.42	199.48	124.7	51.042	6.8345e-06	96.008	0.00082938	0.00049833	0.00014438	1037.2	5.1838e-06	5.2587e-06	1260.9	339.29	5.5355e-06	5.4876e-06	445.12	190.86	119.17	49.31	5.5198e-06	92.273	229.894	183.049	180.788	111.686	268.822	243.440	111.433	117.232	259.444	238.069	116.284	120.802	122.277	125.776	258.559	123.745	-8191	255	
1703.842	1	1	0	0	0.30658	0.18206	0.18015	0.21661	0.11303	0.37255	0.23479	0.33453	0.15443	0.18957	0.24495	0.26748	0.18	0.21142	0.060879	0.17386	-2.3354	-3.0958	-2.95	-3.1188	-3.1167	-2.5812	-3.1917	-2.9354	-2.6729	-3.0792	-2.9417	-3.1875	-3.1688	-2.9104	-3.0521	-3.2271	410.357	250.705	401.948	324.270	285.985	209.076	413.881	414.007	255.353	324.603	104.544	425.366	410.071	132.036	421.816	186.248	0.00087858	0.00065774	0.00018891	1092.4	6.584e-06	6.5259e-06	1329.4	355.45	5.3327e-06	7.32e-06	468.24	199.32	124.16	50.859	6.6927e-06	95.742	0.00081951	0.00046086	0.00013765	1037.7	4.7784e-06	5.4822e-06	1259.3	339.54	5.374e-06	5.1352e-06	445.64	190.85	118.78	49.096	5.5765e-06	92.084	231.203	190.509	192.384	111.466	253.712	237.521	111.492	117.041	266.901	242.683	116.128	120.892	122.334	125.902	270.841	123.804	-8191	255	
1703.938	1	1	0	0	0.2534	0.19978	0.18591	0.4757	0.084278	0.20829	0.42477	0.043679	0.12217	0.12929	0.075684	0.26778	0.13873	0.30079	0.34235	0.17184	-2.2292	-3.1188	-2.7646	-2.925	-3.1229	-2.5604	-3.0604	-3.1125	-2.5396	-3.1688	-2.9042	-2.9208	-3.1542	-2.7479	-3.0792	-3.1292	363.253	275.089	293.572	384.097	128.003	452.472	387.132	154.482	112.906	197.120	218.908	103.135	100.925	422.383	333.306	401.600	0.00085598	0.00055188	0.00021998	1093	6.9693e-06	7.2785e-06	1329.6	355.8	5.6382e-06	7.1289e-06	467.51	199.51	124.33	50.99	5.7844e-06	95.862	0.00080635	0.00047687	0.00014311	1038.7	5.0935e-06	5.5229e-06	1261.5	339.1	5.5218e-06	5.2564e-06	446.06	191.36	118.84	49.278	5.1016e-06	92.189	230.204	188.471	192.461	111.636	256.547	251.350	111.290	117.161	270.278	246.523	116.286	121.026	122.336	125.814	262.961	124.009	-8191	255	
1704.034	1	1	0	0	0.20409	0.12534	0.2784	0.53158	0.16132	0.15619	0.19294	0.1194	0.34597	0.22619	0.19048	0.19697	0.14574	0.022181	0.20389	0.26912	-2.3833	-3.1854	-2.6708	-2.8292	-3.2292	-2.6063	-3.1396	-3.1813	-2.675	-3.1875	-3.0479	-2.8708	-3.3563	-2.9625	-3.0667	-3.3896	325.125	142.059	206.359	441.618	210.348	118.952	377.825	447.370	123.732	354.057	398.723	399.642	115.004	250.647	117.557	144.520	0.00087938	0.00081908	0.00019542	1091.2	6.6814e-06	6.6426e-06	1329.1	350.35	6.4222e-06	5.1518e-06	463.47	198.15	122.39	49.92	6.973e-06	94.51	0.00081036	0.00048321	0.00013062	1036.8	4.9277e-06	5.8401e-06	1256.7	334.97	5.2774e-06	5.1759e-06	442.37	189.58	117.04	48.153	5.3593e-06	90.773	229.768	183.143	184.930	111.852	270.184	259.266	111.537	117.345	267.065	248.354	116.295	120.856	122.318	126.003	265.028	123.823	-8191	255	
#DATA ENDS
