BOXY.EXE: ISS Imagent and Oximeter Data Acquisition Program Version 0.80
Ascii Record File

#ACQ INFORMATION
2  Detector Channels 
16  External MUX Channels 
1  Auxiliary Channels 
5000  Waveform (CCF) Frequency (Hz)
1  Waveforms Skipped 
30  Waveforms Averaged 
1  Cycles Averaged 
16  Acquisitions per Waveform 
10.0806  Updata Rate (Hz) 

#FILE INFORMATION
TRUE -- External MUX Channel results are PARSED.
FALSE -- AC DC and Phase are NOT grouped.
TRUE -- Companion Program Settings File CREATED.
FALSE -- AC data not excluded
FALSE -- DC data not excluded
FALSE -- Phase data not excluded
FALSE -- Auxillary Chn. data not excluded
Tab delimiters

#CALIBRATION STATE
TRUE -- Waveform Calibration Values APPLIED.


#AUX CALIBRATION VALUES
Val Type	aux-1	

Term	1.0000e+00	
Factor	0.0000e+00	


#WF CALIBRATION VALUES
A = Detector Channel
Val Type	A-AC1	A-AC2	A-AC3	A-AC4	A-AC5	A-AC6	A-AC7	A-AC8	A-AC9	A-AC10	A-AC11	A-AC12	A-AC13	A-AC14	A-AC15	A-AC16	A-DC1	A-DC2	A-DC3	A-DC4	A-DC5	A-DC6	A-DC7	A-DC8	A-DC9	A-DC10	A-DC11	A-DC12	A-DC13	A-DC14	A-DC15	A-DC16	A-Ph1	A-Ph2	A-Ph3	A-Ph4	A-Ph5	A-Ph6	A-Ph7	A-Ph8	A-Ph9	A-Ph10	A-Ph11	A-Ph12	A-Ph13	A-Ph14	A-Ph15	A-Ph16	

Term	0.00000e+00	0.00000e+00	0.00000e+00	0.00000e+00	0.00000e+00	0.00000e+00	0.00000e+00	0.00000e+00	0.00000e+00	0.00000e+00	0.00000e+00	0.00000e+00	0.00000e+00	0.00000e+00	0.00000e+00	0.00000e+00	0.00000e+00	0.00000e+00	0.00000e+00	0.00000e+00	0.00000e+00	0.00000e+00	0.00000e+00	0.00000e+00	0.00000e+00	0.00000e+00	0.00000e+00	0.00000e+00	0.00000e+00	0.00000e+00	0.00000e+00	0.00000e+00	0.00000e+00	0.00000e+00	0.00000e+00	0.00000e+00	0.00000e+00	0.00000e+00	0.00000e+00	0.00000e+00	0.00000e+00	0.00000e+00	0.00000e+00	0.00000e+00	0.00000e+00	0.00000e+00	0.00000e+00	0.00000e+00	
Factor	1.00000e+00	1.00000e+00	1.00000e+00	1.00000e+00	1.00000e+00	1.00000e+00	1.00000e+00	1.00000e+00	1.00000e+00	1.00000e+00	1.00000e+00	1.00000e+00	1.00000e+00	1.00000e+00	1.00000e+00	1.00000e+00	1.00000e+00	1.00000e+00	1.00000e+00	1.00000e+00	1.00000e+00	1.00000e+00	1.00000e+00	1.00000e+00	1.00000e+00	1.00000e+00	1.00000e+00	1.00000e+00	1.00000e+00	1.00000e+00	1.00000e+00	1.00000e+00	X	X	X	X	X	X	X	X	X	X	X	X	X	X	X	X	

B = Detector Channel
Val Type	B-AC1	B-AC2	B-AC3	B-AC4	B-AC5	B-AC6	B-AC7	B-AC8	B-AC9	B-AC10	B-AC11	B-AC12	B-AC13	B-AC14	B-AC15	B-AC16	B-DC1	B-DC2	B-DC3	B-DC4	B-DC5	B-DC6	B-DC7	B-DC8	B-DC9	B-DC10	B-DC11	B-DC12	B-DC13	B-DC14	B-DC15	B-DC16	B-Ph1	B-Ph2	B-Ph3	B-Ph4	B-Ph5	B-Ph6	B-Ph7	B-Ph8	B-Ph9	B-Ph10	B-Ph11	B-Ph12	B-Ph13	B-Ph14	B-Ph15	B-Ph16	

Term	0.00000e+00	0.00000e+00	0.00000e+00	0.00000e+00	0.00000e+00	0.00000e+00	0.00000e+00	0.00000e+00	0.00000e+00	0.00000e+00	0.00000e+00	0.00000e+00	0.00000e+00	0.00000e+00	0.00000e+00	0.00000e+00	0.00000e+00	0.00000e+00	0.00000e+00	0.00000e+00	0.00000e+00	0.00000e+00	0.00000e+00	0.00000e+00	0.00000e+00	0.00000e+00	0.00000e+00	0.00000e+00	0.00000e+00	0.00000e+00	0.00000e+00	0.00000e+00	-7.31199e+01	-1.32799e+02	-1.26468e+02	-1.82714e+02	-5.26673e+01	-6.72776e+01	-1.58600e+02	-1.62015e+02	-4.81301e+01	-6.81745e+01	-1.74789e+02	-1.71091e+02	-1.81647e+02	-1.76664e+02	-5.28905e+01	-1.49745e+02	
Factor	1.45622e-05	1.40397e-04	4.03230e-05	1.48927e-01	1.29784e-06	1.50963e-06	1.69133e-01	4.23035e-02	9.54360e-07	1.51249e-06	7.52042e-02	2.43297e-02	1.97584e-02	7.93508e-03	1.28624e-06	1.14015e-02	1.42596e-05	3.90213e-05	1.10580e-05	7.54603e-02	3.58379e-07	4.54558e-07	8.02644e-02	2.15652e-02	3.46059e-07	4.54774e-07	3.70643e-02	1.20591e-02	1.01503e-02	4.07504e-03	3.89001e-07	5.66024e-03	X	X	X	X	X	X	X	X	X	X	X	X	X	X	X	X	



#DISTANCE SETTINGS
A = Detector Channel
A-1	A-2	A-3	A-4	A-5	A-6	A-7	A-8	A-9	A-10	A-11	A-12	A-13	A-14	A-15	A-16	

2.5000e+00	3.0000e+00	2.5000e+00	3.0000e+00	2.0000e+00	3.0000e+00	1.5000e+00	3.0000e+00	3.0000e+00	3.0000e+00	3.0000e+00	3.0000e+00	3.0000e+00	3.0000e+00	1.5000e+00	3.0000e+00	

B = Detector Channel
B-1	B-2	B-3	B-4	B-5	B-6	B-7	B-8	B-9	B-10	B-11	B-12	B-13	B-14	B-15	B-16	

1.0000e+01	1.0000e+01	1.0000e+01	1.4400e+00	1.0000e+01	1.0000e+01	1.5100e+00	1.9400e+00	1.0000e+01	1.0000e+01	1.9900e+00	2.4900e+00	2.4100e+00	2.9000e+00	1.0000e+01	2.9800e+00	




#DATA BEGINS
time	group	step	mark	flag	A-AC1	A-AC2	A-AC3	A-AC4	A-AC5	A-AC6	A-AC7	A-AC8	A-AC9	A-AC10	A-AC11	A-AC12	A-AC13	A-AC14	A-AC15	A-AC16	A-DC1	A-DC2	A-DC3	A-DC4	A-DC5	A-DC6	A-DC7	A-DC8	A-DC9	A-DC10	A-DC11	A-DC12	A-DC13	A-DC14	A-DC15	A-DC16	A-Ph1	A-Ph2	A-Ph3	A-Ph4	A-Ph5	A-Ph6	A-Ph7	A-Ph8	A-Ph9	A-Ph10	A-Ph11	A-Ph12	A-Ph13	A-Ph14	A-Ph15	A-Ph16	B-AC1	B-AC2	B-AC3	B-AC4	B-AC5	B-AC6	B-AC7	B-AC8	B-AC9	B-AC10	B-AC11	B-AC12	B-AC13	B-AC14	B-AC15	B-AC16	B-DC1	B-DC2	B-DC3	B-DC4	B-DC5	B-DC6	B-DC7	B-DC8	B-DC9	B-DC10	B-DC11	B-DC12	B-DC13	B-DC14	B-DC15	B-DC16	B-Ph1	B-Ph2	B-Ph3	B-Ph4	B-Ph5	B-Ph6	B-Ph7	B-Ph8	B-Ph9	B-Ph10	B-Ph11	B-Ph12	B-Ph13	B-Ph14	B-Ph15	B-Ph16	aux-1	digaux	

1104.778	1	1	0	768	0.22963	0.10266	0.36391	0.32212	0.088096	0.12085	0.15775	0.22984	0.14958	0.035126	0.18474	0.078879	0.2268	0.24738	0.22443	0.31683	-2.7021	-2.7229	-2.7333	-3.0604	-2.7458	-2.9542	-3.15	-2.7917	-3.175	-2.7938	-2.6708	-3.1875	-2.6979	-2.85	-3.2208	-2.6312	217.442	185.018	-12.570	151.761	69.991	17.128	266.961	178.785	-59.988	75.909	193.727	-27.720	246.382	90.329	235.897	244.965	5.6156e-05	0.00027843	6.4898e-05	1006.5	1.669e-06	2.0908e-06	1090.3	207.07	1.1389e-06	3.2394e-06	262.91	75.384	58.983	18.059	1.7193e-06	24.946	0.00017031	0.00021527	5.8078e-05	984.22	2.6378e-06	2.1071e-06	1072.2	205.37	2.351e-06	2.2e-06	258.86	75.961	59.355	18.03	2.0042e-06	25.199	217.774	19.059	1.343	-69.274	100.136	65.265	-69.362	-61.584	113.738	78.246	-62.541	-54.822	-54.541	-47.652	61.462	-48.197	-8191	255	
1104.875	1	1	0	0	0.094433	0.34763	0.054742	0.23795	0.027685	0.28225	0.073008	0.38445	0.030626	0.10711	0.041175	0.06198	0.16202	0.24903	0.15923	0.11922	-2.4646	-2.8292	-2.7479	-3.1063	-2.7	-2.9604	-3.2167	-2.7417	-3.075	-2.85	-2.7875	-3.1917	-2.8688	-2.8604	-3.1833	-2.7062	80.119	110.809	-74.207	-62.593	98.620	-18.996	250.047	241.268	38.016	37.554	52.891	232.176	-8.062	229.813	-19.067	43.959	6.1828e-05	0.00027054	0.00011124	1005.1	1.0262e-06	2.4398e-06	1090.8	207.51	5.3203e-07	2.2215e-06	261.72	75.635	59.139	17.941	2.4332e-06	24.854	0.0001723	0.00018657	5.9276e-05	984.31	2.4877e-06	2.0048e-06	1073	205.49	2.3402e-06	2.1043e-06	258.73	75.855	59.573	18.047	1.9191e-06	25.213	218.024	17.326	20.700	-69.307	57.476	75.350	-69.119	-61.315	84.078	75.740	-62.235	-54.972	-54.390	-47.107	95.952	-48.404	-8191	255	
1104.971	1	1	0	0	0.13152	0.17407	0.2441	0.20926	0.18615	0.039102	0.19089	0.14481	0.10705	0.16564	0.16281	0.1063	0.19957	0.19423	0.20732	0.25664	-2.5	-3.1063	-2.7562	-3.4125	-2.75	-2.8875	-3.2583	-2.6625	-2.9792	-3.0333	-2.7292	-3.1271	-2.9708	-2.675	-3.2167	-2.6646	168.851	32.631	182.618	247.690	89.449	158.050	226.708	210.945	263.977	97.854	230.109	239.355	-37.521	67.790	-55.932	229.963	6.4276e-05	0.00023132	8.3434e-05	1006.1	2.1658e-06	2.3771e-06	1091.1	207.14	5.704e-07	2.7598e-06	263.99	75.451	59.386	17.944	2.0522e-06	24.936	0.0001775	0.00020551	6.0704e-05	985.27	2.649e-06	2.1288e-06	1071.5	205.58	2.4585e-06	1.9603e-06	259.64	76.072	59.439	18.069	2.1889e-06	25.151	218.475	6.402	18.887	-69.273	110.947	80.423	-69.475	-61.665	94.405	79.198	-62.518	-54.687	-54.545	-47.154	80.178	-48.350	-8191	255	
1105.067	1	1	0	0	0.099209	0.21553	0.13809	0.2216	0.20663	0.13704	0.24727	0.20055	0.21732	0.11302	0.095034	0.37537	0.1407	0.041394	0.12873	0.14079	-2.35	-3.0646	-2.4396	-3.1813	-3.0938	-2.7812	-3.3375	-2.7396	-2.85	-3.1229	-2.9146	-2.9896	-2.9229	-2.6958	-3.0667	-2.7687	92.900	58.433	158.935	187.984	57.953	230.179	193.581	237.659	179.889	194.695	277.128	217.694	250.602	115.623	116.776	194.203	6.2562e-05	0.0002573	4.1551e-05	1005.2	1.6691e-06	2.5133e-06	1091.7	207.41	8.4452e-07	3.1451e-06	261.47	75.481	59.427	18.023	2.5333e-06	25.02	0.0001792	0.00018836	5.7018e-05	983.87	2.481e-06	2.2766e-06	1072.7	205.84	2.4368e-06	2.0853e-06	259.1	75.848	59.514	18.046	2.159e-06	25.187	225.033	16.218	13.517	-69.378	89.328	57.637	-68.962	-61.465	77.868	62.407	-62.486	-55.042	-54.541	-47.355	81.414	-48.192	-8191	255	
1105.163	1	1	0	0	0.27165	0.11269	0.33071	0.19953	0.18729	0.21928	0.33001	0.2271	0.096131	0.13038	0.17489	0.33497	0.13924	0.095412	0.16467	0.12825	-2.3479	-3.0646	-2.8937	-2.9958	-3.0187	-2.7458	-3.1979	-2.8083	-2.7188	-3.0167	-2.5208	-3.0042	-2.9542	-2.6312	-3.0125	-2.9979	54.515	103.706	92.392	234.572	-2.724	264.061	225.288	236.299	108.738	145.344	98.418	220.690	71.645	220.396	142.052	256.184	7.1426e-05	0.00017485	8.6735e-05	1006.1	1.5212e-06	1.8509e-06	1092	207.61	9.9696e-07	1.7501e-06	260.66	75.179	59.863	17.88	2.1732e-06	25.301	0.00017519	0.0001799	5.7225e-05	984.7	2.4765e-06	2.0512e-06	1071.3	205.68	2.364e-06	2.0181e-06	258.41	75.716	59.663	18.082	2.0966e-06	25.271	221.195	2.662	15.618	-69.491	81.039	86.361	-69.289	-61.563	59.382	66.044	-62.312	-54.814	-54.362	-47.673	76.262	-48.260	-8191	255	
1105.259	1	1	0	0	0.17824	0.22061	0.22213	0.53016	0.098227	0.11311	0.11921	0.075997	0.053159	0.043066	0.048192	0.1863	0.1225	0.23887	0.14473	0.10545	-2.3542	-3.0833	-2.5729	-3.0521	-3.0417	-2.775	-3.2438	-2.9854	-2.6729	-3.1792	-2.6521	-2.7667	-3.0375	-2.7687	-2.9021	-2.8208	204.699	104.970	269.813	-78.820	106.497	262.369	193.231	-5.444	271.157	4.312	140.445	193.365	257.799	201.925	26.205	54.936	5.9138e-05	0.00031675	8.6565e-05	1006.6	1.1959e-06	2.2904e-06	1094.6	206.88	9.6989e-07	2.5454e-06	262.5	75.101	59.374	17.925	1.5499e-06	25.039	0.00017929	0.00018413	5.7363e-05	983.77	2.4168e-06	2.1232e-06	1073.7	205.27	2.5219e-06	2.0967e-06	259.41	75.94	59.449	18.072	2.0025e-06	25.217	218.933	11.486	25.657	-69.323	80.031	68.906	-69.230	-61.559	65.068	86.873	-62.241	-54.863	-54.327	-47.230	91.495	-48.146	-8191	255	
1105.378	1	1	0	0	0.28292	0.14034	0.22374	0.3489	0.12362	0.13645	0.2135	0.12962	0.16754	0.049255	0.066528	0.35488	0.066914	0.23561	0.097586	0.2882	-2.3729	-2.9938	-2.6396	-2.8896	-3.1	-2.625	-3.1937	-3.0271	-2.6375	-3	-2.7958	-2.6562	-3.0021	-2.6646	-2.9813	-2.8771	-78.763	229.982	139.958	200.210	-49.670	89.041	267.585	166.891	-13.027	150.225	46.780	-79.391	193.786	212.859	264.022	248.111	6.9725e-05	0.00029902	7.2274e-05	1006.5	1.1584e-06	3.1465e-06	1093.8	207.89	1.2025e-06	3.346e-06	261.58	76.157	59.413	18.053	1.6089e-06	25.136	0.00018246	0.00017625	5.1512e-05	985.11	2.4728e-06	2.4868e-06	1074.5	205.55	2.5176e-06	2.1365e-06	258.63	76.045	59.518	18.149	2.0179e-06	25.178	208.823	17.396	18.359	-69.323	89.805	67.040	-69.114	-61.603	88.928	82.286	-62.205	-54.918	-54.459	-47.714	86.534	-48.246	-8191	255	
1105.474	1	1	0	0	0.073277	0.081675	0.062887	0.20512	0.28499	0.20274	0.17184	0.18236	0.27181	0.31197	0.059397	0.20192	0.13713	0.12364	0.091885	0.15436	-2.225	-3.1646	-2.8354	-2.9938	-3.0583	-2.7	-3.1875	-3.0062	-2.6208	-3.1437	-2.8125	-2.8604	-3.0187	-2.7146	-2.7812	-3.0167	153.829	181.234	73.611	-41.034	90.328	-3.877	210.652	177.495	156.436	92.812	-9.339	138.827	-59.812	261.717	-8.443	129.113	5.8236e-05	0.00031021	7.3754e-05	1008.9	2.5228e-06	3.2195e-06	1092.3	207.65	1.2769e-06	3.0699e-06	262.8	75.486	59.566	18.044	1.4682e-06	25.15	0.00017795	0.00018429	5.7041e-05	985.93	2.5422e-06	2.3362e-06	1073.4	205.37	2.6423e-06	2.0607e-06	259.51	75.962	59.608	18.128	2.3356e-06	25.236	232.315	6.615	2.935	-69.306	77.595	58.048	-69.123	-61.332	73.997	73.909	-62.505	-54.916	-54.250	-47.404	82.230	-48.400	-8191	255	
1105.570	1	1	0	0	0.13556	0.037157	0.10423	0.34663	0.11319	0.067046	0.12097	0.15079	0.12721	0.11756	0.18191	0.15527	0.046353	0.28841	0.11474	0.028099	-2.1813	-2.9083	-2.7542	-2.6896	-2.9396	-2.6813	-3.0292	-3.1042	-2.5312	-2.9542	-2.85	-2.775	-3.0563	-2.75	-2.8229	-2.9833	277.710	213.388	200.119	217.610	-26.382	-60.651	259.795	215.332	110.029	64.022	32.669	-6.495	218.311	54.634	259.562	-9.391	5.8263e-05	0.00021275	7.2212e-05	1010.1	2.1166e-06	2.3178e-06	1091.5	208.43	2.8777e-07	3.4629e-06	263.23	75.682	59.616	17.982	1.854e-06	25.234	0.00017943	0.00017747	5.2433e-05	985.18	2.5079e-06	2.0711e-06	1073.5	206.1	2.3193e-06	2.182e-06	259.64	76.153	59.709	18.11	2.2603e-06	25.297	222.548	3.231	30.766	-69.213	87.911	61.225	-69.213	-61.541	100.004	74.145	-62.322	-54.391	-54.518	-47.556	91.381	-48.023	-8191	255	
1105.667	1	1	0	0	0.18786	0.10667	0.12601	0.27616	0.16363	0.24126	0.34752	0.09617	0.13664	0.058032	0.14527	0.16091	0.077874	0.092743	0.14561	0.17749	-1.9125	-2.8396	-2.8146	-2.6375	-3.0896	-2.8104	-2.9375	-3.0292	-2.5708	-2.9646	-2.7708	-2.5583	-3.2146	-2.8438	-2.7854	-3.1	-2.591	266.158	254.564	270.579	134.507	42.023	262.424	13.416	29.251	232.794	240.067	72.819	219.216	-77.703	-0.942	139.117	6.699e-05	0.00037233	7.2412e-05	1007.2	1.2062e-06	3.8792e-06	1094.9	207.8	6.2705e-07	2.2274e-06	260.43	76.405	59.912	18.052	1.8438e-06	25.236	0.00018199	0.00019039	5.0222e-05	985.28	2.4153e-06	2.1677e-06	1075.7	205.98	2.4073e-06	2.1858e-06	258.66	76.471	59.817	18.214	2.2116e-06	25.304	221.252	11.127	5.153	-69.217	105.643	70.036	-69.231	-61.668	67.108	65.690	-62.217	-55.176	-54.710	-47.557	86.185	-48.355	-8191	255	
1105.763	1	1	0	0	0.20412	0.21244	0.18977	0.21581	0.36769	0.26812	0.16415	0.11158	0.11751	0.35334	0.01145	0.080344	0.11964	0.12733	0.14745	0.1227	-2.1688	-2.9229	-3.1125	-2.8583	-3.0687	-2.7667	-2.9521	-3.2167	-2.7833	-2.7021	-3.0479	-2.5	-3.0375	-2.8896	-2.6562	-3.0729	119.772	241.117	-1.500	230.978	95.700	103.257	268.815	13.692	46.980	8.136	275.654	253.919	172.599	51.824	222.268	172.382	6.0729e-05	0.00034138	7.4223e-05	1003.2	2.2009e-06	2.4758e-06	1098	208.48	6.1555e-07	2.4256e-06	261.96	75.845	59.692	18.112	2.7974e-06	25.291	0.00018258	0.00021795	5.6788e-05	985.44	2.5661e-06	2.1374e-06	1074.9	205.98	2.382e-06	2.1592e-06	259.36	76.315	59.684	18.208	2.3389e-06	25.32	226.600	9.858	19.170	-69.152	106.379	72.487	-69.284	-61.575	132.439	78.358	-62.518	-54.756	-54.406	-47.105	62.640	-47.945	-8191	255	
1105.859	1	1	0	0	0.16009	0.054294	0.21616	0.035191	0.1209	0.15995	0.33099	0.13767	0.16235	0.24888	0.083468	0.095294	0.41647	0.061813	0.1789	0.10985	-2.1104	-2.9062	-3.0208	-2.825	-2.9521	-2.9292	-2.7146	-3.2396	-2.6146	-2.7687	-2.9917	-2.6542	-2.8292	-2.875	-2.7271	-3.2313	110.438	-52.635	266.065	237.344	274.862	15.529	207.160	131.879	-22.548	6.542	278.811	54.858	-60.142	226.436	26.854	261.990	5.8098e-05	0.0003083	8.254e-05	1005.8	1.0731e-06	3.0792e-06	1098.6	208.04	8.9782e-07	3.3998e-06	262.79	75.428	59.485	18.097	2.091e-06	25.252	0.0001822	0.00018706	4.9715e-05	985.35	2.549e-06	2.3277e-06	1074.8	205.7	2.3099e-06	2.0342e-06	259.28	76.079	59.611	18.225	2.2084e-06	25.259	218.562	2.401	9.270	-69.261	89.573	82.626	-69.155	-61.513	76.328	72.801	-62.181	-54.755	-54.609	-47.215	104.990	-47.985	-8191	255	
1105.979	1	1	0	0	0.14479	0.18817	0.070106	0.31682	0.01505	0.26474	0.18078	0.059525	0.23054	0.20955	0.09773	0.17872	0.065855	0.19448	0.40595	0.20033	-2.3125	-2.7896	-2.9521	-2.6417	-2.7833	-2.7979	-2.7417	-3.1083	-2.6833	-2.5854	-3.125	-2.4938	-2.9042	-2.9979	-2.575	-3.0958	93.703	255.366	-38.372	-53.825	59.655	187.070	244.030	139.748	113.526	62.306	232.021	258.160	136.055	267.410	123.115	177.327	6.4603e-05	0.00017097	7.5808e-05	1005.9	2.1946e-06	2.8514e-06	1094.7	207.48	9.1861e-07	3.1492e-06	262.39	75.729	59.242	17.926	1.7001e-06	25.141	0.00018024	0.00019129	5.347e-05	984.4	2.6035e-06	2.0929e-06	1075.3	205.71	2.3929e-06	2.2663e-06	259.03	76.147	59.539	18.169	2.2975e-06	25.207	220.042	33.570	17.611	-69.276	105.956	84.611	-69.129	-61.686	58.584	65.906	-62.512	-55.059	-54.200	-47.537	84.306	-47.881	-8191	255	
1106.076	1	1	0	0	0.10168	0.046936	0.15969	0.18125	0.11879	0.12971	0.27662	0.36609	0.1611	0.34838	0.17112	0.15082	0.077053	0.3234	0.13445	0.12394	-2.3854	-2.675	-3.1083	-2.9333	-2.6562	-3.0042	-2.6333	-3.1146	-2.875	-2.6792	-3.2021	-2.6667	-2.8396	-3.1083	-2.5896	-3.1125	7.379	200.707	-49.929	-51.285	-37.793	-26.649	243.967	258.346	154.382	89.504	230.423	152.053	92.000	-45.205	215.875	196.547	5.8155e-05	0.00028682	9.0448e-05	1007.7	1.8134e-06	3.2494e-06	1096.1	208.44	6.85e-07	3.774e-06	262.28	75.626	59.633	18.164	2.8484e-06	25.201	0.00018098	0.00020137	5.2295e-05	986.15	2.4639e-06	2.0682e-06	1074.6	206.31	2.3366e-06	2.4141e-06	259.08	76.228	59.647	18.195	2.3891e-06	25.233	224.337	14.096	22.443	-69.462	111.745	58.163	-68.956	-61.727	49.132	64.543	-62.544	-54.825	-54.188	-47.761	81.581	-47.790	-8191	255	
1106.172	1	1	0	0	0.10956	0.14465	0.10825	0.087776	0.14867	0.19477	0.2371	0.23695	0.29243	0.23202	0.056913	0.19124	0.25223	0.075833	0.28361	0.13381	-2.3438	-2.5833	-2.9042	-2.9437	-2.8042	-3.0083	-2.6083	-3.0542	-2.9062	-2.6583	-3.0104	-2.9104	-2.9208	-3.075	-2.6354	-2.9958	-45.864	61.921	-4.988	-43.111	205.684	90.180	-65.205	220.722	25.501	69.277	19.315	200.817	150.466	134.785	36.282	-44.918	6.0133e-05	0.00023927	6.4347e-05	1009.2	2.0425e-06	3.4312e-06	1095.6	208.36	1.0282e-06	3.4499e-06	262.53	75.311	59.582	18.167	1.4072e-06	25.219	0.00016966	0.00022071	5.4576e-05	985.66	2.5885e-06	2.0484e-06	1073.5	205.84	2.3647e-06	2.3781e-06	258.9	76.002	59.653	18.194	2.2846e-06	25.254	225.729	-3.574	16.762	-69.236	91.581	67.438	-68.735	-61.317	67.444	79.954	-62.295	-54.648	-54.495	-47.269	60.176	-47.793	-8191	255	
1106.266	1	1	0	0	0.2042	0.29994	0.27392	0.12133	0.11993	0.2072	0.33449	0.11176	0.19513	0.37052	0.095854	0.31781	0.17281	0.33223	0.13502	0.20653	-2.5792	-2.5458	-3.1729	-2.7792	-2.6312	-3.0396	-2.8479	-2.8979	-2.9042	-2.5583	-3.1021	-2.8646	-2.6229	-2.9083	-2.5687	-2.7979	252.666	-40.059	237.812	265.002	256.047	-64.441	236.499	276.220	234.184	36.743	-27.119	265.155	243.208	228.778	-71.040	220.101	6.0856e-05	0.00028344	6.5049e-05	1008.5	1.3383e-06	3.1698e-06	1094.3	208.02	1.5951e-06	2.7237e-06	262.23	75.786	59.949	18.175	1.6973e-06	25.109	0.0001732	0.00021819	5.0406e-05	984.32	2.7737e-06	2.2188e-06	1073.8	205.9	2.4318e-06	2.1318e-06	259.15	76.147	59.701	18.21	2.3535e-06	25.241	216.358	1.681	11.265	-69.085	82.735	93.629	-68.970	-61.577	109.803	82.967	-62.466	-54.889	-54.379	-47.433	97.871	-47.736	-8191	255	
1106.340	1	1	0	0	0.21412	0.33243	0.03669	0.27683	0.26063	0.10674	0.55041	0.10056	0.18208	0.086583	0.13066	0.25581	0.12626	0.32805	0.10114	0.21263	-2.4333	-2.6396	-2.8771	-3.0062	-2.7854	-3.0125	-2.7875	-2.8729	-2.8917	-2.6708	-3.1063	-3.05	-2.6354	-3.0229	-2.6667	-2.8667	169.443	-64.918	101.980	232.336	61.204	251.894	186.050	253.753	-32.185	160.663	256.127	196.356	70.309	4.894	-44.705	234.184	6.7455e-05	0.00019566	8.3944e-05	1007.1	1.5229e-06	2.3057e-06	1095	209	7.2327e-07	2.2857e-06	261.94	75.801	59.846	18.035	1.9356e-06	25.136	0.00017135	0.00021291	5.4921e-05	982.69	2.5318e-06	1.6099e-06	1072.3	206.2	2.532e-06	2.2436e-06	258.9	76.05	59.673	18.143	2.2254e-06	25.276	225.867	12.812	23.711	-69.159	118.881	78.082	-69.210	-61.391	87.581	82.471	-62.004	-54.910	-53.901	-47.697	100.826	-47.833	-8191	255	
1106.458	1	1	0	0	0.089836	0.30343	0.31235	0.18221	0.27411	0.044509	0.097077	0.29998	0.20141	0.19608	0.10105	0.09611	0.24396	0.30308	0.33411	0.029644	-2.4771	-2.5458	-2.9104	-2.9542	-2.3854	-3.0083	-3.0438	-2.7875	-2.85	-2.6396	-3.025	-2.8688	-2.8458	-2.9958	-2.7396	-2.6875	270.920	96.160	177.824	-31.534	-29.597	112.217	-32.908	210.995	-73.341	229.587	175.000	-5.801	268.591	208.567	88.218	100.977	4.4202e-05	0.00017658	7.0295e-05	1006.5	1.7728e-06	3.1137e-06	1093.8	208.4	1.1115e-06	2.3426e-06	262.23	75.829	59.654	18.22	1.997e-06	25.17	0.00017328	0.00018771	5.7018e-05	984.31	2.6259e-06	1.9243e-06	1070.9	205.64	2.4404e-06	2.2606e-06	259.02	76.154	59.689	18.189	2.1541e-06	25.283	225.437	3.281	30.341	-69.284	109.710	72.199	-69.307	-61.939	90.357	66.628	-62.146	-54.893	-54.335	-47.498	90.502	-47.895	-8191	255	
1106.555	1	1	0	0	0.14165	0.092751	0.31891	0.41605	0.090225	0.1107	0.17308	0.058833	0.18085	0.25862	0.12933	0.092808	0.14899	0.036967	0.079011	0.071578	-2.4938	-2.7313	-2.6979	-3.0854	-2.6729	-3.0521	-3.0062	-2.625	-3.0083	-2.675	-2.85	-3.0354	-2.6125	-2.8354	-2.8604	-2.5354	169.082	-35.017	26.941	-28.668	-55.474	169.888	15.109	223.627	176.033	2.840	240.299	28.322	110.243	53.399	210.586	-32.505	6.6358e-05	0.00031393	8.2943e-05	1006.4	1.7125e-06	2.7802e-06	1098.5	208.86	9.4876e-07	3.4666e-06	262.27	75.974	59.979	18.072	1.7884e-06	25.116	0.00016589	0.00019112	5.4668e-05	983.97	2.6318e-06	2.0701e-06	1072.8	205.93	2.3316e-06	2.253e-06	258.7	76.107	59.725	18.201	2.3478e-06	25.204	232.195	9.256	4.379	-69.404	115.165	61.343	-69.125	-61.212	90.193	58.594	-62.386	-55.124	-54.401	-47.215	89.463	-47.670	-8191	255	
1106.651	1	1	0	0	0.23732	0.3234	0.036626	0.34612	0.28884	0.12305	0.10288	0.057594	0.062178	0.11525	0.18501	0.17301	0.25855	0.16178	0.22836	0.11304	-2.5917	-2.5042	-2.8979	-3.2062	-2.5354	-2.9521	-3.0167	-2.675	-2.9167	-2.6479	-2.7021	-2.9229	-2.7667	-2.9417	-2.8146	-2.4708	10.952	-22.269	23.506	223.622	98.157	260.666	170.712	202.529	192.891	265.465	247.414	175.257	131.269	-73.745	275.166	4.119	7.4193e-05	0.00028893	8.9433e-05	1004.5	1.7831e-06	3.1098e-06	1095.5	207.99	3.7434e-07	3.5757e-06	262.01	75.62	59.461	18.063	2.0482e-06	25.08	0.00017495	0.0002025	5.6811e-05	983.7	2.8222e-06	2.2766e-06	1071.2	205.88	2.3035e-06	2.4908e-06	259.06	76.042	59.573	18.15	2.1573e-06	25.247	230.013	20.563	11.659	-69.246	75.289	89.319	-69.127	-61.350	99.815	80.710	-62.094	-54.715	-54.026	-47.250	82.690	-48.514	-8191	255	
1106.771	1	1	0	0	0.47167	0.043361	0.18833	0.3299	0.056627	0.25202	0.031221	0.32216	0.34199	0.096597	0.069296	0.054465	0.15316	0.16406	0.2296	0.16057	-2.4271	-2.4604	-2.55	-3.0771	-2.5104	-3.0604	-3.0479	-2.6458	-2.9646	-2.8833	-2.7646	-3.0771	-2.6833	-2.8812	-2.9792	-2.5833	261.723	183.017	248.180	192.922	243.825	47.141	248.219	-19.872	215.170	107.070	-72.641	261.405	248.956	211.061	-56.658	278.106	6.0599e-05	0.00021408	7.4426e-05	1006.3	1.8713e-06	3.253e-06	1096.4	207.48	1.4581e-06	3.0786e-06	262.8	75.726	59.586	17.92	2.6941e-06	24.99	0.00017058	0.00020486	5.4392e-05	983.43	2.7603e-06	2.2311e-06	1072.2	205.68	2.6654e-06	2.2e-06	258.9	76.099	59.624	18.144	2.0909e-06	25.191	217.754	5.602	19.482	-69.194	104.939	59.023	-69.195	-61.590	83.009	61.080	-62.362	-54.941	-54.319	-47.532	66.391	-47.831	-8191	255	
1106.868	1	1	0	0	0.22315	0.14007	0.13481	0.40184	0.23118	0.12241	0.23831	0.26884	0.16428	0.1756	0.26601	0.1179	0.42012	0.078462	0.045946	0.14356	-2.3854	-2.7562	-2.6937	-3.1083	-2.6833	-2.8125	-3.1583	-2.7146	-2.9188	-2.9375	-2.6875	-3.1979	-2.8271	-2.7812	-3.1188	-2.675	47.369	-21.922	253.336	247.098	129.176	216.713	182.902	193.690	276.818	-3.039	-73.321	-47.554	-76.013	-48.855	217.244	216.079	6.3937e-05	0.00023699	8.8264e-05	1006.7	1.7919e-06	2.0817e-06	1093	208.12	9.2733e-07	2.6522e-06	261.93	75.789	59.319	17.976	1.952e-06	25.072	0.00017955	0.00020746	5.6235e-05	983.81	2.6737e-06	1.9669e-06	1071.3	206.02	2.5342e-06	2.146e-06	258.77	76.024	59.457	18.142	1.9807e-06	25.157	221.976	6.862	11.021	-69.117	83.246	67.331	-69.051	-61.568	57.033	78.479	-62.191	-54.725	-54.185	-47.589	97.787	-47.867	-8191	255	
1106.939	1	1	0	0	0.20655	0.14721	0.22951	0.29711	0.20199	0.16469	0.15364	0.3754	0.088494	0.033455	0.43448	0.042099	0.19776	0.12008	0.29438	0.16202	-2.4417	-3.2917	-2.7042	-3.0938	-2.8771	-2.7146	-3.175	-2.7708	-2.9417	-2.8958	-2.5458	-3.1458	-2.8583	-2.6667	-3.0042	-2.7083	23.988	255.138	263.868	241.483	182.410	61.312	181.881	248.719	131.295	263.052	276.539	151.475	215.530	-41.753	170.156	161.298	5.8519e-05	0.00027652	8.1186e-05	1006.2	5.5132e-07	2.9141e-06	1095.9	207.36	9.6869e-07	3.3189e-06	263.14	75.614	59.516	18.069	1.7753e-06	24.998	0.00016987	0.00018681	5.5083e-05	982.9	2.3489e-06	2.1838e-06	1071.9	205.68	2.4051e-06	2.1412e-06	259.12	76.085	59.495	18.141	2.0836e-06	25.195	223.716	21.725	16.715	-69.247	109.928	80.837	-69.116	-61.788	71.195	68.439	-62.189	-54.786	-54.350	-47.576	106.470	-47.958	-8191	255	
1107.060	1	1	0	0	0.078051	0.11558	0.22064	0.074848	0.032991	0.10757	0.13831	0.22705	0.1335	0.036674	0.25836	0.045712	0.15842	0.27136	0.14309	0.24301	-2.5146	-2.9792	-2.45	-3.1146	-2.9958	-2.6271	-3.2729	-2.7417	-2.8771	-2.8688	-2.6917	-3.0229	-3.025	-2.6104	-3.1937	-2.6375	-22.453	277.648	-41.501	273.327	229.754	114.909	159.911	-69.370	148.260	135.867	222.347	-51.677	79.961	253.194	2.892	197.631	6.4147e-05	0.00014281	6.4492e-05	1006.4	2.0995e-06	3.4503e-06	1090.2	207.78	1.9603e-07	1.8136e-06	262.15	75.739	59.594	17.97	2.4838e-06	25.072	0.00016871	0.00019275	5.506e-05	981.81	2.5624e-06	2.3126e-06	1072.2	205.9	2.3727e-06	2.1678e-06	259.31	75.944	59.657	18.149	2.0609e-06	25.221	216.612	11.361	4.970	-69.007	96.297	71.590	-69.162	-61.657	95.908	66.108	-62.096	-54.815	-54.764	-47.269	65.076	-48.221	-8191	255	
1107.156	1	1	0	0	0.01644	0.21267	0.22277	0.29359	0.31948	0.34321	0.16778	0.093711	0.18466	0.12903	0.090948	0.15643	0.10525	0.095652	0.27999	0.13315	-2.3896	-2.8646	-2.4292	-3.0125	-2.9479	-2.7604	-3.1833	-2.8271	-2.9229	-2.9917	-2.6771	-3.0938	-2.9437	-2.4521	-3.075	-2.7604	185.276	268.434	151.150	248.471	-65.985	260.250	241.230	250.716	134.467	142.501	201.226	256.173	171.250	91.379	27.267	260.189	6.2185e-05	0.00034689	8.2326e-05	1003.2	1.6902e-06	3.3987e-06	1093.6	207.32	9.612e-07	2.5485e-06	260.09	75.589	59.277	18.06	1.1809e-06	25.095	0.00018282	0.00018616	5.9322e-05	983.54	2.4228e-06	2.3921e-06	1073.3	205.51	2.5529e-06	2.2038e-06	257.98	76.029	59.454	18.143	2.2489e-06	25.183	227.178	-2.790	16.574	-69.533	120.048	76.545	-69.228	-61.433	122.413	64.725	-62.363	-54.852	-54.287	-47.686	103.722	-48.025	-8191	255	
1107.252	1	1	0	0	0.066353	0.10754	0.090707	0.095716	0.088213	0.18522	0.13549	0.20964	0.011995	0.0727	0.073522	0.20846	0.16263	0.16726	0.19295	0.12383	-2.2875	-3.0563	-2.6083	-2.8854	-2.875	-2.3667	-2.95	-2.925	-2.6604	-3.0875	-2.6521	-2.8833	-3.0667	-2.6021	-2.8917	-2.9	247.611	46.747	100.948	229.557	224.553	270.982	189.727	-69.456	-42.353	160.469	267.903	-48.659	235.466	213.392	5.711	187.652	5.3111e-05	0.00026403	8.552e-05	1007.7	1.7076e-06	2.5429e-06	1091.2	207.85	1.0396e-06	2.7002e-06	260.21	75.869	59.261	17.963	1.7883e-06	24.85	0.00017557	0.00018998	5.9437e-05	984.94	2.3855e-06	2.3353e-06	1070.7	205.55	2.6892e-06	2.091e-06	258.2	76.04	59.596	18.108	2.1387e-06	25.148	226.567	12.265	6.016	-69.243	102.764	57.258	-69.239	-61.494	97.189	93.997	-62.571	-54.837	-54.467	-47.471	103.254	-47.874	-8191	255	
1107.371	1	1	0	0	0.49653	0.12235	0.21127	0.25086	0.14652	0.18903	0.22598	0.13604	0.071732	0.25134	0.21676	0.12357	0.258	0.072125	0.027103	0.090256	-2.2583	-3.1125	-2.6958	-2.5917	-3.0146	-2.6688	-3.075	-2.8542	-2.6646	-3.1354	-2.8396	-2.8021	-3.0854	-2.575	-2.8667	-2.9	271.570	-0.090	220.144	277.611	47.221	208.206	-77.255	-7.030	-4.811	115.687	221.412	232.963	-74.727	70.676	-69.568	62.426	6.8683e-05	0.00026826	8.4457e-05	1006.1	1.7786e-06	2.5486e-06	1092.9	207.54	6.8669e-07	3.1069e-06	261.12	76.303	59.171	18.083	1.9921e-06	25.041	0.00017926	0.00018828	5.7317e-05	984.99	2.5766e-06	2.2557e-06	1071.2	205.63	2.4808e-06	2.1592e-06	258.41	76.099	59.426	18.113	2.2813e-06	25.164	221.734	5.980	14.187	-69.267	69.120	72.045	-69.220	-61.367	91.210	71.390	-62.605	-54.901	-54.341	-47.250	101.407	-47.958	-8191	255	
1107.467	1	1	0	0	0.090817	0.23673	0.12955	0.092231	0.21436	0.28024	0.32117	0.14482	0.24771	0.23114	0.13185	0.13291	0.22479	0.19096	0.13991	0.29773	-2.0625	-2.9854	-2.8917	-2.95	-3.1854	-2.7917	-2.9938	-3	-2.5292	-2.9646	-2.7604	-2.8896	-3.2021	-2.5771	-2.8375	-2.9104	48.314	22.055	151.153	243.086	-7.888	58.587	173.260	171.930	69.389	156.207	245.428	212.700	202.734	184.797	244.346	132.776	5.5039e-05	0.00030295	8.267e-05	1009.4	1.3188e-06	2.4937e-06	1093.4	206.92	1.3914e-06	2.8972e-06	261.05	75.433	59.293	17.984	2.2079e-06	24.99	0.0001865	0.0001921	6.0013e-05	985.03	2.4437e-06	2.2264e-06	1071.9	205.28	2.4361e-06	2.1526e-06	258.07	75.776	59.37	18.079	2.2902e-06	25.112	218.229	-5.035	-12.140	-69.190	135.121	78.730	-69.105	-61.431	75.344	59.610	-61.977	-54.797	-54.209	-47.325	79.042	-47.825	-8191	255	
1107.563	1	1	0	0	0.16854	0.095037	0.21547	0.21363	0.03109	0.23791	0.24329	0.11302	0.077041	0.24321	0.035021	0.06332	0.1312	0.22694	0.11262	0.15827	-2.1167	-3.0604	-2.9021	-2.7687	-3.125	-2.8688	-3.0062	-3.1146	-2.6937	-2.8354	-2.9917	-2.8229	-3.0833	-2.8937	-2.6292	-3.075	-2.082	72.681	-3.389	200.464	-14.788	-42.386	-74.960	-18.769	-65.482	69.310	-48.981	-76.889	235.775	106.930	251.484	15.042	6.4537e-05	0.00018286	7.9731e-05	1004.6	1.2139e-06	3.3574e-06	1089.1	207.28	6.481e-07	2.6514e-06	261.95	75.437	59.616	17.954	1.9413e-06	24.96	0.00018264	0.00019714	5.2134e-05	983.35	2.4437e-06	2.3713e-06	1070.9	205.54	2.5154e-06	2.0038e-06	258.2	76.012	59.538	18.09	2.0893e-06	25.144	217.961	20.894	20.799	-69.254	111.950	68.022	-69.004	-61.623	107.757	67.445	-62.268	-54.824	-54.399	-47.486	80.128	-48.135	-8191	255	
1107.635	1	1	0	0	0.1987	0.28174	0.11057	0.045915	0.2276	0.085223	0.22434	0.14373	0.14287	0.20808	0.12322	0.16436	0.22944	0.079898	0.12137	0.21427	-2.1312	-2.8646	-2.8625	-2.8104	-3.2313	-2.6937	-2.9292	-3	-2.6271	-3.0979	-3.0312	-2.5917	-3.1208	-2.85	-2.6646	-3.0917	220.882	224.185	107.732	2.936	77.536	172.866	229.637	268.361	74.862	72.631	178.979	172.130	189.557	277.025	164.350	267.658	6.0596e-05	0.0003061	6.2695e-05	1003.6	1.7131e-06	1.7818e-06	1093.3	206.74	6.2899e-07	2.7311e-06	261.78	75.47	58.575	18.155	1.7987e-06	25.068	0.00018086	0.00018665	5.2848e-05	984.01	2.2906e-06	1.9508e-06	1070.4	204.99	2.4916e-06	2.019e-06	258.79	75.816	59.19	18.124	2.2692e-06	25.168	227.380	-5.223	19.336	-69.427	108.277	60.733	-69.217	-61.424	26.196	69.745	-62.032	-54.704	-54.298	-47.060	98.152	-48.489	-8191	255	
1107.756	1	1	0	0	0.097365	0.19262	0.052437	0.28393	0.14882	0.17326	0.13142	0.11571	0.16861	0.07593	0.23918	0.14791	0.07625	0.12653	0.10536	0.17204	-2.1188	-2.8292	-2.8937	-2.5604	-2.7917	-2.9125	-2.8167	-3.2812	-2.6958	-2.9625	-3.0604	-2.6958	-3.0417	-2.875	-2.5687	-3.1875	208.280	-57.767	114.103	248.670	92.287	119.515	183.554	137.242	77.371	114.829	-69.048	-16.679	116.248	106.907	3.953	-78.784	6.5343e-05	0.00022081	9.8888e-05	1002.6	1.6234e-06	2.9435e-06	1095.7	206.41	8.906e-07	3.1006e-06	260.57	75.415	59.201	17.955	2.3173e-06	25.11	0.0001857	0.00020779	5.2042e-05	981.94	2.4855e-06	2.2056e-06	1071.4	205.49	2.4671e-06	2.1479e-06	258.17	75.964	59.274	18.114	2.3964e-06	25.185	215.038	20.311	27.778	-69.579	77.277	52.995	-69.497	-61.316	77.966	61.222	-62.412	-54.935	-54.524	-47.542	91.952	-48.187	-8191	255	
1107.852	1	1	0	0	0.22794	0.022469	0.13689	0.24244	0.044883	0.11066	0.095602	0.12689	0.11782	0.18478	0.32532	0.12775	0.204	0.028284	0.22402	0.098087	-2.2542	-2.7875	-2.8083	-2.7417	-3.0167	-2.7104	-2.6729	-2.925	-2.6021	-2.6521	-3.0854	-2.6875	-2.9042	-2.7625	-2.4562	-2.9208	234.760	2.898	20.838	200.947	-24.929	205.579	63.698	121.288	-57.103	-38.406	-14.859	-76.556	167.177	-7.868	280.132	221.197	5.0434e-05	0.00027382	9.9853e-05	1001.3	1.5027e-06	1.7912e-06	1084.8	207.33	1.1542e-06	2.9704e-06	261.76	75.383	58.908	17.849	1.8245e-06	25.145	0.00017557	0.00020112	5.5474e-05	983.05	2.5654e-06	1.858e-06	1069.9	205.37	2.5183e-06	2.1327e-06	258.71	75.753	59.316	18.078	2.2748e-06	25.159	219.741	15.512	9.690	-69.395	98.325	76.137	-69.270	-61.727	96.645	67.058	-62.342	-54.702	-54.599	-47.491	92.492	-47.969	-8191	255	
1107.948	1	1	0	0	0.059312	0.14633	0.24823	0.16284	0.12227	0.13419	0.12898	0.039377	0.11859	0.10944	0.10776	0.21469	0.21531	0.10076	0.20813	0.28239	-2.1896	-2.6917	-2.9917	-2.5187	-2.9667	-2.75	-2.7	-3.1229	-2.8792	-2.7958	-3.025	-2.5896	-2.8667	-2.9167	-2.625	-2.8458	92.505	269.520	119.458	-74.132	60.358	267.902	215.136	60.351	251.085	139.384	241.551	-62.506	279.678	-71.530	155.827	174.769	6.9086e-05	0.00020076	7.1355e-05	1005.2	1.4382e-06	2.3761e-06	1086.8	207.07	5.0083e-07	2.2199e-06	260.45	75.1	58.789	17.944	2.0151e-06	24.928	0.0001794	0.00020307	5.582e-05	982.29	2.6214e-06	2.1402e-06	1070.2	205.51	2.5147e-06	2.2616e-06	257.84	75.77	59.223	18.102	2.3202e-06	25.146	226.843	-2.354	35.298	-69.265	120.332	80.279	-69.052	-61.507	48.605	89.046	-62.228	-54.547	-54.548	-47.363	85.090	-48.110	-8191	255	
1108.044	1	1	0	0	0.21451	0.06638	0.1938	0.17124	0.031936	0.10625	0.23806	0.30872	0.17555	0.13077	0.18455	0.072043	0.25686	0.2315	0.088367	0.20068	-2.5542	-2.5146	-2.9313	-2.6896	-2.8354	-3.0125	-2.6562	-3.175	-2.8792	-2.5979	-3.0354	-2.5958	-2.8583	-3.0771	-2.6688	-3.0646	200.411	-75.459	-77.104	-28.022	-13.880	234.556	241.188	64.104	271.707	197.075	252.029	0.034	244.972	116.703	255.338	212.621	5.755e-05	0.00029953	6.4228e-05	1003	2.0232e-06	3.0726e-06	1088.2	205.94	9.8438e-07	2.8691e-06	261.86	75.213	59.336	17.979	1.3977e-06	25.077	0.00016773	0.00022462	4.9876e-05	983.68	2.761e-06	2.1591e-06	1070.6	204.83	2.4642e-06	2.1393e-06	258.49	75.766	59.392	18.122	2.4304e-06	25.161	217.377	-5.238	10.557	-69.172	98.833	79.106	-68.894	-61.750	72.812	73.167	-62.281	-54.936	-54.336	-47.181	96.684	-48.346	-8191	255	
1108.163	1	1	0	0	0.11604	0.19718	0.20252	0.21861	0.27122	0.066981	0.27931	0.10942	0.034248	0.13997	0.24497	0.074222	0.134	0.049363	0.093644	0.17198	-2.45	-2.5875	-3.0792	-2.8	-2.7896	-2.9979	-2.7792	-2.9188	-3.0125	-2.5375	-3.1083	-2.8271	-2.5333	-2.9917	-2.9167	-2.8125	-0.275	262.407	185.834	261.590	10.042	14.275	162.159	-32.299	129.051	237.132	159.071	197.858	169.374	43.156	244.749	222.717	6.3605e-05	0.00030747	8.0844e-05	1003.8	2.0254e-06	3.8429e-06	1088.8	206.99	1.6493e-06	2.4839e-06	261.86	75.105	59.098	17.847	2.04e-06	24.961	0.00017328	0.00020437	5.0498e-05	981.75	2.5818e-06	2.3239e-06	1070.3	205.11	2.5306e-06	2.3876e-06	258.37	75.864	59.334	18.069	2.3178e-06	25.119	222.920	4.282	3.262	-69.306	85.089	59.848	-69.139	-61.699	74.192	76.523	-61.982	-55.019	-54.495	-47.728	74.029	-48.172	-8191	255	
1108.236	1	1	0	0	0.17995	0.075516	0.19323	0.1766	0.13089	0.34774	0.17652	0.045941	0.0515	0.15621	0.37303	0.07017	0.15154	0.061928	0.13184	0.22044	-2.4062	-2.6021	-2.9292	-2.5479	-2.7021	-3.0667	-2.6	-2.7812	-2.8854	-2.5458	-3.1854	-2.6	-2.5292	-2.9917	-2.5563	-2.8583	262.511	-63.557	165.389	266.963	70.352	61.929	-4.323	158.706	105.485	32.240	3.173	221.851	50.400	208.239	150.349	174.927	6.3206e-05	0.00029864	9.799e-05	1001.4	1.8405e-06	3.0232e-06	1086.5	207.57	9.8667e-07	2.7224e-06	260.92	75.211	59.208	17.996	2.3569e-06	24.967	0.00017747	0.00022023	5.5244e-05	982.49	2.5505e-06	2.0228e-06	1069.9	205.45	2.4058e-06	2.4444e-06	258.38	75.764	59.392	18.124	2.253e-06	25.135	224.354	-11.043	26.020	-69.337	94.605	81.678	-69.243	-61.501	94.546	59.851	-62.411	-55.007	-54.533	-47.355	71.760	-48.346	-8191	255	
1108.332	1	1	0	0	0.076251	0.0069317	0.15285	0.0051495	0.19085	0.1846	0.33896	0.13071	0.34209	0.084193	0.13361	0.28433	0.081465	0.045317	0.19018	0.14588	-2.6021	-2.4313	-2.95	-2.7812	-2.5625	-3.1562	-2.7333	-2.8146	-3.0021	-2.5417	-3.1417	-2.8917	-2.5979	-3.0542	-2.7687	-2.7875	88.483	182.289	7.165	13.605	252.761	87.567	240.780	29.906	185.450	209.613	225.330	274.756	-31.130	102.309	94.410	182.403	5.0316e-05	0.00025732	7.0075e-05	1001.8	2.0797e-06	3.1816e-06	1088.9	206.12	7.2622e-07	2.4912e-06	261.14	75.691	58.861	17.975	1.2878e-06	25.035	0.00016752	0.00021949	5.2249e-05	982.59	2.7132e-06	2.2235e-06	1071.3	204.99	2.3265e-06	2.0967e-06	258.32	75.964	59.336	18.089	2.1427e-06	25.198	219.653	0.946	17.948	-69.260	80.724	78.358	-68.900	-61.542	102.690	81.533	-62.373	-54.729	-54.379	-47.672	68.595	-48.177	-8191	255	
1108.451	1	1	0	0	0.024803	0.17428	0.24122	0.3145	0.12366	0.073408	0.253	0.23202	0.31226	0.15529	0.075725	0.04163	0.14171	0.24724	0.25595	0.11518	-2.6229	-2.6479	-2.9479	-3.0833	-2.5	-2.9875	-2.8646	-2.6979	-3.05	-2.6854	-2.9083	-2.9146	-2.4479	-3.0042	-2.5396	-2.7313	-62.634	98.292	217.648	207.658	256.587	142.290	227.510	260.961	93.963	96.289	147.869	-22.759	-43.497	53.946	187.614	182.612	6.4601e-05	0.00018744	6.9638e-05	997.6	1.4223e-06	2.5733e-06	1087.7	207.03	1.0226e-06	2.2219e-06	262.23	75.256	59.022	18.067	1.5634e-06	25.027	0.00016699	0.00019974	5.5705e-05	980.39	2.5669e-06	1.9858e-06	1068.4	205.18	2.2285e-06	1.9887e-06	258.67	75.758	59.293	18.124	1.9904e-06	25.138	224.907	15.804	14.090	-69.357	103.288	50.545	-69.396	-61.812	35.166	74.761	-62.236	-54.830	-54.696	-47.713	96.654	-48.370	-8191	255	
1108.548	1	1	0	0	0.31786	0.19279	0.28522	0.067467	0.18998	0.089454	0.20753	0.21463	0.068215	0.19352	0.19806	0.18561	0.31369	0.11162	0.18306	0.31294	-2.5875	-2.4938	-2.7687	-2.9375	-2.5542	-3.0438	-2.7729	-2.7354	-2.9854	-2.5146	-2.9125	-3.1813	-2.4437	-3.05	-2.8063	-2.7125	2.995	-49.286	66.124	275.262	118.367	4.334	262.606	188.475	217.387	42.381	174.935	205.628	203.517	213.115	226.300	-51.642	7.1079e-05	0.00024591	7.5173e-05	1003.3	1.2114e-06	2.1392e-06	1087.6	206.94	9.6748e-07	2.0922e-06	259.61	75.091	58.806	17.875	1.9848e-06	24.998	0.00016565	0.00020413	4.8218e-05	982.97	2.6162e-06	2.0398e-06	1068.7	205.55	2.2804e-06	2.199e-06	258.14	75.714	59.276	18.06	2.3089e-06	25.184	219.026	22.689	9.604	-69.350	64.706	74.580	-69.130	-61.594	55.000	91.858	-62.467	-54.757	-54.460	-47.170	77.221	-48.095	-8191	255	
1108.644	1	1	0	0	0.087878	0.083758	0.14507	0.18323	0.16305	0.29109	0.30486	0.25235	0.10844	0.14957	0.17751	0.24687	0.12935	0.17556	0.036879	0.19577	-2.5271	-2.5896	-2.7771	-3.0875	-2.3042	-2.9604	-2.8833	-2.7125	-3.0417	-2.8646	-2.7062	-3.1604	-2.6583	-2.9437	-2.8063	-2.7396	239.636	143.395	134.355	255.588	-60.863	-14.856	239.713	163.277	31.612	-48.307	-79.263	238.621	207.615	187.216	-63.035	150.224	5.8296e-05	0.00031154	7.5249e-05	1003	1.5071e-06	2.2643e-06	1088.1	206.68	5.7419e-07	2.3229e-06	260.08	75.347	58.844	17.992	1.3354e-06	25.003	0.00017314	0.00022649	5.6281e-05	982.38	2.7834e-06	2.0626e-06	1068.9	205.08	2.3337e-06	2.1744e-06	258.15	75.853	59.312	18.118	2.1833e-06	25.121	226.892	-1.833	-1.594	-69.198	81.360	83.731	-69.261	-61.603	130.886	69.049	-62.409	-54.393	-54.620	-47.114	63.599	-48.053	-8191	255	
1108.740	1	1	0	0	0.044039	0.065465	0.30214	0.15652	0.035292	0.13269	0.11937	0.21507	0.1127	0.38784	0.32954	0.10497	0.27945	0.093845	0.16006	0.27929	-2.7292	-2.7271	-2.7188	-3.3083	-2.4271	-2.8833	-3.0062	-2.8042	-2.9313	-2.9146	-2.7521	-2.9083	-2.8688	-2.9458	-2.8125	-2.7875	56.021	77.424	174.105	267.983	4.245	123.259	170.427	137.966	127.458	-13.887	-60.218	3.078	214.981	8.062	163.135	249.038	5.8234e-05	0.00025543	8.9982e-05	1000.9	2.5967e-06	2.1058e-06	1093.5	205.84	6.6093e-07	2.201e-06	260.82	75.076	59.367	17.875	2.1215e-06	24.967	0.00016235	0.00018129	6.0842e-05	981.67	2.6124e-06	2.1042e-06	1071	205.11	2.3272e-06	1.7149e-06	258.26	75.791	59.391	18.056	2.1484e-06	25.097	214.672	10.278	-3.145	-69.139	85.417	78.963	-69.068	-61.439	42.751	64.333	-62.248	-54.630	-54.623	-47.524	99.704	-48.140	-8191	255	
1108.836	1	1	0	0	0.090292	0.18501	0.31885	0.14921	0.42596	0.30039	0.24526	0.19961	0.14028	0.223	0.17479	0.26633	0.12138	0.13903	0.086909	0.06714	-2.3979	-2.9	-2.5083	-2.9458	-2.7604	-2.9792	-3.0729	-2.6583	-2.9083	-2.8187	-2.6979	-3.0333	-2.7333	-2.8292	-2.9042	-2.6792	115.477	-2.158	128.295	218.841	51.435	157.693	227.363	-33.945	-74.387	99.212	186.806	231.029	74.870	10.465	94.529	190.224	5.5782e-05	0.00024712	7.9008e-05	998.82	2.0542e-06	2.6629e-06	1089.8	207.56	7.9757e-07	2.9187e-06	260.35	74.551	59.02	18.021	1.7997e-06	24.69	0.00016615	0.00018145	5.8492e-05	980.5	2.7326e-06	1.9376e-06	1068.4	205.62	2.289e-06	2.1071e-06	258.28	75.459	59.22	18.058	2.1282e-06	25.102	224.292	-7.584	22.922	-69.151	103.363	77.911	-69.173	-61.685	66.159	78.729	-62.413	-54.896	-54.386	-47.601	79.230	-47.954	-8191	255	
1108.932	1	1	0	0	0.16636	0.068051	0.19634	0.27358	0.058781	0.14997	0.3062	0.33808	0.16837	0.16202	0.26419	0.092059	0.20152	0.19918	0.14057	0.24109	-2.4417	-2.5646	-2.8187	-3.0896	-2.6688	-2.7313	-3.0687	-2.6562	-2.8917	-3.0646	-2.7062	-2.9062	-2.825	-2.6937	-3.1104	-2.6875	7.818	83.170	-6.929	259.111	83.094	32.241	216.811	136.795	125.419	-25.369	250.850	-73.929	180.494	106.428	148.809	96.977	7.0701e-05	0.00029689	8.1311e-05	1002.3	2.2344e-06	2.4732e-06	1089.6	206.35	7.1751e-07	2.4214e-06	260.24	75.151	59.338	18.045	2.0361e-06	25.085	0.00016304	0.00019511	6.1971e-05	980.5	2.5953e-06	2.2444e-06	1069.1	205.04	2.5306e-06	2.1318e-06	258.33	75.747	59.339	18.118	2.0325e-06	25.121	224.088	19.201	-10.495	-69.340	107.557	81.521	-69.095	-61.478	57.256	70.844	-62.035	-54.752	-54.816	-47.570	101.704	-48.223	-8191	255	
1109.053	1	1	0	0	0.11657	0.062313	0.16656	0.11483	0.22963	0.13137	0.22065	0.091016	0.042631	0.17341	0.1471	0.049409	0.06883	0.1049	0.14742	0.11599	-2.3917	-2.9604	-2.55	-3.0687	-2.8646	-2.6271	-3.325	-2.7625	-2.7479	-2.8979	-2.6354	-2.9896	-2.9437	-2.625	-3.1333	-2.8021	115.940	90.917	271.998	270.093	-29.403	8.542	186.263	189.761	210.622	158.180	261.139	-46.000	25.240	255.861	257.807	-43.746	6.6151e-05	0.00025098	8.2001e-05	1000.3	1.6453e-06	2.5454e-06	1086.2	206.64	1.0425e-06	2.8226e-06	261.05	75.122	58.943	17.964	2.1706e-06	24.965	0.00016776	0.00019478	5.3839e-05	980.97	2.4713e-06	2.2775e-06	1070	205.02	2.4577e-06	2.0484e-06	258.66	75.755	59.365	18.084	2.1768e-06	25.131	219.979	21.661	12.703	-69.449	92.436	51.083	-69.351	-61.601	78.702	50.052	-62.302	-54.687	-54.720	-47.212	80.729	-48.565	-8191	255	
1109.149	1	1	0	0	0.19235	0.098721	0.23496	0.35125	0.44492	0.16792	0.25713	0.20772	0.017202	0.086669	0.097956	0.24499	0.30547	0.098706	0.24696	0.07999	-2.4333	-2.8958	-2.6083	-3.0167	-2.8292	-2.6146	-3.1708	-2.6854	-2.7229	-2.8979	-2.6146	-2.8229	-2.9375	-2.6708	-3.2417	-2.7604	83.992	42.531	88.238	250.730	204.550	25.384	243.298	265.854	240.698	109.455	229.734	-49.530	231.752	-31.638	83.196	138.344	5.9793e-05	0.00030146	0.00011477	1003.4	1.3655e-06	2.8039e-06	1095.9	207.02	1.1231e-06	2.977e-06	260.66	75.018	59.402	17.967	2.226e-06	25.078	0.00016725	0.0001999	5.6212e-05	981.92	2.3884e-06	2.2037e-06	1069.9	205.26	2.3424e-06	2.1858e-06	258.71	75.653	59.363	18.102	2.1225e-06	25.15	230.310	-2.571	8.432	-69.403	121.600	85.627	-69.310	-61.696	68.949	72.885	-62.383	-54.747	-54.547	-47.744	71.693	-47.986	-8191	255	
1109.243	1	1	0	0	0.13128	0.25063	0.24038	0.21971	0.022313	0.1601	0.33431	0.36017	0.068221	0.28816	0.035311	0.086003	0.19053	0.082066	0.34676	0.19258	-2.2625	-3.0417	-2.5896	-2.9521	-2.8958	-2.5333	-2.9437	-2.8896	-2.6188	-2.9625	-2.6188	-2.725	-3.1521	-2.5896	-2.9271	-2.7625	77.100	-51.815	-29.084	-79.102	122.950	228.767	-54.688	251.500	163.034	3.878	83.140	50.458	211.928	63.292	184.794	238.392	6.6512e-05	0.00024041	7.6645e-05	1000.1	1.3354e-06	2.8671e-06	1090	206.97	6.6187e-07	2.6609e-06	260.24	75.216	58.706	17.758	1.9834e-06	24.802	0.00017676	0.00015665	5.6142e-05	981.29	2.3474e-06	2.1033e-06	1068.5	205.18	2.3878e-06	1.8816e-06	258.33	75.682	59.151	18.022	1.9418e-06	25.053	226.951	23.023	15.236	-69.470	108.469	81.277	-69.263	-61.518	78.057	54.072	-62.106	-54.848	-54.791	-47.803	104.564	-48.153	-8191	255	
1109.339	1	1	0	0	0.30101	0.22807	0.22464	0.094574	0.1985	0.17374	0.3165	0.11389	0.1721	0.12893	0.10852	0.40733	0.2012	0.12759	0.18291	0.20173	-2.1813	-3.0208	-2.4125	-2.8688	-3.1	-2.6792	-3	-2.8833	-2.4667	-3.1083	-2.6292	-2.8708	-3	-2.6208	-2.9479	-2.9479	-76.778	82.295	-74.430	189.909	82.069	210.168	278.753	211.517	6.213	54.580	250.613	218.174	252.413	162.989	133.087	229.693	5.7187e-05	0.00019832	7.7649e-05	1003.9	1.8764e-06	2.8367e-06	1092.9	205.55	5.8542e-07	3.7546e-06	260.7	75.062	58.883	18.01	2.0877e-06	24.888	0.00018484	0.00018023	5.8654e-05	983.32	2.4191e-06	2.3523e-06	1070.4	204.72	2.5781e-06	1.9044e-06	258.28	75.695	59.17	18.066	2.1663e-06	25.109	219.140	9.704	29.682	-69.437	60.888	70.379	-69.277	-61.530	82.979	78.021	-62.185	-54.575	-54.672	-47.994	100.680	-47.967	-8191	255	
1109.460	1	1	0	0	0.06205	0.34795	0.35631	0.24361	0.077037	0.1789	0.27816	0.1797	0.20328	0.19724	0.13386	0.14468	0.059469	0.12689	0.094828	0.068293	-2.1333	-3.1375	-2.5042	-2.9083	-2.8688	-2.5146	-3.1042	-3.1292	-2.4917	-2.9375	-2.9042	-2.5812	-3.1854	-2.5896	-2.6583	-2.9167	158.909	239.347	70.727	-60.421	204.663	26.155	213.666	212.782	80.000	-12.513	-51.341	-21.136	225.914	224.972	168.749	-68.798	5.7606e-05	0.00029676	6.8968e-05	1004.9	1.9614e-06	2.5593e-06	1090.6	206	4.6469e-07	3.4813e-06	260.9	75.556	58.946	17.922	2.8884e-06	24.917	0.00018223	0.00019153	5.9944e-05	982.33	2.4534e-06	2.0645e-06	1071.2	204.9	2.4166e-06	2.2094e-06	258.09	75.683	59.297	18.067	2.3518e-06	25.053	224.630	23.616	17.928	-69.255	93.780	76.969	-69.237	-61.814	71.298	76.789	-62.341	-54.931	-54.504	-47.282	98.291	-48.163	-8191	255	
1109.532	1	1	0	0	0.12614	0.07859	0.18063	0.1612	0.16128	0.038932	0.10407	0.15751	0.15047	0.18613	0.18375	0.069215	0.14445	0.27098	0.23256	0.10481	-2.3187	-2.7396	-2.5938	-2.775	-3.0167	-2.5104	-2.7646	-3.1208	-2.5	-3.0875	-2.85	-2.7438	-3.0104	-2.6521	-2.9917	-2.95	237.770	194.603	28.646	266.044	259.288	187.893	256.352	210.894	110.885	150.498	275.548	-73.614	-24.994	9.109	8.948	41.419	6.1489e-05	0.00028856	7.3064e-05	1002.3	1.9842e-06	3.1367e-06	1084.7	206.81	8.1477e-07	2.8416e-06	261.37	75.359	58.567	17.922	1.8695e-06	24.899	0.00018428	0.00020145	5.9713e-05	981.35	2.5811e-06	2.1468e-06	1068.8	205.34	2.5853e-06	1.9991e-06	258.26	75.794	59.167	18.06	2.1638e-06	25.061	218.712	23.133	13.331	-69.194	89.378	75.413	-69.134	-61.547	62.365	58.966	-62.168	-55.089	-54.364	-47.629	88.142	-48.114	-8191	255	
1109.628	1	1	0	0	0.054533	0.16282	0.020595	0.35891	0.079993	0.11152	0.34001	0.054702	0.17115	0.1866	0.25806	0.2818	0.16902	0.16601	0.18977	0.089435	-2.1021	-2.9104	-2.5646	-2.6417	-3.0417	-2.6312	-3.0146	-2.9646	-2.5938	-2.9938	-2.875	-2.5271	-3.1167	-2.5958	-2.7375	-3.0542	182.682	41.640	45.351	141.037	18.814	227.620	165.999	-47.111	73.049	223.225	-42.619	228.642	-8.317	50.635	22.066	116.453	7.245e-05	0.00024177	6.8099e-05	1001.1	1.7803e-06	1.8461e-06	1093.2	207.28	1.0487e-06	3.3632e-06	260.13	75.351	59.092	17.928	1.6499e-06	25.025	0.00018442	0.0001899	5.8769e-05	981.97	2.5333e-06	2.0294e-06	1070.9	205.39	2.6214e-06	2.1659e-06	257.88	75.799	59.332	18.06	2.2376e-06	25.106	225.193	-10.878	24.177	-69.205	83.626	67.502	-69.128	-61.536	64.087	79.133	-62.390	-54.966	-54.358	-47.383	94.178	-47.845	-8191	255	
1109.724	1	1	0	0	0.22443	0.049774	0.13694	0.15138	0.15742	0.086094	0.14494	0.17343	0.033515	0.058345	0.10373	0.1634	0.1169	0.2333	0.32224	0.16582	-1.85	-2.9083	-2.7938	-2.5396	-3.1125	-2.5687	-2.9562	-3.1333	-2.6083	-2.7542	-2.8833	-2.5604	-3.0292	-2.7604	-2.6542	-3.2479	-64.078	229.817	-17.748	244.158	67.521	110.526	107.744	177.918	260.567	-40.316	-24.193	72.333	207.440	160.702	136.000	216.455	6.2958e-05	0.00029361	5.2472e-05	1003.7	1.8946e-06	2.2615e-06	1087.8	206.72	5.53e-07	3.0813e-06	260.3	75.143	59.116	17.955	1.4885e-06	24.785	0.00017961	0.00020324	5.7502e-05	982.55	2.4101e-06	2.1819e-06	1069.4	205.28	2.4837e-06	2.0834e-06	257.79	75.671	59.389	18.043	2.3753e-06	25.109	218.060	-4.116	21.399	-69.194	110.264	97.625	-69.027	-61.552	68.915	57.635	-62.226	-54.850	-54.476	-47.640	104.886	-48.100	-8191	255	
1109.845	1	1	0	0	0.19057	0.089186	0.081997	0.052123	0.08843	0.21091	0.2695	0.16128	0.16646	0.20299	0.07184	0.15107	0.084674	0.034943	0.068238	0.14027	-2.1958	-2.6875	-2.8146	-2.725	-2.9917	-2.9146	-2.8708	-2.9604	-2.6896	-2.8229	-2.8312	-2.3333	-3.0312	-2.8438	-2.6729	-3.0917	-64.591	233.820	50.049	203.739	259.141	275.873	268.193	263.702	34.764	54.747	213.882	211.105	165.523	180.019	197.751	72.911	5.8042e-05	0.00031842	6.9261e-05	1003.8	1.3621e-06	2.9565e-06	1091.5	206.31	8.8939e-07	2.2663e-06	261.21	75.031	58.911	17.88	1.9383e-06	24.99	0.00018401	0.00021039	4.6305e-05	984.07	2.6333e-06	1.9849e-06	1069.9	205.06	2.5255e-06	2.1914e-06	258.39	75.812	59.243	18.055	2.3219e-06	25.106	216.258	8.218	16.993	-69.340	99.910	75.329	-69.076	-61.459	79.417	78.576	-62.162	-54.685	-54.110	-47.295	85.379	-47.869	-8191	255	
1109.941	1	1	0	0	0.12732	0.17258	0.2549	0.17789	0.27953	0.13689	0.20057	0.0037145	0.19402	0.13614	0.25088	0.064941	0.28083	0.13761	0.18877	0.20921	-2.0979	-2.7104	-2.7875	-2.6729	-2.7979	-2.8333	-2.6833	-2.95	-2.6604	-2.6646	-3.1396	-2.5875	-2.8521	-2.9062	-2.5604	-2.9208	92.102	-14.598	11.975	268.415	-55.070	9.114	188.200	11.144	177.959	41.024	210.773	53.582	269.325	193.913	163.297	167.282	6.0371e-05	0.00029131	0.00011263	1004.2	1.6408e-06	1.9724e-06	1090.6	206.91	9.3102e-07	3.3781e-06	260.44	75.653	59.072	17.901	2.1608e-06	24.953	0.0001783	0.00019941	5.2963e-05	981.79	2.6625e-06	2.1715e-06	1071.2	205.04	2.4166e-06	2.1374e-06	257.91	75.731	59.096	17.99	2.4078e-06	25.063	218.212	13.965	17.628	-69.276	107.919	58.401	-69.019	-61.489	86.906	62.062	-62.288	-54.835	-54.473	-47.170	92.560	-47.927	-8191	255	
1110.037	1	1	0	0	0.18856	0.19538	0.1821	0.12416	0.12555	0.27942	0.29261	0.20353	0.11084	0.32332	0.19917	0.43938	0.15718	0.12556	0.23051	0.16589	-2.3417	-2.6021	-2.9	-2.7625	-2.8271	-2.8083	-2.475	-2.975	-2.7938	-2.7667	-3.1	-2.7271	-2.7104	-2.9417	-2.5938	-3.0146	129.978	209.628	239.473	-33.997	2.400	-62.671	240.791	199.290	196.814	237.122	172.636	133.196	186.005	164.968	149.593	98.180	4.9291e-05	0.00026499	9.9271e-05	1002	1.481e-06	2.0047e-06	1093.7	206.74	7.2692e-07	3.8522e-06	260.68	74.814	59.051	17.89	2.1114e-06	25.07	0.00018832	0.00020332	5.6212e-05	982.62	2.5639e-06	2.2207e-06	1071.3	205.26	2.395e-06	2.4378e-06	258.41	75.625	59.297	17.986	2.2003e-06	25.141	220.809	19.584	24.103	-69.260	99.157	64.587	-69.248	-61.862	78.490	74.050	-62.169	-55.001	-54.403	-47.231	95.967	-47.997	-8191	255	
1110.133	1	1	0	0	0.066118	0.18955	0.17694	0.041512	0.17734	0.2707	0.10596	0.27765	0.28932	0.092322	0.15487	0.12619	0.068475	0.26421	0.085921	0.13967	-2.325	-2.6562	-2.9917	-2.7792	-2.7958	-2.9	-2.6292	-3.0312	-2.7854	-2.6125	-3.0417	-2.7583	-2.675	-2.9583	-2.6146	-3.0292	152.864	159.368	26.597	-70.944	21.278	254.196	192.880	223.664	-1.033	-37.393	191.104	-52.259	-33.434	35.241	90.180	206.634	5.3559e-05	0.00023577	0.00011498	1000.4	1.5144e-06	3.1361e-06	1088.7	207.25	1.0393e-06	2.5123e-06	260.35	74.951	58.996	17.937	2.3451e-06	24.988	0.00017522	0.00019836	5.5797e-05	981.8	2.5273e-06	2.1544e-06	1071.4	205.33	2.3056e-06	2.289e-06	258	75.601	59.236	18.015	2.4377e-06	25.135	220.895	11.515	19.919	-69.385	140.059	55.869	-69.361	-61.339	87.606	86.729	-62.686	-54.900	-54.366	-47.244	89.053	-48.097	-8191	255	
1110.229	1	1	0	0	0.11625	0.10069	0.14538	0.34742	0.11613	0.17541	0.070252	0.29523	0.14799	0.10201	0.20766	0.14935	0.17649	0.054805	0.16381	0.17553	-2.3312	-2.5687	-3.0375	-2.7687	-2.5458	-3.1542	-2.8792	-2.6917	-3.0979	-2.5333	-2.9437	-2.9167	-2.6292	-2.9813	-2.6125	-3.0042	274.573	-0.025	201.680	235.246	214.560	115.200	42.057	-77.431	89.160	260.299	89.168	76.830	168.352	66.425	34.104	1.067	5.2909e-05	0.00027209	9.1933e-05	1000.9	1.4846e-06	2.162e-06	1086.8	206.73	8.482e-07	2.3865e-06	260.36	75.373	59.145	17.924	1.6172e-06	24.871	0.00017269	0.00020868	5.4092e-05	982.52	2.3795e-06	2.1421e-06	1070.4	205.16	2.3575e-06	2.4548e-06	258.3	75.62	59.302	18.063	2.1346e-06	25.077	216.160	10.392	13.200	-69.274	106.775	91.173	-69.072	-61.685	63.730	55.962	-62.152	-54.893	-54.217	-47.873	62.550	-47.989	-8191	255	
1110.325	1	1	0	0	0.071338	0.29267	0.13795	0.24095	0.12182	0.15622	0.15091	0.14854	0.093887	0.11963	0.25531	0.13755	0.15982	0.17431	0.20567	0.12769	-2.2479	-2.6333	-2.9396	-2.8187	-2.6167	-3.1479	-2.8104	-2.9	-2.6604	-2.4021	-3.0958	-2.7229	-2.3458	-3.1479	-2.5458	-2.7396	178.555	213.307	163.151	236.163	42.920	-35.527	180.817	186.049	-47.065	102.207	-52.842	203.342	-13.212	157.821	-3.874	73.201	5.584e-05	0.00026654	7.9166e-05	1004.9	1.6301e-06	2.9278e-06	1086.9	205.69	8.7849e-07	2.1611e-06	259.98	75.692	59.171	17.926	2.767e-06	24.902	0.00017456	0.00020844	4.9968e-05	983.71	2.7453e-06	2.0143e-06	1070.4	205.02	2.3691e-06	2.1772e-06	257.99	75.871	59.443	18.054	2.2748e-06	25.091	221.954	2.699	31.176	-69.242	97.797	78.205	-69.021	-61.541	68.424	44.739	-62.203	-54.796	-54.183	-47.515	100.219	-48.134	-8191	255	
1110.422	1	1	0	0	0.15503	0.022143	0.12687	0.16073	0.12228	0.24211	0.16089	0.23174	0.19866	0.23953	0.014884	0.049629	0.090261	0.14142	0.04858	0.2668	-2.5667	-2.6333	-2.7583	-2.7167	-2.4292	-3.0333	-2.8646	-2.7604	-2.9604	-2.5146	-2.9875	-2.9313	-2.4062	-2.9542	-2.5979	-2.5875	162.929	-57.377	146.674	261.170	103.117	95.021	175.921	276.959	-37.039	245.953	59.212	231.070	265.030	276.171	144.233	12.659	6.2889e-05	0.00027835	6.8536e-05	1003.9	2.1355e-06	2.6393e-06	1087.1	206.68	6.7368e-07	2.4534e-06	262.25	75.024	59.091	17.953	1.3864e-06	25.058	0.00016702	0.00020112	5.271e-05	982.43	2.5557e-06	1.7832e-06	1069.3	205.33	2.328e-06	2.3904e-06	258.89	75.693	59.371	18.055	2.2092e-06	25.137	218.866	13.917	16.091	-69.206	116.856	78.635	-69.360	-61.430	66.746	83.001	-62.170	-54.852	-54.519	-47.457	103.502	-48.141	-8191	255	
1110.540	1	1	0	0	0.11521	0.20853	0.35858	0.22621	0.22664	0.32005	0.23824	0.13366	0.1058	0.19781	0.19042	0.26117	0.26667	0.15696	0.18906	0.20977	-2.5167	-2.5646	-2.7833	-2.9062	-2.5646	-2.8583	-2.9021	-2.5583	-3.025	-2.4625	-3.0229	-3.0208	-2.4854	-3.05	-2.7625	-2.7062	232.000	276.458	269.814	200.841	208.870	153.582	209.481	-0.797	-36.022	86.851	-12.848	165.963	220.612	252.017	258.503	268.505	6.5211e-05	0.0002848	6.0461e-05	1005.6	1.7111e-06	3.2751e-06	1084	206.54	1.0609e-06	3.2207e-06	260.28	74.97	58.927	17.834	2.5903e-06	24.966	0.00017593	0.000186	5.3078e-05	983.16	2.6027e-06	2.1004e-06	1068.1	205.13	2.3092e-06	2.3961e-06	258.08	75.546	59.114	17.939	2.4783e-06	25.023	221.852	13.339	9.283	-69.223	120.695	78.925	-69.027	-61.615	66.788	70.549	-62.250	-54.970	-54.583	-47.892	100.147	-48.475	-8191	255	
1110.637	1	1	0	0	0.033441	0.16657	0.26077	0.18258	0.12143	0.28344	0.17717	0.2398	0.11389	0.060518	0.071414	0.23566	0.30396	0.40194	0.34481	0.30767	-2.6271	-2.4708	-2.8625	-3.0333	-2.5292	-2.9375	-2.775	-2.6271	-2.8167	-2.75	-2.7229	-2.9917	-2.5958	-2.9208	-2.9167	-2.5917	124.537	29.590	111.780	210.265	-12.712	-52.700	209.092	240.880	175.445	130.569	170.813	-29.768	154.723	-36.112	84.214	176.937	5.423e-05	0.00035801	8.7797e-05	1005.3	1.586e-06	2.4243e-06	1092.8	207.52	6.9686e-07	2.9064e-06	260.54	75.06	58.745	17.848	3.0296e-06	24.877	0.00017652	0.00022779	5.4161e-05	981.87	2.7842e-06	2.2605e-06	1071.1	205.46	2.4123e-06	2.3411e-06	258.79	75.599	59.243	17.989	2.3154e-06	25.089	205.955	8.487	15.028	-69.300	115.066	80.746	-69.067	-61.376	89.753	76.080	-61.946	-54.979	-54.338	-47.471	100.489	-48.149	-8191	255	
1110.733	1	1	0	0	0.058869	0.19267	0.084162	0.3124	0.11671	0.16852	0.1899	0.24838	0.084678	0.074567	0.24874	0.10862	0.14875	0.23201	0.30709	0.16429	-2.5667	-2.575	-2.7	-3.0604	-2.4313	-2.6354	-3.15	-2.6042	-2.9542	-2.6667	-2.7438	-3.1292	-2.6333	-2.8063	-2.8458	-2.5438	174.822	65.375	215.369	246.805	127.586	262.906	-64.926	-69.444	245.051	45.037	231.454	180.538	85.349	177.310	140.698	276.095	5.4287e-05	0.00038645	0.00010524	998.57	1.7975e-06	2.7648e-06	1092.4	206.81	1.1811e-06	3.0902e-06	261.16	75.521	58.998	18.039	2.0175e-06	24.964	0.00016999	0.00021137	5.6603e-05	981.56	2.7117e-06	2.2993e-06	1071.7	205.31	2.3373e-06	2.2777e-06	258.03	75.847	59.218	18.092	2.1646e-06	25.051	217.482	2.232	6.512	-69.460	109.224	84.893	-69.118	-61.574	107.782	69.907	-62.330	-54.723	-54.407	-47.013	83.665	-48.515	-8191	255	
1110.829	1	1	0	0	0.31627	0.090257	0.23803	0.24664	0.094348	0.24307	0.28577	0.29197	0.19161	0.033862	0.19337	0.15575	0.06797	0.059632	0.29273	0.14925	-2.3583	-2.6479	-2.6771	-3.0563	-2.6875	-2.8042	-3.0854	-2.7021	-2.9708	-2.7125	-2.6	-3.0375	-2.5708	-2.6646	-2.9708	-2.6708	-2.442	-23.267	218.089	258.457	279.904	-61.797	204.212	244.824	257.385	-53.313	150.398	-64.330	151.127	254.306	-41.349	186.744	6.4385e-05	0.00029941	7.3081e-05	1004.5	1.6218e-06	2.8168e-06	1088.7	206.98	8.3672e-07	2.2723e-06	261.47	74.71	58.598	17.889	2.4275e-06	24.923	0.00016987	0.00020405	5.4299e-05	984.66	2.7259e-06	2.1951e-06	1071.4	205.28	2.3554e-06	2.272e-06	258.54	75.472	59.126	18.054	2.3591e-06	25.137	236.310	17.101	29.018	-69.282	117.689	66.565	-69.116	-61.342	69.617	79.197	-62.208	-54.712	-54.217	-47.625	77.258	-48.002	-8191	255	
1110.925	1	1	0	0	0.23326	0.039731	0.18246	0.092483	0.16244	0.098997	0.21068	0.10016	0.39285	0.095102	0.27231	0.18443	0.057158	0.077926	0.16803	0.17284	-2.2188	-2.675	-2.6437	-3.175	-2.6521	-2.6146	-3.0771	-2.5438	-2.8146	-2.9646	-2.3458	-3.0833	-2.6646	-2.4583	-2.9292	-2.6188	19.947	14.060	95.574	231.411	-27.902	46.737	221.214	14.183	264.216	168.321	-72.427	197.869	-78.442	225.759	166.310	199.290	6.4896e-05	0.0003088	8.9372e-05	1006.8	2.0336e-06	3.0338e-06	1084.9	206.98	7.8298e-07	1.5965e-06	259.83	75.196	59.1	17.923	2.6052e-06	25.04	0.00016711	0.00020015	5.5474e-05	984.22	2.7259e-06	2.0938e-06	1069.4	205.47	2.5565e-06	2.127e-06	257.84	75.831	59.382	18.003	2.1614e-06	25.102	226.368	2.718	19.101	-69.349	102.274	91.610	-68.985	-61.714	65.060	54.950	-62.482	-54.937	-54.562	-47.508	98.571	-48.374	-8191	255	
1111.021	1	1	0	0	0.27461	0.14795	0.31668	0.44008	0.33326	0.32729	0.27074	0.065096	0.099853	0.10378	0.15781	0.081073	0.26682	0.15781	0.067513	0.10115	-2.2917	-2.8479	-2.4479	-2.8521	-2.6833	-2.4979	-2.8292	-2.5625	-2.7167	-3.0521	-2.5229	-2.9292	-2.6646	-2.3417	-3.0646	-2.6042	135.801	10.729	86.406	-74.935	136.376	115.313	191.190	-7.357	41.879	259.328	217.227	-25.546	275.102	-61.906	219.971	137.043	4.9535e-05	0.00036311	8.3395e-05	1003.5	1.7012e-06	2.8646e-06	1092.7	206.82	1.1433e-06	2.3062e-06	261.39	75.041	59.333	17.857	1.7839e-06	24.852	0.00018018	0.00019486	5.9828e-05	983.68	2.5669e-06	2.2681e-06	1072	205.33	2.4368e-06	2.0143e-06	258.82	75.733	59.35	18.039	1.9823e-06	25.029	222.863	5.333	-9.916	-69.194	107.107	70.900	-69.281	-61.459	80.817	89.370	-62.082	-55.134	-54.253	-47.251	87.629	-48.380	-8191	255	
1111.142	1	1	0	0	0.15665	0.21545	0.015146	0.053215	0.02691	0.056963	0.25521	0.3745	0.030433	0.29796	0.093849	0.22123	0.11042	0.16707	0.26835	0.25873	-2.3187	-2.8771	-2.5271	-2.9313	-3.0438	-2.5146	-2.9771	-2.8854	-2.7771	-2.9417	-2.5	-2.9813	-2.8958	-2.4292	-2.9688	-2.7354	27.907	231.855	-32.149	217.137	48.642	197.863	204.103	259.095	117.786	63.955	-76.524	54.305	4.015	96.684	113.706	276.843	6.421e-05	0.00019921	8.9695e-05	1001.6	1.2175e-06	2.7555e-06	1092.3	207.43	7.5143e-07	3.473e-06	259.86	75.364	59.017	17.984	2.3403e-06	24.81	0.00017079	0.00018568	5.9621e-05	984.01	2.4467e-06	2.0682e-06	1070.4	205.56	2.5954e-06	2.2132e-06	258.35	75.822	59.41	18.111	2.3137e-06	25.119	215.730	-3.193	15.845	-69.294	85.420	70.499	-69.079	-61.387	91.084	87.666	-62.107	-54.932	-54.585	-47.416	99.629	-48.108	-8191	255	
1111.236	1	1	0	0	0.10228	0.074021	0.058708	0.33084	0.10829	0.093831	0.19198	0.32474	0.13811	0.073137	0.16162	0.26359	0.30509	0.1557	0.15914	0.10248	-2.1188	-2.8833	-2.3354	-3.0667	-2.9458	-2.5	-2.9479	-2.9813	-2.5438	-3.1083	-2.65	-2.6833	-2.8854	-2.5979	-3.0125	-2.6833	215.845	86.601	238.404	278.664	209.871	47.532	226.903	243.054	137.118	29.652	255.371	199.355	-30.172	40.215	239.558	69.259	6.3609e-05	0.00027292	8.2238e-05	1004.5	1.905e-06	2.2136e-06	1092.9	206.16	9.3483e-08	1.9845e-06	260.21	74.575	59.002	17.783	2.4655e-06	24.897	0.0001767	0.00018665	6.1556e-05	983.47	2.5273e-06	2.3343e-06	1072.7	205.07	2.4887e-06	1.9489e-06	258.38	75.709	59.403	18.045	1.8988e-06	25.106	235.565	-1.597	13.578	-69.219	90.574	76.017	-69.204	-61.388	52.614	69.703	-62.185	-54.920	-54.587	-47.803	95.354	-48.162	-8191	255	
1111.332	1	1	0	0	0.12701	0.21268	0.14246	0.059195	0.16556	0.16851	0.27111	0.1637	0.34663	0.19264	0.15153	0.23689	0.042325	0.19131	0.062917	0.36114	-2.1583	-2.8917	-2.4875	-2.9313	-2.7958	-2.5625	-2.8271	-2.725	-2.5938	-2.9854	-2.6146	-2.6604	-2.9979	-2.4792	-3.0083	-2.7771	271.901	265.862	-8.061	270.888	181.479	-76.107	153.222	134.765	172.789	241.998	145.060	274.203	195.950	264.157	-46.131	87.131	6.5042e-05	0.00022574	8.2506e-05	1005.4	1.6877e-06	3.1818e-06	1093.8	206.5	9.5826e-07	2.7012e-06	260.98	75.251	59.282	17.848	2.4438e-06	24.879	0.00017676	0.00018868	6.0381e-05	982.33	2.5042e-06	2.3296e-06	1071.2	205.36	2.4873e-06	1.9299e-06	258.33	75.817	59.385	18.026	2.1233e-06	25.109	222.365	12.768	11.990	-69.215	105.960	79.869	-68.987	-61.664	70.336	83.290	-62.459	-54.775	-54.225	-47.522	85.592	-47.723	-8191	255	
1111.406	1	1	0	0	0.18557	0.10666	0.1239	0.13172	0.12941	0.1984	0.26664	0.20874	0.15847	0.15307	0.099357	0.19262	0.084622	0.19705	0.16943	0.19409	-2.1042	-2.8896	-2.6	-2.8042	-3.0438	-2.55	-2.9167	-2.7604	-2.4938	-3.0271	-2.7354	-2.5958	-2.8646	-2.6063	-2.9333	-2.8104	169.519	13.191	15.556	65.210	0.324	11.249	275.671	-55.457	-14.834	-11.057	96.234	12.139	-59.892	-57.830	3.930	23.749	6.7496e-05	0.00023605	0.00011124	999.48	1.1288e-06	2.2407e-06	1088.6	207.56	1.6993e-06	2.7228e-06	260.39	74.832	59.015	17.949	9.0838e-07	24.811	0.00017539	0.00018356	6.1602e-05	981.36	2.5318e-06	2.3798e-06	1071.3	205.37	2.6027e-06	2.002e-06	258.66	75.709	59.382	18.061	2.0147e-06	25.008	231.380	-8.689	8.861	-69.138	39.836	96.199	-69.183	-61.702	76.843	70.993	-62.241	-54.743	-54.668	-47.564	81.462	-47.837	-8191	255	
1111.525	1	1	0	0	0.264	0.11688	0.13921	0.22312	0.098519	0.28503	0.1405	0.20273	0.1031	0.079093	0.17107	0.20414	0.13458	0.13885	0.041441	0.12291	-1.9271	-2.8958	-2.575	-2.6646	-2.9437	-2.575	-2.9125	-2.8604	-2.4625	-2.9583	-2.7625	-2.5271	-3.0812	-2.7208	-2.7875	-3.1312	12.007	181.285	203.125	220.741	178.417	-24.688	163.224	-58.776	126.417	-64.038	181.715	252.240	272.101	-60.871	205.889	203.166	6.6002e-05	0.00031027	7.91e-05	1006.4	1.4825e-06	2.5213e-06	1089	207.16	8.8173e-07	1.9372e-06	261.08	75.349	59.307	17.862	2.0493e-06	25.017	0.00018012	0.00018901	5.5359e-05	983	2.5228e-06	2.1203e-06	1070.4	205.27	2.5724e-06	1.9517e-06	258.12	75.714	59.486	18.059	2.1022e-06	25.097	224.485	28.097	32.785	-69.265	92.722	55.340	-69.115	-61.685	100.085	79.149	-62.591	-54.892	-54.601	-47.696	69.805	-48.252	-8191	255	
1111.621	1	1	0	0	0.26498	0.20756	0.16123	0.25451	0.11645	0.30556	0.24642	0.25213	0.083518	0.16793	0.2193	0.32582	0.082203	0.23703	0.10731	0.019369	-2.0958	-2.8417	-2.7917	-2.7333	-3.0458	-2.6917	-2.8229	-3.0021	-2.5583	-3.0042	-2.9458	-2.6708	-2.9604	-2.7333	-2.8417	-2.8812	41.063	103.661	104.767	193.223	-54.488	-30.770	262.984	202.481	-28.260	105.264	-37.546	260.822	258.573	-36.987	15.723	155.360	5.6518e-05	0.00031745	9.4476e-05	1002.9	1.6122e-06	1.6259e-06	1090.3	208.13	6.1354e-07	3.0437e-06	260.82	75.45	58.996	17.98	2.6146e-06	24.957	0.00017741	0.00019478	5.5428e-05	982.09	2.4743e-06	2.1061e-06	1069.2	205.67	2.6308e-06	2.1867e-06	258.66	75.944	59.447	18.121	2.3186e-06	25.135	229.932	4.225	20.163	-69.120	109.661	71.737	-69.330	-61.336	76.641	90.976	-61.979	-54.898	-53.926	-47.061	81.018	-48.040	-8191	255	
1111.717	1	1	0	0	0.17107	0.10385	0.27209	0.15615	0.10848	0.10652	0.16442	0.25185	0.039755	0.17175	0.22545	0.22797	0.16709	0.2104	0.16974	0.07905	-2.05	-2.8458	-2.8187	-2.5312	-3.0875	-2.5542	-2.7313	-3.0833	-2.3542	-2.8229	-2.95	-2.4771	-2.9313	-2.5958	-2.4083	-2.9396	204.147	190.658	158.969	240.238	128.161	29.250	255.432	-54.394	220.909	215.745	125.539	239.983	264.885	-59.356	38.895	238.840	6.4611e-05	0.00030488	7.6835e-05	1005.1	1.4365e-06	2.796e-06	1088.9	207.26	8.0668e-07	2.3652e-06	261.16	75.312	59.333	17.982	1.7834e-06	25.009	0.00017682	0.00019153	5.0637e-05	984.29	2.4116e-06	2.3343e-06	1070.2	205.3	2.5832e-06	2.1403e-06	258.54	75.759	59.41	18.118	2.1598e-06	25.163	226.667	28.421	0.643	-69.077	111.519	56.354	-69.186	-61.302	102.011	61.683	-62.352	-54.833	-54.141	-47.412	97.962	-48.230	-8191	255	
1111.813	1	1	0	0	0.15771	0.14188	0.2449	0.13309	0.11889	0.1089	0.1261	0.2116	0.17565	0.061255	0.1071	0.17145	0.22438	0.08167	0.17391	0.13377	-2.0125	-2.6771	-2.625	-2.5583	-2.7771	-2.6979	-2.6375	-3.1063	-2.4854	-2.8083	-2.8937	-2.3708	-3.1229	-2.6479	-2.4875	-3.0729	65.031	60.098	-5.756	242.538	11.516	173.238	147.576	142.930	-20.005	174.940	235.416	67.114	148.034	196.959	74.119	232.945	6.1961e-05	0.00022328	9.1075e-05	1005.6	1.6751e-06	2.6358e-06	1091.8	205.92	9.898e-07	2.3023e-06	261.29	75.367	59.099	18.019	1.9585e-06	25.025	0.00017536	0.00021844	5.4461e-05	983.46	2.7446e-06	2.234e-06	1071.4	204.95	2.5241e-06	2.2237e-06	258.55	75.968	59.365	18.117	2.2432e-06	25.196	228.326	5.617	9.623	-69.224	84.053	83.978	-69.283	-61.650	84.814	56.885	-62.196	-54.745	-54.232	-47.323	84.229	-48.173	-8191	255	
1111.934	1	1	0	0	0.071126	0.053319	0.16908	0.098836	0.16352	0.35657	0.23361	0.11786	0.26213	0.14893	0.092415	0.21905	0.1544	0.047785	0.11288	0.14111	-2.2604	-2.5438	-2.8146	-2.5271	-2.8771	-2.6604	-2.6958	-2.9271	-2.4604	-2.5625	-3.0292	-2.5292	-2.8583	-2.9021	-2.4375	-2.8583	276.208	-50.576	-26.606	254.093	144.148	119.148	-52.987	229.566	247.446	99.997	103.769	197.864	63.762	72.079	241.856	225.290	6.5412e-05	0.00035317	0.00010578	1003.3	2.0783e-06	3.1718e-06	1091.8	206.54	1.2198e-06	2.853e-06	260.61	75.455	59.12	17.915	1.6206e-06	24.822	0.00017747	0.00020779	5.8746e-05	983.33	2.4683e-06	2.1705e-06	1070.6	204.94	2.4426e-06	2.2729e-06	258.17	75.912	59.222	18.024	2.4086e-06	25.103	221.949	31.280	3.428	-69.331	96.315	81.436	-69.145	-61.538	77.409	79.591	-62.230	-54.911	-54.441	-47.393	97.857	-48.394	-8191	255	
1112.005	1	1	0	0	0.29311	0.31588	0.22359	0.22048	0.030714	0.12135	0.24622	0.15552	0.17222	0.31186	0.24586	0.099936	0.21265	0.15362	0.11315	0.18746	-2.2167	-2.5042	-2.9583	-2.5979	-2.8312	-2.6979	-2.5812	-3.0583	-2.5792	-2.7021	-3.0125	-2.5333	-2.8125	-2.8396	-2.5812	-3.0292	213.046	166.562	221.743	243.884	53.565	-60.102	144.437	-73.062	-70.027	263.943	262.563	-41.001	-74.989	-54.012	274.133	161.867	5.8971e-05	0.00018989	8.2413e-05	1001.8	1.934e-06	1.7901e-06	1092.2	205.51	2.436e-07	3.0376e-06	260.61	75.327	58.792	17.878	9.2499e-07	24.939	0.00017602	0.00021689	5.4e-05	982.78	2.6453e-06	2.0502e-06	1071.9	204.64	2.501e-06	2.6102e-06	258.49	75.628	59.13	18.017	2.3275e-06	25.056	220.134	8.879	7.374	-69.483	82.294	86.085	-68.948	-61.566	46.832	82.989	-62.512	-54.976	-54.504	-47.741	106.773	-48.028	-8191	255	
1112.102	1	1	0	0	0.0706	0.1582	0.38766	0.29377	0.22601	0.28757	0.17898	0.10472	0.2178	0.18496	0.21421	0.10871	0.16574	0.2359	0.056542	0.26465	-2.2958	-2.4958	-2.8604	-2.7583	-2.7479	-2.9667	-2.5604	-3.0042	-2.575	-2.5396	-3.0583	-2.5729	-2.5854	-2.8333	-2.4313	-2.7958	24.532	-58.100	-52.352	204.269	79.013	237.718	225.207	232.426	-32.018	-11.449	122.866	-49.798	-66.028	190.459	55.001	234.340	5.9249e-05	0.00025532	8.9453e-05	1004.7	7.9796e-07	2.9606e-06	1090.8	205.89	1.2622e-06	2.1097e-06	260.71	74.801	59.08	17.865	1.554e-06	24.806	0.00017129	0.00020454	5.741e-05	982.86	2.5953e-06	2.1478e-06	1071.3	205.06	2.4794e-06	2.3411e-06	258.22	75.552	59.37	17.998	2.3065e-06	25.075	217.664	-6.435	27.785	-69.363	118.602	79.219	-69.247	-61.183	92.423	71.750	-61.971	-55.084	-54.574	-47.487	102.521	-47.765	-8191	255	
1112.222	1	1	0	0	0.15716	0.061183	0.29228	0.25639	0.18151	0.13061	0.17475	0.21366	0.2159	0.036022	0.13389	0.041148	0.10813	0.19664	0.23731	0.15179	-2.4958	-2.4375	-2.8667	-2.8292	-2.4062	-2.9979	-2.5146	-2.8688	-2.7396	-2.5563	-2.9604	-2.8063	-2.6271	-2.8542	-2.4354	-2.6979	26.423	89.400	-65.860	-48.846	223.088	-23.382	234.007	132.884	122.715	-64.232	-59.300	54.726	-40.840	215.752	243.230	178.345	5.0436e-05	0.00027247	7.467e-05	1005.4	1.5422e-06	2.4499e-06	1090.1	206.56	1.5168e-06	2.7229e-06	261.2	75.321	59.376	17.898	1.6654e-06	24.929	0.00017581	0.00021746	4.96e-05	983.66	2.4034e-06	1.983e-06	1070.6	205.22	2.4642e-06	2.0294e-06	258.28	75.815	59.246	18.057	2.2497e-06	25.068	216.503	15.801	12.068	-69.357	116.439	74.590	-69.043	-61.593	86.586	70.600	-62.123	-55.184	-54.328	-47.453	85.434	-47.943	-8191	255	
1112.317	1	1	0	0	0.25908	0.24702	0.18612	0.27022	0.17764	0.23623	0.25581	0.19993	0.24799	0.071027	0.16055	0.18356	0.19668	0.24268	0.090151	0.4116	-2.5708	-2.5396	-3.075	-2.8521	-2.6792	-2.9146	-2.6875	-2.7938	-2.9437	-2.5667	-2.9625	-2.8104	-2.5021	-2.9917	-2.7417	-2.8083	41.746	-76.641	152.805	183.616	204.112	23.666	235.078	186.368	-52.047	229.864	98.124	-27.680	217.598	275.635	-26.769	244.613	5.7139e-05	0.00022037	8.0229e-05	1007.1	2.2282e-06	2.9299e-06	1093	207.28	1.1067e-06	2.4492e-06	260.25	74.491	58.949	17.818	2.1653e-06	24.633	0.00017801	0.0001934	5.4138e-05	985.72	2.817e-06	1.9707e-06	1073.1	205.25	2.2919e-06	2.4368e-06	257.99	75.503	59.114	17.907	2.3332e-06	24.924	226.550	10.406	15.799	-69.355	89.255	79.872	-69.068	-61.621	75.543	62.547	-62.484	-54.641	-54.509	-47.430	66.986	-48.392	-8191	255	
1112.413	1	1	0	0	0.22508	0.13308	0.2459	0.15339	0.15992	0.2789	0.13492	0.1432	0.087983	0.050596	0.20991	0.17326	0.22238	0.13057	0.097084	0.22242	-2.5625	-2.4646	-2.7646	-3.0979	-2.5792	-3.0479	-2.7354	-2.7542	-2.9542	-2.6292	-2.9062	-2.925	-2.6	-3.075	-2.6146	-2.6292	-20.344	-25.443	120.861	165.198	-15.653	30.435	243.623	90.325	3.910	-70.333	238.246	187.166	-19.150	223.462	84.115	251.167	6.5136e-05	0.00030614	7.0352e-05	1007	1.6836e-06	2.523e-06	1087.1	206.48	4.9121e-07	1.769e-06	260.45	74.69	58.979	17.816	2.4387e-06	24.982	0.00017703	0.0002038	5.2341e-05	985.05	2.8461e-06	2.1137e-06	1072.5	204.98	2.333e-06	2.3203e-06	258.31	75.191	59.228	17.962	2.2651e-06	25.045	226.371	3.437	12.688	-69.430	133.204	67.629	-69.245	-61.458	94.958	77.684	-62.339	-54.789	-54.031	-47.912	86.549	-48.029	-8191	255	
1112.533	1	1	0	0	0.14569	0.28548	0.11278	0.34571	0.1271	0.087892	0.31008	0.044216	0.13969	0.053287	0.12843	0.098195	0.10058	0.36613	0.19344	0.17409	-2.5	-2.4813	-2.7313	-2.9979	-2.6	-3.0146	-2.85	-2.5958	-2.9729	-2.475	-2.9104	-2.9708	-2.4604	-2.9479	-2.7313	-2.5167	215.471	226.940	276.174	229.218	-28.446	-78.540	235.878	265.128	249.196	192.631	-56.116	270.578	-9.800	-17.575	32.475	150.145	6.3649e-05	0.0002765	7.0551e-05	1008.7	1.7917e-06	3.8965e-06	1091.7	206.66	7.095e-07	3.4173e-06	260.72	75.277	59.187	17.767	2.3233e-06	24.783	0.00017851	0.00020763	5.2295e-05	985.48	2.7565e-06	1.9006e-06	1072.8	204.83	2.2011e-06	2.3146e-06	257.82	75.592	59.184	17.926	2.1857e-06	24.992	223.784	14.902	17.884	-69.415	68.051	71.750	-69.136	-61.662	69.092	70.011	-62.051	-54.939	-54.516	-47.763	55.543	-47.896	-8191	255	
1112.630	1	1	0	0	0.044029	0.074395	0.037808	0.21227	0.1881	0.078996	0.089457	0.19647	0.23947	0.081013	0.080337	0.12914	0.23834	0.19973	0.17607	0.10276	-2.3646	-2.5938	-2.6229	-3.0375	-2.3021	-2.8021	-2.8833	-2.6667	-3.0062	-2.6542	-2.5854	-2.8708	-2.6167	-2.8396	-2.725	-2.4875	250.684	143.673	11.243	205.388	262.721	-55.756	270.590	180.755	71.306	168.781	178.384	219.927	-28.588	-76.888	147.125	218.542	6.2881e-05	0.00022575	8.7879e-05	1007.1	2.0816e-06	3.3064e-06	1092	207.4	1.3245e-06	2.6809e-06	260.69	74.929	59.18	17.841	1.5506e-06	24.845	0.00017539	0.0002008	5.9736e-05	985.53	2.7297e-06	2.1071e-06	1072	205.51	2.4138e-06	2.1877e-06	258.59	75.491	59.232	17.913	2.2335e-06	25.022	230.920	14.777	13.091	-69.415	84.221	78.166	-69.063	-61.385	90.008	76.617	-62.487	-54.827	-54.503	-47.289	83.075	-48.144	-8191	255	
1112.701	1	1	0	0	0.09885	0.48372	0.22328	0.24601	0.1667	0.18171	0.15238	0.084921	0.025766	0.030102	0.13594	0.26051	0.19113	0.13146	0.22137	0.19126	-2.5708	-2.5708	-2.7271	-2.8563	-2.5625	-2.8438	-2.9021	-2.5729	-2.8312	-2.6604	-2.7479	-2.9354	-2.5917	-2.7604	-2.8229	-2.5417	169.933	40.760	-5.509	151.760	185.292	-70.187	178.511	212.628	27.254	-47.149	211.036	267.801	147.170	231.119	-64.141	221.292	5.9086e-05	0.00033959	8.4104e-05	1003.6	2.1556e-06	2.4443e-06	1093.9	206.98	9.0886e-07	2.5348e-06	261.34	75.516	58.769	17.79	1.3462e-06	24.921	0.00017459	0.00021145	5.8769e-05	983.5	2.6722e-06	2.34e-06	1072.9	205.21	2.4066e-06	2.1971e-06	258.85	75.525	59.208	17.957	1.9961e-06	25.021	222.850	8.010	11.802	-69.373	120.832	61.959	-69.116	-61.527	58.915	50.691	-62.183	-54.925	-54.246	-47.326	110.496	-47.853	-8191	255	
1112.822	1	1	0	0	0.29784	0.23306	0.30178	0.2261	0.29995	0.4553	0.19001	0.20227	0.070578	0.15849	0.13993	0.25438	0.16539	0.23581	0.23168	0.17755	-2.3792	-2.5771	-2.625	-2.8604	-2.5021	-2.5438	-3.1271	-2.5	-2.8271	-2.8125	-2.7458	-3.0312	-2.7	-2.7771	-2.9604	-2.8979	22.284	190.545	86.229	-76.891	44.223	222.763	194.552	205.207	65.317	228.754	-24.382	61.893	271.609	280.364	206.717	257.885	6.013e-05	0.00031383	7.5491e-05	1003.8	1.1743e-06	2.3089e-06	1088.1	207.03	1.1158e-06	3.1684e-06	261.28	75.126	58.806	17.87	2.0223e-06	24.842	0.0001691	0.00020754	5.7663e-05	984.3	2.5721e-06	2.1809e-06	1071.8	205.35	2.3784e-06	2.1412e-06	258.63	75.513	59.212	17.966	2.1671e-06	25.115	223.434	11.354	9.547	-69.379	70.770	76.921	-69.134	-61.592	77.031	63.334	-62.228	-54.872	-54.359	-47.351	114.755	-48.019	-8191	255	
1112.918	1	1	0	0	0.05109	0.074405	0.064111	0.19695	0.12316	0.26595	0.11925	0.12532	0.14916	0.050159	0.064446	0.31844	0.17143	0.18732	0.10037	0.09594	-2.6229	-2.6021	-2.3896	-3.0812	-2.5875	-2.6167	-2.8146	-2.5854	-2.9708	-2.8563	-2.5187	-3.1562	-2.7	-2.7458	-2.9042	-2.4813	-28.920	-36.908	233.989	169.139	196.500	27.158	278.234	158.097	261.766	280.050	47.949	191.285	94.912	57.701	57.202	79.472	5.1792e-05	0.00027703	5.8052e-05	1004.8	1.6023e-06	2.6555e-06	1088.6	206.69	9.8247e-07	1.8749e-06	262.56	74.892	59.232	17.865	1.5624e-06	25.067	0.00017388	0.00020112	5.7893e-05	982.88	2.6147e-06	2.3343e-06	1070.7	205.12	2.3525e-06	1.8987e-06	258.5	75.833	59.429	18.01	2.0666e-06	25.086	231.860	4.392	19.834	-69.098	80.685	67.304	-69.251	-61.624	88.257	74.228	-62.152	-54.836	-54.133	-47.676	77.704	-47.941	-8191	255	
1113.014	1	1	0	0	0.11962	0.11029	0.10958	0.11675	0.22059	0.13374	0.21019	0.095645	0.12657	0.18378	0.15412	0.27652	0.091358	0.16781	0.24596	0.15464	-2.3563	-2.7354	-2.3917	-2.9583	-2.7979	-2.575	-3.0812	-2.5125	-2.6937	-2.9792	-2.6146	-3.1833	-2.7188	-2.7083	-3.1479	-2.5979	230.660	44.388	203.726	-59.541	225.776	-32.415	-58.878	-31.919	237.178	143.230	239.842	-2.229	-38.808	226.481	-9.948	53.239	5.7841e-05	0.00023932	5.9367e-05	1006.2	2.14e-06	1.542e-06	1089.1	206.23	8.904e-07	3.2947e-06	260.84	75.161	59.247	18.005	2.1849e-06	25.024	0.00017022	0.00018486	5.688e-05	984.53	2.7334e-06	2.2179e-06	1070.8	204.98	2.4455e-06	2.0853e-06	258.21	75.932	59.281	18.06	1.8623e-06	25.104	226.467	-13.239	20.091	-69.367	74.642	68.579	-69.061	-61.683	89.429	53.572	-62.043	-54.812	-54.426	-47.453	90.218	-48.074	-8191	255	
1113.110	1	1	0	0	0.069637	0.22181	0.21565	0.031838	0.071597	0.17281	0.16244	0.19688	0.15966	0.10224	0.15948	0.29679	0.12986	0.14292	0.20509	0.2104	-2.3563	-3.0104	-2.5375	-3.0146	-2.7292	-2.6854	-3	-2.575	-2.8667	-2.875	-2.5187	-3	-2.8688	-2.6	-2.8771	-2.8438	195.483	90.046	80.237	256.566	188.210	257.187	261.388	75.775	226.239	124.655	224.732	237.341	-0.933	238.089	-31.713	231.693	6.5431e-05	0.00036856	8.3885e-05	1003	1.1574e-06	2.9929e-06	1091.8	206.83	1.0014e-06	2.8075e-06	261.4	74.977	58.874	17.847	2.117e-06	24.931	0.00017536	0.00018974	5.6511e-05	983.09	2.6251e-06	2.1648e-06	1070.2	204.99	2.4354e-06	2.0001e-06	258.24	75.589	59.175	18.037	2.0495e-06	25.083	218.543	3.714	22.243	-69.395	42.912	85.885	-69.087	-61.667	78.847	73.317	-62.476	-54.770	-54.502	-47.567	83.745	-48.557	-8191	255	
1113.231	1	1	0	0	0.01869	0.28044	0.14729	0.27716	0.2546	0.07852	0.1686	0.3172	0.052477	0.16299	0.049805	0.091777	0.070343	0.1666	0.35332	0.33764	-2.2521	-2.8729	-2.4688	-2.85	-2.8854	-2.5458	-2.9875	-2.9188	-2.5646	-2.9208	-2.5583	-2.9292	-3.0062	-2.5312	-2.9854	-2.8396	215.490	189.052	274.711	238.389	-0.681	62.285	221.979	219.357	215.947	148.484	-26.004	-67.734	261.067	181.242	140.757	235.630	5.3811e-05	0.0002792	7.4511e-05	1002.6	1.3308e-06	2.5963e-06	1088.6	207.03	1.3073e-06	2.6063e-06	261.08	75.286	59.432	18.086	1.7408e-06	25.115	0.00017079	0.00018186	5.6949e-05	982.67	2.316e-06	2.1743e-06	1070	205.26	2.3907e-06	1.8191e-06	258.43	75.76	59.485	18.135	1.9612e-06	25.141	212.708	10.562	10.931	-69.411	91.840	83.801	-69.207	-61.619	63.221	71.767	-62.198	-54.622	-54.499	-47.507	71.220	-48.105	-8191	255	
1113.303	1	1	0	0	0.14541	0.23446	0.17842	0.19242	0.29728	0.15437	0.17519	0.11371	0.16469	0.077028	0.10561	0.094551	0.25668	0.22057	0.25697	0.055469	-2.2417	-2.9688	-2.6021	-3.0104	-2.8896	-2.3375	-3.2146	-2.7812	-2.5104	-3.1188	-2.9	-2.7458	-3.0417	-2.4021	-2.8271	-2.8646	273.588	119.065	28.825	271.632	15.526	-36.469	277.571	-70.348	156.273	7.336	224.825	235.137	207.856	200.848	134.321	228.468	5.317e-05	0.00025531	5.1682e-05	1005.7	2.6969e-06	3.1907e-06	1092.1	206.74	7.6912e-07	2.3219e-06	259.96	75.178	59.114	18.014	1.9167e-06	24.776	0.00017438	0.00017478	5.1811e-05	983.28	2.4064e-06	2.1156e-06	1072.8	205.57	2.4577e-06	2.0143e-06	257.78	75.84	59.55	18.118	2.0131e-06	25.097	228.905	14.314	-7.299	-69.208	83.770	50.887	-69.190	-61.571	68.524	80.698	-62.556	-54.886	-54.229	-47.350	110.400	-48.409	-8191	255	
1113.399	1	1	0	0	0.27347	0.17157	0.17826	0.19664	0.087073	0.05656	0.25377	0.015458	0.095584	0.066023	0.1009	0.063683	0.097012	0.084917	0.027297	0.064305	-2.1312	-2.8354	-2.5875	-2.7792	-2.9688	-2.6917	-3.0042	-2.7729	-2.8583	-2.8792	-2.5167	-2.8187	-2.9875	-2.5417	-2.7542	-2.7333	98.466	276.149	233.384	207.979	119.687	53.252	-75.158	27.008	276.874	116.315	208.783	196.818	-2.834	113.707	79.612	-19.490	5.6398e-05	0.00028643	9.5077e-05	1004.3	1.6421e-06	2.7498e-06	1091.4	206.2	1.8734e-06	2.6295e-06	260.59	75.479	59.539	18.037	2.2073e-06	24.894	0.00017251	0.00017852	5.3747e-05	984.36	2.3041e-06	2.0891e-06	1072.7	205.39	2.4974e-06	1.7528e-06	258.45	76.112	59.465	18.158	2.1047e-06	25.102	221.739	3.137	10.821	-69.041	93.472	78.721	-69.098	-61.728	89.518	59.504	-62.297	-55.006	-54.508	-47.381	94.519	-47.791	-8191	255	
1113.495	1	1	0	0	0.20008	0.030687	0.11784	0.30519	0.11981	0.28723	0.1108	0.030407	0.24602	0.20848	0.10814	0.22065	0.10855	0.24711	0.17614	0.14089	-2.1688	-2.9271	-2.5812	-2.7771	-2.9042	-2.6417	-3.1312	-3.0542	-2.5708	-3.0146	-2.8771	-2.6937	-2.8646	-2.475	-2.9	-2.9542	30.845	-9.108	217.828	252.620	106.663	61.753	-60.908	118.594	127.935	139.025	208.677	-57.196	241.340	10.615	62.747	275.551	6.5574e-05	0.00025883	8.9067e-05	1004	2.1802e-06	2.6221e-06	1094.5	206.84	6.802e-07	2.8086e-06	261.61	75.666	59.318	18.156	1.7292e-06	24.896	0.00017322	0.000186	5.1581e-05	984.44	2.5004e-06	2.323e-06	1070.6	205.5	2.3907e-06	1.8835e-06	258.55	76.009	59.485	18.179	2.0649e-06	25.14	221.193	8.265	31.843	-69.224	91.460	70.569	-69.114	-61.407	49.175	64.023	-62.282	-54.977	-54.482	-47.556	65.274	-47.859	-8191	255	
1113.614	1	1	0	0	0.16012	0.18212	0.13617	0.22328	0.074341	0.24203	0.19749	0.015342	0.15606	0.14822	0.048919	0.21554	0.2645	0.12828	0.26161	0.2991	-2.0708	-2.7146	-2.5479	-2.8604	-3.0375	-2.6417	-2.9625	-2.8417	-2.4688	-2.8833	-2.7687	-2.4208	-2.8125	-2.5187	-2.5833	-3.0833	101.064	-76.320	188.473	212.207	124.445	-70.241	110.105	14.799	19.495	10.968	-64.114	181.668	-78.258	132.486	217.247	-31.919	6.8228e-05	0.00025814	7.1647e-05	1000.7	1.6708e-06	2.7084e-06	1090.2	206.85	7.1295e-07	2.1234e-06	262.16	75.535	59.367	17.961	2.2781e-06	24.768	0.00017504	0.00016739	5.1305e-05	983.17	2.1869e-06	2.1506e-06	1070.3	205.33	2.3575e-06	1.9271e-06	258.8	75.976	59.564	18.117	2.3129e-06	25.16	232.549	4.578	14.482	-69.398	90.217	85.012	-68.953	-61.428	56.858	90.885	-62.208	-54.653	-54.145	-47.950	76.114	-47.789	-8191	255	
1113.710	1	1	0	0	0.30961	0.19211	0.20837	0.21644	0.084742	0.18259	0.21891	0.20722	0.17876	0.13648	0.19727	0.081746	0.21136	0.36864	0.10341	0.046844	-2.0854	-3.0083	-2.75	-2.6	-2.8563	-2.875	-2.9979	-2.9854	-2.5312	-2.8563	-2.9271	-2.5604	-3.025	-2.6521	-2.65	-2.9667	42.161	6.695	95.568	243.021	135.586	138.344	250.100	276.191	-8.700	-51.433	-74.240	-25.265	110.177	-23.703	-29.215	142.318	7.3311e-05	0.00025281	7.7791e-05	1004.1	2.1223e-06	3.4416e-06	1094	207.29	9.0373e-07	2.9693e-06	261.65	75.537	59.822	18.053	2.6294e-06	25.052	0.00017293	0.00019624	5.5544e-05	984	2.2891e-06	2.0559e-06	1073.6	205.72	2.4029e-06	1.9129e-06	258.8	76.166	59.581	18.168	2.1865e-06	25.198	219.440	13.544	8.874	-69.474	77.487	60.574	-68.966	-61.430	56.806	87.999	-62.565	-54.832	-54.356	-47.646	98.429	-47.982	-8191	255	
1113.806	1	1	0	0	0.27614	0.14756	0.41435	0.30542	0.11329	0.020148	0.038798	0.2073	0.12792	0.1014	0.10073	0.019233	0.0902	0.14553	0.14092	0.042898	-2.1458	-2.7646	-2.7104	-2.5167	-2.8625	-2.7229	-2.5917	-3.1271	-2.4875	-2.7771	-2.7979	-2.575	-3.0604	-2.8354	-2.6417	-2.9771	91.294	3.658	85.521	219.974	162.535	-15.557	229.333	211.912	166.939	215.108	113.853	268.043	253.240	237.755	255.336	-2.588	5.1687e-05	0.00030663	8.2867e-05	1004	1.759e-06	3.2548e-06	1093.4	207.82	1.1449e-06	2.4508e-06	260.7	75.864	59.52	17.885	2.8372e-06	24.9	0.00017548	0.00018608	5.3078e-05	985.11	2.3534e-06	2.1052e-06	1072.1	205.63	2.4931e-06	1.8456e-06	258.67	76.107	59.594	18.125	2.0844e-06	25.125	209.159	5.909	4.628	-69.216	106.270	70.105	-69.076	-61.638	77.726	81.995	-62.394	-55.023	-54.569	-47.612	94.587	-48.205	-8191	255	
1113.902	1	1	0	0	0.24038	0.22048	0.22224	0.14107	0.37838	0.19178	0.15397	0.047499	0.22112	0.17427	0.17472	0.18336	0.11724	0.10369	0.09865	0.044057	-2.0979	-2.8208	-2.8958	-2.5229	-2.7812	-2.9	-2.7646	-3.0771	-2.6125	-2.7354	-3.1188	-2.3646	-2.7667	-2.8042	-2.65	-3	-10.425	269.231	159.035	113.356	135.347	-55.513	205.337	209.728	131.257	-1.202	136.073	195.945	244.238	106.416	69.480	82.107	6.1114e-05	0.0002369	6.526e-05	1008.2	1.0649e-06	3.2045e-06	1090.1	206.41	7.9815e-07	3.2038e-06	261.59	75.537	59.405	18.094	2.3551e-06	25.002	0.00017774	0.00018389	4.9208e-05	985.17	2.3795e-06	2.1251e-06	1071.8	205.32	2.3258e-06	2.0342e-06	258.4	75.943	59.603	18.168	2.1816e-06	25.16	223.386	17.279	29.381	-69.303	79.440	69.433	-69.014	-61.604	27.488	82.169	-62.162	-54.963	-54.641	-47.448	93.737	-48.206	-8191	255	
1113.998	1	1	0	0	0.22118	0.28187	0.14185	0.17285	0.13906	0.28698	0.097021	0.14241	0.11479	0.22685	0.10124	0.43178	0.10409	0.26709	0.1723	0.056907	-2.0646	-2.6042	-2.8479	-2.6875	-2.8396	-2.6688	-2.6583	-2.9896	-2.6667	-2.7396	-3.0354	-2.6479	-2.8896	-2.8083	-2.5125	-2.9188	21.023	4.981	-20.484	15.135	8.048	111.917	-77.099	225.070	-77.454	270.354	235.887	203.682	165.418	-13.485	-28.792	101.293	6.7468e-05	0.00025499	9.7014e-05	1005.4	1.4696e-06	2.4578e-06	1090.1	206.66	1.2767e-06	2.3554e-06	261.34	75.906	59.413	18.069	1.5023e-06	24.923	0.00016431	0.0001721	5.324e-05	983.58	2.4415e-06	1.8144e-06	1071.9	205.06	2.3972e-06	1.9148e-06	258.78	76.136	59.584	18.143	2.1898e-06	25.15	237.392	10.375	8.429	-69.299	101.974	112.538	-69.012	-61.376	86.952	59.059	-62.132	-54.733	-54.717	-47.554	111.305	-48.102	-8191	255	
1114.095	1	1	0	0	0.13285	0.18277	0.1138	0.19199	0.1368	0.28511	0.25184	0.25722	0.11212	0.077459	0.19849	0.21911	0.18552	0.24524	0.091101	0.30972	-2.2208	-2.6146	-2.95	-2.7979	-2.9625	-2.9813	-2.525	-2.7708	-2.9625	-2.6063	-3.0458	-2.7938	-2.6292	-2.9396	-2.4792	-3.125	174.488	42.087	217.681	193.387	105.175	153.347	254.292	227.917	-42.329	95.663	252.827	23.306	-75.296	248.414	-17.827	251.123	5.9685e-05	0.00033096	7.9097e-05	1004.2	1.2082e-06	2.8335e-06	1087.9	207.12	1.3007e-06	2.5228e-06	260.77	75.608	58.963	18.09	1.8545e-06	25.104	0.0001658	0.00017747	4.6006e-05	984.34	2.2996e-06	1.9196e-06	1071.2	205.29	2.0814e-06	2.1611e-06	258.19	75.995	59.383	18.142	2.1638e-06	25.222	218.304	-7.828	24.861	-69.220	93.733	89.850	-68.948	-61.567	92.265	74.919	-62.293	-54.945	-54.552	-47.193	87.838	-48.220	-8191	255	
1114.215	1	1	0	0	0.047863	0.1213	0.24473	0.40513	0.10376	0.26022	0.20464	0.18514	0.2533	0.24913	0.23747	0.23067	0.4593	0.06584	0.25744	0.080038	-2.2438	-2.575	-3.0208	-2.8875	-2.5917	-3.1125	-2.7188	-2.8354	-2.8021	-2.575	-3.0729	-2.5458	-2.7188	-2.9396	-2.5938	-2.9021	86.417	56.358	57.817	274.484	35.587	129.815	149.271	196.304	-7.919	145.283	232.078	233.358	258.387	142.739	-27.092	252.722	5.7672e-05	0.00023505	8.924e-05	1008.1	1.7322e-06	3.2455e-06	1090.3	207.32	6.6101e-07	3.2296e-06	260.69	75.541	59.096	17.988	2.063e-06	24.953	0.00016996	0.00019259	4.6743e-05	983.93	2.3952e-06	1.9555e-06	1070.9	205.38	2.2624e-06	1.965e-06	258.11	76.005	59.508	18.156	2.2254e-06	25.172	235.922	8.523	16.066	-69.299	66.620	83.623	-69.186	-61.668	44.655	60.942	-62.264	-54.681	-54.346	-47.488	70.923	-48.063	-8191	255	
1114.311	1	1	0	0	0.22111	0.071978	0.21096	0.17711	0.13882	0.048772	0.29531	0.35365	0.051895	0.18692	0.074217	0.25775	0.21378	0.20935	0.18146	0.31793	-2.2625	-2.5375	-3.1188	-2.8937	-2.5979	-2.9188	-2.8146	-2.9375	-2.8708	-2.5896	-2.9125	-2.7958	-2.45	-3.0687	-2.5667	-2.8792	193.697	274.861	-4.494	183.574	-8.360	202.827	229.832	256.329	54.105	-64.700	278.991	-64.278	198.446	253.348	250.989	181.712	5.7195e-05	0.00030464	7.027e-05	1005.2	1.3838e-06	3.2046e-06	1093.5	208.01	1.0069e-06	1.9087e-06	261.72	75.332	59.521	18.033	2.9594e-06	25.083	0.00016589	0.00020527	4.5983e-05	984.05	2.5445e-06	1.8476e-06	1072.2	205.43	2.2753e-06	2.1109e-06	258.65	75.913	59.611	18.156	2.1727e-06	25.187	224.659	-0.569	11.573	-69.136	78.519	70.834	-69.208	-61.373	105.641	71.125	-62.155	-54.950	-54.286	-47.408	100.632	-48.152	-8191	255	
1114.406	1	1	0	0	0.039471	0.058763	0.050688	0.092486	0.076056	0.051003	0.058179	0.083015	0.1542	0.10101	0.07852	0.1154	0.13189	0.13988	0.3168	0.091814	-2.375	-2.4833	-2.7938	-2.8208	-2.4333	-2.95	-2.6604	-2.6521	-2.9688	-2.5708	-2.8729	-2.7687	-2.5542	-3.1333	-2.5854	-2.7479	32.569	215.492	-26.786	253.811	269.484	65.708	-48.307	43.889	74.347	-63.357	-37.340	249.367	141.930	237.354	-33.874	-4.732	6.2334e-05	0.00021437	0.00012119	1009.6	1.0069e-06	2.9308e-06	1090.8	207.69	1.2317e-06	2.43e-06	261.16	75.085	59.469	18.078	2.5129e-06	25.021	0.00016012	0.00020624	5.3102e-05	984.71	2.6162e-06	1.84e-06	1071.3	205.72	2.364e-06	2.0863e-06	258.42	75.904	59.604	18.16	2.1063e-06	25.196	223.795	6.874	25.052	-69.258	110.955	47.651	-69.122	-61.748	71.793	75.916	-62.069	-54.953	-54.213	-47.717	88.472	-48.100	-8191	255	
1114.502	1	1	0	0	0.2013	0.12768	0.1081	0.27297	0.21488	0.247	0.14239	0.26071	0.17205	0.13936	0.062744	0.12604	0.15359	0.10862	0.22255	0.22475	-2.6437	-2.425	-2.5542	-2.9521	-2.4979	-2.9708	-2.9729	-2.5729	-3.2583	-2.5542	-2.975	-3.0708	-2.4417	-2.9313	-2.7021	-2.6417	239.571	138.954	156.831	-62.678	271.247	233.636	-58.661	143.649	127.445	138.185	178.544	254.771	215.076	208.582	-54.210	254.025	6.5947e-05	0.00025687	8.1863e-05	1008.4	1.5934e-06	2.7933e-06	1091.8	207.32	5.6333e-07	2.3815e-06	261.72	75.62	58.82	18.071	1.6493e-06	25.15	0.00016708	0.00019511	5.0222e-05	985.38	2.4967e-06	1.8542e-06	1070.5	205.56	2.0857e-06	2.0417e-06	258.81	76.148	59.443	18.223	2.0925e-06	25.202	214.213	14.078	15.885	-69.319	85.702	72.737	-69.101	-61.412	85.172	88.988	-62.163	-55.078	-54.496	-47.590	83.177	-47.846	-8191	255	
1114.598	1	1	0	0	0.17892	0.15817	0.18386	0.24337	0.049324	0.11554	0.20618	0.081745	0.087096	0.16477	0.25905	0.13818	0.21978	0.099033	0.13772	0.13466	-2.5083	-2.4	-2.7354	-2.9313	-2.5187	-2.7229	-2.7812	-2.7	-3.0583	-2.6104	-3.0187	-2.9	-2.6104	-2.7917	-2.9437	-2.6458	207.831	198.002	-2.352	-57.434	165.848	30.713	248.088	127.430	157.319	39.950	231.364	236.488	254.498	275.665	84.207	108.452	5.9769e-05	0.00027474	8.1316e-05	1004.5	1.7694e-06	2.9623e-06	1096.4	207.98	7.1851e-07	3.0748e-06	261.5	75.647	59.26	18.028	1.7967e-06	24.989	0.00016734	0.00018812	5.1927e-05	984.45	2.4848e-06	1.9366e-06	1073.2	205.47	2.2436e-06	2.1554e-06	258.08	76.053	59.554	18.167	2.009e-06	25.213	223.148	6.729	20.218	-69.158	90.817	67.248	-69.068	-61.606	106.805	82.603	-62.432	-54.757	-54.590	-47.505	112.858	-48.502	-8191	255	
#DATA ENDS
