BOXY.EXE: ISS Imagent and Oximeter Data Acquisition Program Version 0.80
Ascii Record File

#ACQ INFORMATION
2  Detector Channels 
16  External MUX Channels 
1  Auxiliary Channels 
5000  Waveform (CCF) Frequency (Hz)
1  Waveforms Skipped 
30  Waveforms Averaged 
1  Cycles Averaged 
16  Acquisitions per Waveform 
10.0806  Updata Rate (Hz) 

#FILE INFORMATION
TRUE -- External MUX Channel results are PARSED.
FALSE -- AC DC and Phase are NOT grouped.
TRUE -- Companion Program Settings File CREATED.
FALSE -- AC data not excluded
FALSE -- DC data not excluded
FALSE -- Phase data not excluded
FALSE -- Auxillary Chn. data not excluded
Tab delimiters

#CALIBRATION STATE
TRUE -- Waveform Calibration Values APPLIED.


#AUX CALIBRATION VALUES
Val Type	aux-1	

Term	1.0000e+00	
Factor	0.0000e+00	


#WF CALIBRATION VALUES
A = Detector Channel
Val Type	A-AC1	A-AC2	A-AC3	A-AC4	A-AC5	A-AC6	A-AC7	A-AC8	A-AC9	A-AC10	A-AC11	A-AC12	A-AC13	A-AC14	A-AC15	A-AC16	A-DC1	A-DC2	A-DC3	A-DC4	A-DC5	A-DC6	A-DC7	A-DC8	A-DC9	A-DC10	A-DC11	A-DC12	A-DC13	A-DC14	A-DC15	A-DC16	A-Ph1	A-Ph2	A-Ph3	A-Ph4	A-Ph5	A-Ph6	A-Ph7	A-Ph8	A-Ph9	A-Ph10	A-Ph11	A-Ph12	A-Ph13	A-Ph14	A-Ph15	A-Ph16	

Term	0.00000e+00	0.00000e+00	0.00000e+00	0.00000e+00	0.00000e+00	0.00000e+00	0.00000e+00	0.00000e+00	0.00000e+00	0.00000e+00	0.00000e+00	0.00000e+00	0.00000e+00	0.00000e+00	0.00000e+00	0.00000e+00	0.00000e+00	0.00000e+00	0.00000e+00	0.00000e+00	0.00000e+00	0.00000e+00	0.00000e+00	0.00000e+00	0.00000e+00	0.00000e+00	0.00000e+00	0.00000e+00	0.00000e+00	0.00000e+00	0.00000e+00	0.00000e+00	0.00000e+00	0.00000e+00	0.00000e+00	0.00000e+00	0.00000e+00	0.00000e+00	0.00000e+00	0.00000e+00	0.00000e+00	0.00000e+00	0.00000e+00	0.00000e+00	0.00000e+00	0.00000e+00	0.00000e+00	0.00000e+00	
Factor	1.00000e+00	1.00000e+00	1.00000e+00	1.00000e+00	1.00000e+00	1.00000e+00	1.00000e+00	1.00000e+00	1.00000e+00	1.00000e+00	1.00000e+00	1.00000e+00	1.00000e+00	1.00000e+00	1.00000e+00	1.00000e+00	1.00000e+00	1.00000e+00	1.00000e+00	1.00000e+00	1.00000e+00	1.00000e+00	1.00000e+00	1.00000e+00	1.00000e+00	1.00000e+00	1.00000e+00	1.00000e+00	1.00000e+00	1.00000e+00	1.00000e+00	1.00000e+00	X	X	X	X	X	X	X	X	X	X	X	X	X	X	X	X	

B = Detector Channel
Val Type	B-AC1	B-AC2	B-AC3	B-AC4	B-AC5	B-AC6	B-AC7	B-AC8	B-AC9	B-AC10	B-AC11	B-AC12	B-AC13	B-AC14	B-AC15	B-AC16	B-DC1	B-DC2	B-DC3	B-DC4	B-DC5	B-DC6	B-DC7	B-DC8	B-DC9	B-DC10	B-DC11	B-DC12	B-DC13	B-DC14	B-DC15	B-DC16	B-Ph1	B-Ph2	B-Ph3	B-Ph4	B-Ph5	B-Ph6	B-Ph7	B-Ph8	B-Ph9	B-Ph10	B-Ph11	B-Ph12	B-Ph13	B-Ph14	B-Ph15	B-Ph16	

Term	0.00000e+00	0.00000e+00	0.00000e+00	0.00000e+00	0.00000e+00	0.00000e+00	0.00000e+00	0.00000e+00	0.00000e+00	0.00000e+00	0.00000e+00	0.00000e+00	0.00000e+00	0.00000e+00	0.00000e+00	0.00000e+00	0.00000e+00	0.00000e+00	0.00000e+00	0.00000e+00	0.00000e+00	0.00000e+00	0.00000e+00	0.00000e+00	0.00000e+00	0.00000e+00	0.00000e+00	0.00000e+00	0.00000e+00	0.00000e+00	0.00000e+00	0.00000e+00	-7.31199e+01	-1.32799e+02	-1.26468e+02	-1.82714e+02	-5.26673e+01	-6.72776e+01	-1.58600e+02	-1.62015e+02	-4.81301e+01	-6.81745e+01	-1.74789e+02	-1.71091e+02	-1.81647e+02	-1.76664e+02	-5.28905e+01	-1.49745e+02	
Factor	1.45622e-05	1.40397e-04	4.03230e-05	1.48927e-01	1.29784e-06	1.50963e-06	1.69133e-01	4.23035e-02	9.54360e-07	1.51249e-06	7.52042e-02	2.43297e-02	1.97584e-02	7.93508e-03	1.28624e-06	1.14015e-02	1.42596e-05	3.90213e-05	1.10580e-05	7.54603e-02	3.58379e-07	4.54558e-07	8.02644e-02	2.15652e-02	3.46059e-07	4.54774e-07	3.70643e-02	1.20591e-02	1.01503e-02	4.07504e-03	3.89001e-07	5.66024e-03	X	X	X	X	X	X	X	X	X	X	X	X	X	X	X	X	



#DISTANCE SETTINGS
A = Detector Channel
A-1	A-2	A-3	A-4	A-5	A-6	A-7	A-8	A-9	A-10	A-11	A-12	A-13	A-14	A-15	A-16	

2.5000e+00	3.0000e+00	2.5000e+00	3.0000e+00	2.0000e+00	3.0000e+00	1.5000e+00	3.0000e+00	3.0000e+00	3.0000e+00	3.0000e+00	3.0000e+00	3.0000e+00	3.0000e+00	1.5000e+00	3.0000e+00	

B = Detector Channel
B-1	B-2	B-3	B-4	B-5	B-6	B-7	B-8	B-9	B-10	B-11	B-12	B-13	B-14	B-15	B-16	

1.0000e+01	1.0000e+01	1.0000e+01	1.4400e+00	1.0000e+01	1.0000e+01	1.5100e+00	1.9400e+00	1.0000e+01	1.0000e+01	1.9900e+00	2.4900e+00	2.4100e+00	2.9000e+00	1.0000e+01	2.9800e+00	




#DATA BEGINS
time	group	step	mark	flag	A-AC1	A-AC2	A-AC3	A-AC4	A-AC5	A-AC6	A-AC7	A-AC8	A-AC9	A-AC10	A-AC11	A-AC12	A-AC13	A-AC14	A-AC15	A-AC16	A-DC1	A-DC2	A-DC3	A-DC4	A-DC5	A-DC6	A-DC7	A-DC8	A-DC9	A-DC10	A-DC11	A-DC12	A-DC13	A-DC14	A-DC15	A-DC16	A-Ph1	A-Ph2	A-Ph3	A-Ph4	A-Ph5	A-Ph6	A-Ph7	A-Ph8	A-Ph9	A-Ph10	A-Ph11	A-Ph12	A-Ph13	A-Ph14	A-Ph15	A-Ph16	B-AC1	B-AC2	B-AC3	B-AC4	B-AC5	B-AC6	B-AC7	B-AC8	B-AC9	B-AC10	B-AC11	B-AC12	B-AC13	B-AC14	B-AC15	B-AC16	B-DC1	B-DC2	B-DC3	B-DC4	B-DC5	B-DC6	B-DC7	B-DC8	B-DC9	B-DC10	B-DC11	B-DC12	B-DC13	B-DC14	B-DC15	B-DC16	B-Ph1	B-Ph2	B-Ph3	B-Ph4	B-Ph5	B-Ph6	B-Ph7	B-Ph8	B-Ph9	B-Ph10	B-Ph11	B-Ph12	B-Ph13	B-Ph14	B-Ph15	B-Ph16	aux-1	digaux	

1046.022	1	1	0	256	0.31285	0.019023	0.14676	0.21629	0.11907	0.14307	0.30502	0.086297	0.18948	0.10798	0.13176	0.032993	0.18031	0.073775	0.21235	0.14789	-2.4938	-3.2438	-2.7625	-3.2188	-3.3063	-2.7979	-3.2958	-3.1646	-2.7958	-3.2979	-2.9917	-2.9146	-3.0854	-2.9146	-3.1771	-3.1729	20.912	149.777	160.268	147.405	87.075	190.625	141.178	-59.409	-37.158	38.428	-24.503	124.840	179.232	-139.924	39.734	74.659	0.00021399	0.00030766	8.8446e-05	1031.7	2.9813e-06	2.36e-06	1116.4	212.03	2.1302e-06	2.7678e-06	267.63	77.949	61.819	18.676	2.1013e-06	25.849	0.00020742	0.00012584	4.6766e-05	1012.8	2.0517e-06	1.412e-06	1100.8	210.58	2.142e-06	1.2933e-06	265.58	78.264	61.728	18.827	1.4782e-06	26.044	-102.796	-75.132	-74.556	-158.389	-15.607	-10.318	-158.728	-150.975	-27.750	-11.129	-151.496	-144.772	-144.379	-136.647	-14.851	-138.041	-8191	255	
1046.094	1	1	0	0	0.21321	0.22667	0.10769	0.052395	0.086102	0.10881	0.036755	0.20193	0.090781	0.13495	0.17237	0.11844	0.12456	0.11112	0.094176	0.1445	-2.45	-3.1312	-2.85	-3.1333	-3.3438	-2.9146	-3.4104	-3.2604	-2.5771	-3.2896	-3.0771	-3.0375	-3.3521	-2.9542	-3.0833	-3.2042	-110.435	121.942	112.802	45.611	-48.443	147.046	81.113	105.311	-93.007	-5.127	-119.680	153.720	115.281	89.802	58.068	-135.348	0.00019974	0.00030408	7.6227e-05	1030.5	2.6919e-06	3.1245e-06	1115.9	212.16	2.1782e-06	2.6357e-06	266.39	78.292	61.47	18.79	2.0428e-06	25.808	0.00020905	0.00012853	3.5823e-05	1014.5	1.9875e-06	1.4849e-06	1101.8	210.23	1.8442e-06	1.28e-06	265.79	78.514	61.797	18.922	1.5738e-06	26.11	-102.386	-79.101	-73.460	-158.579	-21.852	-12.931	-158.596	-151.256	-31.058	-5.772	-151.665	-144.576	-144.372	-136.998	-21.367	-137.463	-8191	255	
1046.190	1	1	0	0	0.14543	0.1123	0.34298	0.19509	0.068042	0.16244	0.43211	0.28621	0.15546	0.080727	0.084825	0.27155	0.24479	0.27416	0.22263	0.076285	-2.4208	-3.0792	-3.0187	-3.0729	-3.3667	-2.7417	-3.3042	-3.2562	-2.8771	-3.1458	-3.0896	-3.0375	-3.2771	-2.8604	-3.2687	-3.2771	-165.112	-43.140	108.476	49.291	-107.897	-123.631	124.940	114.472	-133.331	-30.255	-123.785	-83.051	155.821	118.473	49.241	-33.397	0.00021775	0.00031172	8.1395e-05	1035	3.3293e-06	3.1536e-06	1121	213.2	2.8296e-06	2.3887e-06	268.61	78.335	61.639	18.782	2.2326e-06	25.832	0.00020938	0.00013373	3.8219e-05	1017.4	1.8412e-06	1.4319e-06	1103.8	210.98	2.2011e-06	1.2525e-06	266.68	78.387	61.742	18.886	1.4742e-06	26.113	-100.390	-91.660	-77.823	-158.815	-26.469	-6.879	-158.534	-151.082	-21.031	-29.266	-151.583	-144.871	-144.394	-136.792	-3.533	-137.358	-8191	255	
1046.286	1	1	0	0	0.10618	0.25293	0.10911	0.083075	0.085952	0.11723	0.13472	0.20799	0.1418	0.17127	0.26339	0.28223	0.13262	0.16006	0.0083834	0.10444	-2.4562	-3.2292	-3.1854	-2.9042	-3.2562	-2.9521	-3.2604	-3.3563	-2.8021	-3.1792	-3.2604	-2.9562	-3.3042	-2.8937	-2.9375	-3.3563	82.675	183.500	188.236	115.140	21.205	-27.343	149.005	119.026	-43.587	-51.426	91.841	125.487	29.717	143.647	61.238	92.859	0.00020636	0.00028831	8.4438e-05	1038.5	3.6384e-06	2.5576e-06	1121.2	212.69	2.6502e-06	3.648e-06	266.8	77.999	61.561	18.757	2.5549e-06	25.786	0.00021782	0.00011747	4.0201e-05	1019.7	2.0062e-06	1.3201e-06	1105.1	210.72	2.0374e-06	1.5718e-06	265.72	78.372	61.725	18.881	1.5981e-06	26.079	-98.259	-81.542	-68.055	-158.628	-24.607	-18.937	-158.842	-150.676	-23.849	-19.834	-151.484	-144.543	-144.190	-136.778	-20.053	-137.663	-8191	255	
1046.405	1	1	0	0	0.14663	0.065288	0.073085	0.11377	0.094047	0.11268	0.24167	0.36526	0.24043	0.056682	0.12991	0.15636	0.17098	0.048757	0.2721	0.23575	-2.5875	-3.1208	-3.0729	-2.775	-3.1854	-3.0563	-3.0687	-3.4896	-2.8812	-3.1667	-3.4833	-2.9062	-3.3979	-3.0271	-2.9479	-3.5146	-107.214	-109.072	-167.187	164.854	-122.440	21.277	125.191	132.152	159.025	89.067	146.778	-17.162	161.010	9.930	-8.121	18.116	0.00020497	0.00036711	9.4191e-05	1037.4	1.8221e-06	3.1058e-06	1119.5	212.22	1.9747e-06	3.1863e-06	267.36	78.129	61.724	18.705	2.7608e-06	25.679	0.0002059	0.00012796	3.7137e-05	1017.8	1.8352e-06	1.3779e-06	1105.4	210.27	1.8976e-06	1.2383e-06	265.31	78.355	61.578	18.838	1.5965e-06	26.033	-101.952	-89.228	-67.869	-158.600	-16.686	-20.954	-158.418	-151.075	-35.884	-27.783	-151.503	-144.429	-143.726	-136.795	-12.276	-137.170	-8191	255	
1046.501	1	1	0	0	0.21042	0.15092	0.12108	0.13531	0.076678	0.11798	0.1748	0.33915	0.12729	0.22227	0.036399	0.14187	0.17644	0.11687	0.17388	0.12791	-2.5104	-3.0208	-3.2812	-2.8417	-3.2438	-3.0292	-2.9583	-3.3438	-2.7979	-3.1229	-3.1604	-2.7708	-3.225	-3.1417	-2.7667	-3.4333	-58.066	-158.639	-75.937	135.721	65.365	-61.436	94.626	132.381	-62.608	-39.910	25.003	-117.413	184.871	-154.818	-132.149	-153.107	0.00021224	0.00027034	6.3471e-05	1030.2	2.4347e-06	2.8957e-06	1115.2	212.87	2.6031e-06	3.0365e-06	267.68	77.772	61.319	18.715	2.313e-06	25.837	0.00021232	0.00013576	3.322e-05	1012.8	1.8397e-06	1.2169e-06	1100.4	210.47	2.1038e-06	1.2933e-06	265.5	78.015	61.55	18.815	1.6152e-06	26.071	-102.018	-76.151	-76.627	-158.655	-33.237	-17.286	-158.643	-150.957	-29.453	-16.346	-151.777	-144.684	-144.229	-136.947	-0.458	-137.442	-8191	255	
1046.597	1	1	0	0	0.13402	0.12345	0.18144	0.12461	0.14678	0.29098	0.1972	0.17496	0.060082	0.13145	0.27806	0.30444	0.29664	0.10004	0.17169	0.11784	-2.4896	-3.1021	-3.175	-2.9542	-2.9729	-3.2208	-2.9729	-3.2271	-2.9562	-3.125	-3.2188	-2.8146	-2.9938	-3.0938	-2.8583	-3.1167	-154.255	19.988	-28.589	-72.966	70.077	-102.865	132.976	177.225	51.346	-133.833	171.265	-140.474	-140.526	89.984	129.753	-161.936	0.00021031	0.00029999	8.3116e-05	1031.2	2.5824e-06	3.321e-06	1118.5	212.49	3.1312e-06	3.6077e-06	268.11	77.497	61.485	18.759	2.4646e-06	25.802	0.00020837	0.00014121	3.246e-05	1013.6	2.0495e-06	1.2586e-06	1100.2	210.54	2.1348e-06	1.4316e-06	265.54	78.023	61.538	18.891	1.7197e-06	26.07	-103.510	-80.228	-76.359	-158.606	-21.030	-8.812	-158.616	-151.052	-26.551	-22.432	-151.675	-144.643	-143.982	-137.058	-28.735	-137.289	-8191	255	
1046.693	1	1	0	0	0.094023	0.4118	0.17715	0.33393	0.11338	0.085415	0.16376	0.38135	0.18654	0.12821	0.074213	0.073939	0.27189	0.1235	0.075152	0.1426	-2.5208	-2.9354	-3.1792	-2.9396	-3.2354	-3.1562	-2.8833	-3.1083	-2.9625	-2.9437	-3.2062	-2.9708	-2.9333	-3.1271	-2.9688	-3.3042	-108.784	-61.533	-83.913	130.094	99.185	-136.917	103.678	102.471	179.209	-10.471	-16.533	155.389	153.668	-42.119	57.046	-34.248	0.00021025	0.00022157	8.8165e-05	1034.6	2.4842e-06	2.8588e-06	1113.1	211.67	2.1452e-06	2.5814e-06	268.1	77.767	60.914	18.688	2.4125e-06	25.876	0.00021098	0.00012739	3.6215e-05	1013.5	1.9763e-06	1.0379e-06	1097.5	210.02	1.8947e-06	1.4913e-06	265.31	77.97	61.35	18.831	1.7335e-06	25.995	-104.419	-89.782	-84.028	-158.528	-34.788	-18.892	-158.651	-151.034	-32.787	-12.501	-151.432	-144.417	-143.701	-136.622	1.983	-137.840	-8191	255	
1046.789	1	1	0	0	0.17339	0.10183	0.17048	0.19778	0.064958	0.14121	0.35741	0.19131	0.12113	0.0060388	0.22999	0.24049	0.11174	0.11342	0.30046	0.057496	-2.5312	-2.9229	-3.1667	-3.0375	-3.0667	-3.2729	-2.825	-3.2167	-3.1042	-3.0292	-3.3354	-2.7167	-3.0958	-3.25	-2.9521	-3.2292	93.032	-90.816	-158.960	187.037	103.793	129.368	175.542	137.721	37.381	150.288	78.077	75.655	89.153	172.691	-103.649	49.825	0.00021245	0.00026874	9.5593e-05	1027.7	3.157e-06	2.7676e-06	1107.4	211.17	2.9274e-06	2.9829e-06	267.27	77.764	61.198	18.614	2.3854e-06	25.762	0.0002057	0.0001404	3.4326e-05	1010.4	2.1032e-06	1.1998e-06	1094.6	209.85	1.8002e-06	1.4458e-06	264.85	78.176	61.464	18.786	1.6006e-06	26.003	-102.288	-80.979	-79.870	-158.606	-37.094	-15.285	-158.637	-150.992	-37.163	-2.436	-151.757	-144.756	-144.058	-136.484	-14.214	-137.590	-8191	255	
1046.886	1	1	0	0	0.14939	0.070177	0.22068	0.069213	0.083508	0.33391	0.19539	0.23655	0.087962	0.19998	0.38389	0.18211	0.071206	0.23114	0.33786	0.3559	-2.8833	-2.7313	-3.2062	-3.2062	-2.9188	-3.2438	-3.0875	-3.2687	-3.1937	-2.8417	-3.3667	-3.0938	-3.0062	-3.1854	-2.7208	-3.0687	0.473	-122.506	-40.252	-137.379	-153.561	190.914	144.006	-167.208	161.964	-19.611	159.169	6.136	-148.402	6.126	149.074	-104.060	0.00021307	0.0003312	7.7436e-05	1029	2.5756e-06	3.3783e-06	1113.3	211.8	2.6628e-06	2.4847e-06	266.86	77.424	61.291	18.572	2.4228e-06	25.617	0.00020231	0.000153	3.0985e-05	1009.7	1.9897e-06	1.0711e-06	1095.6	210.13	1.7764e-06	1.4657e-06	264.98	77.847	61.411	18.732	1.65e-06	25.939	-101.861	-75.970	-68.617	-158.658	-14.281	-21.210	-158.581	-151.037	-37.002	-22.940	-151.638	-144.578	-143.939	-136.469	-7.941	-137.656	-8191	255	
1046.982	1	1	0	0	0.036436	0.019814	0.13001	0.02555	0.15186	0.14159	0.22881	0.11472	0.12012	0.11035	0.14915	0.11603	0.25348	0.19542	0.23353	0.21506	-2.7042	-2.8125	-3.1333	-3.0854	-2.8333	-3.2708	-2.85	-2.9667	-3.2438	-2.7313	-3.2938	-3.0042	-2.8771	-3.3	-2.8375	-2.9979	50.772	-32.789	102.508	142.847	175.453	-4.877	108.706	141.093	-100.273	52.101	183.320	-120.038	-126.986	92.294	-49.100	-159.782	0.00021178	0.00037856	6.6411e-05	1023.2	2.5012e-06	2.4926e-06	1107.7	210.4	2.8799e-06	2.4149e-06	266.61	77.148	60.997	18.668	1.9633e-06	25.728	0.00020926	0.00014178	3.1815e-05	1005.5	2.0398e-06	1.0597e-06	1092.7	209.43	1.8766e-06	1.5576e-06	263.95	77.747	61.149	18.733	1.3607e-06	25.903	-103.977	-84.645	-81.328	-158.579	-14.864	-21.622	-158.608	-150.716	-19.019	-44.908	-151.300	-144.660	-143.852	-137.000	-3.473	-137.505	-8191	255	
1047.102	1	1	0	0	0.08977	0.082406	0.17903	0.11759	0.2051	0.23638	0.13511	0.31616	0.090187	0.26273	0.18317	0.20072	0.31746	0.17421	0.13053	0.14738	-2.925	-2.8208	-3.0458	-3.1	-3.0104	-3.2208	-3.0083	-3.0396	-3.3146	-2.9562	-3.1083	-3.3917	-2.9333	-3.2021	-2.9792	-3.0312	150.355	88.085	0.210	-147.423	-15.945	20.289	189.617	139.391	54.669	53.910	38.369	148.434	150.402	139.383	-15.643	56.686	0.00019723	0.00030256	9.4762e-05	1019.7	2.9368e-06	2.7493e-06	1107	210.34	2.5731e-06	3.32e-06	265.4	77.372	60.924	18.54	3.6526e-06	25.46	0.00020094	0.00013601	3.7275e-05	1004	2.1473e-06	1.1023e-06	1090.6	208.93	1.762e-06	1.4126e-06	263.9	77.606	61.087	18.691	1.5844e-06	25.72	-101.975	-74.128	-66.126	-158.217	-11.403	-4.873	-158.908	-150.730	-33.117	-16.264	-151.642	-144.594	-144.074	-136.625	-12.581	-137.623	-8191	255	
1047.198	1	1	0	0	0.19223	0.17767	0.062359	0.22658	0.042008	0.17072	0.12762	0.1256	0.15802	0.12799	0.12948	0.10708	0.090579	0.13035	0.0333	0.25392	-2.9167	-2.8063	-3.2229	-3.3896	-2.9188	-3.2354	-3.1667	-3.0083	-3.0917	-2.8812	-3.2188	-3.0583	-2.7646	-3.0833	-3.1417	-2.8271	-161.541	189.478	76.757	131.205	17.650	134.199	154.203	176.175	-75.480	-1.111	58.525	-28.174	-84.076	164.272	157.916	69.120	0.0001997	0.00028282	7.1252e-05	1019.7	2.7337e-06	2.5599e-06	1103.8	211.05	2.9234e-06	3.4318e-06	266.44	76.876	60.914	18.596	1.9994e-06	25.394	0.00019649	0.00012519	3.2045e-05	1001.3	1.9539e-06	1.4091e-06	1088.6	208.69	1.6928e-06	1.3596e-06	263.66	77.422	61.008	18.657	1.2991e-06	25.636	-101.275	-90.257	-91.468	-158.560	-32.795	-7.319	-158.599	-150.747	-28.639	-28.413	-151.419	-144.657	-143.984	-136.844	-17.809	-137.308	-8191	255	
1047.295	1	1	0	0	0.11341	0.11493	0.19255	0.15229	0.15963	0.19894	0.055771	0.15985	0.24334	0.21838	0.30711	0.21885	0.098524	0.14265	0.12917	0.12011	-2.8417	-2.7313	-2.9813	-3.2625	-2.8167	-3.3208	-3.2125	-2.9458	-3.3	-3.1562	-3.0521	-3.3354	-2.8479	-3.2188	-3.2875	-2.9292	38.715	-44.769	156.957	190.632	-131.629	52.759	72.442	158.408	-139.952	-136.182	111.784	-30.633	166.092	185.924	-15.859	-46.662	0.00018902	0.00029988	0.00010525	1015.9	1.6457e-06	2.7108e-06	1107.1	210.11	2.6958e-06	3.8851e-06	266.82	76.9	61.124	18.573	2.1093e-06	25.488	0.00018861	0.00014267	3.8496e-05	1001.6	1.8912e-06	1.1998e-06	1089.2	208.62	1.811e-06	1.4193e-06	264.27	77.37	60.97	18.667	1.3972e-06	25.763	-102.316	-80.336	-63.086	-158.579	-18.414	-15.798	-158.583	-151.087	-29.579	-14.601	-151.395	-144.361	-144.099	-136.697	-26.660	-137.330	-8191	255	
1047.389	1	1	0	0	0.20629	0.2327	0.32539	0.29102	0.21593	0.12317	0.18188	0.071226	0.15848	0.062221	0.33202	0.2542	0.18745	0.044809	0.2432	0.14117	-2.8646	-2.9083	-2.775	-3.2021	-2.9104	-3.1167	-3.0083	-2.9396	-3.2438	-3.0021	-3.0979	-3.175	-2.8354	-3.0354	-3.325	-2.7229	9.462	113.849	55.159	153.157	39.336	-51.027	-97.652	59.639	64.384	102.327	-156.688	-165.012	-61.772	105.282	157.217	64.282	0.00019844	0.000272	8.4931e-05	1015.4	1.9873e-06	2.8392e-06	1106.1	210.22	2.3544e-06	2.5899e-06	266.08	77.644	60.894	18.396	2.2114e-06	25.342	0.00019577	0.00012503	3.9509e-05	1000.9	1.8606e-06	1.09e-06	1090.6	208.75	1.7375e-06	1.3406e-06	263.59	77.633	61.078	18.587	1.2537e-06	25.693	-102.002	-79.160	-64.948	-158.345	-14.731	-19.039	-158.341	-151.160	-30.715	-16.967	-151.593	-144.633	-143.666	-137.026	-25.973	-137.694	-8191	255	
1047.485	1	1	0	0	0.12945	0.14404	0.18704	0.25784	0.1876	0.097121	0.29116	0.20766	0.069485	0.26947	0.15361	0.17367	0.31352	0.25927	0.12894	0.10112	-2.6771	-2.9938	-2.7771	-3.3146	-2.8479	-3.1	-3.2854	-2.8937	-3.3187	-3.1	-2.5812	-3.3208	-2.8854	-3.0687	-3.1771	-2.8688	125.130	70.069	120.074	158.687	118.166	162.300	121.547	123.967	-111.059	46.455	104.300	-149.746	-51.714	144.214	35.514	137.288	0.00021208	0.0003195	6.9985e-05	1021.8	2.6981e-06	3.1843e-06	1103.7	210.82	2.341e-06	2.923e-06	264.52	77.07	61.07	18.402	2.7513e-06	25.47	0.00020148	0.00012755	3.845e-05	1003.2	1.9696e-06	1.2055e-06	1089.2	208.84	1.8341e-06	1.1256e-06	263.59	77.525	61.09	18.598	1.4118e-06	25.684	-98.870	-76.339	-87.061	-158.596	-13.457	-15.087	-158.453	-150.994	-26.012	-34.338	-151.693	-144.679	-143.942	-136.517	-18.116	-137.572	-8191	255	
1047.581	1	1	0	0	0.18173	0.12118	0.1427	0.16637	0.10753	0.18171	0.18658	0.30259	0.29025	0.33764	0.27246	0.24196	0.19764	0.17528	0.12623	0.089918	-2.6479	-2.9813	-2.7313	-3.3021	-3.0833	-2.9146	-3.4813	-2.9875	-3.2625	-3.0417	-2.9521	-3.4083	-2.9479	-3.0042	-3.2542	-2.8167	-139.508	-92.553	-17.864	67.202	-151.320	-7.490	116.499	147.144	-113.759	83.713	24.599	174.678	188.017	-51.382	-41.334	164.631	0.00020606	0.0002808	8.9599e-05	1021.5	3.0456e-06	3.2682e-06	1103.7	210.39	2.3063e-06	3.0544e-06	266.49	77.693	61.207	18.495	2.3578e-06	25.561	0.00019144	0.00012121	4.2159e-05	1003.2	2.0935e-06	1.4281e-06	1089.8	209.01	1.7945e-06	1.4278e-06	263.98	77.636	61.181	18.638	1.4555e-06	25.767	-105.604	-74.374	-70.508	-158.557	-19.919	-22.544	-158.554	-150.908	-31.772	-28.933	-151.597	-144.754	-143.762	-136.637	2.851	-137.306	-8191	255	
1047.702	1	1	0	0	0.095284	0.1454	0.10308	0.26241	0.23332	0.10207	0.25922	0.3378	0.15608	0.098436	0.10444	0.14742	0.24207	0.086816	0.24944	0.066875	-2.6521	-3.1813	-2.7354	-3.3229	-3.075	-2.9396	-3.3729	-2.9938	-3.0938	-3.175	-2.8917	-3.3604	-3.0104	-2.9083	-3.1562	-2.9833	54.627	-139.602	80.666	-165.198	113.752	101.630	135.435	163.324	181.762	-10.729	-159.482	122.295	183.702	-153.833	-41.566	74.269	0.00021349	0.00031107	7.4107e-05	1021.6	2.301e-06	2.456e-06	1106.3	210.13	2.1482e-06	2.9759e-06	266.23	77.665	60.728	18.657	2.3645e-06	25.443	0.00020136	0.00011536	3.4764e-05	1003.9	1.8091e-06	1.1904e-06	1091.9	209.05	1.7627e-06	1.064e-06	264.15	77.605	61.044	18.726	1.3121e-06	25.758	-101.638	-84.870	-85.603	-158.401	-42.942	-24.671	-158.822	-150.842	-24.686	-6.773	-151.502	-144.642	-143.815	-136.512	-10.382	-137.504	-8191	255	
1047.798	1	1	0	0	0.1185	0.098921	0.17399	0.2095	0.15158	0.095129	0.19207	0.21274	0.21019	0.11354	0.27276	0.16253	0.27909	0.10892	0.17267	0.030808	-2.8187	-3.1208	-2.6292	-3.2875	-2.9854	-2.7729	-3.3208	-2.8563	-3.075	-3.2708	-2.9708	-3.1083	-3.1271	-2.8167	-3.4188	-2.8646	-128.742	-46.882	-136.390	142.732	152.204	-95.498	158.350	40.758	22.937	146.561	138.537	-162.458	107.667	-43.975	-164.425	42.372	0.0001977	0.0002561	7.5995e-05	1021.1	2.8954e-06	2.165e-06	1109.8	210.17	2.9e-06	4.1899e-06	267.58	77.205	60.892	18.585	2.1263e-06	25.524	0.00019601	0.00011942	3.6998e-05	1005.9	1.9808e-06	1.4764e-06	1093.1	208.57	1.855e-06	1.2061e-06	264.3	77.491	61.02	18.708	1.3526e-06	25.8	-101.939	-88.703	-75.953	-158.503	-38.404	-13.405	-158.565	-150.837	-33.827	-0.895	-151.524	-144.441	-144.098	-136.539	-9.506	-137.754	-8191	255	
1047.894	1	1	0	0	0.30263	0.22275	0.11934	0.2436	0.19611	0.14147	0.23511	0.16424	0.20217	0.14321	0.256	0.18162	0.066544	0.13192	0.22977	0.38434	-2.5521	-3.0917	-2.9792	-3.2396	-3.1063	-2.8146	-3.3958	-3.2062	-2.9854	-3.2354	-3.0167	-3.3208	-3.1312	-2.6958	-3.3083	-2.975	-126.771	121.974	54.597	148.699	-102.297	-6.868	62.390	138.268	43.008	188.824	103.046	47.847	151.111	-1.044	-131.348	128.759	0.00020579	0.00036541	8.2946e-05	1024.9	2.1169e-06	2.8748e-06	1106	209.94	2.5191e-06	3.4541e-06	266.21	77.314	60.937	18.543	2.2178e-06	25.513	0.00020044	0.00010227	3.7805e-05	1006.9	1.8852e-06	1.3694e-06	1093	208.58	1.8853e-06	1.1038e-06	263.79	77.661	61.159	18.715	1.3242e-06	25.809	-99.950	-77.878	-71.401	-158.345	-32.630	-26.116	-158.617	-150.911	-24.579	-20.892	-152.018	-144.326	-144.144	-136.658	-16.819	-137.294	-8191	255	
1047.966	1	1	0	0	0.31458	0.14335	0.24228	0.28386	0.03714	0.30804	0.27395	0.078486	0.12813	0.10693	0.16347	0.18904	0.20786	0.1841	0.05253	0.26581	-2.4021	-3.1417	-2.7667	-3.1396	-3.15	-2.9396	-3.3458	-3.1063	-2.9042	-3.3667	-3.1792	-3.0729	-3.2167	-2.8979	-3.1688	-2.9958	-9.020	-97.989	130.922	152.923	99.135	-112.083	156.821	187.670	-80.402	126.233	-72.037	91.043	6.650	-51.442	168.788	153.476	0.00022213	0.00032482	0.00010186	1025.4	2.964e-06	2.5897e-06	1109.3	210.14	2.7099e-06	2.0218e-06	265.74	77.363	61.178	18.653	3.2762e-06	25.631	0.00020177	0.00011788	4.1721e-05	1008.7	1.8815e-06	1.5256e-06	1094.3	208.78	2.0014e-06	1.0213e-06	263.77	77.656	61.395	18.718	1.5949e-06	25.908	-101.595	-74.196	-92.764	-158.417	-34.243	-7.031	-158.407	-150.921	-29.822	-1.075	-151.771	-144.407	-144.020	-136.483	-10.918	-137.497	-8191	255	
1048.087	1	1	0	0	0.11029	0.099118	0.15428	0.27641	0.40658	0.17789	0.10642	0.19312	0.35141	0.063243	0.11562	0.1034	0.17637	0.27272	0.09041	0.20191	-2.4667	-3.4792	-3.0125	-3.1542	-3.2438	-2.9417	-3.3021	-3.1042	-2.6896	-3.325	-2.9354	-3.0146	-3.2229	-3	-3.2125	-3.1708	137.800	66.245	119.368	175.793	-157.777	44.687	-152.476	180.605	77.200	-153.321	20.085	-115.023	-156.093	174.537	-108.732	48.266	0.00021373	0.00031818	8.1242e-05	1027	2.78e-06	2.3062e-06	1112.1	210.75	2.2881e-06	2.6241e-06	266.34	77.42	60.547	18.586	2.0031e-06	25.812	0.00021532	0.00010763	3.8841e-05	1008.8	2.0428e-06	1.519e-06	1095.1	209.28	1.9221e-06	1.2525e-06	264.14	77.672	61.16	18.706	1.5925e-06	25.922	-98.934	-65.001	-87.862	-158.664	-30.575	-20.585	-158.650	-151.053	-29.810	-31.292	-151.640	-144.401	-144.017	-136.733	-19.765	-137.673	-8191	255	
1048.183	1	1	0	0	0.094463	0.096295	0.2279	0.16567	0.15431	0.053131	0.37079	0.35136	0.10819	0.17045	0.26355	0.017242	0.088726	0.17642	0.17449	0.13808	-2.2229	-3.25	-2.7917	-3.0542	-3.3396	-3.1021	-3.1792	-3.2042	-2.8312	-3.45	-3.0771	-2.9542	-3.325	-2.7021	-3.0542	-3.4146	172.632	-83.016	81.448	151.437	-45.054	130.354	124.010	111.142	6.670	82.359	98.524	-67.744	121.445	155.543	65.016	143.374	0.00019577	0.00033802	0.00010425	1024.1	3.3134e-06	2.6723e-06	1111.3	210.49	2.2722e-06	2.4113e-06	265.55	77.153	61.053	18.538	2.9739e-06	25.462	0.00019759	0.00011446	3.7367e-05	1007.6	1.7934e-06	1.1809e-06	1094.4	209.04	2.041e-06	9.9198e-07	263.2	77.53	61.058	18.674	1.6338e-06	25.725	-103.100	-90.240	-69.177	-158.825	-26.985	-27.675	-158.448	-150.715	-26.069	-18.929	-151.670	-144.559	-144.234	-136.650	0.240	-137.598	-8191	255	
1048.279	1	1	0	0	0.23104	0.11885	0.12418	0.24359	0.11134	0.26181	0.25807	0.097766	0.070696	0.32036	0.018987	0.14662	0.13462	0.22128	0.053348	0.20342	-2.4958	-3.1458	-3.0563	-2.9437	-3.3125	-2.9833	-3.2125	-3.2021	-2.8458	-3.1917	-3.2458	-2.9792	-3.2438	-3.0687	-2.9375	-3.3875	187.314	147.857	-165.733	167.282	-79.525	13.537	65.524	-75.770	-139.258	-104.401	17.266	180.035	-91.323	-140.831	-8.655	184.412	0.00021378	0.00021284	8.8945e-05	1023.4	2.4172e-06	3.0767e-06	1106.6	209.77	3.0135e-06	2.6167e-06	265.43	77.493	61.128	18.574	2.4399e-06	25.622	0.00021244	0.00012048	3.2276e-05	1006.7	1.8718e-06	1.3987e-06	1093	208.46	1.987e-06	1.1748e-06	263.14	77.557	61.054	18.644	1.6411e-06	25.799	-102.225	-77.644	-92.876	-158.545	-23.948	-18.453	-158.779	-150.877	-26.825	-31.602	-151.568	-144.870	-144.081	-136.804	-17.049	-137.579	-8191	255	
1048.375	1	1	0	0	0.19298	0.24033	0.11928	0.12928	0.073509	0.24181	0.17395	0.31661	0.026058	0.21129	0.1302	0.21071	0.12304	0.12418	0.17317	0.14526	-2.4208	-3.2771	-3.2854	-2.9208	-3.1604	-2.9417	-3.175	-3.3792	-2.6646	-3.2562	-3.1688	-2.9542	-3.3542	-2.9771	-3.1167	-3.2792	110.282	59.933	-24.803	-128.947	68.281	-151.449	144.900	180.817	35.894	76.519	138.311	122.662	145.221	-84.729	76.606	-161.485	0.00019898	0.00029548	8.7817e-05	1027.9	2.7096e-06	3.2591e-06	1107.4	209.9	2.3093e-06	3.8272e-06	266.12	77.631	61.124	18.583	2.5894e-06	25.669	0.00020163	0.00012999	3.117e-05	1008.1	1.7538e-06	1.3267e-06	1093.8	208.3	1.948e-06	1.4079e-06	263.82	77.629	61.183	18.697	1.5463e-06	25.82	-102.047	-95.792	-68.581	-158.646	-28.320	-26.725	-158.459	-151.053	-31.943	-20.173	-151.638	-144.842	-144.178	-136.720	-33.728	-137.488	-8191	255	
1048.494	1	1	0	0	0.13112	0.19557	0.10153	0.14027	0.034499	0.13312	0.27748	0.2809	0.17301	0.15182	0.16864	0.11314	0.27639	0.25268	0.18141	0.14162	-2.3146	-3.1667	-3.0479	-3.0646	-3.1604	-3.1604	-3.0708	-3.4167	-2.9437	-2.9771	-3.1896	-2.8917	-3.1479	-3.2292	-2.8667	-3.3896	93.081	96.509	-88.089	157.787	17.562	165.563	116.501	94.998	80.554	-92.539	162.698	-129.992	-156.707	145.878	-23.975	-44.110	0.00019958	0.00024972	9.5362e-05	1023.3	2.6342e-06	2.5371e-06	1109.8	210.25	2.5206e-06	3.2489e-06	264.46	76.934	60.901	18.437	2.6723e-06	25.534	0.00019862	0.00013381	3.3934e-05	1006.6	1.8554e-06	1.1572e-06	1092.6	208.35	1.9271e-06	1.225e-06	262.81	77.294	61.01	18.619	1.5114e-06	25.716	-104.009	-93.979	-65.728	-158.536	-29.301	-15.461	-158.499	-151.108	-27.094	-20.511	-151.781	-144.583	-143.805	-136.631	-4.740	-137.551	-8191	255	
1048.566	1	1	0	0	0.027281	0.22901	0.14364	0.15981	0.0089579	0.13493	0.093416	0.11212	0.049352	0.12359	0.16884	0.16887	0.15731	0.17449	0.13248	0.043225	-2.4313	-2.9771	-3.1125	-3.0854	-3.0938	-3.0354	-3.0333	-3.3875	-2.9729	-2.9354	-3.2646	-3.05	-3.2208	-3.0229	-2.9167	-3.0125	-126.152	-85.940	127.125	164.523	130.587	-63.427	113.046	162.729	179.364	-114.397	174.613	173.775	154.837	7.824	-89.096	-113.186	0.00019694	0.00026667	4.9011e-05	1026.5	2.4579e-06	2.3689e-06	1108.9	210.04	2.3022e-06	2.8067e-06	264.38	76.83	60.959	18.471	3.1859e-06	25.305	0.00019776	0.0001321	3.299e-05	1008	1.9427e-06	1.2548e-06	1092.6	208.09	1.8716e-06	1.226e-06	263.21	77.291	60.932	18.581	1.6897e-06	25.692	-102.656	-86.235	-69.485	-158.683	-9.892	-9.725	-158.708	-150.923	-28.915	-18.816	-151.389	-144.704	-143.893	-136.538	-11.402	-137.381	-8191	255	
1048.662	1	1	0	0	0.15613	0.18944	0.11406	0.24014	0.023825	0.10013	0.1819	0.11245	0.13408	0.35938	0.10921	0.379	0.14875	0.052731	0.051104	0.11941	-2.5521	-2.9771	-3.1458	-3.0917	-3.1333	-3.15	-2.9625	-3.3417	-3.0062	-2.9375	-3.3812	-2.975	-3.1104	-3.0625	-2.8729	-3.2271	29.113	160.963	33.028	152.233	-86.501	132.435	64.082	172.905	60.632	-50.083	-78.363	68.319	169.053	84.593	-77.938	116.137	0.00020442	0.00031587	9.2759e-05	1023.8	2.1695e-06	3.217e-06	1105.3	209.67	2.3802e-06	2.3008e-06	264.37	76.807	60.948	18.503	3.3705e-06	25.412	0.00020344	0.00012983	3.7782e-05	1005.8	2.0786e-06	1.1639e-06	1089.3	207.99	1.7995e-06	1.3122e-06	262.17	77.224	60.994	18.57	1.7197e-06	25.672	-101.640	-85.385	-73.297	-158.667	-16.452	-3.654	-158.643	-150.842	-37.898	-30.850	-151.638	-144.690	-144.087	-136.802	-9.354	-137.371	-8191	255	
1048.782	1	1	0	0	0.19213	0.27128	0.18981	0.43119	0.075735	0.22938	0.20792	0.084074	0.15772	0.22736	0.23176	0.18985	0.15056	0.097742	0.22057	0.19523	-2.5083	-2.7188	-3.3271	-3.1875	-3.025	-3.2083	-2.9	-3.3104	-2.9875	-2.9646	-3.3542	-3.0729	-3.0521	-3.1396	-2.9625	-3.2375	-162.997	-48.632	-118.839	139.872	27.941	-163.670	127.959	-144.166	-24.909	164.218	142.597	-165.239	171.000	133.340	81.254	-1.952	0.00020919	0.00026279	9.0184e-05	1023.2	2.2958e-06	2.7267e-06	1109.4	208.8	2.2409e-06	2.4923e-06	264.11	77.438	60.675	18.561	2.2231e-06	25.414	0.00019809	0.0001521	3.2506e-05	1005.4	1.883e-06	1.1866e-06	1092.2	207.84	1.7087e-06	1.4581e-06	263.19	77.513	60.956	18.66	1.6541e-06	25.708	-102.116	-83.654	-80.177	-158.528	-31.636	-14.138	-158.859	-150.889	-40.048	15.647	-151.527	-144.645	-144.074	-136.967	-6.309	-137.393	-8191	255	
1048.878	1	1	0	0	0.21873	0.15714	0.11603	0.34449	0.13658	0.25554	0.25205	0.23597	0.19932	0.22984	0.12152	0.065915	0.076701	0.039789	0.10666	0.17451	-2.7146	-2.7521	-3.3646	-3.2188	-3.0896	-3.2458	-3.1479	-3.2333	-3.2521	-2.8708	-3.4104	-2.9896	-3.0896	-3.375	-2.8937	-3.2542	-168.690	54.576	155.005	183.984	-143.090	36.283	123.003	-163.868	-141.296	111.328	-37.599	117.728	-37.605	87.490	-115.423	147.966	0.00020518	0.00032995	7.9489e-05	1023.9	2.2584e-06	3.4433e-06	1111	210.22	2.7116e-06	2.6395e-06	264.54	76.565	60.533	18.548	1.8008e-06	25.361	0.00020451	0.0001582	2.7806e-05	1007	1.889e-06	1.1942e-06	1092.2	207.89	1.7303e-06	1.425e-06	262.7	77.036	60.714	18.619	1.5301e-06	25.676	-101.120	-83.446	-73.373	-158.522	-23.112	-8.494	-158.740	-150.858	-35.703	-22.065	-151.591	-144.503	-144.262	-137.150	-27.139	-137.401	-8191	255	
1048.975	1	1	0	0	0.16107	0.062618	0.19213	0.15836	0.23595	0.049868	0.28281	0.20164	0.16966	0.12001	0.2196	0.071285	0.16063	0.1522	0.13314	0.11733	-2.8563	-2.6979	-3.2188	-3.1708	-2.9375	-3.2354	-3.1729	-3.2958	-3.3104	-2.9792	-3.2208	-3.1333	-2.9542	-3.2687	-2.9896	-3.2333	49.117	103.905	-15.710	166.806	-145.978	127.157	174.809	105.079	88.892	17.324	180.281	50.160	-114.680	110.308	115.872	-66.941	0.00021512	0.00024655	8.3815e-05	1024.2	3.0273e-06	4.1256e-06	1110.3	209.48	2.7244e-06	3.0669e-06	265.88	77.031	60.82	18.452	2.7347e-06	25.596	0.00019301	0.00014446	2.958e-05	1007.5	1.9957e-06	1.1951e-06	1092.8	207.68	1.7584e-06	1.3728e-06	263.4	77.243	60.91	18.618	1.6768e-06	25.731	-102.053	-93.520	-60.845	-158.516	-32.649	-14.141	-158.400	-150.997	-38.024	-20.116	-151.198	-144.904	-143.823	-136.649	-6.765	-137.568	-8191	255	
1049.095	1	1	0	0	0.08923	0.17946	0.067914	0.10969	0.096636	0.059333	0.29639	0.29698	0.24787	0.19037	0.22697	0.15751	0.23166	0.037168	0.041103	0.20651	-2.7188	-2.825	-3.2167	-3.2812	-2.8625	-3.4104	-3.2479	-3.0292	-3.2687	-2.7062	-3.2292	-3.1146	-2.8688	-3.2687	-3.125	-3.0917	108.344	52.874	-0.726	120.725	-101.353	81.095	156.252	189.909	132.351	-138.367	188.890	-155.388	-106.696	1.801	133.570	-157.643	0.00020556	0.00035135	8.4376e-05	1025.7	2.8865e-06	3.0854e-06	1112.5	209.5	2.1005e-06	2.8143e-06	266.16	77.238	61.206	18.589	2.6357e-06	25.468	0.00019607	0.00013844	3.3704e-05	1009.9	2.1966e-06	1.3457e-06	1095.4	208.49	1.5861e-06	1.3653e-06	263.72	77.535	61.187	18.67	1.368e-06	25.782	-104.574	-76.819	-74.466	-158.465	-17.552	-38.365	-158.543	-150.870	-36.926	-29.589	-152.013	-144.724	-143.706	-136.804	-13.106	-137.626	-8191	255	
1049.191	1	1	0	0	0.32633	0.25755	0.19235	0.24881	0.27976	0.16132	0.37193	0.086581	0.076557	0.13119	0.05271	0.21397	0.060679	0.11347	0.11556	0.068051	-2.9042	-2.8417	-3.2	-3.4542	-2.925	-3.375	-3.1396	-3.1521	-3.3896	-2.9833	-3.2375	-3.3063	-3.0292	-3.1	-2.95	-3.0917	175.560	-109.200	123.129	175.840	130.906	42.468	74.893	-125.079	-145.252	-131.659	-150.423	125.045	-38.566	-138.947	109.881	99.089	0.00020698	0.00023253	9.8701e-05	1027.7	2.3032e-06	3.436e-06	1109.3	209.8	2.737e-06	2.8868e-06	265.78	77.302	60.762	18.555	2.2738e-06	25.26	0.00019325	0.00012503	3.299e-05	1011.5	1.9815e-06	1.3087e-06	1095.8	208.55	1.7613e-06	1.3965e-06	263.73	77.366	60.967	18.68	1.4823e-06	25.678	-100.692	-74.619	-83.002	-158.588	-43.021	-12.823	-158.470	-151.153	-27.198	-20.136	-151.572	-144.618	-143.989	-136.817	-7.043	-137.882	-8191	255	
1049.263	1	1	0	0	0.18602	0.096921	0.24613	0.26462	0.15511	0.12104	0.19832	0.11412	0.13958	0.044198	0.2263	0.16895	0.052923	0.11912	0.12715	0.089702	-2.8792	-2.8063	-3.1375	-3.3583	-2.7771	-3.2	-3.3563	-3.0792	-3.2771	-2.9458	-3.025	-3.2646	-2.9104	-3.2167	-3.1292	-2.65	-73.802	-126.564	-94.831	142.883	-151.052	-114.356	82.455	-151.220	-66.734	188.734	164.683	-97.472	-7.468	-35.739	186.770	60.168	0.00020215	0.00030841	6.8067e-05	1031.8	2.9136e-06	2.3869e-06	1113.3	210.4	2.5122e-06	2.7772e-06	265.13	77.458	60.996	18.583	2.9699e-06	25.505	0.00019138	0.00013381	3.4073e-05	1012.2	2.0749e-06	1.3409e-06	1097	208.85	1.7015e-06	1.4297e-06	263.8	77.56	61.145	18.698	1.4887e-06	25.732	-101.909	-81.876	-82.363	-158.649	-31.711	-9.907	-158.561	-151.008	-25.752	-22.953	-151.780	-144.695	-144.024	-136.688	-19.825	-137.800	-8191	255	
1049.382	1	1	0	0	0.14887	0.10045	0.16729	0.24775	0.092858	0.036741	0.44288	0.22004	0.13281	0.17148	0.069441	0.099722	0.21944	0.13005	0.16053	0.19385	-2.8646	-2.8792	-2.9979	-3.375	-2.8187	-3.1583	-3.3479	-2.9396	-3.1854	-3.0958	-2.9792	-3.3542	-2.9542	-3.0479	-3.1562	-2.9813	30.355	9.775	-23.012	168.982	90.506	-160.871	133.435	-24.180	-61.000	68.963	-32.586	117.252	-165.826	5.272	-136.218	107.176	0.00020553	0.00027705	5.4196e-05	1028.6	2.2077e-06	2.9625e-06	1116.5	210.05	2.0433e-06	2.3569e-06	266.03	77.27	61.14	18.545	2.4853e-06	25.59	0.00020005	0.00012983	3.4395e-05	1012.2	2.0435e-06	1.4082e-06	1097.7	208.78	1.7512e-06	1.3852e-06	263.99	77.633	61.244	18.687	1.3372e-06	25.824	-100.049	-75.234	-87.368	-158.347	-14.004	-11.264	-158.827	-151.092	-33.646	-7.242	-151.308	-144.510	-144.150	-136.812	-1.239	-137.480	-8191	255	
1049.478	1	1	0	0	0.028641	0.0348	0.17893	0.075364	0.059757	0.22153	0.14878	0.071755	0.1335	0.20927	0.23368	0.13817	0.13685	0.26154	0.12829	0.14862	-2.8792	-3.05	-2.7313	-3.4208	-2.7438	-2.9833	-3.2146	-2.8312	-3.0167	-3.1833	-3.0208	-3.1104	-3.0896	-3.0625	-3.3646	-2.85	179.794	0.653	97.032	107.365	23.584	-84.026	-26.944	-101.281	-19.513	127.069	85.527	188.931	80.200	-120.625	-73.550	-55.895	0.00019714	0.00031366	8.2202e-05	1029.8	2.6622e-06	2.5419e-06	1113.1	209.26	2.6247e-06	3.1087e-06	266.73	77.355	60.918	18.498	2.5137e-06	25.389	0.00019726	0.00013544	3.5593e-05	1012.2	2.0689e-06	1.3476e-06	1098	208.42	1.8067e-06	1.2554e-06	263.86	77.64	61.168	18.667	1.4498e-06	25.776	-103.650	-82.548	-78.116	-158.631	-7.520	-24.390	-158.411	-151.061	-42.027	-19.409	-151.657	-144.624	-144.250	-137.103	-21.944	-137.360	-8191	255	
1049.574	1	1	0	0	0.1431	0.16273	0.29575	0.21887	0.20089	0.11933	0.19275	0.32289	0.12513	0.27711	0.25452	0.15662	0.09555	0.054799	0.038187	0.13456	-2.6208	-3.0792	-2.6792	-3.3979	-2.9313	-3.0438	-3.4896	-2.8417	-3.0229	-3.2375	-2.8458	-3.2792	-3.1167	-3.0021	-3.3312	-2.9458	-3.821	-12.357	8.315	104.289	130.972	101.902	114.510	170.915	-79.546	49.660	-152.545	23.801	183.227	-31.874	-21.046	103.789	0.00022176	0.00029839	8.1365e-05	1032.5	2.3214e-06	2.829e-06	1118	210.52	2.3163e-06	3.1125e-06	266.64	77.272	61.035	18.602	2.9799e-06	25.678	0.0002035	0.00014357	3.557e-05	1012.9	2.0062e-06	1.3069e-06	1099.9	208.98	1.7397e-06	1.4079e-06	263.91	77.618	61.18	18.713	1.4263e-06	25.844	-102.827	-86.654	-86.123	-158.511	-5.236	-11.118	-158.534	-151.148	-28.855	-28.005	-151.362	-144.344	-143.904	-136.937	1.636	-137.617	-8191	255	
1049.670	1	1	0	0	0.29481	0.083271	0.11237	0.15618	0.20253	0.021513	0.056189	0.18926	0.098381	0.14671	0.23755	0.04356	0.1603	0.15165	0.24746	0.21721	-2.5958	-2.9917	-2.7583	-3.3271	-2.8771	-2.9437	-3.5583	-2.9896	-3.0396	-3.2188	-2.9375	-3.1354	-2.9375	-2.7729	-3.2208	-2.9271	-168.160	-80.523	-108.923	-102.055	180.106	-41.793	-79.113	-57.443	-75.387	181.286	57.889	189.542	-110.882	-15.142	-106.727	-67.523	0.00021626	0.00033447	8.4275e-05	1028.8	2.4941e-06	2.6695e-06	1111.3	210.88	2.5685e-06	2.3585e-06	265.36	77.367	60.923	18.656	2.7816e-06	25.583	0.00020674	0.00012658	3.8933e-05	1013.1	1.889e-06	1.4356e-06	1096.8	208.85	1.7483e-06	1.352e-06	263.87	77.618	61.229	18.72	1.398e-06	25.821	-101.249	-78.538	-89.144	-158.622	-24.200	-23.489	-158.667	-150.749	-23.716	-19.913	-151.688	-144.717	-144.109	-136.770	-23.988	-137.502	-8191	255	
1049.791	1	1	0	0	0.13425	0.13305	0.065547	0.23964	0.18731	0.11631	0.22104	0.068782	0.11583	0.049235	0.33291	0.22562	0.072878	0.11267	0.17728	0.16411	-2.8833	-3.2729	-3.0729	-3.2146	-3.1562	-3.0958	-3.4917	-3.0146	-2.8271	-3.3042	-2.9125	-3.2354	-3.1937	-3.1271	-3.1375	-2.8792	58.467	-146.510	157.069	138.181	-92.540	-19.287	80.885	68.164	169.483	168.256	98.762	-161.548	125.145	-130.700	178.872	31.880	0.00020493	0.00028888	7.79e-05	1032.9	2.3075e-06	2.8093e-06	1113.3	211.11	2.3423e-06	2.549e-06	266.89	76.941	61.058	18.631	2.8562e-06	25.59	0.00020483	0.0001234	4.0408e-05	1014	2.0069e-06	1.4423e-06	1097.4	208.98	1.7591e-06	1.2582e-06	263.88	77.531	61.111	18.728	1.4588e-06	25.819	-102.345	-80.122	-65.343	-158.395	-20.400	-11.105	-158.432	-150.715	-33.325	6.097	-151.813	-144.450	-144.032	-136.423	-13.086	-137.892	-8191	255	
1049.863	1	1	0	0	0.12045	0.07022	0.11816	0.21249	0.11965	0.24655	0.23765	0.1764	0.13491	0.068435	0.057515	0.12949	0.12826	0.16813	0.084387	0.3024	-2.5917	-3.3125	-2.775	-3.1896	-3.0896	-2.8667	-3.4875	-3.0812	-3.0333	-3.2604	-2.9062	-3.0771	-3.3792	-2.9021	-3.1021	-3.0229	-33.688	-144.619	-150.404	177.139	81.345	149.517	104.311	125.357	169.615	35.446	62.861	51.109	-153.005	-82.669	41.719	156.608	0.00020667	0.0003079	5.6788e-05	1031.2	2.7491e-06	2.88e-06	1118.1	210.3	2.3897e-06	2.4491e-06	264.74	77.409	61.068	18.508	2.2305e-06	25.568	0.0002051	0.00014381	3.8173e-05	1013	1.8404e-06	1.4934e-06	1097.9	208.65	1.9487e-06	1.1786e-06	263.23	77.593	61.089	18.684	1.4126e-06	25.804	-102.157	-81.206	-78.674	-158.546	-34.368	-20.416	-158.463	-150.829	-31.760	-6.564	-151.828	-144.665	-144.008	-136.636	-16.255	-137.787	-8191	255	
1049.959	1	1	0	0	0.16084	0.1535	0.078518	0.24625	0.27063	0.16501	0.34366	0.095322	0.096805	0.11255	0.22701	0.1427	0.079538	0.098378	0.26228	0.090901	-2.4875	-3.2062	-2.8583	-3.1667	-3.2	-2.9313	-3.3458	-3.3083	-2.8438	-3.2854	-3.0625	-3.1104	-3.0771	-2.9062	-3.1083	-3.2417	123.942	-98.696	-13.581	68.536	147.957	36.423	177.744	15.840	135.178	136.018	114.765	52.838	179.586	105.195	89.311	36.764	0.00021812	0.00024799	9.968e-05	1030.1	3.04e-06	2.4072e-06	1111.7	211.14	2.6451e-06	2.7044e-06	265.54	77.521	60.789	18.54	2.9557e-06	25.487	0.00021167	0.00010024	4.1214e-05	1011.6	1.9778e-06	1.4423e-06	1097.4	208.76	1.9769e-06	1.1161e-06	263.51	77.583	61.03	18.655	1.4693e-06	25.787	-100.226	-72.303	-77.560	-158.540	-18.122	-35.199	-158.561	-151.061	-34.519	-22.814	-151.795	-144.477	-144.054	-136.563	-9.804	-137.379	-8191	255	
1050.055	1	1	0	0	0.094783	0.13594	0.37477	0.32349	0.15412	0.24303	0.22459	0.051517	0.2017	0.20451	0.18012	0.23849	0.23719	0.25411	0.098	0.020528	-2.4667	-3.2708	-2.8917	-3.1583	-3.2542	-2.9292	-3.375	-3.0396	-2.9271	-3.4437	-2.9458	-3.0625	-3.3792	-2.95	-3.1771	-3.1896	152.485	-73.754	55.341	183.011	-163.229	31.621	80.982	136.222	-131.919	38.632	178.844	20.347	143.576	163.380	177.036	-101.084	0.00020107	0.00031697	8.347e-05	1035.5	1.9779e-06	3.4953e-06	1118	210.46	2.2197e-06	3.5694e-06	266.44	76.949	61.023	18.671	2.4588e-06	25.506	0.0001994	0.00011479	3.4211e-05	1013.5	1.8763e-06	1.4697e-06	1097.2	208.6	1.9588e-06	1.2165e-06	263.69	77.379	61.143	18.721	1.6241e-06	25.802	-102.234	-89.691	-77.605	-158.508	-28.653	-20.795	-158.629	-150.987	-21.372	-15.956	-151.938	-144.688	-143.887	-136.837	-24.809	-137.756	-8191	255	
1050.176	1	1	0	0	0.13014	0.11421	0.30019	0.10305	0.20044	0.052114	0.19709	0.17452	0.23987	0.13696	0.12957	0.26418	0.32395	0.14161	0.30153	0.27797	-2.3771	-3.375	-3.0604	-3.1396	-3.2854	-2.9542	-3.3542	-3.3604	-2.8438	-3.2812	-3.1104	-3.0458	-3.3354	-2.6625	-3.0521	-3.3083	69.776	114.433	-161.466	71.772	-111.539	186.617	18.071	18.602	-128.471	125.605	-54.983	-58.856	117.854	-137.813	89.632	80.072	0.00019795	0.00036099	6.469e-05	1033.5	2.4723e-06	3.1633e-06	1113.8	209.82	2.2651e-06	2.8911e-06	265.79	77.466	61.051	18.577	2.8043e-06	25.619	0.00020528	0.00012666	3.5823e-05	1014	1.8315e-06	1.4432e-06	1097.3	208.47	1.956e-06	1.2232e-06	263.95	77.72	61.142	18.675	1.5252e-06	25.859	-102.329	-69.954	-75.075	-158.551	-31.218	-14.252	-158.399	-150.970	-19.836	-9.728	-151.564	-144.242	-144.270	-136.423	-29.094	-137.221	-8191	255	
1050.272	1	1	0	0	0.21126	0.12435	0.22279	0.17042	0.15863	0.03666	0.25328	0.11818	0.16186	0.16688	0.13933	0.11743	0.095188	0.027504	0.28835	0.057311	-2.2875	-3.1167	-3.0687	-3.0875	-3.3146	-2.9208	-3.1896	-3.2042	-2.7583	-3.2313	-3.1792	-2.9521	-3.4667	-3.0083	-2.9667	-3.3208	68.249	10.982	102.140	116.242	143.793	127.212	184.874	123.256	-24.390	-103.647	184.260	-106.587	-162.148	70.527	79.780	87.407	0.0002028	0.00030423	7.602e-05	1027.8	1.9707e-06	2.4004e-06	1113.7	210.22	2.3393e-06	3.3825e-06	267.3	77.812	61.335	18.549	2.2075e-06	25.737	0.00020766	0.00012105	3.2114e-05	1012.9	1.8442e-06	1.482e-06	1097.8	208.6	1.9531e-06	1.2355e-06	264.03	77.659	61.179	18.679	1.4733e-06	25.885	-101.565	-87.214	-78.507	-158.539	-13.927	-15.850	-158.559	-151.046	-37.755	-7.512	-151.638	-144.625	-144.263	-136.655	-9.204	-137.936	-8191	255	
1050.366	1	1	0	0	0.14145	0.28029	0.17113	0.2547	0.18735	0.1071	0.16093	0.24274	0.090673	0.13056	0.064204	0.1572	0.23633	0.29526	0.13813	0.090071	-2.2896	-3.2271	-3.0417	-3.05	-3.2333	-3.2979	-3.1667	-3.375	-2.9604	-3.2188	-3.275	-2.9771	-3.3083	-2.9167	-2.9458	-3.2042	112.559	-102.547	-35.781	-162.240	-146.070	41.262	-63.314	190.566	-92.529	189.176	-92.124	94.614	81.725	-163.256	-115.407	37.530	0.000203	0.00024289	5.7779e-05	1029.3	1.88e-06	2.7589e-06	1115.7	210.17	2.5469e-06	3.2095e-06	265.72	77.409	61.405	18.598	2.4329e-06	25.732	0.000201	0.00011796	3.1331e-05	1014.4	1.927e-06	1.4764e-06	1099.3	208.54	2.1297e-06	1.533e-06	263.63	77.622	61.219	18.694	1.5941e-06	25.866	-104.860	-64.249	-68.218	-158.313	-28.631	-16.613	-158.538	-151.152	-33.122	-18.198	-151.739	-144.798	-143.865	-136.965	-23.967	-137.790	-8191	255	
1050.464	1	1	0	0	0.13702	0.07689	0.1522	0.08255	0.16105	0.10141	0.17365	0.060879	0.10842	0.20878	0.10062	0.07078	0.32749	0.070952	0.23758	0.054699	-2.5854	-3.1979	-3.1396	-3.0896	-3.1875	-3.0208	-3.2292	-3.3125	-2.9333	-2.9604	-3.2188	-2.8896	-3.3146	-3.0521	-2.8021	-3.225	-39.394	116.858	20.017	150.882	164.434	-57.698	167.461	-34.840	8.776	-46.997	-59.240	-8.257	174.115	172.782	-111.621	-159.142	0.00021811	0.00016337	7.749e-05	1035.5	2.5409e-06	3.1219e-06	1118.4	211.59	2.5969e-06	3.054e-06	265.72	77.222	61.007	18.505	2.3705e-06	25.519	0.00021651	0.00011934	3.451e-05	1016	1.9584e-06	1.3599e-06	1101.3	209.17	1.9459e-06	1.2677e-06	263.61	77.726	61.145	18.745	1.5674e-06	25.919	-104.002	-69.224	-59.349	-158.517	-28.067	0.000	-158.746	-151.022	-23.978	-47.389	-151.389	-144.505	-144.088	-137.058	-19.008	-137.303	-8191	255	
1050.558	1	1	0	0	0.26605	0.12914	0.13171	0.051469	0.0035059	0.13888	0.049429	0.10224	0.15264	0.18569	0.20134	0.072714	0.29013	0.087736	0.18903	0.12438	-2.4583	-3.1021	-3.2812	-2.9188	-3.0271	-3.2042	-2.8688	-3.275	-2.9729	-3.0875	-3.2854	-2.8	-3.1271	-3.1104	-2.8458	-3.3542	88.462	-82.047	-131.587	189.633	91.490	-83.262	79.011	163.709	58.801	150.075	181.989	-48.644	-124.408	118.687	-139.268	-119.107	0.00021066	0.00037105	6.1012e-05	1032.4	2.5114e-06	3.0879e-06	1117.7	211.49	2.4591e-06	2.8002e-06	265.07	77.051	61.058	18.477	2.2439e-06	25.731	0.0002054	0.00013909	3.3243e-05	1016.3	1.9106e-06	1.393e-06	1101	209.22	2.0605e-06	1.6012e-06	263.44	77.366	61.19	18.665	1.6322e-06	25.855	-101.118	-87.442	-55.522	-158.851	-17.591	-24.828	-158.619	-151.222	-37.195	-20.902	-151.460	-144.249	-144.078	-136.811	-3.362	-137.655	-8191	255	
1050.655	1	1	0	0	0.21708	0.058258	0.096149	0.12812	0.073705	0.27824	0.31894	0.18604	0.11403	0.11709	0.18527	0.15248	0.031393	0.12241	0.096593	0.12869	-2.7167	-2.8229	-3.1229	-3.0146	-3.0187	-3.1208	-3.0208	-3.2771	-3.1437	-2.8896	-3.3958	-3.0667	-2.9896	-3.2292	-2.6708	-3.0667	-146.800	190.450	49.574	97.709	-75.328	-99.175	170.551	118.095	-74.762	95.704	152.436	64.711	-165.388	34.280	99.718	47.891	0.00019471	0.00024938	9.3474e-05	1037	2.5688e-06	2.6702e-06	1116.2	210.35	2.6979e-06	1.9503e-06	267.32	77.663	60.968	18.611	2.5779e-06	25.559	0.00020192	0.00015031	3.5524e-05	1017.4	2.048e-06	1.0142e-06	1101.5	208.83	1.8666e-06	1.5159e-06	264.04	77.787	61.049	18.697	1.7221e-06	25.81	-103.546	-80.055	-76.221	-158.401	-18.411	-31.489	-158.500	-151.029	-30.554	-38.876	-151.684	-144.875	-144.282	-136.950	-15.132	-137.971	-8191	255	
1050.775	1	1	0	0	0.25755	0.089112	0.11963	0.29973	0.20821	0.21409	0.37987	0.18631	0.18949	0.16188	0.19209	0.28696	0.40953	0.081974	0.1048	0.39149	-2.6333	-2.8583	-3.2896	-3.1771	-3.1104	-3.3729	-2.9375	-3.3312	-3.2167	-3.0833	-3.3292	-2.8729	-3.1896	-3.2625	-2.7354	-3.1562	0.781	-8.103	-58.069	134.253	32.541	166.619	165.188	149.377	12.363	11.564	139.278	133.917	144.620	101.654	-163.291	60.656	0.00019627	0.00029431	6.2478e-05	1032.4	3.1801e-06	2.1479e-06	1115.7	211.36	2.5265e-06	3.7065e-06	265.06	77.328	61.278	18.516	2.2851e-06	25.485	0.00020608	0.0001308	2.8221e-05	1015.7	1.9733e-06	1.0995e-06	1098.6	208.79	2.0331e-06	1.6107e-06	263.11	77.523	61.193	18.663	1.7335e-06	25.772	-102.153	-93.653	-62.779	-158.631	-27.479	-18.591	-158.665	-150.888	-24.329	-29.000	-151.500	-144.656	-144.069	-136.735	-18.476	-137.618	-8191	255	
1050.871	1	1	0	0	0.26406	0.28285	0.059725	0.20255	0.19161	0.073384	0.088441	0.042371	0.35783	0.17615	0.26103	0.016223	0.20971	0.14864	0.064971	0.12131	-2.5667	-2.9271	-3.2021	-3.1042	-3.0812	-3.3063	-3.0958	-3.2604	-3.2	-2.9125	-3.3667	-3.1646	-3.0146	-3.2625	-2.9542	-3.1125	-61.665	20.093	71.239	180.162	-115.138	46.583	-166.251	-120.425	-109.536	-49.858	109.847	35.857	-139.294	-165.247	-118.360	158.859	0.00021146	0.0003861	8.7722e-05	1033.8	2.4852e-06	2.2869e-06	1115.2	210.45	2.447e-06	3.0027e-06	264.54	77.624	61.107	18.418	1.9627e-06	25.507	0.00020192	0.00015056	3.4372e-05	1014.8	2.1674e-06	1.3135e-06	1098.7	208.84	1.8781e-06	1.4704e-06	263.35	77.582	61.088	18.642	1.637e-06	25.838	-100.985	-79.483	-70.291	-158.492	-29.857	-19.531	-158.714	-151.087	-26.798	-18.046	-151.608	-144.893	-144.047	-136.709	-25.065	-137.577	-8191	255	
1050.968	1	1	0	0	0.22176	0.28812	0.1388	0.43373	0.04723	0.17686	0.17457	0.19342	0.2114	0.045461	0.060622	0.21895	0.15162	0.15314	0.12785	0.21825	-2.7479	-2.7438	-3.3958	-3.0438	-2.7708	-3.4313	-3.0917	-3.0771	-3.2604	-2.6021	-3.3833	-3.2521	-2.9396	-3.3104	-2.9417	-3.0271	-148.653	-140.323	-39.590	-122.103	-40.410	33.849	99.500	110.948	-94.615	-53.744	-84.558	-156.236	89.823	53.708	56.547	156.317	0.00021302	0.00035675	8.8389e-05	1033.1	3.3049e-06	1.5553e-06	1113.7	210.36	2.2115e-06	2.8452e-06	265.74	77.449	60.982	18.466	1.8414e-06	25.586	0.00020486	0.00015113	3.451e-05	1015.7	2.0495e-06	1.0445e-06	1097.3	208.75	1.894e-06	1.5282e-06	263.09	77.461	61.021	18.671	1.791e-06	25.82	-103.921	-76.450	-58.147	-158.426	-30.543	-22.537	-158.602	-150.961	-30.330	-3.251	-151.569	-144.725	-144.039	-136.686	-12.350	-137.444	-8191	255	
1051.064	1	1	0	0	0.18495	0.080835	0.069644	0.079654	0.020809	0.10284	0.32961	0.17569	0.065153	0.19799	0.027895	0.17724	0.24425	0.22585	0.22872	0.24451	-2.6521	-2.9708	-2.9979	-3.2271	-2.8979	-3.2417	-3.1292	-2.9729	-3.3792	-2.9479	-3.1458	-3.275	-2.8396	-3.275	-2.9271	-3	103.421	30.665	27.299	113.777	-10.286	-74.748	139.827	146.024	-74.779	49.015	-147.646	143.078	73.957	151.865	153.684	78.951	0.00021564	0.00037808	8.4443e-05	1031.6	2.4806e-06	3.2914e-06	1119.4	210.71	2.4937e-06	2.9823e-06	263.98	77.291	60.555	18.571	2.3258e-06	25.399	0.0002016	0.00015283	3.5823e-05	1013	2.1204e-06	1.18e-06	1099	208.58	1.868e-06	1.7035e-06	262.71	77.403	60.842	18.64	1.6808e-06	25.722	-103.109	-74.195	-81.803	-158.462	-33.732	-9.054	-158.469	-151.037	-25.955	-20.705	-151.777	-144.473	-143.794	-136.502	-18.705	-137.555	-8191	255	
1051.160	1	1	0	0	0.055079	0.16115	0.12472	0.2274	0.10935	0.19842	0.14143	0.11536	0.11353	0.11996	0.16288	0.13171	0.23995	0.052061	0.095759	0.095498	-2.8104	-2.8042	-3.1396	-3.3292	-2.7292	-3.2062	-3.1333	-2.9813	-3.3187	-3	-3.1688	-3.1729	-2.7562	-3.1937	-3.0938	-2.8521	-148.142	0.639	-84.412	-156.918	56.738	165.197	166.168	156.585	-64.894	-80.448	133.928	146.040	157.259	-164.628	69.049	16.437	0.0001986	0.00022543	9.082e-05	1030.4	2.2635e-06	2.9249e-06	1109.5	210.24	2.5884e-06	2.4644e-06	264.54	76.649	60.842	18.517	1.7774e-06	25.46	0.0001964	0.00015779	3.8035e-05	1013.2	2.2891e-06	1.3031e-06	1096.3	208.42	1.9502e-06	1.2667e-06	262.23	77.045	60.913	18.646	1.4798e-06	25.694	-102.578	-76.667	-76.629	-158.617	-25.248	-31.386	-158.635	-150.919	-20.023	-38.475	-151.558	-144.575	-143.948	-136.610	-34.208	-137.835	-8191	255	
1051.256	1	1	0	0	0.067208	0.077392	0.25771	0.30691	0.15169	0.078014	0.14593	0.1499	0.14105	0.25099	0.20413	0.16349	0.242	0.2322	0.20729	0.14566	-2.7417	-2.8458	-3.0438	-3.3	-2.9542	-3.225	-3.1125	-2.8958	-3.325	-3.0104	-3.0875	-3.2979	-2.9	-3.1417	-2.9396	-2.8104	-164.946	86.354	-59.419	154.074	-68.203	-143.413	72.019	-37.669	147.494	-42.082	189.236	97.395	-140.012	97.600	-145.200	184.801	0.00020191	0.00030723	8.9964e-05	1031.9	2.5235e-06	3.0765e-06	1113.4	209.38	2.5879e-06	2.6115e-06	265.59	77.057	60.579	18.525	2.8703e-06	25.417	0.00019714	0.00014649	4.2504e-05	1012.8	2.1159e-06	1.4271e-06	1095.2	208.02	1.713e-06	1.4629e-06	262.96	77.123	60.768	18.586	1.6395e-06	25.673	-104.400	-84.957	-73.929	-158.539	-27.460	-19.294	-158.692	-151.039	-28.892	-8.499	-151.672	-144.727	-144.065	-136.273	-15.949	-137.454	-8191	255	
1051.352	1	1	0	0	0.18864	0.19066	0.17059	0.079306	0.17142	0.30066	0.071953	0.25243	0.11213	0.096394	0.047604	0.20087	0.14384	0.022356	0.14084	0.15981	-2.7438	-2.8583	-2.7292	-3.3583	-2.8312	-3.1854	-3.4083	-2.9437	-3.2292	-3.075	-3.0458	-3.2458	-2.8271	-3.1437	-3.0396	-2.8104	-47.550	187.878	-85.183	74.814	15.577	9.951	-84.954	104.395	14.298	47.274	111.683	156.284	130.151	96.006	135.071	128.463	0.0002052	0.00027256	0.00011692	1033.6	2.7958e-06	3.3018e-06	1116.6	209.55	2.9414e-06	3.0708e-06	264.12	76.925	60.939	18.386	2.9512e-06	25.431	0.00019836	0.00013812	3.7344e-05	1012.7	2.1921e-06	1.3703e-06	1095.2	208.17	2.0021e-06	1.4032e-06	262.82	77.11	60.984	18.597	1.509e-06	25.659	-103.335	-88.273	-75.728	-158.424	-31.282	-5.608	-158.496	-150.860	-21.619	-39.056	-151.442	-144.533	-144.103	-136.407	-20.360	-137.414	-8191	255	
1051.447	1	1	0	0	0.22495	0.13077	0.36724	0.067942	0.29083	0.05999	0.20114	0.097502	0.098912	0.15319	0.14426	0.15837	0.18265	0.20418	0.1252	0.16565	-2.7854	-2.9021	-2.8042	-3.3792	-2.8563	-3.0958	-3.2792	-2.7271	-2.9896	-3.0375	-3.0062	-3.4562	-2.9979	-3.1125	-3.1875	-2.7292	32.761	87.577	66.711	181.133	29.715	111.544	122.032	-149.527	-69.786	-93.866	-1.425	-116.799	130.930	100.094	-100.639	-88.543	0.00021275	0.00024989	7.3288e-05	1032.1	2.245e-06	3.1364e-06	1107.5	209.44	2.4955e-06	2.7381e-06	265.88	77.004	60.856	18.523	2.2289e-06	25.511	0.00019851	0.00013479	3.8058e-05	1011.8	2.1376e-06	1.305e-06	1095.6	208.4	1.9379e-06	1.2847e-06	263	77.165	60.781	18.613	1.6111e-06	25.737	-102.792	-91.728	-58.419	-158.510	-16.276	-16.091	-158.540	-150.905	-43.183	-11.923	-151.541	-144.730	-144.046	-136.875	5.463	-137.458	-8191	255	
1051.567	1	1	0	0	0.061419	0.22863	0.20572	0.044339	0.10365	0.21837	0.37183	0.16919	0.38078	0.12577	0.29002	0.15357	0.11266	0.39088	0.099551	0.097852	-2.7521	-3.0771	-2.9042	-3.3625	-2.8354	-2.95	-3.375	-2.9396	-3.1396	-3.2438	-2.8792	-3.2396	-2.9896	-2.7875	-3.25	-2.7083	-61.289	144.034	-86.762	75.904	74.922	-23.635	146.713	57.802	184.960	-75.192	136.513	-100.251	108.943	109.519	-124.402	-149.011	0.00019973	0.00024452	9.2064e-05	1031	2.0762e-06	2.655e-06	1111.5	209.07	2.0595e-06	2.7934e-06	264.82	76.786	60.519	18.377	2.7816e-06	25.341	0.00019931	0.00011942	4.1398e-05	1013	1.9778e-06	1.4139e-06	1095.7	208.06	1.9487e-06	1.4183e-06	262.61	77.211	60.787	18.569	1.4709e-06	25.666	-103.400	-80.757	-66.107	-158.589	-38.407	-14.972	-158.662	-150.909	-26.029	-28.918	-151.511	-144.368	-144.003	-136.880	-19.894	-137.609	-8191	255	
1051.663	1	1	0	0	0.3393	0.14017	0.22175	0.23183	0.081629	0.19104	0.2467	0.36808	0.13985	0.077742	0.34932	0.11211	0.25647	0.069288	0.02861	0.25743	-2.7479	-3.225	-2.8	-3.2583	-3.0229	-2.8958	-3.3667	-3.1021	-3.1979	-3.3146	-2.8521	-3.1875	-3.0604	-2.9104	-3.3458	-2.9646	-71.465	-62.668	-78.215	137.002	132.483	113.959	79.111	125.440	48.061	-141.731	-136.867	152.480	-111.022	-63.299	-82.896	-114.965	0.00021033	0.00034214	9.0956e-05	1030.1	3.0968e-06	3.5243e-06	1115.8	210.38	2.5946e-06	2.6565e-06	265.24	77.251	61.13	18.381	2.4958e-06	25.393	0.00020463	0.00013901	4.4739e-05	1013.2	2.0092e-06	1.4764e-06	1096.2	207.97	1.8579e-06	1.334e-06	262.77	77.311	60.839	18.598	1.3955e-06	25.728	-104.705	-81.558	-67.841	-158.414	-30.755	-13.346	-158.584	-150.835	-21.753	-25.804	-151.587	-144.824	-144.130	-137.079	-15.192	-137.493	-8191	255	
1051.735	1	1	0	0	0.088416	0.24146	0.17072	0.35809	0.14832	0.099752	0.3134	0.21991	0.13571	0.1631	0.048319	0.17213	0.16608	0.20182	0.10086	0.11625	-2.4583	-3.0833	-2.7146	-3.1458	-3.0104	-2.9	-3.2292	-3.0625	-2.9771	-3.2833	-2.7958	-3.2146	-3.0062	-2.8854	-3.3	-2.7625	141.271	102.811	-93.397	161.816	33.509	59.499	91.108	153.266	-88.252	186.007	20.818	41.637	141.885	-39.224	-62.828	158.240	0.00019966	0.00030985	8.4392e-05	1027.9	2.9455e-06	3.4456e-06	1115.4	209.62	3.1829e-06	3.1596e-06	263.55	76.862	60.337	18.474	3.0264e-06	25.51	0.00020359	0.00013056	4.0431e-05	1012.5	1.942e-06	1.4802e-06	1097.4	207.67	1.9754e-06	1.2772e-06	262.58	77.157	60.671	18.535	1.667e-06	25.743	-98.541	-79.720	-85.751	-158.356	-18.609	-45.394	-158.757	-150.697	-29.301	-19.095	-151.768	-144.432	-143.943	-136.613	-19.615	-138.137	-8191	255	
1051.856	1	1	0	0	0.057873	0.02631	0.22407	0.27526	0.090114	0.18784	0.26336	0.15507	0.28464	0.072349	0.10375	0.21783	0.092336	0.26446	0.2011	0.13604	-2.6	-3.0729	-2.9333	-3.2333	-3.1583	-2.7958	-3.4562	-3.0125	-2.9	-3.3604	-2.8667	-3.1146	-3.1896	-2.9479	-3.1583	-3.2104	172.519	3.219	79.594	186.158	-83.332	25.838	143.058	-39.669	-0.164	56.014	171.684	168.957	90.821	76.999	-40.372	-34.003	0.00020544	0.00037077	8.4644e-05	1031.3	2.871e-06	3.2677e-06	1116.7	210.74	2.328e-06	2.8613e-06	264.55	76.706	60.769	18.369	3.1676e-06	25.492	0.00020917	0.0001447	4.0915e-05	1012.6	1.9987e-06	1.5038e-06	1097.1	208.66	1.9264e-06	1.3188e-06	262.75	77.119	60.758	18.554	1.5301e-06	25.683	-102.854	-83.932	-81.474	-158.544	-24.341	-22.211	-158.631	-151.028	-41.217	-16.500	-151.775	-144.412	-144.028	-136.728	-9.355	-137.479	-8191	255	
1051.952	1	1	0	0	0.23763	0.041352	0.11656	0.29129	0.19215	0.064098	0.053445	0.18424	0.17446	0.19561	0.066545	0.03001	0.14803	0.23832	0.097369	0.29252	-2.5229	-3.3333	-2.8563	-3.2458	-3.2188	-2.7938	-3.2375	-3.1167	-2.9625	-3.2708	-2.9333	-3.2625	-3.1771	-2.7708	-3.2979	-3.0333	-27.141	-47.183	-167.024	-151.878	129.895	-142.980	14.696	161.439	-142.153	87.639	167.995	-120.422	-29.364	156.452	150.064	-155.149	0.00020073	0.00031053	9.4589e-05	1032	2.6815e-06	3.1433e-06	1108.4	211.04	1.6353e-06	2.7702e-06	264.33	77.108	60.582	18.443	2.5542e-06	25.401	0.000207	0.00013357	3.686e-05	1013.4	2.0009e-06	1.3296e-06	1094.8	208.27	1.9257e-06	1.0772e-06	262.8	77.284	60.716	18.585	1.5771e-06	25.671	-100.956	-84.623	-88.704	-158.531	-15.338	-27.328	-158.682	-151.265	-31.493	-28.573	-151.619	-144.671	-144.434	-136.576	-4.604	-137.525	-8191	255	
1052.048	1	1	0	0	0.11199	0.13526	0.1297	0.26586	0.34823	0.26762	0.12937	0.10092	0.11889	0.063235	0.22272	0.1633	0.10723	0.12795	0.32573	0.26958	-2.5375	-3.2833	-2.9292	-3.1521	-3.2687	-2.7625	-3.2938	-3.1562	-2.8708	-3.2646	-2.9875	-3.1729	-3.3667	-2.9729	-3.1604	-3.2646	77.497	93.697	171.831	-144.467	84.517	-154.769	6.077	157.418	-107.021	-146.936	169.211	109.299	167.248	38.133	15.739	50.401	0.00020203	0.00023719	9.8516e-05	1032.8	2.925e-06	2.7424e-06	1112.1	209.47	2.7308e-06	3.0477e-06	262.68	76.322	60.618	18.403	2.9913e-06	25.288	0.00020727	0.00011397	3.7805e-05	1013.5	1.889e-06	1.7425e-06	1096.9	208	2.0389e-06	1.1985e-06	261.84	76.937	60.679	18.526	1.6703e-06	25.631	-104.798	-90.634	-89.519	-158.664	-20.863	-6.422	-158.635	-150.958	-37.552	4.446	-151.494	-144.531	-144.222	-136.806	-12.696	-137.781	-8191	255	
1052.144	1	1	0	0	0.11502	0.1086	0.19587	0.16495	0.089852	0.10438	0.17327	0.14865	0.11106	0.23031	0.052005	0.25005	0.050258	0.1796	0.13227	0.15132	-2.4396	-3.1979	-2.9833	-3.0271	-3.4396	-2.9104	-3.3646	-3.2271	-2.7396	-3.4167	-2.9792	-2.8458	-3.5	-2.9771	-3.2208	-3.2104	10.334	139.365	-133.512	166.858	-80.923	-62.446	168.537	102.272	13.118	-142.493	-101.756	-67.728	-49.388	-135.339	30.950	-68.326	0.00020763	0.00036972	7.7951e-05	1032	2.1657e-06	2.6786e-06	1109.4	209.41	2.3153e-06	2.4348e-06	264.32	76.734	60.351	18.321	3.1741e-06	25.188	0.00021095	0.00011763	3.8657e-05	1012.5	1.9674e-06	1.4499e-06	1093	207.79	2.0302e-06	1.1597e-06	262.4	76.926	60.472	18.494	1.6711e-06	25.546	-103.401	-77.987	-81.276	-158.573	-17.443	-26.455	-158.463	-150.647	-17.448	-21.667	-151.482	-144.942	-144.043	-136.471	-7.048	-137.349	-8191	255	
1052.265	1	1	0	0	0.089016	0.091725	0.15483	0.22801	0.15701	0.14814	0.18935	0.034526	0.17518	0.26377	0.25361	0.14958	0.14215	0.29639	0.10661	0.23593	-2.4521	-3.1958	-3.0938	-2.9958	-3.35	-3.1375	-3.2062	-3.3042	-2.7812	-3.1583	-3.0687	-2.7979	-3.3688	-2.9583	-2.8854	-3.2833	-110.551	189.427	-28.257	-128.577	-124.349	44.017	107.681	118.237	-82.349	128.828	-146.773	10.425	-11.156	187.661	34.788	-125.456	0.00020762	0.00033128	8.4304e-05	1028.3	3.263e-06	3.5575e-06	1108.5	208.56	2.7772e-06	3.3508e-06	262.64	76.494	60.416	18.452	1.9913e-06	25.379	0.00020079	0.00012641	3.8242e-05	1011	1.8374e-06	1.4404e-06	1091	207.3	2.0987e-06	1.2592e-06	261.5	76.837	60.584	18.506	1.5584e-06	25.501	-104.248	-78.776	-69.260	-158.422	-35.765	-8.301	-158.768	-150.998	-32.687	-15.062	-151.514	-144.942	-144.082	-136.937	-6.085	-137.093	-8191	255	
1052.359	1	1	0	0	0.1958	0.053345	0.20335	0.21029	0.10396	0.096473	0.30162	0.33709	0.11583	0.23735	0.067026	0.19094	0.27533	0.24535	0.30026	0.11087	-2.3458	-3.0604	-3.1208	-2.9458	-3.2604	-3.0333	-3.2167	-3.2958	-2.7938	-3.1958	-3.2812	-2.6896	-3.2792	-3.0583	-2.725	-3.4458	92.147	64.514	153.830	143.760	-16.475	-126.425	138.523	144.608	-34.434	175.889	-51.530	32.669	29.533	175.957	15.756	63.371	0.00019216	0.00033518	8.8408e-05	1028	2.5858e-06	2.2061e-06	1103.4	208.39	2.6472e-06	3.0459e-06	264.06	76.282	60.468	18.273	2.3411e-06	24.995	0.00019161	0.00012999	3.4257e-05	1007.3	1.8912e-06	1.2586e-06	1087.5	207.09	1.8932e-06	1.371e-06	260.93	76.46	60.379	18.409	1.586e-06	25.368	-102.001	-81.035	-70.276	-158.472	-30.445	-3.422	-158.801	-151.047	-30.995	-18.092	-151.501	-144.785	-144.165	-136.435	-8.711	-137.737	-8191	255	
1052.455	1	1	0	0	0.23006	0.15494	0.18971	0.12704	0.13999	0.045021	0.2883	0.16295	0.22032	0.085959	0.11287	0.086995	0.088196	0.1616	0.050673	0.1194	-2.4333	-3.0792	-3.1208	-2.9521	-3.3729	-3.0625	-3.0583	-3.4	-2.9813	-2.9875	-3.2438	-3.2542	-3.2	-2.9458	-2.8792	-3.4146	150.946	79.041	-2.071	-126.999	-55.753	134.357	90.469	14.516	-142.603	-38.923	106.301	82.956	141.110	-121.612	-96.209	-139.168	0.00020985	0.00027473	8.6386e-05	1019	2.5657e-06	3.007e-06	1100	207.48	2.6307e-06	3.5755e-06	261.96	75.632	60.138	18.024	2.717e-06	25.023	0.00019809	0.00011877	3.4602e-05	1000.1	1.8628e-06	1.2766e-06	1081.6	206.22	1.7534e-06	1.4922e-06	260.42	76.239	60.142	18.304	1.5819e-06	25.288	-104.336	-99.621	-85.532	-158.437	-45.212	-24.136	-158.573	-150.940	-33.031	-0.495	-151.719	-144.472	-144.329	-136.920	-6.627	-138.005	-8191	255	
1052.551	1	1	0	0	0.14416	0.14675	0.15158	0.16962	0.16501	0.14424	0.13437	0.29663	0.04709	0.3944	0.25525	0.18772	0.17959	0.24762	0.27666	0.19664	-2.5271	-2.9354	-3.2854	-2.925	-3.1542	-3.2854	-3.1562	-3.2229	-2.9938	-3.0021	-3.5104	-2.85	-3.1979	-3.0896	-2.925	-3.1979	49.815	145.546	-9.100	120.154	37.766	187.500	-121.562	111.350	141.487	-140.646	182.579	164.254	122.875	79.988	159.399	172.733	0.00019361	0.00030061	6.0323e-05	1013.6	3.1079e-06	2.8584e-06	1092.4	206.82	3.0012e-06	3.3782e-06	263.1	75.596	60.027	18.188	1.9709e-06	24.828	0.0001934	0.00011601	2.8912e-05	996.76	1.9614e-06	1.2226e-06	1077.1	205.75	1.8954e-06	1.3482e-06	260.35	75.972	59.977	18.295	1.5811e-06	25.228	-100.044	-82.578	-74.363	-158.428	-7.102	-20.003	-158.469	-150.990	-23.033	-12.758	-151.359	-144.447	-143.616	-136.813	-18.935	-137.253	-8191	255	
1052.648	1	1	0	0	0.20572	0.24839	0.17481	0.062057	0.27226	0.089482	0.19646	0.24975	0.16675	0.26211	0.22175	0.28798	0.10021	0.1847	0.20909	0.080373	-2.6896	-2.9771	-3.2875	-3	-3.1146	-3.1458	-2.9208	-3.3125	-3.0854	-2.9333	-3.4437	-2.8854	-3.0771	-3.1667	-2.8854	-3.2062	-153.225	51.045	-85.437	-22.066	8.838	-137.262	167.949	125.808	75.057	-66.911	139.512	-70.568	-13.118	-142.974	-61.077	96.344	0.00019762	0.00023723	7.4795e-05	1006.7	2.5253e-06	3.1391e-06	1089.3	207.16	2.4934e-06	2.6526e-06	261.42	75.461	59.888	18.192	2.5464e-06	24.957	0.00018846	0.00012162	3.0686e-05	992.26	1.8927e-06	1.1714e-06	1073.5	205.17	1.7346e-06	1.3283e-06	258.89	75.848	59.914	18.296	1.5155e-06	25.101	-104.131	-75.554	-79.411	-158.513	-35.164	-31.468	-158.684	-151.051	-26.602	-12.302	-151.374	-144.718	-143.805	-136.839	-9.497	-137.319	-8191	255	
1052.744	1	1	0	0	0.23895	0.091043	0.11221	0.24082	0.06842	0.15372	0.17848	0.14569	0.094144	0.2056	0.13336	0.22405	0.1093	0.18102	0.14901	0.20668	-2.6896	-2.925	-3.2417	-2.9875	-3.1937	-3.0917	-2.8812	-3.3083	-2.95	-2.9	-3.2125	-3.1167	-3.0167	-3.2958	-2.7271	-3.1333	-131.104	-59.281	159.407	124.696	54.700	-102.269	137.389	-27.944	-102.734	-25.979	-106.945	-1.824	89.639	152.792	-137.911	-94.294	0.00020841	0.00034677	9.3762e-05	1009	2.8781e-06	2.9238e-06	1087.5	207.42	2.3201e-06	3.1537e-06	260.66	75.928	60.053	18.179	2.8355e-06	24.892	0.00019414	0.00014828	3.1492e-05	993.79	1.9016e-06	1.0644e-06	1072.1	205.57	1.7541e-06	1.4155e-06	258.93	76.093	59.932	18.276	1.6849e-06	25.152	-102.466	-73.077	-65.137	-158.220	-20.982	-27.140	-158.268	-150.810	-24.228	-28.689	-151.406	-144.393	-144.212	-137.007	-9.264	-137.278	-8191	255	
1052.864	1	1	0	0	0.24584	0.055006	0.17664	0.50511	0.21701	0.22129	0.09841	0.092172	0.13765	0.098184	0.052582	0.24529	0.060419	0.21819	0.20857	0.034957	-2.6792	-2.7687	-3.1937	-3.1458	-3.1063	-3.2188	-3.2438	-3.1917	-3.1042	-2.9	-3.1792	-3.1	-2.8833	-3.0604	-2.9708	-3.3083	3.876	-156.457	-41.224	166.034	33.682	152.672	156.413	94.199	-8.002	47.705	-168.336	153.991	-125.647	151.509	-122.953	-110.034	0.00020189	0.00023151	8.2313e-05	1008.4	2.2873e-06	3.165e-06	1093.4	207.15	2.4755e-06	2.365e-06	261.1	75.587	59.835	18.236	2.7107e-06	24.843	0.00019583	0.00013088	2.8267e-05	991.38	1.8942e-06	1.0067e-06	1073	205.13	1.7188e-06	1.2412e-06	259.13	75.849	59.949	18.349	1.6816e-06	25.199	-100.819	-88.258	-80.942	-158.630	-34.733	-19.973	-158.729	-151.076	-34.097	-15.085	-151.711	-144.800	-144.264	-136.886	-10.706	-137.690	-8191	255	
1052.960	1	1	0	0	0.054852	0.18238	0.22978	0.20001	0.11336	0.17295	0.29045	0.11657	0.16138	0.082382	0.23501	0.22043	0.11845	0.16433	0.17447	0.12177	-2.9479	-2.7292	-3.2021	-3.2562	-2.9646	-3.2917	-3.0021	-3.1063	-3.2625	-2.8896	-3.3063	-3.3417	-2.8729	-3.3521	-3.1	-3.0604	86.425	-83.846	83.018	12.587	107.997	-51.676	157.840	-118.772	-89.497	-163.844	14.920	-83.457	37.872	173.154	-12.444	-103.197	0.00020186	0.00027298	8.0428e-05	1007.7	2.3763e-06	3.2248e-06	1083.8	206.53	2.6414e-06	2.4683e-06	259.33	75.459	59.331	18.133	3.0114e-06	24.728	0.00019096	0.00010487	2.9488e-05	990.97	1.8539e-06	8.6745e-07	1068	204.67	1.7721e-06	8.906e-07	257.67	75.507	59.523	18.237	1.3972e-06	25.013	-104.654	-82.579	-77.698	-158.538	-35.500	-20.939	-158.250	-151.092	-25.795	-15.317	-151.512	-144.681	-143.843	-136.604	-8.800	-137.280	-8191	255	
1053.032	1	1	0	0	0.2213	0.30245	0.0043113	0.079988	0.30866	0.13503	0.18599	0.20117	0.17823	0.11234	0.058105	0.27934	0.095472	0.17507	0.23015	0.1801	-2.9021	-2.8292	-3.1792	-3.275	-2.8958	-3.0833	-3.0687	-3.0833	-3.3229	-2.7562	-3.2354	-3.1854	-2.9479	-3.3458	-3.0479	-2.8896	97.148	46.552	148.917	-106.469	105.829	27.736	78.868	-103.855	185.571	87.330	123.115	129.481	-146.566	158.571	150.135	65.493	0.000202	0.00031941	6.4903e-05	988.59	2.4509e-06	2.5431e-06	1066.7	204.87	2.4233e-06	3.382e-06	257.34	74.922	59.242	17.994	2.6263e-06	24.564	0.00018324	0.00011154	2.0941e-05	973.49	1.8397e-06	6.771e-07	1052.4	202.99	1.4008e-06	1.3312e-06	255.69	75.13	59.279	18.09	1.1873e-06	24.808	-103.228	-70.115	-70.729	-158.390	-37.829	-23.110	-158.529	-150.911	-27.736	-11.440	-151.757	-144.393	-143.543	-136.300	-17.025	-137.129	-8191	255	
1053.128	1	1	0	0	0.1557	0.20989	0.023445	0.18195	0.096094	0.063526	0.28327	0.31362	0.11483	0.23184	0.31603	0.11551	0.08275	0.049527	0.1019	0.019529	-2.8979	-2.6542	-2.9708	-3.3458	-2.8771	-3.3396	-3.2458	-3.0729	-3.4813	-2.8917	-3.1167	-3.05	-2.9417	-3.35	-3.0729	-2.9062	-86.875	137.402	92.693	117.083	-133.179	-81.257	151.280	142.813	189.662	-71.652	-45.875	-68.597	-104.452	-29.253	104.807	39.371	0.00019565	0.00031259	9.4965e-05	991.3	2.5484e-06	2.6291e-06	1063.1	204.46	2.3912e-06	2.8562e-06	257.71	74.882	58.892	17.844	2.8095e-06	24.538	0.00018463	0.00011194	2.6424e-05	970.61	1.8068e-06	8.9018e-07	1048.8	202.4	1.5162e-06	1.2791e-06	255.54	75.082	59.172	18.052	1.3591e-06	24.784	-101.187	-89.189	-66.112	-158.277	-38.352	3.538	-158.625	-150.894	-30.600	-15.132	-151.396	-144.470	-143.931	-136.717	-15.845	-137.401	-8191	255	
1053.249	1	1	0	0	0.050512	0.19472	0.14557	0.15715	0.055386	0.21394	0.031351	0.35501	0.1137	0.058098	0.19799	0.14904	0.14422	0.076466	0.18066	0.025012	-2.9625	-2.975	-3.075	-3.1146	-2.7729	-3.1896	-3.1437	-3.0062	-3.4792	-2.8375	-3.125	-3.125	-2.7313	-3.1604	-3.1188	-2.9271	-128.699	75.349	47.180	76.696	25.980	-3.924	120.663	79.314	-90.646	-20.460	153.509	183.458	137.200	-88.772	155.258	-143.405	0.00020348	0.00027697	6.9666e-05	986.08	2.4663e-06	2.9344e-06	1062.5	203.43	2.5533e-06	2.8443e-06	256.8	74.77	59.159	17.812	2.1148e-06	24.581	0.000186	0.00010926	3.1469e-05	967.82	1.8262e-06	9.6878e-07	1045.6	201.75	1.6005e-06	9.1618e-07	255.17	74.759	59.115	17.991	1.3526e-06	24.82	-101.361	-97.431	-80.707	-158.289	-31.560	-22.126	-158.596	-150.871	-20.554	-21.143	-151.750	-144.281	-143.602	-136.815	-29.282	-137.448	-8191	255	
1053.343	1	1	0	0	0.10378	0.1963	0.18278	0.20293	0.060583	0.24862	0.10568	0.14477	0.30337	0.044687	0.32923	0.13563	0.25441	0.37184	0.25474	0.30361	-3.0104	-3.0604	-2.7667	-3.3521	-2.8563	-3.2333	-3.1896	-2.8896	-3.2604	-2.9042	-2.9938	-3.2333	-2.8604	-3.1188	-3.2292	-2.9375	143.018	49.474	-22.628	177.847	-45.320	77.111	-129.147	116.454	-109.262	71.610	189.766	-19.215	-124.018	-139.306	-91.907	87.490	0.0001979	0.00027231	6.9592e-05	980.23	2.66e-06	3.2204e-06	1056.4	203.95	2.1267e-06	2.2573e-06	257.13	74.291	58.836	17.902	2.8081e-06	24.55	0.00018047	0.00011576	3.2068e-05	963.48	1.6694e-06	8.7786e-07	1042.2	202.03	1.4758e-06	1.0251e-06	254.6	74.409	58.939	17.98	1.2594e-06	24.704	-103.702	-73.279	-88.353	-158.384	-36.003	-20.685	-158.230	-150.796	-21.912	-23.290	-151.419	-144.527	-143.733	-136.891	-20.516	-137.432	-8191	255	
1053.439	1	1	0	0	0.18597	0.19887	0.1758	0.091016	0.025213	0.1651	0.27452	0.28639	0.22684	0.14843	0.24366	0.40362	0.04836	0.18302	0.15586	0.29137	-2.7625	-3.1792	-2.8375	-3.4042	-3.0375	-3.3229	-3.3937	-2.9813	-3.3208	-3.0479	-2.9125	-3.2646	-2.8833	-2.9646	-3.2146	-2.9146	27.367	-134.326	63.479	-115.183	-107.769	-140.872	188.042	183.948	-80.310	-25.458	165.245	160.889	146.870	-167.256	119.817	-126.779	0.00018741	0.00030055	9.5399e-05	983.29	2.1732e-06	2.0429e-06	1061.9	203.41	2.2054e-06	2.2829e-06	257.57	74.539	58.671	17.822	1.7224e-06	24.401	0.00017545	0.00010658	3.17e-05	964.33	1.824e-06	8.7597e-07	1044.8	201.69	1.4297e-06	9.7397e-07	254.96	74.802	58.934	17.977	1.2245e-06	24.699	-100.812	-74.721	-70.101	-158.456	-18.708	2.601	-158.421	-151.142	-29.217	-12.968	-151.729	-144.279	-143.758	-136.429	-21.721	-137.742	-8191	255	
1053.537	1	1	0	0	0.056971	0.12541	0.090562	0.23817	0.1178	0.13566	0.21773	0.11764	0.11236	0.037443	0.28073	0.26168	0.24472	0.13885	0.14428	0.28841	-2.7542	-3.0625	-2.8479	-3.3563	-2.925	-2.9646	-3.3146	-2.875	-3.1021	-3.0917	-2.8812	-3.2708	-2.9896	-3.0062	-3.1667	-2.925	112.216	129.495	-118.411	148.183	167.579	190.729	177.339	143.330	-163.912	95.704	-1.686	109.241	-167.121	184.493	-89.214	130.941	0.00020547	0.00025908	8.8562e-05	984.4	2.3103e-06	3.1081e-06	1054.6	203.56	2.3566e-06	2.5477e-06	255.14	74.708	58.972	17.804	2.7848e-06	24.437	0.00019346	9.2594e-05	3.3082e-05	965.77	1.8494e-06	1.0284e-06	1042.3	201.75	1.5594e-06	9.0671e-07	254.34	74.764	58.932	17.998	1.1735e-06	24.727	-102.163	-76.829	-82.138	-158.404	-28.055	-15.168	-158.744	-150.931	-23.453	-20.060	-151.136	-144.434	-143.571	-136.791	-6.351	-137.319	-8191	255	
1053.632	1	1	0	0	0.1107	0.16461	0.13177	0.1167	0.047394	0.12065	0.15073	0.24555	0.18926	0.19995	0.027694	0.12704	0.074001	0.081746	0.07565	0.14071	-2.7917	-3.075	-2.6667	-3.3354	-3.0396	-2.9313	-3.4437	-3.0042	-3.05	-3.2771	-2.9854	-3.3333	-3.0021	-2.8875	-3.1917	-2.9417	-63.923	-100.332	-43.603	176.603	-46.611	89.032	79.853	124.417	0.541	-155.180	130.640	-15.647	-123.163	-147.126	184.900	47.875	0.00018967	0.00033967	8.2551e-05	979.7	2.3323e-06	3.5903e-06	1059.4	203.75	2.4387e-06	2.8751e-06	256.63	74.693	59.251	17.821	2.4695e-06	24.321	0.00018912	0.00010585	3.1723e-05	963.01	1.5216e-06	1.3902e-06	1042	201.6	1.7051e-06	9.844e-07	254.38	74.757	59.106	17.996	1.2326e-06	24.657	-100.722	-75.154	-94.394	-158.362	-16.720	-4.181	-158.527	-150.756	-21.580	-20.173	-151.249	-144.505	-143.855	-136.713	-18.026	-137.431	-8191	255	
1053.728	1	1	0	0	0.22211	0.14942	0.12381	0.1067	0.16279	0.079716	0.26165	0.19937	0.050044	0.18789	0.1918	0.076726	0.17098	0.1351	0.14123	0.22241	-2.5292	-3.175	-2.8729	-3.3729	-3.0438	-2.8875	-3.3563	-2.8	-3.1333	-3.2208	-3.0333	-3.275	-2.9062	-2.9292	-3.375	-2.9583	-157.356	103.888	184.843	179.544	152.559	-7.570	133.159	180.932	160.912	-154.920	67.577	-121.752	114.883	-167.189	-80.420	70.521	0.00018964	0.00027052	8.1712e-05	976.89	2.8748e-06	3.0172e-06	1056.6	203.55	2.4257e-06	3.8903e-06	256.71	74.116	58.935	17.924	3.1291e-06	24.438	0.00017994	9.2188e-05	3.0939e-05	960.69	1.6568e-06	1.1004e-06	1040.4	201.56	1.6113e-06	9.9387e-07	253.8	74.53	58.959	17.997	1.2594e-06	24.735	-102.801	-77.239	-62.209	-158.372	-26.272	-8.135	-158.593	-150.793	-23.940	-10.217	-151.356	-144.468	-144.136	-136.798	-16.006	-137.027	-8191	255	
1053.824	1	1	0	0	0.15197	0.21087	0.23015	0.24159	0.040366	0.12001	0.28775	0.12672	0.076538	0.128	0.22204	0.16326	0.085527	0.21226	0.13479	0.20357	-2.575	-3.3688	-2.6	-3.2562	-2.9021	-2.6917	-3.3729	-2.9792	-2.9313	-3.2375	-2.8604	-3.2229	-3.3208	-2.7458	-3.1312	-3.1771	137.953	-51.640	-10.121	-161.169	104.515	19.511	177.687	-49.835	3.837	33.354	-144.197	189.452	57.251	20.283	86.368	32.400	0.00019012	0.00032783	8.4969e-05	977.62	3.3689e-06	2.1687e-06	1057.8	202.6	2.2596e-06	3.1311e-06	256.82	74.249	58.651	17.906	2.5343e-06	24.634	0.00018832	0.00010617	3.2805e-05	961.64	1.7568e-06	1.1695e-06	1041.2	201.13	1.6142e-06	9.7303e-07	254.41	74.644	58.945	18	1.2148e-06	24.765	-101.479	-89.085	-79.608	-158.277	-30.059	-20.444	-158.378	-150.975	-24.244	-7.638	-151.475	-144.507	-143.872	-136.511	-8.812	-137.337	-8191	255	
1053.945	1	1	0	0	0.18715	0.086893	0.1992	0.32234	0.20271	0.16661	0.091759	0.084549	0.1565	0.034428	0.14993	0.14234	0.055756	0.10016	0.089642	0.09094	-2.5229	-3.3375	-2.9813	-3.1813	-3.2938	-2.8312	-3.4458	-3.1667	-2.8396	-3.3229	-2.7875	-3.2417	-3.1979	-2.8104	-3.2354	-2.9792	-20.491	-158.534	-6.385	134.670	-142.182	-32.557	-98.009	-108.033	172.136	-31.000	-58.523	148.446	-162.873	-143.688	-42.455	-92.355	0.00019356	0.00023676	6.2938e-05	981.92	2.5474e-06	2.942e-06	1060	202.39	2.2744e-06	2.6875e-06	256.25	74.52	58.611	17.881	2.7379e-06	24.402	0.00018496	8.8042e-05	2.9834e-05	963.58	1.6403e-06	1.0862e-06	1042	200.75	1.7433e-06	9.3797e-07	254.41	74.643	58.891	17.983	1.2886e-06	24.725	-104.404	-81.592	-62.292	-158.323	-34.729	-6.932	-158.499	-150.816	-16.120	-18.230	-151.505	-144.548	-143.769	-136.474	-2.474	-137.258	-8191	255	
1054.041	1	1	0	0	0.33691	0.18894	0.35013	0.098834	0.078014	0.21344	0.037336	0.16474	0.16539	0.086761	0.077989	0.10551	0.26621	0.19188	0.30054	0.13152	-2.4896	-3.2188	-2.7208	-3.2354	-3.1437	-2.7521	-3.3167	-3.275	-2.8229	-3.4458	-3.075	-2.875	-3.4062	-2.9562	-3.0167	-3.1771	-89.332	182.646	22.003	172.902	1.955	-51.523	-136.337	-2.476	4.364	-112.204	128.603	-57.864	144.316	117.820	-78.274	128.978	0.00018124	0.00022926	9.9934e-05	979.43	2.115e-06	2.2284e-06	1058.4	202.76	2.0208e-06	2.9625e-06	256.91	74.748	58.88	17.788	2.5739e-06	24.36	0.00018546	8.4302e-05	3.6169e-05	962.88	1.5911e-06	1.0692e-06	1043.7	201.43	1.8348e-06	9.8724e-07	254.41	74.778	58.976	17.987	1.1727e-06	24.739	-103.622	-90.528	-82.231	-158.506	-19.640	-6.621	-158.479	-150.626	-37.702	-5.592	-151.265	-144.436	-144.135	-136.634	-4.088	-137.641	-8191	255	
1054.137	1	1	0	0	0.17973	0.065105	0.17969	0.14357	0.10094	0.19845	0.042044	0.23134	0.11278	0.23128	0.16305	0.13495	0.25366	0.13408	0.061058	0.10699	-2.2479	-3.1813	-2.9854	-2.9604	-3.2687	-2.8917	-3.1063	-3.1708	-2.6604	-3.2042	-3.2104	-2.875	-3.2562	-2.9688	-3.0083	-3.1146	-77.000	109.533	82.571	161.815	-159.154	-142.454	-29.483	-153.100	-71.935	-4.774	153.055	-73.041	-130.816	19.708	-72.113	-114.344	0.00020168	0.00021397	4.7969e-05	979.01	2.3068e-06	2.2818e-06	1064.5	202.33	2.143e-06	3.4643e-06	257.63	74.686	58.934	17.815	2.2982e-06	24.496	0.00019221	0.00010015	3.3635e-05	965.68	1.4365e-06	1.2605e-06	1046.7	201.17	1.6459e-06	1.1625e-06	254.66	74.884	59.003	18.034	1.4977e-06	24.779	-102.557	-84.076	-58.607	-158.364	-25.915	-29.956	-158.557	-150.880	-29.936	-17.026	-151.577	-144.521	-143.950	-136.441	-14.097	-137.374	-8191	255	
1054.258	1	1	0	0	0.29973	0.20339	0.14556	0.36689	0.092983	0.076849	0.45511	0.059922	0.26324	0.24943	0.10277	0.10735	0.14059	0.043985	0.20256	0.18718	-2.2875	-2.9521	-2.8521	-3.0604	-3.25	-2.7938	-3.1604	-3.3583	-2.7521	-3.1625	-3.0854	-2.8979	-3.2521	-2.8479	-2.9958	-3.2271	-22.682	27.241	2.155	157.127	-151.525	103.801	83.302	152.926	-161.977	-164.729	-86.181	9.383	152.361	-120.330	45.000	141.017	0.00019818	0.00029214	7.9257e-05	989.08	3.0641e-06	2.7433e-06	1060.7	203.92	2.4352e-06	2.3089e-06	255.93	74.971	59.158	17.968	2.8578e-06	24.603	0.00019381	0.00010454	3.1193e-05	968.76	1.6448e-06	1.2159e-06	1048.7	201.55	1.7952e-06	1.1417e-06	254.72	75.059	59.283	18.087	1.3915e-06	24.915	-103.208	-89.077	-78.461	-158.504	-31.466	-18.383	-158.443	-150.684	-26.832	-13.561	-151.494	-144.429	-143.784	-136.937	-10.853	-137.301	-8191	255	
1054.329	1	1	0	0	0.073559	0.16469	0.23046	0.17604	0.26476	0.087848	0.07436	0.056361	0.13137	0.055717	0.14372	0.036536	0.17281	0.19161	0.15327	0.34407	-2.35	-3.1167	-3.1063	-2.925	-3.2271	-2.8729	-3.1292	-3.4229	-2.8063	-3.0938	-3.1042	-2.9167	-3.0812	-2.8917	-3.1042	-3.1646	-141.221	-73.788	3.758	126.828	-104.565	89.902	25.581	10.659	13.817	33.821	-95.752	-117.913	149.649	99.162	-110.587	-135.828	0.0001939	0.00023744	6.763e-05	987.55	2.4052e-06	3.0237e-06	1067.6	203.33	2.3745e-06	2.3142e-06	257.42	74.644	58.983	18.016	2.339e-06	24.663	0.00019515	0.00010967	3.4464e-05	969.91	1.8501e-06	1.2472e-06	1051.8	202.22	1.8435e-06	1.2279e-06	255.26	75.098	59.3	18.115	1.4839e-06	24.954	-103.124	-90.410	-81.756	-158.401	-8.282	-15.154	-158.328	-150.791	-30.467	4.205	-151.284	-144.454	-144.219	-136.471	-7.778	-137.153	-8191	255	
1054.424	1	1	0	0	0.15236	0.20558	0.048583	0.04416	0.087628	0.053597	0.32292	0.28556	0.093886	0.13795	0.12018	0.26534	0.072984	0.15544	0.13922	0.10179	-2.4292	-3.0646	-3.0167	-3.0583	-3.2729	-2.9604	-3.0958	-3.2896	-2.9771	-3.1312	-3.275	-2.7125	-3.2417	-2.9208	-2.9625	-3.3375	171.272	-97.957	85.574	-143.792	-145.168	32.909	157.318	125.174	117.570	-76.195	-96.599	138.540	-97.850	149.066	8.578	128.423	0.00020344	0.00031994	6.9314e-05	987.69	2.5176e-06	3.2175e-06	1063.3	203.28	2.3161e-06	3.2518e-06	258.21	75.023	59.037	18.091	2.8267e-06	24.68	0.00020014	0.00010617	2.5249e-05	969.82	1.6082e-06	1.2567e-06	1048.7	202.04	1.7289e-06	1.0545e-06	255.7	75.043	59.227	18.169	1.492e-06	24.913	-100.169	-91.643	-74.706	-158.666	-14.010	-19.185	-158.553	-150.767	-31.818	-14.979	-151.570	-144.720	-143.920	-136.314	-1.004	-137.593	-8191	255	
1054.544	1	1	0	0	0.32584	0.22231	0.21033	0.18224	0.13301	0.10298	0.085433	0.16863	0.065515	0.082259	0.27046	0.23475	0.33161	0.18323	0.23523	0.37544	-2.5375	-2.9458	-3.0687	-2.9458	-3.1417	-3.0917	-3.0604	-3.2354	-2.9604	-2.9625	-3.3063	-2.9313	-3.2	-3.1188	-2.725	-3.2729	31.383	6.122	133.246	185.348	143.580	7.551	184.535	140.260	-2.908	97.619	155.337	160.526	-15.275	5.100	85.559	98.887	0.00020183	0.00027971	9.0341e-05	984.43	3.3945e-06	3.4186e-06	1061.3	203.97	2.6607e-06	3.1259e-06	257.18	74.495	58.953	17.767	3.188e-06	24.635	0.00019456	9.6252e-05	2.9741e-05	967.65	1.7023e-06	1.2633e-06	1047.7	202.25	1.9098e-06	1.1161e-06	255.3	74.926	59.107	18.063	1.445e-06	24.948	-102.653	-72.358	-74.262	-158.279	-29.667	-31.595	-158.601	-150.729	-14.494	-15.254	-151.589	-144.575	-143.928	-136.902	-20.693	-137.529	-8191	255	
1054.640	1	1	0	0	0.076722	0.13023	0.26029	0.14963	0.080292	0.12817	0.19973	0.14111	0.11879	0.17585	0.22679	0.18313	0.27868	0.1123	0.29772	0.18328	-2.5	-2.9688	-3.1542	-3.0896	-3.0208	-3.0104	-2.8021	-3.3667	-3.0979	-2.9021	-3.3583	-2.9125	-2.9792	-3.1583	-2.8625	-3.2625	114.387	-88.105	-30.922	157.505	53.027	72.224	82.086	3.047	-140.378	-34.732	-163.158	-53.774	172.449	31.329	-124.845	-142.210	0.00018374	0.00025247	8.7162e-05	985.35	2.1621e-06	2.5493e-06	1059.6	203.37	2.5007e-06	3.0064e-06	256.7	74.936	58.963	18	2.7875e-06	24.891	0.00018965	0.00010389	2.4328e-05	966.97	1.7538e-06	9.6309e-07	1045.5	201.76	1.8074e-06	1.1805e-06	255.04	75.12	59.191	18.12	1.3291e-06	24.974	-102.278	-78.349	-60.168	-158.721	-16.049	-20.460	-158.557	-150.910	-32.623	-26.423	-151.477	-144.617	-143.712	-136.943	-4.966	-137.174	-8191	255	
1054.737	1	1	0	0	0.22636	0.20979	0.14521	0.30759	0.23793	0.28405	0.21825	0.15007	0.3055	0.28141	0.1061	0.042225	0.076599	0.23515	0.14359	0.19436	-2.5812	-2.8167	-3.2271	-3.1271	-3.0896	-3.275	-2.9021	-3.2354	-3.0792	-3.1188	-3.2062	-2.8917	-3.1333	-3.0896	-2.8354	-3.2687	-27.241	154.971	-133.039	-167.515	-97.197	-132.271	148.301	-78.558	-77.921	-87.664	-122.586	-122.453	147.930	-118.694	-166.220	-137.216	0.00018845	0.00031106	9.9033e-05	979.54	2.8112e-06	3.5771e-06	1063.2	204.85	2.7415e-06	2.9105e-06	258.05	74.334	59.097	17.953	2.1862e-06	24.754	0.00018237	0.00012975	2.4282e-05	965.53	1.721e-06	1.0739e-06	1046.7	202.37	1.8024e-06	1.1606e-06	255.29	74.829	59.16	18.128	1.3688e-06	24.955	-100.010	-76.162	-91.380	-158.270	-15.384	-16.556	-158.567	-150.733	-32.870	-13.715	-151.535	-144.329	-144.133	-136.656	-0.046	-137.541	-8191	255	
1054.833	1	1	0	0	0.13408	0.10986	0.11375	0.2311	0.091826	0.064011	0.2396	0.067512	0.15701	0.04596	0.25025	0.10002	0.075367	0.14378	0.084588	0.10848	-2.7188	-2.7208	-3.3187	-3.3042	-2.9958	-3.4125	-2.9354	-3.1646	-3	-2.7521	-3.1667	-3.1042	-2.9604	-3.4062	-2.8104	-3.1979	173.332	-12.737	-13.024	117.762	-58.328	107.434	164.973	95.994	178.654	121.074	-158.516	-61.831	-85.443	-131.459	-132.147	153.384	0.00018961	0.00022666	9.6211e-05	986.24	2.6206e-06	3.5029e-06	1060	203.54	2.6581e-06	2.3132e-06	257.85	74.784	59.241	18.007	1.6931e-06	24.864	0.00019066	0.000133	2.6631e-05	968.31	1.7725e-06	1.1089e-06	1045.7	202.07	1.6063e-06	1.0971e-06	255.48	74.958	59.231	18.12	1.3818e-06	24.967	-100.685	-75.901	-74.645	-158.394	-28.681	-26.432	-158.534	-150.756	-29.719	-29.599	-151.294	-144.558	-143.786	-136.863	-15.044	-137.263	-8191	255	
1054.929	1	1	0	0	0.11621	0.23252	0.034721	0.29835	0.22205	0.09529	0.133	0.20503	0.069463	0.15821	0.21933	0.13608	0.11355	0.12639	0.19325	0.1356	-2.7104	-2.7687	-3.2292	-3.0125	-2.8438	-3.3042	-3.0646	-3.0521	-3.2667	-2.7958	-3.3917	-3.0187	-2.9979	-3.3312	-2.9729	-2.9938	-22.075	113.818	-127.826	-154.055	-114.028	177.448	100.824	145.758	49.713	-30.087	110.314	102.195	46.493	41.852	117.002	75.382	0.00019204	0.00027249	8.4922e-05	983.42	2.7161e-06	2.9664e-06	1059.1	203.7	2.634e-06	2.2674e-06	257.22	74.395	59.163	18.062	2.7239e-06	24.794	0.00019203	0.00012658	2.1909e-05	966.55	1.8315e-06	8.4756e-07	1044.8	201.99	1.6402e-06	1.2156e-06	254.95	74.823	59.247	18.127	1.3542e-06	24.992	-100.214	-74.887	-65.718	-158.433	-19.780	-2.060	-158.442	-150.936	-38.512	-5.690	-151.499	-144.551	-144.093	-136.468	-24.871	-137.271	-8191	255	
1055.025	1	1	0	0	0.17302	0.11949	0.35885	0.10664	0.13244	0.27254	0.17461	0.32346	0.096517	0.095727	0.13154	0.068141	0.15769	0.14072	0.13149	0.11461	-2.8083	-2.8604	-3.0854	-3.0042	-2.875	-3.2938	-3.25	-3.0708	-3.1354	-2.8604	-3.0563	-3.0583	-2.7854	-3.3667	-3.1188	-2.8396	-121.042	124.208	50.037	-119.676	72.320	-69.101	182.156	122.684	-132.262	120.805	-97.319	65.572	72.459	-117.539	98.918	84.003	0.00020212	0.00023079	0.00010096	983.9	1.9228e-06	2.5913e-06	1061.5	203.23	2.4822e-06	1.9425e-06	257.34	74.782	59.206	17.939	2.4803e-06	24.714	0.0001849	0.000113	2.8451e-05	966.12	1.8949e-06	1.0303e-06	1045	201.67	1.5392e-06	1.2203e-06	255.06	75.084	59.12	18.13	1.2302e-06	24.939	-104.082	-81.088	-75.672	-158.461	-26.703	-5.741	-158.353	-150.826	-25.243	-19.676	-151.464	-144.628	-143.703	-136.462	-26.260	-137.367	-8191	255	
1055.121	1	1	0	0	0.27098	0.11196	0.084041	0.35814	0.1873	0.071817	0.12403	0.17342	0.14302	0.07563	0.041125	0.29628	0.11674	0.031869	0.31988	0.069676	-2.7062	-2.7042	-3.1083	-3.2229	-2.8292	-3.2687	-2.9708	-2.75	-3.2062	-2.7125	-3.3438	-3.1125	-2.9	-3.1792	-3.1229	-3.1312	-9.379	67.449	-54.862	181.919	-133.768	2.317	-110.147	-16.156	96.217	-131.727	66.603	-122.601	-28.706	-134.627	-165.409	136.792	0.00018771	0.00026653	6.9459e-05	983.88	2.403e-06	3.1779e-06	1061.1	203.53	2.4706e-06	2.7478e-06	255.25	74.693	58.883	18.048	2.3058e-06	24.651	0.00018365	0.00012877	3.193e-05	966.32	1.7165e-06	9.915e-07	1044.3	201.77	1.5356e-06	1.064e-06	254.81	74.901	59.202	18.14	1.3258e-06	24.879	-101.874	-102.569	-78.794	-158.344	-26.003	-24.223	-158.658	-151.125	-29.189	-18.030	-151.191	-144.533	-143.587	-136.684	-25.490	-137.724	-8191	255	
1055.217	1	1	0	0	0.20571	0.021971	0.084682	0.10439	0.069926	0.18006	0.11792	0.33059	0.11438	0.19941	0.22163	0.025967	0.26093	0.30932	0.074392	0.1199	-2.9542	-2.9104	-2.8854	-3.1104	-2.8917	-3.275	-3.1583	-2.8979	-3.2375	-2.9354	-2.925	-3.2729	-2.8208	-3.2292	-3.0854	-2.8292	64.795	-88.693	-82.851	156.006	178.600	-43.971	144.396	170.352	89.325	90.870	161.687	97.235	178.858	126.331	-154.727	110.760	0.00020779	0.0002546	7.5674e-05	980.4	3.102e-06	3.0331e-06	1061.2	202.29	2.1214e-06	2.4589e-06	257.16	74.673	59.11	17.916	2.2194e-06	24.547	0.00018698	0.00010609	2.9926e-05	964.79	1.9061e-06	7.8127e-07	1044.8	201.44	1.594e-06	1.1019e-06	255.15	74.966	59.095	18.13	1.21e-06	24.963	-101.453	-75.905	-73.826	-158.368	-28.164	-2.912	-158.345	-150.891	-40.847	-22.153	-151.656	-144.673	-143.948	-136.492	-5.922	-137.838	-8191	255	
1055.336	1	1	0	0	0.084717	0.31422	0.31026	0.29383	0.20454	0.07381	0.19313	0.19623	0.056341	0.10947	0.2155	0.057448	0.23695	0.19262	0.28278	0.36494	-2.7292	-2.9167	-3.2208	-3.2229	-2.8104	-3.1271	-3.1354	-2.9188	-3.2458	-2.8979	-2.9771	-3.2812	-2.8021	-3.2896	-3.1875	-2.8917	-26.588	59.655	-87.820	115.519	46.441	172.860	132.494	157.455	-12.397	-19.939	89.882	-145.247	-96.381	157.435	-52.604	-29.277	0.00019102	0.00037538	8.158e-05	982.75	2.643e-06	3.5633e-06	1058.1	203.26	2.7256e-06	2.5484e-06	256.98	74.894	59.343	17.938	2.1756e-06	24.693	0.00018249	0.00012779	3.1285e-05	965.79	1.7702e-06	1.0521e-06	1043.9	201.82	1.6452e-06	1.0062e-06	254.58	74.974	59.197	18.121	1.2853e-06	24.924	-101.602	-81.407	-76.010	-158.398	-16.055	-7.852	-158.544	-150.811	-22.303	-30.832	-151.561	-144.697	-143.920	-136.400	-28.087	-137.715	-8191	255	
1055.432	1	1	0	0	0.07164	0.13603	0.29919	0.24415	0.24898	0.22982	0.11284	0.40964	0.068433	0.18078	0.10037	0.12594	0.038739	0.20529	0.21379	0.17883	-2.9417	-2.9167	-2.8292	-3.5042	-2.9938	-3.1583	-3.2083	-2.9375	-3.3354	-2.9938	-2.6167	-3.1604	-2.8292	-2.8146	-3.0417	-2.6125	-166.310	-150.156	168.074	163.465	101.631	-137.345	87.911	84.579	43.273	82.880	-70.318	78.568	183.164	37.794	-23.852	-131.462	0.00020414	0.00023669	9.039e-05	981.12	1.4836e-06	3.1212e-06	1065.9	203.34	2.2823e-06	2.2636e-06	256.29	74.612	59.007	17.97	2.9613e-06	24.544	0.0001882	0.00010747	3.5247e-05	965.29	1.9188e-06	1.2462e-06	1044.7	201.59	1.5601e-06	1.1606e-06	254.56	75.018	59.18	18.16	1.3396e-06	24.947	-103.314	-93.024	-76.322	-158.559	-12.772	-29.941	-158.693	-151.006	-29.232	-21.666	-151.322	-144.676	-143.953	-136.772	-17.778	-137.605	-8191	255	
1055.529	1	1	0	0	0.36682	0.099746	0.2395	0.14843	0.16605	0.12314	0.21203	0.013902	0.21257	0.037361	0.24146	0.27959	0.14225	0.049209	0.12286	0.26605	-2.5708	-2.5812	-2.5021	-3.1896	-2.6813	-2.8604	-3.0687	-2.7083	-2.9354	-2.9292	-2.7812	-3.1396	-2.9375	-2.8563	-2.8792	-2.6771	82.847	-90.176	-117.034	142.689	169.452	-28.862	111.513	-17.056	-104.445	-111.355	150.424	155.013	-156.695	67.080	47.192	78.083	0.00019753	0.00033363	6.9729e-05	984.01	2.6823e-06	2.5388e-06	1054.8	203.43	2.7009e-06	3.1897e-06	257.32	74.737	59.098	18.023	2.7432e-06	24.725	0.00019144	0.00011609	2.7161e-05	965.48	1.8434e-06	1.0758e-06	1043.1	201.83	1.6611e-06	1.1085e-06	254.72	75.032	59.286	18.142	1.4118e-06	24.976	-100.032	-87.018	-84.343	-158.341	-1.668	-33.235	-158.501	-150.897	-26.842	-11.822	-151.272	-144.409	-143.874	-136.599	-17.816	-137.457	-8191	255	
1055.625	1	1	0	0	0.19384	0.12028	0.23145	0.093417	0.18516	0.077608	0.31481	0.17915	0.11675	0.31259	0.21741	0.21003	0.060729	0.18246	0.092259	0.25325	-2.4979	-2.9333	-2.5021	-3.0854	-2.7042	-2.4646	-3.2958	-2.7104	-2.9625	-2.7625	-2.5125	-3.1333	-2.8688	-2.7479	-3.1188	-2.7062	-167.236	-122.195	127.549	-107.317	-96.124	22.997	-146.128	60.454	-77.043	146.271	185.235	-149.156	85.387	85.025	24.065	-74.661	0.00019327	0.00025278	5.9832e-05	982.74	2.7359e-06	2.5133e-06	1057.9	202.75	2.6234e-06	3.7378e-06	256.25	74.895	58.971	18.046	2.7932e-06	24.735	0.0001928	0.00010097	3.0755e-05	964.36	1.9024e-06	1.1061e-06	1042.6	201.56	1.7209e-06	1.0469e-06	254.55	74.841	59.09	18.117	1.2788e-06	24.961	-103.192	-82.886	-67.644	-158.443	-22.864	-17.734	-158.429	-151.054	-23.434	-27.945	-151.344	-144.736	-143.634	-136.558	-15.109	-137.389	-8191	255	
1055.721	1	1	0	0	0.068136	0.095161	0.23874	0.2456	0.048732	0.27739	0.2191	0.2296	0.061466	0.063045	0.2191	0.027076	0.080608	0.25778	0.19011	0.20218	-2.5812	-2.9562	-2.6833	-3.0229	-2.6521	-2.6354	-3.2208	-2.8021	-2.8438	-2.9125	-2.725	-2.9417	-2.9688	-2.6354	-3.1042	-2.7938	96.347	-154.141	143.968	-140.776	-82.185	163.808	-83.594	130.062	106.584	-58.030	-163.640	-119.267	-156.070	102.148	175.593	147.892	0.00020618	0.00035334	7.6856e-05	977.72	2.4658e-06	2.7654e-06	1058.7	202.52	2.3441e-06	2.8212e-06	256.65	74.4	59.321	17.912	2.9221e-06	24.606	0.00019646	0.00011186	3.6077e-05	963.17	2.0383e-06	1.3286e-06	1042.8	201.2	1.594e-06	1.2383e-06	254.42	74.949	59.165	18.088	1.3647e-06	24.914	-101.906	-79.488	-73.694	-158.460	-40.535	-36.657	-158.518	-150.606	-35.712	-14.759	-151.502	-144.460	-143.934	-136.081	-12.080	-137.214	-8191	255	
1055.817	1	1	0	0	0.21962	0.11177	0.17166	0.19145	0.18079	0.062023	0.30981	0.30511	0.21077	0.085173	0.30052	0.11839	0.077015	0.27268	0.23359	0.40761	-2.3688	-2.8979	-2.5812	-3.1771	-2.6021	-2.6125	-3.0396	-2.7771	-2.5583	-3.025	-2.7479	-2.9167	-2.8854	-2.6208	-2.9646	-2.9208	71.951	17.041	2.851	166.297	-134.451	-156.528	146.920	-144.847	-163.711	96.709	-107.296	-19.305	189.529	100.284	63.476	161.949	0.00019278	0.00032175	9.711e-05	977.54	2.4599e-06	3.36e-06	1057.1	202.27	2.4807e-06	2.9449e-06	256.51	74.622	59.289	17.955	2.4955e-06	24.596	0.00019372	0.00010389	3.868e-05	963.07	1.5515e-06	1.054e-06	1041.1	201.44	1.6604e-06	1.0725e-06	254.18	74.816	59.194	18.11	1.351e-06	24.905	-98.907	-74.512	-68.383	-158.331	-41.576	-12.529	-158.348	-150.794	-32.847	-5.746	-151.841	-144.557	-144.037	-136.775	-22.440	-137.499	-8191	255	
#DATA ENDS
