BOXY.EXE: ISS Imagent and Oximeter Data Acquisition Program Version 0.80
Ascii Record File

#ACQ INFORMATION
2  Detector Channels 
16  External MUX Channels 
1  Auxiliary Channels 
5000  Waveform (CCF) Frequency (Hz)
1  Waveforms Skipped 
30  Waveforms Averaged 
1  Cycles Averaged 
16  Acquisitions per Waveform 
10.0806  Updata Rate (Hz) 

#FILE INFORMATION
TRUE -- External MUX Channel results are PARSED.
FALSE -- AC DC and Phase are NOT grouped.
TRUE -- Companion Program Settings File CREATED.
FALSE -- AC data not excluded
FALSE -- DC data not excluded
FALSE -- Phase data not excluded
FALSE -- Auxillary Chn. data not excluded
Tab delimiters

#CALIBRATION STATE
TRUE -- Waveform Calibration Values APPLIED.


#AUX CALIBRATION VALUES
Val Type	aux-1	

Term	1.0000e+00	
Factor	0.0000e+00	


#WF CALIBRATION VALUES
A = Detector Channel
Val Type	A-AC1	A-AC2	A-AC3	A-AC4	A-AC5	A-AC6	A-AC7	A-AC8	A-AC9	A-AC10	A-AC11	A-AC12	A-AC13	A-AC14	A-AC15	A-AC16	A-DC1	A-DC2	A-DC3	A-DC4	A-DC5	A-DC6	A-DC7	A-DC8	A-DC9	A-DC10	A-DC11	A-DC12	A-DC13	A-DC14	A-DC15	A-DC16	A-Ph1	A-Ph2	A-Ph3	A-Ph4	A-Ph5	A-Ph6	A-Ph7	A-Ph8	A-Ph9	A-Ph10	A-Ph11	A-Ph12	A-Ph13	A-Ph14	A-Ph15	A-Ph16	

Term	0.00000e+00	0.00000e+00	0.00000e+00	0.00000e+00	0.00000e+00	0.00000e+00	0.00000e+00	0.00000e+00	0.00000e+00	0.00000e+00	0.00000e+00	0.00000e+00	0.00000e+00	0.00000e+00	0.00000e+00	0.00000e+00	0.00000e+00	0.00000e+00	0.00000e+00	0.00000e+00	0.00000e+00	0.00000e+00	0.00000e+00	0.00000e+00	0.00000e+00	0.00000e+00	0.00000e+00	0.00000e+00	0.00000e+00	0.00000e+00	0.00000e+00	0.00000e+00	0.00000e+00	0.00000e+00	0.00000e+00	0.00000e+00	0.00000e+00	0.00000e+00	0.00000e+00	0.00000e+00	0.00000e+00	0.00000e+00	0.00000e+00	0.00000e+00	0.00000e+00	0.00000e+00	0.00000e+00	0.00000e+00	
Factor	1.00000e+00	1.00000e+00	1.00000e+00	1.00000e+00	1.00000e+00	1.00000e+00	1.00000e+00	1.00000e+00	1.00000e+00	1.00000e+00	1.00000e+00	1.00000e+00	1.00000e+00	1.00000e+00	1.00000e+00	1.00000e+00	1.00000e+00	1.00000e+00	1.00000e+00	1.00000e+00	1.00000e+00	1.00000e+00	1.00000e+00	1.00000e+00	1.00000e+00	1.00000e+00	1.00000e+00	1.00000e+00	1.00000e+00	1.00000e+00	1.00000e+00	1.00000e+00	X	X	X	X	X	X	X	X	X	X	X	X	X	X	X	X	

B = Detector Channel
Val Type	B-AC1	B-AC2	B-AC3	B-AC4	B-AC5	B-AC6	B-AC7	B-AC8	B-AC9	B-AC10	B-AC11	B-AC12	B-AC13	B-AC14	B-AC15	B-AC16	B-DC1	B-DC2	B-DC3	B-DC4	B-DC5	B-DC6	B-DC7	B-DC8	B-DC9	B-DC10	B-DC11	B-DC12	B-DC13	B-DC14	B-DC15	B-DC16	B-Ph1	B-Ph2	B-Ph3	B-Ph4	B-Ph5	B-Ph6	B-Ph7	B-Ph8	B-Ph9	B-Ph10	B-Ph11	B-Ph12	B-Ph13	B-Ph14	B-Ph15	B-Ph16	

Term	0.00000e+00	0.00000e+00	0.00000e+00	0.00000e+00	0.00000e+00	0.00000e+00	0.00000e+00	0.00000e+00	0.00000e+00	0.00000e+00	0.00000e+00	0.00000e+00	0.00000e+00	0.00000e+00	0.00000e+00	0.00000e+00	0.00000e+00	0.00000e+00	0.00000e+00	0.00000e+00	0.00000e+00	0.00000e+00	0.00000e+00	0.00000e+00	0.00000e+00	0.00000e+00	0.00000e+00	0.00000e+00	0.00000e+00	0.00000e+00	0.00000e+00	0.00000e+00	-7.31199e+01	-1.32799e+02	-1.26468e+02	-1.82714e+02	-5.26673e+01	-6.72776e+01	-1.58600e+02	-1.62015e+02	-4.81301e+01	-6.81745e+01	-1.74789e+02	-1.71091e+02	-1.81647e+02	-1.76664e+02	-5.28905e+01	-1.49745e+02	
Factor	1.45622e-05	1.40397e-04	4.03230e-05	1.48927e-01	1.29784e-06	1.50963e-06	1.69133e-01	4.23035e-02	9.54360e-07	1.51249e-06	7.52042e-02	2.43297e-02	1.97584e-02	7.93508e-03	1.28624e-06	1.14015e-02	1.42596e-05	3.90213e-05	1.10580e-05	7.54603e-02	3.58379e-07	4.54558e-07	8.02644e-02	2.15652e-02	3.46059e-07	4.54774e-07	3.70643e-02	1.20591e-02	1.01503e-02	4.07504e-03	3.89001e-07	5.66024e-03	X	X	X	X	X	X	X	X	X	X	X	X	X	X	X	X	



#DISTANCE SETTINGS
A = Detector Channel
A-1	A-2	A-3	A-4	A-5	A-6	A-7	A-8	A-9	A-10	A-11	A-12	A-13	A-14	A-15	A-16	

2.5000e+00	3.0000e+00	2.5000e+00	3.0000e+00	2.0000e+00	3.0000e+00	1.5000e+00	3.0000e+00	3.0000e+00	3.0000e+00	3.0000e+00	3.0000e+00	3.0000e+00	3.0000e+00	1.5000e+00	3.0000e+00	

B = Detector Channel
B-1	B-2	B-3	B-4	B-5	B-6	B-7	B-8	B-9	B-10	B-11	B-12	B-13	B-14	B-15	B-16	

1.0000e+01	1.0000e+01	1.0000e+01	1.4400e+00	1.0000e+01	1.0000e+01	1.5100e+00	1.9400e+00	1.0000e+01	1.0000e+01	1.9900e+00	2.4900e+00	2.4100e+00	2.9000e+00	1.0000e+01	2.9800e+00	




#DATA BEGINS
time	group	step	mark	flag	A-AC1	A-AC2	A-AC3	A-AC4	A-AC5	A-AC6	A-AC7	A-AC8	A-AC9	A-AC10	A-AC11	A-AC12	A-AC13	A-AC14	A-AC15	A-AC16	A-DC1	A-DC2	A-DC3	A-DC4	A-DC5	A-DC6	A-DC7	A-DC8	A-DC9	A-DC10	A-DC11	A-DC12	A-DC13	A-DC14	A-DC15	A-DC16	A-Ph1	A-Ph2	A-Ph3	A-Ph4	A-Ph5	A-Ph6	A-Ph7	A-Ph8	A-Ph9	A-Ph10	A-Ph11	A-Ph12	A-Ph13	A-Ph14	A-Ph15	A-Ph16	B-AC1	B-AC2	B-AC3	B-AC4	B-AC5	B-AC6	B-AC7	B-AC8	B-AC9	B-AC10	B-AC11	B-AC12	B-AC13	B-AC14	B-AC15	B-AC16	B-DC1	B-DC2	B-DC3	B-DC4	B-DC5	B-DC6	B-DC7	B-DC8	B-DC9	B-DC10	B-DC11	B-DC12	B-DC13	B-DC14	B-DC15	B-DC16	B-Ph1	B-Ph2	B-Ph3	B-Ph4	B-Ph5	B-Ph6	B-Ph7	B-Ph8	B-Ph9	B-Ph10	B-Ph11	B-Ph12	B-Ph13	B-Ph14	B-Ph15	B-Ph16	aux-1	digaux	

1079.538	1	1	0	256	0.12923	0.26986	0.12322	0.19537	0.32598	0.29608	0.064289	0.10856	0.40656	0.19815	0.19614	0.10075	0.30831	0.43639	0.086411	0.30542	-2.3208	-2.8792	-2.5708	-3.15	-2.7271	-2.7687	-3.1396	-2.6312	-2.8917	-3.0187	-2.7188	-3.1667	-2.8167	-2.7833	-3.2	-2.7	-90.532	-49.917	9.601	-172.888	-11.914	-134.853	-151.616	69.244	61.413	-36.636	86.564	-16.809	167.008	-160.680	-120.825	104.095	0.00043602	0.00055627	0.00015136	1372.7	3.9576e-06	4.4859e-06	1367.4	364.33	4.4054e-06	4.2312e-06	412.85	138.63	119.67	40.809	5.0264e-06	51.768	0.00046403	0.00038371	0.00010913	1388.6	4.5962e-06	4.1753e-06	1387	370.36	4.5514e-06	3.9707e-06	418.63	141.35	122.22	41.996	4.4216e-06	52.899	-105.692	-89.665	-84.885	-161.018	-28.666	-20.088	-161.084	-156.236	-35.566	-7.334	-156.970	-152.378	-151.825	-147.497	-26.235	-148.239	-8191	255	
1079.657	1	1	0	0	0.20593	0.11179	0.098568	0.16232	0.061304	0.11251	0.12469	0.1926	0.22042	0.1824	0.35304	0.085629	0.15089	0.12119	0.1031	0.29141	-2.2479	-2.8146	-2.6542	-3.3104	-2.8438	-2.6792	-3.1	-2.9271	-2.8521	-2.8021	-2.7833	-3.1	-2.9896	-2.6792	-2.975	-2.8167	-56.304	-144.614	132.225	150.270	63.086	-8.899	-169.237	135.290	-96.634	17.906	99.604	68.777	177.891	136.937	-58.445	164.300	0.00045309	0.00040111	0.00012837	1370.9	5.5106e-06	5.1168e-06	1368.7	363.96	4.3952e-06	3.968e-06	413.4	138.08	119.69	41	4.5255e-06	51.33	0.00047336	0.00035753	0.00010307	1387.4	4.6067e-06	4.2463e-06	1387.3	370.24	4.7136e-06	4.3374e-06	418.88	141.33	121.91	42.042	4.1185e-06	52.801	-104.182	-94.519	-76.171	-161.055	-25.890	-18.669	-161.015	-156.292	-34.569	-20.944	-157.086	-152.523	-151.768	-147.179	-19.172	-148.448	-8191	255	
1079.729	1	1	0	0	0.15746	0.13942	0.20332	0.18542	0.1572	0.13791	0.36231	0.19208	0.1429	0.085745	0.14087	0.18737	0.05398	0.041271	0.12479	0.16619	-2.3979	-2.9896	-2.5479	-3.1833	-2.8521	-2.6792	-3.2958	-2.9354	-2.7771	-2.9813	-2.8083	-3.1542	-2.9313	-2.6646	-3.0896	-2.8563	-42.762	23.994	-155.619	183.133	70.559	98.779	156.613	62.601	-23.332	-158.864	-13.965	136.820	102.171	-19.446	-0.395	159.229	0.0004397	0.00046321	0.00012731	1375.6	5.898e-06	5.5596e-06	1373.6	362.68	4.8488e-06	4.7214e-06	412.84	138.57	119.26	41.057	4.9162e-06	51.342	0.00046005	0.00038477	0.00010821	1388.4	4.812e-06	4.3353e-06	1387.7	369.84	4.7554e-06	3.9385e-06	418.03	141.21	122.02	42.019	4.3366e-06	52.746	-105.964	-82.896	-78.370	-160.992	-39.102	-27.857	-161.051	-156.191	-31.693	-19.985	-156.993	-152.510	-151.891	-147.510	-21.643	-148.442	-8191	255	
1079.825	1	1	0	0	0.17574	0.31321	0.11292	0.12843	0.30989	0.39145	0.10009	0.26625	0.32873	0.06421	0.17732	0.16144	0.15131	0.12384	0.094929	0.27242	-2.175	-2.9521	-2.4375	-3.0312	-2.8625	-2.4375	-3.3333	-3.0792	-2.7375	-3.1875	-2.7104	-2.9604	-2.9396	-2.6125	-2.9854	-3.0417	26.651	-130.184	161.324	-78.495	-93.777	43.404	-153.051	149.176	43.264	44.787	-110.027	-82.436	72.489	151.151	-18.257	160.457	0.00045079	0.00054698	0.00013119	1369.8	5.5756e-06	5.9961e-06	1369.4	363.77	5.0125e-06	4.7239e-06	412.22	138.21	119.63	40.916	4.5897e-06	51.59	0.00046983	0.00036696	0.00010567	1386.6	4.3424e-06	4.4727e-06	1385.7	369.97	4.6941e-06	3.8883e-06	418.48	141.38	121.99	41.991	4.3471e-06	52.877	-104.787	-84.582	-73.373	-160.884	-32.428	-19.465	-161.200	-156.364	-34.291	-24.658	-156.915	-152.312	-152.087	-147.349	-21.821	-148.155	-8191	255	
1079.945	1	1	0	0	0.13349	0.033396	0.29195	0.15735	0.050996	0.10518	0.15887	0.39702	0.25964	0.11893	0.13322	0.1899	0.3707	0.33208	0.13611	0.12063	-2.1354	-2.9125	-2.6083	-2.9354	-2.9771	-2.6188	-3.2458	-3.075	-2.4271	-2.9917	-2.8708	-2.7417	-3.0854	-2.7125	-2.8875	-2.9167	-128.088	-75.135	-52.283	97.472	-36.401	124.106	-165.242	124.564	-41.105	145.664	-161.898	142.337	-131.266	-115.324	179.976	-52.618	0.00045821	0.00054466	0.0001333	1369.8	4.6245e-06	4.5268e-06	1369.3	362.98	4.4964e-06	4.8603e-06	412.14	137.9	119.44	41.085	4.194e-06	51.574	0.0004736	0.00036347	0.00010708	1386.5	4.3446e-06	4.0418e-06	1386.2	369.8	4.728e-06	3.9603e-06	418.09	141.16	122.08	42.031	4.3568e-06	52.827	-103.419	-89.475	-81.865	-160.860	-33.527	-23.639	-161.016	-156.285	-30.939	-39.622	-156.854	-152.413	-151.835	-147.577	-30.966	-148.232	-8191	255	
1080.042	1	1	0	0	0.14571	0.06025	0.1169	0.269	0.12561	0.10698	0.16868	0.34436	0.070455	0.24092	0.06817	0.022256	0.054135	0.19535	0.066987	0.16696	-2.0792	-3.1375	-2.75	-2.7188	-3.0104	-2.6333	-2.9083	-3.0104	-2.4313	-3.0958	-2.9354	-2.6958	-3.0042	-2.6083	-2.8271	-3.0771	-88.545	-23.680	66.138	145.294	-76.029	-129.467	-32.903	155.228	157.768	163.958	132.257	-61.827	-122.010	140.832	-52.265	89.005	0.00046295	0.00055343	0.00012953	1373.6	5.0937e-06	4.2726e-06	1368.7	364.86	4.2266e-06	5.7672e-06	412.76	137.84	119.54	41.101	4.5419e-06	51.439	0.00046968	0.0003881	0.0001007	1388.2	4.2744e-06	3.788e-06	1387.1	370.37	4.6386e-06	3.9707e-06	418.53	141.16	122.1	42.075	4.3803e-06	52.785	-105.269	-81.507	-86.640	-160.840	-32.994	-25.358	-161.107	-156.185	-35.452	-30.391	-156.884	-152.390	-151.929	-147.207	-29.546	-148.152	-8191	255	
1080.138	1	1	0	0	0.23051	0.39224	0.33096	0.2471	0.028451	0.097636	0.30468	0.27146	0.21804	0.44276	0.28069	0.15202	0.22415	0.081132	0.11677	0.12475	-2.1271	-2.8854	-2.7271	-2.8167	-3.0958	-2.7125	-3.0062	-3.1125	-2.5896	-2.9375	-2.9833	-2.5667	-3.3667	-2.8	-2.7938	-3.1792	58.151	85.793	-102.252	143.173	22.332	-91.860	147.305	143.305	96.258	119.445	73.530	135.791	160.155	128.726	92.922	-148.149	0.00045006	0.00059186	0.00013465	1370.4	4.4511e-06	4.8845e-06	1371.6	363.48	4.7055e-06	5.5373e-06	412.55	138.22	119.37	41.029	3.8727e-06	51.492	0.0004577	0.00037005	0.00010309	1388.4	4.3013e-06	3.9253e-06	1388	370.1	4.6264e-06	3.9859e-06	418.55	141.34	122.02	42.033	4.2944e-06	52.811	-105.604	-86.580	-84.782	-160.828	-31.129	-19.631	-161.119	-156.146	-36.533	-18.774	-156.894	-152.392	-151.888	-147.393	-19.210	-148.385	-8191	255	
1080.258	1	1	0	0	0.20414	0.032197	0.21238	0.26528	0.12797	0.080995	0.2683	0.22062	0.26093	0.22547	0.19856	0.26643	0.13015	0.24523	0.27296	0.14245	-2.1146	-2.8125	-2.6854	-2.8271	-2.9417	-2.3896	-3.1729	-3.1667	-2.7625	-2.9938	-3.0917	-2.7167	-3.1917	-2.9354	-2.6333	-3.2771	-2.591	127.041	107.600	140.077	-23.334	-143.452	-173.887	126.433	9.221	-160.264	170.101	143.027	168.360	-135.414	-99.135	72.107	0.00045052	0.0005401	0.00013944	1375	4.7461e-06	3.7177e-06	1367.6	363.31	4.3952e-06	5.1108e-06	411.22	138.26	119.76	40.989	4.6334e-06	51.384	0.00046478	0.0003707	0.00010358	1388.5	4.196e-06	4.0759e-06	1388.4	369.61	4.5305e-06	4.0513e-06	418.25	141.26	122.2	42.063	4.7288e-06	52.879	-105.399	-93.228	-86.240	-160.836	-28.731	-17.724	-161.002	-156.133	-31.995	-25.242	-156.981	-152.268	-151.953	-147.511	-20.685	-148.085	-8191	255	
1080.330	1	1	0	0	0.1742	0.46755	0.011188	0.62543	0.048336	0.17278	0.055676	0.24494	0.1248	0.23108	0.14838	0.094273	0.35625	0.23399	0.021362	0.4836	-2.2083	-2.9417	-2.8312	-2.6771	-3.0938	-2.7687	-2.8083	-3.2167	-2.6437	-2.8979	-3.0833	-2.6417	-3.0542	-2.9021	-2.6646	-3.0667	-159.019	34.078	42.946	148.932	117.029	-18.220	119.663	158.194	-127.352	73.184	138.821	157.981	139.065	-140.363	40.803	138.528	0.0004613	0.00038472	0.00015101	1372.5	4.9996e-06	5.3726e-06	1376.2	363.94	3.9995e-06	5.4027e-06	412.88	138.34	119.21	41.122	4.074e-06	51.537	0.00047069	0.00036095	0.0001015	1389.7	4.3476e-06	3.9528e-06	1390.1	370.55	4.5586e-06	4.0636e-06	418.88	141.39	122.06	42.035	4.3973e-06	52.879	-104.775	-82.941	-79.388	-160.968	-23.509	-11.764	-161.194	-156.212	-35.696	-21.646	-157.059	-152.512	-151.666	-147.414	-30.190	-148.171	-8191	255	
1080.424	1	1	0	0	0.36105	0.12344	0.16187	0.20846	0.12235	0.14011	0.091885	0.22867	0.22613	0.25299	0.19824	0.14053	0.38548	0.21624	0.20778	0.19195	-2.1875	-2.8021	-3.0167	-2.7896	-2.9729	-2.7833	-2.8521	-3.1833	-2.7125	-2.8792	-3.2229	-2.6771	-2.975	-3.1437	-2.5125	-2.9583	128.485	-97.770	35.561	-61.561	67.114	-156.351	-80.997	126.490	-159.564	-44.297	180.044	111.758	162.018	138.494	173.950	-150.289	0.00045038	0.00052856	0.00012953	1378.4	4.7468e-06	4.7749e-06	1370.3	364.74	4.8196e-06	4.3426e-06	413.9	138.05	119.7	40.975	4.168e-06	51.584	0.00046816	0.00040436	0.00010252	1393.5	4.4372e-06	3.9111e-06	1390.3	370.95	4.5774e-06	4.0011e-06	419.3	141.42	122.34	42.01	4.3017e-06	52.867	-105.000	-93.675	-70.726	-160.946	-17.547	-24.716	-161.188	-156.150	-40.401	-27.457	-157.029	-152.381	-151.867	-147.539	-32.359	-148.226	-8191	255	
1080.521	1	1	0	0	0.082358	0.13923	0.096899	0.2968	0.15121	0.087633	0.13245	0.24974	0.089582	0.099829	0.15762	0.15363	0.18166	0.07541	0.052801	0.08426	-2.1667	-2.7021	-2.9333	-2.9625	-2.9125	-2.8438	-2.8396	-3.2208	-2.8146	-2.6583	-3.2896	-2.9021	-3.1021	-3.0771	-2.7146	-3.2104	-34.492	-96.375	167.461	149.183	35.880	-107.428	155.084	149.207	-159.921	132.190	118.528	160.876	-1.688	4.923	-162.764	-169.104	0.0004486	0.00041444	0.00012219	1377.6	4.5474e-06	4.8279e-06	1377	363.88	4.4225e-06	4.8867e-06	412.19	138.19	119.76	41.013	4.7393e-06	51.495	0.00047027	0.00038786	9.9407e-05	1393	4.3909e-06	4.1355e-06	1390.5	370.33	4.529e-06	4.1896e-06	418.82	141.35	122.27	42.009	4.2766e-06	52.815	-104.695	-78.075	-89.576	-160.972	-33.311	-29.013	-161.249	-156.215	-32.899	-18.164	-156.952	-152.456	-151.754	-147.538	-18.297	-148.219	-8191	255	
1080.641	1	1	0	0	0.18474	0.15627	0.070424	0.036954	0.041301	0.089594	0.27546	0.090939	0.045165	0.035271	0.24187	0.16588	0.08087	0.12795	0.18875	0.30321	-2.25	-2.7604	-3	-2.7833	-2.7125	-2.9875	-2.7771	-3.125	-2.6833	-2.7521	-3.325	-2.8187	-2.9708	-3.2583	-2.5146	-2.925	14.599	19.010	65.277	145.803	-96.903	4.660	144.936	-145.185	144.063	1.533	-93.611	-117.452	-96.136	-171.151	47.149	-155.756	0.00045257	0.00053981	0.00014869	1371.3	4.5149e-06	5.4916e-06	1375.2	363.55	4.4515e-06	4.3658e-06	410.91	138.18	119.76	41.038	4.6408e-06	51.433	0.00045765	0.00037282	0.00010176	1389.8	4.4865e-06	4.1062e-06	1389.5	370.25	4.6343e-06	4.1176e-06	418.72	141.24	122.29	42.061	4.4687e-06	52.825	-103.774	-90.270	-74.182	-160.902	-34.317	-33.301	-161.042	-156.146	-37.108	-38.894	-157.089	-152.549	-152.080	-147.368	-20.372	-148.023	-8191	255	
1080.737	1	1	0	0	0.1048	0.15368	0.31661	0.50907	0.044815	0.096506	0.1734	0.1448	0.0018189	0.1957	0.1626	0.1173	0.056227	0.13737	0.20755	0.069258	-2.4271	-2.6562	-2.9875	-2.8396	-2.7458	-2.9771	-2.7083	-3.0354	-2.8937	-2.6708	-3.0646	-2.9542	-2.8396	-3.1021	-2.7917	-3.1042	35.519	-42.952	-138.672	107.617	17.274	-34.089	171.430	42.282	180.000	-158.709	-173.923	-53.844	74.991	125.123	-157.212	-156.841	0.00044971	0.00045039	0.00012015	1371	6.4079e-06	4.5102e-06	1370.2	363.58	4.123e-06	5.3923e-06	411.37	137.94	119.86	40.996	4.8775e-06	51.478	0.00046579	0.00036591	9.4638e-05	1386.7	4.5215e-06	3.9774e-06	1389.4	370.19	4.4606e-06	3.9139e-06	418.35	141.2	122.28	42.048	4.2579e-06	52.812	-105.472	-103.026	-86.701	-160.967	-30.839	-21.710	-161.062	-156.231	-35.922	-32.895	-157.069	-152.397	-151.862	-147.574	-17.682	-147.970	-8191	255	
1080.834	1	1	0	0	0.16495	0.027328	0.18405	0.026613	0.24577	0.18603	0.39485	0.13716	0.33494	0.20845	0.14853	0.18166	0.17851	0.1886	0.078887	0.20949	-2.525	-2.5646	-3.0687	-3.0167	-2.9896	-3.0854	-2.7438	-2.9938	-2.6708	-2.5667	-3.1833	-2.8896	-2.7375	-2.9271	-2.7729	-2.8479	126.310	-85.693	90.419	-4.914	-13.108	-56.482	130.800	135.250	74.393	-89.289	-125.926	122.881	-120.174	133.326	-62.042	122.591	0.00047047	0.00052695	0.00014375	1374.4	4.2793e-06	4.6375e-06	1370.2	364.28	4.5716e-06	5.6709e-06	412.27	137.91	119.33	41.096	4.6192e-06	51.731	0.00046469	0.00037883	9.708e-05	1388.5	4.3774e-06	3.8173e-06	1388.7	370.56	4.4497e-06	3.984e-06	418.79	141.13	122.04	42.029	4.4135e-06	52.956	-106.903	-92.682	-76.474	-160.925	-31.511	-26.664	-161.223	-156.432	-34.394	-23.994	-156.789	-152.475	-151.840	-147.389	-21.749	-148.127	-8191	255	
1080.930	1	1	0	0	0.048899	0.14641	0.12818	0.13172	0.065242	0.12355	0.13811	0.070675	0.13937	0.087518	0.206	0.16924	0.3849	0.19929	0.14437	0.28298	-2.3937	-2.6208	-2.8542	-2.9708	-2.6312	-2.9479	-2.9188	-2.7542	-2.8937	-2.6333	-2.9708	-3.1021	-2.5938	-3.0521	-2.9396	-2.7438	51.045	33.001	-24.102	-154.068	-82.579	153.420	175.931	-93.411	-58.964	97.124	160.993	-151.227	151.386	184.720	-119.849	-52.344	0.00044599	0.00054796	0.00014148	1372.9	5.3109e-06	5.6625e-06	1371.8	364.17	4.5765e-06	4.8274e-06	411.38	138.14	119.84	41.019	4.4308e-06	51.41	0.00046822	0.00036875	0.00010342	1388.4	4.4193e-06	4.0778e-06	1387.8	370.46	4.4988e-06	3.9025e-06	418.06	141.43	122.15	41.981	4.3171e-06	52.815	-105.480	-81.729	-84.010	-160.968	-25.641	-28.748	-161.232	-156.253	-38.552	-20.341	-157.116	-152.373	-151.730	-147.463	-18.001	-148.041	-8191	255	
1081.026	1	1	0	0	0.13834	0.023397	0.049184	0.16075	0.20981	0.058006	0.20086	0.29286	0.14386	0.19134	0.084969	0.29588	0.33982	0.21802	0.045565	0.25085	-2.6625	-2.5708	-2.9708	-2.9333	-2.6333	-2.7271	-2.9938	-2.8104	-3.0604	-2.4896	-2.9417	-3.0479	-2.5979	-3.0979	-2.7542	-2.85	-21.241	-94.241	75.882	179.357	121.261	-64.148	107.277	172.235	-151.032	-167.300	91.582	104.451	184.502	-158.964	-55.445	-120.444	0.00044022	0.00039247	0.00016373	1373.7	3.965e-06	5.1928e-06	1370.6	363.09	4.2507e-06	4.9995e-06	410.94	138.55	119.31	41.07	4.3028e-06	51.596	0.00045147	0.00038257	0.000103	1389.2	4.4103e-06	4.1071e-06	1386.5	369.76	4.4166e-06	4.0285e-06	418.17	141.35	121.98	42.032	4.3876e-06	52.873	-104.500	-93.628	-77.287	-160.749	-21.070	-22.647	-161.064	-156.281	-34.835	-24.959	-157.073	-152.418	-151.897	-147.169	-33.783	-148.013	-8191	255	
1081.122	1	1	0	0	0.086117	0.2003	0.10461	0.24986	0.25184	0.20276	0.25002	0.42916	0.17461	0.14908	0.36264	0.20338	0.20547	0.23366	0.26692	0.091048	-2.7479	-2.525	-2.8917	-3.2042	-2.5708	-2.9083	-3.0042	-3.0771	-3.0438	-2.7438	-2.7708	-3.1208	-2.875	-3.0042	-2.7229	-2.7146	-67.328	117.927	96.972	146.896	-39.493	-132.524	-163.784	112.241	47.153	155.404	-153.093	98.380	165.324	159.790	-79.778	167.663	0.00044531	0.00045464	0.00013457	1373.3	3.6667e-06	4.7248e-06	1368.8	362.69	4.4195e-06	4.9595e-06	412.49	138.15	119.45	40.991	4.3003e-06	51.516	0.0004577	0.00036184	0.00010475	1387	4.467e-06	3.842e-06	1388.3	369.87	4.436e-06	4.3099e-06	418.5	141.22	122.1	41.99	4.262e-06	52.849	-105.813	-94.207	-83.581	-160.907	-20.112	-23.568	-160.889	-156.164	-36.157	-25.522	-157.104	-152.536	-151.932	-147.345	-19.450	-148.344	-8191	255	
1081.218	1	1	0	0	0.083715	0.10046	0.20982	0.36687	0.3587	0.10976	0.2292	0.33329	0.093322	0.18322	0.34384	0.089078	0.11774	0.1677	0.072386	0.19035	-2.6396	-2.6542	-2.6854	-3.325	-2.55	-2.9042	-2.9271	-2.8	-2.8812	-2.7292	-2.9521	-3.1854	-2.6688	-3.0125	-2.8792	-2.7979	-94.822	130.673	-102.348	142.439	117.755	-9.992	120.669	-127.299	55.626	91.789	131.709	120.624	4.606	172.718	101.159	109.449	0.00044961	0.00047917	0.00016203	1370.6	3.9118e-06	4.3796e-06	1373	364.31	3.8812e-06	4.7369e-06	411.2	138.27	119.66	41.036	4.4887e-06	51.388	0.00045845	0.00037217	0.00010929	1388.6	4.4342e-06	3.787e-06	1390.1	370.47	4.4836e-06	4.2303e-06	418.26	141.21	122.04	42.022	4.2604e-06	52.833	-106.355	-79.947	-72.060	-160.792	-28.260	-7.704	-161.285	-156.403	-33.932	-18.220	-157.166	-152.400	-151.767	-147.352	-22.291	-148.443	-8191	255	
1081.339	1	1	0	0	0.32667	0.26086	0.16507	0.36384	0.23244	0.11483	0.36997	0.2729	0.15226	0.10043	0.083579	0.3021	0.16192	0.10115	0.11125	0.14391	-2.5979	-2.8021	-2.825	-3.125	-2.6333	-3.1521	-3.0896	-2.6667	-2.8729	-2.7833	-2.7396	-3.0583	-2.7729	-2.6896	-3.0458	-2.6021	33.675	-27.646	-107.443	165.587	-167.691	-73.145	160.110	73.277	14.334	162.806	70.790	161.517	115.909	-137.634	-93.831	-172.552	0.00044297	0.00048515	0.00014922	1374.1	3.855e-06	4.6144e-06	1374.7	364.38	4.7517e-06	4.8947e-06	412.83	138.33	119.51	41.095	4.9843e-06	51.665	0.00045167	0.00038786	0.00010408	1389.3	4.6552e-06	3.8117e-06	1388.1	370.09	4.4007e-06	4.0712e-06	418.65	141.33	122.04	42.055	4.1639e-06	52.863	-105.092	-92.222	-84.634	-160.894	-16.543	-26.934	-161.108	-156.354	-33.738	-23.567	-157.019	-152.413	-151.939	-147.331	-23.210	-148.127	-8191	255	
1081.433	1	1	0	0	0.20584	0.1962	0.15109	0.20746	0.26641	0.19959	0.20956	0.12845	0.17075	0.15216	0.22392	0.16501	0.15914	0.18405	0.10913	0.094966	-2.4854	-2.6083	-2.6542	-2.9958	-2.6333	-2.675	-3.1604	-2.7729	-2.8563	-2.8208	-2.6271	-2.8292	-2.8083	-2.7667	-3.0583	-2.8187	-113.005	-16.118	-90.997	127.985	99.178	0.871	166.351	108.751	31.516	-126.711	174.783	185.107	-51.570	-24.169	-15.562	169.537	0.00043944	0.00055415	0.00016799	1369.5	4.5764e-06	4.4819e-06	1368.3	364.21	4.4611e-06	5.6013e-06	411.95	138.09	119.29	41.049	4.6473e-06	51.531	0.00045292	0.00036623	0.0001086	1387.2	4.5059e-06	3.9509e-06	1386.1	370.29	4.5384e-06	3.9689e-06	418.24	141.2	122.12	42.069	4.0772e-06	52.793	-107.112	-79.885	-86.691	-160.851	-27.565	-19.932	-161.144	-156.268	-36.646	-40.148	-157.153	-152.388	-151.918	-147.420	-24.608	-148.333	-8191	255	
1081.529	1	1	0	0	0.20022	0.11618	0.1513	0.5088	0.16166	0.17862	0.18031	0.13039	0.1003	0.2633	0.22444	0.15378	0.034142	0.19906	0.26986	0.39789	-2.4083	-2.6	-2.4229	-3.0375	-2.7729	-2.6479	-3.3187	-2.775	-2.9688	-3.0687	-2.6688	-3.1667	-2.8708	-2.6375	-3.1312	-2.6792	-80.886	-91.240	-78.897	160.603	-117.623	-144.505	116.855	111.314	-142.503	-32.296	158.853	181.924	110.990	99.114	-132.084	96.979	0.0004475	0.00043945	0.00012002	1372.9	4.547e-06	5.8962e-06	1370.5	363.44	4.5933e-06	4.6331e-06	412.79	138.02	119.22	41.06	4.4069e-06	51.508	0.00046302	0.00036095	0.00010577	1389.4	4.3326e-06	4.0617e-06	1387.7	370	4.4743e-06	3.8476e-06	418.09	141.2	122.02	42.038	4.2588e-06	52.834	-105.953	-84.302	-81.867	-160.875	-30.543	-21.916	-161.230	-156.208	-36.409	-23.925	-156.855	-152.523	-151.797	-147.484	-20.208	-148.259	-8191	255	
1081.625	1	1	0	0	0.093126	0.27872	0.053609	0.30658	0.031927	0.021882	0.136	0.08482	0.10107	0.25281	0.21931	0.23254	0.10878	0.14626	0.15535	0.34086	-2.575	-2.7479	-2.3187	-3.1021	-2.7646	-2.4354	-3.2021	-2.7229	-2.75	-3.0333	-2.7792	-3.2208	-2.7667	-2.7042	-2.9979	-2.7917	-155.162	-123.875	113.976	121.578	-102.042	174.081	98.382	-88.912	162.818	117.900	179.413	132.508	-147.064	25.098	-138.795	-127.610	0.00043589	0.000441	0.00015255	1371.5	4.6269e-06	6.0068e-06	1369.9	363.63	4.1564e-06	5.0255e-06	410.76	138.53	119.32	40.972	4.3025e-06	51.509	0.00045286	0.00035249	0.00010987	1387.2	4.4476e-06	4.0295e-06	1387.4	369.98	4.7122e-06	3.8552e-06	417.55	141.35	122.08	42.016	4.2012e-06	52.876	-105.296	-88.690	-84.851	-160.946	-30.017	-25.083	-161.125	-156.218	-35.366	-21.911	-157.130	-152.381	-151.811	-147.400	-19.937	-148.280	-8191	255	
1081.722	1	1	0	0	0.25145	0.2083	0.07102	0.19302	0.28116	0.25701	0.19098	0.11597	0.099409	0.10385	0.18103	0.15249	0.25264	0.0097995	0.092329	0.26673	-2.3167	-2.9271	-2.6167	-2.9313	-2.8083	-2.6063	-3.0667	-2.9542	-2.9042	-3.0333	-2.4313	-2.9729	-2.9708	-2.5521	-2.9583	-2.7938	157.593	124.570	76.827	-153.105	-108.138	-55.059	70.109	-167.805	-29.131	-110.417	-125.093	-169.983	-155.900	-156.409	-151.987	76.187	0.00046011	0.00050653	0.00013675	1371.1	4.8757e-06	4.3037e-06	1371.6	363.94	4.3581e-06	4.7278e-06	411.83	137.83	119.2	41.042	4.7168e-06	51.516	0.0004668	0.00036282	0.00010537	1386.9	4.3438e-06	3.8732e-06	1386.5	369.86	4.5975e-06	3.7689e-06	418.27	141.12	121.91	41.99	4.0553e-06	52.824	-106.144	-93.519	-85.734	-160.777	-29.653	-20.655	-161.245	-156.208	-34.704	-31.052	-156.796	-152.436	-151.829	-147.436	-26.382	-147.894	-8191	255	
1081.818	1	1	0	0	0.036517	0.26139	0.20858	0.14651	0.20837	0.33225	0.07836	0.41876	0.066643	0.26776	0.15077	0.26746	0.16056	0.11491	0.093242	0.15539	-2.3229	-2.7729	-2.6083	-3.05	-2.8125	-2.5458	-3.3208	-2.8479	-2.6854	-3.0042	-2.6896	-2.8458	-3.1042	-2.5833	-2.9271	-2.7667	-80.923	12.101	-85.586	114.305	73.545	29.777	-168.746	106.179	-96.107	120.906	-71.611	177.721	-146.030	37.689	150.453	133.633	0.00044311	0.00051335	0.00011901	1375.8	3.9062e-06	5.6052e-06	1368.7	363.74	4.7622e-06	4.4495e-06	412.33	138.09	118.95	41.076	4.5801e-06	51.45	0.00045836	0.00034965	0.00010648	1387.2	4.2274e-06	4.1715e-06	1385.8	369.44	4.5766e-06	3.7481e-06	417.96	141.3	121.88	41.999	4.1672e-06	52.693	-105.965	-86.452	-81.727	-160.864	-24.971	-26.964	-161.030	-156.207	-31.100	-18.127	-156.886	-152.355	-151.764	-147.493	-21.003	-148.182	-8191	255	
1081.938	1	1	0	0	0.2612	0.19521	0.29137	0.18369	0.085276	0.22048	0.18541	0.18507	0.30224	0.10396	0.09406	0.28139	0.21906	0.19723	0.19258	0.090749	-2.0542	-3.0104	-2.9083	-2.9854	-2.9208	-2.6229	-3.0979	-3.0875	-2.8146	-3.0208	-2.8417	-2.825	-3.0833	-2.7917	-2.8729	-2.9604	143.114	89.514	124.788	121.952	-9.550	-76.287	160.261	102.159	110.793	180.729	126.100	150.377	26.564	48.546	123.062	-68.691	0.00045584	0.00041778	0.00013152	1368.8	4.1713e-06	4.7628e-06	1373.7	362.88	5.1049e-06	5.0477e-06	411.61	138.36	118.77	41.133	4.0931e-06	51.619	0.00047398	0.00035835	9.9799e-05	1385.7	4.2528e-06	3.9878e-06	1386	369.18	4.728e-06	4.0702e-06	417.37	141.11	121.73	41.979	4.0902e-06	52.816	-104.936	-91.101	-77.905	-160.988	-28.215	-19.048	-161.310	-156.285	-37.427	-21.248	-157.013	-152.213	-151.821	-147.568	-20.284	-148.127	-8191	255	
1082.035	1	1	0	0	0.022548	0.08951	0.11135	0.22514	0.15547	0.093607	0.19633	0.10049	0.25316	0.20937	0.090448	0.21561	0.026045	0.10046	0.053408	0.18457	-2.1771	-2.9521	-2.6667	-2.8458	-2.9479	-2.6917	-2.9604	-3.1333	-2.3729	-3.1958	-2.9938	-2.8063	-3.1375	-2.8229	-2.8958	-2.7771	167.137	92.034	-88.863	143.975	-64.773	-114.934	104.825	163.457	-104.431	26.386	-68.306	-129.083	97.858	-156.657	-15.254	176.157	0.00045023	0.00052126	0.00012751	1372.9	4.4643e-06	4.7031e-06	1372.2	363.46	4.2667e-06	4.4521e-06	412.02	137.91	119.62	40.943	4.646e-06	51.508	0.00047137	0.00036062	9.9269e-05	1386.7	4.3349e-06	3.9357e-06	1385.6	369.5	4.6704e-06	3.9433e-06	417.27	141.09	122.02	41.982	4.416e-06	52.786	-104.887	-85.876	-74.744	-160.886	-27.971	-25.118	-161.096	-156.292	-35.551	-16.443	-156.894	-152.333	-151.710	-147.360	-21.340	-148.054	-8191	255	
1082.131	1	1	0	0	0.2431	0.13953	0.28142	0.27009	0.19178	0.066143	0.17473	0.21709	0.15295	0.29631	0.19616	0.18464	0.032393	0.28499	0.14164	0.097189	-2.0438	-2.6667	-2.5729	-2.7396	-3.2062	-2.5792	-3.0625	-3.2021	-2.5521	-2.9896	-2.9771	-2.6354	-3.0625	-2.8	-2.7292	-3.0938	-43.487	106.503	-161.817	138.064	-30.928	83.980	-167.281	136.551	155.668	165.848	126.806	-109.560	-39.611	-115.968	155.079	125.762	0.00045148	0.00046819	0.00012566	1370.9	4.6714e-06	4.6308e-06	1369	363	4.0669e-06	5.1497e-06	410.62	138.24	119.2	40.85	4.8827e-06	51.476	0.00046582	0.00034664	9.9177e-05	1385.7	4.1146e-06	4.091e-06	1384.5	369.49	4.506e-06	3.8248e-06	417.47	141.15	121.86	41.936	4.5027e-06	52.793	-104.326	-98.859	-81.507	-160.839	-23.469	-22.944	-161.100	-156.252	-40.213	-29.464	-156.816	-152.467	-151.888	-147.344	-34.226	-148.065	-8191	255	
1082.202	1	1	0	0	0.2154	0.12224	0.23054	0.2118	0.25985	0.39126	0.13559	0.25562	0.12905	0.30172	0.18241	0.27161	0.11261	0.51569	0.22211	0.30397	-2.2042	-2.7208	-2.8896	-2.6021	-3.1271	-2.65	-2.7708	-3.2208	-2.7396	-2.9313	-3.0625	-2.5958	-3.1604	-2.8958	-2.6729	-3.2625	42.438	-21.499	163.969	184.332	-105.637	34.019	22.041	91.494	118.815	63.428	26.863	-160.218	-99.623	177.086	137.370	76.501	0.00045579	0.00048659	0.00014648	1369.5	4.2292e-06	4.8624e-06	1372.9	364.56	4.6405e-06	4.9548e-06	413.02	138.08	119.36	41.053	4.8022e-06	51.497	0.00045981	0.00036379	0.00010249	1385.7	4.1146e-06	4.0844e-06	1384.9	369.93	4.6422e-06	4.0115e-06	418.19	141.11	121.88	41.989	4.1818e-06	52.744	-105.760	-89.934	-80.808	-160.772	-30.062	-18.978	-161.067	-156.251	-35.786	-27.943	-157.022	-152.406	-151.769	-147.390	-23.786	-148.116	-8191	255	
1082.321	1	1	0	0	0.25961	0.096745	0.19167	0.16407	0.26045	0.26058	0.25954	0.18183	0.16252	0.11895	0.14352	0.20767	0.31689	0.055789	0.093526	0.19934	-2.1542	-2.8583	-2.8479	-2.6271	-3.0563	-2.9396	-2.8958	-3.2062	-2.5771	-2.7438	-3.0583	-2.5875	-2.9458	-2.9646	-2.4625	-3.1312	-9.088	64.344	-87.181	-104.003	76.446	139.194	148.973	88.728	-106.586	-78.075	144.399	165.209	-119.504	-172.914	-143.231	147.729	0.00045679	0.00043883	0.00013676	1368.6	4.2317e-06	4.7188e-06	1366.4	362.97	4.4194e-06	4.7415e-06	409.41	138.23	118.92	41.09	5.3421e-06	51.531	0.00047155	0.00036233	9.9706e-05	1384.4	4.358e-06	3.9225e-06	1384.2	369.06	4.5629e-06	4.1271e-06	416.92	141.13	121.77	41.959	4.3795e-06	52.775	-105.013	-90.993	-81.860	-160.860	-27.275	-18.298	-161.101	-156.117	-37.490	-29.251	-157.044	-152.330	-151.850	-147.416	-27.563	-148.171	-8191	255	
1082.417	1	1	0	0	0.25416	0.18327	0.089893	0.17155	0.2492	0.13563	0.24087	0.2099	0.12862	0.13639	0.12881	0.22766	0.20568	0.32844	0.21887	0.13183	-2.2917	-2.7458	-2.8688	-2.7562	-2.8458	-2.8812	-2.9562	-2.9917	-2.6979	-3.025	-3.0062	-2.5479	-2.9313	-3.075	-2.6479	-3.3312	25.656	16.633	-136.288	159.012	-147.602	-116.208	145.641	5.949	131.452	-94.655	160.330	154.459	163.933	175.013	-137.608	87.137	0.00043088	0.00054408	0.00014291	1367.1	4.6277e-06	4.7604e-06	1371.5	362.44	4.4164e-06	4.6121e-06	410.34	138.15	119.38	40.947	6.031e-06	51.43	0.00045818	0.00037582	9.9154e-05	1383	4.1266e-06	3.9471e-06	1385.9	369.21	4.5745e-06	4.1366e-06	417.21	141.16	121.93	41.983	4.5781e-06	52.704	-104.288	-91.397	-85.868	-160.816	-32.908	-27.370	-160.921	-156.202	-29.151	-30.589	-156.909	-152.347	-151.902	-147.336	-13.385	-148.344	-8191	255	
1082.514	1	1	0	0	0.078863	0.21471	0.24522	0.16195	0.19641	0.16074	0.34291	0.18757	0.049376	0.025002	0.22774	0.24222	0.065123	0.17283	0.076576	0.21933	-2.0729	-2.7771	-3.0229	-2.6917	-2.9125	-3.0542	-2.7021	-3.25	-2.6042	-2.6167	-3.2604	-2.8021	-2.9792	-3.0583	-2.3688	-3.0312	164.890	68.472	-33.867	70.785	-100.427	3.404	120.941	151.214	-143.354	-44.526	182.484	111.212	83.621	159.416	-87.282	141.103	0.00044425	0.00046961	0.00011842	1372.2	4.7912e-06	4.7023e-06	1368.9	362.88	4.1936e-06	4.5408e-06	412.04	138.38	119.63	40.973	5.2067e-06	51.318	0.00045898	0.00036477	9.761e-05	1384.7	4.3259e-06	3.7539e-06	1384	369.6	4.2572e-06	4.0077e-06	417.65	141.23	121.87	41.955	4.6048e-06	52.742	-105.051	-71.855	-82.611	-160.742	-32.641	-28.516	-161.164	-156.204	-33.040	-18.930	-156.925	-152.473	-151.799	-147.415	-13.822	-148.042	-8191	255	
1082.610	1	1	0	0	0.12331	0.082361	0.20918	0.31833	0.17007	0.26753	0.26565	0.24955	0.047319	0.18674	0.13549	0.17979	0.13461	0.15274	0.086111	0.2028	-2.5062	-2.2792	-3.1229	-2.8875	-2.7854	-3.0938	-2.8625	-3.0854	-2.9271	-2.6292	-3.3021	-2.5917	-2.9333	-3.0958	-2.5958	-2.8417	9.625	-92.546	-122.000	154.526	-21.536	-103.594	75.184	126.874	72.706	148.795	-35.132	143.476	17.397	114.331	-58.984	-23.704	0.00044315	0.00049196	0.00011299	1371.3	4.9925e-06	4.3746e-06	1364.4	363.45	4.678e-06	4.5372e-06	408.6	138.1	119.1	40.905	4.0752e-06	51.458	0.00045845	0.00037322	9.3694e-05	1384.2	4.5469e-06	3.7331e-06	1383.4	369.44	4.382e-06	4.0598e-06	416.83	141.11	121.79	41.951	4.262e-06	52.786	-105.985	-90.311	-97.556	-160.932	-35.703	-34.473	-161.154	-156.341	-37.647	-35.133	-156.823	-152.324	-151.814	-147.243	-19.075	-148.243	-8191	255	
1082.730	1	1	0	0	0.12155	0.17797	0.30218	0.1045	0.13691	0.35424	0.15964	0.47517	0.16162	0.25549	0.073044	0.26688	0.32207	0.064704	0.23627	0.22094	-2.3979	-2.4896	-2.8875	-2.875	-2.8563	-3.2292	-2.7333	-3.1146	-2.7958	-2.6625	-2.8083	-3.05	-2.7979	-3.1146	-2.4792	-2.9146	52.383	-74.711	-61.774	88.184	-24.359	81.189	130.204	147.742	-162.216	-83.284	83.490	130.555	148.675	-123.326	-41.133	109.791	0.0004524	0.00048741	0.00013562	1367.9	4.7173e-06	4.9967e-06	1368.3	362.4	4.4154e-06	5.3044e-06	409.29	137.59	119.49	40.93	4.7615e-06	51.183	0.00045901	0.00036265	9.3509e-05	1383.3	4.3677e-06	3.8268e-06	1383.2	368.95	4.4195e-06	4.0996e-06	416.76	140.83	121.9	41.92	4.4144e-06	52.64	-104.974	-91.525	-77.391	-160.689	-34.967	-20.875	-161.240	-156.155	-32.219	-23.031	-156.898	-152.564	-151.956	-147.256	-28.902	-147.908	-8191	255	
1082.826	1	1	0	0	0.30354	0.13286	0.13344	0.11294	0.2279	0.096691	0.079936	0.078168	0.069762	0.073449	0.2113	0.068765	0.20075	0.36857	0.093963	0.18575	-2.5521	-2.3771	-3.0687	-2.7812	-2.7167	-3.1021	-2.775	-3.1604	-2.9292	-2.575	-3.0938	-2.8479	-2.8	-3.0812	-2.7958	-2.9729	107.497	91.058	26.049	109.848	61.311	-141.296	58.755	-97.695	-48.976	158.913	-128.547	-101.873	114.057	102.675	-110.540	138.413	0.00044027	0.00055974	0.00014287	1373.2	4.1924e-06	5.5682e-06	1363.3	363.09	4.0361e-06	5.299e-06	410.39	137.57	119.1	40.885	4.9459e-06	51.363	0.00045096	0.00036233	9.8716e-05	1385.7	4.3633e-06	3.626e-06	1382.5	369.42	4.276e-06	3.8779e-06	417.36	140.87	121.69	41.916	4.2336e-06	52.766	-103.930	-91.094	-83.819	-160.909	-11.799	-29.342	-161.159	-156.251	-39.801	-21.088	-156.837	-152.473	-151.659	-147.386	-20.163	-148.122	-8191	255	
1082.898	1	1	0	0	0.25593	0.025264	0.091321	0.27257	0.3673	0.24184	0.25587	0.16768	0.15855	0.14573	0.089029	0.16815	0.30803	0.34868	0.38261	0.040421	-2.5979	-2.5354	-2.7917	-3.0896	-2.6479	-3.0708	-3.025	-2.9062	-3.0833	-2.5708	-2.9917	-3.0542	-2.6562	-3.2167	-2.8	-3.0771	38.163	46.278	-48.613	177.130	123.101	-79.471	87.926	140.367	-39.666	-43.945	-107.957	-170.655	136.767	-163.362	-97.524	-27.781	0.00045111	0.00041431	0.00014532	1364.2	5.2626e-06	5.0286e-06	1371.3	363.03	3.3907e-06	4.3063e-06	410.15	137.78	119.22	40.989	4.7161e-06	51.46	0.00045319	0.00036794	9.7241e-05	1383.1	4.4618e-06	3.6724e-06	1381.7	368.94	4.3928e-06	3.894e-06	417.36	140.88	121.8	41.978	4.484e-06	52.751	-106.190	-79.592	-78.054	-160.807	-31.321	-16.622	-161.184	-156.338	-41.275	-24.496	-156.998	-152.291	-151.907	-147.135	-18.819	-147.938	-8191	255	
1083.019	1	1	0	0	0.17359	0.28042	0.20353	0.41772	0.063867	0.13537	0.15119	0.09792	0.21992	0.13018	0.18647	0.29892	0.31506	0.11147	0.23361	0.33838	-2.55	-2.5375	-2.8042	-3.0771	-2.4688	-3.1083	-2.8979	-2.6771	-3.1375	-2.5958	-3.0792	-3.0333	-2.7833	-3.0812	-2.9	-2.7917	-144.895	144.243	-52.634	-169.947	61.697	-10.931	178.757	-121.920	105.763	141.316	168.717	102.764	150.977	95.669	-95.130	-154.038	0.00044093	0.00052805	0.00013763	1367.4	4.3043e-06	4.3759e-06	1367.7	363.59	4.4971e-06	5.4758e-06	410.83	137.94	119.2	40.762	5.2923e-06	51.409	0.00045173	0.00036973	0.00010323	1382.8	4.2528e-06	3.9168e-06	1381.6	369.43	4.413e-06	3.931e-06	417.17	140.82	121.69	41.918	4.5546e-06	52.687	-105.894	-85.950	-83.477	-160.764	-29.418	-19.745	-161.062	-156.200	-28.670	-29.727	-157.042	-152.375	-151.715	-147.502	-24.703	-148.023	-8191	255	
1083.115	1	1	0	0	0.23226	0.19098	0.12524	0.076106	0.13148	0.16418	0.13653	0.076347	0.40223	0.11896	0.19522	0.20891	0.26978	0.21704	0.25612	0.31221	-2.6896	-2.5604	-2.8271	-3.2146	-2.5729	-2.9479	-3.0104	-2.7062	-3.1208	-2.6312	-2.9021	-3.0375	-2.5104	-2.975	-2.6854	-2.6021	-82.544	-32.505	18.472	150.692	-145.240	162.743	62.924	91.829	134.095	-126.259	-88.184	94.808	81.236	-103.265	80.125	101.114	0.00047405	0.0004933	0.00013638	1363.8	3.2267e-06	5.2298e-06	1367.4	362.29	4.5766e-06	4.9396e-06	409.91	137.64	119.08	41.051	4.4626e-06	51.412	0.00046017	0.00037452	0.00010139	1378.9	4.3244e-06	3.7151e-06	1381.9	368.41	4.3113e-06	4.1356e-06	416.68	140.75	121.71	41.915	3.9759e-06	52.688	-104.522	-91.542	-90.728	-160.920	-20.670	-16.032	-160.993	-156.196	-32.396	-24.180	-156.923	-152.421	-151.723	-147.380	-20.891	-148.388	-8191	255	
1083.211	1	1	0	0	0.12346	0.1893	0.10011	0.23668	0.051298	0.23217	0.30949	0.32291	0.18884	0.076795	0.029239	0.32662	0.17679	0.082633	0.20225	0.093729	-2.7313	-2.5417	-2.8146	-3.2208	-2.7938	-2.9229	-2.9771	-2.6937	-3.075	-2.7333	-2.9229	-3.2188	-2.5792	-3.0458	-2.9313	-2.5667	122.294	-96.710	-37.442	52.280	14.042	74.478	75.694	63.322	44.083	57.006	73.153	-124.746	-137.712	-72.716	-170.040	106.371	0.00045739	0.00044422	0.00013694	1365.6	4.1741e-06	5.3922e-06	1365.5	361.77	3.616e-06	4.5376e-06	411.2	137.83	118.92	40.928	3.3691e-06	51.449	0.00044746	0.00036615	9.4938e-05	1382.3	4.4148e-06	3.7567e-06	1380.9	368.57	4.3827e-06	4.0759e-06	416.88	140.82	121.67	41.886	3.8568e-06	52.703	-104.795	-96.542	-80.301	-160.795	-31.631	-30.078	-161.120	-156.137	-30.387	-25.492	-156.849	-152.355	-151.846	-147.331	-14.954	-148.085	-8191	255	
1083.307	1	1	0	0	0.18373	0.16073	0.23715	0.059952	0.13301	0.12524	0.21178	0.2884	0.062079	0.10296	0.18073	0.1081	0.27603	0.11219	0.11852	0.092308	-2.6417	-2.4938	-2.6437	-3.2458	-2.6542	-2.8292	-3.1937	-2.6458	-3.0896	-2.7438	-2.7729	-2.9729	-2.7667	-2.8812	-2.9562	-2.7042	138.496	-17.879	178.764	-171.245	28.617	90.233	107.296	110.049	12.847	-150.790	164.267	136.172	123.851	46.653	89.381	153.878	0.00043193	0.00052671	0.00015074	1363.4	4.0164e-06	4.3956e-06	1357.7	362.02	4.0677e-06	4.008e-06	410.03	137.11	118.55	40.873	4.3553e-06	51.173	0.00044505	0.00036997	0.00010143	1379.2	4.3901e-06	3.8656e-06	1378	368.74	4.3221e-06	3.7614e-06	416.89	140.65	121.46	41.901	4.0286e-06	52.617	-105.367	-93.123	-88.976	-160.720	-17.048	-18.496	-161.209	-156.159	-36.533	-36.246	-156.830	-152.408	-151.799	-147.289	-18.876	-147.973	-8191	255	
1083.426	1	1	0	0	0.20732	0.1364	0.12798	0.050912	0.029214	0.046147	0.31089	0.10691	0.28732	0.11272	0.25442	0.066604	0.062147	0.26722	0.28393	0.14315	-2.5604	-2.7083	-2.4479	-3.1042	-2.5042	-2.8792	-3.15	-2.6458	-2.9167	-2.7667	-2.9708	-3.0438	-2.7167	-2.8958	-3.0208	-2.6958	-172.672	-20.702	114.368	-156.732	47.609	-106.514	151.821	182.555	35.829	118.976	164.014	182.757	-134.768	-96.720	-160.956	114.424	0.00045642	0.00051295	0.00012627	1366.6	4.1446e-06	4.7142e-06	1361.9	361.6	3.9287e-06	6.7989e-06	410.76	137.58	119.37	40.961	5.53e-06	51.314	0.00045358	0.00037233	0.00010028	1380.6	4.2789e-06	3.8761e-06	1380.3	367.97	4.4627e-06	3.803e-06	416.3	140.75	121.73	41.94	4.1566e-06	52.675	-105.410	-81.329	-87.220	-160.630	-32.320	-17.574	-161.273	-156.148	-34.690	-19.948	-156.985	-152.380	-151.820	-147.290	-20.430	-148.111	-8191	255	
1083.498	1	1	0	0	0.11594	0.087634	0.1249	0.33228	0.074722	0.17561	0.24647	0.32614	0.26107	0.40867	0.27193	0.37871	0.23381	0.098722	0.10163	0.13666	-2.5292	-2.7729	-2.5146	-3.0375	-2.6396	-2.8896	-3.0187	-2.7896	-2.7833	-2.8833	-2.8146	-2.8854	-2.8396	-2.8396	-3.1667	-2.6646	-33.658	36.342	-87.109	183.480	-86.726	20.052	99.018	137.041	9.528	-30.603	117.012	132.106	-48.490	-111.506	46.492	147.369	0.00045711	0.00046911	0.00013504	1364.6	4.4576e-06	4.7133e-06	1359.4	361.77	3.655e-06	4.4599e-06	408.43	137.79	119.04	41.05	3.9783e-06	51.366	0.00045723	0.00033583	9.9361e-05	1379.6	4.1415e-06	3.9367e-06	1377.4	368.43	4.3582e-06	3.6211e-06	415.86	140.67	121.59	41.947	4.1226e-06	52.651	-105.560	-90.648	-83.566	-161.016	-32.779	-17.507	-161.067	-156.057	-36.818	-13.342	-156.957	-152.211	-151.918	-147.381	-24.461	-148.190	-8191	255	
1083.618	1	1	0	0	0.20169	0.36337	0.2584	0.38125	0.01768	0.19873	0.26073	0.18522	0.19129	0.081993	0.056452	0.25228	0.12003	0.095314	0.08305	0.10042	-2.3208	-2.8708	-2.4521	-3.1771	-2.6063	-2.6625	-3.1917	-2.7458	-3	-2.9	-2.6437	-2.9604	-2.9062	-2.6479	-3.0375	-2.9521	-45.065	29.365	-172.441	141.116	28.873	160.687	185.227	133.306	-143.671	-5.919	-167.886	182.569	164.178	-38.051	19.922	69.257	0.00044155	0.00049727	0.00013667	1362.3	3.7484e-06	4.9925e-06	1360.2	362.16	4.4823e-06	5.9148e-06	409.21	137.66	118.91	41.01	4.7603e-06	51.286	0.0004569	0.00035314	0.00010079	1377.7	4.2587e-06	4.1412e-06	1377.4	368.37	4.3899e-06	3.6287e-06	416.14	140.67	121.51	41.878	4.1064e-06	52.647	-104.766	-86.782	-85.503	-160.803	-21.674	-8.469	-161.211	-156.232	-27.359	-23.265	-156.839	-152.243	-151.602	-147.320	-20.973	-148.064	-8191	255	
1083.715	1	1	0	0	0.215	0.34091	0.056653	0.43479	0.38124	0.17462	0.17946	0.1821	0.13179	0.15183	0.058146	0.12342	0.31309	0.26499	0.10806	0.20737	-2.275	-2.9542	-2.2604	-3.0833	-2.8646	-2.7458	-3.1562	-2.9667	-2.6354	-3.1021	-2.6958	-3.025	-2.9104	-2.7021	-2.7938	-2.9562	85.553	20.232	120.464	157.921	-43.342	41.062	117.031	88.814	105.374	152.517	177.253	139.837	99.588	159.275	-17.381	158.417	0.00043743	0.00053136	0.00015417	1360.5	4.8257e-06	4.4065e-06	1359.2	361.95	3.7561e-06	4.621e-06	409.54	137.49	118.89	40.885	4.4202e-06	51.579	0.00045087	0.00031908	0.00010222	1374.8	4.308e-06	3.7075e-06	1375.9	367.79	4.3236e-06	3.6496e-06	415.57	140.56	121.56	41.893	3.7709e-06	52.687	-104.628	-103.117	-70.088	-160.693	-16.933	-14.244	-160.918	-156.246	-38.450	-25.388	-157.163	-152.378	-151.677	-147.386	-28.411	-148.113	-8191	255	
1083.811	1	1	0	0	0.167	0.098583	0.061687	0.39245	0.23937	0.16572	0.32953	0.59822	0.15286	0.11173	0.094314	0.27374	0.11667	0.15377	0.060149	0.10322	-2.2687	-3.0042	-2.5146	-3.0375	-2.8896	-2.4042	-3.1625	-2.8083	-2.6667	-3.1458	-2.7521	-3.0021	-3.0542	-2.6104	-3.0354	-2.7604	78.321	71.616	-47.347	158.097	160.022	-155.239	145.888	125.746	184.055	-6.672	-161.284	142.568	143.198	144.776	36.356	85.996	0.00045813	0.00046137	0.00015505	1362.8	4.9592e-06	5.3654e-06	1357.7	361.8	3.9889e-06	4.2953e-06	410.44	137.42	118.76	40.855	4.3831e-06	51.108	0.00045726	0.0003442	9.8163e-05	1377.4	4.2356e-06	3.9414e-06	1376	367.86	4.2652e-06	3.5596e-06	415.81	140.5	121.29	41.845	3.9322e-06	52.579	-104.188	-80.123	-85.818	-160.731	-28.121	-23.506	-161.096	-156.134	-35.306	-20.244	-156.918	-152.354	-151.861	-147.501	-31.911	-148.209	-8191	255	
1083.907	1	1	0	0	0.083044	0.13839	0.19174	0.23198	0.052522	0.2108	0.079649	0.25745	0.28773	0.14119	0.31473	0.069794	0.20136	0.24072	0.14914	0.11985	-2.0271	-3.0958	-2.6813	-2.8979	-2.975	-2.5667	-3.1875	-3.0792	-2.4313	-3.15	-2.7229	-2.8063	-3.0146	-2.5062	-2.8708	-2.8292	131.470	46.222	-161.366	142.512	-3.562	113.830	33.441	61.355	-95.428	-30.646	124.260	27.709	-126.628	180.274	-10.697	-84.850	0.00045719	0.00039334	0.00012344	1362.4	4.0949e-06	4.735e-06	1359	361.57	4.0492e-06	4.2853e-06	408.34	137.69	118.95	41.01	5.1048e-06	51.269	0.00046056	0.00031762	0.00010307	1375.9	4.0728e-06	3.8922e-06	1374.5	367.53	4.2241e-06	3.7614e-06	415.14	140.5	121.57	41.884	4.3511e-06	52.559	-105.257	-82.334	-77.046	-160.774	-38.217	-11.541	-160.982	-155.958	-33.082	-24.937	-156.977	-152.190	-151.833	-147.392	-27.149	-148.005	-8191	255	
1084.003	1	1	0	0	0.064981	0.12181	0.2776	0.34066	0.10073	0.073893	0.060615	0.18553	0.26341	0.15387	0.11153	0.20849	0.1722	0.034132	0.23435	0.12599	-2.0521	-2.8104	-2.5938	-2.8729	-2.9188	-2.6792	-3.1208	-2.9938	-2.5167	-3.0333	-2.825	-2.7583	-3.3521	-2.725	-2.7917	-2.8563	-3.179	31.862	-82.759	129.790	154.391	18.130	54.025	162.770	75.339	-6.539	43.459	-1.950	166.202	-173.095	103.781	30.658	0.00045318	0.00046465	0.00016203	1360.3	4.2106e-06	4.3165e-06	1363.3	363.63	4.6525e-06	6.0431e-06	408.08	137.04	118.88	40.955	4.5615e-06	51.374	0.00045628	0.00034274	0.00010355	1376.4	4.0609e-06	3.8959e-06	1376.6	367.91	4.4944e-06	3.9111e-06	415.45	140.36	121.46	41.893	3.9516e-06	52.678	-104.771	-86.038	-75.092	-160.747	-24.593	-14.302	-161.191	-156.242	-38.794	-32.061	-157.027	-152.350	-151.840	-147.312	-21.058	-148.388	-8191	255	
1084.124	1	1	0	0	0.040482	0.18587	0.17739	0.33925	0.12207	0.28384	0.26991	0.18708	0.11624	0.34689	0.22207	0.18727	0.14198	0.15245	0.1849	0.18988	-2.0271	-2.7396	-2.5896	-2.9729	-3.0771	-2.8354	-2.9437	-2.9896	-2.6021	-2.9208	-2.8979	-2.7375	-3.1333	-2.7208	-2.8354	-3.1208	-156.987	137.361	158.575	149.553	-41.447	-96.388	106.725	178.912	-71.949	-56.966	-157.282	152.467	112.469	146.303	-75.313	146.159	0.00045459	0.00059258	0.00012192	1362	4.9869e-06	4.1881e-06	1358.4	361.87	4.0726e-06	4.5978e-06	409.41	137.37	118.91	40.899	4.2159e-06	51.243	0.0004577	0.00033485	9.7103e-05	1377.2	4.0176e-06	3.8353e-06	1376.2	367.88	4.4505e-06	3.6894e-06	415.63	140.51	121.58	41.851	4.1161e-06	52.664	-105.963	-92.897	-78.391	-160.633	-16.982	-36.093	-161.013	-156.329	-33.728	-36.356	-157.020	-152.373	-151.913	-147.268	-30.086	-147.986	-8191	255	
1084.195	1	1	0	0	0.22375	0.11529	0.22412	0.17996	0.18815	0.11611	0.16861	0.2244	0.19573	0.12029	0.17572	0.30468	0.3489	0.18439	0.26589	0.12381	-2.0438	-2.9417	-2.8458	-2.8042	-3.2417	-2.6979	-2.9292	-2.8521	-2.4896	-2.9062	-2.9625	-2.45	-2.9917	-2.7896	-2.6896	-3.0271	41.763	130.033	114.076	152.950	-59.024	-148.831	74.335	128.377	63.901	15.367	109.308	125.002	-133.533	-63.906	-17.658	128.255	0.0004406	0.00044624	0.0001451	1363	4.4371e-06	4.3949e-06	1360	362.1	4.4684e-06	5.0095e-06	409.26	137.53	118.82	40.759	4.3287e-06	51.344	0.00046142	0.00033697	9.0791e-05	1376.5	4.2214e-06	3.7482e-06	1376	368.07	4.5687e-06	3.624e-06	415.75	140.43	121.39	41.829	4.1307e-06	52.676	-104.801	-83.752	-79.730	-160.889	-22.869	-22.272	-161.118	-156.136	-29.774	-31.200	-156.913	-152.290	-151.979	-147.285	-30.916	-148.149	-8191	255	
1084.291	1	1	0	0	0.13894	0.15647	0.080874	0.26657	0.017158	0.25824	0.12169	0.21622	0.14902	0.29156	0.22096	0.078655	0.044534	0.28129	0.3057	0.08985	-2.1521	-2.6646	-2.9125	-2.7146	-2.8937	-2.7354	-2.9562	-3.2146	-2.5458	-2.7687	-2.9396	-2.675	-2.9646	-2.6813	-2.7125	-3.1	167.704	-92.226	-106.730	108.210	77.220	-39.109	97.948	178.651	75.881	52.914	-173.884	126.262	11.786	166.189	130.770	-47.183	0.00042832	0.00044611	0.00013452	1358.6	4.0689e-06	4.577e-06	1359.1	360.26	4.5039e-06	5.4226e-06	408.48	137.41	118.84	40.957	4.4846e-06	51.295	0.00044267	0.00035688	9.6251e-05	1372.6	4.2236e-06	3.7009e-06	1374.7	367.44	4.4346e-06	3.7689e-06	415.43	140.57	121.41	41.893	4.1996e-06	52.588	-106.007	-89.841	-87.052	-160.933	-25.026	-20.007	-161.152	-156.080	-44.627	-18.742	-156.901	-152.490	-151.825	-147.460	-31.005	-148.294	-8191	255	
1084.388	1	1	0	0	0.26846	0.26183	0.20832	0.21683	0.093485	0.27465	0.11226	0.08977	0.15847	0.19868	0.27883	0.12442	0.27108	0.074054	0.24683	0.11742	-2.0708	-2.7458	-2.8083	-2.65	-3.0583	-2.7833	-2.8625	-3.3375	-2.675	-2.7313	-3.0604	-2.7479	-3.0875	-2.85	-2.5604	-3.2104	-22.111	118.688	-32.021	-172.625	88.859	-2.191	153.203	111.098	-170.245	-38.133	170.423	-54.131	175.076	-139.809	-6.680	-30.460	0.00046164	0.0005492	0.00015324	1361.5	3.5919e-06	3.8557e-06	1358.5	361.43	4.8206e-06	4.2683e-06	410.65	137.79	119.39	40.88	4.7287e-06	51.36	0.00045981	0.00034761	9.4177e-05	1376.5	4.2423e-06	3.4954e-06	1375.2	367.42	4.3603e-06	3.8106e-06	415.98	140.56	121.74	41.836	4.1696e-06	52.63	-104.246	-82.408	-89.433	-160.785	-27.790	-16.310	-161.076	-156.109	-35.013	-26.497	-156.895	-152.605	-151.968	-147.379	-25.904	-148.233	-8191	255	
1084.506	1	1	0	0	0.06491	0.072943	0.21023	0.040434	0.037992	0.18958	0.26384	0.18615	0.21145	0.098789	0.0473	0.16738	0.093354	0.16426	0.13459	0.17319	-2.2167	-2.8042	-2.8375	-2.7729	-2.9	-2.9604	-2.8375	-3.1792	-2.7604	-2.7771	-3.1708	-2.7583	-3.0125	-3.0854	-2.4708	-3.0229	76.060	-64.949	-132.407	81.220	-42.387	-162.354	158.844	125.163	-169.880	-161.284	-143.645	156.589	-10.460	173.086	29.745	-140.240	0.00045608	0.00056339	0.00013538	1356.6	4.2578e-06	6.1676e-06	1360.9	361.84	4.7865e-06	4.2645e-06	410.05	137.29	118.82	40.743	4.5772e-06	51.399	0.0004621	0.00034436	9.6067e-05	1374.5	4.0594e-06	3.9992e-06	1376.8	368.01	4.5464e-06	3.9291e-06	415.61	140.34	121.43	41.83	4.0286e-06	52.655	-105.245	-85.104	-88.251	-160.982	-29.442	-27.101	-160.897	-156.290	-30.614	-21.835	-156.969	-152.341	-151.590	-147.253	-26.292	-148.121	-8191	255	
1084.603	1	1	0	0	0.10082	0.20077	0.059509	0.23685	0.020149	0.23137	0.3002	0.16031	0.15252	0.070386	0.15439	0.20819	0.30321	0.25907	0.056665	0.14026	-2.3979	-2.5042	-3.0833	-2.7396	-2.8292	-2.9667	-2.8021	-2.9792	-2.9771	-2.5417	-3.0917	-2.6312	-3.0958	-3.0875	-2.6958	-3.0667	-81.837	-46.014	-122.519	-137.315	-20.907	59.433	113.038	-94.884	-76.325	73.814	120.378	-157.535	-103.424	124.173	75.398	60.383	0.00043173	0.00048487	0.00016887	1364.8	4.6619e-06	4.5668e-06	1360	362.15	4.458e-06	4.7887e-06	410.51	136.99	118.6	40.775	4.7928e-06	51.396	0.0004479	0.00038111	9.4062e-05	1376.4	4.3528e-06	3.7056e-06	1375.2	367.93	4.2342e-06	3.6496e-06	415.4	140.25	121.29	41.755	4.2255e-06	52.603	-105.270	-82.504	-91.455	-160.729	-30.409	-20.526	-161.055	-156.150	-32.813	-27.295	-157.045	-152.327	-152.017	-147.294	-24.520	-148.143	-8191	255	
1084.699	1	1	0	0	0.17167	0.10174	0.31537	0.30645	0.17239	0.17559	0.11479	0.16662	0.33359	0.077423	0.07113	0.14537	0.15251	0.24637	0.16683	0.20423	-2.2687	-2.5542	-2.7604	-2.9021	-2.6708	-3.0667	-2.825	-2.9958	-2.8563	-2.6396	-3.2042	-2.8458	-2.7958	-3.0938	-2.75	-2.9396	-113.516	75.085	154.055	170.105	134.660	-22.600	-74.602	-168.145	36.224	9.660	32.906	165.990	82.175	-118.998	-87.109	158.040	0.00043425	0.00056081	0.00012603	1358.6	4.9735e-06	5.3784e-06	1362.1	360.82	4.9939e-06	5.759e-06	409.55	136.86	118.61	40.585	5.1389e-06	51.218	0.00043908	0.00039452	9.4938e-05	1374.6	4.417e-06	3.591e-06	1374.2	366.7	4.4324e-06	3.8409e-06	415.37	140.17	121.2	41.734	4.2928e-06	52.532	-106.253	-88.640	-85.309	-160.925	-34.115	-23.023	-161.026	-156.287	-32.022	-27.362	-156.973	-152.355	-151.549	-147.452	-29.673	-147.977	-8191	255	
1084.795	1	1	0	0	0.19936	0.1797	0.20166	0.41251	0.022865	0.052269	0.19774	0.12867	0.16543	0.19928	0.24807	0.19715	0.25203	0.23512	0.16903	0.19378	-2.5583	-2.3542	-2.8312	-2.7188	-2.5958	-3.1042	-2.6646	-3.0104	-2.825	-2.5292	-2.975	-2.9229	-2.7562	-3.0292	-2.6333	-2.9688	46.901	173.493	-146.620	178.172	-171.393	53.312	-161.439	-142.915	13.811	-19.809	-173.122	168.786	-153.308	-154.582	158.834	184.892	0.00044552	0.00054146	0.00014113	1357	5.044e-06	5.1398e-06	1360.7	360.56	3.8548e-06	5.1637e-06	409.99	137.89	118.76	40.833	4.8591e-06	51.252	0.00044841	0.00036973	9.9983e-05	1372.5	4.3356e-06	3.7387e-06	1375.8	367.36	4.25e-06	4.3223e-06	415.32	140.31	121.15	41.751	4.2628e-06	52.482	-104.583	-84.815	-86.083	-160.836	-29.486	-35.334	-161.071	-156.032	-36.017	-26.544	-156.777	-152.334	-151.912	-147.126	-23.420	-148.182	-8191	255	
1084.891	1	1	0	0	0.031528	0.12059	0.17548	0.13142	0.16329	0.23528	0.35545	0.057493	0.069596	0.29619	0.26025	0.31681	0.16393	0.05804	0.067324	0.20175	-2.4688	-2.5146	-2.7188	-2.9979	-2.5646	-2.9646	-2.875	-3.0125	-2.8854	-2.6521	-2.8646	-2.8104	-2.7979	-2.9604	-2.5958	-2.7583	-143.447	-152.924	-95.637	-157.447	71.602	152.350	105.250	148.861	135.197	26.658	120.341	107.618	171.854	86.373	52.897	36.722	0.00045063	0.000511	0.00013399	1361.3	3.8221e-06	5.0452e-06	1359.9	361.1	4.6049e-06	4.1969e-06	408.78	137.65	118.7	40.721	4.561e-06	51.276	0.00045144	0.00036428	9.116e-05	1375	4.3117e-06	3.7975e-06	1375.2	367.25	4.3798e-06	4.1242e-06	415.55	140.3	121.18	41.758	4.2069e-06	52.51	-106.662	-86.440	-90.004	-160.889	-20.140	-24.380	-160.939	-156.170	-36.759	-26.127	-157.168	-152.444	-151.815	-147.246	-29.934	-148.248	-8191	255	
1084.987	1	1	0	0	0.29877	0.3351	0.3347	0.28927	0.11826	0.18851	0.17227	0.44787	0.13204	0.17075	0.32972	0.13551	0.13396	0.011078	0.12808	0.42704	-2.6354	-2.3854	-2.8542	-2.825	-2.4188	-2.9938	-2.9792	-2.8771	-2.9083	-2.6583	-2.8979	-3.0833	-2.5729	-3.0042	-2.6667	-2.6417	-124.540	137.773	120.593	124.508	-116.641	-130.636	99.195	164.606	-127.215	-106.641	158.124	172.205	-170.619	-2.211	155.174	147.899	0.00044814	0.00044169	0.00013033	1362.4	5.668e-06	4.9043e-06	1360.5	360.76	4.5018e-06	5.3883e-06	410.4	137.62	118.59	40.965	4.6476e-06	51.204	0.00045132	0.00035062	9.9753e-05	1375.8	4.3259e-06	3.6895e-06	1376.7	367.63	4.276e-06	4.0096e-06	415.2	140.46	121.24	41.788	4.0691e-06	52.473	-104.676	-84.506	-83.874	-160.867	-31.942	-25.017	-161.137	-156.196	-28.202	-28.870	-156.779	-152.507	-151.726	-147.511	-27.067	-148.196	-8191	255	
1085.108	1	1	0	0	0.12946	0.14768	0.13255	0.26489	0.23542	0.1501	0.069793	0.12079	0.20004	0.18704	0.20269	0.25441	0.18233	0.15506	0.16599	0.085053	-2.6333	-2.5104	-2.7771	-3.0958	-2.3646	-2.9729	-2.9292	-2.8542	-3.0333	-2.7396	-2.9396	-3.0229	-2.6958	-2.9646	-2.7625	-2.5896	-57.872	-77.114	27.284	5.961	0.934	109.743	75.324	98.965	-164.678	-22.829	136.922	155.364	131.705	130.942	-160.829	83.488	0.00044171	0.0005397	0.00010733	1357.6	4.4541e-06	5.2738e-06	1354.7	361.68	4.0028e-06	5.2583e-06	408.63	137.01	118.56	40.944	4.5598e-06	51.293	0.00044719	0.00035599	9.8923e-05	1375.8	4.2557e-06	3.7577e-06	1373.7	367.7	4.2782e-06	4.0949e-06	415.13	140.29	121.23	41.818	4.1348e-06	52.482	-106.010	-90.842	-72.993	-160.800	-22.920	-18.874	-161.238	-155.960	-37.214	-31.780	-157.029	-152.355	-151.857	-147.413	-26.347	-148.169	-8191	255	
1085.204	1	1	0	0	0.038148	0.18125	0.19901	0.29751	0.20859	0.17461	0.16758	0.33485	0.24516	0.087688	0.28054	0.39209	0.072684	0.080867	0.24024	0.14926	-2.4271	-2.4542	-2.7167	-3.0896	-2.7938	-3.0625	-2.9458	-2.8271	-3.0521	-2.6729	-3.0146	-3.0021	-2.4813	-2.9396	-2.7875	-2.6125	140.991	158.702	6.077	102.917	-126.623	-139.269	119.582	156.700	55.679	-129.359	95.844	181.361	156.386	122.450	14.205	96.881	0.00044891	0.00057965	0.00015963	1358.7	4.7469e-06	5.213e-06	1358.2	361.62	4.3797e-06	5.2846e-06	409.33	137.02	118.27	40.69	3.7391e-06	51.13	0.00045551	0.00034656	0.00010328	1375.2	4.1796e-06	3.8183e-06	1374.7	367.83	4.1852e-06	3.9092e-06	415.16	140.3	121.16	41.71	3.9751e-06	52.452	-103.805	-84.453	-86.805	-160.927	-26.834	-14.492	-161.138	-156.237	-34.596	-26.224	-157.009	-152.226	-151.839	-147.290	-16.636	-147.949	-8191	255	
1085.300	1	1	0	0	0.098179	0.1235	0.14076	0.33492	0.222	0.1629	0.22362	0.27696	0.20746	0.036441	0.12777	0.23669	0.16576	0.099297	0.21798	0.10052	-2.6312	-2.7333	-2.6396	-3.1958	-2.7396	-2.8521	-3.0146	-2.7083	-2.8792	-2.6437	-2.8937	-3.1271	-2.7792	-2.8479	-3.1375	-2.6104	13.803	15.037	74.136	116.109	-87.652	-42.128	148.267	97.684	39.003	-67.933	148.127	-167.863	26.754	117.104	90.326	141.399	0.00044481	0.00052207	0.00014901	1358	3.4101e-06	3.5484e-06	1359	361.9	4.5839e-06	4.9607e-06	409.65	137.58	118.49	40.776	4.6782e-06	51.199	0.00044636	0.00032981	0.00010323	1373.9	4.2386e-06	3.6791e-06	1376.3	367.8	4.307e-06	3.6931e-06	415.99	140.34	121.22	41.755	4.0213e-06	52.526	-104.972	-82.277	-74.168	-160.754	-19.865	-10.528	-161.103	-156.099	-34.445	-31.050	-156.726	-152.453	-151.730	-147.178	-25.635	-148.116	-8191	255	
1085.396	1	1	0	0	0.075289	0.11388	0.15925	0.19138	0.23128	0.013916	0.25629	0.11949	0.15813	0.08498	0.12093	0.17022	0.39219	0.071463	0.31224	0.16002	-2.5167	-2.8729	-2.5021	-3.2062	-2.625	-2.8438	-3.1375	-2.7854	-2.7979	-2.9542	-2.8458	-3.0542	-2.9	-2.8688	-2.9042	-2.6	-118.623	43.222	71.286	161.205	181.730	4.027	51.090	121.347	91.310	-170.176	8.668	54.421	121.130	-10.432	-47.232	157.895	0.00045249	0.00045701	0.00014574	1361.1	3.933e-06	4.6511e-06	1358.4	361.3	4.7538e-06	5.2148e-06	409.97	137.06	118.36	40.775	4.3292e-06	50.872	0.00044689	0.00035883	9.9591e-05	1375.6	4.2401e-06	3.6819e-06	1375.1	367.66	4.3322e-06	3.7898e-06	415.68	140.1	121.07	41.75	4.3763e-06	52.371	-104.899	-82.660	-75.089	-160.688	-20.166	-19.866	-160.918	-156.215	-28.819	-16.315	-156.893	-152.383	-151.818	-147.495	-28.354	-148.049	-8191	255	
1085.491	1	1	0	0	0.067043	0.015708	0.091074	0.32209	0.028191	0.029396	0.30124	0.41049	0.10065	0.13203	0.2073	0.13393	0.3168	0.2432	0.089217	0.10695	-2.5854	-2.6875	-2.6354	-3.0417	-2.6333	-2.7188	-3.1917	-2.5833	-2.75	-2.8917	-2.6771	-3.0729	-3	-2.8667	-2.8604	-2.8146	-127.126	-71.732	180.528	111.699	121.190	-56.325	171.758	160.848	92.579	177.265	157.347	-164.841	182.847	-160.059	185.382	111.755	0.00044239	0.00047371	0.00012858	1359.8	4.4834e-06	4.569e-06	1358.7	361.36	3.7224e-06	4.5697e-06	408.64	137.32	118.15	40.714	4.239e-06	51.127	0.00045058	0.00035802	0.00010208	1376.5	4.3707e-06	3.8192e-06	1374.7	367.55	4.3012e-06	3.6022e-06	415.25	140.35	121.05	41.725	3.9873e-06	52.49	-105.376	-105.290	-83.890	-160.743	-22.163	-25.163	-161.079	-156.310	-24.829	-27.298	-156.744	-152.365	-151.841	-147.386	-13.666	-148.203	-8191	255	
1085.587	1	1	0	0	0.27834	0.094275	0.039604	0.30342	0.10767	0.23257	0.2035	0.1391	0.091908	0.11978	0.02637	0.17246	0.20429	0.2112	0.12512	0.071007	-2.4167	-2.8917	-2.3396	-3.0146	-2.7083	-2.5062	-3.1667	-2.7812	-2.6562	-2.9833	-2.7854	-2.9146	-2.7438	-2.7958	-2.9917	-2.8	-70.210	38.338	-148.340	148.579	-7.358	-152.432	119.867	120.791	96.855	58.165	126.687	164.225	-150.829	156.099	153.841	55.069	0.0004353	0.00052694	0.00016417	1359	4.6304e-06	4.9259e-06	1354.3	360.79	4.5513e-06	5.2334e-06	408.53	136.51	118.61	40.742	4.33e-06	51.158	0.00044083	0.00034526	0.00010535	1375.2	4.311e-06	3.68e-06	1374.5	367.01	4.343e-06	3.6524e-06	415.17	139.93	121.18	41.675	3.9208e-06	52.543	-104.549	-78.109	-75.459	-160.838	-18.701	-33.015	-161.136	-156.204	-42.036	-24.666	-156.763	-152.282	-151.795	-147.386	-17.183	-148.024	-8191	255	
1085.683	1	1	0	0	0.17057	0.063179	0.081381	0.2477	0.033253	0.23051	0.25427	0.19069	0.18822	0.23858	0.14272	0.25708	0.11123	0.34348	0.12845	0.080625	-2.2375	-2.9104	-2.6437	-3.0187	-2.8875	-2.55	-3.2458	-2.7792	-2.7687	-3.2417	-2.8958	-2.8396	-3.0687	-2.625	-2.8312	-2.6229	-89.493	89.737	-75.443	-165.217	-50.529	-31.026	126.204	-145.879	129.183	139.984	-153.497	151.036	59.583	165.392	23.863	121.979	0.00046883	0.00060678	0.00013423	1359.4	4.5103e-06	4.7302e-06	1360.2	361.66	4.0414e-06	4.9118e-06	408.69	137.69	118.45	40.735	4.9704e-06	51.225	0.00046338	0.00035599	0.00010035	1376.7	4.2961e-06	3.7653e-06	1375.3	367.59	4.3546e-06	3.6344e-06	415.34	140.39	121.06	41.705	4.0764e-06	52.471	-105.839	-91.675	-90.018	-160.771	-18.788	-15.042	-161.041	-156.261	-30.830	-17.568	-156.881	-152.413	-151.746	-147.251	-18.882	-148.143	-8191	255	
1085.804	1	1	0	0	0.20843	0.14513	0.2058	0.17367	0.080256	0.18774	0.24275	0.35377	0.029592	0.21077	0.13228	0.07701	0.24252	0.35294	0.21155	0.14184	-2.1354	-2.9479	-2.4521	-2.875	-3.0125	-2.5958	-3.0229	-2.9542	-2.725	-3.0167	-2.7833	-2.9646	-2.9771	-2.6833	-2.9604	-2.9271	-91.588	-132.266	-170.691	98.553	63.200	-142.688	66.418	138.977	-164.318	-96.824	17.190	-86.276	144.597	177.640	139.699	70.835	0.00045155	0.00049698	0.00014114	1363.5	4.3965e-06	5.5652e-06	1355.5	361.54	4.4252e-06	3.5016e-06	406.97	136.8	118.28	40.793	4.31e-06	51.07	0.00045604	0.00035217	9.7403e-05	1377.6	4.1968e-06	3.9906e-06	1377.5	367.44	4.4123e-06	3.8447e-06	414.79	140.26	121.11	41.805	4.1113e-06	52.522	-105.461	-88.100	-75.490	-160.833	-24.367	-30.630	-161.056	-156.206	-34.367	-25.171	-156.809	-152.460	-151.812	-147.238	-16.041	-148.169	-8191	255	
1085.900	1	1	0	0	0.013349	0.046353	0.17422	0.19133	0.27744	0.29147	0.3863	0.075448	0.23542	0.15634	0.15287	0.1828	0.18428	0.14073	0.054666	0.1811	-2.1875	-3.0667	-2.5604	-3.0542	-2.9521	-2.7104	-3.05	-2.9958	-2.6688	-3.0479	-2.6896	-2.9625	-3.0438	-2.6208	-2.7708	-2.9167	-24.151	-119.018	51.921	119.370	-169.794	-18.648	120.559	-146.335	-153.075	-115.602	5.670	177.778	133.222	-51.565	71.457	80.495	0.00044559	0.00061039	0.0001227	1361.1	4.9416e-06	4.2041e-06	1357.4	361.62	4.4644e-06	4.9021e-06	410.07	137.12	118.43	40.874	4.7068e-06	51.179	0.00045343	0.00035404	9.7403e-05	1377.7	4.0982e-06	3.9225e-06	1376.6	368.07	4.4743e-06	3.7453e-06	415.48	140.2	121.17	41.802	4.2109e-06	52.424	-105.456	-84.277	-87.658	-160.831	-25.762	-21.514	-161.274	-156.249	-39.258	-13.383	-156.823	-152.398	-151.999	-147.382	-30.475	-147.886	-8191	255	
1085.996	1	1	0	0	0.18675	0.23164	0.23483	0.16811	0.17752	0.21526	0.31149	0.067609	0.20131	0.07855	0.047195	0.13155	0.1625	0.36545	0.19832	0.19649	-2.0375	-3.1333	-2.6833	-3.1146	-2.8812	-2.4813	-3.2313	-3.0146	-2.4437	-3.0667	-2.8187	-2.9021	-3.0563	-2.7062	-2.9562	-3.1229	109.236	68.482	32.798	144.069	-116.920	86.965	141.433	129.792	150.813	-148.766	-169.569	135.659	147.439	116.865	158.796	108.824	0.00045421	0.00041685	0.00014876	1360.6	4.5171e-06	5.8376e-06	1363.8	361.61	4.6585e-06	4.3556e-06	410.22	137.19	118.48	40.666	4.8367e-06	51.129	0.00047482	0.00033631	9.9131e-05	1378.3	4.2781e-06	3.8959e-06	1378.4	368.14	4.4707e-06	3.894e-06	416.18	140.56	121.19	41.751	4.1599e-06	52.469	-104.591	-97.270	-79.812	-160.700	-11.186	-20.546	-161.130	-156.117	-34.293	-29.640	-157.087	-152.449	-152.042	-147.377	-24.499	-147.912	-8191	255	
1086.068	1	1	0	0	0.28473	0.048865	0.10888	0.3692	0.06838	0.23892	0.14099	0.32806	0.13978	0.27607	0.035728	0.3674	0.048743	0.10339	0.21863	0.03944	-1.9958	-3.0542	-2.5187	-2.625	-3.0812	-2.6	-2.7833	-3.1792	-2.5479	-3.0292	-3.0042	-2.7542	-3.2167	-2.6396	-2.9104	-3.0208	-54.962	13.163	-108.602	158.552	86.226	-48.959	113.772	111.236	66.287	-160.960	-133.518	-161.721	-103.284	106.951	-21.353	-88.961	0.00043179	0.00044909	0.0001307	1363.5	3.7377e-06	5.2288e-06	1358.4	361.52	4.4868e-06	5.0932e-06	409.71	137.16	118.48	40.743	4.7392e-06	51.022	0.00045494	0.00034103	9.6044e-05	1377.9	4.1467e-06	3.9471e-06	1376.8	368.07	4.6379e-06	3.6211e-06	416.02	140.23	121.07	41.765	4.4111e-06	52.499	-106.675	-102.093	-82.040	-160.798	-32.261	-28.537	-161.035	-156.321	-32.074	-27.182	-156.965	-152.723	-151.687	-147.295	-15.472	-148.134	-8191	255	
1086.188	1	1	0	0	0.039507	0.11414	0.14075	0.2823	0.095688	0.14733	0.12155	0.25472	0.28515	0.051884	0.16669	0.17366	0.24638	0.18174	0.18766	0.35711	-1.9708	-2.8271	-2.775	-2.7438	-3.0833	-2.6792	-2.8604	-3.2938	-2.6417	-2.9062	-2.9625	-2.6188	-2.9083	-2.8	-2.8	-2.9208	-117.762	-158.955	33.547	101.454	178.265	140.109	168.995	110.090	-7.868	102.086	87.018	-169.140	161.916	-60.619	37.092	125.541	0.00044405	0.00055889	0.00012178	1358.4	4.6436e-06	5.5989e-06	1358.9	361.62	4.1485e-06	3.9042e-06	409.63	137.27	118.54	40.811	4.215e-06	51.196	0.00046849	0.0003477	9.3763e-05	1377.4	4.4245e-06	4.1204e-06	1376.6	367.82	4.3229e-06	3.8447e-06	415.75	140.32	121.07	41.793	4.0302e-06	52.478	-104.155	-90.729	-78.729	-160.890	-34.155	-25.255	-161.081	-156.117	-42.390	-14.285	-157.014	-152.430	-151.810	-147.320	-26.219	-148.246	-8191	255	
1086.284	1	1	0	0	0.17573	0.11949	0.064063	0.11937	0.19281	0.168	0.19144	0.36163	0.10685	0.10777	0.21981	0.13884	0.11454	0.11951	0.061125	0.17498	-2.3396	-2.7208	-2.9917	-2.7542	-2.8688	-2.7438	-2.675	-3.1	-2.7229	-2.6208	-2.8917	-2.6479	-3.1146	-2.8208	-2.5187	-3.1125	-119.603	-14.398	-31.314	-127.381	9.311	86.922	81.602	133.180	105.467	-0.605	-151.730	153.927	-159.441	121.562	90.944	150.335	0.00045512	0.00049766	0.00013984	1363.8	3.6527e-06	5.7338e-06	1361.6	362.3	4.1226e-06	4.5447e-06	408.64	137.25	118.96	40.546	4.4283e-06	50.921	0.00046371	0.00034835	0.00010233	1378.3	4.1938e-06	3.9338e-06	1378.3	367.99	4.4728e-06	3.7756e-06	415.94	140.44	121.26	41.736	4.3949e-06	52.418	-104.511	-84.206	-82.295	-160.823	-22.462	-15.109	-161.065	-156.218	-35.701	-26.307	-156.884	-152.536	-151.774	-147.445	-25.970	-147.918	-8191	255	
1086.381	1	1	0	0	0.04369	0.11488	0.038565	0.506	0.17986	0.094837	0.23995	0.2596	0.089189	0.045508	0.095686	0.16918	0.17058	0.10256	0.16291	0.26228	-2.3	-2.7146	-2.8729	-2.6979	-2.8917	-2.6688	-2.875	-3.2354	-2.6021	-2.9313	-3.0312	-2.6625	-3.1312	-2.8042	-2.6042	-3.1	-120.950	86.952	20.034	124.730	84.173	81.899	169.188	101.619	-119.587	-72.392	52.415	-134.405	161.761	78.555	0.500	-160.495	0.00043984	0.00045652	0.00013676	1358.7	4.6154e-06	4.7536e-06	1360.5	359.89	3.8399e-06	4.4163e-06	409.24	137.57	118.63	40.811	5.2657e-06	51.34	0.00045548	0.00035786	9.996e-05	1377	4.1647e-06	3.8164e-06	1377.8	367.19	4.457e-06	3.822e-06	415.08	140.47	121.36	41.799	4.3114e-06	52.532	-105.953	-81.893	-84.875	-160.799	-27.809	-22.305	-160.981	-156.235	-32.589	-22.527	-156.868	-152.470	-152.056	-147.507	-14.997	-148.430	-8191	255	
1086.499	1	1	0	0	0.41811	0.19007	0.1366	0.29713	0.077909	0.074704	0.27071	0.20894	0.20925	0.1568	0.11319	0.10087	0.26828	0.101	0.23182	0.11274	-2.0271	-2.7167	-2.8542	-2.7458	-2.8833	-2.9854	-2.8	-3.1646	-2.6521	-2.8583	-3.1958	-2.65	-3.0521	-2.95	-2.4292	-2.8812	1.743	27.857	57.789	146.425	-143.582	6.810	155.988	-153.912	-14.910	79.835	-115.543	103.066	37.001	-148.808	-79.760	136.953	0.00044081	0.00050853	0.00011113	1360.6	4.7335e-06	4.797e-06	1360.9	361.44	4.1432e-06	5.0869e-06	409.89	137.32	119.13	40.708	3.9927e-06	51.214	0.00044971	0.0003781	9.3555e-05	1376.9	4.3446e-06	3.8817e-06	1377.8	367.48	4.4541e-06	4.0105e-06	415.93	140.32	121.28	41.759	4.1315e-06	52.533	-105.261	-91.382	-85.440	-160.780	-34.019	-27.840	-161.002	-156.221	-30.147	-28.219	-156.935	-152.571	-151.682	-147.229	-18.009	-147.909	-8191	255	
1086.596	1	1	0	0	0.24554	0.11928	0.30335	0.25485	0.10786	0.061683	0.1536	0.17089	0.14014	0.12028	0.26825	0.05566	0.077558	0.10394	0.15835	0.11773	-2.1333	-2.4938	-2.8396	-2.7896	-2.6229	-2.7812	-2.6521	-3.0417	-2.7812	-2.5062	-3.1354	-2.6354	-2.85	-3.0312	-2.3625	-2.9229	-170.601	178.019	-172.151	-171.385	-136.916	-108.844	63.724	120.559	102.503	-73.248	135.813	-154.472	-13.168	-170.965	-83.520	-140.439	0.00046741	0.00053377	0.00013549	1361.6	4.1342e-06	5.5811e-06	1355	360.72	5.1954e-06	4.4105e-06	407.92	136.74	118.18	40.738	4.7003e-06	50.783	0.00045185	0.00037509	9.9292e-05	1377.7	4.2983e-06	3.8249e-06	1373.8	367.24	4.6221e-06	4.0323e-06	415.17	140.11	121.04	41.706	4.4727e-06	52.329	-105.032	-94.135	-79.249	-160.795	-20.679	-35.936	-161.024	-156.219	-28.487	-30.539	-156.589	-152.324	-151.713	-147.261	-13.835	-147.988	-8191	255	
1086.669	1	1	0	0	0.29147	0.13978	0.05247	0.19676	0.17626	0.27092	0.32344	0.20132	0.51646	0.079669	0.24858	0.0080023	0.13256	0.14799	0.24858	0.20139	-2.2167	-2.6	-2.9458	-2.9125	-2.8187	-2.7792	-2.7583	-3.0042	-2.8104	-2.5729	-3.0187	-2.7292	-2.9083	-3.0583	-2.4146	-3.0271	-107.487	-129.341	106.695	95.583	-173.319	68.181	128.756	53.387	-137.146	75.819	148.210	125.199	108.475	-149.960	28.274	69.914	0.00042967	0.00048211	0.00014344	1356	4.5816e-06	4.7327e-06	1351.9	360.32	4.6979e-06	4.9996e-06	409.52	136.66	118.21	40.774	4.4131e-06	51.173	0.00045328	0.00035737	9.5583e-05	1373.9	4.1594e-06	3.7046e-06	1372.9	367.17	4.2681e-06	4.2048e-06	415.01	139.99	120.98	41.725	4.1307e-06	52.424	-103.462	-86.233	-98.292	-160.758	-32.915	-22.473	-161.054	-156.105	-40.288	-27.048	-156.846	-152.297	-151.855	-147.290	-22.698	-148.060	-8191	255	
1086.788	1	1	0	0	0.13094	0.22154	0.12369	0.0419	0.2553	0.21359	0.30678	0.072008	0.26249	0.10642	0.212	0.36267	0.35667	0.19637	0.17411	0.38702	-2.2021	-2.5021	-3.0438	-2.8771	-2.7354	-3.1	-2.8083	-3.0125	-2.8292	-2.5792	-3.1375	-2.75	-2.8167	-3.15	-2.6104	-2.9979	54.819	-73.811	80.659	-169.328	-80.100	171.915	119.690	-98.831	156.028	26.824	-156.021	158.357	106.809	-154.223	-53.189	155.156	0.00044845	0.00039258	0.00014671	1357.4	4.0226e-06	4.768e-06	1350.9	359.45	4.0815e-06	4.6798e-06	407.95	136.42	118.44	40.791	3.4039e-06	50.889	0.00045479	0.0003455	9.7495e-05	1373.5	4.4282e-06	3.6961e-06	1371.3	367.06	4.3149e-06	4.2123e-06	414.68	139.96	121.04	41.73	3.89e-06	52.391	-105.094	-79.522	-83.573	-161.015	-12.134	-28.023	-160.984	-156.187	-38.697	-14.440	-157.045	-152.372	-151.785	-147.289	-36.960	-148.155	-8191	255	
1086.884	1	1	0	0	0.12142	0.20383	0.089647	0.16726	0.27517	0.040351	0.19809	0.3632	0.17045	0.23223	0.13435	0.045772	0.076636	0.12955	0.11888	0.29741	-2.3937	-2.5833	-2.9083	-2.9708	-2.7875	-3.0396	-2.7354	-2.975	-3.0792	-2.3729	-2.9979	-2.6771	-2.6917	-3.0271	-2.6146	-3.0083	-137.388	145.512	-65.917	123.727	5.669	-37.390	72.604	161.772	99.314	-119.175	159.306	3.964	58.398	-172.853	-72.812	164.238	0.00044714	0.00037924	0.00013999	1353.5	4.6368e-06	5.9655e-06	1357.4	359.76	4.7675e-06	4.6409e-06	407.94	137.09	118.2	40.827	3.9056e-06	51.293	0.00045925	0.00034428	9.5859e-05	1372	4.3401e-06	3.7065e-06	1374.7	366.73	4.1916e-06	4.0608e-06	414.7	140.08	121.07	41.736	4.1801e-06	52.546	-105.124	-97.193	-72.247	-160.763	-17.915	-16.575	-160.852	-156.223	-32.403	-20.815	-156.764	-152.555	-151.743	-147.467	-26.327	-148.325	-8191	255	
1086.980	1	1	0	0	0.20931	0.19553	0.17571	0.37935	0.23023	0.12517	0.22901	0.30375	0.054907	0.22453	0.14068	0.28561	0.34234	0.097655	0.1814	0.13894	-2.4646	-2.6958	-2.875	-2.9333	-2.6229	-2.925	-2.8146	-2.8896	-2.8625	-2.4958	-3.0312	-2.8625	-2.7917	-3.0792	-2.6813	-2.6292	-131.460	-156.107	-166.669	132.230	55.327	-113.850	41.798	150.480	25.604	183.017	143.347	143.439	-140.788	-156.656	-94.888	-118.365	0.00043299	0.00050041	0.00013578	1359	4.7881e-06	4.9576e-06	1353.5	361.2	4.4489e-06	4.2702e-06	409.01	137.12	118.68	40.693	4.1129e-06	51.079	0.00045453	0.00035599	9.5859e-05	1373.8	4.3872e-06	3.6885e-06	1372	367.25	4.3286e-06	3.8192e-06	415.29	140.14	121.09	41.708	4.0221e-06	52.443	-105.807	-84.010	-81.524	-160.918	-25.902	-21.669	-161.142	-156.369	-40.032	-28.817	-157.006	-152.362	-151.579	-147.498	-29.312	-148.008	-8191	255	
1087.101	1	1	0	0	0.21632	0.17665	0.12582	0.29229	0.060287	0.13211	0.2747	0.21817	0.12246	0.035013	0.027359	0.24174	0.2505	0.069615	0.26636	0.02827	-2.4792	-2.7271	-2.7646	-3.225	-2.5354	-2.9313	-2.7979	-2.7562	-3.0917	-2.4542	-2.975	-3.0875	-2.6271	-3.125	-2.8542	-2.675	70.918	8.945	-61.229	176.025	154.514	-40.297	136.936	115.682	68.236	133.442	-92.214	117.372	-102.296	2.978	17.958	75.824	0.00043581	0.00059397	0.00014956	1355.7	4.6744e-06	5.1191e-06	1352	360.8	4.2565e-06	5.4511e-06	409.02	137.21	118.18	40.564	5.0335e-06	51.094	0.00043718	0.00037062	0.00010213	1373	4.4573e-06	3.7785e-06	1373.6	367.15	4.1715e-06	3.9556e-06	414.64	140.14	120.9	41.68	4.1404e-06	52.509	-103.943	-78.236	-77.200	-160.898	-37.564	-23.225	-160.995	-156.319	-29.704	-19.992	-157.033	-152.379	-151.946	-147.261	-24.345	-148.006	-8191	255	
1087.197	1	1	0	0	0.16619	0.1502	0.1913	0.36481	0.079691	0.16748	0.25871	0.23372	0.13202	0.22072	0.21547	0.1675	0.19394	0.23252	0.071276	0.20666	-2.6312	-2.725	-2.575	-3.2812	-2.5896	-2.9354	-3.0646	-2.7167	-2.9417	-2.7542	-2.8771	-3.1479	-2.6542	-2.7146	-2.9375	-2.6271	62.932	13.986	13.788	-163.253	-51.187	-59.772	134.673	141.309	-31.492	-110.375	92.342	131.817	-172.264	124.966	-42.805	63.582	0.00043651	0.00052906	0.0001768	1357.1	4.4978e-06	5.1632e-06	1356.9	360.48	4.2073e-06	4.9379e-06	408.54	136.56	118.23	40.729	4.2379e-06	51.326	0.00044282	0.00036452	0.00010466	1374.1	4.4894e-06	3.6582e-06	1375.6	367.13	4.3063e-06	3.9584e-06	415.49	139.95	120.97	41.722	4.1947e-06	52.48	-106.744	-88.249	-78.555	-160.880	-38.080	-21.993	-161.030	-156.055	-40.010	-32.576	-156.780	-152.588	-152.034	-147.284	-20.117	-148.292	-8191	255	
1087.291	1	1	0	0	0.21138	0.057143	0.35437	0.292	0.2089	0.077676	0.1903	0.22637	0.20028	0.16272	0.089472	0.11699	0.2147	0.27733	0.040573	0.22158	-2.5938	-2.7	-2.5458	-3.1896	-2.5312	-2.6979	-3.0042	-2.6688	-3.0896	-2.7562	-2.7521	-3.0854	-2.6292	-2.9333	-3.05	-2.6562	92.495	-117.284	33.411	148.926	64.834	166.930	77.064	77.430	-127.982	-20.765	100.189	160.499	170.034	-148.430	12.015	-72.069	0.00043704	0.00052572	0.00012418	1355.7	3.9276e-06	5.3176e-06	1357.1	361.5	4.9875e-06	4.6338e-06	409.82	137.33	118.09	40.774	4.4519e-06	51.066	0.00044847	0.00037981	0.00010019	1375.2	4.1706e-06	3.8922e-06	1375.7	367.25	4.4512e-06	4.0399e-06	415.88	140.2	120.99	41.769	4.1064e-06	52.465	-103.574	-90.597	-82.953	-160.911	-33.333	-22.146	-160.990	-156.211	-30.601	-17.619	-156.785	-152.427	-151.887	-147.288	-24.656	-148.099	-8191	255	
1087.365	1	1	0	0	0.037142	0.12354	0.17632	0.20678	0.31839	0.19775	0.27656	0.23959	0.10792	0.090546	0.29204	0.29237	0.1714	0.33697	0.24333	0.086835	-2.6583	-2.7729	-2.7521	-3.275	-2.6375	-2.6333	-3.2271	-2.775	-2.9583	-2.6896	-2.8187	-3.1354	-2.7771	-2.8312	-3.0833	-2.6917	21.483	173.142	-89.979	154.285	-67.168	153.595	160.459	167.142	-45.927	129.536	-156.841	183.260	68.785	-157.700	-49.126	176.534	0.00043256	0.00056846	0.00014196	1359.4	5.1135e-06	4.4191e-06	1360.8	360.83	4.4573e-06	4.7712e-06	409.12	136.74	118.74	40.648	4.7051e-06	51.006	0.00045432	0.00034192	9.9338e-05	1374.9	4.3677e-06	3.7937e-06	1376.1	367.31	4.2616e-06	3.6884e-06	415.74	140.08	121.15	41.704	4.2312e-06	52.46	-105.297	-91.110	-78.905	-160.834	-31.815	-21.053	-160.997	-156.226	-40.298	-16.639	-156.726	-152.499	-151.865	-147.455	-22.822	-148.240	-8191	255	
1087.484	1	1	0	0	0.17922	0.058867	0.18784	0.44185	0.14842	0.14876	0.097942	0.16966	0.28174	0.35932	0.31277	0.33911	0.15072	0.13835	0.24165	0.17068	-2.2875	-2.7562	-2.45	-3.0687	-2.6125	-2.8521	-3.1063	-2.6021	-2.775	-2.9396	-2.7146	-2.9979	-2.6458	-2.7854	-2.8875	-2.5917	-110.364	-30.696	131.175	149.085	-42.984	-52.814	-150.296	-162.725	-17.127	89.346	106.447	52.850	50.067	-152.830	74.531	134.791	0.00043222	0.00041939	0.00011999	1360.5	4.5117e-06	3.8588e-06	1360.1	360.86	4.87e-06	4.6322e-06	409.96	137.03	118.95	40.797	4.6581e-06	51.025	0.00044847	0.00034306	9.8232e-05	1376.4	4.4118e-06	3.8457e-06	1376	367.63	4.338e-06	3.8798e-06	415.35	140.35	121.26	41.748	4.2093e-06	52.409	-105.664	-89.245	-87.055	-160.788	-22.828	-22.561	-161.056	-156.199	-38.815	-25.130	-156.953	-152.455	-151.942	-147.364	-14.792	-147.984	-8191	255	
1087.580	1	1	0	0	0.11161	0.11611	0.087485	0.19108	0.014068	0.18789	0.17707	0.049684	0.15129	0.045216	0.10358	0.30515	0.1696	0.32851	0.27193	0.157	-2.4354	-2.8479	-2.1729	-2.9542	-2.625	-2.6208	-3.2833	-2.8958	-2.8167	-2.8812	-2.6854	-3.0458	-2.6875	-2.7917	-3.0604	-2.8312	-40.545	-20.005	-114.725	-137.099	99.493	75.990	181.602	134.956	88.040	-24.626	85.966	-136.672	-149.690	116.926	16.959	-104.692	0.00043762	0.00051836	0.00014733	1360.4	5.2174e-06	4.6767e-06	1363.8	362.05	4.5186e-06	5.6066e-06	410.05	137.56	118.31	40.746	4.255e-06	51.145	0.00045747	0.00035054	0.0001001	1377.8	4.4551e-06	3.8855e-06	1379.1	368.35	4.3813e-06	3.8248e-06	415.91	140.36	121.1	41.702	4.0407e-06	52.532	-104.457	-86.596	-83.109	-160.849	-23.448	-16.720	-161.069	-156.185	-33.261	-28.087	-156.898	-152.269	-151.960	-147.412	-23.625	-148.134	-8191	255	
1087.676	1	1	0	0	0.098998	0.067543	0.159	0.18935	0.18609	0.36392	0.10572	0.29778	0.089713	0.21854	0.11566	0.13988	0.23656	0.16134	0.14544	0.16131	-2.3604	-2.7625	-2.3896	-3.0729	-2.6958	-2.5938	-3.05	-2.7646	-2.8021	-2.9021	-2.5333	-3.0062	-2.9646	-2.6729	-2.9771	-2.6667	182.687	26.007	-130.705	182.556	-34.036	-10.223	140.648	121.529	-120.093	-76.444	-64.402	31.369	-170.717	-109.894	99.356	151.502	0.00043656	0.00044147	0.00014016	1360.9	4.4961e-06	4.6133e-06	1357.8	361.64	4.2749e-06	4.3631e-06	408.63	136.99	118.72	40.682	4.4098e-06	51.289	0.00044876	0.00034908	0.00010535	1375.8	4.2677e-06	4.019e-06	1376.5	367.84	4.5543e-06	3.7159e-06	414.98	140.1	121.21	41.772	3.9435e-06	52.436	-105.299	-86.088	-79.279	-160.834	-12.851	-30.047	-161.065	-156.352	-31.801	-19.714	-157.048	-152.455	-151.885	-147.132	-18.038	-148.162	-8191	255	
1087.772	1	1	0	0	0.20845	0.15712	0.10693	0.34357	0.10542	0.15418	0.048154	0.43316	0.2008	0.073405	0.2087	0.27672	0.24814	0.085789	0.1831	0.21043	-2.2271	-2.9125	-2.475	-2.9354	-3.0479	-2.5833	-3.2479	-2.8979	-2.7583	-3	-2.5333	-2.9104	-2.9958	-2.8979	-2.8104	-2.775	-113.850	61.388	-123.496	-169.041	-58.367	151.689	86.384	-160.578	177.169	160.824	-126.219	105.842	-72.082	156.736	105.293	145.933	0.00044366	0.00050695	0.00015111	1363.9	4.0986e-06	5.1146e-06	1358.4	362.38	4.0514e-06	4.9397e-06	409.5	137.4	118.57	40.867	4.7362e-06	51.129	0.00045658	0.00036558	0.00010077	1377.5	4.1684e-06	4.074e-06	1376.8	368.14	4.3676e-06	3.4402e-06	415.86	140.42	121.11	41.803	4.1607e-06	52.501	-105.063	-90.977	-79.296	-160.714	-27.443	-22.434	-160.994	-156.183	-29.307	-22.382	-156.840	-152.363	-151.831	-147.352	-21.347	-148.033	-8191	255	
1087.893	1	1	0	0	0.21688	0.15097	0.18162	0.18866	0.27783	0.064282	0.28774	0.29587	0.28366	0.037174	0.18321	0.23243	0.22081	0.17574	0.14273	0.065513	-2.2042	-2.9021	-2.5812	-3.0292	-2.8604	-2.5875	-2.9042	-2.7417	-2.6771	-3.0062	-2.6271	-3.0479	-2.8604	-2.7542	-2.9042	-3.0542	-109.965	115.859	-170.381	165.734	-173.435	147.199	137.275	95.757	-80.045	-45.984	-161.983	-137.401	-126.018	-144.008	-126.917	-93.815	0.00046234	0.00059158	0.00014095	1364	3.7741e-06	4.3625e-06	1357.5	360.93	4.1628e-06	4.1074e-06	409.37	137.22	118.36	40.899	4.4168e-06	51.272	0.00046276	0.000359	0.00010869	1378.1	4.1923e-06	3.9367e-06	1378.2	367.57	4.4202e-06	3.8248e-06	415.5	140.24	121.14	41.792	4.1007e-06	52.524	-105.876	-87.480	-80.586	-160.783	-20.357	-28.753	-161.180	-155.978	-34.445	-16.414	-157.036	-152.308	-151.959	-147.308	-17.764	-148.342	-8191	255	
1087.964	1	1	0	0	0.1327	0.27343	0.22462	0.18409	0.052655	0.1511	0.29079	0.14781	0.13834	0.1026	0.083886	0.26479	0.17014	0.16145	0.070936	0.29168	-2.0021	-2.9854	-2.4458	-2.5958	-3	-2.4062	-3.0458	-3.1	-2.5563	-3.0625	-2.7562	-2.7313	-3.1479	-2.5958	-2.9083	-2.8646	-162.534	-106.376	68.036	100.874	102.615	-72.496	114.501	161.281	-82.108	103.530	98.234	169.935	145.643	39.126	145.342	167.434	0.00044251	0.00047156	0.00014061	1360.5	4.22e-06	4.1904e-06	1362.5	360.49	4.6012e-06	3.9228e-06	408.02	137.31	118.21	40.592	4.3563e-06	51.259	0.00044939	0.00034526	0.00010044	1377.1	4.1124e-06	3.8931e-06	1377.7	367.56	4.6278e-06	3.5226e-06	415.07	140.38	121.02	41.68	4.3673e-06	52.53	-104.895	-86.505	-77.301	-160.892	-23.632	-24.742	-161.118	-156.368	-27.527	-30.786	-156.960	-152.242	-151.947	-147.378	-15.041	-148.105	-8191	255	
1088.061	1	1	0	0	0.092989	0.1884	0.042635	0.22146	0.11693	0.094468	0.18752	0.052394	0.22227	0.22165	0.09336	0.14071	0.33129	0.17934	0.21275	0.26103	-2.0375	-2.8292	-2.6479	-2.8375	-2.9688	-2.5563	-2.9917	-3.1896	-2.6063	-2.9813	-3.0187	-2.6937	-3.2917	-2.8292	-2.7271	-3.0417	-110.986	-20.133	-16.226	155.970	-74.770	-4.787	89.937	-127.505	-131.543	-63.824	-151.812	142.002	146.191	154.491	-51.380	105.613	0.00044424	0.00048156	0.00011492	1357.6	4.2039e-06	5.186e-06	1357.7	360.11	4.1966e-06	4.7839e-06	408.51	137.44	118.78	40.529	4.0046e-06	51.196	0.00045574	0.00034371	9.8117e-05	1375.4	4.09e-06	4.1119e-06	1375.5	367.38	4.6199e-06	3.7159e-06	415.36	140.48	121.18	41.713	4.2174e-06	52.526	-106.511	-72.725	-82.839	-160.834	-23.860	-17.147	-161.043	-156.085	-34.837	-21.452	-157.022	-152.420	-151.665	-147.360	-27.629	-147.940	-8191	255	
1088.181	1	1	0	0	0.19175	0.29431	0.14983	0.18028	0.1804	0.070349	0.10683	0.27891	0.12008	0.18784	0.17913	0.26335	0.13395	0.33293	0.16981	0.17063	-2.0625	-2.7896	-2.6604	-2.8729	-3.1354	-2.6875	-2.9	-3.1542	-2.5479	-2.8646	-2.9958	-2.6896	-3.2062	-2.6542	-2.8729	-3.1208	142.620	-4.440	31.604	153.289	123.635	-87.204	152.013	182.600	-19.338	146.251	170.705	129.720	-14.231	133.068	-135.109	111.908	0.0004603	0.00042635	0.00015427	1363	3.6635e-06	4.9926e-06	1362.8	361.72	4.012e-06	3.7899e-06	410.2	136.91	118.55	40.816	4.7774e-06	51.157	0.00046546	0.00035363	0.00010263	1379	4.0631e-06	3.9338e-06	1378.6	367.87	4.674e-06	3.6439e-06	415.84	140.36	121.31	41.772	4.3017e-06	52.48	-104.514	-88.819	-77.024	-160.811	-28.221	-22.504	-161.067	-156.287	-34.631	-24.718	-156.833	-152.492	-151.828	-147.342	-15.498	-148.276	-8191	255	
1088.277	1	1	0	0	0.090975	0.08533	0.14434	0.072373	0.1744	0.37057	0.14794	0.10332	0.095603	0.26016	0.12594	0.13097	0.17848	0.090549	0.028743	0.090903	-2.0812	-2.8667	-2.8583	-2.7188	-2.95	-2.9542	-2.9333	-3.1	-2.5208	-2.8812	-2.8521	-2.7583	-3.1063	-2.6167	-2.5229	-2.9479	-142.079	49.095	-25.397	175.292	150.863	-129.449	87.432	32.888	-135.257	8.485	144.037	104.555	-158.627	-128.382	31.481	71.716	0.00044674	0.00047853	0.00013728	1361.9	4.5764e-06	5.3823e-06	1361.5	361.55	4.442e-06	5.3259e-06	409.17	137.16	118.61	40.795	5.2964e-06	51.331	0.00045779	0.00035469	0.00010464	1377	4.1998e-06	3.8457e-06	1379.5	368.14	4.5788e-06	4.164e-06	415.52	140.43	121.5	41.764	4.4354e-06	52.548	-105.080	-92.425	-96.988	-160.787	-30.581	-21.153	-161.216	-156.106	-36.061	-25.005	-156.928	-152.498	-151.846	-147.266	-33.131	-148.469	-8191	255	
1088.372	1	1	0	0	0.13107	0.22296	0.036566	0.29644	0.154	0.15757	0.29071	0.13759	0.13548	0.15738	0.1914	0.072751	0.16537	0.027325	0.11313	0.19334	-2.1875	-2.7729	-3.0021	-2.8042	-3.0146	-2.9271	-2.7562	-3.2542	-2.5979	-2.7771	-3.2833	-2.4562	-3.0625	-2.9021	-2.5792	-2.9667	-65.394	169.972	29.390	175.918	-103.391	132.436	130.254	107.223	-131.218	-51.490	145.512	102.288	-161.833	172.165	-40.283	170.920	0.00043955	0.00042737	0.0001191	1363.3	4.3296e-06	5.5476e-06	1361.6	362.83	4.0562e-06	4.1099e-06	409.45	137.58	118.41	40.68	5.0127e-06	51.305	0.0004588	0.00037021	9.5721e-05	1378.2	4.202e-06	3.8884e-06	1379.3	368.6	4.4151e-06	3.9158e-06	416.39	140.47	121.34	41.752	4.2855e-06	52.543	-104.933	-93.582	-91.344	-160.607	-21.949	-28.480	-161.180	-156.110	-36.015	-27.483	-156.972	-152.099	-151.800	-147.203	-27.625	-148.280	-8191	255	
1088.470	1	1	0	0	0.42118	0.13839	0.23206	0.28057	0.12735	0.20938	0.2151	0.36661	0.11266	0.051173	0.3141	0.071608	0.23331	0.1596	0.11051	0.076282	-2.1917	-2.6833	-2.725	-2.775	-2.85	-2.6833	-2.7979	-3.0042	-2.6542	-2.7458	-3.0958	-2.5438	-2.9979	-3.0438	-2.6875	-3.1771	-100.072	-105.048	117.090	133.369	-72.207	-136.208	-77.162	185.628	-102.910	171.900	140.947	78.747	69.336	145.958	178.182	-167.845	0.00045608	0.00044475	0.00012829	1369.1	4.6746e-06	5.1012e-06	1361	361.66	4.8966e-06	5.7904e-06	408.82	137.7	118.46	40.801	5.6553e-06	51.248	0.0004588	0.0003603	9.9845e-05	1381.5	4.4402e-06	4.0323e-06	1379.4	368.14	4.6365e-06	4.0276e-06	415.97	140.59	121.15	41.806	4.4565e-06	52.51	-105.342	-88.050	-82.749	-160.854	-35.760	-25.933	-161.038	-156.130	-34.593	-27.617	-156.801	-152.395	-151.676	-147.311	-21.406	-148.149	-8191	255	
1088.564	1	1	0	0	0.36556	0.067671	0.25946	0.18497	0.15678	0.15942	0.10834	0.27525	0.15524	0.3094	0.13506	0.20559	0.10324	0.13672	0.22364	0.029126	-2.4021	-2.6729	-2.9875	-2.725	-2.7375	-2.9938	-2.5563	-3.1292	-2.5833	-2.5604	-3.1396	-2.6104	-3.0292	-2.8604	-2.4833	-3.1063	-1.153	5.029	-156.306	131.333	72.916	-45.008	-87.171	134.894	-119.394	-121.268	111.348	147.219	-160.324	121.313	-109.054	-16.289	0.00042875	0.00042847	0.00012948	1368.2	4.6105e-06	4.7688e-06	1361.5	361.98	4.6498e-06	5.2533e-06	410.49	137.34	119.06	40.762	4.0167e-06	51.21	0.00044829	0.00036599	9.5583e-05	1381.3	4.4611e-06	3.9367e-06	1380.7	368.25	4.5788e-06	4.1129e-06	416.63	140.54	121.53	41.777	4.1826e-06	52.545	-105.903	-93.159	-77.631	-160.714	-29.131	-21.679	-160.993	-156.285	-29.271	-29.427	-156.991	-152.493	-151.687	-147.250	-26.850	-148.234	-8191	255	
1088.660	1	1	0	0	0.26517	0.097853	0.10011	0.24556	0.31152	0.33514	0.19966	0.44328	0.084244	0.11313	0.082241	0.14441	0.17227	0.15112	0.10282	0.2137	-2.2229	-2.5104	-2.9292	-2.9458	-2.7729	-2.8833	-2.8021	-3.0396	-2.4917	-2.5208	-3.2021	-2.7375	-2.8333	-2.8187	-2.5479	-2.8875	-68.946	-45.060	107.937	139.663	-111.172	118.848	132.625	139.664	-38.861	152.428	-75.802	50.195	184.001	-162.671	34.587	150.271	0.00044123	0.00044981	0.00012946	1366.2	5.0642e-06	4.1993e-06	1365.8	362.05	4.2104e-06	4.6622e-06	409.16	137.12	118.82	40.719	5.0091e-06	51.006	0.00044974	0.00036729	9.7564e-05	1381.4	4.5171e-06	3.6488e-06	1381.5	368.66	4.493e-06	4.02e-06	415.86	140.43	121.4	41.799	4.3836e-06	52.536	-106.224	-77.632	-83.314	-160.802	-26.148	-10.676	-161.151	-156.177	-36.865	-24.807	-157.032	-152.406	-151.952	-147.305	-20.751	-147.977	-8191	255	
1088.781	1	1	0	0	0.10083	0.10559	0.14834	0.41441	0.26517	0.04788	0.15771	0.20371	0.26497	0.15883	0.15142	0.16096	0.083652	0.1678	0.1477	0.19295	-2.4792	-2.5396	-3.0667	-2.8229	-2.6083	-2.8917	-2.9104	-3.1042	-2.9854	-2.5958	-3.0583	-2.8792	-2.6958	-3.1125	-2.6396	-2.9958	-21.848	-116.845	121.598	142.663	-154.365	109.520	152.128	137.391	-50.870	-163.349	-25.611	141.357	-78.297	-81.227	152.547	-0.346	0.00043936	0.00046076	0.0001266	1365.9	5.1789e-06	5.7717e-06	1362	361.78	4.8705e-06	3.9976e-06	411.07	137.65	118.93	40.732	4.4567e-06	51.281	0.00045459	0.00036225	9.9269e-05	1380.3	4.3752e-06	4.0001e-06	1380	368.41	4.4944e-06	3.9234e-06	416.36	140.59	121.46	41.751	4.3584e-06	52.587	-104.077	-93.683	-73.063	-160.956	-22.132	-36.494	-161.072	-156.067	-34.354	-28.575	-156.815	-152.626	-151.838	-147.439	-25.983	-148.033	-8191	255	
1088.877	1	1	0	0	0.20246	0.3693	0.089038	0.24659	0.16389	0.058856	0.33753	0.036533	0.15002	0.083198	0.20576	0.12492	0.28714	0.28715	0.16774	0.29722	-2.5104	-2.5333	-2.8229	-2.8854	-2.4875	-3.0021	-2.9396	-2.9208	-2.9625	-2.6896	-3.1562	-2.8833	-2.9813	-3.0812	-2.6292	-2.9688	160.314	-47.309	160.729	174.759	-117.117	149.243	137.215	-148.738	-79.743	46.869	-97.615	115.177	150.578	150.995	-24.106	123.642	0.00044865	0.00049445	0.00015287	1367.5	6.1136e-06	5.269e-06	1360.5	362.55	4.3366e-06	5.373e-06	410.09	137.73	118.44	40.823	4.5593e-06	51.143	0.00045655	0.00038387	0.00010183	1380.5	4.6895e-06	3.9073e-06	1379.3	368.53	4.4007e-06	3.8931e-06	415.96	140.6	121.22	41.787	4.249e-06	52.592	-105.712	-90.902	-82.494	-160.817	-25.423	-22.121	-161.100	-156.004	-34.035	-24.061	-157.054	-152.430	-151.713	-147.289	-22.748	-147.957	-8191	255	
1088.973	1	1	0	0	0.35434	0.27124	0.13987	0.1407	0.088626	0.11952	0.034144	0.13272	0.23721	0.19391	0.057174	0.19605	0.15429	0.078343	0.29292	0.31871	-2.5896	-2.5729	-2.8604	-3.0938	-2.7	-3.0729	-2.8833	-2.9437	-3.0479	-2.7208	-2.9958	-3.0854	-2.6646	-3.1	-2.9229	-2.5687	-154.462	-24.952	-46.486	-123.373	94.401	-104.867	-171.897	101.369	-16.098	6.065	51.653	107.994	-154.900	151.188	-71.629	120.430	0.00042868	0.00062552	0.00014213	1365	4.8448e-06	3.9163e-06	1367.3	362.28	4.2248e-06	4.6568e-06	411.11	137.54	119.01	40.658	4.2709e-06	51.34	0.00044276	0.0003859	9.8439e-05	1381.9	4.4185e-06	3.7558e-06	1382.8	368.58	4.4822e-06	3.9328e-06	417.42	140.88	121.74	41.781	4.3155e-06	52.622	-104.231	-87.825	-82.984	-160.836	-27.719	-23.976	-161.113	-156.181	-33.560	-29.708	-156.739	-152.341	-151.804	-147.423	-23.674	-148.248	-8191	255	
1089.069	1	1	0	0	0.26608	0.13912	0.40175	0.081774	0.11747	0.20057	0.22522	0.42105	0.13688	0.1714	0.045798	0.077997	0.039817	0.22268	0.089939	0.11344	-2.5687	-2.5083	-2.7021	-3.1792	-2.4458	-3.15	-2.8021	-2.7687	-3.05	-2.6125	-2.9271	-3.0896	-2.5292	-3.0021	-2.9479	-2.5875	48.809	46.878	91.781	-151.737	-98.186	63.894	78.595	126.803	-151.183	-84.250	-173.209	-143.131	-128.172	-59.623	-12.137	-142.176	0.00041039	0.00048294	0.00014511	1374.7	4.2548e-06	5.064e-06	1369.3	363.57	4.7297e-06	4.0319e-06	411.41	137.49	118.98	40.864	3.9677e-06	51.337	0.00044505	0.00037843	0.00010125	1387.9	4.4499e-06	3.7132e-06	1385.2	369.19	4.6466e-06	4.2029e-06	417.41	140.61	121.49	41.823	4.0116e-06	52.688	-104.400	-92.495	-79.320	-160.932	-20.931	-24.428	-160.894	-156.194	-23.558	-23.364	-156.968	-152.328	-151.931	-147.237	-14.690	-148.221	-8191	255	
1089.190	1	1	0	0	0.26922	0.38756	0.067441	0.23822	0.063939	0.11733	0.38798	0.055904	0.14227	0.38617	0.15458	0.21768	0.14276	0.14379	0.10911	0.12871	-2.6208	-2.7375	-2.7458	-3.2083	-2.4875	-2.925	-3.0604	-2.7771	-2.9	-2.7521	-2.9854	-3.0229	-2.7667	-3.0708	-2.9188	-2.6604	91.158	-114.636	80.091	113.928	-59.992	103.270	156.452	-113.428	111.146	84.961	-20.675	140.718	-168.963	-161.142	-151.564	-128.164	0.00045623	0.00047869	0.00011463	1369.3	4.4792e-06	4.0894e-06	1363.5	362.77	4.6995e-06	4.2123e-06	411.72	137.23	119.01	40.739	5.1244e-06	51.358	0.00045595	0.00037038	9.7472e-05	1383.9	4.529e-06	3.7113e-06	1383.4	368.79	4.4274e-06	3.9622e-06	417.2	140.61	121.46	41.831	4.322e-06	52.657	-104.690	-85.508	-89.661	-160.685	-27.992	-32.850	-161.015	-156.151	-33.336	-26.237	-156.715	-152.361	-151.616	-147.499	-25.188	-148.068	-8191	255	
1089.262	1	1	0	0	0.20947	0.13676	0.28763	0.031404	0.10938	0.10409	0.3641	0.16461	0.037314	0.11534	0.16325	0.0041699	0.13568	0.34748	0.34267	0.14353	-2.45	-2.6854	-2.6604	-3.0312	-2.7062	-3.0958	-3.1521	-2.775	-3.0896	-2.6292	-2.8812	-3.2167	-2.7458	-2.8	-3.0271	-2.7458	33.618	62.611	4.838	69.380	-11.375	-173.613	147.940	118.053	11.349	123.055	84.421	29.685	174.181	164.048	-88.807	-53.838	0.00044586	0.00048859	0.00012121	1364.5	4.562e-06	5.2109e-06	1363	363.1	4.2245e-06	4.2521e-06	408.46	137.69	119.23	40.861	4.3934e-06	51.337	0.00045254	0.00035566	0.00010263	1382.6	4.5021e-06	3.9537e-06	1383.1	368.9	4.2789e-06	3.9679e-06	416.63	140.75	121.65	41.909	4.155e-06	52.671	-106.677	-88.814	-81.193	-160.885	-37.229	-33.502	-160.943	-156.252	-33.468	-15.467	-156.859	-152.467	-151.963	-147.139	-27.232	-148.089	-8191	255	
1089.358	1	1	0	0	0.28634	0.14867	0.057113	0.15077	0.20444	0.15634	0.45412	0.19327	0.24068	0.17382	0.12076	0.039511	0.18017	0.12365	0.091825	0.261	-2.5917	-2.6771	-2.6375	-3.3292	-2.7292	-2.8021	-3.1583	-2.5833	-2.9042	-2.6146	-2.7792	-3.0875	-2.7062	-2.8312	-3.0604	-2.5292	36.719	101.020	-47.545	49.883	9.360	88.955	176.237	74.995	97.747	76.387	136.500	-85.568	-169.092	129.401	-114.630	82.023	0.00044928	0.00044993	0.00013743	1370.2	4.3574e-06	4.5596e-06	1367.5	361.71	4.9327e-06	4.2515e-06	411.07	137.23	119.24	40.96	5.2461e-06	51.371	0.00045634	0.00038119	0.00010164	1384	4.3491e-06	3.8003e-06	1383.9	368.95	4.2738e-06	3.7652e-06	417.21	140.68	121.66	41.878	4.2604e-06	52.626	-103.248	-93.788	-76.491	-160.938	-23.139	-25.706	-161.081	-156.167	-43.226	-17.551	-157.018	-152.387	-151.758	-147.388	-19.967	-148.266	-8191	255	
#DATA ENDS
