BOXY.EXE: ISS Imagent and Oximeter Data Acquisition Program Version 0.80
Ascii Record File

#ACQ INFORMATION
2  Detector Channels 
16  External MUX Channels 
1  Auxiliary Channels 
5000  Waveform (CCF) Frequency (Hz)
1  Waveforms Skipped 
30  Waveforms Averaged 
1  Cycles Averaged 
16  Acquisitions per Waveform 
10.0806  Updata Rate (Hz) 

#FILE INFORMATION
TRUE -- External MUX Channel results are PARSED.
FALSE -- AC DC and Phase are NOT grouped.
TRUE -- Companion Program Settings File CREATED.
FALSE -- AC data not excluded
FALSE -- DC data not excluded
FALSE -- Phase data not excluded
FALSE -- Auxillary Chn. data not excluded
Tab delimiters

#CALIBRATION STATE
TRUE -- Waveform Calibration Values APPLIED.


#AUX CALIBRATION VALUES
Val Type	aux-1	

Term	1.0000e+00	
Factor	0.0000e+00	


#WF CALIBRATION VALUES
A = Detector Channel
Val Type	A-AC1	A-AC2	A-AC3	A-AC4	A-AC5	A-AC6	A-AC7	A-AC8	A-AC9	A-AC10	A-AC11	A-AC12	A-AC13	A-AC14	A-AC15	A-AC16	A-DC1	A-DC2	A-DC3	A-DC4	A-DC5	A-DC6	A-DC7	A-DC8	A-DC9	A-DC10	A-DC11	A-DC12	A-DC13	A-DC14	A-DC15	A-DC16	A-Ph1	A-Ph2	A-Ph3	A-Ph4	A-Ph5	A-Ph6	A-Ph7	A-Ph8	A-Ph9	A-Ph10	A-Ph11	A-Ph12	A-Ph13	A-Ph14	A-Ph15	A-Ph16	

Term	0.00000e+00	0.00000e+00	0.00000e+00	0.00000e+00	0.00000e+00	0.00000e+00	0.00000e+00	0.00000e+00	0.00000e+00	0.00000e+00	0.00000e+00	0.00000e+00	0.00000e+00	0.00000e+00	0.00000e+00	0.00000e+00	0.00000e+00	0.00000e+00	0.00000e+00	0.00000e+00	0.00000e+00	0.00000e+00	0.00000e+00	0.00000e+00	0.00000e+00	0.00000e+00	0.00000e+00	0.00000e+00	0.00000e+00	0.00000e+00	0.00000e+00	0.00000e+00	0.00000e+00	0.00000e+00	0.00000e+00	0.00000e+00	0.00000e+00	0.00000e+00	0.00000e+00	0.00000e+00	0.00000e+00	0.00000e+00	0.00000e+00	0.00000e+00	0.00000e+00	0.00000e+00	0.00000e+00	0.00000e+00	
Factor	1.00000e+00	1.00000e+00	1.00000e+00	1.00000e+00	1.00000e+00	1.00000e+00	1.00000e+00	1.00000e+00	1.00000e+00	1.00000e+00	1.00000e+00	1.00000e+00	1.00000e+00	1.00000e+00	1.00000e+00	1.00000e+00	1.00000e+00	1.00000e+00	1.00000e+00	1.00000e+00	1.00000e+00	1.00000e+00	1.00000e+00	1.00000e+00	1.00000e+00	1.00000e+00	1.00000e+00	1.00000e+00	1.00000e+00	1.00000e+00	1.00000e+00	1.00000e+00	X	X	X	X	X	X	X	X	X	X	X	X	X	X	X	X	

B = Detector Channel
Val Type	B-AC1	B-AC2	B-AC3	B-AC4	B-AC5	B-AC6	B-AC7	B-AC8	B-AC9	B-AC10	B-AC11	B-AC12	B-AC13	B-AC14	B-AC15	B-AC16	B-DC1	B-DC2	B-DC3	B-DC4	B-DC5	B-DC6	B-DC7	B-DC8	B-DC9	B-DC10	B-DC11	B-DC12	B-DC13	B-DC14	B-DC15	B-DC16	B-Ph1	B-Ph2	B-Ph3	B-Ph4	B-Ph5	B-Ph6	B-Ph7	B-Ph8	B-Ph9	B-Ph10	B-Ph11	B-Ph12	B-Ph13	B-Ph14	B-Ph15	B-Ph16	

Term	0.00000e+00	0.00000e+00	0.00000e+00	0.00000e+00	0.00000e+00	0.00000e+00	0.00000e+00	0.00000e+00	0.00000e+00	0.00000e+00	0.00000e+00	0.00000e+00	0.00000e+00	0.00000e+00	0.00000e+00	0.00000e+00	0.00000e+00	0.00000e+00	0.00000e+00	0.00000e+00	0.00000e+00	0.00000e+00	0.00000e+00	0.00000e+00	0.00000e+00	0.00000e+00	0.00000e+00	0.00000e+00	0.00000e+00	0.00000e+00	0.00000e+00	0.00000e+00	-7.31199e+01	-1.32799e+02	-1.26468e+02	-1.82714e+02	-5.26673e+01	-6.72776e+01	-1.58600e+02	-1.62015e+02	-4.81301e+01	-6.81745e+01	-1.74789e+02	-1.71091e+02	-1.81647e+02	-1.76664e+02	-5.28905e+01	-1.49745e+02	
Factor	1.45622e-05	1.40397e-04	4.03230e-05	1.48927e-01	1.29784e-06	1.50963e-06	1.69133e-01	4.23035e-02	9.54360e-07	1.51249e-06	7.52042e-02	2.43297e-02	1.97584e-02	7.93508e-03	1.28624e-06	1.14015e-02	1.42596e-05	3.90213e-05	1.10580e-05	7.54603e-02	3.58379e-07	4.54558e-07	8.02644e-02	2.15652e-02	3.46059e-07	4.54774e-07	3.70643e-02	1.20591e-02	1.01503e-02	4.07504e-03	3.89001e-07	5.66024e-03	X	X	X	X	X	X	X	X	X	X	X	X	X	X	X	X	



#DISTANCE SETTINGS
A = Detector Channel
A-1	A-2	A-3	A-4	A-5	A-6	A-7	A-8	A-9	A-10	A-11	A-12	A-13	A-14	A-15	A-16	

2.5000e+00	3.0000e+00	2.5000e+00	3.0000e+00	2.0000e+00	3.0000e+00	1.5000e+00	3.0000e+00	3.0000e+00	3.0000e+00	3.0000e+00	3.0000e+00	3.0000e+00	3.0000e+00	1.5000e+00	3.0000e+00	

B = Detector Channel
B-1	B-2	B-3	B-4	B-5	B-6	B-7	B-8	B-9	B-10	B-11	B-12	B-13	B-14	B-15	B-16	

1.0000e+01	1.0000e+01	1.0000e+01	1.4400e+00	1.0000e+01	1.0000e+01	1.5100e+00	1.9400e+00	1.0000e+01	1.0000e+01	1.9900e+00	2.4900e+00	2.4100e+00	2.9000e+00	1.0000e+01	2.9800e+00	




#DATA BEGINS
time	group	step	mark	flag	A-AC1	A-AC2	A-AC3	A-AC4	A-AC5	A-AC6	A-AC7	A-AC8	A-AC9	A-AC10	A-AC11	A-AC12	A-AC13	A-AC14	A-AC15	A-AC16	A-DC1	A-DC2	A-DC3	A-DC4	A-DC5	A-DC6	A-DC7	A-DC8	A-DC9	A-DC10	A-DC11	A-DC12	A-DC13	A-DC14	A-DC15	A-DC16	A-Ph1	A-Ph2	A-Ph3	A-Ph4	A-Ph5	A-Ph6	A-Ph7	A-Ph8	A-Ph9	A-Ph10	A-Ph11	A-Ph12	A-Ph13	A-Ph14	A-Ph15	A-Ph16	B-AC1	B-AC2	B-AC3	B-AC4	B-AC5	B-AC6	B-AC7	B-AC8	B-AC9	B-AC10	B-AC11	B-AC12	B-AC13	B-AC14	B-AC15	B-AC16	B-DC1	B-DC2	B-DC3	B-DC4	B-DC5	B-DC6	B-DC7	B-DC8	B-DC9	B-DC10	B-DC11	B-DC12	B-DC13	B-DC14	B-DC15	B-DC16	B-Ph1	B-Ph2	B-Ph3	B-Ph4	B-Ph5	B-Ph6	B-Ph7	B-Ph8	B-Ph9	B-Ph10	B-Ph11	B-Ph12	B-Ph13	B-Ph14	B-Ph15	B-Ph16	aux-1	digaux	

1432.161	1	1	0	256	0.25865	0.22804	0.10628	0.32802	0.30841	0.22101	0.091799	0.27878	0.1297	0.26141	0.16183	0.19469	0.052342	0.27836	0.10757	0.35666	-2.3979	-2.6083	-3.1729	-2.9437	-2.8021	-2.8729	-2.5708	-2.8229	-2.8563	-2.7479	-3.2542	-2.9708	-2.8125	-3.1063	-2.5271	-3.0458	190.204	385.912	245.389	96.983	366.463	224.321	108.086	369.066	403.484	421.987	185.323	407.923	177.010	393.168	387.145	374.935	0.0006263	0.00045636	0.00012061	481.44	4.2678e-06	4.3175e-06	614.64	183.26	3.7649e-06	3.8892e-06	270.47	125.38	81.087	44.663	5.0483e-06	68.69	0.00054344	0.00024226	5.4991e-05	485.47	2.3683e-06	2.1563e-06	619.49	186.36	2.3719e-06	2.4188e-06	274	128.38	83.062	45.992	2.9159e-06	70.656	226.898	172.162	180.421	102.983	247.913	227.210	102.691	108.282	260.899	236.871	106.322	111.448	113.016	116.964	252.978	114.488	-8191	255	
1432.257	1	1	0	0	0.21796	0.075772	0.25523	0.25052	0.27588	0.15731	0.22205	0.25033	0.21809	0.11441	0.14758	0.12511	0.31023	0.035603	0.099059	0.18484	-2.5021	-2.6667	-2.8688	-2.5521	-2.7292	-3.1354	-2.9104	-3.1437	-3.1083	-2.4104	-2.9208	-2.8896	-2.7771	-3.1813	-2.6688	-3.1917	98.131	152.023	354.092	360.284	396.844	252.565	404.777	290.179	93.819	308.439	445.520	400.616	408.972	431.084	312.094	229.255	0.00064045	0.00045887	0.00013138	476.78	4.1898e-06	4.0187e-06	614.7	182.73	3.7592e-06	4.5521e-06	269.19	126.06	81.794	44.462	4.5768e-06	69.272	0.00054938	0.00022193	6.4298e-05	484.95	2.1973e-06	2.1421e-06	619.99	186.03	2.3431e-06	2.5041e-06	273.77	128.83	83.309	45.919	2.9151e-06	70.87	227.478	171.044	175.406	103.004	249.940	248.311	102.799	108.273	259.233	236.547	106.179	111.503	113.160	117.224	253.981	114.168	-8191	255	
1432.354	1	1	0	0	0.22671	0.18152	0.094828	0.3184	0.23998	0.094316	0.22831	0.28153	0.2999	0.159	0.39105	0.23231	0.06658	0.11627	0.1365	0.15085	-2.7104	-2.6208	-2.7792	-2.7771	-2.4896	-3.0438	-2.6667	-2.9562	-3.0208	-2.6146	-2.9729	-3.0187	-2.6437	-3.3667	-2.8333	-2.7938	397.669	427.163	211.687	431.877	347.018	447.513	298.245	128.195	92.334	117.920	150.420	104.333	108.932	112.483	384.044	365.697	0.00062354	0.00031859	0.00014589	478.56	4.3752e-06	4.0889e-06	611.97	182.27	3.609e-06	4.921e-06	267.6	125.1	81.074	44.378	5.2134e-06	68.588	0.00053762	0.00022405	6.0174e-05	485.24	2.372e-06	2.0673e-06	618.23	185.66	2.4051e-06	2.379e-06	272.47	128.02	82.902	45.744	2.8819e-06	70.295	228.432	174.240	181.810	103.146	253.422	231.170	102.429	108.520	260.894	240.838	106.231	111.037	112.895	116.765	253.588	114.357	-8191	255	
1432.450	1	1	0	0	0.18825	0.06129	0.067562	0.27988	0.13513	0.12547	0.25847	0.024568	0.097114	0.16211	0.29633	0.04491	0.18267	0.12797	0.28099	0.35419	-2.4458	-2.5042	-2.8	-2.8063	-2.4646	-2.8958	-2.8396	-3.0292	-3.1583	-2.7479	-2.9521	-3.1958	-2.8625	-3.3458	-2.7938	-2.7458	166.969	330.773	162.300	104.729	286.075	428.572	364.419	272.636	156.540	119.300	356.135	274.065	108.957	407.187	317.727	428.219	0.00062909	0.00043241	0.00014017	479.93	5.0436e-06	3.8916e-06	609.11	181.96	3.9717e-06	4.1461e-06	268.55	125.29	81.125	44.417	4.5066e-06	68.755	0.0005446	0.00022909	6.1119e-05	484.35	2.5393e-06	2.1828e-06	616.15	185.46	2.3525e-06	2.1772e-06	272.56	127.84	82.862	45.76	2.8413e-06	70.417	228.757	183.458	188.242	103.236	253.049	243.426	102.398	108.487	251.391	234.009	106.298	111.152	113.042	116.968	260.162	114.184	-8191	255	
1432.546	1	1	0	0	0.16256	0.069366	0.30761	0.30011	0.12329	0.067174	0.16001	0.058871	0.28726	0.10961	0.20252	0.26457	0.2667	0.038005	0.18369	0.24728	-2.7	-2.5854	-2.8458	-2.9646	-2.5125	-2.9729	-2.9	-2.625	-3.1083	-2.6583	-2.9479	-3.2479	-2.7104	-2.9792	-2.8417	-2.6063	102.122	414.971	247.831	435.653	294.203	171.464	305.830	222.793	285.360	140.309	432.184	401.144	343.207	387.052	418.428	345.535	0.0006252	0.00043199	0.00012615	476.73	4.0839e-06	3.7567e-06	611.42	181.81	3.9655e-06	4.7369e-06	268.23	125.53	81.153	44.617	4.3439e-06	69.485	0.00054825	0.00022624	5.9967e-05	483.34	2.2697e-06	2.0379e-06	617.07	185.58	2.3482e-06	2.3459e-06	273.3	128.44	83.003	46.056	2.9175e-06	71.097	226.846	172.525	183.694	103.111	258.230	245.514	102.437	108.444	261.599	241.261	106.376	111.319	113.100	116.756	256.846	114.454	-8191	255	
1432.642	1	1	0	0	0.2574	0.24375	0.13699	0.28821	0.38358	0.021511	0.1454	0.03373	0.085842	0.19116	0.21015	0.28251	0.22639	0.24255	0.24524	0.21884	-2.5563	-2.5417	-2.7042	-2.8688	-2.4167	-2.9208	-2.8375	-2.6667	-3.0062	-2.6229	-3.0062	-3.1604	-2.8979	-3.0229	-2.5917	-2.8917	323.871	311.385	125.839	117.867	101.245	297.285	145.384	178.197	137.604	361.504	394.503	438.840	131.929	435.442	281.943	312.598	0.00063752	0.00048345	0.00014828	477	4.524e-06	3.7927e-06	612.29	182.54	3.6665e-06	3.9613e-06	270.21	126.41	81.393	44.997	4.3953e-06	69.367	0.00055446	0.00023153	6.363e-05	483.5	2.3354e-06	2.0616e-06	618.56	186.16	2.2898e-06	2.0759e-06	274.69	129.35	83.338	46.366	2.9491e-06	71.154	228.064	175.451	168.130	103.294	253.548	239.499	102.450	108.420	267.691	236.936	106.411	111.158	113.031	117.042	260.268	114.257	-8191	255	
1432.763	1	1	0	0	0.31064	0.27997	0.15099	0.33052	0.060685	0.191	0.23729	0.084933	0.096923	0.20124	0.19673	0.28159	0.2347	0.21907	0.22917	0.34265	-2.5708	-2.5958	-2.7292	-3.0062	-2.7188	-2.9958	-2.9479	-2.45	-2.9458	-2.7104	-2.5604	-3.0896	-2.625	-2.8625	-3.1854	-2.7583	411.463	127.136	212.689	387.094	285.315	404.240	387.454	390.225	204.988	222.422	346.884	93.765	401.640	341.792	223.674	399.088	0.00064624	0.00047127	0.00013797	476.76	4.3573e-06	4.707e-06	609.97	182.48	4.2337e-06	4.2714e-06	268.59	125.83	81.917	44.83	4.8966e-06	69.014	0.0005544	0.00021153	6.1856e-05	482.83	2.1443e-06	2.1667e-06	617.17	186.01	2.4022e-06	2.2653e-06	273.35	128.81	83.55	46.364	2.7311e-06	70.891	226.725	174.920	177.439	103.281	256.841	244.144	102.514	108.570	260.631	237.667	106.553	111.351	113.066	116.963	263.291	114.286	-8191	255	
1432.857	1	1	0	0	0.1614	0.17666	0.28433	0.2201	0.075809	0.15481	0.14341	0.1983	0.15778	0.18621	0.23057	0.067734	0.21235	0.12439	0.049688	0.26852	-2.5083	-2.7292	-2.6729	-3.3563	-2.7729	-2.8875	-3.0854	-2.6542	-3.1021	-2.9417	-2.8083	-3.1896	-2.8417	-2.9062	-3.1104	-2.75	274.867	178.850	339.624	416.547	396.088	134.397	405.178	291.194	365.581	337.564	121.831	205.137	136.756	387.168	340.139	357.709	0.00065257	0.00042956	0.00011355	478.36	3.9464e-06	5.0818e-06	613.35	182.36	3.5304e-06	4.7096e-06	269.21	126.08	81.776	45.171	4.5758e-06	69.464	0.00056171	0.00021844	6.0335e-05	483.06	2.2623e-06	2.3495e-06	617.39	185.84	2.3965e-06	2.1753e-06	273.81	128.94	83.595	46.481	2.7619e-06	71.263	227.129	170.469	186.075	103.236	251.017	238.767	102.507	108.380	261.603	237.681	106.490	111.394	113.206	116.877	256.394	114.340	-8191	255	
1432.953	1	1	0	0	0.2545	0.30943	0.33305	0.18773	0.20577	0.10651	0.30425	0.35372	0.13592	0.03033	0.031064	0.096323	0.23941	0.17076	0.19154	0.18165	-2.6458	-3.0062	-2.6146	-3	-2.7125	-2.7854	-3.3354	-2.7292	-3.0458	-2.8771	-2.6583	-2.9229	-2.775	-2.8792	-3.0854	-2.9333	351.379	296.511	174.124	434.961	121.509	301.078	323.390	313.961	372.876	247.373	427.979	414.271	363.758	122.745	258.010	367.075	0.0006479	0.00042972	0.00014177	478.53	4.4553e-06	4.4552e-06	612.91	183.13	3.7584e-06	4.8373e-06	269.25	126.61	82.023	45.205	4.7148e-06	69.97	0.00056186	0.00021681	6.5127e-05	483.84	2.3041e-06	2.2804e-06	619.24	186.43	2.4859e-06	2.2578e-06	274.54	129.5	83.815	46.673	2.7165e-06	71.823	227.118	174.121	178.874	103.381	255.737	234.298	102.533	108.277	268.875	227.632	106.459	111.134	112.991	117.167	261.552	114.345	-8191	255	
1433.027	1	1	0	0	0.07734	0.091767	0.14531	0.29316	0.16211	0.15938	0.32095	0.16248	0.23181	0.10494	0.20229	0.1109	0.16188	0.072222	0.071784	0.31084	-2.7792	-2.9896	-2.7292	-3.2479	-2.7417	-2.6896	-3.2604	-2.8937	-2.9813	-3.0208	-2.8458	-3.1458	-2.925	-2.7521	-3.2625	-2.8792	256.017	378.974	288.340	342.707	240.618	117.380	350.191	420.425	311.718	380.070	317.431	379.712	350.361	351.060	294.809	424.491	0.00065811	0.00041627	0.00014218	479.67	4.7469e-06	3.8787e-06	617.22	184.48	4.0499e-06	4.586e-06	271.69	126.97	82.524	45.178	5.2917e-06	69.785	0.00056843	0.00020527	6.6786e-05	486.1	2.3399e-06	2.3107e-06	624.11	187.94	2.4613e-06	2.2132e-06	276.55	129.97	84.003	46.526	2.911e-06	71.54	227.019	174.798	178.286	103.233	256.445	240.338	102.460	108.304	263.013	235.936	106.543	111.323	112.991	117.149	255.021	114.218	-8191	255	
1433.145	1	1	0	0	0.13498	0.20283	0.026622	0.1136	0.20398	0.070853	0.2737	0.16361	0.26749	0.15605	0.10547	0.23652	0.16789	0.24939	0.2391	0.1426	-2.3604	-3.1229	-2.5521	-2.8771	-2.7375	-2.7167	-3.3187	-3.0292	-2.5812	-2.8604	-2.6271	-3.2188	-3.15	-2.9542	-3.1271	-2.8875	107.331	352.548	406.538	271.955	407.760	412.981	369.616	366.402	99.078	383.065	359.762	354.760	390.812	91.101	220.100	329.920	0.00063199	0.00047096	0.00013354	480.43	4.9791e-06	4.3711e-06	612.74	183.18	3.7615e-06	3.8574e-06	270.29	126.66	82.054	44.848	4.3574e-06	68.949	0.00054873	0.00022006	6.3146e-05	486.38	2.1779e-06	2.2027e-06	620.74	186.98	2.4996e-06	2.1052e-06	274.37	129.19	83.459	46.181	2.6582e-06	70.887	227.414	177.783	181.559	103.517	254.302	240.177	102.601	108.156	265.617	244.275	106.674	111.107	113.028	117.123	256.387	114.432	-8191	255	
1433.242	1	1	0	0	0.20193	0.13586	0.24324	0.093575	0.15494	0.080636	0.072271	0.10014	0.18603	0.25035	0.3601	0.21378	0.032805	0.2503	0.084646	0.26479	-2.1667	-2.9125	-2.6771	-3.0438	-2.8917	-2.5646	-3.0187	-2.8646	-2.8083	-3.2271	-2.8333	-2.8396	-3.1063	-2.9042	-3.0687	-3.0771	282.726	234.813	159.246	430.388	354.800	210.366	385.424	354.233	447.273	435.647	349.664	91.037	255.741	126.797	447.062	101.937	0.00061709	0.00038422	0.00013996	481.49	4.3529e-06	4.3963e-06	615.24	183.58	3.8908e-06	4.1763e-06	270.25	125.68	80.954	44.541	4.5066e-06	68.874	0.00054647	0.00020698	6.4666e-05	485.39	2.1002e-06	2.3732e-06	620.5	186.08	2.4195e-06	1.9877e-06	273.79	128.65	82.925	45.905	2.693e-06	70.757	226.246	175.926	183.013	103.151	257.638	236.360	102.571	108.250	257.277	246.147	106.486	111.414	112.747	117.135	260.164	114.314	-8191	255	
1433.338	1	1	0	0	0.20405	0.22537	0.15305	0.19243	0.12192	0.21699	0.24926	0.10032	0.18382	0.18098	0.25674	0.33537	0.014958	0.27647	0.2128	0.32702	-2.4208	-2.9271	-2.6083	-2.9042	-3.1167	-2.6646	-3.1896	-2.8688	-2.5917	-3.2333	-3.0354	-2.6667	-3.0896	-2.7812	-3.0563	-3.1125	190.366	354.728	139.066	434.017	112.004	245.405	246.135	323.841	282.925	135.910	432.582	356.094	253.841	381.739	295.948	390.277	0.00062459	0.00047092	0.00013143	480.83	3.7988e-06	4.2492e-06	614.95	182.23	3.9195e-06	4.7298e-06	270.49	126.14	81.37	44.75	5.1862e-06	69.265	0.00054213	0.00020072	6.2939e-05	486.17	1.9711e-06	2.1506e-06	621.76	186.32	2.5313e-06	2.1213e-06	274.59	128.95	83.177	46.143	2.9629e-06	71.16	228.480	176.283	184.337	102.977	260.678	234.186	102.502	108.388	260.838	240.517	106.294	111.338	112.976	117.171	250.600	114.421	-8191	255	
1433.434	1	1	0	0	0.16434	0.09375	0.12686	0.23626	0.32859	0.33805	0.11724	0.29492	0.074083	0.1506	0.21959	0.26491	0.17387	0.18166	0.046289	0.1601	-2.2042	-3.0583	-2.8896	-2.9229	-3.2458	-2.6813	-2.7854	-3.1688	-2.8	-2.9271	-2.6604	-2.7438	-3.2562	-2.6167	-2.7021	-2.9854	436.128	428.325	104.545	93.042	166.996	140.907	159.372	131.730	151.186	321.950	162.163	438.312	402.405	401.516	312.163	400.093	0.00063441	0.00043585	0.00013177	479.27	3.9419e-06	4.9898e-06	616.38	182.05	3.7503e-06	4.1545e-06	270.79	126.44	81.38	44.716	4.9119e-06	69.287	0.00055179	0.00021828	5.6027e-05	485.54	2.0681e-06	2.6033e-06	622.82	186.31	2.5738e-06	2.0777e-06	274.46	129.17	83.223	46.122	2.843e-06	71.005	227.302	173.024	180.597	103.196	244.553	250.166	102.735	108.244	256.680	233.929	106.282	111.289	113.371	116.949	249.635	114.303	-8191	255	
1433.555	1	1	0	0	0.30097	0.17005	0.16884	0.12601	0.20428	0.22793	0.10227	0.085927	0.31509	0.16502	0.04833	0.22907	0.17049	0.021068	0.09819	0.054957	-2.0667	-3.0708	-2.7833	-2.7	-3.1063	-2.75	-3.0479	-3.0896	-2.5729	-3.0563	-3.0312	-2.9	-3.3271	-3.0521	-2.8104	-3.2833	117.740	242.164	300.115	216.954	409.811	111.215	309.637	375.484	132.408	448.228	382.548	137.640	136.064	432.449	446.951	165.709	0.00062583	0.00048205	0.00014597	478.85	4.6622e-06	4.0809e-06	610.81	181.78	2.9853e-06	4.2689e-06	268.68	125.61	81.211	44.591	5.2073e-06	68.577	0.0005454	0.00021218	6.0474e-05	484.57	1.9957e-06	2.2728e-06	617.51	185.72	2.3128e-06	2.1668e-06	272.99	128.25	83.074	46.001	3.005e-06	70.662	227.101	181.163	190.695	103.200	248.026	252.549	102.589	108.449	260.467	250.762	106.504	111.133	113.328	116.943	259.300	114.197	-8191	255	
1433.626	1	1	0	0	0.12169	0.11133	0.1498	0.084627	0.096049	0.086728	0.24447	0.21766	0.29334	0.08577	0.18016	0.22021	0.18832	0.14366	0.069926	0.15105	-2	-2.9771	-2.975	-2.6396	-2.9229	-2.875	-3.1021	-3.0271	-2.6771	-3	-3.1833	-2.8292	-3.1417	-2.8021	-2.8646	-3.1354	222.354	283.369	272.260	410.588	211.857	245.514	90.575	296.896	419.900	103.116	343.709	432.523	111.083	286.846	310.498	418.094	0.00063774	0.00045006	0.00012362	477.87	4.685e-06	4.5919e-06	613.62	182.64	3.7788e-06	4.0029e-06	270.18	126.22	81.416	44.875	5.2789e-06	69.384	0.00055711	0.00020429	5.7041e-05	484.49	2.1682e-06	2.376e-06	618.94	185.98	2.5262e-06	1.9299e-06	273.95	128.82	83.387	46.288	2.9572e-06	71.199	227.610	177.977	179.977	103.041	247.993	243.915	102.487	108.497	260.753	241.744	106.438	111.424	112.878	117.065	257.207	114.150	-8191	255	
1433.722	1	1	0	0	0.045625	0.18129	0.16553	0.17536	0.38996	0.092332	0.19803	0.092395	0.045447	0.18089	0.17294	0.26206	0.22475	0.13788	0.14704	0.29312	-2.0583	-3.0042	-3.0167	-2.7604	-3.0729	-2.8229	-3.0604	-3.2708	-2.5146	-3.0896	-3	-2.5771	-3.0208	-2.9313	-2.7542	-3.1292	338.849	263.193	103.521	382.149	449.665	242.558	97.082	226.944	326.586	97.836	444.521	374.522	433.258	424.874	295.388	214.460	0.00064842	0.00041665	0.00011524	482.01	5.1057e-06	4.4542e-06	614.79	182.28	3.9386e-06	3.9577e-06	269.06	125.86	81.918	44.937	5.3654e-06	69.462	0.00056447	0.00022437	5.6142e-05	485.88	2.2518e-06	2.1554e-06	619.65	186.1	2.6156e-06	2.1507e-06	274.5	129.11	83.52	46.322	3.1185e-06	71.205	226.954	182.390	184.225	103.154	257.131	247.771	102.570	108.458	264.470	228.941	106.414	111.272	112.919	116.932	260.001	114.450	-8191	255	
1433.843	1	1	0	0	0.2354	0.2182	0.15159	0.17446	0.071697	0.2628	0.18737	0.15583	0.055209	0.15757	0.093606	0.26234	0.23725	0.29634	0.1699	0.13419	-2.1417	-2.8375	-3.0938	-2.8146	-3.0917	-2.8125	-2.6354	-3.3083	-2.9292	-3.0563	-3.1354	-2.6479	-3.0062	-3.2458	-2.8	-2.9938	347.518	345.324	104.953	129.884	335.150	119.078	311.103	370.344	206.182	102.523	416.399	405.025	406.721	133.923	221.740	441.145	0.00063953	0.00040301	0.00012589	480.14	4.4831e-06	4.2933e-06	613.34	183.1	3.7066e-06	4.7332e-06	269.69	125.63	82.154	44.646	4.8148e-06	69.121	0.00055491	0.00020982	5.7456e-05	484.51	2.1951e-06	2.1118e-06	620.17	186.26	2.3756e-06	2.415e-06	273.82	128.93	83.541	46.212	3.0869e-06	70.98	228.704	159.899	194.893	103.215	253.639	251.582	102.542	108.322	260.362	238.170	106.406	111.278	113.029	116.871	258.086	114.344	-8191	255	
1433.937	1	1	0	0	0.13303	0.14884	0.11962	0.16706	0.31952	0.12296	0.24791	0.23619	0.17067	0.075869	0.15624	0.089395	0.042835	0.21156	0.16422	0.21206	-2.4042	-2.85	-3.1188	-2.5875	-2.7625	-2.9958	-2.8292	-3.2979	-2.7687	-2.45	-3.1396	-2.6521	-2.8771	-3.0875	-2.6083	-3.1354	380.660	267.102	427.173	194.108	354.696	195.206	398.215	362.067	300.776	294.939	446.510	385.073	264.677	430.309	96.275	102.951	0.00063061	0.00050167	0.0001298	479.23	3.6276e-06	5.011e-06	615.08	182.99	3.5598e-06	3.8168e-06	271.21	126.23	82.241	45.071	4.1669e-06	69.612	0.00055203	0.00022624	5.9114e-05	484.42	2.2429e-06	2.1885e-06	618.35	186.46	2.297e-06	2.2227e-06	274.86	128.91	83.87	46.559	2.8446e-06	71.345	225.755	173.151	182.101	103.277	257.773	247.164	102.725	108.384	263.979	255.096	106.380	111.140	113.071	117.102	252.669	114.423	-8191	255	
1434.035	1	1	0	0	0.34599	0.18687	0.10486	0.13557	0.19119	0.054044	0.1649	0.38165	0.25198	0.077343	0.0974	0.31327	0.1782	0.19319	0.079135	0.09658	-2.1542	-2.7646	-3.2083	-2.6021	-2.5563	-2.8896	-2.7625	-3.1458	-2.6562	-2.475	-3.0146	-3.0292	-2.8229	-3.0646	-2.5563	-3.0292	148.191	236.404	102.492	439.619	357.785	302.317	406.314	399.212	290.975	157.698	218.524	377.228	100.702	358.522	164.017	248.641	0.00063285	0.00041925	0.00013656	482.29	4.001e-06	4.8253e-06	612.27	183.61	3.7316e-06	5.1068e-06	270.84	126.49	82.437	45.278	5.0986e-06	70.09	0.00055363	0.00021998	5.6557e-05	485.71	2.3332e-06	2.3571e-06	618.98	187.41	2.3323e-06	2.4785e-06	275.38	129.49	84.108	46.808	2.9386e-06	71.73	227.110	175.648	176.828	103.261	241.236	234.914	102.635	108.684	261.971	238.536	106.282	111.258	113.173	117.005	257.054	114.372	-8191	255	
1434.154	1	1	0	0	0.27282	0.2864	0.12295	0.052729	0.011919	0.17891	0.28742	0.11956	0.14922	0.065202	0.08858	0.27628	0.26337	0.16922	0.20729	0.23157	-2.3021	-2.5854	-3.0917	-2.8917	-2.925	-2.9271	-2.75	-3.1562	-2.8875	-2.725	-3.4167	-3.0208	-2.9458	-3.1125	-2.5771	-3.1167	201.186	431.673	201.505	110.811	92.944	260.453	442.440	173.812	439.063	212.090	162.795	401.680	314.390	233.087	277.195	393.464	0.00064164	0.00045432	0.00015339	478.16	3.654e-06	4.2689e-06	612.58	184.79	3.6527e-06	4.4534e-06	272.02	127.43	82.824	45.735	4.741e-06	70.41	0.00055859	0.00023559	6.1971e-05	483.89	2.3175e-06	2.0086e-06	619.84	187.72	2.4743e-06	2.4046e-06	276.3	130.39	84.614	47.141	2.8624e-06	72.148	227.548	167.691	184.584	103.065	253.923	240.136	102.569	108.376	262.555	245.308	106.401	111.222	113.209	117.053	248.715	114.303	-8191	255	
1434.250	1	1	0	0	0.21965	0.36459	0.25475	0.27581	0.20244	0.24034	0.26092	0.20467	0.26562	0.24616	0.35382	0.095888	0.080304	0.16122	0.16062	0.24573	-2.4188	-2.5417	-2.9646	-2.7438	-2.6688	-3.1958	-2.8833	-2.9875	-3.0062	-2.6333	-3.0563	-2.9083	-2.7104	-3.3646	-2.8021	-3.0167	177.143	265.968	206.278	161.326	354.204	370.153	158.326	370.058	255.153	196.192	240.027	197.319	274.122	327.733	239.304	395.624	0.00063585	0.00045073	0.0001401	478.83	3.9579e-06	4.8012e-06	612.59	184.93	3.8649e-06	4.1598e-06	271.97	127.08	83.02	45.574	4.783e-06	69.777	0.00055485	0.00022974	6.4643e-05	485.32	2.2667e-06	2.1743e-06	619.34	188.1	2.3316e-06	2.3762e-06	276.5	130.51	84.864	47.034	3.1161e-06	71.529	227.028	169.038	175.862	103.224	259.996	240.782	102.618	108.330	253.074	245.659	106.599	111.428	113.067	116.984	247.748	114.415	-8191	255	
1434.322	1	1	0	0	0.13131	0.053066	0.22872	0.030888	0.17111	0.080454	0.146	0.17293	0.083794	0.11148	0.065221	0.18041	0.40019	0.1357	0.11713	0.22587	-2.5312	-2.5458	-3.1604	-2.7646	-2.6292	-3.2333	-2.7812	-2.9646	-2.7625	-2.6625	-3.0604	-3.1375	-2.7771	-3.1042	-2.7687	-2.9979	270.486	139.157	255.768	152.745	293.381	134.129	405.745	111.663	293.958	360.451	94.902	387.483	396.882	437.473	425.476	348.269	0.00064994	0.00041909	0.0001379	474.12	4.7943e-06	4.6251e-06	607.23	183.2	3.6001e-06	5.4885e-06	269.34	126.06	82.467	45.334	5.4642e-06	69.368	0.00055925	0.00023283	5.893e-05	480.57	2.3459e-06	2.1866e-06	614.33	187.01	2.2732e-06	2.5212e-06	274.14	129.05	84.228	46.707	2.9021e-06	70.976	227.428	169.813	183.347	103.209	253.361	238.129	102.785	108.542	276.204	231.897	106.354	111.256	113.398	116.953	258.444	114.197	-8191	255	
1434.443	1	1	0	0	0.094815	0.19514	0.21294	0.23097	0.10265	0.14032	0.018432	0.046496	0.13396	0.15823	0.080331	0.092752	0.10661	0.092399	0.3354	0.15506	-2.7792	-2.6688	-2.9396	-3.0583	-2.6021	-3.125	-2.9708	-3.0062	-3.0312	-2.5396	-2.9521	-3.1479	-2.6125	-3.2604	-2.8875	-2.7479	371.107	264.945	343.400	374.586	388.245	384.400	348.265	396.996	128.209	276.755	269.179	376.090	278.961	98.282	217.366	385.018	0.00066685	0.00044989	0.00011301	476.45	3.5265e-06	5.131e-06	606.21	183.29	3.5272e-06	4.4006e-06	270.74	127.01	82.595	45.459	4.9237e-06	69.688	0.00056997	0.00023104	5.9598e-05	481.19	2.2152e-06	2.0787e-06	612.27	187.09	2.4534e-06	2.5685e-06	275.11	129.69	84.59	46.94	2.74e-06	71.457	227.339	170.274	186.697	103.245	261.119	240.713	102.399	108.598	263.075	238.471	106.637	111.340	113.249	116.779	259.066	114.368	-8191	255	
1434.539	1	1	0	0	0.051793	0.093858	0.034716	0.30908	0.22098	0.16595	0.19942	0.086331	0.096477	0.16182	0.22412	0.10782	0.10059	0.11339	0.2044	0.073929	-2.6625	-2.7	-2.9271	-2.9771	-2.4	-3.0875	-3.0083	-2.7083	-3.0354	-2.6562	-2.8542	-3.0854	-2.65	-3.2479	-2.9646	-2.6937	223.990	140.918	277.981	447.101	187.283	399.078	386.523	394.230	218.416	151.964	376.366	209.155	380.655	221.578	190.357	370.687	0.00062713	0.00046728	0.00013965	476.38	4.8333e-06	4.503e-06	608.31	185.11	4.1079e-06	4.438e-06	272.91	128.33	83.682	46.1	4.5538e-06	70.504	0.00054341	0.00023527	6.6118e-05	481.27	2.3765e-06	2.216e-06	615.21	188.77	2.4513e-06	2.3667e-06	277.37	131.07	85.559	47.539	2.86e-06	72.252	227.985	167.528	190.693	103.052	247.273	242.585	102.642	108.493	265.800	247.358	106.402	111.439	112.935	116.983	250.682	114.222	-8191	255	
1434.635	1	1	0	0	0.31432	0.076349	0.14991	0.27469	0.16461	0.19139	0.20331	0.164	0.12029	0.14918	0.11662	0.3253	0.24178	0.076179	0.067981	0.36189	-2.6354	-2.7875	-2.6667	-2.9688	-2.5479	-3.0771	-3.0396	-2.6375	-2.9313	-3.025	-2.8229	-3.1792	-2.6312	-3.1063	-2.8167	-2.7458	175.590	440.666	270.426	360.457	144.895	368.381	370.296	179.627	195.437	306.922	109.895	428.268	436.266	394.012	362.932	403.468	0.00063693	0.00043693	0.00013869	477.09	4.4189e-06	4.1992e-06	612.89	186.3	3.8703e-06	4.3685e-06	274.38	127.88	84.058	46.286	5.5116e-06	70.261	0.00055066	0.00022185	6.2455e-05	482.66	2.3563e-06	2.1999e-06	619.5	189.52	2.4909e-06	2.361e-06	278.64	131.32	86.02	47.754	2.984e-06	72.192	227.377	173.587	179.688	102.783	255.989	235.403	102.660	108.491	262.928	235.125	106.584	111.466	113.235	116.984	255.677	114.192	-8191	255	
1434.731	1	1	0	0	0.40899	0.18746	0.27642	0.1112	0.15061	0.08808	0.20766	0.03786	0.12151	0.32375	0.19119	0.1367	0.25428	0.23044	0.12332	0.22757	-2.6188	-2.8354	-2.7875	-3.1958	-2.6	-2.9875	-3.2708	-2.7521	-2.9292	-2.6833	-2.8646	-3.1937	-2.7333	-2.9771	-3.2146	-2.6937	408.899	275.949	312.946	442.978	430.334	167.035	365.439	229.624	357.986	135.144	256.049	388.493	428.074	160.837	313.270	91.607	0.00065484	0.00049075	0.00015692	476.51	4.5795e-06	5.7087e-06	612.33	187.4	3.6263e-06	4.1091e-06	274.26	128.77	84.902	46.763	5.659e-06	70.471	0.00055571	0.00022031	6.6003e-05	483.13	2.3011e-06	2.4603e-06	618.94	191.06	2.4981e-06	2.2663e-06	279.25	132.13	86.78	48.204	2.8648e-06	72.278	228.068	165.527	181.991	103.447	253.607	242.665	102.687	108.417	261.357	237.387	106.849	111.292	113.111	116.843	249.956	114.198	-8191	255	
1434.852	1	1	0	0	0.19394	0.38493	0.13103	0.19848	0.13394	0.14554	0.15856	0.1354	0.13092	0.14149	0.27931	0.19265	0.21412	0.19911	0.063406	0.1916	-2.4896	-2.8021	-2.8417	-3.0812	-2.7083	-2.95	-2.9521	-2.5438	-3.0917	-3.0042	-2.6979	-3.0375	-2.8375	-2.9688	-3.0563	-2.8042	421.899	410.038	363.197	349.280	269.029	226.367	266.123	383.400	117.198	438.282	403.185	387.187	103.147	379.948	434.206	396.596	0.00064108	0.00041491	0.0001252	480.26	4.918e-06	5.5916e-06	617.57	190.64	3.716e-06	4.8156e-06	278.97	131.32	86.142	47.564	5.2714e-06	71.512	0.00055408	0.00021413	5.9644e-05	486.46	2.4064e-06	2.4262e-06	624.27	194.7	2.5918e-06	2.3857e-06	284.21	134.18	88.09	48.85	3.0909e-06	73.394	227.473	184.866	179.245	103.259	253.795	241.061	102.520	108.394	260.548	235.662	106.351	111.272	112.992	116.828	253.829	114.372	-8191	255	
1434.923	1	1	0	0	0.32639	0.12644	0.19664	0.12459	0.093881	0.099061	0.065496	0.26949	0.16627	0.13836	0.14773	0.31934	0.11165	0.19548	0.1407	0.23027	-2.6625	-2.8271	-2.6583	-3.2417	-2.7479	-2.6562	-3.0771	-2.7604	-3.0729	-2.9479	-2.5083	-3.0625	-3.075	-2.8604	-2.8833	-2.5812	109.514	416.428	398.768	441.353	341.286	232.973	152.503	127.057	240.141	146.091	264.476	409.510	405.270	409.870	153.984	442.236	0.00065608	0.00049576	0.00012776	482.23	4.5613e-06	4.3303e-06	615.65	189.31	3.6848e-06	4.1421e-06	277.87	130.08	84.777	46.562	5.9004e-06	70.857	0.00056899	0.00022226	6.4966e-05	488.6	2.3922e-06	2.3789e-06	624.25	192.88	2.5032e-06	2.4425e-06	281.78	132.8	86.974	48.109	2.9467e-06	72.621	227.168	176.318	185.797	103.335	250.207	241.857	102.762	108.460	260.216	246.062	106.353	111.308	112.945	117.004	250.543	114.333	-8191	255	
1435.018	1	1	0	0	0.18587	0.079223	0.11837	0.26974	0.35981	0.092678	0.056131	0.048841	0.17022	0.089777	0.068666	0.37969	0.095355	0.2903	0.073725	0.20074	-2.5687	-2.7333	-2.5542	-3.1792	-2.9042	-2.6063	-3.2958	-2.8479	-2.9062	-3.2208	-2.5	-3.2229	-2.9479	-2.6271	-2.8625	-2.9458	171.345	109.307	335.652	447.262	137.285	298.187	90.989	444.336	217.845	141.600	365.640	407.136	133.082	442.328	122.495	394.596	0.00067381	0.00039729	0.00012102	482.85	4.2618e-06	4.2291e-06	618.21	187.87	4.0396e-06	5.1833e-06	275.45	128.9	84.581	46.094	4.5998e-06	69.688	0.00057104	0.00021226	6.9458e-05	487.73	2.4131e-06	2.2605e-06	623.98	192.01	2.6445e-06	2.0929e-06	280.48	131.78	86.344	47.543	2.9216e-06	71.515	227.048	166.411	178.096	103.408	248.172	244.653	102.796	108.283	265.424	228.768	106.388	111.224	113.001	116.958	256.843	114.395	-8191	255	
1435.116	1	1	0	0	0.28079	0.13955	0.19919	0.16544	0.1688	0.20555	0.4005	0.22567	0.081639	0.11016	0.067506	0.27874	0.21714	0.063234	0.33802	0.30941	-2.4083	-2.975	-2.6146	-2.9542	-2.975	-2.8104	-3.1271	-2.8625	-2.8771	-3.1667	-2.7542	-3.0292	-3.2146	-2.9437	-3.0792	-2.9396	320.512	310.952	192.253	103.513	417.955	308.468	382.997	95.774	235.277	424.072	392.747	366.938	397.093	151.403	227.428	422.232	0.00064929	0.00047992	0.00014674	482.93	3.6951e-06	4.3379e-06	612.24	187.26	3.6626e-06	5.2218e-06	273.38	127.78	83.696	45.667	5.1306e-06	68.739	0.00055411	0.00021592	6.6532e-05	488.53	2.2847e-06	2.3249e-06	620.96	191.17	2.3503e-06	2.2142e-06	278.11	130.63	85.54	47.042	2.864e-06	70.439	227.917	173.989	179.229	103.463	257.624	242.797	102.494	108.303	262.246	237.978	106.801	111.254	113.046	117.013	260.064	114.164	-8191	255	
1435.235	1	1	0	0	0.15624	0.31273	0.21599	0.14886	0.10275	0.10854	0.15623	0.022667	0.19471	0.15176	0.10991	0.080214	0.23679	0.22513	0.21928	0.28201	-2.3854	-3.0542	-2.5833	-3.0438	-2.9188	-2.8312	-3.2667	-3.0375	-2.6896	-3.075	-2.9583	-2.9896	-3.2125	-2.5479	-2.9125	-2.9104	436.863	165.485	307.060	445.116	415.020	359.132	176.982	347.157	366.322	234.748	398.690	368.548	165.992	302.659	293.999	387.660	0.00062336	0.00047335	0.00013456	482.52	4.0321e-06	4.5532e-06	612.71	186.29	3.7932e-06	5.0363e-06	272.8	126.87	83.291	45.115	5.1014e-06	68.066	0.00054478	0.00021949	6.5818e-05	486.77	2.1353e-06	2.3779e-06	618.94	189.71	2.514e-06	2.1204e-06	276.5	129.57	84.929	46.434	2.8575e-06	69.754	227.375	178.547	180.868	103.227	256.863	245.512	102.634	108.622	262.346	240.514	106.340	111.279	113.059	116.916	259.711	114.307	-8191	255	
1435.331	1	1	0	0	0.046883	0.20398	0.093479	0.15357	0.038861	0.059542	0.2617	0.14197	0.028099	0.12971	0.05248	0.30399	0.1975	0.14766	0.21774	0.1708	-2.2729	-3.0042	-2.7438	-2.9562	-3.0958	-2.6271	-2.9104	-2.9542	-2.7	-3.2625	-2.7021	-2.8229	-3.1542	-2.7875	-3.0021	-2.9375	270.131	153.468	193.790	225.452	192.440	289.158	312.823	136.315	437.497	321.636	385.665	422.723	428.172	408.055	223.930	127.957	0.00062519	0.00046895	0.00015097	479.81	4.1394e-06	4.8713e-06	614.67	185.72	3.5634e-06	4.5141e-06	274.1	127.79	83.558	45.376	5.1309e-06	68.865	0.00054368	0.00020128	6.3491e-05	486.04	2.2615e-06	2.7425e-06	620.93	189.61	2.5363e-06	2.1877e-06	278.61	130.7	85.525	46.859	2.975e-06	70.724	228.243	178.651	182.078	103.186	250.365	233.344	102.533	108.518	257.895	238.275	106.434	111.376	113.088	116.964	257.634	114.424	-8191	255	
1435.427	1	1	0	0	0.27386	0.15611	0.13065	0.25803	0.13939	0.22464	0.18432	0.21425	0.33297	0.022363	0.21402	0.2398	0.15697	0.30155	0.16249	0.44281	-2.0521	-2.875	-2.95	-2.8625	-3.0125	-2.7417	-2.8375	-2.85	-2.7646	-3.0563	-2.6917	-3.0167	-3.2917	-2.9917	-2.8604	-3.0812	397.882	422.055	118.335	131.380	280.189	193.931	368.169	99.139	121.916	335.532	440.999	359.591	92.359	362.425	102.799	405.895	0.00062719	0.00047831	0.00013057	476.69	4.6636e-06	5.1237e-06	610.35	184.31	3.3639e-06	4.0879e-06	270.5	125.75	81.88	44.297	4.9725e-06	66.925	0.00054053	0.00019998	6.257e-05	484.17	2.1697e-06	2.429e-06	617.91	188.03	2.4981e-06	2.5259e-06	274.75	128.42	83.656	45.626	2.8551e-06	68.688	227.039	180.445	184.738	103.448	255.312	251.945	102.844	108.570	252.202	235.715	106.817	111.261	112.949	117.246	252.029	114.517	-8191	255	
1435.523	1	1	0	0	0.10313	0.075086	0.073539	0.16414	0.16157	0.25124	0.16043	0.26685	0.077866	0.069339	0.31741	0.15648	0.12377	0.26064	0.39171	0.2011	-2.2042	-3.0875	-2.8812	-2.6646	-2.9083	-2.8708	-3.0438	-3.0938	-2.4813	-3.0667	-2.9458	-2.7708	-3.225	-2.9396	-2.75	-3.125	383.714	182.701	231.686	383.437	227.826	169.892	387.713	372.722	121.600	290.452	399.742	222.791	131.310	114.250	394.468	258.555	0.00061995	0.00050393	0.0001438	475.09	4.6715e-06	3.813e-06	607.14	184.51	3.7811e-06	4.4021e-06	270.35	125.78	82.042	44.943	4.0474e-06	67.991	0.0005454	0.00021592	6.5772e-05	480.83	2.1361e-06	2.2122e-06	613.76	187.22	2.6416e-06	2.3317e-06	274.76	128.77	84.167	46.227	2.8113e-06	69.678	228.696	175.853	180.751	103.289	255.310	236.957	102.612	108.251	256.964	247.507	106.720	111.478	113.108	116.860	259.766	114.441	-8191	255	
1435.619	1	1	0	0	0.10762	0.1987	0.24991	0.31704	0.23402	0.044558	0.04274	0.22425	0.11093	0.19528	0.072273	0.31896	0.1345	0.38029	0.082897	0.14401	-2.2146	-2.6583	-2.9146	-2.6646	-2.9104	-2.7083	-2.7875	-3.2375	-2.6354	-3.0146	-2.9083	-2.6292	-2.8271	-2.7333	-2.8167	-3.2729	161.548	340.684	106.397	436.361	362.191	170.044	355.860	360.868	413.941	189.598	328.050	97.562	329.162	434.384	271.852	215.548	0.00060898	0.00041322	0.00014864	477.5	5.1543e-06	3.8009e-06	611.23	184.6	3.8396e-06	4.4288e-06	271.85	126.58	82.48	44.809	5.2419e-06	68.144	0.00053328	0.00020608	6.2846e-05	483.57	2.2705e-06	2.1241e-06	616.79	188.02	2.3424e-06	2.3648e-06	275.21	129.35	84.356	46.222	3.0723e-06	69.854	227.993	175.856	185.550	103.275	257.105	241.367	102.478	108.421	259.460	242.792	106.393	111.337	113.184	116.925	256.368	114.503	-8191	255	
1435.715	1	1	0	0	0.14204	0.11322	0.085872	0.12343	0.027739	0.09811	0.04586	0.21471	0.14641	0.071007	0.21689	0.30152	0.27959	0.22879	0.1493	0.23016	-2.2771	-3.05	-2.8583	-2.7333	-3.0729	-2.675	-2.5396	-2.9854	-2.7542	-2.9021	-3.0833	-2.6937	-2.9792	-2.8917	-2.6625	-3.4437	182.660	282.626	91.927	163.348	225.607	449.328	400.224	449.589	350.007	337.232	104.078	420.327	90.665	410.231	218.782	298.019	0.00062953	0.00050831	0.00014461	479.32	4.3149e-06	4.5278e-06	616.17	186.76	3.7531e-06	4.7553e-06	272.43	127.16	83.261	45.032	4.4375e-06	68.572	0.00054412	0.00021738	5.9322e-05	485.76	2.1891e-06	2.3381e-06	619.95	189.68	2.5392e-06	2.254e-06	277.14	129.8	84.878	46.411	2.8454e-06	70.375	227.196	184.126	186.953	103.253	256.769	244.428	102.622	108.186	256.128	250.517	106.697	111.344	113.078	116.841	251.814	114.282	-8191	255	
1435.836	1	1	0	0	0.08048	0.16202	0.25808	0.23527	0.006765	0.27462	0.32095	0.20365	0.02357	0.042571	0.15661	0.14564	0.049028	0.22997	0.12904	0.14001	-2.2729	-2.9625	-2.975	-2.4667	-2.8854	-3.0771	-2.9167	-3.2521	-2.6917	-2.7417	-2.9729	-2.6354	-3.0542	-3.0542	-2.5625	-3.2271	412.300	232.309	252.803	310.753	126.637	135.054	272.236	342.614	386.248	155.343	319.496	119.225	276.193	380.144	108.278	399.727	0.00062355	0.00037957	0.00013856	480.79	3.9721e-06	4.8908e-06	609.39	184.95	3.3302e-06	4.3308e-06	269.33	124.55	81.659	43.738	4.4692e-06	66.67	0.00053991	0.00021876	5.84e-05	487.31	2.0577e-06	2.2718e-06	618.06	188.2	2.5774e-06	2.344e-06	274.04	127.37	83.381	45.246	2.7959e-06	68.326	227.168	168.149	181.548	103.348	256.343	236.386	102.683	108.357	260.518	239.622	106.169	111.327	113.108	116.993	252.114	114.468	-8191	255	
1435.932	1	1	0	0	0.074169	0.12053	0.2958	0.11016	0.33389	0.12775	0.41252	0.11949	0.11256	0.19403	0.1673	0.22923	0.27955	0.099504	0.22409	0.14764	-2.3104	-2.6625	-2.9292	-2.8146	-3.0667	-3.0396	-2.7458	-3.0167	-2.5708	-2.7062	-3.275	-2.8375	-2.8833	-2.8896	-2.625	-3.1125	117.479	193.041	133.878	107.006	417.958	372.174	401.819	93.331	324.865	369.003	107.200	386.334	230.939	399.420	249.222	348.431	0.00063032	0.00043261	0.00010906	478.53	4.1133e-06	3.741e-06	604.08	182.26	3.4598e-06	4.517e-06	266.86	122.4	79.916	43.168	4.635e-06	65.938	0.00054825	0.00023299	5.6511e-05	483.82	2.157e-06	2.1326e-06	612.29	185.42	2.3409e-06	2.2113e-06	270.09	125.27	82.064	44.468	2.9208e-06	67.753	227.133	176.525	179.867	103.004	257.272	236.100	102.479	108.423	265.070	234.661	106.632	111.159	113.064	117.112	249.536	114.393	-8191	255	
1436.026	1	1	0	0	0.19205	0.099966	0.15319	0.33229	0.18466	0.073215	0.2796	0.088509	0.098073	0.18368	0.22284	0.062279	0.15407	0.23953	0.21063	0.21871	-2.4875	-2.6437	-3.075	-2.5583	-2.8708	-3.1542	-2.6083	-3.1125	-3.0563	-2.8417	-3.15	-2.7	-2.9208	-3.3125	-2.7438	-2.9688	205.993	247.802	274.338	435.731	391.302	222.437	110.290	392.816	127.035	343.726	402.795	378.334	437.300	358.449	304.643	380.883	0.00058878	0.00049188	0.00012209	477.91	4.7337e-06	4.0266e-06	607.56	183.25	3.3475e-06	4.1133e-06	268.57	124.66	81.304	43.914	4.961e-06	67.37	0.00051427	0.00021283	5.6626e-05	483.95	2.2429e-06	2.0881e-06	615.23	186.87	2.2429e-06	2.1422e-06	273.27	127.58	83.106	45.236	2.757e-06	69.109	226.217	170.524	181.554	103.063	266.270	232.777	102.772	108.371	262.655	237.148	106.532	111.517	113.036	116.922	250.992	114.430	-8191	255	
1436.123	1	1	0	0	0.2883	0.11064	0.20232	0.13315	0.15221	0.11226	0.28375	0.14638	0.20915	0.044382	0.16796	0.16474	0.082516	0.1956	0.059283	0.089327	-2.2833	-2.6104	-2.9542	-2.875	-2.7521	-2.8396	-2.7667	-3.125	-2.8438	-2.6125	-3.1125	-3.0292	-2.9688	-3.2083	-2.7083	-2.9125	150.755	445.020	139.974	372.362	104.509	169.737	92.335	221.200	312.307	419.887	415.840	149.579	134.147	355.224	288.812	294.995	0.00060151	0.00048294	0.00013512	480.1	4.2614e-06	3.3547e-06	612.97	182.75	3.5923e-06	3.7964e-06	267.41	122.54	78.349	41.334	4.1364e-06	64.233	0.00053295	0.00021925	5.5728e-05	486.95	2.2115e-06	1.8286e-06	617.29	185.9	2.3316e-06	2.3212e-06	270.75	124.99	79.961	42.632	2.7319e-06	66.029	228.549	176.937	180.871	103.279	248.929	249.085	102.868	108.601	254.781	235.663	106.775	111.379	113.107	117.156	260.021	114.690	-8191	255	
1436.219	1	1	0	0	0.16479	0.022117	0.051035	0.23145	0.18774	0.18427	0.10686	0.27864	0.17679	0.12182	0.12027	0.014391	0.27414	0.16547	0.19833	0.327	-2.4042	-2.5646	-3.0104	-2.8667	-2.8229	-3.1229	-2.6937	-3.0396	-2.7979	-2.6146	-3.1021	-2.7542	-2.6479	-3.2542	-2.7229	-2.9542	300.128	111.298	150.063	442.774	96.394	273.128	93.568	306.520	121.472	129.403	118.405	392.179	418.039	272.278	295.229	394.414	0.00058827	0.00041507	0.00011947	477.07	4.0163e-06	3.8667e-06	608.67	175.76	3.0561e-06	4.2835e-06	260.11	118.81	76.118	40.206	4.1966e-06	63.33	0.00050512	0.00019421	5.2249e-05	483.38	2.0696e-06	1.8713e-06	613.11	178.92	2.1614e-06	2.0095e-06	264.27	121.54	77.797	41.431	2.6087e-06	65.091	227.972	174.149	184.919	103.287	259.815	238.050	102.359	108.203	260.659	236.605	106.417	111.237	113.291	117.091	263.170	114.348	-8191	255	
1436.315	1	1	0	0	0.1853	0.015016	0.16782	0.22616	0.33498	0.19941	0.219	0.16228	0.063413	0.17477	0.043828	0.14222	0.18621	0.21168	0.13784	0.23931	-2.5333	-2.6333	-2.9854	-3.0187	-2.7687	-3.2167	-2.8167	-2.8229	-3.1229	-2.7604	-3.2313	-2.9958	-2.7104	-3.1208	-2.7583	-2.7125	303.722	271.617	395.232	360.391	380.452	423.950	337.392	444.403	173.410	165.536	277.737	351.628	139.203	317.755	410.383	430.721	0.0005901	0.00045673	0.00012781	473.46	4.2115e-06	4.4797e-06	603.76	176.25	3.417e-06	4.1453e-06	259.78	118.69	76.488	40.429	4.6479e-06	64.056	0.00050146	0.00020974	5.2825e-05	481.14	2.154e-06	2.0095e-06	610.59	179.06	2.023e-06	2.0304e-06	263.98	121.54	77.919	41.654	2.7773e-06	65.569	227.601	175.561	191.988	103.196	248.330	232.257	102.575	108.477	265.641	236.356	106.731	111.500	113.197	117.343	256.646	114.618	-8191	255	
1436.411	1	1	0	0	0.10404	0.073323	0.17395	0.17236	0.2229	0.26249	0.18586	0.16282	0.16972	0.1727	0.12421	0.13336	0.1977	0.094091	0.176	0.065791	-2.6208	-2.5875	-3.0417	-2.9833	-2.7375	-2.8833	-2.7458	-2.8604	-3.1771	-2.6083	-2.9521	-2.975	-2.7271	-3.2	-2.9083	-2.7896	123.154	344.277	320.148	438.780	426.477	390.456	324.264	183.843	421.027	389.628	285.002	364.480	412.591	99.613	413.699	159.539	0.00056563	0.00043407	0.00010558	473.97	4.2705e-06	4.1214e-06	606.16	178.33	3.4911e-06	4.2288e-06	264.4	121.43	78.323	42.288	4.9323e-06	66.625	0.00049552	0.00021632	4.9116e-05	481.17	1.9957e-06	1.9631e-06	613.17	181.32	2.2537e-06	2.3175e-06	268.75	124.47	80.304	43.627	2.7408e-06	68.447	227.427	173.456	180.650	103.089	259.960	227.848	102.549	108.464	259.276	237.780	106.793	111.400	113.015	117.177	256.522	114.390	-8191	255	
1436.532	1	1	0	0	0.23714	0.20979	0.084799	0.22874	0.13104	0.14378	0.08127	0.038159	0.11007	0.095706	0.057015	0.1168	0.14528	0.18104	0.16371	0.038191	-2.7979	-2.7521	-3.0125	-3.1542	-2.4729	-2.9854	-3.0479	-2.8396	-2.9458	-2.7292	-3.0021	-3.1813	-2.7125	-2.9479	-3.0917	-2.8833	392.665	178.393	310.560	427.254	92.558	448.470	141.598	105.079	295.172	418.177	423.779	92.999	306.747	417.294	230.322	256.687	0.00062262	0.00042423	0.00013316	479.68	5.03e-06	4.5141e-06	615.24	181.46	3.3125e-06	4.486e-06	268.03	123.74	79.39	42.672	5.6675e-06	67.151	0.00053382	0.00021462	6.0381e-05	486.42	2.3272e-06	2.0758e-06	620.79	184.56	2.2133e-06	2.2199e-06	272.36	126.11	81.229	44.027	2.6128e-06	68.983	227.813	178.085	179.181	102.975	252.168	243.030	102.638	108.314	263.082	246.969	106.410	111.517	113.066	117.012	249.680	114.573	-8191	255	
1436.628	1	1	0	0	0.15003	0.058511	0.30795	0.18765	0.087334	0.23999	0.12421	0.22956	0.091271	0.28584	0.253	0.2221	0.30601	0.13863	0.060273	0.10522	-2.5563	-2.6688	-2.7396	-3.05	-2.8542	-2.8708	-3.1021	-2.9229	-3.0958	-2.6813	-2.7854	-3.2188	-2.7479	-3.1458	-2.8521	-2.3396	246.210	377.241	280.272	166.436	142.452	406.480	406.462	434.943	178.907	151.033	114.060	373.169	412.933	413.222	231.773	105.054	0.00063047	0.00044099	0.00013091	479.29	4.3446e-06	4.4525e-06	616.99	184.18	4.0866e-06	4.8886e-06	272.28	124.98	81.43	44.328	4.7179e-06	68.841	0.00054606	0.00021437	5.8469e-05	486.37	2.322e-06	2.1004e-06	623.45	188.2	2.4022e-06	2.4084e-06	276.41	128.17	83.179	45.514	2.7692e-06	70.636	228.390	176.591	189.272	103.255	245.898	244.439	102.474	108.314	262.980	234.517	106.548	111.295	113.046	117.036	259.959	114.295	-8191	255	
1436.724	1	1	0	0	0.14857	0.3553	0.20259	0.40454	0.067631	0.18221	0.13035	0.096713	0.24045	0.25066	0.47053	0.24151	0.19265	0.18	0.023296	0.1988	-2.6646	-2.8896	-2.725	-2.9042	-2.6729	-3.0229	-3.1813	-2.7438	-2.9833	-2.7833	-2.9917	-3.3063	-2.7	-2.8667	-3.0792	-2.8771	276.906	218.798	220.589	417.085	101.804	217.208	108.991	268.345	387.260	376.138	383.721	445.421	306.606	100.949	440.168	364.067	0.00063794	0.00043112	0.00013726	481.62	4.0043e-06	5.3726e-06	616.94	186.56	3.7613e-06	3.894e-06	271.68	126.15	81.698	44.361	4.5589e-06	68.755	0.00054335	0.00021055	6.3906e-05	488.1	2.0808e-06	2.3542e-06	622.46	190.23	2.4022e-06	2.0569e-06	277.1	128.93	83.377	45.657	2.5666e-06	70.437	229.190	174.870	183.155	103.369	251.878	239.116	102.341	108.689	260.937	235.755	106.333	111.190	112.985	116.859	252.826	114.550	-8191	255	
1436.796	1	1	0	0	0.069907	0.051677	0.048187	0.058756	0.17574	0.064857	0.097646	0.064026	0.16721	0.20815	0.22624	0.071247	0.15596	0.1379	0.069949	0.26244	-2.5917	-2.6875	-2.6667	-3.2417	-2.7771	-2.8833	-3.1833	-2.7542	-2.9604	-2.975	-2.8417	-3.0833	-2.7208	-3.0521	-3.0833	-2.7062	165.585	316.215	381.250	323.310	307.403	93.193	255.086	395.152	310.243	284.015	413.689	277.056	450.297	313.439	117.558	364.510	0.00063607	0.00047484	0.00013116	478.15	4.1132e-06	3.5682e-06	609.69	185.81	3.5699e-06	4.7124e-06	271.03	125.2	81.657	44.297	5.3476e-06	69.123	0.00054712	0.00020608	6.0082e-05	484.53	2.219e-06	2.1364e-06	618.33	189.16	2.2321e-06	2.2369e-06	277.14	128.42	83.417	45.623	2.736e-06	70.906	227.663	188.722	177.694	103.703	249.016	241.950	102.493	108.454	261.007	244.424	106.498	111.367	113.116	117.311	257.659	114.354	-8191	255	
1436.915	1	1	0	0	0.13151	0.11308	0.15022	0.10538	0.095185	0.20513	0.30109	0.12224	0.21095	0.13676	0.04048	0.11854	0.31591	0.14211	0.085986	0.14605	-2.4792	-3.0521	-2.7625	-3.1542	-2.8042	-2.7583	-3.075	-2.7208	-3.1521	-2.9833	-2.8021	-3.0854	-2.9042	-2.8729	-3.2208	-2.9083	313.437	165.574	349.926	176.534	272.593	383.218	450.122	219.544	365.715	177.624	387.232	428.026	132.291	338.615	161.247	433.697	0.00063036	0.00047515	0.00014276	481.46	3.5619e-06	4.8669e-06	618.1	187.73	4.0058e-06	4.4574e-06	274.54	127.41	82.604	44.948	4.8473e-06	70.046	0.00054044	0.00020933	6.5519e-05	486.36	2.204e-06	2.0966e-06	624.12	191.06	2.3258e-06	2.0133e-06	279.2	130.05	84.366	46.211	2.7157e-06	71.817	227.450	169.935	177.040	103.324	253.014	234.107	102.520	108.401	265.797	235.227	106.705	111.490	112.950	116.848	256.556	114.203	-8191	255	
1437.011	1	1	0	0	0.17349	0.15118	0.31084	0.24859	0.10373	0.20481	0.13676	0.19117	0.2987	0.091369	0.015393	0.11568	0.17983	0.38043	0.082885	0.2314	-2.5146	-2.8271	-2.45	-3.1312	-2.8208	-2.7854	-3.2708	-2.6188	-3.0125	-3.0625	-2.8396	-3.1458	-2.9646	-2.4437	-2.85	-2.8937	286.670	330.439	171.520	421.735	340.087	433.439	354.868	230.022	319.913	415.013	186.070	393.094	99.003	420.497	128.036	332.566	0.0006306	0.00040824	0.00012752	483.03	4.4608e-06	4.8163e-06	620.58	190.28	3.4733e-06	5.2824e-06	276.86	128.41	83.282	45.472	4.7969e-06	70.163	0.0005531	0.00020364	6.4828e-05	489.58	2.3354e-06	2.4338e-06	626.24	194.22	2.5291e-06	2.1261e-06	282.17	131.21	85.372	46.785	2.693e-06	72.317	227.773	163.784	176.364	103.209	251.263	249.336	102.404	108.385	259.104	229.149	106.337	111.292	113.096	117.004	252.903	114.335	-8191	255	
1437.107	1	1	0	0	0.18622	0.15574	0.23456	0.28015	0.16975	0.10564	0.24119	0.12766	0.17022	0.083402	0.20827	0.23013	0.029291	0.29741	0.085516	0.20284	-2.2833	-3.0479	-2.6125	-3.0708	-3.0729	-2.7042	-3.3229	-2.975	-2.7313	-3.0583	-2.8125	-3.25	-3.0542	-2.9542	-2.9458	-3.0521	98.342	443.757	90.688	138.483	199.074	355.400	386.981	389.147	123.543	226.177	399.586	400.621	421.818	432.189	368.596	415.481	0.00064074	0.00045609	0.00013643	487.7	4.7703e-06	4.2509e-06	627.21	194.91	3.8453e-06	4.2073e-06	281.77	130.61	85.825	46.673	5.1386e-06	72.156	0.00055639	0.00020551	6.515e-05	494.26	2.2563e-06	2.3467e-06	632.73	197.97	2.6596e-06	2.2454e-06	286.47	133.54	87.298	48.052	2.8559e-06	74.009	226.195	164.336	179.977	103.548	253.456	239.945	102.419	108.340	260.862	223.889	106.372	111.258	112.394	116.922	255.425	114.267	-8191	255	
1437.203	1	1	0	0	0.30919	0.13663	0.30501	0.30051	0.17378	0.076419	0.26171	0.12337	0.035074	0.25755	0.029903	0.063291	0.24483	0.2152	0.19177	0.16554	-2.3521	-2.9771	-2.6375	-2.8333	-2.6708	-2.6604	-3.1	-3.175	-2.8292	-3.0625	-2.5521	-2.8104	-3.1854	-2.7333	-3.0187	-2.9729	181.421	226.511	328.836	360.025	204.797	191.231	340.321	385.080	201.182	238.855	96.860	134.759	408.068	429.479	278.597	234.236	0.00066064	0.00037098	0.00013354	490.43	4.7177e-06	5.1215e-06	628.86	194.14	3.5907e-06	4.8824e-06	282.69	131.3	85.986	46.954	5.0298e-06	73.118	0.0005801	0.00019966	7.2868e-05	496.07	2.3713e-06	2.7103e-06	633.14	198.1	2.6106e-06	2.2398e-06	288.09	134.67	87.978	48.623	2.9718e-06	75.124	227.681	169.379	193.192	103.333	250.568	239.855	102.573	108.242	264.832	231.536	106.386	111.280	112.940	116.663	247.458	114.184	-8191	255	
1437.324	1	1	0	0	0.13375	0.18224	0.15336	0.084963	0.20271	0.3671	0.077237	0.1091	0.030582	0.091043	0.19212	0.19953	0.16079	0.19657	0.13529	0.41163	-2.0687	-3.0375	-2.7833	-2.9583	-2.9896	-2.675	-2.9146	-2.95	-2.7	-3.1417	-2.7542	-2.8521	-3.0104	-2.6146	-3.0667	-3.0438	367.827	391.535	155.054	116.338	442.260	416.693	294.696	375.130	250.737	406.670	382.659	111.622	379.160	154.652	243.943	432.202	0.00066945	0.00046203	0.00012602	489.65	4.9302e-06	4.5323e-06	627.71	193.77	3.5975e-06	4.4868e-06	282.55	131.04	84.967	46.545	5.5951e-06	71.864	0.00058773	0.00021145	6.5519e-05	495.03	2.3399e-06	2.4745e-06	635.29	197.41	2.6207e-06	2.1441e-06	287	133.95	86.992	47.95	3.0439e-06	73.869	227.434	170.554	174.983	103.084	258.678	244.447	102.652	108.493	263.166	241.100	106.525	111.260	112.975	117.035	257.290	114.300	-8191	255	
1437.420	1	1	0	0	0.030353	0.031215	0.046519	0.15811	0.17002	0.013134	0.13899	0.22816	0.20634	0.075031	0.1019	0.23173	0.14648	0.11109	0.15865	0.33021	-2.3958	-2.9813	-2.6604	-2.8375	-3.0375	-2.4313	-3.1167	-3.1562	-2.6208	-3.0646	-2.8792	-2.7396	-2.9667	-2.6354	-2.9646	-3.2271	261.069	218.010	381.554	314.232	198.613	203.529	150.554	436.887	269.033	133.232	114.108	128.963	188.857	118.817	196.204	327.047	0.00065329	0.00057058	0.00011153	484.46	3.946e-06	5.0271e-06	620.45	189.57	3.6807e-06	4.9752e-06	276.7	127.08	82.116	44.545	4.8126e-06	69.476	0.00057654	0.00022299	6.3975e-05	489.84	2.048e-06	2.5427e-06	625.91	193.03	2.612e-06	2.3193e-06	280.12	130.22	84.062	45.911	2.8851e-06	71.147	226.574	173.465	185.331	103.155	253.061	238.842	102.783	108.395	267.918	235.931	106.436	111.393	112.974	117.041	256.178	114.492	-8191	255	
1437.516	1	1	0	0	0.1773	0.3566	0.12313	0.26509	0.13701	0.043093	0.25854	0.25688	0.14933	0.047884	0.062116	0.12752	0.25988	0.36485	0.14551	0.10388	-2.3063	-3.1792	-2.6792	-2.5021	-3.0146	-2.6396	-2.975	-3.2458	-2.6125	-2.9396	-2.9625	-2.6	-3.2188	-2.9625	-2.8104	-3.0625	412.443	196.675	415.044	399.627	241.672	343.946	354.833	402.366	361.394	158.562	200.586	434.234	122.537	439.899	392.818	351.592	0.00062934	0.00046998	0.00012809	479.79	4.4737e-06	4.6052e-06	617.66	188.1	3.879e-06	4.4768e-06	274.05	126.61	81.984	44.035	4.7505e-06	68.874	0.00056091	0.00021762	6.5334e-05	486.05	2.1525e-06	2.2056e-06	622.93	191.27	2.4534e-06	2.2e-06	278.39	129.4	83.628	45.521	2.8624e-06	70.727	226.345	174.645	189.710	103.146	261.474	247.267	102.785	108.299	259.745	233.915	106.289	111.285	113.218	116.858	260.087	114.460	-8191	255	
1437.612	1	1	0	0	0.21999	0.041404	0.069172	0.26867	0.11498	0.13575	0.12495	0.15097	0.010285	0.14166	0.23688	0.20364	0.24375	0.1604	0.062206	0.18301	-1.8896	-2.7562	-2.9542	-2.7792	-3.0292	-2.675	-2.5292	-3.0771	-2.6333	-3.1729	-3.0875	-2.5979	-3.05	-2.825	-2.8063	-3.2646	332.040	297.641	440.832	365.572	155.910	108.484	144.414	315.371	430.127	317.947	381.349	142.844	183.430	433.123	103.658	329.929	0.00063003	0.00045203	0.0001198	480.29	3.7884e-06	4.5608e-06	618	185.49	3.8489e-06	4.2231e-06	272.42	125.17	80.856	43.723	4.6655e-06	68.782	0.00055354	0.00020901	6.0934e-05	484.76	2.1465e-06	2.3021e-06	622.58	188.78	2.4628e-06	2.0484e-06	276.77	128.7	82.863	45.105	2.9807e-06	70.593	226.989	179.757	183.235	103.399	251.597	233.409	102.755	108.466	267.010	246.066	106.432	111.557	113.212	117.076	251.819	114.470	-8191	255	
1437.708	1	1	0	0	0.16847	0.12786	0.25743	0.065026	0.33465	0.14535	0.14607	0.10647	0.25245	0.0728	0.20406	0.25647	0.46661	0.31254	0.33435	0.034837	-2.1333	-2.9521	-2.9667	-2.6729	-3.0833	-2.6312	-2.6	-3.2417	-2.7938	-2.9708	-3.1542	-2.6083	-2.9792	-2.8438	-2.7229	-3.3063	159.383	178.417	97.009	112.700	368.601	372.651	375.760	408.940	438.204	97.700	433.025	424.387	102.315	364.888	437.728	122.934	0.00064331	0.00045437	0.00011478	478.15	4.3189e-06	5.2906e-06	612.54	184.74	3.754e-06	4.7395e-06	271.34	125.41	80.611	43.238	4.8486e-06	67.803	0.00055723	0.00021413	5.3355e-05	483.77	2.2376e-06	2.3334e-06	619.35	187.88	2.3727e-06	2.3089e-06	275.39	128.31	82.254	44.681	2.8146e-06	69.78	227.424	176.500	181.648	103.422	247.621	238.592	102.596	108.419	255.559	243.124	106.531	111.455	113.198	116.981	243.655	114.507	-8191	255	
1437.804	1	1	0	0	0.040069	0.11483	0.090389	0.35864	0.1241	0.21797	0.32336	0.13629	0.071293	0.094451	0.19268	0.038273	0.22572	0.03255	0.11965	0.23819	-2	-2.9667	-3.0187	-2.8333	-2.9667	-2.7188	-2.6542	-3.0458	-2.9688	-2.9083	-3.1688	-2.5875	-3.0042	-3.0312	-2.6021	-3.1604	95.162	390.030	295.440	376.372	156.098	387.797	386.133	100.289	346.025	377.123	354.187	101.123	397.364	254.219	132.982	422.093	0.00064065	0.00042297	0.00012365	474.78	4.3605e-06	4.185e-06	611.02	183.93	3.8767e-06	4.799e-06	269.62	125.4	81.344	43.983	5.6631e-06	68.905	0.00055054	0.00021055	5.324e-05	481.1	2.2884e-06	2.1563e-06	617.17	187.22	2.4563e-06	2.4255e-06	274.75	128.52	83.055	45.339	3.0148e-06	70.704	226.862	175.728	190.369	103.318	254.660	233.874	102.699	108.516	259.879	237.393	106.352	111.340	113.072	116.835	259.996	114.461	-8191	255	
1437.923	1	1	0	0	0.074996	0.1823	0.054005	0.10889	0.23192	0.25765	0.065016	0.27325	0.12972	0.15644	0.1045	0.28282	0.033107	0.19808	0.39385	0.41156	-2.2313	-2.8521	-3.15	-2.5583	-2.8917	-3.0312	-2.8021	-3.0187	-2.7396	-2.7771	-3.2479	-2.5854	-2.9917	-3.0312	-2.4896	-3.1667	222.281	382.956	289.607	438.906	286.043	341.528	132.294	312.283	166.447	93.258	125.487	403.559	384.563	284.846	352.049	354.735	0.00062738	0.00048378	0.00013314	472.18	4.4029e-06	4.26e-06	612.31	184.9	3.3637e-06	3.9077e-06	272.64	127.05	82.692	45.02	4.5009e-06	70.258	0.00054799	0.00022958	5.6695e-05	479.46	2.2541e-06	2.0285e-06	618.32	188.53	2.4577e-06	2.3771e-06	276.93	130.11	84.246	46.373	2.971e-06	72.091	227.163	161.813	184.269	103.158	254.255	243.477	102.599	108.231	262.849	242.920	106.488	111.362	113.397	116.805	259.318	114.445	-8191	255	
1438.019	1	1	0	0	0.026064	0.16676	0.20481	0.19595	0.06031	0.13721	0.15403	0.2146	0.051812	0.17236	0.27064	0.43179	0.16844	0.192	0.19519	0.11881	-2.2313	-2.4875	-3.075	-2.7812	-2.8187	-3.0438	-2.7667	-3.025	-2.8563	-2.7687	-3.1375	-2.85	-2.775	-3.1771	-2.7146	-3.2875	307.804	383.022	358.346	319.963	165.949	328.494	313.819	365.576	167.662	406.280	118.826	400.077	404.998	396.503	124.859	213.498	0.00065808	0.00038616	0.0001507	474.04	4.2125e-06	3.9885e-06	613.59	184.95	3.7302e-06	4.1025e-06	274.42	127.62	82.719	45.047	4.8231e-06	70.331	0.00056706	0.00021714	6.2547e-05	479.32	2.101e-06	2.0237e-06	619.13	188.52	2.4779e-06	2.3658e-06	277.59	130.5	84.208	46.384	2.9208e-06	72.143	227.048	167.198	182.485	103.214	254.567	237.722	102.668	108.571	260.244	241.193	106.451	111.358	112.971	116.928	259.472	114.476	-8191	255	
1438.091	1	1	0	0	0.41791	0.26078	0.15863	0.064531	0.24962	0.17176	0.22039	0.15601	0.11325	0.17109	0.0491	0.32015	0.10465	0.087905	0.14754	0.10302	-2.4521	-2.6854	-3.1104	-2.7375	-2.8542	-2.8542	-2.6042	-3.0083	-2.9188	-2.5417	-3.1792	-2.8771	-2.9146	-3.0292	-2.4604	-2.9521	242.035	260.217	111.845	179.591	334.499	143.832	447.831	393.681	226.529	162.038	442.209	320.938	324.368	139.454	442.551	350.761	0.00064253	0.00048982	0.00014647	473.6	4.5477e-06	4.2323e-06	613.27	183.17	3.4779e-06	4.0887e-06	269.01	125.1	80.32	43.433	4.7355e-06	67.716	0.0005593	0.000236	5.9068e-05	480.36	2.322e-06	2.1895e-06	619.83	187.06	2.4347e-06	2.3099e-06	273.56	128	82.301	44.848	3.0196e-06	69.313	226.216	173.825	173.349	103.277	264.393	234.159	102.715	108.398	258.723	233.253	106.276	111.463	112.881	116.819	263.453	114.335	-8191	255	
1438.187	1	1	0	0	0.20852	0.21155	0.22173	0.084685	0.081732	0.22938	0.31414	0.19863	0.10027	0.039536	0.16265	0.098762	0.12347	0.038697	0.20293	0.26996	-2.5396	-2.3333	-3.1354	-2.8333	-2.7667	-3.1354	-2.7292	-2.8688	-3.0229	-2.8417	-3.1562	-2.9813	-2.9229	-3.2354	-2.6729	-3.2667	448.702	364.845	440.457	396.920	144.216	331.215	382.107	420.046	442.795	309.688	391.322	204.956	90.663	159.543	388.554	438.642	0.00060593	0.00045446	0.00010929	471.38	3.9321e-06	4.641e-06	603.67	179.51	3.0775e-06	4.0568e-06	263.61	122.22	78.276	42.146	4.9783e-06	65.88	0.00052915	0.00023917	5.5613e-05	476.01	2.2653e-06	1.9811e-06	610.12	182.89	2.0727e-06	2.3572e-06	268.65	124.97	80.092	43.404	2.9937e-06	67.691	228.182	169.477	177.146	103.373	259.310	233.018	102.719	108.486	255.752	250.183	106.307	111.456	113.127	117.056	252.105	114.285	-8191	255	
1438.308	1	1	0	0	0.1213	0.22775	0.095274	0.1077	0.23331	0.0531	0.073904	0.23496	0.15853	0.18133	0.15899	0.22552	0.13698	0.076504	0.2042	0.31598	-2.7438	-2.5583	-2.8417	-2.9146	-2.7896	-3.0979	-2.6479	-2.85	-3.0625	-2.4938	-3.0396	-3.0146	-2.7479	-2.9875	-2.6667	-3.0042	304.572	145.417	410.813	111.452	360.685	260.943	263.078	429.225	307.512	197.976	435.958	121.128	441.790	183.074	364.603	443.952	0.0005805	0.00048687	0.00013761	468.91	3.8724e-06	3.995e-06	606.05	177.68	3.0456e-06	4.4587e-06	262.74	121.67	77.81	41.918	5.6765e-06	65.999	0.00050179	0.00022551	6.0543e-05	474.75	2.2951e-06	1.9252e-06	611.24	181.52	2.1571e-06	2.3288e-06	267.74	124.65	79.724	43.159	2.8316e-06	67.626	227.585	168.467	173.250	103.221	257.969	240.748	102.557	108.478	256.802	239.859	106.750	111.608	113.246	116.882	261.841	114.300	-8191	255	
1438.404	1	1	0	0	0.1098	0.25824	0.15393	0.1551	0.094941	0.19025	0.27552	0.14636	0.10396	0.34078	0.24734	0.091664	0.25651	0.15739	0.16523	0.18003	-2.5167	-2.5458	-2.9896	-2.9938	-2.4875	-2.9146	-2.7125	-2.7333	-3.0583	-2.6917	-3.1063	-3.1271	-2.5583	-3.0958	-2.6604	-2.9729	113.179	371.500	255.469	174.271	375.052	163.842	139.932	413.692	100.353	385.172	100.228	416.754	211.751	92.036	268.242	357.836	0.00061942	0.00047824	0.00013912	470.96	3.5218e-06	4.8364e-06	605.87	177.29	3.2182e-06	4.8914e-06	263.64	122.11	77.932	41.694	4.0507e-06	65.431	0.00052404	0.00023193	5.7087e-05	475.35	2.163e-06	2.1336e-06	611.69	181.09	2.1463e-06	2.4359e-06	267.65	124.77	79.491	42.967	2.5812e-06	67.077	228.277	171.542	175.912	103.146	251.684	238.970	102.517	108.551	260.086	237.177	106.693	111.358	112.981	117.306	261.613	114.431	-8191	255	
1438.500	1	1	0	0	0.064411	0.09474	0.19849	0.091419	0.3703	0.25555	0.10547	0.24588	0.27537	0.16545	0.10304	0.18894	0.070225	0.19045	0.16191	0.14559	-2.6312	-2.6229	-3.075	-3.1833	-2.5417	-3.0479	-2.85	-2.7812	-2.95	-2.8729	-2.975	-3.1708	-2.5375	-3.1271	-2.7729	-2.6542	417.918	249.049	273.645	421.803	269.926	284.441	332.520	165.674	239.808	408.953	156.167	443.248	282.682	354.282	282.326	142.812	0.00060564	0.00044901	9.6355e-05	466.58	3.7176e-06	4.6665e-06	602.23	175.6	3.6862e-06	4.3909e-06	259.8	119.92	76.112	40.199	4.461e-06	62.703	0.00051323	0.00020811	5.552e-05	473.78	2.1234e-06	2.2103e-06	608.69	178.78	2.302e-06	2.2815e-06	263.48	122.21	77.593	41.482	2.5091e-06	64.592	227.435	165.342	174.367	102.938	250.106	235.498	102.772	108.365	256.082	226.208	106.448	111.272	113.076	117.178	247.818	114.650	-8191	255	
1438.596	1	1	0	0	0.16964	0.076356	0.27809	0.10875	0.12743	0.15944	0.021631	0.16746	0.075272	0.12057	0.082242	0.13558	0.044225	0.10946	0.15797	0.20134	-2.625	-2.7708	-2.7542	-3.1875	-2.7729	-2.8979	-3.1063	-2.7958	-3.1833	-2.8021	-2.6375	-3.1479	-2.7938	-3.0708	-2.7625	-2.6937	338.834	118.169	402.451	368.348	261.383	294.304	286.502	382.844	188.577	109.414	436.574	424.254	421.966	281.079	234.757	156.831	0.00058183	0.00031178	0.00012844	462.97	4.003e-06	4.3787e-06	590.61	171.56	3.218e-06	4.4458e-06	254.94	116.93	74.989	39.351	4.6804e-06	62.208	0.00050176	0.00019047	5.5544e-05	468.26	2.1786e-06	2.1961e-06	598.47	174.76	2.1701e-06	2.0749e-06	258.58	119.69	76.301	40.562	2.5553e-06	63.809	227.891	177.158	170.165	103.142	253.848	246.278	102.633	108.405	254.972	240.269	106.700	111.435	113.283	117.086	258.857	114.572	-8191	255	
1438.692	1	1	0	0	0.033129	0.18628	0.091875	0.19757	0.12228	0.042621	0.075211	0.27716	0.17333	0.060036	0.21009	0.13947	0.14456	0.10883	0.15862	0.36737	-2.7687	-2.7708	-2.8021	-3.1312	-2.8271	-2.7687	-2.9354	-2.7896	-3.2021	-3.0229	-2.9188	-3.2583	-2.6958	-2.9208	-2.8604	-2.5354	334.377	312.491	361.255	372.580	431.032	130.484	291.555	359.982	160.715	282.880	363.764	154.451	370.449	302.957	301.848	397.514	0.00058273	0.00038715	0.00011889	459.54	3.0471e-06	3.2246e-06	593.84	171.05	3.0344e-06	4.1983e-06	254.55	116.71	73.883	38.837	4.4791e-06	61.977	0.00049127	0.00018779	5.4346e-05	465.54	2.0801e-06	2.0237e-06	598.63	173.82	2.1001e-06	1.9508e-06	258.22	119.44	75.584	40.175	2.5698e-06	63.454	227.364	179.471	180.177	103.305	258.695	238.312	102.507	108.590	259.581	255.173	106.298	111.608	113.353	117.417	250.060	114.586	-8191	255	
1438.789	1	1	0	0	0.15447	0.025465	0.23674	0.076421	0.1186	0.1729	0.40397	0.15797	0.051297	0.15411	0.40785	0.063121	0.32706	0.097575	0.15947	0.11085	-2.4979	-2.7729	-2.6354	-3.2125	-2.8625	-2.85	-3.1125	-2.5417	-2.9458	-2.7458	-2.8229	-3.15	-2.8333	-2.9896	-3.2167	-2.8625	244.005	400.412	122.681	380.480	242.549	300.169	341.717	427.571	158.310	98.535	434.720	204.301	117.801	307.456	318.893	433.503	0.00058115	0.00039226	0.00011037	459.66	3.694e-06	4.7358e-06	589.9	168.12	2.6573e-06	4.591e-06	251.65	114.98	72.713	38.203	4.2662e-06	60.783	0.00049338	0.00019324	5.423e-05	464.38	1.9651e-06	2.0341e-06	596.11	171.15	2.0684e-06	2.0152e-06	255.35	118	74.276	39.432	2.1638e-06	62.356	227.597	172.935	184.790	102.984	257.282	241.692	102.642	108.479	264.032	237.221	106.612	111.620	113.515	117.471	260.087	114.722	-8191	255	
1438.885	1	1	0	0	0.10103	0.16271	0.12452	0.081065	0.15211	0.18216	0.14148	0.1101	0.027789	0.18908	0.19962	0.22188	0.062122	0.079941	0.12891	0.21384	-2.4479	-2.9542	-2.5708	-3.2812	-2.8896	-2.85	-3.1521	-2.7667	-2.975	-3.0458	-2.7792	-2.9917	-2.8521	-2.6479	-2.9646	-2.55	145.725	326.067	317.078	212.210	359.961	138.529	320.397	247.213	292.902	361.776	449.782	425.091	116.381	403.591	263.248	307.089	0.00057056	0.00042613	0.00011808	457.6	4.3479e-06	4.3751e-06	586.69	165.77	3.0408e-06	4.1121e-06	247.66	113.3	71.41	37.497	3.895e-06	59.975	0.00048364	0.00017446	5.1765e-05	462.65	1.9412e-06	1.8466e-06	594.04	168.19	1.8795e-06	1.8769e-06	251.45	115.71	72.765	38.493	2.1711e-06	61.436	228.226	171.028	186.667	103.129	250.837	243.563	102.529	108.594	264.709	242.116	106.517	111.632	113.366	117.547	240.471	114.792	-8191	255	
1439.005	1	1	0	0	0.34078	0.13076	0.24113	0.05401	0.27636	0.049279	0.19894	0.24106	0.20803	0.021649	0.1622	0.29254	0.075741	0.23171	0.2008	0.11677	-2.5167	-2.9208	-2.5833	-3.1854	-2.9729	-2.7708	-3.2271	-2.7625	-2.7917	-3.0917	-2.7667	-3.025	-3.1854	-2.7833	-3.2458	-2.8542	215.455	119.342	249.990	148.226	237.702	416.528	432.157	243.823	139.782	397.513	377.762	127.012	122.100	421.201	251.045	248.193	0.00055004	0.00038022	0.00012829	455.92	3.5615e-06	4.5165e-06	583.41	163.88	3.413e-06	3.4929e-06	246.84	112.61	70.995	37.343	4.4103e-06	59.429	0.00047675	0.00019267	5.5474e-05	460.64	1.7568e-06	1.9281e-06	589.79	167.4	2.1304e-06	1.7575e-06	250.02	115.17	72.412	38.41	2.2911e-06	61.16	227.146	175.372	189.172	103.298	260.613	240.146	102.569	108.320	267.562	238.403	106.537	111.654	113.452	117.281	258.595	114.433	-8191	255	
1439.100	1	1	0	0	0.11808	0.10373	0.040062	0.38111	0.21129	0.17512	0.19488	0.14783	0.27753	0.1496	0.1404	0.23572	0.13187	0.18771	0.14883	0.11687	-2.1958	-2.8958	-2.5083	-2.725	-2.9188	-2.5896	-2.8854	-2.7583	-2.7292	-3.1312	-2.6958	-3.1708	-3.0875	-2.7604	-3.0604	-3.0667	234.996	439.073	128.726	339.007	106.835	168.210	99.965	418.766	363.839	268.902	147.255	406.177	413.912	363.438	325.810	304.445	0.00056917	0.0003796	0.0001299	453.95	4.0035e-06	3.3658e-06	588.63	164.69	3.1625e-06	4.7986e-06	248.4	113.75	72.18	37.849	4.75e-06	60.688	0.00048346	0.00017039	5.6119e-05	460.08	1.8688e-06	1.8921e-06	592.16	168.31	2.067e-06	1.8257e-06	252.21	116.34	73.455	38.963	2.4807e-06	62.173	227.567	172.111	183.036	102.998	247.295	230.409	102.801	108.567	261.065	240.543	106.563	111.762	113.344	117.390	249.900	114.671	-8191	255	
1439.196	1	1	0	0	0.094825	0.10006	0.073642	0.059897	0.2317	0.070877	0.18111	0.12361	0.12997	0.085039	0.076031	0.15537	0.30681	0.24879	0.19943	0.027266	-2.3083	-3.0292	-2.5729	-2.7875	-2.7562	-2.6188	-3.2083	-2.9729	-2.8812	-3.1417	-2.8521	-2.9271	-2.9583	-2.8333	-3.1312	-3.0375	401.159	178.182	432.438	347.211	216.211	427.699	415.138	426.766	242.259	98.559	118.891	332.392	392.351	360.992	203.403	382.233	0.00055475	0.00045155	0.00012841	458.53	3.7621e-06	4.1482e-06	589.96	165.88	3.6927e-06	3.9448e-06	248.45	114.54	71.675	37.677	3.9935e-06	60.479	0.00047746	0.00018673	5.559e-05	463.61	1.7404e-06	1.9953e-06	595.32	169.32	2.2061e-06	1.7471e-06	252.81	116.82	73.174	38.842	2.2522e-06	62.134	227.125	184.464	177.883	103.142	250.431	233.844	102.696	108.560	257.093	236.440	106.565	111.520	113.379	117.146	255.437	114.456	-8191	255	
1439.317	1	1	0	0	0.2111	0.31361	0.089728	0.1297	0.26651	0.25399	0.096477	0.083668	0.11588	0.22481	0.19904	0.32795	0.17446	0.26357	0.14458	0.20285	-2.3063	-3.0583	-2.775	-2.9167	-2.9021	-2.5333	-3.1271	-2.9604	-2.6792	-2.9917	-2.9417	-2.8042	-3.0979	-2.7146	-2.9583	-3.3458	161.737	427.864	436.549	424.827	321.787	233.454	189.635	118.909	408.508	394.140	382.442	449.686	370.830	101.458	313.816	305.521	0.0005656	0.00044584	0.00011953	457.14	4.0502e-06	3.2083e-06	591.39	165.84	3.0544e-06	4.95e-06	247.51	113.37	71.741	37.367	4.1527e-06	59.882	0.0004897	0.00016934	5.1051e-05	463.27	1.8128e-06	1.8239e-06	595.16	169	2.1311e-06	1.8163e-06	251.96	115.9	73.043	38.603	2.257e-06	61.408	227.609	169.606	183.831	103.325	256.814	243.314	102.429	108.494	265.687	229.405	106.385	111.538	113.344	117.172	256.653	114.579	-8191	255	
1439.388	1	1	0	0	0.11054	0.21718	0.009899	0.21992	0.28141	0.19247	0.16842	0.14993	0.092785	0.20565	0.060927	0.17769	0.32631	0.37993	0.12003	0.20506	-2.425	-3.1167	-2.7396	-2.725	-3.0396	-2.8375	-3.0917	-2.8479	-2.5625	-3.1708	-3.0187	-2.9313	-3.0479	-2.7771	-3.0354	-3.2562	427.759	393.391	259.637	208.236	169.640	238.027	398.460	228.720	383.208	404.236	331.240	296.981	450.170	383.613	174.881	377.712	0.000548	0.00038664	8.4992e-05	456.87	4.5597e-06	3.696e-06	586.28	165.84	2.854e-06	3.5812e-06	247.47	113.68	70.87	37.316	4.089e-06	59.56	0.00047051	0.00017405	4.884e-05	461.97	2.0002e-06	1.9565e-06	592.08	168.69	2.0129e-06	1.7537e-06	251.41	115.81	72.65	38.519	2.2951e-06	61.23	226.934	164.899	183.778	102.984	247.485	241.746	102.664	108.443	258.829	242.984	106.611	111.578	113.347	117.247	246.155	114.466	-8191	255	
1439.484	1	1	0	0	0.070155	0.096865	0.4802	0.12137	0.30526	0.14439	0.071854	0.32651	0.078642	0.076343	0.092987	0.3051	0.08529	0.12784	0.28691	0.28711	-2.1875	-3.0938	-2.7271	-2.6354	-3.0896	-2.5667	-2.9167	-3.0958	-2.7021	-3.1562	-3.0333	-2.7458	-3.1042	-2.8	-2.6521	-3.2167	223.573	335.553	156.201	134.064	402.827	444.052	337.538	352.066	100.726	120.047	240.799	415.279	312.863	206.720	105.826	406.966	0.00054504	0.00036978	0.00010243	454.34	4.2462e-06	4.3013e-06	589.24	164.52	2.6471e-06	4.1728e-06	245.38	112.73	70.706	36.933	4.2065e-06	59.427	0.00047247	0.00016698	5.0498e-05	460.88	1.8427e-06	2.0285e-06	592.7	167.25	2.0663e-06	1.8153e-06	250.1	115.26	72.156	38.019	2.2813e-06	60.929	227.921	177.923	179.911	103.006	255.400	240.226	102.688	108.336	263.965	248.340	106.527	111.639	113.144	117.400	250.425	114.614	-8191	255	
1439.605	1	1	0	0	0.049058	0.21202	0.22761	0.15294	0.18874	0.064987	0.2988	0.066823	0.16845	0.19881	0.06429	0.096944	0.049408	0.085483	0.14566	0.070103	-2.1229	-2.8646	-2.7354	-2.6979	-3.0542	-2.7042	-2.8583	-3.2104	-2.5896	-3.0167	-3.1896	-2.7271	-2.9771	-2.9	-2.7771	-3.1188	185.928	435.689	330.948	417.738	383.849	117.348	395.216	277.765	254.074	91.036	193.152	96.659	424.062	381.169	252.015	102.599	0.00053642	0.0005117	0.00011008	458.41	4.6831e-06	3.9037e-06	586.23	164.43	3.1409e-06	3.7021e-06	245.47	113.11	70.387	36.874	4.3461e-06	59.569	0.00047978	0.00018421	4.5614e-05	461.96	1.9614e-06	1.7927e-06	593.69	167.27	2.2083e-06	1.8077e-06	249.91	115.38	72.054	37.981	2.4515e-06	61.096	227.145	171.684	175.972	103.210	253.379	249.055	102.756	108.334	260.936	244.639	106.361	111.631	113.302	117.167	253.946	114.756	-8191	255	
1439.701	1	1	0	0	0.10268	0.090927	0.16885	0.067748	0.2496	0.095172	0.16496	0.17953	0.23451	0.27989	0.29267	0.16172	0.046213	0.19171	0.1464	0.34613	-2.0729	-2.8542	-3.0292	-2.7438	-3.2479	-2.7687	-2.6854	-3.0563	-2.6688	-2.8479	-3.1813	-2.6625	-3.175	-2.9771	-2.6542	-3.3021	114.991	238.302	202.868	316.809	119.006	360.597	381.079	442.452	410.258	390.095	96.280	403.700	126.819	101.398	257.670	392.786	0.00054582	0.00051339	0.00011811	451.67	3.7295e-06	4.0098e-06	585.1	162.65	2.8193e-06	3.9319e-06	244.46	112.47	70.084	36.392	3.711e-06	58.561	0.00047508	0.00017698	5.0314e-05	459.21	1.7717e-06	1.7832e-06	591.46	165.51	1.9754e-06	1.8077e-06	248.57	114.43	71.427	37.489	2.4815e-06	60.088	227.366	178.803	185.297	103.122	255.571	238.331	102.722	108.714	259.226	242.203	106.708	111.507	113.288	117.216	258.135	114.793	-8191	255	
1439.797	1	1	0	0	0.30307	0.15301	0.087602	0.10502	0.14856	0.045279	0.28146	0.093016	0.087173	0.10657	0.3612	0.11002	0.096181	0.078766	0.32529	0.086717	-2.2438	-2.6479	-2.95	-2.6021	-2.9375	-2.7083	-2.6104	-3.2625	-2.8125	-3.025	-3.2646	-2.7917	-3.0563	-3.0396	-2.6312	-3.2438	281.487	108.283	395.917	185.949	117.344	228.793	430.694	442.081	234.394	348.080	431.864	445.255	198.272	440.334	288.751	418.459	0.00054332	0.00036019	0.00013148	453.88	3.8918e-06	3.9769e-06	582.01	162.24	2.9884e-06	3.4789e-06	242.98	111.49	69.944	36.277	4.0405e-06	58.509	0.00047244	0.00017714	4.9323e-05	458.29	1.8613e-06	1.7643e-06	587.58	165.22	1.9617e-06	1.8248e-06	247.25	113.8	71.252	37.432	2.3121e-06	60.066	228.820	174.377	187.896	102.872	246.671	242.257	102.489	108.420	256.608	250.385	106.680	111.573	113.322	117.108	252.410	114.761	-8191	255	
1439.892	1	1	0	0	0.27978	0.12723	0.093955	0.20166	0.22416	0.17023	0.27212	0.3485	0.098205	0.21667	0.085065	0.097681	0.19578	0.16689	0.166	0.062468	-2.5187	-2.6479	-3.1104	-2.7375	-2.9813	-2.9625	-2.6104	-3.0667	-2.8917	-2.6688	-3.1437	-2.7729	-2.9313	-2.9021	-2.5187	-2.8896	160.375	98.909	224.570	437.102	98.850	91.333	412.970	383.262	187.996	235.997	401.031	376.710	394.988	432.515	190.479	185.670	0.00054647	0.00032884	0.00013743	452.45	3.799e-06	3.2446e-06	584.22	163.02	3.2864e-06	3.5717e-06	243.68	111.67	69.702	36.433	4.0034e-06	58.784	0.00047868	0.00018608	5.1489e-05	457.65	1.8023e-06	1.5427e-06	588.69	165.84	2.0987e-06	1.8854e-06	247.97	114.17	71.449	37.6	2.4799e-06	60.364	227.215	169.226	177.497	103.196	251.567	237.018	102.494	108.718	259.278	231.819	106.683	111.644	113.227	117.317	260.996	114.680	-8191	255	
1439.988	1	1	0	0	0.14308	0.21286	0.12038	0.086575	0.058442	0.22612	0.17763	0.14507	0.17775	0.10165	0.2632	0.16257	0.11283	0.055545	0.010758	0.20338	-2.3312	-2.5521	-3.1375	-2.7479	-2.9333	-2.9062	-2.6167	-3.0875	-3.0458	-2.7062	-3.1813	-2.775	-2.7417	-3.1417	-2.5583	-3.1188	446.959	429.518	402.428	149.010	380.827	337.747	385.957	346.771	379.717	256.693	446.440	147.484	245.450	259.692	376.149	389.556	0.000545	0.00037781	0.00011801	452.04	3.9857e-06	3.89e-06	585.63	162.52	3.2402e-06	3.5915e-06	244.14	111.85	70.005	36.413	3.5986e-06	59.055	0.00046887	0.00018795	4.6144e-05	458.13	1.9479e-06	1.9101e-06	590.32	165.28	2.0122e-06	1.8475e-06	248.41	114.51	71.266	37.537	2.2643e-06	60.51	228.876	174.148	177.658	103.220	253.435	234.860	102.832	108.562	256.991	246.045	106.686	111.732	113.290	117.286	247.234	114.447	-8191	255	
1440.084	1	1	0	0	0.05279	0.25461	0.038048	0.36749	0.060186	0.24584	0.22838	0.20216	0.30316	0.10622	0.24893	0.23718	0.19041	0.12221	0.11194	0.14076	-2.3792	-2.5938	-2.9604	-2.8563	-2.9271	-3.0792	-2.6688	-2.8646	-2.8958	-2.5583	-3.0208	-3.0062	-2.975	-3.0604	-2.7396	-3.0396	312.395	300.307	310.655	91.735	165.098	357.129	368.786	410.421	387.606	326.030	433.467	435.368	114.816	361.875	331.228	331.611	0.00053313	0.00039049	0.0001202	450.07	3.6774e-06	4.1034e-06	579.51	160.87	2.9562e-06	3.5757e-06	242.86	110.55	69.261	36.131	4.2123e-06	58.258	0.00045675	0.00019519	4.6513e-05	455.52	1.8554e-06	1.7339e-06	586.99	164.42	2.0497e-06	1.8769e-06	246.46	113.12	70.672	37.196	2.4539e-06	59.639	229.521	181.748	178.832	103.200	252.187	234.208	102.483	108.613	272.998	237.274	106.618	111.478	113.388	117.355	256.643	114.646	-8191	255	
1440.180	1	1	0	0	0.16233	0.20465	0.21461	0.22139	0.063679	0.18782	0.32538	0.14557	0.18224	0.045999	0.13017	0.1713	0.24142	0.25915	0.10291	0.26853	-2.4208	-2.4979	-2.85	-2.7729	-2.725	-3.1792	-2.8063	-2.9729	-3.0167	-2.6562	-3.1979	-3.0708	-2.9771	-3.3417	-2.7021	-2.7313	131.318	179.217	397.309	135.405	381.349	175.225	408.337	124.200	154.074	177.416	313.017	423.173	114.615	403.390	119.450	154.133	0.00053094	0.00038548	0.00010021	450.7	3.4276e-06	3.2362e-06	577.52	161.2	3.1388e-06	4.5689e-06	241.7	110.38	69.282	35.98	4.2897e-06	58.17	0.00046163	0.0002012	4.5706e-05	454.84	1.8076e-06	1.5862e-06	584.39	163.88	1.8442e-06	1.9887e-06	245.59	112.82	70.627	37.12	2.2846e-06	59.8	227.427	171.785	173.631	103.292	260.910	231.733	102.749	108.626	260.312	233.190	106.628	111.610	113.477	117.314	252.919	114.513	-8191	255	
1440.276	1	1	0	0	0.10856	0.24393	0.06304	0.32822	0.20627	0.064548	0.25724	0.252	0.34898	0.091088	0.15419	0.45365	0.05898	0.30067	0.037139	0.40738	-2.7	-2.6312	-2.9646	-2.9625	-2.7021	-2.8771	-2.9313	-3.0792	-2.975	-2.5833	-3.0417	-3.1229	-2.6625	-3.0438	-2.8563	-2.9	192.372	244.375	348.293	99.527	398.946	360.683	412.665	366.657	331.704	142.179	413.490	99.077	406.852	135.459	352.086	375.648	0.00053477	0.00044292	0.00012128	449.07	3.7677e-06	3.8306e-06	581.76	160.85	3.3664e-06	4.1323e-06	241.95	111.18	69.287	36.081	4.4502e-06	57.962	0.0004531	0.00019616	5.1581e-05	455.06	2.0286e-06	1.6866e-06	585.73	164.05	1.8247e-06	1.9299e-06	245.77	113.36	70.728	37.131	2.4637e-06	59.531	227.845	174.666	189.538	103.247	248.488	249.020	102.472	108.511	258.244	238.876	106.554	111.584	113.368	117.182	262.152	114.733	-8191	255	
1440.397	1	1	0	0	0.21426	0.271	0.17307	0.071704	0.19429	0.21958	0.12851	0.067461	0.053061	0.082099	0.11006	0.21482	0.13507	0.22811	0.14202	0.38124	-2.6292	-2.6479	-3.0646	-2.7313	-2.6208	-3.2375	-3.15	-2.7708	-3.0646	-2.7396	-3.2062	-2.9729	-2.8646	-2.9062	-2.6312	-2.7062	308.430	142.036	313.449	216.427	99.186	142.187	137.825	221.228	440.562	268.772	399.547	382.598	186.797	394.672	425.948	398.284	0.00053581	0.00042749	0.00012193	449.29	4.2105e-06	3.9983e-06	580.13	160.94	2.7328e-06	3.6314e-06	242.94	110.85	69.085	36.072	4.5326e-06	58.322	0.00046353	0.00019714	5.0959e-05	454.87	1.9808e-06	1.7103e-06	585.78	163.61	1.8146e-06	2.0351e-06	246.29	113.24	70.633	37.129	2.4993e-06	59.706	228.027	168.652	177.572	103.011	250.908	235.065	102.541	108.742	268.098	241.975	106.503	111.546	113.080	117.327	244.466	114.758	-8191	255	
1440.493	1	1	0	0	0.3848	0.092476	0.16455	0.058868	0.15383	0.17652	0.22185	0.18035	0.18871	0.17017	0.064639	0.33325	0.12056	0.16083	0.30497	0.14569	-2.7833	-2.6813	-2.6875	-2.9917	-2.6125	-2.9646	-2.9313	-2.4083	-2.9417	-2.6875	-2.9354	-3.0708	-2.6667	-2.8333	-2.7896	-2.6521	106.369	423.664	235.553	128.061	405.424	443.126	379.837	447.631	253.507	182.516	275.231	339.788	447.665	160.060	305.362	376.228	0.00052373	0.00036996	0.00010279	448.73	4.036e-06	4.5285e-06	579.22	161.36	3.0813e-06	3.3738e-06	241	110.65	69.182	35.999	4.1088e-06	58.106	0.00045372	0.0001756	5.0936e-05	455.26	2.0413e-06	1.6828e-06	585.22	163.72	1.9906e-06	1.9716e-06	245.32	113.09	70.68	37.178	2.4426e-06	59.603	228.239	166.445	178.414	103.153	257.498	243.006	102.270	108.771	265.468	233.458	106.511	111.693	113.372	117.293	263.063	114.624	-8191	255	
1440.589	1	1	0	0	0.18396	0.11337	0.097392	0.078366	0.15895	0.31817	0.088776	0.20345	0.20771	0.06146	0.15669	0.14741	0.28961	0.13989	0.14246	0.17424	-2.7104	-2.6583	-2.6875	-3.1688	-2.6271	-2.9146	-2.9146	-2.6917	-2.9021	-2.7292	-2.5021	-2.7938	-2.4042	-3.025	-2.8812	-2.8542	367.561	312.015	358.006	448.750	108.192	261.338	115.870	414.398	438.781	169.231	374.297	138.551	259.412	449.683	103.787	385.592	0.00051579	0.00038862	0.00012654	450.03	4.0028e-06	4.2882e-06	577.73	160.92	2.8461e-06	3.8643e-06	241.18	110.11	69.279	36.029	3.8242e-06	58.153	0.00045016	0.00019429	5.0913e-05	454.85	1.9016e-06	1.6714e-06	583.59	163.63	1.8557e-06	2.0531e-06	245.07	112.44	70.55	37.065	2.2676e-06	59.563	227.439	180.289	185.382	102.726	246.629	238.086	102.426	108.715	254.446	240.641	106.414	111.713	113.169	117.434	257.309	114.760	-8191	255	
1440.685	1	1	0	0	0.06515	0.18879	0.18114	0.23189	0.059846	0.1812	0.28924	0.17917	0.10366	0.26433	0.31382	0.16858	0.18063	0.17421	0.24783	0.12112	-2.7333	-2.6083	-2.7104	-3.175	-2.8792	-2.9896	-3.0104	-2.7917	-2.9646	-2.6354	-2.45	-3.2	-2.7875	-2.8708	-3.0542	-2.725	304.854	135.175	162.180	108.499	316.016	345.931	96.802	161.682	183.627	409.987	105.214	355.989	407.508	158.353	251.045	441.374	0.00053471	0.00035568	0.00012146	447.46	3.7233e-06	3.6438e-06	579.59	161.05	3.3492e-06	4.2924e-06	241.5	110.09	68.764	35.71	4.0997e-06	57.8	0.00046567	0.00017088	4.9738e-05	454.55	1.9091e-06	1.7822e-06	585.06	163.34	2.0035e-06	1.7045e-06	244.79	112.48	70.157	36.763	2.2278e-06	59.285	226.944	175.354	179.370	103.138	245.280	245.567	102.160	108.736	257.712	236.881	106.388	111.475	113.341	117.264	256.890	114.719	-8191	255	
1440.782	1	1	0	0	0.14434	0.096985	0.13927	0.28458	0.13038	0.075328	0.28315	0.088722	0.23386	0.25212	0.048716	0.26239	0.10041	0.052693	0.17486	0.12921	-2.5792	-2.7354	-2.5938	-2.9979	-2.7917	-2.8958	-3.1208	-2.6417	-2.8458	-2.9875	-2.8708	-3.3083	-2.8854	-2.8917	-2.8688	-2.5396	424.742	402.255	290.745	102.463	274.250	134.905	98.429	276.507	205.919	409.336	118.819	387.268	379.763	348.941	235.442	376.654	0.00052312	0.00031447	0.00010127	450.91	3.8227e-06	3.3659e-06	579.42	160.27	3.0095e-06	3.8888e-06	240.31	110.08	68.272	35.366	4.3389e-06	57.726	0.00045509	0.0001834	5.1765e-05	454.63	1.9412e-06	1.6724e-06	583.93	162.95	1.9495e-06	1.7035e-06	244.4	112.43	69.873	36.421	2.2254e-06	59.054	228.626	179.562	171.713	103.069	254.419	244.319	102.613	108.569	262.160	230.664	106.723	111.507	113.472	117.578	249.195	114.769	-8191	255	
1440.878	1	1	0	0	0.087125	0.34028	0.2206	0.09402	0.22412	0.05146	0.13433	0.11306	0.25276	0.080827	0.11251	0.1205	0.37521	0.046833	0.13204	0.1859	-2.7	-2.9562	-2.5208	-3.0833	-2.45	-2.7542	-3.1583	-2.8646	-2.9521	-3.0667	-2.7021	-3.0583	-2.8063	-2.6833	-3.1104	-2.8438	307.467	104.971	399.890	195.163	448.281	304.658	217.956	120.895	342.102	359.867	366.387	118.780	93.603	430.070	298.563	369.984	0.00054602	0.00036537	0.00011327	445.63	3.9441e-06	3.1385e-06	576.79	160.18	3.5457e-06	4.2398e-06	241.08	109.7	68.351	35.364	5.0733e-06	57.332	0.00047036	0.00017007	5.1189e-05	451.22	1.9233e-06	1.7699e-06	581.48	162.98	2.1369e-06	1.8295e-06	243.86	111.85	69.918	36.489	2.2643e-06	58.719	228.280	165.977	176.517	103.074	248.149	242.022	102.536	108.406	264.333	250.210	106.659	111.800	113.500	117.231	253.240	114.453	-8191	255	
1440.997	1	1	0	0	0.23277	0.032733	0.28785	0.24999	0.11366	0.077478	0.13922	0.12211	0.33693	0.27101	0.17599	0.19554	0.28228	0.2561	0.16267	0.24184	-2.5104	-3.2208	-2.4375	-3.2146	-2.9083	-2.7542	-3.0667	-2.6292	-2.8083	-3.2	-2.625	-2.8854	-2.9896	-2.9667	-3.2938	-2.9292	269.322	261.951	238.913	340.317	330.169	332.094	337.148	199.973	184.293	257.166	419.718	369.190	365.829	442.341	266.701	425.177	0.00053147	0.00033394	0.00010177	445.55	3.337e-06	4.1254e-06	574.91	161.47	3.1006e-06	3.2516e-06	241.92	110.21	68.84	35.658	4.1188e-06	57.82	0.00045589	0.00014885	5.2318e-05	451.56	1.6515e-06	1.7018e-06	579.73	164.08	2.0028e-06	1.6334e-06	245.41	112.12	70.369	36.791	2.0617e-06	59.193	227.051	168.187	179.258	102.992	256.910	247.509	102.533	108.374	248.902	224.275	106.706	111.442	113.233	117.501	256.172	114.617	-8191	255	
1441.093	1	1	0	0	0.13064	0.08757	0.17977	0.047461	0.25551	0.20244	0.1522	0.12041	0.05805	0.11091	0.31633	0.28021	0.050653	0.049168	0.10464	0.095154	-2.5917	-3.075	-2.5542	-3.0479	-2.9813	-2.4375	-3.2083	-2.5167	-2.6396	-2.975	-2.5187	-2.9146	-2.9146	-2.675	-3.0312	-2.9146	223.425	222.059	326.934	381.613	283.156	274.642	382.295	393.402	101.209	230.728	391.862	439.131	306.716	187.224	144.188	330.643	0.00054217	0.00046208	0.00011295	447.78	3.9168e-06	4.0637e-06	575.14	161.6	3.3649e-06	3.704e-06	242.76	110.08	68.939	35.753	4.3476e-06	57.938	0.00046035	0.00015982	4.7688e-05	451.08	1.7777e-06	1.9082e-06	581.69	164.82	2.2133e-06	1.5822e-06	246.53	112.42	70.469	36.909	2.1663e-06	59.471	227.504	172.465	178.224	103.051	258.695	243.315	102.648	108.220	257.479	235.470	106.774	111.561	113.411	117.570	248.859	114.555	-8191	255	
1441.189	1	1	0	0	0.41664	0.049448	0.20816	0.05953	0.17119	0.068407	0.078938	0.25425	0.092257	0.11225	0.16433	0.23431	0.14698	0.12587	0.22928	0.17858	-2.1271	-2.9	-2.6417	-3.0625	-3.0333	-2.6312	-2.75	-2.7354	-2.7208	-3.1333	-2.8021	-2.9396	-3.1042	-2.5542	-3.05	-2.7458	173.705	292.887	397.237	207.527	340.345	232.279	403.591	441.798	163.822	163.536	328.509	389.827	385.385	400.985	444.886	340.505	0.00054403	0.00047361	0.0001171	446.66	3.7191e-06	3.7721e-06	578.48	163.33	3.7028e-06	3.7282e-06	244.01	110.46	69.075	36.191	4.6175e-06	58.413	0.00046433	0.00018503	5.4737e-05	452.58	1.7994e-06	2.0323e-06	584.33	166.08	2.0915e-06	1.6978e-06	248.26	113.06	70.762	37.275	2.2838e-06	59.973	226.905	181.280	180.763	102.992	259.397	243.631	102.500	108.499	259.125	240.864	106.514	111.599	113.661	117.348	255.869	114.650	-8191	255	
1441.285	1	1	0	0	0.23008	0.035848	0.1157	0.1912	0.15155	0.05755	0.29293	0.047886	0.24217	0.098602	0.13774	0.23305	0.14969	0.13267	0.070502	0.04102	-2.2417	-2.8979	-2.775	-2.9354	-3.1042	-2.5563	-3.0312	-3	-2.65	-3.1292	-2.6375	-2.9521	-3.0125	-2.6167	-2.9417	-2.9542	267.056	96.091	92.714	375.346	436.867	441.367	416.843	280.477	300.213	270.933	399.829	373.236	399.335	299.322	446.764	348.949	0.00054094	0.00037019	0.00013053	448.43	3.8295e-06	3.9897e-06	578.08	163.29	3.1028e-06	4.1293e-06	244.12	110.41	69.819	36.557	4.2222e-06	58.607	0.00047024	0.00016804	5.3701e-05	453.45	1.9091e-06	1.9347e-06	582.86	166.86	2.0922e-06	1.802e-06	247.6	112.87	71.291	37.618	2.3275e-06	60.136	228.142	172.625	182.375	103.274	254.144	246.719	102.509	108.444	258.465	235.961	106.579	111.499	113.335	117.284	251.292	114.746	-8191	255	
1441.381	1	1	0	0	0.13316	0.046063	0.18488	0.12696	0.18496	0.21981	0.053019	0.35686	0.16114	0.08978	0.18279	0.13426	0.11134	0.19871	0.37958	0.034042	-2.075	-3.0042	-2.7875	-3	-3.1542	-2.6167	-2.9813	-3.0458	-2.5042	-3.0312	-2.6333	-2.7229	-2.95	-2.7458	-2.9375	-3.0875	279.534	218.701	370.420	347.067	402.176	183.549	98.506	301.355	181.319	364.364	212.916	97.683	393.682	414.982	116.970	384.069	0.00053649	0.00033392	0.00011577	447.75	3.587e-06	3.7329e-06	576.53	165.66	3.279e-06	3.8245e-06	246.1	112.38	70.328	37.254	4.3113e-06	59.738	0.00047645	0.00017722	4.9208e-05	453.1	1.8934e-06	1.8987e-06	582.74	168.68	2.2458e-06	1.8058e-06	249.91	114.62	72.102	38.333	2.3e-06	61.148	226.004	170.007	190.188	103.237	257.384	238.746	102.818	108.427	264.378	237.469	106.907	111.699	113.353	117.415	260.974	114.803	-8191	255	
1441.477	1	1	0	0	0.20329	0.015167	0.050849	0.22219	0.13704	0.14602	0.040189	0.04234	0.16718	0.098875	0.15677	0.17346	0.24593	0.13753	0.022073	0.2685	-2.1479	-3.0604	-2.725	-2.4771	-3.1979	-2.7271	-2.9062	-3.1333	-2.7667	-3.0271	-2.8604	-2.6583	-3.0375	-2.6813	-2.7542	-3.1	335.436	424.491	440.787	117.068	340.652	329.669	358.553	370.145	108.660	193.365	197.059	372.065	383.209	349.589	340.645	444.813	0.000556	0.00040456	0.00012254	448.52	4.3641e-06	4.2309e-06	580.49	166.41	2.9548e-06	4.3704e-06	246.86	112.46	71.434	37.463	4.9133e-06	60.125	0.00048082	0.00017551	4.7642e-05	454.42	1.8292e-06	1.8277e-06	586.75	169.63	2.0785e-06	1.7433e-06	251.9	114.92	72.659	38.594	2.5034e-06	61.58	227.652	176.647	176.153	103.136	254.842	245.118	102.449	108.553	255.526	243.592	106.823	111.796	113.469	117.489	250.339	114.491	-8191	255	
1441.573	1	1	0	0	0.16613	0.13845	0.086343	0.20754	0.14271	0.09305	0.099189	0.07109	0.11548	0.030439	0.19494	0.26956	0.19762	0.13587	0.18964	0.33408	-1.9917	-2.7917	-2.9188	-2.3521	-2.9562	-2.7438	-2.9458	-3.3104	-2.5646	-2.8271	-2.9208	-2.7	-3.2583	-2.9229	-2.7875	-3.3208	448.144	436.775	251.505	227.939	349.405	360.655	329.001	291.663	173.067	323.579	443.942	291.305	223.590	396.694	343.080	371.171	0.00054854	0.00035682	0.00013433	450.19	4.2078e-06	4.6003e-06	583.58	168.2	3.044e-06	3.8079e-06	248.46	112.91	71.014	37.639	4.0609e-06	60.048	0.00047143	0.00017454	5.5129e-05	456.74	1.8203e-06	2.0001e-06	589.31	170.56	2.1578e-06	1.8911e-06	252.53	115.38	72.666	38.735	2.4483e-06	61.527	227.852	186.776	180.604	103.270	255.262	242.558	102.915	108.514	265.268	241.850	106.747	111.626	113.280	117.096	245.574	114.402	-8191	255	
1441.694	1	1	0	0	0.21559	0.28016	0.15388	0.025755	0.073481	0.27776	0.23155	0.16448	0.22327	0.078377	0.27617	0.099921	0.12643	0.053004	0.32911	0.29373	-2.1	-2.8542	-2.8917	-2.4062	-3.0229	-2.8312	-2.8125	-3.1375	-2.6396	-2.8125	-2.9813	-2.5604	-3.1146	-2.9896	-2.9604	-3.3438	241.425	316.735	207.025	97.653	147.647	414.608	179.000	429.371	272.491	220.712	300.054	417.928	361.921	440.628	132.200	280.828	0.00054026	0.00035671	0.00010801	451.68	4.2962e-06	4.7091e-06	583.49	169	3.6414e-06	3.5113e-06	249.02	112.56	71.401	37.676	3.8998e-06	59.639	0.00046882	0.00016291	4.6582e-05	456.48	1.8568e-06	1.9139e-06	588.91	171.29	2.2479e-06	1.8589e-06	252.9	115.23	72.901	38.737	2.3324e-06	61.25	227.562	181.581	189.349	102.952	251.775	235.118	102.940	108.394	259.190	234.468	106.794	111.434	113.340	117.353	247.373	114.458	-8191	255	
1441.790	1	1	0	0	0.24295	0.24744	0.31103	0.22507	0.20819	0.23813	0.22363	0.33988	0.063096	0.17	0.17893	0.23567	0.18345	0.44384	0.2118	0.19979	-2.2021	-2.7229	-2.8417	-2.3958	-2.8937	-2.8333	-2.5958	-3.0833	-2.7417	-2.85	-3.3729	-2.5938	-2.8604	-3.1104	-2.6188	-3.1896	406.837	297.563	226.912	361.854	256.981	351.118	414.449	443.373	425.389	191.518	365.639	353.259	135.231	430.413	115.657	398.371	0.00054518	0.00042686	0.00010642	451.73	3.6125e-06	4.5941e-06	584.3	168.72	3.7785e-06	4.2935e-06	249.64	113.18	71.827	37.843	4.779e-06	60.448	0.0004763	0.00020811	4.7227e-05	456.85	1.9173e-06	2.0626e-06	590.17	171.83	2.2314e-06	1.8286e-06	253.71	115.83	73.301	38.998	2.6306e-06	61.775	228.358	173.897	179.610	103.211	254.108	243.882	102.697	108.427	262.196	234.254	106.593	111.633	113.426	117.131	263.067	114.746	-8191	255	
1441.862	1	1	0	0	0.031584	0.044301	0.15205	0.10359	0.32528	0.093141	0.24699	0.011101	0.32285	0.12496	0.16411	0.06807	0.23424	0.15337	0.095241	0.1671	-2.4396	-2.65	-3.0708	-2.725	-2.9688	-3.0021	-2.7896	-3.0854	-2.8958	-2.8	-3.1125	-2.7958	-2.9125	-3.1229	-2.6437	-3.2062	346.495	117.762	149.695	131.521	225.306	242.234	114.333	102.760	189.487	304.458	375.218	356.225	425.879	424.028	122.943	346.189	0.0005517	0.00037471	0.00013745	454.08	3.6645e-06	4.0229e-06	587.55	169.58	3.4505e-06	4.319e-06	250.3	114.65	72.324	38.115	4.4623e-06	60.839	0.00047951	0.00020738	4.8056e-05	459.13	1.8755e-06	1.9754e-06	593.56	172.85	2.3208e-06	1.9546e-06	255.54	116.96	73.94	39.371	2.4458e-06	62.353	226.589	172.902	178.825	103.151	242.138	243.965	102.650	108.494	255.994	239.635	106.583	111.656	113.413	117.183	255.375	114.779	-8191	255	
1441.958	1	1	0	0	0.11476	0.22865	0.11835	0.072273	0.20042	0.1914	0.22684	0.091648	0.10352	0.13291	0.21696	0.25475	0.25073	0.093995	0.12835	0.19979	-2.6167	-2.9271	-3.2146	-2.7188	-2.8063	-3.1875	-2.7687	-3.2792	-2.8354	-2.7708	-3.0542	-2.6896	-2.6813	-3.0208	-2.5417	-3.2604	444.117	393.525	338.841	111.131	321.840	274.018	357.505	339.579	137.580	165.384	403.818	116.653	413.862	262.050	162.821	382.300	0.00056546	0.00038595	0.00012861	456.89	3.3451e-06	3.4771e-06	590.22	170.75	3.8624e-06	4.7867e-06	253.73	114.5	72.255	37.998	4.8565e-06	60.23	0.00048774	0.00018698	5.0982e-05	462.26	1.9352e-06	1.7605e-06	596.54	173.98	2.2184e-06	2.2341e-06	256.8	117.16	73.79	39.131	2.6177e-06	61.868	226.286	178.409	183.291	102.902	256.995	251.615	102.562	108.603	256.457	245.898	106.535	111.652	113.332	117.245	255.245	114.900	-8191	255	
#DATA ENDS
