BOXY.EXE: ISS Imagent and Oximeter Data Acquisition Program Version 0.80
Ascii Record File

#ACQ INFORMATION
2  Detector Channels 
16  External MUX Channels 
1  Auxiliary Channels 
5000  Waveform (CCF) Frequency (Hz)
1  Waveforms Skipped 
30  Waveforms Averaged 
1  Cycles Averaged 
16  Acquisitions per Waveform 
10.0806  Updata Rate (Hz) 

#FILE INFORMATION
TRUE -- External MUX Channel results are PARSED.
FALSE -- AC DC and Phase are NOT grouped.
TRUE -- Companion Program Settings File CREATED.
FALSE -- AC data not excluded
FALSE -- DC data not excluded
FALSE -- Phase data not excluded
FALSE -- Auxillary Chn. data not excluded
Tab delimiters

#CALIBRATION STATE
TRUE -- Waveform Calibration Values APPLIED.


#AUX CALIBRATION VALUES
Val Type	aux-1	

Term	1.0000e+00	
Factor	0.0000e+00	


#WF CALIBRATION VALUES
A = Detector Channel
Val Type	A-AC1	A-AC2	A-AC3	A-AC4	A-AC5	A-AC6	A-AC7	A-AC8	A-AC9	A-AC10	A-AC11	A-AC12	A-AC13	A-AC14	A-AC15	A-AC16	A-DC1	A-DC2	A-DC3	A-DC4	A-DC5	A-DC6	A-DC7	A-DC8	A-DC9	A-DC10	A-DC11	A-DC12	A-DC13	A-DC14	A-DC15	A-DC16	A-Ph1	A-Ph2	A-Ph3	A-Ph4	A-Ph5	A-Ph6	A-Ph7	A-Ph8	A-Ph9	A-Ph10	A-Ph11	A-Ph12	A-Ph13	A-Ph14	A-Ph15	A-Ph16	

Term	0.00000e+00	0.00000e+00	0.00000e+00	0.00000e+00	0.00000e+00	0.00000e+00	0.00000e+00	0.00000e+00	0.00000e+00	0.00000e+00	0.00000e+00	0.00000e+00	0.00000e+00	0.00000e+00	0.00000e+00	0.00000e+00	0.00000e+00	0.00000e+00	0.00000e+00	0.00000e+00	0.00000e+00	0.00000e+00	0.00000e+00	0.00000e+00	0.00000e+00	0.00000e+00	0.00000e+00	0.00000e+00	0.00000e+00	0.00000e+00	0.00000e+00	0.00000e+00	0.00000e+00	0.00000e+00	0.00000e+00	0.00000e+00	0.00000e+00	0.00000e+00	0.00000e+00	0.00000e+00	0.00000e+00	0.00000e+00	0.00000e+00	0.00000e+00	0.00000e+00	0.00000e+00	0.00000e+00	0.00000e+00	
Factor	1.00000e+00	1.00000e+00	1.00000e+00	1.00000e+00	1.00000e+00	1.00000e+00	1.00000e+00	1.00000e+00	1.00000e+00	1.00000e+00	1.00000e+00	1.00000e+00	1.00000e+00	1.00000e+00	1.00000e+00	1.00000e+00	1.00000e+00	1.00000e+00	1.00000e+00	1.00000e+00	1.00000e+00	1.00000e+00	1.00000e+00	1.00000e+00	1.00000e+00	1.00000e+00	1.00000e+00	1.00000e+00	1.00000e+00	1.00000e+00	1.00000e+00	1.00000e+00	X	X	X	X	X	X	X	X	X	X	X	X	X	X	X	X	

B = Detector Channel
Val Type	B-AC1	B-AC2	B-AC3	B-AC4	B-AC5	B-AC6	B-AC7	B-AC8	B-AC9	B-AC10	B-AC11	B-AC12	B-AC13	B-AC14	B-AC15	B-AC16	B-DC1	B-DC2	B-DC3	B-DC4	B-DC5	B-DC6	B-DC7	B-DC8	B-DC9	B-DC10	B-DC11	B-DC12	B-DC13	B-DC14	B-DC15	B-DC16	B-Ph1	B-Ph2	B-Ph3	B-Ph4	B-Ph5	B-Ph6	B-Ph7	B-Ph8	B-Ph9	B-Ph10	B-Ph11	B-Ph12	B-Ph13	B-Ph14	B-Ph15	B-Ph16	

Term	0.00000e+00	0.00000e+00	0.00000e+00	0.00000e+00	0.00000e+00	0.00000e+00	0.00000e+00	0.00000e+00	0.00000e+00	0.00000e+00	0.00000e+00	0.00000e+00	0.00000e+00	0.00000e+00	0.00000e+00	0.00000e+00	0.00000e+00	0.00000e+00	0.00000e+00	0.00000e+00	0.00000e+00	0.00000e+00	0.00000e+00	0.00000e+00	0.00000e+00	0.00000e+00	0.00000e+00	0.00000e+00	0.00000e+00	0.00000e+00	0.00000e+00	0.00000e+00	-8.92709e+01	-1.28825e+02	-1.24038e+02	-1.83962e+02	-5.99715e+01	-6.47401e+01	-1.57159e+02	-1.62015e+02	-5.48480e+01	-7.10995e+01	-1.70729e+02	-1.70839e+02	-1.80289e+02	-1.77652e+02	-5.59847e+01	-1.50740e+02	
Factor	1.90359e-05	1.64344e-04	4.45320e-05	1.64583e-01	1.33975e-06	1.74344e-06	1.90588e-01	5.69177e-02	1.10681e-06	1.67741e-06	9.57273e-02	3.69650e-02	2.87415e-02	1.05468e-02	1.51595e-06	1.54879e-02	3.70208e-06	4.20420e-06	1.17489e-06	8.23578e-02	4.54401e-08	4.62410e-08	8.95767e-02	2.86398e-02	4.53497e-08	4.63083e-08	4.63350e-02	1.80061e-02	1.45506e-02	5.30554e-03	4.58462e-08	7.52433e-03	X	X	X	X	X	X	X	X	X	X	X	X	X	X	X	X	



#DISTANCE SETTINGS
A = Detector Channel
A-1	A-2	A-3	A-4	A-5	A-6	A-7	A-8	A-9	A-10	A-11	A-12	A-13	A-14	A-15	A-16	

2.5000e+00	3.0000e+00	2.5000e+00	3.0000e+00	2.0000e+00	3.0000e+00	1.5000e+00	3.0000e+00	3.0000e+00	3.0000e+00	3.0000e+00	3.0000e+00	3.0000e+00	3.0000e+00	1.5000e+00	3.0000e+00	

B = Detector Channel
B-1	B-2	B-3	B-4	B-5	B-6	B-7	B-8	B-9	B-10	B-11	B-12	B-13	B-14	B-15	B-16	

1.0000e+01	1.0000e+01	1.0000e+01	1.4400e+00	1.0000e+01	1.0000e+01	1.5100e+00	1.9400e+00	1.0000e+01	1.0000e+01	1.9900e+00	2.4900e+00	2.4100e+00	2.9000e+00	1.0000e+01	2.9800e+00	




#DATA BEGINS
time	group	step	mark	flag	A-AC1	A-AC2	A-AC3	A-AC4	A-AC5	A-AC6	A-AC7	A-AC8	A-AC9	A-AC10	A-AC11	A-AC12	A-AC13	A-AC14	A-AC15	A-AC16	A-DC1	A-DC2	A-DC3	A-DC4	A-DC5	A-DC6	A-DC7	A-DC8	A-DC9	A-DC10	A-DC11	A-DC12	A-DC13	A-DC14	A-DC15	A-DC16	A-Ph1	A-Ph2	A-Ph3	A-Ph4	A-Ph5	A-Ph6	A-Ph7	A-Ph8	A-Ph9	A-Ph10	A-Ph11	A-Ph12	A-Ph13	A-Ph14	A-Ph15	A-Ph16	B-AC1	B-AC2	B-AC3	B-AC4	B-AC5	B-AC6	B-AC7	B-AC8	B-AC9	B-AC10	B-AC11	B-AC12	B-AC13	B-AC14	B-AC15	B-AC16	B-DC1	B-DC2	B-DC3	B-DC4	B-DC5	B-DC6	B-DC7	B-DC8	B-DC9	B-DC10	B-DC11	B-DC12	B-DC13	B-DC14	B-DC15	B-DC16	B-Ph1	B-Ph2	B-Ph3	B-Ph4	B-Ph5	B-Ph6	B-Ph7	B-Ph8	B-Ph9	B-Ph10	B-Ph11	B-Ph12	B-Ph13	B-Ph14	B-Ph15	B-Ph16	aux-1	digaux	

2082.469	1	1	0	768	0.29348	0.26154	0.23874	0.28011	0.15975	0.052795	0.10626	0.19799	0.22	0.17471	0.17342	0.33514	0.19621	0.071068	0.065549	0.23535	-2.3854	-3.2938	-3.3646	-2.8479	-3.4562	-3.3063	-3.1188	-3.6125	-2.6396	-3.1667	-3.4229	-2.7708	-3.4417	-3.0833	-2.9479	-3.6437	31.694	-130.268	161.903	158.089	109.481	132.778	-159.201	-91.257	-128.277	71.048	144.483	120.054	-131.859	-61.259	-43.213	103.904	0.00031361	0.00040511	0.0001758	936.38	2.8574e-06	6.7563e-06	978.26	235.32	5.892e-07	1.0148e-05	271.32	87.067	75.63	32.194	4.4501e-06	43.1	0.00098536	0.0010216	0.00028179	896.45	1.0511e-05	1.0453e-05	936.25	229.59	1.0197e-05	1.0315e-05	263	86.221	75.003	31.845	1.0256e-05	42.385	-116.020	-53.706	13.341	-151.567	58.359	-30.336	-152.199	-144.022	151.735	-35.046	-145.365	-140.389	-138.031	-131.499	-12.998	-135.048	-8191	255	
2082.565	1	1	0	0	0.154	0.12344	0.055654	0.18444	0.31281	0.056	0.12531	0.10327	0.067589	0.042756	0.12558	0.070748	0.10188	0.30936	0.056341	0.15405	-2.6021	-3.1604	-3.4396	-2.8604	-3.4437	-3.2125	-2.8812	-3.5542	-2.9521	-3.0292	-3.4729	-2.5646	-3.2917	-3.2667	-2.7625	-3.6229	-82.419	4.505	-34.340	-107.695	179.635	3.786	138.734	39.647	191.572	38.601	156.370	132.687	-121.617	87.086	183.848	161.810	0.00023431	0.00072804	0.00028177	931.75	2.257e-06	3.4313e-06	981.95	236.95	2.8725e-06	6.5651e-06	269.96	86.764	76.047	32.572	3.1026e-06	42.858	0.00087043	0.00094685	0.00026904	888.85	1.0528e-05	1.0837e-05	936.06	231.04	1.1016e-05	1.1257e-05	265.03	86.818	75.817	32.269	1.1629e-05	42.598	-105.993	-115.842	-88.244	-151.151	-8.712	-30.205	-151.906	-143.698	50.866	16.021	-145.574	-140.369	-138.290	-131.611	-68.030	-135.042	-8191	255	
2082.661	1	1	0	0	0.25287	0.061751	0.15272	0.042693	0.25952	0.23285	0.22268	0.054612	0.22705	0.24322	0.10954	0.19152	0.071547	0.22701	0.016938	0.10195	-2.4958	-2.8792	-3.4437	-2.9813	-3.35	-3.3146	-2.8271	-3.4833	-2.9104	-3.1542	-3.5938	-2.7396	-3.325	-3.2438	-2.7104	-3.6375	79.443	77.535	-35.375	87.527	92.160	73.547	148.152	88.972	144.986	151.535	54.503	82.234	-114.169	144.080	-8.456	-67.164	0.00027682	0.00027358	0.00013764	937.5	5.1111e-06	7.5587e-06	979.1	238.63	2.7499e-06	5.0572e-06	273.33	87.506	76.356	32.671	1.183e-05	43.412	0.00098438	0.0010776	0.00030336	899	1.1775e-05	1.203e-05	941.97	233.67	1.1964e-05	1.2278e-05	268.41	87.749	76.292	32.565	1.1946e-05	43.151	-107.505	-11.562	-66.281	-151.409	81.310	-1.830	-152.076	-143.768	43.036	-2.952	-145.491	-139.984	-137.656	-131.379	6.334	-135.077	-8191	255	
2082.757	1	1	0	0	0.057467	0.2028	0.064895	0.25039	0.16887	0.11241	0.079463	0.049142	0.21036	0.1508	0.049733	0.021861	0.35516	0.28497	0.20468	0.22761	-2.7938	-3.0583	-3.4375	-3.0542	-3.2375	-3.375	-2.8937	-3.4729	-3.0812	-2.9021	-3.5875	-2.8354	-3.3458	-3.4521	-2.6	-3.5667	-117.415	196.398	63.634	129.887	-10.526	143.025	89.515	185.435	55.760	-129.423	-89.472	90.463	126.404	-123.436	144.423	134.345	0.00035537	0.00046495	0.0002555	939.87	7.4042e-06	2.1475e-06	986.01	241.4	6.8637e-06	3.1154e-06	275.47	87.845	77.566	32.94	7.3619e-07	44.051	0.0010089	0.0011071	0.00030818	899.27	1.2155e-05	1.2427e-05	944.2	236.16	1.2285e-05	1.2887e-05	271.71	88.32	77.227	32.965	1.3401e-05	43.806	-123.346	-46.675	-44.246	-151.140	-75.205	-27.465	-151.966	-144.043	36.314	107.230	-145.614	-140.757	-138.140	-131.238	-140.737	-135.291	-8191	255	
2082.854	1	1	0	0	0.18085	0.13415	0.15694	0.25602	0.052458	0.035011	0.033609	0.2055	0.26824	0.25036	0.12179	0.17506	0.18922	0.093957	0.14248	0.20839	-2.625	-2.7729	-3.5167	-2.9479	-3.0229	-3.4521	-2.7729	-3.3688	-3.2875	-2.9083	-3.475	-2.9979	-3.1562	-3.3896	-2.6521	-3.4542	29.568	-26.840	-27.162	154.674	70.227	51.455	-24.027	161.144	40.791	22.320	-29.682	74.303	158.664	139.775	64.900	66.716	0.0002941	0.00061085	8.9424e-05	964.17	1.231e-06	7.8286e-06	1008.7	245.76	1.8797e-06	4.0752e-06	279.38	88.185	77.89	33.214	3.3082e-06	44.193	0.001151	0.0012702	0.00036037	927.52	1.3995e-05	1.3993e-05	973.02	241.12	1.356e-05	1.3847e-05	275.73	88.854	77.741	33.21	1.4097e-05	44.121	-104.195	-100.950	-32.714	-151.296	191.252	41.616	-151.825	-144.088	13.888	11.744	-146.143	-140.138	-137.934	-131.127	10.478	-135.175	-8191	255	
2082.950	1	1	0	0	0.18529	0.073383	0.066102	0.13141	0.24949	0.14547	0.066475	0.23828	0.095523	0.087475	0.21497	0.24514	0.046398	0.34661	0.10531	0.19017	-2.9313	-2.8542	-3.6042	-3.2562	-2.6792	-3.4208	-2.7917	-3.3125	-3.2542	-2.8312	-3.5167	-2.8563	-3.0375	-3.6125	-2.8333	-3.1896	-24.556	-54.155	133.715	-152.785	181.015	138.059	128.182	197.054	-12.235	85.418	128.476	-145.625	94.494	179.547	-8.032	101.810	0.0003207	0.0011141	0.00016214	961.67	6.1149e-06	3.5967e-06	1004.3	244.73	1.5648e-06	9.2329e-07	277.82	87.702	77.217	33.057	4.1843e-06	43.715	0.0012045	0.0013362	0.00037426	928.31	1.4649e-05	1.4507e-05	970.1	240.73	1.415e-05	1.4459e-05	274.15	88.446	77.401	32.98	1.3578e-05	43.424	-113.955	-57.275	-144.672	-151.192	-83.695	-30.373	-151.738	-144.644	30.177	-152.210	-145.885	-140.730	-137.480	-131.186	123.163	-134.736	-8191	255	
2083.070	1	1	0	0	0.25685	0.14712	0.34467	0.35275	0.047131	0.098938	0.26006	0.099307	0.17886	0.19354	0.053874	0.2452	0.19895	0.21805	0.094283	0.16346	-2.9521	-2.8604	-3.2729	-3.0104	-2.8187	-3.5	-2.9021	-3.1708	-3.3667	-2.8271	-3.6	-3.2667	-2.9625	-3.6375	-2.9333	-3.2208	107.470	-110.810	65.304	94.824	-103.600	134.593	131.960	133.702	-64.001	47.282	-129.816	185.285	145.959	119.158	194.242	136.367	0.00031631	0.00063023	0.00017728	958.66	3.4592e-06	3.7622e-06	1014.3	246.17	4.1802e-06	1.2084e-05	279.9	87.01	76.962	32.775	1.2212e-05	43.509	0.001131	0.0012564	0.00034408	924.38	1.3788e-05	1.3859e-05	977.86	241.73	1.4052e-05	1.446e-05	275.59	87.795	77.309	32.785	1.3946e-05	43.297	-123.234	-112.676	20.064	-150.864	-116.695	101.851	-151.998	-144.229	-50.036	-44.046	-145.575	-140.210	-138.179	-131.200	-113.739	-134.646	-8191	255	
2083.165	1	1	0	0	0.21889	0.16267	0.19005	0.25337	0.14564	0.16788	0.053953	0.073993	0.0754	0.099821	0.29852	0.31176	0.19902	0.14932	0.061243	0.048903	-3.0604	-2.8563	-3.35	-3.1771	-2.8229	-3.4688	-2.9562	-3.2083	-3.6312	-2.7812	-3.4896	-3.2646	-2.9	-3.5708	-3.1958	-2.9917	69.449	141.005	97.999	140.396	185.863	178.748	-94.224	31.583	20.540	181.024	-80.827	165.452	76.806	-49.207	135.600	-65.276	0.00032188	0.0003767	3.2306e-05	973.87	5.2826e-06	5.3325e-06	1009.2	244.38	4.0598e-06	1.2654e-06	278.91	86.788	76.769	32.535	1.763e-06	43.262	0.0011578	0.0012733	0.00035538	937.95	1.3802e-05	1.3781e-05	975.76	239.83	1.376e-05	1.3963e-05	273.82	87.526	77.116	32.859	1.3762e-05	43.433	-113.454	-105.123	160.144	-151.147	-48.110	21.544	-152.087	-144.314	9.457	56.241	-146.006	-140.542	-138.520	-131.615	111.024	-135.184	-8191	255	
2083.261	1	1	0	0	0.26204	0.10872	0.31229	0.26615	0.35233	0.15664	0.15165	0.20645	0.13787	0.18196	0.095551	0.0077886	0.2865	0.062378	0.24203	0.14905	-3.1854	-2.6417	-3.3875	-3.3271	-2.7729	-3.5812	-3.0292	-3.1271	-3.7042	-2.7687	-3.5042	-3.5187	-2.7104	-3.475	-3.1396	-2.9771	-18.392	-25.013	72.888	159.529	81.821	-60.284	-147.921	155.884	141.886	-63.791	30.981	-6.558	17.438	-21.798	139.374	154.184	0.00028369	0.00067387	0.00012753	958.12	5.0835e-06	4.2127e-06	997.93	243.14	3.8494e-06	3.6063e-06	277.97	87.951	76.628	32.888	1.818e-06	43.794	0.001157	0.0012814	0.00035042	922.1	1.375e-05	1.3904e-05	961.6	238.58	1.367e-05	1.365e-05	273.13	88.163	77.106	32.88	1.318e-05	43.451	-118.377	-119.856	-71.562	-151.164	-20.554	-88.570	-151.499	-143.951	-103.264	56.022	-145.673	-140.054	-137.749	-131.306	-78.916	-134.926	-8191	255	
2083.357	1	1	0	0	0.05835	0.30935	0.19337	0.16	0.20442	0.13795	0.25355	0.092531	0.15163	0.070634	0.032821	0.085881	0.2211	0.17303	0.12801	0.09173	-3.2687	-2.8646	-3.2208	-3.4813	-2.7875	-3.55	-3.3208	-2.9604	-3.6375	-2.7958	-3.2167	-3.3417	-2.6583	-3.425	-3.1729	-3.0417	155.702	-129.626	-31.759	-104.314	50.927	-25.769	116.889	168.845	176.487	85.425	-29.736	-113.502	-140.484	163.803	-92.445	45.045	0.00031491	0.0006961	8.7948e-05	942.3	4.8196e-06	4.9058e-06	986.32	243.36	3.4525e-06	1.6343e-06	277.77	89.248	77.238	32.774	4.7088e-06	43.641	0.0010707	0.0011614	0.00032436	903.92	1.2838e-05	1.2981e-05	948.7	236.8	1.2864e-05	1.3023e-05	272.62	88.99	77.26	32.976	1.2996e-05	43.593	-113.740	-83.429	-84.870	-151.155	-19.668	-33.750	-151.758	-144.078	-19.564	-19.280	-145.878	-140.097	-138.203	-131.745	-15.485	-135.321	-8191	255	
2083.453	1	1	0	0	0.20379	0.15598	0.17895	0.17638	0.056016	0.22105	0.36619	0.10064	0.10667	0.19658	0.19408	0.062483	0.2349	0.09831	0.094204	0.021204	-3.2104	-2.9188	-2.8896	-3.6042	-2.6583	-3.4667	-3.3208	-3.1	-3.5229	-2.9146	-2.9271	-3.4042	-2.5604	-3.3563	-3.2771	-2.8542	43.240	126.428	154.969	147.898	-115.545	14.895	146.530	121.627	107.889	-25.875	-108.371	67.032	179.253	129.442	-161.684	90.033	0.00034846	0.00058845	0.00025288	950.33	2.5782e-06	1.1136e-06	986.22	242.32	3.1964e-06	3.4992e-06	273.63	87.258	76.056	32.309	1.0569e-05	43.033	0.0011018	0.0011859	0.0003324	912.75	1.2662e-05	1.2581e-05	949.03	235.15	1.2078e-05	1.2177e-05	267.49	87.143	76.075	32.315	1.1809e-05	42.669	-115.882	-99.036	-40.159	-151.572	-58.409	183.209	-152.362	-144.825	-27.759	-113.903	-145.987	-140.622	-137.964	-131.646	-25.260	-135.282	-8191	255	
2083.549	1	1	0	0	0.10426	0.14106	0.14526	0.10761	0.10126	0.13047	0.28866	0.17988	0.15015	0.13892	0.17339	0.46998	0.27865	0.06252	0.11771	0.073129	-3.1771	-3.1417	-2.9729	-3.6604	-2.7292	-3.3208	-3.4271	-2.7833	-3.4542	-3.0583	-2.9083	-3.4562	-2.6771	-3.2792	-3.3208	-2.7687	192.830	146.778	16.937	-98.888	-150.871	-126.239	68.014	-145.419	1.479	-20.749	10.205	133.201	195.328	137.953	134.294	102.709	0.00030806	0.00035838	0.00017604	940.78	1.8149e-06	5.043e-06	980.33	240	4.663e-06	9.559e-06	273.43	87.782	76.577	32.519	2.282e-06	43.332	0.0010169	0.0011016	0.00030987	904.75	1.2189e-05	1.2115e-05	944.45	234.17	1.188e-05	1.2104e-05	268.48	87.581	76.527	32.475	1.1751e-05	42.915	-115.723	-120.139	-86.357	-151.447	-118.566	-11.594	-152.013	-144.365	-33.788	-57.927	-145.706	-140.559	-138.120	-131.618	-11.239	-135.734	-8191	255	
2083.646	1	1	0	0	0.089668	0.070217	0.24919	0.31055	0.094209	0.10981	0.14626	0.12664	0.04336	0.0088345	0.17954	0.11917	0.22544	0.10242	0.12497	0.24902	-3.1625	-3.1375	-2.8396	-3.5917	-2.8146	-3.325	-3.5062	-2.8604	-3.4333	-3.2667	-2.8729	-3.6562	-2.8396	-3.1042	-3.5687	-2.9562	8.191	115.063	-69.370	-156.184	120.193	41.713	184.565	81.062	189.728	-42.134	197.092	188.035	-36.168	-30.391	192.307	70.296	0.00036031	0.00060809	0.00019132	929.89	5.6187e-06	8.3973e-06	968.37	237.33	5.7104e-06	7.1424e-06	270.49	87.538	76.185	32.571	3.9252e-06	43.613	0.00098663	0.0010497	0.00029531	893.34	1.1054e-05	1.1426e-05	930.28	231.79	1.0974e-05	1.1018e-05	265.35	87.224	76.124	32.328	1.0919e-05	43.052	-106.878	-92.330	-56.135	-151.464	-60.270	50.283	-151.771	-143.743	-43.692	-11.066	-146.152	-140.665	-138.192	-131.434	-78.025	-135.398	-8191	255	
2083.766	1	1	0	0	0.28135	0.071042	0.40067	0.20111	0.2716	0.14788	0.35301	0.20377	0.074949	0.24828	0.042829	0.21823	0.27771	0.15941	0.21068	0.18569	-3	-3.2375	-2.8917	-3.4375	-3.0083	-3.0167	-3.5292	-2.725	-3.3	-3.3479	-2.7313	-3.6854	-2.9313	-2.9896	-3.4292	-2.8396	121.284	190.829	-47.005	105.139	38.573	69.804	104.641	126.285	87.082	134.954	142.536	-145.023	140.594	-146.836	-146.093	38.687	0.00036055	0.0006166	0.00015648	931.48	4.7195e-06	5.2887e-07	984.4	238.96	4.3696e-06	7.9937e-07	275.85	88.895	77.1	32.7	8.9781e-06	43.927	0.0009462	0.0010267	0.00028792	896.73	1.1301e-05	1.1585e-05	943.45	233.64	1.1423e-05	1.1485e-05	269.18	88.541	76.687	32.574	1.1263e-05	43.439	-119.937	-93.104	-107.471	-151.419	-64.820	7.159	-152.194	-144.435	-104.867	108.049	-146.023	-140.458	-138.196	-131.572	-68.673	-134.822	-8191	255	
2083.862	1	1	0	0	0.14393	0.064227	0.12459	0.071371	0.10128	0.1055	0.25911	0.21879	0.223	0.16448	0.17817	0.26119	0.086158	0.38182	0.17591	0.17359	-2.8521	-3.3792	-2.7542	-3.6312	-3.0542	-2.8792	-3.6792	-2.7062	-3.2146	-3.4167	-2.8292	-3.4625	-3.0896	-2.9354	-3.4292	-2.7896	47.085	-53.927	134.833	194.070	128.819	38.039	40.793	143.842	-159.307	-24.067	-136.170	24.667	166.163	162.984	157.490	-114.448	0.00027534	0.00071415	0.00025615	934.43	4.7669e-06	7.3075e-06	975.33	239.03	5.9542e-06	6.8915e-06	273.8	88.556	77.163	32.793	1.2802e-06	43.596	0.00095231	0.0010352	0.00028813	893.27	1.1087e-05	1.1246e-05	934.84	232.53	1.1109e-05	1.1181e-05	268.1	88.449	76.571	32.558	1.1278e-05	43.283	-119.444	-80.496	-88.476	-151.351	16.158	-33.194	-151.962	-143.749	-38.758	8.520	-145.698	-140.325	-137.607	-131.401	-36.075	-135.189	-8191	255	
2083.958	1	1	0	0	0.21173	0.17418	0.04915	0.064495	0.14821	0.2547	0.11398	0.045548	0.20094	0.095664	0.052109	0.19978	0.27055	0.14128	0.15878	0.19174	-2.7729	-3.4104	-2.6771	-3.4208	-3.0521	-2.8354	-3.5938	-2.875	-2.9208	-3.3208	-2.6833	-3.4396	-3.1167	-2.7854	-3.6437	-2.8375	-159.347	75.496	-16.300	96.886	-36.101	194.141	124.155	18.851	15.405	-30.216	41.657	-91.963	-112.209	139.080	104.452	175.948	0.00039008	0.00057092	0.0001425	936.02	6.2684e-06	7.8271e-06	982.48	238.98	4.2967e-06	4.7837e-06	273.56	88.187	77.357	32.662	6.2848e-06	43.66	0.00096168	0.0010224	0.00029266	897.57	1.1276e-05	1.1496e-05	942.27	233.04	1.1371e-05	1.1584e-05	267.88	87.744	76.572	32.551	1.1927e-05	43.058	-105.368	51.231	-89.226	-151.105	64.136	16.485	-152.310	-144.035	-38.245	36.457	-146.210	-140.558	-137.412	-131.376	9.895	-134.995	-8191	255	
2084.030	1	1	0	0	0.25544	0.32581	0.13294	0.21207	0.20743	0.13766	0.17726	0.12895	0.078946	0.087887	0.094057	0.14656	0.088037	0.19376	0.35984	0.15927	-2.675	-3.3646	-2.875	-3.4188	-3.2729	-2.6854	-3.6042	-2.9021	-2.9062	-3.4354	-2.7167	-3.25	-3.4688	-2.6979	-3.4667	-2.9875	118.096	135.714	-157.500	129.218	56.702	-152.999	126.006	92.753	-64.217	95.448	-79.746	-97.975	-2.079	191.892	140.424	61.643	0.00027557	0.00059401	0.0002362	943.49	2.5397e-06	4.8358e-06	979.14	239.19	7.0072e-06	3.2834e-06	273.35	88.161	76.754	32.468	6.7931e-06	43.896	0.001004	0.0010876	0.00030373	902.46	1.1743e-05	1.2118e-05	944.17	233.84	1.1945e-05	1.2255e-05	268.91	88.182	76.284	32.468	1.2027e-05	43.283	-116.175	-48.995	-66.339	-151.327	67.360	-62.305	-151.996	-143.953	20.175	78.104	-145.545	-140.415	-137.890	-132.116	-12.885	-135.437	-8191	255	
2084.149	1	1	0	0	0.26303	0.22592	0.023179	0.46516	0.18459	0.14064	0.020759	0.11505	0.097313	0.19907	0.41905	0.13901	0.079742	0.11585	0.025829	0.18835	-2.675	-3.6042	-2.8625	-3.2979	-3.4521	-2.55	-3.5729	-3.175	-2.9583	-3.5625	-2.8792	-3.3625	-3.4479	-2.7542	-3.4458	-3.2	-26.366	-103.304	127.647	153.273	190.264	163.901	162.000	155.630	-83.443	16.569	60.958	-104.132	-69.898	34.995	11.110	162.049	0.00030687	0.0010388	0.00020885	928.03	1.7765e-06	2.446e-06	976.14	238.18	3.3041e-06	6.1511e-06	274.9	88.531	77.291	32.587	5.2667e-06	43.723	0.0010051	0.0010902	0.00029814	891.27	1.1561e-05	1.1759e-05	935.35	233.27	1.1543e-05	1.1754e-05	267.9	88.093	76.415	32.456	1.1683e-05	43.223	-125.299	-24.884	-32.183	-151.388	-20.943	28.278	-152.213	-144.221	-4.296	-0.030	-145.955	-140.725	-138.172	-131.783	-88.438	-135.170	-8191	255	
2084.245	1	1	0	0	0.13137	0.050405	0.24983	0.31506	0.064723	0.29018	0.12831	0.079071	0.3206	0.23204	0.10831	0.20774	0.22621	0.11988	0.06572	0.083928	-2.5	-3.625	-2.9771	-3.0479	-3.4396	-2.7354	-3.3937	-3.3875	-2.6937	-3.3312	-3.0563	-3	-3.4938	-2.7313	-3.2396	-3.2313	32.997	141.555	104.115	175.357	-12.631	-84.169	-1.766	61.948	97.151	165.616	9.250	-154.676	-72.048	98.136	-131.474	-56.123	0.00030135	0.00021507	0.000278	945.94	7.1817e-06	4.117e-06	995.24	240.12	1.8508e-06	1.0184e-06	276.27	88.89	76.529	32.293	1.0312e-05	44.01	0.0010356	0.001096	0.0003041	910.06	1.1995e-05	1.2098e-05	955.35	235.61	1.1903e-05	1.202e-05	270.18	88.292	76.393	32.378	1.1766e-05	43.42	-117.332	174.464	-90.425	-151.744	-45.241	-38.773	-152.247	-144.009	87.670	35.894	-146.093	-140.647	-137.831	-131.627	24.271	-134.648	-8191	255	
2084.341	1	1	0	0	0.071392	0.12485	0.1594	0.098612	0.051032	0.3349	0.14108	0.16886	0.030843	0.014531	0.32274	0.080044	0.1632	0.19386	0.21072	0.058601	-2.5583	-3.4979	-2.8563	-2.9792	-3.5604	-2.6417	-3.2271	-3.4333	-2.825	-3.4625	-3.0208	-2.9104	-3.4437	-2.7417	-3.1125	-3.2375	128.054	-147.312	62.422	-92.800	-84.043	109.999	-56.714	78.859	-39.032	116.720	85.706	87.334	187.991	-133.834	-100.046	71.716	0.00028186	0.00070582	0.00011183	941.36	4.6302e-06	6.2194e-06	981.91	240.27	8.9025e-07	7.853e-06	273.6	88.439	76.25	32.524	1.4369e-06	43.669	0.00099827	0.0010807	0.00030088	904.28	1.1851e-05	1.2018e-05	942.54	233.49	1.18e-05	1.2081e-05	268.05	88.136	76.551	32.551	1.2492e-05	43.3	-124.663	-102.788	-124.726	-151.668	63.380	-122.230	-151.992	-144.060	33.184	-42.101	-145.615	-140.552	-138.003	-131.645	-18.438	-134.861	-8191	255	
2084.462	1	1	0	0	0.1043	0.17618	0.15968	0.24643	0.14961	0.036188	0.1068	0.1428	0.1603	0.094585	0.20626	0.13788	0.22427	0.2066	0.081366	0.083667	-2.4354	-3.3937	-2.9896	-2.9667	-3.5292	-2.8396	-3.1937	-3.375	-2.7625	-3.4979	-3.2458	-2.8937	-3.4917	-3.0604	-2.9896	-3.5125	124.773	66.950	-156.537	179.021	106.823	43.289	179.648	74.832	-43.190	-37.030	174.042	-107.890	-158.885	144.030	-147.036	95.054	0.00038288	0.00015789	6.1131e-05	939.67	4.5639e-06	1.627e-06	985.13	241.92	1.0593e-06	4.8138e-06	273.72	88.162	76.877	32.894	3.4689e-06	43.835	0.0010631	0.001164	0.00032521	903.81	1.2611e-05	1.2871e-05	945.35	235.77	1.2809e-05	1.2826e-05	269.01	88.251	76.745	32.644	1.2493e-05	43.334	-122.049	-76.140	153.695	-151.021	-80.269	-87.646	-152.176	-144.154	-0.185	-1.601	-145.647	-140.250	-137.407	-131.186	-135.679	-135.023	-8191	255	
2084.558	1	1	0	0	0.034142	0.17942	0.21251	0.27227	0.077334	0.077155	0.10672	0.34522	0.26079	0.17239	0.21193	0.11678	0.28629	0.068703	0.12884	0.033695	-2.3083	-3.4021	-3.2583	-2.9104	-3.5479	-2.9958	-3.1167	-3.5083	-2.7167	-3.1667	-3.4	-2.925	-3.6146	-2.9833	-3.0042	-3.5021	4.437	50.983	-12.206	182.790	104.881	81.098	166.969	98.956	79.719	-4.190	-64.635	182.183	182.513	-157.919	130.824	67.762	0.00032668	0.00046545	0.00031093	935.09	2.9617e-06	3.8424e-06	976.61	242.44	4.4044e-06	5.1631e-06	277.82	88.768	77.383	33.066	2.2755e-06	44.002	0.0010407	0.0011181	0.00031365	897.69	1.224e-05	1.2399e-05	943.41	235.48	1.2472e-05	1.2787e-05	271.6	88.767	77.298	32.977	1.2915e-05	43.685	-113.555	-69.605	-100.509	-151.374	-71.683	40.917	-152.187	-144.035	19.315	-96.850	-146.220	-140.411	-138.293	-131.611	53.972	-134.752	-8191	255	
2084.630	1	1	0	0	0.21785	0.17346	0.11854	0.18051	0.15825	0.094928	0.34211	0.10769	0.19523	0.13975	0.24497	0.12964	0.24508	0.12215	0.35165	0.16682	-2.3792	-3.3292	-3.3875	-2.925	-3.5812	-3.1042	-2.8604	-3.525	-2.9688	-3.275	-3.2417	-2.8583	-3.5312	-3.1021	-3.0187	-3.65	8.917	172.347	168.813	109.592	176.730	-9.034	138.044	167.160	-54.156	-14.244	101.886	-16.579	48.786	128.385	32.151	-134.386	0.00030189	0.00047841	0.00013037	948.24	5.498e-06	7.2752e-06	993.49	244.21	4.1505e-06	3.2522e-06	279.02	89.264	77.42	32.993	8.7137e-06	44.337	0.0010959	0.0011826	0.00032959	911.81	1.2953e-05	1.3082e-05	958.76	238.12	1.3034e-05	1.3349e-05	273.62	89.27	77.674	33.012	1.3332e-05	44.014	-111.177	-106.853	-116.530	-151.583	6.458	28.280	-152.219	-144.195	42.588	-125.820	-146.161	-140.602	-138.073	-131.612	4.077	-134.863	-8191	255	
2084.750	1	1	0	0	0.085441	0.042361	0.074525	0.31275	0.32059	0.10436	0.13877	0.02506	0.084507	0.24176	0.077955	0.30186	0.09897	0.24835	0.23598	0.143	-2.5417	-3.0542	-3.2792	-2.9188	-3.3021	-3.0333	-3	-3.5083	-2.8604	-3.2333	-3.3438	-2.5812	-3.6375	-3.1917	-2.9771	-3.8125	-82.547	-57.060	-94.173	157.048	-94.284	-5.105	50.040	4.886	115.429	-32.093	91.342	183.299	85.969	-129.335	-15.525	174.007	0.00028796	0.00052369	0.00017365	954.73	4.6583e-06	4.866e-06	999.78	242.36	3.038e-06	7.9195e-06	278.89	88.884	76.934	33.049	8.0851e-06	44.22	0.0010818	0.0011855	0.00032633	916.57	1.251e-05	1.261e-05	960.93	237.52	1.2241e-05	1.2472e-05	272.63	88.749	77.038	32.872	1.2312e-05	43.81	-128.631	-10.688	71.941	-151.401	-28.605	82.638	-152.260	-144.329	-47.048	-3.648	-145.643	-140.773	-138.162	-131.965	-13.531	-135.025	-8191	255	
2084.847	1	1	0	0	0.0936	0.24801	0.23357	0.097874	0.14596	0.064692	0.1548	0.15203	0.1196	0.032322	0.29067	0.2613	0.1007	0.17186	0.11442	0.15328	-2.7	-2.8937	-3.5479	-2.9938	-3.1917	-3.275	-3.0354	-3.4375	-3.1146	-3.0604	-3.5271	-2.8542	-3.4396	-3.3375	-2.8604	-3.5667	103.956	192.783	25.568	77.266	155.467	-62.344	149.432	144.196	-127.015	63.357	89.066	119.919	132.451	119.626	179.069	-82.036	0.00026284	0.00039418	0.00021275	956.49	6.8608e-06	6.7468e-06	1008.5	245.75	2.4356e-06	9.4514e-06	278.28	88.376	76.916	32.935	3.3741e-06	43.827	0.001045	0.0011462	0.00032252	919.33	1.283e-05	1.2884e-05	970.32	239.48	1.2736e-05	1.3127e-05	273.14	88.372	76.962	32.768	1.2477e-05	43.309	-115.967	96.358	-31.127	-151.601	-27.735	-36.012	-152.253	-144.321	-20.517	71.555	-146.106	-140.769	-138.063	-131.504	14.929	-135.014	-8191	255	
2084.943	1	1	0	0	0.17551	0.1312	0.23782	0.12001	0.20046	0.2279	0.17729	0.21314	0.071975	0.16483	0.10808	0.30181	0.042035	0.17687	0.095115	0.19192	-2.6625	-2.9875	-3.4229	-2.8396	-3.2771	-3.3854	-2.9104	-3.5583	-2.9479	-2.9271	-3.6146	-2.7792	-3.1667	-3.4646	-2.8167	-3.3875	36.434	-50.601	143.450	-100.993	109.597	139.738	139.343	-111.626	28.494	119.920	179.075	173.695	-76.300	-136.321	-99.382	-51.737	0.00028371	0.00058862	1.95e-05	963.58	2.3455e-06	4.0195e-06	1013.8	244.51	1.6331e-06	7.0283e-06	276.86	87.156	76.297	32.465	1.4912e-06	43.253	0.0010325	0.0011148	0.00030702	927.84	1.1881e-05	1.1784e-05	974.9	238.61	1.2014e-05	1.2274e-05	272.12	87.147	76.031	32.248	1.1673e-05	42.657	-104.201	-158.515	70.786	-151.526	-105.422	-34.205	-152.284	-144.736	35.173	-30.186	-145.909	-140.535	-138.210	-131.753	90.450	-135.090	-8191	255	
2085.063	1	1	0	0	0.23314	0.20596	0.13164	0.19506	0.1016	0.18764	0.25643	0.11336	0.22517	0.061917	0.16789	0.027857	0.04239	0.096205	0.28227	0.20116	-2.8229	-2.8708	-3.5042	-2.9521	-3.1479	-3.6292	-2.9417	-3.6146	-3.2083	-2.8146	-3.6458	-2.8812	-3.0583	-3.425	-2.6958	-3.3458	-35.439	66.752	154.807	-105.479	184.042	15.308	163.776	-72.586	26.149	-18.834	131.612	151.358	-28.841	117.717	4.686	42.784	0.00032678	0.00054172	0.00019046	981.46	7.8215e-07	7.1535e-06	1019.2	243.69	2.5636e-06	3.8487e-06	278.24	86.987	75.549	32.021	7.0217e-06	43.149	0.00098161	0.0010837	0.00029969	937.59	1.1823e-05	1.1912e-05	979.83	237.49	1.1504e-05	1.2016e-05	271.64	86.753	75.703	32.018	1.2056e-05	42.752	-101.985	-115.191	21.699	-152.097	26.936	5.041	-152.757	-144.690	-78.219	91.765	-146.197	-140.857	-138.744	-131.754	-1.594	-135.727	-8191	255	
2085.158	1	1	0	0	0.23023	0.22431	0.043987	0.17015	0.21037	0.058828	0.22651	0.20581	0.11424	0.20136	0.19489	0.31652	0.14655	0.038375	0.15348	0.14045	-2.9417	-2.6854	-3.4833	-3.0438	-3.1167	-3.6542	-2.8604	-3.4062	-3.3542	-2.775	-3.6146	-3.0938	-2.7917	-3.5521	-2.5625	-3.4104	-42.340	150.141	79.027	164.166	96.430	117.303	114.793	36.117	-58.713	57.055	175.803	-94.635	-97.349	-58.173	-54.013	33.758	0.00022908	3.9621e-05	0.00015118	959.64	1.9658e-06	3.4681e-06	1011.6	244.92	5.6338e-06	3.8248e-06	280.69	88.514	77.259	32.852	8.4747e-06	44.494	0.0010263	0.0011523	0.00031744	924.68	1.2609e-05	1.2946e-05	972.99	239.38	1.3295e-05	1.355e-05	275.93	89.087	77.538	32.878	1.3958e-05	44.26	-129.958	115.011	-123.419	-151.583	-71.150	-34.452	-152.520	-144.583	-48.181	1.269	-146.176	-140.994	-138.090	-131.684	15.165	-135.367	-8191	255	
2085.254	1	1	0	0	0.16175	0.12725	0.048132	0.50146	0.13714	0.094192	0.099961	0.22063	0.089881	0.14242	0.25111	0.25757	0.12185	0.078476	0.18232	0.098438	-2.8563	-2.9188	-3.3771	-3.0854	-2.8125	-3.5854	-3.0208	-3.1375	-3.3812	-2.6917	-3.6875	-3.1229	-2.9646	-3.6646	-2.7958	-3.0896	40.229	-4.889	-40.808	-125.481	-156.713	100.145	-158.461	50.696	137.689	96.263	-123.493	186.026	-122.637	28.528	74.988	-4.762	0.00031784	0.00043035	0.00031193	953.25	4.0866e-06	4.2376e-06	997.62	243.8	7.2654e-06	9.2345e-06	280.18	88.922	77.546	32.871	5.491e-06	43.985	0.0011694	0.0012687	0.00035388	916.13	1.3525e-05	1.3632e-05	960.13	239.03	1.3204e-05	1.3513e-05	274.61	89.28	77.725	33.053	1.3594e-05	43.94	-118.117	-48.508	-67.569	-151.807	-33.149	-55.622	-151.934	-144.241	-6.301	-34.276	-145.773	-140.305	-138.374	-132.115	48.334	-135.469	-8191	255	
2085.326	1	1	0	0	0.18323	0.20461	0.14743	0.15912	0.092539	0.13345	0.1995	0.17379	0.16241	0.19864	0.19908	0.1098	0.16595	0.13463	0.082095	0.24498	-3.0042	-2.8625	-3.1958	-3.2687	-2.85	-3.5583	-2.9896	-2.9	-3.3396	-2.8167	-3.3417	-3.1646	-2.8917	-3.5687	-3.1063	-3.0021	-62.285	44.278	95.864	169.419	85.892	65.811	172.696	43.098	-101.120	-66.936	193.794	-140.471	-117.721	93.565	-39.385	160.085	0.0002841	0.00028903	0.00016408	961.97	1.2211e-06	7.6984e-06	1004.8	244.73	8.103e-06	1.3159e-05	281.06	88.908	76.824	32.627	3.2704e-06	43.875	0.0011495	0.0012636	0.00035384	926.35	1.3947e-05	1.4224e-05	969.32	240.71	1.4029e-05	1.4116e-05	274.99	89.049	77.223	32.756	1.3489e-05	43.607	-110.593	94.601	-110.649	-151.315	-42.121	-63.405	-152.478	-144.747	-61.823	-13.488	-146.174	-140.394	-138.247	-131.406	39.534	-135.199	-8191	255	
2085.446	1	1	0	0	0.1451	0.091805	0.26024	0.21362	0.32156	0.088559	0.22694	0.17691	0.11923	0.083298	0.075821	0.036646	0.088551	0.20867	0.18439	0.22513	-2.9167	-2.6	-3.1854	-3.3583	-2.7583	-3.3229	-3.1	-2.8354	-3.6562	-2.7333	-3.4146	-3.3271	-2.7417	-3.4562	-2.875	-3.0417	-106.241	-40.059	-97.961	137.820	-40.577	-71.754	113.291	103.145	3.423	115.725	-132.323	195.789	184.735	-73.623	-64.447	163.902	0.00035721	0.00041129	0.00016529	948.17	4.3567e-06	8.7456e-06	981.89	241.78	3.2678e-06	9.3489e-06	275.79	88.511	77.31	33.245	1.0371e-05	44.46	0.0011104	0.0012239	0.0003428	909.56	1.3233e-05	1.3437e-05	948.7	237.28	1.3032e-05	1.3258e-05	271.31	89.283	77.283	33.044	1.2826e-05	43.971	-127.854	-102.809	18.226	-151.281	41.427	1.608	-152.126	-144.065	7.527	24.833	-145.417	-139.940	-137.765	-131.187	8.438	-134.615	-8191	255	
2085.542	1	1	0	0	0.089825	0.17213	0.09299	0.053471	0.16152	0.28037	0.41148	0.36035	0.099484	0.068522	0.12527	0.20337	0.099432	0.26563	0.22283	0.28782	-3.2146	-2.825	-2.9458	-3.4604	-2.8229	-3.3896	-3.2687	-2.9021	-3.6646	-2.8375	-3.0458	-3.4896	-2.8083	-3.45	-3.1875	-2.9792	-136.432	39.052	-71.304	26.649	-76.495	-0.153	167.720	85.753	71.019	120.300	149.999	-111.366	149.826	146.343	145.497	177.322	0.00035248	0.00036704	0.00010075	930.9	3.999e-06	6.3027e-06	984.85	245.23	5.6376e-06	8.1075e-06	280.12	90.182	78.435	33.613	3.5806e-06	44.848	0.0011073	0.0012133	0.00034579	896.82	1.3715e-05	1.4071e-05	949.49	240.74	1.4392e-05	1.4647e-05	276.88	91.133	78.93	33.753	1.4863e-05	44.918	-107.826	-80.812	-117.521	-150.913	-101.284	98.419	-151.661	-143.904	9.398	-36.119	-145.748	-140.271	-137.721	-131.691	-79.014	-135.150	-8191	255	
2085.638	1	1	0	0	0.16204	0.092136	0.26098	0.35976	0.23947	0.15137	0.14319	0.20845	0.16154	0.06219	0.043425	0.20404	0.16765	0.22351	0.16427	0.20271	-3.1646	-3.0396	-2.7854	-3.6396	-2.7542	-3.4208	-3.4229	-2.7875	-3.575	-2.8312	-3.0396	-3.4896	-2.8896	-3.4583	-3.2021	-2.6729	-52.142	58.136	55.000	161.250	134.682	193.957	37.695	158.591	-72.182	-32.759	75.823	-124.263	109.852	132.484	102.003	-149.793	0.00034061	0.00064797	0.00010186	954.32	3.3534e-06	5.1274e-06	1000.3	244.99	7.1342e-06	3.4737e-06	276.14	89.383	77.203	33.15	9.6529e-07	44.525	0.001242	0.0013231	0.00037596	921.34	1.4149e-05	1.4089e-05	965.08	240.03	1.3283e-05	1.3238e-05	272.94	89.522	77.367	33.044	1.2294e-05	44.134	-122.860	194.416	-7.440	-151.644	172.689	-42.461	-151.777	-144.113	-25.606	-24.945	-145.749	-140.489	-138.331	-131.613	-50.278	-134.985	-8191	255	
2085.735	1	1	0	0	0.29097	0.13724	0.15379	0.24798	0.24428	0.097391	0.14859	0.21149	0.14992	0.13812	0.25138	0.21958	0.25877	0.34154	0.24602	0.23792	-3.1021	-3.0521	-2.8354	-3.5	-2.8208	-3.375	-3.4583	-2.75	-3.4646	-2.9542	-3.1042	-3.5667	-2.9146	-3.1042	-3.6083	-2.9646	-44.236	5.104	11.527	120.519	3.344	120.620	65.206	90.317	170.826	-110.393	40.697	-76.003	59.908	139.627	80.467	75.504	0.00027226	0.00079767	0.00032784	930.11	7.1618e-06	1.014e-05	969.05	238.95	5.9299e-06	9.4969e-06	272.5	89.26	76.386	32.707	5.7837e-06	43.556	0.0010086	0.0010734	0.00030064	892.25	1.1099e-05	1.1281e-05	930.83	232.03	1.0913e-05	1.0969e-05	265.31	88.147	75.748	32.311	1.0465e-05	42.827	-104.603	-131.758	-80.635	-151.301	-11.882	-47.575	-152.062	-143.852	20.687	48.578	-146.000	-140.428	-138.089	-131.399	-93.367	-134.962	-8191	255	
2085.855	1	1	0	0	0.1252	0.11222	0.18958	0.13785	0.073954	0.070301	0.21136	0.20303	0.23253	0.066588	0.10643	0.091353	0.074133	0.1274	0.18543	0.27135	-3.1667	-2.9229	-2.875	-3.7396	-2.9104	-3.1167	-3.5333	-2.7104	-3.2896	-3.1833	-2.7729	-3.6604	-2.8979	-3.0333	-3.5687	-2.9062	105.892	136.682	-128.018	182.368	144.892	32.955	146.119	151.972	15.538	160.357	-54.120	181.799	129.639	-123.748	157.709	134.104	0.00027794	0.00013782	0.00024376	910.99	1.1922e-06	6.5624e-06	960.79	236.54	3.8036e-06	4.8503e-06	270.62	88.363	75.697	32.372	6.6671e-06	43.494	0.0008619	0.00091765	0.0002555	873.79	9.8861e-06	1.0004e-05	917.32	229.56	1.0127e-05	1.0425e-05	263.05	87.271	75.388	32.204	1.043e-05	42.885	-122.452	-73.326	-62.718	-151.405	-14.434	-26.591	-151.418	-144.036	-59.788	84.104	-145.264	-140.290	-138.100	-131.570	-40.177	-135.190	-8191	255	
2085.927	1	1	0	0	0.099468	0.2617	0.12544	0.34435	0.056926	0.41046	0.15815	0.070803	0.12641	0.25167	0.28002	0.051217	0.1106	0.060454	0.15912	0.060452	-2.9542	-3.2521	-2.8083	-3.6125	-2.9646	-2.9854	-3.5729	-2.8542	-3.2917	-3.2229	-2.9292	-3.425	-2.9938	-2.9313	-3.4208	-2.7167	81.352	-66.234	162.221	184.211	7.817	-157.133	122.928	62.572	-150.618	186.793	150.589	-56.805	-86.297	123.983	104.325	167.001	0.00030425	0.00030422	0.00013055	925.29	6.2254e-06	3.0951e-06	968.58	237.46	2.3806e-06	3.9283e-06	271.15	87.944	76.339	32.566	2.8828e-06	43.633	0.00088957	0.00097042	0.0002741	886.65	1.0695e-05	1.1087e-05	931.5	232.24	1.0973e-05	1.1079e-05	265.8	87.767	75.832	32.323	1.0898e-05	43.238	-115.156	-137.008	-69.581	-151.313	4.284	-20.843	-151.938	-143.745	30.400	-8.177	-145.865	-140.614	-137.503	-131.286	-19.513	-135.160	-8191	255	
2086.023	1	1	0	0	0.16078	0.068825	0.068255	0.18352	0.16874	0.236	0.016692	0.04123	0.27125	0.14772	0.11731	0.23629	0.18217	0.26322	0.23912	0.091804	-2.8187	-3.1417	-2.6542	-3.4146	-3.0167	-2.8563	-3.6396	-2.9958	-3.2396	-3.35	-2.6854	-3.5292	-3.0812	-2.9417	-3.6167	-2.8479	-142.243	172.748	-38.523	-156.961	-108.658	71.541	28.883	48.265	-21.744	-8.001	177.160	158.691	131.836	46.493	164.580	107.255	0.00031529	0.00060551	0.00019438	920.8	1.9049e-06	5.8507e-06	962.01	236.65	6.2572e-07	4.3905e-06	271.32	89.137	76.531	32.411	7.3608e-06	43.772	0.0009378	0.00098155	0.00027747	880.56	1.0505e-05	1.0706e-05	923.58	230.58	1.0251e-05	1.0385e-05	264.84	88.236	75.432	32.063	9.6916e-06	43.106	-126.318	-141.391	-97.987	-151.278	-106.274	-26.389	-151.551	-144.096	-93.843	1.570	-145.604	-139.900	-137.622	-131.057	-88.701	-135.088	-8191	255	
2086.144	1	1	0	0	0.1849	0.098844	0.098637	0.15148	0.098486	0.3117	0.33584	0.15167	0.14143	0.15474	0.060806	0.26663	0.082524	0.064647	0.11613	0.22155	-2.5375	-3.2896	-2.7167	-3.4521	-3.0833	-2.6792	-3.6292	-2.8333	-2.9521	-3.4354	-2.8917	-3.4062	-3.2479	-2.7062	-3.45	-2.9792	90.736	-1.061	-34.761	74.474	150.896	147.405	48.713	74.228	-108.219	-13.974	-94.172	137.381	122.833	-78.816	-90.359	90.382	0.00030761	0.00022513	0.00021964	913.3	4.477e-06	1.8271e-06	963.37	237.65	3.9173e-07	3.1299e-06	274.05	90.152	77.105	32.52	9.5635e-06	44.071	0.00083445	0.00088198	0.00024617	875.12	9.6627e-06	9.9103e-06	922.55	230.16	9.8769e-06	9.9634e-06	266.13	88.787	76.094	32.19	9.9535e-06	43.251	-115.125	-92.184	-33.933	-150.977	-152.767	-85.498	-151.779	-144.179	-142.326	-68.916	-145.895	-140.336	-137.880	-131.630	-31.527	-134.751	-8191	255	
2086.238	1	1	0	0	0.096262	0.31338	0.088359	0.094297	0.051854	0.11131	0.12937	0.17208	0.14929	0.036621	0.26812	0.10513	0.45544	0.10581	0.042571	0.11879	-2.6354	-3.5417	-2.8042	-3.3833	-3.3083	-2.7104	-3.5021	-3.0771	-2.9021	-3.4958	-2.8354	-3.3271	-3.3958	-2.6417	-3.5604	-3.1333	-83.197	-6.361	113.124	-88.402	179.489	188.528	103.479	133.223	92.947	78.073	92.000	109.914	-108.723	148.517	-58.166	-47.209	0.00030688	0.00075645	0.00028959	927.25	5.9695e-06	3.8066e-06	976.91	236.47	3.5018e-06	8.5252e-06	271.14	88.485	76.167	32.308	5.8713e-06	43.499	0.00085563	0.00090887	0.00025026	890	9.5598e-06	9.8318e-06	933.03	229.43	9.4748e-06	9.8408e-06	263.73	87.123	75.269	31.935	9.5529e-06	42.647	-111.448	-56.547	-45.442	-151.138	13.226	-126.605	-151.504	-143.612	-4.813	-26.658	-145.335	-139.915	-137.106	-131.256	-82.395	-134.402	-8191	255	
2086.334	1	1	0	0	0.060543	0.10984	0.02693	0.13935	0.081693	0.15883	0.09958	0.098901	0.10698	0.21822	0.45972	0.16206	0.27226	0.079619	0.18123	0.27626	-2.5542	-3.3708	-2.6292	-3.2313	-3.2896	-2.7625	-3.4562	-3.1375	-2.9125	-3.6229	-2.8563	-3.2646	-3.3917	-2.7062	-3.4417	-3.1604	-7.039	-13.045	-63.475	-136.857	-106.234	177.650	118.060	-121.489	-29.212	-159.204	169.582	163.145	101.950	126.880	83.470	131.834	0.00031306	0.00046875	0.0002047	914.63	2.6e-06	5.5357e-06	942.43	231.31	2.7561e-06	1.1336e-05	267.54	87.94	75.599	32.329	3.0166e-06	43.593	0.00082178	0.00087612	0.0002393	868.4	9.0244e-06	9.136e-06	901.48	224.88	8.6626e-06	8.8919e-06	259.01	86.583	74.417	31.654	8.6855e-06	42.577	-117.584	71.747	-141.352	-151.067	39.308	33.462	-151.425	-143.523	-97.153	-37.505	-144.878	-140.144	-137.887	-130.999	-91.245	-134.609	-8191	255	
2086.430	1	1	0	0	0.3289	0.13001	0.16239	0.43086	0.17281	0.010517	0.12725	0.088612	0.15712	0.36393	0.1805	0.26459	0.21456	0.15043	0.1499	0.11748	-2.4083	-3.425	-2.7083	-3.0354	-3.4667	-2.8875	-3.1625	-3.1833	-2.8312	-3.6271	-3.0292	-3.0979	-3.4875	-2.7771	-3.2667	-3.4667	-44.015	-71.333	3.361	167.464	113.977	-148.638	113.267	-40.173	57.605	159.422	163.442	170.849	134.166	150.151	-42.284	66.824	0.00028065	0.00036216	3.6754e-05	890.81	2.6499e-06	6.0664e-06	940.36	235.35	4.9645e-06	7.2422e-06	270.47	88.762	76.431	32.369	6.3041e-06	44.245	0.00075809	0.00080773	0.00023174	853.81	9.0372e-06	9.2968e-06	903.57	227.86	9.4875e-06	9.7995e-06	263.05	87.767	75.433	32.197	1.0376e-05	43.494	-111.068	58.115	-31.504	-150.828	-29.696	-19.531	-151.582	-143.326	5.740	22.981	-145.210	-140.607	-137.235	-131.266	-38.198	-135.211	-8191	255	
2086.527	1	1	0	0	0.13672	0.21673	0.046079	0.24408	0.084813	0.095079	0.30478	0.18337	0.26618	0.16956	0.13439	0.20316	0.30327	0.16599	0.055899	0.17626	-2.4292	-3.2292	-2.8833	-3.0375	-3.5125	-2.7521	-3.4562	-3.3521	-2.7146	-3.6396	-3.0375	-2.9542	-3.4729	-2.7958	-3.2208	-3.4125	-77.347	45.081	-153.644	-153.830	-124.057	-78.246	158.101	-150.363	-122.024	-35.766	-143.513	167.636	-47.475	-132.761	51.956	137.540	0.00036654	0.00049776	0.00019139	914.68	3.3562e-06	4.7649e-06	970.85	237.64	3.2136e-06	1.1584e-05	274.78	89.319	76.766	32.836	3.2149e-06	44.474	0.0009039	0.00098973	0.00027522	877.96	1.0817e-05	1.0877e-05	926.22	231.86	1.0833e-05	1.0985e-05	267.81	88.495	76.226	32.6	1.1028e-05	43.874	-129.319	-119.829	-93.883	-151.194	7.522	-69.321	-151.812	-144.123	-66.480	-43.770	-145.988	-140.607	-137.869	-131.590	2.073	-135.032	-8191	255	
2086.623	1	1	0	0	0.03065	0.14473	0.21864	0.14195	0.1211	0.20445	0.10192	0.1251	0.18241	0.094157	0.24447	0.26818	0.20829	0.21232	0.12153	0.22904	-2.3771	-3.4979	-3.0729	-2.7313	-3.2458	-2.8917	-3.2188	-3.3396	-2.725	-3.4042	-3.0521	-2.8979	-3.7292	-2.8688	-3.0625	-3.5292	-139.309	-80.795	-24.116	47.110	25.919	-149.998	126.363	93.082	119.239	-114.476	-147.741	182.039	193.878	171.967	-33.641	176.336	0.00029639	0.0010097	0.0002282	915.5	5.8447e-06	5.3743e-06	963.24	238.37	4.2741e-06	3.632e-06	274.18	88.97	76.883	33	3.9213e-06	44.087	0.0009307	0.00099709	0.00027602	877.63	1.0786e-05	1.0955e-05	923.93	231.92	1.0792e-05	1.1051e-05	267.55	88.385	76.239	32.55	1.1079e-05	43.58	-107.806	-4.633	-70.305	-151.374	-16.559	3.942	-152.125	-143.760	-3.688	-118.391	-145.256	-140.553	-137.811	-131.604	18.343	-135.302	-8191	255	
2086.743	1	1	0	0	0.071117	0.11606	0.091938	0.16654	0.19808	0.12638	0.076756	0.18303	0.12336	0.2352	0.19689	0.19775	0.19241	0.040479	0.086876	0.14286	-2.15	-3.2229	-3.1042	-2.9813	-3.4396	-2.8583	-3.2313	-3.3896	-2.7583	-3.1792	-3.1417	-2.825	-3.8292	-3.0708	-2.8125	-3.4521	24.800	-122.944	-31.135	179.264	-116.153	-54.597	-104.964	-62.590	23.136	196.410	99.145	-52.289	-99.320	129.716	154.524	156.424	0.00036403	0.00021852	0.00012588	921.75	4.8035e-06	3.131e-06	960.22	238.1	3.6239e-06	5.3133e-06	273.52	87.847	76.627	32.69	2.5336e-06	44.032	0.00093556	0.0010161	0.00028396	882.49	1.0807e-05	1.0932e-05	925.57	231.55	1.0668e-05	1.0854e-05	266.04	87.603	75.77	32.406	1.1088e-05	43.328	-110.888	106.730	-97.712	-151.189	121.691	147.264	-151.736	-144.325	-38.102	-96.596	-145.733	-140.596	-137.970	-131.395	-139.920	-135.175	-8191	255	
2086.839	1	1	0	0	0.069709	0.097118	0.13547	0.22141	0.0055339	0.27701	0.15005	0.19387	0.30661	0.039591	0.30962	0.17386	0.31158	0.12306	0.14575	0.030403	-2.2979	-3.1604	-3.275	-2.7604	-3.2583	-3.0771	-2.9604	-3.5938	-2.7896	-3.1167	-3.4667	-2.4688	-3.4854	-3.0521	-2.8312	-3.5938	198.238	-128.111	181.091	193.574	-66.053	-97.506	114.995	115.468	191.486	-106.513	139.983	66.199	26.075	-158.922	128.133	95.810	0.00029583	0.00068871	0.00021549	917.9	4.7385e-06	3.7119e-06	963.68	240.6	4.878e-06	2.8889e-06	272.56	88.581	76.132	32.839	8.4463e-07	44.097	0.0009327	0.0010178	0.00028306	878.38	1.1171e-05	1.13e-05	924.63	232.57	1.1305e-05	1.1327e-05	266.37	88.221	76.047	32.482	1.1116e-05	43.537	-122.798	-5.314	-14.262	-150.939	-110.563	51.397	-151.710	-143.688	26.904	-134.996	-145.182	-140.275	-137.710	-131.276	-1.184	-135.068	-8191	255	
2086.936	1	1	0	0	0.16797	0.23281	0.22759	0.12994	0.083502	0.27522	0.072426	0.079103	0.098834	0.16524	0.1601	0.054746	0.38484	0.17861	0.12394	0.17453	-2.6604	-3.0708	-3.3563	-2.9417	-3.3729	-3.3042	-2.9292	-3.6542	-2.8271	-3.1208	-3.6021	-2.7229	-3.4271	-3.3667	-2.8958	-3.5625	-145.240	177.680	-125.703	175.809	-16.285	-93.124	147.877	64.161	195.699	-14.320	192.795	-40.455	194.816	-133.041	-72.598	174.942	0.0002526	0.00045447	8.8098e-05	917.81	5.0544e-06	2.6514e-06	960.88	237.69	3.712e-06	6.2579e-06	273.69	89.402	76.292	32.83	6.1738e-06	44.125	0.0009313	0.0010315	0.00028619	878.6	1.1117e-05	1.1327e-05	923.18	232.46	1.1201e-05	1.1251e-05	267.24	88.718	76.073	32.535	1.0986e-05	43.685	-122.732	-96.415	-32.043	-151.061	14.446	28.271	-151.630	-143.624	9.087	4.376	-145.827	-140.521	-137.729	-130.999	17.753	-134.866	-8191	255	
2087.030	1	1	0	0	0.11384	0.23159	0.18928	0.2275	0.35163	0.085716	0.080562	0.11686	0.21346	0.20632	0.15295	0.08082	0.13441	0.15228	0.10945	0.28724	-2.5563	-3.0521	-3.5104	-2.925	-3.1396	-3.1583	-2.825	-3.4688	-3.1188	-2.9354	-3.5479	-2.6896	-3.1958	-3.2604	-2.6167	-3.4292	109.506	176.222	-31.800	149.138	91.349	126.241	149.521	197.376	14.098	-158.921	70.185	-114.081	-75.628	176.127	-60.411	149.918	0.00026087	0.00052175	0.0001465	915.96	4.2025e-06	6.5869e-06	959.49	238.35	5.0302e-06	7.3909e-06	273.99	90.225	77.137	33.272	2.9988e-06	44.503	0.00092155	0.00099734	0.00027512	875.92	1.072e-05	1.0719e-05	919.56	231.61	1.0492e-05	1.0573e-05	267.12	89.443	76.536	32.791	1.0619e-05	43.978	-114.659	72.306	-10.261	-151.134	-4.648	38.254	-152.103	-143.815	-49.412	-60.342	-145.458	-140.341	-138.367	-131.618	-42.553	-135.426	-8191	255	
2087.151	1	1	0	0	0.093622	0.28084	0.22317	0.11432	0.15702	0.21748	0.086	0.055734	0.094939	0.36911	0.11126	0.084744	0.19746	0.092103	0.25499	0.11981	-2.5854	-2.7917	-3.4021	-2.675	-3.0667	-3.3083	-2.8646	-3.4667	-3.0958	-2.8729	-3.5687	-2.6688	-3.2687	-3.4375	-2.8	-3.4521	-2.413	29.458	77.572	165.937	-32.110	36.182	46.120	-91.235	119.527	160.026	103.124	125.851	-125.117	-89.836	-5.539	110.342	0.00032565	0.00014439	0.00014112	908.75	3.2142e-06	5.2143e-06	951.09	237.44	3.3542e-06	2.7188e-06	271.07	89.441	77.478	32.786	3.9205e-06	44.39	0.00088224	0.00097808	0.00026831	872.02	1.0436e-05	1.038e-05	912.41	230.33	1.0118e-05	1.0345e-05	264.82	88.59	76.392	32.419	1.0273e-05	43.587	-122.549	-25.101	-22.255	-151.062	22.869	-63.603	-152.007	-143.882	174.846	12.978	-145.363	-140.166	-137.872	-131.267	-2.057	-135.252	-8191	255	
2087.222	1	1	0	0	0.21056	0.14134	0.18167	0.47351	0.16403	0.11489	0.15422	0.081167	0.086194	0.22313	0.12954	0.093535	0.1176	0.12851	0.11569	0.13187	-2.6146	-2.6208	-3.4979	-2.7875	-3.1042	-3.3896	-2.8125	-3.6542	-2.9708	-2.7771	-3.4625	-2.875	-3.1604	-3.3083	-2.6833	-3.3854	-7.282	-62.996	-8.951	146.223	100.298	10.903	96.611	133.928	-100.075	194.242	-44.191	-60.692	57.305	187.680	18.536	159.572	0.00028404	0.00045876	7.7561e-05	904.06	1.4494e-06	7.4215e-06	948.93	236.29	6.4386e-06	1.058e-05	272.02	89.132	77.169	32.526	1.4709e-06	43.936	0.00085835	0.00092856	0.0002623	865.98	1.0036e-05	1.0111e-05	908.56	229.42	1.0096e-05	1.0186e-05	264.61	88.264	75.746	32.275	1.0092e-05	43.176	-112.720	-83.386	-63.181	-151.382	-134.483	-23.870	-151.834	-144.122	-1.705	-14.233	-145.744	-140.400	-137.726	-131.537	12.269	-135.230	-8191	255	
2087.318	1	1	0	0	0.10547	0.24022	0.058497	0.13726	0.035449	0.14183	0.2217	0.22516	0.079573	0.17735	0.11502	0.15187	0.1813	0.10412	0.18232	0.34823	-2.6646	-2.7104	-3.5458	-3.0958	-2.8812	-3.5104	-3.1271	-3.2938	-3.4208	-2.8458	-3.4708	-3.05	-3.0479	-3.5771	-2.5938	-3.2313	192.261	29.341	-124.400	131.689	-49.056	-123.616	51.879	172.497	119.410	130.875	171.980	165.028	42.685	117.158	58.192	167.834	0.00033381	0.00070278	0.00027214	918.65	2.3225e-06	8.3208e-06	981.75	239.23	1.8458e-06	7.1727e-06	279.66	87.87	77.096	32.695	3.7648e-06	44.368	0.00085173	0.00089481	0.00025323	880.08	1.0296e-05	1.047e-05	943.7	234.35	1.1562e-05	1.2305e-05	273.27	88.747	77.189	32.837	1.3368e-05	44.098	-115.208	-25.667	-47.458	-151.224	-46.125	29.944	-152.199	-144.732	37.273	-76.073	-146.278	-140.839	-138.955	-131.619	153.215	-135.356	-8191	255	
2087.415	1	1	0	0	0.22376	0.17706	0.14035	0.16107	0.18013	0.18282	0.087462	0.18451	0.13768	0.24304	0.26388	0.27804	0.073388	0.10708	0.082113	0.13345	-2.9042	-2.7021	-3.6063	-3.3125	-2.7917	-3.5917	-3.0062	-3.1792	-3.4208	-2.7208	-3.4958	-3.4208	-2.8479	-3.4667	-2.8479	-3.275	47.176	-121.306	85.058	186.717	-64.845	20.288	127.470	159.741	139.208	167.085	113.067	67.448	125.016	58.264	119.443	121.263	0.00030101	0.00017972	0.00012186	1005.9	3.0375e-06	2.6655e-06	1062.1	250.2	7.1311e-06	3.7922e-06	282.57	87.809	76.707	32.553	9.9687e-06	44.34	0.0011567	0.0012856	0.00035793	968.06	1.3857e-05	1.4072e-05	1020	245.38	1.4015e-05	1.4237e-05	278.77	88.523	77.415	32.841	1.3885e-05	44.061	-102.562	-102.202	-89.788	-152.107	43.642	39.181	-152.827	-145.090	-69.454	25.587	-146.333	-140.855	-138.325	-131.787	-92.410	-135.750	-8191	255	
2087.535	1	1	0	0	0.28172	0.15066	0.25104	0.15859	0.19453	0.17759	0.17426	0.18206	0.12501	0.32712	0.30153	0.22296	0.13184	0.069818	0.090132	0.23071	-3.0979	-2.5917	-3.3979	-3.3812	-2.8	-3.5187	-3.1083	-3.1292	-3.5333	-2.8229	-3.5	-3.2604	-2.7833	-3.6021	-2.9667	-3.1312	-18.010	-49.584	188.948	175.010	86.204	174.762	-147.361	132.695	65.567	-126.233	178.609	34.397	-33.876	-124.729	180.985	139.372	0.00028217	0.00081993	0.00014864	966.14	2.6523e-06	4.9557e-06	1005.2	244.4	6.3761e-06	4.5556e-06	276.94	88.428	76.5	32.736	5.6439e-06	44.087	0.0011585	0.0012524	0.00034933	929.21	1.3578e-05	1.3521e-05	968	239.07	1.2848e-05	1.28e-05	272.77	88.461	76.382	32.603	1.2214e-05	43.861	-122.984	-116.558	-17.017	-151.645	40.375	-36.725	-152.449	-144.711	59.403	16.089	-145.930	-140.630	-138.431	-131.402	14.793	-135.044	-8191	255	
2087.631	1	1	0	0	0.27673	0.073572	0.20997	0.16881	0.21604	0.18891	0.09562	0.17191	0.26459	0.27881	0.066929	0.079955	0.064154	0.16612	0.10567	0.1974	-3.0187	-2.6021	-3.2938	-3.4375	-2.8604	-3.425	-3.0229	-2.9542	-3.4854	-2.8021	-3.1771	-3.3083	-2.6562	-3.525	-3.0812	-3.0375	189.610	-0.100	-121.849	-143.289	-99.681	92.950	183.231	-11.073	-100.393	116.517	-33.580	-77.207	121.793	-64.965	-141.360	-133.309	0.00037904	0.00010681	0.00023207	937.09	6.5985e-06	1.1514e-05	980.47	243.75	1.9211e-06	7.846e-06	274.57	87.904	75.736	32.652	5.8011e-06	43.915	0.0010352	0.0011135	0.00030921	896.44	1.2239e-05	1.2416e-05	943.4	236.82	1.2308e-05	1.2548e-05	271.24	87.981	76.27	32.556	1.2596e-05	43.721	-102.386	-14.796	-81.372	-150.910	-51.977	-5.187	-151.888	-144.020	97.698	-133.836	-146.152	-140.352	-137.990	-131.758	90.176	-134.950	-8191	255	
2087.728	1	1	0	0	0.23627	0.13588	0.32737	0.30318	0.33822	0.021381	0.077351	0.070184	0.20479	0.19352	0.16511	0.054734	0.11017	0.12306	0.1646	0.11055	-3.0792	-2.7417	-3.1542	-3.3396	-2.65	-3.5208	-3.1792	-2.9229	-3.4	-2.8271	-3.2854	-3.5771	-2.8417	-3.3854	-3.0542	-2.8625	-114.800	37.198	118.097	145.726	98.457	55.973	14.737	138.062	11.592	49.388	134.743	3.910	-67.575	-138.895	117.776	46.723	0.00035859	0.00041139	0.00012115	961.37	1.5825e-06	6.368e-06	1005.4	243.61	4.2949e-06	4.2752e-06	277.9	87.677	76.205	32.525	4.2922e-06	44.146	0.0010948	0.001197	0.00033514	921.24	1.3241e-05	1.3393e-05	969.53	240.07	1.3315e-05	1.3502e-05	274.44	87.992	76.661	32.619	1.3383e-05	43.714	-113.554	-78.484	-77.433	-151.391	75.926	123.181	-152.227	-144.516	-105.530	-53.926	-146.108	-140.762	-138.148	-131.689	-75.282	-135.588	-8191	255	
2087.824	1	1	0	0	0.23664	0.075384	0.093013	0.17758	0.23367	0.22802	0.14308	0.30628	0.14142	0.091839	0.057184	0.14998	0.094002	0.25157	0.038509	0.16314	-3.2375	-2.6854	-2.9938	-3.5625	-2.675	-3.3354	-3.3333	-2.8354	-3.4521	-2.9667	-3.0875	-3.4604	-2.8208	-3.3833	-3.3271	-2.8375	-117.918	-131.461	-132.479	-102.649	11.382	196.454	163.559	40.322	124.020	170.933	128.106	30.010	184.392	-119.464	44.179	17.071	0.00025361	0.00060004	0.00011388	950.96	2.3234e-06	7.379e-06	994.3	242.93	1.9399e-06	6.8506e-06	278.86	87.435	75.706	32.358	2.3381e-06	43.859	0.0011233	0.0011991	0.00033718	912.84	1.2824e-05	1.2921e-05	958.05	237.91	1.2998e-05	1.2905e-05	272.82	87.584	76.032	32.323	1.2567e-05	43.523	-121.784	-85.931	-131.912	-151.055	-10.275	-54.107	-152.249	-144.235	4.341	-116.361	-145.419	-141.092	-138.741	-131.984	57.955	-135.121	-8191	255	
2087.920	1	1	0	0	0.09975	0.093495	0.16511	0.12963	0.029148	0.17117	0.34328	0.13704	0.14134	0.10456	0.25711	0.12751	0.1302	0.081344	0.072531	0.33941	-3.1146	-2.8917	-2.9271	-3.5938	-2.8417	-3.3125	-3.4625	-2.8042	-3.4792	-3.1167	-2.9938	-3.375	-2.7146	-3.1792	-3.3208	-2.5667	-47.429	166.495	187.926	-0.551	160.094	-46.831	137.607	51.356	-111.817	57.156	103.278	-25.684	-103.247	-11.483	-16.319	16.769	0.00022225	0.00032864	8.8652e-05	958.42	6.1097e-06	4.4059e-06	1020.5	245.42	4.5611e-06	6.6275e-06	280.79	87.873	76.675	32.333	1.8331e-06	43.886	0.0010599	0.0011493	0.00031943	918.35	1.2736e-05	1.2943e-05	979.58	240.33	1.3052e-05	1.3675e-05	275.86	88.142	76.757	32.458	1.2944e-05	43.64	-98.799	-30.446	-154.348	-151.383	-22.801	-67.432	-151.773	-144.341	-4.923	5.718	-146.438	-140.868	-138.641	-131.876	57.250	-135.390	-8191	255	
2088.016	1	1	0	0	0.29606	0.14132	0.22321	0.22757	0.094426	0.067689	0.32337	0.084203	0.038234	0.03258	0.1752	0.29279	0.15941	0.21761	0.21203	0.099263	-2.9458	-2.9	-2.7646	-3.5271	-2.7708	-3.1	-3.4875	-2.8937	-3.4833	-3.2292	-3.0292	-3.475	-3.0729	-3.0833	-3.4854	-2.7979	-150.746	-135.539	-116.687	118.383	101.689	-39.168	123.537	-60.695	44.434	-24.837	28.091	143.949	-40.354	42.573	109.703	-42.294	0.0002822	0.00039705	0.00011055	969.75	6.0148e-06	7.2746e-06	1015	246.37	1.8432e-06	3.7122e-06	279.65	86.967	76.331	32.93	5.591e-06	44.134	0.0010808	0.0011585	0.00033004	931.28	1.2862e-05	1.3229e-05	978.28	240.24	1.3262e-05	1.3633e-05	274.41	88.049	76.801	32.767	1.3951e-05	43.921	-130.947	-42.298	142.342	-151.685	-68.667	-4.455	-152.197	-144.730	-13.054	35.278	-145.977	-140.253	-138.159	-131.329	-12.071	-134.546	-8191	255	
2088.112	1	1	0	0	0.1746	0.086515	0.16782	0.13654	0.16447	0.23914	0.097051	0.17539	0.15063	0.10799	0.079287	0.11191	0.11498	0.19751	0.14654	0.20317	-2.9729	-3.1875	-2.8979	-3.4229	-3.0229	-3.1	-3.5479	-2.7604	-3.2396	-3.2104	-2.625	-3.4313	-3.0875	-2.9625	-3.4521	-2.7958	35.140	-35.491	-30.108	88.303	90.045	124.153	98.773	134.523	197.812	72.336	80.323	-19.488	176.454	56.633	-134.707	-108.363	0.00039208	0.00021659	5.3933e-05	945.31	1.7198e-06	7.8157e-06	978.98	242.69	1.6126e-06	6.1491e-06	274.91	88.803	75.83	32.621	7.9481e-06	44.029	0.0011874	0.0012886	0.00036078	910.9	1.3701e-05	1.362e-05	947.18	237.7	1.2812e-05	1.2888e-05	269.81	88.183	75.966	32.57	1.233e-05	43.51	-120.468	11.863	-152.754	-150.912	-85.984	-26.602	-151.738	-144.090	-42.746	176.372	-145.302	-140.241	-137.477	-131.413	23.215	-135.023	-8191	255	
2088.231	1	1	0	0	0.25466	0.40773	0.17886	0.13896	0.17466	0.11119	0.27955	0.27699	0.062526	0.13287	0.099205	0.077867	0.19304	0.19454	0.060343	0.046143	-3.2042	-3.2229	-2.5854	-3.3125	-2.8979	-2.8125	-3.5563	-2.8937	-2.95	-3.4188	-2.8479	-3.5021	-3.0771	-2.7042	-3.4458	-2.8063	-77.365	-94.488	175.613	83.954	102.247	174.041	189.617	108.458	-129.533	-73.059	14.391	188.885	-10.932	118.761	58.851	-8.551	0.00022285	0.0001754	8.7257e-05	919.66	3.6696e-06	5.913e-06	967.59	239.16	2.1779e-06	2.9419e-06	273.84	88.288	76.487	32.406	1.7989e-06	43.801	0.0010247	0.0010991	0.0003039	882.04	1.1658e-05	1.1797e-05	932.36	233.6	1.1739e-05	1.167e-05	268.46	87.713	75.898	32.309	1.1752e-05	43.308	-114.729	75.946	-141.932	-150.895	-132.913	115.607	-151.860	-144.023	-8.053	-80.609	-145.209	-140.209	-137.579	-131.683	194.023	-134.757	-8191	255	
2088.327	1	1	0	0	0.24242	0.3464	0.26949	0.18229	0.17591	0.049021	0.022333	0.25766	0.20637	0.090612	0.20676	0.20161	0.19074	0.2259	0.13626	0.074469	-2.7354	-3.2396	-2.75	-3.2125	-3.2375	-2.6333	-3.4146	-2.9271	-2.9583	-3.4917	-2.7	-3.3312	-3.2146	-2.8667	-3.6083	-2.9479	158.052	-40.583	-2.115	181.777	-133.936	150.393	155.774	-149.428	-9.067	-161.507	98.890	-150.196	120.423	129.142	141.723	32.616	0.00032399	0.00034314	0.00014372	946.86	6.3049e-06	8.2598e-06	994.54	243.51	1.8104e-06	5.3887e-06	275.72	88.156	76.418	32.725	2.3018e-06	44.095	0.00099355	0.001091	0.00030477	908.28	1.2025e-05	1.2359e-05	958.49	236.83	1.2048e-05	1.2113e-05	269.81	87.95	76.141	32.441	1.1576e-05	43.498	-118.800	34.969	-150.857	-151.198	-32.278	77.859	-151.638	-143.703	-24.566	-38.712	-145.226	-139.783	-137.729	-131.651	-25.243	-134.614	-8191	255	
2088.423	1	1	0	0	0.22141	0.15222	0.15116	0.094506	0.14911	0.23859	0.06753	0.13376	0.21479	0.097346	0.10822	0.0076031	0.17509	0.18087	0.25949	0.19285	-2.7083	-3.55	-2.7271	-3.2875	-3.3333	-2.8021	-3.5896	-2.7979	-2.9542	-3.3896	-2.9562	-3.1854	-3.3792	-2.7042	-3.4292	-3.0917	-139.745	-108.067	133.173	97.230	191.810	-2.372	49.220	161.874	157.324	-52.837	111.939	9.254	95.529	196.541	48.880	50.432	0.00030765	0.00067795	0.0001615	935.49	2.5145e-06	3.612e-06	979.48	241.59	2.9697e-06	1.3069e-06	275.39	88.858	76.622	32.778	3.6114e-06	44.561	0.00097683	0.0010535	0.00029072	896.29	1.1394e-05	1.1767e-05	941.21	233.83	1.1332e-05	1.1283e-05	268.2	88.501	76.132	32.411	1.0977e-05	43.771	-118.325	-41.699	-54.655	-150.880	181.269	-141.460	-151.438	-143.503	-118.231	177.581	-145.299	-139.970	-137.449	-130.732	-13.753	-134.596	-8191	255	
2088.519	1	1	0	0	0.15796	0.33913	0.25563	0.32274	0.17573	0.081241	0.1218	0.15312	0.4181	0.094259	0.23619	0.14189	0.148	0.12715	0.15239	0.17286	-2.3917	-3.3958	-2.7562	-3.0438	-3.4271	-2.6917	-3.5542	-3.2	-2.8937	-3.5208	-2.8604	-3.1562	-3.5687	-2.7938	-3.5187	-3.25	-49.739	25.185	19.400	184.147	129.593	-98.545	45.273	-84.943	13.542	111.063	-140.568	165.088	-76.902	85.870	6.470	70.409	0.00034519	0.00019326	8.0119e-05	923.04	5.4561e-06	5.7229e-06	977.2	238.86	7.207e-06	7.1824e-06	274.19	89.217	76.444	32.27	4.4269e-06	43.708	0.00092412	0.00097607	0.00027472	885.05	1.064e-05	1.0666e-05	936.98	232.52	1.1012e-05	1.1089e-05	267.55	88.056	75.803	32.022	1.0854e-05	43.029	-125.929	-139.896	157.462	-150.851	-19.930	-23.037	-151.570	-143.601	43.323	19.176	-145.459	-140.373	-137.491	-131.684	17.232	-134.819	-8191	255	
2088.616	1	1	0	0	0.085512	0.18183	0.10044	0.1297	0.024502	0.10104	0.16916	0.13288	0.21651	0.16665	0.054961	0.17335	0.0917	0.28517	0.11137	0.28836	-2.3688	-3.3875	-2.8021	-3.1188	-3.375	-2.7938	-3.2896	-3.1063	-2.7396	-3.3812	-2.9771	-2.9437	-3.5229	-2.5042	-2.9979	-3.3458	-56.158	147.698	161.987	186.704	60.123	63.576	74.087	86.272	157.734	-110.515	131.765	-117.870	-13.517	162.794	74.883	15.332	0.00031857	0.00068773	0.00021005	942.22	3.1515e-06	8.9043e-06	988.17	239.6	2.7244e-06	6.1375e-06	273.87	88.103	75.697	32.203	1.2663e-05	43.816	0.00092059	0.00099352	0.00027355	903.03	1.0567e-05	1.0648e-05	950.77	232.44	1.0939e-05	1.0873e-05	267.59	87.072	75.437	31.945	1.143e-05	43.105	-117.723	181.442	-68.384	-151.253	139.484	4.562	-151.939	-143.930	-13.267	-51.668	-145.876	-140.538	-137.893	-131.585	11.762	-135.003	-8191	255	
2088.712	1	1	0	0	0.11937	0.06885	0.23491	0.27425	0.19033	0.19046	0.25854	0.28346	0.13436	0.21742	0.059738	0.12377	0.13193	0.20367	0.10855	0.12453	-2.1562	-3.1583	-2.9729	-3.025	-3.3187	-2.6437	-3.1292	-3.2375	-2.7542	-3.4917	-2.9604	-2.8625	-3.4875	-2.6625	-3.1271	-3.3396	98.157	121.348	-98.361	174.087	140.963	64.002	127.700	157.965	120.716	-23.728	141.582	-69.477	134.562	-33.865	-137.885	-12.480	0.00038018	0.00032484	2.6514e-05	963.07	2.6434e-06	6.2522e-06	1025.5	247.6	2.0071e-06	8.5453e-06	281	88.27	76.524	32.413	4.3977e-06	44.078	0.00098889	0.001081	0.00030899	926.18	1.277e-05	1.3342e-05	986.9	242.49	1.3935e-05	1.4174e-05	277.09	88.756	77.098	32.688	1.4012e-05	43.881	-117.035	-39.791	-15.461	-151.434	-10.674	5.120	-152.336	-144.538	-64.522	-3.447	-145.990	-140.855	-138.471	-131.892	-30.868	-135.303	-8191	255	
2088.832	1	1	0	0	0.12892	0.11853	0.14813	0.1176	0.19757	0.11234	0.4394	0.40174	0.095843	0.11255	0.34168	0.18093	0.048749	0.10153	0.052961	0.16876	-2.4979	-3.2479	-3.0167	-2.9292	-3.2354	-2.7167	-3.2021	-3.3729	-2.6458	-3.4083	-3.2292	-2.8146	-3.3208	-2.9604	-2.8458	-3.2792	97.832	34.752	-118.460	-27.804	79.007	-53.777	191.622	98.294	133.675	-35.214	136.512	147.143	156.613	110.900	180.996	119.499	0.00029822	0.00062914	5.2689e-05	967.71	2.217e-06	8.2711e-06	1003.5	241.62	1.5849e-06	5.4305e-06	275.57	86.62	75.408	31.953	2.5142e-06	43.415	0.0011622	0.0012539	0.00034887	929.51	1.2841e-05	1.263e-05	968.91	236.21	1.1805e-05	1.1556e-05	268.45	86.146	74.609	31.655	1.0631e-05	42.517	-127.715	-32.614	-44.791	-151.430	-0.459	-14.353	-152.359	-144.131	114.258	48.335	-145.166	-140.165	-137.730	-131.258	9.595	-134.751	-8191	255	
2088.929	1	1	0	0	0.069335	0.070681	0.13426	0.14141	0.081126	0.36117	0.28145	0.18031	0.049833	0.080444	0.19961	0.069487	0.27082	0.056762	0.19073	0.13219	-2.1896	-3.1896	-3.1188	-2.7792	-3.3875	-2.9458	-3.0667	-3.4583	-2.5854	-3.3521	-3.3083	-2.8354	-3.325	-2.8104	-2.9208	-3.4375	174.747	138.144	-89.343	28.761	37.983	192.548	-133.472	-78.392	-45.296	178.297	83.042	55.419	158.144	-20.731	32.821	36.125	0.00027615	0.00043125	9.9391e-05	931.38	9.3602e-07	8.3862e-06	980.21	234.18	5.3573e-06	6.3793e-06	270.37	86.385	74.458	31.589	3.8594e-06	43.003	0.0008842	0.00092335	0.00025073	889.9	9.6248e-06	9.5322e-06	933.47	227.13	9.3011e-06	9.3988e-06	262.31	85.634	73.773	31.268	9.6367e-06	42.185	-120.418	-69.859	-91.919	-151.051	110.498	-24.149	-151.929	-143.750	-20.429	-35.658	-145.836	-140.711	-138.097	-131.533	89.639	-134.876	-8191	255	
2089.023	1	1	0	0	0.21066	0.31124	0.12927	0.3125	0.048591	0.1954	0.24712	0.066437	0.38598	0.11943	0.016567	0.31722	0.30589	0.098437	0.1324	0.1898	-2.3583	-3.1312	-3.0563	-2.7229	-3.3271	-3.0458	-2.9708	-3.3187	-2.6958	-3.2521	-3.3042	-2.6042	-3.4271	-2.9958	-2.7292	-3.4667	-155.427	-77.986	-45.579	160.674	-17.656	159.053	141.220	-126.898	92.279	-17.916	96.879	78.850	143.284	-155.091	31.477	92.356	0.00027754	0.00019143	3.7043e-05	932.62	7.674e-06	5.4272e-06	981.95	235.65	1.4932e-06	2.1864e-06	267.54	86.174	74.021	31.642	3.3851e-06	42.517	0.00080755	0.00088298	0.00024432	890.18	9.5515e-06	9.7387e-06	938.16	228.07	9.555e-06	9.9352e-06	260.16	85.177	73.543	31.22	9.9576e-06	41.807	-110.561	-23.819	-159.054	-151.571	-64.241	56.462	-152.436	-143.867	-66.902	172.234	-145.361	-140.398	-138.503	-131.568	-14.124	-134.946	-8191	255	
2089.096	1	1	0	0	0.14383	0.10131	0.19377	0.26502	0.14144	0.039981	0.3231	0.1579	0.17562	0.22228	0.22212	0.37724	0.1671	0.17679	0.038697	0.085502	-2.4562	-3.2562	-3.3063	-2.8521	-3.275	-3.0187	-2.7729	-3.525	-2.6854	-3.0042	-3.375	-2.6813	-3.3354	-3.0396	-2.7438	-3.4708	147.942	32.506	-63.561	180.323	54.016	90.897	188.916	101.597	-156.547	-103.717	137.381	22.204	74.492	79.398	163.523	20.457	0.00031736	0.00054211	0.0001491	917.74	3.8551e-06	1.9852e-06	966.12	234.68	9.3585e-06	1.2216e-05	269.44	86.618	75.099	32.243	2.6708e-06	43.199	0.00083228	0.00091127	0.0002473	877.4	9.8915e-06	1.0233e-05	925.49	229	1.059e-05	1.0966e-05	263.66	86.478	75.061	31.933	1.1387e-05	42.979	-104.478	-116.043	-49.112	-150.924	-107.011	-35.986	-152.201	-144.478	-19.929	-23.998	-146.009	-141.113	-138.418	-131.518	-26.771	-134.833	-8191	255	
2089.193	1	1	0	0	0.13971	0.22493	0.053149	0.21334	0.087485	0.13223	0.14047	0.18186	0.22185	0.1689	0.11866	0.081762	0.16936	0.11044	0.12452	0.15981	-2.4771	-2.8521	-3.4	-2.6562	-3.2396	-3.1625	-2.8563	-3.4646	-2.9	-2.9729	-3.3771	-2.6979	-3.2229	-3.1104	-2.6458	-3.375	28.926	-129.722	-126.820	175.251	43.102	72.836	150.492	-123.088	-106.719	-157.290	88.201	98.509	133.732	-156.126	21.096	83.887	0.00033105	0.00077516	0.00018815	924.63	5.6641e-06	5.8058e-06	977.34	239.01	2.6595e-06	7.6343e-06	275.14	88.2	76.293	32.397	6.9538e-07	43.939	0.00095882	0.0010609	0.00029794	887.32	1.1889e-05	1.1959e-05	939.78	233.63	1.2073e-05	1.2298e-05	269.5	88.129	75.934	32.442	1.2266e-05	43.687	-131.981	-76.859	-24.214	-151.272	3.485	-25.428	-152.021	-144.250	-6.620	37.484	-145.505	-140.287	-137.977	-131.638	161.954	-135.098	-8191	255	
2089.311	1	1	0	0	0.17733	0.24023	0.055333	0.09664	0.12029	0.10944	0.3334	0.074555	0.13269	0.18479	0.29974	0.093011	0.18046	0.077903	0.15073	0.12638	-2.6167	-2.8979	-3.3417	-2.9	-3.0479	-3.2125	-2.6479	-3.3917	-3.0104	-2.8937	-3.425	-2.8854	-2.9354	-3.325	-2.6417	-3.1833	-141.054	18.487	179.302	-100.452	44.531	137.815	77.053	-159.795	171.424	-55.260	94.988	162.806	-35.672	160.638	119.431	73.992	0.00029847	0.00053074	0.00028134	935.13	6.3122e-06	3.0342e-06	985.92	241.77	3.4443e-06	3.7507e-06	276.21	89.017	76.968	32.825	1.1408e-05	44.611	0.0010438	0.0011389	0.0003142	897.47	1.2174e-05	1.2593e-05	945.59	235.91	1.2148e-05	1.2547e-05	270.96	88.767	76.661	32.713	1.2657e-05	44.144	-125.995	-38.587	-113.420	-151.339	-34.451	-54.868	-152.290	-144.243	11.178	-83.215	-145.221	-140.326	-137.760	-131.263	-30.647	-134.890	-8191	255	
2089.408	1	1	0	0	0.053777	0.056989	0.12906	0.088073	0.26596	0.079813	0.12163	0.23495	0.25091	0.12278	0.2023	0.23061	0.33334	0.088787	0.23531	0.021523	-2.6875	-2.775	-3.5187	-2.8271	-2.9188	-3.2604	-2.8083	-3.2729	-3.1396	-2.6708	-3.3646	-2.7562	-2.8312	-3.3896	-2.4188	-3.3688	130.710	157.417	112.404	185.437	-82.346	139.599	162.773	83.908	-157.332	172.859	151.030	100.616	182.879	-157.888	-35.576	118.326	0.00035333	0.00069608	0.00010979	939.95	3.0463e-06	8.9778e-06	991.43	243.99	3.5216e-06	2.3906e-06	276.84	88.854	76.983	33.128	5.3684e-06	44.531	0.0010565	0.0011673	0.0003241	902.15	1.2716e-05	1.2886e-05	952.2	238	1.2965e-05	1.3435e-05	273.46	89.142	77.204	33.015	1.3673e-05	44.174	-113.834	-73.397	87.107	-151.052	-11.169	-68.243	-151.927	-144.266	3.686	58.998	-145.252	-140.468	-138.349	-131.611	63.030	-135.280	-8191	255	
2089.504	1	1	0	0	0.034105	0.10986	0.092463	0.37931	0.18833	0.20289	0.2666	0.087758	0.15509	0.20849	0.30264	0.25334	0.3027	0.18382	0.16175	0.32305	-2.5875	-2.6792	-3.4354	-2.9958	-2.6437	-3.3667	-2.9125	-3.1958	-3.0375	-2.8312	-3.4354	-3.0604	-2.9208	-3.4667	-2.5208	-3.0438	174.236	22.789	118.481	157.837	-95.354	57.224	141.222	-68.996	-53.173	-97.023	18.448	88.620	145.182	-44.349	178.759	141.994	0.00031522	0.00021385	0.00016737	955.63	2.9635e-06	6.1441e-06	1002.7	246.83	7.9192e-06	2.7976e-06	279.23	88.134	77.172	33.063	6.6015e-06	44.571	0.0011663	0.0012822	0.00036139	921.64	1.4304e-05	1.4396e-05	972.01	242.46	1.4482e-05	1.4859e-05	276.46	89.127	77.656	33.236	1.4933e-05	44.533	-115.504	-76.520	-84.132	-151.465	-76.625	71.827	-151.976	-144.606	-40.446	72.678	-145.703	-140.349	-138.206	-132.030	-72.778	-135.384	-8191	255	
2089.624	1	1	0	0	0.11063	0.15313	0.19585	0.16871	0.11958	0.10778	0.18589	0.12406	0.20383	0.081169	0.32251	0.20606	0.17464	0.083107	0.11397	0.26561	-2.8812	-2.6063	-3.3688	-3.0187	-2.7208	-3.4146	-2.7875	-2.9375	-3.4	-2.4375	-3.5375	-2.9958	-2.7625	-3.425	-2.7854	-2.9	19.347	155.553	21.457	63.903	83.191	-105.661	80.303	-86.875	178.365	108.518	174.151	113.123	179.095	166.488	117.427	-162.035	0.00033309	0.0003305	9.5258e-05	966.31	9.2498e-06	8.0796e-06	1019.6	247.42	5.6798e-06	6.086e-06	280.99	87.884	76.772	32.846	7.5229e-06	44.296	0.0012666	0.0013979	0.00038182	933.54	1.5286e-05	1.5131e-05	984.3	244.38	1.5161e-05	1.5464e-05	278.58	89.303	77.618	33.181	1.4911e-05	44.305	-111.982	-123.246	152.227	-151.439	-44.994	16.351	-152.235	-144.727	-38.414	-10.757	-145.808	-140.882	-138.700	-131.770	-39.945	-135.517	-8191	255	
2089.696	1	1	0	0	0.23874	0.060347	0.15127	0.058742	0.20248	0.10458	0.13494	0.37336	0.13858	0.13285	0.21053	0.096829	0.21289	0.022388	0.33837	0.1361	-2.975	-2.5771	-3.3042	-3.2292	-2.6479	-3.4208	-2.9167	-3.0542	-3.3875	-2.6896	-3.1813	-3.1729	-2.8563	-3.6	-2.8042	-3.0167	196.883	6.069	-70.362	187.221	105.952	-80.218	101.980	175.028	-158.961	-118.099	35.246	-143.574	150.523	131.240	-47.765	194.491	0.00028333	0.0006869	0.00011288	962.37	8.6807e-06	3.7212e-06	1011.3	248.29	6.1739e-06	1.1704e-05	279.44	87.608	77.285	32.933	6.14e-06	44.504	0.0012251	0.0013478	0.00037396	926.91	1.4555e-05	1.4561e-05	976.53	242.64	1.4073e-05	1.4158e-05	276.41	88.759	77.263	32.949	1.4135e-05	44.217	-134.472	85.702	-137.854	-151.056	-7.771	63.239	-152.075	-144.548	-84.538	-43.210	-145.887	-140.441	-138.521	-131.711	-1.768	-135.365	-8191	255	
2089.792	1	1	0	0	0.22612	0.059807	0.1108	0.10875	0.16417	0.069289	0.1114	0.3959	0.12969	0.18353	0.06957	0.20864	0.045472	0.21173	0.048872	0.21811	-3.0229	-2.4896	-3.3167	-3.225	-2.6083	-3.4042	-3.0104	-3.0271	-3.2542	-2.8	-3.1479	-3.3042	-2.6958	-3.4896	-2.9396	-2.9521	74.391	-146.275	-91.531	131.036	106.572	95.984	134.110	-162.214	-7.210	-15.933	87.956	13.446	-116.045	135.830	60.391	102.430	0.00037296	0.00016514	9.4965e-05	966.08	3.87e-06	3.0993e-06	1010.8	245.73	2.6086e-06	6.0884e-06	280.53	87.431	76.347	32.605	6.8022e-06	43.881	0.0011672	0.0012913	0.00035322	930.61	1.3577e-05	1.3576e-05	975.22	240.19	1.3036e-05	1.2885e-05	273.69	87.951	76.149	32.502	1.2394e-05	43.604	-108.645	-82.285	94.761	-151.700	31.870	-53.586	-152.157	-144.397	-31.624	11.520	-145.750	-140.567	-138.318	-132.018	0.291	-135.453	-8191	255	
2089.913	1	1	0	0	0.058279	0.15822	0.27921	0.27646	0.25963	0.23351	0.29032	0.054996	0.14115	0.15095	0.12339	0.26527	0.16967	0.11797	0.28738	0.17809	-3.1458	-2.5542	-3.1333	-3.4167	-2.5896	-3.1646	-3.0833	-2.9188	-3.3729	-2.7083	-3.0542	-3.3125	-2.75	-3.3563	-3.0042	-2.7062	154.755	-60.510	-1.108	161.790	-122.636	147.981	119.094	-32.997	-77.634	-73.632	18.258	-81.785	-136.373	141.072	-27.635	-60.835	0.00030425	0.00049323	0.00025776	952.15	1.0728e-06	5.1167e-06	995.62	241.04	5.6267e-06	1.4147e-05	274.5	87.563	75.784	32.306	2.6104e-06	43.571	0.0010412	0.0011247	0.00031391	912	1.2091e-05	1.2199e-05	955.46	235.58	1.209e-05	1.1991e-05	268.56	87.407	75.672	32.08	1.1842e-05	43.023	-122.291	-14.453	-14.062	-151.357	118.220	-53.490	-151.907	-144.084	11.391	-6.642	-145.706	-140.762	-138.367	-131.355	-120.923	-135.475	-8191	255	
2090.009	1	1	0	0	0.12108	0.13232	0.29382	0.23535	0.12568	0.16873	0.28846	0.24249	0.11758	0.26048	0.097911	0.08286	0.093725	0.090301	0.1115	0.055026	-3.0312	-2.9042	-2.9333	-3.2667	-2.4813	-3.1583	-3.3271	-2.8438	-3.5187	-2.7792	-2.7979	-3.4021	-2.8688	-3.0583	-3.1542	-2.7625	47.923	140.568	-105.491	-155.367	-123.319	107.037	86.336	123.972	104.447	2.915	6.488	193.761	129.647	-23.678	-150.696	-158.715	0.0002298	0.0010442	8.3498e-05	937.23	1.8436e-06	7.4301e-06	978.33	239.72	4.8576e-06	9.5542e-06	271.64	87.303	75.914	32.101	3.5856e-06	43.169	0.0010025	0.0010893	0.00030678	898.81	1.1654e-05	1.1679e-05	941.02	232.8	1.1384e-05	1.136e-05	266.02	86.997	75.116	31.946	1.1694e-05	42.73	-125.360	-65.567	-89.608	-151.103	173.209	-13.582	-151.645	-144.102	-93.178	-138.205	-145.369	-140.504	-138.026	-131.430	7.070	-135.223	-8191	255	
2090.105	1	1	0	0	0.20189	0.013879	0.13225	0.12826	0.12826	0.2535	0.10007	0.15731	0.4413	0.17767	0.086528	0.21827	0.1468	0.12739	0.17982	0.22974	-2.8187	-2.9	-2.8375	-3.4646	-2.7521	-3.1188	-3.2417	-2.7479	-3.4458	-2.9354	-2.7625	-3.4354	-2.8875	-3.0625	-3.4083	-2.5625	-105.919	166.255	-87.355	-125.320	-94.594	-54.446	-130.232	-130.794	-99.466	119.754	-17.192	163.361	91.332	-113.359	146.897	62.879	0.00032656	0.00037119	9.8354e-05	928.17	5.8196e-06	1.0615e-06	974.26	239.68	4.6299e-06	2.6441e-06	273.51	87.4	76.242	32.33	4.5744e-06	43.612	0.00099893	0.0010677	0.00030535	892.48	1.1677e-05	1.1906e-05	939.01	233.95	1.1944e-05	1.2089e-05	268.34	87.491	75.898	32.128	1.1804e-05	43.044	-109.039	-45.968	48.722	-151.061	-0.589	62.941	-151.678	-143.617	0.845	138.969	-145.282	-140.130	-137.751	-131.484	25.652	-134.772	-8191	255	
2090.224	1	1	0	0	0.3298	0.15919	0.37241	0.09446	0.13922	0.1653	0.20675	0.25456	0.056473	0.18418	0.2058	0.25567	0.010274	0.25094	0.20121	0.25773	-3.0271	-2.9854	-2.7188	-3.5333	-2.6833	-2.9833	-3.5854	-2.5896	-3.2104	-3.1396	-2.8604	-3.6042	-2.8604	-2.9625	-3.2667	-2.6479	77.318	23.152	164.445	-64.193	28.853	-1.791	-103.974	129.900	-46.901	-58.170	-128.866	126.605	-86.678	-116.599	166.304	95.641	0.00036714	0.00068017	8.3152e-05	915.66	2.4417e-06	4.657e-06	964.76	238.79	6.4436e-06	6.9861e-06	271.89	88.161	76.489	32.213	9.2849e-06	43.928	0.00098912	0.0010492	0.0002927	883.85	1.1144e-05	1.1175e-05	926.39	231.38	1.0706e-05	1.0738e-05	265.52	87.517	75.444	32	1.1158e-05	43.248	-104.272	29.542	160.141	-150.758	28.505	-5.179	-151.509	-143.659	-42.707	39.220	-145.857	-140.197	-137.900	-131.679	9.288	-134.879	-8191	255	
2090.320	1	1	0	0	0.17718	0.27702	0.29053	0.032076	0.098819	0.058353	0.13189	0.26853	0.24307	0.17646	0.29991	0.14903	0.12634	0.24478	0.18321	0.029914	-2.7958	-2.9313	-2.6792	-3.5917	-2.975	-2.7708	-3.6417	-2.7125	-3.1729	-3.2083	-2.7667	-3.4042	-2.9417	-3.0042	-3.3375	-2.6917	-63.743	-144.532	-48.615	-156.669	-67.150	-45.679	122.633	182.614	127.433	-136.086	28.532	-114.027	35.709	-112.652	-151.294	114.948	0.00027651	0.00061607	0.00012367	928.3	1.1625e-06	5.3956e-06	973.73	239.85	6.3102e-06	6.7094e-06	273.11	87.352	75.892	32.33	4.8512e-06	43.697	0.00095671	0.0010395	0.00029078	891.63	1.1259e-05	1.151e-05	939.65	233.44	1.142e-05	1.1608e-05	267.3	87.65	75.438	32.064	1.1342e-05	42.95	-102.856	-80.810	-37.625	-151.088	-94.339	84.584	-151.663	-143.579	30.585	-12.515	-145.589	-140.084	-137.288	-131.085	-21.441	-134.463	-8191	255	
2090.392	1	1	0	0	0.15363	0.095488	0.27263	0.25348	0.045491	0.12125	0.25802	0.21414	0.10388	0.16561	0.21367	0.26364	0.09481	0.10288	0.076135	0.19838	-2.9437	-3.2083	-2.675	-3.5229	-2.9708	-2.8896	-3.6458	-2.8854	-3.1458	-3.3042	-2.7208	-3.2417	-3.1771	-2.8063	-3.3396	-2.8479	188.346	-14.176	159.901	179.877	-84.993	-109.672	180.739	142.862	98.916	-15.761	-121.925	164.796	160.036	-105.265	-115.580	110.471	0.00029101	0.00054329	1.3125e-05	914.75	1.7266e-06	6.4099e-06	959.59	237.56	1.2898e-06	1.6416e-06	273.1	88.076	76.704	32.382	2.5406e-06	43.666	0.00094459	0.0010064	0.00028358	874.63	1.0902e-05	1.1231e-05	919.82	231.23	1.1221e-05	1.1437e-05	265.87	87.551	75.998	32.314	1.2176e-05	43.293	-116.451	-129.265	-10.898	-151.124	-4.897	-9.408	-151.501	-143.708	15.415	103.384	-145.039	-140.258	-137.277	-131.029	28.865	-134.598	-8191	255	
2090.512	1	1	0	0	0.20915	0.12471	0.27034	0.093508	0.039458	0.12923	0.21673	0.29872	0.22714	0.15068	0.3459	0.17561	0.14282	0.18878	0.18209	0.20326	-2.6104	-3.3125	-2.6146	-3.3875	-3.0021	-2.7542	-3.6417	-3.0312	-2.9604	-3.2375	-2.825	-3.3854	-3.2687	-2.8312	-3.4062	-2.6875	71.711	-81.845	-42.321	42.155	17.058	-134.219	179.415	110.151	-97.682	-0.601	86.628	193.545	175.668	-144.284	96.817	63.509	0.00030619	0.00071722	8.4515e-05	933.59	7.1417e-06	8.4966e-06	982.94	242.12	1.1709e-06	1.248e-06	275.11	88.056	76.433	32.64	3.7974e-06	44.105	0.0010812	0.0011613	0.00032993	895.77	1.2844e-05	1.2936e-05	944.49	236.84	1.2923e-05	1.3306e-05	271.34	88.243	76.551	32.64	1.2919e-05	43.684	-131.599	-114.714	137.863	-151.130	-14.030	0.941	-151.434	-143.874	-88.233	156.004	-145.232	-140.116	-137.705	-131.283	11.350	-135.275	-8191	255	
2090.609	1	1	0	0	0.08894	0.057667	0.092856	0.1691	0.28217	0.2844	0.093954	0.18909	0.1384	0.089881	0.36981	0.16054	0.10003	0.13751	0.040674	0.27022	-2.5563	-3.3083	-2.65	-3.0896	-3.1771	-2.5917	-3.4396	-2.7687	-2.9708	-3.5271	-2.7667	-3.2292	-3.2375	-2.7	-3.3771	-3.0208	-46.787	196.794	-128.751	13.085	108.066	14.172	-158.989	152.326	-161.569	159.240	187.864	2.654	-122.005	178.535	41.777	150.642	0.0003416	0.00020661	0.00010869	944.35	3.4175e-06	1.0662e-05	990.46	242.86	7.6644e-06	1.7145e-06	276.08	88.584	76.721	32.7	2.5343e-06	44.252	0.0010857	0.0011825	0.00033241	906.35	1.2979e-05	1.3297e-05	950.74	237.09	1.2874e-05	1.2991e-05	271.15	88.686	76.769	32.746	1.2807e-05	43.849	-123.753	136.025	103.899	-151.152	-89.709	-86.092	-151.714	-143.641	-41.353	51.412	-145.332	-139.774	-137.251	-131.244	14.988	-134.888	-8191	255	
2090.705	1	1	0	0	0.078366	0.1423	0.12739	0.15204	0.17797	0.15847	0.18072	0.14915	0.18393	0.037306	0.3302	0.098828	0.21871	0.1635	0.10391	0.16727	-2.4875	-3.4688	-2.5833	-3.1188	-3.4062	-2.6354	-3.3979	-3.0396	-2.6813	-3.4604	-2.6729	-3.0625	-3.1771	-2.5625	-3.3	-3.0687	143.406	-79.195	59.499	176.713	-138.989	-104.649	36.030	187.522	-79.960	70.342	163.261	-96.794	-38.803	-160.348	91.571	106.372	0.00026838	0.0002612	0.00013866	950.5	4.2633e-06	8.8267e-06	994.3	243.92	4.0173e-06	2.9124e-06	276.69	88.094	75.995	32.644	2.9158e-06	44.353	0.0010737	0.0011704	0.00032583	911.04	1.2347e-05	1.2593e-05	958.25	237.59	1.2497e-05	1.2427e-05	271.88	88.198	76.344	32.536	1.2272e-05	44.037	-108.355	-139.047	-20.626	-150.829	149.842	-105.017	-151.689	-143.907	-63.277	-6.039	-145.541	-140.907	-138.308	-131.956	-10.195	-134.991	-8191	255	
2090.801	1	1	0	0	0.083102	0.10857	0.21118	0.3877	0.3183	0.20877	0.18916	0.22882	0.016236	0.27827	0.10257	0.26253	0.16213	0.24139	0.15262	0.28746	-2.2792	-3.3917	-2.7292	-3.1354	-3.4833	-2.5458	-3.3771	-3.1208	-2.6667	-3.4167	-2.8438	-2.9771	-3.3417	-2.6271	-3.1625	-3.4417	-120.588	-5.353	-87.082	142.034	-83.577	-15.623	89.396	-112.427	-61.733	-98.976	69.368	-121.721	195.418	175.782	167.366	58.229	0.00028605	0.00020357	0.0001901	943.65	3.7057e-06	5.1643e-06	989.75	242.09	5.0731e-06	5.9478e-06	276.89	88.626	76.38	32.757	2.7056e-06	44.041	0.0010377	0.0011281	0.00031197	905.15	1.2034e-05	1.2271e-05	952.73	235.85	1.2157e-05	1.2127e-05	270.32	88.198	76.441	32.6	1.2225e-05	43.62	-103.083	-33.138	-88.772	-151.715	90.493	-32.903	-151.836	-143.458	20.436	-67.837	-145.297	-140.531	-138.053	-131.515	17.684	-135.241	-8191	255	
2090.897	1	1	0	0	0.18392	0.22583	0.17652	0.12672	0.13616	0.18149	0.052474	0.1351	0.15638	0.13689	0.18816	0.12315	0.29548	0.056426	0.16284	0.2015	-2.2458	-3.4271	-3.0292	-2.9146	-3.3375	-2.5625	-3.2708	-3.2396	-2.575	-3.3375	-2.9646	-2.6167	-3.6021	-2.6625	-2.9938	-3.3042	-72.381	-154.420	83.087	-133.121	88.977	109.699	-133.405	104.311	-110.475	179.603	93.925	119.244	185.326	128.462	151.345	182.032	0.0003355	0.00077596	5.095e-05	945.16	3.7788e-06	2.9391e-06	996.46	242.69	3.4182e-06	1.292e-05	273.93	87.485	76.317	32.145	4.9348e-06	43.383	0.0010546	0.001148	0.00031933	908.25	1.2597e-05	1.3162e-05	955.54	237.47	1.2702e-05	1.2747e-05	269.66	87.55	76.153	32.278	1.2625e-05	43.263	-125.136	-61.173	-109.350	-151.408	6.063	-117.915	-152.195	-144.048	-53.801	-31.361	-145.968	-140.744	-137.908	-131.270	-128.410	-134.576	-8191	255	
2090.993	1	1	0	0	0.15247	0.078373	0.22139	0.31003	0.20582	0.24138	0.32613	0.17215	0.033591	0.13013	0.14928	0.08394	0.30989	0.18852	0.12185	0.069669	-2.2542	-3.2854	-3.1042	-2.9333	-3.3792	-2.825	-3.1	-3.3625	-2.7896	-3.3104	-3.1729	-2.7604	-3.4583	-2.9042	-3.0292	-3.4021	-22.134	127.181	183.002	175.374	174.507	156.461	96.029	127.591	112.974	112.028	-140.213	29.593	-153.800	-3.565	87.112	-4.063	0.00028723	0.00028365	0.0001349	949.71	7.2745e-06	5.8467e-06	1002.5	244.81	5.9824e-06	1.056e-05	276.86	86.89	76.159	32.313	5.5162e-06	43.513	0.0010827	0.001182	0.00033015	911.58	1.3125e-05	1.3422e-05	965.43	239.36	1.3403e-05	1.3409e-05	272.42	87.355	75.998	32.274	1.3321e-05	43.228	-110.285	-58.080	-51.752	-150.910	7.464	1.581	-151.892	-144.512	20.318	-45.883	-145.335	-140.321	-137.903	-131.834	-72.279	-135.141	-8191	255	
2091.089	1	1	0	0	0.088487	0.075484	0.28336	0.39304	0.10081	0.26974	0.18111	0.39044	0.13377	0.26643	0.20863	0.27728	0.29534	0.076632	0.16015	0.20468	-2.2708	-3.325	-3.1208	-2.8167	-3.4271	-2.8208	-3.1458	-3.5104	-2.5292	-3.0229	-3.3042	-2.4083	-3.4604	-3.0812	-3.0354	-3.6396	-117.238	82.967	156.825	154.805	143.523	74.606	93.859	144.435	-34.087	-101.933	118.979	-41.361	105.393	-98.397	94.445	139.957	0.00030235	0.00071173	0.00021802	933.22	9.0828e-06	4.2997e-06	981.03	241.43	3.8002e-06	4.5332e-06	275.97	87.184	76.089	32.527	7.3806e-06	43.895	0.0011025	0.0011964	0.00033329	900.64	1.3006e-05	1.2938e-05	946.51	236.07	1.264e-05	1.2761e-05	269.94	87.629	76.056	32.381	1.3003e-05	43.715	-120.963	8.448	-71.504	-150.786	-66.544	105.518	-151.712	-143.876	-64.611	-26.421	-145.284	-139.951	-137.442	-131.388	38.070	-134.840	-8191	255	
2091.185	1	1	0	0	0.24897	0.16599	0.19972	0.23861	0.29082	0.17992	0.13736	0.23416	0.19093	0.30943	0.12543	0.27417	0.1361	0.24188	0.13453	0.18692	-2.2458	-3.0625	-3.2979	-2.7208	-3.35	-3.0417	-2.8521	-3.4604	-2.675	-3.1604	-3.3771	-2.7208	-3.3479	-2.9	-2.7125	-3.4104	-116.302	58.067	83.769	160.944	-49.926	110.625	162.082	74.018	-48.610	123.808	140.242	64.055	-128.948	-90.805	73.048	127.287	0.00032686	0.00036979	7.7188e-05	959.85	1.8441e-06	1.1638e-05	1012.2	246.3	1.4805e-06	3.6362e-06	281.02	88.271	76.292	32.958	4.0413e-06	44.116	0.0011396	0.0012701	0.00036266	923.17	1.4462e-05	1.4559e-05	979.36	242.42	1.452e-05	1.4628e-05	276.88	88.889	76.866	32.88	1.4203e-05	44.043	-132.693	-22.742	-63.499	-151.185	19.893	-4.724	-152.137	-144.328	88.717	-146.959	-145.498	-140.803	-138.078	-131.676	-56.938	-135.082	-8191	255	
2091.304	1	1	0	0	0.090396	0.039813	0.13582	0.048738	0.16454	0.085564	0.21763	0.099927	0.28838	0.21868	0.19364	0.11459	0.035354	0.060234	0.34335	0.084685	-2.3979	-2.9583	-3.2438	-2.9354	-3.1188	-3.2854	-2.85	-3.6354	-2.9688	-3.1021	-3.3708	-2.6667	-3.3354	-3.2438	-2.6375	-3.5292	105.543	139.581	85.374	-118.257	54.877	114.529	0.285	86.707	112.019	-71.788	-136.782	103.618	117.838	183.915	80.926	-156.636	0.00026013	0.00074652	7.2531e-05	950.82	1.1029e-06	3.7453e-06	995.31	243.64	2.2843e-06	4.9254e-06	273.8	86.709	76.101	32.478	1.0404e-05	43.723	0.0011692	0.0012988	0.00036087	916.83	1.3974e-05	1.3997e-05	961.62	238.8	1.3362e-05	1.3362e-05	269.96	87.184	75.831	32.421	1.2391e-05	43.164	-124.832	6.749	64.181	-151.210	33.833	14.574	-151.831	-144.273	116.689	73.290	-145.549	-140.125	-138.241	-131.311	14.217	-134.851	-8191	255	
2091.400	1	1	0	0	0.20979	0.16854	0.095138	0.31066	0.36674	0.11469	0.19304	0.12586	0.064596	0.15509	0.086409	0.07632	0.051974	0.031747	0.13002	0.22615	-2.5229	-3.1104	-3.3104	-2.9333	-3.1188	-3.3146	-2.8104	-3.6188	-2.9	-2.8646	-3.6229	-2.6729	-3.2917	-3.2458	-2.6146	-3.4792	22.204	-86.888	185.680	190.525	43.993	-10.057	123.293	69.461	-116.656	-33.381	81.768	-161.701	164.532	50.943	57.739	56.937	0.00029903	0.00036907	0.00018444	925.93	1.1862e-06	3.0895e-06	976.03	238.51	6.3155e-06	4.5687e-06	271.81	86.805	75.121	32.442	2.7212e-06	43.588	0.0010282	0.0011196	0.00030491	888.23	1.1734e-05	1.1704e-05	934.19	232.32	1.1453e-05	1.1612e-05	266.11	86.56	75.385	32.239	1.2281e-05	43.233	-121.880	-4.706	-49.446	-151.055	-92.079	21.122	-151.969	-144.108	18.030	32.118	-145.075	-140.444	-138.045	-131.420	-81.586	-135.209	-8191	255	
2091.497	1	1	0	0	0.064218	0.15386	0.07782	0.33867	0.12544	0.13461	0.15087	0.1494	0.073164	0.36778	0.24985	0.23399	0.15641	0.034003	0.27185	0.014938	-2.6063	-2.8583	-3.4437	-2.9458	-3.0375	-3.2917	-2.7062	-3.4271	-2.9021	-2.8542	-3.4667	-2.6167	-3.0271	-3.3937	-2.7042	-3.3896	-123.828	-150.165	30.241	166.473	-157.497	142.222	21.813	-69.777	182.456	109.679	181.951	24.967	151.937	180.533	-61.392	-74.935	0.00036521	0.0010521	7.391e-05	948.2	3.5079e-06	7.451e-06	992.66	241.64	2.7674e-06	5.5434e-06	274.91	86.638	75.788	32.191	6.594e-06	43.394	0.0010546	0.0011424	0.00032231	909.08	1.2601e-05	1.2555e-05	958.4	236.47	1.2325e-05	1.2541e-05	268.98	86.635	75.453	32.139	1.248e-05	43.126	-121.935	114.285	13.252	-151.410	21.146	-14.316	-152.331	-144.358	5.559	-32.987	-145.655	-140.966	-138.489	-131.493	-40.564	-135.439	-8191	255	
2091.593	1	1	0	0	0.28459	0.11759	0.04528	0.17616	0.13939	0.091324	0.18554	0.16542	0.27032	0.14637	0.051153	0.25962	0.02471	0.2215	0.15377	0.16273	-2.85	-2.8042	-3.4167	-2.8354	-2.9792	-3.2812	-2.8146	-3.3563	-3.1167	-2.8604	-3.5104	-2.7438	-2.9104	-3.5771	-2.8167	-3.1917	31.181	65.180	-119.999	134.244	-132.759	-96.617	121.360	66.651	-151.798	83.082	-69.664	-97.386	151.331	136.433	-100.758	143.193	0.00026712	0.00079134	6.7171e-05	939.51	5.8885e-06	1.356e-05	988.28	240.24	1.4569e-06	5.377e-06	274.96	87.095	75.807	32.285	5.402e-06	43.593	0.0010115	0.0011245	0.0003145	902.49	1.2101e-05	1.2284e-05	951.41	235.4	1.232e-05	1.2472e-05	270.09	87.096	75.628	32.228	1.2406e-05	43.229	-133.869	-97.454	11.575	-151.731	-14.294	-32.678	-152.157	-144.088	143.584	-69.065	-145.840	-140.751	-137.978	-131.649	41.930	-135.469	-8191	255	
2091.689	1	1	0	0	0.1446	0.35946	0.11071	0.15893	0.20209	0.010938	0.20659	0.050141	0.19572	0.2688	0.20327	0.029509	0.20299	0.22883	0.23641	0.12306	-2.7812	-2.5979	-3.4729	-3.1042	-2.8792	-3.5167	-2.6188	-3.3021	-3.1917	-2.6875	-3.4542	-2.9146	-3.0292	-3.5292	-2.8646	-3.2562	-52.373	-70.715	-19.306	162.275	-144.947	66.251	127.778	7.557	146.574	149.499	95.448	-87.723	94.006	148.708	-84.783	154.079	0.00025482	8.7266e-05	7.9528e-05	933.09	6.8083e-06	5.2351e-06	982.26	240.4	2.1152e-06	4.2553e-06	274.49	86.69	75.156	32.47	4.0651e-06	43.636	0.0010429	0.0011384	0.00031607	895.65	1.2138e-05	1.2353e-05	943.54	234.61	1.2083e-05	1.2322e-05	268.57	86.644	75.36	32.21	1.2342e-05	43.183	-111.333	-74.306	-21.772	-151.496	-46.563	79.912	-151.803	-144.232	75.484	137.108	-145.658	-140.494	-138.319	-131.264	-44.170	-135.189	-8191	255	
2091.785	1	1	0	0	0.22661	0.11663	0.060884	0.35878	0.057721	0.20872	0.16602	0.28935	0.14007	0.32935	0.1499	0.18515	0.033228	0.10391	0.19736	0.047337	-2.9146	-2.6042	-3.375	-3.075	-2.8729	-3.7146	-2.9125	-3.2167	-3.3	-2.7354	-3.4375	-3.2354	-2.7083	-3.6083	-2.8604	-3.1208	-98.652	-30.984	196.594	-157.238	-25.270	-57.023	126.310	188.929	40.770	164.302	-51.057	155.430	-26.411	196.593	125.899	-67.648	0.00034794	0.00011091	0.00017269	924.18	3.1427e-06	1.8028e-06	972.17	240.86	4.312e-06	5.4188e-06	273.61	86.733	76.016	32.469	7.536e-06	43.558	0.001046	0.0011588	0.00032224	890.16	1.2545e-05	1.2564e-05	939.42	234.45	1.2205e-05	1.2253e-05	266.62	86.261	75.301	32.14	1.1283e-05	42.878	-128.195	-106.609	-119.400	-151.091	77.960	-103.956	-152.115	-144.009	36.218	77.589	-145.441	-140.137	-137.821	-131.302	-30.566	-135.719	-8191	255	
2091.906	1	1	0	0	0.19609	0.079935	0.070713	0.21348	0.16704	0.23326	0.23521	0.48081	0.16846	0.11057	0.20152	0.20552	0.16503	0.074427	0.28805	0.22156	-2.9625	-2.5979	-3.2396	-3.1979	-2.6833	-3.4583	-3.1375	-3.0625	-3.4333	-2.7479	-3.5062	-3.2354	-2.8333	-3.5083	-2.9646	-2.9354	-33.488	38.656	165.011	93.045	76.168	148.134	112.831	128.331	85.910	129.394	148.485	111.355	55.493	149.151	178.183	-157.631	0.00031226	0.00031501	0.00021878	914.65	3.8789e-06	9.2439e-06	960.41	235.98	4.6122e-06	1.0126e-05	268.81	87.278	75.66	32.535	2.6282e-06	43.728	0.00092443	0.00099089	0.00027639	874.9	1.0488e-05	1.0678e-05	919.16	229.57	1.0357e-05	1.0776e-05	262.75	86.794	75.32	32.203	1.102e-05	43.037	-120.486	-120.727	-69.905	-151.258	-47.218	-102.369	-151.516	-143.650	35.287	-38.331	-145.578	-139.975	-137.824	-131.371	-2.146	-135.149	-8191	255	
2092.002	1	1	0	0	0.080602	0.065819	0.081133	0.20334	0.054232	0.090871	0.10554	0.068399	0.16938	0.13996	0.12859	0.24412	0.094201	0.079213	0.059475	0.1185	-3.0396	-2.7896	-3.2792	-3.2229	-2.725	-3.3479	-3.2833	-2.9458	-3.5375	-2.9583	-3.25	-3.4313	-2.8729	-3.4521	-3.1854	-2.9833	-99.743	-135.408	-39.818	-139.810	5.058	66.004	21.184	97.904	169.258	178.009	-131.593	-39.204	-127.481	45.474	-79.316	63.643	0.00031822	0.00087208	0.00021642	920.96	4.4622e-06	4.2485e-06	969.83	240.14	2.7719e-06	3.2856e-06	271.44	85.82	74.559	31.62	2.0124e-06	43.009	0.00095515	0.0010284	0.00029447	883.62	1.1447e-05	1.1544e-05	931.16	232.66	1.1415e-05	1.1531e-05	265.38	85.584	74.252	31.641	1.1012e-05	42.501	-124.400	-82.395	-44.288	-151.376	-5.060	187.633	-151.822	-144.348	-45.225	-47.036	-145.680	-140.179	-138.090	-131.586	25.939	-135.610	-8191	255	
2092.096	1	1	0	0	0.069462	0.016213	0.17644	0.37136	0.3509	0.21158	0.053829	0.27384	0.075644	0.2692	0.019	0.098082	0.042968	0.23138	0.33934	0.24854	-2.9688	-2.8187	-3.0896	-3.5625	-2.7375	-3.3875	-3.0667	-2.8167	-3.3833	-2.9021	-3.1333	-3.4667	-2.7938	-3.275	-3.2708	-2.8375	-83.705	38.179	162.726	134.627	178.358	101.872	130.069	122.372	90.034	51.795	163.138	-87.372	109.636	-150.315	-118.535	-13.304	0.00027504	0.00080856	0.00010992	915.72	1.0846e-06	4.9705e-06	961.25	237.41	3.1291e-06	5.7103e-06	271.91	86.392	75.107	32.072	1.637e-06	43.624	0.000934	0.0010172	0.00028107	874.56	1.089e-05	1.0854e-05	922.12	230.98	1.0761e-05	1.0788e-05	265.06	86.128	74.524	31.885	1.0622e-05	42.939	-109.400	-63.113	-64.118	-150.814	-50.787	120.159	-151.445	-143.752	103.733	135.940	-145.490	-140.013	-138.023	-131.517	-78.502	-134.971	-8191	255	
2092.192	1	1	0	0	0.18707	0.21666	0.18823	0.057831	0.1105	0.28895	0.18469	0.23509	0.27626	0.13487	0.18185	0.046917	0.19477	0.039202	0.087315	0.15591	-3.1125	-2.9417	-2.9667	-3.4437	-2.3521	-3.2458	-3.3854	-2.5292	-3.65	-3.0687	-2.9896	-3.4271	-2.8042	-3.25	-3.2271	-2.5021	160.881	-145.516	-151.790	124.406	-62.205	27.432	88.064	140.691	90.488	98.366	-152.294	139.841	159.478	25.131	-48.335	78.409	0.00029982	0.00027155	8.5745e-05	915.82	2.7351e-06	5.8698e-06	951.97	235.75	3.6427e-06	3.3712e-06	268.38	87.301	75.47	32.385	4.7424e-06	43.817	0.00090233	0.00097491	0.0002729	876.29	1.0506e-05	1.0473e-05	916.49	228.68	1.0066e-05	1.0191e-05	260.79	86.384	74.651	32.07	9.6056e-06	42.911	-113.874	76.287	11.856	-151.182	34.826	14.687	-151.743	-143.885	-13.100	86.913	-145.280	-140.173	-137.357	-131.103	97.908	-134.679	-8191	255	
2092.289	1	1	0	0	0.21395	0.074393	0.087758	0.12841	0.030163	0.15051	0.12246	0.25593	0.31744	0.22307	0.042596	0.017776	0.20391	0.15269	0.33994	0.10232	-3.1792	-2.8854	-2.9021	-3.7417	-2.7917	-3.1646	-3.3812	-2.8333	-3.3438	-2.9167	-2.9125	-3.5792	-2.7208	-3.1479	-3.3	-2.7938	-45.876	38.903	181.827	129.227	66.503	22.936	144.798	-160.633	-18.942	159.777	120.008	90.652	144.801	126.697	129.908	128.118	0.00036296	0.00089816	0.00010352	897.73	1.4907e-06	4.8705e-06	944.16	234.4	3.6062e-06	3.5743e-06	268.41	88.017	76.407	32.715	4.9336e-06	43.594	0.00082623	0.00088908	0.00024823	859.64	9.6962e-06	9.7124e-06	899.82	226.92	9.6334e-06	9.7947e-06	261.07	86.997	75.375	32.149	1.006e-05	42.915	-127.982	-99.579	37.634	-150.690	177.786	20.705	-151.295	-143.151	-29.716	-94.984	-145.423	-140.019	-137.314	-130.962	-110.816	-134.545	-8191	255	
#DATA ENDS
