BOXY.EXE: ISS Imagent and Oximeter Data Acquisition Program Version 0.80
Ascii Record File

#ACQ INFORMATION
2  Detector Channels 
16  External MUX Channels 
1  Auxiliary Channels 
5000  Waveform (CCF) Frequency (Hz)
1  Waveforms Skipped 
30  Waveforms Averaged 
1  Cycles Averaged 
16  Acquisitions per Waveform 
10.0806  Updata Rate (Hz) 

#FILE INFORMATION
TRUE -- External MUX Channel results are PARSED.
FALSE -- AC DC and Phase are NOT grouped.
TRUE -- Companion Program Settings File CREATED.
FALSE -- AC data not excluded
FALSE -- DC data not excluded
FALSE -- Phase data not excluded
FALSE -- Auxillary Chn. data not excluded
Tab delimiters

#CALIBRATION STATE
TRUE -- Waveform Calibration Values APPLIED.


#AUX CALIBRATION VALUES
Val Type	aux-1	

Term	1.0000e+00	
Factor	0.0000e+00	


#WF CALIBRATION VALUES
A = Detector Channel
Val Type	A-AC1	A-AC2	A-AC3	A-AC4	A-AC5	A-AC6	A-AC7	A-AC8	A-AC9	A-AC10	A-AC11	A-AC12	A-AC13	A-AC14	A-AC15	A-AC16	A-DC1	A-DC2	A-DC3	A-DC4	A-DC5	A-DC6	A-DC7	A-DC8	A-DC9	A-DC10	A-DC11	A-DC12	A-DC13	A-DC14	A-DC15	A-DC16	A-Ph1	A-Ph2	A-Ph3	A-Ph4	A-Ph5	A-Ph6	A-Ph7	A-Ph8	A-Ph9	A-Ph10	A-Ph11	A-Ph12	A-Ph13	A-Ph14	A-Ph15	A-Ph16	

Term	0.00000e+00	0.00000e+00	0.00000e+00	0.00000e+00	0.00000e+00	0.00000e+00	0.00000e+00	0.00000e+00	0.00000e+00	0.00000e+00	0.00000e+00	0.00000e+00	0.00000e+00	0.00000e+00	0.00000e+00	0.00000e+00	0.00000e+00	0.00000e+00	0.00000e+00	0.00000e+00	0.00000e+00	0.00000e+00	0.00000e+00	0.00000e+00	0.00000e+00	0.00000e+00	0.00000e+00	0.00000e+00	0.00000e+00	0.00000e+00	0.00000e+00	0.00000e+00	0.00000e+00	0.00000e+00	0.00000e+00	0.00000e+00	0.00000e+00	0.00000e+00	0.00000e+00	0.00000e+00	0.00000e+00	0.00000e+00	0.00000e+00	0.00000e+00	0.00000e+00	0.00000e+00	0.00000e+00	0.00000e+00	
Factor	1.00000e+00	1.00000e+00	1.00000e+00	1.00000e+00	1.00000e+00	1.00000e+00	1.00000e+00	1.00000e+00	1.00000e+00	1.00000e+00	1.00000e+00	1.00000e+00	1.00000e+00	1.00000e+00	1.00000e+00	1.00000e+00	1.00000e+00	1.00000e+00	1.00000e+00	1.00000e+00	1.00000e+00	1.00000e+00	1.00000e+00	1.00000e+00	1.00000e+00	1.00000e+00	1.00000e+00	1.00000e+00	1.00000e+00	1.00000e+00	1.00000e+00	1.00000e+00	X	X	X	X	X	X	X	X	X	X	X	X	X	X	X	X	

B = Detector Channel
Val Type	B-AC1	B-AC2	B-AC3	B-AC4	B-AC5	B-AC6	B-AC7	B-AC8	B-AC9	B-AC10	B-AC11	B-AC12	B-AC13	B-AC14	B-AC15	B-AC16	B-DC1	B-DC2	B-DC3	B-DC4	B-DC5	B-DC6	B-DC7	B-DC8	B-DC9	B-DC10	B-DC11	B-DC12	B-DC13	B-DC14	B-DC15	B-DC16	B-Ph1	B-Ph2	B-Ph3	B-Ph4	B-Ph5	B-Ph6	B-Ph7	B-Ph8	B-Ph9	B-Ph10	B-Ph11	B-Ph12	B-Ph13	B-Ph14	B-Ph15	B-Ph16	

Term	0.00000e+00	0.00000e+00	0.00000e+00	0.00000e+00	0.00000e+00	0.00000e+00	0.00000e+00	0.00000e+00	0.00000e+00	0.00000e+00	0.00000e+00	0.00000e+00	0.00000e+00	0.00000e+00	0.00000e+00	0.00000e+00	0.00000e+00	0.00000e+00	0.00000e+00	0.00000e+00	0.00000e+00	0.00000e+00	0.00000e+00	0.00000e+00	0.00000e+00	0.00000e+00	0.00000e+00	0.00000e+00	0.00000e+00	0.00000e+00	0.00000e+00	0.00000e+00	-8.92709e+01	-1.28825e+02	-1.24038e+02	-1.83962e+02	-5.99715e+01	-6.47401e+01	-1.57159e+02	-1.62015e+02	-5.48480e+01	-7.10995e+01	-1.70729e+02	-1.70839e+02	-1.80289e+02	-1.77652e+02	-5.59847e+01	-1.50740e+02	
Factor	1.90359e-05	1.64344e-04	4.45320e-05	1.64583e-01	1.33975e-06	1.74344e-06	1.90588e-01	5.69177e-02	1.10681e-06	1.67741e-06	9.57273e-02	3.69650e-02	2.87415e-02	1.05468e-02	1.51595e-06	1.54879e-02	3.70208e-06	4.20420e-06	1.17489e-06	8.23578e-02	4.54401e-08	4.62410e-08	8.95767e-02	2.86398e-02	4.53497e-08	4.63083e-08	4.63350e-02	1.80061e-02	1.45506e-02	5.30554e-03	4.58462e-08	7.52433e-03	X	X	X	X	X	X	X	X	X	X	X	X	X	X	X	X	



#DISTANCE SETTINGS
A = Detector Channel
A-1	A-2	A-3	A-4	A-5	A-6	A-7	A-8	A-9	A-10	A-11	A-12	A-13	A-14	A-15	A-16	

2.5000e+00	3.0000e+00	2.5000e+00	3.0000e+00	2.0000e+00	3.0000e+00	1.5000e+00	3.0000e+00	3.0000e+00	3.0000e+00	3.0000e+00	3.0000e+00	3.0000e+00	3.0000e+00	1.5000e+00	3.0000e+00	

B = Detector Channel
B-1	B-2	B-3	B-4	B-5	B-6	B-7	B-8	B-9	B-10	B-11	B-12	B-13	B-14	B-15	B-16	

1.0000e+01	1.0000e+01	1.0000e+01	1.4400e+00	1.0000e+01	1.0000e+01	1.5100e+00	1.9400e+00	1.0000e+01	1.0000e+01	1.9900e+00	2.4900e+00	2.4100e+00	2.9000e+00	1.0000e+01	2.9800e+00	




#DATA BEGINS
time	group	step	mark	flag	A-AC1	A-AC2	A-AC3	A-AC4	A-AC5	A-AC6	A-AC7	A-AC8	A-AC9	A-AC10	A-AC11	A-AC12	A-AC13	A-AC14	A-AC15	A-AC16	A-DC1	A-DC2	A-DC3	A-DC4	A-DC5	A-DC6	A-DC7	A-DC8	A-DC9	A-DC10	A-DC11	A-DC12	A-DC13	A-DC14	A-DC15	A-DC16	A-Ph1	A-Ph2	A-Ph3	A-Ph4	A-Ph5	A-Ph6	A-Ph7	A-Ph8	A-Ph9	A-Ph10	A-Ph11	A-Ph12	A-Ph13	A-Ph14	A-Ph15	A-Ph16	B-AC1	B-AC2	B-AC3	B-AC4	B-AC5	B-AC6	B-AC7	B-AC8	B-AC9	B-AC10	B-AC11	B-AC12	B-AC13	B-AC14	B-AC15	B-AC16	B-DC1	B-DC2	B-DC3	B-DC4	B-DC5	B-DC6	B-DC7	B-DC8	B-DC9	B-DC10	B-DC11	B-DC12	B-DC13	B-DC14	B-DC15	B-DC16	B-Ph1	B-Ph2	B-Ph3	B-Ph4	B-Ph5	B-Ph6	B-Ph7	B-Ph8	B-Ph9	B-Ph10	B-Ph11	B-Ph12	B-Ph13	B-Ph14	B-Ph15	B-Ph16	aux-1	digaux	

1388.123	1	1	0	256	0.17475	0.080659	0.13813	0.25415	0.2351	0.16135	0.15711	0.044464	0.20239	0.22304	0.17686	0.16091	0.14671	0.043971	0.045111	0.18233	-2.6813	-3.0042	-3.5979	-2.8937	-3.1312	-3.4333	-2.8542	-3.6937	-3.0792	-3.1125	-3.5062	-2.875	-3.2729	-3.5854	-2.9	-3.4521	263.564	223.672	240.731	272.432	237.243	49.127	-68.704	233.415	224.758	-31.791	51.167	112.194	-21.411	71.563	255.803	-49.734	2.5357e-05	0.00028824	5.3982e-05	1073.6	1.1982e-06	3.1157e-06	1174.6	212.16	9.9774e-07	9.4754e-07	272.8	77.476	60.476	18.105	2.7235e-06	25.486	0.00017383	0.00018181	4.8897e-05	1040.7	1.9052e-06	1.7781e-06	1138.7	208.54	1.8564e-06	1.8222e-06	267.57	77.601	60.314	18	1.849e-06	25.349	187.844	-7.341	-11.027	-76.879	141.823	21.382	-76.681	-69.189	105.620	164.971	-69.683	-62.863	-62.589	-55.104	98.468	-56.286	-8191	255	
1388.219	1	1	0	0	0.038446	0.11441	0.10962	0.18478	0.15664	0.24843	0.15506	0.283	0.12783	0.077432	0.1966	0.13657	0.12115	0.056054	0.28274	0.030594	-3.0062	-2.6708	-3.6479	-2.9208	-3.2	-3.45	-2.8563	-3.4688	-3.1229	-3.0042	-3.6583	-3.0167	-3.0833	-3.4021	-2.8396	-3.4521	271.529	259.697	-74.437	-67.313	154.765	-7.641	205.325	245.221	-65.099	196.166	-80.668	184.716	159.195	25.446	210.124	60.411	4.5343e-05	0.00047857	8.2142e-05	1061.1	1.8183e-06	3.6966e-06	1158.9	210.53	1.3404e-06	1.0793e-06	271.47	77.531	60.944	18.062	1.0326e-06	25.361	0.00016093	0.00016683	4.5324e-05	1030.3	1.9422e-06	1.8006e-06	1129.7	207.63	1.9149e-06	1.8695e-06	266.78	77.604	60.434	17.961	1.9503e-06	25.368	217.701	23.333	28.629	-76.764	85.984	94.191	-76.980	-69.114	116.712	-31.813	-69.268	-62.586	-62.820	-55.009	2.879	-56.021	-8191	255	
1388.315	1	1	0	0	0.25481	0.2051	0.10881	0.24456	0.094987	0.042664	0.28193	0.32283	0.081952	0.24558	0.30786	0.15237	0.045422	0.16275	0.26025	0.086189	-2.9938	-2.8937	-3.4604	-3.1729	-3.1229	-3.6125	-3.0125	-3.4646	-3.3208	-2.8458	-3.9333	-3.2687	-2.8604	-3.4104	-2.6646	-3.3125	96.791	109.561	268.329	219.997	44.553	-54.749	220.026	-62.473	52.564	-56.150	102.691	235.007	-62.698	87.292	171.188	133.984	5.0746e-05	0.00030711	2.1954e-05	1065.1	6.0368e-07	1.8711e-06	1167.7	211.25	1.4634e-06	5.6447e-06	271.2	77.149	60.661	17.979	2.588e-06	25.493	0.00017252	0.00017898	4.8653e-05	1035.1	2.011e-06	1.926e-06	1137.7	208.16	1.9706e-06	1.9977e-06	266.44	77.528	60.309	17.938	2.1027e-06	25.37	219.392	9.117	44.116	-76.894	45.547	84.340	-76.542	-69.280	82.288	55.613	-69.294	-62.204	-62.479	-55.429	106.645	-55.903	-8191	255	
1388.411	1	1	0	0	0.051183	0.079636	0.13501	0.16851	0.17197	0.24878	0.39713	0.22613	0.27782	0.22848	0.15865	0.18068	0.13477	0.13355	0.29211	0.15093	-3.0479	-2.8354	-3.6708	-3.1937	-2.9396	-3.4667	-3.075	-3.2562	-3.5875	-2.6375	-3.4437	-3.3187	-3.0062	-3.6375	-3.0354	-3.0083	-70.330	-3.648	172.363	223.040	229.862	253.671	239.845	247.243	-20.349	-56.378	235.957	-77.116	220.180	-83.987	-26.584	158.234	4.3858e-05	0.00024846	0.00010077	1068.6	2.6682e-06	3.6934e-06	1166.8	211.86	1.2104e-06	4.9984e-06	272.55	77.727	61.455	18.083	6.2971e-07	25.611	0.00019329	0.00019926	5.7748e-05	1034.8	2.4973e-06	2.627e-06	1140.2	208.74	3.0397e-06	3.3288e-06	269.57	78.595	61.579	18.367	4.42e-06	25.981	203.996	35.882	-2.640	-76.868	94.105	68.530	-76.237	-68.918	141.007	25.703	-69.914	-63.163	-62.446	-55.453	63.120	-55.813	-8191	255	
1388.507	1	1	0	0	0.15722	0.24406	0.21177	0.21623	0.12175	0.17253	0.082065	0.19849	0.080083	0.076929	0.066498	0.16521	0.20312	0.044032	0.069478	0.13785	-3.3042	-2.8312	-3.525	-3.4167	-3.0812	-3.5875	-3.0812	-3.2479	-3.7479	-2.6104	-3.4542	-3.4021	-3.0417	-3.6437	-3.0708	-3.1042	-14.938	155.791	103.707	136.059	264.658	-31.276	216.024	-25.947	-2.343	-63.180	220.727	38.850	17.131	195.176	256.674	-19.433	4.9757e-05	0.00045079	0.00012174	1083.5	2.5499e-06	3.6584e-06	1185.3	215.51	5.9202e-07	1.2677e-06	275.57	78.596	61.472	18.105	2.1808e-06	25.603	0.00039709	0.00042577	0.00011311	1056.8	4.1756e-06	3.6488e-06	1156.4	212.18	3.1707e-06	3.0334e-06	270.66	78.674	61.253	18.236	2.6173e-06	25.651	217.166	-25.522	124.184	-77.070	52.637	58.715	-76.752	-69.137	6.295	-57.946	-69.384	-62.107	-62.034	-55.090	-1.236	-55.249	-8191	255	
1388.628	1	1	0	0	0.04688	0.10024	0.091788	0.19913	0.1673	0.17577	0.06369	0.12153	0.13451	0.075638	0.11071	0.19286	0.23044	0.13976	0.093657	0.24633	-3.3	-2.7812	-3.2958	-3.5271	-2.9042	-3.6604	-3.2188	-2.95	-3.6521	-2.9479	-3.2479	-3.4167	-2.8083	-3.5771	-3.2979	-3.0062	-68.497	146.506	-37.500	-43.477	-39.480	153.687	115.022	-12.454	-47.705	171.963	183.466	155.017	167.754	-46.274	-74.547	58.172	5.4398e-05	0.00026215	6.5595e-05	1071	2.0074e-06	3.4769e-06	1173.2	211.4	1.7162e-06	2.8825e-06	270.75	76.882	60.595	18.12	3.6755e-06	25.407	0.00021482	0.00021945	5.8223e-05	1041.2	2.1433e-06	1.9034e-06	1135.1	208.22	1.8539e-06	1.8957e-06	264.91	77.213	60.19	17.961	1.9608e-06	25.264	192.257	33.676	10.921	-76.733	21.724	58.789	-76.397	-69.079	65.700	55.476	-69.076	-62.002	-62.258	-54.636	53.279	-56.007	-8191	255	
1388.722	1	1	0	0	0.17582	0.26469	0.036249	0.072009	0.20821	0.087853	0.079069	0.046937	0.11609	0.073125	0.30568	0.14596	0.057896	0.12489	0.18132	0.21179	-3.2271	-2.7625	-3.1875	-3.7542	-2.7708	-3.5812	-3.2979	-2.8208	-3.6458	-2.9167	-3.3583	-3.5396	-2.9292	-3.4083	-3.2979	-2.8208	150.822	144.776	53.658	245.810	76.130	-78.259	249.480	63.669	225.326	-18.678	234.755	206.708	263.654	244.420	105.236	157.867	5.7776e-05	0.00021223	8.0142e-05	1062.3	1.464e-06	2.8339e-06	1170.1	211.97	5.4279e-07	3.2657e-06	272.99	77.582	60.97	18.125	2.5665e-06	25.252	0.00018429	0.00018463	5.2192e-05	1035.1	2.1618e-06	2.0666e-06	1137.2	208.76	2.0924e-06	2.136e-06	266.58	77.596	60.609	18.085	2.0883e-06	25.347	269.950	-14.862	37.786	-77.143	137.528	36.273	-76.539	-68.971	126.529	-38.752	-69.432	-62.431	-62.660	-54.741	104.970	-55.484	-8191	255	
1388.818	1	1	0	0	0.090992	0.099129	0.0022985	0.1068	0.046492	0.12392	0.20497	0.029079	0.030195	0.043167	0.052502	0.11966	0.064949	0.062674	0.12082	0.1479	-3.4062	-2.7812	-3.0896	-3.6479	-2.7729	-3.4896	-3.5	-2.8792	-3.5542	-3.1229	-3.1562	-3.7646	-2.9375	-3.4646	-3.3708	-2.8396	39.398	-43.392	180.000	230.182	138.366	264.186	189.162	185.253	212.041	-24.397	140.709	162.957	260.187	-53.038	41.764	-69.086	5.6809e-05	7.4247e-05	4.6889e-05	1067.6	1.8149e-06	3.2935e-06	1164.4	211.33	1.5131e-06	4.9628e-06	271.17	77.125	60.295	17.903	1.8495e-06	25.235	0.00018225	0.00018599	5.3102e-05	1034.2	2.1252e-06	2.0281e-06	1134.5	207.54	2.086e-06	2.0936e-06	264.69	77.07	60.224	17.883	2.1501e-06	25.289	210.312	272.916	-48.118	-77.087	72.901	59.716	-76.666	-68.909	-22.854	24.515	-69.665	-62.811	-62.156	-55.293	173.531	-55.697	-8191	255	
1388.915	1	1	0	0	0.1461	0.23481	0.17164	0.19193	0.23836	0.22433	0.14881	0.17079	0.10294	0.29299	0.22794	0.048264	0.11484	0.16373	0.12331	0.10084	-3.1979	-3.0917	-3.0521	-3.775	-2.9521	-3.25	-3.6	-2.8479	-3.5604	-3.1625	-3.0812	-3.5354	-3.0354	-3.1729	-3.4146	-2.8479	216.909	-31.781	232.873	220.539	-54.435	43.031	195.165	197.540	115.575	51.702	70.804	108.155	13.801	206.442	2.417	-13.507	6.7963e-05	0.00034558	6.2789e-05	1072.9	9.2052e-07	2.6521e-06	1176	212.13	4.748e-07	2.6906e-06	272.75	77.728	60.8	17.918	2.4531e-06	25.507	0.00018819	0.00019761	5.4784e-05	1039.9	2.2074e-06	2.0612e-06	1144.1	208.58	2.141e-06	2.0581e-06	266.65	77.813	60.611	17.998	2.16e-06	25.486	234.654	15.133	56.085	-76.874	149.618	122.723	-76.412	-69.178	19.362	40.757	-69.860	-63.185	-62.334	-55.476	99.560	-56.166	-8191	255	
1389.011	1	1	0	0	0.13788	0.15748	0.18494	0.097407	0.12345	0.22726	0.36062	0.16398	0.23996	0.14427	0.047007	0.13721	0.16812	0.31597	0.12498	0.23661	-3.1333	-3.1583	-2.8792	-3.8	-2.8438	-3.0833	-3.6271	-2.9542	-3.45	-3.3292	-2.7979	-3.5542	-3.0271	-3.0438	-3.6875	-2.8521	49.721	-13.949	185.017	184.347	148.510	180.648	114.768	78.691	218.925	25.271	230.049	185.874	172.077	25.323	259.301	254.877	5.9183e-05	0.00031746	2.7676e-05	1085.4	1.4272e-06	1.5739e-06	1191.2	214.1	9.1531e-07	4.8815e-06	275.41	78.825	61.626	17.952	3.1043e-06	25.76	0.00019476	0.00019562	5.7594e-05	1053.4	2.2997e-06	2.2847e-06	1157.9	210.65	2.4096e-06	2.3893e-06	269.78	78.821	61.447	18.185	2.5116e-06	25.691	233.441	-78.859	-52.237	-77.004	76.290	88.220	-76.622	-69.181	119.202	62.933	-69.525	-62.522	-62.666	-55.062	124.572	-55.452	-8191	255	
1389.107	1	1	0	0	0.21724	0.011275	0.079342	0.10923	0.23093	0.11792	0.16996	0.28366	0.024488	0.1579	0.16851	0.14786	0.20327	0.2016	0.23678	0.21789	-2.9	-3.4896	-2.7812	-3.7583	-3.1104	-3.0771	-3.7708	-2.7646	-3.3833	-3.4896	-2.9917	-3.5667	-3.2938	-3.1813	-3.5563	-2.9083	269.806	12.931	263.598	247.786	170.043	59.107	260.876	159.703	-19.804	180.704	248.956	58.783	202.013	171.728	124.834	229.211	6.8918e-05	0.00053663	4.2442e-05	1088.9	4.4732e-07	4.2608e-06	1192.9	213.41	1.5844e-06	2.8155e-06	276.94	78.288	61.71	18.187	1.293e-06	25.577	0.00021776	0.00022632	6.2952e-05	1058	2.5381e-06	2.4734e-06	1162.1	210.89	2.4648e-06	2.4115e-06	270.97	78.398	61.471	18.267	2.3642e-06	25.62	232.376	-22.467	251.728	-76.874	25.357	14.260	-76.524	-68.974	58.134	100.976	-69.835	-62.900	-62.365	-55.636	81.870	-56.086	-8191	255	
1389.228	1	1	0	0	0.16143	0.1003	0.15339	0.23608	0.086188	0.03827	0.26058	0.10936	0.34883	0.020018	0.10748	0.23535	0.16408	0.10718	0.14553	0.034307	-2.9729	-3.4521	-2.8958	-3.5687	-3.3167	-3.1542	-3.8396	-2.9313	-3.2354	-3.4854	-2.9708	-3.5104	-3.2687	-2.9667	-3.475	-3.1417	-77.928	15.432	213.640	199.577	16.794	271.357	85.031	253.643	-65.061	194.515	221.150	0.916	97.514	271.409	104.367	-79.737	6.7165e-05	0.00031088	3.0531e-05	1090.6	2.8668e-06	2.1252e-06	1190.9	215.01	2.7762e-07	8.0347e-07	274.58	78.271	61.782	18.236	4.0611e-07	25.644	0.0002095	0.00021485	6.1026e-05	1057.7	2.3891e-06	2.3992e-06	1158	211.56	2.3996e-06	2.4197e-06	270.15	78.529	61.519	18.289	2.452e-06	25.625	234.471	12.673	95.586	-76.999	46.395	38.127	-76.736	-69.444	221.529	21.275	-69.642	-62.425	-62.240	-55.483	138.765	-55.561	-8191	255	
1389.324	1	1	0	0	0.10382	0.15337	0.13328	0.21323	0.082825	0.27298	0.06025	0.13244	0.20366	0.071124	0.14411	0.049417	0.15553	0.11512	0.24575	0.12069	-2.725	-3.5958	-2.6146	-3.5167	-3.3979	-2.8667	-3.7687	-3.0708	-3.1396	-3.3167	-2.8292	-3.2687	-3.5021	-2.8229	-3.6292	-3.0687	71.661	210.732	105.259	-63.279	76.095	-28.701	179.855	195.103	147.615	-42.440	148.767	-30.484	119.462	-57.747	-56.766	244.479	4.9952e-05	0.00013305	5.2862e-05	1088.9	1.8728e-06	4.6384e-06	1190.4	214.53	1.7808e-06	3.0074e-06	275.72	78.632	61.599	18.311	2.9076e-06	25.72	0.00021539	0.00022634	6.3603e-05	1056.6	2.4807e-06	2.4895e-06	1154.8	211.13	2.5192e-06	2.431e-06	270.33	78.566	61.342	18.298	2.6333e-06	25.701	211.850	234.619	30.683	-76.999	68.922	72.720	-76.773	-69.290	-52.280	127.273	-69.437	-62.373	-62.394	-55.247	33.258	-55.499	-8191	255	
1389.420	1	1	0	0	0.22696	0.22914	0.22324	0.29599	0.031278	0.20061	0.21459	0.17718	0.094042	0.12693	0.12509	0.16966	0.084796	0.07599	0.20095	0.10627	-2.5771	-3.4854	-2.8229	-3.3417	-3.4875	-2.8312	-3.6604	-3.1583	-2.9375	-3.6312	-2.9375	-3.2292	-3.6625	-2.7	-3.5438	-3.1083	199.540	87.532	51.779	251.760	7.811	-70.943	-26.013	46.075	162.621	-32.453	152.817	220.370	-49.647	181.441	186.118	237.447	5.054e-05	0.00019756	9.2422e-05	1080.8	1.7984e-06	3.4473e-06	1183.6	213.9	1.3511e-06	1.8872e-06	276.53	78.293	61.874	18.257	4.7867e-06	25.727	0.0002392	0.00024588	7.0645e-05	1053.8	2.8913e-06	2.8078e-06	1154.2	210.96	2.971e-06	2.9389e-06	271.23	78.857	61.7	18.337	3.0004e-06	25.804	218.456	-19.930	-31.456	-76.806	161.022	-18.594	-77.054	-69.096	120.091	47.228	-69.382	-62.664	-62.225	-55.265	116.509	-55.862	-8191	255	
1389.492	1	1	0	0	0.258	0.21414	0.086484	0.11011	0.32939	0.13113	0.33584	0.12738	0.050495	0.36793	0.09065	0.18592	0.22393	0.075427	0.14322	0.060317	-2.5896	-3.7333	-2.9896	-3.3604	-3.625	-2.8208	-3.4396	-3.3604	-2.8563	-3.6312	-3.0875	-3.1917	-3.5687	-2.8854	-3.1708	-3.5104	99.561	54.073	39.376	-37.151	139.859	-10.530	218.784	155.324	-10.707	-60.262	-1.078	158.782	48.071	69.403	-24.249	55.252	5.7334e-05	0.00021473	9.759e-05	1090.1	9.9368e-07	1.1149e-06	1193.2	214.98	8.7284e-07	3.399e-06	274.7	78.155	62.069	18.338	3.0904e-06	25.656	0.00027501	0.00028794	8.0803e-05	1059.3	3.349e-06	3.3083e-06	1162.2	212.4	3.3065e-06	3.2747e-06	271.55	79.01	61.891	18.369	3.1568e-06	25.831	221.636	12.656	27.529	-77.099	97.756	-68.115	-76.692	-69.219	32.506	46.849	-69.369	-62.536	-62.733	-55.418	77.750	-55.357	-8191	255	
1389.610	1	1	0	0	0.39459	0.1005	0.046564	0.15706	0.13764	0.065426	0.15579	0.088632	0.24574	0.25696	0.12555	0.28962	0.19546	0.22193	0.15671	0.14585	-2.4437	-3.5083	-3.0354	-3.0458	-3.7062	-2.8354	-3.6042	-3.4437	-2.8396	-3.6063	-3.0187	-3.0854	-3.5271	-3.0708	-3.0333	-3.4104	126.598	54.319	26.991	203.567	54.471	193.230	80.409	-42.834	-14.068	96.282	220.437	154.602	238.990	-23.288	91.758	35.868	4.7433e-05	0.00032809	8.0817e-05	1089.4	9.1206e-07	8.6543e-07	1185.6	213.81	1.5449e-06	2.4627e-06	275.52	79.022	62.069	18.271	2.662e-06	25.723	0.00027148	0.00027831	7.7533e-05	1058.4	3.0182e-06	3.0046e-06	1158.8	211.96	3.0331e-06	2.9251e-06	270.87	79.083	61.843	18.307	3.0357e-06	25.746	223.454	38.290	-34.097	-77.188	83.406	224.443	-76.535	-69.133	140.557	100.293	-69.564	-62.789	-62.665	-55.582	125.821	-55.785	-8191	255	
1389.707	1	1	0	0	0.071405	0.13142	0.06031	0.19048	0.10347	0.10345	0.16259	0.069949	0.032363	0.11473	0.26797	0.068281	0.10222	0.095488	0.076121	0.19759	-2.5021	-3.5458	-3.125	-3.0125	-3.6271	-2.8521	-3.3542	-3.5333	-2.7979	-3.6146	-3.5146	-2.725	-3.5521	-2.9625	-3.2021	-3.6375	-15.790	-41.604	66.802	262.619	183.239	168.205	256.670	207.083	-12.913	47.369	154.379	-68.999	183.026	173.353	-72.756	-24.374	7.2191e-05	0.00015923	9.7722e-05	1092	5.1094e-07	1.3177e-06	1187.1	214.79	1.1051e-06	3.1828e-06	275.94	78.862	61.816	18.28	2.4303e-06	25.597	0.00025888	0.00026899	7.5675e-05	1060.8	2.982e-06	3.0044e-06	1160.2	212.6	3.055e-06	3.0209e-06	270.97	78.969	61.844	18.328	3.1058e-06	25.783	225.220	-26.148	52.144	-76.889	168.155	112.178	-76.850	-69.022	143.467	30.718	-69.717	-62.841	-62.213	-54.911	106.580	-55.456	-8191	255	
1389.803	1	1	0	0	0.11382	0.12013	0.18139	0.16114	0.17712	0.10617	0.36986	0.204	0.17085	0.27085	0.2805	0.22413	0.066293	0.24366	0.2477	0.12679	-2.4792	-3.3	-3.2667	-2.9854	-3.6729	-2.9896	-3.3417	-3.6354	-2.7854	-3.5792	-3.425	-2.8438	-3.6354	-2.9667	-3.05	-3.4396	-76.927	-67.813	261.071	-72.444	89.109	116.516	197.858	173.804	235.724	-68.336	219.897	214.794	-73.320	-30.755	132.061	141.373	7.074e-05	0.00015831	4.0887e-05	1092.7	2.4552e-06	4.8566e-06	1189.6	214.74	3.0335e-06	4.488e-06	276.34	78.527	62.059	18.208	2.3618e-06	25.685	0.00026247	0.00028161	7.6835e-05	1062.4	3.0298e-06	3.0121e-06	1162	212.17	2.9604e-06	2.8975e-06	270.55	78.742	61.756	18.298	2.9828e-06	25.799	226.238	29.319	62.800	-76.776	98.731	106.858	-76.703	-69.288	166.132	84.501	-69.499	-62.633	-62.321	-54.910	90.751	-55.418	-8191	255	
1389.899	1	1	0	0	0.024865	0.035946	0.1446	0.14692	0.25635	0.13928	0.14737	0.21201	0.17689	0.12755	0.22139	0.13943	0.10288	0.1653	0.27926	0.16803	-2.3583	-3.1708	-3.1979	-3.0583	-3.3771	-3.3729	-3.0312	-3.6229	-3.1375	-3.4042	-3.5187	-2.8792	-3.3812	-3.2479	-2.725	-3.7625	198.483	-72.402	121.323	41.150	244.484	235.500	138.608	104.173	193.701	6.481	270.277	86.530	135.542	260.191	66.526	128.055	4.7095e-05	0.00038972	4.0202e-05	1089.4	3.379e-06	5.9948e-06	1187.3	214.61	1.3845e-06	2.7148e-06	275.95	78.387	61.699	18.225	2.8283e-06	25.548	0.0002587	0.00026787	7.3616e-05	1057.8	3.0233e-06	2.8756e-06	1158.7	212.04	2.9165e-06	2.8899e-06	270.57	78.5	61.463	18.276	2.8517e-06	25.683	213.882	7.234	81.000	-76.931	-18.772	77.226	-76.578	-69.041	97.841	98.067	-69.506	-62.909	-62.598	-55.318	85.177	-55.581	-8191	255	
1390.019	1	1	0	0	0.070336	0.13299	0.25161	0.026149	0.037269	0.12224	0.3134	0.21696	0.13574	0.072383	0.20191	0.098259	0.21625	0.21755	0.29713	0.18451	-2.5396	-3.1063	-3.2917	-2.8479	-3.3083	-3.1958	-3.1021	-3.4854	-3.0667	-3.1	-3.5333	-2.7729	-3.3625	-3.3729	-2.8521	-3.6417	232.699	157.451	43.150	99.053	28.256	103.045	230.949	-61.868	101.304	161.609	206.632	-14.191	214.472	240.631	13.092	216.449	8.7935e-05	0.00043755	6.8875e-05	1084	5.9041e-07	3.4137e-06	1185.5	215.26	2.0496e-06	8.1886e-07	273.8	78.305	61.526	18.18	2.8003e-06	25.56	0.00025072	0.00026221	7.1857e-05	1055.9	2.9012e-06	2.8241e-06	1155.6	211.86	2.7299e-06	2.7328e-06	269.22	78.284	61.21	18.152	2.6888e-06	25.514	212.648	9.730	7.407	-77.308	104.363	108.429	-76.695	-68.825	127.117	51.468	-69.551	-62.436	-62.323	-55.348	110.266	-56.048	-8191	255	
1390.091	1	1	0	0	0.14459	0.2831	0.31209	0.24589	0.17414	0.05813	0.040216	0.17493	0.088928	0.13626	0.21421	0.13656	0.051824	0.16195	0.36793	0.09675	-2.6583	-2.9562	-3.5833	-2.9167	-3.2146	-3.2354	-3.0521	-3.6646	-3.0792	-3.0104	-3.6521	-2.825	-3.1958	-3.3271	-2.9479	-3.4313	11.815	-69.400	122.677	225.902	28.537	205.902	188.001	158.996	206.067	133.248	232.641	229.014	4.807	76.334	229.897	60.941	6.1753e-05	0.00041139	2.6821e-05	1081.4	2.5084e-06	2.3301e-06	1177.8	213.99	2.5396e-06	2.6317e-06	273.01	77.938	60.872	18.094	4.5194e-06	25.377	0.00022634	0.00023208	6.4141e-05	1049.1	2.5637e-06	2.5323e-06	1150.6	210.34	2.5512e-06	2.5576e-06	268.21	77.954	60.956	18.09	2.5956e-06	25.495	199.234	104.949	-1.956	-76.926	22.571	50.417	-76.606	-69.033	86.631	-31.225	-69.040	-63.145	-62.165	-55.278	130.378	-55.772	-8191	255	
1390.187	1	1	0	0	0.11592	0.027768	0.24609	0.23387	0.052164	0.079571	0.19868	0.12797	0.15514	0.2585	0.12327	0.12305	0.1428	0.17085	0.25717	0.17671	-2.6604	-2.7875	-3.5208	-3.1396	-3.0812	-3.4333	-2.85	-3.6188	-3.2625	-2.7896	-3.5854	-2.9479	-3.2812	-3.2938	-2.7521	-3.4542	198.970	35.903	87.309	256.424	79.925	-24.068	271.481	177.050	-22.455	229.951	-24.412	127.789	-74.438	-60.829	160.847	157.629	5.5918e-05	0.00035232	7.0862e-05	1078.1	1.7307e-06	2.4975e-06	1179.2	212.93	1.8552e-06	2.3557e-07	274.04	77.835	61.422	18.063	1.2536e-06	25.466	0.00022605	0.00023223	6.5255e-05	1048.8	2.6255e-06	2.5197e-06	1150.5	210.27	2.5885e-06	2.5476e-06	268.65	78.145	61.169	18.161	2.6466e-06	25.468	197.761	-15.282	23.134	-77.108	-38.487	112.725	-76.621	-68.913	74.637	-10.152	-69.614	-62.586	-62.464	-55.274	105.046	-55.755	-8191	255	
1390.308	1	1	0	0	0.1323	0.23127	0.28364	0.051711	0.2286	0.20358	0.35467	0.22152	0.0872	0.21358	0.056713	0.10618	0.084803	0.022079	0.18003	0.11109	-3.1146	-2.8875	-3.5958	-2.9646	-3.1229	-3.7125	-2.9437	-3.4625	-3.3292	-2.7188	-3.5062	-3.2021	-3.1021	-3.4062	-2.8542	-3.2833	73.630	264.213	-59.389	163.734	-9.410	-4.360	193.087	179.546	-52.101	127.896	-70.215	121.696	152.968	46.725	-31.431	-30.609	5.3743e-05	0.00024722	2.005e-05	1081.1	1.5003e-06	2.665e-06	1179.1	212.84	1.0058e-06	1.9623e-06	273.96	77.632	61.068	18.123	4.7659e-07	25.429	0.00022826	0.00024537	6.5204e-05	1052	2.6686e-06	2.5744e-06	1151.9	210.05	2.571e-06	2.5791e-06	268.29	78.092	60.986	18.128	2.5331e-06	25.489	199.043	37.011	77.712	-77.180	10.568	101.440	-76.872	-69.189	111.218	65.905	-69.431	-62.881	-62.517	-55.300	-53.427	-56.065	-8191	255	
1390.404	1	1	0	0	0.11841	0.12684	0.16722	0.35341	0.092838	0.25076	0.082337	0.3903	0.19917	0.11546	0.043691	0.080528	0.058948	0.061899	0.19844	0.17848	-2.9979	-2.8771	-3.5812	-3.2167	-2.9292	-3.5229	-2.8542	-3.4458	-3.3438	-2.65	-3.625	-3.0667	-3.0062	-3.5917	-2.8854	-3.2646	-77.427	118.345	217.803	241.124	106.231	256.202	271.311	119.433	42.530	210.133	228.990	29.477	127.859	150.096	180.155	-49.741	5.1215e-05	0.00012046	1.1452e-05	1078.6	2.4882e-07	2.6032e-06	1180.9	213.25	8.1677e-07	1.8431e-06	272.75	77.849	60.917	17.982	3.9324e-06	25.283	0.00022121	0.00023318	6.3601e-05	1048.2	2.6369e-06	2.5036e-06	1148.9	209.72	2.6003e-06	2.5823e-06	268.11	77.798	60.837	18.063	2.6264e-06	25.469	221.064	11.369	-22.003	-76.637	149.451	124.841	-76.609	-69.169	51.800	71.633	-69.537	-62.768	-62.501	-55.504	68.444	-56.241	-8191	255	
1390.500	1	1	0	0	0.063319	0.2577	0.25664	0.38256	0.16631	0.26933	0.22827	0.19031	0.060733	0.08977	0.15791	0.17371	0.28116	0.19622	0.39744	0.07172	-3.2667	-2.6792	-3.5083	-3.3625	-2.7958	-3.4833	-3.0062	-3.0125	-3.5438	-2.7458	-3.3896	-3.2167	-2.9729	-3.5563	-3.1625	-3.2083	175.364	-72.697	67.227	260.895	-45.097	56.060	189.334	108.627	256.310	165.699	-40.185	9.064	-73.522	202.464	217.046	239.776	4.0628e-05	0.00011549	6.6998e-05	1078.3	2.772e-06	1.9157e-06	1175.5	213.54	2.2325e-06	1.9111e-06	274.17	77.922	61.541	18.007	3.0933e-06	25.474	0.00022967	0.0002432	6.6083e-05	1047.4	2.6809e-06	2.5981e-06	1147.7	210.04	2.612e-06	2.6593e-06	268.61	78.009	61.06	18.063	2.5879e-06	25.449	213.347	56.154	-5.145	-77.039	87.770	15.161	-76.832	-68.882	135.319	36.691	-69.723	-62.707	-62.199	-55.574	24.551	-56.098	-8191	255	
1390.619	1	1	0	0	0.44394	0.19006	0.13603	0.25427	0.022051	0.11845	0.11042	0.14792	0.25859	0.29679	0.11609	0.1084	0.048388	0.16724	0.20579	0.13932	-3.1854	-2.85	-3.2792	-3.4917	-2.8458	-3.4271	-3.3187	-3.0104	-3.5625	-2.8438	-3.3125	-3.4979	-2.7208	-3.6542	-3.1125	-3.0604	-72.258	120.291	132.083	119.589	210.514	270.619	169.833	210.341	219.248	152.093	66.188	209.914	62.177	-84.181	-38.037	46.020	9.8203e-05	0.00025966	1.1573e-05	1079	8.604e-07	2.4698e-06	1178.7	213.33	5.5395e-07	5.5048e-06	274.1	77.4	61.29	18.24	2.2787e-06	25.413	0.0002226	0.00023495	6.3084e-05	1046.8	2.5428e-06	2.529e-06	1147.1	210	2.5317e-06	2.5071e-06	268.13	77.913	60.902	18.136	2.5321e-06	25.453	205.327	-13.162	222.664	-76.918	115.949	66.097	-76.639	-69.250	55.019	95.821	-69.133	-62.623	-62.379	-55.097	6.108	-55.791	-8191	255	
1390.715	1	1	0	0	0.091886	0.080718	0.11126	0.051908	0.057507	0.15045	0.19562	0.34253	0.16185	0.19783	0.070594	0.20312	0.13359	0.1212	0.044932	0.1004	-3.1625	-2.9708	-3.2229	-3.6979	-2.8083	-3.4729	-3.0875	-3.0687	-3.525	-2.925	-3.4229	-3.7167	-2.6688	-3.6292	-3.2479	-3.0854	204.732	4.476	-57.867	207.992	103.606	114.884	183.982	205.919	251.904	145.618	91.738	-48.683	94.440	-82.001	-7.421	196.907	9.6486e-05	0.00013239	4.907e-05	1080.7	1.0479e-06	2.312e-06	1176.7	212.4	2.8309e-06	1.1526e-06	272.29	77.231	61.003	18.022	3.1158e-06	25.23	0.00021967	0.00022186	6.2002e-05	1047	2.5338e-06	2.4232e-06	1145.2	209.68	2.3551e-06	2.3615e-06	267.29	77.464	60.64	18.01	2.2518e-06	25.322	205.437	-59.149	-21.742	-77.023	2.104	71.238	-76.587	-68.994	57.299	127.530	-69.259	-62.633	-62.349	-55.216	99.349	-55.366	-8191	255	
1390.787	1	1	0	0	0.10793	0.050681	0.17484	0.26977	0.22062	0.13368	0.16113	0.35033	0.13747	0.20001	0.22465	0.06537	0.16755	0.09927	0.19617	0.16187	-3.2875	-3.025	-3.1021	-3.6354	-2.8667	-3.5187	-3.5687	-2.9729	-3.7208	-3.0208	-3.0687	-3.625	-3.0604	-3.55	-3.5125	-2.7687	233.972	102.344	2.519	235.668	243.447	236.267	159.883	229.554	131.215	-41.187	34.569	187.434	194.175	181.277	-74.843	-77.576	5.1762e-05	0.00010741	4.2209e-05	1072.6	2.2777e-06	4.5515e-06	1169.6	211.58	8.1512e-07	2.1363e-06	271.93	77.215	60.921	17.868	3.8246e-06	25.394	0.00020054	0.00020854	5.6664e-05	1039.4	2.2965e-06	2.2055e-06	1139	208.28	2.266e-06	2.2637e-06	265.97	77.495	60.491	17.933	2.2882e-06	25.342	196.365	-36.549	80.283	-76.842	71.691	52.620	-76.545	-69.032	146.032	76.640	-69.451	-62.043	-62.298	-54.889	106.055	-55.865	-8191	255	
1390.908	1	1	0	0	0.17704	0.14558	0.17966	0.072809	0.20654	0.17415	0.22929	0.17298	0.086309	0.10863	0.13535	0.096644	0.15647	0.12468	0.083613	0.12199	-3.3396	-3.0479	-2.8667	-3.7375	-2.7458	-3.2958	-3.4167	-2.9083	-3.5854	-3.1125	-2.95	-3.7562	-2.8937	-3.3833	-3.7188	-2.9458	131.189	35.774	246.144	172.588	1.346	170.021	185.041	-65.858	185.949	16.433	239.887	153.244	163.938	55.194	150.482	176.094	8.6338e-05	0.00052246	8.4317e-05	1066.2	9.1077e-07	4.9038e-06	1168.9	210.98	6.1515e-07	5.0958e-06	272.71	77.362	61.146	17.993	2.3578e-06	25.444	0.00020601	0.00022071	6.166e-05	1038.3	2.4748e-06	2.4182e-06	1139.9	208.01	2.4787e-06	2.4548e-06	266.42	77.519	60.717	18.049	2.4837e-06	25.451	217.035	0.009	0.131	-77.014	46.349	39.670	-76.652	-69.125	101.330	23.293	-69.364	-62.787	-62.186	-55.256	78.514	-55.465	-8191	255	
1391.004	1	1	0	0	0.34539	0.1017	0.1163	0.19789	0.18184	0.10659	0.22488	0.047862	0.17115	0.12903	0.24174	0.11359	0.14662	0.10693	0.13929	0.068526	-3.1125	-3.2062	-2.9792	-3.9	-3.0146	-3.1375	-3.7417	-2.9521	-3.4708	-3.1521	-2.9792	-3.6979	-2.9896	-2.9813	-3.6688	-2.9562	103.626	207.532	181.727	266.434	-32.106	-73.285	220.937	-41.065	252.232	251.309	270.383	222.053	-83.604	124.517	194.953	272.360	5.2734e-05	3.1452e-05	0.00010494	1071.9	3.4168e-07	3.4007e-06	1173.5	211.9	1.0573e-06	2.1361e-06	272.25	77.815	60.808	18.1	1.365e-06	25.419	0.00021815	0.00022787	6.3809e-05	1042	2.5441e-06	2.4624e-06	1143.3	208.7	2.5145e-06	2.4871e-06	267.51	77.698	60.669	18.072	2.4596e-06	25.443	202.074	116.046	51.162	-76.767	-17.881	94.508	-76.566	-69.206	75.122	67.547	-69.674	-62.995	-62.509	-55.282	67.361	-55.831	-8191	255	
1391.100	1	1	0	0	0.14526	0.015607	0.11331	0.1102	0.09594	0.27188	0.03002	0.39395	0.053389	0.084969	0.19365	0.08576	0.15771	0.30038	0.20299	0.064817	-2.9917	-3.3937	-2.8604	-3.5979	-3.0667	-3.0229	-3.7271	-2.9896	-3.3083	-3.3333	-2.8354	-3.65	-3.1521	-3.0062	-3.5479	-2.9813	-0.167	204.525	124.209	-20.187	52.196	13.515	169.816	231.888	253.318	-48.737	-31.248	232.578	194.686	254.236	255.834	-85.632	7.452e-05	8.8357e-05	0.00010777	1074.4	5.0205e-06	3.1127e-06	1165.2	211.34	3.9597e-07	1.0726e-06	272.55	77.116	60.759	17.989	3.731e-06	25.456	0.00021681	0.00022522	6.2881e-05	1042.1	2.5754e-06	2.4343e-06	1140.1	208.86	2.5053e-06	2.519e-06	266.68	77.549	60.761	18.018	2.5728e-06	25.454	216.497	40.151	12.885	-76.705	93.083	24.474	-76.596	-69.170	197.250	58.418	-69.489	-62.615	-62.373	-55.178	102.963	-56.057	-8191	255	
1391.196	1	1	0	0	0.1198	0.090771	0.16333	0.23763	0.17525	0.17851	0.28543	0.19934	0.071256	0.068032	0.20278	0.079162	0.056355	0.14324	0.14786	0.16784	-2.8083	-3.4458	-2.7729	-3.5271	-3.1146	-2.8521	-3.7292	-3.0729	-3.2	-3.6542	-2.7896	-3.5729	-3.3896	-3.0083	-3.7083	-3.0375	65.532	268.113	205.938	222.100	171.178	66.336	202.876	234.157	201.957	89.705	-47.439	136.313	8.843	216.420	-10.297	67.594	0.00011089	0.0002738	0.00010165	1075.9	1.7493e-06	2.2522e-06	1170.2	211.72	1.5661e-06	2.311e-06	271.5	77.517	61.071	18.014	1.6326e-06	25.491	0.00022006	0.00023423	6.5568e-05	1042.8	2.629e-06	2.6598e-06	1144.3	208.61	2.6343e-06	2.5548e-06	266.99	77.805	60.823	18.058	2.6164e-06	25.5	229.994	4.430	48.335	-77.074	154.159	107.006	-76.493	-68.894	56.952	86.781	-69.802	-62.805	-62.423	-55.421	83.329	-55.765	-8191	255	
1391.317	1	1	0	0	0.31247	0.10178	0.13026	0.23629	0.093779	0.20379	0.097189	0.26618	0.22952	0.086157	0.1846	0.054035	0.17753	0.19699	0.035848	0.18733	-2.7062	-3.6188	-2.7583	-3.5854	-3.3146	-2.9646	-3.8271	-3.1896	-2.975	-3.6667	-2.9292	-3.4521	-3.2542	-3.0375	-3.5021	-3.2167	271.506	85.770	114.803	192.243	82.385	158.212	223.987	251.445	-75.186	175.958	109.422	197.145	208.284	95.650	210.300	105.782	8.6291e-05	0.00018196	5.1778e-05	1073.2	1.2423e-06	2.2787e-06	1178.3	211.43	1.7194e-06	2.7541e-06	271.52	77.194	61.128	18.022	2.3255e-06	25.477	0.0002319	0.00023929	6.7696e-05	1043.8	2.7289e-06	2.6539e-06	1146.8	209.19	2.6563e-06	2.6548e-06	267.15	77.752	60.922	18.047	2.5615e-06	25.441	221.351	49.329	-26.220	-76.907	252.670	35.477	-76.488	-69.092	-3.594	108.726	-69.065	-62.728	-62.183	-55.359	5.191	-55.606	-8191	255	
1391.388	1	1	0	0	0.21189	0.19737	0.17572	0.1794	0.19226	0.15835	0.25293	0.2053	0.22436	0.27793	0.22012	0.20502	0.037244	0.17536	0.11333	0.021612	-2.5792	-3.6625	-2.8396	-3.5792	-3.525	-2.95	-3.7313	-3.4437	-3.0396	-3.7188	-2.7479	-3.5271	-3.5708	-3.1042	-3.5708	-3.4125	201.907	209.926	93.923	231.898	11.390	-53.813	183.121	200.821	243.418	-85.539	75.662	50.015	177.890	-75.818	-20.702	-8.030	5.7505e-05	0.00024868	5.1968e-05	1076.1	1.9702e-06	1.0954e-06	1171.1	212.18	1.042e-06	2.5866e-06	271.81	77.125	61.169	18.078	1.7908e-06	25.339	0.00022756	0.00023455	6.6185e-05	1044.5	2.6291e-06	2.6354e-06	1143.8	208.94	2.6545e-06	2.6055e-06	267.12	77.706	60.802	18.078	2.546e-06	25.472	237.897	4.441	55.759	-77.159	125.623	35.730	-76.794	-68.973	195.709	30.592	-69.899	-63.061	-62.875	-55.051	97.579	-55.623	-8191	255	
1391.484	1	1	0	0	0.13822	0.16887	0.24674	0.32965	0.12406	0.13894	0.26086	0.12421	0.2105	0.23394	0.14511	0.061564	0.063969	0.24974	0.2964	0.0877	-2.7021	-3.6979	-3.15	-3.4646	-3.6521	-2.8854	-3.8354	-3.3312	-2.9	-3.7875	-3.0604	-3.1646	-3.6583	-2.9292	-3.3708	-3.4417	272.263	166.098	161.224	261.232	170.525	222.545	147.839	245.432	70.872	268.437	169.169	20.307	-60.039	271.448	-79.132	170.960	6.6497e-05	0.00045774	1.7544e-05	1069.2	8.2165e-07	3.7355e-07	1171.3	212.1	1.4331e-06	3.0149e-06	272.87	77.738	61.002	18.036	2.5322e-06	25.196	0.00022688	0.00023178	6.4783e-05	1041.5	2.5546e-06	2.5894e-06	1143.6	209.07	2.6301e-06	2.5346e-06	266.73	77.896	60.824	18.089	2.5446e-06	25.378	222.687	17.270	46.721	-76.945	232.801	-6.902	-76.487	-69.478	24.130	63.177	-69.802	-62.741	-62.677	-55.290	24.181	-55.865	-8191	255	
1391.581	1	1	0	0	0.17492	0.10456	0.037163	0.14744	0.094334	0.15794	0.066264	0.19	0.18716	0.02946	0.21069	0.11882	0.072647	0.043615	0.028354	0.16765	-2.5167	-3.4833	-3.1229	-3.0812	-3.6813	-2.7833	-3.4458	-3.5333	-2.8563	-3.5667	-3.0979	-2.9833	-3.675	-2.925	-3.2896	-3.5896	89.851	114.724	198.293	237.206	-34.155	22.166	203.676	168.922	102.079	192.586	207.828	199.397	75.016	-7.398	132.988	56.385	5.3146e-05	0.00021373	8.665e-05	1070.8	2.2542e-06	7.2383e-07	1173.9	212.88	1.1747e-06	3.0058e-06	273.33	77.469	60.906	18.05	3.7644e-06	25.362	0.00022812	0.00023625	6.6499e-05	1041.6	2.6259e-06	2.5829e-06	1143.5	209.18	2.6613e-06	2.545e-06	267.68	77.781	60.794	18.075	2.6646e-06	25.395	235.044	-15.373	34.217	-76.862	75.752	-25.658	-76.882	-69.201	19.457	111.388	-69.639	-62.918	-62.374	-55.683	88.367	-55.670	-8191	255	
1391.701	1	1	0	0	0.25951	0.092738	0.12216	0.19245	0.08677	0.15931	0.25464	0.084852	0.063031	0.12159	0.16202	0.18551	0.16859	0.10244	0.18916	0.11229	-2.2979	-3.4125	-3.1979	-3.0187	-3.7042	-3.025	-3.2771	-3.6792	-2.8688	-3.6	-3.3021	-2.9833	-3.6979	-2.9188	-3.2604	-3.6188	-69.862	-71.452	236.101	225.122	179.035	78.244	213.820	75.831	42.296	-46.180	229.400	210.285	-60.069	84.332	201.909	76.379	4.6083e-05	0.00036446	2.9977e-05	1072.3	2.4463e-06	3.6999e-06	1173	212.52	1.4103e-06	1.3384e-06	271.92	78.008	61.14	17.987	3.6696e-06	25.332	0.00023089	0.00023247	6.434e-05	1042.7	2.5268e-06	2.5442e-06	1143.4	209.59	2.5432e-06	2.464e-06	267.68	77.91	60.841	18.043	2.5229e-06	25.369	209.897	-4.485	13.537	-77.113	44.986	98.006	-76.704	-69.086	133.915	55.496	-69.931	-63.141	-62.446	-55.528	20.131	-55.423	-8191	255	
1391.796	1	1	0	0	0.12194	0.072992	0.11538	0.03943	0.090282	0.12221	0.11795	0.12263	0.066258	0.11938	0.23226	0.15133	0.082324	0.11328	0.12429	0.023849	-2.575	-3.4354	-3.3042	-3.2292	-3.5979	-2.9188	-3.2792	-3.6875	-2.8292	-3.4979	-3.4729	-2.9813	-3.4833	-3.0042	-3.2083	-3.6917	33.344	186.533	120.796	80.444	154.669	22.380	267.263	142.896	159.177	46.928	194.029	223.405	113.669	-84.552	36.308	202.441	9.958e-05	0.00043368	5.5413e-05	1079.6	1.833e-06	1.7517e-06	1177.9	212.78	5.1939e-07	3.05e-06	272.21	77.837	60.964	17.999	1.8008e-06	25.464	0.0002167	0.00022954	6.3251e-05	1046.3	2.5498e-06	2.4604e-06	1147.3	209.53	2.4803e-06	2.4536e-06	266.64	77.899	60.873	18.094	2.4745e-06	25.458	214.089	35.115	23.350	-77.295	126.689	-11.717	-76.836	-69.227	75.286	84.906	-69.497	-62.580	-62.653	-55.205	46.119	-55.935	-8191	255	
1391.892	1	1	0	0	0.37848	0.013585	0.32115	0.36467	0.18475	0.043723	0.13325	0.16398	0.14985	0.40409	0.14119	0.029982	0.17134	0.14886	0.11573	0.13177	-2.6125	-3.1688	-3.5042	-2.8	-3.7167	-3.2771	-3.1667	-3.5333	-2.7812	-3.4771	-3.3854	-3.0312	-3.6146	-3.4021	-2.7896	-3.775	-12.304	126.934	119.957	243.913	189.684	70.245	202.879	226.576	-59.581	149.449	170.399	-51.131	34.670	92.279	193.336	33.841	3.4737e-05	0.00026276	0.00013051	1077.6	3.8138e-06	2.4696e-06	1177.7	212.76	1.6621e-06	1.8669e-06	271.51	77.629	61.301	18.09	4.24e-06	25.524	0.0002196	0.00022259	6.3552e-05	1045.7	2.4771e-06	2.4862e-06	1147.9	209.43	2.428e-06	2.4127e-06	267.34	78.012	60.963	18.105	2.4658e-06	25.47	222.864	78.101	26.039	-77.109	61.926	50.168	-76.892	-69.337	2.501	98.166	-69.744	-62.619	-62.360	-54.995	74.388	-55.329	-8191	255	
1391.988	1	1	0	0	0.022846	0.092348	0.12488	0.29786	0.095434	0.073445	0.19202	0.09852	0.10407	0.18342	0.45058	0.16096	0.22068	0.15107	0.24629	0.13159	-2.5667	-3.2812	-3.6708	-2.8333	-3.5563	-3.1271	-3.0187	-3.8146	-2.7271	-3.2896	-3.5062	-2.9875	-3.325	-3.4042	-2.8396	-3.5708	266.138	79.355	257.489	265.669	-65.091	78.606	172.551	-55.532	22.892	263.275	228.605	45.246	-52.988	-1.279	27.640	243.985	6.6132e-05	0.00015581	1.8724e-05	1070.8	1.0789e-06	1.2401e-06	1173.9	212.04	2.2086e-06	2.7772e-06	272.96	77.328	61.142	18.082	2.5448e-06	25.469	0.00021192	0.00021335	5.8739e-05	1042.7	2.4139e-06	2.3607e-06	1146	209.36	2.4331e-06	2.475e-06	267.88	77.832	60.899	18.104	2.5218e-06	25.495	201.335	-21.849	73.847	-77.071	-81.646	6.256	-77.011	-69.031	72.487	100.247	-69.602	-62.511	-62.417	-55.370	78.841	-56.011	-8191	255	
1392.084	1	1	0	0	0.10354	0.16024	0.22323	0.30277	0.19254	0.27523	0.23911	0.21986	0.14812	0.20818	0.1041	0.12225	0.057728	0.16176	0.14216	0.098056	-2.8688	-3.0187	-3.6188	-2.8875	-3.2729	-3.4437	-2.8875	-3.625	-2.9583	-3.1083	-3.475	-2.9854	-3.2229	-3.4375	-2.8438	-3.3833	239.670	163.939	257.313	235.589	173.177	266.107	187.778	255.163	3.724	251.528	-60.286	149.432	-60.324	183.406	138.125	213.739	7.5158e-05	0.00037011	0.00010329	1072.8	1.7775e-06	4.3861e-06	1170.7	212.06	2.6634e-06	2.7235e-06	271.43	77.534	61.358	18.094	1.0771e-06	25.624	0.00021697	0.00022315	6.1841e-05	1043.2	2.4492e-06	2.4419e-06	1142.8	209.35	2.377e-06	2.3531e-06	267.54	77.788	60.773	18.055	2.2853e-06	25.443	225.521	22.187	-19.642	-77.057	134.214	71.013	-76.826	-68.958	102.676	8.060	-69.334	-62.839	-62.300	-55.387	148.559	-56.240	-8191	255	
1392.180	1	1	0	0	0.23512	0.32456	0.0084543	0.069058	0.023457	0.18111	0.086216	0.17444	0.092115	0.25858	0.25299	0.094905	0.010997	0.010816	0.10105	0.26387	-3.0271	-2.7812	-3.6479	-2.9146	-3.3083	-3.6917	-2.9813	-3.6021	-3.2313	-2.9583	-3.7167	-2.9771	-3.2354	-3.4646	-2.8167	-3.3812	249.569	32.640	-44.868	260.092	-68.027	88.009	63.705	266.652	81.924	-21.226	-61.490	196.043	172.910	31.376	212.242	-4.586	4.28e-05	0.00016596	0.00010728	1070.2	1.2268e-06	1.5719e-06	1169.5	212.46	9.5975e-07	4.7716e-06	272.27	77.195	61.092	18.242	1.6759e-06	25.448	0.00021003	0.00021385	5.8022e-05	1041.1	2.3824e-06	2.24e-06	1142.9	209.29	2.362e-06	2.3665e-06	267.2	77.56	60.692	18.113	2.3527e-06	25.395	217.198	-11.896	-42.036	-77.014	79.713	47.287	-76.825	-68.966	0.394	44.662	-69.470	-62.369	-62.534	-55.320	42.267	-55.789	-8191	255	
1392.301	1	1	0	0	0.3006	0.24511	0.02986	0.11133	0.10656	0.24757	0.090587	0.28841	0.022317	0.29631	0.28314	0.10185	0.18222	0.21182	0.081275	0.20428	-2.9958	-2.9771	-3.7146	-3.125	-3.0708	-3.6229	-2.9458	-3.5729	-3.2646	-2.7521	-3.5563	-3.1125	-3.1604	-3.5646	-2.7542	-3.2417	148.062	183.219	230.497	172.066	73.151	-9.363	207.286	-26.500	233.646	217.538	166.899	209.218	-10.731	157.690	-58.537	129.135	6.2621e-05	0.00018089	2.3126e-05	1069.1	7.488e-07	4.1887e-06	1169.2	211.64	1.1596e-06	5.6182e-06	272.98	77.656	61.188	18.111	5.0327e-07	25.45	0.00020631	0.00021897	5.6375e-05	1039.1	2.4291e-06	2.238e-06	1139.7	208.94	2.382e-06	2.4272e-06	267.07	77.635	60.844	18.039	2.5524e-06	25.415	225.768	59.252	15.804	-77.092	96.634	52.846	-76.939	-69.306	105.937	95.281	-69.656	-62.638	-62.652	-55.146	104.369	-55.165	-8191	255	
1392.397	1	1	0	0	0.20081	0.37428	0.14503	0.35483	0.31882	0.20886	0.26202	0.29179	0.15231	0.056183	0.24675	0.058034	0.17105	0.063333	0.16867	0.10385	-3.0792	-2.7333	-3.5438	-3.2458	-3.0208	-3.4021	-2.9188	-3.1479	-3.5083	-2.8063	-3.7896	-3.1146	-2.9292	-3.5312	-2.9396	-3.1813	22.852	103.331	-42.961	260.790	-58.671	-73.835	203.027	211.403	222.712	66.705	187.614	209.639	-74.352	22.157	-63.840	201.009	5.6624e-05	0.00031706	4.6475e-05	1069.1	2.093e-06	1.6739e-06	1172.2	212.54	6.6488e-07	3.2715e-06	272.66	77.233	60.689	17.881	1.9662e-06	25.287	0.00022449	0.00023646	6.4266e-05	1040.4	2.6698e-06	2.6051e-06	1142.1	209.11	2.7359e-06	2.7552e-06	267.61	77.532	60.737	17.998	2.8803e-06	25.375	180.674	-54.349	42.022	-76.860	5.991	122.404	-76.778	-68.849	231.764	73.320	-69.489	-62.617	-62.867	-55.428	-16.052	-56.080	-8191	255	
1392.493	1	1	0	0	0.19999	0.27347	0.10942	0.20324	0.14094	0.18204	0.37835	0.19967	0.076393	0.086635	0.027654	0.1039	0.24577	0.18884	0.2239	0.044964	-3.2438	-2.7833	-3.5375	-3.3146	-2.9125	-3.6188	-3.0812	-3.2729	-3.7	-2.7958	-3.45	-3.35	-2.9417	-3.6937	-3.1021	-2.9958	266.087	52.428	133.230	187.681	39.620	245.645	230.609	129.476	123.102	140.051	256.331	61.937	-37.518	2.759	80.157	87.245	3.5091e-05	0.00031291	0.00013431	1068.5	1.7863e-06	1.4322e-06	1171.9	213.04	3.9057e-06	3.2769e-06	273.1	77.459	60.703	17.957	1.0513e-06	25.268	0.00025208	0.00027177	7.4201e-05	1040.3	3.0798e-06	2.9247e-06	1141.8	209.8	2.9166e-06	2.9527e-06	268.19	77.95	60.859	18.022	2.7285e-06	25.421	231.588	59.358	3.885	-77.108	113.031	79.716	-76.744	-69.046	37.291	31.469	-69.366	-62.743	-62.607	-55.583	98.105	-55.490	-8191	255	
1392.589	1	1	0	0	0.23501	0.17757	0.2491	0.13764	0.12599	0.22051	0.13181	0.064151	0.10518	0.065624	0.089036	0.076272	0.16196	0.14192	0.089772	0.1929	-3.3667	-2.8021	-3.2167	-3.6354	-2.8583	-3.6729	-3.325	-2.9562	-3.6021	-2.9437	-3.4062	-3.1833	-2.9917	-3.4875	-3.1312	-2.9333	156.348	113.064	75.031	244.403	147.549	125.647	108.241	203.969	165.710	31.241	229.954	65.295	147.256	-81.416	238.292	247.823	7.1253e-05	0.00018359	3.842e-05	1078.7	2.772e-06	3.2377e-06	1175.8	211.82	2.318e-06	3.5428e-06	273.04	76.897	60.806	18.011	1.3962e-06	25.195	0.00023085	0.00024407	6.5997e-05	1045.8	2.5744e-06	2.4168e-06	1144.9	209.22	2.3328e-06	2.3941e-06	267.1	77.533	60.546	18.026	2.2509e-06	25.275	244.941	45.914	23.811	-76.760	14.727	39.559	-76.696	-69.202	63.498	23.266	-69.585	-62.438	-62.329	-55.232	181.428	-56.245	-8191	255	
1392.684	1	1	0	0	0.1548	0.30451	0.10045	0.2083	0.095607	0.26224	0.29698	0.18015	0.1357	0.36281	0.19738	0.26287	0.16667	0.029163	0.19941	0.17604	-3.1937	-2.8646	-3.2958	-3.5812	-2.8083	-3.5479	-3.2875	-3.0875	-3.5292	-2.925	-3.2542	-3.5229	-2.775	-3.4375	-3.1813	-3.0271	226.867	161.968	77.788	167.943	90.669	5.255	156.210	214.936	233.444	-67.733	222.540	149.259	259.610	185.391	-52.616	228.433	8.3276e-05	0.00020437	4.4975e-05	1068.1	1.9412e-06	3.7201e-06	1160.7	211.52	9.7817e-07	2.1912e-06	272.31	76.953	60.938	17.974	2.6692e-06	25.312	0.00019645	0.00019898	5.5655e-05	1035.1	2.1656e-06	2.136e-06	1135.6	208.03	2.1457e-06	2.1573e-06	266.01	77.049	60.381	17.962	2.1385e-06	25.272	201.201	58.911	0.115	-76.961	-15.520	65.698	-76.628	-69.256	181.467	143.786	-69.211	-62.218	-62.386	-55.523	47.044	-55.488	-8191	255	
1392.780	1	1	0	0	0.10947	0.08808	0.19238	0.24664	0.20478	0.21663	0.34434	0.049301	0.13584	0.049412	0.11037	0.24277	0.24581	0.18273	0.12323	0.081959	-3.2292	-2.9688	-2.9729	-3.6292	-2.7021	-3.4104	-3.3104	-2.7583	-3.4813	-2.9646	-3.0583	-3.6646	-2.6083	-3.4458	-3.2958	-2.8312	91.962	144.549	13.426	167.844	-2.139	158.532	172.714	48.696	-83.542	121.893	214.521	-52.894	-84.612	60.479	260.331	151.608	6.2567e-05	0.00012976	5.9321e-05	1062.3	3.6905e-06	2.0302e-06	1165.3	210.76	1.9151e-06	3.2865e-06	269.78	77.074	60.137	17.893	3.0312e-06	25.224	0.00018491	0.00019486	5.2892e-05	1033.2	2.1469e-06	2.0566e-06	1131.9	207.33	1.9832e-06	1.9639e-06	264.4	77.065	59.897	17.837	1.9214e-06	25.05	203.053	3.065	33.286	-77.192	74.739	98.888	-76.738	-68.942	94.620	27.717	-69.112	-62.514	-62.255	-55.242	11.324	-55.684	-8191	255	
1392.876	1	1	0	0	0.06705	0.20667	0.049034	0.12241	0.14091	0.063291	0.30686	0.16534	0.081495	0.14064	0.080415	0.18801	0.098296	0.19682	0.11327	0.13411	-3.3396	-3.0271	-3.0896	-3.7625	-2.8375	-3.4458	-3.6708	-2.8812	-3.6208	-3.1958	-3.1521	-3.6271	-3.1667	-3.3104	-3.7333	-2.8688	89.479	-0.221	23.833	127.559	130.961	136.998	216.433	217.253	127.725	173.499	-34.251	11.521	75.492	25.193	18.413	172.241	6.166e-05	0.00016331	0.00012818	1058.5	3.3561e-06	2.7668e-06	1155	208.41	1.1147e-06	3.3369e-06	268.2	76.198	59.956	17.792	3.5207e-06	25.243	0.0001696	0.00017067	4.982e-05	1026	1.9382e-06	1.8673e-06	1124.9	205.55	1.8932e-06	1.8607e-06	262.8	76.402	59.861	17.749	1.807e-06	24.991	209.463	23.596	22.350	-76.544	56.601	63.258	-76.498	-68.962	219.872	124.341	-69.394	-62.482	-62.647	-54.921	85.031	-55.492	-8191	255	
1392.972	1	1	0	0	0.026383	0.27923	0.19148	0.064358	0.3088	0.14859	0.16893	0.041004	0.16928	0.11562	0.10273	0.1918	0.26653	0.063009	0.054305	0.33548	-3.1688	-3.2229	-2.8563	-3.9125	-2.8646	-3.2604	-3.4562	-2.8937	-3.5896	-3.3417	-2.9208	-3.6771	-3.0375	-3.0708	-3.5687	-2.7021	-8.517	228.364	109.031	-49.766	-40.323	16.903	206.966	87.976	194.788	27.481	208.423	220.213	60.975	183.083	194.455	263.033	5.7042e-05	0.00019841	3.9561e-05	1043.5	2.8374e-06	4.3244e-06	1137.4	207.64	9.482e-07	2.8191e-06	266.06	76.173	59.912	17.731	1.9245e-06	24.971	0.00016264	0.00015866	4.5199e-05	1014.2	1.8207e-06	1.7578e-06	1111.9	204.57	1.7639e-06	1.6804e-06	260.97	76.043	59.406	17.626	1.6816e-06	24.891	210.340	49.250	46.454	-76.896	107.134	66.057	-76.475	-69.230	118.252	62.826	-69.157	-62.505	-62.241	-55.139	54.347	-55.647	-8191	255	
1393.093	1	1	0	0	0.088474	0.076382	0.14979	0.12776	0.098547	0.13368	0.13569	0.07831	0.20645	0.050775	0.13741	0.09638	0.24935	0.10022	0.043718	0.16149	-2.95	-3.1833	-2.95	-3.8104	-3.0062	-2.8792	-3.7438	-2.7958	-3.4167	-3.3583	-3.2458	-3.5187	-3.1688	-2.8208	-3.6479	-2.7687	141.010	108.277	268.360	-52.756	-71.036	-17.186	246.146	246.513	-44.210	191.694	270.621	85.792	-45.604	-4.782	-39.582	-9.672	6.3515e-05	0.00034343	5.9056e-05	1040.7	9.8993e-07	2.4857e-06	1134.7	208.01	1.6738e-06	2.6187e-06	266.67	75.76	59.75	17.761	1.5582e-06	24.815	0.00015695	0.00015404	4.3821e-05	1010.5	1.7246e-06	1.7594e-06	1106.5	204.01	1.7451e-06	1.7012e-06	260.46	75.762	59.286	17.584	1.677e-06	24.819	230.945	33.910	-46.507	-76.803	152.618	47.027	-76.395	-68.783	78.694	75.611	-69.304	-62.682	-62.186	-55.313	89.470	-55.848	-8191	255	
1393.189	1	1	0	0	0.16688	0.18599	0.15159	0.15864	0.29713	0.25398	0.083285	0.1424	0.0090909	0.18081	0.14735	0.1662	0.21059	0.086742	0.10062	0.15663	-2.7458	-3.375	-2.9479	-3.4042	-3.2313	-2.9792	-3.8833	-2.8146	-3.2458	-3.325	-2.8479	-3.2875	-3.2729	-2.9021	-3.5854	-2.9229	73.314	-66.966	-56.193	256.946	97.002	26.719	184.975	233.608	-24.402	163.916	136.239	143.733	105.047	150.608	252.851	-76.537	3.7388e-05	0.0001537	6.9654e-05	1041.6	2.3643e-06	1.6065e-06	1137.7	206.36	1.4139e-06	2.3325e-06	266.79	75.971	59.293	17.75	2.7335e-06	25.017	0.00015687	0.00015193	4.2526e-05	1010.7	1.797e-06	1.7259e-06	1108.4	203.31	1.7565e-06	1.6665e-06	260.94	75.921	59.096	17.652	1.7111e-06	24.894	225.710	18.896	-30.521	-76.799	66.188	54.927	-76.440	-68.919	52.238	17.648	-69.222	-62.740	-62.033	-54.743	68.289	-55.596	-8191	255	
1393.261	1	1	0	0	0.18146	0.26743	0.20731	0.23502	0.16552	0.057575	0.14356	0.16529	0.2905	0.079868	0.13188	0.043517	0.09423	0.028741	0.16842	0.22402	-2.8583	-3.4354	-2.7062	-3.5354	-3.2812	-2.8542	-3.7875	-2.9437	-3.1479	-3.4188	-2.9833	-3.4458	-3.2208	-2.7896	-3.5521	-3.0771	131.950	79.652	-51.047	203.817	16.903	90.724	175.944	181.926	256.681	180.208	192.077	111.224	79.699	188.559	11.823	256.381	5.6952e-05	0.00040289	9.4262e-05	1044.5	1.4176e-06	3.556e-06	1138.4	206.66	1.2413e-06	2.769e-06	266.19	76.148	59.724	17.636	2.351e-06	24.986	0.00015212	0.00015335	4.3963e-05	1011.1	1.8252e-06	1.7875e-06	1108.3	203.73	1.7034e-06	1.6463e-06	260.67	76.124	59.076	17.645	1.7391e-06	24.797	229.440	-4.943	-19.958	-76.824	12.882	103.538	-76.382	-69.085	57.276	31.772	-69.662	-62.278	-62.432	-54.937	45.901	-55.365	-8191	255	
1393.381	1	1	0	0	0.10307	0.25333	0.21705	0.23345	0.026082	0.12527	0.1957	0.29319	0.17586	0.13214	0.14608	0.28215	0.17301	0.084934	0.087736	0.15872	-2.6312	-3.5083	-2.8354	-3.3875	-3.525	-2.675	-3.7583	-3.1625	-3.0563	-3.7042	-2.9104	-3.1833	-3.4958	-2.4688	-3.5958	-3.0896	125.432	201.903	139.589	237.322	222.034	207.357	253.667	-40.603	85.460	139.883	272.308	142.361	111.581	188.938	-83.406	177.667	8.5833e-05	5.0683e-05	0.00010617	1041.7	4.1082e-07	1.3292e-06	1135.1	207.66	1.4756e-06	1.7617e-06	266.04	76.253	59.914	17.628	2.3781e-06	24.774	0.0001526	0.00014956	4.3155e-05	1009.8	1.7499e-06	1.7171e-06	1107.1	203.76	1.7413e-06	1.6402e-06	260.62	76.039	59.423	17.604	1.6938e-06	24.801	213.658	57.795	-1.295	-76.821	132.312	43.148	-76.516	-69.085	206.235	44.004	-69.407	-62.698	-62.453	-55.283	30.343	-55.487	-8191	255	
1393.477	1	1	0	0	0.25841	0.095281	0.029142	0.23854	0.082869	0.087131	0.11224	0.16568	0.25353	0.11046	0.1088	0.25672	0.24477	0.036355	0.24408	0.1478	-2.5	-3.2896	-2.8708	-3.2604	-3.4521	-2.6646	-3.7083	-3.2271	-2.8667	-3.7083	-2.8958	-3.325	-3.25	-2.875	-3.4958	-3.2792	159.390	55.128	139.089	212.175	247.313	189.812	81.580	95.208	76.773	168.111	-73.647	-85.642	220.917	198.443	-80.870	-39.458	7.0519e-05	0.00042931	0.00010133	1039.8	7.5394e-07	1.8809e-06	1138.2	207.92	2.3823e-06	7.4059e-07	267.92	76.562	59.685	17.593	4.1389e-06	24.845	0.0001561	0.00015175	4.2646e-05	1008.7	1.7163e-06	1.6978e-06	1108.7	203.51	1.7119e-06	1.6319e-06	260.6	76.054	59.274	17.563	1.6456e-06	24.819	229.594	6.003	-33.522	-76.845	108.879	72.107	-76.519	-68.929	95.164	-86.069	-69.605	-62.741	-62.384	-55.300	125.292	-55.832	-8191	255	
1393.574	1	1	0	0	0.20718	0.064245	0.23051	0.27271	0.12745	0.31857	0.18996	0.13643	0.26257	0.15209	0.18375	0.15529	0.084401	0.1682	0.0077493	0.17651	-2.5354	-3.5667	-3.0542	-3.1229	-3.3708	-2.8979	-3.3292	-3.5729	-2.6479	-3.5104	-3.1854	-3.0583	-3.6625	-3.0271	-3.3375	-3.3208	223.052	62.834	133.806	220.572	133.651	110.899	198.799	101.964	164.237	148.007	-1.449	-60.248	-64.573	240.735	13.421	185.474	6.0073e-05	0.00021193	7.3822e-05	1031.3	2.8065e-06	3.0326e-06	1136.5	207.57	6.5351e-07	2.2623e-06	266.35	75.891	60.264	17.571	3.9924e-06	24.777	0.00015027	0.00014746	4.0673e-05	1005.6	1.6589e-06	1.654e-06	1105.3	203.31	1.6274e-06	1.6166e-06	260.07	75.856	59.384	17.539	1.5821e-06	24.749	211.345	-12.639	40.938	-76.769	89.237	51.302	-76.449	-68.901	65.770	29.396	-68.787	-62.752	-61.915	-55.041	44.977	-55.466	-8191	255	
1393.670	1	1	0	0	0.23213	0.30101	0.087265	0.15377	0.027498	0.13176	0.15061	0.16749	0.087995	0.30601	0.10363	0.20096	0.15615	0.22515	0.25792	0.061401	-2.5687	-3.5708	-3.1167	-3.1125	-3.5479	-2.7771	-3.5542	-3.3083	-2.8771	-3.3292	-3.3167	-2.8438	-3.7271	-3.0333	-3.0938	-3.5167	147.616	116.177	190.965	241.816	196.797	152.520	61.827	268.024	206.646	-84.212	102.347	99.501	-16.681	-45.353	262.273	265.151	5.6845e-05	0.00017374	0.00013304	1035.8	7.9263e-07	2.4261e-06	1128.7	206.37	5.2572e-07	2.9638e-06	265.56	76.162	59.496	17.734	1.4059e-06	24.906	0.00015028	0.00014233	3.9961e-05	1004.3	1.5969e-06	1.5937e-06	1101.5	203.08	1.5743e-06	1.5423e-06	259.48	75.837	59.135	17.559	1.5699e-06	24.797	215.372	-10.019	0.627	-76.749	44.366	108.464	-76.481	-68.861	-80.217	78.889	-69.347	-62.765	-62.356	-54.994	90.373	-55.432	-8191	255	
1393.789	1	1	0	0	0.19142	0.20941	0.12974	0.15246	0.07252	0.13039	0.10396	0.064026	0.15097	0.28458	0.12064	0.12782	0.05747	0.10368	0.12741	0.044871	-2.5146	-3.5646	-3.3521	-3.0187	-3.6229	-2.9479	-3.1833	-3.55	-2.8354	-3.325	-3.4875	-2.7333	-3.5729	-3.0979	-3.2188	-3.6583	96.563	-57.357	-9.099	185.043	46.892	165.785	216.051	-40.487	150.688	75.678	262.195	86.185	182.686	269.951	-37.394	-10.911	6.0269e-05	0.00046686	7.5107e-05	1030.8	1.2199e-06	3.3973e-06	1135.9	206.57	6.1866e-07	2.0072e-07	265.78	75.675	59.584	17.763	4.093e-06	24.946	0.00014668	0.00014391	3.8323e-05	1002.4	1.5793e-06	1.555e-06	1103	203.19	1.588e-06	1.5742e-06	259.48	75.757	59.078	17.549	1.5666e-06	24.739	245.535	53.324	-7.260	-76.939	135.303	44.802	-76.396	-68.819	64.511	-59.863	-69.266	-62.927	-62.144	-55.261	90.624	-55.563	-8191	255	
1393.885	1	1	0	0	0.11362	0.15584	0.030276	0.16133	0.13642	0.093991	0.18503	0.15609	0.26207	0.17838	0.34426	0.3495	0.13178	0.15252	0.24147	0.021907	-2.4729	-3.1604	-3.4688	-2.8479	-3.4958	-3.0292	-3.2812	-3.5812	-2.8771	-3.2313	-3.4854	-2.9167	-3.5062	-3.1583	-2.8958	-3.6437	188.161	254.731	-30.984	178.366	100.052	227.716	211.730	266.160	-65.740	99.118	-78.887	159.127	-7.967	219.138	0.329	180.584	7.3095e-05	0.00014682	5.0235e-05	1034.7	7.3152e-07	2.6707e-06	1133.3	206.13	5.7206e-07	1.6447e-06	266.07	75.547	59.614	17.637	1.0438e-06	24.651	0.00014553	0.00013289	3.872e-05	1003.9	1.5767e-06	1.508e-06	1101.3	202.43	1.565e-06	1.499e-06	259.63	75.678	59.126	17.519	1.5608e-06	24.758	234.655	23.518	32.658	-76.959	173.773	49.172	-76.808	-68.765	-55.255	84.058	-69.383	-62.704	-62.151	-54.823	56.907	-55.403	-8191	255	
1393.981	1	1	0	0	0.2528	0.094454	0.11795	0.34824	0.1532	0.040939	0.2302	0.14014	0.3149	0.083607	0.16926	0.1717	0.24528	0.17155	0.18417	0.067056	-2.5125	-3.3042	-3.2667	-2.9625	-3.2854	-3.2875	-3.1583	-3.5875	-3.0104	-3.1458	-3.775	-2.8208	-3.325	-3.2479	-2.7729	-3.425	167.796	37.881	159.766	230.092	255.847	26.816	164.626	-65.968	208.166	-18.079	183.543	223.548	198.737	212.469	196.770	97.677	7.5412e-05	0.00018661	7.759e-05	1034.5	2.2269e-06	2.5402e-06	1129.8	206.18	1.4811e-06	3.4211e-06	267.11	75.871	59.413	17.663	2.2561e-06	24.864	0.00014077	0.00013695	3.8695e-05	1002.8	1.5991e-06	1.5335e-06	1101.7	202.37	1.558e-06	1.5396e-06	259.75	75.764	59.078	17.573	1.5769e-06	24.778	213.434	14.441	41.119	-77.060	60.442	73.956	-76.580	-68.875	95.178	81.764	-69.835	-62.878	-62.622	-55.280	76.226	-55.468	-8191	255	
1394.077	1	1	0	0	0.41663	0.1239	0.35492	0.41836	0.02015	0.14653	0.064411	0.13982	0.14845	0.044446	0.10949	0.12731	0.05198	0.1223	0.14013	0.03249	-2.6437	-2.8771	-3.5687	-2.9354	-3.4354	-3.3021	-3.0187	-3.5521	-3.1208	-2.9646	-3.6083	-2.8958	-3.2604	-3.5021	-2.7938	-3.6396	158.241	168.224	-55.751	204.097	176.368	155.953	272.100	-34.655	267.153	239.449	-8.224	-41.689	138.097	214.837	188.285	43.937	6.5344e-05	0.00016377	0.00013047	1031.9	5.3032e-07	2.5325e-06	1136.9	205.86	2.9334e-06	5.1955e-06	264.16	75.957	59.699	17.801	1.6688e-06	25.188	0.00014189	0.00014949	4.0629e-05	1002.7	1.6636e-06	1.6243e-06	1103.1	202.39	1.6901e-06	1.7148e-06	259.59	75.825	59.23	17.636	1.6343e-06	24.866	219.472	-31.407	4.165	-76.835	41.387	96.211	-76.909	-69.026	48.126	78.894	-69.650	-62.614	-62.503	-55.303	93.771	-56.034	-8191	255	
1394.173	1	1	0	0	0.16533	0.31004	0.050696	0.25404	0.16434	0.21908	0.17435	0.055242	0.17005	0.050841	0.076033	0.18542	0.25157	0.038623	0.050517	0.082691	-2.7458	-3.0396	-3.475	-2.8625	-3.2062	-3.4125	-2.8271	-3.7562	-3.2021	-2.8771	-3.7521	-2.9208	-3.0771	-3.45	-2.7271	-3.4938	-20.424	2.998	-42.805	195.249	253.779	200.868	22.446	268.756	162.628	-65.510	-81.313	206.889	3.833	210.898	241.861	-62.578	5.989e-05	0.00029625	8.6585e-05	1035	5.7757e-07	3.449e-06	1134	206.74	1.9069e-06	1.7357e-06	267.36	76.132	59.902	17.645	2.9671e-06	24.947	0.00014681	0.00014436	3.7611e-05	1005.1	1.5411e-06	1.4586e-06	1104.4	203.11	1.4433e-06	1.4033e-06	260.46	75.812	59.231	17.581	1.4397e-06	24.807	208.496	30.635	-18.356	-76.756	70.011	56.832	-76.719	-68.960	41.135	-5.835	-69.099	-62.850	-62.287	-54.508	79.650	-55.965	-8191	255	
1394.269	1	1	0	0	0.077692	0.044571	0.22447	0.43254	0.10686	0.15714	0.19874	0.0023483	0.11288	0.12558	0.12465	0.23362	0.079067	0.15939	0.084534	0.024449	-2.8396	-3.1271	-3.4646	-3.0187	-3.0938	-3.5687	-2.9021	-3.4083	-3.3854	-2.5979	-3.6729	-3.0563	-2.9042	-3.5771	-2.75	-3.4271	44.653	90.498	41.940	268.342	74.902	25.189	237.682	24.213	224.520	144.609	237.159	198.108	176.420	-3.686	-78.874	-13.500	6.8435e-05	0.00025889	8.4954e-05	1033.3	1.3462e-06	1.8983e-06	1130.7	206.21	1.6396e-06	3.4253e-06	267.61	76.598	60.207	17.725	1.6929e-06	24.849	0.00013335	0.00013277	3.5905e-05	1001.8	1.5289e-06	1.4578e-06	1100.9	202.51	1.473e-06	1.4865e-06	260.62	75.958	59.259	17.598	1.4515e-06	24.816	219.185	-17.674	-13.045	-76.740	123.055	43.652	-76.619	-68.690	-5.090	96.978	-69.125	-62.514	-62.194	-55.114	142.132	-55.870	-8191	255	
1394.390	1	1	0	0	0.037773	0.17714	0.12076	0.24568	0.26382	0.12068	0.1662	0.25562	0.12788	0.18565	0.14657	0.20738	0.096371	0.21935	0.26083	0.27924	-2.8667	-2.9042	-3.4792	-3.1417	-2.9229	-3.5146	-2.875	-3.3021	-3.4458	-2.8208	-3.5187	-3.3375	-2.9813	-3.6646	-2.7917	-3.3583	244.734	-56.520	-78.501	235.244	107.538	237.046	-17.899	197.995	-16.283	163.950	235.643	263.187	-13.828	65.408	-79.104	-38.829	3.9186e-05	0.00035289	5.368e-05	1033.9	1.4725e-06	2.8832e-06	1139.4	207.52	1.613e-06	4.8831e-06	266.79	76.535	59.616	17.767	2.749e-06	25.007	0.00013376	0.00013091	3.6013e-05	1003.7	1.4878e-06	1.3483e-06	1103.1	202.83	1.4015e-06	1.4133e-06	260.16	76.127	59.174	17.683	1.4614e-06	24.883	223.141	-51.483	12.027	-76.970	97.090	90.533	-76.289	-69.090	-31.671	27.495	-69.524	-62.715	-62.178	-55.388	55.259	-55.845	-8191	255	
1394.484	1	1	0	0	0.11492	0.15735	0.06557	0.20176	0.1637	0.16513	0.28416	0.074425	0.14882	0.14291	0.074753	0.081033	0.15224	0.090156	0.23914	0.14013	-3.2188	-2.7896	-3.4979	-3.1792	-3.0542	-3.5	-3.3312	-3.225	-3.4917	-2.7062	-3.5396	-3.3104	-2.8937	-3.6521	-2.8	-3.0625	16.963	-56.099	86.754	196.116	229.350	127.578	154.952	129.867	63.302	-5.075	-31.858	269.024	182.368	32.976	45.230	204.332	7.0139e-05	0.0004674	7.7618e-05	1038.3	1.1986e-06	3.8453e-06	1133.4	206.94	2.5117e-06	2.62e-06	268.81	76.574	60.01	17.704	3.0456e-06	24.911	0.00013306	0.00013083	3.6896e-05	1004.6	1.5138e-06	1.4261e-06	1102.4	202.87	1.4834e-06	1.4119e-06	261.23	76.079	59.393	17.591	1.4353e-06	24.796	232.064	2.595	33.005	-76.900	32.526	72.017	-76.511	-69.013	57.472	50.656	-69.380	-62.253	-62.459	-55.297	13.810	-55.757	-8191	255	
1394.558	1	1	0	0	0.072514	0.20348	0.15413	0.24237	0.13112	0.093169	0.083615	0.16988	0.26518	0.17518	0.14354	0.28741	0.25848	0.15334	0.039943	0.27439	-3.4167	-2.9062	-3.425	-3.5833	-2.9042	-3.5958	-3.3729	-2.9896	-3.6646	-2.925	-3.3354	-3.3458	-2.8958	-3.4917	-3.1125	-2.8458	194.822	233.351	180.698	240.055	-17.532	-44.371	131.336	240.777	133.617	54.233	236.540	265.139	-59.452	67.483	170.107	-28.607	6.9088e-05	0.0003058	6.3817e-05	1033.2	7.4236e-07	4.1105e-06	1135.4	205.44	3.5665e-07	1.6432e-06	267.86	76.742	59.863	17.624	2.7459e-06	25.027	0.00012769	0.0001279	3.6847e-05	1003.1	1.5089e-06	1.4172e-06	1101.4	202.48	1.4491e-06	1.414e-06	260.76	76.083	59.18	17.561	1.4083e-06	24.877	212.200	2.862	15.859	-76.734	162.021	82.695	-76.303	-69.053	50.573	36.096	-69.459	-62.445	-62.073	-54.749	57.274	-55.680	-8191	255	
1394.654	1	1	0	0	0.14804	0.11712	0.17154	0.24936	0.08859	0.12428	0.075288	0.17159	0.26095	0.085642	0.12778	0.19552	0.1489	0.032056	0.19117	0.29249	-3.2479	-2.6688	-3.2896	-3.5542	-2.8604	-3.4667	-3.3167	-2.9208	-3.5958	-2.9938	-3.2667	-3.7083	-2.7854	-3.5479	-3.25	-2.9854	198.823	82.667	-26.139	179.125	0.302	-78.665	272.041	262.112	75.095	-52.365	116.763	147.642	-57.652	-74.082	98.967	186.937	7.1146e-05	0.00039447	4.8828e-05	1038.2	3.8026e-07	2.4235e-06	1132	207.2	1.4594e-06	3.1185e-06	266.17	76.267	59.932	17.793	3.0214e-06	24.928	0.00012735	0.00013445	3.4777e-05	1003.4	1.4747e-06	1.3736e-06	1103.3	202.97	1.447e-06	1.4537e-06	260.48	76.107	59.167	17.555	1.4838e-06	24.823	209.791	-25.798	-71.604	-76.679	101.428	59.555	-76.429	-69.092	26.142	51.057	-69.453	-62.228	-62.088	-55.027	48.034	-55.171	-8191	255	
1394.773	1	1	0	0	0.10667	0.25982	0.12318	0.32063	0.18617	0.11407	0.29377	0.20632	0.11753	0.27594	0.20047	0.11829	0.42235	0.13869	0.048325	0.20222	-3.2042	-2.9396	-2.9208	-3.5979	-2.5563	-3.55	-3.2979	-2.8563	-3.4938	-2.9688	-3.1458	-3.5542	-2.5417	-3.3083	-3.3021	-2.6792	244.824	-52.711	216.471	-59.370	156.094	-23.126	206.657	262.040	141.600	191.129	-73.224	210.840	255.224	227.234	175.858	235.626	4.9652e-05	0.00016436	7.8198e-05	1034.2	3.0809e-07	3.691e-06	1137.9	207.15	1.8646e-06	3.8577e-06	267.04	76.422	59.773	17.701	1.9376e-06	25.051	0.00013341	0.00013424	3.7418e-05	1001.5	1.5275e-06	1.442e-06	1102.9	202.77	1.4742e-06	1.4486e-06	260.42	76.023	59.308	17.615	1.4182e-06	24.811	220.586	36.629	18.934	-76.351	-40.449	54.803	-76.370	-68.996	57.449	61.547	-69.363	-62.520	-62.231	-55.432	28.636	-55.275	-8191	255	
1394.869	1	1	0	0	0.034506	0.16171	0.0589	0.31699	0.20768	0.20409	0.13293	0.17109	0.07864	0.093888	0.13707	0.10621	0.22603	0.19422	0.087008	0.055277	-3.3146	-2.9188	-3.0708	-3.875	-2.9479	-3.2583	-3.6854	-2.8792	-3.6333	-3.125	-3.1896	-3.5896	-2.7812	-3.3729	-3.4375	-2.8875	-7.242	15.249	122.332	268.698	-12.866	265.502	12.541	263.542	40.934	138.176	182.263	252.852	-19.141	-66.703	240.862	-45.402	5.5469e-05	0.00049009	9.5488e-05	1030.4	1.8283e-06	3.3999e-06	1133.8	205.92	6.736e-07	1.2313e-06	266.85	75.679	59.335	17.816	2.8753e-06	24.855	0.00013311	0.00012699	3.6701e-05	999.73	1.5024e-06	1.4404e-06	1101	202.52	1.4078e-06	1.3925e-06	260.04	75.771	59.192	17.595	1.3944e-06	24.736	229.470	9.271	-36.870	-76.874	118.535	85.077	-76.402	-69.121	-11.115	-5.517	-69.405	-62.437	-62.393	-55.238	96.980	-55.402	-8191	255	
1394.965	1	1	0	0	0.098148	0.060465	0.19637	0.39034	0.18617	0.050392	0.1383	0.25352	0.095848	0.029458	0.13645	0.29992	0.058717	0.29132	0.095184	0.07843	-3.2667	-3.075	-2.8729	-3.6604	-2.9813	-2.9854	-3.6813	-2.925	-3.5292	-3.3396	-3.1188	-3.6562	-2.875	-3.4688	-3.3896	-3.0417	117.294	83.378	214.525	216.427	173.002	-44.778	185.790	167.016	27.636	18.415	-76.181	-64.302	178.762	240.170	255.757	7.049	4.2597e-05	0.00019204	4.4553e-05	1035.2	1.743e-06	3.1917e-06	1127.3	206.53	1.056e-06	1.9067e-06	267.08	75.881	59.859	17.518	1.7498e-06	24.869	0.00013229	0.00012413	3.5685e-05	1001.1	1.4618e-06	1.4009e-06	1099.1	202.63	1.4054e-06	1.372e-06	260.48	75.919	59.146	17.53	1.4095e-06	24.749	227.341	15.525	23.418	-76.838	91.526	45.407	-76.624	-69.129	107.181	87.635	-69.421	-62.159	-62.391	-55.225	35.220	-55.854	-8191	255	
1395.061	1	1	0	0	0.20401	0.061354	0.25322	0.1491	0.10759	0.23991	0.091783	0.074992	0.16671	0.13702	0.097572	0.21539	0.061015	0.094064	0.17842	0.12047	-3.0563	-3.3125	-2.9771	-3.7625	-3.0687	-3.2104	-3.7	-2.7333	-3.3125	-3.4854	-2.7	-3.6958	-3.2333	-2.8979	-3.6125	-2.6646	80.412	235.915	-50.790	174.155	262.216	-64.243	250.219	-58.273	14.373	180.498	222.487	-48.428	-79.494	273.059	186.508	129.708	6.4977e-05	0.00039289	0.0001062	1028.5	1.166e-06	3.7184e-06	1127.2	205.83	2.1421e-06	1.6161e-06	267.45	76.546	59.828	17.753	1.7443e-06	24.704	0.00013106	0.00012073	3.4586e-05	998.5	1.4185e-06	1.3734e-06	1097.5	202.72	1.4001e-06	1.3308e-06	260.5	76.124	59.185	17.628	1.3514e-06	24.813	213.709	-1.164	35.334	-76.689	18.659	105.923	-76.551	-68.802	62.496	35.075	-69.755	-62.858	-62.217	-55.607	73.886	-55.823	-8191	255	
1395.157	1	1	0	0	0.2742	0.17419	0.11034	0.10226	0.23443	0.092403	0.17354	0.25725	0.058957	0.18022	0.28431	0.16578	0.094725	0.36606	0.23777	0.29403	-3.1042	-3.4771	-2.9792	-3.7167	-3.1708	-2.9208	-3.75	-2.75	-3.1583	-3.3146	-2.7687	-3.4667	-3.2188	-2.8771	-3.5333	-2.9625	-10.961	118.872	203.212	201.576	66.391	33.568	231.976	252.123	53.699	100.963	208.531	-39.874	211.986	177.573	146.573	165.614	8.2974e-05	0.00040868	7.5098e-05	1029.6	5.1322e-07	1.8216e-06	1129	205.47	5.282e-07	1.285e-06	266.7	76.69	59.532	17.774	3.7028e-06	24.692	0.00012813	0.00012036	3.4035e-05	999.07	1.4327e-06	1.3879e-06	1099.2	202.7	1.4129e-06	1.3398e-06	260.39	76.123	59.097	17.629	1.3654e-06	24.726	205.002	15.181	-49.018	-76.696	77.391	79.982	-76.437	-69.028	26.801	135.002	-69.449	-63.024	-62.315	-55.476	75.790	-55.612	-8191	255	
1395.254	1	1	0	0	0.15761	0.15985	0.13593	0.35236	0.22815	0.049596	0.1978	0.17219	0.12235	0.27359	0.2665	0.19127	0.10503	0.083005	0.092836	0.083957	-2.6458	-3.2875	-2.6979	-3.5417	-3.275	-2.9958	-3.6521	-3.0583	-3.1937	-3.5812	-2.7417	-3.4333	-3.3375	-2.7208	-3.5938	-3.2479	253.007	26.554	13.366	108.573	22.509	175.458	156.224	181.248	231.529	192.606	148.138	-85.788	246.264	205.627	225.276	98.406	6.0734e-05	0.00037403	4.7284e-05	1031.1	1.9605e-06	3.3217e-06	1130.1	206.71	1.111e-06	3.4709e-06	266.02	76.851	59.824	17.774	3.2761e-06	25.179	0.00012935	0.00012298	3.5247e-05	1000.3	1.4222e-06	1.3908e-06	1099.8	202.77	1.4331e-06	1.3216e-06	260.62	76.306	59.147	17.612	1.3761e-06	24.884	242.595	7.256	-8.073	-76.887	85.543	92.839	-76.514	-68.763	73.220	62.130	-69.343	-62.592	-61.944	-55.303	67.501	-55.545	-8191	255	
1395.350	1	1	0	0	0.13775	0.22776	0.23706	0.09054	0.23259	0.19337	0.18361	0.077855	0.19309	0.32154	0.17464	0.085443	0.24195	0.26894	0.22325	0.10476	-2.8458	-3.7	-2.6979	-3.3792	-3.3042	-2.8625	-3.7062	-3.0771	-3.0375	-3.7771	-2.6104	-3.4104	-3.4875	-2.7458	-3.625	-3.2417	-13.267	39.228	52.121	194.917	-81.448	14.393	139.464	225.073	186.628	96.965	72.364	164.605	198.522	257.226	-36.946	258.114	4.2687e-05	0.00026176	4.5534e-05	1037.6	1.3172e-06	1.2516e-06	1137	206.18	1.3272e-06	2.3389e-06	267.61	77.034	60.242	17.871	1.5477e-06	25.123	0.00012811	0.0001235	3.4515e-05	1003.5	1.4071e-06	1.35e-06	1104.5	202.68	1.424e-06	1.3281e-06	261.15	76.659	59.566	17.692	1.3302e-06	24.915	232.834	8.320	-29.879	-76.864	66.391	73.184	-76.526	-68.705	77.821	62.322	-69.348	-62.777	-62.404	-55.412	-2.778	-55.741	-8191	255	
1395.470	1	1	0	0	0.11433	0.15318	0.26469	0.1376	0.06868	0.11559	0.30374	0.073661	0.21398	0.12681	0.14863	0.050241	0.10394	0.13246	0.18785	0.085134	-2.6	-3.4458	-2.7646	-3.2438	-3.3979	-2.6521	-3.8104	-3.3812	-2.8604	-3.625	-2.9437	-3.0687	-3.5146	-2.7771	-3.4521	-3.2958	212.095	39.606	127.073	236.341	41.077	-60.872	181.742	224.423	225.268	218.764	180.455	24.008	-61.021	16.632	239.160	-66.850	7.5555e-05	0.00018891	9.1866e-05	1037.2	2.7804e-06	2.1897e-06	1141	207.83	7.2239e-07	2.3068e-06	267.73	76.774	60.314	17.809	9.4834e-07	25.303	0.00012958	0.0001215	3.4571e-05	1006.2	1.4009e-06	1.3683e-06	1106.8	203.74	1.4397e-06	1.3729e-06	261.75	76.373	59.634	17.692	1.3464e-06	24.943	226.608	97.961	-6.033	-76.714	48.641	41.777	-76.617	-69.192	58.953	-9.008	-69.210	-62.525	-62.316	-55.101	108.207	-55.803	-8191	255	
1395.566	1	1	0	0	0.13289	0.18709	0.18251	0.079452	0.053932	0.24293	0.20532	0.094239	0.18274	0.054871	0.43117	0.053362	0.17171	0.14573	0.35996	0.20468	-2.3354	-3.4917	-2.9021	-3.1708	-3.4792	-2.6771	-3.4292	-3.3625	-2.7146	-3.5708	-2.9437	-2.9729	-3.5542	-2.7542	-3.2271	-3.1896	-9.358	271.517	-64.624	268.701	40.394	144.954	150.667	128.155	-33.606	131.072	272.550	38.859	201.882	97.853	232.076	251.486	6.127e-05	0.00030454	8.6308e-05	1035	2.6174e-06	2.9877e-06	1140.3	208.35	6.1937e-07	4.033e-06	267.93	76.457	60.179	17.833	1.1167e-06	24.945	0.00013398	0.00012422	3.4914e-05	1005.5	1.4605e-06	1.4086e-06	1108.1	203.35	1.494e-06	1.4074e-06	261.62	76.389	59.397	17.712	1.3961e-06	24.879	203.458	4.442	13.074	-77.069	96.861	48.217	-76.414	-69.113	19.197	74.802	-69.338	-62.576	-62.293	-55.389	168.403	-56.052	-8191	255	
1395.663	1	1	0	0	0.0055227	0.25875	0.15477	0.13205	0.060447	0.10174	0.11714	0.3301	0.23258	0.28101	0.1629	0.05988	0.22434	0.31076	0.08467	0.19009	-2.55	-3.4146	-2.9688	-2.9458	-3.4479	-2.8458	-3.3667	-3.3917	-2.8125	-3.4292	-3.1229	-2.825	-3.7	-2.9833	-3.1188	-3.3958	20.695	143.888	126.643	235.322	268.261	25.927	-3.170	166.137	218.684	109.495	-83.325	-52.192	230.745	238.365	-33.520	183.422	5.4917e-05	0.00023028	3.8427e-05	1037.1	1.3459e-06	1.179e-06	1141.9	207.54	6.4063e-07	1.7537e-06	267.89	76.845	60.253	17.938	2.7098e-06	25.061	0.00013209	0.00012422	3.4963e-05	1005.6	1.4824e-06	1.3624e-06	1107.3	203.64	1.425e-06	1.3961e-06	262.2	76.55	59.69	17.736	1.4119e-06	24.957	206.114	13.493	-20.190	-76.696	52.539	116.586	-76.758	-69.018	152.392	41.489	-69.640	-62.442	-62.100	-55.415	111.049	-55.551	-8191	255	
1395.781	1	1	0	0	0.1452	0.073171	0.222	0.2426	0.19829	0.18178	0.052444	0.096746	0.16378	0.21593	0.22486	0.15255	0.20916	0.11734	0.1063	0.10042	-2.5	-3.1521	-3.05	-3.1792	-3.5917	-2.9771	-3.2646	-3.5854	-2.9062	-3.3604	-3.3104	-2.8667	-3.7125	-3.0375	-3.0375	-3.6562	49.244	125.204	138.147	217.642	43.871	64.801	0.842	-26.035	227.496	96.925	-51.418	-30.036	163.835	111.927	78.382	230.160	5.5956e-05	0.00018599	4.2673e-05	1032.7	1.7638e-06	2.5521e-06	1135.8	206.71	2.301e-06	3.7529e-06	268.71	76.969	60.283	17.753	8.5959e-07	25.266	0.00012796	0.00012337	3.4529e-05	1005.4	1.4237e-06	1.3903e-06	1106.6	203.59	1.4398e-06	1.3521e-06	261.7	76.546	59.628	17.704	1.3525e-06	24.922	223.540	15.211	45.139	-76.616	101.991	48.045	-76.352	-68.701	54.970	24.413	-69.492	-62.843	-62.577	-54.988	62.510	-55.855	-8191	255	
1395.853	1	1	0	0	0.25194	0.099076	0.15835	0.44849	0.077728	0.1305	0.26538	0.059419	0.26883	0.061095	0.15528	0.21184	0.15688	0.11028	0.29273	0.19993	-2.4792	-3.1958	-3.3563	-3.0167	-3.5708	-3.0833	-3.1417	-3.5708	-2.8187	-3.3979	-3.4458	-2.7875	-3.5021	-3.1208	-2.6792	-3.7562	146.506	170.766	110.397	213.805	89.437	241.786	231.755	-36.469	108.722	-24.019	177.622	39.253	233.072	254.812	93.608	170.974	6.7682e-05	0.00026578	5.8075e-05	1042.2	2.8718e-06	1.9914e-06	1132.5	207.55	7.4367e-07	4.2605e-06	267.17	76.776	60.063	17.811	1.1023e-06	25.128	0.00013284	0.00012501	3.4561e-05	1008	1.4463e-06	1.4129e-06	1105.8	203.58	1.4862e-06	1.4337e-06	262.25	76.59	59.541	17.715	1.4133e-06	24.953	208.663	-19.278	80.603	-76.716	101.079	110.464	-76.511	-68.930	65.846	69.429	-69.317	-62.826	-61.956	-54.500	87.435	-55.305	-8191	255	
1395.949	1	1	0	0	0.31156	0.2519	0.10086	0.1632	0.16535	0.20855	0.10329	0.26017	0.085286	0.20597	0.12616	0.37136	0.26117	0.073577	0.11444	0.23876	-2.5875	-3.2333	-3.35	-2.9625	-3.5187	-3.0896	-3.1688	-3.6146	-3.0812	-3.3458	-3.6292	-2.9521	-3.5	-3.3146	-2.8	-3.6375	4.941	271.123	139.676	225.040	193.737	2.414	-79.206	199.795	157.133	-85.559	217.757	188.013	116.081	16.931	-18.022	207.838	4.9766e-05	0.00022461	5.8604e-05	1041	1.337e-06	2.0814e-06	1135.7	207.24	2.2203e-06	4.3514e-06	268.69	77.2	60.104	17.833	2.791e-06	25.037	0.00013695	0.00012902	3.6319e-05	1007.7	1.5031e-06	1.4539e-06	1105.1	204.02	1.5013e-06	1.4992e-06	262.13	76.685	59.508	17.728	1.4764e-06	24.965	222.387	-34.820	-7.021	-76.638	71.041	83.206	-76.292	-68.663	113.338	34.881	-69.446	-62.658	-62.532	-55.315	85.703	-55.769	-8191	255	
1396.070	1	1	0	0	0.22186	0.12656	0.29989	0.18443	0.0055679	0.17867	0.063702	0.075437	0.19632	0.21348	0.14196	0.31292	0.14358	0.090044	0.16558	0.055385	-2.6604	-2.9938	-3.4042	-2.9729	-3.5521	-3.1937	-3.2188	-3.4646	-3.2021	-3.0458	-3.5417	-2.8292	-3.3583	-3.4688	-2.8625	-3.6771	171.055	46.593	194.411	165.106	-49.571	-31.573	-4.229	143.046	63.671	11.825	228.722	50.875	-21.756	215.863	101.257	11.687	5.6597e-05	0.00053813	0.00010915	1037.9	1.5856e-06	3.5581e-06	1141.7	207.53	1.7457e-06	2.451e-06	269	76.857	60.33	17.881	1.8689e-06	25.165	0.00013548	0.00012969	3.5761e-05	1007.7	1.5026e-06	1.4355e-06	1107.5	203.61	1.5006e-06	1.4659e-06	262.74	76.562	59.621	17.713	1.4872e-06	24.912	220.241	27.172	-3.330	-76.652	16.858	77.082	-76.511	-68.985	75.816	71.109	-69.362	-62.825	-62.440	-55.174	78.709	-55.896	-8191	255	
1396.166	1	1	0	0	0.098032	0.21846	0.159	0.092126	0.12141	0.20301	0.17016	0.15442	0.082353	0.25171	0.20253	0.13294	0.14814	0.049961	0.17392	0.21157	-2.6875	-2.9646	-3.6229	-3.1167	-3.2438	-3.4479	-2.9542	-3.6375	-3.2438	-2.7542	-3.7687	-2.8979	-3.2458	-3.4604	-2.6396	-3.5354	271.322	176.745	104.679	-73.804	97.097	-51.831	211.931	167.803	-17.974	3.932	250.687	-70.768	-27.867	239.852	140.766	208.199	4.8435e-05	0.00019318	8.6028e-05	1038.4	1.9002e-06	3.2361e-06	1137	206.95	2.3645e-06	2.2526e-06	268.8	76.374	60.134	17.883	7.0659e-07	25.144	0.00013722	0.00013596	3.6703e-05	1006.3	1.5384e-06	1.4389e-06	1106.5	203.57	1.5179e-06	1.4395e-06	262.24	76.339	59.494	17.71	1.5259e-06	24.952	228.310	-22.742	-7.539	-76.747	59.426	82.193	-76.386	-68.660	27.424	56.252	-69.066	-62.574	-62.169	-54.911	30.287	-55.965	-8191	255	
1396.262	1	1	0	0	0.089101	0.24792	0.068027	0.38778	0.13591	0.04189	0.20027	0.29202	0.087878	0.11703	0.19465	0.034905	0.2232	0.27849	0.15746	0.27063	-2.8333	-2.95	-3.4646	-2.9042	-3.1937	-3.5625	-2.7042	-3.5062	-3.1354	-2.8229	-3.6625	-2.9979	-3.0479	-3.5438	-2.6917	-3.4437	205.062	184.624	-26.495	5.826	11.230	151.710	263.295	217.205	175.160	131.799	45.651	207.574	211.978	-54.270	-17.335	194.038	7.0919e-05	0.00023793	6.3008e-05	1041.4	1.0292e-06	4.0062e-06	1137.4	206.8	1.2799e-06	2.3453e-06	268.48	76.976	60.233	17.795	3.7309e-06	24.992	0.00013374	0.00013479	3.6789e-05	1006.8	1.4983e-06	1.4738e-06	1105.1	203.32	1.4969e-06	1.4719e-06	262.53	76.526	59.512	17.681	1.496e-06	24.856	224.073	-41.328	39.803	-76.801	47.374	55.975	-76.658	-68.876	110.912	48.448	-69.380	-61.997	-62.198	-54.946	93.414	-55.345	-8191	255	
1396.358	1	1	0	0	0.16082	0.13615	0.21745	0.085304	0.24606	0.19764	0.074089	0.32038	0.12625	0.020658	0.046464	0.14066	0.23522	0.25678	0.14065	0.22346	-2.9583	-2.6813	-3.5479	-3.1146	-3.0458	-3.5208	-2.9583	-3.4354	-3.4292	-2.8354	-3.6	-3.0708	-2.9979	-3.5938	-2.7396	-3.2479	-3.718	140.314	24.915	-32.253	-71.776	202.194	69.460	197.052	66.844	-14.536	13.650	-78.264	-54.812	40.293	89.371	242.050	6.6325e-05	0.00030434	8.1289e-05	1039.2	4.9223e-07	2.477e-06	1137.6	207.15	1.8468e-06	1.8876e-06	269.77	76.847	59.894	17.832	3.6444e-06	25.186	0.00013036	0.00013566	3.7481e-05	1007.4	1.5155e-06	1.4212e-06	1107.6	203.59	1.5139e-06	1.4712e-06	262.92	76.617	59.484	17.716	1.5253e-06	24.963	228.623	37.812	-35.418	-76.661	54.139	42.871	-76.395	-68.907	13.984	12.504	-69.419	-62.535	-62.179	-55.085	92.899	-55.696	-8191	255	
1396.430	1	1	0	0	0.16823	0.12687	0.16235	0.3662	0.081288	0.075716	0.26739	0.072529	0.1446	0.20027	0.25225	0.064378	0.077457	0.24199	0.24238	0.017024	-3.0083	-2.8312	-3.4396	-3.5187	-2.7875	-3.8563	-3.1104	-3.1917	-3.5333	-2.7917	-3.5	-3.2062	-2.9479	-3.5708	-2.9167	-2.9979	65.511	149.219	-23.183	262.333	15.184	118.550	191.289	23.578	209.562	124.973	259.225	102.958	219.872	-44.611	225.575	128.856	6.9989e-05	0.00021761	8.8404e-05	1040.9	2.7061e-06	4.3799e-06	1141.8	208.05	1.2497e-06	2.5854e-06	268.67	76.272	59.877	17.765	3.6823e-06	24.953	0.00013667	0.00013455	3.5981e-05	1007.6	1.5038e-06	1.41e-06	1105.8	204.12	1.4933e-06	1.4446e-06	262.36	76.325	59.546	17.68	1.3901e-06	24.892	224.776	3.279	46.734	-76.902	54.068	61.573	-76.361	-68.819	51.578	50.848	-69.454	-62.308	-62.376	-55.063	92.406	-55.424	-8191	255	
1396.551	1	1	0	0	0.1096	0.080026	0.33596	0.36068	0.162	0.124	0.33168	0.25733	0.10962	0.077969	0.12415	0.062439	0.14912	0.078111	0.022852	0.15197	-3.1792	-2.725	-3.3812	-3.2833	-2.975	-3.5167	-3.2208	-2.9083	-3.4625	-2.9542	-3.0979	-3.5125	-2.7438	-3.7542	-3.0042	-3.0854	62.246	127.175	113.554	199.302	141.815	162.113	227.534	176.372	-66.637	25.170	240.790	139.549	215.237	123.058	-80.357	-77.333	7.0893e-05	0.00031332	0.00010022	1038	1.1197e-06	4.7783e-06	1131	207.5	1.4214e-06	3.6167e-06	268.79	76.543	60.292	17.564	1.3481e-06	25.108	0.00012888	0.00013075	3.5937e-05	1003.7	1.5064e-06	1.3683e-06	1100.7	203.23	1.4599e-06	1.4131e-06	261.97	76.157	59.304	17.535	1.4027e-06	24.887	220.000	-24.170	2.908	-76.826	185.118	63.899	-76.383	-68.713	93.768	98.195	-69.849	-62.696	-62.039	-55.238	65.388	-55.625	-8191	255	
1396.647	1	1	0	0	0.10513	0.31706	0.16147	0.18651	0.088078	0.00411	0.34816	0.1724	0.080216	0.16838	0.2441	0.23409	0.16873	0.26019	0.044445	0.064197	-3.2229	-2.8708	-3.1625	-3.6708	-2.7458	-3.5271	-3.3937	-3.0812	-3.5062	-2.9167	-3.2083	-3.5646	-2.9396	-3.4688	-3.0563	-2.9104	-78.595	120.596	208.727	179.482	247.812	177.175	231.708	160.032	272.235	155.931	137.698	257.564	105.526	-68.530	-16.963	154.893	6.4374e-05	0.00015169	0.00010886	1031.4	2.9757e-06	3.8364e-06	1125	206.79	1.4456e-06	3.7242e-06	266.24	75.438	59.88	17.627	5.4643e-07	24.963	0.0001306	0.00012786	3.546e-05	999.77	1.4624e-06	1.3473e-06	1095.9	202.74	1.4191e-06	1.4098e-06	261.13	75.704	59.285	17.489	1.4016e-06	24.772	219.602	-2.518	15.534	-76.794	98.036	21.937	-76.701	-68.950	72.173	55.869	-69.144	-62.531	-62.055	-55.138	110.126	-55.396	-8191	255	
1396.743	1	1	0	0	0.011208	0.26433	0.14355	0.14497	0.09883	0.15275	0.17506	0.14099	0.13135	0.23413	0.1539	0.020681	0.13062	0.26393	0.28395	0.20805	-3.1521	-2.8812	-3.0333	-3.7729	-2.7625	-3.3917	-3.4979	-2.8396	-3.6896	-2.9021	-3.2021	-3.625	-2.9542	-3.5208	-3.2188	-2.8521	165.633	162.509	229.967	184.629	-17.152	35.316	-32.374	237.854	156.229	144.729	138.740	57.467	-49.203	-54.724	227.798	216.196	4.9669e-05	0.00039664	0.00010426	1028.2	1.7483e-06	1.2624e-06	1126.7	205.59	1.9083e-06	1.5744e-06	266.89	75.929	59.648	17.602	2.4412e-06	24.993	0.00013327	0.00012899	3.6123e-05	996.72	1.4796e-06	1.3822e-06	1095.5	202.03	1.4433e-06	1.4029e-06	260.42	75.688	59.022	17.475	1.4386e-06	24.675	200.861	-41.559	1.167	-76.562	16.781	50.489	-76.395	-68.901	39.789	52.265	-69.216	-62.120	-62.493	-55.299	52.652	-55.495	-8191	255	
1396.862	1	1	0	0	0.13948	0.24311	0.28508	0.22115	0.10709	0.035919	0.19279	0.27652	0.12507	0.052125	0.29331	0.12535	0.32792	0.04098	0.24021	0.11342	-3.3042	-3.0375	-2.9167	-3.7958	-2.6771	-3.2354	-3.5583	-2.7917	-3.5104	-2.9229	-3.1292	-3.5479	-2.8292	-3.2604	-3.575	-2.7771	155.902	85.936	-14.395	264.185	232.955	263.779	225.177	237.742	192.150	201.226	253.450	139.658	-3.850	70.090	61.808	205.627	3.4704e-05	0.00039522	7.3144e-05	1025.6	1.8237e-06	3.2044e-06	1119.8	206.67	2.3883e-06	1.1121e-06	265.99	75.79	59.768	17.614	2.3827e-06	24.808	0.00013345	0.00012895	3.5976e-05	994.53	1.4995e-06	1.4247e-06	1092.3	202.25	1.4708e-06	1.3596e-06	260.28	75.674	58.981	17.466	1.3889e-06	24.732	205.004	-42.256	0.960	-76.673	53.374	58.908	-76.515	-68.980	49.951	100.264	-69.553	-62.353	-61.658	-55.261	39.009	-55.638	-8191	255	
1396.958	1	1	0	0	0.059581	0.16841	0.27473	0.14422	0.13107	0.16049	0.26914	0.19552	0.27104	0.22056	0.10757	0.065092	0.23837	0.13732	0.14579	0.22023	-3.1896	-3.2146	-2.8833	-3.6979	-2.8542	-3.1896	-3.7542	-2.6521	-3.4333	-3.25	-3.0146	-3.5917	-2.8708	-3.1312	-3.4729	-2.7458	127.887	76.632	25.634	176.090	-7.143	238.075	227.846	224.098	95.664	137.756	185.447	-82.852	23.219	191.807	256.348	111.410	5.3732e-05	0.00037259	6.1534e-05	1024.5	1.6587e-06	2.0631e-06	1128.7	205.88	2.0679e-06	5.0702e-06	267.29	75.385	59.391	17.586	2.4679e-06	24.856	0.0001306	0.00012865	3.6838e-05	993.36	1.4746e-06	1.4197e-06	1091.9	202.08	1.3843e-06	1.4045e-06	259.7	75.623	58.894	17.504	1.3915e-06	24.683	235.566	-15.622	-12.336	-76.729	73.143	184.289	-76.313	-68.663	14.596	68.553	-69.465	-62.546	-62.212	-54.721	73.895	-55.827	-8191	255	
1397.054	1	1	0	0	0.19859	0.11988	0.084289	0.18296	0.12733	0.25004	0.12396	0.13148	0.20683	0.048759	0.17817	0.14114	0.13974	0.19965	0.026387	0.074213	-2.9708	-3.1708	-2.7292	-3.7271	-3.0583	-3.0958	-3.5667	-2.9042	-3.3354	-3.3604	-2.9333	-3.4958	-3.0583	-3.075	-3.6583	-2.5875	129.509	-24.307	89.194	253.554	89.925	39.453	230.842	-84.535	217.549	38.493	-76.416	189.755	101.824	189.500	0.293	31.205	5.5065e-05	0.00032114	1.2825e-05	1020.6	1.5879e-06	1.0763e-06	1121	204.75	8.5908e-07	1.9868e-06	266.42	76.404	59.513	17.571	2.3113e-06	24.921	0.00012747	0.00012698	3.5379e-05	993.69	1.4505e-06	1.3303e-06	1091.8	201.96	1.4714e-06	1.3607e-06	259.85	75.721	58.814	17.459	1.3955e-06	24.73	223.964	2.744	6.984	-76.785	55.588	17.195	-76.826	-69.395	85.821	109.357	-69.451	-62.439	-61.798	-55.182	109.560	-55.292	-8191	255	
1397.150	1	1	0	0	0.047774	0.25088	0.1658	0.34559	0.13099	0.10716	0.18731	0.10663	0.22164	0.18711	0.19652	0.14132	0.30373	0.20847	0.2327	0.063037	-2.8396	-3.2562	-2.6083	-3.6771	-3.0479	-2.9938	-3.8583	-2.7146	-3.2542	-3.4333	-2.8937	-3.475	-3.1479	-2.9229	-3.525	-2.925	107.423	-30.389	116.627	227.482	-62.725	-35.145	240.303	-69.824	165.786	22.549	215.022	233.151	237.024	237.171	68.567	71.267	4.2277e-05	0.00014478	4.5216e-05	1028.6	2.5514e-06	5.3641e-06	1121.8	207.51	7.2006e-07	3.3681e-06	264.23	75.822	59.695	17.682	9.9481e-07	24.94	0.00013336	0.00012313	3.4615e-05	994.79	1.4317e-06	1.3859e-06	1092.1	202.44	1.392e-06	1.3798e-06	259.48	75.561	58.998	17.526	1.3847e-06	24.677	210.907	12.554	21.521	-76.610	64.610	59.795	-76.250	-68.870	109.284	84.022	-69.130	-62.640	-62.258	-55.025	42.635	-55.201	-8191	255	
1397.246	1	1	0	0	0.074353	0.14977	0.14126	0.032263	0.19109	0.19199	0.23106	0.19172	0.11614	0.24506	0.10441	0.11295	0.21655	0.034932	0.042025	0.039715	-2.8104	-3.5604	-2.6521	-3.3812	-3.3292	-2.7979	-3.6125	-2.9583	-2.8917	-3.35	-2.9021	-3.5542	-3.2104	-2.9667	-3.5062	-2.9813	124.640	26.822	22.179	199.452	206.762	172.959	198.473	242.935	93.291	126.846	100.692	236.624	74.057	-51.342	198.197	-20.220	5.946e-05	0.00024227	3.765e-05	1026.2	2.6175e-06	1.433e-06	1126.9	205.25	7.0476e-07	1.1918e-06	265.3	76.128	59.624	17.595	9.9693e-07	24.862	0.00013139	0.00012599	3.5389e-05	996.18	1.4322e-06	1.4456e-06	1094.3	201.78	1.4331e-06	1.3578e-06	260.22	75.871	59.078	17.498	1.4257e-06	24.698	223.803	2.134	86.590	-76.907	97.406	76.592	-76.565	-69.148	66.113	69.436	-69.790	-62.577	-62.347	-55.015	-52.924	-55.695	-8191	255	
1397.343	1	1	0	0	0.14063	0.19013	0.19214	0.15801	0.17471	0.15558	0.15155	0.16766	0.31662	0.11012	0.12223	0.069433	0.059288	0.01756	0.17085	0.13564	-2.5771	-3.6604	-2.7083	-3.35	-3.3875	-2.9042	-3.6771	-3.3646	-3.0458	-3.6562	-2.6729	-3.2625	-3.4479	-2.975	-3.5354	-3.2354	-38.566	89.922	86.196	222.847	241.722	82.103	237.588	205.807	71.231	38.737	260.792	137.356	259.359	165.529	272.926	37.140	5.6738e-05	0.00043144	1.4788e-05	1026.5	3.1993e-06	1.6719e-06	1123.7	205.96	1.2698e-06	4.1884e-06	266.31	75.543	59.844	17.601	1.0068e-06	24.769	0.00012741	0.00012729	3.5626e-05	995.26	1.4643e-06	1.4302e-06	1096	201.8	1.472e-06	1.4375e-06	259.78	75.69	58.944	17.529	1.3912e-06	24.677	218.338	6.582	-13.637	-76.830	45.740	94.210	-76.395	-68.750	15.491	52.306	-69.477	-62.749	-62.157	-55.065	-27.781	-55.436	-8191	255	
1397.463	1	1	0	0	0.12134	0.38846	0.10496	0.28066	0.13436	0.077955	0.18423	0.28861	0.1056	0.087842	0.19856	0.18793	0.2438	0.2557	0.10687	0.29981	-2.2917	-3.5354	-2.7354	-3.2292	-3.3417	-2.7333	-3.5542	-3.1667	-2.775	-3.5396	-2.8375	-3.2938	-3.3958	-2.9104	-3.3729	-3.2146	87.880	-25.802	168.246	142.569	36.560	233.671	183.825	172.975	2.038	40.901	181.041	235.786	164.035	-73.193	34.848	234.279	5.456e-05	4.9391e-05	7.6404e-05	1031.4	3.2456e-06	7.7275e-07	1129	204.83	8.8099e-07	2.4944e-06	265.6	76.353	60.128	17.752	3.0015e-06	24.882	0.00013547	0.00012602	3.6152e-05	998.15	1.4607e-06	1.4622e-06	1097.1	201.97	1.4521e-06	1.3668e-06	259.51	75.916	59.243	17.547	1.4288e-06	24.721	222.000	230.905	24.669	-76.759	102.892	-60.798	-76.537	-69.025	11.782	41.370	-69.262	-62.630	-62.324	-55.357	57.124	-55.528	-8191	255	
1397.558	1	1	0	0	0.15558	0.23163	0.27082	0.15762	0.18205	0.13734	0.16373	0.26329	0.21666	0.096975	0.20143	0.10057	0.18032	0.32058	0.27684	0.10867	-2.3646	-3.6667	-2.9479	-3.2021	-3.5896	-2.6896	-3.3917	-3.2417	-2.9375	-3.6833	-3.0479	-2.95	-3.5396	-2.8708	-3.0646	-3.3896	80.860	269.306	0.025	271.834	36.775	172.243	-6.396	237.184	163.263	69.704	213.938	-14.473	-47.526	-39.823	233.992	-73.953	5.0942e-05	0.00018404	3.1253e-05	1027.7	1.7188e-06	2.6145e-06	1128.7	204.53	8.3686e-07	2.3437e-06	266.21	75.988	59.448	17.671	2.0586e-06	24.897	0.00013373	0.00012362	3.624e-05	997.58	1.5269e-06	1.3884e-06	1096.6	201.79	1.5022e-06	1.4034e-06	260.43	75.836	59.098	17.556	1.4591e-06	24.751	194.075	18.123	-11.585	-76.990	132.627	48.540	-76.487	-69.044	40.825	14.997	-69.405	-62.863	-62.311	-54.847	99.117	-55.210	-8191	255	
1397.654	1	1	0	0	0.24352	0.25072	0.20319	0.056778	0.065585	0.11071	0.016744	0.2298	0.11058	0.15442	0.095055	0.14866	0.062691	0.17733	0.22947	0.13777	-2.5729	-3.5396	-3.1312	-3.1208	-3.6354	-2.8604	-3.3625	-3.4521	-2.7292	-3.4062	-3.2854	-2.9417	-3.6479	-2.7938	-3.225	-3.625	167.870	261.331	139.771	-64.525	137.933	36.445	183.012	209.342	67.812	11.746	159.844	-40.766	-28.841	93.348	193.212	206.199	5.6753e-05	0.00029656	4.7899e-05	1026.7	1.2537e-06	1.6562e-06	1124.7	206.46	4.1424e-07	3.147e-06	265.04	76.088	59.77	17.544	3.3667e-06	24.783	0.0001383	0.00013022	3.6911e-05	997.15	1.4613e-06	1.4392e-06	1096.6	202.04	1.4733e-06	1.4155e-06	259.64	76.021	59.138	17.518	1.4363e-06	24.706	222.589	-7.947	257.802	-76.822	153.805	90.976	-76.743	-68.995	227.355	68.369	-69.437	-62.615	-62.150	-55.008	76.874	-55.266	-8191	255	
1397.752	1	1	0	0	0.13943	0.1073	0.11569	0.35147	0.1876	0.03827	0.31629	0.24368	0.22856	0.12628	0.098263	0.096556	0.052964	0.060466	0.061866	0.16326	-2.3042	-3.4667	-3.2313	-3.1	-3.5375	-3.0292	-3.1833	-3.5708	-2.6333	-3.4313	-3.3583	-2.9646	-3.6125	-3.0083	-2.8833	-3.7667	219.879	-48.532	112.263	-85.165	110.186	42.708	222.820	-50.742	12.933	-23.092	154.202	-73.477	263.317	135.905	186.447	31.329	3.8923e-05	0.00045316	0.00011649	1026	2.0291e-06	2.9946e-06	1124.8	205.7	1.4582e-06	3.2295e-06	266.46	76.356	59.354	17.598	1.2248e-06	25.01	0.00013654	0.00012839	3.709e-05	996.98	1.4835e-06	1.4131e-06	1095.3	201.84	1.4672e-06	1.3865e-06	260	76.103	59.149	17.536	1.4087e-06	24.802	221.452	-23.408	24.661	-77.044	66.731	51.692	-76.760	-69.029	23.013	37.372	-69.631	-62.948	-62.429	-54.995	75.081	-55.062	-8191	255	
1397.846	1	1	0	0	0.23215	0.016719	0.10981	0.22815	0.10221	0.095309	0.17013	0.11577	0.087129	0.049802	0.030328	0.049372	0.095751	0.21684	0.30804	0.22248	-2.3729	-3.3333	-3.1458	-2.9938	-3.4521	-3.0438	-3.1896	-3.6625	-2.7625	-3.3812	-3.3187	-2.6	-3.5458	-3.0521	-2.9917	-3.5687	102.730	230.462	127.243	-74.590	246.435	18.174	236.094	11.423	149.419	169.772	72.320	119.767	216.233	-69.940	178.786	269.589	5.479e-05	0.00055221	5.3269e-05	1029.8	1.3179e-06	3.5629e-06	1131.9	205.21	2.2191e-06	4.2834e-06	267.82	76.281	60.049	17.734	3.1147e-06	24.957	0.00013169	0.00013209	3.5724e-05	999.49	1.4421e-06	1.414e-06	1099.5	201.92	1.4736e-06	1.4177e-06	260.93	76.02	59.18	17.581	1.4453e-06	24.74	226.456	20.556	-2.957	-77.073	56.899	48.151	-76.589	-69.143	55.150	71.943	-69.290	-62.674	-62.253	-54.971	90.545	-55.697	-8191	255	
1397.942	1	1	0	0	0.10916	0.045717	0.04434	0.19579	0.16622	0.1392	0.41164	0.28659	0.15528	0.04188	0.2235	0.29529	0.10138	0.18416	0.10943	0.27348	-2.7	-3.1625	-3.35	-2.9271	-3.4583	-3.1562	-2.8729	-3.6625	-2.8187	-3.0417	-3.5833	-2.6437	-3.5792	-3.1146	-2.875	-3.4625	234.657	160.081	208.582	207.648	211.593	-53.810	229.970	163.292	125.714	134.057	-82.804	-46.150	244.557	-66.505	-55.205	60.250	4.0585e-05	0.00027908	6.4634e-05	1032.6	1.8162e-06	1.5758e-06	1127.6	205.16	2.9179e-07	2.1378e-06	266.46	76.278	59.742	17.626	9.9918e-07	24.978	0.00013249	0.00012706	3.6292e-05	1000.3	1.4471e-06	1.3979e-06	1098.8	201.71	1.5078e-06	1.4471e-06	260.69	76	59.175	17.587	1.3867e-06	24.798	221.125	-15.168	20.742	-76.999	96.747	251.597	-76.700	-69.174	107.813	109.140	-69.113	-62.557	-62.016	-55.104	120.862	-55.992	-8191	255	
#DATA ENDS
