BOXY.EXE: ISS Imagent and Oximeter Data Acquisition Program Version 0.80
Ascii Record File

#ACQ INFORMATION
2  Detector Channels 
16  External MUX Channels 
1  Auxiliary Channels 
5000  Waveform (CCF) Frequency (Hz)
1  Waveforms Skipped 
30  Waveforms Averaged 
1  Cycles Averaged 
16  Acquisitions per Waveform 
10.0806  Updata Rate (Hz) 

#FILE INFORMATION
TRUE -- External MUX Channel results are PARSED.
FALSE -- AC DC and Phase are NOT grouped.
TRUE -- Companion Program Settings File CREATED.
FALSE -- AC data not excluded
FALSE -- DC data not excluded
FALSE -- Phase data not excluded
FALSE -- Auxillary Chn. data not excluded
Tab delimiters

#CALIBRATION STATE
TRUE -- Waveform Calibration Values APPLIED.


#AUX CALIBRATION VALUES
Val Type	aux-1	

Term	1.0000e+00	
Factor	0.0000e+00	


#WF CALIBRATION VALUES
A = Detector Channel
Val Type	A-AC1	A-AC2	A-AC3	A-AC4	A-AC5	A-AC6	A-AC7	A-AC8	A-AC9	A-AC10	A-AC11	A-AC12	A-AC13	A-AC14	A-AC15	A-AC16	A-DC1	A-DC2	A-DC3	A-DC4	A-DC5	A-DC6	A-DC7	A-DC8	A-DC9	A-DC10	A-DC11	A-DC12	A-DC13	A-DC14	A-DC15	A-DC16	A-Ph1	A-Ph2	A-Ph3	A-Ph4	A-Ph5	A-Ph6	A-Ph7	A-Ph8	A-Ph9	A-Ph10	A-Ph11	A-Ph12	A-Ph13	A-Ph14	A-Ph15	A-Ph16	

Term	0.00000e+00	0.00000e+00	0.00000e+00	0.00000e+00	0.00000e+00	0.00000e+00	0.00000e+00	0.00000e+00	0.00000e+00	0.00000e+00	0.00000e+00	0.00000e+00	0.00000e+00	0.00000e+00	0.00000e+00	0.00000e+00	0.00000e+00	0.00000e+00	0.00000e+00	0.00000e+00	0.00000e+00	0.00000e+00	0.00000e+00	0.00000e+00	0.00000e+00	0.00000e+00	0.00000e+00	0.00000e+00	0.00000e+00	0.00000e+00	0.00000e+00	0.00000e+00	0.00000e+00	0.00000e+00	0.00000e+00	0.00000e+00	0.00000e+00	0.00000e+00	0.00000e+00	0.00000e+00	0.00000e+00	0.00000e+00	0.00000e+00	0.00000e+00	0.00000e+00	0.00000e+00	0.00000e+00	0.00000e+00	
Factor	1.00000e+00	1.00000e+00	1.00000e+00	1.00000e+00	1.00000e+00	1.00000e+00	1.00000e+00	1.00000e+00	1.00000e+00	1.00000e+00	1.00000e+00	1.00000e+00	1.00000e+00	1.00000e+00	1.00000e+00	1.00000e+00	1.00000e+00	1.00000e+00	1.00000e+00	1.00000e+00	1.00000e+00	1.00000e+00	1.00000e+00	1.00000e+00	1.00000e+00	1.00000e+00	1.00000e+00	1.00000e+00	1.00000e+00	1.00000e+00	1.00000e+00	1.00000e+00	X	X	X	X	X	X	X	X	X	X	X	X	X	X	X	X	

B = Detector Channel
Val Type	B-AC1	B-AC2	B-AC3	B-AC4	B-AC5	B-AC6	B-AC7	B-AC8	B-AC9	B-AC10	B-AC11	B-AC12	B-AC13	B-AC14	B-AC15	B-AC16	B-DC1	B-DC2	B-DC3	B-DC4	B-DC5	B-DC6	B-DC7	B-DC8	B-DC9	B-DC10	B-DC11	B-DC12	B-DC13	B-DC14	B-DC15	B-DC16	B-Ph1	B-Ph2	B-Ph3	B-Ph4	B-Ph5	B-Ph6	B-Ph7	B-Ph8	B-Ph9	B-Ph10	B-Ph11	B-Ph12	B-Ph13	B-Ph14	B-Ph15	B-Ph16	

Term	0.00000e+00	0.00000e+00	0.00000e+00	0.00000e+00	0.00000e+00	0.00000e+00	0.00000e+00	0.00000e+00	0.00000e+00	0.00000e+00	0.00000e+00	0.00000e+00	0.00000e+00	0.00000e+00	0.00000e+00	0.00000e+00	0.00000e+00	0.00000e+00	0.00000e+00	0.00000e+00	0.00000e+00	0.00000e+00	0.00000e+00	0.00000e+00	0.00000e+00	0.00000e+00	0.00000e+00	0.00000e+00	0.00000e+00	0.00000e+00	0.00000e+00	0.00000e+00	-8.92709e+01	-1.28825e+02	-1.24038e+02	-1.83962e+02	-5.99715e+01	-6.47401e+01	-1.57159e+02	-1.62015e+02	-5.48480e+01	-7.10995e+01	-1.70729e+02	-1.70839e+02	-1.80289e+02	-1.77652e+02	-5.59847e+01	-1.50740e+02	
Factor	1.90359e-05	1.64344e-04	4.45320e-05	1.64583e-01	1.33975e-06	1.74344e-06	1.90588e-01	5.69177e-02	1.10681e-06	1.67741e-06	9.57273e-02	3.69650e-02	2.87415e-02	1.05468e-02	1.51595e-06	1.54879e-02	3.70208e-06	4.20420e-06	1.17489e-06	8.23578e-02	4.54401e-08	4.62410e-08	8.95767e-02	2.86398e-02	4.53497e-08	4.63083e-08	4.63350e-02	1.80061e-02	1.45506e-02	5.30554e-03	4.58462e-08	7.52433e-03	X	X	X	X	X	X	X	X	X	X	X	X	X	X	X	X	



#DISTANCE SETTINGS
A = Detector Channel
A-1	A-2	A-3	A-4	A-5	A-6	A-7	A-8	A-9	A-10	A-11	A-12	A-13	A-14	A-15	A-16	

2.5000e+00	3.0000e+00	2.5000e+00	3.0000e+00	2.0000e+00	3.0000e+00	1.5000e+00	3.0000e+00	3.0000e+00	3.0000e+00	3.0000e+00	3.0000e+00	3.0000e+00	3.0000e+00	1.5000e+00	3.0000e+00	

B = Detector Channel
B-1	B-2	B-3	B-4	B-5	B-6	B-7	B-8	B-9	B-10	B-11	B-12	B-13	B-14	B-15	B-16	

1.0000e+01	1.0000e+01	1.0000e+01	1.4400e+00	1.0000e+01	1.0000e+01	1.5100e+00	1.9400e+00	1.0000e+01	1.0000e+01	1.9900e+00	2.4900e+00	2.4100e+00	2.9000e+00	1.0000e+01	2.9800e+00	




#DATA BEGINS
time	group	step	mark	flag	A-AC1	A-AC2	A-AC3	A-AC4	A-AC5	A-AC6	A-AC7	A-AC8	A-AC9	A-AC10	A-AC11	A-AC12	A-AC13	A-AC14	A-AC15	A-AC16	A-DC1	A-DC2	A-DC3	A-DC4	A-DC5	A-DC6	A-DC7	A-DC8	A-DC9	A-DC10	A-DC11	A-DC12	A-DC13	A-DC14	A-DC15	A-DC16	A-Ph1	A-Ph2	A-Ph3	A-Ph4	A-Ph5	A-Ph6	A-Ph7	A-Ph8	A-Ph9	A-Ph10	A-Ph11	A-Ph12	A-Ph13	A-Ph14	A-Ph15	A-Ph16	B-AC1	B-AC2	B-AC3	B-AC4	B-AC5	B-AC6	B-AC7	B-AC8	B-AC9	B-AC10	B-AC11	B-AC12	B-AC13	B-AC14	B-AC15	B-AC16	B-DC1	B-DC2	B-DC3	B-DC4	B-DC5	B-DC6	B-DC7	B-DC8	B-DC9	B-DC10	B-DC11	B-DC12	B-DC13	B-DC14	B-DC15	B-DC16	B-Ph1	B-Ph2	B-Ph3	B-Ph4	B-Ph5	B-Ph6	B-Ph7	B-Ph8	B-Ph9	B-Ph10	B-Ph11	B-Ph12	B-Ph13	B-Ph14	B-Ph15	B-Ph16	aux-1	digaux	

1945.123	1	1	0	768	0.059798	0.18549	0.26234	0.12259	0.15857	0.17541	0.23194	0.17904	0.10075	0.15595	0.15436	0.17325	0.19655	0.25025	0.25206	0.066983	-2.9479	-3.2417	-2.6813	-3.4688	-2.9396	-2.7583	-3.5917	-2.7854	-3.2417	-3.4146	-2.8063	-3.375	-3.1188	-2.8521	-3.6479	-2.9271	-23.674	81.992	85.639	287.777	217.495	-9.118	271.074	24.326	-2.448	250.898	254.038	297.400	303.899	253.965	70.523	69.269	9.8026e-05	0.00016881	7.972e-05	707.41	7.2743e-06	3.1274e-06	680.45	136.81	4.2905e-06	2.0947e-06	151.69	44.831	39.328	12.98	8.6978e-07	15.962	0.0011439	0.0012872	0.0003644	682.68	1.4266e-05	1.4645e-05	660.63	137.8	1.4457e-05	1.4896e-05	155.63	47.926	41.7	13.946	1.4975e-05	17.462	200.570	179.295	170.639	-31.782	172.012	123.469	-31.723	-23.622	250.158	137.500	-25.405	-19.562	-18.068	-11.711	270.320	-14.424	-8191	255	
1945.219	1	1	0	0	0.11034	0.12434	0.1071	0.17687	0.09696	0.09753	0.28423	0.18788	0.29391	0.020925	0.13359	0.11906	0.14678	0.31427	0.30552	0.1542	-2.8125	-3.4729	-2.6937	-3.2458	-3.3896	-2.8417	-3.5625	-2.9375	-2.9396	-3.4917	-2.9521	-3.1833	-3.4167	-2.7896	-3.6292	-3.0771	4.304	107.811	206.098	306.649	272.334	251.996	300.362	168.639	163.288	128.046	206.871	212.217	135.481	120.073	50.599	211.330	2.245e-05	0.0008369	0.00023574	760.2	2.9345e-06	1.0667e-05	701.79	144.73	1.4109e-06	7.4563e-07	156.47	45.408	40.146	13.258	3.8727e-06	16.316	0.0012281	0.0013839	0.0003926	734.62	1.5254e-05	1.5624e-05	683.54	144.64	1.5416e-05	1.5879e-05	160.71	49.116	42.615	14.19	1.5622e-05	17.766	175.853	248.884	317.665	-31.809	-26.367	42.148	-31.635	-23.350	-10.123	187.267	-24.801	-19.707	-17.326	-11.591	203.181	-14.660	-8191	255	
1945.315	1	1	0	0	0.20755	0.15963	0.20704	0.083883	0.081836	0.19364	0.24611	0.20851	0.096479	0.17077	0.14749	0.38884	0.056218	0.18056	0.094397	0.042377	-2.6562	-3.3812	-2.5833	-3.3167	-3.3063	-2.6604	-3.45	-3.0583	-2.75	-3.5208	-2.8438	-3.1229	-3.4604	-2.7792	-3.6562	-3.175	271.756	209.362	203.585	213.638	219.916	281.219	266.758	303.654	94.408	190.623	124.944	-8.271	73.864	16.234	148.294	149.581	5.6024e-05	0.00039918	0.00014382	730.67	5.2656e-07	2.9569e-06	667.5	137.33	2.4019e-06	5.9724e-06	148.76	43.529	38.073	12.501	4.492e-06	15.519	0.001287	0.001421	0.0003945	710.58	1.539e-05	1.5578e-05	648.51	139.32	1.4916e-05	1.505e-05	153.85	47.114	40.483	13.502	1.4485e-05	16.945	178.667	28.712	238.490	-31.690	103.266	-30.053	-31.860	-23.074	228.832	135.563	-24.939	-19.802	-17.082	-11.229	152.212	-14.048	-8191	255	
1945.411	1	1	0	0	0.10935	0.092581	0.12977	0.22096	0.11731	0.042115	0.25509	0.16112	0.13661	0.018292	0.13273	0.10823	0.023692	0.18786	0.27257	0.2013	-2.6583	-3.5979	-2.7438	-3.2854	-3.4813	-2.8833	-3.4188	-3.0354	-2.8375	-3.5563	-2.875	-3.1125	-3.3125	-2.7188	-3.3229	-3.1521	-10.106	293.942	306.226	250.693	165.320	173.297	239.163	311.739	218.554	140.168	93.330	-15.989	64.098	27.194	313.201	53.374	5.4618e-05	0.0012859	0.00020916	641.63	2.6692e-06	8.6756e-06	590.85	125.27	2.5242e-06	8.5434e-06	138.01	40.928	35.287	11.789	5.7176e-06	14.869	0.0011835	0.0013213	0.00036574	624.6	1.3948e-05	1.428e-05	575.42	126.32	1.3791e-05	1.385e-05	142.04	44.114	37.562	12.649	1.3245e-05	16.043	223.323	66.828	-13.348	-31.134	45.402	234.795	-31.330	-22.700	316.780	73.732	-25.048	-19.897	-17.315	-11.721	146.631	-14.826	-8191	255	
1945.506	1	1	0	0	0.172	0.12848	0.1318	0.15849	0.11215	0.30119	0.11342	0.15517	0.080235	0.1666	0.27922	0.14422	0.26039	0.25425	0.032156	0.092391	-2.2542	-3.5	-2.8833	-3.2917	-3.4854	-2.7229	-3.2896	-3.2271	-2.8646	-3.4521	-3.1083	-2.9104	-3.5312	-2.7188	-3.1729	-3.2979	169.438	307.760	53.836	311.817	-30.967	302.947	311.971	160.533	273.320	16.761	210.213	100.163	291.017	289.776	-1.269	247.273	8.8769e-05	0.00024232	8.8355e-05	591.82	4.813e-06	1.3142e-06	561.55	121.31	1.5657e-06	3.5184e-06	133.39	39.836	34.262	11.282	3.3724e-06	14.106	0.0010881	0.0012127	0.00033273	574.52	1.3022e-05	1.3178e-05	547.12	121.11	1.2794e-05	1.2973e-05	136.89	42.623	36.274	12.034	1.2798e-05	15.386	176.559	21.691	117.066	-31.185	99.623	299.627	-31.276	-23.059	120.137	115.069	-24.839	-20.272	-17.433	-11.893	304.134	-15.005	-8191	255	
1945.603	1	1	0	0	0.41826	0.041999	0.12512	0.09842	0.17221	0.12313	0.18426	0.13578	0.13173	0.16006	0.14833	0.32956	0.10913	0.221	0.14634	0.27341	-2.3187	-3.35	-3.1458	-2.8146	-3.6021	-2.8729	-3.2104	-3.4021	-2.8771	-3.5042	-3.2146	-2.8958	-3.5896	-2.9896	-3.1479	-3.4188	114.554	214.587	236.468	44.250	90.429	84.412	191.985	84.365	23.236	49.215	259.108	98.406	53.221	171.540	264.357	110.606	6.6569e-05	0.00056279	0.00018768	554.03	1.9815e-06	5.0353e-06	530.92	118.42	1.497e-06	3.0486e-06	134.37	40.129	34.505	11.041	2.812e-06	14.072	0.0010314	0.0011422	0.00032416	536.56	1.2594e-05	1.276e-05	519.83	118.47	1.2686e-05	1.3029e-05	137.31	42.678	36.195	11.981	1.334e-05	15.333	169.326	-38.835	130.490	-31.005	162.360	222.036	-31.218	-22.851	257.747	253.201	-24.888	-19.188	-17.603	-11.353	47.303	-14.718	-8191	255	
1945.722	1	1	0	0	0.2055	0.23352	0.027903	0.081035	0.15544	0.093704	0.17163	0.19816	0.048483	0.1229	0.096002	0.097674	0.088467	0.1232	0.077795	0.13877	-2.5167	-3.3021	-3.1312	-2.7438	-3.6	-2.9042	-3.0687	-3.5479	-2.8792	-3.3979	-3.2604	-2.8917	-3.7313	-3.0292	-2.8667	-3.4562	231.702	305.886	145.947	308.312	70.750	1.148	46.270	-5.974	246.718	262.778	62.859	70.887	40.366	140.997	20.331	33.379	4.495e-05	0.00043827	0.00014376	527.72	3.3489e-06	1.6025e-06	493.42	111.77	1.7781e-06	3.1782e-06	125.49	37.383	31.551	10.107	8.3028e-06	13.099	0.001102	0.0012526	0.00034625	516.48	1.3377e-05	1.3305e-05	486.57	113.1	1.2978e-05	1.3296e-05	130.56	40.507	33.721	11.093	1.2934e-05	14.412	223.775	155.094	43.712	-30.436	33.684	26.229	-30.507	-22.857	166.190	295.550	-24.006	-19.185	-17.250	-11.011	234.842	-14.809	-8191	255	
1945.819	1	1	0	0	0.17331	0.14517	0.051469	0.18586	0.10363	0.037363	0.20337	0.097106	0.21334	0.16264	0.24204	0.2202	0.14261	0.26568	0.18602	0.088743	-2.2958	-3.4583	-3.0896	-2.7354	-3.5375	-2.9292	-2.9583	-3.4813	-2.7104	-3.1542	-3.4021	-2.7979	-3.5229	-3.0875	-2.9083	-3.5833	104.165	236.956	115.104	318.136	299.986	56.783	275.371	-39.792	188.488	258.160	249.353	-37.679	14.089	319.149	218.591	315.633	6.6187e-05	0.0003016	0.00025093	462.27	1.2927e-06	9.7259e-06	452.65	104.82	1.5412e-06	4.7333e-06	119.59	36.036	30.536	9.7922	2.845e-06	12.865	0.0010423	0.0011725	0.00032494	454.59	1.2592e-05	1.2848e-05	448.15	106.09	1.2757e-05	1.2946e-05	124.57	38.955	32.669	10.72	1.2841e-05	14.182	152.293	66.122	8.070	-30.338	189.626	96.910	-30.392	-22.492	41.280	284.914	-23.951	-19.508	-17.468	-11.144	202.538	-14.375	-8191	255	
1945.915	1	1	0	0	0.063583	0.15267	0.083573	0.14329	0.11729	0.23547	0.30074	0.064662	0.2274	0.19249	0.154	0.156	0.080792	0.14547	0.23275	0.41774	-2.4979	-2.9604	-3.3583	-2.8083	-3.3792	-3.1104	-2.8688	-3.4792	-2.6875	-3.0104	-3.3271	-2.7708	-3.325	-3.2167	-2.7417	-3.625	32.319	115.959	94.796	262.004	156.895	20.804	144.978	277.971	163.151	251.570	113.009	212.501	218.925	223.642	250.796	241.813	8.1381e-05	0.00070331	0.00018314	459.62	3.3207e-06	2.4871e-06	449.37	103.38	4.183e-06	9.0718e-07	118.67	35.253	29.585	9.6556	5.476e-06	12.616	0.0010554	0.001197	0.00033514	451.05	1.3152e-05	1.3568e-05	442.4	105.91	1.3202e-05	1.3554e-05	123.64	38.592	32.069	10.639	1.3343e-05	13.971	119.282	90.277	-31.204	-30.185	141.663	138.766	-30.409	-22.237	265.663	74.205	-24.465	-18.781	-16.864	-10.985	-8.611	-14.140	-8191	255	
1946.011	1	1	0	0	0.15954	0.12155	0.14893	0.053582	0.19066	0.15024	0.17176	0.06203	0.051696	0.20515	0.037438	0.071331	0.080733	0.20346	0.086414	0.1494	-2.4771	-3.0896	-3.5458	-2.7708	-3.2917	-3.2438	-2.8354	-3.5	-2.9458	-2.9562	-3.4437	-2.7792	-3.2729	-3.2833	-2.7375	-3.4104	201.474	290.972	291.286	-24.368	220.009	-21.774	26.758	93.120	229.566	270.390	68.324	-19.772	257.164	222.945	78.693	224.001	0.00010242	0.00073443	0.00012319	444.64	3.2842e-06	4.1775e-06	463.54	111.55	3.8838e-06	9.4633e-06	129.3	38.855	32.881	10.75	9.6797e-07	13.999	0.0010965	0.0012245	0.00033683	437.08	1.3147e-05	1.3439e-05	457.93	112.38	1.3143e-05	1.3414e-05	132.49	41.402	34.761	11.532	1.238e-05	15.052	260.009	298.300	141.174	-30.190	-35.216	281.649	-30.627	-22.247	-26.351	272.609	-23.933	-19.970	-17.055	-10.796	201.683	-14.251	-8191	255	
1946.107	1	1	0	0	0.092365	0.11708	0.23108	0.063763	0.30113	0.3025	0.27245	0.096417	0.055681	0.11268	0.063444	0.17654	0.21617	0.17629	0.1236	0.12394	-2.5896	-2.9292	-3.4188	-2.7354	-3.1375	-3.3771	-2.7833	-3.3792	-3.0542	-2.8917	-3.3187	-2.6542	-2.9875	-3.4	-2.6542	-3.3021	147.776	228.187	261.497	208.430	309.264	250.812	244.538	194.721	65.718	56.738	-22.046	307.425	256.637	92.171	289.531	193.895	6.3496e-05	0.0008825	0.00018879	491.15	3.0637e-06	8.8996e-06	499.36	122.76	2.0957e-06	4.7461e-06	140.89	42.81	36.659	12.01	2.5126e-06	15.881	0.0010052	0.0011118	0.0003072	476.98	1.1997e-05	1.1998e-05	488.23	122.52	1.1817e-05	1.2231e-05	144.05	45.004	38.269	12.834	1.2379e-05	16.837	219.986	87.380	7.700	-29.829	248.833	153.119	-30.928	-23.034	101.087	88.671	-25.020	-19.258	-17.594	-11.155	23.325	-14.478	-8191	255	
1946.203	1	1	0	0	0.18528	0.064986	0.25786	0.14115	0.24974	0.21769	0.20489	0.087379	0.26901	0.093772	0.23194	0.32876	0.055322	0.12669	0.12207	0.23027	-2.7833	-2.8667	-3.4583	-2.9375	-3.0333	-3.4042	-2.9708	-3.4875	-3.1208	-2.9708	-3.5979	-2.7833	-2.8479	-3.3542	-2.6813	-3.3458	219.362	-11.037	31.560	263.020	76.600	166.700	214.071	235.356	3.211	249.892	239.837	318.227	242.542	297.465	100.485	152.751	0.00010085	9.7205e-05	7.913e-05	509.78	1.8888e-06	4.1188e-06	511.99	127.37	1.634e-06	7.6906e-06	145.8	43.744	36.861	12.269	2.851e-06	15.749	0.0010258	0.0011595	0.00032595	498.29	1.2874e-05	1.295e-05	500.66	127.57	1.2657e-05	1.2872e-05	147.44	46.176	38.408	12.96	1.211e-05	16.749	141.305	84.141	311.266	-30.469	105.216	155.080	-30.748	-22.876	164.475	103.485	-24.846	-20.219	-17.560	-11.475	160.433	-14.786	-8191	255	
1946.299	1	1	0	0	0.032494	0.15392	0.038197	0.23972	0.058961	0.26875	0.23695	0.1978	0.24924	0.18072	0.03986	0.02827	0.11089	0.3122	0.1264	0.072162	-2.8479	-2.8729	-3.5396	-2.9167	-2.9542	-3.4771	-2.8083	-3.4062	-3.5104	-2.7833	-3.5187	-2.9188	-2.8875	-3.4917	-2.6833	-3.2583	107.103	136.823	-22.325	114.078	-24.402	275.341	238.399	244.981	198.577	249.396	268.885	251.999	74.809	263.191	172.875	113.129	4.117e-05	0.00060166	0.0001085	465.98	2.4316e-06	1.9662e-06	466.89	118.31	2.1882e-06	1.3154e-06	133.3	40.069	32.867	10.82	2.0559e-06	14.307	0.00097753	0.0011022	0.00030558	454.89	1.1781e-05	1.1763e-05	457.15	117.81	1.1468e-05	1.1869e-05	135.22	42.464	34.582	11.609	1.1912e-05	15.29	155.086	122.313	79.175	-29.849	202.059	214.115	-30.525	-22.958	200.844	85.630	-25.939	-20.352	-17.144	-11.416	255.403	-15.272	-8191	255	
1946.418	1	1	0	0	0.21628	0.26623	0.18053	0.11226	0.11618	0.25997	0.1512	0.1087	0.11659	0.20203	0.12721	0.037954	0.10344	0.065264	0.22635	0.23204	-2.9667	-2.9042	-3.4104	-3.0729	-2.7917	-3.3583	-2.8479	-3.3271	-3.3354	-2.8646	-3.3875	-3.2375	-2.8563	-3.4146	-2.8625	-3.1604	118.266	-14.642	317.229	212.196	129.640	312.470	229.541	159.566	167.751	181.137	277.014	133.216	3.517	39.818	147.887	40.751	7.3215e-05	0.00069611	0.00016739	423.64	4.3832e-06	2.4603e-06	436.99	110.33	6.8561e-06	9.728e-06	128.81	39.326	31.782	10.595	2.5948e-06	13.813	0.00097945	0.001108	0.00030501	413.71	1.1972e-05	1.1937e-05	429.18	111.11	1.1713e-05	1.2103e-05	131.09	41.51	33.765	11.304	1.1672e-05	14.869	180.244	8.155	46.885	-30.134	276.189	38.509	-30.636	-22.614	186.926	152.979	-25.178	-20.190	-18.098	-11.356	28.841	-14.975	-8191	255	
1946.514	1	1	0	0	0.13197	0.26311	0.10402	0.063792	0.2633	0.19634	0.035552	0.2645	0.2534	0.086781	0.19918	0.15564	0.17794	0.15893	0.079657	0.11021	-3.1083	-2.75	-3.2479	-3.1583	-2.8271	-3.4875	-2.9417	-3.0687	-3.3125	-2.5917	-3.225	-3.3479	-2.9104	-3.3812	-2.8875	-3.0563	132.139	36.475	229.019	227.883	212.536	232.688	164.637	291.560	12.725	-0.599	-2.386	225.690	221.192	126.269	-28.180	101.172	4.0578e-05	6.2182e-05	7.863e-05	401.19	1.1968e-06	4.8532e-06	413.34	103.54	1.8667e-06	4.8897e-06	122.74	37.253	30.157	10.157	1.0261e-06	13.669	0.00095787	0.0010768	0.00029929	393.43	1.1717e-05	1.1716e-05	407.09	104.67	1.1871e-05	1.1956e-05	125.63	40.042	32.412	11.006	1.2397e-05	14.765	173.553	310.615	-14.747	-29.675	32.315	72.484	-30.218	-23.353	62.547	184.589	-25.536	-20.104	-18.286	-11.922	75.575	-15.852	-8191	255	
1946.610	1	1	0	0	0.037821	0.19457	0.2672	0.14081	0.13869	0.029677	0.26802	0.12334	0.048374	0.27612	0.13401	0.20319	0.077754	0.14284	0.071605	0.16954	-3.1354	-2.7542	-3.2667	-3.2333	-2.7292	-3.5438	-3.0729	-2.9146	-3.6208	-2.8438	-3.2542	-3.3542	-2.9208	-3.45	-3.1542	-2.9146	17.409	272.674	205.553	259.987	191.662	150.083	40.944	226.429	139.984	-32.927	301.301	191.014	-33.506	227.808	280.370	12.420	5.8418e-05	0.00027534	0.00010049	384.51	8.9635e-06	5.2933e-06	405.81	101.47	1.6892e-06	3.1828e-06	119.3	36.846	29.855	10.092	2.5279e-06	13.342	0.0010206	0.0011398	0.00032587	382.08	1.2758e-05	1.2996e-05	399.65	102.93	1.3126e-05	1.3294e-05	124.68	40.112	32.255	11.003	1.353e-05	14.846	107.926	309.935	266.589	-30.099	102.008	161.147	-30.701	-22.807	-17.176	239.976	-26.675	-19.401	-18.152	-12.147	171.884	-15.365	-8191	255	
1946.684	1	1	0	0	0.16142	0.20495	0.2161	0.23787	0.18477	0.11649	0.15667	0.066132	0.14232	0.3455	0.21009	0.17189	0.10661	0.072748	0.07773	0.16812	-3.0729	-2.725	-3.0104	-3.4896	-2.7167	-3.5062	-3.1854	-2.7104	-3.4458	-2.8958	-3.1312	-3.5938	-2.6979	-3.3354	-3.0542	-2.8083	-3.888	-26.380	297.536	173.619	237.118	42.364	293.683	202.652	107.557	234.839	239.663	208.284	127.504	304.664	177.443	202.592	3.8981e-05	0.0010432	0.00015117	379.79	4.2428e-06	1.0148e-06	393.1	99.037	1.6618e-06	8.0006e-07	118.38	36.07	28.993	9.8661	3.1322e-06	13.347	0.0011071	0.0012431	0.00035122	377.09	1.3484e-05	1.3696e-05	395.52	101.81	1.3605e-05	1.383e-05	124.28	39.647	31.839	10.85	1.3892e-05	14.689	154.850	41.779	3.270	-30.170	187.769	170.073	-30.777	-23.042	197.315	211.923	-25.291	-19.734	-17.960	-11.348	-1.623	-14.798	-8191	255	
1946.803	1	1	0	0	0.1577	0.096073	0.079777	0.22366	0.10309	0.17676	0.23637	0.31896	0.19164	0.10187	0.20439	0.22651	0.11406	0.13096	0.28637	0.14312	-3.1667	-2.9021	-3.1667	-3.5458	-2.7521	-3.3979	-3.3229	-2.675	-3.3063	-3.0729	-3.1479	-3.5563	-2.7833	-3.3563	-3.2021	-2.8812	294.382	222.035	83.572	239.836	149.558	-23.954	306.734	284.990	175.828	62.794	49.854	22.262	177.829	142.591	203.723	301.415	6.3788e-05	0.0007809	0.00010241	375.64	5.8792e-06	7.8616e-06	393.53	98.893	3.4507e-06	4.0667e-06	117.05	35.98	28.901	9.7628	7.1059e-06	13.041	0.0011418	0.0012984	0.0003531	375.22	1.3671e-05	1.4167e-05	393.95	101.21	1.3766e-05	1.4047e-05	122.88	39.097	31.455	10.767	1.3859e-05	14.486	227.887	-33.241	284.739	-30.251	255.405	148.876	-30.504	-23.474	254.583	114.109	-25.682	-20.197	-18.143	-12.716	101.214	-14.740	-8191	255	
1946.899	1	1	0	0	0.29406	0.11512	0.13232	0.19894	0.25196	0.10077	0.31637	0.14458	0.16166	0.14418	0.18397	0.24949	0.10269	0.17848	0.098762	0.17992	-3.1208	-2.8729	-2.8167	-3.5479	-2.8625	-3.3625	-3.2479	-2.75	-3.3854	-3.0771	-2.9	-3.4729	-2.7229	-3.3417	-3.4729	-2.8208	181.079	107.452	32.620	225.665	57.698	48.217	244.826	143.873	136.569	21.296	-24.286	269.839	-19.691	207.187	9.752	276.074	6.8251e-05	0.00051776	7.6022e-05	375.54	1.8525e-06	1.3532e-06	391.75	97.938	5.2106e-06	5.8767e-06	117	36.085	29.149	9.8099	4.3949e-06	13.386	0.0011086	0.0012548	0.0003596	371.94	1.3645e-05	1.3816e-05	390.22	99.981	1.3475e-05	1.376e-05	122.01	39.234	31.554	10.877	1.3322e-05	14.684	153.937	213.036	287.537	-30.000	213.894	72.038	-30.705	-23.273	156.442	300.634	-25.497	-20.733	-18.245	-12.508	75.250	-15.301	-8191	255	
1946.995	1	1	0	0	0.26592	0.053077	0.143	0.10826	0.1888	0.072199	0.10018	0.086761	0.20413	0.13064	0.22127	0.25475	0.11259	0.085934	0.16833	0.11343	-3.3271	-3.0979	-2.7521	-3.6792	-2.9104	-2.95	-3.3625	-2.7583	-3.3583	-3.25	-2.7062	-3.5167	-3.0146	-2.9979	-3.5396	-2.8417	119.383	131.085	102.246	213.936	117.668	196.723	52.732	70.365	235.908	138.451	151.567	69.413	198.257	156.856	76.697	2.535	0.00012485	0.00045696	3.9512e-05	371.62	1.2979e-06	4.661e-06	387.97	97.712	2.8878e-06	5.6151e-06	118.04	36.312	29.57	9.9856	1.2364e-06	13.69	0.001094	0.0012284	0.0003468	366.53	1.3206e-05	1.3466e-05	386.58	99.753	1.3136e-05	1.3131e-05	122.5	39.39	31.734	10.907	1.2736e-05	14.899	152.973	207.148	94.592	-30.162	271.853	265.246	-30.554	-23.768	192.858	171.132	-25.983	-19.851	-18.160	-12.535	61.288	-15.577	-8191	255	
1947.116	1	1	0	0	0.12352	0.21371	0.13178	0.096474	0.060389	0.20567	0.12768	0.12725	0.20678	0.12852	0.25339	0.14874	0.072692	0.028429	0.23911	0.18611	-2.9083	-3.2438	-2.875	-3.5833	-2.9271	-2.9417	-3.5292	-2.7042	-3.1271	-3.3187	-2.7062	-3.6188	-3.0375	-3.2354	-3.6708	-2.8271	98.270	-27.198	-18.169	72.326	171.105	-37.315	69.566	142.815	176.548	131.439	182.602	223.276	145.039	177.122	258.755	80.269	0.00012464	0.00054437	3.5151e-05	372.71	3.8056e-06	2.6117e-06	392.88	99.646	1.3659e-06	6.745e-06	118.76	36.626	29.382	9.7193	3.1219e-06	13.497	0.0010493	0.0011803	0.00032917	368.44	1.2555e-05	1.3003e-05	390.59	101.04	1.2648e-05	1.3063e-05	123.33	39.502	31.683	10.759	1.2939e-05	14.638	156.568	93.596	185.807	-30.202	10.741	17.502	-30.726	-22.994	248.245	70.404	-25.503	-20.400	-18.396	-11.557	301.683	-14.937	-8191	255	
1947.212	1	1	0	0	0.1764	0.12709	0.14793	0.036421	0.092347	0.14583	0.16701	0.11282	0.12313	0.034579	0.082822	0.040391	0.055331	0.14763	0.050421	0.29007	-2.7833	-3.2875	-2.7812	-3.4917	-3.125	-2.9062	-3.5208	-2.85	-3.1396	-3.5396	-2.7792	-3.525	-3.1188	-2.875	-3.5187	-2.9042	200.267	161.334	301.589	220.093	208.825	293.899	248.384	257.354	22.728	67.352	203.549	38.731	-36.696	216.478	259.850	147.709	2.4077e-05	0.00019346	0.00010278	373.79	5.3694e-06	7.8455e-06	390.17	97.644	2.4364e-06	7.8601e-06	116.62	36.463	28.727	9.5687	4.3002e-06	13.224	0.001069	0.0011852	0.00033378	368.27	1.2887e-05	1.3244e-05	389.27	100.29	1.3069e-05	1.3265e-05	122.04	39.159	31.392	10.633	1.3346e-05	14.483	172.127	319.130	34.785	-30.380	143.370	268.194	-31.030	-22.645	30.878	92.883	-25.795	-20.057	-18.259	-11.807	259.802	-15.241	-8191	255	
1947.284	1	1	0	0	0.10612	0.12591	0.29876	0.080969	0.073057	0.074103	0.067111	0.13751	0.2032	0.11303	0.04669	0.20292	0.078744	0.26048	0.24941	0.28712	-2.7271	-3.2708	-2.6917	-3.3979	-3.35	-2.8	-3.5208	-3.1688	-3.025	-3.3208	-2.7458	-3.3625	-3.1604	-2.7979	-3.4042	-2.9542	158.626	-15.396	315.715	17.727	232.596	43.459	184.264	238.634	245.807	304.642	44.360	240.400	-19.681	-34.381	269.790	182.380	6.8905e-05	0.00045631	0.00024709	366.6	3.4996e-06	3.9668e-06	387.93	96.666	6.016e-06	8.3135e-06	116.07	35.779	28.742	9.7277	4.5924e-06	13.2	0.0010916	0.0012411	0.00034258	364.69	1.3244e-05	1.3395e-05	385.97	98.79	1.3101e-05	1.3302e-05	120.79	38.868	31.129	10.692	1.3031e-05	14.512	203.981	131.615	39.711	-30.009	92.305	261.275	-30.690	-23.456	-0.967	153.555	-25.772	-20.750	-18.382	-12.330	101.793	-15.230	-8191	255	
1947.404	1	1	0	0	0.14467	0.029768	0.12567	0.071649	0.21353	0.16898	0.2746	0.095245	0.098154	0.044259	0.14935	0.12588	0.012972	0.29797	0.077308	0.22496	-2.6188	-3.5375	-2.6521	-3.5458	-3.3333	-2.6792	-3.4938	-3.0083	-2.9292	-3.5104	-2.8479	-3.1667	-3.425	-2.6771	-3.4313	-3.0875	181.991	311.991	317.984	152.729	-8.397	69.507	25.142	228.415	300.016	139.655	148.720	8.996	184.569	3.689	292.787	255.976	7.4957e-05	0.00034786	0.00014808	363.86	2.4233e-06	3.2156e-07	384.55	96.727	1.8447e-06	1.0484e-06	115.59	35.509	28.895	9.7293	5.3102e-06	13.122	0.0010769	0.0011854	0.00033593	361.95	1.2846e-05	1.3253e-05	383.59	98.676	1.2977e-05	1.3359e-05	120.59	38.98	31.325	10.694	1.3398e-05	14.534	198.557	-5.049	254.562	-29.887	295.629	118.816	-31.323	-23.158	203.115	293.002	-25.516	-20.164	-18.783	-12.084	305.490	-16.146	-8191	255	
1947.499	1	1	0	0	0.11488	0.11985	0.03921	0.056849	0.16261	0.098802	0.14886	0.073836	0.27031	0.2189	0.1186	0.25385	0.14489	0.11543	0.39176	0.087393	-2.4958	-3.4813	-2.5563	-3.0833	-3.3688	-2.4062	-3.5312	-3.1979	-2.9062	-3.4208	-2.9437	-3.05	-3.2562	-2.5979	-3.2479	-3.2354	-30.729	264.607	21.930	-23.893	-40.381	270.018	34.685	161.023	21.303	146.255	305.880	238.194	216.247	241.756	225.177	254.803	5.9019e-05	0.00029882	0.00016236	376.88	3.3651e-06	3.8364e-06	394.62	98.513	2.8891e-06	9.3617e-07	116.71	36.183	28.73	9.5678	2.4451e-06	13.035	0.0011016	0.0012334	0.00035062	375.14	1.3529e-05	1.3799e-05	395.18	100.43	1.3689e-05	1.3838e-05	122.29	39.404	31.576	10.757	1.4004e-05	14.606	297.424	73.241	38.057	-29.975	146.626	21.586	-30.872	-23.240	18.419	238.949	-25.160	-19.919	-17.780	-11.834	116.874	-15.349	-8191	255	
1947.595	1	1	0	0	0.20536	0.25202	0.086774	0.21445	0.058469	0.10641	0.15907	0.20598	0.11767	0.089189	0.27823	0.059832	0.22841	0.14442	0.086916	0.15623	-2.3979	-3.6562	-2.8792	-3.0958	-3.325	-2.7938	-3.2687	-3.0292	-2.8021	-3.4729	-2.8625	-2.925	-3.2333	-2.5938	-3.2292	-3.3792	-23.930	57.130	264.460	-5.768	102.760	131.784	12.635	24.019	51.359	135.889	81.873	137.996	140.235	-18.494	77.402	53.256	6.4766e-05	0.0010427	0.00016814	388.2	1.678e-06	9.5344e-07	407.31	99.874	5.3954e-06	6.5296e-06	118.41	36.121	29.213	9.7563	4.5139e-06	13.099	0.0011339	0.0012841	0.0003547	384.97	1.3833e-05	1.412e-05	405.58	102.7	1.394e-05	1.4261e-05	124.04	39.566	32.087	10.845	1.4004e-05	14.581	155.200	-5.540	11.539	-29.954	33.366	163.835	-30.542	-22.343	90.398	39.856	-25.208	-19.897	-17.968	-11.991	71.168	-15.470	-8191	255	
1947.715	1	1	0	0	0.23338	0.2617	0.10787	0.32011	0.21638	0.24299	0.11451	0.29054	0.17986	0.27025	0.18202	0.013802	0.25088	0.28128	0.17463	0.21251	-2.3833	-3.4875	-3.0812	-2.8292	-3.4146	-2.8771	-3.1875	-3.1646	-2.6625	-3.3854	-3.1271	-3.0125	-3.4354	-2.7771	-2.95	-3.2792	297.055	191.702	66.443	47.990	201.526	246.611	75.062	290.172	78.956	280.143	-23.382	87.982	83.624	84.172	264.131	122.762	0.00011833	0.00033586	0.00020417	390.44	5.5441e-06	5.8191e-06	407.14	99.761	7.0849e-07	5.5455e-06	119.21	36.193	29.704	9.8352	9.7914e-06	12.942	0.0011459	0.0012604	0.00035787	388.79	1.3637e-05	1.3943e-05	404.58	102.42	1.3705e-05	1.381e-05	124.03	39.487	31.965	10.775	1.3672e-05	14.362	198.683	176.624	-2.681	-30.105	299.670	-35.157	-30.292	-23.305	47.476	101.808	-25.326	-20.772	-17.892	-11.708	58.376	-14.740	-8191	255	
1947.811	1	1	0	0	0.060462	0.16256	0.13909	0.10567	0.29895	0.083601	0.12633	0.1623	0.03645	0.11804	0.22601	0.26224	0.30215	0.1882	0.28021	0.029286	-2.3104	-3.3187	-3.2042	-2.7687	-3.2354	-2.7875	-3.1125	-3.2833	-2.6979	-3.3688	-3.1771	-2.7938	-3.4562	-2.7812	-2.9479	-3.4354	72.101	227.604	150.174	145.311	110.380	83.380	138.750	39.147	-1.057	29.817	222.301	203.290	7.247	74.624	214.129	63.370	0.00012702	0.00081362	3.7653e-05	393.11	4.1677e-06	4.3941e-06	406.53	100.68	2.1187e-06	3.2905e-06	118.67	35.602	29.245	9.7475	2.2004e-06	12.918	0.0011127	0.0012513	0.00034726	387.76	1.3451e-05	1.3686e-05	403.59	102.89	1.365e-05	1.4004e-05	123.6	39.175	31.84	10.755	1.3898e-05	14.418	264.158	-38.626	22.608	-29.898	278.660	280.857	-30.784	-23.106	29.006	56.507	-25.216	-19.308	-18.069	-11.308	137.392	-14.343	-8191	255	
1947.908	1	1	0	0	0.10239	0.10202	0.20122	0.38146	0.10415	0.13027	0.063316	0.081935	0.11645	0.098142	0.23091	0.043611	0.018937	0.15118	0.045872	0.039689	-2.4062	-3.3208	-3.1292	-2.8479	-3.4271	-2.8438	-3.0021	-3.4083	-2.6667	-3.2625	-3.3208	-2.6021	-3.4708	-2.7188	-2.9542	-3.5625	313.437	6.503	16.906	-4.028	264.304	125.749	309.379	25.909	291.250	-25.577	120.717	196.139	-2.333	210.274	58.714	76.567	7.1353e-05	0.00077316	8.7451e-05	392.31	5.0532e-06	3.0126e-06	407.55	100.13	3.1131e-06	6.187e-06	117.2	36.004	29.55	9.488	4.8686e-06	12.947	0.0011172	0.0012576	0.00034673	388.19	1.3566e-05	1.3704e-05	404.19	102.63	1.3642e-05	1.38e-05	123.66	39.278	31.786	10.658	1.3596e-05	14.373	130.340	37.141	71.661	-29.985	204.896	47.596	-30.234	-23.339	72.444	-18.257	-25.148	-20.445	-18.859	-12.054	121.363	-15.144	-8191	255	
1947.979	1	1	0	0	0.13838	0.2793	0.36197	0.18676	0.14858	0.20675	0.077055	0.02324	0.12174	0.15607	0.11626	0.075938	0.2576	0.032691	0.19255	0.17912	-2.3812	-3.0479	-3.35	-2.8312	-3.3417	-3.0917	-2.7458	-3.3396	-2.6396	-3.1083	-3.4417	-2.8104	-3.4292	-3.1833	-2.85	-3.4292	212.882	-30.038	58.022	-23.955	122.812	272.982	185.091	259.519	245.110	227.729	6.161	216.393	25.362	160.186	109.415	224.971	8.9201e-05	0.0006256	3.5947e-05	387.19	3.3617e-06	3.6042e-07	403.16	100.77	3.2077e-06	1.5494e-06	118.27	35.97	28.927	9.6615	2.9258e-06	13.017	0.0011008	0.0012437	0.00034435	385.73	1.3431e-05	1.3499e-05	402.07	102.18	1.3251e-05	1.3432e-05	123.32	39.166	31.571	10.659	1.3338e-05	14.404	193.283	235.515	76.309	-30.449	310.211	72.624	-30.597	-23.231	154.196	152.923	-24.909	-20.502	-17.807	-11.440	185.775	-15.410	-8191	255	
1948.100	1	1	0	0	0.059142	0.12285	0.13224	0.051206	0.20889	0.081522	0.065757	0.20723	0.31249	0.16156	0.15438	0.16642	0.13918	0.26478	0.18229	0.3135	-2.5854	-3.1479	-3.5417	-2.9562	-3.3083	-3.1771	-2.7562	-3.5167	-2.9271	-3.1083	-3.4896	-2.7708	-3.2167	-3.0396	-2.7521	-3.4917	40.190	94.165	72.299	289.150	81.965	281.839	167.722	22.147	173.359	146.925	170.979	301.996	201.238	117.533	-0.841	42.844	6.6688e-05	0.0003185	0.00010698	378.64	2.3923e-06	1.6668e-06	392.62	98.322	1.8874e-06	1.7942e-06	116.89	36.381	28.897	9.8568	4.3094e-06	13.439	0.0010707	0.0012019	0.0003358	375.75	1.3026e-05	1.326e-05	391.08	99.995	1.2726e-05	1.3113e-05	121.26	38.905	31.124	10.692	1.244e-05	14.568	201.374	226.096	151.412	-30.052	-17.291	298.354	-30.892	-23.214	123.041	185.275	-25.856	-20.450	-18.824	-11.460	-3.282	-16.415	-8191	255	
1948.196	1	1	0	0	0.10255	0.13919	0.0519	0.028719	0.16422	0.071824	0.31487	0.26951	0.094404	0.31055	0.080734	0.11899	0.066346	0.080672	0.19777	0.16416	-2.6188	-3.05	-3.5292	-2.6542	-3.1479	-3.2083	-2.6542	-3.4292	-2.9062	-3.0187	-3.5125	-2.9562	-3.1188	-3.3187	-2.675	-3.4208	303.758	47.676	122.098	266.692	274.976	78.511	-37.735	315.450	-4.436	-27.288	152.001	0.864	244.151	14.162	-15.631	171.081	9.6104e-05	0.00023795	2.9947e-05	365.48	2.0025e-06	6.7126e-06	384.01	96.109	6.5038e-06	5.7719e-06	116.57	36.374	28.759	10.044	5.5097e-06	13.58	0.0010085	0.0011274	0.00030934	359.3	1.227e-05	1.2255e-05	380.76	97.901	1.1889e-05	1.2061e-05	120.01	38.941	31.085	10.766	1.1855e-05	14.552	173.848	81.497	96.767	-30.384	125.709	155.734	-31.284	-23.468	198.037	110.316	-26.590	-20.905	-18.883	-12.689	217.906	-16.288	-8191	255	
1948.292	1	1	0	0	0.10963	0.13938	0.12027	0.26447	0.25073	0.1324	0.1395	0.18681	0.1271	0.24396	0.10407	0.15068	0.13715	0.16433	0.20555	0.26783	-2.75	-2.8333	-3.3292	-2.7438	-3.0563	-3.4188	-2.7708	-3.2521	-3.0146	-2.7396	-3.4958	-2.8	-3.0542	-3.4	-2.6937	-3.3521	53.027	50.802	10.076	-33.774	187.510	-13.074	313.337	314.789	170.086	115.770	240.117	-9.376	168.921	253.871	241.870	231.231	4.3663e-05	0.00027853	0.00011002	364.65	6.0347e-06	5.4758e-06	382.18	97.231	2.3252e-06	4.446e-06	116.63	36.556	28.99	10.037	3.2346e-06	13.34	0.00096889	0.0010744	0.0003012	357.65	1.1754e-05	1.1749e-05	378.82	97.986	1.1583e-05	1.1701e-05	119.96	38.839	31.034	10.768	1.1925e-05	14.636	60.300	-21.471	205.822	-30.709	142.965	12.974	-31.540	-24.263	-20.341	37.279	-25.762	-21.151	-18.828	-12.435	214.691	-15.677	-8191	255	
1948.388	1	1	0	0	0.26588	0.22014	0.11755	0.30355	0.17925	0.061173	0.04395	0.1309	0.42002	0.21152	0.18546	0.15134	0.11016	0.20087	0.12165	0.24192	-2.8729	-2.6562	-3.2917	-2.8396	-2.9188	-3.3604	-2.6667	-3.3	-3.1896	-2.8167	-3.5542	-2.925	-2.8771	-3.3479	-2.6646	-3.2938	175.460	234.626	-1.641	-38.090	145.914	87.652	47.805	316.309	204.507	313.214	231.536	13.273	-23.119	238.411	171.312	72.266	6.8025e-05	0.00035478	0.00022	369.47	4.106e-06	5.5093e-06	389.31	98.185	2.8557e-06	5.2905e-06	115.97	36.376	29.048	9.9759	3.5871e-06	13.573	0.00099123	0.0011121	0.00031144	365.06	1.2169e-05	1.2379e-05	385.69	98.998	1.2124e-05	1.2459e-05	120.48	38.867	31.242	10.786	1.2633e-05	14.673	109.295	164.590	312.419	-30.572	208.672	-31.839	-31.063	-23.829	115.545	269.340	-25.924	-21.411	-18.864	-12.601	220.468	-16.026	-8191	255	
1948.507	1	1	0	0	0.11957	0.24975	0.051218	0.077887	0.13344	0.10673	0.084709	0.13865	0.2824	0.13964	0.18287	0.058143	0.0966	0.23561	0.071245	0.12107	-2.9042	-2.8563	-3.4542	-2.7833	-2.8771	-3.3896	-2.7604	-3.2687	-3.4729	-2.6771	-3.4896	-3.0938	-2.8063	-3.3625	-2.7896	-2.9437	223.384	18.060	159.950	30.192	315.152	85.685	93.500	7.581	77.292	209.733	273.897	206.346	109.062	159.204	93.947	-10.042	7.1538e-05	0.00051399	0.00010419	370.34	5.5438e-06	3.1312e-06	391.75	98.156	1.6285e-06	5.8866e-06	117.32	36.49	29.135	9.8428	3.082e-06	13.497	0.0010174	0.0011502	0.00031888	367.1	1.2358e-05	1.2707e-05	387.1	99.185	1.2319e-05	1.272e-05	121.15	39.122	31.296	10.765	1.2427e-05	14.718	209.263	96.670	-18.693	-30.137	152.119	101.205	-30.967	-23.468	276.231	304.431	-25.763	-21.086	-17.804	-11.735	65.463	-15.487	-8191	255	
1948.579	1	1	0	0	0.033719	0.31388	0.01291	0.17504	0.28504	0.22877	0.11037	0.16025	0.14758	0.16286	0.1059	0.16486	0.18108	0.17764	0.23464	0.17514	-3.0146	-2.5583	-3.3229	-3.1792	-2.7792	-3.6354	-2.9292	-2.8167	-3.4271	-2.6042	-3.3333	-3.2042	-2.8688	-3.5208	-2.8854	-2.9167	-7.719	13.971	112.408	231.683	239.108	257.639	268.898	266.295	92.656	103.144	199.820	282.713	73.296	249.270	5.208	-34.675	1.8972e-05	0.00033899	7.1874e-05	374.05	1.0042e-06	5.7997e-06	396.8	99.025	9.7322e-07	1.1351e-05	116.27	36.05	29.245	9.9331	2.0046e-06	13.45	0.0010131	0.0011344	0.00032092	371.5	1.2474e-05	1.2723e-05	393.48	100.43	1.2395e-05	1.2887e-05	122.11	39.091	31.512	10.812	1.2671e-05	14.634	171.474	114.445	7.629	-30.100	54.815	134.891	-31.539	-23.921	36.153	85.101	-25.685	-19.737	-18.258	-12.302	-6.989	-15.813	-8191	255	
1948.677	1	1	0	0	0.22483	0.15379	0.088954	0.14204	0.068425	0.235	0.16843	0.28293	0.122	0.16823	0.1216	0.12522	0.20198	0.13694	0.043149	0.095469	-3.0979	-2.8479	-3.1625	-3.2917	-2.8875	-3.5438	-2.9604	-2.8208	-3.4625	-2.8583	-3.2271	-3.4396	-2.7604	-3.3958	-3.0563	-2.8333	285.699	188.624	229.509	159.494	141.243	47.280	281.082	158.956	75.117	23.322	15.021	47.543	305.119	229.646	136.836	309.126	7.2096e-05	8.5236e-05	0.00014313	384.39	3.3194e-06	1.7773e-06	402.82	100.38	3.3919e-06	5.2422e-06	118.56	36.579	29.526	9.8653	3.9679e-06	13.24	0.0010542	0.0011959	0.00032802	380.02	1.2825e-05	1.3134e-05	399.72	101.97	1.2735e-05	1.2951e-05	123.59	39.328	31.794	10.803	1.2836e-05	14.484	250.991	-23.500	87.194	-30.127	80.139	39.834	-30.766	-23.134	146.027	61.958	-25.449	-20.129	-18.257	-11.861	81.910	-15.065	-8191	255	
1948.796	1	1	0	0	0.079048	0.21195	0.11709	0.085146	0.207	0.1251	0.21504	0.27009	0.047443	0.24187	0.042673	0.11336	0.21199	0.13855	0.16488	0.24522	-3.2333	-2.5979	-3.1146	-3.4917	-2.7938	-3.5	-3.2083	-2.95	-3.4771	-2.7896	-3.025	-3.3	-2.6354	-3.2896	-3.0812	-2.8187	74.930	106.074	-15.008	175.170	63.236	242.344	-7.116	61.847	137.406	17.570	-10.999	-23.886	251.452	-27.445	222.244	42.191	2.4674e-05	0.00040214	0.00010137	384.76	1.9168e-06	6.7219e-06	403.63	100.8	2.8876e-07	7.0282e-06	119.59	36.332	29.61	9.8276	1.0221e-05	13.194	0.0010467	0.0011697	0.00032841	380.21	1.2639e-05	1.2723e-05	399.28	101.9	1.2499e-05	1.2761e-05	123.72	39.264	31.69	10.725	1.2828e-05	14.415	277.574	127.246	22.596	-30.128	206.274	211.078	-30.644	-23.606	172.936	56.566	-25.994	-20.400	-18.438	-12.810	184.290	-15.713	-8191	255	
1948.892	1	1	0	0	0.20211	0.045418	0.12862	0.039141	0.21534	0.37577	0.07275	0.047213	0.09247	0.2473	0.30749	0.21116	0.072217	0.19063	0.045229	0.063258	-3.1937	-2.7271	-2.9854	-3.5167	-2.55	-3.3354	-3.2938	-2.6542	-3.5542	-3.0229	-2.8917	-3.4333	-2.575	-3.1979	-3.1958	-2.8958	283.986	56.100	281.268	-7.971	301.530	292.459	38.169	120.107	39.363	166.664	142.953	-17.277	155.178	171.054	8.029	206.282	4.8943e-05	0.00019129	9.9309e-05	394.66	5.8103e-06	7.388e-06	423.55	103.57	1.5193e-06	4.2305e-06	121.21	37.087	30.583	9.8511	2.6445e-06	13.19	0.0010571	0.0011965	0.00033953	391.33	1.3372e-05	1.355e-05	415.79	105.54	1.3557e-05	1.3641e-05	126.74	40.118	32.706	10.916	1.3878e-05	14.703	154.920	116.004	41.813	-29.785	88.883	211.565	-30.156	-23.325	-3.011	86.058	-25.582	-19.812	-17.611	-11.219	192.249	-15.298	-8191	255	
1948.988	1	1	0	0	0.11374	0.14708	0.046788	0.23985	0.29635	0.28299	0.20279	0.21907	0.18187	0.12613	0.03274	0.22194	0.25092	0.054377	0.2646	0.16056	-3.1271	-2.9083	-3.0521	-3.5854	-2.7667	-3.2062	-3.2521	-2.7	-3.4708	-2.9437	-2.9271	-3.3937	-2.7604	-3.1125	-3.45	-2.6229	112.096	308.574	159.859	275.322	196.996	-31.663	281.710	278.424	167.223	292.771	228.237	182.334	174.206	202.671	105.374	167.909	9.8226e-05	0.00012654	9.2652e-05	411.42	3.7577e-06	6.7122e-06	425.37	104.33	1.6944e-06	1.7784e-06	122.55	36.804	29.901	9.8605	1.5309e-06	13.222	0.0011143	0.0012643	0.00035634	406.28	1.3829e-05	1.4097e-05	422.92	107.12	1.3782e-05	1.3976e-05	128.44	40.312	32.776	10.886	1.3949e-05	14.741	111.737	45.219	96.473	-29.970	78.618	33.783	-30.439	-22.900	309.107	223.584	-25.181	-19.967	-17.517	-11.201	6.432	-14.455	-8191	255	
1949.084	1	1	0	0	0.018439	0.034771	0.29541	0.13675	0.2473	0.24886	0.076483	0.11406	0.29388	0.050128	0.17051	0.063195	0.18816	0.068168	0.20556	0.1594	-2.9437	-3.0896	-2.7875	-3.6396	-2.6667	-3.0438	-3.3396	-2.5812	-3.4417	-3.0708	-2.8542	-3.325	-2.7	-3.0333	-3.4625	-2.8521	43.735	190.015	243.184	122.827	21.457	111.481	289.668	144.706	244.536	31.769	249.295	117.840	-15.230	-32.246	216.454	80.439	0.00013419	8.156e-05	0.00018016	407.48	8.5088e-06	4.9781e-06	421.45	104.1	3.5388e-06	6.9502e-07	121.73	36.157	29.716	9.7105	3.2776e-06	12.851	0.0011339	0.0012596	0.00035516	404.83	1.3863e-05	1.3912e-05	420.59	105.99	1.3515e-05	1.377e-05	126.93	39.712	32.309	10.732	1.3273e-05	14.343	175.317	281.846	110.986	-29.910	88.963	106.042	-30.724	-22.824	51.731	150.797	-24.927	-19.420	-18.048	-11.734	177.012	-15.216	-8191	255	
1949.180	1	1	0	0	0.22998	0.08197	0.098163	0.21297	0.44184	0.10721	0.22304	0.07232	0.13842	0.13382	0.18374	0.12255	0.30495	0.051208	0.12944	0.15314	-2.9521	-3.2479	-2.6937	-3.5833	-2.8125	-2.8958	-3.3521	-2.75	-3.2021	-3.2104	-2.6063	-3.5083	-2.975	-2.9729	-3.4167	-2.7021	-31.498	133.612	249.964	234.903	101.105	13.979	204.603	130.959	55.945	116.799	312.360	278.316	-26.548	14.117	-33.189	70.943	4.0361e-05	0.00048967	2.2325e-05	399.46	4.755e-06	7.3743e-06	421.17	103.48	7.5494e-06	6.8474e-06	122.35	36.967	29.863	9.7607	1.1439e-06	13.086	0.0010906	0.0012218	0.0003466	396.54	1.3451e-05	1.3619e-05	415.76	105.31	1.3681e-05	1.3906e-05	127.43	40.163	32.457	10.801	1.418e-05	14.489	274.818	144.403	0.607	-29.714	161.129	31.657	-29.880	-22.728	83.661	77.879	-25.077	-19.450	-17.496	-12.074	103.806	-15.170	-8191	255	
1949.276	1	1	0	0	0.10604	0.06804	0.16197	0.24924	0.35143	0.2108	0.066116	0.15128	0.13766	0.095003	0.071796	0.3835	0.18842	0.24683	0.087254	0.17108	-2.8979	-3.2917	-2.6646	-3.4958	-3.0896	-2.9854	-3.5812	-2.5792	-3.1021	-3.3396	-2.6063	-3.4729	-2.9958	-2.7042	-3.4167	-2.8063	-36.168	199.272	145.580	303.128	121.146	294.316	140.542	-32.242	174.942	54.078	196.252	59.039	227.184	277.826	170.374	304.237	7.5834e-05	0.00027122	0.00035864	415.46	6.0521e-06	2.514e-06	435.22	107.24	3.0323e-06	6.062e-06	126.16	37.294	30.729	9.9633	4.2694e-06	13.215	0.0011699	0.0013005	0.00036766	411.77	1.4395e-05	1.4574e-05	431.82	109.68	1.4494e-05	1.471e-05	132.04	41.039	33.798	11.101	1.5227e-05	14.896	282.312	264.368	134.400	-29.872	174.007	247.545	-30.421	-22.282	72.838	164.487	-24.847	-19.575	-16.965	-11.486	87.257	-13.809	-8191	255	
1949.397	1	1	0	0	0.20712	0.070599	0.15535	0.19795	0.10911	0.16009	0.03138	0.17363	0.21217	0.068047	0.12282	0.10099	0.22669	0.32147	0.093929	0.10936	-2.6437	-3.2604	-2.5896	-3.3688	-3.1604	-2.6354	-3.6208	-2.825	-3.05	-3.4208	-2.8479	-3.1437	-3.1437	-2.7729	-3.3292	-2.8896	49.511	-18.418	57.748	318.296	88.821	188.305	204.878	233.127	261.434	307.663	302.559	93.665	308.917	99.186	130.774	253.375	0.00010199	0.00085814	0.00015383	451.03	3.3264e-06	3.9395e-06	469.89	114.24	2.7482e-06	1.2637e-06	132.89	39.8	33.115	10.487	3.6186e-06	14.064	0.0012903	0.0014358	0.00041001	447.27	1.5723e-05	1.6118e-05	467.72	117.28	1.583e-05	1.6026e-05	140.53	43.476	36.011	11.766	1.5975e-05	15.657	75.419	17.647	295.254	-29.770	29.950	10.621	-30.202	-22.154	-23.860	300.957	-24.117	-19.238	-17.040	-10.760	55.291	-14.319	-8191	255	
1949.493	1	1	0	0	0.20912	0.14509	0.12581	0.14327	0.14189	0.12921	0.15075	0.3714	0.16355	0.16946	0.2659	0.12923	0.119	0.13885	0.1552	0.20062	-2.4583	-3.4167	-2.6833	-3.3167	-3.2583	-2.7062	-3.5271	-2.8937	-2.6271	-3.4417	-2.7396	-3.0146	-3.2521	-2.5208	-3.3312	-3.1188	96.546	59.201	233.885	316.471	247.239	203.054	82.121	289.241	23.810	25.244	-24.867	-31.444	209.805	285.877	231.973	171.384	0.00011335	0.00051798	0.00029613	481.75	7.637e-06	2.737e-06	494.1	119.15	6.214e-06	2.0045e-06	136.33	40.051	33.7	10.764	6.031e-06	14.154	0.0013083	0.0014426	0.000405	478.5	1.5457e-05	1.5671e-05	488.94	121.3	1.5392e-05	1.5666e-05	143.06	43.937	36.531	11.885	1.5495e-05	15.667	209.409	262.191	-21.238	-29.648	138.020	268.553	-30.153	-21.869	314.658	-37.693	-24.358	-19.968	-17.597	-11.232	54.486	-14.050	-8191	255	
1949.588	1	1	0	0	0.19488	0.13673	0.13765	0.081087	0.23898	0.071511	0.22228	0.17225	0.24782	0.21947	0.20917	0.17427	0.19573	0.12118	0.32164	0.21372	-2.5021	-3.3583	-2.5854	-3.1437	-3.2562	-2.6937	-3.3812	-3.1125	-2.7	-3.4938	-2.5542	-3.0667	-3.3625	-2.5667	-3.3167	-3.2021	206.211	-1.560	294.807	22.581	130.426	131.272	271.015	2.304	-36.964	138.068	188.654	206.071	67.210	106.122	120.928	-22.965	4.2286e-05	0.0003331	2.3773e-05	492.25	1.42e-06	2.0168e-06	496.09	119.93	4.974e-06	8.5505e-06	136.41	40.134	33.589	10.705	4.4876e-06	13.869	0.0012567	0.0014256	0.0003952	483.96	1.5389e-05	1.5629e-05	492.6	122.37	1.5421e-05	1.5759e-05	142.8	43.672	36.472	11.897	1.5334e-05	15.424	69.207	103.564	253.168	-29.857	191.018	293.741	-29.955	-22.050	115.583	62.505	-24.474	-19.008	-16.696	-11.369	17.965	-14.404	-8191	255	
1949.684	1	1	0	0	0.28087	0.15808	0.24895	0.15959	0.19838	0.092985	0.081676	0.22659	0.079209	0.046984	0.22129	0.44303	0.11246	0.065788	0.12802	0.16058	-2.4604	-3.3896	-2.775	-2.8688	-3.3688	-2.5646	-3.4896	-3.1688	-2.6688	-3.2479	-2.7167	-2.9062	-3.2771	-2.5542	-2.9104	-3.1667	218.986	222.512	241.282	287.094	27.487	191.973	83.036	171.500	239.465	57.587	293.617	252.058	160.476	7.516	252.372	27.522	9.0543e-05	0.00031115	3.5411e-05	484.71	8.1849e-07	1.1019e-05	489.51	118.25	4.2587e-06	4.7522e-06	133.48	39.717	32.821	10.553	3.535e-06	13.791	0.0012332	0.0013812	0.00038675	478.45	1.4828e-05	1.5029e-05	484.04	119.76	1.4462e-05	1.4701e-05	138.4	42.81	35.422	11.591	1.4096e-05	15.112	170.510	51.640	-40.254	-30.062	69.024	107.626	-30.266	-22.377	-35.961	254.741	-24.522	-19.524	-17.669	-10.926	66.145	-14.016	-8191	255	
1949.804	1	1	0	0	0.081695	0.082757	0.19267	0.12184	0.15631	0.20288	0.059194	0.1195	0.1516	0.26084	0.19915	0.11449	0.28426	0.21293	0.079972	0.21121	-2.2687	-3.4375	-2.8417	-2.8396	-3.3625	-2.6	-3.2083	-3.3542	-2.5542	-3.2646	-2.9917	-2.7562	-3.3833	-2.6771	-3.0833	-3.2833	24.755	127.339	293.681	248.943	159.434	154.379	208.501	185.240	129.107	-40.608	25.429	15.430	38.635	71.174	86.584	147.182	2.6582e-06	0.00072732	0.00013418	467.51	1.6744e-06	1.1941e-05	475.1	114.79	2.8656e-06	2.9178e-06	132.11	39.229	32.515	10.439	1.386e-06	13.618	0.0011527	0.0012859	0.00035631	460.08	1.3652e-05	1.4058e-05	467.5	116.13	1.4011e-05	1.3986e-05	136.84	42.35	34.976	11.495	1.381e-05	15.135	30.721	126.764	23.338	-29.859	112.209	69.457	-30.060	-23.289	224.736	12.073	-24.270	-19.581	-17.965	-11.384	252.369	-14.421	-8191	255	
1949.876	1	1	0	0	0.16205	0.22403	0.024571	0.10604	0.27816	0.07693	0.18923	0.22522	0.25677	0.20935	0.08357	0.2898	0.082781	0.32427	0.13083	0.094949	-2.2604	-3.3875	-3.0458	-2.8438	-3.3708	-2.8187	-2.9229	-3.3604	-2.6667	-3.2292	-3.1188	-2.7021	-3.2938	-2.7104	-3.0458	-3.3396	295.929	-15.733	125.981	300.331	199.305	-19.795	223.920	272.992	-16.944	16.696	23.416	270.994	3.421	250.343	187.161	80.287	6.5202e-05	0.00057573	9.7614e-05	463.65	2.2867e-06	4.0076e-06	467.38	114.35	9.2938e-07	6.2572e-06	131.02	38.415	32.022	10.424	2.4926e-06	13.49	0.0011405	0.0012897	0.00035796	456.1	1.4009e-05	1.4068e-05	462.51	115.56	1.3976e-05	1.4181e-05	135.62	42.159	34.72	11.419	1.3996e-05	15.014	106.077	108.380	282.229	-30.033	181.206	169.063	-30.498	-22.367	87.727	269.784	-24.962	-20.127	-17.682	-11.391	168.643	-14.221	-8191	255	
1949.972	1	1	0	0	0.15259	0.055702	0.16579	0.057121	0.095235	0.16014	0.26233	0.14793	0.026145	0.12255	0.21847	0.091889	0.22962	0.081787	0.18635	0.24285	-2.3125	-3.1875	-2.9583	-2.6917	-3.3708	-2.9979	-3.0229	-3.4313	-2.7104	-3.0687	-3.0771	-2.4875	-3.4042	-2.9417	-2.7792	-3.4625	106.764	196.571	313.219	200.241	180.862	313.329	258.330	188.177	67.719	203.693	149.966	-4.404	305.470	83.356	35.179	267.753	9.9101e-05	0.00054227	6.3695e-05	454.57	4.7111e-06	4.4174e-06	461.67	112.44	6.428e-06	3.0645e-06	130.41	38.201	32.218	10.192	2.945e-06	13.404	0.0011443	0.0012719	0.00035187	447.11	1.3838e-05	1.3906e-05	456.32	114.55	1.3874e-05	1.3882e-05	134.32	41.655	34.476	11.296	1.378e-05	14.888	127.592	68.840	-15.416	-29.928	13.014	28.974	-30.574	-22.580	48.032	-15.359	-24.374	-19.304	-17.727	-10.890	105.482	-14.288	-8191	255	
1950.068	1	1	0	0	0.29501	0.22633	0.11584	0.1026	0.18932	0.18864	0.14726	0.13853	0.071464	0.21934	0.22321	0.14748	0.26023	0.21672	0.13331	0.1548	-2.1708	-3.1646	-3.1458	-2.6375	-3.3521	-3.1437	-2.7188	-3.4667	-2.6271	-3.0417	-3.3438	-2.6125	-3.2771	-2.8667	-2.7167	-3.4771	211.405	308.136	1.123	280.400	88.901	22.435	79.529	198.903	59.535	-6.951	253.385	298.214	133.488	297.916	-22.731	-8.129	0.00016727	0.00061296	0.00017932	450.03	1.2784e-06	7.7008e-06	459.11	111.34	2.1517e-06	3.19e-06	128.73	38.381	31.685	10.248	5.5171e-06	13.374	0.0011276	0.0012618	0.00035274	444.14	1.3691e-05	1.3796e-05	452.02	113.3	1.3658e-05	1.3974e-05	133.15	41.262	34.167	11.239	1.3833e-05	14.769	140.031	155.093	-14.040	-29.663	277.438	66.275	-30.200	-22.683	103.303	8.153	-25.447	-19.593	-17.748	-11.287	245.565	-14.580	-8191	255	
1950.189	1	1	0	0	0.17594	0.03096	0.10313	0.17687	0.093535	0.0093175	0.15275	0.1633	0.089164	0.094629	0.1988	0.073885	0.23516	0.21206	0.038745	0.14644	-2.4	-2.9292	-3.2104	-2.7	-3.2875	-3.0792	-2.825	-3.4521	-2.5979	-2.9646	-3.2104	-2.5687	-3.2146	-3.1958	-2.6854	-3.2313	232.542	209.534	0.770	266.153	282.669	230.103	108.310	38.333	216.483	261.097	298.641	224.948	267.323	20.337	266.730	172.382	3.7783e-05	0.00055398	2.8269e-05	446.67	3.5427e-07	5.3016e-06	450.46	110.44	6.2644e-07	4.6374e-06	125.34	37.732	31.26	10.079	5.0019e-06	13.421	0.0011149	0.0012578	0.00035177	439.24	1.3618e-05	1.3726e-05	445.19	111.97	1.3423e-05	1.3673e-05	130.59	40.62	33.628	11.135	1.3813e-05	14.751	290.322	18.426	238.919	-29.927	256.484	235.990	-30.117	-22.289	170.370	188.141	-24.698	-19.594	-17.936	-11.613	170.080	-14.707	-8191	255	
1950.285	1	1	0	0	0.25396	0.11183	0.082673	0.11337	0.12368	0.26628	0.27782	0.044171	0.10155	0.17422	0.083759	0.041914	0.11308	0.10046	0.16862	0.24548	-2.6375	-2.8083	-3.2521	-2.5229	-3.2354	-3.1437	-2.9062	-3.225	-2.8812	-2.9146	-3.3833	-2.4604	-3.1125	-3.3563	-2.7583	-3.3875	4.387	91.386	146.500	-32.060	271.855	288.997	264.043	138.276	123.223	149.063	-38.363	142.310	-1.315	193.722	13.084	111.250	5.5007e-05	0.00059558	0.00012884	438.64	3.6233e-06	6.7482e-06	447.62	109.67	1.1845e-06	4.9934e-06	126.82	37.899	31.57	10.293	1.814e-06	13.677	0.0011026	0.0012485	0.00034557	431.67	1.3428e-05	1.356e-05	444.41	111.62	1.3398e-05	1.3923e-05	131.98	41.179	34.005	11.29	1.3851e-05	14.97	181.431	135.394	296.964	-30.211	60.372	-4.833	-30.631	-22.785	-8.696	119.105	-24.430	-19.677	-17.664	-11.394	50.215	-14.551	-8191	255	
1950.380	1	1	0	0	0.18078	0.095921	0.12406	0.29025	0.2217	0.19544	0.37957	0.1601	0.073648	0.33654	0.12751	0.031876	0.30016	0.18908	0.14272	0.21038	-2.5521	-2.7333	-3.3646	-2.7417	-3.0062	-3.2729	-2.8125	-3.2771	-2.9771	-2.7396	-3.4854	-2.7333	-3.0062	-3.4833	-2.5687	-3.3146	258.605	82.918	265.503	289.010	208.141	117.018	256.708	180.336	76.464	304.855	198.507	33.111	36.851	183.046	232.778	93.155	9.979e-05	0.00052673	0.0001189	445.47	2.1404e-07	7.0305e-06	456.55	111.42	8.3256e-06	2.7034e-06	128.28	38.148	31.6	10.209	3.299e-06	13.645	0.0011189	0.0012868	0.00035552	439.02	1.3894e-05	1.3999e-05	451.57	113.15	1.3912e-05	1.4488e-05	133.96	41.496	34.368	11.334	1.4527e-05	15.103	181.301	54.729	210.177	-29.805	60.405	174.210	-30.396	-22.898	123.778	10.120	-24.045	-19.486	-17.378	-11.321	98.494	-14.698	-8191	255	
1950.477	1	1	0	0	0.20004	0.28463	0.086263	0.34719	0.11504	0.15907	0.21248	0.13898	0.18268	0.10638	0.064552	0.063273	0.11681	0.1579	0.16567	0.055828	-2.5792	-2.6542	-3.3812	-2.6917	-2.8229	-3.3146	-2.7208	-3.2729	-3.0292	-2.7	-3.4542	-2.9792	-2.875	-3.425	-2.5917	-3.1792	126.935	312.941	145.734	-16.784	146.879	98.587	47.862	294.822	-18.498	9.436	142.571	145.561	86.478	115.433	204.641	64.056	8.5528e-05	0.00058859	0.00013408	451.95	5.3585e-06	1.6437e-06	460.7	114.13	6.3221e-07	3.4037e-06	129.62	38.399	31.81	10.342	1.2927e-06	13.532	0.0011684	0.0013437	0.00037249	447.22	1.4381e-05	1.4647e-05	457.99	115.44	1.4369e-05	1.4758e-05	135.58	41.783	34.694	11.406	1.468e-05	14.956	205.732	29.664	104.115	-29.709	92.306	82.894	-29.955	-22.947	148.831	40.415	-24.450	-19.096	-17.200	-10.798	200.209	-13.717	-8191	255	
1950.572	1	1	0	0	0.17951	0.15583	0.22747	0.25593	0.17973	0.15911	0.10351	0.16586	0.26901	0.43136	0.18387	0.17153	0.19141	0.088934	0.10418	0.12702	-2.7938	-2.6167	-3.3521	-2.8458	-2.9667	-3.4229	-2.6583	-3.1146	-2.9792	-2.5875	-3.3542	-2.8417	-2.6917	-3.4542	-2.6229	-3.1604	33.506	150.652	241.499	-27.196	198.622	250.774	81.204	315.401	129.601	286.343	230.933	66.026	297.557	187.137	-16.719	147.288	4.6297e-05	0.00085872	7.2675e-05	463.63	3.5844e-06	8.9077e-06	469.01	114.26	3.4198e-06	3.7748e-06	131.22	38.515	31.93	10.243	7.165e-06	13.251	0.0011842	0.0013553	0.00037704	457.94	1.4465e-05	1.4724e-05	463.95	116.08	1.4561e-05	1.4654e-05	135.97	41.824	34.584	11.383	1.4377e-05	14.849	218.942	89.529	283.230	-29.576	258.107	25.757	-30.231	-22.686	111.304	175.495	-24.429	-19.048	-17.999	-11.786	241.903	-14.064	-8191	255	
1950.668	1	1	0	0	0.16521	0.30228	0.2956	0.22187	0.13822	0.24913	0.046326	0.32337	0.25152	0.15646	0.13886	0.17365	0.20317	0.1888	0.0058161	0.31233	-2.9042	-2.5938	-3.2812	-3.1104	-2.7417	-3.4562	-2.9125	-2.9792	-3.3729	-2.5271	-3.2104	-3.05	-2.5812	-3.4292	-2.7542	-2.9146	18.624	48.903	194.528	4.233	103.586	-0.786	230.134	205.757	306.531	253.378	233.170	60.447	17.198	251.035	-5.054	228.208	9.6777e-05	0.00070106	9.6052e-05	454.29	1.9232e-06	4.9109e-06	458.99	112.64	7.4594e-06	1.3255e-05	130.52	37.818	31.351	10.276	5.9113e-06	13.315	0.0011734	0.0013355	0.00036753	448.97	1.4311e-05	1.4574e-05	456.82	114.58	1.4371e-05	1.45e-05	134.59	41.308	34.279	11.306	1.4231e-05	14.792	184.048	56.659	158.697	-29.780	13.377	229.658	-30.555	-22.323	250.980	-14.658	-24.930	-19.631	-17.628	-11.004	114.505	-14.218	-8191	255	
1950.764	1	1	0	0	0.06518	0.17542	0.19897	0.26799	0.12778	0.12374	0.34664	0.15745	0.13963	0.1504	0.2627	0.15171	0.10143	0.2895	0.20096	0.063186	-2.9917	-2.6542	-3.1667	-3.25	-2.4208	-3.4979	-2.95	-2.7438	-3.3812	-2.5854	-3.2375	-3.1562	-2.5687	-3.2792	-2.9292	-2.9146	-23.558	62.890	296.316	312.257	-13.705	232.391	9.958	130.980	88.087	290.220	28.050	244.521	232.113	275.459	-1.891	302.559	4.4818e-05	0.00074617	0.00020201	452.18	4.506e-06	2.2625e-06	457.48	112.12	1.8312e-06	4.546e-06	128.56	38.361	32.117	10.258	5.3444e-06	13.512	0.0011539	0.0013234	0.00036278	446.4	1.4191e-05	1.4224e-05	453.95	114.19	1.4092e-05	1.4279e-05	134.02	41.524	34.336	11.303	1.4081e-05	14.965	94.631	210.256	19.910	-29.954	37.506	186.016	-30.075	-22.696	264.361	249.510	-25.333	-19.189	-16.796	-11.306	66.832	-14.504	-8191	255	
1950.885	1	1	0	0	0.15223	0.048841	0.10043	0.093534	0.096598	0.19395	0.18739	0.24941	0.14947	0.090422	0.22899	0.27907	0.26704	0.35227	0.30373	0.30266	-2.9479	-2.6354	-3.0042	-3.1562	-2.6312	-3.3854	-3.0479	-2.6312	-3.2646	-2.8958	-2.8042	-3.1771	-2.4625	-3.3312	-3.0083	-2.6146	39.694	259.379	313.157	301.510	164.950	248.355	251.643	211.753	185.740	183.649	-36.948	312.997	-10.509	281.732	168.715	170.104	7.1133e-05	0.00042586	0.00021898	452.62	5.6567e-06	3.8127e-06	458.47	112.25	2.5398e-06	5.8643e-06	129.17	38.274	31.418	10.117	1.5663e-06	13.312	0.0011523	0.0013044	0.00036173	445.95	1.4072e-05	1.4183e-05	453	113.86	1.3826e-05	1.4356e-05	133.75	41.512	34.105	11.212	1.383e-05	14.759	208.995	45.206	61.568	-30.108	218.661	121.225	-29.815	-22.545	-23.410	112.021	-24.935	-19.499	-17.687	-11.700	190.312	-14.476	-8191	255	
1950.981	1	1	0	0	0.21349	0.075973	0.19637	0.17903	0.13934	0.19941	0.054856	0.12507	0.13422	0.091604	0.23181	0.10051	0.35042	0.040136	0.058318	0.28578	-2.975	-2.7896	-2.9958	-3.3167	-2.6208	-3.2438	-3.0625	-2.6646	-3.1667	-2.7646	-2.825	-3.3104	-2.5042	-3.225	-3.1813	-2.8583	307.369	137.894	153.548	242.316	25.354	216.918	43.607	236.419	106.117	291.961	40.351	153.588	-17.782	-35.835	-14.999	-39.577	6.9151e-05	0.00053751	0.00024626	445.18	4.7458e-06	1.067e-05	453.22	111.75	4.0016e-06	3.2259e-06	128.21	38.092	31.502	10.186	7.8945e-07	13.138	0.0011406	0.0012644	0.00036014	440.81	1.3989e-05	1.3904e-05	449.55	113.33	1.3804e-05	1.401e-05	133.09	41.092	34.173	11.232	1.4099e-05	14.694	159.174	17.999	63.263	-29.709	30.685	188.672	-30.077	-22.602	232.388	254.404	-24.933	-18.911	-17.076	-11.078	-11.585	-15.169	-8191	255	
1951.077	1	1	0	0	0.20649	0.17114	0.1029	0.020962	0.1643	0.14073	0.24109	0.24307	0.050873	0.17707	0.22142	0.15202	0.14337	0.24564	0.081864	0.12602	-2.9792	-2.9604	-2.7958	-3.4979	-2.5021	-3.0625	-3.2271	-2.575	-3.3167	-2.8146	-2.7479	-3.3375	-2.4583	-2.8979	-3.3646	-2.4958	282.205	205.809	24.996	159.372	80.622	-0.745	273.188	286.996	195.653	16.273	46.881	25.385	-35.053	206.977	121.068	-2.538	0.00011221	9.9066e-05	0.00027069	450.99	3.5153e-06	4.8062e-06	460.52	111.74	3.9585e-06	7.0356e-06	129.28	37.568	31.412	10.278	7.7579e-07	13.201	0.0011472	0.0012803	0.00036094	446.41	1.3973e-05	1.414e-05	454.61	113.76	1.4089e-05	1.4197e-05	133.98	41.179	34.15	11.269	1.4444e-05	14.705	137.341	101.535	53.174	-29.145	306.024	85.285	-30.348	-22.775	128.309	118.555	-24.488	-19.623	-17.653	-11.179	36.435	-14.689	-8191	255	
1951.173	1	1	0	0	0.036814	0.077885	0.14739	0.10599	0.19344	0.027945	0.1031	0.22235	0.21484	0.08154	0.29086	0.11348	0.18339	0.13727	0.11525	0.036458	-2.8688	-2.9562	-2.5917	-3.3271	-2.6521	-2.95	-3.3125	-2.7646	-3.3125	-2.9229	-2.5667	-3.4292	-2.7292	-2.9979	-3.3625	-2.6396	61.903	44.180	-2.375	309.666	219.955	-27.033	157.984	317.070	164.305	115.271	68.239	129.767	4.640	150.990	73.247	316.578	2.2379e-05	0.00030053	1.0605e-05	456.72	3.6523e-06	4.7443e-06	460.54	112.62	2.003e-06	9.9129e-06	129.98	37.902	31.73	10.229	5.1185e-06	13.303	0.0011619	0.001308	0.00036384	449.31	1.4194e-05	1.4388e-05	459.12	115	1.4396e-05	1.4646e-05	135.23	41.606	34.521	11.301	1.446e-05	14.841	163.853	88.933	28.477	-29.958	121.477	227.287	-30.181	-22.755	163.798	92.358	-24.920	-19.589	-17.022	-10.785	132.327	-14.322	-8191	255	
1951.269	1	1	0	0	0.18741	0.13013	0.24064	0.2183	0.16597	0.082456	0.20631	0.10371	0.24414	0.11137	0.11659	0.084921	0.35686	0.059267	0.098459	0.26143	-2.875	-3.025	-2.7333	-3.4146	-2.9042	-2.7438	-3.4062	-2.5896	-3.1396	-3.1354	-2.6167	-3.3812	-2.9458	-2.8	-3.4479	-2.5354	-31.653	197.239	-22.357	4.508	89.337	122.536	180.112	267.753	157.942	-7.844	180.846	3.370	305.037	114.272	0.196	282.143	4.7017e-05	0.0011298	0.00015533	461.7	6.4225e-06	9.6126e-06	468.92	115.16	6.3453e-06	3.9706e-06	130.9	38.408	31.995	10.264	5.3423e-06	13.342	0.0011857	0.0013326	0.00037919	458.05	1.4521e-05	1.4928e-05	465.97	116.91	1.4742e-05	1.4906e-05	137.05	42.021	34.912	11.406	1.4806e-05	14.966	120.025	61.125	18.750	-29.916	37.673	276.019	-29.961	-22.648	42.852	175.275	-24.549	-19.796	-16.876	-10.560	72.916	-13.800	-8191	255	
1951.366	1	1	0	0	0.12064	0.24298	0.15046	0.19692	0.12729	0.014196	0.1224	0.18316	0.20737	0.12048	0.14353	0.31337	0.35599	0.18447	0.19783	0.058655	-2.7938	-3.0854	-2.6	-3.4708	-2.9604	-2.7771	-3.3167	-2.7	-3.0875	-3.3042	-2.6604	-3.1646	-3.0354	-2.6333	-3.525	-2.7562	44.831	81.742	232.216	288.052	43.898	85.900	20.919	263.714	260.067	-38.875	236.975	-12.969	67.244	105.596	32.486	231.841	8.6168e-05	0.00057136	0.00013128	466.47	2.5448e-06	7.7804e-06	472.93	114.97	3.3928e-06	4.2776e-06	132.11	38.031	31.981	10.212	3.8819e-06	13.023	0.0012016	0.0013646	0.00037948	461.38	1.4578e-05	1.4946e-05	466.99	116.78	1.4478e-05	1.4767e-05	136.05	41.674	34.626	11.281	1.4317e-05	14.699	174.581	60.536	238.341	-29.317	185.160	226.185	-29.999	-22.661	132.790	172.130	-24.543	-19.728	-16.696	-11.670	-2.156	-14.447	-8191	255	
1951.486	1	1	0	0	0.17265	0.18189	0.1343	0.20091	0.17815	0.16327	0.13339	0.13108	0.15451	0.082873	0.17156	0.33236	0.085724	0.14285	0.03683	0.25782	-2.7104	-3.3208	-2.5729	-3.175	-3.0667	-2.7562	-3.3917	-2.6417	-3.0187	-3.3833	-2.6083	-3.2167	-3.1417	-2.7854	-3.2292	-2.8312	295.596	67.247	186.085	-39.478	256.381	53.441	153.917	191.538	157.705	142.997	225.141	-25.101	143.185	-27.932	185.812	-15.115	9.3278e-05	0.00061589	8.472e-05	456.11	2.5466e-06	2.6976e-06	463.51	113.26	3.2736e-06	5.7124e-06	128.8	37.997	31.582	10.171	5.9802e-06	13.12	0.0011731	0.0013176	0.00037069	451.15	1.4043e-05	1.4394e-05	457.9	114.64	1.4312e-05	1.4312e-05	133.62	41.108	34.278	11.219	1.4159e-05	14.654	138.848	300.770	296.285	-29.791	315.510	43.810	-30.139	-22.315	130.933	196.643	-24.738	-19.644	-17.531	-10.912	47.413	-14.620	-8191	255	
1951.581	1	1	0	0	0.080296	0.097824	0.2497	0.15915	0.19154	0.097617	0.17111	0.14952	0.21114	0.36974	0.052871	0.12783	0.076658	0.10822	0.058065	0.12184	-2.6917	-3.2583	-2.675	-3.125	-3.0271	-2.6937	-3.2938	-2.8563	-2.6792	-3.4417	-2.5958	-3.2479	-3.1063	-2.45	-3.1375	-2.9396	252.259	164.255	315.359	37.739	-37.860	-1.013	165.790	-37.935	38.813	98.514	11.415	135.141	214.987	305.276	128.990	179.056	5.9098e-05	0.00086144	5.0847e-05	457.48	3.8816e-06	2.1758e-06	464.87	114.11	3.2074e-06	8.3395e-06	128.3	37.587	31.796	10.277	3.6421e-06	13.349	0.0011671	0.0012931	0.00036635	450.75	1.4165e-05	1.4469e-05	459.2	115.48	1.4161e-05	1.4448e-05	134.17	41.228	34.372	11.29	1.4359e-05	14.799	155.549	132.813	226.235	-29.653	74.055	114.540	-30.524	-22.229	29.712	85.664	-24.830	-19.825	-17.244	-11.906	-23.394	-14.291	-8191	255	
1951.677	1	1	0	0	0.03714	0.12515	0.15037	0.19893	0.17306	0.26417	0.14509	0.092848	0.15272	0.054305	0.035967	0.07438	0.12688	0.16289	0.15969	0.21032	-2.3521	-3.3417	-2.6771	-3.0708	-3.1813	-2.6083	-3.2354	-2.925	-2.5396	-3.3333	-2.7854	-2.9979	-3.3167	-2.4854	-3.3729	-2.9625	10.785	159.376	209.153	305.257	269.810	92.682	207.240	301.787	137.553	1.340	299.130	296.373	225.555	120.190	49.750	134.218	9.9336e-05	0.00081652	7.6821e-05	455.39	6.2712e-06	5.8612e-06	462.56	112.94	2.6557e-06	2.9562e-06	128.23	37.613	31.77	10.12	6.5643e-06	13.22	0.0011743	0.0013016	0.00036614	450.49	1.3992e-05	1.4514e-05	458.82	114.64	1.4034e-05	1.4198e-05	134.24	41.41	34.249	11.242	1.3977e-05	14.716	174.308	261.887	168.122	-29.924	199.175	285.272	-30.373	-22.609	193.896	103.059	-24.925	-20.017	-17.350	-11.704	251.157	-14.401	-8191	255	
1951.748	1	1	0	0	0.25621	0.056134	0.040169	0.26735	0.1342	0.29152	0.073571	0.30226	0.19365	0.084955	0.095669	0.16476	0.2555	0.16702	0.098633	0.25105	-2.3417	-3.2625	-2.5563	-2.7354	-3.3208	-2.6604	-3.2521	-2.8979	-2.7812	-3.4146	-2.7021	-2.8896	-3.275	-2.6479	-3.1604	-3.1813	263.678	153.520	35.744	290.058	266.939	124.235	197.471	315.605	13.583	268.799	63.060	258.620	53.611	268.075	-15.558	198.771	4.9934e-05	0.0002215	9.42e-05	457.21	3.0983e-06	3.9414e-06	458.98	112.08	2.6272e-06	6.9638e-06	128.24	38.45	31.722	10.173	3.844e-06	13.276	0.0011521	0.0012859	0.00035845	449.46	1.3928e-05	1.422e-05	455.75	113.97	1.3757e-05	1.3812e-05	133.28	41.353	33.961	11.197	1.3641e-05	14.705	255.194	3.951	67.387	-29.856	247.690	150.847	-30.412	-22.788	175.973	-16.836	-24.956	-20.067	-17.714	-11.395	115.854	-14.278	-8191	255	
1951.846	1	1	0	0	0.036337	0.19331	0.16177	0.27319	0.17914	0.059319	0.19847	0.090535	0.23543	0.15602	0.10497	0.27674	0.098979	0.13788	0.207	0.19934	-2.2667	-3.4271	-2.7958	-2.7	-3.2708	-2.5979	-3.2917	-3.1125	-2.5708	-3.1583	-2.9292	-2.8542	-3.4792	-2.725	-2.9083	-3.4083	36.009	279.867	87.156	-34.712	9.042	73.045	269.953	201.601	93.334	73.546	227.563	306.759	93.244	166.273	117.823	22.002	4.7405e-05	0.00031332	0.00015569	444.1	4.6863e-06	2.8914e-06	448.71	109.91	3.9923e-06	3.5708e-06	125.04	37.406	30.841	10.061	2.92e-06	13.096	0.0011078	0.0012465	0.00034401	438.41	1.3397e-05	1.3387e-05	443.78	111.48	1.3107e-05	1.3372e-05	129.74	40.379	33.145	10.995	1.2985e-05	14.406	-28.361	163.952	94.381	-30.066	213.650	281.613	-30.206	-22.977	10.805	131.386	-25.229	-19.685	-17.982	-11.196	140.573	-14.818	-8191	255	
1951.965	1	1	0	0	0.23825	0.10003	0.14307	0.14376	0.17262	0.10067	0.16472	0.19712	0.16257	0.062426	0.12885	0.27072	0.28559	0.04588	0.092383	0.24675	-2.275	-3.2854	-2.8812	-2.6312	-3.2792	-2.6354	-3.0604	-3.375	-2.5438	-3.1958	-3.1146	-2.7625	-3.3646	-2.525	-2.8667	-3.45	55.116	291.204	44.655	239.639	279.482	7.514	154.923	278.286	-0.084	172.846	176.610	177.713	2.750	175.979	122.068	214.391	8.0371e-05	0.00089576	0.00011169	429.12	1.0618e-06	5.258e-06	433.24	107.48	3.2431e-06	5.3861e-06	124.69	37.038	30.708	10.101	6.3513e-06	13.164	0.0010542	0.0011732	0.00032771	422.13	1.2616e-05	1.2856e-05	430.79	108.85	1.2799e-05	1.2906e-05	128.31	39.891	33.014	10.974	1.307e-05	14.45	129.417	227.643	102.406	-29.606	158.290	33.070	-30.428	-22.749	-24.397	42.783	-25.324	-19.847	-17.678	-11.439	160.358	-14.372	-8191	255	
1952.061	1	1	0	0	0.29306	0.06928	0.19947	0.09602	0.14591	0.23145	0.093199	0.38796	0.17363	0.20462	0.12353	0.28741	0.30203	0.18052	0.081509	0.20838	-2.0812	-3.0333	-3.1437	-2.8104	-3.3604	-2.8187	-3.0458	-3.2562	-2.6521	-3.2354	-3.1833	-2.5229	-3.3375	-2.7604	-2.8458	-3.5271	284.605	41.770	137.706	-40.568	103.134	291.994	293.253	136.013	43.279	29.987	14.388	311.526	297.000	271.899	108.025	212.568	2.3631e-05	0.00047918	0.00026915	437.4	2.4369e-06	4.7397e-06	447.71	110.06	3.9949e-06	4.9834e-06	127.26	37.703	31.674	10.137	7.5119e-06	13.216	0.0010783	0.0012172	0.00033872	429.64	1.3538e-05	1.3698e-05	441.75	111.23	1.3728e-05	1.411e-05	132.4	41.011	34.253	11.286	1.4426e-05	14.81	217.604	92.238	318.209	-29.911	-25.335	104.462	-30.456	-22.608	-31.837	111.195	-24.448	-19.791	-17.716	-11.788	43.381	-14.117	-8191	255	
1952.157	1	1	0	0	0.093813	0.084286	0.020959	0.16629	0.024676	0.16129	0.2027	0.20506	0.30694	0.098535	0.20072	0.10393	0.073343	0.15127	0.16149	0.21258	-2.2104	-3.0229	-3.1146	-2.5458	-3.3521	-2.8979	-2.7667	-3.3167	-2.5958	-3.0042	-3.2167	-2.4917	-3.1021	-3.0438	-2.6729	-3.3896	103.889	219.494	234.790	155.530	130.005	131.387	-10.006	269.125	130.312	126.596	221.026	260.217	271.081	225.420	134.094	69.457	5.8255e-05	0.00060127	0.00017762	482.19	7.8707e-06	5.1132e-06	499.59	121.74	4.2227e-06	1.2588e-06	140.18	41.052	34.894	11.223	4.7532e-06	14.245	0.0011947	0.00137	0.00038436	476.41	1.4967e-05	1.5431e-05	496.53	124.2	1.5624e-05	1.6115e-05	146.59	44.972	38.189	12.469	1.6481e-05	16.141	164.881	67.529	207.410	-29.963	117.155	158.439	-30.653	-22.731	159.155	171.883	-24.794	-19.354	-17.278	-11.331	34.731	-13.575	-8191	255	
1952.278	1	1	0	0	0.1374	0.19722	0.087493	0.037414	0.092492	0.18263	0.1771	0.031188	0.11379	0.19531	0.3066	0.21124	0.1944	0.090361	0.16648	0.20464	-2.225	-2.9208	-3.3229	-2.5062	-3.0625	-2.9667	-2.6875	-3.2417	-2.7083	-2.8833	-3.1958	-2.7	-3.1771	-3.0167	-2.5604	-3.5104	1.597	198.564	212.574	130.959	-17.215	54.018	290.707	50.768	313.421	183.562	19.363	104.648	124.628	165.722	319.348	225.282	6.9589e-05	0.00049798	0.00022861	544.02	2.81e-06	7.6369e-06	545.12	129.83	9.1267e-06	6.5118e-06	144.99	42.249	35.488	11.424	4.6354e-06	14.255	0.0013381	0.0015204	0.00042769	536.51	1.6362e-05	1.6706e-05	534.05	131.7	1.6258e-05	1.6668e-05	150.71	46.043	38.789	12.64	1.6486e-05	16.058	153.603	231.628	6.454	-29.981	209.178	88.652	-30.221	-22.381	83.086	128.540	-24.524	-19.697	-17.519	-11.334	48.252	-13.927	-8191	255	
1952.350	1	1	0	0	0.10274	0.12799	0.17176	0.14168	0.11838	0.19362	0.1777	0.27895	0.24399	0.22591	0.049623	0.088444	0.15045	0.022727	0.16886	0.080566	-2.4333	-2.7313	-3.2188	-2.7687	-3.0042	-3.025	-2.6813	-3.3229	-2.8979	-2.7417	-3.4396	-2.5771	-3.1063	-3.2479	-2.5792	-3.2667	-28.226	49.468	262.201	310.186	315.614	-34.344	-10.878	181.052	136.061	11.677	-24.376	-9.971	214.987	193.561	41.620	209.982	8.054e-05	0.00043397	0.00014024	533.77	5.115e-06	7.4825e-06	520.14	124.12	2.69e-06	1.4283e-06	138.52	40.348	34.11	10.846	4.4116e-06	13.928	0.0013031	0.0014763	0.00040936	525.6	1.5797e-05	1.5961e-05	513.87	126.15	1.5308e-05	1.5599e-05	144.17	43.891	37.003	12.036	1.5231e-05	15.439	232.572	205.609	211.091	-29.923	295.145	48.005	-30.431	-22.379	-21.824	260.932	-25.026	-19.140	-17.236	-11.317	168.654	-14.363	-8191	255	
1952.446	1	1	0	0	0.23397	0.16607	0.12573	0.17154	0.071307	0.13449	0.098929	0.11127	0.13335	0.19709	0.16989	0.042049	0.020231	0.038215	0.049507	0.17932	-2.6167	-2.7979	-3.3458	-2.6042	-3.2062	-3.2104	-2.7208	-3.2208	-2.9417	-2.7562	-3.3458	-2.7333	-2.9167	-3.1479	-2.5479	-3.2729	192.456	253.709	287.660	263.339	189.172	126.201	306.616	308.622	302.891	130.669	224.829	63.633	164.742	92.959	270.101	-40.209	0.00010325	0.00010514	7.3816e-05	510.99	4.1164e-06	9.2601e-06	507.83	122.12	2.8212e-06	5.686e-07	136.24	39.774	34.406	10.9	3.2556e-06	13.81	0.001223	0.0013987	0.00038688	503.68	1.5063e-05	1.5357e-05	503.55	123.81	1.4864e-05	1.5339e-05	142.19	43.497	36.97	12.055	1.507e-05	15.436	130.545	28.273	238.238	-30.566	164.626	287.118	-30.662	-23.202	80.285	-7.347	-25.149	-19.318	-17.552	-11.574	237.026	-15.129	-8191	255	
1952.567	1	1	0	0	0.11315	0.29647	0.12418	0.1942	0.15511	0.19622	0.47595	0.14568	0.10856	0.19748	0.053645	0.042638	0.070637	0.15551	0.07158	0.16925	-2.5563	-2.6104	-3.3042	-2.775	-2.9583	-3.2375	-2.6292	-3.2646	-3.0167	-2.5771	-3.4083	-2.6854	-2.9708	-3.3021	-2.5021	-3.1958	-15.367	303.397	242.139	293.994	40.395	21.012	270.753	157.764	19.695	14.730	147.941	-19.604	248.518	264.192	256.020	-31.470	0.00016705	0.00047613	0.0002531	528.3	5.0924e-06	5.6727e-06	534.24	127.54	2.9143e-06	1.8776e-06	144.36	42.581	37.184	11.885	4.9136e-06	15.149	0.0012108	0.0013774	0.00038514	519.73	1.5115e-05	1.5355e-05	528.42	128.92	1.5244e-05	1.582e-05	150.86	46.234	39.95	13.127	1.5562e-05	16.815	184.947	-14.836	82.176	-29.947	215.075	80.947	-30.458	-22.781	240.233	133.655	-25.053	-20.478	-17.744	-12.053	189.435	-15.761	-8191	255	
1952.661	1	1	0	0	0.23502	0.024278	0.092962	0.2729	0.26304	0.17781	0.1962	0.22423	0.027677	0.1331	0.38816	0.096899	0.070636	0.086649	0.050534	0.18004	-2.8333	-2.6625	-3.3417	-2.7125	-2.7458	-3.375	-2.6042	-3.1146	-3.0208	-2.5542	-3.3812	-2.8937	-2.6625	-3.3104	-2.6167	-2.8438	158.440	206.329	164.276	-19.528	92.611	284.593	-2.145	-33.478	238.947	199.451	8.804	284.337	316.089	15.124	8.645	22.309	8.9997e-05	0.00056152	6.195e-05	691.23	2.9358e-06	9.6561e-06	673.21	142.01	4.2162e-06	2.0531e-06	159.96	44.956	40.602	13.066	1.5044e-06	16.003	0.0012935	0.0014717	0.000411	675.36	1.6253e-05	1.6174e-05	660.07	143.58	1.6257e-05	1.6753e-05	164.11	49.146	43.299	14.251	1.6894e-05	17.785	99.422	120.837	64.934	-31.856	304.128	182.465	-32.010	-23.910	137.977	215.344	-26.164	-20.285	-18.582	-12.580	263.586	-15.908	-8191	255	
1952.757	1	1	0	0	0.30741	0.16982	0.29367	0.091969	0.14426	0.11094	0.23274	0.17994	0.030055	0.066066	0.083614	0.23308	0.043208	0.24011	0.096526	0.36298	-2.9521	-2.5479	-3.3917	-3	-2.6979	-3.45	-2.8958	-2.8563	-3.2479	-2.5729	-3.2729	-3.0125	-2.8333	-3.2687	-2.7167	-2.9813	314.783	-17.676	-11.052	301.927	77.434	177.602	-39.707	-18.268	48.250	36.763	210.492	216.792	228.573	58.373	299.392	306.178	5.4222e-05	0.00064051	0.00030823	819.51	7.1369e-07	3.7445e-06	765.66	149.45	1.2883e-06	8.7964e-06	160.29	45.349	40.01	13.165	7.3049e-06	15.792	0.0013849	0.0015706	0.00043774	793.46	1.72e-05	1.7391e-05	744.99	151.25	1.6976e-05	1.7518e-05	166.99	49.214	43.305	14.295	1.6859e-05	17.53	203.766	299.362	312.300	-32.248	148.302	237.236	-32.379	-24.391	268.853	64.765	-26.167	-21.378	-19.476	-13.207	148.432	-16.238	-8191	255	
1952.878	1	1	0	0	0.025835	0.02723	0.18879	0.21961	0.10851	0.049855	0.15557	0.079953	0.11974	0.0098019	0.23682	0.31244	0.17089	0.08702	0.087205	0.092801	-2.8792	-2.6104	-3.1167	-3.2625	-2.6021	-3.4083	-2.8833	-2.7812	-3.3521	-2.5333	-3.1229	-3.1854	-2.7438	-3.4458	-2.6188	-2.9479	286.905	-32.821	305.256	254.157	116.250	70.311	205.237	142.596	156.494	105.802	4.880	3.091	-0.247	19.192	268.294	107.393	0.00010606	0.00062827	0.00018991	780.31	1.8915e-07	3.0903e-06	717.3	142.91	4.2724e-06	1.1688e-05	153.56	42.597	38.192	12.23	9.9726e-06	15.037	0.0013782	0.0015413	0.00042868	756.52	1.6568e-05	1.6507e-05	696.18	144.03	1.5898e-05	1.6108e-05	157.83	46.516	40.93	13.426	1.5814e-05	16.609	129.292	87.400	278.987	-32.044	-39.294	193.736	-31.841	-24.351	211.142	-6.070	-25.854	-21.138	-18.504	-12.694	55.360	-15.352	-8191	255	
1952.974	1	1	0	0	0.1046	0.094902	0.24393	0.18252	0.031672	0.14356	0.25675	0.19905	0.17122	0.080039	0.14491	0.10716	0.13619	0.039232	0.24693	0.064665	-3.1688	-2.5312	-3.05	-3.3146	-2.6354	-3.3417	-3.0292	-2.7271	-3.3688	-2.6104	-3.2	-3.2188	-2.4875	-3.2	-3.0354	-2.7229	244.116	253.629	282.197	279.036	37.907	112.680	218.221	221.688	305.772	317.020	22.094	20.995	107.565	276.749	162.034	11.569	4.6265e-05	0.00053593	0.00027474	667.02	8.0215e-06	1.2481e-05	623.65	133.34	3.2437e-06	9.3095e-06	146.04	41.437	36.815	11.804	4.8876e-06	14.56	0.0012926	0.0014374	0.00040472	651.2	1.5648e-05	1.5818e-05	607.99	135.1	1.5614e-05	1.58e-05	151.41	45.415	39.595	13.041	1.5941e-05	16.219	233.600	291.375	210.852	-31.459	89.593	208.451	-31.449	-23.689	123.948	54.745	-25.141	-20.054	-18.496	-11.958	180.688	-15.396	-8191	255	
1953.046	1	1	0	0	0.28211	0.1892	0.099386	0.019743	0.29268	0.11543	0.23391	0.075451	0.17881	0.032175	0.2026	0.19465	0.33309	0.36428	0.15508	0.19342	-2.9437	-2.7833	-2.9604	-3.2354	-2.7792	-3.1854	-3.1333	-2.7896	-3.2625	-2.725	-3.0312	-3.1708	-2.4583	-3.2375	-3.2667	-2.6625	104.595	287.202	4.191	237.200	204.536	272.375	117.002	230.026	90.824	127.579	-26.370	-1.877	120.220	114.804	195.739	150.130	4.8186e-05	0.00052502	0.00013778	614.83	6.3497e-06	2.1874e-06	576.16	127.88	5.7965e-07	1.0189e-05	139.68	40.185	34.832	11.269	5.3332e-06	14.219	0.001268	0.0014432	0.00039962	599.33	1.5364e-05	1.5501e-05	565.99	129.71	1.4964e-05	1.5426e-05	144.57	43.738	37.281	12.339	1.4696e-05	15.539	238.656	311.773	-37.467	-31.025	154.478	-22.884	-31.008	-23.534	265.599	1.968	-25.345	-19.872	-17.819	-12.206	-1.839	-14.775	-8191	255	
1953.166	1	1	0	0	0.27878	0.1376	0.098616	0.14364	0.1618	0.1537	0.13354	0.18284	0.2753	0.080903	0.032831	0.21342	0.24426	0.23664	0.21672	0.16936	-3.1917	-2.7562	-2.8187	-3.3438	-2.4646	-3.1958	-3.2625	-2.6312	-3.2938	-2.9208	-2.9479	-3.2687	-2.5667	-3.1188	-3.2521	-2.6542	167.985	228.528	279.584	107.031	-35.437	136.038	-9.395	293.167	61.203	-16.951	150.785	148.764	159.644	283.329	128.090	65.370	6.8317e-05	0.00015995	0.00024904	547.01	2.7882e-06	6.5711e-06	521.64	119.15	6.9896e-07	7.239e-06	130.3	38.962	33.44	10.934	3.1266e-06	13.771	0.0011816	0.0013172	0.0003714	536.03	1.4216e-05	1.4191e-05	512.51	120.16	1.3702e-05	1.4146e-05	136.57	42.002	35.714	11.909	1.3832e-05	15.155	201.707	240.802	51.218	-30.877	167.349	90.843	-30.842	-22.963	99.259	93.104	-25.026	-19.609	-17.819	-11.885	248.915	-15.644	-8191	255	
1953.262	1	1	0	0	0.26818	0.12941	0.15309	0.15612	0.090244	0.25796	0.21576	0.058825	0.1513	0.21195	0.13474	0.05916	0.091657	0.18738	0.19863	0.12235	-3.0687	-2.9917	-2.8021	-3.5271	-2.6375	-3.1188	-3.2958	-2.65	-3.3771	-3.0625	-2.6667	-3.3021	-2.5625	-2.7208	-3.4229	-2.575	234.535	135.594	227.852	219.083	211.683	239.030	211.551	86.117	115.542	116.791	178.845	316.357	271.996	69.917	49.915	108.608	3.0078e-05	0.00032511	0.00026124	530.05	3.8613e-06	5.8529e-06	510.02	118.39	3.6367e-06	1.0909e-05	130.94	38.349	32.799	10.591	3.2423e-06	13.489	0.0011249	0.0012804	0.00036023	517.89	1.3796e-05	1.4169e-05	502.43	119.17	1.3993e-05	1.417e-05	135.78	41.458	35.43	11.69	1.403e-05	14.873	195.301	236.240	22.522	-30.372	248.863	189.323	-30.873	-23.394	28.007	202.035	-25.265	-20.130	-18.730	-11.751	306.462	-15.321	-8191	255	
1953.358	1	1	0	0	0.096525	0.055205	0.094665	0.21015	0.23192	0.10658	0.17214	0.10598	0.22043	0.02156	0.14899	0.17092	0.21873	0.067774	0.22409	0.12016	-2.8438	-2.9229	-2.5979	-3.3083	-2.7562	-2.8979	-3.3187	-2.675	-3.1562	-3.1417	-2.7042	-3.2812	-2.8125	-2.9646	-3.2604	-2.6333	90.807	108.975	152.490	218.827	31.167	184.247	237.985	23.090	47.028	295.487	-24.927	-30.087	-31.661	285.858	312.310	309.537	4.9896e-05	0.00016088	0.00012062	504.74	1.9118e-06	1.045e-05	495.97	118.19	2.4955e-06	2.2015e-06	131.43	38.709	33.313	10.66	7.7873e-06	13.39	0.0011515	0.0012907	0.00036498	494.93	1.4237e-05	1.4454e-05	492.24	119.38	1.432e-05	1.4697e-05	137.16	42.009	35.932	11.812	1.4465e-05	14.969	175.792	18.502	49.550	-30.156	44.329	189.792	-30.356	-23.122	177.636	136.441	-24.977	-20.524	-17.815	-11.737	132.579	-14.195	-8191	255	
1953.455	1	1	0	0	0.26823	0.16161	0.11864	0.16738	0.21362	0.094167	0.20636	0.039836	0.053865	0.034243	0.18192	0.10187	0.12669	0.10458	0.16089	0.1091	-2.7229	-3.1979	-2.4125	-3.3646	-2.8229	-2.8063	-3.425	-2.6729	-2.85	-3.2604	-2.6729	-3.2917	-2.8667	-2.6708	-3.35	-2.625	186.078	180.016	55.695	121.018	268.932	-38.992	175.592	306.228	82.876	30.346	283.355	23.908	203.869	259.213	170.717	-38.072	1.8492e-05	0.00058657	0.00018496	514.76	3.4646e-06	4.1641e-06	501.2	117.43	2.2614e-06	4.2001e-06	132.03	38.753	32.797	10.568	8.2075e-06	13.441	0.0011783	0.0013317	0.0003767	503.26	1.452e-05	1.4722e-05	492.12	119.05	1.4373e-05	1.4645e-05	136.29	41.779	35.494	11.678	1.4275e-05	14.876	173.718	259.545	159.455	-30.133	261.408	-2.151	-30.675	-22.999	2.932	-36.329	-25.173	-19.981	-18.227	-11.848	191.504	-15.792	-8191	255	
1953.549	1	1	0	0	0.60695	0.29141	0.23228	0.23952	0.068397	0.23228	0.058098	0.15997	0.064902	0.1962	0.18822	0.063864	0.095143	0.26537	0.10885	0.11221	-2.6146	-3.2313	-2.5958	-3.2917	-3.0292	-2.6479	-3.4896	-2.7083	-3.0771	-3.5438	-2.6271	-3.0771	-3.2229	-2.7354	-3.25	-2.8104	28.109	-34.701	292.883	254.019	221.109	95.566	216.893	289.925	20.615	273.368	192.869	130.061	279.751	266.600	-18.317	304.901	7.5969e-05	0.00034924	0.0002049	498.67	2.973e-06	2.256e-06	485.37	114.42	6.2557e-06	6.2195e-06	128.24	37.583	32.221	10.473	4.2738e-06	13.309	0.0011641	0.0012915	0.00035792	485.02	1.3958e-05	1.4151e-05	477.42	116.2	1.3595e-05	1.3683e-05	133.04	40.972	34.599	11.393	1.3537e-05	14.707	161.972	99.497	243.135	-30.124	102.259	83.753	-30.475	-22.651	290.186	272.127	-24.864	-19.883	-17.122	-12.011	173.135	-14.669	-8191	255	
1953.645	1	1	0	0	0.29516	0.078652	0.19747	0.30679	0.16234	0.016438	0.15292	0.36921	0.22221	0.25874	0.05471	0.23285	0.11221	0.1168	0.17634	0.063065	-2.3854	-3.3604	-2.4104	-3.1104	-2.9625	-2.6937	-3.5729	-2.7917	-3.0771	-3.3729	-2.4917	-3.2917	-3.2458	-2.6854	-3.4542	-2.9875	40.524	99.259	282.955	75.262	17.456	7.033	311.785	245.810	39.714	118.307	38.766	194.630	89.024	119.441	69.878	46.566	0.00015126	0.00058906	0.00010144	482.31	8.473e-06	5.1164e-06	474.82	112.73	5.2937e-06	6.3073e-07	127.83	38.523	31.697	10.474	3.9811e-06	13.425	0.0010962	0.0012274	0.00034892	470.89	1.338e-05	1.3642e-05	466.59	114.09	1.3491e-05	1.3596e-05	132.01	41.031	34.28	11.417	1.3449e-05	14.718	200.527	81.632	132.040	-30.425	127.550	156.467	-30.641	-22.630	284.233	269.255	-25.198	-19.904	-18.166	-12.058	288.944	-15.603	-8191	255	
1953.741	1	1	0	0	0.20597	0.2186	0.18948	0.20598	0.020819	0.21092	0.15891	0.1355	0.090473	0.2214	0.176	0.18389	0.29363	0.21646	0.12719	0.10709	-2.3771	-3.3479	-2.5833	-3.0604	-3.3104	-2.6562	-3.3833	-2.9875	-2.7354	-3.2583	-2.8125	-3.1208	-3.225	-2.5125	-3.3396	-2.9479	114.271	-14.831	62.010	231.608	289.115	292.803	43.555	250.312	9.036	162.015	-7.945	255.240	-30.473	175.875	145.761	217.179	2.6782e-05	0.00037912	0.00010012	476.31	4.1491e-06	9.0928e-06	471.03	112.41	9.131e-07	6.0396e-06	126.75	37.216	32.147	10.448	1.932e-06	13.169	0.0011004	0.0012367	0.00034599	467.82	1.3565e-05	1.3564e-05	465.4	113.69	1.3411e-05	1.3577e-05	131.79	40.72	34.628	11.434	1.3843e-05	14.604	70.138	34.990	107.253	-30.293	229.879	76.749	-30.324	-23.459	212.663	154.537	-24.739	-20.270	-17.634	-12.581	309.306	-15.245	-8191	255	
1953.837	1	1	0	0	0.23453	0.2708	0.23284	0.17849	0.34624	0.20117	0.13693	0.15984	0.21329	0.075365	0.16364	0.25457	0.15197	0.077472	0.066795	0.22724	-2.2833	-3.4375	-2.5021	-3.0042	-3.1729	-2.7771	-3.2188	-3.2125	-2.5687	-3.4229	-2.8563	-2.9479	-3.4479	-2.6167	-3.0854	-3.0979	154.401	173.089	125.413	-13.898	301.754	22.651	104.656	-22.924	200.248	236.202	97.929	301.668	232.159	181.254	222.799	50.577	5.8031e-05	0.00060137	0.00011697	490.9	2.589e-06	4.4776e-06	483.2	114.74	4.4646e-06	6.665e-06	128.42	38.167	32.603	10.552	2.8025e-06	13.329	0.0011211	0.0012599	0.00035484	483.02	1.3731e-05	1.3966e-05	478.14	116.6	1.3776e-05	1.3993e-05	133.75	41.517	35.155	11.58	1.3865e-05	14.673	183.569	171.773	225.773	-30.338	250.042	127.894	-30.615	-22.922	108.316	229.499	-25.223	-20.266	-17.277	-11.527	3.552	-14.894	-8191	255	
1953.958	1	1	0	0	0.34289	0.12148	0.20767	0.26261	0.09888	0.1882	0.13375	0.11693	0.17847	0.153	0.36599	0.055121	0.092466	0.13305	0.27654	0.093172	-2.3146	-3.4104	-3.0271	-2.9417	-3.4021	-2.5542	-3.1604	-3.1521	-2.575	-3.4083	-2.7313	-2.6688	-3.3896	-2.45	-3.1583	-3.2771	174.425	-32.777	38.991	313.939	162.011	77.876	293.633	114.938	191.100	108.215	58.501	180.641	121.886	-28.436	50.450	6.279	1.525e-05	0.00081726	0.00022826	500.19	5.9881e-07	1.6995e-06	488.29	115.58	6.7808e-06	2.2731e-06	130.25	38.822	33.367	10.859	1.9258e-06	13.645	0.0011362	0.0012806	0.00035178	486.35	1.3715e-05	1.4058e-05	482.4	117.05	1.3674e-05	1.4004e-05	135	41.641	35.509	11.781	1.4017e-05	14.958	260.331	71.576	91.680	-30.360	268.782	33.576	-30.479	-22.704	115.055	98.633	-25.039	-19.880	-17.790	-11.905	146.516	-14.549	-8191	255	
1954.054	1	1	0	0	0.26301	0.15476	0.15358	0.077786	0.11065	0.041715	0.046215	0.085133	0.10937	0.088303	0.097604	0.21369	0.1189	0.11098	0.0623	0.055854	-2.1917	-3.2812	-2.7896	-2.7562	-3.3812	-2.675	-3.0042	-3.1271	-2.5167	-3.325	-3.0042	-2.6937	-3.4437	-2.8187	-3.0271	-3.2917	144.235	128.007	118.499	163.560	76.914	288.214	37.741	313.004	223.614	-11.775	286.883	134.359	95.238	122.040	119.527	-39.419	0.00016212	0.0012268	0.00017391	509.67	1.6115e-06	6.0304e-06	501.19	116.85	4.514e-07	2.1844e-06	131.01	38.639	33.477	10.844	5.5895e-06	13.465	0.0011268	0.0012849	0.00035774	500.47	1.3941e-05	1.4077e-05	493.26	118.69	1.3911e-05	1.422e-05	136.56	42.14	35.887	11.785	1.4388e-05	15	122.059	33.821	62.846	-30.494	59.517	127.915	-31.077	-23.067	154.449	192.572	-25.118	-19.968	-18.008	-11.563	40.931	-15.405	-8191	255	
1954.150	1	1	0	0	0.098262	0.13911	0.062283	0.092741	0.28244	0.21599	0.21837	0.19503	0.3355	0.1164	0.20412	0.32216	0.17962	0.066373	0.17864	0.093895	-2.3083	-3.3167	-3.1375	-2.6625	-3.3542	-2.8292	-3.05	-3.2146	-2.5771	-3.1312	-3.2812	-2.7396	-3.3979	-2.8854	-2.75	-3.4375	72.208	209.449	214.251	188.864	45.862	165.072	48.596	298.609	182.898	59.106	261.737	205.224	102.721	148.914	106.963	146.766	6.2052e-05	0.00075989	9.5809e-05	511.11	5.2196e-06	3.2642e-06	492.65	116.32	2.4106e-06	8.6869e-06	129.7	38.293	33.019	10.655	1.5091e-06	13.381	0.0011506	0.0012955	0.00036533	498.35	1.3911e-05	1.4232e-05	486.43	118.02	1.3947e-05	1.4049e-05	135.38	41.694	35.318	11.63	1.4089e-05	14.808	227.698	34.801	15.042	-30.815	112.609	64.793	-30.871	-22.888	126.375	83.124	-25.444	-20.185	-17.512	-11.581	139.934	-15.685	-8191	255	
1954.247	1	1	0	0	0.13636	0.10484	0.27421	0.16063	0.046926	0.085938	0.069039	0.090353	0.27347	0.40429	0.17591	0.091564	0.18948	0.062108	0.13711	0.093441	-2.2729	-3.0625	-3.1125	-2.7271	-3.475	-2.9813	-2.8146	-3.3	-2.8521	-3.2604	-3.2229	-2.7896	-3.3729	-2.8667	-2.8396	-3.5	143.476	140.002	305.817	2.763	142.842	-18.441	159.015	130.371	289.231	240.358	167.857	297.621	289.533	317.643	117.748	114.974	3.4273e-05	0.00052646	0.00023373	492.57	3.796e-06	2.128e-06	488.75	115.62	5.2698e-06	1.1399e-05	129.82	37.943	32.724	10.62	3.1035e-06	13.256	0.0011307	0.0012766	0.00035463	482.96	1.3848e-05	1.3965e-05	478.4	116.99	1.4021e-05	1.4375e-05	134.48	41.515	35.2	11.612	1.4255e-05	14.768	168.135	173.096	145.793	-30.776	312.607	208.839	-30.735	-22.763	316.519	136.970	-24.944	-20.214	-17.543	-11.899	96.003	-14.554	-8191	255	
1954.343	1	1	0	0	0.35769	0.042475	0.2303	0.10355	0.086311	0.21641	0.37832	0.26469	0.20495	0.16044	0.16225	0.12179	0.34951	0.18282	0.087456	0.23284	-2.2292	-3.1208	-3.2854	-2.5583	-3.4333	-3.0271	-2.6625	-3.3375	-2.6333	-2.8792	-3.3854	-2.7188	-3.2667	-3.1292	-2.7042	-3.5396	154.433	197.013	231.449	213.114	318.843	220.074	147.328	128.738	208.605	238.875	129.426	104.417	15.042	283.597	131.196	259.013	3.4012e-05	0.0011014	4.9691e-05	496.58	9.5295e-06	4.1666e-06	490.22	116.53	2.5812e-06	8.7707e-06	130.97	38.387	32.977	10.597	5.1357e-06	13.232	0.001165	0.0013191	0.00036337	489.2	1.4426e-05	1.4519e-05	485.48	118.7	1.4356e-05	1.4675e-05	136.81	41.89	35.633	11.72	1.483e-05	14.838	77.320	186.263	11.653	-30.090	152.822	270.223	-30.776	-23.087	105.125	311.025	-25.543	-19.516	-17.811	-11.362	22.379	-15.538	-8191	255	
1954.439	1	1	0	0	0.19072	0.18879	0.13972	0.18217	0.016132	0.20695	0.072424	0.18176	0.081855	0.17186	0.1622	0.27596	0.028193	0.10595	0.18574	0.14385	-2.4646	-2.9625	-3.2146	-2.7104	-3.2396	-3.0958	-2.5417	-3.2646	-2.8625	-2.8521	-3.3187	-2.5271	-3.0771	-3.2771	-2.725	-3.3104	33.739	281.381	209.771	244.078	192.382	190.642	308.417	201.498	45.738	164.680	287.880	299.068	202.576	312.150	3.429	170.703	0.00012476	0.00018266	0.00021812	490.79	3.0098e-06	1.1566e-05	484.43	116.39	5.0205e-06	7.9212e-06	131.81	38.252	32.847	10.66	1.8695e-06	13.406	0.0011759	0.0013281	0.00037395	484.01	1.4495e-05	1.485e-05	480.01	118.41	1.4317e-05	1.4566e-05	136.5	41.885	35.57	11.72	1.4452e-05	14.979	133.657	318.228	129.656	-30.078	121.761	94.554	-30.773	-23.240	48.445	83.960	-25.455	-20.406	-17.606	-12.059	222.621	-15.169	-8191	255	
1954.559	1	1	0	0	0.11389	0.06425	0.18892	0.22594	0.093809	0.10112	0.17178	0.070828	0.20409	0.16649	0.18849	0.1015	0.35797	0.080767	0.21355	0.13309	-2.4	-2.7771	-3.2979	-2.775	-3.0042	-3.2583	-2.5875	-3.325	-2.7833	-2.7167	-3.4417	-2.6583	-2.9604	-3.3812	-2.6896	-3.1771	276.520	145.363	10.748	146.499	83.141	-30.086	203.585	-6.784	131.545	126.440	-18.869	279.347	-1.439	60.879	-31.723	90.313	7.0563e-05	0.00015412	0.0001323	492.05	3.0716e-06	5.5514e-06	484.86	116.13	4.9017e-06	8.529e-06	131.3	38.82	32.77	10.546	2.351e-06	13.37	0.0011702	0.0013475	0.00037387	483.91	1.4291e-05	1.4595e-05	481.49	118.09	1.4221e-05	1.4713e-05	136.81	42.121	35.36	11.71	1.4638e-05	14.964	167.801	77.462	-23.738	-30.473	113.959	163.687	-31.005	-22.752	52.754	45.113	-25.520	-20.082	-17.427	-12.083	3.016	-14.855	-8191	255	
1954.654	1	1	0	0	0.020365	0.12021	0.074382	0.28208	0.18463	0.23607	0.038079	0.19928	0.12241	0.15658	0.11425	0.071206	0.16503	0.21561	0.14264	0.047644	-2.5396	-2.6958	-3.3396	-2.8396	-2.8854	-3.3854	-2.6521	-3.2604	-2.9813	-2.6063	-3.3792	-2.6688	-2.9604	-3.2979	-2.7125	-3.0854	219.208	311.772	22.584	239.294	92.910	230.522	32.564	15.948	107.292	92.490	88.382	42.365	219.474	279.497	-6.513	27.092	4.2919e-05	0.00060497	0.00017366	485.85	6.6221e-06	3.6659e-06	484.96	115.96	2.256e-06	4.4227e-06	131.34	38.573	32.578	10.66	1.7761e-06	13.311	0.001196	0.0013398	0.00037307	479.31	1.4664e-05	1.4712e-05	478.11	118.19	1.4324e-05	1.4825e-05	136.62	42.042	35.613	11.726	1.4776e-05	14.908	247.415	22.173	293.506	-30.379	42.557	272.899	-30.822	-22.959	25.696	294.927	-24.586	-20.374	-17.537	-11.981	297.980	-14.026	-8191	255	
1954.750	1	1	0	0	0.053222	0.11428	0.10598	0.16824	0.19275	0.2289	0.15107	0.12985	0.32432	0.1292	0.0787	0.083002	0.11867	0.071061	0.28982	0.035299	-2.7583	-2.7354	-3.4562	-2.975	-2.7646	-3.4667	-2.6521	-3.175	-3.0438	-2.4604	-3.3104	-3	-2.7104	-3.4188	-2.6792	-3.0604	113.187	219.713	96.785	248.054	12.742	29.868	246.511	268.387	208.123	189.778	255.457	303.557	295.152	68.417	318.364	79.470	8.0178e-05	0.00062443	0.00016486	492.61	2.1028e-06	8.0832e-06	485.36	117.2	5.1703e-06	5.2604e-06	132.14	38.429	33.253	10.682	7.6668e-06	13.444	0.0011944	0.0013753	0.00037825	486.78	1.4828e-05	1.4962e-05	484.63	119.46	1.4872e-05	1.5261e-05	138.26	42.31	35.942	11.855	1.5093e-05	15.009	181.979	70.755	137.976	-29.983	67.414	236.371	-30.339	-22.906	181.729	239.794	-24.581	-20.368	-17.757	-11.853	166.450	-15.239	-8191	255	
1954.846	1	1	0	0	0.22082	0.090109	0.14017	0.053159	0.17698	0.28087	0.10365	0.35705	0.086635	0.31069	0.0071112	0.076423	0.10998	0.052413	0.10938	0.046061	-3.0021	-2.6688	-3.0479	-3.0354	-2.7771	-3.5062	-2.6625	-2.9083	-3.3125	-2.5604	-3.25	-2.9146	-2.6833	-3.5146	-2.8438	-3.0875	179.259	106.724	312.439	254.920	89.618	177.367	162.242	294.645	86.632	135.184	226.007	-30.411	125.057	195.888	169.353	298.507	9.2277e-05	0.00010661	0.00017338	501.58	4.9922e-06	8.0095e-06	492.11	118.84	6.2982e-06	1.0061e-05	135.11	38.993	33.111	10.71	2.7215e-06	13.516	0.0012134	0.0013918	0.00038521	492.56	1.5101e-05	1.5262e-05	488.99	120.28	1.4708e-05	1.5133e-05	139.15	42.533	36.008	11.885	1.4914e-05	15.067	142.135	49.185	171.174	-29.987	64.911	101.646	-30.415	-23.160	8.994	243.433	-25.294	-19.610	-17.692	-11.196	231.339	-14.453	-8191	255	
1954.942	1	1	0	0	0.043604	0.016318	0.030129	0.15273	0.19558	0.26722	0.24087	0.23701	0.11296	0.060351	0.12085	0.11382	0.14323	0.1258	0.10937	0.35027	-3.0687	-2.6125	-3.1312	-3.0542	-2.7313	-3.3729	-2.7292	-2.7958	-3.3021	-2.6333	-3.3771	-3.1542	-2.65	-3.3854	-2.8917	-2.7687	40.497	66.394	7.845	95.780	30.382	179.751	283.538	272.223	147.845	5.563	239.908	228.943	278.367	-32.591	96.838	5.144	5.8327e-05	5.1255e-05	9.6329e-05	495.43	3.3035e-06	6.2089e-06	489.57	118.19	2.2492e-06	2.6631e-06	134.12	39.173	33.287	10.705	5.2985e-06	13.755	0.0012281	0.0013608	0.00038281	489.05	1.4879e-05	1.5022e-05	485.92	120.12	1.4739e-05	1.5011e-05	139.55	42.679	36.251	11.926	1.4898e-05	15.204	157.978	71.854	87.220	-29.638	-20.235	159.321	-30.389	-22.829	146.767	272.377	-24.848	-20.008	-17.510	-12.218	40.835	-14.288	-8191	255	
#DATA ENDS
