BOXY.EXE: ISS Imagent and Oximeter Data Acquisition Program Version 0.80
Ascii Record File

#ACQ INFORMATION
2  Detector Channels 
16  External MUX Channels 
1  Auxiliary Channels 
5000  Waveform (CCF) Frequency (Hz)
1  Waveforms Skipped 
30  Waveforms Averaged 
1  Cycles Averaged 
16  Acquisitions per Waveform 
10.0806  Updata Rate (Hz) 

#FILE INFORMATION
TRUE -- External MUX Channel results are PARSED.
FALSE -- AC DC and Phase are NOT grouped.
TRUE -- Companion Program Settings File CREATED.
FALSE -- AC data not excluded
FALSE -- DC data not excluded
FALSE -- Phase data not excluded
FALSE -- Auxillary Chn. data not excluded
Tab delimiters

#CALIBRATION STATE
TRUE -- Waveform Calibration Values APPLIED.


#AUX CALIBRATION VALUES
Val Type	aux-1	

Term	1.0000e+00	
Factor	0.0000e+00	


#WF CALIBRATION VALUES
A = Detector Channel
Val Type	A-AC1	A-AC2	A-AC3	A-AC4	A-AC5	A-AC6	A-AC7	A-AC8	A-AC9	A-AC10	A-AC11	A-AC12	A-AC13	A-AC14	A-AC15	A-AC16	A-DC1	A-DC2	A-DC3	A-DC4	A-DC5	A-DC6	A-DC7	A-DC8	A-DC9	A-DC10	A-DC11	A-DC12	A-DC13	A-DC14	A-DC15	A-DC16	A-Ph1	A-Ph2	A-Ph3	A-Ph4	A-Ph5	A-Ph6	A-Ph7	A-Ph8	A-Ph9	A-Ph10	A-Ph11	A-Ph12	A-Ph13	A-Ph14	A-Ph15	A-Ph16	

Term	0.00000e+00	0.00000e+00	0.00000e+00	0.00000e+00	0.00000e+00	0.00000e+00	0.00000e+00	0.00000e+00	0.00000e+00	0.00000e+00	0.00000e+00	0.00000e+00	0.00000e+00	0.00000e+00	0.00000e+00	0.00000e+00	0.00000e+00	0.00000e+00	0.00000e+00	0.00000e+00	0.00000e+00	0.00000e+00	0.00000e+00	0.00000e+00	0.00000e+00	0.00000e+00	0.00000e+00	0.00000e+00	0.00000e+00	0.00000e+00	0.00000e+00	0.00000e+00	0.00000e+00	0.00000e+00	0.00000e+00	0.00000e+00	0.00000e+00	0.00000e+00	0.00000e+00	0.00000e+00	0.00000e+00	0.00000e+00	0.00000e+00	0.00000e+00	0.00000e+00	0.00000e+00	0.00000e+00	0.00000e+00	
Factor	1.00000e+00	1.00000e+00	1.00000e+00	1.00000e+00	1.00000e+00	1.00000e+00	1.00000e+00	1.00000e+00	1.00000e+00	1.00000e+00	1.00000e+00	1.00000e+00	1.00000e+00	1.00000e+00	1.00000e+00	1.00000e+00	1.00000e+00	1.00000e+00	1.00000e+00	1.00000e+00	1.00000e+00	1.00000e+00	1.00000e+00	1.00000e+00	1.00000e+00	1.00000e+00	1.00000e+00	1.00000e+00	1.00000e+00	1.00000e+00	1.00000e+00	1.00000e+00	X	X	X	X	X	X	X	X	X	X	X	X	X	X	X	X	

B = Detector Channel
Val Type	B-AC1	B-AC2	B-AC3	B-AC4	B-AC5	B-AC6	B-AC7	B-AC8	B-AC9	B-AC10	B-AC11	B-AC12	B-AC13	B-AC14	B-AC15	B-AC16	B-DC1	B-DC2	B-DC3	B-DC4	B-DC5	B-DC6	B-DC7	B-DC8	B-DC9	B-DC10	B-DC11	B-DC12	B-DC13	B-DC14	B-DC15	B-DC16	B-Ph1	B-Ph2	B-Ph3	B-Ph4	B-Ph5	B-Ph6	B-Ph7	B-Ph8	B-Ph9	B-Ph10	B-Ph11	B-Ph12	B-Ph13	B-Ph14	B-Ph15	B-Ph16	

Term	0.00000e+00	0.00000e+00	0.00000e+00	0.00000e+00	0.00000e+00	0.00000e+00	0.00000e+00	0.00000e+00	0.00000e+00	0.00000e+00	0.00000e+00	0.00000e+00	0.00000e+00	0.00000e+00	0.00000e+00	0.00000e+00	0.00000e+00	0.00000e+00	0.00000e+00	0.00000e+00	0.00000e+00	0.00000e+00	0.00000e+00	0.00000e+00	0.00000e+00	0.00000e+00	0.00000e+00	0.00000e+00	0.00000e+00	0.00000e+00	0.00000e+00	0.00000e+00	-8.92709e+01	-1.28825e+02	-1.24038e+02	-1.83962e+02	-5.99715e+01	-6.47401e+01	-1.57159e+02	-1.62015e+02	-5.48480e+01	-7.10995e+01	-1.70729e+02	-1.70839e+02	-1.80289e+02	-1.77652e+02	-5.59847e+01	-1.50740e+02	
Factor	1.90359e-05	1.64344e-04	4.45320e-05	1.64583e-01	1.33975e-06	1.74344e-06	1.90588e-01	5.69177e-02	1.10681e-06	1.67741e-06	9.57273e-02	3.69650e-02	2.87415e-02	1.05468e-02	1.51595e-06	1.54879e-02	3.70208e-06	4.20420e-06	1.17489e-06	8.23578e-02	4.54401e-08	4.62410e-08	8.95767e-02	2.86398e-02	4.53497e-08	4.63083e-08	4.63350e-02	1.80061e-02	1.45506e-02	5.30554e-03	4.58462e-08	7.52433e-03	X	X	X	X	X	X	X	X	X	X	X	X	X	X	X	X	



#DISTANCE SETTINGS
A = Detector Channel
A-1	A-2	A-3	A-4	A-5	A-6	A-7	A-8	A-9	A-10	A-11	A-12	A-13	A-14	A-15	A-16	

2.5000e+00	3.0000e+00	2.5000e+00	3.0000e+00	2.0000e+00	3.0000e+00	1.5000e+00	3.0000e+00	3.0000e+00	3.0000e+00	3.0000e+00	3.0000e+00	3.0000e+00	3.0000e+00	1.5000e+00	3.0000e+00	

B = Detector Channel
B-1	B-2	B-3	B-4	B-5	B-6	B-7	B-8	B-9	B-10	B-11	B-12	B-13	B-14	B-15	B-16	

1.0000e+01	1.0000e+01	1.0000e+01	1.4400e+00	1.0000e+01	1.0000e+01	1.5100e+00	1.9400e+00	1.0000e+01	1.0000e+01	1.9900e+00	2.4900e+00	2.4100e+00	2.9000e+00	1.0000e+01	2.9800e+00	




#DATA BEGINS
time	group	step	mark	flag	A-AC1	A-AC2	A-AC3	A-AC4	A-AC5	A-AC6	A-AC7	A-AC8	A-AC9	A-AC10	A-AC11	A-AC12	A-AC13	A-AC14	A-AC15	A-AC16	A-DC1	A-DC2	A-DC3	A-DC4	A-DC5	A-DC6	A-DC7	A-DC8	A-DC9	A-DC10	A-DC11	A-DC12	A-DC13	A-DC14	A-DC15	A-DC16	A-Ph1	A-Ph2	A-Ph3	A-Ph4	A-Ph5	A-Ph6	A-Ph7	A-Ph8	A-Ph9	A-Ph10	A-Ph11	A-Ph12	A-Ph13	A-Ph14	A-Ph15	A-Ph16	B-AC1	B-AC2	B-AC3	B-AC4	B-AC5	B-AC6	B-AC7	B-AC8	B-AC9	B-AC10	B-AC11	B-AC12	B-AC13	B-AC14	B-AC15	B-AC16	B-DC1	B-DC2	B-DC3	B-DC4	B-DC5	B-DC6	B-DC7	B-DC8	B-DC9	B-DC10	B-DC11	B-DC12	B-DC13	B-DC14	B-DC15	B-DC16	B-Ph1	B-Ph2	B-Ph3	B-Ph4	B-Ph5	B-Ph6	B-Ph7	B-Ph8	B-Ph9	B-Ph10	B-Ph11	B-Ph12	B-Ph13	B-Ph14	B-Ph15	B-Ph16	aux-1	digaux	

1409.059	1	1	0	256	0.11449	0.25459	0.16284	0.21723	0.1935	0.10596	0.13509	0.2013	0.14102	0.11222	0.13291	0.15099	0.28732	0.18296	0.12942	0.27128	-3.1375	-3.3563	-2.7646	-3.7333	-2.8646	-3.0521	-3.8083	-2.8479	-3.5604	-3.2604	-3.0958	-3.6479	-3.1042	-3.2604	-3.5687	-2.8729	257.381	256.605	77.632	-73.296	-77.499	245.995	176.531	-88.981	202.630	242.809	253.599	-66.846	263.120	58.472	165.452	179.456	0.0001551	0.00053589	0.00011476	1296.1	4.3524e-06	4.5467e-06	1318.6	356.7	1.5172e-06	2.1587e-06	411.37	137.87	118.35	41.397	5.1006e-06	51.626	0.00041742	0.00043032	0.00011895	1297.4	4.7019e-06	4.612e-06	1322.5	359.72	4.6287e-06	4.6449e-06	413.84	140.58	120.2	41.899	4.6402e-06	52.267	233.855	-38.316	-22.595	-79.222	62.041	56.021	-79.260	-74.386	59.180	51.004	-74.848	-69.974	-69.803	-65.162	20.300	-66.130	-8191	255	
1409.155	1	1	0	0	0.10101	0.21244	0.1314	0.38208	0.1118	0.14011	0.17355	0.21904	0.12115	0.14635	0.12823	0.2441	0.20835	0.01845	0.06511	0.14884	-3.0542	-3.2625	-2.9542	-3.8771	-3.1646	-3.0854	-3.7333	-3.1083	-3.1875	-3.4875	-2.7396	-3.5833	-3.3833	-2.9396	-3.5396	-3.0563	117.076	-65.996	93.943	230.772	-89.804	260.087	252.217	253.326	100.280	90.522	250.392	221.910	200.655	105.000	1.792	222.216	0.0001695	0.00063867	0.00022273	1302.4	2.9076e-06	3.5261e-06	1316.3	358.05	2.6947e-06	7.3045e-06	413.78	138.37	119.01	41.556	6.1893e-06	51.839	0.00040853	0.00042885	0.00011913	1300.7	4.7276e-06	4.7487e-06	1323.3	360.69	4.6708e-06	4.664e-06	415.06	140.66	120.51	42.003	4.649e-06	52.369	228.838	1.382	11.359	-78.949	91.953	32.848	-78.784	-74.002	50.354	73.460	-75.080	-70.247	-70.125	-65.516	47.550	-65.868	-8191	255	
1409.250	1	1	0	0	0.16751	0.046318	0.16577	0.26986	0.11211	0.1173	0.1143	0.076094	0.20665	0.068899	0.052692	0.28856	0.1089	0.20882	0.032474	0.22134	-2.9104	-3.6458	-2.8792	-3.6667	-3.2167	-3	-3.8792	-3.1542	-3.1312	-3.4146	-2.8729	-3.4625	-3.2958	-2.8083	-3.5479	-3.0458	243.877	-27.951	126.582	253.658	95.287	225.271	109.205	243.462	138.406	241.831	68.895	178.958	79.168	219.335	-69.942	203.340	0.00015038	0.00042179	0.00014159	1309.1	4.7521e-06	3.793e-06	1324.7	359.58	3.7667e-06	6.3794e-06	412.77	138.07	119.48	41.562	3.0092e-06	51.751	0.00041229	0.00043238	0.00011964	1306.6	4.7189e-06	4.7358e-06	1329.7	361.6	4.7733e-06	4.6767e-06	415.88	140.92	120.8	42.064	4.796e-06	52.496	231.505	26.188	19.679	-78.846	67.090	54.227	-78.903	-74.063	10.132	43.765	-74.474	-70.467	-70.076	-65.770	106.262	-66.460	-8191	255	
1409.347	1	1	0	0	0.095496	0.055722	0.21145	0.31559	0.069589	0.048939	0.16329	0.049173	0.12909	0.082319	0.32899	0.1258	0.18557	0.19289	0.098904	0.049314	-2.7271	-3.7271	-2.8104	-3.525	-3.3208	-2.8125	-3.5792	-3.2333	-3.0521	-3.6333	-3.0792	-3.4854	-3.5396	-2.9771	-3.6167	-3.1833	-82.620	47.490	236.380	230.741	168.164	250.590	260.516	-67.545	166.621	206.967	-62.665	207.993	244.369	-92.004	235.883	199.297	0.00015554	0.0006262	0.00011947	1309.6	2.1753e-06	5.8132e-06	1329.9	360.16	1.7133e-06	6.397e-06	416.31	138.56	119.37	41.667	4.6785e-06	51.984	0.00042858	0.00043367	0.00012187	1308.9	4.7536e-06	4.7167e-06	1333.5	362.86	4.7557e-06	4.6843e-06	416.91	141.26	121.2	42.084	4.6937e-06	52.581	225.559	-9.883	-26.168	-79.122	59.011	92.407	-79.353	-74.557	-44.185	44.159	-75.228	-70.478	-70.064	-65.708	112.471	-66.490	-8191	255	
1409.466	1	1	0	0	0.2548	0.15505	0.13039	0.15847	0.26288	0.14988	0.12312	0.2233	0.046392	0.11467	0.26527	0.12235	0.23911	0.11327	0.097469	0.15695	-2.5396	-3.5854	-2.7146	-3.5667	-3.2188	-2.8083	-3.7729	-2.9854	-2.9333	-3.6729	-2.8167	-3.2583	-3.5354	-2.8958	-3.5146	-3.2792	201.389	-44.183	-4.703	-92.349	-37.673	-37.580	-64.101	223.620	94.130	78.437	233.106	-45.236	253.226	-81.617	24.680	245.912	0.00014234	0.00073465	0.000131	1315.3	2.6299e-06	3.9124e-06	1336.1	359.82	1.6966e-06	4.6501e-06	415.2	138.33	119.48	41.694	2.8623e-06	52.149	0.00041811	0.00042213	0.00012159	1314	4.696e-06	4.708e-06	1336.9	363.02	4.7543e-06	4.5728e-06	416.93	141.27	121.06	42.18	4.68e-06	52.577	221.608	27.721	12.996	-79.259	71.803	83.352	-79.220	-74.542	26.700	33.932	-75.061	-70.547	-69.998	-65.700	99.915	-66.110	-8191	255	
1409.562	1	1	0	0	0.090928	0.20962	0.26233	0.19897	0.1569	0.37159	0.29643	0.31454	0.02395	0.10124	0.06118	0.044005	0.040224	0.24769	0.17758	0.18927	-2.3521	-3.5396	-2.8458	-3.1646	-3.6417	-2.85	-3.7021	-3.3667	-2.8563	-3.425	-3.0708	-3.2542	-3.5875	-2.8146	-3.2833	-3.35	189.277	143.713	248.683	245.481	37.804	116.607	227.772	-91.014	162.782	0.917	127.958	250.862	236.456	241.218	154.569	247.090	0.00015706	0.00048038	0.00017261	1311.7	1.5906e-06	3.5254e-06	1329.3	359.64	1.7614e-06	3.3973e-06	415.61	138.59	119.72	41.921	3.4017e-06	51.747	0.0004158	0.00042861	0.00011892	1310.9	4.6952e-06	4.7307e-06	1335	362.8	4.7677e-06	4.6632e-06	416.78	141.53	121.19	42.213	4.7209e-06	52.534	231.000	3.910	-46.364	-79.407	40.305	79.745	-79.198	-74.329	41.229	85.544	-75.014	-70.738	-69.838	-65.659	84.298	-66.333	-8191	255	
1409.659	1	1	0	0	0.21296	0.095793	0.12217	0.18726	0.085129	0.16953	0.12903	0.1565	0.086635	0.29564	0.12437	0.22728	0.1122	0.19598	0.11117	0.072791	-2.4875	-3.4938	-3.0438	-3.0146	-3.4417	-2.7875	-3.4354	-3.5146	-2.7854	-3.6229	-3.3125	-2.9542	-3.5687	-2.8208	-3.0521	-3.3479	-50.316	78.981	-14.811	195.733	145.723	266.672	167.986	241.224	76.546	90.819	139.376	136.048	264.022	175.044	96.004	-13.062	0.00013244	0.0005918	6.8996e-05	1310.9	2.0605e-06	5.1262e-06	1329.5	359.09	2.4826e-06	5.5284e-06	414.89	138.41	119.72	41.614	2.0885e-06	52.158	0.00041736	0.00042962	0.00011681	1313.7	4.7183e-06	4.654e-06	1335.4	362.56	4.7308e-06	4.633e-06	416.13	141.52	121.36	42.242	4.7012e-06	52.749	240.866	17.255	17.210	-79.261	35.227	115.325	-79.138	-74.608	81.972	44.317	-75.070	-70.550	-69.886	-65.658	24.878	-66.566	-8191	255	
1409.779	1	1	0	0	0.21899	0.038104	0.097697	0.28155	0.084516	0.032947	0.09282	0.062781	0.28055	0.24247	0.019352	0.082844	0.076172	0.21464	0.056345	0.064616	-2.3521	-3.6125	-3.0708	-3.0458	-3.525	-2.9771	-3.3688	-3.6042	-2.9313	-3.5333	-3.3187	-3.0292	-3.7208	-3.0646	-3.1375	-3.7062	-39.124	199.424	-50.527	241.857	148.640	63.909	261.195	-51.482	36.205	211.040	-44.829	125.088	184.451	-81.324	112.275	120.451	0.00016278	0.00042981	0.00024644	1315	2.8685e-06	6.8302e-06	1334.5	360.61	1.9462e-06	4.4817e-06	414.57	139.63	119.96	41.846	3.8272e-06	52.367	0.0004179	0.00043239	0.00011774	1314.7	4.6922e-06	4.6614e-06	1339	363.77	4.7629e-06	4.6767e-06	416.49	142.05	121.58	42.323	4.6767e-06	52.823	219.320	-19.807	-14.202	-78.883	46.148	67.465	-78.995	-73.929	-14.696	89.590	-74.765	-70.410	-69.728	-65.214	69.080	-65.802	-8191	255	
1409.851	1	1	0	0	0.077677	0.16594	0.10739	0.18614	0.14011	0.315	0.17457	0.2747	0.075674	0.096018	0.23593	0.21199	0.13048	0.29539	0.19548	0.19487	-2.4229	-3.4417	-3.5229	-2.9542	-3.6688	-2.9729	-3.2604	-3.6917	-2.9167	-3.4646	-3.3896	-2.8625	-3.6396	-3.1375	-2.9458	-3.5833	203.378	50.155	223.459	256.950	18.005	183.446	267.386	227.129	237.773	196.506	256.717	55.745	229.851	237.447	-41.524	-57.643	0.00018033	0.00061257	0.00015755	1316	4.2357e-06	5.8616e-06	1334.9	359.93	1.6438e-06	4.3172e-06	413.5	139.35	119.83	41.547	2.6134e-06	51.837	0.00041073	0.00042567	0.00011884	1316.8	4.7591e-06	4.6701e-06	1337.9	362.56	4.7511e-06	4.7216e-06	415.97	141.5	121.48	42.152	4.7402e-06	52.545	222.578	10.605	0.949	-79.015	44.596	96.972	-79.062	-74.158	27.563	41.906	-74.473	-70.087	-69.665	-65.386	28.166	-65.923	-8191	255	
1409.947	1	1	0	0	0.14966	0.14164	0.12826	0.33338	0.14308	0.26446	0.17911	0.27954	0.16498	0.025576	0.24264	0.27447	0.19997	0.21253	0.077417	0.06898	-2.5417	-3.2542	-3.3458	-2.9042	-3.5021	-3.0604	-3.0646	-3.6146	-2.9021	-3.2625	-3.4437	-2.85	-3.6688	-3.1667	-2.8958	-3.7917	224.486	-8.928	122.685	246.444	109.974	155.227	174.998	264.123	122.468	168.640	204.724	259.026	-79.761	228.428	-86.924	-35.999	0.00014457	0.00041448	0.00016	1318.8	4.3023e-06	7.3893e-06	1335.4	359.94	4.5658e-06	4.922e-06	416.85	139.09	120.14	41.916	4.2749e-06	51.963	0.00041981	0.0004277	0.00012064	1316.8	4.6983e-06	4.7104e-06	1341.1	363.32	4.6516e-06	4.6161e-06	417.89	142.17	121.88	42.359	4.7111e-06	52.663	219.654	27.361	12.989	-79.046	60.768	63.663	-79.240	-74.134	42.366	79.837	-74.923	-70.583	-70.337	-65.595	94.757	-66.204	-8191	255	
1410.043	1	1	0	0	0.073869	0.19141	0.20698	0.18372	0.24638	0.25818	0.31625	0.092173	0.074382	0.030734	0.20943	0.1153	0.12698	0.1385	0.20281	0.24052	-2.6708	-3.1083	-3.5146	-2.8958	-3.5083	-3.2188	-2.9292	-3.6292	-2.9437	-3.1583	-3.5729	-2.8125	-3.5729	-3.3875	-2.9729	-3.9104	265.921	262.521	167.270	138.807	87.113	188.498	-39.328	239.254	-0.434	-45.862	211.572	2.834	95.980	224.719	42.277	178.719	0.0001802	0.00024341	0.0001299	1315	1.4523e-06	6.6511e-06	1326	357.19	1.4557e-06	3.7438e-06	411.21	137.28	118.27	41.048	4.2724e-06	51.284	0.0004085	0.00042362	0.00011894	1314.5	4.747e-06	4.6735e-06	1334.2	360.53	4.8871e-06	4.87e-06	413.47	140.04	119.96	41.526	5.1112e-06	51.826	226.417	-20.831	-26.094	-79.240	86.381	14.681	-79.148	-74.544	132.319	95.957	-74.730	-70.377	-69.815	-65.496	81.019	-65.982	-8191	255	
1410.162	1	1	0	0	0.17506	0.14358	0.17007	0.17455	0.24097	0.093097	0.17409	0.17181	0.11372	0.087459	0.066182	0.25621	0.21942	0.17121	0.039754	0.061426	-2.6021	-3.0312	-3.7167	-2.8375	-3.2854	-3.525	-3.1771	-3.7583	-3.0563	-3.1104	-3.9542	-2.8625	-3.4479	-3.6229	-2.8979	-3.7188	14.381	266.282	-34.500	2.575	193.176	48.400	-49.929	258.263	-82.546	22.302	151.412	6.280	205.503	-8.544	6.357	241.941	0.00015175	0.00052093	0.00014285	1300.2	9.7335e-07	4.0154e-06	1312.9	351.36	1.4857e-06	5.8982e-06	405.76	134.81	116.46	40.478	2.5905e-06	50.59	0.0004519	0.00048054	0.00013333	1300.5	5.2503e-06	5.3002e-06	1320.7	354.28	5.379e-06	5.402e-06	407.74	137.81	118.2	40.975	5.3125e-06	51.352	226.932	-17.264	26.942	-78.951	109.683	31.956	-79.317	-74.185	124.319	-11.398	-74.558	-70.330	-69.327	-65.106	51.483	-65.853	-8191	255	
1410.258	1	1	0	0	0.10466	0.11649	0.096699	0.25168	0.13338	0.20198	0.13739	0.26049	0.18592	0.31175	0.1085	0.24545	0.32674	0.17157	0.1341	0.25015	-2.9292	-2.7896	-3.5187	-2.9333	-3.1958	-3.5771	-3.0104	-3.5646	-3.2667	-3.1312	-3.4583	-2.9875	-3.3937	-3.6542	-2.7667	-3.6	-78.925	227.403	206.032	242.043	155.235	-5.383	264.757	229.304	-72.669	50.485	261.854	160.122	209.295	234.207	-82.937	187.937	0.00013853	0.00045208	0.00018354	1289.1	2.684e-06	6.4256e-06	1305.8	348.18	2.0101e-06	4.5075e-06	400.96	134.03	115.82	40.271	6.8786e-06	50.401	0.00046772	0.00049271	0.00013739	1291.7	5.3526e-06	5.3173e-06	1314	351.74	5.3487e-06	5.3485e-06	404.69	137.36	117.66	40.834	5.4015e-06	51.052	221.243	54.826	12.597	-79.088	-8.042	67.459	-79.200	-74.241	53.286	50.008	-75.182	-70.754	-69.879	-65.602	88.025	-66.330	-8191	255	
1410.354	1	1	0	0	0.35136	0.12003	0.18168	0.10696	0.10002	0.2586	0.16953	0.23373	0.27231	0.15749	0.25064	0.22178	0.1971	0.18018	0.12805	0.12712	-2.8542	-2.8	-3.5833	-3.1396	-3.0854	-3.5229	-2.9604	-3.3979	-3.2375	-2.9875	-3.5729	-3.0458	-3.1583	-3.6729	-2.8896	-3.2812	-84.228	-61.935	27.921	-70.173	106.046	41.848	203.813	212.350	184.599	78.804	212.381	-50.591	232.577	250.855	238.708	173.770	0.00011015	0.00035378	0.00011282	1279.3	4.5295e-06	4.8004e-06	1300.1	346.13	1.23e-06	4.9335e-06	398.91	133.06	115.15	40.109	4.9502e-06	50.164	0.00046498	0.00048309	0.00013444	1280.6	5.3135e-06	5.3447e-06	1301.2	349.34	5.2423e-06	5.2388e-06	402.08	136.43	116.99	40.603	5.3185e-06	50.781	228.505	-40.842	9.554	-79.357	31.462	33.815	-79.140	-74.481	12.292	80.700	-75.147	-70.569	-69.743	-65.485	97.967	-66.254	-8191	255	
1410.428	1	1	0	0	0.051926	0.35019	0.10628	0.34732	0.06879	0.26502	0.27782	0.37411	0.071731	0.13204	0.22367	0.0057684	0.058255	0.12154	0.14025	0.34176	-3.0646	-2.85	-3.4667	-3.1437	-2.9688	-3.6104	-3.0438	-3.3312	-3.5312	-2.8312	-3.6729	-3.2854	-3.225	-3.5833	-2.7729	-3.2667	-40.568	222.448	150.633	-85.997	-5.058	165.086	245.760	196.020	-55.596	-2.604	253.596	229.856	183.854	-73.221	215.874	109.071	0.0001555	0.00090877	9.0629e-05	1271	2.9566e-06	5.4416e-06	1293.1	345.65	2.1437e-06	5.8943e-06	398.7	133.55	114.69	40.099	5.2959e-06	50.043	0.00045802	0.00048549	0.00013586	1272.5	5.2581e-06	5.2221e-06	1296.4	348.99	5.2108e-06	5.2731e-06	401.46	136.45	116.46	40.631	5.2864e-06	50.704	228.752	-16.343	-37.672	-79.301	29.647	53.922	-79.311	-74.251	51.648	60.042	-74.558	-69.974	-69.658	-65.379	53.316	-65.818	-8191	255	
1410.547	1	1	0	0	0.16443	0.24649	0.2187	0.41875	0.16755	0.23335	0.031375	0.19746	0.058157	0.19786	0.21403	0.1239	0.28742	0.22597	0.12925	0.31689	-3.3417	-2.7083	-3.1958	-3.3521	-3.025	-3.6188	-3.2083	-3.2875	-3.5187	-2.8021	-3.4938	-3.2458	-2.9167	-3.6521	-2.9917	-3.2479	141.132	97.208	193.865	212.633	35.099	147.619	83.244	107.665	203.602	-14.028	267.234	157.254	217.905	170.483	69.555	221.514	0.00013755	0.00035558	0.0001357	1270	2.5344e-06	5.2411e-06	1293.2	346.34	3.4039e-06	4.6689e-06	398.29	133.58	114.93	40.081	3.3236e-06	49.937	0.0004605	0.00047503	0.00013265	1270.7	5.2126e-06	5.148e-06	1294.8	348.47	5.075e-06	5.3009e-06	400.61	136.19	116.78	40.574	5.1426e-06	50.786	222.904	-12.613	21.563	-78.818	47.429	50.583	-78.896	-74.046	17.072	45.108	-74.795	-70.645	-69.789	-65.342	77.483	-66.142	-8191	255	
1410.643	1	1	0	0	0.074443	0.15072	0.25452	0.24463	0.14955	0.12358	0.21533	0.32172	0.016181	0.18291	0.31021	0.21166	0.14475	0.072972	0.089883	0.18077	-3.1479	-2.6979	-3.25	-3.4604	-2.7729	-3.6312	-3.1521	-3.1646	-3.4833	-2.8521	-3.5333	-3.4229	-2.9917	-3.6188	-2.925	-3.025	23.629	228.787	-75.285	228.386	232.935	155.192	155.771	236.760	184.836	-86.880	232.138	245.401	107.774	-26.725	-45.037	221.110	0.00013146	0.00046331	0.00018898	1270.2	2.0493e-06	7.1178e-06	1290.2	344.75	3.6263e-06	3.4358e-06	398.23	133.04	115.34	40.227	1.647e-06	50.186	0.00045427	0.00046861	0.00013048	1272.5	5.2108e-06	4.9982e-06	1295.7	347.98	5.1281e-06	5.1433e-06	401.47	136.1	116.72	40.66	5.1014e-06	50.789	233.165	2.010	8.891	-79.206	26.933	36.047	-79.060	-74.388	54.346	46.700	-74.933	-70.487	-69.953	-65.206	67.149	-66.055	-8191	255	
1410.739	1	1	0	0	0.21518	0.29376	0.21869	0.13188	0.36208	0.18391	0.14535	0.23288	0.18893	0.088278	0.026089	0.20447	0.24641	0.14948	0.16542	0.22991	-3.1188	-2.8021	-3.1021	-3.5542	-2.6813	-3.2938	-3.3604	-3.0687	-3.575	-3	-3.2958	-3.3563	-2.9896	-3.5	-2.9917	-3.1188	138.341	19.285	156.636	-86.745	90.465	137.394	178.792	171.583	212.192	-8.591	22.665	-78.551	248.690	114.351	101.568	125.010	0.00016759	0.00037603	0.00014167	1272.2	3.1543e-06	4.1083e-06	1296.1	345.89	3.3363e-07	4.4952e-06	401.93	133.71	114.8	39.995	3.447e-06	50.185	0.00044529	0.00047064	0.00012754	1271.2	5.1966e-06	4.9579e-06	1297.8	348.39	5.0249e-06	5.019e-06	402.06	136.36	116.83	40.596	4.9664e-06	50.89	230.121	-23.294	43.902	-79.134	38.359	68.571	-79.366	-74.236	97.757	76.204	-74.941	-70.236	-69.896	-65.477	80.530	-66.213	-8191	255	
1410.860	1	1	0	0	0.022287	0.0604	0.092724	0.068082	0.24753	0.24228	0.31204	0.36986	0.26633	0.079396	0.2738	0.23081	0.16618	0.13454	0.29773	0.20541	-3.2313	-2.8812	-2.9375	-3.775	-2.8167	-3.2396	-3.4792	-2.875	-3.5958	-3.0229	-3.2583	-3.5771	-2.7812	-3.4229	-3.4833	-2.7729	227.728	-57.360	-26.880	196.700	177.588	213.885	206.296	-75.872	57.102	174.812	-34.841	255.827	-21.849	176.665	160.901	-88.658	0.00017142	0.00041651	0.00016587	1272	3.1699e-06	5.0881e-06	1291.2	343.71	2.2879e-06	2.5209e-06	397.21	133.67	114.64	39.847	3.5165e-06	50.162	0.00043188	0.00044835	0.00012697	1270.4	4.9688e-06	4.9676e-06	1292.3	346.88	5.0213e-06	4.975e-06	400.67	136.13	116.65	40.528	5.1342e-06	50.725	216.697	-11.758	-17.837	-79.223	88.051	43.069	-78.980	-74.331	9.357	26.310	-74.812	-70.215	-70.101	-65.550	-3.245	-66.433	-8191	255	
1410.956	1	1	0	0	0.15111	0.079129	0.26252	0.16527	0.054283	0.0698	0.30785	0.13078	0.11016	0.11278	0.29955	0.20025	0.12092	0.48577	0.30006	0.17216	-3.1937	-3.1583	-2.7896	-3.825	-2.7396	-3.2917	-3.4146	-3.0438	-3.5583	-2.9813	-2.9521	-3.6417	-2.85	-3.2208	-3.4396	-2.8229	-82.244	24.509	267.693	261.667	46.787	205.783	-84.526	66.240	20.163	80.740	-24.377	-91.804	102.094	221.276	-65.520	70.500	0.00015959	0.00062125	0.00018867	1274.1	2.2262e-06	9.6131e-06	1294.9	343.66	1.8402e-06	4.7933e-06	401.1	133.27	115.5	40.181	1.2921e-06	49.971	0.00044835	0.00045886	0.00013243	1271.7	5.2117e-06	5.1034e-06	1295.2	347.08	5.0924e-06	5.1471e-06	401.56	136.06	116.7	40.599	5.0256e-06	50.709	241.190	-3.212	24.251	-78.659	59.649	61.090	-78.599	-73.843	69.338	70.713	-74.538	-70.261	-69.531	-65.294	48.423	-65.858	-8191	255	
1411.027	1	1	0	0	0.13602	0.1903	0.14751	0.20405	0.19786	0.057402	0.049433	0.2094	0.15519	0.23605	0.1315	0.31537	0.11392	0.26127	0.091636	0.17985	-3.0354	-3.1417	-2.8458	-3.7562	-2.7687	-3.1458	-3.5729	-2.8583	-3.4667	-3.2604	-2.9938	-3.6271	-3.0979	-3.0896	-3.4042	-2.8208	139.561	208.584	154.798	161.331	122.796	216.710	255.737	0.967	32.744	74.967	261.602	249.453	192.694	252.766	79.217	227.534	0.00015857	0.00035198	8.5845e-05	1280.8	3.5598e-06	3.5424e-06	1298	346.65	2.4597e-06	4.9133e-06	399.89	134.69	115.48	40.555	2.684e-06	50.48	0.00043587	0.0004434	0.00012491	1276.5	4.7247e-06	4.6714e-06	1299.8	349.06	4.5725e-06	4.5046e-06	401.91	136.86	117.18	40.833	4.322e-06	51.05	216.854	45.028	16.101	-79.001	63.875	80.151	-78.845	-74.139	65.069	40.282	-74.519	-69.913	-69.373	-65.348	101.342	-66.026	-8191	255	
1411.148	1	1	0	0	0.061782	0.070151	0.1923	0.33632	0.2362	0.17422	0.1673	0.19155	0.08536	0.34428	0.12014	0.22911	0.035339	0.036945	0.058134	0.093007	-3.0062	-3.3104	-2.8271	-3.8563	-3.025	-3.0187	-3.6354	-2.9604	-3.1542	-3.4146	-2.9021	-3.6021	-2.9729	-2.8563	-3.5896	-2.8646	3.877	-6.385	-62.118	203.338	-20.725	102.146	203.257	255.442	-26.603	237.288	-58.989	185.510	-28.594	134.333	74.664	179.432	0.00012906	0.00050587	0.00010802	1276.7	2.6266e-06	5.8404e-06	1287.8	346.2	2.4761e-06	1.909e-06	402.29	134.71	115.99	40.382	4.0623e-06	50.559	0.00038858	0.00038708	0.00010968	1271.5	4.2962e-06	4.1892e-06	1291.4	348.41	4.2412e-06	4.1979e-06	402.07	136.73	117.19	40.869	4.3349e-06	51.048	235.820	-18.282	36.797	-78.737	13.766	57.712	-78.918	-74.228	73.202	18.556	-74.863	-70.077	-69.651	-65.233	77.764	-65.766	-8191	255	
1411.242	1	1	0	0	0.074758	0.11095	0.32522	0.18592	0.19736	0.06319	0.098295	0.26143	0.13421	0.17989	0.10311	0.22132	0.18825	0.17147	0.27418	0.085467	-2.7938	-3.5042	-2.7687	-3.6771	-3.0958	-2.9417	-3.7438	-2.9333	-3.2083	-3.4813	-2.8917	-3.5521	-3.2979	-3.075	-3.6813	-3.1833	-85.653	88.855	10.374	267.879	-17.685	112.167	-52.899	231.348	19.312	28.352	154.718	252.576	265.880	197.087	32.677	36.181	0.0001315	0.00032874	0.00012733	1277.5	3.8947e-06	2.3523e-06	1291.9	344.99	2.1541e-06	3.0322e-06	398.86	133.65	114.65	40.208	5.7346e-06	49.992	0.00039658	0.00040398	0.00011383	1273.9	4.57e-06	4.5823e-06	1295.7	347.76	4.6766e-06	4.6118e-06	400.4	136.11	116.38	40.594	4.5131e-06	50.655	207.941	-0.733	61.817	-78.790	49.114	37.982	-78.986	-74.062	30.145	83.967	-74.992	-70.455	-69.719	-65.501	73.615	-65.946	-8191	255	
1411.339	1	1	0	0	0.15804	0.19293	0.16623	0.28865	0.10439	0.055705	0.26298	0.038382	0.19447	0.043941	0.092417	0.33102	0.20472	0.13468	0.1942	0.19712	-2.7896	-3.475	-2.7292	-3.6854	-3.2667	-2.7792	-3.7292	-3.1083	-2.8958	-3.5458	-3.0417	-3.4896	-3.4146	-2.8417	-3.4688	-3.1125	108.716	172.600	87.838	213.095	14.416	-54.749	226.410	147.680	147.244	3.410	199.081	259.832	243.820	238.375	49.923	195.631	0.00017675	0.00044277	0.00013857	1262.2	2.268e-06	4.6771e-06	1277	341.62	2.2426e-06	5.2509e-06	399.12	134.24	115.32	40.435	4.8508e-06	50.492	0.00038631	0.00038171	0.00010386	1257.3	4.0892e-06	4.034e-06	1277.8	344.84	4.0083e-06	3.8967e-06	399.95	136.3	116.81	40.746	3.8252e-06	50.941	226.951	-32.550	27.030	-78.931	50.302	95.335	-78.936	-73.877	43.048	62.655	-74.540	-70.045	-69.595	-65.235	102.633	-65.934	-8191	255	
1411.459	1	1	0	0	0.066972	0.14835	0.033248	0.10125	0.078407	0.12369	0.24244	0.052171	0.17155	0.18742	0.18091	0.24335	0.11576	0.13871	0.16431	0.17838	-2.4875	-3.6437	-2.7062	-3.5292	-3.2896	-2.7875	-3.8208	-3.0187	-3.025	-3.6479	-2.9375	-3.425	-3.6167	-2.6479	-3.5938	-3.2583	-0.446	187.220	-5.379	213.057	-40.322	-47.593	234.257	246.443	193.774	38.121	236.908	72.860	-51.946	195.539	104.154	175.202	0.00014594	0.00053837	0.00015477	1259.7	2.7389e-06	4.2633e-06	1275.6	343.35	1.6506e-06	2.4772e-06	398.97	134.11	115.25	40.288	7.782e-06	50.297	0.00035102	0.00034506	9.5587e-05	1256.8	3.8695e-06	3.8325e-06	1278.5	346.24	3.8164e-06	3.6881e-06	399.57	136.01	116.66	40.633	3.7923e-06	50.801	231.971	26.587	1.905	-79.012	61.265	42.605	-78.841	-74.192	106.045	53.149	-74.707	-70.075	-69.744	-65.275	77.484	-66.214	-8191	255	
1411.555	1	1	0	0	0.1137	0.16667	0.24817	0.17747	0.19761	0.085259	0.32834	0.27284	0.16311	0.089849	0.10105	0.082642	0.11601	0.32946	0.034412	0.13767	-2.4604	-3.6167	-2.8	-3.3417	-3.5833	-2.9854	-3.5146	-3.3063	-2.9479	-3.6688	-3.1875	-3.375	-3.5958	-2.8625	-3.5625	-3.2375	23.627	248.696	125.688	250.207	248.346	18.999	215.612	-89.451	-51.275	-0.776	-2.281	220.100	153.408	231.679	38.040	175.755	0.00015304	0.00042399	0.00013241	1251.7	5.3091e-07	7.08e-06	1276.1	343.76	3.347e-06	3.9297e-06	399.53	134.18	114.75	40.185	2.9277e-06	50.141	0.00034075	0.0003366	9.3944e-05	1249.9	3.7419e-06	3.7055e-06	1278.3	346.59	3.9085e-06	3.7382e-06	400.62	136.4	116.58	40.617	3.9858e-06	50.749	225.565	-31.578	-7.419	-78.850	10.620	55.580	-78.732	-74.058	38.153	64.325	-74.551	-70.246	-69.760	-65.200	70.112	-65.850	-8191	255	
1411.652	1	1	0	0	0.14211	0.22792	0.26132	0.097383	0.23708	0.1374	0.25444	0.13357	0.2509	0.20431	0.4951	0.20746	0.21441	0.26921	0.20992	0.27666	-2.4917	-3.5729	-2.9521	-3.35	-3.5208	-2.7729	-3.4146	-3.3396	-2.7917	-3.6167	-3.0083	-3.0167	-3.5687	-2.8	-3.2125	-3.3438	156.336	76.726	-6.412	193.868	27.728	140.500	208.317	165.499	40.630	260.168	214.681	192.322	-49.999	-53.399	179.118	-76.824	0.00016091	0.00036759	7.4523e-05	1258.3	3.2913e-06	3.593e-06	1284.4	344.06	6.5344e-07	3.1382e-06	397.67	134.28	114.91	40.085	4.3802e-06	50.143	0.00035596	0.00035493	0.00010082	1256.6	4.007e-06	3.9724e-06	1282.2	346.32	4.0255e-06	4.0253e-06	399.72	136.13	116.35	40.563	4.0516e-06	50.701	231.268	-6.081	33.298	-78.837	26.095	18.730	-79.006	-74.292	31.564	57.764	-74.655	-70.595	-69.858	-65.504	49.967	-66.272	-8191	255	
1411.723	1	1	0	0	0.026522	0.16219	0.13755	0.1596	0.14506	0.20726	0.30122	0.061725	0.13696	0.20044	0.23553	0.22099	0.21911	0.13592	0.15334	0.31272	-2.3604	-3.5333	-2.95	-2.9688	-3.5708	-2.8083	-3.425	-3.6271	-2.8042	-3.3583	-3.2667	-3.1333	-3.7438	-2.95	-3.1792	-3.6021	-56.599	-76.046	39.167	168.572	191.576	-64.476	196.499	206.099	67.099	20.472	146.098	237.881	266.914	-48.608	170.641	133.647	0.00015521	0.00059783	8.9823e-05	1257.6	2.2935e-06	4.5956e-06	1279.6	342.53	4.3332e-06	5.3129e-06	399.56	133.66	114.85	39.946	4.9529e-06	50.006	0.00036663	0.00037326	0.00010731	1256.9	4.275e-06	4.2063e-06	1283	345.84	4.3137e-06	4.2427e-06	399.76	135.7	116.21	40.458	4.3596e-06	50.56	242.372	13.458	18.934	-79.009	67.566	64.432	-79.164	-74.163	45.958	38.342	-74.673	-70.431	-69.889	-64.951	83.013	-65.910	-8191	255	
1411.819	1	1	0	0	0.16948	0.012474	0.081006	0.33519	0.23503	0.14337	0.18544	0.20108	0.23791	0.0314	0.1217	0.16256	0.1756	0.23505	0.055456	0.25742	-2.1688	-3.375	-2.95	-3.0687	-3.6479	-2.9896	-3.3	-3.5312	-3.0208	-3.4208	-3.3583	-2.9625	-3.6	-3.0125	-2.9833	-3.825	-85.014	237.632	123.482	235.161	131.622	188.023	251.805	220.044	39.643	7.796	82.473	179.375	161.675	152.873	183.344	204.737	0.00012943	0.00042008	0.00010794	1259.2	4.5112e-06	2.4106e-06	1283.4	346.19	1.6413e-06	3.1722e-06	402.14	133.87	115.67	40.346	3.5996e-06	50.426	0.00038882	0.00039933	0.00011024	1259.4	4.3589e-06	4.2762e-06	1288.4	347.92	4.3591e-06	4.2288e-06	402.3	136.4	117.13	40.684	4.1983e-06	50.944	235.852	-0.953	50.153	-78.914	58.196	83.824	-78.825	-74.083	15.296	117.160	-74.468	-69.998	-69.424	-64.893	34.410	-66.219	-8191	255	
1411.940	1	1	0	0	0.15575	0.11138	0.023456	0.1562	0.2229	0.14964	0.31711	0.15927	0.116	0.073338	0.11893	0.12391	0.075887	0.14722	0.27757	0.15283	-2.4542	-3.1813	-3.2417	-2.9771	-3.6146	-3.2021	-3.25	-3.5042	-2.8333	-3.4437	-3.4188	-2.9437	-3.6646	-2.9958	-2.7313	-3.5938	223.438	99.196	136.144	242.493	80.837	104.747	204.985	116.934	-45.636	-80.224	84.858	-37.586	264.711	152.011	30.417	168.626	0.00016077	0.00035174	0.00015461	1269.9	2.9676e-06	4.0284e-06	1296.3	347.41	1.358e-06	5.1688e-06	400.37	134.58	115.9	40.31	3.8627e-06	50.401	0.00037849	0.00038381	0.00010591	1268.7	4.0687e-06	4.0231e-06	1296.4	348.91	4.0064e-06	4.0208e-06	402.66	137.12	117.19	40.839	4.0086e-06	51.012	242.258	-23.082	-32.938	-78.828	118.089	64.473	-78.649	-74.016	38.468	53.232	-74.827	-70.627	-69.901	-65.393	79.706	-66.350	-8191	255	
1412.036	1	1	0	0	0.33432	0.1245	0.1641	0.19263	0.10713	0.037774	0.20407	0.2837	0.20117	0.10001	0.20478	0.04894	0.13722	0.062205	0.12607	0.18327	-2.5021	-3.1146	-3.3417	-2.7521	-3.3396	-3.1271	-3.0021	-3.6688	-2.8458	-3.0479	-3.425	-2.7938	-3.3208	-3.1333	-2.7979	-3.5125	-89.322	204.252	18.514	-45.514	-2.076	116.220	191.747	240.372	164.500	25.491	256.117	174.579	245.931	1.080	148.769	213.794	0.00011775	0.00041049	0.00012573	1270.2	2.5647e-06	6.0049e-06	1290.9	346.04	1.362e-06	8.9201e-06	402.64	133.56	115.55	40.295	3.7266e-06	50.564	0.00036242	0.0003663	0.0001006	1266.3	4.0433e-06	4.0305e-06	1293.5	348.49	4.149e-06	4.1242e-06	402.87	136.47	117.16	40.824	4.1767e-06	51.031	227.179	44.114	7.969	-79.118	107.129	96.051	-79.307	-74.383	57.979	55.854	-74.805	-70.483	-69.884	-65.382	92.208	-66.177	-8191	255	
1412.132	1	1	0	0	0.068781	0.10077	0.1022	0.27704	0.11549	0.17819	0.16309	0.055544	0.24057	0.12655	0.15603	0.25378	0.11774	0.19556	0.17381	0.09957	-2.3229	-2.8667	-3.3917	-2.8792	-3.3438	-3.2333	-2.8521	-3.5521	-2.9646	-2.9125	-3.5146	-2.8208	-3.4375	-3.2292	-2.6104	-3.6729	80.976	119.478	-29.138	201.122	204.573	152.945	239.123	244.485	173.130	238.714	174.606	192.036	-89.497	-56.916	-35.770	235.618	0.00014519	0.00024463	9.3523e-05	1273.3	3.8285e-06	4.7662e-06	1295.3	346.83	1.988e-06	5.9257e-06	401.17	134.5	115.37	40.078	3.1482e-06	50.551	0.00038014	0.00038665	0.00010705	1272.3	4.3015e-06	4.248e-06	1297.2	349.64	4.2921e-06	4.2895e-06	403.2	136.58	117.11	40.698	4.4324e-06	51.114	237.923	30.072	-5.812	-79.046	75.631	57.430	-79.203	-74.144	20.568	57.301	-74.560	-70.038	-70.035	-65.253	44.438	-66.146	-8191	255	
1412.228	1	1	0	0	0.12839	0.084692	0.16486	0.18697	0.027383	0.20261	0.1386	0.34995	0.15341	0.33181	0.18542	0.3084	0.10194	0.36711	0.12059	0.11148	-2.8396	-2.8396	-3.45	-3.05	-3.2188	-3.4437	-2.8479	-3.6354	-3.1125	-2.9083	-3.65	-2.9396	-3.15	-3.4875	-2.6875	-3.7375	16.758	160.325	-45.902	-83.208	96.025	264.856	158.441	233.876	-68.081	80.009	-60.196	188.607	-56.320	183.888	-2.484	-43.445	0.00013807	0.00037822	0.00010317	1276.9	1.146e-06	4.1589e-06	1298.9	347.21	6.0654e-07	3.5677e-06	402.25	134.68	116.61	40.508	3.1943e-06	50.646	0.00038614	0.00039569	0.00010915	1274.8	4.3214e-06	4.2248e-06	1300.1	350.67	4.2599e-06	4.2436e-06	404.21	137.45	118	41.018	4.3668e-06	51.122	220.927	-5.897	-2.279	-79.186	53.704	64.285	-79.177	-74.293	93.229	92.908	-74.823	-70.721	-69.909	-65.508	52.232	-66.582	-8191	255	
1412.323	1	1	0	0	0.1252	0.15167	0.034284	0.20422	0.036814	0.20588	0.13313	0.31946	0.22962	0.092982	0.10041	0.3049	0.10855	0.17037	0.35906	0.17139	-2.7625	-2.975	-3.4875	-3.1188	-3.1875	-3.4	-2.7687	-3.4396	-3.2354	-2.9708	-3.4833	-3.0396	-3.1208	-3.4792	-2.9938	-3.675	40.649	-42.681	105.501	-70.089	2.149	163.357	239.583	241.444	1.118	-66.487	6.379	-83.348	213.477	11.348	57.701	142.096	0.00014557	0.0006181	0.00011829	1279.6	2.6194e-06	5.2643e-06	1299.1	347.82	1.1989e-06	1.4001e-06	402.53	134.81	116.55	40.422	4.6706e-06	50.784	0.00037713	0.00039286	0.00010762	1277.9	4.3256e-06	4.2867e-06	1304.3	351.03	4.2955e-06	4.2287e-06	405.53	137.32	117.84	40.949	4.2311e-06	51.186	225.024	-3.130	-6.119	-79.295	81.038	44.471	-79.245	-74.340	56.991	18.334	-75.042	-70.354	-70.217	-65.609	49.185	-66.167	-8191	255	
1412.421	1	1	0	0	0.22268	0.080802	0.28971	0.13667	0.22854	0.17681	0.042888	0.13703	0.038959	0.24476	0.12144	0.36431	0.3156	0.10821	0.1346	0.2253	-2.9813	-2.8187	-3.6	-3.2479	-3.0875	-3.5708	-2.9	-3.4042	-3.2958	-2.6729	-3.5729	-3.0125	-3.1	-3.6917	-2.7896	-3.1979	92.312	-80.704	200.410	254.364	-41.841	110.466	6.539	230.188	236.142	155.633	266.439	-78.070	-62.524	70.844	115.103	207.403	0.00010408	0.00059454	0.00018609	1281.7	6.4289e-07	6.5872e-06	1301.6	347.54	1.1965e-06	6.0262e-06	405.04	135.21	116.11	40.516	3.9457e-06	50.695	0.00038149	0.00039272	0.00010491	1280.4	4.2962e-06	4.1982e-06	1304	351.3	4.1798e-06	4.2154e-06	404.65	137.21	117.71	40.936	4.2193e-06	51.135	228.769	19.533	-20.860	-79.381	-1.011	44.227	-79.341	-74.415	-8.375	82.210	-74.951	-70.276	-69.909	-65.371	63.824	-65.908	-8191	255	
1412.540	1	1	0	0	0.10767	0.12648	0.10762	0.36271	0.12996	0.17434	0.30448	0.058434	0.074588	0.19346	0.13605	0.11577	0.24812	0.13658	0.29308	0.16825	-3.0417	-2.6562	-3.5938	-3.3042	-2.9917	-3.5354	-2.9958	-3.0625	-3.3875	-2.5458	-3.4646	-3.3979	-3.0396	-3.5167	-2.9583	-2.9479	176.153	-90.584	241.987	261.214	43.512	98.089	212.574	76.037	216.146	-70.112	258.481	-53.645	3.111	-89.432	-43.381	-75.258	0.00013272	0.00074019	0.00017007	1275.8	3.8571e-06	1.8184e-06	1298.5	349.1	2.3646e-06	4.4022e-06	403.96	134.61	115.71	40.463	4.5927e-06	50.817	0.00037514	0.00038947	0.00010784	1277.7	4.3353e-06	4.154e-06	1302	351.4	4.2102e-06	4.2698e-06	405.01	137.22	117.5	40.976	4.3285e-06	51.254	221.972	-22.889	6.851	-79.082	27.363	77.210	-79.125	-74.328	30.812	48.061	-75.179	-70.473	-69.981	-65.660	46.985	-66.198	-8191	255	
1412.636	1	1	0	0	0.10546	0.11829	0.19052	0.16755	0.13727	0.073391	0.18952	0.17095	0.076792	0.10112	0.059862	0.1245	0.13172	0.15939	0.13167	0.20169	-3.2375	-2.775	-3.5833	-3.4417	-2.8167	-3.6792	-3.2896	-3.0646	-3.5125	-2.8729	-3.3667	-3.3625	-2.875	-3.6562	-2.8958	-3.05	137.651	130.967	-41.703	-60.091	243.899	143.169	203.838	185.934	-27.973	231.573	119.451	140.352	237.456	102.743	71.515	166.767	0.00013516	0.00030493	0.00016501	1275.6	1.6112e-06	8.2468e-06	1294.9	347.34	2.0466e-06	4.7428e-06	403.08	134.77	115.86	40.382	3.3732e-06	50.613	0.0003811	0.00039733	0.00010917	1275	4.314e-06	4.301e-06	1298.4	351.01	4.2597e-06	4.3355e-06	404.22	136.84	117.33	40.869	4.2429e-06	51.015	235.019	-23.308	-6.134	-79.254	22.572	70.676	-79.199	-74.325	77.498	-26.507	-75.020	-70.467	-70.176	-65.529	65.586	-66.386	-8191	255	
1412.732	1	1	0	0	0.063883	0.1281	0.062909	0.0075777	0.097603	0.17163	0.1768	0.089547	0.0075985	0.23106	0.16425	0.25134	0.10355	0.056274	0.15161	0.11883	-3.3708	-2.8208	-3.1146	-3.4938	-2.7167	-3.4688	-3.1104	-2.95	-3.5229	-2.8396	-3.2021	-3.5958	-2.8958	-3.4875	-3.0229	-3.0208	11.625	20.840	-7.610	-5.188	86.369	2.745	136.165	212.203	214.749	33.047	248.178	-53.575	-76.003	226.486	197.121	45.714	0.0001211	0.00049871	7.2983e-05	1274.7	3.3563e-06	4.3565e-06	1294.9	350	2.2608e-06	3.8405e-06	403.73	134.93	115.55	40.587	1.881e-06	50.773	0.0003743	0.00037545	0.000107	1274.9	4.1884e-06	4.1351e-06	1297.2	350.86	4.1317e-06	4.176e-06	404.18	137.29	117.45	40.923	4.0968e-06	51.186	210.359	11.651	32.779	-79.111	51.184	87.846	-79.029	-74.560	36.471	72.385	-74.950	-70.274	-70.109	-65.449	87.563	-66.016	-8191	255	
1412.828	1	1	0	0	0.12149	0.04451	0.080891	0.18811	0.28024	0.065206	0.076168	0.075911	0.051349	0.056397	0.20053	0.26117	0.23044	0.18476	0.25336	0.12442	-3.4188	-2.8167	-3.0396	-3.7313	-2.8187	-3.3792	-3.5208	-3	-3.8083	-3.0062	-3.0458	-3.5	-2.9417	-3.3479	-3.3125	-2.9708	170.090	27.358	145.683	-90.920	29.099	215.902	158.209	267.178	90.701	33.238	265.382	-90.997	249.419	264.691	144.834	212.868	0.00014795	0.0002772	0.00020004	1271	2.9827e-06	3.901e-06	1289.7	348.24	2.3843e-06	2.3651e-06	402.55	134.7	116.09	40.452	4.8171e-06	50.586	0.0003657	0.0003723	0.00010534	1272.1	4.2043e-06	4.0847e-06	1296.1	350.63	4.123e-06	4.0643e-06	403.59	137.16	117.47	40.91	4.086e-06	51.08	241.076	30.294	-21.845	-78.969	43.446	73.971	-78.925	-74.294	95.389	26.804	-75.014	-70.498	-70.063	-65.241	16.264	-66.330	-8191	255	
1412.949	1	1	0	0	0.26261	0.23973	0.047824	0.12028	0.029505	0.083313	0.1771	0.21792	0.155	0.11434	0.046979	0.21765	0.3646	0.2549	0.14864	0.12891	-3.1854	-2.7729	-3.1625	-3.6292	-2.5271	-3.4083	-3.6021	-2.85	-3.3771	-2.9208	-3.1	-3.65	-2.7958	-3.2646	-3.3271	-2.8021	194.385	192.510	261.649	256.146	195.745	147.452	166.206	149.757	99.151	60.408	111.046	239.882	-83.518	190.400	-81.804	-21.803	0.0001498	0.00076698	6.7463e-05	1270.8	2.5618e-06	6.7022e-06	1294.8	345.97	9.187e-07	4.4567e-06	402.43	134.38	115.66	40.378	2.0257e-06	50.512	0.00037064	0.00037416	0.00010404	1269.7	4.1775e-06	4.0755e-06	1295.8	349.61	4.1892e-06	4.0968e-06	403.02	136.79	117.03	40.813	4.1497e-06	50.948	224.849	-36.430	40.162	-79.026	28.670	79.373	-79.038	-74.677	22.121	58.124	-75.025	-70.276	-69.957	-65.313	38.150	-66.112	-8191	255	
1413.020	1	1	0	0	0.1632	0.049117	0.087122	0.42067	0.17736	0.062952	0.065018	0.32974	0.16416	0.12887	0.21612	0.19572	0.10827	0.075532	0.099993	0.13086	-3.1354	-3.1083	-2.9167	-3.7396	-2.7333	-3.2458	-3.5958	-2.7917	-3.4208	-3.1562	-2.8563	-3.7083	-2.85	-3.2104	-3.3125	-2.8896	-68.187	-80.981	161.076	220.768	201.714	35.229	189.418	198.925	173.471	175.206	222.687	156.024	220.830	242.518	160.072	224.248	0.00014772	0.0004554	0.00010142	1267.3	4.2253e-06	5.115e-06	1286.7	346.83	2.4929e-06	4.5664e-06	401.82	133.49	115.62	40.564	3.2449e-06	50.607	0.00037812	0.00038145	0.00010657	1267.8	4.2531e-06	4.1524e-06	1290.9	349.57	4.195e-06	4.2452e-06	403.27	136.38	116.96	40.854	4.2875e-06	50.967	242.595	16.693	-6.999	-79.221	17.746	72.566	-79.107	-74.032	133.723	44.686	-74.887	-70.412	-69.744	-65.125	81.116	-65.887	-8191	255	
1413.141	1	1	0	0	0.27826	0.14929	0.037021	0.19115	0.19707	0.14153	0.21581	0.067568	0.14338	0.090518	0.31465	0.16972	0.25491	0.1106	0.25157	0.31088	-3.1021	-3.1958	-2.7792	-3.7458	-2.9375	-3.1437	-3.7562	-2.7812	-3.3667	-3.3229	-2.7042	-3.5896	-3.1396	-3.0896	-3.5833	-2.9854	146.282	187.989	172.246	258.362	249.837	-9.016	187.522	182.506	-73.543	-26.026	0.089	-51.220	215.143	-76.059	186.473	-57.009	9.8368e-05	0.00031706	0.0001665	1266.2	2.4539e-06	5.6093e-06	1285.5	347.6	2.1424e-06	7.3958e-06	402.95	134.26	115.55	40.489	3.7714e-06	50.517	0.00037629	0.00038443	0.00010758	1268.9	4.3096e-06	4.2123e-06	1292.1	349.42	4.2079e-06	4.1626e-06	403.69	136.71	116.94	40.855	4.2326e-06	50.945	226.107	-0.242	50.234	-78.893	75.862	46.254	-78.970	-73.964	43.355	52.908	-74.733	-70.057	-69.756	-65.151	37.154	-66.085	-8191	255	
1413.235	1	1	0	0	0.42065	0.092399	0.030748	0.45591	0.21164	0.10085	0.064496	0.2051	0.0641	0.13317	0.24056	0.22743	0.38828	0.24086	0.11242	0.044326	-2.8708	-3.1854	-2.7583	-3.4958	-2.9167	-2.9313	-3.7938	-2.8146	-3.4688	-3.4708	-2.7333	-3.4479	-3.1146	-2.8792	-3.5146	-2.7792	-6.108	17.850	85.143	247.039	-21.686	-2.024	184.531	187.410	39.904	60.535	153.086	262.734	240.816	244.228	184.701	-4.908	0.00015192	0.00044923	0.00013566	1268.6	2.852e-06	2.3404e-06	1296.7	347.34	3.7274e-06	4.1131e-06	402.41	135.34	115.92	40.389	3.3323e-06	50.707	0.00037719	0.00038178	0.00010788	1268	4.196e-06	4.184e-06	1297	350.19	4.0997e-06	4.0681e-06	404.03	137.29	117.52	40.898	4.1368e-06	51.132	235.193	-31.514	7.954	-78.887	62.381	152.130	-78.726	-74.267	79.320	56.673	-74.605	-70.196	-69.350	-65.231	11.162	-65.710	-8191	255	
1413.332	1	1	0	0	0.29403	0.1627	0.32789	0.29042	0.41983	0.092148	0.040334	0.12445	0.28688	0.13106	0.19566	0.25231	0.26744	0.19811	0.17158	0.39675	-2.9062	-3.6063	-2.6333	-3.5646	-3.2167	-2.9042	-3.6896	-2.9396	-2.9188	-3.4396	-2.7833	-3.5021	-3.1833	-2.8292	-3.625	-3.0125	145.694	26.565	7.340	220.042	128.012	210.759	229.905	264.546	243.706	72.927	222.308	237.505	216.804	190.387	153.073	244.766	0.00013601	0.00049487	9.8084e-05	1268.1	4.5628e-06	3.7311e-06	1294	347.99	2.7449e-06	4.4073e-06	403.93	134.26	116.11	40.385	5.6432e-06	50.367	0.00037235	0.00037515	0.00010695	1269	4.2505e-06	4.194e-06	1296	350.24	4.3052e-06	4.202e-06	403.99	136.81	117.45	40.776	4.3167e-06	50.906	220.512	-30.902	-30.590	-78.634	91.009	37.694	-78.807	-73.952	18.801	65.170	-74.574	-70.482	-69.610	-65.344	82.785	-65.868	-8191	255	
1413.428	1	1	0	0	0.31384	0.10856	0.16751	0.39404	0.04968	0.085625	0.33192	0.41456	0.16395	0.10833	0.11296	0.10297	0.2356	0.35074	0.10064	0.22396	-2.5292	-3.4437	-2.725	-3.6479	-3.2917	-2.7271	-3.7313	-3.175	-2.9708	-3.5208	-2.9604	-3.3167	-3.5062	-2.9792	-3.5167	-3.2812	116.357	223.206	-68.759	-88.634	158.482	144.356	201.460	234.204	-1.641	144.554	107.990	28.790	-81.048	224.063	220.603	203.555	0.00012513	0.00023917	0.00016209	1271.6	2.4592e-06	4.758e-06	1295.4	348.43	1.5034e-06	6.0645e-06	403.47	135.44	116.21	40.681	4.1614e-06	50.86	0.00038536	0.00039029	0.00010903	1271.6	4.2101e-06	4.2606e-06	1296.7	350.63	4.1791e-06	4.0732e-06	403.86	137.48	117.61	41.084	4.0796e-06	51.271	230.604	81.343	9.156	-78.811	39.518	74.041	-78.782	-73.995	12.014	70.132	-74.525	-70.262	-69.802	-65.316	71.316	-65.723	-8191	255	
1413.548	1	1	0	0	0.033413	0.0915	0.16332	0.1822	0.096741	0.11875	0.28308	0.13984	0.083165	0.06343	0.19563	0.25058	0.32894	0.21457	0.18268	0.07592	-2.6125	-3.6604	-2.7917	-3.4104	-3.4833	-2.6646	-3.6708	-3.2958	-2.9646	-3.6521	-2.9396	-3.2375	-3.4958	-2.6875	-3.5271	-3.225	-50.532	44.619	84.583	174.595	234.944	-51.214	193.598	187.347	5.448	266.845	216.241	193.697	-64.770	258.950	122.153	241.411	0.00010981	0.00048101	0.00015503	1278.1	1.2508e-07	1.0455e-06	1296.1	349.8	1.2114e-06	5.6366e-06	405.52	135.16	116.04	40.517	1.3594e-06	50.659	0.00035923	0.00036358	0.00010214	1274.9	4.0297e-06	4.0002e-06	1299.3	351.83	4.0855e-06	3.9919e-06	405.09	137.48	117.62	40.914	4.0878e-06	51.036	237.401	-13.915	14.416	-78.794	49.885	52.648	-78.703	-73.940	43.505	65.916	-74.581	-70.116	-69.795	-65.365	110.088	-65.691	-8191	255	
1413.620	1	1	0	0	0.065403	0.10277	0.12855	0.22085	0.057751	0.33999	0.31233	0.0829	0.26063	0.30452	0.20346	0.29013	0.21239	0.34308	0.11184	0.12868	-2.5	-3.5604	-3.0583	-3.4854	-3.5563	-2.7479	-3.5333	-3.2875	-2.8	-3.55	-3.1229	-3.1083	-3.7917	-2.9229	-3.2833	-3.5271	-88.122	230.074	123.433	-73.009	114.623	157.191	216.655	109.446	-17.292	-87.398	254.983	225.395	-62.422	212.069	183.976	167.548	0.00015122	0.00012874	8.7912e-05	1269.1	1.0829e-06	4.3789e-06	1294.6	347.59	6.3371e-07	6.193e-06	401.91	133.92	114.83	40.461	4.8449e-06	50.443	0.00036836	0.00036884	0.00010468	1268.8	4.1323e-06	4.1702e-06	1293.5	349.77	4.1684e-06	4.0638e-06	402.85	136.42	116.87	40.768	4.1295e-06	50.885	221.570	-31.306	-1.458	-78.945	22.941	73.759	-78.764	-73.831	-75.390	59.154	-74.551	-70.160	-69.748	-65.086	56.596	-65.874	-8191	255	
1413.716	1	1	0	0	0.25609	0.14068	0.13884	0.33544	0.23801	0.10851	0.1326	0.093141	0.18526	0.14763	0.098168	0.20007	0.076697	0.097352	0.15293	0.11274	-2.4375	-3.6312	-2.8312	-3.3021	-3.7042	-2.7333	-3.4333	-3.6854	-2.7562	-3.5208	-3.2208	-3.1083	-3.4104	-2.8187	-3.1875	-3.5125	260.752	244.182	248.077	-84.020	109.074	-73.871	-71.951	207.854	27.547	125.855	93.127	188.489	88.057	167.368	-64.178	139.907	0.00015202	0.00078046	0.00010695	1270.3	6.5376e-07	5.1466e-06	1290.7	347.15	2.149e-06	2.5016e-06	401.7	133.73	115.49	40.198	5.2502e-06	50.549	0.00036615	0.00036962	0.00010351	1269.3	4.0784e-06	4.0543e-06	1293.7	350.05	4.1229e-06	4.0473e-06	402.89	136.48	117.01	40.683	4.0425e-06	50.812	222.558	16.108	29.717	-78.774	91.700	78.648	-78.958	-73.950	51.737	62.217	-74.867	-70.294	-69.659	-64.964	53.952	-65.760	-8191	255	
1413.812	1	1	0	0	0.042345	0.13361	0.070178	0.34666	0.12065	0.12487	0.2606	0.30985	0.22544	0.22927	0.19251	0.073083	0.21203	0.27124	0.067551	0.20306	-2.4542	-3.7	-3.1417	-2.9437	-3.6417	-2.9292	-3.3688	-3.4583	-2.7	-3.5792	-3.4292	-2.8187	-3.8979	-2.9479	-3.0792	-3.6375	98.101	243.715	-34.308	197.509	154.230	64.513	-89.754	176.440	215.061	63.834	108.114	170.308	166.775	226.152	195.519	-72.618	0.00018257	0.00066704	7.9682e-05	1266.3	1.5175e-06	4.4329e-06	1287.8	347.51	1.0334e-06	4.2655e-06	402.96	134.21	115.64	40.31	2.4821e-06	50.454	0.0003665	0.00036972	0.00010211	1266.3	4.0717e-06	3.9985e-06	1291.5	349.45	4.1262e-06	4.0183e-06	402.81	136.6	117.08	40.672	4.0112e-06	50.935	216.370	9.333	-0.889	-78.963	117.640	31.110	-79.070	-74.156	70.972	65.499	-74.868	-70.512	-69.663	-65.442	133.174	-65.812	-8191	255	
1413.908	1	1	0	0	0.11605	0.40514	0.37598	0.17134	0.15203	0.14366	0.35547	0.076132	0.037702	0.028622	0.12569	0.062762	0.26453	0.27666	0.0683	0.12971	-2.4042	-3.2896	-3.1792	-3.2562	-3.5979	-2.9854	-3.1833	-3.7	-2.8667	-3.4562	-3.5146	-3.0292	-3.5292	-3.1854	-3.0625	-3.4875	-41.899	76.432	12.318	237.372	-32.777	-2.789	229.989	196.552	2.562	-26.382	211.632	21.274	-70.882	-87.965	76.071	10.975	0.00019208	0.00046731	0.0001744	1266.4	3.1027e-06	3.4638e-06	1285.9	347.47	1.2226e-06	5.9271e-06	401.27	134.32	115.39	40.268	2.0891e-06	50.162	0.00036191	0.0003612	0.00010067	1264.6	4.0243e-06	3.9777e-06	1290.3	349.5	4.0755e-06	4.0158e-06	401.93	136.44	116.73	40.636	4.1128e-06	50.733	227.682	16.825	-22.091	-79.147	83.607	36.763	-78.816	-74.000	95.312	60.651	-74.481	-70.259	-69.631	-65.093	76.892	-65.840	-8191	255	
1414.029	1	1	0	0	0.057201	0.10018	0.074714	0.23675	0.042223	0.026003	0.20597	0.14519	0.12772	0.12236	0.079112	0.17376	0.24252	0.17926	0.33182	0.087421	-2.5208	-3.3583	-3.1354	-3.0083	-3.5458	-3.1208	-3.225	-3.7375	-2.8042	-3.1833	-3.5563	-2.7	-3.7021	-3.2854	-3.1188	-3.7354	3.531	141.680	-38.355	242.442	121.654	105.601	148.409	245.648	103.217	94.829	116.640	259.461	-6.119	-91.567	-46.197	137.123	0.00012607	0.00036427	0.00016362	1260	7.065e-07	5.8987e-06	1280.5	343.87	2.1033e-06	3.095e-06	401.56	133.89	114.92	40.234	5.3296e-06	50.293	0.00036041	0.00036242	0.00010164	1261.4	4.057e-06	4.0707e-06	1286.4	347.9	4.0719e-06	3.9794e-06	401.84	136.12	116.5	40.617	4.0368e-06	50.727	229.580	0.341	-27.893	-78.970	101.354	96.640	-78.884	-74.004	115.132	36.866	-74.780	-70.131	-69.724	-65.002	78.085	-65.708	-8191	255	
1414.123	1	1	0	0	0.10438	0.18682	0.046921	0.29599	0.22429	0.11965	0.16159	0.15408	0.30853	0.084599	0.076389	0.13163	0.33614	0.15341	0.074394	0.34314	-2.5021	-3.1396	-3.65	-2.9979	-3.5229	-3.1375	-2.9979	-3.6854	-2.8646	-2.9229	-3.6167	-2.975	-3.4188	-3.3708	-2.9188	-3.6479	231.525	-11.987	232.166	239.323	237.971	-23.411	-87.908	253.753	103.767	8.270	-82.904	89.323	248.635	-72.157	153.994	-65.336	0.0001617	0.00056416	8.0845e-05	1264.4	4.1062e-06	4.5444e-06	1286.9	345.06	3.4874e-06	6.651e-06	402.06	133.4	114.76	40.229	2.626e-06	50.131	0.00036013	0.00036173	0.0001011	1259.4	4.0073e-06	3.9869e-06	1285.1	348.2	4.0049e-06	3.9782e-06	401.29	135.92	116.34	40.534	4.0365e-06	50.681	221.516	-26.557	41.404	-79.028	58.600	51.561	-78.750	-74.076	74.834	79.534	-74.461	-70.301	-69.730	-65.089	87.300	-65.669	-8191	255	
1414.221	1	1	0	0	0.081665	0.14942	0.1138	0.11812	0.049837	0.13199	0.15109	0.27547	0.19428	0.255	0.22725	0.11765	0.13269	0.12168	0.22109	0.09086	-2.6813	-3.0187	-3.5896	-3.0042	-3.4062	-3.3479	-2.7896	-3.7104	-3.1604	-2.9875	-3.6333	-2.8875	-3.4229	-3.3875	-2.8625	-3.6521	153.148	123.966	216.016	82.111	31.838	-77.353	96.100	-85.863	-47.453	18.892	188.690	128.313	-30.348	48.998	263.538	161.640	0.00012484	0.00053438	0.00012219	1256.5	4.7904e-06	4.9279e-06	1280.3	344.13	1.245e-06	5.259e-06	401.4	133.34	114.86	40.043	1.945e-06	50.203	0.00035778	0.00036489	0.00010154	1256.4	3.9877e-06	4.0103e-06	1281.3	347.29	4.0686e-06	3.976e-06	401.01	135.69	116.32	40.469	4.0776e-06	50.68	238.691	-18.616	53.581	-78.790	76.232	54.263	-78.942	-73.734	18.587	33.066	-74.671	-70.137	-69.722	-65.212	114.113	-66.120	-8191	255	
1414.318	1	1	0	0	0.13153	0.053778	0.12957	0.26284	0.15924	0.16832	0.40169	0.13496	0.44017	0.22552	0.20447	0.0099251	0.21766	0.21662	0.25407	0.14363	-2.75	-2.9167	-3.5458	-3	-3.0187	-3.6083	-2.8375	-3.6646	-3.2812	-2.9208	-3.6604	-3.0187	-3.3333	-3.5229	-2.8458	-3.5938	245.417	76.233	-2.467	185.615	-63.374	98.754	216.765	-43.292	259.297	17.587	237.346	178.311	254.676	190.557	92.828	235.005	0.00016309	0.00073609	0.00013853	1258.8	1.2545e-06	5.5612e-06	1282.1	346.03	9.0096e-07	5.7114e-06	399.26	132.75	114.93	39.945	3.8177e-06	50.25	0.00036123	0.00036837	0.00010111	1257.7	4.0427e-06	4.0052e-06	1285.3	348.31	3.9512e-06	4.0276e-06	401.03	135.43	116.39	40.448	3.945e-06	50.697	239.663	11.253	-20.732	-79.004	112.835	48.173	-78.866	-74.104	34.105	33.877	-75.057	-70.366	-69.928	-65.536	96.123	-65.749	-8191	255	
1414.412	1	1	0	0	0.19053	0.3089	0.038564	0.069257	0.045466	0.13258	0.13764	0.23784	0.079877	0.19343	0.27927	0.02121	0.19558	0.21339	0.15857	0.25767	-2.8229	-2.875	-3.7021	-3.1625	-3.1708	-3.7188	-2.7292	-3.5312	-3.2062	-2.6667	-3.8688	-3.0479	-3.1042	-3.6417	-2.8479	-3.4604	101.478	261.319	83.463	189.580	183.393	-76.181	-74.084	-80.875	-56.407	-51.919	235.821	161.779	-19.822	228.513	27.647	119.791	0.00011513	0.00066231	8.8102e-05	1260.2	1.3861e-06	2.7162e-06	1285	346.41	2.615e-06	5.9791e-06	400.95	133.85	115.3	40.26	2.9063e-06	50.499	0.00035447	0.00036503	0.00010046	1259.7	3.9682e-06	3.9551e-06	1286.3	348.2	3.9085e-06	3.919e-06	401.71	136.38	116.64	40.714	3.8697e-06	50.874	224.491	-21.424	77.694	-78.929	115.327	102.520	-79.000	-74.146	65.417	73.690	-74.592	-70.049	-69.614	-65.322	62.144	-65.898	-8191	255	
1414.508	1	1	0	0	0.26128	0.048238	0.058972	0.031215	0.1211	0.080396	0.060303	0.26595	0.12081	0.27557	0.16532	0.34055	0.13901	0.36358	0.15533	0.16243	-3.2479	-2.8021	-3.5062	-3.1479	-2.8896	-3.6854	-3.1813	-3.4021	-3.3708	-2.7062	-3.5042	-3.2313	-3.0104	-3.6521	-2.9625	-3.2562	67.223	237.957	44.642	70.693	198.363	82.643	145.115	258.814	113.544	66.074	13.565	209.455	154.617	263.161	-24.822	-51.366	0.00012239	0.00031277	0.00023929	1262.5	2.2173e-06	6.1981e-06	1290.1	346.02	1.9661e-06	5.5407e-06	401.71	133.58	114.79	40.237	3.7643e-06	50.166	0.00034223	0.00035737	9.6507e-05	1262	3.8986e-06	3.8467e-06	1288	348.37	3.8946e-06	3.8838e-06	402.34	136.16	116.57	40.607	3.9441e-06	50.729	233.388	10.544	-1.317	-78.776	47.642	60.075	-78.786	-73.949	57.339	29.540	-74.424	-69.915	-69.544	-65.261	53.054	-65.667	-8191	255	
1414.629	1	1	0	0	0.091314	0.10122	0.045219	0.062919	0.10755	0.10084	0.21379	0.23366	0.099519	0.092827	0.056596	0.055597	0.32116	0.08059	0.13661	0.080412	-3.1792	-2.6271	-3.3604	-3.1	-2.7917	-3.5875	-2.9313	-3.1583	-3.45	-2.5958	-3.6146	-3.2375	-3.1021	-3.7333	-2.9958	-3.075	-39.061	133.072	78.273	239.279	227.679	141.841	192.048	236.664	-88.685	17.673	239.122	258.367	216.544	116.836	143.155	91.700	0.00014765	0.00046796	0.00014321	1263.3	2.2412e-06	2.7434e-06	1286.2	346.4	1.2233e-06	7.2682e-06	399.89	133.04	115.23	40.269	3.7081e-06	50.319	0.00035697	0.00036207	9.7873e-05	1261.3	3.9788e-06	3.9084e-06	1287.5	348.48	3.9135e-06	3.9095e-06	401.9	135.89	116.66	40.657	3.9111e-06	50.888	227.912	26.246	5.496	-78.745	74.548	54.347	-78.714	-74.082	-3.104	46.421	-74.829	-70.125	-69.723	-65.320	89.350	-66.292	-8191	255	
1414.725	1	1	0	0	0.15707	0.23705	0.17296	0.22522	0.16897	0.2642	0.24972	0.086546	0.077633	0.21136	0.027046	0.22944	0.25094	0.32642	0.17627	0.16692	-3.125	-2.75	-3.3729	-3.4354	-2.8958	-3.5104	-3.0375	-3.0021	-3.6354	-2.7521	-3.4542	-3.2896	-2.8583	-3.6604	-3.0167	-2.9083	125.374	170.543	197.264	100.908	105.145	256.760	260.671	154.741	117.383	9.143	-60.519	148.474	-63.444	198.539	90.912	102.404	0.00016517	0.0003554	0.00010128	1266.3	1.7595e-06	2.2567e-06	1287.7	346.5	1.3322e-06	3.5779e-06	401.5	133.95	115.5	40.284	3.029e-06	50.077	0.00035559	0.00035466	9.9892e-05	1264	3.9701e-06	3.9252e-06	1288.9	349.45	3.9094e-06	3.8959e-06	401.56	136.33	116.9	40.716	3.8701e-06	50.737	230.180	12.734	25.082	-78.693	27.955	42.082	-79.194	-74.392	22.552	59.818	-74.729	-70.291	-69.977	-65.609	78.907	-66.014	-8191	255	
1414.821	1	1	0	0	0.12309	0.039437	0.065614	0.35034	0.094677	0.17348	0.11728	0.23327	0.31194	0.20808	0.13558	0.35123	0.27711	0.10792	0.16435	0.17994	-3.3333	-2.7792	-3.1667	-3.4875	-2.7396	-3.45	-3.2521	-3.0521	-3.3604	-2.8042	-3.2396	-3.5271	-2.8104	-3.7167	-3.0417	-2.8292	-11.103	27.163	33.530	202.267	183.522	48.124	239.171	198.531	-35.497	232.117	8.367	246.967	228.843	8.956	-75.173	169.563	0.00014387	0.00049739	0.00013518	1266.3	3.326e-06	4.2922e-06	1280.8	346.82	9.8833e-07	2.6829e-06	403.3	135.02	115.36	40.353	4.9625e-06	50.365	0.00035163	0.00035845	0.00010022	1263.3	4.0023e-06	3.8959e-06	1288	349.52	3.9095e-06	3.9293e-06	403.21	136.9	116.95	40.783	3.9437e-06	50.898	239.991	35.476	-2.715	-79.267	67.991	67.701	-79.263	-74.246	91.092	36.104	-75.110	-70.804	-70.038	-65.533	87.652	-66.269	-8191	255	
1414.917	1	1	0	0	0.13476	0.28104	0.10172	0.1259	0.14212	0.079787	0.12855	0.19945	0.32264	0.11269	0.079041	0.26989	0.21407	0.14629	0.21672	0.13216	-3.1646	-2.9229	-3.0271	-3.825	-2.6604	-3.4396	-3.3646	-2.925	-3.4792	-2.8958	-3.0292	-3.5646	-2.6708	-3.4688	-3.2583	-2.8208	208.890	237.105	122.920	79.393	184.565	106.514	136.066	198.187	90.343	179.836	-84.903	-87.063	232.136	241.163	141.621	219.961	0.00010586	0.00044779	0.00021409	1272.2	2.3282e-06	3.3224e-06	1295.7	347.15	1.9411e-06	4.3108e-06	403.58	134.83	115.86	40.459	3.2202e-06	50.506	0.00035064	0.00035864	0.00010003	1270	4.019e-06	3.8862e-06	1296.9	350.08	3.9262e-06	3.8439e-06	403.97	137.26	117.33	40.964	3.8737e-06	51.075	227.951	-4.092	-13.390	-79.006	98.292	60.466	-79.020	-74.153	68.766	51.060	-75.006	-70.438	-70.113	-65.668	62.739	-66.257	-8191	255	
1415.013	1	1	0	0	0.23493	0.18828	0.13001	0.13208	0.085595	0.029096	0.11735	0.17233	0.20816	0.088826	0.11876	0.21822	0.2268	0.28035	0.1445	0.21277	-3.2	-3.1229	-2.8563	-3.4354	-2.9104	-3.0979	-3.5479	-2.9896	-3.4708	-3.0875	-2.9708	-3.6437	-3	-3.325	-3.65	-3.025	173.310	58.205	-90.076	216.365	179.891	-83.676	244.251	246.167	267.585	10.448	-90.148	1.210	147.108	235.983	134.240	172.025	0.00014652	0.00054426	0.00010617	1272.9	5.0158e-06	3.3543e-06	1296.4	349.06	2.1633e-06	5.9645e-06	404.39	135.7	115.99	40.641	2.7425e-06	51.042	0.00035653	0.00035842	0.00010217	1273.1	3.922e-06	3.9055e-06	1299	351.76	3.9546e-06	3.8972e-06	405.37	137.64	117.67	40.999	3.8843e-06	51.254	231.686	-11.882	-30.799	-79.247	46.207	25.806	-78.914	-74.221	88.571	66.208	-75.274	-70.248	-69.871	-65.521	89.996	-66.113	-8191	255	
1415.109	1	1	0	0	0.10235	0.10793	0.10407	0.23907	0.17896	0.14369	0.21832	0.14835	0.14194	0.22854	0.060938	0.30244	0.27736	0.10238	0.10683	0.24452	-3.35	-3.1083	-2.8042	-3.6875	-2.8604	-3.0979	-3.75	-2.8646	-3.2792	-3.2583	-2.9146	-3.775	-2.9229	-3.1771	-3.5021	-3.0542	79.392	71.680	187.260	265.579	-7.033	-77.842	215.978	225.964	187.361	166.905	204.239	-78.381	166.148	184.998	-89.711	154.017	0.00012146	0.0005516	0.00015304	1278.8	1.5829e-06	6.1702e-06	1293.7	348.89	1.833e-06	6.1816e-06	401.64	134.76	116.5	40.701	3.1944e-06	50.878	0.00035343	0.00035508	0.00010037	1275.6	3.9586e-06	3.8446e-06	1298.2	351.56	3.9185e-06	3.8104e-06	403.95	137.53	117.83	41.06	3.9159e-06	51.244	218.800	-14.173	-1.288	-79.008	39.688	95.341	-78.859	-74.385	54.167	71.118	-75.216	-70.660	-69.954	-65.759	139.534	-66.353	-8191	255	
1415.204	1	1	0	0	0.23428	0.078621	0.16664	0.076656	0.12396	0.087695	0.051498	0.23175	0.089256	0.078869	0.052396	0.047148	0.25364	0.21439	0.22942	0.25204	-2.9458	-3.2958	-2.7812	-3.7479	-3.1667	-3.1083	-3.7167	-3.0521	-3.275	-3.3396	-2.8958	-3.6146	-3.0979	-2.9562	-3.4833	-2.8479	-40.212	222.350	44.997	240.543	221.041	218.106	238.272	70.426	194.896	-18.572	-34.563	-86.615	261.590	175.046	34.112	167.754	0.00017877	0.00027335	0.00013514	1274.8	2.6476e-06	3.679e-06	1300.4	350.16	3.6311e-07	3.0768e-06	404.31	135.11	116.78	40.622	4.9134e-06	50.78	0.00035109	0.00034752	9.848e-05	1275	3.8611e-06	3.8323e-06	1301.5	352.37	3.794e-06	3.7706e-06	405.31	137.53	117.86	41.047	3.8205e-06	51.234	236.607	-32.535	-24.673	-79.022	55.376	78.416	-79.056	-74.563	246.949	30.167	-74.949	-70.055	-69.605	-65.457	5.195	-66.130	-8191	255	
1415.324	1	1	0	0	0.014641	0.12696	0.13532	0.3049	0.12064	0.10263	0.12299	0.15985	0.25241	0.10578	0.25907	0.29794	0.102	0.32826	0.1255	0.12282	-2.6833	-3.3729	-2.8354	-3.625	-2.9542	-2.85	-3.7208	-2.8771	-3.1417	-3.4417	-2.95	-3.5563	-3.1125	-3.0479	-3.6188	-2.9458	152.879	116.808	18.810	234.576	170.368	117.530	157.549	160.317	-12.261	-71.144	101.894	210.327	-27.562	227.375	-76.853	125.059	0.00019138	0.00034977	6.324e-05	1276.8	2.1651e-06	5.0833e-06	1295.5	351.9	1.0776e-06	4.698e-06	404.16	135.36	117.38	41.05	2.1615e-06	51.138	0.00034771	0.00034205	9.6211e-05	1274.3	3.7525e-06	3.6764e-06	1298.7	353.46	3.6967e-06	3.6461e-06	405.72	138.11	118.33	41.321	3.6393e-06	51.652	242.966	14.040	20.455	-78.866	82.496	39.841	-79.084	-74.342	-19.083	25.134	-75.066	-70.372	-69.957	-65.683	91.167	-66.258	-8191	255	
1415.421	1	1	0	0	0.099941	0.19283	0.17968	0.15217	0.15188	0.030049	0.24373	0.33414	0.06841	0.1608	0.1878	0.11595	0.071103	0.17058	0.090973	0.15915	-2.8708	-3.4583	-2.7812	-3.6979	-3.2812	-2.9813	-3.8396	-3.0375	-3.0563	-3.5521	-2.8771	-3.6083	-3.2333	-2.7854	-3.6562	-3.0146	27.545	-55.230	24.323	196.899	42.012	39.626	240.401	224.793	98.022	-70.737	92.611	111.490	-7.350	244.047	134.537	160.343	0.0001401	0.00026615	0.00016233	1279.6	4.1711e-06	3.5754e-06	1302.5	351.97	1.2342e-06	4.7442e-06	404.19	136.27	116.72	40.802	3.7045e-06	50.905	0.00033169	0.00033423	9.1418e-05	1276.8	3.6619e-06	3.5951e-06	1301	353.58	3.7275e-06	3.6164e-06	406.27	138.25	118.13	41.164	3.6134e-06	51.401	213.197	-17.447	-38.070	-78.758	68.379	66.605	-79.141	-74.426	19.083	27.690	-75.264	-70.587	-69.893	-65.294	88.965	-66.177	-8191	255	
1415.492	1	1	0	0	0.26778	0.034904	0.1229	0.27519	0.1547	0.26267	0.22319	0.16869	0.19543	0.11111	0.097003	0.35043	0.16152	0.035196	0.1689	0.18014	-2.8312	-3.525	-2.825	-3.3479	-3.5187	-2.8104	-3.6479	-3.1688	-3.075	-3.6521	-2.7083	-3.2396	-3.4437	-2.9896	-3.5771	-3.1854	-19.987	234.652	-38.824	237.468	187.895	149.108	209.967	258.191	61.889	249.266	166.135	254.957	-75.280	197.146	-3.809	233.368	0.00012508	0.0006025	0.00017943	1275.8	3.5363e-06	4.0798e-06	1303.6	349.16	1.9835e-06	4.5639e-06	406.43	135.41	116.44	40.639	2.7983e-06	50.802	0.00033694	0.00033014	9.3423e-05	1273.9	3.6735e-06	3.6564e-06	1301.5	353.05	3.7172e-06	3.653e-06	406.23	137.84	117.89	41.067	3.7093e-06	51.262	242.471	-56.178	11.505	-79.003	80.369	106.561	-78.862	-74.098	9.120	56.088	-74.475	-70.187	-69.478	-65.289	124.255	-65.756	-8191	255	
1415.588	1	1	0	0	0.11308	0.1867	0.033943	0.22092	0.13516	0.1872	0.1455	0.056403	0.18161	0.29488	0.059268	0.19009	0.22581	0.24749	0.24831	0.11115	-2.5875	-3.5104	-2.8312	-3.3167	-3.6458	-2.7354	-3.7146	-3.3021	-2.7979	-3.7708	-2.9146	-3.2625	-3.5708	-2.8854	-3.4354	-3.3542	245.436	87.813	56.329	243.687	-30.566	-51.237	151.945	166.278	126.693	-45.738	-87.633	165.968	142.712	247.150	26.787	100.578	0.00011515	0.00073061	5.6046e-05	1274.6	5.3838e-07	3.7463e-06	1291.3	350.29	2.4985e-06	4.4169e-06	401.38	135.36	116.04	40.559	4.6504e-06	50.542	0.000338	0.00033888	9.5744e-05	1271	3.7581e-06	3.7371e-06	1295.6	351.58	3.7756e-06	3.7077e-06	403.74	137.06	117.37	40.843	3.7417e-06	51.011	225.160	11.087	-16.077	-78.840	8.044	28.253	-78.594	-73.759	61.438	78.819	-74.661	-70.608	-69.581	-65.436	70.396	-65.994	-8191	255	
1415.709	1	1	0	0	0.35038	0.027448	0.15392	0.24216	0.09271	0.098587	0.23816	0.1466	0.13979	0.028705	0.25952	0.19828	0.19124	0.13825	0.17334	0.32955	-2.5125	-3.6437	-2.9333	-3.2042	-3.5542	-2.7792	-3.6417	-3.4104	-2.7562	-3.6021	-3.0687	-3.0167	-3.4646	-2.7854	-3.1562	-3.3729	0.298	-8.383	79.749	213.573	-37.691	79.045	-80.184	110.959	142.343	121.095	182.852	213.041	175.326	190.611	180.345	126.627	0.00014677	0.00021732	9.3351e-05	1269.1	3.7844e-06	6.4073e-06	1292.9	349.69	3.1571e-06	1.8494e-06	405.79	135.56	116.66	40.824	2.0575e-06	50.99	0.00034483	0.0003337	9.5146e-05	1268.5	3.7264e-06	3.7193e-06	1296.5	351.86	3.6768e-06	3.6288e-06	404.9	137.68	117.82	41.176	3.5596e-06	51.441	235.191	17.662	-6.474	-79.084	127.934	53.750	-79.052	-74.314	39.387	59.672	-75.013	-70.639	-69.953	-65.565	53.770	-66.337	-8191	255	
1415.805	1	1	0	0	0.10766	0.082475	0.22652	0.18604	0.25989	0.037798	0.19149	0.072133	0.24572	0.10731	0.22186	0.063528	0.23267	0.14012	0.062337	0.17608	-2.4667	-3.5875	-3.075	-3.0458	-3.5625	-2.8625	-3.4167	-3.6104	-2.8271	-3.4875	-3.3271	-2.9	-3.7458	-2.8896	-3.1042	-3.7	-59.617	-67.843	133.302	240.714	80.453	198.716	230.324	-80.074	163.184	135.162	211.944	49.449	-52.533	111.640	134.491	220.278	0.00016571	0.00033651	0.0001642	1273.9	5.188e-06	4.2213e-06	1301.2	349.47	6.1624e-07	5.7665e-06	403.85	136.68	117.09	40.785	3.7377e-06	51.055	0.00032524	0.00032498	9.0598e-05	1272.5	3.6265e-06	3.6444e-06	1301.1	352.65	3.5897e-06	3.5829e-06	405.39	138.53	118.31	41.163	3.5523e-06	51.471	233.275	1.377	-21.713	-79.332	42.885	59.613	-79.323	-74.252	0.358	63.382	-75.094	-70.633	-69.890	-65.822	28.807	-65.908	-8191	255	
1415.901	1	1	0	0	0.2799	0.13206	0.076417	0.042467	0.20097	0.19348	0.14441	0.11531	0.20907	0.17259	0.075292	0.10858	0.030762	0.17506	0.13658	0.15455	-2.4437	-3.3875	-3.1417	-3.1688	-3.7104	-2.8521	-3.2833	-3.6792	-2.7562	-3.3625	-3.2687	-2.9542	-3.6542	-3.0208	-2.975	-3.5938	245.676	184.952	229.605	12.022	133.721	101.088	196.462	4.657	167.298	69.058	260.078	181.581	-90.005	161.057	69.805	39.389	0.00016556	0.00023439	0.00018635	1275	3.217e-06	4.3435e-06	1295.9	349.55	4.7834e-06	5.0343e-06	403.84	135.85	117.08	40.798	9.7227e-07	50.967	0.00032777	0.00032328	8.9436e-05	1271.8	3.6008e-06	3.5735e-06	1296.1	352.35	3.6273e-06	3.5389e-06	404.47	137.96	118.23	41.13	3.5852e-06	51.368	231.281	-15.416	-5.579	-79.310	87.088	10.811	-79.004	-74.231	34.503	43.085	-75.042	-70.732	-69.837	-65.566	94.085	-66.065	-8191	255	
1416.022	1	1	0	0	0.18217	0.23964	0.049883	0.16971	0.12705	0.15767	0.043495	0.33266	0.12196	0.16691	0.26225	0.1722	0.1784	0.21859	0.28243	0.11177	-2.475	-3.4271	-3.2771	-2.9313	-3.5938	-3.0125	-3.1708	-3.675	-2.7062	-3.4479	-3.4979	-2.6292	-3.7687	-3.2167	-2.9542	-3.6208	84.450	11.035	262.334	205.169	115.725	218.227	228.687	-79.319	-36.041	207.256	196.915	148.196	216.651	-36.663	43.932	204.948	0.00012809	0.00049075	0.00014832	1278.9	3.9771e-06	7.063e-06	1299.1	351.9	9.7662e-07	7.0722e-06	406.81	136.06	117.08	41.132	4.4109e-06	51.409	0.00032347	0.00032712	8.9301e-05	1274.9	3.5764e-06	3.5524e-06	1299.5	353.06	3.6291e-06	3.5287e-06	406.15	138.39	118.39	41.369	3.6009e-06	51.71	234.806	2.402	13.950	-79.101	96.447	43.094	-79.180	-74.521	8.780	57.774	-74.848	-70.350	-69.739	-65.448	71.938	-66.400	-8191	255	
1416.118	1	1	0	0	0.21507	0.22757	0.24335	0.30129	0.031862	0.16859	0.14308	0.11152	0.19343	0.15232	0.11563	0.28691	0.15568	0.11742	0.17273	0.084914	-2.4875	-3.2938	-3.1854	-3.0812	-3.4604	-3.2917	-3.0229	-3.6875	-2.9708	-3.1646	-3.5812	-2.8333	-3.5563	-3.1792	-2.7875	-3.6688	83.367	174.492	11.104	228.729	208.307	233.110	181.886	267.492	226.282	209.915	-53.327	-55.428	202.678	194.712	206.656	235.011	0.00016549	0.0002952	0.0001369	1282.7	5.9082e-07	4.6167e-06	1306.8	353.24	2.6697e-06	3.2374e-06	407.76	136.8	117.96	41.23	5.0103e-06	51.5	0.0003235	0.00031771	8.9446e-05	1279.7	3.5601e-06	3.4468e-06	1305.6	355.31	3.5104e-06	3.4675e-06	407.55	139.04	119.26	41.498	3.5944e-06	51.843	224.769	1.432	-7.343	-79.141	71.591	100.026	-79.305	-74.334	74.831	70.984	-74.840	-70.338	-69.929	-65.653	97.747	-65.940	-8191	255	
1416.190	1	1	0	0	0.22302	0.032111	0.10328	0.30084	0.19713	0.25235	0.016724	0.14518	0.23869	0.15874	0.10242	0.10949	0.11516	0.10905	0.054034	0.1098	-2.5667	-3.0625	-3.4417	-2.9708	-3.3479	-3.3417	-2.9104	-3.5646	-2.9688	-3.125	-3.5104	-2.9375	-3.3979	-3.4271	-2.8396	-3.6604	101.074	104.894	255.596	258.323	71.418	263.261	176.108	214.325	49.371	159.556	112.315	205.135	193.686	-10.230	234.006	208.013	0.00018133	0.00035488	5.7121e-05	1286	2.2293e-06	3.5581e-06	1302.7	352.75	8.5043e-07	4.2749e-06	405.17	137.12	117.48	41.247	2.43e-06	51.334	0.00032072	0.00032024	8.8398e-05	1282.7	3.5668e-06	3.4846e-06	1307.9	355.17	3.4813e-06	3.4941e-06	407.01	139.11	119.15	41.498	3.6025e-06	51.708	243.616	-16.361	-51.414	-79.217	44.822	67.472	-79.215	-74.204	85.006	46.910	-74.980	-70.421	-69.921	-65.416	92.522	-66.090	-8191	255	
1416.309	1	1	0	0	0.16024	0.071487	0.2398	0.13262	0.10912	0.17681	0.2512	0.18018	0.1805	0.065695	0.3389	0.097988	0.27758	0.1808	0.15317	0.16878	-2.7708	-2.9979	-3.4437	-3.0438	-3.3771	-3.7062	-2.9271	-3.5187	-3.1625	-2.9354	-3.6271	-3.2188	-3.3958	-3.6521	-2.6562	-3.4875	-55.213	204.567	-67.788	190.084	90.412	204.347	190.988	246.196	13.066	181.167	234.212	184.275	264.645	-89.618	4.956	-75.687	0.00013757	0.00031991	0.00011066	1284.5	2.3352e-06	5.5199e-06	1301.1	351.57	2.1313e-06	3.8422e-06	404.11	136.13	117.01	40.591	1.4263e-06	50.765	0.00032112	0.00032293	9.0033e-05	1281.4	3.5898e-06	3.5546e-06	1304.8	353.8	3.6191e-06	3.5928e-06	405.52	137.74	118.04	40.988	3.7665e-06	51.173	215.898	37.696	-14.968	-78.883	96.118	36.968	-79.105	-74.180	32.572	75.725	-74.359	-70.092	-69.762	-65.301	90.650	-66.182	-8191	255	
1416.405	1	1	0	0	0.19159	0.10463	0.18861	0.27038	0.11752	0.038097	0.21677	0.29043	0.27108	0.135	0.24601	0.14021	0.33873	0.33716	0.25896	0.16244	-2.8354	-2.8937	-3.6688	-3.0042	-3.1146	-3.45	-3.0042	-3.325	-3.2458	-2.7833	-3.7896	-3.0396	-3.1042	-3.5021	-2.6104	-3.5292	-36.945	114.014	-4.107	244.899	175.948	-87.430	201.951	262.947	57.713	164.224	-27.874	194.578	-68.971	-91.032	92.086	225.292	0.00015515	0.00039978	0.00016011	1280.4	1.3697e-06	4.4082e-06	1300.1	350.14	2.2973e-06	5.0668e-06	402.44	135.31	116.74	40.666	5.1382e-06	50.803	0.00032754	0.00033955	9.3024e-05	1276.6	3.7447e-06	3.5893e-06	1300.5	352.51	3.6773e-06	3.6568e-06	404.82	137.63	117.81	41.039	3.6677e-06	51.17	228.540	-27.572	5.142	-79.083	89.516	65.912	-78.968	-74.481	20.329	87.383	-74.807	-69.949	-69.860	-65.152	60.447	-66.301	-8191	255	
1416.501	1	1	0	0	0.12965	0.20969	0.34701	0.30432	0.20278	0.093921	0.091085	0.17329	0.16093	0.056027	0.16911	0.37102	0.084554	0.057746	0.047067	0.34241	-2.7208	-2.9688	-3.5979	-2.9854	-2.8854	-3.5312	-3.0125	-3.5458	-3.3479	-2.9729	-3.4979	-3.1042	-3.0479	-3.7083	-2.8396	-3.275	-17.063	153.745	145.800	226.178	108.858	68.945	-33.488	-60.143	206.457	180.069	73.267	183.499	-58.408	-33.735	20.007	242.680	0.00014146	0.0006002	0.00016881	1281.5	1.4613e-06	5.9034e-06	1297.6	349.67	2.0931e-06	6.621e-06	403.87	136.03	116.57	40.378	1.1395e-06	50.475	0.00032944	0.00033329	9.1093e-05	1276.7	3.6771e-06	3.5692e-06	1298.6	351.86	3.5703e-06	3.6923e-06	404.46	137.29	117.6	40.823	3.6805e-06	51.036	234.135	-4.120	18.071	-79.228	7.115	63.077	-79.087	-74.541	-2.570	88.678	-74.897	-70.107	-69.599	-65.125	135.110	-66.266	-8191	255	
1416.622	1	1	0	0	0.11288	0.10944	0.16289	0.22526	0.16949	0.091735	0.28498	0.14397	0.15132	0.18111	0.20892	0.19596	0.17548	0.10565	0.27585	0.097025	-2.9292	-2.7708	-3.5292	-3.2708	-2.9333	-3.6625	-3.0125	-3.3208	-3.5417	-2.8521	-3.5667	-3.3792	-2.8792	-3.7708	-2.7167	-3.3021	122.275	191.944	4.394	-65.648	174.743	22.732	217.020	217.080	-9.187	12.313	211.519	112.751	249.106	161.689	8.044	126.108	0.00013874	0.00032758	0.00012593	1279.4	1.3086e-06	2.8782e-06	1294.8	348.08	2.0412e-06	3.2651e-06	402.48	134.21	115.66	40.198	1.2445e-06	50.32	0.00032814	0.0003374	9.0787e-05	1274.6	3.7116e-06	3.6726e-06	1294.6	350.67	3.672e-06	3.6824e-06	402.38	136.35	116.87	40.585	3.7752e-06	50.576	229.017	-13.622	27.472	-79.069	103.355	70.972	-79.146	-74.343	20.138	38.318	-75.096	-70.272	-69.961	-65.372	52.338	-66.053	-8191	255	
1416.718	1	1	0	0	0.10961	0.3832	0.085375	0.27363	0.1838	0.21147	0.23867	0.1604	0.082582	0.27045	0.15565	0.1243	0.1266	0.20715	0.081941	0.16781	-3.1625	-2.7021	-3.5312	-3.2979	-2.9229	-3.7417	-3.2125	-3.075	-3.5833	-2.6792	-3.4479	-3.4938	-3.0146	-3.6396	-3.0458	-3.1729	-61.372	249.161	25.733	232.628	86.428	261.930	118.760	-89.999	14.700	178.459	-25.284	-91.507	179.062	194.277	-47.116	44.142	0.00016146	0.00056954	0.00011471	1265.3	1.9466e-06	3.3535e-06	1287.7	345.42	7.8422e-07	6.1454e-06	398.88	133.58	114.71	39.935	7.4313e-06	49.741	0.00034649	0.00035185	9.5937e-05	1265	3.8703e-06	3.8652e-06	1288	347.95	3.8716e-06	3.8135e-06	400.34	135.76	116.21	40.38	3.8406e-06	50.405	230.988	11.123	-42.469	-78.912	133.283	71.738	-79.367	-74.542	244.084	64.389	-74.996	-70.285	-69.997	-65.523	58.302	-66.234	-8191	255	
1416.789	1	1	0	0	0.13702	0.18933	0.11818	0.43776	0.24109	0.28036	0.20843	0.40103	0.2425	0.088275	0.1018	0.1091	0.15135	0.13275	0.079583	0.15937	-3.1312	-2.5687	-3.1625	-3.6813	-2.875	-3.6167	-3.1875	-2.9396	-3.5354	-2.8104	-3.3854	-3.6729	-2.7188	-3.5104	-3.1792	-2.9646	112.635	77.915	-66.345	240.160	64.309	237.474	162.985	226.654	148.548	-50.879	-73.142	-64.263	239.962	240.536	223.026	147.579	0.00016454	0.00065858	0.00019372	1258.9	9.6908e-07	4.6275e-06	1281	342.94	7.7485e-07	1.2678e-06	399.37	132.57	114.34	39.912	4.2223e-06	50.06	0.00033575	0.00034122	9.556e-05	1259.1	3.8261e-06	3.6966e-06	1282.3	345.78	3.7433e-06	3.7204e-06	398.91	135.23	115.78	40.346	3.7151e-06	50.374	228.137	34.331	20.539	-78.896	104.632	60.278	-79.109	-74.515	48.750	-18.814	-75.201	-70.409	-70.045	-65.740	38.101	-66.161	-8191	255	
1416.886	1	1	0	0	0.15272	0.13954	0.26624	0.12437	0.064146	0.24125	0.16154	0.10098	0.13795	0.2378	0.099458	0.12074	0.20011	0.16016	0.19753	0.20243	-3.2208	-2.6625	-3.1813	-3.4562	-2.8979	-3.4271	-3.2938	-2.9979	-3.4708	-3.0042	-3.3604	-3.5521	-2.7375	-3.5062	-3.3187	-2.9062	245.935	-17.688	74.161	73.919	-2.052	87.752	161.808	232.528	31.685	245.408	45.619	175.322	257.411	3.211	98.539	184.263	0.00016213	0.00069649	0.00017639	1263	2.108e-06	5.4317e-06	1285.4	346.06	1.146e-06	2.9655e-06	400.13	134.11	114.93	40.369	3.2502e-06	50.426	0.0003361	0.00034057	9.3822e-05	1258.9	3.7153e-06	3.6284e-06	1282.9	347.7	3.6062e-06	3.6276e-06	400.41	135.96	116.42	40.621	3.6218e-06	50.771	234.395	12.708	5.155	-78.923	74.338	88.817	-78.732	-73.978	86.266	96.448	-74.653	-70.155	-69.702	-65.031	49.890	-65.885	-8191	255	
1417.006	1	1	0	0	0.12274	0.16705	0.10946	0.022347	0.16725	0.28005	0.17775	0.2154	0.098715	0.089498	0.19192	0.13134	0.077018	0.067438	0.081944	0.14444	-3.3333	-3.0021	-2.9125	-3.6354	-2.9771	-3.5479	-3.4875	-2.8292	-3.5583	-2.8833	-3.1521	-3.6208	-2.8208	-3.5083	-3.5	-2.8563	176.717	87.257	60.985	196.657	222.036	-87.367	149.236	156.416	89.195	-6.956	-86.544	2.217	129.993	258.814	127.496	153.812	0.00014269	0.00025998	0.00015486	1265.3	2.5813e-06	8.9176e-06	1284.1	345.16	4.7981e-07	5.423e-06	400.55	133.31	115.57	40.111	5.3119e-06	50.336	0.0003252	0.00032592	9.0437e-05	1261.7	3.6145e-06	3.5357e-06	1283.5	348.02	3.6554e-06	3.5948e-06	400.86	136.01	116.52	40.52	3.5935e-06	50.717	232.153	-49.438	21.237	-78.923	99.691	61.718	-78.810	-74.032	245.027	53.224	-74.899	-70.012	-69.906	-65.270	79.956	-65.897	-8191	255	
1417.101	1	1	0	0	0.13019	0.11593	0.18968	0.2024	0.052795	0.11836	0.048621	0.14415	0.27042	0.18398	0.11078	0.19611	0.16269	0.10289	0.11681	0.2136	-3.175	-3.1896	-3.0042	-3.6104	-2.8146	-3.2188	-3.65	-2.875	-3.4792	-3.1208	-3.1833	-3.5729	-2.6604	-3.3438	-3.4042	-3.075	-68.288	240.495	246.291	227.873	95.583	163.943	-8.535	225.351	51.875	214.344	109.135	112.653	167.061	196.871	199.631	234.502	0.0001194	0.00025061	0.00012903	1263.6	3.1269e-06	5.2095e-06	1285	345.88	2.1569e-06	3.2844e-06	400.73	134.28	115.72	40.392	5.2638e-06	50.324	0.00032203	0.00032632	9.2067e-05	1263	3.6383e-06	3.6042e-06	1287.3	347.92	3.6556e-06	3.6186e-06	400.94	136.51	116.71	40.697	3.6404e-06	50.716	237.140	-22.086	-18.448	-78.769	21.059	57.781	-78.647	-73.967	53.999	55.888	-74.611	-69.972	-69.643	-65.096	22.248	-66.098	-8191	255	
1417.197	1	1	0	0	0.18478	0.14543	0.27988	0.12278	0.18	0.16421	0.26013	0.21144	0.098014	0.15003	0.076928	0.16034	0.024598	0.27697	0.072869	0.15891	-3.0125	-3.1833	-2.8542	-3.6813	-2.7958	-3.0417	-3.5854	-2.95	-3.3208	-3.3187	-2.9958	-3.5979	-3.1104	-3.0771	-3.4208	-2.9458	161.724	186.989	56.501	-70.932	164.943	105.700	196.469	230.805	111.021	150.537	240.118	16.784	161.839	231.269	-15.441	-70.353	0.00016323	0.00062606	5.78e-05	1264.7	3.8385e-06	6.4713e-06	1280.3	346.28	2.2018e-06	2.9998e-06	399.65	133.71	115.38	39.991	3.2309e-06	50.173	0.00033139	0.00033702	9.3925e-05	1263.2	3.7544e-06	3.724e-06	1284.3	348.02	3.7192e-06	3.6868e-06	400.57	135.91	116.36	40.535	3.732e-06	50.65	231.309	-23.903	46.454	-79.215	75.545	63.811	-79.197	-74.261	56.639	52.242	-75.127	-70.693	-69.851	-65.337	26.620	-66.357	-8191	255	
1417.293	1	1	0	0	0.24137	0.076843	0.014301	0.05983	0.23217	0.2886	0.15939	0.20691	0.046538	0.12912	0.22267	0.15839	0.083141	0.29144	0.24403	0.31841	-3.0208	-3.2208	-2.7271	-3.6458	-3.0104	-2.9437	-3.5812	-2.8333	-3.2458	-3.4292	-2.9292	-3.625	-3.1729	-2.9938	-3.6562	-3.0021	265.902	229.035	-88.946	151.846	73.369	-24.244	225.666	199.177	140.410	267.930	-75.888	210.273	173.260	-88.806	18.310	244.974	0.00013055	0.00057005	0.00018224	1265.5	4.0823e-06	3.5936e-06	1290.5	346.74	2.116e-06	4.1204e-06	399.47	135.08	115.39	40.306	6.6354e-06	50.364	0.00033442	0.00033343	9.3825e-05	1263.5	3.7345e-06	3.6726e-06	1289.8	348.96	3.6544e-06	3.6321e-06	401.52	137.02	116.88	40.701	3.6412e-06	50.92	230.735	-36.166	-9.425	-79.094	15.760	55.263	-79.018	-74.013	34.246	70.117	-74.742	-70.316	-70.213	-65.541	58.969	-65.898	-8191	255	
1417.389	1	1	0	0	0.16936	0.036348	0.28705	0.099189	0.063254	0.14352	0.099046	0.11733	0.20587	0.2023	0.052672	0.20838	0.093544	0.095578	0.1198	0.1599	-2.9646	-3.3958	-2.6417	-3.7958	-3.1208	-3.0896	-3.7917	-3.0396	-3.0375	-3.5771	-2.8438	-3.5604	-3.1833	-3.0875	-3.5333	-3.2021	262.291	104.760	127.829	-49.360	158.810	191.518	220.318	198.076	100.091	74.459	184.262	193.477	83.309	199.481	36.071	257.988	0.0001285	0.00064857	0.00011981	1270.4	5.0125e-06	8.5145e-06	1286.2	346.79	1.17e-06	2.984e-06	400.9	134.17	115.47	40.086	6.5587e-06	50.144	0.00033036	0.00033043	9.4209e-05	1265.9	3.7565e-06	3.6897e-06	1287.8	348.62	3.7503e-06	3.7095e-06	401.22	136.4	116.57	40.532	3.8279e-06	50.608	230.994	-25.008	-10.247	-79.004	16.871	46.658	-79.248	-74.317	75.251	23.493	-74.882	-70.500	-69.942	-65.330	57.675	-65.899	-8191	255	
1417.485	1	1	0	0	0.14884	0.11489	0.044411	0.11779	0.20361	0.18135	0.18348	0.36242	0.16087	0.10722	0.36417	0.1085	0.074357	0.21777	0.20473	0.23879	-2.775	-3.4208	-2.7146	-3.5208	-3.3229	-2.7417	-3.5479	-3.075	-2.8854	-3.5312	-2.85	-3.1979	-3.3417	-2.8292	-3.4833	-3.0354	-76.976	-28.068	63.753	195.791	49.243	146.893	162.638	239.245	256.648	180.048	164.072	165.245	-32.292	79.450	222.278	156.809	0.00012598	0.0003836	0.00010971	1266.4	4.324e-06	2.9261e-06	1286	344.2	1.8471e-06	6.292e-06	398	133.17	115.35	39.994	3.6618e-06	49.973	0.00034841	0.00035551	0.00010196	1261.5	4.0796e-06	4.0109e-06	1289.1	346.93	4.1897e-06	4.065e-06	400.26	135.97	116.34	40.441	4.1621e-06	50.509	224.255	-19.182	2.978	-79.168	74.792	-56.603	-79.089	-74.616	45.903	60.685	-74.875	-70.484	-70.113	-65.612	12.043	-66.229	-8191	255	
1417.581	1	1	0	0	0.050895	0.14012	0.11748	0.15051	0.19542	0.24034	0.19784	0.20745	0.051878	0.094619	0.13462	0.28106	0.12199	0.064383	0.092859	0.035781	-2.65	-3.6458	-2.7458	-3.3812	-3.3979	-2.8146	-3.6333	-3.0812	-2.9083	-3.6021	-2.9833	-3.2021	-3.525	-2.8125	-3.4417	-3.1854	-86.215	36.733	28.543	200.108	-78.808	183.455	203.603	233.880	-5.273	-51.680	123.447	215.440	75.598	19.020	21.256	236.165	0.00016035	0.00013117	0.00011895	1265.1	4.5254e-06	4.8924e-06	1276.5	343.17	2.812e-06	6.4908e-06	398.45	132.61	114.61	40.058	3.7853e-06	50.254	0.00037838	0.00037324	0.00010567	1262.9	4.1096e-06	4.1116e-06	1283.5	345.46	4.2089e-06	3.977e-06	398.59	135.29	116.12	40.435	4.1094e-06	50.652	222.929	-51.855	-29.347	-79.275	59.277	85.773	-79.102	-74.437	25.804	44.009	-74.921	-70.638	-69.996	-65.553	72.363	-66.016	-8191	255	
1417.702	1	1	0	0	0.2184	0.32137	0.14677	0.24429	0.2504	0.11639	0.21043	0.37551	0.022958	0.091946	0.15411	0.091931	0.11723	0.18387	0.21299	0.19415	-2.4333	-3.525	-2.9938	-3.2333	-3.5062	-2.7042	-3.4458	-3.2521	-2.7896	-3.5021	-3.1396	-3.2104	-3.6479	-2.9729	-3.3688	-3.3042	7.832	107.989	253.246	263.021	207.139	235.882	211.515	203.556	5.784	-31.506	261.311	199.604	-55.732	-70.477	76.376	158.150	0.00014172	0.00030989	0.0001069	1257.9	3.5422e-06	5.3238e-06	1281.2	343.74	1.4678e-06	5.717e-06	397.92	133.36	114.8	40.008	1.5679e-06	49.949	0.0003714	0.00037696	0.0001055	1258.5	4.1081e-06	4.124e-06	1282.5	346.53	4.1075e-06	4.0806e-06	398.54	135.83	116.05	40.454	4.0903e-06	50.483	237.921	20.842	-53.327	-79.077	60.308	45.716	-79.336	-74.514	25.823	48.380	-74.716	-70.670	-70.021	-65.549	80.154	-66.306	-8191	255	
1417.796	1	1	0	0	0.0038828	0.29257	0.18459	0.080389	0.054812	0.32367	0.048535	0.45418	0.046732	0.069359	0.19118	0.22222	0.33796	0.12476	0.27573	0.14741	-2.4896	-3.6063	-3.0896	-3.075	-3.3812	-2.7375	-3.4229	-3.3563	-2.7521	-3.5812	-3.3063	-2.9938	-3.6167	-2.9042	-3.1604	-3.5563	170.193	209.938	101.620	230.890	62.000	42.372	193.183	217.338	-17.557	-88.801	72.902	-91.151	-38.239	-70.087	40.140	193.684	0.00014719	0.00057431	0.00012894	1246.5	2.8307e-06	5.4714e-06	1262.8	339.16	1.2442e-06	5.0218e-06	396.41	132.34	113.88	39.942	4.7685e-06	49.789	0.0003726	0.00037911	0.00010576	1245	4.2093e-06	4.225e-06	1268	342.53	4.341e-06	4.2569e-06	396.86	134.93	115.46	40.277	4.507e-06	50.374	223.902	1.708	-1.617	-79.101	68.021	58.859	-79.143	-74.268	18.456	103.752	-74.715	-70.495	-69.627	-65.414	24.450	-65.931	-8191	255	
1417.893	1	1	0	0	0.027345	0.13996	0.013148	0.26753	0.25766	0.15028	0.11119	0.052593	0.13384	0.20549	0.10281	0.066056	0.1818	0.19956	0.088274	0.24776	-2.3917	-3.6583	-3.075	-3.0479	-3.525	-2.9125	-3.4792	-3.6354	-2.8229	-3.4229	-3.1	-2.9604	-3.6292	-3.1292	-3.0958	-3.5062	-34.935	222.228	102.542	-84.843	-50.872	114.092	84.929	98.228	10.893	67.137	266.344	-19.028	225.931	198.306	138.911	-60.442	0.00013986	0.00048398	0.0001378	1243.9	2.823e-06	3.6145e-06	1264.2	339.46	2.8734e-06	7.7984e-06	396.3	132.45	114.12	39.713	3.4413e-06	49.696	0.0003976	0.000405	0.00011405	1245.6	4.5258e-06	4.4426e-06	1269.4	342.07	4.5082e-06	4.5463e-06	395.26	134.83	115.59	40.199	4.5638e-06	50.251	220.630	-20.109	26.189	-79.010	72.084	86.363	-79.213	-73.804	53.578	58.497	-74.585	-70.202	-69.685	-65.436	92.457	-65.927	-8191	255	
1417.989	1	1	0	0	0.17051	0.14252	0.10862	0.25065	0.062658	0.16158	0.24046	0.25618	0.11508	0.24976	0.13094	0.2245	0.082873	0.1832	0.3806	0.28213	-2.3583	-3.4146	-3.2375	-3.0187	-3.5896	-2.9146	-3.2812	-3.5354	-2.7958	-3.3042	-3.4479	-3	-3.7625	-3.2708	-3.0687	-3.6312	91.886	241.587	221.036	-16.981	-51.873	67.334	207.367	142.602	-58.715	74.761	170.416	-55.648	225.602	-46.494	19.907	259.526	0.00013974	0.00082437	0.00013142	1247.1	2.7708e-06	6.0535e-06	1266.8	341.65	2.2261e-06	7.5539e-06	396.21	133.02	114.87	40.331	3.6778e-06	50.271	0.00040326	0.00040699	0.00011338	1246.9	4.4643e-06	4.3978e-06	1272.9	343.9	4.3898e-06	4.3567e-06	398.56	135.85	116.48	40.748	4.1956e-06	50.88	229.383	-6.103	-3.234	-78.919	103.415	57.376	-78.595	-73.783	54.877	59.092	-74.962	-70.366	-69.717	-65.376	93.835	-65.876	-8191	255	
1418.085	1	1	0	0	0.12873	0.254	0.29324	0.19581	0.16122	0.20179	0.16397	0.091211	0.15911	0.10316	0.077853	0.099711	0.22414	0.20328	0.14914	0.16983	-2.4771	-3.4313	-3.3646	-3.0396	-3.5042	-3.2	-3.2542	-3.6937	-2.7479	-3.3958	-3.5396	-2.8187	-3.6583	-3.075	-2.8708	-3.8271	-53.648	-19.184	240.628	211.744	59.111	184.768	219.008	173.766	212.669	129.132	134.020	-9.637	-30.745	136.580	192.380	215.589	0.00012478	0.00027702	0.00019672	1256.1	1.4836e-06	7.5234e-06	1286.5	346.07	2.8804e-06	4.5463e-06	400.28	135.37	116.15	40.559	3.5299e-06	50.612	0.00037644	0.00037261	0.00010594	1258.5	4.0676e-06	4.0702e-06	1287.2	349.26	4.0511e-06	3.9869e-06	401.44	137.45	117.67	40.978	4.0369e-06	51.089	226.040	8.863	45.068	-79.238	164.980	73.404	-79.288	-74.127	25.738	23.127	-74.598	-70.445	-70.173	-65.744	52.309	-66.178	-8191	255	
1418.181	1	1	0	0	0.27994	0.22568	0.21518	0.15985	0.09774	0.2009	0.29153	0.22179	0.2526	0.23206	0.04491	0.15303	0.14322	0.047868	0.18252	0.046134	-2.5042	-3.1917	-3.4333	-2.7917	-3.3688	-3.2292	-2.9562	-3.7938	-2.8604	-3.4	-3.5958	-2.7146	-3.3854	-3.2521	-2.6542	-3.6813	152.845	255.483	48.485	173.588	59.324	197.792	179.536	229.981	144.222	226.305	220.909	134.015	193.707	22.565	8.826	-15.049	0.00013298	0.00053277	0.00013509	1257.4	3.344e-06	1.9465e-06	1279.6	344.62	4.1612e-06	4.0248e-06	399.74	133.55	115.23	40.15	7.2404e-06	49.993	0.00036048	0.00036233	9.9723e-05	1257.8	4.0538e-06	3.9887e-06	1282.1	347.95	4.0256e-06	4.0579e-06	400.14	135.95	116.49	40.586	4.0588e-06	50.692	224.351	-14.853	-9.165	-79.159	37.407	104.597	-78.829	-73.954	5.977	58.534	-74.734	-70.167	-69.648	-65.362	66.142	-65.688	-8191	255	
1418.302	1	1	0	0	0.36879	0.19131	0.16877	0.40495	0.071797	0.23351	0.42737	0.092612	0.19447	0.31845	0.0965	0.26149	0.13469	0.20259	0.18571	0.037716	-2.5812	-2.9604	-3.4417	-2.9292	-3.5042	-3.2979	-2.9938	-3.6292	-3.0208	-2.9667	-3.6417	-2.875	-3.3542	-3.4188	-2.8771	-3.6542	229.847	31.028	-77.332	227.096	-85.016	136.103	119.981	245.510	221.639	-37.543	215.174	214.059	-83.678	169.152	121.484	-51.697	0.00017303	0.00034665	0.00011281	1253.3	5.1429e-06	6.0342e-06	1276.6	344.47	3.4738e-06	4.7006e-06	399.65	133.24	114.69	40.274	5.6233e-06	50.194	0.00036138	0.00037193	0.00010315	1254.1	4.0761e-06	4.0008e-06	1280.8	347.41	4.093e-06	4.0868e-06	400.07	136.04	116.37	40.64	4.1153e-06	50.752	231.767	35.247	21.667	-78.975	86.527	53.299	-79.316	-74.462	1.643	61.902	-74.857	-70.288	-69.586	-65.204	71.819	-65.694	-8191	255	
1418.398	1	1	0	0	0.080462	0.11186	0.15247	0.18588	0.29174	0.21901	0.24559	0.209	0.11047	0.063865	0.18918	0.15555	0.16592	0.06714	0.073187	0.2925	-2.725	-3.0187	-3.4958	-3.0292	-3.1104	-3.3604	-2.9	-3.4646	-3.1562	-3.0812	-3.7938	-3.0646	-3.2562	-3.6063	-2.8042	-3.7396	212.170	182.415	-18.760	230.131	252.309	-43.207	190.260	158.505	196.090	154.334	-55.741	225.375	247.769	-38.988	-56.846	262.105	0.00013743	0.0003096	0.00016758	1256.2	1.3223e-06	1.7334e-06	1274.6	343.72	3.1759e-06	6.0247e-06	397.1	134.22	115.12	40.058	1.504e-06	49.972	0.00036303	0.00037363	0.00010219	1255.2	4.0818e-06	4.013e-06	1279.7	346.47	4.0796e-06	4.0962e-06	399.45	135.85	116.55	40.515	4.1737e-06	50.544	229.878	-11.019	6.494	-78.882	130.968	1.980	-79.276	-74.283	45.563	55.432	-74.865	-70.270	-69.671	-65.113	-18.891	-65.833	-8191	255	
1418.494	1	1	0	0	0.095598	0.15498	0.20027	0.1863	0.1776	0.29338	0.12542	0.20676	0.10414	0.081828	0.15008	0.018677	0.065748	0.10523	0.075757	0.12528	-2.9021	-2.875	-3.5458	-3.1042	-3.0792	-3.4208	-3.0292	-3.5333	-3.2917	-3.0521	-3.6958	-2.9	-3.1917	-3.55	-2.9042	-3.4062	-23.318	108.123	214.435	200.950	-29.983	171.585	199.473	156.785	267.270	92.539	-77.246	-78.538	82.258	-15.242	235.756	56.164	0.00016023	0.00057841	0.00015503	1257.2	3.2004e-06	3.0994e-06	1278.1	344.1	4.3075e-07	4.0608e-06	398.1	133.26	114.21	40.033	5.0979e-06	50.037	0.00036391	0.00037768	0.00010343	1256.2	4.1921e-06	4.0603e-06	1281.6	346.4	4.0675e-06	4.0109e-06	399.35	135.7	115.93	40.444	4.1028e-06	50.526	225.602	-29.027	-17.684	-79.065	93.222	77.551	-79.044	-74.371	100.201	28.334	-74.787	-70.281	-69.907	-65.152	70.590	-66.220	-8191	255	
1418.588	1	1	0	0	0.19948	0.12139	0.053894	0.017452	0.17517	0.38954	0.092742	0.35492	0.16689	0.10138	0.111	0.36607	0.21669	0.052565	0.017855	0.16999	-3.0917	-2.8167	-3.5604	-3.0271	-2.9625	-3.575	-3.0229	-3.3375	-3.2854	-2.7938	-3.5833	-3.25	-2.9125	-3.5979	-2.7083	-3.3333	28.030	-31.331	186.448	189.228	9.915	194.978	250.903	229.771	146.742	-12.702	-38.123	-58.925	-82.968	15.534	81.820	252.622	0.00015329	0.00029838	6.6054e-05	1259	4.081e-06	4.6996e-06	1274	341.9	2.7953e-06	5.228e-06	398.36	132.9	114.05	39.651	3.887e-06	49.574	0.00037309	0.00036919	0.00010423	1255.8	4.1514e-06	4.0693e-06	1276.9	345.18	4.1301e-06	4.1478e-06	397.88	135.06	115.53	40.155	4.2246e-06	50.309	230.649	-20.050	13.942	-78.835	58.362	47.517	-79.455	-74.328	-5.335	33.103	-75.255	-70.048	-69.667	-65.249	67.298	-65.932	-8191	255	
1418.662	1	1	0	0	0.11746	0.096752	0.20189	0.18388	0.12536	0.11257	0.033017	0.15112	0.20026	0.10905	0.15609	0.12349	0.12833	0.027491	0.12991	0.18084	-3.0896	-2.6562	-3.4583	-3.2188	-2.7354	-3.6646	-2.8854	-3.0417	-3.4667	-2.8104	-3.5062	-3.3958	-3.0167	-3.6813	-2.7333	-3.0708	238.322	-63.953	100.357	252.575	-59.099	33.611	113.386	148.231	188.242	199.582	42.375	186.589	225.978	252.888	122.213	221.400	0.00013927	0.00038601	0.00020483	1257.8	1.5093e-06	4.4039e-06	1272.3	340.33	1.461e-06	6.8324e-06	397.8	132.72	113.37	39.71	2.3926e-06	49.523	0.00037328	0.00037766	0.00010672	1253.5	4.2604e-06	4.169e-06	1278.4	344.09	4.2968e-06	4.2697e-06	397.95	134.95	115.21	40.177	4.2647e-06	50.216	223.992	5.059	-53.247	-79.037	74.518	82.244	-79.206	-74.261	93.188	44.489	-74.792	-70.538	-69.716	-65.389	-2.197	-66.340	-8191	255	
1418.781	1	1	0	0	0.14208	0.30334	0.087462	0.24697	0.14031	0.053947	0.29569	0.40973	0.078011	0.20695	0.26241	0.11659	0.21654	0.315	0.11998	0.23009	-3.2896	-2.9333	-3.3021	-3.4146	-2.7125	-3.6958	-3.3167	-3.1813	-3.5896	-2.8896	-3.4938	-3.4542	-2.8021	-3.6083	-2.9771	-3.0854	60.308	145.710	63.366	-80.814	187.017	95.756	248.393	232.026	-25.890	257.159	201.840	258.840	-46.834	-88.675	132.732	-87.307	0.00015595	0.00047149	3.0956e-05	1253.9	4.412e-06	5.8192e-06	1273.6	341.5	1.347e-06	3.6924e-06	395.33	132.18	113.68	39.944	3.7824e-06	49.697	0.00038179	0.00038629	0.00010875	1251.4	4.2937e-06	4.221e-06	1276.7	344.27	4.1424e-06	4.1834e-06	397.21	134.81	115.18	40.238	4.1893e-06	50.237	225.616	-11.762	53.270	-79.147	94.830	21.381	-78.977	-74.326	45.364	45.180	-75.042	-70.407	-69.942	-65.291	72.385	-65.959	-8191	255	
1418.877	1	1	0	0	0.18921	0.26922	0.1687	0.19721	0.16457	0.13434	0.28687	0.23423	0.19569	0.2171	0.24982	0.18481	0.31339	0.15073	0.19087	0.21847	-3.1937	-2.7042	-3.1854	-3.4854	-2.8208	-3.7042	-3.2875	-3.1813	-3.5771	-2.8479	-3.2687	-3.5354	-2.8312	-3.4979	-3.2417	-2.8708	197.915	31.805	102.833	195.878	195.248	244.744	236.627	205.223	166.607	-91.626	197.912	196.289	145.037	254.873	143.100	-62.850	0.00013659	0.00054988	0.00012869	1247.3	3.4921e-06	2.8218e-06	1266.5	341.3	1.5891e-06	4.4226e-06	396.56	132.42	113.61	39.741	2.0366e-06	49.412	0.00037369	0.00038161	0.00010645	1248.5	4.2104e-06	4.1354e-06	1272.4	343.66	4.2071e-06	4.1439e-06	397.91	134.75	115.33	40.197	4.1533e-06	50.124	240.078	26.193	-18.002	-78.874	90.090	82.285	-78.757	-73.997	250.176	73.155	-74.611	-69.900	-69.789	-65.359	-8.164	-66.172	-8191	255	
#DATA ENDS
