BOXY.EXE: ISS Imagent and Oximeter Data Acquisition Program Version 0.80
Ascii Record File

#ACQ INFORMATION
2  Detector Channels 
16  External MUX Channels 
1  Auxiliary Channels 
5000  Waveform (CCF) Frequency (Hz)
1  Waveforms Skipped 
30  Waveforms Averaged 
1  Cycles Averaged 
16  Acquisitions per Waveform 
10.0806  Updata Rate (Hz) 

#FILE INFORMATION
TRUE -- External MUX Channel results are PARSED.
FALSE -- AC DC and Phase are NOT grouped.
TRUE -- Companion Program Settings File CREATED.
FALSE -- AC data not excluded
FALSE -- DC data not excluded
FALSE -- Phase data not excluded
FALSE -- Auxillary Chn. data not excluded
Tab delimiters

#CALIBRATION STATE
TRUE -- Waveform Calibration Values APPLIED.


#AUX CALIBRATION VALUES
Val Type	aux-1	

Term	1.0000e+00	
Factor	0.0000e+00	


#WF CALIBRATION VALUES
A = Detector Channel
Val Type	A-AC1	A-AC2	A-AC3	A-AC4	A-AC5	A-AC6	A-AC7	A-AC8	A-AC9	A-AC10	A-AC11	A-AC12	A-AC13	A-AC14	A-AC15	A-AC16	A-DC1	A-DC2	A-DC3	A-DC4	A-DC5	A-DC6	A-DC7	A-DC8	A-DC9	A-DC10	A-DC11	A-DC12	A-DC13	A-DC14	A-DC15	A-DC16	A-Ph1	A-Ph2	A-Ph3	A-Ph4	A-Ph5	A-Ph6	A-Ph7	A-Ph8	A-Ph9	A-Ph10	A-Ph11	A-Ph12	A-Ph13	A-Ph14	A-Ph15	A-Ph16	

Term	0.00000e+00	0.00000e+00	0.00000e+00	0.00000e+00	0.00000e+00	0.00000e+00	0.00000e+00	0.00000e+00	0.00000e+00	0.00000e+00	0.00000e+00	0.00000e+00	0.00000e+00	0.00000e+00	0.00000e+00	0.00000e+00	0.00000e+00	0.00000e+00	0.00000e+00	0.00000e+00	0.00000e+00	0.00000e+00	0.00000e+00	0.00000e+00	0.00000e+00	0.00000e+00	0.00000e+00	0.00000e+00	0.00000e+00	0.00000e+00	0.00000e+00	0.00000e+00	0.00000e+00	0.00000e+00	0.00000e+00	0.00000e+00	0.00000e+00	0.00000e+00	0.00000e+00	0.00000e+00	0.00000e+00	0.00000e+00	0.00000e+00	0.00000e+00	0.00000e+00	0.00000e+00	0.00000e+00	0.00000e+00	
Factor	1.00000e+00	1.00000e+00	1.00000e+00	1.00000e+00	1.00000e+00	1.00000e+00	1.00000e+00	1.00000e+00	1.00000e+00	1.00000e+00	1.00000e+00	1.00000e+00	1.00000e+00	1.00000e+00	1.00000e+00	1.00000e+00	1.00000e+00	1.00000e+00	1.00000e+00	1.00000e+00	1.00000e+00	1.00000e+00	1.00000e+00	1.00000e+00	1.00000e+00	1.00000e+00	1.00000e+00	1.00000e+00	1.00000e+00	1.00000e+00	1.00000e+00	1.00000e+00	X	X	X	X	X	X	X	X	X	X	X	X	X	X	X	X	

B = Detector Channel
Val Type	B-AC1	B-AC2	B-AC3	B-AC4	B-AC5	B-AC6	B-AC7	B-AC8	B-AC9	B-AC10	B-AC11	B-AC12	B-AC13	B-AC14	B-AC15	B-AC16	B-DC1	B-DC2	B-DC3	B-DC4	B-DC5	B-DC6	B-DC7	B-DC8	B-DC9	B-DC10	B-DC11	B-DC12	B-DC13	B-DC14	B-DC15	B-DC16	B-Ph1	B-Ph2	B-Ph3	B-Ph4	B-Ph5	B-Ph6	B-Ph7	B-Ph8	B-Ph9	B-Ph10	B-Ph11	B-Ph12	B-Ph13	B-Ph14	B-Ph15	B-Ph16	

Term	0.00000e+00	0.00000e+00	0.00000e+00	0.00000e+00	0.00000e+00	0.00000e+00	0.00000e+00	0.00000e+00	0.00000e+00	0.00000e+00	0.00000e+00	0.00000e+00	0.00000e+00	0.00000e+00	0.00000e+00	0.00000e+00	0.00000e+00	0.00000e+00	0.00000e+00	0.00000e+00	0.00000e+00	0.00000e+00	0.00000e+00	0.00000e+00	0.00000e+00	0.00000e+00	0.00000e+00	0.00000e+00	0.00000e+00	0.00000e+00	0.00000e+00	0.00000e+00	-8.92709e+01	-1.28825e+02	-1.24038e+02	-1.83962e+02	-5.99715e+01	-6.47401e+01	-1.57159e+02	-1.62015e+02	-5.48480e+01	-7.10995e+01	-1.70729e+02	-1.70839e+02	-1.80289e+02	-1.77652e+02	-5.59847e+01	-1.50740e+02	
Factor	1.90359e-05	1.64344e-04	4.45320e-05	1.64583e-01	1.33975e-06	1.74344e-06	1.90588e-01	5.69177e-02	1.10681e-06	1.67741e-06	9.57273e-02	3.69650e-02	2.87415e-02	1.05468e-02	1.51595e-06	1.54879e-02	3.70208e-06	4.20420e-06	1.17489e-06	8.23578e-02	4.54401e-08	4.62410e-08	8.95767e-02	2.86398e-02	4.53497e-08	4.63083e-08	4.63350e-02	1.80061e-02	1.45506e-02	5.30554e-03	4.58462e-08	7.52433e-03	X	X	X	X	X	X	X	X	X	X	X	X	X	X	X	X	



#DISTANCE SETTINGS
A = Detector Channel
A-1	A-2	A-3	A-4	A-5	A-6	A-7	A-8	A-9	A-10	A-11	A-12	A-13	A-14	A-15	A-16	

2.5000e+00	3.0000e+00	2.5000e+00	3.0000e+00	2.0000e+00	3.0000e+00	1.5000e+00	3.0000e+00	3.0000e+00	3.0000e+00	3.0000e+00	3.0000e+00	3.0000e+00	3.0000e+00	1.5000e+00	3.0000e+00	

B = Detector Channel
B-1	B-2	B-3	B-4	B-5	B-6	B-7	B-8	B-9	B-10	B-11	B-12	B-13	B-14	B-15	B-16	

1.0000e+01	1.0000e+01	1.0000e+01	1.4400e+00	1.0000e+01	1.0000e+01	1.5100e+00	1.9400e+00	1.0000e+01	1.0000e+01	1.9900e+00	2.4900e+00	2.4100e+00	2.9000e+00	1.0000e+01	2.9800e+00	




#DATA BEGINS
time	group	step	mark	flag	A-AC1	A-AC2	A-AC3	A-AC4	A-AC5	A-AC6	A-AC7	A-AC8	A-AC9	A-AC10	A-AC11	A-AC12	A-AC13	A-AC14	A-AC15	A-AC16	A-DC1	A-DC2	A-DC3	A-DC4	A-DC5	A-DC6	A-DC7	A-DC8	A-DC9	A-DC10	A-DC11	A-DC12	A-DC13	A-DC14	A-DC15	A-DC16	A-Ph1	A-Ph2	A-Ph3	A-Ph4	A-Ph5	A-Ph6	A-Ph7	A-Ph8	A-Ph9	A-Ph10	A-Ph11	A-Ph12	A-Ph13	A-Ph14	A-Ph15	A-Ph16	B-AC1	B-AC2	B-AC3	B-AC4	B-AC5	B-AC6	B-AC7	B-AC8	B-AC9	B-AC10	B-AC11	B-AC12	B-AC13	B-AC14	B-AC15	B-AC16	B-DC1	B-DC2	B-DC3	B-DC4	B-DC5	B-DC6	B-DC7	B-DC8	B-DC9	B-DC10	B-DC11	B-DC12	B-DC13	B-DC14	B-DC15	B-DC16	B-Ph1	B-Ph2	B-Ph3	B-Ph4	B-Ph5	B-Ph6	B-Ph7	B-Ph8	B-Ph9	B-Ph10	B-Ph11	B-Ph12	B-Ph13	B-Ph14	B-Ph15	B-Ph16	aux-1	digaux	

1465.721	1	1	0	768	0.0212	0.14874	0.35387	0.24005	0.083266	0.21392	0.057527	0.3691	0.19852	0.13846	0.12555	0.16996	0.30782	0.1583	0.20919	0.139	-2.7542	-3.0042	-3.4458	-3.0646	-3.2229	-3.4625	-3.0271	-3.6271	-3.1937	-2.9833	-3.8375	-3.0042	-3.4708	-3.7625	-2.7104	-3.6521	316.824	304.619	209.661	449.923	351.149	318.117	479.107	398.259	409.591	436.532	466.262	306.392	367.586	477.695	460.414	477.854	0.00048757	0.00041104	8.4281e-05	1249.6	4.1453e-06	4.492e-06	1268.4	334.99	3.83e-06	5.2326e-06	388.68	133.87	113.52	39.589	4.317e-06	49.417	0.00040076	0.00037777	0.00010528	1258.9	4.2027e-06	4.132e-06	1277.5	337.91	4.2125e-06	4.1854e-06	392.74	135.68	115.41	40.331	4.1615e-06	50.34	220.519	188.329	252.584	135.602	297.265	273.374	135.841	140.772	274.417	297.928	140.026	144.301	145.068	149.652	284.562	148.836	-8191	255	
1465.817	1	1	0	0	0.20174	0.1282	0.066953	0.11607	0.13796	0.059929	0.13825	0.34909	0.070676	0.074455	0.17919	0.13956	0.1706	0.23439	0.14648	0.052466	-2.8396	-3.0958	-3.5354	-3.0854	-3.2354	-3.6729	-2.9562	-3.5729	-3.1688	-2.9771	-3.7292	-3.0812	-3.2521	-3.8375	-2.9146	-3.6042	339.002	352.455	467.757	406.622	146.340	344.136	378.851	402.074	324.988	244.030	288.567	146.892	459.242	458.830	474.035	438.951	0.00046717	0.00073358	0.00011201	1252.5	5.1231e-06	2.4762e-06	1271.3	333.95	4.214e-06	3.7685e-06	389.4	134.24	113.47	39.493	5.4884e-06	49.425	0.00039605	0.00037981	0.00010291	1260.5	4.1277e-06	4.0358e-06	1279.8	337.98	4.0823e-06	4.1208e-06	392.87	135.78	115.48	40.255	4.1199e-06	50.394	223.137	186.850	227.288	135.775	281.558	270.218	135.752	140.841	253.774	282.663	139.840	144.447	144.932	149.522	276.582	148.481	-8191	255	
1465.913	1	1	0	0	0.22499	0.094898	0.077083	0.16913	0.31662	0.20782	0.29749	0.16603	0.13477	0.31122	0.13519	0.10404	0.3626	0.31603	0.1068	0.24272	-3.0792	-2.8104	-3.5938	-3.1375	-3.0542	-3.6771	-3.0104	-3.5292	-3.3604	-2.9437	-3.9062	-3.2438	-3.2083	-3.7979	-2.9354	-3.4083	255.805	266.213	405.428	408.465	418.942	428.496	366.717	141.745	166.081	409.528	477.656	129.778	439.519	466.710	270.246	398.250	0.00048067	0.00013363	0.00012193	1251.2	5.8724e-06	7.9578e-06	1267.4	334.58	4.463e-06	4.9445e-06	389.31	133.48	114.33	39.687	7.2545e-06	49.584	0.00039393	0.00036756	0.00010271	1260.5	4.1287e-06	3.9353e-06	1276.6	338.12	3.9826e-06	3.9402e-06	392.68	135.39	115.61	40.326	3.9699e-06	50.407	231.768	133.870	259.022	135.398	242.151	282.331	135.567	140.519	242.412	242.949	139.856	144.467	145.029	149.686	301.316	148.276	-8191	255	
1466.010	1	1	0	0	0.039715	0.14052	0.059901	0.28429	0.21164	0.093391	0.15322	0.19406	0.26448	0.17987	0.12961	0.072356	0.16577	0.38197	0.057918	0.13827	-3.0583	-2.7958	-3.5354	-3.2958	-2.9458	-3.7667	-3.0042	-3.6312	-3.4458	-2.8375	-3.8083	-3.1896	-3.2646	-3.6583	-2.8917	-3.25	186.754	376.848	149.539	126.661	334.316	216.350	153.489	374.405	431.257	376.801	459.591	278.213	123.178	443.521	402.083	438.746	0.00048542	0.00035336	8.0794e-05	1249.2	4.0253e-06	5.6359e-06	1267.8	333.44	3.9922e-06	4.2687e-06	388.75	133.92	113.68	39.562	5.6821e-06	49.589	0.00037824	0.00034943	9.799e-05	1258.6	3.9584e-06	3.8984e-06	1274.3	337.67	4.0018e-06	3.9619e-06	392.31	135.43	115.21	40.196	3.9701e-06	50.301	222.223	199.115	184.187	135.835	272.890	265.673	135.725	140.680	284.256	306.609	139.795	144.799	144.935	149.757	261.342	148.668	-8191	255	
1466.106	1	1	0	0	0.30783	0.24655	0.14886	0.16086	0.09657	0.13126	0.2303	0.37606	0.045516	0.057512	0.17481	0.11164	0.13799	0.29295	0.15773	0.097265	-3.3	-2.5917	-3.5667	-3.4313	-2.9271	-3.6521	-2.9979	-3.1917	-3.4437	-2.7396	-3.6417	-3.2771	-2.9625	-3.625	-3.1479	-3.1292	453.463	285.261	369.217	439.143	229.732	167.924	140.558	428.582	234.506	263.400	167.010	407.658	434.906	446.845	340.416	482.002	0.00050027	0.00055357	9.5097e-05	1241.2	4.003e-06	4.6871e-06	1261.3	334.52	4.6408e-06	4.436e-06	388.83	133.71	113.65	39.44	3.5948e-06	49.441	0.00038176	0.00036645	0.00010071	1253.9	4.0239e-06	3.915e-06	1270.8	337.38	4.0217e-06	4.0195e-06	392.48	135.24	115.24	40.128	3.969e-06	50.221	225.689	217.960	228.239	135.961	273.731	302.627	135.827	140.771	281.923	243.356	139.991	144.601	145.004	149.293	256.799	148.446	-8191	255	
1466.202	1	1	0	0	0.14364	0.14168	0.20108	0.15235	0.14625	0.17165	0.25612	0.1671	0.082855	0.088545	0.10491	0.27154	0.15059	0.25465	0.20186	0.31219	-3.2542	-2.8271	-3.4104	-3.75	-2.7479	-3.7792	-3.0292	-3.125	-3.5563	-2.8875	-3.5396	-3.6396	-2.9521	-3.7104	-3.2438	-3.1979	296.538	332.195	215.303	186.908	452.476	268.941	388.580	441.665	235.250	256.073	471.986	440.110	419.861	411.305	397.123	450.082	0.00045852	0.00043553	0.00011849	1243.8	3.7104e-06	6.1103e-06	1256.7	332.5	4.0591e-06	3.5767e-06	388.53	133.18	113.3	39.258	3.8319e-06	49.263	0.00037571	0.00036372	0.00010145	1255.5	4.0549e-06	3.9702e-06	1267.6	336.98	3.9865e-06	3.8691e-06	391.6	134.99	115.02	40.006	3.9605e-06	50.159	218.785	216.926	208.098	135.853	269.356	260.575	135.737	140.606	271.895	234.645	139.926	144.465	144.765	149.695	266.845	148.574	-8191	255	
1466.323	1	1	0	0	0.15395	0.089224	0.075568	0.40271	0.21285	0.20001	0.3062	0.085664	0.085928	0.081951	0.17154	0.092129	0.26941	0.12786	0.09949	0.10542	-3.4021	-2.9667	-3.0542	-3.7	-2.8271	-3.7292	-3.4521	-3.0208	-3.6125	-3	-3.2792	-3.6583	-2.9833	-3.7542	-3.2667	-3.1667	355.146	370.633	434.941	441.128	409.657	289.636	429.682	371.445	192.047	262.924	129.092	331.291	376.452	440.988	395.424	391.323	0.00047552	0.00030517	0.00014119	1244.8	5.8502e-06	3.9379e-06	1257	331.59	3.1993e-06	2.549e-06	387.43	132.84	113.5	39.31	4.1586e-06	49.339	0.00038104	0.00036277	0.00010065	1254.6	3.9785e-06	3.8533e-06	1269.1	336.28	3.9901e-06	3.9664e-06	391.23	134.54	114.8	39.941	3.9543e-06	50.055	225.938	172.940	235.301	135.720	259.270	259.633	135.691	140.744	253.386	246.868	140.040	144.771	145.031	149.655	254.540	148.635	-8191	255	
1466.417	1	1	0	0	0.30659	0.064766	0.04998	0.071851	0.36044	0.12552	0.24896	0.27431	0.20427	0.20172	0.29059	0.092882	0.27028	0.25351	0.19761	0.10809	-3.1458	-2.9	-3.2812	-3.8583	-2.9708	-3.5208	-3.5229	-3.0854	-3.7229	-3.075	-3.3125	-3.6437	-2.975	-3.5875	-3.5417	-2.9917	140.535	375.476	366.450	149.427	391.544	399.032	369.721	481.743	480.790	124.755	421.422	412.233	408.103	394.921	316.394	412.687	0.00047368	0.00060365	0.00016785	1244.5	6.5946e-06	4.3034e-06	1258.7	330.85	3.141e-06	5.128e-06	385.19	132.57	113.76	39.139	3.3417e-06	49.319	0.00038191	0.00036594	0.00010174	1252.1	4.031e-06	3.9763e-06	1267.4	336.31	3.9977e-06	3.8981e-06	391.04	134.72	114.86	39.961	3.8889e-06	50.082	229.110	223.313	216.456	135.498	296.483	258.757	135.815	140.373	283.912	271.313	140.062	144.618	144.982	149.607	255.613	148.820	-8191	255	
1466.513	1	1	0	0	0.035356	0.11762	0.20821	0.35975	0.010979	0.18752	0.27316	0.14193	0.20401	0.20115	0.18778	0.074856	0.20874	0.050979	0.10486	0.15051	-3.3542	-3.0896	-3	-3.7562	-2.7812	-3.2938	-3.4854	-2.9688	-3.7333	-3.1833	-3.1813	-3.7667	-2.9104	-3.4104	-3.45	-3.0417	421.534	235.208	441.518	442.556	381.879	186.444	407.072	366.480	411.686	370.100	156.721	423.274	475.952	199.228	170.205	355.770	0.00047631	0.00014638	9.3532e-05	1244.1	3.4963e-06	4.4309e-06	1259.3	331.43	4.2374e-06	4.6242e-06	387.25	133.11	112.83	39.012	5.578e-06	48.804	0.00038799	0.00036271	0.00010434	1255.1	4.1469e-06	4.02e-06	1268.5	335.89	4.0817e-06	3.9557e-06	390.63	134.42	114.28	39.786	4.0053e-06	49.749	228.863	310.986	219.118	135.833	291.238	270.521	135.698	140.936	290.786	255.374	139.867	144.566	145.043	149.430	249.468	148.411	-8191	255	
1466.611	1	1	0	0	0.054313	0.065551	0.24599	0.25775	0.21108	0.15999	0.15699	0.11097	0.27955	0.058018	0.086654	0.22654	0.13146	0.24657	0.16108	0.20105	-3.2854	-3.1583	-3.0625	-3.775	-2.7229	-3.1208	-3.6729	-2.9021	-3.4729	-3.3917	-3.025	-3.6042	-3.1604	-3.2167	-3.4813	-2.9542	369.640	438.690	351.924	321.438	296.573	353.574	367.724	414.092	284.096	406.091	203.776	147.663	442.788	422.830	443.387	428.796	0.00047008	0.00044984	0.00015147	1241.3	3.0887e-06	5.0275e-06	1255.7	331.48	5.6664e-06	4.1296e-06	385.79	131.92	112.72	39.073	5.3443e-06	48.813	0.00038544	0.0003706	0.00010597	1252.6	4.1621e-06	4.0523e-06	1265.1	335.49	4.0306e-06	4.0549e-06	389.91	134.05	114.48	39.74	4.0888e-06	49.774	219.403	204.204	264.574	135.545	270.953	247.377	135.773	140.683	292.570	304.195	140.065	144.667	145.273	149.697	267.243	148.761	-8191	255	
1466.705	1	1	0	0	0.17487	0.25582	0.13844	0.23455	0.21663	0.16829	0.14679	0.27576	0.094602	0.14644	0.23012	0.22207	0.078723	0.3007	0.22993	0.32571	-3.2188	-3.3187	-2.9708	-3.7542	-2.9313	-3.0271	-3.6771	-2.8771	-3.5396	-3.4146	-2.7708	-3.4792	-3.2292	-3.1437	-3.5417	-2.8083	259.119	406.274	258.541	125.786	460.302	393.375	161.537	480.002	393.842	456.131	427.743	411.437	392.364	430.800	151.452	471.521	0.00051359	0.00064736	0.0001173	1239.3	4.2807e-06	6.2483e-06	1253.3	328.91	6.1616e-06	9.2968e-06	383.48	131.48	112.49	38.745	3.2208e-06	48.625	0.00039311	0.00036936	0.00010513	1249.6	4.1041e-06	4.1188e-06	1262	333.4	4.1477e-06	4.1723e-06	388.26	133.63	113.85	39.461	4.0901e-06	49.584	226.789	223.784	223.128	135.715	272.285	281.137	135.849	140.743	268.757	280.119	139.867	144.664	145.039	149.528	314.064	148.523	-8191	255	
1466.802	1	1	0	0	0.06281	0.09645	0.16575	0.078763	0.13665	0.17856	0.16465	0.050565	0.1116	0.26307	0.13659	0.16701	0.25313	0.10925	0.16886	0.12409	-3.0917	-3.4729	-2.9208	-3.6896	-3.0167	-2.9062	-3.8333	-3.0833	-3.3208	-3.4688	-2.9667	-3.6479	-3.1917	-3.0271	-3.6958	-2.9021	274.278	247.194	281.201	474.940	352.551	293.596	403.284	235.490	381.535	176.248	403.362	436.056	477.133	163.074	317.670	369.074	0.00049133	0.00049054	0.00018272	1234.8	6.0659e-06	5.7009e-06	1249.9	328.96	4.1833e-06	1.376e-06	382.83	131.37	111.66	38.766	4.3791e-06	48.58	0.00039761	0.00037532	0.00010574	1244.9	4.1504e-06	4.2029e-06	1258.5	332.84	4.1941e-06	4.1527e-06	387.38	133.18	113.18	39.483	4.0995e-06	49.39	223.930	225.852	240.876	135.843	261.549	309.238	135.723	140.673	267.328	272.956	140.125	144.414	145.304	149.557	259.457	148.920	-8191	255	
1466.922	1	1	0	0	0.21742	0.13484	0.068828	0.0081339	0.29862	0.19477	0.06025	0.27831	0.17867	0.16877	0.16098	0.14769	0.24401	0.15124	0.14253	0.12228	-3.0167	-3.5458	-2.7354	-3.6375	-3.4521	-2.7583	-3.75	-3.1542	-3.0438	-3.5854	-3.0438	-3.5104	-3.5229	-3.0167	-3.5875	-3.0021	313.709	391.111	159.596	395.798	442.655	361.465	343.062	454.568	378.853	335.606	368.767	375.786	386.309	139.558	181.810	136.703	0.00049641	0.00027322	0.00013399	1229.9	5.0103e-06	3.8184e-06	1240.9	327.75	3.9045e-06	4.0635e-06	379.97	130.76	111.92	38.539	5.0351e-06	48.496	0.00039939	0.00037266	0.00010603	1239.9	4.2205e-06	4.1399e-06	1253.2	332.01	4.1658e-06	4.1596e-06	385.52	132.96	113.28	39.327	4.1441e-06	49.372	224.129	213.869	208.705	135.831	278.617	275.430	135.573	140.802	255.241	246.687	140.129	144.515	145.184	149.616	290.276	148.540	-8191	255	
1467.018	1	1	0	0	0.16627	0.15904	0.11298	0.29643	0.053252	0.11546	0.2232	0.29973	0.091378	0.22694	0.10217	0.23222	0.048041	0.21586	0.13354	0.22749	-2.7792	-3.7333	-2.8271	-3.4896	-3.4854	-2.8	-3.7604	-3.1229	-3.0312	-3.5083	-2.7417	-3.3979	-3.3604	-2.7479	-3.6958	-3.2021	434.168	254.008	331.195	405.221	229.986	320.451	457.259	463.571	362.492	247.228	268.998	440.736	374.916	130.080	279.590	271.658	0.00046649	0.00072489	4.4663e-05	1227.5	5.0023e-06	4.0445e-06	1239.7	327.2	4.6185e-06	7.4977e-06	382	131.15	111.32	38.243	5.2483e-06	48.291	0.0003967	0.00038075	0.00010722	1238.3	4.1954e-06	4.1706e-06	1250.2	331.44	4.2136e-06	4.1876e-06	385.93	132.65	113.01	39.227	4.2609e-06	49.143	224.726	196.540	163.298	135.649	271.212	285.344	135.837	140.841	270.985	238.186	140.249	144.689	145.115	149.598	293.261	148.977	-8191	255	
1467.114	1	1	0	0	0.17539	0.44944	0.11682	0.15219	0.17467	0.23415	0.081924	0.056653	0.055815	0.11679	0.35959	0.17771	0.16528	0.15436	0.18154	0.21688	-2.6271	-3.5771	-2.7958	-3.3583	-3.4542	-2.9146	-3.5333	-3.2687	-2.8104	-3.5979	-2.8833	-3.2333	-3.6292	-2.9646	-3.4167	-3.2958	302.053	178.596	155.134	443.418	344.642	241.319	384.378	406.631	186.615	271.581	417.825	481.360	393.685	360.977	273.545	468.619	0.00051092	0.00056984	0.00012527	1224	6.1971e-06	4.298e-06	1244.3	326.49	4.3001e-06	2.7813e-06	382.65	130.67	111.17	38.537	6.3362e-06	48.464	0.00040704	0.00038236	0.00010625	1235.9	4.256e-06	4.2095e-06	1252.9	331.37	4.357e-06	4.3052e-06	385.28	132.58	112.86	39.263	4.289e-06	49.11	219.522	256.253	254.122	135.865	264.929	317.586	135.702	140.887	272.581	297.052	140.179	144.386	144.929	149.935	282.290	148.856	-8191	255	
1467.211	1	1	0	0	0.27917	0.1032	0.25466	0.13878	0.1479	0.21435	0.19338	0.1832	0.1996	0.24506	0.15903	0.28459	0.0039298	0.071826	0.075793	0.13687	-2.6813	-3.6417	-3.0542	-3.2104	-3.4208	-2.8292	-3.5187	-3.3688	-2.8292	-3.4938	-3.2104	-3.0583	-3.5458	-2.9188	-3.3167	-3.5542	197.028	425.607	406.219	482.280	139.687	322.449	143.646	337.250	247.833	442.653	409.710	137.331	198.654	460.372	343.512	474.412	0.00048858	0.00044593	0.00013221	1223.3	2.1098e-06	5.6298e-06	1238.8	326.34	4.3801e-06	8.4073e-06	379.82	130.03	111.14	38.496	4.0647e-06	48.122	0.00040842	0.00038403	0.00011052	1234.5	4.2917e-06	4.2602e-06	1251.5	330.74	4.2809e-06	4.2724e-06	385.33	132.4	112.76	39.19	4.2246e-06	49.082	221.738	203.401	209.989	135.873	272.943	288.507	135.821	140.854	279.508	241.948	140.168	144.790	145.148	149.693	308.077	148.884	-8191	255	
1467.282	1	1	0	0	0.18495	0.19264	0.13916	0.12206	0.20813	0.16553	0.26256	0.27713	0.086402	0.14664	0.33909	0.071583	0.24681	0.16113	0.2454	0.16358	-2.5083	-3.5208	-3.0438	-3.1188	-3.8	-3.0292	-3.4292	-3.4417	-2.9396	-3.6188	-3.3354	-3.1	-3.6562	-3.1208	-3.3646	-3.5854	212.289	264.991	319.585	432.033	307.723	369.110	342.737	346.114	363.141	318.798	142.522	392.195	398.668	414.659	276.068	234.326	0.00049501	0.00059276	0.00013344	1225.5	3.5524e-06	5.4591e-06	1241.7	326.48	3.4955e-06	4.8939e-06	381.86	130.68	111.22	38.464	4.4997e-06	48.344	0.00040541	0.0003929	0.0001077	1234.7	4.301e-06	4.3638e-06	1250.3	330.44	4.3848e-06	4.2967e-06	384.94	132.61	112.83	39.185	4.2877e-06	49.103	226.459	226.004	220.525	135.756	275.807	212.244	135.547	140.900	279.600	228.589	140.060	144.212	145.136	149.834	252.225	148.553	-8191	255	
1467.403	1	1	0	0	0.14384	0.14903	0.17783	0.19723	0.20765	0.28706	0.1618	0.10634	0.12911	0.10873	0.074159	0.14334	0.2009	0.27999	0.15819	0.066633	-2.5438	-3.4625	-3.1604	-3.1813	-3.6937	-2.9604	-3.4146	-3.4542	-2.9146	-3.4958	-3.2438	-2.9354	-3.7104	-2.9833	-3.0646	-3.4771	310.207	477.308	446.739	291.072	431.394	329.479	444.288	419.675	261.502	410.446	348.079	371.904	474.621	403.815	373.050	410.761	0.00046926	0.00018032	0.00015115	1224.2	5.2567e-06	6.1796e-06	1238.5	327.07	4.6828e-06	3.9206e-06	380.36	129.98	111.07	38.377	6.2788e-06	48.012	0.00041019	0.00038996	0.00010955	1234.6	4.2912e-06	4.2491e-06	1249.4	330.8	4.2847e-06	4.3225e-06	384.66	132.16	112.76	39.128	4.2821e-06	49.066	225.662	149.339	230.524	135.744	289.961	245.421	135.703	140.618	298.951	248.237	140.275	144.613	145.308	149.603	260.239	148.815	-8191	255	
1467.499	1	1	0	0	0.30826	0.27447	0.16046	0.46975	0.040042	0.26244	0.29269	0.070528	0.027934	0.15669	0.27343	0.14968	0.35477	0.12427	0.19863	0.16483	-2.3208	-3.3979	-3.4583	-2.9375	-3.5646	-3.0312	-3.1958	-3.5792	-2.8292	-3.3167	-3.4979	-2.8771	-3.6458	-2.8958	-2.9062	-3.75	215.074	249.327	128.793	474.052	307.069	373.247	438.468	373.206	379.910	197.092	446.427	165.511	408.876	228.710	208.659	350.872	0.00049222	0.0005036	9.1002e-05	1223.6	3.582e-06	5.6212e-06	1235.3	325.72	3.5639e-06	3.0619e-06	380.92	130.45	111.17	38.527	6.2071e-06	48.179	0.00041026	0.00038729	0.00010686	1233.4	4.2309e-06	4.1809e-06	1245.9	330.5	4.2193e-06	4.0901e-06	385.22	132.33	112.87	39.225	4.1908e-06	49.157	221.937	221.773	258.908	135.734	273.694	288.284	135.848	140.923	270.151	292.425	140.287	144.580	145.045	149.229	265.541	148.598	-8191	255	
1467.595	1	1	0	0	0.15534	0.17978	0.21954	0.38027	0.15075	0.10162	0.25508	0.24328	0.10394	0.22236	0.16076	0.15716	0.076552	0.18336	0.11258	0.12708	-2.4771	-3.2979	-3.4896	-3.0167	-3.4479	-3.2521	-3.1042	-3.7729	-2.8937	-3.3042	-3.5	-2.8812	-3.4542	-3.1854	-2.9083	-3.7	211.471	272.680	318.974	398.455	392.246	373.519	454.078	388.893	174.795	303.135	479.126	371.627	150.540	455.387	475.868	440.667	0.0004505	0.00037198	0.00010041	1224.3	4.7381e-06	4.5979e-06	1234.8	326.81	4.6052e-06	5.3155e-06	381.42	130.96	111.42	38.372	4.4462e-06	48.029	0.00039652	0.00037721	0.00010475	1232.1	4.1575e-06	4.121e-06	1246.5	330.58	4.2291e-06	4.1928e-06	385.05	132.41	112.85	39.152	4.2375e-06	49.107	224.116	226.845	245.121	135.767	276.190	265.431	135.648	140.695	261.810	272.009	140.068	144.624	145.211	149.597	244.487	148.795	-8191	255	
1467.691	1	1	0	0	0.21254	0.26746	0.097158	0.25136	0.35959	0.13505	0.3811	0.40023	0.13504	0.081942	0.17361	0.39523	0.15114	0.16426	0.14561	0.093471	-2.4042	-3.3542	-3.4875	-2.8396	-3.4542	-3.3417	-2.9458	-3.6896	-3.2167	-3.0917	-3.5125	-3.0104	-3.5187	-3.2625	-2.8958	-3.7125	439.358	396.157	260.537	412.445	244.047	471.670	478.046	446.422	470.905	364.744	133.818	433.670	396.934	267.498	454.278	465.008	0.00045384	0.00075308	7.9513e-05	1218.2	4.6629e-06	4.3322e-06	1241.3	326	3.2585e-06	1.341e-06	380.1	130.43	111.32	38.437	3.6893e-06	48.319	0.00039243	0.00037209	0.00010524	1229.9	4.1606e-06	4.0853e-06	1248.9	330.44	4.1324e-06	4.1452e-06	384.4	132.4	112.78	39.149	4.2102e-06	49.167	223.904	215.483	225.797	135.747	261.716	285.579	135.619	140.786	242.354	146.384	139.912	144.644	144.959	149.746	277.118	148.739	-8191	255	
1467.810	1	1	0	0	0.06448	0.14072	0.099889	0.16343	0.024063	0.21563	0.1787	0.15508	0.36953	0.2406	0.16367	0.055846	0.28562	0.14894	0.22453	0.078321	-2.4938	-2.9062	-3.6021	-3.1021	-3.3812	-3.3042	-3.1042	-3.7875	-2.9542	-2.9792	-3.7104	-3.1458	-3.3708	-3.5375	-2.9083	-3.7979	404.743	384.396	358.879	348.775	237.941	330.486	369.127	438.504	169.954	309.576	375.146	454.823	415.588	466.570	297.107	442.505	0.00044809	0.00051285	0.00012532	1223.3	2.137e-06	3.9966e-06	1237.7	325.58	4.8439e-06	5.161e-06	382.43	130.39	111.35	38.485	5.341e-06	48.363	0.00040253	0.00038047	0.00010734	1232.8	4.2579e-06	4.1894e-06	1249.5	330.39	4.1969e-06	4.2347e-06	385.88	132.31	112.83	39.196	4.2926e-06	49.298	224.374	171.296	170.904	135.725	301.765	299.751	135.808	140.624	277.346	251.815	140.086	144.557	144.969	149.928	288.385	148.763	-8191	255	
1467.882	1	1	0	0	0.091321	0.22873	0.13694	0.19328	0.08532	0.20057	0.049203	0.059988	0.095359	0.09193	0.2562	0.099933	0.2757	0.13645	0.12364	0.25984	-2.8292	-2.9729	-3.7604	-3.0187	-3.1312	-3.5312	-3.0167	-3.6021	-3.2938	-2.9083	-3.6479	-2.8771	-3.3104	-3.6354	-2.6896	-3.4271	427.545	274.222	369.704	146.905	412.519	260.240	450.837	129.727	350.510	259.656	470.744	279.882	443.338	438.815	182.867	245.942	0.00047908	0.00041878	0.0001277	1223.5	5.6478e-06	3.1032e-06	1240.5	326.41	5.3325e-06	4.5134e-06	381.47	129.62	111.45	38.408	6.4476e-06	48.151	0.00040276	0.00038857	0.00010889	1236.2	4.3392e-06	4.2112e-06	1251.4	330.6	4.2719e-06	4.2574e-06	385.54	132.2	112.8	39.161	4.3258e-06	49.073	225.160	227.002	185.496	135.826	292.192	260.586	135.713	140.837	277.642	242.905	140.068	144.393	144.912	149.437	306.646	148.636	-8191	255	
1468.003	1	1	0	0	0.075092	0.079416	0.18774	0.19155	0.08404	0.038024	0.080191	0.26934	0.3032	0.1337	0.079521	0.12447	0.20157	0.23233	0.19908	0.26692	-3.0979	-2.8812	-3.5542	-3.1583	-3.0854	-3.5083	-2.9583	-3.4729	-3.3542	-2.8896	-3.5187	-3.1	-3.1708	-3.5479	-2.7958	-3.4688	240.364	232.515	167.571	122.639	312.972	436.077	330.771	396.170	363.597	157.641	126.104	464.394	424.086	470.329	376.718	128.868	0.00046682	0.00038683	0.00016166	1224.9	3.0626e-06	4.9665e-06	1240.2	324.63	3.9187e-06	2.8732e-06	381.69	130.36	111.07	38.304	5.4792e-06	48.148	0.00039627	0.00039246	0.00010764	1235.9	4.2545e-06	4.2662e-06	1249.7	330.25	4.2979e-06	4.3028e-06	385.2	132.24	112.52	39.078	4.363e-06	49.035	224.501	203.332	235.563	135.665	282.440	294.680	135.498	140.540	277.014	246.417	139.829	144.821	145.174	149.854	286.729	149.004	-8191	255	
1468.099	1	1	0	0	0.080693	0.15521	0.39206	0.12456	0.26135	0.041208	0.21568	0.24476	0.1712	0.25074	0.23294	0.24337	0.095393	0.11789	0.023586	0.17939	-3.05	-2.8521	-3.525	-3.4042	-2.8958	-3.6292	-2.9792	-3.5375	-3.3625	-2.8271	-3.6104	-3.1604	-3.0083	-3.6167	-2.9813	-3.3167	190.263	341.137	364.143	468.579	126.017	229.892	396.842	131.034	262.919	207.460	438.185	479.473	479.633	481.544	177.277	403.280	0.00049664	0.00038808	7.8537e-05	1225.9	2.6718e-06	1.2529e-06	1238.7	325.82	2.5388e-06	2.4842e-06	379.32	129.79	110.89	38.27	7.4428e-06	47.918	0.00040938	0.00040127	0.00010936	1236.2	4.4346e-06	4.3347e-06	1249.7	330.27	4.4186e-06	4.4759e-06	384.89	131.97	112.55	39.067	4.4906e-06	48.938	220.367	222.192	210.834	135.687	260.659	238.624	135.546	140.782	296.018	245.229	140.087	144.956	145.110	149.557	263.017	148.548	-8191	255	
1468.195	1	1	0	0	0.17805	0.033772	0.058406	0.04031	0.22606	0.12243	0.31726	0.35806	0.098451	0.1801	0.23399	0.22108	0.044615	0.10766	0.057303	0.041803	-2.8354	-2.7729	-3.4604	-3.275	-2.8042	-3.4167	-3.0958	-3.2938	-3.4792	-2.7062	-3.3479	-3.3583	-2.9271	-3.7375	-3.0208	-3.3229	443.252	298.501	463.134	152.879	261.060	459.682	425.088	370.207	123.463	419.378	405.332	138.039	404.506	437.713	295.819	432.973	0.00046174	0.00048179	0.0001363	1221.5	5.146e-06	5.4806e-06	1237.4	325.43	2.415e-06	2.6131e-06	381.33	130.03	110.95	38.315	6.4269e-06	47.782	0.00041511	0.00041311	0.00011237	1232.3	4.5398e-06	4.3824e-06	1248.6	330.22	4.4387e-06	4.4131e-06	385.16	132.04	112.6	39.142	4.438e-06	48.973	227.344	228.816	235.776	135.934	251.798	263.869	135.692	140.897	297.114	201.311	139.912	145.085	145.073	149.703	245.121	148.784	-8191	255	
1468.291	1	1	0	0	0.13883	0.11258	0.13138	0.35176	0.1052	0.11241	0.28851	0.23301	0.14325	0.2808	0.072334	0.17659	0.12973	0.12615	0.109	0.11524	-3.2125	-2.7375	-3.4042	-3.4938	-2.7125	-3.6396	-3.1104	-3.125	-3.5792	-2.6667	-3.4208	-3.3563	-2.9437	-3.5625	-2.9271	-3.0458	453.302	258.905	229.749	440.736	399.081	404.692	416.266	442.603	443.761	149.387	219.105	392.056	463.158	467.847	335.011	412.687	0.00048	0.00036275	0.0001313	1220.4	2.1502e-06	6.8559e-06	1236.7	324.87	3.5228e-06	4.5246e-06	378.59	129.88	111.15	38.29	4.231e-06	48.009	0.00042103	0.00040589	0.00011208	1231.2	4.4613e-06	4.3972e-06	1245.1	329.77	4.4264e-06	4.4407e-06	384.08	131.87	112.46	39.065	4.4811e-06	48.991	222.850	226.023	211.654	135.928	279.147	271.171	135.822	140.791	298.698	256.674	140.027	144.842	145.058	149.768	286.225	148.549	-8191	255	
1468.412	1	1	0	0	0.15575	0.016841	0.17918	0.23156	0.37944	0.2637	0.14702	0.078536	0.036426	0.30474	0.063157	0.21132	0.22874	0.26777	0.2534	0.11974	-3.05	-2.7708	-3.1875	-3.6333	-2.5979	-3.5146	-3.2208	-2.8833	-3.5146	-2.9646	-3.2812	-3.6146	-2.9604	-3.5458	-3.1229	-3.0333	292.751	359.332	374.244	149.309	165.606	194.012	408.770	361.503	174.686	423.096	225.066	441.182	376.203	473.311	144.699	130.565	0.00044703	0.00032282	0.00010288	1221.2	2.1297e-06	6.119e-06	1243.6	325.75	4.1513e-06	2.6991e-06	382.07	130.06	110.64	38.219	3.9532e-06	48.164	0.00041328	0.00040243	0.00011323	1232.9	4.4749e-06	4.4271e-06	1250	329.98	4.4558e-06	4.3943e-06	384.95	132.04	112.4	39.044	4.4072e-06	49.035	222.707	174.246	219.005	135.515	285.529	291.782	135.649	140.533	281.376	269.726	139.930	144.504	144.979	149.381	255.679	148.841	-8191	255	
1468.506	1	1	0	0	0.19948	0.21909	0.25954	0.34698	0.13025	0.22226	0.097787	0.075644	0.1916	0.093579	0.091288	0.17037	0.10638	0.13843	0.19756	0.2608	-3.2708	-3.0042	-3.2938	-3.7458	-2.7333	-3.4667	-3.4813	-3.0604	-3.6146	-2.8917	-3.1583	-3.5896	-2.9271	-3.3917	-3.4375	-2.9042	426.538	439.085	415.004	463.694	178.679	265.303	403.884	133.082	303.184	452.173	265.158	395.785	128.497	387.571	454.788	432.022	0.00046782	0.00063778	5.9652e-05	1221.4	4.5779e-06	3.8381e-06	1233.6	325.01	2.3138e-06	1.4219e-06	381.17	130.1	110.65	38.429	4.6028e-06	47.889	0.00041405	0.00039803	0.00011175	1233.8	4.4535e-06	4.3283e-06	1247	329.8	4.3356e-06	4.3656e-06	384.99	132.27	112.59	39.109	4.37e-06	48.996	222.627	206.660	210.120	135.729	302.120	240.970	135.710	140.759	289.517	207.498	140.019	144.701	145.029	149.596	263.284	148.454	-8191	255	
1468.579	1	1	0	0	0.27321	0.27096	0.18793	0.16647	0.22928	0.061628	0.19269	0.11313	0.19792	0.32619	0.18211	0.21583	0.44873	0.11151	0.096277	0.13561	-3.2458	-3.2083	-3.1	-3.7104	-2.8458	-3.3292	-3.5375	-2.9979	-3.4875	-3.2896	-3.0917	-3.5687	-3.0208	-3.4271	-3.3937	-2.9708	220.368	369.172	452.121	375.331	179.980	328.970	434.812	418.225	229.428	171.109	216.302	442.537	454.291	480.910	159.030	376.431	0.0004643	0.00027048	0.00011602	1224.3	5.5842e-06	6.2912e-06	1236.6	324.98	3.3048e-06	5.708e-06	381.11	129.87	110.65	38.14	3.5736e-06	48.13	0.00042228	0.00040174	0.00011307	1232.6	4.4688e-06	4.3793e-06	1248.3	329.7	4.402e-06	4.3692e-06	384.34	132.01	112.45	39.032	4.3445e-06	48.996	228.179	167.176	225.587	135.824	278.830	292.503	135.735	140.793	285.860	258.243	139.964	144.488	145.218	149.398	299.735	148.361	-8191	255	
1468.698	1	1	0	0	0.10388	0.10305	0.29237	0.12786	0.16688	0.31134	0.1512	0.31019	0.39385	0.27708	0.081117	0.15175	0.34597	0.15563	0.24342	0.31759	-3.0708	-3.2646	-2.9354	-3.6458	-2.9917	-3.1437	-3.6854	-3.2125	-3.4813	-3.2687	-3.0625	-3.5479	-2.8542	-3.3854	-3.5271	-2.9042	144.049	136.131	241.181	480.299	452.741	157.631	438.981	470.461	356.997	181.454	155.203	398.356	392.865	386.749	437.703	412.059	0.00042132	0.00048256	0.00021018	1223.2	4.9478e-06	8.3111e-06	1240.8	325.96	4.1635e-06	2.8635e-06	379.93	130.47	111.27	38.39	5.1012e-06	48.276	0.00041392	0.00039518	0.00011153	1233.2	4.4067e-06	4.3156e-06	1249.1	330.44	4.395e-06	4.3507e-06	385.01	132.02	112.71	39.079	4.3181e-06	49.008	224.923	233.814	231.695	135.834	278.971	269.640	135.833	140.804	300.095	207.232	139.970	144.763	145.131	149.589	257.735	148.663	-8191	255	
1468.794	1	1	0	0	0.056006	0.18479	0.075401	0.16272	0.047465	0.31623	0.045191	0.2387	0.14202	0.16989	0.10703	0.081662	0.071795	0.17235	0.15302	0.095682	-3.25	-3.1875	-2.8292	-3.7104	-3.0187	-3.2125	-3.6021	-2.95	-3.3417	-3.4729	-2.9083	-3.6833	-3.125	-3.1917	-3.6771	-2.9708	196.587	446.320	318.925	325.325	266.519	158.070	411.782	449.537	372.976	376.566	459.514	383.457	360.193	462.026	173.587	370.772	0.00046999	0.00054028	0.0001502	1226.1	6.0771e-06	4.2516e-06	1238.5	326.05	3.2858e-06	4.8439e-06	379.93	129.94	111.74	38.442	3.919e-06	48.428	0.00040789	0.00039378	0.00011046	1235.1	4.3e-06	4.3733e-06	1249.2	331	4.3355e-06	4.2999e-06	385.44	132.14	112.81	39.176	4.2753e-06	49.144	222.610	219.647	184.739	135.768	253.840	249.132	135.741	140.884	274.213	258.889	139.938	144.587	145.175	149.545	317.724	148.740	-8191	255	
1468.891	1	1	0	0	0.080785	0.12727	0.30484	0.089673	0.22644	0.21624	0.12528	0.24958	0.096983	0.079098	0.091959	0.08443	0.24169	0.27191	0.25205	0.1124	-3.0333	-3.4292	-2.8875	-3.7146	-3.1562	-2.9333	-3.7875	-3.0708	-3.1979	-3.3833	-2.9771	-3.7375	-3.275	-3.1083	-3.4021	-2.8563	343.002	401.217	345.543	240.203	172.670	366.617	338.993	382.904	270.446	423.694	144.067	172.685	448.080	402.457	289.104	371.980	0.0004866	0.00056158	4.7152e-05	1231.3	7.1755e-06	3.9779e-06	1242.4	326.45	5.3016e-06	4.3483e-06	381.78	130.4	110.86	38.419	4.8056e-06	48.038	0.00041126	0.0003844	0.00010932	1237	4.3339e-06	4.2467e-06	1252.2	330.68	4.3242e-06	4.2243e-06	385.82	132.32	112.81	39.238	4.2852e-06	49.007	224.283	193.237	171.150	135.783	278.591	254.575	135.981	140.831	267.411	290.235	140.177	144.611	145.311	149.438	317.623	148.534	-8191	255	
1468.987	1	1	0	0	0.10585	0.20341	0.18062	0.16507	0.17125	0.26067	0.14128	0.27705	0.18522	0.20444	0.22753	0.09101	0.097031	0.43424	0.15779	0.097179	-3.0021	-3.4083	-2.8125	-3.4583	-3.2812	-2.8312	-3.8729	-3.1354	-3.0854	-3.4396	-2.9042	-3.5438	-3.3688	-3.1396	-3.5292	-3.1833	154.938	152.738	464.374	414.228	380.870	212.270	411.021	420.267	407.808	459.988	469.810	328.454	124.724	393.157	350.734	149.739	0.00046526	0.0003886	9.0572e-05	1220.8	3.4001e-06	3.406e-06	1240.4	326.62	3.4004e-06	4.8204e-06	380.67	130.42	111.39	38.479	4.2024e-06	48.176	0.00039966	0.000385	0.00010841	1235.9	4.2054e-06	4.2336e-06	1249.5	330.38	4.1792e-06	4.1712e-06	385.6	132.4	112.95	39.283	4.2029e-06	49.059	225.394	179.740	223.787	135.723	290.937	233.934	135.658	140.843	262.557	301.333	140.183	144.616	145.353	149.570	275.394	148.776	-8191	255	
1469.107	1	1	0	0	0.039088	0.22926	0.12449	0.057835	0.12565	0.10496	0.050579	0.04008	0.088791	0.15783	0.36339	0.16874	0.053652	0.0031691	0.12448	0.23895	-2.9167	-3.5958	-2.7708	-3.7	-3.3125	-2.9562	-3.8125	-3.1042	-2.9771	-3.5687	-2.85	-3.4083	-3.4313	-3.0396	-3.4917	-3.0521	332.534	293.894	125.743	416.533	152.824	138.500	174.731	303.966	332.691	349.848	447.464	394.014	288.397	195.877	354.702	398.482	0.00048793	0.00029184	0.00023452	1227.8	2.7019e-06	2.7097e-06	1239.1	327.15	4.3588e-06	3.0728e-06	379.52	130.18	111.02	38.579	5.4416e-06	48.108	0.00040679	0.00037868	0.00010795	1237	4.2576e-06	4.2383e-06	1249.5	330.81	4.3116e-06	4.1577e-06	384.6	132.18	112.76	39.25	4.1897e-06	48.995	222.165	252.605	236.795	135.675	319.036	288.189	135.818	140.774	280.242	232.671	140.109	144.469	144.690	149.429	266.485	148.672	-8191	255	
1469.179	1	1	0	0	0.15754	0.16267	0.21924	0.42746	0.050478	0.059753	0.11681	0.20963	0.34704	0.16318	0.068896	0.030565	0.14091	0.18379	0.20543	0.052086	-2.7354	-3.6625	-2.7292	-3.4542	-3.4833	-2.8563	-3.8208	-3.3312	-2.9208	-3.7167	-3.1063	-3.1625	-3.6125	-2.8979	-3.5687	-3.3688	429.661	461.610	208.882	476.148	332.550	367.502	377.728	448.228	136.245	221.730	432.422	139.207	301.676	349.918	369.455	374.282	0.00046532	0.00070615	0.0001297	1226.7	4.876e-06	2.713e-06	1240.7	325.39	3.7315e-06	5.6239e-06	382.58	130.63	111.51	38.5	2.0881e-06	48.018	0.00040641	0.00038033	0.00010896	1236	4.2139e-06	4.1048e-06	1251	330.21	4.2527e-06	4.1673e-06	385.68	132.4	112.87	39.219	4.1737e-06	49.055	223.393	179.306	215.926	135.817	274.772	220.958	135.579	140.784	304.065	291.930	139.902	144.662	144.994	149.752	323.086	148.799	-8191	255	
1469.275	1	1	0	0	0.09363	0.043232	0.09482	0.20849	0.36097	0.2944	0.15611	0.22975	0.20621	0.16152	0.20888	0.15274	0.28535	0.16617	0.31466	0.15753	-2.5812	-3.5396	-3.0292	-3.3	-3.6083	-2.7417	-3.5812	-3.4938	-2.9021	-3.6917	-3.1813	-3.2313	-3.7146	-2.9437	-3.3458	-3.45	328.898	386.594	451.628	462.134	281.597	282.077	424.671	175.696	277.560	158.107	311.116	326.663	330.977	213.662	250.129	244.333	0.00047649	0.00035326	0.00012308	1226.5	4.6126e-06	2.9716e-06	1238.3	326.57	3.5633e-06	4.9117e-06	381.44	130.07	111.09	38.314	4.4194e-06	48.069	0.00040282	0.00037462	0.00010496	1234.9	4.2071e-06	4.2284e-06	1250.3	330.41	4.2062e-06	4.0598e-06	384.7	132.44	112.75	39.097	4.1881e-06	49.026	222.031	268.066	228.869	135.755	297.062	405.506	135.646	140.913	299.785	266.833	140.107	144.617	145.245	149.784	292.862	148.477	-8191	255	
1469.371	1	1	0	0	0.18576	0.14978	0.26198	0.3651	0.27086	0.10609	0.085267	0.27973	0.22967	0.20478	0.29694	0.21718	0.1486	0.28291	0.23162	0.074667	-2.4292	-3.4583	-3.0771	-3.1604	-3.7625	-2.8917	-3.4938	-3.5083	-2.6396	-3.7333	-3.1562	-2.9042	-3.7583	-2.8833	-3.275	-3.5354	263.925	411.288	462.569	445.720	384.137	383.397	298.957	449.473	240.271	326.483	443.803	373.455	455.056	479.679	199.340	163.039	0.00045306	0.00032795	0.00010981	1222.3	1.3745e-06	5.7619e-06	1241.5	326.06	3.5462e-06	2.9827e-06	378.85	130.33	110.99	38.304	4.8188e-06	48.232	0.00039588	0.00038377	0.00010572	1235.2	4.2536e-06	4.2036e-06	1248.8	330.1	4.304e-06	4.1581e-06	384.18	132.21	112.53	39.077	4.2417e-06	49.052	221.640	227.207	222.677	135.802	285.254	270.920	135.595	140.856	282.715	230.200	139.896	144.568	145.135	149.473	281.973	148.897	-8191	255	
1469.490	1	1	0	0	0.17726	0.15709	0.16919	0.36034	0.1577	0.15771	0.38682	0.116	0.09837	0.13675	0.15008	0.33657	0.13387	0.067221	0.030462	0.27837	-2.5479	-3.4854	-3.0875	-3.0812	-3.7729	-2.9833	-3.4396	-3.7104	-2.9604	-3.5875	-3.3	-3.0771	-3.5687	-3.0333	-3.1375	-3.6958	366.559	317.019	479.224	442.270	349.983	403.294	349.494	399.829	285.677	420.516	168.313	159.574	125.648	367.194	353.249	438.359	0.00047668	0.00019639	0.00013809	1221.8	5.9481e-06	4.7406e-06	1238.5	326.08	4.3122e-06	5.4479e-06	378.26	130.89	110.9	38.215	4.834e-06	48.117	0.00040119	0.00037085	0.00010555	1232.8	4.1892e-06	4.1086e-06	1247.9	330.1	4.2052e-06	4.1737e-06	384.05	132.43	112.53	39.139	4.2544e-06	49.024	221.940	185.776	230.060	135.869	282.118	263.674	135.763	140.753	290.132	271.233	139.950	144.803	145.120	149.644	293.281	148.801	-8191	255	
1469.586	1	1	0	0	0.29571	0.097834	0.072112	0.18993	0.07175	0.19715	0.10645	0.067163	0.13529	0.20019	0.20845	0.084856	0.16463	0.29296	0.084906	0.087887	-2.6188	-3.3979	-3.1708	-3.0521	-3.7938	-3.0146	-3.3021	-3.6312	-2.7729	-3.4354	-3.4208	-2.9354	-3.6646	-3.1813	-3.1042	-3.775	133.640	398.426	132.614	466.715	482.720	129.936	379.919	361.398	286.909	222.664	448.019	218.690	199.303	472.628	383.038	470.226	0.00045347	0.00050518	0.0002184	1222.9	4.8593e-06	6.4562e-06	1235.9	326.45	3.1822e-06	5.0723e-06	380.66	130.19	111.36	38.422	6.4406e-06	48.139	0.00039632	0.00037446	0.00010428	1231.8	4.1394e-06	4.123e-06	1245.6	330.61	4.0411e-06	4.0641e-06	384.76	132.32	112.88	39.163	4.0768e-06	49.161	226.520	230.059	195.996	135.879	251.730	283.262	135.663	140.903	304.708	273.722	140.026	144.516	145.144	149.676	291.426	148.544	-8191	255	
1469.684	1	1	0	0	0.17121	0.086984	0.21282	0.091056	0.16605	0.22108	0.12732	0.11836	0.062315	0.10145	0.12276	0.071969	0.20722	0.1223	0.13255	0.091919	-2.4167	-3.3833	-3.4521	-2.9188	-3.5812	-3.2667	-3.3063	-3.7875	-2.7875	-3.3438	-3.5375	-2.9583	-3.7687	-3.1646	-2.9333	-3.675	295.130	440.744	431.232	449.147	435.520	261.789	166.730	228.330	338.890	207.676	196.808	394.689	136.335	306.936	314.556	149.407	0.0004721	0.00063773	0.00012781	1225	3.3102e-06	9.5262e-07	1238.6	325.77	3.0754e-06	2.6651e-06	381.26	129.9	110.93	38.567	2.8073e-06	48.358	0.00038727	0.00036577	0.00010375	1233.6	4.1019e-06	3.9887e-06	1248.2	330.29	4.0634e-06	4.064e-06	384.89	132.18	112.77	39.158	4.0876e-06	49.187	224.973	214.770	229.713	135.812	277.796	385.141	135.756	140.824	289.327	245.222	140.089	144.548	145.048	149.527	260.277	148.875	-8191	255	
1469.779	1	1	0	0	0.12766	0.33251	0.09587	0.2822	0.049695	0.10325	0.097769	0.26403	0.21876	0.14728	0.41522	0.23138	0.10541	0.14345	0.14047	0.15811	-2.6104	-3.2292	-3.4125	-3.0312	-3.5083	-3.3667	-3.0042	-3.6375	-2.9479	-3.0771	-3.6917	-2.9375	-3.4646	-3.2646	-2.9104	-3.6479	126.653	295.760	277.248	134.052	133.259	172.903	384.868	456.973	221.745	271.582	468.978	437.007	334.014	125.688	444.442	387.547	0.00048776	0.00035846	1.7649e-05	1222.8	4.737e-06	3.339e-06	1238	326.81	3.6497e-06	6.6405e-06	379.58	130.36	111.23	38.359	2.9506e-06	48.486	0.00038874	0.00036661	0.00010228	1232.6	4.0969e-06	4.0554e-06	1247.8	330.49	4.0796e-06	4.0302e-06	384.92	132.52	113.03	39.138	4.1247e-06	49.223	221.800	221.135	127.823	135.940	302.142	243.590	135.751	140.834	275.561	285.774	139.920	144.656	145.273	149.672	280.837	148.832	-8191	255	
1469.875	1	1	0	0	0.11239	0.098058	0.064786	0.34464	0.25897	0.033869	0.3104	0.24937	0.10538	0.22676	0.16622	0.077574	0.12577	0.13277	0.065408	0.11706	-2.5604	-3.1396	-3.3792	-3.0125	-3.4562	-3.5042	-2.9062	-3.8354	-3.075	-3.0708	-3.7938	-2.9146	-3.5354	-3.3312	-2.9938	-3.6792	123.909	140.468	171.524	437.756	239.365	164.794	412.756	290.584	479.936	354.915	137.827	208.706	149.232	200.956	149.588	435.094	0.0004604	0.00048024	0.00017626	1222.7	3.6036e-06	3.1271e-06	1236.7	326.56	4.5436e-06	5.9817e-06	379.69	130.42	111.46	38.447	4.5279e-06	48.3	0.00038438	0.00036463	0.00010274	1231.8	4.1064e-06	3.9989e-06	1247.5	330.76	4.0194e-06	4.0506e-06	385.18	132.4	112.94	39.118	4.0143e-06	49.178	222.501	196.996	227.812	135.819	294.095	238.443	135.568	140.950	279.560	252.868	140.281	144.589	145.050	149.549	292.650	148.554	-8191	255	
1469.971	1	1	0	0	0.057662	0.23576	0.10307	0.17995	0.093219	0.089072	0.11951	0.13873	0.37003	0.1037	0.42969	0.070548	0.11268	0.02645	0.22775	0.03281	-2.7229	-3	-3.7354	-2.9833	-3.1521	-3.5708	-3.0021	-3.6458	-3.1542	-2.9167	-3.7313	-2.8708	-3.2938	-3.4708	-2.6813	-3.8104	262.993	154.346	448.259	428.667	321.139	137.363	264.229	343.414	433.910	327.865	412.167	345.864	230.842	157.505	346.678	326.532	0.00049101	0.00044643	0.00012404	1222.6	4.4206e-06	2.7698e-06	1238	326.28	3.2062e-06	3.3351e-06	382.22	130.46	111.12	38.5	4.4825e-06	48.429	0.00038539	0.0003577	0.00010035	1234.3	3.9891e-06	3.9646e-06	1248.2	330.64	3.9521e-06	3.9763e-06	385.2	132.54	112.89	39.228	3.9375e-06	49.208	227.304	192.071	224.702	135.594	250.077	255.661	135.786	140.753	298.232	269.482	140.191	144.732	144.867	149.530	284.354	148.931	-8191	255	
1470.092	1	1	0	0	0.18693	0.16487	0.13384	0.17855	0.064647	0.18777	0.28309	0.3048	0.15765	0.25831	0.30617	0.34195	0.1993	0.15549	0.028841	0.13175	-2.8771	-2.8917	-3.6292	-2.9604	-3.1375	-3.45	-2.925	-3.7687	-3.4521	-2.9375	-3.6625	-3.0396	-3.1833	-3.7417	-2.7979	-3.4813	239.372	405.520	219.700	438.375	259.170	143.519	481.676	420.933	289.995	216.474	460.622	143.011	214.741	320.830	269.230	370.401	0.00050486	0.00030319	4.4496e-05	1220.6	5.3635e-06	7.6162e-06	1239.7	326.32	4.6201e-06	4.6951e-06	379.11	130.67	111.71	38.456	5.0151e-06	48.306	0.00038168	0.00036542	0.00010042	1232	4.0137e-06	3.8592e-06	1247.2	330.9	3.9531e-06	3.9867e-06	384.58	132.35	113.14	39.227	3.9257e-06	49.159	221.432	184.094	217.060	135.699	277.740	283.489	135.711	140.545	293.906	245.107	140.071	144.755	145.093	149.692	274.366	148.344	-8191	255	
1470.188	1	1	0	0	0.20404	0.31236	0.15934	0.13857	0.1756	0.23058	0.46475	0.20314	0.11586	0.12161	0.29228	0.21672	0.22849	0.44899	0.35649	0.087847	-3.1604	-2.7771	-3.475	-3.2333	-2.9313	-3.4917	-2.8521	-3.3167	-3.4104	-3.0417	-3.6875	-3.2417	-3.1271	-3.5938	-2.8792	-3.2854	381.542	141.361	310.198	148.229	325.551	265.135	409.375	471.618	373.505	201.364	139.477	187.260	232.336	412.994	455.137	364.215	0.00044938	0.00047785	0.0001898	1225.8	4.9153e-06	4.6849e-06	1239	325.98	3.7426e-06	2.3415e-06	380.54	130.68	111.19	38.406	4.5367e-06	48.097	0.00038191	0.00036509	0.00010045	1233.6	4.06e-06	3.944e-06	1246.1	330.39	3.9986e-06	4.0261e-06	385.17	132.28	112.76	39.174	3.957e-06	49.124	225.309	255.128	227.258	135.836	279.298	202.418	135.890	140.578	295.368	256.022	139.718	144.792	144.845	149.923	257.316	148.456	-8191	255	
1470.284	1	1	0	0	0.10819	0.12962	0.041932	0.30283	0.14322	0.086566	0.19187	0.052262	0.28886	0.17905	0.20436	0.040977	0.1866	0.11663	0.37901	0.27205	-3.075	-2.9083	-3.4688	-3.4396	-2.8333	-3.6146	-3.0312	-3.3875	-3.5958	-2.9625	-3.5979	-3.3208	-2.9833	-3.6521	-2.9354	-3.1646	431.061	152.610	170.862	351.601	358.814	255.357	476.071	340.719	443.212	445.019	387.757	424.601	412.244	180.895	451.130	426.594	0.00047473	0.00050516	0.0001198	1219.6	2.5139e-06	3.4175e-06	1240.4	325.72	3.1652e-06	1.7644e-06	379	130.44	111.25	38.563	7.6973e-06	48.118	0.00038308	0.00036365	9.9838e-05	1230.6	4.1097e-06	3.9195e-06	1245.2	330.41	3.9518e-06	3.9969e-06	384.68	132.24	112.75	39.194	3.9302e-06	49.092	226.184	224.496	210.643	135.864	235.236	229.496	135.729	140.773	251.217	283.525	140.083	144.993	144.969	149.605	262.248	148.595	-8191	255	
1470.405	1	1	0	0	0.10506	0.08696	0.34852	0.091617	0.065171	0.14361	0.2018	0.18176	0.12899	0.16004	0.25293	0.24336	0.21149	0.14322	0.15561	0.25864	-3.1104	-2.9938	-3.5958	-3.5438	-2.8792	-3.5938	-3.15	-3.2333	-3.5042	-2.8521	-3.4167	-3.6104	-2.8625	-3.6021	-3.0771	-3.1875	341.718	396.174	219.570	365.721	301.266	202.419	158.972	337.567	212.864	359.777	442.985	403.676	140.441	419.569	359.656	447.075	0.00045737	0.00068533	7.7659e-05	1220.9	3.7467e-06	1.698e-06	1233.9	327.75	3.352e-06	2.1434e-06	381.07	130.69	111.13	38.586	2.1855e-06	48.393	0.00037472	0.00036039	9.8761e-05	1231.7	3.9055e-06	3.8524e-06	1245.9	330.68	3.9059e-06	3.904e-06	384.23	132.44	112.78	39.216	3.8581e-06	49.232	226.911	214.975	166.780	135.995	319.953	224.744	135.809	140.730	277.704	257.193	139.958	144.505	144.928	149.658	212.479	148.608	-8191	255	
1470.476	1	1	0	0	0.23001	0.082335	0.083778	0.24345	0.11137	0.12278	0.18103	0.1352	0.19738	0.052861	0.12767	0.1046	0.33796	0.2137	0.014119	0.15683	-3.2979	-2.975	-3.2042	-3.5479	-2.9333	-3.725	-3.225	-3.175	-3.7375	-2.8604	-3.5187	-3.5917	-2.9771	-3.6771	-3.2292	-3.0896	255.157	257.712	456.044	434.180	209.033	215.831	429.872	401.209	197.388	319.282	278.665	459.198	421.745	476.982	182.836	137.628	0.00049798	0.00039671	7.8217e-05	1222.4	5.5728e-06	4.1624e-06	1238.6	326.52	4.6922e-06	5.5277e-06	379.99	130.87	111.3	38.684	5.4779e-06	48.23	0.00037859	0.00034707	9.6801e-05	1230.8	3.9746e-06	3.851e-06	1246	330.62	3.8228e-06	3.9042e-06	385.09	132.58	112.96	39.323	3.8932e-06	49.173	226.430	203.464	217.387	135.999	274.220	270.224	135.780	140.764	284.321	281.663	139.720	144.613	144.877	149.683	291.626	148.729	-8191	255	
1470.572	1	1	0	0	0.13893	0.10504	0.049228	0.29738	0.051668	0.213	0.052028	0.28448	0.31722	0.050747	0.29122	0.27913	0.18563	0.20616	0.23335	0.081511	-3.2146	-3.0583	-3.2021	-3.5812	-2.8312	-3.55	-3.4167	-3.1167	-3.6562	-2.9875	-3.3375	-3.6292	-2.8271	-3.7167	-3.4104	-3.0563	202.023	269.235	222.187	471.504	137.832	157.887	391.256	144.486	311.370	175.669	334.498	460.363	469.409	406.762	167.636	227.596	0.00048995	0.00053654	0.00019899	1219.9	6.1788e-06	5.0918e-06	1232.9	326.71	3.6685e-06	4.3702e-06	380.83	130.5	111.76	38.541	5.1518e-06	48.668	0.00037563	0.00035468	9.7853e-05	1231.3	3.8828e-06	3.8088e-06	1244.4	330.29	3.8507e-06	3.7547e-06	385.05	132.48	112.83	39.273	3.8411e-06	49.209	220.759	243.265	215.126	136.076	250.810	290.878	135.671	140.693	290.209	267.711	140.008	144.562	144.879	149.438	269.750	148.609	-8191	255	
1470.667	1	1	0	0	0.14544	0.053061	0.13876	0.18648	0.29551	0.083409	0.14745	0.2085	0.050831	0.094016	0.10662	0.023259	0.1545	0.13649	0.12353	0.14911	-3.4667	-2.9188	-3.2438	-3.8167	-2.8125	-3.5229	-3.6125	-3.0521	-3.4875	-3.0354	-3.15	-3.7792	-2.8708	-3.4125	-3.6063	-2.7125	225.733	363.710	356.450	404.275	468.092	162.448	454.190	363.545	413.341	223.826	401.289	337.465	389.898	445.001	425.295	371.114	0.00045435	0.000698	5.1827e-05	1222.8	4.0877e-06	3.1803e-06	1239.4	326.86	5.0301e-06	5.167e-06	382.82	131.01	111.09	38.622	4.5178e-06	48.132	0.00037085	0.0003487	9.9151e-05	1231.7	3.9466e-06	3.8548e-06	1246	330.63	3.8645e-06	3.7892e-06	385.34	132.38	112.76	39.201	3.8518e-06	49.068	222.651	193.016	201.278	135.687	253.442	248.541	135.950	140.730	260.887	240.646	140.011	144.879	145.025	149.941	297.114	148.480	-8191	255	
1470.787	1	1	0	0	0.10958	0.13816	0.017576	0.11402	0.10118	0.13168	0.24379	0.17731	0.033053	0.13504	0.25848	0.092576	0.32887	0.1286	0.094204	0.067444	-3.2083	-3.0979	-3.0187	-3.8187	-2.9479	-3.2375	-3.8312	-2.7958	-3.5708	-3.1854	-3.2083	-3.7938	-3.1292	-3.3333	-3.6333	-2.9479	314.324	185.986	260.827	478.266	237.937	193.205	395.377	412.040	293.513	276.148	465.623	156.076	127.801	403.539	332.020	147.379	0.00044892	0.00039679	9.7862e-05	1219.4	4.0087e-06	2.23e-06	1232.3	326.93	5.1723e-06	5.6368e-06	380.69	130.36	111.37	38.654	4.6061e-06	48.229	0.00036816	0.00034639	9.7875e-05	1229.7	3.8997e-06	3.8331e-06	1244.4	330.66	3.8184e-06	3.7926e-06	384.95	132.64	112.86	39.253	3.7728e-06	49.124	225.394	237.222	199.510	136.041	286.810	317.891	135.782	140.447	277.776	276.150	139.741	144.528	145.053	149.637	298.315	148.776	-8191	255	
1470.884	1	1	0	0	0.091396	0.18116	0.068459	0.19784	0.17812	0.11758	0.14533	0.17402	0.078322	0.23182	0.015796	0.071109	0.060261	0.22724	0.19685	0.18583	-3.1771	-3.2896	-2.8	-3.7771	-2.7438	-3.3375	-3.6979	-2.9771	-3.4542	-3.3375	-3.0208	-3.725	-3.1958	-3.3208	-3.4833	-2.9375	374.293	457.006	475.302	152.037	346.010	347.769	402.852	170.174	146.813	339.997	126.865	239.278	335.596	390.507	400.442	439.669	0.00044272	0.00057784	0.00016314	1225.2	7.3908e-06	4.153e-06	1237.3	326.76	4.102e-06	2.8944e-06	379.91	131.45	111.7	38.596	6.3472e-06	48.098	0.00036944	0.00033902	9.7584e-05	1232.9	3.8276e-06	3.8789e-06	1246.3	330.58	3.8438e-06	3.8308e-06	384.71	132.73	113.03	39.272	3.7702e-06	49.113	222.672	202.299	225.754	135.883	260.436	294.779	136.029	140.910	268.348	234.163	140.113	144.633	145.217	149.534	274.530	148.661	-8191	255	
1470.980	1	1	0	0	0.20408	0.15016	0.10924	0.054125	0.24896	0.23699	0.055258	0.036654	0.1542	0.18669	0.12414	0.064753	0.15638	0.24594	0.06516	0.14491	-3.0708	-3.55	-2.8646	-3.7271	-2.9688	-3.1292	-3.8063	-2.8833	-3.4167	-3.3708	-2.9125	-3.7729	-3.2458	-3.1104	-3.5667	-2.9917	200.744	170.797	325.663	172.452	457.629	370.428	353.342	351.585	205.366	351.343	155.198	480.551	309.569	434.370	307.930	144.101	0.00047873	0.00038695	9.3323e-05	1221.8	2.6109e-06	4.412e-06	1233.2	325.99	4.8951e-06	4.5584e-06	382.5	131.15	111.87	38.602	5.1589e-06	48.202	0.00037341	0.00034214	9.931e-05	1232.8	3.8219e-06	3.7929e-06	1244.7	330.75	3.8654e-06	3.8008e-06	385.71	132.68	113.09	39.308	3.7805e-06	49.173	220.777	186.206	231.985	135.731	267.623	296.979	135.479	140.642	299.194	319.422	139.769	144.869	145.077	149.672	258.746	148.443	-8191	255	
1471.051	1	1	0	0	0.40643	0.24424	0.14256	0.1627	0.18859	0.16136	0.095462	0.13802	0.14939	0.10807	0.074575	0.38411	0.30537	0.19613	0.10859	0.14829	-3.0812	-3.3917	-2.9562	-3.7042	-3.1375	-3.0229	-3.6542	-2.9917	-3.2125	-3.5542	-2.9708	-3.4375	-3.3375	-2.8708	-3.6917	-2.9333	163.827	180.599	417.334	392.610	294.907	386.749	393.455	413.727	207.008	288.703	132.080	422.120	223.657	126.311	296.122	458.845	0.00046361	0.00052985	0.00017117	1223.2	3.8175e-06	4.8605e-06	1242.7	327.38	2.747e-06	6.2306e-06	380.93	130.76	110.98	38.546	4.436e-06	48.612	0.00037032	0.00034356	9.5477e-05	1232.4	3.803e-06	3.8325e-06	1248.6	331.23	3.7801e-06	3.7651e-06	384.89	132.55	112.96	39.252	3.7703e-06	49.23	221.532	211.731	236.877	135.768	271.322	295.182	135.872	140.664	279.513	301.042	140.015	144.754	145.333	149.649	247.122	148.625	-8191	255	
1471.172	1	1	0	0	0.082593	0.098439	0.12182	0.30889	0.20988	0.16096	0.10117	0.15814	0.035195	0.16842	0.28248	0.35213	0.073685	0.10416	0.21237	0.34397	-2.95	-3.4604	-2.8	-3.5438	-3.3417	-2.9979	-3.7792	-3.0917	-3.1167	-3.5604	-3.1583	-3.6125	-3.3958	-2.975	-3.5187	-3.1042	463.150	367.480	232.856	440.508	396.142	204.983	465.942	421.705	331.364	340.549	379.106	418.000	302.491	343.112	365.099	415.436	0.00048264	0.00027342	0.00018142	1223.2	4.6874e-06	2.2973e-06	1241.2	326.76	2.9036e-06	3.1632e-06	382.81	130.79	111.75	38.827	5.2634e-06	48.308	0.0003635	0.00033964	9.8027e-05	1231.1	3.8584e-06	3.7606e-06	1247.7	330.38	3.7888e-06	3.7684e-06	385.99	132.53	112.97	39.285	3.7532e-06	49.16	224.905	213.699	223.633	135.700	282.443	264.716	135.835	140.611	292.033	285.449	139.891	144.492	145.192	149.551	256.359	148.873	-8191	255	
1471.268	1	1	0	0	0.085397	0.10114	0.14729	0.2558	0.1282	0.087434	0.13151	0.14906	0.038603	0.32619	0.035238	0.16445	0.41091	0.2475	0.17563	0.053746	-2.6688	-3.6104	-2.8146	-3.5396	-3.3792	-3	-3.8438	-3.2771	-2.7875	-3.7208	-2.9354	-3.2333	-3.7458	-2.9125	-3.7188	-3.2146	181.070	138.101	217.342	454.594	254.516	129.778	367.114	434.805	206.925	476.887	419.399	129.638	464.805	449.349	297.515	406.839	0.00045936	0.00059088	9.5548e-05	1220.4	3.3526e-06	5.0987e-06	1238.7	327.17	3.2911e-06	6.8164e-06	380.14	130.86	111.69	38.619	5.5911e-06	48.157	0.00035817	0.0003442	9.5261e-05	1231.5	3.7234e-06	3.7039e-06	1245.9	330.81	3.7157e-06	3.6765e-06	384.82	132.5	113.07	39.24	3.7475e-06	49.033	217.993	239.101	203.002	135.725	278.430	278.767	135.631	140.712	283.614	253.008	140.153	144.891	145.423	149.813	240.631	148.577	-8191	255	
1471.364	1	1	0	0	0.14982	0.24795	0.32504	0.20409	0.19815	0.098205	0.21136	0.13932	0.15405	0.17763	0.21581	0.42894	0.26398	0.055272	0.14102	0.30751	-2.5125	-3.5271	-2.7646	-3.4979	-3.4354	-2.8604	-3.6667	-3.3312	-2.925	-3.6188	-2.9542	-3.2146	-3.4604	-2.8146	-3.5333	-3.4292	478.885	453.602	172.495	433.961	430.176	155.445	360.699	408.108	216.608	315.155	457.395	437.638	482.731	182.711	319.568	445.294	0.00044256	0.00017107	8.5102e-05	1220.5	6.5804e-06	7.603e-06	1236.2	325.57	2.2914e-06	5.426e-06	381.8	130.13	111.28	38.392	4.2271e-06	48.541	0.00036625	0.00033901	9.5932e-05	1231.5	3.8088e-06	3.7367e-06	1246.1	330.15	3.8487e-06	3.6955e-06	384.74	132.3	112.83	39.244	3.7626e-06	49.11	219.814	257.019	223.695	135.815	276.466	295.186	135.765	140.774	252.997	280.370	139.971	144.282	145.077	149.686	294.150	148.581	-8191	255	
1471.485	1	1	0	0	0.1525	0.14467	0.047057	0.046234	0.02277	0.30504	0.062331	0.18359	0.13064	0.19137	0.16658	0.4164	0.28085	0.29762	0.157	0.23916	-2.4896	-3.8125	-2.9688	-3.2854	-3.6708	-2.8312	-3.5312	-3.5646	-2.6021	-3.5625	-3.2208	-3.3354	-3.7438	-3.0521	-3.4313	-3.5292	377.739	320.562	297.521	215.224	239.447	189.259	274.870	432.031	431.414	457.947	462.532	448.705	477.285	339.812	299.804	410.893	0.00044582	0.00044816	0.00013837	1215.4	5.8174e-06	5.9123e-06	1239.6	326.13	5.1676e-06	2.5001e-06	380.84	130.99	111.68	38.449	3.2898e-06	48.268	0.00036465	0.00033951	9.4444e-05	1228.6	3.7917e-06	3.7947e-06	1244.8	330.17	3.8021e-06	3.7111e-06	384.97	132.24	112.96	39.179	3.8124e-06	48.989	223.367	256.253	226.137	135.631	303.931	285.741	135.581	140.780	283.131	259.243	139.892	144.823	145.215	149.575	316.862	148.547	-8191	255	
1471.579	1	1	0	0	0.20325	0.23181	0.13218	0.053743	0.18192	0.19403	0.042628	0.10937	0.17868	0.075347	0.35192	0.12702	0.24552	0.45688	0.19306	0.18457	-2.575	-3.6396	-3.0521	-3.2646	-3.6271	-2.8604	-3.2812	-3.6312	-2.8271	-3.5312	-3.3417	-3.075	-3.6292	-2.8563	-3.0271	-3.5083	390.437	220.192	160.690	442.133	361.300	360.389	353.638	375.259	242.133	335.724	409.587	127.119	144.093	383.238	431.757	472.347	0.00044593	0.0007686	8.93e-05	1225.2	3.7326e-06	4.8162e-06	1232	326.82	4.1418e-06	5.418e-06	379.16	130.28	110.7	38.362	3.3935e-06	48.21	0.00036814	0.00035126	9.6473e-05	1230.7	3.8242e-06	3.8472e-06	1243.6	330.16	3.8812e-06	3.9197e-06	384.27	132.24	112.49	39.116	3.9056e-06	49.012	222.909	228.340	227.979	135.893	241.252	249.062	135.907	140.990	239.284	241.179	140.167	144.537	144.981	149.621	288.204	149.119	-8191	255	
1471.675	1	1	0	0	0.060572	0.025778	0.30827	0.22899	0.075097	0.12489	0.044468	0.15049	0.17523	0.12981	0.1838	0.12192	0.076975	0.35225	0.19499	0.12073	-2.3833	-3.4875	-3.3958	-3.0208	-3.6792	-3.0167	-3.4	-3.6104	-2.8729	-3.4188	-3.3771	-2.9042	-3.6458	-3.0375	-3.2208	-3.7812	209.112	444.185	147.985	159.615	210.378	267.280	360.035	440.923	463.323	446.053	366.855	448.243	452.361	399.726	451.518	482.545	0.00046982	0.00016542	0.00013167	1216.1	6.5428e-06	4.4302e-06	1236.5	326.5	4.7771e-06	3.4684e-06	380.09	130.29	110.94	38.257	4.0345e-06	48.13	0.00037954	0.00035273	9.7694e-05	1228	3.916e-06	3.9178e-06	1243.1	330.04	3.8746e-06	3.8735e-06	384.38	132.38	112.69	39.095	3.9386e-06	49.034	221.466	155.810	179.654	135.885	268.794	246.709	135.774	140.687	243.278	290.293	140.254	144.608	145.064	149.500	291.571	148.665	-8191	255	
1471.772	1	1	0	0	0.063721	0.28769	0.25162	0.37413	0.10565	0.24101	0.27548	0.27929	0.38241	0.39026	0.14063	0.042752	0.084237	0.27386	0.20582	0.35504	-2.5312	-3.1479	-3.4604	-2.925	-3.5229	-3.1333	-2.95	-3.6667	-2.8563	-3.4125	-3.6042	-2.9396	-3.6125	-3.1688	-3.0271	-3.7875	308.468	386.027	343.918	426.286	164.694	287.860	433.778	436.334	332.173	350.867	370.487	284.784	402.572	480.870	307.873	395.757	0.00051423	0.00052362	5.5455e-05	1215.8	3.7897e-06	4.9062e-06	1232.9	326.27	3.3102e-06	5.4884e-06	380.44	130.85	110.65	38.351	5.6619e-06	48.278	0.00037352	0.00034961	9.7239e-05	1228.6	3.8741e-06	3.8814e-06	1241.5	330.28	3.8503e-06	3.8709e-06	384.78	132.35	112.52	39.078	3.8795e-06	49.018	225.836	190.960	189.069	135.643	284.236	302.563	135.842	140.729	299.046	280.165	140.178	144.554	144.939	149.480	281.862	148.673	-8191	255	
1471.868	1	1	0	0	0.10093	0.059343	0.15246	0.03024	0.083659	0.056973	0.23941	0.20134	0.23341	0.1046	0.26243	0.117	0.11721	0.18285	0.32945	0.19696	-2.3958	-3.2792	-3.5896	-2.9313	-3.6229	-3.3396	-3.2396	-3.6688	-3.0542	-3.2333	-3.5771	-2.8021	-3.5958	-3.3312	-2.8292	-3.7708	223.713	163.462	365.588	340.307	436.246	402.436	404.082	420.795	393.373	366.123	181.056	318.799	415.758	227.233	233.224	452.687	0.00047737	0.00036088	9.9231e-05	1216.6	2.2616e-06	4.7324e-06	1230	325.48	2.6988e-06	4.5457e-06	379.88	129.55	111.16	38.467	1.8904e-06	48.094	0.00037557	0.00035619	9.7697e-05	1227.3	3.9137e-06	3.7831e-06	1242.5	330.18	3.8915e-06	3.8891e-06	385.14	132.02	112.61	39.064	3.9466e-06	49.018	226.046	186.284	200.709	135.880	295.662	275.204	135.614	140.884	273.355	274.320	140.189	144.319	144.944	149.837	247.134	148.921	-8191	255	
1471.964	1	1	0	0	0.43404	0.19323	0.088501	0.17141	0.1171	0.11359	0.1341	0.16305	0.22376	0.22888	0.21103	0.36146	0.12628	0.33298	0.12964	0.18652	-2.7354	-3.1146	-3.2771	-2.9292	-3.4688	-3.2562	-2.9479	-3.7021	-3.0979	-3.075	-3.6396	-2.9062	-3.6	-3.5479	-2.9583	-3.6771	157.333	436.709	390.407	432.601	280.415	280.277	143.960	432.660	238.664	476.754	467.457	354.971	461.256	459.583	375.186	438.326	0.00042014	0.00079199	5.8442e-05	1217.9	4.1302e-06	6.2039e-06	1234.7	325.61	3.1429e-06	2.5434e-06	382.61	129.86	110.93	38.434	4.9431e-06	48.105	0.00037689	0.00035366	9.8311e-05	1228.2	3.8598e-06	3.8291e-06	1243.1	330.09	3.934e-06	3.9166e-06	385.16	131.94	112.65	39.163	3.8576e-06	49.099	219.430	206.693	167.294	135.898	286.491	309.739	135.784	140.706	275.052	328.262	139.854	144.605	145.255	149.552	280.201	148.845	-8191	255	
1472.085	1	1	0	0	0.14727	0.11985	0.15953	0.31392	0.23009	0.1864	0.25913	0.36521	0.11666	0.2233	0.17884	0.24055	0.081409	0.071657	0.091901	0.1505	-2.8229	-3.0667	-3.7208	-2.9979	-3.2521	-3.5208	-3.025	-3.7646	-3.0396	-2.9021	-3.7667	-2.9292	-3.35	-3.5625	-2.9521	-3.8021	226.992	185.273	196.799	414.469	407.896	170.717	407.486	441.238	142.497	382.061	467.936	481.132	445.734	453.000	262.169	388.547	0.00047106	0.00042315	0.00017163	1218.1	4.3003e-06	2.2766e-06	1239	327.26	4.069e-06	6.592e-06	380.83	130.53	111.54	38.548	5.1753e-06	48.176	0.00036834	0.00034868	9.6928e-05	1229.1	3.8605e-06	3.7725e-06	1243.9	330.81	3.7644e-06	3.8266e-06	384.48	132.44	112.87	39.202	3.7875e-06	49.083	222.116	208.461	234.771	135.749	267.284	252.621	135.559	140.647	232.113	251.230	139.937	144.361	144.945	149.448	288.860	148.570	-8191	255	
1472.181	1	1	0	0	0.12746	0.091288	0.27555	0.40915	0.23185	0.20372	0.1767	0.22221	0.16246	0.12672	0.2091	0.17269	0.18791	0.14273	0.093723	0.29698	-2.9188	-2.9104	-3.4688	-3.0104	-3.1021	-3.4708	-2.7792	-3.5938	-3.225	-2.7833	-3.6917	-2.9396	-2.9958	-3.6646	-2.7188	-3.5229	183.947	392.010	391.219	432.925	289.786	475.353	427.252	174.443	304.167	374.132	332.368	231.722	165.286	466.016	285.728	205.446	0.00043124	0.00045094	0.00010386	1219.9	4.8226e-06	3.868e-06	1234.5	326.98	4.1071e-06	2.4753e-06	382.55	130.95	111.43	38.461	5.5017e-06	48.403	0.00036233	0.00034079	9.5511e-05	1228.8	3.8589e-06	3.6916e-06	1242.1	330.62	3.8026e-06	3.7143e-06	385.45	132.39	112.84	39.162	3.7991e-06	49.154	223.042	227.328	198.422	135.893	244.411	302.283	135.601	140.818	284.511	279.524	140.121	144.558	145.156	149.608	261.687	148.596	-8191	255	
1472.277	1	1	0	0	0.24725	0.1483	0.099409	0.24764	0.18172	0.21324	0.11781	0.14372	0.17075	0.25811	0.15099	0.10767	0.14525	0.19682	0.20784	0.1651	-2.925	-2.9208	-3.6042	-3.2625	-3.2042	-3.6437	-2.9729	-3.3583	-3.4625	-2.9042	-3.6479	-3.1042	-2.9729	-3.5375	-2.9083	-3.3688	368.151	402.173	181.469	462.795	456.590	232.886	447.729	403.813	413.544	449.375	439.325	146.254	385.462	359.812	214.990	321.663	0.00047049	0.00027838	0.00015131	1221.4	5.0634e-06	3.9819e-06	1234.1	326.66	3.3654e-06	7.5185e-06	381.13	131.06	111.15	38.63	4.4008e-06	48.237	0.00036166	0.00034041	9.4853e-05	1230.1	3.7671e-06	3.6717e-06	1244.1	330.66	3.7237e-06	3.809e-06	385.52	132.74	112.96	39.232	3.7749e-06	49.107	224.428	258.284	208.284	136.092	272.725	217.490	135.628	140.591	279.733	257.584	140.377	144.739	145.278	149.614	237.213	148.995	-8191	255	
1472.349	1	1	0	0	0.24385	0.12118	0.23734	0.10978	0.20941	0.031204	0.2025	0.12083	0.073153	0.18903	0.13402	0.23797	0.020699	0.17433	0.1213	0.14596	-2.9854	-2.75	-3.5146	-3.4146	-2.8979	-3.5042	-3.0167	-3.1646	-3.3979	-2.6417	-3.7542	-3.3	-2.9479	-3.7667	-2.9042	-3.2	467.077	462.291	386.757	130.182	145.945	243.267	377.619	292.416	434.428	437.943	199.803	267.727	470.366	237.944	400.153	192.794	0.00047639	0.00039784	0.00011398	1219.5	4.9684e-06	5.404e-06	1234.2	326.54	4.1689e-06	1.2364e-06	381.51	130.92	111.05	38.563	5.8682e-06	48.285	0.00035653	0.00034399	9.5697e-05	1231.3	3.8702e-06	3.7525e-06	1244.1	330.82	3.8388e-06	3.7996e-06	384.74	132.47	112.93	39.211	3.739e-06	49.065	224.320	155.128	230.601	135.621	276.214	260.089	135.634	140.808	273.387	254.559	139.847	144.535	145.073	149.541	306.277	148.360	-8191	255	
1472.469	1	1	0	0	0.15781	0.13947	0.33757	0.22781	0.11934	0.15458	0.21688	0.059548	0.18225	0.086496	0.12667	0.15421	0.14893	0.31329	0.028097	0.28052	-3.0708	-2.675	-3.4375	-3.2354	-2.8896	-3.5229	-3.2229	-3.1333	-3.5938	-2.7604	-3.275	-3.2729	-2.9771	-3.5396	-3.1167	-3.3042	173.384	334.022	208.085	469.465	231.746	176.169	447.322	456.888	177.328	437.228	163.229	203.044	164.743	448.297	203.306	437.177	0.00047264	0.00035292	0.00011315	1221.6	2.2493e-06	4.1663e-06	1232.2	327.53	3.4623e-06	3.0902e-06	382.03	130.76	111.44	38.601	4.9044e-06	48.374	0.00036305	0.0003385	9.5719e-05	1229.8	3.8224e-06	3.7043e-06	1242.1	331.07	3.7294e-06	3.7981e-06	385.66	132.44	113.06	39.278	3.768e-06	49.164	228.245	214.079	213.338	135.873	244.611	270.601	135.642	140.648	259.974	204.142	139.889	144.506	144.738	149.753	290.101	148.377	-8191	255	
1472.564	1	1	0	0	0.11199	0.015358	0.17676	0.24808	0.1845	0.1142	0.18586	0.46462	0.26785	0.02762	0.18252	0.21069	0.086121	0.20727	0.211	0.14099	-3.2167	-2.7625	-3.4437	-3.6271	-2.8563	-3.6479	-3.225	-2.9813	-3.5208	-2.8937	-3.3312	-3.4938	-2.8333	-3.6229	-3.1979	-2.9542	330.855	299.373	139.375	466.180	213.576	280.606	126.175	423.416	160.693	141.889	400.649	386.590	416.998	386.661	410.039	367.056	0.00048344	0.00046415	0.00010924	1219.1	5.9635e-06	6.3742e-06	1237.8	327.43	3.4474e-06	4.2609e-06	381.15	131.06	111.51	38.604	3.4026e-06	48.288	0.00036906	0.00034465	9.5523e-05	1228.2	3.7694e-06	3.7225e-06	1244.4	330.51	3.8237e-06	3.7701e-06	385.5	132.52	112.97	39.264	3.7891e-06	49.173	222.137	195.935	204.712	135.808	246.275	276.108	135.644	140.619	247.419	274.176	139.681	144.492	145.069	149.387	263.243	148.896	-8191	255	
1472.660	1	1	0	0	0.30591	0.080023	0.1415	0.24328	0.07389	0.066119	0.29752	0.24754	0.22474	0.23112	0.071412	0.14003	0.1982	0.11214	0.067984	0.23226	-3.2917	-2.8292	-3.2708	-3.5583	-2.5958	-3.425	-3.3958	-2.8896	-3.6646	-2.9854	-3.1625	-3.475	-2.8417	-3.4042	-3.3354	-2.85	300.471	309.609	318.831	449.411	355.101	409.895	377.948	437.412	315.922	359.294	133.648	127.393	359.877	463.884	467.060	169.947	0.00046031	0.00050929	0.0001741	1223	6.1469e-06	4.9852e-06	1234.4	328.26	3.3485e-06	5.4227e-06	381.11	130.51	111.51	38.527	6.0195e-06	48.145	0.00037298	0.00034396	9.5763e-05	1231.2	3.8296e-06	3.7398e-06	1244.5	330.92	3.8161e-06	3.826e-06	385.42	132.51	113.04	39.236	3.8463e-06	49.063	224.932	199.608	207.382	135.709	252.177	267.781	135.649	140.821	261.690	264.628	139.896	144.447	145.092	149.774	272.551	148.427	-8191	255	
1472.756	1	1	0	0	0.22099	0.078937	0.16463	0.019825	0.0769	0.11048	0.34959	0.38607	0.064124	0.1864	0.26296	0.091315	0.063328	0.023722	0.11674	0.14402	-3.1542	-2.9313	-3.0167	-3.5438	-2.8917	-3.3479	-3.525	-2.9021	-3.8042	-3.1312	-3.2917	-3.6625	-2.9	-3.6479	-3.2854	-2.9813	219.478	251.469	376.518	445.931	473.827	214.650	400.182	162.734	482.498	148.309	404.571	268.668	442.459	303.923	341.179	420.713	0.0004846	0.00042656	0.00023022	1224.1	4.2723e-06	4.1781e-06	1233.6	326.14	4.5331e-06	7.6734e-06	381.86	131.44	111.48	38.459	3.9884e-06	48.43	0.00036799	0.00034072	9.5856e-05	1232	3.8841e-06	3.7671e-06	1243.3	330.61	3.7836e-06	3.7518e-06	385.35	132.71	112.99	39.199	3.714e-06	49.101	222.190	227.772	219.095	135.933	252.157	268.837	135.715	140.837	270.472	255.002	140.007	144.693	145.252	149.367	270.624	148.535	-8191	255	
1472.852	1	1	0	0	0.22168	0.18995	0.16373	0.13624	0.11111	0.15569	0.2078	0.13385	0.17214	0.23703	0.21365	0.10053	0.1908	0.24613	0.35937	0.17427	-3.1167	-2.9729	-3.0104	-3.8229	-2.7604	-3.4062	-3.5479	-2.8917	-3.5021	-3.2792	-2.9562	-3.6729	-2.9271	-3.3417	-3.4229	-2.9271	257.362	392.931	169.689	306.094	282.332	439.280	443.837	401.859	202.053	413.198	423.981	405.877	403.478	270.091	475.462	449.599	0.00046004	0.00074863	7.9657e-05	1223.2	2.4089e-06	4.8236e-06	1237.3	326.87	5.4191e-06	3.0448e-06	382.84	130.7	111.74	38.581	3.4276e-06	48.25	0.00036411	0.00033888	9.5342e-05	1231.8	3.8012e-06	3.7074e-06	1247	331.34	3.7935e-06	3.7268e-06	385.89	132.6	113.21	39.303	3.7097e-06	49.255	225.120	191.435	206.009	135.934	272.307	299.591	135.725	140.769	276.376	276.381	139.772	144.593	145.132	149.734	285.931	148.451	-8191	255	
1472.948	1	1	0	0	0.075833	0.1781	0.16662	0.25003	0.13365	0.061396	0.24954	0.18926	0.21256	0.18393	0.15329	0.075081	0.28582	0.34787	0.13487	0.14146	-3.0604	-3.0542	-2.8271	-3.6333	-2.8417	-3.1063	-3.5021	-2.7375	-3.3312	-3.3417	-2.9625	-3.6458	-2.8896	-3.1208	-3.4167	-2.9	307.402	369.759	336.291	469.212	434.622	266.668	443.993	458.123	297.519	334.705	359.625	213.458	395.781	423.549	406.108	128.787	0.00046827	0.00038727	0.00010483	1230.8	5.2837e-06	2.5511e-06	1240.5	327.73	4.8863e-06	2.2134e-06	382.09	130.8	112.32	38.656	5.6594e-06	48.237	0.00036567	0.00033485	9.5114e-05	1234.1	3.7965e-06	3.7254e-06	1249.5	331.31	3.7431e-06	3.6925e-06	386.06	132.99	113.43	39.354	3.6499e-06	49.17	222.665	240.928	205.919	135.594	260.024	276.062	135.596	140.767	279.869	220.382	140.015	144.687	145.205	149.669	287.289	148.519	-8191	255	
1473.044	1	1	0	0	0.24676	0.18249	0.1405	0.17978	0.14894	0.16154	0.16554	0.19005	0.22124	0.074453	0.1106	0.15329	0.21028	0.040312	0.11408	0.25183	-2.9417	-3.4979	-2.8104	-3.8479	-2.8542	-3.1312	-3.7292	-2.95	-3.4333	-3.2604	-3.025	-3.5958	-2.8937	-3.0729	-3.4771	-2.9896	420.055	248.241	449.039	481.185	376.293	277.098	431.094	349.366	435.347	151.504	134.154	195.658	468.440	314.820	266.892	141.188	0.00051941	0.00041055	0.00018962	1223.7	5.3141e-06	4.9372e-06	1237.1	328.23	4.1328e-06	2.2435e-06	381.58	131.38	111.94	38.638	4.1348e-06	48.224	0.0003684	0.00033761	9.5078e-05	1232.5	3.7755e-06	3.6887e-06	1245	331.34	3.7621e-06	3.6616e-06	385.86	132.77	113.16	39.278	3.8147e-06	49.099	222.124	206.765	204.796	135.686	271.986	328.030	135.995	140.729	236.235	249.794	139.893	144.870	145.122	149.677	273.828	148.518	-8191	255	
1473.165	1	1	0	0	0.078276	0.38403	0.17899	0.11367	0.13129	0.1412	0.34246	0.34388	0.16609	0.1469	0.20119	0.16408	0.3857	0.052981	0.069721	0.21673	-2.9062	-3.4125	-2.8396	-3.6688	-3.2167	-3.0583	-3.6604	-3.0187	-3.2417	-3.5604	-2.8771	-3.4292	-3.2583	-2.9917	-3.4813	-3.1042	372.145	163.030	473.180	429.999	365.855	369.589	395.235	413.678	147.468	333.666	126.746	260.301	133.836	137.096	474.074	481.991	0.00049789	0.00020564	9.3983e-05	1226.1	1.7253e-06	4.7537e-06	1243.5	328.37	3.0797e-06	5.1211e-06	381.91	131.37	112.07	38.587	6.3109e-06	48.263	0.00036351	0.00034343	9.6772e-05	1234.4	3.7442e-06	3.769e-06	1248.7	331.82	3.7892e-06	3.6474e-06	386.28	133.26	113.48	39.404	3.7081e-06	49.289	222.799	191.024	233.678	135.799	271.599	251.299	135.966	140.689	261.546	246.770	140.267	144.650	145.087	149.408	271.191	148.635	-8191	255	
1473.261	1	1	0	0	0.074629	0.2327	0.23668	0.04864	0.1741	0.10838	0.32921	0.11734	0.19449	0.27003	0.14404	0.21323	0.22378	0.094128	0.23504	0.12875	-2.7687	-3.3979	-2.9542	-3.5125	-3.2771	-2.8542	-3.7792	-3.1958	-3.125	-3.5521	-2.8792	-3.6021	-3.2646	-3.1375	-3.7979	-3.1646	392.008	211.802	208.824	125.734	144.114	311.691	435.456	151.052	458.143	130.246	440.717	404.818	443.859	455.681	224.238	258.329	0.00044674	0.00052441	0.00012473	1224.3	4.3332e-06	4.2618e-06	1241	327.12	5.4341e-06	4.8752e-06	383.38	130.81	111.91	38.707	5.526e-06	48.373	0.00035724	0.00033755	9.5364e-05	1234.6	3.7759e-06	3.6314e-06	1247	331.08	3.7425e-06	3.6784e-06	386.22	132.78	113.29	39.381	3.687e-06	49.278	222.741	230.099	187.949	135.593	275.456	282.169	135.423	140.786	250.740	294.993	139.916	144.632	145.150	149.671	286.364	148.481	-8191	255	
1473.357	1	1	0	0	0.040332	0.10931	0.10395	0.18378	0.12884	0.19608	0.12802	0.10876	0.11876	0.13384	0.31584	0.21036	0.17841	0.2874	0.074927	0.20764	-2.7812	-3.4938	-2.7354	-3.5729	-3.3729	-2.8438	-3.7833	-3.1521	-2.9458	-3.5958	-2.9208	-3.4208	-3.5896	-2.9333	-3.6604	-3.1396	183.773	426.658	177.931	427.023	302.010	264.369	329.620	374.236	207.314	126.403	430.582	366.003	364.154	230.355	394.482	351.191	0.00045227	0.00043749	9.6618e-05	1223.7	6.3453e-06	7.562e-06	1242.3	327.95	4.322e-06	4.5071e-06	383.77	131.59	111.56	38.689	5.2422e-06	48.697	0.00035482	0.00033173	9.3585e-05	1234.7	3.6702e-06	3.6841e-06	1250.3	331.82	3.6773e-06	3.5539e-06	386.77	133.28	113.41	39.44	3.638e-06	49.363	224.927	221.592	216.752	135.662	257.294	259.031	135.649	140.762	301.527	281.553	139.833	144.424	144.996	149.347	258.692	148.756	-8191	255	
1473.453	1	1	0	0	0.29994	0.12616	0.11854	0.17197	0.097014	0.19106	0.32204	0.22055	0.26491	0.053298	0.28831	0.044435	0.21399	0.38413	0.12693	0.19397	-2.6333	-3.5938	-2.825	-3.1792	-3.3438	-3.0938	-3.3937	-3.4083	-2.9396	-3.4813	-3.0542	-3.1167	-3.6312	-2.9562	-3.3167	-3.3083	432.693	202.318	167.216	404.360	454.156	353.859	402.163	441.488	370.042	312.301	437.414	468.518	286.690	471.812	287.928	190.584	0.00047554	0.0002165	0.00015485	1226.9	4.7724e-06	6.476e-06	1237.1	327.8	3.5368e-06	4.6848e-06	382.67	131.59	111.69	38.759	4.5707e-06	48.367	0.00035775	0.00033112	9.531e-05	1234.6	3.6769e-06	3.7342e-06	1245.8	331.77	3.7788e-06	3.653e-06	385.95	132.85	113.5	39.375	3.648e-06	49.183	225.392	237.056	195.487	135.843	249.634	245.021	135.659	140.840	284.512	281.643	140.081	144.550	145.136	149.544	269.669	148.631	-8191	255	
1473.572	1	1	0	0	0.054118	0.099176	0.12767	0.12468	0.23731	0.11952	0.008636	0.32599	0.15117	0.15892	0.22536	0.12139	0.081396	0.31158	0.084249	0.048258	-2.6583	-3.6937	-2.8146	-3.3292	-3.4396	-2.8896	-3.6646	-3.4729	-2.8688	-3.5583	-3.2146	-2.9208	-3.6063	-2.8333	-3.2792	-3.3604	397.725	159.254	294.359	481.984	331.149	242.391	443.102	440.746	217.282	222.698	373.403	391.415	437.505	206.446	285.933	369.295	0.0004525	0.00025442	0.00015004	1226.9	4.0488e-06	4.1065e-06	1243.5	328.54	3.4258e-06	5.7745e-06	384.69	131.92	112.01	38.879	4.2561e-06	48.458	0.00036004	0.00032999	9.3519e-05	1234.8	3.7142e-06	3.6304e-06	1249.8	331.94	3.6732e-06	3.6246e-06	386.5	133.38	113.43	39.442	3.6507e-06	49.354	219.677	233.180	235.103	135.843	253.841	288.879	135.649	140.936	261.309	267.081	139.746	144.452	144.957	149.586	285.750	148.184	-8191	255	
1473.644	1	1	0	0	0.15432	0.25753	0.11551	0.16954	0.119	0.063688	0.29603	0.27836	0.23684	0.080992	0.27654	0.035998	0.14556	0.19122	0.18271	0.097165	-2.4604	-3.4021	-3.0229	-3.1042	-3.6875	-2.8417	-3.3896	-3.5021	-2.6125	-3.6125	-3.2979	-3.0438	-3.7083	-3.0396	-3.2125	-3.5833	376.148	271.401	237.934	401.315	378.832	171.722	416.302	416.768	406.934	379.453	478.833	453.325	412.682	325.789	289.961	399.390	0.00044389	0.00040979	7.1492e-05	1226.5	4.7357e-06	5.6454e-06	1240.5	329.07	3.5711e-06	4.2539e-06	384.83	132.13	112.5	38.827	3.1152e-06	48.856	0.00035467	0.00032314	9.0633e-05	1234.7	3.6016e-06	3.6028e-06	1249.5	332.38	3.6361e-06	3.5296e-06	387.47	133.44	113.8	39.479	3.5846e-06	49.402	223.160	194.086	216.538	135.750	293.429	284.528	135.650	140.649	289.647	264.250	140.066	144.554	145.095	149.445	294.993	148.729	-8191	255	
1473.765	1	1	0	0	0.13672	0.06462	0.17529	0.092852	0.13453	0.24698	0.26238	0.13919	0.017725	0.13539	0.11497	0.047253	0.30536	0.13703	0.15792	0.3798	-2.5563	-3.3583	-3.1021	-2.8875	-3.4729	-2.8479	-3.2729	-3.6562	-2.5875	-3.625	-3.3479	-2.9771	-3.5708	-3.1104	-2.9292	-3.5	455.039	213.934	376.067	407.218	149.866	156.015	126.995	386.556	411.348	291.920	409.199	191.663	423.953	401.380	403.278	413.879	0.00045592	0.00061401	0.00011615	1225.3	3.7067e-06	5.5798e-06	1238.3	327.27	5.4784e-06	5.5465e-06	382.29	131.17	112.61	38.552	5.8846e-06	48.533	0.0003512	0.00032307	9.0971e-05	1234.3	3.655e-06	3.5642e-06	1246.5	331.89	3.6574e-06	3.6051e-06	386.46	132.85	113.48	39.332	3.5686e-06	49.316	227.957	193.316	235.217	135.822	248.318	274.702	135.740	140.500	263.287	247.771	139.886	144.696	145.003	149.779	270.108	148.794	-8191	255	
1473.861	1	1	0	0	0.12959	0.10433	0.10847	0.23186	0.16502	0.17247	0.20784	0.088679	0.034545	0.079472	0.204	0.17493	0.17814	0.21331	0.2676	0.16416	-2.5938	-3.3396	-3.4333	-2.8396	-3.5979	-3.0917	-3.3688	-3.6521	-2.7417	-3.3167	-3.4813	-2.9604	-3.7542	-3.2333	-2.9417	-3.6833	134.879	360.588	143.924	472.951	286.303	415.539	383.097	324.765	422.101	409.254	395.158	412.840	446.270	417.443	439.859	450.105	0.00048612	0.00042879	0.00013479	1222.1	5.4243e-06	4.8554e-06	1238.3	328.79	5.6834e-06	4.8523e-06	382.91	131.12	111.95	38.684	6.6704e-06	48.268	0.00035039	0.0003295	8.981e-05	1233.1	3.6922e-06	3.5633e-06	1245.7	332.49	3.6136e-06	3.5162e-06	385.86	133.17	113.47	39.365	3.6562e-06	49.219	224.065	215.005	210.711	135.736	277.710	279.732	135.664	140.836	264.570	262.566	140.192	144.320	145.114	149.600	251.922	148.734	-8191	255	
1473.957	1	1	0	0	0.12663	0.079017	0.13735	0.20507	0.14257	0.29684	0.097941	0.28308	0.046657	0.095424	0.14714	0.13842	0.26823	0.26889	0.17515	0.16721	-2.5521	-3.4958	-3.2479	-2.9813	-3.4917	-3.1583	-3.1875	-3.7354	-2.8333	-3.0875	-3.4833	-2.8521	-3.5896	-3.375	-2.8521	-3.6396	349.271	262.074	278.425	222.391	279.883	236.435	236.809	382.960	449.327	163.143	239.485	148.310	417.745	138.980	420.432	361.069	0.00046154	0.00026891	0.00012865	1224.8	4.0765e-06	1.5337e-06	1235	328.63	3.436e-06	5.1865e-06	383.73	131.23	111.87	38.782	6.559e-06	48.442	0.00035557	0.00032501	9.135e-05	1232.1	3.5679e-06	3.5311e-06	1245.5	332.01	3.6187e-06	3.5557e-06	386.95	132.75	113.47	39.388	3.5636e-06	49.25	221.909	217.425	196.971	135.602	267.875	337.040	135.815	140.999	277.212	275.316	140.113	144.593	145.122	149.875	266.129	148.489	-8191	255	
1474.053	1	1	0	0	0.084274	0.1854	0.047585	0.17894	0.20907	0.11787	0.14776	0.14127	0.13147	0.036933	0.084217	0.065577	0.18493	0.15605	0.21815	0.14349	-2.5146	-3.0229	-3.6208	-2.9271	-3.4208	-3.2604	-2.9083	-3.5667	-2.9167	-3.0375	-3.6167	-2.9646	-3.4688	-3.4875	-2.5667	-3.6458	392.851	307.593	183.314	409.069	455.867	159.769	382.905	434.561	428.002	327.512	322.204	396.170	432.317	288.305	148.651	364.518	0.00048389	5.1602e-05	9.9153e-05	1224.7	4.0035e-06	5.9164e-06	1236.8	327.66	3.6502e-06	2.2349e-06	381.96	131.21	112.11	38.707	4.6878e-06	48.709	0.00035258	0.00032675	8.9287e-05	1233.3	3.6008e-06	3.5493e-06	1245.1	331.98	3.6288e-06	3.5529e-06	386.28	132.9	113.35	39.377	3.6481e-06	49.239	223.210	277.109	228.860	135.887	284.864	288.151	135.560	140.760	263.576	301.381	140.149	144.656	145.137	149.542	287.494	148.813	-8191	255	
1474.174	1	1	0	0	0.15111	0.038881	0.26784	0.097693	0.30522	0.12519	0.36778	0.12307	0.2325	0.12415	0.081583	0.21695	0.142	0.28566	0.23949	0.29291	-2.5604	-3.0792	-3.6063	-2.8479	-3.4333	-3.3354	-2.8375	-3.5292	-3.0042	-2.7687	-3.8833	-2.9458	-3.2208	-3.5146	-2.7875	-3.5583	188.644	215.439	125.641	163.241	174.071	446.240	444.215	406.674	150.953	374.832	355.250	303.503	179.220	162.627	254.315	406.097	0.00046384	0.00055895	9.821e-05	1223.2	5.07e-06	4.0052e-06	1234.7	327.89	3.131e-06	3.9083e-06	382.55	131.65	112.28	38.622	3.0399e-06	48.465	0.00034709	0.00032599	9.2858e-05	1231.1	3.6153e-06	3.5698e-06	1244.7	332.27	3.6335e-06	3.5767e-06	386.58	132.93	113.45	39.305	3.6265e-06	49.238	224.183	228.675	226.430	135.737	281.435	281.276	135.675	140.806	300.245	287.910	140.105	144.492	145.222	149.851	291.904	148.629	-8191	255	
1474.245	1	1	0	0	0.16631	0.043594	0.31063	0.29269	0.059614	0.1018	0.36116	0.22504	0.099514	0.11028	0.16328	0.010377	0.2508	0.24118	0.13055	0.36316	-2.6271	-2.9104	-3.7396	-3.0083	-3.1437	-3.4604	-3.0687	-3.6	-3.125	-2.9146	-3.5104	-2.9708	-3.1292	-3.4938	-2.8333	-3.4979	182.356	311.749	282.566	459.705	412.758	218.990	427.184	407.987	386.542	468.925	436.563	268.685	227.805	176.890	474.758	380.256	0.0004504	0.00053309	0.000194	1224.1	3.9935e-06	2.7011e-06	1239.4	328.7	4.1309e-06	6.1494e-06	383.35	131.75	111.8	38.757	5.2467e-06	48.608	0.00035531	0.00033134	9.2048e-05	1231.7	3.6683e-06	3.5562e-06	1246.6	332.37	3.6186e-06	3.6195e-06	386.49	132.89	113.32	39.378	3.6082e-06	49.304	223.840	232.331	221.315	135.831	256.942	306.360	135.755	140.663	284.310	269.534	140.098	144.605	145.146	149.823	254.586	148.329	-8191	255	
1474.341	1	1	0	0	0.022814	0.12429	0.13721	0.25162	0.051945	0.21232	0.10281	0.13629	0.21222	0.22416	0.36493	0.14086	0.17328	0.19028	0.23836	0.070843	-2.7417	-2.8292	-3.3812	-3.0187	-3.0354	-3.4688	-2.8479	-3.375	-3.4146	-2.8333	-3.6875	-3.0938	-3.0604	-3.6792	-2.7021	-3.4813	128.094	232.633	267.882	451.621	147.512	349.595	393.854	437.981	224.635	175.242	474.323	168.478	437.454	179.142	433.641	360.714	0.00045475	0.00069126	0.00012064	1223.7	1.7095e-06	5.2995e-06	1235.5	328.57	4.098e-06	2.9346e-06	382.38	131.27	112.28	38.803	2.4672e-06	48.508	0.00034919	0.00032794	9.1957e-05	1232.8	3.6442e-06	3.5955e-06	1245.7	332.31	3.6962e-06	3.6106e-06	386.7	133	113.49	39.419	3.5843e-06	49.326	222.541	216.625	220.948	135.804	323.154	316.338	135.670	140.851	283.818	264.575	139.943	144.680	145.116	149.609	260.962	148.548	-8191	255	
1474.438	1	1	0	0	0.12264	0.12801	0.11876	0.199	0.3116	0.078782	0.36348	0.33989	0.23438	0.28962	0.050484	0.14304	0.052168	0.22039	0.14892	0.24664	-3.0042	-2.8167	-3.4188	-3.0979	-3.0542	-3.5104	-2.9833	-3.3979	-3.4271	-2.8292	-3.5417	-3.0792	-2.9708	-3.6979	-2.7792	-3.4875	152.324	297.854	452.950	466.191	197.544	200.573	388.296	397.277	325.982	379.969	261.814	377.397	162.409	124.490	402.116	478.807	0.00045114	0.00059185	0.00011784	1227.7	4.3281e-06	3.2772e-06	1237.8	327.71	3.5547e-06	4.66e-06	383.55	130.84	111.89	38.699	3.5749e-06	48.389	0.00035125	0.00033297	9.0814e-05	1234.2	3.6554e-06	3.5455e-06	1246.1	332.15	3.5563e-06	3.5792e-06	386.62	132.83	113.4	39.409	3.5934e-06	49.284	225.656	211.605	233.177	135.735	260.733	307.930	135.755	140.807	282.689	278.751	140.152	144.516	144.730	149.650	289.889	148.418	-8191	255	
1474.534	1	1	0	0	0.16558	0.27391	0.15459	0.27696	0.18672	0.17378	0.28427	0.1046	0.16956	0.41141	0.15916	0.097085	0.21439	0.33228	0.19003	0.062821	-3.2542	-2.7896	-3.3104	-3.3354	-2.8958	-3.7021	-3.2146	-3.2021	-3.5438	-2.8063	-3.375	-3.2062	-3.0542	-3.5646	-2.9396	-3.0729	340.047	420.281	372.806	460.664	168.526	353.644	360.543	273.241	459.297	131.109	470.589	475.438	400.591	394.302	426.330	161.005	0.00045972	0.00051676	8.5084e-05	1224.3	6.1134e-06	6.3318e-06	1237.7	329.73	3.5087e-06	3.4038e-06	382.97	131.05	112.08	38.707	6.1383e-06	48.483	0.00035275	0.00033135	9.1286e-05	1233.2	3.5581e-06	3.6436e-06	1247	333.15	3.578e-06	3.6608e-06	387.03	133.03	113.67	39.436	3.5743e-06	49.359	225.090	197.854	218.186	135.606	290.886	288.136	135.702	140.631	264.541	257.717	140.158	144.772	145.135	149.766	264.618	148.630	-8191	255	
1474.653	1	1	0	0	0.16599	0.17475	0.31738	0.074927	0.18391	0.25211	0.18968	0.14902	0.12805	0.15799	0.45029	0.37744	0.15687	0.12575	0.16723	0.24531	-3.0146	-2.7792	-3.3229	-3.4375	-2.8937	-3.6312	-3.1875	-3.0938	-3.5542	-2.75	-3.2292	-3.5938	-2.7729	-3.5854	-3.0187	-3.0021	247.825	249.087	436.340	155.105	430.829	432.452	459.790	431.730	472.563	384.823	460.589	382.179	365.723	389.250	464.523	392.033	0.00046586	0.00034416	0.00012885	1226.3	4.6682e-06	4.7917e-06	1243.4	329.89	6.867e-06	4.9942e-06	384.11	132.35	112.64	38.764	3.0826e-06	48.448	0.00034469	0.00032166	8.9617e-05	1234.8	3.5965e-06	3.4698e-06	1249.3	333.23	3.5508e-06	3.4824e-06	387.53	133.5	113.9	39.504	3.4174e-06	49.393	224.074	201.533	224.274	135.803	252.182	266.379	135.802	140.684	290.799	253.919	140.029	144.630	145.053	149.607	274.790	148.420	-8191	255	
1474.749	1	1	0	0	0.17498	0.26304	0.13205	0.35575	0.17544	0.1488	0.19084	0.05679	0.097765	0.15048	0.20006	0.13663	0.34786	0.27853	0.13235	0.054527	-3.2292	-2.7896	-3.1875	-3.5	-2.7771	-3.5563	-3.1542	-2.9896	-3.5458	-2.9229	-3.2958	-3.4375	-2.5708	-3.4521	-3.1896	-3.0417	136.380	390.378	321.140	479.295	479.784	481.114	381.775	155.783	126.220	353.408	459.229	424.909	439.420	447.389	286.432	469.239	0.00047176	0.00054864	9.2683e-05	1224.2	4.8113e-06	3.4113e-06	1237.8	328.28	5.1378e-06	4.8654e-06	383.62	131.37	112.51	38.881	4.0888e-06	48.524	0.00034186	0.00031322	8.6552e-05	1233.9	3.49e-06	3.3782e-06	1247.1	332.72	3.4488e-06	3.4669e-06	386.97	133.27	113.78	39.506	3.4781e-06	49.431	223.287	265.833	197.684	135.832	258.070	272.678	135.756	140.740	268.062	257.286	139.763	144.613	145.170	149.933	292.101	148.645	-8191	255	
1474.845	1	1	0	0	0.19994	0.45115	0.16658	0.28449	0.37357	0.13681	0.11359	0.15043	0.14137	0.27792	0.033833	0.25403	0.20254	0.13038	0.18055	0.20247	-3.1417	-2.8958	-2.9313	-3.5854	-2.7438	-3.2104	-3.3854	-2.8729	-3.5187	-3.0458	-3.1375	-3.5646	-2.8083	-3.2458	-3.2167	-2.7667	256.217	434.434	141.286	136.920	190.836	404.109	353.513	228.970	349.316	400.588	282.899	447.345	451.619	421.559	252.073	423.255	0.00050475	0.0004197	0.00015674	1226.2	4.9596e-06	3.8022e-06	1240.1	328.75	5.28e-06	7.2534e-06	384.02	131.38	112.92	38.67	5.1679e-06	48.706	0.00034049	0.00031441	8.7935e-05	1234.1	3.4919e-06	3.4138e-06	1246.8	333	3.4822e-06	3.4678e-06	387.28	133.25	113.77	39.437	3.511e-06	49.332	219.907	231.767	242.619	136.023	285.467	249.024	135.991	140.948	263.952	241.833	140.094	144.916	145.010	149.738	273.147	148.851	-8191	255	
1474.941	1	1	0	0	0.14763	0.14479	0.047327	0.19777	0.1159	0.045266	0.34715	0.12926	0.23265	0.20832	0.035168	0.087791	0.11811	0.25101	0.13812	0.17587	-3.0542	-2.9854	-2.9813	-3.5625	-2.6688	-3.3104	-3.3896	-2.85	-3.4375	-3.0125	-3.0917	-3.5458	-2.7687	-3.2646	-3.3	-2.7771	172.606	380.109	152.108	325.537	425.052	472.537	410.130	378.780	147.482	372.123	449.898	469.994	271.976	459.927	240.402	332.618	0.00047264	0.0003644	8.4499e-05	1225	3.6634e-06	1.5276e-06	1236.9	330.02	4.3496e-06	3.4961e-06	383.26	131.22	111.77	38.675	3.9035e-06	48.494	0.00034117	0.00031797	8.8959e-05	1233.3	3.5708e-06	3.4618e-06	1245.7	332.83	3.553e-06	3.5297e-06	386.88	133.04	113.45	39.399	3.5192e-06	49.307	224.102	236.175	180.373	135.938	286.293	299.557	135.649	140.927	262.070	283.416	139.863	144.820	144.984	149.623	276.011	148.601	-8191	255	
1475.037	1	1	0	0	0.12601	0.26635	0.11218	0.24515	0.13789	0.060797	0.20528	0.23756	0.2246	0.067206	0.064326	0.28926	0.14532	0.012109	0.095495	0.17517	-3.2833	-3.1458	-2.8854	-3.7271	-2.8167	-3.1875	-3.5021	-3.0208	-3.5458	-3.275	-2.8896	-3.475	-2.9271	-3.1667	-3.3937	-2.8729	366.671	403.952	305.905	155.642	152.807	284.737	423.239	428.458	480.874	231.850	403.909	138.314	389.089	337.557	179.171	341.045	0.00048053	0.00029435	8.0502e-05	1229	4.7904e-06	3.6047e-06	1234.5	328.28	3.7471e-06	3.3529e-06	384.55	131.43	111.46	38.51	5.3769e-06	48.43	0.00034968	0.00031948	8.938e-05	1233	3.5946e-06	3.5332e-06	1243.6	332.33	3.5796e-06	3.5503e-06	386.94	132.69	113.06	39.22	3.5249e-06	49.162	224.672	213.155	217.375	135.955	265.994	299.857	135.797	140.760	313.044	261.774	139.898	144.608	145.324	149.637	268.204	148.853	-8191	255	
1475.133	1	1	0	0	0.19899	0.1582	0.22017	0.2851	0.096411	0.065352	0.29576	0.27687	0.14299	0.052949	0.32938	0.31513	0.22246	0.30548	0.089062	0.079439	-3.1458	-3.275	-2.7917	-3.575	-3.1708	-3.0438	-3.6562	-2.8583	-3.2938	-3.1958	-2.8833	-3.6208	-2.9104	-2.9292	-3.4583	-2.8625	179.123	431.632	205.471	428.902	454.836	221.160	433.493	158.082	134.802	448.923	406.458	431.369	143.053	201.191	281.753	395.149	0.00045718	0.00047391	0.00016833	1219.7	4.8382e-06	4.0966e-06	1231.5	328.57	5.3857e-06	2.4251e-06	382.98	130.49	111.63	38.503	6.2527e-06	48.303	0.00035039	0.00032357	9.2446e-05	1230.5	3.6766e-06	3.6317e-06	1243	331.67	3.6648e-06	3.6039e-06	385.68	132.3	112.88	39.117	3.6855e-06	49.025	222.585	227.206	217.049	135.863	264.339	242.144	135.530	140.589	251.643	308.334	140.024	144.586	144.985	149.622	303.271	148.922	-8191	255	
1475.254	1	1	0	0	0.14912	0.16683	0.074658	0.099392	0.11889	0.13395	0.10681	0.13272	0.30263	0.33944	0.211	0.37209	0.20284	0.16664	0.12675	0.18705	-3.0229	-3.2146	-2.6875	-3.675	-3.0187	-2.8563	-3.7354	-3.0187	-3.3271	-3.5375	-2.8208	-3.6271	-3.1333	-3.1792	-3.6771	-2.9396	181.869	246.524	473.621	456.451	142.997	475.635	166.804	404.760	208.879	378.743	433.349	463.981	136.208	417.799	170.365	403.188	0.00047908	0.0003705	4.5422e-05	1219.9	4.9221e-06	5.7504e-06	1236.9	327.67	5.5816e-06	2.6076e-06	382.77	130.99	111.7	38.552	6.3625e-06	48.174	0.00035357	0.00033496	9.5278e-05	1230.2	3.7237e-06	3.7132e-06	1245.3	331.45	3.7245e-06	3.7461e-06	385.59	132.36	112.74	39.147	3.6945e-06	48.98	221.376	173.520	209.948	135.932	277.023	281.206	135.880	140.713	267.961	275.729	139.970	144.668	145.413	149.787	266.101	148.834	-8191	255	
1475.350	1	1	0	0	0.17368	0.24974	0.12124	0.098223	0.17082	0.066997	0.13946	0.080725	0.17716	0.10887	0.13246	0.11207	0.13031	0.13651	0.17697	0.20098	-2.8833	-3.3792	-2.6854	-3.7083	-3.2104	-2.8667	-3.6625	-2.8833	-3.0521	-3.6875	-2.8292	-3.4354	-3.0979	-3.0979	-3.7292	-3.2625	476.652	222.503	312.462	451.306	163.556	447.449	137.960	164.227	314.725	254.014	180.823	341.175	388.557	334.069	405.356	327.387	0.0004681	0.00069456	0.00015425	1223.3	5.8756e-06	4.557e-06	1232	327.61	2.7891e-06	3.7457e-06	380.58	130.63	111.53	38.408	7.5822e-06	47.842	0.00035953	0.0003412	9.5171e-05	1228.4	3.7272e-06	3.7324e-06	1239.8	330.74	3.8505e-06	3.7104e-06	384.28	132.17	112.55	39.087	3.7864e-06	48.85	220.971	238.368	241.871	135.844	260.958	274.496	135.754	140.583	284.705	305.906	139.840	145.044	145.584	149.756	266.777	148.824	-8191	255	
1475.446	1	1	0	0	0.14915	0.33351	0.20629	0.19956	0.16318	0.31882	0.24145	0.019016	0.12034	0.14733	0.14458	0.073133	0.21086	0.2553	0.085891	0.12293	-2.7021	-3.5208	-2.7938	-3.4479	-3.3125	-2.8688	-3.8417	-3.0938	-2.875	-3.5875	-2.7792	-3.4062	-3.4958	-3.0687	-3.5563	-3.0896	150.057	243.540	422.543	432.324	319.129	126.801	135.458	270.717	229.055	471.573	420.246	156.091	255.772	271.541	437.512	461.833	0.00047416	0.00059214	0.00014712	1217	3.2975e-06	2.9154e-06	1235	326.4	3.4083e-06	4.0836e-06	379.95	130.51	111.34	38.219	3.793e-06	48.137	0.00036725	0.00033937	9.6962e-05	1226.7	3.7433e-06	3.7609e-06	1241.3	330.32	3.8179e-06	3.7378e-06	384.27	132.02	112.51	38.961	3.7041e-06	48.918	225.117	217.162	208.676	135.853	302.116	258.645	135.666	140.822	250.232	245.291	139.827	144.817	144.868	149.576	274.716	148.753	-8191	255	
1475.541	1	1	0	0	0.2573	0.19667	0.19625	0.29415	0.17655	0.19381	0.14771	0.15432	0.03579	0.10396	0.12021	0.23324	0.17511	0.10428	0.14209	0.14321	-2.5938	-3.5854	-2.7792	-3.3583	-3.4354	-2.8646	-3.6646	-3.3312	-2.8187	-3.7354	-3.0854	-3.2354	-3.5396	-2.8979	-3.3958	-3.4021	302.989	435.884	258.707	463.861	436.005	227.965	323.526	203.001	401.165	195.763	434.110	190.801	426.299	366.182	308.356	158.296	0.00045272	0.00050874	7.9068e-05	1218.2	5.8669e-06	2.3311e-06	1232.2	327.06	4.9914e-06	4.1418e-06	381.19	130.11	111.28	38.385	4.1764e-06	48.007	0.00036764	0.00034469	9.4902e-05	1226.8	3.8133e-06	3.8297e-06	1240.3	330.77	3.7479e-06	3.7206e-06	384.74	132.24	112.52	39.053	3.7692e-06	48.938	225.392	189.077	199.841	135.661	284.458	309.494	135.430	140.824	271.374	253.705	140.032	144.890	145.136	149.789	276.747	148.563	-8191	255	
#DATA ENDS
