BOXY.EXE: ISS Imagent and Oximeter Data Acquisition Program Version 0.80
Ascii Record File

#ACQ INFORMATION
2  Detector Channels 
16  External MUX Channels 
1  Auxiliary Channels 
5000  Waveform (CCF) Frequency (Hz)
1  Waveforms Skipped 
30  Waveforms Averaged 
1  Cycles Averaged 
16  Acquisitions per Waveform 
10.0806  Updata Rate (Hz) 

#FILE INFORMATION
TRUE -- External MUX Channel results are PARSED.
FALSE -- AC DC and Phase are NOT grouped.
TRUE -- Companion Program Settings File CREATED.
FALSE -- AC data not excluded
FALSE -- DC data not excluded
FALSE -- Phase data not excluded
FALSE -- Auxillary Chn. data not excluded
Tab delimiters

#CALIBRATION STATE
TRUE -- Waveform Calibration Values APPLIED.


#AUX CALIBRATION VALUES
Val Type	aux-1	

Term	1.0000e+00	
Factor	0.0000e+00	


#WF CALIBRATION VALUES
A = Detector Channel
Val Type	A-AC1	A-AC2	A-AC3	A-AC4	A-AC5	A-AC6	A-AC7	A-AC8	A-AC9	A-AC10	A-AC11	A-AC12	A-AC13	A-AC14	A-AC15	A-AC16	A-DC1	A-DC2	A-DC3	A-DC4	A-DC5	A-DC6	A-DC7	A-DC8	A-DC9	A-DC10	A-DC11	A-DC12	A-DC13	A-DC14	A-DC15	A-DC16	A-Ph1	A-Ph2	A-Ph3	A-Ph4	A-Ph5	A-Ph6	A-Ph7	A-Ph8	A-Ph9	A-Ph10	A-Ph11	A-Ph12	A-Ph13	A-Ph14	A-Ph15	A-Ph16	

Term	0.00000e+00	0.00000e+00	0.00000e+00	0.00000e+00	0.00000e+00	0.00000e+00	0.00000e+00	0.00000e+00	0.00000e+00	0.00000e+00	0.00000e+00	0.00000e+00	0.00000e+00	0.00000e+00	0.00000e+00	0.00000e+00	0.00000e+00	0.00000e+00	0.00000e+00	0.00000e+00	0.00000e+00	0.00000e+00	0.00000e+00	0.00000e+00	0.00000e+00	0.00000e+00	0.00000e+00	0.00000e+00	0.00000e+00	0.00000e+00	0.00000e+00	0.00000e+00	0.00000e+00	0.00000e+00	0.00000e+00	0.00000e+00	0.00000e+00	0.00000e+00	0.00000e+00	0.00000e+00	0.00000e+00	0.00000e+00	0.00000e+00	0.00000e+00	0.00000e+00	0.00000e+00	0.00000e+00	0.00000e+00	
Factor	1.00000e+00	1.00000e+00	1.00000e+00	1.00000e+00	1.00000e+00	1.00000e+00	1.00000e+00	1.00000e+00	1.00000e+00	1.00000e+00	1.00000e+00	1.00000e+00	1.00000e+00	1.00000e+00	1.00000e+00	1.00000e+00	1.00000e+00	1.00000e+00	1.00000e+00	1.00000e+00	1.00000e+00	1.00000e+00	1.00000e+00	1.00000e+00	1.00000e+00	1.00000e+00	1.00000e+00	1.00000e+00	1.00000e+00	1.00000e+00	1.00000e+00	1.00000e+00	X	X	X	X	X	X	X	X	X	X	X	X	X	X	X	X	

B = Detector Channel
Val Type	B-AC1	B-AC2	B-AC3	B-AC4	B-AC5	B-AC6	B-AC7	B-AC8	B-AC9	B-AC10	B-AC11	B-AC12	B-AC13	B-AC14	B-AC15	B-AC16	B-DC1	B-DC2	B-DC3	B-DC4	B-DC5	B-DC6	B-DC7	B-DC8	B-DC9	B-DC10	B-DC11	B-DC12	B-DC13	B-DC14	B-DC15	B-DC16	B-Ph1	B-Ph2	B-Ph3	B-Ph4	B-Ph5	B-Ph6	B-Ph7	B-Ph8	B-Ph9	B-Ph10	B-Ph11	B-Ph12	B-Ph13	B-Ph14	B-Ph15	B-Ph16	

Term	0.00000e+00	0.00000e+00	0.00000e+00	0.00000e+00	0.00000e+00	0.00000e+00	0.00000e+00	0.00000e+00	0.00000e+00	0.00000e+00	0.00000e+00	0.00000e+00	0.00000e+00	0.00000e+00	0.00000e+00	0.00000e+00	0.00000e+00	0.00000e+00	0.00000e+00	0.00000e+00	0.00000e+00	0.00000e+00	0.00000e+00	0.00000e+00	0.00000e+00	0.00000e+00	0.00000e+00	0.00000e+00	0.00000e+00	0.00000e+00	0.00000e+00	0.00000e+00	-8.92709e+01	-1.28825e+02	-1.24038e+02	-1.83962e+02	-5.99715e+01	-6.47401e+01	-1.57159e+02	-1.62015e+02	-5.48480e+01	-7.10995e+01	-1.70729e+02	-1.70839e+02	-1.80289e+02	-1.77652e+02	-5.59847e+01	-1.50740e+02	
Factor	1.90359e-05	1.64344e-04	4.45320e-05	1.64583e-01	1.33975e-06	1.74344e-06	1.90588e-01	5.69177e-02	1.10681e-06	1.67741e-06	9.57273e-02	3.69650e-02	2.87415e-02	1.05468e-02	1.51595e-06	1.54879e-02	3.70208e-06	4.20420e-06	1.17489e-06	8.23578e-02	4.54401e-08	4.62410e-08	8.95767e-02	2.86398e-02	4.53497e-08	4.63083e-08	4.63350e-02	1.80061e-02	1.45506e-02	5.30554e-03	4.58462e-08	7.52433e-03	X	X	X	X	X	X	X	X	X	X	X	X	X	X	X	X	



#DISTANCE SETTINGS
A = Detector Channel
A-1	A-2	A-3	A-4	A-5	A-6	A-7	A-8	A-9	A-10	A-11	A-12	A-13	A-14	A-15	A-16	

2.5000e+00	3.0000e+00	2.5000e+00	3.0000e+00	2.0000e+00	3.0000e+00	1.5000e+00	3.0000e+00	3.0000e+00	3.0000e+00	3.0000e+00	3.0000e+00	3.0000e+00	3.0000e+00	1.5000e+00	3.0000e+00	

B = Detector Channel
B-1	B-2	B-3	B-4	B-5	B-6	B-7	B-8	B-9	B-10	B-11	B-12	B-13	B-14	B-15	B-16	

1.0000e+01	1.0000e+01	1.0000e+01	1.4400e+00	1.0000e+01	1.0000e+01	1.5100e+00	1.9400e+00	1.0000e+01	1.0000e+01	1.9900e+00	2.4900e+00	2.4100e+00	2.9000e+00	1.0000e+01	2.9800e+00	




#DATA BEGINS
time	group	step	mark	flag	A-AC1	A-AC2	A-AC3	A-AC4	A-AC5	A-AC6	A-AC7	A-AC8	A-AC9	A-AC10	A-AC11	A-AC12	A-AC13	A-AC14	A-AC15	A-AC16	A-DC1	A-DC2	A-DC3	A-DC4	A-DC5	A-DC6	A-DC7	A-DC8	A-DC9	A-DC10	A-DC11	A-DC12	A-DC13	A-DC14	A-DC15	A-DC16	A-Ph1	A-Ph2	A-Ph3	A-Ph4	A-Ph5	A-Ph6	A-Ph7	A-Ph8	A-Ph9	A-Ph10	A-Ph11	A-Ph12	A-Ph13	A-Ph14	A-Ph15	A-Ph16	B-AC1	B-AC2	B-AC3	B-AC4	B-AC5	B-AC6	B-AC7	B-AC8	B-AC9	B-AC10	B-AC11	B-AC12	B-AC13	B-AC14	B-AC15	B-AC16	B-DC1	B-DC2	B-DC3	B-DC4	B-DC5	B-DC6	B-DC7	B-DC8	B-DC9	B-DC10	B-DC11	B-DC12	B-DC13	B-DC14	B-DC15	B-DC16	B-Ph1	B-Ph2	B-Ph3	B-Ph4	B-Ph5	B-Ph6	B-Ph7	B-Ph8	B-Ph9	B-Ph10	B-Ph11	B-Ph12	B-Ph13	B-Ph14	B-Ph15	B-Ph16	aux-1	digaux	

2169.231	1	1	0	768	0.058529	0.2601	0.08985	0.20396	0.18184	0.1684	0.12088	0.20863	0.072377	0.14468	0.12376	0.21937	0.16267	0.16273	0.23958	0.12969	-3.1854	-3.0625	-3.0333	-3.4458	-2.9854	-3.4708	-3.3042	-2.8354	-3.5875	-2.7188	-3.0979	-3.6604	-2.6792	-3.4062	-3.3354	-2.7792	117.781	13.182	-93.046	100.610	110.547	100.296	158.923	74.617	-104.863	138.976	107.421	169.516	67.317	163.718	129.561	174.436	0.00063484	0.00039953	0.00016965	653.84	4.3139e-06	4.1063e-06	674.52	274.12	3.4287e-06	4.3796e-06	314.61	146.6	128.6	69.159	3.2224e-06	82.443	0.00024106	0.00017319	4.7145e-05	654.8	1.8688e-06	1.8994e-06	676.18	277.06	1.8784e-06	1.8875e-06	315.72	148.18	130.53	70.626	1.9522e-06	83.528	-120.808	-77.649	-64.782	-155.325	5.360	-7.212	-156.108	-149.735	-22.606	-28.170	-151.844	-148.666	-146.636	-141.439	-59.820	-144.752	-8191	255	
2169.328	1	1	0	0	0.086396	0.071865	0.13838	0.10267	0.10022	0.15942	0.17255	0.30985	0.10356	0.10085	0.08263	0.27001	0.095689	0.043021	0.20228	0.43835	-3.1375	-3.025	-2.9958	-3.5667	-2.7958	-3.3229	-3.5687	-2.7167	-3.5604	-2.9375	-2.8625	-3.7146	-3.0521	-3.2646	-3.5312	-2.9125	-159.734	-109.003	41.364	187.763	40.455	-163.470	-118.601	123.370	79.640	172.676	-138.109	110.231	-154.705	26.034	14.231	169.554	0.0006407	0.00043956	0.00012704	647.69	5.2266e-06	5.1764e-06	667.6	270.39	3.3192e-06	3.9787e-06	311.43	145.06	127.41	68.734	5.6132e-06	81.899	0.00024348	0.00016868	4.844e-05	651.47	1.9656e-06	1.8865e-06	671.78	273.92	1.9428e-06	1.8672e-06	312.87	146.79	129.5	70.097	1.954e-06	82.939	-121.904	-91.882	-59.772	-155.543	-31.239	-36.002	-156.773	-150.067	-23.723	-39.571	-152.198	-148.538	-146.469	-141.339	-25.532	-144.914	-8191	255	
2169.424	1	1	0	0	0.059498	0.13051	0.20975	0.081976	0.19916	0.099878	0.38534	0.12112	0.12069	0.11292	0.18539	0.1247	0.1564	0.26281	0.085436	0.15038	-3.0854	-3.0479	-2.8625	-3.4813	-2.8312	-3.2771	-3.3333	-2.6896	-3.3937	-3.2104	-2.9625	-3.3792	-2.7062	-3.3187	-3.3792	-2.9792	6.033	-115.640	-162.524	-121.904	142.828	46.779	149.629	-139.471	-141.812	185.361	-144.280	28.528	143.188	147.355	54.430	64.764	0.00063364	0.00049	0.00012731	649.65	2.4964e-06	2.4052e-06	669.45	272.71	2.9526e-06	3.7809e-06	310.8	144.8	127.67	68.869	5.7451e-06	81.716	0.00024366	0.00016953	4.8677e-05	652.17	1.8906e-06	1.8618e-06	673.04	274.91	1.955e-06	1.8844e-06	312.21	146.55	129.79	70.155	1.9293e-06	82.541	-121.119	-72.585	-55.724	-155.615	-16.681	-46.928	-156.496	-149.999	-17.672	-26.035	-151.678	-148.331	-146.121	-141.595	-28.653	-144.511	-8191	255	
2169.520	1	1	0	0	0.15635	0.064368	0.10096	0.26404	0.13509	0.38261	0.28376	0.1698	0.1277	0.019384	0.1969	0.027464	0.33759	0.30441	0.043039	0.19054	-3.1396	-3.2292	-2.8042	-3.6646	-3.0187	-2.9646	-3.5979	-2.875	-3.1354	-3.3937	-2.9833	-3.6479	-3.0938	-3.0917	-3.4021	-2.7812	-167.113	171.916	190.168	172.381	-142.710	-30.692	89.424	-8.713	-101.686	174.158	120.953	9.375	130.073	172.503	75.483	115.179	0.00063277	0.00051409	0.00015061	644.35	4.3377e-06	4.6986e-06	665.33	269.94	3.8631e-06	3.7689e-06	307.26	143.72	127.22	68.179	4.2262e-06	80.835	0.00024829	0.00016845	4.7904e-05	648.72	1.9142e-06	1.8742e-06	667.46	273.18	1.956e-06	1.844e-06	308.93	145.1	128.75	69.502	1.9767e-06	81.594	-122.851	-82.421	-60.573	-155.481	-6.827	-23.642	-156.216	-149.847	-31.135	-51.730	-152.137	-148.629	-146.343	-141.546	-7.430	-144.691	-8191	255	
2169.614	1	1	0	0	0.35619	0.16533	0.2588	0.17472	0.13239	0.069391	0.25808	0.21337	0.11996	0.081822	0.3696	0.071788	0.17344	0.34135	0.2792	0.18291	-3.0708	-3.1667	-2.7542	-3.5792	-3.0396	-2.9292	-3.5292	-2.9792	-3.4167	-3.3042	-2.825	-3.5958	-3.0521	-3.1	-3.675	-2.9771	-2.267	-132.550	118.770	181.958	-149.088	101.097	143.600	-89.226	-21.962	159.067	162.915	-165.688	-103.136	134.925	-144.261	76.118	0.00065241	0.00058869	0.00019176	642.16	5.1984e-06	5.5406e-06	659.59	264.63	2.928e-06	5.7132e-06	303.11	141.1	124.17	66.784	4.3628e-06	79.329	0.00024747	0.0001713	4.9553e-05	643.58	1.911e-06	1.9129e-06	662.55	268.17	1.9257e-06	1.8493e-06	304.81	142.84	125.93	68.093	1.9708e-06	80.252	-122.173	-95.889	-59.230	-155.517	-11.695	-15.429	-156.568	-149.957	-30.965	-18.375	-152.124	-148.558	-146.252	-141.424	-15.617	-144.622	-8191	255	
2169.712	1	1	0	0	0.12723	0.1534	0.28467	0.070704	0.30373	0.15461	0.10436	0.22152	0.19754	0.17633	0.12975	0.15125	0.2513	0.27467	0.086238	0.042517	-2.8896	-3.3583	-2.7375	-3.2938	-3.0625	-2.9	-3.6271	-3.0438	-3.1354	-3.4458	-2.7833	-3.4188	-3.3875	-2.9125	-3.5604	-2.9479	162.245	9.038	126.218	22.329	-6.960	-36.609	-38.306	183.424	-112.924	89.626	-166.021	-79.566	65.190	181.481	-131.535	49.162	0.00062474	0.00047017	0.00012005	635.9	2.9076e-06	4.7748e-06	653.2	260.81	4.4672e-06	5.0091e-06	298.31	137.86	121.85	65.238	3.1508e-06	77.669	0.00025263	0.00017432	5.007e-05	638.97	1.9545e-06	2.0081e-06	656.69	264	2.032e-06	1.9738e-06	299.74	139.76	123.31	66.39	2.072e-06	78.656	-121.266	-101.604	-88.625	-155.571	3.818	-30.355	-156.536	-149.964	-34.744	-2.242	-151.957	-148.666	-146.353	-141.728	-46.676	-144.576	-8191	255	
2169.831	1	1	0	0	0.28057	0.0677	0.45292	0.1069	0.13052	0.089573	0.1361	0.12011	0.087923	0.16249	0.14745	0.27032	0.23631	0.28656	0.17943	0.32498	-2.6729	-3.4771	-2.7646	-3.3896	-3.2271	-2.6896	-3.5812	-3.2417	-2.9708	-3.6125	-2.8396	-3.3312	-3.3125	-2.9417	-3.4021	-3.1146	65.838	-165.141	71.194	46.423	159.311	84.386	95.291	-157.301	-100.035	-138.134	-109.959	154.477	-164.573	160.958	132.850	147.338	0.00060249	0.0006169	0.00013384	629.84	2.1492e-06	6.4906e-06	646.82	256.78	4.5741e-06	4.2062e-06	294.28	136.05	120.41	64.507	3.0147e-06	76.88	0.00024896	0.00017839	5.1445e-05	632.3	2.0635e-06	2.0176e-06	651.47	260.21	2.0598e-06	1.9682e-06	296.32	138.07	122.21	65.702	2.0443e-06	77.815	-123.428	-88.171	-68.335	-155.616	-9.757	-49.019	-156.726	-150.000	-25.241	-19.922	-152.165	-148.575	-146.202	-141.614	-57.618	-144.919	-8191	255	
2169.927	1	1	0	0	0.11528	0.034467	0.040866	0.14455	0.16933	0.25347	0.022703	0.20566	0.084213	0.15348	0.24522	0.23515	0.21493	0.38258	0.1254	0.047857	-2.5687	-3.5521	-2.7	-3.2146	-3.5479	-2.6708	-3.525	-3.1146	-2.9396	-3.5687	-2.9604	-3.1437	-3.4458	-2.6854	-3.3375	-3.1167	166.673	124.042	-81.233	137.298	22.512	139.796	-8.535	128.556	60.694	123.959	36.421	-71.932	166.095	155.860	14.199	2.487	0.00060698	0.00052959	9.2238e-05	624.35	4.4872e-06	5.796e-06	643.59	258.59	3.2404e-06	4.5037e-06	293.62	136.18	119.91	64.742	4.895e-06	76.367	0.00025361	0.00018419	5.1783e-05	627.99	1.9745e-06	1.9723e-06	646.16	261.05	2.0127e-06	1.974e-06	295.72	138	122.2	65.827	2.0829e-06	77.546	-122.235	-93.281	-79.025	-155.857	-1.364	-35.463	-156.658	-150.172	-35.402	-14.870	-152.158	-148.778	-146.232	-141.563	2.066	-144.667	-8191	255	
2170.023	1	1	0	0	0.18535	0.2025	0.22438	0.32643	0.17877	0.24908	0.043172	0.36442	0.18954	0.25651	0.14185	0.22819	0.15871	0.24613	0.18938	0.11008	-2.5	-3.6375	-2.8021	-3.1312	-3.4771	-2.8812	-3.4979	-3.4021	-2.7562	-3.5792	-3.0854	-3.1521	-3.4917	-2.8979	-3.2438	-3.4458	-41.947	-42.884	12.378	124.260	-130.120	21.211	-144.590	85.187	-162.379	168.074	-27.170	146.769	164.207	87.689	-141.715	144.040	0.00060252	0.00068352	0.00017628	622.88	2.6768e-06	4.4891e-06	637.94	255.61	2.4275e-06	4.2957e-06	292.31	134.63	119.64	63.963	4.1826e-06	76.413	0.00025041	0.00018426	5.1037e-05	625.68	1.9529e-06	1.9524e-06	642.59	258.67	2.023e-06	1.9476e-06	293.31	136.31	121.02	65.115	2.0374e-06	77.047	-119.941	-90.931	-72.133	-155.804	-24.826	-29.331	-156.666	-150.036	-3.396	-32.390	-151.619	-148.539	-146.406	-141.650	-21.038	-144.661	-8191	255	
2170.120	1	1	0	0	0.17277	0.18789	0.19807	0.087059	0.2437	0.18937	0.18914	0.23324	0.081336	0.1676	0.12484	0.089187	0.1887	0.38235	0.16704	0.14562	-2.4062	-3.4958	-3.0312	-2.9583	-3.4188	-2.8167	-3.3187	-3.4042	-2.9	-3.5833	-3.0604	-2.9833	-3.7021	-2.7729	-3.1521	-3.5146	187.045	-80.363	176.681	-35.703	134.982	33.340	55.950	187.303	161.556	113.166	126.165	-102.863	156.640	115.313	140.339	185.247	0.00059906	0.00035959	0.00011415	620.12	3.5338e-06	6.0077e-06	640.63	253.29	2.7401e-06	3.7024e-06	287.6	133.63	118.54	63.49	3.2949e-06	75.75	0.0002459	0.00018574	5.0868e-05	623.11	2.0094e-06	2.0132e-06	641.67	257.05	2.0772e-06	2.0181e-06	290.89	135.53	120.02	64.662	2.1864e-06	76.633	-122.327	-64.552	-74.305	-155.800	-3.754	-8.563	-156.796	-149.931	-29.189	-10.664	-151.864	-148.634	-146.391	-141.693	-44.340	-144.535	-8191	255	
2170.216	1	1	0	0	0.15985	0.049254	0.14617	0.21588	0.38078	0.16688	0.069407	0.12849	0.070747	0.17474	0.1501	0.20443	0.28526	0.13388	0.091426	0.23911	-2.4292	-3.5229	-3.1271	-3.1292	-3.5042	-2.8417	-3.1979	-3.5354	-2.8667	-3.4479	-3.2687	-2.8438	-3.725	-2.9333	-2.9396	-3.4875	76.411	-144.802	178.914	51.370	-109.230	-151.825	-132.104	96.450	131.053	152.013	148.142	-146.569	-108.431	183.613	-120.254	120.941	0.00062849	0.00032509	0.00010277	619.63	2.8657e-06	4.3615e-06	638.77	253.39	3.9992e-06	3.0848e-06	292.75	133.85	118.63	63.618	4.7135e-06	76.332	0.00025574	0.0001866	5.4211e-05	622.5	2.0993e-06	2.1294e-06	642.56	256.81	2.149e-06	2.1471e-06	292.98	135.98	120.17	64.864	2.1896e-06	77.167	-122.558	-91.481	-91.387	-155.811	-17.362	-12.426	-156.695	-150.071	-35.095	-16.437	-152.069	-148.956	-146.334	-141.696	-16.625	-144.790	-8191	255	
2170.312	1	1	0	0	0.039392	0.12965	0.10239	0.17729	0.11094	0.2193	0.2283	0.13697	0.090251	0.018093	0.04039	0.27297	0.12199	0.40583	0.099029	0.128	-2.3458	-3.4229	-3.0812	-3.0563	-3.4313	-3.0312	-3.1667	-3.5542	-2.8104	-3.3	-3.2583	-2.7521	-3.4896	-3.05	-3.0042	-3.5812	185.287	-55.245	42.231	-140.478	-65.240	-90.280	-2.543	112.675	57.549	101.569	117.857	137.779	133.219	153.108	39.426	70.256	0.00059576	0.00056809	0.00010185	621.84	3.6976e-06	6.6977e-06	639.19	255.58	3.9191e-06	6.1497e-06	292.55	134.83	120.09	64.854	3.1938e-06	77.47	0.000255	0.00019233	5.3156e-05	625.07	2.0897e-06	2.028e-06	644.56	259.04	2.0835e-06	2.0388e-06	293.79	137.05	121.76	65.875	2.1138e-06	78.066	-120.731	-105.213	-76.819	-155.553	-23.060	-6.662	-156.701	-149.831	-21.303	-28.042	-151.923	-148.636	-146.551	-141.595	-49.259	-144.638	-8191	255	
2170.408	1	1	0	0	0.16757	0.22121	0.11188	0.18818	0.11015	0.19923	0.26277	0.24303	0.031739	0.048734	0.086153	0.10793	0.12827	0.11645	0.071687	0.14429	-2.2479	-3.2958	-3.3312	-2.7333	-3.3542	-3.1667	-3.0646	-3.5604	-2.8083	-3.1646	-3.5708	-2.725	-3.5646	-3.3646	-2.9313	-3.6625	127.665	-132.036	40.854	-60.933	113.395	45.201	117.378	80.033	78.679	54.170	24.108	-144.740	-162.563	-15.478	-103.713	122.345	0.00060169	0.00026947	0.00018424	626.94	4.2393e-06	4.5665e-06	643.51	259.68	3.4766e-06	6.961e-06	297.47	137.57	122.66	66.254	4.6493e-06	78.819	0.00025031	0.00018222	4.8868e-05	628.44	1.9438e-06	1.8938e-06	647.1	262.87	1.9391e-06	1.8794e-06	298.54	139.76	124.51	67.542	1.9561e-06	79.611	-120.596	-71.585	-70.852	-155.633	-1.569	-10.348	-156.500	-150.089	-24.000	-32.371	-152.091	-148.844	-146.555	-141.617	-43.094	-144.671	-8191	255	
2170.527	1	1	0	0	0.35242	0.040233	0.19334	0.32824	0.09278	0.019738	0.21914	0.28733	0.04244	0.18435	0.080906	0.11537	0.16538	0.15728	0.21646	0.12292	-2.55	-3.0812	-3.3125	-2.4833	-3.4146	-3.2104	-2.9354	-3.6021	-2.9146	-3.0333	-3.6229	-2.7021	-3.4208	-3.5021	-2.8396	-3.6667	-49.121	-114.175	24.416	123.293	132.980	123.825	179.607	153.340	-109.573	-87.550	-10.204	165.697	124.867	143.372	168.505	-7.484	0.00063576	0.00046759	0.00019647	631.19	5.148e-06	7.7487e-06	641.7	258.59	3.0864e-06	4.1314e-06	296.07	135.97	121.67	65.611	4.3861e-06	78.186	0.00024598	0.00017048	4.666e-05	631.54	1.9356e-06	1.8441e-06	646.72	261.77	1.9258e-06	1.8846e-06	296.7	138.22	123.11	66.872	2.0275e-06	79.014	-123.749	-91.463	-76.405	-155.562	-34.961	-20.601	-157.007	-150.032	-6.945	-19.541	-152.195	-148.719	-146.459	-141.479	-25.910	-144.674	-8191	255	
2170.623	1	1	0	0	0.060698	0.27105	0.090078	0.089786	0.086049	0.24972	0.11018	0.28856	0.17028	0.03313	0.25995	0.38598	0.10116	0.20791	0.16836	0.32129	-2.5062	-3.0771	-3.4375	-2.9458	-3.2771	-3.3688	-3.0229	-3.6271	-3.075	-3.0271	-3.5167	-2.8812	-3.3438	-3.3729	-2.8125	-3.6229	-76.350	-112.185	-41.131	-147.711	140.785	54.757	0.940	101.941	-81.147	110.110	30.971	105.745	110.819	-150.790	-44.994	85.067	0.00062028	0.00052632	8.9014e-05	629.21	3.8597e-06	5.5916e-06	648.18	260.2	5.0676e-06	4.7293e-06	297.23	137.96	122.71	66.53	3.3695e-06	79.315	0.0002407	0.00017395	4.8564e-05	631.48	1.9123e-06	1.8648e-06	650.12	263.58	1.946e-06	1.9238e-06	299.76	139.91	124.59	67.711	1.9838e-06	80.216	-120.050	-81.609	-81.609	-155.773	5.848	-33.968	-156.429	-149.955	-31.106	-36.044	-151.891	-148.309	-146.273	-141.669	-23.218	-144.514	-8191	255	
2170.719	1	1	0	0	0.082429	0.42781	0.15027	0.19494	0.12277	0.11873	0.17839	0.40434	0.14644	0.089478	0.23995	0.20989	0.22722	0.29786	0.039004	0.13347	-2.7687	-2.8146	-3.4833	-2.8771	-3.15	-3.3542	-2.7917	-3.8187	-2.8625	-2.7542	-3.6833	-3.0896	-3.2438	-3.5458	-2.5792	-3.5375	11.246	183.767	-70.058	-154.694	133.253	82.562	191.265	168.724	187.215	-30.955	-160.917	176.513	142.832	-165.600	-37.514	116.896	0.0006479	0.00061903	0.00014664	630.87	3.3469e-06	3.5145e-06	646.81	262.1	3.28e-06	6.3995e-06	299.12	139.42	124.11	67.101	5.608e-06	80.103	0.00024397	0.00017784	4.9176e-05	633.47	1.9162e-06	1.843e-06	651.99	264.99	1.9772e-06	1.889e-06	301.6	141.26	125.68	68.425	1.9509e-06	81.122	-122.296	-70.337	-68.014	-155.801	-31.106	-2.145	-156.789	-149.920	-2.086	-38.421	-151.895	-148.797	-146.542	-141.565	-23.527	-144.894	-8191	255	
2170.793	1	1	0	0	0.11401	0.26581	0.019094	0.23089	0.083413	0.026699	0.24064	0.17996	0.139	0.041119	0.089133	0.11111	0.2263	0.2374	0.093923	0.24765	-2.8979	-2.8063	-3.6167	-3.0521	-3.1667	-3.5417	-2.8417	-3.6167	-3.3458	-2.7062	-3.6208	-3.0792	-3.1021	-3.6792	-2.6333	-3.5542	22.905	183.867	57.412	81.092	-22.009	-51.481	185.103	129.909	21.162	-66.182	33.298	82.981	89.642	152.029	60.107	151.049	0.00063871	0.00054157	0.00018057	636.49	3.7732e-06	5.2138e-06	655.14	266.94	3.3046e-06	2.5793e-06	306.29	142.05	126.83	68.565	7.6377e-06	80.794	0.00023869	0.00017341	4.6222e-05	638.6	1.8898e-06	1.7834e-06	658.06	270.11	1.8538e-06	1.8921e-06	307.27	144	128.28	69.627	1.9764e-06	81.987	-122.987	-92.517	-81.125	-155.703	-41.639	-26.626	-156.620	-149.756	-31.828	-32.330	-152.296	-148.337	-145.991	-141.394	-32.156	-144.674	-8191	255	
2170.911	1	1	0	0	0.048739	0.10848	0.28448	0.19178	0.074548	0.14864	0.15701	0.099933	0.085971	0.10842	0.12277	0.20694	0.14505	0.2542	0.15133	0.30977	-2.9729	-2.75	-3.5563	-2.9729	-3.0208	-3.4708	-2.8917	-3.1854	-3.1292	-2.8229	-3.6792	-3.1375	-3.0292	-3.7417	-2.8875	-3.4417	-10.014	-4.875	-100.562	-85.984	-11.350	19.683	-96.592	-113.598	33.986	145.203	-110.564	79.642	-129.545	138.062	161.225	128.219	0.00064235	0.00058598	0.00017153	637.35	4.6242e-06	4.9433e-06	657.05	266.51	4.0861e-06	5.1694e-06	304.89	142.4	125.71	68.194	5.5834e-06	81.221	0.0002404	0.0001762	4.7042e-05	641.31	1.8407e-06	1.8755e-06	660.98	270.18	1.8768e-06	1.9057e-06	306.58	143.7	127.84	69.522	1.9759e-06	81.895	-120.492	-93.216	-69.079	-155.522	-30.262	-31.319	-156.487	-149.780	-10.059	-26.998	-151.830	-148.361	-146.200	-141.459	-20.794	-144.754	-8191	255	
2171.008	1	1	0	0	0.3256	0.22448	0.062603	0.0029676	0.056689	0.07285	0.1449	0.12077	0.056018	0.14925	0.16769	0.25618	0.16818	0.10474	0.24934	0.21394	-2.9729	-2.4813	-3.4271	-3.2792	-2.9313	-3.5417	-2.9375	-3.3021	-3.3812	-2.7792	-3.4917	-3.4583	-2.975	-3.5896	-2.9	-3.1667	108.451	-85.925	11.455	-12.502	-20.615	13.545	-61.169	73.556	190.193	78.606	-78.399	166.219	140.883	-160.961	53.358	137.849	0.00065518	0.00051344	9.4837e-05	637.61	3.1324e-06	5.9882e-06	654.2	265.46	2.173e-06	3.5287e-06	303.16	140.6	125.11	67.78	5.1983e-06	80.806	0.00024589	0.00017081	4.7524e-05	639.43	1.9427e-06	1.8471e-06	656.16	268.73	1.8711e-06	1.9017e-06	304.63	142.73	127.16	69.09	1.9975e-06	81.541	-121.303	-79.778	-78.166	-155.585	-40.841	-14.196	-156.302	-149.968	-30.982	-22.522	-151.930	-148.300	-146.362	-141.425	-17.964	-144.567	-8191	255	
2171.104	1	1	0	0	0.16737	0.12159	0.067105	0.37969	0.080205	0.062703	0.24049	0.13407	0.25564	0.067253	0.050976	0.18448	0.0912	0.18609	0.34178	0.43287	-3.0104	-2.8167	-3.5354	-3.2	-2.7812	-3.3979	-3.1479	-3.1917	-3.4938	-2.8333	-3.5062	-3.5229	-2.6521	-3.6146	-3.1104	-3.0208	-146.275	-21.002	-51.480	168.176	189.598	-164.846	138.953	160.285	-135.456	-87.233	-40.704	-96.850	143.001	-163.840	54.067	158.263	0.00065852	0.00035021	0.00011687	636.09	4.8244e-06	4.3327e-06	656.17	264.91	3.7685e-06	4.9201e-06	302.93	141.51	125.46	68.032	5.5103e-06	80.891	0.00024119	0.00017625	4.7634e-05	638.51	1.9646e-06	1.8613e-06	658.01	268.66	1.9276e-06	1.8886e-06	305.36	143.34	127.36	69.114	1.9964e-06	81.888	-123.528	-76.711	-87.940	-155.376	-9.711	-22.834	-156.309	-149.788	-37.296	-33.576	-152.019	-148.240	-146.147	-141.170	-14.502	-144.181	-8191	255	
2171.224	1	1	0	0	0.12363	0.13258	0.19093	0.22408	0.090175	0.18635	0.24333	0.18515	0.084275	0.1554	0.22163	0.08979	0.19897	0.26824	0.14147	0.24507	-3.1646	-2.7917	-3.1521	-3.4229	-2.7104	-3.5854	-3.2604	-2.9	-3.3917	-2.7396	-3.2271	-3.4188	-2.625	-3.6646	-3.1208	-2.9625	164.589	167.094	154.744	123.511	49.195	-124.299	143.232	-146.399	-43.221	0.467	104.468	-160.994	151.736	178.105	32.939	-149.011	0.00064756	0.00064161	0.00013777	636.57	4.9736e-06	3.9141e-06	663.31	267.15	3.9538e-06	4.3485e-06	306.4	142.79	127.16	68.908	5.0507e-06	82.26	0.00024417	0.00017643	4.6726e-05	639.6	1.9573e-06	1.837e-06	661.39	270.57	1.9205e-06	1.9064e-06	308.31	144.98	128.99	70.242	1.9704e-06	83.115	-122.815	-79.391	-64.840	-155.674	-12.364	-46.526	-156.282	-149.632	-7.249	-24.011	-151.808	-148.559	-146.169	-141.459	-22.426	-144.437	-8191	255	
2171.321	1	1	0	0	0.10873	0.2771	0.082727	0.15448	0.075971	0.29908	0.17873	0.18885	0.081946	0.092737	0.023976	0.1823	0.15809	0.42751	0.1993	0.2214	-3.2292	-2.8583	-3.025	-3.4896	-2.7875	-3.2687	-3.3021	-2.8896	-3.5521	-2.85	-3.2062	-3.4604	-2.6771	-3.3979	-3.2333	-2.9229	16.831	93.305	191.531	191.648	-93.390	-79.865	143.567	-147.489	175.219	158.179	186.460	143.496	140.705	97.635	-46.312	148.894	0.00063117	0.00058191	0.0001371	647.57	4.9048e-06	3.6961e-06	668.23	271.62	3.5768e-06	4.5376e-06	309.95	145.14	129.27	69.868	4.4532e-06	82.604	0.00024236	0.00017129	4.7867e-05	647.58	1.8904e-06	1.842e-06	670.08	274.86	1.8836e-06	1.8561e-06	311.92	147.4	130.88	71.152	1.8993e-06	83.679	-119.830	-75.397	-66.378	-155.460	-29.370	8.330	-156.279	-149.679	-10.329	-22.654	-152.195	-148.529	-146.214	-141.634	-24.123	-144.754	-8191	255	
2171.392	1	1	0	0	0.093217	0.14458	0.12082	0.22116	0.1852	0.04352	0.36644	0.20611	0.09263	0.058817	0.15157	0.11685	0.22081	0.16266	0.25173	0.24193	-3.2229	-2.8583	-2.8333	-3.6375	-2.8688	-3.3063	-3.2333	-2.8979	-3.4229	-2.8292	-2.9708	-3.4667	-2.9479	-3.2625	-3.3417	-2.95	-91.623	12.954	177.100	136.839	-128.000	10.456	38.973	166.561	94.908	142.642	110.095	150.982	96.630	-140.335	71.182	133.975	0.0006668	0.00046508	0.00016924	646.62	2.7792e-06	7.0961e-06	662.43	268.62	3.9327e-06	4.6464e-06	306.89	142.6	126.52	68.162	5.0499e-06	81.268	0.00024286	0.00016732	4.8097e-05	648.37	1.946e-06	1.873e-06	663.76	271.95	1.9218e-06	1.8559e-06	307.83	144.32	128.14	69.663	1.9087e-06	82.268	-120.527	-87.923	-84.974	-155.660	-12.184	-20.490	-156.641	-150.124	-15.530	-17.602	-152.120	-148.626	-146.447	-141.308	-7.144	-144.528	-8191	255	
2171.513	1	1	0	0	0.066112	0.083398	0.17184	0.16677	0.38055	0.10338	0.088761	0.045871	0.1244	0.082853	0.24482	0.31639	0.11754	0.063741	0.15573	0.075073	-3.2021	-3.0604	-3.0542	-3.625	-2.8229	-3.1896	-3.5729	-2.8875	-3.4313	-3.0875	-2.9813	-3.7458	-2.8333	-3.2333	-3.3688	-2.925	-145.007	58.795	-29.368	65.114	-164.110	54.028	-73.237	-38.886	68.166	-142.244	180.325	134.761	-163.240	-117.728	-147.318	87.797	0.00062939	0.00046442	0.0001907	641.99	3.8927e-06	5.6327e-06	658.86	266.73	4.501e-06	4.4414e-06	305.56	141.9	125.42	68.244	6.0622e-06	81.001	0.00024295	0.00016841	4.8873e-05	642.96	1.8896e-06	1.9052e-06	663.69	270.28	1.933e-06	1.8473e-06	306.96	143.88	127.51	69.564	1.997e-06	82.146	-121.089	-78.876	-87.926	-155.750	-28.761	3.827	-156.388	-149.888	-21.446	-26.982	-152.147	-148.413	-146.233	-141.607	-39.843	-144.803	-8191	255	
2171.607	1	1	0	0	0.1565	0.123	0.21557	0.14608	0.094724	0.079219	0.38296	0.25859	0.10897	0.10496	0.12921	0.057254	0.079448	0.16515	0.062949	0.14709	-3.0333	-3.1167	-2.7083	-3.5563	-2.8667	-3.0583	-3.5083	-2.775	-3.2104	-3.325	-2.7167	-3.6146	-3.0062	-2.9854	-3.4104	-2.8146	-0.604	78.356	-110.333	43.124	1.964	132.197	155.044	99.929	178.340	-44.579	-120.906	-162.659	151.328	192.035	131.225	144.871	0.00064206	0.00047074	0.00018982	635.72	3.8519e-06	5.745e-06	654.08	264.3	2.7673e-06	4.8724e-06	300.71	140.9	124.12	67.493	6.1614e-06	80.228	0.00024362	0.00017277	4.8875e-05	640.07	1.9046e-06	1.9157e-06	658.64	267.67	1.9357e-06	1.839e-06	303.09	142.32	125.87	68.692	1.9774e-06	81.225	-121.421	-70.110	-70.415	-155.802	-26.287	-8.026	-156.573	-149.955	-59.651	-30.949	-152.218	-148.526	-146.122	-141.494	-36.641	-144.482	-8191	255	
2171.703	1	1	0	0	0.10453	0.10602	0.30416	0.14636	0.1209	0.24058	0.040462	0.10465	0.04632	0.060752	0.19431	0.30364	0.23622	0.20028	0.19065	0.35658	-2.8021	-3.3917	-2.7604	-3.5167	-2.9375	-3.0375	-3.5604	-2.9354	-3.1708	-3.4208	-2.825	-3.4688	-2.9833	-2.9729	-3.4417	-2.9813	-20.082	28.198	-18.686	116.602	7.699	162.666	-143.360	-73.524	-129.327	-10.008	-84.059	165.579	101.774	-119.795	-38.941	72.058	0.000645	0.00061463	0.00011884	633.89	3.9339e-06	3.0698e-06	651.08	264.01	4.6689e-06	3.9874e-06	302.99	140.8	125.04	68.294	4.4881e-06	81.001	0.00024242	0.00017122	4.899e-05	636.62	1.8624e-06	1.8602e-06	655.6	267.47	1.8995e-06	1.8051e-06	304.84	142.83	126.84	69.32	1.8957e-06	81.801	-121.989	-81.869	-65.299	-155.276	-22.868	-2.196	-156.344	-149.879	-41.057	-27.122	-151.872	-148.597	-146.136	-141.353	-37.545	-144.607	-8191	255	
2171.824	1	1	0	0	0.26699	0.12558	0.18354	0.21944	0.24379	0.097306	0.21636	0.052775	0.27453	0.19804	0.24569	0.040719	0.19366	0.24236	0.10954	0.4622	-2.8521	-3.3021	-2.4313	-3.5604	-2.8792	-2.8833	-3.425	-2.8896	-2.8875	-3.3396	-2.7104	-3.4917	-3.3125	-2.9979	-3.4875	-2.9188	77.258	17.777	-127.724	173.202	39.956	97.771	-150.497	8.410	-136.332	-18.843	161.856	21.002	167.543	171.865	57.676	98.378	0.00065162	0.00057078	0.00017249	635.76	3.7598e-06	5.3669e-06	651.17	265.77	4.5438e-06	3.4641e-06	302.8	141.5	125.71	68.183	4.0471e-06	80.493	0.00023908	0.00016591	4.6836e-05	638.87	1.8541e-06	1.8551e-06	654.9	268.52	1.9113e-06	1.7634e-06	304.24	143.24	127.29	69.434	1.9132e-06	81.612	-122.430	-99.758	-84.692	-155.425	-15.770	-27.988	-156.198	-149.846	-25.143	-9.172	-151.433	-148.236	-145.896	-141.350	-19.458	-144.495	-8191	255	
2171.920	1	1	0	0	0.12757	0.11497	0.32302	0.15112	0.40016	0.14933	0.15692	0.053568	0.13618	0.075552	0.28354	0.14642	0.090512	0.12082	0.16595	0.21024	-2.5479	-3.5229	-2.9521	-3.3208	-3.1375	-2.7771	-3.6104	-2.8688	-2.85	-3.4771	-2.6771	-3.4042	-3.3646	-2.875	-3.4896	-3.0042	-86.501	118.008	-68.552	28.234	153.067	172.216	150.333	-23.950	55.243	153.630	-148.564	-163.774	-4.330	-163.382	4.673	77.349	0.00066528	0.00060084	0.00012575	634.53	3.9081e-06	3.9163e-06	649.34	262.79	3.8319e-06	3.9061e-06	301.67	140.79	125.63	68.129	6.3545e-06	81.037	0.0002435	0.00016875	4.8072e-05	635.35	1.8984e-06	1.8898e-06	651.79	266.64	1.8943e-06	1.8335e-06	302.36	142.61	127.13	69.25	1.9157e-06	81.971	-123.104	-73.080	-78.410	-155.325	-55.536	-7.043	-156.580	-149.644	-17.955	-42.446	-151.954	-148.180	-145.913	-141.232	-33.744	-144.384	-8191	255	
2172.016	1	1	0	0	0.16839	0.14885	0.14624	0.28056	0.10156	0.25453	0.030654	0.24649	0.10493	0.11263	0.18191	0.31424	0.091229	0.11864	0.23121	0.1692	-2.6229	-3.5938	-2.7854	-3.2167	-3.1583	-2.8083	-3.5479	-3.0792	-2.9229	-3.45	-2.8708	-3.2729	-3.5	-2.8937	-3.3583	-3.3167	-122.153	94.818	-96.758	-86.447	-36.294	-41.152	28.910	177.533	-18.031	-23.163	151.426	165.201	121.061	-165.107	-2.028	178.302	0.00064732	0.00041489	0.00018255	637.98	5.5794e-06	6.9395e-06	656.64	270.42	4.2065e-06	4.344e-06	314.85	148.08	131.57	71.708	4.6329e-06	85.661	0.00024482	0.00016621	4.7495e-05	639.39	1.8726e-06	1.827e-06	662.82	274.42	1.9004e-06	1.7872e-06	316.15	150.24	133.44	72.952	1.88e-06	86.698	-121.129	-110.970	-78.491	-155.464	-21.419	6.117	-156.453	-149.703	-29.030	-47.918	-152.052	-148.182	-145.997	-141.298	-34.244	-144.506	-8191	255	
2172.088	1	1	0	0	0.20445	0.16715	0.26283	0.13485	0.28945	0.025462	0.19135	0.21011	0.21378	0.073611	0.20304	0.21545	0.18318	0.23516	0.13382	0.28772	-2.475	-3.5146	-2.8604	-3.3167	-3.2458	-2.675	-3.4583	-3.3563	-2.7625	-3.5104	-2.8563	-3.05	-3.5396	-2.7333	-3.1875	-3.2812	-53.010	-57.491	189.521	159.002	92.106	174.274	139.217	117.366	137.129	-72.651	106.337	154.636	-165.896	114.690	182.632	72.492	0.00066603	0.00065179	0.00016381	656.74	4.0957e-06	4.4942e-06	676.33	277.46	2.9081e-06	4.485e-06	316.25	147.83	131.13	70.905	3.9653e-06	84.09	0.00024459	0.00016226	4.5282e-05	657.39	1.7592e-06	1.7619e-06	677.08	280.43	1.8549e-06	1.7915e-06	317.49	149.8	132.67	72.408	1.9075e-06	84.919	-122.329	-65.316	-85.744	-155.457	-38.761	-26.858	-156.381	-149.555	-29.664	-26.374	-151.948	-148.263	-146.004	-141.489	-22.591	-144.450	-8191	255	
2172.209	1	1	0	0	0.13007	0.055124	0.33922	0.11989	0.069891	0.1783	0.11476	0.12493	0.21922	0.13901	0.2161	0.16494	0.19952	0.41153	0.12332	0.40926	-2.5083	-3.3937	-2.9625	-2.9771	-3.3604	-2.7562	-3.2687	-3.2229	-2.7396	-3.5187	-2.9917	-2.9271	-3.4208	-2.9646	-3.0333	-3.4354	51.125	-67.938	61.538	146.251	11.932	127.579	92.581	-89.197	63.189	182.334	151.764	165.407	-166.301	-154.710	105.365	89.143	0.00066654	0.00051198	0.00018873	643.69	4.9649e-06	5.0874e-06	658.22	270.03	3.7689e-06	5.5995e-06	304.42	144.63	127.23	69.358	1.3675e-06	81.477	0.00024461	0.00016452	4.5537e-05	645.63	1.8112e-06	1.8018e-06	660.78	272.75	1.9178e-06	1.8275e-06	308.1	145.76	129.36	70.44	1.913e-06	82.622	-122.495	-66.332	-66.022	-155.269	-23.542	-17.142	-156.294	-149.740	-36.492	-47.114	-152.096	-148.366	-146.059	-141.506	-56.220	-144.384	-8191	255	
2172.305	1	1	0	0	0.36469	0.24021	0.34728	0.23486	0.13218	0.18173	0.2286	0.19855	0.064031	0.18563	0.056126	0.16587	0.16952	0.13528	0.15009	0.1992	-2.2625	-3.3875	-3.0896	-2.9604	-3.3167	-2.8375	-3.3583	-3.525	-2.625	-3.4479	-3.1875	-2.8458	-3.4521	-2.9313	-3.1167	-3.5479	11.338	163.279	97.462	92.149	-93.835	167.018	69.138	162.551	129.675	159.459	-45.097	122.826	10.855	185.886	180.507	90.840	0.00064357	0.00050299	0.00016692	636.97	3.7485e-06	3.5871e-06	651.11	265.55	2.831e-06	3.4007e-06	303.73	141.34	125.67	68.07	4.284e-06	80.811	0.00024294	0.00016935	4.6937e-05	638.73	1.8789e-06	1.8699e-06	654.89	269.5	1.9429e-06	1.8507e-06	305	143.5	127.4	69.263	1.9689e-06	81.547	-121.446	-86.585	-103.980	-155.423	-32.023	-15.841	-156.559	-149.720	-25.947	-28.378	-151.938	-148.173	-146.072	-141.221	-9.861	-144.542	-8191	255	
2172.401	1	1	0	0	0.13798	0.20569	0.063227	0.1986	0.21752	0.16784	0.063286	0.118	0.095948	0.21272	0.23566	0.16197	0.12653	0.09489	0.20315	0.14203	-2.4604	-3.2562	-3.1562	-2.9167	-3.5563	-2.9646	-3.0875	-3.5854	-2.775	-3.2917	-3.3167	-2.9042	-3.6479	-2.9729	-2.9979	-3.7625	78.217	91.814	-109.676	119.634	-109.554	79.626	-147.466	129.402	35.622	113.368	-142.099	-41.204	150.870	179.588	183.723	173.719	0.00066903	0.00037443	0.00011024	629.09	3.4087e-06	3.8069e-06	643.1	262.52	4.3365e-06	5.067e-06	295.88	138.46	122.8	66.607	6.5669e-06	78.479	0.00024774	0.00016774	4.725e-05	633.05	1.916e-06	1.8194e-06	649.79	265.3	1.999e-06	1.9402e-06	299.59	140.23	124.66	67.618	2.1771e-06	79.498	-121.065	-70.636	-65.057	-155.714	-24.199	-39.519	-156.134	-149.562	-36.375	-50.452	-151.827	-148.499	-146.029	-141.209	-26.242	-144.117	-8191	255	
2172.495	1	1	0	0	0.16388	0.078365	0.05485	0.083969	0.13838	0.17383	0.14945	0.10487	0.19485	0.18299	0.16773	0.26636	0.0073485	0.14594	0.3051	0.15033	-2.2354	-3.3125	-3.3125	-2.7854	-3.5479	-2.9875	-2.9938	-3.4896	-2.7833	-3.2625	-3.5104	-2.8833	-3.6771	-3.3542	-2.7333	-3.6229	-152.701	-26.734	-41.072	-114.025	-147.263	155.485	124.933	-18.629	129.554	173.554	173.969	-8.488	-101.615	-137.967	119.369	-78.743	0.00061969	0.00057344	0.00018617	621.98	2.4532e-06	7.7187e-06	642.04	258.41	3.952e-06	3.7973e-06	295.05	136.85	121.33	65.484	5.9911e-06	78.215	0.00025621	0.00018594	5.3974e-05	626.42	2.0774e-06	2.0707e-06	645.21	261.41	2.1285e-06	2.0753e-06	296.5	138.72	123.25	66.87	2.2117e-06	79.167	-124.079	-79.136	-60.630	-155.209	0.159	-23.676	-156.301	-149.709	-36.243	-40.265	-151.781	-148.397	-145.981	-141.073	-20.903	-144.335	-8191	255	
2172.616	1	1	0	0	0.10903	0.17236	0.14326	0.1171	0.31405	0.06825	0.19363	0.29858	0.086506	0.13513	0.23997	0.15763	0.23948	0.26785	0.10296	0.24728	-2.3479	-3.0938	-3.5396	-2.8667	-3.5062	-3.275	-2.9958	-3.6042	-2.675	-3.2646	-3.5938	-2.775	-3.3729	-3.3438	-2.9062	-3.6437	-126.456	152.341	58.672	-81.734	-24.550	94.202	14.435	45.648	-67.104	-31.345	179.181	56.437	178.402	44.929	-141.817	156.101	0.0006131	0.00048952	0.00012526	619.64	5.0255e-06	6.66e-06	638.84	258.97	1.7749e-06	4.8759e-06	296.73	138.59	122.02	66.361	4.4248e-06	78.331	0.00025935	0.00019151	5.134e-05	622.27	2.0816e-06	2.0079e-06	642.96	261.75	2.0795e-06	2.0199e-06	298.01	140.06	124.18	67.356	2.1871e-06	79.168	-124.126	-98.163	-85.419	-155.420	-23.043	-1.083	-156.436	-149.698	-31.825	-30.685	-151.658	-148.494	-145.928	-141.067	-13.991	-144.427	-8191	255	
2172.688	1	1	0	0	0.060838	0.24803	0.11255	0.22527	0.29036	0.29251	0.14217	0.24076	0.13337	0.20287	0.17589	0.22814	0.13069	0.36441	0.27508	0.15525	-2.5542	-2.9208	-3.6104	-2.8646	-3.1375	-3.2521	-2.8958	-3.8104	-3.1542	-3.025	-3.5438	-2.8063	-3.2479	-3.5438	-2.8021	-3.5979	147.171	-90.576	151.094	-27.855	-108.199	-135.694	-33.711	185.464	146.536	-13.709	118.727	-91.447	164.526	-136.271	60.741	188.237	0.00060883	0.00039471	0.00015302	617.41	2.6476e-06	5.895e-06	634.93	254.52	3.7691e-06	4.5364e-06	291.3	136.19	120.84	65.115	5.5544e-06	77.233	0.00025886	0.00019635	5.5489e-05	620.1	2.1382e-06	2.1513e-06	636.89	258.59	2.1583e-06	2.17e-06	293.15	137.72	122.46	66.224	2.1322e-06	78.262	-122.685	-98.570	-45.667	-155.436	-20.076	-12.991	-156.675	-149.726	-33.958	-17.592	-151.811	-148.396	-146.086	-141.418	-41.337	-144.172	-8191	255	
2172.786	1	1	0	0	0.191	0.29861	0.078194	0.031286	0.24103	0.1689	0.081977	0.32075	0.17421	0.054192	0.13116	0.18665	0.17036	0.20594	0.18346	0.16583	-2.6979	-2.9	-3.6208	-2.8875	-3.025	-3.3438	-2.6562	-3.4667	-3.1167	-2.8688	-3.7271	-2.8979	-3.1917	-3.5062	-2.8292	-3.4583	-64.233	-67.105	1.815	96.127	51.028	106.381	130.323	130.636	40.664	-9.621	110.518	174.027	155.305	89.557	-40.843	101.827	0.00059161	0.0005773	0.0001098	615.4	3.2166e-06	6.1932e-06	634.04	258.23	3.0101e-06	4.6464e-06	295.55	137.95	123.15	66.409	4.9576e-06	79.05	0.00025041	0.00018682	5.1697e-05	618.24	2.0042e-06	1.9321e-06	636.91	261.15	2.0051e-06	1.9908e-06	297.41	139.82	124.56	67.612	2.0207e-06	79.779	-117.937	-90.682	-67.426	-155.688	-10.162	-20.350	-156.708	-149.707	-15.917	-25.867	-151.852	-148.055	-145.863	-141.225	-33.858	-144.352	-8191	255	
2172.904	1	1	0	0	0.25139	0.092532	0.20422	0.37983	0.1075	0.41803	0.12054	0.19906	0.24055	0.098891	0.34016	0.18334	0.31825	0.070655	0.14275	0.23329	-2.6437	-2.8354	-3.5396	-2.8917	-3.2396	-3.2979	-3.0208	-3.2708	-3.3479	-2.6521	-3.5104	-2.9354	-2.9375	-3.4313	-2.7375	-3.4708	179.894	28.031	11.677	-124.310	-76.116	-31.545	181.134	171.007	132.104	177.490	-113.949	57.329	104.757	97.686	-77.920	-77.929	0.00060281	0.00045859	0.00017337	620.3	3.0233e-06	4.3999e-06	635.99	260.6	4.4158e-06	5.9092e-06	299.11	139.48	124.07	67.325	3.5127e-06	80.414	0.00024187	0.00017721	4.9213e-05	622.67	1.9403e-06	1.8917e-06	641.15	263.26	1.9571e-06	1.9315e-06	300.29	141.51	125.52	68.398	1.9973e-06	81.124	-121.485	-70.192	-67.938	-155.248	15.477	-35.766	-156.191	-149.668	-28.131	-17.108	-152.054	-148.065	-146.067	-141.125	-33.024	-144.210	-8191	255	
2173.001	1	1	0	0	0.080038	0.021472	0.13692	0.30883	0.29326	0.095386	0.35657	0.20212	0.16556	0.05021	0.24555	0.31827	0.083366	0.22142	0.13343	0.11317	-2.9667	-2.8167	-3.4583	-3.0438	-2.8917	-3.5396	-2.7354	-3.175	-3.2062	-2.6646	-3.6312	-3.0375	-3.0292	-3.7687	-2.7417	-3.4	-58.822	-38.427	168.633	-164.905	168.504	-158.956	120.391	-127.661	185.366	117.036	115.103	99.698	-100.321	174.264	49.548	96.872	0.00064683	0.00069753	0.00020164	627.08	5.1717e-06	4.4925e-06	645.13	262.6	4.3602e-06	5.2611e-06	302.25	141.28	124.93	68.073	5.6849e-06	81.077	0.00024415	0.00017616	4.8195e-05	628.55	1.9735e-06	1.893e-06	647.39	266.22	1.9305e-06	1.9008e-06	303.54	143.09	126.77	69.241	2.0061e-06	81.78	-122.743	-63.933	-69.490	-155.395	-13.846	-8.863	-156.556	-149.528	-30.079	-14.137	-151.941	-148.275	-146.284	-141.211	-24.746	-144.334	-8191	255	
2173.097	1	1	0	0	0.13613	0.094821	0.18831	0.25739	0.13118	0.16107	0.19372	0.12535	0.041129	0.08622	0.16853	0.11987	0.24517	0.11569	0.096024	0.24695	-2.8667	-2.6458	-3.675	-3.1583	-2.7875	-3.4208	-2.9333	-3.2146	-3.3896	-2.8438	-3.4208	-3.2333	-2.9875	-3.6917	-2.9479	-3.2625	154.177	-154.613	-111.541	171.754	149.853	147.691	189.325	188.032	48.566	-119.755	152.129	-153.906	139.054	-44.859	85.989	93.656	0.000617	0.00061144	0.00015151	626.33	1.9795e-06	5.2252e-06	639.84	261.6	3.3261e-06	5.3025e-06	298.12	140.33	124.2	67.338	4.062e-06	79.829	0.00024333	0.00017711	4.7284e-05	627.77	1.9097e-06	1.901e-06	645.28	265.56	1.9035e-06	1.9047e-06	301.1	142	126.06	68.549	1.9823e-06	80.786	-123.698	-84.716	-81.758	-155.116	-27.185	-20.552	-156.328	-149.768	-4.418	-30.465	-151.856	-148.319	-146.324	-141.191	-26.391	-144.395	-8191	255	
2173.193	1	1	0	0	0.09769	0.13322	0.12331	0.16881	0.082468	0.10463	0.14087	0.16667	0.23229	0.098328	0.15772	0.048218	0.1224	0.40025	0.10733	0.25925	-3.0333	-2.7229	-3.6083	-3.3271	-2.6771	-3.5312	-2.8333	-3.0479	-3.5375	-2.7188	-3.4146	-3.2438	-2.8	-3.6396	-3.0396	-3.15	-125.550	66.282	125.608	122.635	-59.640	-109.915	-2.008	-144.586	66.873	62.286	149.954	-156.050	-134.464	147.219	133.146	107.408	0.00063353	0.00045236	0.00018236	628.35	4.1361e-06	5.0177e-06	642.33	260.01	4.2225e-06	4.3051e-06	300.02	139.49	123.7	67.442	5.8029e-06	79.71	0.00024079	0.00017388	4.7877e-05	628.31	1.9775e-06	1.852e-06	645.23	264.7	1.9208e-06	1.9176e-06	300.87	141.28	125.61	68.533	1.9382e-06	80.72	-122.801	-77.016	-66.169	-155.238	-4.926	-29.329	-156.331	-149.449	-32.809	-23.865	-151.707	-148.266	-145.965	-141.386	-35.075	-144.396	-8191	255	
2173.289	1	1	0	0	0.14622	0.088954	0.10187	0.08171	0.11471	0.11218	0.24671	0.3917	0.094368	0.21291	0.091109	0.15575	0.21551	0.24776	0.14333	0.34808	-3.1312	-2.7354	-3.2104	-3.3688	-2.9375	-3.4979	-3.1479	-2.9708	-3.7979	-2.9958	-3.4542	-3.4958	-2.7313	-3.55	-3.2896	-2.7854	164.245	-16.589	-133.917	181.773	-90.799	116.981	126.404	83.419	-147.028	173.328	44.063	-109.467	177.277	-149.565	158.541	84.399	0.00063378	0.00048088	0.0001767	628.65	5.0635e-06	4.5619e-06	644.47	265.3	4.3025e-06	8.089e-06	301.37	142.06	126.36	68.799	4.9784e-06	81.292	0.00024155	0.00016508	4.6905e-05	629.41	1.891e-06	1.7473e-06	648.85	267.93	1.8215e-06	1.7356e-06	304.59	143.79	128.03	70.003	1.8723e-06	82.302	-120.042	-71.911	-71.582	-155.361	-21.537	-9.646	-156.347	-149.671	-21.127	-19.365	-151.853	-148.399	-146.109	-141.520	-27.279	-144.414	-8191	255	
2173.385	1	1	0	0	0.070607	0.16279	0.10374	0.089146	0.26686	0.12205	0.2552	0.063236	0.097955	0.2106	0.16874	0.28432	0.041054	0.12009	0.068722	0.14888	-3.1021	-2.9	-3.2354	-3.5375	-2.8375	-3.5479	-3.1729	-3.0021	-3.6333	-3.0479	-3.1396	-3.6063	-2.9542	-3.5438	-3.1354	-2.9229	-131.870	54.844	44.662	-166.708	42.570	77.489	83.299	64.595	-99.315	29.362	171.449	173.518	-44.450	-151.254	61.658	95.140	0.00062822	0.00047131	0.00015721	633.87	4.0665e-06	6.0542e-06	646.91	267.07	3.3556e-06	3.3823e-06	305.66	144.24	127.83	69.519	4.8014e-06	82.848	0.00023489	0.00016759	4.4829e-05	634.42	1.7898e-06	1.7543e-06	651.73	270.54	1.8171e-06	1.7774e-06	307.39	145.87	129.65	70.884	1.8445e-06	83.75	-121.818	-68.676	-92.633	-155.293	-50.470	-4.542	-156.150	-149.836	-42.565	-25.605	-151.651	-148.047	-146.301	-141.311	-37.908	-144.511	-8191	255	
2173.506	1	1	0	0	0.055228	0.089497	0.046042	0.08775	0.29126	0.078702	0.063314	0.19826	0.40593	0.25023	0.1263	0.01035	0.21464	0.17452	0.29806	0.25074	-3.1063	-2.9562	-3.0812	-3.65	-2.6625	-3.2333	-3.275	-2.8667	-3.5062	-3.1708	-2.9	-3.5167	-2.8729	-3.2104	-3.2062	-3.0229	-136.493	35.537	103.404	55.031	-21.248	183.156	-158.377	-152.571	-42.367	-92.983	-165.718	7.840	161.965	131.108	29.018	177.943	0.0006694	0.00068733	0.00016693	638.78	4.6541e-06	5.319e-06	657.32	267.23	4.8341e-06	5.9789e-06	306.62	143.69	127.14	68.879	3.4355e-06	81.701	0.000241	0.00016642	4.4844e-05	640.92	1.8523e-06	1.7828e-06	658.61	271.03	1.8496e-06	1.7863e-06	308.19	145.65	128.75	70.136	1.8866e-06	82.842	-121.794	-75.437	-74.003	-155.419	-12.191	-23.154	-156.195	-149.571	-25.641	-15.975	-152.047	-148.499	-146.398	-141.131	-33.153	-144.287	-8191	255	
2173.600	1	1	0	0	0.14454	0.13019	0.21002	0.18494	0.28907	0.12682	0.1034	0.33443	0.10138	0.093233	0.18525	0.16931	0.22072	0.242	0.20733	0.08541	-3.1021	-2.9979	-2.9938	-3.6583	-2.8354	-3.2083	-3.4417	-2.7646	-3.6771	-3.0542	-3.0292	-3.4729	-2.775	-3.3896	-3.2958	-2.8	99.177	-18.593	-16.728	-163.367	-106.028	24.183	93.050	113.434	101.449	187.723	-148.312	90.833	-142.925	-138.078	140.887	-110.056	0.00064634	0.00052435	0.00012632	635.23	3.3447e-06	5.5228e-06	650.48	265.72	4.4407e-06	4.534e-06	305.04	142.69	126.17	68.744	4.3423e-06	81.434	0.00024402	0.00016533	4.63e-05	637.54	1.8665e-06	1.831e-06	655.03	268.84	1.8529e-06	1.7476e-06	306.42	144.48	128.03	69.884	1.8167e-06	82.429	-121.155	-89.036	-66.504	-155.594	-23.683	-22.284	-156.087	-149.729	-31.904	-6.483	-151.758	-147.854	-145.871	-141.134	-17.177	-144.197	-8191	255	
2173.696	1	1	0	0	0.10436	0.25163	0.15486	0.22909	0.16642	0.046784	0.17544	0.024644	0.135	0.31924	0.19916	0.18673	0.030133	0.080446	0.16329	0.34448	-3.1125	-3.2	-2.9792	-3.6	-2.9979	-3.1958	-3.4833	-3.0563	-3.2292	-3.2812	-2.8979	-3.5792	-3.1625	-3.0917	-3.3854	-2.8625	40.477	124.146	119.393	153.629	-90.406	-89.386	107.462	-82.272	149.038	150.633	121.991	131.038	-150.472	124.930	-21.573	138.905	0.00063011	0.00074555	0.00014153	635.37	3.6557e-06	5.6532e-06	650.52	266.18	3.0264e-06	5.965e-06	303.69	142.94	126.96	69.059	6.4486e-06	82.112	0.00023421	0.00016287	4.6327e-05	637.16	1.7889e-06	1.7416e-06	654.93	269.33	1.7703e-06	1.7373e-06	305.9	144.65	128.46	70.298	1.8298e-06	82.809	-120.448	-78.056	-83.476	-155.089	-10.719	4.060	-155.974	-149.441	-37.354	-41.758	-151.348	-148.159	-145.870	-141.154	-46.971	-144.238	-8191	255	
2173.792	1	1	0	0	0.29547	0.073735	0.023607	0.21965	0.29817	0.076126	0.087454	0.33354	0.19595	0.22419	0.13931	0.052099	0.1969	0.34369	0.034441	0.12122	-3.0021	-3.4271	-2.8438	-3.5187	-3.0312	-3.1813	-3.5292	-2.9062	-3.2146	-3.3417	-3.0062	-3.4625	-3.2354	-3.1562	-3.5146	-2.8583	-130.207	98.316	-148.130	59.450	-85.643	112.774	-30.929	-150.639	100.651	-60.114	92.917	69.237	-165.127	166.996	179.005	98.931	0.00064477	0.00059228	0.00010867	634.95	4.4753e-06	6.239e-06	648.29	265.33	2.9553e-06	8.358e-06	305.05	143.03	126.37	68.706	5.1315e-06	81.454	0.0002333	0.00016157	4.5938e-05	636.24	1.7808e-06	1.7587e-06	652.29	268.54	1.8037e-06	1.7336e-06	305.79	144.53	127.81	69.923	1.864e-06	82.581	-122.040	-69.042	-68.319	-155.101	-22.612	-11.527	-155.793	-149.571	-10.319	-33.280	-151.694	-148.073	-145.877	-141.327	-9.050	-144.028	-8191	255	
2173.913	1	1	0	0	0.16444	0.096457	0.096985	0.12456	0.13673	0.12888	0.18213	0.10697	0.077202	0.11616	0.10935	0.05293	0.16669	0.25137	0.080322	0.049966	-2.8708	-3.2896	-2.8167	-3.575	-3.0917	-2.9083	-3.6854	-2.8917	-3.0396	-3.3521	-2.7646	-3.3167	-3.225	-2.8458	-3.5271	-3	-152.892	161.729	24.544	-162.640	13.029	-164.442	139.551	133.180	-67.457	87.422	158.650	-89.063	-158.404	-141.205	107.081	171.633	0.00065582	0.00071843	0.00013313	633.74	4.2682e-06	6.0196e-06	651.26	265.7	3.6346e-06	4.6514e-06	305.89	143.11	126.52	68.4	4.8067e-06	81.503	0.00023946	0.00016201	4.6871e-05	636.63	1.8653e-06	1.8836e-06	654.59	269.43	1.8864e-06	1.7587e-06	307.23	144.88	127.87	69.824	1.8633e-06	82.785	-122.377	-92.546	-79.469	-155.657	-25.417	-21.402	-155.982	-149.852	-34.982	-5.559	-151.414	-148.284	-146.079	-141.504	-14.156	-144.468	-8191	255	
2173.985	1	1	0	0	0.18913	0.37705	0.04455	0.19113	0.2807	0.30356	0.22916	0.10483	0.14381	0.1303	0.20559	0.088828	0.23381	0.23875	0.11023	0.17319	-2.7104	-3.3896	-2.6833	-3.4854	-3.0917	-2.7313	-3.6271	-3.0271	-3.0563	-3.4979	-2.8187	-3.4479	-3.2896	-3.0438	-3.5062	-3.2396	-43.614	172.072	-87.775	110.702	-92.298	95.662	-67.938	-127.965	137.620	-2.920	148.923	-142.483	157.911	190.277	-19.574	87.279	0.000664	0.00056727	0.00015694	632.49	4.6305e-06	3.7619e-06	653.08	263.6	3.6848e-06	5.7061e-06	302.81	142.34	125.63	68.316	4.8268e-06	81.016	0.00023586	0.0001631	4.7128e-05	634.94	1.7902e-06	1.7944e-06	654.29	267.41	1.9102e-06	1.7896e-06	304.81	143.9	127.19	69.292	1.8942e-06	81.942	-122.414	-71.912	-61.805	-155.311	1.199	2.509	-156.765	-149.921	-25.404	-4.085	-152.340	-148.457	-146.405	-141.436	-38.201	-144.443	-8191	255	
2174.081	1	1	0	0	0.08226	0.13515	0.40194	0.29891	0.10903	0.13794	0.10078	0.23068	0.21883	0.12701	0.18586	0.11313	0.21915	0.087985	0.39281	0.076016	-2.6688	-3.4417	-2.6375	-3.3542	-3.4042	-2.7292	-3.45	-3.2083	-2.9708	-3.6208	-2.9292	-3.2729	-3.3208	-2.8312	-3.25	-3.2917	13.147	-23.303	190.301	-161.168	-54.360	-110.282	59.780	90.304	125.604	-8.612	-157.931	142.137	-63.698	-36.690	-67.662	2.672	0.00066158	0.00050671	0.00011091	633.41	3.6876e-06	4.3007e-06	649.97	264.7	4.3985e-06	4.7477e-06	306.03	141.89	125.66	68.497	3.3848e-06	81.078	0.0002348	0.00016236	4.4805e-05	635.36	1.7863e-06	1.7666e-06	653.03	268.21	1.8457e-06	1.6993e-06	305.67	143.99	127.69	69.705	1.8189e-06	82.121	-121.268	-88.131	-83.190	-155.577	10.890	-26.778	-156.346	-149.681	-33.974	-34.031	-151.779	-148.389	-145.724	-141.147	-69.570	-144.361	-8191	255	
2174.177	1	1	0	0	0.054893	0.30157	0.074673	0.24081	0.15912	0.047602	0.12722	0.068704	0.048912	0.11263	0.13282	0.08407	0.077872	0.23451	0.15744	0.30077	-2.6167	-3.4208	-2.7375	-3.2188	-3.3042	-2.6688	-3.4729	-2.925	-2.9354	-3.4542	-2.8792	-3.0021	-3.6396	-2.9896	-3.2687	-3.3	30.537	-128.162	117.429	68.147	77.539	-128.052	70.403	-125.006	86.974	22.243	-101.409	183.873	133.923	177.098	66.496	131.904	0.00066361	0.00034712	0.00015282	632	3.8546e-06	3.5736e-06	649.16	264.3	4.4049e-06	3.8214e-06	304.09	141.78	125.16	68.151	3.4195e-06	80.825	0.00023784	0.00015879	4.4308e-05	634.64	1.7641e-06	1.7361e-06	651.22	267.88	1.8461e-06	1.6752e-06	304.7	143.52	127.31	69.495	1.8607e-06	81.634	-120.577	-95.514	-66.901	-155.442	-8.442	-37.169	-156.223	-149.974	-36.703	-2.080	-151.708	-148.408	-146.164	-141.334	-23.701	-144.360	-8191	255	
2174.298	1	1	0	0	0.08648	0.05349	0.21412	0.17035	0.22106	0.29811	0.27525	0.15857	0.33628	0.26194	0.38835	0.20659	0.15189	0.36719	0.27569	0.069757	-2.3375	-3.5062	-2.7417	-3.0208	-3.4375	-2.6479	-3.2771	-3.3396	-2.7521	-3.6646	-3.1562	-2.8312	-3.5625	-3.1188	-3.3104	-3.5125	1.492	92.327	-120.949	107.465	72.621	31.410	27.070	142.160	-11.357	47.827	123.936	146.611	-51.587	161.185	89.428	191.058	0.00063959	0.00043386	0.00014487	629.01	4.7413e-06	5.2133e-06	642.26	262.06	4.3603e-06	4.9587e-06	299.19	139.63	123.64	66.607	4.1356e-06	79.152	0.00023944	0.00016226	4.5086e-05	631.29	1.8167e-06	1.7835e-06	646.57	265.51	1.8844e-06	1.8032e-06	300.46	141.43	125.33	67.97	1.9428e-06	80.23	-120.762	-83.043	-83.885	-155.326	-33.299	-7.803	-156.217	-149.968	-26.723	1.003	-151.875	-148.400	-146.360	-141.522	-10.883	-144.558	-8191	255	
2174.392	1	1	0	0	0.20422	0.14766	0.17956	0.29369	0.14736	0.02871	0.16118	0.19922	0.28079	0.24589	0.12306	0.24035	0.27722	0.073059	0.10408	0.015259	-2.2146	-3.4604	-3.1271	-3.0083	-3.4271	-2.7979	-3.1562	-3.3104	-2.7917	-3.3604	-3.25	-2.9542	-3.3729	-2.9208	-3.2062	-3.4521	29.521	21.811	36.828	172.428	76.663	-63.177	93.206	-153.616	119.204	-89.984	173.114	108.752	63.322	-141.675	-102.180	-133.783	0.00063047	0.00035905	0.00014476	623.82	3.6238e-06	4.8481e-06	640.8	260.18	4.6139e-06	2.7994e-06	296.3	138.36	121.99	65.919	4.3991e-06	78.866	0.00024184	0.00017096	4.7365e-05	626.61	1.8547e-06	1.8508e-06	643.96	262.32	1.9275e-06	1.807e-06	298.31	140.02	123.78	67.156	1.9922e-06	79.696	-121.483	-86.665	-61.809	-155.648	-15.716	-12.079	-156.505	-149.843	-28.937	-46.437	-152.041	-148.319	-146.288	-141.470	-45.780	-144.199	-8191	255	
2174.488	1	1	0	0	0.078661	0.066189	0.22261	0.21613	0.18844	0.2369	0.15121	0.27658	0.20745	0.07393	0.23039	0.14726	0.20938	0.19278	0.1342	0.068732	-2.4229	-3.525	-3.1229	-2.9688	-3.5062	-2.925	-3.2042	-3.55	-2.8771	-3.4542	-3.2396	-2.9979	-3.5708	-2.9625	-3.0917	-3.5042	31.493	-151.509	134.927	20.325	-73.437	162.645	20.678	169.041	84.650	85.047	137.950	123.559	102.778	133.730	37.650	115.174	0.00061617	0.00039029	0.00011126	620.77	5.195e-06	5.1527e-06	638.18	257.58	3.8482e-06	5.0795e-06	295.69	137.68	122.27	66.051	3.2446e-06	78.454	0.00024237	0.00016946	4.723e-05	623.03	1.8674e-06	1.8434e-06	641.64	260.95	1.8642e-06	1.7456e-06	297.53	139.5	123.6	67.214	1.9403e-06	79.236	-123.234	-99.698	-76.672	-155.417	-46.749	-23.953	-156.024	-149.634	-26.603	-32.228	-151.786	-148.545	-146.259	-141.260	-38.188	-144.435	-8191	255	
2174.586	1	1	0	0	0.17802	0.23014	0.07432	0.073788	0.050086	0.051304	0.1085	0.33538	0.35107	0.079675	0.18933	0.079635	0.064205	0.17527	0.13176	0.10449	-2.3542	-3.2458	-3.3229	-2.7687	-3.3833	-2.9813	-3.0187	-3.5979	-2.7646	-3.3021	-3.4417	-2.8458	-3.5104	-3.1312	-2.8646	-3.5771	70.922	-105.601	-9.800	143.288	-165.786	15.210	143.466	158.137	166.750	-101.160	-145.108	166.699	74.689	76.868	-127.784	40.179	0.00060718	0.00052886	0.00013604	620.21	2.6486e-06	3.3244e-06	634.26	256.07	1.4088e-06	2.9481e-06	293.59	137.42	121.18	65.502	5.3591e-06	77.633	0.00023328	0.00016769	4.5387e-05	621.68	1.8375e-06	1.7763e-06	637.44	260.3	1.9124e-06	1.8154e-06	295.27	138.66	123.01	66.654	1.9372e-06	78.613	-121.494	-71.144	-91.879	-155.513	-4.027	-10.135	-156.281	-149.585	-11.265	6.877	-151.772	-147.965	-145.977	-141.138	-25.771	-144.508	-8191	255	
2174.681	1	1	0	0	0.15906	0.090764	0.11905	0.18641	0.0492	0.086886	0.029633	0.14472	0.04506	0.051491	0.10224	0.20373	0.40705	0.16412	0.20006	0.17221	-2.5104	-3.1729	-3.3875	-2.675	-3.4208	-3.1	-2.925	-3.6042	-2.7667	-3.2146	-3.3646	-2.7812	-3.4104	-3.3396	-2.8458	-3.6771	136.843	7.604	-135.244	-15.777	-106.637	-94.386	-34.885	118.798	-0.534	-6.417	28.721	175.534	138.239	-153.467	-100.626	62.561	0.00062025	0.0003553	0.00018354	618.5	3.7714e-06	4.6725e-06	634.31	254.71	3.4612e-06	5.9028e-06	290.4	134.59	118.71	63.815	4.6103e-06	75.897	0.00024067	0.00017605	4.747e-05	620	1.895e-06	1.8308e-06	636.6	257.89	1.9651e-06	1.9064e-06	292.31	136.31	120.47	65.038	2.1142e-06	76.801	-122.783	-68.280	-87.714	-155.264	-16.363	-17.784	-156.004	-149.624	-19.978	-17.463	-151.613	-147.879	-145.976	-140.980	-35.031	-144.100	-8191	255	
2174.777	1	1	0	0	0.10996	0.16422	0.19235	0.10636	0.081757	0.18041	0.10371	0.11325	0.066227	0.15795	0.050208	0.14391	0.056013	0.10527	0.071219	0.033144	-2.5354	-3.0312	-3.4333	-2.8354	-3.1521	-3.3417	-2.8854	-3.575	-2.9333	-3.0958	-3.5833	-2.85	-3.3771	-3.4938	-2.6604	-3.5146	-82.590	20.004	-130.285	70.175	-128.527	-48.459	39.278	123.837	67.764	186.396	188.356	-133.077	167.038	-126.869	-121.086	117.186	0.00056124	0.00040116	0.00012458	615.61	3.5576e-06	4.2812e-06	631.77	251.81	4.2627e-06	4.8407e-06	287.18	133.02	116.94	63.148	3.9916e-06	75.701	0.0002479	0.00018343	5.1303e-05	616.74	1.9937e-06	1.9993e-06	635.49	254.44	2.0712e-06	2.072e-06	289.17	134.66	118.79	64.206	2.114e-06	76.438	-120.064	-82.687	-93.046	-154.914	-23.022	-12.865	-156.170	-149.540	-36.229	-6.476	-151.475	-148.142	-145.988	-141.443	-35.343	-144.379	-8191	255	
2174.873	1	1	0	0	0.12998	0.26453	0.15755	0.26218	0.10717	0.069052	0.12171	0.03004	0.061905	0.10841	0.15157	0.060246	0.2148	0.32967	0.13672	0.13855	-2.8104	-2.8458	-3.4146	-2.8708	-3.1458	-3.1083	-2.8458	-3.6125	-2.9208	-2.8542	-3.4437	-2.8396	-3.2188	-3.4667	-2.6708	-3.4833	-77.901	61.824	-91.539	-136.140	81.224	151.355	-67.445	-120.873	-3.025	-69.016	118.640	-44.000	136.611	119.887	86.128	135.837	0.00058364	0.00038891	8.8182e-05	613.41	3.459e-06	5.2282e-06	631.44	251.61	1.3869e-06	4.6531e-06	289.76	134.11	118.59	64.451	3.5981e-06	76.915	0.00025165	0.00018879	5.1876e-05	616.83	2.0202e-06	1.982e-06	635.59	255.35	2.041e-06	1.9612e-06	291.67	136.2	120.64	65.626	2.0065e-06	78.001	-121.488	-58.959	-67.257	-155.533	-30.549	-13.011	-156.318	-149.612	-48.786	-8.388	-152.250	-148.398	-146.415	-141.393	-3.508	-144.402	-8191	255	
2174.993	1	1	0	0	0.19379	0.1882	0.061884	0.024209	0.10018	0.09118	0.11202	0.20691	0.19369	0.12927	0.10201	0.22017	0.3383	0.18347	0.32211	0.092348	-2.6917	-2.8396	-3.4708	-2.825	-3.0417	-3.4667	-2.7458	-3.4667	-3.3	-2.8083	-3.5896	-2.7917	-3.125	-3.4938	-2.8604	-3.4625	26.598	138.634	26.651	-134.898	-167.615	9.870	-167.081	-114.595	50.514	167.971	78.237	115.733	-142.879	167.301	95.143	22.770	0.00058483	0.00064396	0.00011892	616.52	3.9987e-06	5.4863e-06	631.34	256.23	3.3931e-06	4.8228e-06	292.8	136.48	121.01	65.56	5.7402e-06	78.275	0.00023797	0.00017015	4.7108e-05	619.38	1.896e-06	1.8471e-06	636.23	258.56	1.8853e-06	1.8469e-06	294.51	138.6	122.91	66.854	1.9152e-06	79.172	-121.633	-75.898	-72.075	-155.313	-14.919	-15.742	-156.325	-149.712	-15.247	-2.960	-151.794	-148.404	-146.397	-141.554	-40.095	-144.846	-8191	255	
2175.090	1	1	0	0	0.092991	0.041261	0.18888	0.080041	0.15824	0.16478	0.15827	0.18309	0.036792	0.27286	0.11451	0.10785	0.3255	0.17356	0.22078	0.26609	-2.8167	-2.7833	-3.5021	-2.9104	-2.8729	-3.5354	-2.7479	-3.3729	-3.3063	-2.8083	-3.4625	-3.0542	-3.0438	-3.5479	-2.9646	-3.3146	-161.297	115.187	172.073	162.102	-133.175	-150.033	67.141	-60.245	11.981	108.328	20.688	86.243	147.049	162.860	42.085	94.574	0.00060317	0.00040094	5.5999e-05	617.83	3.7968e-06	1.7186e-06	635.49	259.59	4.1376e-06	3.1486e-06	299.09	139.53	123.44	66.772	3.7868e-06	79.321	0.00023074	0.00016787	4.5089e-05	621.21	1.8411e-06	1.7986e-06	638.75	263.07	1.8198e-06	1.7652e-06	299.86	141.05	125.02	67.983	1.8489e-06	80.266	-121.757	-62.645	-0.084	-155.376	-23.182	-3.883	-156.299	-149.793	-51.331	-30.026	-151.536	-148.133	-146.322	-141.326	-15.943	-144.420	-8191	255	
2175.186	1	1	0	0	0.06229	0.25998	0.21732	0.13043	0.35854	0.27724	0.026131	0.2732	0.27668	0.23256	0.091162	0.27738	0.26488	0.50471	0.14015	0.21075	-2.9125	-2.7042	-3.3438	-3.1479	-2.8333	-3.5	-2.7583	-3.3208	-3.2146	-2.8667	-3.4271	-3.1146	-2.8625	-3.4208	-2.8667	-2.8	127.951	60.254	66.728	121.480	33.803	158.268	164.021	149.648	-28.374	100.003	-125.409	179.027	123.243	156.855	173.332	106.762	0.00059184	0.00029841	0.00010613	622.33	4.3021e-06	5.9611e-06	639.05	261.33	4.7116e-06	4.3794e-06	300.01	139.6	124.27	67.264	6.5176e-06	80.349	0.00023125	0.00016745	4.5189e-05	623.64	1.8334e-06	1.7639e-06	641.69	264.36	1.8178e-06	1.8135e-06	300.93	141.63	125.83	68.592	1.8159e-06	81.133	-120.910	-62.669	-77.900	-155.117	-3.889	8.453	-156.441	-149.713	-14.425	-33.838	-151.569	-147.973	-146.036	-141.002	-31.140	-144.171	-8191	255	
2175.282	1	1	0	0	0.076205	0.14662	0.064694	0.16447	0.12139	0.020283	0.20409	0.12889	0.11604	0.17214	0.094348	0.12488	0.084662	0.12206	0.32777	0.43539	-3.2562	-2.7729	-3.3104	-3.2271	-2.6896	-3.6104	-3.0958	-3.1583	-3.5563	-2.7208	-3.3542	-3.0792	-2.975	-3.4896	-2.7313	-2.9917	-84.390	108.087	84.601	138.730	-44.118	-160.103	94.509	170.869	-2.453	-130.822	-121.040	-114.463	95.746	158.831	114.269	120.605	0.00064838	0.00056665	0.0001251	628.39	3.1203e-06	3.1979e-06	643.15	265.07	3.5037e-06	5.1631e-06	304.7	142.48	126.57	68.546	4.2774e-06	81.565	0.00023482	0.00015903	4.3926e-05	629.79	1.7832e-06	1.7188e-06	648.01	267.97	1.8013e-06	1.6963e-06	306.08	144.22	127.91	69.88	1.8216e-06	82.496	-120.469	-83.596	-75.187	-155.240	3.587	-5.624	-156.205	-149.898	-31.890	-14.571	-151.546	-148.058	-146.107	-141.365	-45.675	-144.446	-8191	255	
2175.378	1	1	0	0	0.07181	0.060101	0.022314	0.1395	0.15757	0.24777	0.27723	0.14112	0.17207	0.24293	0.16626	0.15881	0.10901	0.16298	0.25637	0.20399	-3.2479	-2.6833	-3.1729	-3.4167	-2.5438	-3.5396	-2.9	-2.9938	-3.5333	-2.925	-3.3104	-3.3479	-2.675	-3.6688	-2.9688	-2.8292	-21.154	-97.274	39.640	97.307	-36.125	-132.397	26.885	-34.742	120.533	-139.791	-62.588	124.369	-133.574	-126.749	152.813	105.018	0.00065682	0.00061003	0.00011737	632.4	2.5334e-06	4.8812e-06	647.93	265.62	3.7488e-06	5.5044e-06	304.33	142.28	125.89	68.268	5.0964e-06	80.739	0.0002322	0.00015685	4.4462e-05	633.13	1.7589e-06	1.6885e-06	651.09	268.93	1.7538e-06	1.8075e-06	305.88	144.13	127.37	69.58	1.8287e-06	81.942	-122.541	-100.880	-86.366	-155.218	-19.717	-30.033	-156.431	-150.045	-17.700	-32.531	-151.781	-148.418	-146.292	-141.273	-20.634	-144.711	-8191	255	
2175.474	1	1	0	0	0.21381	0.15601	0.046944	0.28394	0.093781	0.12024	0.10978	0.14742	0.17939	0.058467	0.16645	0.21321	0.22408	0.1236	0.23512	0.15478	-2.9771	-2.6271	-3.0375	-3.4437	-2.8208	-3.3542	-3.075	-3.0646	-3.4958	-2.8063	-3.0125	-3.5187	-2.8896	-3.6312	-3.1458	-3.0271	-50.794	-83.862	-97.679	95.010	-70.310	176.244	135.265	122.660	44.734	153.538	-137.563	117.711	141.518	-153.292	98.378	43.157	0.00065616	0.00065563	0.00010795	627.41	3.4215e-06	5.6186e-06	641.3	265.55	3.278e-06	5.5151e-06	301.33	141.58	124.93	67.742	4.8885e-06	80.381	0.00022756	0.00016206	4.4766e-05	630.72	1.783e-06	1.7023e-06	646.99	267.81	1.7817e-06	1.7534e-06	303.32	143.18	126.93	69.135	1.8486e-06	81.158	-122.513	-72.478	-87.444	-155.281	-4.037	-15.088	-156.085	-149.641	-13.198	-17.424	-151.390	-148.034	-145.962	-141.100	-19.440	-144.333	-8191	255	
2175.593	1	1	0	0	0.23807	0.27867	0.089406	0.20716	0.023026	0.069696	0.0709	0.23775	0.12374	0.058279	0.09353	0.15532	0.23538	0.23579	0.13918	0.15587	-3.25	-2.7062	-3.1063	-3.6813	-2.6	-3.2417	-3.2	-2.8229	-3.4896	-2.9521	-3.1292	-3.4938	-2.7583	-3.3625	-3.1792	-2.8042	180.602	-160.635	99.799	109.660	90.491	17.850	180.772	117.570	-152.589	70.946	125.142	175.666	166.336	-124.102	-18.657	107.368	0.00065262	0.00047381	0.00014037	629.39	4.3397e-06	4.8581e-06	642.7	264.44	4.37e-06	5.3225e-06	302.6	141.8	124.84	67.646	4.9319e-06	80.211	0.00023292	0.00016666	4.5794e-05	630.37	1.8026e-06	1.7655e-06	646.12	267.52	1.7819e-06	1.7186e-06	303.29	143.02	126.44	68.872	1.8794e-06	80.889	-121.281	-64.767	-75.579	-155.080	1.117	-14.929	-156.149	-149.475	-10.871	-9.761	-151.590	-148.154	-146.067	-141.158	-40.556	-144.156	-8191	255	
2175.689	1	1	0	0	0.24481	0.17405	0.039765	0.16445	0.28322	0.099174	0.090642	0.045476	0.19429	0.15698	0.10122	0.11405	0.25633	0.14006	0.11281	0.21966	-3.1354	-3.0271	-2.9813	-3.5917	-2.4833	-3.1813	-3.4458	-2.9271	-3.4083	-2.9979	-2.9062	-3.6396	-3.025	-3.1063	-3.3583	-2.9083	-117.074	105.451	119.249	-167.032	-34.119	-11.440	153.641	-73.301	67.090	142.139	189.269	55.551	102.756	141.501	-94.419	178.205	0.00063036	0.00035539	0.00012913	628.31	4.5766e-06	5.4317e-06	640.64	263.9	3.8161e-06	4.4985e-06	300.73	140.24	124.44	67.613	5.9e-06	79.901	0.00023236	0.00016628	4.5816e-05	628.89	1.7753e-06	1.7676e-06	645.31	266.59	1.7936e-06	1.7756e-06	302.53	142.43	126.12	68.719	1.8363e-06	80.851	-122.600	-108.426	-78.941	-155.335	-13.543	-5.439	-156.330	-149.972	-13.492	0.664	-151.853	-148.543	-146.312	-141.252	-22.219	-144.454	-8191	255	
2175.785	1	1	0	0	0.062802	0.15474	0.15792	0.11109	0.1419	0.02971	0.20525	0.31606	0.2606	0.24296	0.23976	0.27885	0.17286	0.41563	0.21526	0.11103	-3.0438	-3.0833	-2.8583	-3.5354	-2.8479	-3.1708	-3.3604	-2.8146	-3.3854	-3.1979	-2.8625	-3.4583	-3.0292	-3.1542	-3.3646	-2.8417	48.954	165.929	-165.296	149.407	188.561	149.202	-40.843	113.058	171.168	-100.101	129.708	98.019	144.256	152.907	26.053	-163.976	0.0006358	0.00046115	0.00011188	630.64	3.6055e-06	6.8302e-06	642.79	262.26	3.617e-06	4.3864e-06	300.55	139.33	123.53	67.04	6.5872e-06	79.681	0.00023546	0.00016116	4.6494e-05	630.48	1.8184e-06	1.8121e-06	645.44	265.1	1.8602e-06	1.8225e-06	301.46	141.71	125.15	68.273	1.8598e-06	80.712	-122.894	-54.406	-78.794	-155.532	-3.245	-22.762	-156.265	-149.963	-23.682	-18.845	-151.906	-148.307	-146.078	-141.295	-34.219	-144.295	-8191	255	
2175.857	1	1	0	0	0.13436	0.1595	0.102	0.15335	0.091169	0.1521	0.16125	0.16316	0.12094	0.14965	0.083093	0.073914	0.1471	0.27527	0.21001	0.25031	-2.9979	-3.2292	-2.6688	-3.4021	-3.0125	-3.1	-3.5604	-2.7521	-3.275	-3.4104	-2.8375	-3.6042	-3.0146	-2.9875	-3.5146	-3.0646	-141.103	110.817	-90.017	20.410	-89.585	24.747	-144.899	122.422	34.969	48.837	58.816	90.544	122.442	170.247	-94.363	175.150	0.00062198	0.00061469	0.00014505	624.09	3.7538e-06	3.9491e-06	642.06	261.28	4.1779e-06	3.8577e-06	298.55	139.7	123.47	66.838	5.832e-06	80.111	0.00023494	0.00016163	4.5385e-05	627.46	1.7882e-06	1.7859e-06	644.94	264.22	1.8552e-06	1.7304e-06	300.98	141.62	125.02	68.237	1.8513e-06	80.714	-121.035	-91.284	-80.024	-155.531	-14.036	-15.395	-156.077	-149.640	-13.145	5.607	-152.092	-148.366	-146.137	-141.506	-35.261	-144.456	-8191	255	
2175.978	1	1	0	0	0.04244	0.081771	0.30096	0.037447	0.20487	0.22899	0.0999	0.18145	0.25471	0.16453	0.27779	0.36375	0.12572	0.37059	0.17436	0.13373	-2.8625	-3.3521	-2.5042	-3.4146	-3.0583	-2.8104	-3.5625	-2.7875	-3.2521	-3.3375	-2.8708	-3.4771	-3.2333	-2.7979	-3.4271	-2.8125	-60.401	10.205	183.765	178.289	-63.912	-117.485	-93.464	155.846	170.875	-22.115	96.608	109.496	-149.547	-135.615	82.236	152.996	0.0006139	0.00043005	0.00016992	624.52	2.9945e-06	4.7258e-06	640.01	262.36	4.6721e-06	6.6546e-06	300.55	139.72	124.17	67.329	2.3062e-06	79.113	0.0002332	0.00016013	4.4455e-05	627.69	1.7874e-06	1.7815e-06	644.6	265.38	1.818e-06	1.7386e-06	301.36	141.61	125.49	68.323	1.8328e-06	80.253	-122.023	-87.430	-75.644	-155.383	8.737	-20.425	-156.067	-149.689	-29.264	-14.746	-151.589	-148.285	-146.129	-141.352	-16.121	-144.726	-8191	255	
2176.074	1	1	0	0	0.15367	0.079337	0.16078	0.23268	0.20617	0.25063	0.25987	0.20525	0.066846	0.19244	0.23052	0.074801	0.12443	0.053111	0.22243	0.21459	-2.7729	-3.4	-2.8292	-3.3604	-3.0875	-2.7479	-3.6813	-3.0812	-3.1458	-3.3521	-3.1312	-3.3042	-3.1188	-2.8958	-3.4271	-3.0875	-1.439	134.794	-84.266	-146.778	141.725	-154.356	178.586	169.682	-73.962	-139.686	188.616	79.653	33.450	122.116	-135.245	132.734	0.00060699	0.00036075	0.00016859	628.81	4.66e-06	3.1528e-06	637.25	259.6	3.9507e-06	4.5096e-06	296.48	138.04	121.41	66.278	6.6143e-06	78.637	0.00023454	0.00015916	4.5774e-05	627.96	1.7701e-06	1.7367e-06	641.16	263.38	1.8896e-06	1.6876e-06	297.65	139.73	123.45	67.326	1.8564e-06	79.546	-123.416	-55.238	-99.595	-155.680	-36.370	-29.348	-156.264	-150.055	-13.304	-16.755	-151.712	-148.299	-145.981	-141.458	-37.510	-144.375	-8191	255	
2176.170	1	1	0	0	0.26805	0.17053	0.15222	0.15937	0.036068	0.066243	0.252	0.34056	0.079467	0.24331	0.12577	0.052634	0.16881	0.47972	0.14895	0.18855	-2.5021	-3.4125	-2.7479	-3.2562	-3.4042	-2.8208	-3.4479	-3.1146	-2.8667	-3.6083	-2.8792	-3.2812	-3.5729	-2.7625	-3.4875	-3.0917	40.582	79.765	-1.119	147.203	-8.567	41.190	130.188	123.501	-141.548	80.139	-128.321	57.630	180.164	169.359	191.592	167.910	0.00064097	0.0005354	0.00017348	622.41	2.6145e-06	5.0346e-06	639.16	259.63	3.906e-06	4.0587e-06	296.97	138.33	122.83	66.973	4.5426e-06	79.797	0.00023076	0.00015487	4.444e-05	624.68	1.702e-06	1.7139e-06	642.46	262.62	1.7683e-06	1.6805e-06	299.54	140.67	124.68	68.227	1.83e-06	80.865	-121.344	-82.056	-47.354	-155.587	-0.272	2.869	-156.297	-149.568	-25.150	-16.915	-151.642	-148.475	-146.121	-141.439	-38.751	-144.274	-8191	255	
2176.266	1	1	0	0	0.19354	0.12947	0.091518	0.23004	0.1369	0.19379	0.22373	0.19698	0.080682	0.11172	0.14481	0.2033	0.19314	0.24106	0.11831	0.28863	-2.6229	-3.4188	-2.7396	-3.2396	-3.4813	-2.7875	-3.6271	-3.1396	-2.7292	-3.4813	-2.8688	-3.1354	-3.3604	-2.875	-3.2771	-3.2271	-71.466	-61.955	76.183	189.635	-155.133	-8.494	147.527	40.031	96.917	-62.319	59.623	177.133	-145.290	109.291	-128.635	97.626	0.00063791	0.00044129	0.0001083	627.4	4.8898e-06	4.9367e-06	642.18	260.21	4.3014e-06	7.1259e-06	297.84	139.11	122.09	66.591	5.4151e-06	79.434	0.00022734	0.00015332	4.4697e-05	628.21	1.7167e-06	1.7442e-06	644.31	263.44	1.7917e-06	1.781e-06	299.69	140.72	124	67.843	1.8609e-06	80.125	-120.781	-43.152	-68.277	-155.993	-24.829	-11.516	-156.401	-149.652	-18.601	-20.883	-151.909	-148.320	-146.138	-141.247	-14.338	-144.453	-8191	255	
2176.387	1	1	0	0	0.16122	0.15704	0.19088	0.21176	0.077949	0.094836	0.073494	0.18357	0.056349	0.12407	0.19183	0.28258	0.079579	0.37001	0.11083	0.10241	-2.6375	-3.4813	-2.9042	-2.9938	-3.4208	-2.7375	-3.325	-3.2146	-2.8083	-3.4542	-3.0792	-3.0438	-3.5875	-2.8625	-3.0583	-3.3812	-122.528	-33.593	-92.190	-155.693	57.015	48.291	-151.327	127.027	87.810	31.199	-26.412	-115.232	-120.728	116.631	-156.836	183.925	0.00061157	0.00045527	0.00012734	618.71	4.5341e-06	4.4441e-06	636.91	255.73	3.2074e-06	3.7435e-06	292.74	135.52	119.51	64.861	3.007e-06	76.771	0.00023327	0.00016258	4.4611e-05	622.71	1.7841e-06	1.8147e-06	640.1	259.51	1.9114e-06	1.7764e-06	294.15	137.4	121.37	65.971	1.8886e-06	77.803	-121.690	-78.723	-82.443	-155.426	-11.882	-22.063	-156.423	-149.784	-10.776	-12.906	-151.759	-148.298	-146.174	-141.257	-36.780	-144.369	-8191	255	
2176.458	1	1	0	0	0.11778	0.19775	0.097296	0.11853	0.22096	0.39165	0.045708	0.15636	0.097078	0.052459	0.12566	0.091381	0.15058	0.26427	0.12091	0.20352	-2.4083	-3.5354	-3.0458	-2.9125	-3.5083	-2.7417	-3.1875	-3.4188	-2.7271	-3.2479	-3.2042	-2.9875	-3.5479	-2.9417	-3.0458	-3.4146	-8.537	183.452	125.886	-83.740	131.634	38.177	-156.860	-126.168	101.452	-17.981	12.726	-48.696	-121.181	157.485	111.138	153.298	0.00060582	0.00054662	0.00014804	617.02	3.6354e-06	5.0535e-06	628.92	251.54	3.8836e-06	4.9076e-06	287.22	132.88	117.05	63.462	1.8645e-06	75.729	0.00023517	0.00017134	4.726e-05	617.62	1.8346e-06	1.8773e-06	633.11	255.02	1.9644e-06	1.8063e-06	289.06	134.72	118.89	64.591	2.0143e-06	76.442	-120.686	-86.338	-79.858	-155.573	-29.827	-21.605	-156.377	-149.958	-29.952	-4.723	-152.339	-148.528	-146.474	-141.551	-18.615	-144.568	-8191	255	
2176.555	1	1	0	0	0.12257	0.1454	0.19263	0.17313	0.13019	0.18141	0.10532	0.13265	0.34933	0.065296	0.21199	0.11187	0.18794	0.28247	0.045511	0.027844	-2.1562	-3.4229	-3.0208	-2.85	-3.5542	-2.8958	-3.1229	-3.4479	-2.6896	-3.2708	-3.2958	-2.8271	-3.5146	-2.9958	-3.2062	-3.65	175.919	-112.369	-160.920	70.983	-151.264	12.628	184.353	158.636	34.113	-89.344	92.122	136.659	67.020	-124.454	48.503	150.264	0.00058926	0.00046791	0.00016635	611.42	2.6932e-06	6.0685e-06	628.32	250.19	2.8136e-06	2.8808e-06	285.81	132.36	116.18	63.012	3.9107e-06	75.166	0.00024365	0.00016858	4.783e-05	614.15	1.8985e-06	1.8324e-06	630.22	253.34	1.9354e-06	1.8299e-06	287.53	133.68	118.11	64.169	1.944e-06	76.124	-118.824	-53.193	-86.580	-155.968	-30.726	-10.807	-156.535	-149.801	-20.818	-25.136	-152.311	-148.843	-146.477	-141.559	-21.520	-144.322	-8191	255	
2176.673	1	1	0	0	0.2423	0.11821	0.12576	0.073093	0.054672	0.20585	0.023525	0.17439	0.040682	0.11431	0.23366	0.26418	0.1153	0.17113	0.051908	0.16687	-2.5229	-3.2354	-3.0812	-2.9354	-3.4208	-3.0375	-2.9625	-3.7542	-2.7646	-3.0958	-3.2917	-2.675	-3.425	-3.1312	-2.9042	-3.625	-116.692	76.968	145.827	-158.297	80.210	89.490	50.611	172.498	36.724	-70.782	158.790	-125.362	-145.755	-129.152	-81.745	70.241	0.00060048	0.000483	0.00015318	607.54	3.0736e-06	4.5262e-06	622.89	247.93	2.6539e-06	4.7807e-06	285.24	131.97	116.35	62.628	5.0387e-06	74.914	0.00024123	0.00017339	4.8662e-05	610.68	1.9048e-06	1.875e-06	628.37	251.82	1.9967e-06	1.914e-06	286.59	133.28	117.8	63.878	2.0255e-06	75.954	-120.411	-68.025	-83.748	-155.478	-30.943	-25.338	-156.502	-150.006	-45.669	0.429	-152.330	-148.797	-146.533	-141.438	-28.917	-144.582	-8191	255	
2176.770	1	1	0	0	0.025585	0.11725	0.051267	0.25248	0.20313	0.16887	0.16924	0.08557	0.073919	0.28131	0.018834	0.24397	0.071923	0.12454	0.11502	0.14489	-2.3833	-3.0167	-3.3375	-2.7812	-3.3729	-3.0896	-2.7021	-3.5292	-2.5646	-3.2208	-3.4458	-2.8146	-3.3375	-3.1729	-2.9479	-3.5542	28.264	-28.663	181.200	-144.908	164.754	-141.003	-11.096	174.721	182.387	58.637	-6.989	134.151	66.964	-139.732	-144.376	6.248	0.00061706	0.00049679	0.00019427	608.8	2.0028e-06	5.2249e-06	624.62	247.82	3.4087e-06	4.1735e-06	285.27	130.85	115.05	62.264	2.6585e-06	74.615	0.00024144	0.00017533	4.992e-05	610.22	1.9581e-06	1.9503e-06	627.56	251.04	2.0418e-06	1.9586e-06	285.73	132.58	116.91	63.404	2.076e-06	75.418	-120.680	-64.458	-59.045	-155.640	-12.039	-21.673	-156.486	-149.998	-36.746	-40.488	-151.931	-148.430	-146.425	-141.687	-35.026	-144.716	-8191	255	
2176.866	1	1	0	0	0.17612	0.045196	0.30351	0.03056	0.29647	0.019461	0.21719	0.12691	0.32342	0.13425	0.20585	0.11485	0.018598	0.18781	0.22174	0.12008	-2.4667	-2.9229	-3.3354	-2.6625	-3.1104	-3.3021	-2.8021	-3.4708	-2.9833	-3.125	-3.4813	-2.8083	-3.2875	-3.2021	-2.6917	-3.5521	162.430	93.437	-38.952	-66.930	33.552	163.721	137.600	-0.005	-58.430	-136.700	162.123	135.803	-166.421	-155.119	-82.482	21.355	0.00060815	0.0005208	0.00010318	604.26	3.1618e-06	5.7137e-06	620.31	248.5	3.1725e-06	3.8771e-06	285.44	132.06	116.46	62.923	3.9312e-06	75.26	0.00024509	0.00017757	4.8435e-05	607.29	1.918e-06	1.9169e-06	624.9	251.46	1.9635e-06	1.8866e-06	287.11	133.46	118.34	64.189	1.945e-06	76.134	-123.844	-70.057	-65.769	-155.714	-41.481	-38.963	-156.400	-150.081	-21.566	-14.993	-151.912	-148.450	-146.293	-141.524	-11.975	-144.593	-8191	255	
2176.986	1	1	0	0	0.071166	0.11277	0.24236	0.19135	0.049218	0.23478	0.10441	0.042228	0.069588	0.15934	0.13337	0.19219	0.075611	0.18807	0.1153	0.18806	-2.4771	-2.8208	-3.4646	-2.55	-3.1813	-3.1813	-2.7479	-3.5021	-2.9562	-2.8896	-3.5854	-2.875	-3.175	-3.4146	-2.6312	-3.5125	43.326	-36.456	185.693	155.950	-127.619	-86.312	21.856	84.916	-33.408	-99.113	-141.802	106.700	-67.122	40.732	-48.412	85.977	0.00059636	0.0005538	0.000135	605.31	3.8513e-06	3.2541e-06	625.32	250.96	4.1979e-06	5.2922e-06	287.13	132.84	118.96	63.941	3.8837e-06	75.977	0.00023469	0.0001712	4.6168e-05	609.96	1.8848e-06	1.7833e-06	626.35	254.09	1.8597e-06	1.8172e-06	288.6	134.87	120.05	65.213	1.8804e-06	76.979	-121.727	-89.070	-70.329	-155.454	-22.968	-18.181	-156.530	-150.014	-16.065	-45.320	-151.974	-148.671	-146.357	-141.323	-23.709	-144.378	-8191	255	
2177.083	1	1	0	0	0.19263	0.13632	0.073226	0.26338	0.16696	0.088958	0.17137	0.18561	0.092801	0.1889	0.11948	0.21979	0.21939	0.32727	0.10672	0.17479	-2.6896	-2.7354	-3.5083	-2.9646	-2.8958	-3.2313	-2.8771	-3.4229	-3.0542	-2.5833	-3.4917	-2.7625	-3.0042	-3.4229	-2.7083	-3.3063	-62.441	154.134	-163.650	79.602	-2.282	-69.085	156.691	-128.451	48.263	161.386	92.502	83.830	143.773	98.348	-16.808	-162.813	0.00063284	0.00067612	0.00019151	612.99	3.2018e-06	3.0822e-06	625.72	254.02	3.3796e-06	4.7384e-06	289.34	134.4	119.43	64.736	5.0535e-06	76.894	0.00022903	0.00016639	4.4663e-05	613.21	1.8411e-06	1.7396e-06	629.35	256.52	1.8337e-06	1.855e-06	291.65	136.77	121.29	65.888	1.9233e-06	77.949	-122.697	-75.598	-70.293	-155.296	-29.779	16.726	-156.689	-149.846	-25.746	-32.957	-152.079	-148.557	-146.385	-141.551	-19.313	-144.789	-8191	255	
2177.154	1	1	0	0	0.076011	0.11059	0.23521	0.13486	0.21917	0.22335	0.16693	0.20742	0.086539	0.14725	0.19426	0.25325	0.27804	0.085303	0.089309	0.1739	-2.9625	-2.7292	-3.3438	-2.9562	-2.9188	-3.5417	-2.8396	-3.2792	-3.2562	-2.6854	-3.4729	-2.9271	-3.0312	-3.6708	-2.7646	-3.2292	-56.074	-144.745	-90.764	175.597	9.827	-159.442	70.506	46.131	12.108	48.359	-149.159	156.564	164.238	-112.472	-68.595	174.070	0.00057262	0.00056085	0.00010774	613.31	4.9915e-06	4.683e-06	628.33	255.91	4.6301e-06	5.5988e-06	294.23	137.45	120.67	65.194	3.6435e-06	77.657	0.00023357	0.00016984	4.69e-05	614.62	1.8599e-06	1.8128e-06	632.08	258.5	1.8667e-06	1.8746e-06	295.68	138.53	122.08	66.263	1.9993e-06	78.739	-119.586	-81.986	-66.666	-155.597	-32.948	-32.469	-156.418	-149.894	-22.569	-13.578	-151.635	-148.452	-146.449	-141.386	-28.064	-144.550	-8191	255	
2177.275	1	1	0	0	0.099174	0.11694	0.036656	0.10232	0.29769	0.21807	0.063785	0.14127	0.24695	0.24965	0.093844	0.10696	0.20497	0.099422	0.21498	0.052082	-2.7333	-2.825	-3.4542	-3.0979	-2.8312	-3.5833	-2.7729	-3.1937	-3.4125	-2.7979	-3.575	-3.0583	-2.9	-3.7521	-2.7646	-3.2667	25.031	9.013	-163.121	89.117	-109.203	82.135	65.771	-156.509	36.532	-119.522	-92.368	114.461	136.458	154.147	52.097	-52.543	0.00062532	0.00037113	0.00013092	621.85	4.1253e-06	5.2548e-06	640.47	261.77	3.3385e-06	6.4799e-06	307.02	143.77	125.71	68.121	3.9921e-06	81.778	0.00023819	0.00017121	4.7879e-05	622.84	1.8742e-06	1.8726e-06	645.39	265.81	1.9091e-06	1.8852e-06	308.46	145.36	127.54	69.399	1.946e-06	82.906	-124.299	-74.419	-66.659	-155.657	-12.546	-16.955	-156.437	-149.705	-19.566	-26.030	-151.778	-148.338	-146.411	-141.544	-11.772	-144.306	-8191	255	
2177.371	1	1	0	0	0.21302	0.21075	0.030142	0.20118	0.2766	0.18154	0.25093	0.25635	0.26601	0.20778	0.068089	0.21408	0.2766	0.26562	0.11549	0.21976	-3.1792	-2.5979	-3.275	-3.0687	-2.8917	-3.6063	-2.8729	-3.0563	-3.5396	-2.6146	-3.3937	-3.3646	-2.825	-3.6021	-3.0021	-3.0646	95.966	106.529	-25.233	131.908	-79.564	-3.622	155.828	101.672	133.091	132.693	104.532	72.361	117.134	158.302	122.276	-82.778	0.00064239	0.00038199	0.0001405	645.93	5.691e-06	4.146e-06	664.98	270.67	3.3613e-06	5.1468e-06	309.52	143.46	126.01	68.091	3.8076e-06	80.641	0.0002433	0.00017263	4.4922e-05	646.93	1.887e-06	1.7747e-06	667.89	274.28	1.9167e-06	1.9165e-06	311.16	145.49	127.63	69.247	1.9043e-06	81.512	-122.929	-79.280	-81.048	-155.270	-28.542	-15.599	-156.192	-149.826	-35.357	-16.100	-152.302	-148.686	-146.368	-141.357	-25.499	-144.541	-8191	255	
2177.465	1	1	0	0	0.1084	0.17495	0.086496	0.21965	0.26278	0.25288	0.12424	0.14366	0.20665	0.1708	0.098795	0.24289	0.14749	0.17342	0.058866	0.29969	-3.0375	-2.6437	-3.3229	-3.3375	-2.6896	-3.4938	-3.2083	-2.9313	-3.5333	-2.7542	-3.2646	-3.3875	-2.8354	-3.7125	-2.9188	-3.0479	-43.007	-138.401	174.580	-148.699	23.227	13.854	-51.802	117.873	22.413	183.582	148.578	58.275	-166.059	191.402	-40.497	124.667	0.00063994	0.00047468	0.0001067	637.38	4.1166e-06	4.6878e-06	656.76	264.71	2.6988e-06	5.2238e-06	302.86	139.1	122.66	66.515	3.8976e-06	79.073	0.0002419	0.000169	4.6398e-05	639.07	1.867e-06	1.7876e-06	657.63	268.27	1.8481e-06	1.7769e-06	304.92	141.69	124.52	67.686	1.9061e-06	80.02	-120.466	-90.876	-89.244	-155.726	-24.792	-25.344	-156.384	-150.033	-33.569	-8.727	-152.053	-148.399	-146.338	-141.714	-31.548	-144.811	-8191	255	
2177.562	1	1	0	0	0.16928	0.087614	0.16435	0.20097	0.054957	0.12074	0.34584	0.22171	0.15485	0.12985	0.20444	0.14499	0.082298	0.29631	0.073129	0.028223	-3.2479	-2.6104	-3.0687	-3.3146	-2.8646	-3.3833	-3.1188	-2.8875	-3.6	-3.1479	-3.1792	-3.5542	-2.8271	-3.6104	-3.0812	-2.9875	-100.314	48.709	71.180	39.936	-17.871	12.772	114.291	112.840	164.040	141.039	-148.186	133.195	145.238	175.499	-71.193	93.223	0.00061546	0.00058874	0.00013264	632.04	4.2993e-06	4.8921e-06	651.88	263.81	3.1845e-06	4.5247e-06	305.1	140.62	122.7	66.278	4.3127e-06	78.902	0.00022993	0.00016021	4.5316e-05	635.88	1.838e-06	1.7496e-06	655.63	266.79	1.8001e-06	1.7954e-06	305.46	141.9	124.5	67.515	1.8529e-06	79.862	-121.853	-71.814	-93.598	-155.692	-43.490	-9.459	-156.443	-149.841	-38.472	-9.418	-151.862	-148.453	-146.405	-141.420	-28.531	-144.535	-8191	255	
2177.658	1	1	0	0	0.11863	0.13804	0.12815	0.11406	0.097034	0.1974	0.2202	0.19314	0.046714	0.36838	0.23245	0.27089	0.29142	0.22317	0.1639	0.098421	-3.1083	-2.7917	-3.0438	-3.3521	-2.7396	-3.4521	-3.1688	-2.7938	-3.4708	-2.9708	-3.0104	-3.5375	-2.8521	-3.3	-3.3583	-3.1562	179.894	134.802	-100.407	73.819	64.933	44.731	113.846	187.147	189.663	-75.010	-111.543	53.347	-153.648	111.533	192.004	58.749	0.00062956	0.00039906	0.00019273	633.61	3.9666e-06	3.4809e-06	651.49	264.09	3.3125e-06	3.5795e-06	305.95	140.99	123.42	66.306	4.6851e-06	79.285	0.00023447	0.00016649	4.5564e-05	637.82	1.8427e-06	1.7818e-06	657.66	267.58	1.804e-06	1.7461e-06	307.11	143.13	125.22	67.629	1.8551e-06	80.244	-121.865	-84.243	-69.651	-155.607	-13.834	-17.827	-156.299	-149.998	-41.739	-33.005	-152.029	-148.496	-146.284	-141.486	-33.395	-144.506	-8191	255	
2177.754	1	1	0	0	0.14339	0.15185	0.2849	0.05026	0.16853	0.25922	0.1447	0.39317	0.14272	0.13604	0.25591	0.25889	0.091156	0.21197	0.29062	0.01946	-2.9896	-3.0708	-2.9208	-3.6229	-2.7021	-3.2375	-3.4583	-2.8063	-3.4	-3.1542	-2.9333	-3.5771	-2.9229	-3.2979	-3.3646	-2.825	-136.784	-96.849	-27.984	143.497	-104.981	-145.100	188.393	154.040	-119.325	-111.197	186.561	105.888	111.784	70.035	53.587	-12.475	0.00063745	0.00039088	0.00017855	639.89	5.3277e-06	4.6693e-06	659.04	264.91	2.372e-06	3.6831e-06	303.46	139.39	122.03	65.471	4.9044e-06	78.287	0.00023196	0.00016334	4.5368e-05	641.84	1.7391e-06	1.7206e-06	662.72	268.17	1.7789e-06	1.756e-06	305.59	141.57	123.78	66.882	1.8377e-06	79.325	-120.043	-114.610	-61.477	-155.528	-25.186	-13.924	-156.530	-149.881	-8.958	-39.857	-151.687	-148.309	-146.246	-141.387	-34.197	-144.383	-8191	255	
2177.850	1	1	0	0	0.12629	0.14633	0.11531	0.043338	0.25977	0.087052	0.12327	0.17089	0.12461	0.2252	0.033937	0.16467	0.062101	0.13045	0.15885	0.19121	-2.9313	-3.0792	-2.8542	-3.4583	-2.8187	-3.0375	-3.5042	-2.8667	-3.4729	-3.1729	-2.8208	-3.5917	-2.9854	-3.075	-3.3667	-2.7208	142.947	-162.295	-109.200	79.403	-57.959	157.451	59.856	85.769	-79.476	-165.967	125.923	99.251	-12.869	-99.150	-117.688	171.096	0.00062106	0.0006397	0.00013087	635.79	4.3137e-06	7.9568e-06	654.95	264.34	2.4257e-06	5.9551e-06	306.06	141.47	123.89	66.996	5.2928e-06	80.016	0.00023126	0.00015999	4.5463e-05	639.91	1.7767e-06	1.8003e-06	659.32	268.24	1.783e-06	1.763e-06	308.03	143.44	125.9	68.27	1.8411e-06	80.699	-119.808	-80.265	-72.084	-155.424	-30.713	-8.513	-156.466	-150.039	-29.621	-27.932	-151.759	-148.408	-146.031	-141.438	-42.059	-144.430	-8191	255	
2177.948	1	1	0	0	0.19492	0.085997	0.075475	0.23864	0.080565	0.27098	0.045873	0.22381	0.1872	0.063087	0.26212	0.056045	0.069037	0.060539	0.08583	0.084289	-2.8875	-3.1604	-2.7812	-3.4854	-3.0021	-2.9	-3.375	-2.7729	-3.1396	-3.1979	-2.8896	-3.5125	-2.9854	-2.9396	-3.5062	-2.9396	-61.607	-80.664	125.784	183.190	-112.005	77.608	119.296	152.170	189.164	89.004	2.091	14.408	129.165	72.215	-131.640	142.345	0.00062069	0.0006239	9.8214e-05	639.52	3.15e-06	4.8844e-06	654.67	264.16	4.674e-06	4.4855e-06	301.4	139.74	122.7	66.622	5.3803e-06	78.73	0.00023234	0.00016096	4.4178e-05	639.89	1.7855e-06	1.7578e-06	657.19	267.03	1.8267e-06	1.7447e-06	303.48	141.8	124.39	67.588	1.7836e-06	79.749	-121.467	-93.826	-80.756	-155.504	-10.428	-14.917	-156.361	-149.952	-21.083	-33.383	-151.805	-148.270	-146.026	-141.412	-40.902	-144.283	-8191	255	
2178.067	1	1	0	0	0.12973	0.11338	0.18438	0.03613	0.093977	0.058724	0.18435	0.22165	0.09077	0.0755	0.26497	0.14559	0.099907	0.12262	0.10666	0.28879	-2.7521	-3.1562	-2.9417	-3.3958	-3.0146	-2.7646	-3.6646	-2.7917	-3.0479	-3.2542	-2.7146	-3.55	-3.1833	-2.9313	-3.425	-2.8187	-67.502	-115.412	82.752	157.722	-20.612	-142.380	182.501	186.083	-132.949	189.760	-135.804	161.084	181.137	66.620	-90.203	105.696	0.00059462	0.00048456	0.0001401	630.23	4.1862e-06	5.5758e-06	648.33	260.1	2.9587e-06	5.6119e-06	298.76	137.67	121.3	65.872	3.4788e-06	78.09	0.00023453	0.00015595	4.5471e-05	632.15	1.797e-06	1.7229e-06	650.67	263.3	1.7818e-06	1.6787e-06	300.08	140	122.68	66.989	1.8072e-06	79.012	-120.061	-63.904	-99.326	-155.021	-7.465	16.135	-156.123	-149.914	-19.062	-36.998	-152.362	-148.655	-146.165	-141.401	-20.482	-144.438	-8191	255	
2178.163	1	1	0	0	0.3153	0.46908	0.30669	0.049754	0.065701	0.16763	0.14517	0.31093	0.20281	0.039212	0.16803	0.18563	0.16872	0.1693	0.043194	0.16814	-2.6521	-3.3812	-2.6021	-3.3521	-3.1479	-2.8708	-3.5792	-3	-3.1521	-3.3958	-2.7375	-3.2479	-3.2917	-3.025	-3.5125	-2.9625	18.681	-133.043	-122.644	88.027	11.926	-14.243	-94.933	98.710	-116.036	-85.957	-113.042	-157.325	144.903	76.621	171.647	82.165	0.00060132	0.00070948	0.00012206	627.48	3.2942e-06	5.2466e-06	638.28	255.39	3.8097e-06	3.927e-06	292.78	135.21	117.78	63.783	4.7195e-06	76.291	0.00022792	0.00016214	4.5835e-05	627.15	1.7876e-06	1.7606e-06	641.72	258.41	1.8419e-06	1.7833e-06	294.18	136.85	119.89	65.092	1.9035e-06	77.179	-121.134	-80.430	-78.790	-154.967	-31.634	-30.095	-155.914	-149.307	-36.993	-18.190	-151.840	-147.981	-145.937	-141.275	-0.144	-144.284	-8191	255	
2178.259	1	1	0	0	0.085391	0.077713	0.2879	0.12716	0.17441	0.10827	0.047668	0.27825	0.087303	0.049851	0.15979	0.12144	0.15854	0.17681	0.17169	0.1589	-2.6	-3.3729	-2.6458	-3.2125	-3.2604	-2.7438	-3.4792	-3.0042	-2.9479	-3.4292	-2.7792	-3.2646	-3.2938	-2.7	-3.5729	-3.1646	-144.630	-139.304	131.710	-152.599	139.545	-6.269	-140.635	119.358	77.978	124.360	123.713	178.824	190.512	70.657	-81.309	81.114	0.00061961	0.00054259	7.9366e-05	614.73	2.8266e-06	2.7639e-06	633.24	250.6	2.4515e-06	2.6728e-06	288.7	132.67	116.5	62.752	3.7112e-06	74.852	0.00023474	0.000167	4.6499e-05	618.75	1.826e-06	1.843e-06	636.44	254.2	1.9175e-06	1.8309e-06	290.29	134.47	117.9	64.005	1.8968e-06	75.981	-121.389	-85.512	-77.747	-155.787	-18.501	-12.388	-156.470	-150.005	-28.671	5.152	-152.190	-148.568	-146.208	-141.475	-34.106	-144.312	-8191	255	
2178.355	1	1	0	0	0.056099	0.14868	0.16176	0.067088	0.21107	0.12603	0.25075	0.041586	0.028807	0.1647	0.097319	0.23935	0.17882	0.10782	0.079021	0.19262	-2.5042	-3.3458	-2.7333	-3.0771	-3.2458	-2.6583	-3.425	-3.2479	-2.7854	-3.3229	-2.9375	-3.0917	-3.5979	-2.75	-3.3542	-3.4417	-2.676	-53.261	-162.930	158.543	68.383	155.482	119.170	43.398	-70.654	131.079	-134.099	55.720	58.811	-134.107	93.629	-159.084	0.00057506	0.00047734	0.00012164	613.11	3.7593e-06	3.7683e-06	631.33	250.76	2.3063e-06	3.8049e-06	288.3	133.64	117.7	63.613	3.4647e-06	76.129	0.00023551	0.00016939	4.6839e-05	615.49	1.8723e-06	1.8265e-06	632.97	253.8	1.8712e-06	1.8283e-06	290.96	135.48	119.25	64.817	1.8698e-06	76.862	-119.323	-73.623	-78.637	-155.174	-19.511	-16.525	-156.544	-149.725	-25.995	-67.024	-152.171	-148.312	-146.348	-141.500	-33.885	-144.613	-8191	255	
2178.451	1	1	0	0	0.10731	0.045578	0.21107	0.24092	0.050912	0.21096	0.080048	0.37396	0.18184	0.24373	0.21887	0.047658	0.18447	0.15966	0.11969	0.17394	-2.275	-3.5187	-2.85	-3.1104	-3.4188	-2.5646	-3.3417	-3.2812	-2.9042	-3.5042	-2.9667	-2.8937	-3.5438	-2.8583	-3.2188	-3.3688	-150.049	-36.452	-13.823	-90.531	122.037	-159.175	76.964	135.923	-160.920	-19.210	-21.350	186.276	112.320	-145.351	-65.746	174.726	0.00056996	0.00062479	0.00011835	612.47	3.4748e-06	3.4e-06	631.42	252.74	3.1677e-06	5.0172e-06	295	137.18	120.52	65.768	4.9787e-06	79.259	0.0002299	0.00016276	4.6087e-05	614.64	1.8138e-06	1.7838e-06	634.58	256.19	1.8077e-06	1.7572e-06	296.86	138.74	122.18	66.909	1.7988e-06	80.111	-122.981	-63.159	-59.570	-155.760	-20.983	-27.218	-156.450	-149.996	-27.431	-27.179	-151.927	-148.674	-145.896	-141.184	-12.118	-144.172	-8191	255	
2178.546	1	1	0	0	0.23382	0.059324	0.42943	0.21156	0.20334	0.044943	0.077313	0.19373	0.10717	0.22305	0.14122	0.20554	0.1302	0.13759	0.15117	0.22695	-2.3563	-3.6167	-2.9938	-2.7333	-3.4562	-2.7958	-3.3312	-3.3833	-2.8354	-3.3563	-3.3208	-3.075	-3.5979	-2.7771	-3.4271	-3.4042	-75.512	-11.926	-65.912	-31.669	144.023	39.849	-51.311	133.544	115.178	-92.804	-120.386	-127.083	171.073	56.607	-63.829	-119.906	0.00061107	0.00041897	8.175e-05	630.79	4.6681e-06	4.7506e-06	650.34	264.54	3.6873e-06	5.2862e-06	307.07	143.5	125.5	68.811	3.9859e-06	81.975	0.00023302	0.00015958	4.4416e-05	633.48	1.7548e-06	1.7573e-06	656.12	268.16	1.8352e-06	1.708e-06	309.05	145.76	127.32	69.786	1.8512e-06	83.098	-122.220	-71.293	-49.894	-155.410	-59.264	-6.014	-156.271	-149.804	-24.303	-15.650	-151.730	-148.153	-145.912	-141.251	-51.445	-144.496	-8191	255	
2178.666	1	1	0	0	0.20662	0.078356	0.15186	0.23902	0.094894	0.18198	0.14394	0.061958	0.076075	0.10206	0.054713	0.14402	0.06288	0.17525	0.11445	0.19585	-2.3208	-3.2792	-3.0479	-2.85	-3.4313	-2.9229	-3.225	-3.5292	-2.6208	-3.5542	-3.2708	-2.8146	-3.4917	-3.0417	-3.05	-3.4667	-71.295	-103.389	-67.705	123.414	79.517	-60.485	-83.083	-6.034	180.284	-157.767	172.528	168.824	70.151	38.144	-44.635	144.499	0.0006461	0.0003572	0.0001241	642.15	4.3444e-06	3.6256e-06	664.5	269.7	4.4625e-06	3.8965e-06	311.48	145.15	126.49	68.769	6.0244e-06	81.792	0.00023804	0.00015716	4.4305e-05	645.13	1.7808e-06	1.6932e-06	668.51	272.44	1.8247e-06	1.6986e-06	313.09	146.85	128.11	69.897	1.8337e-06	82.891	-121.380	-75.528	-83.037	-155.366	-34.678	-19.588	-156.362	-149.620	-20.799	-23.268	-151.723	-148.330	-145.845	-141.234	-35.186	-144.316	-8191	255	
2178.763	1	1	0	0	0.10975	0.20219	0.040553	0.25954	0.10278	0.13215	0.20092	0.083807	0.32356	0.047004	0.16444	0.35243	0.19928	0.38521	0.047233	0.35734	-2.3729	-3.1854	-3.1354	-2.7583	-3.3729	-2.9729	-3.1771	-3.575	-2.9771	-3.3	-3.3896	-2.9479	-3.6083	-3.1125	-2.975	-3.5208	-77.692	-122.500	-49.558	118.762	73.350	-58.905	141.454	92.206	187.384	-91.866	106.377	-129.984	160.529	173.835	-89.158	-141.591	0.00065376	0.0005131	0.00014844	643.61	5.445e-06	3.0232e-06	661.64	266.71	4.3244e-06	4.4946e-06	308.52	142.96	124.65	67.865	3.4248e-06	81.136	0.00023557	0.00016099	4.4531e-05	642.86	1.7648e-06	1.7101e-06	663	269.09	1.8316e-06	1.7277e-06	309.52	145.03	126.75	69.197	1.8813e-06	82.419	-118.704	-57.496	-64.067	-155.508	-4.771	-4.986	-156.488	-149.821	-21.161	-22.116	-151.517	-148.148	-146.354	-141.199	-10.285	-144.625	-8191	255	
2178.859	1	1	0	0	0.12889	0.16759	0.13537	0.18872	0.26115	0.074048	0.15174	0.29042	0.096196	0.08264	0.071155	0.14463	0.046035	0.38982	0.1381	0.054519	-2.4125	-3.1146	-3.0917	-2.8229	-3.4521	-2.9583	-3.0604	-3.2917	-2.775	-3.1688	-3.6083	-2.7604	-3.5438	-3.0583	-2.8083	-3.7	66.819	125.186	-75.229	-128.383	-152.740	102.117	134.014	-164.665	-129.713	-95.033	110.844	-62.010	66.531	123.087	191.128	-152.255	0.00064636	0.00031038	0.00011755	642.08	3.9867e-06	3.9564e-06	664.29	267.4	4.0246e-06	4.9411e-06	308.89	142.94	124.15	67.018	4.8676e-06	80.263	0.00023629	0.00016026	4.3914e-05	645.43	1.7752e-06	1.7329e-06	667.75	270.34	1.8062e-06	1.7535e-06	310.09	144.54	125.72	68.224	1.8956e-06	80.975	-121.941	-81.040	-88.369	-155.473	-24.932	-12.198	-156.115	-149.914	-23.833	-21.452	-151.598	-148.230	-146.010	-140.975	-51.824	-144.396	-8191	255	
2178.955	1	1	0	0	0.1196	0.23191	0.18693	0.14308	0.14368	0.043394	0.17864	0.14514	0.22186	0.21257	0.065826	0.3886	0.026409	0.13211	0.25988	0.041969	-2.4646	-2.9437	-3.3729	-2.725	-3.3354	-3.175	-2.8688	-3.6292	-2.8229	-2.9125	-3.5958	-2.6604	-3.4521	-3.2562	-2.8146	-3.4854	-15.316	2.390	19.496	71.298	165.420	12.161	94.792	119.296	-81.007	-72.891	98.496	-135.949	-109.847	146.646	94.620	-155.227	0.0006228	0.00051932	0.00012891	633.8	5.0832e-06	5.7499e-06	653.03	262.04	4.5502e-06	4.9852e-06	302.05	139.3	122.12	66.081	4.4219e-06	79.127	0.00023228	0.0001641	4.4122e-05	637.01	1.7366e-06	1.7134e-06	658.97	265.14	1.7678e-06	1.7326e-06	303.6	141.32	123.55	67.164	1.8008e-06	80.196	-121.162	-81.968	-98.270	-155.540	-17.532	-25.679	-156.365	-149.293	-18.809	-39.963	-151.719	-148.153	-146.121	-141.145	-28.622	-144.028	-8191	255	
2179.051	1	1	0	0	0.090377	0.02436	0.08171	0.10821	0.23011	0.098078	0.14396	0.17742	0.094359	0.19825	0.21808	0.23808	0.26339	0.15174	0.23024	0.12268	-2.5042	-2.9208	-3.3667	-2.7208	-3.1625	-3.3708	-2.7729	-3.6854	-3.0687	-2.9062	-3.5521	-2.8208	-3.2188	-3.4604	-2.5917	-3.525	162.998	85.449	99.533	-163.356	-79.881	144.733	-156.323	125.197	-165.277	17.517	135.695	134.243	151.690	128.773	-135.196	-54.543	0.0006219	0.0005283	0.00010862	633.24	2.8057e-06	4.7166e-06	649.95	258.86	4.0433e-06	3.2052e-06	299.07	138.1	120.6	65.383	2.7414e-06	78.648	0.00022692	0.00015917	4.4159e-05	635.52	1.7228e-06	1.6791e-06	655.26	262.06	1.7897e-06	1.7216e-06	301	140.16	122.08	66.56	1.8178e-06	79.458	-120.744	-94.805	-83.358	-155.389	-45.432	-23.696	-156.146	-149.615	-52.876	-54.262	-151.617	-147.970	-145.882	-141.058	-11.557	-144.189	-8191	255	
#DATA ENDS
