BOXY.EXE: ISS Imagent and Oximeter Data Acquisition Program Version 0.80
Ascii Record File

#ACQ INFORMATION
2  Detector Channels 
16  External MUX Channels 
1  Auxiliary Channels 
5000  Waveform (CCF) Frequency (Hz)
1  Waveforms Skipped 
30  Waveforms Averaged 
1  Cycles Averaged 
16  Acquisitions per Waveform 
10.0806  Updata Rate (Hz) 

#FILE INFORMATION
TRUE -- External MUX Channel results are PARSED.
FALSE -- AC DC and Phase are NOT grouped.
TRUE -- Companion Program Settings File CREATED.
FALSE -- AC data not excluded
FALSE -- DC data not excluded
FALSE -- Phase data not excluded
FALSE -- Auxillary Chn. data not excluded
Tab delimiters

#CALIBRATION STATE
TRUE -- Waveform Calibration Values APPLIED.


#AUX CALIBRATION VALUES
Val Type	aux-1	

Term	1.0000e+00	
Factor	0.0000e+00	


#WF CALIBRATION VALUES
A = Detector Channel
Val Type	A-AC1	A-AC2	A-AC3	A-AC4	A-AC5	A-AC6	A-AC7	A-AC8	A-AC9	A-AC10	A-AC11	A-AC12	A-AC13	A-AC14	A-AC15	A-AC16	A-DC1	A-DC2	A-DC3	A-DC4	A-DC5	A-DC6	A-DC7	A-DC8	A-DC9	A-DC10	A-DC11	A-DC12	A-DC13	A-DC14	A-DC15	A-DC16	A-Ph1	A-Ph2	A-Ph3	A-Ph4	A-Ph5	A-Ph6	A-Ph7	A-Ph8	A-Ph9	A-Ph10	A-Ph11	A-Ph12	A-Ph13	A-Ph14	A-Ph15	A-Ph16	

Term	0.00000e+00	0.00000e+00	0.00000e+00	0.00000e+00	0.00000e+00	0.00000e+00	0.00000e+00	0.00000e+00	0.00000e+00	0.00000e+00	0.00000e+00	0.00000e+00	0.00000e+00	0.00000e+00	0.00000e+00	0.00000e+00	0.00000e+00	0.00000e+00	0.00000e+00	0.00000e+00	0.00000e+00	0.00000e+00	0.00000e+00	0.00000e+00	0.00000e+00	0.00000e+00	0.00000e+00	0.00000e+00	0.00000e+00	0.00000e+00	0.00000e+00	0.00000e+00	0.00000e+00	0.00000e+00	0.00000e+00	0.00000e+00	0.00000e+00	0.00000e+00	0.00000e+00	0.00000e+00	0.00000e+00	0.00000e+00	0.00000e+00	0.00000e+00	0.00000e+00	0.00000e+00	0.00000e+00	0.00000e+00	
Factor	1.00000e+00	1.00000e+00	1.00000e+00	1.00000e+00	1.00000e+00	1.00000e+00	1.00000e+00	1.00000e+00	1.00000e+00	1.00000e+00	1.00000e+00	1.00000e+00	1.00000e+00	1.00000e+00	1.00000e+00	1.00000e+00	1.00000e+00	1.00000e+00	1.00000e+00	1.00000e+00	1.00000e+00	1.00000e+00	1.00000e+00	1.00000e+00	1.00000e+00	1.00000e+00	1.00000e+00	1.00000e+00	1.00000e+00	1.00000e+00	1.00000e+00	1.00000e+00	X	X	X	X	X	X	X	X	X	X	X	X	X	X	X	X	

B = Detector Channel
Val Type	B-AC1	B-AC2	B-AC3	B-AC4	B-AC5	B-AC6	B-AC7	B-AC8	B-AC9	B-AC10	B-AC11	B-AC12	B-AC13	B-AC14	B-AC15	B-AC16	B-DC1	B-DC2	B-DC3	B-DC4	B-DC5	B-DC6	B-DC7	B-DC8	B-DC9	B-DC10	B-DC11	B-DC12	B-DC13	B-DC14	B-DC15	B-DC16	B-Ph1	B-Ph2	B-Ph3	B-Ph4	B-Ph5	B-Ph6	B-Ph7	B-Ph8	B-Ph9	B-Ph10	B-Ph11	B-Ph12	B-Ph13	B-Ph14	B-Ph15	B-Ph16	

Term	0.00000e+00	0.00000e+00	0.00000e+00	0.00000e+00	0.00000e+00	0.00000e+00	0.00000e+00	0.00000e+00	0.00000e+00	0.00000e+00	0.00000e+00	0.00000e+00	0.00000e+00	0.00000e+00	0.00000e+00	0.00000e+00	0.00000e+00	0.00000e+00	0.00000e+00	0.00000e+00	0.00000e+00	0.00000e+00	0.00000e+00	0.00000e+00	0.00000e+00	0.00000e+00	0.00000e+00	0.00000e+00	0.00000e+00	0.00000e+00	0.00000e+00	0.00000e+00	-8.92709e+01	-1.28825e+02	-1.24038e+02	-1.83962e+02	-5.99715e+01	-6.47401e+01	-1.57159e+02	-1.62015e+02	-5.48480e+01	-7.10995e+01	-1.70729e+02	-1.70839e+02	-1.80289e+02	-1.77652e+02	-5.59847e+01	-1.50740e+02	
Factor	1.90359e-05	1.64344e-04	4.45320e-05	1.64583e-01	1.33975e-06	1.74344e-06	1.90588e-01	5.69177e-02	1.10681e-06	1.67741e-06	9.57273e-02	3.69650e-02	2.87415e-02	1.05468e-02	1.51595e-06	1.54879e-02	3.70208e-06	4.20420e-06	1.17489e-06	8.23578e-02	4.54401e-08	4.62410e-08	8.95767e-02	2.86398e-02	4.53497e-08	4.63083e-08	4.63350e-02	1.80061e-02	1.45506e-02	5.30554e-03	4.58462e-08	7.52433e-03	X	X	X	X	X	X	X	X	X	X	X	X	X	X	X	X	



#DISTANCE SETTINGS
A = Detector Channel
A-1	A-2	A-3	A-4	A-5	A-6	A-7	A-8	A-9	A-10	A-11	A-12	A-13	A-14	A-15	A-16	

2.5000e+00	3.0000e+00	2.5000e+00	3.0000e+00	2.0000e+00	3.0000e+00	1.5000e+00	3.0000e+00	3.0000e+00	3.0000e+00	3.0000e+00	3.0000e+00	3.0000e+00	3.0000e+00	1.5000e+00	3.0000e+00	

B = Detector Channel
B-1	B-2	B-3	B-4	B-5	B-6	B-7	B-8	B-9	B-10	B-11	B-12	B-13	B-14	B-15	B-16	

1.0000e+01	1.0000e+01	1.0000e+01	1.4400e+00	1.0000e+01	1.0000e+01	1.5100e+00	1.9400e+00	1.0000e+01	1.0000e+01	1.9900e+00	2.4900e+00	2.4100e+00	2.9000e+00	1.0000e+01	2.9800e+00	




#DATA BEGINS
time	group	step	mark	flag	A-AC1	A-AC2	A-AC3	A-AC4	A-AC5	A-AC6	A-AC7	A-AC8	A-AC9	A-AC10	A-AC11	A-AC12	A-AC13	A-AC14	A-AC15	A-AC16	A-DC1	A-DC2	A-DC3	A-DC4	A-DC5	A-DC6	A-DC7	A-DC8	A-DC9	A-DC10	A-DC11	A-DC12	A-DC13	A-DC14	A-DC15	A-DC16	A-Ph1	A-Ph2	A-Ph3	A-Ph4	A-Ph5	A-Ph6	A-Ph7	A-Ph8	A-Ph9	A-Ph10	A-Ph11	A-Ph12	A-Ph13	A-Ph14	A-Ph15	A-Ph16	B-AC1	B-AC2	B-AC3	B-AC4	B-AC5	B-AC6	B-AC7	B-AC8	B-AC9	B-AC10	B-AC11	B-AC12	B-AC13	B-AC14	B-AC15	B-AC16	B-DC1	B-DC2	B-DC3	B-DC4	B-DC5	B-DC6	B-DC7	B-DC8	B-DC9	B-DC10	B-DC11	B-DC12	B-DC13	B-DC14	B-DC15	B-DC16	B-Ph1	B-Ph2	B-Ph3	B-Ph4	B-Ph5	B-Ph6	B-Ph7	B-Ph8	B-Ph9	B-Ph10	B-Ph11	B-Ph12	B-Ph13	B-Ph14	B-Ph15	B-Ph16	aux-1	digaux	

2126.918	1	1	0	768	0.032887	0.15108	0.1654	0.20669	0.124	0.25918	0.10009	0.074812	0.12197	0.21139	0.43188	0.21453	0.24811	0.13253	0.085032	0.32067	-2.3896	-3.3458	-2.9167	-2.9667	-3.4	-2.7	-3.4729	-3.2917	-2.6396	-3.3479	-3.0312	-3.0625	-3.5667	-2.8417	-3.2188	-3.4833	-68.902	52.503	205.543	-90.857	86.782	127.110	-76.846	202.033	-48.365	102.762	185.208	247.675	-51.837	203.183	48.512	208.299	0.0003133	0.0006389	0.00019758	733.55	4.3235e-06	3.1746e-06	788.59	298.88	3.4567e-06	7.0283e-06	359.92	168.44	142.97	70.544	2.4209e-06	86.448	0.00033899	0.00030007	8.4514e-05	735.07	3.2353e-06	3.2912e-06	792.87	302.64	3.3617e-06	3.2869e-06	361.58	170.75	145.04	71.827	3.4072e-06	87.263	233.143	-18.298	-10.872	-86.132	57.345	76.866	-87.421	-80.257	33.465	63.985	-82.985	-79.100	-76.626	-71.906	37.376	-75.180	-8191	255	
2127.015	1	1	0	0	0.39339	0.1997	0.096825	0.049794	0.046157	0.16351	0.24671	0.12057	0.19018	0.17622	0.16139	0.27015	0.1246	0.12642	0.053292	0.12055	-2.1667	-3.3438	-2.8333	-2.6583	-3.4333	-2.8396	-3.1229	-3.4021	-2.7104	-3.2292	-3.1375	-2.8792	-3.4604	-3.0104	-2.8646	-3.5667	34.468	49.750	83.964	-38.390	91.038	-65.974	199.777	-85.275	-57.456	176.886	27.021	224.077	239.142	213.911	-9.476	213.882	0.00033734	0.00051418	9.6533e-05	738.36	4.0003e-06	4.3894e-06	791.88	298.65	2.6303e-06	3.5464e-06	360.37	167.93	142.57	70.474	4.0642e-06	86.77	0.00033478	0.00030078	8.3515e-05	736.6	3.2028e-06	3.2537e-06	794.55	302.98	3.3414e-06	3.3187e-06	361.88	170.27	144.81	71.693	3.4062e-06	87.252	236.186	-20.045	-27.294	-86.177	19.979	38.677	-87.455	-80.668	38.074	59.665	-83.352	-79.705	-76.883	-72.375	77.683	-75.772	-8191	255	
2127.111	1	1	0	0	0.16165	0.15412	0.10812	0.0042784	0.20652	0.14782	0.28198	0.15023	0.11596	0.099277	0.08042	0.18384	0.14126	0.18251	0.19196	0.1989	-2.3667	-3.1583	-3.25	-2.775	-3.3271	-2.7417	-3.1063	-3.6	-2.825	-3.2479	-3.1208	-2.8229	-3.5417	-3.2958	-2.7958	-3.6292	-42.088	185.316	54.092	242.189	74.962	-71.904	204.196	28.302	61.341	12.928	195.804	-17.129	249.472	-29.760	68.290	94.895	0.00034413	0.0006094	0.0001582	736.9	4.7798e-06	5.4186e-06	791.57	299.55	3.3696e-06	6.91e-06	359.86	167.8	142.1	70.36	3.866e-06	86.27	0.00033142	0.0003005	8.4134e-05	736.01	3.2252e-06	3.3198e-06	794.64	302.95	3.3197e-06	3.3248e-06	361.53	170.1	144.61	71.533	3.477e-06	86.997	229.654	2.572	-20.657	-86.534	45.097	49.463	-87.407	-80.736	30.851	40.634	-83.335	-79.668	-76.908	-72.269	42.196	-75.539	-8191	255	
2127.207	1	1	0	0	0.098	0.28662	0.26416	0.30004	0.11385	0.14133	0.090674	0.074651	0.11101	0.14253	0.21556	0.1309	0.087493	0.084802	0.098362	0.2464	-2.3625	-3.1271	-3.4417	-2.7417	-3.4333	-3.0021	-3.025	-3.5167	-2.7646	-3.2167	-3.4188	-2.8	-3.4313	-3.225	-2.9771	-3.6208	-93.656	-10.112	-79.822	225.824	207.347	101.493	146.237	98.428	-46.404	251.506	178.444	206.489	245.101	191.796	-48.324	198.523	0.00032344	0.00054572	0.00016601	729.72	4.4034e-06	5.9418e-06	785.95	296.62	2.6687e-06	6.4281e-06	354.44	163.81	139.12	68.807	3.6866e-06	84.66	0.00034278	0.00031457	8.5686e-05	732.11	3.3616e-06	3.3648e-06	788.74	299.88	3.4606e-06	3.5019e-06	355.84	166.22	141.3	70.021	3.5705e-06	85.441	230.036	3.085	-26.166	-86.713	39.183	50.923	-87.840	-80.914	41.548	47.567	-83.149	-79.500	-76.809	-72.293	35.903	-75.310	-8191	255	
2127.303	1	1	0	0	0.20039	0.22124	0.31468	0.058848	0.053453	0.21808	0.080789	0.20635	0.20802	0.030228	0.075345	0.14408	0.30903	0.081494	0.23682	0.18126	-2.3292	-3.0521	-3.4646	-2.7208	-3.3292	-3.2083	-2.9021	-3.6625	-2.9208	-3.0938	-3.6021	-2.7458	-3.2875	-3.4979	-2.7854	-3.65	-75.917	112.225	21.467	18.891	202.498	172.364	202.183	162.993	44.799	-45.895	-79.121	114.178	206.904	218.948	126.049	200.041	0.00028796	0.00028393	0.00010313	720.87	2.7206e-06	7.2231e-06	773.58	292.46	3.182e-06	5.5556e-06	350.19	160.19	137.26	68.027	3.2054e-06	83.467	0.00034988	0.00032512	9.0373e-05	725.1	3.5548e-06	3.5266e-06	777.76	295.65	3.6261e-06	3.5523e-06	351.15	163.17	139.65	69.159	3.6775e-06	83.989	231.340	-14.411	-49.999	-86.295	28.518	59.701	-87.614	-80.867	29.026	83.201	-83.285	-79.304	-76.699	-72.016	99.624	-75.566	-8191	255	
2127.399	1	1	0	0	0.19303	0.22272	0.10913	0.16416	0.14118	0.26204	0.1073	0.078183	0.13804	0.32233	0.3072	0.13194	0.098393	0.18262	0.18404	0.29955	-2.6562	-2.95	-3.4125	-2.725	-3.2229	-3.2104	-2.9292	-3.5042	-2.9167	-2.95	-3.5792	-2.7938	-3.1771	-3.3458	-2.725	-3.4375	101.582	-26.312	6.917	85.424	235.568	97.113	9.313	155.260	140.045	256.305	218.036	-26.293	-93.443	256.936	75.593	232.331	0.00030292	0.00057415	0.00013101	717.64	3.4908e-06	6.681e-06	768	291.83	2.955e-06	4.1648e-06	346.2	159.98	137.05	68.048	4.0471e-06	83.031	0.00035139	0.0003333	9.0633e-05	720.79	3.5625e-06	3.5243e-06	770.82	294.75	3.643e-06	3.615e-06	348.62	162.5	139.45	69.139	3.6593e-06	83.662	234.118	-14.241	-4.590	-86.748	50.139	57.991	-87.696	-80.907	50.739	67.327	-83.296	-79.425	-76.771	-72.027	49.771	-75.560	-8191	255	
2127.520	1	1	0	0	0.36722	0.29213	0.13817	0.21188	0.12199	0.14642	0.063641	0.022826	0.17219	0.19125	0.11495	0.28707	0.25289	0.064238	0.17884	0.21657	-2.7083	-2.7417	-3.4458	-2.7	-3.1958	-3.2917	-2.7188	-3.5146	-3.0625	-2.7542	-3.5542	-2.7687	-3.2167	-3.5312	-2.7104	-3.5271	-55.568	-9.380	-21.155	193.483	16.356	-57.014	-88.864	245.273	234.805	56.723	59.529	205.337	-92.729	197.475	-45.868	241.847	0.00031026	0.00023256	0.00012701	718.38	3.3958e-06	7.6674e-06	769.37	292.34	2.759e-06	3.9923e-06	354.02	163.27	139.34	69.404	1.588e-06	85.609	0.000358	0.00033634	8.9421e-05	720.02	3.611e-06	3.4678e-06	774.44	296.46	3.5364e-06	3.4994e-06	354.68	165.74	141.8	70.57	3.5707e-06	86.394	232.342	-24.051	5.415	-86.652	53.317	67.512	-87.693	-80.692	23.701	51.580	-83.102	-79.513	-76.965	-71.992	56.367	-75.378	-8191	255	
2127.614	1	1	0	0	0.14522	0.10466	0.11817	0.29932	0.11648	0.19005	0.30517	0.13352	0.12273	0.25111	0.15322	0.35538	0.28078	0.3005	0.12208	0.11073	-2.7354	-2.8521	-3.5042	-3.0083	-3.1188	-3.5583	-2.8333	-3.4833	-3.2708	-2.6583	-3.5896	-2.9375	-3.0792	-3.5042	-2.7396	-3.4271	-10.488	132.766	177.403	56.713	222.120	116.694	171.767	245.325	139.074	175.243	-75.790	-91.051	187.370	229.228	171.623	194.189	0.00031847	0.00048087	0.00014089	733.01	4.4307e-06	6.2577e-06	790.21	299.1	2.8665e-06	6.6376e-06	361.73	167.27	141.97	70.501	4.5204e-06	87.315	0.00034767	0.00031983	8.901e-05	735.02	3.498e-06	3.3749e-06	793.32	303.21	3.5472e-06	3.472e-06	363.29	169.86	144.71	71.933	3.5292e-06	87.982	232.993	-11.880	-14.748	-86.668	71.525	77.814	-87.796	-80.944	38.310	38.898	-83.249	-79.447	-76.800	-71.988	39.303	-75.607	-8191	255	
2127.710	1	1	0	0	0.23406	0.28624	0.12527	0.3495	0.068538	0.23932	0.31192	0.10825	0.066864	0.041228	0.15755	0.27122	0.20011	0.32448	0.18389	0.056495	-2.9562	-2.8958	-3.5458	-2.9813	-3.0083	-3.6083	-2.7938	-3.3896	-3.2167	-2.7833	-3.4646	-3.1042	-2.9229	-3.4625	-2.5271	-3.45	169.952	232.455	136.326	170.205	48.938	-31.506	203.610	195.723	208.617	81.530	235.016	-90.835	131.583	228.864	76.396	-39.285	0.00033413	0.00051854	0.00016172	736.37	3.5101e-06	5.9414e-06	790.24	299.22	1.897e-06	5.4151e-06	359.16	166.13	141.34	70.058	5.3037e-06	86.656	0.00034713	0.00031656	8.9605e-05	739.12	3.5113e-06	3.5009e-06	795.24	303.54	3.4339e-06	3.4884e-06	361.43	169.13	143.89	71.422	3.5136e-06	87.162	234.686	-7.288	3.835	-86.508	33.624	70.199	-87.686	-80.887	42.177	58.760	-83.320	-79.271	-76.626	-72.052	38.334	-75.521	-8191	255	
2127.806	1	1	0	0	0.14984	0.30975	0.15861	0.041929	0.21213	0.020162	0.11053	0.077075	0.086213	0.16477	0.20384	0.20588	0.078831	0.23057	0.26622	0.096376	-3.0938	-2.6396	-3.2562	-3.25	-2.8375	-3.6146	-2.9167	-3.3792	-3.5042	-2.7021	-3.4625	-3.2313	-2.7833	-3.6042	-3.0208	-3.0812	26.679	127.709	215.699	3.815	55.894	72.158	67.030	217.140	101.886	4.597	171.035	190.753	221.672	-72.943	115.346	256.639	0.00032691	0.0003198	0.0001271	735.88	3.3827e-06	5.5415e-06	791.09	299.48	2.1991e-06	8.5118e-06	361.36	166.56	143.04	70.809	3.3018e-06	87.409	0.00034277	0.00031096	8.5911e-05	737.35	3.458e-06	3.3298e-06	794.07	303.04	3.3188e-06	3.3043e-06	363.4	169.59	145.11	72.148	3.3408e-06	88.183	231.210	-10.322	-1.752	-86.531	53.939	37.280	-87.530	-80.867	50.690	60.490	-83.175	-79.437	-76.710	-71.849	30.930	-75.518	-8191	255	
2127.903	1	1	0	0	0.14886	0.25697	0.13867	0.15444	0.084739	0.35908	0.24754	0.43753	0.22066	0.17115	0.27239	0.086956	0.30097	0.34361	0.20595	0.14254	-3.0083	-2.6813	-3.2812	-3.2917	-2.5875	-3.5667	-3.0604	-3.1042	-3.4625	-2.6875	-3.3292	-3.3167	-2.9167	-3.6896	-2.9771	-3.0875	-25.151	200.673	14.337	-75.323	-76.731	170.403	180.247	245.239	190.371	-5.520	-78.826	22.358	-61.770	206.838	109.754	149.191	0.00031142	0.00081808	0.0001218	745.26	3.9065e-06	2.7007e-06	800.44	305.54	2.5431e-06	4.4528e-06	369.74	170.66	145.72	72.304	2.3456e-06	89.35	0.00033475	0.0003047	8.2624e-05	746.56	3.3094e-06	3.2538e-06	806.8	309.62	3.3243e-06	3.2654e-06	370.49	173.74	147.92	73.55	3.2835e-06	89.946	228.382	-8.971	14.789	-86.100	79.048	83.011	-87.472	-80.801	62.745	51.795	-83.143	-79.196	-76.638	-72.129	35.451	-75.537	-8191	255	
2127.999	1	1	0	0	0.19528	0.1781	0.25728	0.22228	0.11879	0.092062	0.24471	0.29635	0.35328	0.057303	0.38203	0.10501	0.33584	0.063988	0.20093	0.19809	-3.1167	-2.7729	-3.1688	-3.2708	-2.5354	-3.5417	-3.0958	-2.9146	-3.4292	-2.8333	-3.3979	-3.2667	-2.8688	-3.5104	-2.9562	-2.9875	36.003	-90.875	-67.970	165.497	226.139	18.132	166.391	205.054	234.788	181.630	-86.560	207.614	-30.303	-77.385	-94.188	241.328	0.00032626	0.00053277	0.00013762	749.31	4.2643e-06	5.665e-06	811.25	307.34	3.3194e-06	6.7871e-06	371.1	171.89	146.05	72.799	4.5841e-06	90.217	0.00032543	0.00029898	8.2095e-05	751.08	3.2359e-06	3.1844e-06	813.94	310.86	3.2083e-06	3.2348e-06	372.5	174.84	148.55	73.973	3.371e-06	90.68	228.523	-23.139	-0.855	-86.409	72.399	55.501	-87.526	-80.918	35.163	62.375	-83.357	-79.458	-76.849	-72.039	40.135	-75.520	-8191	255	
2128.119	1	1	0	0	0.026578	0.02068	0.13872	0.071775	0.1203	0.2155	0.20642	0.2137	0.16123	0.18153	0.21654	0.14416	0.15114	0.30488	0.10309	0.23622	-3.0542	-2.6583	-3.2333	-3.3375	-2.8229	-3.2625	-3.15	-2.9458	-3.3771	-2.6875	-2.8583	-3.5146	-2.7854	-3.4188	-3.1375	-2.7396	199.882	75.821	8.440	151.997	-24.321	7.518	232.707	183.048	251.232	75.930	-90.286	180.087	242.706	240.454	47.788	250.449	0.00035954	0.00067243	0.00011544	752.32	4.342e-06	5.7381e-06	813.69	310.47	3.4863e-06	5.638e-06	376.88	175.7	148.7	74.033	3.2697e-06	91.814	0.00033199	0.00029725	8.2093e-05	754.19	3.2369e-06	3.2614e-06	817.4	313.55	3.156e-06	3.2117e-06	377.64	178.26	150.96	75.361	3.2761e-06	92.601	234.580	-1.937	17.795	-86.387	29.647	63.903	-87.628	-80.795	69.564	54.977	-83.077	-79.308	-76.624	-72.074	55.678	-75.476	-8191	255	
2128.216	1	1	0	0	0.13301	0.01173	0.12585	0.23969	0.11294	0.23941	0.49653	0.041857	0.11179	0.27446	0.11827	0.13881	0.10497	0.30697	0.08917	0.29308	-3.1417	-2.675	-2.8021	-3.4958	-2.8875	-3.2292	-3.1729	-2.7708	-3.3917	-2.9688	-2.9667	-3.5375	-2.9958	-3.2438	-3.1083	-2.9833	-7.978	-41.664	-58.182	199.744	80.364	45.365	206.743	83.246	177.228	-9.309	134.357	228.797	211.471	213.816	60.108	167.239	0.00035661	0.00046337	0.00017389	755.71	2.2992e-06	3.3681e-06	820.77	313.58	2.7933e-06	4.62e-06	380.36	176.5	148.85	74.35	5.0749e-06	92.35	0.0003273	0.0002863	8.246e-05	758.26	3.1807e-06	3.2181e-06	825.64	316.17	3.215e-06	3.1454e-06	380.11	179.24	151.63	75.608	3.3062e-06	92.717	232.460	-28.618	-12.008	-86.534	64.287	56.750	-87.704	-80.648	38.139	64.788	-83.418	-79.329	-76.919	-72.190	67.577	-75.500	-8191	255	
2128.312	1	1	0	0	0.1664	0.21198	0.12559	0.17089	0.18742	0.30475	0.24577	0.13027	0.34297	0.072206	0.13044	0.17391	0.063149	0.28791	0.11901	0.063279	-3.1917	-2.9521	-2.9292	-3.6562	-2.8125	-3.1833	-3.4979	-2.6688	-3.4979	-3.1604	-2.9542	-3.5563	-2.8896	-3.2167	-3.3646	-2.9917	87.744	-1.247	133.031	196.632	214.179	72.162	127.721	213.036	194.891	66.586	13.127	81.545	10.249	254.316	199.103	-14.030	0.00032483	0.00051638	0.00012897	757.36	4.8625e-06	5.8655e-06	823.77	314.24	2.9412e-06	6.0129e-06	377.87	175.73	149.75	74.188	4.3263e-06	91.75	0.00033073	0.00029314	8.1992e-05	758.99	3.2214e-06	3.2275e-06	824.5	316.48	3.226e-06	3.2101e-06	378.7	178.56	151.48	75.619	3.2492e-06	92.409	236.915	-16.991	6.707	-86.408	51.151	52.118	-87.575	-81.114	44.696	30.154	-83.391	-79.381	-76.535	-72.184	52.329	-75.596	-8191	255	
2128.408	1	1	0	0	0.022615	0.058028	0.10524	0.20351	0.1081	0.16338	0.14867	0.44418	0.15268	0.091599	0.2454	0.20609	0.068858	0.29086	0.16323	0.16447	-3.0229	-3.0896	-2.7229	-3.6333	-2.8146	-2.9229	-3.5146	-2.7458	-3.3292	-3.1354	-2.9562	-3.6063	-2.8396	-3.0354	-3.4167	-2.7938	-98.306	55.423	123.073	-55.093	87.586	89.635	-81.162	216.872	81.364	146.593	250.982	193.140	154.266	206.777	217.446	78.730	0.00033807	0.00069091	0.00016176	757.11	3.1936e-06	5.3881e-06	819.89	312.67	2.8343e-06	3.9051e-06	380.63	176.62	149.25	74.628	3.1398e-06	92.064	0.00033304	0.00029294	8.2705e-05	760.65	3.2245e-06	3.19e-06	824.94	317.02	3.2555e-06	3.2084e-06	380.59	179.56	151.96	75.977	3.2776e-06	92.826	227.977	-10.663	-1.464	-86.233	64.686	48.559	-87.682	-80.848	50.427	48.201	-83.405	-79.412	-76.765	-71.966	24.200	-75.380	-8191	255	
2128.479	1	1	0	0	0.26894	0.14273	0.15096	0.097288	0.15119	0.29376	0.2329	0.030597	0.13722	0.097693	0.28214	0.066685	0.17263	0.31073	0.089334	0.083644	-2.7875	-3.2583	-2.6937	-3.5521	-2.9458	-2.8396	-3.3542	-2.8479	-3.0563	-3.2313	-2.85	-3.5104	-3.1312	-3.0958	-3.4583	-2.9042	29.221	9.718	-92.883	25.497	-6.267	-66.387	246.773	-88.320	88.243	-43.305	208.726	-34.008	-64.750	255.693	-30.195	69.722	0.00032933	0.00083552	0.00012725	761.73	4.0816e-06	3.2482e-06	827.3	313.9	3.551e-06	8.2663e-06	381.8	178.17	150.4	75.287	5.0717e-06	92.963	0.00033459	0.00029265	8.385e-05	762.74	3.2446e-06	3.2142e-06	828.58	317.76	3.2623e-06	3.1647e-06	382.38	180.8	152.68	76.393	3.316e-06	93.609	237.859	-26.418	-47.421	-86.452	57.683	54.343	-87.463	-80.749	59.830	47.006	-83.217	-79.233	-76.653	-72.178	67.264	-75.426	-8191	255	
2128.598	1	1	0	0	0.17385	0.23184	0.095597	0.29291	0.12345	0.079527	0.37104	0.062156	0.079727	0.14237	0.011567	0.26361	0.15457	0.14722	0.25042	0.27133	-2.7021	-3.3021	-2.6562	-3.5229	-3.1063	-3.0187	-3.5438	-2.8271	-3.0042	-3.3	-2.6542	-3.4042	-3.2521	-3.0417	-3.3375	-3.0083	42.809	107.567	238.693	247.959	55.911	-73.499	209.096	156.786	-56.101	221.599	66.899	215.070	-43.269	-32.726	214.950	-68.306	0.00033338	0.00044628	0.00014907	767.66	3.3791e-06	7.7389e-06	832.27	316.29	3.0519e-06	6.1776e-06	382.54	178.57	149.85	74.907	2.5625e-06	93.171	0.00032983	0.00029184	8.2208e-05	768.08	3.1855e-06	3.2366e-06	835.12	320.09	3.2759e-06	3.2001e-06	384.06	181.3	152.56	76.273	3.2437e-06	93.747	231.680	-18.362	-20.867	-86.429	73.019	27.450	-87.451	-80.510	70.516	64.808	-82.973	-79.156	-76.570	-72.016	45.486	-75.184	-8191	255	
2128.695	1	1	0	0	0.19054	0.15931	0.21898	0.15799	0.21971	0.11605	0.14646	0.39468	0.29853	0.11034	0.19953	0.084667	0.096291	0.10598	0.066219	0.1813	-2.6562	-3.4083	-2.6479	-3.4646	-3.2104	-2.7667	-3.5625	-3.0229	-2.8333	-3.3563	-2.8438	-3.3	-3.4542	-2.9708	-3.4396	-3.0229	18.236	-57.830	246.371	-0.534	-70.899	51.598	189.427	187.299	83.986	227.942	146.809	109.138	239.043	24.231	254.294	138.034	0.00033922	0.00067772	0.00015941	768.12	4.3247e-06	6.5867e-06	832.28	314.74	3.4708e-06	6.9296e-06	381.92	177.31	149.69	74.319	3.4888e-06	91.788	0.00033461	0.00029194	8.2257e-05	770.01	3.2638e-06	3.2056e-06	835.77	318.69	3.2671e-06	3.2101e-06	382.65	179.93	152.04	75.751	3.2598e-06	92.736	231.978	1.152	-8.394	-86.411	75.579	76.701	-87.390	-80.832	81.291	60.311	-83.111	-79.260	-76.590	-72.024	0.740	-75.388	-8191	255	
2128.791	1	1	0	0	0.083515	0.19582	0.014036	0.36065	0.11486	0.20819	0.059041	0.50356	0.14282	0.058891	0.024489	0.1005	0.070154	0.19386	0.12742	0.248	-2.4167	-3.55	-2.6271	-3.1375	-3.1604	-2.6437	-3.4208	-2.8375	-2.6708	-3.3375	-2.8042	-3.1437	-3.3917	-2.7667	-3.4854	-3.1292	-33.718	-83.325	-13.712	-78.709	145.588	63.137	-61.483	207.275	163.402	-90.343	124.473	-42.352	247.000	241.772	245.643	-69.020	0.00034214	0.00071595	0.00017359	761.14	3.7803e-06	5.259e-06	835.28	316.66	3.5523e-06	6.4671e-06	379.55	177.93	149.86	74.507	4.5409e-06	92.313	0.00033391	0.00028909	8.2242e-05	766.09	3.1438e-06	3.1627e-06	832.37	318.57	3.2503e-06	3.1522e-06	381.63	180.31	152.26	75.907	3.2873e-06	93.031	230.216	-14.952	16.079	-86.616	50.867	76.695	-87.673	-81.135	20.608	57.873	-83.422	-79.607	-76.553	-72.005	34.220	-75.349	-8191	255	
2128.911	1	1	0	0	0.31691	0.25682	0.19814	0.33191	0.080786	0.087949	0.083107	0.1199	0.24482	0.1489	0.19264	0.18217	0.23662	0.21589	0.11643	0.27636	-2.5312	-3.3479	-2.8667	-3.0667	-3.4354	-2.7125	-3.3396	-3.2479	-2.7146	-3.5292	-2.8625	-3.1979	-3.3646	-2.8125	-3.1792	-3.0563	92.762	260.686	138.618	214.756	237.728	110.818	138.554	246.080	48.187	137.831	215.529	222.056	174.515	207.930	124.857	250.208	0.00036452	0.00043647	0.00020865	763.11	3.4805e-06	4.2126e-06	834.34	315.89	1.9801e-06	3.6081e-06	383	178.84	149.94	74.733	3.3068e-06	92.777	0.00033278	0.00028814	8.1295e-05	766.11	3.1538e-06	3.1383e-06	834.66	319.13	3.178e-06	3.0728e-06	383.82	181.02	152.37	76.021	3.2472e-06	93.435	233.278	-36.066	-14.054	-86.268	78.532	86.643	-87.518	-80.642	78.834	62.450	-83.192	-79.279	-76.746	-72.020	22.553	-75.259	-8191	255	
2129.007	1	1	0	0	0.13873	0.063531	0.094102	0.067389	0.22352	0.1951	0.19143	0.14777	0.15283	0.026231	0.32815	0.05284	0.013924	0.21743	0.020928	0.13564	-2.1979	-3.3229	-2.6979	-3.0229	-3.3271	-2.7354	-3.3479	-3.3083	-2.8271	-3.4708	-2.8979	-2.8312	-3.5271	-3.0083	-3.1688	-3.4583	11.685	215.091	-24.563	31.596	-65.316	-77.086	15.577	134.642	89.122	101.083	161.886	105.299	237.110	200.333	165.875	-36.130	0.00037698	0.00047874	0.000179	767.4	3.9906e-06	8.5257e-06	837.71	316.37	3.5062e-06	6.8845e-06	384	178.62	150.69	74.799	2.6588e-06	92.374	0.000324	0.00028108	7.9263e-05	769.19	3.1073e-06	3.1958e-06	838.36	319.82	3.3074e-06	3.1473e-06	384.66	181.66	153.01	75.989	3.3153e-06	93.247	234.437	-15.170	-7.452	-86.424	55.950	60.812	-87.308	-80.737	68.055	57.052	-83.136	-79.080	-76.568	-71.912	61.035	-75.325	-8191	255	
2129.079	1	1	0	0	0.055405	0.11525	0.34188	0.11354	0.56371	0.064061	0.22574	0.21251	0.15264	0.2365	0.27827	0.2568	0.082745	0.048157	0.40374	0.23432	-2.3812	-3.4875	-2.8625	-3.0083	-3.5563	-2.6958	-3.3875	-3.2896	-2.7792	-3.4271	-2.9167	-2.8667	-3.375	-2.8146	-3.1458	-3.475	119.613	97.541	68.176	193.874	-64.362	137.683	203.201	210.128	94.472	-11.735	-48.719	193.896	-41.078	126.894	134.946	212.730	0.00033307	0.00078924	0.00018028	770.3	4.6056e-06	5.4409e-06	840.25	316.87	2.9878e-06	8.1255e-06	383.63	180.04	150.5	74.874	5.1868e-06	92.986	0.00033372	0.00029046	8.1657e-05	772.48	3.1769e-06	3.1374e-06	841.94	320.56	3.2236e-06	3.14e-06	385.53	182.3	153.46	76.323	3.2381e-06	93.686	225.913	-29.446	16.169	-86.263	26.251	60.026	-87.693	-80.486	60.640	68.043	-83.164	-79.344	-76.416	-71.814	36.179	-75.269	-8191	255	
2129.200	1	1	0	0	0.21763	0.11364	0.13815	0.40341	0.14789	0.073789	0.14464	0.16001	0.12676	0.11203	0.060639	0.11828	0.17062	0.041865	0.16492	0.2078	-2.2687	-3.1188	-3.15	-2.825	-3.4979	-2.7667	-3.1417	-3.4896	-2.75	-3.3042	-3.2	-2.8021	-3.5021	-3.0646	-2.9375	-3.4896	-24.226	-98.414	-28.177	-95.442	171.220	150.007	-95.090	-53.069	-19.977	170.211	113.388	-98.500	216.773	260.767	28.547	236.782	0.00035015	0.00062418	8.3951e-05	770.72	4.0026e-06	5.8293e-06	833.67	316.37	2.6666e-06	5.5311e-06	382.22	178.81	150.67	74.996	4.8463e-06	92.841	0.00032458	0.00028877	7.8761e-05	771.06	3.1014e-06	3.1187e-06	836.45	319.95	3.1762e-06	3.1368e-06	383.87	181.29	152.99	76.264	3.2736e-06	93.447	231.542	-5.268	19.326	-86.309	92.857	68.605	-87.943	-80.792	54.970	40.339	-83.318	-79.541	-76.615	-71.906	74.241	-75.488	-8191	255	
2129.296	1	1	0	0	0.076953	0.20243	0.11119	0.32358	0.15571	0.34429	0.068536	0.13992	0.24947	0.11909	0.12861	0.24481	0.20133	0.23741	0.2223	0.11448	-2.3354	-3.2083	-3.1646	-2.8771	-3.5208	-3.1125	-2.9771	-3.4938	-2.7979	-3.2792	-3.225	-2.9667	-3.525	-3.3479	-2.8042	-3.675	-88.613	48.987	-40.803	190.071	239.366	87.467	86.787	250.594	154.226	41.932	-71.585	159.887	204.142	205.421	101.381	202.173	0.00033568	0.00056594	0.00012068	766.77	3.8916e-06	7.4515e-06	835.56	316.65	2.4122e-06	5.8883e-06	382.67	178.38	151.1	75.062	4.7599e-06	92.945	0.0003273	0.00028734	7.7907e-05	769.57	3.1124e-06	3.0745e-06	836.51	320.43	3.197e-06	3.0415e-06	383.79	180.89	153.19	76.27	3.1933e-06	93.563	231.741	13.574	14.169	-86.567	61.239	65.423	-87.653	-80.771	48.551	62.352	-83.128	-79.290	-76.798	-72.182	80.252	-75.360	-8191	255	
2129.392	1	1	0	0	0.1055	0.10563	0.028323	0.06703	0.21342	0.11592	0.036743	0.31768	0.10159	0.017988	0.18432	0.17868	0.25646	0.14232	0.1304	0.058596	-2.4042	-3.0917	-3.3042	-2.6229	-3.3312	-3.0104	-2.8604	-3.6583	-2.7708	-3.0667	-3.4437	-2.6729	-3.6562	-3.2417	-2.7979	-3.7417	153.737	-3.570	259.149	175.890	255.245	-49.424	233.575	243.510	42.250	-67.015	220.631	132.255	235.762	-56.443	-22.058	120.194	0.00035463	0.00040043	0.00016664	766.27	5.3779e-06	5.7079e-06	836.85	317.03	2.3291e-06	6.8576e-06	382.95	179.17	150.4	74.973	2.5419e-06	92.83	0.00032021	0.00028931	8.0162e-05	769.01	3.1332e-06	3.0737e-06	838.32	320.6	3.1422e-06	3.1185e-06	383.82	181.31	153.24	76.262	3.2479e-06	93.505	230.531	-61.750	-26.465	-86.391	47.601	45.750	-87.582	-80.818	45.637	25.158	-83.063	-79.191	-76.823	-72.076	78.161	-75.188	-8191	255	
2129.511	1	1	0	0	0.083238	0.07945	0.062755	0.067649	0.18503	0.11272	0.15393	0.11379	0.24044	0.24428	0.15191	0.30617	0.021068	0.23191	0.19671	0.22124	-2.3563	-2.9979	-3.3396	-2.6688	-3.2562	-3.0396	-2.6917	-3.55	-2.8312	-3.1708	-3.6125	-2.8312	-3.3646	-3.5104	-2.6854	-3.625	84.014	-68.628	-95.834	143.244	225.506	88.427	18.996	-47.298	208.743	128.870	32.511	184.104	-82.859	220.898	72.317	187.579	0.0003222	0.00047461	0.0001807	768.73	3.7989e-06	7.2135e-06	832.42	316.47	2.347e-06	4.1085e-06	382.65	177.63	150.57	74.73	3.9807e-06	92.58	0.00032889	0.00028716	7.9846e-05	769.08	3.1991e-06	3.0889e-06	836.96	319.86	3.1444e-06	3.125e-06	383.44	180.67	152.78	76.135	3.2601e-06	93.441	233.855	12.317	-9.154	-86.463	92.052	59.135	-87.700	-80.822	65.533	40.407	-83.174	-79.435	-76.852	-72.180	64.163	-75.358	-8191	255	
2129.607	1	1	0	0	0.25777	0.21406	0.17073	0.33056	0.088874	0.12031	0.083898	0.35318	0.19281	0.071254	0.15085	0.30854	0.15773	0.21921	0.21114	0.1155	-2.7917	-2.7667	-3.4042	-2.6833	-3.0958	-3.3271	-2.7458	-3.5333	-3.0167	-2.8083	-3.4958	-2.7646	-3.1813	-3.1979	-2.6417	-3.4125	99.359	103.096	-68.319	-78.639	2.866	181.617	184.810	252.433	164.783	180.446	216.444	171.669	198.991	230.305	59.665	198.537	0.0003283	0.00060819	0.00017808	768.53	3.1609e-06	8.1107e-06	831.89	316.47	5.0002e-06	5.5086e-06	381.62	177.61	149.2	75.031	3.8565e-06	92.947	0.00032804	0.0002819	8.0208e-05	770.2	3.0891e-06	3.0378e-06	835.61	319.25	3.1176e-06	3.1603e-06	382.54	180.03	151.87	76.106	3.2215e-06	93.503	235.415	10.346	-5.362	-86.744	76.232	83.993	-87.531	-80.984	73.458	32.035	-83.250	-79.366	-76.607	-71.972	47.383	-75.445	-8191	255	
2129.703	1	1	0	0	0.10978	0.19634	0.049037	0.29168	0.12449	0.16528	0.19973	0.15767	0.26294	0.071394	0.33842	0.093903	0.138	0.11465	0.25911	0.16127	-2.6604	-2.6083	-3.5062	-2.7625	-3.0542	-3.2167	-2.7521	-3.4708	-3.0583	-2.7396	-3.45	-3.1125	-3.1146	-3.4146	-2.6625	-3.4021	-4.455	184.225	89.868	61.569	148.721	128.537	-2.202	232.145	10.397	209.918	244.331	211.880	201.884	-78.257	119.301	201.934	0.00032813	0.00055142	0.00012582	767.69	5.3914e-06	5.6872e-06	829.43	317.5	2.6192e-06	5.0287e-06	381.27	177.53	150.57	75.122	4.6264e-06	92.928	0.00031897	0.00029229	7.7778e-05	769.77	3.1377e-06	3.0725e-06	834.41	320.39	3.1086e-06	3.1468e-06	382.9	180.13	152.91	76.465	3.1536e-06	93.464	234.724	7.846	-14.777	-86.429	46.811	72.265	-87.760	-80.809	63.898	38.761	-83.333	-79.359	-76.535	-71.909	57.364	-75.344	-8191	255	
2129.775	1	1	0	0	0.23112	0.1553	0.18067	0.22201	0.28322	0.071026	0.13257	0.23734	0.15587	0.098421	0.064334	0.1794	0.15428	0.31666	0.24749	0.13724	-2.9271	-2.5479	-3.4021	-2.9104	-2.9875	-3.4354	-2.5021	-3.3208	-3.2875	-2.7604	-3.5104	-2.9458	-2.9313	-3.5292	-2.7146	-3.2833	105.896	-90.180	160.930	194.288	18.661	62.970	130.204	156.133	260.038	-18.929	134.698	186.630	-93.571	214.802	152.041	170.054	0.00033697	0.00050387	0.00014027	771.55	3.3866e-06	8.2655e-06	834.51	316.97	1.0917e-06	4.2439e-06	383.03	177.48	149.68	75.409	4.4851e-06	93.386	0.00031549	0.00028295	7.8015e-05	771.86	3.1075e-06	3.0455e-06	837.06	320.15	3.0711e-06	3.0817e-06	383.8	179.99	152.61	76.576	3.1424e-06	94.025	234.026	-15.908	-1.735	-86.467	47.126	31.680	-87.548	-81.006	26.039	58.135	-83.175	-79.489	-76.901	-72.063	75.091	-75.440	-8191	255	
2129.896	1	1	0	0	0.064823	0.050914	0.19355	0.23593	0.036819	0.077132	0.2187	0.22794	0.085526	0.13798	0.24601	0.18498	0.12177	0.17377	0.20197	0.32286	-2.9	-2.5229	-3.4229	-3.2042	-3.0438	-3.6458	-2.7271	-3.2958	-3.2875	-2.7125	-3.6021	-3.1479	-2.9521	-3.6458	-2.7979	-3.1312	162.708	110.696	193.135	104.233	68.309	205.558	11.574	169.857	231.842	-74.310	215.793	214.559	-68.119	111.832	247.894	214.068	0.00034516	0.00061835	0.00012041	770.04	5.6776e-06	6.2609e-06	837.62	317.67	4.5125e-06	6.491e-06	385.59	179.74	152.13	76.375	3.3852e-06	94.835	0.00031686	0.00028655	7.6823e-05	770.4	3.0801e-06	3.0483e-06	839.82	321.78	3.1155e-06	3.0502e-06	386.68	182.53	154.42	77.732	3.122e-06	95.469	235.433	12.067	7.196	-86.486	63.145	25.953	-87.718	-81.172	54.463	25.983	-83.450	-79.491	-76.642	-72.052	54.878	-75.531	-8191	255	
2129.992	1	1	0	0	0.077928	0.1502	0.19901	0.20035	0.16136	0.30173	0.069625	0.22422	0.1111	0.057215	0.20711	0.36933	0.10507	0.30261	0.097808	0.17949	-2.9562	-2.6083	-3.3042	-2.9958	-2.7875	-3.4562	-2.9104	-3.0292	-3.3187	-2.6813	-3.5292	-3.2646	-2.85	-3.5375	-3.0021	-3.1292	125.683	226.512	193.731	21.144	59.774	-74.897	204.814	243.214	47.286	99.084	113.873	192.003	25.279	235.550	167.018	148.647	0.00034155	0.0005707	0.00018997	769.65	4.6853e-06	7.156e-06	838.87	319.74	2.7522e-06	4.2147e-06	389.55	181.22	152.4	76.409	4.7579e-06	95.297	0.00031877	0.0002834	7.7528e-05	771.54	3.1521e-06	3.0353e-06	842.47	323.76	3.0917e-06	3.1132e-06	389.42	183.88	154.87	77.925	3.1307e-06	96.06	233.812	-1.113	-11.163	-86.565	58.620	58.029	-87.602	-80.734	47.988	50.012	-83.079	-79.147	-76.874	-71.868	39.801	-75.290	-8191	255	
2130.088	1	1	0	0	0.13769	0.12226	0.11677	0.10409	0.11533	0.069702	0.070818	0.11511	0.11179	0.206	0.025436	0.11705	0.16152	0.12482	0.3271	0.16657	-3.0917	-2.6813	-3.2292	-3.3125	-2.5	-3.3979	-3.0958	-3.1292	-3.3	-2.7958	-3.2271	-3.2333	-2.8458	-3.6063	-2.7938	-2.7917	48.926	143.440	133.783	-45.612	7.031	-97.582	204.464	187.749	157.983	185.202	-57.710	221.089	250.302	-61.490	158.483	191.206	0.00034489	0.00048233	0.00010975	771.62	3.5291e-06	8.6018e-06	840.58	320.07	1.8785e-06	6.0997e-06	388.54	180.77	152.21	75.984	2.2369e-06	94.476	0.00032433	0.00027649	7.8047e-05	773.45	3.1357e-06	3.0567e-06	844.33	323.62	3.0757e-06	3.1009e-06	388.5	183.15	154.58	77.454	3.1619e-06	95.094	227.743	-35.756	28.425	-86.642	57.379	44.090	-87.529	-80.849	21.805	62.344	-83.226	-79.396	-76.755	-71.906	100.827	-75.480	-8191	255	
2130.184	1	1	0	0	0.091194	0.20452	0.13984	0.14973	0.26987	0.12951	0.19929	0.094433	0.054355	0.23004	0.09171	0.077124	0.047198	0.11969	0.34482	0.2176	-3.0438	-2.6458	-3.0187	-3.3438	-2.6625	-3.5042	-3.2125	-2.9833	-3.4479	-2.7792	-3.1896	-3.4458	-2.8688	-3.4458	-3.1979	-2.9042	-83.138	-4.835	248.381	168.954	-56.827	-85.461	-96.793	-66.329	-77.485	57.831	-71.238	138.046	202.304	175.253	211.112	232.203	0.00035038	0.00070867	0.00015202	768.63	6.5379e-06	8.1821e-06	835.6	318.74	3.5097e-06	6.9284e-06	385.61	179.9	151.58	75.776	3.6737e-06	93.868	0.00032364	0.00028503	7.8184e-05	769.61	3.1463e-06	3.0868e-06	838.5	322.03	3.1291e-06	3.0685e-06	386.69	182.12	154.21	77.286	3.118e-06	94.758	234.125	-2.967	-7.463	-86.242	52.186	54.003	-87.475	-80.779	46.499	28.348	-83.315	-79.419	-76.779	-71.937	51.110	-75.250	-8191	255	
2130.305	1	1	0	0	0.10797	0.17656	0.17386	0.065916	0.20678	0.23791	0.20633	0.023868	0.12839	0.10645	0.09508	0.089543	0.36604	0.26617	0.10354	0.14208	-3.1063	-2.5375	-2.8937	-3.4708	-2.725	-3.3104	-3.4333	-2.8833	-3.4271	-2.7958	-3.1271	-3.4417	-2.7562	-3.2021	-3.2062	-2.975	185.260	-51.316	256.333	30.447	58.930	15.616	164.021	6.085	19.181	-7.391	113.186	173.691	175.402	-78.587	143.251	159.555	0.0003451	0.00060333	0.00013534	767.15	4.1139e-06	5.4653e-06	833.77	319.26	2.2901e-06	5.9337e-06	387.9	180.42	150.91	76.336	3.8705e-06	94.395	0.00032015	0.00027836	7.7533e-05	768.75	3.0452e-06	3.013e-06	837.51	322.33	3.0374e-06	3.0048e-06	387.29	182.38	153.95	77.533	3.0736e-06	95.213	235.660	-6.950	-13.367	-86.267	47.077	46.357	-87.656	-81.032	24.863	46.783	-83.245	-79.105	-76.428	-71.978	31.774	-75.168	-8191	255	
2130.376	1	1	0	0	0.17603	0.18795	0.089731	0.13578	0.36396	0.06071	0.14863	0.15375	0.12675	0.060754	0.31438	0.11834	0.20812	0.22359	0.11475	0.31031	-3.025	-2.9354	-2.7146	-3.5458	-2.8375	-3.2771	-3.4354	-2.8771	-3.3396	-2.9854	-2.9875	-3.5125	-2.9354	-3.3354	-3.3438	-2.7687	85.532	52.207	73.163	215.752	-42.160	-24.176	212.593	235.941	-21.321	-87.005	223.745	216.937	253.417	223.418	-86.886	220.477	0.00035267	0.00084835	0.00015468	766.01	2.9409e-06	3.5876e-06	837.03	318.1	3.2139e-06	5.087e-06	387.35	179.98	151.94	76.361	4.4898e-06	94.913	0.00032386	0.00027839	8.0747e-05	768.39	3.0799e-06	3.1131e-06	838.18	321.96	3.1065e-06	3.0623e-06	388.12	182.62	154.41	77.818	3.1564e-06	95.522	235.400	-25.842	-25.958	-86.217	86.366	94.482	-87.411	-80.693	64.523	14.611	-83.145	-79.076	-76.429	-71.831	85.255	-75.108	-8191	255	
2130.472	1	1	0	0	0.24694	0.19311	0.16307	0.23258	0.1308	0.14258	0.12976	0.088099	0.16012	0.097805	0.29994	0.3739	0.19601	0.048406	0.24306	0.25717	-3.0958	-3.0312	-2.9229	-3.5208	-2.7438	-2.9813	-3.5229	-2.9875	-3.3917	-3.0083	-2.8354	-3.5312	-2.8583	-3.1271	-3.3812	-2.8792	186.889	146.832	175.674	-75.679	41.227	-10.841	-20.596	115.246	-73.888	121.369	163.918	210.687	217.739	215.087	62.793	202.050	0.00035247	0.0005742	0.00018346	766.69	3.3705e-06	4.0849e-06	840.19	316.58	2.7827e-06	5.4882e-06	387.72	180.14	152.85	76.557	3.5526e-06	94.821	0.00032561	0.00027486	7.8632e-05	768.06	3.0814e-06	3.1029e-06	840.15	321.73	3.1228e-06	3.0946e-06	387.89	183.16	154.7	77.822	3.1451e-06	95.673	233.649	-23.896	-12.475	-86.469	56.087	49.933	-87.250	-80.786	68.188	38.794	-83.054	-79.185	-76.444	-71.797	63.433	-75.438	-8191	255	
2130.593	1	1	0	0	0.038372	0.14099	0.14212	0.1121	0.24953	0.14651	0.2122	0.046711	0.25241	0.029102	0.12954	0.18941	0.17728	0.16768	0.27324	0.3045	-2.8812	-2.9271	-2.6813	-3.5875	-2.8625	-3.0375	-3.5771	-2.8417	-3.2417	-3.2146	-2.7625	-3.5979	-2.8667	-3.1271	-3.4542	-2.8771	-98.063	212.283	231.806	-62.748	-63.419	-36.725	199.122	179.122	239.521	172.710	106.825	219.267	228.646	239.743	254.727	185.190	0.00035466	0.00070362	0.00015882	763.18	3.5615e-06	7.4425e-06	833.63	319.81	3.6476e-06	6.2934e-06	385.77	179.99	151.09	76.374	4.7278e-06	94.343	0.00032362	0.00027923	8.0118e-05	767.76	3.0773e-06	3.0442e-06	835.68	322.45	3.1487e-06	3.1075e-06	387.18	182.65	154.16	77.745	3.1612e-06	95.139	226.657	1.783	-21.421	-86.461	79.027	38.297	-87.480	-80.692	66.691	24.640	-83.166	-79.137	-76.458	-71.873	42.719	-75.236	-8191	255	
2130.687	1	1	0	0	0.15906	0.16885	0.14061	0.23492	0.17706	0.030489	0.23328	0.16306	0.084507	0.065972	0.059752	0.34815	0.23794	0.14959	0.18393	0.11659	-2.6854	-3.2354	-2.7313	-3.5146	-2.8833	-2.8896	-3.5417	-2.9771	-3.1312	-3.3729	-2.7354	-3.3396	-3.1229	-2.8729	-3.3104	-2.9688	18.787	-59.072	32.187	253.488	195.657	38.118	134.107	-93.476	5.967	-98.244	-63.729	152.380	231.433	228.615	-97.814	35.210	0.00034115	0.00064263	0.00015182	766.88	3.3006e-06	5.8848e-06	833.67	318.5	4.4804e-06	6.721e-06	387.29	180.41	152.42	76.379	2.8744e-06	93.915	0.00032305	0.00028084	8.0284e-05	767.17	3.0722e-06	3.108e-06	836.8	321.98	3.1156e-06	3.0904e-06	385.91	182.35	154.65	77.753	3.1679e-06	94.945	236.401	-21.719	4.718	-86.229	51.921	63.783	-87.374	-80.436	68.971	49.195	-82.877	-78.888	-76.435	-71.849	50.918	-75.224	-8191	255	
2130.784	1	1	0	0	0.16836	0.16786	0.079836	0.14774	0.21158	0.11704	0.14654	0.26673	0.15106	0.16114	0.11725	0.19873	0.094337	0.17462	0.10015	0.18452	-2.8	-3.4708	-2.6688	-3.5812	-3.1792	-2.7104	-3.4896	-2.8021	-2.875	-3.2917	-2.825	-3.425	-3.1562	-2.8312	-3.4875	-2.7979	118.173	-48.540	82.978	195.810	211.453	193.450	-93.315	253.504	97.722	120.862	171.767	77.952	182.114	209.707	-31.867	-86.939	0.00037615	0.00051628	0.00015991	766.59	5.7666e-06	4.3051e-06	834.21	319.27	2.8019e-06	5.4546e-06	384.52	180.07	152.75	76.463	4.1143e-06	94.79	0.00032697	0.00028146	7.9452e-05	767.07	3.113e-06	3.1644e-06	835.72	322.23	3.1712e-06	3.0412e-06	386.32	182.37	154.75	77.802	3.2065e-06	95.347	236.840	-3.111	-29.844	-86.363	93.770	44.696	-87.384	-80.656	42.409	39.128	-82.978	-79.129	-76.571	-71.839	63.078	-75.214	-8191	255	
2130.880	1	1	0	0	0.074916	0.031272	0.2644	0.20096	0.011205	0.21304	0.21914	0.12586	0.14467	0.19224	0.24057	0.29084	0.15772	0.13913	0.17483	0.087036	-2.4667	-3.3187	-2.6	-3.1875	-3.2271	-2.8688	-3.4771	-3.0542	-2.7708	-3.3	-2.8271	-3.3646	-3.1833	-2.6833	-3.4146	-3.075	234.741	52.708	240.845	258.633	223.827	100.964	209.462	157.710	-40.500	100.942	145.011	177.653	240.012	172.189	9.931	251.151	0.0003523	0.00061985	0.00017081	768.21	3.8756e-06	4.1241e-06	839.68	319.03	5.8015e-06	6.0613e-06	385.19	179.92	152.18	76.422	4.733e-06	94.754	0.00032449	0.00028323	7.9493e-05	769.28	3.1115e-06	3.1364e-06	839.55	322.4	3.1664e-06	3.0979e-06	386.09	182.48	154.59	77.793	3.1646e-06	95.462	234.706	-2.291	-27.524	-85.991	20.739	66.209	-87.396	-80.570	49.352	44.350	-82.896	-79.008	-76.954	-72.164	22.478	-75.284	-8191	255	
2130.976	1	1	0	0	0.28068	0.21242	0.34393	0.069315	0.1171	0.041736	0.048448	0.39667	0.24843	0.10914	0.13465	0.26788	0.30148	0.10705	0.16282	0.10004	-2.3646	-3.4333	-2.7146	-3.1625	-3.2667	-2.7792	-3.3229	-3.2042	-2.9521	-3.3708	-3.0312	-3.2875	-3.5083	-2.6396	-3.3312	-3.2625	6.101	212.119	123.026	-86.208	81.175	91.435	60.000	-82.403	-48.876	203.284	218.284	145.487	129.143	221.501	64.957	144.501	0.00032868	0.00049778	0.0001148	769.45	5.4418e-06	8.7192e-06	831.09	317.75	2.5722e-06	8.124e-06	382.53	177.04	149.25	75.082	3.9889e-06	92.652	0.0003263	0.00028142	7.8791e-05	769.58	3.0665e-06	3.1507e-06	837.53	320.86	3.194e-06	3.1466e-06	382.99	179.73	152.32	76.499	3.1696e-06	93.513	230.212	-8.974	9.377	-86.577	58.240	55.091	-87.806	-80.803	93.528	51.860	-83.506	-79.605	-76.648	-72.076	24.183	-75.510	-8191	255	
2131.072	1	1	0	0	0.086051	0.16828	0.11015	0.10058	0.1326	0.12765	0.34251	0.11593	0.09928	0.16061	0.43746	0.15611	0.10685	0.17824	0.024483	0.29628	-2.4896	-3.3125	-2.8271	-3.2979	-3.4271	-2.6417	-3.4104	-3.1167	-2.6042	-3.2875	-2.9229	-2.9479	-3.4729	-2.8854	-3.2083	-3.25	149.694	51.647	-71.449	144.722	96.755	-48.109	247.035	183.154	8.681	124.587	214.113	171.882	-97.324	171.960	249.755	234.991	0.00035294	0.00065906	0.00019281	765.59	4.3105e-06	2.9263e-06	831.8	314.67	2.0932e-06	5.8543e-06	377.41	174.22	148.69	74.344	4.6858e-06	91.469	0.00032763	0.00028008	7.8549e-05	767.86	3.1244e-06	3.1118e-06	832.2	317.9	3.2251e-06	3.0598e-06	378.33	177.44	151.17	75.656	3.1933e-06	92.287	231.235	-8.247	-5.584	-86.689	47.426	40.419	-87.908	-80.816	62.308	38.833	-83.367	-79.718	-76.777	-72.186	67.507	-75.406	-8191	255	
2131.193	1	1	0	0	0.2113	0.14531	0.29007	0.21926	0.1948	0.13443	0.15485	0.098629	0.18586	0.1335	0.14743	0.16176	0.041837	0.19479	0.14669	0.10617	-2.5792	-3.4375	-2.8354	-3.0146	-3.4333	-2.6646	-3.3833	-3.2375	-2.8	-3.3729	-3.0917	-2.8104	-3.5125	-2.8771	-3.1083	-3.3063	256.238	111.000	-73.062	175.382	23.849	78.203	219.311	137.585	-26.507	85.387	254.780	-82.142	234.603	248.546	-4.843	235.300	0.00033574	0.00058134	0.0001442	760.45	4.7623e-06	7.7821e-06	827.01	316	3.6826e-06	7.9097e-06	376.89	175.39	148.7	74.788	6.3255e-06	91.698	0.00032514	0.00028511	7.8509e-05	764.91	3.0638e-06	3.0725e-06	829.87	318.47	3.0997e-06	3.0667e-06	378.57	177.58	151.36	75.947	3.1551e-06	92.679	236.032	5.681	7.570	-86.684	57.598	73.284	-87.712	-81.046	90.884	62.699	-83.202	-79.497	-76.837	-72.118	37.796	-75.092	-8191	255	
2131.289	1	1	0	0	0.24705	0.066538	0.25943	0.22878	0.087808	0.21653	0.20934	0.20023	0.01767	0.048845	0.13136	0.12905	0.48673	0.35253	0.17274	0.23906	-2.2833	-3.4396	-3.0479	-2.9042	-3.5854	-2.75	-3.1542	-3.4396	-2.5208	-3.2396	-2.9896	-2.7875	-3.3729	-2.85	-2.9562	-3.5042	160.333	104.317	-22.786	168.161	-65.454	253.401	-90.148	216.458	163.980	-49.462	-80.431	-76.047	198.032	158.546	-16.985	177.197	0.00029598	0.00076141	0.00019626	767.07	4.6762e-06	2.8626e-06	828.03	314.66	3.3039e-06	6.2609e-06	378.07	176.54	149.57	74.858	4.9912e-06	93.377	0.00031928	0.00027594	7.6772e-05	766.48	3.06e-06	3.0484e-06	831.52	318.24	3.1459e-06	3.0059e-06	379.49	178.28	151.62	76.243	3.178e-06	93.726	234.667	-22.718	0.052	-86.253	69.475	-17.419	-87.447	-80.670	37.966	45.090	-83.076	-79.537	-76.555	-71.882	39.535	-75.282	-8191	255	
2131.385	1	1	0	0	0.13668	0.13506	0.10137	0.27115	0.20401	0.13187	0.14568	0.12955	0.062094	0.16924	0.19248	0.27205	0.15319	0.27427	0.13533	0.17044	-2.1312	-3.3083	-3.1875	-2.6083	-3.3729	-2.7729	-3.1042	-3.4333	-2.7062	-3.1417	-3.1375	-2.7833	-3.4333	-3.0792	-2.875	-3.5833	157.398	212.061	-44.565	202.487	183.429	-60.685	173.791	27.200	171.028	21.300	227.293	181.763	-92.393	-67.791	230.497	190.922	0.00034338	0.00061852	0.00015129	765.87	3.6995e-06	7.0867e-06	833.96	316.47	3.5576e-06	2.7781e-06	381.56	175.48	149.5	75.139	3.0047e-06	93.01	0.00032391	0.00028321	7.8066e-05	767.98	2.9834e-06	3.0029e-06	835.64	319.83	3.0912e-06	3.0843e-06	381.15	178.37	152.17	76.422	3.159e-06	93.766	230.726	-2.236	-10.632	-86.670	71.863	62.921	-87.684	-81.082	56.986	61.617	-83.234	-79.382	-76.557	-71.741	65.174	-75.253	-8191	255	
2131.479	1	1	0	0	0.22378	0.15784	0.17626	0.045968	0.074779	0.085441	0.15646	0.4415	0.062875	0.18911	0.19897	0.24447	0.10222	0.2041	0.16789	0.3375	-2.2521	-3.075	-3.0917	-2.7021	-3.3354	-3.0187	-3.0625	-3.4813	-2.8542	-3.2875	-3.5479	-2.8937	-3.5104	-3.2042	-2.7938	-3.5729	184.594	200.868	54.019	125.124	-47.029	121.804	-68.834	168.804	228.202	177.150	149.374	202.732	194.898	-86.706	259.245	228.934	0.00031906	0.00048596	0.00017809	766.67	5.6921e-06	6.3243e-06	835.02	315.91	4.1619e-06	5.1847e-06	380	175.78	149.05	74.933	6.9342e-06	92.271	0.00032167	0.00028188	7.5868e-05	768.91	3.0773e-06	3.0165e-06	835.01	319.58	3.0433e-06	3.0265e-06	380.89	178.03	151.87	76.199	3.1759e-06	93.042	231.412	-20.529	16.656	-86.552	39.311	56.477	-87.533	-80.465	13.977	50.810	-83.036	-79.494	-76.702	-72.016	53.508	-75.263	-8191	255	
2131.600	1	1	0	0	0.071921	0.012143	0.044795	0.46183	0.35836	0.4014	0.26534	0.088472	0.11956	0.19243	0.22301	0.3522	0.14554	0.20268	0.12323	0.11942	-2.35	-2.8937	-3.4188	-2.7542	-3.3292	-3.0458	-2.8021	-3.5229	-2.9125	-3.1604	-3.5187	-2.725	-3.2917	-3.1833	-2.6063	-3.6208	142.447	58.946	170.667	-98.623	50.724	168.260	178.102	160.249	106.107	231.107	230.022	227.494	240.031	233.677	165.456	220.790	0.00030728	0.00079192	0.00013823	764.41	4.4125e-06	6.2171e-06	831.15	316.59	2.7305e-06	4.8644e-06	379.98	175.57	149.72	74.935	2.4612e-06	92.425	0.00032161	0.00027749	7.8375e-05	767.65	3.0734e-06	3.0207e-06	833.37	319.82	3.0972e-06	3.0777e-06	380.73	178.4	152.03	76.235	3.2104e-06	93.193	231.364	-16.486	-14.801	-86.660	54.015	60.538	-87.733	-80.915	35.857	67.854	-83.111	-79.352	-76.710	-71.840	38.917	-75.308	-8191	255	
2131.672	1	1	0	0	0.14635	0.15371	0.10568	0.31808	0.2223	0.27046	0.10027	0.22305	0.072835	0.1928	0.20172	0.2439	0.17882	0.32995	0.17244	0.28112	-2.5542	-2.7917	-3.2812	-2.7896	-3.1792	-3.2896	-2.8708	-3.5396	-2.9062	-2.9375	-3.5646	-2.9	-3.2229	-3.3854	-2.6125	-3.4458	85.840	214.060	73.343	45.548	210.592	178.372	145.498	185.637	-36.167	247.206	221.290	234.207	201.246	249.479	213.643	-64.251	0.00034088	0.0005403	0.00019744	763.18	4.3111e-06	4.8114e-06	828.8	315.99	3.1982e-06	5.5815e-06	377.97	175.84	149.65	75.313	3.8355e-06	92.743	0.00031981	0.00028458	7.8064e-05	765.15	3.0444e-06	3.0277e-06	831.94	319.38	3.0922e-06	3.046e-06	380.41	178.5	152.19	76.464	3.1792e-06	93.242	232.303	-27.781	-7.262	-86.431	81.663	79.290	-87.459	-80.750	27.151	52.553	-83.246	-79.589	-76.640	-71.998	42.294	-75.315	-8191	255	
2131.768	1	1	0	0	0.15008	0.12997	0.042666	0.3036	0.18904	0.10984	0.08794	0.049564	0.089842	0.2511	0.34081	0.2163	0.18948	0.29202	0.071059	0.17721	-2.525	-2.7188	-3.2583	-2.775	-3.0479	-3.4021	-2.8583	-3.3187	-2.9875	-2.7458	-3.2396	-2.7625	-3.2104	-3.5125	-2.5958	-3.4396	155.677	237.273	81.519	182.941	197.467	-6.736	78.879	190.336	163.807	-90.060	255.948	24.826	208.128	143.219	191.080	228.154	0.0003112	0.00069224	0.00013106	764.29	3.9937e-06	4.8713e-06	830.05	316.65	2.5853e-06	7.0894e-06	380.69	176.56	149.46	75.32	4.4324e-06	93.075	0.00032084	0.00027934	7.7986e-05	766.27	3.0676e-06	3.0156e-06	833.29	319.99	3.0522e-06	3.101e-06	381.67	179.02	152.31	76.603	3.1376e-06	93.932	237.021	-18.290	13.265	-86.609	57.250	46.221	-87.875	-80.929	63.396	68.800	-83.339	-79.402	-76.893	-72.103	24.899	-75.508	-8191	255	
2131.864	1	1	0	0	0.11119	0.30286	0.12244	0.16857	0.10608	0.19012	0.083344	0.038519	0.078071	0.24685	0.13525	0.24681	0.30764	0.32392	0.020127	0.14878	-2.5563	-2.6271	-3.3208	-2.8396	-2.95	-3.3063	-2.8438	-3.2375	-3.0333	-2.6958	-3.5396	-2.8583	-2.9521	-3.4833	-2.6125	-3.45	82.566	-47.760	-54.972	259.263	102.894	125.364	211.121	67.096	-66.054	221.574	108.900	169.065	245.570	-63.853	129.321	99.846	0.00035511	0.00045224	0.00022634	767.65	4.102e-06	5.6061e-06	831.69	317.44	5.0814e-06	6.3245e-06	383.4	177.19	150.74	75.872	2.7901e-06	93.871	0.00031523	0.00028313	7.7565e-05	768.8	3.0317e-06	2.9723e-06	836.25	320.86	3.0159e-06	3.102e-06	383.87	180.22	153.14	76.992	3.1266e-06	94.544	230.419	-21.803	-3.119	-86.406	39.239	45.959	-87.555	-81.178	50.013	62.749	-83.389	-79.356	-76.765	-71.881	67.216	-75.333	-8191	255	
2131.985	1	1	0	0	0.2314	0.11418	0.12289	0.40079	0.1015	0.24444	0.23408	0.25525	0.13294	0.11275	0.1348	0.089638	0.088119	0.1313	0.25201	0.15569	-2.85	-2.5208	-3.2604	-3.0187	-2.8563	-3.3688	-2.6896	-3.1813	-3.0875	-2.6083	-3.6437	-3.1562	-2.9813	-3.5917	-2.5833	-3.2438	26.566	-67.145	-65.642	151.026	224.331	210.723	162.906	193.333	193.028	160.351	-19.330	-72.620	203.199	202.611	231.391	125.626	0.00033559	0.00063753	0.00023788	765.67	3.5672e-06	8.1977e-06	835.5	317.96	2.9654e-06	8.3295e-06	385.11	178.35	151.86	76.022	4.9594e-06	93.844	0.00031677	0.00028075	7.8517e-05	768.47	3.0589e-06	3.0354e-06	837.36	321.62	2.9922e-06	3.1003e-06	384.65	180.87	153.92	77.269	3.1281e-06	94.485	231.058	-23.898	-5.075	-86.690	67.680	62.076	-87.673	-81.095	64.188	43.442	-83.555	-79.427	-76.912	-71.997	44.498	-75.279	-8191	255	
2132.081	1	1	0	0	0.1708	0.17784	0.12201	0.062992	0.050801	0.088658	0.1954	0.1612	0.14258	0.29716	0.13791	0.12852	0.2591	0.10441	0.027168	0.21481	-2.8771	-2.7375	-3.4188	-3.1063	-2.7458	-3.425	-2.8667	-3.2062	-3.4271	-2.6562	-3.3208	-3.3063	-2.8875	-3.6146	-2.7979	-3.0229	32.446	123.405	-18.716	73.856	-78.588	116.618	137.878	-71.117	-53.241	109.087	214.679	-87.062	-65.657	-64.131	129.243	226.780	0.00035618	0.0007262	0.00013999	764.93	3.9042e-06	5.9604e-06	835.07	319.96	1.9794e-06	4.9446e-06	382.9	178.17	151.33	76.155	5.8374e-06	93.808	0.00031379	0.00027997	7.7114e-05	768.56	3.0681e-06	2.9915e-06	836.44	322.39	3.0315e-06	3.086e-06	384.61	180.99	153.82	77.398	3.0929e-06	94.767	234.563	-8.183	-19.249	-86.466	42.490	61.255	-87.551	-80.647	41.770	64.371	-83.316	-79.052	-76.707	-71.963	53.781	-75.188	-8191	255	
2132.177	1	1	0	0	0.11861	0.26729	0.098089	0.26456	0.17634	0.24365	0.18322	0.14269	0.28312	0.20107	0.3735	0.32481	0.13556	0.42668	0.10227	0.31516	-3.0458	-2.6604	-3.2042	-3.2646	-2.9062	-3.5458	-2.9229	-3.0667	-3.4313	-2.7771	-3.3229	-3.15	-2.7896	-3.4479	-2.9646	-2.9417	180.443	-42.653	169.096	217.851	-11.341	55.345	227.454	116.692	256.385	218.472	244.756	199.367	72.683	210.847	80.048	-92.469	0.00030802	0.00036756	9.566e-05	768.97	1.6784e-06	5.1265e-06	836.33	317.91	2.3884e-06	3.3376e-06	386.82	179.77	152.08	76.713	4.5804e-06	95.216	0.0003218	0.00027891	7.7388e-05	768.37	3.0661e-06	2.9611e-06	837.71	322.28	3.0672e-06	2.9797e-06	387.2	182.14	154.83	78.129	3.1168e-06	95.931	229.130	-8.423	-16.664	-86.509	55.395	60.078	-87.604	-80.894	71.752	74.423	-83.366	-78.873	-76.607	-71.979	36.085	-75.358	-8191	255	
2132.273	1	1	0	0	0.14881	0.086121	0.11544	0.19921	0.11688	0.15684	0.080329	0.3352	0.13073	0.19626	0.25642	0.16674	0.021441	0.39231	0.11193	0.093947	-3.1854	-2.7062	-3.1437	-3.3667	-2.7167	-3.2938	-3.0417	-2.7833	-3.4479	-2.7333	-3.2729	-3.3646	-2.7292	-3.3792	-3.0542	-2.7521	69.138	139.324	48.038	234.566	100.329	75.642	151.924	193.143	162.438	9.961	-88.846	-50.676	-42.322	219.468	192.325	147.494	0.00037067	0.00043434	0.00020146	767.73	4.8256e-06	4.5746e-06	839.46	321.94	3.7284e-06	6.9289e-06	389.24	183.18	154.51	77.435	7.0166e-06	96.177	0.00032237	0.00028042	7.9359e-05	768.48	3.1175e-06	3.018e-06	842.26	325.59	3.1507e-06	3.1127e-06	392	185.79	157.24	78.954	3.2749e-06	96.884	232.747	1.141	4.875	-86.145	62.303	39.708	-87.424	-80.862	64.270	27.562	-83.050	-78.895	-76.719	-71.862	70.252	-75.284	-8191	255	
2132.369	1	1	0	0	0.1972	0.22753	0.14176	0.15486	0.047275	0.18118	0.10857	0.064878	0.24942	0.080741	0.21111	0.16921	0.24485	0.23224	0.13755	0.14421	-3.1792	-2.6354	-3.2062	-3.4042	-2.7292	-3.3521	-3.1417	-2.9458	-3.3104	-2.9271	-2.9479	-3.4354	-2.6562	-3.3479	-3.1042	-3.0187	-75.997	40.745	185.694	121.766	42.180	-11.475	185.194	161.405	249.588	90.932	-97.979	-62.380	180.581	192.543	-56.957	137.625	0.00035725	0.00074365	0.00011596	761.3	3.4766e-06	7.0172e-06	834.28	320.76	2.5303e-06	5.4219e-06	389.42	182.43	154.16	77.773	4.8197e-06	95.44	0.00033016	0.00028696	8.1464e-05	763.68	3.1926e-06	3.0717e-06	836.03	324.61	3.1899e-06	3.1264e-06	390.4	185.2	156.71	78.891	3.2327e-06	96.211	234.229	-10.632	-18.348	-85.872	66.121	57.402	-87.528	-80.650	46.902	54.125	-83.031	-79.093	-76.465	-71.955	84.675	-75.221	-8191	255	
2132.465	1	1	0	0	0.052233	0.20312	0.12048	0.18431	0.13615	0.072719	0.03404	0.27686	0.28515	0.29823	0.14414	0.23817	0.021448	0.25815	0.21397	0.13809	-3.0042	-2.9	-3.0042	-3.4417	-2.6042	-3.2708	-3.0854	-2.5667	-3.2812	-3.0646	-2.975	-3.4146	-2.9062	-3.2708	-3.1667	-2.9437	124.665	-16.477	113.173	229.799	231.198	12.724	137.158	173.937	178.030	-33.411	80.961	168.149	231.053	257.117	81.779	202.605	0.00034586	0.00044939	0.00015316	752.39	3.6743e-06	8.0749e-06	827.1	319.13	3.2193e-06	7.4417e-06	388.1	181.4	153.41	77.133	4.9075e-06	94.383	0.00033308	0.00028879	8.1613e-05	755.86	3.1795e-06	3.1252e-06	829.08	323.56	3.1961e-06	3.1733e-06	389.17	184.14	156.27	78.353	3.2757e-06	95.241	233.626	-25.351	10.117	-86.535	52.107	76.187	-87.527	-80.742	60.991	38.586	-83.193	-78.898	-76.529	-71.693	55.304	-75.251	-8191	255	
2132.562	1	1	0	0	0.31853	0.16723	0.094112	0.05982	0.12291	0.10094	0.17688	0.062984	0.10629	0.053116	0.14108	0.22136	0.15672	0.18182	0.17637	0.43983	-3.0604	-2.8583	-2.8812	-3.4667	-2.6063	-2.9479	-3.2604	-2.8438	-3.4646	-3.2062	-2.7396	-3.5812	-2.875	-3.2438	-3.3021	-2.7979	138.039	17.688	-18.812	196.529	94.602	35.896	142.130	-51.830	212.612	-68.808	191.255	129.533	226.335	232.624	104.389	219.997	0.00035522	0.00049248	0.00020486	754.56	1.5804e-06	8.7184e-06	826.93	319.06	1.0297e-06	8.4954e-06	385.63	181.32	154.02	77.229	1.9388e-06	94.941	0.00032917	0.00028984	8.2521e-05	754.71	3.0929e-06	3.1167e-06	827.82	322.47	3.1444e-06	3.0772e-06	387.85	183.63	156.24	78.545	3.1566e-06	95.691	227.197	14.551	12.335	-86.083	35.155	41.988	-87.452	-80.553	68.825	28.082	-83.169	-78.878	-76.602	-72.307	53.056	-75.291	-8191	255	
2132.680	1	1	0	0	0.093257	0.18446	0.31691	0.10312	0.080976	0.1253	0.16069	0.11557	0.27929	0.041724	0.14813	0.23088	0.22132	0.50748	0.1145	0.16895	-3.1063	-3.0958	-2.8979	-3.6	-2.8979	-2.9792	-3.4896	-2.8479	-3.1896	-3.4083	-2.8854	-3.5812	-2.9021	-3.225	-3.5146	-2.775	175.023	74.800	258.432	223.263	247.283	257.921	-72.865	164.288	-15.255	216.996	16.851	215.094	194.447	257.560	-65.149	212.182	0.00034303	0.00040045	0.00024346	754.81	3.8348e-06	8.5591e-06	828.48	317.52	2.3804e-06	4.4273e-06	385.74	179.68	152.68	76.583	4.6531e-06	94.072	0.00032403	0.0002765	8.092e-05	757.96	3.1588e-06	3.1182e-06	829.76	321.55	3.1808e-06	3.0919e-06	385.01	182.34	155.14	77.998	3.2304e-06	94.805	225.557	-16.395	-11.573	-86.044	67.399	69.490	-87.434	-80.600	20.251	38.417	-83.148	-79.171	-76.322	-71.830	67.824	-75.104	-8191	255	
2132.777	1	1	0	0	0.19757	0.1781	0.11416	0.33755	0.094345	0.083054	0.39006	0.17612	0.33405	0.26651	0.11385	0.26359	0.22536	0.22423	0.14848	0.26643	-3.0125	-3.1917	-2.7729	-3.65	-3.0042	-2.9625	-3.6667	-2.9042	-3.3604	-3.3042	-3.0625	-3.5208	-3.3292	-3.1146	-3.6479	-2.8979	258.283	222.727	198.137	205.066	-58.393	49.827	217.270	202.999	204.869	139.023	67.564	-90.651	166.423	195.320	257.636	221.318	0.00034217	0.00068249	0.00017605	750.69	5.4595e-06	3.9888e-06	823.89	318.15	2.9864e-06	4.2954e-06	382.99	180.76	152.95	76.475	3.7266e-06	94.049	0.00032489	0.00028349	7.8646e-05	754.9	3.1008e-06	3.1663e-06	828.51	321.06	3.134e-06	3.0499e-06	384.84	183.48	155.32	77.699	3.1041e-06	94.664	232.665	-1.575	9.458	-86.282	46.723	91.722	-87.408	-80.666	72.915	69.065	-83.140	-79.200	-76.580	-72.056	57.666	-75.148	-8191	255	
2132.873	1	1	0	0	0.13261	0.090045	0.13692	0.1038	0.029364	0.25637	0.31428	0.30138	0.13549	0.083418	0.19168	0.18301	0.10699	0.13347	0.15679	0.18366	-2.5542	-3.3417	-2.6437	-3.5563	-3.1458	-2.85	-3.7417	-2.8146	-3.2687	-3.3771	-2.8646	-3.5292	-3.3771	-2.9229	-3.4958	-3.1521	215.537	-56.124	48.533	256.164	-65.108	-57.618	129.117	191.815	-54.652	-69.937	211.115	205.449	176.458	237.508	16.390	238.113	0.00034745	0.00036955	0.00010762	757.37	4.8886e-06	6.3955e-06	825.84	315.62	3.8036e-07	4.4127e-06	383.04	179.26	152.46	75.624	5.3426e-06	92.572	0.00032119	0.00027502	7.9909e-05	757.38	3.0665e-06	3.0516e-06	828.9	319.78	3.1193e-06	2.9731e-06	383.43	182.25	154.74	76.94	3.0706e-06	93.181	236.911	-8.265	-8.011	-86.379	41.173	55.947	-87.386	-80.719	123.669	62.346	-83.095	-79.133	-76.639	-72.106	65.258	-75.330	-8191	255	
2132.969	1	1	0	0	0.11324	0.18002	0.28048	0.24932	0.1697	0.085095	0.26041	0.17443	0.21015	0.25385	0.23076	0.08109	0.11567	0.18017	0.10371	0.085549	-2.7625	-3.2438	-2.7292	-3.4354	-3.1271	-2.8146	-3.5458	-3.0354	-2.9021	-3.4083	-2.9104	-3.4833	-3.4208	-3.0271	-3.5479	-3.2042	186.825	245.186	151.187	-70.324	205.602	-22.169	170.604	-22.977	255.616	195.156	216.037	-92.840	196.055	222.088	80.387	253.497	0.00032485	0.00040234	0.00013202	755.08	2.6225e-06	7.0713e-06	825.55	315.09	3.5775e-06	6.3862e-06	381.91	178.15	150.99	75.163	2.242e-06	92.03	0.00031782	0.0002724	7.4987e-05	756.68	2.9249e-06	3.0044e-06	827.17	318.46	3.0038e-06	2.9303e-06	381.6	180.49	153.36	76.326	2.9765e-06	92.774	228.250	-1.528	5.017	-86.238	58.822	47.618	-87.297	-80.427	59.556	38.289	-82.903	-79.060	-76.592	-71.981	62.342	-75.326	-8191	255	
2133.065	1	1	0	0	0.30312	0.05155	0.13885	0.10665	0.38489	0.037631	0.078054	0.078542	0.13313	0.095848	0.11681	0.37695	0.27768	0.10737	0.17077	0.21089	-2.5438	-3.4042	-2.8458	-3.3563	-3.3417	-2.5958	-3.6792	-3.2667	-2.7625	-3.425	-3.0479	-3.5187	-3.4625	-2.9062	-3.5208	-3.2917	100.995	-81.688	35.844	-21.340	-92.386	-51.276	-58.935	240.755	147.207	114.775	68.185	239.207	224.893	-19.287	110.030	165.909	0.00034521	0.00033991	0.00015362	756.67	2.8163e-06	6.3605e-06	829.15	315.12	2.406e-06	4.4008e-06	381.42	176.73	150.12	75.188	2.6694e-06	92.704	0.00030508	0.00025698	7.3068e-05	758.17	2.8703e-06	2.8954e-06	830.6	318.13	2.947e-06	2.851e-06	381.89	179.68	152.65	76.396	2.9542e-06	93.298	230.044	-30.366	-13.188	-86.217	21.779	45.557	-87.231	-80.423	25.250	67.628	-82.764	-79.353	-76.194	-72.082	59.237	-75.016	-8191	255	
2133.161	1	1	0	0	0.22945	0.085209	0.20897	0.1601	0.1621	0.060943	0.13365	0.23235	0.091783	0.22424	0.28506	0.10922	0.24147	0.42057	0.42269	0.15572	-2.3042	-3.5625	-2.8937	-3.2625	-3.3833	-2.6937	-3.5833	-3.2271	-2.8083	-3.4771	-2.9146	-3.1271	-3.5333	-2.8563	-3.3688	-3.3563	94.082	78.014	-21.996	210.803	-79.667	-83.802	-76.539	138.677	77.641	164.349	241.035	59.675	248.158	188.861	89.243	189.050	0.00033404	0.00056411	0.00011168	760.2	4.0055e-06	4.718e-06	832.39	316.69	2.5712e-06	3.8888e-06	383.06	180.58	152.14	76.402	4.0551e-06	94.313	0.00030871	0.00026353	7.4583e-05	760.78	2.8421e-06	2.8539e-06	834.08	320.21	2.9391e-06	2.843e-06	384.73	182.4	154.7	77.73	3.0101e-06	94.904	229.383	0.641	-17.111	-86.429	24.170	57.708	-87.685	-80.680	39.030	65.340	-83.066	-79.250	-76.489	-72.066	38.730	-75.248	-8191	255	
2133.282	1	1	0	0	0.090028	0.12047	0.25017	0.26441	0.16571	0.11417	0.066028	0.3016	0.058987	0.16158	0.17005	0.20274	0.13736	0.26901	0.3035	0.12587	-2.3896	-3.575	-2.8833	-3.025	-3.4854	-2.8625	-3.3583	-3.4083	-2.8271	-3.5563	-3.1396	-3.0896	-3.7083	-2.9771	-3.1042	-3.4125	-47.681	32.160	126.149	-87.736	217.655	251.162	-95.565	166.931	202.078	103.788	237.706	-37.623	148.567	126.912	153.901	221.819	0.00031029	0.00057047	0.00015386	758.98	4.9392e-06	8.0541e-06	830.67	319.33	3.0747e-06	4.4739e-06	388.27	180.89	153.04	76.977	4.2614e-06	94.844	0.00030713	0.0002613	7.2924e-05	762.17	2.929e-06	2.875e-06	835.95	322.01	3.0003e-06	2.812e-06	388.46	184.04	155.48	78.134	2.9601e-06	95.561	231.435	-12.087	-8.796	-86.434	61.637	41.795	-87.416	-80.743	25.120	43.763	-82.942	-79.103	-76.326	-71.676	17.379	-74.957	-8191	255	
2133.376	1	1	0	0	0.30567	0.11911	0.22097	0.35607	0.26733	0.11457	0.11676	0.11003	0.20397	0.075234	0.24933	0.11592	0.29437	0.10158	0.081117	0.22501	-2.5479	-3.4813	-2.9458	-2.9604	-3.5104	-2.9313	-3.2458	-3.3646	-2.8021	-3.5229	-3.1396	-3.1021	-3.5958	-2.9646	-3.1708	-3.4396	-27.995	10.391	252.715	249.326	-91.880	217.425	31.671	30.259	91.336	37.703	232.345	242.084	258.693	-58.514	213.205	159.431	0.00034545	0.00045646	0.00017571	758.16	3.2467e-06	4.5999e-06	834.71	318.06	2.6285e-06	5.9231e-06	387.2	181.87	153.28	77.061	3.0462e-06	95.046	0.00030756	0.0002582	7.2938e-05	760.71	2.8763e-06	2.864e-06	836.97	322.61	2.9181e-06	2.904e-06	388.55	184.25	155.8	78.505	2.9808e-06	95.848	230.867	4.821	-0.844	-86.231	91.671	47.193	-87.307	-80.948	21.961	74.150	-83.003	-79.214	-76.586	-71.902	40.126	-75.199	-8191	255	
2133.472	1	1	0	0	0.1625	0.21442	0.19279	0.31607	0.28009	0.25752	0.20875	0.2203	0.028513	0.15711	0.36559	0.15016	0.2223	0.21292	0.16751	0.13136	-2.4979	-3.4771	-3.1333	-2.7188	-3.5021	-2.9313	-3.1875	-3.6021	-2.7042	-3.3375	-3.425	-2.8104	-3.5708	-2.9667	-3.0375	-3.675	119.584	187.627	150.762	213.582	232.696	176.794	230.441	242.886	-16.388	214.117	189.338	219.820	221.350	222.855	250.985	-74.971	0.0003376	0.00055931	0.00013358	759.26	3.3861e-06	3.7639e-06	835.19	321.09	3.4446e-06	8.2977e-06	389.24	182.16	154.14	77.507	4.2084e-06	94.812	0.00031119	0.00025966	7.2821e-05	762.11	2.8567e-06	2.8776e-06	838.87	323.82	2.9124e-06	2.9224e-06	389.7	184.24	156.54	78.642	3.0238e-06	95.738	235.401	-11.898	-1.521	-86.342	48.239	53.364	-87.484	-80.498	40.923	71.162	-83.180	-79.331	-76.792	-71.906	59.186	-75.341	-8191	255	
2133.546	1	1	0	0	0.20331	0.077005	0.12811	0.20484	0.19411	0.07816	0.26585	0.057341	0.16771	0.17301	0.14488	0.18535	0.2158	0.30777	0.17157	0.1517	-2.3604	-3.0708	-3.2979	-2.7667	-3.5771	-2.9979	-3.2167	-3.5625	-2.5542	-3.3375	-3.4292	-2.9	-3.4688	-3.3583	-2.7812	-3.6875	-79.426	-66.910	-77.497	188.794	91.392	245.999	145.812	246.422	82.579	199.484	-92.507	246.169	162.558	242.524	42.232	126.069	0.00035079	0.00066573	0.00013967	756.21	6.7918e-06	5.4863e-06	832.08	318.97	3.807e-06	8.8614e-06	386.06	180.94	154.46	76.949	3.4054e-06	94.667	0.00031515	0.0002664	7.3695e-05	760.54	2.8666e-06	2.8546e-06	835.5	323.37	2.9346e-06	2.8756e-06	387.99	183.92	156.25	78.294	2.9657e-06	95.536	233.213	-24.955	-10.695	-86.391	53.356	61.440	-87.341	-80.567	23.692	53.977	-82.970	-79.113	-76.448	-71.556	76.809	-75.070	-8191	255	
2133.665	1	1	0	0	0.069148	0.23391	0.20719	0.011374	0.11053	0.2546	0.23379	0.098907	0.12696	0.11102	0.10897	0.22782	0.19838	0.29822	0.25019	0.21242	-2.3958	-3.1188	-3.3792	-2.8958	-3.5354	-3.1917	-2.9813	-3.6	-2.8521	-3.0396	-3.5146	-2.9771	-3.5667	-3.3187	-2.8354	-3.7958	242.770	91.263	212.500	153.399	17.508	164.830	216.216	109.538	85.672	234.050	166.255	244.853	-74.436	199.311	130.921	147.676	0.00035304	0.00053277	0.00024049	760.09	3.8078e-06	6.1362e-06	837.73	319.71	2.9278e-06	7.013e-06	387.87	182.1	153.82	76.93	9.7437e-07	95.49	0.00030843	0.00026346	7.2931e-05	762.49	2.8733e-06	2.826e-06	838.35	323.64	2.9162e-06	2.93e-06	389.09	184.63	156.24	78.395	3.0752e-06	96.1	233.830	-6.054	1.867	-85.983	64.758	69.559	-87.105	-80.509	53.290	33.299	-83.426	-79.623	-76.538	-72.127	104.348	-75.379	-8191	255	
2133.761	1	1	0	0	0.14367	0.076902	0.15674	0.19577	0.26832	0.1606	0.11784	0.2398	0.15505	0.33211	0.40154	0.22696	0.098937	0.24963	0.24975	0.28196	-2.4458	-3.0458	-3.5354	-3.0292	-3.3354	-3.2708	-3.0042	-3.7438	-2.9542	-2.9688	-3.4271	-2.6583	-3.3312	-3.5208	-2.6917	-3.5833	208.946	122.796	167.014	140.992	122.849	66.519	171.697	139.184	147.485	258.459	233.702	223.181	-70.955	-95.160	145.030	222.246	0.0003315	0.00062269	0.00020029	759.43	3.2059e-06	4.4053e-06	836.27	320.59	4.2403e-06	7.6957e-06	389.81	181.91	153.96	77.285	3.5948e-06	95.434	0.00030982	0.0002649	7.3445e-05	762.89	2.9533e-06	2.8795e-06	838.81	323.83	2.8953e-06	2.8796e-06	389.59	184.53	156.15	78.634	2.9911e-06	96.068	232.558	-12.515	-2.354	-86.543	67.173	15.155	-87.544	-80.834	19.863	26.837	-83.321	-79.620	-76.722	-72.324	36.682	-75.274	-8191	255	
2133.857	1	1	0	0	0.092764	0.08986	0.16593	0.24769	0.092291	0.16299	0.31208	0.2179	0.22589	0.16459	0.097351	0.30347	0.21935	0.29262	0.14721	0.29411	-2.5583	-2.9125	-3.4062	-2.9	-3.2687	-3.5146	-3.0479	-3.6	-3.1146	-2.8667	-3.5854	-3.175	-3.2583	-3.5875	-2.8208	-3.65	53.154	-92.829	199.437	219.512	33.604	-78.632	178.749	228.326	222.247	-88.903	164.410	249.581	197.410	249.177	241.090	188.560	0.00036252	0.00053082	0.00010275	760.37	4.1807e-06	6.309e-06	836.22	319.4	2.2166e-06	4.4373e-06	385.36	180.61	153.11	76.817	3.4322e-06	94.648	0.00031129	0.00026746	7.2659e-05	761.84	2.91e-06	2.876e-06	836.28	323.13	2.8771e-06	2.927e-06	387.77	183.08	155.42	78.127	2.9605e-06	95.292	235.738	-0.482	5.642	-86.663	64.041	41.525	-87.431	-80.944	53.752	27.319	-83.092	-79.439	-76.592	-71.975	42.502	-75.460	-8191	255	
2133.953	1	1	0	0	0.086878	0.05708	0.099101	0.28166	0.11253	0.35301	0.27597	0.16	0.22465	0.05875	0.094083	0.21573	0.10251	0.27783	0.14139	0.44312	-2.7	-2.8083	-3.4521	-2.9	-3.1104	-3.6417	-2.8458	-3.4917	-3.1042	-2.8833	-3.6688	-2.9896	-3.2354	-3.5604	-2.8521	-3.5042	100.763	-83.433	111.307	209.506	-73.752	241.560	207.943	203.344	-80.243	84.796	161.771	197.552	-49.698	260.588	34.452	206.300	0.00037473	0.00074284	0.00019546	764.88	4.7551e-06	5.7702e-06	835.95	318.03	2.5825e-06	4.1335e-06	386.14	180.01	152.49	76.445	3.7737e-06	94.138	0.00030742	0.00026597	7.2123e-05	764.41	2.9126e-06	2.8229e-06	837.03	322.21	2.9315e-06	2.8619e-06	386.57	182.03	154.78	77.676	3.0066e-06	94.705	229.735	3.583	-0.406	-86.450	16.020	25.087	-87.621	-80.809	59.335	69.276	-82.999	-79.544	-76.948	-72.228	49.811	-75.503	-8191	255	
2134.074	1	1	0	0	0.039683	0.056144	0.21725	0.07794	0.13824	0.15779	0.14994	0.09569	0.13442	0.22126	0.19876	0.35614	0.38776	0.38561	0.15819	0.21625	-2.7938	-2.6312	-3.6271	-2.9146	-2.9188	-3.4021	-2.6708	-3.4188	-3.3208	-2.6979	-3.6146	-2.975	-2.975	-3.5542	-2.7625	-3.2062	-55.931	117.284	-74.637	259.192	72.332	156.253	225.859	-96.902	-12.693	246.102	165.608	-36.325	228.414	232.456	215.155	-88.013	0.0003375	0.00053926	0.00017766	764.38	3.697e-06	5.7892e-06	832.67	318.91	2.8111e-06	8.274e-06	384.41	179.09	151.95	76.258	2.7481e-06	94.163	0.00030335	0.00026668	7.2628e-05	764.48	2.8865e-06	2.8135e-06	836.7	321.95	2.8423e-06	2.8968e-06	385.83	181.87	154.53	77.535	2.9551e-06	94.778	231.548	-15.640	-10.833	-86.351	91.026	60.644	-87.620	-80.989	48.936	55.979	-82.910	-79.306	-76.755	-72.026	40.500	-75.277	-8191	255	
2134.145	1	1	0	0	0.078753	0.11635	0.12887	0.23961	0.15802	0.15001	0.21051	0.13839	0.2048	0.13536	0.25462	0.32134	0.38851	0.066392	0.10301	0.2719	-2.8771	-2.6521	-3.5125	-3.2021	-2.8771	-3.5333	-3.0458	-3.3708	-3.3375	-2.7917	-3.6167	-3.2125	-3.0625	-3.6208	-2.9417	-3.2771	244.650	32.363	-27.151	139.164	-88.154	63.145	195.407	136.968	14.584	47.235	-64.016	196.643	229.463	199.533	-13.738	186.357	0.00032287	0.00055996	0.00016516	766.32	5.7966e-06	7.1971e-06	838.85	318.89	2.3331e-06	4.6688e-06	384.7	179.66	151.91	76.495	5.8341e-06	94.472	0.00030173	0.00027042	7.2459e-05	767.14	2.9609e-06	2.8963e-06	839.37	322.2	2.8614e-06	2.8523e-06	385.98	181.93	154.69	77.821	2.942e-06	95.134	236.898	4.051	-20.432	-86.383	73.415	78.942	-87.572	-80.901	6.117	30.970	-83.063	-79.593	-76.886	-72.185	69.347	-75.301	-8191	255	
2134.242	1	1	0	0	0.20901	0.1778	0.046326	0.094977	0.12764	0.32681	0.2066	0.25265	0.11611	0.20509	0.18394	0.23293	0.21168	0.21102	0.08903	0.34875	-3.1375	-2.6417	-3.3333	-3.3875	-2.8312	-3.575	-2.8104	-3.0583	-3.55	-2.85	-3.5625	-3.1771	-3.0438	-3.8	-3.0646	-3.1875	-22.257	39.273	128.490	222.511	151.772	-16.978	130.327	-74.479	160.560	198.779	-96.443	215.420	164.206	-95.516	249.668	131.376	0.0003399	0.00053019	0.00012422	765.73	6.5149e-06	3.2568e-06	834.43	318.69	2.0866e-06	5.6436e-06	385.55	179.07	152.14	76.26	5.9681e-06	93.735	0.00029894	0.00026187	7.2938e-05	766.31	2.9227e-06	2.7945e-06	839.52	322.09	2.8279e-06	2.8714e-06	386.17	181.61	154.27	77.544	2.9816e-06	94.334	234.691	12.164	7.186	-86.458	63.692	55.156	-87.353	-80.776	55.021	24.534	-83.125	-79.189	-76.673	-72.004	53.818	-75.179	-8191	255	
2134.362	1	1	0	0	0.073764	0.20166	0.12688	0.17563	0.099491	0.078706	0.23273	0.084124	0.034109	0.1459	0.29447	0.17511	0.10614	0.29985	0.6402	0.22512	-3.0438	-2.65	-3.2729	-3.3604	-2.8271	-3.6479	-3.1271	-3.125	-3.5292	-2.7708	-3.4042	-3.35	-2.9083	-3.6063	-3.0438	-2.8917	17.826	223.331	204.372	86.475	190.791	107.354	197.684	-35.065	-21.257	-44.910	226.344	206.617	25.531	252.396	74.825	222.159	0.00036808	0.00045957	0.00014865	764.32	5.3653e-06	6.27e-06	830.85	316.75	3.3713e-06	5.0553e-06	383.74	178.64	152.09	76.08	2.6648e-06	92.826	0.00029981	0.00026331	7.3575e-05	763.46	2.9224e-06	2.8444e-06	834.2	320.56	2.8533e-06	2.8704e-06	383.95	180.69	154.16	77.259	2.9215e-06	93.708	235.207	16.192	6.875	-86.179	80.940	72.347	-87.424	-80.748	59.689	46.124	-83.011	-79.164	-76.716	-71.787	65.873	-75.313	-8191	255	
2134.458	1	1	0	0	0.18025	0.14065	0.22119	0.18421	0.15682	0.13742	0.21039	0.23302	0.10829	0.10025	0.19463	0.084355	0.12024	0.040829	0.30174	0.21905	-3.0479	-2.8583	-3.1708	-3.5271	-2.6688	-3.3854	-3.2917	-2.9667	-3.5292	-3.0521	-3.2	-3.4396	-2.975	-3.5812	-3.0187	-2.8021	202.049	183.024	197.986	229.987	135.140	227.665	144.057	-90.029	132.393	13.056	-83.829	3.418	188.972	-75.648	85.294	197.930	0.00033544	0.00068269	0.00022894	761.6	5.8218e-06	5.6786e-06	831.09	317.01	2.8639e-06	5.6552e-06	381.6	177.77	151.06	75.509	3.8592e-06	92.866	0.00030219	0.00026086	7.3519e-05	763.09	2.899e-06	2.848e-06	833.66	320.06	2.8711e-06	2.839e-06	382.79	180.14	153.27	76.884	2.9046e-06	93.534	236.499	-8.920	-8.339	-86.376	46.203	45.891	-87.239	-80.845	26.442	22.876	-82.896	-79.140	-76.512	-71.765	70.856	-74.877	-8191	255	
2134.554	1	1	0	0	0.044353	0.25432	0.10904	0.14145	0.10994	0.26419	0.16261	0.082299	0.14302	0.19706	0.054882	0.20425	0.13676	0.14636	0.069385	0.21551	-3.3375	-2.9375	-3.0167	-3.7	-2.7812	-3.4479	-3.1604	-2.7917	-3.5625	-2.7958	-3.1229	-3.5354	-2.9583	-3.5667	-3.3792	-3.0375	88.237	248.126	-60.054	216.161	142.148	95.277	172.261	244.884	148.874	205.101	-10.092	240.161	229.044	177.246	-19.992	-70.481	0.0003382	0.0006855	0.00017314	762.71	3.6247e-06	6.5984e-06	832.03	317.82	6.838e-07	3.7236e-06	384.01	178.28	152.01	76.276	5.2193e-06	93.694	0.00030849	0.00026223	7.2486e-05	763.67	2.8822e-06	2.8039e-06	833.31	320.46	2.8739e-06	2.8807e-06	383.91	180.87	154.06	77.452	2.9175e-06	94.474	228.231	-9.087	7.044	-85.951	84.103	34.115	-87.248	-80.411	34.143	83.336	-82.977	-79.185	-76.506	-71.817	40.638	-75.005	-8191	255	
2134.673	1	1	0	0	0.1002	0.030192	0.10867	0.063478	0.30402	0.024537	0.26895	0.37077	0.096342	0.053989	0.2372	0.12307	0.29567	0.28457	0.13722	0.072467	-3.025	-2.9375	-3.1625	-3.4458	-2.6813	-3.3083	-3.4708	-2.9708	-3.5458	-3.0604	-3.075	-3.7396	-2.9958	-3.3417	-3.3521	-2.8521	-4.554	-57.234	197.539	127.786	-20.393	25.833	227.127	211.784	-26.084	41.298	-75.408	-96.089	224.417	240.823	11.359	160.700	0.00033972	0.0006941	0.00017517	760.82	4.9917e-06	5.4738e-06	835.36	318.6	2.636e-06	6.0049e-06	385.09	178.69	152.07	76.407	5.4405e-06	93.731	0.00029868	0.00025803	7.3457e-05	762.31	2.9419e-06	2.8459e-06	836.28	321.08	2.863e-06	2.8224e-06	385.04	181.85	154.33	77.67	2.9145e-06	94.568	231.410	-10.072	-1.918	-86.195	60.288	48.574	-87.164	-80.526	65.905	49.760	-83.095	-78.820	-76.515	-71.700	49.922	-75.012	-8191	255	
2134.769	1	1	0	0	0.2645	0.089454	0.13714	0.36846	0.042717	0.13472	0.22901	0.37226	0.056727	0.19734	0.0042354	0.085497	0.11484	0.25478	0.17625	0.34089	-2.9667	-2.975	-2.9417	-3.7188	-2.7792	-2.9271	-3.6083	-2.8	-3.4062	-3.2771	-3.0187	-3.6667	-3.1229	-2.9875	-3.4813	-2.8937	-2.870	-45.313	107.569	234.051	224.176	132.573	154.286	205.349	182.498	-36.844	-36.194	174.531	-93.837	-72.663	-73.058	194.652	0.00032149	0.00060036	0.00013047	760.81	4.6849e-06	3.6306e-06	831.36	318.3	2.4185e-06	3.4331e-06	382.72	178.38	151.59	76.037	1.8143e-06	92.888	0.00030326	0.00026132	7.3345e-05	761.41	2.9036e-06	2.8446e-06	833.79	321.05	2.8559e-06	2.8003e-06	384.11	181.15	153.95	77.384	2.9471e-06	93.744	232.947	-3.192	2.211	-86.346	50.348	29.097	-87.120	-80.551	19.589	22.641	-82.998	-78.876	-76.327	-71.596	87.597	-74.959	-8191	255	
2134.841	1	1	0	0	0.13065	0.23456	0.094389	0.044424	0.12715	0.26086	0.17802	0.12341	0.035641	0.16002	0.26802	0.047805	0.11129	0.14202	0.23315	0.064802	-3.2354	-3.0875	-2.5958	-3.4813	-2.9688	-3.0771	-3.7	-2.9104	-3.4583	-3.2333	-2.8292	-3.6667	-3.0542	-3.1437	-3.4917	-2.9729	-33.147	225.556	210.625	24.561	18.336	-29.652	192.235	182.674	131.322	-4.630	150.657	-62.426	259.958	160.215	150.920	16.335	0.00033946	0.00076339	0.00016951	758.37	3.9787e-06	6.52e-06	832	317.45	2.5547e-06	5.2123e-06	381.49	177.84	152.19	76.06	5.1381e-06	93.328	0.00030355	0.00026578	7.3976e-05	760.2	2.8425e-06	2.8732e-06	833.56	320.29	2.912e-06	2.8357e-06	382.61	180.39	153.96	77.334	2.9209e-06	93.71	234.711	-0.228	-8.166	-86.201	64.560	37.090	-87.266	-80.455	59.194	51.288	-82.864	-79.158	-76.468	-71.657	44.190	-74.800	-8191	255	
2134.937	1	1	0	0	0.10683	0.062828	0.24286	0.17978	0.1493	0.24097	0.10001	0.22243	0.073534	0.25623	0.17088	0.071345	0.23664	0.15713	0.061531	0.26015	-2.9458	-3.125	-2.8021	-3.6729	-3.2771	-2.9604	-3.6437	-2.9479	-3.2042	-3.4	-2.8958	-3.5333	-3.2438	-3.0458	-3.6104	-3.0625	78.504	79.624	-61.861	186.452	179.538	41.299	174.472	212.504	-86.642	101.956	111.076	-10.985	214.554	223.941	52.898	204.168	0.00034327	0.00035852	0.00018597	760.38	4.5372e-06	5.2667e-06	833.39	317.93	3.0972e-06	4.0088e-06	381.42	177.51	151.21	75.797	4.0651e-06	92.782	0.00030489	0.00025431	7.5386e-05	761.33	2.8776e-06	2.8395e-06	833.31	320.74	2.926e-06	2.8076e-06	382.25	180.09	153.59	77.029	2.9513e-06	93.6	233.080	-18.733	-22.515	-86.068	69.119	63.346	-87.124	-80.459	57.136	38.916	-83.109	-78.928	-76.302	-71.842	38.707	-75.114	-8191	255	
2135.058	1	1	0	0	0.16785	0.096445	0.2108	0.28251	0.070885	0.09501	0.040184	0.32461	0.37718	0.06586	0.12909	0.19203	0.087609	0.12204	0.28083	0.15626	-2.8104	-3.5146	-2.6688	-3.5083	-3.0583	-2.9958	-3.4375	-2.8812	-3.0563	-3.6	-2.6813	-3.4167	-3.3875	-3.0375	-3.5396	-3.0417	41.026	221.611	83.928	230.574	134.586	93.139	-68.999	224.116	93.193	84.976	223.264	204.788	185.442	245.946	-51.412	181.124	0.00036865	0.00052573	0.00013269	762.97	5.6148e-06	7.0878e-06	833.21	317.09	2.7835e-06	4.5479e-06	381.44	177.21	150.97	75.215	4.989e-06	92.873	0.00030709	0.00025973	7.3629e-05	764.37	2.8573e-06	2.8137e-06	835.87	320.43	2.9287e-06	2.8384e-06	382.26	179.46	152.97	76.611	2.9902e-06	93.187	234.236	-18.496	-3.525	-86.678	53.411	70.769	-87.751	-80.907	32.070	47.339	-83.279	-79.203	-76.569	-72.077	71.859	-75.111	-8191	255	
2135.154	1	1	0	0	0.15347	0.19779	0.16735	0.11561	0.10587	0.20422	0.080668	0.10317	0.19187	0.13031	0.16421	0.33224	0.24868	0.20569	0.13027	0.24208	-2.6688	-3.3354	-2.8271	-3.1833	-3.2854	-2.7062	-3.5708	-3.2021	-2.9813	-3.5625	-2.7917	-3.2417	-3.5125	-2.7979	-3.6042	-3.2417	38.524	-29.078	235.044	-81.235	233.221	-74.955	106.508	142.966	229.896	160.539	215.249	241.469	207.963	-89.551	160.405	246.089	0.00031363	0.00068642	0.00016492	763.02	3.8369e-06	7.735e-06	837.39	315.83	1.9646e-06	4.0442e-06	381.52	176.06	150.48	75.207	3.0431e-06	92.257	0.00030487	0.00025964	7.3905e-05	764.49	2.847e-06	2.8497e-06	837.51	319.5	2.8978e-06	2.8296e-06	380.92	178.67	152.3	76.531	2.9374e-06	92.931	229.214	-9.214	-12.085	-86.234	97.014	54.633	-87.304	-80.594	75.700	69.755	-83.051	-78.862	-76.631	-71.990	47.897	-74.989	-8191	255	
2135.250	1	1	0	0	0.22158	0.17053	0.35829	0.30685	0.054605	0.11482	0.1994	0.19324	0.25207	0.15517	0.12424	0.0055224	0.087691	0.41763	0.16482	0.22303	-2.5771	-3.3812	-2.8396	-3.3583	-3.3458	-2.8	-3.6667	-3.1146	-2.8854	-3.6083	-2.8979	-3.2771	-3.4875	-2.8333	-3.4062	-3.3104	80.375	195.985	111.291	-98.166	-43.325	68.559	218.478	-79.796	206.788	-29.745	198.423	123.775	-73.522	241.623	25.262	208.501	0.00036567	0.00064638	0.00015749	767.02	4.0553e-06	3.3812e-06	831.96	316.58	3.4176e-06	4.9103e-06	378.12	176.14	150.38	75.175	2.7498e-06	91.614	0.0003078	0.00026359	7.2647e-05	764.86	2.8237e-06	2.8903e-06	832.03	319.41	2.8975e-06	2.8112e-06	378.83	178.16	152.25	76.451	2.9411e-06	92.246	228.550	-18.640	-10.988	-86.184	54.024	73.180	-87.591	-80.798	51.938	50.482	-83.198	-79.397	-76.586	-72.150	67.290	-75.252	-8191	255	
2135.346	1	1	0	0	0.20624	0.21158	0.077758	0.23547	0.14012	0.185	0.15298	0.16361	0.17633	0.16246	0.040638	0.26196	0.1257	0.19698	0.035488	0.14435	-2.5563	-3.5938	-2.7583	-3.1042	-3.2646	-2.6625	-3.4375	-3.2375	-2.8042	-3.5	-3.0646	-3.2438	-3.4646	-2.925	-3.2625	-3.3083	247.514	159.961	158.538	245.280	153.777	18.941	136.258	204.189	170.015	-42.040	87.479	154.110	-91.798	228.606	19.028	48.175	0.00034256	0.00073027	0.00012181	757.24	3.6504e-06	5.9017e-06	825.64	313.43	1.7996e-06	6.7636e-06	374.12	173.28	147.93	73.954	3.7477e-06	89.858	0.00030995	0.00026164	7.2811e-05	760.88	2.903e-06	2.8667e-06	827.48	316.35	2.9202e-06	2.8309e-06	375.18	175.36	150.28	75.162	3.0277e-06	90.712	234.091	-3.416	33.551	-86.657	41.185	49.316	-87.578	-80.976	62.902	54.182	-83.244	-79.572	-76.678	-72.035	40.895	-75.009	-8191	255	
2135.443	1	1	0	0	0.392	0.037828	0.13827	0.2574	0.088057	0.13369	0.17636	0.25685	0.28154	0.17705	0.13306	0.094715	0.24756	0.22491	0.10359	0.34993	-2.2104	-3.475	-2.9521	-3.0646	-3.5938	-2.75	-3.2833	-3.25	-2.6625	-3.3667	-3.1083	-3.0542	-3.4938	-2.8208	-3.1479	-3.4313	145.077	-3.714	37.967	248.676	34.428	108.672	-50.881	258.182	206.799	24.942	-66.619	165.437	-50.596	251.256	43.468	211.077	0.00030875	0.00037701	0.00013941	757.69	3.6429e-06	5.6106e-06	818.53	311.01	3.1536e-06	4.7264e-06	371.63	172.46	147.33	74.391	2.8552e-06	91.473	0.00030179	0.00026091	7.1485e-05	758.31	2.8393e-06	2.8483e-06	821.13	313.95	2.881e-06	2.7832e-06	373.29	174.85	150.1	75.6	2.9279e-06	92.032	235.958	-0.738	-29.117	-86.489	48.021	43.629	-87.307	-80.855	26.301	33.405	-82.983	-79.391	-76.691	-71.872	87.207	-75.042	-8191	255	
2135.539	1	1	0	0	0.20114	0.26819	0.21651	0.11678	0.12842	0.16794	0.1138	0.19026	0.28676	0.13828	0.34437	0.10593	0.16209	0.042752	0.066007	0.16517	-2.3688	-3.35	-3.075	-2.8896	-3.5646	-2.8708	-3.25	-3.4875	-2.6188	-3.4354	-3.2687	-2.7313	-3.6312	-3.0604	-3.0812	-3.6875	-92.577	143.017	0.826	159.943	79.561	141.613	-64.602	126.461	90.486	78.607	160.837	106.942	-35.615	60.192	168.715	199.387	0.0003372	0.00065308	0.00014824	761.28	3.5981e-06	4.408e-06	833.49	316.62	2.0208e-06	4.1415e-06	382.85	178.56	151.27	76.727	3.7139e-06	94.128	0.00030522	0.00025398	7.1499e-05	760.45	2.826e-06	2.7959e-06	832.75	319.54	2.8496e-06	2.8306e-06	382.61	180.53	153.88	77.716	2.8809e-06	94.685	233.211	7.163	-15.492	-86.225	67.577	38.358	-87.356	-80.891	63.677	35.047	-83.160	-79.415	-76.924	-72.173	87.993	-74.955	-8191	255	
2135.635	1	1	0	0	0.091839	0.15434	0.18215	0.21465	0.29178	0.15649	0.030596	0.21034	0.20419	0.21673	0.21414	0.076607	0.24305	0.24954	0.072469	0.22739	-2.4708	-3.275	-3.2771	-2.8896	-3.4896	-2.8146	-3.0542	-3.5229	-2.6833	-3.4062	-3.3833	-2.8396	-3.5146	-2.9979	-3.0563	-3.7396	-54.344	-23.951	201.346	221.432	156.316	201.961	139.238	-86.869	-93.368	-44.727	-33.444	-28.357	247.444	247.181	164.383	146.837	0.00035658	0.00058129	0.00011629	761.74	5.6027e-06	7.2319e-06	831.57	317.99	2.1499e-06	6.0862e-06	383.99	178.94	152.49	76.941	4.4268e-06	94.097	0.00030622	0.00025986	7.1531e-05	762.53	2.8425e-06	2.7964e-06	834.93	321.71	2.9354e-06	2.8335e-06	384.66	181.28	154.77	78.068	2.9814e-06	94.297	235.588	11.375	-4.037	-86.208	73.331	59.946	-87.327	-80.415	53.120	59.480	-82.895	-79.055	-76.131	-71.765	46.050	-74.866	-8191	255	
2135.754	1	1	0	0	0.21525	0.25511	0.19737	0.24766	0.095165	0.017341	0.16533	0.20366	0.11591	0.067175	0.083405	0.2084	0.17513	0.33499	0.15099	0.1145	-2.4875	-3.1042	-3.225	-2.8333	-3.5667	-3.0625	-3.0812	-3.8063	-2.825	-3.1896	-3.4437	-2.8521	-3.5021	-3.2313	-2.8042	-3.5792	7.316	28.307	12.887	224.741	248.414	1.499	60.207	158.031	224.151	217.081	-8.271	-48.075	209.604	243.046	27.637	-86.731	0.00034754	0.00073625	0.00025485	759.76	3.7892e-06	6.741e-06	830.63	317.31	4.1962e-06	7.0497e-06	379.79	176.94	151.27	76.074	5.3528e-06	92.619	0.00030654	0.0002631	7.4045e-05	760.82	2.8857e-06	2.8075e-06	832.25	320.64	2.8482e-06	2.8572e-06	381.08	179.39	153.59	77.354	2.9915e-06	93.093	236.101	-31.658	6.032	-86.256	73.049	68.564	-87.265	-80.610	74.451	51.758	-82.961	-79.408	-76.642	-72.015	59.968	-75.056	-8191	255	
2135.850	1	1	0	0	0.13602	0.17642	0.14597	0.21944	0.21757	0.12878	0.11868	0.21686	0.034737	0.25458	0.046788	0.18458	0.12951	0.27027	0.2583	0.19343	-2.3063	-3.0563	-3.3771	-2.8875	-3.3354	-3.3042	-2.9146	-3.5625	-2.8	-3.1625	-3.625	-2.7562	-3.3854	-3.3688	-2.8042	-3.5812	129.163	-42.715	52.679	214.871	97.510	93.830	-44.879	222.357	65.020	-28.496	177.694	208.533	208.690	259.586	211.659	173.567	0.00030307	0.00068625	0.00011981	759.54	2.8227e-06	5.6267e-06	825.92	313.47	3.0346e-06	7.1065e-06	378.53	175.32	150.19	75.448	3.6123e-06	91.979	0.00030572	0.00026168	7.3448e-05	761.47	2.8089e-06	2.7925e-06	828.86	318.57	2.8732e-06	2.8806e-06	379.27	177.63	152.33	76.664	2.9889e-06	92.656	234.906	-12.972	-1.879	-86.356	33.135	57.394	-87.423	-80.688	32.684	59.796	-83.023	-79.461	-76.631	-71.879	48.418	-75.207	-8191	255	
2135.946	1	1	0	0	0.17123	0.2255	0.10537	0.17236	0.11578	0.33813	0.2974	0.22978	0.1561	0.084212	0.12566	0.31328	0.22823	0.12011	0.18716	0.072302	-2.4583	-2.9896	-3.3896	-2.8021	-3.1833	-3.075	-2.8125	-3.6083	-2.9875	-2.9667	-3.5146	-2.675	-3.3646	-3.4896	-2.7646	-3.6104	102.174	242.963	151.246	254.319	10.032	223.202	247.278	232.880	-31.882	153.273	152.963	217.441	59.749	197.551	237.245	252.236	0.00034713	0.00050038	0.00018447	760.3	2.8017e-06	7.6153e-06	828.45	314.14	3.8347e-06	4.7019e-06	377.42	175.94	150.6	75.526	5.5142e-06	93.088	0.00030076	0.00026174	7.2202e-05	760.93	2.88e-06	2.8246e-06	829.89	318.75	2.9228e-06	2.8701e-06	379.55	178.36	152.75	76.943	2.9287e-06	93.427	229.681	-40.064	20.346	-86.300	31.186	66.231	-87.418	-80.543	54.127	47.357	-82.881	-79.081	-76.460	-71.766	58.381	-75.067	-8191	255	
2136.042	1	1	0	0	0.18792	0.19555	0.049585	0.2962	0.087123	0.1024	0.32141	0.10649	0.22206	0.053223	0.39989	0.35303	0.082358	0.10259	0.14752	0.11609	-2.6458	-2.8521	-3.4771	-3.0875	-3.2021	-3.5271	-2.8229	-3.5854	-3.1292	-2.8771	-3.5625	-3.1354	-3.4292	-3.525	-2.4583	-3.4417	150.764	-35.400	-32.492	228.720	208.329	107.981	158.329	209.198	117.998	-11.632	153.174	245.214	213.857	-69.991	51.860	210.507	0.00035894	0.00039966	0.00011175	761.88	3.2212e-06	6.268e-06	829.66	316.84	2.4241e-06	6.8785e-06	381.5	176	150.5	76.102	2.9769e-06	92.83	0.00029921	0.00026592	7.2466e-05	764.07	2.8426e-06	2.8153e-06	832.75	319.71	2.8474e-06	2.9262e-06	381.39	178.6	152.63	77.174	2.955e-06	93.41	232.647	-4.792	-12.182	-86.305	32.041	49.845	-87.193	-80.538	56.913	42.947	-83.032	-79.226	-76.833	-72.062	23.504	-74.975	-8191	255	
2136.138	1	1	0	0	0.086312	0.18501	0.165	0.093924	0.030272	0.11249	0.053255	0.12834	0.17655	0.14608	0.14275	0.29308	0.37622	0.31354	0.17121	0.23251	-2.5875	-2.8312	-3.5083	-2.9125	-3.0646	-3.775	-2.8583	-3.3604	-3.1646	-2.7542	-3.5667	-3.0187	-3.1688	-3.4917	-2.8271	-3.375	-71.885	-98.133	156.670	158.453	-78.264	197.135	76.195	194.215	214.320	200.971	-97.845	241.463	234.175	247.822	255.308	260.699	0.0003172	0.00071983	0.00014488	759.2	5.2443e-06	6.8464e-06	833.95	316.25	1.5746e-06	8.2393e-06	377.49	174.13	149.24	75.28	3.9822e-06	91.355	0.00029743	0.00026975	7.2219e-05	763.47	2.8598e-06	2.8325e-06	832.57	318.21	2.8664e-06	2.8683e-06	378.95	176.77	151.59	76.476	2.9457e-06	92.068	233.442	-15.262	-21.721	-85.992	38.593	57.367	-87.578	-81.009	69.151	40.587	-83.565	-79.432	-76.809	-72.166	66.000	-75.222	-8191	255	
2136.234	1	1	0	0	0.2815	0.13532	0.11529	0.21642	0.21579	0.26455	0.1561	0.25656	0.055968	0.079414	0.30201	0.10397	0.12063	0.17521	0.074637	0.1543	-2.8146	-2.7542	-3.4417	-3.1229	-2.8354	-3.5083	-2.8854	-3.2125	-3.2458	-2.8187	-3.2625	-3.1646	-2.8563	-3.6188	-2.6583	-3.2354	184.133	-50.011	189.855	214.846	25.495	150.963	-37.674	188.120	85.044	148.563	239.663	210.934	-69.169	-10.018	99.248	38.986	0.00029217	0.00065779	0.00019822	761.45	3.3481e-06	4.0882e-06	824.13	314.11	2.649e-06	6.1621e-06	376.55	172.82	147.86	74.378	5.117e-06	90.355	0.00029994	0.00026085	7.1715e-05	763.32	2.8647e-06	2.8188e-06	829.23	317.16	2.9063e-06	2.8278e-06	375.88	175.39	150.77	75.743	2.8982e-06	91.072	232.315	-6.565	-0.630	-86.316	48.519	45.472	-87.790	-80.960	46.463	40.413	-83.777	-79.339	-77.154	-72.280	52.737	-75.709	-8191	255	
2136.355	1	1	0	0	0.24471	0.25087	0.26144	0.042503	0.11363	0.12921	0.35168	0.27714	0.27006	0.04994	0.12595	0.10729	0.12349	0.067934	0.14451	0.080011	-3.1813	-2.7708	-3.4333	-3.1708	-2.8417	-3.6417	-3.0687	-3.1104	-3.6479	-2.7938	-3.45	-3.3063	-2.8542	-3.6437	-2.9021	-3.1292	129.609	-5.824	-57.194	-89.716	221.752	243.966	170.237	166.057	190.130	14.281	-69.085	136.288	-3.474	232.119	-14.261	-95.953	0.00035512	0.0007793	0.00018196	758.71	4.0052e-06	5.2267e-06	823.59	313.84	1.8808e-06	7.6763e-06	374.02	171.91	148.08	74.122	3.3052e-06	90.25	0.00030106	0.00025976	7.1426e-05	760.3	2.8872e-06	2.7641e-06	826.53	316.24	2.7871e-06	2.8212e-06	374.26	174.56	150.29	75.448	2.8877e-06	91.045	228.558	-18.100	-7.005	-86.741	77.945	48.151	-87.882	-81.206	46.967	61.948	-83.671	-79.491	-76.953	-72.233	21.096	-75.485	-8191	255	
2136.451	1	1	0	0	0.23906	0.16807	0.21412	0.087357	0.10497	0.22464	0.12394	0.092311	0.17145	0.074683	0.19235	0.31054	0.14878	0.17173	0.26581	0.1216	-3.1354	-2.7896	-3.4208	-3.275	-2.7104	-3.5833	-2.9979	-3.1583	-3.4375	-2.7125	-3.5104	-3.2625	-2.8271	-3.7146	-2.9	-2.8312	-71.171	240.052	-55.470	240.600	157.944	175.366	129.294	251.521	123.029	21.238	220.615	167.179	168.732	196.934	122.403	245.917	0.00031209	0.00064114	0.00016395	759.6	3.1539e-06	5.3684e-06	829.02	313.34	2.3284e-06	6.097e-06	377.65	174.58	148.33	74.899	2.9306e-06	91.385	0.00029647	0.00026025	7.0596e-05	762.07	2.8563e-06	2.6859e-06	829.69	317.38	2.8716e-06	2.8176e-06	377.74	176.76	151.2	76.102	2.8521e-06	92	235.840	-16.703	-21.252	-86.539	55.178	45.792	-87.317	-81.239	35.409	44.316	-83.345	-79.614	-77.043	-72.167	40.566	-75.353	-8191	255	
2136.546	1	1	0	0	0.089476	0.17925	0.28787	0.1436	0.069042	0.15614	0.1266	0.1262	0.26391	0.25509	0.22874	0.15627	0.22365	0.20441	0.1406	0.22927	-3.1604	-2.7562	-3.2271	-3.2896	-2.6937	-3.4854	-3.0708	-3.0167	-3.6542	-2.7792	-3.4375	-3.4479	-2.85	-3.4104	-3.1583	-2.8604	203.969	-1.679	30.902	211.745	251.912	121.856	-68.246	217.652	13.478	184.812	254.952	60.643	-44.340	226.594	68.604	218.007	0.00032788	0.0005621	0.00013107	762.99	4.0799e-06	4.7609e-06	831.86	314.56	3.461e-06	5.1786e-06	376.72	173.96	149.13	74.66	5.5574e-06	91.431	0.00029931	0.00025515	7.1112e-05	763.33	2.9011e-06	2.7811e-06	829.66	317.88	2.8403e-06	2.7542e-06	377.42	176.69	151.49	76.034	2.7977e-06	91.748	233.482	-15.731	-19.686	-86.536	58.892	59.851	-87.582	-80.864	11.899	36.625	-83.212	-79.136	-76.753	-71.870	31.214	-75.314	-8191	255	
2136.642	1	1	0	0	0.089223	0.19527	0.17115	0.15479	0.13125	0.083908	0.090509	0.14123	0.12158	0.092725	0.065687	0.029037	0.39219	0.21511	0.16806	0.062684	-3.1813	-2.7896	-2.9938	-3.5479	-2.8917	-3.4042	-3.1917	-2.7833	-3.4875	-2.8563	-3.125	-3.4146	-2.8563	-3.4542	-3.1771	-3.0771	116.037	41.310	-44.010	242.081	103.668	-22.122	250.003	-95.330	207.267	-17.470	196.860	152.524	221.309	129.685	-75.194	-94.075	0.00033109	0.00054888	0.00013867	758.98	3.383e-06	2.9655e-06	825.67	312.81	2.7985e-06	4.9984e-06	374.2	173.54	149.22	74.767	3.4407e-06	89.934	0.00029809	0.00025653	7.1318e-05	761.38	2.8676e-06	2.8065e-06	827.02	316.8	2.8249e-06	2.7507e-06	375.96	175.79	151.18	75.858	2.8633e-06	90.799	229.458	-51.030	3.502	-86.396	63.960	51.787	-87.462	-80.921	72.251	32.247	-83.164	-79.581	-76.729	-72.340	94.970	-75.365	-8191	255	
2136.738	1	1	0	0	0.12361	0.19602	0.1569	0.23734	0.20321	0.11912	0.12628	0.1235	0.069426	0.079869	0.12659	0.17546	0.19301	0.22646	0.26146	0.073561	-3.0792	-2.9271	-2.9521	-3.6146	-2.8271	-3.2062	-3.3229	-2.9062	-3.3812	-2.9188	-3.0479	-3.6042	-2.9062	-3.2625	-3.2479	-2.8688	249.967	28.556	-17.851	215.827	-82.625	31.470	258.439	242.915	95.482	44.724	167.772	178.554	178.688	-73.132	243.071	227.446	0.00033697	0.00051764	0.00013088	761.16	4.8063e-06	5.3355e-06	824.46	312.41	2.0968e-06	5.4716e-06	374.64	171.92	148.49	74.298	3.3623e-06	89.945	0.00029611	0.00025187	7.1626e-05	760.78	2.8371e-06	2.7184e-06	825.6	315.93	2.8016e-06	2.758e-06	374.37	174.79	150.55	75.514	2.8521e-06	90.441	234.716	-9.083	8.501	-86.515	37.268	61.831	-87.618	-81.029	45.857	49.674	-83.522	-79.473	-76.786	-72.012	20.720	-75.164	-8191	255	
#DATA ENDS
