BOXY.EXE: ISS Imagent and Oximeter Data Acquisition Program Version 0.80
Ascii Record File

#ACQ INFORMATION
2  Detector Channels 
16  External MUX Channels 
1  Auxiliary Channels 
5000  Waveform (CCF) Frequency (Hz)
1  Waveforms Skipped 
30  Waveforms Averaged 
1  Cycles Averaged 
16  Acquisitions per Waveform 
10.0806  Updata Rate (Hz) 

#FILE INFORMATION
TRUE -- External MUX Channel results are PARSED.
FALSE -- AC DC and Phase are NOT grouped.
TRUE -- Companion Program Settings File CREATED.
FALSE -- AC data not excluded
FALSE -- DC data not excluded
FALSE -- Phase data not excluded
FALSE -- Auxillary Chn. data not excluded
Tab delimiters

#CALIBRATION STATE
TRUE -- Waveform Calibration Values APPLIED.


#AUX CALIBRATION VALUES
Val Type	aux-1	

Term	1.0000e+00	
Factor	0.0000e+00	


#WF CALIBRATION VALUES
A = Detector Channel
Val Type	A-AC1	A-AC2	A-AC3	A-AC4	A-AC5	A-AC6	A-AC7	A-AC8	A-AC9	A-AC10	A-AC11	A-AC12	A-AC13	A-AC14	A-AC15	A-AC16	A-DC1	A-DC2	A-DC3	A-DC4	A-DC5	A-DC6	A-DC7	A-DC8	A-DC9	A-DC10	A-DC11	A-DC12	A-DC13	A-DC14	A-DC15	A-DC16	A-Ph1	A-Ph2	A-Ph3	A-Ph4	A-Ph5	A-Ph6	A-Ph7	A-Ph8	A-Ph9	A-Ph10	A-Ph11	A-Ph12	A-Ph13	A-Ph14	A-Ph15	A-Ph16	

Term	0.00000e+00	0.00000e+00	0.00000e+00	0.00000e+00	0.00000e+00	0.00000e+00	0.00000e+00	0.00000e+00	0.00000e+00	0.00000e+00	0.00000e+00	0.00000e+00	0.00000e+00	0.00000e+00	0.00000e+00	0.00000e+00	0.00000e+00	0.00000e+00	0.00000e+00	0.00000e+00	0.00000e+00	0.00000e+00	0.00000e+00	0.00000e+00	0.00000e+00	0.00000e+00	0.00000e+00	0.00000e+00	0.00000e+00	0.00000e+00	0.00000e+00	0.00000e+00	0.00000e+00	0.00000e+00	0.00000e+00	0.00000e+00	0.00000e+00	0.00000e+00	0.00000e+00	0.00000e+00	0.00000e+00	0.00000e+00	0.00000e+00	0.00000e+00	0.00000e+00	0.00000e+00	0.00000e+00	0.00000e+00	
Factor	1.00000e+00	1.00000e+00	1.00000e+00	1.00000e+00	1.00000e+00	1.00000e+00	1.00000e+00	1.00000e+00	1.00000e+00	1.00000e+00	1.00000e+00	1.00000e+00	1.00000e+00	1.00000e+00	1.00000e+00	1.00000e+00	1.00000e+00	1.00000e+00	1.00000e+00	1.00000e+00	1.00000e+00	1.00000e+00	1.00000e+00	1.00000e+00	1.00000e+00	1.00000e+00	1.00000e+00	1.00000e+00	1.00000e+00	1.00000e+00	1.00000e+00	1.00000e+00	X	X	X	X	X	X	X	X	X	X	X	X	X	X	X	X	

B = Detector Channel
Val Type	B-AC1	B-AC2	B-AC3	B-AC4	B-AC5	B-AC6	B-AC7	B-AC8	B-AC9	B-AC10	B-AC11	B-AC12	B-AC13	B-AC14	B-AC15	B-AC16	B-DC1	B-DC2	B-DC3	B-DC4	B-DC5	B-DC6	B-DC7	B-DC8	B-DC9	B-DC10	B-DC11	B-DC12	B-DC13	B-DC14	B-DC15	B-DC16	B-Ph1	B-Ph2	B-Ph3	B-Ph4	B-Ph5	B-Ph6	B-Ph7	B-Ph8	B-Ph9	B-Ph10	B-Ph11	B-Ph12	B-Ph13	B-Ph14	B-Ph15	B-Ph16	

Term	0.00000e+00	0.00000e+00	0.00000e+00	0.00000e+00	0.00000e+00	0.00000e+00	0.00000e+00	0.00000e+00	0.00000e+00	0.00000e+00	0.00000e+00	0.00000e+00	0.00000e+00	0.00000e+00	0.00000e+00	0.00000e+00	0.00000e+00	0.00000e+00	0.00000e+00	0.00000e+00	0.00000e+00	0.00000e+00	0.00000e+00	0.00000e+00	0.00000e+00	0.00000e+00	0.00000e+00	0.00000e+00	0.00000e+00	0.00000e+00	0.00000e+00	0.00000e+00	-8.92709e+01	-1.28825e+02	-1.24038e+02	-1.83962e+02	-5.99715e+01	-6.47401e+01	-1.57159e+02	-1.62015e+02	-5.48480e+01	-7.10995e+01	-1.70729e+02	-1.70839e+02	-1.80289e+02	-1.77652e+02	-5.59847e+01	-1.50740e+02	
Factor	1.90359e-05	1.64344e-04	4.45320e-05	1.64583e-01	1.33975e-06	1.74344e-06	1.90588e-01	5.69177e-02	1.10681e-06	1.67741e-06	9.57273e-02	3.69650e-02	2.87415e-02	1.05468e-02	1.51595e-06	1.54879e-02	3.70208e-06	4.20420e-06	1.17489e-06	8.23578e-02	4.54401e-08	4.62410e-08	8.95767e-02	2.86398e-02	4.53497e-08	4.63083e-08	4.63350e-02	1.80061e-02	1.45506e-02	5.30554e-03	4.58462e-08	7.52433e-03	X	X	X	X	X	X	X	X	X	X	X	X	X	X	X	X	



#DISTANCE SETTINGS
A = Detector Channel
A-1	A-2	A-3	A-4	A-5	A-6	A-7	A-8	A-9	A-10	A-11	A-12	A-13	A-14	A-15	A-16	

2.5000e+00	3.0000e+00	2.5000e+00	3.0000e+00	2.0000e+00	3.0000e+00	1.5000e+00	3.0000e+00	3.0000e+00	3.0000e+00	3.0000e+00	3.0000e+00	3.0000e+00	3.0000e+00	1.5000e+00	3.0000e+00	

B = Detector Channel
B-1	B-2	B-3	B-4	B-5	B-6	B-7	B-8	B-9	B-10	B-11	B-12	B-13	B-14	B-15	B-16	

1.0000e+01	1.0000e+01	1.0000e+01	1.4400e+00	1.0000e+01	1.0000e+01	1.5100e+00	1.9400e+00	1.0000e+01	1.0000e+01	1.9900e+00	2.4900e+00	2.4100e+00	2.9000e+00	1.0000e+01	2.9800e+00	




#DATA BEGINS
time	group	step	mark	flag	A-AC1	A-AC2	A-AC3	A-AC4	A-AC5	A-AC6	A-AC7	A-AC8	A-AC9	A-AC10	A-AC11	A-AC12	A-AC13	A-AC14	A-AC15	A-AC16	A-DC1	A-DC2	A-DC3	A-DC4	A-DC5	A-DC6	A-DC7	A-DC8	A-DC9	A-DC10	A-DC11	A-DC12	A-DC13	A-DC14	A-DC15	A-DC16	A-Ph1	A-Ph2	A-Ph3	A-Ph4	A-Ph5	A-Ph6	A-Ph7	A-Ph8	A-Ph9	A-Ph10	A-Ph11	A-Ph12	A-Ph13	A-Ph14	A-Ph15	A-Ph16	B-AC1	B-AC2	B-AC3	B-AC4	B-AC5	B-AC6	B-AC7	B-AC8	B-AC9	B-AC10	B-AC11	B-AC12	B-AC13	B-AC14	B-AC15	B-AC16	B-DC1	B-DC2	B-DC3	B-DC4	B-DC5	B-DC6	B-DC7	B-DC8	B-DC9	B-DC10	B-DC11	B-DC12	B-DC13	B-DC14	B-DC15	B-DC16	B-Ph1	B-Ph2	B-Ph3	B-Ph4	B-Ph5	B-Ph6	B-Ph7	B-Ph8	B-Ph9	B-Ph10	B-Ph11	B-Ph12	B-Ph13	B-Ph14	B-Ph15	B-Ph16	aux-1	digaux	

2193.134	1	1	0	768	0.18552	0.041095	0.2	0.19347	0.12173	0.16148	0.067427	0.099678	0.064509	0.20225	0.41772	0.12876	0.20432	0.47566	0.038433	0.099816	-2.8563	-3.4271	-2.7188	-3.3896	-3.0354	-2.9979	-3.4229	-2.9167	-3.0812	-3.4729	-2.6312	-3.375	-3.2438	-2.8521	-3.6188	-2.8292	-123.806	26.923	-37.637	163.126	-86.338	-22.655	140.895	-168.561	70.370	-43.707	124.080	156.620	162.413	143.259	-152.853	-0.359	0.00065937	0.00049993	0.00015332	679.28	4.1849e-06	3.571e-06	699.28	298.36	3.7107e-06	4.9735e-06	342.62	149.01	132.78	73.088	6.3673e-06	80.939	0.00025038	0.0001706	4.9003e-05	681.34	1.9223e-06	1.9672e-06	701.22	301.86	1.985e-06	1.8628e-06	345.04	150.37	134.48	74.427	1.9935e-06	81.745	-121.575	-91.348	-79.555	-167.591	-35.899	-36.846	-168.586	-161.946	-54.538	-25.384	-164.508	-161.019	-158.518	-154.142	-27.751	-156.904	-8191	255	
2193.231	1	1	0	0	0.086398	0.11047	0.25378	0.096312	0.32338	0.25324	0.2001	0.27954	0.026431	0.24875	0.21404	0.18323	0.15824	0.27188	0.32562	0.39168	-2.5812	-3.2938	-2.6208	-3.4292	-3.0271	-2.8521	-3.5833	-2.9208	-3.1208	-3.6021	-2.8854	-3.3937	-3.2604	-2.7521	-3.4188	-2.9208	538.020	382.763	369.933	449.767	529.341	267.474	488.897	499.752	348.877	322.808	395.360	287.214	506.828	488.275	327.689	487.851	0.00071363	0.00035057	0.00017699	680.7	4.2184e-06	5.6835e-06	694.83	297.86	3.9113e-06	6.1052e-06	341.06	147.58	132.97	72.637	6.9073e-06	80.376	0.00025591	0.00017512	4.9355e-05	681.7	1.9613e-06	1.9407e-06	699.68	301.27	1.9956e-06	1.8761e-06	343.77	149.47	134.39	74.079	2.0203e-06	81.212	235.573	253.333	271.463	192.207	330.586	342.736	191.394	197.807	319.545	320.288	195.775	199.243	201.698	206.077	316.955	202.936	-8191	255	
2193.327	1	1	0	0	0.15347	0.14757	0.062199	0.14151	0.18655	0.11767	0.33571	0.26527	0.068797	0.11027	0.188	0.072296	0.15978	0.28145	0.10274	0.22935	-2.6417	-3.3375	-2.6292	-3.3688	-3.4313	-2.7771	-3.7167	-2.875	-2.7938	-3.5417	-2.8833	-3.4458	-3.4333	-2.9333	-3.3625	-3.1708	182.888	343.331	345.834	282.371	345.966	390.038	455.333	427.049	478.040	453.564	422.377	458.396	455.234	199.666	415.452	516.594	0.0006807	0.0007179	0.00012093	681.26	2.7881e-06	5.8613e-06	700.65	298.39	5.3778e-06	5.571e-06	342.3	147.51	132.37	72.35	4.4453e-06	79.881	0.00024974	0.0001739	4.9125e-05	684.83	1.9343e-06	1.9181e-06	703.97	302.19	1.9922e-06	1.9071e-06	343.99	149.21	133.99	73.757	2.0023e-06	80.885	236.322	270.390	281.897	192.492	338.831	304.145	191.355	197.701	325.266	319.969	195.765	199.024	201.531	205.919	300.941	202.990	-8191	255	
2193.423	1	1	0	0	0.12905	0.18676	0.11678	0.089544	0.055684	0.098437	0.14648	0.21563	0.2383	0.057314	0.16595	0.1407	0.11856	0.13256	0.19257	0.34731	-2.5875	-3.3854	-2.7375	-3.075	-3.2229	-2.7062	-3.4271	-3.0979	-2.8417	-3.6479	-2.9271	-3.0771	-3.4854	-2.6562	-3.3542	-3.3271	450.396	186.752	537.105	383.744	396.078	246.046	387.434	527.111	359.004	443.015	499.619	480.925	508.731	278.691	329.619	200.787	0.00069829	0.0005133	0.00011834	677.97	4e-06	6.9015e-06	699.31	298.68	4.6312e-06	2.6529e-06	343.27	148.45	133.3	72.946	6.0835e-06	80.932	0.00025171	0.00017192	4.9123e-05	681.66	1.9273e-06	1.9372e-06	701.69	301.93	1.9441e-06	1.8359e-06	345.33	150.32	134.93	74.382	2.0243e-06	81.92	238.542	283.629	279.406	192.388	318.714	341.050	191.101	197.642	327.668	342.966	195.496	198.651	201.252	205.500	311.502	202.554	-8191	255	
2193.519	1	1	0	0	0.27116	0.16075	0.23942	0.12625	0.044803	0.070604	0.12357	0.27149	0.25311	0.11724	0.29943	0.091739	0.20862	0.28982	0.22084	0.13011	-2.3646	-3.475	-2.6792	-3.1312	-3.3833	-2.7	-3.2792	-3.3604	-2.6521	-3.3979	-3.0229	-3.0062	-3.4646	-2.7	-3.3208	-3.4396	268.314	234.157	393.762	207.528	354.319	485.533	225.014	497.208	309.342	367.820	458.520	199.185	185.567	491.164	343.857	416.661	0.00069811	0.00039254	0.00016904	682.96	3.8094e-06	5.1799e-06	702.85	300.15	4.4951e-06	5.922e-06	344.89	148.88	133.66	73.389	4.6472e-06	81.071	0.00025091	0.00017426	4.8396e-05	685.3	1.9075e-06	1.8927e-06	705.48	304.27	2.0051e-06	1.8645e-06	347.08	151.07	135.36	74.668	2.0104e-06	82.015	236.537	253.557	268.796	192.048	320.853	321.611	190.981	197.441	318.390	319.442	195.124	198.537	201.220	205.593	328.949	202.668	-8191	255	
2193.615	1	1	0	0	0.040605	0.23497	0.19307	0.04553	0.11687	0.13122	0.088965	0.18593	0.20259	0.12312	0.15581	0.14128	0.069503	0.23563	0.1412	0.13035	-2.3354	-3.3604	-2.9646	-3.0708	-3.4917	-2.7021	-3.2458	-3.525	-2.6417	-3.4729	-3.0167	-2.8771	-3.5375	-2.8312	-3.1583	-3.4271	227.444	464.208	524.268	185.132	371.039	244.300	388.044	236.639	232.707	190.061	461.516	460.526	527.430	450.052	198.331	534.038	0.00069342	0.00048338	9.3743e-05	679.42	4.3326e-06	4.9728e-06	696.15	298.53	3.4983e-06	6.7143e-06	343.36	148.24	132.22	72.555	4.5302e-06	80.116	0.00025497	0.0001727	4.7541e-05	683	1.911e-06	1.9052e-06	701.39	302.05	2.0126e-06	1.8824e-06	344.49	149.73	134.46	73.946	2.0276e-06	80.989	237.421	266.903	288.295	191.907	318.304	345.506	190.731	197.441	329.992	340.910	195.502	198.531	201.352	205.476	312.193	202.353	-8191	255	
2193.736	1	1	0	0	0.06862	0.18186	0.080547	0.30392	0.085892	0.11767	0.043513	0.2616	0.16365	0.20602	0.19256	0.13524	0.2443	0.32101	0.27163	0.14389	-2.2938	-3.4813	-3.0354	-2.8438	-3.3417	-2.8958	-2.8229	-3.5021	-2.7083	-3.4104	-3.2438	-2.75	-3.4854	-2.8896	-3.0521	-3.5396	492.885	372.413	234.885	512.877	337.392	520.335	180.827	503.063	451.512	529.463	452.852	331.249	487.665	520.309	346.126	382.852	0.00069206	0.00047075	0.00017052	676.81	4.454e-06	4.7942e-06	692.97	296.17	3.5727e-06	5.3571e-06	339.73	146	131.66	71.555	4.2583e-06	78.791	0.0002483	0.00018119	4.832e-05	679.21	1.9467e-06	1.8906e-06	695.98	299.92	2.0302e-06	1.8527e-06	341.27	147.93	133.21	73.048	2.0084e-06	79.821	234.871	270.568	276.449	191.854	320.931	313.623	191.295	197.586	326.512	300.338	195.302	198.590	201.401	205.897	354.598	202.450	-8191	255	
2193.830	1	1	0	0	0.055185	0.18931	0.22495	0.28294	0.10833	0.10175	0.13282	0.057917	0.17675	0.10997	0.43906	0.068293	0.23857	0.29032	0.33109	0.23061	-2.2729	-3.1208	-3.0792	-2.7167	-3.4396	-2.9688	-2.8875	-3.4562	-2.7188	-3.0687	-3.4229	-2.6354	-3.5708	-3.0062	-2.8521	-3.6229	337.292	276.891	352.065	453.198	475.163	204.946	507.387	377.756	425.938	430.763	530.558	450.511	512.938	474.611	403.988	267.354	0.00065843	0.00062927	0.00020245	675.09	4.0634e-06	3.7092e-06	693.41	296.01	4.4926e-06	3.7142e-06	338.84	145.22	130.42	71.404	8.425e-06	78.491	0.00025088	0.00017356	4.8719e-05	676.89	1.9382e-06	1.9069e-06	695.62	299.09	1.9578e-06	1.9117e-06	339.76	147	132.46	72.677	2.0095e-06	79.413	234.653	253.655	278.561	191.942	334.069	353.831	191.300	197.699	316.965	349.317	195.246	198.826	201.252	205.619	323.059	202.644	-8191	255	
2193.928	1	1	0	0	0.19647	0.22647	0.41977	0.27363	0.07482	0.19074	0.24339	0.10037	0.090902	0.16669	0.27746	0.26147	0.26819	0.049427	0.25576	0.24633	-2.4083	-2.8812	-3.1063	-2.6729	-3.4229	-2.9917	-2.9625	-3.4396	-2.8083	-3.0208	-3.4167	-2.7771	-3.3771	-3.4875	-2.8292	-3.6625	481.315	517.368	410.040	460.419	319.012	328.373	187.584	207.698	236.406	486.034	535.310	205.540	497.808	447.527	351.766	498.935	0.00067575	0.00048362	0.00019414	672.83	3.571e-06	5.2776e-06	690.53	293.32	5.3629e-06	2.6143e-06	338.81	146.11	131.42	71.938	4.1761e-06	79.462	0.0002479	0.00017421	4.8481e-05	672.99	1.8988e-06	1.8189e-06	692.2	298.13	1.9402e-06	1.8997e-06	340.28	147.9	133.23	73.213	2.0111e-06	80.316	238.165	275.692	263.926	191.844	319.821	319.058	190.746	197.430	319.520	330.709	195.271	198.388	201.284	205.722	333.109	202.561	-8191	255	
2194.024	1	1	0	0	0.15033	0.069252	0.1804	0.082195	0.080967	0.15187	0.15972	0.28467	0.013239	0.061402	0.22713	0.065887	0.092073	0.23051	0.37835	0.17944	-2.4188	-2.9	-3.3271	-2.6646	-3.1562	-3.2521	-2.8396	-3.4771	-2.8083	-3.1188	-3.4688	-2.6958	-3.2562	-3.2938	-2.7354	-3.6604	458.219	277.709	335.548	411.686	437.775	492.260	432.114	435.724	380.809	196.736	464.765	467.785	423.831	471.796	519.977	428.069	0.00070285	0.00056437	0.00016778	671.39	5.0502e-06	2.9866e-06	688.95	295.03	5.2567e-06	7.5824e-06	339.05	146.44	131.53	72.317	4.5423e-06	80.222	0.00025138	0.00017404	4.8476e-05	675.17	1.9409e-06	1.8392e-06	693.6	298.85	1.941e-06	1.9172e-06	340.77	148.45	133.58	73.868	2.0325e-06	81.166	235.170	243.291	277.287	191.786	319.355	331.002	190.823	197.447	306.386	314.993	195.275	198.437	201.102	205.657	318.357	202.763	-8191	255	
2194.119	1	1	0	0	0.20029	0.13928	0.084423	0.32572	0.20276	0.32891	0.13418	0.15855	0.15708	0.16261	0.12881	0.30171	0.12879	0.30818	0.27477	0.19802	-2.4062	-2.7646	-3.3875	-2.6813	-3.2104	-3.1937	-2.8063	-3.4354	-2.8208	-2.8229	-3.5229	-2.6562	-3.3021	-3.5604	-2.6875	-3.3771	220.853	358.339	217.500	506.310	242.122	457.045	304.355	421.339	237.089	338.743	523.991	485.351	250.729	514.817	214.430	416.404	0.00071697	0.00060693	0.00013252	672.81	5.4166e-06	6.2474e-06	688.39	294.29	5.9078e-06	5.3457e-06	337.06	145.86	131.02	71.737	5.5031e-06	78.847	0.00024615	0.0001756	4.7913e-05	676.15	1.9021e-06	1.8682e-06	693.33	298.72	1.9602e-06	1.9094e-06	339.8	147.59	132.94	73.091	2.0441e-06	79.868	237.507	274.547	273.014	192.064	320.837	340.917	190.804	197.540	334.221	294.625	195.460	198.658	201.246	205.577	330.550	202.904	-8191	255	
2194.215	1	1	0	0	0.19195	0.087929	0.216	0.36184	0.17399	0.21239	0.084034	0.24596	0.23961	0.046959	0.10812	0.15872	0.15543	0.20182	0.084374	0.1243	-2.7042	-2.8229	-3.3292	-2.9938	-3.0187	-3.4146	-2.5687	-3.45	-2.9958	-2.6271	-3.5646	-2.8292	-3.0417	-3.4583	-2.6271	-3.4792	213.119	325.495	506.030	529.127	287.885	290.101	493.996	454.576	456.002	409.859	516.265	483.422	272.477	500.423	320.744	215.205	0.00067863	0.00050247	0.00012444	667.65	3.6168e-06	5.5224e-06	682.96	293.08	3.5497e-06	6.0745e-06	336.18	145.2	130.57	71.76	6.1311e-06	78.866	0.00024526	0.0001783	4.6893e-05	670.34	1.9408e-06	1.88e-06	686.9	296.57	1.9609e-06	1.9024e-06	337.51	146.72	132.39	73.022	1.9882e-06	79.872	237.442	257.244	262.936	191.830	305.198	329.737	191.078	197.750	295.080	341.401	195.682	198.918	201.153	205.695	329.844	202.585	-8191	255	
2194.311	1	1	0	0	0.094501	0.12137	0.17482	0.14324	0.24829	0.29597	0.25383	0.179	0.20939	0.17814	0.052191	0.2003	0.3002	0.064356	0.30738	0.22325	-2.6271	-2.6542	-3.5	-2.8083	-2.7896	-3.4437	-2.9562	-3.3521	-3.2229	-2.7062	-3.5375	-2.9292	-2.8771	-3.5479	-2.7833	-3.3125	331.779	426.681	336.132	359.614	309.607	297.171	433.288	200.296	526.102	342.035	256.051	437.396	495.349	182.681	407.248	467.241	0.00069807	0.00058431	0.00012689	670.14	3.1032e-06	4.6106e-06	681.64	291.96	3.7866e-06	7.2771e-06	332.94	143.98	129.49	71.141	6.0282e-06	78.205	0.00024712	0.00018014	4.7605e-05	670.27	1.9608e-06	1.8926e-06	685.84	295.57	1.9384e-06	1.9811e-06	334.89	145.51	130.88	72.22	2.0113e-06	79.215	234.865	269.814	255.703	192.178	314.189	328.406	190.921	197.548	324.206	305.062	195.350	199.034	201.503	205.879	328.920	202.630	-8191	255	
2194.432	1	1	0	0	0.169	0.034576	0.043489	0.11618	0.24344	0.28755	0.25326	0.27229	0.071867	0.13481	0.11518	0.36015	0.12785	0.28193	0.096444	0.25221	-2.9417	-2.6792	-3.5625	-3.1667	-2.9083	-3.4208	-3.0292	-3.2271	-3.3083	-2.6375	-3.4604	-2.9625	-2.8729	-3.6042	-2.7625	-3.075	529.293	447.581	466.860	245.952	374.483	524.507	509.315	460.405	419.309	336.535	474.835	180.662	510.099	521.357	384.164	431.824	0.00066759	0.0004458	0.00014654	663.53	3.0081e-06	5.0621e-06	680.19	290.07	5.0166e-06	5.2823e-06	333.62	144.22	129.94	70.853	4.1603e-06	78.561	0.00024772	0.00017685	4.784e-05	665.93	2.0059e-06	1.8624e-06	682.31	293.97	1.9722e-06	2.0057e-06	335.01	145.95	131.2	72.339	1.9841e-06	79.481	236.161	268.531	251.890	192.383	320.707	338.131	190.884	197.706	329.955	309.874	195.553	199.020	201.517	206.189	321.503	202.657	-8191	255	
2194.528	1	1	0	0	0.14089	0.07604	0.19034	0.042066	0.054812	0.16901	0.19251	0.32204	0.15123	0.089112	0.083362	0.015021	0.4587	0.17931	0.074248	0.054374	-3.1688	-2.5375	-3.3417	-3.2021	-2.8312	-3.3812	-3.0646	-3.2062	-3.4104	-2.7083	-3.3146	-3.3792	-2.7104	-3.6771	-3.1375	-2.9333	271.329	195.975	293.032	242.133	502.799	298.910	445.155	187.524	307.031	351.650	450.731	296.378	489.150	436.537	296.779	220.851	0.0006754	0.00042259	0.00014189	662.98	2.5564e-06	5.4656e-06	679.79	290.59	3.4872e-06	6.6881e-06	332.43	143.74	129.42	70.798	5.1864e-06	78.007	0.00025043	0.00018094	4.8677e-05	665.75	1.9428e-06	1.8734e-06	683.88	293.89	1.9515e-06	1.9288e-06	334.44	145.77	130.92	72.11	2.0006e-06	79.172	236.515	257.098	287.167	192.363	323.242	328.535	191.187	197.691	335.096	300.953	195.440	198.762	201.449	205.861	305.553	202.715	-8191	255	
2194.624	1	1	0	0	0.28728	0.05089	0.070516	0.19709	0.18808	0.21757	0.23939	0.1935	0.1554	0.046286	0.076094	0.22136	0.22989	0.27634	0.14766	0.16772	-3.1688	-2.7	-3.2875	-3.1271	-2.5687	-3.5438	-3.0875	-2.8354	-3.425	-2.7188	-3.1375	-3.45	-2.6146	-3.4542	-2.9562	-2.8812	279.526	410.827	519.625	485.471	432.599	186.904	536.593	481.739	245.985	378.211	249.407	184.403	459.578	527.283	354.400	402.717	0.00068048	0.00058281	0.00016778	658.63	3.2333e-06	4.7224e-06	669.37	285.31	3.4469e-06	5.4696e-06	326.62	141.35	126.92	69.698	6.5091e-06	76.751	0.00024272	0.00017539	4.9451e-05	659.12	1.9524e-06	1.8912e-06	674.02	289.17	1.9464e-06	1.8837e-06	328.22	143.03	128.46	70.993	1.9852e-06	77.8	235.307	284.837	277.583	192.387	298.960	327.440	191.119	197.343	316.852	347.898	195.375	198.905	201.627	205.994	321.567	202.573	-8191	255	
2194.696	1	1	0	0	0.024844	0.031252	0.2227	0.31085	0.36571	0.052712	0.085475	0.37649	0.0097961	0.10668	0.064039	0.26607	0.068217	0.32368	0.052088	0.24494	-3.0229	-2.7229	-3.1604	-3.4938	-2.5146	-3.4667	-3.2229	-2.7771	-3.4062	-2.9813	-3.0146	-3.5333	-2.9292	-3.5438	-3.2	-2.8833	263.576	338.064	193.174	490.853	455.348	375.710	338.092	446.649	474.538	533.823	383.834	520.942	534.225	514.605	284.635	469.512	0.00068503	0.0004364	9.8272e-05	654.55	4.9449e-06	3.5671e-06	668.75	283.64	4.7904e-06	3.3186e-06	325.13	140.71	126.29	69.648	4.4211e-06	76.767	0.00024449	0.00016988	4.8716e-05	654.93	1.9653e-06	1.8286e-06	671.66	287.73	1.9454e-06	1.8896e-06	326.02	142.56	128.13	70.881	1.9971e-06	77.539	235.543	251.743	262.862	192.099	330.920	322.389	191.201	197.466	324.690	316.199	195.260	198.626	201.513	205.774	308.644	202.657	-8191	255	
2194.816	1	1	0	0	0.18609	0.056942	0.28432	0.14922	0.08927	0.18314	0.31081	0.065932	0.13232	0.059955	0.19672	0.11277	0.27719	0.36213	0.1242	0.19822	-3.0521	-2.7333	-2.8729	-3.4333	-2.7958	-3.2687	-3.2812	-2.7979	-3.5458	-2.975	-3.0167	-3.4979	-2.7396	-3.1917	-3.0687	-2.7188	435.235	442.790	503.277	452.525	344.415	198.166	474.475	507.214	222.665	408.086	522.369	401.918	463.229	537.015	473.558	456.036	0.00064342	0.00051681	0.00011424	649.02	2.9544e-06	5.5853e-06	662.59	283.07	3.6743e-06	6.4533e-06	323.8	140.88	125.51	69.498	6.4874e-06	76.399	0.00024522	0.00017445	4.9676e-05	650.97	1.9526e-06	1.8704e-06	667.35	285.84	1.9035e-06	1.8518e-06	325	142.35	127.68	70.786	1.9333e-06	77.437	237.500	276.166	294.882	191.826	340.717	318.719	190.958	197.153	328.116	313.170	195.300	198.943	201.308	205.755	328.835	202.613	-8191	255	
2194.911	1	1	0	0	0.064097	0.22154	0.10076	0.14472	0.19771	0.21162	0.21744	0.16181	0.086565	0.15229	0.041971	0.13055	0.21468	0.18869	0.10214	0.12985	-3.0667	-2.8458	-2.6708	-3.5333	-2.6146	-3.2458	-3.4208	-2.8812	-3.3896	-3.0104	-2.9562	-3.5167	-2.8563	-3.2354	-3.4	-2.7333	267.199	430.149	215.160	523.416	373.071	213.385	361.550	537.951	408.377	260.236	411.898	502.435	187.133	521.715	196.275	444.534	0.00067188	0.00051464	0.00012614	647.28	3.7438e-06	4.1339e-06	667.77	282.88	5.4407e-06	4.5128e-06	323.49	140.65	126.15	69.492	5.2445e-06	76.85	0.00024186	0.00017099	4.8261e-05	651.13	1.8888e-06	1.8954e-06	669.35	286.7	1.9544e-06	1.8599e-06	326.26	142.73	128.11	70.907	1.9664e-06	77.895	236.292	270.878	274.603	191.935	302.841	320.259	191.017	197.135	316.591	312.526	195.441	199.025	201.099	205.698	329.586	202.746	-8191	255	
2195.008	1	1	0	0	0.079891	0.25104	0.10573	0.38068	0.085942	0.10759	0.15534	0.1857	0.091931	0.26522	0.052698	0.13615	0.039525	0.14107	0.061154	0.21781	-3.125	-3.0938	-2.8021	-3.5125	-2.7958	-3.1458	-3.5833	-2.7729	-3.2646	-3.2313	-2.8208	-3.5187	-2.9167	-2.9688	-3.2833	-2.7667	268.061	306.990	270.339	521.434	201.619	406.705	364.103	488.297	191.598	425.754	254.364	224.470	524.794	219.083	236.295	474.772	0.0006531	0.00044688	0.00016215	647.79	3.6549e-06	2.598e-06	667.26	282.47	4.2415e-06	2.2808e-06	324.21	140.51	126.07	69.475	6.2897e-06	77.107	0.00024139	0.00017399	4.9074e-05	649.95	1.9079e-06	1.8805e-06	669.57	286.11	1.9028e-06	1.863e-06	326.84	142.87	127.86	70.838	1.9538e-06	77.894	234.823	288.191	275.561	192.053	319.773	338.142	190.739	197.212	337.158	302.943	194.521	198.383	201.449	205.990	336.959	203.021	-8191	255	
2195.127	1	1	0	0	0.16815	0.070909	0.084908	0.21484	0.15841	0.21199	0.17305	0.1431	0.16183	0.042036	0.22867	0.045377	0.20667	0.17202	0.12549	0.22298	-2.8729	-3.1208	-2.7042	-3.425	-3.0979	-2.975	-3.4688	-2.9604	-3.1271	-3.3104	-2.7125	-3.6312	-3.0687	-2.8312	-3.3896	-2.7521	500.623	313.164	411.888	515.221	191.674	234.217	490.317	524.092	371.974	224.189	490.879	522.773	481.180	219.141	193.588	364.262	0.00062912	0.00032956	0.00011633	645.77	2.8298e-06	5.5963e-06	663.83	282.51	3.3344e-06	4.1967e-06	324.37	141.25	125.66	69.85	4.2462e-06	77.261	0.00024579	0.00017288	4.8288e-05	649.76	1.9306e-06	1.9588e-06	667.18	285.64	1.943e-06	1.8625e-06	325.57	143.28	127.8	71.183	1.9569e-06	78.394	237.939	277.152	264.506	192.029	342.248	340.788	191.186	197.515	331.167	328.062	195.109	198.994	201.447	205.761	323.664	202.661	-8191	255	
2195.223	1	1	0	0	0.11967	0.36248	0.23693	0.13424	0.074442	0.0028144	0.075753	0.26409	0.16664	0.14121	0.30913	0.20912	0.13395	0.1443	0.24792	0.16004	-2.7687	-3.3	-2.5917	-3.4333	-2.9521	-2.5917	-3.575	-2.825	-3.1625	-3.5104	-2.8438	-3.3542	-3.3521	-2.8375	-3.4708	-2.9792	235.055	472.809	297.762	217.254	183.007	282.747	356.401	276.393	387.686	446.863	513.014	383.581	531.443	519.904	370.366	473.967	0.00066538	0.00058382	0.00013126	649.71	2.8976e-06	7.0676e-06	671.49	284.64	3.9813e-06	6.0092e-06	327.97	143.76	128.47	70.835	6.2735e-06	78.884	0.00024333	0.00016862	4.7282e-05	652.33	1.8902e-06	1.887e-06	671.79	288.97	1.8964e-06	1.804e-06	329.05	145.45	130.01	72.252	1.93e-06	79.785	236.072	288.703	261.797	192.247	337.227	330.793	190.496	197.282	327.582	322.781	195.272	198.923	201.624	205.709	328.409	202.586	-8191	255	
2195.295	1	1	0	0	0.066515	0.1927	0.38112	0.23307	0.28002	0.13526	0.20939	0.41597	0.19265	0.22651	0.16127	0.21514	0.13855	0.1965	0.21507	0.074519	-2.525	-3.3167	-2.6042	-3.2208	-3.2708	-2.8667	-3.45	-2.7375	-2.7021	-3.25	-2.6562	-3.1688	-3.2979	-2.8958	-3.3583	-2.9583	231.268	473.218	191.270	532.201	421.228	388.777	509.784	458.647	498.618	334.137	239.131	467.597	451.035	489.509	504.652	310.471	0.00066452	0.00053243	0.00017243	656.51	4.6732e-06	6.8128e-06	671.7	285.32	4.5559e-06	2.7037e-06	330.71	144.73	129.39	71.417	4.9696e-06	79.588	0.00023848	0.00016732	4.7776e-05	655.75	1.8791e-06	1.8438e-06	675.27	289.29	1.8995e-06	1.807e-06	331.2	146.27	130.83	72.823	1.8999e-06	80.551	233.309	258.346	283.643	191.968	339.376	331.824	191.000	197.268	320.574	330.824	195.436	198.309	200.789	205.509	332.885	202.167	-8191	255	
2195.416	1	1	0	0	0.10701	0.1853	0.15488	0.32283	0.14117	0.26388	0.27719	0.12911	0.065651	0.1431	0.22423	0.0512	0.2847	0.14481	0.20098	0.10049	-2.5167	-3.3333	-2.7104	-3.1083	-3.0938	-2.45	-3.3792	-3.2417	-2.6396	-3.4125	-2.6312	-3.0687	-3.4521	-2.7917	-3.4313	-3.2125	465.862	346.950	205.771	526.913	534.641	373.976	430.599	503.534	511.051	331.206	220.243	530.747	491.249	395.985	202.495	412.037	0.00066098	0.00059016	0.00017866	655.95	2.8306e-06	6.8006e-06	679.03	289.76	4.5745e-06	5.1481e-06	334.67	146.91	130.58	72.454	5.1392e-06	80.769	0.00024553	0.00016672	4.8298e-05	659.76	1.882e-06	1.8839e-06	682.09	293.81	1.9451e-06	1.7632e-06	335.94	148.64	132.57	73.861	1.8804e-06	81.734	235.571	269.145	255.642	191.760	302.501	350.349	190.818	197.269	345.151	304.248	195.327	198.595	201.297	205.574	308.510	202.659	-8191	255	
2195.512	1	1	0	0	0.16734	0.17373	0.17636	0.23284	0.039256	0.17616	0.087568	0.14616	0.13657	0.038761	0.29117	0.11672	0.10255	0.33706	0.19012	0.26336	-2.6146	-3.2542	-2.8979	-3.175	-3.5187	-2.5896	-3.2458	-3.2333	-2.7333	-3.5208	-2.7625	-3.1437	-3.4729	-2.6646	-3.3187	-3.1375	452.192	229.187	289.360	526.758	351.423	369.236	399.467	445.329	355.939	483.611	432.272	467.937	449.525	531.329	231.664	437.530	0.00069519	0.00041518	0.00016657	659.84	3.5004e-06	4.6937e-06	683.98	290.67	2.9002e-06	5.5688e-06	334.32	147.86	130.9	72.69	4.4197e-06	80.716	0.00024789	0.00016784	4.6758e-05	663.51	1.8455e-06	1.8503e-06	686.83	294.59	1.9208e-06	1.7621e-06	337.17	149.49	132.77	73.864	1.9404e-06	81.7	235.901	264.096	286.792	191.748	337.014	318.836	190.633	197.535	300.122	355.191	195.299	198.605	201.156	205.458	308.777	202.326	-8191	255	
2195.608	1	1	0	0	0.064554	0.23171	0.0672	0.085616	0.25933	0.097121	0.063571	0.27095	0.064751	0.21791	0.35762	0.27224	0.13585	0.34321	0.31874	0.18454	-2.3729	-3.2833	-2.8104	-2.7875	-3.425	-2.7833	-3.1667	-3.1979	-2.8438	-3.3771	-2.9875	-2.9604	-3.5521	-2.9354	-3.0167	-3.4375	357.424	213.922	284.091	192.205	305.223	254.849	181.521	509.293	364.616	497.778	485.957	478.465	198.912	530.368	358.799	443.249	0.00067318	0.00058874	0.00020624	660.5	4.6431e-06	4.9206e-06	679.04	291.66	5.2435e-06	4.2113e-06	337.48	148.18	131.63	72.52	4.2287e-06	80.383	0.00024492	0.00016188	4.6792e-05	663.45	1.796e-06	1.8183e-06	685.72	295.01	1.914e-06	1.8666e-06	337.39	149.26	133.26	73.783	1.9378e-06	81.307	237.016	252.621	266.023	191.936	312.182	345.197	190.909	197.304	328.503	314.155	195.278	198.547	201.176	205.567	344.007	202.496	-8191	255	
2195.729	1	1	0	0	0.17452	0.12502	0.10178	0.33035	0.10132	0.061124	0.17856	0.13445	0.42114	0.11024	0.043354	0.21016	0.1637	0.27892	0.19184	0.16015	-2.3229	-3.3958	-2.8292	-2.7875	-3.5396	-2.6104	-3.2646	-3.4604	-2.6375	-3.3937	-3.2417	-2.8417	-3.5479	-2.8292	-2.9188	-3.3937	442.197	384.442	205.126	401.754	467.560	500.186	335.579	492.230	245.845	444.254	300.863	355.034	194.682	195.850	379.446	204.754	0.0007036	0.00059435	0.00015155	662.57	4.294e-06	5.6258e-06	681.77	291.76	4.2095e-06	6.5619e-06	336.24	147.85	131.74	72.987	7.0635e-06	81.116	0.00025086	0.00016687	4.6738e-05	664.66	1.8679e-06	1.8593e-06	686.5	295.76	1.9196e-06	1.8537e-06	338.82	149.69	133.99	74.37	1.9389e-06	82.026	236.519	265.538	250.937	191.662	340.301	338.361	190.801	197.516	301.055	318.724	195.252	198.458	201.138	205.676	318.649	202.505	-8191	255	
2195.825	1	1	0	0	0.13454	0.14595	0.11519	0.11839	0.085596	0.33211	0.14328	0.30392	0.24398	0.069221	0.17506	0.12041	0.061465	0.25145	0.09419	0.28625	-2.2042	-3.2229	-2.9042	-2.8688	-3.4	-2.8958	-2.9125	-3.4896	-2.4479	-3.2188	-3.2583	-2.8083	-3.4521	-2.9333	-2.8937	-3.5104	480.625	392.322	359.691	276.475	290.234	184.513	491.539	510.952	528.476	523.532	432.659	189.168	507.664	500.007	216.753	488.682	0.00070037	0.00072698	0.00017338	668.69	4.1854e-06	5.5566e-06	690.63	293.48	3.4596e-06	4.6819e-06	339.71	148.44	132.42	73.18	5.3941e-06	81.022	0.00024716	0.00017027	4.6528e-05	671.26	1.8701e-06	1.7967e-06	693.94	298.27	1.919e-06	1.86e-06	341.11	150.18	134.45	74.619	1.9768e-06	82.26	235.351	265.801	278.031	192.076	329.882	344.344	191.002	197.575	316.597	342.303	195.404	198.561	201.288	205.554	310.564	202.556	-8191	255	
2195.919	1	1	0	0	0.05036	0.24938	0.14442	0.048644	0.17012	0.18877	0.15285	0.13856	0.037815	0.14776	0.077054	0.15915	0.19426	0.20327	0.16694	0.24392	-2.4521	-3.2667	-2.9604	-2.5917	-3.4375	-2.8125	-2.8458	-3.5938	-2.6562	-3.1958	-3.3771	-2.7104	-3.55	-3.2104	-2.8812	-3.5833	474.812	402.751	353.418	236.962	402.469	343.979	409.067	477.289	464.396	495.210	305.997	456.807	513.098	465.654	505.758	485.174	0.0006926	0.00067118	0.0001676	670.02	3.218e-06	3.7359e-06	685.13	294.02	4.7721e-06	7.055e-06	338.28	147.85	132.42	73.251	5.2939e-06	81.109	0.0002418	0.00016656	4.5622e-05	670.56	1.8336e-06	1.7707e-06	691	297.9	1.9009e-06	1.8566e-06	339.51	150.02	134.03	74.458	1.9724e-06	82.178	237.186	263.644	256.999	191.902	327.898	319.979	190.783	197.301	320.221	314.816	195.512	198.543	201.230	205.506	330.260	202.675	-8191	255	
2195.993	1	1	0	0	0.30369	0.25813	0.15751	0.07408	0.079657	0.050027	0.19852	0.30549	0.24667	0.042682	0.13541	0.29002	0.10551	0.14088	0.11694	0.085253	-2.3187	-2.9542	-3.2729	-2.5625	-3.1521	-2.9917	-2.9292	-3.4458	-2.8021	-2.9396	-3.325	-2.6771	-3.3	-3.1354	-2.6958	-3.5292	216.692	321.537	474.798	438.121	408.284	277.917	498.145	529.029	516.703	343.402	536.901	479.015	527.725	186.149	393.056	488.138	0.00070013	0.00069164	0.00013257	660.15	4.9439e-06	6.1709e-06	681.2	289.72	4.3821e-06	4.927e-06	331.88	145.58	129.7	71.995	5.7421e-06	79.641	0.00024672	0.0001689	4.6499e-05	663.79	1.8715e-06	1.8487e-06	683.92	293.31	1.9177e-06	1.9031e-06	333.94	147.37	131.5	73.35	1.9739e-06	80.741	235.385	259.329	268.198	191.835	332.388	321.800	190.967	197.462	324.245	337.545	195.474	198.712	201.088	205.753	321.482	202.627	-8191	255	
2196.112	1	1	0	0	0.052096	0.1194	0.040667	0.11795	0.18216	0.15092	0.34567	0.077779	0.26505	0.05173	0.2194	0.15773	0.34171	0.25173	0.042514	0.020848	-2.4604	-2.8896	-3.3125	-2.8604	-3.1688	-3.1542	-2.7979	-3.5479	-2.9375	-2.675	-3.55	-2.8229	-3.0792	-3.3875	-2.6875	-3.4313	468.296	264.813	405.646	182.153	365.793	532.981	537.656	538.135	253.186	200.759	458.040	206.100	221.061	526.050	207.992	377.082	0.0006777	0.00033218	0.00010908	656.76	3.7449e-06	4.52e-06	676.5	288.64	5.069e-06	4.6143e-06	331.2	144.64	129.83	71.876	5.6024e-06	79.409	0.00024445	0.00016642	4.5546e-05	658.59	1.8415e-06	1.8332e-06	678.03	292	1.9127e-06	1.8499e-06	332.35	146.62	131.29	73.101	1.9497e-06	80.395	237.090	252.363	285.974	191.721	324.578	347.779	191.086	197.510	320.304	319.390	195.265	198.574	201.101	205.637	332.887	202.688	-8191	255	
2196.208	1	1	0	0	0.23334	0.06694	0.095234	0.35343	0.078488	0.3217	0.058994	0.18777	0.04888	0.076063	0.12275	0.16607	0.25874	0.12227	0.19104	0.11516	-2.8458	-2.675	-3.425	-2.7917	-3.3104	-3.3542	-2.6875	-3.4833	-3.1021	-2.7521	-3.4458	-2.8042	-3.05	-3.4562	-2.5625	-3.3396	452.896	490.098	433.500	524.742	339.319	248.810	250.261	320.781	278.559	418.793	422.609	499.448	190.995	464.480	397.212	409.551	0.00067816	0.00068701	0.00017227	652.86	5.8443e-06	4.3265e-06	671.26	285.81	4.9836e-06	5.7091e-06	326.9	143.21	128.51	71.325	4.9323e-06	78.906	0.00024361	0.00017357	4.7054e-05	655.56	1.9011e-06	1.7945e-06	674.15	289.15	1.8837e-06	1.823e-06	328.45	145.45	130.26	72.75	1.8858e-06	80.081	236.906	258.918	273.410	192.058	331.279	346.807	191.061	197.355	331.811	333.774	194.982	198.528	200.873	205.675	321.394	202.312	-8191	255	
2196.304	1	1	0	0	0.072061	0.15327	0.20687	0.25362	0.11958	0.094911	0.41331	0.082136	0.25242	0.17881	0.081352	0.15427	0.17047	0.29759	0.15575	0.085784	-2.5854	-2.7	-3.3229	-2.9062	-2.9125	-3.3729	-2.7146	-3.3458	-3.2229	-2.6625	-3.5438	-2.8396	-2.8104	-3.6146	-2.7646	-3.3708	494.684	199.352	413.272	456.190	270.242	461.353	472.547	494.140	495.362	386.161	363.310	264.372	212.985	537.081	437.825	238.934	0.0006524	0.00051775	0.00015786	647.28	4.4214e-06	5.6709e-06	666.64	284.08	4.0126e-06	2.7542e-06	326.91	144.91	129.25	71.834	6.4253e-06	80.063	0.00024107	0.00016829	4.5706e-05	650.66	1.8743e-06	1.8069e-06	670.57	287.84	1.8505e-06	1.8237e-06	328.31	146.27	130.85	73.204	1.966e-06	81.197	235.182	254.967	267.657	192.062	327.130	319.673	190.773	197.307	313.448	310.600	195.177	198.724	201.183	205.693	327.632	202.494	-8191	255	
2196.400	1	1	0	0	0.20366	0.16254	0.10965	0.22736	0.12768	0.12365	0.28269	0.08366	0.1836	0.26945	0.39815	0.32186	0.29481	0.15486	0.054765	0.12053	-2.7938	-2.7208	-3.4333	-3.0438	-2.8854	-3.4896	-2.7354	-3.4042	-3.2958	-2.7146	-3.4688	-3.1875	-2.6937	-3.5812	-2.7208	-3.2375	220.999	411.747	262.730	207.937	517.876	488.093	488.873	515.072	197.335	219.903	488.719	450.139	212.575	517.363	374.051	471.700	0.00070099	0.00060467	6.6892e-05	649.65	3.6694e-06	3.6821e-06	668.87	285.2	5.4178e-06	3.8778e-06	329.08	145.74	129.36	72.568	4.7926e-06	81.701	0.00024346	0.00016798	4.6139e-05	652.49	1.851e-06	1.7774e-06	673.21	289.11	1.8696e-06	1.8039e-06	330.28	147.84	131.41	73.926	1.9228e-06	82.494	238.635	243.731	321.132	192.026	319.309	336.978	191.081	197.585	295.885	315.372	195.509	198.900	200.998	205.925	333.261	202.502	-8191	255	
2196.521	1	1	0	0	0.15021	0.025492	0.32174	0.088823	0.076002	0.056867	0.20085	0.098956	0.25638	0.11036	0.10583	0.18672	0.15629	0.22937	0.1187	0.12003	-3.0729	-2.6	-3.3375	-3.3167	-2.6146	-3.6333	-2.8063	-3.1542	-3.4354	-2.6229	-3.3104	-3.1021	-2.6667	-3.4833	-2.8792	-2.9229	433.415	263.084	232.709	455.760	206.211	244.016	463.497	484.417	520.014	289.558	518.213	482.555	378.755	471.495	404.035	313.130	0.00069238	0.00059562	0.00015218	650.54	4.9771e-06	6.0745e-06	670.49	287.02	3.8913e-06	4.783e-06	326.32	146.17	130.16	72.157	5.5093e-06	80.807	0.00024295	0.00016719	4.5591e-05	654.17	1.8697e-06	1.7711e-06	675.08	289.9	1.8125e-06	1.7891e-06	329.95	147.72	131.84	73.742	1.9106e-06	81.949	237.153	251.457	275.350	192.063	341.339	334.951	190.994	197.608	334.058	336.052	195.214	198.648	201.020	205.764	310.371	202.517	-8191	255	
2196.592	1	1	0	0	0.18598	0.12156	0.16595	0.23215	0.10103	0.15867	0.2946	0.26123	0.08445	0.10738	0.19712	0.40228	0.20161	0.26742	0.1127	0.21315	-2.9667	-2.4354	-3.1479	-3.2875	-2.6188	-3.4375	-2.7917	-2.95	-3.3375	-2.5646	-3.0917	-3.3896	-2.8354	-3.5229	-2.9021	-2.8104	184.123	441.810	524.748	489.972	328.038	447.440	451.370	508.448	534.659	423.041	435.423	516.903	475.019	185.512	412.488	501.122	0.00070416	0.00047119	0.00015216	653.75	3.4316e-06	6.9246e-06	676.09	289.01	3.9294e-06	5.4202e-06	333.77	149.67	132.87	74.244	4.8587e-06	83.431	0.00023868	0.00016724	4.5402e-05	656.18	1.8452e-06	1.7233e-06	679.15	292.94	1.7983e-06	1.7382e-06	335.9	151.18	135.03	75.735	1.8192e-06	84.5	236.855	245.253	275.068	192.081	337.274	318.105	191.084	197.417	331.651	349.031	195.453	198.652	201.075	205.668	318.850	202.211	-8191	255	
2196.688	1	1	0	0	0.05708	0.16777	0.097471	0.34485	0.28274	0.31445	0.35007	0.18953	0.15153	0.158	0.23404	0.20681	0.25385	0.13087	0.030557	0.42184	-3.0229	-2.6937	-3.1625	-3.2938	-2.5042	-3.3042	-2.9688	-2.7333	-3.3937	-2.8	-3.1729	-3.325	-2.8083	-3.5187	-3.1583	-2.8479	201.746	192.118	231.584	186.933	425.404	341.753	355.767	472.847	435.830	367.762	471.048	504.282	513.130	532.557	512.410	496.166	0.00073698	0.00034427	0.0001511	670.14	5.3184e-06	6.3662e-06	692.72	297.52	5.0931e-06	5.4625e-06	343.81	153.7	137.07	76.348	6.1738e-06	85.804	0.00024164	0.0001596	4.4543e-05	671.05	1.778e-06	1.7075e-06	697.19	301.11	1.7921e-06	1.7204e-06	345.64	155.87	138.72	77.788	1.8606e-06	86.787	234.631	259.365	278.822	192.000	335.948	327.273	191.155	197.438	318.268	315.263	195.176	198.614	201.094	205.686	309.139	202.638	-8191	255	
2196.809	1	1	0	0	0.14994	0.1725	0.41205	0.34232	0.088108	0.15381	0.28241	0.28062	0.18889	0.203	0.12767	0.10326	0.10179	0.16775	0.22652	0.26941	-3.1354	-2.825	-3.0167	-3.3812	-2.6583	-3.4396	-3.2812	-2.6437	-3.4167	-2.8833	-3.1	-3.5375	-2.8354	-3.3438	-3.2521	-2.6167	361.119	417.764	359.675	518.959	305.995	234.973	411.907	204.186	447.843	531.374	495.593	229.986	191.679	521.235	482.243	489.446	0.00071831	0.00072695	0.00014404	677.48	3.7601e-06	4.6867e-06	704.14	302.28	4.9788e-06	5.8392e-06	353.27	157.8	139.71	77.611	6.3262e-06	87.296	0.00024219	0.00016445	4.4403e-05	680.73	1.7893e-06	1.7018e-06	709.02	306.38	1.8528e-06	1.7533e-06	353.57	159.45	141.16	79.054	1.8484e-06	88.356	236.638	278.484	274.791	191.910	332.300	329.911	191.229	197.415	316.101	307.290	195.463	198.930	201.172	205.490	325.013	202.377	-8191	255	
2196.903	1	1	0	0	0.15366	0.092734	0.042262	0.29791	0.13164	0.11363	0.17751	0.06657	0.10095	0.27883	0.1915	0.1069	0.27016	0.26511	0.098747	0.19173	-3.0979	-2.8042	-2.8875	-3.6688	-2.8792	-3.0896	-3.4167	-2.7208	-3.2792	-3.0208	-2.7604	-3.4479	-2.8229	-3.3396	-3.2542	-2.8583	186.212	193.658	222.583	469.434	348.924	530.485	446.667	418.755	343.931	228.551	282.110	204.505	497.521	517.149	445.977	490.799	0.00070941	0.00070473	0.00018368	684.03	6.0541e-06	3.9205e-06	708.28	302.25	5.2205e-06	5.5956e-06	348.68	156.02	137.83	77.088	7.4944e-06	86.575	0.00024602	0.00016513	4.6633e-05	684.74	1.8425e-06	1.7867e-06	710.1	305.71	1.8646e-06	1.7924e-06	351.42	158.11	139.85	78.421	1.8487e-06	87.655	235.392	262.500	263.141	192.074	338.463	332.978	191.259	197.413	328.839	317.922	195.474	198.419	201.353	205.743	336.842	202.425	-8191	255	
2197.000	1	1	0	0	0.034718	0.17647	0.32649	0.21797	0.18328	0.09199	0.11902	0.059913	0.076712	0.062295	0.090875	0.068954	0.25035	0.0097928	0.23733	0.068051	-2.9917	-3.0771	-2.85	-3.5417	-2.9729	-3.1271	-3.3792	-2.6646	-3.3271	-3.2188	-2.925	-3.6292	-2.85	-3.2208	-3.3812	-2.6813	401.764	279.757	304.687	184.738	496.328	266.880	451.332	497.164	185.525	301.732	497.772	409.430	238.004	538.464	394.123	417.215	0.00076507	0.00059223	9.2718e-05	680.77	4.8012e-06	6.1968e-06	706.34	301.88	3.9978e-06	6.3628e-06	348.44	155.66	138.72	76.949	6.369e-06	86.151	0.00025019	0.00015972	4.5757e-05	683.4	1.7844e-06	1.7695e-06	707.34	306.01	1.8069e-06	1.7469e-06	350.78	157.8	140.35	78.399	1.8915e-06	87.002	233.506	259.832	257.380	191.933	338.006	325.838	190.857	197.313	321.395	321.695	195.347	198.692	201.054	205.821	322.275	202.608	-8191	255	
2197.098	1	1	0	0	0.039277	0.1574	0.23186	0.18293	0.079335	0.18769	0.1087	0.33896	0.25142	0.19529	0.22819	0.20192	0.2393	0.16975	0.2656	0.23653	-2.8333	-3.1667	-2.6146	-3.4729	-2.8958	-2.8292	-3.3958	-2.7583	-3.2	-3.2875	-2.8	-3.5104	-3.1312	-2.875	-3.3771	-2.8354	401.877	190.839	251.245	359.936	357.234	341.480	462.641	519.999	325.883	371.624	534.701	475.581	449.375	513.767	513.011	191.438	0.00079205	0.00058975	0.00011186	683.05	4.0188e-06	5.5241e-06	710.56	305	3.4192e-06	4.7184e-06	353.44	157.4	140.51	78.157	4.475e-06	87.467	0.0002481	0.00015939	4.6195e-05	685.83	1.8058e-06	1.7629e-06	712.68	309.21	1.8479e-06	1.7637e-06	355.77	160	142.32	79.611	1.8799e-06	88.58	236.605	271.114	267.132	191.746	331.746	337.411	191.027	197.504	309.223	324.070	195.526	198.518	201.155	205.632	311.557	202.287	-8191	255	
2197.192	1	1	0	0	0.062919	0.042278	0.20393	0.23493	0.17156	0.20766	0.09324	0.18823	0.25357	0.17216	0.0513	0.22495	0.065474	0.047202	0.15635	0.094577	-2.5146	-3.2625	-2.6688	-3.5125	-2.95	-2.8667	-3.4229	-2.8229	-3.2208	-3.2938	-2.6646	-3.2917	-3.1792	-2.9625	-3.4708	-3.0083	328.425	425.697	185.961	516.396	513.228	445.245	488.362	495.208	460.569	502.925	481.699	393.845	256.299	229.999	369.981	507.940	0.00074119	0.00039683	0.00016105	689.43	3.1437e-06	4.7563e-06	714.29	306.67	5.4465e-06	4.713e-06	355.36	159.11	140.25	78.237	4.8006e-06	88.025	0.00024838	0.00015914	4.6269e-05	691.73	1.8149e-06	1.8247e-06	716.36	310.5	1.8603e-06	1.7576e-06	356.97	160.82	142.28	79.679	1.8449e-06	88.837	236.953	267.463	269.627	192.180	325.407	328.577	191.003	197.568	330.666	321.044	194.896	198.412	201.087	205.562	321.025	202.485	-8191	255	
2197.288	1	1	0	0	0.1805	0.034268	0.11483	0.043082	0.13502	0.19395	0.24963	0.26892	0.063255	0.11054	0.038723	0.096601	0.05191	0.20096	0.12215	0.12945	-2.6146	-3.2292	-2.5458	-3.3417	-2.9729	-2.6437	-3.3604	-3.0958	-2.8063	-3.3812	-2.5646	-3.3479	-3.1771	-2.9458	-3.3771	-2.7583	292.828	290.429	236.216	342.097	256.230	209.418	488.769	441.108	317.882	332.344	182.942	361.597	414.514	446.854	277.080	448.055	0.00075611	0.00035305	0.00014466	691.11	4.0761e-06	5.687e-06	719.23	306.85	2.9602e-06	4.656e-06	356.95	160.1	142.31	79.095	7.7048e-06	88.925	0.00025354	0.00016033	4.5992e-05	693.29	1.8225e-06	1.7973e-06	721.84	311.67	1.9105e-06	1.7368e-06	359.48	162.19	143.86	80.465	1.9265e-06	89.897	235.434	269.496	256.049	191.875	350.008	326.892	190.932	197.752	320.596	331.703	195.291	198.571	201.190	205.458	313.607	202.657	-8191	255	
2197.409	1	1	0	0	0.1254	0.080619	0.28414	0.35753	0.033678	0.059253	0.1959	0.04069	0.069042	0.17364	0.11614	0.17776	0.34512	0.12325	0.087092	0.16582	-2.4958	-3.2146	-2.5521	-3.325	-3.2458	-2.8125	-3.4813	-3.15	-2.6937	-3.3292	-2.6937	-3.2375	-3.5208	-2.8292	-3.4021	-3.1042	409.966	315.853	389.419	500.016	409.230	506.452	497.900	342.655	404.856	227.775	499.722	423.323	451.660	488.759	535.988	295.118	0.00076691	0.00061566	0.00014079	692.22	5.3514e-06	4.509e-06	720.29	310.29	3.0264e-06	5.7066e-06	361.2	161.9	142.7	79.679	7.0912e-06	89.737	0.00025291	0.00016175	4.6462e-05	696.24	1.8368e-06	1.8025e-06	724.58	313.42	1.8881e-06	1.7423e-06	362.69	163.95	144.69	81.214	1.8458e-06	90.92	235.638	269.108	274.526	192.017	319.675	318.472	191.081	197.436	330.310	297.068	195.196	198.180	201.163	205.441	306.386	202.360	-8191	255	
2197.505	1	1	0	0	0.15158	0.16057	0.16483	0.10765	0.12847	0.22004	0.16925	0.2091	0.18938	0.029695	0.15986	0.08125	0.28595	0.17268	0.20482	0.25146	-2.4896	-3.5604	-2.6688	-3.1708	-3.3	-2.6583	-3.4229	-3.1333	-2.8063	-3.3604	-2.8792	-3.1271	-3.4813	-2.8396	-3.3292	-3.3	484.440	354.998	518.125	209.789	293.359	494.548	185.162	516.549	423.308	500.723	436.964	538.608	197.561	519.803	264.482	456.849	0.00078084	0.00074199	0.00014465	700.58	3.6802e-06	4.9601e-06	729.24	313.23	5.935e-06	5.4331e-06	365.42	164.44	144.75	80.524	6.2407e-06	90.742	0.00025259	0.00016207	4.4873e-05	703.39	1.7483e-06	1.7635e-06	732.3	317.28	1.8573e-06	1.7068e-06	367.45	166.4	146.76	82.042	1.8908e-06	91.963	236.255	260.017	263.587	191.923	335.241	339.587	190.968	197.500	326.702	314.708	195.291	198.404	201.001	205.363	321.251	202.296	-8191	255	
2197.601	1	1	0	0	0.17401	0.15323	0.26642	0.057052	0.076893	0.38353	0.27019	0.24631	0.14577	0.065282	0.18241	0.17423	0.22052	0.11663	0.23919	0.22847	-2.2583	-3.3438	-2.7875	-3.1188	-3.3229	-2.4625	-3.2521	-3.3604	-2.8812	-3.2687	-2.9542	-2.8937	-3.6833	-2.8583	-3.1875	-3.2875	256.767	426.351	254.549	505.726	417.910	527.471	198.265	194.021	203.700	341.646	477.416	483.732	500.953	505.236	535.061	438.437	0.00079202	0.00060452	0.00014179	702.59	4.9283e-06	8.9616e-06	731.19	313.9	4.9942e-06	4.784e-06	364.96	164.39	144.99	80.441	6.2326e-06	90.467	0.00025211	0.00015856	4.5613e-05	704.63	1.7769e-06	1.7312e-06	734.89	318.07	1.859e-06	1.7103e-06	367.68	166.41	146.56	81.902	1.8516e-06	91.557	234.905	261.731	277.295	191.906	337.748	317.546	191.058	197.565	305.388	337.401	195.313	198.292	201.169	205.623	324.321	202.442	-8191	255	
2197.697	1	1	0	0	0.16004	0.078525	0.20668	0.11151	0.17062	0.16	0.132	0.16362	0.14502	0.18651	0.19295	0.35807	0.25441	0.13802	0.093361	0.27935	-2.3688	-3.2875	-3.0083	-2.9292	-3.2896	-2.4646	-3.1375	-3.3771	-2.6375	-3.3937	-3.0104	-2.9313	-3.4104	-2.9875	-2.9771	-3.3375	514.087	389.944	295.945	228.703	210.348	487.980	413.642	528.942	436.915	486.075	376.774	537.026	464.996	459.865	280.244	411.769	0.00075926	0.00055804	0.0001898	698.57	3.556e-06	4.355e-06	727.91	313.64	3.8286e-06	2.9675e-06	365.14	165.15	144.55	80.485	7.152e-06	90.479	0.00025001	0.00015833	4.5035e-05	702.33	1.7517e-06	1.7387e-06	732.59	317.04	1.8425e-06	1.7358e-06	367.63	166.69	146.48	81.86	1.9198e-06	91.768	234.192	251.903	256.398	191.817	325.236	347.416	190.920	197.456	312.126	331.441	195.258	198.455	201.106	205.311	318.170	202.419	-8191	255	
2197.818	1	1	0	0	0.17731	0.20102	0.17405	0.35426	0.18462	0.19603	0.29064	0.095992	0.11071	0.21438	0.16488	0.16185	0.09088	0.164	0.17551	0.30224	-2.3521	-3.3042	-2.9542	-2.8646	-3.375	-2.8708	-3.1354	-3.5208	-2.6875	-3.4417	-3.1937	-2.7438	-3.4833	-2.9417	-2.8792	-3.4708	535.530	250.934	416.085	470.720	317.883	312.988	518.772	530.180	482.188	473.003	434.019	465.029	520.533	498.627	382.463	208.654	0.00076704	0.00057044	0.00015287	701.98	4.2361e-06	5.7355e-06	730.69	315.52	4.6169e-06	4.5936e-06	366.56	164.42	144.63	79.967	5.8181e-06	90.14	0.00025706	0.00016453	4.5534e-05	705.3	1.8034e-06	1.7272e-06	734.95	318.52	1.882e-06	1.7362e-06	368.21	166.43	146.22	81.371	1.8912e-06	91.178	235.826	256.470	267.209	192.019	337.506	337.442	190.728	197.503	308.146	311.776	195.192	198.467	201.155	205.371	324.756	202.352	-8191	255	
2197.889	1	1	0	0	0.16577	0.17467	0.17578	0.075138	0.19084	0.18202	0.10378	0.033783	0.058242	0.14997	0.3025	0.21582	0.22097	0.35315	0.039183	0.11908	-2.2792	-3.1792	-3.1437	-2.7062	-3.4375	-2.9042	-3.0625	-3.5438	-2.7	-3.1688	-3.4208	-2.9375	-3.6104	-3.0271	-2.75	-3.4938	366.436	286.184	489.977	534.527	311.104	430.571	535.054	307.928	484.934	473.691	482.039	190.425	489.440	494.677	196.365	434.568	0.00076843	0.00073113	0.00015525	698.69	4.3293e-06	4.8323e-06	725.26	311.05	4.1066e-06	7.165e-06	360.24	161.02	141.78	78.77	6.1457e-06	88.528	0.00025438	0.00016449	4.4927e-05	700.21	1.8144e-06	1.7579e-06	727.91	314.43	1.8638e-06	1.7541e-06	361.73	163.05	143.49	80.156	1.8722e-06	89.593	235.840	245.393	286.013	191.788	312.645	342.806	191.017	197.555	315.037	314.267	195.024	198.678	200.954	205.741	318.609	202.366	-8191	255	
2197.984	1	1	0	0	0.1637	0.14207	0.25302	0.13526	0.046451	0.032884	0.024523	0.18248	0.12621	0.1799	0.13622	0.32471	0.27377	0.24124	0.2432	0.042078	-2.45	-3.0729	-3.3312	-2.675	-3.2625	-3.0792	-2.9938	-3.4938	-2.7375	-3.0604	-3.4229	-2.7708	-3.4437	-3.2438	-2.7125	-3.6437	299.425	315.634	432.554	476.917	496.676	462.371	250.901	416.886	306.471	194.302	511.044	194.884	465.389	530.605	448.267	517.784	0.00076405	0.00072638	0.00013362	691.22	3.617e-06	4.2462e-06	716.42	308.63	5.3878e-06	5.2473e-06	356.27	159.92	140.84	78.095	4.8622e-06	87.29	0.00025169	0.00016487	4.5409e-05	695.48	1.813e-06	1.7584e-06	722.6	312.6	1.8742e-06	1.7803e-06	359.28	161.46	142.64	79.514	1.8978e-06	88.379	236.773	274.403	281.007	191.837	331.645	349.360	191.049	197.452	325.320	320.232	195.206	198.313	201.213	205.755	320.880	202.420	-8191	255	
2198.080	1	1	0	0	0.16951	0.13655	0.27725	0.24368	0.11165	0.21211	0.25307	0.21867	0.1446	0.22318	0.08678	0.07046	0.26324	0.1229	0.11291	0.32405	-2.3792	-2.9792	-3.2417	-2.7313	-3.2146	-3.1333	-2.8833	-3.5229	-2.9188	-2.8021	-3.4646	-2.625	-3.4208	-3.2208	-2.6458	-3.5812	240.087	510.099	298.657	452.262	180.412	438.574	415.738	524.953	187.744	253.536	350.672	393.388	415.005	271.180	198.644	182.217	0.00075418	0.0005797	0.0001391	687	3.1079e-06	4.2388e-06	713.09	307.26	4.9577e-06	4.2384e-06	356.77	158.86	140.46	78.225	5.1381e-06	87.618	0.00024707	0.00016268	4.4668e-05	691.15	1.78e-06	1.76e-06	717.7	310.56	1.8701e-06	1.7633e-06	357.85	161.04	142.49	79.61	1.9326e-06	88.912	237.479	264.251	252.129	192.077	349.339	322.567	191.124	197.747	320.134	308.514	195.627	198.543	201.065	205.703	313.021	202.674	-8191	255	
2198.201	1	1	0	0	0.055923	0.30154	0.11308	0.23634	0.20137	0.12363	0.15213	0.27249	0.083459	0.11191	0.273	0.11491	0.20722	0.19373	0.15558	0.12996	-2.4562	-2.7271	-3.3208	-2.7854	-3.0604	-3.1437	-2.7583	-3.4458	-2.9521	-2.8583	-3.4667	-2.6208	-3.1333	-3.4562	-2.5104	-3.4396	538.291	442.770	401.728	465.960	263.636	182.164	409.919	242.224	258.813	400.527	397.934	364.328	518.440	490.756	408.731	452.685	0.00078217	0.00043839	0.00022641	691.52	4.4339e-06	5.1105e-06	715.77	308.11	4.2303e-06	5.5226e-06	357.38	160.14	141.67	78.611	7.7763e-06	88.27	0.00025086	0.00016302	4.5681e-05	692.91	1.8058e-06	1.7541e-06	720.99	311.93	1.8259e-06	1.7416e-06	360.62	162.29	143.69	80.047	1.9017e-06	89.598	237.455	274.782	254.453	191.935	345.648	323.168	190.972	197.725	320.870	329.912	195.460	198.744	200.926	205.633	307.450	202.592	-8191	255	
2198.297	1	1	0	0	0.17838	0.18756	0.063361	0.20805	0.20791	0.23176	0.071927	0.072237	0.21984	0.0459	0.070664	0.206	0.15353	0.030705	0.039777	0.15174	-2.7687	-2.6958	-3.3458	-2.6771	-3.0604	-3.3917	-2.7	-3.4625	-3.1188	-2.7313	-3.6312	-2.9083	-2.9958	-3.4708	-2.4979	-3.2438	267.011	413.175	486.260	438.269	293.344	516.455	473.821	195.773	337.193	195.520	318.827	272.330	485.260	395.400	228.258	462.026	0.00075772	0.00058075	0.00012205	696.94	5.8517e-06	7.204e-06	722.94	312.43	4.2028e-06	4.7752e-06	361.2	162.48	142.08	79.346	6.6122e-06	89.248	0.00025001	0.00015967	4.4773e-05	698.74	1.7864e-06	1.748e-06	726.53	315.72	1.8014e-06	1.7422e-06	364.27	164	144.48	80.69	1.886e-06	90.32	236.908	250.221	255.052	192.076	317.926	336.399	191.002	197.476	328.949	316.838	195.249	198.734	200.924	205.762	317.224	202.165	-8191	255	
2198.393	1	1	0	0	0.19467	0.40058	0.077252	0.26442	0.038589	0.088906	0.2005	0.075622	0.058765	0.11129	0.036593	0.10011	0.036675	0.16863	0.18653	0.15109	-2.9062	-2.6292	-3.3708	-2.8708	-2.9292	-3.4313	-2.7917	-3.2271	-3.1333	-2.7313	-3.5917	-2.9708	-2.8771	-3.5083	-2.6583	-3.3146	508.144	452.336	426.932	211.279	487.907	537.951	378.617	220.574	410.356	348.519	207.406	367.645	356.134	435.948	245.848	484.947	0.0007797	0.00051209	0.00014838	699.33	3.1467e-06	5.8054e-06	725.55	311.23	5.3918e-06	3.9629e-06	362.22	162.09	142.27	79.248	5.3856e-06	88.751	0.00024684	0.00016199	4.443e-05	700.35	1.7947e-06	1.7108e-06	730.12	315.68	1.7802e-06	1.7729e-06	364.21	163.98	144.23	80.567	1.8479e-06	89.88	236.369	284.242	261.482	191.953	348.115	332.791	190.988	197.382	329.928	322.141	195.473	198.658	201.146	205.467	321.265	202.600	-8191	255	
2198.489	1	1	0	0	0.14047	0.28102	0.18928	0.12967	0.13801	0.024435	0.1071	0.20674	0.23821	0.047791	0.038669	0.16976	0.15761	0.12965	0.22555	0.15824	-2.9729	-2.5792	-3.2125	-3.1042	-2.8104	-3.3896	-2.8458	-2.9833	-3.3292	-2.625	-3.4146	-3.2125	-2.8083	-3.7062	-2.9979	-3.1437	480.909	354.167	402.239	188.127	279.327	539.282	502.769	262.258	461.389	446.970	511.339	474.936	473.670	448.903	419.229	443.130	0.00078546	0.0005934	0.00011792	696.12	3.7232e-06	5.0875e-06	722.5	310.46	4.5188e-06	4.8668e-06	359.82	161.58	142.17	79.283	5.5211e-06	89.031	0.00024768	0.00016649	4.3789e-05	698.29	1.7471e-06	1.6601e-06	724.6	313.74	1.7604e-06	1.6902e-06	361.82	163.19	144.3	80.682	1.8556e-06	90.016	236.394	258.552	272.528	192.045	315.828	332.137	191.167	197.346	318.215	337.476	195.177	198.693	200.966	205.495	321.402	202.391	-8191	255	
2198.585	1	1	0	0	0.09394	0.19954	0.13111	0.11618	0.19616	0.1762	0.21933	0.12461	0.13866	0.10578	0.23367	0.07328	0.13442	0.22836	0.069361	0.21979	-2.9229	-2.8271	-3.5021	-3.2667	-2.8458	-3.4958	-2.9521	-3.1917	-3.4229	-2.8292	-3.2146	-3.3	-2.8021	-3.5583	-2.7854	-2.8125	455.054	257.075	315.238	458.329	406.407	450.401	494.293	534.632	388.039	206.076	534.447	327.800	438.328	479.884	393.240	494.668	0.00077785	0.00057865	0.00017875	695.17	3.876e-06	6.3682e-06	722.71	308.77	3.6623e-06	4.8248e-06	361.28	161.02	142.55	79.284	5.3866e-06	89.088	0.00024644	0.00016085	4.3804e-05	698.84	1.7538e-06	1.7227e-06	725.65	313.34	1.7639e-06	1.7501e-06	361.33	163.19	144.24	80.581	1.8304e-06	90.318	236.391	252.601	266.731	192.074	325.518	324.343	191.242	197.560	321.030	325.485	195.152	198.785	200.954	205.641	317.819	202.362	-8191	255	
2198.681	1	1	0	0	0.18222	0.13008	0.23215	0.23714	0.089199	0.097581	0.17026	0.16895	0.093296	0.19523	0.21944	0.19194	0.10366	0.21553	0.16878	0.23229	-3.0771	-2.4625	-3.0292	-3.3292	-2.7687	-3.3479	-2.9188	-3.0479	-3.4208	-2.8729	-3.1208	-3.3688	-2.5979	-3.5229	-2.9479	-3	254.504	382.914	380.336	408.349	343.088	251.355	364.374	537.145	376.036	477.895	402.282	477.328	182.143	424.550	460.954	475.417	0.00080169	0.0006339	0.00016097	695.65	4.3265e-06	4.6929e-06	726.85	310.57	5.1087e-06	6.9799e-06	360.06	163.1	143.49	80.311	5.4776e-06	90.094	0.00024866	0.00016156	4.5409e-05	697.78	1.7681e-06	1.7397e-06	728.35	314.54	1.7846e-06	1.6935e-06	362.31	165.1	145.49	81.635	1.8413e-06	91.548	238.170	273.048	258.799	191.941	349.806	331.373	191.265	197.277	310.654	307.164	195.411	198.924	200.981	205.581	329.749	202.425	-8191	255	
2198.778	1	1	0	0	0.15367	0.24755	0.05711	0.18768	0.074697	0.13469	0.071973	0.24	0.12677	0.081087	0.041615	0.19692	0.23084	0.2095	0.42387	0.080395	-2.9708	-2.6979	-2.8458	-3.3229	-2.4833	-3.1479	-3.1125	-2.9917	-3.3396	-2.6792	-2.9875	-3.3	-2.7417	-3.3479	-3.1896	-2.7125	502.004	230.358	508.571	209.820	389.762	284.090	430.911	489.778	396.750	277.635	240.932	434.874	492.780	187.595	341.908	258.987	0.00076499	0.00054948	0.00017506	697.88	5.4206e-06	5.198e-06	723.77	310.13	3.5708e-06	4.1734e-06	360.61	163.12	142.93	79.964	6.3582e-06	89.673	0.00024701	0.00015951	4.3099e-05	699.82	1.7541e-06	1.6862e-06	727.58	314.15	1.7778e-06	1.7024e-06	363.13	165.11	145.2	81.35	1.8425e-06	90.793	235.903	269.997	266.043	192.074	320.238	332.994	191.167	197.503	336.517	320.081	195.317	198.757	201.205	205.686	326.713	202.288	-8191	255	
2198.898	1	1	0	0	0.11056	0.096134	0.12498	0.10086	0.099243	0.26088	0.093258	0.25508	0.085917	0.19644	0.08302	0.14561	0.22345	0.32278	0.16834	0.099106	-3.0854	-2.9083	-2.8646	-3.4083	-2.4917	-3.2792	-3.3083	-2.7687	-3.4083	-2.9396	-3.1104	-3.4521	-2.9562	-3.1958	-3.3625	-2.8271	433.731	362.066	352.621	528.414	236.455	494.698	474.888	483.254	420.547	270.816	431.544	488.037	324.836	197.566	364.521	350.665	0.00074618	0.00074793	0.00017906	694.89	5.4415e-06	4.8576e-06	718.47	307.06	5.5453e-06	3.6586e-06	352.82	156.91	138.92	76.978	4.8181e-06	85.771	0.00024461	0.00016072	4.5196e-05	696.15	1.8185e-06	1.6988e-06	721.99	310.65	1.8438e-06	1.7992e-06	353.32	158.6	140.89	78.409	1.8707e-06	86.868	235.587	264.213	265.976	192.065	336.722	364.585	190.966	197.573	308.805	337.780	195.249	198.788	200.979	205.565	303.908	202.461	-8191	255	
2198.993	1	1	0	0	0.14229	0.12295	0.24057	0.12028	0.094479	0.21485	0.2252	0.11778	0.27778	0.30839	0.33633	0.30376	0.21975	0.30293	0.27424	0.068361	-3.0854	-2.8229	-2.7396	-3.3521	-2.5812	-3.1021	-3.4375	-2.7292	-3.3187	-2.9896	-2.9667	-3.5646	-2.8354	-3.1625	-3.1708	-2.8063	439.059	509.188	194.725	434.304	188.850	272.320	484.994	304.908	350.028	515.970	455.998	498.925	435.916	487.047	525.124	230.663	0.00074284	0.00056546	0.00017383	684.92	5.1925e-06	6.329e-06	711.05	305.82	4.8649e-06	3.9057e-06	355.4	159.82	141.48	78.479	4.168e-06	87.452	0.00024324	0.00016435	4.48e-05	687.85	1.7626e-06	1.7155e-06	714.95	309.91	1.829e-06	1.7232e-06	357.76	161.45	143.66	79.984	1.829e-06	88.634	236.387	282.331	273.534	191.945	323.777	328.735	190.948	197.198	315.349	327.782	195.206	198.668	201.185	205.651	327.583	202.358	-8191	255	
2199.089	1	1	0	0	0.10129	0.24486	0.27897	0.25407	0.23736	0.28721	0.25637	0.48679	0.28655	0.10646	0.075759	0.18373	0.10913	0.11018	0.17678	0.080718	-3.0021	-3.2479	-2.775	-3.2833	-2.7125	-2.7938	-3.45	-2.7146	-3.3042	-3.0417	-2.7667	-3.4917	-2.9083	-2.9437	-3.3521	-2.8542	416.894	385.758	196.262	183.578	463.828	334.127	439.302	471.243	398.338	437.488	490.717	427.889	402.585	488.139	326.628	430.038	0.00076324	0.00039426	0.00013216	690.81	4.5189e-06	6.5125e-06	715.21	308.76	4.2148e-06	8.1863e-06	358.12	159.71	141.75	78.565	5.9871e-06	87.835	0.00024919	0.00015352	4.4117e-05	692.95	1.739e-06	1.7283e-06	719.77	312.05	1.8056e-06	1.7218e-06	359.31	162.11	143.58	80.219	1.8411e-06	88.84	237.035	265.600	272.383	192.097	302.116	329.582	191.048	197.142	330.046	326.171	195.201	198.636	201.169	205.328	331.924	202.397	-8191	255	
2199.185	1	1	0	0	0.26313	0.064523	0.084129	0.17516	0.079143	0.24813	0.35143	0.11337	0.113	0.10501	0.12963	0.11015	0.23366	0.20349	0.16402	0.12924	-2.7938	-3.1229	-2.5708	-3.4625	-2.9813	-2.8729	-3.4479	-2.7604	-3.0646	-3.2375	-2.7562	-3.5354	-2.9583	-2.9708	-3.3125	-2.7854	235.699	388.407	513.652	518.577	208.681	400.606	449.353	233.147	194.148	403.244	239.019	480.336	497.287	522.395	389.141	352.904	0.00076125	0.00073231	9.5779e-05	691.98	3.4206e-06	5.7935e-06	717.2	306.04	4.8905e-06	6.2655e-06	356.76	160.21	140.86	78.388	6.9635e-06	87.473	0.00024685	0.00015692	4.4354e-05	694.02	1.7482e-06	1.7327e-06	718.96	310.78	1.8073e-06	1.7092e-06	357.75	161.27	142.96	79.767	1.8645e-06	88.578	235.433	262.986	258.005	192.084	300.590	330.677	190.918	197.381	330.725	313.968	195.073	198.664	201.068	205.428	318.516	202.468	-8191	255	
2199.281	1	1	0	0	0.38351	0.20092	0.10909	0.2496	0.072832	0.13062	0.063955	0.22325	0.17496	0.1553	0.24068	0.054647	0.3298	0.20935	0.070366	0.21562	-2.6542	-3.4062	-2.4667	-3.4625	-2.9917	-2.8042	-3.6271	-2.8229	-3.0625	-3.3375	-2.575	-3.3521	-3.3	-2.8812	-3.3688	-2.8229	535.414	317.715	419.126	409.798	349.925	354.833	231.069	190.176	303.824	382.372	432.993	435.006	459.001	204.728	402.037	495.466	0.00075544	0.00064612	0.00017689	685.34	4.5973e-06	5.862e-06	713.23	306.33	5.0132e-06	4.4562e-06	353.77	158.57	140.83	77.999	4.8503e-06	87.203	0.00024743	0.0001611	4.5006e-05	690	1.6989e-06	1.769e-06	716.68	309.52	1.7937e-06	1.6741e-06	354.91	160.83	142.4	79.338	1.862e-06	88.052	235.043	258.122	270.022	192.086	307.250	312.883	191.054	197.408	308.652	337.582	195.183	198.592	201.049	205.445	313.861	202.563	-8191	255	
2199.377	1	1	0	0	0.14266	0.19596	0.1427	0.28225	0.24707	0.27328	0.17206	0.24343	0.4699	0.092459	0.10414	0.26127	0.20148	0.26374	0.15472	0.03836	-2.4708	-3.3979	-2.5479	-3.2687	-3.2125	-2.8208	-3.5	-2.9542	-2.8125	-3.4854	-2.7562	-3.2146	-3.3312	-2.8854	-3.4208	-3.0687	338.017	230.449	204.310	535.467	417.787	414.611	510.659	302.418	238.594	504.823	380.185	188.814	214.974	210.841	402.290	225.400	0.00074191	0.00067078	0.00023134	684.91	3.1533e-06	4.6492e-06	705.72	304.01	5.0104e-06	5.9594e-06	349.3	157.32	139.24	77.779	5.4731e-06	86.447	0.00024048	0.00015843	4.5179e-05	686.55	1.6991e-06	1.7247e-06	709.82	307.5	1.7936e-06	1.7373e-06	351.52	159.14	141.5	79.095	1.8311e-06	87.731	236.807	276.759	279.614	191.958	339.353	336.568	191.393	197.485	327.217	337.295	195.496	198.610	201.009	205.758	318.829	202.676	-8191	255	
2199.498	1	1	0	0	0.09703	0.058484	0.14401	0.11093	0.026963	0.17623	0.2834	0.0070771	0.14282	0.043919	0.05435	0.066497	0.22171	0.25458	0.069881	0.26299	-2.5854	-3.4771	-2.6833	-3.2146	-3.0979	-2.4896	-3.4583	-3.1479	-2.7292	-3.2917	-2.8708	-3.1125	-3.4958	-2.8812	-3.4646	-3.0687	224.054	481.693	418.459	518.194	482.047	385.367	524.893	238.532	223.477	275.707	507.382	233.561	517.994	487.798	422.504	458.208	0.0007271	0.00055532	0.00010661	683.1	3.5452e-06	4.0085e-06	709.91	304.43	5.1695e-06	5.4943e-06	352.7	158.04	140.42	78.407	5.9135e-06	87.341	0.00024817	0.00015313	4.3654e-05	685.17	1.6928e-06	1.7119e-06	711.9	308.21	1.8309e-06	1.7354e-06	352.97	160	142.31	79.603	1.7751e-06	88.398	236.349	270.151	257.368	191.989	328.406	349.598	191.070	197.656	335.593	317.544	195.497	198.483	201.049	205.569	326.057	202.390	-8191	255	
2199.594	1	1	0	0	0.1812	0.15518	0.082945	0.019269	0.12181	0.028952	0.12505	0.17993	0.34383	0.060423	0.23411	0.13127	0.092478	0.14701	0.034072	0.34255	-2.2604	-3.2896	-2.6229	-3.1333	-3.225	-2.6417	-3.3146	-3.4167	-2.575	-3.3833	-3.0438	-3.1063	-3.4458	-2.8792	-3.1854	-3.1688	380.836	204.109	210.287	416.686	187.271	531.422	494.361	477.615	384.862	418.769	460.264	429.732	429.053	514.841	438.749	519.623	0.0007388	0.00066102	0.00019452	683.72	4.616e-06	5.6532e-06	709.61	305.88	3.0912e-06	3.4248e-06	353.25	158.85	141.44	77.801	5.7786e-06	87.566	0.00024673	0.00015765	4.3779e-05	687.75	1.7337e-06	1.7112e-06	712.51	309.47	1.7743e-06	1.7228e-06	355.66	160.93	142.98	79.397	1.8715e-06	88.548	236.794	278.670	275.345	192.184	323.715	337.963	191.067	197.710	303.104	332.991	195.508	198.243	201.016	205.591	338.546	202.344	-8191	255	
2199.690	1	1	0	0	0.088525	0.37588	0.20277	0.1857	0.15033	0.085436	0.3125	0.27759	0.26809	0.19564	0.032348	0.12939	0.10139	0.22624	0.20957	0.035646	-2.3354	-3.2667	-2.6958	-2.9229	-3.3896	-2.4875	-3.2229	-3.2479	-2.8021	-3.4562	-3.1604	-2.9021	-3.3792	-2.825	-3.1562	-3.3875	331.906	191.979	402.584	316.050	325.310	394.671	482.566	523.896	222.511	311.271	326.367	290.491	351.927	527.763	406.151	464.612	0.00075306	0.00066642	9.8046e-05	686.34	4.4168e-06	4.6776e-06	709.89	305.52	3.2065e-06	4.2929e-06	352.44	159.53	140.58	77.542	6.481e-06	87.617	0.00024803	0.00016155	4.5292e-05	687.52	1.8074e-06	1.7592e-06	714.58	309.27	1.8153e-06	1.7326e-06	354.43	161.31	142.54	79.025	1.8596e-06	88.582	236.782	273.499	268.983	192.034	323.653	346.713	191.006	197.615	323.449	348.113	195.450	198.502	201.172	205.669	298.136	202.390	-8191	255	
2199.762	1	1	0	0	0.083112	0.096446	0.19388	0.1841	0.044545	0.079791	0.1799	0.16219	0.14879	0.028196	0.28984	0.076671	0.20485	0.22283	0.072973	0.18903	-2.2729	-3.1917	-2.9313	-2.9313	-3.3146	-2.8021	-3.1542	-3.4542	-2.5729	-3.1542	-3.3646	-2.725	-3.5792	-3.0646	-2.8104	-3.4479	478.308	522.381	382.191	533.132	445.462	488.862	511.646	532.040	239.583	518.568	456.535	418.402	530.252	516.419	392.520	375.305	0.00076957	0.00052734	0.00021072	684.07	4.4983e-06	5.2364e-06	708.69	304.17	4.013e-06	5.5085e-06	351.95	159.04	140.51	77.535	4.3038e-06	87.415	0.00024856	0.0001599	4.4124e-05	684.55	1.7565e-06	1.7101e-06	711.66	307.82	1.827e-06	1.7349e-06	353.95	160.87	142.47	79.103	1.8574e-06	88.392	236.151	278.373	280.529	192.129	326.151	322.243	190.932	197.538	335.027	328.532	195.307	198.593	201.022	205.657	301.447	202.386	-8191	255	
2199.858	1	1	0	0	0.21829	0.17329	0.13805	0.32475	0.11888	0.12268	0.16229	0.060463	0.31315	0.067448	0.17964	0.078688	0.11452	0.059277	0.062112	0.061173	-2.1354	-3.2479	-3.0667	-2.5479	-3.5333	-2.8375	-3.0583	-3.6813	-2.7396	-3.1396	-3.4813	-2.7729	-3.7146	-3.0104	-3.0375	-3.6625	226.012	257.658	437.441	214.084	444.917	456.437	337.853	462.558	479.466	366.095	482.913	197.423	313.766	524.147	426.286	518.875	0.0007688	0.0006023	0.00011827	684.42	3.029e-06	5.7699e-06	715.23	309.08	4.5167e-06	6.158e-06	356.86	160.88	143.19	79.25	7.145e-06	89.225	0.00024628	0.00015814	4.2396e-05	687.24	1.7461e-06	1.6805e-06	717.13	311.13	1.7676e-06	1.6643e-06	358.28	163.06	144.92	80.687	1.8195e-06	90.086	236.870	252.326	262.148	192.021	324.031	334.640	191.158	197.696	325.972	326.077	195.377	198.561	200.753	205.556	305.881	202.312	-8191	255	
2199.977	1	1	0	0	0.038377	0.21494	0.11845	0.087559	0.1462	0.14351	0.061718	0.095784	0.22533	0.1251	0.15068	0.16301	0.19653	0.26507	0.17824	0.082436	-2.2771	-3.2125	-3.3458	-2.7771	-3.4167	-3.0604	-2.9062	-3.5625	-2.7417	-3.0521	-3.4646	-2.6146	-3.4229	-2.9583	-2.7021	-3.6917	286.293	426.114	298.543	499.481	242.006	496.926	379.224	497.646	377.485	193.489	479.534	195.523	231.427	472.265	197.995	210.672	0.00074176	0.00051657	9.3348e-05	690.63	4.62e-06	5.8276e-06	715.3	308.36	2.6904e-06	3.5687e-06	356.7	161.58	142.7	79.121	6.0468e-06	88.746	0.00024248	0.0001555	4.1946e-05	693.22	1.681e-06	1.6791e-06	720.01	312.4	1.7262e-06	1.6676e-06	358.15	163.32	144.7	80.621	1.8263e-06	89.926	236.617	283.350	257.915	191.977	328.132	341.480	191.095	197.573	332.793	328.872	195.475	198.614	201.127	205.773	301.671	202.361	-8191	255	
2200.073	1	1	0	0	0.049193	0.063666	0.14774	0.082629	0.20425	0.16496	0.23572	0.16179	0.13647	0.060045	0.12778	0.15578	0.084273	0.31366	0.43267	0.13186	-2.3958	-3.1042	-3.3312	-2.9688	-3.4125	-3.1271	-2.8646	-3.4562	-2.7854	-2.925	-3.6562	-2.7667	-3.2958	-3.3167	-2.5896	-3.4854	538.505	265.539	261.371	248.849	195.189	384.881	398.692	439.535	374.770	181.911	431.072	191.163	528.320	247.070	262.270	228.400	0.00074141	0.00067105	0.00019455	687.36	4.5007e-06	5.6777e-06	711.52	307.12	4.4736e-06	4.3561e-06	356.53	161.39	143.31	79.433	5.6238e-06	89.316	0.0002429	0.00015189	4.2076e-05	690.47	1.6736e-06	1.6523e-06	715.36	310.92	1.7268e-06	1.6715e-06	356.85	163.08	144.9	80.835	1.8104e-06	90.408	236.836	234.809	275.572	192.014	319.898	334.471	191.001	197.622	320.183	327.057	195.422	198.508	200.746	205.602	319.535	202.393	-8191	255	
2200.169	1	1	0	0	0.049873	0.08233	0.13909	0.28876	0.059146	0.14325	0.26366	0.26103	0.092372	0.022702	0.19321	0.18447	0.10935	0.32191	0.2273	0.30796	-2.5979	-2.8563	-3.5396	-2.7271	-3.225	-3.1437	-2.7521	-3.3333	-2.9083	-2.9458	-3.4313	-2.9146	-3.1833	-3.3896	-2.6688	-3.6896	504.290	506.568	238.888	473.227	303.991	437.641	382.503	483.105	199.946	494.436	462.039	526.159	423.184	510.445	381.329	186.028	0.0007861	0.00068305	0.00018665	686.92	3.9166e-06	6.271e-06	712.34	307.31	3.677e-06	6.0872e-06	356.85	161.28	142.62	78.878	5.7201e-06	89.04	0.00024384	0.00015594	4.2778e-05	689.96	1.6931e-06	1.6308e-06	716.73	311.09	1.727e-06	1.6948e-06	358.38	163.01	144.23	80.42	1.8093e-06	89.603	235.772	271.203	257.417	191.725	324.566	344.762	191.031	197.537	318.165	320.175	195.312	198.681	201.111	205.734	329.365	202.487	-8191	255	
2200.290	1	1	0	0	0.40692	0.12099	0.19171	0.05894	0.10599	0.08451	0.045397	0.39529	0.31687	0.11442	0.16389	0.082104	0.14551	0.21595	0.13473	0.0959	-2.5938	-2.8438	-3.5833	-2.9437	-3.1458	-3.3667	-2.6354	-3.5021	-3.1625	-2.7708	-3.5312	-3.0229	-3.0062	-3.5208	-2.6021	-3.3083	439.769	311.202	419.827	236.890	294.486	438.781	436.757	465.146	474.958	457.670	427.134	206.242	394.424	508.574	212.301	499.227	0.00074059	0.00077553	0.0001465	682.06	4.4881e-06	6.4366e-06	711.69	307.12	4.0962e-06	6.7754e-06	355.96	159.74	142.88	78.754	4.7928e-06	87.899	0.00023817	0.00015777	4.1256e-05	688.15	1.7091e-06	1.6955e-06	715.15	311.11	1.7807e-06	1.7317e-06	356.95	161.93	144.22	80.288	1.7829e-06	88.793	236.692	284.095	283.974	192.287	345.156	322.175	190.986	197.381	332.730	319.439	195.254	198.610	200.968	205.665	311.470	202.213	-8191	255	
2200.361	1	1	0	0	0.03393	0.2063	0.19399	0.19628	0.25546	0.32352	0.16276	0.043936	0.13458	0.29091	0.25572	0.1115	0.048557	0.16433	0.2131	0.1181	-2.7104	-2.4604	-3.425	-3.2	-2.6917	-3.3708	-2.7667	-3.2458	-3.175	-2.825	-3.4729	-3.0583	-3.0563	-3.6583	-2.7292	-3.0542	202.259	478.852	507.382	488.374	539.565	491.963	381.321	515.258	468.261	285.267	520.169	226.605	378.036	463.744	526.744	209.682	0.00079266	0.00060435	0.00016021	685.3	4.104e-06	4.8762e-06	710.1	306.74	4.5952e-06	5.5487e-06	354.54	159.23	141.93	78.752	5.5767e-06	87.779	0.00024125	0.00015829	4.3733e-05	688.7	1.7601e-06	1.6639e-06	713.19	310.33	1.7336e-06	1.6916e-06	355.94	161.78	143.87	80.222	1.7885e-06	88.864	237.978	273.564	267.252	191.910	340.658	347.433	190.936	197.738	319.436	328.850	195.292	198.420	201.195	205.698	318.313	202.057	-8191	255	
2200.458	1	1	0	0	0.20702	0.098829	0.20012	0.26301	0.092423	0.27355	0.15147	0.1947	0.13912	0.14915	0.43105	0.36766	0.21315	0.095361	0.14046	0.17728	-2.7562	-2.5854	-3.4458	-3.0854	-2.5646	-3.3979	-3.025	-3.1688	-3.4875	-2.7833	-3.4875	-3.2188	-2.8083	-3.6042	-2.7771	-3.2271	282.964	287.375	261.746	513.790	329.883	316.661	219.393	201.540	424.523	403.175	398.347	376.533	486.200	505.988	407.673	444.699	0.00077778	0.00071906	0.00014901	681.71	6.2978e-06	5.4098e-06	705.39	305.33	4.5859e-06	4.7065e-06	353.26	158.88	141.8	78.687	5.9596e-06	87.926	0.00023631	0.0001603	4.2213e-05	685.73	1.7453e-06	1.678e-06	712.11	309.37	1.7116e-06	1.6924e-06	354.31	161.15	143.49	80.09	1.7878e-06	88.825	236.653	269.502	269.215	192.149	332.579	318.003	190.772	197.547	317.465	341.324	195.541	198.725	200.871	205.634	318.686	202.220	-8191	255	
2200.578	1	1	0	0	0.11476	0.17613	0.29455	0.15792	0.042754	0.16846	0.2319	0.28707	0.1246	0.25151	0.098436	0.23798	0.27514	0.28186	0.10979	0.21738	-3.0542	-2.6896	-3.1583	-3.1208	-2.4896	-3.4792	-2.9938	-3.125	-3.3375	-2.6042	-3.4333	-3.2812	-2.9188	-3.4188	-2.9708	-3.0208	227.385	433.412	470.568	521.766	284.109	185.392	458.679	467.621	352.191	370.684	195.298	494.753	506.760	488.919	461.751	473.517	0.00074929	0.00047112	0.00013099	683.05	4.869e-06	2.9629e-06	704.46	304.81	4.6468e-06	5.8449e-06	350.17	158.45	141.29	78.615	7.1226e-06	87.448	0.00024199	0.00015462	4.2071e-05	684.68	1.7558e-06	1.6717e-06	708.82	308.36	1.7592e-06	1.6625e-06	352.28	160.78	143.03	80.01	1.8231e-06	88.492	235.217	260.986	275.870	192.023	321.257	318.824	191.218	197.306	334.199	328.375	195.526	198.792	201.058	205.719	324.802	202.247	-8191	255	
2200.674	1	1	0	0	0.15485	0.21464	0.16995	0.11083	0.14799	0.094265	0.17802	0.29982	0.12395	0.17209	0.063127	0.33588	0.084891	0.029809	0.10346	0.13257	-3.025	-2.825	-3.0208	-3.1063	-2.7354	-3.4625	-3.05	-2.9646	-3.4688	-2.7271	-3.1646	-3.3438	-2.7979	-3.5187	-3.1312	-3.0021	373.529	369.788	376.569	486.609	419.614	268.027	426.294	486.447	457.613	180.764	317.485	483.436	231.945	438.909	473.332	407.526	0.00078177	0.00051313	0.00015371	679.57	3.9212e-06	5.914e-06	702.37	301.89	4.8631e-06	4.7327e-06	348.84	157.56	140.05	77.722	6.4913e-06	86.202	0.0002408	0.00015661	4.3794e-05	681.84	1.7706e-06	1.6406e-06	704.93	305.48	1.752e-06	1.7251e-06	349.71	159.23	141.49	78.931	1.7824e-06	87.32	235.721	278.990	260.480	191.949	334.417	320.586	190.995	197.542	301.972	339.133	195.197	198.578	200.866	205.571	330.204	202.461	-8191	255	
2200.770	1	1	0	0	0.11839	0.1712	0.20743	0.20767	0.23201	0.16655	0.25163	0.13118	0.14944	0.075132	0.030441	0.095253	0.2321	0.28964	0.054299	0.14707	-3.1458	-2.7917	-2.9521	-3.3979	-2.6188	-3.4229	-3.1375	-2.6854	-3.5667	-2.7292	-3.1875	-3.4958	-2.5771	-3.3812	-3.2521	-2.9042	285.441	410.038	216.994	491.639	399.567	341.021	400.837	180.485	305.476	331.047	341.108	474.955	185.549	504.519	377.174	527.717	0.00074998	0.00047257	0.00015417	674.72	3.1265e-06	5.603e-06	697.34	297.87	3.36e-06	6.5342e-06	343.07	154.64	137.4	76.537	5.5054e-06	85.31	0.00023836	0.00015698	4.3779e-05	675.88	1.7297e-06	1.6532e-06	698.14	301.71	1.7215e-06	1.6717e-06	343.9	156.54	139.57	77.971	1.7849e-06	86.211	237.174	274.144	244.745	192.086	302.996	333.044	191.122	197.404	315.987	321.467	195.226	198.566	200.996	205.662	331.986	202.429	-8191	255	
2200.891	1	1	0	0	0.10804	0.32406	0.10774	0.25024	0.23382	0.26281	0.3038	0.14852	0.10697	0.095119	0.27134	0.17035	0.20801	0.09702	0.17372	0.23069	-3.0875	-2.6958	-2.8875	-3.4437	-2.5062	-3.2875	-3.2667	-2.6521	-3.275	-2.9958	-2.9292	-3.3729	-2.6688	-3.2604	-3.2	-2.6188	274.304	344.151	188.528	462.562	455.566	501.532	488.034	460.264	225.061	483.214	492.478	448.232	476.874	498.304	193.634	417.181	0.00071811	0.00054583	0.00017294	669.21	4.7462e-06	6.9184e-06	692.04	295.87	2.787e-06	5.8077e-06	340.33	154.04	137.21	76.718	6.0686e-06	84.643	0.00023727	0.00015654	4.5032e-05	671.06	1.7009e-06	1.6725e-06	693.06	299.54	1.7084e-06	1.6664e-06	341.87	155.86	139.12	77.828	1.7686e-06	85.682	237.763	263.035	271.381	192.312	334.817	335.598	191.217	197.398	309.508	329.869	195.102	198.467	201.232	205.527	335.084	202.380	-8191	255	
2200.986	1	1	0	0	0.20312	0.13689	0.085771	0.09084	0.097461	0.24212	0.026443	0.070686	0.44695	0.15037	0.26969	0.10738	0.10369	0.33973	0.039316	0.19828	-2.975	-2.9125	-2.7521	-3.4333	-2.6958	-3.075	-3.3187	-2.8583	-3.3646	-2.9771	-2.8167	-3.5208	-2.7313	-3.3042	-3.3667	-2.7208	408.371	201.493	424.742	353.747	526.774	467.149	215.119	490.749	383.464	538.041	255.794	520.062	283.527	445.264	306.007	488.855	0.00072856	0.00052793	0.00017108	665.69	4.7709e-06	5.3988e-06	685.87	293.77	3.0375e-06	4.3159e-06	337.95	153.23	136.49	76.083	4.93e-06	84.718	0.00024047	0.00015467	4.397e-05	668.57	1.7286e-06	1.6397e-06	689.54	298.11	1.7359e-06	1.7046e-06	339.93	155.15	138.45	77.391	1.7789e-06	85.613	235.065	262.503	268.542	192.084	313.085	334.764	190.963	197.095	298.797	323.971	195.003	198.533	201.069	205.543	323.237	202.318	-8191	255	
2201.057	1	1	0	0	0.076905	0.17832	0.15486	0.33448	0.15656	0.42152	0.051255	0.16801	0.049571	0.05702	0.26307	0.15317	0.1332	0.27271	0.076444	0.043909	-2.9896	-3.05	-2.7354	-3.6125	-2.7896	-3.1	-3.5021	-2.7562	-3.2354	-3.0667	-2.8	-3.5958	-2.7708	-3.1875	-3.4354	-2.8	364.813	316.546	286.914	222.511	502.422	259.137	537.943	479.155	257.286	424.561	529.285	404.699	307.471	523.518	312.701	313.696	0.00072433	0.00055034	0.00012181	666.29	4.2515e-06	5.6293e-06	685.74	294.96	3.9927e-06	6.611e-06	341.89	153.89	136.67	76.313	5.8266e-06	84.942	0.00023942	0.00015506	4.3973e-05	668.33	1.7232e-06	1.6614e-06	689.44	298.25	1.7116e-06	1.652e-06	341.33	155.69	138.87	77.632	1.767e-06	85.879	237.695	266.557	288.731	191.870	323.754	334.957	190.866	197.451	327.686	322.832	195.139	198.469	200.985	205.436	324.114	202.285	-8191	255	
2201.153	1	1	0	0	0.087787	0.10576	0.12953	0.032403	0.10399	0.085271	0.4294	0.29815	0.13376	0.14653	0.22268	0.07949	0.11185	0.15028	0.059157	0.22513	-2.8625	-3.2771	-2.5292	-3.4396	-2.7979	-2.8187	-3.6167	-2.6896	-3.0938	-3.2542	-2.6354	-3.4562	-2.9938	-2.9854	-3.3625	-2.8187	415.755	481.195	487.180	441.738	354.489	380.940	529.491	181.806	342.591	420.905	506.882	524.278	429.912	491.108	217.302	452.248	0.00074981	0.00060906	0.00016514	665.14	3.0412e-06	5.3506e-06	685.37	294.27	3.5612e-06	3.1563e-06	337.51	154.28	137.23	76.221	6.4791e-06	83.925	0.00023881	0.0001528	4.3735e-05	666.63	1.7038e-06	1.669e-06	688.96	297.93	1.725e-06	1.6277e-06	339.85	155.29	138.84	77.515	1.7806e-06	84.934	235.766	284.007	279.657	191.923	307.694	312.255	191.100	197.412	331.232	310.171	194.886	198.359	200.874	205.511	336.132	202.275	-8191	255	
2201.274	1	1	0	0	0.073168	0.028096	0.22483	0.042496	0.22305	0.12352	0.060501	0.14946	0.20531	0.0091404	0.092775	0.23062	0.24058	0.094273	0.20145	0.30971	-2.6875	-3.3292	-2.5812	-3.3917	-2.8958	-2.7104	-3.4125	-2.7479	-2.9771	-3.2875	-2.8292	-3.1917	-3.0604	-2.6042	-3.1854	-2.7208	520.519	269.799	213.747	411.930	311.897	366.599	536.174	197.066	252.114	530.906	479.275	484.848	503.787	181.086	231.145	471.950	0.00072835	0.0004014	0.00018841	664.76	5.636e-06	4.5054e-06	682.09	295.12	4.6891e-06	5.4153e-06	337.51	152.75	136.49	75.691	7.0541e-06	83.361	0.00023652	0.00015342	4.3326e-05	666.94	1.7042e-06	1.7062e-06	684.66	298.24	1.7359e-06	1.6341e-06	338.97	154.38	138.32	76.993	1.7973e-06	84.282	235.011	274.561	282.522	192.039	340.638	318.966	190.899	197.398	335.367	343.457	195.010	198.836	201.007	205.413	309.911	202.174	-8191	255	
2201.370	1	1	0	0	0.33382	0.1076	0.22835	0.23608	0.12534	0.3013	0.087083	0.063388	0.19044	0.12154	0.13977	0.35401	0.31419	0.22584	0.090042	0.29128	-2.5792	-3.5396	-2.6667	-3.3521	-3.1875	-2.7458	-3.2687	-2.8792	-2.7438	-3.2562	-2.8104	-3.1979	-3.4021	-2.7667	-3.5479	-3.0125	284.403	482.337	395.795	530.435	507.471	316.968	402.362	446.694	192.671	436.615	498.954	539.494	447.788	520.901	326.422	527.920	0.00072556	0.0006702	9.851e-05	660.08	4.6622e-06	4.133e-06	681.27	293.05	3.4181e-06	4.4752e-06	337.49	153.08	137.08	75.971	5.2141e-06	84.293	0.00023842	0.00015553	4.3784e-05	664.36	1.6855e-06	1.6973e-06	684.75	297.53	1.715e-06	1.6448e-06	339.2	154.67	138.79	77.346	1.7738e-06	85.118	234.414	274.965	257.021	191.858	319.715	331.150	190.817	197.531	312.716	318.994	195.174	198.531	201.176	205.614	327.533	202.354	-8191	255	
2201.466	1	1	0	0	0.2197	0.10348	0.052076	0.082851	0.17306	0.20236	0.21703	0.24091	0.17493	0.049511	0.17251	0.27912	0.059389	0.25429	0.18878	0.23908	-2.5354	-3.2833	-2.6667	-3.2104	-3.2729	-2.6729	-3.4437	-2.9938	-2.7104	-3.4562	-2.8187	-3.0521	-3.3271	-2.9062	-3.3937	-3.2729	230.602	228.061	211.486	213.687	224.449	312.042	388.882	346.373	527.661	244.647	499.738	511.795	198.304	495.976	288.359	528.565	0.00072187	0.00053482	0.00012695	669.7	4.2854e-06	5.7168e-06	687.04	297.89	4.039e-06	4.4419e-06	340.42	153.08	137.44	75.81	6.3056e-06	83.984	0.00023861	0.00015456	4.3946e-05	670.55	1.7036e-06	1.6994e-06	691.23	300.91	1.7965e-06	1.7338e-06	341.68	155.02	139.24	77.299	1.78e-06	84.901	237.364	275.884	283.082	191.851	355.704	327.720	190.956	197.536	312.949	328.276	195.102	198.595	201.071	205.770	314.870	202.287	-8191	255	
2201.562	1	1	0	0	0.099117	0.11348	0.21041	0.1323	0.13296	0.42907	0.18162	0.14697	0.27857	0.19235	0.25647	0.17547	0.19221	0.30543	0.18631	0.19489	-2.4958	-3.5563	-2.6333	-3.0938	-3.2271	-2.6063	-3.2792	-3.0354	-2.7979	-3.4542	-2.8958	-3.1333	-3.4875	-2.9292	-3.2938	-3.2833	283.002	255.666	372.061	427.522	246.665	536.745	265.609	401.960	304.772	266.864	449.534	403.874	448.387	474.888	538.298	477.193	0.00073266	0.00053866	0.00014791	666.1	5.8887e-06	7.0016e-06	684.67	296.27	4.3112e-06	4.9271e-06	340.2	153.32	137.39	75.763	5.5746e-06	84.248	0.00024116	0.00015886	4.3904e-05	668.6	1.7578e-06	1.7429e-06	689.06	299.97	1.8093e-06	1.7026e-06	342.19	155.74	139.32	77.348	1.8463e-06	85.454	237.316	236.548	270.594	192.212	325.005	309.442	190.908	197.437	322.758	334.192	195.264	198.426	201.163	205.440	323.476	202.449	-8191	255	
2201.659	1	1	0	0	0.09458	0.084906	0.23136	0.10871	0.093675	0.10247	0.20508	0.1859	0.082138	0.038903	0.30802	0.32796	0.26758	0.34695	0.077559	0.11448	-2.2687	-3.5333	-2.6854	-2.9771	-3.3521	-2.6021	-3.3417	-3.2146	-2.4729	-3.4271	-3.0021	-2.9354	-3.3812	-2.8312	-2.9792	-3.3917	241.395	535.224	417.915	500.388	213.497	303.433	462.175	445.380	400.484	200.458	441.933	501.720	480.858	196.956	207.943	233.039	0.00073836	0.00047629	0.00012089	664.39	4.0983e-06	3.4576e-06	680.05	293.62	3.7074e-06	6.1747e-06	336.82	152.63	136.35	75.447	5.311e-06	82.894	0.00024374	0.0001529	4.4729e-05	666.81	1.7102e-06	1.7019e-06	686.82	297.9	1.8076e-06	1.6918e-06	337.66	153.96	137.96	76.688	1.8103e-06	83.946	236.733	279.048	276.536	191.926	331.087	342.551	190.864	197.589	319.385	326.772	195.034	198.445	200.772	205.463	329.974	202.451	-8191	255	
2201.755	1	1	0	0	0.1245	0.16567	0.15159	0.15212	0.09109	0.12532	0.077415	0.2884	0.10313	0.15567	0.19544	0.018489	0.18024	0.34332	0.15545	0.13128	-2.2875	-3.2708	-2.9625	-2.9062	-3.3458	-2.8167	-3.0854	-3.5396	-2.7146	-3.3667	-3.0187	-2.8146	-3.4813	-2.9792	-2.9146	-3.6021	434.261	228.495	534.732	537.871	460.506	536.116	445.760	537.606	429.063	318.195	408.533	455.096	527.605	538.101	330.805	463.814	0.00072468	0.0005293	0.00016153	654.01	3.2122e-06	5.3578e-06	669.59	286.29	4.4237e-06	3.9538e-06	326.49	146.35	131.74	72.239	6.2352e-06	78.979	0.00023671	0.00015656	4.2803e-05	658.37	1.7647e-06	1.7444e-06	672.39	290.39	1.8104e-06	1.6562e-06	327.22	148.05	133.08	73.652	1.855e-06	80.111	236.861	261.981	276.679	191.772	321.101	342.388	190.709	197.432	327.546	325.081	194.858	198.222	200.777	205.634	323.125	202.302	-8191	255	
2201.851	1	1	0	0	0.192	0.24156	0.1463	0.17573	0.1924	0.18822	0.19331	0.16909	0.18108	0.17032	0.24547	0.23742	0.32456	0.26705	0.2205	0.23085	-2.2729	-3.2021	-3.1333	-2.8271	-3.3625	-2.8625	-3	-3.5292	-2.6896	-3.1667	-3.2875	-2.7667	-3.4792	-2.9	-2.6896	-3.4208	479.826	434.633	387.462	272.956	266.109	311.583	435.371	500.486	288.379	202.307	274.319	448.864	490.899	196.974	240.854	489.923	0.00067838	0.00052909	0.00014756	639.29	3.5562e-06	7.7205e-06	651.7	280.13	3.7637e-06	5.6255e-06	320.06	143.55	129.26	71.44	4.7704e-06	79.126	0.00023943	0.000158	4.5236e-05	642.29	1.7962e-06	1.7233e-06	657.27	283.46	1.822e-06	1.7533e-06	321.25	145.28	131.03	72.923	1.8543e-06	80.067	236.750	276.663	270.351	191.977	317.496	330.277	190.809	197.404	333.029	330.062	195.183	198.328	200.920	205.425	324.181	202.511	-8191	255	
2201.971	1	1	0	0	0.24553	0.033929	0.076409	0.17609	0.081736	0.21345	0.12684	0.12165	0.16044	0.1644	0.061024	0.061247	0.23957	0.2417	0.22986	0.0096757	-2.4188	-3.1333	-3.2167	-2.5938	-3.275	-2.9646	-2.775	-3.5292	-2.6063	-3.0854	-3.3667	-2.5438	-3.4354	-3.0396	-2.8729	-3.4958	253.203	514.236	489.050	466.637	401.558	350.154	520.528	523.477	418.999	434.105	517.692	452.951	465.522	493.955	317.813	475.964	0.00065506	0.0005546	0.00013915	641.74	3.8153e-06	5.0587e-06	655.16	283.3	3.8905e-06	4.6268e-06	324.59	147.08	131.95	73.324	3.3909e-06	80.609	0.00023306	0.00015581	4.2409e-05	642.42	1.7397e-06	1.6362e-06	660.58	287.16	1.7404e-06	1.6564e-06	326.66	148.83	133.67	74.5	1.829e-06	81.475	234.448	260.747	273.246	192.019	338.209	315.187	190.864	197.568	342.838	325.031	195.094	198.715	201.019	205.739	326.381	202.255	-8191	255	
2202.066	1	1	0	0	0.050676	0.16975	0.1772	0.17841	0.19692	0.10618	0.19826	0.14643	0.4377	0.25263	0.063114	0.17763	0.068899	0.055562	0.25978	0.14206	-2.2208	-3.1229	-3.3958	-2.8333	-3.4021	-2.95	-2.8708	-3.4771	-2.6979	-3.0229	-3.3792	-2.6417	-3.3042	-3.3854	-2.5062	-3.4667	385.945	347.732	405.791	222.132	497.586	319.686	438.496	234.856	422.043	302.891	301.775	452.389	455.383	319.770	331.036	462.226	0.00068892	0.00056002	0.00019345	643.61	3.9937e-06	6.0711e-06	663.21	285.24	4.2234e-06	5.9988e-06	326.7	147.24	132.58	73.226	5.3281e-06	80.516	0.00023126	0.00015191	4.2223e-05	644.94	1.6257e-06	1.6213e-06	664.98	288.62	1.7256e-06	1.6425e-06	328.9	149.42	134.01	74.627	1.7726e-06	81.619	237.515	256.103	269.973	192.231	322.307	312.186	190.608	197.196	327.295	337.818	195.173	198.347	200.897	205.407	331.862	202.216	-8191	255	
2202.162	1	1	0	0	0.26646	0.26396	0.40516	0.20553	0.061958	0.20506	0.20834	0.1305	0.13149	0.16598	0.10201	0.11631	0.12874	0.19556	0.13619	0.040528	-2.4542	-2.8667	-3.3333	-2.7625	-3.1917	-2.9917	-2.6521	-3.5208	-2.8667	-2.7375	-3.3563	-2.775	-3.4208	-3.3396	-2.8146	-3.3417	400.562	323.620	224.518	528.537	250.821	275.196	200.253	450.562	207.108	260.997	389.624	179.487	291.303	466.652	375.715	312.299	0.00070337	0.00044257	0.00016373	643.19	3.1683e-06	5.9399e-06	658	283.26	3.6227e-06	3.1101e-06	320.85	144.77	130.3	72.009	3.1132e-06	78.888	0.00022987	0.0001504	4.1305e-05	645.01	1.6693e-06	1.5917e-06	660.74	286.47	1.7053e-06	1.6692e-06	322.79	146.19	131.81	73.292	1.7935e-06	79.597	237.578	288.923	281.722	192.007	339.136	310.792	191.105	197.332	324.580	352.914	195.233	198.138	201.028	205.674	326.809	202.110	-8191	255	
2202.258	1	1	0	0	0.17858	0.31905	0.16742	0.077302	0.0439	0.40021	0.19937	0.1811	0.12434	0.058661	0.21122	0.25296	0.3379	0.22828	0.092701	0.3565	-2.6479	-2.7375	-3.5167	-2.6312	-3.0854	-3.2812	-2.7625	-3.3375	-3.0646	-2.7042	-3.4896	-2.9	-3.2062	-3.4625	-2.6729	-3.3104	260.981	230.460	489.477	363.901	297.775	201.024	515.742	224.115	451.266	192.030	500.977	184.139	481.387	221.339	523.598	513.998	0.00067771	0.00056939	0.0001757	635	4.608e-06	4.1446e-06	649.09	279.13	4.8754e-06	5.2426e-06	318.58	142.89	128.43	71.309	5.8021e-06	77.749	0.00022721	0.00015697	4.2651e-05	637.72	1.7209e-06	1.6138e-06	652.21	283.05	1.7225e-06	1.6296e-06	319.28	144.61	130.46	72.537	1.7519e-06	78.794	236.760	285.973	281.564	191.803	313.017	331.425	190.587	197.221	314.628	320.776	195.019	198.473	201.332	205.525	322.304	202.071	-8191	255	
2202.354	1	1	0	0	0.31795	0.12599	0.14158	0.27999	0.18021	0.013205	0.30723	0.14305	0.11112	0.22916	0.22426	0.17305	0.035656	0.098397	0.22516	0.22531	-2.875	-2.825	-3.3187	-2.8167	-2.8146	-3.3729	-2.6229	-3.3146	-3.1458	-2.6479	-3.4479	-2.9354	-2.9417	-3.3063	-2.5687	-3.125	419.208	382.815	275.085	185.548	365.914	355.977	510.256	441.553	323.293	511.526	386.408	249.546	372.212	462.432	349.752	471.989	0.00068458	0.000711	0.00015352	632.87	3.7956e-06	4.7068e-06	647.02	278.48	4.6321e-06	4.7575e-06	318.4	141.98	127.95	70.989	6.6407e-06	77.317	0.00022675	0.0001538	4.1562e-05	635.15	1.693e-06	1.5833e-06	650.29	281.83	1.6633e-06	1.6847e-06	319.36	143.98	129.78	72.281	1.7206e-06	78.307	235.451	281.067	290.170	191.725	316.412	303.309	190.732	197.169	341.813	309.033	195.192	198.439	200.928	205.643	317.805	202.287	-8191	255	
2202.450	1	1	0	0	0.10874	0.059783	0.13712	0.053999	0.26764	0.084464	0.19168	0.17156	0.18814	0.20901	0.40274	0.24393	0.18868	0.1001	0.15869	0.22932	-2.6417	-2.6375	-3.1625	-2.8563	-3.0104	-3.3979	-2.7229	-3.1854	-3.3292	-2.7958	-3.5583	-3.1208	-3.0042	-3.7042	-2.8375	-3.3521	498.964	203.242	299.106	498.620	312.496	323.544	494.682	530.737	258.136	195.099	467.656	464.924	473.062	503.355	224.510	483.697	0.00067282	0.00046023	0.00013027	631.53	3.7961e-06	5.9384e-06	650.79	278.43	3.957e-06	3.9488e-06	320.49	143.96	129.12	71.547	4.9304e-06	79.254	0.00022495	0.00015489	4.2147e-05	633.92	1.7281e-06	1.6224e-06	651.05	281.98	1.64e-06	1.6196e-06	320.81	145.31	130.91	73.022	1.7156e-06	80.258	236.484	252.292	259.732	192.025	318.586	333.004	190.487	197.323	338.815	337.447	195.093	198.420	200.809	205.552	329.520	202.218	-8191	255	
2202.571	1	1	0	0	0.16963	0.124	0.18882	0.19321	0.13978	0.17434	0.1047	0.28774	0.20811	0.14623	0.14309	0.16795	0.18577	0.16998	0.055922	0.13272	-3.0625	-2.9042	-3.4688	-3.2167	-2.9292	-3.5208	-3.0708	-3.0521	-3.4646	-2.8187	-3.5521	-3.3771	-3.0292	-3.7083	-2.9521	-3.2083	352.171	345.623	384.080	462.256	204.302	230.740	243.303	510.420	204.231	382.264	489.757	464.829	493.039	198.349	482.694	182.145	0.00069896	0.00051888	0.00013564	640.34	3.1937e-06	5.9984e-06	662.6	285.66	2.5314e-06	5.0366e-06	325.98	147.69	131.68	73.499	4.3291e-06	80.967	0.00022877	0.00015206	4.0678e-05	642.97	1.6555e-06	1.5964e-06	664.42	289.1	1.6626e-06	1.63e-06	327.73	148.99	133.72	74.805	1.6977e-06	81.56	236.327	287.298	265.391	191.913	322.192	327.396	190.909	197.339	320.559	319.875	194.858	198.348	200.789	205.631	334.884	202.411	-8191	255	
2202.667	1	1	0	0	0.18566	0.025041	0.19214	0.10535	0.13834	0.10743	0.096499	0.22129	0.22973	0.068309	0.14809	0.24754	0.25072	0.47415	0.067743	0.36104	-3.0771	-2.7042	-3.2958	-3.2208	-2.6063	-3.2417	-2.8583	-2.9771	-3.4042	-2.5146	-3.1021	-3.2375	-2.6354	-3.4229	-2.7917	-3.0812	316.712	290.593	392.811	528.685	466.510	216.190	398.230	505.753	504.358	497.084	499.945	469.891	527.759	180.532	410.265	192.013	0.00071875	0.0004639	0.00011101	643.03	5.6447e-06	6.0476e-06	660.27	286.7	2.7958e-06	1.8534e-06	325.99	147.13	132.96	73.464	5.3339e-06	80.085	0.00022922	0.00014607	4.1613e-05	647.11	1.6716e-06	1.6123e-06	665.57	289.92	1.6812e-06	1.5652e-06	328.71	148.94	134.2	74.881	1.6792e-06	81.13	234.944	252.415	287.156	192.125	327.634	317.653	191.007	197.366	303.209	322.024	195.127	198.393	200.848	205.647	321.025	202.105	-8191	255	
2202.763	1	1	0	0	0.033882	0.12623	0.1577	0.19491	0.1268	0.16233	0.14531	0.12494	0.092984	0.086479	0.11862	0.18863	0.21522	0.17506	0.13438	0.20596	-3.0667	-2.5771	-2.9958	-3.3917	-2.7667	-3.2771	-3.15	-2.8292	-3.3958	-2.7479	-3.0938	-3.4479	-2.8063	-3.5229	-3.0354	-2.75	409.570	427.130	331.433	385.173	361.560	185.304	316.489	403.185	221.650	235.078	219.700	466.324	313.185	445.359	471.292	182.267	0.0007084	0.00061299	0.00016042	644.37	5.0973e-06	6.2576e-06	658.63	282.7	5.3428e-06	4.4259e-06	322.56	144.86	130.57	72.002	5.0381e-06	78.726	0.00022597	0.00014739	4.0751e-05	647.21	1.6844e-06	1.6341e-06	661.36	286.82	1.6703e-06	1.6091e-06	323.69	146.26	131.76	73.48	1.6984e-06	79.687	236.494	280.294	275.986	192.179	330.236	307.083	190.885	197.399	313.681	320.752	195.061	198.494	200.910	205.384	319.476	202.090	-8191	255	
2202.860	1	1	0	0	0.23182	0.12058	0.18462	0.19869	0.11194	0.058243	0.11965	0.12746	0.21108	0.20336	0.088351	0.12161	0.10421	0.14025	0.16672	0.097397	-3.1354	-2.825	-2.9583	-3.4417	-2.6312	-3.2062	-3.3083	-2.75	-3.3187	-2.9542	-3.0458	-3.4354	-2.6875	-3.4146	-3.1937	-2.8896	413.730	228.114	486.919	464.630	247.999	201.033	443.722	203.139	362.219	263.019	457.178	183.460	506.040	479.286	239.902	216.194	0.00067304	0.00067246	0.00011398	640.65	3.4475e-06	4.6025e-06	653.49	280.94	4.601e-06	5.5403e-06	320.21	143.87	129.71	72.014	4.0384e-06	78.631	0.00022441	0.00014637	4.1564e-05	640.63	1.6684e-06	1.5788e-06	656.76	284.58	1.7039e-06	1.6057e-06	321.4	145.68	131.51	73.182	1.6912e-06	79.591	235.504	271.569	276.917	191.784	339.709	338.932	190.625	197.379	303.458	361.859	195.006	198.500	201.021	205.641	325.516	202.057	-8191	255	
2202.956	1	1	0	0	0.16793	0.17293	0.19235	0.17484	0.26601	0.16664	0.2401	0.29844	0.14214	0.19759	0.069597	0.20302	0.20809	0.28168	0.25325	0.1093	-3.0146	-2.8604	-2.9604	-3.4271	-2.5958	-3.1521	-3.2667	-2.7667	-3.4958	-2.9333	-2.9437	-3.6604	-2.8479	-3.3146	-3.1354	-2.8625	507.383	378.167	321.277	179.910	222.540	352.246	529.991	432.041	491.230	255.282	219.416	446.066	182.527	485.251	506.559	377.249	0.00066173	0.00049873	0.00014543	635.22	4.8821e-06	4.952e-06	649.42	278.16	3.2586e-06	3.7542e-06	316.64	142.42	127.98	71.307	5.4692e-06	78.009	0.00022196	0.00014368	4.1603e-05	637.34	1.6747e-06	1.5908e-06	652.22	281.43	1.6355e-06	1.5891e-06	318.8	144.22	129.71	72.5	1.6967e-06	78.843	234.815	264.984	258.578	191.908	327.207	325.411	190.799	197.312	325.723	309.073	195.029	198.615	200.869	205.462	314.316	202.139	-8191	255	
#DATA ENDS
