BOXY.EXE: ISS Imagent and Oximeter Data Acquisition Program Version 0.80
Ascii Record File

#ACQ INFORMATION
2  Detector Channels 
16  External MUX Channels 
1  Auxiliary Channels 
5000  Waveform (CCF) Frequency (Hz)
1  Waveforms Skipped 
30  Waveforms Averaged 
1  Cycles Averaged 
16  Acquisitions per Waveform 
10.0806  Updata Rate (Hz) 

#FILE INFORMATION
TRUE -- External MUX Channel results are PARSED.
FALSE -- AC DC and Phase are NOT grouped.
TRUE -- Companion Program Settings File CREATED.
FALSE -- AC data not excluded
FALSE -- DC data not excluded
FALSE -- Phase data not excluded
FALSE -- Auxillary Chn. data not excluded
Tab delimiters

#CALIBRATION STATE
TRUE -- Waveform Calibration Values APPLIED.


#AUX CALIBRATION VALUES
Val Type	aux-1	

Term	1.0000e+00	
Factor	0.0000e+00	


#WF CALIBRATION VALUES
A = Detector Channel
Val Type	A-AC1	A-AC2	A-AC3	A-AC4	A-AC5	A-AC6	A-AC7	A-AC8	A-AC9	A-AC10	A-AC11	A-AC12	A-AC13	A-AC14	A-AC15	A-AC16	A-DC1	A-DC2	A-DC3	A-DC4	A-DC5	A-DC6	A-DC7	A-DC8	A-DC9	A-DC10	A-DC11	A-DC12	A-DC13	A-DC14	A-DC15	A-DC16	A-Ph1	A-Ph2	A-Ph3	A-Ph4	A-Ph5	A-Ph6	A-Ph7	A-Ph8	A-Ph9	A-Ph10	A-Ph11	A-Ph12	A-Ph13	A-Ph14	A-Ph15	A-Ph16	

Term	0.00000e+00	0.00000e+00	0.00000e+00	0.00000e+00	0.00000e+00	0.00000e+00	0.00000e+00	0.00000e+00	0.00000e+00	0.00000e+00	0.00000e+00	0.00000e+00	0.00000e+00	0.00000e+00	0.00000e+00	0.00000e+00	0.00000e+00	0.00000e+00	0.00000e+00	0.00000e+00	0.00000e+00	0.00000e+00	0.00000e+00	0.00000e+00	0.00000e+00	0.00000e+00	0.00000e+00	0.00000e+00	0.00000e+00	0.00000e+00	0.00000e+00	0.00000e+00	0.00000e+00	0.00000e+00	0.00000e+00	0.00000e+00	0.00000e+00	0.00000e+00	0.00000e+00	0.00000e+00	0.00000e+00	0.00000e+00	0.00000e+00	0.00000e+00	0.00000e+00	0.00000e+00	0.00000e+00	0.00000e+00	
Factor	1.00000e+00	1.00000e+00	1.00000e+00	1.00000e+00	1.00000e+00	1.00000e+00	1.00000e+00	1.00000e+00	1.00000e+00	1.00000e+00	1.00000e+00	1.00000e+00	1.00000e+00	1.00000e+00	1.00000e+00	1.00000e+00	1.00000e+00	1.00000e+00	1.00000e+00	1.00000e+00	1.00000e+00	1.00000e+00	1.00000e+00	1.00000e+00	1.00000e+00	1.00000e+00	1.00000e+00	1.00000e+00	1.00000e+00	1.00000e+00	1.00000e+00	1.00000e+00	X	X	X	X	X	X	X	X	X	X	X	X	X	X	X	X	

B = Detector Channel
Val Type	B-AC1	B-AC2	B-AC3	B-AC4	B-AC5	B-AC6	B-AC7	B-AC8	B-AC9	B-AC10	B-AC11	B-AC12	B-AC13	B-AC14	B-AC15	B-AC16	B-DC1	B-DC2	B-DC3	B-DC4	B-DC5	B-DC6	B-DC7	B-DC8	B-DC9	B-DC10	B-DC11	B-DC12	B-DC13	B-DC14	B-DC15	B-DC16	B-Ph1	B-Ph2	B-Ph3	B-Ph4	B-Ph5	B-Ph6	B-Ph7	B-Ph8	B-Ph9	B-Ph10	B-Ph11	B-Ph12	B-Ph13	B-Ph14	B-Ph15	B-Ph16	

Term	0.00000e+00	0.00000e+00	0.00000e+00	0.00000e+00	0.00000e+00	0.00000e+00	0.00000e+00	0.00000e+00	0.00000e+00	0.00000e+00	0.00000e+00	0.00000e+00	0.00000e+00	0.00000e+00	0.00000e+00	0.00000e+00	0.00000e+00	0.00000e+00	0.00000e+00	0.00000e+00	0.00000e+00	0.00000e+00	0.00000e+00	0.00000e+00	0.00000e+00	0.00000e+00	0.00000e+00	0.00000e+00	0.00000e+00	0.00000e+00	0.00000e+00	0.00000e+00	-8.92709e+01	-1.28825e+02	-1.24038e+02	-1.83962e+02	-5.99715e+01	-6.47401e+01	-1.57159e+02	-1.62015e+02	-5.48480e+01	-7.10995e+01	-1.70729e+02	-1.70839e+02	-1.80289e+02	-1.77652e+02	-5.59847e+01	-1.50740e+02	
Factor	1.90359e-05	1.64344e-04	4.45320e-05	1.64583e-01	1.33975e-06	1.74344e-06	1.90588e-01	5.69177e-02	1.10681e-06	1.67741e-06	9.57273e-02	3.69650e-02	2.87415e-02	1.05468e-02	1.51595e-06	1.54879e-02	3.70208e-06	4.20420e-06	1.17489e-06	8.23578e-02	4.54401e-08	4.62410e-08	8.95767e-02	2.86398e-02	4.53497e-08	4.63083e-08	4.63350e-02	1.80061e-02	1.45506e-02	5.30554e-03	4.58462e-08	7.52433e-03	X	X	X	X	X	X	X	X	X	X	X	X	X	X	X	X	



#DISTANCE SETTINGS
A = Detector Channel
A-1	A-2	A-3	A-4	A-5	A-6	A-7	A-8	A-9	A-10	A-11	A-12	A-13	A-14	A-15	A-16	

2.5000e+00	3.0000e+00	2.5000e+00	3.0000e+00	2.0000e+00	3.0000e+00	1.5000e+00	3.0000e+00	3.0000e+00	3.0000e+00	3.0000e+00	3.0000e+00	3.0000e+00	3.0000e+00	1.5000e+00	3.0000e+00	

B = Detector Channel
B-1	B-2	B-3	B-4	B-5	B-6	B-7	B-8	B-9	B-10	B-11	B-12	B-13	B-14	B-15	B-16	

1.0000e+01	1.0000e+01	1.0000e+01	1.4400e+00	1.0000e+01	1.0000e+01	1.5100e+00	1.9400e+00	1.0000e+01	1.0000e+01	1.9900e+00	2.4900e+00	2.4100e+00	2.9000e+00	1.0000e+01	2.9800e+00	




#DATA BEGINS
time	group	step	mark	flag	A-AC1	A-AC2	A-AC3	A-AC4	A-AC5	A-AC6	A-AC7	A-AC8	A-AC9	A-AC10	A-AC11	A-AC12	A-AC13	A-AC14	A-AC15	A-AC16	A-DC1	A-DC2	A-DC3	A-DC4	A-DC5	A-DC6	A-DC7	A-DC8	A-DC9	A-DC10	A-DC11	A-DC12	A-DC13	A-DC14	A-DC15	A-DC16	A-Ph1	A-Ph2	A-Ph3	A-Ph4	A-Ph5	A-Ph6	A-Ph7	A-Ph8	A-Ph9	A-Ph10	A-Ph11	A-Ph12	A-Ph13	A-Ph14	A-Ph15	A-Ph16	B-AC1	B-AC2	B-AC3	B-AC4	B-AC5	B-AC6	B-AC7	B-AC8	B-AC9	B-AC10	B-AC11	B-AC12	B-AC13	B-AC14	B-AC15	B-AC16	B-DC1	B-DC2	B-DC3	B-DC4	B-DC5	B-DC6	B-DC7	B-DC8	B-DC9	B-DC10	B-DC11	B-DC12	B-DC13	B-DC14	B-DC15	B-DC16	B-Ph1	B-Ph2	B-Ph3	B-Ph4	B-Ph5	B-Ph6	B-Ph7	B-Ph8	B-Ph9	B-Ph10	B-Ph11	B-Ph12	B-Ph13	B-Ph14	B-Ph15	B-Ph16	aux-1	digaux	

1430.090	1	1	0	256	0.2898	0.10276	0.10925	0.29309	0.14378	0.023583	0.099452	0.33098	0.24424	0.24257	0.23265	0.055053	0.19186	0.25552	0.06648	0.072874	-2.6083	-3.5583	-2.9354	-3.2396	-3.3396	-2.8208	-3.6125	-3.5083	-2.8667	-3.5938	-3.1875	-3.0917	-3.7229	-2.8979	-3.2833	-3.2583	132.857	155.164	-59.481	185.670	191.970	134.148	213.799	162.543	-55.133	131.372	-36.464	189.463	246.139	144.851	132.429	-42.407	7.0803e-05	0.00031411	7.755e-05	1017.7	1.3928e-06	2.0388e-06	1114.6	203.31	1.6757e-06	2.0285e-07	264	75.188	58.958	17.384	2.228e-06	24.594	8.5325e-05	7.2636e-05	2.001e-05	985.59	8.3686e-07	7.6519e-07	1081	199.06	8.4105e-07	7.6071e-07	256.3	74.554	58.188	17.246	7.7423e-07	24.345	215.083	6.331	21.071	-76.640	31.638	86.515	-76.284	-68.809	74.249	-76.118	-69.537	-62.497	-62.043	-54.952	78.427	-55.404	-8191	255	
1430.186	1	1	0	0	0.16824	0.24171	0.26577	0.40682	0.16795	0.11856	0.025183	0.046563	0.081565	0.11276	0.32012	0.16043	0.10481	0.29485	0.080729	0.20021	-2.5333	-3.5646	-2.9354	-3.2146	-3.6667	-2.8792	-3.5479	-3.5667	-2.8854	-3.7333	-3.3271	-2.8563	-3.7854	-3.0062	-3.1417	-3.4813	88.758	121.362	53.167	217.816	120.988	77.921	208.351	115.661	20.192	-0.675	157.551	-83.195	210.048	167.266	-38.223	268.098	6.1188e-05	0.00033348	2.8486e-05	1021.5	2.2246e-06	1.9381e-06	1118.7	203.87	1.0491e-06	3.2289e-06	263.67	75.402	59.009	17.446	3.004e-06	24.621	8.005e-05	6.8712e-05	1.9454e-05	989.06	8.6611e-07	7.7049e-07	1085.3	199.19	8.4218e-07	7.0871e-07	256.81	74.837	58.29	17.293	8.1329e-07	24.442	211.270	27.834	-1.397	-76.688	69.860	53.561	-76.331	-68.901	84.978	51.722	-69.209	-62.560	-62.233	-54.930	108.603	-55.278	-8191	255	
1430.306	1	1	0	0	0.22539	0.034456	0.10344	0.16019	0.041261	0.12957	0.17166	0.11682	0.084541	0.2253	0.09712	0.33485	0.21804	0.27754	0.10127	0.015713	-2.4167	-3.4521	-3.1271	-2.9396	-3.5604	-2.9625	-3.3667	-3.5438	-2.7521	-3.4042	-3.2687	-2.7396	-3.6437	-2.9813	-2.9979	-3.5938	-14.157	174.771	194.253	-57.621	121.326	-8.891	191.327	189.669	138.083	108.189	-13.132	-54.770	245.030	166.275	172.098	-37.644	5.1109e-05	0.00020311	5.4281e-05	1028.3	1.347e-06	2.6979e-06	1120	202.6	7.5507e-07	2.8987e-06	263.46	74.828	58.812	17.398	3.4162e-06	24.561	8.6397e-05	7.2382e-05	1.9772e-05	992.28	8.9792e-07	8.3398e-07	1088.7	199.44	9.1521e-07	8.7349e-07	256.89	74.733	58.155	17.213	8.8951e-07	24.218	207.357	24.788	-6.163	-76.663	20.481	73.300	-76.292	-68.525	-17.008	71.656	-69.629	-62.818	-61.673	-54.782	67.553	-55.860	-8191	255	
1430.403	1	1	0	0	0.07026	0.15584	0.036285	0.21893	0.044265	0.095164	0.39329	0.21887	0.13795	0.30271	0.20902	0.236	0.27141	0.13788	0.063192	0.048121	-2.4813	-3.4354	-3.3354	-2.9417	-3.6583	-2.9854	-3.2583	-3.6917	-2.7979	-3.3167	-3.5083	-3.075	-3.4979	-3.0812	-3.0042	-3.4833	241.277	4.844	16.501	219.851	73.083	185.198	226.115	238.323	-36.878	-26.033	107.783	-58.957	137.434	-81.794	168.626	84.440	6.7624e-05	0.00030076	7.3462e-05	1037.2	1.1185e-06	2.42e-06	1135.4	206.68	1.4175e-06	2.1902e-06	264.4	75.503	59.154	17.399	1.5867e-06	24.602	8.9775e-05	7.7322e-05	2.1474e-05	1001.6	8.8864e-07	8.123e-07	1099.3	201.36	8.693e-07	7.7846e-07	258.54	74.943	58.493	17.29	7.8063e-07	24.355	210.201	32.706	-6.260	-76.564	23.910	107.968	-76.605	-68.796	31.049	57.106	-69.704	-62.287	-61.603	-55.265	82.861	-55.344	-8191	255	
1430.499	1	1	0	0	0.18688	0.11248	0.17464	0.21895	0.10198	0.037278	0.13317	0.20575	0.13107	0.058395	0.33245	0.066772	0.073063	0.31071	0.14649	0.18278	-2.2625	-3.1792	-3.2229	-3.0167	-3.6271	-3.0375	-3.2188	-3.5687	-2.7833	-3.225	-3.4083	-2.8917	-3.4104	-3.2438	-2.9208	-3.5875	105.248	-2.833	127.566	223.617	124.033	244.116	203.587	175.243	9.389	85.837	157.535	42.176	188.245	84.052	-79.027	-16.726	5.9752e-05	0.00020191	8.0031e-05	1034.4	1.6691e-06	3.6883e-06	1129.3	203.97	1.2861e-06	3.1206e-06	264.56	75.452	58.92	17.327	2.7954e-06	24.657	8.1222e-05	6.5104e-05	1.8142e-05	1002.2	7.7722e-07	6.9467e-07	1096.8	200.06	7.6679e-07	6.6636e-07	257.47	74.557	58.284	17.196	7.3211e-07	24.308	208.456	55.034	-4.558	-76.503	93.944	89.095	-76.331	-68.594	77.660	37.711	-68.941	-62.322	-62.086	-54.651	92.279	-55.376	-8191	255	
1430.595	1	1	0	0	0.027106	0.047794	0.082125	0.1364	0.20728	0.051078	0.14729	0.095329	0.022832	0.092222	0.25183	0.24357	0.059297	0.035359	0.31612	0.076547	-2.5	-3.0625	-3.4917	-2.8375	-3.4375	-3.2708	-3.0563	-3.8458	-2.8104	-3.2313	-3.6271	-2.8958	-3.5083	-3.25	-2.8083	-3.6688	118.164	110.424	186.679	217.718	221.676	-30.609	247.927	136.406	-51.071	131.849	111.384	132.546	162.883	-73.763	242.935	239.747	5.2236e-05	0.0002123	5.1582e-05	1037.7	1.6259e-06	2.8752e-06	1124.6	203.74	1.0798e-06	2.8717e-06	263.89	75.162	58.989	17.356	1.453e-06	24.384	7.6417e-05	6.3553e-05	1.7156e-05	1002.3	7.5686e-07	6.9564e-07	1094.9	199.87	7.1095e-07	6.8276e-07	256.57	74.398	58.071	17.13	6.9896e-07	24.067	213.368	29.095	2.161	-76.627	87.897	69.354	-76.545	-69.099	65.758	57.755	-69.084	-62.340	-62.095	-54.536	76.131	-55.288	-8191	255	
1430.714	1	1	0	0	0.20718	0.03836	0.031082	0.1169	0.24556	0.37908	0.19899	0.10769	0.17844	0.078452	0.25079	0.10825	0.11439	0.34495	0.064384	0.096753	-2.5729	-2.7938	-3.6271	-2.9313	-3.2167	-3.4813	-2.9875	-3.4979	-3.1375	-3.1417	-3.7104	-2.9021	-3.3396	-3.375	-2.9271	-3.3646	199.544	72.574	167.663	-68.508	-36.616	-9.518	151.482	258.156	132.252	127.823	157.108	43.277	101.373	243.595	107.868	177.087	4.9142e-05	0.00037653	0.00011452	1023.8	1.0867e-06	7.7555e-07	1117.1	201.77	1.831e-06	1.0264e-06	260.65	74.278	58.491	17.257	2.2181e-06	24.361	7.162e-05	6.3615e-05	1.6206e-05	991.45	7.6264e-07	6.835e-07	1085	198.1	6.776e-07	6.8913e-07	253.56	73.863	57.609	17.069	6.8836e-07	24.11	203.196	34.303	2.754	-76.476	52.891	142.372	-76.321	-68.699	19.090	44.787	-69.164	-62.269	-61.688	-55.117	97.239	-55.488	-8191	255	
1430.785	1	1	0	0	0.13503	0.069761	0.1921	0.15118	0.11635	0.28463	0.11937	0.084537	0.28689	0.21683	0.10148	0.080036	0.099822	0.1811	0.30194	0.053434	-2.6521	-2.7896	-3.5125	-3.1521	-3.1458	-3.5312	-2.9229	-3.4813	-3.075	-2.8896	-3.5667	-2.9083	-3.2833	-3.4667	-2.75	-3.5208	75.774	-14.946	200.564	266.026	212.811	239.146	267.035	231.485	117.924	236.471	220.553	142.538	-86.519	247.819	208.377	-62.286	7.6508e-05	0.00034951	3.6802e-05	1021.5	1.8525e-06	3.0206e-06	1117.8	201.81	1.9817e-06	1.8386e-06	260.31	74.605	58.612	17.22	2.0384e-06	24.401	7.2499e-05	6.5778e-05	1.6723e-05	990.68	7.4503e-07	6.229e-07	1083.7	197.96	7.375e-07	6.9173e-07	254.09	73.959	57.874	17.055	6.9056e-07	24.098	219.244	51.048	27.419	-76.755	61.788	40.027	-76.182	-68.824	59.796	54.218	-69.492	-62.575	-61.818	-54.195	85.038	-55.201	-8191	255	
1430.882	1	1	0	0	0.14085	0.12151	0.10703	0.27135	0.10191	0.29169	0.22618	0.28789	0.20094	0.19459	0.086292	0.071596	0.18255	0.10724	0.31999	0.13968	-2.8375	-2.6688	-3.6667	-3.0083	-3.2875	-3.3771	-2.9479	-3.5604	-3.2792	-2.725	-3.7313	-2.8937	-3.125	-3.4562	-2.7687	-3.3229	221.868	255.251	14.308	269.687	42.329	36.637	138.002	-86.828	87.558	-11.654	-30.363	76.366	149.483	63.554	220.884	99.864	6.572e-05	0.00029077	5.6395e-05	1029.5	1.1028e-06	2.1899e-06	1117.1	202.73	6.6297e-07	3.2751e-06	261.95	75.385	58.065	17.346	9.7976e-07	24.518	6.8812e-05	6.2371e-05	1.6806e-05	991.88	7.3878e-07	6.178e-07	1085.5	198.62	6.9187e-07	6.4417e-07	254.48	74.2	57.61	17.079	7.2246e-07	24.11	214.726	2.704	-30.369	-76.562	91.854	41.345	-76.508	-68.899	-64.807	65.516	-69.161	-62.265	-61.743	-54.705	85.788	-55.433	-8191	255	
1430.978	1	1	0	0	0.093626	0.095018	0.3228	0.15808	0.070702	0.17778	0.11473	0.29	0.17343	0.097278	0.18066	0.098718	0.16729	0.32493	0.31104	0.20709	-3.1271	-2.8312	-3.3458	-3.1896	-2.9437	-3.5312	-2.9875	-3.1104	-3.4	-2.7687	-3.5833	-3.1875	-2.8542	-3.4521	-2.8937	-3.1521	239.395	218.227	211.545	251.642	99.861	165.780	238.373	-66.602	172.751	32.400	-9.135	260.541	81.337	262.577	267.480	208.996	5.9614e-05	0.00037939	6.6504e-05	1028.3	2.555e-07	2.8765e-06	1115.7	202.41	9.1585e-07	3.3832e-06	261.71	74.738	58.573	17.214	2.4367e-06	24.379	7.3093e-05	6.3501e-05	1.6688e-05	992.38	7.5459e-07	6.4227e-07	1084.9	198.49	7.0292e-07	6.733e-07	255.01	73.985	57.786	17.087	7.4605e-07	24.119	213.068	7.343	26.038	-76.572	153.633	58.103	-76.314	-68.832	-42.872	87.547	-69.210	-62.428	-62.335	-54.460	119.805	-55.118	-8191	255	
1431.098	1	1	0	0	0.079761	0.17082	0.097496	0.15495	0.27636	0.16415	0.25109	0.19779	0.09005	0.076561	0.23852	0.04201	0.092522	0.145	0.075213	0.2165	-3.05	-2.7667	-3.3292	-3.2958	-2.9813	-3.5812	-2.9354	-3.1375	-3.5417	-2.6479	-3.4354	-3.3146	-2.7854	-3.5479	-2.8812	-3.0854	69.016	196.259	179.669	-66.751	171.985	68.257	222.988	184.276	156.790	73.018	251.680	133.147	-53.831	-67.449	165.360	-34.803	5.8654e-05	0.00033249	6.7965e-05	1025.4	6.7394e-07	2.9202e-06	1118.3	202.23	4.7232e-07	1.8361e-06	262.32	74.327	58.413	17.419	2.1035e-06	24.379	7.2723e-05	6.5261e-05	1.7574e-05	991.46	8.1527e-07	7.0228e-07	1084.2	198.14	7.4676e-07	7.472e-07	254.95	74.083	57.798	17.14	7.8282e-07	24.158	237.403	7.122	-7.363	-76.604	149.157	76.755	-76.143	-68.643	115.269	85.326	-69.026	-62.495	-62.046	-54.900	22.629	-54.983	-8191	255	
1431.194	1	1	0	0	0.0784	0.13951	0.043475	0.18084	0.31113	0.18407	0.31271	0.099258	0.20765	0.13152	0.2566	0.033835	0.20346	0.15241	0.11688	0.14833	-3.2292	-2.7687	-3.2354	-3.4688	-2.6479	-3.6229	-3.0687	-3.1292	-3.6063	-2.8229	-3.3542	-3.5021	-2.7208	-3.5104	-2.9646	-2.95	117.535	23.731	-17.903	189.508	-16.848	24.997	186.745	-6.435	160.657	230.163	217.208	182.829	211.717	271.364	47.853	83.157	7.5006e-05	0.00031746	7.1242e-05	1028.5	2.243e-06	2.3351e-06	1117.5	202.32	5.281e-07	2.678e-06	262.13	74.767	58.776	17.343	1.4216e-06	24.381	7.7289e-05	7.2794e-05	1.895e-05	993.28	8.5011e-07	7.6047e-07	1085.8	198.46	8.333e-07	8.0297e-07	254.58	74.129	57.873	17.067	8.1091e-07	24.058	225.571	10.808	-25.510	-76.585	74.903	54.323	-76.535	-69.163	63.188	65.206	-69.309	-62.641	-62.079	-55.237	79.853	-55.208	-8191	255	
1431.291	1	1	0	0	0.089129	0.22348	0.076063	0.29308	0.17249	0.10693	0.1821	0.32504	0.059141	0.03795	0.19198	0.10994	0.10445	0.072877	0.19992	0.022029	-3.2938	-2.6333	-3.2667	-3.6771	-2.8646	-3.5479	-3.2521	-3.0667	-3.4562	-2.8354	-3.2146	-3.5896	-2.75	-3.5104	-3.0938	-3.1167	-5.241	4.810	267.924	262.520	48.303	147.366	198.765	-55.367	-18.383	-61.447	164.358	139.270	-19.595	232.391	41.233	143.982	5.5242e-05	0.00037374	8.7454e-05	1025	9.7889e-07	2.2021e-06	1115.6	202.32	1.3641e-06	3.1763e-06	260.95	74.591	58.503	17.221	2.9887e-06	24.398	8.4708e-05	7.5457e-05	2.1231e-05	989.47	8.8125e-07	7.6567e-07	1083.9	198.13	8.3897e-07	8.432e-07	254.32	74.036	57.646	17.053	8.3641e-07	24.141	203.560	8.615	10.081	-76.592	45.226	88.055	-76.131	-68.900	113.579	63.436	-69.148	-62.063	-61.654	-54.793	93.296	-55.820	-8191	255	
1431.387	1	1	0	0	0.15717	0.22051	0.14548	0.023256	0.10648	0.3424	0.17428	0.096913	0.31083	0.25699	0.1119	0.23134	0.087717	0.12118	0.184	0.15279	-3.2083	-2.9562	-3.0542	-3.6688	-2.9313	-3.325	-3.4708	-2.9667	-3.675	-2.8479	-3.3375	-3.4896	-3.0396	-3.5208	-3.4854	-2.9	84.097	4.112	90.690	-71.794	210.666	180.909	-32.329	210.898	-19.151	117.680	59.955	154.485	215.804	24.909	117.668	-2.858	5.4408e-05	0.00028561	8.2493e-05	1017.1	1.3572e-06	3.2129e-06	1108	201.4	5.6723e-07	2.7739e-06	262.56	74.722	58.739	17.537	2.1533e-06	24.567	8.2626e-05	7.7243e-05	2.0323e-05	985.4	8.9233e-07	8.0209e-07	1080.3	197.55	8.3085e-07	7.5926e-07	254.17	74.321	57.962	17.266	7.9285e-07	24.308	209.604	18.887	13.264	-76.534	-13.549	46.761	-76.272	-68.677	116.850	47.194	-69.089	-62.342	-62.134	-54.790	60.173	-55.325	-8191	255	
1431.483	1	1	0	0	0.1744	0.072212	0.21382	0.1112	0.26803	0.11388	0.26632	0.31033	0.16286	0.057695	0.10996	0.1151	0.15775	0.1462	0.10419	0.035747	-3.3271	-2.9125	-2.9521	-3.8	-2.7458	-3.5208	-3.675	-2.775	-3.6937	-3.2125	-3.1	-3.6708	-2.8625	-3.2542	-3.4667	-2.8333	-37.066	123.918	-29.852	153.973	95.532	120.928	230.687	219.578	32.148	112.891	-82.402	194.702	114.622	9.649	243.370	-46.626	5.473e-05	0.00027528	4.9417e-05	1025.3	2.1475e-06	2.6652e-06	1110.2	201.38	7.9494e-07	2.4897e-06	261.93	75.144	58.161	17.354	1.7844e-06	24.475	8.5919e-05	7.5351e-05	2.0538e-05	990.56	8.894e-07	7.9043e-07	1078.9	197.4	8.0477e-07	7.7865e-07	254.06	74.32	57.566	17.171	7.7452e-07	24.224	191.215	4.025	-7.843	-76.435	40.754	33.147	-76.100	-68.806	112.662	88.452	-69.135	-62.493	-62.048	-55.053	113.255	-55.234	-8191	255	
1431.579	1	1	0	0	0.083662	0.084864	0.088211	0.11657	0.27212	0.1396	0.40701	0.18231	0.1772	0.16313	0.14444	0.19118	0.048488	0.039268	0.12036	0.21758	-3.2125	-3.0521	-2.9292	-3.6604	-3.0042	-3.1729	-3.7562	-2.7042	-3.4771	-3.1417	-2.9896	-3.7188	-2.8979	-3.2271	-3.3958	-2.8563	239.574	41.558	16.933	-79.086	90.133	78.635	269.920	245.972	77.517	159.430	187.577	51.769	-73.744	45.143	68.677	-57.238	7.5825e-05	0.00032965	6.4053e-05	1003.7	3.1953e-06	2.3174e-06	1094.1	201.57	7.8082e-07	8.1198e-07	262.08	75.411	59.054	17.551	1.6285e-06	24.579	7.705e-05	6.6295e-05	1.7741e-05	972.62	7.2733e-07	6.4082e-07	1065.6	197.34	6.3971e-07	5.9776e-07	254.07	74.528	58.099	17.351	5.8941e-07	24.316	202.450	10.472	32.519	-76.534	59.993	55.744	-76.234	-68.583	59.742	73.687	-69.299	-61.935	-61.781	-54.687	76.992	-55.061	-8191	255	
1431.675	1	1	0	0	0.26222	0.20058	0.053143	0.20643	0.26624	0.18862	0.15394	0.27485	0.060092	0.14485	0.085139	0.13486	0.12537	0.19101	0.05557	0.31496	-3.0354	-3.2646	-2.7396	-3.6542	-2.9313	-3.1917	-3.6833	-2.8375	-3.2667	-3.3833	-2.8396	-3.5083	-3.0979	-3.0542	-3.6333	-2.7292	141.183	-69.888	-37.638	228.527	-29.535	-35.693	268.957	189.707	67.195	236.253	-37.691	32.148	193.191	207.424	-32.398	-68.534	7.8712e-05	0.00031524	3.479e-05	1000.6	1.5059e-06	2.7539e-06	1090.5	200.31	1.1052e-06	4.5972e-06	258.37	74.273	58.201	17.358	3.1323e-06	24.326	6.6607e-05	5.5145e-05	1.6206e-05	967.7	7.0385e-07	5.8726e-07	1057.7	195.81	6.981e-07	6.3828e-07	250.96	73.91	57.42	17.107	6.8855e-07	24.112	214.415	11.198	-29.020	-76.415	49.769	42.621	-76.237	-68.458	43.523	66.154	-69.310	-62.212	-61.783	-54.539	52.493	-55.409	-8191	255	
1431.794	1	1	0	0	0.11854	0.15725	0.19635	0.055583	0.059297	0.24674	0.06787	0.078988	0.1225	0.15068	0.070489	0.1083	0.064805	0.25019	0.11017	0.21197	-2.9208	-3.3229	-2.8917	-3.6979	-3.1833	-3.0687	-3.6688	-2.9375	-3.2188	-3.4271	-2.9042	-3.5354	-3.1521	-2.9958	-3.5604	-2.825	-1.888	74.450	51.828	178.751	87.655	51.806	230.288	197.905	-40.033	68.286	-38.535	250.473	75.661	263.917	236.229	137.562	7.1258e-05	0.00021365	7.6438e-05	999	1.5314e-06	1.9606e-06	1086.3	198.38	1.7755e-06	1.5493e-06	257.17	74.012	57.79	17.182	2.8104e-06	24.158	7.3216e-05	6.3501e-05	1.8771e-05	965.25	8.2398e-07	7.3629e-07	1055.8	194.68	8.009e-07	7.3543e-07	250.71	73.263	56.993	16.942	7.664e-07	23.877	205.112	2.067	-2.155	-76.438	120.319	64.280	-76.202	-68.385	68.990	83.428	-68.935	-62.125	-61.951	-54.819	86.277	-55.318	-8191	255	
1431.890	1	1	0	0	0.12644	0.080159	0.21779	0.13829	0.1516	0.1854	0.053663	0.21988	0.096492	0.12105	0.33864	0.10207	0.09109	0.14813	0.036736	0.23153	-2.8125	-3.3917	-2.9042	-3.6625	-3.1063	-2.8688	-3.7417	-2.9646	-3.1312	-3.3875	-2.8604	-3.2979	-3	-2.8917	-3.4667	-2.9125	193.492	98.451	29.644	194.382	153.320	-35.164	-24.845	-43.640	29.085	60.421	-5.879	-27.256	95.144	111.891	67.807	149.395	7.0934e-05	0.00029924	6.8825e-05	984.8	1.5447e-06	2.2573e-06	1071.9	196.51	5.749e-07	2.8267e-06	253.73	72.612	56.908	16.85	1.5721e-06	23.958	7.9656e-05	6.7626e-05	1.9146e-05	954.24	8.0722e-07	7.3909e-07	1041.6	192.66	8.0316e-07	7.417e-07	246.38	72.273	56.174	16.705	7.9209e-07	23.618	225.202	18.454	-3.398	-76.438	47.515	42.526	-76.157	-68.639	149.220	38.721	-69.060	-62.492	-61.904	-54.933	58.537	-55.291	-8191	255	
1431.986	1	1	0	0	0.091901	0.085138	0.43713	0.26745	0.049472	0.10818	0.26487	0.30615	0.18063	0.089864	0.16929	0.3092	0.17851	0.18725	0.11964	0.2661	-2.8417	-3.5	-2.6125	-3.475	-3.475	-2.8875	-3.575	-2.9437	-2.8646	-3.6625	-2.7125	-3.3958	-3.2792	-2.875	-3.5917	-3.0354	207.179	35.814	-67.656	-53.987	161.580	154.405	201.993	121.610	19.558	51.155	-65.398	-80.116	222.067	138.900	268.256	227.883	6.8674e-05	0.00019482	4.7679e-05	982.94	1.11e-06	3.7572e-06	1074.6	197.67	1.0693e-06	3.0002e-06	252.78	72.861	57.155	16.86	3.0408e-06	23.683	8.4207e-05	7.1515e-05	2.105e-05	950.68	8.8296e-07	8.2328e-07	1040.7	192.7	8.9849e-07	7.9033e-07	245.88	72.072	56.042	16.635	8.4615e-07	23.451	210.119	-25.150	-2.361	-76.342	150.527	51.478	-76.294	-68.627	103.135	28.864	-68.836	-62.218	-61.718	-54.131	37.325	-55.198	-8191	255	
1432.083	1	1	0	0	0.16821	0.39087	0.092839	0.24771	0.11152	0.25102	0.28296	0.098438	0.16994	0.1121	0.050538	0.077289	0.071068	0.2384	0.10824	0.2382	-2.5917	-3.5687	-2.7562	-3.4375	-3.4854	-2.9396	-3.5417	-3.2521	-2.875	-3.8354	-2.9354	-3.3625	-3.4542	-2.7729	-3.4667	-3.2771	-64.520	138.761	-80.681	-61.138	-78.503	165.804	-59.975	-60.627	244.971	75.706	-12.750	227.269	270.885	-72.234	221.215	123.883	5.9224e-05	0.00023093	6.8695e-05	978.11	1.3566e-06	2.9372e-06	1072.5	195.25	6.3864e-07	2.5715e-06	248.98	72.26	57.056	16.809	1.6541e-06	23.63	8.5595e-05	7.5264e-05	2.1459e-05	946.91	9.1571e-07	8.6461e-07	1038.2	191.79	9.2343e-07	8.1136e-07	243.52	71.852	55.96	16.582	8.2743e-07	23.481	216.705	-11.005	-12.478	-76.231	73.666	58.330	-76.059	-68.535	-20.160	53.619	-68.896	-62.431	-61.589	-54.571	74.478	-54.933	-8191	255	
1432.179	1	1	0	0	0.084603	0.15686	0.10953	0.2413	0.1029	0.053603	0.15209	0.35812	0.065645	0.30534	0.3618	0.21806	0.38955	0.101	0.12645	0.29532	-2.3125	-3.6521	-2.8187	-3.4375	-3.5625	-2.7104	-3.3667	-3.45	-2.9854	-3.7125	-3.0021	-3.1104	-3.5438	-2.6854	-3.5687	-3.4104	-3.202	111.495	-73.150	211.626	-21.572	-4.980	177.881	152.146	76.461	74.027	202.237	-46.611	180.492	19.844	225.662	266.226	4.8025e-05	0.00012847	5.8019e-05	981.24	2.091e-06	7.7909e-07	1072.6	196.77	8.0777e-07	2.4348e-06	251.5	71.899	56.776	16.84	2.6545e-06	23.639	8.7485e-05	7.6078e-05	2.1373e-05	950.24	8.8854e-07	8.1057e-07	1040.6	192.56	8.898e-07	7.6939e-07	244.74	71.778	55.912	16.649	8.1282e-07	23.437	218.092	33.689	43.081	-76.424	55.403	76.782	-76.183	-68.244	87.893	86.416	-68.890	-62.512	-61.433	-54.552	56.309	-54.663	-8191	255	
1432.275	1	1	0	0	0.33099	0.12004	0.10515	0.17787	0.022043	0.24505	0.27631	0.1561	0.21922	0.19811	0.18124	0.23769	0.081427	0.32095	0.041808	0.28565	-2.6542	-3.7396	-3.1854	-3.2333	-3.625	-2.95	-3.575	-3.4021	-2.8542	-3.4375	-2.9854	-3.1625	-3.6729	-2.8792	-3.3146	-3.6125	-73.669	65.437	173.052	240.082	259.787	184.506	-72.501	49.681	41.555	-84.746	228.816	-74.502	137.039	222.036	-12.104	135.892	6.1846e-05	0.00019917	5.243e-05	981.01	1.5563e-06	9.0958e-07	1071.2	197.88	1.0399e-06	2.8819e-07	251.6	72.309	57.308	16.905	7.2788e-07	24.231	8.6351e-05	7.4274e-05	2.2093e-05	950.76	8.7472e-07	7.4833e-07	1043	193.14	8.9632e-07	7.5415e-07	245.67	72.246	56.366	16.732	6.9505e-07	23.827	229.605	-31.555	31.495	-76.374	85.352	138.559	-76.138	-68.521	86.755	-61.073	-68.737	-61.939	-61.308	-54.479	90.135	-55.163	-8191	255	
1432.395	1	1	0	0	0.19133	0.17217	0.21829	0.23	0.21922	0.080464	0.20362	0.024129	0.10026	0.15057	0.10977	0.13307	0.10293	0.22637	0.13392	0.17412	-2.3854	-3.4792	-3.2062	-3.1688	-3.575	-2.8708	-3.5104	-3.6583	-2.8125	-3.4688	-3.2625	-2.9604	-3.5979	-2.9583	-3.1792	-3.775	-25.452	265.030	110.193	270.110	-0.786	0.364	197.061	138.431	-3.783	17.806	238.234	222.833	200.588	244.181	229.608	179.720	4.0952e-05	0.00028984	7.8174e-05	989.53	1.2592e-06	2.7658e-06	1085.2	197.41	1.1453e-06	1.9283e-06	254.32	73.146	57.262	17.038	1.3127e-06	24.089	7.3047e-05	6.019e-05	1.6573e-05	955.87	7.2543e-07	6.652e-07	1050.1	194.1	7.8068e-07	6.6346e-07	247.44	72.672	56.637	16.818	6.747e-07	23.736	221.333	-31.192	24.869	-76.513	26.179	59.320	-76.016	-68.530	46.061	57.497	-69.234	-62.391	-61.718	-54.896	92.244	-55.294	-8191	255	
1432.492	1	1	0	0	0.12808	0.1257	0.007842	0.030233	0.10975	0.11576	0.061135	0.092643	0.17473	0.12411	0.16005	0.17323	0.062892	0.074436	0.17395	0.16369	-2.4896	-3.3812	-3.1833	-3.0271	-3.6021	-2.9083	-3.3354	-3.5208	-2.8229	-3.5167	-3.5625	-3.0958	-3.6521	-3.1208	-2.9813	-3.5938	-23.496	216.757	212.474	94.716	173.272	220.712	77.245	45.031	140.190	149.210	228.410	251.704	155.224	163.985	6.361	201.952	5.7197e-05	0.00021405	4.7413e-05	992.26	6.8897e-07	2.7523e-06	1081.5	198.91	1.2586e-06	1.9141e-06	254.67	72.961	57.312	16.96	2.1704e-06	23.952	7.398e-05	6.1451e-05	1.7308e-05	959.38	7.5128e-07	6.8822e-07	1054.3	194.63	7.1057e-07	6.5304e-07	248.04	72.707	56.58	16.762	7.1558e-07	23.638	228.772	28.538	2.587	-76.117	40.853	68.373	-76.190	-68.458	149.243	53.476	-68.992	-61.998	-61.787	-54.817	72.883	-55.135	-8191	255	
1432.586	1	1	0	0	0.26465	0.22852	0.20121	0.15589	0.1119	0.16562	0.19224	0.20157	0.21039	0.29125	0.092214	0.083421	0.30206	0.25937	0.089058	0.30947	-2.4938	-3.2458	-3.4125	-3.0042	-3.5604	-3.1646	-3.2375	-3.7167	-2.8229	-3.2271	-3.6229	-2.8396	-3.6958	-3.1396	-3.0229	-3.8083	55.649	223.000	-61.267	231.732	-56.010	-79.544	266.809	118.243	-10.613	-65.582	-23.988	-57.339	158.876	210.524	37.882	-8.138	5.7107e-05	0.00025964	6.943e-05	993.34	2.3029e-06	2.3766e-06	1085.4	198.07	8.4745e-07	1.4057e-06	254.72	72.973	57.165	16.772	1.4222e-06	23.834	7.6417e-05	6.499e-05	1.7878e-05	959.32	7.5535e-07	6.9535e-07	1051.4	193.96	7.8153e-07	7.1845e-07	247.45	72.309	56.311	16.646	8.1062e-07	23.546	216.768	42.167	12.774	-76.243	52.347	42.677	-76.014	-68.596	151.760	97.123	-68.406	-62.258	-61.688	-54.520	94.273	-55.064	-8191	255	
1432.659	1	1	0	0	0.090049	0.3467	0.12377	0.23646	0.20885	0.14106	0.11415	0.057012	0.076752	0.30829	0.18876	0.2242	0.16917	0.17947	0.038794	0.21796	-2.4792	-3.0979	-3.5375	-2.9021	-3.6021	-3.3729	-2.9833	-3.6125	-2.8729	-3.3167	-3.7021	-2.9062	-3.4667	-3.3042	-2.9292	-3.3792	102.199	-74.678	-23.366	172.504	-31.999	250.502	247.355	-29.118	130.112	86.111	-75.579	191.128	-78.690	205.645	94.346	241.846	2.9122e-05	0.00015502	1.461e-05	991.82	2.4543e-06	1.6757e-06	1090.7	198.59	1.2281e-06	1.9336e-06	254.52	73.163	57.09	16.92	1.9395e-06	23.846	8.3027e-05	7.6823e-05	1.9696e-05	960.37	9.444e-07	8.543e-07	1057.1	194.91	9.7266e-07	8.6722e-07	248.6	72.592	56.49	16.741	9.7032e-07	23.712	206.011	-2.914	-75.038	-76.373	107.155	80.371	-76.199	-68.597	39.912	93.867	-68.727	-61.859	-61.635	-54.617	107.478	-55.286	-8191	255	
1432.756	1	1	0	0	0.074209	0.072269	0.3136	0.27332	0.3108	0.32602	0.25089	0.16195	0.31382	0.1696	0.21167	0.076137	0.052374	0.1208	0.067657	0.1918	-2.5896	-3.1625	-3.6917	-2.8375	-3.3125	-3.5625	-2.9208	-3.7542	-3.0646	-3.0167	-3.725	-2.9604	-3.3958	-3.3271	-2.6771	-3.5604	-75.733	209.982	37.365	-69.852	-20.565	141.122	199.314	156.382	96.519	219.010	37.989	234.632	220.105	-18.459	156.877	-33.269	5.6359e-05	0.0002865	0.00010323	1003.2	5.169e-07	3.9031e-06	1095.9	200.04	1.1385e-06	2.4737e-06	254.28	72.92	57.481	16.874	2.588e-06	23.91	9.0084e-05	8.9506e-05	2.3576e-05	970.69	1.0491e-06	9.7029e-07	1064.9	195.82	1.0595e-06	9.9852e-07	248.85	72.477	56.715	16.756	1.0882e-06	23.688	229.754	-4.438	-0.447	-76.174	46.664	123.474	-76.181	-68.379	91.316	79.026	-69.155	-62.154	-61.778	-54.257	105.180	-55.342	-8191	255	
1432.875	1	1	0	0	0.26831	0.090488	0.097015	0.17131	0.17902	0.20433	0.17738	0.29916	0.090182	0.058287	0.17124	0.14967	0.17586	0.21099	0.12786	0.19667	-2.6333	-2.9917	-3.6104	-2.9083	-3.2417	-3.55	-3.0146	-3.4792	-3.2188	-2.85	-3.6063	-2.9292	-3.3583	-3.4854	-2.7833	-3.4813	9.352	178.470	252.868	266.751	-74.292	89.292	162.388	234.042	44.726	164.186	153.329	-72.841	-78.211	-59.169	22.669	-51.927	5.1721e-05	0.00035458	8.6928e-05	1003.1	2.1627e-06	2.4152e-06	1098.9	199.16	1.4473e-06	1.7365e-06	257.2	73.533	57.929	16.903	1.5176e-06	23.981	0.00010033	9.561e-05	2.5336e-05	971.76	1.0943e-06	9.7048e-07	1068	196.04	1.0791e-06	9.9399e-07	250.37	72.9	56.859	16.817	9.9572e-07	23.774	201.230	16.501	-5.980	-76.476	68.957	57.664	-76.160	-68.275	68.614	33.592	-68.878	-62.243	-61.511	-54.403	74.481	-55.264	-8191	255	
1432.971	1	1	0	0	0.16392	0.098427	0.039581	0.086699	0.046652	0.079572	0.32466	0.18581	0.19713	0.17151	0.030413	0.1543	0.15336	0.0486	0.1379	0.15442	-2.8917	-2.8917	-3.8312	-3.0146	-3.0479	-3.5146	-3.0771	-3.4917	-3.2979	-2.7042	-3.6354	-2.9958	-3.1417	-3.5771	-3.0021	-3.5354	-3.167	134.236	50.239	225.254	108.428	-1.310	218.972	-41.309	21.553	70.685	132.640	116.614	93.970	-78.262	16.944	258.523	7.4941e-05	0.00030313	3.5582e-05	1006.1	1.9912e-06	1.3743e-06	1092.8	199.62	5.8291e-07	2.706e-06	256.19	73.374	57.594	17.023	1.8287e-07	24.017	9.8105e-05	9.1126e-05	2.4398e-05	972.57	1.073e-06	9.5931e-07	1063.2	196.25	1.0206e-06	9.3967e-07	248.88	72.923	56.748	16.841	8.962e-07	23.719	228.354	-16.693	-45.393	-76.282	140.218	-1.794	-75.927	-68.601	109.245	42.927	-69.161	-62.040	-61.281	-54.854	171.724	-55.368	-8191	255	
1433.067	1	1	0	0	0.16273	0.04723	0.10495	0.18431	0.13966	0.12993	0.32748	0.14644	0.088446	0.28679	0.15682	0.2633	0.24543	0.12569	0.088173	0.070473	-2.8021	-2.6542	-3.4833	-3.2875	-3.1063	-3.6479	-2.9771	-3.2958	-3.4896	-2.7583	-3.6104	-3.3312	-2.9271	-3.5792	-2.8937	-3.4292	206.708	131.472	-48.017	202.474	-51.397	152.294	131.593	-58.420	224.428	252.909	-61.880	11.117	13.441	0.245	37.916	176.607	4.9657e-05	0.00029078	5.6063e-05	1000.3	6.2575e-07	9.9158e-07	1089.9	199.77	9.9431e-07	3.0185e-06	255.37	73.23	57.693	16.953	1.406e-06	24.107	8.1153e-05	7.1857e-05	1.9356e-05	966.8	8.0495e-07	7.1356e-07	1056.5	195.36	7.4033e-07	7.2752e-07	248.04	72.765	56.56	16.77	7.5541e-07	23.703	221.487	-7.680	-18.415	-76.416	253.006	64.913	-76.149	-68.655	84.492	37.079	-69.016	-62.405	-61.730	-54.959	56.813	-54.742	-8191	255	
1433.187	1	1	0	0	0.046651	0.056451	0.27878	0.08119	0.15477	0.087557	0.48152	0.19347	0.082735	0.27491	0.18771	0.067056	0.24648	0.18731	0.058077	0.14205	-3.0062	-2.8208	-3.5125	-3.2375	-2.8812	-3.7125	-3.125	-3.2521	-3.5125	-2.9313	-3.6312	-3.35	-2.9562	-3.5583	-2.9479	-3.1521	141.469	134.790	179.901	25.509	-12.211	58.005	180.128	90.485	33.871	-28.817	210.096	-59.360	111.719	236.261	100.881	113.786	6.7026e-05	0.00026698	7.9471e-05	997.95	1.5696e-06	3.9561e-06	1092.3	198.95	8.6855e-07	4.1845e-06	253.76	73.296	57.073	16.982	1.4323e-06	24.095	7.715e-05	6.8931e-05	1.869e-05	968.11	8.5986e-07	7.5479e-07	1060.9	195.16	8.2565e-07	8.0306e-07	247.78	72.701	56.542	16.777	9.1501e-07	23.791	231.817	8.139	17.380	-76.414	56.539	74.436	-76.086	-68.461	35.556	52.960	-69.004	-62.241	-61.913	-54.650	61.277	-55.298	-8191	255	
1433.259	1	1	0	0	0.14327	0.17307	0.17666	0.25922	0.17119	0.061593	0.50923	0.14152	0.096656	0.11305	0.21834	0.2186	0.24381	0.050756	0.090132	0.046684	-3.4083	-2.6354	-3.4083	-3.3187	-2.8896	-3.5917	-3.2062	-3.0542	-3.5354	-2.8125	-3.3604	-3.5146	-2.8104	-3.6729	-3.0771	-3.0521	105.123	-22.628	-9.972	-86.011	90.317	13.749	272.038	270.110	220.413	148.580	167.964	129.035	207.405	60.099	-29.762	264.467	6.2451e-05	0.00025245	4.5616e-05	998.53	9.3749e-07	2.9158e-06	1090.7	200.3	1.5143e-06	1.4573e-06	254.34	73.259	57.573	16.935	1.3862e-06	23.903	9.4303e-05	8.7062e-05	2.478e-05	968.5	1.1058e-06	1.0136e-06	1062.3	195.88	1.1063e-06	1.1404e-06	248.27	72.736	56.877	16.783	1.0457e-06	23.693	205.215	-7.508	49.067	-76.234	-64.018	84.934	-75.979	-68.696	35.873	58.001	-68.729	-62.111	-61.471	-54.597	18.313	-55.293	-8191	255	
1433.355	1	1	0	0	0.10526	0.16819	0.19224	0.44388	0.2793	0.067691	0.20408	0.13378	0.16947	0.059662	0.14138	0.32227	0.064728	0.094435	0.39856	0.14957	-3.2021	-2.8896	-3.2833	-3.675	-2.8187	-3.5021	-3.3563	-2.775	-3.6896	-2.9646	-3.475	-3.4271	-2.7979	-3.5438	-2.9521	-3.1	263.389	117.627	-43.289	262.243	-69.487	-26.727	223.570	-80.657	49.539	132.550	265.090	186.698	121.778	-14.451	156.735	224.678	7.0062e-05	7.5079e-05	6.0258e-05	1002	1.7519e-06	2.2407e-06	1091.7	198.02	1.1581e-06	3.8018e-06	255.89	73.008	57.414	17.012	6.513e-07	23.744	9.7102e-05	9.0311e-05	2.5179e-05	968.93	1.0079e-06	9.3291e-07	1059.6	195.4	1.0156e-06	1.0344e-06	248.01	72.64	56.513	16.802	1.1782e-06	23.639	215.273	148.060	22.567	-76.373	80.727	97.828	-76.024	-68.773	69.006	42.083	-68.907	-62.106	-61.805	-54.560	74.210	-54.971	-8191	255	
1433.476	1	1	0	0	0.12488	0.14289	0.07022	0.25091	0.12726	0.11291	0.15546	0.076174	0.026229	0.12946	0.15939	0.10936	0.15852	0.56262	0.30832	0.12074	-3.4021	-2.9313	-3.0979	-3.4542	-3.0604	-3.4771	-3.2	-3.025	-3.5771	-3.0271	-3.3729	-3.6188	-3.0146	-3.4437	-3.4729	-2.9479	105.428	-39.642	-86.495	213.466	-57.172	141.376	152.373	51.652	19.901	43.171	-71.436	182.508	34.060	-50.283	252.328	-81.636	5.668e-05	0.00021298	7.2326e-05	996.1	1.892e-06	1.6122e-06	1090.4	198.28	1.5262e-06	2.0855e-06	253.71	71.992	56.682	16.777	2.3411e-06	23.576	0.00011549	0.00010898	3.0885e-05	966.32	1.3436e-06	1.2611e-06	1059	195.21	1.3394e-06	1.3383e-06	246.68	71.982	56.226	16.603	1.345e-06	23.42	219.111	45.397	52.189	-76.340	36.520	13.131	-75.944	-68.590	126.167	52.231	-69.217	-61.799	-61.699	-54.863	81.103	-55.366	-8191	255	
1433.572	1	1	0	0	0.087065	0.20132	0.15688	0.059616	0.17812	0.10995	0.16848	0.097135	0.12533	0.19109	0.13088	0.15215	0.27057	0.17303	0.16882	0.1685	-3.4437	-2.9854	-2.9271	-3.7458	-2.7438	-3.4313	-3.4062	-2.8792	-3.5771	-3.0625	-3.0792	-3.6667	-3.0146	-3.5646	-3.5792	-2.9062	26.758	150.209	-21.911	110.693	39.784	-20.108	15.168	178.505	-29.133	170.059	74.614	122.886	111.554	258.242	231.163	197.444	5.8612e-05	0.00025324	8.4738e-05	995.04	2.1503e-06	1.3183e-06	1085.4	196.91	1.4074e-06	3.4209e-06	250.95	71.729	56.653	16.671	7.2854e-07	23.574	0.00012373	0.00011819	3.3724e-05	959.82	1.3639e-06	1.2265e-06	1050	193.46	1.2779e-06	1.1842e-06	245.36	71.487	55.858	16.585	1.0757e-06	23.318	235.248	19.096	20.991	-76.267	83.692	109.869	-75.858	-68.362	33.266	12.668	-69.219	-62.078	-61.592	-54.090	85.544	-55.146	-8191	255	
1433.666	1	1	0	0	0.05253	0.073844	0.21799	0.0727	0.1638	0.10045	0.1489	0.071644	0.1844	0.13034	0.035134	0.22259	0.23031	0.41808	0.19149	0.25716	-3.1708	-3.0354	-2.9833	-3.8875	-2.8896	-3.1958	-3.6063	-2.8958	-3.4854	-3.0646	-3.025	-3.6354	-3.025	-3.2271	-3.4938	-2.675	122.150	159.839	242.720	230.195	27.562	-0.198	216.879	143.222	61.281	13.331	-84.695	64.531	225.305	230.850	113.055	144.296	3.703e-05	0.00040732	8.1262e-05	988.23	1.2573e-06	3.6265e-06	1077.8	196.3	1.4262e-06	2.5698e-06	251.2	71.752	55.898	16.737	2.5365e-06	23.412	0.0001045	9.2992e-05	2.6029e-05	956.39	1.1002e-06	9.9842e-07	1044.8	192.55	9.7691e-07	9.2134e-07	244.46	71.539	55.515	16.447	9.0308e-07	23.183	227.037	-6.158	3.150	-76.030	78.824	67.513	-76.154	-68.326	0.631	33.369	-68.661	-62.280	-61.441	-54.319	87.149	-54.820	-8191	255	
1433.787	1	1	0	0	0.1667	0.046348	0.16349	0.14878	0.16932	0.079252	0.12511	0.12967	0.15505	0.23946	0.13463	0.074318	0.10814	0.18307	0.1422	0.12443	-3.0833	-3.3312	-2.8396	-3.8729	-2.6708	-3.1104	-3.7292	-3.0062	-3.4333	-3.3479	-3.0521	-3.6875	-3.1458	-3.1813	-3.7583	-2.9667	116.462	174.590	102.195	181.727	-57.806	123.924	243.130	-30.297	75.517	-79.840	154.009	193.978	-4.523	-28.312	63.144	46.160	5.3636e-05	0.00028923	5.1752e-05	974.75	8.3351e-07	1.5251e-06	1064.3	195.04	1.491e-06	1.1109e-06	249.7	71.801	55.96	16.538	2.1108e-06	23.395	8.7832e-05	8.0896e-05	2.372e-05	944.91	9.4856e-07	8.4573e-07	1034	191.36	8.4313e-07	7.8097e-07	242.83	70.952	55.103	16.359	7.2074e-07	23.056	210.607	-14.431	8.077	-76.046	168.505	55.103	-75.957	-68.256	45.233	55.804	-68.755	-62.197	-61.380	-54.553	96.049	-55.197	-8191	255	
1433.883	1	1	0	0	0.12131	0.1301	0.02669	0.059315	0.032983	0.011715	0.20585	0.2	0.14213	0.17716	0.17704	0.16529	0.091145	0.14112	0.032779	0.19162	-2.9542	-3.3312	-2.8917	-3.8	-3.0563	-3.0542	-3.7833	-2.8688	-3.5458	-3.4313	-2.8021	-3.5708	-3.05	-3.0312	-3.4542	-3.0417	87.834	168.725	191.445	-41.507	250.393	-70.925	270.087	161.498	4.043	198.650	204.695	114.024	-4.907	155.338	-76.455	-24.077	6.9649e-05	0.00024351	9.3707e-05	966.49	2.3462e-06	3.1695e-06	1056.2	194.82	3.8526e-07	2.399e-06	250.09	71.411	56.009	16.477	2.2846e-06	23.249	7.4859e-05	5.9551e-05	1.7917e-05	934.8	7.3888e-07	7.0691e-07	1024.8	190.81	6.9045e-07	6.1455e-07	242.27	70.869	55.15	16.345	6.3946e-07	23.052	218.684	25.518	27.992	-76.348	53.352	74.012	-76.126	-68.442	199.896	95.958	-68.675	-61.639	-61.747	-54.684	61.613	-54.365	-8191	255	
1433.955	1	1	0	0	0.16646	0.21162	0.14658	0.15061	0.13725	0.13407	0.35677	0.13533	0.03677	0.054196	0.2764	0.21932	0.073795	0.10629	0.22411	0.19421	-2.9562	-3.5021	-2.8042	-3.7292	-3.2625	-2.8583	-3.7125	-3.0125	-3.3104	-3.6646	-3.0125	-3.4625	-3.3104	-2.9521	-3.6167	-3.1167	116.025	104.144	141.322	258.874	59.080	-47.801	192.008	215.788	-26.360	74.411	204.573	194.587	-55.397	-39.389	-20.554	83.744	6.4014e-05	0.00024524	4.6886e-05	961.95	2.8682e-07	2.8395e-06	1052.1	194.57	6.2336e-07	3.1726e-06	248.02	71.122	55.808	16.427	3.6395e-06	23.236	6.9877e-05	5.5863e-05	1.7193e-05	930.39	6.9504e-07	6.6288e-07	1021.5	190.28	7.0311e-07	6.3192e-07	241.48	70.518	54.941	16.253	6.726e-07	23.019	219.460	54.149	5.024	-76.213	37.545	25.001	-75.903	-68.422	27.585	62.001	-68.807	-61.917	-61.674	-54.201	74.136	-55.100	-8191	255	
1434.051	1	1	0	0	0.089184	0.098588	0.13674	0.1759	0.12398	0.090532	0.28895	0.032004	0.12992	0.090493	0.081537	0.21739	0.22327	0.20287	0.1061	0.24269	-2.6042	-3.5875	-2.8958	-3.5479	-3.4521	-2.9417	-3.7687	-3.3396	-3.0833	-3.5833	-2.9125	-3.4146	-3.65	-2.8729	-3.75	-3.2687	244.301	205.186	209.155	255.563	225.975	-34.758	243.435	166.009	173.992	167.592	117.913	44.342	33.562	186.749	222.357	257.458	6.5689e-05	0.00018969	5.4361e-05	959.62	1.676e-06	2.9842e-06	1054	193.03	1.3656e-06	2.2014e-06	248.41	71.617	55.705	16.485	1.2274e-06	23.338	7.5137e-05	6.2441e-05	1.8358e-05	929.86	7.6122e-07	7.097e-07	1022.2	189.71	7.6877e-07	6.7504e-07	241.65	70.912	54.993	16.345	6.9247e-07	23.151	208.284	-1.053	28.614	-76.435	105.941	58.694	-76.257	-68.849	77.564	54.817	-69.135	-61.929	-61.695	-54.520	61.940	-54.755	-8191	255	
1434.172	1	1	0	0	0.022104	0.11603	0.24063	0.28829	0.21002	0.3486	0.093877	0.21037	0.037012	0.16196	0.013084	0.1027	0.24369	0.071629	0.1448	0.035113	-2.5938	-3.6146	-2.9104	-3.3646	-3.4125	-2.9604	-3.7875	-3.2542	-3.0583	-3.7438	-3.0146	-3.1937	-3.5521	-2.9208	-3.475	-3.2875	13.063	-14.024	134.007	249.341	266.834	250.703	137.887	195.560	97.975	150.852	174.757	259.744	-78.234	171.557	98.717	72.174	4.1812e-05	0.00038814	4.7152e-05	964.88	1.5859e-06	3.1177e-06	1051.4	193.37	5.2089e-07	1.9996e-06	248.82	70.95	55.552	16.391	2.4105e-06	23.461	7.7242e-05	6.3799e-05	1.7521e-05	934.43	7.4361e-07	7.5643e-07	1022.9	189.9	8.316e-07	6.7948e-07	242.16	70.816	54.819	16.284	8.0976e-07	23	227.465	-18.559	6.491	-76.323	76.247	69.307	-75.956	-68.385	31.318	39.978	-68.837	-62.026	-61.725	-54.062	103.315	-54.817	-8191	255	
1434.268	1	1	0	0	0.081204	0.14509	0.033077	0.1746	0.083848	0.17077	0.36086	0.16019	0.10348	0.21637	0.15838	0.11568	0.059743	0.090686	0.027389	0.0034956	-2.5604	-3.575	-2.8812	-3.1896	-3.5729	-2.825	-3.6229	-3.4896	-3.0125	-3.7625	-3.1417	-3.1562	-3.5354	-2.7583	-3.4958	-3.3063	226.599	113.057	-13.062	263.942	92.880	179.584	100.406	182.175	192.984	176.241	259.400	167.203	36.963	255.693	-67.590	203.723	6.0878e-05	0.00020557	9.5027e-05	960.6	8.135e-07	3.8288e-06	1051.7	193.66	1.1574e-06	2.425e-06	249.36	70.965	56.165	16.369	2.4638e-06	22.865	8.6104e-05	7.4169e-05	2.1863e-05	930.87	9.4979e-07	8.4669e-07	1021.9	189.63	9.8362e-07	8.7735e-07	241.9	70.557	55.04	16.186	9.6764e-07	22.774	214.838	-58.389	28.734	-76.492	69.739	76.922	-76.124	-68.498	46.233	78.010	-68.686	-62.291	-62.139	-55.089	83.846	-54.679	-8191	255	
1434.364	1	1	0	0	0.17316	0.084732	0.077897	0.32504	0.12906	0.2657	0.2008	0.011463	0.2421	0.083908	0.25453	0.21047	0.094073	0.22156	0.14203	0.084739	-2.4938	-3.5042	-3.0521	-3.1771	-3.6042	-2.6896	-3.6229	-3.4896	-2.7333	-3.6125	-3.1458	-3.0833	-3.4979	-2.8479	-3.3396	-3.4354	118.280	184.444	90.320	272.836	249.823	-34.991	173.745	-62.441	211.811	249.558	192.733	89.884	-42.296	-26.822	-1.679	255.968	7.7342e-05	0.00026854	6.7012e-05	965.3	1.484e-06	2.0183e-06	1055.4	194.43	9.4209e-07	3.3034e-07	250.19	71.97	55.932	16.376	2.6335e-06	23.017	9.8946e-05	8.6405e-05	2.5985e-05	932.81	1.0916e-06	1.0588e-06	1026.2	190.58	1.2667e-06	1.161e-06	243.55	71.143	55.266	16.294	1.272e-06	22.909	220.454	39.988	28.448	-76.445	235.859	34.685	-76.063	-68.289	69.377	268.736	-68.767	-61.776	-61.637	-54.566	72.883	-55.000	-8191	255	
1434.460	1	1	0	0	0.096918	0.26401	0.084953	0.44706	0.1633	0.16862	0.23109	0.22435	0.19287	0.16541	0.037458	0.16795	0.12545	0.20423	0.22529	0.16185	-2.5208	-3.4729	-3.1479	-2.9979	-3.6813	-2.9313	-3.2375	-3.4813	-2.8979	-3.5271	-3.2146	-2.9021	-3.6125	-3.0208	-3.0812	-3.5229	-80.025	41.103	44.864	205.674	157.727	229.122	189.928	254.913	213.747	-74.660	-39.886	-80.633	89.832	18.215	39.975	169.434	4.6029e-05	0.00047897	9.7249e-05	976.34	2.279e-06	2.7647e-05	1072.5	195.45	2.171e-06	3.1673e-06	252.16	71.668	56.046	16.458	2.7227e-06	23.166	0.00012036	0.00011324	3.2055e-05	943.58	1.3913e-06	1.7759e-06	1040.5	191.71	1.4895e-06	1.4475e-06	245.7	71.325	55.678	16.406	1.5849e-06	23.146	213.012	-6.403	10.776	-76.341	64.870	-38.729	-76.035	-68.692	45.186	80.225	-68.894	-61.804	-61.665	-54.684	67.712	-54.710	-8191	255	
1434.556	1	1	0	0	0.36066	0.25056	0.20434	0.13906	0.044861	0.098582	0.18718	0.10619	0.19095	0.13992	0.19051	0.13499	0.30132	0.14274	0.13685	0.058952	-2.5542	-3.3354	-3.2979	-2.85	-3.5146	-3.2562	-3.3125	-3.6229	-2.8146	-3.3104	-3.5292	-2.8354	-3.6021	-3.2	-3.0542	-3.6917	103.730	179.047	86.507	67.374	-73.073	62.685	158.988	253.054	-62.405	23.960	203.911	237.393	-1.545	144.412	-27.216	-14.577	5.8477e-05	6.3336e-05	5.1748e-05	993.66	1.0491e-06	2.2227e-06	1092.3	198.37	3.4464e-07	1.5239e-06	256.9	72.867	57.08	16.799	2.6178e-06	23.314	0.0001592	0.00015909	4.5997e-05	963.71	1.8881e-06	1.8111e-06	1061.1	194.78	1.9596e-06	1.8695e-06	250.18	72.633	56.563	16.636	1.8628e-06	23.339	215.583	42.831	31.318	-76.453	-45.001	18.544	-76.299	-68.446	208.035	-4.036	-69.129	-61.798	-61.513	-54.708	129.750	-54.912	-8191	255	
1434.652	1	1	0	0	0.042376	0.19406	0.17065	0.059734	0.28114	0.12078	0.35479	0.2471	0.16631	0.21675	0.058722	0.19958	0.11617	0.089395	0.18945	0.098663	-2.3792	-3.2479	-3.425	-2.9292	-3.6979	-3.0542	-3.2021	-3.7313	-2.8271	-3.3688	-3.5021	-2.9458	-3.6125	-3.0312	-2.9917	-3.7292	7.277	-77.463	-23.399	167.003	-20.084	105.299	196.285	-76.490	187.198	209.311	24.857	158.369	173.300	90.014	174.882	3.232	3.978e-05	0.00032199	9.6665e-05	1006.6	1.7134e-06	3.5266e-06	1097.4	199.31	2.0411e-06	1.1759e-06	258.35	72.92	57.153	16.678	1.7862e-06	23.329	0.00016585	0.00016515	4.6139e-05	976.83	1.8353e-06	1.7513e-06	1070.7	196.38	1.8797e-06	1.8079e-06	251.16	73.061	56.963	16.645	1.868e-06	23.41	201.155	30.393	-3.673	-76.520	76.477	20.704	-76.290	-68.513	60.043	40.911	-68.899	-62.344	-62.370	-55.186	86.767	-55.396	-8191	255	
1434.749	1	1	0	0	0.1376	0.13304	0.058727	0.34083	0.21285	0.10575	0.11624	0.18758	0.20177	0.21535	0.20194	0.23502	0.25113	0.10359	0.21061	0.24479	-2.5687	-3.175	-3.4688	-2.8646	-3.5375	-3.1958	-2.9417	-3.8896	-2.9667	-3.2062	-3.5729	-2.9062	-3.5375	-3.2958	-2.8542	-3.5729	188.819	265.234	125.231	221.696	56.381	-62.058	71.736	-67.248	82.267	51.224	220.426	-20.937	-30.982	125.315	248.464	-57.393	6.4848e-05	0.00023524	9.3933e-05	1017.5	2.8107e-07	3.2374e-06	1114.8	202.29	1.3259e-06	2.4389e-06	255.67	73.392	58.164	16.866	2.9238e-06	23.522	0.00016706	0.00016899	4.4988e-05	986.21	1.8888e-06	1.7509e-06	1082.4	198.25	1.69e-06	1.6691e-06	251.81	73.37	57.4	16.762	1.4861e-06	23.42	193.752	17.023	36.903	-76.491	180.062	-8.883	-76.371	-68.631	96.493	23.961	-69.264	-62.259	-62.062	-55.007	50.877	-55.454	-8191	255	
1434.867	1	1	0	0	0.072723	0.1757	0.15907	0.16342	0.094148	0.14033	0.18669	0.19735	0.18923	0.22416	0.08642	0.11373	0.27645	0.17326	0.2032	0.042115	-2.6229	-2.925	-3.5271	-3.0729	-3.4375	-3.3146	-2.8833	-3.7792	-3.1042	-3.0271	-3.6104	-3.0979	-3.25	-3.4542	-2.7833	-3.6188	-38.455	259.531	255.754	218.962	-5.328	45.146	71.910	138.742	229.253	183.853	269.819	117.378	270.227	-10.385	149.257	145.104	7.1125e-05	0.00021352	4.4572e-05	1013.9	2.319e-06	2.0226e-06	1099.1	199.93	1.321e-06	2.6851e-06	257.08	72.834	57.501	16.698	2.7791e-06	23.416	0.00013601	0.00013358	3.485e-05	980.6	1.5004e-06	1.3543e-06	1071.1	196.62	1.5169e-06	1.5255e-06	251.22	72.762	56.836	16.602	1.6165e-06	23.344	208.408	-68.749	-17.360	-76.405	56.164	28.976	-76.149	-68.760	54.209	71.668	-69.041	-62.197	-61.900	-54.093	77.024	-55.183	-8191	255	
1434.964	1	1	0	0	0.13565	0.051374	0.1595	0.15269	0.13686	0.063578	0.35622	0.097129	0.035999	0.048689	0.183	0.3535	0.21154	0.10434	0.23166	0.1526	-2.7021	-2.9708	-3.6125	-3.0875	-3.1542	-3.4688	-3.0146	-3.5729	-3.1479	-3.0521	-3.7771	-2.9292	-3.2313	-3.5375	-2.9146	-3.5708	-77.007	89.561	93.421	213.477	46.041	250.000	252.307	227.544	89.833	169.509	92.187	216.202	252.007	26.151	-32.170	-53.104	7.8754e-05	0.00028438	7.52e-05	1006.8	1.7587e-06	3.2983e-06	1099	198.97	1.0119e-06	3.073e-06	257.88	72.677	57.292	16.668	4.5625e-07	23.3	0.0001522	0.00015394	4.3329e-05	976.13	1.7887e-06	1.7091e-06	1069.6	196.46	1.8018e-06	1.792e-06	251.4	72.721	56.808	16.644	1.8682e-06	23.393	215.491	-2.478	-0.332	-76.697	120.745	31.765	-76.040	-68.389	129.069	30.681	-69.171	-62.257	-61.904	-54.940	26.305	-55.478	-8191	255	
1435.060	1	1	0	0	0.18476	0.17546	0.080894	0.17357	0.19995	0.031793	0.091712	0.20623	0.21432	0.15799	0.17378	0.079391	0.15246	0.084264	0.072943	0.078221	-3.0458	-2.8937	-3.4104	-3.1542	-2.9896	-3.3167	-2.8688	-3.4333	-3.3833	-2.8521	-3.7146	-3.0583	-3.1333	-3.3479	-2.5875	-3.6208	-77.955	-9.351	2.237	-65.129	212.799	-67.628	258.208	238.214	272.364	25.473	-58.915	208.007	41.796	123.280	174.146	-51.233	5.7351e-05	0.00015702	0.00010344	1009.5	1.3969e-06	4.2004e-06	1100	199.98	1.8261e-06	1.9879e-06	258.11	72.482	56.813	16.629	1.5073e-06	23.241	0.00016384	0.00016845	4.4785e-05	977.33	1.8031e-06	1.7044e-06	1068.5	196.54	1.7098e-06	1.6498e-06	251.7	72.563	56.591	16.587	1.5133e-06	23.244	205.607	11.163	14.885	-76.458	27.861	67.855	-76.540	-68.598	59.393	36.525	-68.963	-62.473	-61.678	-54.112	30.602	-55.033	-8191	255	
1435.156	1	1	0	0	0.19482	0.065149	0.11202	0.13445	0.12125	0.15985	0.14878	0.062901	0.091808	0.17094	0.10522	0.16372	0.092275	0.11353	0.11111	0.1417	-3.1271	-2.6396	-3.4271	-3.1958	-3.1167	-3.7062	-3.0104	-3.3937	-3.45	-2.7958	-3.7417	-3.0458	-2.9729	-3.6146	-2.9833	-3.1854	-49.744	248.678	233.299	263.888	236.997	240.467	211.454	-75.284	130.362	-84.013	-2.342	69.652	-25.695	-48.827	130.265	46.148	4.8497e-05	0.00021041	3.0491e-05	1002	3.0062e-06	2.04e-06	1090.1	199.08	1.3997e-06	7.0349e-07	253.25	72.037	56.751	16.653	6.4679e-07	23.287	0.00013418	0.00013488	3.7197e-05	972.74	1.5264e-06	1.4202e-06	1061.3	195.14	1.4944e-06	1.4027e-06	248.84	72.092	56.249	16.493	1.377e-06	23.168	207.607	-7.426	-12.509	-76.157	94.509	27.284	-76.110	-68.746	42.664	39.012	-69.163	-62.233	-61.700	-54.417	68.215	-55.286	-8191	255	
1435.250	1	1	0	0	0.057064	0.021904	0.040109	0.40565	0.18885	0.33675	0.27236	0.19161	0.10361	0.27343	0.15218	0.096355	0.24446	0.1227	0.22715	0.20716	-3.2438	-2.7354	-3.5604	-3.3729	-2.7354	-3.6104	-3.2458	-3.2729	-3.5667	-2.8	-3.5771	-3.3083	-2.8521	-3.7208	-3.0312	-3.2479	-56.878	-41.005	255.183	266.773	12.593	94.414	235.763	255.374	123.734	-10.079	3.358	-25.606	-49.319	-2.304	174.364	152.179	4.8324e-05	0.00030672	4.3995e-05	998.33	4.4589e-07	2.282e-06	1093	198.36	1.455e-06	1.6951e-06	257.37	72.666	57.068	16.738	3.8119e-06	23.294	0.00013399	0.00013157	3.6806e-05	967.83	1.5913e-06	1.554e-06	1062.1	195.08	1.7016e-06	1.6643e-06	250.17	72.435	56.59	16.624	1.7403e-06	23.194	216.218	43.136	73.934	-76.568	127.947	67.809	-75.981	-68.660	94.929	66.096	-69.136	-62.303	-61.936	-54.383	44.514	-55.294	-8191	255	
1435.346	1	1	0	0	0.077572	0.27071	0.072292	0.34409	0.23316	0.17404	0.29626	0.23813	0.18341	0.41768	0.070352	0.2868	0.10486	0.19808	0.13307	0.3259	-3.3521	-2.8021	-3.5833	-3.4375	-2.9396	-3.6417	-3.1979	-3.1625	-3.4833	-2.9437	-3.5833	-3.4688	-2.95	-3.4854	-2.9979	-3.1146	-83.266	101.390	222.538	258.965	216.847	106.393	143.619	-37.885	104.205	11.109	77.107	268.606	-27.523	-10.281	-73.426	267.566	5.5746e-05	0.0002192	2.6087e-05	1004.9	1.2502e-06	7.0039e-07	1098	199.27	8.3368e-07	1.7793e-06	255.21	73.246	57.079	16.654	3.3855e-06	23.59	0.00015624	0.00016488	4.6075e-05	974.62	1.9384e-06	1.8785e-06	1070.2	195.57	1.9734e-06	1.9896e-06	250.75	72.973	56.737	16.683	1.8585e-06	23.43	199.336	168.076	2.895	-76.436	112.256	71.125	-76.269	-68.523	56.262	3.978	-69.142	-62.085	-62.177	-55.062	101.146	-54.881	-8191	255	
1435.467	1	1	0	0	0.10888	0.19964	0.061292	0.18767	0.095919	0.070689	0.13144	0.17123	0.15277	0.22409	0.1875	0.16221	0.14788	0.11304	0.17707	0.1708	-3.375	-2.8479	-3.275	-3.5854	-2.8521	-3.6813	-3.1771	-3.0438	-3.7542	-3.0729	-3.4354	-3.3667	-2.875	-3.525	-3.2104	-2.8417	203.917	25.805	6.389	-47.730	226.203	93.844	166.637	-61.478	223.365	237.190	195.494	250.299	188.972	33.838	166.874	255.736	5.4665e-05	0.00045007	9.3221e-05	1010.2	1.2193e-06	3.132e-06	1098	199.58	6.4462e-07	2.4975e-06	256.52	72.823	56.958	16.738	1.1413e-06	23.453	0.00016119	0.00016331	4.6352e-05	979.3	1.8591e-06	1.7416e-06	1071.2	196.11	1.73e-06	1.6512e-06	250.67	72.757	56.675	16.683	1.6538e-06	23.407	221.037	30.092	24.343	-76.311	150.649	73.361	-76.099	-68.483	-16.442	37.033	-68.812	-62.132	-61.895	-54.579	63.141	-55.383	-8191	255	
1435.563	1	1	0	0	0.20691	0.079054	0.20713	0.066612	0.16066	0.17024	0.19013	0.17541	0.035416	0.27878	0.24715	0.31156	0.14951	0.081167	0.10501	0.14877	-3.2667	-2.8292	-3.1292	-3.675	-2.6917	-3.4062	-3.3417	-3.0583	-3.7125	-2.9583	-3.2354	-3.4333	-2.9521	-3.3729	-3.5438	-3.0646	200.445	-17.508	136.320	197.011	193.917	174.187	258.678	198.312	37.501	25.168	119.609	-53.615	243.440	162.735	38.604	-71.806	4.441e-05	0.00041397	0.00012488	1014.7	2.2902e-06	1.2056e-06	1108.5	199.4	1.2627e-06	4.9814e-06	257.95	73.174	57.213	16.794	2.2393e-06	23.727	0.00015524	0.00016036	4.2891e-05	984.56	1.7653e-06	1.7316e-06	1078.6	196.28	1.7349e-06	1.8353e-06	251.22	73.147	56.982	16.758	1.7824e-06	23.568	206.340	-3.878	26.654	-76.437	84.484	81.664	-75.788	-68.786	-31.479	92.378	-69.164	-62.063	-61.678	-54.450	136.446	-55.319	-8191	255	
1435.659	1	1	0	0	0.048253	0.29927	0.21981	0.35362	0.20175	0.28329	0.16624	0.12587	0.13741	0.14087	0.046742	0.20205	0.076855	0.10926	0.18425	0.21383	-3.2562	-3.1479	-3.2646	-3.575	-2.9562	-3.3208	-3.5229	-2.8167	-3.5583	-3.0812	-3.0812	-3.6792	-2.8521	-3.5271	-3.4917	-2.8146	-52.646	172.243	33.032	208.977	20.349	256.992	234.786	133.166	222.442	28.410	158.331	-24.543	235.851	113.782	-34.264	171.363	6.2006e-05	0.00032688	8.8656e-05	1020	1.4334e-06	5.2549e-06	1113.2	200.97	1.9584e-07	3.4067e-06	257.39	72.964	57.718	16.928	8.3883e-07	23.671	0.0001589	0.00016208	4.3968e-05	988.62	1.7557e-06	1.618e-06	1083.6	197.49	1.5426e-06	1.496e-06	251.31	73.178	57.087	16.8	1.2709e-06	23.545	197.418	22.606	21.536	-76.598	44.723	55.273	-76.123	-68.552	-70.743	59.631	-69.178	-62.027	-62.001	-54.574	62.039	-55.117	-8191	255	
1435.756	1	1	0	0	0.19779	0.23855	0.15958	0.14475	0.037608	0.18817	0.18534	0.19383	0.087689	0.11092	0.12471	0.10646	0.13766	0.28329	0.22365	0.117	-3.2979	-3.1188	-2.9729	-3.8125	-2.7875	-3.3771	-3.6167	-2.8229	-3.5021	-3.2896	-3.3292	-3.7708	-3.0917	-3.225	-3.5333	-2.8375	-35.738	67.248	-11.197	-42.587	109.192	161.527	154.733	131.717	-12.574	269.490	35.310	113.356	173.124	4.557	237.575	112.608	6.0322e-05	0.00031019	9.7399e-05	1016.6	1.5084e-06	4.8981e-06	1105.7	200	1.1747e-06	4.4832e-06	257.57	72.781	57.28	16.834	8.0824e-07	23.726	0.00011493	0.00011075	3.0706e-05	984.35	1.2766e-06	1.1119e-06	1075.5	196.99	1.0912e-06	1.0795e-06	250.62	72.843	56.718	16.71	1.0649e-06	23.557	228.627	46.118	-22.330	-76.316	73.859	62.822	-76.118	-68.620	83.746	81.500	-69.079	-62.252	-61.702	-54.285	11.784	-55.467	-8191	255	
1435.852	1	1	0	0	0.012388	0.10633	0.068875	0.092156	0.12994	0.18357	0.15536	0.13869	0.096283	0.20439	0.10799	0.045806	0.18846	0.17557	0.22569	0.18686	-3.1688	-3.1146	-2.9667	-3.8208	-2.9938	-3.1625	-3.5792	-2.8354	-3.4396	-3.4375	-2.9979	-3.7854	-2.9604	-3.2625	-3.5417	-2.9042	249.489	-12.875	-54.875	258.460	-11.412	83.948	235.960	213.242	173.685	254.168	-73.772	52.929	171.809	-74.971	-64.011	-51.430	7.9775e-05	0.00021647	7.6183e-05	1014	8.1708e-07	1.7359e-06	1111.8	201.51	5.0184e-07	1.2409e-06	256.63	73.637	57.257	16.882	9.0867e-07	23.798	0.00010185	9.4323e-05	2.8148e-05	980.6	1.124e-06	1.0673e-06	1075.8	196.97	1.1201e-06	1.0597e-06	249.64	72.857	56.806	16.771	1.0669e-06	23.653	233.969	28.199	-15.820	-76.235	186.712	88.722	-75.975	-68.748	-71.227	57.326	-69.077	-61.801	-61.911	-54.581	96.955	-54.782	-8191	255	
1435.948	1	1	0	0	0.10576	0.099617	0.10932	0.12382	0.11041	0.15735	0.14209	0.058697	0.086188	0.091865	0.23683	0.12121	0.051723	0.19044	0.14566	0.097991	-3.0646	-3.4396	-2.8271	-3.6729	-3.1229	-3.1521	-3.8583	-3.1021	-3.3958	-3.475	-3.0354	-3.8146	-3.25	-2.8688	-3.4333	-2.9521	-13.734	97.945	224.817	-50.209	89.905	21.005	248.748	-29.359	-67.473	179.049	223.040	257.584	236.865	-1.178	-55.521	-28.607	5.0088e-05	0.00025718	4.7973e-05	1011.2	1.3446e-06	3.7705e-06	1104.2	201.8	1.0984e-06	1.9871e-06	254.47	73.542	57.579	16.927	1.5843e-06	23.679	0.00010518	9.7555e-05	2.8442e-05	978.51	1.1836e-06	1.1297e-06	1072.6	196.65	1.2118e-06	1.0615e-06	249.51	72.906	56.768	16.772	1.1186e-06	23.577	216.169	3.705	-6.000	-76.462	208.431	73.373	-76.150	-68.658	87.002	34.279	-68.920	-62.086	-61.545	-54.751	65.483	-55.314	-8191	255	
1436.044	1	1	0	0	0.14596	0.017416	0.35615	0.074045	0.25453	0.27884	0.36083	0.16305	0.38267	0.19244	0.23895	0.098202	0.09839	0.070322	0.13417	0.21657	-3.0396	-3.4292	-2.7521	-3.7125	-3.1854	-2.9938	-3.7625	-2.9854	-3.2792	-3.5167	-2.9062	-3.4938	-3.3708	-2.8583	-3.6271	-3.1125	-31.673	103.005	263.432	230.084	218.310	160.716	231.356	-14.115	-57.273	15.266	226.777	-42.901	247.191	72.294	78.137	264.193	5.102e-05	0.00020463	2.8908e-05	1009	1.6716e-06	1.4898e-06	1101.5	200.59	3.9842e-08	2.5105e-06	254.19	74.079	57.452	16.903	1.9031e-06	23.852	0.00010628	0.00010024	2.8694e-05	977.77	1.1763e-06	1.0992e-06	1071.8	196.6	1.1116e-06	1.0718e-06	249.04	72.884	56.783	16.751	1.0888e-06	23.636	213.085	-37.243	33.099	-76.361	77.660	59.004	-75.924	-68.462	162.197	94.379	-68.833	-62.176	-61.813	-54.368	65.022	-54.815	-8191	255	
1436.140	1	1	0	0	0.14204	0.20379	0.1878	0.20451	0.18893	0.16842	0.18729	0.072901	0.11824	0.029934	0.15359	0.04416	0.04305	0.11959	0.1487	0.25235	-2.7521	-3.3979	-2.8292	-3.5021	-3.2521	-2.9479	-3.875	-3.1146	-2.9896	-3.525	-2.8875	-3.4229	-3.4354	-3.0083	-3.7917	-3.0604	1.524	-17.488	7.106	-21.284	260.504	234.264	209.086	61.793	117.289	-83.218	180.023	14.693	81.568	-10.798	181.851	74.457	6.6698e-05	0.00032228	1.0909e-05	1008	2.1497e-06	3.8747e-06	1104.5	200.27	9.4344e-07	2.7927e-06	256.3	72.859	57.147	16.886	3.0796e-07	23.518	0.00010536	9.8229e-05	2.6734e-05	976.57	1.1263e-06	1.0583e-06	1071.2	196.34	1.0681e-06	1.0014e-06	249.36	72.716	56.613	16.756	1.0377e-06	23.534	221.665	30.861	70.314	-76.301	51.256	57.449	-76.388	-68.619	136.665	30.115	-68.855	-61.880	-61.624	-54.482	161.315	-55.145	-8191	255	
1436.259	1	1	0	0	0.11545	0.00053097	0.11932	0.1977	0.066955	0.22971	0.0047006	0.24412	0.16523	0.26351	0.16972	0.22051	0.094898	0.13193	0.10723	0.20204	-2.7583	-3.4354	-2.9042	-3.5833	-3.6021	-2.7896	-3.9208	-3.1542	-2.925	-3.7146	-2.9562	-3.3292	-3.4375	-2.8271	-3.4854	-3.3125	84.374	180.000	250.372	160.914	209.627	186.952	141.929	179.511	123.415	194.971	252.998	17.103	-33.400	125.607	4.805	-46.820	4.919e-05	0.00034759	6.0472e-05	1009.5	1.5735e-06	3.0202e-06	1101.8	200.02	2.0634e-06	9.1161e-07	256.02	73.214	57.433	16.881	1.7262e-06	23.754	9.6887e-05	8.7999e-05	2.5392e-05	975.8	1.0119e-06	9.7279e-07	1070.5	196.37	1.0618e-06	9.6167e-07	249.31	72.816	56.799	16.74	9.9324e-07	23.6	208.412	-17.782	23.293	-76.352	82.908	99.600	-76.036	-68.474	58.007	64.671	-68.799	-62.260	-61.484	-54.590	81.784	-55.280	-8191	255	
1436.355	1	1	0	0	0.18719	0.24217	0.18399	0.11435	0.13878	0.12824	0.20134	0.035946	0.11705	0.15096	0.27251	0.1706	0.13649	0.20539	0.22366	0.26834	-2.425	-3.4604	-2.9833	-3.3021	-3.4688	-2.9313	-3.5917	-3.1167	-2.9	-3.7188	-3.0917	-3.2208	-3.5458	-2.7604	-3.4208	-3.3604	-16.292	134.887	213.952	-68.591	152.411	208.483	185.275	214.985	61.283	78.059	-34.467	244.036	147.249	37.887	99.852	8.902	4.9861e-05	0.00022253	6.1613e-05	1008.7	1.9132e-06	2.1907e-06	1103.7	201.02	7.2243e-07	2.1015e-06	255.25	73.312	57.788	16.915	3.2322e-06	23.939	0.0001032	9.2028e-05	2.7194e-05	977.81	1.1234e-06	1.0735e-06	1072.3	196.67	1.1452e-06	1.0711e-06	249.65	72.999	56.844	16.816	1.1794e-06	23.688	222.024	-15.092	-19.459	-76.581	71.383	82.546	-76.147	-68.468	8.476	50.167	-69.357	-62.049	-61.644	-54.787	76.660	-55.103	-8191	255	
1436.429	1	1	0	0	0.16754	0.050026	0.0081666	0.12312	0.1362	0.17906	0.21971	0.14565	0.13857	0.12893	0.29808	0.13011	0.18062	0.29534	0.24436	0.03563	-2.5354	-3.5417	-3.0521	-3.275	-3.5	-2.8229	-3.5812	-3.3708	-2.8187	-3.6271	-2.95	-2.8208	-3.625	-2.9313	-3.3479	-3.4479	-21.600	-41.326	-47.126	207.368	246.074	23.781	-68.427	259.438	-72.984	204.832	186.456	147.374	-3.887	-60.165	177.966	116.340	5.0601e-05	0.00025114	0.0001103	1014.7	1.0714e-06	2.969e-06	1113.5	200.98	9.3245e-07	1.0248e-06	258.65	73.441	57.93	17.272	1.7207e-06	24.07	0.00011399	0.00011161	3.0305e-05	983.55	1.3046e-06	1.2173e-06	1079.4	197.82	1.2891e-06	1.1596e-06	251.31	73.402	57.351	16.99	1.2227e-06	23.925	215.360	10.063	-13.207	-76.577	81.662	65.133	-76.100	-68.374	117.724	61.833	-69.069	-61.740	-61.757	-54.536	41.156	-55.154	-8191	255	
1436.547	1	1	0	0	0.39578	0.17412	0.078943	0.091354	0.07548	0.23418	0.20104	0.0393	0.18213	0.13723	0.078091	0.13499	0.22711	0.36197	0.29601	0.061377	-2.5	-3.4417	-3.1021	-3.0875	-3.6229	-2.8771	-3.4083	-3.5146	-2.7708	-3.6896	-3.2458	-2.9646	-3.5	-3.0521	-3.1167	-3.4458	2.279	175.124	132.054	231.137	10.391	264.480	237.915	-78.435	-55.961	140.299	217.055	253.087	216.996	230.522	152.495	103.834	6.4019e-05	0.00022612	9.1334e-05	1019.6	1.0362e-06	1.9827e-06	1119.4	203.24	5.6577e-07	2.5625e-06	255.2	74.234	58.235	17.246	2.7587e-06	24.32	0.00012213	0.00011107	3.1135e-05	989.66	1.2579e-06	1.2227e-06	1087.9	198.7	1.2203e-06	1.1419e-06	250.78	73.88	57.541	17.085	1.123e-06	24.097	223.838	6.603	3.299	-76.379	191.987	105.912	-76.152	-68.635	80.218	105.282	-69.328	-62.028	-61.700	-54.478	77.478	-55.132	-8191	255	
1436.644	1	1	0	0	0.13583	0.14487	0.18235	0.21078	0.11596	0.17888	0.30024	0.14004	0.22613	0.24405	0.10636	0.18295	0.10434	0.11215	0.10668	0.060912	-2.5229	-3.6146	-3.1542	-3.0354	-3.6854	-2.8583	-3.1875	-3.6063	-2.7771	-3.4437	-3.3771	-2.9	-3.6813	-3.1688	-3.0687	-3.6521	39.800	230.849	114.038	221.366	101.675	206.982	200.511	215.896	243.851	-35.870	260.798	260.911	59.554	129.571	138.797	10.672	7.6949e-05	0.00028838	3.8088e-05	1022.6	1.2949e-06	2.9647e-06	1125	204.4	8.1802e-07	1.5515e-06	259.83	74.75	58.38	17.312	3.2406e-06	24.299	0.000106	0.00010012	2.7248e-05	994.63	1.1521e-06	1.0526e-06	1091.4	199.81	1.1599e-06	1.0707e-06	253.21	74.242	57.941	17.151	1.1189e-06	24.199	224.571	-1.228	33.149	-76.469	17.337	66.789	-76.153	-68.551	96.871	14.030	-69.177	-62.368	-61.698	-54.545	71.934	-54.957	-8191	255	
1436.740	1	1	0	0	0.040111	0.16709	0.13196	0.28414	0.15757	0.068275	0.24052	0.16681	0.20756	0.037324	0.15917	0.25302	0.071916	0.14868	0.25066	0.17834	-2.5292	-3.2854	-3.35	-3.0542	-3.6708	-3.0708	-3.3042	-3.5521	-2.7042	-3.25	-3.5146	-2.9813	-3.55	-3.3417	-3.0354	-3.6625	-33.481	18.292	-78.243	218.030	-62.052	83.580	219.598	129.400	42.272	143.463	-76.662	-9.390	79.789	-6.218	79.463	223.502	5.77e-05	0.00025327	7.1238e-05	1030.8	1.7458e-06	1.0813e-06	1127.4	203.42	1.1975e-06	3.675e-06	260.79	74.709	58.867	17.428	1.4548e-06	24.416	0.00010288	9.7187e-05	2.6494e-05	998.44	1.1694e-06	1.1052e-06	1092.5	199.77	1.2069e-06	1.1085e-06	253.69	74.419	58.158	17.237	1.1816e-06	24.288	234.516	-45.985	12.134	-76.385	93.382	196.257	-76.121	-68.559	46.786	77.990	-68.934	-62.092	-61.734	-54.737	35.748	-55.065	-8191	255	
1436.860	1	1	0	0	0.26382	0.068038	0.043865	0.13431	0.19128	0.25424	0.27663	0.091739	0.10639	0.2397	0.1266	0.11569	0.20276	0.12877	0.2142	0.089841	-2.4688	-3.2146	-3.4562	-2.8854	-3.6188	-3.1188	-3.1167	-3.6271	-2.9167	-3.0708	-3.6437	-2.8021	-3.5167	-3.4417	-2.875	-3.8354	-16.001	142.100	-28.039	-86.402	167.896	76.601	202.550	260.299	113.570	189.350	113.825	240.425	-50.157	147.504	203.451	239.311	6.2914e-05	0.00019829	8.0584e-05	1031.7	1.8222e-06	2.4322e-06	1131.8	204.69	2.2225e-06	1.7429e-06	260.2	74.827	58.683	17.484	1.6892e-06	24.518	0.00011604	0.00010901	3.0168e-05	1000.3	1.2566e-06	1.1171e-06	1098.5	200.53	1.2421e-06	1.1987e-06	254.23	74.855	58.259	17.293	1.2582e-06	24.353	229.001	16.774	19.431	-76.709	84.978	71.033	-76.230	-68.571	55.781	63.889	-69.177	-62.286	-62.089	-55.016	97.936	-55.286	-8191	255	
1436.957	1	1	0	0	0.20161	0.1125	0.023477	0.2121	0.29729	0.086501	0.26293	0.27841	0.1829	0.30367	0.1541	0.038782	0.25147	0.090523	0.23095	0.24348	-2.625	-3.1708	-3.65	-2.9729	-3.2646	-3.5375	-3.075	-3.6396	-2.9437	-3.0479	-3.6083	-2.975	-3.4208	-3.2854	-2.8063	-3.7146	109.044	-47.290	107.734	-30.465	257.210	189.014	31.658	223.788	147.641	-55.944	29.934	158.800	201.570	120.320	-57.361	123.140	6.1865e-05	0.00029108	9.5612e-05	1037.5	2.1294e-06	3.053e-06	1133.5	204.95	3.7725e-07	3.4068e-06	263.71	75.338	59.285	17.493	2.1522e-06	24.528	0.0001126	0.00011052	3.0268e-05	1003.6	1.2546e-06	1.1412e-06	1101.3	201.15	1.1787e-06	1.166e-06	256.1	75.077	58.427	17.378	1.2208e-06	24.413	188.451	7.503	39.346	-76.541	49.276	55.759	-76.365	-68.759	208.405	68.947	-69.081	-62.310	-61.755	-54.686	110.703	-55.298	-8191	255	
1437.051	1	1	0	0	0.15492	0.083732	0.088769	0.13204	0.24248	0.12626	0.14842	0.093147	0.10288	0.15842	0.24402	0.23744	0.10922	0.10403	0.07058	0.09963	-2.6729	-3.05	-3.6063	-2.9583	-3.2812	-3.6375	-2.9271	-3.4854	-3.0875	-3.1375	-3.7146	-2.6854	-3.2354	-3.4792	-2.7083	-3.5708	61.832	-52.808	-51.506	253.261	148.714	207.208	130.408	136.734	-48.604	211.749	-45.924	39.526	187.829	198.330	161.064	226.864	5.8752e-05	0.0002405	7.4388e-05	1039.3	2.5684e-06	3.7987e-06	1133	204.15	1.7791e-06	4.1728e-06	262.36	75.75	59.274	17.475	1.0802e-06	24.726	0.00011174	0.00010326	2.9213e-05	1004.9	1.2428e-06	1.1197e-06	1102.5	201.22	1.1521e-06	1.1668e-06	256.46	75.247	58.432	17.318	1.2082e-06	24.481	212.498	-3.903	6.093	-76.502	86.898	42.914	-76.339	-68.792	23.240	53.473	-69.051	-62.349	-61.946	-54.468	37.857	-55.075	-8191	255	
1437.149	1	1	0	0	0.17254	0.13448	0.16974	0.17956	0.17374	0.072908	0.1123	0.096805	0.21841	0.03201	0.12298	0.12562	0.17281	0.20333	0.1069	0.17423	-2.7875	-2.9188	-3.4625	-3.0917	-3.0687	-3.6208	-2.9604	-3.5062	-3.3708	-2.9146	-3.6792	-3.0563	-3.3646	-3.5958	-2.8542	-3.4854	-63.521	42.353	253.761	-23.488	242.542	211.978	176.628	144.347	22.109	112.374	14.603	241.457	143.668	207.304	18.927	-69.122	6.0625e-05	0.00014602	7.8788e-05	1038	8.1861e-07	2.1744e-06	1133.5	205.47	1.6411e-06	1.2683e-06	262.95	75.635	59.243	17.511	2.7273e-06	24.772	0.0001065	0.00010642	2.7808e-05	1006.2	1.2134e-06	1.0372e-06	1102.1	201.35	1.1462e-06	1.1091e-06	256.59	75.129	58.595	17.41	1.1162e-06	24.525	218.725	-48.030	39.374	-76.680	205.682	66.012	-76.267	-68.617	62.790	81.878	-69.141	-62.213	-61.926	-54.839	88.398	-54.690	-8191	255	
1437.243	1	1	0	0	0.092955	0.14555	0.14072	0.22853	0.10057	0.13861	0.26013	0.089932	0.24607	0.13021	0.19128	0.22195	0.2614	0.19866	0.014486	0.14708	-3.0062	-2.9188	-3.5167	-3.1521	-3.0833	-3.6708	-3.1771	-3.3875	-3.3812	-2.8167	-3.7208	-3.2313	-3.1021	-3.5625	-2.7604	-3.4437	68.379	80.385	117.430	255.819	21.843	-5.991	190.368	201.400	190.985	46.767	166.567	142.140	158.882	-22.645	167.555	85.163	5.2183e-05	0.00017625	7.605e-05	1037.2	1.148e-06	2.0907e-06	1131.3	206.78	1.0342e-06	1.1819e-06	263.97	75.735	59.339	17.573	2.7999e-06	24.894	0.00010693	9.9797e-05	2.7554e-05	1005.2	1.1994e-06	1.0066e-06	1101.5	201.87	1.1116e-06	1.0936e-06	257	75.133	58.621	17.421	1.062e-06	24.525	206.574	30.447	39.943	-76.608	58.854	70.288	-76.387	-68.948	112.825	-47.339	-68.979	-62.297	-62.043	-54.439	3.933	-55.160	-8191	255	
1437.339	1	1	0	0	0.098049	0.17103	0.10992	0.2377	0.047027	0.17257	0.16332	0.24243	0.048751	0.19724	0.18375	0.13144	0.25737	0.14605	0.2214	0.12151	-3.3083	-2.8688	-3.4354	-3.0854	-2.8854	-3.5042	-3.0271	-3.3875	-3.6083	-2.7542	-3.5021	-3.3271	-2.9313	-3.7	-2.8458	-3.3125	170.300	82.764	-72.521	122.642	-60.262	-53.731	226.277	-31.307	-75.396	173.304	86.853	253.689	-36.745	256.813	157.452	172.611	7.6663e-05	0.00021254	3.2465e-05	1041	1.0078e-07	3.3236e-06	1134.7	205.51	1.1048e-06	2.4872e-06	263.75	76.004	59.139	17.567	9.4993e-07	24.812	0.00010423	0.00010138	2.6477e-05	1006.2	1.1653e-06	1.087e-06	1101.5	201.77	1.1005e-06	1.1139e-06	257.11	75.318	58.586	17.402	1.0887e-06	24.516	223.888	-41.087	42.068	-76.434	195.893	74.826	-76.161	-68.470	110.319	63.183	-68.529	-62.040	-61.959	-55.112	180.021	-54.969	-8191	255	
1437.436	1	1	0	0	0.29483	0.03826	0.22831	0.18082	0.35084	0.18439	0.25362	0.17998	0.098982	0.12225	0.31932	0.22721	0.28386	0.22463	0.14477	0.16808	-3.2667	-2.8563	-3.3958	-3.4062	-2.8104	-3.5854	-3.1646	-3.2646	-3.4208	-2.5875	-3.4479	-3.2854	-2.9062	-3.6542	-2.8875	-2.9833	201.927	23.369	113.368	221.598	-13.933	216.580	-80.963	-81.425	252.312	-21.965	-39.602	-59.775	268.710	227.668	-3.692	103.733	7.263e-05	0.00033068	4.6772e-05	1041.1	7.1554e-07	2.0621e-06	1131.9	205.66	5.029e-07	2.7482e-06	264.75	75.367	59.451	17.598	1.7695e-06	24.584	0.00010277	0.00010275	2.5764e-05	1008.5	1.1793e-06	1.0792e-06	1102.1	201.78	1.1407e-06	1.1168e-06	257.24	75.195	58.681	17.388	1.0831e-06	24.465	216.960	33.403	32.047	-76.196	104.483	65.507	-76.109	-68.594	84.678	72.253	-69.170	-62.318	-61.842	-54.651	100.852	-55.257	-8191	255	
1437.556	1	1	0	0	0.24484	0.15964	0.17561	0.24009	0.1219	0.08524	0.15418	0.22839	0.069719	0.3255	0.12575	0.046945	0.071243	0.17642	0.12725	0.15344	-3.2625	-2.7188	-3.4021	-3.2542	-2.7875	-3.4125	-3.1917	-3.1583	-3.6271	-2.9313	-3.2771	-3.4896	-2.8229	-3.5125	-3.2521	-3.125	153.607	72.780	195.234	246.449	57.089	9.913	247.830	253.422	270.281	179.836	202.829	58.128	242.236	5.057	107.986	-21.376	5.7724e-05	0.00046269	8.6262e-05	1038	1.1513e-06	1.4337e-06	1137.6	205.71	1.1791e-06	3.7958e-06	263.55	76.063	59.33	17.558	1.9818e-06	24.624	0.00010758	0.00010465	2.8983e-05	1006	1.1861e-06	1.0236e-06	1102.8	201.69	1.1523e-06	1.1128e-06	256.88	75.402	58.524	17.423	1.1643e-06	24.455	192.020	36.458	20.112	-76.627	72.968	75.845	-76.215	-68.503	53.924	75.724	-68.844	-61.972	-61.744	-54.925	113.270	-55.050	-8191	255	
1437.652	1	1	0	0	0.18427	0.071631	0.12333	0.17524	0.14549	0.19493	0.03744	0.23229	0.050638	0.012653	0.20248	0.21263	0.18587	0.13975	0.16969	0.21766	-3.1583	-2.9375	-3.3063	-3.5583	-2.8542	-3.7229	-3.3063	-3.0729	-3.7729	-2.9208	-3.2188	-3.5563	-2.8417	-3.6479	-3.2917	-2.8875	151.718	217.355	-4.904	236.002	-27.185	212.186	52.294	-31.572	240.716	-19.681	178.236	-74.264	157.161	250.755	145.548	-58.063	5.637e-05	0.00033413	6.0512e-05	1042.1	1.0108e-06	2.7034e-06	1134	204.94	1.719e-06	2.3062e-06	264.52	76.276	59.003	17.473	1.9051e-06	24.631	0.00010671	0.00010215	2.8136e-05	1007.3	1.1998e-06	1.0894e-06	1103	201.5	1.1357e-06	1.1054e-06	257.72	75.495	58.491	17.351	1.1061e-06	24.487	210.788	14.473	-5.325	-76.647	62.846	82.280	-76.137	-68.643	74.096	1.530	-69.019	-62.001	-61.903	-54.590	96.345	-55.145	-8191	255	
1437.724	1	1	0	0	0.037557	0.12044	0.17764	0.047129	0.22566	0.10991	0.20519	0.31659	0.17482	0.2833	0.40748	0.15468	0.2141	0.056442	0.14697	0.11025	-3.3021	-3.1042	-3.0312	-3.5604	-2.7604	-3.5917	-3.3812	-2.925	-3.5667	-3.0917	-3.0479	-3.6646	-2.8396	-3.4375	-3.3021	-2.9375	47.013	126.258	68.944	30.683	13.912	52.327	250.180	221.683	219.077	62.731	223.194	194.691	-82.628	258.261	-41.126	106.567	8.819e-05	0.0004359	5.2535e-05	1041.9	8.8765e-07	3.8556e-06	1135.6	205.84	8.6347e-07	3.0389e-06	265.07	75.421	59.471	17.636	3.0502e-06	24.521	0.00010815	0.00010009	2.8662e-05	1007.2	1.1884e-06	1.0247e-06	1104.1	201.84	1.1164e-06	1.0835e-06	257.84	75.255	58.792	17.45	1.0869e-06	24.496	215.428	8.676	56.060	-76.414	35.017	78.308	-76.024	-68.944	95.796	73.891	-69.031	-62.309	-62.156	-54.959	97.662	-55.527	-8191	255	
1437.820	1	1	0	0	0.1772	0.19731	0.10877	0.28692	0.23808	0.27347	0.10402	0.16918	0.26016	0.17441	0.18005	0.20226	0.24522	0.22711	0.13741	0.22522	-3.2729	-2.8729	-2.7854	-3.7104	-2.8	-3.3292	-3.575	-2.7396	-3.4667	-3.1875	-3.0979	-3.5604	-2.8104	-3.15	-3.4396	-2.8667	236.017	245.178	-17.988	183.150	112.273	216.233	-83.183	261.176	226.004	-28.395	192.984	-17.394	150.189	70.583	0.684	111.465	5.0236e-05	0.00023929	6.4746e-05	1042.4	1.1291e-06	2.1319e-06	1135.1	205.89	5.7761e-07	1.2551e-06	263.25	75.898	59.133	17.593	1.802e-06	24.691	0.00010779	0.00010207	2.8689e-05	1009.6	1.192e-06	1.1097e-06	1103.6	201.92	1.0956e-06	1.0792e-06	257.16	75.56	58.53	17.437	1.1243e-06	24.523	227.487	-14.421	2.905	-76.507	24.230	88.947	-76.355	-68.642	-63.150	75.583	-68.670	-62.389	-61.900	-54.486	94.325	-55.211	-8191	255	
1437.941	1	1	0	0	0.1866	0.046548	0.23843	0.15574	0.020214	0.028926	0.35603	0.24874	0.066614	0.030904	0.072861	0.19169	0.085818	0.12571	0.25369	0.042085	-3.3229	-3.3417	-3.0333	-3.5875	-2.7104	-3.2812	-3.6271	-3.0312	-3.4896	-3.1813	-2.9667	-3.6771	-3.1625	-3.0667	-3.6146	-3.0958	246.185	70.476	-9.080	246.922	-60.525	130.091	180.116	240.186	-60.599	-66.243	193.531	177.604	36.695	258.260	173.285	189.195	5.6359e-05	0.00034088	3.9371e-05	1043.9	2.6169e-06	4.4641e-06	1136.7	205.25	1.7141e-06	1.711e-06	264.67	75.671	59.425	17.567	1.352e-06	24.855	0.0001049	9.8623e-05	2.7532e-05	1010	1.1235e-06	1.1081e-06	1105.9	201.77	1.0863e-06	1.06e-06	257.94	75.453	58.799	17.419	1.0802e-06	24.592	204.219	8.543	34.231	-76.255	89.520	78.724	-76.407	-68.653	112.404	112.862	-69.251	-62.129	-61.359	-54.608	1.341	-54.981	-8191	255	
1438.037	1	1	0	0	0.21014	0.162	0.12517	0.33461	0.076969	0.021258	0.45912	0.30747	0.20529	0.16434	0.20914	0.24885	0.11009	0.21125	0.089307	0.030469	-3.0729	-3.3854	-2.8979	-3.5979	-3.1083	-2.9958	-3.7687	-2.85	-3.2896	-3.2479	-2.8854	-3.4479	-3.1333	-3.0146	-3.6417	-2.9188	-75.452	148.190	148.522	243.930	-78.039	-53.489	195.582	237.155	249.420	48.899	-70.432	194.850	100.841	-47.481	231.576	138.159	4.3497e-05	0.00027655	6.4836e-05	1039.1	2.2943e-06	1.9773e-06	1138.7	205.56	9.3231e-07	2.2549e-06	264.96	75.85	59.637	17.576	2.5253e-06	24.747	0.00010616	9.7275e-05	2.7847e-05	1009.1	1.1444e-06	1.0367e-06	1106.1	201.8	1.0901e-06	9.8318e-07	257.98	75.455	58.933	17.425	1.0428e-06	24.497	205.071	-4.434	4.470	-76.465	45.129	69.642	-76.118	-68.811	42.988	100.490	-69.253	-62.275	-61.746	-54.902	56.041	-55.435	-8191	255	
1438.131	1	1	0	0	0.058481	0.19163	0.19329	0.15655	0.10105	0.083727	0.15399	0.19977	0.094911	0.23958	0.070794	0.34138	0.2411	0.088547	0.16486	0.18174	-2.8854	-3.4083	-2.7646	-3.6083	-3.0229	-2.9083	-3.8083	-3.0396	-3.1083	-3.5292	-2.6417	-3.4854	-3.2521	-2.7708	-3.6021	-3.1417	-23.187	117.492	-24.604	232.359	230.677	258.741	96.502	242.010	175.354	65.462	254.168	-55.492	-26.593	182.344	96.712	-19.192	6.7342e-05	0.00029121	3.5931e-05	1045.1	6.4155e-07	3.6077e-06	1137.7	206	9.6751e-07	2.6065e-06	263.3	75.66	59.538	17.613	1.9379e-06	24.73	0.00010157	8.7885e-05	2.7147e-05	1010.5	1.1147e-06	1.0303e-06	1106.6	202.05	1.0813e-06	9.9293e-07	257.84	75.439	58.696	17.441	9.7872e-07	24.49	211.127	23.534	43.535	-76.314	-61.853	38.942	-75.876	-68.717	122.680	58.148	-68.925	-62.450	-61.620	-54.948	108.112	-54.869	-8191	255	
1438.229	1	1	0	0	0.08722	0.23593	0.2223	0.26229	0.12582	0.028526	0.18716	0.14964	0.2229	0.35326	0.16131	0.067395	0.22355	0.15768	0.1571	0.15001	-2.8146	-3.4833	-2.6396	-3.6562	-3.2979	-3.0646	-3.7687	-2.9854	-3.2542	-3.6667	-2.9479	-3.4208	-3.1875	-3.0167	-3.6375	-2.9333	-5.892	12.856	158.785	198.505	39.474	268.426	131.274	257.848	147.383	100.808	79.071	34.538	144.457	254.768	194.332	271.351	7.3235e-05	0.0003048	8.6065e-05	1042.5	1.7965e-06	9.8348e-07	1140.4	206.8	9.8605e-07	1.7144e-06	264.85	74.764	59.572	17.506	2.3024e-06	24.795	0.00010003	8.8621e-05	2.5926e-05	1011.4	1.031e-06	9.8686e-07	1108.3	202.38	1.0377e-06	9.6948e-07	258.66	75.487	58.894	17.45	9.579e-07	24.665	222.025	25.398	-34.591	-76.410	36.286	-28.119	-76.320	-68.523	58.589	24.766	-68.987	-62.140	-61.999	-54.880	83.127	-55.281	-8191	255	
1438.348	1	1	0	0	0.12877	0.13899	0.10485	0.14179	0.10156	0.14367	0.18407	0.05773	0.27428	0.011209	0.16854	0.44667	0.098223	0.096521	0.079472	0.17741	-2.7125	-3.5	-2.8479	-3.3083	-3.3354	-2.8958	-3.7229	-3.1125	-2.9333	-3.6188	-2.8708	-3.2083	-3.4375	-2.7771	-3.3646	-3.2562	162.305	124.195	165.410	-77.690	144.984	213.134	146.962	189.770	91.223	-56.415	129.033	253.273	97.942	61.644	77.332	-83.286	6.6266e-05	9.6835e-05	4.7465e-05	1046.4	5.5835e-07	2.8803e-06	1136.6	205.24	1.7773e-06	3.8354e-06	265.43	75.606	59.806	17.597	1.0328e-06	24.507	9.7673e-05	8.6414e-05	2.4345e-05	1010.3	1.0163e-06	9.8378e-07	1105.3	201.96	1.0787e-06	9.7276e-07	258.76	75.401	59.078	17.441	9.9429e-07	24.549	220.498	-24.561	43.985	-76.624	94.495	60.291	-76.188	-68.559	50.006	58.717	-68.756	-62.392	-61.734	-54.827	32.117	-55.168	-8191	255	
1438.421	1	1	0	0	0.070189	0.1233	0.037759	0.26716	0.21452	0.044788	0.25682	0.11709	0.11677	0.055217	0.17935	0.18905	0.037342	0.30701	0.10495	0.17337	-2.5458	-3.6396	-2.8792	-3.3667	-3.4458	-2.9042	-3.5438	-3.1479	-2.9771	-3.6854	-3	-3.2875	-3.6875	-2.7729	-3.4667	-3.3521	271.745	106.862	51.899	232.145	270.198	158.764	-84.372	-59.712	-74.179	226.277	72.897	-29.939	-13.568	4.086	59.171	33.928	5.5823e-05	0.00024634	5.7498e-05	1043.5	7.3638e-07	2.6887e-06	1138.2	206.77	4.4916e-07	2.0717e-06	265.18	75.592	59.18	17.653	2.6075e-06	24.785	9.9871e-05	8.856e-05	2.5069e-05	1010	1.0395e-06	1.0075e-06	1107.4	202.14	1.0238e-06	9.3987e-07	258.6	75.673	58.777	17.448	9.878e-07	24.583	216.233	27.558	-27.208	-76.321	130.776	77.106	-75.917	-68.613	-64.942	51.731	-69.229	-62.216	-61.831	-54.185	83.505	-55.246	-8191	255	
1438.540	1	1	0	0	0.1051	0.06235	0.20553	0.078716	0.14287	0.049918	0.19654	0.12891	0.25319	0.19237	0.27576	0.40227	0.098328	0.21454	0.12234	0.18145	-2.5292	-3.5958	-3.0312	-3.2833	-3.4833	-2.8771	-3.6	-3.5292	-2.8292	-3.4458	-3.0521	-3.1917	-3.6667	-2.8125	-3.3646	-3.4833	-47.506	29.176	257.830	-82.642	155.228	205.569	229.361	88.620	82.876	164.947	173.672	-80.412	266.642	-18.091	79.297	-42.040	5.6417e-05	0.00022498	4.5608e-05	1040.1	1.0443e-06	1.4979e-06	1141.6	206.4	2.4869e-07	2.7057e-06	267.04	76.365	59.895	17.679	7.7423e-07	24.907	9.8136e-05	8.4951e-05	2.4085e-05	1007.2	9.9467e-07	9.515e-07	1106.2	202.55	1.0408e-06	8.925e-07	259.73	75.786	59.14	17.428	9.6134e-07	24.66	220.602	13.418	8.022	-76.262	159.199	71.379	-76.342	-68.387	146.820	73.007	-68.938	-62.184	-62.043	-54.779	126.904	-55.154	-8191	255	
1438.637	1	1	0	0	0.1753	0.31886	0.19776	0.20381	0.12108	0.069769	0.19552	0.11846	0.19953	0.038395	0.20394	0.13544	0.27972	0.20887	0.1055	0.14232	-2.5812	-3.5312	-2.925	-3.0667	-3.5812	-2.8042	-3.3063	-3.4271	-2.8083	-3.6208	-3.1708	-3.0312	-3.7354	-2.9188	-3.1667	-3.4875	-67.872	233.287	-2.668	171.078	59.152	40.684	179.451	92.039	-18.559	105.811	255.725	262.922	39.767	75.564	193.606	-21.434	5.6832e-05	0.00028699	3.3647e-05	1035.5	1.235e-06	2.0094e-06	1132.3	205.07	5.0985e-07	4.1972e-06	264.97	75.976	59.879	17.518	9.9371e-07	24.788	9.8491e-05	8.6887e-05	2.3828e-05	1004.8	1.024e-06	9.4611e-07	1100.4	201.78	1.0481e-06	9.5424e-07	259.01	75.651	58.994	17.398	1.0275e-06	24.591	222.472	28.521	30.920	-76.380	102.487	115.433	-76.158	-68.446	176.375	25.732	-69.114	-61.933	-61.521	-55.083	34.145	-55.086	-8191	255	
1438.733	1	1	0	0	0.14693	0.070415	0.08991	0.155	0.22495	0.18732	0.1411	0.1784	0.35624	0.12675	0.36674	0.18263	0.050909	0.14308	0.07175	0.28056	-2.6146	-3.3812	-3.1708	-3.0625	-3.5604	-2.8125	-3.2646	-3.6792	-2.8021	-3.5625	-3.3312	-2.8271	-3.5417	-2.7729	-3.0292	-3.6292	80.407	250.346	56.307	196.688	88.852	249.655	160.828	208.594	65.588	91.816	273.076	146.331	77.552	173.835	262.324	136.779	6.4988e-05	0.00024911	8.6514e-05	1036.4	1.4405e-06	4.16e-06	1135	205.94	4.4559e-07	2.4754e-06	265.71	76.083	59.572	17.645	1.8061e-06	24.873	0.00010016	8.6589e-05	2.4372e-05	1006.3	1.0176e-06	9.5064e-07	1102.6	201.94	9.9741e-07	9.4054e-07	258.82	75.745	58.732	17.393	9.8713e-07	24.584	212.417	22.072	19.604	-76.337	48.723	91.033	-76.187	-68.627	58.828	74.438	-68.645	-62.363	-61.908	-54.336	82.272	-55.238	-8191	255	
1438.829	1	1	0	0	0.17562	0.18256	0.18514	0.15186	0.15486	0.12506	0.13832	0.12572	0.23538	0.12198	0.16967	0.18762	0.22313	0.10056	0.14796	0.18904	-2.4229	-3.4	-3.1458	-3.0396	-3.5792	-2.9854	-3.0354	-3.6604	-2.6958	-3.3729	-3.3417	-2.7646	-3.5208	-3.0521	-2.9813	-3.65	128.704	223.724	270.181	240.853	167.549	-66.997	222.890	207.346	247.607	5.097	-60.109	232.314	140.343	264.084	-70.445	7.218	5.5915e-05	0.00020604	3.4166e-05	1041.8	8.4775e-07	4.5588e-07	1130.9	205.63	5.2754e-07	2.2864e-06	267.01	76.315	59.795	17.526	2.3594e-06	24.63	9.4958e-05	8.6712e-05	2.4888e-05	1007.3	1.0419e-06	9.4409e-07	1103.3	202.17	1.0079e-06	9.3765e-07	259.52	75.649	58.931	17.421	9.5284e-07	24.483	216.677	38.542	0.595	-76.282	135.067	53.643	-76.052	-68.603	54.776	54.623	-68.969	-62.255	-62.235	-54.712	100.626	-55.101	-8191	255	
1438.949	1	1	0	0	0.064597	0.010591	0.13132	0.26581	0.044488	0.074057	0.23863	0.13531	0.21316	0.25427	0.45549	0.20615	0.16882	0.12145	0.27883	0.080519	-2.5667	-3.1083	-3.275	-2.8854	-3.5708	-3.2313	-3.0646	-3.6833	-2.8979	-3.3396	-3.35	-2.9167	-3.4583	-3.1521	-2.9646	-3.6021	-83.356	160.897	0.795	230.983	-16.117	181.478	217.147	216.576	123.088	101.953	208.389	219.880	25.815	157.074	115.319	223.372	7.5139e-05	0.00027362	3.4261e-05	1045.3	1.5006e-06	4.4606e-06	1141.4	206.02	3.3672e-07	3.1732e-06	266.46	76.541	59.59	17.789	1.8598e-06	24.73	9.6794e-05	8.7806e-05	2.4433e-05	1008.3	9.7403e-07	9.2723e-07	1106.1	202.15	1.007e-06	9.5279e-07	259.81	75.758	58.946	17.541	9.431e-07	24.517	216.700	8.826	31.564	-76.580	123.972	71.545	-76.140	-68.510	-1.615	85.593	-68.921	-62.400	-61.999	-54.556	34.549	-54.799	-8191	255	
1439.021	1	1	0	0	0.118	0.2454	0.026871	0.16799	0.15051	0.033339	0.1241	0.23355	0.20143	0.091917	0.081841	0.13206	0.17866	0.075528	0.083147	0.083719	-2.3875	-3.0146	-3.5396	-2.7958	-3.4125	-3.2292	-3.025	-3.6354	-2.8646	-3.0771	-3.7396	-2.8229	-3.4333	-3.5417	-2.7875	-3.6813	16.228	186.297	-25.009	260.341	-71.559	65.452	258.824	206.314	-19.717	146.802	30.083	-62.578	-56.861	148.546	-7.952	263.438	7.744e-05	0.00030488	4.5581e-05	1041.7	1.0614e-06	4.289e-06	1138.9	206.04	9.1233e-07	3.3671e-06	266.28	76.79	59.327	17.646	1.2284e-06	24.722	9.3508e-05	8.3208e-05	2.3055e-05	1008.2	1.0197e-06	8.8349e-07	1106.8	202.05	9.3609e-07	8.6828e-07	259.68	75.864	58.992	17.515	9.0002e-07	24.567	219.104	20.914	12.688	-76.497	58.523	83.872	-76.083	-68.607	89.488	55.710	-69.195	-62.262	-62.072	-54.450	53.088	-55.170	-8191	255	
1439.117	1	1	0	0	0.11897	0.20306	0.14768	0.063955	0.14329	0.057843	0.2033	0.28886	0.093931	0.25248	0.27696	0.088362	0.15237	0.28129	0.088104	0.15399	-2.6875	-2.9604	-3.5479	-3.1229	-3.2188	-3.6292	-2.9188	-3.6688	-3.1521	-2.7583	-3.525	-2.9313	-3.2625	-3.7833	-2.6542	-3.4958	106.286	9.830	189.172	212.361	126.728	237.679	-84.940	99.404	149.583	115.434	212.592	8.639	-58.746	240.416	38.620	-54.965	6.4263e-05	0.00016761	0.0001018	1038.5	7.515e-07	2.487e-06	1131	205.49	8.7264e-07	2.1261e-06	264.54	75.904	60.073	17.618	1.9558e-06	24.821	8.6575e-05	7.5054e-05	1.9648e-05	1003.4	8.8012e-07	8.1028e-07	1099.9	201.57	8.3358e-07	8.0297e-07	259.08	75.532	58.963	17.443	8.3679e-07	24.555	238.674	-29.033	14.610	-76.286	3.325	77.273	-76.288	-68.810	2.286	52.103	-68.767	-62.349	-62.008	-54.302	77.975	-55.057	-8191	255	
1439.236	1	1	0	0	0.13789	0.13296	0.15615	0.14624	0.089809	0.15558	0.13519	0.043478	0.21515	0.085589	0.14634	0.25313	0.28656	0.032571	0.28707	0.088569	-2.9188	-2.9188	-3.5854	-3.0062	-3.1479	-3.5458	-2.9271	-3.5687	-3.2354	-3.0125	-3.6396	-2.8812	-3.1479	-3.4979	-2.7917	-3.5271	-82.877	189.193	-77.163	175.362	25.424	17.069	35.241	-54.470	105.290	44.769	232.939	140.397	178.572	48.913	-52.073	207.329	6.3867e-05	0.00026349	4.2669e-05	1031.9	1.1177e-06	4.2165e-06	1130.8	205.81	5.0183e-07	2.5284e-06	266.66	76.024	59.365	17.679	1.6364e-06	24.725	8.1052e-05	7.1988e-05	1.9001e-05	1000.1	8.4992e-07	7.8667e-07	1097.2	201.64	8.299e-07	8.1281e-07	259.62	75.704	58.766	17.466	8.2877e-07	24.602	227.078	9.200	41.851	-76.337	17.656	69.275	-76.200	-68.835	-65.304	72.365	-68.852	-61.942	-61.872	-54.497	114.712	-55.172	-8191	255	
1439.332	1	1	0	0	0.085639	0.13348	0.10783	0.20515	0.067625	0.17083	0.37581	0.20543	0.24785	0.20115	0.06982	0.14603	0.23549	0.21002	0.17224	0.1321	-2.8854	-2.8812	-3.6333	-3.05	-3.0687	-3.5563	-2.9521	-3.4167	-3.4917	-2.8563	-3.5896	-2.8896	-2.9792	-3.6604	-2.9708	-3.3771	184.800	17.413	218.304	-68.778	206.870	191.486	239.760	131.510	-45.623	213.597	154.020	-60.928	153.518	-11.817	27.093	113.171	7.3633e-05	0.00028069	7.3207e-05	1035.8	2.6663e-06	2.8308e-06	1131.3	205.94	1.1411e-07	2.9682e-06	266.79	76.504	59.606	17.569	1.5791e-06	24.772	8.224e-05	7.6035e-05	2.0056e-05	1002.5	9.1713e-07	7.5238e-07	1098.6	201.66	8.4464e-07	8.5516e-07	259.25	75.82	58.891	17.43	8.1415e-07	24.566	224.699	21.059	-15.879	-76.315	49.233	61.213	-76.188	-68.479	0.375	55.098	-69.233	-62.302	-62.144	-54.505	34.978	-55.385	-8191	255	
1439.428	1	1	0	0	0.11873	0.0068819	0.10821	0.19164	0.21776	0.080381	0.3149	0.13421	0.16109	0.14686	0.18451	0.049279	0.25587	0.125	0.056664	0.045351	-3.0062	-2.925	-3.4896	-3.2812	-2.8979	-3.6208	-2.7792	-3.1333	-3.425	-2.9625	-3.7021	-3.1917	-3.0167	-3.7604	-2.9229	-3.3771	91.836	-82.435	-15.918	251.141	141.890	164.859	162.868	166.376	246.087	80.813	175.825	211.654	-65.265	102.999	200.625	-7.298	7.5859e-05	0.00028069	8.6887e-05	1033	1.5334e-06	3.7487e-06	1130.2	205.79	4.2561e-07	3.6738e-06	265.76	76.419	59.563	17.56	1.8513e-06	25.051	8.1993e-05	7.5422e-05	1.9838e-05	1001.3	9.0521e-07	7.8089e-07	1099.9	201.39	8.1176e-07	7.4286e-07	259.05	75.762	58.881	17.427	7.749e-07	24.609	203.158	41.536	8.781	-76.289	72.590	77.209	-76.128	-68.465	10.363	30.888	-69.248	-62.467	-62.038	-54.715	69.565	-55.575	-8191	255	
1439.525	1	1	0	0	0.14518	0.16324	0.13742	0.18391	0.043493	0.097624	0.18673	0.22273	0.133	0.050927	0.19133	0.16558	0.16698	0.14749	0.075764	0.11204	-3.1167	-2.9062	-3.3896	-3.3896	-2.8604	-3.6292	-3.0146	-3.1458	-3.5354	-2.8042	-3.5208	-3.3625	-3.0146	-3.5667	-3.1833	-3.025	46.302	14.557	158.187	228.515	-10.411	109.867	234.208	177.348	259.948	36.370	236.267	-61.889	256.621	168.825	104.163	167.442	6.5055e-05	0.00017099	6.3407e-05	1032.9	1.6033e-06	2.6102e-06	1137.1	205.94	7.7498e-07	2.0142e-06	265.2	76.199	59.987	17.565	1.0892e-06	24.956	8.1469e-05	7.4589e-05	1.9721e-05	1002.2	8.8826e-07	7.3436e-07	1099.8	201.88	8.5853e-07	7.9139e-07	258.68	75.722	58.932	17.434	8.2275e-07	24.594	218.052	39.864	31.802	-76.340	72.129	63.862	-76.155	-68.565	100.381	37.505	-69.091	-62.177	-61.994	-54.795	113.729	-55.591	-8191	255	
1439.621	1	1	0	0	0.1034	0.22489	0.087284	0.19099	0.13235	0.051602	0.087958	0.36501	0.12529	0.13162	0.26865	0.20141	0.1231	0.040228	0.042841	0.10852	-3.1958	-2.8729	-3.3896	-3.4667	-3.0375	-3.5417	-3.0771	-3.1979	-3.6771	-2.7917	-3.3792	-3.3542	-2.7667	-3.5521	-3.0646	-3.1688	44.710	53.361	6.541	265.737	62.049	119.568	-36.787	272.838	246.334	-47.237	-46.441	46.558	259.400	46.249	106.966	-2.260	6.8305e-05	0.00020557	7.6946e-05	1036.9	1.996e-06	2.32e-06	1129.9	205.65	6.018e-07	2.654e-06	266.44	76.445	59.316	17.567	3.6551e-06	24.67	7.9865e-05	7.4484e-05	2.0871e-05	1000.4	8.964e-07	7.9746e-07	1097.3	201.54	8.5834e-07	8.1966e-07	259.99	75.562	58.815	17.404	8.6649e-07	24.479	206.909	-4.578	-23.485	-76.109	50.728	86.059	-76.075	-68.708	203.003	45.613	-69.229	-61.904	-61.517	-54.571	94.786	-55.178	-8191	255	
1439.717	1	1	0	0	0.15458	0.12193	0.15003	0.22285	0.039797	0.12018	0.049424	0.16259	0.15361	0.04291	0.21436	0.33613	0.073881	0.20363	0.22166	0.11596	-3.1375	-3.0667	-3.1604	-3.6146	-2.675	-3.6917	-3.2708	-3.0333	-3.6292	-2.8917	-3.2521	-3.3708	-2.8312	-3.4229	-2.95	-2.8771	259.074	43.926	192.357	-81.021	202.726	-83.861	2.801	70.310	240.945	183.598	154.902	209.788	195.500	267.083	37.693	-3.966	5.7616e-05	0.00028354	8.0338e-05	1033.9	7.468e-07	2.1174e-06	1130	204.75	1.0574e-06	2.8846e-06	266.22	76.398	59.917	17.716	2.4509e-06	24.823	8.2981e-05	7.6122e-05	2.0744e-05	1001.3	9.1846e-07	7.8061e-07	1095.8	201.59	8.7572e-07	7.6139e-07	259.49	75.702	58.973	17.434	8.4539e-07	24.481	227.151	-2.158	30.159	-76.377	130.096	85.808	-76.007	-68.266	34.937	49.771	-68.920	-62.031	-61.824	-54.241	81.853	-55.318	-8191	255	
1439.813	1	1	0	0	0.22567	0.021152	0.34486	0.036335	0.035745	0.19668	0.041724	0.16592	0.23475	0.064913	0.093616	0.10683	0.29793	0.13393	0.3374	0.19621	-3.3917	-3.0354	-2.9125	-3.525	-2.8521	-3.4188	-3.6063	-3.0458	-3.7896	-2.9667	-2.9083	-3.5625	-2.7875	-3.2083	-3.4688	-2.7438	134.068	56.491	227.953	272.651	162.437	-47.716	-74.352	-17.980	138.245	28.011	221.572	-27.133	242.463	-13.831	140.772	244.726	7.7439e-05	0.00028779	4.2407e-05	1034.4	2.0398e-06	2.5826e-06	1130	206.05	8.3604e-07	3.1299e-06	267.21	75.843	59.558	17.671	1.2318e-06	24.751	8.2495e-05	7.4914e-05	1.9821e-05	1001.6	9.0407e-07	7.781e-07	1098.6	201.53	7.8474e-07	7.7277e-07	259.85	75.642	58.846	17.436	7.8216e-07	24.562	217.297	42.049	19.380	-76.154	95.826	83.844	-76.133	-68.484	153.752	78.285	-68.989	-61.810	-62.265	-54.226	37.950	-55.556	-8191	255	
1439.909	1	1	0	0	0.12863	0.17864	0.04707	0.21048	0.12766	0.1413	0.15858	0.052393	0.26146	0.080899	0.11363	0.10859	0.019751	0.27196	0.14473	0.098949	-3.2042	-3.1625	-3.05	-3.7146	-2.7917	-3.2812	-3.775	-2.8375	-3.5458	-3.2958	-2.925	-3.5958	-2.8333	-3.2083	-3.4083	-2.8667	77.601	152.349	-67.341	230.438	46.353	15.718	39.645	100.027	124.121	-14.883	-17.811	251.451	259.837	-36.632	183.562	-23.738	5.6645e-05	0.00019269	8.7762e-05	1033.9	1.2718e-06	3.2154e-06	1130.5	205.79	9.2294e-07	1.4261e-06	266.05	76.193	59.194	17.566	1.6145e-06	24.733	8.0644e-05	7.3845e-05	2.0338e-05	1001.6	8.8627e-07	7.9188e-07	1100	201.7	8.1176e-07	7.773e-07	259.07	75.659	58.944	17.433	7.6057e-07	24.531	232.851	23.020	22.500	-76.520	100.447	57.525	-76.069	-68.702	48.028	121.446	-68.992	-62.064	-62.120	-54.738	26.945	-54.915	-8191	255	
#DATA ENDS
