BOXY.EXE: ISS Imagent and Oximeter Data Acquisition Program Version 0.80
Ascii Record File

#ACQ INFORMATION
2  Detector Channels 
16  External MUX Channels 
1  Auxiliary Channels 
5000  Waveform (CCF) Frequency (Hz)
1  Waveforms Skipped 
30  Waveforms Averaged 
1  Cycles Averaged 
16  Acquisitions per Waveform 
10.0806  Updata Rate (Hz) 

#FILE INFORMATION
TRUE -- External MUX Channel results are PARSED.
FALSE -- AC DC and Phase are NOT grouped.
TRUE -- Companion Program Settings File CREATED.
FALSE -- AC data not excluded
FALSE -- DC data not excluded
FALSE -- Phase data not excluded
FALSE -- Auxillary Chn. data not excluded
Tab delimiters

#CALIBRATION STATE
TRUE -- Waveform Calibration Values APPLIED.


#AUX CALIBRATION VALUES
Val Type	aux-1	

Term	1.0000e+00	
Factor	0.0000e+00	


#WF CALIBRATION VALUES
A = Detector Channel
Val Type	A-AC1	A-AC2	A-AC3	A-AC4	A-AC5	A-AC6	A-AC7	A-AC8	A-AC9	A-AC10	A-AC11	A-AC12	A-AC13	A-AC14	A-AC15	A-AC16	A-DC1	A-DC2	A-DC3	A-DC4	A-DC5	A-DC6	A-DC7	A-DC8	A-DC9	A-DC10	A-DC11	A-DC12	A-DC13	A-DC14	A-DC15	A-DC16	A-Ph1	A-Ph2	A-Ph3	A-Ph4	A-Ph5	A-Ph6	A-Ph7	A-Ph8	A-Ph9	A-Ph10	A-Ph11	A-Ph12	A-Ph13	A-Ph14	A-Ph15	A-Ph16	

Term	0.00000e+00	0.00000e+00	0.00000e+00	0.00000e+00	0.00000e+00	0.00000e+00	0.00000e+00	0.00000e+00	0.00000e+00	0.00000e+00	0.00000e+00	0.00000e+00	0.00000e+00	0.00000e+00	0.00000e+00	0.00000e+00	0.00000e+00	0.00000e+00	0.00000e+00	0.00000e+00	0.00000e+00	0.00000e+00	0.00000e+00	0.00000e+00	0.00000e+00	0.00000e+00	0.00000e+00	0.00000e+00	0.00000e+00	0.00000e+00	0.00000e+00	0.00000e+00	0.00000e+00	0.00000e+00	0.00000e+00	0.00000e+00	0.00000e+00	0.00000e+00	0.00000e+00	0.00000e+00	0.00000e+00	0.00000e+00	0.00000e+00	0.00000e+00	0.00000e+00	0.00000e+00	0.00000e+00	0.00000e+00	
Factor	1.00000e+00	1.00000e+00	1.00000e+00	1.00000e+00	1.00000e+00	1.00000e+00	1.00000e+00	1.00000e+00	1.00000e+00	1.00000e+00	1.00000e+00	1.00000e+00	1.00000e+00	1.00000e+00	1.00000e+00	1.00000e+00	1.00000e+00	1.00000e+00	1.00000e+00	1.00000e+00	1.00000e+00	1.00000e+00	1.00000e+00	1.00000e+00	1.00000e+00	1.00000e+00	1.00000e+00	1.00000e+00	1.00000e+00	1.00000e+00	1.00000e+00	1.00000e+00	X	X	X	X	X	X	X	X	X	X	X	X	X	X	X	X	

B = Detector Channel
Val Type	B-AC1	B-AC2	B-AC3	B-AC4	B-AC5	B-AC6	B-AC7	B-AC8	B-AC9	B-AC10	B-AC11	B-AC12	B-AC13	B-AC14	B-AC15	B-AC16	B-DC1	B-DC2	B-DC3	B-DC4	B-DC5	B-DC6	B-DC7	B-DC8	B-DC9	B-DC10	B-DC11	B-DC12	B-DC13	B-DC14	B-DC15	B-DC16	B-Ph1	B-Ph2	B-Ph3	B-Ph4	B-Ph5	B-Ph6	B-Ph7	B-Ph8	B-Ph9	B-Ph10	B-Ph11	B-Ph12	B-Ph13	B-Ph14	B-Ph15	B-Ph16	

Term	0.00000e+00	0.00000e+00	0.00000e+00	0.00000e+00	0.00000e+00	0.00000e+00	0.00000e+00	0.00000e+00	0.00000e+00	0.00000e+00	0.00000e+00	0.00000e+00	0.00000e+00	0.00000e+00	0.00000e+00	0.00000e+00	0.00000e+00	0.00000e+00	0.00000e+00	0.00000e+00	0.00000e+00	0.00000e+00	0.00000e+00	0.00000e+00	0.00000e+00	0.00000e+00	0.00000e+00	0.00000e+00	0.00000e+00	0.00000e+00	0.00000e+00	0.00000e+00	-8.92709e+01	-1.28825e+02	-1.24038e+02	-1.83962e+02	-5.99715e+01	-6.47401e+01	-1.57159e+02	-1.62015e+02	-5.48480e+01	-7.10995e+01	-1.70729e+02	-1.70839e+02	-1.80289e+02	-1.77652e+02	-5.59847e+01	-1.50740e+02	
Factor	1.90359e-05	1.64344e-04	4.45320e-05	1.64583e-01	1.33975e-06	1.74344e-06	1.90588e-01	5.69177e-02	1.10681e-06	1.67741e-06	9.57273e-02	3.69650e-02	2.87415e-02	1.05468e-02	1.51595e-06	1.54879e-02	3.70208e-06	4.20420e-06	1.17489e-06	8.23578e-02	4.54401e-08	4.62410e-08	8.95767e-02	2.86398e-02	4.53497e-08	4.63083e-08	4.63350e-02	1.80061e-02	1.45506e-02	5.30554e-03	4.58462e-08	7.52433e-03	X	X	X	X	X	X	X	X	X	X	X	X	X	X	X	X	



#DISTANCE SETTINGS
A = Detector Channel
A-1	A-2	A-3	A-4	A-5	A-6	A-7	A-8	A-9	A-10	A-11	A-12	A-13	A-14	A-15	A-16	

2.5000e+00	3.0000e+00	2.5000e+00	3.0000e+00	2.0000e+00	3.0000e+00	1.5000e+00	3.0000e+00	3.0000e+00	3.0000e+00	3.0000e+00	3.0000e+00	3.0000e+00	3.0000e+00	1.5000e+00	3.0000e+00	

B = Detector Channel
B-1	B-2	B-3	B-4	B-5	B-6	B-7	B-8	B-9	B-10	B-11	B-12	B-13	B-14	B-15	B-16	

1.0000e+01	1.0000e+01	1.0000e+01	1.4400e+00	1.0000e+01	1.0000e+01	1.5100e+00	1.9400e+00	1.0000e+01	1.0000e+01	1.9900e+00	2.4900e+00	2.4100e+00	2.9000e+00	1.0000e+01	2.9800e+00	




#DATA BEGINS
time	group	step	mark	flag	A-AC1	A-AC2	A-AC3	A-AC4	A-AC5	A-AC6	A-AC7	A-AC8	A-AC9	A-AC10	A-AC11	A-AC12	A-AC13	A-AC14	A-AC15	A-AC16	A-DC1	A-DC2	A-DC3	A-DC4	A-DC5	A-DC6	A-DC7	A-DC8	A-DC9	A-DC10	A-DC11	A-DC12	A-DC13	A-DC14	A-DC15	A-DC16	A-Ph1	A-Ph2	A-Ph3	A-Ph4	A-Ph5	A-Ph6	A-Ph7	A-Ph8	A-Ph9	A-Ph10	A-Ph11	A-Ph12	A-Ph13	A-Ph14	A-Ph15	A-Ph16	B-AC1	B-AC2	B-AC3	B-AC4	B-AC5	B-AC6	B-AC7	B-AC8	B-AC9	B-AC10	B-AC11	B-AC12	B-AC13	B-AC14	B-AC15	B-AC16	B-DC1	B-DC2	B-DC3	B-DC4	B-DC5	B-DC6	B-DC7	B-DC8	B-DC9	B-DC10	B-DC11	B-DC12	B-DC13	B-DC14	B-DC15	B-DC16	B-Ph1	B-Ph2	B-Ph3	B-Ph4	B-Ph5	B-Ph6	B-Ph7	B-Ph8	B-Ph9	B-Ph10	B-Ph11	B-Ph12	B-Ph13	B-Ph14	B-Ph15	B-Ph16	aux-1	digaux	

1491.603	1	1	0	256	0.059377	0.05486	0.11402	0.30284	0.17634	0.25417	0.34425	0.2205	0.21323	0.1509	0.25856	0.1008	0.21288	0.098004	0.21988	0.15054	-3.1792	-3.2229	-2.9625	-3.5438	-2.75	-3.3917	-3.5917	-2.9292	-3.5604	-3.2021	-3.1	-3.6208	-2.8542	-3.1646	-3.4917	-3.0062	332.509	137.955	242.274	461.639	249.652	233.224	429.721	197.343	233.110	163.528	131.496	277.433	153.699	239.811	397.143	388.609	0.00022181	0.00012785	0.00015892	1045.4	3.3766e-06	3.9125e-06	1147.8	205.84	1.9716e-06	1.6048e-06	263.62	75.52	58.66	17.533	1.6146e-06	24.378	0.00020088	0.00020197	5.5719e-05	1021.5	2.3236e-06	2.2176e-06	1121.5	203.45	2.1842e-06	2.14e-06	259.26	74.88	58.378	17.498	2.0618e-06	24.504	227.616	129.193	224.434	138.242	232.942	285.326	138.427	146.050	222.530	265.348	145.671	152.423	153.243	160.367	318.986	159.404	-8191	255	
1491.724	1	1	0	0	0.14382	0.25644	0.07515	0.10862	0.17293	0.045449	0.1363	0.23862	0.14797	0.22397	0.13266	0.061641	0.023978	0.1638	0.086971	0.28394	-3.2687	-3.1792	-2.9979	-3.775	-3.025	-3.1896	-3.5771	-2.9771	-3.6562	-3.2667	-2.8583	-3.8604	-2.7625	-3.0833	-3.6958	-2.8083	358.298	145.991	354.096	130.282	398.767	406.596	352.060	161.245	405.548	372.567	481.255	428.703	344.640	238.761	243.124	460.436	0.00022215	0.00026323	0.00010652	1044.2	2.1895e-06	3.0588e-06	1150.1	204.98	2.7532e-06	2.7533e-06	264.27	75.429	59.206	17.391	2.4424e-06	24.224	0.00019481	0.00018617	5.2916e-05	1023	2.1284e-06	2.1855e-06	1124.4	203.16	2.2309e-06	2.257e-06	260.05	75.053	58.577	17.54	2.4363e-06	24.563	230.883	196.537	224.115	138.603	272.618	264.140	138.447	146.409	282.007	247.709	145.848	152.613	152.733	160.110	270.028	159.572	-8191	255	
1491.820	1	1	0	0	0.11431	0.3391	0.025284	0.49702	0.15674	0.22604	0.24494	0.13936	0.039613	0.33326	0.18231	0.2076	0.23837	0.11949	0.27975	0.23876	-3.1146	-3.3083	-2.8792	-3.7542	-3.0187	-3.0729	-3.7771	-2.9688	-3.3688	-3.3396	-2.9271	-3.6708	-3.0479	-2.9938	-3.75	-2.9562	307.541	183.073	218.245	434.989	145.009	223.411	419.954	414.629	430.486	471.376	193.253	481.422	183.839	148.432	464.997	384.155	0.00026485	0.00053293	7.7449e-05	1048.4	3.8479e-06	2.844e-06	1152.3	207.23	3.8369e-06	1.9813e-06	263.76	75.242	58.834	17.437	3.2978e-06	24.477	0.00022806	0.00022516	6.3451e-05	1025.3	2.5269e-06	2.5011e-06	1127.5	204.36	2.4238e-06	2.3955e-06	260.56	75.397	58.613	17.531	2.369e-06	24.647	224.525	229.695	239.521	138.376	264.936	282.600	138.385	146.382	278.487	270.334	145.796	152.225	152.894	160.063	316.155	159.743	-8191	255	
1491.916	1	1	0	0	0.16954	0.18388	0.20513	0.054285	0.059698	0.15281	0.3349	0.18156	0.093364	0.21095	0.23627	0.20066	0.14541	0.076649	0.070734	0.22316	-2.8271	-3.4417	-2.8063	-3.5687	-3.2021	-2.9813	-3.7771	-3.0083	-3.3646	-3.4	-3.0854	-3.7188	-3.0438	-3.1083	-3.7104	-3.0062	322.444	446.083	476.681	484.853	469.921	302.026	397.835	417.340	378.857	148.612	417.549	170.275	150.359	350.686	458.015	159.963	0.00022389	0.0001302	4.3413e-05	1045.6	3.3907e-06	4.371e-06	1154.1	207.85	2.453e-06	4.1795e-07	264.9	76.074	59.212	17.441	2.4383e-06	24.617	0.00022567	0.000222	6.234e-05	1026.7	2.5286e-06	2.5427e-06	1130.3	205.45	2.5738e-06	2.5636e-06	261.35	75.606	59.096	17.631	2.5571e-06	24.787	223.428	281.769	202.953	138.484	293.656	307.755	138.524	146.478	281.494	447.403	146.066	153.025	153.186	160.492	342.422	159.450	-8191	255	
1492.012	1	1	0	0	0.11033	0.21568	0.18937	0.14076	0.10521	0.14135	0.23088	0.12852	0.055253	0.21518	0.2693	0.15973	0.3274	0.1998	0.26674	0.096688	-2.7917	-3.4833	-2.7812	-3.6	-3.2917	-3.0875	-3.9083	-3.0771	-3.0333	-3.4562	-2.8854	-3.4	-3.4125	-2.9813	-3.7146	-2.9792	147.434	472.286	236.713	480.044	201.015	382.134	415.623	441.344	259.175	279.102	413.110	460.064	178.642	186.025	339.548	395.720	0.0002183	0.00027163	7.0574e-05	1051.9	4.6821e-06	2.4843e-06	1160.5	208.1	2.8839e-06	4.5623e-06	264.96	76.574	59.329	17.618	3.041e-06	24.636	0.00023462	0.00022825	6.4785e-05	1030.8	2.5912e-06	2.6069e-06	1132.6	205.9	2.6636e-06	2.6782e-06	262.3	75.895	58.931	17.741	2.6866e-06	24.821	225.379	208.628	255.688	138.383	274.166	267.814	138.494	146.498	319.964	248.419	145.671	152.623	153.234	160.403	262.999	159.538	-8191	255	
1492.107	1	1	0	0	0.1429	0.17492	0.26702	0.34212	0.13613	0.16483	0.27741	0.18874	0.1286	0.22984	0.12853	0.023913	0.27122	0.13211	0.070808	0.14459	-2.85	-3.6188	-2.8042	-3.45	-3.4104	-2.8417	-3.875	-3.1937	-3.2292	-3.6542	-3.0729	-3.3812	-3.3438	-2.8875	-3.6688	-3.2438	486.767	132.172	434.411	408.348	345.685	223.585	442.416	259.296	386.157	227.190	275.266	146.064	368.778	414.049	310.939	148.128	0.00023788	0.00033199	0.0001365	1053.5	1.8758e-06	1.3866e-06	1154.9	208.45	1.8024e-06	5.3624e-06	264.56	76.128	59.293	17.664	2.3136e-06	24.741	0.00026475	0.00025601	7.5482e-05	1033.7	3.0159e-06	2.9678e-06	1133.8	206.63	3.04e-06	2.967e-06	262.62	76.014	59.365	17.779	3.0247e-06	24.931	234.361	204.933	158.702	138.330	299.406	266.179	138.418	146.423	261.077	271.419	145.962	152.609	153.024	160.043	325.444	160.013	-8191	255	
1492.204	1	1	0	0	0.055317	0.18671	0.045795	0.27695	0.13427	0.23129	0.26401	0.19766	0.24782	0.10502	0.21557	0.045881	0.24626	0.078257	0.039918	0.064959	-2.6958	-3.7417	-2.9	-3.4417	-3.5062	-2.8917	-3.6021	-3.3896	-2.9708	-3.7708	-3.2292	-3.3396	-3.6458	-3.0604	-3.4792	-3.2	421.118	160.733	198.284	165.827	141.399	287.391	423.169	414.079	441.420	289.521	398.936	237.585	412.622	472.616	444.513	309.894	0.00025669	0.00034772	4.5882e-05	1058.6	4.0861e-06	1.57e-06	1163.1	209.98	4.4649e-06	2.9348e-06	265.24	76.506	59.395	17.546	4.5913e-06	24.573	0.00027799	0.00028161	7.7736e-05	1036.8	3.0174e-06	2.9872e-06	1137.3	206.67	2.874e-06	2.8376e-06	262.66	76.073	59.114	17.719	2.7418e-06	24.894	221.876	219.063	323.317	138.311	266.093	343.376	138.635	146.419	273.565	250.332	145.954	152.692	152.964	160.173	280.079	159.799	-8191	255	
1492.323	1	1	0	0	0.27756	0.041402	0.029124	0.23434	0.059577	0.041145	0.061666	0.10466	0.054534	0.28137	0.17044	0.066365	0.042506	0.14746	0.1083	0.091956	-2.4896	-3.7812	-3.0417	-3.3083	-3.6167	-2.875	-3.8229	-3.4313	-2.9771	-3.5646	-3.1479	-3.2146	-3.6417	-2.7458	-3.5042	-3.3917	318.946	286.470	276.960	485.942	429.320	415.432	343.242	454.551	409.152	196.685	437.183	195.533	350.817	145.537	443.889	146.567	0.00024398	0.00033382	7.8005e-05	1056.9	4.1805e-06	4.4293e-06	1158.6	209.02	1.5471e-06	3.7111e-06	266.02	75.868	59.403	17.612	1.7971e-06	24.678	0.00025385	0.00024755	7.0207e-05	1033.9	2.7541e-06	2.7491e-06	1135.5	206.56	2.7503e-06	2.6614e-06	263.25	76.038	59.268	17.729	2.7155e-06	24.922	227.903	304.652	210.948	138.584	264.557	340.579	138.459	146.623	292.881	257.709	145.649	152.383	152.420	160.265	258.345	159.438	-8191	255	
1492.419	1	1	0	0	0.23442	0.079738	0.20225	0.17813	0.16239	0.080403	0.39016	0.26108	0.087777	0.10168	0.19857	0.2029	0.21333	0.073121	0.22405	0.27061	-2.3458	-3.6354	-2.9667	-3.075	-3.475	-2.8521	-3.5438	-3.5271	-2.9521	-3.4583	-3.1521	-3.2042	-3.5875	-2.9167	-3.4521	-3.5333	405.186	392.140	382.533	414.044	316.022	325.074	407.215	468.552	416.387	170.280	171.827	253.072	477.550	388.973	383.558	326.576	0.00022423	0.0005584	0.00011486	1053.7	3.3267e-06	2.1433e-06	1157.5	209.54	2.6629e-06	2.8731e-06	264.15	75.939	59.717	17.566	2.3894e-06	24.788	0.00024791	0.00023636	6.6357e-05	1033.7	2.6643e-06	2.58e-06	1133.7	206.73	2.5857e-06	2.5814e-06	262.52	76.012	59.285	17.696	2.4844e-06	24.877	229.804	188.690	174.591	138.130	316.043	288.197	138.381	146.053	269.574	281.531	145.894	152.445	152.840	160.541	299.053	159.955	-8191	255	
1492.516	1	1	0	0	0.14734	0.093293	0.10721	0.24029	0.060928	0.097871	0.32593	0.15109	0.33632	0.059181	0.15251	0.086189	0.27264	0.15786	0.14474	0.11045	-2.4521	-3.4708	-3.2021	-3.2313	-3.8187	-3.0104	-3.3042	-3.5854	-2.9188	-3.5687	-3.3812	-3.0229	-3.6167	-2.9833	-3.1271	-3.4062	301.939	337.743	434.377	142.236	142.062	435.767	388.178	161.490	401.572	162.890	447.876	463.365	358.154	470.799	283.907	473.658	0.00026707	0.00034532	0.00010801	1057.5	4.3544e-06	1.0576e-06	1160	209.12	2.4526e-06	1.1964e-06	265.32	76.01	59.944	17.618	4.273e-06	24.586	0.00023615	0.0002201	6.127e-05	1034.2	2.5887e-06	2.4468e-06	1134.4	206.35	2.5749e-06	2.615e-06	262.6	75.921	59.387	17.784	2.729e-06	24.904	223.181	159.317	288.263	138.193	279.304	198.707	138.093	146.327	262.023	239.891	145.952	152.487	153.131	160.098	284.894	159.667	-8191	255	
1492.612	1	1	0	0	0.22529	0.1617	0.24511	0.25226	0.040835	0.19712	0.33463	0.13055	0.10765	0.17928	0.29464	0.1037	0.077472	0.14919	0.23438	0.070784	-2.525	-3.4021	-3.2375	-2.8375	-3.5771	-2.8854	-3.1229	-3.7583	-2.7646	-3.3875	-3.3812	-2.9917	-3.6167	-3.3333	-2.9083	-3.7583	396.704	180.607	441.612	434.377	149.886	426.345	401.416	442.357	379.762	402.790	389.885	484.378	342.222	408.228	409.898	146.487	0.00023781	0.00032418	0.00010902	1058.4	4.983e-06	6.3427e-06	1160.3	209.54	1.7532e-06	4.5695e-06	266.43	76.002	59.595	17.616	7.7466e-07	24.494	0.00025848	0.00025149	7.0652e-05	1036.7	2.8909e-06	2.8673e-06	1138.8	206.52	2.9075e-06	2.9408e-06	263.81	75.922	59.483	17.761	3.0065e-06	24.983	232.044	222.990	178.054	138.327	290.925	297.337	138.271	146.580	227.066	242.687	146.162	152.565	153.229	160.500	246.911	159.346	-8191	255	
1492.708	1	1	0	0	0.2215	0.063426	0.063273	0.18388	0.23942	0.076446	0.22327	0.13374	0.15584	0.11945	0.38059	0.080282	0.086199	0.2456	0.34314	0.092381	-2.4917	-3.3583	-3.5438	-2.8458	-3.6417	-3.0958	-3.0042	-3.6188	-2.8229	-3.2896	-3.4792	-2.6896	-3.4271	-3.1937	-2.7542	-3.6396	346.289	435.758	420.784	149.840	238.029	282.552	452.684	154.565	387.210	159.158	482.969	152.585	143.716	163.977	170.105	330.768	0.00023964	0.00025228	6.025e-05	1065.3	1.2192e-06	4.4179e-06	1166.5	208.4	3.1549e-06	2.0933e-06	266.82	76.481	60.028	17.639	2.7497e-06	24.824	0.00027577	0.00027334	7.6216e-05	1040.9	3.0705e-06	3.038e-06	1142.5	207.24	3.1145e-06	3.0711e-06	263.99	76.3	59.622	17.824	3.1025e-06	25.067	225.942	237.350	218.099	138.339	303.488	283.990	138.319	146.153	292.910	212.868	145.673	152.523	152.827	160.207	291.482	159.697	-8191	255	
1492.804	1	1	0	0	0.17997	0.10594	0.16003	0.12173	0.089308	0.13974	0.15929	0.068099	0.20412	0.1413	0.12148	0.23609	0.060642	0.1229	0.26736	0.035264	-2.6396	-3.0667	-3.5104	-2.7917	-3.4771	-3.3563	-2.9417	-3.5354	-2.9	-3.0812	-3.4917	-2.7521	-3.2375	-3.4625	-2.9021	-3.5417	151.543	400.490	162.843	379.597	369.481	471.992	412.892	373.351	371.886	350.514	484.287	328.998	223.420	163.350	417.051	191.152	0.00022259	4.0278e-05	0.00010023	1065.8	4.1134e-06	2.8891e-06	1166.2	209.54	3.1522e-06	2.3698e-06	267.9	76.556	59.665	17.582	3.0326e-06	24.781	0.0002841	0.00027594	7.6916e-05	1044.3	3.1179e-06	3.0619e-06	1144.8	207.67	2.9912e-06	3.022e-06	264.59	76.505	59.566	17.83	2.9335e-06	25.155	233.198	316.860	213.923	138.397	283.871	263.370	138.502	146.020	274.092	319.355	145.783	152.656	152.706	160.121	337.756	159.073	-8191	255	
1492.900	1	1	0	0	0.10356	0.24314	0.1474	0.29779	0.069157	0.086464	0.43488	0.068001	0.13204	0.038001	0.21864	0.22299	0.16824	0.30031	0.1073	0.20856	-2.7375	-3.0229	-3.4646	-2.825	-3.2417	-3.25	-2.8792	-3.6792	-2.9938	-2.9833	-3.6083	-2.8333	-3.2562	-3.3667	-2.8667	-3.4813	467.991	189.852	281.139	423.660	278.300	257.443	423.658	359.828	154.909	326.004	162.438	245.584	228.122	174.063	168.271	447.523	0.00022755	0.00042957	0.00010255	1068.4	4.5792e-06	2.3112e-06	1169	209.39	1.2255e-06	4.8285e-06	264.95	76.31	60.006	17.638	5.9699e-07	24.795	0.00026827	0.00027099	7.4006e-05	1045	3.0317e-06	2.9871e-06	1146.6	207.69	2.9767e-06	3.018e-06	264.15	76.538	59.895	17.906	3.0575e-06	25.161	232.662	216.773	233.969	138.416	280.644	369.359	138.331	146.225	268.220	278.301	146.011	152.549	152.696	160.187	345.985	159.568	-8191	255	
1493.021	1	1	0	0	0.1551	0.09741	0.11414	0.34731	0.13336	0.074484	0.16179	0.041552	0.20608	0.22508	0.1481	0.095385	0.37085	0.16734	0.08258	0.067479	-3.0167	-2.8229	-3.5729	-3.0646	-3.0896	-3.5396	-2.9104	-3.6104	-3.1375	-2.9125	-3.6854	-2.7271	-3.0875	-3.5083	-2.7917	-3.3625	305.151	238.707	461.633	461.094	315.142	446.711	376.146	259.024	461.587	330.209	314.988	380.055	422.928	219.358	144.085	189.007	0.00024204	0.0002485	2.9172e-05	1069.3	5.2002e-06	2.4669e-06	1170.1	210.52	2.2433e-06	2.9504e-06	269.14	76.962	59.79	17.823	2.8819e-06	24.765	0.00027877	0.00028526	7.6845e-05	1046.9	3.1794e-06	3.1315e-06	1150.1	208.2	3.1716e-06	3.214e-06	266.04	76.819	59.906	18.033	3.2728e-06	25.269	229.689	226.508	487.508	138.344	241.303	269.580	138.496	146.384	351.230	267.264	145.909	152.584	152.994	160.164	274.195	159.152	-8191	255	
1493.115	1	1	0	0	0.087033	0.15586	0.11053	0.35305	0.22649	0.092706	0.25216	0.223	0.083947	0.16654	0.075241	0.093517	0.031888	0.084715	0.3071	0.22578	-2.7896	-2.7625	-3.6625	-2.9854	-2.9458	-3.4583	-2.9542	-3.3292	-3.3542	-2.8937	-3.5708	-3.0104	-3.0229	-3.5167	-2.6688	-3.2854	459.012	377.005	353.977	444.473	373.975	378.569	382.630	420.010	446.660	437.062	485.796	465.221	362.451	369.628	257.237	418.102	0.0002682	0.00020661	0.00015233	1070.7	3.2879e-06	5.5817e-06	1172.9	211.48	4.2746e-06	3.067e-06	268.7	76.934	60.603	17.892	5.3919e-06	25.2	0.00029715	0.00030482	8.4323e-05	1049	3.3952e-06	3.3451e-06	1150.9	209.21	3.4268e-06	3.4475e-06	266.73	77.01	60.339	18.042	3.4889e-06	25.477	218.183	271.658	267.523	138.218	337.121	305.634	138.521	146.285	249.537	320.276	145.720	152.512	152.771	160.364	304.157	159.181	-8191	255	
1493.211	1	1	0	0	0.1082	0.2581	0.3717	0.45054	0.13637	0.17477	0.14626	0.15252	0.12654	0.13897	0.13461	0.22549	0.19012	0.24043	0.1601	0.06838	-2.9583	-2.6771	-3.4542	-3.2812	-3.0104	-3.4833	-3.2	-3.35	-3.2833	-2.8875	-3.4875	-3.2208	-2.9813	-3.5812	-2.7583	-3.1	398.421	212.283	271.213	445.777	280.204	487.290	420.115	399.407	438.663	163.056	287.052	470.344	137.715	443.879	390.332	414.503	0.00027077	0.00055384	8.2985e-05	1067.9	4.809e-06	3.5202e-06	1181.6	211.77	9.1562e-07	1.4931e-06	268.21	77.283	60.137	17.985	3.9192e-06	24.991	0.00030751	0.00031494	8.7013e-05	1051	3.4337e-06	3.3069e-06	1155.4	209.39	3.269e-06	3.3116e-06	266.53	77.051	60.118	18.075	3.1338e-06	25.314	227.992	170.122	177.423	138.452	280.703	244.885	138.342	146.141	326.950	273.727	145.464	152.675	152.856	160.288	313.474	158.711	-8191	255	
1493.285	1	1	0	0	0.18059	0.04285	0.089128	0.16315	0.095568	0.052897	0.21013	0.19047	0.16117	0.25781	0.10845	0.28163	0.13559	0.12864	0.30375	0.24724	-2.9188	-2.6958	-3.55	-3.3208	-2.7833	-3.5625	-3.0708	-3.0375	-3.5083	-2.8542	-3.4771	-3.4167	-2.6667	-3.6479	-2.9625	-3.1	472.791	185.501	355.405	379.296	288.621	142.010	360.072	170.380	132.812	184.557	410.772	433.611	214.276	481.824	432.230	371.126	0.00022449	0.00054939	7.4766e-05	1074.9	4.0259e-06	2.5662e-06	1182.4	211.3	2.5423e-06	2.4257e-06	269.02	76.728	59.692	17.844	2.2951e-06	25.069	0.00027918	0.0002753	7.6563e-05	1051.9	3.0121e-06	2.9124e-06	1154	209.52	2.9108e-06	2.9612e-06	266.39	76.785	59.938	18.033	2.9365e-06	25.336	220.561	213.287	266.067	138.391	266.412	266.875	138.384	146.292	279.301	305.143	145.688	152.579	152.900	160.090	317.519	159.387	-8191	255	
1493.404	1	1	0	0	0.26265	0.070014	0.11466	0.20324	0.04189	0.32674	0.25558	0.10777	0.066291	0.1563	0.38452	0.14459	0.15711	0.19192	0.11706	0.15121	-3.1542	-2.7146	-3.3146	-3.6021	-2.8292	-3.6125	-3.05	-3.0729	-3.7021	-2.7333	-3.3208	-3.4083	-2.5458	-3.3625	-3.1104	-2.8187	153.706	429.073	138.147	388.753	481.126	300.766	445.020	305.632	352.101	276.775	413.048	197.952	299.960	470.581	158.868	244.799	0.00024657	0.00026553	4.2623e-05	1074.1	4.8944e-06	2.0842e-06	1176	211.18	8.3703e-07	1.5442e-06	269.01	76.844	60.548	18.002	1.3493e-06	25.222	0.00027307	0.00026758	7.5599e-05	1052.5	3.0322e-06	2.9772e-06	1154.6	208.99	2.9601e-06	2.9723e-06	267.42	77.09	60.124	18.077	2.7757e-06	25.368	227.428	164.964	147.225	138.357	316.028	310.577	138.324	146.085	322.869	322.607	145.756	152.486	152.908	160.201	308.831	159.434	-8191	255	
1493.500	1	1	0	0	0.24117	0.10067	0.061874	0.18774	0.038367	0.1347	0.33196	0.13049	0.075328	0.091327	0.068315	0.33665	0.13334	0.1566	0.047179	0.17426	-3.1937	-2.7979	-3.0875	-3.5271	-2.7479	-3.3563	-3.1875	-2.9792	-3.4333	-2.8937	-3.3292	-3.5	-2.6521	-3.55	-3.0583	-2.8438	347.795	131.706	320.667	419.568	340.105	455.331	414.814	486.131	182.702	463.023	215.653	436.298	189.581	329.345	479.555	357.485	0.00020128	0.00014951	8.3431e-05	1076.3	2.4525e-06	1.3833e-06	1177.5	211.87	3.671e-06	4.0778e-06	270.11	77.388	60.197	17.769	2.1172e-06	25.308	0.00025183	0.0002478	6.739e-05	1052	2.7308e-06	2.7024e-06	1153.9	209.19	2.7839e-06	2.8201e-06	266.52	77.102	60.055	18.031	3.0755e-06	25.422	224.980	324.712	195.398	138.150	234.205	364.105	138.365	146.123	295.669	334.624	145.571	152.749	152.867	159.905	298.464	159.147	-8191	255	
1493.596	1	1	0	0	0.24293	0.11817	0.14817	0.21863	0.16592	0.058945	0.15885	0.17039	0.11639	0.15919	0.31239	0.17015	0.19357	0.08121	0.12302	0.10067	-3.1333	-2.7917	-3.1042	-3.4688	-2.7542	-3.3	-3.4188	-2.8479	-3.5292	-3.1021	-3.0479	-3.6854	-2.7	-3.2708	-3.3563	-2.8875	238.138	155.583	284.817	159.136	302.399	218.373	145.770	348.828	228.221	296.387	450.284	231.078	336.757	323.808	304.983	139.739	0.00028139	0.00029981	0.0001604	1076.4	1.7148e-06	3.6132e-06	1184.5	211.36	2.8194e-06	4.3207e-07	270.03	77.03	60.666	17.97	5.6631e-06	25.157	0.00028888	0.00028987	8.3072e-05	1054.4	3.3306e-06	3.3154e-06	1159.7	209.5	3.3742e-06	3.4981e-06	267.81	77.368	60.494	18.171	3.5661e-06	25.562	229.270	457.294	191.204	138.187	224.958	246.156	138.390	145.963	326.973	298.710	145.657	152.584	153.005	160.412	255.397	158.974	-8191	255	
1493.692	1	1	0	0	0.22273	0.0033295	0.027965	0.09879	0.11013	0.07331	0.0083992	0.23349	0.2308	0.066256	0.18985	0.21275	0.06723	0.29055	0.061643	0.17155	-3.2021	-3.0104	-2.8208	-3.7833	-2.7792	-3.1437	-3.5208	-2.8854	-3.4104	-3.2188	-2.725	-3.6271	-2.825	-3.0438	-3.3229	-2.8417	180.979	401.665	205.444	221.222	439.161	319.307	137.531	448.415	469.631	148.556	478.857	170.804	150.552	416.785	424.741	278.878	0.0002497	0.00045849	9.8843e-05	1083.6	6.0856e-07	3.4933e-06	1189.3	213.39	2.7366e-06	5.7486e-06	271.12	77.819	60.623	17.91	4.3861e-06	25.012	0.00032732	0.00033011	9.4532e-05	1061	3.67e-06	3.7382e-06	1165.4	210.9	3.7336e-06	3.8473e-06	269.37	77.859	60.954	18.251	3.9868e-06	25.594	219.274	247.796	209.729	138.239	307.310	287.309	138.440	146.266	270.682	282.675	145.660	152.547	153.043	159.945	291.031	159.266	-8191	255	
1493.813	1	1	0	0	0.13922	0.029617	0.12193	0.20154	0.15377	0.14653	0.086376	0.096856	0.33335	0.10432	0.023036	0.12948	0.1728	0.19069	0.15836	0.17845	-3.1271	-2.9979	-2.7812	-3.7729	-2.9146	-3.2521	-3.4354	-2.7292	-3.425	-3.3125	-2.9396	-3.6479	-3.1646	-3.0542	-3.4042	-2.8833	231.877	279.643	373.472	176.478	232.697	152.292	454.959	146.841	238.476	339.162	388.390	356.380	351.352	227.809	182.331	408.903	0.00022919	0.00034656	6.2069e-05	1086.8	2.0203e-06	4.0191e-06	1197.7	213.05	3.5294e-06	1.3756e-06	271.5	77.675	61.523	18.041	1.9962e-06	25.243	0.00036472	0.00036665	0.00010468	1066.6	4.0719e-06	4.1153e-06	1172.3	211.25	4.0654e-06	4.1046e-06	270.71	78.259	61.368	18.401	4.1431e-06	25.792	241.452	162.372	216.598	138.190	290.399	342.089	138.512	146.038	295.408	313.765	145.300	152.559	152.794	160.056	248.518	159.671	-8191	255	
1493.909	1	1	0	0	0.31058	0.084162	0.29717	0.22768	0.17886	0.24652	0.16849	0.25956	0.15167	0.10342	0.11445	0.17131	0.1469	0.01098	0.13625	0.092996	-3.15	-3.275	-2.8396	-3.6229	-3.0146	-2.8854	-3.7167	-2.8875	-3.4146	-3.4354	-2.9792	-3.5833	-3.0771	-2.9229	-3.4354	-2.8417	437.557	189.430	359.835	439.237	363.694	419.345	413.600	422.915	312.735	348.237	411.868	366.543	304.795	162.961	264.044	213.640	0.0002627	0.00044293	0.00011375	1096	2.7129e-06	2.6103e-06	1197.5	212.7	2.4395e-06	1.954e-06	272.59	78.155	60.829	17.956	7.7881e-07	25.332	0.00036915	0.00037717	0.00010898	1073.4	4.3427e-06	4.307e-06	1174.9	212.45	4.2755e-06	4.2809e-06	271.52	78.449	61.317	18.387	4.3559e-06	25.794	223.159	212.066	240.416	138.149	236.723	334.966	138.339	145.889	289.310	352.218	145.634	152.589	152.734	159.736	385.482	159.236	-8191	255	
1494.005	1	1	0	0	0.17328	0.1132	0.095894	0.074972	0.11717	0.1191	0.15288	0.2225	0.15925	0.16312	0.24193	0.083635	0.20753	0.17248	0.20595	0.043836	-2.7562	-3.4042	-2.7792	-3.6979	-3.0438	-2.9604	-3.7354	-2.9854	-3.0479	-3.5021	-2.8792	-3.3833	-3.2896	-2.9271	-3.6417	-3.0417	299.700	311.644	248.586	269.495	216.692	203.503	483.504	430.096	308.576	194.612	377.498	213.008	469.453	474.278	324.660	355.630	0.00026393	0.00024987	3.2487e-05	1095.4	3.0031e-06	9.8709e-07	1193.9	213.74	2.2632e-06	3.2111e-06	273.25	78.071	60.951	18.016	5.8662e-06	25.446	0.00037902	0.00038572	0.00010841	1074.5	4.2633e-06	4.2383e-06	1177.3	212.54	4.1373e-06	4.1289e-06	271.82	78.638	61.247	18.456	4.1755e-06	25.822	227.612	195.611	274.555	137.921	297.163	223.369	138.176	146.392	271.521	302.720	145.797	152.136	152.862	159.782	330.675	159.292	-8191	255	
1494.101	1	1	0	0	0.12696	0.17886	0.23438	0.36337	0.22119	0.22199	0.17376	0.29346	0.067869	0.17971	0.31451	0.23159	0.042095	0.17513	0.083471	0.065874	-2.7771	-3.2708	-2.85	-3.4688	-3.1	-2.8208	-3.7333	-2.8833	-3.0333	-3.5354	-2.6375	-3.3729	-3.2229	-3.0167	-3.4833	-3.1188	195.091	416.754	294.380	441.139	466.934	405.668	473.032	138.395	478.812	359.229	475.662	420.919	134.399	156.580	202.833	298.332	0.00023628	0.00037838	3.0269e-05	1090.7	2.0737e-06	7.0689e-07	1198	214.21	2.5962e-06	5.1157e-06	272.07	78.496	60.791	18.135	3.5671e-06	25.433	0.00037132	0.00038153	0.00010595	1071.7	4.2455e-06	4.3286e-06	1176.1	213.14	4.2318e-06	4.3283e-06	271.46	78.711	61.359	18.469	4.2364e-06	25.87	227.986	227.100	257.852	138.310	242.934	172.343	138.341	146.191	292.039	231.112	145.691	151.923	152.839	159.789	283.236	159.353	-8191	255	
1494.196	1	1	0	0	0.248	0.057366	0.10444	0.29855	0.081368	0.1118	0.19264	0.056879	0.10521	0.068119	0.21439	0.13049	0.36557	0.12194	0.23416	0.073653	-2.6354	-3.475	-2.6375	-3.4771	-3.1208	-2.8917	-3.6729	-3.2729	-2.8021	-3.3854	-2.9938	-3.325	-3.3812	-2.6208	-3.5375	-3.0479	307.334	378.053	399.418	471.719	429.776	296.490	471.305	393.145	217.961	407.247	472.376	171.496	284.764	196.606	172.750	463.157	0.00027013	0.00048057	2.208e-05	1094.1	3.3265e-06	5.9027e-07	1197.6	214.42	1.3026e-06	1.9414e-06	272.86	78.277	61.126	18.079	2.2488e-06	25.145	0.00037254	0.00037889	0.0001033	1072.9	3.9664e-06	3.9429e-06	1176.3	212.85	3.7447e-06	3.6687e-06	271.04	78.377	61.071	18.319	3.9043e-06	25.695	229.604	248.595	190.800	138.030	195.315	152.295	138.256	146.197	325.827	207.242	145.903	152.792	152.852	159.864	254.841	159.614	-8191	255	
1494.292	1	1	0	0	0.14652	0.036608	0.1453	0.27422	0.19539	0.28112	0.12382	0.15041	0.21904	0.22885	0.16391	0.12045	0.12802	0.1811	0.091773	0.24058	-2.3271	-3.5625	-2.8583	-3.2062	-3.4042	-2.7208	-3.5042	-3.3458	-2.9	-3.5563	-2.9167	-3.4167	-3.5458	-2.8354	-3.3688	-3.35	342.899	408.944	271.347	452.898	280.759	205.275	382.326	134.983	460.198	433.741	484.825	404.591	166.438	282.851	253.119	437.283	0.00024756	9.9212e-05	2.2821e-05	1086.2	3.921e-06	1.4248e-06	1192.6	214.04	4.9217e-06	4.333e-06	273.44	78.295	60.665	18.037	5.6551e-06	25.326	0.0003594	0.00036924	0.00010848	1071	4.3512e-06	4.5008e-06	1174.6	212.95	4.5723e-06	4.5546e-06	271.96	78.454	61.229	18.412	4.114e-06	25.749	224.874	215.051	158.054	138.297	283.713	314.035	138.384	146.463	293.368	309.329	145.659	153.030	152.402	159.950	290.823	159.474	-8191	255	
1494.412	1	1	0	0	0.27454	0.063374	0.18647	0.1248	0.14853	0.27305	0.15913	0.12907	0.077254	0.12834	0.3454	0.21379	0.11573	0.22883	0.12839	0.21942	-2.4313	-3.5125	-3.0479	-3.2667	-3.5354	-2.5771	-3.3229	-3.5854	-2.6875	-3.6063	-3.1979	-3.0938	-3.5563	-2.8083	-3.1625	-3.45	425.411	180.632	192.668	472.380	385.263	420.367	289.475	264.926	423.171	358.525	393.405	219.197	388.220	342.328	272.302	469.736	0.00027588	0.00028018	6.101e-05	1092.9	3.8246e-06	3.7602e-06	1194.2	213.57	2.1198e-06	2.9587e-06	272.21	78.125	61.285	18.085	3.9431e-06	25.279	0.00034598	0.00033599	9.4055e-05	1069.5	3.5043e-06	3.5019e-06	1171.5	211.75	3.3943e-06	3.4335e-06	270.33	77.972	61.021	18.356	3.4517e-06	25.709	225.417	203.922	238.998	138.239	230.943	188.070	138.331	146.016	228.972	341.752	145.738	152.519	152.893	159.594	274.527	159.523	-8191	255	
1494.509	1	1	0	0	0.13343	0.093979	0.29286	0.12796	0.044684	0.42407	0.28365	0.10925	0.22468	0.15535	0.044867	0.19914	0.24549	0.19403	0.050743	0.16129	-2.4333	-3.475	-3.1188	-3.15	-3.5187	-2.9292	-3.4792	-3.4125	-2.7271	-3.3542	-3.2729	-3.0396	-3.5729	-2.7521	-3.1854	-3.4667	332.037	439.319	158.604	385.551	369.147	228.696	412.278	331.647	341.954	177.591	342.476	318.001	199.643	474.194	486.757	311.275	0.00024137	0.0002339	6.4515e-05	1092.3	3.2638e-06	3.075e-06	1191.9	214.8	2.7255e-06	5.2737e-06	274.42	77.34	61.512	18.04	4.171e-06	25.192	0.0003182	0.00031599	8.8041e-05	1069.4	3.5582e-06	3.3776e-06	1170.8	211.95	3.4559e-06	3.2821e-06	270.51	77.746	60.999	18.26	3.1702e-06	25.496	225.831	249.886	235.221	138.261	291.608	271.768	138.441	146.331	241.914	278.620	145.428	152.622	153.155	159.948	268.537	159.269	-8191	255	
1494.580	1	1	0	0	0.089317	0.087034	0.18856	0.2268	0.19308	0.17632	0.1842	0.2324	0.10602	0.18393	0.15293	0.14129	0.23296	0.20965	0.089481	0.17102	-2.4375	-3.4729	-3.2188	-3.1083	-3.5792	-2.8688	-3.2292	-3.5646	-2.9229	-3.5563	-3.3896	-3.0438	-3.7125	-2.8979	-3.0687	-3.5792	477.571	403.148	424.138	431.125	191.096	243.197	474.720	304.202	414.681	192.313	423.880	220.204	425.207	184.652	455.298	443.745	0.00021236	0.00029792	0.00015079	1088.2	3.036e-06	3.4649e-06	1183.6	212.81	3.0533e-06	5.8081e-07	270.85	77.415	60.631	18.045	2.6571e-06	25.273	0.00028291	0.00028439	8.0688e-05	1063.3	3.1351e-06	3.0954e-06	1164.2	210.87	3.1879e-06	3.1209e-06	269.19	77.437	60.54	18.231	3.2324e-06	25.554	222.546	146.966	257.722	138.214	282.165	319.897	138.322	145.966	274.251	130.574	145.618	152.381	152.955	160.403	228.773	159.684	-8191	255	
1494.676	1	1	0	0	0.095248	0.10861	0.27446	0.24084	0.22361	0.17201	0.2836	0.15647	0.16175	0.1014	0.14848	0.31503	0.052581	0.12142	0.059646	0.19173	-2.3333	-3.35	-3.3333	-2.9896	-3.5563	-2.9375	-3.1583	-3.5521	-2.7729	-3.3521	-3.5167	-2.7438	-3.5896	-3.1729	-2.8583	-3.5042	298.967	469.911	149.509	140.951	223.543	282.493	421.952	172.206	178.084	153.686	480.515	459.800	383.647	479.465	329.724	308.971	0.00025073	0.00033235	0.00015648	1082.3	3.4234e-06	4.9737e-06	1188.4	213.32	3.0343e-06	5.4607e-06	269.82	77.342	60.447	18.033	3.003e-06	25.286	0.00029363	0.00030334	8.3451e-05	1060.7	3.3461e-06	3.4022e-06	1163.7	210.27	3.312e-06	3.3624e-06	268.51	77.746	60.548	18.182	3.2605e-06	25.562	228.479	243.493	188.231	138.129	292.151	246.126	138.325	146.290	282.368	284.703	145.530	152.798	152.792	159.965	262.410	159.449	-8191	255	
1494.797	1	1	0	0	0.027698	0.11046	0.1564	0.14057	0.053758	0.1117	0.099453	0.34608	0.29322	0.11049	0.12098	0.11164	0.119	0.09048	0.20824	0.34622	-2.4917	-3.2	-3.4396	-3.0208	-3.4958	-3.3542	-3.1708	-3.4896	-2.8312	-3.3063	-3.4396	-2.8438	-3.4708	-3.3292	-2.9396	-3.5958	251.854	265.111	455.231	378.872	271.676	301.479	358.930	457.516	270.060	136.191	308.022	355.758	475.532	196.765	144.041	207.018	0.00023269	0.00023456	7.5416e-05	1085	1.8733e-06	4.1011e-06	1185.7	212.11	2.0068e-06	1.767e-06	270.24	77.635	60.729	17.998	1.5089e-06	25.181	0.00029126	0.00029012	8.0078e-05	1060.7	3.2458e-06	3.1799e-06	1163.1	210.55	3.1568e-06	3.1573e-06	268.77	77.479	60.489	18.154	3.2355e-06	25.523	221.386	245.270	209.788	138.314	233.108	258.971	138.226	146.202	261.942	249.183	145.947	152.471	152.976	160.312	241.472	159.522	-8191	255	
1494.893	1	1	0	0	0.20405	0.2433	0.28689	0.27466	0.033804	0.083198	0.3421	0.23089	0.11877	0.28575	0.077577	0.063573	0.24335	0.12496	0.10024	0.131	-2.6479	-3.1667	-3.6042	-2.9771	-3.4	-3.4292	-3.0187	-3.6104	-3.2708	-3.1437	-3.7021	-2.975	-3.2521	-3.4729	-2.7271	-3.6917	467.662	184.598	361.244	133.357	282.245	456.445	429.894	408.839	155.177	217.684	245.080	368.476	305.934	223.078	229.683	346.769	0.00020289	0.00029225	4.0952e-05	1077.6	4.7571e-06	6.3129e-06	1183.7	211.81	3.0046e-06	2.8496e-06	271.37	76.736	60.602	17.931	2.9439e-06	24.896	0.00028859	0.00028467	7.9738e-05	1057.2	3.2311e-06	3.1761e-06	1161	210.22	3.2086e-06	3.1375e-06	269.29	77.186	60.453	18.126	3.2026e-06	25.483	225.694	257.928	213.511	138.249	278.803	266.204	138.335	146.221	277.022	316.522	145.967	152.443	152.815	160.292	251.303	159.359	-8191	255	
1494.989	1	1	0	0	0.14828	0.066056	0.17686	0.24489	0.12017	0.25307	0.19201	0.16347	0.10307	0.069287	0.063936	0.10535	0.25112	0.25915	0.19344	0.046124	-2.8042	-3.05	-3.6875	-3.0417	-3.3521	-3.3875	-2.9062	-3.6312	-3.2313	-2.9979	-3.7562	-2.8312	-3.2292	-3.4708	-2.8688	-3.4062	465.291	347.082	281.093	460.036	384.836	164.184	451.445	467.574	415.504	200.887	422.549	458.248	286.343	314.413	200.246	394.547	0.00025896	0.00019221	3.9875e-05	1082.4	1.4055e-06	5.101e-06	1183.3	211.84	3.144e-06	4.0404e-06	269.56	77.486	60.326	18.017	3.4799e-06	25.247	0.00029352	0.00029365	7.8649e-05	1057.8	3.214e-06	3.1137e-06	1160	210.16	3.0308e-06	3.089e-06	268.31	77.26	60.169	18.156	3.0203e-06	25.449	227.675	293.481	195.493	138.274	297.199	318.841	138.111	146.339	259.892	248.486	145.763	153.027	152.973	160.312	308.261	160.138	-8191	255	
1495.085	1	1	0	0	0.15111	0.1379	0.11226	0.29497	0.21667	0.1452	0.24585	0.17511	0.04254	0.1712	0.057733	0.14563	0.018828	0.099971	0.1047	0.22912	-2.9521	-3.0333	-3.5958	-2.8812	-3.1875	-3.5083	-2.9292	-3.5833	-3.275	-2.8604	-3.7333	-2.9688	-3.1292	-3.5458	-2.8583	-3.5083	398.362	183.021	201.848	443.889	203.661	458.542	414.901	400.342	385.625	386.914	204.844	172.722	228.589	236.335	321.275	298.080	0.0002393	0.00018078	6.8788e-05	1072.6	2.1975e-06	1.5534e-06	1182.8	212.29	1.7902e-06	3.5334e-06	271.07	77.591	60.199	17.747	3.6707e-06	25.017	0.00027339	0.00027355	7.6052e-05	1053.3	3.0741e-06	3.0572e-06	1157.5	209.93	2.9852e-06	3.0206e-06	268.55	77.498	60.213	18.042	3.1713e-06	25.442	226.535	183.247	253.773	138.517	281.890	487.853	138.467	145.887	270.734	270.263	145.486	152.834	153.136	160.440	321.422	159.281	-8191	255	
1495.180	1	1	0	0	0.037503	0.13576	0.30426	0.18416	0.035958	0.0538	0.12017	0.29332	0.27913	0.21256	0.33658	0.2377	0.31983	0.070681	0.15528	0.231	-3.2042	-2.8625	-3.5187	-3.2	-3.0417	-3.6271	-2.9521	-3.4813	-3.425	-2.8104	-3.6104	-3.0521	-3.0083	-3.6021	-3.0563	-3.3521	340.020	181.642	274.298	389.861	321.405	272.488	418.804	356.759	423.015	254.016	449.107	230.388	365.159	447.495	181.259	365.941	0.00024259	0.00026491	0.00011452	1077.1	2.8264e-06	2.3437e-07	1178.7	211.5	3.225e-06	2.1514e-06	272.2	77.946	60.757	18.028	9.465e-07	25.343	0.0002809	0.00028702	7.8686e-05	1055.4	3.1409e-06	3.0271e-06	1155.5	209.76	3.0394e-06	3.0152e-06	268.32	77.51	60.313	18.118	2.9899e-06	25.472	229.919	207.282	221.646	138.344	283.927	186.663	138.381	146.190	284.597	261.450	145.783	152.468	152.833	160.141	401.216	159.586	-8191	255	
1495.276	1	1	0	0	0.16083	0.22461	0.12375	0.064309	0.2693	0.030532	0.096314	0.12157	0.0086769	0.062001	0.14557	0.1497	0.1235	0.040902	0.14349	0.28044	-3.0354	-2.6896	-3.5042	-3.2812	-2.9396	-3.6167	-3.1417	-3.2687	-3.5042	-2.6604	-3.6875	-3.3083	-2.7271	-3.525	-3.0062	-3.2438	400.282	197.045	322.069	402.090	141.210	427.242	435.767	391.169	234.213	137.893	217.634	401.122	266.344	265.384	160.910	132.369	0.00020444	4.4765e-05	6.0504e-05	1075.8	2.4349e-06	1.1925e-06	1173.5	211.42	1.952e-06	2.2621e-06	269.57	77.266	60.354	17.951	3.1036e-06	25.143	0.00027304	0.00027838	7.4813e-05	1053.1	3.0301e-06	2.9766e-06	1155.9	209.84	2.9493e-06	3.0001e-06	267.86	77.314	60.266	18.117	2.8604e-06	25.354	226.648	272.522	221.580	138.567	278.960	283.500	138.684	146.366	286.802	321.559	145.799	152.347	152.972	160.405	307.905	159.609	-8191	255	
1495.374	1	1	0	0	0.13983	0.12141	0.083354	0.30905	0.070809	0.12501	0.31515	0.28003	0.34007	0.16763	0.16198	0.2064	0.1764	0.21662	0.22864	0.23384	-3.075	-2.9062	-3.2583	-3.3792	-2.8604	-3.625	-3.2188	-3.2625	-3.5271	-2.9167	-3.5729	-3.4521	-2.8292	-3.5812	-2.9792	-3.0917	158.095	284.209	362.092	444.147	442.787	312.741	442.264	442.119	279.018	403.730	472.017	150.285	158.614	143.992	383.284	466.373	0.00024939	0.00033452	9.7251e-05	1075.5	1.8287e-06	2.1493e-06	1180.9	211.72	1.9523e-06	1.7299e-06	271.9	77.611	60.539	17.842	1.5358e-06	25.035	0.00025518	0.00026066	6.9774e-05	1054.3	2.8691e-06	2.8203e-06	1156.8	209.55	2.8551e-06	2.879e-06	267.78	77.348	60.165	18.046	2.7941e-06	25.361	230.055	225.366	186.855	138.351	282.569	240.169	138.540	146.111	317.649	245.396	145.602	152.218	153.069	160.429	255.254	159.729	-8191	255	
1495.493	1	1	0	0	0.06446	0.09304	0.068335	0.12822	0.10762	0.055112	0.28788	0.09439	0.05432	0.15952	0.1965	0.31923	0.10098	0.12543	0.14628	0.18344	-3.2208	-2.7458	-3.2958	-3.5417	-2.7521	-3.7188	-3.225	-3.075	-3.5104	-2.8771	-3.1771	-3.3187	-2.7438	-3.375	-2.9854	-3.125	204.290	367.585	266.238	175.090	480.758	196.648	408.311	392.073	208.392	146.608	187.180	269.383	411.292	278.787	345.249	384.788	0.0002233	0.0004125	9.4174e-05	1076.8	3.9149e-06	5.1262e-06	1177.9	211.42	3.9417e-06	4.746e-06	270.53	77.077	60.228	17.83	4.0447e-06	25.034	0.00024785	0.00025647	7.1024e-05	1053.5	2.8225e-06	2.7812e-06	1155.1	209.63	2.8161e-06	2.7558e-06	267.58	77.102	60.18	18.022	2.8047e-06	25.331	229.938	263.288	255.054	138.318	279.859	325.723	138.386	146.200	276.830	275.693	145.423	152.523	152.770	160.297	272.872	159.400	-8191	255	
1495.589	1	1	0	0	0.062961	0.10062	0.12379	0.37203	0.2036	0.11197	0.017522	0.024833	0.20987	0.03345	0.26409	0.18789	0.39221	0.14468	0.1304	0.18351	-3.1521	-2.7979	-3.3792	-3.4875	-2.7458	-3.3792	-3.3042	-2.925	-3.7625	-2.9083	-3.0792	-3.4333	-2.8563	-3.3583	-3.2917	-2.8292	205.766	252.803	378.645	444.020	273.568	191.055	217.545	457.544	373.444	424.071	372.780	473.742	173.567	221.233	266.943	473.294	0.00027268	5.4189e-05	9.3811e-05	1078.9	1.4366e-06	4.5582e-06	1177.6	211.86	2.2463e-06	1.6466e-06	269	77.435	60.494	17.874	2.9672e-06	25.117	0.0002576	0.00025738	7.0591e-05	1055.2	2.8367e-06	2.7838e-06	1155.3	209.25	2.776e-06	2.8047e-06	267.3	77.135	60.15	18.063	2.7168e-06	25.394	230.676	234.549	244.431	138.424	315.947	251.026	138.582	146.191	312.816	244.856	145.660	152.885	152.778	160.136	309.978	159.281	-8191	255	
1495.685	1	1	0	0	0.10114	0.12928	0.057495	0.15681	0.12876	0.10335	0.097757	0.051952	0.22947	0.24171	0.19858	0.099511	0.13008	0.1915	0.11369	0.16198	-3.2604	-2.9458	-2.9938	-3.8312	-2.9146	-3.2667	-3.4917	-2.9042	-3.4625	-3.0583	-3.075	-3.5229	-2.9625	-3.25	-3.2354	-2.6896	407.117	315.463	383.994	369.964	356.674	268.052	412.812	222.730	299.437	346.984	375.355	456.227	268.396	300.795	427.505	425.703	0.00023479	0.0005989	9.1893e-05	1074.2	3.6243e-06	2.0961e-06	1175.2	212.41	2.6561e-06	5.1441e-06	270.75	77.125	60.493	17.99	1.2118e-06	25.02	0.00024839	0.00025146	7.0332e-05	1051.9	2.8174e-06	2.7273e-06	1155.3	209.3	2.7995e-06	2.7292e-06	267.47	77.104	60.103	18.114	2.8727e-06	25.345	222.592	209.663	256.442	138.484	244.698	321.421	138.447	146.096	272.567	286.938	146.202	152.777	152.824	160.268	266.511	159.722	-8191	255	
1495.806	1	1	0	0	0.14606	0.04205	0.16272	0.40036	0.13204	0.14278	0.31517	0.17129	0.10211	0.18342	0.036625	0.16779	0.233	0.09701	0.12761	0.39188	-3.1667	-2.95	-2.7646	-3.5979	-2.8396	-3.2896	-3.6312	-2.7458	-3.3646	-3.0458	-2.9958	-3.5187	-2.6312	-3.1562	-3.3125	-2.5979	164.618	143.144	153.099	435.011	316.537	295.040	425.334	355.654	403.660	461.696	391.863	167.160	470.329	150.829	288.036	331.784	0.00024253	0.00029859	6.4637e-05	1075.2	3.8371e-06	1.8974e-06	1180.1	212.19	1.5342e-06	1.9724e-06	271.32	77.113	60.201	17.991	3.3684e-06	25.087	0.00025804	0.00025333	7.2077e-05	1054	2.8166e-06	2.7211e-06	1156.2	209.39	2.651e-06	2.6492e-06	267.41	76.915	59.995	18.077	2.6034e-06	25.312	229.792	274.910	248.119	138.280	288.875	259.823	138.616	146.310	236.032	314.369	145.753	152.544	152.580	159.860	309.377	159.382	-8191	255	
1495.877	1	1	0	0	0.24931	0.082869	0.26599	0.082053	0.21345	0.095324	0.12114	0.25063	0.26365	0.0023243	0.11269	0.15089	0.25703	0.22721	0.037407	0.15294	-3.1604	-3.0917	-2.7333	-3.7292	-2.8438	-3.1188	-3.5625	-2.7604	-3.2292	-3.2583	-2.7333	-3.6063	-2.9042	-3.0167	-3.6542	-2.7354	372.759	174.080	388.083	418.129	435.913	326.923	366.741	453.469	356.609	180.000	299.196	232.589	479.912	459.211	131.849	246.037	0.00024254	0.00020141	9.3108e-05	1074.4	1.7742e-06	3.3407e-06	1180.3	211.15	4.708e-06	2.837e-06	269.7	76.719	60.011	17.843	4.8599e-06	25.176	0.00024441	0.00023652	6.8082e-05	1050.5	2.6635e-06	2.6e-06	1153.1	208.94	2.6861e-06	2.6455e-06	267.58	76.905	59.972	18.041	2.8e-06	25.311	226.378	257.638	287.086	138.453	308.208	250.369	138.618	146.340	279.049	212.238	145.881	152.837	153.071	160.286	272.162	159.478	-8191	255	
1495.974	1	1	0	0	0.30332	0.058495	0.10042	0.21335	0.065815	0.18788	0.1264	0.1805	0.20532	0.10445	0.13365	0.072452	0.070782	0.17779	0.30541	0.11363	-2.8563	-3.3083	-2.8875	-3.7208	-3.0417	-3.0312	-3.4813	-2.9458	-3.3896	-3.4083	-2.8292	-3.5229	-3.1542	-2.8708	-3.4792	-2.7958	482.258	454.485	216.670	463.695	373.733	250.397	201.018	420.388	225.857	434.212	345.474	173.678	371.260	288.943	223.098	386.293	0.00025827	0.00029003	7.4327e-05	1072.1	2.9504e-06	6.9637e-06	1179.4	211.78	2.9595e-06	2.2647e-06	268.95	77.067	59.697	17.853	2.7163e-06	25.052	0.00026078	0.00026108	7.6478e-05	1050.9	3.0068e-06	2.9764e-06	1154.1	209.16	3.0257e-06	3.0101e-06	267.73	77.21	59.975	18.057	2.9526e-06	25.325	226.465	227.615	292.533	138.467	286.637	292.027	138.378	146.145	274.330	296.844	145.909	152.815	152.956	160.306	329.959	159.580	-8191	255	
1496.094	1	1	0	0	0.2462	0.119	0.24508	0.38103	0.18975	0.081617	0.39347	0.23678	0.29449	0.1262	0.32065	0.18067	0.06836	0.052201	0.14474	0.16221	-2.8375	-3.45	-2.5729	-3.6063	-3.1813	-2.8271	-3.6146	-3	-2.9396	-3.6312	-2.9104	-3.45	-3.3521	-2.6833	-3.4437	-2.9104	401.364	249.255	479.618	419.961	162.883	432.258	408.953	145.082	223.724	255.441	452.193	472.947	304.407	383.643	400.746	446.926	0.00027134	0.00022534	2.3324e-05	1077.2	2.3931e-06	5.3409e-06	1177.4	212.34	2.2615e-06	2.7717e-06	269.69	76.837	60.592	17.869	3.3223e-06	25.132	0.00026707	0.00026927	7.4285e-05	1052.2	2.9648e-06	2.8798e-06	1154.1	209.39	2.9444e-06	2.8663e-06	267.33	76.963	60.312	18.021	2.9086e-06	25.362	228.777	245.283	293.912	138.110	297.042	320.803	138.334	146.216	291.852	182.035	145.777	152.487	153.148	160.382	274.346	159.687	-8191	255	
1496.189	1	1	0	0	0.25772	0.12636	0.22544	0.074088	0.082154	0.25215	0.055897	0.16183	0.25248	0.18518	0.19186	0.33925	0.10803	0.084244	0.328	0.12496	-2.6125	-3.4021	-2.825	-3.5958	-3.2208	-2.7792	-3.7396	-3.0875	-3.0187	-3.5896	-2.9208	-3.2875	-3.4021	-2.9771	-3.4729	-3.0833	331.713	428.702	227.610	444.880	321.961	156.269	130.471	439.110	264.825	314.691	356.301	459.711	161.556	426.329	384.748	151.282	0.00023142	0.00050792	8.1769e-06	1073.8	4.2778e-06	1.7235e-06	1176	211.66	3.1278e-06	2.6621e-06	270.76	77.298	60.276	17.784	3.7108e-06	25.197	0.00027012	0.00026239	7.558e-05	1051.9	3.0256e-06	2.9822e-06	1152.9	209.18	3.1418e-06	3.1253e-06	268.06	77.318	60.156	18.057	3.1285e-06	25.401	225.366	191.735	141.861	138.470	284.889	209.334	138.556	146.392	320.406	250.990	145.801	152.558	152.915	160.069	267.695	159.274	-8191	255	
1496.285	1	1	0	0	0.15271	0.046803	0.24496	0.056918	0.30033	0.25225	0.27536	0.11669	0.14087	0.17766	0.26618	0.20045	0.1925	0.062422	0.05532	0.2483	-2.5708	-3.3854	-2.7979	-3.2771	-3.3292	-2.9708	-3.5	-3.2917	-2.8125	-3.4938	-2.9437	-3.0854	-3.6167	-2.8146	-3.6021	-3.3208	399.268	153.396	405.019	276.737	311.999	345.989	428.906	333.220	198.481	152.401	430.019	370.369	456.234	290.602	300.682	376.508	0.00024989	0.00028202	0.00012013	1074	3.3189e-06	3.7175e-06	1175.3	211.15	8.9116e-07	2.8616e-06	270.23	78.012	60.244	17.815	3.2277e-06	25.117	0.00027874	0.00027633	7.708e-05	1049.8	3.0578e-06	3.0624e-06	1154.3	209.46	3.0626e-06	3.0136e-06	267.72	77.513	60.085	18.054	3.0129e-06	25.347	222.458	199.330	280.550	138.567	308.398	295.056	138.655	146.313	300.406	267.899	145.754	152.517	152.815	160.384	335.139	159.346	-8191	255	
1496.381	1	1	0	0	0.16908	0.14574	0.14228	0.10348	0.16337	0.094759	0.21632	0.1233	0.079507	0.18498	0.18304	0.020912	0.24968	0.12149	0.2241	0.19483	-2.4458	-3.6292	-2.9562	-3.1646	-3.5438	-2.7521	-3.7229	-3.2542	-2.9083	-3.6562	-2.8521	-3.1083	-3.4479	-2.7292	-3.3854	-3.3688	326.032	436.180	385.046	177.473	173.490	240.075	404.756	475.772	405.841	400.919	362.437	397.561	141.127	329.903	419.530	299.177	0.00022533	0.00022888	8.9736e-05	1068.6	3.5653e-06	2.4703e-06	1176.8	212.03	2.6067e-06	3.3958e-06	270.74	77.203	60.464	17.875	2.1646e-06	24.955	0.00028611	0.00027226	7.7498e-05	1050.1	3.1088e-06	3.0918e-06	1153.2	209.22	3.1159e-06	3.0499e-06	267.63	77.239	60.177	18.041	3.0212e-06	25.387	228.344	192.106	231.504	138.423	257.711	282.681	138.362	146.310	306.792	280.242	145.494	152.489	153.123	160.078	305.417	159.209	-8191	255	
1496.477	1	1	0	0	0.28421	0.13837	0.066305	0.21705	0.23533	0.23271	0.0488	0.20563	0.090606	0.08424	0.18803	0.14061	0.22475	0.15255	0.24414	0.21035	-2.3167	-3.5021	-2.8312	-2.95	-3.5687	-2.6896	-3.4354	-3.5396	-2.9313	-3.3375	-3.2271	-2.9625	-3.6542	-2.8458	-3.2562	-3.4083	385.701	271.652	285.129	369.982	334.833	467.855	424.784	166.694	250.400	324.059	229.813	328.291	476.048	133.082	406.468	385.761	0.00025078	0.0003178	4.206e-05	1072.9	3.0056e-06	1.8501e-06	1173.8	211.48	3.2438e-06	3.7433e-06	271.4	77.702	60.322	17.907	6.0477e-06	25.023	0.00027796	0.00026768	7.6532e-05	1050.4	3.0381e-06	3.0187e-06	1153.1	209.41	3.1269e-06	3.0994e-06	268.01	77.355	60.155	18.122	3.0893e-06	25.44	229.536	233.601	341.774	138.211	242.829	363.792	138.507	146.389	347.121	298.994	145.869	152.501	153.230	160.332	263.454	159.474	-8191	255	
1496.573	1	1	0	0	0.30208	0.23333	0.22158	0.19292	0.1772	0.17921	0.2305	0.19788	0.036903	0.017537	0.14706	0.26107	0.083833	0.21552	0.12893	0.079107	-2.3708	-3.5708	-3.0958	-3.0812	-3.4229	-2.9896	-3.3312	-3.4313	-2.8792	-3.5812	-3.2313	-2.8563	-3.7833	-3.0021	-3.025	-3.5125	150.166	403.047	400.247	444.843	144.927	453.095	399.156	441.223	487.443	343.698	411.858	441.832	463.495	204.471	229.786	476.363	0.00025151	0.00015771	9.0276e-05	1069.5	2.0837e-06	2.9659e-06	1177.7	211.83	3.4198e-06	4.0184e-06	270.75	77.546	60.148	17.904	3.4689e-07	25.289	0.00028204	0.00028072	7.8666e-05	1051.1	3.0408e-06	3.0184e-06	1153.3	209.6	2.9881e-06	3.1019e-06	268.12	77.284	60.129	18.016	2.9279e-06	25.412	224.478	256.892	190.883	138.230	261.975	254.683	138.354	146.453	289.746	233.022	145.772	152.706	152.734	159.687	398.190	159.507	-8191	255	
1496.669	1	1	0	0	0.19217	0.01701	0.17289	0.073961	0.094596	0.15576	0.2929	0.151	0.33331	0.067745	0.36116	0.072395	0.20787	0.30236	0.13676	0.22009	-2.525	-3.2562	-3.3792	-3.1625	-3.4896	-2.9833	-3.1437	-3.5479	-2.7417	-3.4917	-3.3146	-2.9229	-3.5729	-3.1125	-2.9708	-3.6229	278.484	196.522	470.191	409.885	338.983	431.255	380.739	392.714	408.104	469.729	449.823	401.348	438.087	480.009	332.222	407.695	0.0002177	0.00015896	0.00015358	1076.9	3.4954e-06	5.1427e-06	1180.1	211.29	3.5473e-06	4.548e-06	271.3	77.152	60.792	17.729	3.4759e-06	25.099	0.00027008	0.00026811	7.4571e-05	1052.1	2.9859e-06	2.935e-06	1154	209.46	2.9515e-06	2.9135e-06	267.76	77.058	60.243	18.023	2.8479e-06	25.298	228.984	389.054	212.619	138.343	300.344	268.113	138.102	146.183	269.333	278.603	145.802	152.754	152.962	160.240	290.456	159.532	-8191	255	
1496.765	1	1	0	0	0.22607	0.36859	0.056464	0.17845	0.18339	0.048452	0.25825	0.12914	0.28368	0.11255	0.24322	0.26963	0.25773	0.19294	0.068683	0.057023	-2.6292	-3.2792	-3.3729	-2.8438	-3.5083	-3.1583	-3.1833	-3.7333	-2.8688	-3.1688	-3.4208	-2.8229	-3.5646	-3.2333	-2.85	-3.6333	192.381	481.638	458.324	418.937	364.246	267.176	430.461	388.369	480.233	135.595	402.001	190.883	478.937	304.163	408.623	250.358	0.0002504	0.00072886	9.393e-05	1069.4	2.7412e-06	1.3628e-06	1179.3	213.02	8.7479e-07	1.7931e-06	271.13	77.647	60.391	17.835	2.2483e-06	25.231	0.0002633	0.00025854	7.2628e-05	1050.5	2.8887e-06	2.827e-06	1154.7	209.92	2.9362e-06	2.9122e-06	267.66	77.228	60.321	18.076	2.8327e-06	25.417	226.513	238.316	230.868	138.330	209.171	264.217	138.541	146.233	315.790	273.910	145.856	152.451	152.734	159.951	275.492	159.466	-8191	255	
1496.886	1	1	0	0	0.20013	0.024165	0.056432	0.18531	0.05377	0.26691	0.15236	0.0044791	0.13233	0.14204	0.13572	0.28548	0.22548	0.26516	0.086142	0.33176	-2.6896	-3.1375	-3.5812	-3.1063	-3.4813	-3.3271	-2.9875	-3.6333	-3.0958	-3.0917	-3.6604	-2.6625	-3.3521	-3.3688	-2.7646	-3.6208	467.814	249.896	223.470	425.362	309.542	309.131	443.084	223.887	150.009	132.115	131.352	157.739	343.182	166.599	479.861	480.689	0.00025022	9.26e-05	4.0821e-05	1075.9	2.7391e-06	1.348e-06	1178.4	212.49	1.793e-06	1.7212e-06	270.48	77.142	60.717	17.783	3.2923e-06	25.207	0.00025254	0.00025198	7.0124e-05	1052.8	2.8146e-06	2.7275e-06	1154.5	209.89	2.7476e-06	2.7163e-06	268.01	76.965	60.213	18.004	2.8609e-06	25.374	229.305	253.843	484.667	138.340	262.738	248.613	138.418	145.948	293.237	237.466	145.684	152.612	152.969	160.200	271.243	159.639	-8191	255	
1496.982	1	1	0	0	0.058949	0.082664	0.22412	0.20335	0.1237	0.2101	0.24231	0.1601	0.057969	0.22714	0.12932	0.20691	0.18081	0.032822	0.060478	0.12303	-2.5438	-3.0625	-3.5104	-2.9583	-3.4958	-3.3063	-2.8979	-3.6083	-3.0417	-2.7583	-3.4146	-2.8688	-3.375	-3.4354	-2.7771	-3.6125	202.547	371.999	137.031	416.168	454.115	421.601	385.460	297.228	278.549	146.280	388.562	318.684	413.370	409.148	481.680	147.323	0.00024555	0.00062153	5.2796e-05	1077.8	4.649e-06	4.3582e-06	1178.5	211.01	3.9496e-06	1.2763e-06	270.04	77.16	60.252	17.894	2.5213e-06	25.074	0.00026253	0.00026075	7.2003e-05	1053.3	2.9013e-06	2.8125e-06	1155	209.01	2.8681e-06	2.9189e-06	267.66	77.117	60.12	18.073	2.8764e-06	25.34	224.509	206.333	251.556	138.380	287.699	260.994	138.283	146.300	284.597	278.365	145.662	152.612	153.068	160.125	294.292	159.321	-8191	255	
1497.077	1	1	0	0	0.16709	0.22953	0.086298	0.15215	0.022404	0.24167	0.095809	0.19072	0.20508	0.028259	0.071052	0.23979	0.17221	0.16253	0.24867	0.21833	-2.7917	-2.8979	-3.6583	-2.8812	-3.1437	-3.5833	-2.8708	-3.6354	-3.2562	-3.075	-3.525	-3.0021	-3.3354	-3.6063	-2.8208	-3.5208	170.054	435.682	332.606	467.363	434.972	388.844	438.414	352.268	403.632	272.138	195.631	366.567	287.985	475.850	372.726	227.871	0.00025573	0.00034424	3.4786e-05	1077.1	3.2012e-06	2.9108e-06	1176.1	212.35	3.4961e-06	4.7554e-06	270.8	77.42	60.294	17.924	1.7989e-06	25.14	0.00026313	0.00026578	7.2559e-05	1052	2.9442e-06	2.8035e-06	1153.3	209.61	2.9169e-06	2.887e-06	267.75	77.115	60.231	18.119	3.0414e-06	25.392	224.251	228.234	291.700	138.379	248.957	238.054	138.418	146.284	302.751	305.626	145.840	152.452	152.844	160.429	318.084	159.183	-8191	255	
1497.175	1	1	0	0	0.14358	0.21778	0.1177	0.042666	0.086663	0.10579	0.092531	0.1523	0.18124	0.10766	0.079809	0.15908	0.24799	0.085989	0.35207	0.043828	-2.9333	-2.9479	-3.5687	-3.0062	-3.1292	-3.6333	-2.8271	-3.5229	-3.2083	-2.9271	-3.6312	-3.2104	-3.05	-3.5104	-2.8292	-3.4188	130.915	183.873	360.340	417.440	208.310	260.761	147.952	191.214	183.370	229.197	442.000	363.281	388.208	179.117	435.252	151.794	0.00024146	0.00035875	0.00017388	1074.1	4.4279e-06	1.6328e-06	1179.9	211.3	1.4772e-06	4.0006e-06	270.4	77.591	60.492	17.745	4.9416e-06	25.276	0.00027082	0.00027627	7.544e-05	1050.7	2.9904e-06	2.9608e-06	1155.7	209.3	2.9122e-06	3.004e-06	268.03	77.311	60.247	18.037	2.922e-06	25.423	229.912	226.060	219.897	138.187	295.491	191.809	138.378	146.162	317.632	287.054	145.821	152.215	152.945	159.973	322.847	159.556	-8191	255	
1497.269	1	1	0	0	0.14684	0.084452	0.26233	0.33217	0.12349	0.054672	0.10773	0.28324	0.12952	0.27049	0.044533	0.1716	0.2089	0.24045	0.095166	0.13625	-3.0771	-2.7938	-3.5563	-3.075	-3.0833	-3.7542	-3.1271	-3.1583	-3.3792	-2.9688	-3.5438	-3.3479	-2.9708	-3.6813	-2.9313	-3.1667	297.154	333.880	304.541	430.079	350.334	463.184	475.495	421.092	140.223	290.958	474.694	159.521	420.310	326.164	161.757	346.075	0.00026691	0.00020245	6.2696e-05	1075.7	3.9384e-06	1.4066e-06	1179.1	211.52	1.0398e-06	2.4319e-06	271.14	77.93	59.9	17.916	2.9501e-06	25.222	0.00026724	0.00027215	7.4238e-05	1052.7	3.0325e-06	2.9135e-06	1154.9	209.43	2.9758e-06	3.0994e-06	267.75	77.448	60.03	18.11	2.9867e-06	25.436	229.596	189.927	207.212	138.462	257.070	375.136	138.185	146.396	292.057	280.174	145.407	152.216	153.056	160.109	335.450	159.759	-8191	255	
1497.365	1	1	0	0	0.047042	0.12921	0.25296	0.40112	0.099878	0.050032	0.13688	0.045462	0.15256	0.13127	0.13497	0.16005	0.11382	0.26604	0.093833	0.087692	-3.3083	-2.7812	-3.5083	-3.3312	-2.8521	-3.6458	-3.1312	-3.3125	-3.7083	-2.825	-3.6	-3.3896	-3.0271	-3.5417	-3	-3.1479	223.805	175.898	161.100	428.059	173.662	428.378	455.728	200.530	264.456	410.544	453.419	456.249	351.243	396.301	480.545	270.790	0.00025344	0.00015518	6.8779e-05	1070.7	4.1966e-06	4.3492e-06	1176.5	212.3	3.6048e-06	2.4548e-06	271.6	77.052	59.934	17.898	1.0674e-06	25.12	0.00027483	0.00027177	7.6045e-05	1051.9	3.0943e-06	2.9666e-06	1155	209.86	3.0492e-06	2.9796e-06	268.18	77.295	60.13	18.119	2.8908e-06	25.4	222.887	179.045	270.271	138.418	278.697	344.087	138.367	146.247	260.144	198.915	145.703	152.539	153.037	160.137	309.476	159.373	-8191	255	
1497.486	1	1	0	0	0.040562	0.28445	0.083549	0.18385	0.11106	0.14323	0.11377	0.23749	0.12182	0.18913	0.14561	0.059125	0.0264	0.088526	0.24897	0.088383	-3.35	-2.5833	-3.3583	-3.5708	-2.6479	-3.5375	-3.1396	-3.0375	-3.6	-2.6979	-3.2812	-3.4521	-2.8604	-3.6437	-3.0812	-2.9521	382.797	335.027	228.361	410.950	398.267	343.178	174.784	365.229	263.162	223.792	185.327	279.446	284.271	219.892	133.894	485.462	0.00024804	0.00020484	9.5257e-05	1075.6	2.7048e-06	3.2952e-06	1178.1	211.45	2.1566e-06	2.0744e-06	271.7	77.67	60.469	17.91	1.6159e-06	25.246	0.000265	0.00026916	7.6563e-05	1053.7	3.0032e-06	2.9681e-06	1156.9	209.6	2.9785e-06	2.9809e-06	268.2	77.24	60.306	18.078	2.9449e-06	25.425	233.730	190.661	203.815	138.433	293.432	307.715	138.520	146.080	262.101	383.549	145.881	152.506	152.867	160.382	270.704	159.322	-8191	255	
1497.582	1	1	0	0	0.072055	0.12966	0.16508	0.086931	0.028664	0.057341	0.1204	0.076496	0.2703	0.034331	0.14194	0.087227	0.23157	0.27153	0.16522	0.35282	-3.0687	-2.9083	-3.225	-3.6396	-2.7104	-3.4938	-3.2604	-3.0854	-3.6604	-2.8979	-3.2646	-3.4208	-2.6708	-3.3896	-3.1792	-3.0458	351.603	283.276	450.099	362.958	324.687	366.644	146.088	444.414	292.558	248.652	136.321	197.978	212.099	398.332	345.329	143.259	0.00026055	0.00029489	2.3289e-05	1078.3	3.4521e-06	4.7373e-06	1181.7	211.87	1.7748e-06	9.786e-07	271.9	77.088	60.286	17.821	5.2839e-06	25.235	0.00027409	0.00026991	7.7256e-05	1056.9	3.0749e-06	3.0008e-06	1156.8	209.9	2.9741e-06	2.9808e-06	268.03	77.023	60.232	18.064	3.0272e-06	25.423	224.888	218.053	274.375	138.303	302.417	254.711	138.340	145.816	294.605	160.322	145.674	152.436	152.818	159.909	317.473	159.385	-8191	255	
1497.678	1	1	0	0	0.078812	0.12511	0.028614	0.27697	0.33781	0.12948	0.34005	0.15954	0.14571	0.063127	0.0728	0.25594	0.042576	0.050649	0.13679	0.079735	-3.3042	-2.8854	-3.1604	-3.6333	-2.6979	-3.3792	-3.5625	-2.8187	-3.6688	-3.1917	-3.1479	-3.5792	-2.7313	-3.2875	-3.3333	-3.0563	401.789	263.394	323.638	462.672	449.641	196.780	439.660	391.548	322.423	286.762	132.153	181.266	309.397	188.291	380.189	244.782	0.00025566	0.0004679	6.8265e-05	1074.4	3.966e-06	2.6013e-06	1181.9	212.01	2.8823e-06	3.5642e-06	272.94	77.304	60.687	17.994	8.3092e-07	25.148	0.00027377	0.00026844	7.6556e-05	1054.3	3.0014e-06	2.9904e-06	1156.9	209.82	2.9636e-06	2.9774e-06	269.04	77.308	60.441	18.146	3.011e-06	25.381	227.956	246.465	229.048	138.487	253.419	296.456	138.548	146.131	265.239	288.577	145.425	152.620	152.653	160.181	297.438	159.662	-8191	255	
1497.774	1	1	0	0	0.017189	0.12681	0.16351	0.093358	0.15782	0.16726	0.068978	0.065771	0.2497	0.0074946	0.20339	0.21174	0.15192	0.212	0.062744	0.19647	-3.175	-3.175	-2.9188	-3.7354	-2.9	-3.4646	-3.5187	-2.8896	-3.4458	-3.2125	-2.8917	-3.475	-2.8646	-3.175	-3.3271	-2.875	246.547	240.833	370.960	403.880	395.451	223.093	387.277	484.224	145.083	350.824	429.464	471.249	397.892	478.164	471.065	463.220	0.0002595	0.00044353	8.4902e-05	1079.8	5.4035e-06	1.3735e-06	1181.6	212.24	2.3783e-06	2.2416e-06	271.43	77.602	60.393	17.878	4.777e-06	24.969	0.00027212	0.00027039	7.9019e-05	1056.2	3.082e-06	3.0004e-06	1158.8	209.74	3.0287e-06	3.0938e-06	268.37	77.454	60.237	18.079	2.9456e-06	25.337	230.413	218.706	159.519	138.352	239.746	244.344	138.620	146.028	295.623	290.436	145.645	152.394	153.069	160.156	304.070	159.518	-8191	255	
1497.870	1	1	0	0	0.087935	0.36007	0.15502	0.22731	0.24499	0.18144	0.32574	0.11794	0.24554	0.11744	0.34074	0.12685	0.057914	0.11128	0.046898	0.087956	-3.2938	-3.1917	-2.7042	-3.5896	-2.9354	-3.0583	-3.6667	-2.8937	-3.3646	-3.1792	-2.8563	-3.65	-2.9771	-3.1875	-3.3333	-2.9646	257.012	452.855	375.800	440.885	135.352	136.404	408.538	371.223	194.681	266.814	460.001	476.383	179.267	266.947	243.233	424.562	0.00027155	0.00025148	5.29e-05	1079.8	2.565e-06	4.9809e-06	1183.3	211.98	2.3541e-06	1.4397e-06	272.65	77.822	60.319	17.915	4.7304e-06	25.056	0.00027209	0.00027442	7.6933e-05	1057.3	3.0283e-06	3.0049e-06	1160.8	209.78	3.0355e-06	3.0736e-06	268.96	77.435	60.338	18.104	2.9641e-06	25.391	227.375	259.023	217.868	138.336	288.934	245.809	138.513	146.188	267.999	344.493	145.553	152.870	152.769	160.127	283.391	159.348	-8191	255	
1497.966	1	1	0	0	0.13273	0.34933	0.071641	0.13218	0.31041	0.12651	0.31327	0.17177	0.10025	0.083384	0.20979	0.16097	0.12061	0.07059	0.2253	0.21317	-3.2854	-3.125	-2.7646	-3.6229	-3.0062	-3.0396	-3.5229	-2.95	-3.3667	-3.3833	-2.9542	-3.5896	-2.9833	-3.0583	-3.4188	-2.9479	333.779	131.312	202.836	129.376	368.097	136.427	429.895	423.695	138.071	345.920	418.628	319.009	437.744	366.616	137.156	336.684	0.00025003	0.00062783	7.0863e-05	1079.6	4.034e-07	4.6056e-06	1182.4	212.47	2.242e-06	6.2468e-07	271.23	77.798	60.662	17.826	2.8173e-06	25.162	0.00026822	0.00027393	7.5555e-05	1056.8	3.0327e-06	2.9692e-06	1160	210.49	3.0375e-06	2.8777e-06	268.14	77.417	60.43	18.127	2.932e-06	25.393	223.903	263.045	195.066	138.373	188.144	308.704	138.311	146.262	297.480	192.600	145.390	152.481	153.217	160.211	311.819	159.182	-8191	255	
1498.063	1	1	0	0	0.22824	0.14747	0.035409	0.13167	0.1625	0.03776	0.16327	0.33642	0.1078	0.13375	0.05323	0.11317	0.15179	0.25003	0.016348	0.016291	-2.9042	-3.3625	-2.9021	-3.5958	-3.1208	-3.2375	-3.7812	-3	-3.2292	-3.5812	-2.7646	-3.5479	-3.2521	-2.9708	-3.6813	-2.9479	262.639	385.002	407.483	468.759	449.251	298.068	131.133	414.809	143.837	191.442	181.233	351.207	159.591	464.437	175.603	469.602	0.0002476	7.5291e-05	0.00012612	1082.7	1.1031e-06	2.1751e-06	1180.3	212.45	1.3335e-06	7.1266e-07	272.79	77.252	60.198	17.989	1.4127e-06	24.905	0.00026609	0.00026251	7.3785e-05	1058.9	2.9397e-06	2.8891e-06	1159.7	209.96	2.8654e-06	2.7885e-06	268.41	77.124	60.223	18.098	2.8643e-06	25.35	225.311	326.415	252.674	138.387	258.016	303.285	138.512	146.221	234.653	252.705	145.643	152.401	152.857	159.865	263.279	159.377	-8191	255	
1498.181	1	1	0	0	0.28924	0.11354	0.12683	0.12358	0.21882	0.11918	0.11231	0.049658	0.14189	0.18026	0.20194	0.20099	0.10193	0.21261	0.17432	0.397	-2.7562	-3.4479	-2.6896	-3.4208	-3.2417	-2.8146	-3.9417	-2.9083	-2.9979	-3.6458	-2.8479	-3.2708	-3.3146	-2.825	-3.5687	-2.8521	329.191	220.923	164.849	357.422	350.069	245.315	381.792	193.731	167.531	133.662	407.306	306.178	476.011	205.348	151.637	141.759	0.0002685	0.00040618	9.8843e-05	1079	2.4575e-06	5.6126e-06	1181.9	212.47	1.8766e-06	2.3484e-06	270.46	77.833	60.571	17.989	2.8804e-06	25.061	0.00025851	0.00025908	7.1849e-05	1057.8	2.8832e-06	2.8954e-06	1158.1	209.96	2.9018e-06	2.8053e-06	268.02	77.169	60.329	18.065	2.8602e-06	25.341	236.967	229.932	237.290	138.277	304.483	284.761	138.273	146.030	344.569	329.988	145.923	152.769	153.208	160.122	274.101	159.489	-8191	255	
1498.278	1	1	0	0	0.21846	0.14026	0.2247	0.089021	0.094898	0.13452	0.26147	0.14495	0.16403	0.067124	0.18337	0.36134	0.13554	0.021608	0.17683	0.16951	-2.475	-3.5583	-2.7229	-3.5208	-3.3396	-2.9229	-3.8042	-3.0042	-3.1188	-3.5917	-2.9313	-3.1146	-3.45	-2.6979	-3.7729	-3.2188	298.629	477.045	277.666	158.861	333.621	202.063	346.203	406.981	419.164	302.846	263.530	390.537	483.605	228.528	145.944	128.543	0.00025346	0.00021129	6.8764e-05	1080.3	3.0518e-06	2.816e-06	1177.4	211.75	2.0413e-06	2.835e-06	270.79	77.487	60.287	17.86	2.6399e-06	25.228	0.00027469	0.00027192	7.6223e-05	1055.3	3.1778e-06	3.1921e-06	1157.7	210.08	3.3713e-06	3.4064e-06	268.1	77.466	60.485	18.156	3.5715e-06	25.557	228.823	272.775	271.118	138.143	267.750	353.338	138.366	146.374	368.457	224.796	145.866	152.560	153.124	159.636	295.901	159.226	-8191	255	
1498.349	1	1	0	0	0.16413	0.060093	0.070804	0.22779	0.17298	0.21791	0.23639	0.25612	0.27024	0.1258	0.15579	0.32103	0.27249	0.15504	0.13288	0.13119	-2.5229	-3.4646	-2.6146	-3.2458	-3.5333	-2.8312	-3.5708	-3.1667	-2.8417	-3.6958	-2.9792	-3.1104	-3.5021	-2.7542	-3.3875	-3.2938	460.259	171.540	433.329	451.839	131.052	441.218	401.058	324.506	255.408	361.406	155.833	243.128	427.398	311.573	391.894	156.480	0.00025729	4.8663e-05	8.5995e-05	1075	3.3675e-06	5.4519e-06	1184.6	212.37	4.608e-06	2.8537e-06	272.03	76.906	60.333	17.73	2.161e-06	25.217	0.0003324	0.00032831	9.3585e-05	1057.9	3.7321e-06	3.6916e-06	1163.4	210.2	3.7226e-06	3.7467e-06	269.81	77.686	60.815	18.188	3.6491e-06	25.597	223.924	467.791	230.862	138.117	264.404	199.066	138.437	146.334	275.972	240.403	145.605	152.770	152.884	160.055	385.131	159.509	-8191	255	
1498.447	1	1	0	0	0.063699	0.20398	0.047773	0.25958	0.15794	0.069016	0.27285	0.23919	0.17106	0.21659	0.29707	0.18047	0.097316	0.078233	0.21872	0.1448	-2.8125	-3.5292	-2.9271	-3.2125	-3.3896	-2.8646	-3.55	-3.4062	-2.7396	-3.6292	-3.1604	-2.9583	-3.4458	-2.7479	-3.3688	-3.6167	342.489	332.272	482.332	439.418	405.425	147.468	134.481	392.635	402.082	316.980	214.465	221.966	153.620	201.591	144.343	462.413	0.00024174	0.00041557	9.804e-05	1084.5	6.1315e-06	3.2364e-06	1192.5	213.05	2.4157e-06	4.861e-06	270.38	77.834	60.375	17.982	4.6057e-06	25.16	0.00032554	0.00032847	9.3942e-05	1063.6	3.579e-06	3.5296e-06	1167.1	210.79	3.5021e-06	3.4254e-06	268.88	77.882	60.59	18.234	3.3886e-06	25.536	220.667	210.716	183.312	138.119	294.048	344.360	138.349	146.391	293.540	278.746	145.670	152.524	153.439	160.029	291.005	159.387	-8191	255	
1498.566	1	1	0	0	0.15829	0.1787	0.046949	0.1254	0.20414	0.21925	0.070254	0.11628	0.17069	0.086114	0.25231	0.17173	0.088854	0.23258	0.14243	0.083045	-2.325	-3.5229	-2.95	-3.1729	-3.5	-2.7062	-3.3604	-3.45	-2.9062	-3.525	-3.1625	-2.9354	-3.5396	-2.8937	-3.2021	-3.4875	233.963	228.553	330.234	393.841	480.334	280.319	162.764	355.095	283.170	150.276	438.954	354.079	366.762	484.303	412.852	265.437	0.00027691	0.0004825	9.1342e-05	1089.7	1.2129e-06	5.5819e-06	1188.6	213.77	3.1815e-06	3.467e-06	272.32	77.204	60.774	17.991	1.5025e-06	25.32	0.00030038	0.00030198	8.3916e-05	1063.4	3.3162e-06	3.2379e-06	1166.2	211.26	3.2428e-06	3.2279e-06	269.54	77.591	60.47	18.238	3.2974e-06	25.507	218.505	196.246	204.964	138.270	485.901	254.956	138.452	146.396	280.762	347.127	145.712	152.628	152.743	160.300	236.746	159.328	-8191	255	
1498.662	1	1	0	0	0.081137	0.076019	0.2063	0.14427	0.24431	0.22894	0.3574	0.15371	0.19322	0.017013	0.090378	0.078799	0.071747	0.075647	0.18	0.089592	-2.5792	-3.4396	-3.1437	-2.85	-3.5521	-2.9375	-3.2604	-3.6292	-2.6833	-3.4979	-3.3208	-2.7896	-3.4813	-3.0042	-2.975	-3.5896	181.895	175.932	227.670	134.260	307.814	299.066	392.385	411.690	275.949	193.813	317.140	188.811	318.785	478.713	395.193	399.620	0.00020897	0.00025277	5.4828e-05	1083.1	4.0436e-06	3.0187e-06	1190.6	213.85	2.9324e-06	3.2515e-06	270.12	77.746	60.406	17.91	2.8842e-06	25.122	0.00029433	0.00030536	8.3926e-05	1062.1	3.3711e-06	3.3214e-06	1166.3	210.91	3.2589e-06	3.2792e-06	269.21	77.727	60.473	18.165	3.2465e-06	25.527	240.768	300.924	251.287	138.672	258.084	308.594	138.539	146.504	295.591	283.189	146.298	152.777	152.804	160.533	306.960	159.375	-8191	255	
1498.758	1	1	0	0	0.044892	0.27326	0.34868	0.18774	0.18408	0.24435	0.24092	0.16279	0.069794	0.12248	0.21162	0.17177	0.14246	0.14572	0.24305	0.24366	-2.6188	-3.2208	-3.2042	-2.8875	-3.6083	-3.0062	-2.9958	-3.5062	-2.7646	-3.2271	-3.2438	-2.7958	-3.4146	-3.0771	-2.9188	-3.6542	303.989	416.947	339.474	131.326	449.733	297.414	468.549	206.264	354.664	437.854	458.421	382.783	138.227	309.978	239.262	459.203	0.00024793	0.00047961	0.000138	1084.7	1.4499e-06	1.1152e-06	1193.3	213.31	2.7907e-06	1.7188e-06	273.74	77.831	60.651	17.998	4.2985e-06	25.129	0.00029147	0.00029048	8.1246e-05	1061.7	3.1494e-06	3.1475e-06	1165.9	211.02	3.1686e-06	3.1e-06	270.06	77.737	60.539	18.118	3.1801e-06	25.535	228.072	179.662	160.552	138.632	187.129	370.302	138.765	146.686	284.441	286.471	146.010	152.719	153.159	160.477	290.095	159.562	-8191	255	
1498.855	1	1	0	0	0.23546	0.20328	0.11746	0.17872	0.087937	0.24584	0.16863	0.06094	0.10925	0.29887	0.090788	0.12303	0.20427	0.16436	0.27606	0.12094	-2.3979	-3.2229	-3.4354	-2.8125	-3.5479	-3.2062	-3.0729	-3.6667	-2.7667	-3.1167	-3.3167	-2.7646	-3.4375	-3.2	-3.0979	-3.5396	302.676	192.554	326.608	452.818	316.392	217.706	131.239	418.342	476.014	208.992	467.461	399.620	140.109	162.388	282.725	361.425	0.00026097	0.00025226	5.864e-05	1082.3	6.3915e-06	5.0521e-06	1178	213.71	2.7076e-06	1.4158e-06	271.84	78.03	60.526	17.892	1.264e-06	25.153	0.00028978	0.00029075	8.119e-05	1058.2	3.2176e-06	3.2884e-06	1159.7	211.18	3.3624e-06	3.3174e-06	269.82	77.83	60.531	18.186	3.5481e-06	25.576	222.432	216.022	276.573	138.305	291.533	287.253	138.607	146.309	289.035	313.411	145.968	152.486	153.022	160.333	197.829	160.074	-8191	255	
1498.973	1	1	0	0	0.17169	0.25044	0.20303	0.12017	0.21586	0.067262	0.36741	0.1252	0.2003	0.18304	0.02923	0.13869	0.16038	0.24252	0.082217	0.35078	-2.5479	-3.125	-3.5479	-2.8396	-3.5833	-3.3208	-2.8563	-3.6937	-2.9875	-3.1771	-3.575	-2.8042	-3.3104	-3.2917	-2.9417	-3.5687	175.886	175.204	246.842	444.938	298.451	201.380	451.662	374.734	346.521	214.983	156.749	442.278	146.231	153.914	338.348	488.172	0.00022039	0.00013621	6.162e-05	1081.6	3.0208e-06	2.7042e-06	1189.3	213.02	2.015e-06	3.7544e-06	271.48	78.037	60.884	18.071	3.9671e-06	25.066	0.00031674	0.00032922	9.1306e-05	1062.2	3.7115e-06	3.6843e-06	1164.4	211.24	3.7418e-06	3.8392e-06	269.68	77.841	60.804	18.283	3.8088e-06	25.603	221.322	332.610	350.073	138.583	239.652	363.014	138.655	146.211	238.959	285.411	146.175	152.402	153.076	160.297	263.482	159.658	-8191	255	
1499.047	1	1	0	0	0.27825	0.092295	0.10591	0.21513	0.12128	0.229	0.43284	0.018142	0.31256	0.27855	0.12409	0.070729	0.036831	0.18964	0.02989	0.19483	-2.7854	-2.8875	-3.5167	-3.1833	-3.3375	-3.6104	-2.8146	-3.5771	-3.0542	-2.9146	-3.7375	-2.7417	-3.2208	-3.4062	-2.7417	-3.6208	455.698	265.251	189.036	268.016	444.112	321.711	427.558	218.901	219.793	135.199	313.814	308.049	269.328	255.647	342.253	400.617	0.00023509	0.00028034	7.3889e-05	1085.5	4.2997e-06	2.591e-06	1192.1	213.44	3.108e-06	2.3753e-06	271.1	77.196	61.01	17.97	1.8162e-06	25.296	0.00033331	0.00033269	9.2782e-05	1063.9	3.5523e-06	3.4201e-06	1167.7	210.89	3.2292e-06	3.1482e-06	269.4	77.471	60.699	18.1	2.9885e-06	25.492	225.317	193.335	214.100	138.453	282.858	269.011	138.669	146.640	268.111	248.663	145.950	152.203	153.042	160.735	260.160	159.462	-8191	255	
1499.167	1	1	0	0	0.066775	0.11252	0.26467	0.16503	0.34064	0.15752	0.25751	0.075517	0.29363	0.27155	0.13515	0.09393	0.30931	0.13239	0.096056	0.06324	-2.6792	-2.8812	-3.5812	-3.0187	-3.0354	-3.5062	-2.7208	-3.6583	-3.3292	-2.8146	-3.5125	-3.0438	-3.1083	-3.4771	-2.8021	-3.4542	368.453	253.193	293.312	452.643	340.559	240.365	381.765	421.544	344.259	288.510	171.611	423.468	329.383	471.539	319.473	395.223	0.00025222	0.00036543	0.00016577	1082.7	1.0876e-06	2.8432e-06	1189.9	213.25	2.8455e-06	1.5104e-06	271.6	77.863	60.963	18.062	2.9293e-06	25.223	0.00026694	0.00026656	7.6023e-05	1060.6	3.0135e-06	2.9619e-06	1164.4	210.69	3.005e-06	2.988e-06	268.85	77.611	60.514	18.194	2.9428e-06	25.482	225.994	258.669	251.725	138.621	406.775	269.991	138.551	146.686	276.298	327.880	145.846	152.550	152.821	160.799	281.834	159.881	-8191	255	
1499.264	1	1	0	0	0.20732	0.099819	0.20062	0.29505	0.20108	0.24804	0.25978	0.088776	0.24743	0.16738	0.098944	0.19793	0.16057	0.13251	0.17837	0.25301	-2.9958	-2.8625	-3.4792	-3.0625	-2.9042	-3.6604	-3.0875	-3.4458	-3.2167	-2.8125	-3.7125	-3.175	-2.9146	-3.5521	-2.8333	-3.3292	404.014	424.455	281.362	158.517	455.334	351.605	405.961	410.760	403.954	128.683	154.874	470.880	340.473	133.338	199.494	354.086	0.00025942	0.00038952	9.3784e-05	1084.8	2.5726e-06	1.7771e-06	1185.9	211.76	1.851e-06	2.0881e-06	270.62	77.401	60.737	17.901	1.2427e-06	25.254	0.00026427	0.00026364	7.0547e-05	1060.2	2.8312e-06	2.6812e-06	1163.2	210	2.7025e-06	2.7606e-06	268.07	77.262	60.379	18.118	2.848e-06	25.479	228.548	294.266	228.164	138.458	267.101	324.736	138.430	146.316	320.009	248.629	145.863	153.256	153.046	160.304	400.417	160.082	-8191	255	
1499.358	1	1	0	0	0.1724	0.17746	0.072726	0.21668	0.19235	0.23818	0.057438	0.23695	0.31886	0.18945	0.21662	0.17768	0.1663	0.11895	0.10742	0.11479	-3.2292	-2.5729	-3.3708	-3.4104	-3.0854	-3.6396	-2.9667	-3.2458	-3.5396	-2.8104	-3.4646	-3.2604	-2.925	-3.6792	-2.8354	-3.2875	411.019	338.132	342.662	318.579	395.998	235.909	458.699	142.834	415.773	478.465	427.535	422.187	478.880	154.228	353.097	371.603	0.00022374	0.00028218	7.8448e-05	1080.5	5.0276e-06	2.1714e-06	1184.2	212.41	2.3848e-06	5.0614e-06	270.9	78.024	60.022	18.063	3.0041e-06	25.01	0.00026458	0.0002723	7.4157e-05	1058.7	3.0966e-06	3.0336e-06	1160.8	210.41	3.0609e-06	3.1024e-06	268.8	77.535	60.355	18.168	3.2401e-06	25.436	225.776	231.456	209.338	138.400	267.040	233.353	138.717	146.457	295.705	290.039	145.717	152.612	152.908	160.700	282.729	159.833	-8191	255	
1499.454	1	1	0	0	0.18271	0.21915	0.13227	0.4349	0.14779	0.30081	0.1704	0.24615	0.2328	0.16571	0.053899	0.15638	0.07624	0.23559	0.067103	0.11166	-2.8896	-2.8458	-3.3896	-3.2375	-2.6604	-3.75	-3.2917	-2.8917	-3.5042	-2.8708	-3.3438	-3.3792	-2.7917	-3.6104	-3.0396	-3.1833	188.286	152.144	153.615	451.241	458.074	449.755	372.685	415.566	409.751	437.520	147.481	477.166	151.914	250.949	476.999	223.599	0.00027173	0.0004597	0.0001021	1076	2.5195e-06	3.9975e-06	1187.4	212.82	2.0355e-06	1.3301e-06	271.91	78.059	60.393	17.756	1.4964e-06	25.361	0.00028232	0.00028285	8.0448e-05	1056.6	3.2049e-06	3.1106e-06	1162.5	210.69	3.1806e-06	3.2333e-06	269.22	77.694	60.411	18.135	3.2653e-06	25.522	228.948	225.608	263.177	138.587	296.921	268.956	138.674	146.556	353.603	263.595	145.604	152.687	152.800	160.617	145.931	159.623	-8191	255	
1499.575	1	1	0	0	0.11662	0.10552	0.1738	0.15902	0.10555	0.28129	0.3135	0.20374	0.25451	0.04411	0.26253	0.29097	0.12843	0.24688	0.076309	0.20501	-3.1833	-2.6875	-3.1958	-3.4854	-2.8854	-3.4437	-3.1292	-3.0875	-3.5396	-3.0062	-3.3333	-3.3917	-2.6896	-3.5187	-3.2583	-3.0333	313.345	242.564	421.297	384.831	448.674	175.080	414.200	409.653	140.943	252.674	169.769	406.852	142.465	360.014	261.420	401.569	0.00027623	0.00034162	0.00013402	1080.5	4.4473e-06	2.3433e-06	1184.7	211.83	1.8622e-06	3.1628e-06	270.18	77.346	60.473	17.95	2.2338e-06	25.128	0.00029636	0.00030078	8.3833e-05	1059.8	3.3459e-06	3.2341e-06	1162.3	210.41	3.2963e-06	3.2912e-06	268.48	77.725	60.477	18.128	3.3395e-06	25.498	216.827	252.176	181.867	138.379	283.142	343.114	138.431	146.371	287.604	309.306	145.950	152.926	152.949	160.454	207.298	159.285	-8191	255	
1499.646	1	1	0	0	0.22514	0.020672	0.22452	0.28545	0.11501	0.22146	0.11594	0.18751	0.22256	0.22836	0.15237	0.26153	0.13357	0.061014	0.26778	0.049102	-3.2687	-2.8937	-3.0958	-3.7458	-2.7646	-3.4083	-3.3979	-3.0208	-3.6729	-2.8854	-3.3021	-3.7771	-2.9062	-3.4479	-3.2021	-2.7687	339.597	388.079	327.543	466.631	133.985	424.234	140.546	143.997	346.838	287.460	348.653	403.565	460.447	273.968	222.297	387.979	0.00024444	0.00043173	6.3541e-05	1083.9	1.3627e-06	2.1715e-06	1187.2	213.21	3.7729e-06	4.4927e-06	271.13	77.985	60.579	17.843	2.1077e-06	25.209	0.00030172	0.00030905	8.4171e-05	1061	3.2739e-06	3.2222e-06	1162.7	210.77	3.1698e-06	3.2403e-06	268.75	77.666	60.506	18.138	3.1416e-06	25.411	223.437	184.376	439.762	138.303	344.581	223.434	138.531	146.498	283.547	300.679	146.273	153.041	153.093	160.279	295.538	159.402	-8191	255	
1499.743	1	1	0	0	0.13705	0.09439	0.023421	0.17358	0.077328	0.033814	0.13376	0.2671	0.08971	0.17726	0.34003	0.044687	0.20915	0.073222	0.1791	0.11328	-3.3042	-2.9313	-3.2	-3.5042	-2.7438	-3.4188	-3.4833	-2.8458	-3.5396	-3.0396	-3.0708	-3.6417	-2.7729	-3.4417	-3.4583	-3.1583	377.062	189.771	268.155	476.753	461.863	295.584	455.836	460.116	361.006	146.908	455.963	157.041	403.116	487.876	393.355	444.046	0.00022074	0.00030952	0.00011051	1081.6	2.757e-06	2.637e-06	1182.2	211.82	1.5576e-06	2.5728e-06	272.01	77.307	60.44	17.876	4.1689e-06	25.201	0.00029191	0.00029281	7.8823e-05	1060.9	3.1744e-06	3.066e-06	1160.6	210.5	3.0326e-06	2.9543e-06	268.5	77.445	60.482	18.102	2.9433e-06	25.38	226.248	213.002	214.890	138.590	207.818	282.514	138.623	146.500	257.338	247.437	146.016	152.707	153.140	160.036	267.914	159.349	-8191	255	
1499.839	1	1	0	0	0.18009	0.15728	0.25427	0.22975	0.2066	0.038387	0.097631	0.14507	0.087519	0.16946	0.31143	0.13662	0.064592	0.14114	0.17566	0.32278	-3.1479	-2.9667	-3.0167	-3.7708	-2.8937	-3.3021	-3.7188	-2.9188	-3.5083	-3.3104	-3.1458	-3.6437	-2.7604	-3.2292	-3.4542	-2.8208	341.879	448.172	280.850	455.994	186.279	185.461	460.797	462.148	235.135	408.273	405.775	288.966	451.207	432.967	153.084	159.811	0.0002833	8.6136e-05	0.00016366	1084.9	3.9567e-06	3.7526e-06	1182.9	213.39	3.9869e-06	1.5335e-06	271.89	77.63	60.646	17.96	1.1389e-06	25.102	0.00027438	0.00027298	7.5408e-05	1060.6	3.1283e-06	2.977e-06	1161.7	210.5	3.0441e-06	2.9124e-06	269.22	77.537	60.326	18.108	2.6951e-06	25.392	233.451	247.838	237.278	138.422	254.151	320.080	138.461	146.379	319.473	146.506	145.897	152.840	152.992	160.227	133.956	159.538	-8191	255	
1499.959	1	1	0	0	0.20034	0.085916	0.051446	0.068851	0.13501	0.13454	0.26494	0.20382	0.15451	0.077557	0.28749	0.072254	0.31994	0.045162	0.18057	0.20865	-3.0458	-3.2479	-3.0187	-3.9	-2.8812	-3.2979	-3.7167	-2.9292	-3.3083	-3.3063	-2.9375	-3.4813	-3.2188	-3.0333	-3.55	-2.85	247.247	458.685	467.128	178.550	442.480	421.649	328.889	299.656	249.728	272.459	433.866	248.737	196.012	360.168	193.687	399.616	0.00024533	0.00014423	0.00012315	1076.2	3.7402e-06	2.9744e-06	1182.3	211.69	2.3117e-06	2.9193e-06	272.44	77.364	60.582	17.792	2.5096e-06	25.143	0.00023511	0.00022771	6.2834e-05	1056.7	2.5277e-06	2.4212e-06	1158.8	209.37	2.4887e-06	2.4803e-06	267.41	77.176	60.179	18.002	2.6283e-06	25.355	223.724	162.966	253.213	138.523	278.072	275.302	138.647	146.487	295.060	236.609	146.097	152.604	152.980	160.252	266.055	159.710	-8191	255	
1500.056	1	1	0	0	0.092773	0.22167	0.1362	0.19774	0.2861	0.027163	0.27406	0.24788	0.061469	0.30495	0.15203	0.27775	0.048302	0.33161	0.082558	0.095906	-2.9479	-3.3	-2.9583	-3.6542	-2.9271	-3.0167	-3.8208	-2.8146	-3.2521	-3.3104	-2.8312	-3.675	-3.3125	-3.1	-3.5458	-3.0604	146.642	460.748	336.045	132.980	437.602	350.040	331.600	413.152	468.290	284.247	159.379	133.646	455.523	422.453	358.568	323.336	0.00024601	0.00030013	0.00010743	1082.3	3.3822e-06	3.1245e-06	1183.2	213.72	3.0285e-06	3.8334e-06	270.39	77.289	60.593	17.949	3.5034e-06	25.212	0.00024694	0.00024455	6.9637e-05	1058.7	2.8615e-06	2.8537e-06	1161.4	210.28	2.8961e-06	2.8593e-06	268.03	77.35	60.377	18.114	2.8028e-06	25.41	224.023	157.955	194.703	138.607	335.174	288.687	138.566	146.503	284.216	281.550	145.647	152.900	153.206	160.084	301.905	159.851	-8191	255	
1500.150	1	1	0	0	0.026527	0.23518	0.055604	0.0687	0.18051	0.12867	0.32813	0.10539	0.14715	0.11656	0.22185	0.12734	0.28594	0.18087	0.16146	0.2386	-2.9708	-3.3542	-2.7896	-3.5417	-3.1063	-2.8333	-3.7875	-3.0479	-3.0833	-3.6604	-2.925	-3.4562	-3.2146	-2.8375	-3.4542	-2.9229	152.105	480.925	306.301	428.157	418.749	415.516	346.948	264.639	408.421	269.331	448.056	384.546	377.175	422.019	414.958	368.391	0.00023903	0.00014555	0.0001159	1081.2	3.0468e-06	5.9445e-06	1184.3	212.88	4.5879e-06	5.5502e-06	271.85	77.342	60.622	18.013	4.0419e-06	25.189	0.00025897	0.00025319	7.0628e-05	1059.1	2.7771e-06	2.7883e-06	1161.8	210.1	2.7559e-06	2.7396e-06	269.02	77.191	60.267	18.108	2.7516e-06	25.423	226.635	209.969	205.513	138.539	277.253	286.003	138.534	146.541	269.000	308.215	145.749	152.725	152.815	160.422	190.902	159.405	-8191	255	
1500.248	1	1	0	0	0.27772	0.02272	0.17165	0.11628	0.03925	0.2782	0.18976	0.16733	0.085959	0.12047	0.18253	0.077501	0.16977	0.27115	0.037524	0.18951	-2.7604	-3.4979	-2.7625	-3.5	-3.3771	-2.775	-3.6396	-2.9208	-3.025	-3.5104	-2.8958	-3.5458	-3.4479	-2.775	-3.3958	-3.2062	171.464	382.030	367.221	324.699	324.154	395.689	421.703	471.213	167.141	293.807	411.856	486.076	470.242	146.204	182.758	468.484	0.00024453	0.0002203	4.3055e-05	1083.9	1.9705e-06	5.0087e-06	1186.9	212.95	9.8114e-07	3.784e-06	272.43	77.253	60.228	17.785	2.422e-06	25.112	0.0002553	0.00025464	7.1299e-05	1061	2.8046e-06	2.7669e-06	1163	210.09	2.7444e-06	2.6604e-06	268.33	77.301	60.206	18.08	2.6462e-06	25.36	228.621	222.584	211.078	138.572	308.029	228.178	138.434	146.078	232.484	289.433	146.001	153.021	153.144	160.448	286.806	160.094	-8191	255	
1500.342	1	1	0	0	0.21501	0.0075105	0.26419	0.095226	0.22548	0.094202	0.033191	0.076602	0.26114	0.076313	0.34405	0.14445	0.63199	0.13148	0.12766	0.17115	-2.6125	-3.6292	-2.75	-3.4875	-3.3688	-2.825	-3.7313	-3.2938	-3.0312	-3.7396	-3	-3.3063	-3.3667	-2.875	-3.4313	-3.1667	460.619	474.616	404.320	128.730	173.748	287.468	377.522	467.461	304.075	336.262	440.314	472.597	149.988	417.934	230.292	347.386	0.0002666	0.00019121	7.5142e-05	1084.4	2.1414e-06	4.5533e-06	1186.3	212.29	2.8518e-06	2.3469e-06	271.45	77.748	60.998	17.95	1.8348e-06	24.888	0.00025312	0.00023432	6.7522e-05	1060.6	2.6131e-06	2.5703e-06	1161.4	210.39	2.5782e-06	2.498e-06	268.14	77.322	60.218	18.044	2.4775e-06	25.265	228.197	221.049	160.366	138.517	241.298	220.356	138.553	146.485	276.660	219.792	146.306	152.654	152.839	160.165	309.154	159.718	-8191	255	
1500.438	1	1	0	0	0.026167	0.028522	0.18544	0.16788	0.030924	0.16416	0.13285	0.024347	0.32265	0.19747	0.089817	0.12323	0.023765	0.21771	0.018509	0.14644	-2.4104	-3.7042	-2.8521	-3.2271	-3.5396	-2.8708	-3.6688	-3.2854	-2.7042	-3.7792	-3.1	-3.0271	-3.5375	-2.9	-3.4583	-3.3292	334.987	138.589	275.652	396.333	377.102	418.841	365.935	479.275	262.185	191.113	295.505	372.286	390.164	449.780	469.354	364.550	0.00025371	8.134e-05	4.0953e-05	1080.8	5.2478e-07	3.1071e-06	1186.5	213.01	1.9482e-06	3.1482e-06	270.18	77.294	60.389	17.884	2.2009e-06	25.076	0.0002371	0.00023045	6.5681e-05	1057.4	2.6197e-06	2.5659e-06	1160.8	210.08	2.6167e-06	2.5353e-06	268	77.141	60.172	18.054	2.5576e-06	25.259	228.163	205.709	225.729	138.368	215.978	303.030	138.782	146.511	250.826	220.250	145.831	152.642	153.658	160.514	306.772	159.791	-8191	255	
1500.535	1	1	0	0	0.06161	0.24545	0.20597	0.082971	0.2315	0.15433	0.12602	0.17052	0.062085	0.33655	0.16194	0.14277	0.075585	0.2638	0.16787	0.16455	-2.55	-3.4792	-2.925	-2.9417	-3.5917	-2.8521	-3.4396	-3.4396	-2.8271	-3.5667	-3.1312	-3.0229	-3.5646	-2.7625	-3.175	-3.4625	132.709	185.848	404.975	295.177	475.888	156.889	338.559	396.018	290.492	446.437	214.052	411.140	354.545	380.072	163.754	162.032	0.00024143	7.9203e-05	5.7112e-05	1080.1	1.5797e-06	3.1435e-06	1182	212.24	1.5216e-06	4.3626e-06	272.3	77.725	60.72	17.896	4.7064e-06	25.208	0.0002377	0.00022604	6.3473e-05	1058.2	2.5588e-06	2.4954e-06	1157.9	209.74	2.549e-06	2.5029e-06	268.38	77.303	60.231	18.1	2.6149e-06	25.382	223.079	359.733	257.965	138.464	321.375	291.459	138.509	146.647	256.916	237.945	145.833	152.705	153.551	160.104	267.090	159.800	-8191	255	
1500.653	1	1	0	0	0.11089	0.11816	0.17229	0.04167	0.082063	0.039908	0.17828	0.15893	0.15783	0.1463	0.21355	0.079083	0.12898	0.11903	0.15756	0.10525	-2.5	-3.375	-3.1333	-3.1271	-3.5458	-2.8187	-3.3083	-3.6542	-3.0312	-3.5729	-3.2792	-3.0042	-3.5854	-2.8917	-3.1063	-3.4542	388.647	138.422	162.238	478.373	291.919	351.222	421.625	137.050	314.514	364.139	485.436	145.818	359.029	397.213	338.396	365.347	0.00025236	0.00015251	0.00014172	1082.4	3.7674e-06	3.0651e-06	1186.1	212	3.5005e-06	3.3226e-06	272.18	77.769	60.161	17.999	3.2452e-06	25.288	0.00025003	0.00024376	6.9659e-05	1058.5	2.6919e-06	2.6864e-06	1161.8	209.82	2.7208e-06	2.7227e-06	269.07	77.358	60.154	18.111	2.8446e-06	25.422	224.991	259.620	217.027	138.439	266.620	284.902	138.858	146.549	264.247	283.670	145.991	152.307	152.981	160.598	265.826	159.909	-8191	255	
1500.750	1	1	0	0	0.14063	0.24692	0.18639	0.19991	0.16877	0.073163	0.29689	0.089807	0.23394	0.070438	0.12544	0.093245	0.15067	0.37144	0.18763	0.17319	-2.4542	-3.4542	-3.3208	-3.0729	-3.7188	-3.2042	-3.0458	-3.5875	-2.7562	-3.3563	-3.5	-2.8979	-3.5396	-2.8583	-2.9875	-3.55	131.859	294.859	201.584	426.000	236.635	448.324	403.531	432.964	156.905	364.133	375.324	267.936	171.952	429.156	134.689	325.665	0.00025659	0.00031833	0.00014462	1077.7	3.1589e-06	1.7232e-06	1184	212.18	2.0812e-06	2.6091e-06	270.76	77.527	60.538	18.026	4.9097e-06	25.22	0.00026444	0.00025776	7.378e-05	1057.5	2.9422e-06	2.9384e-06	1160.7	210.55	2.95e-06	2.8435e-06	268.39	77.53	60.268	18.14	2.9279e-06	25.404	214.710	131.736	225.730	138.270	254.365	347.776	138.541	146.545	264.079	318.761	146.048	152.687	153.098	160.201	271.680	159.657	-8191	255	
1500.846	1	1	0	0	0.050774	0.10134	0.15936	0.12985	0.11445	0.12601	0.29283	0.099994	0.087699	0.10139	0.20327	0.20329	0.086653	0.14919	0.11281	0.27205	-2.5271	-3.3375	-3.2479	-2.8896	-3.8271	-3.1875	-3.2625	-3.6229	-2.8187	-3.3875	-3.5646	-2.8833	-3.5979	-3.2479	-3.0896	-3.7646	482.770	248.835	171.468	448.680	447.393	385.321	448.485	381.800	466.431	454.856	394.002	379.756	404.687	147.774	275.010	348.114	0.00025749	9.5338e-05	2.1532e-05	1081.8	1.7323e-06	4.3382e-06	1185.3	212.98	3.4468e-06	3.8771e-06	273.06	78.299	60.691	17.94	4.1816e-06	24.935	0.00026401	0.000268	7.3638e-05	1059.7	2.929e-06	2.8082e-06	1163	210.58	2.8967e-06	2.883e-06	268.95	77.461	60.403	18.113	2.9086e-06	25.405	230.864	220.224	310.197	138.631	248.765	313.236	138.871	146.694	294.132	285.727	145.927	152.518	153.120	160.472	301.107	159.767	-8191	255	
1500.942	1	1	0	0	0.2158	0.026621	0.14565	0.22599	0.17248	0.18413	0.12387	0.26565	0.11824	0.17901	0.058388	0.11839	0.21976	0.21226	0.15782	0.21086	-2.5667	-3.2687	-3.7458	-2.9521	-3.3521	-3.2229	-3.0187	-3.7062	-3.0083	-3.1479	-3.6521	-2.8	-3.5792	-3.4583	-2.8521	-3.7146	444.171	426.264	267.763	150.973	432.952	426.124	297.740	367.216	166.359	237.946	310.055	420.996	233.922	406.892	444.607	487.151	0.00020153	0.00019768	6.1149e-05	1090.8	4.5338e-06	2.162e-06	1188.9	212.96	3.6882e-06	1.3245e-06	273.94	77.731	60.45	17.841	3.6451e-06	25.229	0.00026047	0.00025902	7.1142e-05	1061.1	2.83e-06	2.7938e-06	1162.9	210.61	2.6886e-06	2.7061e-06	269.36	77.305	60.351	18.07	2.7651e-06	25.354	223.738	210.353	265.753	138.409	270.425	270.242	138.507	146.567	267.200	342.556	145.875	152.475	153.006	160.637	273.350	159.731	-8191	255	
1501.038	1	1	0	0	0.19797	0.15248	0.10295	0.16741	0.24454	0.18214	0.28691	0.1612	0.30511	0.2518	0.15981	0.20721	0.13801	0.22926	0.20198	0.26167	-2.6458	-2.9562	-3.4958	-2.9146	-3.4479	-3.3521	-2.9542	-3.7479	-2.9146	-3.2188	-3.4917	-2.7958	-3.3563	-3.325	-3	-3.5812	143.725	159.939	433.399	164.778	296.039	141.152	406.792	390.909	281.394	368.706	247.723	473.070	478.957	129.740	469.080	366.006	0.00023552	0.00011768	0.00011743	1080.9	2.5579e-06	3.2293e-06	1192.2	212.34	2.4803e-06	3.3513e-06	271.75	77.509	60.432	17.976	4.5783e-06	25.258	0.00025588	0.0002547	6.9886e-05	1059.1	2.913e-06	2.829e-06	1163.7	210.45	2.905e-06	2.8837e-06	269.22	77.446	60.449	18.129	2.9483e-06	25.421	226.492	402.570	267.643	138.562	305.573	282.862	138.424	146.495	311.396	265.511	145.900	152.364	153.218	160.173	305.523	159.625	-8191	255	
1501.134	1	1	0	0	0.11182	0.17523	0.16339	0.12758	0.22389	0.019862	0.10345	0.16427	0.059879	0.28544	0.25571	0.35334	0.2223	0.079934	0.14458	0.15085	-2.8312	-2.9958	-3.425	-3.0604	-3.3271	-3.4521	-2.8937	-3.6333	-3.0896	-2.9938	-3.6875	-2.9604	-3.3396	-3.675	-2.6583	-3.3458	208.389	366.634	411.893	251.638	235.171	369.582	277.797	449.581	297.728	315.676	422.704	149.901	377.452	465.984	436.514	171.061	0.00021638	0.00020536	0.00010776	1083.6	4.7413e-06	2.1735e-06	1186.6	213.76	3.1933e-06	1.7351e-06	273.26	77.475	60.603	17.959	1.652e-06	25.186	0.00026596	0.00026578	7.4556e-05	1060.6	2.9221e-06	2.8956e-06	1163.9	210.71	2.8354e-06	2.903e-06	269.12	77.489	60.473	18.159	2.7785e-06	25.448	220.568	238.223	223.072	138.652	253.987	371.438	138.696	146.360	307.294	271.429	145.804	152.334	152.687	160.289	209.938	159.776	-8191	255	
1501.255	1	1	0	0	0.044379	0.18473	0.26959	0.17746	0.074612	0.19599	0.26137	0.11231	0.14763	0.040889	0.13133	0.25364	0.095994	0.17458	0.16365	0.077454	-2.8625	-2.8563	-3.4667	-2.8354	-3.0167	-3.6937	-2.9333	-3.4021	-3.3563	-2.9333	-3.8479	-3.2562	-2.9271	-3.6375	-2.6917	-3.3583	212.717	364.658	462.091	456.219	443.331	412.062	391.025	374.806	163.312	185.855	384.706	131.454	317.607	409.908	224.105	405.788	0.00024972	0.00052041	1.1896e-05	1086.4	2.0053e-06	2.9864e-06	1191.3	212.74	3.7996e-06	8.816e-07	272.11	77.434	60.447	18.008	2.9703e-06	25.352	0.00025838	0.00025431	7.0177e-05	1062.8	2.8158e-06	2.7508e-06	1165.6	210.57	2.8232e-06	2.8669e-06	268.92	77.304	60.443	18.13	2.7167e-06	25.468	235.510	228.867	352.442	138.220	303.563	336.814	138.757	146.169	290.904	420.549	146.035	152.785	153.023	160.057	289.912	159.495	-8191	255	
1501.351	1	1	0	0	0.25557	0.14298	0.18838	0.21356	0.17469	0.063124	0.21149	0.1833	0.098528	0.12777	0.034766	0.21103	0.31957	0.16265	0.026286	0.16145	-2.9375	-2.7771	-3.55	-3.15	-3.0667	-3.6646	-3.0708	-3.3333	-3.5208	-2.8542	-3.6688	-3.0958	-2.9792	-3.5333	-3.0146	-3.4604	146.402	226.748	293.365	145.831	198.961	374.199	402.895	371.332	422.997	410.620	485.071	135.836	479.886	175.985	401.429	353.228	0.00025509	0.00036213	0.0001476	1084.5	1.0041e-06	3.8302e-06	1185.1	212.3	4.8063e-06	1.7899e-06	273.1	77.955	60.825	17.961	1.5163e-07	25.037	0.0002546	0.00025236	6.877e-05	1062.2	2.862e-06	2.7464e-06	1163	210.66	2.7308e-06	2.719e-06	269.01	77.517	60.454	18.143	2.6243e-06	25.37	224.350	258.937	210.336	138.525	309.400	254.239	138.654	146.670	275.584	251.511	145.895	152.467	152.933	160.515	445.450	159.676	-8191	255	
1501.447	1	1	0	0	0.20882	0.17275	0.20709	0.22419	0.090594	0.041374	0.14179	0.2576	0.20705	0.018382	0.099243	0.25017	0.07133	0.20206	0.10327	0.041295	-3.1042	-2.7292	-3.4667	-3.2938	-2.8958	-3.5396	-3.0312	-3.2417	-3.6458	-2.9229	-3.575	-3.2938	-2.8312	-3.7833	-3.0271	-3.3458	242.124	421.557	232.980	422.223	193.622	155.582	244.954	137.620	133.242	217.976	307.917	289.085	478.830	390.878	310.321	459.602	0.00025702	0.00022537	2.3283e-05	1088.7	2.8768e-06	4.3706e-06	1190.9	213.79	3.2795e-06	3.0327e-06	273.36	77.171	60.532	18.034	5.4711e-06	25.12	0.00024085	0.00023955	6.713e-05	1061.8	2.6603e-06	2.6105e-06	1164.4	210.93	2.6063e-06	2.6742e-06	269.59	77.454	60.422	18.177	2.7241e-06	25.454	222.062	218.882	464.336	138.702	247.145	273.429	138.489	146.313	274.036	389.277	146.035	152.863	153.336	160.487	314.679	159.633	-8191	255	
#DATA ENDS
