BOXY.EXE: ISS Imagent and Oximeter Data Acquisition Program Version 0.80
Ascii Record File

#ACQ INFORMATION
2  Detector Channels 
16  External MUX Channels 
1  Auxiliary Channels 
5000  Waveform (CCF) Frequency (Hz)
1  Waveforms Skipped 
30  Waveforms Averaged 
1  Cycles Averaged 
16  Acquisitions per Waveform 
10.0806  Updata Rate (Hz) 

#FILE INFORMATION
TRUE -- External MUX Channel results are PARSED.
FALSE -- AC DC and Phase are NOT grouped.
TRUE -- Companion Program Settings File CREATED.
FALSE -- AC data not excluded
FALSE -- DC data not excluded
FALSE -- Phase data not excluded
FALSE -- Auxillary Chn. data not excluded
Tab delimiters

#CALIBRATION STATE
TRUE -- Waveform Calibration Values APPLIED.


#AUX CALIBRATION VALUES
Val Type	aux-1	

Term	1.0000e+00	
Factor	0.0000e+00	


#WF CALIBRATION VALUES
A = Detector Channel
Val Type	A-AC1	A-AC2	A-AC3	A-AC4	A-AC5	A-AC6	A-AC7	A-AC8	A-AC9	A-AC10	A-AC11	A-AC12	A-AC13	A-AC14	A-AC15	A-AC16	A-DC1	A-DC2	A-DC3	A-DC4	A-DC5	A-DC6	A-DC7	A-DC8	A-DC9	A-DC10	A-DC11	A-DC12	A-DC13	A-DC14	A-DC15	A-DC16	A-Ph1	A-Ph2	A-Ph3	A-Ph4	A-Ph5	A-Ph6	A-Ph7	A-Ph8	A-Ph9	A-Ph10	A-Ph11	A-Ph12	A-Ph13	A-Ph14	A-Ph15	A-Ph16	

Term	0.00000e+00	0.00000e+00	0.00000e+00	0.00000e+00	0.00000e+00	0.00000e+00	0.00000e+00	0.00000e+00	0.00000e+00	0.00000e+00	0.00000e+00	0.00000e+00	0.00000e+00	0.00000e+00	0.00000e+00	0.00000e+00	0.00000e+00	0.00000e+00	0.00000e+00	0.00000e+00	0.00000e+00	0.00000e+00	0.00000e+00	0.00000e+00	0.00000e+00	0.00000e+00	0.00000e+00	0.00000e+00	0.00000e+00	0.00000e+00	0.00000e+00	0.00000e+00	0.00000e+00	0.00000e+00	0.00000e+00	0.00000e+00	0.00000e+00	0.00000e+00	0.00000e+00	0.00000e+00	0.00000e+00	0.00000e+00	0.00000e+00	0.00000e+00	0.00000e+00	0.00000e+00	0.00000e+00	0.00000e+00	
Factor	1.00000e+00	1.00000e+00	1.00000e+00	1.00000e+00	1.00000e+00	1.00000e+00	1.00000e+00	1.00000e+00	1.00000e+00	1.00000e+00	1.00000e+00	1.00000e+00	1.00000e+00	1.00000e+00	1.00000e+00	1.00000e+00	1.00000e+00	1.00000e+00	1.00000e+00	1.00000e+00	1.00000e+00	1.00000e+00	1.00000e+00	1.00000e+00	1.00000e+00	1.00000e+00	1.00000e+00	1.00000e+00	1.00000e+00	1.00000e+00	1.00000e+00	1.00000e+00	X	X	X	X	X	X	X	X	X	X	X	X	X	X	X	X	

B = Detector Channel
Val Type	B-AC1	B-AC2	B-AC3	B-AC4	B-AC5	B-AC6	B-AC7	B-AC8	B-AC9	B-AC10	B-AC11	B-AC12	B-AC13	B-AC14	B-AC15	B-AC16	B-DC1	B-DC2	B-DC3	B-DC4	B-DC5	B-DC6	B-DC7	B-DC8	B-DC9	B-DC10	B-DC11	B-DC12	B-DC13	B-DC14	B-DC15	B-DC16	B-Ph1	B-Ph2	B-Ph3	B-Ph4	B-Ph5	B-Ph6	B-Ph7	B-Ph8	B-Ph9	B-Ph10	B-Ph11	B-Ph12	B-Ph13	B-Ph14	B-Ph15	B-Ph16	

Term	0.00000e+00	0.00000e+00	0.00000e+00	0.00000e+00	0.00000e+00	0.00000e+00	0.00000e+00	0.00000e+00	0.00000e+00	0.00000e+00	0.00000e+00	0.00000e+00	0.00000e+00	0.00000e+00	0.00000e+00	0.00000e+00	0.00000e+00	0.00000e+00	0.00000e+00	0.00000e+00	0.00000e+00	0.00000e+00	0.00000e+00	0.00000e+00	0.00000e+00	0.00000e+00	0.00000e+00	0.00000e+00	0.00000e+00	0.00000e+00	0.00000e+00	0.00000e+00	-8.92709e+01	-1.28825e+02	-1.24038e+02	-1.83962e+02	-5.99715e+01	-6.47401e+01	-1.57159e+02	-1.62015e+02	-5.48480e+01	-7.10995e+01	-1.70729e+02	-1.70839e+02	-1.80289e+02	-1.77652e+02	-5.59847e+01	-1.50740e+02	
Factor	1.90359e-05	1.64344e-04	4.45320e-05	1.64583e-01	1.33975e-06	1.74344e-06	1.90588e-01	5.69177e-02	1.10681e-06	1.67741e-06	9.57273e-02	3.69650e-02	2.87415e-02	1.05468e-02	1.51595e-06	1.54879e-02	3.70208e-06	4.20420e-06	1.17489e-06	8.23578e-02	4.54401e-08	4.62410e-08	8.95767e-02	2.86398e-02	4.53497e-08	4.63083e-08	4.63350e-02	1.80061e-02	1.45506e-02	5.30554e-03	4.58462e-08	7.52433e-03	X	X	X	X	X	X	X	X	X	X	X	X	X	X	X	X	



#DISTANCE SETTINGS
A = Detector Channel
A-1	A-2	A-3	A-4	A-5	A-6	A-7	A-8	A-9	A-10	A-11	A-12	A-13	A-14	A-15	A-16	

2.5000e+00	3.0000e+00	2.5000e+00	3.0000e+00	2.0000e+00	3.0000e+00	1.5000e+00	3.0000e+00	3.0000e+00	3.0000e+00	3.0000e+00	3.0000e+00	3.0000e+00	3.0000e+00	1.5000e+00	3.0000e+00	

B = Detector Channel
B-1	B-2	B-3	B-4	B-5	B-6	B-7	B-8	B-9	B-10	B-11	B-12	B-13	B-14	B-15	B-16	

1.0000e+01	1.0000e+01	1.0000e+01	1.4400e+00	1.0000e+01	1.0000e+01	1.5100e+00	1.9400e+00	1.0000e+01	1.0000e+01	1.9900e+00	2.4900e+00	2.4100e+00	2.9000e+00	1.0000e+01	2.9800e+00	




#DATA BEGINS
time	group	step	mark	flag	A-AC1	A-AC2	A-AC3	A-AC4	A-AC5	A-AC6	A-AC7	A-AC8	A-AC9	A-AC10	A-AC11	A-AC12	A-AC13	A-AC14	A-AC15	A-AC16	A-DC1	A-DC2	A-DC3	A-DC4	A-DC5	A-DC6	A-DC7	A-DC8	A-DC9	A-DC10	A-DC11	A-DC12	A-DC13	A-DC14	A-DC15	A-DC16	A-Ph1	A-Ph2	A-Ph3	A-Ph4	A-Ph5	A-Ph6	A-Ph7	A-Ph8	A-Ph9	A-Ph10	A-Ph11	A-Ph12	A-Ph13	A-Ph14	A-Ph15	A-Ph16	B-AC1	B-AC2	B-AC3	B-AC4	B-AC5	B-AC6	B-AC7	B-AC8	B-AC9	B-AC10	B-AC11	B-AC12	B-AC13	B-AC14	B-AC15	B-AC16	B-DC1	B-DC2	B-DC3	B-DC4	B-DC5	B-DC6	B-DC7	B-DC8	B-DC9	B-DC10	B-DC11	B-DC12	B-DC13	B-DC14	B-DC15	B-DC16	B-Ph1	B-Ph2	B-Ph3	B-Ph4	B-Ph5	B-Ph6	B-Ph7	B-Ph8	B-Ph9	B-Ph10	B-Ph11	B-Ph12	B-Ph13	B-Ph14	B-Ph15	B-Ph16	aux-1	digaux	

1365.699	1	1	0	768	0.093017	0.15855	0.22795	0.12333	0.21242	0.039031	0.14884	0.40462	0.15732	0.33674	0.20228	0.22325	0.13076	0.013449	0.1188	0.17768	-2.8667	-3.65	-2.7583	-3.7687	-3.3125	-3.0083	-3.8958	-3.3646	-3.4333	-3.6854	-2.9813	-3.6229	-3.4875	-3.0812	-3.7375	-3.1437	238.883	126.559	25.181	252.551	171.448	196.553	176.474	116.605	-62.629	244.875	111.351	177.988	206.668	112.579	-41.306	207.163	0.00012332	0.00083449	9.3432e-05	1381.7	2.103e-06	4.2031e-06	1371.5	370.16	1.8339e-06	4.8199e-06	424.05	139.36	122.57	42.155	4.0345e-06	52.147	0.0005195	0.00053498	0.000153	1384.8	5.9334e-06	5.9681e-06	1381.6	374.51	6.0203e-06	5.9916e-06	427.41	143.24	124.57	42.995	6.019e-06	53.141	220.724	-8.903	0.279	-79.476	20.396	99.686	-79.222	-74.922	54.084	50.932	-75.200	-70.667	-70.419	-66.162	70.131	-66.767	-8191	255	
1365.795	1	1	0	0	0.11231	0.18514	0.27168	0.20111	0.18345	0.11758	0.215	0.19961	0.16231	0.25785	0.12659	0.20627	0.30346	0.24018	0.05365	0.3117	-2.9292	-3.5792	-2.8125	-3.7812	-3.3563	-3.1229	-3.8792	-3.2313	-3.1917	-3.5104	-3.1833	-3.4667	-3.5708	-3.2042	-3.5896	-3.3792	-91.210	77.859	137.224	234.361	184.390	242.184	207.850	220.063	231.713	201.812	39.953	-27.051	-85.409	202.961	133.990	244.822	0.00017614	0.00079905	6.7613e-05	1380.4	1.4111e-06	2.9663e-06	1369	369.25	1.0036e-06	6.3912e-06	424.07	139.4	122.46	42.056	3.6056e-06	52.607	0.0005226	0.00053949	0.00015461	1385.9	6.0204e-06	6.1434e-06	1381.7	374.24	6.0787e-06	6.0924e-06	427.76	143.19	124.71	42.996	6.1249e-06	53.245	243.302	-43.847	8.483	-79.740	126.998	45.513	-79.680	-75.026	70.683	47.483	-75.520	-71.097	-70.511	-66.337	6.944	-66.850	-8191	255	
1365.891	1	1	0	0	0.21106	0.060062	0.23241	0.18041	0.39557	0.091216	0.046528	0.10483	0.2366	0.097	0.15766	0.078104	0.044839	0.17963	0.14721	0.1908	-2.7771	-3.6417	-3.0479	-3.5979	-3.4188	-3.0979	-3.8083	-3.175	-2.8896	-3.8187	-3.0458	-3.3521	-3.7042	-2.7333	-3.5187	-3.3917	12.339	-5.411	-63.601	224.662	184.756	184.504	208.302	185.987	-10.828	70.839	189.566	205.049	-18.577	261.824	129.638	-92.523	0.00015584	0.00018631	0.00010919	1380.5	1.3008e-06	6.1657e-06	1372.5	368.31	1.471e-06	4.7462e-06	425.91	139.63	122.67	42.156	4.3218e-06	52.168	0.00052798	0.00055067	0.00015637	1385.2	6.146e-06	6.1933e-06	1381.7	374.34	6.1505e-06	6.1451e-06	428.04	143.21	124.76	42.993	6.1242e-06	53.207	214.962	-25.590	-11.211	-79.925	179.050	94.051	-79.671	-74.998	79.795	49.904	-75.494	-71.018	-70.454	-66.267	91.049	-66.627	-8191	255	
1365.987	1	1	0	0	0.12462	0.17082	0.095362	0.24045	0.17874	0.084311	0.53337	0.21638	0.32834	0.2247	0.22701	0.059243	0.056978	0.19795	0.035226	0.22141	-2.6937	-3.7354	-3.0375	-3.4042	-3.4646	-3.1229	-3.8479	-3.5396	-2.8458	-3.6771	-3.0542	-3.2208	-3.5333	-2.8958	-3.5458	-3.7354	115.187	-65.501	42.554	251.254	34.993	5.521	206.015	166.274	234.248	-61.857	-56.783	-87.844	60.998	5.535	-33.203	67.433	0.00014031	0.00015986	0.00022096	1379.6	1.4162e-06	4.013e-06	1372.4	369.75	1.7971e-06	6.3598e-06	424.7	139.67	122.21	42.35	7.854e-06	52.532	0.00053635	0.00055809	0.00015682	1383.8	6.0745e-06	6.2031e-06	1383.4	374.45	6.1522e-06	6.1263e-06	428.1	143.42	124.8	43.029	6.2179e-06	53.271	233.250	46.189	9.848	-79.574	78.678	63.298	-79.516	-74.866	121.476	58.573	-75.231	-71.251	-70.721	-66.362	61.860	-66.524	-8191	255	
1366.082	1	1	0	0	0.1769	0.096179	0.28396	0.3512	0.23594	0.066786	0.085361	0.27675	0.11962	0.12948	0.079102	0.19664	0.13085	0.11259	0.26442	0.05052	-2.5396	-3.4167	-3.0563	-3.35	-3.5854	-2.8542	-3.6729	-3.7458	-3.1104	-3.7313	-3.425	-3.1875	-3.6458	-3.0833	-3.4958	-3.6042	172.664	26.192	-49.310	203.481	68.282	225.142	-55.282	189.548	81.627	195.185	-30.299	229.742	187.357	225.179	236.284	138.330	0.00015819	0.00040575	6.8535e-05	1378.9	2.4124e-06	2.6887e-06	1375.1	368.9	4.3408e-06	3.4322e-06	424.64	139.36	122.15	42.324	5.4968e-06	52.356	0.00054214	0.00055248	0.0001569	1384	6.1e-06	6.1298e-06	1381.6	374.68	6.167e-06	6.1249e-06	428.11	143.17	124.53	43.023	6.0339e-06	53.251	222.200	7.147	-39.056	-79.551	26.890	77.462	-79.539	-74.962	40.121	52.833	-75.562	-71.455	-70.466	-66.251	68.938	-66.831	-8191	255	
1366.179	1	1	0	0	0.23125	0.082644	0.12497	0.090489	0.12509	0.12595	0.11792	0.051226	0.082972	0.19055	0.093056	0.1907	0.29707	0.034962	0.050741	0.062892	-2.3792	-3.5333	-3.4313	-3.3771	-3.7958	-3.0083	-3.5021	-3.7708	-2.8979	-3.5187	-3.4896	-2.9646	-3.9083	-3.3229	-3.2229	-3.5667	-74.878	179.037	47.071	-91.576	93.648	157.439	205.585	168.744	259.603	81.993	251.160	-65.787	199.597	-85.576	240.185	-25.589	0.00012301	0.00085407	0.00016004	1379.5	1.6077e-06	7.8465e-06	1373.2	369.33	3.6563e-06	6.6106e-06	422.94	139.77	122.13	42.342	5.9634e-06	52.176	0.00053081	0.00055692	0.00015295	1384.2	6.0617e-06	6.0838e-06	1380.9	374.4	6.147e-06	6.0332e-06	427.47	143.32	124.53	43.002	6.0547e-06	53.109	230.929	-26.186	14.425	-79.892	12.929	54.970	-79.651	-74.980	87.368	86.836	-75.546	-70.998	-70.719	-66.479	56.839	-67.019	-8191	255	
1366.298	1	1	0	0	0.2871	0.259	0.20527	0.19222	0.23266	0.043273	0.27717	0.28602	0.077265	0.25908	0.093628	0.18566	0.24858	0.12924	0.23295	0.2258	-2.6396	-3.575	-3.4667	-3.2417	-3.7292	-3.1167	-3.1292	-3.8146	-3.0104	-3.5396	-3.65	-3.1437	-3.8146	-3.3875	-3.0625	-3.9646	-38.319	228.025	209.113	234.265	12.525	106.626	208.254	131.503	255.307	21.738	241.359	-75.364	251.327	160.679	170.611	247.117	0.0002033	0.00031614	0.00018164	1376.8	2.5739e-06	6.8964e-06	1366.5	369.69	3.1273e-06	5.122e-06	425.09	139.44	122.03	42.278	3.9171e-06	52.39	0.00053608	0.00055072	0.00015348	1383.1	6.0266e-06	6.077e-06	1379.3	374.51	6.0556e-06	6.0437e-06	428.16	143.24	124.65	42.973	6.0814e-06	53.244	240.438	14.100	-28.780	-79.911	56.674	52.001	-79.997	-75.200	91.618	85.552	-75.646	-71.376	-70.679	-66.140	88.695	-66.427	-8191	255	
1366.394	1	1	0	0	0.1348	0.079353	0.17561	0.18876	0.28604	0.12219	0.3218	0.28667	0.053176	0.14784	0.1661	0.18733	0.22862	0.24873	0.022774	0.14878	-2.7458	-3.325	-3.4833	-3.3167	-3.6708	-3.1875	-3.0938	-3.8375	-3.0667	-3.2833	-3.7479	-3.0938	-3.4375	-3.2521	-3.0896	-3.8042	-85.739	141.866	75.006	210.598	194.724	100.422	-76.193	138.947	221.168	21.277	185.831	140.922	215.711	-83.241	33.455	211.311	0.00016099	0.00059377	0.0001724	1374.8	2.2399e-06	2.8276e-06	1374	369.94	1.4424e-06	2.662e-06	422.84	139.97	122.04	42.417	1.6785e-06	52.095	0.00052328	0.00055294	0.0001532	1380.2	6.0297e-06	6.0567e-06	1382.1	374.58	5.9893e-06	5.9997e-06	427.71	143.43	124.55	43.019	6.0255e-06	53.243	228.058	24.566	17.107	-79.929	147.084	91.521	-79.547	-75.086	74.602	1.147	-75.627	-71.100	-70.623	-66.428	127.508	-66.921	-8191	255	
1366.491	1	1	0	0	0.13575	0.15687	0.13338	0.23359	0.04405	0.19525	0.199	0.2686	0.17783	0.15096	0.079079	0.21326	0.23639	0.18607	0.21077	0.073107	-2.5417	-3.3229	-3.5396	-3.1688	-3.4292	-3.4625	-3.0333	-3.8479	-2.9729	-3.1063	-3.7271	-2.9521	-3.5417	-3.3792	-2.8375	-3.7208	28.847	218.233	122.081	212.492	253.752	116.882	-76.499	155.779	232.751	-77.269	187.816	259.566	265.829	191.526	-33.243	187.694	0.00014884	0.00063029	0.00013613	1379.5	4.1226e-06	3.6936e-06	1376.8	369.52	2.5118e-06	4.3752e-06	423.15	139.43	122.09	42.22	3.4819e-06	52.273	0.00052146	0.00055623	0.00015199	1383.9	6.0588e-06	6.0235e-06	1382.1	374.61	5.9924e-06	6.1315e-06	427.69	143.15	124.61	43.013	6.1011e-06	53.219	223.738	2.135	-3.950	-79.751	72.548	71.721	-79.633	-75.229	39.382	10.040	-75.628	-71.421	-70.816	-66.334	74.825	-66.735	-8191	255	
1366.587	1	1	0	0	0.15439	0.067302	0.048135	0.11368	0.18562	0.22003	0.14947	0.19849	0.26971	0.031952	0.32359	0.12483	0.074783	0.14473	0.17073	0.12422	-2.9521	-2.9229	-3.5271	-3.0583	-3.4938	-3.4396	-3.1562	-3.6792	-3.1354	-2.9562	-3.6792	-2.9854	-3.6063	-3.5208	-2.7542	-3.6833	-71.223	-15.479	147.085	207.814	-25.787	33.096	226.305	237.926	59.876	240.162	165.397	207.130	68.295	176.140	199.467	55.729	0.00019772	0.00032759	0.00012122	1379.9	5.657e-07	4.9987e-06	1371.5	369.49	2.5629e-06	4.6346e-06	424.56	140.25	122.14	42.186	6.2738e-06	52.501	0.00052519	0.00055452	0.0001543	1385	5.9947e-06	6.0291e-06	1381.9	374.73	6.0181e-06	6.0379e-06	427.99	143.37	124.73	42.993	6.0866e-06	53.325	223.993	-17.090	40.653	-80.037	-4.195	76.098	-79.736	-75.028	70.437	64.629	-75.307	-71.367	-70.893	-66.098	48.255	-66.750	-8191	255	
1366.683	1	1	0	0	0.080063	0.12867	0.15142	0.057654	0.031389	0.13051	0.30591	0.25446	0.16523	0.28096	0.13137	0.20749	0.23143	0.18375	0.10113	0.073055	-2.9208	-2.9521	-3.4896	-3.0125	-3.2958	-3.4813	-3.0833	-3.4437	-3.2208	-2.9042	-3.5708	-3.0625	-3.4062	-3.825	-2.7604	-3.4125	107.947	123.097	179.971	-74.975	29.717	47.831	192.283	263.494	49.014	259.460	188.390	-65.286	241.457	-3.865	-0.696	20.255	0.00017409	0.00073909	0.00025581	1372.9	5.8961e-06	4.6107e-06	1377.1	369.55	3.8022e-06	5.2623e-06	424.05	139.9	122.85	42.234	3.8829e-06	52.377	0.00053138	0.00055401	0.00015601	1383.6	6.0428e-06	6.0119e-06	1383.6	374.91	6.015e-06	6.1342e-06	428.52	143.37	125.01	43.008	6.2867e-06	53.25	222.125	2.535	-24.184	-80.053	25.449	47.467	-79.844	-74.988	36.143	97.327	-75.407	-71.118	-70.469	-66.209	61.297	-66.935	-8191	255	
1366.779	1	1	0	0	0.13019	0.12997	0.17095	0.12326	0.032051	0.075673	0.19209	0.1422	0.070384	0.077116	0.24012	0.16975	0.060967	0.1897	0.38718	0.11801	-2.9417	-2.9583	-3.7042	-3.1375	-3.2792	-3.7896	-3.2125	-3.4313	-3.3917	-3.2521	-3.9271	-3.1583	-3.0146	-3.5729	-2.7354	-3.4458	143.007	161.805	110.641	-57.583	7.801	87.284	173.680	256.333	181.576	221.221	209.111	-65.827	228.553	172.741	179.785	-49.236	0.00016286	0.00054524	5.6606e-05	1374.1	7.0612e-07	4.3408e-06	1376.7	369.06	8.6038e-07	5.548e-06	423.47	138.85	122.47	42.227	4.0338e-06	52.43	0.00053393	0.0005647	0.00015908	1383	6.2291e-06	6.2129e-06	1385.1	374.89	6.1982e-06	6.2286e-06	428.25	143.11	124.97	43.059	6.2351e-06	53.305	237.720	35.169	265.069	-79.838	-76.094	49.155	-79.549	-75.111	134.741	51.110	-75.489	-71.240	-70.643	-65.888	74.102	-66.453	-8191	255	
1366.875	1	1	0	0	0.24843	0.23778	0.30826	0.35034	0.11547	0.16604	0.087948	0.38445	0.060588	0.20801	0.18091	0.074819	0.0093402	0.041051	0.22232	0.19595	-3.0271	-2.7771	-3.8146	-3.2729	-2.9458	-3.6771	-3.0667	-3.2771	-3.425	-2.8104	-3.7375	-3.2896	-2.9437	-3.8958	-3.0104	-3.2083	259.196	-32.325	68.466	218.865	226.248	-27.643	170.101	199.350	31.564	197.453	222.659	178.051	-48.415	96.158	-8.051	252.623	0.00012594	0.00060356	0.00011098	1378.6	2.0713e-06	3.1338e-06	1374.7	370.43	1.4447e-06	4.9264e-06	422.42	139.56	122.63	42.302	1.9391e-06	52.348	0.00054125	0.00057136	0.00015655	1384.9	6.2434e-06	6.2367e-06	1383.4	374.93	6.1757e-06	6.2097e-06	427.84	143.27	125.03	43.063	6.2184e-06	53.323	201.512	-38.312	2.775	-79.502	59.388	91.377	-79.353	-74.736	32.843	22.920	-75.225	-70.923	-70.372	-65.841	80.163	-66.466	-8191	255	
1366.994	1	1	0	0	0.081597	0.23974	0.12333	0.17794	0.25358	0.077213	0.2358	0.091284	0.08571	0.20353	0.25304	0.31197	0.22862	0.27506	0.059258	0.14488	-3.3708	-2.8458	-3.3688	-3.5625	-2.8396	-3.6396	-3.3583	-3.4333	-3.4396	-2.7938	-3.6167	-3.3521	-2.9625	-3.6562	-3.0604	-3.0708	16.297	167.958	249.277	230.431	238.450	182.995	243.622	118.153	-40.524	112.165	246.547	257.674	-85.845	124.605	258.023	226.789	0.00014281	0.00042471	8.8307e-05	1379.4	2.1356e-06	3.8335e-06	1376	370.1	2.4057e-06	7.2283e-06	422.94	139.72	122.33	42.353	2.7825e-06	52.567	0.00054384	0.00056784	0.000159	1385.5	6.1799e-06	6.1946e-06	1385.8	375.74	6.1034e-06	6.1749e-06	427.97	143.32	124.79	43.092	6.2179e-06	53.41	229.048	5.489	-23.506	-79.528	39.388	75.604	-79.147	-74.864	8.868	68.152	-75.698	-71.075	-70.505	-66.171	26.971	-66.504	-8191	255	
1367.090	1	1	0	0	0.24476	0.13232	0.30672	0.14879	0.16034	0.10979	0.10394	0.055775	0.28764	0.20824	0.034609	0.16578	0.17247	0.095567	0.012897	0.12515	-3.2042	-2.7062	-3.4313	-3.6354	-2.8521	-3.7458	-3.2792	-3.1375	-3.6479	-3.0563	-3.4646	-3.5833	-3.1417	-3.6708	-3.4188	-3.3	200.387	156.760	-19.990	-37.533	1.146	233.014	134.421	34.244	239.634	171.125	225.172	147.526	209.983	-56.602	264.896	134.519	0.00013925	0.00074394	5.1676e-05	1385.7	3.837e-06	4.804e-06	1370	369.57	2.5196e-07	1.5812e-06	423.97	139.24	122.43	42.374	4.2771e-06	52.627	0.00054054	0.00056364	0.0001591	1387.4	6.221e-06	6.2452e-06	1382.3	374.72	6.1534e-06	6.2508e-06	428.7	143.32	124.84	43.049	6.1535e-06	53.429	195.783	-11.381	-73.168	-79.579	87.455	77.880	-79.527	-74.892	-54.094	21.996	-75.017	-70.847	-70.498	-65.578	3.420	-66.593	-8191	255	
1367.186	1	1	0	0	0.26605	0.16891	0.21802	0.11659	0.16053	0.044551	0.16468	0.32069	0.16462	0.19287	0.29649	0.019205	0.26362	0.2135	0.082157	0.17881	-3.4437	-2.7438	-3.1813	-3.5875	-2.6521	-3.6	-3.4646	-3.0542	-3.7	-3.0271	-3.4375	-3.7208	-2.8083	-3.4167	-3.2917	-2.9917	47.134	207.432	61.711	250.818	-66.673	245.711	-45.051	188.565	156.441	27.996	230.642	254.342	-67.384	-85.928	241.965	105.713	0.00016933	0.00054973	0.0001738	1380.9	1.094e-06	5.0996e-06	1372.6	371.06	2.1742e-06	4.1111e-06	422.92	139.79	122.4	42.342	1.7948e-06	52.321	0.0005394	0.0005621	0.00015743	1385.4	6.3047e-06	6.207e-06	1383	375.05	6.1931e-06	6.1899e-06	428	143.01	124.8	43.084	6.141e-06	53.267	228.903	21.336	4.937	-79.553	-29.689	67.606	-79.297	-74.872	33.867	-10.411	-75.524	-70.987	-70.624	-66.010	23.787	-67.015	-8191	255	
1367.260	1	1	0	0	0.10335	0.081055	0.18279	0.29307	0.10528	0.29858	0.19707	0.088601	0.18675	0.14355	0.04085	0.23495	0.31405	0.24315	0.34465	0.29843	-3.275	-3.025	-3.2375	-3.7562	-2.8625	-3.5187	-3.525	-2.9958	-3.5312	-3.2812	-3.0812	-3.7583	-2.9896	-3.3604	-3.4708	-2.9958	208.042	60.097	-24.774	230.634	-45.013	-66.652	189.872	126.731	171.586	169.035	89.858	188.054	176.891	-81.613	60.357	133.589	0.00017974	0.00059044	0.00013948	1380.1	4.4504e-06	4.1876e-06	1371.5	370.11	2.919e-06	8.172e-06	424.14	139.71	121.96	42.204	2.1897e-06	52.322	0.00053193	0.0005641	0.00015811	1385.8	6.1997e-06	6.1073e-06	1381.6	374.88	6.0861e-06	6.1358e-06	427.98	143.27	124.52	42.934	6.0849e-06	53.352	219.557	6.986	5.941	-79.862	95.012	57.248	-79.329	-75.145	51.444	88.643	-75.678	-70.894	-70.683	-66.344	75.265	-66.799	-8191	255	
1367.379	1	1	0	0	0.025953	0.23923	0.29504	0.086688	0.19084	0.065027	0.24584	0.19213	0.19759	0.091365	0.34411	0.27156	0.19536	0.14004	0.20077	0.067061	-3.3979	-3.1604	-3.1437	-3.8375	-2.9625	-3.3583	-3.7375	-3.05	-3.5125	-3.3104	-3.0146	-3.7042	-3.1667	-3.35	-3.2958	-2.9146	246.561	28.844	177.750	251.585	162.688	237.097	200.532	237.919	246.615	94.896	147.283	-66.591	217.248	-79.415	-57.862	-49.500	0.00017103	0.00031063	0.00012174	1382.2	3.4303e-06	4.4431e-06	1374.2	369.8	2.4666e-06	1.736e-06	424.74	140.28	122.42	42.33	2.8532e-06	52.206	0.00053858	0.00055564	0.00015687	1387.2	6.1553e-06	6.139e-06	1382.2	374.96	6.0568e-06	6.1001e-06	428.45	143.28	124.89	43.087	6.2004e-06	53.234	218.322	-1.759	16.267	-79.834	61.180	50.172	-79.703	-74.888	-17.809	-5.533	-75.813	-71.091	-70.945	-66.504	35.698	-66.868	-8191	255	
1367.475	1	1	0	0	0.19818	0.14639	0.17939	0.30869	0.084953	0.31839	0.15286	0.16249	0.12654	0.28584	0.21556	0.084542	0.30355	0.074095	0.21816	0.28763	-3.175	-3.2417	-2.8667	-3.7958	-3.0646	-3.0438	-3.6958	-3.0104	-3.4188	-3.275	-2.8729	-3.7792	-3.225	-3.2104	-3.5979	-3.0208	0.318	162.193	231.297	252.067	20.230	39.628	197.743	263.192	151.717	-28.768	-3.650	177.389	191.841	172.050	54.803	213.122	0.00011985	0.00061766	0.00016315	1383.7	1.9497e-06	1.6101e-06	1368.5	370.83	2.2461e-06	1.4988e-06	424.19	139.38	122.34	42.273	4.4565e-06	52.75	0.0005323	0.00055827	0.00015846	1386.4	6.1938e-06	6.1664e-06	1381.9	374.93	6.195e-06	6.1683e-06	427.44	142.95	124.73	43.038	6.274e-06	53.41	220.608	-48.712	19.546	-79.858	-50.486	-13.670	-79.651	-75.213	153.639	-27.237	-75.448	-70.929	-70.724	-66.441	45.152	-67.008	-8191	255	
1367.571	1	1	0	0	0.042282	0.069348	0.12019	0.20392	0.1944	0.15956	0.24674	0.21642	0.10653	0.12101	0.036381	0.24647	0.24064	0.13764	0.28198	0.30888	-2.9813	-3.5333	-2.9854	-3.7958	-3.0979	-2.9979	-3.8354	-3.0708	-3.3937	-3.425	-3.0625	-3.675	-3.0292	-3.1667	-3.7521	-2.8917	-61.005	194.252	-48.211	264.938	-83.486	36.224	-92.436	164.840	-46.608	89.595	137.242	194.153	-48.627	249.616	112.567	247.116	0.00019497	0.00065641	0.00011956	1378.6	3.7364e-06	2.5616e-06	1372.7	368.73	3.1238e-06	7.092e-06	424.67	140.14	122.24	42.088	6.3571e-06	52.137	0.00053301	0.00055937	0.00015818	1385.5	6.2268e-06	6.2123e-06	1382.6	373.92	6.2737e-06	6.1634e-06	428.43	143.55	124.8	42.939	6.1469e-06	53.249	231.447	-1.426	8.977	-80.116	113.807	66.922	-79.505	-75.269	61.639	18.802	-75.453	-70.842	-70.528	-66.215	52.431	-66.949	-8191	255	
1367.692	1	1	0	0	0.15285	0.18639	0.20452	0.14802	0.078809	0.16222	0.16998	0.16895	0.093435	0.30974	0.2313	0.032587	0.2885	0.34548	0.094636	0.16461	-2.8083	-3.5396	-2.9771	-3.5271	-3.1229	-2.9604	-3.8396	-3.0479	-3.1437	-3.5062	-3.1396	-3.5458	-3.2375	-2.9562	-3.7812	-3.1667	177.951	194.848	154.387	-92.985	9.489	229.363	246.567	242.222	103.405	174.650	-78.624	223.217	210.622	-87.691	-18.554	207.405	0.00015134	0.00027355	0.00011999	1376	2.3471e-06	3.5359e-06	1373.8	369.11	2.4321e-06	6.0139e-06	423.42	140.09	122.04	42.234	3.1493e-06	52.369	0.00053294	0.00056261	0.00015732	1384.9	6.1283e-06	6.1399e-06	1384	374.43	6.1131e-06	6.1437e-06	428.42	143.42	124.69	43.046	6.0834e-06	53.358	207.632	-28.869	6.278	-79.776	63.454	65.068	-79.677	-75.112	-25.757	69.177	-75.504	-71.420	-70.532	-66.313	95.117	-66.724	-8191	255	
1367.788	1	1	0	0	0.2122	0.057753	0.083263	0.42852	0.27741	0.083475	0.26483	0.20836	0.36652	0.10859	0.13239	0.27784	0.018057	0.12406	0.096919	0.038822	-2.6542	-3.6292	-2.9437	-3.5771	-3.3354	-2.7625	-3.9562	-3.4854	-3.1417	-3.6833	-3.1271	-3.3979	-3.4229	-3.2042	-3.675	-3.1688	83.112	176.089	75.924	261.544	40.995	225.351	248.542	264.780	183.900	4.964	255.135	-58.462	-14.386	228.500	32.519	-52.911	0.00017386	0.00042662	0.00011856	1379.5	3.0619e-06	7.7637e-06	1375.8	371.39	1.9478e-06	4.5166e-06	424	140.06	122.04	42.089	6.1652e-06	52.139	0.00054249	0.00056311	0.0001574	1385.9	6.1486e-06	6.1741e-06	1384	375.15	6.0714e-06	6.153e-06	428.54	143.35	124.69	43.007	6.0766e-06	53.248	220.941	-39.017	34.096	-79.963	26.922	51.895	-79.700	-74.764	23.355	46.040	-75.364	-71.204	-70.682	-66.537	62.929	-66.637	-8191	255	
1367.859	1	1	0	0	0.18619	0.10517	0.18725	0.27032	0.066557	0.125	0.074023	0.11664	0.31383	0.2138	0.15869	0.19174	0.1383	0.44055	0.11966	0.18567	-2.6021	-3.5125	-2.7687	-3.5021	-3.5333	-2.8458	-3.8	-3.3833	-2.8438	-3.7021	-3.1146	-3.35	-3.8542	-2.8292	-3.5146	-3.5958	-69.419	-39.690	174.678	-73.927	70.649	90.193	217.335	-61.785	234.026	221.311	161.995	-47.836	-91.177	266.029	212.233	169.672	0.00011194	0.00033005	0.00021737	1382.2	3.7226e-06	2.69e-06	1370.3	369.09	8.0731e-07	5.5977e-06	423.44	138.62	122.27	42.306	2.3452e-06	52.164	0.00054311	0.00056111	0.00015676	1386.5	6.0444e-06	6.1249e-06	1383	374.41	6.2048e-06	6.1368e-06	427.88	143.25	124.67	43.121	6.0269e-06	53.241	244.896	40.034	0.909	-79.653	49.475	-19.036	-79.554	-75.056	-89.802	29.402	-75.398	-71.101	-70.730	-66.582	63.285	-66.898	-8191	255	
1367.980	1	1	0	0	0.24504	0.21399	0.14738	0.21587	0.2368	0.2276	0.11225	0.36553	0.16493	0.16788	0.27666	0.11351	0.17047	0.13723	0.21173	0.037319	-2.5583	-3.5583	-3.0583	-3.2521	-3.5167	-3.0771	-3.6021	-3.7167	-2.9271	-3.5896	-3.2646	-3.1896	-3.7083	-2.9229	-3.4875	-3.525	249.490	241.964	259.025	211.269	83.588	40.826	113.540	257.121	180.152	31.602	243.451	-52.151	206.030	172.484	238.773	-67.585	0.00014354	0.00060407	8.7909e-05	1380.6	4.4523e-06	6.6467e-06	1374.4	370.33	2.4613e-06	2.8083e-06	423.91	139.93	122.24	42.046	3.3519e-06	52.328	0.00052829	0.00055215	0.000154	1386.1	6.174e-06	6.0289e-06	1383.4	374.74	6.1135e-06	6.0791e-06	428.09	143.34	124.72	42.996	6.1252e-06	53.232	238.726	26.439	-19.605	-79.769	87.748	19.448	-79.610	-74.751	37.312	75.722	-75.349	-71.219	-70.918	-66.033	80.108	-66.507	-8191	255	
1368.074	1	1	0	0	0.24463	0.084104	0.18922	0.15579	0.19385	0.41142	0.31164	0.28662	0.084877	0.081551	0.25183	0.14531	0.24826	0.18484	0.10078	0.29448	-2.4271	-3.7396	-3.0667	-3.1458	-3.7938	-3.0458	-3.4667	-3.5896	-2.7375	-3.4396	-3.2562	-3.1646	-3.5542	-3.1021	-3.375	-3.4146	245.957	229.822	-9.378	-67.621	50.651	213.419	262.267	120.642	-25.240	39.092	-67.136	149.589	21.269	148.440	-21.968	107.656	0.00013023	0.00052031	0.00017284	1378.5	1.8131e-06	5.3604e-06	1371.2	370.96	1.27e-06	6.4277e-06	425.1	140.05	122.62	42.258	1.2232e-06	52.284	0.00053145	0.00055551	0.00015481	1386.2	6.0355e-06	6.0379e-06	1382.5	374.83	6.0414e-06	6.0268e-06	427.51	143.14	124.82	43.067	6.0163e-06	53.21	227.253	-24.367	-2.803	-79.545	147.582	33.134	-79.511	-74.582	-12.972	61.068	-75.300	-70.824	-70.406	-65.689	141.930	-66.097	-8191	255	
1368.171	1	1	0	0	0.099052	0.10606	0.12233	0.22011	0.19058	0.27801	0.14014	0.27823	0.12018	0.14674	0.14883	0.091107	0.35005	0.24854	0.259	0.17456	-2.4792	-3.6417	-2.9688	-3.2229	-3.6688	-3.0042	-3.3354	-3.5896	-2.8271	-3.4542	-3.3917	-2.9542	-3.6792	-3.2104	-3.2062	-3.6813	-14.352	235.870	-68.494	228.910	70.545	202.671	146.256	228.262	99.104	137.263	-77.087	-59.394	240.975	195.304	215.824	199.136	0.00013714	0.00052619	0.00012735	1380.2	2.8117e-06	7.2528e-06	1371.3	369.52	3.3547e-06	1.6517e-06	423.87	139.47	122.27	42.157	5.4629e-06	52.281	0.00052881	0.00055244	0.00015218	1383.6	6.0091e-06	5.9903e-06	1382.4	374.22	6.0838e-06	6.0196e-06	427.59	142.87	124.6	42.927	5.9728e-06	53.253	232.590	-22.915	13.293	-79.647	93.578	98.403	-79.419	-74.645	30.259	119.997	-75.478	-71.055	-70.429	-65.801	52.358	-66.711	-8191	255	
1368.291	1	1	0	0	0.18703	0.39193	0.14434	0.33032	0.16558	0.089585	0.35145	0.20708	0.16028	0.10648	0.1211	0.057255	0.20347	0.28315	0.22005	0.18339	-2.4771	-3.4792	-3.2375	-3.1229	-3.6125	-3.2979	-3.2604	-3.7542	-2.925	-3.4417	-3.6333	-2.9542	-3.85	-3.2812	-2.9208	-3.6937	130.163	-8.270	111.137	206.962	54.469	138.481	200.695	181.291	110.697	224.164	-90.797	1.784	7.028	-6.222	106.765	145.991	0.00017761	0.00058681	0.00018845	1378.2	4.8512e-06	5.7766e-07	1377.1	368.89	1.411e-06	7.8601e-06	423.56	139.86	122.59	42.015	4.4672e-06	52.09	0.00052209	0.0005418	0.00015295	1382.3	6.0482e-06	5.9254e-06	1384	374.17	5.9936e-06	5.9853e-06	428.02	143.22	124.77	42.879	5.9669e-06	53.146	240.275	6.176	11.936	-79.561	66.610	-66.061	-79.337	-74.642	-12.626	41.676	-75.259	-70.719	-70.277	-65.921	71.314	-66.377	-8191	255	
1368.387	1	1	0	0	0.16369	0.1597	0.0168	0.073554	0.13696	0.40657	0.20887	0.27029	0.23781	0.29556	0.077572	0.16519	0.2199	0.11957	0.2123	0.14243	-2.5896	-3.2583	-3.5479	-2.9104	-3.5625	-3.2854	-3.0604	-3.7375	-2.9813	-3.2687	-3.6854	-2.9729	-3.6229	-3.3604	-2.975	-3.875	185.687	2.600	20.847	210.379	163.750	54.718	139.407	235.708	238.379	43.420	-91.897	104.291	237.262	82.004	169.844	-20.194	0.00014068	2.6069e-05	6.2838e-05	1376.3	3.1111e-06	1.2908e-05	1367.1	369.08	3.1836e-06	2.6483e-06	423.65	139.29	122.16	42.09	3.8311e-06	52.132	0.00052017	0.00054556	0.0001507	1381.5	5.9669e-06	5.9318e-06	1378.9	374.34	5.9101e-06	5.936e-06	427.39	142.81	124.54	42.957	6.0129e-06	53.11	225.888	251.434	-29.727	-79.835	92.320	87.321	-79.463	-75.086	112.878	23.055	-75.230	-71.070	-70.865	-66.488	46.708	-66.623	-8191	255	
1368.484	1	1	0	0	0.071425	0.14918	0.24785	0.23451	0.11454	0.025682	0.038633	0.17256	0.077298	0.047006	0.19907	0.28084	0.1357	0.30982	0.20548	0.072359	-2.6167	-3.325	-3.5833	-2.8396	-3.5292	-3.3208	-2.9333	-3.8208	-2.9729	-3.0708	-3.7125	-2.8771	-3.5021	-3.5583	-2.6188	-3.7396	10.655	26.541	26.882	178.179	-82.545	103.385	49.172	92.632	16.089	201.749	190.093	150.120	188.773	103.552	189.593	191.756	0.00015222	0.00060134	0.00021237	1374.6	1.005e-06	4.6653e-06	1368.5	369.11	1.7727e-07	5.1275e-06	423.55	139.4	122.02	42.267	4.8793e-06	52.298	0.00051567	0.000538	0.00015018	1381.2	5.983e-06	5.8211e-06	1379.1	374.11	5.9591e-06	5.9919e-06	427.13	143.08	124.44	43.009	5.9924e-06	53.215	218.704	11.183	7.342	-79.808	146.880	2.668	-79.618	-74.774	96.679	77.149	-75.473	-70.789	-70.573	-65.938	58.197	-66.665	-8191	255	
1368.555	1	1	0	0	0.15301	0.29669	0.10945	0.31668	0.15185	0.14298	0.21	0.19682	0.17321	0.16177	0.302	0.19467	0.20295	0.090561	0.13359	0.11093	-2.7708	-3.0146	-3.6625	-3.2687	-3.3375	-3.4625	-3.3229	-3.7938	-3.1146	-3.0583	-3.7229	-2.9896	-3.475	-3.6792	-3.0292	-3.7417	27.974	21.301	148.586	208.591	143.055	176.049	209.427	-91.588	239.905	242.811	243.314	133.861	225.703	57.801	100.846	-89.820	0.00011979	0.00049528	0.00013638	1375.9	6.6815e-06	5.1148e-06	1372.6	370.25	3.3884e-06	5.925e-06	422.94	139.8	122.02	42.224	6.2306e-06	52.424	0.00051373	0.00054337	0.00015117	1380.7	5.9543e-06	5.9775e-06	1380.4	374.43	5.881e-06	5.9922e-06	427.27	143.24	124.53	42.999	5.9104e-06	53.299	231.828	-4.649	3.887	-79.476	51.416	89.224	-79.318	-74.872	90.851	15.906	-75.275	-70.678	-70.397	-66.218	51.971	-67.005	-8191	255	
1368.676	1	1	0	0	0.25879	0.11105	0.2655	0.21055	0.21557	0.061424	0.47002	0.13741	0.23211	0.22409	0.27836	0.27821	0.08665	0.17238	0.1232	0.099425	-2.9188	-2.8646	-3.6771	-3.0938	-3.4604	-3.725	-2.9208	-3.7042	-3.2521	-3.0396	-3.8583	-2.9479	-3.3417	-3.5417	-2.7438	-3.4958	55.945	10.737	137.806	259.225	249.867	159.874	206.867	235.567	-33.413	232.214	253.896	183.121	4.649	-81.055	-83.088	172.362	0.00017762	0.0007511	0.00015203	1377.1	3.4344e-06	3.8622e-06	1373.5	368.9	3.2609e-06	5.263e-06	423.98	139.34	122.1	42.262	1.6904e-06	52.251	0.00051654	0.000541	0.00015116	1383	5.9624e-06	5.9371e-06	1381.5	373.91	6.0169e-06	5.9677e-06	428.07	143.17	124.69	42.991	5.9598e-06	53.278	222.927	17.235	-17.828	-79.543	7.413	96.668	-79.402	-74.588	80.434	58.734	-75.187	-70.613	-70.211	-65.831	45.656	-66.551	-8191	255	
1368.772	1	1	0	0	0.18707	0.10759	0.12633	0.18445	0.070435	0.18296	0.12729	0.13846	0.25809	0.13404	0.098067	0.030086	0.36477	0.16564	0.16528	0.15428	-3.0646	-2.8625	-3.6792	-3.0938	-3.0729	-3.7438	-2.9292	-3.7771	-3.5104	-2.6854	-3.8083	-3.2104	-3.3458	-3.8438	-3.0646	-3.4167	91.249	-19.890	261.175	-88.763	64.069	263.113	250.767	256.152	179.935	1.599	-87.925	69.398	-74.163	205.313	123.294	60.266	0.00013067	0.000484	0.00014436	1373.6	3.0073e-06	5.4813e-06	1371.6	369.94	2.1903e-06	4.177e-06	424.18	139.43	122.63	42.214	6.4836e-06	52.165	0.00052322	0.00054927	0.00015385	1380.9	6.0319e-06	6.0346e-06	1380.9	374.59	6.006e-06	6.127e-06	427.76	143.28	124.53	42.969	6.0534e-06	53.157	227.368	23.622	5.647	-79.588	74.593	77.127	-79.415	-74.750	-14.343	64.374	-75.396	-70.900	-70.305	-65.848	53.192	-66.764	-8191	255	
1368.868	1	1	0	0	0.20945	0.26909	0.10191	0.13429	0.24654	0.37985	0.17176	0.20283	0.11819	0.19149	0.060095	0.27586	0.018621	0.077676	0.08331	0.010718	-2.9708	-2.8729	-3.5729	-3.4417	-2.9667	-3.6813	-3.1104	-3.3917	-3.625	-2.7896	-3.6354	-3.4729	-2.8312	-3.8875	-2.9729	-3.3125	66.520	-35.474	-18.539	265.735	9.384	154.511	191.997	230.008	33.041	117.643	158.253	260.523	168.536	7.666	165.647	235.719	0.00019502	0.00037354	0.00012567	1376.6	1.0431e-06	3.9709e-06	1372.7	369.29	1.6195e-06	6.4047e-06	424.93	139.74	121.82	42.114	5.089e-06	52.107	0.00052259	0.00055074	0.00015199	1382.9	5.9753e-06	5.9781e-06	1381.3	374.49	6.0074e-06	6e-06	427.63	143.16	124.51	43.01	6.0615e-06	53.133	225.093	-0.013	-17.982	-79.510	30.202	60.485	-79.300	-74.857	169.880	68.870	-75.219	-70.737	-70.395	-65.919	104.405	-66.492	-8191	255	
1368.964	1	1	0	0	0.10775	0.20058	0.14476	0.32101	0.076507	0.028138	0.19971	0.25063	0.054716	0.083091	0.2733	0.098653	0.24176	0.16893	0.16311	0.31179	-3.4583	-2.775	-3.3688	-3.5563	-2.95	-3.6292	-3.2896	-3.3271	-3.6667	-2.9292	-3.6646	-3.4271	-2.8417	-3.8688	-3.3125	-3.1729	-48.948	220.662	116.127	170.422	186.844	194.423	119.536	241.292	71.176	232.738	191.612	-48.073	214.876	28.908	112.854	256.679	0.00014427	0.00050867	0.0002008	1375.3	4.1842e-06	5.4637e-06	1371.3	369.46	1.3764e-06	1.6735e-06	423.63	139.37	121.9	42.133	1.8288e-06	52.148	0.00051793	0.00054866	0.00015232	1381.7	5.9643e-06	6.0571e-06	1381.5	374.19	6.0119e-06	5.9875e-06	427.67	143.19	124.57	42.975	5.975e-06	53.146	230.329	-13.215	7.502	-79.606	44.149	53.727	-79.352	-74.948	51.138	257.880	-75.421	-70.773	-70.650	-65.717	70.773	-66.575	-8191	255	
1369.083	1	1	0	0	0.084585	0.12253	0.12524	0.21309	0.018575	0.010465	0.21988	0.38447	0.075942	0.13088	0.23555	0.16103	0.15996	0.29515	0.1728	0.19809	-3.2708	-2.9062	-3.5479	-3.5271	-2.75	-3.7083	-3.5333	-3.1083	-3.6312	-3.0312	-3.3542	-3.6083	-3.0563	-3.6729	-3.2083	-3.0146	-13.903	261.719	209.523	221.874	226.776	119.843	262.371	238.740	-26.995	182.426	-88.719	108.664	-84.867	-80.867	-67.343	207.148	0.00013366	0.00028883	0.00012078	1378.2	3.5401e-06	7.3971e-06	1372	370.56	1.5777e-06	2.3493e-06	424.86	139.76	121.95	42.288	3.9739e-06	52.23	0.00052586	0.00054374	0.00015401	1382.7	6.0494e-06	5.9736e-06	1380.4	374.56	5.9707e-06	5.8883e-06	428.49	143	124.36	42.958	5.9651e-06	53.217	226.817	-29.045	-12.187	-79.444	65.804	76.137	-79.263	-74.933	-5.326	16.279	-75.401	-70.966	-70.277	-65.915	109.725	-66.453	-8191	255	
1369.155	1	1	0	0	0.17949	0.14972	0.12177	0.1279	0.12909	0.16436	0.24061	0.28849	0.25568	0.23423	0.20527	0.21566	0.29079	0.10868	0.10705	0.15991	-3.3417	-3.0062	-3.0708	-3.7604	-2.9396	-3.65	-3.5375	-3.2917	-3.7	-3.1188	-3.4646	-3.8354	-2.7542	-3.6833	-3.5854	-2.9729	113.602	196.975	229.140	209.076	-4.605	130.887	195.982	204.089	-91.672	206.340	-92.767	212.430	-81.993	153.143	43.161	64.563	0.00017605	0.00059308	4.1862e-05	1376	3.5864e-06	5.4749e-06	1367.9	370.35	2.6068e-06	6.1109e-06	423.79	139.09	122.13	42.016	1.615e-06	52.117	0.00051971	0.00053641	0.00015084	1381.9	6.0185e-06	5.8989e-06	1378.8	374.29	5.9463e-06	5.9367e-06	427.38	142.97	124.49	42.888	5.9494e-06	53.074	233.627	-19.776	-62.726	-79.424	64.664	62.604	-79.272	-74.861	31.177	65.429	-75.378	-70.620	-70.682	-65.772	39.926	-66.667	-8191	255	
1369.253	1	1	0	0	0.29196	0.30964	0.20017	0.17135	0.22559	0.24508	0.36042	0.45941	0.11212	0.017847	0.12718	0.066282	0.067498	0.056651	0.30575	0.069186	-3.1646	-3.0938	-3.3021	-3.6854	-3.0229	-3.4146	-3.5938	-2.8729	-3.6312	-3.1896	-3.075	-3.9083	-2.9146	-3.4333	-3.4125	-3.0083	169.498	33.872	192.790	206.962	-57.047	7.228	193.480	232.172	-33.638	159.578	-78.127	-19.274	-67.267	180.014	-12.581	31.910	0.00013273	0.00063006	9.9312e-05	1373.2	3.3727e-06	4.7877e-06	1370.2	370.35	1.0582e-06	3.9575e-06	424.49	138.93	121.95	42.231	1.0759e-06	52.342	0.00051238	0.00053657	0.0001513	1380.1	5.9014e-06	5.9577e-06	1379.4	374.07	5.8989e-06	5.7963e-06	427.96	142.92	124.26	43.03	5.8845e-06	53.204	218.893	18.099	-60.406	-79.751	75.868	46.976	-79.305	-74.845	31.993	106.371	-75.523	-71.204	-70.731	-66.072	4.487	-66.788	-8191	255	
1369.372	1	1	0	0	0.12411	0.14232	0.023749	0.11254	0.042128	0.23903	0.11697	0.10518	0.22534	0.079437	0.155	0.17872	0.11595	0.25995	0.073527	0.23142	-3.3271	-3.1937	-2.975	-3.9896	-2.8708	-3.2729	-3.8438	-2.9813	-3.475	-3.5	-3.2812	-3.65	-3.0583	-3.4062	-3.5479	-3.0167	39.299	202.838	131.413	214.197	204.504	125.458	-74.202	190.862	180.569	2.709	156.876	183.789	188.711	-63.912	-27.262	-59.860	0.00014168	0.00076439	0.0001439	1378.1	2.3918e-06	3.3067e-06	1369.1	368.94	2.2794e-06	4.2406e-06	422.66	138.54	122.31	42.305	1.7896e-06	52.177	0.00051155	0.00054187	0.00015274	1381.7	5.9111e-06	5.9405e-06	1379.8	374.05	5.8556e-06	5.887e-06	427.14	142.66	124.44	42.941	5.8282e-06	53.166	214.444	19.539	30.917	-79.966	26.115	21.204	-79.598	-75.134	27.006	77.673	-75.605	-71.232	-70.647	-66.156	69.746	-67.016	-8191	255	
1369.468	1	1	0	0	0.16978	0.24201	0.25689	0.29608	0.25169	0.19139	0.22927	0.22984	0.2688	0.14593	0.12108	0.14509	0.23103	0.14082	0.15929	0.19579	-3.2938	-3.2313	-3.0167	-3.8063	-3.0896	-3.2354	-3.7833	-2.9896	-3.5875	-3.4833	-2.9396	-3.7438	-3.2583	-3.2438	-3.6396	-2.8333	-44.708	74.775	125.475	196.690	122.949	265.433	194.205	197.430	126.999	8.340	154.051	-35.413	218.368	-75.135	230.693	169.669	0.00016674	0.00038633	0.00016497	1375.2	2.7036e-06	2.6176e-06	1370.5	368.73	3.1511e-06	7.9729e-06	424.14	138.69	121.73	42.316	5.9832e-06	52.279	0.00050868	0.00053345	0.00015071	1382.7	5.8631e-06	5.9364e-06	1379.1	373.39	5.8642e-06	5.9326e-06	427.05	142.96	124.19	43.019	5.8677e-06	53.113	237.175	22.787	-20.289	-79.808	63.793	86.873	-79.445	-75.279	55.971	20.623	-75.319	-70.989	-70.721	-66.199	79.448	-66.999	-8191	255	
1369.564	1	1	0	0	0.084303	0.10698	0.12428	0.18578	0.27449	0.26124	0.04904	0.31598	0.074064	0.19634	0.15742	0.21693	0.089657	0.022393	0.3217	0.051679	-2.9917	-3.4458	-2.7771	-3.6917	-3.1562	-3.0771	-3.8063	-2.7562	-3.2833	-3.6646	-2.8167	-3.5187	-3.4313	-2.9396	-3.7667	-2.9583	133.576	37.426	-82.370	-65.660	213.314	-39.321	114.572	230.020	-82.624	66.864	181.578	-58.004	55.540	197.396	14.045	115.671	0.00014186	0.00056475	0.00016646	1374.5	3.1148e-06	4.9716e-06	1376	368.59	2.8908e-06	2.9847e-06	421.44	139.27	122.18	42.223	2.3068e-06	52.075	0.00051809	0.00054494	0.00014861	1380.9	5.9104e-06	5.8886e-06	1379.1	374.04	5.8551e-06	5.8683e-06	426.46	142.93	124.49	42.969	5.977e-06	53.141	242.839	-2.412	-12.422	-79.840	74.568	-18.643	-79.432	-75.161	45.235	78.386	-75.602	-71.269	-70.547	-66.014	42.931	-66.841	-8191	255	
1369.660	1	1	0	0	0.14863	0.097156	0.14155	0.15893	0.10448	0.14962	0.24917	0.10368	0.054224	0.17429	0.13439	0.085808	0.11811	0.28525	0.20229	0.04677	-2.8312	-3.7104	-2.85	-3.575	-3.2188	-3.0917	-3.8438	-3.1208	-3.1688	-3.5938	-2.9667	-3.4521	-3.4042	-2.9875	-3.7	-3.3438	193.514	53.073	112.553	253.658	152.778	125.833	253.635	54.301	258.728	85.604	-81.112	221.647	247.139	232.565	193.100	-68.143	0.00018714	0.00049088	0.00011435	1373	1.9616e-06	7.0371e-06	1369.3	368.67	2.1661e-06	4.6306e-06	423.5	138.97	121.84	42.239	3.2039e-06	52.401	0.00051675	0.00053875	0.00015054	1381.4	5.8232e-06	5.9327e-06	1378.7	373.73	5.9707e-06	5.855e-06	426.8	142.95	124.41	42.953	5.8535e-06	53.135	240.491	27.214	-76.538	-79.911	81.279	57.484	-79.580	-75.197	104.242	45.727	-75.472	-71.243	-70.525	-66.376	79.602	-66.835	-8191	255	
1369.756	1	1	0	0	0.24233	0.16583	0.13245	0.23725	0.10916	0.098946	0.23274	0.17665	0.20407	0.15532	0.13114	0.14411	0.084268	0.24135	0.097177	0.075104	-2.6937	-3.8104	-2.9313	-3.7125	-3.3937	-2.9375	-3.8958	-3.3604	-2.9667	-3.4396	-2.8979	-3.4146	-3.5625	-2.9771	-3.3708	-3.0583	151.694	-60.787	46.795	175.673	232.807	115.767	189.390	221.841	14.551	120.704	19.107	184.612	238.971	248.134	95.310	96.881	0.00016123	0.00023621	0.00022462	1374.9	2.6734e-06	1.6965e-06	1369.4	369.77	1.0916e-06	4.8527e-06	423.61	139.27	122.58	42.056	4.6554e-06	52.421	0.0005173	0.00053102	0.00014991	1381	5.9265e-06	5.8575e-06	1379.2	374.45	5.928e-06	5.8794e-06	426.79	142.85	124.53	42.882	5.8392e-06	53.169	236.830	-59.572	-5.343	-79.808	111.924	53.653	-79.780	-75.066	132.379	63.639	-75.734	-71.037	-70.417	-66.099	112.479	-66.626	-8191	255	
1369.852	1	1	0	0	0.099446	0.10115	0.24388	0.10275	0.16233	0.18989	0.1981	0.17995	0.036282	0.081138	0.12486	0.14259	0.066444	0.15354	0.27546	0.10671	-2.4896	-3.8	-3.0458	-3.3063	-3.4875	-2.9437	-3.6979	-3.5771	-3.1875	-3.6479	-3.2979	-3.3396	-3.7625	-2.925	-3.6271	-3.6875	139.608	261.044	228.117	261.195	-81.618	-8.592	229.409	229.037	-26.489	115.655	242.682	-29.566	201.854	217.271	151.147	104.359	0.00016694	0.00040293	0.0001085	1371.6	2.1942e-06	5.0586e-06	1364.3	369.29	1.7131e-06	5.7681e-06	424.93	138.96	121.66	42.319	2.0424e-06	52.231	0.00050759	0.00052736	0.00014777	1380.5	5.8045e-06	5.8188e-06	1377.8	374.01	5.8405e-06	5.8037e-06	427.52	142.82	124.44	42.987	5.8522e-06	53.205	218.248	-7.055	-10.178	-79.715	158.119	93.366	-79.670	-75.184	129.906	52.482	-75.752	-71.336	-70.602	-66.320	257.081	-66.951	-8191	255	
1369.973	1	1	0	0	0.11026	0.089372	0.056631	0.34818	0.112	0.054111	0.18928	0.12515	0.18187	0.16539	0.34956	0.066077	0.11982	0.21933	0.43358	0.10835	-2.5833	-3.8042	-3.15	-3.2417	-3.5458	-2.9396	-3.7812	-3.5625	-2.9625	-3.5979	-3.2938	-3.2625	-3.7125	-2.975	-3.3604	-3.4542	147.049	201.107	261.678	235.049	77.262	2.259	234.424	256.291	-80.097	-65.542	263.005	156.532	29.984	244.910	104.603	163.853	0.00015307	0.00083603	0.00013351	1370.3	3.8858e-06	6.9981e-06	1365.8	368.52	7.7263e-07	5.5757e-06	423.66	139	122.39	42.207	4.5189e-06	52.303	0.00051341	0.00053185	0.0001485	1379	5.8161e-06	5.8057e-06	1377.2	373.89	5.8995e-06	5.8108e-06	427.47	142.86	124.49	42.939	5.888e-06	53.114	232.216	27.518	13.417	-79.859	85.612	-2.209	-79.392	-74.946	10.143	80.531	-75.655	-70.965	-70.526	-66.087	76.194	-66.699	-8191	255	
1370.069	1	1	0	0	0.28176	0.15136	0.055221	0.19326	0.20871	0.031805	0.19242	0.25528	0.11051	0.24596	0.1177	0.18147	0.17137	0.16978	0.11882	0.096601	-2.5333	-3.4146	-3.0521	-3.0958	-3.6833	-2.8646	-3.4604	-3.6417	-2.8333	-3.6104	-3.2958	-3.1021	-3.6583	-2.8958	-3.275	-3.625	93.690	-15.377	203.980	248.363	228.713	-73.386	234.267	209.142	15.229	236.875	-86.508	233.272	207.738	-87.328	157.122	217.502	0.00017462	0.00023793	3.7509e-05	1374.8	4.0243e-06	2.2275e-06	1367.7	370.25	2.2111e-06	4.2264e-06	422.72	139.69	122.15	42.153	1.5906e-06	52.263	0.0005093	0.00053062	0.00015149	1381.1	5.8314e-06	5.7966e-06	1377.9	374.05	5.8848e-06	5.8148e-06	427.18	143.09	124.58	42.887	5.8329e-06	53.226	232.751	41.660	23.288	-80.045	64.704	53.021	-79.731	-74.970	61.743	16.149	-75.373	-71.311	-70.748	-66.435	107.485	-66.562	-8191	255	
1370.164	1	1	0	0	0.053944	0.13664	0.30211	0.088824	0.10435	0.015548	0.18055	0.29849	0.081657	0.11378	0.079781	0.082047	0.11537	0.26081	0.22056	0.18431	-2.3667	-3.5333	-3.4479	-3.0979	-3.5187	-3.0229	-3.3583	-3.8312	-3.0208	-3.2917	-3.4125	-2.9479	-3.5167	-3.1604	-3.1875	-3.7458	110.391	190.747	8.509	157.566	238.878	209.911	205.414	243.821	215.915	-83.903	150.826	220.599	266.472	247.118	196.515	179.668	0.00013114	0.00019324	0.00016353	1376	4.124e-06	6.1969e-06	1365.1	369.57	2.9978e-06	3.4825e-06	425.13	139.85	122.02	42.266	4.0169e-06	52.236	0.00051727	0.00053897	0.00014989	1381.6	5.8389e-06	5.8573e-06	1378.8	373.62	5.8677e-06	5.8648e-06	427.4	143.11	124.52	42.88	5.9351e-06	53.169	228.771	31.578	4.509	-79.666	41.608	35.187	-79.760	-74.975	116.428	31.158	-75.181	-71.164	-70.426	-66.067	75.885	-66.802	-8191	255	
1370.260	1	1	0	0	0.033773	0.065719	0.060725	0.17093	0.14156	0.27379	0.067304	0.39702	0.19785	0.12402	0.22775	0.041628	0.18202	0.13533	0.11828	0.099139	-2.525	-3.3167	-3.3417	-3.1229	-3.6354	-3.1917	-3.2417	-3.6583	-2.8396	-3.3708	-3.4604	-3.0312	-3.6708	-3.3458	-2.9562	-3.8479	-13.948	21.125	-0.317	100.246	9.502	14.652	93.801	235.978	189.798	253.499	264.643	229.565	-41.891	-31.396	97.448	59.109	0.00014487	0.00053005	0.00018083	1371.7	1.1486e-06	6.5638e-06	1371.8	368.81	4.1733e-06	7.4021e-06	422.37	139.6	121.56	42.308	4.1733e-06	52.43	0.00051422	0.00053328	0.00014853	1379.1	5.8183e-06	5.8278e-06	1379.4	373.82	5.9136e-06	5.8865e-06	426.64	142.99	124.38	42.996	5.8992e-06	53.272	219.821	-7.978	-0.119	-79.873	160.662	55.787	-79.679	-75.028	74.306	99.629	-75.367	-71.364	-70.581	-66.242	89.372	-67.116	-8191	255	
1370.380	1	1	0	0	0.10924	0.12786	0.081354	0.36086	0.1661	0.15159	0.45657	0.062907	0.15173	0.28756	0.20423	0.14545	0.29694	0.069578	0.10962	0.092855	-2.5812	-3.3146	-3.5146	-3.3208	-3.5917	-3.15	-3.2313	-3.6833	-3.0646	-3.1646	-3.6437	-2.9396	-3.4708	-3.3917	-2.9646	-3.8104	25.871	176.259	158.587	180.773	193.908	259.991	222.447	-80.359	238.307	32.320	-80.123	192.875	-81.115	-14.361	122.042	156.272	0.00011921	0.00065301	0.0001557	1373.9	3.3566e-06	5.7831e-06	1370.1	369.85	1.1573e-06	6.9884e-06	423.06	139.49	121.53	42.148	2.542e-06	52.108	0.00050986	0.00053389	0.00014927	1380.7	5.8604e-06	5.8905e-06	1379.9	373.87	5.841e-06	5.904e-06	427.36	142.84	124.29	42.886	5.9108e-06	53.1	231.934	-7.220	-27.150	-79.626	39.567	54.646	-79.503	-74.743	13.845	34.749	-75.412	-71.174	-70.569	-66.310	118.470	-66.694	-8191	255	
1370.452	1	1	0	0	0.070233	0.16267	0.12634	0.35777	0.27881	0.15608	0.1633	0.089286	0.20052	0.2745	0.20359	0.24682	0.073535	0.44626	0.06561	0.043849	-2.6479	-3.1167	-3.4917	-3.0521	-3.2229	-3.2458	-3.1813	-3.8292	-2.9479	-3.0292	-3.7917	-2.8917	-3.3937	-3.5104	-2.7667	-3.7667	266.998	100.358	243.407	234.987	214.245	224.348	120.971	-21.940	223.535	-23.741	243.979	222.104	131.134	243.612	24.336	11.983	0.00015192	0.00072598	0.00028545	1374.1	5.0462e-06	3.6516e-06	1370.5	369.51	1.5727e-06	7.4797e-06	422.75	139.28	121.77	42.377	4.6433e-06	52.364	0.00050425	0.00053189	0.00014732	1380.5	5.7773e-06	5.8262e-06	1379.9	374.38	5.7616e-06	5.8793e-06	426.86	142.83	124.38	42.95	5.9586e-06	53.15	233.146	-27.042	-16.937	-79.563	110.158	58.716	-79.706	-74.934	44.067	79.958	-75.493	-70.820	-70.559	-66.029	75.263	-66.458	-8191	255	
1370.548	1	1	0	0	0.16516	0.2385	0.20906	0.35471	0.081333	0.068795	0.27384	0.16473	0.17772	0.27969	0.22098	0.19644	0.17919	0.17993	0.14028	0.18989	-2.5812	-3.0771	-3.5687	-3.2021	-3.2125	-3.5667	-2.9062	-3.7146	-3.2167	-2.8042	-3.5812	-3.1833	-3.2125	-3.5312	-3.0187	-3.6646	-9.310	-88.466	99.390	-89.504	-57.105	238.509	220.075	262.084	82.840	162.521	217.926	179.134	-2.514	215.335	-2.988	-73.822	0.00016614	0.00086256	0.00014966	1375.2	1.5158e-06	5.9086e-06	1371.9	369.19	8.2846e-07	5.4003e-06	423.05	139.15	122.14	42.172	2.3254e-06	52.225	0.00050067	0.00053622	0.00014927	1381.3	5.8714e-06	5.8388e-06	1378.4	374.45	5.8077e-06	5.8291e-06	427.18	142.75	124.58	42.951	5.9039e-06	53.093	223.480	-27.937	-33.981	-79.558	40.678	82.971	-79.345	-74.681	28.516	62.417	-75.404	-71.089	-70.842	-66.242	16.896	-67.006	-8191	255	
1370.644	1	1	0	0	0.19327	0.22589	0.15167	0.2976	0.16593	0.061317	0.20364	0.31677	0.097497	0.1948	0.0518	0.13597	0.062416	0.23104	0.15063	0.10958	-2.8396	-3.0292	-3.6292	-3.1271	-3.1208	-3.5375	-2.7292	-3.6562	-3.35	-2.6875	-3.6729	-3.0458	-3.2	-3.6833	-2.7146	-3.5062	263.921	24.876	50.331	241.400	-88.345	238.317	-79.523	187.237	-79.991	17.699	-54.472	-54.801	67.125	219.607	134.631	225.894	0.00011719	0.00021266	0.00019084	1377.6	1.0217e-06	2.284e-06	1370.5	369.53	2.3283e-06	2.1469e-06	425.08	139.86	121.71	42.277	6.4681e-06	52.193	0.00051717	0.00053835	0.00015129	1381.9	5.9163e-06	5.8385e-06	1380.8	373.85	5.8796e-06	6.0035e-06	427.94	142.86	124.13	42.962	5.9226e-06	53.188	236.734	-44.575	6.640	-79.941	96.768	93.134	-79.661	-75.011	59.797	85.446	-75.398	-71.027	-70.653	-66.153	70.717	-67.039	-8191	255	
1370.765	1	1	0	0	0.081035	0.15159	0.058152	0.035068	0.43413	0.026553	0.25393	0.3191	0.13532	0.15383	0.2718	0.28027	0.094693	0.047375	0.20863	0.11361	-2.9042	-2.7229	-3.7417	-3.2708	-3.0354	-3.4771	-3.0792	-3.4146	-3.275	-2.9458	-3.65	-3.2188	-3.175	-3.6917	-2.7313	-3.1437	6.781	110.389	169.267	-73.879	186.437	-58.536	262.503	180.846	133.489	148.550	-69.745	-48.625	168.664	2.179	42.681	-62.878	0.00016087	0.00069579	0.00011124	1378.8	3.326e-06	3.7867e-06	1369.7	369.16	3.9073e-07	4.7865e-06	424.08	138.98	121.96	42.27	2.5424e-06	52.268	0.00051579	0.00054636	0.0001493	1382.2	5.9316e-06	5.8655e-06	1378.2	373.82	5.8468e-06	5.8498e-06	427.12	142.67	124.42	42.953	5.8788e-06	53.191	215.601	-26.928	-8.237	-79.511	71.763	37.535	-79.375	-75.015	112.747	56.808	-75.515	-71.142	-70.583	-65.747	92.694	-66.705	-8191	255	
1370.861	1	1	0	0	0.13648	0.19459	0.14047	0.10245	0.076225	0.048056	0.24037	0.24008	0.048346	0.024449	0.057368	0.078047	0.28748	0.33815	0.21913	0.12867	-3.0354	-2.7083	-3.4167	-3.4229	-2.7562	-3.6646	-3.1271	-3.2938	-3.4646	-2.8021	-3.6458	-3.3167	-3.0083	-3.7375	-2.8979	-3.3167	37.538	147.385	141.244	-55.451	161.148	-76.314	215.923	182.969	34.780	78.250	238.241	64.231	-85.347	-92.640	147.563	179.831	0.00018687	0.00065778	0.00017007	1377.3	2.6579e-06	7.6415e-06	1369.3	368.35	3.4073e-06	4.8024e-06	421.41	139.36	121.71	42.262	3.5666e-06	52.335	0.00050623	0.00054002	0.0001495	1381.8	5.9239e-06	5.781e-06	1376.9	374.17	5.8257e-06	5.7688e-06	426.71	142.73	124.32	42.959	5.7758e-06	53.185	227.670	-27.529	-24.804	-79.782	31.257	74.595	-79.454	-74.765	38.562	58.120	-75.304	-71.293	-70.572	-66.278	98.306	-66.579	-8191	255	
1370.957	1	1	0	0	0.063074	0.064445	0.28678	0.021651	0.022918	0.057994	0.28099	0.14949	0.17669	0.24049	0.36596	0.098733	0.099443	0.13795	0.18042	0.27137	-3.1854	-2.8729	-3.4437	-3.4583	-2.7604	-3.5354	-3.2792	-3.1229	-3.6792	-3.0625	-3.4333	-3.5021	-3.0479	-3.6625	-3.0542	-3.0875	-68.267	53.716	265.895	173.118	106.824	246.584	174.079	-72.845	207.579	108.383	-80.673	126.513	-55.011	150.280	93.429	194.356	0.00011587	0.00045806	0.0001549	1378.4	1.183e-06	3.674e-06	1369.6	368.91	2.1842e-06	3.1251e-06	423.49	139.38	121.88	42.285	7.2629e-07	52.472	0.00050906	0.00052955	0.00014791	1381.7	5.8769e-06	5.7868e-06	1378.9	373.87	5.7948e-06	5.7886e-06	427.29	142.96	124.41	42.881	5.7605e-06	53.155	218.493	-28.882	30.664	-79.751	127.368	55.084	-79.530	-74.857	34.938	52.746	-75.281	-71.417	-70.687	-66.091	54.408	-67.072	-8191	255	
1371.053	1	1	0	0	0.13569	0.14767	0.15179	0.0086571	0.019725	0.21239	0.21525	0.092413	0.11245	0.057951	0.28462	0.13031	0.0951	0.17624	0.19678	0.20855	-3.3208	-2.8646	-3.0854	-3.675	-2.7521	-3.6312	-3.3604	-3.0958	-3.6042	-2.9437	-3.4417	-3.5771	-3.2083	-3.7188	-3.2687	-2.9646	64.994	245.674	-42.294	219.885	40.382	112.395	137.582	-11.874	-86.526	184.075	206.924	132.110	239.207	-10.051	170.226	194.186	0.00013375	0.00061765	0.00013097	1375.8	3.4309e-06	4.1099e-06	1364.3	368.45	2.1975e-06	8.5404e-06	423.31	139.7	121.99	42.081	6.8305e-06	52.548	0.00050035	0.00053491	0.00014857	1380.7	5.8473e-06	5.8019e-06	1378	373.66	5.7808e-06	5.8489e-06	427.02	142.94	124.32	42.89	5.7977e-06	53.155	232.265	-47.826	10.710	-79.583	93.618	53.156	-79.713	-74.942	-27.379	10.765	-75.483	-70.998	-70.740	-66.136	16.951	-66.900	-8191	255	
1371.148	1	1	0	0	0.12909	0.029604	0.27231	0.06992	0.05382	0.050552	0.2382	0.16162	0.046198	0.17268	0.13618	0.071044	0.17649	0.16057	0.21404	0.15893	-3.375	-2.8417	-3.0083	-3.6312	-2.9562	-3.3958	-3.5687	-3.1458	-3.4938	-3.0854	-3.2479	-3.6083	-3.0292	-3.4229	-3.3438	-3.1354	150.973	172.565	214.344	-59.869	-40.897	90.218	184.097	-69.085	228.238	4.745	-64.528	190.066	184.805	239.176	172.335	72.407	0.00014662	0.00055919	0.00021105	1380.9	1.1084e-06	3.441e-06	1374.4	369.86	3.1268e-06	3.3672e-06	422.62	140.13	122.2	42.242	2.7053e-06	52.199	0.0005024	0.00052766	0.00014694	1382.6	5.8268e-06	5.8438e-06	1378.9	374.25	5.695e-06	5.7361e-06	426.87	143.04	124.43	42.912	5.7023e-06	53.041	225.695	11.372	2.933	-79.949	-9.264	66.616	-79.539	-74.884	50.230	7.423	-75.813	-71.078	-70.757	-66.281	132.555	-67.052	-8191	255	
1371.244	1	1	0	0	0.050151	0.34625	0.27378	0.2413	0.085408	0.058121	0.090239	0.26341	0.21247	0.064862	0.21197	0.26663	0.10781	0.34389	0.068582	0.10668	-3.3688	-3.0875	-3.2188	-3.7938	-2.8312	-3.4708	-3.6979	-2.8208	-3.75	-3.2062	-3.1771	-3.8333	-2.9938	-3.4792	-3.4958	-2.9375	32.532	13.143	256.027	-85.791	76.111	143.889	168.966	-76.048	99.559	215.022	201.597	28.318	-31.797	255.680	-74.262	225.297	0.00015081	0.00042279	6.5601e-05	1379.5	3.3763e-06	4.0064e-06	1370.9	368.82	3.401e-06	5.3699e-06	424.04	140.04	121.62	42.343	4.8105e-06	52.165	0.00050533	0.00052538	0.00014683	1382.2	5.7549e-06	5.7569e-06	1379.1	373.96	5.7068e-06	5.7e-06	426.92	142.93	124.05	42.96	5.7331e-06	53.105	235.068	-12.190	-1.226	-79.619	44.283	96.566	-79.832	-75.323	-21.988	62.067	-75.487	-71.032	-70.599	-66.289	77.349	-66.770	-8191	255	
1371.340	1	1	0	0	0.21492	0.15621	0.15163	0.22014	0.029799	0.09331	0.26948	0.26043	0.076594	0.044948	0.19569	0.19748	0.34709	0.071084	0.090985	0.086402	-3.2958	-3.2375	-2.9625	-3.8375	-2.6771	-3.2604	-3.7354	-2.6625	-3.7083	-3.3542	-2.8979	-3.7729	-3.0896	-3.3708	-3.6083	-2.8896	136.641	7.775	-10.057	252.781	234.094	57.188	215.887	253.413	102.387	225.034	139.502	191.311	247.039	38.479	-56.918	-41.400	0.00013868	0.00046761	8.8951e-05	1373.1	3.2706e-06	4.3326e-06	1367.7	368.47	3.0573e-06	6.0353e-06	421.17	139.26	122.29	42.083	2.2041e-06	52.1	0.00050334	0.00051861	0.00014649	1378.6	5.7673e-06	5.7087e-06	1375.8	373.69	5.7569e-06	5.7224e-06	427.02	142.81	124.44	42.921	5.6414e-06	53.126	237.685	25.294	18.427	-79.691	58.674	78.158	-79.532	-75.066	50.355	48.346	-75.587	-71.363	-70.674	-66.164	76.395	-66.583	-8191	255	
1371.461	1	1	0	0	0.21688	0.10976	0.42058	0.15888	0.08236	0.22373	0.15937	0.28245	0.22341	0.17943	0.22465	0.17911	0.15	0.083893	0.14172	0.22217	-3.1437	-3.3312	-2.7104	-3.9021	-2.9646	-3.175	-3.8583	-3.0542	-3.4708	-3.6604	-2.8042	-3.7938	-3.4146	-3.0896	-3.6646	-3.0333	241.290	51.496	-8.299	225.724	-21.106	-5.051	149.197	231.382	162.939	-12.590	242.244	51.327	255.690	167.112	203.455	197.426	0.00019833	0.00051738	0.00015025	1371.4	7.4858e-07	4.28e-06	1364.9	370.03	1.6488e-06	4.7611e-06	422.36	139.67	122.14	42.133	3.0211e-06	52.105	0.00050098	0.00051221	0.00014538	1377.9	5.7097e-06	5.698e-06	1376.4	373.95	5.7125e-06	5.6206e-06	426.97	142.92	124.34	42.877	5.6583e-06	53.065	223.151	17.032	27.914	-79.895	256.116	66.504	-79.344	-74.855	-1.154	42.486	-75.228	-71.186	-70.582	-66.143	70.748	-66.290	-8191	255	
1371.557	1	1	0	0	0.19199	0.070889	0.11966	0.096792	0.16911	0.098806	0.15014	0.27101	0.034399	0.050208	0.16016	0.17952	0.12401	0.28434	0.29003	0.12275	-2.8312	-3.4771	-2.9771	-3.7562	-3.3042	-2.8667	-3.9229	-3.0417	-3.3292	-3.4646	-2.9354	-3.7604	-3.4583	-2.925	-3.6562	-3.1958	194.253	50.780	92.595	240.218	156.543	165.741	94.901	171.694	-50.320	134.863	206.902	251.009	263.679	-40.995	180.796	167.827	0.00015299	0.0006684	0.00013688	1378.7	1.6965e-06	5.9763e-06	1366.7	369.09	5.0876e-07	3.6584e-06	422.62	138.78	121.84	42.23	4.7756e-06	52.117	0.00050185	0.00051767	0.00014353	1379.5	5.6825e-06	5.7104e-06	1375.2	373.22	5.6921e-06	5.6863e-06	426.37	142.64	124.11	42.826	5.573e-06	53.096	224.537	8.486	25.816	-79.922	26.484	66.490	-79.169	-74.713	61.644	7.498	-75.057	-70.730	-70.477	-65.841	66.198	-66.730	-8191	255	
1371.653	1	1	0	0	0.089797	0.064924	0.066415	0.32521	0.23231	0.094801	0.35069	0.16096	0.065836	0.046616	0.20849	0.086086	0.2066	0.19408	0.25188	0.1149	-3.0208	-3.4188	-2.9333	-3.7146	-3.2875	-2.8521	-4.0021	-3.3292	-3.1208	-3.6813	-3.0187	-3.2917	-3.5646	-2.925	-3.5417	-3.2854	16.611	55.320	222.893	228.231	101.580	169.350	33.152	239.835	-17.414	181.202	158.240	221.091	151.803	-85.726	123.425	198.694	0.00016192	9.4954e-05	7.4612e-05	1370.5	3.3127e-06	3.7293e-06	1370.8	369.25	7.821e-07	4.1031e-06	423.13	139.36	122.17	42.279	5.2536e-06	52.305	0.00049751	0.00051183	0.00014339	1378.5	5.6791e-06	5.6855e-06	1376.2	373.04	5.6801e-06	5.6617e-06	426.17	142.91	124.23	42.877	5.702e-06	53.119	227.489	-80.677	26.889	-79.667	57.506	23.672	-79.417	-74.968	180.535	53.864	-75.284	-71.097	-70.745	-66.101	26.240	-66.583	-8191	255	
1371.749	1	1	0	0	0.22655	0.16321	0.12161	0.18368	0.17083	0.2213	0.28081	0.23819	0.11913	0.033933	0.15189	0.26807	0.14726	0.14394	0.10339	0.099975	-2.8063	-3.725	-3.0542	-3.4833	-3.2896	-2.925	-3.8104	-3.3521	-3.0021	-3.7521	-2.9542	-3.2979	-3.5729	-3.0583	-3.625	-3.3438	201.980	-64.612	16.604	233.265	-15.217	8.523	151.740	167.317	4.382	190.290	185.794	261.770	145.676	225.759	40.085	64.557	0.0001449	0.00056957	8.4197e-05	1374.8	3.4738e-06	5.3519e-06	1366.1	368.81	2.0027e-06	5.1492e-06	423.87	139.03	122.37	41.924	3.1659e-06	52.406	0.00050263	0.00051988	0.0001449	1378.4	5.6791e-06	5.7033e-06	1376.2	373.35	5.7469e-06	5.671e-06	427.11	142.58	124.35	42.8	5.6903e-06	53.036	211.649	-0.642	36.135	-79.800	85.954	54.921	-79.480	-74.838	-18.714	38.070	-75.596	-71.298	-70.287	-65.621	94.280	-66.151	-8191	255	
1371.845	1	1	0	0	0.20341	0.2464	0.13552	0.27678	0.091298	0.13228	0.29575	0.35832	0.068478	0.19051	0.20035	0.15808	0.29534	0.17833	0.07792	0.12122	-2.6375	-3.625	-3.1854	-3.4938	-3.4896	-2.9521	-3.8792	-3.5062	-3.0646	-3.7792	-3.2417	-3.2021	-3.65	-2.9458	-3.6208	-3.3563	164.206	186.923	222.392	218.054	57.004	225.842	240.872	189.976	259.198	51.717	106.849	-15.831	-58.897	-53.031	76.441	-74.946	9.6065e-05	0.00033427	0.00011689	1375	2.7786e-06	3.1243e-06	1369.2	369.65	3.1768e-06	3.8478e-06	421.66	138.93	122.4	42.1	2.6217e-06	52.032	0.000497	0.00051552	0.00014429	1377.1	5.6944e-06	5.7007e-06	1375.2	373.18	5.7424e-06	5.6412e-06	426.17	142.59	124.19	42.921	5.6493e-06	52.973	233.220	-50.360	-18.492	-79.417	42.709	69.064	-79.223	-74.562	59.932	42.977	-75.114	-70.659	-70.415	-65.871	82.888	-66.810	-8191	255	
1371.941	1	1	0	0	0.16732	0.076925	0.102	0.15289	0.17127	0.19879	0.17228	0.26714	0.046066	0.19454	0.038341	0.25189	0.050508	0.16274	0.22522	0.21896	-2.4646	-3.6375	-3.2104	-3.1125	-3.3688	-2.9896	-3.7375	-3.5563	-2.7708	-3.8396	-3.3583	-3.0604	-3.6771	-3.0646	-3.3396	-3.6375	148.697	238.045	176.760	262.227	4.243	-41.546	236.738	-92.545	-64.708	191.197	181.213	178.119	116.672	241.318	-85.110	227.265	0.00016502	0.00057579	3.0613e-05	1375	1.1998e-06	6.6018e-06	1365.9	368.5	2.06e-06	3.5821e-06	422.48	139.87	121.75	42.179	4.7737e-06	52.351	0.00049741	0.00051954	0.00014612	1376.7	5.7303e-06	5.7128e-06	1374.8	372.87	5.7096e-06	5.652e-06	426.5	142.68	124.15	42.906	5.6175e-06	53.062	222.678	24.272	66.533	-80.057	17.580	36.650	-79.486	-74.816	41.586	54.924	-75.524	-70.926	-70.567	-66.249	61.893	-66.767	-8191	255	
1372.062	1	1	0	0	0.10496	0.16772	0.075475	0.36732	0.16009	0.10803	0.16436	0.14333	0.20471	0.21203	0.21513	0.081552	0.11478	0.12024	0.14379	0.13812	-2.4292	-3.6188	-3.3542	-3.2062	-3.6312	-2.85	-3.4562	-3.6646	-2.8458	-3.6375	-3.3854	-2.9979	-3.7313	-3.125	-3.3375	-3.6562	29.539	155.814	209.711	225.262	16.998	-42.851	-66.408	245.180	159.887	-59.197	-29.445	-62.361	167.054	-24.123	193.116	-82.701	0.00013481	0.00051644	0.00021515	1371.2	2.6673e-06	3.9793e-06	1365.4	367.65	2.5872e-06	6.6577e-06	422.59	139.38	121.73	42.225	3.4295e-06	52.185	0.00049097	0.0005055	0.00014343	1376.5	5.6424e-06	5.671e-06	1373.5	372.52	5.768e-06	5.5945e-06	426.03	142.65	124.17	42.845	5.6334e-06	53.056	219.646	3.422	-17.845	-79.869	-14.815	74.796	-79.544	-74.924	-20.322	45.063	-75.367	-71.048	-70.643	-66.330	70.117	-66.819	-8191	255	
1372.157	1	1	0	0	0.25301	0.23486	0.28019	0.24495	0.19238	0.071195	0.38483	0.25823	0.19058	0.14269	0.3607	0.14065	0.30041	0.080052	0.21116	0.22468	-2.4875	-3.4375	-3.2708	-3.0833	-3.5604	-3.1896	-3.3229	-3.5583	-2.9125	-3.5542	-3.3542	-2.875	-3.8333	-3.0917	-3.0104	-3.8354	202.384	186.579	-19.375	224.701	-70.755	-86.142	247.356	259.285	-74.483	203.491	250.982	185.976	202.836	167.394	203.509	176.031	0.00015328	0.00043608	0.00011933	1367.4	1.5066e-06	4.2542e-06	1364.8	368.71	1.3376e-06	7.6322e-06	422.77	139.38	121.77	41.886	5.0411e-06	52.195	0.00049645	0.00051028	0.00014229	1373.4	5.6225e-06	5.5876e-06	1372.2	372.87	5.6128e-06	5.6436e-06	426.4	142.48	124.18	42.724	5.6971e-06	53.026	232.481	28.776	-25.657	-79.835	109.325	42.778	-79.670	-74.917	171.932	73.288	-75.498	-71.201	-70.535	-66.306	42.991	-66.640	-8191	255	
1372.253	1	1	0	0	0.15268	0.035916	0.11164	0.10556	0.115	0.15243	0.16151	0.12151	0.047427	0.22038	0.10841	0.17279	0.19535	0.16238	0.10338	0.24697	-2.475	-3.3125	-3.4625	-2.8521	-3.7062	-3.3333	-3.1646	-3.7188	-2.9917	-3.3146	-3.5729	-2.9688	-3.8146	-3.3458	-3.025	-3.8708	215.099	49.316	219.759	-9.889	105.840	89.193	190.102	170.750	17.667	100.697	97.928	217.155	-64.429	263.307	58.247	207.943	0.00013814	0.00061561	0.00020128	1372.5	4.1752e-06	4.4087e-06	1362.3	367.88	1.5117e-06	6.8631e-06	420.02	139.42	121.49	41.941	5.5966e-06	52.284	0.00048946	0.00050499	0.00014211	1375.3	5.5519e-06	5.6056e-06	1372.6	372.77	5.626e-06	5.5809e-06	425.12	142.55	124.1	42.781	5.5863e-06	53.019	219.045	-2.922	-3.985	-79.693	2.092	99.001	-79.861	-75.032	100.983	42.149	-74.980	-70.989	-70.453	-65.952	57.530	-66.624	-8191	255	
1372.324	1	1	0	0	0.16209	0.28498	0.30341	0.62927	0.22639	0.15001	0.22291	0.01598	0.18236	0.16853	0.015926	0.28033	0.13773	0.1197	0.14645	0.054118	-2.6521	-3.0271	-3.5312	-2.9771	-3.4562	-3.4458	-3.1167	-3.8354	-3.0687	-3.1479	-3.5875	-3.1042	-3.4437	-3.5729	-2.9208	-3.6188	22.648	-72.156	-69.762	233.988	-22.902	16.514	251.378	110.452	-67.597	205.054	155.465	82.284	37.602	-54.102	26.209	-71.129	0.00013542	0.00052674	0.0001328	1363.8	9.8899e-07	4.203e-06	1361.4	369.44	1.2343e-06	4.9509e-06	422.74	139.05	122.01	42.241	1.8829e-06	52.1	0.00049155	0.00052035	0.00014299	1372.9	5.5443e-06	5.5531e-06	1372.5	372.86	5.6272e-06	5.6685e-06	425.9	142.66	124.09	42.924	5.6174e-06	53.01	233.048	36.437	15.092	-79.555	193.211	52.052	-79.273	-74.746	74.431	100.308	-75.140	-70.972	-70.506	-65.755	126.920	-66.439	-8191	255	
1372.422	1	1	0	0	0.36494	0.30539	0.01088	0.21611	0.07142	0.1464	0.18329	0.14792	0.017671	0.1974	0.17828	0.27733	0.17945	0.19915	0.071392	0.34117	-2.775	-3.1063	-3.4875	-2.9771	-3.3125	-3.3854	-3.1271	-3.8812	-2.9604	-3.0667	-3.8438	-3.1771	-3.5604	-3.4771	-2.8104	-3.7083	216.618	19.512	-39.099	220.304	-24.630	106.772	-90.532	186.323	36.218	-28.905	-60.178	206.766	162.469	-83.654	120.980	209.673	0.00019894	0.00028255	8.8076e-05	1368.9	1.0863e-06	8.5733e-06	1362.4	369.16	2.471e-06	1.8124e-06	422.24	138.64	121.44	42.349	4.4278e-06	51.995	0.00048844	0.00050571	0.00014014	1373	5.5715e-06	5.6401e-06	1370.3	373.01	5.5973e-06	5.6796e-06	425.67	142.47	123.9	42.827	5.6156e-06	53.001	237.999	-15.303	-31.004	-79.538	114.621	37.070	-79.443	-74.831	22.010	246.510	-75.285	-71.050	-70.539	-65.854	97.200	-66.303	-8191	255	
1372.541	1	1	0	0	0.16674	0.13436	0.33667	0.12604	0.13778	0.14408	0.16882	0.22908	0.1528	0.09838	0.14841	0.28562	0.10463	0.11908	0.19756	0.26642	-2.9229	-2.9729	-3.5229	-3.1917	-3.4958	-3.4813	-3.0521	-3.6271	-3.4188	-2.9021	-3.7104	-3.1625	-3.3937	-3.6479	-2.6708	-3.5687	164.774	-57.969	229.150	204.055	-31.168	241.983	266.034	266.913	-77.724	-10.648	164.521	129.617	-59.522	-86.452	244.200	244.990	0.00016795	0.00049154	0.00017312	1372.4	2.5551e-06	3.7256e-06	1361.4	367.7	5.01e-06	4.4284e-06	422.55	138.98	121.48	42.056	3.0846e-06	52.188	0.000486	0.00051217	0.00014084	1373	5.5869e-06	5.4819e-06	1369.5	372.25	5.5396e-06	5.5774e-06	426.23	142.23	123.84	42.748	5.5821e-06	52.957	225.076	8.400	45.573	-79.712	60.623	72.242	-79.332	-74.542	26.680	78.800	-75.116	-70.626	-70.390	-65.835	103.562	-66.720	-8191	255	
1372.637	1	1	0	0	0.17574	0.162	0.036692	0.5101	0.17552	0.13244	0.1867	0.12612	0.06216	0.20195	0.23852	0.27713	0.0097088	0.25377	0.18927	0.34702	-3.0417	-2.7979	-3.6312	-2.8	-3.1271	-3.4708	-3.0896	-3.6083	-3.3333	-3.0521	-3.8937	-3.0729	-3.1375	-3.8812	-2.9854	-3.2708	85.936	-75.511	111.290	218.364	80.728	32.324	143.822	168.043	263.830	227.615	-60.597	16.428	20.018	257.120	243.437	204.461	0.00015676	0.0007799	7.8805e-05	1365	3.0185e-06	4.2636e-06	1363	368.53	2.0803e-06	6.6148e-06	422.68	139.25	121.5	42.092	3.965e-06	52.218	0.00048423	0.00050774	0.00013929	1372.2	5.5593e-06	5.5759e-06	1369.5	372.38	5.468e-06	5.5345e-06	425.55	142.49	123.98	42.773	5.5335e-06	53.016	231.829	2.606	-0.354	-79.700	108.373	51.554	-79.634	-74.939	28.948	46.577	-75.516	-71.042	-70.846	-66.266	60.873	-66.760	-8191	255	
1372.733	1	1	0	0	0.071056	0.082755	0.14657	0.27234	0.18063	0.15714	0.23312	0.26375	0.081761	0.086603	0.16288	0.1303	0.22022	0.031642	0.14293	0.21597	-3.0604	-2.9396	-3.6958	-3.1937	-2.9146	-3.7771	-3.0125	-3.2396	-3.7021	-2.925	-3.5917	-3.2188	-3.1333	-3.7354	-2.7896	-3.3583	229.235	-83.754	122.922	-83.615	-56.879	-9.870	220.558	193.282	143.284	91.929	177.756	138.248	-54.146	99.599	172.782	80.288	0.00013463	0.0004038	0.00018892	1368	1.1702e-06	4.0216e-06	1360.4	366.91	1.3411e-07	4.4302e-06	420.8	139.14	121.85	41.99	3.1086e-06	52.064	0.00047982	0.00050534	0.00013949	1370.6	5.4908e-06	5.4836e-06	1369.1	371.85	5.5156e-06	5.4578e-06	425.11	142.56	124.05	42.809	5.4745e-06	52.988	217.444	1.174	17.977	-79.894	80.234	32.977	-79.525	-74.947	106.305	31.177	-75.415	-70.774	-70.727	-65.978	80.965	-66.709	-8191	255	
1372.854	1	1	0	0	0.048211	0.083385	0.059785	0.25064	0.20067	0.086383	0.21855	0.25307	0.11395	0.16459	0.15724	0.17556	0.095662	0.1333	0.11248	0.17127	-3.4583	-2.6979	-3.5271	-3.5833	-3	-3.5333	-3.2354	-3.2458	-3.5042	-2.9771	-3.6625	-3.4333	-3.1292	-3.8167	-2.8542	-3.1292	180.775	258.969	162.572	171.585	-29.329	34.373	138.481	262.889	242.391	63.640	-6.600	-72.779	69.374	-37.571	134.343	62.409	0.00022181	0.00052275	0.00010238	1369.3	2.3133e-06	3.7195e-07	1362.4	367.75	4.085e-06	4.2542e-06	421.48	139.29	121.71	42.054	7.6171e-07	52.059	0.00047732	0.00050744	0.00014258	1372.4	5.5793e-06	5.5037e-06	1369.6	372.35	5.5673e-06	5.5416e-06	425.55	142.32	123.9	42.756	5.5945e-06	52.967	231.483	-27.223	56.672	-79.815	102.037	135.988	-79.488	-75.010	42.794	-6.658	-75.451	-70.674	-70.542	-66.253	21.877	-66.843	-8191	255	
1372.926	1	1	0	0	0.094476	0.18384	0.14591	0.23757	0.14014	0.16646	0.38735	0.15449	0.22525	0.28032	0.17696	0.20036	0.25957	0.10573	0.043241	0.20134	-3.4229	-2.8187	-3.4208	-3.6	-2.8208	-3.4271	-3.2792	-3.1542	-3.7479	-2.9396	-3.475	-3.4688	-2.8542	-3.7792	-3.2979	-2.9792	104.927	216.683	160.974	231.027	-63.166	196.379	143.852	143.156	-43.914	170.068	262.806	63.885	243.668	-80.022	38.642	252.137	0.00017912	0.0006755	7.6887e-05	1368	5.1831e-06	7.185e-06	1362.6	368.16	3.4524e-06	5.388e-06	421.36	139.01	121.86	41.883	3.8129e-06	52.164	0.00048483	0.00050487	0.00014071	1373.5	5.5658e-06	5.514e-06	1370.8	372.22	5.5788e-06	5.4576e-06	425.18	142.13	124.06	42.737	5.5439e-06	52.993	229.877	-7.214	-27.701	-79.708	87.724	60.385	-79.186	-74.935	54.534	89.440	-75.620	-70.769	-70.570	-65.852	27.248	-66.257	-8191	255	
1373.022	1	1	0	0	0.02932	0.17023	0.1512	0.26577	0.10486	0.3391	0.068599	0.39476	0.26745	0.11797	0.28547	0.14735	0.12421	0.20599	0.11216	0.29688	-3.35	-3.0917	-3.4	-3.9771	-2.8646	-3.5583	-3.4479	-2.9333	-3.6625	-3.15	-3.3083	-3.8667	-2.9646	-3.4167	-3.2208	-2.925	141.107	260.063	-37.535	232.328	171.185	-9.818	200.848	247.898	210.663	224.332	232.340	251.833	125.562	198.883	181.548	222.432	9.4471e-05	0.0003575	2.5196e-05	1366.6	6.1866e-06	4.2642e-06	1359.8	369.56	9.4388e-07	3.3678e-06	424.51	138.56	121.57	42.018	5.4065e-06	52.026	0.00048763	0.00050804	0.00013944	1374.1	5.5613e-06	5.4312e-06	1369.1	373.27	5.3864e-06	5.4786e-06	426.48	142.42	124.01	42.816	5.4596e-06	52.935	224.897	27.167	6.890	-79.502	37.714	49.699	-79.288	-74.636	52.151	49.350	-75.526	-70.822	-70.672	-66.278	84.473	-66.436	-8191	255	
1373.142	1	1	0	0	0.079147	0.26394	0.1655	0.043228	0.19798	0.10514	0.21951	0.18474	0.13775	0.30856	0.10085	0.021482	0.10394	0.098275	0.058082	0.23024	-3.3563	-3.1375	-3.0333	-3.7604	-2.7104	-3.3917	-3.6021	-2.9833	-3.6188	-2.825	-3.3021	-3.6708	-2.9021	-3.2958	-3.6146	-2.9104	109.772	199.958	36.545	213.784	119.687	33.921	215.907	214.925	81.272	47.487	214.010	85.540	213.621	-68.399	-74.663	192.770	0.00019596	0.00010101	0.00014928	1371.6	1.4732e-06	8.9058e-06	1362	366.31	1.8241e-06	4.1594e-06	421.76	139.05	122.27	42.237	3.5568e-06	52.251	0.00047722	0.000498	0.00013964	1374.3	5.5407e-06	5.4778e-06	1369.7	372.57	5.4363e-06	5.4662e-06	425.64	142.42	124.28	42.841	5.4934e-06	53.049	231.559	9.401	11.142	-79.374	38.697	58.354	-78.972	-74.581	27.900	65.220	-75.281	-70.722	-70.131	-65.778	70.206	-66.491	-8191	255	
1373.237	1	1	0	0	0.20506	0.19194	0.10144	0.23978	0.13397	0.13174	0.27544	0.153	0.13313	0.14066	0.24024	0.23232	0.13208	0.26483	0.17543	0.16807	-3.3042	-3.2417	-2.9375	-3.9458	-2.7917	-3.1312	-3.7729	-2.9271	-3.6229	-3.2021	-3.0521	-3.825	-3.1104	-3.1979	-3.4062	-2.9562	227.476	2.634	13.061	243.600	265.578	29.586	239.379	256.021	-86.476	156.949	-52.519	236.674	-55.096	237.087	-81.737	-11.230	0.00015184	0.00064814	0.00018274	1369.9	1.9221e-06	1.0188e-05	1366.9	368.86	4.0876e-06	5.7471e-06	422.03	139.48	122.11	42.024	3.2022e-06	52.038	0.00047774	0.00050171	0.00013831	1374.3	5.4764e-06	5.4801e-06	1372.3	373.04	5.3981e-06	5.4966e-06	425.47	142.66	124.03	42.771	5.439e-06	52.915	224.833	24.276	-10.639	-79.573	44.631	67.407	-79.270	-74.605	5.488	27.786	-75.178	-70.794	-70.333	-66.160	60.793	-66.394	-8191	255	
1373.333	1	1	0	0	0.089458	0.19846	0.20067	0.24273	0.093425	0.24011	0.058002	0.21208	0.10217	0.27151	0.21417	0.057782	0.16975	0.035154	0.19246	0.14025	-3.1583	-3.2521	-2.9792	-3.8312	-3.1479	-3.15	-3.8	-3.0312	-3.4375	-3.3521	-3.0312	-3.7687	-3.025	-3.2417	-3.6125	-2.8458	-33.040	-14.045	243.890	228.383	38.016	257.316	235.988	207.069	112.424	-14.169	182.148	28.307	200.175	181.743	83.607	258.999	0.00016419	0.00031432	0.00018949	1366.2	3.0958e-06	5.1998e-06	1358.9	367.89	1.6305e-06	4.6796e-06	423.49	139.2	122.3	42.095	6.9032e-06	52.162	0.00047862	0.00049994	0.00013833	1374.1	5.535e-06	5.5302e-06	1369.8	372.51	5.4648e-06	5.397e-06	425.53	142.43	124.02	42.869	5.4655e-06	53.014	231.501	18.810	-11.804	-79.461	21.300	89.989	-79.160	-74.632	49.668	68.865	-75.364	-71.098	-70.158	-65.819	96.563	-66.269	-8191	255	
1373.454	1	1	0	0	0.16286	0.10017	0.11262	0.16729	0.031654	0.20813	0.191	0.17575	0.12079	0.1615	0.2249	0.17915	0.076705	0.28131	0.096073	0.21236	-3.0187	-3.5146	-2.7833	-3.7438	-3.2792	-2.9979	-3.7083	-2.9104	-3.1229	-3.3021	-2.9771	-3.6667	-3.075	-3.0729	-3.6958	-2.8625	98.464	202.230	14.605	169.838	152.345	261.316	147.567	-10.628	167.395	77.511	255.592	-36.162	186.553	156.519	103.481	185.712	0.00012062	0.00063807	7.7057e-05	1368.6	2.5392e-06	5.6295e-06	1362.1	369.68	1.038e-06	5.7792e-06	422	139.8	121.51	42.014	2.0063e-06	51.884	0.00047614	0.00049738	0.0001405	1373.2	5.5057e-06	5.5351e-06	1371.2	373.2	5.5039e-06	5.4391e-06	425.41	142.92	123.8	42.755	5.4421e-06	52.948	247.974	26.732	-34.743	-79.535	108.097	46.219	-79.574	-74.747	31.959	3.853	-75.744	-71.100	-70.448	-66.460	102.283	-66.628	-8191	255	
1373.550	1	1	0	0	0.27961	0.067094	0.23388	0.15975	0.098145	0.16652	0.29939	0.33544	0.24069	0.13265	0.12014	0.15445	0.18112	0.36865	0.13505	0.10845	-2.9896	-3.0917	-2.8917	-3.6479	-3.1021	-3.1208	-3.8479	-3.2833	-3.2125	-3.7167	-2.7792	-3.4042	-3.5625	-3.0667	-3.7687	-3.1542	2.459	227.478	186.299	-41.839	229.564	135.280	177.758	180.100	-11.182	73.708	213.624	-33.830	216.893	190.539	25.489	151.764	0.00018935	0.00043501	0.00014252	1371.1	3.5574e-06	3.0967e-06	1360.3	368.57	2.0361e-07	3.6814e-06	420.16	139.4	122.31	42.103	3.1395e-06	52.294	0.00047944	0.00049316	0.00013902	1374.6	5.4949e-06	5.5057e-06	1371.3	372.43	5.5066e-06	5.3632e-06	424.9	142.58	123.94	42.832	5.4424e-06	53.1	237.415	-34.923	11.043	-79.514	91.562	57.574	-79.396	-74.864	231.349	57.267	-75.521	-71.130	-70.590	-66.074	121.249	-66.811	-8191	255	
1373.621	1	1	0	0	0.16332	0.12717	0.22736	0.24025	0.061144	0.21123	0.077111	0.10653	0.060119	0.067761	0.27426	0.097306	0.16497	0.30856	0.052231	0.24992	-2.9625	-3.6083	-2.8792	-3.7438	-3.5062	-2.8625	-3.7208	-3.1792	-3.2354	-3.6708	-3.0812	-3.4771	-3.5375	-2.9958	-3.5396	-3.2438	-82.050	208.765	100.801	-12.022	118.503	53.014	198.274	208.872	170.802	115.719	-64.912	-51.335	121.054	-35.851	191.703	164.806	0.00016549	0.00043194	0.00010453	1372	2.0105e-06	3.051e-06	1367.2	367.58	1.781e-06	5.7168e-06	422.99	138.99	121.54	42.05	3.4492e-06	51.812	0.0004858	0.0004951	0.00013951	1374.3	5.4501e-06	5.4526e-06	1372.2	372.43	5.5679e-06	5.4045e-06	425.62	142.54	123.93	42.832	5.5062e-06	52.929	226.477	-31.937	1.175	-79.701	37.660	118.320	-79.216	-74.588	95.362	23.881	-75.232	-70.981	-70.710	-66.279	42.621	-66.768	-8191	255	
1373.718	1	1	0	0	0.25302	0.16378	0.02866	0.27796	0.28084	0.23608	0.13787	0.12593	0.11628	0.07549	0.18374	0.10463	0.24246	0.27268	0.11949	0.16843	-2.5646	-3.6	-3.025	-3.3979	-3.4667	-2.9	-3.7229	-3.3042	-3.1292	-3.8125	-3.0646	-3.3583	-3.3229	-2.8229	-3.5312	-3.1521	76.682	-16.393	-89.065	161.283	225.722	139.748	216.854	258.763	213.292	42.484	195.489	227.586	117.021	185.266	248.799	102.000	0.00015234	0.00043695	0.00012411	1371.4	2.576e-06	5.5767e-06	1361.2	367.2	1.8842e-06	3.6503e-06	421.8	139	121.56	42.153	3.1851e-06	52.226	0.00048076	0.00050252	0.00013996	1375.3	5.5086e-06	5.4876e-06	1370.1	372.22	5.4645e-06	5.4727e-06	425.31	142.58	123.75	42.722	5.3997e-06	53.028	231.887	19.714	21.259	-79.363	51.753	39.307	-79.500	-74.715	34.726	39.979	-75.483	-71.022	-70.262	-65.881	77.281	-66.643	-8191	255	
1373.838	1	1	0	0	0.076332	0.34418	0.25196	0.19832	0.17583	0.13263	0.15082	0.29852	0.094865	0.14703	0.14329	0.22897	0.26933	0.062863	0.23267	0.23845	-2.4896	-3.7667	-3.0146	-3.3292	-3.4979	-2.8875	-3.5104	-3.4979	-3.0021	-3.6521	-3.1333	-3.1229	-3.6354	-3.0708	-3.375	-3.3937	242.080	241.718	238.700	241.592	-53.688	64.998	136.259	217.041	18.689	133.042	147.014	197.955	217.710	34.196	257.487	253.888	0.00010202	0.00030196	0.00023727	1374.9	4.7826e-06	7.1687e-06	1365.5	367.87	2.5865e-06	4.936e-06	422.17	139.06	121.77	42.166	3.4634e-06	52.098	0.00048146	0.00049791	0.00013975	1376.9	5.4261e-06	5.4727e-06	1374.6	372.91	5.503e-06	5.4335e-06	425.48	142.56	124.05	42.803	5.4623e-06	52.981	230.250	10.145	1.537	-79.579	72.320	65.358	-79.601	-74.876	44.221	65.228	-75.260	-70.973	-70.573	-66.138	78.755	-66.957	-8191	255	
1373.934	1	1	0	0	0.1154	0.33893	0.08997	0.20527	0.081052	0.19753	0.057406	0.12861	0.17472	0.23571	0.26946	0.18992	0.29461	0.0753	0.10539	0.15732	-2.5438	-3.6854	-3.0417	-3.2583	-3.6833	-2.5083	-3.5083	-3.5667	-2.9854	-3.5458	-3.3417	-3.0854	-3.7604	-3.0563	-3.1167	-3.4604	21.125	233.298	152.531	-49.642	211.277	-84.043	180.839	185.274	218.033	-88.642	201.771	159.704	252.586	-20.242	52.198	255.839	0.00015994	0.00044257	7.6873e-05	1370.1	4.5645e-06	4.2507e-06	1362.5	368.24	3.1521e-06	5.0492e-06	422.57	138.61	121.94	42.128	1.5316e-06	51.924	0.00048281	0.00050074	0.00013844	1374.3	5.5524e-06	5.3792e-06	1373.5	372.75	5.4406e-06	5.4364e-06	425.57	142.45	123.94	42.816	5.4676e-06	52.952	247.849	-5.364	-15.024	-79.545	76.586	56.462	-79.241	-74.896	64.457	65.038	-75.376	-71.170	-70.462	-66.086	75.918	-66.793	-8191	255	
1374.031	1	1	0	0	0.27477	0.044525	0.14949	0.10176	0.15862	0.19568	0.24069	0.24673	0.18449	0.13105	0.20518	0.26836	0.092221	0.21306	0.032364	0.02895	-2.5125	-3.5438	-3.475	-3.0917	-3.6229	-3.0896	-3.3833	-3.5938	-2.8875	-3.4188	-3.325	-3.1354	-3.6042	-3.1167	-3.1063	-3.7583	48.606	241.376	188.312	224.188	77.419	86.274	211.011	182.606	-81.216	44.606	220.154	237.213	-5.776	-20.166	173.216	38.303	0.00014569	0.00046244	5.3555e-05	1369.5	4.5384e-06	6.4627e-06	1361.9	368.64	2.9567e-06	4.3986e-06	423.46	138.9	121.95	42.066	3.6862e-06	52.055	0.00048314	0.00049674	0.0001385	1374.6	5.4686e-06	5.4946e-06	1372.5	372.42	5.5137e-06	5.4439e-06	425.58	142.61	123.92	42.794	5.4514e-06	52.988	228.822	-3.805	58.680	-80.048	71.099	66.138	-79.788	-74.880	65.793	50.679	-75.730	-71.343	-70.610	-66.114	43.030	-66.796	-8191	255	
1374.125	1	1	0	0	0.19639	0.093701	0.13965	0.019356	0.10714	0.085282	0.19389	0.09876	0.1138	0.1647	0.069978	0.14084	0.38992	0.074295	0.1525	0.17037	-2.6979	-3.4896	-3.2625	-3.1542	-3.7458	-3.0979	-3.4104	-3.8896	-2.8812	-3.2896	-3.4521	-3.0708	-3.8312	-3.3583	-3.0312	-3.8104	199.999	113.028	-18.860	-33.428	119.284	149.027	-18.970	157.665	233.286	-7.906	-64.817	191.976	260.973	-18.478	87.956	-79.155	0.00014697	0.00047353	0.00019329	1373.1	4.4901e-06	3.2968e-06	1366.7	369.37	1.9803e-06	6.0198e-06	422.88	139.47	121.51	42.131	3.9859e-06	51.997	0.00047032	0.00049195	0.00013527	1376.5	5.3965e-06	5.4325e-06	1374.5	373.07	5.416e-06	5.3942e-06	425.37	142.69	123.95	42.812	5.4296e-06	52.925	221.372	-37.169	21.084	-79.740	87.232	87.025	-79.670	-75.068	26.985	60.547	-75.525	-71.313	-70.515	-66.107	58.535	-66.871	-8191	255	
1374.221	1	1	0	0	0.16346	0.16318	0.11797	0.16397	0.11405	0.17066	0.043593	0.07628	0.044276	0.26152	0.14203	0.057414	0.20914	0.13096	0.18957	0.088801	-2.2812	-3.3375	-3.4917	-3.0125	-3.4771	-3.3063	-3.0667	-3.8937	-2.8479	-3.125	-3.6917	-2.9021	-3.7167	-3.0958	-2.9729	-3.6854	76.722	80.438	169.518	249.633	248.523	-34.957	137.955	199.030	67.822	82.983	216.919	-76.291	200.923	42.290	141.737	112.526	0.00016078	0.00079354	0.00016122	1370	2.4475e-06	3.068e-06	1363.5	367.84	1.9578e-06	4.5995e-06	422.42	138.95	121.9	42.24	4.8125e-06	51.998	0.00047357	0.00048763	0.00013748	1374	5.379e-06	5.4007e-06	1372.3	372.41	5.3681e-06	5.3734e-06	425.57	142.34	124.12	42.787	5.4163e-06	52.987	214.240	-2.064	17.910	-79.887	58.597	5.572	-79.654	-75.008	119.955	48.337	-75.480	-71.429	-70.950	-66.278	95.318	-66.809	-8191	255	
1374.317	1	1	0	0	0.17619	0.17676	0.26496	0.28318	0.082464	0.30572	0.204	0.19814	0.24321	0.14996	0.13504	0.22463	0.10135	0.11983	0.059122	0.067532	-2.6937	-3.1917	-3.475	-3.0438	-3.4	-3.3563	-3.2292	-3.7333	-2.9708	-3.0812	-3.55	-2.8896	-3.5146	-3.3979	-2.8271	-3.5	123.335	94.524	258.487	214.656	191.723	178.287	150.403	229.844	171.758	110.634	31.034	151.924	85.572	183.455	21.723	191.710	0.00015151	0.0006449	0.00026484	1369.7	5.7968e-06	5.6261e-06	1362.4	367.87	2.6242e-06	3.7442e-06	422.04	139.25	121.78	42.3	6.1048e-06	52.26	0.00047065	0.00048489	0.00013619	1373.9	5.323e-06	5.3691e-06	1371.2	372.48	5.3566e-06	5.4043e-06	425.38	142.62	123.9	42.785	5.3738e-06	52.948	237.666	3.226	-18.107	-79.588	100.985	9.402	-79.471	-74.874	-22.134	49.893	-75.483	-71.226	-70.481	-66.125	47.084	-66.608	-8191	255	
1374.413	1	1	0	0	0.15982	0.077131	0.1917	0.10065	0.17265	0.10097	0.16484	0.11434	0.30953	0.28053	0.026427	0.068811	0.25507	0.038159	0.12817	0.19596	-2.9437	-3.0271	-3.3667	-2.8833	-3.3354	-3.375	-2.9917	-3.5625	-3.3604	-2.9437	-3.4979	-2.9333	-3.4188	-3.5083	-2.7375	-3.6375	71.430	120.632	163.667	199.564	-72.176	168.647	0.955	225.047	-23.275	-18.466	106.757	120.181	-8.744	17.360	127.292	222.205	0.00016622	0.00054966	8.8624e-05	1367.1	2.2175e-06	8.0932e-06	1365.6	368.35	1.6778e-06	5.5864e-06	422.65	139.22	121.7	42.045	5.5965e-06	52.177	0.0004683	0.00048818	0.00013487	1372.1	5.3515e-06	5.4007e-06	1371.3	372.25	5.3571e-06	5.3299e-06	425.3	142.42	123.83	42.818	5.4585e-06	52.968	222.750	-0.337	-2.898	-79.604	75.287	53.070	-79.400	-75.023	65.034	13.177	-75.629	-70.979	-70.841	-66.098	47.962	-66.641	-8191	255	
1374.534	1	1	0	0	0.070396	0.33833	0.072304	0.27574	0.086879	0.042748	0.083976	0.041006	0.098444	0.11283	0.12342	0.15987	0.28753	0.27328	0.16452	0.080193	-2.8854	-2.9667	-3.5583	-2.95	-3.25	-3.4917	-2.9604	-3.4813	-3.425	-3.0062	-3.7208	-3.0604	-3.2083	-3.5583	-2.9271	-3.6208	83.559	112.174	23.524	205.994	-71.949	204.668	188.044	119.388	-32.986	-23.025	-75.804	255.832	-18.826	205.669	-0.703	16.374	0.00013572	0.0003734	9.3729e-05	1364.2	2.4276e-06	5.3745e-06	1358.4	368.38	3.8026e-06	2.8542e-06	422.54	139.05	121.8	42.276	1.2523e-06	52.28	0.00047145	0.00048122	0.00013634	1370.7	5.4164e-06	5.2304e-06	1369.3	372.61	5.2893e-06	5.3113e-06	425.12	142.53	123.96	42.848	5.3423e-06	53.018	233.395	-5.497	17.723	-79.646	39.223	82.094	-79.355	-74.871	84.013	30.726	-75.175	-70.671	-70.222	-65.972	96.586	-66.635	-8191	255	
1374.630	1	1	0	0	0.25829	0.043711	0.22566	0.26261	0.20279	0.23725	0.1059	0.31069	0.12045	0.087128	0.24162	0.01892	0.17601	0.21651	0.1711	0.29307	-2.9896	-2.9271	-3.5979	-3.1937	-3.1125	-3.4188	-3.0833	-3.4271	-3.2917	-2.8187	-3.6979	-3.0979	-2.9104	-3.7125	-3.025	-3.3667	29.884	250.362	263.761	259.997	143.207	205.739	215.764	246.024	153.995	252.584	224.746	194.875	-30.566	53.147	263.550	242.362	0.00014322	0.00053658	0.00011588	1370.1	4.2858e-06	6.2105e-06	1354.2	368.8	1.0439e-06	3.8018e-06	422.72	139.15	121.65	42.081	2.419e-06	52.397	0.00046304	0.00048536	0.00013427	1372.1	5.2883e-06	5.2842e-06	1368.1	372.73	5.2719e-06	5.2856e-06	424.87	142.3	124.03	42.77	5.3698e-06	53.059	230.648	23.111	-7.719	-79.652	51.347	87.066	-79.326	-74.758	70.103	97.717	-74.982	-70.669	-70.261	-66.016	40.763	-66.799	-8191	255	
1374.726	1	1	0	0	0.12535	0.15594	0.26994	0.049326	0.15285	0.17093	0.30143	0.13013	0.12176	0.10981	0.16983	0.16469	0.099693	0.13461	0.17487	0.13213	-2.9688	-2.7854	-3.4437	-3.2896	-2.8354	-3.6042	-3.1646	-3.2333	-3.575	-2.7438	-3.6396	-3.0833	-2.9375	-3.5896	-2.9688	-3.2417	23.198	-24.752	109.276	91.716	-90.315	-66.511	187.052	212.626	72.299	169.055	208.094	265.214	186.639	-36.334	256.659	-21.372	0.00011906	0.00046423	0.00016228	1362.5	3.9774e-06	5.6708e-06	1357.7	368.77	1.229e-06	4.2891e-06	422.17	139.09	121.5	42.027	4.6398e-06	52.083	0.00046169	0.00048276	0.00013387	1370.4	5.2805e-06	5.2178e-06	1368.6	372.63	5.2199e-06	5.2845e-06	425.45	142.46	123.76	42.754	5.2771e-06	53.084	216.368	-15.169	-12.404	-79.852	22.822	55.191	-79.322	-74.966	42.317	81.430	-75.380	-70.884	-70.739	-66.064	52.526	-66.450	-8191	255	
1374.822	1	1	0	0	0.13703	0.063691	0.28515	0.12296	0.099936	0.092043	0.12906	0.19092	0.21296	0.21948	0.15649	0.06789	0.17961	0.30611	0.10487	0.14021	-3.2479	-2.8479	-3.3563	-3.4875	-2.7146	-3.6958	-3.1021	-3.2458	-3.4625	-2.7833	-3.4604	-3.3896	-2.9625	-3.7292	-3.1437	-3.0896	62.593	249.507	-56.841	-18.609	149.271	-11.148	192.161	207.516	78.623	-1.989	232.014	213.026	253.903	-92.394	-41.570	-77.261	0.00016785	0.00021952	9.1618e-05	1368.7	6.3806e-06	6.9822e-07	1358.7	368.64	3.5534e-06	4.2318e-06	421.35	138.48	121.58	42.219	3.423e-06	52.127	0.000462	0.0004844	0.00013476	1372	5.2855e-06	5.1681e-06	1368.6	372.41	5.1852e-06	5.1914e-06	425.06	142.19	124.1	42.75	5.2484e-06	53.041	237.790	16.827	-37.276	-79.762	69.739	-54.736	-79.686	-75.212	49.771	28.452	-75.435	-71.145	-70.803	-66.462	112.729	-66.613	-8191	255	
1374.919	1	1	0	0	0.07549	0.15205	0.066676	0.44608	0.18442	0.26184	0.29244	0.040179	0.035396	0.2033	0.12076	0.044014	0.10125	0.11931	0.14719	0.22001	-3.1937	-2.7625	-3.3417	-3.65	-2.7979	-3.6063	-3.2542	-3.1063	-3.6042	-3.0312	-3.3042	-3.6646	-2.7354	-3.6292	-3.1625	-2.9375	100.528	89.115	246.818	191.704	229.816	29.497	209.738	208.078	227.845	-14.002	261.609	74.770	-25.090	223.104	192.936	-23.369	0.00015777	0.00041747	0.00013201	1370.6	2.2626e-06	5.2067e-06	1358.6	367.25	1.6715e-06	4.3094e-06	422.16	138.89	121.64	42.089	4.3537e-06	51.973	0.00046123	0.00048743	0.00013347	1372.4	5.2869e-06	5.1851e-06	1369.3	372.4	5.1941e-06	5.2368e-06	425.45	142.45	123.77	42.785	5.2774e-06	52.955	233.885	-1.864	-17.698	-79.741	12.239	50.378	-79.811	-74.879	74.709	45.192	-75.544	-70.850	-70.884	-66.387	0.364	-66.938	-8191	255	
1375.015	1	1	0	0	0.10085	0.10321	0.34193	0.13846	0.087895	0.12337	0.3886	0.34424	0.17239	0.11838	0.056933	0.14028	0.17141	0.10722	0.093601	0.13276	-3.3021	-3.0646	-3.1583	-3.6125	-2.8792	-3.3854	-3.5625	-3.125	-3.6813	-3.0167	-3.1667	-3.5333	-2.8438	-3.4771	-3.3792	-2.9292	202.165	-29.392	-48.856	140.133	25.864	104.975	216.619	240.470	7.447	78.853	112.280	194.110	-47.781	224.962	116.637	265.702	9.7743e-05	0.00041908	6.3536e-05	1370.4	3.582e-06	4.5943e-06	1362.1	368.26	3.3912e-07	9.3046e-06	422.12	138.72	121.52	42.155	2.8395e-06	52.194	0.00046056	0.00047861	0.00013462	1371.7	5.2456e-06	5.2161e-06	1368.4	372.77	5.2468e-06	5.2407e-06	425.27	142.22	123.73	42.843	5.1933e-06	52.979	235.138	-26.545	12.177	-79.595	71.734	45.636	-79.361	-75.206	-52.044	49.998	-75.252	-71.275	-70.742	-66.137	66.538	-66.532	-8191	255	
1375.134	1	1	0	0	0.18153	0.13185	0.054018	0.27221	0.21891	0.16614	0.19269	0.40295	0.12315	0.07169	0.21354	0.22669	0.027903	0.27718	0.19612	0.16065	-3.1583	-3.0021	-2.9333	-3.8875	-2.9167	-3.3208	-3.7271	-3.0417	-3.7062	-3.2854	-2.9875	-3.5833	-3.0458	-3.4917	-3.4104	-2.9396	204.327	101.264	120.608	222.327	204.430	241.472	190.246	225.292	124.164	77.777	227.084	247.980	-92.070	216.221	206.848	-56.896	0.00016681	0.00043351	0.00011981	1369.3	2.1441e-06	4.2306e-06	1355.8	368.79	3.1433e-06	1.9213e-06	421.89	139.6	121.77	42.272	3.654e-06	52.205	0.00046813	0.00047086	0.00013387	1370.7	5.2506e-06	5.258e-06	1368.5	372.61	5.2932e-06	5.2487e-06	424.83	142.48	123.95	42.852	5.1276e-06	52.978	221.563	-18.632	-12.939	-79.742	22.544	56.349	-79.344	-75.178	52.548	-9.256	-75.242	-71.123	-70.683	-66.264	87.673	-66.669	-8191	255	
1375.230	1	1	0	0	0.25045	0.12506	0.1487	0.25301	0.073411	0.12555	0.17376	0.23063	0.083986	0.069723	0.34499	0.27367	0.12407	0.30964	0.14766	0.068701	-3.2812	-3.1229	-2.8292	-3.775	-2.8396	-3.3125	-3.575	-2.8	-3.4167	-3.25	-3.1396	-3.4958	-3.0583	-3.2	-3.6021	-3.0438	-25.976	41.688	213.825	263.213	-38.963	-85.251	222.159	247.457	-36.268	36.656	251.440	-68.448	112.686	222.365	123.563	-61.547	0.00016336	0.00036459	7.8561e-05	1365.8	6.3963e-07	2.4092e-06	1352.8	368.99	2.9471e-06	2.399e-06	420.45	138.9	121.85	42.103	4.8495e-06	51.997	0.00045834	0.00047328	0.00013392	1370.5	5.2002e-06	5.2431e-06	1365.5	372.06	5.2119e-06	5.1874e-06	424.32	142.32	123.89	42.741	5.218e-06	52.952	233.463	-10.631	47.994	-79.800	63.739	52.963	-79.287	-75.098	43.510	124.083	-75.285	-70.843	-70.563	-66.210	37.063	-66.776	-8191	255	
1375.326	1	1	0	0	0.16722	0.19795	0.13397	0.10898	0.1108	0.23241	0.22097	0.32979	0.34408	0.14698	0.13203	0.10431	0.36146	0.16388	0.13971	0.087234	-3.0875	-3.4938	-2.9021	-3.7646	-3.1292	-3.0729	-3.8917	-2.9646	-3.2167	-3.4146	-2.8083	-3.625	-3.0792	-3.0833	-3.6396	-2.9667	125.564	103.523	192.930	231.250	215.020	-72.282	198.921	211.752	71.605	203.518	211.884	152.256	202.657	252.724	42.328	249.261	0.00012705	0.00031931	7.0134e-05	1367.1	2.3422e-06	4.4797e-06	1359.3	366.96	4.0215e-06	5.1323e-06	422.47	139.48	121.49	42.238	5.0958e-06	52.118	0.00045494	0.00047239	0.0001324	1370.7	5.209e-06	5.1923e-06	1368.6	371.51	5.2638e-06	5.1317e-06	424.97	142.46	123.71	42.855	5.237e-06	53.011	220.941	-35.889	88.158	-79.496	77.296	76.135	-79.678	-75.068	30.603	41.715	-75.402	-70.952	-70.591	-66.227	74.734	-66.551	-8191	255	
1375.422	1	1	0	0	0.29024	0.19906	0.071125	0.2935	0.154	0.18173	0.25416	0.20793	0.23481	0.11522	0.14434	0.1251	0.12507	0.18893	0.22059	0.22138	-2.9417	-3.45	-2.8125	-3.6937	-3.1125	-3.1104	-3.9	-2.8979	-3.2375	-3.5229	-2.8625	-3.4792	-3.3646	-3.0583	-3.6833	-3.0729	153.908	233.148	131.786	262.767	213.875	109.805	217.267	221.880	-22.236	185.083	158.425	220.723	91.991	204.238	43.344	174.964	0.00012286	0.00082825	0.00020495	1365.3	4.6137e-06	2.1494e-06	1365.9	368.2	2.7566e-06	5.8058e-06	421.94	138.9	121.75	42.196	3.0197e-06	52.16	0.00045681	0.0004697	0.00013006	1371	5.2049e-06	5.2464e-06	1369.5	372.11	5.2007e-06	5.0893e-06	425.25	142.38	123.76	42.848	5.1556e-06	52.952	215.042	1.869	8.968	-79.852	87.929	-25.274	-79.522	-74.645	91.556	47.262	-75.743	-71.340	-70.594	-66.161	77.636	-66.514	-8191	255	
1375.518	1	1	0	0	0.14113	0.10653	0.083955	0.18034	0.099615	0.31592	0.25912	0.26293	0.1903	0.23215	0.20451	0.18176	0.15045	0.22315	0.026463	0.039219	-2.9896	-3.5229	-2.7833	-3.6375	-3.1771	-2.9208	-3.8021	-3.025	-3.0979	-3.6896	-2.8812	-3.5312	-3.5229	-2.9	-3.5958	-3.3271	224.385	167.778	115.294	227.442	266.895	176.508	-49.025	229.460	166.479	148.406	201.286	261.029	97.703	227.448	23.176	-77.122	0.00013586	0.00078763	0.00011179	1367.8	1.831e-06	4.8431e-06	1363.6	366.84	1.5337e-06	3.9992e-06	420.37	139.51	121.68	42.193	5.4478e-06	52.171	0.00045313	0.00046841	0.00013098	1371.2	5.2192e-06	5.1701e-06	1370	371.55	5.2145e-06	5.171e-06	424.63	142.58	123.93	42.78	5.1819e-06	52.966	226.544	-1.027	0.650	-79.892	97.745	35.974	-79.244	-74.651	215.698	97.885	-75.453	-70.755	-70.138	-66.320	33.326	-66.557	-8191	255	
#DATA ENDS
