BOXY.EXE: ISS Imagent and Oximeter Data Acquisition Program Version 0.80
Ascii Record File

#ACQ INFORMATION
2  Detector Channels 
16  External MUX Channels 
1  Auxiliary Channels 
5000  Waveform (CCF) Frequency (Hz)
1  Waveforms Skipped 
30  Waveforms Averaged 
1  Cycles Averaged 
16  Acquisitions per Waveform 
10.0806  Updata Rate (Hz) 

#FILE INFORMATION
TRUE -- External MUX Channel results are PARSED.
FALSE -- AC DC and Phase are NOT grouped.
TRUE -- Companion Program Settings File CREATED.
FALSE -- AC data not excluded
FALSE -- DC data not excluded
FALSE -- Phase data not excluded
FALSE -- Auxillary Chn. data not excluded
Tab delimiters

#CALIBRATION STATE
TRUE -- Waveform Calibration Values APPLIED.


#AUX CALIBRATION VALUES
Val Type	aux-1	

Term	1.0000e+00	
Factor	0.0000e+00	


#WF CALIBRATION VALUES
A = Detector Channel
Val Type	A-AC1	A-AC2	A-AC3	A-AC4	A-AC5	A-AC6	A-AC7	A-AC8	A-AC9	A-AC10	A-AC11	A-AC12	A-AC13	A-AC14	A-AC15	A-AC16	A-DC1	A-DC2	A-DC3	A-DC4	A-DC5	A-DC6	A-DC7	A-DC8	A-DC9	A-DC10	A-DC11	A-DC12	A-DC13	A-DC14	A-DC15	A-DC16	A-Ph1	A-Ph2	A-Ph3	A-Ph4	A-Ph5	A-Ph6	A-Ph7	A-Ph8	A-Ph9	A-Ph10	A-Ph11	A-Ph12	A-Ph13	A-Ph14	A-Ph15	A-Ph16	

Term	0.00000e+00	0.00000e+00	0.00000e+00	0.00000e+00	0.00000e+00	0.00000e+00	0.00000e+00	0.00000e+00	0.00000e+00	0.00000e+00	0.00000e+00	0.00000e+00	0.00000e+00	0.00000e+00	0.00000e+00	0.00000e+00	0.00000e+00	0.00000e+00	0.00000e+00	0.00000e+00	0.00000e+00	0.00000e+00	0.00000e+00	0.00000e+00	0.00000e+00	0.00000e+00	0.00000e+00	0.00000e+00	0.00000e+00	0.00000e+00	0.00000e+00	0.00000e+00	0.00000e+00	0.00000e+00	0.00000e+00	0.00000e+00	0.00000e+00	0.00000e+00	0.00000e+00	0.00000e+00	0.00000e+00	0.00000e+00	0.00000e+00	0.00000e+00	0.00000e+00	0.00000e+00	0.00000e+00	0.00000e+00	
Factor	1.00000e+00	1.00000e+00	1.00000e+00	1.00000e+00	1.00000e+00	1.00000e+00	1.00000e+00	1.00000e+00	1.00000e+00	1.00000e+00	1.00000e+00	1.00000e+00	1.00000e+00	1.00000e+00	1.00000e+00	1.00000e+00	1.00000e+00	1.00000e+00	1.00000e+00	1.00000e+00	1.00000e+00	1.00000e+00	1.00000e+00	1.00000e+00	1.00000e+00	1.00000e+00	1.00000e+00	1.00000e+00	1.00000e+00	1.00000e+00	1.00000e+00	1.00000e+00	X	X	X	X	X	X	X	X	X	X	X	X	X	X	X	X	

B = Detector Channel
Val Type	B-AC1	B-AC2	B-AC3	B-AC4	B-AC5	B-AC6	B-AC7	B-AC8	B-AC9	B-AC10	B-AC11	B-AC12	B-AC13	B-AC14	B-AC15	B-AC16	B-DC1	B-DC2	B-DC3	B-DC4	B-DC5	B-DC6	B-DC7	B-DC8	B-DC9	B-DC10	B-DC11	B-DC12	B-DC13	B-DC14	B-DC15	B-DC16	B-Ph1	B-Ph2	B-Ph3	B-Ph4	B-Ph5	B-Ph6	B-Ph7	B-Ph8	B-Ph9	B-Ph10	B-Ph11	B-Ph12	B-Ph13	B-Ph14	B-Ph15	B-Ph16	

Term	0.00000e+00	0.00000e+00	0.00000e+00	0.00000e+00	0.00000e+00	0.00000e+00	0.00000e+00	0.00000e+00	0.00000e+00	0.00000e+00	0.00000e+00	0.00000e+00	0.00000e+00	0.00000e+00	0.00000e+00	0.00000e+00	0.00000e+00	0.00000e+00	0.00000e+00	0.00000e+00	0.00000e+00	0.00000e+00	0.00000e+00	0.00000e+00	0.00000e+00	0.00000e+00	0.00000e+00	0.00000e+00	0.00000e+00	0.00000e+00	0.00000e+00	0.00000e+00	-1.87007e+02	-1.34050e+02	-1.37969e+02	-1.83492e+02	-8.77581e+01	-7.32534e+01	-1.58200e+02	-1.62015e+02	-8.49259e+01	-6.14154e+01	-1.70701e+02	-1.71279e+02	-1.78850e+02	-1.76863e+02	-7.95451e+01	-1.49780e+02	
Factor	3.76548e-05	1.51883e-04	4.69219e-05	1.64088e-01	1.62550e-06	1.73594e-06	1.85429e-01	6.04996e-02	1.59724e-06	1.91212e-06	1.00259e-01	3.43440e-02	3.12106e-02	1.08452e-02	1.69460e-06	1.54572e-02	6.25193e-06	7.31936e-06	2.04454e-06	7.75377e-02	7.75653e-08	8.04797e-08	8.23581e-02	2.86645e-02	7.78837e-08	8.09403e-08	4.60320e-02	1.57531e-02	1.49403e-02	5.16929e-03	7.88347e-08	7.14857e-03	X	X	X	X	X	X	X	X	X	X	X	X	X	X	X	X	



#DISTANCE SETTINGS
A = Detector Channel
A-1	A-2	A-3	A-4	A-5	A-6	A-7	A-8	A-9	A-10	A-11	A-12	A-13	A-14	A-15	A-16	

2.5000e+00	3.0000e+00	2.5000e+00	3.0000e+00	2.0000e+00	3.0000e+00	1.5000e+00	3.0000e+00	3.0000e+00	3.0000e+00	3.0000e+00	3.0000e+00	3.0000e+00	3.0000e+00	1.5000e+00	3.0000e+00	

B = Detector Channel
B-1	B-2	B-3	B-4	B-5	B-6	B-7	B-8	B-9	B-10	B-11	B-12	B-13	B-14	B-15	B-16	

1.0000e+01	1.0000e+01	1.0000e+01	1.4400e+00	1.0000e+01	1.0000e+01	1.5100e+00	1.9400e+00	1.0000e+01	1.0000e+01	1.9900e+00	2.4900e+00	2.4100e+00	2.9000e+00	1.0000e+01	2.9800e+00	




#DATA BEGINS
time	group	step	mark	flag	A-AC1	A-AC2	A-AC3	A-AC4	A-AC5	A-AC6	A-AC7	A-AC8	A-AC9	A-AC10	A-AC11	A-AC12	A-AC13	A-AC14	A-AC15	A-AC16	A-DC1	A-DC2	A-DC3	A-DC4	A-DC5	A-DC6	A-DC7	A-DC8	A-DC9	A-DC10	A-DC11	A-DC12	A-DC13	A-DC14	A-DC15	A-DC16	A-Ph1	A-Ph2	A-Ph3	A-Ph4	A-Ph5	A-Ph6	A-Ph7	A-Ph8	A-Ph9	A-Ph10	A-Ph11	A-Ph12	A-Ph13	A-Ph14	A-Ph15	A-Ph16	B-AC1	B-AC2	B-AC3	B-AC4	B-AC5	B-AC6	B-AC7	B-AC8	B-AC9	B-AC10	B-AC11	B-AC12	B-AC13	B-AC14	B-AC15	B-AC16	B-DC1	B-DC2	B-DC3	B-DC4	B-DC5	B-DC6	B-DC7	B-DC8	B-DC9	B-DC10	B-DC11	B-DC12	B-DC13	B-DC14	B-DC15	B-DC16	B-Ph1	B-Ph2	B-Ph3	B-Ph4	B-Ph5	B-Ph6	B-Ph7	B-Ph8	B-Ph9	B-Ph10	B-Ph11	B-Ph12	B-Ph13	B-Ph14	B-Ph15	B-Ph16	aux-1	digaux	

58486.613	1	1	0	256	0.052489	0.16057	0.14679	0.14358	0.26614	0.1622	0.12928	0.097576	0.076955	0.1274	0.19171	0.17304	0.043656	0.15564	0.058624	0.23103	-3.8396	-3.8875	-4.6708	-3.7875	-4.0646	-4.4979	-3.8438	-4.5437	-3.9458	-3.6625	-4.6792	-3.8	-4.275	-4.5938	-3.6854	-4.4625	76.337	-64.093	91.960	-118.444	-72.816	-123.622	36.145	-29.364	-11.004	112.837	-59.196	119.861	30.847	-160.403	58.414	-41.807	0.00025063	0.00015921	8.9787e-05	668.77	1.4043e-06	1.429e-06	737.06	148.84	2.1005e-06	1.9992e-06	189.81	54.242	41.613	12.352	1.9049e-06	17.335	5.4783e-05	2.1119e-05	3.9272e-06	682.09	3.2222e-07	1.5945e-07	755.68	152.7	2.7649e-07	1.8498e-07	194.51	56.112	43.124	12.817	2.4061e-07	18.182	143.998	-72.406	-60.746	-150.977	-34.070	-2.525	-151.170	-143.281	-66.924	0.004	-144.270	-137.622	-137.055	-128.922	-31.959	-130.064	-8191	255	
58486.711	1	1	0	0	0.092087	0.14944	0.072574	0.15918	0.017405	0.16108	0.11115	0.23428	0.086653	0.25181	0.21208	0.1175	0.189	0.24122	0.21222	0.21773	-3.7292	-3.7792	-4.5813	-4.0958	-4.0813	-4.5979	-3.8417	-4.45	-4.3229	-3.7062	-4.7479	-4.025	-3.9104	-4.55	-3.7396	-4.1958	77.328	0.980	179.953	169.756	69.882	34.832	104.789	46.775	-155.981	175.414	178.966	168.091	97.062	94.048	86.258	91.599	0.00028246	0.00017346	8.7454e-05	674.55	1.1457e-06	2.5053e-06	740.58	148.59	1.9864e-06	1.8137e-06	189.78	54.6	41.706	12.198	1.5815e-06	17.509	4.9781e-05	1.9213e-05	4.0806e-06	684.19	3.0283e-07	1.4855e-07	756.68	152.43	2.6448e-07	1.575e-07	193.95	56.073	43.034	12.754	2.6442e-07	18.201	147.092	-75.726	-88.076	-150.629	-42.142	-23.804	-151.359	-143.335	-51.082	-19.102	-143.843	-137.538	-137.082	-129.392	-44.873	-129.347	-8191	255	
58486.809	1	1	0	0	0.041119	0.20251	0.11732	0.10372	0.063767	0.13701	0.20852	0.11092	0.048916	0.16375	0.18752	0.10118	0.24899	0.094441	0.2679	0.092697	-3.9583	-3.7792	-4.6917	-4.1646	-3.9542	-4.5146	-3.8563	-4.3417	-4.3979	-3.6188	-4.3958	-4.1271	-3.9083	-4.6729	-3.7792	-4.275	99.450	-148.626	91.030	153.727	165.858	-142.275	133.281	-8.087	-19.372	90.812	114.435	-111.001	170.312	141.424	107.831	97.914	0.00026355	0.00016864	4.9232e-05	675.95	1.3853e-06	1.5858e-06	742.82	149.92	2.5411e-06	2.8335e-06	189.47	54.251	41.967	12.33	2.4346e-06	17.436	5.1279e-05	2.266e-05	4.7067e-06	684.6	3.4145e-07	1.338e-07	756.55	153.06	2.6432e-07	2.2781e-07	193.67	56.099	43.211	12.839	2.1302e-07	18.156	146.836	-95.175	-68.545	-150.825	-55.140	-19.631	-151.204	-143.728	-46.799	-3.012	-143.920	-137.895	-137.362	-129.333	-39.196	-129.607	-8191	255	
58486.926	1	1	0	0	0.14393	0.20315	0.14381	0.19153	0.20036	0.20527	0.034094	0.087216	0.087065	0.26314	0.20517	0.13004	0.03226	0.085654	0.23467	0.21491	-4.2063	-3.6667	-4.5917	-4.3833	-3.8854	-4.6167	-4.0312	-4.2208	-4.5646	-3.675	-4.5208	-4.2896	-3.8563	-4.7375	-3.9458	-4.1937	91.873	32.270	-1.598	167.104	149.597	30.484	42.043	-93.913	7.287	109.057	63.587	72.323	-156.000	4.325	169.050	87.455	0.00025185	0.00015208	6.8302e-05	673.15	1.7317e-06	9.052e-07	738.45	148.66	2.6754e-06	3.2077e-06	189.1	54.557	41.878	12.311	1.3714e-06	17.494	4.6772e-05	1.7429e-05	3.5055e-06	682.99	2.8748e-07	7.0923e-08	753.59	152.46	2.038e-07	1.3928e-07	194.06	56.129	43.052	12.797	1.6982e-07	18.098	148.900	-50.437	-72.190	-150.956	-53.602	1.253	-150.939	-143.929	-42.409	-16.504	-143.556	-137.638	-137.225	-129.198	-33.725	-130.370	-8191	255	
58487.000	1	1	0	0	0.084786	0.27797	0.15272	0.27767	0.098476	0.16239	0.2078	0.18829	0.060195	0.11964	0.29729	0.23947	0.21815	0.086496	0.19223	0.057505	-4.2146	-3.8312	-4.4167	-4.3417	-3.7917	-4.5958	-4.2417	-4.0938	-4.6771	-3.6771	-4.4021	-4.3063	-3.7458	-4.5292	-4.1354	-3.9813	-40.741	191.379	146.242	191.786	-137.609	-7.965	46.789	9.997	69.554	-82.819	176.310	-92.397	79.627	-153.429	-161.173	114.946	0.00025314	0.0001517	7.3998e-05	668.05	2.3895e-06	8.0378e-07	738.26	148.82	2.4533e-06	2.2918e-06	188.66	54.37	42.115	12.267	2.2524e-06	17.387	3.9465e-05	1.9564e-05	3.4587e-06	679.11	3.2367e-07	8.4168e-08	752.41	152.54	1.6453e-07	2.1179e-07	193.8	55.933	43.117	12.74	2.1351e-07	18.078	146.351	-73.597	-75.324	-150.819	-55.652	-55.695	-151.054	-143.730	-73.594	2.679	-143.648	-137.358	-136.857	-129.222	-28.588	-129.395	-8191	255	
58487.094	1	1	0	0	0.10877	0.066985	0.066855	0.14063	0.1521	0.1223	0.087589	0.12664	0.088623	0.17056	0.10744	0.22878	0.2268	0.21404	0.20825	0.14169	-4.4354	-3.6729	-4.2667	-4.5083	-3.775	-4.5833	-4.2896	-3.8229	-4.6125	-3.7896	-4.1146	-4.5854	-3.6417	-4.2708	-4.125	-3.7854	-62.819	37.224	-101.300	192.216	50.855	124.267	-73.802	101.041	-39.864	-157.816	-40.435	43.172	-149.250	-135.633	168.544	3.519	0.00025404	0.00014312	6.0929e-05	666.35	2.7124e-06	2.5347e-06	733.81	148.59	2.5534e-06	2.0604e-06	188.35	54.228	42.007	12.245	2.2649e-06	17.339	4.3438e-05	2.054e-05	4.2509e-06	679.53	3.219e-07	1.2072e-07	749.55	152.46	2.2635e-07	2.0218e-07	193.21	55.75	43.038	12.71	2.0694e-07	18.05	147.024	-85.714	-90.323	-150.977	-60.576	-0.376	-151.082	-143.745	-48.306	10.819	-144.029	-137.454	-136.888	-129.020	-23.159	-129.771	-8191	255	
58487.215	1	1	0	0	0.24444	0.11126	0.046884	0.1209	0.24607	0.14855	0.49544	0.10417	0.045808	0.11701	0.1683	0.040715	0.045494	0.19729	0.09189	0.055417	-4.4583	-3.9062	-4.1458	-4.5437	-3.5708	-4.4333	-4.4333	-3.9188	-4.5625	-3.8292	-4.0271	-4.5312	-3.7958	-4.3854	-4.2688	-3.8	-77.944	-45.836	-31.094	-109.258	-30.544	9.960	96.244	111.141	-115.743	88.117	12.753	16.854	-4.305	111.137	179.297	186.240	0.00025967	0.00016678	6.4577e-05	669.91	1.6068e-06	2.0811e-06	738.31	149.18	1.2859e-06	1.958e-06	189.46	54.227	41.713	12.189	2.254e-06	17.364	4.323e-05	1.6606e-05	4.6897e-06	678.92	3.1349e-07	1.2307e-07	750.04	152.14	2.2716e-07	1.7841e-07	193.58	55.926	42.909	12.676	1.7212e-07	18.068	139.747	-99.879	-57.630	-150.783	-39.859	-22.347	-150.798	-143.517	-41.836	30.234	-143.814	-137.537	-137.209	-129.139	-57.061	-130.103	-8191	255	
58487.312	1	1	0	0	0.22454	0.25254	0.070166	0.075082	0.15691	0.1417	0.24162	0.21531	0.14702	0.10594	0.072788	0.12442	0.081676	0.26224	0.11821	0.070276	-4.3125	-4.0292	-3.975	-4.6729	-3.7271	-4.4583	-4.6542	-3.7167	-4.4917	-4.0437	-3.9604	-4.6833	-3.5979	-4.1813	-4.3375	-3.7354	-27.333	-121.491	61.260	-36.157	174.508	-114.928	117.036	162.605	-41.238	165.006	64.234	-73.113	177.305	-130.822	178.084	79.159	0.0002757	0.00021812	4.7303e-05	666.98	2.1637e-06	2.0267e-06	738.04	148.97	2.0317e-06	2.4982e-06	189.01	53.881	41.858	12.287	1.9042e-06	17.395	4.491e-05	1.6713e-05	4.2211e-06	679.43	3.2707e-07	1.6649e-07	751.78	152.38	2.4095e-07	1.7116e-07	193.15	55.841	43.029	12.713	1.4322e-07	18.055	142.697	-93.397	-90.366	-150.764	-40.481	-7.590	-151.127	-143.517	-80.699	-10.216	-144.031	-137.678	-137.004	-129.222	-30.719	-129.680	-8191	255	
58487.406	1	1	0	0	0.1004	0.22262	0.23531	0.16592	0.11235	0.079238	0.34031	0.18388	0.11332	0.14614	0.12812	0.1125	0.12762	0.11735	0.20318	0.097736	-4.3479	-4.0687	-3.8333	-4.6958	-3.9125	-4.2875	-4.6125	-3.7396	-4.4688	-4.3063	-4.0542	-4.7583	-3.9146	-4.0083	-4.6333	-3.7229	193.089	-64.195	60.033	180.941	-48.359	-48.693	154.201	141.440	8.490	147.902	-158.509	-81.524	34.124	-9.245	-99.621	-16.444	0.00025535	0.00017513	7.5195e-05	670.85	2.0858e-06	1.7835e-06	734.24	147.89	1.7206e-06	1.6998e-06	188.88	54.011	41.58	12.321	2.2586e-06	17.194	4.7163e-05	1.8161e-05	5.7673e-06	679.82	3.4113e-07	1.3413e-07	750.12	151.83	2.6724e-07	1.3659e-07	192.75	55.656	42.933	12.707	1.4749e-07	17.997	144.894	-71.554	-82.314	-150.492	-80.904	-3.766	-151.159	-143.681	-76.190	-7.138	-144.061	-137.170	-136.486	-129.435	-34.920	-129.981	-8191	255	
58487.527	1	1	0	0	0.12248	0.18434	0.25167	0.11641	0.25444	0.070847	0.23803	0.15632	0.10245	0.036947	0.012649	0.33513	0.086936	0.04702	0.30787	0.23178	-4.125	-4.2646	-3.7625	-4.7271	-3.9604	-3.9813	-4.7125	-3.6542	-4.4479	-4.3958	-3.85	-4.6062	-3.9792	-4.1708	-4.4938	-3.7646	-43.443	-84.171	18.329	-59.713	4.470	187.481	143.435	-42.293	-22.930	34.094	65.038	82.798	10.769	-20.194	59.107	-52.621	0.00026479	0.00020962	5.8399e-05	666.7	1.9242e-06	1.7732e-06	732.36	148.21	2.1104e-06	2.0086e-06	186.88	53.725	41.587	12.149	2.1985e-06	17.199	4.9169e-05	1.4898e-05	5.6267e-06	678.3	3.1495e-07	1.5073e-07	747.77	151.91	2.5377e-07	1.4856e-07	191.94	55.389	42.697	12.615	1.6703e-07	17.91	146.905	-88.246	-86.474	-151.002	-67.654	-14.937	-151.052	-143.321	-67.617	9.230	-143.809	-137.572	-136.998	-129.229	-17.425	-129.569	-8191	255	
58487.602	1	1	0	0	0.22646	0.088969	0.22174	0.10321	0.081435	0.21516	0.07253	0.054277	0.041014	0.2939	0.14549	0.10212	0.2438	0.20102	0.14039	0.038751	-4.0146	-4.4229	-3.7562	-4.7146	-4.0667	-3.9437	-4.8292	-3.9083	-4.2479	-4.4875	-3.7396	-4.5917	-4.2146	-3.8563	-4.7417	-3.9417	101.590	-90.615	164.387	173.351	-19.060	177.865	108.429	102.439	-61.305	187.658	-112.519	5.500	-135.363	125.825	-30.641	132.668	0.00027961	0.00012772	4.7805e-05	661.8	1.2255e-06	1.9819e-06	730.06	148.11	1.9247e-06	1.6821e-06	185.87	53.155	41.23	12.125	1.6038e-06	17.181	4.8179e-05	1.1955e-05	6.0058e-06	675.23	3.0477e-07	1.9147e-07	745.2	151.47	2.7551e-07	1.1719e-07	191.4	55.206	42.474	12.559	1.8214e-07	17.853	148.449	-60.342	-64.742	-150.859	-63.171	-4.670	-151.026	-143.443	-78.464	-27.408	-143.922	-137.686	-137.178	-129.002	-46.666	-129.794	-8191	255	
58487.695	1	1	0	0	0.19498	0.042557	0.050401	0.18404	0.24147	0.14708	0.1179	0.15661	0.12894	0.028622	0.19061	0.18033	0.28416	0.11131	0.10462	0.16942	-3.8958	-4.7312	-3.7604	-4.6417	-4.2396	-3.8083	-4.7917	-4.0479	-3.9979	-4.5542	-3.7708	-4.4771	-4.5479	-3.7583	-4.6375	-4.0708	-156.381	-120.673	-103.077	184.262	183.169	142.094	137.114	-3.291	38.036	149.524	138.272	146.192	-159.689	-78.190	37.230	-158.866	0.00027104	0.00018585	5.6695e-05	664.52	1.3965e-06	1.5517e-06	729.61	147.92	2.4232e-06	1.4042e-06	187.31	53.422	41.624	12.158	1.0419e-06	17.108	5.2738e-05	1.473e-05	5.5075e-06	674.47	3.0865e-07	2.1025e-07	743.26	151.05	2.9028e-07	1.1905e-07	191.23	55.088	42.469	12.58	1.5833e-07	17.866	142.677	-87.706	-89.106	-150.636	-82.669	-7.579	-151.006	-143.344	-55.081	4.352	-143.842	-137.792	-137.248	-129.648	-55.997	-129.602	-8191	255	
58487.816	1	1	0	0	0.12952	0.1808	0.18509	0.12568	0.076783	0.053017	0.087388	0.20597	0.25882	0.023071	0.13022	0.12804	0.079778	0.070442	0.090655	0.028741	-3.675	-4.4792	-3.7333	-4.5	-4.3562	-3.7917	-4.7792	-4.1417	-4.0062	-4.6333	-3.9167	-4.3917	-4.4917	-3.6771	-4.375	-4.2188	-151.211	-157.902	21.094	182.231	41.004	8.239	-84.836	-146.691	-49.164	44.307	-109.171	-46.400	130.934	-135.982	98.930	-92.514	0.00028179	0.00023463	5.8271e-05	662	1.0616e-06	2.2476e-06	728.75	147.94	2.2903e-06	2.5842e-06	185.67	53.598	41.655	12.057	2.5136e-06	17.195	5.0029e-05	1.2885e-05	5.6991e-06	674.67	2.5193e-07	2.1109e-07	745.19	150.94	3.2078e-07	1.3372e-07	191.14	55.227	42.53	12.562	2.0448e-07	17.908	150.080	-82.900	-73.935	-150.965	-59.557	-6.987	-151.083	-143.515	-50.480	-12.441	-144.147	-137.882	-136.820	-128.913	-36.530	-129.835	-8191	255	
58487.910	1	1	0	0	0.12268	0.077342	0.1251	0.12382	0.062675	0.27097	0.057719	0.033117	0.21148	0.038362	0.31935	0.11911	0.089811	0.073631	0.20783	0.09866	-3.6958	-4.7104	-3.8042	-4.3812	-4.5938	-3.5938	-4.6208	-4.175	-3.8438	-4.6104	-3.9562	-4.2104	-4.6646	-3.5583	-4.5229	-4.4354	194.966	-70.389	172.088	129.281	-142.107	-26.587	125.856	-142.637	-83.219	72.791	159.230	-81.787	-155.903	-88.199	-157.499	104.639	0.00026323	0.00022866	3.842e-05	664.59	2.2226e-06	2.4978e-06	729.85	146.9	2.5459e-06	2.0295e-06	186.02	53.223	41.169	12.174	2.1342e-06	17.123	5.2894e-05	1.6118e-05	5.4734e-06	676.07	2.6534e-07	2.188e-07	746.8	150.98	2.9839e-07	1.2984e-07	191.24	55.177	42.468	12.633	1.8362e-07	17.879	143.713	-74.897	-56.421	-150.650	-65.598	-10.679	-151.112	-143.742	-59.848	-18.047	-143.595	-137.126	-137.182	-129.127	-15.948	-129.715	-8191	255	
58488.008	1	1	0	0	0.18784	0.16071	0.32972	0.19336	0.10998	0.19135	0.27194	0.20643	0.17373	0.070963	0.097745	0.1503	0.15277	0.23213	0.099988	0.19316	-3.4208	-4.6542	-4.0563	-4.0771	-4.6104	-3.8396	-4.5583	-4.275	-3.5667	-4.6583	-4.0896	-3.7583	-4.6312	-3.7271	-4.3125	-4.4437	-88.054	-100.494	-117.467	-51.433	95.319	45.230	80.075	132.832	-138.847	65.689	133.126	-143.619	160.088	96.418	-5.712	-161.514	0.00025281	0.00020419	2.4439e-05	664.62	1.2665e-06	2.7555e-06	730.09	146.85	2.0928e-06	1.0137e-06	187.37	53.701	41.053	12.189	1.7376e-06	17.123	5.3662e-05	1.2641e-05	5.0091e-06	675.76	2.529e-07	2.3037e-07	745.82	150.91	2.932e-07	1.4148e-07	191.03	55.247	42.45	12.579	2.0037e-07	17.856	144.051	-95.495	-76.277	-151.098	-80.221	-15.660	-151.040	-143.570	-67.662	30.421	-143.819	-137.498	-136.918	-129.669	-38.353	-129.663	-8191	255	
58488.105	1	1	0	0	0.18212	0.23478	0.20395	0.074301	0.11234	0.30809	0.13255	0.28554	0.23309	0.11598	0.13554	0.08536	0.30468	0.27831	0.019633	0.059392	-3.6042	-4.6083	-3.9208	-3.8771	-4.6917	-3.7875	-4.3562	-4.4896	-3.6083	-4.3979	-4.3292	-3.9458	-4.5521	-3.7917	-4.125	-4.5875	26.349	64.571	38.201	-18.633	-77.864	3.821	136.449	138.803	181.145	103.452	-133.320	173.426	-129.481	140.458	-55.012	-52.514	0.00025402	0.00017652	5.9275e-05	662.34	1.9799e-06	2.5609e-06	731.31	147.36	2.3446e-06	1.6717e-06	186.15	53.439	41.628	12.253	2.2379e-06	17.171	5.2073e-05	1.4334e-05	5.3627e-06	674.91	2.251e-07	1.8628e-07	747.5	150.92	3.2208e-07	1.3912e-07	190.62	55.135	42.541	12.617	1.9577e-07	17.882	142.242	-66.934	-66.134	-150.744	-57.875	-18.337	-151.085	-143.441	-43.421	-30.375	-143.946	-137.978	-137.223	-128.651	-36.523	-129.935	-8191	255	
58488.227	1	1	0	0	0.059623	0.064734	0.2514	0.097057	0.18095	0.078907	0.092432	0.11774	0.1288	0.062817	0.15599	0.18308	0.13914	0.17045	0.26166	0.19363	-3.3688	-4.4812	-4.0771	-3.975	-4.6396	-3.8854	-4.1083	-4.7271	-3.8104	-4.575	-4.3375	-3.8292	-4.5583	-3.8563	-3.9292	-4.5667	118.190	-157.119	192.442	18.340	-125.035	89.866	-128.234	-147.733	90.703	-129.456	135.889	28.650	166.394	-109.271	-103.742	-58.188	0.00025231	0.0002174	7.0385e-05	666.15	1.9244e-06	2.0712e-06	734.89	148.21	1.6477e-06	2.2744e-06	186.07	53.528	41.312	12.117	1.7061e-06	17.168	5.3285e-05	1.842e-05	4.2339e-06	676.35	2.4692e-07	2.2082e-07	748.17	151.38	3.3214e-07	1.5025e-07	191.41	55.26	42.524	12.609	2.2205e-07	17.932	140.857	-91.748	-115.497	-150.886	-54.705	3.557	-151.143	-143.356	-49.943	14.289	-143.816	-137.694	-137.289	-129.075	-40.657	-129.428	-8191	255	
58488.297	1	1	0	0	0.14827	0.25802	0.13947	0.16467	0.27136	0.070069	0.11485	0.15229	0.18311	0.055822	0.27969	0.10171	0.29494	0.062644	0.077861	0.18125	-3.3667	-4.2812	-4.2854	-3.8021	-4.6188	-3.9833	-4.1229	-4.5521	-3.8333	-4.3521	-4.4708	-3.7438	-4.8417	-4.0792	-3.925	-4.6312	162.578	-3.252	65.486	112.333	133.603	192.841	-131.333	-15.951	-64.651	26.526	-65.441	-141.504	176.369	-34.087	6.895	141.724	0.00025019	0.00019156	5.2672e-05	662.5	1.9273e-06	1.8488e-06	731.35	148.02	1.8302e-06	2.8397e-06	186.3	53.627	41.769	12.071	2.0004e-06	17.206	5.3467e-05	1.4456e-05	3.9954e-06	676.84	2.7907e-07	1.8929e-07	747.53	151.28	2.8817e-07	1.5025e-07	191.5	55.348	42.692	12.581	1.9643e-07	17.894	146.665	-64.994	-87.436	-150.944	-47.224	-9.550	-150.924	-143.418	-48.296	7.864	-143.924	-137.471	-137.300	-129.265	-36.718	-129.858	-8191	255	
58488.391	1	1	0	0	0.19454	0.086107	0.17325	0.26504	0.14217	0.039116	0.42233	0.17733	0.15108	0.036526	0.23773	0.12163	0.15668	0.067279	0.14978	0.23043	-3.5542	-4.2	-4.3812	-3.8229	-4.55	-4.1104	-4.0021	-4.6458	-3.8708	-4.2979	-4.8229	-3.7208	-4.5312	-4.2229	-3.7104	-4.6521	193.739	-131.244	113.123	179.278	-67.141	102.802	92.231	-61.890	-129.597	-40.206	-25.001	145.072	-73.718	79.342	109.420	-15.415	0.00026272	0.00013717	4.861e-05	664.75	1.9303e-06	1.9169e-06	732.28	147.27	1.6823e-06	1.4591e-06	186.74	53.483	41.356	12.22	1.5921e-06	17.218	5.2126e-05	1.6789e-05	3.3479e-06	676.26	2.8538e-07	1.7404e-07	747.39	150.99	2.8395e-07	1.747e-07	191.41	55.298	42.611	12.612	2.3388e-07	17.893	139.858	-77.547	-57.693	-150.963	-24.847	-22.175	-151.395	-143.419	-52.108	-36.518	-143.866	-137.791	-136.688	-129.238	-37.665	-129.911	-8191	255	
58488.488	1	1	0	0	0.079127	0.10546	0.0211	0.074443	0.15522	0.13101	0.11887	0.051391	0.04908	0.14438	0.18471	0.10215	0.15159	0.070072	0.16175	0.043281	-3.5958	-4.1375	-4.6792	-3.8083	-4.6229	-4.3729	-3.8896	-4.6646	-4.0667	-3.9354	-4.6583	-3.7292	-4.3896	-4.4229	-3.7771	-4.7896	-6.543	-22.845	-148.098	103.345	109.329	53.484	130.633	-7.611	-72.711	173.603	110.725	-73.933	-156.240	-151.529	91.953	-22.906	0.00025279	0.00012151	4.6993e-05	666.61	1.7709e-06	1.3912e-06	734.31	147.9	2.5361e-06	2.3944e-06	185.92	52.845	40.994	12.017	2.4638e-06	17.142	4.9039e-05	1.7749e-05	3.4033e-06	675.3	2.8101e-07	1.3346e-07	746.84	151.32	3.0164e-07	2.1449e-07	190.76	55.08	42.485	12.568	2.5244e-07	17.821	145.985	-88.462	-61.421	-151.047	-53.501	-30.939	-151.385	-143.456	-61.371	3.565	-143.724	-137.378	-137.187	-128.674	-8.834	-129.817	-8191	255	
58488.605	1	1	0	0	0.11242	0.080079	0.20638	0.14113	0.12308	0.1451	0.15344	0.13211	0.3565	0.20154	0.24268	0.33903	0.076888	0.10278	0.060322	0.088395	-3.7875	-3.9437	-4.7083	-3.7646	-4.3417	-4.3146	-3.9	-4.6125	-4.0417	-3.9896	-4.5646	-3.9208	-4.4417	-4.5271	-3.7938	-4.6896	115.505	182.937	75.284	-25.842	-19.315	26.352	93.303	64.296	-52.957	176.760	80.689	137.838	55.950	-103.477	-35.004	-58.320	0.00026848	9.3717e-05	7.3991e-05	666.51	8.135e-07	1.0513e-06	727.64	147.27	2.7255e-06	2.0745e-06	185.9	53.226	40.877	12.035	1.542e-06	17.009	5.1618e-05	1.9168e-05	3.7568e-06	674.4	3.3224e-07	1.4838e-07	744.05	150.77	2.9969e-07	2.1432e-07	190.23	55	42.154	12.458	2.8036e-07	17.757	144.450	-88.594	-68.373	-150.784	-64.531	-4.192	-151.161	-143.457	-56.838	-3.231	-144.166	-137.125	-137.232	-128.897	-17.772	-129.893	-8191	255	
58488.703	1	1	0	0	0.17857	0.32562	0.091956	0.17173	0.15863	0.15641	0.041697	0.10852	0.055573	0.1214	0.04506	0.10022	0.1586	0.1795	0.14184	0.18443	-3.9333	-3.95	-4.5646	-3.9417	-4.1583	-4.6542	-3.9125	-4.525	-4.3271	-3.8333	-4.6188	-3.7854	-4.0667	-4.6562	-3.7438	-4.4437	-105.942	-104.704	-70.181	141.017	47.794	-19.653	189.662	94.629	156.666	-155.832	92.439	46.189	-66.759	46.595	61.187	184.265	0.00025142	6.949e-05	8.318e-05	662.05	1.5976e-06	1.3568e-06	729.82	146.65	2.4821e-06	2.4065e-06	184.42	52.491	40.578	11.867	1.8859e-06	16.785	5.3571e-05	2.4322e-05	4.843e-06	672.71	3.4226e-07	2.0187e-07	742	149.84	3.3685e-07	2.956e-07	189.32	54.258	41.777	12.365	3.4605e-07	17.574	140.869	-49.101	-79.076	-150.869	-62.266	-15.774	-151.084	-143.738	-65.084	-8.814	-143.896	-137.905	-137.534	-128.699	-26.527	-129.215	-8191	255	
58488.801	1	1	0	0	0.25937	0.17147	0.24556	0.24689	0.091177	0.23005	0.15764	0.334	0.052429	0.051826	0.24428	0.089828	0.18225	0.16009	0.04947	0.07229	-3.8417	-3.6021	-4.4458	-4.0125	-3.9	-4.55	-3.8854	-4.4437	-4.2979	-3.7333	-4.5938	-4.0208	-4.0938	-4.675	-3.6937	-4.2063	101.446	151.110	15.022	180.228	98.748	158.480	-81.101	-144.662	-41.936	101.377	129.329	-48.468	-116.035	130.881	73.209	9.458	0.00024715	0.00024179	5.0478e-05	661.57	3.4671e-07	1.4512e-06	726.97	145.31	1.8974e-06	1.9928e-06	182.4	52.762	40.746	11.95	1.5639e-06	16.959	5.2842e-05	3.1351e-05	6.5723e-06	672.23	3.9736e-07	2.5284e-07	742.37	148.99	3.6086e-07	3.3287e-07	189.01	54.298	41.74	12.379	3.3078e-07	17.658	151.952	-86.077	-65.021	-150.781	-120.761	-45.101	-150.947	-143.570	-79.706	34.377	-143.862	-137.727	-136.505	-129.105	-30.014	-130.178	-8191	255	
58488.895	1	1	0	0	0.28289	0.16831	0.17068	0.25016	0.14539	0.06296	0.16592	0.060356	0.16397	0.11217	0.18482	0.16126	0.17056	0.08403	0.2341	0.20049	-4.0208	-3.7146	-4.5021	-4.1708	-3.8688	-4.7354	-3.975	-4.1625	-4.4146	-3.6083	-4.5667	-4.2771	-3.8875	-4.7688	-3.7958	-4.4333	145.979	-88.994	28.693	-68.937	194.068	-137.558	145.875	23.850	89.546	-23.086	75.281	81.171	-75.423	108.618	184.017	96.652	0.00025698	0.00022352	6.0535e-05	660.44	2.0101e-06	1.7635e-06	728.36	145.7	1.8103e-06	1.8876e-06	184.27	52.715	40.691	11.967	1.5781e-06	16.829	5.305e-05	2.7493e-05	5.7886e-06	671.6	3.652e-07	2.2015e-07	740.92	148.78	3.104e-07	2.9257e-07	189.48	54.216	41.742	12.379	3.2946e-07	17.561	148.456	-76.659	-76.670	-150.812	-68.554	-33.901	-150.914	-143.447	-95.941	-11.197	-143.750	-138.029	-137.018	-129.204	-7.142	-129.756	-8191	255	
58488.992	1	1	0	0	0.16316	0.026117	0.27246	0.2742	0.20568	0.047519	0.21986	0.10007	0.076948	0.17941	0.18213	0.099495	0.28187	0.27205	0.21428	0.2105	-4.2625	-3.5854	-4.5167	-4.3396	-3.7188	-4.6396	-4.0833	-4.2229	-4.4354	-3.7958	-4.5167	-4.4729	-3.9	-4.55	-4.0417	-4.0354	95.213	64.918	-130.118	151.356	-81.970	83.013	191.998	39.954	-114.639	120.210	52.078	69.527	-30.570	40.188	79.380	133.568	0.00025094	0.00015924	7.1998e-05	658.04	1.6029e-06	2.0809e-06	721.64	145	2.6301e-06	2.0071e-06	184.22	52.439	40.154	11.806	2.4893e-06	16.663	4.9091e-05	2.609e-05	5.6225e-06	667.76	3.7054e-07	2.0003e-07	736.55	148.25	2.9726e-07	2.7014e-07	188.99	53.842	41.471	12.35	2.7674e-07	17.542	137.325	-78.267	-47.545	-150.614	-78.820	-35.552	-150.984	-143.755	-70.834	2.047	-144.146	-137.761	-137.165	-129.407	-30.586	-129.827	-8191	255	
58489.090	1	1	0	0	0.17187	0.11946	0.032283	0.12145	0.099679	0.20451	0.25511	0.26782	0.12669	0.080935	0.11615	0.15873	0.11692	0.22211	0.31369	0.084145	-4.4437	-3.5833	-4.3792	-4.4042	-3.5708	-4.4604	-4.0375	-3.9354	-4.6354	-3.5854	-4.2708	-4.4396	-3.7375	-4.5396	-4.1333	-3.8979	29.772	139.454	-54.872	-13.424	-122.992	-47.586	190.780	-138.558	-96.120	-88.978	-121.433	162.908	137.183	191.345	-27.699	169.965	0.00026175	0.00011239	5.4224e-05	653.18	2.5078e-06	2.3698e-06	716.56	144.57	1.9517e-06	1.8716e-06	183	52.089	40.295	11.775	1.9666e-06	16.786	5.0406e-05	2.5572e-05	5.8993e-06	662.84	3.7975e-07	1.6783e-07	732.48	147.93	2.8233e-07	2.666e-07	187.93	53.824	41.473	12.305	2.503e-07	17.464	146.366	-107.553	-66.997	-150.783	-42.654	-11.223	-150.782	-143.329	-68.271	5.899	-143.887	-137.340	-137.271	-129.065	-36.113	-129.419	-8191	255	
58489.211	1	1	0	0	0.27962	0.10323	0.14794	0.12083	0.068324	0.047731	0.10257	0.17239	0.091018	0.13212	0.143	0.22249	0.14994	0.17439	0.12233	0.32767	-4.4938	-3.8187	-4.0333	-4.6729	-3.8333	-4.6417	-4.2438	-3.9792	-4.6312	-3.9646	-4.2104	-4.6979	-3.7583	-4.4688	-4.1937	-3.8833	141.081	15.243	-115.983	176.896	53.168	160.938	113.203	131.501	-30.254	151.298	-96.126	-157.941	-158.243	-19.399	-18.727	112.773	0.0002562	0.0002339	4.2356e-05	653.08	1.8389e-06	2.4263e-06	713.22	144.66	1.7562e-06	1.9139e-06	183.24	52.008	39.997	11.882	1.4076e-06	16.741	5.0471e-05	2.6395e-05	5.9121e-06	662.01	3.8912e-07	2.2652e-07	729.46	147.73	3.1705e-07	2.6238e-07	188.02	53.692	41.328	12.294	2.1433e-07	17.453	143.645	-79.146	-89.453	-150.572	-52.258	-15.165	-150.972	-143.081	-58.490	14.543	-143.592	-137.384	-136.961	-129.241	-25.053	-129.660	-8191	255	
58489.305	1	1	0	0	0.11681	0.13828	0.21647	0.014188	0.065117	0.24132	0.23707	0.18714	0.039005	0.11096	0.21916	0.061554	0.16748	0.12919	0.18848	0.11831	-4.2771	-3.8979	-4.3104	-4.6958	-3.6667	-4.3917	-4.4229	-3.8167	-4.6583	-4.0958	-4.0188	-4.7354	-3.6688	-4.3292	-4.3354	-3.7313	35.970	33.763	110.602	48.501	57.681	-108.259	116.111	131.431	50.132	-138.577	-2.872	-107.869	-155.665	80.967	-20.980	94.488	0.00024482	0.0002039	5.529e-05	650.62	1.3385e-06	1.5085e-06	714.89	143.61	1.8382e-06	2.9334e-06	184.16	52.377	40.07	11.921	2.0637e-06	16.733	4.8674e-05	2.2888e-05	5.959e-06	661.07	3.7748e-07	2.1092e-07	731.4	147.37	2.9498e-07	2.4366e-07	187.64	53.847	41.321	12.326	2.3092e-07	17.503	149.170	-73.481	-81.471	-150.726	-16.430	-18.246	-150.796	-143.546	-34.315	-1.598	-143.796	-137.602	-136.947	-128.479	-47.526	-129.754	-8191	255	
58489.402	1	1	0	0	0.070803	0.12929	0.099488	0.2263	0.11709	0.17001	0.12247	0.076853	0.15926	0.20244	0.15982	0.1535	0.098786	0.19362	0.15905	0.12087	-4.2375	-4.1875	-3.8792	-4.8208	-3.8479	-4.3604	-4.6833	-3.7521	-4.7021	-4.1479	-3.85	-4.7292	-3.9167	-4.1833	-4.5833	-3.7562	118.724	153.979	131.873	-114.214	70.024	20.162	131.440	180.795	142.905	155.935	58.490	-83.323	143.633	-140.542	-60.336	-66.426	0.00024467	7.5076e-05	5.8017e-05	652.26	1.3874e-06	1.0902e-06	717.27	144.49	1.884e-06	1.5461e-06	184.11	52.029	39.81	11.824	2.2517e-06	16.626	5.0914e-05	2.022e-05	6.6447e-06	660.96	3.5438e-07	1.9265e-07	730.16	147.69	3.1786e-07	2.268e-07	188.6	53.681	41.185	12.308	2.5424e-07	17.424	144.833	-70.269	-72.769	-150.686	-44.393	9.137	-150.994	-143.254	-55.964	-15.232	-143.799	-137.491	-136.900	-129.415	-10.408	-129.786	-8191	255	
58489.496	1	1	0	0	0.21298	0.17883	0.16371	0.20447	0.17698	0.18443	0.19021	0.048924	0.23794	0.32914	0.091618	0.21025	0.085101	0.12204	0.1047	0.15241	-4.2208	-4.0208	-3.725	-4.7188	-3.7333	-4.0958	-4.6312	-3.7792	-4.3208	-4.2021	-3.8042	-4.5667	-3.9979	-4.0437	-4.5979	-3.8458	197.640	10.575	-79.432	134.313	147.337	60.356	128.346	-110.017	-93.348	141.603	-20.586	75.101	108.966	-144.958	149.788	-7.978	0.000248	0.00016825	5.6722e-05	648.48	2.0801e-06	1.294e-06	715.58	143.74	1.7171e-06	2.2955e-06	182.78	51.789	40.297	11.9	1.8902e-06	16.659	5.223e-05	2.272e-05	6.3423e-06	660.23	3.2141e-07	2.0003e-07	730.74	147.04	3.0764e-07	1.8296e-07	187.74	53.617	41.36	12.299	2.3174e-07	17.483	141.761	-45.052	-76.893	-150.802	-66.334	-40.899	-150.916	-143.475	-51.592	-21.432	-143.581	-137.187	-136.809	-129.203	-47.435	-129.792	-8191	255	
58489.594	1	1	0	0	0.17162	0.12199	0.16378	0.12583	0.17783	0.26005	0.32483	0.035181	0.093699	0.19928	0.29403	0.079823	0.080578	0.089996	0.11227	0.09368	-4.1562	-4.2812	-3.9125	-4.6562	-4.0979	-3.9917	-4.7812	-3.8771	-4.3562	-4.4437	-3.7396	-4.5917	-4.0188	-3.875	-4.6646	-3.825	117.007	-7.869	-65.542	-74.591	-6.434	-116.889	160.531	-100.217	-126.791	172.337	20.215	142.083	134.269	-93.146	13.826	-43.561	0.00024021	6.6896e-05	4.6647e-05	650.71	1.3312e-06	2.1029e-06	712.3	143.92	2.7557e-06	1.4822e-06	183.41	51.866	39.857	11.886	1.5252e-06	16.891	5.2894e-05	1.6499e-05	7.1942e-06	660.48	3.345e-07	2.2216e-07	729.39	147.41	3.1462e-07	1.7756e-07	187.98	53.738	41.144	12.319	2.2041e-07	17.477	141.512	-24.495	-83.482	-150.548	-60.817	-42.043	-150.971	-143.424	-60.513	-43.877	-143.671	-137.584	-137.068	-128.733	-27.015	-129.815	-8191	255	
58489.688	1	1	0	0	0.23746	0.1275	0.0197	0.15605	0.13729	0.074104	0.1664	0.13572	0.063333	0.080594	0.1097	0.16455	0.27602	0.24122	0.15436	0.34153	-3.8104	-4.4646	-3.65	-4.7125	-4.1896	-3.775	-4.8833	-4.0979	-4.2417	-4.4979	-3.7292	-4.5833	-4.2396	-3.9083	-4.7042	-3.8833	-76.371	31.831	8.913	153.379	153.545	-104.183	128.020	-38.708	44.528	-52.995	-11.856	189.936	-35.864	186.330	81.762	116.085	0.00026058	0.00023402	4.789e-05	648.24	1.8479e-06	2.4197e-06	716.23	143.06	2.4492e-06	2.8937e-06	182.86	52.388	39.758	11.911	2.1032e-06	16.791	5.3285e-05	1.7658e-05	6.7001e-06	659.61	3.4694e-07	2.2266e-07	730.63	147.1	3.3961e-07	1.9223e-07	187.98	53.828	41.165	12.315	2.7904e-07	17.517	146.377	-67.192	-55.456	-150.660	-66.042	-13.727	-151.281	-143.529	-69.928	-10.980	-143.946	-138.018	-137.110	-128.401	-27.618	-129.354	-8191	255	
58489.785	1	1	0	0	0.15369	0.18577	0.066119	0.020473	0.037518	0.11395	0.10017	0.11499	0.08148	0.01368	0.13676	0.31405	0.069945	0.1999	0.19766	0.075483	-3.7667	-4.4854	-3.6937	-4.6813	-4.2458	-3.8792	-4.7833	-4.0708	-3.8708	-4.6021	-3.6708	-4.4354	-4.3229	-3.8729	-4.475	-3.9979	-57.717	-81.561	113.772	81.387	-140.715	104.458	197.135	97.962	-64.160	4.090	126.836	-73.530	-116.583	-143.504	-86.444	-76.341	0.00027342	0.00019136	5.6898e-05	647.35	6.7002e-07	2.0942e-06	718.41	143.68	2.1829e-06	2.3097e-06	182.09	52.051	40.125	11.882	2.3971e-06	16.732	5.5825e-05	1.807e-05	7.3816e-06	658.47	3.1479e-07	2.7346e-07	730.52	147.24	3.2565e-07	1.7655e-07	187.94	53.631	41.292	12.313	2.2878e-07	17.479	142.369	-78.951	-81.392	-150.454	-66.583	-5.735	-151.036	-143.656	-71.030	9.503	-143.901	-137.172	-136.673	-129.216	-28.018	-129.781	-8191	255	
58489.906	1	1	0	0	0.17956	0.10108	0.13507	0.037181	0.22689	0.16823	0.10493	0.18029	0.17099	0.010794	0.057981	0.032318	0.13154	0.13694	0.079291	0.13262	-3.6042	-4.6625	-3.7646	-4.3583	-4.4833	-3.7042	-4.6021	-4.1833	-3.7896	-4.5833	-3.7208	-4.1854	-4.4104	-3.6458	-4.6125	-4.3083	-43.856	186.913	175.301	167.750	-50.199	-70.800	162.387	152.924	141.651	-69.006	-26.438	125.495	86.247	158.548	-16.399	134.384	0.00027381	0.00027972	6.4963e-05	649.62	2.2152e-06	2.0534e-06	714.88	143.98	1.7552e-06	1.6088e-06	182.32	52.13	40.308	11.851	2.3738e-06	16.805	5.2581e-05	1.9991e-05	6.4147e-06	659.57	3.1252e-07	2.8855e-07	731.31	147.27	3.2435e-07	1.8515e-07	187.71	53.653	41.222	12.32	2.6114e-07	17.484	142.070	-66.370	-79.119	-150.572	-47.551	-52.733	-151.185	-143.518	-68.912	-25.009	-144.169	-137.639	-136.653	-128.971	-42.848	-129.627	-8191	255	
58490.000	1	1	0	0	0.12343	0.1079	0.23701	0.097111	0.15541	0.034102	0.12759	0.13778	0.1308	0.15856	0.31673	0.13277	0.11561	0.32633	0.22093	0.063504	-3.3896	-4.6271	-3.8	-4.1937	-4.6542	-3.775	-4.4979	-4.0729	-3.7062	-4.5687	-3.9792	-4.0687	-4.5208	-3.6833	-4.3417	-4.3688	-113.769	-1.250	161.390	92.955	21.616	-25.218	66.978	18.353	-65.874	-25.448	193.143	138.914	108.569	166.045	-87.705	-133.193	0.00026619	0.00016801	3.9463e-05	647.13	1.6515e-06	1.6605e-06	716.02	143.03	1.8223e-06	1.8873e-06	183.46	52.05	40.301	11.868	1.065e-06	16.764	5.9367e-05	1.9274e-05	6.436e-06	659.6	3.0945e-07	2.7531e-07	731.14	147.01	3.7774e-07	1.9965e-07	187.85	53.775	41.321	12.296	2.2928e-07	17.479	141.333	-68.955	-98.505	-151.011	-30.988	2.058	-150.927	-143.386	-58.100	3.666	-143.793	-137.831	-136.879	-128.880	-20.730	-129.790	-8191	255	
58490.098	1	1	0	0	0.14424	0.14368	0.05458	0.13647	0.13379	0.060784	0.068451	0.12039	0.13174	0.040195	0.067585	0.088013	0.13548	0.22212	0.091862	0.14136	-3.5187	-4.5979	-3.8479	-4.0979	-4.5333	-3.6667	-4.3042	-4.3562	-3.675	-4.4396	-4.0271	-4.0229	-4.6583	-3.7438	-4.3354	-4.5188	-85.038	-148.389	131.917	182.151	102.132	126.620	148.541	71.345	163.871	-53.085	111.768	-117.709	145.001	54.102	134.384	45.333	0.00027486	0.00018395	7.1882e-05	650.92	2.1116e-06	1.7007e-06	720.02	144.6	2.3124e-06	2.1761e-06	184.51	52.065	39.965	11.858	3.0238e-06	16.816	5.7492e-05	1.8771e-05	6.1805e-06	660.42	3.4339e-07	2.4211e-07	731.16	147.6	3.8114e-07	1.924e-07	188.63	53.876	41.255	12.289	2.3486e-07	17.52	143.954	-78.576	-78.981	-150.560	-38.167	-18.592	-151.250	-143.013	-43.970	7.940	-143.808	-136.858	-136.767	-129.029	-30.089	-129.381	-8191	255	
58490.168	1	1	0	0	0.26783	0.13611	0.10496	0.21582	0.23371	0.21882	0.14874	0.18963	0.19669	0.020367	0.22399	0.28971	0.2052	0.10367	0.10239	0.094655	-3.3729	-4.4875	-4.0021	-3.85	-4.5021	-3.6792	-4.1833	-4.6479	-3.6646	-4.5833	-4.2604	-3.9333	-4.7896	-3.9667	-4.0833	-4.5312	-6.766	143.050	-138.192	-130.530	47.471	182.644	87.366	130.471	-105.624	9.704	143.418	63.027	-145.305	-94.352	76.810	135.650	0.00024856	0.00019572	6.8726e-06	646.82	2.1892e-06	2.6221e-06	715.59	143.94	2.2017e-06	2.6747e-06	183.3	51.971	40.232	11.942	1.5924e-06	16.78	5.6775e-05	2.083e-05	6.2401e-06	659.85	2.9313e-07	2.4295e-07	730.15	147.23	3.7822e-07	2.0168e-07	187.81	53.614	41.326	12.32	2.5391e-07	17.462	139.615	-75.736	-16.545	-150.802	-48.105	-30.491	-150.874	-143.545	-74.541	22.404	-143.531	-136.862	-137.150	-128.612	-49.895	-129.615	-8191	255	
58490.289	1	1	0	0	0.16821	0.086237	0.013865	0.11231	0.16247	0.069037	0.1712	0.16063	0.089999	0.11992	0.23341	0.045293	0.17307	0.38568	0.042084	0.090664	-3.4333	-4.5312	-4.2167	-3.7396	-4.6542	-3.9083	-4.1625	-4.7042	-3.6333	-4.4271	-4.2792	-3.7854	-4.6771	-4.0271	-3.9375	-4.5229	100.486	-25.819	-53.076	-138.484	-129.921	7.336	-124.568	139.163	-42.822	141.911	155.081	132.203	-47.667	126.610	-73.199	61.930	0.00022728	0.00022604	7.3491e-05	646.17	1.0716e-06	1.1972e-06	713.38	145.05	1.5949e-06	2.4343e-06	183.51	52.039	40.171	12	2.2158e-06	16.775	5.5629e-05	1.7475e-05	6.0655e-06	659.18	3.0606e-07	2.1998e-07	729.63	147.58	3.3247e-07	2.1179e-07	188.08	53.702	41.393	12.357	2.7165e-07	17.537	138.414	-84.835	-95.262	-151.159	-88.478	-12.775	-150.863	-143.256	-78.395	-0.679	-143.569	-137.190	-136.907	-128.981	-23.546	-129.733	-8191	255	
58490.387	1	1	0	0	0.21121	0.13332	0.13961	0.1211	0.26661	0.10944	0.053822	0.1566	0.18697	0.1043	0.19626	0.32609	0.087364	0.051958	0.047668	0.057149	-3.4208	-4.2104	-4.375	-3.8563	-4.5042	-3.925	-3.9917	-4.7104	-3.9917	-4.35	-4.4771	-3.7333	-4.4938	-4.1375	-3.9417	-4.7188	71.208	-62.762	-100.231	68.836	174.963	88.768	179.468	-90.771	138.025	11.354	153.250	-131.520	-152.303	154.597	-18.704	117.594	0.00023278	0.00013874	5.549e-05	650.03	1.7941e-06	1.6678e-06	715.86	143.54	2.2197e-06	1.17e-06	184.62	52.309	40.115	11.846	1.5604e-06	16.771	5.3923e-05	1.9168e-05	5.5543e-06	658.92	2.9701e-07	1.623e-07	730.03	147.43	3.5794e-07	2.2326e-07	188.52	53.699	41.337	12.296	3.0236e-07	17.544	144.369	-54.550	-77.029	-150.769	-42.122	-25.350	-151.153	-143.135	-67.466	21.234	-143.870	-137.570	-136.603	-128.925	-28.842	-129.518	-8191	255	
58490.480	1	1	0	0	0.0097108	0.31671	0.26662	0.19148	0.19014	0.056065	0.090528	0.12149	0.10853	0.22627	0.17955	0.2366	0.18452	0.11171	0.090467	0.019645	-3.4917	-4.1438	-4.4229	-3.8521	-4.3625	-4.3479	-3.9437	-4.7188	-3.8271	-4.1667	-4.5854	-3.5875	-4.3958	-4.1813	-3.6708	-4.6625	84.359	-80.468	39.773	-150.526	82.024	-135.925	85.612	108.793	-126.734	-53.282	-63.677	-113.524	-74.853	167.072	63.850	117.303	0.00026763	0.00017964	4.9001e-05	652.12	2.5792e-06	2.7917e-06	710.13	144.51	1.6988e-06	1.3816e-06	182.75	52.044	39.976	11.749	1.3993e-06	16.813	5.5082e-05	2.2949e-05	5.4947e-06	660.07	2.8521e-07	2.3373e-07	728.91	147.59	3.4058e-07	2.2141e-07	187.87	53.642	41.196	12.28	2.7428e-07	17.548	146.206	-77.646	-87.930	-150.916	-38.474	-0.231	-150.939	-143.259	-65.819	6.232	-143.892	-137.631	-136.835	-129.039	-20.087	-129.032	-8191	255	
58490.578	1	1	0	0	0.084245	0.11532	0.070085	0.12788	0.038725	0.11802	0.27088	0.042526	0.064135	0.17332	0.105	0.090207	0.092278	0.29167	0.33522	0.1526	-3.5271	-4.0062	-4.5042	-3.9458	-4.2979	-4.1792	-3.8646	-4.7833	-3.9437	-3.8354	-4.6979	-3.75	-4.1604	-4.4229	-3.7833	-4.45	-123.460	75.444	-71.529	119.534	153.379	61.650	126.617	-103.018	34.881	5.098	1.273	83.911	-104.309	130.594	-53.345	13.846	0.00025006	0.00020345	5.1327e-05	647.56	2.3931e-06	1.409e-06	714.68	143.53	2.4973e-06	1.7856e-06	182.55	51.974	40.203	11.902	1.7761e-06	16.787	5.361e-05	2.3605e-05	4.9367e-06	659.34	3.025e-07	1.8997e-07	729.71	147.29	3.3506e-07	2.3119e-07	187.89	53.608	41.357	12.338	3.2437e-07	17.475	146.576	-76.889	-95.537	-150.750	-50.973	-26.947	-151.135	-143.397	-55.824	-29.692	-143.731	-137.356	-137.068	-128.813	-37.558	-129.697	-8191	255	
58490.695	1	1	0	0	0.063288	0.078929	0.18483	0.099284	0.13246	0.059737	0.19517	0.067684	0.039949	0.030649	0.073142	0.099812	0.070558	0.10795	0.13164	0.092635	-3.7542	-3.8187	-4.6354	-3.7958	-4.0354	-4.5417	-3.7771	-4.5833	-3.9	-3.8604	-4.725	-3.8563	-4.1438	-4.5979	-3.675	-4.4437	80.568	-6.356	-111.545	-92.152	-99.981	-32.639	161.541	-83.202	-24.043	-19.121	80.775	58.680	57.977	168.464	99.318	82.898	0.00025236	0.00015618	3.688e-05	646.7	1.9163e-06	2.0535e-06	713.34	143.63	2.1197e-06	2.7499e-06	183.56	51.909	40.197	11.952	1.2579e-06	16.933	5.1956e-05	2.5206e-05	3.7909e-06	659.09	3.2981e-07	1.8913e-07	729.66	146.98	3.3247e-07	2.4586e-07	188.21	53.744	41.341	12.334	2.8446e-07	17.533	148.834	-88.304	-102.213	-150.651	-42.347	-17.312	-151.091	-143.597	-52.628	-6.461	-143.755	-137.278	-136.901	-129.255	-6.563	-129.562	-8191	255	
58490.770	1	1	0	0	0.07641	0.20018	0.14987	0.24445	0.20789	0.20435	0.1787	0.22607	0.057542	0.30154	0.17835	0.16195	0.16711	0.116	0.28114	0.13707	-3.9208	-3.6562	-4.6375	-3.875	-4.1208	-4.6438	-3.8604	-4.3708	-4.3187	-3.9104	-4.5417	-3.8708	-3.8563	-4.6937	-3.6688	-4.2854	93.143	-83.810	146.545	188.646	-49.586	129.911	156.842	89.295	34.735	107.830	64.600	-49.001	110.910	69.843	108.958	123.964	0.00024703	0.00013626	7.3058e-05	649.89	1.9578e-06	1.9313e-06	711.64	144.04	2.3264e-06	2.5494e-06	182.87	52.42	40.252	11.853	1.9385e-06	16.795	4.9989e-05	2.5054e-05	4.8899e-06	658.91	3.3579e-07	1.8762e-07	728.32	147.2	3.2127e-07	2.327e-07	188.08	53.757	41.329	12.312	3.0121e-07	17.542	143.349	-79.124	-76.582	-150.826	-28.377	-22.265	-151.150	-143.484	-54.751	-31.153	-143.627	-137.351	-136.766	-128.949	-40.781	-129.755	-8191	255	
58490.891	1	1	0	0	0.1588	0.037158	0.042966	0.17949	0.13037	0.13452	0.10137	0.10886	0.030395	0.21563	0.11317	0.1175	0.090615	0.14257	0.054167	0.32954	-4	-3.7854	-4.475	-4.0875	-3.9979	-4.6687	-3.9313	-4.2854	-4.3604	-3.7542	-4.6417	-4.0792	-3.925	-4.5417	-3.8979	-4.3583	-76.251	-148.926	42.169	170.079	-147.125	-21.141	24.082	-138.620	3.540	112.028	105.475	146.209	176.836	99.633	-125.633	74.888	0.00025167	0.0001973	5.1818e-05	647.51	1.8019e-06	7.8406e-07	710.71	143.09	1.868e-06	1.8638e-06	183.41	52.094	40.118	11.779	9.3087e-07	16.81	4.8973e-05	2.5663e-05	5.5628e-06	658.96	3.3644e-07	1.5878e-07	729.07	147.21	2.8638e-07	2.2562e-07	188.17	53.675	41.385	12.302	2.8463e-07	17.557	145.323	-103.569	-94.826	-151.050	-63.535	-12.189	-150.979	-143.004	-51.579	3.964	-143.519	-137.124	-136.984	-128.813	-46.865	-130.275	-8191	255	
58490.984	1	1	0	0	0.15368	0.055406	0.21243	0.19932	0.16783	0.11878	0.2557	0.097792	0.087694	0.16515	0.30039	0.20783	0.14221	0.10156	0.15508	0.070265	-4.1792	-3.7083	-4.4771	-4.2937	-3.95	-4.5792	-3.8854	-4.2583	-4.5625	-3.7438	-4.4979	-4.1854	-3.7938	-4.7146	-3.7208	-4.2208	4.992	50.841	-12.716	159.612	14.075	-151.811	131.683	-153.511	114.906	-160.358	182.114	-19.812	-27.989	181.364	115.694	60.694	0.00027829	0.00017105	5.3476e-05	647.62	1.4186e-06	1.1447e-06	715.62	143.93	2.1532e-06	2.0028e-06	183.79	52.28	40.21	11.889	1.9591e-06	16.716	5.1018e-05	2.7448e-05	4.4852e-06	660.26	3.7361e-07	1.8628e-07	731.41	147.21	2.6237e-07	2.5361e-07	188.72	53.814	41.472	12.313	2.3585e-07	17.543	143.412	-92.381	-70.005	-150.634	-59.295	-6.703	-150.901	-143.162	-45.001	-0.439	-143.744	-137.680	-137.351	-128.629	-10.619	-129.458	-8191	255	
58491.082	1	1	0	0	0.23205	0.10283	0.088597	0.13113	0.15223	0.24552	0.21458	0.2188	0.08822	0.082407	0.040414	0.26672	0.14476	0.1803	0.09506	0.17605	-4.1854	-3.6604	-4.4771	-4.4229	-3.6729	-4.6542	-4.2021	-4.0229	-4.6271	-3.6146	-4.2917	-4.4604	-3.6417	-4.7625	-3.9292	-3.9896	178.240	-34.420	187.916	43.320	-87.485	3.199	124.441	97.982	-106.383	-143.580	-65.969	166.839	33.717	155.614	-105.255	-125.385	0.00025385	0.00020745	3.6952e-05	649.01	1.1606e-06	1.317e-06	717.81	144.92	2.0522e-06	1.4977e-06	184.66	52.055	40.149	11.885	1.5523e-06	16.838	4.9286e-05	2.5755e-05	4.745e-06	659.7	3.749e-07	1.4822e-07	731.18	147.79	2.6919e-07	2.4535e-07	188.72	53.76	41.31	12.335	2.4143e-07	17.548	146.934	-82.165	-68.642	-150.524	-70.695	-5.865	-151.157	-143.729	-56.254	11.162	-143.484	-137.520	-137.168	-128.666	-57.877	-129.907	-8191	255	
58491.176	1	1	0	0	0.11551	0.28037	0.021399	0.28001	0.21085	0.057856	0.099402	0.32787	0.18759	0.092751	0.2228	0.18625	0.11939	0.29166	0.063161	0.10224	-4.3083	-3.8	-4.25	-4.4521	-3.6229	-4.6042	-4.2375	-3.9083	-4.5771	-3.8729	-4.2104	-4.4521	-3.6312	-4.3688	-4.0125	-3.8979	-35.093	85.985	53.159	-152.496	-91.634	-10.501	112.434	118.762	17.912	135.319	170.592	44.176	-54.694	-61.663	130.447	81.636	0.00026177	0.00024546	5.2886e-05	646.93	1.9963e-06	2.1853e-06	714.91	143.86	1.7963e-06	2.5783e-06	184.11	52.021	40.154	11.932	1.033e-06	16.902	4.7254e-05	2.2019e-05	5.6353e-06	659.74	3.652e-07	1.3967e-07	730.63	147.34	2.7649e-07	2.4771e-07	188.1	53.706	41.341	12.355	2.2928e-07	17.558	148.092	-61.020	-82.139	-150.792	-47.275	-25.569	-151.023	-143.223	-68.976	12.543	-144.252	-137.383	-136.583	-129.431	-16.350	-129.602	-8191	255	
58491.297	1	1	0	0	0.10447	0.13869	0.079944	0.073625	0.11067	0.10015	0.09425	0.17376	0.079372	0.048273	0.15813	0.15116	0.081397	0.14748	0.26974	0.026582	-4.25	-3.8354	-4.1604	-4.6292	-3.7646	-4.5396	-4.3479	-3.8563	-4.6875	-3.7875	-4.1104	-4.8271	-3.8208	-4.4062	-4.1687	-3.8667	47.290	-42.379	160.882	-99.720	-157.346	67.671	-158.288	154.875	-148.039	39.324	-66.605	-134.360	-12.617	83.525	30.660	47.340	0.00022637	0.00020761	5.2117e-05	648.29	1.2757e-06	1.5037e-06	718.29	144.68	1.5957e-06	2.6764e-06	182.63	51.96	40.076	11.831	1.8422e-06	16.795	4.7866e-05	2.4352e-05	6.304e-06	659.02	3.6116e-07	1.8628e-07	730.84	147.39	2.8103e-07	2.0674e-07	187.99	53.8	41.279	12.322	2.3962e-07	17.577	145.637	-69.895	-81.719	-150.755	-49.948	-3.914	-150.782	-143.115	-59.573	-2.947	-143.529	-137.101	-137.111	-129.293	-13.534	-130.213	-8191	255	
58491.395	1	1	0	0	0.2576	0.03487	0.22365	0.17045	0.04555	0.17675	0.1793	0.17528	0.14392	0.14558	0.12279	0.14988	0.23184	0.15895	0.20998	0.25515	-4.3812	-3.9	-4.075	-4.6271	-3.5896	-4.3229	-4.3083	-3.9708	-4.5542	-3.9917	-4.0271	-4.675	-3.9042	-4.2937	-4.3938	-3.7729	-147.368	172.963	68.939	127.063	-140.621	138.791	102.548	45.218	96.263	179.061	-19.710	118.709	152.337	170.188	116.989	-157.026	0.00024965	0.00023694	6.9578e-05	648.7	2.2094e-06	1.1539e-06	713.42	144.5	2.2913e-06	1.6588e-06	182.7	51.961	40.122	11.897	1.8151e-06	16.712	5.0966e-05	2.2172e-05	6.2784e-06	659.2	3.7474e-07	1.8007e-07	730.31	147.41	2.7486e-07	2.1281e-07	188.01	53.714	41.323	12.363	2.4587e-07	17.504	151.999	-86.905	-64.726	-150.741	-40.777	-58.772	-150.752	-143.553	-55.692	-39.500	-143.871	-137.079	-137.763	-129.772	-20.143	-129.688	-8191	255	
58491.465	1	1	0	0	0.054928	0.14813	0.14117	0.17252	0.028821	0.14875	0.22439	0.1293	0.11922	0.30084	0.1669	0.070909	0.1455	0.21853	0.17765	0.14738	-4.2979	-4.1458	-3.8229	-4.8083	-3.85	-4.1708	-4.4583	-3.6542	-4.3792	-4.0875	-3.7208	-4.6417	-3.8375	-4.0167	-4.7438	-3.7188	191.412	-130.117	6.670	84.899	-65.512	-57.326	-45.418	-41.455	-50.206	167.988	40.341	179.225	-1.972	-120.114	-73.815	92.017	0.00022481	0.00014722	3.6594e-05	648.28	2.6896e-06	2.9035e-06	715.35	143.79	1.8935e-06	1.9526e-06	183.14	52.336	39.899	11.854	1.5287e-06	16.703	4.7958e-05	1.7917e-05	6.2273e-06	659.53	3.5244e-07	1.8946e-07	731.1	147.48	2.6188e-07	1.9864e-07	188.06	53.91	41.26	12.302	2.255e-07	17.528	144.568	-60.501	-77.481	-150.681	-51.977	-11.233	-150.934	-143.611	-63.043	-1.786	-143.837	-137.732	-136.864	-128.501	-37.926	-129.744	-8191	255	
58491.586	1	1	0	0	0.047241	0.087651	0.093009	0.16385	0.18216	0.17635	0.10182	0.15558	0.2549	0.12522	0.17441	0.22561	0.14155	0.30042	0.057528	0.092017	-4.0333	-4.1562	-3.9729	-4.7208	-3.9708	-4.0667	-4.7583	-3.7604	-4.3604	-4.3604	-3.7583	-4.6188	-4.025	-3.9167	-4.6396	-3.8312	101.190	-132.655	29.980	-103.809	93.203	87.821	-137.435	105.409	30.341	173.237	80.796	-126.315	-32.019	-131.973	-7.987	180.263	0.00023596	0.00015998	6.3805e-05	651.72	1.818e-06	1.6225e-06	714.27	144.63	2.0138e-06	1.5534e-06	184.77	51.927	40.251	11.888	1.8862e-06	16.934	4.6929e-05	2.0204e-05	7.0238e-06	659.75	3.1866e-07	2.3607e-07	729.25	147.4	2.7438e-07	1.7638e-07	188.94	53.85	41.385	12.321	2.2024e-07	17.58	145.283	-56.761	-75.213	-150.938	-65.717	-25.661	-150.917	-143.521	-65.453	-3.653	-143.865	-137.267	-137.120	-129.392	-54.541	-129.930	-8191	255	
58491.680	1	1	0	0	0.27178	0.22432	0.14998	0.21727	0.019422	0.063488	0.28575	0.29094	0.026518	0.038407	0.094777	0.26418	0.26243	0.11443	0.093003	0.2026	-4.0479	-4.4688	-3.6354	-4.5979	-4.05	-3.8708	-4.8792	-3.7833	-4.2063	-4.4229	-3.8292	-4.6771	-4.2396	-3.8792	-4.5875	-3.8563	111.729	32.783	-58.456	161.456	-144.368	139.458	127.619	194.668	170.529	-158.584	164.698	124.044	92.626	-31.556	47.907	71.966	0.00022603	0.0001033	6.1042e-05	647.24	2.3052e-06	1.4127e-06	715.18	144.01	1.4435e-06	2.8496e-06	183.21	52.692	40.259	11.742	8.6745e-07	16.751	4.8817e-05	1.5645e-05	5.9334e-06	658.84	3.3482e-07	2.3037e-07	730.16	147.27	2.8849e-07	1.8228e-07	188.1	53.847	41.356	12.284	1.8937e-07	17.516	146.246	-107.504	-69.029	-150.866	-63.016	-28.112	-150.915	-143.181	-34.616	0.476	-143.770	-137.317	-136.909	-128.896	-37.318	-129.731	-8191	255	
58491.777	1	1	0	0	0.18862	0.21619	0.074519	0.058453	0.12396	0.048526	0.15639	0.037194	0.2768	0.18392	0.095382	0.20933	0.048459	0.2646	0.15592	0.039365	-3.9458	-4.6667	-3.7354	-4.475	-4.3646	-3.8021	-4.8417	-4.0146	-4.1125	-4.3667	-3.7812	-4.4375	-4.2958	-3.7313	-4.6208	-3.9229	146.681	61.056	84.038	-97.427	-146.558	-150.750	25.996	77.073	-128.147	-54.137	-137.194	187.173	37.368	-100.623	63.773	110.173	0.00025176	0.00018915	5.1761e-05	645.35	2.4955e-06	1.6006e-06	717.33	144.35	2.4336e-06	1.6387e-06	183.43	52.37	40.378	11.947	1.976e-06	16.886	5.2112e-05	2.0387e-05	6.9514e-06	658.68	3.0638e-07	2.8503e-07	731.02	147.46	2.7779e-07	1.7874e-07	188.07	53.826	41.408	12.315	1.5767e-07	17.501	144.314	-74.290	-94.333	-150.813	-42.409	-5.228	-150.933	-143.707	-62.911	19.229	-143.580	-137.703	-136.510	-129.319	-40.073	-129.551	-8191	255	
58491.871	1	1	0	0	0.19309	0.19068	0.26238	0.032613	0.10518	0.1813	0.14317	0.094385	0.031135	0.14908	0.33435	0.17643	0.10582	0.17477	0.026105	0.15827	-3.8208	-4.6125	-3.7708	-4.3771	-4.2583	-3.6271	-4.675	-4.0833	-3.9375	-4.7167	-3.9375	-4.4042	-4.6854	-3.7083	-4.5813	-4.2146	-33.057	-50.650	25.142	-8.622	31.664	192.611	153.798	-18.164	-59.787	-51.095	55.966	-44.771	1.135	-81.907	-110.264	90.983	0.00025867	0.00017063	4.2037e-05	645.15	1.5242e-06	1.8373e-06	716.9	143.82	1.9457e-06	2.488e-06	184.51	52.13	39.629	11.888	1.5781e-06	16.93	5.2712e-05	1.5325e-05	5.2817e-06	657.95	3.0299e-07	2.5234e-07	729.46	147.24	3.2322e-07	1.6492e-07	188.38	53.696	41.196	12.338	1.5422e-07	17.558	143.630	-72.423	-134.111	-150.655	-56.602	-9.733	-150.726	-143.349	-73.462	5.919	-144.074	-137.672	-137.193	-129.035	-46.546	-129.454	-8191	255	
58491.992	1	1	0	0	0.28973	0.077975	0.15315	0.12824	0.051757	0.13367	0.074796	0.14902	0.095545	0.19945	0.18077	0.17626	0.26968	0.033077	0.11791	0.14404	-3.6167	-4.7646	-3.8146	-4.2792	-4.475	-3.8167	-4.5938	-4.2042	-3.85	-4.8854	-3.9833	-4.2333	-4.5354	-3.6667	-4.3458	-4.0646	141.487	75.408	-129.485	158.450	65.828	172.694	72.391	-73.130	14.843	-136.805	41.659	152.856	-89.979	14.363	-44.988	-159.039	0.00023322	0.00013286	7.4853e-05	648.48	1.523e-06	2.2218e-06	716.05	144.32	2.4093e-06	2.3923e-06	181.97	51.998	40.35	11.856	1.7849e-06	16.871	5.4405e-05	1.8222e-05	5.4777e-06	658.71	2.6615e-07	2.3943e-07	730.4	147.31	3.4204e-07	1.3355e-07	187.8	53.75	41.443	12.339	2.48e-07	17.555	150.382	-87.611	-93.780	-150.725	-48.729	-1.603	-150.724	-143.226	-71.673	8.268	-143.438	-137.730	-136.526	-128.670	-5.299	-129.943	-8191	255	
58492.066	1	1	0	0	0.16891	0.26956	0.076168	0.17052	0.13847	0.049926	0.16366	0.16447	0.077475	0.14302	0.31421	0.072278	0.014374	0.11894	0.089579	0.099516	-3.4417	-4.575	-3.9729	-4.2	-4.5188	-3.7208	-4.5958	-4.3375	-3.75	-4.5771	-3.9333	-4.1854	-4.5771	-3.7229	-4.3	-4.5188	117.112	-19.763	181.541	79.986	120.118	-80.950	99.616	67.872	24.894	90.494	15.607	-10.144	139.341	186.222	77.761	89.791	0.00026296	0.00012168	5.8355e-05	649.24	1.8299e-06	1.9732e-06	716.38	144.52	2.0247e-06	1.6605e-06	183.12	52.372	40.029	11.885	1.0031e-06	16.907	5.2112e-05	1.6957e-05	5.9377e-06	659.11	2.6405e-07	2.1394e-07	731.34	147.64	3.5356e-07	1.3203e-07	187.75	53.798	41.387	12.369	2.2451e-07	17.593	141.772	-86.557	-80.090	-150.785	-73.947	-7.814	-151.078	-143.295	-47.059	-14.503	-144.028	-137.425	-136.443	-128.540	-39.838	-129.529	-8191	255	
58492.160	1	1	0	0	0.31132	0.10449	0.11164	0.01635	0.1644	0.11594	0.26881	0.028487	0.15605	0.26822	0.11567	0.068313	0.24896	0.22246	0.12405	0.1819	-3.4313	-4.6208	-4.0229	-3.9	-4.5417	-3.65	-4.3833	-4.5521	-3.7729	-4.7	-4.1292	-3.9104	-4.6229	-3.8208	-4.2083	-4.4146	111.724	-151.870	-78.959	119.142	-143.007	-90.206	36.959	-11.213	-158.048	183.661	-76.089	-154.508	-65.249	116.124	15.044	123.435	0.00025381	0.00026933	6.0253e-05	648.48	1.7749e-06	2.6049e-06	715.7	143.2	1.8763e-06	2.2685e-06	183.87	52.213	40.539	11.983	2.1101e-06	16.666	5.1422e-05	1.6469e-05	6.0995e-06	659.5	2.6421e-07	2.0841e-07	730.48	147.12	3.6037e-07	1.7655e-07	187.93	53.879	41.452	12.342	2.3552e-07	17.474	144.945	-81.802	-78.750	-150.925	-75.057	4.237	-150.763	-143.701	-46.753	-16.765	-143.739	-137.964	-136.599	-128.983	-30.126	-129.998	-8191	255	
58492.258	1	1	0	0	0.068817	0.11285	0.18789	0.080723	0.064249	0.1487	0.18963	0.18951	0.1225	0.16476	0.1056	0.13663	0.18019	0.21005	0.047416	0.11149	-3.3375	-4.4688	-3.9875	-3.7917	-4.6062	-3.825	-4.2354	-4.4625	-3.6271	-4.475	-4.3458	-3.7042	-4.625	-3.8208	-3.9188	-4.5292	135.206	-141.012	6.572	-116.814	148.301	62.936	34.633	168.354	-112.519	-82.859	100.816	-155.461	176.105	-58.638	24.146	105.012	0.00028855	0.00018548	8.4202e-05	646.54	1.7413e-06	1.6884e-06	715.16	144.58	1.68e-06	2.9106e-06	181.83	52.277	40.424	11.882	1.3169e-06	16.838	5.757e-05	1.473e-05	4.4e-06	658.85	2.9135e-07	2.1579e-07	729.24	147.4	3.3247e-07	1.8077e-07	187.86	53.713	41.404	12.333	2.7477e-07	17.525	144.045	-91.912	-88.181	-150.785	-43.056	-23.111	-151.059	-143.252	-58.010	6.766	-144.154	-137.765	-136.744	-129.291	-23.311	-129.408	-8191	255	
58492.379	1	1	0	0	0.016786	0.097713	0.12271	0.097953	0.12197	0.12372	0.14367	0.13821	0.17899	0.1854	0.15578	0.10193	0.14503	0.21772	0.17331	0.047112	-3.4333	-4.2542	-4.2833	-3.7438	-4.6208	-4.0167	-4.1	-4.5771	-3.7771	-4.4729	-4.4187	-3.6792	-4.4854	-4.0229	-3.9	-4.6062	-60.500	171.498	107.663	21.057	164.374	-99.114	91.690	157.400	-28.201	96.480	-69.866	33.059	176.697	152.170	14.935	170.518	0.00026338	0.0002453	7.0907e-05	647.83	2.5287e-06	2.1039e-06	715.04	144.21	3.0351e-06	2.538e-06	183.27	52.054	40.259	11.953	2.7616e-06	16.861	5.4587e-05	1.9015e-05	5.0517e-06	657.89	2.7827e-07	2.2551e-07	730.38	147.3	3.2679e-07	2.1584e-07	187.85	53.778	41.349	12.349	2.3223e-07	17.561	139.722	-102.385	-75.599	-150.713	-49.808	-31.246	-151.003	-143.461	-79.239	16.420	-143.967	-137.848	-136.877	-128.922	-52.202	-129.211	-8191	255	
58492.473	1	1	0	0	0.086456	0.14229	0.21494	0.42013	0.36241	0.28739	0.20852	0.27111	0.051129	0.15387	0.14979	0.2866	0.098774	0.22408	0.057396	0.26839	-3.3646	-4.1667	-4.5167	-3.8083	-4.4979	-4.1438	-3.9813	-4.675	-3.8312	-4.1167	-4.5896	-3.6333	-4.4688	-4.1479	-3.75	-4.5208	127.664	-129.061	-157.717	22.779	-122.273	186.444	136.860	33.781	137.472	174.508	89.180	-153.068	46.034	-88.544	112.375	169.921	0.00023875	0.0001998	4.9586e-05	649.59	1.8867e-06	1.7683e-06	716.95	144.84	2.4222e-06	2.0677e-06	183.36	52.137	40.364	11.968	1.614e-06	16.976	5.0706e-05	1.8634e-05	4.3489e-06	660.01	2.8748e-07	2.126e-07	730.75	147.49	3.2143e-07	1.811e-07	187.88	53.937	41.399	12.379	2.6032e-07	17.591	143.864	-92.508	-95.605	-150.646	-48.293	9.701	-150.877	-143.366	-44.274	4.724	-143.840	-137.419	-137.324	-128.654	-40.266	-129.640	-8191	255	
58492.570	1	1	0	0	0.038651	0.13504	0.028168	0.10577	0.078974	0.20842	0.20215	0.16972	0.070378	0.11575	0.073922	0.056466	0.098317	0.32606	0.16817	0.12993	-3.5563	-4.1333	-4.5292	-3.7667	-4.3625	-4.5125	-3.9458	-4.7729	-3.8771	-4.025	-4.7875	-3.8729	-4.375	-4.4729	-3.7604	-4.5667	105.624	-142.379	104.103	17.661	-53.468	-88.524	83.024	112.649	178.203	-44.605	11.374	-68.335	-98.582	-54.054	191.343	87.397	0.00026079	0.00021557	3.5416e-05	649.59	7.8866e-07	1.8801e-06	715.31	143.97	1.7332e-06	2.2178e-06	184.4	52.127	40.618	11.867	2.6373e-06	16.851	5.1956e-05	1.7795e-05	4.7195e-06	660.15	2.6873e-07	1.7471e-07	730.14	147.71	2.8557e-07	1.9864e-07	188.57	53.806	41.584	12.339	2.7034e-07	17.572	144.332	-83.875	-94.830	-150.549	-41.657	-27.939	-151.176	-143.320	-73.281	-27.181	-143.736	-137.585	-137.045	-128.919	-29.992	-129.621	-8191	255	
58492.688	1	1	0	0	0.29566	0.16775	0.12953	0.10598	0.028771	0.12458	0.054001	0.14801	0.14558	0.24326	0.14045	0.038964	0.22697	0.3457	0.033081	0.14453	-3.7	-3.9792	-4.5646	-3.7708	-4.3854	-4.4563	-3.875	-4.7562	-4.0625	-3.8021	-4.6771	-3.8354	-4.2167	-4.3854	-3.6396	-4.5042	158.678	-98.217	-79.524	40.593	118.065	-101.373	160.490	122.091	137.794	-142.299	130.356	51.852	140.034	118.672	-153.816	-77.791	0.00024079	0.00016014	6.2285e-05	651.74	1.992e-06	1.4379e-06	715.34	144.42	2.955e-06	1.5144e-06	183.02	52.244	40.339	11.993	1.3185e-06	16.802	5.0471e-05	2.2705e-05	3.8122e-06	660.44	3.2432e-07	1.9801e-07	730.48	147.61	3.0099e-07	2.3152e-07	187.93	53.885	41.513	12.38	2.7658e-07	17.538	143.923	-63.778	-90.380	-150.840	-58.026	5.035	-151.198	-143.242	-52.417	-1.258	-143.485	-136.835	-136.646	-129.352	-43.144	-129.989	-8191	255	
58492.762	1	1	0	0	0.15492	0.18434	0.11391	0.25493	0.072405	0.097201	0.14876	0.28663	0.28845	0.022472	0.16029	0.14851	0.1134	0.079628	0.055032	0.23723	-3.8438	-3.6792	-4.5854	-3.875	-4.1271	-4.7021	-3.9125	-4.4062	-4.2417	-3.8667	-4.7688	-3.95	-4.1708	-4.45	-3.6646	-4.3625	-97.514	60.427	-159.317	179.833	101.016	-136.900	161.760	176.726	-137.591	89.864	-115.222	-58.960	182.124	23.735	198.544	108.117	0.00024676	0.00016362	6.7536e-05	649.27	2.0994e-06	1.3656e-06	713.07	144.18	1.5377e-06	1.6708e-06	184.06	52.726	39.767	11.888	8.9095e-07	16.763	4.939e-05	2.022e-05	4.4596e-06	658.68	3.4775e-07	1.4134e-07	728.69	147.22	2.9109e-07	2.3372e-07	188.32	54.002	41.355	12.31	2.3946e-07	17.599	145.407	-66.487	-68.404	-150.730	-58.183	-2.651	-150.976	-143.154	-35.935	2.115	-143.594	-137.703	-136.602	-129.234	-40.835	-129.916	-8191	255	
58492.859	1	1	0	0	0.16548	0.071397	0.10405	0.30024	0.26178	0.12739	0.27984	0.079445	0.14822	0.18904	0.2019	0.17783	0.18436	0.058178	0.089166	0.3379	-4.1396	-3.75	-4.7688	-3.9729	-3.9792	-4.5646	-3.6958	-4.3729	-4.4354	-3.9104	-4.6312	-3.9542	-3.825	-4.6583	-3.7562	-4.2979	25.686	-56.755	49.601	182.474	-26.963	49.747	131.773	148.939	92.678	-40.715	-132.835	-30.985	113.119	176.161	-87.581	119.168	0.0002263	0.00024046	6.0431e-05	646.41	1.9104e-06	1.9827e-06	713.22	144.31	2.1716e-06	2.074e-06	184.48	52.058	39.939	11.952	1.9357e-06	16.786	5.0328e-05	2.4916e-05	4.8941e-06	658.22	3.484e-07	1.4838e-07	729.84	147.64	3.0196e-07	2.1837e-07	188.43	53.866	41.263	12.346	2.8775e-07	17.493	138.818	-71.637	-75.841	-150.601	-50.606	-2.304	-150.895	-143.295	-42.038	-16.760	-143.656	-137.181	-136.951	-128.960	-17.241	-130.064	-8191	255	
58492.977	1	1	0	0	0.24496	0.23811	0.16434	0.070007	0.060874	0.27684	0.1541	0.10745	0.21408	0.17864	0.083719	0.10581	0.13671	0.036892	0.17	0.072432	-4.0563	-3.7188	-4.4271	-4.175	-3.7479	-4.6604	-3.9208	-4.1229	-4.4708	-3.5187	-4.5667	-4.2146	-3.9083	-4.5354	-3.9542	-4.0792	130.589	7.640	-117.073	50.935	27.382	-134.517	143.099	111.295	61.019	113.483	1.098	-127.412	-100.249	-139.413	-69.828	-95.844	0.00024998	0.0002394	6.8721e-05	644.4	1.5781e-06	1.043e-06	712.69	143.04	2.4622e-06	1.6773e-06	183.24	51.905	39.807	11.885	1.023e-06	16.84	4.9924e-05	2.3468e-05	5.3371e-06	656.46	3.6536e-07	1.5409e-07	727.29	147.01	3.1137e-07	2.5901e-07	187.86	53.671	41.269	12.318	2.8512e-07	17.53	145.631	-75.936	-70.215	-150.362	-48.634	-12.626	-150.867	-143.421	-68.354	-7.321	-143.783	-137.390	-136.757	-128.976	-34.860	-129.484	-8191	255	
58493.074	1	1	0	0	0.12525	0.12014	0.12065	0.15651	0.14829	0.15021	0.19399	0.15601	0.22645	0.21168	0.056593	0.16366	0.087381	0.092436	0.054585	0.16383	-4.4667	-3.6271	-4.4062	-4.2396	-3.7292	-4.5938	-4.0333	-4.1625	-4.5396	-3.5958	-4.3833	-4.3313	-3.6813	-4.6937	-3.875	-3.9229	28.673	-19.352	78.128	119.507	154.697	125.805	85.938	144.915	154.740	-158.420	-89.287	49.330	-151.459	182.516	157.568	-150.815	0.00025387	0.00025784	5.3176e-05	647.61	1.3284e-06	1.4691e-06	714.52	144.08	3.0511e-06	2.547e-06	183.46	52.162	40.373	11.951	2.0956e-06	16.74	4.8283e-05	2.4764e-05	4.285e-06	657.53	3.6343e-07	1.8209e-07	728.89	147.23	2.502e-07	2.4299e-07	187.99	53.755	41.427	12.377	2.5441e-07	17.562	146.531	-69.648	-80.988	-150.681	-47.111	-34.178	-151.182	-143.780	-40.127	-24.670	-143.725	-138.192	-137.180	-129.084	-2.403	-130.048	-8191	255	
58493.172	1	1	0	0	0.030911	0.10383	0.23659	0.14908	0.077149	0.11828	0.01858	0.14985	0.15622	0.24765	0.13166	0.08492	0.18589	0.14395	0.012039	0.065107	-4.2583	-3.7417	-4.3167	-4.3458	-3.8458	-4.6208	-4.1583	-4.0813	-4.7521	-3.8375	-4.275	-4.4792	-3.8229	-4.6229	-4.0792	-4.0146	-157.799	18.526	-84.721	-70.904	-102.818	139.304	-123.727	189.004	189.367	107.630	-82.206	6.963	22.569	56.868	-21.944	-95.005	0.00025547	0.00017719	5.3686e-05	648.27	1.4408e-06	1.4901e-06	711.97	143.54	1.2135e-06	1.7711e-06	183	52.304	40.206	11.984	1.0747e-06	16.886	4.8947e-05	2.2461e-05	4.6684e-06	660.64	3.1592e-07	1.4553e-07	729.37	147.16	2.2911e-07	1.7453e-07	188	53.893	41.309	12.376	2.4307e-07	17.565	142.826	-85.116	-88.689	-150.638	-40.320	-2.643	-151.000	-143.352	-64.106	3.433	-144.156	-137.796	-136.889	-128.911	-12.371	-129.720	-8191	255	
58493.266	1	1	0	0	0.28381	0.1616	0.10629	0.33065	0.081963	0.057216	0.19765	0.24334	0.20787	0.11625	0.24432	0.25611	0.21009	0.1281	0.093886	0.30785	-4.4458	-3.7604	-4.1562	-4.6083	-3.8625	-4.4896	-4.4833	-4.0188	-4.775	-4.0875	-4.1146	-4.5958	-3.8333	-4.55	-4.2479	-3.8792	-131.952	-154.128	-94.572	185.764	-94.484	39.087	-16.943	198.244	139.673	101.631	89.052	-145.786	101.171	-49.547	32.377	-43.991	0.00022862	0.00020268	7.9164e-05	648.6	1.9702e-06	1.8553e-06	717.13	143.61	1.3512e-06	1.7625e-06	183.18	52.168	40.442	11.918	1.8391e-06	16.828	4.6473e-05	2.118e-05	5.3115e-06	659.65	3.3902e-07	1.5274e-07	730.24	147.24	1.9244e-07	2.2039e-07	188.08	53.868	41.417	12.345	2.4406e-07	17.593	145.482	-74.724	-91.761	-150.641	-29.599	-11.071	-150.957	-143.239	-71.993	20.166	-143.976	-137.360	-136.926	-128.906	-19.810	-129.570	-8191	255	
58493.363	1	1	0	0	0.14406	0.25117	0.14458	0.16757	0.16851	0.11298	0.30903	0.19038	0.084781	0.15609	0.24115	0.1333	0.12239	0.19289	0.11228	0.095354	-4.3604	-3.8521	-3.9917	-4.7604	-3.6688	-4.4771	-4.5625	-3.7104	-4.7188	-4.075	-4.0125	-4.5563	-3.6354	-4.2771	-4.4917	-3.8563	-160.773	-106.088	32.580	184.866	186.520	-76.983	146.384	-88.545	-94.133	17.259	121.332	115.423	1.497	25.998	34.939	-157.649	0.00023318	0.00019551	4.6879e-05	646.91	1.5047e-06	2.1244e-06	719.62	144.45	2.5785e-06	1.9847e-06	182.87	52.015	40.059	11.94	1.4381e-06	16.803	4.5535e-05	2.2202e-05	4.2211e-06	659.25	3.0897e-07	1.6046e-07	730.58	147.32	2.3965e-07	2.3945e-07	188.18	53.856	41.449	12.329	2.0694e-07	17.512	146.516	-68.739	-85.239	-150.809	-70.731	-14.894	-150.995	-143.327	-42.718	-30.582	-144.104	-137.266	-136.952	-128.628	23.027	-129.997	-8191	255	
58493.461	1	1	0	0	0.13862	0.11314	0.1048	0.067053	0.079554	0.31742	0.17071	0.068644	0.048065	0.13176	0.1347	0.085731	0.15778	0.2385	0.21966	0.046951	-4.3333	-4.1438	-3.8271	-4.8646	-3.8646	-4.275	-4.5979	-3.8417	-4.6583	-4.0583	-3.8458	-4.7562	-3.9188	-4.0979	-4.4437	-3.6271	-100.880	19.036	-65.120	-35.659	42.854	134.084	17.991	127.551	85.620	-77.409	-38.427	137.339	-44.236	1.436	26.299	-15.613	0.00024093	0.00016933	4.5531e-05	648.99	1.3613e-06	1.3197e-06	716.37	143.99	1.7594e-06	1.0409e-06	183.2	52.318	40.029	11.912	1.9961e-06	16.893	4.7033e-05	2.0113e-05	5.9377e-06	659.49	3.2238e-07	1.5677e-07	730.62	147.19	2.9028e-07	2.123e-07	188.55	53.854	41.372	12.35	2.0563e-07	17.551	145.108	-75.573	-74.860	-150.765	-45.492	29.871	-150.974	-143.341	-48.093	-15.397	-143.866	-137.219	-137.037	-129.365	-43.168	-129.800	-8191	255	
58493.555	1	1	0	0	0.22616	0.15734	0.14797	0.091327	0.2921	0.056344	0.065289	0.11323	0.14879	0.24397	0.13316	0.148	0.15916	0.27171	0.066055	0.094455	-4.1562	-4.2042	-3.7687	-4.7229	-3.7667	-4.1042	-4.7396	-3.9875	-4.4854	-4.3187	-3.7542	-4.6833	-4	-4.1167	-4.7333	-3.8375	-96.550	-112.863	71.521	-30.266	27.438	43.724	-143.516	-128.830	9.632	63.281	191.222	-23.532	-4.298	65.317	-156.284	175.700	0.00025105	4.8523e-05	5.3192e-05	646.88	1.8064e-06	2.7522e-06	717.25	143.96	1.994e-06	2.6137e-06	184.28	52.021	40.017	11.799	1.0687e-06	16.725	4.6199e-05	1.7704e-05	5.9206e-06	659.67	3.2497e-07	2.4446e-07	731.13	147.28	2.648e-07	1.6036e-07	188.57	53.858	41.335	12.326	1.9002e-07	17.546	146.095	-70.140	-80.764	-150.930	-44.393	15.036	-150.944	-143.479	-55.990	6.015	-143.760	-137.141	-137.010	-128.919	-45.665	-129.508	-8191	255	
58493.652	1	1	0	0	0.16042	0.054152	0.14107	0.13007	0.096463	0.18287	0.067195	0.071312	0.13839	0.13318	0.23518	0.018885	0.076146	0.061523	0.17977	0.17441	-4.0813	-4.5813	-3.7438	-4.7021	-3.9229	-4.0167	-4.6542	-3.6792	-4.2021	-4.3458	-3.6521	-4.5917	-4.1667	-3.9479	-4.7021	-3.8771	130.696	-85.804	-65.309	-152.216	64.550	-59.458	181.292	93.566	-4.743	-149.090	-115.281	194.515	-61.921	164.758	117.787	188.359	0.00024801	0.00015646	5.7831e-05	647.91	1.6438e-06	1.7274e-06	716.19	143.27	2.5389e-06	2.3077e-06	183.15	52.621	40.102	11.955	1.6587e-06	16.88	4.8817e-05	1.4318e-05	6.2316e-06	659.87	3.4129e-07	1.8963e-07	731.2	146.91	2.9239e-07	1.8279e-07	188.3	53.909	41.275	12.332	1.7508e-07	17.518	150.482	-60.004	-73.825	-150.687	-39.612	-18.336	-151.011	-143.252	-58.431	-0.390	-144.111	-137.159	-136.724	-129.253	-9.515	-129.774	-8191	255	
58493.770	1	1	0	0	0.079487	0.10378	0.18042	0.13457	0.16202	0.14026	0.13625	0.15117	0.085688	0.14793	0.20478	0.24869	0.19181	0.070751	0.22679	0.1851	-3.8667	-4.3729	-3.6854	-4.4958	-4.1562	-3.8833	-4.7333	-3.9417	-4.2708	-4.6917	-3.7375	-4.6146	-4.2604	-3.9375	-4.6271	-3.95	64.449	-29.270	-66.177	133.128	-67.274	-13.738	130.530	117.573	-26.625	98.945	-153.129	163.876	-155.076	117.139	103.410	105.551	0.00023001	0.00019841	6.035e-05	650.4	1.2373e-06	2.1452e-06	714.03	143.76	1.4662e-06	2.4968e-06	183.94	51.933	40.302	12.013	1.4348e-06	16.856	5.2959e-05	1.6941e-05	6.0314e-06	660.14	3.442e-07	2.2082e-07	730.38	147.25	2.8233e-07	1.7048e-07	188.31	53.849	41.438	12.386	2.0842e-07	17.559	150.207	-103.922	-78.005	-150.379	-53.413	-8.708	-150.838	-143.573	-56.249	-11.146	-143.814	-137.043	-137.114	-128.660	-44.400	-129.702	-8191	255	
58493.867	1	1	0	0	0.28555	0.17286	0.19895	0.14359	0.058965	0.21596	0.18963	0.067557	0.098146	0.057142	0.26218	0.19291	0.20897	0.13873	0.18711	0.16993	-3.775	-4.6396	-3.7958	-4.4437	-4.1917	-3.8292	-4.7021	-4.2396	-4	-4.5792	-3.7917	-4.3958	-4.6042	-3.9917	-4.6396	-4.1542	-0.100	-98.449	26.469	-148.494	-0.813	-10.399	-150.933	-84.263	-21.895	-93.506	136.395	-65.705	104.332	-55.229	-139.032	-57.914	0.00025411	0.00022189	6.6824e-05	650.41	3.2409e-06	1.82e-06	718.84	144.03	1.3378e-06	2.4332e-06	183.22	52.413	40.205	11.883	2.5864e-06	16.869	4.8869e-05	1.7978e-05	6.6064e-06	661.04	3.2254e-07	2.2434e-07	732.36	147.19	3.1803e-07	1.5379e-07	188.19	53.932	41.441	12.337	1.9479e-07	17.546	143.558	-69.540	-72.678	-150.864	-54.075	-38.193	-150.990	-143.547	-27.762	-21.892	-144.367	-137.474	-136.926	-128.988	-23.478	-129.641	-8191	255	
58493.938	1	1	0	0	0.14692	0.16106	0.23333	0.24205	0.14725	0.098164	0.063655	0.2543	0.18049	0.11298	0.14173	0.042294	0.15015	0.19819	0.10375	0.12876	-3.6813	-4.5917	-3.9479	-4.5458	-4.575	-3.6896	-4.6271	-4.2542	-3.9417	-4.6521	-3.9125	-4.3125	-4.6333	-3.9	-4.4479	-4.2417	-106.324	100.443	45.626	-20.015	119.355	152.912	157.446	142.907	-38.044	-52.392	187.088	191.798	111.991	46.807	55.195	-155.611	0.00024537	0.00015909	5.6351e-05	648.38	1.3084e-06	2.2886e-06	721.93	143.94	1.9964e-06	2.4537e-06	184.03	52.293	40.47	11.969	1.6637e-06	16.962	5.3102e-05	1.0796e-05	5.2647e-06	660.19	2.6873e-07	2.0539e-07	732.35	147.54	3.203e-07	1.1214e-07	188.03	53.93	41.281	12.364	2.1055e-07	17.576	144.771	-51.156	-66.426	-150.846	-64.141	-24.324	-151.119	-143.196	-56.717	24.477	-143.808	-137.650	-136.772	-129.337	-47.784	-129.918	-8191	255	
58494.059	1	1	0	0	0.17146	0.15922	0.29772	0.10335	0.10265	0.17989	0.096811	0.20662	0.15489	0.22147	0.26304	0.19111	0.23096	0.14945	0.093537	0.069331	-3.6979	-4.5687	-3.9	-4.2583	-4.6146	-3.7562	-4.5687	-4.2708	-3.8542	-4.7396	-4.0646	-4.1042	-4.7417	-3.7125	-4.4563	-4.3187	-61.941	151.345	111.983	-49.460	-126.808	-73.856	-34.556	-102.735	-2.289	-107.501	33.538	-150.302	-116.468	164.524	-114.492	14.279	0.00026675	0.00017707	3.4729e-05	647.48	1.2798e-06	1.6586e-06	713.86	144.22	2.7054e-06	1.8596e-06	183.71	52.478	40.083	11.867	1.996e-06	16.685	5.4379e-05	1.5096e-05	5.6097e-06	661.01	2.676e-07	2.3272e-07	731.74	147.19	3.4139e-07	1.1871e-07	188.35	54.08	41.446	12.351	2.2123e-07	17.48	145.986	-73.422	-91.088	-150.729	-33.368	-2.936	-151.178	-143.253	-75.183	-4.739	-144.084	-137.566	-136.990	-129.259	-32.009	-130.115	-8191	255	
58494.152	1	1	0	0	0.12691	0.14519	0.087972	0.15712	0.11682	0.025012	0.16654	0.17613	0.21901	0.12594	0.061157	0.062467	0.1131	0.16386	0.13984	0.060586	-3.5687	-4.5437	-3.8833	-4.1958	-4.6271	-3.8563	-4.4062	-4.5563	-3.7542	-4.6562	-4.1667	-3.95	-4.5687	-3.5771	-4.2208	-4.5312	-148.166	-134.114	-109.444	-104.286	71.839	65.488	116.923	-151.635	-136.628	-126.380	155.767	-49.136	65.081	15.731	195.177	-153.911	0.0002486	0.00020859	5.598e-05	648.11	1.8602e-06	1.8743e-06	717.84	143.91	3.0375e-06	1.9786e-06	184.19	51.806	40.491	11.95	2.4705e-06	16.848	4.9468e-05	1.6011e-05	5.3925e-06	659.13	2.4643e-07	2.3674e-07	732.09	147.54	2.9628e-07	1.7706e-07	187.86	53.805	41.405	12.347	2.2895e-07	17.561	144.886	-74.588	-70.795	-150.794	-57.395	-0.982	-150.872	-143.245	-42.951	-5.482	-143.411	-137.389	-136.785	-129.200	-38.400	-129.559	-8191	255	
58494.250	1	1	0	0	0.13121	0.2734	0.13635	0.13192	0.184	0.23252	0.1722	0.10608	0.12137	0.014727	0.077015	0.35095	0.18889	0.15999	0.16166	0.17018	-3.4521	-4.6208	-4.2771	-4.0042	-4.8208	-3.8646	-4.2833	-4.5417	-3.7729	-4.5271	-4.3042	-3.7271	-4.7188	-3.9	-4.1208	-4.6562	61.956	196.940	55.574	170.171	-52.873	-102.002	-149.705	-48.511	-12.954	-46.551	117.380	-67.912	15.327	-113.227	5.303	-25.655	0.00025578	0.00015806	2.7835e-05	646.87	2.058e-06	1.0158e-06	714.57	144.02	1.8235e-06	2.375e-06	182.95	51.696	40.124	11.93	1.5809e-06	17.014	5.4014e-05	1.6545e-05	4.4043e-06	658.66	3.0654e-07	2.3406e-07	731.06	147.29	3.0018e-07	1.9729e-07	187.65	53.844	41.375	12.345	2.3765e-07	17.623	144.559	-65.118	-71.135	-150.848	-54.661	-14.141	-151.117	-143.454	-106.568	-13.578	-143.815	-137.801	-137.224	-128.952	-45.591	-129.760	-8191	255	
58494.371	1	1	0	0	0.1841	0.16479	0.083711	0.17824	0.12498	0.10575	0.18796	0.20888	0.1164	0.24024	0.152	0.073924	0.061963	0.21811	0.10578	0.3207	-3.3604	-4.5292	-4.2521	-3.8875	-4.7	-4.0646	-4.0792	-4.7667	-3.6063	-4.4875	-4.3792	-3.7667	-4.6708	-4.1146	-3.9917	-4.6937	-14.310	-130.488	-83.473	142.714	78.262	135.812	-133.439	173.454	-150.620	-15.183	-94.068	-13.931	-48.951	105.972	69.380	-46.555	0.00024461	0.00013729	6.8822e-05	652.98	2.0086e-06	2.5458e-06	713.9	144.43	2.6767e-06	2.27e-06	183.3	52.361	39.905	11.859	1.6633e-06	16.688	5.2764e-05	1.592e-05	4.7621e-06	660.43	2.7212e-07	2.0807e-07	730.59	147.38	3.1251e-07	1.6121e-07	188.06	53.879	41.382	12.364	2.7132e-07	17.542	141.206	-67.002	-80.242	-150.922	-73.076	-20.123	-150.985	-142.864	-64.057	-6.505	-143.874	-137.417	-136.838	-129.127	-40.829	-129.597	-8191	255	
58494.469	1	1	0	0	0.073811	0.14087	0.15024	0.22759	0.080278	0.19483	0.023694	0.16715	0.25812	0.092865	0.082927	0.15464	0.079672	0.20922	0.086625	0.18215	-3.475	-4.3396	-4.5708	-3.9458	-4.3646	-4.1	-4.0708	-4.7771	-3.9208	-4.3083	-4.6146	-3.6375	-4.7104	-4.0979	-3.7833	-4.8562	142.625	41.953	-57.105	-2.050	100.043	-78.214	134.134	178.190	98.346	196.521	9.919	103.653	158.466	-106.549	-46.295	102.693	0.00024777	0.0001449	3.0336e-05	648.24	1.6321e-06	1.6563e-06	716.89	143.97	1.4412e-06	2.2537e-06	183.45	51.924	40.461	11.83	1.5763e-06	16.819	5.6567e-05	2.0403e-05	4.8686e-06	658.91	3.1753e-07	2.2082e-07	730.84	147.09	3.2322e-07	2.2039e-07	187.82	53.73	41.411	12.328	2.3946e-07	17.565	147.339	-57.217	-78.259	-150.881	-63.936	-36.026	-150.977	-143.061	-52.524	7.392	-143.832	-137.540	-136.917	-128.859	-20.419	-129.344	-8191	255	
58494.562	1	1	0	0	0.057452	0.30206	0.20508	0.089137	0.050053	0.30333	0.21714	0.039723	0.21595	0.14019	0.015178	0.17384	0.13309	0.18221	0.10392	0.030484	-3.5917	-4.2604	-4.4313	-3.8396	-4.4542	-4.2979	-4.0479	-4.8021	-3.8667	-4.1708	-4.6646	-3.8021	-4.4542	-4.2146	-3.8458	-4.6917	-8.887	-127.028	-81.716	-128.429	21.143	131.761	158.974	-134.161	-96.199	13.209	191.273	-96.548	119.096	56.274	-21.756	114.044	0.00025088	0.00018682	4.2533e-05	648.62	1.5324e-06	1.735e-06	716.5	143.24	2.2694e-06	1.9933e-06	183	52.678	40.607	11.883	2.098e-06	16.846	5.1761e-05	2.2217e-05	4.383e-06	659.71	2.739e-07	1.5777e-07	730.12	147.14	3.3441e-07	2.0454e-07	188.09	53.991	41.447	12.375	2.2057e-07	17.577	146.312	-86.372	-89.215	-150.750	-90.698	-33.604	-151.165	-143.456	-59.790	12.562	-143.774	-137.389	-137.262	-128.619	-28.100	-129.377	-8191	255	
58494.660	1	1	0	0	0.19475	0.10379	0.17241	0.18144	0.083233	0.12585	0.058846	0.090659	0.12473	0.10791	0.070854	0.034066	0.11104	0.070542	0.049771	0.10091	-3.7167	-3.8917	-4.6104	-3.9354	-4.3708	-4.4479	-3.775	-4.7729	-4.1271	-4.0583	-4.7458	-3.8333	-4.3042	-4.4021	-3.8167	-4.7729	20.438	97.840	140.986	-116.491	-96.682	-30.378	81.981	-31.439	39.963	-61.854	140.539	112.566	77.239	-76.070	142.486	152.445	0.0002456	0.00022538	6.5381e-05	651.01	1.0655e-06	2.1229e-06	716.96	143.03	2.3247e-06	2.1807e-06	183.27	52.205	40.248	11.826	1.9984e-06	16.967	5.1891e-05	1.964e-05	3.2031e-06	659.84	2.8182e-07	1.4939e-07	729.35	147.28	2.5393e-07	2.2528e-07	188.18	53.954	41.504	12.315	2.6919e-07	17.614	147.554	-90.173	-75.255	-150.647	-8.470	-13.351	-151.265	-143.436	-88.478	-10.322	-143.773	-137.683	-137.032	-128.706	-52.102	-130.164	-8191	255	
58494.754	1	1	0	0	0.11028	0.15403	0.081655	0.085623	0.18446	0.1506	0.33671	0.11805	0.13532	0.1107	0.16024	0.23869	0.22934	0.10089	0.22059	0.17165	-3.9688	-3.8729	-4.7083	-3.9229	-4.2104	-4.4979	-3.8896	-4.5979	-4.2604	-3.9437	-4.6146	-4.0875	-4.225	-4.5708	-3.8292	-4.675	-126.001	-29.074	-11.255	-134.595	104.166	46.921	43.312	30.575	55.175	177.516	112.394	-108.156	39.920	-153.104	162.126	-101.192	0.00024735	0.00018281	3.3394e-05	649.99	1.2726e-06	1.7866e-06	715.04	144.5	1.841e-06	2.2232e-06	183.61	52.267	40.12	11.97	1.7333e-06	16.833	4.9403e-05	1.8725e-05	3.7228e-06	659.52	3.2965e-07	1.3698e-07	730.63	147.31	2.515e-07	1.9915e-07	188.46	53.958	41.438	12.411	2.4751e-07	17.628	149.621	-65.135	-92.870	-150.731	-89.610	2.613	-151.205	-143.547	-67.784	15.197	-143.517	-137.303	-136.424	-129.291	3.789	-130.090	-8191	255	
58494.852	1	1	0	0	0.1157	0.10808	0.062734	0.27967	0.083331	0.24008	0.311	0.21835	0.18153	0.12187	0.14501	0.033084	0.043648	0.24695	0.1079	0.11649	-4.1521	-4.0146	-4.8292	-4.0062	-4.1188	-4.6667	-3.9062	-4.5521	-4.5229	-3.8792	-4.7042	-4.1208	-4.0375	-4.8479	-3.7917	-4.5167	-85.026	170.074	-79.812	90.946	124.537	27.095	122.988	58.067	-19.549	44.658	81.185	21.217	-140.763	-159.202	-98.287	-103.869	0.00023918	0.00011119	4.6776e-05	648.85	1.1792e-06	1.9331e-06	715.84	144.23	1.5866e-06	2.1573e-06	183.23	52.088	40.514	11.915	2.3425e-06	16.745	4.8895e-05	1.9335e-05	4.1019e-06	659.7	3.004e-07	9.6911e-08	729.89	147.5	2.3706e-07	1.8363e-07	188.15	53.821	41.471	12.418	2.5588e-07	17.607	144.963	-59.184	-88.852	-150.519	-63.249	-3.684	-151.160	-143.250	-71.286	-8.423	-143.927	-137.349	-137.144	-129.222	-41.828	-129.230	-8191	255	
58494.973	1	1	0	0	0.062143	0.30831	0.18496	0.091746	0.17814	0.073992	0.46601	0.14234	0.11024	0.10469	0.25096	0.051995	0.06442	0.083088	0.3425	0.098476	-4.1875	-3.8063	-4.5917	-4.2375	-4.1125	-4.7688	-3.9792	-4.3667	-4.6229	-3.7958	-4.5792	-4.2396	-3.9396	-4.7167	-3.8521	-4.2771	19.242	28.501	34.553	-92.396	4.242	-7.182	120.114	171.777	-22.924	117.645	131.811	-128.817	-127.623	136.809	26.625	-9.739	0.00025925	0.00018011	6.3319e-05	649.11	1.3757e-06	1.55e-06	715.88	143.83	2.436e-06	1.4852e-06	184.19	52.291	40.148	11.952	2.4474e-06	16.913	4.7254e-05	1.8878e-05	3.497e-06	659.35	3.0719e-07	1.0362e-07	730.24	147.33	2.4939e-07	2.1129e-07	188.2	53.978	41.444	12.387	2.5523e-07	17.556	145.659	-69.823	-55.003	-150.569	-46.620	-9.039	-150.884	-143.262	-62.604	-0.329	-143.638	-137.714	-136.474	-128.714	-39.067	-129.557	-8191	255	
58495.066	1	1	0	0	0.20413	0.18599	0.2344	0.26821	0.15011	0.16313	0.16714	0.12719	0.092807	0.15716	0.16044	0.26547	0.079209	0.25386	0.19977	0.12342	-4.3396	-3.6792	-4.575	-4.3104	-3.8229	-4.7958	-4.1646	-4.1708	-4.5229	-3.7604	-4.4875	-4.3396	-3.8708	-4.7208	-4.0125	-4.1229	75.347	-121.429	-10.452	114.460	-53.732	-28.571	194.202	-76.464	87.652	-88.333	86.333	-39.544	-48.140	104.185	131.160	-105.342	0.00026441	0.00010861	6.4501e-05	645.36	1.3393e-06	1.4033e-06	716.01	144.04	2.2137e-06	1.8625e-06	183.59	52.727	40.394	11.899	1.9279e-06	16.96	4.7007e-05	1.7658e-05	4.2893e-06	657.41	2.8101e-07	1.0647e-07	729.84	147.27	2.4112e-07	2.1061e-07	188.33	53.982	41.453	12.36	2.618e-07	17.575	146.514	-51.186	-63.160	-150.712	-54.565	-8.198	-151.042	-143.722	-42.168	21.699	-143.595	-137.165	-137.040	-128.823	-30.499	-130.041	-8191	255	
58495.164	1	1	0	0	0.25107	0.10836	0.24329	0.23217	0.21726	0.094181	0.080358	0.12489	0.18648	0.18434	0.11198	0.13884	0.14393	0.091491	0.13074	0.10705	-4.2438	-3.6729	-4.3896	-4.4625	-3.8771	-4.6479	-4.3417	-4.0771	-4.7167	-3.8625	-4.4542	-4.6104	-3.7125	-4.5563	-4.0042	-3.925	-72.922	-7.909	-103.771	86.585	57.402	-149.219	144.264	171.382	-147.304	124.676	-57.374	190.202	-113.164	-23.392	-144.594	136.909	0.00026213	0.00019574	5.5281e-05	648.34	1.2981e-06	1.447e-06	711.79	143.88	2.1601e-06	2.1957e-06	183.49	52.031	40.213	11.901	1.8061e-06	16.911	4.814e-05	2.4078e-05	5.5415e-06	659.15	3.0945e-07	1.5459e-07	729.66	147.22	2.0964e-07	2.2545e-07	188.05	53.799	41.38	12.373	2.0333e-07	17.599	145.470	-86.388	-95.077	-150.627	-58.165	-30.302	-150.833	-143.636	-41.680	-16.840	-143.741	-137.888	-136.911	-129.275	-41.840	-129.821	-8191	255	
58495.234	1	1	0	0	0.19717	0.15853	0.1168	0.24299	0.047867	0.068816	0.10077	0.24956	0.21764	0.072571	0.035934	0.11835	0.19577	0.092719	0.14752	0.091177	-4.3167	-3.7958	-4.2646	-4.6208	-3.7979	-4.6979	-4.2146	-4.1333	-4.8104	-3.9708	-4.3	-4.5813	-3.8	-4.6229	-4.0479	-4.0021	-35.124	-33.749	97.537	176.879	-59.945	-124.723	102.446	86.649	-43.637	-147.719	56.666	88.220	-131.278	119.824	34.092	68.172	0.00025312	0.00016658	4.5213e-05	644.75	1.6156e-06	1.5444e-06	712.09	144.22	2.4751e-06	2.3309e-06	183.98	52.551	40.131	12.026	1.2485e-06	16.883	4.6395e-05	1.964e-05	5.5458e-06	657.45	3.5971e-07	1.5392e-07	729.04	147.34	2.4858e-07	2.3085e-07	188.36	53.971	41.358	12.388	2.2435e-07	17.566	151.704	-73.062	-97.198	-150.888	-56.706	-53.315	-150.887	-143.348	-43.719	31.212	-143.694	-137.542	-136.557	-129.675	-32.745	-129.630	-8191	255	
58495.332	1	1	0	0	0.26049	0.058747	0.13818	0.31486	0.13218	0.20457	0.21644	0.1394	0.078942	0.053739	0.096054	0.12368	0.26381	0.13261	0.095786	0.10715	-4.3812	-3.9188	-4.2104	-4.6042	-3.8646	-4.5771	-4.5021	-3.9	-4.7	-3.9188	-4.0354	-4.7542	-3.975	-4.4604	-4.4646	-3.8854	-101.005	162.733	104.393	142.381	120.590	61.480	109.987	52.680	94.592	-9.100	101.823	84.669	-105.540	146.507	100.434	-157.258	0.00024026	0.0001372	8.2297e-05	648.09	1.5032e-06	1.8982e-06	713.25	143.43	2.6761e-06	1.7716e-06	183.59	52.345	40.268	11.853	1.9009e-06	16.969	4.7202e-05	1.9976e-05	4.8984e-06	658.11	3.2868e-07	1.6632e-07	728.6	147.24	2.7259e-07	1.7689e-07	188.27	53.79	41.471	12.366	2.0973e-07	17.593	143.771	-108.374	-66.217	-150.817	-78.705	-43.094	-151.077	-143.819	-66.797	15.672	-143.791	-137.542	-136.391	-129.087	-15.492	-129.517	-8191	255	
58495.453	1	1	0	0	0.14223	0.12436	0.10269	0.029342	0.22874	0.20363	0.27138	0.15329	0.16297	0.035903	0.23483	0.10108	0.27502	0.12035	0.052974	0.09358	-4.3938	-4.2167	-4.0729	-4.8333	-3.9208	-4.2875	-4.6125	-3.8458	-4.6188	-4.1687	-4.0854	-4.6792	-3.9396	-4.1271	-4.5333	-3.8146	-12.251	-145.626	-64.075	106.518	3.971	93.515	88.373	37.585	160.898	140.438	-69.497	-145.640	93.803	-135.447	4.511	-44.551	0.00025431	0.00019381	3.7365e-05	647.38	7.283e-07	2.0798e-06	714.14	144.66	2.5439e-06	2.1403e-06	182.79	52.392	40.105	11.998	1.629e-06	16.81	4.5392e-05	1.749e-05	5.1113e-06	658.04	3.3208e-07	1.7991e-07	728.67	147.35	3.0115e-07	1.6795e-07	188.08	53.837	41.421	12.395	1.7984e-07	17.549	146.281	-87.507	-69.675	-150.543	-49.441	-41.696	-151.093	-143.523	-57.550	1.911	-143.985	-137.477	-136.871	-128.950	-45.907	-129.518	-8191	255	
58495.547	1	1	0	0	0.068947	0.23769	0.15455	0.20969	0.066978	0.19751	0.064841	0.080717	0.070922	0.3474	0.14133	0.35629	0.26422	0.18733	0.17947	0.18099	-4.3104	-4.2208	-4.0042	-4.75	-3.7583	-4.2979	-4.5604	-3.8833	-4.4833	-4.1979	-3.9417	-4.7833	-3.9	-4.2104	-4.5583	-3.7167	-129.085	3.178	14.274	-96.376	60.806	97.152	-75.657	-80.127	-55.755	-90.876	38.798	143.354	168.357	-143.918	-35.265	-157.826	0.00025537	0.00027798	2.9236e-05	650.08	2.1435e-06	1.7128e-06	718.47	144.37	2.0235e-06	1.5562e-06	184.39	52.063	40.047	11.996	1.9297e-06	16.778	4.9976e-05	1.9198e-05	4.7621e-06	658.69	3.387e-07	1.9919e-07	728.83	147.17	2.4209e-07	1.403e-07	188	53.874	41.348	12.413	1.8313e-07	17.576	148.783	-85.160	-78.036	-150.691	-47.129	-25.614	-150.840	-143.700	-31.820	12.373	-143.960	-137.545	-137.118	-129.290	-34.708	-130.130	-8191	255	
58495.641	1	1	0	0	0.19936	0.11543	0.2529	0.25891	0.014144	0.1785	0.18836	0.14845	0.21445	0.08351	0.039687	0.16414	0.16876	0.10234	0.095389	0.1422	-4.0854	-4.2917	-3.6937	-4.6667	-4.0667	-4.0687	-4.6375	-3.7438	-4.4271	-4.5188	-3.7292	-4.6354	-3.9813	-3.9104	-4.5792	-3.8083	193.188	174.774	73.119	143.170	145.635	104.526	134.887	-4.511	-43.924	-70.956	-112.357	155.533	-59.480	-76.478	-38.068	-63.424	0.00022586	0.00014151	6.7196e-05	647.3	1.5765e-06	2.1454e-06	713.61	143.67	1.8582e-06	3.5112e-06	184.37	51.802	40.107	11.863	2.7145e-06	16.913	5.0211e-05	1.5752e-05	5.7929e-06	657.06	2.9846e-07	2.0791e-07	728.61	146.95	2.7519e-07	1.6475e-07	187.84	53.753	41.313	12.345	1.8148e-07	17.561	146.042	-82.963	-87.851	-150.637	-84.483	-16.512	-151.112	-143.532	-67.244	-3.374	-143.884	-137.679	-136.710	-129.222	-23.261	-129.285	-8191	255	
58495.738	1	1	0	0	0.084468	0.072781	0.23347	0.064695	0.091784	0.078281	0.29923	0.059716	0.18112	0.11229	0.22317	0.18463	0.11443	0.069199	0.063847	0.16613	-3.9979	-4.5104	-3.7104	-4.675	-4.1167	-3.9938	-4.7583	-3.8875	-4.2438	-4.5	-3.8146	-4.5146	-4.3083	-3.875	-4.7479	-3.8271	119.683	174.758	40.856	174.251	179.253	47.360	110.563	134.081	83.723	52.739	-32.129	47.254	196.812	51.092	-6.797	43.994	0.00024312	0.00022844	4.6309e-05	647.72	2.3412e-06	1.6105e-06	710.09	143.19	1.3773e-06	1.5455e-06	183.3	51.969	40.005	11.86	1.4655e-06	16.881	5.1813e-05	1.5127e-05	6.206e-06	656.75	3.3967e-07	2.1109e-07	726.11	146.96	2.9628e-07	1.8144e-07	187.65	53.713	41.332	12.346	2.1253e-07	17.57	148.533	-77.706	-87.474	-150.783	-48.226	-14.633	-151.147	-143.307	-58.005	10.062	-143.942	-137.589	-136.642	-128.734	-30.470	-129.395	-8191	255	
58495.859	1	1	0	0	0.20148	0.11247	0.27177	0.18889	0.13543	0.056543	0.14467	0.14723	0.12914	0.045589	0.27438	0.22869	0.18859	0.14749	0.054074	0.13902	-3.8312	-4.55	-3.7729	-4.4708	-4.325	-3.7625	-4.7771	-3.875	-3.8812	-4.5958	-3.8625	-4.5437	-4.3354	-3.7646	-4.825	-4.0854	-62.627	147.145	46.311	132.790	-18.807	135.728	131.142	-28.958	148.793	-115.668	-109.220	140.697	124.459	-119.321	179.052	149.858	0.00026371	0.00015524	6.4436e-05	646.49	1.8282e-06	1.7879e-06	714.1	144.22	2.0109e-06	1.8239e-06	184.36	51.976	40.142	11.786	1.7578e-06	16.898	5.2764e-05	1.7109e-05	6.4914e-06	655.36	3.0008e-07	1.9634e-07	727.87	147.01	2.8963e-07	1.5665e-07	187.73	53.731	41.324	12.304	2.0251e-07	17.581	144.686	-85.863	-70.074	-150.548	-15.999	-13.196	-150.833	-143.154	-51.682	-3.448	-143.637	-137.590	-136.948	-128.580	-22.069	-129.118	-8191	255	
58495.930	1	1	0	0	0.16445	0.10377	0.24852	0.036795	0.10212	0.2241	0.14766	0.1336	0.14585	0.1384	0.15632	0.26671	0.12788	0.34191	0.17828	0.082168	-3.7042	-4.6625	-3.7625	-4.4521	-4.6042	-3.8333	-4.8375	-4.1042	-3.9354	-4.625	-3.9188	-4.3396	-4.4792	-3.8646	-4.6021	-4.2833	70.877	166.167	113.245	158.954	89.731	70.665	58.098	24.639	-10.262	12.596	141.172	-3.965	124.065	-116.806	56.195	17.455	0.00022679	0.00019154	6.842e-05	645.22	1.8164e-06	1.8842e-06	711.21	142.87	2.1439e-06	2.5319e-06	182.8	52.525	40.217	11.816	2.1501e-06	16.826	5.0719e-05	1.8237e-05	6.1464e-06	656.35	3.0735e-07	2.3742e-07	726.66	146.78	3.13e-07	1.9173e-07	187.71	53.885	41.273	12.314	2.076e-07	17.507	143.560	-58.608	-61.839	-150.757	-63.944	-24.886	-151.101	-143.612	-52.415	3.436	-143.819	-137.468	-137.193	-129.437	-50.705	-129.044	-8191	255	
58496.051	1	1	0	0	0.36565	0.029327	0.053022	0.24932	0.12708	0.15965	0.13626	0.068561	0.13846	0.11989	0.042388	0.036862	0.086283	0.2444	0.040822	0.10015	-3.6708	-4.6646	-3.8771	-4.4	-4.6417	-3.8583	-4.7021	-4.1646	-3.9458	-4.7562	-3.7458	-4.0667	-4.5417	-3.6792	-4.4292	-4.3854	51.070	153.294	-64.947	194.977	15.241	82.402	131.371	-104.144	-77.397	-114.216	66.953	-87.288	-62.739	19.134	62.149	84.673	0.00027875	0.00017005	3.9549e-05	643.62	1.3877e-06	2.2251e-06	712.48	143.69	1.9502e-06	2.1899e-06	183.16	51.938	40.206	11.818	1.7087e-06	16.765	5.2008e-05	1.842e-05	7.1516e-06	655.76	2.9232e-07	2.6558e-07	727.24	146.84	3.4318e-07	1.6171e-07	187.75	53.665	41.33	12.293	2.3634e-07	17.518	142.589	-96.104	-89.951	-150.466	-17.186	17.865	-150.999	-143.304	-70.572	-29.810	-144.155	-137.654	-136.712	-129.086	-20.109	-130.036	-8191	255	
58496.148	1	1	0	0	0.087144	0.118	0.061651	0.013955	0.1409	0.14546	0.054661	0.27489	0.16997	0.080719	0.061107	0.10607	0.018571	0.17261	0.12133	0.07584	-3.6292	-4.8625	-4.0542	-4.2042	-4.7021	-3.7687	-4.5479	-4.5604	-3.8375	-4.6083	-4.0833	-3.95	-4.6125	-3.8167	-4.4542	-4.5104	20.220	-117.224	142.165	-69.346	-10.032	-108.833	170.076	156.311	23.785	115.206	88.764	103.407	175.945	168.477	-50.669	-75.499	0.00027228	0.00021202	4.6778e-05	644.45	2.1239e-06	1.7244e-06	711.61	143.21	2.2618e-06	2.1147e-06	182.4	52.188	39.895	11.822	2.0424e-06	16.891	5.7856e-05	1.932e-05	6.3977e-06	656.08	2.718e-07	2.9509e-07	726.71	146.57	3.6605e-07	1.8043e-07	187.63	53.695	41.283	12.309	2.8873e-07	17.531	145.167	-71.820	-85.292	-150.559	-23.038	-38.178	-151.014	-143.109	-40.746	-5.499	-143.918	-137.674	-137.118	-129.268	-25.090	-130.165	-8191	255	
58496.242	1	1	0	0	0.0804	0.1355	0.23188	0.14393	0.16818	0.055709	0.24491	0.18744	0.2153	0.18028	0.068391	0.17137	0.20032	0.13454	0.135	0.2619	-3.5312	-4.675	-4.1583	-3.9875	-4.7521	-3.9125	-4.5146	-4.5583	-3.8021	-4.6354	-4.0854	-3.7979	-4.6375	-3.9083	-4.0104	-4.6979	-39.753	-67.252	-30.798	66.052	176.754	136.348	129.622	-56.241	33.925	-65.131	-14.904	-2.259	-42.495	147.303	65.955	15.244	0.00025937	0.00023698	4.2536e-05	644.52	2.6696e-06	1.2063e-06	715.23	143.36	1.7594e-06	1.095e-06	183.43	52.417	40.373	11.9	2.6862e-06	16.769	5.5343e-05	1.7749e-05	6.0484e-06	655.27	3.2852e-07	2.6944e-07	727.8	146.81	3.4723e-07	2.2613e-07	187.77	53.742	41.453	12.306	2.7494e-07	17.528	142.937	-69.743	-63.652	-150.779	-31.218	18.025	-151.297	-143.079	-60.479	-36.669	-143.947	-137.450	-136.453	-128.646	-24.661	-129.827	-8191	255	
58496.340	1	1	0	0	0.22507	0.028713	0.023003	0.048727	0.17292	0.075166	0.23708	0.10109	0.063529	0.075048	0.19053	0.093289	0.15287	0.18511	0.14233	0.085117	-3.4583	-4.5375	-4.1813	-3.9625	-4.65	-3.8812	-4.2812	-4.6312	-3.7938	-4.4896	-4.4688	-3.9625	-4.5792	-4.0312	-3.9	-4.6188	106.688	22.609	-158.366	47.508	169.057	-61.166	115.495	16.081	75.691	113.725	110.818	170.906	58.279	-99.760	-145.979	168.123	0.0002535	0.00021042	2.5265e-05	642.06	1.8669e-06	2.4757e-06	710.45	142.91	2.1284e-06	1.9718e-06	182.93	51.97	40.191	11.903	1.9437e-06	16.654	5.783e-05	1.8451e-05	5.8312e-06	654.42	3.0768e-07	2.8084e-07	726.7	146.56	3.7206e-07	2.1061e-07	187.59	53.68	41.392	12.337	2.5703e-07	17.535	143.303	-68.224	-121.374	-150.816	-61.312	-14.647	-151.075	-142.991	-68.444	-22.774	-143.954	-137.395	-136.751	-128.741	-46.452	-130.022	-8191	255	
58496.461	1	1	0	0	0.17028	0.082828	0.070963	0.32021	0.30623	0.060922	0.034914	0.11874	0.16634	0.27076	0.37443	0.16908	0.16159	0.071313	0.055138	0.033507	-3.3583	-4.3292	-4.4229	-3.9562	-4.5875	-4.0813	-4.1312	-4.6667	-3.7208	-4.3063	-4.5042	-3.6437	-4.6292	-4.1854	-4.0396	-4.6813	43.368	-76.182	73.928	-78.717	-29.677	-1.845	12.069	-2.747	15.472	27.974	130.296	132.188	197.654	24.098	37.074	-22.282	0.00025826	0.00010805	6.3088e-05	648.81	1.7912e-06	1.1643e-06	711.71	144.25	2.4281e-06	1.7305e-06	183.46	52.436	40.34	11.898	2.3699e-06	16.878	5.5825e-05	1.9549e-05	5.6906e-06	657.82	2.8457e-07	2.3909e-07	727.49	147.25	3.2484e-07	2.0184e-07	187.88	53.853	41.44	12.36	2.7789e-07	17.583	142.703	-92.718	-80.515	-150.754	-71.603	9.668	-151.019	-143.190	-62.841	-18.281	-143.558	-137.404	-136.933	-128.633	-40.735	-129.785	-8191	255	
#DATA ENDS
