BOXY.EXE: ISS Imagent and Oximeter Data Acquisition Program Version 0.80
Ascii Record File

#ACQ INFORMATION
2  Detector Channels 
16  External MUX Channels 
1  Auxiliary Channels 
5000  Waveform (CCF) Frequency (Hz)
1  Waveforms Skipped 
30  Waveforms Averaged 
1  Cycles Averaged 
16  Acquisitions per Waveform 
10.0806  Updata Rate (Hz) 

#FILE INFORMATION
TRUE -- External MUX Channel results are PARSED.
FALSE -- AC DC and Phase are NOT grouped.
TRUE -- Companion Program Settings File CREATED.
FALSE -- AC data not excluded
FALSE -- DC data not excluded
FALSE -- Phase data not excluded
FALSE -- Auxillary Chn. data not excluded
Tab delimiters

#CALIBRATION STATE
TRUE -- Waveform Calibration Values APPLIED.


#AUX CALIBRATION VALUES
Val Type	aux-1	

Term	1.0000e+00	
Factor	0.0000e+00	


#WF CALIBRATION VALUES
A = Detector Channel
Val Type	A-AC1	A-AC2	A-AC3	A-AC4	A-AC5	A-AC6	A-AC7	A-AC8	A-AC9	A-AC10	A-AC11	A-AC12	A-AC13	A-AC14	A-AC15	A-AC16	A-DC1	A-DC2	A-DC3	A-DC4	A-DC5	A-DC6	A-DC7	A-DC8	A-DC9	A-DC10	A-DC11	A-DC12	A-DC13	A-DC14	A-DC15	A-DC16	A-Ph1	A-Ph2	A-Ph3	A-Ph4	A-Ph5	A-Ph6	A-Ph7	A-Ph8	A-Ph9	A-Ph10	A-Ph11	A-Ph12	A-Ph13	A-Ph14	A-Ph15	A-Ph16	

Term	0.00000e+00	0.00000e+00	0.00000e+00	0.00000e+00	0.00000e+00	0.00000e+00	0.00000e+00	0.00000e+00	0.00000e+00	0.00000e+00	0.00000e+00	0.00000e+00	0.00000e+00	0.00000e+00	0.00000e+00	0.00000e+00	0.00000e+00	0.00000e+00	0.00000e+00	0.00000e+00	0.00000e+00	0.00000e+00	0.00000e+00	0.00000e+00	0.00000e+00	0.00000e+00	0.00000e+00	0.00000e+00	0.00000e+00	0.00000e+00	0.00000e+00	0.00000e+00	0.00000e+00	0.00000e+00	0.00000e+00	0.00000e+00	0.00000e+00	0.00000e+00	0.00000e+00	0.00000e+00	0.00000e+00	0.00000e+00	0.00000e+00	0.00000e+00	0.00000e+00	0.00000e+00	0.00000e+00	0.00000e+00	
Factor	1.00000e+00	1.00000e+00	1.00000e+00	1.00000e+00	1.00000e+00	1.00000e+00	1.00000e+00	1.00000e+00	1.00000e+00	1.00000e+00	1.00000e+00	1.00000e+00	1.00000e+00	1.00000e+00	1.00000e+00	1.00000e+00	1.00000e+00	1.00000e+00	1.00000e+00	1.00000e+00	1.00000e+00	1.00000e+00	1.00000e+00	1.00000e+00	1.00000e+00	1.00000e+00	1.00000e+00	1.00000e+00	1.00000e+00	1.00000e+00	1.00000e+00	1.00000e+00	X	X	X	X	X	X	X	X	X	X	X	X	X	X	X	X	

B = Detector Channel
Val Type	B-AC1	B-AC2	B-AC3	B-AC4	B-AC5	B-AC6	B-AC7	B-AC8	B-AC9	B-AC10	B-AC11	B-AC12	B-AC13	B-AC14	B-AC15	B-AC16	B-DC1	B-DC2	B-DC3	B-DC4	B-DC5	B-DC6	B-DC7	B-DC8	B-DC9	B-DC10	B-DC11	B-DC12	B-DC13	B-DC14	B-DC15	B-DC16	B-Ph1	B-Ph2	B-Ph3	B-Ph4	B-Ph5	B-Ph6	B-Ph7	B-Ph8	B-Ph9	B-Ph10	B-Ph11	B-Ph12	B-Ph13	B-Ph14	B-Ph15	B-Ph16	

Term	0.00000e+00	0.00000e+00	0.00000e+00	0.00000e+00	0.00000e+00	0.00000e+00	0.00000e+00	0.00000e+00	0.00000e+00	0.00000e+00	0.00000e+00	0.00000e+00	0.00000e+00	0.00000e+00	0.00000e+00	0.00000e+00	0.00000e+00	0.00000e+00	0.00000e+00	0.00000e+00	0.00000e+00	0.00000e+00	0.00000e+00	0.00000e+00	0.00000e+00	0.00000e+00	0.00000e+00	0.00000e+00	0.00000e+00	0.00000e+00	0.00000e+00	0.00000e+00	-1.87007e+02	-1.34050e+02	-1.37969e+02	-1.83492e+02	-8.77581e+01	-7.32534e+01	-1.58200e+02	-1.62015e+02	-8.49259e+01	-6.14154e+01	-1.70701e+02	-1.71279e+02	-1.78850e+02	-1.76863e+02	-7.95451e+01	-1.49780e+02	
Factor	3.76548e-05	1.51883e-04	4.69219e-05	1.64088e-01	1.62550e-06	1.73594e-06	1.85429e-01	6.04996e-02	1.59724e-06	1.91212e-06	1.00259e-01	3.43440e-02	3.12106e-02	1.08452e-02	1.69460e-06	1.54572e-02	6.25193e-06	7.31936e-06	2.04454e-06	7.75377e-02	7.75653e-08	8.04797e-08	8.23581e-02	2.86645e-02	7.78837e-08	8.09403e-08	4.60320e-02	1.57531e-02	1.49403e-02	5.16929e-03	7.88347e-08	7.14857e-03	X	X	X	X	X	X	X	X	X	X	X	X	X	X	X	X	



#DISTANCE SETTINGS
A = Detector Channel
A-1	A-2	A-3	A-4	A-5	A-6	A-7	A-8	A-9	A-10	A-11	A-12	A-13	A-14	A-15	A-16	

2.5000e+00	3.0000e+00	2.5000e+00	3.0000e+00	2.0000e+00	3.0000e+00	1.5000e+00	3.0000e+00	3.0000e+00	3.0000e+00	3.0000e+00	3.0000e+00	3.0000e+00	3.0000e+00	1.5000e+00	3.0000e+00	

B = Detector Channel
B-1	B-2	B-3	B-4	B-5	B-6	B-7	B-8	B-9	B-10	B-11	B-12	B-13	B-14	B-15	B-16	

1.0000e+01	1.0000e+01	1.0000e+01	1.4400e+00	1.0000e+01	1.0000e+01	1.5100e+00	1.9400e+00	1.0000e+01	1.0000e+01	1.9900e+00	2.4900e+00	2.4100e+00	2.9000e+00	1.0000e+01	2.9800e+00	




#DATA BEGINS
time	group	step	mark	flag	A-AC1	A-AC2	A-AC3	A-AC4	A-AC5	A-AC6	A-AC7	A-AC8	A-AC9	A-AC10	A-AC11	A-AC12	A-AC13	A-AC14	A-AC15	A-AC16	A-DC1	A-DC2	A-DC3	A-DC4	A-DC5	A-DC6	A-DC7	A-DC8	A-DC9	A-DC10	A-DC11	A-DC12	A-DC13	A-DC14	A-DC15	A-DC16	A-Ph1	A-Ph2	A-Ph3	A-Ph4	A-Ph5	A-Ph6	A-Ph7	A-Ph8	A-Ph9	A-Ph10	A-Ph11	A-Ph12	A-Ph13	A-Ph14	A-Ph15	A-Ph16	B-AC1	B-AC2	B-AC3	B-AC4	B-AC5	B-AC6	B-AC7	B-AC8	B-AC9	B-AC10	B-AC11	B-AC12	B-AC13	B-AC14	B-AC15	B-AC16	B-DC1	B-DC2	B-DC3	B-DC4	B-DC5	B-DC6	B-DC7	B-DC8	B-DC9	B-DC10	B-DC11	B-DC12	B-DC13	B-DC14	B-DC15	B-DC16	B-Ph1	B-Ph2	B-Ph3	B-Ph4	B-Ph5	B-Ph6	B-Ph7	B-Ph8	B-Ph9	B-Ph10	B-Ph11	B-Ph12	B-Ph13	B-Ph14	B-Ph15	B-Ph16	aux-1	digaux	

58445.438	1	1	0	768	0.10036	0.24513	0.36884	0.16551	0.079347	0.094203	0.082851	0.10266	0.068169	0.10546	0.27583	0.14747	0.054379	0.18473	0.096767	0.26055	-3.4729	-4.4688	-4.4292	-3.9354	-4.7625	-3.9896	-4.3792	-4.6417	-3.7792	-4.3167	-4.4729	-3.95	-4.6625	-3.9896	-3.8937	-4.7292	128.503	-19.278	-141.585	147.173	-82.261	-32.454	103.432	-43.097	50.958	160.294	171.337	178.356	132.681	-136.996	-116.283	61.112	0.00033084	0.00022805	9.6111e-05	900.88	8.2332e-07	2.1142e-06	992.56	193	3.305e-06	4.338e-06	246.74	70.581	54.651	16.287	1.3921e-06	22.825	0.00017305	0.00014363	3.98e-05	891.55	1.6424e-06	1.5995e-06	985.02	192.06	1.6494e-06	1.5775e-06	246.18	71.008	54.751	16.447	1.649e-06	23.348	151.366	-74.794	-97.296	-154.344	-110.304	-10.689	-154.199	-146.489	-68.830	-44.758	-146.491	-140.914	-140.152	-132.391	10.525	-133.409	-8191	255	
58445.535	1	1	0	0	0.12915	0.19713	0.071079	0.079459	0.074568	0.15617	0.14462	0.25535	0.071939	0.12586	0.036112	0.11631	0.25517	0.15513	0.073486	0.02842	-3.5333	-4.3771	-4.4021	-4.05	-4.6125	-4.1125	-4.0521	-4.8938	-3.7625	-4.5125	-4.5708	-3.9396	-4.5167	-4.2583	-4.0521	-4.7854	153.057	19.830	123.335	153.309	95.184	-123.883	-132.638	-74.778	155.609	186.982	-81.239	178.978	24.101	111.914	-62.209	-109.978	0.00030867	9.1235e-05	8.8628e-05	901.5	2.2704e-06	2.6426e-06	990.65	193.8	2.8621e-06	2.6589e-06	246.32	70.955	54.931	16.343	2.3164e-06	23.168	0.00016754	0.00015503	3.8169e-05	891.7	1.6486e-06	1.5506e-06	982.89	192.43	1.6261e-06	1.6003e-06	245.44	70.89	54.653	16.527	1.5463e-06	23.388	147.842	-73.344	-81.822	-154.077	-55.685	-38.044	-154.033	-146.758	-67.874	-18.321	-146.790	-140.450	-140.182	-132.289	-10.086	-132.701	-8191	255	
58445.633	1	1	0	0	0.18026	0.12702	0.11832	0.011415	0.13177	0.17327	0.23153	0.122	0.1655	0.18296	0.13764	0.17846	0.078852	0.047961	0.18961	0.032495	-3.6437	-4.3	-4.7896	-4.0125	-4.6104	-4.3208	-4.1042	-4.8854	-3.8937	-4.1937	-4.7083	-3.8979	-4.5104	-4.4812	-3.725	-4.6292	172.025	59.951	152.625	-2.531	-70.519	-75.067	99.646	125.434	1.876	-33.384	-34.160	102.703	93.347	46.193	-74.291	172.661	0.0003162	0.00021899	3.3458e-05	903.5	3.3171e-06	3.0305e-06	994.47	192.99	2.1072e-06	3.5732e-06	245.22	70.265	54.664	16.309	2.6688e-06	22.874	0.00016519	0.0001434	3.8352e-05	891.86	1.6169e-06	1.563e-06	983.42	192.37	1.5898e-06	1.5836e-06	244.86	70.774	54.613	16.503	1.6189e-06	23.34	146.571	-65.413	-34.176	-153.942	-67.497	-75.185	-154.252	-146.941	-63.231	-5.745	-146.714	-141.000	-140.281	-132.036	-64.065	-132.765	-8191	255	
58445.727	1	1	0	0	0.053857	0.25456	0.046976	0.35626	0.098362	0.13362	0.062172	0.13548	0.11744	0.15147	0.11444	0.12979	0.17809	0.072399	0.24166	0.09123	-3.7438	-4.0958	-4.5208	-3.8979	-4.4146	-4.3625	-4.025	-4.825	-4.075	-4.0208	-4.7208	-3.8458	-4.3646	-4.65	-3.8792	-4.8021	45.195	129.274	59.055	-160.290	-42.294	163.678	135.847	122.511	-58.185	-96.583	156.994	-86.625	-117.788	168.942	88.068	57.266	0.00036003	0.0002021	6.3721e-05	899.92	1.8753e-06	2.9136e-06	995.18	194.08	3.3104e-06	2.1281e-06	246.7	70.166	54.683	16.353	1.8689e-06	23.037	0.00017094	0.00014096	3.7935e-05	889.89	1.6475e-06	1.5642e-06	983.38	192.39	1.6261e-06	1.5989e-06	245.44	70.942	54.739	16.515	1.5414e-06	23.383	148.926	-78.603	-73.775	-153.899	-98.571	30.137	-154.050	-146.678	-18.821	-19.326	-146.919	-140.370	-140.686	-132.368	-45.617	-132.902	-8191	255	
58445.824	1	1	0	0	0.14042	0.26318	0.1106	0.24663	0.24557	0.14337	0.30532	0.084497	0.10263	0.21372	0.14449	0.17945	0.11232	0.31997	0.021051	0.098953	-3.9771	-3.9125	-4.7104	-4.0437	-4.4333	-4.5542	-3.9271	-4.6833	-4.375	-4.0271	-4.8479	-3.9396	-4.2958	-4.5312	-3.8917	-4.6167	188.826	-135.002	-140.888	-161.758	145.598	34.629	27.539	95.801	-148.459	-13.957	-161.351	191.117	-91.885	153.097	105.195	-39.457	0.00031844	0.00025271	4.5755e-05	901.53	2.9265e-06	2.0516e-06	989.93	193.29	2.655e-06	1.068e-06	245.25	70.956	54.962	16.341	4.559e-06	22.906	0.0001643	0.00014273	3.8271e-05	890.23	1.6958e-06	1.5155e-06	980.12	192.06	1.6459e-06	1.539e-06	244.86	70.915	54.679	16.542	1.543e-06	23.41	145.718	-62.429	-82.415	-153.905	-81.835	-29.353	-154.361	-146.795	-74.279	6.255	-146.649	-140.531	-140.569	-131.800	2.549	-132.827	-8191	255	
58445.922	1	1	0	0	0.077779	0.17657	0.22036	0.10251	0.09171	0.077411	0.092037	0.25898	0.069941	0.2038	0.21901	0.21791	0.018161	0.12247	0.14331	0.090759	-3.9479	-3.8708	-4.5958	-4.0708	-4.1854	-4.6646	-4.0792	-4.4229	-4.3792	-3.8	-4.7208	-4.0396	-4.1521	-4.6271	-3.7417	-4.4313	-149.840	-139.621	54.658	50.016	-31.108	151.252	-149.053	98.392	-141.576	-116.963	-122.065	185.150	-103.456	-152.433	-59.648	-134.407	0.00031854	0.00034391	8.3095e-05	903.52	1.176e-06	2.2878e-06	990	193.34	4.3524e-06	2.806e-06	248.05	70.725	54.697	16.216	2.9877e-06	23.013	0.00016432	0.0001394	3.5758e-05	889.74	1.6106e-06	1.5162e-06	981.71	192.1	1.6096e-06	1.4787e-06	245.9	70.801	54.748	16.412	1.4589e-06	23.338	148.146	-76.619	-70.448	-153.906	-3.639	45.371	-154.177	-146.982	-76.120	-34.064	-146.517	-140.629	-140.243	-131.703	-46.778	-132.705	-8191	255	
58446.039	1	1	0	0	0.10551	0.18409	0.084435	0.13501	0.14001	0.07395	0.043526	0.051736	0.14458	0.2968	0.05891	0.10069	0.1979	0.11978	0.17621	0.16159	-4.1208	-3.8792	-4.6333	-3.9979	-4.0271	-4.5729	-4.0708	-4.3833	-4.4729	-3.8229	-4.8625	-4.2208	-3.8312	-4.6521	-3.7542	-4.3354	-121.208	-45.669	-71.609	-11.539	95.840	16.956	17.320	-79.452	-125.144	5.588	143.639	-86.011	2.089	119.191	136.737	83.357	0.00033101	0.0001841	6.5423e-05	897.48	2.4895e-06	3.5043e-06	987.79	192.6	3.2802e-06	2.5476e-06	245.71	70.399	54.238	16.292	2.4014e-06	23	0.00015976	0.00013573	3.7002e-05	889.05	1.5258e-06	1.4309e-06	981.1	191.66	1.6359e-06	1.5178e-06	244.78	70.798	54.615	16.49	1.5755e-06	23.369	146.023	-46.233	-117.045	-154.222	-36.174	-20.652	-154.125	-146.461	-43.057	-0.223	-146.715	-140.786	-140.170	-132.313	-4.749	-132.798	-8191	255	
58446.137	1	1	0	0	0.22749	0.23682	0.13449	0.19938	0.16854	0.19372	0.36738	0.11875	0.092301	0.13602	0.31738	0.19008	0.22489	0.21567	0.14071	0.29272	-4.1958	-3.6771	-4.5771	-4.3708	-3.8146	-4.6479	-4.0062	-4.3083	-4.675	-3.7729	-4.6854	-4.2479	-3.8438	-4.7167	-4.1104	-3.9917	170.280	34.640	-43.168	-105.822	83.756	78.884	82.156	111.586	27.519	145.043	148.654	90.568	-39.015	-74.908	141.988	-146.471	0.00033594	0.00033327	0.0001177	902.53	3.3399e-06	4.459e-06	985.59	193.28	3.0134e-06	2.7632e-06	245.76	71.179	54.495	16.33	1.2986e-06	23.055	0.00016087	0.00013587	3.7564e-05	890.02	1.6494e-06	1.4082e-06	980.21	191.99	1.5548e-06	1.4328e-06	245.43	70.89	54.647	16.445	1.5348e-06	23.324	144.404	-103.843	-87.485	-154.027	-59.996	-26.634	-154.167	-146.975	-41.046	18.825	-146.806	-140.609	-140.168	-132.413	1.282	-132.744	-8191	255	
58446.234	1	1	0	0	0.23876	0.17992	0.25789	0.27624	0.23181	0.074079	0.032077	0.26959	0.088071	0.13863	0.1919	0.13152	0.028956	0.039347	0.2287	0.22132	-4.3625	-3.6937	-4.3917	-4.4708	-3.75	-4.7917	-4.1271	-4.1729	-4.6125	-3.7229	-4.4771	-4.3833	-3.8771	-4.6	-4.0417	-3.9021	-120.289	-86.196	161.375	137.383	-137.316	-133.037	73.651	153.642	-39.251	26.434	134.100	-77.766	22.806	191.229	33.155	-43.202	0.0003494	0.0001763	0.00014077	903.57	2.6289e-06	3.4824e-06	988.12	193.4	3.058e-06	4.7343e-06	245.59	69.871	54.819	16.148	4.132e-06	23.011	0.00016289	0.00013391	3.8599e-05	890.29	1.6083e-06	1.5164e-06	979.57	192.18	1.4994e-06	1.4957e-06	244.77	70.504	54.572	16.438	1.5696e-06	23.334	144.929	-101.675	-51.342	-153.860	-56.724	-32.622	-154.095	-146.406	-45.560	-1.177	-146.655	-140.737	-140.110	-132.194	-59.849	-132.812	-8191	255	
58446.328	1	1	0	0	0.19277	0.13666	0.040644	0.16243	0.066731	0.12038	0.12034	0.033411	0.22738	0.071482	0.20089	0.192	0.047285	0.12466	0.18467	0.14533	-4.4229	-3.9437	-4.2708	-4.5646	-3.7208	-4.5375	-4.2979	-3.9521	-4.45	-3.8458	-4.3479	-4.5458	-3.9	-4.5458	-4.1771	-3.8438	-48.302	38.761	-81.784	166.150	-100.872	176.820	134.908	111.013	-89.337	160.334	-143.307	-16.234	-81.829	120.078	-89.600	-156.129	0.00036658	0.00030782	5.1492e-05	898.11	5.2246e-07	2.4527e-06	987.96	193.2	3.7407e-06	1.9778e-06	243.69	70.292	54.137	16.265	1.2107e-06	22.991	0.00015785	0.0001418	3.7628e-05	887.78	1.6365e-06	1.5095e-06	978.03	191.96	1.5239e-06	1.4896e-06	244.25	70.535	54.491	16.501	1.5021e-06	23.272	142.284	-59.388	-81.676	-154.066	-25.437	-9.377	-154.214	-146.613	-40.921	26.212	-146.886	-140.442	-139.887	-132.325	10.342	-133.100	-8191	255	
58446.426	1	1	0	0	0.10698	0.09568	0.16371	0.11333	0.34983	0.13299	0.087745	0.27856	0.21021	0.034151	0.018033	0.1074	0.12337	0.10074	0.10689	0.1248	-4.35	-3.825	-4.1687	-4.7792	-3.7188	-4.5396	-4.4187	-3.8729	-4.6042	-3.9271	-3.9833	-4.6479	-3.8208	-4.4896	-4.3208	-4.0292	5.183	43.148	162.543	164.872	150.506	134.333	-83.669	99.425	30.937	-8.051	178.107	29.416	23.453	3.247	-99.449	139.762	0.0003381	0.0001938	6.8607e-05	897.08	3.4733e-06	5.5348e-07	981.39	193.33	1.7735e-06	3.0677e-06	246.5	70.389	54.316	16.3	1.4396e-06	22.954	0.00015842	0.00013593	3.779e-05	886.19	1.5259e-06	1.3891e-06	975.95	191.89	1.4936e-06	1.5146e-06	244.21	70.548	54.402	16.48	1.4768e-06	23.38	147.983	-95.688	-59.870	-153.863	-77.140	-39.599	-154.067	-146.571	-42.050	-4.082	-146.935	-140.850	-140.393	-131.946	-44.535	-132.688	-8191	255	
58446.520	1	1	0	0	0.13105	0.3016	0.10877	0.17639	0.24237	0.030266	0.24977	0.1149	0.021016	0.14907	0.13361	0.134	0.060349	0.063751	0.23436	0.10177	-4.4458	-4.0042	-4	-4.8375	-3.6437	-4.3354	-4.6521	-3.9188	-4.6958	-4.2812	-4.025	-4.7479	-3.9083	-4.4333	-4.5042	-3.7	-95.829	5.009	-24.435	192.556	-147.576	-141.709	91.425	56.235	-152.539	-13.604	-127.765	194.351	112.898	104.391	30.405	42.614	0.00029026	0.0002079	3.2932e-05	897.53	2.5672e-06	1.2305e-06	982.99	191.78	3.108e-06	3.5831e-06	245.23	70.502	54.356	16.365	1.9285e-06	22.811	0.00015694	0.00014178	3.7496e-05	884.54	1.5255e-06	1.4619e-06	974.47	191.08	1.4981e-06	1.4512e-06	244.32	70.618	54.357	16.432	1.4827e-06	23.282	145.027	-68.535	-136.927	-153.774	-37.534	1.002	-154.096	-146.293	-63.353	-10.378	-146.414	-140.658	-139.872	-132.158	-60.225	-132.687	-8191	255	
58446.641	1	1	0	0	0.20114	0.015523	0.25564	0.14601	0.052298	0.27498	0.20144	0.10347	0.10391	0.14854	0.20865	0.10929	0.076311	0.12262	0.17588	0.12489	-4.3229	-4.2125	-3.8104	-4.9646	-3.8875	-4.2958	-4.7125	-3.7333	-4.5354	-4.2625	-3.8646	-4.6646	-3.9625	-4.1854	-4.6438	-3.9646	136.455	-101.264	131.325	-152.606	107.898	56.239	120.838	-83.749	70.335	192.057	125.016	137.365	51.183	140.139	95.983	179.813	0.00032904	0.00030372	6.4279e-05	890.19	2.6867e-06	2.9801e-06	982.3	191.61	4.8862e-06	3.1722e-06	244.87	69.97	54.253	16.303	1.5176e-06	22.746	0.00015434	0.00013759	3.7717e-05	881.84	1.5825e-06	1.4689e-06	973.09	190.83	1.4394e-06	1.3834e-06	243.87	70.407	54.375	16.439	1.386e-06	23.211	145.341	-59.242	-87.995	-154.068	-65.278	-46.066	-154.135	-146.736	-78.670	-17.964	-147.398	-140.370	-139.993	-132.254	-43.866	-133.039	-8191	255	
58446.738	1	1	0	0	0.047253	0.1483	0.19926	0.13935	0.051588	0.10286	0.1762	0.19128	0.23362	0.19708	0.30894	0.12806	0.077367	0.22424	0.033134	0.17779	-4.2542	-4.3646	-3.8729	-4.7521	-3.9313	-4.0167	-4.7979	-3.8271	-4.5083	-4.4208	-3.9688	-4.775	-4.0646	-4.1312	-4.7208	-3.9562	-57.398	139.657	108.812	162.040	-12.856	62.758	144.222	85.847	-34.088	-140.115	127.983	-155.594	93.388	-16.719	184.940	135.119	0.00032044	0.00044041	5.4721e-05	891.87	3.5283e-06	2.2437e-06	982.04	191.93	4.1061e-06	2.6633e-06	244.41	69.606	54.252	16.161	3.0792e-06	22.687	0.00015595	0.00013568	3.7662e-05	879.66	1.6169e-06	1.4382e-06	970.65	190.83	1.5126e-06	1.3556e-06	243.15	70.261	54.277	16.368	1.3903e-06	23.108	141.468	-80.695	-71.355	-153.651	-86.741	21.774	-154.336	-146.520	-67.565	-34.568	-147.199	-140.588	-140.001	-132.454	-45.480	-132.637	-8191	255	
58446.832	1	1	0	0	0.16967	0.10926	0.062803	0.15519	0.21021	0.18668	0.11337	0.1283	0.1902	0.12	0.045229	0.12802	0.19899	0.099129	0.07417	0.082575	-4.1562	-4.4104	-3.8833	-4.8604	-4.0917	-3.8042	-4.9208	-3.9	-4.2917	-4.5958	-3.8604	-4.7167	-4.0729	-3.925	-4.7042	-3.9146	-32.550	19.805	47.891	-109.597	-48.129	101.857	145.368	169.240	-25.306	105.838	-115.502	-155.543	-130.261	123.753	-81.716	144.857	0.00032616	0.00025219	4.8866e-05	895.64	1.4346e-06	1.8917e-06	977.05	191.67	3.4126e-06	3.7219e-06	243.63	70.066	54.361	16.211	2.6625e-06	22.787	0.00015518	0.00013172	3.7134e-05	879.13	1.5091e-06	1.5217e-06	969.83	190.63	1.5405e-06	1.4343e-06	242.73	70.361	54.201	16.389	1.421e-06	23.279	142.073	-123.565	-47.249	-153.870	-58.104	-49.445	-154.264	-146.817	-55.139	-4.277	-147.124	-140.618	-140.000	-132.263	-59.905	-132.446	-8191	255	
58446.930	1	1	0	0	0.20417	0.054879	0.11579	0.16055	0.16063	0.14015	0.092642	0.22887	0.087926	0.087394	0.11537	0.15122	0.23914	0.038871	0.23736	0.16825	-3.8083	-4.5833	-3.5958	-4.5604	-4.3229	-3.8458	-4.7354	-3.9479	-4.0333	-4.7771	-3.85	-4.3	-4.3063	-3.7083	-4.6625	-4.0375	157.688	12.751	164.966	132.094	-6.872	-99.951	162.410	116.278	102.196	107.375	82.737	-134.618	-80.616	-15.885	114.551	-19.603	0.00035011	0.00028161	2.7109e-05	890.17	2.0737e-06	2.8348e-06	986.5	190.03	3.6042e-06	3.5639e-06	243.74	70.386	54.317	16.181	3.9431e-06	22.782	0.00016165	0.00012902	3.7969e-05	877.3	1.5162e-06	1.4538e-06	970.24	190.06	1.5462e-06	1.3623e-06	242.91	70.271	54.243	16.374	1.4831e-06	23.212	147.907	-82.161	180.014	-154.025	-57.478	-4.541	-154.104	-146.617	-37.685	-19.635	-146.392	-141.265	-139.904	-132.450	-46.515	-132.504	-8191	255	
58447.000	1	1	0	0	0.12687	0.15692	0.23218	0.39279	0.22471	0.21035	0.15158	0.020706	0.10098	0.064704	0.24117	0.031888	0.10043	0.1172	0.099193	0.19679	-3.6063	-4.525	-3.5958	-4.5083	-4.4583	-3.7687	-4.6583	-4.2042	-3.8292	-4.625	-3.8271	-4.3125	-4.4167	-3.7479	-4.4437	-4.2125	-147.982	89.228	7.780	-126.072	-90.210	-106.577	162.770	156.063	-33.182	-52.249	147.615	134.439	-2.199	140.138	-21.638	-71.672	0.00032677	0.00024152	8.0169e-05	889.91	2.4085e-06	9.3372e-07	970.68	190.75	3.1003e-06	3.0921e-06	244.99	69.553	54.176	16.026	2.2185e-06	22.854	0.00016148	0.0001246	3.733e-05	878.31	1.5309e-06	1.5025e-06	965.85	190.47	1.5758e-06	1.4225e-06	243.26	70.201	54.168	16.295	1.5071e-06	23.176	145.431	-55.947	-94.807	-153.926	-65.245	6.378	-154.068	-146.728	-66.125	-28.098	-146.887	-140.251	-139.835	-132.302	-33.141	-132.332	-8191	255	
58447.121	1	1	0	0	0.3552	0.073664	0.1631	0.17991	0.075876	0.15544	0.22863	0.1107	0.11716	0.096903	0.11724	0.16011	0.1011	0.22076	0.094342	0.23821	-3.5833	-4.6854	-3.7104	-4.2875	-4.4979	-3.7958	-4.5667	-4.2979	-3.7313	-4.6875	-4.0125	-4.125	-4.5958	-3.7667	-4.5479	-4.3688	66.983	161.538	176.699	175.147	60.291	194.714	62.530	187.789	190.087	58.844	130.705	-52.852	150.421	170.432	-42.447	140.345	0.00038038	0.00010344	7.0758e-05	885.38	1.7063e-06	2.6609e-06	973.73	191.15	3.5148e-06	3.8616e-06	243.6	69.804	53.844	15.995	2.0045e-06	22.82	0.00016138	0.00013352	3.8246e-05	874.85	1.4749e-06	1.4538e-06	966.34	190.14	1.5225e-06	1.4628e-06	243.11	70.054	54.144	16.277	1.4893e-06	23.177	148.401	-6.510	-122.298	-154.064	33.177	-12.207	-154.242	-146.546	-41.316	-33.352	-146.731	-140.721	-139.925	-132.289	-32.340	-132.839	-8191	255	
58447.219	1	1	0	0	0.072047	0.24336	0.079269	0.24287	0.13145	0.10177	0.26999	0.091698	0.098407	0.10503	0.078043	0.10867	0.062155	0.18822	0.20959	0.059215	-3.5896	-4.5333	-3.8979	-4.2833	-4.5396	-3.6875	-4.6292	-4.5917	-3.7896	-4.7271	-4.2375	-4.0146	-4.6542	-3.8563	-4.5312	-4.5312	33.323	182.478	-25.321	-153.233	-19.940	190.279	188.750	151.426	109.108	22.041	159.479	-162.461	-133.753	126.130	-17.261	-100.552	0.0003408	0.00027953	8.0651e-05	889.36	2.8358e-06	1.9727e-06	973.88	190.76	2.733e-06	3.4513e-06	242.87	69.359	54.167	16.138	6.4813e-07	22.611	0.00015912	0.00013831	3.782e-05	874.93	1.4993e-06	1.486e-06	965.53	189.68	1.5137e-06	1.39e-06	242.56	69.812	54.12	16.337	1.4443e-06	23.093	147.700	-75.886	-76.477	-154.030	-79.632	26.002	-154.137	-146.558	-60.279	12.017	-146.831	-140.879	-139.963	-132.025	-11.366	-132.548	-8191	255	
58447.312	1	1	0	0	0.34161	0.12609	0.080111	0.18868	0.11457	0.056498	0.14989	0.025667	0.079521	0.1721	0.14861	0.047932	0.0959	0.16989	0.18751	0.080689	-3.5375	-4.6667	-4.0479	-4.0958	-4.5604	-3.8125	-4.5625	-4.4604	-3.8063	-4.5854	-4.1354	-3.9333	-4.7479	-3.8937	-4.1292	-4.5833	-36.674	128.865	5.283	-127.257	-137.446	-126.675	128.544	185.219	44.363	21.460	162.537	80.333	63.641	-101.217	81.430	-9.136	0.00032767	0.00012577	2.6035e-05	886.3	2.8055e-06	2.7185e-06	971.31	190.35	1.037e-06	2.0873e-06	244.43	69.934	54.11	16.159	2.1497e-06	22.745	0.00015561	0.00013433	3.6964e-05	875.95	1.5101e-06	1.4877e-06	963.97	189.82	1.5612e-06	1.453e-06	242.7	70.104	54.143	16.275	1.4678e-06	23.16	145.338	-113.278	-107.194	-153.962	-43.087	-59.964	-154.261	-146.237	-6.911	55.695	-146.536	-141.069	-140.136	-131.785	-13.450	-133.074	-8191	255	
58447.410	1	1	0	0	0.18432	0.29311	0.045621	0.28262	0.1556	0.12198	0.075727	0.22616	0.11858	0.17362	0.058427	0.067795	0.14349	0.1154	0.17057	0.25213	-3.375	-4.5667	-4.3208	-4.0104	-4.7229	-3.9771	-4.2979	-4.6229	-3.8625	-4.3896	-4.5021	-3.9	-4.8104	-3.9354	-3.9229	-4.7417	90.573	143.868	174.181	157.495	-100.228	193.291	-73.478	189.411	178.391	99.373	126.552	188.707	-87.734	108.317	149.271	35.434	0.00032708	0.00034003	7.6211e-05	887.39	3.825e-06	2.1169e-06	972.25	191.24	2.1725e-06	2.0605e-06	243.97	69.918	54.328	16.191	7.1781e-07	22.876	0.00015494	0.00013009	3.6218e-05	874.04	1.52e-06	1.4974e-06	965.39	189.69	1.5041e-06	1.4966e-06	242.37	69.893	54.178	16.338	1.5013e-06	23.207	148.361	-78.284	-77.127	-153.713	-82.518	4.563	-154.182	-146.442	-71.002	-3.109	-146.588	-140.485	-139.854	-132.384	-130.499	-132.590	-8191	255	
58447.527	1	1	0	0	0.15752	0.085684	0.0069414	0.16523	0.20545	0.1261	0.24873	0.086433	0.076559	0.12161	0.098597	0.022399	0.074981	0.23225	0.23923	0.1629	-3.5062	-4.2729	-4.2	-3.9062	-4.6312	-3.9771	-4.1062	-4.7354	-3.6937	-4.2125	-4.5396	-3.9229	-4.7104	-4.1667	-3.9833	-4.7896	192.136	-15.747	90.722	-145.266	122.549	93.564	129.755	-48.464	87.686	163.144	37.286	78.473	-128.410	52.839	-25.858	-91.099	0.00036603	0.00026237	1.2957e-05	885.45	5.8753e-07	3.3439e-06	974.42	190.57	2.9761e-06	2.3357e-06	243.91	69.597	54.035	16.123	1.1386e-06	22.667	0.00016146	0.00013324	3.5796e-05	872.55	1.4891e-06	1.4686e-06	964.05	189.73	1.5411e-06	1.4708e-06	242.24	70.054	54.146	16.286	1.4951e-06	23.085	144.439	-87.521	-162.978	-154.049	-56.186	-5.813	-153.860	-146.846	-41.144	38.193	-146.408	-140.691	-139.990	-132.318	54.152	-132.626	-8191	255	
58447.602	1	1	0	0	0.20153	0.1614	0.081146	0.04432	0.019308	0.011113	0.24008	0.23518	0.28116	0.078772	0.13397	0.17622	0.15723	0.069127	0.27032	0.043352	-3.5812	-4.1521	-4.4292	-3.85	-4.4875	-4.1958	-4.0646	-4.9792	-3.8604	-4.1354	-4.5188	-3.8688	-4.6521	-4.2667	-3.8417	-4.8167	99.507	-24.498	161.809	-22.316	70.202	-90.653	112.704	-159.952	-3.786	95.486	3.473	-70.067	71.488	-44.809	158.175	124.075	0.00036946	0.00032904	0.00011313	879.14	2.2762e-06	3.5606e-06	970.65	189.83	3.6707e-06	2.0611e-06	244.63	69.707	53.755	16.141	3.7609e-06	22.687	0.00015556	0.00013666	3.537e-05	872.26	1.5411e-06	1.4428e-06	963.38	189.67	1.5199e-06	1.4515e-06	242.21	69.91	53.953	16.276	1.4432e-06	23.103	144.582	-90.835	-103.266	-153.972	-42.948	-18.304	-154.271	-146.529	-56.101	42.574	-147.193	-140.662	-140.007	-132.295	-37.787	-132.461	-8191	255	
58447.723	1	1	0	0	0.062724	0.13584	0.072602	0.25948	0.13027	0.0032373	0.14145	0.20979	0.087797	0.13329	0.17604	0.18018	0.035145	0.19641	0.19636	0.19098	-3.6646	-4.1208	-4.5083	-3.8542	-4.2625	-4.4437	-4.0563	-4.7	-3.9813	-4.0563	-4.6125	-3.6958	-4.3313	-4.5271	-3.8771	-4.7708	-101.417	-64.904	-13.176	161.421	-26.762	-72.203	45.105	1.648	76.731	-63.387	-29.002	-89.055	-121.062	86.392	-41.506	-87.613	0.00033243	0.00034108	8.4776e-05	883.86	3.369e-06	2.0637e-06	967.44	191.15	2.7175e-06	2.7212e-06	242.97	69.653	53.954	16.058	2.4857e-06	22.79	0.00016099	0.00013501	3.4898e-05	871.28	1.5814e-06	1.4528e-06	960.51	189.6	1.5328e-06	1.4746e-06	242.29	69.924	54.015	16.213	1.4095e-06	23.117	147.475	-89.711	-94.282	-153.877	-55.339	-43.130	-154.197	-146.607	-44.300	-2.198	-146.763	-141.067	-140.192	-132.800	-54.155	-132.269	-8191	255	
58447.816	1	1	0	0	0.26097	0.2504	0.2097	0.077738	0.10755	0.16573	0.16755	0.038272	0.21388	0.30696	0.29429	0.11554	0.11907	0.25116	0.11967	0.0857	-3.7625	-3.9229	-4.6167	-3.8958	-4.3396	-4.4667	-3.7521	-4.6271	-4.0542	-3.925	-4.7833	-3.7583	-4.1896	-4.4542	-3.6042	-4.5271	103.483	75.158	149.516	-130.217	51.748	-61.165	51.877	49.934	-91.099	183.123	192.536	23.584	53.949	-17.054	60.930	101.597	0.0003321	0.00022294	6.0968e-05	879.44	4.4165e-06	1.5937e-06	971.94	190.44	4.8328e-06	2.1777e-06	244.25	69.912	53.31	16.153	2.0966e-06	22.929	0.00016039	0.00013297	3.6763e-05	871.75	1.55e-06	1.3997e-06	961.32	189.57	1.582e-06	1.3652e-06	242.64	69.996	53.8	16.303	1.4451e-06	23.108	146.436	-105.333	-112.284	-153.956	-50.755	-20.805	-154.271	-146.738	-57.969	24.883	-146.752	-140.886	-140.531	-132.054	-14.210	-133.298	-8191	255	
58447.914	1	1	0	0	0.24291	0.16232	0.20677	0.10888	0.063149	0.14897	0.21205	0.10376	0.25125	0.12926	0.093243	0.083821	0.186	0.078064	0.23305	0.050446	-3.9583	-3.7979	-4.4896	-4.0333	-4.1167	-4.575	-3.7771	-4.5729	-4.1833	-3.95	-4.6417	-3.9604	-4.1396	-4.4458	-3.7646	-4.4792	156.436	173.384	-14.379	129.694	159.624	179.721	63.896	119.751	-20.174	-29.917	99.728	84.308	-35.438	-15.330	182.365	78.292	0.00034517	0.00023253	5.5431e-05	880.36	3.1907e-06	2.1447e-06	975.41	190.85	3.435e-06	2.3037e-06	241.91	69.679	53.674	16.083	4.1137e-06	22.683	0.00016028	0.00013082	3.5375e-05	870.55	1.587e-06	1.3212e-06	963.96	189.87	1.4965e-06	1.4633e-06	241.63	70.146	54.034	16.289	1.5054e-06	23.145	137.589	-82.080	-107.006	-153.945	-34.708	-19.681	-154.123	-146.639	-80.211	-18.776	-146.831	-140.606	-140.036	-132.124	-61.249	-132.650	-8191	255	
58448.008	1	1	0	0	0.060174	0.098213	0.062049	0.2345	0.14358	0.29221	0.12003	0.19636	0.18832	0.19143	0.17679	0.18292	0.17577	0.1488	0.081128	0.18538	-4.0146	-3.8021	-4.6167	-4.1083	-3.9188	-4.5479	-3.9271	-4.2646	-4.3792	-3.6542	-4.6188	-4.1208	-3.8854	-4.5542	-3.9125	-4.325	51.774	154.620	113.235	136.568	-41.302	78.572	191.945	135.759	-13.765	76.920	-53.733	-128.984	101.733	-86.568	79.541	-115.276	0.00035674	0.00022611	5.8908e-05	880.52	2.5512e-06	1.7094e-06	972.54	189.76	1.9467e-06	2.771e-06	243.88	69.756	53.385	16.024	3.0641e-06	22.658	0.00015714	0.00012981	3.6819e-05	870.54	1.5322e-06	1.3189e-06	963.12	189.3	1.4825e-06	1.4488e-06	242.34	69.964	53.874	16.232	1.4455e-06	23.121	150.039	-69.716	-47.113	-153.932	-46.409	61.839	-154.000	-146.558	-49.477	-23.121	-146.834	-140.553	-139.953	-132.400	-38.129	-132.306	-8191	255	
58448.129	1	1	0	0	0.14113	0.26173	0.12934	0.12986	0.2582	0.12794	0.33379	0.11297	0.0092934	0.11934	0.24685	0.12493	0.23506	0.14353	0.23579	0.14322	-4.3479	-3.8292	-4.5375	-4.4604	-3.9708	-4.7667	-4	-4.2771	-4.5729	-3.6146	-4.5333	-4.3292	-3.725	-4.7	-3.9958	-4.2063	-143.198	147.482	-31.042	179.977	-160.685	78.640	148.951	79.383	84.058	180.445	143.404	159.660	155.988	-117.995	58.479	-75.315	0.000321	0.0003062	8.6731e-05	883.48	3.5846e-06	1.2265e-06	971.03	190.57	2.5839e-06	1.7328e-06	241.17	69.691	54.007	16.145	2.8439e-06	23.064	0.00014999	0.00013478	3.6303e-05	872.06	1.5557e-06	1.3534e-06	961.74	189.61	1.4806e-06	1.4279e-06	241.87	69.904	53.987	16.264	1.4759e-06	23.133	148.415	-65.351	-74.543	-153.955	-46.762	-25.973	-154.030	-146.958	-65.417	11.504	-146.757	-140.744	-140.295	-132.708	-32.413	-132.798	-8191	255	
58448.227	1	1	0	0	0.085826	0.019014	0.19909	0.010176	0.23055	0.015484	0.22743	0.11277	0.18694	0.039651	0.10044	0.018549	0.024112	0.071847	0.21326	0.17403	-4.4167	-3.8208	-4.4958	-4.3438	-3.8229	-4.7542	-3.9688	-4.0188	-4.6104	-3.7	-4.475	-4.4479	-3.7458	-4.5167	-3.9958	-4.0604	25.402	-24.248	-139.532	116.446	-163.775	-142.171	158.551	6.926	109.908	26.946	157.789	-103.409	-48.899	43.848	-5.183	110.502	0.00036302	0.00021525	0.00010305	888.83	3.9241e-06	1.8594e-06	972.92	189.66	3.6275e-06	2.5365e-06	244.6	69.8	53.456	16.068	1.1205e-06	22.676	0.00014943	0.00013439	3.7594e-05	874.01	1.5547e-06	1.374e-06	962.53	189.57	1.4563e-06	1.5392e-06	242.55	69.872	53.841	16.352	1.409e-06	23.069	144.141	-107.157	-53.786	-153.897	-41.431	5.356	-154.178	-146.837	-66.708	42.134	-147.440	-140.390	-140.043	-132.111	32.970	-133.070	-8191	255	
58448.297	1	1	0	0	0.12318	0.041339	0.050001	0.1279	0.019158	0.12787	0.025191	0.34465	0.14928	0.12813	0.13852	0.072582	0.081757	0.11102	0.030301	0.19122	-4.2625	-3.6333	-4.4354	-4.4875	-3.7271	-4.5354	-4.2479	-3.825	-4.6729	-3.8021	-4.2833	-4.425	-3.8104	-4.6833	-4.2812	-4.0167	-88.866	137.954	182.106	170.662	-141.014	-62.886	134.078	125.012	75.667	163.478	-2.138	71.624	-129.683	159.033	-49.474	44.803	0.00030388	0.00014064	6.2937e-05	882.3	1.6506e-06	1.5329e-06	968.3	190.82	2.9045e-06	2.9731e-06	242.46	69.617	54.044	16.101	2.5111e-06	22.766	0.00014559	0.00012853	3.6112e-05	871.18	1.5301e-06	1.3589e-06	960.72	189.44	1.3962e-06	1.3662e-06	241.79	69.953	53.925	16.266	1.3962e-06	23.156	147.179	-31.126	-82.990	-154.059	-67.163	-18.712	-154.153	-146.581	-87.212	-7.930	-146.871	-140.374	-139.990	-132.470	0.712	-132.864	-8191	255	
58448.418	1	1	0	0	0.056082	0.12766	0.23113	0.1241	0.27315	0.10351	0.21783	0.17471	0.15215	0.073954	0.19655	0.054882	0.30858	0.17763	0.053589	0.11361	-4.3125	-3.7604	-4.2875	-4.6792	-3.6813	-4.55	-4.4	-3.9	-4.6833	-4.0479	-4.2667	-4.6896	-3.7604	-4.2625	-4.3354	-4.0104	146.781	130.045	-52.943	159.418	28.050	-143.297	144.983	-85.915	-109.499	-83.169	-137.730	144.472	1.913	159.654	-129.827	31.993	0.00032966	0.00020935	0.00013819	879.34	2.1929e-06	1.058e-06	971.39	190.71	2.1935e-06	4.2207e-06	243.56	69.643	53.589	16.157	5.1143e-06	22.672	0.00015425	0.00012877	3.7091e-05	870	1.5248e-06	1.2989e-06	961.43	189.43	1.3988e-06	1.4353e-06	242.16	69.95	53.949	16.262	1.3832e-06	23.135	150.844	-77.566	-92.756	-153.736	-27.457	-101.220	-154.240	-146.863	-70.133	-23.758	-146.229	-140.520	-139.876	-131.999	-37.926	-132.812	-8191	255	
58448.512	1	1	0	0	0.10398	0.13059	0.21403	0.28507	0.19498	0.11723	0.037375	0.18819	0.13792	0.080857	0.048261	0.14494	0.25268	0.19441	0.10657	0.12575	-4.3875	-3.9979	-3.9646	-4.7792	-3.8208	-4.3292	-4.5083	-3.8333	-4.5417	-4.1125	-4.2042	-4.5583	-3.8146	-4.2917	-4.5979	-3.7771	-93.973	79.378	-28.467	193.244	151.320	165.547	150.980	-89.454	58.459	-150.689	124.743	118.978	-105.625	160.676	-72.311	-54.923	0.00034732	0.00021247	9.9794e-05	882.57	2.461e-06	2.3691e-06	966.96	189.89	2.6107e-06	3.2913e-06	241.9	70.019	54.166	16.25	1.1536e-06	22.782	0.00015157	0.00012664	3.5136e-05	870.95	1.6213e-06	1.4057e-06	960.79	189.34	1.3638e-06	1.4014e-06	241.2	69.809	54.08	16.355	1.2788e-06	23.061	143.958	-61.744	-79.260	-154.216	-49.063	-8.037	-154.165	-146.754	-51.952	-15.738	-146.750	-140.891	-140.301	-131.994	7.077	-132.910	-8191	255	
58448.609	1	1	0	0	0.29138	0.13804	0.15774	0.014381	0.092225	0.067047	0.26677	0.044418	0.17173	0.27211	0.14856	0.14722	0.11974	0.054711	0.19802	0.040433	-4.3667	-4.1229	-3.9708	-4.7417	-3.8875	-4.2042	-4.6729	-3.8167	-4.5729	-4.3	-3.8937	-4.8542	-3.9292	-4.0542	-4.5188	-3.8563	13.904	127.879	83.031	-157.295	70.494	64.035	122.079	-65.764	97.977	70.880	-93.917	96.318	24.287	-72.720	-51.689	110.293	0.00036739	0.00025545	8.1481e-05	882.37	1.9504e-06	6.4296e-07	966.54	191.45	2.8661e-06	1.213e-06	243.68	69.431	53.555	16.16	3.3395e-06	22.607	0.0001496	0.00012405	3.4621e-05	869.77	1.517e-06	1.4874e-06	959.49	189.79	1.4736e-06	1.4331e-06	241.91	69.979	53.825	16.296	1.3645e-06	23.035	143.352	-98.071	-95.800	-154.172	-40.964	57.934	-154.221	-146.697	-54.622	-39.816	-147.263	-140.314	-140.267	-132.053	-30.937	-132.969	-8191	255	
58448.703	1	1	0	0	0.065704	0.052155	0.11788	0.22332	0.20215	0.046387	0.13856	0.13242	0.13749	0.075252	0.24359	0.064414	0.26249	0.12118	0.1502	0.22384	-4.2625	-4.2042	-3.7583	-4.7063	-4.0604	-4.0437	-4.8375	-3.7812	-4.4479	-4.3979	-3.8833	-4.7208	-3.8937	-4.0958	-4.5875	-3.7625	-135.567	58.701	-21.293	180.240	188.742	56.947	121.708	76.710	-87.660	35.211	153.271	17.221	142.924	185.955	23.124	63.820	0.00034575	0.00032295	4.8262e-05	878.82	2.2411e-06	1.6369e-06	966.04	189.9	1.9451e-06	2.3874e-06	244.25	69.519	53.515	15.991	3.0997e-06	22.617	0.00015543	0.00012426	3.6751e-05	870.03	1.5251e-06	1.3732e-06	959.73	189.24	1.4532e-06	1.2821e-06	241.96	69.809	53.866	16.282	1.3721e-06	23.096	143.197	-85.564	-134.894	-153.841	-58.938	-60.108	-154.158	-146.718	-46.849	-2.426	-146.619	-140.327	-140.372	-132.011	-52.975	-133.249	-8191	255	
58448.824	1	1	0	0	0.05939	0.17924	0.046626	0.42995	0.12455	0.041714	0.42417	0.12086	0.090499	0.20543	0.02444	0.22267	0.18833	0.035169	0.13159	0.088297	-4.0375	-4.4854	-3.675	-4.7958	-4.1104	-3.8563	-4.8688	-3.6979	-4.1979	-4.4812	-3.7458	-4.6042	-4.2771	-3.9854	-4.6958	-3.9813	-111.501	-52.323	10.640	167.025	60.629	-81.189	115.601	-65.626	100.045	119.357	42.508	-39.750	58.439	-157.389	5.350	53.841	0.00032628	0.00025344	4.5903e-05	882.65	1.9749e-06	3.2914e-06	965.15	190.01	2.9304e-06	1.5236e-06	241.44	69.818	53.839	16.092	2.5609e-06	22.473	0.00015061	0.00012544	3.569e-05	871.42	1.4872e-06	1.423e-06	959.18	189.39	1.4593e-06	1.2149e-06	241.49	70.001	54.033	16.279	1.3924e-06	23.02	145.854	-72.453	-95.162	-153.919	-40.354	4.032	-153.995	-146.655	-38.599	5.241	-146.710	-140.582	-140.310	-132.511	20.206	-132.777	-8191	255	
58448.898	1	1	0	0	0.17058	0.02801	0.10238	0.099671	0.17233	0.14011	0.049579	0.18967	0.10872	0.13388	0.15552	0.014107	0.080668	0.16548	0.056325	0.10885	-3.8708	-4.5437	-3.8229	-4.6042	-4.175	-3.9625	-4.8646	-4.0583	-4.0938	-4.6937	-3.7854	-4.6813	-4.3979	-3.7646	-4.6583	-4.0625	-88.871	182.269	109.771	187.285	147.905	-90.932	192.758	153.113	-67.378	105.435	65.746	45.383	96.444	-77.036	-127.422	147.509	0.00035524	0.00014284	5.5846e-05	878.57	2.8215e-06	1.6119e-06	966.94	190.4	3.4169e-06	9.2057e-07	243.26	70.053	53.816	16.015	2.5119e-06	22.522	0.00015119	0.00012313	3.6746e-05	869.52	1.466e-06	1.4003e-06	959.65	189.1	1.4447e-06	1.3719e-06	241.6	69.872	53.942	16.256	1.395e-06	23.086	148.383	-59.911	-83.333	-153.747	-66.605	-70.749	-153.907	-146.768	-79.096	-63.363	-146.869	-140.231	-140.224	-132.222	-34.462	-132.880	-8191	255	
58448.992	1	1	0	0	0.10616	0.049864	0.22109	0.23906	0.092919	0.17255	0.26745	0.31842	0.13232	0.094502	0.3134	0.18077	0.28958	0.11051	0.20058	0.27148	-3.8271	-4.4313	-3.5875	-4.4604	-4.2271	-3.6875	-4.7292	-4.1167	-3.9646	-4.7188	-3.7625	-4.3688	-4.3438	-3.8208	-4.5813	-4.0437	-33.031	130.022	74.502	83.745	145.962	92.526	169.876	80.771	115.401	112.928	170.405	33.351	63.406	7.598	-56.518	-23.457	0.00037003	0.00019098	4.633e-05	881.43	2.2594e-06	1.9183e-06	964.8	189.7	4.256e-06	1.4704e-06	241.87	69.869	53.939	16.219	2.3283e-06	22.592	0.00015364	0.00012803	3.7125e-05	868.63	1.4739e-06	1.3754e-06	959.42	189.09	1.4605e-06	1.33e-06	241.42	69.683	53.914	16.269	1.3719e-06	23.07	146.164	-106.758	-72.256	-153.884	-44.893	13.566	-154.092	-146.760	-92.785	8.143	-146.604	-140.664	-140.134	-132.290	-32.348	-133.292	-8191	255	
58449.090	1	1	0	0	0.17342	0.10895	0.10599	0.27103	0.077357	0.055039	0.32966	0.16758	0.23766	0.17529	0.16376	0.18127	0.10248	0.14569	0.12167	0.18806	-3.75	-4.5479	-3.85	-4.2771	-4.5604	-3.7625	-4.6937	-4.3104	-3.7979	-4.7083	-3.8292	-4.2333	-4.6708	-3.6125	-4.4021	-4.3521	147.130	-20.171	-60.765	154.443	125.512	55.188	81.268	105.358	5.799	129.857	166.468	-124.437	135.772	-46.176	-75.096	42.518	0.00031257	0.00030974	8.9906e-05	876.67	3.4714e-06	6.4793e-07	970.93	190.01	1.2861e-06	1.7568e-06	240.17	69.921	53.354	16.197	8.5431e-07	22.674	0.00014639	0.00012708	3.7287e-05	868.2	1.4505e-06	1.3888e-06	960.71	189.15	1.3654e-06	1.3736e-06	240.5	69.953	53.833	16.306	1.4496e-06	23.026	146.693	-73.669	-98.718	-153.970	-42.862	-51.806	-154.127	-146.728	-59.977	15.054	-146.950	-140.724	-139.650	-132.439	-12.081	-132.985	-8191	255	
58449.211	1	1	0	0	0.15184	0.14121	0.084406	0.074415	0.04193	0.14557	0.22413	0.11204	0.08452	0.23333	0.18201	0.1852	0.17753	0.23764	0.16164	0.14102	-3.3667	-4.5771	-3.9021	-4.1833	-4.5583	-3.7458	-4.5125	-4.3979	-3.6771	-4.7292	-4.0333	-4.0625	-4.7417	-3.7812	-4.45	-4.3688	-77.328	-128.537	120.098	150.418	-106.699	15.220	117.950	133.629	-19.342	-65.090	-122.917	109.076	-141.636	-61.444	-24.005	109.400	0.00034706	0.00028998	3.9756e-05	882.86	1.5716e-06	1.6296e-06	968.77	189.58	3.905e-06	2.4832e-06	242.53	69.861	53.977	16.106	1.8889e-06	22.727	0.0001479	0.00012562	3.5741e-05	869.49	1.3871e-06	1.4382e-06	957.76	188.92	1.4204e-06	1.347e-06	241.83	69.91	53.908	16.246	1.4317e-06	23.063	149.706	-54.205	-29.894	-154.077	-95.714	14.257	-154.120	-146.584	-78.596	-32.137	-147.199	-141.102	-139.732	-132.616	-46.084	-132.817	-8191	255	
58449.305	1	1	0	0	0.22363	0.024314	0.22207	0.39018	0.13204	0.12571	0.054815	0.23592	0.05977	0.06384	0.35034	0.25533	0.15497	0.10825	0.08126	0.12789	-3.3708	-4.625	-4.05	-4.1375	-4.4604	-3.6854	-4.3583	-4.4104	-3.7354	-4.5396	-4.1917	-4.0437	-4.8646	-3.7979	-4.2438	-4.6188	-119.431	35.053	-39.284	152.937	-47.841	-78.520	50.680	120.044	181.721	-161.087	-145.399	-87.073	-39.095	139.282	-60.402	181.775	0.00033218	0.00011224	5.7815e-05	880.52	2.3924e-06	2.1747e-06	967.93	190.28	2.7818e-06	1.5856e-06	242.59	69.518	54.041	16.114	5.1501e-06	22.756	0.00015272	0.00012351	3.6146e-05	867.9	1.4666e-06	1.4895e-06	959.41	189.03	1.4498e-06	1.3579e-06	240.6	69.777	53.978	16.32	1.4083e-06	23.041	147.854	-66.157	-80.105	-153.789	-102.561	-11.673	-154.085	-146.395	-85.522	-31.290	-146.755	-140.830	-139.965	-132.196	-11.082	-132.524	-8191	255	
58449.402	1	1	0	0	0.07068	0.18969	0.121	0.22863	0.25505	0.10218	0.045558	0.16373	0.090283	0.17341	0.1879	0.062936	0.11699	0.13094	0.13907	0.075018	-3.3146	-4.4896	-4.1458	-4.0104	-4.7083	-3.775	-4.2312	-4.5146	-3.8396	-4.5417	-4.4625	-3.8979	-4.6771	-3.9729	-4.1562	-4.8354	3.341	-35.120	159.672	167.514	91.832	77.581	192.406	191.160	-83.433	-158.291	133.744	9.427	-160.436	16.647	-152.694	-36.196	0.00035879	0.00026121	9.5553e-05	876.83	3.0923e-06	2.5109e-06	966.09	189.95	2.4357e-06	2.4195e-06	241.66	69.275	54.034	16.121	1.9501e-06	22.841	0.00015351	0.00012658	3.382e-05	867.23	1.4663e-06	1.3804e-06	958.13	188.79	1.533e-06	1.402e-06	241.31	69.714	53.95	16.3	1.3489e-06	23.106	147.071	-96.531	-79.299	-153.928	-70.452	-11.153	-154.049	-146.411	-53.728	-17.674	-146.661	-141.014	-139.697	-131.725	-50.311	-133.030	-8191	255	
58449.500	1	1	0	0	0.084573	0.1393	0.076741	0.068567	0.2764	0.24058	0.27684	0.30904	0.034952	0.12897	0.13151	0.24557	0.15641	0.067489	0.0446	0.40447	-3.4646	-4.4812	-4.2854	-3.8521	-4.7688	-4.0729	-4.1375	-4.7083	-3.5833	-4.4	-4.5437	-3.775	-4.6479	-4.1937	-3.9104	-4.7937	27.584	106.167	50.829	120.614	119.983	-153.981	143.248	157.866	67.812	37.182	27.990	42.505	124.108	-43.474	-2.388	64.234	0.00035631	9.7428e-05	2.5882e-05	879.87	1.8198e-06	1.8602e-06	965.28	190.26	4.2726e-06	2.3144e-06	244.35	69.661	53.996	16.072	3.0828e-06	22.624	0.00015782	0.00012855	3.3688e-05	868.27	1.5204e-06	1.3583e-06	958.29	189.09	1.4571e-06	1.3876e-06	241.55	69.856	53.89	16.241	1.4169e-06	23.054	150.750	-94.456	-83.823	-153.932	-47.936	-16.028	-153.911	-146.541	-60.754	-14.037	-146.725	-140.815	-139.991	-132.089	-26.200	-132.634	-8191	255	
58449.594	1	1	0	0	0.084572	0.071387	0.29884	0.30475	0.03912	0.16439	0.18442	0.060288	0.23135	0.07988	0.19656	0.1733	0.1793	0.043835	0.19577	0.20142	-3.3542	-4.1979	-4.45	-3.8458	-4.5521	-4.2979	-4.0479	-4.7833	-3.8438	-4.1896	-4.5729	-3.6979	-4.6083	-4.2812	-3.8417	-4.6438	-150.029	168.020	-114.706	162.145	172.293	29.383	-120.462	4.698	4.831	-36.344	187.818	191.429	147.778	-2.176	-82.802	-18.420	0.0003642	0.00021575	0.00011996	875.79	1.9445e-06	2.802e-06	966.56	189.89	1.869e-06	2.6907e-06	242.43	69.919	53.4	16.076	2.4709e-06	22.831	0.00015601	0.00012524	3.4582e-05	866.13	1.4068e-06	1.4055e-06	958.26	189.17	1.5163e-06	1.3279e-06	241.27	69.998	53.746	16.308	1.4364e-06	23.143	146.843	-107.437	-86.771	-154.150	4.978	-44.278	-154.444	-146.625	-42.459	16.108	-146.765	-140.380	-140.098	-132.418	-5.614	-132.686	-8191	255	
58449.691	1	1	0	0	0.014092	0.10555	0.080293	0.22605	0.13309	0.078242	0.36045	0.12027	0.19379	0.26764	0.31364	0.26074	0.11069	0.24961	0.13749	0.16636	-3.6208	-4.0271	-4.7271	-3.8187	-4.45	-4.4604	-4.0667	-4.6833	-3.9188	-4.0854	-4.7	-3.675	-4.3979	-4.4042	-3.7771	-4.65	147.934	160.398	108.469	77.191	80.569	-3.967	127.474	101.260	143.456	-138.222	181.120	155.284	-67.773	178.661	79.950	83.284	0.00035579	0.00027877	6.8217e-05	880.61	1.131e-06	1.6235e-06	964.21	190.66	3.1395e-06	3.9867e-06	243.25	69.806	53.601	16.121	2.4482e-06	22.88	0.00015531	0.00013234	3.3679e-05	867.54	1.4114e-06	1.2578e-06	957.28	189.25	1.4623e-06	1.2988e-06	241.83	70.017	53.926	16.254	1.4451e-06	23.132	143.074	-112.813	-59.362	-153.853	-12.916	-11.054	-154.010	-146.518	-62.423	15.230	-147.007	-140.732	-139.992	-132.116	-41.799	-132.985	-8191	255	
58449.809	1	1	0	0	0.12588	0.14457	0.26376	0.13752	0.096253	0.12805	0.29478	0.090407	0.21447	0.17571	0.16018	0.14458	0.15716	0.059624	0.16743	0.08134	-3.6063	-3.8208	-4.6937	-3.9583	-4.2917	-4.4979	-3.925	-4.7354	-3.9271	-3.9771	-4.6583	-3.85	-4.2917	-4.5875	-3.8688	-4.5417	-115.497	10.992	54.919	-156.527	50.813	30.493	108.178	71.617	65.792	191.196	-19.387	83.872	-128.940	9.125	118.817	79.565	0.00035828	0.00019293	4.1134e-05	875.67	1.3714e-06	3.0791e-06	968.5	190.34	4.2736e-06	2.2869e-06	243.66	69.523	53.458	16.089	1.519e-06	22.589	0.0001504	0.00012476	3.4293e-05	866.08	1.4291e-06	1.3236e-06	958.25	189.17	1.4413e-06	1.307e-06	241.98	69.836	53.88	16.297	1.4287e-06	23.105	145.821	-75.744	-62.421	-153.711	-67.390	-16.768	-154.229	-146.347	-33.961	-25.103	-146.319	-140.301	-140.092	-132.272	-34.419	-132.984	-8191	255	
58449.906	1	1	0	0	0.15649	0.17547	0.18299	0.20337	0.1783	0.30664	0.06895	0.22193	0.16979	0.16881	0.059087	0.18952	0.21481	0.11629	0.071448	0.11219	-3.9354	-3.8083	-4.6417	-3.9167	-4.1146	-4.6479	-3.8688	-4.6146	-4.0896	-3.6937	-4.7125	-3.8646	-4.1312	-4.6333	-3.6083	-4.5333	68.300	-26.512	138.935	44.322	-141.566	178.869	3.991	129.464	32.459	-30.512	30.770	131.394	-98.262	177.814	43.511	-9.807	0.00038943	0.00032662	8.0459e-05	877.99	3.2809e-06	1.0382e-06	966.81	190.45	2.5003e-06	3.2067e-06	240.32	69.555	53.525	16.142	4.2201e-06	22.616	0.00015337	0.00012752	3.4071e-05	868.51	1.5067e-06	1.2932e-06	958.73	189.27	1.3402e-06	1.3539e-06	240.73	69.758	53.911	16.285	1.4673e-06	23.092	147.132	-55.268	-91.467	-153.973	-27.797	35.413	-154.237	-146.385	-52.108	-20.792	-147.386	-140.595	-140.302	-132.488	-33.005	-133.168	-8191	255	
58450.004	1	1	0	0	0.094486	0.050293	0.080675	0.26291	0.2089	0.050192	0.11174	0.11509	0.10547	0.14185	0.071096	0.09106	0.044523	0.32211	0.064954	0.22743	-4.0396	-3.7583	-4.6271	-4.2125	-3.8563	-4.5813	-3.8479	-4.4604	-4.4229	-3.8833	-4.7271	-4.1188	-3.8521	-4.5646	-3.7313	-4.2958	-38.718	13.515	48.592	166.520	132.353	-20.508	-2.473	-63.526	191.976	136.592	93.096	135.553	-126.235	183.231	168.775	165.052	0.00031031	0.00024457	6.1048e-05	881.23	3.356e-06	3.5798e-06	966.49	190.17	3.0888e-06	3.7403e-06	241.47	69.348	54.011	16.161	2.8762e-06	22.671	0.0001483	0.00013483	3.3901e-05	868.68	1.4206e-06	1.2855e-06	958.61	189.47	1.3828e-06	1.4536e-06	241.09	69.689	53.942	16.303	1.385e-06	23.118	141.074	-93.702	-113.185	-153.879	-77.064	-8.826	-154.165	-146.219	-72.704	-1.365	-147.065	-140.782	-139.993	-132.016	11.680	-132.800	-8191	255	
58450.121	1	1	0	0	0.25025	0.11713	0.18846	0.024775	0.12383	0.11931	0.38356	0.25417	0.095052	0.058811	0.15692	0.13587	0.29452	0.078019	0.1532	0.1075	-4.0188	-3.6375	-4.5292	-4.3875	-3.9125	-4.6792	-3.9333	-4.1479	-4.425	-3.9125	-4.6167	-4.0792	-3.9292	-4.6396	-3.675	-4.1979	58.563	-90.861	5.922	72.276	-18.509	63.451	95.671	-1.512	-16.642	-112.170	-91.994	101.283	-137.883	141.943	48.957	179.147	0.00035756	0.00020963	0.00010311	884.11	1.85e-06	1.9073e-06	968.37	190	2.8731e-06	2.5677e-06	242.09	69.449	53.681	16.143	1.7767e-06	22.846	0.00014619	0.00012916	3.4169e-05	870.04	1.401e-06	1.3708e-06	960.44	189.16	1.4159e-06	1.4057e-06	241.66	69.692	53.927	16.309	1.3568e-06	23.102	145.870	-69.931	-85.336	-153.970	-76.159	-16.454	-154.096	-146.350	-55.671	-20.847	-146.767	-140.520	-140.067	-131.892	-45.305	-133.036	-8191	255	
58450.195	1	1	0	0	0.22044	0.16572	0.20147	0.10663	0.055452	0.2335	0.10273	0.18163	0.36076	0.08224	0.19289	0.18304	0.17418	0.11676	0.16003	0.13056	-4.4042	-3.7417	-4.3542	-4.4125	-3.6875	-4.6958	-4.0563	-4.0708	-4.5708	-3.6896	-4.4271	-4.4958	-3.75	-4.6875	-3.8146	-4.0542	-29.927	-31.837	-2.737	148.193	91.584	-12.281	67.131	103.002	-91.096	127.391	130.600	175.235	115.847	-143.385	166.229	-62.490	0.00032103	0.00023418	7.6332e-05	882.56	1.3978e-06	2.136e-06	966.47	190.77	9.1492e-07	4.9618e-06	244	69.695	53.853	16.087	2.646e-06	22.743	0.0001467	0.00013085	3.6154e-05	869.07	1.5012e-06	1.3019e-06	960.17	189.32	1.373e-06	1.4178e-06	242.33	69.85	53.974	16.31	1.3078e-06	23.128	149.684	-138.025	-43.851	-153.822	-84.026	-1.409	-154.077	-146.636	-90.547	9.200	-146.779	-141.017	-140.159	-131.797	-46.873	-132.464	-8191	255	
58450.289	1	1	0	0	0.020181	0.1546	0.13808	0.13059	0.081749	0.086988	0.15783	0.061589	0.10805	0.2274	0.2442	0.15903	0.1964	0.1456	0.15032	0.16417	-4.275	-3.7042	-4.3875	-4.4979	-3.6833	-4.6229	-4.1292	-4.0396	-4.6958	-3.5833	-4.2958	-4.5646	-3.7479	-4.7042	-4.1375	-3.8583	-113.353	-52.383	60.404	86.837	59.200	-121.949	94.135	-162.903	-75.139	-100.978	-55.528	91.890	-98.615	107.817	-26.097	-10.097	0.00033117	0.00026642	8.7769e-05	883.75	2.207e-06	2.295e-06	970.63	189.59	3.3157e-06	2.7523e-06	241.11	69.311	53.652	16.155	3.6366e-06	22.658	0.00015333	0.00013571	3.3714e-05	868.96	1.5739e-06	1.2778e-06	961.86	189.02	1.3855e-06	1.3436e-06	241.74	69.773	53.881	16.395	1.4085e-06	23.073	144.115	-87.202	-61.152	-153.845	-24.615	-6.858	-153.982	-146.642	-71.231	7.283	-146.874	-140.883	-140.037	-132.268	-64.663	-132.835	-8191	255	
58450.387	1	1	0	0	0.065039	0.063194	0.16068	0.053222	0.15173	0.25827	0.16345	0.13575	0.2011	0.10302	0.11552	0.11848	0.12951	0.1906	0.075197	0.14531	-4.5208	-3.8229	-4.1583	-4.7146	-3.6229	-4.5042	-4.4333	-3.85	-4.6333	-3.8375	-4.1646	-4.7021	-3.7333	-4.4563	-4.1875	-3.975	-78.382	11.070	177.813	-33.969	18.127	-79.578	-35.980	56.855	96.477	184.114	-130.132	-27.168	176.866	-106.260	-159.111	125.534	0.00040505	0.00027578	8.8872e-05	879.42	2.4967e-06	3.0122e-06	969.25	190.89	1.8243e-06	1.9626e-06	243.19	70.287	53.555	16.159	2.9701e-06	22.68	0.00015222	0.0001282	3.2887e-05	869.42	1.4831e-06	1.3884e-06	959.87	189.5	1.3607e-06	1.378e-06	242.18	69.946	53.924	16.327	1.3095e-06	23.084	145.113	-82.245	-65.803	-153.763	-86.688	-16.073	-154.132	-146.390	-24.768	12.572	-147.132	-140.955	-140.538	-132.536	-26.606	-132.824	-8191	255	
58450.508	1	1	0	0	0.19611	0.0064373	0.23957	0.22723	0.28182	0.10799	0.27763	0.095874	0.1519	0.14297	0.20908	0.18585	0.157	0.14025	0.013175	0.11119	-4.4062	-3.8646	-4.0667	-4.7438	-3.6333	-4.4854	-4.4292	-3.775	-4.5479	-4.05	-4.1292	-4.8333	-3.8063	-4.2375	-4.4958	-3.8729	-117.515	-9.320	33.399	132.310	72.761	138.243	136.562	-91.449	132.492	-87.825	108.465	165.239	151.448	-17.866	29.285	79.177	0.00035014	0.0002423	4.4084e-05	879.97	2.9738e-06	2.3814e-06	970.25	189.95	7.1679e-07	3.5774e-06	240.42	69.638	53.801	15.962	1.5566e-06	22.606	0.0001464	0.00012932	3.408e-05	869.25	1.4569e-06	1.2981e-06	961.13	189.28	1.4243e-06	1.3251e-06	241.75	69.955	53.989	16.307	1.3124e-06	23.128	142.276	-54.958	-88.179	-154.047	-98.105	-31.114	-154.143	-146.485	-30.737	15.730	-147.142	-140.446	-139.932	-132.615	-42.437	-132.805	-8191	255	
58450.602	1	1	0	0	0.16564	0.085574	0.062691	0.11943	0.033163	0.069557	0.1242	0.10106	0.1875	0.22156	0.11899	0.17074	0.16209	0.20092	0.038487	0.074885	-4.2625	-4.0479	-3.9167	-4.6104	-3.5833	-4.3292	-4.6396	-3.6958	-4.4854	-4.1062	-3.9813	-4.8542	-3.9042	-4.1333	-4.4688	-3.7292	25.917	57.171	5.307	-158.095	36.871	-68.228	96.499	106.496	185.370	126.690	192.179	15.696	27.545	109.455	18.610	60.725	0.00033084	0.00021737	7.601e-05	879.06	2.2356e-06	1.445e-06	972.21	190.08	3.4749e-06	3.0053e-06	243.1	70.024	53.971	16.109	2.0584e-06	22.804	0.00014898	0.00012359	3.526e-05	868.77	1.476e-06	1.3065e-06	961.14	189.12	1.3802e-06	1.2772e-06	241.28	70.165	53.928	16.293	1.2926e-06	23.113	141.056	-77.673	-84.944	-154.138	-38.734	-4.673	-154.298	-146.539	-58.586	-18.603	-147.026	-140.582	-140.005	-132.633	-1.203	-132.714	-8191	255	
58450.699	1	1	0	0	0.056165	0.10777	0.24818	0.11784	0.16605	0.13893	0.23725	0.31296	0.11844	0.26174	0.064853	0.090391	0.073501	0.048664	0.11773	0.11014	-4.25	-4.1458	-3.8042	-4.7521	-3.8542	-4.05	-4.6208	-3.7021	-4.4875	-4.3625	-3.7958	-4.75	-3.8792	-4.075	-4.5229	-3.7583	39.779	17.092	-103.620	93.338	-136.795	-159.397	111.186	176.904	-87.580	87.362	18.792	90.876	-95.974	-139.890	-100.688	-93.536	0.00036564	0.00037765	3.4966e-05	881.28	1.8593e-06	2.9592e-06	971.84	190.66	2.611e-06	1.5348e-06	241.4	69.67	53.777	16.107	1.1626e-06	22.466	0.00014887	0.0001222	3.3471e-05	870.43	1.3991e-06	1.2816e-06	961.1	189.25	1.3493e-06	1.2667e-06	241.36	69.949	53.955	16.315	1.3233e-06	23.053	139.978	-89.402	-58.664	-153.724	-58.998	-8.194	-154.148	-146.898	-71.604	6.418	-146.763	-140.756	-140.403	-132.102	-71.637	-132.815	-8191	255	
58450.770	1	1	0	0	0.16264	0.11617	0.15408	0.19355	0.26416	0.030111	0.095106	0.10325	0.13414	0.051723	0.066251	0.18999	0.13204	0.35749	0.27727	0.059542	-4.1604	-4.3021	-3.7625	-4.725	-3.9146	-3.8917	-4.8021	-3.8312	-4.3167	-4.4646	-3.6813	-4.5708	-4.0375	-4.05	-4.6146	-3.8042	122.759	-48.411	69.188	175.963	149.717	-55.286	-138.025	147.234	111.049	-110.159	70.678	141.248	29.356	-96.463	45.341	-161.556	0.00032914	0.0003366	3.7368e-05	879.77	3.1131e-06	3.3215e-06	973.29	189.25	1.7499e-06	3.1307e-06	242.72	69.942	53.899	16.133	2.823e-06	22.681	0.00014366	0.00012515	3.4374e-05	869.16	1.4257e-06	1.3413e-06	962.31	189.08	1.3777e-06	1.2692e-06	242.33	69.855	54.11	16.316	1.3753e-06	23.099	147.376	-80.970	-15.062	-154.005	-75.219	-27.938	-153.711	-146.955	-28.175	-12.666	-146.833	-140.878	-139.668	-132.231	-13.924	-132.582	-8191	255	
58450.891	1	1	0	0	0.12358	0.18199	0.06122	0.19056	0.1135	0.13386	0.14753	0.082476	0.084348	0.28833	0.14307	0.1916	0.10037	0.042818	0.22223	0.27841	-3.7375	-4.5104	-3.7646	-4.5396	-4.2375	-3.8542	-4.8229	-3.9292	-4.1208	-4.5167	-3.7562	-4.4437	-4.2479	-3.8146	-4.7063	-3.9604	-162.505	84.984	148.836	144.408	-25.537	-103.670	67.632	-94.840	148.738	102.134	-102.639	-88.095	193.771	61.577	118.386	137.683	0.00031388	0.00029086	8.7055e-05	878.96	2.4658e-06	2.8189e-06	966	190.7	1.9411e-06	3.2438e-07	242.34	69.162	54.033	16.265	3.2342e-06	22.918	0.00014131	0.0001192	3.6704e-05	869.85	1.3981e-06	1.3413e-06	962.04	189.56	1.392e-06	1.2359e-06	241.69	69.92	54.124	16.403	1.2898e-06	23.192	149.908	-112.183	-109.955	-153.905	-42.380	-35.220	-154.103	-146.273	-57.228	38.489	-146.921	-140.842	-140.249	-132.138	-24.013	-132.896	-8191	255	
58450.984	1	1	0	0	0.22078	0.042859	0.15598	0.13216	0.31589	0.027894	0.19656	0.012784	0.042364	0.28866	0.060529	0.14864	0.057645	0.18903	0.23256	0.14663	-3.6958	-4.6062	-3.6417	-4.4958	-4.3417	-3.8104	-4.7604	-4.1292	-3.9667	-4.725	-3.7625	-4.2521	-4.5542	-3.6437	-4.6021	-4.1042	-52.452	-134.712	-23.657	129.286	20.904	176.397	137.626	-81.926	41.984	-7.996	-149.498	-39.923	176.752	46.314	93.209	90.344	0.00034554	0.00016576	6.7489e-05	881.31	1.1638e-06	1.6815e-06	972.22	190.64	2.8695e-06	1.8824e-06	241.46	70.019	54.059	16.196	4.3119e-06	23.009	0.00014309	0.00011679	3.5136e-05	869.82	1.3723e-06	1.3029e-06	962.12	189.55	1.4014e-06	1.3214e-06	241.94	70.009	54.038	16.338	1.3556e-06	23.177	139.568	-72.717	-70.342	-153.966	-48.253	-45.828	-154.201	-146.728	-63.521	-51.275	-146.856	-140.551	-140.150	-132.058	-6.178	-132.844	-8191	255	
58451.082	1	1	0	0	0.1727	0.032189	0.065094	0.34331	0.23558	0.14284	0.10995	0.070055	0.15627	0.067286	0.10742	0.12567	0.19497	0.043082	0.046479	0.062911	-3.8208	-4.725	-3.8354	-4.4604	-4.5271	-3.6833	-4.8063	-4.2604	-3.9229	-4.7479	-3.7979	-4.2188	-4.5833	-3.775	-4.55	-4.2312	-54.779	146.757	22.020	154.027	121.389	-23.310	-133.023	-7.767	145.748	65.056	190.308	170.463	0.864	84.873	99.261	-39.685	0.00032399	0.0002135	7.4101e-05	879.39	1.066e-06	2.2951e-06	972.86	189.27	2.5061e-06	3.1628e-06	244.44	69.907	54.189	16.147	2.8848e-06	22.757	0.00015011	0.00012304	3.3245e-05	869.52	1.4123e-06	1.3978e-06	963	189.54	1.4352e-06	1.2822e-06	241.76	70.027	54.128	16.287	1.2865e-06	23.162	142.299	-89.503	-68.122	-154.033	-47.370	-9.827	-154.195	-146.676	-52.046	-34.539	-146.728	-140.639	-140.164	-131.972	-32.728	-132.693	-8191	255	
58451.203	1	1	0	0	0.08422	0.074665	0.15823	0.2126	0.18827	0.15819	0.2514	0.20257	0.11141	0.14289	0.080304	0.13768	0.1351	0.20352	0.10661	0.21791	-3.4562	-4.5958	-3.7771	-4.1042	-4.6646	-3.7646	-4.5938	-4.3604	-3.8208	-4.6896	-3.9854	-4.2667	-4.5854	-3.7354	-4.45	-4.3583	-6.487	-153.568	8.282	61.955	61.448	-19.258	119.405	-163.855	-131.489	-20.549	-91.377	154.276	186.009	69.167	-55.739	56.699	0.00034346	0.00032634	4.6768e-05	880.36	1.7107e-06	1.6269e-06	968.48	191.01	2.3429e-06	1.369e-06	242.97	69.916	54.136	16.213	7.0608e-07	22.941	0.00015014	0.00011833	3.2095e-05	870.54	1.4266e-06	1.3774e-06	962.17	189.33	1.4327e-06	1.3053e-06	241.43	69.995	53.992	16.316	1.3059e-06	23.208	149.379	-74.089	-92.756	-154.027	-67.614	18.350	-154.120	-146.572	-56.997	11.591	-146.867	-140.358	-139.746	-132.049	-7.722	-133.149	-8191	255	
58451.301	1	1	0	0	0.33397	0.074854	0.25587	0.28718	0.11063	0.06041	0.20037	0.17088	0.13816	0.10726	0.19709	0.15571	0.15528	0.12377	0.10188	0.10942	-3.4292	-4.725	-4.1396	-4	-4.675	-3.7604	-4.3792	-4.4667	-3.5896	-4.7	-4.25	-4.0188	-4.675	-3.9375	-4.2771	-4.4938	80.036	-67.188	129.115	161.872	-80.476	185.479	144.777	-104.604	-33.802	160.719	127.348	-91.371	174.189	138.521	-77.879	170.976	0.00034224	0.00029326	6.9928e-05	883.17	1.1656e-06	2.2812e-06	970.7	189.83	2.6412e-06	2.6746e-06	243.2	69.929	53.611	16.129	1.7821e-06	22.848	0.00015324	0.00011798	3.3279e-05	870.42	1.4245e-06	1.3021e-06	961.28	189.18	1.4016e-06	1.3618e-06	241.91	69.967	54.026	16.288	1.3423e-06	23.183	147.547	-100.965	-75.845	-153.856	-40.941	17.762	-154.235	-146.640	-59.506	-22.164	-146.690	-140.749	-140.384	-132.369	-16.227	-132.895	-8191	255	
58451.395	1	1	0	0	0.17954	0.13082	0.2119	0.077651	0.050258	0.1708	0.3555	0.030879	0.10454	0.18635	0.094192	0.049344	0.23259	0.1846	0.10556	0.13852	-3.3354	-4.5938	-4.0125	-3.9375	-4.475	-3.9771	-4.1521	-4.6937	-3.6229	-4.4792	-4.4229	-3.7708	-4.825	-3.9208	-4.0333	-4.6021	174.356	-102.990	-162.626	4.857	34.007	119.865	148.577	107.584	-44.774	182.533	-99.216	173.363	-56.578	-28.871	-99.039	164.991	0.00036017	0.00035517	6.4039e-05	878.81	2.954e-06	1.8287e-06	972.32	189.89	9.7789e-07	2.361e-06	242.38	69.556	53.677	16.23	3.5817e-06	22.813	0.00015519	0.00012114	3.365e-05	868.94	1.4598e-06	1.3276e-06	963.17	189.24	1.4058e-06	1.2488e-06	241.54	69.751	54.023	16.322	1.3865e-06	23.223	146.774	-62.483	-53.753	-154.028	-50.412	3.664	-154.128	-146.516	-49.580	-28.011	-146.686	-140.811	-140.484	-131.897	11.832	-133.490	-8191	255	
58451.492	1	1	0	0	0.23037	0.12935	0.10524	0.1953	0.1306	0.020689	0.26292	0.12682	0.078017	0.17371	0.11489	0.21774	0.25753	0.18714	0.31829	0.073536	-3.3917	-4.4917	-4.125	-4.0375	-4.5563	-4	-4.0563	-4.4333	-3.6625	-4.1604	-4.2937	-3.8688	-4.7604	-4.0771	-3.9938	-4.6896	-108.774	-0.411	-143.181	95.591	143.107	-72.151	98.879	125.477	-11.624	15.307	146.563	-113.504	-141.276	86.054	-144.438	-63.762	0.00034031	0.0001458	6.2953e-05	881.98	6.287e-07	3.9396e-06	969.41	191.46	2.2682e-06	3.4796e-06	243.49	69.384	53.478	16.183	3.7753e-06	22.565	0.00015179	0.0001133	3.2721e-05	869.77	1.3876e-06	1.3204e-06	961.59	189.75	1.4616e-06	1.3807e-06	241.74	69.79	53.885	16.341	1.3622e-06	23.074	140.973	-48.046	-75.935	-153.974	-103.798	-56.449	-153.984	-146.751	-64.701	-30.685	-146.812	-140.806	-139.387	-132.141	-61.624	-132.857	-8191	255	
58451.586	1	1	0	0	0.12919	0.050047	0.16028	0.22206	0.23111	0.10534	0.34265	0.19198	0.16027	0.10783	0.19561	0.046095	0.16522	0.16532	0.082849	0.072524	-3.4375	-4.3	-4.4479	-3.9688	-4.6792	-3.9729	-3.9271	-4.6542	-3.9271	-4.2562	-4.4333	-3.8771	-4.5396	-4.3229	-3.8812	-4.5375	118.126	90.427	194.613	122.358	-14.710	-97.154	130.315	128.100	-105.306	-20.926	89.613	129.076	-132.909	40.185	138.756	182.479	0.00033143	0.00010688	0.00010238	887.43	3.3242e-06	3.0216e-06	963.77	189.41	2.8904e-06	4.003e-06	242.62	69.562	54.055	16.169	2.8232e-06	22.907	0.00014886	0.00012158	3.319e-05	870.13	1.3887e-06	1.3088e-06	958.16	189.25	1.4277e-06	1.2851e-06	242.06	69.846	53.929	16.306	1.4102e-06	23.156	144.462	-46.046	-109.373	-153.858	-42.116	-25.433	-153.998	-146.729	-37.639	-6.102	-146.646	-140.561	-140.455	-132.261	-39.409	-132.299	-8191	255	
58451.684	1	1	0	0	0.14478	0.36318	0.082285	0.19057	0.17584	0.13049	0.33391	0.0031797	0.093562	0.075346	0.3165	0.25302	0.11985	0.074151	0.030304	0.13469	-3.6292	-4.0875	-4.5792	-3.8438	-4.425	-4.3167	-3.8312	-4.8063	-3.9229	-4.0854	-4.5146	-3.6583	-4.4271	-4.2771	-3.8812	-4.4958	-110.248	-139.593	120.635	75.683	95.894	141.757	150.729	-74.491	98.668	-112.778	-129.594	15.563	-100.423	128.107	177.726	-58.371	0.00031456	0.00019861	7.2589e-05	881.97	3.148e-06	1.6669e-06	967.04	190.29	7.7165e-07	4.2936e-06	243.16	69.463	54.186	16.046	1.0082e-06	22.835	0.00015867	0.00012054	3.4195e-05	868.21	1.4072e-06	1.2595e-06	959.06	189.36	1.3902e-06	1.3468e-06	241.85	69.935	54.056	16.294	1.4335e-06	23.17	143.970	-48.145	-64.272	-153.927	-53.891	-60.180	-154.089	-146.335	-121.794	18.243	-146.728	-140.596	-139.738	-132.190	-54.281	-132.781	-8191	255	
58451.805	1	1	0	0	0.18735	0.1178	0.17942	0.1138	0.10165	0.25437	0.1357	0.13316	0.32712	0.11671	0.16479	0.090455	0.12279	0.16933	0.12314	0.13069	-3.9896	-3.9521	-4.7625	-3.8833	-4.1979	-4.45	-3.8896	-4.6583	-4.2208	-3.7604	-4.7792	-3.8917	-4.2479	-4.3667	-3.6625	-4.6208	84.920	190.691	154.313	110.441	146.454	-84.203	150.428	98.486	83.647	110.483	-41.192	-142.959	39.965	131.856	115.114	104.424	0.00037174	0.00021542	7.0741e-05	877.4	2.5019e-06	3.6283e-06	966.91	191.66	2.7202e-06	4.5873e-06	243.45	69.432	53.75	16.157	1.9423e-06	22.704	0.00014644	0.00012194	3.4046e-05	867.7	1.4009e-06	1.338e-06	959.39	189.54	1.4412e-06	1.3728e-06	242.04	69.761	53.922	16.313	1.4236e-06	23.07	143.517	-85.447	-107.809	-154.150	-61.223	-5.509	-154.094	-146.656	-63.437	8.441	-146.877	-140.528	-140.319	-132.027	-20.013	-132.719	-8191	255	
58451.898	1	1	0	0	0.17041	0.14305	0.1971	0.28599	0.012919	0.06312	0.25347	0.27995	0.12724	0.13974	0.0064891	0.21769	0.31736	0.054778	0.18515	0.31999	-3.8542	-3.8083	-4.6188	-3.9417	-4.2	-4.5687	-3.8958	-4.6229	-4.3979	-3.8396	-4.6562	-3.7708	-4.1438	-4.6542	-3.775	-4.5708	148.311	-102.203	-60.230	189.908	69.352	-142.395	171.507	172.830	182.220	179.463	-47.225	105.205	89.448	139.112	180.745	-139.453	0.00034165	0.00023695	4.7769e-05	877.02	1.8879e-06	2.8319e-06	968.87	190.5	3.7103e-06	2.1211e-06	241.6	69.128	54.011	16.168	1.5034e-06	22.822	0.00014596	0.00012208	3.3978e-05	868.42	1.3971e-06	1.3407e-06	959.51	189.16	1.4629e-06	1.3613e-06	241.74	69.815	54.1	16.325	1.4064e-06	23.194	148.467	-89.918	-35.495	-153.864	-27.657	-34.186	-154.253	-146.684	-39.927	-46.117	-146.978	-140.615	-140.085	-132.664	2.338	-132.427	-8191	255	
58451.996	1	1	0	0	0.059385	0.10096	0.11387	0.16413	0.14139	0.094809	0.15152	0.048369	0.30594	0.11607	0.32811	0.12042	0.17276	0.060473	0.13932	0.049693	-3.9104	-3.725	-4.5729	-3.8958	-4.0146	-4.6521	-3.8021	-4.5729	-4.4271	-3.7104	-4.5875	-4.05	-4.1687	-4.6729	-3.75	-4.5188	59.300	68.747	175.245	92.784	5.164	-61.244	92.503	55.274	-92.020	193.779	94.466	62.207	86.545	30.691	50.519	4.611	0.00034203	0.00021004	4.0656e-05	878.16	1.1156e-06	3.8084e-06	964.05	189.58	2.4988e-06	2.0397e-06	241.65	69.808	54.085	16.247	2.9854e-06	22.765	0.00014419	0.00013128	3.1912e-05	868.94	1.456e-06	1.2927e-06	959.04	189.09	1.3492e-06	1.3522e-06	241.57	69.979	54.108	16.368	1.344e-06	23.174	151.649	-76.585	-96.746	-153.858	-28.076	-18.304	-154.089	-146.525	-63.062	-30.556	-147.232	-140.793	-140.111	-132.159	-40.246	-132.611	-8191	255	
58452.066	1	1	0	0	0.10024	0.052309	0.14536	0.28469	0.18298	0.12498	0.015357	0.16072	0.17841	0.20659	0.057719	0.1211	0.045664	0.10297	0.13908	0.17278	-4.1687	-3.7042	-4.5375	-4.1083	-3.9354	-4.8167	-3.8708	-4.4229	-4.3604	-3.8125	-4.5938	-4.0896	-3.8708	-4.5813	-3.8146	-3.9583	-115.790	-121.604	188.813	151.517	-133.468	91.717	51.954	181.404	-127.219	-58.033	35.588	85.882	-55.002	181.187	161.737	123.660	0.00033018	0.00022275	7.2441e-05	879.72	1.6013e-06	1.1504e-06	971.72	190.84	2.843e-06	9.3596e-07	242.81	69.716	54.074	16.257	7.6966e-07	22.869	0.00014679	0.00012914	3.3616e-05	869.12	1.465e-06	1.3383e-06	961.24	189.08	1.3821e-06	1.3728e-06	242.22	69.903	54.059	16.374	1.354e-06	23.149	139.387	-42.957	-106.676	-153.991	-56.510	-36.751	-154.110	-146.537	-87.411	27.537	-146.910	-140.470	-140.054	-131.783	18.079	-132.845	-8191	255	
58452.188	1	1	0	0	0.12887	0.036464	0.15731	0.086353	0.026925	0.16892	0.065892	0.082919	0.090844	0.15698	0.22237	0.066116	0.06781	0.34068	0.097146	0.14681	-4.1896	-3.7479	-4.5667	-4.4521	-3.8333	-4.7542	-4.0604	-4.1958	-4.6312	-3.8896	-4.5708	-4.2958	-3.8125	-4.7167	-3.9521	-4.1396	-161.119	106.000	22.995	-156.664	-134.726	173.975	144.691	-151.679	-64.720	-77.341	126.674	147.787	-162.892	147.391	30.639	-134.424	0.00037592	0.00028185	0.00010011	878.17	2.7594e-06	3.6106e-06	966.84	189.62	1.6311e-06	3.0315e-06	242.04	69.741	53.921	16.199	1.4732e-06	22.681	0.00014841	0.0001242	3.2926e-05	868.77	1.4201e-06	1.2292e-06	959.96	189.04	1.4321e-06	1.4239e-06	241.98	70.036	53.982	16.347	1.3024e-06	23.109	144.372	-83.344	-79.081	-153.925	-86.990	-40.243	-154.276	-146.726	-28.218	-5.654	-146.738	-140.683	-139.867	-131.835	-41.357	-132.997	-8191	255	
58452.285	1	1	0	0	0.22506	0.083246	0.096382	0.14306	0.18321	0.15717	0.31813	0.087985	0.16845	0.099938	0.084016	0.12539	0.16255	0.085663	0.2363	0.11482	-4.4896	-3.8333	-4.2937	-4.5938	-3.7021	-4.8083	-4.1417	-4.0417	-4.7292	-3.8438	-4.4187	-4.4146	-3.6896	-4.5792	-3.9542	-3.9771	16.270	-117.167	14.893	177.150	-89.578	49.256	90.237	159.442	14.174	-23.332	42.801	-128.988	-161.140	164.259	137.561	-121.096	0.00035876	0.00024933	7.995e-05	877.96	3.1444e-06	4.5346e-06	975.66	191.17	2.1455e-06	2.1802e-06	242.14	69.58	54.315	16.196	1.9615e-06	22.797	0.00014886	0.00012705	3.1878e-05	869.17	1.5103e-06	1.3246e-06	961.95	189.11	1.3821e-06	1.3062e-06	241.94	69.942	54.115	16.346	1.3205e-06	23.178	141.644	-48.307	-80.854	-153.965	-73.178	-30.926	-154.049	-146.842	-82.414	-34.175	-146.690	-140.215	-140.164	-132.350	-64.946	-132.596	-8191	255	
58452.379	1	1	0	0	0.17522	0.34676	0.12313	0.33254	0.12536	0.13079	0.19391	0.095662	0.05199	0.10527	0.16689	0.056253	0.092829	0.29463	0.19116	0.20112	-4.2937	-3.825	-4.375	-4.6146	-3.8479	-4.4521	-4.3375	-3.9583	-4.6417	-3.9583	-4.2875	-4.6625	-3.6896	-4.5708	-4.2271	-3.8771	124.313	18.436	-127.207	161.578	122.901	164.932	104.902	78.297	-124.307	73.152	112.174	-32.485	78.375	187.895	125.495	56.914	0.00034029	0.00024105	6.4214e-05	882.32	2.7806e-06	1.3367e-06	966.54	190.65	2.2649e-06	3.4571e-06	242.75	69.709	53.74	16.182	9.7901e-07	22.986	0.00014988	0.00012211	3.2951e-05	869.21	1.4935e-06	1.311e-06	960.15	189.28	1.3659e-06	1.2986e-06	241.91	69.948	53.926	16.354	1.2898e-06	23.273	140.823	-79.150	-72.601	-153.782	-27.003	-37.243	-153.824	-146.605	-97.437	8.491	-146.647	-140.710	-140.246	-132.046	-62.692	-132.611	-8191	255	
58452.477	1	1	0	0	0.080269	0.17622	0.12209	0.29891	0.12803	0.046067	0.40416	0.10697	0.15231	0.26323	0.18643	0.11972	0.23907	0.15006	0.19565	0.18062	-4.3271	-3.8438	-4.0021	-4.5083	-3.7125	-4.35	-4.4396	-3.9604	-4.6208	-4.0542	-4.1354	-4.5375	-3.55	-4.375	-4.6375	-3.8604	167.236	-34.040	145.712	63.819	14.103	54.910	87.037	36.835	26.457	108.823	-79.138	170.394	56.803	104.275	-159.445	-0.559	0.00033555	0.00028699	2.5531e-05	879.47	1.6514e-06	2.2625e-06	967.87	191.15	2.4689e-06	2.2402e-06	244.02	69.993	54.06	16.125	3.4943e-06	22.818	0.00014752	0.00012171	3.3731e-05	869.49	1.4668e-06	1.2877e-06	960.48	189.59	1.374e-06	1.2581e-06	242.27	69.93	54.132	16.311	1.2694e-06	23.099	142.463	-83.432	-93.155	-153.858	-25.330	-63.803	-154.292	-146.587	-37.627	11.238	-146.728	-140.735	-139.893	-132.041	-46.857	-132.965	-8191	255	
58452.570	1	1	0	0	0.1558	0.17036	0.12196	0.1311	0.12675	0.13155	0.22223	0.24587	0.16081	0.20885	0.13583	0.11127	0.033695	0.20384	0.06117	0.15265	-4.3021	-4.0042	-3.8875	-4.6333	-3.6479	-4.2729	-4.5833	-3.7062	-4.6417	-4.1167	-3.9417	-4.7542	-3.7479	-4.2708	-4.4354	-3.8667	106.980	-34.220	-37.907	178.700	-147.268	46.451	4.060	187.743	19.208	-4.469	-78.023	-48.218	176.913	76.620	-40.752	98.401	0.00028168	0.00032862	7.0877e-05	879.51	3.407e-06	2.9502e-06	970.87	190.81	2.5597e-06	4.0197e-06	245.04	70.233	53.61	16.158	1.9791e-06	22.768	0.00014597	0.00012182	3.523e-05	868.45	1.4642e-06	1.2847e-06	961.3	189.24	1.3096e-06	1.2515e-06	241.55	70.17	53.868	16.352	1.3111e-06	23.107	148.032	-85.343	-85.381	-153.936	-47.607	-0.043	-154.006	-146.271	-79.665	34.489	-146.951	-140.654	-139.839	-132.106	-43.454	-132.745	-8191	255	
58452.664	1	1	0	0	0.11545	0.16616	0.087777	0.12715	0.12915	0.20202	0.14384	0.13991	0.082977	0.12154	0.087593	0.14617	0.15744	0.052672	0.10082	0.10123	-4.1854	-4.1958	-3.8958	-4.7833	-4.0437	-4.2646	-4.7583	-3.7729	-4.5833	-4.3083	-3.8375	-4.5813	-3.9646	-4.0125	-4.4583	-3.5667	-88.822	30.691	-11.659	38.087	-34.157	-5.886	35.576	70.294	-27.412	-54.590	167.757	64.790	117.112	160.115	-96.577	-32.476	0.00035715	0.00022202	0.00010118	879.43	3.5675e-06	4.5566e-06	966.01	191	2.1532e-06	1.7605e-06	243.25	69.898	54.199	16.215	3.2154e-06	22.762	0.00014338	0.00012475	3.6533e-05	870.58	1.3931e-06	1.3625e-06	959.58	189.53	1.3388e-06	1.3293e-06	242.14	70.108	54.103	16.398	1.3269e-06	23.17	144.313	-90.925	-101.444	-153.699	-54.708	-41.028	-154.076	-146.620	-85.231	19.896	-147.157	-140.804	-140.273	-132.292	-38.202	-133.029	-8191	255	
58452.766	1	1	0	0	0.11501	0.084824	0.040608	0.053173	0.33496	0.12524	0.20281	0.12269	0.11034	0.07074	0.13104	0.0088779	0.17446	0.1617	0.11239	0.17989	-4.0229	-4.4313	-3.7167	-4.7271	-3.9604	-4.0417	-4.6708	-3.8396	-4.3375	-4.4208	-3.8146	-4.5583	-4.1646	-3.65	-4.4521	-3.6792	144.476	123.404	108.244	144.435	18.231	22.715	186.006	134.766	-79.219	-36.707	-95.117	18.247	159.710	177.114	-133.559	185.220	0.00029888	0.00030243	0.0001468	881.36	2.97e-06	2.935e-06	970.58	190.45	4.5847e-06	3.8673e-06	243.05	70.119	53.482	16.083	3.7765e-06	22.553	0.00014271	0.00011603	3.506e-05	870.41	1.3879e-06	1.364e-06	961.93	189.6	1.3602e-06	1.3232e-06	241.91	70.247	53.937	16.325	1.3359e-06	23.161	149.214	-101.164	-76.470	-154.007	-77.528	-7.341	-154.113	-146.850	-57.490	-20.874	-146.862	-140.393	-140.220	-131.830	-74.170	-133.135	-8191	255	
58452.883	1	1	0	0	0.10892	0.14827	0.18225	0.065101	0.15201	0.03937	0.057176	0.14599	0.072512	0.10888	0.0613	0.048054	0.12471	0.066167	0.27639	0.22495	-3.8958	-4.4542	-3.7208	-4.6042	-4.15	-3.9021	-4.9292	-3.9083	-4.2896	-4.2812	-3.8792	-4.45	-4.2667	-3.9479	-4.6708	-3.7979	-66.343	-136.309	-9.307	22.642	-18.146	-17.791	-54.469	116.148	-115.232	177.311	87.003	170.111	190.241	114.709	-117.909	67.104	0.00037855	0.00038646	3.8773e-05	883	3.0245e-06	1.0254e-06	967.73	191.52	2.7087e-06	2.0616e-06	242.32	69.792	54.139	16.192	1.671e-06	22.658	0.00014902	0.0001201	3.3756e-05	871.79	1.3462e-06	1.3391e-06	961.27	189.87	1.3287e-06	1.3009e-06	242.11	70.09	54.184	16.366	1.2998e-06	23.168	147.552	-63.541	-42.082	-153.961	-83.683	-39.615	-154.427	-146.830	-77.762	-43.553	-146.934	-140.660	-140.481	-132.054	-6.303	-132.583	-8191	255	
58452.980	1	1	0	0	0.087562	0.025526	0.15553	0.14924	0.015206	0.15338	0.1357	0.20905	0.12265	0.036046	0.39169	0.088611	0.15173	0.11847	0.096643	0.27639	-3.7083	-4.5167	-3.6063	-4.6479	-4.2917	-3.6417	-4.8708	-4.05	-4.0896	-4.6854	-3.7167	-4.3958	-4.325	-3.6458	-4.5083	-4.0146	60.991	54.470	-54.153	-141.613	142.020	50.637	193.799	76.912	-16.271	112.076	-32.826	-70.004	-35.334	-19.227	135.097	-160.582	0.0003214	0.00020325	5.3927e-05	880.89	2.3352e-06	2.8577e-06	969.7	190.71	2.1397e-06	3.0166e-06	242.84	69.85	54.243	16.109	3.5214e-06	22.865	0.00015109	0.00012057	3.5221e-05	870.77	1.4073e-06	1.3643e-06	962.53	189.46	1.3925e-06	1.3011e-06	242.25	70.135	54.254	16.337	1.309e-06	23.212	148.076	-73.270	-49.297	-153.661	-53.999	-48.835	-153.993	-146.543	-52.350	12.561	-146.874	-139.986	-140.202	-132.263	10.867	-132.896	-8191	255	
58453.074	1	1	0	0	0.060348	0.1322	0.19401	0.17491	0.14703	0.087106	0.054531	0.056743	0.040035	0.098558	0.060547	0.16435	0.071122	0.12923	0.19523	0.18759	-3.8104	-4.4875	-3.5271	-4.4	-4.4458	-3.6875	-4.65	-4.1062	-3.8146	-4.7167	-3.825	-4.2604	-4.6667	-3.8375	-4.7188	-4.0729	177.102	56.493	-108.301	-144.869	-3.706	120.917	141.378	-120.419	105.544	-153.314	-24.296	-94.014	-49.420	-154.778	-147.884	-123.510	0.00036059	0.00032519	3.8903e-05	881.02	2.4834e-06	4.4209e-06	970.83	190.97	3.5968e-06	3.8482e-06	242.82	69.75	54.452	16.142	2.217e-06	22.977	0.00015124	0.00012162	3.388e-05	870.71	1.4097e-06	1.3968e-06	961.91	189.92	1.4577e-06	1.3176e-06	241.54	70.205	54.082	16.306	1.2733e-06	23.192	147.528	-69.109	-58.130	-153.867	-63.932	4.185	-153.994	-146.269	-63.140	20.329	-146.838	-141.160	-140.091	-132.099	-57.048	-133.221	-8191	255	
58453.172	1	1	0	0	0.12724	0.16764	0.17806	0.17754	0.059509	0.18918	0.088249	0.39331	0.17412	0.15592	0.035256	0.17244	0.13092	0.13199	0.11393	0.056508	-3.5771	-4.6646	-3.7875	-4.2958	-4.4729	-3.8333	-4.6167	-4.3479	-3.7812	-4.825	-4.0333	-4.0625	-4.5542	-3.7667	-4.4521	-4.3229	61.780	65.000	83.196	179.958	137.549	133.480	-119.333	168.655	-54.051	-75.984	44.499	174.661	182.083	-92.343	144.348	-21.971	0.00037212	0.0002891	8.5364e-05	881.78	2.6864e-06	2.1858e-06	967.53	189.23	2.5307e-06	3.1997e-06	244.27	69.993	53.886	16.23	2.1546e-06	22.963	0.00014873	0.00011819	3.2921e-05	871.79	1.4196e-06	1.3381e-06	962.27	188.98	1.4077e-06	1.2982e-06	242.52	69.982	54.094	16.367	1.3121e-06	23.305	146.490	-96.545	-87.366	-153.945	-91.962	9.534	-154.358	-146.652	-66.581	-56.329	-146.879	-140.695	-140.280	-132.884	-48.082	-132.569	-8191	255	
58453.293	1	1	0	0	0.1179	0.3022	0.19152	0.063015	0.16005	0.12172	0.29577	0.27606	0.12489	0.25417	0.25631	0.050804	0.26079	0.19175	0.3228	0.089492	-3.4646	-4.5479	-4.0083	-4.0188	-4.5958	-3.6937	-4.4979	-4.5563	-3.7708	-4.4625	-4.1104	-3.9271	-4.6521	-3.875	-4.2333	-4.4792	-56.335	97.041	79.427	71.945	83.709	65.201	112.534	-145.503	-21.044	61.014	79.420	-15.152	170.585	-48.815	-25.631	77.987	0.00036317	0.00033494	9.8653e-05	883.27	9.9552e-07	3.4179e-06	971.03	189.94	1.8245e-06	3.4336e-06	243.49	69.679	54.202	16.23	6.0248e-07	22.893	0.00014996	0.00012107	3.3709e-05	871.18	1.3769e-06	1.2979e-06	963.93	189.5	1.398e-06	1.2846e-06	242.32	70.19	54.168	16.369	1.3584e-06	23.186	145.366	-66.009	-92.943	-153.958	-18.359	3.492	-154.183	-146.488	-64.321	-21.347	-146.715	-140.515	-140.052	-132.018	-56.991	-132.700	-8191	255	
58453.363	1	1	0	0	0.030492	0.15118	0.032362	0.037423	0.2755	0.14955	0.19617	0.12353	0.096781	0.029514	0.092769	0.15239	0.12176	0.26603	0.19563	0.18563	-3.3521	-4.7479	-4.0271	-3.9458	-4.7562	-3.7479	-4.2354	-4.5625	-3.5312	-4.4979	-4.3583	-3.8667	-4.4563	-3.8292	-4.0667	-4.4833	-44.374	94.261	65.384	176.147	-149.097	-52.502	135.405	175.941	-139.416	157.907	24.857	58.894	-60.064	157.958	-14.583	145.207	0.00035781	0.00028064	7.3562e-05	882.26	1.2526e-06	2.2184e-06	971.45	191.47	3.4128e-06	4.6132e-06	242.65	70.425	54.15	16.278	1.3431e-06	22.985	0.00014854	0.00011623	3.2989e-05	872.62	1.3811e-06	1.2837e-06	962.79	189.86	1.3959e-06	1.2753e-06	242.17	70.28	54.164	16.399	1.3517e-06	23.261	144.925	-70.238	-97.967	-153.792	-48.166	11.845	-154.056	-146.553	-70.994	-4.204	-146.669	-140.877	-140.118	-132.439	-43.814	-132.570	-8191	255	
58453.484	1	1	0	0	0.052001	0.15536	0.042718	0.30824	0.21461	0.37047	0.37378	0.09574	0.23029	0.15713	0.20786	0.10977	0.02983	0.12045	0.061673	0.20276	-3.3292	-4.3521	-4.2	-3.9562	-4.5646	-3.7896	-4.1062	-4.6583	-3.7396	-4.2979	-4.4437	-3.6937	-4.6833	-3.9208	-4.0396	-4.6417	111.563	-106.786	65.157	-158.731	68.797	-56.633	100.693	122.138	-23.921	-82.170	178.964	77.624	157.294	-98.001	148.748	61.797	0.00033792	0.00015179	6.635e-05	883.69	3.4032e-06	1.7806e-06	973.09	189.62	2.0485e-06	4.526e-06	244.44	69.956	53.745	16.324	3.1346e-06	23.015	0.00014622	0.00011325	3.2219e-05	871.49	1.3273e-06	1.3472e-06	963.48	189.6	1.4004e-06	1.2445e-06	242.55	70.149	54.215	16.412	1.2686e-06	23.221	138.031	-56.122	-92.744	-154.022	-65.147	12.930	-154.145	-146.413	-55.673	-8.633	-146.394	-140.485	-140.099	-132.208	-37.576	-132.218	-8191	255	
58453.578	1	1	0	0	0.2066	0.1086	0.087649	0.19454	0.043368	0.086905	0.13333	0.23626	0.086504	0.018515	0.10251	0.26909	0.16878	0.16285	0.076311	0.14721	-3.2875	-4.2792	-4.3042	-3.7833	-4.5375	-3.9854	-4.1292	-4.6937	-3.6604	-4.2562	-4.3542	-3.8354	-4.4792	-4.2354	-3.7958	-4.7521	124.070	-89.501	80.140	-163.012	134.226	59.879	192.773	81.258	59.828	120.500	-156.939	-89.390	96.329	88.209	-84.653	178.971	0.00037966	0.00029431	5.7477e-05	882.41	2.2641e-06	1.8677e-06	973.01	190.96	2.6181e-06	2.4075e-06	241.81	69.735	53.984	16.22	8.2738e-07	22.791	0.0001451	0.000123	3.1656e-05	871.57	1.3209e-06	1.2671e-06	963.57	189.97	1.4342e-06	1.3087e-06	242.15	70.161	54.206	16.392	1.2919e-06	23.212	152.264	-99.365	-77.035	-154.166	-74.597	-20.638	-154.262	-146.574	-83.880	38.858	-146.545	-140.706	-139.765	-131.860	-19.383	-132.911	-8191	255	
58453.676	1	1	0	0	0.051733	0.28266	0.12261	0.36619	0.14043	0.12389	0.15385	0.29826	0.13161	0.091469	0.18659	0.10117	0.13572	0.1052	0.14549	0.076444	-3.6271	-4.2354	-4.4375	-3.7	-4.4958	-4.2146	-3.9646	-4.7792	-4.0292	-4.1312	-4.6229	-3.7562	-4.4667	-4.3104	-3.9042	-4.7438	166.860	-73.510	-155.347	-164.772	-97.525	80.852	124.236	35.538	38.363	181.510	-39.736	-40.720	81.358	110.146	153.720	-124.454	0.00035004	0.00024544	9.5706e-05	887.54	9.0212e-07	3.2274e-06	971.99	191.27	3.452e-06	1.287e-06	243.29	70.15	54.311	16.156	2.8707e-06	23.237	0.00015122	0.00012236	3.2546e-05	873.78	1.386e-06	1.2966e-06	963.49	189.98	1.3831e-06	1.2964e-06	242.43	70.227	54.294	16.371	1.434e-06	23.307	145.633	-85.017	-78.624	-154.003	-91.043	-33.431	-154.457	-146.823	-48.252	48.555	-146.877	-140.431	-140.112	-132.036	-16.244	-132.575	-8191	255	
58453.770	1	1	0	0	0.25609	0.10994	0.1006	0.18528	0.085597	0.078493	0.16209	0.037035	0.053052	0.02027	0.14169	0.14529	0.13605	0.21584	0.13764	0.14116	-3.5729	-4.0813	-4.6146	-3.7396	-4.35	-4.2542	-3.7979	-4.6375	-3.9021	-4.0229	-4.7063	-3.7271	-4.3021	-4.4833	-3.6417	-4.5896	-108.140	-154.099	34.306	160.537	-94.824	-6.112	93.196	-14.747	-108.934	111.628	172.591	33.146	24.366	168.327	58.285	123.703	0.00036227	0.00027021	6.8038e-05	885.5	2.0101e-06	1.8626e-06	968.44	190.68	2.1113e-06	3.9636e-06	244.1	70.123	54.446	16.139	1.3707e-06	23.046	0.00014889	0.00011647	3.1861e-05	873.64	1.3747e-06	1.2709e-06	962.76	189.59	1.4113e-06	1.3534e-06	242.2	70.259	54.319	16.358	1.3563e-06	23.261	148.932	-113.177	-81.611	-153.969	-59.317	-20.154	-154.248	-146.295	-46.794	-29.713	-146.405	-140.369	-140.044	-132.324	-85.265	-132.816	-8191	255	
58453.891	1	1	0	0	0.10023	0.2319	0.064113	0.050005	0.072914	0.087147	0.2209	0.030339	0.22379	0.19752	0.041141	0.2342	0.14523	0.15763	0.069174	0.095791	-3.6792	-3.7896	-4.6208	-3.8896	-4.2708	-4.6167	-3.9188	-4.6458	-4.0417	-3.8771	-4.8896	-3.875	-4.1	-4.5625	-3.7083	-4.5083	113.865	64.438	169.916	-48.160	1.293	-77.503	160.069	-109.183	-142.628	-9.432	-30.112	-145.890	-2.096	151.472	191.325	36.582	0.00036519	0.00029011	3.9728e-05	881.53	2.5729e-06	2.866e-06	967.23	190.81	2.8639e-06	3.6109e-06	241.97	70.03	53.944	16.178	3.6622e-06	22.838	0.00015035	0.00011877	3.3241e-05	871.21	1.3745e-06	1.2992e-06	962.08	189.78	1.458e-06	1.347e-06	241.96	70.1	54.185	16.353	1.3735e-06	23.222	139.563	-103.692	-77.364	-154.002	-62.297	-4.027	-154.381	-146.634	-68.140	-44.405	-147.177	-140.767	-140.174	-132.447	-46.751	-132.783	-8191	255	
58453.965	1	1	0	0	0.11365	0.23887	0.14949	0.064983	0.25339	0.21353	0.20523	0.17227	0.1986	0.226	0.16453	0.085271	0.096333	0.10924	0.082175	0.2108	-3.9271	-3.625	-4.6417	-3.9833	-3.7271	-4.4812	-3.7667	-4.4458	-4.2438	-3.9562	-4.6312	-3.9646	-3.975	-4.5417	-3.8104	-4.5208	72.135	-154.523	162.585	153.981	-142.514	122.959	124.996	-2.255	-94.030	-24.650	-19.149	165.525	181.982	-2.233	-126.451	-119.151	0.0002922	0.00026223	8.3081e-05	884.82	2.5855e-06	3.7193e-06	970.38	191.24	2.1802e-06	2.5815e-06	243.39	70.147	53.835	16.22	8.2093e-07	22.841	0.00014808	0.00012298	3.3024e-05	872.76	1.4461e-06	1.226e-06	964.42	189.51	1.3605e-06	1.3824e-06	242.27	70.158	54.096	16.369	1.3042e-06	23.216	144.001	-83.434	-98.201	-154.070	-68.295	-1.709	-153.838	-146.627	-65.239	-24.111	-146.699	-140.764	-140.369	-132.046	-40.782	-133.102	-8191	255	
58454.059	1	1	0	0	0.16315	0.15987	0.18038	0.18612	0.068107	0.10582	0.25451	0.016266	0.078718	0.11141	0.053205	0.019533	0.10136	0.14587	0.017725	0.23477	-4.1188	-3.8208	-4.5417	-3.9292	-3.9708	-4.5875	-3.825	-4.3104	-4.45	-3.6854	-4.6687	-4.0146	-3.8125	-4.6958	-3.8042	-4.2167	100.290	-30.443	-106.181	161.974	-66.634	-47.798	-6.419	70.975	3.130	62.869	30.700	-124.695	0.838	-32.104	60.381	-16.831	0.00034821	0.00031434	6.3149e-05	881.36	1.4761e-06	4.3692e-06	977.8	191.4	1.0986e-06	3.2571e-06	243.79	69.966	54.485	16.102	3.62e-06	22.922	0.00014532	0.00012954	3.1528e-05	871.08	1.4232e-06	1.281e-06	964.05	190.21	1.3782e-06	1.3038e-06	242.27	70.09	54.197	16.322	1.3686e-06	23.136	149.294	-86.108	-92.797	-153.778	-76.779	-20.883	-154.203	-146.667	-68.363	25.444	-146.620	-140.637	-140.301	-131.766	-14.995	-133.008	-8191	255	
58454.156	1	1	0	0	0.15413	0.089442	0.31766	0.14328	0.3236	0.097233	0.25922	0.16119	0.19693	0.16331	0.12167	0.2925	0.19875	0.23773	0.26593	0.17933	-4.1729	-3.8042	-4.5229	-4.4104	-3.7896	-4.6917	-4.0417	-4.1	-4.4812	-3.6979	-4.5958	-4.2042	-3.8292	-4.5958	-3.9479	-4.2333	84.894	5.974	192.891	-163.944	103.748	-85.065	97.042	149.953	108.765	-46.736	37.617	34.588	141.680	183.073	98.579	-82.037	0.00037788	0.00028186	8.7988e-05	880.81	3.5352e-06	1.5131e-06	971.04	190.12	2.787e-06	2.1809e-06	243.74	69.978	54.187	16.137	1.4691e-06	22.725	0.000149	0.00012022	3.3266e-05	871.32	1.3946e-06	1.3054e-06	962.26	189.3	1.3868e-06	1.3114e-06	242.19	70.046	54.123	16.347	1.3366e-06	23.242	142.449	-93.118	-52.495	-153.888	-39.799	-25.727	-154.168	-146.911	-67.670	1.361	-146.728	-140.544	-139.979	-132.285	-128.291	-132.538	-8191	255	
58454.254	1	1	0	0	0.067652	0.27667	0.19819	0.24998	0.088673	0.15747	0.14288	0.21151	0.056764	0.12204	0.046063	0.036288	0.22406	0.20877	0.032318	0.075529	-4.2292	-3.6937	-4.375	-4.5042	-3.7458	-4.5938	-4.0875	-4.0563	-4.6583	-3.5938	-4.3271	-4.4042	-3.8146	-4.5687	-3.8375	-3.9313	116.129	17.796	-63.106	170.476	-58.296	140.268	47.201	16.766	28.622	-72.629	194.498	104.051	-156.227	179.487	175.899	128.314	0.00033958	0.00030824	5.6852e-05	882.98	3.579e-06	2.9799e-06	972.12	191.47	2.293e-06	2.207e-06	243.37	70.189	54.544	16.303	1.2888e-06	22.808	0.00014379	0.00012243	3.2508e-05	870.94	1.4623e-06	1.2292e-06	963.71	189.77	1.3633e-06	1.305e-06	241.83	69.998	54.138	16.433	1.3583e-06	23.194	146.428	-104.512	-73.960	-153.806	-56.950	-1.109	-154.199	-146.831	-100.089	-25.182	-147.031	-140.309	-140.016	-132.607	-68.934	-132.649	-8191	255	
58454.371	1	1	0	0	0.051699	0.056738	0.063963	0.13419	0.096473	0.12931	0.10827	0.15847	0.083356	0.15603	0.37359	0.14966	0.14544	0.32515	0.095663	0.11737	-4.425	-3.5687	-4.3917	-4.4729	-3.8708	-4.5458	-4.1167	-3.8625	-4.5188	-3.775	-4.1625	-4.5542	-3.7396	-4.6125	-4.1271	-3.8729	86.211	-59.011	118.660	148.673	174.602	42.067	-155.981	32.047	-17.653	67.119	191.196	144.299	-38.422	168.495	-49.939	37.309	0.00032776	0.00027137	5.7227e-05	881.15	3.9109e-06	2.4232e-06	966.44	190.49	3.637e-06	2.4503e-06	243.14	69.82	53.843	16.103	2.155e-06	22.775	0.00014185	0.00011839	3.2853e-05	870.59	1.3991e-06	1.208e-06	961.76	189.57	1.3256e-06	1.2861e-06	242.41	70.152	54.038	16.382	1.2791e-06	23.192	144.001	-73.765	-80.371	-153.855	-51.750	-21.610	-154.177	-146.568	-51.851	-8.686	-146.864	-140.369	-139.954	-132.210	-67.569	-132.759	-8191	255	
58454.469	1	1	0	0	0.093659	0.059158	0.22872	0.17022	0.19601	0.24281	0.1132	0.1021	0.13425	0.31573	0.16591	0.11559	0.18381	0.16513	0.088002	0.20691	-4.4688	-4.0042	-4.0708	-4.5938	-3.8021	-4.5667	-4.3958	-3.9583	-4.6271	-3.6417	-3.9833	-4.6833	-3.7229	-4.4646	-4.3771	-3.7625	160.676	-71.455	-74.757	129.169	82.496	-137.676	48.372	7.133	-107.879	153.992	101.974	144.376	193.289	-69.288	-96.000	8.825	0.00030631	0.00021125	8.2484e-05	888.28	2.4969e-06	3.2951e-06	975.53	191.16	1.4513e-06	3.1737e-06	243.04	70.064	54.182	16.285	2.8008e-06	22.851	0.00013853	0.00012162	3.2823e-05	871.14	1.3584e-06	1.3024e-06	963.05	189.68	1.3149e-06	1.3478e-06	242.2	70.167	54.113	16.409	1.2924e-06	23.234	137.468	-77.213	-105.947	-153.915	-56.455	0.278	-154.036	-146.422	-103.246	-16.061	-146.895	-140.400	-139.798	-132.317	-19.915	-133.183	-8191	255	
58454.566	1	1	0	0	0.13505	0.2787	0.094849	0.24991	0.12583	0.27877	0.14482	0.061712	0.1275	0.12291	0.25902	0.15494	0.039463	0.059679	0.16614	0.17377	-4.2271	-4.0312	-3.9104	-4.6	-3.7583	-4.2271	-4.6604	-3.7562	-4.7229	-4.1458	-3.9875	-4.6625	-3.6979	-4.2208	-4.4646	-3.8312	112.594	6.712	52.005	125.114	-125.845	192.117	123.661	-36.769	-14.471	28.801	150.829	185.465	-115.892	-0.566	13.054	-74.169	0.00033932	0.00023989	6.367e-05	880.6	2.5825e-06	4.2414e-06	973.57	190.2	1.8679e-06	4.1893e-06	243.2	70.199	54.386	16.164	3.1058e-06	22.717	0.0001431	0.00011853	3.4536e-05	869.27	1.4319e-06	1.3308e-06	962.52	189.39	1.3422e-06	1.3217e-06	242.69	70.287	54.184	16.384	1.2001e-06	23.063	144.507	-79.385	-119.570	-154.019	-49.334	-33.417	-154.104	-147.037	-27.048	-24.414	-147.072	-140.068	-140.416	-132.355	-3.218	-132.614	-8191	255	
58454.660	1	1	0	0	0.21236	0.22656	0.14865	0.074014	0.052103	0.080334	0.086664	0.093123	0.18247	0.19885	0.1173	0.026169	0.09413	0.10364	0.14922	0.11893	-4.1917	-4.0667	-3.8042	-4.5625	-3.7167	-4.0687	-4.6708	-3.6688	-4.5458	-4.2854	-3.9042	-4.475	-3.9854	-4.0729	-4.4208	-3.7333	-103.308	61.683	176.373	102.006	97.621	159.840	11.812	-61.054	-86.390	55.952	-150.351	66.274	156.441	-139.121	172.947	147.967	0.00037655	0.00026358	0.00010678	881.93	3.513e-06	3.8376e-06	970.53	190.81	2.3197e-06	3.5597e-06	244.31	69.791	54.027	16.166	3.6384e-06	22.862	0.00014718	0.00011947	3.2674e-05	870.52	1.4384e-06	1.2731e-06	962.36	189.28	1.3404e-06	1.2126e-06	241.98	70.067	54.166	16.348	1.2648e-06	23.207	139.855	-51.986	-54.743	-153.836	-50.168	-15.951	-153.972	-146.397	-50.170	-9.879	-146.949	-140.424	-140.100	-131.874	-67.668	-133.096	-8191	255	
58454.754	1	1	0	0	0.13996	0.11057	0.10805	0.14337	0.21967	0.21639	0.1788	0.19155	0.081302	0.14187	0.15875	0.16734	0.1712	0.19617	0.20317	0.29231	-3.9167	-4.2688	-3.7812	-4.7333	-3.9208	-3.9417	-4.6854	-3.7542	-4.3542	-4.3729	-3.8625	-4.7146	-4.0875	-3.975	-4.5333	-3.6708	5.360	-20.286	140.613	-159.616	20.542	-48.930	86.301	162.623	-64.577	0.160	-7.757	172.096	-156.845	-98.059	138.811	155.914	0.00033969	0.00028513	8.4895e-05	880.54	4.3417e-06	2.6756e-06	970.87	191	3.8704e-06	2.8686e-06	242.09	69.859	54.268	16.11	2.0858e-06	22.976	0.00014376	0.00011949	3.2704e-05	870.23	1.4214e-06	1.2382e-06	962.4	189.24	1.3547e-06	1.2102e-06	241.67	70.063	54.074	16.397	1.218e-06	23.213	145.324	-81.022	-72.254	-153.865	-69.507	-5.331	-153.785	-146.225	-56.387	11.690	-147.024	-140.359	-140.017	-132.450	14.771	-133.150	-8191	255	
58454.852	1	1	0	0	0.085444	0.33159	0.031702	0.22289	0.1444	0.11119	0.1075	0.1293	0.19328	0.097672	0.21687	0.14621	0.1216	0.13146	0.15182	0.15771	-3.9625	-4.2729	-3.6979	-4.7125	-4.1042	-3.9417	-4.7646	-3.7354	-4.1542	-4.5167	-3.8458	-4.4479	-4.1542	-3.9292	-4.4854	-3.9167	-124.721	25.342	43.452	183.043	73.427	-25.251	-22.058	102.648	-136.583	-31.981	175.325	-143.856	151.406	175.633	-53.900	85.371	0.00030624	0.00030704	6.6544e-05	884.1	3.6136e-07	2.5653e-06	969.02	191.24	3.872e-06	2.6006e-06	243.7	70.151	54.488	16.345	3.1534e-06	22.825	0.00014016	0.00011453	3.2751e-05	870.88	1.3795e-06	1.238e-06	961.59	189.15	1.3964e-06	1.2402e-06	242.27	70.232	54.15	16.356	1.2791e-06	23.15	135.594	-63.713	-76.441	-153.961	-65.886	-26.262	-154.016	-146.739	-71.392	11.706	-146.917	-140.774	-140.172	-132.266	-23.002	-132.488	-8191	255	
58454.973	1	1	0	0	0.065911	0.13873	0.16654	0.20143	0.18942	0.15128	0.16755	0.12242	0.046578	0.22089	0.081263	0.14071	0.13196	0.1013	0.065774	0.2074	-3.7583	-4.4042	-3.5812	-4.6208	-4.1979	-3.8042	-4.7583	-4.0292	-4.1729	-4.6021	-3.7042	-4.5729	-4.2604	-3.8771	-4.6521	-3.9354	71.577	-132.857	169.062	147.247	49.728	2.426	151.201	96.699	9.287	34.964	144.371	6.808	126.791	124.604	-17.265	104.516	0.00034476	0.00020408	6.9296e-05	881.57	1.8139e-06	1.8004e-06	971.48	189.85	4.3852e-07	3.335e-06	242.68	69.303	54.18	16.262	2.9063e-06	22.837	0.00014714	0.00011862	3.146e-05	870.53	1.365e-06	1.3309e-06	960.91	189.52	1.3388e-06	1.2274e-06	242.17	69.816	54.006	16.403	1.2421e-06	23.233	146.610	-76.159	-22.195	-153.784	-45.368	-36.230	-154.099	-146.731	51.174	-54.790	-146.799	-140.606	-140.258	-132.517	-40.947	-132.466	-8191	255	
58455.066	1	1	0	0	0.13966	0.094664	0.072751	0.21141	0.069934	0.14965	0.14716	0.27108	0.11142	0.1214	0.0419	0.037541	0.3238	0.078041	0.27528	0.12295	-3.7021	-4.5792	-3.6021	-4.4979	-4.325	-3.6083	-4.6562	-4.0708	-3.7083	-4.5479	-3.7917	-4.1562	-4.3542	-3.7042	-4.5396	-4.0417	-10.819	31.009	-114.774	141.793	156.392	-40.575	103.552	115.542	-132.770	93.134	-68.433	78.930	-91.007	91.229	-76.640	33.477	0.00036897	0.00022537	5.5114e-05	881.99	1.8687e-06	2.569e-06	968.18	190.61	2.94e-06	2.1091e-06	242.97	70.201	54.198	16.252	1.7824e-06	22.875	0.00014886	0.00010926	3.2819e-05	868.36	1.3595e-06	1.2327e-06	960.47	189.44	1.339e-06	1.2212e-06	242.19	70.087	54.251	16.409	1.318e-06	23.153	141.453	-85.014	-61.186	-153.918	-60.031	-2.051	-154.100	-146.773	-68.733	-38.418	-146.777	-140.680	-139.541	-132.023	-57.997	-132.618	-8191	255	
58455.164	1	1	0	0	0.16755	0.13597	0.1859	0.23319	0.17309	0.16731	0.13097	0.22153	0.097571	0.20351	0.25564	0.26257	0.087954	0.19646	0.10303	0.16275	-3.4833	-4.725	-3.7562	-4.3104	-4.4229	-3.5229	-4.575	-4.1354	-4.0021	-4.8333	-3.8979	-4.0417	-4.6042	-3.7125	-4.45	-4.2188	-93.767	101.630	167.532	44.744	-13.725	189.193	76.743	141.248	39.693	10.229	190.975	-149.275	19.705	188.164	-131.554	107.198	0.00038972	0.00022013	4.3272e-05	882.15	1.7585e-06	2.8186e-06	969.31	189.58	2.8812e-06	1.7836e-06	241.29	69.168	54.086	16.031	2.336e-06	22.87	0.00015147	0.00011328	3.5703e-05	868.49	1.3742e-06	1.2828e-06	960.28	188.95	1.3651e-06	1.2394e-06	241.35	69.9	54.099	16.312	1.2852e-06	23.167	137.780	-25.654	-107.755	-153.914	-34.392	37.413	-153.909	-146.499	-55.242	-64.884	-146.980	-140.529	-140.085	-132.321	-55.136	-132.913	-8191	255	
58455.262	1	1	0	0	0.19505	0.11183	0.036261	0.15662	0.11216	0.2529	0.35511	0.069261	0.063574	0.14559	0.20633	0.14518	0.28158	0.22947	0.107	0.2399	-3.5229	-4.5583	-3.8125	-4.0917	-4.5771	-3.7708	-4.5146	-4.3896	-3.6833	-4.6083	-4.1875	-3.9938	-4.7	-3.5563	-4.4812	-4.4208	-117.849	110.291	185.430	131.951	-19.136	-104.864	151.288	14.489	-101.805	-123.357	121.397	165.682	-137.928	-40.362	129.331	125.472	0.00033375	0.00017364	4.3612e-05	877.91	3.4033e-06	2.1539e-06	965.14	189.66	2.7351e-06	3.0262e-06	241.81	69.365	54.078	16.218	6.3714e-07	22.612	0.00014269	0.00011008	3.204e-05	866.9	1.2934e-06	1.2984e-06	959.04	188.69	1.3909e-06	1.2446e-06	240.87	69.759	53.991	16.311	1.3159e-06	23.049	147.014	-81.642	-72.084	-154.131	-53.323	-24.913	-154.197	-146.592	-83.436	-7.805	-147.144	-140.665	-140.199	-132.187	-77.834	-132.562	-8191	255	
#DATA ENDS
