BOXY.EXE: ISS Imagent and Oximeter Data Acquisition Program Version 0.80
Ascii Record File

#ACQ INFORMATION
2  Detector Channels 
16  External MUX Channels 
1  Auxiliary Channels 
5000  Waveform (CCF) Frequency (Hz)
1  Waveforms Skipped 
30  Waveforms Averaged 
1  Cycles Averaged 
16  Acquisitions per Waveform 
10.0806  Updata Rate (Hz) 

#FILE INFORMATION
TRUE -- External MUX Channel results are PARSED.
FALSE -- AC DC and Phase are NOT grouped.
TRUE -- Companion Program Settings File CREATED.
FALSE -- AC data not excluded
FALSE -- DC data not excluded
FALSE -- Phase data not excluded
FALSE -- Auxillary Chn. data not excluded
Tab delimiters

#CALIBRATION STATE
TRUE -- Waveform Calibration Values APPLIED.


#AUX CALIBRATION VALUES
Val Type	aux-1	

Term	1.0000e+00	
Factor	0.0000e+00	


#WF CALIBRATION VALUES
A = Detector Channel
Val Type	A-AC1	A-AC2	A-AC3	A-AC4	A-AC5	A-AC6	A-AC7	A-AC8	A-AC9	A-AC10	A-AC11	A-AC12	A-AC13	A-AC14	A-AC15	A-AC16	A-DC1	A-DC2	A-DC3	A-DC4	A-DC5	A-DC6	A-DC7	A-DC8	A-DC9	A-DC10	A-DC11	A-DC12	A-DC13	A-DC14	A-DC15	A-DC16	A-Ph1	A-Ph2	A-Ph3	A-Ph4	A-Ph5	A-Ph6	A-Ph7	A-Ph8	A-Ph9	A-Ph10	A-Ph11	A-Ph12	A-Ph13	A-Ph14	A-Ph15	A-Ph16	

Term	0.00000e+00	0.00000e+00	0.00000e+00	0.00000e+00	0.00000e+00	0.00000e+00	0.00000e+00	0.00000e+00	0.00000e+00	0.00000e+00	0.00000e+00	0.00000e+00	0.00000e+00	0.00000e+00	0.00000e+00	0.00000e+00	0.00000e+00	0.00000e+00	0.00000e+00	0.00000e+00	0.00000e+00	0.00000e+00	0.00000e+00	0.00000e+00	0.00000e+00	0.00000e+00	0.00000e+00	0.00000e+00	0.00000e+00	0.00000e+00	0.00000e+00	0.00000e+00	0.00000e+00	0.00000e+00	0.00000e+00	0.00000e+00	0.00000e+00	0.00000e+00	0.00000e+00	0.00000e+00	0.00000e+00	0.00000e+00	0.00000e+00	0.00000e+00	0.00000e+00	0.00000e+00	0.00000e+00	0.00000e+00	
Factor	1.00000e+00	1.00000e+00	1.00000e+00	1.00000e+00	1.00000e+00	1.00000e+00	1.00000e+00	1.00000e+00	1.00000e+00	1.00000e+00	1.00000e+00	1.00000e+00	1.00000e+00	1.00000e+00	1.00000e+00	1.00000e+00	1.00000e+00	1.00000e+00	1.00000e+00	1.00000e+00	1.00000e+00	1.00000e+00	1.00000e+00	1.00000e+00	1.00000e+00	1.00000e+00	1.00000e+00	1.00000e+00	1.00000e+00	1.00000e+00	1.00000e+00	1.00000e+00	X	X	X	X	X	X	X	X	X	X	X	X	X	X	X	X	

B = Detector Channel
Val Type	B-AC1	B-AC2	B-AC3	B-AC4	B-AC5	B-AC6	B-AC7	B-AC8	B-AC9	B-AC10	B-AC11	B-AC12	B-AC13	B-AC14	B-AC15	B-AC16	B-DC1	B-DC2	B-DC3	B-DC4	B-DC5	B-DC6	B-DC7	B-DC8	B-DC9	B-DC10	B-DC11	B-DC12	B-DC13	B-DC14	B-DC15	B-DC16	B-Ph1	B-Ph2	B-Ph3	B-Ph4	B-Ph5	B-Ph6	B-Ph7	B-Ph8	B-Ph9	B-Ph10	B-Ph11	B-Ph12	B-Ph13	B-Ph14	B-Ph15	B-Ph16	

Term	0.00000e+00	0.00000e+00	0.00000e+00	0.00000e+00	0.00000e+00	0.00000e+00	0.00000e+00	0.00000e+00	0.00000e+00	0.00000e+00	0.00000e+00	0.00000e+00	0.00000e+00	0.00000e+00	0.00000e+00	0.00000e+00	0.00000e+00	0.00000e+00	0.00000e+00	0.00000e+00	0.00000e+00	0.00000e+00	0.00000e+00	0.00000e+00	0.00000e+00	0.00000e+00	0.00000e+00	0.00000e+00	0.00000e+00	0.00000e+00	0.00000e+00	0.00000e+00	-1.87007e+02	-1.34050e+02	-1.37969e+02	-1.83492e+02	-8.77581e+01	-7.32534e+01	-1.58200e+02	-1.62015e+02	-8.49259e+01	-6.14154e+01	-1.70701e+02	-1.71279e+02	-1.78850e+02	-1.76863e+02	-7.95451e+01	-1.49780e+02	
Factor	3.76548e-05	1.51883e-04	4.69219e-05	1.64088e-01	1.62550e-06	1.73594e-06	1.85429e-01	6.04996e-02	1.59724e-06	1.91212e-06	1.00259e-01	3.43440e-02	3.12106e-02	1.08452e-02	1.69460e-06	1.54572e-02	6.25193e-06	7.31936e-06	2.04454e-06	7.75377e-02	7.75653e-08	8.04797e-08	8.23581e-02	2.86645e-02	7.78837e-08	8.09403e-08	4.60320e-02	1.57531e-02	1.49403e-02	5.16929e-03	7.88347e-08	7.14857e-03	X	X	X	X	X	X	X	X	X	X	X	X	X	X	X	X	



#DISTANCE SETTINGS
A = Detector Channel
A-1	A-2	A-3	A-4	A-5	A-6	A-7	A-8	A-9	A-10	A-11	A-12	A-13	A-14	A-15	A-16	

2.5000e+00	3.0000e+00	2.5000e+00	3.0000e+00	2.0000e+00	3.0000e+00	1.5000e+00	3.0000e+00	3.0000e+00	3.0000e+00	3.0000e+00	3.0000e+00	3.0000e+00	3.0000e+00	1.5000e+00	3.0000e+00	

B = Detector Channel
B-1	B-2	B-3	B-4	B-5	B-6	B-7	B-8	B-9	B-10	B-11	B-12	B-13	B-14	B-15	B-16	

1.0000e+01	1.0000e+01	1.0000e+01	1.4400e+00	1.0000e+01	1.0000e+01	1.5100e+00	1.9400e+00	1.0000e+01	1.0000e+01	1.9900e+00	2.4900e+00	2.4100e+00	2.9000e+00	1.0000e+01	2.9800e+00	




#DATA BEGINS
time	group	step	mark	flag	A-AC1	A-AC2	A-AC3	A-AC4	A-AC5	A-AC6	A-AC7	A-AC8	A-AC9	A-AC10	A-AC11	A-AC12	A-AC13	A-AC14	A-AC15	A-AC16	A-DC1	A-DC2	A-DC3	A-DC4	A-DC5	A-DC6	A-DC7	A-DC8	A-DC9	A-DC10	A-DC11	A-DC12	A-DC13	A-DC14	A-DC15	A-DC16	A-Ph1	A-Ph2	A-Ph3	A-Ph4	A-Ph5	A-Ph6	A-Ph7	A-Ph8	A-Ph9	A-Ph10	A-Ph11	A-Ph12	A-Ph13	A-Ph14	A-Ph15	A-Ph16	B-AC1	B-AC2	B-AC3	B-AC4	B-AC5	B-AC6	B-AC7	B-AC8	B-AC9	B-AC10	B-AC11	B-AC12	B-AC13	B-AC14	B-AC15	B-AC16	B-DC1	B-DC2	B-DC3	B-DC4	B-DC5	B-DC6	B-DC7	B-DC8	B-DC9	B-DC10	B-DC11	B-DC12	B-DC13	B-DC14	B-DC15	B-DC16	B-Ph1	B-Ph2	B-Ph3	B-Ph4	B-Ph5	B-Ph6	B-Ph7	B-Ph8	B-Ph9	B-Ph10	B-Ph11	B-Ph12	B-Ph13	B-Ph14	B-Ph15	B-Ph16	aux-1	digaux	

58729.152	1	1	0	256	0.15984	0.31206	0.17617	0.096588	0.027472	0.085215	0.17792	0.16776	0.078808	0.2149	0.31137	0.215	0.21038	0.088078	0.068703	0.070886	-3.9708	-3.3729	-3.8979	-4.1146	-3.4479	-4.2771	-4.0042	-3.6521	-4.4458	-3.6813	-4.1	-4.1458	-3.4625	-4.3292	-3.8271	-3.6521	-147.668	37.292	-97.403	11.793	165.276	85.754	-149.247	-74.421	58.490	-47.493	-159.759	62.562	-161.486	150.579	-101.380	148.305	0.00094786	0.0013291	9.5256e-05	881.16	1.0038e-05	9.5231e-06	739.53	324.81	8.1661e-06	1.4424e-05	311.95	114.02	103.82	37.668	3.0013e-06	46.825	0.0065271	0.0075304	0.0020758	960.19	7.8413e-05	8.1465e-05	822.11	354.81	7.6373e-05	7.8842e-05	356.95	129.74	118.64	42.921	7.3264e-05	54.307	140.836	-80.115	-18.385	-161.311	26.096	-42.320	-162.767	-156.518	-170.859	-19.288	-158.671	-153.937	-152.079	-146.438	-119.499	-148.821	-8191	255	
58729.250	1	1	0	0	0.11279	0.026049	0.13246	0.2066	0.25067	0.2926	0.34916	0.20774	0.064012	0.25015	0.19643	0.084382	0.14539	0.21281	0.19978	0.12653	-3.9917	-3.3187	-4.1562	-4.3292	-3.4021	-4.15	-3.9437	-3.7375	-4.3562	-3.5938	-3.9188	-4.1646	-3.4125	-4.1292	-3.9	-3.5625	-64.876	-165.971	142.845	139.997	162.307	35.994	50.097	116.122	81.741	-99.318	104.686	-36.133	172.339	144.985	-4.808	64.792	0.00098201	0.0016272	2.2385e-05	887.15	2.4953e-06	5.815e-06	740.34	326.2	1.254e-05	6.0157e-06	314.45	114.83	104.23	37.657	2.2376e-06	47.206	0.0059198	0.0067712	0.0018722	956.79	6.9926e-05	7.1238e-05	814.12	353.57	6.6509e-05	6.8013e-05	353.44	128.62	117.31	42.262	6.316e-05	53.43	135.175	-102.251	45.752	-161.346	148.326	10.288	-163.000	-156.648	-94.094	28.866	-158.618	-154.050	-152.127	-146.214	-166.879	-149.063	-8191	255	
58729.348	1	1	0	0	0.14759	0.066913	0.18317	0.14895	0.14994	0.053526	0.075515	0.47936	0.094027	0.086175	0.2445	0.11765	0.19917	0.2207	0.038663	0.074393	-4.1083	-3.5333	-3.775	-4.4792	-3.2667	-4.1604	-4.2375	-3.5083	-4.1854	-3.6688	-3.7625	-4.3479	-3.5146	-4	-4.1958	-3.3771	-76.427	51.846	53.572	181.103	-18.366	142.430	179.535	163.200	105.824	-133.227	85.225	31.457	166.175	99.011	145.568	143.372	0.00068844	0.00058663	0.00027964	888.59	1.1011e-05	1.3721e-05	745.19	329.72	8.706e-06	8.7613e-06	315.83	115.59	105.71	37.891	1.2076e-05	47.167	0.0051732	0.0058306	0.0016259	949.78	6.1313e-05	6.3649e-05	810.2	352.96	6.1489e-05	6.2954e-05	351.29	128.5	117.18	42.202	6.1266e-05	53.35	142.552	138.186	-48.458	-161.142	21.347	15.700	-163.074	-156.689	-50.485	13.319	-158.636	-154.021	-152.228	-146.628	-40.027	-148.634	-8191	255	
58729.465	1	1	0	0	0.15072	0.10532	0.12404	0.013734	0.1241	0.042916	0.21642	0.2237	0.012032	0.17465	0.10874	0.25259	0.036332	0.080821	0.20815	0.19891	-3.925	-3.7542	-3.7	-4.2667	-3.5062	-3.9646	-4.2333	-3.4542	-3.9875	-3.8958	-3.6896	-4.4771	-3.6396	-3.8812	-4.2333	-3.5458	80.397	-148.404	-0.428	96.605	127.381	172.121	93.744	169.046	-32.013	-62.183	154.815	143.380	23.916	176.636	-0.294	178.746	0.00063717	0.00069172	0.00011888	886.15	7.6339e-06	7.2841e-06	740.62	327.42	1.0193e-05	5.832e-06	311.78	114.41	104.5	37.69	6.322e-06	46.375	0.004912	0.0055424	0.0015587	948.26	5.9096e-05	6.0718e-05	803.3	351.88	5.9933e-05	6.1658e-05	346.5	127.08	116.23	41.928	6.001e-05	52.611	151.021	-108.876	-36.788	-161.419	7.768	-126.211	-162.817	-156.349	17.834	-74.507	-158.809	-154.300	-152.367	-146.567	-77.093	-148.944	-8191	255	
58729.562	1	1	0	0	0.20258	0.12801	0.06047	0.16592	0.11297	0.052663	0.11025	0.068476	0.28863	0.10518	0.054321	0.13856	0.34078	0.25586	0.28373	0.087021	-3.7854	-3.9625	-3.3708	-4.6521	-3.6625	-3.525	-4.3083	-3.6937	-4.0542	-4.0437	-3.3479	-4.4688	-3.6958	-3.7438	-4.2792	-3.5396	22.819	-86.863	30.510	137.786	41.508	-36.720	117.471	101.457	58.408	-137.098	110.820	-162.882	108.563	140.896	75.574	-171.622	0.0011141	0.00054582	0.00028881	884.68	1.0043e-05	1.4467e-06	738.1	326.64	1.1962e-05	1.1534e-05	314	114.99	105.16	37.7	3.5565e-06	46.859	0.0048064	0.0054822	0.001529	941.44	5.7391e-05	5.8907e-05	798.68	349.19	5.6945e-05	5.9255e-05	346.16	126.98	116.2	41.91	5.8668e-05	52.759	142.522	-44.157	-95.987	-161.247	-55.254	-106.793	-162.705	-156.588	-31.475	150.036	-158.345	-154.139	-152.078	-146.289	184.470	-148.960	-8191	255	
58729.633	1	1	0	0	0.094106	0.13057	0.059263	0.098437	0.2026	0.24087	0.25145	0.16971	0.053176	0.30514	0.012298	0.026163	0.12835	0.30565	0.22005	0.23075	-3.7104	-4.0021	-3.2188	-4.3646	-3.7354	-3.7708	-4.3583	-3.6375	-3.8812	-4.1667	-3.4292	-4.3333	-3.9542	-3.6708	-4.2583	-3.5354	-60.426	157.111	106.068	15.083	106.864	-99.091	113.325	101.824	-40.460	108.493	-53.330	163.954	138.571	160.973	-71.348	157.547	0.00071726	0.00071954	9.24e-05	883.78	1.0614e-05	7.4321e-06	738.89	326.85	9.8995e-06	2.2823e-06	313.48	115.29	105.18	37.572	1.1186e-05	47.084	0.0046425	0.0053275	0.0014899	939.08	5.588e-05	5.7981e-05	797.61	348.58	5.5802e-05	5.7757e-05	345.4	126.91	115.84	41.797	5.7532e-05	52.881	159.827	178.554	-154.516	-161.485	-98.939	13.892	-162.891	-156.372	-68.677	56.487	-158.430	-154.235	-152.320	-146.698	-27.587	-149.061	-8191	255	
58729.754	1	1	0	0	0.29683	0.14993	0.44229	0.052784	0.11618	0.086093	0.32741	0.15249	0.041826	0.1571	0.085783	0.11242	0.12574	0.085498	0.21489	0.2242	-3.3979	-4.1438	-3.3583	-4.3021	-3.7083	-3.6312	-4.425	-3.5687	-3.8563	-4.2583	-3.4562	-4.1771	-4.0271	-3.4437	-4.2833	-3.6958	56.740	-162.957	7.910	-122.672	-60.586	57.616	142.363	24.647	-105.498	172.564	167.380	-85.083	-168.452	-156.604	-111.977	130.395	0.00094782	0.0012417	0.00015313	883.96	3.7141e-06	2.3551e-06	742.38	328.64	7.1496e-06	8.3275e-06	313.47	115.23	105.17	37.736	6.0972e-06	46.991	0.0045915	0.0053419	0.0014779	940.46	5.5418e-05	5.7634e-05	798.98	350.19	5.5527e-05	5.8266e-05	345.94	126.81	116.12	41.84	5.5936e-05	52.76	137.937	-58.091	-46.116	-161.312	58.168	2.278	-163.006	-156.568	128.688	10.679	-158.285	-154.000	-152.143	-146.541	169.656	-148.942	-8191	255	
58729.852	1	1	0	0	0.19778	0.058834	0.059336	0.20347	0.15882	0.06308	0.030088	0.18878	0.37738	0.25224	0.19695	0.18293	0.31534	0.08055	0.17367	0.26628	-3.3104	-4.2583	-3.2229	-4.1604	-3.9188	-3.7	-4.5104	-3.8312	-3.6937	-4.3354	-3.5021	-3.9646	-4.0646	-3.55	-4.1521	-3.7854	21.897	-111.446	-73.584	-161.884	79.589	-167.591	-9.938	75.522	-71.868	-161.283	75.216	-70.495	172.487	97.813	86.744	135.960	0.00086103	0.00063177	0.00019725	879.99	1.0753e-05	1.0047e-05	732.22	329.24	4.0986e-06	8.6792e-06	309.28	115.06	105.32	37.787	1.252e-05	47.263	0.0045099	0.0052095	0.0014523	937.46	5.5628e-05	5.7795e-05	792.81	349.35	5.6707e-05	5.9619e-05	344.3	126.77	116.61	42	5.7916e-05	52.992	150.868	121.320	-14.585	-161.476	-126.382	-132.787	-163.053	-156.408	-95.048	-84.762	-158.300	-154.196	-152.240	-146.741	-102.155	-148.732	-8191	255	
58729.945	1	1	0	0	0.067954	0.11092	0.067211	0.15388	0.20636	0.14595	0.26242	0.05389	0.16448	0.16191	0.19275	0.11809	0.076287	0.029064	0.25033	0.33789	-3.2229	-4.4563	-3.4042	-3.9417	-4.1292	-3.4667	-4.2583	-3.85	-3.5542	-4.2562	-3.6354	-4.0083	-4.3375	-3.4521	-4.2688	-4.0062	166.321	-154.956	-17.710	118.123	66.211	150.043	-100.161	-105.493	-28.948	-52.792	136.554	128.356	55.337	77.889	-53.904	168.548	0.00088438	0.00031161	7.1465e-05	876.89	1.407e-05	6.1246e-06	728.21	327.34	9.0283e-06	4.8835e-06	309.64	114.87	104.91	37.488	4.4765e-06	46.79	0.0046687	0.0053553	0.0014857	934.36	5.6068e-05	5.7902e-05	790.52	348.59	5.5818e-05	5.8716e-05	343.34	126.52	115.93	41.722	5.6541e-05	52.653	142.516	-93.207	67.984	-161.261	3.669	-145.850	-162.675	-156.486	-42.934	-15.087	-158.227	-154.284	-152.155	-146.711	132.525	-148.866	-8191	255	
58730.043	1	1	0	0	0.12636	0.10557	0.12693	0.14088	0.16137	0.070425	0.027803	0.22012	0.19254	0.21795	0.04494	0.25665	0.081685	0.13126	0.093714	0.056747	-3.2313	-4.4854	-3.3042	-3.9396	-4.3292	-3.3563	-4.2896	-4.0854	-3.6312	-4.3688	-3.8063	-3.8937	-4.2104	-3.6333	-4.1167	-4.0792	-145.329	26.700	136.669	-124.096	36.359	72.232	28.096	84.697	-11.696	-36.315	96.199	141.194	-111.092	125.456	9.522	-169.331	0.00071187	0.00047492	0.00010228	880.28	1.0246e-05	4.6629e-06	734.85	328.67	1.6457e-06	7.7583e-06	309.95	115.02	104.52	37.631	3.6963e-06	46.409	0.0045693	0.0052961	0.0014504	935.72	5.5844e-05	5.8328e-05	792.7	349.34	5.5796e-05	5.8325e-05	343.3	126.52	115.82	41.654	5.6647e-05	52.505	141.222	-105.199	-127.571	-161.556	75.134	-151.053	-163.084	-156.558	-102.841	-21.083	-158.425	-154.481	-152.128	-146.316	-67.856	-148.675	-8191	255	
58730.160	1	1	0	0	0.068604	0.022824	0.057453	0.0063385	0.18921	0.10313	0.19629	0.18471	0.2152	0.050112	0.29512	0.081888	0.14677	0.16545	0.15298	0.22719	-3.1333	-4.2854	-3.6479	-3.8396	-4.2	-3.5854	-4.2438	-4.1896	-3.2771	-4.2979	-3.7896	-3.7354	-4.3688	-3.55	-3.8	-4.3771	-161.893	-151.765	134.572	-136.236	167.742	8.967	125.291	97.929	115.642	19.703	119.345	-59.749	129.563	-153.960	-54.951	131.719	0.00075925	0.00058364	0.00031459	882.31	7.419e-06	4.227e-06	736.78	328.84	4.3885e-06	7.2004e-06	311.07	113.4	103.91	37.437	1.5675e-05	46.543	0.0046778	0.005439	0.0015132	942.34	5.8464e-05	6.1047e-05	797.13	351.05	6.0278e-05	6.3047e-05	346.21	126.77	116.46	41.963	6.3714e-05	53.034	134.531	-16.254	-123.869	-161.172	-122.042	4.375	-162.739	-156.382	-40.671	8.754	-158.066	-154.255	-152.256	-146.293	6.805	-148.942	-8191	255	
58730.258	1	1	0	0	0.2935	0.04934	0.022098	0.17204	0.24844	0.09283	0.095849	0.11808	0.076869	0.16866	0.14079	0.06778	0.057844	0.19997	0.049609	0.17453	-3.1437	-4.1146	-3.9333	-3.6437	-4.1625	-3.5312	-4.0437	-4.3063	-3.2062	-4.2958	-4.0312	-3.6458	-4.2167	-3.5271	-3.7979	-4.3708	-110.337	-139.947	-91.082	122.545	-69.407	-5.975	143.387	116.635	37.831	-129.628	-166.546	156.962	34.811	124.767	45.253	136.796	0.00089185	0.00047707	0.00017793	879.49	7.589e-06	6.0429e-06	729.2	325.66	2.6585e-06	2.987e-06	307.62	114.4	103.89	37.842	1.8523e-05	46.773	0.0051721	0.0059768	0.001683	941.87	6.4546e-05	6.6839e-05	797.8	349.8	6.5006e-05	6.7473e-05	346.58	127.75	116.84	42.368	6.5588e-05	53.38	147.834	-23.620	-81.340	-161.497	-27.880	-11.920	-163.160	-156.355	-60.005	18.698	-158.169	-154.032	-152.419	-146.556	16.819	-148.887	-8191	255	
58730.328	1	1	0	0	0.1504	0.098094	0.080995	0.14631	0.11397	0.064569	0.13946	0.13814	0.11625	0.10939	0.1332	0.077697	0.30799	0.33175	0.018203	0.047559	-2.9583	-4.0771	-4.075	-3.6688	-4.4479	-3.775	-3.8875	-4.2854	-3.3958	-4.0312	-4.3604	-3.575	-4.3833	-3.7875	-3.5396	-4.4417	-7.308	176.055	48.806	-137.556	-144.797	77.737	182.880	118.967	30.272	171.877	147.288	-123.263	171.853	184.491	93.373	33.660	0.00061304	0.001291	0.0001853	868.54	1.8106e-05	9.806e-06	724.24	323.85	3.128e-06	1.4983e-05	309.62	115.69	104.18	38.258	1.6353e-06	47.556	0.0053058	0.0060334	0.0017042	933.16	6.4377e-05	6.5905e-05	794.72	348.42	6.4796e-05	6.7241e-05	347.13	128.9	117.44	42.996	6.728e-05	54.438	159.070	-42.996	-156.033	-161.485	-76.816	-9.007	-162.967	-156.362	-87.703	72.365	-158.470	-154.263	-152.206	-146.549	-142.215	-148.970	-8191	255	
58730.426	1	1	0	0	0.13906	0.11887	0.090265	0.25503	0.058241	0.13346	0.093075	0.043885	0.099186	0.25754	0.068352	0.11179	0.13111	0.15048	0.16575	0.24785	-3.1479	-3.8646	-4.1646	-3.5542	-4.2	-3.8042	-3.7208	-4.4625	-3.4188	-3.875	-4.3146	-3.5792	-4.1583	-3.9562	-3.6917	-4.4229	95.700	179.990	137.358	135.156	127.295	-15.597	153.453	-144.617	-135.611	-54.668	86.226	-135.513	168.607	-165.687	-58.170	107.095	0.00064285	0.00028178	0.00018758	865.21	8.2948e-06	8.4214e-06	722.3	323.12	6.3939e-06	8.1018e-06	310	115.88	104.19	38.315	1.5284e-05	47.836	0.0055	0.006384	0.0018035	933.52	6.7605e-05	7.0581e-05	796.21	348.58	6.7236e-05	7.0237e-05	348.41	129.61	117.51	43.04	6.4608e-05	54.372	157.261	161.146	-58.767	-161.644	-90.241	-31.229	-163.077	-156.575	149.221	-17.396	-158.632	-154.169	-152.231	-146.800	-0.838	-148.885	-8191	255	
58730.547	1	1	0	0	0.083249	0.097017	0.070424	0.10405	0.22103	0.11004	0.1518	0.22989	0.18746	0.2409	0.15426	0.20098	0.1919	0.17092	0.089199	0.052234	-3.2729	-3.6917	-4.2083	-3.4729	-3.9938	-3.8333	-3.6354	-4.4708	-3.4458	-3.7333	-4.3792	-3.5021	-3.9313	-4.0104	-3.3354	-4.4292	182.866	-88.224	-4.985	123.155	-115.341	-124.871	30.454	131.513	89.908	-145.785	-113.066	105.993	141.304	144.192	128.069	-53.605	0.00083014	0.00077254	0.00014895	867.38	3.9398e-06	1.0894e-05	721.98	324.15	7.1073e-06	1.763e-05	305.32	114.8	104.6	38.052	1.0681e-06	47.113	0.0051207	0.005905	0.0016528	926.53	6.1583e-05	6.3852e-05	786.62	346.9	6.1488e-05	6.4086e-05	343.58	127.56	116.6	42.519	6.2083e-05	53.439	130.012	-5.880	-18.556	-161.341	-134.581	-80.221	-163.189	-156.183	-97.324	-95.632	-158.585	-154.473	-152.412	-146.439	-72.162	-148.792	-8191	255	
58730.641	1	1	0	0	0.20716	0.08857	0.11133	0.17674	0.082969	0.05292	0.19183	0.073012	0.20485	0.29001	0.069008	0.2327	0.099906	0.13044	0.050084	0.27414	-3.3125	-3.6854	-4.2229	-3.5833	-4.1062	-4.1354	-3.5771	-4.4417	-3.7167	-3.6208	-4.4146	-3.5	-3.825	-4.1729	-3.3667	-4.3438	-49.568	135.504	-168.619	-172.616	-113.968	172.877	73.716	39.567	125.666	81.434	-106.014	-161.335	-94.955	-138.486	-22.421	-134.910	0.00098097	0.00044559	0.00031058	862.61	1.0367e-05	1.0684e-05	717.62	322.45	1.3155e-05	4.999e-06	305.92	113.55	103.59	37.462	1.3789e-05	46.375	0.0049904	0.0057676	0.0016108	922.11	6.0728e-05	6.26e-05	779.07	344.87	6.0779e-05	6.2916e-05	340.48	126.11	115.51	42.037	6.1476e-05	52.687	149.782	-174.363	-83.744	-161.442	-71.866	-3.120	-162.937	-156.382	-131.271	-47.125	-158.533	-153.902	-152.505	-146.617	-115.935	-149.147	-8191	255	
58730.738	1	1	0	0	0.13525	0.16729	0.22732	0.1267	0.24354	0.1307	0.17609	0.25292	0.14687	0.26647	0.22965	0.078305	0.2129	0.10747	0.03272	0.24086	-3.4062	-3.4646	-4.2021	-3.6354	-3.8854	-4.0021	-3.5458	-4.25	-3.8021	-3.4	-4.4167	-3.5187	-3.9729	-4.4083	-3.3771	-4.2375	-90.279	-27.343	-52.709	-158.072	-165.618	174.943	96.271	103.005	-125.491	-17.033	153.672	71.962	137.266	-69.078	-91.681	-68.477	0.00096006	0.00035639	0.00027945	862.19	8.8945e-06	1.4755e-05	712.42	319.45	1.4148e-05	4.5233e-06	301.57	113.19	102.75	37.794	1.5255e-05	46.556	0.0050271	0.0057806	0.0016331	922.84	6.228e-05	6.5084e-05	779.68	344.09	6.4361e-05	6.6783e-05	341.19	126.63	115.94	42.696	6.7221e-05	53.679	138.261	-83.895	-73.989	-161.514	-2.935	-32.921	-163.055	-156.638	-6.749	38.887	-158.455	-154.657	-152.184	-146.437	45.680	-148.783	-8191	255	
58730.859	1	1	0	0	0.22655	0.068672	0.20125	0.42196	0.24099	0.10931	0.21225	0.084779	0.19061	0.1852	0.054484	0.071707	0.13894	0.14076	0.10411	0.062235	-3.5438	-3.6292	-4.1937	-3.6083	-3.4604	-4.2354	-3.4625	-4.2667	-3.95	-3.4188	-4.2271	-3.6729	-3.55	-4.4021	-3.2896	-4.1917	-35.251	6.072	158.752	164.364	-110.519	112.125	143.249	148.082	-99.356	81.627	178.929	-105.223	-55.770	-174.549	-0.487	-33.413	0.00069404	0.001503	0.00039361	854.17	5.923e-06	4.8333e-06	710.73	316.39	1.1305e-05	5.5787e-06	300.33	114.36	102.56	38.061	1.1224e-05	47.2	0.005508	0.0063427	0.0017916	922.13	6.8479e-05	7.1086e-05	783.63	343.55	7.0008e-05	7.225e-05	343.16	128.07	116.44	43.087	6.9403e-05	54.321	145.855	-106.828	-149.294	-161.564	-36.667	-163.185	-162.999	-156.674	-41.858	-80.452	-158.278	-154.030	-152.223	-146.682	-148.566	-149.241	-8191	255	
58730.930	1	1	0	0	0.099995	0.26862	0.066772	0.29915	0.071845	0.083825	0.20029	0.19312	0.13739	0.27071	0.11164	0.22528	0.17049	0.11972	0.14397	0.020978	-3.7646	-3.3771	-4.3792	-3.8271	-3.5771	-4.2917	-3.5271	-4.1583	-4.2583	-3.4646	-4.1708	-3.8292	-3.5729	-4.4771	-3.5417	-4.1271	16.739	-4.327	1.354	153.530	-38.575	-66.898	122.341	85.437	5.512	3.467	-171.076	-83.970	78.777	-142.392	-20.860	182.818	0.00067656	0.00099361	0.00014376	852.38	3.7172e-06	1.0151e-05	704.05	317.03	4.2787e-06	8.7199e-06	302.34	113.36	104.01	38.147	7.5244e-06	47.483	0.0056087	0.0064255	0.001784	917.22	6.6922e-05	6.9007e-05	776.84	342.54	6.5972e-05	6.7884e-05	340.33	127.57	116.28	42.85	6.446e-05	53.897	142.968	-73.013	-130.905	-161.427	-12.278	-2.445	-162.776	-156.543	-123.881	103.537	-158.599	-153.987	-151.933	-146.651	-52.623	-149.169	-8191	255	
58731.027	1	1	0	0	0.07712	0.14303	0.10539	0.098094	0.26149	0.088079	0.068451	0.05594	0.17015	0.22488	0.17934	0.31825	0.26816	0.10666	0.090815	0.060054	-3.8812	-3.4104	-4.2375	-4.1646	-3.5771	-4.5042	-3.6396	-3.9729	-4.2021	-3.3354	-4.1271	-4.0333	-3.5375	-4.3354	-3.6562	-3.7458	-164.531	-73.035	-36.407	148.816	-8.578	172.839	140.819	156.037	93.071	-78.785	142.237	101.916	-173.488	51.255	-17.029	-140.736	0.00077841	0.00064674	0.00019344	852.13	4.0834e-06	6.2885e-06	706.14	317.4	5.2812e-06	1.0052e-05	299.18	113.53	103.99	38.032	6.1265e-06	47.459	0.0052229	0.0059421	0.0016791	912.79	6.3e-05	6.5801e-05	771.2	342.41	6.3624e-05	6.678e-05	338.18	127.31	116.35	43.002	6.7128e-05	54.119	145.209	153.411	-52.604	-161.373	-95.019	41.544	-163.185	-156.664	-51.545	-88.843	-158.397	-154.085	-152.401	-146.318	102.312	-149.379	-8191	255	
58731.148	1	1	0	0	0.13673	0.15535	0.20448	0.19043	0.055879	0.14793	0.16115	0.25901	0.15947	0.058584	0.12198	0.19163	0.14118	0.098011	0.047984	0.20967	-3.9333	-3.3833	-3.95	-4.2375	-3.425	-4.525	-3.7625	-3.8896	-4.2	-3.6625	-4.0813	-4.1583	-3.4792	-4.3812	-3.7104	-3.7562	-18.160	-71.992	150.623	177.166	1.085	79.179	67.972	93.669	144.527	-23.563	-134.212	-116.426	-103.737	-41.728	146.324	167.317	0.0009432	0.00086789	0.00015444	850.35	2.7774e-06	1.012e-05	703.45	315.56	2.8777e-06	1.1988e-05	298.73	113.49	103.43	38.331	6.1893e-06	47.799	0.0054884	0.0063452	0.0018058	918.17	6.9231e-05	7.1918e-05	777.75	343.34	7.1262e-05	7.4069e-05	342.38	128.5	117.69	43.663	7.5171e-05	55.064	133.435	89.486	57.850	-161.379	160.178	-96.649	-163.480	-156.624	-108.943	7.309	-158.352	-154.406	-152.188	-146.598	20.190	-149.103	-8191	255	
58731.242	1	1	0	0	0.070842	0.13828	0.11583	0.14783	0.1931	0.050198	0.081465	0.1398	0.20193	0.20445	0.17998	0.27499	0.14373	0.22837	0.051884	0.31492	-4.0729	-3.5833	-3.9292	-4.3063	-3.575	-4.3	-3.7354	-3.5812	-4.2688	-3.5938	-3.875	-4.175	-3.2812	-4.3083	-3.7542	-3.5917	-164.651	-106.471	99.221	-131.509	66.187	-1.844	20.516	-11.623	-80.098	-24.703	168.741	-158.989	-117.486	177.652	-48.372	129.927	0.00072402	0.00069735	0.000237	843.26	7.465e-06	4.269e-06	703.91	317.79	7.6874e-06	2.9175e-06	299.73	114	103.15	38.734	4.3507e-06	48.322	0.0060145	0.0068581	0.0019452	919.48	7.2673e-05	7.4951e-05	779.11	344.75	7.1284e-05	7.3363e-05	342.86	129.03	117.08	43.639	6.7674e-05	54.951	143.863	-47.051	-111.295	-161.387	-80.580	1.063	-162.701	-156.625	-55.735	142.873	-158.570	-154.032	-152.583	-146.894	-150.796	-149.319	-8191	255	
58731.340	1	1	0	0	0.18819	0.20342	0.10803	0.1442	0.26077	0.15588	0.11725	0.13703	0.15947	0.18012	0.10013	0.20327	0.2118	0.14574	0.085502	0.06362	-3.9583	-3.5563	-3.8063	-4.3167	-3.2375	-4.1896	-4.0563	-3.7354	-4.2896	-3.7229	-3.7604	-4.225	-3.4167	-3.9188	-4.075	-3.5438	92.038	182.303	165.915	166.674	-122.563	146.437	13.997	179.380	75.313	111.499	50.244	156.240	-8.470	60.569	-117.136	95.283	0.00091842	0.00074798	0.00029693	852.77	3.9327e-06	6.1447e-06	707.27	319.41	4.7639e-06	1.2922e-05	303.22	114.24	104.32	38.53	2.4739e-06	47.895	0.005306	0.0060392	0.0016732	912.13	6.0836e-05	6.2803e-05	768.25	341.47	5.7206e-05	5.8781e-05	336.15	126.24	115.25	42.681	5.4176e-05	53.337	150.018	-163.884	-100.601	-161.431	-92.360	-34.936	-162.782	-156.797	-11.246	-62.544	-158.682	-154.372	-152.300	-146.301	109.861	-149.374	-8191	255	
58731.457	1	1	0	0	0.073473	0.086271	0.0071212	0.13635	0.22137	0.26712	0.21299	0.066285	0.15002	0.090614	0.068507	0.19541	0.18171	0.17625	0.030024	0.15993	-3.8479	-3.7	-3.6292	-4.3771	-3.4021	-4.075	-4.2375	-3.5312	-4.3271	-3.7104	-3.6188	-4.4417	-3.7125	-4.0792	-4	-3.4417	45.158	-58.369	149.379	149.195	-58.153	12.074	-165.604	-35.555	45.021	90.568	112.987	133.427	10.817	14.155	-105.896	36.590	0.00083367	0.00039389	0.00032649	854.78	1.6977e-05	1.0786e-05	704.51	320.26	2.49e-06	2.0347e-06	302.96	114.85	104.09	38.527	3.3372e-06	47.596	0.0042936	0.0049328	0.0013662	906.3	5.145e-05	5.3866e-05	760.08	340.93	5.1635e-05	5.4078e-05	334.05	125.52	114.76	42.328	5.209e-05	52.879	146.160	-122.807	-34.747	-161.280	-84.058	-16.584	-162.811	-156.675	-46.906	-0.131	-158.264	-153.964	-152.361	-146.457	-124.450	-149.224	-8191	255	
58731.531	1	1	0	0	0.23295	0.19425	0.088996	0.018224	0.054958	0.22869	0.052187	0.45575	0.035768	0.26937	0.11503	0.048299	0.21186	0.22791	0.17079	0.30855	-3.9771	-3.8521	-3.4562	-4.4062	-3.3438	-3.8312	-4.2854	-3.6125	-4.0771	-3.8792	-3.6437	-4.1792	-3.7313	-3.8542	-4.1687	-3.4833	-160.100	-104.677	-66.721	123.107	-136.826	-113.469	65.672	118.432	-68.813	132.684	139.675	-40.508	134.792	-132.226	67.290	106.972	0.00097858	0.00053528	0.00018463	857.92	4.6441e-06	2.1423e-06	711.11	321.3	3.1517e-06	6.0194e-06	305.06	115.83	104.52	38.65	1.4475e-05	48.025	0.0041932	0.0048142	0.001328	908.39	5.1023e-05	5.2532e-05	763.24	340.98	5.0617e-05	5.2315e-05	334.69	126.16	115.11	42.464	5.0713e-05	53.308	142.635	5.491	-16.742	-161.354	-92.214	-92.781	-162.960	-156.668	-25.853	15.901	-158.592	-153.950	-152.358	-146.614	-49.714	-149.141	-8191	255	
58731.625	1	1	0	0	0.25767	0.17848	0.14687	0.10371	0.34639	0.1446	0.22145	0.22107	0.29413	0.17564	0.1547	0.1624	0.13006	0.3073	0.14961	0.13591	-3.8042	-3.9354	-3.4021	-4.3354	-3.5625	-3.6792	-4.3396	-3.5625	-4.0563	-4.1458	-3.5583	-4.2896	-3.8229	-3.6958	-4.2292	-3.5667	168.395	125.685	96.112	171.825	-99.750	37.910	118.011	106.439	-17.975	24.157	-119.699	-87.243	177.476	170.872	9.772	72.474	0.00083236	0.00023471	0.00028788	857.51	5.7029e-06	4.2946e-06	711.18	322.15	7.6363e-06	1.3501e-05	306.32	116.13	104.88	38.84	1.6552e-05	48.369	0.0041187	0.0047279	0.0013003	907.06	4.9945e-05	5.1324e-05	765.42	341.86	5.068e-05	5.2466e-05	337.03	126.82	115.54	42.65	5.1259e-05	53.645	144.052	-12.869	-152.716	-161.366	-69.049	17.743	-162.809	-156.500	-109.217	10.114	-158.441	-154.128	-152.487	-146.586	-22.444	-149.138	-8191	255	
58731.723	1	1	0	0	0.037643	0.30254	0.10751	0.36172	0.1175	0.068832	0.16406	0.15665	0.12499	0.092477	0.23596	0.14653	0.15754	0.080794	0.23703	0.16521	-3.6292	-4.0583	-3.4854	-4.3187	-3.7271	-3.5396	-4.4875	-3.6458	-3.8896	-4.2375	-3.4042	-4.1604	-3.9042	-3.675	-4.375	-3.6625	108.239	28.439	-54.607	-73.224	58.899	-54.103	-136.654	135.003	57.654	48.332	139.447	-20.594	181.487	3.184	63.802	62.398	0.00090144	0.00050527	0.00033233	860.61	9.4051e-06	1.8729e-06	713.14	322.97	3.9563e-06	3.0623e-06	304.54	115.66	104.97	38.81	8.8614e-06	48.313	0.0042228	0.0047771	0.0013355	909.99	5.1325e-05	5.2455e-05	765.52	341.79	5.1603e-05	5.3189e-05	335.21	126.59	115.23	42.566	5.182e-05	53.633	125.422	-141.037	-37.012	-161.403	-77.168	-89.126	-162.892	-156.566	-66.101	78.131	-158.602	-154.396	-152.511	-147.038	-34.803	-149.290	-8191	255	
58731.840	1	1	0	0	0.066886	0.12385	0.12778	0.18862	0.024329	0.26698	0.12339	0.1548	0.089342	0.097675	0.16705	0.2807	0.1298	0.27569	0.066548	0.10245	-3.5917	-4.0854	-3.4292	-4.2646	-3.7542	-3.5208	-4.3042	-3.6854	-3.8812	-4.2937	-3.55	-4.1083	-4.1917	-3.475	-4.275	-3.6083	-0.945	-6.403	-60.486	133.543	-47.165	-143.586	130.116	84.298	-123.309	171.099	7.798	119.457	63.118	76.798	-163.683	-134.326	0.00091325	0.00081427	0.00031621	857.6	1.2638e-05	1.2617e-05	714.55	322.2	1.4148e-05	1.2581e-05	306.06	115.63	105.09	38.676	3.877e-06	48.419	0.004244	0.0047706	0.0013191	909.84	5.0892e-05	5.2069e-05	768.81	341.25	5.1343e-05	5.3747e-05	337.11	126.9	115.87	42.762	5.5857e-05	54.18	149.823	-92.350	131.570	-161.690	-108.747	-11.500	-162.918	-156.625	-68.804	9.660	-158.429	-154.273	-152.363	-146.326	1.631	-149.145	-8191	255	
58731.938	1	1	0	0	0.11473	0.15378	0.11092	0.062258	0.17638	0.15773	0.11567	0.18025	0.1595	0.20074	0.078502	0.1172	0.12355	0.18201	0.13932	0.15848	-3.4562	-4.2958	-3.4729	-4.1646	-4.1021	-3.3646	-4.4563	-3.8521	-3.8083	-4.2542	-3.3729	-4.0417	-4.2292	-3.4125	-4.2625	-3.9833	-51.709	-132.388	183.469	16.927	67.514	137.478	-104.395	123.088	-144.387	-84.220	104.248	-139.890	88.316	-166.955	-144.926	151.737	0.00092789	0.00039519	7.4806e-05	856.12	7.3682e-06	4.064e-06	707.47	319.85	1.4638e-05	2.4782e-06	303.81	116.35	105	38.947	1.3893e-05	48.974	0.0047031	0.0054633	0.0015515	917.57	6.0616e-05	6.2498e-05	774.35	344.51	6.0939e-05	6.3003e-05	340.32	128.68	117.15	43.43	6.0894e-05	55.009	138.549	25.059	34.959	-161.611	-24.774	-65.735	-163.163	-156.585	-110.431	-29.153	-158.474	-154.068	-151.924	-146.353	-23.831	-148.700	-8191	255	
58732.035	1	1	0	0	0.26239	0.12005	0.23637	0.19205	0.23055	0.051334	0.25371	0.1342	0.057201	0.076707	0.11638	0.014177	0.080992	0.13493	0.20103	0.071869	-3.2604	-4.1708	-3.6458	-4.1042	-4.2167	-3.4479	-4.3625	-4.0292	-3.5583	-4.4917	-3.6667	-4.0667	-4.4313	-3.4354	-4.2521	-4.2417	-143.435	-152.931	2.794	108.589	-52.248	68.861	150.848	147.579	81.508	-97.940	-74.294	-28.308	-156.824	167.678	18.394	144.614	0.00072662	0.00083585	0.0002096	850.83	1.0943e-05	7.9849e-06	715.36	319.77	6.7246e-06	6.409e-06	304.86	116.69	105.63	39.084	2.3129e-06	48.934	0.0049212	0.0056187	0.0015861	913.24	6.0145e-05	6.1712e-05	776.44	343.33	6.0558e-05	6.3038e-05	342.49	129.16	117.46	43.659	6.3006e-05	55.407	137.443	66.527	-67.634	-161.353	-155.244	18.509	-162.749	-156.256	181.190	-51.291	-158.287	-154.129	-152.613	-146.547	-30.051	-148.943	-8191	255	
58732.129	1	1	0	0	0.082572	0.21987	0.12373	0.16155	0.052825	0.19999	0.20717	0.16721	0.047786	0.076507	0.36573	0.071682	0.29738	0.19201	0.12784	0.14709	-3.025	-4.2271	-3.6583	-3.7208	-4.1375	-3.5625	-4.1125	-4.1458	-3.3792	-4.4146	-3.5146	-3.7062	-4.4417	-3.4375	-4.0563	-4.1104	33.186	135.591	-23.323	178.656	105.986	91.113	52.905	126.962	176.365	76.720	127.396	126.844	-121.980	153.001	111.165	37.463	0.00089295	0.0003269	0.00029329	854.93	5.206e-06	3.7365e-06	713.69	319.75	1.2222e-05	1.2423e-05	305.54	115.99	104.36	39.182	2.4448e-06	49.411	0.0050548	0.0057821	0.0016294	913.19	6.1521e-05	6.3129e-05	778.07	343.2	6.1305e-05	6.3889e-05	342.58	129.27	117.15	43.804	6.3314e-05	55.819	132.476	4.167	-83.203	-161.335	-1.084	-64.691	-162.888	-156.256	-73.101	-10.237	-158.359	-154.172	-152.103	-146.492	-4.052	-149.113	-8191	255	
58732.227	1	1	0	0	0.27353	0.11711	0.090916	0.10131	0.23553	0.15356	0.16467	0.18194	0.16876	0.17477	0.20844	0.26571	0.13562	0.18342	0.22896	0.15178	-3.0354	-4.1979	-3.7583	-3.6896	-4.1854	-3.5271	-4.2063	-4.1937	-3.3125	-4.2521	-3.9292	-3.5687	-4.3979	-3.4729	-3.8438	-4.3333	35.535	110.271	84.401	21.470	17.620	159.768	96.529	163.321	-164.518	20.336	-160.900	17.172	171.896	1.702	4.669	140.609	0.000631	0.00060372	0.00020441	849.78	6.0698e-06	1.0643e-05	715.74	319.45	1.7088e-06	3.373e-06	306.37	116.94	105.5	39.137	1.2226e-05	49.442	0.0050312	0.0058309	0.0016372	911.27	6.1335e-05	6.3951e-05	780.23	343.03	6.0913e-05	6.408e-05	343.11	129.59	117.4	43.723	6.1731e-05	55.452	151.116	-61.436	-20.939	-161.408	-115.169	-60.412	-162.878	-156.523	-141.138	-111.143	-158.397	-154.237	-152.278	-146.517	-161.033	-148.754	-8191	255	
58732.320	1	1	0	0	0.28683	0.1664	0.078588	0.10049	0.21697	0.12134	0.063264	0.1498	0.22149	0.14929	0.27852	0.23765	0.23028	0.27473	0.23835	0.052059	-3.0687	-4.2292	-3.7104	-3.5583	-4.3271	-3.5708	-3.8792	-4.2708	-3.4396	-4.1146	-4.0958	-3.5521	-4.4042	-3.7979	-3.5979	-4.4583	-146.294	118.505	101.525	-95.298	-52.197	-1.359	169.408	139.315	5.106	138.445	-161.642	155.579	-171.554	83.378	-69.435	-12.867	0.00068955	0.0002754	0.00012396	854.73	1.3382e-05	2.5057e-06	717.78	320.29	4.6538e-06	4.9332e-06	306.81	116.07	105.94	39.064	6.3706e-06	49.164	0.0048841	0.0056951	0.0015832	915.74	5.9143e-05	6.1953e-05	781.13	344.28	5.9235e-05	6.213e-05	342.02	128.45	117.35	43.402	5.9097e-05	54.931	149.088	-125.816	10.428	-161.293	-108.510	-139.506	-162.984	-156.535	132.450	11.969	-158.466	-154.358	-152.769	-146.588	-102.886	-149.032	-8191	255	
58732.418	1	1	0	0	0.083888	0.10237	0.13833	0.31699	0.27796	0.12203	0.30289	0.14918	0.08168	0.071698	0.1254	0.057382	0.3023	0.13339	0.072563	0.17492	-3.0563	-4.1188	-3.9167	-3.5	-4.3667	-3.5375	-3.7833	-4.2167	-3.2792	-4.0458	-3.9958	-3.5354	-4.1937	-3.7771	-3.6792	-4.4271	-34.890	-171.422	-158.591	137.682	-91.597	97.742	-168.425	-157.378	-56.916	3.809	150.152	97.191	177.493	106.432	-49.727	149.919	0.00076511	0.00036623	0.00025671	857.07	1.6267e-05	3.1433e-06	713.05	322.97	9.4299e-06	1.946e-06	309.05	116.22	105.42	39.197	1.4024e-05	48.47	0.0047028	0.0054779	0.0015093	915.08	5.6959e-05	5.9611e-05	776.34	345.26	5.7872e-05	6.1008e-05	341.91	128.46	117.51	43.47	5.8718e-05	54.7	139.725	-106.112	140.537	-161.588	-104.361	29.244	-162.814	-156.508	-63.319	-48.053	-158.277	-154.246	-152.532	-146.523	-44.219	-148.968	-8191	255	
58732.539	1	1	0	0	0.03857	0.055594	0.1215	0.22955	0.17627	0.089894	0.030212	0.066769	0.10411	0.11607	0.07965	0.3284	0.16379	0.099928	0.17603	0.0641	-3.1771	-3.9417	-4.2208	-3.55	-4.2188	-3.8354	-3.7375	-4.4104	-3.4042	-3.8646	-4.0708	-3.525	-4.275	-3.8875	-3.575	-4.3104	3.642	20.967	92.228	184.468	-98.622	119.497	87.477	-124.576	-32.998	-170.798	-54.059	-152.671	105.821	-44.340	178.869	-164.418	0.00089791	0.00069442	0.00023176	857.84	7.989e-06	4.7233e-06	712.29	321.7	1.4675e-05	1.0112e-05	304.74	116.37	105.67	39.051	8.2232e-06	48.858	0.0047774	0.0055019	0.0015347	913.28	5.8297e-05	5.9878e-05	770.78	343.78	5.7475e-05	5.8976e-05	339.64	128.04	117.11	43.416	5.703e-05	54.588	123.850	-61.018	-80.937	-161.287	-50.827	58.980	-162.879	-156.396	-49.808	51.105	-158.242	-154.333	-152.250	-146.161	-30.998	-149.272	-8191	255	
58732.633	1	1	0	0	0.026836	0.14874	0.25467	0.38582	0.14911	0.2557	0.21805	0.15651	0.28826	0.21091	0.25845	0.28455	0.098755	0.09456	0.12361	0.12774	-3.0438	-3.6646	-4.1687	-3.5208	-4.1208	-4.0396	-3.5833	-4.4854	-3.5438	-3.8063	-4.4583	-3.4479	-4.0917	-3.9938	-3.4354	-4.4458	35.925	67.765	-55.446	148.061	116.554	-66.486	3.718	-65.050	-138.974	173.388	-171.751	161.610	-104.263	147.845	-13.609	-115.970	0.0009569	0.00036347	0.00014118	854.35	4.1943e-06	8.9218e-06	716.66	321.62	9.6938e-06	1.1361e-05	306.49	116.63	104.82	39.101	4.7465e-06	49.051	0.0046792	0.0053521	0.0014901	910.76	5.6338e-05	5.8017e-05	772.66	343.79	5.596e-05	5.7067e-05	339.25	128.11	116.48	43.268	5.4842e-05	54.915	151.861	20.466	-91.697	-161.479	3.343	34.372	-163.096	-156.403	-100.565	-78.836	-158.335	-154.058	-152.697	-146.280	126.258	-148.691	-8191	255	
58732.730	1	1	0	0	0.017883	0.11518	0.12389	0.15631	0.043826	0.15498	0.22108	0.27445	0.052311	0.18085	0.14169	0.20435	0.15884	0.12607	0.10973	0.22901	-3.4125	-3.7375	-4.2688	-3.4917	-3.9875	-4.0021	-3.6021	-4.2542	-3.6188	-3.5896	-4.2688	-3.3646	-4.0542	-4.2271	-3.3583	-4.325	167.688	185.543	149.586	75.810	8.368	-121.280	122.886	118.521	21.749	166.651	157.368	-170.364	40.142	143.177	171.951	111.861	0.00099529	7.6557e-05	0.00038239	853.3	5.449e-06	3.5385e-06	723.13	320.98	7.6829e-06	8.9641e-06	308.22	117.57	105.53	39.664	8.0643e-06	50.026	0.0045532	0.005157	0.0014365	910.48	5.5862e-05	5.7523e-05	778.17	343.25	5.5149e-05	5.6214e-05	341.54	129	116.57	43.719	5.4545e-05	55.757	138.048	42.878	-87.191	-161.256	179.488	14.833	-163.008	-156.109	-58.951	-34.399	-158.351	-154.294	-152.285	-146.373	-161.387	-149.248	-8191	255	
58732.824	1	1	0	0	0.32899	0.011071	0.12773	0.21702	0.14294	0.10114	0.10335	0.1797	0.14299	0.16301	0.16613	0.057781	0.05784	0.2073	0.079558	0.22591	-3.4417	-3.4979	-4.3562	-3.5375	-3.7646	-4.025	-3.5229	-4.3479	-3.7979	-3.6583	-4.4458	-3.6458	-3.85	-4.2312	-3.4458	-4.2333	-55.574	2.934	-159.587	147.212	-173.163	-117.311	77.164	170.868	-7.078	-96.198	102.341	-119.857	106.537	111.199	-63.110	107.862	0.00084987	0.001377	0.00017518	857.89	2.7709e-06	1.3744e-05	725.53	322.12	2.1486e-06	1.2969e-05	308.09	117.32	105.66	39.624	1.3376e-05	49.722	0.0045107	0.0051102	0.0014302	911.36	5.4678e-05	5.6178e-05	780.66	342.92	5.4712e-05	5.5796e-05	341.67	129.03	116.6	43.606	5.5005e-05	55.433	141.614	-85.912	143.588	-161.503	77.634	-13.858	-163.001	-156.406	81.896	-62.620	-158.213	-154.328	-152.367	-146.749	-50.179	-148.802	-8191	255	
58732.922	1	1	0	0	0.12066	0.1955	0.069309	0.26344	0.01558	0.19869	0.050434	0.12433	0.15047	0.14679	0.23197	0.066064	0.23121	0.11651	0.23279	0.078166	-3.5521	-3.5729	-4.1583	-3.6646	-3.7292	-4.2083	-3.4021	-4.0813	-3.9625	-3.4354	-4.3167	-3.7062	-3.5479	-4.2833	-3.3438	-4.0271	-110.595	164.654	94.439	99.911	91.096	-64.915	-42.339	-159.397	-146.975	-7.494	114.677	85.563	-160.707	158.781	27.400	121.792	0.00089077	0.00044786	0.00043258	858.01	5.7165e-06	1.5742e-06	722.19	322.08	1.3211e-05	1.6103e-05	308.59	117.53	105.63	39.619	5.9317e-06	49.362	0.0044658	0.0050061	0.0014169	910.56	5.3601e-05	5.5078e-05	777.97	342.16	5.3689e-05	5.5199e-05	340.98	128.52	116.21	43.478	5.4238e-05	55.198	141.233	157.731	-87.789	-161.423	-89.059	5.373	-163.079	-156.494	-68.848	-42.513	-158.036	-153.992	-152.673	-146.601	-121.770	-149.143	-8191	255	
58733.020	1	1	0	0	0.23097	0.17063	0.1761	0.23716	0.13716	0.07281	0.067144	0.10307	0.056172	0.21223	0.30131	0.060857	0.15519	0.16181	0.016377	0.23558	-3.6729	-3.4104	-4.1979	-3.8583	-3.6625	-4.3208	-3.4979	-3.9583	-3.8646	-3.2458	-4.2917	-3.8875	-3.5521	-4.4604	-3.4771	-3.8667	-148.447	-27.648	-27.880	174.043	-23.658	79.164	167.525	-23.349	-81.871	-158.092	-168.849	162.361	17.410	132.240	-173.268	131.767	0.00085285	0.00062495	0.00013688	859.72	3.5316e-06	6.9335e-06	723.05	322.19	1.9906e-06	5.4986e-06	309.84	117.47	106.15	39.42	6.9678e-06	49.532	0.0043839	0.0049428	0.0014196	911.64	5.2459e-05	5.3843e-05	778.56	342.95	5.1763e-05	5.333e-05	341.12	128.23	116.23	43.274	5.2709e-05	54.742	145.002	-68.904	-85.414	-161.229	-158.528	-3.038	-163.005	-156.516	155.149	-35.441	-158.457	-154.780	-152.537	-146.608	-64.181	-149.141	-8191	255	
58733.137	1	1	0	0	0.19603	0.093518	0.20478	0.025388	0.32842	0.096077	0.14126	0.27581	0.1546	0.012424	0.025273	0.25796	0.061926	0.1264	0.04888	0.10769	-3.8958	-3.3208	-4.1958	-4.0667	-3.4583	-4.2625	-3.5521	-3.9042	-4.1813	-3.3458	-4.2042	-3.9833	-3.5771	-4.4	-3.5208	-3.7458	173.637	62.783	86.421	-20.971	-121.427	78.776	-158.992	165.656	-155.934	-163.631	-9.139	155.677	-61.522	156.694	-33.676	-26.952	0.00065706	0.00079754	6.4637e-05	863.65	1.8395e-06	1.0903e-05	724.68	324.82	1.0018e-05	1.0376e-05	310.02	117.24	106.06	39.592	9.2847e-06	49.356	0.0041733	0.004793	0.0013455	913.11	5.0121e-05	5.2363e-05	777.1	343.72	4.9472e-05	5.1142e-05	339.75	127.75	115.79	43.129	4.9438e-05	54.448	148.044	-120.387	-119.498	-161.331	-80.407	-5.651	-162.953	-156.558	-80.404	-74.325	-158.382	-154.178	-152.385	-146.472	175.728	-149.006	-8191	255	
58733.234	1	1	0	0	0.14984	0.11764	0.075032	0.31493	0.1425	0.21499	0.23636	0.16296	0.075451	0.10974	0.038382	0.094851	0.11846	0.25831	0.15726	0.067909	-3.8063	-3.4375	-4.1208	-4.2333	-3.5583	-4.2833	-3.6875	-3.8771	-4.375	-3.3812	-4.1271	-4.2229	-3.6646	-4.4458	-3.7333	-3.8208	-117.107	6.825	77.976	155.852	45.118	26.173	34.202	123.204	73.229	-91.156	127.696	38.877	-143.310	-155.208	-102.709	119.720	0.00075957	0.00031856	0.00019222	868.22	6.8976e-06	1.1665e-05	724.76	325.05	6.3838e-06	8.0735e-06	310.99	116.2	105.6	39.335	4.3011e-06	49.022	0.0039597	0.0045741	0.0012816	912.88	4.7416e-05	5.0468e-05	776.2	343.76	4.7953e-05	5.0444e-05	338.91	126.64	115.34	42.914	4.8987e-05	53.993	140.744	-110.225	157.028	-161.391	-61.490	-17.296	-162.787	-156.696	-100.858	-40.332	-158.333	-154.205	-152.652	-146.362	130.303	-149.042	-8191	255	
58733.332	1	1	0	0	0.06653	0.11667	0.10684	0.13231	0.0113	0.19897	0.17146	0.23063	0.22473	0.19387	0.21319	0.36466	0.20001	0.15214	0.084824	0.22105	-3.8375	-3.5771	-3.9375	-4.3208	-3.2958	-4.1583	-3.9	-3.7167	-4.325	-3.4333	-3.8667	-4.2312	-3.3958	-4.3104	-3.8167	-3.5167	67.940	-107.886	58.190	142.865	164.062	-126.641	138.267	140.156	177.274	36.721	157.204	123.979	167.434	157.432	142.063	112.790	0.00078629	0.00073455	0.0003737	860.95	3.2602e-06	8.5457e-06	722.12	323.43	5.1351e-06	1.8383e-05	309.29	116.31	106.27	39.162	1.8919e-06	49.24	0.0039742	0.0045885	0.0012758	910.16	4.7912e-05	5.0709e-05	773.06	342.49	4.8708e-05	5.1246e-05	337.96	126.81	115.84	43.04	5.0267e-05	54.145	156.310	-92.859	-101.259	-161.056	-110.305	-70.097	-162.794	-156.401	-94.382	-91.567	-158.552	-154.080	-152.322	-146.590	-22.721	-149.046	-8191	255	
58733.426	1	1	0	0	0.14426	0.37082	0.21149	0.27914	0.09207	0.19399	0.059875	0.051567	0.11895	0.044092	0.14977	0.045403	0.32682	0.029406	0.20064	0.14679	-4.0437	-3.525	-3.7229	-4.4625	-3.2313	-4.1375	-4.125	-3.4896	-4.2229	-3.5542	-3.5396	-4.3271	-3.4667	-4.1375	-4.0875	-3.4104	-65.074	177.616	139.423	91.303	20.118	-15.514	134.270	177.839	27.398	-104.407	-20.141	-42.011	141.608	-102.329	-134.576	98.943	0.00080968	0.00079137	0.00023158	862.3	7.8845e-06	5.8934e-06	724.33	322.68	1.1845e-05	1.6144e-05	307.13	116.57	105.71	39.358	1.3647e-05	49.074	0.0041009	0.004739	0.001323	910.36	5.0292e-05	5.2976e-05	775.29	342.16	5.0864e-05	5.2966e-05	338.76	127.4	115.51	43.092	5.0569e-05	54.387	137.791	-161.152	-76.283	-161.241	-134.048	155.784	-162.953	-156.745	-59.663	-20.047	-158.603	-154.159	-152.312	-146.880	84.024	-148.940	-8191	255	
58733.520	1	1	0	0	0.12657	0.26187	0.16148	0.31183	0.24567	0.13701	0.18447	0.23131	0.22109	0.076708	0.17563	0.070529	0.09264	0.07238	0.13165	0.086111	-3.9667	-3.6271	-3.5125	-4.2667	-3.3333	-3.8479	-4.1312	-3.3167	-4.2646	-3.6188	-3.8688	-4.25	-3.55	-3.9833	-4.2042	-3.3667	-31.014	16.351	-68.231	130.782	-21.460	-17.820	-160.737	-48.745	141.813	19.087	170.909	-97.565	181.258	-139.732	66.395	141.283	0.00069191	0.00017824	5.6613e-05	861.85	1.0738e-05	6.8489e-06	726.12	323.39	6.869e-06	1.5062e-05	311.38	117.15	106.06	39.274	4.1698e-06	49.387	0.0041293	0.0047057	0.0012993	912.73	5.0159e-05	5.2112e-05	780.59	343.02	5.1334e-05	5.2954e-05	341	128.07	116	43.222	5.3107e-05	54.91	151.344	142.370	-131.362	-161.190	-60.359	-35.657	-163.025	-156.588	-29.473	3.666	-158.111	-154.162	-152.188	-146.769	-35.056	-148.941	-8191	255	
58733.617	1	1	0	0	0.13563	0.12447	0.3051	0.17418	0.13182	0.18446	0.16272	0.052398	0.14071	0.12875	0.11025	0.10156	0.16332	0.12776	0.089349	0.14904	-3.8479	-3.7542	-3.3937	-4.5771	-3.4979	-3.7167	-4.2104	-3.4146	-4.0188	-3.8021	-3.6354	-4.3625	-3.575	-3.775	-4.1646	-3.4792	-64.312	12.421	31.245	-83.712	12.478	-115.161	38.814	-154.647	-38.143	-73.175	-68.276	178.291	85.452	85.196	-70.023	-129.274	0.000953	0.00065765	0.00019177	862.62	6.5641e-06	1.0481e-05	726.34	321.11	6.31e-06	1.0619e-05	308.95	116.86	105.35	39.083	1.4401e-05	48.82	0.0043683	0.0049807	0.0013785	914.5	5.3031e-05	5.5166e-05	778.54	342.94	5.3682e-05	5.5336e-05	339.56	127.98	116.15	43.096	5.3136e-05	54.391	160.430	-32.862	-148.549	-161.236	-114.575	-73.794	-162.721	-156.641	-91.721	-74.678	-158.478	-154.334	-152.338	-146.578	-80.349	-149.149	-8191	255	
58733.715	1	1	0	0	0.32022	0.11697	0.035413	0.21399	0.20973	0.22368	0.15035	0.012246	0.11109	0.32102	0.15658	0.062434	0.11187	0.13455	0.085989	0.14749	-3.7771	-3.9583	-3.5292	-4.3313	-3.5354	-3.7979	-4.4667	-3.5792	-3.9458	-4.0958	-3.5292	-4.4521	-3.8875	-3.7667	-4.3542	-3.575	-152.337	-152.159	44.191	130.464	-104.129	-1.908	157.219	-117.038	-170.324	156.308	80.779	161.629	8.325	71.617	-43.562	63.271	0.00095201	0.0011467	0.00013241	859.67	7.3807e-06	5.343e-06	722.45	321.09	8.9656e-06	1.5143e-05	307.46	115.99	105.28	39.074	9.9177e-06	48.967	0.0044133	0.0049871	0.0013754	915.1	5.3426e-05	5.4451e-05	776.92	342.31	5.377e-05	5.4939e-05	339.02	127.55	115.97	43.039	5.3329e-05	54.445	137.528	-70.879	-3.451	-161.474	-93.443	-83.028	-162.636	-156.364	4.642	-48.541	-158.428	-153.833	-152.699	-146.633	-59.313	-149.158	-8191	255	
58733.809	1	1	0	0	0.1843	0.26238	0.21956	0.19485	0.046105	0.12422	0.16027	0.15103	0.25255	0.38789	0.094746	0.15246	0.019372	0.21441	0.050943	0.2489	-3.6396	-4.1104	-3.3021	-4.3854	-3.6875	-3.4854	-4.4479	-3.6688	-3.9979	-4.2521	-3.4729	-4.3354	-3.85	-3.5021	-4.3021	-3.5146	-143.138	101.258	-40.075	128.940	87.783	-96.465	71.040	137.363	-37.988	-53.244	67.518	-127.359	-88.175	112.112	-1.502	160.112	0.00080233	0.00037367	0.00023438	860.38	1.7831e-05	1.0746e-05	726.53	322.53	3.2519e-06	1.2886e-05	308.97	117.23	105.13	39.21	6.9879e-06	49.052	0.0043739	0.0048952	0.0013674	914.08	5.247e-05	5.2662e-05	780.22	342.87	5.2052e-05	5.2903e-05	340.02	127.93	115.83	43.253	5.3921e-05	54.803	135.525	49.614	-83.748	-161.252	-37.331	-26.407	-162.662	-156.841	-154.454	20.552	-158.497	-154.131	-152.271	-146.828	109.007	-149.149	-8191	255	
58733.930	1	1	0	0	0.072311	0.054075	0.32327	0.38122	0.090099	0.20194	0.2811	0.074385	0.19562	0.052948	0.11285	0.02797	0.065299	0.14443	0.1793	0.10799	-3.4167	-4.1687	-3.4375	-4.1021	-3.7812	-3.5458	-4.3625	-3.5854	-3.5875	-4.2125	-3.4854	-4.125	-3.9062	-3.5771	-4.1417	-3.5521	9.982	120.225	-26.486	-170.158	116.853	174.707	-142.558	137.653	124.366	-61.477	146.600	-4.959	-12.571	181.313	37.841	148.463	0.00070179	0.00077923	0.0003688	859.43	7.4602e-06	1.0754e-05	723.53	320.36	1.72e-05	1.0113e-05	307.54	116.04	105.45	39.284	9.0179e-06	48.859	0.0044617	0.0050886	0.0014425	915.88	5.5451e-05	5.653e-05	782.74	344.58	5.605e-05	5.8594e-05	341.83	128.24	116.87	43.357	5.8298e-05	54.717	144.001	-135.895	-148.867	-161.279	-143.982	-84.685	-162.861	-156.319	-94.103	-114.335	-158.318	-154.136	-152.453	-146.635	86.358	-148.933	-8191	255	
58734.027	1	1	0	0	0.16954	0.29985	0.15155	0.14742	0.16891	0.066256	0.18959	0.29869	0.21532	0.07805	0.08638	0.083938	0.18078	0.22017	0.22452	0.09314	-3.2188	-4.1208	-3.2313	-4.1396	-4.0979	-3.4125	-4.2167	-3.8542	-3.6375	-4.0396	-3.3563	-3.9021	-4.0458	-3.3979	-4.1271	-3.8146	146.881	-160.399	-16.121	170.301	45.785	78.161	116.468	54.931	-81.700	182.874	-142.799	158.001	-159.498	121.767	119.652	54.305	0.00097608	0.00076113	0.00020447	860.34	1.6732e-05	2.559e-06	714.21	322.66	4.9381e-06	5.5127e-06	305.97	115.43	105.3	38.838	5.6189e-06	48.255	0.0046078	0.0053428	0.001509	916.81	5.6427e-05	5.9167e-05	778.8	344	5.7774e-05	6.0985e-05	340.1	127.54	116.89	43.291	6.1203e-05	54.366	140.228	-74.143	159.835	-161.434	-15.073	-25.353	-162.588	-156.549	-28.623	-55.115	-158.680	-154.257	-152.074	-146.614	-58.755	-149.101	-8191	255	
58734.098	1	1	0	0	0.29585	0.19306	0.020375	0.20223	0.112	0.18158	0.14043	0.1606	0.11126	0.11345	0.14469	0.075026	0.020228	0.32839	0.049545	0.10698	-3.2167	-4.1167	-3.2958	-3.8438	-4.1729	-3.3729	-4.2625	-3.8354	-3.3187	-4.2	-3.7375	-3.8375	-4.2104	-3.2188	-4.0979	-3.8958	-145.583	-116.945	-130.217	98.072	-121.516	-164.926	88.949	-146.215	-154.703	170.051	134.176	109.720	-6.810	124.517	52.979	-124.347	0.00067558	0.0008412	0.00045468	855.98	4.522e-06	6.0959e-06	718.64	319.95	7.6687e-06	1.3518e-05	303.11	114.5	104.42	38.629	1.0293e-05	48.189	0.0047815	0.0056113	0.0015663	915.32	5.8191e-05	6.0751e-05	776.97	343.2	5.811e-05	6.1877e-05	338.67	127	116.41	43.2	6.0985e-05	54.186	138.497	-166.630	-37.821	-161.512	-65.628	-78.730	-163.180	-156.476	-27.539	52.550	-158.444	-154.296	-152.600	-146.784	5.061	-149.413	-8191	255	
58734.219	1	1	0	0	0.060736	0.29556	0.13767	0.22574	0.1426	0.041036	0.045026	0.12705	0.16206	0.16445	0.13351	0.21603	0.17291	0.24109	0.055696	0.24048	-2.9313	-4.1625	-3.4583	-3.8312	-4.1979	-3.3937	-4.25	-3.9917	-3.5917	-4.3063	-3.7	-3.8583	-4.1937	-3.5167	-3.7687	-3.9521	107.779	74.721	-20.393	174.392	-113.686	27.352	-121.243	142.244	-93.757	-153.850	133.049	171.179	42.900	124.330	-72.672	149.306	0.00089844	0.0015712	0.00035267	847.63	1.4364e-05	9.8578e-06	710.75	317.61	1.1165e-05	7.2929e-06	300.76	114.2	103.61	38.744	1.1008e-05	48.287	0.004848	0.0057188	0.0015946	909.9	5.9457e-05	6.2813e-05	775	341.99	6.0509e-05	6.4208e-05	338.62	126.97	116.21	43.381	6.3139e-05	54.615	133.375	-71.719	-1.733	-161.353	-47.423	0.624	-162.803	-156.430	-155.325	-42.771	-158.502	-154.304	-152.311	-146.535	-43.559	-149.059	-8191	255	
58734.316	1	1	0	0	0.21523	0.26261	0.032848	0.16928	0.43321	0.13092	0.099406	0.10057	0.26316	0.18795	0.15858	0.13925	0.11407	0.36741	0.096665	0.24766	-3.1042	-4.1354	-3.6396	-3.6396	-4.4146	-3.4813	-4.0646	-4.2042	-3.2771	-4.2458	-3.7667	-3.5	-4.4	-3.4604	-3.7687	-4.1479	-151.082	132.962	43.462	-169.538	11.839	97.198	76.248	-127.691	-28.785	145.163	108.862	-133.437	138.466	167.536	-40.806	84.709	0.00079213	0.00063504	0.00014564	850	1.3028e-05	5.1804e-06	710.75	317.18	7.6977e-06	1.9355e-05	300.22	113.97	103.47	38.776	1.4292e-05	48.102	0.0050979	0.0059549	0.0016612	910.31	6.3256e-05	6.554e-05	774.23	341.43	6.3134e-05	6.663e-05	338.64	127.16	116.25	43.545	6.4769e-05	54.649	134.494	159.970	-124.490	-161.369	-40.253	-58.287	-162.916	-156.172	22.494	-102.192	-158.520	-154.460	-152.334	-146.351	-24.440	-148.810	-8191	255	
58734.410	1	1	0	0	0.05881	0.1409	0.16708	0.096518	0.18063	0.12593	0.21332	0.075351	0.087544	0.20434	0.010285	0.011502	0.35516	0.070874	0.13795	0.15516	-3.1125	-4.0563	-3.7583	-3.5208	-4.2333	-3.6437	-3.6708	-4.45	-3.4271	-4.0104	-3.9854	-3.45	-4.4	-3.7396	-3.7708	-4.3625	88.487	-35.563	-84.166	157.956	-74.756	96.972	156.032	148.143	-9.663	13.122	8.760	-63.882	-141.917	122.418	-158.689	-142.505	0.0010984	0.00055291	0.0002565	843.18	5.4031e-06	1.4337e-05	704.04	314.88	6.5932e-06	1.0704e-05	297.28	113.12	102.81	38.626	3.5439e-06	47.655	0.0052504	0.0061127	0.0016851	906.95	6.4589e-05	6.6989e-05	769.23	339.81	6.4901e-05	6.7835e-05	335.99	126.34	115.8	43.359	6.5003e-05	54.108	139.795	-38.674	-108.351	-161.218	-20.924	-56.163	-162.976	-156.396	-54.651	-23.394	-158.456	-154.358	-152.460	-146.587	-86.888	-149.186	-8191	255	
58734.531	1	1	0	0	0.1092	0.14882	0.10302	0.064226	0.022432	0.045891	0.20018	0.28706	0.097368	0.26104	0.22319	0.21089	0.14262	0.26952	0.053685	0.221	-3.0646	-3.8917	-3.8479	-3.5896	-4.2104	-3.6875	-3.6417	-4.55	-3.2	-3.9604	-4.1083	-3.3812	-4.1312	-3.7917	-3.4708	-4.3896	70.807	129.310	87.647	-63.519	124.117	-62.010	41.275	52.219	145.162	31.955	57.003	97.823	-92.701	149.006	47.666	98.578	0.00091042	0.00040684	7.2747e-05	841.39	6.5631e-06	3.6431e-06	698.23	314.32	8.6925e-06	1.167e-05	295.93	111.95	102.51	38.229	7.6934e-06	47.106	0.0053134	0.0061183	0.001687	905.41	6.4588e-05	6.7173e-05	766.08	339.57	6.419e-05	6.606e-05	334.45	125.32	115.44	42.841	6.2501e-05	53.441	130.736	-161.735	26.173	-161.512	-124.820	-89.224	-163.238	-156.530	-33.515	98.419	-158.522	-154.087	-152.555	-146.616	28.835	-148.997	-8191	255	
58734.625	1	1	0	0	0.22659	0.18169	0.24458	0.20509	0.27091	0.068107	0.0528	0.25528	0.035681	0.041783	0.18359	0.041494	0.051185	0.34358	0.13738	0.18358	-3.0646	-3.7188	-4.0146	-3.4813	-4.3208	-3.8833	-3.6229	-4.3583	-3.4938	-3.8	-4.2271	-3.3229	-4.1354	-3.7771	-3.5438	-4.3313	106.257	-57.275	121.807	162.491	-83.090	-10.120	-165.627	139.944	-1.411	86.968	138.440	115.589	89.199	33.158	11.445	80.255	0.00078608	0.00034665	0.00024074	843.04	8.9297e-06	1.124e-05	693.41	315.2	8.8852e-06	4.0478e-06	297.44	111.6	103.24	38.323	8.5464e-06	47.204	0.0051708	0.0058794	0.0016342	906.69	6.2932e-05	6.461e-05	761.99	339.83	6.2764e-05	6.4503e-05	333.83	125.23	115.8	42.904	6.302e-05	53.585	148.385	185.070	-61.012	-161.431	27.334	-7.470	-162.860	-156.663	-167.042	106.325	-158.192	-154.079	-152.584	-146.521	-4.909	-149.151	-8191	255	
58734.699	1	1	0	0	0.078314	0.08301	0.10906	0.16902	0.093389	0.14605	0.1748	0.19293	0.24135	0.078562	0.1464	0.29404	0.25237	0.026976	0.36435	0.12046	-3.2625	-3.7771	-4.2646	-3.3771	-4.025	-3.8958	-3.7104	-4.4563	-3.4833	-3.6396	-4.2167	-3.4854	-4.0312	-4.0333	-3.4521	-4.3125	153.652	158.592	-20.922	142.180	138.182	124.374	152.890	143.620	49.561	14.528	68.096	-156.055	178.676	96.698	-145.171	98.277	0.00072155	0.00096784	0.00044255	841.75	1.6923e-05	7.7021e-06	693.85	315.4	7.8163e-06	6.4976e-06	297.63	112.2	102.92	38.377	2.3361e-06	47.046	0.0051662	0.0059127	0.0016502	904.49	6.3251e-05	6.4938e-05	761.92	339.47	6.365e-05	6.5015e-05	334.47	125.56	115.72	43.011	6.4617e-05	53.729	142.662	-39.936	-133.135	-161.430	-14.226	-3.303	-163.064	-156.518	-67.984	110.411	-158.480	-154.541	-152.343	-146.394	94.660	-149.115	-8191	255	
58734.816	1	1	0	0	0.15501	0.34458	0.13872	0.065434	0.12192	0.1488	0.20996	0.2914	0.1537	0.24418	0.092173	0.23421	0.17982	0.17838	0.048854	0.14895	-3.4646	-3.6708	-4.225	-3.6542	-3.9292	-4.1104	-3.4458	-4.2542	-3.575	-3.6167	-4.2167	-3.5	-3.9313	-4.1979	-3.1625	-4.2146	167.266	53.276	178.131	163.521	37.675	-3.674	77.836	-156.239	-115.025	180.278	-83.808	21.863	179.683	124.296	-128.010	-78.824	0.00064323	6.7722e-05	0.00012899	835.67	9.7196e-06	7.3238e-06	688.25	313.85	8.0423e-06	7.198e-06	294.72	111.73	102.6	38.399	4.3716e-06	46.866	0.0052872	0.005984	0.0017106	901.34	6.5111e-05	6.7258e-05	761.65	339.65	6.6438e-05	6.8226e-05	334.29	126.01	116.14	43.364	6.9877e-05	54.125	127.112	67.523	68.587	-161.413	-53.368	44.999	-163.294	-156.571	-82.425	-80.424	-158.432	-154.335	-152.482	-146.398	-46.033	-149.111	-8191	255	
58734.914	1	1	0	0	0.026673	0.12019	0.080495	0.13664	0.029931	0.12145	0.42936	0.16563	0.18422	0.13099	0.053552	0.068195	0.13558	0.24791	0.16971	0.21723	-3.4646	-3.425	-4.3521	-3.5979	-3.7167	-4.2604	-3.3833	-4.3562	-3.8312	-3.3792	-4.2937	-3.7708	-3.775	-4.2438	-3.3354	-4.1896	23.842	-92.877	19.831	-152.651	140.856	-77.056	86.731	122.398	74.499	-166.154	60.890	-141.605	-161.851	-115.975	45.252	158.236	0.00062992	0.00083081	0.00018883	838.2	3.2844e-06	2.5271e-06	689.51	313.65	8.8285e-06	8.9452e-06	295.86	111.48	102.1	38.101	5.9847e-06	46.956	0.0057294	0.0065661	0.0018973	908.8	7.1912e-05	7.4571e-05	766.33	342.2	7.2471e-05	7.521e-05	338.14	126.05	116.63	43.446	7.3639e-05	54.246	133.838	-83.268	38.331	-161.401	165.152	-38.921	-162.889	-156.633	-51.982	22.985	-158.751	-154.254	-152.237	-146.610	-150.314	-149.084	-8191	255	
58735.012	1	1	0	0	0.07101	0.27377	0.25397	0.046179	0.11751	0.020128	0.10059	0.21038	0.19099	0.20297	0.24006	0.057782	0.10103	0.080463	0.12315	0.179	-3.5563	-3.4917	-4.2646	-3.6792	-3.6229	-4.2333	-3.5875	-4.1729	-3.9583	-3.3563	-4.4062	-3.5458	-3.725	-4.3396	-3.3667	-4.0312	132.575	3.668	161.871	-65.120	10.388	-0.160	177.978	-171.706	-5.332	-2.891	58.814	-97.651	134.976	-114.712	-170.685	-122.028	0.00070002	0.0013798	0.00033305	832.01	1.1805e-05	6.8591e-06	691.14	312.76	3.8318e-06	3.3286e-06	295.63	111.94	103.06	38.677	1.9732e-06	47.5	0.0058999	0.0068778	0.0019421	910.02	7.261e-05	7.6651e-05	769.59	341.79	7.3556e-05	7.7409e-05	339.87	127.42	117.18	44.031	7.6729e-05	55.119	167.852	-127.086	-157.208	-161.588	40.684	-23.198	-163.248	-156.333	70.228	100.950	-158.866	-153.765	-152.520	-146.461	-87.418	-149.143	-8191	255	
58735.105	1	1	0	0	0.18291	0.26102	0.10842	0.30221	0.059404	0.1429	0.12712	0.19567	0.31547	0.036144	0.057294	0.17145	0.081567	0.18772	0.12561	0.14008	-3.9333	-3.3521	-4.3292	-3.7604	-3.5812	-4.2292	-3.6417	-3.9521	-4.1937	-3.5167	-4.225	-3.7521	-3.625	-4.325	-3.4792	-3.8063	102.309	15.844	-67.530	78.035	109.766	149.526	122.190	163.934	75.529	-113.289	-126.025	181.669	173.816	184.495	-46.279	111.920	0.000767	0.00093386	0.00010749	832.61	1.1362e-05	8.7102e-06	690.21	312.16	1.4733e-05	1.2294e-05	295.05	112.43	102.95	38.483	4.7364e-06	47.732	0.0061613	0.0072022	0.0020293	910.89	7.5822e-05	7.9792e-05	770.77	341.76	7.6515e-05	7.9925e-05	340.33	127.71	117.64	44.196	7.6417e-05	55.052	123.700	147.282	-120.271	-161.210	-55.781	-50.703	-163.035	-156.699	-79.767	0.300	-158.367	-154.111	-152.262	-146.211	175.355	-149.327	-8191	255	
58735.227	1	1	0	0	0.21598	0.046863	0.050749	0.064489	0.29701	0.26209	0.2092	0.20857	0.11744	0.06778	0.11698	0.081268	0.033849	0.15912	0.24436	0.19874	-3.8688	-3.2458	-3.9958	-4.0354	-3.6042	-4.2646	-3.5812	-3.8646	-4.1292	-3.4167	-4.1292	-4.0979	-3.4583	-4.3042	-3.6542	-3.8854	-151.563	107.601	-71.119	-127.677	3.256	-157.724	175.882	-144.603	174.277	131.984	162.407	94.006	-170.506	124.893	-77.444	171.982	0.00059253	0.00042033	0.00025425	833.05	9.4698e-06	6.9181e-06	688.02	313.64	4.9175e-06	9.871e-06	294.04	111.66	103.25	38.414	1.0151e-05	47.049	0.0060436	0.0069626	0.0019475	906.75	7.2175e-05	7.5411e-05	765.22	340.66	7.1895e-05	7.5465e-05	337.14	126.38	117.01	43.669	7.1363e-05	54.012	160.598	-117.053	-112.836	-161.171	-125.602	47.912	-163.002	-156.650	152.217	-33.075	-158.869	-154.379	-152.410	-146.538	-54.381	-149.305	-8191	255	
58735.324	1	1	0	0	0.29823	0.16503	0.10504	0.32549	0.20771	0.14543	0.21876	0.16152	0.0075336	0.095908	0.135	0.056091	0.27285	0.086201	0.22743	0.25869	-4.0396	-3.3937	-4.0792	-4.15	-3.4313	-4.4146	-3.8021	-3.7854	-4.3208	-3.3625	-4.0083	-4.2729	-3.4729	-4.1562	-3.5917	-3.5833	169.768	137.954	-31.597	112.199	166.205	-8.661	99.005	130.201	-15.529	-16.022	55.302	-45.178	157.096	-173.604	-61.962	26.242	0.00075799	0.0011496	0.00023965	836.17	5.4315e-06	5.8981e-06	691.11	315.06	1.0366e-05	6.0116e-06	295.32	111.89	102.98	38.442	1.5362e-05	46.489	0.005725	0.0065833	0.0018389	907.9	7.0154e-05	7.2915e-05	765.75	342	6.9907e-05	7.2136e-05	335.97	125.78	116.73	43.476	6.9069e-05	53.704	138.600	-56.745	-37.995	-161.378	-77.578	-74.067	-163.059	-156.636	-28.636	-0.755	-158.485	-154.404	-152.559	-146.478	-43.336	-149.033	-8191	255	
58735.395	1	1	0	0	0.0077929	0.16925	0.22382	0.24088	0.11246	0.020608	0.094342	0.2325	0.15414	0.16222	0.20096	0.11871	0.28674	0.29896	0.17174	0.055071	-3.8875	-3.3667	-3.6854	-4.2271	-3.3833	-4.2771	-3.9979	-3.6542	-4.2521	-3.475	-3.7479	-4.3854	-3.4458	-4.0708	-3.7958	-3.5875	18.338	135.114	162.765	179.189	-130.873	-146.579	98.357	-23.523	-52.009	-31.308	-1.548	167.095	-90.262	156.994	165.454	100.441	0.00094887	0.0013726	0.0002248	843.51	9.0681e-06	3.9634e-06	693.38	315.92	4.7226e-06	2.1185e-06	294.73	112.67	103.22	38.424	1.6259e-05	47.405	0.0056109	0.0064573	0.0017895	910.44	6.8564e-05	7.1539e-05	764.9	342.05	6.9513e-05	7.1497e-05	336.85	126.71	117.15	43.622	6.9294e-05	54.476	136.640	-77.550	-93.932	-161.393	18.309	-121.858	-162.727	-156.640	-97.525	-93.827	-158.329	-154.392	-152.185	-146.427	-82.653	-148.798	-8191	255	
58735.492	1	1	0	0	0.12387	0.15061	0.1282	0.32894	0.086554	0.22375	0.084736	0.025231	0.034922	0.27413	0.2381	0.1654	0.13092	0.15386	0.10878	0.24789	-3.9521	-3.3187	-3.7396	-4.2521	-3.3583	-4.0583	-4.2562	-3.4229	-4.1062	-3.6021	-3.7646	-4.475	-3.4792	-4.0417	-3.95	-3.4396	84.488	-147.109	172.633	137.398	44.350	140.495	131.039	157.786	166.805	21.448	59.735	151.572	79.587	76.550	-24.045	54.203	0.00098838	0.00093976	0.00016033	837.5	9.6888e-06	9.5993e-06	692.51	314.95	3.0188e-06	6.4375e-06	297.61	112.39	104.08	38.929	1.3968e-06	47.597	0.0056913	0.0065653	0.001799	908.86	6.9032e-05	7.2171e-05	766.36	341.48	7.0173e-05	7.2595e-05	337.34	127.45	117.61	44.117	7.0898e-05	54.879	125.699	-115.705	-82.721	-161.336	-81.314	135.005	-162.683	-156.572	17.501	-52.420	-158.687	-154.164	-152.428	-146.687	176.040	-149.170	-8191	255	
58735.609	1	1	0	0	0.065641	0.19513	0.12263	0.1397	0.098714	0.057039	0.11467	0.36227	0.19002	0.1943	0.25003	0.18686	0.14695	0.1402	0.13121	0.069556	-3.9792	-3.8	-3.6688	-4.4187	-3.5271	-3.9229	-4.1208	-3.5375	-4.3083	-3.7687	-3.6562	-4.3792	-3.4417	-3.9146	-4	-3.5479	-53.579	-104.254	-7.680	113.939	-144.443	-34.569	173.236	-173.228	-39.196	-156.335	155.399	179.409	-107.191	-103.877	2.108	107.421	0.0011449	0.00052831	0.00028793	838.82	2.9768e-06	1.2225e-05	692.21	313.27	6.9339e-06	4.8273e-06	296.02	113.11	103.72	39.01	1.2026e-05	47.298	0.005779	0.0066176	0.0018258	907.02	7.0288e-05	7.2565e-05	766.61	340.75	7.0308e-05	7.2502e-05	338.04	127.21	117.3	44.049	6.9984e-05	54.743	160.780	182.903	-105.498	-161.166	-96.103	35.458	-163.229	-156.542	-104.077	54.624	-158.819	-154.220	-152.167	-146.513	-87.483	-149.042	-8191	255	
58735.707	1	1	0	0	0.2039	0.095493	0.053402	0.15023	0.15943	0.051956	0.15622	0.096662	0.20465	0.12632	0.22826	0.26954	0.2609	0.13635	0.25361	0.097805	-3.7979	-3.8312	-3.4625	-4.3938	-3.6479	-3.8417	-4.3167	-3.4646	-4.1875	-3.8354	-3.4708	-4.2937	-3.5938	-3.8688	-4.1479	-3.6979	-15.083	57.316	-85.032	149.590	-96.571	92.487	122.749	110.835	-147.141	119.173	44.943	81.135	-142.893	91.233	-109.307	157.019	0.0007348	0.00068155	0.00021098	839.99	1.1031e-05	5.5411e-06	694.67	315.12	1.2386e-05	7.6677e-06	297.71	113.29	104.27	38.772	7.8121e-06	47.575	0.0057046	0.0064753	0.0018022	910.16	6.8314e-05	7.0033e-05	768.54	341.61	6.7782e-05	6.9168e-05	337.4	126.92	116.94	43.538	6.6995e-05	54.382	127.577	-121.879	-111.504	-161.321	-74.735	-59.650	-162.876	-156.457	-86.946	-47.213	-158.625	-154.654	-152.237	-146.710	-58.845	-149.092	-8191	255	
58735.805	1	1	0	0	0.017025	0.23105	0.13813	0.20455	0.029711	0.118	0.10245	0.30013	0.094538	0.053223	0.18357	0.15903	0.034486	0.07236	0.20757	0.30491	-3.7125	-4.025	-3.3854	-4.3313	-3.6229	-3.6792	-4.2604	-3.4625	-3.9938	-3.9604	-3.5458	-4.2604	-3.8958	-3.6646	-4.2854	-3.5833	-141.191	141.719	-87.635	-163.499	28.387	174.101	184.748	151.213	179.365	-135.965	137.415	-75.810	-44.568	-142.933	-109.640	98.593	0.00068735	0.00066222	0.0003392	851.45	1.0057e-05	7.6868e-06	696.08	315.15	1.6372e-05	1.3019e-05	299.61	112.97	103.89	38.831	5.1526e-06	47.514	0.0053851	0.0061022	0.001732	913.44	6.5563e-05	6.7201e-05	769.27	342.09	6.592e-05	6.7791e-05	338.56	126.91	117.08	43.569	6.7591e-05	54.402	135.616	74.902	-98.774	-161.241	-164.587	24.525	-162.561	-156.524	-48.329	-38.154	-158.403	-154.183	-152.466	-146.472	-132.502	-149.401	-8191	255	
58735.898	1	1	0	0	0.11246	0.27314	0.12523	0.12314	0.084317	0.26161	0.042612	0.064877	0.17851	0.3159	0.11656	0.12497	0.076778	0.09507	0.11993	0.11631	-3.5208	-4.1396	-3.325	-4.375	-3.7396	-3.6437	-4.4	-3.55	-3.7458	-4.1854	-3.3792	-4.1146	-4.0604	-3.5667	-4.1813	-3.4875	-162.425	53.467	-159.189	-111.968	163.716	141.324	88.147	-156.088	-104.690	-118.541	-49.564	129.895	95.770	110.317	138.323	158.673	0.00082186	0.00052079	0.00010679	847.47	4.0279e-07	1.2872e-05	696.32	316.19	5.0164e-06	1.0143e-05	297.28	112.53	103.71	38.615	1.1999e-05	47.178	0.0054139	0.0062724	0.0017557	912.63	6.5318e-05	6.7581e-05	768.38	342.18	6.5354e-05	6.8265e-05	336.95	126.52	117.02	43.58	6.9084e-05	54.046	134.191	87.222	-73.458	-161.415	162.205	-22.602	-163.049	-156.489	50.636	-58.812	-158.771	-154.087	-152.037	-146.559	-30.866	-149.021	-8191	255	
58735.996	1	1	0	0	0.30446	0.20566	0.1662	0.18586	0.1321	0.14398	0.098087	0.45751	0.11178	0.1938	0.095927	0.12987	0.26684	0.099944	0.12832	0.13302	-3.4667	-4.1708	-3.425	-4.2396	-3.9208	-3.3479	-4.2708	-3.7	-3.5479	-4.2521	-3.3792	-4.0563	-4.0229	-3.4875	-4.2104	-3.8792	35.858	-19.451	81.708	172.415	-30.955	-70.927	-1.167	127.455	-34.426	-90.965	161.979	44.698	-102.744	-135.194	-84.634	111.578	0.0006706	0.00025297	0.00019425	846.89	1.8408e-06	9.595e-06	696.62	316.57	7.5669e-06	1.1782e-05	295.34	111.45	103.94	38.582	7.3961e-06	47.108	0.0054894	0.0064374	0.001789	912.53	6.7565e-05	7.1499e-05	767.31	343.11	6.8849e-05	7.2219e-05	337.14	126.44	117.62	43.678	7.204e-05	54.144	146.230	100.522	-17.544	-161.198	-57.680	-54.549	-163.111	-156.459	-167.879	-46.786	-158.581	-154.376	-152.376	-146.793	-69.935	-149.025	-8191	255	
58736.090	1	1	0	0	0.12164	0.045617	0.10459	0.17933	0.24518	0.2313	0.14024	0.16733	0.1632	0.13448	0.30937	0.054269	0.1036	0.11897	0.16903	0.11812	-3.1063	-4.3	-3.2958	-4.0625	-3.9354	-3.4042	-4.4271	-3.8042	-3.4792	-4.3229	-3.4688	-4.0333	-4.125	-3.2833	-4.2333	-3.8854	162.997	-19.234	-115.412	-158.496	-29.647	182.648	184.353	60.477	84.418	56.648	173.202	-1.074	114.427	-87.342	-111.405	-171.408	0.00081426	0.00014245	0.00018589	846.47	1.0174e-06	7.4453e-06	696.04	315.36	3.2043e-06	3.2279e-06	293.79	111.31	103.15	38.509	6.2236e-06	46.818	0.0057219	0.0067434	0.0018989	915.15	7.2277e-05	7.5765e-05	772.58	343.95	7.3667e-05	7.7805e-05	339.29	126.91	117.63	43.795	7.4373e-05	54.356	128.217	48.805	-76.595	-161.338	103.901	93.302	-163.132	-156.211	42.430	94.613	-158.273	-154.228	-152.075	-146.649	24.830	-149.060	-8191	255	
58736.211	1	1	0	0	0.13672	0.12264	0.11591	0.22825	0.11186	0.28091	0.17459	0.13064	0.23163	0.23854	0.061815	0.22266	0.11975	0.095652	0.21274	0.14073	-3.4125	-4.2792	-3.3896	-4	-4.1104	-3.4083	-4.3042	-3.8812	-3.5938	-4.3833	-3.7562	-3.9667	-4.3667	-3.4833	-4.1354	-4.15	-171.586	-53.868	-8.302	152.861	-95.950	68.459	170.674	128.291	-97.052	-69.836	-22.557	-108.384	154.830	175.514	-29.864	115.323	0.00084791	0.00090157	0.00022577	842.99	2.8008e-06	6.617e-06	697.65	316.93	1.1512e-05	1.1442e-05	296.07	111.83	103.11	38.601	5.9511e-06	47.232	0.0059401	0.0068966	0.0019188	915.99	7.3284e-05	7.5544e-05	776.01	344.3	7.3652e-05	7.7322e-05	340.68	127.42	118.3	44.173	7.4604e-05	54.734	138.637	-41.069	-46.620	-161.489	-22.956	-7.241	-162.830	-156.619	-66.239	-23.670	-158.637	-154.541	-152.350	-146.370	-50.313	-149.603	-8191	255	
58736.309	1	1	0	0	0.27517	0.15108	0.13227	0.15977	0.2066	0.35709	0.16215	0.13033	0.070403	0.27592	0.18667	0.14752	0.05401	0.063883	0.094204	0.13517	-3.1854	-4.3833	-3.4458	-3.5854	-4.2354	-3.3833	-4.0417	-4.1292	-3.3292	-4.35	-3.8354	-3.4479	-4.2875	-3.4875	-3.9625	-4.0104	-154.264	-119.140	-122.049	78.145	-65.535	136.907	178.971	46.999	159.975	-138.377	32.803	101.749	-166.673	74.302	183.613	-120.976	0.00079049	0.00050874	0.00023228	840.41	9.6529e-06	1.3077e-05	692.82	315.81	8.978e-06	1.1491e-05	297.59	113.21	104.05	38.865	5.596e-06	47.076	0.0059439	0.0068224	0.0018839	911.17	7.0895e-05	7.2869e-05	768.92	342.49	6.9286e-05	7.2137e-05	336.88	126.65	117.49	43.795	6.7918e-05	54.168	124.841	-74.369	180.422	-161.374	-79.596	-90.364	-163.296	-156.604	-102.337	-67.145	-157.973	-153.944	-152.327	-146.588	78.831	-148.886	-8191	255	
58736.402	1	1	0	0	0.16911	0.13864	0.1596	0.21628	0.10946	0.18374	0.27354	0.16384	0.15069	0.05043	0.095508	0.38128	0.11278	0.23454	0.0375	0.22436	-2.9917	-4.1146	-3.6646	-3.6792	-4.3083	-3.4542	-4.0188	-4.1542	-3.4229	-4.075	-3.8021	-3.5104	-4.3667	-3.6083	-4.0208	-4.3667	-49.215	63.874	3.974	172.267	-161.222	-42.069	-148.281	112.122	178.820	-151.643	138.268	141.707	123.993	72.314	45.245	117.654	0.00072949	0.00086574	4.764e-05	840.13	1.2654e-05	1.096e-05	693.16	317.07	2.7369e-06	1.4333e-05	296.84	112.84	104.32	38.668	1.4199e-05	47.511	0.0055058	0.0064099	0.0017715	908.81	6.791e-05	7.0336e-05	766.56	343.01	6.82e-05	7.0634e-05	336.51	126.71	117.68	43.851	6.8176e-05	54.414	158.138	-89.538	-168.800	-161.325	-42.721	-52.868	-162.830	-156.300	-68.465	-0.990	-158.160	-154.380	-152.283	-146.668	-68.003	-149.081	-8191	255	
58736.500	1	1	0	0	0.082941	0.12329	0.024609	0.061992	0.21312	0.20531	0.18856	0.16662	0.11895	0.22066	0.07572	0.25037	0.23748	0.17134	0.11158	0.13549	-2.8625	-4.1062	-3.9896	-3.4542	-4.2771	-3.5604	-4.0396	-4.3583	-3.2917	-4.1208	-4.1687	-3.5042	-4.1854	-3.575	-3.8333	-4.3583	139.532	63.037	67.073	-134.529	-53.682	-125.210	73.123	122.542	183.856	139.112	-168.889	-140.684	84.996	-135.801	121.945	61.690	0.00056556	0.00066726	0.00023596	843.97	7.8646e-06	8.1779e-06	698.29	315.9	1.1579e-05	3.9494e-06	299.31	113.36	104.27	38.864	1.4558e-06	47.742	0.0055401	0.0063515	0.0017548	911.21	6.7293e-05	6.8824e-05	769.17	343.28	6.6674e-05	6.9552e-05	337.74	127.18	117.67	43.766	6.8197e-05	54.474	154.383	-122.826	33.870	-161.142	-44.258	58.833	-163.089	-156.494	39.359	153.181	-158.656	-154.146	-152.208	-146.518	46.316	-148.654	-8191	255	
58736.617	1	1	0	0	0.050024	0.10497	0.14427	0.35133	0.18605	0.15774	0.1894	0.10953	0.038715	0.055039	0.15908	0.096701	0.33811	0.12643	0.12134	0.089941	-3.0208	-3.9375	-3.9875	-3.4958	-4.1604	-3.6208	-3.6813	-4.3542	-3.5958	-4.0292	-4.2271	-3.6042	-4.2875	-3.6854	-3.5604	-4.2	-123.500	61.810	-48.179	116.263	143.288	-28.721	-151.172	81.487	-20.305	149.317	64.774	159.499	62.896	21.475	-92.587	76.577	0.00081955	0.00086389	1.9102e-05	845.55	7.7541e-06	1.0747e-05	700.2	318.4	8.7447e-06	1.2048e-05	299.15	113.45	104.49	38.786	9.0089e-06	47.265	0.0055135	0.0063019	0.0017543	911.63	6.646e-05	6.7534e-05	769.74	343.66	6.4904e-05	6.6574e-05	336.99	126.51	117.19	43.328	6.2312e-05	53.788	154.495	108.567	57.789	-161.227	-60.204	-59.019	-163.098	-156.435	-82.165	1.702	-158.041	-154.021	-151.972	-146.439	-22.183	-148.890	-8191	255	
58736.691	1	1	0	0	0.082713	0.10917	0.39707	0.041877	0.11636	0.26141	0.17764	0.25023	0.068811	0.25281	0.098138	0.047422	0.18213	0.03605	0.17383	0.16802	-2.9708	-3.8833	-4.0312	-3.4562	-4.0417	-3.7875	-3.5917	-4.2083	-3.4708	-3.8521	-4.3562	-3.4292	-4.2521	-3.9437	-3.525	-4.3438	98.382	-102.862	-16.050	-76.669	-97.432	-125.683	71.480	173.901	41.296	113.194	-168.558	-94.257	-165.652	-46.648	135.869	-117.897	0.00077011	0.0010795	2.8798e-05	847.6	5.0476e-06	9.1507e-07	699.63	318.08	5.5216e-06	3.5142e-06	297.87	113.36	104.52	38.825	6.5931e-06	47.953	0.0050117	0.0057607	0.0016113	910.33	6.1226e-05	6.3152e-05	764.82	342.1	6.1392e-05	6.3491e-05	335.71	125.84	116.45	43.303	6.1947e-05	53.79	129.821	-78.895	-66.515	-161.478	-51.687	-16.328	-163.083	-156.468	-90.153	151.581	-158.490	-154.204	-151.978	-146.629	-71.908	-149.163	-8191	255	
58736.785	1	1	0	0	0.10122	0.16272	0.080564	0.13216	0.087456	0.043292	0.13596	0.067195	0.16183	0.085556	0.17546	0.25085	0.1049	0.089299	0.029362	0.13407	-3.0312	-3.6229	-4.1813	-3.5042	-3.9958	-3.8667	-3.4188	-4.3729	-3.7042	-3.6917	-4.4479	-3.2938	-3.9354	-4.0563	-3.1979	-4.3125	-67.124	71.261	-82.283	-149.506	24.882	13.163	39.029	123.233	6.772	-99.705	-93.723	156.620	-119.103	138.983	178.397	112.088	0.00075299	0.0010617	0.00023898	848.23	1.0166e-05	4.5172e-06	697.39	319.68	6.2829e-06	5.1845e-06	299.31	112.75	104.83	38.662	1.1337e-05	47.262	0.0049727	0.0057316	0.0016153	909.64	6.1026e-05	6.319e-05	766.88	342.61	6.1293e-05	6.3959e-05	335.56	126	116.84	43.187	6.1319e-05	53.671	125.341	-38.685	125.050	-161.301	-69.971	-18.799	-163.089	-156.268	-46.411	76.248	-158.376	-154.199	-152.268	-146.496	-99.090	-149.109	-8191	255	
58736.883	1	1	0	0	0.17229	0.33063	0.16931	0.13056	0.1533	0.086	0.10575	0.090321	0.14513	0.37497	0.098689	0.053404	0.34995	0.38985	0.11946	0.17405	-3.2708	-3.5271	-4.0771	-3.5417	-3.9938	-4.0958	-3.3187	-4.2625	-3.7583	-3.4854	-4.2937	-3.6021	-4.0479	-4.2396	-3.2667	-4.1875	64.093	-143.068	-85.718	16.089	22.881	-85.762	-140.270	-15.425	39.014	-112.622	-109.446	115.782	150.660	111.452	-145.704	110.069	0.00071308	0.00093035	0.00015127	848.93	4.557e-06	9.6343e-06	702.36	320.75	5.8671e-06	1.5511e-05	302.65	112.92	104.44	38.603	1.4398e-05	47.681	0.0049036	0.0056702	0.0015721	910.57	5.8941e-05	6.1105e-05	766	343.27	5.7957e-05	6.0281e-05	335.66	125.12	116.26	42.976	5.7232e-05	53.35	142.127	-81.996	-137.396	-161.353	169.707	60.380	-163.238	-156.329	-154.536	-24.290	-158.260	-154.295	-152.459	-146.292	-78.528	-149.312	-8191	255	
58737.004	1	1	0	0	0.084442	0.24658	0.12045	0.016331	0.13252	0.16556	0.28805	0.27636	0.29975	0.14202	0.035352	0.18958	0.27328	0.16664	0.11064	0.026025	-3.5312	-3.325	-4.2833	-3.6562	-3.6542	-4.15	-3.4542	-4.2771	-3.8917	-3.5896	-4.2667	-3.6188	-3.8604	-4.175	-3.2417	-4.1604	170.253	-172.488	-86.423	-73.322	-37.405	102.468	144.241	161.708	-4.181	89.856	-29.202	155.363	-125.505	-156.216	-147.334	-78.133	0.0009273	0.0010669	0.00048891	855.52	1.4692e-05	1.0981e-05	708.56	320.41	5.9816e-06	7.9467e-06	300.79	112.88	105.64	38.86	6.4692e-06	47.329	0.0046039	0.0052758	0.0014786	910.08	5.5876e-05	5.8586e-05	766.22	342.91	5.7153e-05	5.9316e-05	335.01	125.33	116.62	43.21	5.8652e-05	53.578	159.751	-44.019	-64.088	-161.173	-22.603	-74.632	-162.830	-156.281	-7.757	-17.211	-158.496	-153.972	-152.351	-146.639	-130.984	-149.225	-8191	255	
58737.102	1	1	0	0	0.15635	0.088471	0.13251	0.29043	0.25021	0.10703	0.17642	0.20559	0.35422	0.1571	0.23696	0.30857	0.20692	0.31375	0.15364	0.22286	-3.5979	-3.475	-4.2917	-3.7583	-3.5563	-4.3542	-3.4	-4.2729	-4.1188	-3.5375	-4.3104	-3.9021	-3.7479	-4.3146	-3.3063	-3.9938	-139.027	-120.496	64.899	92.995	137.173	150.652	128.052	131.311	47.076	93.762	134.246	103.976	-167.924	90.408	143.370	-16.081	0.00089754	0.0015486	0.00035775	849.61	2.0988e-06	3.8588e-06	698.66	318.82	4.6224e-06	5.4066e-06	300.39	114.4	104.71	39.04	3.3319e-06	47.655	0.0047809	0.0054813	0.0015415	905.51	5.8343e-05	6.0479e-05	762.36	341.61	5.8287e-05	6.039e-05	334.47	125.81	116.68	43.33	5.8726e-05	53.666	147.070	-87.419	-134.033	-161.186	96.689	36.289	-163.204	-156.468	-55.467	-95.748	-158.290	-154.052	-152.017	-146.406	-13.515	-148.864	-8191	255	
58737.195	1	1	0	0	0.080888	0.19914	0.11561	0.22374	0.019709	0.082743	0.048763	0.21399	0.17981	0.30025	0.10271	0.014555	0.092114	0.055487	0.17731	0.26807	-3.7542	-3.2417	-4.2896	-3.9813	-3.5687	-4.3	-3.5687	-3.9313	-4.0375	-3.6	-4.2396	-3.9521	-3.6479	-4.3042	-3.5187	-3.9229	94.441	-157.584	181.336	-161.086	150.206	11.140	71.263	110.776	6.667	45.505	-57.960	124.635	-42.636	-93.372	-116.389	38.466	0.00062114	0.00054022	0.00011252	849.72	1.187e-05	8.3184e-06	700.44	320.17	7.6832e-06	7.1754e-07	301.19	114.06	106.01	38.794	3.0265e-06	47.753	0.0047303	0.0054339	0.0015097	906.89	5.7447e-05	5.9442e-05	762.33	342.2	5.7302e-05	5.9813e-05	334.98	125.63	116.6	43.177	5.7186e-05	53.625	148.894	-40.853	169.006	-161.216	-64.410	-41.046	-162.866	-156.271	-120.357	161.385	-158.018	-154.432	-152.597	-146.347	-80.578	-148.982	-8191	255	
58737.293	1	1	0	0	0.078514	0.071066	0.14462	0.10945	0.073501	0.15171	0.088487	0.095969	0.22056	0.045173	0.16871	0.27707	0.1113	0.26754	0.21746	0.11339	-3.7833	-3.2979	-4.1417	-4.2271	-3.4625	-4.2667	-3.5854	-3.9062	-4.225	-3.3667	-4.2188	-3.9396	-3.5042	-4.2792	-3.6562	-3.7	-135.094	-161.203	162.100	140.990	46.872	157.888	165.601	106.984	-141.827	12.883	162.783	129.653	64.956	-145.708	28.590	-91.536	0.00091299	0.0010049	9.267e-05	851.59	2.6586e-06	9.418e-06	706.71	319.17	1.2559e-05	4.2054e-06	300.28	113.72	104.77	39.19	1.3111e-05	48.24	0.0046716	0.0053597	0.0014895	908.95	5.7005e-05	5.9018e-05	766.41	343.11	5.83e-05	6.027e-05	336.4	126.14	116.63	43.376	5.8308e-05	53.904	134.421	-85.704	160.299	-161.368	183.055	132.249	-162.889	-156.672	-156.990	-13.187	-158.355	-154.349	-152.299	-146.572	-74.770	-148.885	-8191	255	
58737.387	1	1	0	0	0.096206	0.080571	0.10431	0.15416	0.068922	0.087559	0.090546	0.16127	0.10783	0.10917	0.070825	0.093392	0.15301	0.22868	0.24489	0.12781	-3.9542	-3.3521	-3.8667	-4.1062	-3.3146	-4.2583	-3.8333	-3.575	-4.3479	-3.2667	-4.0417	-4.2583	-3.5521	-4.275	-3.6958	-3.675	-79.607	-130.479	172.455	108.255	-86.387	38.595	25.730	127.600	-131.260	-54.627	180.722	156.802	68.654	15.319	16.383	54.856	0.00081268	0.0010418	0.00010219	856.67	1.0878e-05	4.8315e-06	704.12	320.79	1.3712e-05	2.4914e-06	303.22	113.13	104.6	38.949	4.7109e-06	47.463	0.0047453	0.0054183	0.001519	910.95	5.6903e-05	5.8974e-05	765.98	342.33	5.7066e-05	5.8756e-05	335.4	125.76	116.24	43.277	5.7662e-05	53.579	127.711	-47.798	-68.250	-161.108	-76.294	0.074	-162.937	-156.674	-61.993	12.524	-158.604	-154.277	-152.398	-146.206	-144.903	-149.124	-8191	255	
58737.484	1	1	0	0	0.069086	0.07511	0.15588	0.054549	0.10547	0.06017	0.28341	0.14247	0.059519	0.14265	0.12408	0.12803	0.15624	0.12261	0.18042	0.13796	-4.0625	-3.3625	-3.8417	-4.4333	-3.3729	-4.1958	-3.9458	-3.3708	-4.2375	-3.4562	-3.5979	-4.2729	-3.5354	-4.3458	-3.9188	-3.4729	130.368	172.744	-155.555	-173.943	35.873	78.123	123.165	51.040	64.725	144.757	-105.163	21.948	138.652	65.837	-132.559	70.425	0.00074417	0.00034845	0.00015185	850.08	1.229e-05	1.2738e-05	710.14	318.73	3.7201e-06	5.2186e-06	300.06	114.61	105.1	38.952	7.8489e-06	47.738	0.0047107	0.0053606	0.001507	909.7	5.6884e-05	5.915e-05	766.54	342.02	5.7255e-05	5.903e-05	334.39	125.91	116.47	43.222	5.8496e-05	53.686	149.460	23.354	-65.530	-161.329	-79.324	-67.093	-163.023	-156.400	37.025	-134.061	-158.329	-153.965	-151.934	-146.326	-72.027	-149.131	-8191	255	
58737.582	1	1	0	0	0.012066	0.062447	0.13384	0.18945	0.19963	0.073031	0.4106	0.13361	0.07897	0.024951	0.16232	0.18746	0.1396	0.31858	0.081805	0.083168	-4.1021	-3.5396	-3.65	-4.4167	-3.3792	-4.0208	-4	-3.2917	-4.2083	-3.4979	-3.5458	-4.4167	-3.4729	-3.8875	-4.0292	-3.5062	-88.036	-37.344	-14.664	82.698	-94.609	160.221	149.608	122.874	-77.891	-152.519	-49.351	163.081	23.685	-141.106	18.553	99.075	0.00062047	0.00034231	0.00031518	851.65	9.6823e-06	1.528e-06	709.35	319.42	1.1624e-05	1.0439e-05	302.27	113.93	104.56	38.947	8.734e-06	47.768	0.0046727	0.0053136	0.0015017	909.46	5.6693e-05	5.8366e-05	768.57	342.63	5.7443e-05	5.9354e-05	336.52	125.99	116.46	43.317	6.0131e-05	53.875	131.991	-66.211	-31.826	-161.061	-76.804	-3.134	-162.810	-156.291	-42.455	-126.762	-158.473	-154.167	-152.219	-146.543	-49.121	-148.856	-8191	255	
58737.699	1	1	0	0	0.24196	0.16462	0.19951	0.18251	0.18927	0.45106	0.19173	0.18376	0.10883	0.23743	0.077665	0.21509	0.26219	0.20121	0.16634	0.36283	-3.7375	-3.7146	-3.4688	-4.2604	-3.4646	-3.9688	-4.2021	-3.3396	-4.2562	-3.7083	-3.6375	-4.2583	-3.6229	-3.9854	-4.1	-3.5312	-87.542	148.080	-93.591	44.905	85.184	-128.485	54.651	-114.188	18.306	-94.420	-37.312	-170.095	-153.083	-133.248	-169.103	-160.194	0.00066866	0.00035084	0.00014784	853.54	1.4289e-05	9.3086e-06	705.99	320.49	1.6245e-06	9.585e-06	300.15	113.43	104.59	38.86	6.407e-06	47.639	0.0049145	0.0056791	0.0015872	914.4	6.0532e-05	6.3507e-05	771.19	344.34	6.1842e-05	6.4406e-05	337.44	126.58	117.13	43.557	6.2308e-05	53.854	127.229	-77.970	48.511	-161.143	-25.586	-29.512	-163.106	-156.068	-112.993	-147.255	-158.499	-154.145	-152.153	-146.712	-61.727	-149.125	-8191	255	
58737.797	1	1	0	0	0.073146	0.11764	0.050412	0.34213	0.14755	0.067693	0.12441	0.2624	0.065134	0.19211	0.18147	0.083132	0.25869	0.18865	0.050647	0.044661	-3.7875	-3.7917	-3.5625	-4.3583	-3.5354	-3.7604	-4.2479	-3.3688	-4.1104	-3.8688	-3.675	-4.4875	-3.6521	-3.6833	-4.0479	-3.4146	134.022	-145.972	144.384	126.038	-83.173	-167.739	86.493	147.079	-54.785	182.190	112.015	-108.858	116.062	-123.114	104.634	119.672	0.00073589	0.00044219	0.00037024	851.64	6.4946e-06	8.0412e-06	702.2	318.39	6.2526e-06	1.1102e-05	298.75	112.91	104.5	38.624	9.295e-06	47.581	0.0049662	0.0057084	0.0015915	912.36	5.9425e-05	6.1913e-05	766.67	342.54	5.9813e-05	6.2467e-05	334.64	125.35	116.47	43.246	6.0775e-05	53.476	150.543	-40.617	-151.952	-161.229	-155.714	17.734	-163.256	-156.700	-96.591	-53.556	-158.368	-154.369	-152.188	-146.675	-84.962	-149.362	-8191	255	
58737.891	1	1	0	0	0.15802	0.18795	0.13577	0.26592	0.26882	0.21593	0.06372	0.1184	0.087957	0.19542	0.1935	0.056576	0.12259	0.071055	0.20195	0.22382	-3.6875	-4.1104	-3.4354	-4.4625	-3.6937	-3.6646	-4.3104	-3.4521	-3.925	-4.025	-3.5208	-4.2042	-3.7333	-3.7875	-4.3667	-3.5625	2.931	-74.157	85.259	98.294	-49.065	-100.307	18.161	-57.584	101.719	-98.076	141.029	9.273	96.698	138.025	25.379	81.437	0.00091409	0.00065665	0.0001562	851.01	1.1569e-05	6.7124e-06	700.94	317.59	4.5947e-06	1.168e-05	298.53	113.11	103.69	38.987	1.5586e-05	47.649	0.0049284	0.0056384	0.0015747	907.96	5.9981e-05	6.2423e-05	764.37	341.31	6.1018e-05	6.3702e-05	334.52	125.59	116.33	43.414	6.1677e-05	53.717	138.742	62.276	-71.701	-161.372	-92.014	-119.522	-162.711	-156.323	-113.719	-37.574	-158.588	-154.688	-152.278	-146.531	34.649	-149.205	-8191	255	
58737.988	1	1	0	0	0.040425	0.13639	0.26574	0.16346	0.13816	0.21338	0.057542	0.25043	0.1715	0.17436	0.19259	0.13739	0.21263	0.16304	0.21784	0.1337	-3.5938	-4.0833	-3.4667	-4.2333	-3.6625	-3.5917	-4.3	-3.4979	-3.7208	-4.2063	-3.4083	-4.1542	-3.9396	-3.6	-4.2667	-3.5458	80.753	20.496	99.652	171.506	-11.940	3.839	82.132	147.579	-92.840	-53.484	-151.762	-56.121	59.432	143.583	-49.497	161.773	0.00074089	0.00090345	0.00051266	841.32	8.3641e-06	1.4869e-05	698.08	316.56	4.5978e-06	5.3954e-06	298.89	113.58	104.24	38.952	9.8706e-06	47.605	0.0049647	0.0057053	0.0015852	903.19	6.0493e-05	6.2143e-05	764.15	340.18	6.039e-05	6.276e-05	334.2	125.81	116.22	43.383	6.0946e-05	53.823	133.829	-76.146	-120.236	-161.691	-132.973	-86.964	-162.880	-156.312	121.229	-125.881	-158.433	-154.304	-152.162	-146.544	23.705	-149.021	-8191	255	
58738.086	1	1	0	0	0.15004	0.3219	0.117	0.11207	0.093205	0.10188	0.14477	0.10789	0.27184	0.12213	0.2452	0.2829	0.1652	0.17689	0.085105	0.082555	-3.3854	-4.0771	-3.225	-3.9729	-3.8271	-3.4167	-4.4271	-3.5479	-3.6708	-4.2146	-3.3958	-4.1896	-3.9104	-3.5	-4.1583	-3.6312	-131.804	46.170	116.862	5.504	-79.675	-120.705	48.565	152.974	176.335	32.090	41.708	80.009	-103.418	92.775	-35.418	-168.093	0.0010045	0.00022653	0.00018812	843.68	7.8571e-06	1.2272e-05	703.49	316.27	5.3494e-06	1.2658e-05	297.5	112.72	104.44	38.926	8.3505e-06	47.587	0.0049158	0.0056596	0.0015702	901.83	6.0375e-05	6.2319e-05	764.94	339.23	6.0657e-05	6.3161e-05	332.93	125.59	116.14	43.313	6.1506e-05	53.898	147.480	-75.795	-85.054	-161.474	-71.306	-43.989	-162.734	-156.650	-134.846	36.065	-158.370	-154.011	-152.280	-146.287	-103.376	-149.059	-8191	255	
58738.180	1	1	0	0	0.14369	0.032312	0.19695	0.091926	0.2969	0.11713	0.25291	0.14659	0.10724	0.23034	0.2037	0.16034	0.23827	0.093627	0.092106	0.0061966	-3.2354	-4.2229	-3.4708	-4.0396	-4.1646	-3.5104	-4.2125	-3.8438	-3.5292	-4.3333	-3.3167	-3.9042	-4.1458	-3.2104	-4.0333	-3.8812	-67.991	-7.894	174.823	-165.423	173.447	-155.258	132.558	166.816	-44.831	-62.324	-154.663	-149.919	182.947	-105.443	175.076	176.251	0.00077192	0.0012852	0.00014096	841.63	1.0363e-05	1.6384e-05	693.88	315.19	1.1326e-05	2.2958e-05	294.78	112.08	103.72	38.624	7.7075e-06	47.311	0.004997	0.0057473	0.0016096	900.47	6.2109e-05	6.413e-05	758.21	338.9	6.2165e-05	6.4526e-05	332.15	125.05	116.02	43.26	6.2696e-05	53.606	133.886	-92.544	126.240	-161.560	-52.782	-108.736	-162.841	-156.697	-44.218	10.198	-158.151	-154.341	-152.330	-146.705	-114.662	-149.165	-8191	255	
58738.301	1	1	0	0	0.13583	0.094887	0.18294	0.12879	0.031044	0.096007	0.12107	0.068792	0.073431	0.13145	0.15954	0.12676	0.39117	0.22288	0.19854	0.20354	-3.125	-4.3688	-3.5021	-3.9542	-4.2104	-3.2958	-4.1583	-3.7771	-3.3042	-4.3396	-3.7354	-3.8042	-4.1042	-3.4083	-3.9437	-4.0792	77.006	41.022	37.441	74.345	71.108	-102.567	-120.660	140.828	-141.229	-65.043	180.858	149.382	-172.962	139.729	22.274	42.969	0.00067157	0.0008168	0.00019996	835.24	9.0217e-06	4.3468e-06	690.92	314.77	2.9018e-06	1.8506e-05	295.32	111.9	103.76	38.705	1.324e-06	47.164	0.0050599	0.0058379	0.0016177	897.42	6.2077e-05	6.3415e-05	756.86	338	6.0927e-05	6.3079e-05	331.2	124.37	115.16	43.063	6.0771e-05	53.369	120.514	-72.878	24.564	-161.429	-85.616	-82.367	-163.042	-156.407	-135.844	-32.952	-158.345	-154.269	-152.241	-146.539	-66.457	-149.140	-8191	255	
58738.398	1	1	0	0	0.22137	0.17584	0.2656	0.30645	0.08984	0.23129	0.10604	0.11037	0.053049	0.24793	0.14481	0.14239	0.19185	0.13601	0.25955	0.20856	-3.0292	-4.4604	-3.5354	-3.7438	-4.2875	-3.5396	-4.0333	-4.0854	-3.5	-4.3479	-3.8417	-3.6292	-4.1438	-3.6542	-3.9708	-4.0667	134.857	54.834	77.366	123.516	-140.378	-16.616	14.724	153.411	-135.088	0.652	-163.174	-103.993	-142.324	96.744	-153.663	41.951	0.00092242	0.000151	0.00029258	838.78	7.1065e-06	2.0941e-06	696.5	317.51	1.0153e-05	4.5177e-06	298.23	113.03	104.42	38.815	6.3083e-06	47.679	0.0048733	0.0055838	0.0015665	897.52	5.9201e-05	6.0462e-05	756.94	339.02	5.9063e-05	6.0978e-05	332.65	124.73	115.85	43.24	6.037e-05	53.88	149.313	-108.500	-114.620	-161.336	-1.312	-95.794	-163.139	-156.541	-59.518	-98.246	-158.556	-153.961	-152.159	-146.348	-15.346	-149.172	-8191	255	
58738.492	1	1	0	0	0.44503	0.096977	0.15059	0.27513	0.10744	0.20148	0.12291	0.03574	0.21554	0.090555	0.13398	0.1277	0.070852	0.2258	0.13482	0.096783	-3.0938	-4.1562	-3.8125	-3.5938	-4.2854	-3.5396	-4.025	-4.3375	-3.2188	-4.0583	-3.8812	-3.6729	-4.2438	-3.7021	-3.5938	-4.2812	-52.605	42.197	135.617	177.392	-46.715	-79.303	160.480	23.453	71.556	121.626	60.235	-126.214	48.127	56.719	-159.510	-170.206	0.00072121	0.00096524	0.00021746	837.8	8.0358e-06	1.1292e-05	693.91	314.75	1.1511e-05	4.9133e-06	295.46	112.99	103.89	39.399	2.3335e-06	48.476	0.0048724	0.0056442	0.0015828	899.48	5.9787e-05	6.2085e-05	760.53	338.68	6.047e-05	6.3642e-05	333.44	126.07	116.03	43.946	6.2769e-05	54.749	148.945	-104.591	-118.244	-161.307	114.323	-53.725	-163.173	-156.326	-92.198	-85.583	-158.454	-154.269	-151.974	-146.667	-136.381	-148.811	-8191	255	
58738.566	1	1	0	0	0.036034	0.25509	0.27828	0.18261	0.10023	0.089659	0.1353	0.2499	0.24533	0.21631	0.07276	0.085285	0.15901	0.13761	0.11398	0.18248	-3.0062	-4.0979	-3.7667	-3.6833	-4.3187	-3.6104	-3.875	-4.5375	-3.3937	-4.0917	-4.0646	-3.4396	-4.3833	-3.6979	-3.6312	-4.3083	134.434	124.349	-110.738	-22.788	-99.670	152.932	-135.898	157.875	-128.506	-20.972	135.530	23.174	24.814	159.129	-101.913	94.333	0.00082307	0.0010759	0.00022777	837.49	5.8289e-06	9.4158e-06	688.81	313.33	3.3745e-06	6.3399e-06	296.7	112.9	103.95	39.26	1.523e-05	48.213	0.0050312	0.0058557	0.0016333	894.53	6.1625e-05	6.4066e-05	755.44	336.55	6.1381e-05	6.4583e-05	332.82	125.64	116.2	43.882	6.2415e-05	54.556	145.717	-79.641	-54.501	-161.391	-42.057	-79.174	-162.837	-156.287	-26.160	-165.600	-158.097	-154.087	-152.367	-146.496	-122.738	-149.386	-8191	255	
58738.684	1	1	0	0	0.10512	0.078307	0.13705	0.07592	0.062617	0.12107	0.10855	0.27238	0.080525	0.034787	0.27738	0.067602	0.089005	0.2382	0.29075	0.18098	-3.1542	-3.9708	-4.0604	-3.4604	-4.1062	-3.6208	-3.7562	-4.3646	-3.3979	-3.8021	-4.1771	-3.5312	-4.2063	-3.8729	-3.5229	-4.2146	-14.469	-165.508	-164.346	170.564	25.495	-102.456	171.528	147.000	-66.095	-44.996	146.923	-124.962	-101.929	-96.532	-70.040	177.413	0.0008022	0.00038913	0.00034588	832.07	7.689e-06	1.5901e-05	693.21	312.83	9.7084e-06	7.0821e-06	294.75	113.51	103.24	39.328	6.0504e-06	48.378	0.0050102	0.0058203	0.0016178	891.96	6.0761e-05	6.3708e-05	754.94	337.07	6.0816e-05	6.3863e-05	332.01	125.48	115.86	43.768	6.2077e-05	54.599	150.598	142.736	-160.789	-161.089	-38.661	24.616	-163.137	-156.159	-45.010	22.981	-158.436	-154.682	-151.875	-146.405	167.356	-149.154	-8191	255	
58738.781	1	1	0	0	0.16405	0.038389	0.039388	0.31215	0.11555	0.044071	0.14745	0.11611	0.098078	0.097094	0.26445	0.26048	0.14236	0.1944	0.081335	0.14255	-3.2354	-3.7521	-4.1	-3.65	-4.1542	-3.8604	-3.5021	-4.2021	-3.475	-3.6688	-4.4271	-3.4333	-4.2542	-4.0229	-3.4583	-4.3208	80.568	183.939	31.559	35.400	-7.577	-67.086	106.849	139.854	95.165	-149.000	145.954	-57.320	-138.692	125.209	-75.729	41.401	0.00083233	0.00062211	0.00030003	829.71	6.0055e-06	1.1077e-05	691.98	314.79	7.8226e-06	6.6003e-06	296.05	114.16	103.98	39.478	6.2168e-06	48.848	0.0050442	0.005797	0.0016176	891.94	6.1789e-05	6.375e-05	757.38	337.33	6.1533e-05	6.4334e-05	332.85	126.51	116.37	44.075	6.2066e-05	55.011	140.778	-117.801	-104.325	-161.521	-29.020	-32.491	-163.142	-156.092	-84.140	-8.130	-158.094	-154.288	-152.447	-146.545	-110.341	-149.087	-8191	255	
58738.875	1	1	0	0	0.022059	0.3794	0.062669	0.16491	0.36595	0.095143	0.052428	0.074838	0.014942	0.11044	0.15147	0.15707	0.25912	0.13595	0.14461	0.20779	-3.0917	-3.5604	-4.2646	-3.45	-3.9667	-3.9958	-3.6292	-4.3688	-3.6375	-3.6771	-4.25	-3.4938	-4.0771	-3.9	-3.3104	-4.1083	-121.245	-132.936	60.722	158.585	-23.577	169.507	97.778	-129.757	-47.590	127.964	-171.956	80.022	120.622	-164.982	125.479	136.003	0.00092771	0.00086785	0.00027345	834.43	8.384e-06	8.1156e-06	691.07	313.68	7.2794e-06	6.1359e-06	295.57	113.71	104.03	39.826	5.8624e-06	48.604	0.0050901	0.0057845	0.0016246	893.02	6.1762e-05	6.3872e-05	756.35	337.22	6.2141e-05	6.4079e-05	333.07	126.29	116.35	44.146	6.1799e-05	54.943	131.686	-44.213	165.960	-161.408	-45.132	-81.280	-162.857	-156.574	-63.871	-67.869	-158.421	-154.358	-152.027	-146.394	22.201	-149.076	-8191	255	
58738.973	1	1	0	0	0.041782	0.049668	0.17577	0.28152	0.10705	0.097399	0.19354	0.040507	0.16201	0.10125	0.22101	0.23318	0.095377	0.11195	0.13335	0.21551	-3.5	-3.5021	-4.15	-3.5938	-3.9625	-4.0583	-3.5	-4.2354	-3.8771	-3.5458	-4.3938	-3.6417	-3.8146	-4.4062	-3.5021	-4.2625	43.613	-31.451	142.387	117.960	120.124	109.997	71.689	-168.852	158.199	-60.016	-21.595	145.314	-136.959	-5.132	149.371	129.837	0.00082204	0.0005003	3.3807e-05	830.25	8.2307e-06	8.2242e-06	688.07	314.39	2.2051e-06	8.8281e-06	295.73	113.37	104.26	39.679	4.2529e-06	49.049	0.0050658	0.0057625	0.0016166	890.07	6.1325e-05	6.363e-05	754.19	336.9	6.137e-05	6.2476e-05	331.89	125.9	116	44.002	5.9727e-05	54.944	140.970	-37.250	72.775	-161.259	-116.042	-9.466	-162.664	-156.385	-152.202	3.405	-158.334	-154.435	-152.318	-146.225	33.542	-149.072	-8191	255	
#DATA ENDS
