BOXY.EXE: ISS Imagent and Oximeter Data Acquisition Program Version 0.80
Ascii Record File

#ACQ INFORMATION
2  Detector Channels 
16  External MUX Channels 
1  Auxiliary Channels 
5000  Waveform (CCF) Frequency (Hz)
1  Waveforms Skipped 
30  Waveforms Averaged 
1  Cycles Averaged 
16  Acquisitions per Waveform 
10.0806  Updata Rate (Hz) 

#FILE INFORMATION
TRUE -- External MUX Channel results are PARSED.
FALSE -- AC DC and Phase are NOT grouped.
TRUE -- Companion Program Settings File CREATED.
FALSE -- AC data not excluded
FALSE -- DC data not excluded
FALSE -- Phase data not excluded
FALSE -- Auxillary Chn. data not excluded
Tab delimiters

#CALIBRATION STATE
TRUE -- Waveform Calibration Values APPLIED.


#AUX CALIBRATION VALUES
Val Type	aux-1	

Term	1.0000e+00	
Factor	0.0000e+00	


#WF CALIBRATION VALUES
A = Detector Channel
Val Type	A-AC1	A-AC2	A-AC3	A-AC4	A-AC5	A-AC6	A-AC7	A-AC8	A-AC9	A-AC10	A-AC11	A-AC12	A-AC13	A-AC14	A-AC15	A-AC16	A-DC1	A-DC2	A-DC3	A-DC4	A-DC5	A-DC6	A-DC7	A-DC8	A-DC9	A-DC10	A-DC11	A-DC12	A-DC13	A-DC14	A-DC15	A-DC16	A-Ph1	A-Ph2	A-Ph3	A-Ph4	A-Ph5	A-Ph6	A-Ph7	A-Ph8	A-Ph9	A-Ph10	A-Ph11	A-Ph12	A-Ph13	A-Ph14	A-Ph15	A-Ph16	

Term	0.00000e+00	0.00000e+00	0.00000e+00	0.00000e+00	0.00000e+00	0.00000e+00	0.00000e+00	0.00000e+00	0.00000e+00	0.00000e+00	0.00000e+00	0.00000e+00	0.00000e+00	0.00000e+00	0.00000e+00	0.00000e+00	0.00000e+00	0.00000e+00	0.00000e+00	0.00000e+00	0.00000e+00	0.00000e+00	0.00000e+00	0.00000e+00	0.00000e+00	0.00000e+00	0.00000e+00	0.00000e+00	0.00000e+00	0.00000e+00	0.00000e+00	0.00000e+00	0.00000e+00	0.00000e+00	0.00000e+00	0.00000e+00	0.00000e+00	0.00000e+00	0.00000e+00	0.00000e+00	0.00000e+00	0.00000e+00	0.00000e+00	0.00000e+00	0.00000e+00	0.00000e+00	0.00000e+00	0.00000e+00	
Factor	1.00000e+00	1.00000e+00	1.00000e+00	1.00000e+00	1.00000e+00	1.00000e+00	1.00000e+00	1.00000e+00	1.00000e+00	1.00000e+00	1.00000e+00	1.00000e+00	1.00000e+00	1.00000e+00	1.00000e+00	1.00000e+00	1.00000e+00	1.00000e+00	1.00000e+00	1.00000e+00	1.00000e+00	1.00000e+00	1.00000e+00	1.00000e+00	1.00000e+00	1.00000e+00	1.00000e+00	1.00000e+00	1.00000e+00	1.00000e+00	1.00000e+00	1.00000e+00	X	X	X	X	X	X	X	X	X	X	X	X	X	X	X	X	

B = Detector Channel
Val Type	B-AC1	B-AC2	B-AC3	B-AC4	B-AC5	B-AC6	B-AC7	B-AC8	B-AC9	B-AC10	B-AC11	B-AC12	B-AC13	B-AC14	B-AC15	B-AC16	B-DC1	B-DC2	B-DC3	B-DC4	B-DC5	B-DC6	B-DC7	B-DC8	B-DC9	B-DC10	B-DC11	B-DC12	B-DC13	B-DC14	B-DC15	B-DC16	B-Ph1	B-Ph2	B-Ph3	B-Ph4	B-Ph5	B-Ph6	B-Ph7	B-Ph8	B-Ph9	B-Ph10	B-Ph11	B-Ph12	B-Ph13	B-Ph14	B-Ph15	B-Ph16	

Term	0.00000e+00	0.00000e+00	0.00000e+00	0.00000e+00	0.00000e+00	0.00000e+00	0.00000e+00	0.00000e+00	0.00000e+00	0.00000e+00	0.00000e+00	0.00000e+00	0.00000e+00	0.00000e+00	0.00000e+00	0.00000e+00	0.00000e+00	0.00000e+00	0.00000e+00	0.00000e+00	0.00000e+00	0.00000e+00	0.00000e+00	0.00000e+00	0.00000e+00	0.00000e+00	0.00000e+00	0.00000e+00	0.00000e+00	0.00000e+00	0.00000e+00	0.00000e+00	-1.87007e+02	-1.34050e+02	-1.37969e+02	-1.83492e+02	-8.77581e+01	-7.32534e+01	-1.58200e+02	-1.62015e+02	-8.49259e+01	-6.14154e+01	-1.70701e+02	-1.71279e+02	-1.78850e+02	-1.76863e+02	-7.95451e+01	-1.49780e+02	
Factor	3.76548e-05	1.51883e-04	4.69219e-05	1.64088e-01	1.62550e-06	1.73594e-06	1.85429e-01	6.04996e-02	1.59724e-06	1.91212e-06	1.00259e-01	3.43440e-02	3.12106e-02	1.08452e-02	1.69460e-06	1.54572e-02	6.25193e-06	7.31936e-06	2.04454e-06	7.75377e-02	7.75653e-08	8.04797e-08	8.23581e-02	2.86645e-02	7.78837e-08	8.09403e-08	4.60320e-02	1.57531e-02	1.49403e-02	5.16929e-03	7.88347e-08	7.14857e-03	X	X	X	X	X	X	X	X	X	X	X	X	X	X	X	X	



#DISTANCE SETTINGS
A = Detector Channel
A-1	A-2	A-3	A-4	A-5	A-6	A-7	A-8	A-9	A-10	A-11	A-12	A-13	A-14	A-15	A-16	

2.5000e+00	3.0000e+00	2.5000e+00	3.0000e+00	2.0000e+00	3.0000e+00	1.5000e+00	3.0000e+00	3.0000e+00	3.0000e+00	3.0000e+00	3.0000e+00	3.0000e+00	3.0000e+00	1.5000e+00	3.0000e+00	

B = Detector Channel
B-1	B-2	B-3	B-4	B-5	B-6	B-7	B-8	B-9	B-10	B-11	B-12	B-13	B-14	B-15	B-16	

1.0000e+01	1.0000e+01	1.0000e+01	1.4400e+00	1.0000e+01	1.0000e+01	1.5100e+00	1.9400e+00	1.0000e+01	1.0000e+01	1.9900e+00	2.4900e+00	2.4100e+00	2.9000e+00	1.0000e+01	2.9800e+00	




#DATA BEGINS
time	group	step	mark	flag	A-AC1	A-AC2	A-AC3	A-AC4	A-AC5	A-AC6	A-AC7	A-AC8	A-AC9	A-AC10	A-AC11	A-AC12	A-AC13	A-AC14	A-AC15	A-AC16	A-DC1	A-DC2	A-DC3	A-DC4	A-DC5	A-DC6	A-DC7	A-DC8	A-DC9	A-DC10	A-DC11	A-DC12	A-DC13	A-DC14	A-DC15	A-DC16	A-Ph1	A-Ph2	A-Ph3	A-Ph4	A-Ph5	A-Ph6	A-Ph7	A-Ph8	A-Ph9	A-Ph10	A-Ph11	A-Ph12	A-Ph13	A-Ph14	A-Ph15	A-Ph16	B-AC1	B-AC2	B-AC3	B-AC4	B-AC5	B-AC6	B-AC7	B-AC8	B-AC9	B-AC10	B-AC11	B-AC12	B-AC13	B-AC14	B-AC15	B-AC16	B-DC1	B-DC2	B-DC3	B-DC4	B-DC5	B-DC6	B-DC7	B-DC8	B-DC9	B-DC10	B-DC11	B-DC12	B-DC13	B-DC14	B-DC15	B-DC16	B-Ph1	B-Ph2	B-Ph3	B-Ph4	B-Ph5	B-Ph6	B-Ph7	B-Ph8	B-Ph9	B-Ph10	B-Ph11	B-Ph12	B-Ph13	B-Ph14	B-Ph15	B-Ph16	aux-1	digaux	

58840.445	1	1	0	256	0.03449	0.1147	0.21913	0.48139	0.11498	0.14728	0.34494	0.064553	0.2524	0.19233	0.18245	0.25764	0.032823	0.19537	0.055558	0.15231	-3.7438	-3.4583	-4.3562	-3.9313	-3.6333	-4.1958	-3.6063	-4.1542	-4.1542	-3.3125	-4.4563	-3.7708	-3.7583	-4.3021	-3.4771	-3.9417	386.703	433.675	398.299	388.141	373.982	96.483	390.056	284.682	236.738	88.700	354.988	329.110	375.711	405.518	117.144	370.950	0.00098947	0.00078061	0.000176	1066.2	4.6929e-06	7.7479e-06	1110.4	335.08	7.9555e-06	7.4749e-06	398.81	135.03	108.58	43.938	8.1581e-06	60.865	0.00048339	0.00042208	0.00012346	986.51	4.7783e-06	4.5305e-06	1025.6	312.12	4.7189e-06	4.5128e-06	373.03	125.2	100.6	41.21	4.7688e-06	57.622	109.626	157.202	177.554	93.606	230.538	217.615	92.419	98.781	231.350	210.707	96.976	102.882	103.674	109.135	225.196	107.437	-8191	255	
58840.543	1	1	0	0	0.027289	0.22952	0.078846	0.22004	0.10086	0.098147	0.21276	0.11337	0.085566	0.16402	0.10448	0.14525	0.16882	0.18182	0.14183	0.40116	-3.7938	-3.2729	-4.1375	-3.9333	-3.4604	-4.4167	-3.5042	-3.8417	-4.3562	-3.3479	-4.3583	-4.0375	-3.6354	-4.4812	-3.6688	-3.8354	134.881	252.681	94.548	112.123	376.418	92.344	351.636	354.397	383.752	329.846	381.612	371.152	132.051	355.181	380.020	352.919	0.0010276	0.00058101	0.00018234	1064.8	1.0144e-05	4.896e-06	1103.7	336.25	1.0368e-05	5.0826e-06	402.85	134.02	107.95	43.611	4.7078e-06	61.414	0.00048179	0.00043041	0.0001198	991.38	4.7114e-06	4.5362e-06	1027.4	312.75	4.7034e-06	4.6512e-06	375.3	125.21	100.8	41.188	4.6846e-06	57.71	113.322	189.476	149.618	93.476	210.497	243.848	92.181	98.541	208.402	217.772	96.860	102.363	103.626	109.261	237.198	107.298	-8191	255	
58840.660	1	1	0	0	0.07973	0.086826	0.15057	0.12072	0.088789	0.13998	0.082975	0.187	0.12693	0.14835	0.25901	0.074939	0.25515	0.20372	0.099043	0.1241	-4.1229	-3.4813	-4.0625	-4.1625	-3.3063	-4.5979	-3.7896	-3.9167	-4.2521	-3.4188	-4.2292	-4.1958	-3.575	-4.3438	-3.7188	-3.7542	161.565	186.408	367.620	230.490	114.042	260.850	276.950	394.379	264.724	316.534	343.464	147.009	364.494	109.095	407.345	207.420	0.001045	0.00048378	0.00020233	1066.2	6.6022e-06	7.3462e-06	1109.9	337.28	8.3821e-06	6.823e-06	401.96	134.45	108.66	43.983	7.3561e-06	61.53	0.00048825	0.00042708	0.00011579	990.95	4.6825e-06	4.6781e-06	1029.9	314.13	4.6819e-06	4.7367e-06	375.33	125.54	101.3	41.35	4.7046e-06	57.914	106.959	178.862	142.354	93.153	204.766	196.906	92.836	98.901	196.978	245.270	97.308	103.030	103.677	109.382	221.460	107.392	-8191	255	
58840.758	1	1	0	0	0.11194	0.11378	0.19023	0.27846	0.07881	0.15623	0.31357	0.085091	0.27557	0.09865	0.14683	0.036992	0.23541	0.10744	0.16431	0.10929	-3.9208	-3.5375	-3.9875	-4.3208	-3.3979	-4.3354	-4.0083	-3.6437	-4.3229	-3.5292	-3.9792	-4.3729	-3.6813	-4.35	-3.8896	-3.6813	158.623	198.044	140.181	388.376	396.907	300.982	401.834	338.182	277.515	367.705	98.615	159.341	98.802	354.228	286.907	390.646	0.0011796	0.00043692	0.00010608	1069.5	8.8339e-07	8.278e-06	1112.8	336.08	7.2436e-06	5.2781e-06	402.14	135.11	108.45	43.907	6.6477e-06	60.928	0.00049513	0.00044366	0.00011619	991.78	4.5899e-06	4.5786e-06	1030.1	313.99	4.5422e-06	4.6944e-06	374.85	125.41	100.99	41.262	4.6767e-06	57.449	111.063	169.380	145.696	93.441	144.409	242.562	92.430	98.831	204.701	223.958	97.472	102.818	103.963	109.117	227.470	107.339	-8191	255	
58840.852	1	1	0	0	0.23746	0.12704	0.018611	0.067892	0.25923	0.072779	0.12638	0.24234	0.14929	0.12756	0.21775	0.11602	0.26935	0.033965	0.14954	0.21905	-4.0479	-3.5125	-3.825	-4.5396	-3.5812	-4.3104	-3.975	-3.5083	-4.3875	-3.6771	-3.8375	-4.4917	-3.4229	-4.1833	-3.9708	-3.5583	239.699	282.861	243.677	408.749	365.041	241.164	427.296	323.363	353.702	215.094	403.753	258.296	83.152	207.364	415.048	336.794	0.0010771	0.00040724	7.6732e-05	1069.5	5.5007e-06	4.8985e-06	1107.2	337.46	3.9266e-06	4.2587e-06	399.97	134.23	107.83	43.876	7.4672e-06	60.96	0.00048725	0.00043224	0.00011915	990.51	4.6302e-06	4.5677e-06	1025.6	313	4.6508e-06	4.6487e-06	373.22	125.06	101	41.335	4.4867e-06	57.436	111.031	164.890	166.465	93.352	184.611	258.391	92.223	98.668	246.091	200.540	97.075	102.778	103.746	108.970	228.545	107.433	-8191	255	
58840.926	1	1	0	0	0.20803	0.24644	0.095924	0.21876	0.22137	0.13433	0.23821	0.17752	0.19606	0.28243	0.419	0.34555	0.14138	0.26123	0.19635	0.26725	-3.85	-3.5896	-3.5438	-4.4563	-3.5354	-4.1458	-4.3771	-3.6479	-4.2708	-4.0271	-3.7812	-4.4229	-3.6896	-4.1208	-4.1333	-3.6375	133.040	423.477	200.939	86.730	414.024	247.735	361.232	440.090	266.090	333.576	344.923	380.887	389.720	100.359	90.449	292.690	0.0010485	0.00034671	0.000131	1071.9	4.6334e-06	4.7529e-06	1110.5	338.14	5.3159e-06	9.4705e-06	403.49	134.25	108.79	44.007	5.9784e-06	61.213	0.00047801	0.0004188	0.00011575	992.68	4.5759e-06	4.5012e-06	1029.5	314.3	4.5839e-06	4.5691e-06	375.42	125.4	101.49	41.408	4.3901e-06	57.675	110.052	154.904	154.611	92.908	206.400	218.732	92.627	98.448	268.170	207.552	96.974	103.100	103.538	109.348	202.560	107.330	-8191	255	
58841.047	1	1	0	0	0.16305	0.077627	0.36223	0.083886	0.23846	0.08517	0.056976	0.083917	0.14267	0.039538	0.17706	0.093136	0.20044	0.042245	0.16065	0.061627	-3.9729	-3.9625	-3.6312	-4.6062	-3.6417	-3.9417	-4.4396	-3.5854	-4.2771	-3.8312	-3.6312	-4.4958	-3.7146	-3.9583	-4.1813	-3.5354	226.917	341.414	389.131	359.613	129.903	104.185	308.620	376.737	335.090	106.751	352.708	374.294	99.805	254.597	376.745	204.620	0.0010696	0.00067728	4.7453e-05	1075.7	7.945e-06	4.8468e-06	1114.9	339.16	5.9838e-06	3.4397e-06	404.4	135.9	108.82	44.038	6.2571e-06	61.31	0.00049424	0.00042991	0.00011395	998.2	4.7295e-06	4.5858e-06	1031.7	315.99	4.6383e-06	4.5291e-06	376.33	126.35	101.91	41.605	4.5407e-06	57.983	115.170	209.579	151.837	93.417	211.931	212.341	92.389	98.647	187.142	249.987	97.332	102.582	103.814	108.934	211.921	107.822	-8191	255	
58841.141	1	1	0	0	0.20618	0.13458	0.11582	0.42145	0.12129	0.14084	0.17883	0.089501	0.11546	0.22799	0.26915	0.088613	0.13025	0.15377	0.17969	0.24286	-3.9021	-4.0792	-3.5458	-4.4021	-3.7104	-3.6271	-4.3979	-3.5375	-4.05	-3.9479	-3.4771	-4.3812	-3.6188	-3.6875	-4.2292	-3.55	171.213	163.843	410.622	396.803	195.345	415.005	397.601	306.097	255.709	318.333	349.061	140.613	383.260	395.525	183.196	358.017	0.0011093	2.466e-05	0.00019382	1076.5	6.8877e-06	6.1123e-06	1115.9	339.15	7.7111e-06	5.48e-06	405.13	136.72	109.49	44.615	6.6771e-06	61.974	0.00049353	0.00042884	0.0001144	998.28	4.6248e-06	4.6524e-06	1030.7	316.2	4.7077e-06	4.6269e-06	377.32	126.81	102.58	42.101	4.7386e-06	58.494	115.601	150.163	150.633	93.496	228.823	223.408	92.568	98.917	177.622	221.279	97.248	102.464	103.640	109.358	238.431	107.672	-8191	255	
58841.238	1	1	0	0	0.05881	0.066175	0.10859	0.054667	0.28274	0.21376	0.44086	0.020357	0.16163	0.22373	0.038169	0.13875	0.24488	0.1051	0.057516	0.42596	-3.7583	-3.9458	-3.2854	-4.3417	-3.7938	-3.7438	-4.5271	-3.6479	-3.9417	-4.2375	-3.6312	-4.4208	-3.9479	-3.7438	-4.3604	-3.6417	230.495	145.731	412.041	263.477	360.310	163.763	372.860	422.606	327.238	125.474	82.543	365.393	106.498	328.791	427.147	366.815	0.0010531	0.00043122	0.00019568	1064.2	4.1556e-06	8.9849e-06	1100.5	342.03	9.3051e-06	8.9319e-06	403.89	136.3	110.22	44.96	8.7619e-06	62.426	0.00049084	0.00043126	0.00012211	990.89	4.6799e-06	4.6385e-06	1023.9	318.16	4.8103e-06	4.6733e-06	377.34	127.25	103.38	42.351	4.8974e-06	59.013	105.800	139.134	172.032	93.272	245.716	198.943	92.544	98.654	193.156	170.518	96.991	102.452	104.052	109.139	214.836	107.621	-8191	255	
58841.336	1	1	0	0	0.20649	0.17855	0.25992	0.016367	0.1369	0.12523	0.15958	0.17028	0.049493	0.13682	0.039005	0.039227	0.055538	0.21747	0.19705	0.045182	-3.625	-4.1646	-3.4104	-4.1958	-3.8917	-3.5687	-4.4812	-3.6312	-3.7542	-4.1896	-3.4646	-4.2188	-4.1833	-3.5667	-4.3583	-3.7625	259.272	207.107	98.815	234.978	276.446	418.235	330.649	368.593	408.931	149.743	360.395	352.490	251.182	402.504	408.211	434.784	0.0010697	0.00025292	0.00016933	1064.2	5.4331e-06	8.1543e-06	1101.3	339.98	5.1798e-06	6.8967e-06	401.68	135.61	109.72	44.637	5.5546e-06	61.875	0.00050531	0.00042838	0.00012262	988.46	4.7788e-06	4.6428e-06	1021.9	316.6	4.8015e-06	4.7888e-06	376.35	126.97	102.8	42.078	4.9078e-06	58.674	110.329	176.844	162.660	93.235	168.613	217.549	92.721	98.495	213.655	245.617	97.103	102.256	103.753	109.498	223.398	107.272	-8191	255	
58841.453	1	1	0	0	0.12503	0.049408	0.14029	0.23429	0.14066	0.1473	0.18631	0.051372	0.090232	0.054449	0.20315	0.17728	0.10643	0.1182	0.11078	0.10888	-3.4208	-4.3021	-3.3729	-4.1292	-3.9896	-3.5708	-4.5146	-3.7938	-3.5979	-4.3187	-3.6063	-3.9833	-4.4292	-3.5771	-4.2229	-3.9708	91.164	150.944	93.604	375.206	137.409	127.103	306.298	383.805	123.839	304.712	398.281	424.282	418.129	412.429	139.557	164.934	0.0011967	0.00049795	0.00013955	1067	9.7918e-06	4.2169e-06	1106.2	339.17	7.8212e-06	6.4207e-06	404.95	135.03	109.65	44.232	6.0432e-06	61.893	0.00051903	0.00044159	0.0001261	987.89	4.8732e-06	4.7423e-06	1024.9	314.95	4.877e-06	4.9842e-06	375.77	126.44	102.04	41.703	4.9474e-06	58.415	112.054	183.073	153.410	93.371	210.615	243.739	92.354	98.989	218.753	246.356	97.019	102.827	104.005	109.495	237.867	107.329	-8191	255	
58841.551	1	1	0	0	0.12569	0.10575	0.27137	0.088802	0.11738	0.15953	0.22788	0.25106	0.1228	0.15031	0.11787	0.075349	0.17255	0.03859	0.13332	0.3091	-3.3187	-4.2021	-3.45	-3.9958	-4.1479	-3.3521	-4.7021	-3.9646	-3.625	-4.3667	-3.6292	-3.9729	-4.4771	-3.5792	-4.2604	-4.0167	372.836	160.697	230.890	382.855	251.619	271.409	411.865	407.177	123.850	188.255	117.040	408.082	391.577	271.417	85.177	365.308	0.00093913	0.00032665	0.00014327	1063.3	6.784e-06	7.5181e-06	1094.2	336.86	1.7171e-06	8.7325e-06	401.21	134.39	108.86	43.947	7.5729e-06	61.822	0.0005097	0.00045578	0.00012398	988.9	4.7927e-06	4.9762e-06	1019.8	313.17	4.8867e-06	5.1379e-06	373.14	125.38	101.49	41.497	5.1367e-06	58.41	112.541	202.544	200.714	93.096	193.450	213.911	92.482	98.860	213.868	197.599	97.026	102.470	104.298	109.245	226.598	107.677	-8191	255	
58841.621	1	1	0	0	0.12879	0.13625	0.039423	0.054513	0.11469	0.3227	0.23257	0.17514	0.0131	0.12161	0.17131	0.2252	0.093249	0.32428	0.27017	0.10468	-3.1688	-4.3625	-3.6583	-3.9583	-4.2271	-3.4521	-4.3958	-4.2042	-3.4729	-4.4708	-3.9125	-3.7229	-4.3396	-3.4688	-4.0854	-4.2292	121.382	351.905	407.752	306.048	267.216	361.385	345.894	404.420	92.263	103.854	274.684	408.900	132.665	352.008	231.661	382.407	0.0010434	0.00076369	0.00023417	1057.8	6.0338e-06	6.9723e-06	1097	337.43	6.4349e-06	3.0612e-06	404.27	136.38	109.69	45.178	5.2759e-06	63.127	0.0005267	0.00048232	0.0001312	983.22	5.1442e-06	5.1358e-06	1015.9	313.52	5.1071e-06	5.0094e-06	374.7	126.93	102.16	42.355	5.2553e-06	59.556	111.106	197.461	163.892	93.001	225.500	230.421	92.188	98.988	211.391	265.799	97.301	102.657	103.689	109.236	221.407	107.570	-8191	255	
58841.742	1	1	0	0	0.19965	0.13478	0.11394	0.027297	0.16219	0.17965	0.13242	0.072485	0.26402	0.098735	0.064668	0.14348	0.12572	0.29425	0.051987	0.039769	-3.1625	-4.2625	-3.6896	-3.6917	-4.2438	-3.5083	-4.0521	-4.2229	-3.4333	-4.2292	-3.9792	-3.6958	-4.4396	-3.5708	-3.8833	-4.2125	336.143	390.307	411.770	128.792	117.453	151.949	87.070	320.028	272.298	368.847	434.737	398.085	384.001	86.228	414.764	326.830	0.0011323	0.0009949	0.00023768	1051.9	7.5999e-06	7.7678e-06	1106.3	338.26	6.7086e-06	4.7737e-06	404.55	138.18	111.16	45.555	4.7029e-06	64.023	0.00052726	0.00049224	0.00012782	978.48	5.1495e-06	5.4056e-06	1019.6	315.6	5.3092e-06	5.1389e-06	378.93	128.93	103.63	42.686	5.3031e-06	60.406	113.171	176.819	152.720	93.520	196.603	199.787	92.462	99.191	216.582	255.723	97.177	102.637	103.458	109.298	239.802	107.451	-8191	255	
58841.836	1	1	0	0	0.26891	0.074015	0.15171	0.44043	0.1122	0.097589	0.25108	0.11073	0.16114	0.096575	0.045452	0.20283	0.099013	0.22889	0.24887	0.10727	-3.1688	-4.1354	-3.9313	-3.6833	-4.3063	-3.5104	-3.9854	-4.2396	-3.3646	-4.2396	-4.0979	-3.5979	-4.3792	-3.6854	-3.8625	-4.2396	335.068	201.874	408.596	440.503	381.653	271.945	378.316	102.226	93.979	310.989	351.447	411.140	364.948	416.126	419.771	290.454	0.0011343	0.00088214	0.00014563	1062.7	7.7277e-06	4.7428e-06	1104.4	341.85	7.1983e-06	5.494e-06	407.64	138.2	111.35	45.416	9.1586e-07	63.77	0.00054392	0.00047969	0.00013547	984.25	5.3326e-06	5.344e-06	1021.4	318	5.4553e-06	5.2358e-06	380.88	128.78	104.04	42.869	5.3765e-06	60.241	109.393	171.889	171.350	93.366	216.415	151.070	92.475	98.567	226.832	257.616	97.087	102.558	103.566	109.222	263.954	107.930	-8191	255	
58841.934	1	1	0	0	0.1223	0.026753	0.19478	0.28845	0.2791	0.35319	0.29643	0.18634	0.17642	0.11041	0.154	0.12882	0.087727	0.30796	0.079614	0.032663	-2.9958	-3.9354	-3.8688	-3.6042	-4.35	-3.8354	-3.7875	-4.3	-3.4771	-3.9271	-4.2063	-3.6146	-4.2688	-3.875	-3.6937	-4.5333	135.994	409.681	255.655	428.907	167.296	397.360	397.295	386.072	172.054	170.605	407.093	430.002	275.695	388.194	101.720	371.917	0.0010929	0.00058986	8.8673e-05	1055.4	5.6165e-06	4.6101e-06	1092.8	338.98	6.276e-06	8.4576e-06	404.66	137.42	110.67	45.571	5.714e-06	63.342	0.00056807	0.00048764	0.00013361	979.85	5.5151e-06	5.561e-06	1013.4	316.85	5.4777e-06	5.4502e-06	378.53	128.47	104.03	43.055	5.3956e-06	60.264	115.243	128.201	131.150	93.711	187.563	210.486	92.669	99.111	233.608	273.751	97.428	102.719	103.806	109.427	216.577	108.081	-8191	255	
58842.027	1	1	0	0	0.12644	0.20299	0.11724	0.153	0.11055	0.049522	0.31959	0.086476	0.12097	0.23454	0.18436	0.12154	0.12146	0.18109	0.039876	0.06285	-2.9917	-3.9146	-4.075	-3.6083	-4.3854	-3.7729	-3.6229	-4.4667	-3.4333	-3.7958	-4.2812	-3.4958	-4.2063	-4.0229	-3.7167	-4.4187	188.812	433.592	436.991	96.625	381.790	381.741	410.193	326.694	381.924	233.027	381.485	270.719	126.702	96.966	112.482	114.229	0.001183	0.00059533	0.00022688	1055.3	7.4552e-06	3.0999e-06	1090.6	342.33	7.5762e-06	3.4508e-06	406.61	137.03	111.52	45.608	8.3898e-06	63.561	0.00056585	0.0004988	0.00013775	980.49	5.4501e-06	5.5098e-06	1012.8	319.59	5.3845e-06	5.1991e-06	379.4	128.51	104.37	42.974	5.1177e-06	60.097	108.977	177.042	170.599	93.462	188.063	288.951	92.547	98.995	259.239	205.497	97.600	102.597	103.993	109.301	191.063	107.334	-8191	255	
58842.148	1	1	0	0	0.14809	0.17241	0.093411	0.44226	0.031653	0.067717	0.17968	0.14634	0.25618	0.056786	0.27369	0.030281	0.074866	0.28938	0.12895	0.21744	-3.1979	-3.8896	-4.1792	-3.7125	-4.1083	-3.9437	-3.7604	-4.3396	-3.6979	-3.675	-4.2667	-3.5792	-3.9437	-4.0667	-3.3542	-4.3896	379.071	199.304	202.788	335.944	149.781	365.948	414.138	405.836	176.089	230.610	421.903	133.158	102.065	355.471	89.035	436.506	0.0010308	0.00085399	0.00022359	1063.2	1.0137e-05	3.7724e-06	1093.9	343.99	5.2463e-06	5.1389e-06	404.32	137.34	112.01	45.317	8.6597e-06	63.338	0.00056013	0.00047649	0.00013077	987.51	5.2793e-06	5.1418e-06	1016.5	321.07	5.2195e-06	5.2913e-06	379.97	128.76	104.75	42.914	5.3166e-06	59.883	112.787	162.640	130.219	93.506	217.534	209.377	92.913	98.593	225.178	230.875	97.472	102.888	103.985	109.309	198.781	107.642	-8191	255	
58842.223	1	1	0	0	0.035212	0.14487	0.10967	0.068797	0.2382	0.11371	0.096561	0.24697	0.021156	0.34186	0.22414	0.036767	0.23462	0.14298	0.15693	0.12941	-3.4354	-3.7021	-4.175	-3.5729	-3.9354	-4.0875	-3.5646	-4.2396	-3.6229	-3.6833	-4.4167	-3.6437	-4.1583	-4.2208	-3.4313	-4.3958	335.077	173.596	208.397	106.153	134.994	414.724	133.425	371.429	376.691	329.688	398.421	369.843	89.801	436.654	349.336	185.183	0.0010483	0.00046333	0.00015948	1061.1	4.7362e-06	5.8364e-06	1088.9	343.33	5.0755e-06	8.9053e-06	406.31	137.33	110.33	45.164	2.037e-06	62.491	0.00053277	0.0004906	0.00013579	986.04	5.3373e-06	5.2528e-06	1014.6	320.02	5.4089e-06	5.3002e-06	379.36	127.71	103.63	42.436	5.3527e-06	59.013	111.321	217.883	183.310	93.242	184.818	205.078	92.540	98.995	210.609	238.408	97.403	102.820	103.930	109.564	187.133	107.533	-8191	255	
58842.344	1	1	0	0	0.098602	0.096149	0.3573	0.21602	0.12419	0.039177	0.094219	0.21177	0.16279	0.11623	0.045661	0.25072	0.11438	0.11581	0.18227	0.093276	-3.5375	-3.4417	-4.3083	-3.5292	-3.8458	-4.1438	-3.5458	-4.2958	-3.7979	-3.6	-4.4875	-3.7229	-3.8333	-4.3271	-3.2646	-4.2354	394.090	142.354	381.000	139.099	107.850	325.476	368.090	313.978	379.461	116.226	412.375	361.341	368.789	86.928	359.991	373.111	0.0010786	0.00062781	5.5314e-05	1046	4.9004e-06	6.7015e-06	1087.9	338.96	1.1933e-05	4.3228e-06	400.68	135.33	109.9	44.405	4.0027e-06	61.374	0.00054228	0.00047721	0.0001318	977.97	5.2416e-06	5.2023e-06	1006.8	316.69	5.2946e-06	5.3196e-06	374.39	126.04	102.61	41.972	5.2573e-06	58.338	111.886	163.156	143.814	93.545	194.085	198.084	92.802	98.879	227.401	221.016	97.471	102.802	103.786	109.650	213.784	107.409	-8191	255	
58842.438	1	1	0	0	0.11787	0.11639	0.14675	0.1466	0.047435	0.17331	0.13421	0.074796	0.25573	0.1516	0.093317	0.14709	0.1173	0.049675	0.21882	0.11442	-3.6458	-3.3917	-4.2688	-3.6271	-3.6229	-4.2188	-3.5792	-4.0437	-4.1229	-3.4229	-4.3125	-3.85	-3.75	-4.3187	-3.4292	-4.1208	392.864	412.785	190.984	386.272	169.337	115.489	347.393	106.268	229.788	144.473	388.273	389.404	242.884	335.995	278.433	429.896	0.00094153	0.00050108	0.00010462	1052.8	5.8884e-06	2.2341e-06	1087.5	336.76	8.2115e-06	4.6664e-06	399.65	134.71	109.62	44.229	6.2587e-06	62.259	0.00051601	0.00049262	0.00013948	976.62	5.0962e-06	5.2149e-06	1006.1	314.08	5.2129e-06	5.3399e-06	373.07	125.91	102.42	41.838	5.1811e-06	58.71	107.796	183.008	168.801	93.715	208.918	155.094	92.671	98.811	210.427	264.724	97.787	102.912	103.823	109.673	228.726	107.754	-8191	255	
58842.535	1	1	0	0	0.23417	0.10211	0.097768	0.15984	0.22653	0.1634	0.11909	0.3107	0.13599	0.097229	0.13935	0.1463	0.12044	0.096698	0.15516	0.21837	-3.7938	-3.4021	-4.2271	-4.0167	-3.8104	-4.1687	-3.6271	-3.9208	-4.2083	-3.4479	-4.3292	-3.8708	-3.6542	-4.425	-3.3375	-3.8854	140.090	394.446	126.100	437.881	186.053	140.924	286.049	413.812	183.699	335.640	387.563	377.559	272.101	415.522	108.698	417.353	0.0010402	0.00037886	0.00023115	1046	4.5464e-06	6.2668e-06	1089.5	338.28	4.0219e-06	6.723e-06	403.47	137.12	109.72	44.493	2.0626e-06	62.52	0.00054251	0.00047722	0.00013604	978.36	5.1511e-06	5.0209e-06	1013.2	316	5.2005e-06	5.2505e-06	377.28	127.47	102.89	42.227	5.144e-06	59.229	110.284	231.535	185.664	93.711	203.766	216.612	92.595	98.918	241.236	232.503	97.602	102.947	103.708	109.537	255.970	107.741	-8191	255	
58842.633	1	1	0	0	0.15236	0.15775	0.26418	0.18336	0.04519	0.12537	0.3779	0.2209	0.24854	0.061765	0.21716	0.087635	0.0077821	0.15345	0.1388	0.071546	-3.9	-3.4604	-4.1021	-3.8958	-3.4396	-4.4187	-3.6708	-3.8333	-4.225	-3.425	-4.2229	-4.1521	-3.5417	-4.4833	-3.4562	-3.7396	369.241	99.806	328.342	88.889	273.575	226.158	384.930	394.175	166.520	280.007	81.129	260.540	354.775	400.349	375.886	256.264	0.0011008	0.00038268	0.00018689	1058.7	7.4753e-06	7.7244e-06	1095.7	336.9	8.2045e-06	3.1785e-06	402.7	135.74	110.38	44.532	5.4435e-06	62.327	0.00053524	0.00047718	0.0001351	983.47	5.2051e-06	5.1705e-06	1016.4	316.33	5.0873e-06	5.2131e-06	377.13	127.08	103.26	42.223	5.3097e-06	58.965	111.516	166.602	197.117	93.646	207.618	248.530	92.818	98.888	182.307	415.734	97.317	103.099	103.867	109.519	239.798	107.722	-8191	255	
58842.750	1	1	0	0	0.089126	0.2967	0.092364	0.17471	0.21038	0.17543	0.21083	0.18136	0.13549	0.14377	0.10513	0.064072	0.095351	0.12501	0.065372	0.13059	-3.8792	-3.3708	-4.0667	-4.2604	-3.3896	-4.3354	-3.7625	-3.7	-4.2604	-3.3458	-4.1917	-4.3063	-3.4271	-4.2312	-3.8125	-3.725	86.550	349.261	355.075	140.542	301.858	138.188	386.820	416.675	226.589	233.584	112.825	407.843	288.441	172.129	163.475	440.288	0.001054	0.00041844	8.2366e-05	1056.9	5.7076e-06	7.249e-06	1092.9	341.22	7.103e-06	5.9729e-06	401.87	135.76	110.78	44.69	4.0096e-06	62.032	0.00052136	0.00047265	0.00013135	983.19	5.0086e-06	5.2102e-06	1015.6	317.42	5.1703e-06	5.1834e-06	377.62	126.9	102.88	42.096	5.0968e-06	58.508	107.407	165.128	180.456	93.800	241.199	204.131	93.069	98.884	192.557	277.015	97.479	103.070	103.834	109.373	241.746	107.572	-8191	255	
58842.820	1	1	0	0	0.09211	0.16941	0.20695	0.23672	0.14519	0.1934	0.11315	0.15987	0.10494	0.21577	0.075676	0.057585	0.13945	0.28375	0.084604	0.27422	-4.0729	-3.5042	-3.8563	-4.1687	-3.4021	-4.2792	-4.0813	-3.6396	-4.2958	-3.4417	-4.0208	-4.2125	-3.4417	-4.3271	-3.8479	-3.5354	398.306	307.597	299.786	387.294	354.036	388.869	412.426	392.167	425.938	432.625	404.428	323.011	85.080	361.730	203.528	388.102	0.0010711	0.00042912	0.00027302	1061.2	2.4295e-06	5.3394e-06	1104.1	337.63	5.5248e-06	4.9529e-06	406.52	135.79	110.1	44.608	5.3792e-06	61.908	0.00051978	0.00046482	0.00012825	986.86	5.1531e-06	5.1225e-06	1022.8	317.6	5.1621e-06	5.1308e-06	378.6	127.15	103.16	42.077	5.0477e-06	58.56	110.318	157.143	168.374	93.414	232.667	200.394	92.930	98.674	189.484	254.506	97.641	103.070	103.724	109.903	234.122	107.292	-8191	255	
58842.918	1	1	0	0	0.13173	0.11651	0.12764	0.34194	0.14896	0.07114	0.13248	0.27147	0.083908	0.10394	0.066708	0.21188	0.2474	0.061301	0.078046	0.17648	-4.1125	-3.5708	-3.7896	-4.3708	-3.3542	-4.1458	-4.0667	-3.6667	-4.3438	-3.7271	-3.9313	-4.4271	-3.7062	-4.1354	-3.9271	-3.5583	170.774	132.220	293.780	337.545	281.720	320.085	353.322	401.257	127.837	256.868	164.318	153.442	389.859	90.602	105.576	393.344	0.0010789	0.0005931	0.0002277	1065.7	6.2826e-06	8.5359e-06	1105.8	343.37	5.5386e-06	4.3826e-06	409.91	137.81	111.54	44.675	8.956e-06	62.298	0.00052308	0.00046728	0.00012838	993.56	5.0104e-06	4.9696e-06	1026.8	319.67	5.2719e-06	5.1058e-06	381.59	127.95	103.95	42.214	5.154e-06	58.857	114.240	177.645	145.452	93.495	232.655	238.952	92.457	98.535	192.332	247.712	97.387	102.936	103.470	109.379	215.109	107.339	-8191	255	
58843.016	1	1	0	0	0.11109	0.20485	0.11614	0.19407	0.22788	0.13373	0.25191	0.30662	0.1682	0.2037	0.12812	0.1737	0.21953	0.20483	0.30336	0.17573	-4.0208	-3.7396	-3.7167	-4.4313	-3.2771	-4.0583	-4.3063	-3.5958	-4.275	-3.7479	-3.8812	-4.3375	-3.5396	-3.975	-4.1604	-3.5104	235.863	415.700	115.164	145.360	107.836	372.938	346.353	379.091	199.603	178.558	189.202	395.180	401.106	412.698	105.544	84.826	0.0010594	0.00039382	0.00011431	1068.8	6.3678e-06	6.5664e-06	1108.6	343.3	5.6947e-06	7.001e-06	403.65	136.64	110.52	44.551	1.7531e-06	61.257	0.00051636	0.00045987	0.0001321	994.46	5.0972e-06	5.1083e-06	1024.6	320.09	5.1661e-06	5.1357e-06	378.56	126.81	103.54	42.076	5.0351e-06	58.053	111.701	178.078	124.336	93.676	222.830	228.609	92.722	98.918	215.536	260.189	97.232	102.306	104.125	109.213	181.101	107.994	-8191	255	
58843.133	1	1	0	0	0.10438	0.13955	0.090487	0.13146	0.067494	0.12998	0.19949	0.26782	0.10929	0.12717	0.036902	0.036642	0.10574	0.29417	0.05968	0.14291	-3.9958	-3.675	-3.5229	-4.5104	-3.6708	-3.7333	-4.1937	-3.5354	-4.1979	-3.6937	-3.5	-4.3417	-3.6875	-3.7958	-4.0771	-3.5062	121.063	113.027	197.390	375.471	171.996	190.657	363.008	340.200	391.511	97.241	273.339	422.219	323.069	368.858	322.898	358.173	0.0011025	0.00047227	0.00019219	1066	7.4715e-06	6.8454e-06	1102.3	345.76	8.01e-06	3.6628e-07	403.85	135.2	111.27	44.074	4.3482e-06	61.169	0.0005217	0.0004545	0.00012496	993.37	5.0681e-06	5.054e-06	1023.9	321.27	5.0292e-06	4.9584e-06	377.96	126.43	103.88	41.797	5.0122e-06	57.811	109.327	153.353	152.852	93.972	208.427	187.030	92.987	98.841	237.267	118.061	97.488	103.188	103.823	109.759	208.139	107.627	-8191	255	
58843.230	1	1	0	0	0.19441	0.26484	0.083038	0.19057	0.061961	0.22046	0.22031	0.30728	0.25464	0.13277	0.18597	0.073826	0.25075	0.31006	0.014247	0.11763	-3.9792	-3.9542	-3.5938	-4.5229	-3.6958	-3.6813	-4.3896	-3.5604	-4.05	-4.0875	-3.5	-4.5	-3.7188	-3.7271	-4.3167	-3.5375	404.879	321.477	182.077	96.152	281.164	399.373	389.145	431.465	93.269	316.896	366.105	438.968	153.713	83.389	256.990	82.183	0.0010541	0.00047786	0.00013724	1068.1	4.8257e-06	8.0427e-06	1098.3	344	9.1243e-06	6.6322e-06	407.39	135.01	110.15	44.44	3.8532e-06	60.988	0.00051783	0.00046876	0.00013043	996.1	5.0712e-06	5.0226e-06	1024.8	321.17	5.0779e-06	4.9611e-06	379.45	126.43	103.76	41.869	5.0016e-06	57.794	111.248	140.856	132.436	93.587	196.032	239.753	92.513	98.669	225.619	248.055	97.022	103.214	103.969	109.045	217.033	107.699	-8191	255	
58843.324	1	1	0	0	0.13917	0.18925	0.24613	0.21714	0.13283	0.11712	0.14508	0.0090599	0.21387	0.24872	0.19563	0.15938	0.026782	0.1764	0.072542	0.128	-3.6562	-4.1312	-3.4083	-4.3458	-3.7729	-3.7896	-4.4375	-3.4521	-3.8708	-4.1396	-3.5375	-4.0708	-3.9875	-3.6	-4.2542	-3.7313	244.649	439.827	421.508	420.679	133.278	256.451	317.233	306.002	162.197	135.164	404.799	426.868	336.426	430.006	202.731	366.389	0.00096237	0.00054355	0.00025639	1066.5	9.3939e-06	2.4809e-06	1104.7	345.04	8.7723e-06	7.457e-06	405.38	135.88	111.4	44.422	8.7558e-06	61.103	0.00051685	0.00045048	0.00012594	994.68	5.024e-06	5.0524e-06	1025.2	320.55	4.9876e-06	4.953e-06	377.86	126.74	103.63	41.78	5.0671e-06	57.803	109.146	210.170	150.867	93.712	223.426	208.530	92.909	98.997	229.306	207.128	97.105	103.105	103.621	109.075	241.691	107.697	-8191	255	
58843.422	1	1	0	0	0.074159	0.23658	0.1475	0.40056	0.16316	0.047797	0.31813	0.17322	0.051532	0.025956	0.044139	0.18871	0.13908	0.24996	0.18535	0.24267	-3.6292	-4.1854	-3.3854	-4.1375	-3.9313	-3.4854	-4.4521	-3.6771	-3.8812	-4.0875	-3.5187	-4.1813	-4.0667	-3.4729	-4.1958	-3.6333	295.252	224.950	189.961	398.019	195.401	429.514	352.257	84.396	402.770	91.394	146.730	406.331	119.826	375.037	313.146	89.566	0.001091	0.00027207	0.00018756	1061.3	8.6421e-06	9.4143e-06	1091.2	341.9	8.1537e-06	4.7187e-06	401.34	134.7	109.72	44.132	8.0618e-06	60.722	0.00052462	0.00045131	0.00012688	988.58	5.0749e-06	5.0184e-06	1013.9	318.07	4.8731e-06	5.0918e-06	374.39	125.91	103.17	41.656	4.8992e-06	57.354	113.831	196.452	116.660	93.650	189.939	198.673	92.645	98.586	226.226	202.153	97.508	102.821	104.180	109.185	209.370	107.806	-8191	255	
58843.516	1	1	0	0	0.29875	0.055931	0.078041	0.11994	0.11735	0.25277	0.028598	0.3269	0.1021	0.29993	0.18897	0.20493	0.11801	0.24691	0.29696	0.15824	-3.4437	-4.2438	-3.3229	-4.2146	-3.9854	-3.5187	-4.4458	-3.8542	-3.5958	-4.325	-3.5938	-4.1479	-4.2042	-3.5292	-4.2604	-3.975	274.025	146.357	413.410	409.548	226.407	190.792	124.102	395.340	398.901	344.028	332.481	356.611	164.258	120.361	152.878	323.867	0.0011166	0.00046924	0.00019617	1055.8	6.1461e-06	2.9333e-06	1089.5	340.59	3.6671e-06	6.424e-06	401.55	134.07	109.48	43.746	6.9457e-06	60.844	0.00051164	0.00044733	0.00012988	984.05	4.7215e-06	4.9572e-06	1010.5	317.34	5.0048e-06	4.8761e-06	373.62	125.09	102.62	41.368	4.813e-06	57.302	111.985	163.689	151.329	93.836	206.443	190.343	92.482	98.940	207.668	180.434	97.565	102.496	104.152	109.360	235.040	107.549	-8191	255	
58843.613	1	1	0	0	0.12803	0.067167	0.082229	0.39075	0.142	0.12169	0.19817	0.1727	0.23586	0.16347	0.13327	0.086027	0.26225	0.17834	0.073116	0.11713	-3.3542	-4.1625	-3.4104	-3.9917	-4.1125	-3.425	-4.5167	-3.9375	-3.5833	-4.3271	-3.6646	-3.9958	-4.3542	-3.5125	-4.2917	-4.0354	261.022	351.683	159.932	427.133	222.468	214.556	370.046	389.390	368.831	404.579	100.222	189.353	429.609	175.694	220.101	414.427	0.0012103	0.0007142	0.00016477	1060.7	9.2357e-06	3.5947e-06	1084.2	341.04	6.2135e-06	1.8791e-06	399.41	134.11	109.97	43.934	4.1662e-06	60.691	0.00051649	0.00044666	0.00012374	983.82	4.8627e-06	4.983e-06	1009.8	318.09	4.8539e-06	4.9681e-06	374.26	125.43	103.03	41.596	4.8866e-06	57.568	110.717	160.623	125.612	93.709	236.666	271.968	92.450	98.572	226.758	241.305	97.380	102.705	103.834	109.544	188.159	107.551	-8191	255	
58843.711	1	1	0	0	0.089787	0.19917	0.18432	0.18637	0.11275	0.34907	0.19903	0.22026	0.091252	0.19884	0.17714	0.15355	0.20575	0.31303	0.24328	0.19147	-3.1917	-4.2083	-3.5604	-3.9083	-4.2417	-3.5542	-4.2104	-4.1875	-3.2771	-4.4354	-3.8875	-3.8458	-4.3292	-3.4813	-4.0708	-4.2125	255.497	329.144	321.657	314.783	269.837	165.187	382.243	380.306	142.384	189.010	100.337	401.035	93.853	427.616	230.640	353.590	0.001064	0.00023863	0.00013737	1056.1	7.825e-06	4.2746e-06	1082.2	341.57	8.351e-06	3.2832e-06	402.92	134.13	110.64	44.27	6.689e-06	60.867	0.00051289	0.0004447	0.00012329	982.37	4.9862e-06	4.8561e-06	1007.9	318.9	4.9442e-06	4.9046e-06	374.99	125.41	103.28	41.711	4.9649e-06	57.488	121.320	180.564	118.799	93.649	222.186	213.645	92.708	98.940	219.631	299.841	97.591	102.595	103.675	109.138	223.439	107.665	-8191	255	
58843.828	1	1	0	0	0.15605	0.10213	0.17424	0.188	0.14564	0.051109	0.14741	0.2285	0.19961	0.062245	0.32965	0.083686	0.074321	0.12364	0.19372	0.16983	-3.1375	-4.1854	-3.6208	-3.6729	-4.1146	-3.4521	-4.125	-4.15	-3.4021	-4.1854	-3.7625	-3.6396	-4.3646	-3.5187	-3.975	-4.1667	279.182	305.000	192.677	332.546	358.068	399.611	273.567	375.632	224.411	300.461	433.345	351.617	293.813	389.105	236.634	148.226	0.0010108	0.00063199	0.00014753	1053.5	7.4074e-06	4.2242e-06	1084.6	342.02	8.6166e-06	2.6422e-06	399.99	133.12	109.57	43.997	2.8951e-06	60.835	0.00050869	0.00044639	0.00012597	979.75	4.7947e-06	4.8179e-06	1003.1	317.97	4.8843e-06	4.9256e-06	372.7	124.85	102.96	41.613	4.9595e-06	57.417	110.481	144.034	151.775	93.493	205.195	178.367	92.619	98.972	224.588	194.569	96.939	102.785	103.898	109.327	162.427	107.844	-8191	255	
58843.926	1	1	0	0	0.21811	0.14984	0.06675	0.16045	0.080003	0.12962	0.26392	0.42583	0.16391	0.11326	0.19284	0.077289	0.071608	0.29603	0.12517	0.1322	-3.2229	-4.2125	-3.8729	-3.7062	-4.2812	-3.5042	-4.0062	-4.3583	-3.3979	-4.2417	-3.9479	-3.7083	-4.425	-3.7146	-3.6083	-4.3354	213.125	321.644	307.981	99.504	108.723	391.442	313.039	420.715	270.505	109.118	389.932	140.363	233.618	188.545	146.745	134.347	0.0011094	0.00015362	0.0001072	1046.6	6.7801e-06	2.7386e-06	1078.6	339.51	4.4938e-06	3.4996e-06	399.44	133.34	109.54	43.999	5.1204e-06	60.523	0.00052215	0.00045246	0.00012614	974.93	4.8979e-06	4.816e-06	1000.9	316.05	4.9573e-06	4.9763e-06	372.2	124.73	102.55	41.513	5.0095e-06	57.49	111.841	192.518	209.360	93.437	202.587	259.672	92.741	99.059	192.703	259.786	97.590	102.718	104.009	109.526	199.833	107.398	-8191	255	
58844.023	1	1	0	0	0.065511	0.094146	0.058725	0.050231	0.069446	0.1132	0.27541	0.087832	0.035358	0.1282	0.092477	0.12026	0.068173	0.15459	0.099226	0.18407	-3.0583	-4.0896	-3.9854	-3.5146	-4.1771	-3.7958	-3.9646	-4.4042	-3.4271	-4.0875	-4.3104	-3.4375	-4.3979	-3.7417	-3.5583	-4.3396	195.611	152.738	87.259	179.930	175.352	113.822	323.430	265.765	89.965	97.788	101.649	310.916	87.763	408.959	315.111	261.532	0.0011079	0.00065675	8.7614e-05	1048.4	5.3242e-06	3.924e-06	1074.3	338.22	6.3784e-06	6.6527e-06	399.91	133.75	109.41	44.208	6.8175e-06	61.15	0.00052829	0.00045717	0.0001286	974.07	4.8743e-06	4.888e-06	999.3	314.57	4.9047e-06	4.9741e-06	372.83	125.14	102.4	41.562	5.1563e-06	57.736	116.763	192.852	155.348	93.429	200.602	272.909	92.717	98.713	193.748	208.263	97.717	102.894	104.023	109.223	241.811	107.877	-8191	255	
58844.117	1	1	0	0	0.1686	0.10638	0.17916	0.11884	0.22529	0.13712	0.25531	0.16184	0.14868	0.31669	0.10904	0.052572	0.19636	0.28424	0.1281	0.16985	-3.1375	-3.9875	-4.1354	-3.625	-4.3313	-3.8042	-3.6083	-4.3958	-3.5333	-3.8458	-4.2708	-3.4562	-4.3167	-4.0042	-3.5625	-4.3354	395.080	391.721	193.368	105.764	371.995	426.138	410.643	144.276	337.454	136.260	365.354	378.973	103.629	377.049	408.390	375.588	0.0011414	0.00041527	7.9009e-05	1046.7	4.4573e-06	3.5123e-06	1081.5	337.69	8.1691e-06	5.5582e-06	396.1	133.95	109.23	43.858	3.099e-06	60.82	0.00052155	0.00045886	0.00012783	975.99	4.9109e-06	5.0858e-06	1003.2	315.5	4.9685e-06	5.0392e-06	372.05	124.54	102.35	41.39	4.9815e-06	57.363	111.628	159.856	115.058	93.555	238.268	240.176	92.581	98.927	220.308	239.404	97.769	102.709	103.587	109.993	149.951	107.522	-8191	255	
58844.215	1	1	0	0	0.1655	0.24927	0.088093	0.37077	0.20986	0.30858	0.077076	0.11174	0.037558	0.14421	0.23748	0.21454	0.3904	0.11934	0.11414	0.18338	-3.175	-3.825	-4.2542	-3.5854	-4.1917	-4.0125	-3.6562	-4.45	-3.4896	-3.8812	-4.4062	-3.5271	-4.0667	-4.0479	-3.4479	-4.2208	295.604	311.970	346.957	375.501	253.289	207.193	355.816	167.106	368.067	269.973	420.480	122.707	379.262	438.912	121.300	402.004	0.0010083	0.00028697	5.6849e-05	1044.1	5.0481e-06	9.7761e-06	1072.8	335.92	7.1031e-06	8.597e-06	395.16	133.01	108.71	43.38	7.6638e-06	60.625	0.00050032	0.00044814	0.00012547	973.36	4.8816e-06	4.9205e-06	999.23	313.67	4.7683e-06	5.0227e-06	371.4	123.91	101.77	41.233	4.8933e-06	57.299	112.298	148.393	161.476	93.431	237.681	208.962	92.703	98.778	227.296	241.135	97.651	102.851	103.997	109.341	213.117	107.997	-8191	255	
58844.309	1	1	0	0	0.16942	0.18315	0.034663	0.14861	0.20279	0.071221	0.21259	0.042995	0.080852	0.11025	0.17762	0.066753	0.16716	0.1161	0.13481	0.14316	-3.2604	-3.6354	-4.4542	-3.5187	-3.9458	-4.1458	-3.5312	-4.4563	-3.6479	-3.7458	-4.3708	-3.4667	-4.0792	-4.0563	-3.4083	-4.5104	432.166	420.366	416.358	101.955	83.435	261.414	379.831	359.830	437.252	179.758	431.733	97.580	377.613	404.412	117.856	335.954	0.0011706	0.00023101	0.00024093	1053.9	4.101e-06	3.423e-06	1088.1	338.55	4.7638e-06	6.5337e-06	396.98	133.81	108.6	43.606	7.8485e-06	61.055	0.00050496	0.00044072	0.00012518	975.7	4.7074e-06	5.0169e-06	1005.6	314.95	5.0167e-06	5.0171e-06	372.85	125.05	101.89	41.355	4.8813e-06	57.507	110.094	206.577	147.876	93.788	253.550	202.033	92.687	98.733	214.314	226.821	97.634	103.245	103.710	109.651	234.333	107.727	-8191	255	
58844.430	1	1	0	0	0.1653	0.26983	0.1044	0.19641	0.16738	0.16192	0.08406	0.040706	0.23612	0.21099	0.055075	0.11851	0.04229	0.067965	0.16365	0.12336	-3.5833	-3.5146	-4.3458	-3.6979	-3.8312	-4.1521	-3.6167	-4.5292	-3.9833	-3.3896	-4.4021	-3.65	-3.7562	-4.4875	-3.4417	-4.2104	292.617	109.718	427.705	326.139	390.642	214.444	277.759	421.152	228.956	183.931	340.089	123.026	166.127	196.341	372.407	354.679	0.0010555	0.00051567	0.00015962	1055	7.889e-06	3.1827e-06	1091.5	339.2	9.0653e-06	6.2232e-06	403.34	134.07	109.99	43.857	4.2511e-06	61.162	0.00051839	0.00044038	0.00013051	979.62	4.9847e-06	4.7761e-06	1012.3	315.64	4.8285e-06	5.0697e-06	375.13	125.51	102.49	41.465	4.953e-06	57.82	110.274	170.922	136.904	93.508	196.956	233.846	92.637	98.763	211.823	254.135	97.543	102.918	103.635	109.740	218.250	108.150	-8191	255	
58844.527	1	1	0	0	0.097523	0.19094	0.20531	0.10873	0.027515	0.012481	0.31429	0.40446	0.22666	0.1161	0.3608	0.04907	0.26375	0.23322	0.21446	0.11662	-3.5917	-3.6292	-4.3875	-3.8333	-3.7188	-4.2562	-3.4813	-4.1146	-3.8458	-3.3354	-4.5021	-3.7875	-3.7396	-4.3521	-3.5333	-4.1583	253.662	177.888	237.175	159.390	222.810	350.582	379.575	404.884	147.245	173.807	345.044	437.264	326.462	407.553	376.231	399.004	0.00096833	0.00070151	0.00010332	1050.7	6.0355e-06	7.0578e-06	1092.5	338.36	8.6195e-06	5.1829e-06	399.53	134.03	109.37	43.874	5.2116e-06	60.646	0.00050535	0.000449	0.00012967	980.4	4.9212e-06	4.8318e-06	1015.1	315.53	4.8981e-06	4.894e-06	374.34	125.11	102.17	41.451	4.813e-06	57.516	110.454	156.774	177.413	93.601	181.614	205.275	92.801	99.034	222.119	259.278	97.276	103.039	103.719	109.498	237.670	107.929	-8191	255	
58844.621	1	1	0	0	0.12441	0.072	0.19047	0.084884	0.12146	0.14489	0.27788	0.11849	0.024439	0.23974	0.10031	0.13885	0.077939	0.12334	0.18065	0.12281	-3.7313	-3.3937	-4.2417	-3.8792	-3.5687	-4.3187	-3.675	-3.9917	-4.0354	-3.4688	-4.4271	-3.7708	-3.7708	-4.4771	-3.4417	-3.975	266.503	376.117	380.983	384.512	212.874	394.240	90.550	193.986	178.668	355.167	285.585	379.238	415.401	304.074	248.848	314.309	0.0010262	0.00053896	0.0001342	1048.9	9.7773e-06	3.3848e-06	1092.2	339.78	2.4168e-06	4.8524e-06	397.86	133.51	109.04	43.833	7.6792e-06	60.928	0.00051436	0.00045947	0.00012568	980.63	4.942e-06	4.8705e-06	1013.7	315.94	5.0175e-06	4.852e-06	373.5	125.14	102.05	41.455	4.8973e-06	57.648	113.186	168.339	179.131	93.734	203.464	229.639	93.055	98.689	204.604	174.618	97.351	102.806	103.576	109.660	212.700	107.593	-8191	255	
58844.719	1	1	0	0	0.10638	0.15812	0.01403	0.17196	0.14189	0.1013	0.33856	0.32262	0.20556	0.099173	0.062103	0.21366	0.08363	0.041877	0.1991	0.030072	-3.9458	-3.3563	-4.0312	-4.1083	-3.6208	-4.3417	-3.6521	-3.8583	-4.3333	-3.5542	-4.1708	-3.9938	-3.6833	-4.275	-3.7687	-3.85	423.530	313.184	400.446	358.063	175.820	147.525	405.580	346.585	110.377	372.662	410.287	256.995	387.615	143.206	402.534	354.362	0.0011574	0.00034639	0.000185	1060	6.2731e-06	1.0036e-05	1094.8	339.91	3.1785e-06	5.0511e-06	400.57	134.27	109.44	44.181	8.801e-06	61.514	0.00051993	0.00045575	0.00012487	983.76	4.9818e-06	4.8278e-06	1015.6	316.24	4.9057e-06	4.9623e-06	374.82	125.74	102.43	41.68	4.8904e-06	58.059	111.035	143.305	146.444	93.731	217.489	225.432	92.857	98.892	242.288	232.701	97.637	102.927	103.764	109.577	195.179	107.679	-8191	255	
58844.812	1	1	0	0	0.19983	0.15037	0.089152	0.15238	0.10764	0.097102	0.17684	0.37752	0.20134	0.15806	0.29056	0.10745	0.16872	0.15391	0.14721	0.13402	-3.8	-3.4958	-4.1021	-4.0979	-3.4083	-4.3792	-3.7667	-3.6813	-4.4771	-3.4104	-4.1375	-4.1396	-3.4104	-4.3917	-3.5229	-3.7875	170.270	132.885	270.489	438.528	276.293	362.019	359.032	88.549	353.149	416.097	81.922	352.662	308.564	382.677	178.628	248.858	0.0009988	0.00039833	0.00015466	1058.2	8.5639e-06	9.8175e-06	1098.1	339.59	5.7512e-06	5.2572e-06	403.28	134.93	108.79	44.008	4.8262e-06	61.219	0.00051394	0.00043982	0.0001241	983.78	4.7858e-06	5.1458e-06	1018.2	316.08	4.9696e-06	5.0583e-06	376.15	126.04	101.82	41.521	4.9551e-06	58.009	103.644	162.593	178.637	93.683	203.096	242.956	92.948	98.758	228.048	241.485	97.614	102.852	104.037	109.536	213.745	107.622	-8191	255	
58844.910	1	1	0	0	0.09025	0.24824	0.02943	0.26351	0.043393	0.11984	0.24316	0.1081	0.11338	0.010047	0.12743	0.17207	0.38101	0.28928	0.087864	0.15821	-3.9396	-3.4771	-3.975	-4.35	-3.4333	-4.2104	-3.9396	-3.675	-4.2958	-3.4313	-4.0437	-4.275	-3.5583	-4.3292	-3.8	-3.6021	409.539	283.877	276.360	334.550	384.974	405.325	316.571	351.589	221.306	285.874	127.738	382.601	376.164	421.726	214.018	355.426	0.00094521	0.00081833	0.00017739	1059.1	6.6713e-06	7.2323e-06	1090.8	336.58	1.0906e-05	2.2086e-06	399.27	135.62	108.44	43.98	7.1952e-06	61.215	0.00050626	0.00045151	0.00012814	981.47	4.9328e-06	4.9738e-06	1014.4	313.42	5.1004e-06	4.8846e-06	374.02	125.88	101.59	41.488	4.9484e-06	58.003	109.750	131.646	119.879	93.311	206.928	226.409	92.985	99.016	224.236	253.280	97.188	103.264	103.991	109.557	231.798	107.766	-8191	255	
58845.008	1	1	0	0	0.022681	0.23314	0.18208	0.27933	0.12092	0.22715	0.13638	0.43347	0.24774	0.22245	0.10299	0.074338	0.23305	0.33886	0.11283	0.053197	-4.1146	-3.6354	-3.875	-4.2875	-3.3854	-4.1438	-4.1312	-3.4646	-4.3833	-3.6188	-3.8958	-4.3083	-3.3667	-4.2146	-4.0875	-3.6167	313.423	349.274	412.012	96.084	355.440	338.547	385.622	416.310	336.531	81.484	81.566	381.318	134.677	394.591	257.244	384.083	0.0010371	0.00069818	0.00021687	1044.3	6.0006e-06	6.8471e-06	1098.8	338.69	6.1818e-06	5.2615e-06	400.53	135.22	110.07	43.837	5.2284e-06	61.954	0.00051091	0.00047242	0.00013028	976.16	4.9375e-06	4.8658e-06	1015.6	314.85	4.8058e-06	4.95e-06	375.16	126.36	102.32	41.527	4.8787e-06	58.303	109.628	204.034	155.719	93.575	182.046	226.723	93.104	98.947	237.178	250.609	97.213	102.877	103.895	109.549	187.936	107.744	-8191	255	
58845.102	1	1	0	0	0.087188	0.24198	0.089398	0.15187	0.21729	0.11274	0.052935	0.19798	0.1201	0.29525	0.28072	0.13539	0.32867	0.1634	0.073461	0.077503	-4.1375	-3.7896	-3.6937	-4.4958	-3.4604	-3.9938	-4.3063	-3.5042	-4.375	-3.6813	-3.7271	-4.3292	-3.65	-4.0896	-4.0563	-3.6083	264.164	196.624	363.535	422.449	405.800	114.758	398.129	413.498	293.806	429.596	438.474	385.721	382.269	282.547	421.003	101.093	0.0010543	0.00049409	0.00011615	1057.5	6.5446e-06	3.9654e-06	1094.7	341.02	9.5316e-06	7.351e-06	406.16	136.81	109.5	44.349	7.0342e-06	61.772	0.00051425	0.00043744	0.00012198	983.83	4.89e-06	5.0524e-06	1020.6	316.81	4.8447e-06	4.8699e-06	378.68	127.55	102.72	41.806	4.8846e-06	58.451	113.474	154.264	163.698	93.897	197.194	258.384	92.807	98.647	234.754	259.816	97.169	103.235	103.446	109.569	224.176	107.750	-8191	255	
58845.223	1	1	0	0	0.090659	0.20767	0.21598	0.26139	0.1495	0.15665	0.1824	0.13181	0.028093	0.13494	0.10135	0.29872	0.24856	0.10515	0.20067	0.12781	-3.8375	-3.8625	-3.4167	-4.5042	-3.5208	-3.9125	-4.2229	-3.5854	-4.2458	-3.9813	-3.5354	-4.4875	-3.4833	-3.75	-4.1687	-3.6271	392.448	190.185	248.656	432.792	391.908	347.877	349.431	321.470	286.608	382.127	338.175	333.863	399.240	138.036	127.829	135.083	0.0010837	0.00061999	0.00025394	1059.3	3.2943e-06	3.8015e-06	1097.8	339.03	1.0553e-05	6.1435e-06	407.37	136.83	110.44	44.243	5.1872e-06	61.789	0.00052016	0.00045693	0.00012958	986.18	4.8873e-06	5.122e-06	1025.4	315.97	5.0451e-06	5.0997e-06	378.92	127.34	102.57	41.776	4.9305e-06	58.303	106.989	130.747	165.178	93.589	200.171	257.295	92.822	99.052	225.398	254.876	97.792	102.801	103.731	109.253	248.721	107.797	-8191	255	
58845.316	1	1	0	0	0.04982	0.30672	0.063267	0.22956	0.06551	0.13517	0.32017	0.31803	0.088924	0.11244	0.25634	0.22149	0.15287	0.11885	0.14981	0.23823	-3.8625	-3.975	-3.5187	-4.5479	-3.6458	-3.7917	-4.4187	-3.4979	-4.1042	-4.1188	-3.4562	-4.2812	-3.7854	-3.8458	-4.2792	-3.6208	129.693	440.091	320.792	338.862	162.069	81.062	122.579	360.838	159.355	140.601	360.456	329.047	131.610	319.251	402.743	349.242	0.0010716	0.00050851	0.00019173	1070.2	4.0638e-06	4.5398e-06	1106.8	341.1	4.1762e-06	6.4261e-06	405.65	136.56	110.32	44.134	4.5711e-06	61.713	0.00051125	0.00045799	0.00012519	991.78	4.7711e-06	4.972e-06	1028.7	318.02	5.0222e-06	5.1316e-06	377.97	127.31	103.05	41.829	4.9173e-06	58.438	106.810	163.690	158.257	93.663	234.579	276.619	92.681	98.914	215.013	258.823	97.437	103.094	104.066	109.567	199.726	108.065	-8191	255	
58845.391	1	1	0	0	0.028927	0.13607	0.20912	0.25795	0.22913	0.19184	0.17704	0.23459	0.21287	0.18577	0.17419	0.095209	0.20528	0.3528	0.1827	0.10102	-3.775	-4.0687	-3.2229	-4.4271	-3.8521	-3.6021	-4.4729	-3.4437	-3.9896	-3.9875	-3.5104	-4.3063	-3.8104	-3.6979	-4.3875	-3.5375	103.807	283.437	305.648	401.568	437.846	345.793	278.703	373.354	343.173	434.812	92.521	272.417	112.077	407.504	217.084	236.885	0.0010338	0.0004324	0.00023401	1063.6	8.6148e-06	6.0037e-06	1107	340.63	1.113e-05	3.4175e-06	409.14	137.65	110.04	44.77	6.9539e-06	62.476	0.00050466	0.00045305	0.00012156	990.26	5.0479e-06	5.011e-06	1028.1	317.59	4.9717e-06	4.8161e-06	380.8	127.92	103.23	41.969	4.926e-06	58.916	113.083	140.475	157.995	93.572	233.172	221.650	92.978	98.570	216.482	248.778	97.272	103.340	104.270	109.274	201.765	107.902	-8191	255	
58845.512	1	1	0	0	0.1417	0.11476	0.091136	0.14963	0.16436	0.21207	0.22228	0.12357	0.14122	0.061495	0.19461	0.047368	0.15662	0.24515	0.094816	0.27012	-3.3937	-4.2667	-3.2854	-4.4792	-3.8979	-3.5354	-4.4521	-3.7875	-3.8292	-4.2604	-3.6083	-4.2208	-3.8521	-3.5042	-4.2812	-3.7125	204.270	191.699	189.883	419.458	106.419	344.256	367.016	417.601	200.732	370.688	404.904	122.676	95.811	374.865	252.937	408.926	0.00098136	0.00057638	0.00017549	1064	8.8668e-06	3.8123e-06	1117.5	342.05	3.4942e-06	3.5672e-06	406.23	137.95	110.77	44.321	7.2603e-06	62.301	0.00051524	0.00044987	0.00012688	991.28	5.0737e-06	5.0348e-06	1030.3	318.77	5.1407e-06	4.9261e-06	381.73	128.46	103.57	42.022	5.0104e-06	58.982	113.596	138.859	155.027	93.517	245.941	240.069	92.759	99.082	203.343	268.728	97.423	102.902	104.006	109.484	211.284	107.736	-8191	255	
58845.605	1	1	0	0	0.097301	0.096046	0.20441	0.076961	0.051365	0.14181	0.21832	0.41817	0.30874	0.16526	0.092975	0.069476	0.18321	0.11826	0.070101	0.31381	-3.4042	-4.3667	-3.3458	-3.9562	-3.975	-3.5521	-4.3917	-3.8396	-3.5021	-4.375	-3.7729	-4.0354	-4.2667	-3.5708	-4.1479	-3.8312	437.851	356.704	370.400	156.637	438.104	247.970	386.827	397.306	322.668	250.693	399.245	180.514	95.142	88.092	394.015	83.388	0.0010501	0.00064273	0.0001091	1071	6.9404e-06	2.1249e-06	1109	342.03	8.344e-06	5.5708e-06	409.34	136.66	110.5	44.504	7.8197e-06	62.345	0.00051594	0.00045217	0.00012629	991.49	5.1335e-06	4.9626e-06	1032.6	319.49	4.9807e-06	4.8998e-06	381.82	128.06	103.74	42.124	4.9176e-06	58.998	115.221	171.180	131.958	93.897	214.281	352.587	92.644	98.935	210.711	223.908	97.747	103.241	104.136	109.657	214.353	107.730	-8191	255	
58845.703	1	1	0	0	0.099815	0.12593	0.17642	0.14846	0.10326	0.23819	0.020118	0.091489	0.20316	0.2445	0.12836	0.24458	0.043272	0.20844	0.27852	0.28354	-3.1729	-4.2792	-3.3812	-3.9875	-4.1687	-3.4125	-4.4375	-3.8625	-3.3583	-4.3542	-3.575	-3.8521	-4.2021	-3.4542	-4.0875	-3.9938	245.870	218.207	227.844	212.670	295.015	186.227	375.394	237.950	317.780	372.563	429.025	326.346	369.472	149.650	241.061	94.724	0.0010172	0.00037316	0.00022364	1065.7	6.7889e-06	6.0351e-06	1104.9	342.02	4.5967e-06	6.5463e-06	406	137.63	110.64	44.56	4.7975e-06	62.268	0.00051482	0.00044012	0.00012758	990.76	4.9109e-06	5.064e-06	1027.9	318.64	4.8966e-06	4.9382e-06	379.75	128.21	103.74	42.099	5.0558e-06	59.06	109.800	190.013	149.196	93.352	212.402	197.024	92.841	98.827	206.351	221.332	97.880	103.300	103.993	109.492	200.806	107.980	-8191	255	
58845.824	1	1	0	0	0.036686	0.091258	0.077986	0.2841	0.10341	0.066924	0.32889	0.12155	0.22748	0.23052	0.085467	0.20792	0.20886	0.29173	0.09487	0.28813	-3.1604	-4.3375	-3.6729	-3.9729	-4.2708	-3.5583	-4.3604	-4.1042	-3.4771	-4.3812	-3.9146	-3.9042	-4.4375	-3.3729	-3.9896	-4.2854	207.587	411.549	219.818	416.362	346.547	279.284	392.074	231.718	136.729	283.673	426.181	108.277	404.904	401.458	399.628	427.380	0.0010596	0.00040834	6.5594e-05	1057.1	6.2138e-06	3.3912e-06	1104.2	341.93	3.148e-06	5.7677e-06	404.97	136.93	111.98	44.304	5.0938e-06	62.84	0.00050587	0.00045029	0.0001273	986.74	4.9141e-06	5.0203e-06	1025.9	318.63	4.9549e-06	4.9809e-06	379.82	127.95	103.81	42.1	5.0556e-06	59.185	112.407	88.326	133.287	93.565	234.457	292.120	92.641	99.007	175.178	293.359	97.760	103.088	103.862	109.853	144.847	107.733	-8191	255	
58845.918	1	1	0	0	0.15238	0.11739	0.12464	0.17302	0.25026	0.035514	0.38613	0.034388	0.37285	0.023799	0.027914	0.14188	0.087994	0.074701	0.023639	0.21785	-3.0583	-4.2792	-3.6479	-3.7521	-4.1792	-3.3646	-4.1458	-4.0667	-3.2208	-4.1833	-3.8917	-3.5708	-4.3729	-3.475	-3.9042	-4.325	112.185	125.843	251.713	363.719	158.959	394.663	375.012	241.900	174.243	230.500	435.752	99.833	286.342	283.761	306.104	379.214	0.0011238	0.00055505	0.00024687	1065.1	7.9945e-06	2.86e-06	1111.5	342.51	6.2605e-06	4.3582e-06	411.69	137.12	111.03	44.654	6.0728e-06	62.911	0.00051804	0.00045569	0.00012563	990.52	5.0086e-06	4.893e-06	1029.9	319.2	5.0037e-06	5.0313e-06	382.39	128.54	103.82	42.193	5.0692e-06	59.311	113.234	174.087	152.806	93.696	199.015	202.262	92.885	98.972	201.445	259.752	97.559	103.249	103.812	109.343	239.162	108.071	-8191	255	
58845.992	1	1	0	0	0.25806	0.18151	0.22506	0.24832	0.04105	0.10899	0.27939	0.25628	0.15583	0.13816	0.074341	0.12898	0.22496	0.15411	0.10232	0.39772	-3.0646	-4.1333	-3.8208	-3.7479	-4.5	-3.5938	-4.0979	-4.275	-3.3896	-4.3938	-4.0979	-3.6063	-4.2292	-3.575	-3.6583	-4.3479	305.092	133.500	188.943	413.358	98.560	232.670	427.720	340.959	374.279	355.180	334.979	103.786	398.567	298.537	137.452	393.535	0.0011443	0.00043804	0.00017203	1064.1	6.5068e-06	7.3296e-06	1115.8	343.62	7.3436e-06	9.6937e-06	410.56	137.5	112.07	44.691	5.0864e-06	62.502	0.00052775	0.00045911	0.00013011	993.56	5.0139e-06	5.0189e-06	1033.8	320.29	5.059e-06	5.0611e-06	382.46	128.49	103.98	42.255	5.1205e-06	58.943	109.673	144.458	120.307	93.197	224.717	229.751	92.606	99.306	226.385	229.932	97.593	102.635	103.680	109.797	262.360	107.782	-8191	255	
58846.086	1	1	0	0	0.11714	0.21491	0.21502	0.19145	0.12952	0.18389	0.16703	0.27595	0.12005	0.12612	0.05102	0.21895	0.20112	0.02646	0.22528	0.10861	-3.0458	-4.1854	-3.8896	-3.4875	-4.3854	-3.6542	-3.7542	-4.525	-3.3187	-4.1125	-4.2729	-3.3438	-4.3229	-3.7313	-3.6625	-4.4792	103.367	424.591	349.566	435.591	312.758	340.311	359.083	385.374	111.334	178.448	288.939	413.500	86.337	127.118	136.916	244.723	0.001095	0.00062896	0.00010372	1062.5	8.7825e-06	4.501e-06	1109.4	342.78	2.9441e-06	3.8677e-06	408.94	136.92	110.92	44.739	6.1484e-06	62.425	0.00052465	0.00046897	0.00012501	989.1	4.9372e-06	5.1348e-06	1027	320.05	4.8614e-06	5.095e-06	381.15	128.04	103.67	42.222	4.9807e-06	58.913	112.157	172.211	228.423	93.389	202.183	201.826	92.734	98.898	248.015	263.164	97.538	103.293	103.934	109.251	241.297	108.202	-8191	255	
58846.207	1	1	0	0	0.077891	0.28391	0.16787	0.1792	0.14044	0.17732	0.1752	0.079365	0.26489	0.16037	0.079601	0.31146	0.11473	0.048363	0.1818	0.084807	-3.1146	-3.8417	-3.9375	-3.5729	-4.2167	-3.825	-3.6896	-4.3458	-3.3312	-3.8979	-4.2188	-3.4813	-4.2521	-3.8417	-3.6521	-4.2917	337.791	209.053	356.055	356.200	247.123	364.533	343.417	342.263	142.755	242.692	146.953	84.010	431.914	314.790	138.217	410.122	0.0010497	0.0004248	0.00020747	1067.9	4.2246e-06	5.2423e-06	1111.9	344.18	4.4768e-06	4.4983e-06	407.98	136.41	111.61	44.728	6.5268e-06	62.256	0.0005274	0.00047024	0.00012617	990.72	5.0372e-06	4.9212e-06	1030.9	319.86	5.1046e-06	4.9384e-06	380.56	127.91	103.68	42.098	4.8833e-06	58.909	104.432	157.773	208.461	93.880	224.100	234.196	92.880	98.979	190.144	264.233	97.468	103.103	103.974	109.502	162.333	107.883	-8191	255	
58846.301	1	1	0	0	0.096385	0.055299	0.25807	0.12582	0.27732	0.085174	0.15489	0.044999	0.12664	0.085828	0.12687	0.29432	0.40602	0.25125	0.065213	0.036229	-3.1833	-3.8875	-4.1375	-3.5896	-4.1937	-3.9625	-3.7958	-4.4854	-3.6479	-3.8625	-4.2479	-3.4208	-4.1438	-3.9562	-3.375	-4.2833	147.915	255.825	299.537	323.572	253.953	415.412	419.065	434.834	264.214	226.509	121.083	422.606	415.765	86.283	331.982	82.180	0.0011169	0.00057333	0.00016094	1067	6.5544e-06	7.5991e-06	1113.8	344.02	7.9097e-06	6.5352e-06	411.04	138.34	111.45	44.509	5.1143e-06	62.901	0.00052632	0.00046115	0.00012686	993.5	5.0416e-06	5.137e-06	1030.6	320.53	5.2414e-06	5.0097e-06	383.24	128.7	104.07	42.202	4.9357e-06	59.246	109.740	169.125	214.222	93.555	183.912	223.925	92.834	98.969	227.165	240.262	97.780	103.128	103.641	109.751	230.701	108.199	-8191	255	
58846.398	1	1	0	0	0.10974	0.13758	0.17758	0.16771	0.042522	0.14563	0.19812	0.18087	0.12381	0.30653	0.33549	0.20974	0.1441	0.33348	0.19615	0.13544	-3.2833	-3.8354	-4.1979	-3.6083	-4.0271	-4.0896	-3.6708	-4.5813	-3.7062	-3.6562	-4.3896	-3.5896	-3.9833	-4.1771	-3.325	-4.2812	253.666	236.646	336.121	407.517	115.611	95.150	362.046	384.535	307.489	114.882	89.691	87.618	364.852	428.650	328.404	86.871	0.0011622	0.00042445	0.00021339	1069.8	7.4598e-06	3.3297e-06	1108.7	345.6	4.5532e-06	8.0372e-06	408.8	137.04	111.29	44.563	5.7742e-06	62.341	0.00053287	0.00044863	0.00012759	992.91	4.9485e-06	4.8917e-06	1030.4	321.16	5.1434e-06	4.8901e-06	382.01	127.81	103.98	42.119	4.9838e-06	58.62	110.929	200.297	152.368	93.457	232.052	226.592	92.722	98.680	240.668	273.839	97.569	102.566	103.478	109.632	223.875	107.763	-8191	255	
58846.492	1	1	0	0	0.10639	0.25386	0.086582	0.12027	0.22447	0.015965	0.16654	0.068057	0.15981	0.23781	0.19548	0.43732	0.16486	0.10702	0.10776	0.33601	-3.5375	-3.6562	-4.4771	-3.5271	-3.8875	-4.1687	-3.5938	-4.3292	-3.8729	-3.5438	-4.3688	-3.6604	-3.9021	-4.3708	-3.2812	-4.3792	384.164	281.386	222.682	103.397	136.669	205.339	374.388	372.991	411.422	317.873	383.073	440.022	395.193	418.193	162.287	421.023	0.00095777	0.00040832	0.0001311	1069.5	5.869e-06	5.0829e-06	1108.1	341.57	5.5578e-06	4.3427e-06	407	136.84	110.59	44.484	9.792e-06	61.835	0.0005138	0.00044078	0.00012203	991.48	4.9902e-06	4.9207e-06	1026.8	319.11	4.9075e-06	4.8976e-06	380.03	127.54	103.56	41.949	4.8253e-06	58.573	106.899	170.083	159.360	93.277	206.536	213.490	92.848	98.557	181.413	274.111	97.497	103.298	104.193	109.675	241.525	108.074	-8191	255	
58846.613	1	1	0	0	0.20604	0.10546	0.16018	0.15298	0.37732	0.3517	0.14578	0.21613	0.15767	0.16597	0.088454	0.1183	0.033408	0.061852	0.27383	0.24635	-3.6833	-3.5021	-4.3583	-3.5854	-3.6729	-4.3688	-3.5187	-4.1062	-3.9646	-3.4125	-4.5146	-3.7375	-3.8271	-4.2875	-3.45	-4.0542	232.805	402.196	128.556	403.128	212.815	223.980	356.044	390.180	197.676	119.251	384.914	350.874	406.948	356.464	358.959	356.568	0.0010132	0.0005404	0.00012035	1066.5	3.8322e-06	4.5276e-06	1109.8	343.47	6.9237e-06	3.0789e-06	412.69	137.54	111.07	44.624	7.8501e-06	62.521	0.00051392	0.00045019	0.00012379	990.55	4.9312e-06	4.8244e-06	1029.1	320.31	4.8924e-06	4.9507e-06	382.35	128.64	104.25	42.181	5.0019e-06	59.035	110.338	187.920	149.315	93.486	188.009	250.340	92.704	98.858	213.994	345.236	97.766	102.910	104.028	109.266	231.804	107.644	-8191	255	
58846.688	1	1	0	0	0.025163	0.12874	0.24326	0.14259	0.13966	0.10508	0.24047	0.20514	0.24506	0.20736	0.011053	0.23621	0.090157	0.22384	0.12934	0.13516	-3.8354	-3.5229	-4.3729	-3.8771	-3.5	-4.4958	-3.4104	-4.0125	-4.1583	-3.475	-4.325	-3.9125	-3.7333	-4.2979	-3.4771	-3.9688	188.571	236.910	208.524	106.926	242.377	417.776	390.206	408.370	166.946	270.868	133.571	393.487	227.720	352.976	305.873	88.348	0.0010837	0.00068293	0.00018008	1069.1	4.309e-06	8.2751e-06	1108.1	347.24	5.8401e-06	3.8354e-06	410.87	138.71	111.4	44.451	8.0829e-06	62.837	0.00052984	0.00044369	0.00012575	993.2	4.9386e-06	5.0387e-06	1032.8	322.05	4.8893e-06	4.8003e-06	383.08	129.11	104.23	42.125	5.0822e-06	59.106	116.236	175.712	174.468	93.828	220.190	179.281	92.771	99.071	203.408	252.117	97.600	102.849	103.888	109.626	226.873	107.729	-8191	255	
58846.781	1	1	0	0	0.059942	0.39064	0.16949	0.6258	0.12145	0.13876	0.32097	0.2139	0.054277	0.016941	0.10954	0.12564	0.17085	0.11615	0.052005	0.0088465	-3.8792	-3.3708	-4.1125	-3.9354	-3.4062	-4.1813	-3.5708	-3.9271	-4.2188	-3.3688	-4.2604	-3.8042	-3.5375	-4.375	-3.6125	-3.85	246.447	273.562	399.764	432.641	213.700	87.924	367.366	117.788	210.467	359.524	306.120	360.629	393.020	384.142	186.342	327.692	0.0010364	0.00052886	5.4536e-05	1066.8	5.349e-06	5.4723e-06	1115.6	343.09	5.6573e-06	5.926e-06	408.56	137.25	111.41	44.679	3.8623e-06	62.61	0.00052379	0.00044985	0.00012235	993.81	4.9661e-06	4.9931e-06	1031.5	320.5	4.8619e-06	5.1628e-06	381.1	128.06	104.52	42.165	4.9659e-06	58.789	111.904	145.149	426.591	93.519	210.425	227.875	92.878	98.951	246.291	251.299	97.439	103.081	103.274	109.573	251.026	107.684	-8191	255	
58846.902	1	1	0	0	0.19129	0.10679	0.062795	0.29794	0.16541	0.15498	0.512	0.23633	0.15823	0.25129	0.10022	0.18787	0.1342	0.27861	0.061574	0.11568	-3.9646	-3.4229	-4.0771	-4.2	-3.625	-4.3833	-3.7542	-3.8042	-4.2854	-3.3146	-4.2521	-4.1458	-3.5521	-4.3583	-3.7583	-3.8292	156.289	169.923	152.047	423.275	405.589	142.023	364.538	353.235	279.891	351.371	349.713	316.714	182.151	411.525	269.351	219.559	0.0011115	0.00044575	0.00011196	1064.3	5.1754e-06	3.5472e-06	1106.2	342.9	7.1735e-06	5.1903e-06	407.59	135.93	110.6	44.409	6.9586e-06	62.288	0.00051469	0.00046155	0.00012616	990.68	4.9705e-06	4.8534e-06	1024.6	319.62	4.8862e-06	5.0053e-06	380.53	127.63	103.73	42.013	5.0129e-06	58.614	113.831	181.549	185.876	93.806	200.992	247.818	92.526	98.533	223.235	242.294	97.395	103.242	103.817	109.549	223.139	107.673	-8191	255	
58847.000	1	1	0	0	0.060158	0.082318	0.18343	0.14671	0.21067	0.22343	0.19298	0.063512	0.26906	0.24459	0.093858	0.23756	0.23998	0.17144	0.085592	0.13378	-4.1312	-3.6417	-3.8208	-4.2125	-3.4542	-4.3417	-3.8646	-3.6771	-4.4167	-3.5917	-3.9479	-4.3396	-3.4333	-4.3146	-3.925	-3.625	202.103	141.970	295.204	325.568	145.575	437.652	380.067	367.584	392.984	239.814	366.876	423.725	119.851	348.707	294.466	209.453	0.0010038	0.0003448	0.00017632	1064	4.1448e-06	3.5702e-06	1107.9	341.58	8.4918e-06	4.2837e-06	405.62	136.19	110.4	44.044	7.8878e-06	61.87	0.00050865	0.00044053	0.00012704	990.05	4.7273e-06	4.7926e-06	1023.6	318.89	4.784e-06	4.8649e-06	379.45	127.74	103.53	41.932	4.8478e-06	58.438	110.628	130.074	142.566	93.851	182.450	195.335	92.712	98.755	229.563	283.118	97.390	102.818	103.507	109.787	210.726	107.842	-8191	255	
58847.098	1	1	0	0	0.16069	0.067187	0.16815	0.12655	0.3334	0.14008	0.19513	0.058228	0.19385	0.037512	0.21458	0.19114	0.19676	0.13737	0.16604	0.15158	-4.0958	-3.4458	-3.6958	-4.0667	-3.3708	-4.0958	-3.9021	-3.7625	-4.3479	-3.5104	-3.9062	-4.275	-3.5458	-4.2729	-4.1146	-3.5875	133.123	103.645	136.186	355.256	429.503	146.901	378.520	405.844	171.047	129.763	136.820	409.785	429.659	108.611	81.165	395.891	0.001182	0.00045355	9.4612e-05	1066.3	3.6084e-06	1.722e-06	1097	341.73	6.4172e-06	2.625e-06	407.9	136.19	110.26	44.361	8.8966e-06	61.352	0.00051461	0.00045308	0.00012661	991.27	4.8128e-06	4.974e-06	1020.3	319.13	4.8833e-06	5.0515e-06	379.98	127.36	103.41	41.873	4.9324e-06	58.241	111.833	124.112	91.797	93.478	214.172	189.404	92.868	98.797	198.416	244.523	97.505	102.560	103.773	109.586	228.875	107.623	-8191	255	
58847.191	1	1	0	0	0.084688	0.24567	0.14798	0.037882	0.29818	0.25889	0.26225	0.11188	0.0905	0.14848	0.40645	0.02259	0.19524	0.10706	0.15214	0.054494	-3.8958	-3.6167	-3.6188	-4.4375	-3.4229	-4.1792	-4.0188	-3.5833	-4.3438	-3.8333	-3.8104	-4.6021	-3.5396	-4.0792	-4.2042	-3.5167	138.050	326.342	193.857	311.361	355.038	204.646	377.398	323.322	407.926	138.144	357.543	83.735	428.021	151.076	143.868	319.120	0.0010639	0.00073789	9.8835e-05	1063.6	4.6455e-06	6.022e-06	1097.3	343.46	7.9582e-06	3.635e-06	404.87	135.88	110.14	44.129	6.7295e-06	61.746	0.00051167	0.00045959	0.00012293	988.52	4.9223e-06	4.8162e-06	1017	318.78	4.9291e-06	4.8313e-06	377.88	126.92	103.55	41.837	4.7618e-06	58.284	111.247	162.189	102.900	93.684	215.526	275.067	92.715	98.723	230.411	281.536	97.318	103.243	103.989	109.133	213.175	107.529	-8191	255	
58847.285	1	1	0	0	0.30714	0.15456	0.085235	0.32138	0.14198	0.098349	0.15948	0.086896	0.22788	0.27085	0.097488	0.10913	0.26	0.059348	0.23284	0.084602	-4.0292	-3.775	-3.4792	-4.3667	-3.5438	-3.7687	-4.3896	-3.4625	-4.2542	-3.9083	-3.6042	-4.4208	-3.5917	-3.9021	-4.1833	-3.4708	130.606	146.946	332.308	149.679	139.930	137.510	406.825	350.696	210.706	318.696	364.145	87.625	382.714	350.451	103.106	428.244	0.0010415	0.00052168	0.00022343	1064.2	6.2022e-06	5.3369e-06	1095.2	342.99	5.3199e-06	1.0111e-05	406.92	136.67	111.71	44.972	6.1569e-06	62.254	0.00051029	0.00044514	0.00012455	989.37	4.7921e-06	4.802e-06	1018.4	321.07	4.8494e-06	4.908e-06	379.88	128.01	104.68	42.339	4.8092e-06	58.741	108.389	131.307	194.199	93.941	223.655	169.051	92.578	98.823	234.628	219.548	97.221	103.013	103.767	109.548	176.768	107.751	-8191	255	
58847.383	1	1	0	0	0.087199	0.21917	0.13263	0.22147	0.13878	0.029514	0.14198	0.14689	0.13927	0.10081	0.1635	0.22511	0.21216	0.21514	0.19015	0.059847	-3.7938	-4.0854	-3.4125	-4.5333	-3.6688	-3.8021	-4.4479	-3.5458	-4.2083	-3.9083	-3.5354	-4.3354	-3.6833	-3.8896	-4.2312	-3.3354	195.664	431.594	109.613	402.087	208.263	112.581	435.634	161.813	259.473	345.682	406.466	349.092	112.957	317.175	355.693	358.443	0.0010535	0.00051707	0.00017638	1076.4	5.2791e-06	5.4404e-06	1103.7	349.26	7.4653e-06	5.1674e-06	412.69	138.3	113.46	44.97	5.8424e-06	62.519	0.00053664	0.00045554	0.00012592	996.97	5.0975e-06	4.9458e-06	1024.4	324.99	5.1317e-06	4.8642e-06	384.02	129.03	105.49	42.681	4.7679e-06	59.04	110.282	167.714	210.982	93.854	222.800	223.979	92.628	98.680	229.186	326.848	97.408	102.748	103.537	109.347	196.595	107.560	-8191	255	
58847.504	1	1	0	0	0.27375	0.17138	0.22347	0.13789	0.037486	0.083217	0.44034	0.012919	0.13493	0.016674	0.095109	0.10061	0.328	0.062578	0.090426	0.20181	-3.6958	-4.1979	-3.4458	-4.5021	-3.7792	-3.6667	-4.6229	-3.5271	-3.9646	-4.1229	-3.5833	-4.2937	-3.9958	-3.7479	-4.1875	-3.5042	436.096	226.331	301.350	408.734	314.893	265.049	414.860	212.862	418.366	202.080	216.276	401.673	416.022	128.791	149.416	345.541	0.0010809	0.00061606	6.1864e-05	1069.2	8.3096e-06	5.8815e-06	1103.3	347.95	7.4882e-06	5.8147e-06	410.18	137.93	113.05	45.044	5.7638e-06	61.986	0.00051753	0.00044755	0.00012618	992.62	5.0527e-06	4.9163e-06	1020.2	323.88	5.1329e-06	4.8389e-06	382.16	128.63	105.65	42.566	4.9667e-06	58.714	104.667	169.678	165.705	93.677	220.583	202.089	92.771	98.565	217.884	245.673	97.221	102.644	103.770	109.526	223.224	107.581	-8191	255	
58847.598	1	1	0	0	0.1357	0.054549	0.33494	0.06219	0.09698	0.16808	0.2574	0.16074	0.173	0.15	0.21677	0.074291	0.099092	0.27751	0.036522	0.084377	-3.5479	-4.1208	-3.35	-4.4208	-3.8896	-3.7438	-4.5312	-3.6521	-3.9	-4.1375	-3.7833	-4.0625	-4.1125	-3.6417	-4.2	-3.75	287.881	355.013	340.236	402.165	202.780	274.570	346.313	286.857	421.013	174.233	435.698	396.761	254.379	434.596	179.677	397.374	0.00092952	0.00052459	0.00021956	1062.3	8.6068e-06	4.8774e-06	1085.1	344.56	4.7454e-06	1.8904e-06	402.32	136.38	111.96	44.945	8.9917e-06	61.932	0.00050491	0.00043456	0.00012311	986.74	4.8721e-06	4.674e-06	1010.3	320.84	4.8492e-06	4.7239e-06	376.98	127.47	104.99	42.413	4.8171e-06	58.486	116.260	142.478	172.343	93.434	230.683	210.088	92.764	98.754	226.872	303.560	97.449	102.650	103.745	109.051	255.989	107.766	-8191	255	
58847.695	1	1	0	0	0.15842	0.11733	0.1294	0.18231	0.27153	0.11624	0.26119	0.27216	0.18285	0.1154	0.26658	0.27352	0.025559	0.04245	0.14867	0.1533	-3.3167	-4.1729	-3.2875	-4.0354	-4.0708	-3.5708	-4.4812	-3.8604	-3.8438	-4.3104	-3.5583	-4.2229	-4.1875	-3.5521	-4.2854	-3.7542	140.994	416.765	284.185	376.640	290.041	286.749	353.517	400.403	352.211	170.350	432.803	100.684	359.210	397.077	326.424	350.869	0.0010788	0.00016796	0.00015928	1053.3	8.1596e-06	6.7006e-06	1079.8	344.74	4.6613e-06	7.1107e-06	402.35	136.51	111.43	44.551	8.9104e-06	61.096	0.00050338	0.00043076	0.00012317	979.56	4.7761e-06	4.7937e-06	1003.1	320.03	4.7955e-06	4.8219e-06	376.05	126.92	104.23	42.061	4.9732e-06	58.008	110.622	115.314	163.889	93.498	225.429	245.403	92.556	99.106	207.096	234.911	97.487	103.052	103.880	109.402	226.144	107.834	-8191	255	
58847.789	1	1	0	0	0.30382	0.079073	0.25538	0.1636	0.26961	0.17467	0.09598	0.38037	0.093035	0.095762	0.17092	0.2466	0.14563	0.18324	0.17734	0.09538	-3.4083	-4.2646	-3.6188	-4.1	-4.2396	-3.3875	-4.1979	-3.9792	-3.5708	-4.4833	-3.6333	-4.0229	-4.2542	-3.675	-4.2438	-3.9833	384.644	139.761	84.288	402.758	165.576	214.465	182.306	380.891	345.385	248.486	338.688	379.382	146.533	407.440	296.423	112.258	0.00095595	0.00051775	0.00019373	1048.7	7.4739e-06	4.4731e-06	1072.2	342	1.1992e-06	6.3024e-06	400.84	133.89	110.83	44.326	4.8534e-06	61.453	0.00050572	0.00044886	0.0001294	973.06	4.8952e-06	4.8895e-06	997	317.89	4.7097e-06	4.8355e-06	374.62	126.19	103.4	41.858	5.0561e-06	58.249	110.335	121.585	162.390	93.439	217.303	220.478	92.796	99.072	169.428	232.108	97.787	102.780	103.648	109.292	210.462	107.900	-8191	255	
58847.910	1	1	0	0	0.14518	0.12657	0.11085	0.38975	0.056252	0.10401	0.19539	0.14177	0.20278	0.23467	0.2322	0.24006	0.14206	0.059614	0.19094	0.18354	-3.2313	-4.3313	-3.4833	-3.9125	-4.3417	-3.4271	-4.2896	-4.1604	-3.4917	-4.3979	-3.8979	-3.8896	-4.3875	-3.4521	-4.1979	-4.1562	385.106	376.009	292.415	412.417	363.323	424.868	343.814	123.866	143.223	286.929	391.963	220.434	319.527	429.909	293.935	336.795	0.001047	0.00060641	0.00020195	1042.3	3.1392e-06	7.6152e-06	1069.5	339.86	6.5092e-06	5.5496e-06	396.55	133.8	110.42	44.129	4.4774e-06	61.29	0.00049957	0.00044496	0.00012619	970.67	4.7866e-06	4.9005e-06	992.39	315.51	4.8346e-06	4.9251e-06	371.45	125.11	103.08	41.752	4.9884e-06	57.778	112.063	183.435	162.839	93.631	200.831	210.212	92.601	98.669	249.335	221.726	97.804	102.765	103.980	109.548	216.722	107.744	-8191	255	
58847.984	1	1	0	0	0.061314	0.167	0.10281	0.10407	0.081154	0.10647	0.04568	0.28276	0.14328	0.06532	0.25176	0.1015	0.10289	0.36209	0.25197	0.051096	-3.2792	-4.2021	-3.5979	-3.8396	-4.2771	-3.5	-4.1229	-4.2542	-3.4396	-4.3083	-3.9146	-3.6875	-4.4437	-3.6729	-4.0146	-4.2292	327.775	115.557	140.809	404.962	227.587	179.862	170.155	339.266	177.638	115.622	421.207	416.876	281.933	110.656	261.716	188.107	0.0010845	0.00035838	0.00022755	1038.1	4.3598e-06	9.1961e-06	1068.7	337.59	4.4843e-06	7.1862e-06	397.98	134.81	109.87	44.293	5.3028e-06	60.679	0.00049949	0.00044648	0.00012215	964.23	4.7979e-06	4.9564e-06	990.95	314.09	4.85e-06	4.8601e-06	370.3	125.57	102.86	41.685	4.8638e-06	57.563	110.836	147.541	162.564	93.581	213.136	219.987	92.501	99.036	232.195	223.525	97.674	102.455	103.806	109.390	174.386	107.853	-8191	255	
58848.078	1	1	0	0	0.24039	0.13491	0.2356	0.12475	0.20842	0.12158	0.20432	0.20286	0.10714	0.063288	0.1946	0.20341	0.1734	0.071257	0.13773	0.094482	-3.1229	-4.2562	-3.8792	-3.7771	-4.1917	-3.5042	-4.075	-4.2583	-3.4104	-4.2937	-4.0104	-3.6042	-4.3	-3.7104	-3.7938	-4.3792	331.384	426.789	113.433	403.484	179.148	238.205	349.443	387.668	171.789	309.127	410.726	407.955	412.407	414.318	137.429	358.245	0.00097029	0.00054458	0.00020164	1047.5	7.1543e-06	3.2523e-06	1066.8	338.81	6.766e-06	4.3098e-06	399.59	135.5	110.59	44.388	5.4296e-06	61.616	0.00049125	0.00043703	0.00011716	971.49	4.6597e-06	4.7845e-06	991.07	315.89	4.9175e-06	4.8279e-06	371.76	126.03	103.42	41.881	4.9237e-06	58.071	112.168	145.906	130.864	93.412	236.019	225.297	92.779	98.931	221.359	256.888	97.653	102.622	104.217	109.362	222.563	107.732	-8191	255	
58848.176	1	1	0	0	0.096704	0.040074	0.13806	0.0036424	0.16505	0.18796	0.081601	0.33263	0.38546	0.062245	0.060478	0.11191	0.092534	0.15425	0.17078	0.15433	-3.15	-4.3208	-4.0792	-3.4521	-4.3542	-3.6729	-3.9646	-4.3542	-3.2396	-4.2375	-4.0229	-3.4583	-4.5729	-3.7021	-3.6979	-4.4333	315.341	99.882	199.319	282.862	181.056	132.965	413.962	323.826	279.361	87.339	281.858	270.558	399.061	166.614	389.281	318.608	0.00099705	0.00035463	6.3755e-05	1046.2	3.809e-06	4.3863e-06	1072.1	339.61	4.7927e-06	4.6612e-06	400.66	135.05	110.77	44.363	9.1509e-06	61.591	0.00052103	0.00043622	0.00011786	971.67	4.7321e-06	5.0152e-06	997.06	316.07	4.8833e-06	4.9291e-06	374.09	126.27	103.4	41.869	4.8209e-06	58.171	106.986	135.726	185.357	93.662	160.145	182.105	92.895	98.903	204.076	257.947	97.626	102.521	103.501	109.430	218.410	107.203	-8191	255	
58848.297	1	1	0	0	0.16309	0.13455	0.08668	0.1768	0.11536	0.093797	0.17286	0.16307	0.06083	0.20033	0.031429	0.14148	0.12693	0.32243	0.12569	0.27314	-3.0563	-3.9979	-3.9771	-3.4771	-4.3	-3.7521	-3.8646	-4.3562	-3.5146	-3.9792	-4.2771	-3.4396	-4.2792	-3.9333	-3.4458	-4.3625	240.812	267.647	319.115	396.483	242.629	141.613	83.016	392.381	353.044	342.117	368.669	116.918	159.063	396.228	275.411	378.815	0.0011837	0.00063302	0.00017804	1046.5	5.1076e-06	6.4731e-06	1068.5	339.35	5.9104e-06	7.0257e-06	397.54	134.41	110	44.259	2.771e-06	61.142	0.00051608	0.00044984	0.00011848	971.46	4.9273e-06	4.7064e-06	993.39	316.29	4.9482e-06	4.8763e-06	371.5	125.62	102.92	41.725	4.6849e-06	57.765	111.548	157.061	197.348	93.398	197.769	178.350	92.651	98.774	192.972	239.989	97.564	102.678	103.348	109.417	216.440	107.587	-8191	255	
58848.391	1	1	0	0	0.1704	0.1823	0.13362	0.3603	0.10178	0.052398	0.26101	0.12526	0.15274	0.093247	0.23058	0.13699	0.11488	0.22547	0.17925	0.18537	-3.1937	-3.8063	-4.2792	-3.5646	-4.1917	-3.925	-3.65	-4.5333	-3.6167	-3.9792	-4.3979	-3.6354	-4.4208	-4.0667	-3.5312	-4.3896	199.881	107.166	92.897	402.083	165.147	83.160	346.838	380.161	343.018	430.639	437.532	408.817	424.607	109.236	224.016	369.287	0.0010361	0.00042803	0.00021803	1043.2	6.7951e-06	9.4374e-06	1068	339.66	7.0896e-06	6.7141e-06	397.07	133.93	110.62	43.918	7.4756e-06	60.823	0.00050745	0.00043056	0.00012004	969.78	4.7913e-06	4.6779e-06	990.83	315.64	4.9961e-06	4.7831e-06	371.6	125.19	102.96	41.682	4.8263e-06	57.755	109.214	175.074	130.704	93.557	225.231	225.703	92.889	99.076	177.583	236.458	97.561	102.675	103.975	109.758	220.905	107.642	-8191	255	
58848.488	1	1	0	0	0.091508	0.15964	0.12046	0.19174	0.21009	0.038664	0.30997	0.18957	0.24088	0.10682	0.45256	0.13448	0.12018	0.15701	0.26996	0.23028	-3.25	-3.7083	-4.3146	-3.6479	-4.1979	-4.2146	-3.6979	-4.6083	-3.5583	-3.6813	-4.4792	-3.6854	-4.1312	-4.1958	-3.4771	-4.4979	245.055	394.187	313.140	126.842	207.303	400.862	393.692	407.818	205.285	149.866	360.303	396.600	385.163	293.773	436.665	420.968	0.0010596	0.0007144	0.00014647	1046	7.5269e-06	4.177e-06	1075.3	341.26	6.6566e-06	4.4231e-06	399.22	134.95	110.84	44.246	5.5996e-06	61.464	0.0005102	0.00044558	0.00011691	972.26	4.7939e-06	4.638e-06	995.63	317.65	4.938e-06	4.7858e-06	372.79	126.04	103.51	41.928	4.8298e-06	58.164	110.271	221.526	140.359	93.683	227.436	218.453	92.732	98.901	185.458	316.119	97.547	102.714	103.380	109.231	201.327	108.217	-8191	255	
58848.582	1	1	0	0	0.14862	0.071847	0.094208	0.17565	0.13185	0.15917	0.18887	0.31755	0.10066	0.044085	0.37897	0.075707	0.22006	0.083067	0.36411	0.035371	-3.6125	-3.5208	-4.3313	-3.5958	-4.0333	-4.1792	-3.8125	-4.5687	-3.7396	-3.5958	-4.5729	-3.6729	-3.9958	-4.375	-3.3563	-4.4125	277.862	119.751	440.816	388.201	404.727	396.858	105.950	371.738	142.600	285.006	355.862	355.947	356.238	334.742	334.397	97.479	0.00099914	0.00057963	9.4508e-05	1052.7	7.8351e-06	5.5203e-06	1074.1	341.36	7.5167e-06	4.852e-06	400.17	135.38	110.93	44.529	5.4722e-06	61.436	0.00051692	0.00044072	0.00012224	976.5	4.8284e-06	4.8782e-06	999.6	318.27	4.8541e-06	4.8219e-06	374.63	126.57	103.91	41.972	4.8937e-06	57.999	114.703	193.028	235.274	93.585	200.831	198.579	92.746	98.854	251.925	183.684	97.527	102.730	103.484	109.661	255.346	107.611	-8191	255	
58848.680	1	1	0	0	0.19546	0.063643	0.1459	0.29878	0.18126	0.052306	0.11383	0.38534	0.12497	0.094137	0.25371	0.10004	0.30312	0.23668	0.10606	0.172	-3.6063	-3.6979	-4.3354	-3.8667	-3.8563	-4.2583	-3.6583	-4.3333	-3.9708	-3.4458	-4.5417	-3.7104	-3.8812	-4.2292	-3.4854	-4.0563	388.125	102.013	272.804	294.865	176.135	261.133	357.637	333.945	328.761	222.040	327.811	382.286	398.195	362.842	213.285	292.184	0.0010898	0.00044663	8.036e-05	1051.7	8.7844e-06	5.1688e-06	1078.5	341.98	5.9004e-06	2.5496e-06	400.14	135.09	110.82	44.574	5.2083e-06	61.249	0.00050861	0.00043045	0.00012535	975.18	4.833e-06	4.8526e-06	996.47	318.31	4.9094e-06	4.9146e-06	373.73	125.79	103.54	42.028	4.9277e-06	57.862	110.921	121.328	171.359	93.430	204.327	266.632	92.701	98.835	203.688	139.615	97.188	102.694	103.928	109.627	208.666	107.425	-8191	255	
58848.777	1	1	0	0	0.19715	0.090221	0.021694	0.085028	0.064517	0.15059	0.25562	0.35047	0.1758	0.070114	0.076806	0.045803	0.072241	0.13226	0.054052	0.24127	-3.7542	-3.5271	-4.3479	-3.9479	-3.7771	-4.325	-3.5042	-4.0833	-4.1521	-3.4229	-4.4729	-3.925	-3.8063	-4.4604	-3.4771	-4.0271	164.720	378.414	280.327	358.613	321.477	106.074	98.714	395.777	170.046	118.807	391.551	365.142	149.607	424.734	293.609	401.024	0.001016	0.00023787	6.3165e-05	1041.2	7.1287e-06	2.9991e-06	1064.8	340.45	7.1419e-06	2.6345e-06	399.44	135.02	110.82	44.347	8.0294e-06	61.269	0.00050086	0.00045144	0.00012627	973	4.8097e-06	4.7176e-06	993.69	317.31	4.7381e-06	5.1198e-06	372.38	125.87	103.52	41.945	4.9661e-06	57.883	111.010	122.730	152.098	93.490	175.037	153.678	92.740	98.715	197.608	307.595	97.517	102.780	104.007	109.204	233.904	107.902	-8191	255	
58848.871	1	1	0	0	0.089384	0.14756	0.031047	0.11024	0.034382	0.14383	0.12432	0.18684	0.078556	0.19006	0.19817	0.11732	0.14179	0.15875	0.16268	0.14307	-3.7271	-3.3479	-4.2125	-3.9792	-3.4021	-4.3708	-3.6354	-3.9896	-4.2458	-3.5792	-4.3833	-4.1958	-3.5521	-4.4812	-3.525	-4.0062	385.383	268.873	110.078	343.837	119.374	398.840	297.197	302.345	195.642	93.316	109.845	259.906	82.098	85.933	290.671	417.559	0.0010172	0.00036798	2.7383e-05	1044.6	8.3635e-06	3.1385e-06	1078.8	341.08	8.2514e-06	3.585e-06	402.16	135.04	110.55	44.364	5.0565e-06	61.358	0.00050178	0.00043016	0.00012058	972.89	4.8334e-06	4.9113e-06	996.92	317.32	4.8413e-06	4.8711e-06	374.36	126.22	103.47	41.883	5.0538e-06	58.114	106.713	159.637	97.227	93.594	237.447	170.938	92.708	99.324	219.366	147.631	97.398	103.015	104.218	109.211	248.924	107.704	-8191	255	
58848.992	1	1	0	0	0.084553	0.17394	0.11058	0.18738	0.13407	0.14724	0.14487	0.16074	0.074956	0.1993	0.13991	0.078405	0.12645	0.034543	0.23993	0.11603	-3.9042	-3.6646	-4.2188	-4.0833	-3.4479	-4.3938	-3.9292	-3.7958	-4.4125	-3.6417	-4.2729	-4.0979	-3.5396	-4.4729	-3.6125	-3.8812	310.150	421.161	117.156	434.357	293.876	338.936	415.765	425.565	335.613	256.826	376.049	108.685	367.139	299.302	163.688	378.233	0.0010435	0.00056524	9.8071e-05	1051.8	6.1631e-06	1.6507e-06	1072.8	341.2	6.2176e-06	3.596e-06	397.79	134.78	111.2	44.438	5.0543e-06	61.244	0.00050703	0.00044907	0.00012619	976.65	5.0227e-06	4.9661e-06	997.6	317.75	4.8129e-06	4.9697e-06	373.86	126.1	103.56	41.968	4.7312e-06	57.806	110.722	180.463	104.406	93.626	226.640	272.593	92.718	98.598	236.485	211.317	97.457	103.037	103.760	109.353	236.879	107.865	-8191	255	
58849.090	1	1	0	0	0.054054	0.10839	0.16965	0.064986	0.066756	0.05226	0.25274	0.077327	0.14399	0.098821	0.36581	0.14439	0.045958	0.13379	0.15868	0.22431	-3.9146	-3.5042	-4.0021	-4.1979	-3.4062	-4.3792	-4.0563	-3.9083	-4.3938	-3.3771	-4.175	-4.2021	-3.5812	-4.2208	-3.8021	-3.8521	81.368	333.207	216.391	279.048	433.231	245.518	405.568	393.011	201.258	418.240	377.370	276.955	291.515	359.721	366.235	297.397	0.0010211	0.00046743	0.00016352	1047.1	5.3613e-06	5.2974e-06	1075.7	338.86	8.3958e-06	5.6273e-06	397.59	133.6	109.52	44.255	8.0542e-06	60.381	0.00049758	0.00044496	0.000121	972.71	4.7095e-06	4.842e-06	994.33	316.32	4.895e-06	4.9635e-06	370.9	125.06	102.63	41.717	4.7764e-06	57.431	112.324	168.259	164.940	93.671	212.362	193.440	92.910	98.893	220.843	253.762	97.133	102.991	103.539	109.757	180.712	107.558	-8191	255	
58849.184	1	1	0	0	0.14456	0.25128	0.10379	0.18987	0.095112	0.06684	0.085323	0.10529	0.20377	0.069243	0.20449	0.19085	0.098025	0.13549	0.22114	0.20264	-4.1375	-3.5187	-3.9354	-4.5	-3.4437	-4.1292	-3.9375	-3.6562	-4.2333	-3.5563	-3.9104	-4.1792	-3.5583	-4.2542	-4.0813	-3.6021	148.385	286.688	181.293	414.519	258.241	123.013	391.848	134.830	341.369	403.853	396.434	409.743	423.028	417.844	303.792	361.067	0.00098954	0.000395	0.00010884	1041.4	6.4832e-06	1.5922e-06	1068.7	337.82	1.1568e-05	5.3492e-06	398.35	133.76	109.87	44.123	3.2334e-06	60.809	0.00050415	0.00043309	0.00012256	970.09	4.78e-06	4.7121e-06	988.93	315.11	4.7879e-06	4.8077e-06	370.25	124.66	102.96	41.668	4.5617e-06	57.397	108.151	161.769	191.224	93.507	230.904	206.750	93.241	98.799	216.112	237.333	97.136	102.845	103.615	109.298	241.705	107.035	-8191	255	
58849.277	1	1	0	0	0.11093	0.15314	0.11861	0.32585	0.12785	0.15916	0.11651	0.26887	0.18848	0.095751	0.19338	0.084132	0.10638	0.21032	0.09663	0.1952	-4.0458	-3.6937	-3.6771	-4.5146	-3.4167	-4.0167	-4.1562	-3.3625	-4.3958	-3.7938	-3.925	-4.3938	-3.6042	-4.3104	-4.0938	-3.6063	395.000	355.292	273.092	409.376	228.794	193.026	376.339	415.435	308.502	224.830	332.166	197.464	82.883	86.148	274.726	216.194	0.0010688	0.00047049	0.0001035	1036.8	4.1253e-06	5.3832e-06	1072.4	339.29	5.0233e-06	5.1575e-06	400.54	134.25	109.48	44.061	7.3783e-06	61.144	0.00050538	0.00045452	0.00012171	966.57	4.7811e-06	4.8006e-06	990.21	314.76	4.797e-06	4.759e-06	370.86	125.37	102.94	41.592	4.6664e-06	57.543	112.494	129.510	160.348	93.485	183.241	252.662	92.693	98.969	230.328	253.230	97.595	102.729	103.889	109.573	238.121	107.762	-8191	255	
58849.375	1	1	0	0	0.12446	0.18398	0.12399	0.069065	0.096645	0.31208	0.19277	0.17414	0.15498	0.088413	0.1135	0.071565	0.13285	0.12904	0.085834	0.12174	-4.0979	-3.8125	-3.6437	-4.5083	-3.4958	-3.9833	-4.1708	-3.4854	-4.2167	-3.9125	-3.6896	-4.5896	-3.6229	-3.9792	-4.2479	-3.4562	319.077	351.386	437.575	300.488	155.406	397.732	361.501	399.855	121.694	103.620	109.387	148.829	317.509	412.872	299.287	355.044	0.0011067	0.00083246	0.00016096	1039.1	8.2121e-06	6.1163e-06	1067.8	337.59	2.4032e-06	5.9097e-06	394.93	133.52	108.95	43.786	6.5535e-06	59.923	0.00051328	0.00043715	0.00012387	966.37	4.7984e-06	4.7419e-06	985.66	314.12	4.7678e-06	4.693e-06	368.91	124.75	102.28	41.425	4.8779e-06	56.988	111.145	175.303	146.005	93.920	193.241	238.461	92.702	98.706	214.929	234.047	97.323	102.691	103.879	109.395	233.380	107.715	-8191	255	
58849.473	1	1	0	0	0.31352	0.090167	0.14352	0.08319	0.13365	0.11717	0.19158	0.10781	0.31264	0.19271	0.033577	0.25853	0.27126	0.11823	0.10861	0.06813	-3.8021	-3.9979	-3.4813	-4.3562	-3.5187	-3.9021	-4.5062	-3.4875	-4.2021	-4.1729	-3.5396	-4.4646	-3.6833	-3.8542	-4.2708	-3.7479	325.084	253.146	316.412	417.562	304.469	440.664	324.185	303.346	235.411	436.651	329.567	408.823	321.012	397.139	399.247	341.331	0.0010274	0.00037612	7.8668e-05	1035.4	6.6586e-06	6.6179e-06	1054.8	335.7	1.0797e-06	4.073e-06	393.81	132.49	109.17	43.512	2.8171e-06	60.078	0.00049488	0.00042951	0.00011909	962.36	4.8811e-06	4.6221e-06	980.87	312.12	4.6602e-06	4.6079e-06	366.7	124.05	101.89	41.221	4.7353e-06	56.937	114.142	181.439	141.539	93.260	172.611	232.976	93.064	98.705	236.338	288.085	97.428	102.687	103.879	109.472	279.878	107.561	-8191	255	
58849.594	1	1	0	0	0.11839	0.086266	0.1594	0.204	0.052943	0.15794	0.16287	0.077649	0.11926	0.10568	0.093986	0.1849	0.093242	0.144	0.13094	0.12058	-3.7375	-4.1583	-3.5042	-4.5146	-3.5625	-3.7729	-4.5458	-3.7521	-3.9062	-4.2604	-3.5062	-4.45	-3.8812	-3.7	-4.3167	-3.6083	359.175	329.394	157.402	356.544	280.433	282.980	150.465	149.835	411.308	251.597	281.032	402.364	360.504	364.110	375.339	422.742	0.00099937	0.00045481	0.00024515	1031.7	7.691e-06	6.238e-06	1054.9	332.57	6.9584e-06	3.9682e-06	394.37	132.77	108.27	43.47	6.2553e-06	60.464	0.00050616	0.00042057	0.00012255	957.35	4.7522e-06	4.6541e-06	978.25	310.77	4.723e-06	4.6743e-06	366.71	124.06	101.4	41.104	4.6915e-06	57.166	114.661	206.758	153.475	93.546	239.038	206.854	92.908	98.896	236.997	275.454	97.350	102.712	103.514	109.429	222.628	107.879	-8191	255	
58849.688	1	1	0	0	0.070862	0.097421	0.10279	0.15221	0.08557	0.13842	0.11364	0.31657	0.079749	0.18562	0.13484	0.23615	0.15638	0.1524	0.20883	0.2316	-3.4896	-4.2479	-3.3792	-4.3708	-3.8646	-3.7562	-4.5146	-3.7042	-3.8833	-4.0667	-3.5979	-4.2542	-3.8396	-3.5146	-4.3708	-3.6208	286.557	159.182	385.903	176.821	435.048	238.952	284.020	400.396	438.063	401.467	246.348	379.365	363.706	175.616	368.174	410.796	0.0010766	0.00053817	0.00011969	1029.5	5.8717e-06	9.0751e-06	1056.7	331.37	4.0344e-06	2.4535e-06	393.43	132.46	108.93	43.726	4.2512e-06	60.393	0.00050424	0.00043318	0.00012053	958.22	4.6754e-06	4.7206e-06	978.55	309.18	4.5815e-06	4.7649e-06	365.89	123.85	101.6	41.165	4.896e-06	57.228	106.831	165.221	136.510	93.685	237.681	200.398	92.834	98.831	222.884	264.762	97.522	102.773	103.609	109.292	227.460	107.555	-8191	255	
58849.785	1	1	0	0	0.078199	0.056208	0.097177	0.2477	0.084171	0.16001	0.1513	0.27876	0.15971	0.10223	0.058283	0.11299	0.098427	0.28434	0.2012	0.20554	-3.5	-4.225	-3.5083	-4.2604	-3.7896	-3.2396	-4.3792	-3.7458	-3.6542	-4.2458	-3.4979	-4.175	-4.1021	-3.7104	-4.3479	-3.7583	360.125	227.367	319.161	407.694	108.526	237.696	360.393	375.582	374.409	183.261	422.239	143.271	88.380	378.102	380.625	372.819	0.00097188	0.00061907	0.0001565	1028.1	7.4784e-06	2.4279e-06	1053	330.66	7.99e-06	1.6694e-06	389.73	131.48	108.44	43.607	4.1058e-06	59.631	0.00048525	0.00043915	0.0001235	957.37	4.7156e-06	4.6965e-06	975.23	308.57	4.8093e-06	4.7492e-06	364.13	122.86	100.8	41.005	4.874e-06	56.582	106.544	179.562	112.217	93.309	200.700	330.606	92.916	98.790	249.242	277.394	97.636	102.519	104.005	109.423	218.550	108.018	-8191	255	
58849.855	1	1	0	0	0.14588	0.087171	0.10634	0.15507	0.27734	0.13263	0.20759	0.2872	0.063842	0.15196	0.20554	0.14343	0.15517	0.22475	0.079141	0.12836	-3.2938	-4.0875	-3.3583	-4.0604	-4.0042	-3.425	-4.4583	-3.6229	-3.5167	-4.3292	-3.4396	-4.0229	-4.2458	-3.5812	-4.4083	-3.8583	314.475	375.676	393.238	302.461	360.868	216.982	425.030	415.487	90.047	156.541	390.027	380.830	353.233	390.163	204.631	151.535	0.001052	0.00063404	0.0001292	1029.7	8.6983e-06	4.7817e-06	1050.5	331.38	6.5e-06	4.8189e-06	390.54	131.25	108.17	43.15	7.9957e-06	60.243	0.00050714	0.00043039	0.00012025	957.09	4.7156e-06	4.7631e-06	977.38	308.93	4.7394e-06	4.6023e-06	364.04	122.75	100.87	40.814	4.6069e-06	56.785	110.051	155.929	139.876	93.274	234.057	210.573	92.707	98.886	202.950	266.160	97.466	102.534	104.036	109.458	204.638	107.698	-8191	255	
58849.977	1	1	0	0	0.33365	0.23546	0.17159	0.26759	0.24352	0.12653	0.12994	0.19665	0.19522	0.16046	0.12219	0.132	0.095925	0.11952	0.27768	0.19484	-3.2396	-4.2708	-3.475	-3.8958	-4.2958	-3.5438	-4.2708	-3.925	-3.4188	-4.3917	-3.7208	-3.9958	-4.4125	-3.3771	-4.125	-3.9562	218.468	395.865	182.972	100.666	148.301	432.868	156.722	403.683	240.778	418.976	384.447	172.324	363.825	354.683	291.070	104.272	0.0010461	0.0004649	0.00018038	1037.1	1.2473e-05	6.8442e-06	1054	330.8	6.4119e-06	1.0604e-06	393.54	131.99	108.29	43.215	5.6705e-06	60.027	0.00050732	0.00044104	0.00012251	959.24	4.7328e-06	4.6584e-06	979.69	308.94	4.7352e-06	4.6821e-06	365.84	123.64	101.07	40.997	4.6315e-06	57.003	110.501	128.321	142.893	93.692	207.807	240.973	92.792	98.741	258.049	261.425	97.816	102.789	104.070	109.667	204.690	107.880	-8191	255	
58850.074	1	1	0	0	0.17931	0.13217	0.22355	0.14349	0.098661	0.04157	0.33358	0.22489	0.3816	0.078238	0.045857	0.12457	0.14116	0.32338	0.13892	0.065756	-3.2146	-4.3292	-3.4854	-3.6854	-4.2708	-3.4562	-4.3292	-4.1708	-3.5062	-4.3021	-3.7583	-3.675	-4.4875	-3.6021	-3.9562	-4.1562	353.169	235.351	233.678	118.902	432.861	183.075	363.383	355.914	118.745	213.161	392.345	397.912	105.581	414.990	145.685	273.458	0.0010454	0.00034884	0.00017406	1037.8	4.9552e-06	6.0265e-06	1061.1	332.72	4.0053e-06	6.4237e-06	393.55	133.36	109.76	43.762	4.2638e-06	61.201	0.00050935	0.00042943	0.00011954	960.93	4.6403e-06	4.781e-06	986.84	311.47	4.9388e-06	4.5682e-06	368.15	124.77	102.19	41.382	4.6646e-06	57.51	110.527	183.547	120.920	93.717	243.628	212.809	93.053	99.177	220.403	230.277	97.486	102.812	103.566	109.463	159.727	107.390	-8191	255	
58850.168	1	1	0	0	0.070443	0.079579	0.1657	0.23393	0.16685	0.30488	0.12405	0.080098	0.045217	0.209	0.10018	0.027764	0.39825	0.16543	0.029013	0.16233	-3.2313	-4.1625	-3.7021	-3.8583	-4.2104	-3.4292	-4.0062	-4.3125	-3.3479	-4.1687	-3.8708	-3.5667	-4.2917	-3.6021	-3.7604	-4.3292	334.368	305.104	274.808	98.760	155.607	141.712	385.198	367.347	412.230	81.879	260.269	121.890	397.018	431.133	396.289	407.711	0.0010144	0.0004588	0.00013122	1039.4	7.4434e-06	6.131e-06	1064.4	333.07	4.2356e-06	2.5466e-06	395.56	133.56	108.8	43.671	5.6191e-06	60.513	0.00048815	0.00041925	0.00011864	963.21	4.8414e-06	4.525e-06	986.08	311.84	4.6185e-06	4.6192e-06	367.8	124.36	102.02	41.335	4.7025e-06	57.282	110.016	221.040	208.096	93.665	204.361	216.407	92.857	99.051	200.414	212.775	97.607	102.942	103.435	109.701	216.936	108.278	-8191	255	
58850.266	1	1	0	0	0.15375	0.061908	0.098405	0.36638	0.084512	0.19333	0.28115	0.35839	0.11827	0.15795	0.20192	0.15702	0.26131	0.32435	0.24422	0.15208	-2.9771	-4.1229	-3.7792	-3.5708	-4.2083	-3.4896	-3.9313	-4.2792	-3.4771	-3.9813	-4.0417	-3.4396	-4.3333	-3.7729	-3.7188	-4.3917	197.920	180.037	227.122	375.914	170.312	312.252	348.237	400.711	86.356	123.220	382.557	310.836	436.733	85.942	315.746	402.234	0.0010097	0.00082841	0.00020016	1036.6	6.905e-06	3.8748e-06	1065	334.94	5.9829e-06	4.5082e-06	393.05	133.22	109.73	43.773	8.7188e-06	60.99	0.00050424	0.00042673	0.00011889	963.51	4.793e-06	4.6658e-06	986.91	312.78	4.8186e-06	4.7289e-06	368.06	124.86	102.34	41.4	4.7904e-06	57.495	111.561	167.999	193.611	93.413	234.561	220.781	92.664	98.918	200.845	224.059	98.004	102.801	103.579	109.239	252.800	107.863	-8191	255	
#DATA ENDS
