BOXY.EXE: ISS Imagent and Oximeter Data Acquisition Program Version 0.80
Ascii Record File

#ACQ INFORMATION
2  Detector Channels 
16  External MUX Channels 
1  Auxiliary Channels 
5000  Waveform (CCF) Frequency (Hz)
1  Waveforms Skipped 
30  Waveforms Averaged 
1  Cycles Averaged 
16  Acquisitions per Waveform 
10.0806  Updata Rate (Hz) 

#FILE INFORMATION
TRUE -- External MUX Channel results are PARSED.
FALSE -- AC DC and Phase are NOT grouped.
TRUE -- Companion Program Settings File CREATED.
FALSE -- AC data not excluded
FALSE -- DC data not excluded
FALSE -- Phase data not excluded
FALSE -- Auxillary Chn. data not excluded
Tab delimiters

#CALIBRATION STATE
TRUE -- Waveform Calibration Values APPLIED.


#AUX CALIBRATION VALUES
Val Type	aux-1	

Term	1.0000e+00	
Factor	0.0000e+00	


#WF CALIBRATION VALUES
A = Detector Channel
Val Type	A-AC1	A-AC2	A-AC3	A-AC4	A-AC5	A-AC6	A-AC7	A-AC8	A-AC9	A-AC10	A-AC11	A-AC12	A-AC13	A-AC14	A-AC15	A-AC16	A-DC1	A-DC2	A-DC3	A-DC4	A-DC5	A-DC6	A-DC7	A-DC8	A-DC9	A-DC10	A-DC11	A-DC12	A-DC13	A-DC14	A-DC15	A-DC16	A-Ph1	A-Ph2	A-Ph3	A-Ph4	A-Ph5	A-Ph6	A-Ph7	A-Ph8	A-Ph9	A-Ph10	A-Ph11	A-Ph12	A-Ph13	A-Ph14	A-Ph15	A-Ph16	

Term	0.00000e+00	0.00000e+00	0.00000e+00	0.00000e+00	0.00000e+00	0.00000e+00	0.00000e+00	0.00000e+00	0.00000e+00	0.00000e+00	0.00000e+00	0.00000e+00	0.00000e+00	0.00000e+00	0.00000e+00	0.00000e+00	0.00000e+00	0.00000e+00	0.00000e+00	0.00000e+00	0.00000e+00	0.00000e+00	0.00000e+00	0.00000e+00	0.00000e+00	0.00000e+00	0.00000e+00	0.00000e+00	0.00000e+00	0.00000e+00	0.00000e+00	0.00000e+00	0.00000e+00	0.00000e+00	0.00000e+00	0.00000e+00	0.00000e+00	0.00000e+00	0.00000e+00	0.00000e+00	0.00000e+00	0.00000e+00	0.00000e+00	0.00000e+00	0.00000e+00	0.00000e+00	0.00000e+00	0.00000e+00	
Factor	1.00000e+00	1.00000e+00	1.00000e+00	1.00000e+00	1.00000e+00	1.00000e+00	1.00000e+00	1.00000e+00	1.00000e+00	1.00000e+00	1.00000e+00	1.00000e+00	1.00000e+00	1.00000e+00	1.00000e+00	1.00000e+00	1.00000e+00	1.00000e+00	1.00000e+00	1.00000e+00	1.00000e+00	1.00000e+00	1.00000e+00	1.00000e+00	1.00000e+00	1.00000e+00	1.00000e+00	1.00000e+00	1.00000e+00	1.00000e+00	1.00000e+00	1.00000e+00	X	X	X	X	X	X	X	X	X	X	X	X	X	X	X	X	

B = Detector Channel
Val Type	B-AC1	B-AC2	B-AC3	B-AC4	B-AC5	B-AC6	B-AC7	B-AC8	B-AC9	B-AC10	B-AC11	B-AC12	B-AC13	B-AC14	B-AC15	B-AC16	B-DC1	B-DC2	B-DC3	B-DC4	B-DC5	B-DC6	B-DC7	B-DC8	B-DC9	B-DC10	B-DC11	B-DC12	B-DC13	B-DC14	B-DC15	B-DC16	B-Ph1	B-Ph2	B-Ph3	B-Ph4	B-Ph5	B-Ph6	B-Ph7	B-Ph8	B-Ph9	B-Ph10	B-Ph11	B-Ph12	B-Ph13	B-Ph14	B-Ph15	B-Ph16	

Term	0.00000e+00	0.00000e+00	0.00000e+00	0.00000e+00	0.00000e+00	0.00000e+00	0.00000e+00	0.00000e+00	0.00000e+00	0.00000e+00	0.00000e+00	0.00000e+00	0.00000e+00	0.00000e+00	0.00000e+00	0.00000e+00	0.00000e+00	0.00000e+00	0.00000e+00	0.00000e+00	0.00000e+00	0.00000e+00	0.00000e+00	0.00000e+00	0.00000e+00	0.00000e+00	0.00000e+00	0.00000e+00	0.00000e+00	0.00000e+00	0.00000e+00	0.00000e+00	-1.87007e+02	-1.34050e+02	-1.37969e+02	-1.83492e+02	-8.77581e+01	-7.32534e+01	-1.58200e+02	-1.62015e+02	-8.49259e+01	-6.14154e+01	-1.70701e+02	-1.71279e+02	-1.78850e+02	-1.76863e+02	-7.95451e+01	-1.49780e+02	
Factor	3.76548e-05	1.51883e-04	4.69219e-05	1.64088e-01	1.62550e-06	1.73594e-06	1.85429e-01	6.04996e-02	1.59724e-06	1.91212e-06	1.00259e-01	3.43440e-02	3.12106e-02	1.08452e-02	1.69460e-06	1.54572e-02	6.25193e-06	7.31936e-06	2.04454e-06	7.75377e-02	7.75653e-08	8.04797e-08	8.23581e-02	2.86645e-02	7.78837e-08	8.09403e-08	4.60320e-02	1.57531e-02	1.49403e-02	5.16929e-03	7.88347e-08	7.14857e-03	X	X	X	X	X	X	X	X	X	X	X	X	X	X	X	X	



#DISTANCE SETTINGS
A = Detector Channel
A-1	A-2	A-3	A-4	A-5	A-6	A-7	A-8	A-9	A-10	A-11	A-12	A-13	A-14	A-15	A-16	

2.5000e+00	3.0000e+00	2.5000e+00	3.0000e+00	2.0000e+00	3.0000e+00	1.5000e+00	3.0000e+00	3.0000e+00	3.0000e+00	3.0000e+00	3.0000e+00	3.0000e+00	3.0000e+00	1.5000e+00	3.0000e+00	

B = Detector Channel
B-1	B-2	B-3	B-4	B-5	B-6	B-7	B-8	B-9	B-10	B-11	B-12	B-13	B-14	B-15	B-16	

1.0000e+01	1.0000e+01	1.0000e+01	1.4400e+00	1.0000e+01	1.0000e+01	1.5100e+00	1.9400e+00	1.0000e+01	1.0000e+01	1.9900e+00	2.4900e+00	2.4100e+00	2.9000e+00	1.0000e+01	2.9800e+00	




#DATA BEGINS
time	group	step	mark	flag	A-AC1	A-AC2	A-AC3	A-AC4	A-AC5	A-AC6	A-AC7	A-AC8	A-AC9	A-AC10	A-AC11	A-AC12	A-AC13	A-AC14	A-AC15	A-AC16	A-DC1	A-DC2	A-DC3	A-DC4	A-DC5	A-DC6	A-DC7	A-DC8	A-DC9	A-DC10	A-DC11	A-DC12	A-DC13	A-DC14	A-DC15	A-DC16	A-Ph1	A-Ph2	A-Ph3	A-Ph4	A-Ph5	A-Ph6	A-Ph7	A-Ph8	A-Ph9	A-Ph10	A-Ph11	A-Ph12	A-Ph13	A-Ph14	A-Ph15	A-Ph16	B-AC1	B-AC2	B-AC3	B-AC4	B-AC5	B-AC6	B-AC7	B-AC8	B-AC9	B-AC10	B-AC11	B-AC12	B-AC13	B-AC14	B-AC15	B-AC16	B-DC1	B-DC2	B-DC3	B-DC4	B-DC5	B-DC6	B-DC7	B-DC8	B-DC9	B-DC10	B-DC11	B-DC12	B-DC13	B-DC14	B-DC15	B-DC16	B-Ph1	B-Ph2	B-Ph3	B-Ph4	B-Ph5	B-Ph6	B-Ph7	B-Ph8	B-Ph9	B-Ph10	B-Ph11	B-Ph12	B-Ph13	B-Ph14	B-Ph15	B-Ph16	aux-1	digaux	

58826.062	1	1	0	768	0.11837	0.10498	0.11155	0.19657	0.20174	0.02457	0.2411	0.24996	0.13932	0.17077	0.18272	0.1681	0.23284	0.27944	0.12633	0.21166	-3.8521	-3.5792	-4.3562	-3.9542	-3.5229	-4.1917	-3.6562	-3.9625	-4.3063	-3.4979	-4.3271	-4.1271	-3.5812	-4.5354	-3.6042	-3.7438	169.282	250.655	164.911	412.435	373.317	357.409	382.278	355.834	171.895	122.059	333.611	414.734	129.941	373.413	232.506	341.540	0.0010742	0.00057309	0.00013503	1148.3	5.5629e-06	5.8156e-06	1267.2	357.59	1.1129e-05	6.0856e-06	448.61	144.63	109.95	41.449	9.0278e-06	64.039	0.00047859	0.00041883	0.00011718	1042.7	4.5793e-06	4.553e-06	1151.4	326.54	4.5414e-06	4.472e-06	410.75	132.34	100.66	38.321	4.6619e-06	59.047	109.940	163.452	159.698	90.530	250.888	203.363	89.910	95.825	213.744	233.771	94.751	100.555	100.848	106.819	220.622	104.483	-8191	255	
58826.160	1	1	0	0	0.18593	0.038341	0.19593	0.14561	0.10013	0.28208	0.27535	0.24914	0.14442	0.38448	0.12592	0.15062	0.11806	0.25454	0.14549	0.1487	-3.8792	-3.4667	-4.2063	-4.15	-3.5	-4.4187	-4	-3.8521	-4.3292	-3.4729	-4.2312	-4.2917	-3.4833	-4.4375	-3.75	-3.7687	89.742	232.124	314.365	212.065	303.993	320.139	420.029	343.176	132.591	142.574	114.939	330.665	121.701	370.017	418.924	370.744	0.0010916	0.00070792	5.2812e-05	1144.4	8.2577e-06	7.6786e-06	1264.9	358.11	8.9704e-06	7.3163e-06	447.51	144.69	109.71	41.419	6.185e-06	63.839	0.00047353	0.00041595	0.00011777	1043.2	4.4236e-06	4.5488e-06	1150.2	326.88	4.3879e-06	4.5974e-06	410.75	132.88	100.45	38.379	4.5542e-06	59.315	106.542	178.757	202.080	90.850	200.549	222.004	90.176	96.211	217.317	176.451	94.764	100.314	101.182	106.958	225.380	104.981	-8191	255	
58826.258	1	1	0	0	0.29585	0.17266	0.21641	0.1175	0.065082	0.15871	0.19461	0.1364	0.087716	0.25312	0.15268	0.12614	0.13929	0.31608	0.010843	0.081863	-4.1	-3.5521	-4.05	-4.2937	-3.5438	-4.2812	-3.8896	-3.7438	-4.4167	-3.4979	-4.1792	-4.2854	-3.4562	-4.1875	-4.0167	-3.8042	213.890	140.753	147.906	288.898	262.408	317.034	380.629	274.928	132.063	104.058	352.700	276.056	114.412	107.093	421.538	314.208	0.0010785	0.00058246	0.00020848	1139.3	1.0976e-05	4.35e-06	1254.2	355.34	5.2554e-06	8.8714e-06	447.61	143.45	108.58	41.226	6.2955e-06	63.654	0.00048657	0.00041609	0.00011601	1040.8	4.3983e-06	4.6507e-06	1142.1	324.62	4.4329e-06	4.6149e-06	407.13	131.23	100.06	38.101	4.5225e-06	58.826	109.580	156.553	172.749	90.909	198.782	211.865	90.233	95.967	224.685	220.299	94.967	100.151	101.005	107.250	185.504	104.841	-8191	255	
58826.352	1	1	0	0	0.13795	0.048679	0.13953	0.17995	0.11599	0.28946	0.13065	0.35153	0.10797	0.20447	0.15546	0.11081	0.17684	0.164	0.095202	0.10671	-4.0375	-3.6063	-3.8438	-4.4917	-3.3729	-4.1	-4.0458	-3.4417	-4.2333	-3.5208	-3.9688	-4.3396	-3.5479	-4.2354	-4.1813	-3.6917	245.985	187.839	114.742	432.261	139.330	249.980	364.814	386.473	224.397	81.902	132.458	436.380	428.289	409.950	421.940	410.049	0.00087036	0.00042621	0.00013512	1139.1	7.4595e-06	4.8385e-06	1258.3	352.24	5.3137e-06	4.2434e-06	439.92	142.48	108.75	41.124	2.1113e-06	63.356	0.00047084	0.00042417	0.00011469	1038.5	4.5397e-06	4.5652e-06	1141.8	322.42	4.5164e-06	4.6805e-06	405.14	130.83	99.453	37.921	4.4806e-06	58.556	109.232	181.339	116.428	90.738	215.964	199.220	90.380	96.100	232.438	242.226	94.938	100.489	101.320	107.067	163.771	104.945	-8191	255	
58826.449	1	1	0	0	0.094189	0.050576	0.15671	0.14814	0.11713	0.071608	0.27376	0.13816	0.16335	0.10957	0.069745	0.16203	0.058315	0.30012	0.015287	0.12855	-4.0958	-3.8063	-3.7812	-4.6021	-3.5604	-4.0625	-4.2479	-3.3708	-4.4125	-3.8875	-3.8021	-4.3104	-3.4042	-3.9792	-4.0167	-3.5062	258.111	394.514	125.543	188.098	232.517	410.113	424.204	199.161	82.913	182.484	111.882	386.234	274.967	357.322	183.523	336.265	0.0010651	0.00055182	0.00012342	1138.5	9.3679e-06	4.0265e-06	1243.7	352.78	5.0776e-06	3.0034e-06	443.24	142.46	108.38	40.547	4.642e-06	63.004	0.00048915	0.00043619	0.00011721	1037.3	4.5848e-06	4.6316e-06	1136.3	322.05	4.482e-06	4.6112e-06	404.86	130.45	99.38	37.759	4.5708e-06	58.362	107.877	187.338	129.532	91.098	198.417	253.151	90.408	96.221	209.211	243.070	95.043	100.414	101.441	106.827	197.413	104.783	-8191	255	
58826.543	1	1	0	0	0.15669	0.22374	0.097886	0.25829	0.089274	0.14008	0.26895	0.12313	0.18136	0.081361	0.073618	0.1673	0.088917	0.22415	0.17385	0.055316	-3.9896	-3.9354	-3.775	-4.45	-3.5292	-4.0604	-4.2083	-3.5667	-4.2792	-3.9708	-3.6708	-4.3688	-3.6604	-3.9208	-4.2396	-3.4667	115.995	330.928	89.926	381.765	181.945	139.071	341.095	401.935	109.147	354.187	325.643	370.902	92.987	392.714	295.342	249.553	0.0010314	0.00045706	0.00012427	1136.7	4.1377e-06	6.6008e-06	1245.8	352.5	5.9323e-06	4.5721e-06	438.13	141.68	107.42	40.902	2.7005e-06	62.68	0.00048225	0.00041723	0.00011123	1036.4	4.4427e-06	4.5273e-06	1136.3	321.5	4.5388e-06	4.7222e-06	401.66	130.09	98.819	37.776	4.409e-06	58.234	111.366	186.434	165.640	90.942	163.296	211.918	90.158	96.011	188.318	270.767	94.709	100.458	101.213	107.209	265.333	105.042	-8191	255	
58826.664	1	1	0	0	0.14861	0.074042	0.032367	0.046747	0.1658	0.15931	0.12722	0.025089	0.14963	0.25579	0.18605	0.12288	0.15519	0.16881	0.092675	0.15666	-3.825	-3.9292	-3.575	-4.5708	-3.5938	-3.7854	-4.375	-3.4479	-4.225	-4.0563	-3.6562	-4.4479	-3.6437	-3.7562	-4.275	-3.4958	180.885	341.527	198.299	329.170	85.978	187.564	407.648	101.631	117.510	324.526	170.700	414.132	388.903	404.594	312.851	155.174	0.001088	0.00032578	0.0001003	1122.3	6.0858e-06	5.0512e-06	1243.4	351.23	1.3986e-06	6.2747e-06	436.82	141.55	106.76	40.583	5.8078e-06	62.372	0.00048038	0.00040743	0.00010981	1030.5	4.5127e-06	4.4651e-06	1127.8	320.69	4.5229e-06	4.5276e-06	400.2	129.32	98.333	37.692	4.4345e-06	58.1	104.968	206.589	124.160	90.877	213.837	233.321	90.289	95.975	186.861	226.820	95.021	100.444	101.302	107.090	210.947	105.024	-8191	255	
58826.758	1	1	0	0	0.074421	0.16174	0.19457	0.18758	0.16092	0.2114	0.15219	0.35877	0.20225	0.029717	0.32179	0.15591	0.12902	0.2556	0.31026	0.076336	-3.6875	-4.0667	-3.4104	-4.5312	-3.6354	-3.625	-4.45	-3.55	-4.0375	-4.1896	-3.6021	-4.3521	-3.7438	-3.6312	-4.4917	-3.5708	103.735	266.772	181.110	213.677	360.248	234.630	367.569	312.749	172.251	169.769	415.007	335.915	249.094	134.783	436.439	326.815	0.001019	0.00038195	0.00020488	1127.1	7.1279e-06	8.5701e-06	1234.3	348.84	8.8542e-06	4.4598e-06	436.12	140.66	107.57	40.779	5.3832e-06	62.993	0.00049011	0.0004007	0.00011283	1028.4	4.5885e-06	4.3524e-06	1126.3	319.46	4.5687e-06	4.2119e-06	399.95	128.82	98.289	37.681	4.5458e-06	58.111	111.348	185.972	163.249	90.956	210.566	243.028	90.170	96.351	228.848	196.049	94.863	100.727	101.438	106.992	187.169	105.041	-8191	255	
58826.855	1	1	0	0	0.18382	0.076774	0.0234	0.18292	0.10516	0.22017	0.064476	0.19204	0.12149	0.16465	0.27715	0.22437	0.15906	0.30134	0.10371	0.11973	-3.675	-4.2417	-3.4562	-4.325	-4.0125	-3.4646	-4.5938	-3.6625	-3.7917	-4.3438	-3.6521	-4.3438	-3.9437	-3.7458	-4.4333	-3.6188	291.571	332.088	99.460	103.448	151.696	131.703	429.369	392.860	430.098	84.416	379.410	370.278	206.166	117.890	110.634	212.987	0.0010714	0.00052965	0.00011713	1124.8	6.3151e-06	1.9193e-06	1234.7	349.14	6.0705e-06	6.356e-06	438.95	140.52	106.9	40.557	1.0691e-05	63.083	0.00049636	0.00039416	0.00011239	1029	4.4865e-06	4.445e-06	1127.8	318.76	4.4282e-06	4.4045e-06	400.71	128.89	98.199	37.635	4.4816e-06	58.376	108.123	152.147	104.734	90.815	223.345	284.874	90.168	96.047	212.671	276.127	94.966	100.585	101.312	106.910	212.656	105.188	-8191	255	
58826.949	1	1	0	0	0.14313	0.040679	0.15935	0.27516	0.12528	0.16439	0.19911	0.11488	0.27177	0.15519	0.33981	0.079201	0.12955	0.32754	0.25623	0.065415	-3.3729	-4.2312	-3.4479	-4.2833	-4.0146	-3.3812	-4.5771	-3.8292	-3.6271	-4.2604	-3.5125	-4.0938	-4.2792	-3.4833	-4.3333	-3.8417	205.197	371.258	286.238	363.448	299.839	418.796	326.046	359.835	377.769	189.674	421.863	95.809	338.859	399.785	434.964	419.384	0.0011019	0.00057072	0.0001636	1125.9	6.278e-06	5.3806e-06	1233.1	351.04	8.2008e-06	6.8797e-06	435.38	141.07	108.4	40.802	4.0198e-06	62.913	0.00048617	0.00040677	0.00011361	1028.2	4.4658e-06	4.3439e-06	1126.5	320.48	4.3866e-06	4.4048e-06	398.63	128.59	98.537	37.802	4.4491e-06	58.253	111.761	163.941	207.685	90.793	219.141	213.464	90.071	96.195	197.028	258.922	95.139	100.239	101.446	106.767	270.307	104.864	-8191	255	
58827.047	1	1	0	0	0.10813	0.19816	0.24164	0.14261	0.28499	0.1632	0.35609	0.1908	0.016887	0.056512	0.14301	0.061225	0.098243	0.2261	0.093476	0.28697	-3.2958	-4.2417	-3.3896	-4.15	-4.2771	-3.5	-4.4167	-3.9938	-3.6437	-4.2854	-3.7542	-3.7833	-4.3583	-3.5521	-4.3167	-3.9104	252.542	360.131	125.892	380.324	361.869	380.952	362.807	408.007	121.725	266.949	85.428	319.454	341.407	434.680	138.042	398.415	0.0010917	0.00023649	0.00013964	1130.1	7.1951e-06	5.5994e-06	1235.6	350.37	6.7646e-06	6.0775e-06	433.3	139.26	107.29	40.72	3.0781e-06	63.029	0.00047631	0.00040046	0.00011834	1030.7	4.2842e-06	4.4094e-06	1123.9	320.39	4.2593e-06	4.4809e-06	398.78	128.09	98.339	37.747	4.5604e-06	58.143	110.100	181.416	180.237	90.610	223.751	226.952	90.180	96.472	186.297	208.704	94.999	100.401	101.400	106.522	209.950	104.780	-8191	255	
58827.145	1	1	0	0	0.24488	0.033816	0.042876	0.13754	0.16746	0.11182	0.41474	0.1354	0.10469	0.21864	0.16125	0.12116	0.24116	0.11393	0.19066	0.34269	-3.2375	-4.3812	-3.6208	-3.95	-4.0938	-3.4125	-4.2396	-4.1146	-3.4646	-4.3354	-3.7375	-3.9	-4.3958	-3.4333	-4.1771	-4.0687	307.313	91.862	369.345	294.513	380.204	328.867	344.636	406.145	282.626	429.680	96.987	81.109	437.628	410.623	149.575	436.411	0.0010222	0.00054784	0.00019151	1126.2	9.2836e-06	7.6724e-06	1232.2	349.82	5.6699e-06	1.4517e-06	432.99	139.5	106.84	40.405	6.566e-06	62.38	0.00046163	0.00040211	0.0001119	1026.7	4.2191e-06	4.4079e-06	1121.7	319.99	4.2817e-06	4.4237e-06	398.03	128.09	98.058	37.513	4.4494e-06	57.925	108.157	224.949	145.571	90.854	230.555	254.931	90.128	96.340	227.006	195.737	95.053	100.202	101.507	107.136	241.495	104.874	-8191	255	
58827.238	1	1	0	0	0.09445	0.037474	0.188	0.107	0.24729	0.18798	0.25482	0.192	0.02359	0.14004	0.091039	0.10092	0.16059	0.10001	0.20653	0.069427	-3.2458	-4.3708	-3.8563	-3.9854	-4.3938	-3.4417	-4.1771	-4.3042	-3.3563	-4.3021	-3.8583	-3.7979	-4.4229	-3.7479	-4.025	-4.3146	132.727	388.736	140.630	370.024	255.585	308.216	354.505	431.083	128.786	423.569	144.225	417.814	190.298	383.764	385.551	401.519	0.0011549	0.00063613	0.00017337	1124.1	3.1991e-06	3.5709e-06	1228.5	349.02	9.8063e-06	5.4689e-06	433.02	140.35	106.83	40.66	8.1757e-07	62.73	0.00047162	0.00037801	0.00010946	1025.9	4.4476e-06	4.3918e-06	1121.3	318.76	4.3999e-06	4.5878e-06	397.7	128.32	97.858	37.654	4.4266e-06	57.955	106.737	141.838	137.217	90.624	198.935	251.911	90.246	96.285	201.562	230.766	95.022	100.193	101.693	107.291	193.161	105.204	-8191	255	
58827.359	1	1	0	0	0.25805	0.15746	0.062791	0.20803	0.16083	0.13388	0.4446	0.17333	0.078745	0.2169	0.21959	0.10013	0.20195	0.048603	0.066021	0.26134	-3.0271	-4.2333	-3.8312	-3.6854	-4.4	-3.4958	-3.9292	-4.3187	-3.3375	-4.2562	-4.1083	-3.5479	-4.4958	-3.6479	-3.8271	-4.275	152.853	216.635	287.379	418.096	109.771	385.210	368.009	105.882	267.746	411.354	357.428	107.209	370.079	373.129	244.953	92.717	0.00093869	0.00066987	4.037e-05	1123.9	4.1349e-06	5.434e-06	1228.1	345.91	6.1472e-06	7.2777e-06	432.19	138.93	106.46	40.645	7.4907e-06	62.133	0.00046199	0.0004032	0.00011261	1023.6	4.3718e-06	4.3996e-06	1116.3	316.8	4.4718e-06	4.3939e-06	395.16	127.4	97.132	37.401	4.4026e-06	57.556	113.704	143.810	138.092	90.982	194.070	242.489	90.028	96.045	186.030	253.684	95.202	100.678	101.257	106.946	198.188	105.180	-8191	255	
58827.457	1	1	0	0	0.1324	0.13393	0.016644	0.11095	0.038886	0.033112	0.33699	0.12804	0.044837	0.15006	0.19013	0.15925	0.055877	0.21337	0.057683	0.13554	-2.9458	-4.1542	-3.9979	-3.6208	-4.4708	-3.6792	-3.8958	-4.5271	-3.7083	-4.1146	-4.1604	-3.4958	-4.3479	-3.5896	-3.5458	-4.5208	217.330	405.813	348.950	106.614	340.419	317.493	395.114	86.794	91.841	173.556	381.599	215.580	90.065	80.855	280.057	413.492	0.00099198	0.00022749	0.00012508	1124.2	9.2443e-06	3.3358e-06	1225.1	346.04	4.6377e-06	7.5056e-06	430.86	138.26	105.93	40.227	3.9866e-06	62.066	0.00047417	0.00039611	0.00010999	1021.5	4.4539e-06	4.4131e-06	1114.5	316.75	4.39e-06	4.4595e-06	394.38	126.57	97.177	37.308	4.3269e-06	57.418	105.615	132.347	159.818	90.713	205.235	207.506	89.921	96.105	152.139	254.668	95.292	100.526	101.497	106.908	219.986	104.972	-8191	255	
58827.555	1	1	0	0	0.11644	0.084851	0.16909	0.2129	0.08132	0.13656	0.24544	0.26626	0.10909	0.17515	0.092055	0.102	0.069114	0.16363	0.16761	0.14636	-3.1375	-3.8812	-3.9542	-3.5625	-4.3333	-3.7708	-3.5875	-4.3771	-3.4	-4.0375	-4.3917	-3.6104	-4.3479	-3.9813	-3.5938	-4.6021	114.386	330.787	363.077	79.441	436.853	153.232	342.550	354.752	283.777	261.592	146.872	137.688	406.045	81.187	127.601	238.167	0.0010418	0.00042386	0.00019937	1121.5	6.212e-06	7.1993e-07	1221.9	347.38	5.3864e-06	6.2654e-06	431.23	138.87	105.33	40.278	7.5724e-06	62.24	0.00047932	0.00038564	0.00010804	1020.6	4.3356e-06	4.3514e-06	1111.3	316.32	4.4064e-06	4.4462e-06	393.88	126.85	96.934	37.367	4.1355e-06	57.763	108.262	177.501	152.143	90.797	197.105	201.024	89.855	96.147	213.456	247.340	94.850	100.603	101.334	107.328	209.109	104.872	-8191	255	
58827.625	1	1	0	0	0.13326	0.19552	0.048237	0.16612	0.19707	0.092156	0.29564	0.19623	0.19876	0.057007	0.30639	0.052005	0.30101	0.42008	0.2252	0.23607	-3.2354	-3.775	-4.1625	-3.4542	-4.1917	-3.9979	-3.8604	-4.5188	-3.4854	-3.8771	-4.4479	-3.4562	-4.1	-4.0208	-3.5062	-4.4479	130.076	195.392	94.544	79.019	97.747	199.636	420.989	398.578	420.378	299.393	80.550	382.528	304.644	93.266	401.932	403.536	0.0010241	0.00018215	0.00012847	1115	4.7061e-06	5.0709e-06	1222.1	345.19	7.0375e-06	2.6079e-06	430.87	139.27	105.73	40.39	2.1956e-06	62.006	0.00047917	0.00038488	0.00010723	1020.7	4.3782e-06	4.3722e-06	1111	316.23	4.3928e-06	4.2851e-06	394	127.19	96.902	37.602	4.2953e-06	57.803	106.274	212.245	137.604	90.888	171.176	233.430	89.835	96.101	218.220	171.192	95.201	100.634	101.628	107.057	261.716	105.410	-8191	255	
58827.742	1	1	0	0	0.16164	0.19404	0.21525	0.42378	0.056957	0.20391	0.045918	0.039271	0.13621	0.10249	0.19153	0.13356	0.10867	0.14838	0.16166	0.018803	-3.525	-3.8979	-4.3	-3.4958	-4.1396	-4.0667	-3.6042	-4.5271	-3.8146	-3.6979	-4.4146	-3.6458	-3.9333	-4.1042	-3.4562	-4.3396	131.199	284.769	334.246	413.498	333.514	426.711	423.689	130.658	230.825	121.629	125.239	400.059	389.499	313.559	357.842	116.886	0.0010075	0.00042841	0.00015358	1113.3	1.5962e-06	6.9648e-06	1210.9	343.05	4.3382e-06	9.5626e-06	426.67	137.03	104.82	40.22	9.5681e-06	62.015	0.00046451	0.00038048	0.00010779	1017.5	4.1518e-06	4.1578e-06	1105.7	315.06	4.3581e-06	4.232e-06	391.52	126.07	96.221	37.504	4.2088e-06	57.776	115.322	147.326	171.319	90.625	252.689	215.766	90.288	96.405	216.993	212.572	94.816	100.406	101.439	106.935	217.482	105.062	-8191	255	
58827.840	1	1	0	0	0.30329	0.054234	0.10363	0.16115	0.11222	0.15177	0.2674	0.055007	0.11169	0.079719	0.14817	0.20261	0.05269	0.16303	0.064511	0.24336	-3.4729	-3.7667	-4.3187	-3.6979	-3.8063	-4.1771	-3.6583	-4.375	-3.925	-3.5792	-4.4062	-3.5979	-4.05	-4.2729	-3.3646	-4.2771	128.913	110.399	260.633	393.511	93.523	338.942	386.244	398.014	275.168	217.774	324.598	437.482	191.514	241.333	266.458	308.307	0.00099261	0.00045685	0.00020644	1114.8	8.5277e-06	2.8523e-06	1215.6	342.28	7.4918e-06	6.3673e-06	428.8	137.8	105.4	40.763	9.2432e-06	62.266	0.00046473	0.00037329	0.00010845	1015.2	4.3013e-06	4.2091e-06	1104.9	314.75	4.1838e-06	4.1816e-06	391.83	126.41	96.288	37.784	4.2998e-06	58.032	111.434	156.314	149.600	91.040	202.219	187.233	90.191	96.295	222.403	235.518	94.632	100.518	101.361	107.180	248.638	105.313	-8191	255	
58827.938	1	1	0	0	0.13531	0.046296	0.049008	0.16972	0.17929	0.046359	0.31428	0.013923	0.099002	0.098655	0.067062	0.13709	0.20213	0.22222	0.12627	0.1278	-3.6604	-3.5417	-4.4646	-3.8042	-3.7417	-4.2646	-3.5875	-4.3	-4.0375	-3.6083	-4.5833	-3.7438	-3.9333	-4.3792	-3.4396	-4.2292	431.853	316.278	348.664	410.209	96.244	95.003	304.064	179.365	384.445	263.515	369.009	124.811	404.217	97.172	251.615	124.253	0.0010707	0.00055796	0.00023571	1114.4	7.0677e-06	9.771e-07	1214.2	345.04	5.2423e-06	7.7927e-06	428.99	139.64	105.86	40.479	6.972e-06	61.963	0.0004626	0.00038654	0.00010989	1018.8	4.2569e-06	4.1804e-06	1108.3	316.11	4.2607e-06	4.3178e-06	393.06	127.13	97.003	37.551	4.3957e-06	57.704	111.542	168.817	141.074	90.791	225.523	137.026	89.996	95.979	173.641	203.534	94.717	100.227	101.254	107.269	219.052	104.802	-8191	255	
58828.055	1	1	0	0	0.16075	0.26133	0.17166	0.11628	0.08204	0.14029	0.28458	0.23816	0.23294	0.15605	0.073008	0.16402	0.19971	0.047517	0.11956	0.14817	-3.8854	-3.5271	-4.3271	-3.6667	-3.7542	-4.3479	-3.5875	-4.125	-4.1167	-3.4938	-4.3542	-3.9437	-3.5104	-4.425	-3.5104	-3.9354	357.245	267.376	198.887	380.400	177.661	393.172	394.568	357.508	370.413	135.839	80.794	140.767	237.874	172.523	423.162	278.282	0.001142	0.00045369	0.00016656	1113.5	7.9884e-06	3.6604e-06	1214.6	347.99	4.809e-06	5.4667e-06	430.35	138.13	105.57	40.395	3.5095e-06	62.049	0.00046582	0.00039679	0.00011249	1020.1	4.1182e-06	4.2555e-06	1109.6	317.56	4.2257e-06	4.3126e-06	393.51	126.84	97.232	37.507	4.2761e-06	57.548	109.925	146.487	163.682	91.008	219.740	183.685	89.889	95.967	204.916	259.825	94.615	100.429	100.834	107.142	210.019	104.691	-8191	255	
58828.152	1	1	0	0	0.12771	0.039781	0.19649	0.25973	0.13927	0.089732	0.2252	0.14463	0.084747	0.19534	0.15349	0.15103	0.08972	0.10743	0.20467	0.11998	-3.9062	-3.4146	-4.2896	-3.9854	-3.5667	-4.4104	-3.7833	-3.7833	-4.2417	-3.425	-4.4187	-3.8625	-3.6375	-4.4896	-3.5042	-3.7771	408.484	226.524	321.478	83.466	320.500	342.501	409.797	292.564	92.905	247.730	365.020	319.503	271.721	121.666	378.266	297.152	0.0010239	0.00053617	0.0001893	1116.5	5.2481e-06	4.3284e-06	1214.9	349.23	5.0659e-06	8.3846e-06	429.58	139	105.91	40.222	4.6208e-06	61.181	0.00045147	0.00038878	0.00010897	1021.4	4.1701e-06	4.2193e-06	1106.3	318.38	4.234e-06	4.2666e-06	394	126.51	97.233	37.391	4.2047e-06	57	112.726	205.621	157.416	91.176	212.084	220.052	90.118	96.011	236.991	238.568	94.730	100.144	101.089	106.920	192.402	105.075	-8191	255	
58828.223	1	1	0	0	0.21775	0.25613	0.098944	0.24731	0.12505	0.18428	0.088695	0.27491	0.12428	0.11658	0.030045	0.25991	0.18685	0.28198	0.18107	0.27166	-3.9542	-3.4729	-4.125	-4.2458	-3.4396	-4.2521	-3.8104	-3.9313	-4.3604	-3.3708	-4.1104	-4.1604	-3.6042	-4.2875	-3.7521	-3.85	197.126	350.554	212.375	401.369	415.303	259.390	355.243	355.867	250.592	324.973	272.809	102.603	255.779	394.161	330.821	380.036	0.0010125	0.00073633	0.00020481	1116.8	5.4306e-06	7.1479e-06	1216.9	347.24	6.8051e-06	5.3082e-06	427.9	137.74	105.49	40.455	7.3155e-06	61.302	0.00044348	0.0004007	0.00010776	1019.3	4.0772e-06	4.2832e-06	1104	316.84	4.2609e-06	4.2745e-06	392.09	126.22	97.131	37.346	4.1855e-06	56.909	111.451	140.031	159.421	90.892	211.030	213.506	90.135	96.016	235.018	233.463	94.690	100.439	100.797	107.042	216.781	105.164	-8191	255	
58828.344	1	1	0	0	0.078466	0.30758	0.061846	0.12997	0.061676	0.11646	0.18956	0.15501	0.22151	0.21127	0.16758	0.18902	0.20487	0.14118	0.090583	0.11358	-4.0833	-3.3563	-3.9208	-4.3083	-3.4667	-4.3229	-4.1229	-3.7792	-4.2896	-3.5125	-3.8354	-4.3562	-3.5771	-4.4125	-4.0062	-3.5917	363.596	184.150	431.074	378.475	127.952	418.966	312.186	352.455	288.427	342.915	393.878	431.298	95.646	119.929	320.948	213.180	0.0011246	0.00052393	0.00025496	1111.3	5.8105e-06	6.1002e-06	1212.3	344.59	7.8637e-06	8.9823e-06	427.95	137.65	106.42	40.299	8.4512e-06	62.052	0.00046542	0.00037759	0.00010682	1016.3	4.2121e-06	4.1417e-06	1103.4	317.3	4.166e-06	4.1354e-06	392.93	126.6	97.622	37.4	4.1247e-06	57.296	107.250	141.943	184.764	90.987	189.882	220.918	90.125	96.093	223.164	206.378	94.948	100.599	101.675	106.680	221.006	104.814	-8191	255	
58828.441	1	1	0	0	0.1183	0.10302	0.16163	0.25405	0.10546	0.21593	0.18433	0.082479	0.21267	0.1907	0.090593	0.26544	0.12071	0.15827	0.16159	0.29464	-4.0125	-3.4375	-3.875	-4.525	-3.35	-4.2479	-4.2042	-3.65	-4.3854	-3.7792	-3.9167	-4.2937	-3.6021	-4.2479	-4.0375	-3.5354	222.772	279.987	239.705	122.106	135.913	269.085	422.678	228.136	303.852	292.197	308.168	410.130	100.112	169.659	305.111	232.136	0.0010097	0.00031932	0.00012066	1118.6	6.1413e-06	4.4046e-06	1212.7	349.38	5.9634e-06	7.692e-06	428.24	138.02	107.03	40.52	6.3725e-06	61.884	0.00046074	0.00038538	0.00010299	1021.3	4.294e-06	4.314e-06	1103.2	318.61	4.1275e-06	4.2109e-06	392.63	126.79	97.954	37.545	4.0764e-06	57.424	111.682	173.388	137.628	90.851	186.174	228.367	90.395	96.051	205.978	188.508	94.843	100.449	101.467	106.860	202.556	104.863	-8191	255	
58828.535	1	1	0	0	0.13026	0.11954	0.19411	0.2884	0.098239	0.010135	0.3119	0.27336	0.04571	0.075492	0.15445	0.085244	0.17371	0.099572	0.13298	0.17538	-3.9167	-3.5896	-3.7042	-4.4896	-3.3438	-4.2021	-4.3333	-3.5521	-4.1104	-3.7438	-3.8271	-4.4958	-3.5354	-4.0687	-4.1583	-3.6312	273.141	429.868	389.558	400.606	428.142	155.595	334.120	423.569	180.426	88.588	94.725	161.132	394.737	232.723	266.473	235.745	0.0010316	0.00048429	0.000198	1116.1	3.1207e-06	9.7294e-06	1208.1	350.6	6.7338e-06	4.7233e-06	432.14	140.2	108.17	41.086	6.5945e-06	62.486	0.00044587	0.00038149	0.00010437	1018.7	4.1732e-06	4.0959e-06	1099.6	320.05	4.2442e-06	4.1072e-06	395.4	127.89	99.36	38.1	4.161e-06	57.921	111.860	163.895	169.271	90.806	190.466	239.999	90.161	95.919	206.217	210.483	94.804	100.305	101.007	106.527	199.207	104.879	-8191	255	
58828.656	1	1	0	0	0.17707	0.090083	0.23853	0.2315	0.15685	0.097522	0.028936	0.07902	0.055353	0.2435	0.018157	0.13579	0.057797	0.10545	0.090966	0.18777	-4.0625	-3.7479	-3.5083	-4.3688	-3.4083	-3.8875	-4.3729	-3.5833	-4.2833	-3.8958	-3.6854	-4.2708	-3.7313	-3.8625	-4.1021	-3.5729	150.394	113.228	215.786	397.280	408.748	253.169	299.463	301.852	397.510	115.344	406.129	375.660	293.623	149.180	86.622	362.905	0.0010507	0.00055941	0.00013114	1127.3	6.45e-06	5.9391e-06	1211.5	351.67	3.9439e-06	5.2133e-06	431.9	139.19	108.22	41.054	8.4182e-06	62.284	0.00045441	0.00036246	0.00010388	1024.3	4.1431e-06	4.0475e-06	1104.9	321.88	4.0261e-06	3.9944e-06	395.88	127.95	99.263	38.111	4.0204e-06	57.827	110.043	184.985	159.476	90.887	201.192	252.063	89.776	95.969	229.942	259.466	94.782	99.842	101.099	106.450	219.788	104.754	-8191	255	
58828.754	1	1	0	0	0.041315	0.082429	0.044088	0.20291	0.090943	0.30952	0.16177	0.33233	0.14459	0.13719	0.17051	0.12104	0.12646	0.19021	0.17403	0.37961	-3.9375	-3.9271	-3.4562	-4.375	-3.6688	-3.8771	-4.5813	-3.5458	-4.0104	-3.9833	-3.6125	-4.3729	-3.7479	-3.7354	-4.3333	-3.5479	273.560	112.548	420.713	87.441	237.283	193.215	320.066	100.914	403.921	165.396	382.659	408.901	355.405	410.044	317.611	402.072	0.0010813	0.00049945	6.1477e-05	1116.1	9.4645e-06	6.4172e-06	1204.2	353.28	4.3961e-06	2.441e-06	431.94	139.03	109.1	40.776	7.4137e-06	61.703	0.00044834	0.00036888	0.00010186	1020.5	4.1428e-06	3.964e-06	1100.2	322.41	4.1927e-06	3.9818e-06	395.25	127.74	99.795	37.809	4.0496e-06	57.135	111.827	198.887	183.235	90.991	194.793	209.974	90.424	96.178	231.381	209.693	94.756	100.018	101.491	106.468	224.035	104.974	-8191	255	
58828.848	1	1	0	0	0.12503	0.15761	0.10715	0.29432	0.13755	0.099413	0.048949	0.21841	0.16142	0.10029	0.25429	0.094486	0.21775	0.049698	0.11767	0.2381	-3.7938	-3.9771	-3.4167	-4.4688	-3.525	-3.5333	-4.4896	-3.6042	-4.0146	-4.1625	-3.5292	-4.2438	-4.0521	-3.6208	-4.3938	-3.5604	105.229	427.712	366.484	105.354	253.938	417.056	279.611	380.905	92.614	114.650	331.224	371.972	99.244	88.819	286.396	399.474	0.0010169	0.00022023	0.00013171	1114.9	6.8885e-06	3.6468e-06	1203.7	349.35	4.9603e-06	4.1033e-06	428.56	138.83	107.93	40.346	5.1648e-06	61.474	0.00044313	0.00037466	0.00010362	1020.3	4.0206e-06	4.0081e-06	1096	321.58	3.9521e-06	4.0443e-06	392.15	126.52	99.043	37.501	4.0738e-06	56.704	109.519	169.818	161.276	90.684	193.714	203.087	90.204	96.385	233.041	226.671	94.996	100.178	101.336	106.476	189.219	104.934	-8191	255	
58828.922	1	1	0	0	0.26126	0.15028	0.064394	0.24709	0.093295	0.055193	0.35642	0.24571	0.22798	0.096003	0.10774	0.15489	0.17745	0.27796	0.091846	0.043981	-3.6229	-4.2333	-3.425	-4.4292	-3.8104	-3.5896	-4.5125	-3.7375	-3.7542	-4.3021	-3.5708	-4.3562	-4.0771	-3.4708	-4.2708	-3.8937	304.575	95.330	426.681	367.225	302.925	399.820	347.077	396.650	170.432	365.204	382.054	401.725	244.765	399.341	342.274	393.424	0.00098701	0.00063924	0.00020259	1114.8	6.3127e-06	5.5451e-06	1194.3	349.37	5.6716e-06	6.8354e-06	429.11	137.88	107.28	40.365	9.6849e-06	61.035	0.00042948	0.00037012	0.00010445	1015.2	3.972e-06	4.0496e-06	1090.7	320.12	3.9286e-06	4.0302e-06	391.57	126.11	98.674	37.548	3.925e-06	56.523	109.952	157.506	159.686	90.862	219.671	196.551	90.047	96.103	213.842	223.713	94.830	100.090	101.467	106.455	208.311	104.730	-8191	255	
58829.039	1	1	0	0	0.1137	0.2446	0.091002	0.032979	0.21495	0.23122	0.30416	0.39405	0.078747	0.17771	0.31648	0.059969	0.23972	0.046525	0.093396	0.19948	-3.5771	-4.2417	-3.5146	-4.3646	-3.9771	-3.4188	-4.4542	-3.7458	-3.6521	-4.4354	-3.3896	-4.1458	-4.1687	-3.6167	-4.1792	-3.9313	268.659	407.075	379.268	314.528	125.215	232.722	368.065	401.483	359.265	86.515	321.919	152.905	141.838	372.695	263.253	336.931	0.0010644	0.00066481	8.3702e-05	1107.9	7.735e-06	5.2033e-06	1194.8	348.64	5.7109e-06	5.8639e-06	429.98	136.89	107.63	40.104	5.3468e-06	60.718	0.00044361	0.00035346	0.00010525	1011	3.9586e-06	4.0211e-06	1086.6	319.19	3.888e-06	3.9428e-06	390.83	125.91	98.647	37.223	4.095e-06	56.242	113.851	156.184	156.691	90.716	206.881	230.605	89.853	96.017	214.520	217.537	94.903	99.965	101.250	106.574	222.989	104.894	-8191	255	
58829.137	1	1	0	0	0.093498	0.032496	0.051257	0.15701	0.2531	0.33602	0.16092	0.40044	0.084893	0.078821	0.044151	0.16802	0.10264	0.015343	0.15248	0.18126	-3.2687	-4.3583	-3.5312	-4.0042	-4.1875	-3.4479	-4.3646	-3.9917	-3.5354	-4.4104	-3.7021	-4.0229	-4.2104	-3.625	-4.2708	-3.8146	266.370	140.302	133.744	424.145	170.078	84.227	86.524	403.358	162.329	248.768	324.951	178.333	398.533	376.406	174.702	81.164	0.001024	0.00072545	0.00016796	1106.5	5.7782e-06	3.8542e-06	1183.6	348.98	8.2681e-06	3.0129e-06	426.41	137.56	107.22	40.172	8.7161e-06	60.437	0.00043925	0.00037637	9.8078e-05	1011.4	3.9508e-06	3.8756e-06	1083.5	319.03	3.8999e-06	4.0597e-06	390.83	125.92	98.191	37.284	3.9795e-06	56.177	108.421	150.587	181.334	90.956	235.885	213.908	90.321	96.400	212.615	270.401	94.556	100.149	101.090	106.526	218.732	104.964	-8191	255	
58829.234	1	1	0	0	0.054011	0.11901	0.19374	0.087555	0.028364	0.23265	0.24197	0.17105	0.18866	0.21447	0.23086	0.089598	0.22451	0.047605	0.16562	0.11614	-3.1521	-4.4729	-3.6229	-3.9417	-4.2312	-3.5083	-4.2937	-4.0792	-3.5583	-4.3917	-3.5521	-3.8667	-4.3792	-3.5062	-4.0854	-4.1667	289.422	387.174	217.471	81.763	425.172	261.602	328.893	367.734	407.432	152.649	423.955	401.352	313.710	144.936	302.256	412.395	0.00098702	0.00044116	0.00011677	1110.8	5.1736e-06	8.2209e-06	1185.5	348.09	7.9135e-06	6.7778e-06	423.43	135.43	107.19	39.933	3.5655e-06	60.198	0.00042805	0.00036905	0.00010053	1008.5	4.0019e-06	3.8679e-06	1079.4	318.47	3.9708e-06	3.9222e-06	387.1	124.68	98.058	37.144	3.8787e-06	55.897	114.834	108.045	132.089	90.748	237.938	272.806	90.272	96.180	198.254	197.826	94.914	100.148	101.304	106.756	237.298	104.947	-8191	255	
58829.328	1	1	0	0	0.036279	0.11246	0.19701	0.17871	0.038919	0.1149	0.17911	0.24253	0.11755	0.062234	0.15325	0.14587	0.14931	0.050751	0.13663	0.061558	-3.1958	-4.3125	-3.6813	-3.7583	-4.2833	-3.4458	-4.0104	-4.1792	-3.4188	-4.4187	-3.8479	-3.625	-4.2729	-3.5375	-3.7938	-4.2021	284.583	303.001	146.575	413.155	324.330	144.323	431.441	326.126	300.716	209.081	173.581	429.115	372.340	113.266	241.123	92.053	0.00097998	0.0004857	0.00011969	1103.3	5.7561e-06	5.2871e-06	1184.4	346.53	7.6335e-06	9.5616e-06	422.47	136.04	106.52	40.058	4.2358e-06	60.287	0.00043495	0.0003705	9.9126e-05	1005	4.0213e-06	3.9224e-06	1078.2	317.3	3.9526e-06	4.0296e-06	386.96	124.7	97.634	37.137	3.9798e-06	55.767	106.749	186.772	119.571	90.822	226.146	241.115	90.210	96.349	205.610	276.318	94.720	99.986	101.352	107.082	194.760	104.876	-8191	255	
58829.449	1	1	0	0	0.10841	0.041504	0.053224	0.19664	0.24216	0.086462	0.31486	0.2489	0.15969	0.10706	0.1661	0.30975	0.097561	0.065091	0.31967	0.17243	-3.1229	-4.1583	-3.8083	-3.6188	-4.35	-3.475	-3.8333	-4.4187	-3.4292	-4.15	-4.0542	-3.6521	-4.4667	-3.6521	-3.6396	-4.3688	362.496	142.125	190.537	78.468	336.759	367.131	317.486	404.055	113.335	81.283	376.439	346.059	318.120	411.721	313.972	249.654	0.001031	0.00031418	8.8581e-05	1102.9	7.7245e-06	6.7361e-06	1181.4	345.73	9.0962e-06	3.5195e-06	420.3	135.91	106.68	39.822	5.3647e-06	60.166	0.00043606	0.0003699	9.9918e-05	1005.5	3.9183e-06	3.9266e-06	1078.7	316.39	3.937e-06	3.8534e-06	386.21	124.49	97.477	36.97	3.9319e-06	55.78	108.401	155.548	156.245	90.756	199.509	240.733	89.976	96.441	207.146	247.297	94.911	100.150	101.217	107.292	230.018	105.111	-8191	255	
58829.520	1	1	0	0	0.14938	0.29906	0.058727	0.19658	0.15758	0.11947	0.097313	0.20893	0.25084	0.063806	0.26162	0.27936	0.16104	0.010133	0.013966	0.36397	-3.0667	-3.9792	-3.8812	-3.6646	-4.4437	-3.7313	-3.7542	-4.4333	-3.3479	-3.9958	-4.2063	-3.7021	-4.5312	-3.8438	-3.7417	-4.3167	309.297	243.196	103.355	150.365	285.509	159.369	269.294	92.057	397.634	222.540	375.007	348.299	326.506	159.367	211.713	410.402	0.0010884	0.00053823	0.00016912	1105.6	4.745e-06	4.6689e-06	1187.4	348.19	5.3295e-06	6.1225e-06	421.75	135.65	106.96	40.123	5.1167e-06	60.304	0.00043526	0.00036159	0.00010002	1007.1	4.0678e-06	3.8159e-06	1081.3	317.49	4.1262e-06	3.9814e-06	386.61	124.58	97.584	37.092	3.9766e-06	55.759	106.894	191.865	167.599	90.636	183.795	207.673	90.059	96.130	236.827	236.810	94.790	99.918	101.413	107.027	226.856	104.662	-8191	255	
58829.617	1	1	0	0	0.20273	0.05396	0.10246	0.16453	0.13956	0.028043	0.16288	0.22447	0.26755	0.013478	0.051265	0.19605	0.080598	0.28562	0.24223	0.021732	-3.1083	-4.0896	-4.1979	-3.4125	-4.2937	-3.8688	-3.65	-4.4792	-3.3937	-4.0958	-4.3604	-3.3417	-4.3979	-3.8708	-3.4417	-4.5042	83.038	362.308	423.114	412.340	163.237	103.465	115.954	402.237	207.786	304.654	351.543	406.168	318.784	113.424	308.170	402.062	0.0010112	0.00060542	0.00023155	1098.3	6.0956e-06	4.1727e-06	1179.4	345.01	2.1595e-06	4.9961e-06	420.13	134.8	106.29	40.517	5.6516e-06	60.862	0.00044499	0.00035019	0.00010043	1003.8	3.9846e-06	3.8788e-06	1074.1	315.64	4.1014e-06	3.9307e-06	384.19	123.74	97.418	37.39	3.9237e-06	56.334	110.322	191.049	160.809	90.869	199.519	249.258	89.928	96.392	226.002	290.820	94.830	99.954	101.194	107.074	186.442	104.955	-8191	255	
58829.738	1	1	0	0	0.2153	0.14639	0.24902	0.098538	0.056949	0.050332	0.13509	0.1919	0.046769	0.12787	0.12046	0.056558	0.15614	0.11666	0.11046	0.25661	-3.1917	-3.7188	-4.3604	-3.5229	-4.0208	-3.8896	-3.75	-4.4292	-3.5646	-3.7792	-4.375	-3.6354	-4.1583	-3.9813	-3.3229	-4.4292	216.623	311.583	193.706	328.480	298.076	143.307	421.398	346.336	216.967	389.664	351.353	412.757	78.502	425.484	402.324	319.552	0.0010264	0.00055069	7.8658e-05	1099.8	2.5858e-06	4.4499e-06	1182.9	347.55	4.4995e-06	3.8186e-06	420.93	136.15	107.04	40.539	5.6309e-06	60.946	0.00043365	0.00036501	0.00010225	1004.1	4.0943e-06	3.8458e-06	1077.4	317.39	4.0107e-06	3.8777e-06	386.51	124.84	97.943	37.578	4.0404e-06	56.416	108.151	144.766	145.197	90.976	221.389	187.175	90.046	96.456	227.148	243.562	95.190	99.985	100.983	106.816	242.141	104.329	-8191	255	
58829.832	1	1	0	0	0.22771	0.15449	0.32312	0.087502	0.10025	0.16639	0.19578	0.095413	0.033639	0.21627	0.37393	0.031006	0.099419	0.12533	0.059606	0.11855	-3.45	-3.6188	-4.5833	-3.6021	-4.0604	-4.0521	-3.6375	-4.4458	-3.7	-3.7	-4.425	-3.4375	-3.925	-4.1167	-3.3583	-4.2812	317.994	259.035	160.646	131.441	411.922	387.763	384.683	191.054	121.544	171.491	88.701	145.972	396.281	413.520	97.551	402.632	0.0010673	6.3385e-05	0.00011625	1099.9	4.7139e-06	6.9087e-06	1187.1	348.65	6.8416e-06	6.2541e-06	423.85	136.14	106.96	40.426	6.6376e-06	60.378	0.00043507	0.00035418	0.0001007	1005.5	3.9369e-06	3.9906e-06	1081.6	318.59	4.2049e-06	4.0087e-06	388.04	124.77	98.303	37.449	3.9726e-06	55.873	112.550	156.902	164.357	90.890	193.295	229.614	90.085	95.923	212.138	255.583	94.918	100.178	101.372	107.322	244.911	104.930	-8191	255	
58829.930	1	1	0	0	0.040928	0.15345	0.18406	0.18099	0.051911	0.17358	0.35864	0.21328	0.17291	0.18475	0.1515	0.14633	0.12246	0.19325	0.17843	0.16082	-3.5604	-3.6083	-4.2271	-3.5958	-4.1	-4.1438	-3.6792	-4.475	-3.8979	-3.5104	-4.5646	-3.4917	-3.7792	-4.2125	-3.2812	-4.375	352.253	294.859	256.678	416.328	281.088	227.693	356.962	431.310	367.410	235.359	344.733	429.049	365.328	147.805	235.931	353.097	0.0010094	0.00070085	0.0001292	1104.8	5.4965e-06	6.406e-06	1183.5	348.58	5.8929e-06	6.1133e-06	421.02	134.86	106.9	39.912	4.9316e-06	60.196	0.00043127	0.00035348	0.00010442	1009.1	4.0145e-06	4.001e-06	1078.4	318.57	4.1092e-06	4.0055e-06	385.67	123.96	97.796	37.14	3.9724e-06	55.739	113.518	184.759	160.595	90.996	172.001	241.098	89.512	96.534	184.679	193.659	95.109	100.097	101.327	106.854	211.597	105.099	-8191	255	
58830.023	1	1	0	0	0.040713	0.13887	0.080959	0.13342	0.12749	0.24388	0.41728	0.19037	0.0814	0.2447	0.14191	0.089378	0.17146	0.085947	0.28188	0.049969	-3.5542	-3.6521	-4.4479	-3.7271	-3.7333	-4.4	-3.625	-4.2854	-3.8417	-3.5812	-4.4229	-3.8292	-3.8229	-4.3604	-3.5375	-4.3958	104.898	106.157	304.284	389.579	414.192	152.430	425.585	360.894	296.318	129.402	404.183	436.737	344.274	158.434	404.836	332.616	0.0010206	0.00050772	0.0001656	1101	4.5514e-06	1.9085e-06	1178.4	343.82	6.8739e-06	4.6134e-06	416.48	134.89	105.48	40.047	7.2197e-06	60.624	0.00042679	0.00037429	0.00010562	1005.5	4.0538e-06	4.0349e-06	1072.6	315.01	4.1673e-06	4.1227e-06	381.72	123.39	96.619	37.27	4.1281e-06	56.021	111.656	164.407	173.179	91.215	216.305	262.321	90.329	96.396	203.492	240.292	95.056	100.292	101.284	106.805	248.468	104.657	-8191	255	
58830.121	1	1	0	0	0.17894	0.18311	0.31162	0.22353	0.14012	0.047729	0.067505	0.36298	0.06386	0.081288	0.15652	0.36708	0.22038	0.11167	0.21466	0.33603	-3.7125	-3.475	-4.1875	-3.8354	-3.5354	-4.3646	-3.5646	-4.2104	-4.1833	-3.3729	-4.3583	-3.8125	-3.5396	-4.2625	-3.5896	-3.9458	257.904	281.961	162.722	423.394	276.482	317.103	249.671	392.791	291.660	267.256	388.392	430.009	116.290	379.074	205.796	287.012	0.0010156	0.00061109	0.00017482	1091.1	7.775e-06	4.5635e-06	1173.3	339.51	3.7362e-06	6.7874e-06	411.02	132.04	103.3	39.879	4.7971e-06	60.252	0.00044236	0.00037112	0.00010316	995.48	4.005e-06	4.1449e-06	1065.2	310.7	4.0302e-06	4.114e-06	375.93	121.49	94.425	36.85	4.0735e-06	56.008	110.577	121.311	151.014	91.318	189.129	198.317	90.207	96.237	226.075	273.652	94.892	100.508	101.653	107.282	201.856	105.098	-8191	255	
58830.219	1	1	0	0	0.19436	0.19312	0.072188	0.17651	0.15163	0.22748	0.19925	0.17476	0.044411	0.037617	0.068044	0.046045	0.23109	0.077305	0.33798	0.41822	-3.7917	-3.3833	-4.2083	-3.9542	-3.5	-4.4062	-3.7083	-3.8771	-4.1979	-3.3917	-4.1396	-4.0312	-3.675	-4.3458	-3.55	-3.9437	303.131	321.511	269.075	424.203	184.605	156.133	384.018	280.697	310.577	137.285	374.721	91.689	411.142	399.719	195.374	107.962	0.0010003	0.00044306	9.3907e-05	1082.3	8.917e-06	4.4737e-06	1169.5	334.06	3.4169e-06	1.0426e-05	408.26	131.19	102.18	39.58	5.1721e-06	60.817	0.00044769	0.00038323	0.00010251	987.59	4.0898e-06	4.2111e-06	1061.2	304.85	4.2808e-06	4.1855e-06	374.27	120.21	93.276	36.652	4.0174e-06	56.108	106.483	130.583	177.985	90.834	233.554	200.942	89.600	95.821	181.236	223.065	94.533	100.157	101.457	106.715	214.637	104.811	-8191	255	
58830.340	1	1	0	0	0.30999	0.075225	0.068162	0.060491	0.19184	0.09782	0.049754	0.24493	0.051624	0.1659	0.19125	0.28035	0.13064	0.084167	0.096172	0.11619	-3.9646	-3.3458	-4.0667	-4.1562	-3.475	-4.325	-3.7958	-3.7625	-4.3417	-3.5292	-4.0583	-4.1917	-3.4146	-4.375	-3.7375	-3.7812	88.290	406.295	274.324	186.849	309.543	85.336	223.432	369.464	319.896	410.983	350.379	179.151	340.652	160.044	177.500	213.022	0.00096886	0.00035404	0.00018239	1089.3	5.4646e-06	2.3583e-06	1175.1	333.61	7.9566e-06	5.9841e-06	411.47	131.62	102.42	39.643	3.841e-06	60.477	0.0004457	0.00037788	0.000103	991.24	4.1208e-06	4.1615e-06	1064.3	304.95	4.0899e-06	4.0209e-06	374.11	120.1	93.218	36.768	3.9997e-06	56.085	111.870	107.101	165.118	90.755	205.056	197.651	89.840	95.851	190.261	228.547	94.736	100.326	101.450	106.904	236.874	104.804	-8191	255	
58830.434	1	1	0	0	0.28681	0.10973	0.023721	0.040035	0.189	0.14941	0.3066	0.16423	0.16709	0.22028	0.17031	0.11697	0.14896	0.26577	0.051996	0.23293	-4.1479	-3.4604	-3.9437	-4.4437	-3.3542	-4.2521	-3.9729	-3.7271	-4.4583	-3.6208	-3.9583	-4.1896	-3.4479	-4.2	-4.0604	-3.6521	246.367	208.603	230.226	97.176	88.355	102.169	402.002	330.240	286.987	365.302	357.813	179.680	409.949	417.128	197.562	181.093	0.00097961	0.00040546	0.00017658	1085.9	6.0962e-06	4.4781e-06	1173.6	335.14	2.0717e-06	4.7768e-06	409.19	132.04	101.17	39.574	4.6743e-06	60.599	0.00043477	0.00038593	0.00010568	992.86	4.0762e-06	4.1424e-06	1067.7	306	4.2252e-06	4.1089e-06	374.05	120.1	93.223	36.753	4.0521e-06	56.039	112.424	152.567	146.837	90.738	226.118	267.007	90.059	96.125	268.442	245.544	94.507	99.865	101.590	106.515	234.169	104.956	-8191	255	
58830.531	1	1	0	0	0.1224	0.24666	0.17644	0.14402	0.13377	0.076015	0.13914	0.24614	0.1102	0.19989	0.24991	0.19579	0.3464	0.11946	0.055934	0.16588	-3.9729	-3.5354	-3.7042	-4.3979	-3.4542	-4.1312	-4.1917	-3.4917	-4.3812	-3.7417	-3.8271	-4.2292	-3.5	-4.2021	-3.9417	-3.5604	406.185	201.721	367.437	388.344	90.631	220.285	412.317	405.991	210.551	129.973	159.882	355.654	374.455	252.647	400.532	393.216	0.000993	0.00037235	0.00015695	1091	4.7738e-06	3.568e-06	1178	334.91	5.6871e-06	4.4557e-06	407.17	131.37	102.57	39.436	8.4196e-06	60.559	0.00044901	0.00037698	0.00010664	994.64	4.1984e-06	4.2721e-06	1071.1	306.1	4.19e-06	4.1097e-06	374.15	120.77	93.482	36.732	4.2842e-06	56.013	108.061	155.568	186.060	90.850	201.049	241.194	90.195	96.350	219.837	240.685	94.738	100.100	101.270	106.973	223.006	105.054	-8191	255	
58830.625	1	1	0	0	0.045911	0.21157	0.21538	0.24783	0.25792	0.034314	0.41899	0.25355	0.1784	0.11113	0.20394	0.17926	0.12097	0.15548	0.095084	0.21562	-4.1479	-3.7104	-3.6604	-4.3854	-3.4646	-3.9417	-4.3042	-3.6083	-4.275	-3.8792	-3.7167	-4.3729	-3.4479	-4.0333	-4.1417	-3.5042	164.430	378.240	359.955	170.413	142.063	283.103	385.359	290.613	110.156	374.781	275.139	432.819	379.225	403.042	298.007	432.090	0.0010642	0.00040634	0.00010993	1096.6	3.6548e-06	7.6361e-06	1181.5	337.15	6.5239e-06	5.5991e-06	413.26	131.76	102.5	39.631	3.6868e-06	59.98	0.00045571	0.00038829	0.00010889	999.17	4.1418e-06	4.1571e-06	1074.1	307.74	4.2693e-06	4.1632e-06	377.38	120.97	94.079	36.793	4.0449e-06	55.814	112.724	180.768	183.204	90.603	213.873	238.640	90.403	96.381	207.558	241.424	95.301	99.749	101.678	107.031	210.019	104.851	-8191	255	
58830.746	1	1	0	0	0.056422	0.17629	0.11917	0.31156	0.064819	0.044084	0.13031	0.11587	0.29685	0.19173	0.109	0.20913	0.24763	0.062055	0.11943	0.22061	-4.0229	-3.8854	-3.6167	-4.4583	-3.5583	-4.0062	-4.5167	-3.5833	-4.1125	-4.1479	-3.7417	-4.3187	-3.5833	-3.8646	-4.2896	-3.4958	363.029	351.071	305.485	384.640	267.658	300.505	404.919	300.015	287.596	289.810	335.576	400.681	390.983	318.104	376.049	381.022	0.0010468	0.00032742	0.00014398	1097.2	4.0427e-06	5.583e-06	1181.5	336.75	4.0339e-06	4.7914e-06	408.42	131.69	102.31	39.681	5.6865e-06	60.049	0.00045147	0.00037774	0.00010374	1002.1	4.1234e-06	4.2819e-06	1074.8	308.57	4.1929e-06	4.114e-06	375.46	120.23	94.007	36.854	4.3683e-06	55.629	109.609	164.717	162.880	90.851	228.353	249.626	90.217	96.280	221.447	285.386	95.336	100.451	101.527	107.317	197.507	105.548	-8191	255	
58830.816	1	1	0	0	0.091778	0.032609	0.20218	0.21957	0.21049	0.14608	0.15661	0.19325	0.09925	0.13388	0.043993	0.27549	0.084613	0.173	0.39762	0.23497	-3.85	-3.9458	-3.5854	-4.3583	-3.5229	-3.7271	-4.5375	-3.6583	-4.0458	-4.0917	-3.5667	-4.3458	-3.8	-3.5125	-4.2229	-3.5708	398.332	342.115	98.196	414.250	169.873	161.945	361.906	347.419	109.385	225.325	371.143	345.477	152.598	291.509	284.005	365.640	0.000925	0.0001965	0.00012176	1096.6	1.7231e-06	6.8674e-06	1176.8	338.03	4.9323e-06	6.2279e-06	410.84	130.62	102.16	39.685	1.033e-05	60.251	0.00044054	0.00038283	0.00010541	1001.6	4.0717e-06	4.1097e-06	1070.2	308.48	4.2206e-06	4.1349e-06	376.29	120.27	94.17	36.808	4.0258e-06	55.801	108.815	155.591	156.509	91.085	218.687	233.904	90.408	96.444	238.967	218.775	94.868	100.437	101.259	106.949	208.901	105.148	-8191	255	
58830.914	1	1	0	0	0.20226	0.17789	0.12187	0.15002	0.17271	0.1486	0.092716	0.062273	0.015357	0.053146	0.096446	0.22253	0.1348	0.076883	0.12977	0.18428	-3.7333	-4.1542	-3.5542	-4.2896	-3.7417	-3.6396	-4.3917	-3.4646	-3.6979	-4.0458	-3.5208	-4.4021	-3.9521	-3.8729	-4.3354	-3.6625	193.149	105.218	269.455	415.761	407.719	322.890	342.426	260.843	169.092	193.361	364.824	403.718	364.696	412.670	313.973	256.206	0.00094001	0.0004247	0.00018194	1097.5	3.5775e-06	6.2866e-06	1171.7	338.33	6.4844e-06	6.7558e-06	411.79	130.27	102.67	39.841	6.8101e-06	59.574	0.00043807	0.00038267	0.00010461	1001.1	4.11e-06	4.1088e-06	1073	309.51	4.2646e-06	4.0801e-06	376.29	120.35	94.438	36.791	4.1178e-06	55.609	110.887	145.246	190.203	91.017	159.048	238.411	90.181	96.520	220.915	198.760	94.959	100.427	101.524	107.083	217.888	105.766	-8191	255	
58831.008	1	1	0	0	0.19117	0.27668	0.087508	0.15028	0.22912	0.10113	0.3565	0.15923	0.3221	0.21908	0.017991	0.18565	0.14424	0.2162	0.094602	0.18388	-3.5812	-4.3833	-3.2833	-4.2958	-4.0229	-3.3979	-4.4812	-3.4958	-3.7354	-4.3958	-3.3729	-4.1271	-3.9521	-3.5104	-4.2521	-3.6875	392.098	148.366	120.737	388.811	347.375	223.693	357.254	311.686	164.718	369.234	146.678	219.431	402.971	421.818	148.369	421.944	0.0010589	0.00072757	0.00019347	1099.8	9.7208e-06	6.0101e-06	1178.4	337.77	8.4511e-06	3.4591e-06	404.4	130.79	102.12	39.794	6.0905e-06	60.149	0.0004458	0.00037105	0.0001041	1005.4	4.1409e-06	4.1797e-06	1073.8	308.43	4.1226e-06	4.1042e-06	374.62	119.99	94.121	36.906	4.0367e-06	55.857	109.019	199.461	161.741	90.991	216.717	194.426	90.255	96.493	201.348	237.176	94.909	100.531	102.024	107.053	190.804	105.304	-8191	255	
58831.129	1	1	0	0	0.051096	0.057117	0.098022	0.22606	0.037098	0.29948	0.27941	0.40223	0.12766	0.14534	0.14567	0.17301	0.095724	0.039178	0.1652	0.1321	-3.4042	-4.1479	-3.3688	-4.2729	-3.9938	-3.3792	-4.4958	-3.8667	-3.5312	-4.2583	-3.5687	-3.8375	-4.0188	-3.5771	-4.1833	-3.9479	113.835	114.554	326.520	79.047	99.924	426.837	436.002	94.801	106.552	160.626	304.909	337.934	352.659	124.223	206.846	218.662	0.001034	0.0002704	0.00019388	1095.7	7.0269e-06	3.374e-06	1168	334.07	5.8577e-06	5.696e-06	407.47	130.55	101.61	39.599	3.1501e-06	59.584	0.00044339	0.0003766	0.00010195	1001.4	4.0122e-06	4.0498e-06	1066.7	306.55	4.0452e-06	4.0079e-06	372.77	119.35	93.665	36.895	3.8808e-06	55.78	110.302	154.153	171.648	91.023	188.459	203.340	90.076	96.896	189.905	247.928	95.659	100.416	102.458	107.523	186.142	105.512	-8191	255	
58831.227	1	1	0	0	0.15384	0.11044	0.13194	0.19921	0.27811	0.35592	0.14349	0.20385	0.305	0.033672	0.065232	0.12275	0.12874	0.15022	0.20769	0.082161	-3.2104	-4.1667	-3.3729	-3.85	-4.1458	-3.3396	-4.2729	-3.9979	-3.475	-4.325	-3.6604	-3.8167	-4.2271	-3.4583	-4.1687	-4.0563	253.815	122.488	236.711	244.906	124.537	321.988	409.407	367.811	142.056	276.021	396.486	339.020	149.046	338.214	228.265	88.296	0.0009927	0.00067048	0.00016696	1086.7	5.135e-06	6.1316e-06	1170.1	333.81	5.4965e-06	5.3801e-06	401.68	129.16	101.98	39.661	4.4775e-06	59.85	0.00043498	0.00035141	0.00010043	995.74	4.0316e-06	3.8659e-06	1067	306.78	3.9765e-06	4.0222e-06	371.37	119.31	93.927	36.972	3.8866e-06	55.816	110.825	165.742	156.367	91.344	195.876	232.592	90.825	96.828	206.395	252.037	95.623	100.955	101.736	107.602	212.283	105.392	-8191	255	
58831.320	1	1	0	0	0.21654	0.058802	0.11108	0.22278	0.13934	0.32082	0.14997	0.11245	0.062344	0.12092	0.068404	0.1013	0.188	0.16083	0.20471	0.089669	-3.1937	-4.3208	-3.7	-3.85	-4.2896	-3.3167	-4.225	-4.0729	-3.3854	-4.4104	-3.6292	-3.6437	-4.4396	-3.5812	-4.125	-4.3	408.624	328.094	228.527	402.371	236.071	82.205	401.897	382.479	335.373	316.531	420.502	298.181	395.235	245.361	173.657	384.757	0.00094663	0.00042324	9.4554e-05	1089	7.2475e-06	3.3068e-06	1161.6	334.08	5.5835e-06	5.6208e-06	405.42	129.27	101.97	39.799	2.278e-06	60.109	0.00043848	0.00034822	0.00010151	995.98	3.9403e-06	3.9252e-06	1061.6	306.98	3.7871e-06	3.8519e-06	371.75	118.94	93.758	36.913	3.8783e-06	55.878	108.033	165.206	161.762	91.270	207.861	215.307	90.376	96.847	216.077	231.826	95.965	100.700	101.851	107.308	248.508	105.123	-8191	255	
58831.418	1	1	0	0	0.19764	0.11177	0.24926	0.14921	0.039558	0.30505	0.30888	0.14913	0.10259	0.18324	0.23163	0.094737	0.11779	0.054086	0.21993	0.11689	-3.0938	-4.2979	-3.6771	-3.8729	-4.2812	-3.5271	-4.1125	-4.35	-3.3521	-4.4	-3.8479	-3.7646	-4.2625	-3.5563	-4.0604	-4.3833	169.111	323.844	418.932	416.173	308.899	128.327	338.909	332.276	95.684	110.440	366.483	81.685	149.852	283.342	257.698	254.486	0.0011079	0.0003877	0.00013052	1088.4	3.2508e-06	1.556e-07	1158.8	333.3	7.6171e-06	8.704e-06	401.4	129.21	102	39.501	5.2956e-06	59.995	0.00042991	0.00035397	0.00010092	995.23	3.8873e-06	3.8094e-06	1059.8	306.14	3.9176e-06	3.8194e-06	370.19	118.81	93.705	36.899	3.9785e-06	55.928	113.879	164.855	163.248	91.430	180.150	346.709	90.609	97.035	240.074	264.462	95.516	100.527	101.764	107.371	188.266	105.843	-8191	255	
58831.516	1	1	0	0	0.11065	0.31945	0.15536	0.21574	0.33927	0.19515	0.072136	0.14979	0.10708	0.1225	0.12132	0.24426	0.16817	0.10027	0.12729	0.10907	-3.2354	-4.2312	-3.9375	-3.6729	-4.4042	-3.6583	-3.9562	-4.3021	-3.3021	-4.1396	-4.2125	-3.4417	-4.4958	-3.8063	-3.8312	-4.2688	324.466	153.250	432.812	419.578	111.679	350.094	239.358	346.188	391.737	140.630	348.188	252.586	92.396	398.740	109.241	99.123	0.0010572	0.00080123	0.00020336	1078.3	3.8182e-06	5.6188e-06	1155.4	330.89	4.6261e-06	7.9288e-06	401.14	128.26	100.91	39.813	7.1127e-06	60.01	0.00042369	0.00035822	9.7192e-05	991.16	4.0138e-06	3.8216e-06	1053.8	304.76	3.7634e-06	3.7371e-06	368.11	118.33	93.081	37.084	3.9278e-06	55.747	112.903	157.730	154.363	91.598	184.435	238.517	90.762	97.128	217.754	257.513	95.391	100.910	101.999	107.927	234.977	105.501	-8191	255	
58831.609	1	1	0	0	0.091172	0.090686	0.18918	0.15736	0.13969	0.32077	0.085173	0.13936	0.082835	0.18235	0.17308	0.22821	0.094467	0.25021	0.101	0.060465	-3.0979	-4.0625	-4.0667	-3.4771	-4.2479	-3.7125	-3.9333	-4.3458	-3.3667	-4.3562	-4.1917	-3.5146	-4.3104	-3.7354	-3.6771	-4.3771	389.993	379.018	303.056	161.763	104.927	410.267	432.241	405.674	358.351	370.803	430.087	387.167	343.738	356.033	120.643	294.296	0.00098855	0.00052612	0.00010193	1079.8	6.9211e-06	3.7384e-06	1148.8	331.96	2.3369e-06	6.0442e-06	400.51	128.69	101.5	39.513	5.0776e-06	60.503	0.00042237	0.00033997	9.5812e-05	990.97	3.6622e-06	3.8394e-06	1052.3	304.63	3.7819e-06	3.8691e-06	368.79	118.56	93.221	37.039	3.8163e-06	56.042	109.132	169.836	125.655	91.479	214.059	200.844	90.513	97.185	213.816	226.787	95.560	100.653	102.153	107.556	229.618	105.862	-8191	255	
58831.707	1	1	0	0	0.19475	0.056226	0.15198	0.26323	0.078207	0.22683	0.093096	0.025752	0.31757	0.034999	0.31578	0.18708	0.25118	0.21867	0.144	0.039601	-3.1937	-3.7646	-4.05	-3.475	-4.3292	-3.7	-3.6521	-4.3833	-3.6021	-3.8333	-4.3979	-3.5104	-4.3333	-4.1562	-3.5229	-4.4771	386.603	163.300	230.198	370.812	277.061	167.563	242.590	246.673	412.292	392.798	356.190	345.838	428.839	381.764	214.897	294.013	0.00096391	0.00056361	0.00020563	1073.5	4.339e-06	6.0491e-06	1145.8	332.3	5.9545e-06	3.0095e-06	401.01	129.4	101.63	40.02	4.7494e-06	60.49	0.00043048	0.00034078	0.00010096	987.53	3.7205e-06	3.8932e-06	1050.4	304.86	3.8997e-06	3.8153e-06	368.9	118.88	93.486	37.3	3.7652e-06	56.368	112.126	202.173	118.359	91.538	193.132	219.337	90.910	97.336	224.057	216.613	95.556	101.186	102.097	107.601	192.716	105.491	-8191	255	
58831.824	1	1	0	0	0.051671	0.11868	0.10518	0.23292	0.17717	0.12647	0.079223	0.26878	0.17265	0.31371	0.17457	0.16621	0.054193	0.11695	0.037554	0.08697	-3.3063	-3.8375	-4.3604	-3.6562	-4.1229	-3.9104	-3.5792	-4.3667	-3.6604	-3.8396	-4.4563	-3.6521	-4.1312	-4.0042	-3.4333	-4.3979	281.359	207.027	394.528	368.665	112.904	237.606	433.967	80.896	391.305	416.915	353.335	419.584	260.805	428.465	239.957	193.985	0.0010022	0.00042152	8.0572e-05	1078.6	3.5686e-06	7.9044e-06	1148.4	332.1	4.8233e-06	5.8432e-06	401	129.23	101.15	39.559	5.3753e-06	60.065	0.00041568	0.00034817	9.8176e-05	988.53	3.875e-06	3.7607e-06	1051.8	304.89	3.8286e-06	3.7684e-06	367.89	118.82	93.481	37.123	3.8153e-06	56.114	104.145	155.844	193.340	91.763	213.951	210.551	90.613	97.286	243.863	249.400	95.765	101.116	101.943	107.850	212.943	105.379	-8191	255	
58831.922	1	1	0	0	0.018112	0.021589	0.11318	0.24121	0.41005	0.32042	0.21672	0.27756	0.21656	0.27535	0.26794	0.10987	0.093159	0.19308	0.093916	0.32901	-3.5542	-3.7625	-4.3708	-3.5458	-4.0771	-4.2	-3.5187	-4.3125	-3.8271	-3.4979	-4.4667	-3.5208	-3.8229	-4.2396	-3.3563	-4.4292	116.811	330.030	167.264	393.617	276.837	330.735	348.870	282.761	278.132	427.407	93.890	240.818	275.154	361.371	226.227	348.110	0.00098139	0.00086238	0.00014967	1074.4	9.4948e-06	2.7025e-06	1153.2	330.56	6.3816e-06	3.3417e-06	398.37	128.36	100.62	40.17	4.4943e-06	60.312	0.00042482	0.00035217	9.8359e-05	986.36	3.8878e-06	3.9036e-06	1050.2	304.63	3.8426e-06	3.8811e-06	368.17	118.79	93.289	37.471	3.7251e-06	56.14	108.870	162.365	160.468	91.739	216.010	203.697	90.921	97.493	193.008	235.210	95.477	101.163	102.137	108.194	208.026	105.925	-8191	255	
58832.020	1	1	0	0	0.12172	0.16685	0.094788	0.13154	0.15812	0.11657	0.29521	0.18872	0.14605	0.16795	0.31551	0.32592	0.07749	0.11616	0.18818	0.153	-3.5229	-3.5917	-4.2438	-3.7042	-3.7938	-4.1021	-3.6875	-4.1792	-3.8229	-3.5563	-4.5167	-3.7396	-3.8438	-4.3479	-3.3104	-4.2604	152.141	105.576	104.531	350.652	199.124	105.317	351.847	100.653	349.392	200.963	376.836	125.512	169.147	80.642	110.121	82.157	0.00088703	0.00021202	0.00016056	1069.7	6.6534e-06	2.8733e-06	1146.2	330.19	4.6103e-06	6.8447e-06	398.59	129.25	101.73	40.394	2.7018e-06	60.459	0.00041105	0.0003427	9.709e-05	984.5	3.9065e-06	3.8116e-06	1048.8	304.66	3.884e-06	3.8179e-06	368.67	118.91	93.468	37.409	3.8737e-06	56.406	106.808	203.700	167.760	91.923	210.792	258.632	91.047	97.189	273.960	237.625	95.873	101.142	102.324	107.894	230.027	105.542	-8191	255	
58832.113	1	1	0	0	0.088673	0.12397	0.25781	0.057688	0.22609	0.20232	0.15533	0.11023	0.11745	0.28627	0.21796	0.051154	0.13561	0.15741	0.16349	0.11571	-3.6562	-3.4979	-4.2979	-3.6229	-3.6542	-4.2063	-3.5958	-4.2854	-3.7896	-3.4542	-4.3167	-3.5771	-3.6396	-4.4167	-3.3771	-4.05	433.831	377.329	142.622	426.108	214.869	101.120	380.668	295.871	403.560	328.103	369.498	108.731	87.897	387.326	432.685	368.242	0.00098155	0.00056036	0.00010819	1064.5	7.3133e-06	6.2043e-06	1137	332.02	7.1677e-06	2.358e-06	402.37	129.57	101.76	39.782	7.3458e-06	60.421	0.00041657	0.00034826	9.5927e-05	982.69	3.8102e-06	3.8454e-06	1046.8	305.36	3.8286e-06	3.8482e-06	370.26	119.22	93.88	37.304	3.7294e-06	56.396	113.664	189.111	149.232	91.499	228.956	224.988	91.118	97.139	200.119	203.114	95.985	101.522	102.590	107.879	227.061	106.048	-8191	255	
58832.211	1	1	0	0	0.19104	0.043262	0.076043	0.12608	0.14534	0.16284	0.15465	0.34535	0.099317	0.11074	0.04699	0.17149	0.1917	0.18467	0.062473	0.16763	-3.9042	-3.4688	-4.3187	-3.9417	-3.7625	-4.3333	-3.7042	-4.0479	-4.2583	-3.4562	-4.3396	-3.6583	-3.8021	-4.3562	-3.4562	-3.9	291.553	317.178	252.533	426.331	392.875	199.202	351.359	386.831	250.027	157.960	156.906	339.340	80.620	428.740	100.800	226.265	0.0010237	0.00064826	0.00018533	1075.8	5.8149e-06	4.7717e-06	1152.3	332.29	4.4918e-06	6.3733e-06	401.41	128.87	101.08	39.979	8.2412e-06	60.129	0.00041943	0.00035063	9.8185e-05	989.19	3.7839e-06	3.7047e-06	1050.5	306.01	3.8551e-06	3.7219e-06	369.43	118.97	93.763	37.412	3.903e-06	56.214	108.905	172.907	143.043	91.852	228.737	242.470	91.038	97.478	235.396	252.520	95.884	101.322	102.148	108.590	239.610	106.012	-8191	255	
58832.305	1	1	0	0	0.010202	0.22508	0.03121	0.17617	0.02548	0.057223	0.085389	0.03977	0.044827	0.016647	0.16156	0.11811	0.21326	0.24663	0.17974	0.076199	-3.9396	-3.3333	-4.3438	-4.0229	-3.4917	-4.3854	-3.8708	-3.7396	-4.2562	-3.3125	-4.2458	-4.0208	-3.5083	-4.325	-3.5083	-3.8583	400.571	83.252	269.138	399.551	232.342	140.273	93.876	315.539	282.826	267.054	315.417	329.324	400.338	402.184	364.556	318.249	0.0010981	0.00048212	0.00015921	1066.6	9.0457e-06	8.8053e-06	1130.9	327.6	5.4921e-06	9.378e-06	393.9	128.23	100.59	39.551	5.8797e-06	59.745	0.00043404	0.00034374	9.5663e-05	986.76	3.9177e-06	3.8669e-06	1044.7	305.12	3.8793e-06	3.9885e-06	368.41	119.06	93.831	37.372	3.8982e-06	56.142	106.457	157.506	173.256	93.026	192.526	211.183	92.069	98.306	219.920	231.924	96.833	102.567	103.910	109.368	205.665	106.622	-8191	255	
58832.426	1	1	0	0	0.24707	0.11509	0.15548	0.10963	0.1689	0.12647	0.32509	0.1634	0.24481	0.13267	0.21353	0.09911	0.043197	0.12365	0.10454	0.26539	-3.9771	-3.2292	-4.1375	-4.3438	-3.4583	-4.3396	-3.85	-3.6229	-4.3604	-3.5417	-3.9833	-4.2604	-3.6437	-4.2354	-3.6958	-3.6208	177.797	329.695	369.698	378.147	349.124	177.617	375.458	350.638	397.161	130.150	111.581	149.730	412.449	435.687	173.931	407.497	0.0010389	0.00062678	0.00014144	1063.4	4.9027e-06	3.265e-06	1128.9	329.62	4.9213e-06	8.5182e-06	394.22	128.43	100.69	39.706	4.5324e-06	59.684	0.00043482	0.00035764	9.9411e-05	988.07	3.9348e-06	3.8216e-06	1047.9	306.15	3.809e-06	4.0224e-06	368.82	119.37	93.948	37.369	4.0945e-06	56.305	105.647	190.460	165.608	93.268	208.354	231.409	92.291	98.566	213.098	184.209	97.178	102.663	103.735	109.566	211.006	107.290	-8191	255	
58832.523	1	1	0	0	0.15912	0.16112	0.097453	0.071097	0.16938	0.13843	0.23655	0.1667	0.13432	0.17331	0.13207	0.095667	0.1128	0.11577	0.10213	0.097829	-4.0417	-3.4625	-3.8187	-4.2854	-3.5042	-4.1208	-4.1021	-3.5125	-4.4021	-3.6604	-4.0042	-4.3271	-3.5125	-4.2937	-4.0604	-3.5563	142.941	113.403	230.254	333.478	104.191	313.588	385.301	419.395	408.235	92.774	358.354	149.456	419.960	376.187	303.315	288.916	0.00098643	0.00043761	0.00020205	1067.1	2.6651e-06	3.6615e-06	1128.8	330.42	3.6552e-06	5.7603e-06	396.56	127.59	101.06	40.083	7.7981e-06	59.929	0.00042185	0.00036347	0.00010203	990.8	3.9558e-06	4.0193e-06	1047.4	306.93	3.9151e-06	4.0533e-06	370.82	119.43	94.35	37.761	4.0715e-06	56.605	111.192	157.093	177.487	93.356	230.176	227.762	92.773	98.808	214.041	240.066	97.374	102.576	103.725	109.371	220.219	107.080	-8191	255	
58832.617	1	1	0	0	0.22271	0.17213	0.046109	0.11639	0.039739	0.13178	0.17321	0.37235	0.27357	0.25232	0.17531	0.061506	0.084595	0.13357	0.18845	0.10925	-4.3083	-3.4854	-3.9729	-4.3313	-3.5417	-4.2688	-4.2104	-3.7271	-4.2688	-3.8937	-3.6625	-4.325	-3.7354	-4.1854	-3.9646	-3.4458	250.485	431.613	240.076	352.492	225.839	124.880	364.363	97.052	150.152	197.176	338.809	294.562	191.914	160.156	291.409	136.923	0.0011059	0.00034269	0.00019951	1066.4	7.6595e-06	6.0984e-06	1128.9	330.26	7.2072e-06	8.1625e-06	398.11	130	101.84	40.653	5.2215e-06	60.794	0.00043969	0.00036841	0.00010563	992.84	4.0539e-06	4.1065e-06	1047.8	308.28	4.1713e-06	4.1937e-06	370.53	120.26	94.892	38.438	4.0493e-06	57.686	111.621	178.103	163.647	93.639	206.931	216.103	92.680	98.758	185.219	230.061	96.999	102.574	104.225	109.476	212.890	107.186	-8191	255	
58832.691	1	1	0	0	0.093496	0.26989	0.23722	0.23347	0.23834	0.060266	0.19436	0.11218	0.23378	0.14123	0.20094	0.13732	0.33353	0.067916	0.22498	0.11665	-3.9458	-3.6958	-3.7958	-4.3729	-3.5479	-3.9	-4.1792	-3.4521	-4.375	-3.8875	-3.6958	-4.3854	-3.5	-4.0417	-4.2063	-3.5021	200.506	421.948	237.937	105.960	389.755	389.880	390.809	94.038	411.171	196.961	105.598	361.233	438.470	219.136	316.609	148.624	0.0010901	0.00045309	0.00015397	1065.9	8.1469e-06	5.3177e-06	1129.2	330.59	7.34e-06	6.4158e-06	398.23	128.91	100.88	40.762	3.1787e-06	61.519	0.00043399	0.00036704	0.00010322	991.7	4.3525e-06	4.0523e-06	1046.5	307.31	4.3174e-06	4.1669e-06	371.47	120.1	94.139	38.546	4.2306e-06	58.063	110.416	140.165	161.474	93.427	208.269	224.508	92.618	98.725	217.500	211.552	97.532	102.835	103.974	109.602	182.171	107.743	-8191	255	
58832.785	1	1	0	0	0.073141	0.13166	0.085091	0.18402	0.21059	0.13076	0.070887	0.13624	0.068618	0.044811	0.087596	0.19241	0.039329	0.097881	0.18711	0.17539	-3.8375	-3.8167	-3.6458	-4.55	-3.6437	-3.7708	-4.4125	-3.5375	-4.0771	-3.9042	-3.7104	-4.4417	-3.8	-3.9271	-4.2812	-3.5604	328.180	179.856	190.928	434.213	82.649	279.047	302.383	378.098	198.638	179.388	402.679	404.289	353.341	95.044	285.827	279.699	0.00099123	0.00035902	0.00020828	1067	5.3731e-06	6.6809e-06	1132.6	329.97	4.9696e-06	9.1924e-06	399.75	130.17	100.25	41.232	4.8976e-06	62.578	0.00046781	0.00039494	0.00011201	991.25	4.5128e-06	4.3275e-06	1048.7	307.18	4.4524e-06	4.3266e-06	373	120.91	94.317	38.855	4.4854e-06	58.952	106.827	102.419	127.625	93.415	226.965	244.897	92.409	99.024	193.673	246.678	97.333	102.724	104.261	109.932	243.274	107.412	-8191	255	
58832.906	1	1	0	0	0.015687	0.03871	0.27306	0.29025	0.073169	0.20467	0.18318	0.11323	0.13526	0.12814	0.1697	0.28348	0.074088	0.21257	0.177	0.089321	-3.9	-4.1438	-3.4917	-4.4833	-3.7021	-3.6375	-4.5208	-3.5854	-3.9854	-3.9729	-3.5896	-4.2458	-3.8708	-3.525	-4.5208	-3.5417	87.386	176.826	415.460	422.530	255.402	379.294	375.179	438.564	270.116	328.089	439.553	374.102	428.607	98.029	428.702	225.696	0.0010668	0.00038503	9.6649e-05	1073.4	4.0601e-06	5.9048e-06	1139.5	332.44	6.0658e-06	6.0401e-06	402.2	129.53	101.54	41.093	6.5071e-06	61.898	0.00048469	0.00040319	0.00011296	997.52	4.4713e-06	4.5282e-06	1058.7	309.43	4.6198e-06	4.5568e-06	375.43	120.63	94.65	38.742	4.4262e-06	58.518	112.108	154.209	185.306	93.222	214.711	223.828	92.668	98.812	197.010	265.219	97.443	102.684	103.853	109.375	224.583	107.738	-8191	255	
58833.004	1	1	0	0	0.12218	0.24227	0.18745	0.16593	0.1707	0.10573	0.089996	0.13135	0.19098	0.17363	0.25234	0.12497	0.034788	0.20563	0.14793	0.058047	-3.6458	-4.1687	-3.3708	-4.2	-3.9292	-3.5	-4.6562	-3.5729	-3.8271	-4.2458	-3.4646	-4.2271	-3.8083	-3.5708	-4.3146	-3.6479	316.707	84.765	429.259	431.073	405.242	300.435	119.558	350.556	354.323	269.804	102.289	384.749	400.559	433.019	425.825	306.681	0.0010149	0.00067978	0.00025182	1095.1	6.6411e-06	5.2758e-06	1157.8	337.7	2.6038e-06	8.74e-06	408.21	129.85	102.01	40.836	7.0042e-06	61.802	0.00048165	0.00042742	0.0001136	1014.6	4.7085e-06	4.6497e-06	1073	313.44	4.6709e-06	4.5969e-06	379.12	121.03	95.204	38.608	4.6795e-06	58.293	110.299	157.922	138.790	93.582	216.385	234.004	92.572	98.824	164.607	203.687	97.047	102.965	103.921	109.490	221.456	107.560	-8191	255	
58833.098	1	1	0	0	0.20854	0.28865	0.050579	0.20328	0.20148	0.16036	0.30775	0.13614	0.21092	0.16625	0.16139	0.40235	0.1331	0.092525	0.2171	0.027518	-3.3937	-4.2333	-3.4521	-4.2042	-3.8542	-3.5146	-4.3938	-3.8104	-3.9021	-4.3729	-3.5208	-4.1417	-4.125	-3.8	-4.3313	-4.0062	128.101	219.058	432.971	368.347	183.044	328.553	378.559	318.899	360.059	346.978	316.657	414.864	260.780	427.393	230.825	387.819	0.0011016	0.00031334	6.174e-05	1107.8	4.7238e-06	7.5347e-06	1170.4	342.96	5.9533e-06	7.7828e-06	411.35	129.85	103.29	40.388	3.3141e-06	61.689	0.00051158	0.0004201	0.00012625	1029.2	4.8265e-06	4.8345e-06	1087.3	318.14	4.7676e-06	4.8419e-06	383.18	121.19	95.953	38.229	4.7015e-06	57.9	110.461	154.796	149.675	93.285	218.437	217.207	92.360	98.595	243.365	241.698	96.905	102.368	103.919	109.497	161.934	107.309	-8191	255	
58833.219	1	1	0	0	0.29767	0.07183	0.15138	0.34423	0.21444	0.16215	0.30642	0.046432	0.14636	0.12005	0.31964	0.19209	0.072214	0.23325	0.12252	0.20486	-3.3792	-4.2458	-3.5854	-4.1937	-3.8625	-3.4958	-4.5312	-3.9208	-3.5396	-4.2688	-3.4854	-3.9708	-4.2417	-3.5521	-4.1771	-3.9604	117.014	387.451	125.164	119.324	272.604	439.467	408.178	407.791	284.313	203.452	432.790	108.167	421.151	323.088	329.980	382.164	0.00097869	0.0004615	0.00019457	1115.6	8.5459e-06	6.7022e-06	1192.2	343.19	4.8947e-06	5.6218e-06	415.54	130.46	102.97	40.278	3.6867e-06	60.896	0.00048528	0.00042341	0.00012206	1037.5	4.727e-06	4.7081e-06	1104.5	320.21	4.7048e-06	4.6515e-06	385.78	121.31	95.847	38.107	4.6347e-06	57.296	112.257	159.410	147.832	93.305	177.691	232.285	92.603	98.478	220.753	213.132	97.024	102.316	103.716	109.186	213.480	107.550	-8191	255	
58833.289	1	1	0	0	0.17594	0.19476	0.04826	0.20004	0.080687	0.095925	0.2001	0.14928	0.26282	0.16844	0.12854	0.086983	0.18628	0.28277	0.20952	0.082599	-3.075	-4.3542	-3.5979	-3.9917	-4.1687	-3.5	-4.3562	-3.9479	-3.4708	-4.3688	-3.7396	-3.8208	-4.2854	-3.6083	-4.2	-4.0583	325.913	143.436	263.320	384.768	372.400	363.599	386.104	330.161	99.663	291.708	346.312	376.492	402.885	378.545	323.367	260.117	0.0010759	0.00059961	0.00016616	1132.2	8.3479e-06	5.5287e-06	1194.7	345.76	2.4487e-06	8.2593e-06	411.29	129.01	102.62	40.051	5.6909e-06	59.79	0.00049579	0.00042951	0.0001231	1051.3	4.6919e-06	4.6365e-06	1110.8	321.44	4.5177e-06	4.6644e-06	384.51	120.42	95.807	37.748	4.6371e-06	56.352	111.255	146.185	162.791	93.415	212.062	201.378	92.233	98.309	222.152	248.573	97.195	102.167	103.462	109.508	213.395	107.380	-8191	255	
58833.387	1	1	0	0	0.24674	0.098958	0.13767	0.2395	0.04703	0.2162	0.23805	0.37116	0.043644	0.19531	0.40819	0.30147	0.09431	0.077715	0.25436	0.08496	-3.1542	-4.3021	-3.5146	-3.8792	-4.3313	-3.4146	-4.2333	-4.1333	-3.4958	-4.2271	-3.9	-3.8354	-4.5729	-3.6146	-3.9521	-4.1937	328.950	372.292	158.362	389.466	257.599	438.095	421.115	379.216	437.696	196.794	406.022	312.547	341.617	284.235	83.869	92.932	0.0010974	0.00060235	0.00022009	1124.7	5.5427e-06	3.6533e-06	1187.5	344.85	5.998e-06	6.5319e-06	412.14	128.02	101.98	39.483	7.0279e-06	58.601	0.00046689	0.00041934	0.00011878	1044.3	4.4616e-06	4.394e-06	1100	320.2	4.4483e-06	4.5757e-06	382.73	119.5	95.177	37.208	4.3277e-06	55.451	111.399	172.820	184.455	93.117	237.530	229.281	92.125	98.532	217.119	197.466	97.174	102.503	103.677	109.518	218.183	107.339	-8191	255	
58833.508	1	1	0	0	0.080238	0.12925	0.25508	0.24622	0.063287	0.15765	0.10153	0.069586	0.05738	0.10163	0.28837	0.1587	0.26373	0.11904	0.28329	0.15259	-3.15	-4.3313	-3.975	-3.8292	-4.4271	-3.4292	-3.9375	-4.3042	-3.3458	-4.2937	-4.0354	-3.6458	-4.5312	-3.6042	-4.0375	-4.2937	253.357	266.455	412.365	366.851	313.213	289.179	439.375	347.319	129.838	240.469	379.938	338.410	138.046	360.290	236.092	404.333	0.00097878	0.00034779	0.00019701	1119.9	5.8567e-06	6.219e-06	1184.8	341.39	4.9673e-06	7.766e-06	406.01	126.94	101.02	38.803	8.6936e-06	57.858	0.00046542	0.00042446	0.00011325	1037.7	4.3267e-06	4.3659e-06	1096	317.52	4.4183e-06	4.3347e-06	378.9	118.39	94.7	36.765	4.3985e-06	54.618	116.073	159.801	130.962	93.195	225.755	212.455	92.500	98.703	232.289	245.982	97.384	102.484	103.613	108.793	204.373	107.328	-8191	255	
58833.602	1	1	0	0	0.12877	0.14946	0.12592	0.13701	0.17534	0.15179	0.15839	0.24546	0.15181	0.055875	0.25062	0.046077	0.21603	0.11152	0.016263	0.2172	-2.9792	-4.1813	-3.8667	-3.8125	-4.4958	-3.7375	-4.1167	-4.4583	-3.4833	-4.2188	-4.2208	-3.6417	-4.4313	-3.8625	-3.7604	-4.4271	94.011	316.486	152.653	308.672	153.411	207.664	368.914	355.771	403.206	174.644	409.188	395.573	360.727	391.215	298.427	275.599	0.001018	0.00053126	0.00010503	1104	7.3657e-06	5.1591e-06	1172	337.23	6.9522e-06	4.5851e-06	400.72	125.81	99.773	38.436	7.5325e-06	57.627	0.00045703	0.00039665	0.00010941	1028.3	4.3256e-06	4.1489e-06	1084	314.46	4.2215e-06	4.2028e-06	374.98	117.12	93.48	36.32	4.1157e-06	54.227	111.583	114.954	147.477	93.254	189.253	218.632	92.417	98.786	214.777	246.467	97.407	102.383	104.148	109.228	231.686	107.280	-8191	255	
58833.699	1	1	0	0	0.078502	0.10777	0.17748	0.27118	0.15225	0.17415	0.27778	0.12336	0.14112	0.18277	0.095639	0.093689	0.12343	0.23756	0.056836	0.3031	-3.2438	-4.2729	-4.0396	-3.75	-4.3646	-3.8417	-3.9521	-4.4625	-3.6	-4.0813	-4.2125	-3.5021	-4.3958	-4.0458	-3.75	-4.4021	262.489	133.590	433.653	88.345	217.723	212.636	338.520	81.663	374.361	182.399	335.235	280.622	318.559	94.839	182.553	344.073	0.0010737	0.00016467	0.00013107	1102.3	4.8863e-06	7.4371e-06	1151	334.32	9.0832e-06	5.3993e-06	397.15	125.75	100.03	38.225	5.8375e-06	57.001	0.00043962	0.00037928	0.00010639	1018.6	4.0153e-06	4.076e-06	1071	311.6	4.0584e-06	3.9357e-06	371.02	116.55	93.193	36.133	3.8746e-06	53.781	109.846	287.640	423.949	93.149	213.635	230.359	92.217	98.524	235.698	220.019	96.978	102.314	103.580	109.214	202.750	107.438	-8191	255	
58833.816	1	1	0	0	0.16698	0.16573	0.19749	0.24636	0.11758	0.15318	0.12219	0.073139	0.15224	0.2003	0.10172	0.055158	0.14557	0.12361	0.10178	0.18385	-3.1792	-4.1687	-4.2167	-3.7687	-4.2854	-3.8792	-3.9	-4.5292	-3.6688	-3.9958	-4.3187	-3.5479	-4.2229	-3.9208	-3.4896	-4.3979	420.253	352.989	169.424	416.698	310.198	283.192	178.279	389.975	226.843	267.558	242.151	152.274	169.115	365.451	171.692	361.869	0.00093828	0.00028241	0.00016731	1085.8	2.4806e-06	5.274e-06	1148.6	333.98	5.6415e-06	3.1222e-06	396.88	126.15	99.955	38.793	5.1492e-06	57.619	0.00042869	0.00036542	0.00010174	1006.4	4.0321e-06	4.0104e-06	1062.5	309.78	4.086e-06	3.9261e-06	369.73	117.22	93.453	36.705	3.9048e-06	54.322	110.365	143.817	158.853	93.245	209.983	222.815	92.402	98.248	195.779	268.244	97.169	102.209	103.232	109.231	221.895	107.430	-8191	255	
58833.914	1	1	0	0	0.33533	0.14105	0.13433	0.26792	0.16264	0.14011	0.16414	0.26973	0.21934	0.17231	0.20483	0.1044	0.078451	0.18551	0.080127	0.24647	-3.4271	-3.7938	-4.2375	-3.5167	-4.2667	-4.1687	-3.7875	-4.4521	-3.6167	-3.7792	-4.5104	-3.6708	-4.0625	-4.1042	-3.4104	-4.3646	300.239	85.862	191.452	433.156	277.913	199.436	295.902	410.710	327.197	131.642	428.554	112.539	280.232	119.764	272.132	160.944	0.0009163	0.00039248	0.00011654	1079.8	7.0859e-06	6.5313e-06	1137.2	332.88	3.0382e-06	4.9493e-06	398.97	127.03	102.05	39.75	6.7523e-06	58.719	0.00042778	0.00035243	9.6962e-05	1001.2	4.0258e-06	3.8409e-06	1053.7	310.13	4.0829e-06	3.7389e-06	371.07	118.58	94.823	37.328	3.7328e-06	55.205	109.214	131.294	131.733	93.312	181.544	197.642	92.552	98.481	184.074	228.735	97.228	102.557	103.259	109.504	227.812	107.376	-8191	255	
58833.984	1	1	0	0	0.15899	0.27536	0.084954	0.14248	0.25839	0.11789	0.14187	0.32034	0.062127	0.10565	0.21584	0.17027	0.056487	0.13545	0.098161	0.27747	-3.3375	-3.7604	-4.3292	-3.6292	-3.9646	-4.0875	-3.6833	-4.425	-3.8542	-3.7417	-4.4729	-3.4313	-3.9833	-4.2229	-3.3167	-4.3229	420.110	175.175	398.487	366.415	224.318	89.403	92.585	396.379	191.080	294.669	431.048	408.616	108.862	86.605	364.651	329.901	0.0010196	0.00056163	0.00020034	1069.9	5.1052e-06	6.4819e-06	1136	333.61	1.0585e-05	3.0203e-06	400.07	127.57	102.47	40.158	6.6451e-06	58.829	0.00040841	0.0003461	9.9714e-05	992.13	3.8726e-06	3.6944e-06	1050.8	311.06	3.822e-06	3.6184e-06	372.48	119.28	95.501	37.761	3.8112e-06	55.556	115.581	171.136	151.226	93.185	184.085	230.970	92.455	98.937	242.904	210.601	97.375	102.716	103.676	109.311	258.487	107.134	-8191	255	
58834.105	1	1	0	0	0.093373	0.12967	0.049091	0.19419	0.21602	0.25022	0.16477	0.36783	0.12637	0.080049	0.16768	0.052202	0.084873	0.21162	0.17289	0.12503	-3.5708	-3.5687	-4.3167	-3.725	-3.7979	-4.2917	-3.5312	-4.2854	-4.1	-3.4354	-4.5312	-3.7833	-3.9229	-4.2833	-3.5292	-4.2292	243.456	366.764	270.628	416.921	125.713	267.256	391.711	402.068	173.040	373.513	382.611	171.557	230.521	82.601	211.294	211.164	0.0009782	0.00046846	0.00016969	1067.4	8.3201e-06	7.5622e-06	1122.7	331.3	5.5812e-06	9.0706e-06	395.55	127.31	102.56	40.338	5.7025e-06	59.506	0.00042422	0.00033292	9.5241e-05	988.37	3.7015e-06	3.5641e-06	1039	309.6	3.5896e-06	3.5523e-06	369.96	118.94	95.448	38.011	3.7805e-06	55.952	113.793	158.074	175.469	93.177	241.033	231.102	92.140	98.668	177.897	223.231	97.050	102.565	103.837	109.380	238.079	107.223	-8191	255	
58834.203	1	1	0	0	0.13596	0.19384	0.18669	0.13773	0.053516	0.20259	0.10562	0.27045	0.20942	0.23017	0.018961	0.063541	0.094719	0.28508	0.14591	0.36607	-3.7229	-3.6437	-4.2708	-3.7812	-3.7167	-4.4083	-3.5938	-4.2646	-4.2375	-3.6333	-4.4521	-3.8625	-3.6583	-4.3667	-3.5146	-3.9083	273.708	234.673	374.309	344.614	422.172	105.139	391.238	424.420	260.887	380.973	391.017	234.202	368.653	110.977	270.818	351.671	0.0011118	0.00062514	0.00023242	1063.9	4.7439e-06	2.5405e-06	1114	330.53	7.9262e-06	3.8279e-06	396.13	127.99	102.42	40.457	4.3585e-06	59.478	0.0004036	0.00033196	9.292e-05	984.02	3.3495e-06	3.4705e-06	1032.3	308.53	3.509e-06	3.4504e-06	368.34	119.14	95.351	38.154	3.5618e-06	56.133	113.238	169.798	150.366	93.014	211.855	251.735	92.344	98.911	235.314	257.722	97.156	102.619	103.485	109.579	232.775	107.090	-8191	255	
58834.301	1	1	0	0	0.25189	0.15835	0.045078	0.16353	0.059113	0.16448	0.094523	0.11892	0.089575	0.16895	0.18404	0.14046	0.29759	0.22813	0.16573	0.16585	-3.9688	-3.5062	-4.2083	-3.9333	-3.6146	-4.3542	-3.8042	-4.0604	-4.1917	-3.5396	-4.3604	-3.9854	-3.7833	-4.3979	-3.6729	-4.0625	411.572	372.128	116.831	417.993	421.854	295.889	382.830	400.910	85.994	115.900	331.634	432.284	346.201	393.368	420.160	195.943	0.00099871	0.00050583	0.00010248	1044.7	5.5286e-06	3.1848e-06	1106.9	329.6	5.8061e-06	3.9702e-06	395.08	126.35	102.64	40.241	6.7155e-06	59.696	0.00039388	0.00031989	8.9938e-05	972.74	3.43e-06	3.6109e-06	1024.2	306.73	3.2813e-06	3.4034e-06	366.84	118.62	94.969	37.995	3.6129e-06	55.959	110.223	144.034	137.504	93.271	205.880	271.467	92.501	98.633	200.616	197.061	96.988	102.866	103.994	109.556	241.832	107.042	-8191	255	
58834.395	1	1	0	0	0.15427	0.066601	0.096201	0.138	0.1846	0.16839	0.094309	0.21216	0.15428	0.23842	0.06245	0.095452	0.032599	0.12203	0.034732	0.17104	-3.9604	-3.3479	-4.125	-4	-3.4583	-4.3417	-3.6167	-3.7313	-4.3417	-3.4042	-4.0979	-3.9875	-3.6854	-4.2937	-3.6188	-3.9208	122.941	121.318	283.940	115.109	194.192	287.656	143.109	323.128	195.797	109.301	298.704	248.246	106.573	385.438	120.398	385.100	0.00094439	0.00072752	0.00015039	1046.9	4.0484e-06	6.8076e-06	1101.5	329.91	4.4067e-06	6.5029e-06	391.49	127.05	100.87	39.984	6.9993e-06	58.96	0.00038986	0.00031833	8.8933e-05	972.88	3.5491e-06	3.5314e-06	1020.2	307.11	3.5534e-06	3.5069e-06	364.89	118.21	94.449	37.685	3.4466e-06	55.445	111.157	155.040	149.285	93.483	191.012	230.180	92.536	98.803	180.212	231.744	97.227	102.605	103.896	109.032	230.857	107.361	-8191	255	
58834.492	1	1	0	0	0.079935	0.17831	0.050784	0.19711	0.18181	0.08798	0.30507	0.2208	0.10732	0.08201	0.14692	0.21858	0.20052	0.12282	0.045042	0.27993	-3.9562	-3.6208	-4.0437	-4.2167	-3.4188	-4.2979	-3.8229	-3.8917	-4.4417	-3.6	-4.1375	-4.2292	-3.5792	-4.2729	-3.8937	-3.6854	292.242	116.696	344.771	90.017	325.525	234.097	381.287	243.249	410.134	167.613	237.929	123.250	415.120	326.743	89.920	403.724	0.0010867	0.00031382	0.00017359	1046.3	7.2672e-06	8.4127e-06	1091.5	329.83	5.5203e-06	3.0175e-06	389.23	125.8	101.52	39.938	3.6004e-06	58.517	0.00039409	0.00033523	8.7566e-05	967.36	3.4773e-06	3.3939e-06	1011.7	305.71	3.4159e-06	3.641e-06	361.34	117.2	94.339	37.635	3.2853e-06	54.928	111.612	147.755	162.736	93.098	199.637	209.877	92.389	98.749	211.389	227.912	97.249	102.760	103.555	109.561	218.037	106.646	-8191	255	
58834.586	1	1	0	0	0.044781	0.1208	0.067864	0.041107	0.088877	0.13338	0.021338	0.2484	0.14759	0.28232	0.29099	0.21864	0.32312	0.1542	0.033534	0.25062	-4.075	-3.4479	-3.9396	-4.3542	-3.2979	-4.2146	-4.0792	-3.6771	-4.3375	-3.6917	-4.0458	-4.3542	-3.6958	-4.1042	-3.9021	-3.5271	150.933	301.789	405.430	255.464	119.800	194.276	263.906	403.730	423.833	282.932	406.174	402.386	406.201	347.776	329.712	387.258	0.00096093	0.00039694	0.00014979	1038.5	4.231e-06	4.8356e-06	1087.5	328.8	6.8017e-06	2.3144e-06	389.39	125.33	101.59	39.63	8.2273e-06	58.141	0.00038218	0.00032152	8.7902e-05	964.13	3.4623e-06	3.5005e-06	1007.9	304.73	3.4858e-06	3.3251e-06	361.37	116.4	94.54	37.359	3.3419e-06	54.551	110.896	175.540	152.854	93.342	196.356	255.748	92.454	98.482	236.979	249.932	97.281	102.825	103.406	109.542	210.790	106.992	-8191	255	
58834.684	1	1	0	0	0.09736	0.15851	0.31484	0.34233	0.13907	0.11917	0.1566	0.2038	0.059524	0.23639	0.10132	0.21336	0.17302	0.11217	0.18511	0.17354	-4.0583	-3.5687	-3.9188	-4.5208	-3.3083	-4.2208	-4.1188	-3.5583	-4.3625	-3.7188	-3.6083	-4.2688	-3.5604	-4.3396	-4.075	-3.5604	202.022	329.066	97.011	82.470	377.496	329.304	427.803	299.178	122.479	407.688	367.052	378.538	261.978	439.368	411.859	282.521	0.00099975	0.0001911	9.1314e-05	1033.3	3.288e-06	7.5473e-06	1085.2	327.74	4.2421e-06	6.6131e-06	386.69	126.1	100.78	39.48	5.7042e-06	57.983	0.00039206	0.00030243	8.7434e-05	962.64	3.4218e-06	3.4445e-06	1003.4	304.37	3.5502e-06	3.4482e-06	360.47	116.87	94.103	37.172	3.4193e-06	54.417	111.736	188.051	213.807	93.383	219.974	235.977	92.296	98.708	264.803	249.605	96.972	102.446	103.690	109.216	255.386	107.532	-8191	255	
58834.781	1	1	0	0	0.027942	0.24265	0.36445	0.21731	0.17737	0.10124	0.094711	0.291	0.17949	0.029632	0.23892	0.20074	0.08163	0.18315	0.11488	0.16491	-4.0833	-3.6354	-3.7354	-4.35	-3.5	-4.0104	-4.2917	-3.5646	-4.2937	-3.8917	-3.8083	-4.2458	-3.6104	-4.0271	-4.1667	-3.4437	91.442	425.082	111.121	342.421	359.403	274.002	120.349	404.383	222.087	410.771	364.519	331.531	412.391	342.240	254.107	361.734	0.00096159	0.00031405	0.00011495	1034	3.4107e-06	1.9904e-06	1081.1	326.88	7.0836e-06	7.9288e-06	387.05	125.22	101.07	39.471	5.5975e-06	57.249	0.00038061	0.00031685	8.6062e-05	958.65	3.4751e-06	3.3743e-06	997.52	303.7	3.4051e-06	3.4481e-06	359.08	116.25	93.792	37.185	3.3432e-06	54.01	109.089	188.440	146.798	93.345	221.310	254.854	92.810	98.631	202.709	225.599	97.198	102.746	103.943	109.282	245.420	107.335	-8191	255	
58834.898	1	1	0	0	0.23349	0.11212	0.24162	0.17939	0.20839	0.16745	0.3705	0.156	0.057575	0.20788	0.21194	0.22787	0.14548	0.20707	0.28236	0.13501	-4.0938	-3.8583	-3.3563	-4.4187	-3.5646	-3.8729	-4.3646	-3.6229	-4.2271	-4.0979	-3.6333	-4.4208	-3.7896	-3.775	-4.3104	-3.6458	439.941	315.304	170.681	87.887	423.064	365.991	334.564	408.596	406.042	372.520	82.495	156.496	87.569	135.965	384.626	356.064	0.0010295	0.00052916	0.00010301	1032.2	5.5843e-06	1.6219e-06	1068	324.45	8.2386e-06	6.7644e-06	383.9	123.9	99.637	39.013	6.7007e-06	57.12	0.00038197	0.0003126	8.5841e-05	953.71	3.446e-06	3.4024e-06	989.56	301.04	3.6261e-06	3.3194e-06	355.5	114.93	93.096	37.019	3.4569e-06	53.78	109.304	182.294	165.743	93.218	242.330	198.106	92.300	98.764	212.500	231.982	97.194	102.675	104.089	109.242	228.240	106.723	-8191	255	
58834.996	1	1	0	0	0.11363	0.29775	0.23684	0.30105	0.20809	0.12052	0.3886	0.097549	0.056399	0.22599	0.11426	0.24451	0.20059	0.04708	0.16887	0.32888	-3.7417	-3.8688	-3.6188	-4.4604	-3.65	-3.5167	-4.4396	-3.6146	-3.9667	-3.925	-3.425	-4.1604	-3.8417	-3.7042	-4.0813	-3.6104	291.170	392.347	351.060	439.578	237.573	234.742	398.972	392.738	250.042	136.461	361.504	408.769	423.338	197.738	126.393	378.907	0.0010089	0.0006169	0.0001615	1024.6	4.7533e-06	2.8797e-06	1067.1	320.96	4.7971e-06	4.1396e-06	380.02	123.84	99.23	38.993	6.3275e-06	56.883	0.00039271	0.0003054	8.694e-05	947.94	3.4722e-06	3.1873e-06	988.28	300.27	3.5091e-06	3.3084e-06	354.83	114.96	92.798	36.774	3.4917e-06	53.646	113.468	169.660	182.035	93.487	195.975	194.061	92.379	98.766	227.678	247.711	97.237	102.819	103.790	109.551	187.865	107.461	-8191	255	
58835.090	1	1	0	0	0.22847	0.20014	0.14946	0.20861	0.056212	0.11155	0.16826	0.32093	0.12491	0.1039	0.26744	0.21362	0.18755	0.29148	0.24946	0.19025	-3.6937	-4.0417	-3.4813	-4.3042	-3.6646	-3.4958	-4.525	-3.6604	-3.8167	-4.0625	-3.2958	-4.3	-3.8521	-3.5354	-4.3187	-3.5938	220.334	326.021	252.473	105.929	140.145	195.791	398.691	398.935	239.338	268.192	369.592	399.768	440.694	344.405	273.213	395.591	0.0009426	0.00049922	0.00019358	1023.4	4.774e-06	3.7643e-06	1066.5	322.76	5.8453e-06	1.9379e-06	382.64	122.67	100.22	38.984	7.3105e-06	56.643	0.00038555	0.00031321	8.7515e-05	948.78	3.35e-06	3.3121e-06	985.3	300.39	3.3881e-06	3.3917e-06	355.93	114.71	92.891	36.68	3.6077e-06	53.49	108.361	152.169	165.524	93.038	193.347	229.224	92.399	99.006	197.821	243.862	96.472	102.380	103.728	109.319	183.573	107.171	-8191	255	
58835.188	1	1	0	0	0.063341	0.12374	0.051799	0.049273	0.35254	0.25589	0.18859	0.20311	0.111	0.16774	0.32683	0.19163	0.086619	0.069545	0.14126	0.19393	-3.4396	-4.1958	-3.4104	-4.1875	-3.875	-3.3979	-4.3396	-3.6312	-3.6083	-4.0938	-3.5042	-4.0708	-4.1042	-3.5	-4.25	-3.9083	343.370	177.023	430.149	359.130	430.943	217.204	332.965	100.739	301.107	112.460	372.914	322.867	308.700	237.804	274.701	335.261	0.0010587	0.00066055	0.00011492	1020.6	7.3789e-06	3.3702e-06	1059.7	322.44	7.5682e-06	8.934e-06	380.17	122.2	99.447	38.699	5.7288e-06	56.034	0.00038558	0.00030692	8.7583e-05	946.63	3.4098e-06	3.3181e-06	982.27	299.4	3.4279e-06	3.4415e-06	352.28	113.86	92.671	36.526	3.6266e-06	52.897	107.918	171.893	157.962	93.237	196.060	227.871	92.774	98.728	217.175	251.119	97.209	102.718	104.388	109.102	237.792	107.404	-8191	255	
58835.281	1	1	0	0	0.36591	0.485	0.19126	0.23963	0.13962	0.20536	0.14936	0.027529	0.13409	0.056967	0.26066	0.15854	0.048893	0.1086	0.20371	0.24943	-3.4917	-4.3896	-3.6083	-4.0771	-4.075	-3.5438	-4.2542	-3.9292	-3.3771	-4.5104	-3.6542	-3.9979	-4.175	-3.3917	-4.1583	-3.9125	220.097	293.469	296.765	405.411	224.871	110.298	101.088	293.462	249.736	279.725	97.969	118.149	117.458	191.792	87.135	154.153	0.00098386	0.0002537	0.00016967	1007.3	6.5135e-06	1.9751e-06	1059.6	322.52	7.953e-06	5.1729e-06	376.2	122.58	99.695	38.546	5.8497e-06	56.192	0.00037947	0.00030481	8.5777e-05	941.94	3.3371e-06	3.4891e-06	980.62	299.6	3.4783e-06	3.4833e-06	350.56	113.3	92.385	36.465	3.5259e-06	52.855	106.885	145.939	145.178	93.173	212.370	231.381	92.180	98.679	204.735	241.996	97.260	102.393	103.783	109.442	226.842	106.905	-8191	255	
58835.379	1	1	0	0	0.19132	0.16709	0.19853	0.15113	0.10159	0.1231	0.03987	0.18869	0.20581	0.20978	0.22593	0.26702	0.12153	0.19295	0.13451	0.19363	-3.1063	-4.2854	-3.525	-3.9208	-4.1312	-3.4583	-4.4333	-4.0771	-3.5104	-4.3208	-3.5875	-3.7354	-4.3479	-3.3458	-4.1146	-4	348.508	383.472	427.203	405.112	177.306	228.593	351.947	407.988	326.859	252.485	342.878	351.508	167.734	376.870	82.097	307.361	0.00093611	0.00074794	0.00012613	1023.5	6.1809e-06	5.9476e-06	1053.4	321.47	7.5876e-06	8.0203e-06	377.1	122.23	98.849	38.645	5.1824e-06	55.956	0.0003902	0.00031374	8.8584e-05	947.01	3.5577e-06	3.4734e-06	979	299.25	3.3888e-06	3.415e-06	352.24	113.81	92.178	36.424	3.5397e-06	52.889	105.340	148.485	149.855	93.135	202.030	206.374	92.689	98.696	210.416	225.142	97.409	102.357	104.528	109.529	225.171	107.657	-8191	255	
58835.500	1	1	0	0	0.1547	0.16534	0.33956	0.26482	0.0024349	0.14241	0.49825	0.31198	0.064322	0.22639	0.074286	0.24033	0.17178	0.22325	0.16016	0.27039	-3.0646	-4.4062	-3.7229	-3.6958	-4.2042	-3.3771	-4.2396	-4.1417	-3.4979	-4.4021	-3.9562	-3.5854	-4.3979	-3.4542	-3.9979	-4.25	394.854	184.059	336.004	86.160	270.941	282.585	417.691	87.100	333.727	425.094	261.074	319.629	142.071	400.372	305.030	277.896	0.0010197	0.00037142	8.0811e-05	1023.2	4.4089e-06	5.6369e-06	1067.3	321.86	4.7382e-06	6.0672e-06	377.01	121.79	99.266	38.393	6.3363e-06	55.572	0.00038619	0.00032074	8.8235e-05	947.18	3.4261e-06	3.4204e-06	984.15	299.75	3.5044e-06	3.4941e-06	353.32	113.52	92.616	36.241	3.4334e-06	52.391	115.406	160.403	155.745	93.115	215.686	248.787	92.214	98.806	187.010	199.813	96.897	102.713	103.687	109.632	201.520	107.107	-8191	255	
58835.598	1	1	0	0	0.13181	0.2786	0.087041	0.17539	0.17211	0.167	0.071718	0.12189	0.10084	0.20117	0.2103	0.12807	0.17257	0.28061	0.041631	0.070148	-2.925	-4.1583	-3.75	-3.8042	-4.2312	-3.4375	-4.0146	-4.3021	-3.3396	-4.2042	-3.9896	-3.5042	-4.3167	-3.5125	-3.7875	-4.2458	342.162	319.797	91.502	303.826	170.460	436.364	428.667	355.352	163.806	241.150	132.814	356.268	431.659	394.852	290.822	239.839	0.00092648	0.00064615	0.00010421	1021.1	1.9189e-06	3.0267e-06	1061.8	321.55	6.7653e-06	1.7849e-06	376.95	119.97	98.333	38.229	3.2394e-06	55.301	0.00038096	0.00031062	8.7042e-05	947.02	3.4845e-06	3.3651e-06	982.72	298.92	3.4965e-06	3.4997e-06	350.48	111.95	91.835	36.073	3.4002e-06	52.086	107.504	150.121	153.314	93.137	274.881	206.216	92.587	98.672	254.049	249.785	96.984	102.797	103.682	110.169	217.847	107.649	-8191	255	
58835.691	1	1	0	0	0.081549	0.13953	0.060867	0.10297	0.17654	0.060479	0.24672	0.19527	0.22139	0.14594	0.036497	0.18522	0.20341	0.11373	0.11678	0.2311	-3.0979	-4.1729	-3.7938	-3.575	-4.2292	-3.5812	-3.8917	-4.2917	-3.3708	-4.2146	-4.0229	-3.4083	-4.2833	-3.6875	-3.5917	-4.4354	267.038	354.807	227.227	85.151	298.590	159.407	400.091	347.264	253.906	247.506	419.172	341.161	370.121	438.809	294.397	86.942	0.00093864	0.00034439	0.00019842	1019	5.4677e-06	3.8526e-06	1060.6	322.25	4.8339e-06	5.4791e-06	379.41	120.28	98.497	38.211	5.9845e-06	55.45	0.00038051	0.00030699	8.8954e-05	946.76	3.6383e-06	3.4244e-06	982.27	298.09	3.5335e-06	3.3718e-06	350.75	112.09	91.563	36.052	3.4461e-06	52.195	111.033	147.735	174.630	93.364	197.093	242.482	92.310	98.775	222.737	221.917	97.125	102.202	103.880	109.539	225.656	107.618	-8191	255	
58835.785	1	1	0	0	0.025488	0.09045	0.15771	0.21108	0.1283	0.050047	0.34961	0.29484	0.35498	0.11772	0.05626	0.35186	0.22471	0.1525	0.24588	0.15691	-3.1208	-3.9688	-4.0563	-3.4396	-4.1937	-3.6833	-3.6146	-4.4042	-3.4125	-3.9125	-4.2729	-3.5854	-4.3187	-3.8646	-3.4688	-4.4563	100.334	286.353	225.447	429.553	396.179	135.275	339.101	388.228	428.841	318.866	291.443	389.198	118.816	106.170	131.265	326.706	0.00095835	0.00034778	8.0415e-05	1025.9	3.7987e-06	7.8134e-06	1059.6	319.4	5.7653e-06	5.7833e-06	377.51	122.48	98.212	38.148	9.2733e-06	55.452	0.00038671	0.00031827	8.7412e-05	949.78	3.4759e-06	3.5352e-06	984.78	298.89	3.4962e-06	3.4882e-06	351.69	112.87	91.78	36.024	3.4397e-06	52.422	107.932	194.084	141.352	93.294	225.084	248.888	92.276	99.104	183.686	244.278	97.304	102.580	104.226	109.433	222.958	107.749	-8191	255	
58835.883	1	1	0	0	0.23107	0.17989	0.2276	0.067918	0.15254	0.13347	0.0046232	0.097745	0.14266	0.13515	0.57015	0.32862	0.03816	0.091508	0.064533	0.075576	-3.1625	-3.5708	-4.2875	-3.4854	-4.2688	-3.85	-3.6312	-4.375	-3.6312	-3.825	-4.2937	-3.5396	-4.1062	-4.0125	-3.5687	-4.3083	125.134	296.040	385.682	419.574	288.432	382.566	435.258	99.069	288.952	226.382	93.742	413.844	214.645	110.438	402.335	333.632	0.00095491	0.00030683	0.00017361	1030.4	1.0421e-05	1.2504e-06	1069.8	323.58	7.2955e-06	1.6019e-06	379.83	121.18	98.492	38.12	5.2836e-06	55.431	0.00038139	0.00031446	8.5977e-05	954.46	3.6068e-06	3.3756e-06	989.05	299.87	3.5935e-06	3.483e-06	353.73	112.87	91.948	36.161	3.6305e-06	52.263	108.983	207.437	166.927	93.382	206.497	255.270	92.422	98.497	219.379	179.446	97.243	102.614	103.571	109.729	271.206	107.415	-8191	255	
#DATA ENDS
