BOXY.EXE: ISS Imagent and Oximeter Data Acquisition Program Version 0.80
Ascii Record File

#ACQ INFORMATION
2  Detector Channels 
16  External MUX Channels 
1  Auxiliary Channels 
5000  Waveform (CCF) Frequency (Hz)
1  Waveforms Skipped 
30  Waveforms Averaged 
1  Cycles Averaged 
16  Acquisitions per Waveform 
10.0806  Updata Rate (Hz) 

#FILE INFORMATION
TRUE -- External MUX Channel results are PARSED.
FALSE -- AC DC and Phase are NOT grouped.
TRUE -- Companion Program Settings File CREATED.
FALSE -- AC data not excluded
FALSE -- DC data not excluded
FALSE -- Phase data not excluded
FALSE -- Auxillary Chn. data not excluded
Tab delimiters

#CALIBRATION STATE
TRUE -- Waveform Calibration Values APPLIED.


#AUX CALIBRATION VALUES
Val Type	aux-1	

Term	1.0000e+00	
Factor	0.0000e+00	


#WF CALIBRATION VALUES
A = Detector Channel
Val Type	A-AC1	A-AC2	A-AC3	A-AC4	A-AC5	A-AC6	A-AC7	A-AC8	A-AC9	A-AC10	A-AC11	A-AC12	A-AC13	A-AC14	A-AC15	A-AC16	A-DC1	A-DC2	A-DC3	A-DC4	A-DC5	A-DC6	A-DC7	A-DC8	A-DC9	A-DC10	A-DC11	A-DC12	A-DC13	A-DC14	A-DC15	A-DC16	A-Ph1	A-Ph2	A-Ph3	A-Ph4	A-Ph5	A-Ph6	A-Ph7	A-Ph8	A-Ph9	A-Ph10	A-Ph11	A-Ph12	A-Ph13	A-Ph14	A-Ph15	A-Ph16	

Term	0.00000e+00	0.00000e+00	0.00000e+00	0.00000e+00	0.00000e+00	0.00000e+00	0.00000e+00	0.00000e+00	0.00000e+00	0.00000e+00	0.00000e+00	0.00000e+00	0.00000e+00	0.00000e+00	0.00000e+00	0.00000e+00	0.00000e+00	0.00000e+00	0.00000e+00	0.00000e+00	0.00000e+00	0.00000e+00	0.00000e+00	0.00000e+00	0.00000e+00	0.00000e+00	0.00000e+00	0.00000e+00	0.00000e+00	0.00000e+00	0.00000e+00	0.00000e+00	0.00000e+00	0.00000e+00	0.00000e+00	0.00000e+00	0.00000e+00	0.00000e+00	0.00000e+00	0.00000e+00	0.00000e+00	0.00000e+00	0.00000e+00	0.00000e+00	0.00000e+00	0.00000e+00	0.00000e+00	0.00000e+00	
Factor	1.00000e+00	1.00000e+00	1.00000e+00	1.00000e+00	1.00000e+00	1.00000e+00	1.00000e+00	1.00000e+00	1.00000e+00	1.00000e+00	1.00000e+00	1.00000e+00	1.00000e+00	1.00000e+00	1.00000e+00	1.00000e+00	1.00000e+00	1.00000e+00	1.00000e+00	1.00000e+00	1.00000e+00	1.00000e+00	1.00000e+00	1.00000e+00	1.00000e+00	1.00000e+00	1.00000e+00	1.00000e+00	1.00000e+00	1.00000e+00	1.00000e+00	1.00000e+00	X	X	X	X	X	X	X	X	X	X	X	X	X	X	X	X	

B = Detector Channel
Val Type	B-AC1	B-AC2	B-AC3	B-AC4	B-AC5	B-AC6	B-AC7	B-AC8	B-AC9	B-AC10	B-AC11	B-AC12	B-AC13	B-AC14	B-AC15	B-AC16	B-DC1	B-DC2	B-DC3	B-DC4	B-DC5	B-DC6	B-DC7	B-DC8	B-DC9	B-DC10	B-DC11	B-DC12	B-DC13	B-DC14	B-DC15	B-DC16	B-Ph1	B-Ph2	B-Ph3	B-Ph4	B-Ph5	B-Ph6	B-Ph7	B-Ph8	B-Ph9	B-Ph10	B-Ph11	B-Ph12	B-Ph13	B-Ph14	B-Ph15	B-Ph16	

Term	0.00000e+00	0.00000e+00	0.00000e+00	0.00000e+00	0.00000e+00	0.00000e+00	0.00000e+00	0.00000e+00	0.00000e+00	0.00000e+00	0.00000e+00	0.00000e+00	0.00000e+00	0.00000e+00	0.00000e+00	0.00000e+00	0.00000e+00	0.00000e+00	0.00000e+00	0.00000e+00	0.00000e+00	0.00000e+00	0.00000e+00	0.00000e+00	0.00000e+00	0.00000e+00	0.00000e+00	0.00000e+00	0.00000e+00	0.00000e+00	0.00000e+00	0.00000e+00	-1.87007e+02	-1.34050e+02	-1.37969e+02	-1.83492e+02	-8.77581e+01	-7.32534e+01	-1.58200e+02	-1.62015e+02	-8.49259e+01	-6.14154e+01	-1.70701e+02	-1.71279e+02	-1.78850e+02	-1.76863e+02	-7.95451e+01	-1.49780e+02	
Factor	3.76548e-05	1.51883e-04	4.69219e-05	1.64088e-01	1.62550e-06	1.73594e-06	1.85429e-01	6.04996e-02	1.59724e-06	1.91212e-06	1.00259e-01	3.43440e-02	3.12106e-02	1.08452e-02	1.69460e-06	1.54572e-02	6.25193e-06	7.31936e-06	2.04454e-06	7.75377e-02	7.75653e-08	8.04797e-08	8.23581e-02	2.86645e-02	7.78837e-08	8.09403e-08	4.60320e-02	1.57531e-02	1.49403e-02	5.16929e-03	7.88347e-08	7.14857e-03	X	X	X	X	X	X	X	X	X	X	X	X	X	X	X	X	



#DISTANCE SETTINGS
A = Detector Channel
A-1	A-2	A-3	A-4	A-5	A-6	A-7	A-8	A-9	A-10	A-11	A-12	A-13	A-14	A-15	A-16	

2.5000e+00	3.0000e+00	2.5000e+00	3.0000e+00	2.0000e+00	3.0000e+00	1.5000e+00	3.0000e+00	3.0000e+00	3.0000e+00	3.0000e+00	3.0000e+00	3.0000e+00	3.0000e+00	1.5000e+00	3.0000e+00	

B = Detector Channel
B-1	B-2	B-3	B-4	B-5	B-6	B-7	B-8	B-9	B-10	B-11	B-12	B-13	B-14	B-15	B-16	

1.0000e+01	1.0000e+01	1.0000e+01	1.4400e+00	1.0000e+01	1.0000e+01	1.5100e+00	1.9400e+00	1.0000e+01	1.0000e+01	1.9900e+00	2.4900e+00	2.4100e+00	2.9000e+00	1.0000e+01	2.9800e+00	




#DATA BEGINS
time	group	step	mark	flag	A-AC1	A-AC2	A-AC3	A-AC4	A-AC5	A-AC6	A-AC7	A-AC8	A-AC9	A-AC10	A-AC11	A-AC12	A-AC13	A-AC14	A-AC15	A-AC16	A-DC1	A-DC2	A-DC3	A-DC4	A-DC5	A-DC6	A-DC7	A-DC8	A-DC9	A-DC10	A-DC11	A-DC12	A-DC13	A-DC14	A-DC15	A-DC16	A-Ph1	A-Ph2	A-Ph3	A-Ph4	A-Ph5	A-Ph6	A-Ph7	A-Ph8	A-Ph9	A-Ph10	A-Ph11	A-Ph12	A-Ph13	A-Ph14	A-Ph15	A-Ph16	B-AC1	B-AC2	B-AC3	B-AC4	B-AC5	B-AC6	B-AC7	B-AC8	B-AC9	B-AC10	B-AC11	B-AC12	B-AC13	B-AC14	B-AC15	B-AC16	B-DC1	B-DC2	B-DC3	B-DC4	B-DC5	B-DC6	B-DC7	B-DC8	B-DC9	B-DC10	B-DC11	B-DC12	B-DC13	B-DC14	B-DC15	B-DC16	B-Ph1	B-Ph2	B-Ph3	B-Ph4	B-Ph5	B-Ph6	B-Ph7	B-Ph8	B-Ph9	B-Ph10	B-Ph11	B-Ph12	B-Ph13	B-Ph14	B-Ph15	B-Ph16	aux-1	digaux	

58758.539	1	1	0	256	0.059508	0.26256	0.30897	0.33935	0.10306	0.047642	0.14284	0.3346	0.14596	0.22839	0.14062	0.15916	0.20865	0.11643	0.057254	0.25098	-3.3083	-4.0417	-3.3042	-4.1604	-3.9896	-3.4521	-4.4	-3.575	-3.6958	-4.2271	-3.5271	-4.225	-3.8521	-3.4771	-4.2854	-3.6729	-99.357	93.440	-147.545	-165.203	127.113	-95.388	133.979	-162.182	-96.377	-111.929	-48.129	115.739	109.214	-1.797	176.149	144.734	0.0010409	0.0006316	0.00031637	874.82	1.2771e-05	8.2123e-06	744.17	328.9	3.8068e-06	4.6224e-06	306.94	115.28	108.49	46.617	1.1836e-05	57.779	0.0033092	0.0037615	0.0010563	912.7	3.9621e-05	4.1544e-05	786.79	344.54	3.9779e-05	4.168e-05	331.96	124.2	116.79	49.821	4.1342e-05	62.331	143.602	-99.275	-65.323	-162.056	-12.480	-104.288	-163.200	-156.800	-14.870	-82.284	-158.658	-154.620	-152.246	-146.688	-119.282	-149.740	-8191	255	
58758.637	1	1	0	0	0.098793	0.1059	0.14898	0.11247	0.12397	0.13591	0.11518	0.23231	0.056014	0.10949	0.12804	0.39997	0.14268	0.15204	0.14373	0.12418	-3.2562	-4.275	-3.3104	-4.2542	-4.0021	-3.5917	-4.3812	-3.875	-3.6937	-4.375	-3.4688	-3.8833	-3.9604	-3.3521	-4.225	-3.7771	108.259	-113.758	-60.367	-117.915	-23.979	-86.121	56.771	103.656	-170.146	184.833	-159.971	181.985	148.381	-174.225	-127.118	171.670	0.0012797	0.00052229	0.00015641	874.05	4.5361e-06	1.1972e-05	747.53	326.36	6.7872e-06	5.0851e-06	308.33	115.63	108.72	46.373	6.0129e-06	57.824	0.0033747	0.0038604	0.0010671	915	4.0492e-05	4.2497e-05	790.5	343.47	4.1392e-05	4.2792e-05	332.27	123.7	116.42	49.561	4.0261e-05	61.849	147.011	-102.661	15.092	-161.743	-24.872	50.078	-163.068	-156.961	-83.250	-153.689	-158.845	-154.537	-152.697	-146.761	-19.101	-149.580	-8191	255	
58758.730	1	1	0	0	0.20491	0.062398	0.10773	0.13856	0.053232	0.3017	0.10254	0.066638	0.18238	0.18978	0.20865	0.25791	0.23668	0.34301	0.11953	0.31713	-2.9917	-4.2208	-3.3208	-4.0354	-4.0375	-3.3312	-4.3271	-3.8438	-3.5687	-4.4417	-3.6333	-3.9042	-4.2667	-3.4333	-4.1854	-4.0021	-80.312	169.433	84.472	169.257	52.950	84.847	100.849	94.095	40.806	144.099	141.656	117.692	60.467	151.478	-146.377	130.523	0.0011622	0.00055404	0.00022524	875.75	5.9002e-06	5.1224e-06	748.05	329.75	3.941e-06	4.3531e-06	309.28	115.9	108.34	46.425	1.1458e-05	57.765	0.0031529	0.0034937	0.00094587	907.74	3.4675e-05	3.5472e-05	783.54	342.78	3.3873e-05	3.5215e-05	330.09	123.38	116.04	49.424	3.5465e-05	61.83	139.724	-116.711	-16.472	-161.908	-68.624	-96.335	-163.131	-157.101	-113.031	55.207	-158.744	-154.652	-152.333	-146.653	-5.748	-149.623	-8191	255	
58758.828	1	1	0	0	0.21801	0.12849	0.23586	0.19292	0.17828	0.16551	0.097979	0.16018	0.033304	0.12973	0.21069	0.11476	0.17195	0.3067	0.42781	0.10589	-3.2625	-4.2667	-3.325	-3.7458	-4.2438	-3.3229	-4.125	-3.9854	-3.5563	-4.325	-3.6562	-3.6896	-4.1646	-3.4417	-3.95	-4.0479	-49.650	28.487	-167.717	167.940	98.684	48.678	-135.378	76.302	96.386	-94.669	-12.068	109.081	-14.470	124.272	-81.435	-167.083	0.0011484	0.00082941	0.00039831	875.94	1.7076e-06	2.8179e-06	747.82	329.33	1.2915e-06	3.7639e-06	311.04	116.44	108.63	46.302	3.3428e-06	57.472	0.0029885	0.0034033	0.00094717	911.53	3.6608e-05	3.7818e-05	787.79	343.62	3.7271e-05	3.8764e-05	332.16	124.02	116.28	49.401	3.7557e-05	61.746	143.171	-66.686	-63.814	-161.566	2.964	152.813	-163.582	-156.882	-137.841	8.397	-159.033	-154.639	-151.974	-146.661	-15.676	-149.469	-8191	255	
58758.926	1	1	0	0	0.11161	0.25619	0.12053	0.048678	0.033057	0.26408	0.15016	0.2063	0.1003	0.15216	0.047595	0.26284	0.12656	0.19407	0.16023	0.093359	-3.1188	-4.1229	-3.7021	-3.6917	-4.0729	-3.3812	-4.0375	-4.1646	-3.2833	-4.1042	-3.7646	-3.5229	-4.6062	-3.4188	-3.8604	-4.1854	-157.559	-157.436	4.597	175.282	7.785	21.172	-12.956	101.500	-114.638	116.404	119.024	-130.761	-137.569	136.717	182.160	-76.600	0.00094792	0.00067739	0.00019055	879.39	4.54e-06	9.9223e-06	751.23	329.03	5.2087e-06	6.0248e-06	310.45	115.27	108.68	46.244	3.238e-06	57.103	0.0031275	0.0035386	0.00096677	917.37	3.7715e-05	3.9037e-05	791.77	344.69	3.8409e-05	4.027e-05	332.8	123.63	116.56	49.396	3.9611e-05	61.674	143.931	-88.078	184.592	-161.645	-103.369	-49.674	-163.045	-156.986	-84.604	27.377	-158.527	-154.425	-152.352	-146.585	-141.180	-149.563	-8191	255	
58759.020	1	1	0	0	0.085456	0.33214	0.27728	0.23201	0.048416	0.17543	0.030703	0.11603	0.31608	0.33162	0.12302	0.095731	0.23352	0.071645	0.091067	0.23516	-3.0104	-4.1062	-3.8125	-3.3396	-4.2771	-3.5062	-3.7271	-4.1771	-3.175	-4.1083	-4.0833	-3.6521	-4.3667	-3.5687	-3.6333	-4.3896	152.583	134.758	93.834	50.067	-68.763	-170.467	146.751	-152.673	132.490	-162.292	85.505	146.964	61.151	33.794	75.549	88.770	0.0009462	0.00097783	0.00017782	882.19	5.991e-06	7.6767e-06	750.31	328.91	1.2286e-06	9.9308e-06	307.22	113.8	107.64	45.64	4.9937e-06	56.75	0.0033363	0.0037638	0.0010564	920.03	4.0592e-05	4.2056e-05	793.75	344.97	4.1228e-05	4.3083e-05	332.43	122.83	116.26	49.129	4.3026e-05	61.364	128.943	-125.562	-106.724	-161.752	-67.801	-53.269	-163.539	-156.932	-124.078	51.578	-158.903	-154.472	-152.650	-146.402	-84.725	-149.686	-8191	255	
58759.117	1	1	0	0	0.15044	0.23474	0.12347	0.20252	0.12325	0.21454	0.12749	0.2157	0.082127	0.38326	0.17635	0.074418	0.14078	0.17603	0.03711	0.265	-3.0958	-4.1021	-3.9125	-3.5417	-4.1771	-3.7083	-3.7083	-4.4354	-3.4125	-3.9896	-4.0604	-3.6354	-4.1979	-3.8479	-3.4688	-4.4521	107.414	19.045	109.013	184.254	146.200	-164.209	175.722	153.999	118.315	-150.006	1.052	110.138	163.059	121.642	145.094	115.099	0.00089398	0.00022551	0.00013596	880.31	1.3112e-06	7.2574e-07	751.43	328.19	8.3157e-06	1.1251e-05	308.22	114.16	108.1	45.785	1.1423e-06	56.673	0.003552	0.004037	0.0011222	922.97	4.2656e-05	4.3885e-05	795.31	345.09	4.2311e-05	4.3223e-05	333.14	123.17	116.19	49.102	4.1258e-05	61.509	145.660	132.561	-146.120	-161.942	-71.736	-34.404	-163.286	-156.731	-63.975	-2.582	-158.780	-154.525	-152.555	-146.748	139.567	-149.596	-8191	255	
58759.234	1	1	0	0	0.19654	0.15837	0.059796	0.30248	0.072278	0.10751	0.17802	0.20012	0.057513	0.15938	0.17022	0.052929	0.15462	0.1438	0.055662	0.15294	-2.9042	-4.0312	-4.1146	-3.5167	-4.1167	-3.8167	-3.6229	-4.3313	-3.4938	-3.8375	-4.2708	-3.5646	-4.2083	-3.8792	-3.5521	-4.3479	145.428	-74.560	-32.430	136.208	54.226	5.056	100.757	-135.172	-104.870	-128.270	-144.928	-164.831	65.817	96.699	118.232	179.402	0.00099665	0.00062657	8.4072e-05	882.93	3.344e-06	4.5229e-06	755.25	329.42	5.9558e-06	5.4819e-06	309.98	116.37	108.65	45.996	7.0014e-06	57.41	0.0033609	0.003767	0.0010552	920.42	3.9868e-05	4.1308e-05	796.75	345.36	4.0508e-05	4.199e-05	335.38	124.71	116.96	49.467	4.2177e-05	62.204	142.349	-98.523	169.342	-161.943	13.014	166.377	-163.370	-157.050	-52.355	-116.185	-158.686	-154.718	-152.394	-146.383	-82.060	-149.646	-8191	255	
58759.332	1	1	0	0	0.14522	0.23998	0.11583	0.089808	0.12164	0.14723	0.21945	0.16309	0.23148	0.096339	0.14701	0.098939	0.11691	0.15119	0.26259	0.16856	-3.275	-3.6333	-4.1292	-3.2979	-3.9458	-3.8417	-3.7208	-4.4833	-3.5021	-3.5687	-4.125	-3.2708	-4.2333	-4.0333	-3.4417	-4.3	109.459	32.251	171.633	163.129	-45.029	-55.859	86.131	144.799	150.281	107.614	151.262	-122.062	-90.939	47.008	-3.918	-32.013	0.0010523	0.00018716	0.00033015	881.72	1.1467e-06	6.1666e-06	753.73	330.26	1.3157e-05	4.7418e-06	311.86	116.36	109.06	46.282	4.985e-06	57.562	0.0034453	0.003927	0.0010986	922.91	4.1634e-05	4.3009e-05	799.52	347.68	4.1493e-05	4.3186e-05	337.04	125.41	117.43	49.595	4.2913e-05	62.182	142.782	-48.057	115.010	-161.926	-119.476	43.496	-163.554	-156.788	-98.922	110.812	-158.944	-154.153	-152.434	-146.844	-38.170	-149.701	-8191	255	
58759.430	1	1	0	0	0.022404	0.12402	0.14669	0.28388	0.16377	0.062455	0.2751	0.27547	0.15257	0.14881	0.17319	0.068669	0.12973	0.099728	0.13176	0.058198	-3.3542	-3.6063	-4.2833	-3.5938	-4.0687	-4.05	-3.5417	-4.3646	-3.7875	-3.475	-4.4062	-3.5	-3.8333	-4.1583	-3.3625	-4.3583	-32.149	10.396	156.679	122.561	59.742	-79.566	154.298	100.374	69.516	-12.420	121.340	-88.699	-155.104	135.570	178.820	98.377	0.00097238	0.00066394	1.0211e-05	884.26	6.5755e-06	2.57e-06	752.14	330.95	1.0435e-05	2.9597e-06	311.29	115.68	107.92	45.938	9.2739e-06	57.12	0.0034834	0.004024	0.0011219	926.09	4.2404e-05	4.4285e-05	799.75	347.35	4.334e-05	4.5541e-05	336.58	124.87	117.34	49.449	4.4912e-05	61.941	158.291	-145.240	67.618	-161.931	-118.037	-158.376	-163.449	-156.956	-105.984	-32.045	-158.659	-154.701	-152.514	-146.924	-55.854	-149.396	-8191	255	
58759.500	1	1	0	0	0.29568	0.1589	0.030716	0.20476	0.090231	0.10694	0.085512	0.23549	0.12041	0.1772	0.13242	0.21032	0.23554	0.074452	0.22691	0.19378	-3.5083	-3.4188	-4.4521	-3.55	-3.8729	-4.1729	-3.5042	-4.3271	-3.7687	-3.4813	-4.1792	-3.5125	-3.6833	-4.1687	-3.275	-4.1146	117.609	-108.513	-4.587	106.073	146.224	94.589	85.485	165.284	48.740	-23.144	-36.252	-163.394	-139.163	117.374	61.868	177.034	0.00091852	0.0007861	0.00018199	880.65	5.9892e-06	1.4097e-05	756.64	327.76	6.1973e-06	1.0174e-05	308.43	113.38	107.72	45.336	1.2761e-05	56.263	0.0037298	0.0042491	0.0011937	925.73	4.5365e-05	4.7382e-05	802.65	346.99	4.6676e-05	4.8712e-05	336.84	124.04	117.39	49.196	4.9022e-05	61.456	137.150	-72.748	114.522	-161.737	-64.025	-79.033	-163.179	-157.016	56.680	56.195	-158.860	-154.737	-152.558	-146.795	-77.810	-149.850	-8191	255	
58759.621	1	1	0	0	0.068796	0.21916	0.078682	0.19738	0.13528	0.0209	0.18786	0.035716	0.10487	0.043762	0.25866	0.18234	0.21061	0.12129	0.04532	0.17942	-3.4875	-3.5958	-4.3146	-3.6958	-3.7917	-4.2229	-3.5104	-4.2354	-4.0188	-3.3958	-4.4542	-3.7167	-3.6458	-4.2542	-3.4833	-4.0458	49.905	56.155	27.118	101.074	157.524	101.583	-87.160	64.670	59.323	69.547	170.693	156.744	37.664	31.386	129.843	113.688	0.0007584	0.00062175	0.00020458	888.68	9.7707e-06	5.5398e-06	750.72	329.22	1.0094e-05	6.0786e-06	307.24	113.39	107.6	44.995	3.7444e-06	55.964	0.0040384	0.0045547	0.0012745	934.44	4.8196e-05	4.993e-05	803.4	349.07	4.8053e-05	4.972e-05	335.9	122.82	116.96	48.747	4.7571e-05	60.755	162.357	-46.217	36.881	-161.800	-96.339	7.618	-163.206	-157.124	-100.174	-46.916	-158.905	-154.855	-152.579	-147.014	46.465	-149.772	-8191	255	
58759.715	1	1	0	0	0.10038	0.18211	0.054715	0.094087	0.096292	0.19068	0.078219	0.050963	0.20623	0.0063215	0.11434	0.055064	0.23856	0.1251	0.11953	0.081835	-3.9167	-3.3833	-4.325	-3.8125	-3.6	-4.2875	-3.3563	-3.9625	-4.1021	-3.3917	-4.0833	-3.8	-3.5042	-4.4479	-3.4417	-3.9375	-107.764	-87.698	41.157	126.114	-18.497	-90.297	81.671	-113.508	26.275	-24.922	141.384	108.099	-15.037	163.081	118.577	-76.996	0.00089138	0.00060149	0.00031533	891.57	7.0814e-06	4.7994e-06	756.42	330.57	6.0324e-06	1.5586e-05	309.06	112.84	107.23	45.159	1.8804e-06	55.63	0.003877	0.004385	0.0012177	941.05	4.5755e-05	4.7863e-05	806.65	350.57	4.6677e-05	4.8728e-05	335.81	122.59	116.62	48.764	4.6849e-05	60.508	138.896	-124.231	-115.792	-161.794	-130.299	-71.894	-163.215	-156.940	-80.070	-40.537	-158.453	-154.633	-152.497	-147.120	79.214	-149.719	-8191	255	
58759.812	1	1	0	0	0.34136	0.11611	0.070249	0.22982	0.18924	0.045033	0.19323	0.212	0.16093	0.25337	0.086276	0.10862	0.2061	0.13023	0.19358	0.15494	-3.9083	-3.3646	-4.275	-3.9958	-3.5167	-4.4625	-3.7333	-3.9062	-4.2792	-3.2333	-4.3104	-4.1042	-3.5875	-4.3708	-3.5542	-3.7021	48.956	121.227	146.183	-156.212	-168.147	51.186	116.047	160.941	1.747	100.551	41.783	112.677	169.507	-148.823	35.724	148.785	0.00095451	0.00098498	0.00018037	888.54	7.331e-06	3.2455e-06	758.22	329.9	1.0874e-05	5.1523e-06	306.16	112.81	107.25	45.094	1.164e-05	55.735	0.003828	0.0042925	0.0012042	935.63	4.5674e-05	4.7728e-05	802.4	348.25	4.6495e-05	4.8029e-05	334.6	122.49	116.66	48.727	4.6986e-05	60.55	139.497	-79.426	-35.959	-161.641	-76.659	-67.986	-163.441	-157.074	-92.457	-51.679	-158.808	-154.610	-152.520	-146.830	4.087	-149.767	-8191	255	
58759.906	1	1	0	0	0.34473	0.30984	0.098706	0.091531	0.1128	0.15523	0.069976	0.18049	0.21546	0.10269	0.035757	0.07112	0.17316	0.14966	0.13798	0.09864	-3.9375	-3.4542	-4.0146	-4.1604	-3.3104	-4.2688	-3.9	-3.7687	-4.1458	-3.4604	-3.9271	-4.1229	-3.4437	-4.2937	-3.725	-3.7167	47.374	117.362	-114.862	125.720	-46.415	-34.897	140.635	114.989	124.962	-104.083	-168.490	-36.182	136.034	164.082	-148.193	-146.758	0.00081302	0.00041956	0.00028954	890.6	8.968e-06	3.4426e-06	754.14	331	8.9194e-06	2.4065e-06	307.42	113.2	107.25	44.936	3.9992e-06	55.964	0.0038829	0.0043981	0.0012335	936.31	4.6618e-05	4.8544e-05	804.49	348.15	4.6631e-05	4.8082e-05	334.59	122.58	116.49	48.635	4.5948e-05	60.739	145.504	-113.750	-32.660	-161.844	-44.299	-103.402	-163.202	-156.857	-99.498	122.322	-158.973	-154.479	-152.731	-146.698	-98.968	-149.642	-8191	255	
58760.027	1	1	0	0	0.15078	0.095746	0.075043	0.32693	0.090872	0.085249	0.13449	0.0080501	0.1308	0.083392	0.14247	0.049769	0.25819	0.060416	0.14912	0.23033	-4.1271	-3.3875	-3.8229	-4.2708	-3.375	-4.1854	-3.9792	-3.6646	-4.2833	-3.4708	-3.9896	-4.2042	-3.5125	-4.1188	-3.9521	-3.4604	12.030	91.609	169.792	124.430	10.134	-66.940	146.147	86.544	-84.722	123.586	6.384	-72.365	139.849	-97.246	-79.931	110.596	0.00096556	0.00037848	0.00020434	890.61	2.9975e-06	7.318e-07	763.27	332.94	8.2492e-06	7.8961e-07	310.08	114.12	107.87	45.102	5.3191e-06	56.07	0.0037185	0.004187	0.0011735	935.71	4.3782e-05	4.5192e-05	806.36	349.66	4.3936e-05	4.5027e-05	335.86	123.35	116.65	48.688	4.4192e-05	60.887	134.439	-30.647	-107.769	-161.657	9.047	56.715	-163.330	-156.919	-147.250	-79.650	-159.181	-154.580	-152.335	-146.696	-27.177	-149.679	-8191	255	
58760.102	1	1	0	0	0.026354	0.12723	0.22656	0.21925	0.091839	0.25223	0.27561	0.051992	0.1022	0.16207	0.058868	0.19821	0.076285	0.088286	0.1041	0.27698	-4.0479	-3.4813	-3.7188	-4.5021	-3.2854	-4.1396	-4.0896	-3.5396	-4.3021	-3.5917	-3.5167	-4.2188	-3.5667	-4.1146	-4.0625	-3.3688	116.390	-86.125	96.162	130.389	152.790	-76.315	142.226	-149.386	-54.714	37.951	-160.590	150.702	-131.898	-102.428	-7.226	90.644	0.00094133	0.00046259	0.00020539	889.11	2.1609e-06	6.7876e-06	762.42	330.57	7.4506e-06	2.3484e-06	310.14	114.27	107.31	45.119	1.1962e-05	56.119	0.0036579	0.0041077	0.0011623	934.31	4.4547e-05	4.6279e-05	807.27	348.82	4.576e-05	4.7061e-05	336.69	123.88	116.63	48.75	4.5696e-05	61.006	137.210	-23.761	-127.558	-161.961	19.083	-57.702	-163.297	-156.948	-102.945	-17.506	-158.686	-154.572	-152.891	-147.048	-36.806	-149.857	-8191	255	
58760.223	1	1	0	0	0.066409	0.22212	0.28911	0.17003	0.224	0.24893	0.18128	0.28955	0.25313	0.13537	0.43946	0.22922	0.19782	0.038912	0.14157	0.22323	-3.9417	-3.6292	-3.6604	-4.2333	-3.5104	-4.0062	-4.1854	-3.4271	-4.2667	-3.675	-3.5604	-4.3146	-3.35	-3.9146	-4.0938	-3.5396	125.104	83.103	182.374	125.251	-153.678	-81.486	104.423	146.210	88.496	35.972	97.989	71.887	20.606	183.091	-49.070	117.495	0.00097316	0.0003853	7.2611e-05	886.54	1.3614e-05	1.3989e-06	759.12	331.19	4.798e-06	5.9679e-06	310.3	114.32	107.16	45.334	5.5688e-06	56.246	0.0036937	0.0041472	0.0011496	931.54	4.2351e-05	4.4324e-05	802.61	347.42	4.1942e-05	4.363e-05	334.84	123.19	116.1	48.583	4.1889e-05	60.749	142.973	-122.083	-97.451	-161.736	-104.358	131.513	-163.428	-156.914	-24.879	178.786	-158.715	-154.384	-152.378	-146.656	15.300	-149.466	-8191	255	
58760.316	1	1	0	0	0.22819	0.077444	0.10255	0.19732	0.15945	0.21553	0.31359	0.18242	0.15628	0.059311	0.096757	0.16539	0.22021	0.14428	0.22397	0.036002	-3.8125	-3.7229	-3.4396	-4.4542	-3.4667	-3.5062	-4.325	-3.4583	-4.0208	-3.8667	-3.4833	-4.325	-3.5729	-3.7042	-4.2937	-3.3812	-81.469	82.625	92.099	118.405	22.027	86.382	18.445	50.128	-13.978	30.808	-152.017	-170.615	-132.390	171.422	19.606	-102.300	0.0010285	0.0014618	0.00015696	893.97	1.2239e-05	6.2592e-06	762.43	333.73	6.2932e-06	9.7752e-06	311.8	114.99	107.88	45.117	1.0294e-05	56.136	0.0033841	0.0038539	0.0010632	934.07	3.9333e-05	4.0831e-05	804.11	348.59	3.8913e-05	4.0591e-05	334.52	122.96	116.01	48.352	3.8449e-05	60.349	150.221	-90.467	57.210	-161.855	-39.653	-48.950	-163.057	-157.079	-110.793	-42.665	-158.972	-154.482	-152.460	-146.800	-101.537	-149.517	-8191	255	
58760.410	1	1	0	0	0.1488	0.11079	0.11677	0.10885	0.21953	0.082786	0.059178	0.061578	0.14577	0.10598	0.12588	0.13933	0.25329	0.12682	0.17991	0.048376	-3.6625	-3.9375	-3.3667	-4.4271	-3.7125	-3.5604	-4.3208	-3.4667	-3.8937	-3.9813	-3.4542	-4.2583	-3.6271	-3.6792	-4.2542	-3.3625	158.846	-141.806	102.473	139.830	-78.165	-160.237	101.365	-147.216	-100.764	-99.590	-55.623	-81.173	108.110	-130.214	-160.174	-171.188	0.00093633	0.0006105	0.00011472	902.06	7.0218e-06	3.8763e-06	765.16	333.61	1.5451e-05	8.7238e-06	312.72	114.35	108.04	44.945	7.0395e-06	55.856	0.0031594	0.0035922	0.00099429	936.42	3.8228e-05	3.9044e-05	804.34	349.18	3.8103e-05	3.99e-05	334.82	122.48	115.93	48.197	3.9098e-05	60.222	147.079	77.660	40.489	-161.950	-113.503	-44.949	-163.490	-156.881	-50.263	-62.604	-159.003	-154.499	-152.787	-146.863	19.443	-150.028	-8191	255	
58760.508	1	1	0	0	0.21956	0.11293	0.14139	0.21317	0.10724	0.12171	0.11512	0.13188	0.22678	0.085019	0.23207	0.2565	0.11944	0.16594	0.12533	0.10414	-3.3667	-4.0896	-3.4333	-4.2833	-3.8063	-3.5729	-4.4729	-3.6271	-3.7521	-4.1188	-3.4229	-4.2875	-3.9646	-3.4875	-4.3042	-3.5854	36.547	-32.012	-99.296	173.050	-71.148	-171.828	-93.959	-174.755	110.071	184.234	91.223	-156.387	120.168	-118.216	-167.589	-169.747	0.00082595	0.00048279	0.0002298	897.56	4.7242e-06	8.9342e-07	762.75	333.92	8.8402e-06	5.3249e-06	309.4	113.37	107.58	44.582	3.2498e-06	55.272	0.0032027	0.0036397	0.0010153	935.43	3.8431e-05	3.9525e-05	802.16	348.88	3.8853e-05	3.9754e-05	332.29	121.41	115.43	47.718	3.7783e-05	59.253	143.739	-137.118	-117.154	-161.792	-91.769	179.712	-163.209	-157.134	-103.922	-22.117	-159.099	-154.555	-152.637	-146.602	115.567	-149.518	-8191	255	
58760.629	1	1	0	0	0.135	0.259	0.024862	0.23201	0.11726	0.1247	0.080846	0.33879	0.076197	0.097765	0.18379	0.055288	0.21799	0.15725	0.16048	0.27057	-3.4333	-4.3292	-3.3417	-4.4187	-3.8917	-3.2896	-4.4146	-3.7104	-3.5292	-4.2312	-3.45	-4.1438	-3.9479	-3.4667	-4.1396	-3.7479	87.905	119.155	-50.024	88.110	102.998	-79.422	57.884	163.466	-34.884	105.409	161.895	-23.967	-125.658	90.136	-89.389	-167.211	0.00096214	0.00073498	0.00015414	899.98	2.5621e-06	5.689e-06	762.27	336.39	2.339e-06	9.1569e-06	309.93	112.67	107.26	44.33	7.6372e-07	54.741	0.0031045	0.0035173	0.00097055	937.22	3.7164e-05	3.8197e-05	799.31	349.39	3.6897e-05	3.7679e-05	330.37	120.23	114.87	47.381	3.59e-05	58.587	137.682	-81.105	-63.498	-162.119	-123.145	-60.400	-163.293	-156.980	-129.452	-11.568	-158.659	-154.657	-152.711	-147.038	-22.278	-149.422	-8191	255	
58760.727	1	1	0	0	0.26776	0.13132	0.02117	0.23703	0.090924	0.060921	0.028562	0.12303	0.13618	0.15915	0.043261	0.28433	0.24344	0.21362	0.11278	0.16316	-3.325	-4.3562	-3.2812	-3.95	-3.8792	-3.4521	-4.2312	-3.9854	-3.6	-4.3083	-3.3354	-3.7021	-4.1125	-3.2938	-4.3125	-3.9771	-45.114	-170.366	-126.822	143.056	-115.360	-140.633	138.947	117.549	103.008	88.783	72.613	122.008	94.287	-124.586	-143.126	156.139	0.00094323	0.00046058	0.00018589	904.94	1.0292e-05	2.6941e-06	758.1	334.99	5.7162e-06	3.3026e-06	306.86	112.08	107.06	44.187	8.1949e-06	54.579	0.0029433	0.0033344	0.0009257	939.21	3.6e-05	3.6871e-05	798.45	349.34	3.6382e-05	3.794e-05	329.47	119.88	114.39	47.219	3.7126e-05	58.748	139.282	-81.092	-118.386	-161.763	5.370	32.191	-163.476	-157.222	33.460	-81.491	-159.125	-155.087	-152.655	-147.074	-72.975	-149.836	-8191	255	
58760.797	1	1	0	0	0.20721	0.1302	0.098343	0.23284	0.14336	0.2159	0.13782	0.13678	0.22498	0.052014	0.072487	0.052402	0.2152	0.12988	0.034921	0.11517	-3.1229	-4.1604	-3.5125	-3.9667	-4.1	-3.3438	-4.275	-3.9896	-3.4625	-4.3083	-3.6104	-3.7438	-4.2729	-3.575	-4.1646	-4.0292	59.699	-41.198	109.087	172.796	113.608	-107.682	24.005	-119.066	-137.095	87.573	45.277	174.657	-127.709	-12.026	59.261	-163.456	0.00096625	0.001037	0.00029712	903.46	4.2191e-06	5.7746e-06	764.91	332.37	1.1477e-05	5.8049e-06	309.03	111.89	106.43	43.902	5.9229e-06	54.233	0.0030909	0.0035018	0.00097054	938.44	3.7259e-05	3.8356e-05	802.18	348.44	3.7823e-05	3.9705e-05	331.7	119.96	114.21	47.107	4.0417e-05	58.835	143.653	-141.870	-100.615	-162.033	20.446	-71.773	-163.518	-157.354	-59.883	161.064	-159.081	-154.775	-152.876	-146.883	15.541	-149.577	-8191	255	
58760.918	1	1	0	0	0.093546	0.080174	0.046798	0.070539	0.1777	0.013682	0.15857	0.081639	0.038258	0.14005	0.22931	0.10062	0.19997	0.10833	0.14619	0.10391	-3.0771	-4.4125	-3.6063	-3.8854	-4.2	-3.4292	-4.2021	-4.2042	-3.4062	-4.3708	-3.6667	-3.6792	-4.4521	-3.4437	-4.0437	-3.9333	-153.707	-125.283	-105.240	164.564	-92.174	3.396	11.952	143.606	-120.817	-82.637	-171.551	-158.517	59.610	146.454	166.130	68.334	0.00094833	0.00042805	0.00020592	896.51	6.3524e-06	8.7588e-06	762.05	329.62	3.2949e-06	6.0362e-06	304.88	109.68	104.85	43.665	8.2507e-06	53.885	0.0033833	0.003877	0.001095	936.67	4.1624e-05	4.3181e-05	804.06	346.54	4.2958e-05	4.4338e-05	331.12	118.96	113.85	46.97	4.4054e-05	58.612	141.715	-135.431	-94.261	-161.904	-23.444	-13.054	-163.270	-156.989	-164.966	123.088	-159.138	-154.725	-152.580	-146.636	-103.611	-149.367	-8191	255	
58761.012	1	1	0	0	0.12707	0.25304	0.16348	0.16172	0.096489	0.13905	0.14314	0.070641	0.085108	0.1646	0.084306	0.13276	0.14029	0.14411	0.070837	0.070327	-3.1375	-4.1958	-3.8229	-3.7458	-4.2958	-3.2438	-4.0354	-4.1667	-3.1562	-4.0854	-3.8979	-3.5021	-4.4229	-3.3729	-3.7667	-4.1687	172.761	-57.801	105.311	-91.113	43.339	-121.781	-143.897	180.120	-139.969	-141.009	-169.313	35.797	-164.932	132.706	-43.643	-19.931	0.0008041	0.0014621	4.8531e-05	891.32	4.0013e-06	7.0135e-06	756.98	327.94	8.47e-06	4.7008e-06	303.34	108.9	104.74	43.091	1.2839e-05	53.745	0.0035816	0.0041051	0.001159	936.27	4.4038e-05	4.55e-05	804.08	345.6	4.4003e-05	4.5924e-05	329.98	118.15	113.35	46.663	4.4434e-05	58.301	134.129	-104.618	-60.576	-161.657	4.524	10.875	-163.418	-157.135	176.943	2.148	-159.205	-154.833	-152.958	-147.071	-127.828	-149.619	-8191	255	
58761.109	1	1	0	0	0.25701	0.11949	0.243	0.055013	0.078194	0.10012	0.12658	0.22193	0.1944	0.11735	0.23972	0.23844	0.18105	0.21212	0.11961	0.26675	-3.1271	-4.1208	-3.8937	-3.6646	-4.4729	-3.5625	-3.8229	-4.3063	-3.4417	-4.1438	-4.0563	-3.6792	-4.2771	-3.6833	-3.7292	-4.4146	-169.923	134.546	-86.474	1.394	-152.677	-83.713	141.278	150.822	18.187	-26.331	131.197	-131.225	62.226	163.132	-141.588	139.443	0.00086218	0.00051582	8.8435e-05	889.3	3.5701e-06	6.0825e-06	754.75	328.34	7.8608e-06	3.8213e-06	303.96	108.77	104.88	43.234	3.7888e-06	53.113	0.003556	0.0040699	0.0011498	936.27	4.3363e-05	4.5012e-05	803.25	346.36	4.3976e-05	4.6353e-05	330.67	117.98	113.61	46.737	4.5838e-05	58.212	144.240	-103.488	-115.932	-162.026	-22.531	30.062	-163.318	-157.294	-61.926	-37.320	-159.043	-154.966	-152.974	-147.029	-134.457	-149.548	-8191	255	
58761.203	1	1	0	0	0.119	0.25733	0.13394	0.38472	0.1027	0.11019	0.10308	0.069685	0.1873	0.079226	0.17076	0.063087	0.039415	0.12444	0.018471	0.08549	-2.9813	-3.8	-4.0833	-3.5354	-4.2708	-3.825	-3.7208	-4.4271	-3.4521	-3.8563	-4.2188	-3.5479	-4.2146	-3.7792	-3.5083	-4.425	-54.096	-54.816	-119.695	168.026	-51.994	31.811	143.891	-109.512	-74.843	-174.650	112.771	-111.124	-157.511	115.563	55.256	-38.052	0.00096327	0.00024677	0.00028772	897.46	6.9449e-06	5.5727e-06	753.89	328.83	1.3241e-05	9.6885e-06	303.24	108.82	103.89	43.252	8.0753e-06	53.433	0.0037585	0.0043477	0.0012118	940.89	4.5909e-05	4.7711e-05	802.47	346.51	4.5633e-05	4.7971e-05	329.98	117.86	113.35	46.848	4.5651e-05	58.4	136.862	60.551	-133.691	-161.994	-65.337	-77.277	-163.438	-157.120	-73.018	-48.908	-158.834	-155.012	-152.763	-146.808	41.752	-149.553	-8191	255	
58761.301	1	1	0	0	0.23	0.068705	0.21077	0.34101	0.12249	0.071136	0.10223	0.30011	0.18617	0.19448	0.15335	0.31091	0.10698	0.17319	0.091193	0.22796	-3.2083	-3.8	-4.0396	-3.3958	-4.1687	-3.7979	-3.5312	-4.4104	-3.3875	-3.7917	-4.1396	-3.4083	-4.3375	-4.0708	-3.5104	-4.4021	85.837	-138.228	98.208	125.549	65.444	-171.306	169.332	122.491	134.113	-16.138	54.013	-174.554	-168.307	-173.626	-128.931	50.835	0.00088177	0.00065863	0.00010457	890.58	8.3919e-06	1.0763e-06	754.52	327.8	1.0819e-05	7.6008e-06	304.15	108.81	104.53	43.389	7.589e-06	53.889	0.0037169	0.0042557	0.0011797	934.9	4.4685e-05	4.6442e-05	802.01	345.29	4.4409e-05	4.6179e-05	329.27	117.99	113.41	46.962	4.4079e-05	58.537	139.661	-70.598	-112.558	-161.875	-108.798	-158.879	-163.426	-156.984	-87.022	96.167	-159.163	-154.929	-152.781	-147.072	17.503	-149.808	-8191	255	
58761.395	1	1	0	0	0.24132	0.13071	0.14678	0.30735	0.058029	0.12853	0.24065	0.11376	0.029064	0.085824	0.14668	0.087673	0.21847	0.0094353	0.080648	0.18558	-3.2646	-3.5958	-4.2146	-3.5792	-4.1062	-3.9292	-3.375	-4.5167	-3.6229	-3.5417	-4.2917	-3.3021	-4.0104	-4.2104	-3.2917	-4.2521	124.567	121.913	51.662	178.858	32.482	101.928	133.478	129.106	-53.918	-47.750	54.078	-104.369	-141.399	180.728	12.223	124.071	0.00078127	0.0011358	0.00022071	890.31	1.0103e-05	6.9004e-06	756.76	329.5	1.2414e-05	9.1991e-06	306.32	110	105.08	43.752	2.7832e-06	54.36	0.0036128	0.0040654	0.0011463	933.18	4.3155e-05	4.4648e-05	800.33	346.29	4.2682e-05	4.366e-05	329.87	118.51	113.44	46.999	4.0531e-05	58.838	139.645	-144.818	-115.578	-162.044	-106.919	-91.597	-163.281	-157.164	-80.939	-87.503	-158.929	-154.962	-152.614	-146.986	-92.107	-149.688	-8191	255	
58761.492	1	1	0	0	0.28645	0.16156	0.16507	0.016544	0.20065	0.13232	0.090272	0.062618	0.011406	0.017718	0.16937	0.31747	0.077022	0.12907	0.32176	0.07404	-3.4625	-3.5625	-4.3229	-3.4229	-3.9625	-4.025	-3.5875	-4.3354	-3.6562	-3.5354	-4.4354	-3.4104	-3.9854	-4.1792	-3.2729	-4.1958	74.802	147.208	27.016	86.757	-67.996	76.472	93.741	-131.485	-48.597	-169.594	131.002	141.141	79.299	159.315	-140.508	11.596	0.00086785	0.0003587	0.00014375	896	1.1897e-05	4.8844e-06	756.12	330.52	1.4158e-05	1.0281e-05	309.4	112.11	105.79	43.978	5.539e-06	54.931	0.0033678	0.0037297	0.0010453	933.16	3.9818e-05	4.0681e-05	801.48	347.05	3.9323e-05	4.0589e-05	331.9	119.99	113.92	47.323	4.0304e-05	59.513	131.235	-56.209	-38.035	-161.801	-53.711	-69.551	-163.286	-157.275	-80.265	-13.473	-158.819	-154.749	-152.739	-146.740	-131.940	-149.507	-8191	255	
58761.590	1	1	0	0	0.032013	0.27321	0.12626	0.15282	0.15972	0.065307	0.25069	0.15818	0.10934	0.034173	0.27617	0.23705	0.36769	0.28163	0.072561	0.13537	-3.475	-3.45	-4.2479	-3.6896	-3.6562	-4.2667	-3.5458	-4.2396	-4.0271	-3.2812	-4.3812	-3.6979	-3.6437	-4.3479	-3.3063	-4.1417	-110.661	-48.518	13.453	-143.675	-38.289	-11.488	115.615	98.871	8.254	-124.589	120.783	181.962	77.058	-171.567	-67.365	-133.086	0.00081498	0.0010847	0.00024917	893.19	9.3989e-06	2.0745e-06	756.41	329.32	3.1862e-06	7.6508e-06	305.83	111.53	104.9	44.071	8.8524e-06	54.745	0.0034539	0.003875	0.001093	933.6	4.2232e-05	4.3101e-05	802.9	346.35	4.171e-05	4.2843e-05	330.72	119.63	113.49	47.346	4.1323e-05	59.341	141.481	-74.677	-111.265	-161.643	-8.122	59.030	-163.434	-157.044	-134.469	-80.097	-158.839	-154.593	-152.959	-146.986	-86.628	-149.676	-8191	255	
58761.711	1	1	0	0	0.049233	0.35172	0.12777	0.033028	0.045851	0.076845	0.13942	0.15253	0.098004	0.17501	0.082257	0.33327	0.23271	0.047129	0.11191	0.039712	-3.6917	-3.1979	-4.1771	-3.9271	-3.5771	-4.2208	-3.5042	-4.0917	-4.1021	-3.4458	-4.4333	-3.925	-3.6333	-4.3562	-3.425	-3.9313	-102.620	120.800	20.206	63.254	-79.871	106.674	107.734	-23.286	-149.923	30.104	140.006	101.552	97.945	70.438	68.002	37.768	0.0010385	0.00053294	0.00010895	888.31	6.0031e-06	8.6899e-06	759.57	329.23	8.8001e-07	8.5192e-06	305.73	111.08	104.91	44.169	1.107e-05	54.651	0.0033463	0.003773	0.0010682	932.03	4.0383e-05	4.1599e-05	800.72	345.52	4.0591e-05	4.1917e-05	330.81	119.25	113.48	47.456	4.0858e-05	59.395	141.507	-2.425	-15.211	-162.091	145.674	-93.003	-163.255	-157.125	-45.790	-27.733	-158.991	-154.561	-152.815	-147.047	-63.332	-149.971	-8191	255	
58761.805	1	1	0	0	0.19779	0.044477	0.095946	0.18908	0.30523	0.19021	0.17149	0.21899	0.092496	0.21444	0.079865	0.29463	0.19719	0.03854	0.11856	0.041152	-3.8521	-3.5687	-4.2917	-3.9104	-3.425	-4.25	-3.6375	-4.1312	-4.0479	-3.3979	-4.1479	-3.8563	-3.3854	-4.2729	-3.3958	-3.8104	-120.363	134.814	-164.831	-173.873	-74.207	26.751	173.706	32.904	-152.640	-26.328	-51.829	-155.924	49.989	-46.530	70.766	-125.984	0.00090249	0.00077035	1.4707e-05	896.54	8.5372e-06	2.2822e-06	764.01	331.69	5.4303e-06	3.9336e-06	309.44	112.64	107.06	44.809	2.8207e-06	55.967	0.0033316	0.0037394	0.0010529	934.58	3.9125e-05	4.0277e-05	800.91	346.71	3.7511e-05	3.7747e-05	331.36	120.05	113.77	47.592	3.5933e-05	59.978	135.319	-96.085	-125.293	-161.946	-31.689	-44.627	-163.196	-157.142	-122.189	-43.827	-158.864	-154.811	-152.956	-146.672	29.390	-149.859	-8191	255	
58761.902	1	1	0	0	0.14084	0.11927	0.10201	0.098104	0.17551	0.061622	0.10832	0.14192	0.22927	0.3383	0.065632	0.33997	0.12145	0.22	0.20573	0.081069	-3.9688	-3.4625	-4.1042	-4.1271	-3.5521	-4.2729	-3.6667	-3.9146	-4.225	-3.3354	-4.1312	-4.0208	-3.4062	-4.3875	-3.6917	-3.7792	-169.800	-39.957	-123.026	-173.221	59.829	109.955	172.560	-71.380	-5.875	-81.346	49.251	148.461	-81.250	-144.151	104.804	70.224	0.00091742	0.00037839	0.00016042	897.65	7.2362e-07	2.1273e-06	768.87	332.58	1.7487e-06	4.0292e-06	314.58	113.83	107.25	44.831	7.7998e-06	56.057	0.0028985	0.0032587	0.00091973	931.97	3.4889e-05	3.6189e-05	803.18	347.58	3.5216e-05	3.6648e-05	334.14	121.72	114.45	47.815	3.6286e-05	60.051	140.148	-16.024	-45.403	-161.977	-155.343	-119.196	-163.247	-157.035	-90.676	6.166	-159.052	-154.626	-152.582	-147.007	-111.469	-149.744	-8191	255	
58762.023	1	1	0	0	0.05453	0.10763	0.24616	0.196	0.1262	0.17244	0.096007	0.27138	0.097295	0.19844	0.24374	0.12569	0.11127	0.20441	0.11694	0.30898	-3.9917	-3.3833	-3.8958	-4.1875	-3.4062	-4.2896	-3.8417	-3.6667	-4.2708	-3.3708	-3.9625	-4.2063	-3.3917	-4.45	-3.5979	-3.65	11.707	20.581	0.417	112.954	74.468	-12.463	155.326	176.004	174.230	178.611	156.196	178.347	106.763	32.046	53.424	99.895	0.0009318	0.0006588	0.00010173	896.61	1.7022e-06	6.531e-06	767.32	331.65	2.0016e-06	9.1554e-06	311.29	113.14	106.91	44.332	4.7167e-06	55.492	0.0029543	0.0033399	0.00094241	931.89	3.5654e-05	3.7027e-05	804.13	346.85	3.6351e-05	3.7784e-05	333.02	120.77	113.96	47.648	3.7604e-05	59.631	144.584	-89.712	-123.626	-161.753	-123.088	-136.023	-163.259	-156.903	-37.361	-44.696	-158.583	-154.533	-152.769	-146.887	-38.994	-149.783	-8191	255	
58762.094	1	1	0	0	0.16279	0.26609	0.12701	0.19059	0.15804	0.11642	0.27276	0.052806	0.17427	0.19519	0.066377	0.27324	0.10101	0.05279	0.06419	0.25436	-3.9646	-3.4542	-3.7396	-4.2812	-3.4771	-4.0729	-4.0854	-3.575	-4.3042	-3.5917	-3.8667	-4.1687	-3.3937	-4.1188	-4.0167	-3.6479	171.049	121.013	12.329	132.281	-69.217	2.498	121.366	135.483	101.655	-20.977	-21.571	166.643	23.510	-159.039	-18.947	-34.771	0.00099399	0.00083725	0.00028844	898.97	3.2526e-06	7.2993e-06	761.61	330.77	7.6734e-06	4.459e-06	308.85	113.14	105.89	44.392	3.9614e-06	55.537	0.0030682	0.0035067	0.00097692	931.82	3.6583e-05	3.8884e-05	802.85	346.29	3.7555e-05	3.8986e-05	332.26	120.85	113.88	47.605	3.8116e-05	59.679	140.374	-110.935	-96.595	-161.789	165.437	50.238	-163.004	-157.292	-96.419	-69.909	-158.957	-154.322	-152.448	-147.176	-13.149	-149.897	-8191	255	
58762.191	1	1	0	0	0.21317	0.033497	0.20011	0.38553	0.10835	0.14889	0.19464	0.26232	0.081703	0.23211	0.30768	0.15288	0.10621	0.087692	0.046462	0.022186	-4.0104	-3.5542	-3.5521	-4.3979	-3.325	-4.0604	-4.0729	-3.6021	-4.3187	-3.7958	-3.7292	-4.3604	-3.5438	-4.0354	-4.2375	-3.5104	-7.147	83.747	-43.765	156.901	122.750	-43.045	-105.710	132.999	149.879	173.177	-120.867	-45.259	-41.456	108.557	-89.213	90.371	0.0010163	0.00051887	0.00031086	897.5	1.0191e-05	5.9086e-06	765.16	331.36	4.2157e-06	1.1252e-05	310.93	113.1	106.55	44.792	3.2159e-06	55.482	0.0031018	0.003523	0.00097947	932.45	3.7274e-05	3.8811e-05	804.91	346.42	3.8041e-05	3.9237e-05	333.01	120.89	114.22	47.732	3.8064e-05	59.842	138.804	-54.326	-100.093	-161.707	-66.815	-108.359	-163.108	-157.147	-61.620	-20.994	-158.844	-154.548	-153.066	-147.046	54.851	-149.718	-8191	255	
58762.309	1	1	0	0	0.092538	0.1769	0.036591	0.29116	0.19217	0.14716	0.12864	0.16749	0.14533	0.12597	0.20139	0.082629	0.27834	0.16352	0.055182	0.23545	-3.9854	-3.7792	-3.5479	-4.4021	-3.3979	-3.9313	-4.1937	-3.4188	-4.1604	-3.8479	-3.5333	-4.4917	-3.5875	-3.8958	-4.2021	-3.4479	-15.327	108.745	140.332	169.740	139.075	-157.083	89.012	133.955	-56.198	61.691	-155.737	-164.514	-168.249	-163.904	-83.868	50.270	0.00089529	0.00021984	0.00023665	898.44	6.821e-06	1.0246e-05	762.23	332.92	3.1033e-06	2.8999e-07	312.63	112.85	107.02	44.769	2.4406e-06	55.648	0.0031346	0.0035674	0.00097315	934.72	3.729e-05	3.8686e-05	804.85	347.54	3.7481e-05	3.8747e-05	333.65	121.11	114.52	47.762	3.7553e-05	59.819	144.473	-47.921	-92.298	-162.086	-72.204	-42.778	-162.888	-157.273	-70.881	-11.448	-158.990	-154.581	-152.689	-146.772	-56.147	-149.762	-8191	255	
58762.406	1	1	0	0	0.11889	0.16877	0.050265	0.19774	0.22951	0.13039	0.11081	0.20311	0.065546	0.082622	0.18207	0.16637	0.11578	0.18723	0.099331	0.16354	-3.7479	-3.8542	-3.5396	-4.475	-3.475	-3.7542	-4.3146	-3.5729	-3.9729	-3.9792	-3.5646	-4.5021	-3.5667	-3.7583	-4.3021	-3.5208	-163.645	128.880	-44.170	-170.815	-41.993	29.755	174.914	118.915	-86.438	52.363	180.771	-111.137	135.552	148.106	118.476	100.204	0.00083573	0.00070985	0.00023982	900.33	4.2701e-06	2.9172e-06	765.1	332.99	4.4314e-06	8.2605e-06	311.58	112.81	106.73	44.514	1.0011e-05	55.434	0.0031617	0.0035683	0.00099091	936.73	3.8332e-05	3.9291e-05	802.05	347.76	3.8433e-05	3.9371e-05	332.64	120.99	114.45	47.648	3.7742e-05	59.595	136.424	-32.611	-98.029	-161.968	2.682	-37.640	-163.238	-157.257	-59.983	20.804	-159.026	-154.693	-152.542	-146.967	8.697	-149.822	-8191	255	
58762.500	1	1	0	0	0.1358	0.081008	0.18066	0.28862	0.20085	0.047929	0.27872	0.32556	0.2324	0.12083	0.12615	0.12953	0.19336	0.16849	0.33948	0.1093	-3.7562	-4.1417	-3.5271	-4.2729	-3.8229	-3.5583	-4.3833	-3.4229	-3.8438	-4.0208	-3.425	-4.4313	-3.8479	-3.6813	-4.2229	-3.3729	-131.332	137.691	-120.627	121.565	22.842	117.451	87.213	99.108	83.032	-73.545	-40.125	88.723	-162.116	146.665	-133.980	106.292	0.001043	0.00069904	0.00015682	896.91	9.8159e-06	1.0536e-05	763.19	331.61	1.2221e-05	1.2529e-05	311.93	113.49	106.49	44.576	1.5335e-05	55.416	0.0031778	0.0035564	0.00098376	933.73	3.8051e-05	3.9113e-05	803.19	347.22	3.8709e-05	3.9415e-05	332.21	121.12	114.19	47.619	3.7903e-05	59.842	142.887	-107.168	-65.608	-162.068	-81.667	31.585	-163.473	-157.172	-53.304	26.737	-159.233	-154.669	-152.673	-146.757	-79.980	-149.447	-8191	255	
58762.621	1	1	0	0	0.21905	0.09983	0.087675	0.11532	0.42114	0.14593	0.21937	0.22163	0.12135	0.3239	0.12763	0.14817	0.34665	0.095307	0.19687	0.12258	-3.6292	-4.1542	-3.2875	-4.4208	-3.8854	-3.4271	-4.5	-3.6542	-3.7667	-4.275	-3.1729	-4.1583	-3.975	-3.5292	-4.1813	-3.5792	85.182	-53.150	106.973	140.421	-45.232	68.095	132.307	184.234	52.215	-76.906	-112.950	164.159	151.213	-134.688	-32.674	101.686	0.00086755	0.00044871	0.00013494	898.84	1.3808e-05	7.6014e-06	762.67	332.87	1.0338e-05	9.8513e-06	310.21	113.37	106.8	44.679	9.3986e-06	55.541	0.003173	0.0035986	0.00099726	936.54	3.8574e-05	3.923e-05	804.1	347.68	3.8067e-05	3.8789e-05	332.29	121.73	114.7	47.674	3.8073e-05	59.958	140.550	-46.786	-57.355	-161.851	-75.379	-73.623	-163.103	-157.008	-88.221	17.211	-159.275	-154.644	-152.382	-146.940	-35.201	-149.695	-8191	255	
58762.691	1	1	0	0	0.12826	0.0060256	0.029245	0.18292	0.06322	0.088628	0.15586	0.23996	0.088533	0.087409	0.23953	0.13055	0.11167	0.17106	0.039658	0.13517	-3.4833	-4.2063	-3.325	-4.1438	-3.8625	-3.4917	-4.2646	-3.7167	-3.6375	-4.3208	-3.4146	-3.9896	-4.1062	-3.3792	-4.1521	-3.7188	-39.536	150.206	-31.841	163.674	-116.222	126.993	165.457	68.253	-101.363	148.067	138.770	-168.394	132.450	44.513	-110.992	73.773	0.0010386	0.00030703	0.00017341	893.42	8.9395e-06	9.4362e-06	759.65	332.29	5.9554e-06	1.1946e-05	310.2	112.94	106.71	44.546	3.6325e-06	54.61	0.0031059	0.0034907	0.00098794	932.45	3.753e-05	3.8982e-05	801.78	348.02	3.8553e-05	3.9392e-05	332.23	121.33	114.61	47.529	3.8964e-05	59.251	142.330	71.188	44.524	-162.062	-129.469	-18.939	-163.291	-157.107	-102.142	-69.275	-159.035	-154.579	-152.668	-147.073	-164.749	-149.424	-8191	255	
58762.789	1	1	0	0	0.13864	0.077178	0.23518	0.094214	0.23087	0.10412	0.15637	0.25488	0.16791	0.041709	0.13918	0.10619	0.21885	0.30155	0.24579	0.37708	-3.0708	-4.4479	-3.5354	-3.8854	-4.0813	-3.4354	-4.2812	-3.8604	-3.7042	-4.2812	-3.5417	-3.8854	-4.0646	-3.45	-4.1312	-3.8729	147.456	-137.704	166.173	161.602	-6.432	134.471	96.984	89.420	28.359	-140.114	-168.748	-25.259	175.728	116.280	112.840	182.415	0.00085205	0.0006321	0.00018295	894.85	6.2183e-06	9.0024e-07	756.93	332.69	5.2953e-06	1.5138e-05	308.82	112.26	106.57	44.28	8.2087e-06	54.882	0.0031262	0.0035058	0.00098997	932.61	3.6824e-05	3.7594e-05	796.52	347.22	3.6346e-05	3.7619e-05	330.38	119.58	113.8	47.153	3.7399e-05	58.782	151.196	-134.208	-100.574	-162.092	-54.104	178.903	-163.177	-157.180	-61.041	25.289	-158.902	-154.661	-152.483	-146.885	-62.089	-149.777	-8191	255	
58762.887	1	1	0	0	0.10129	0.099084	0.25815	0.080031	0.058409	0.030767	0.10623	0.21575	0.16559	0.054414	0.12941	0.16054	0.19634	0.37125	0.03335	0.10436	-3.0938	-4.3271	-3.4813	-3.8792	-4.2333	-3.4708	-4.3354	-4.1896	-3.4667	-4.2917	-3.6583	-3.6688	-4.3313	-3.3187	-4.1	-4.15	-62.534	104.271	0.849	-150.325	37.770	-151.254	105.721	122.730	97.569	122.826	128.314	-0.415	100.241	42.703	54.218	-52.599	0.0010622	0.00069048	0.00018861	899.28	6.9143e-06	7.8356e-06	754.69	331.96	6.9827e-06	4.0222e-06	307.81	112.26	106.75	43.964	5.8017e-06	55.182	0.0030326	0.0034498	0.00096872	932.17	3.625e-05	3.7484e-05	796.31	346.14	3.6034e-05	3.7711e-05	329.48	119.92	113.67	47.034	3.719e-05	58.981	137.102	-81.955	-135.525	-161.897	-43.879	-75.114	-163.433	-157.129	-100.854	-69.902	-158.998	-154.965	-152.558	-146.488	-113.624	-149.465	-8191	255	
58762.980	1	1	0	0	0.13365	0.19192	0.041735	0.10007	0.25404	0.075583	0.067746	0.22773	0.33035	0.28534	0.10799	0.41989	0.30569	0.076099	0.29695	0.21077	-3.1667	-4.1625	-3.7542	-3.7188	-4.075	-3.475	-4.1875	-4.1438	-3.3083	-4.3125	-3.7521	-3.6896	-4.2604	-3.4188	-3.7687	-4.2104	144.556	58.735	-44.681	161.517	40.112	104.902	-66.314	100.587	57.951	-61.037	-21.781	111.316	164.649	13.078	-10.936	-6.755	0.00092693	0.00029975	2.3302e-05	898.01	5.9435e-06	7.5319e-06	757.33	330.72	5.9024e-06	9.6963e-06	307.69	111.71	105.71	44.031	1.125e-05	54.696	0.0029797	0.0034272	0.00095203	930.6	3.5683e-05	3.7313e-05	794.81	345.44	3.5605e-05	3.7835e-05	329.1	119.56	113.27	47.071	3.6949e-05	58.812	137.465	-72.410	11.880	-161.876	-19.257	-11.957	-163.261	-157.199	-103.571	1.292	-158.602	-154.864	-152.508	-146.930	-84.617	-149.763	-8191	255	
58763.102	1	1	0	0	0.1784	0.12759	0.092343	0.13124	0.14999	0.10872	0.10501	0.30399	0.076136	0.31392	0.12528	0.10071	0.10646	0.12249	0.069492	0.074904	-3.1688	-4.2354	-3.8729	-3.6188	-4.3917	-3.6167	-3.9771	-4.2354	-3.4562	-4.0896	-3.9813	-3.6583	-4.35	-3.7708	-3.8146	-4.3896	162.586	-39.101	-75.853	-145.510	-166.888	-104.943	90.452	128.054	22.423	-165.649	140.351	34.878	-120.983	154.634	127.217	98.437	0.00091755	0.00091479	0.00019588	895.13	1.1509e-05	3.0295e-06	757.09	330.2	5.0714e-06	6.6197e-06	306.01	110.09	104.8	43.696	6.8815e-06	53.834	0.0030282	0.0034934	0.0009739	930.94	3.6788e-05	3.9048e-05	796.96	344.64	3.7454e-05	3.9547e-05	328.06	118.24	112.7	46.875	3.9164e-05	58.358	146.995	-39.481	-14.566	-161.870	-129.259	-3.319	-163.444	-157.088	-67.952	-144.240	-158.771	-154.267	-152.529	-146.756	-85.067	-149.294	-8191	255	
58763.195	1	1	0	0	0.21113	0.25858	0.15565	0.14107	0.10017	0.031537	0.23951	0.19506	0.10589	0.0866	0.15349	0.20063	0.088029	0.15928	0.14638	0.29228	-3.05	-4.0917	-3.9104	-3.5792	-4.3792	-3.5354	-3.8833	-4.4146	-3.3521	-3.9042	-4.1229	-3.5458	-4.2542	-3.6833	-3.7458	-4.3375	-167.591	137.186	-136.821	-141.656	-172.499	50.545	-170.924	77.229	-98.855	-72.185	102.046	-25.825	-159.340	170.156	-163.177	-163.402	0.00088385	8.106e-05	0.0002959	883.99	7.6103e-06	3.9861e-06	752.86	326.82	5.795e-06	9.274e-06	304.17	111.54	104.56	43.862	8.9095e-06	54.935	0.0032709	0.0038031	0.0010427	922.45	4.0001e-05	4.1139e-05	793.12	341.99	3.9637e-05	4.0673e-05	328.26	119.39	112.62	47.181	4.0044e-05	59.385	143.137	110.705	-140.596	-162.001	-69.980	-139.939	-163.452	-157.168	-92.802	22.372	-158.973	-154.866	-152.886	-147.019	-69.214	-149.862	-8191	255	
58763.270	1	1	0	0	0.29961	0.15095	0.15992	0.1196	0.062124	0.17544	0.022974	0.33643	0.1725	0.084218	0.18088	0.18182	0.094873	0.18954	0.14517	0.22305	-3.3063	-3.7687	-4.0312	-3.5812	-4.1438	-3.8875	-3.4958	-4.3104	-3.3688	-3.9958	-4.0833	-3.4188	-4.1583	-3.8229	-3.4917	-4.4271	69.698	-66.246	12.774	127.912	88.680	-114.434	-120.372	133.315	156.267	70.988	167.540	140.170	-133.009	-151.081	135.127	141.467	0.00081011	0.00055009	0.00025782	880.88	8.8161e-06	4.3906e-06	756.05	325.19	9.3383e-06	1.4501e-05	305.69	111.64	104.16	44.098	6.3831e-06	55.003	0.0033326	0.0037997	0.0010582	920.05	4.1657e-05	4.3203e-05	797.59	341.53	4.3244e-05	4.4949e-05	330.49	120.79	113.21	47.572	4.4611e-05	60.184	142.519	-101.374	-14.726	-162.035	-57.328	-7.568	-163.621	-157.019	-89.983	-31.402	-158.866	-154.544	-152.884	-146.805	-65.547	-149.506	-8191	255	
58763.391	1	1	0	0	0.12454	0.34025	0.28594	0.31171	0.097093	0.33314	0.19521	0.10524	0.1409	0.088912	0.076061	0.21892	0.18542	0.3018	0.24684	0.040722	-3.1479	-3.8833	-4.1396	-3.5438	-4.1	-3.9729	-3.8229	-4.3958	-3.5229	-3.7562	-4.4208	-3.3125	-3.9979	-4.1958	-3.3292	-4.1479	102.923	-56.831	169.595	158.002	143.131	102.584	152.975	93.521	-7.655	177.377	-18.009	152.570	-171.095	130.930	110.008	-115.030	0.00092785	0.00030763	0.00018092	878.48	2.0708e-06	1.1258e-05	753.73	324.83	1.9003e-05	1.4283e-05	307.68	110.43	104.32	43.97	4.6599e-06	54.783	0.00376	0.0042861	0.0011838	924.1	4.5952e-05	4.7659e-05	800.3	343.27	4.6726e-05	4.8282e-05	333.04	120.6	113.91	47.704	4.689e-05	60.087	149.982	-15.257	39.264	-162.132	-38.129	-9.893	-163.337	-157.115	-44.620	-75.011	-158.476	-154.678	-153.075	-146.851	-74.269	-149.765	-8191	255	
58763.484	1	1	0	0	0.14478	0.17599	0.1246	0.16979	0.15511	0.093388	0.046531	0.18965	0.12113	0.30831	0.20936	0.12173	0.29993	0.18758	0.25864	0.057398	-3.2687	-3.5938	-4.2958	-3.3812	-4.0125	-4.0625	-3.4229	-4.475	-3.6375	-3.5563	-4.3583	-3.4917	-3.9875	-4.2229	-3.4021	-4.3792	-37.499	-113.162	62.228	-126.632	180.076	-77.321	-84.473	79.550	144.333	-93.815	122.602	-99.199	184.126	-165.154	14.968	135.025	0.00096248	0.00082647	0.00032677	878.99	7.4149e-06	1.0597e-05	749.59	323.68	8.3183e-06	5.6272e-06	303.03	109.86	104.21	43.872	7.5319e-06	54.182	0.0039444	0.0044687	0.0012508	926.73	4.8646e-05	5.0254e-05	800.45	343.19	4.9413e-05	5.0445e-05	331.49	120.31	114.02	47.719	4.9085e-05	59.767	138.423	-120.802	-126.769	-162.011	-11.131	-9.961	-163.448	-157.119	-156.641	-96.994	-158.937	-154.595	-152.788	-146.818	-14.006	-150.122	-8191	255	
58763.582	1	1	0	0	0.11734	0.18478	0.3042	0.043506	0.18357	0.11744	0.12254	0.12798	0.19132	0.090416	0.18257	0.1477	0.164	0.19756	0.10556	0.29552	-3.3271	-3.5521	-4.4042	-3.6521	-3.8958	-4.3333	-3.4958	-4.4604	-3.6896	-3.6	-4.3708	-3.4792	-3.8625	-4.1667	-3.1979	-4.1583	-130.078	148.729	1.364	175.394	-140.346	-111.206	-33.732	102.579	-40.988	-81.519	170.478	139.857	45.501	-95.887	-63.797	-112.942	0.0008559	0.00046972	6.7299e-05	879.92	8.6353e-06	8.2651e-06	744.1	322.86	9.1823e-06	5.5599e-06	300.74	109.54	104.27	43.76	7.2261e-06	54.283	0.0039992	0.004497	0.0012614	925.09	4.7012e-05	4.7992e-05	794.96	342.15	4.5977e-05	4.678e-05	329.19	119.47	113.43	47.328	4.3989e-05	59.137	154.484	133.618	-127.371	-162.160	-23.262	-24.079	-163.324	-157.357	-116.589	-32.896	-158.848	-154.710	-152.765	-147.051	-115.052	-149.435	-8191	255	
58763.703	1	1	0	0	0.0678	0.083484	0.01985	0.063818	0.11607	0.091978	0.133	0.18838	0.15255	0.16347	0.13612	0.11415	0.10913	0.089901	0.12691	0.097224	-3.6292	-3.3521	-4.2333	-3.7167	-3.7875	-3.9833	-3.5167	-4.1104	-4.1083	-3.4188	-4.4396	-3.6958	-3.6979	-4.3604	-3.3521	-4.1104	32.967	-103.196	-136.121	-145.514	6.059	10.144	-166.556	110.479	91.335	34.528	96.599	83.915	-141.736	80.822	-41.515	-53.743	0.0009358	0.0010992	0.00027432	882.48	7.4073e-06	4.2757e-06	746.15	326.23	2.8457e-06	7.524e-06	303.89	111.31	104.35	44.039	5.8513e-06	54.829	0.0035169	0.0039344	0.0011064	923.27	4.1368e-05	4.246e-05	792.97	343.17	4.0717e-05	4.1759e-05	329.5	119.47	112.81	47.236	3.9938e-05	59.167	144.664	-82.535	-71.186	-161.832	-136.392	-132.646	-163.092	-157.004	-106.059	95.973	-158.597	-154.666	-152.919	-146.800	-36.216	-149.562	-8191	255	
58763.797	1	1	0	0	0.12915	0.20532	0.11261	0.04984	0.047931	0.33181	0.085728	0.23085	0.1152	0.26909	0.079487	0.11125	0.13411	0.14155	0.085794	0.04541	-3.7146	-3.3583	-4.225	-3.6771	-3.4771	-4.2333	-3.4208	-4.0667	-3.9667	-3.2396	-4.3604	-3.9437	-3.6458	-4.4146	-3.5292	-3.8208	104.695	92.030	-52.151	176.590	184.431	51.072	113.383	30.141	5.071	158.921	-58.592	139.307	156.571	-20.154	178.100	175.085	0.00086391	0.00045312	0.00032503	882.77	1.321e-05	8.4239e-06	749.06	327.6	7.2285e-06	6.004e-06	306.38	111.91	104.98	44.032	7.4437e-06	54.91	0.0032214	0.0036613	0.0010358	921.72	3.8488e-05	3.9909e-05	793.68	344.11	3.9114e-05	4.0827e-05	331.52	120.52	113.46	47.393	4.085e-05	59.492	137.540	-106.168	-123.568	-161.876	-86.743	-100.975	-163.277	-157.168	-91.245	-33.155	-158.544	-154.863	-152.957	-146.810	-145.521	-149.586	-8191	255	
58763.895	1	1	0	0	0.073229	0.18758	0.1281	0.25626	0.27746	0.20138	0.30727	0.20975	0.22759	0.039383	0.10555	0.25438	0.21114	0.049066	0.20259	0.37071	-3.7833	-3.3521	-4.2146	-4.0167	-3.4	-4.1167	-3.7604	-3.9208	-4.3354	-3.2229	-4.1188	-4.05	-3.4646	-4.5208	-3.5563	-3.8792	-88.949	-113.636	95.416	158.481	31.410	-60.362	84.306	49.980	82.593	175.719	-95.849	-166.476	184.404	66.136	-98.459	62.860	0.00098149	0.0004087	0.00021773	880.38	6.0603e-06	4.8362e-06	752.42	328.58	7.5576e-06	1.3722e-05	307.23	113.62	105.31	44.449	8.3107e-06	55.412	0.0032604	0.0036784	0.0010307	920.05	3.7168e-05	3.8639e-05	791.89	343.63	3.5348e-05	3.691e-05	329.65	120.62	112.68	47.275	3.4754e-05	59.324	141.446	-81.469	-101.999	-161.757	-16.474	10.840	-163.346	-157.249	-96.490	3.715	-159.076	-154.584	-152.847	-146.912	-36.378	-149.790	-8191	255	
58763.988	1	1	0	0	0.32685	0.19024	0.13883	0.10399	0.062125	0.17525	0.082039	0.15941	0.22212	0.081217	0.26718	0.087914	0.3114	0.2161	0.07519	0.13837	-3.8521	-3.2938	-4.0854	-4.2979	-3.4354	-4.3146	-3.7958	-3.7417	-4.2604	-3.3458	-3.9292	-4.1146	-3.4688	-4.2063	-3.6583	-3.6437	170.698	123.764	-39.072	126.890	-128.955	89.716	-56.883	111.345	-68.650	13.683	78.178	-136.163	140.213	154.227	152.404	-164.698	0.00078685	0.00079139	0.00028608	882.21	7.0476e-06	6.9553e-06	756.06	329.52	1.1337e-05	8.8976e-06	308.94	113.68	106.59	44.586	5.5894e-06	56.001	0.0028311	0.0032262	0.00090113	917.38	3.3592e-05	3.5411e-05	791.79	343.1	3.3541e-05	3.4833e-05	329.86	120.81	113.21	47.342	3.3017e-05	59.634	151.128	-112.007	-84.771	-161.903	-65.811	-63.524	-163.064	-157.315	-53.759	18.464	-158.893	-154.733	-152.364	-146.637	23.044	-149.777	-8191	255	
58764.086	1	1	0	0	0.12024	0.10424	0.16291	0.2324	0.14998	0.15253	0.15392	0.11695	0.11597	0.1615	0.12943	0.088908	0.2653	0.14033	0.26946	0.17054	-3.8354	-3.4667	-3.8896	-4.0854	-3.3438	-4.2854	-3.7833	-3.575	-4.275	-3.4938	-3.8688	-4.1833	-3.3854	-4.3229	-3.8792	-3.7	112.956	-87.346	41.322	99.108	80.022	138.223	18.549	104.923	-17.290	82.647	-174.274	164.088	-174.924	12.567	62.484	96.798	0.0010505	0.00012199	8.879e-05	889.19	2.8945e-06	1.3265e-05	758.86	332.14	3.1151e-06	1.0257e-05	310.08	114.12	106.76	44.693	6.3688e-06	56.112	0.0027283	0.0030731	0.00085405	918.78	3.2253e-05	3.4038e-05	792.94	344.79	3.2062e-05	3.3305e-05	330.6	121.09	113.64	47.467	3.2052e-05	59.56	131.908	2.108	35.488	-161.893	-52.093	-52.532	-163.132	-157.159	-105.025	-47.846	-158.699	-154.880	-152.643	-146.906	42.179	-149.711	-8191	255	
58764.180	1	1	0	0	0.11844	0.089295	0.085075	0.043042	0.049012	0.11784	0.075401	0.31202	0.14183	0.25883	0.26359	0.056876	0.11077	0.048443	0.14691	0.086226	-4.0833	-3.5917	-3.6562	-4.3354	-3.45	-4.1625	-4.0604	-3.6792	-4.4625	-3.4896	-3.8646	-4.1521	-3.3833	-4.0708	-3.9375	-3.6583	-89.646	-51.862	183.875	138.924	-73.456	-13.737	-7.176	150.112	101.850	-27.667	183.797	149.090	103.575	145.433	19.560	-97.092	0.00096696	0.00015601	0.00019038	894.27	2.5283e-06	8.3989e-06	758.29	333.88	5.9584e-06	1.0449e-05	313.37	115.03	107.26	44.759	1.0454e-05	55.329	0.0026685	0.0029335	0.00081257	922.82	3.1159e-05	3.2404e-05	792.58	346.07	3.0518e-05	3.0896e-05	330.43	121.08	113.91	47.262	2.9773e-05	59.087	146.829	-138.230	-74.422	-162.066	57.868	-2.448	-163.396	-157.190	-102.720	-79.995	-159.007	-154.751	-152.766	-147.101	-116.589	-149.889	-8191	255	
58764.301	1	1	0	0	0.061623	0.18188	0.27032	0.035627	0.20611	0.23089	0.19143	0.10773	0.18984	0.21502	0.11007	0.092135	0.22423	0.31205	0.073963	0.20104	-3.875	-3.6458	-3.6292	-4.4229	-3.4771	-3.8625	-4.1604	-3.4979	-4.3063	-3.8458	-3.5521	-4.2688	-3.4958	-4.0292	-4.2146	-3.4938	-168.852	17.829	89.407	-172.044	5.035	160.529	-126.351	70.867	-36.663	-17.373	125.686	-40.884	-24.123	-119.447	181.371	92.279	0.00095723	0.00073789	0.00013713	899.39	7.5447e-06	6.2232e-06	761.95	335.21	8.788e-06	9.129e-06	310.32	113.41	107.01	44.575	1.4896e-06	55.421	0.0025438	0.0028122	0.00078268	927.15	3.0209e-05	3.1029e-05	792.27	346.5	3.0481e-05	3.1532e-05	329.18	120.2	113.7	47.269	3.0896e-05	58.928	125.840	-149.489	-31.652	-161.623	-21.595	31.804	-163.344	-156.973	-29.385	-62.099	-158.983	-154.871	-152.674	-146.962	-56.057	-149.534	-8191	255	
58764.398	1	1	0	0	0.037507	0.24311	0.052385	0.18688	0.14087	0.24258	0.27218	0.18731	0.093176	0.30844	0.21492	0.11138	0.14298	0.085524	0.16406	0.11048	-3.8792	-3.8646	-3.4625	-4.3646	-3.2771	-3.7625	-4.4458	-3.5062	-4.1854	-3.8875	-3.3812	-4.4229	-3.5438	-3.8458	-4.1604	-3.4479	4.372	-104.389	106.425	100.675	-6.260	152.693	19.085	126.094	78.238	64.154	-174.705	81.169	177.322	104.203	73.216	52.135	0.0008717	0.00033387	0.00033565	895.88	3.9383e-06	1.0365e-05	763.99	333.67	4.6831e-06	8.1994e-06	309.15	113.22	106.8	44.099	1.0373e-05	54.957	0.0026129	0.0029034	0.00080438	926.72	3.1478e-05	3.2213e-05	794.74	346.37	3.2631e-05	3.3582e-05	329.06	120.06	113.81	47.069	3.3115e-05	58.831	139.265	-30.346	-127.754	-161.867	-85.191	-84.382	-163.344	-157.075	-92.884	-28.642	-158.936	-154.467	-152.584	-147.099	-85.848	-149.748	-8191	255	
58764.492	1	1	0	0	0.17734	0.17714	0.21265	0.19592	0.027264	0.1513	0.19709	0.065383	0.14114	0.095561	0.17427	0.24052	0.20527	0.20238	0.11534	0.17522	-3.8125	-3.9792	-3.4688	-4.3833	-3.6396	-3.6562	-4.3729	-3.4292	-4.0292	-4.1208	-3.3833	-4.2875	-3.7687	-3.7542	-4.1625	-3.3958	-59.123	75.145	126.361	-152.126	132.816	-142.447	-133.540	86.803	44.389	23.040	158.399	-126.701	99.167	145.682	-170.845	123.354	0.00097171	0.00055645	5.9756e-05	896.8	5.4784e-06	4.332e-06	760.95	332.23	3.8916e-06	7.4902e-06	310.56	113.67	105.91	44.181	1.666e-06	55.251	0.002778	0.0030763	0.0008611	929.04	3.253e-05	3.3294e-05	794.17	346	3.3074e-05	3.3653e-05	329.66	120.12	113.04	47.087	3.3641e-05	59.032	144.000	-158.175	-39.928	-161.838	-27.645	106.540	-163.102	-157.087	-43.358	-36.698	-158.831	-154.834	-152.871	-147.044	-64.019	-149.708	-8191	255	
58764.566	1	1	0	0	0.3573	0.10304	0.092028	0.18696	0.066393	0.18325	0.054028	0.19107	0.24778	0.18664	0.30085	0.21673	0.097177	0.35964	0.13469	0.14265	-3.7625	-4.0208	-3.2979	-4.3063	-3.7292	-3.4813	-4.3187	-3.4437	-3.875	-4.1125	-3.4458	-4.0604	-4.0125	-3.5896	-4.3042	-3.5938	-32.628	-2.432	6.094	167.957	117.718	99.354	35.467	162.520	22.395	10.935	60.173	-144.247	-136.316	184.784	-6.922	131.893	0.0010219	0.00057164	0.00018072	896.21	8.2941e-06	3.9654e-06	763.79	331.37	1.644e-05	9.3484e-06	309.01	113.94	106.29	44.356	3.1116e-06	55.066	0.0027782	0.0030798	0.00087413	928.58	3.3918e-05	3.4617e-05	799.03	345.97	3.4423e-05	3.5281e-05	331.03	120.48	113.42	47.235	3.7085e-05	59.252	136.177	-86.863	-132.615	-161.974	-26.438	-49.778	-163.051	-157.110	-57.531	-54.032	-158.875	-154.404	-152.626	-146.822	-24.583	-149.760	-8191	255	
58764.660	1	1	0	0	0.067869	0.21598	0.17101	0.062362	0.22116	0.25294	0.064934	0.089449	0.1059	0.043049	0.26395	0.27775	0.12006	0.098603	0.16248	0.071814	-3.525	-4.1438	-3.2479	-4.2104	-3.85	-3.5854	-4.3583	-3.7313	-3.6917	-4.1062	-3.475	-4.2979	-3.8812	-3.4854	-4.3458	-3.6875	-116.790	50.494	-3.670	-157.276	76.746	-85.875	106.778	117.611	22.556	57.158	104.259	153.471	-157.568	53.703	-50.744	24.274	0.00089101	0.00030383	0.00017688	894.92	6.6682e-06	6.4647e-06	752.22	328.03	5.2591e-06	4.6698e-06	306.25	112.2	104.89	44.14	7.5948e-06	54.538	0.0031203	0.0035301	0.0010143	928.29	3.8788e-05	4.0571e-05	798.16	344.22	4.0185e-05	4.195e-05	331.21	120.4	113.39	47.46	4.4688e-05	59.64	131.383	-26.476	-69.437	-161.926	-36.887	-87.325	-163.112	-156.964	163.610	-24.377	-158.871	-154.523	-152.511	-146.711	-16.845	-149.650	-8191	255	
58764.781	1	1	0	0	0.1273	0.047792	0.11579	0.056039	0.25453	0.071149	0.059029	0.10933	0.25471	0.18061	0.11612	0.15693	0.20852	0.10233	0.20024	0.16404	-3.4958	-4.1146	-3.2313	-3.9854	-4.1083	-3.45	-4.3375	-3.8875	-3.6125	-4.2937	-3.6667	-4.0208	-4.2271	-3.4604	-4.2708	-3.8792	158.327	-92.649	-86.324	110.294	161.471	100.788	128.949	70.560	-66.666	53.548	170.175	-131.703	182.218	142.635	-153.708	123.410	0.00087489	0.000514	0.00023209	887.14	5.3475e-06	9.885e-06	753.26	323.53	4.8958e-06	5.6265e-06	302.17	108.76	102.97	43.281	3.5924e-06	53.232	0.0037359	0.0044061	0.0012704	935.33	5.0074e-05	5.3399e-05	810.77	345.6	5.4005e-05	5.8588e-05	335.35	120.52	115.01	47.601	6.025e-05	59.441	142.093	-162.294	-34.025	-162.003	178.235	-66.823	-163.213	-156.938	173.297	105.284	-158.832	-154.714	-152.574	-147.199	36.185	-149.715	-8191	255	
58764.879	1	1	0	0	0.20494	0.090044	0.23355	0.076772	0.1605	0.21612	0.22548	0.05368	0.17181	0.15375	0.17602	0.09459	0.16419	0.21657	0.05667	0.12335	-3.0958	-4.325	-3.4	-3.9896	-4.0792	-3.3917	-4.2229	-4.0917	-3.5167	-4.2833	-3.6604	-3.8438	-4.2354	-3.3417	-4.0229	-3.95	7.438	0.409	18.318	135.640	-126.706	-60.681	151.584	129.911	-23.731	-140.460	-162.128	135.565	-6.005	-105.190	98.462	159.435	0.00079256	0.00099581	0.00022782	892.94	9.3835e-06	7.831e-06	752.34	325.8	1.3569e-05	1.3341e-05	297.77	107.41	103.72	42.932	5.8176e-06	52.63	0.00482	0.0056801	0.001582	951.78	5.8989e-05	6.229e-05	815.87	349.02	5.9011e-05	6.3112e-05	335.42	119.97	115.62	47.594	6.3948e-05	59.289	124.678	-139.305	-70.579	-161.876	167.372	140.301	-163.460	-156.875	-77.268	-47.698	-158.905	-154.852	-152.512	-147.018	-7.893	-149.531	-8191	255	
58764.977	1	1	0	0	0.37012	0.12141	0.35093	0.32334	0.19361	0.064004	0.21487	0.25526	0.31901	0.13375	0.21653	0.1171	0.13254	0.12987	0.14994	0.10024	-3.1667	-4.3063	-3.6542	-3.8083	-4.3604	-3.4021	-4.3125	-4.1375	-3.4229	-4.3708	-3.5125	-3.7521	-4.3375	-3.3563	-3.9437	-4.0042	-123.763	-14.851	167.885	-117.987	128.206	122.181	88.851	133.957	48.371	157.868	104.324	95.152	-23.772	19.531	84.743	177.670	0.00069238	0.00074449	0.00027211	892.39	7.1206e-06	5.3108e-06	743.15	322.46	3.3248e-06	6.5197e-06	296.8	106.44	102.8	42.922	1.0376e-05	52.79	0.0052167	0.0060981	0.0016953	953.04	6.4527e-05	6.7575e-05	815.62	347.81	6.5192e-05	6.9184e-05	336.45	119.98	115.42	47.899	6.7245e-05	59.512	135.310	-119.167	-102.932	-162.026	-32.802	-70.591	-163.179	-157.229	80.822	-3.216	-159.069	-154.523	-153.000	-146.956	-41.194	-149.605	-8191	255	
58765.070	1	1	0	0	0.12084	0.16713	0.065347	0.094606	0.077592	0.062008	0.23567	0.1833	0.062512	0.078868	0.12268	0.35523	0.097341	0.27933	0.11155	0.015029	-3.1437	-4.2021	-3.8104	-3.6333	-4.15	-3.4125	-4.0125	-4.2292	-3.4562	-4.1813	-3.8583	-3.4042	-4.2188	-3.5458	-3.7625	-4.2583	99.505	108.022	120.307	129.728	48.171	94.089	-163.247	128.938	-97.232	-115.572	15.324	125.675	166.881	182.975	-36.739	-48.354	0.00080905	0.00087474	0.00024031	880.02	3.2887e-06	9.432e-07	743	317.81	1.4317e-05	6.2202e-06	296.05	107.09	102.48	42.736	7.7102e-06	53.414	0.0054209	0.0062793	0.0017278	942.56	6.557e-05	6.7992e-05	811.94	343.61	6.5005e-05	6.7109e-05	334.6	120.12	114.82	47.66	6.1854e-05	59.692	155.830	-66.181	-128.149	-162.166	-4.520	97.576	-163.378	-156.875	-107.729	12.980	-158.730	-154.679	-152.771	-146.843	-65.476	-149.616	-8191	255	
58765.191	1	1	0	0	0.16372	0.31557	0.18778	0.19616	0.07906	0.2216	0.11196	0.23227	0.03429	0.21904	0.10941	0.32809	0.11696	0.15278	0.13692	0.23043	-3.0187	-4.1771	-3.7646	-3.5854	-4.2208	-3.5312	-3.9042	-4.3771	-3.15	-4.2708	-4	-3.3021	-4.4146	-3.5917	-3.7083	-4.4146	17.653	100.325	-61.536	-140.376	73.979	-174.711	-144.703	72.886	49.008	-16.448	154.408	76.863	-15.332	118.886	-29.027	145.121	0.0009594	0.00055751	0.00010854	874.7	1.6074e-05	8.4235e-06	748.18	319.23	4.574e-06	2.9081e-06	297.29	107.5	102.63	43.151	1.2771e-05	53.464	0.0050154	0.0057418	0.0015834	935.22	6.069e-05	6.2986e-05	810.99	343.69	6.1861e-05	6.3707e-05	334.23	120.07	114.59	47.723	6.0838e-05	59.895	146.776	-32.975	-71.892	-161.776	-68.806	-51.367	-163.375	-157.090	-131.091	-157.612	-158.776	-154.630	-152.614	-146.819	-36.067	-149.451	-8191	255	
58765.262	1	1	0	0	0.21498	0.19997	0.068914	0.28556	0.094804	0.24757	0.092365	0.21839	0.090642	0.037363	0.032724	0.21802	0.15551	0.091636	0.14336	0.29236	-2.9917	-3.9292	-4.1312	-3.475	-4.275	-3.5458	-3.6188	-4.2479	-3.2896	-3.9396	-3.9188	-3.4896	-4.2	-3.875	-3.6771	-4.4104	-159.156	112.457	-65.833	129.467	80.261	36.408	31.934	-109.880	131.533	-91.049	-25.391	114.442	125.923	-8.906	123.066	134.048	0.00077223	0.00050562	0.00039345	877.59	4.7027e-06	6.5839e-06	751.78	319.51	5.7948e-06	1.7564e-05	297.47	106.74	101.24	42.93	1.1379e-05	52.589	0.0050125	0.0057374	0.0016024	938.07	6.2166e-05	6.4341e-05	816.73	344	6.5672e-05	6.9146e-05	337.74	120.92	115.39	48.136	7.2842e-05	60.496	139.348	-121.376	12.985	-162.213	-8.953	-82.106	-163.722	-157.025	-113.445	9.195	-158.879	-154.426	-152.770	-146.999	-39.050	-149.522	-8191	255	
58765.383	1	1	0	0	0.1461	0.085869	0.17407	0.24406	0.15466	0.14683	0.051733	0.04343	0.29881	0.043122	0.10806	0.10447	0.41786	0.16801	0.21749	0.094002	-3.1208	-3.8479	-4.2354	-3.5917	-4.1625	-3.8417	-3.5917	-4.4167	-3.6021	-3.7875	-4.4292	-3.3854	-4.0521	-3.8312	-3.3396	-4.3333	132.972	-97.173	174.050	174.057	167.981	70.696	-133.084	-90.031	-37.582	-170.342	-158.797	-14.798	139.599	107.646	63.097	59.816	0.0009264	0.0016017	0.00021623	872.64	8.1741e-06	1.2097e-05	747.5	315.52	7.0975e-06	1.3369e-05	294.41	105.37	99.966	42.521	1.2037e-05	52.086	0.0061068	0.0070287	0.0019782	948.92	7.6146e-05	7.8701e-05	825.38	344.43	7.6029e-05	7.8565e-05	339.15	120.82	115.54	48.108	7.7587e-05	60.318	145.695	-96.015	123.306	-162.041	133.967	-82.232	-163.756	-157.111	-101.052	-44.831	-159.018	-154.777	-152.817	-147.058	-114.727	-149.644	-8191	255	
58765.477	1	1	0	0	0.18665	0.30972	0.06574	0.20671	0.15127	0.12599	0.17162	0.13459	0.087166	0.20605	0.15476	0.26221	0.02681	0.10366	0.17769	0.090176	-3.2229	-3.6917	-4.125	-3.3875	-4.0896	-3.8563	-3.4688	-4.3812	-3.4479	-3.7042	-4.2521	-3.3792	-3.9854	-3.9667	-3.3896	-4.3146	-39.233	-147.156	-71.875	155.359	-27.989	29.701	78.974	93.878	-142.566	138.227	155.177	-149.668	16.087	-147.771	-116.165	42.845	0.00084744	0.00068337	0.00011543	873.44	1.6745e-06	1.0231e-05	742.71	314.41	8.428e-06	1.4274e-05	292.73	103.68	99.936	42.426	2.8639e-06	52.188	0.0063619	0.0073578	0.0020783	953.2	7.9046e-05	8.1027e-05	828.18	345.52	7.9929e-05	8.2699e-05	340.69	121.06	115.97	48.076	8.0253e-05	60.297	137.535	-28.006	-74.921	-162.068	164.187	159.606	-163.188	-157.287	-95.048	-63.131	-158.716	-154.613	-152.456	-146.827	-10.586	-149.422	-8191	255	
58765.574	1	1	0	0	0.18753	0.055296	0.089974	0.24511	0.066269	0.29863	0.23261	0.067253	0.10216	0.093164	0.10619	0.13508	0.10102	0.13759	0.2846	0.28334	-3.2646	-3.6375	-4.2229	-3.6	-3.8854	-4.1375	-3.4604	-4.3375	-3.5563	-3.4125	-4.3417	-3.4708	-4.0208	-4.1708	-3.325	-4.1083	179.568	-69.957	-57.220	51.203	-24.781	98.157	96.967	167.885	94.479	70.208	-103.524	-169.918	87.180	-68.414	142.242	159.012	0.00084848	0.00024406	0.00031045	873.49	1.0107e-05	9.3849e-06	746.29	315.57	7.7548e-06	5.3337e-06	294.83	105.11	100.04	42.228	6.1554e-06	52.513	0.0064051	0.0073784	0.0020824	953.62	7.8717e-05	8.1501e-05	830.31	345.79	7.8066e-05	8.0962e-05	341.83	121.54	115.66	48.079	7.767e-05	60.512	140.816	47.484	-113.620	-161.884	120.838	-165.274	-163.461	-156.916	-33.130	56.832	-158.880	-154.753	-153.023	-146.773	-126.538	-149.648	-8191	255	
58765.672	1	1	0	0	0.090455	0.24629	0.12087	0.12969	0.27073	0.17718	0.23891	0.1229	0.10874	0.05451	0.1017	0.12456	0.17438	0.10624	0.33778	0.14189	-3.45	-3.4229	-4.2625	-3.5062	-3.725	-4.3104	-3.4062	-4.2021	-3.7333	-3.45	-4.4271	-3.6646	-3.7917	-4.35	-3.3583	-4.2	182.098	-56.927	-0.013	137.350	167.782	19.800	43.051	62.865	149.292	-171.636	25.198	89.303	-139.813	33.515	159.992	145.524	0.00076246	0.00099052	0.00029549	875.39	8.2101e-06	1.4991e-05	743.53	314.31	8.2088e-06	8.0534e-06	296.8	104.92	100.03	42.5	1.1334e-05	52.582	0.0061442	0.007035	0.0019737	948.29	7.271e-05	7.5042e-05	823.61	342.5	7.1615e-05	7.4953e-05	338.69	120.11	114.53	47.692	7.0651e-05	59.852	134.520	11.554	-139.858	-162.116	1.191	0.749	-163.169	-157.075	-49.534	-90.334	-158.784	-154.698	-152.933	-146.956	5.927	-149.658	-8191	255	
58765.789	1	1	0	0	0.05354	0.073079	0.096929	0.10133	0.20052	0.12287	0.069684	0.23595	0.092645	0.080841	0.21477	0.1592	0.026321	0.052009	0.062487	0.042794	-3.6667	-3.3271	-4.15	-3.8208	-3.7958	-4.1813	-3.4771	-4.0188	-3.9875	-3.3208	-4.3104	-3.6021	-3.8021	-4.3812	-3.3917	-3.975	12.278	28.573	-65.871	83.100	91.467	84.049	18.206	74.015	-114.788	4.514	-1.170	-137.177	2.378	-7.956	181.534	-102.380	0.00099719	0.00032209	0.00018257	871.65	8.1674e-06	4.9339e-06	744.91	316.53	6.2083e-06	1.3979e-05	297.6	105.83	100.83	42.652	1.4382e-05	52.961	0.005582	0.0063309	0.0017724	939.22	6.5371e-05	6.826e-05	813.92	341.53	6.4807e-05	6.7544e-05	335.64	119.03	113.7	47.497	6.6203e-05	59.557	135.982	167.004	-132.399	-161.744	-50.462	-108.394	-163.385	-157.143	-26.100	-25.632	-158.913	-154.503	-152.519	-146.972	-96.338	-149.612	-8191	255	
58765.863	1	1	0	0	0.11586	0.024438	0.097833	0.30814	0.16727	0.020579	0.040004	0.19228	0.062393	0.10449	0.28745	0.10207	0.15718	0.27767	0.095055	0.18437	-3.875	-3.4667	-4.1646	-3.8229	-3.45	-4.2146	-3.5917	-3.7812	-4.1083	-3.1854	-4.1479	-3.7479	-3.4229	-4.2521	-3.3125	-3.675	88.719	-103.760	72.621	179.067	-123.552	-172.667	171.258	122.178	176.693	163.612	165.124	-154.692	-140.164	-158.576	-122.171	-7.240	0.0010757	0.00020426	0.00018305	872.48	5.5239e-06	4.0919e-06	748.66	316.34	1.0552e-05	5.0666e-06	296.77	105.68	100.15	42.564	4.0653e-06	52.574	0.005326	0.006169	0.0017248	938.44	6.5633e-05	6.9716e-05	817.61	342.18	6.9389e-05	7.2649e-05	337.96	120.25	114.48	47.804	7.3614e-05	60.135	136.778	-24.490	-92.545	-161.922	-18.665	31.773	-163.220	-156.900	4.436	-116.431	-158.621	-154.514	-152.551	-146.797	15.776	-149.539	-8191	255	
58765.961	1	1	0	0	0.12118	0.061336	0.19096	0.16969	0.10501	0.12912	0.019484	0.093392	0.11526	0.11596	0.26631	0.022632	0.096007	0.059045	0.16389	0.14009	-3.8604	-3.3958	-4.0042	-3.9583	-3.4521	-4.0854	-3.6667	-3.6146	-4.1146	-3.3063	-4.1271	-3.9354	-3.4729	-4.3104	-3.5792	-3.6813	100.657	-145.976	-21.380	127.049	-96.317	100.325	102.391	84.207	-138.465	144.874	-122.141	179.968	109.615	-33.962	-128.977	-33.179	0.00092785	8.1441e-05	0.00028495	871.73	1.0895e-05	7.7496e-06	740.39	312.8	1.1375e-05	3.4679e-06	292.62	106.22	99.597	42.311	5.0852e-06	52.699	0.0061002	0.0070572	0.0019874	945.27	7.6892e-05	8.048e-05	825.42	344.32	8.0241e-05	8.4522e-05	343.25	122.81	116.62	48.53	8.5748e-05	61.041	137.722	-108.374	-125.855	-161.917	-77.480	53.542	-163.366	-157.280	-11.129	-28.805	-158.850	-154.187	-152.967	-146.773	-17.603	-149.819	-8191	255	
58766.078	1	1	0	0	0.042694	0.091424	0.076559	0.12776	0.21756	0.084446	0.13436	0.28868	0.079582	0.069075	0.14273	0.26073	0.078764	0.091869	0.22621	0.30172	-3.7979	-3.4542	-3.85	-3.9583	-3.4062	-4.2604	-3.8479	-3.5958	-4.2979	-3.1646	-4.0312	-4.3104	-3.5875	-4.1521	-3.6688	-3.5021	171.938	114.402	104.305	86.253	73.111	44.968	-154.513	-123.068	81.570	21.206	-77.438	167.020	-128.783	-17.246	-59.129	107.854	0.00086164	0.00013819	0.00016717	866.53	3.9007e-06	1.3103e-05	742.34	315.19	1.3848e-05	1.7594e-05	291.33	104.66	98.922	41.83	1.9328e-05	51.476	0.0070551	0.0081457	0.0022871	955.86	8.8317e-05	9.372e-05	837.76	350.44	9.4622e-05	9.8828e-05	349.12	125.05	119.13	49.14	0.00010115	61.639	140.423	19.432	-154.710	-162.044	-165.128	-75.488	-163.432	-157.173	-84.853	-48.129	-159.013	-154.230	-152.553	-147.030	14.799	-149.164	-8191	255	
58766.176	1	1	0	0	0.098588	0.10679	0.13448	0.041629	0.16189	0.080717	0.13813	0.16883	0.097685	0.12221	0.16631	0.037264	0.081661	0.28844	0.18784	0.13516	-3.9604	-3.4042	-3.6688	-4.1062	-3.1458	-4.0979	-3.9813	-3.4833	-4.3792	-3.3812	-3.7917	-4.1104	-3.2188	-4.1583	-3.9042	-3.5104	108.088	-98.295	-55.312	-16.922	3.479	11.429	166.824	-170.642	-56.095	160.985	184.282	-147.763	-109.946	-139.781	120.838	-109.986	0.00083477	0.0017623	0.00025116	864.76	7.8802e-06	1.8242e-05	734.72	313.5	3.0929e-06	2.0215e-05	289.72	104.33	99.462	41.549	1.5434e-05	51.47	0.0082979	0.0095411	0.0026573	967.73	0.00010168	0.00010575	843.71	352.27	0.00010261	0.00010549	351.28	125.38	119.42	49.117	0.00010219	61.501	147.606	-76.831	-54.950	-161.993	9.889	-21.958	-163.380	-157.028	105.448	62.075	-158.681	-154.511	-152.759	-146.669	-12.785	-149.623	-8191	255	
58766.270	1	1	0	0	0.11016	0.0436	0.13893	0.12201	0.12598	0.2989	0.18154	0.11184	0.13228	0.19052	0.19219	0.1549	0.32704	0.19104	0.094645	0.32781	-3.8354	-3.5271	-3.6583	-4.2021	-3.3583	-3.9771	-4.0104	-3.3854	-4.2458	-3.4875	-3.8167	-4.3896	-3.5854	-4.1479	-4.2271	-3.5062	25.144	-33.889	87.765	168.013	-9.291	-161.057	184.018	167.228	32.349	-60.986	-159.785	68.640	-78.427	112.555	-118.222	161.844	0.00089621	0.0010079	0.00044784	868.03	6.666e-06	1.1083e-05	733.82	313.41	4.2068e-06	9.8938e-06	289.2	104.73	100.02	41.58	1.4938e-05	51.093	0.0083153	0.0095066	0.0026606	970.31	0.00010102	0.00010556	845.81	352.48	0.00010463	0.00010904	353.71	126.78	121.23	49.541	0.00011387	62.43	139.561	-162.651	-99.906	-161.984	-59.753	-35.220	-163.223	-157.169	-11.591	-59.186	-158.697	-154.365	-152.671	-147.149	-48.246	-149.428	-8191	255	
58766.367	1	1	0	0	0.058974	0.070227	0.12863	0.039064	0.13062	0.13824	0.075774	0.10068	0.099315	0.041058	0.11265	0.11439	0.19912	0.04702	0.14514	0.23411	-4.1083	-3.7021	-3.5271	-4.4333	-3.2521	-4.0229	-4.1104	-3.5292	-4.1292	-3.7354	-3.5208	-4.3521	-3.525	-3.8063	-4.0625	-3.3833	161.853	-36.262	91.293	108.316	-142.468	174.258	-29.000	136.421	145.111	66.249	-36.023	34.120	-78.044	-56.714	-64.177	-150.166	0.00072033	0.00039488	0.00038457	868.84	9.2691e-06	1.1812e-05	734.41	311.62	9.7929e-06	2.1692e-05	290.89	104.64	99.209	41.255	1.0576e-05	51.08	0.0095857	0.011228	0.0032035	994.31	0.00012498	0.00013035	873.64	361.61	0.00012987	0.00013401	368.32	131.81	125.55	50.939	0.00013752	64.328	111.562	121.958	-11.971	-162.061	-80.535	22.572	-163.165	-157.340	44.496	30.012	-158.806	-154.891	-152.274	-147.018	-101.093	-149.789	-8191	255	
58766.461	1	1	0	0	0.1809	0.28787	0.078762	0.11371	0.063711	0.11326	0.069915	0.16883	0.095849	0.049862	0.15493	0.036724	0.2724	0.023825	0.18095	0.10229	-3.875	-3.7313	-3.2854	-4.5604	-3.4813	-3.8917	-4.2917	-3.5229	-4.1729	-3.9729	-3.5708	-4.4375	-3.6479	-3.8312	-4.1896	-3.3917	-0.218	50.407	119.827	-91.828	18.898	-124.311	74.575	145.912	167.049	-3.585	127.605	65.005	151.000	39.373	-56.556	-160.228	0.0012076	0.0010305	0.00034394	865.35	1.1819e-06	8.8781e-06	729.64	310.63	1.595e-05	1.4403e-05	286.28	103.11	98.787	41.509	1.4695e-05	50.75	0.011157	0.012964	0.0036583	1004.7	0.00013874	0.00014404	880.83	362.47	0.00013842	0.00014309	369.58	132.22	125.96	51.139	0.00013919	64.086	140.293	-40.255	-162.867	-162.004	-164.727	-32.548	-163.363	-157.155	21.100	-67.174	-158.629	-154.528	-152.359	-147.036	125.084	-149.309	-8191	255	
58766.559	1	1	0	0	0.043772	0.23636	0.079003	0.10796	0.16312	0.079551	0.049962	0.19362	0.11809	0.13566	0.067559	0.057	0.13347	0.13521	0.23036	0.099774	-3.7562	-4.0062	-3.3854	-4.4208	-3.6417	-3.5729	-4.3812	-3.3354	-4.0042	-4.0375	-3.4042	-4.2125	-3.6604	-3.6583	-4.2104	-3.4417	-10.221	-172.941	-158.403	162.713	42.476	81.163	-19.053	88.164	6.025	-109.411	104.646	51.097	-148.909	-67.977	16.799	-51.420	0.00083556	0.001199	0.00021159	860.44	7.2808e-06	2.802e-05	727.88	308.44	1.6639e-05	1.0639e-05	285.17	103.37	98.135	41.387	1.2304e-05	50.815	0.011064	0.012849	0.0035949	997.15	0.00013464	0.00014081	875.06	359.72	0.00013579	0.00014179	367.12	131.84	125.24	51.083	0.00013883	64.063	153.024	-68.135	148.072	-161.720	-50.992	122.289	-163.176	-157.169	-103.321	172.798	-158.788	-154.520	-152.468	-146.931	-62.094	-149.698	-8191	255	
58766.656	1	1	0	0	0.20349	0.16862	0.061102	0.15187	0.13211	0.11605	0.31219	0.14273	0.20613	0.13712	0.39694	0.14621	0.2743	0.064559	0.18949	0.12655	-3.6042	-3.9521	-3.1979	-4.4729	-3.9375	-3.4792	-4.1625	-3.5938	-3.8583	-4.1438	-3.4938	-4.1604	-4.1979	-3.6542	-4.2417	-3.5938	-35.076	-91.552	-152.083	-166.540	106.236	173.089	94.208	150.531	84.846	25.505	163.139	83.873	175.916	112.289	121.631	-122.139	0.00098312	0.00046724	0.00039873	861.32	1.9222e-06	7.1352e-06	727.77	309.14	1.4116e-05	2.7667e-05	289.21	104.28	99.29	41.638	1.4543e-05	51.433	0.010995	0.012834	0.0035644	995.4	0.00013185	0.00013515	868.48	357.7	0.00012457	0.00012884	360.21	128.68	122.14	49.837	0.00011695	62.457	150.749	-52.700	-70.964	-161.902	-118.015	-153.408	-163.173	-157.148	-107.479	-72.089	-159.334	-154.707	-152.487	-146.812	-99.496	-149.678	-8191	255	
58766.750	1	1	0	0	0.095169	0.25745	0.20253	0.34286	0.28033	0.071724	0.19725	0.19661	0.17527	0.11696	0.092276	0.15145	0.1401	0.21098	0.029629	0.12182	-3.3021	-4.1	-3.2979	-4.1146	-3.85	-3.5792	-4.3042	-3.6917	-3.7708	-4.3104	-3.3417	-4.0521	-4.0646	-3.425	-4.2479	-3.6688	-160.018	52.489	121.671	-173.030	30.851	-89.390	97.986	-117.128	148.857	-128.843	121.908	95.819	-136.675	-88.317	160.521	61.599	0.00099696	0.00075963	0.0002446	863.6	1.9556e-05	1.5827e-05	735.48	311.81	7.7333e-06	5.7906e-06	290.42	104.76	99.516	41.732	9.3216e-06	51.078	0.0091471	0.010605	0.0029536	977.39	0.00011028	0.00011369	852.8	353.05	0.00010688	0.00011128	352.67	126.25	120.23	49.141	0.00010463	61.149	134.336	1.588	-165.256	-161.862	-85.959	-105.674	-163.242	-157.140	-102.555	-111.388	-158.821	-154.617	-152.907	-147.169	-75.964	-149.434	-8191	255	
58766.871	1	1	0	0	0.17103	0.19647	0.052269	0.25719	0.18609	0.11733	0.13915	0.10523	0.1933	0.16858	0.23588	0.12935	0.039527	0.04836	0.20309	0.2319	-3.2354	-4.2354	-3.5187	-3.9417	-4.0979	-3.3937	-4.1562	-3.7875	-3.6229	-4.2188	-3.5104	-4.0167	-4.0396	-3.4646	-4.125	-3.9125	14.599	-170.931	111.761	97.769	127.081	131.695	-27.354	73.390	175.528	12.063	-142.085	159.516	-4.813	-149.576	-87.827	18.512	0.00097706	0.0008441	0.00021804	871.31	1.228e-05	1.2422e-05	736.75	312.31	1.2721e-05	1.149e-05	288.88	103.19	99.164	41.171	8.991e-06	50.294	0.0082161	0.0095176	0.0026436	971.7	9.9728e-05	0.00010263	841.26	350.43	9.9405e-05	0.00010525	349.39	124.28	119.68	48.684	0.00010663	60.623	131.747	-97.666	-126.827	-161.783	-112.305	12.843	-163.380	-156.650	-110.597	-2.186	-159.056	-154.414	-152.839	-147.180	55.796	-149.467	-8191	255	
58766.965	1	1	0	0	0.14391	0.17197	0.17591	0.14553	0.11995	0.1857	0.26286	0.13805	0.1232	0.17655	0.091432	0.13255	0.20746	0.11375	0.12346	0.25816	-3.275	-4.1813	-3.3688	-3.9437	-4.1708	-3.3604	-4.3042	-3.9396	-3.3438	-4.2812	-3.6625	-3.8083	-4.0563	-3.4313	-4.1729	-4.0021	80.425	-99.369	26.968	-61.215	-154.040	-104.595	83.220	59.336	154.369	-128.149	-34.479	90.393	175.458	-54.187	-157.810	125.867	0.00090017	0.00056686	8.6996e-05	873.8	4.3662e-06	4.8635e-06	734.57	312.7	5.9087e-06	1.339e-05	289.23	102.96	99.949	41.1	9.1802e-06	50.562	0.0085343	0.0099505	0.0027356	975.81	0.00010223	0.00010569	841.14	350.94	9.9038e-05	0.00010262	345.65	122.65	118.12	48.007	9.4983e-05	59.77	132.407	83.540	-108.072	-161.748	-99.135	-41.759	-163.340	-157.294	-77.009	-126.393	-158.906	-154.669	-152.803	-146.972	-168.823	-149.372	-8191	255	
58767.062	1	1	0	0	0.049987	0.12682	0.25653	0.095247	0.29139	0.11134	0.28245	0.25251	0.062318	0.34008	0.12483	0.079165	0.22207	0.16549	0.13829	0.27126	-2.9375	-4.3042	-3.5458	-3.8312	-4.2229	-3.4833	-4.15	-4.2771	-3.4958	-4.2271	-3.825	-3.7292	-4.425	-3.4938	-3.875	-4.2188	183.950	70.770	-66.000	-34.240	-103.848	138.987	175.443	-119.168	-3.086	-25.463	91.436	-65.239	-160.795	168.400	-170.780	-168.783	0.00095945	0.001727	0.00011602	868.87	5.8463e-06	9.7652e-06	737.68	314.21	6.0961e-06	1.4861e-05	290.61	103.3	99.164	41.302	1.0214e-05	50.786	0.0075638	0.0087426	0.0024299	964.1	9.2344e-05	9.5251e-05	831.63	349.23	9.0769e-05	9.469e-05	343.35	122.34	117.34	47.844	8.9055e-05	59.512	128.174	-76.009	175.250	-162.107	139.281	35.746	-163.035	-157.110	-113.670	44.275	-158.920	-154.423	-152.721	-146.675	177.231	-149.718	-8191	255	
58767.156	1	1	0	0	0.055783	0.18605	0.20294	0.13533	0.066946	0.13762	0.13636	0.08677	0.17107	0.055133	0.13957	0.062306	0.18173	0.40867	0.25371	0.080056	-3.0333	-4.2083	-3.6521	-3.5833	-4.2458	-3.5521	-3.9354	-4.3187	-3.3563	-4.1417	-3.8542	-3.45	-4.4146	-3.5917	-3.7208	-4.2438	143.345	-160.264	-154.611	58.403	-171.870	83.715	156.993	-50.523	-35.478	154.437	116.980	-49.886	-141.902	-129.715	-67.928	98.069	0.00058838	0.00035975	0.00020326	870.68	6.0629e-06	9.1201e-06	738.3	314.6	1.0365e-05	3.1297e-06	291.23	104.22	99.583	41.675	1.6101e-07	51.272	0.0071042	0.0081727	0.0022469	958.38	8.4361e-05	8.5996e-05	822.32	347.05	8.1471e-05	8.4229e-05	338.85	120.81	115.54	47.217	7.6589e-05	58.695	161.673	-105.241	-81.813	-162.127	27.855	-36.668	-163.172	-157.070	28.497	45.121	-158.605	-154.482	-152.801	-146.994	-149.995	-149.625	-8191	255	
58767.254	1	1	0	0	0.042543	0.19052	0.1103	0.27176	0.16991	0.062118	0.069671	0.078748	0.13262	0.063269	0.071326	0.20578	0.1531	0.13447	0.15487	0.13825	-2.9167	-4.1917	-3.8896	-3.5812	-4.1625	-3.5771	-3.7896	-4.325	-3.4417	-3.9854	-3.9125	-3.55	-4.3125	-3.6542	-3.5958	-4.4313	-5.913	124.023	-9.879	151.989	-36.321	140.563	-161.072	134.994	11.890	-144.026	52.678	139.063	-125.253	145.508	-161.919	34.061	0.00083471	0.00078309	0.00012444	872.77	1.3367e-05	7.0904e-06	734.99	315.23	1.1677e-05	3.6509e-06	292.37	105.94	100.85	41.912	6.8678e-06	51.804	0.005984	0.006791	0.0018575	941.77	6.8429e-05	6.9674e-05	806.49	341.11	6.6539e-05	6.8435e-05	331.32	119.35	113.8	46.802	6.6294e-05	58.489	134.917	-169.008	-6.875	-162.043	-161.714	41.206	-163.285	-157.093	3.231	30.207	-158.744	-154.542	-152.645	-147.035	-70.059	-149.595	-8191	255	
58767.375	1	1	0	0	0.1662	0.1471	0.057354	0.39523	0.053307	0.05976	0.13528	0.19577	0.076691	0.096113	0.21835	0.18709	0.10953	0.23565	0.13366	0.18324	-3.1813	-3.9229	-3.9958	-3.5542	-4.3458	-3.6688	-3.6125	-4.45	-3.4188	-3.8083	-4.2292	-3.3417	-4.3271	-3.9083	-3.5104	-4.2646	-97.681	-38.435	-8.129	158.472	62.121	-21.960	107.362	138.441	137.007	123.986	-5.266	-121.189	168.348	161.193	9.906	13.833	0.00097522	0.00012594	0.00036784	873.37	6.2331e-06	1.9914e-05	731.82	314.94	3.1383e-06	3.4454e-06	291.03	106.54	100.79	42.22	1.4242e-05	52.288	0.005396	0.0062052	0.0017637	937.63	6.7263e-05	6.9842e-05	806.68	341.18	6.6864e-05	6.9564e-05	332	119.96	114.09	47.23	6.5591e-05	58.895	146.105	-8.790	184.016	-162.006	-25.886	-89.578	-163.394	-157.051	-95.232	-30.656	-158.778	-154.420	-152.646	-146.790	-103.526	-149.514	-8191	255	
58767.473	1	1	0	0	0.092659	0.28299	0.2717	0.40586	0.17851	0.30175	0.17992	0.23352	0.19294	0.06571	0.22789	0.2376	0.035385	0.16186	0.097813	0.15319	-3.0083	-3.9792	-4.0583	-3.4188	-4.1	-3.7375	-3.5125	-4.3812	-3.3917	-3.7979	-4.1396	-3.4729	-4.1458	-3.9688	-3.5229	-4.3729	137.714	28.779	-17.796	99.815	51.256	154.176	-90.265	-169.004	61.122	-35.276	142.214	136.284	-145.420	83.684	33.917	-114.320	0.00085333	0.00047355	0.00011654	869.31	3.3291e-06	5.8668e-06	738.12	315.32	9.009e-06	7.3363e-06	293.41	107.72	101.27	42.56	6.8281e-06	52.802	0.00525	0.0060786	0.0016989	932.92	6.3946e-05	6.6499e-05	805.12	340.17	6.3121e-05	6.5887e-05	331.9	120.28	113.95	47.425	6.4781e-05	59.311	149.652	-159.840	-156.441	-162.059	-23.173	-1.991	-163.213	-156.663	-61.192	178.203	-159.032	-154.591	-152.808	-146.880	-162.258	-149.671	-8191	255	
58767.566	1	1	0	0	0.14745	0.092813	0.14234	0.070912	0.15746	0.29524	0.2065	0.084802	0.23495	0.19113	0.18817	0.37314	0.10081	0.2157	0.069315	0.24031	-3.1271	-3.7188	-4.0396	-3.475	-4.0396	-3.9437	-3.6792	-4.2917	-3.6667	-3.575	-4.4042	-3.4271	-4.1333	-4.0604	-3.3542	-4.3271	175.599	148.908	-150.991	68.786	-40.363	168.013	111.298	168.597	-87.258	-138.067	123.079	144.645	-119.375	173.312	122.911	118.847	0.00096273	0.0001893	0.00013613	866.28	4.9338e-06	7.0484e-06	735.61	315.58	9.7238e-06	1.3464e-05	294.09	107.16	101.58	42.779	9.9304e-06	52.85	0.0052446	0.0060525	0.0017046	931.84	6.4351e-05	6.7723e-05	804.48	340.56	6.4746e-05	6.7795e-05	332.57	120.71	114.48	47.589	6.4879e-05	59.451	144.385	-75.701	17.797	-162.138	-18.392	62.166	-163.458	-157.218	-5.187	85.504	-158.613	-154.653	-152.716	-146.766	-77.227	-149.765	-8191	255	
58767.660	1	1	0	0	0.16372	0.2721	0.10441	0.14285	0.17053	0.17707	0.23338	0.11411	0.19831	0.31252	0.22752	0.078374	0.05161	0.17504	0.28657	0.36407	-3.2521	-3.5979	-4.1375	-3.6375	-3.9938	-4.1792	-3.4021	-4.2375	-3.8167	-3.5708	-4.3271	-3.5563	-3.8167	-4.1562	-3.2396	-4.425	-139.925	-127.884	145.603	101.605	59.528	69.551	157.925	143.637	-112.978	-126.881	139.935	61.258	-147.397	-80.640	103.211	119.801	0.00094929	0.00074572	0.00045072	868.74	9.6628e-06	8.3543e-06	738.03	314.9	6.2835e-06	1.2673e-05	293.29	106.98	101.08	42.801	2.6001e-06	53.279	0.0052283	0.0060442	0.0016891	930.52	6.3557e-05	6.6987e-05	802.49	340.03	6.4087e-05	6.5848e-05	330.97	120.46	114.31	47.466	6.1947e-05	59.42	147.986	173.104	-125.903	-161.917	7.730	-46.167	-163.544	-156.990	81.911	5.878	-158.805	-154.595	-152.663	-146.930	-153.477	-149.650	-8191	255	
58767.758	1	1	0	0	0.062115	0.088969	0.12824	0.081481	0.12438	0.10386	0.1414	0.16479	0.20367	0.14067	0.10102	0.31604	0.19486	0.15693	0.19615	0.082434	-3.4917	-3.4917	-4.3604	-3.6875	-3.8521	-4.3833	-3.4813	-4.1604	-3.9208	-3.5979	-4.3917	-3.5833	-3.6937	-4.2958	-3.2417	-4.2396	138.192	-14.172	88.118	57.512	-59.387	69.384	82.780	-144.878	127.423	-68.735	70.492	163.984	179.403	-173.120	34.579	-164.503	0.00087969	0.0007575	0.00030997	866.94	7.2976e-06	7.9256e-06	736.19	317.49	8.4778e-06	1.4645e-05	295.63	109.28	102.88	43.266	4.68e-06	53.899	0.0049479	0.0056449	0.0015594	925.87	5.8106e-05	5.9294e-05	795.6	339.45	5.5032e-05	5.6079e-05	328.24	119.97	113.72	47.258	5.1068e-05	59.162	137.029	-93.373	172.198	-161.830	-173.373	38.993	-163.295	-156.852	-98.031	9.271	-158.808	-154.809	-152.890	-147.099	-24.363	-149.609	-8191	255	
58767.855	1	1	0	0	0.012172	0.1906	0.17518	0.35405	0.23977	0.077468	0.27606	0.23129	0.30508	0.27785	0.15331	0.098807	0.2525	0.17694	0.073836	0.16638	-3.8417	-3.4042	-4.2438	-3.7354	-3.5146	-4.3125	-3.4479	-4.0813	-4.1	-3.3729	-4.3	-3.7229	-3.6792	-4.2542	-3.4188	-4.075	43.732	33.847	-132.998	144.898	-29.185	46.545	173.588	36.366	-159.020	44.030	54.761	-128.697	175.632	171.959	98.253	68.710	0.00093208	0.00048982	0.00011324	873.88	1.0636e-05	8.7654e-06	742.56	319.64	7.4959e-06	3.5631e-06	301.28	111.45	104.22	43.731	5.935e-06	55.164	0.0040876	0.0044783	0.0012578	918.82	4.5677e-05	4.6563e-05	789.09	337.08	4.3427e-05	4.3771e-05	326.59	120.41	112.72	47.278	4.1765e-05	59.637	124.411	-86.582	-122.350	-161.832	-99.764	-26.825	-163.184	-156.997	-42.786	-144.663	-158.685	-154.749	-152.936	-146.743	-6.894	-149.739	-8191	255	
58767.949	1	1	0	0	0.24174	0.12976	0.14682	0.08784	0.3381	0.11655	0.14806	0.32559	0.1327	0.035246	0.20798	0.10499	0.10053	0.16707	0.060798	0.13291	-3.7979	-3.3104	-4.3042	-3.8354	-3.5292	-4.3146	-3.5521	-3.9667	-4.1583	-3.2833	-4.1188	-3.8542	-3.4375	-4.2479	-3.4292	-3.8292	61.704	168.894	14.689	168.900	-46.085	-96.044	136.015	106.871	-34.169	-166.127	79.905	-29.971	-134.726	38.226	-89.823	119.565	0.00094548	0.0002551	0.00016026	872.51	9.0221e-06	8.3203e-06	743.37	319.27	3.8046e-06	4.2321e-06	300.57	111.95	104.33	44.322	1.0577e-05	55.318	0.0034541	0.0038773	0.0010759	913.02	4.0765e-05	4.2385e-05	785.79	335.67	4.1187e-05	4.2185e-05	326.37	120.77	112.7	47.53	4.2286e-05	59.909	153.045	-133.834	-131.002	-161.670	-130.531	-6.332	-163.216	-157.049	-71.195	-146.582	-158.840	-154.331	-152.718	-146.877	-120.111	-149.819	-8191	255	
58768.047	1	1	0	0	0.36333	0.074292	0.055437	0.21358	0.11026	0.20359	0.07843	0.1288	0.25635	0.050712	0.01888	0.090496	0.047407	0.14578	0.30167	0.19486	-3.7708	-3.3396	-3.9708	-3.9313	-3.3917	-4.2625	-3.6729	-3.8063	-4.1271	-3.4958	-4.1833	-3.8792	-3.5833	-4.2542	-3.6063	-3.6	101.326	-2.749	-97.973	160.237	41.126	-75.556	113.215	43.443	70.218	179.774	-47.303	180.439	-146.513	125.948	152.701	-160.645	0.0010015	0.00074959	0.00024758	864.06	1.0013e-05	3.6409e-06	738.44	318.45	1.1686e-05	1.4771e-05	302.63	112.37	105.17	44.165	7.3764e-06	55.549	0.0034602	0.0039229	0.0010973	907.79	4.1283e-05	4.2527e-05	782.88	335.34	4.068e-05	4.179e-05	325.9	120.95	113.1	47.581	4.0586e-05	60.003	132.500	-152.662	-98.458	-161.761	-38.770	-38.477	-163.265	-157.316	-67.477	-47.823	-159.168	-154.438	-152.754	-146.947	-40.763	-149.608	-8191	255	
58768.141	1	1	0	0	0.14032	0.17495	0.033631	0.14264	0.18674	0.0642	0.057518	0.2218	0.025027	0.075849	0.34282	0.11206	0.11723	0.12811	0.078071	0.10457	-3.9521	-3.2792	-4.0708	-4.1438	-3.3646	-4.2583	-3.8187	-3.6688	-4.2917	-3.4292	-4.0458	-4.3313	-3.4292	-4.2354	-3.8854	-3.6021	-154.497	152.978	171.807	-109.837	56.993	-24.547	-68.708	91.495	146.182	46.796	157.359	-96.628	-83.754	-156.314	-89.743	165.012	0.0011086	0.00024805	0.00020684	865.89	6.9953e-06	2.5117e-06	741.56	319.27	7.3086e-06	8.6417e-06	304.2	113.35	105.55	44.175	2.9941e-06	55.488	0.0033147	0.0037426	0.0010437	904.19	3.9385e-05	4.0947e-05	784.54	335.28	4.0301e-05	4.1565e-05	326.21	121.75	113.47	47.599	4.2173e-05	60.2	148.735	-125.485	-54.647	-162.219	-84.384	37.231	-163.181	-157.353	-66.186	-21.449	-158.662	-154.741	-152.449	-146.767	125.267	-149.635	-8191	255	
58768.262	1	1	0	0	0.10018	0.1476	0.094033	0.25086	0.023077	0.069437	0.17049	0.15767	0.16019	0.093296	0.24066	0.09195	0.16017	0.10643	0.17003	0.27255	-3.9521	-3.4208	-3.6646	-4.2333	-3.3312	-4.2375	-4.1021	-3.5312	-4.325	-3.4792	-3.7854	-4.3479	-3.6125	-4.0104	-3.9708	-3.4833	106.303	-164.246	-173.106	69.843	56.990	143.922	148.495	46.068	-20.340	-53.214	125.781	-89.681	139.682	156.435	-22.123	184.592	0.00084266	0.00052143	0.00014745	860.11	7.6321e-06	7.7009e-06	741.59	318.53	3.146e-06	9.5736e-06	301.5	113.96	104.42	44.423	7.3388e-06	55.861	0.0034066	0.0038362	0.0010823	903.23	4.0178e-05	4.161e-05	783.94	334.37	4.0084e-05	4.1787e-05	326.35	121.88	112.82	47.72	4.2058e-05	60.381	142.617	-81.770	-152.140	-161.783	-81.505	-89.698	-163.257	-157.009	-82.376	-4.736	-158.649	-154.577	-152.811	-146.903	31.868	-149.693	-8191	255	
58768.359	1	1	0	0	0.16892	0.086061	0.24465	0.15802	0.2343	0.044967	0.06028	0.11981	0.11719	0.18063	0.24035	0.073588	0.33116	0.33303	0.098148	0.15839	-3.9583	-3.65	-3.5812	-4.4458	-3.4125	-3.9646	-4.1208	-3.5792	-4.15	-3.7708	-3.6375	-4.3958	-3.5625	-3.9875	-3.925	-3.55	104.072	82.754	-37.484	92.548	117.571	35.713	-77.376	59.399	86.707	0.762	99.059	-99.963	-162.375	-132.336	151.185	28.658	0.00097844	0.0010647	0.00013419	857.51	5.686e-06	1.1277e-05	732.55	316.85	9.2873e-06	1.1554e-05	298.87	112.02	104.32	44.064	7.5743e-06	55.453	0.0034599	0.0039894	0.0011273	900.81	4.2838e-05	4.5174e-05	782.49	334.1	4.4134e-05	4.6605e-05	325.5	121.89	113.42	47.711	4.5351e-05	60.288	152.139	-57.365	-135.848	-161.869	-81.752	-32.004	-163.250	-157.047	-74.453	18.696	-158.796	-154.489	-152.626	-147.253	7.350	-149.819	-8191	255	
#DATA ENDS
