BOXY.EXE: ISS Imagent and Oximeter Data Acquisition Program Version 0.80
Ascii Record File

#ACQ INFORMATION
2  Detector Channels 
16  External MUX Channels 
1  Auxiliary Channels 
5000  Waveform (CCF) Frequency (Hz)
1  Waveforms Skipped 
30  Waveforms Averaged 
1  Cycles Averaged 
16  Acquisitions per Waveform 
10.0806  Updata Rate (Hz) 

#FILE INFORMATION
TRUE -- External MUX Channel results are PARSED.
FALSE -- AC DC and Phase are NOT grouped.
TRUE -- Companion Program Settings File CREATED.
FALSE -- AC data not excluded
FALSE -- DC data not excluded
FALSE -- Phase data not excluded
FALSE -- Auxillary Chn. data not excluded
Tab delimiters

#CALIBRATION STATE
TRUE -- Waveform Calibration Values APPLIED.


#AUX CALIBRATION VALUES
Val Type	aux-1	

Term	1.0000e+00	
Factor	0.0000e+00	


#WF CALIBRATION VALUES
A = Detector Channel
Val Type	A-AC1	A-AC2	A-AC3	A-AC4	A-AC5	A-AC6	A-AC7	A-AC8	A-AC9	A-AC10	A-AC11	A-AC12	A-AC13	A-AC14	A-AC15	A-AC16	A-DC1	A-DC2	A-DC3	A-DC4	A-DC5	A-DC6	A-DC7	A-DC8	A-DC9	A-DC10	A-DC11	A-DC12	A-DC13	A-DC14	A-DC15	A-DC16	A-Ph1	A-Ph2	A-Ph3	A-Ph4	A-Ph5	A-Ph6	A-Ph7	A-Ph8	A-Ph9	A-Ph10	A-Ph11	A-Ph12	A-Ph13	A-Ph14	A-Ph15	A-Ph16	

Term	0.00000e+00	0.00000e+00	0.00000e+00	0.00000e+00	0.00000e+00	0.00000e+00	0.00000e+00	0.00000e+00	0.00000e+00	0.00000e+00	0.00000e+00	0.00000e+00	0.00000e+00	0.00000e+00	0.00000e+00	0.00000e+00	0.00000e+00	0.00000e+00	0.00000e+00	0.00000e+00	0.00000e+00	0.00000e+00	0.00000e+00	0.00000e+00	0.00000e+00	0.00000e+00	0.00000e+00	0.00000e+00	0.00000e+00	0.00000e+00	0.00000e+00	0.00000e+00	0.00000e+00	0.00000e+00	0.00000e+00	0.00000e+00	0.00000e+00	0.00000e+00	0.00000e+00	0.00000e+00	0.00000e+00	0.00000e+00	0.00000e+00	0.00000e+00	0.00000e+00	0.00000e+00	0.00000e+00	0.00000e+00	
Factor	1.00000e+00	1.00000e+00	1.00000e+00	1.00000e+00	1.00000e+00	1.00000e+00	1.00000e+00	1.00000e+00	1.00000e+00	1.00000e+00	1.00000e+00	1.00000e+00	1.00000e+00	1.00000e+00	1.00000e+00	1.00000e+00	1.00000e+00	1.00000e+00	1.00000e+00	1.00000e+00	1.00000e+00	1.00000e+00	1.00000e+00	1.00000e+00	1.00000e+00	1.00000e+00	1.00000e+00	1.00000e+00	1.00000e+00	1.00000e+00	1.00000e+00	1.00000e+00	X	X	X	X	X	X	X	X	X	X	X	X	X	X	X	X	

B = Detector Channel
Val Type	B-AC1	B-AC2	B-AC3	B-AC4	B-AC5	B-AC6	B-AC7	B-AC8	B-AC9	B-AC10	B-AC11	B-AC12	B-AC13	B-AC14	B-AC15	B-AC16	B-DC1	B-DC2	B-DC3	B-DC4	B-DC5	B-DC6	B-DC7	B-DC8	B-DC9	B-DC10	B-DC11	B-DC12	B-DC13	B-DC14	B-DC15	B-DC16	B-Ph1	B-Ph2	B-Ph3	B-Ph4	B-Ph5	B-Ph6	B-Ph7	B-Ph8	B-Ph9	B-Ph10	B-Ph11	B-Ph12	B-Ph13	B-Ph14	B-Ph15	B-Ph16	

Term	0.00000e+00	0.00000e+00	0.00000e+00	0.00000e+00	0.00000e+00	0.00000e+00	0.00000e+00	0.00000e+00	0.00000e+00	0.00000e+00	0.00000e+00	0.00000e+00	0.00000e+00	0.00000e+00	0.00000e+00	0.00000e+00	0.00000e+00	0.00000e+00	0.00000e+00	0.00000e+00	0.00000e+00	0.00000e+00	0.00000e+00	0.00000e+00	0.00000e+00	0.00000e+00	0.00000e+00	0.00000e+00	0.00000e+00	0.00000e+00	0.00000e+00	0.00000e+00	-1.87007e+02	-1.34050e+02	-1.37969e+02	-1.83492e+02	-8.77581e+01	-7.32534e+01	-1.58200e+02	-1.62015e+02	-8.49259e+01	-6.14154e+01	-1.70701e+02	-1.71279e+02	-1.78850e+02	-1.76863e+02	-7.95451e+01	-1.49780e+02	
Factor	3.76548e-05	1.51883e-04	4.69219e-05	1.64088e-01	1.62550e-06	1.73594e-06	1.85429e-01	6.04996e-02	1.59724e-06	1.91212e-06	1.00259e-01	3.43440e-02	3.12106e-02	1.08452e-02	1.69460e-06	1.54572e-02	6.25193e-06	7.31936e-06	2.04454e-06	7.75377e-02	7.75653e-08	8.04797e-08	8.23581e-02	2.86645e-02	7.78837e-08	8.09403e-08	4.60320e-02	1.57531e-02	1.49403e-02	5.16929e-03	7.88347e-08	7.14857e-03	X	X	X	X	X	X	X	X	X	X	X	X	X	X	X	X	



#DISTANCE SETTINGS
A = Detector Channel
A-1	A-2	A-3	A-4	A-5	A-6	A-7	A-8	A-9	A-10	A-11	A-12	A-13	A-14	A-15	A-16	

2.5000e+00	3.0000e+00	2.5000e+00	3.0000e+00	2.0000e+00	3.0000e+00	1.5000e+00	3.0000e+00	3.0000e+00	3.0000e+00	3.0000e+00	3.0000e+00	3.0000e+00	3.0000e+00	1.5000e+00	3.0000e+00	

B = Detector Channel
B-1	B-2	B-3	B-4	B-5	B-6	B-7	B-8	B-9	B-10	B-11	B-12	B-13	B-14	B-15	B-16	

1.0000e+01	1.0000e+01	1.0000e+01	1.4400e+00	1.0000e+01	1.0000e+01	1.5100e+00	1.9400e+00	1.0000e+01	1.0000e+01	1.9900e+00	2.4900e+00	2.4100e+00	2.9000e+00	1.0000e+01	2.9800e+00	




#DATA BEGINS
time	group	step	mark	flag	A-AC1	A-AC2	A-AC3	A-AC4	A-AC5	A-AC6	A-AC7	A-AC8	A-AC9	A-AC10	A-AC11	A-AC12	A-AC13	A-AC14	A-AC15	A-AC16	A-DC1	A-DC2	A-DC3	A-DC4	A-DC5	A-DC6	A-DC7	A-DC8	A-DC9	A-DC10	A-DC11	A-DC12	A-DC13	A-DC14	A-DC15	A-DC16	A-Ph1	A-Ph2	A-Ph3	A-Ph4	A-Ph5	A-Ph6	A-Ph7	A-Ph8	A-Ph9	A-Ph10	A-Ph11	A-Ph12	A-Ph13	A-Ph14	A-Ph15	A-Ph16	B-AC1	B-AC2	B-AC3	B-AC4	B-AC5	B-AC6	B-AC7	B-AC8	B-AC9	B-AC10	B-AC11	B-AC12	B-AC13	B-AC14	B-AC15	B-AC16	B-DC1	B-DC2	B-DC3	B-DC4	B-DC5	B-DC6	B-DC7	B-DC8	B-DC9	B-DC10	B-DC11	B-DC12	B-DC13	B-DC14	B-DC15	B-DC16	B-Ph1	B-Ph2	B-Ph3	B-Ph4	B-Ph5	B-Ph6	B-Ph7	B-Ph8	B-Ph9	B-Ph10	B-Ph11	B-Ph12	B-Ph13	B-Ph14	B-Ph15	B-Ph16	aux-1	digaux	

58854.754	1	1	0	256	0.15246	0.21949	0.12824	0.23778	0.16222	0.11684	0.18312	0.13508	0.16849	0.19945	0.41247	0.097603	0.070797	0.13522	0.10675	0.17819	-3.0021	-3.7313	-4.2479	-3.6229	-4.0479	-3.7354	-3.7104	-4.3646	-3.4708	-3.9521	-4.2542	-3.5792	-4.2354	-3.8917	-3.4042	-4.3542	162.327	342.373	199.586	107.093	205.864	171.603	390.753	81.207	152.066	207.073	395.101	330.640	173.900	133.794	366.711	356.410	0.0010114	0.00043169	6.918e-05	1039.5	2.8264e-06	4.9351e-06	1078.1	333.2	5.2054e-06	7.7092e-06	394.69	133.39	107.99	42.433	4.5454e-06	60.403	0.00049139	0.00044331	0.00012067	968.7	4.812e-06	4.6163e-06	998.43	310.28	4.6832e-06	4.7726e-06	369.29	124.43	100.89	40.213	4.6624e-06	57.02	113.542	133.286	172.986	93.340	225.937	212.493	93.106	98.555	218.099	217.875	97.993	102.973	103.903	109.942	211.772	108.018	-8191	255	
58854.852	1	1	0	0	0.25647	0.13852	0.027571	0.23684	0.14917	0.2879	0.077418	0.026494	0.056825	0.072198	0.15733	0.22272	0.24888	0.08971	0.17721	0.11556	-3.1542	-3.7188	-4.1667	-3.5917	-4.2167	-3.9604	-3.5896	-4.4667	-3.5312	-3.7229	-4.3875	-3.4792	-4.1583	-4.0583	-3.3583	-4.4396	181.157	196.012	185.152	400.039	221.581	139.716	437.974	299.661	334.484	98.390	418.263	386.188	365.820	156.262	387.087	301.179	0.0010713	0.00025388	0.00011355	1041.2	5.2801e-06	2.4931e-06	1078.9	334.3	6.2022e-06	3.1125e-06	397.06	133.41	107.91	43.014	5.7262e-06	60.106	0.00049346	0.00042632	0.00011992	969.16	4.7013e-06	4.729e-06	1000.1	310.7	4.6975e-06	4.737e-06	371.81	124.69	101.36	40.418	4.7278e-06	56.891	110.325	217.453	156.276	93.304	179.214	204.076	92.681	98.922	235.325	284.161	97.937	102.876	104.361	109.954	243.563	107.938	-8191	255	
58854.922	1	1	0	0	0.15352	0.14917	0.10453	0.34968	0.17821	0.054134	0.15553	0.11628	0.13905	0.22094	0.069107	0.065667	0.18732	0.089568	0.33455	0.1496	-3.2292	-3.4083	-4.1292	-3.6271	-4.075	-4.0042	-3.6479	-4.4563	-3.7479	-3.7521	-4.4083	-3.4271	-3.9396	-4.1625	-3.4208	-4.3812	296.315	89.535	219.406	392.028	374.528	434.979	246.785	121.724	275.407	280.461	220.898	386.347	354.427	377.725	342.662	313.320	0.0010266	0.00057858	0.00012537	1044.8	7.6141e-06	6.5664e-06	1087.7	337.82	6.5563e-06	2.4233e-06	400.46	133.85	108.9	42.838	6.8041e-06	59.851	0.00047474	0.00042484	0.00012254	975.72	4.6704e-06	4.646e-06	1008.5	313.68	4.7676e-06	4.7247e-06	373.84	125.17	101.9	40.393	4.7864e-06	56.942	113.850	180.693	177.404	93.585	236.153	240.601	92.531	99.003	172.789	201.338	97.398	102.935	103.713	109.859	236.355	108.260	-8191	255	
58855.020	1	1	0	0	0.13009	0.27537	0.040667	0.19659	0.31504	0.16731	0.054526	0.25367	0.042161	0.1332	0.065901	0.13839	0.062079	0.053125	0.21878	0.22822	-3.5542	-3.5146	-4.2688	-3.4771	-3.8063	-4.2229	-3.4208	-4.3896	-3.8104	-3.5833	-4.5104	-3.4417	-3.7479	-4.1333	-3.3521	-4.1292	126.290	275.677	90.717	120.605	283.832	268.995	89.578	368.406	334.478	370.885	420.593	268.182	431.716	102.293	407.008	349.355	0.0010438	0.00043063	0.00011895	1055.3	6.4593e-06	5.6511e-06	1085.4	336.25	6.0971e-06	7.0767e-06	399.5	133.26	108.26	43.35	7.8648e-06	60.319	0.00048477	0.00043218	0.00012074	978.46	4.658e-06	4.6851e-06	1006.3	313.5	4.8911e-06	4.888e-06	372.01	124.76	101.54	40.553	4.7997e-06	57.01	112.082	149.110	99.441	93.567	221.372	259.143	92.885	98.884	222.341	238.036	97.673	102.972	103.764	109.620	173.935	107.874	-8191	255	
58855.141	1	1	0	0	0.1273	0.22227	0.13744	0.086505	0.17479	0.093066	0.096894	0.19894	0.1692	0.05408	0.13416	0.12203	0.14281	0.14678	0.13279	0.03498	-3.5312	-3.5312	-4.2937	-3.8833	-3.6042	-4.2375	-3.4	-4.0875	-3.8292	-3.3563	-4.3229	-3.6917	-3.5458	-4.3	-3.4229	-4.0146	249.018	133.963	346.657	120.672	224.428	185.843	320.512	338.490	99.152	404.658	375.070	371.803	187.762	390.999	182.682	403.096	0.0010406	0.00055682	9.5923e-05	1049.8	7.4594e-06	5.1705e-06	1082.1	335.87	5.0144e-06	4.7179e-06	399.29	133.01	108.62	42.642	3.0773e-06	60.038	0.00049761	0.00043814	0.00012095	975.08	4.6927e-06	4.7242e-06	1003.4	313.64	4.7436e-06	4.9679e-06	371.67	124.54	101.41	40.266	4.7785e-06	56.807	115.027	183.094	119.559	93.685	194.550	160.918	92.943	99.034	227.916	216.691	97.412	103.323	103.620	109.634	246.415	107.789	-8191	255	
58855.234	1	1	0	0	0.069271	0.10349	0.10739	0.051117	0.30259	0.1261	0.20295	0.39571	0.1204	0.24782	0.11614	0.10217	0.061468	0.18568	0.075131	0.061435	-3.6146	-3.3292	-4.2438	-3.9562	-3.3792	-4.3917	-3.6021	-4.0083	-3.9917	-3.1667	-4.2458	-3.7208	-3.6833	-4.3	-3.575	-3.8438	111.982	433.347	389.968	107.697	263.355	142.066	322.458	354.601	350.874	191.872	223.562	293.465	92.368	419.763	120.288	175.618	0.0010824	0.00047064	0.00015658	1045.3	6.132e-06	7.5554e-06	1085.1	336.09	7.025e-06	4.3316e-06	400.11	133.21	109.06	42.654	8.7824e-06	60.264	0.00048889	0.00044421	0.00012617	974.88	4.7905e-06	4.8523e-06	1005.2	313.16	4.8564e-06	4.8254e-06	372.6	124.58	101.67	40.338	4.6793e-06	56.885	108.852	140.247	173.566	93.440	184.263	232.638	92.839	98.757	235.796	203.717	97.486	103.180	103.838	109.379	231.789	107.666	-8191	255	
58855.328	1	1	0	0	0.28229	0.22891	0.22193	0.25831	0.1685	0.11517	0.11359	0.27442	0.27208	0.1302	0.19221	0.26526	0.14428	0.29842	0.086449	0.12028	-3.7146	-3.3771	-4.1813	-3.8875	-3.4688	-4.3417	-3.7812	-4.0104	-4.0813	-3.4688	-4.0604	-4.0292	-3.5104	-4.3938	-3.7458	-3.9354	89.714	231.984	277.290	306.601	113.329	309.305	304.106	331.830	431.270	347.381	362.581	435.671	364.559	346.982	248.315	400.066	0.0010589	0.00058558	0.00012721	1050.4	6.8584e-06	1.7535e-06	1074.7	333.22	7.8791e-06	4.4719e-06	399.07	133.53	108.45	42.604	5.0588e-06	60.224	0.00049505	0.00042676	0.00012165	976.78	4.7632e-06	4.8236e-06	1004.5	312.52	4.8023e-06	4.831e-06	372.04	125.19	101.33	40.407	4.7324e-06	56.796	109.815	147.415	167.769	93.490	200.877	308.079	92.923	98.889	181.908	217.889	97.625	103.036	103.911	109.693	183.125	107.879	-8191	255	
58855.426	1	1	0	0	0.15458	0.29913	0.089902	0.10011	0.15395	0.18915	0.27609	0.14484	0.067564	0.21268	0.17058	0.17307	0.14741	0.097769	0.25385	0.2074	-3.9125	-3.4104	-4.0917	-4.0417	-3.4896	-4.2458	-3.8688	-3.8021	-4.3917	-3.4271	-4.025	-4.2438	-3.4521	-4.4229	-3.8896	-3.8396	198.240	391.498	147.293	400.379	149.808	142.225	365.896	400.671	114.779	225.335	135.009	218.640	366.099	82.883	421.307	303.555	0.0009582	0.00070975	0.00016883	1051.3	6.2226e-06	4.0437e-06	1082.8	335.29	3.0946e-06	7.9426e-06	398.33	132.59	108	42.776	5.823e-06	59.785	0.00049459	0.00044709	0.0001189	976.48	4.7525e-06	4.8253e-06	1002	312.5	4.8591e-06	4.8536e-06	370.9	124.3	101.4	40.338	4.6954e-06	56.439	109.011	171.554	140.288	93.654	208.308	231.308	92.836	98.678	168.081	223.026	97.673	103.051	103.861	109.604	224.051	108.110	-8191	255	
58855.523	1	1	0	0	0.086387	0.17676	0.10633	0.19366	0.15627	0.067616	0.059842	0.28803	0.24572	0.020694	0.19133	0.16049	0.23321	0.22145	0.047714	0.22534	-4.0875	-3.525	-3.8812	-4.2896	-3.3042	-4.325	-3.8167	-3.6646	-4.3396	-3.4938	-3.8667	-4.2521	-3.4771	-4.4104	-3.8583	-3.7125	203.935	93.294	271.526	408.140	144.938	119.835	261.986	361.244	146.822	153.520	433.320	313.877	227.473	344.597	435.569	365.748	0.0011244	0.00070977	0.00019203	1044	2.5718e-06	8.9459e-06	1081.2	335.73	6.3727e-06	8.6218e-06	398.52	132.96	109.25	42.747	3.0127e-06	59.871	0.00049606	0.00043334	0.00011837	974.7	4.7848e-06	4.7696e-06	1002.3	313.05	4.7589e-06	4.7434e-06	371.12	124.3	101.58	40.342	4.6936e-06	56.573	109.657	158.238	121.477	93.353	175.294	187.872	92.809	98.697	226.847	255.576	97.569	102.870	103.717	109.624	234.084	108.331	-8191	255	
58855.617	1	1	0	0	0.092978	0.051135	0.12042	0.019939	0.17659	0.027194	0.33737	0.3571	0.18803	0.14792	0.24142	0.29912	0.28525	0.20514	0.06639	0.31553	-4.0062	-3.7167	-3.7375	-4.2625	-3.4938	-4.2438	-4.025	-3.6042	-4.2937	-3.7562	-3.7542	-4.3979	-3.5479	-4.0083	-4.0375	-3.675	320.703	231.047	148.046	313.783	298.039	305.326	383.600	342.656	256.902	432.203	434.023	427.820	377.940	317.606	195.267	384.217	0.0010975	0.00026295	0.00014441	1057.6	4.618e-06	4.282e-06	1079	336.26	7.9093e-06	4.2649e-06	396.51	133.43	108.14	42.738	4.6856e-06	60.057	0.00049715	0.00042007	0.00011969	977.79	4.7484e-06	4.7072e-06	1004.5	313.26	4.8032e-06	4.8544e-06	371.24	124.93	101.33	40.388	4.7309e-06	56.903	106.562	137.551	117.979	93.603	209.180	214.331	92.906	99.015	235.184	222.296	97.690	103.170	103.765	109.771	241.369	107.928	-8191	255	
58855.715	1	1	0	0	0.23825	0.12594	0.13422	0.29923	0.087882	0.083264	0.19298	0.21759	0.24209	0.084576	0.13324	0.11415	0.062989	0.073539	0.20845	0.048753	-3.8917	-3.6625	-3.5271	-4.4125	-3.7062	-4.0708	-4.1979	-3.5583	-4.3063	-3.7292	-3.6708	-4.3146	-3.45	-4.0271	-4.1562	-3.3875	311.983	240.390	150.925	366.146	390.753	339.422	383.193	392.737	223.792	228.225	433.798	400.530	302.480	381.845	368.977	341.065	0.0010364	0.00091752	0.0001818	1047.2	7.1066e-06	5.7418e-06	1089.9	334.77	9.2114e-06	9.4156e-06	396.49	134.12	108.47	42.732	6.9628e-06	60.092	0.00049621	0.00043927	0.00012484	976.65	4.8e-06	4.6821e-06	1007.4	312.72	4.7287e-06	4.7711e-06	370.26	124.63	101.18	40.27	4.7488e-06	56.792	110.678	218.023	166.124	93.691	179.282	267.086	92.787	98.538	209.457	266.491	97.514	103.416	103.808	109.490	231.342	107.794	-8191	255	
58855.836	1	1	0	0	0.11452	0.18812	0.26618	0.24678	0.098508	0.1799	0.058327	0.17635	0.031874	0.24437	0.16821	0.23437	0.2045	0.22747	0.16259	0.27452	-4.0083	-3.7771	-3.5187	-4.3104	-3.5687	-3.9708	-4.3417	-3.5583	-4.1854	-3.8292	-3.6146	-4.3583	-3.5479	-3.7771	-4.0521	-3.5438	104.039	314.279	168.307	435.556	192.949	405.371	420.318	87.340	164.256	394.091	370.748	115.085	385.822	414.557	159.394	415.442	0.0010052	0.00033737	5.4989e-05	1046.3	9.3761e-06	9.2723e-06	1071.6	333.74	5.4393e-06	5.4611e-06	393.3	132.49	107.84	42.588	7.0081e-06	60.294	0.0004972	0.00043163	0.00012096	975.04	4.8e-06	4.7282e-06	998.48	311.51	4.8582e-06	4.7527e-06	369.13	124.41	101.01	40.243	4.7608e-06	56.69	110.648	160.131	190.240	93.612	210.135	220.126	93.023	98.856	241.299	274.029	97.672	103.138	103.457	109.421	213.965	107.974	-8191	255	
58855.930	1	1	0	0	0.063065	0.14173	0.35579	0.048895	0.13802	0.22594	0.26546	0.049717	0.30721	0.030578	0.14092	0.08576	0.37937	0.13432	0.1412	0.16497	-3.8354	-3.85	-3.5521	-4.4333	-3.6063	-3.7708	-4.3604	-3.5479	-3.9208	-3.925	-3.5687	-4.2479	-3.675	-3.8208	-4.1542	-3.6958	146.758	251.362	253.096	378.979	208.187	255.592	385.188	342.385	403.132	211.244	85.774	311.624	115.243	93.045	271.428	110.255	0.001183	0.0006286	0.00010104	1043.8	1.1632e-05	5.7971e-06	1085	337.34	7.6683e-06	8.0302e-06	396.52	133.55	109.6	42.651	4.4719e-06	59.81	0.00049903	0.00042571	0.00012107	974.65	4.6859e-06	4.6536e-06	1004.7	313.9	4.6823e-06	4.9121e-06	371.14	124.58	101.95	40.323	4.8769e-06	56.703	112.945	163.291	231.743	93.360	206.946	231.272	93.019	98.917	206.194	278.310	97.326	103.010	104.109	109.640	211.713	107.654	-8191	255	
58856.027	1	1	0	0	0.23136	0.33221	0.15604	0.15381	0.068545	0.20801	0.077533	0.30144	0.11061	0.013098	0.18036	0.159	0.075463	0.025515	0.058347	0.16772	-3.7583	-4.0188	-3.4	-4.3313	-3.7083	-3.5417	-4.4021	-3.5021	-3.9604	-4.1354	-3.5542	-4.3333	-4.0083	-3.7271	-4.2729	-3.8	115.800	257.489	269.505	419.022	166.135	225.360	400.370	347.590	255.871	95.569	228.841	91.614	399.366	416.472	299.961	304.342	0.0010157	0.00067953	6.3444e-05	1048.2	6.9523e-06	8.3263e-07	1083.6	338.02	3.1024e-06	4.5846e-06	399.2	133.88	110.03	42.851	3.5479e-06	60.563	0.00048452	0.00043222	0.00012389	978.15	4.7481e-06	4.6712e-06	1005.9	315.05	4.8161e-06	4.7697e-06	372.22	125.45	102.54	40.556	4.6867e-06	57.102	112.416	132.445	168.676	93.697	203.782	187.896	92.887	98.637	265.528	284.805	97.744	102.987	104.101	109.580	125.253	107.975	-8191	255	
58856.148	1	1	0	0	0.1942	0.22032	0.22267	0.22687	0.10097	0.16825	0.21994	0.31468	0.10964	0.087422	0.17949	0.21588	0.021881	0.12592	0.033062	0.26467	-3.5917	-4.1229	-3.4521	-4.2417	-3.8812	-3.5125	-4.5333	-3.5896	-3.7938	-4.3271	-3.5792	-4.3083	-4.125	-3.7167	-4.3833	-3.8896	439.508	422.947	142.634	430.424	89.003	264.169	363.896	351.283	260.640	272.441	95.931	360.524	338.618	152.213	165.072	313.991	0.001003	0.00047813	0.00012132	1058.5	2.4751e-06	3.8218e-06	1079.1	337.49	7.1882e-06	7.4171e-06	397.47	133.49	108.64	42.674	5.8958e-06	59.809	0.0005054	0.00044093	0.00012299	980.05	4.7079e-06	4.7854e-06	1002.8	314.92	4.7133e-06	4.8237e-06	371.22	124.68	101.98	40.444	4.7334e-06	56.577	107.060	178.425	155.189	93.693	185.520	287.305	92.918	98.883	219.425	259.485	97.582	103.364	103.880	109.645	192.632	107.748	-8191	255	
58856.219	1	1	0	0	0.12866	0.11914	0.11502	0.15306	0.20662	0.14266	0.083027	0.15873	0.1317	0.15206	0.31849	0.079045	0.17385	0.15127	0.084108	0.013561	-3.5938	-4.1521	-3.3729	-4.1542	-4.1396	-3.4521	-4.4688	-3.7333	-3.5375	-4.3833	-3.5438	-4.2875	-4.2	-3.7625	-4.2	-3.8604	311.630	293.048	191.863	381.472	210.801	372.236	424.447	345.558	399.921	348.051	406.462	430.125	326.377	400.407	380.882	236.361	0.0010145	0.00034839	0.00019471	1052.2	6.0622e-06	9.8565e-06	1075	336.41	5.6434e-06	5.4811e-06	396.52	133.91	108.93	42.582	1.23e-06	59.954	0.00049183	0.00043318	0.0001212	975.5	4.6046e-06	4.7921e-06	999.77	313.44	4.8846e-06	4.7571e-06	369.85	124.52	101.35	40.306	4.757e-06	56.57	118.121	109.685	158.484	93.429	243.187	221.432	93.001	98.859	221.048	183.412	97.598	103.033	103.904	109.476	232.225	107.979	-8191	255	
58856.316	1	1	0	0	0.19037	0.11521	0.011121	0.20682	0.060376	0.11204	0.24212	0.23561	0.23151	0.14971	0.217	0.099379	0.26375	0.21893	0.20823	0.24777	-3.3708	-4.4271	-3.6229	-4.0104	-4.2208	-3.3229	-4.3688	-3.9229	-3.5792	-4.3812	-3.6625	-3.9271	-4.2688	-3.4625	-4.2604	-4.0146	420.474	212.196	416.002	83.929	333.608	430.202	336.214	263.720	433.556	142.403	403.446	162.346	89.735	403.584	244.872	101.697	0.0010252	0.00065334	0.00010707	1049.7	5.6196e-06	1.7819e-06	1070.4	334.19	4.2794e-06	4.1305e-06	395.87	132.82	107.76	42.5	5.7095e-06	59.714	0.00048665	0.00041917	0.00012411	974.44	4.8317e-06	4.6821e-06	998.98	312.33	4.7733e-06	4.7827e-06	369.53	123.88	101.07	40.079	4.7104e-06	56.579	112.428	173.129	102.547	93.507	251.126	174.234	92.954	98.964	230.994	190.124	97.858	102.931	103.953	109.600	207.594	108.422	-8191	255	
58856.434	1	1	0	0	0.18089	0.10971	0.10219	0.051191	0.10237	0.19092	0.13445	0.2917	0.14943	0.10827	0.24448	0.2045	0.15287	0.21065	0.10288	0.22755	-3.1896	-4.25	-3.75	-3.975	-4.0292	-3.1417	-4.2812	-4.2083	-3.6083	-4.3958	-3.7	-3.775	-4.2292	-3.4479	-3.975	-4.1208	379.082	390.119	108.956	353.138	215.271	243.137	218.588	390.013	394.145	250.089	105.590	406.392	85.925	389.662	321.704	397.424	0.0010921	0.00055307	0.00010222	1047.5	5.9581e-06	4.0735e-06	1080.4	333.44	8.2624e-06	6.86e-06	395.9	133.01	107.91	42.137	6.4337e-06	60.172	0.0004959	0.00042503	0.00012168	973.72	4.8987e-06	4.6863e-06	1001.7	311.64	4.8374e-06	4.7077e-06	370.77	124.62	100.91	40.106	4.7421e-06	56.848	109.271	131.146	205.293	93.600	215.534	259.693	92.770	98.713	223.590	206.392	97.455	103.269	103.617	109.445	239.027	107.871	-8191	255	
58856.531	1	1	0	0	0.23285	0.24717	0.24412	0.27953	0.15339	0.18349	0.19125	0.1037	0.057195	0.1473	0.21585	0.31777	0.22375	0.32593	0.16695	0.049591	-3.1562	-4.2917	-3.4292	-3.8375	-4.1937	-3.5458	-4.1	-4.3458	-3.6125	-4.2708	-3.7375	-3.5854	-4.3667	-3.4104	-3.9646	-4.2333	321.631	117.629	307.508	351.396	119.331	354.195	369.116	228.864	182.987	131.216	397.717	381.394	387.980	440.097	180.154	189.383	0.00099636	0.00028746	0.00027763	1047.1	8.5974e-06	4.8226e-06	1078.3	334.85	5.9479e-06	4.883e-06	396.3	132.44	107.5	42.669	3.0315e-06	60.131	0.00049617	0.00044392	0.00012618	973.51	4.8113e-06	4.7201e-06	1000.3	311.78	4.6996e-06	4.7805e-06	369.98	124.18	100.95	40.168	4.8477e-06	56.707	114.045	181.777	178.150	93.650	204.216	234.229	92.722	99.065	188.048	238.811	97.509	103.249	104.315	109.755	269.053	108.224	-8191	255	
58856.629	1	1	0	0	0.33088	0.22535	0.20666	0.20091	0.19474	0.078487	0.20084	0.030257	0.057485	0.090293	0.072393	0.028076	0.23153	0.31586	0.069841	0.24838	-3.0583	-4.1375	-3.8333	-3.5917	-4.2583	-3.375	-4.0583	-4.3271	-3.1792	-4.0583	-3.9333	-3.4938	-4.3792	-3.575	-3.7167	-4.1542	206.422	247.984	109.846	297.863	257.680	164.906	380.182	253.399	94.721	238.117	367.555	246.630	382.270	376.745	153.265	81.855	0.00096654	0.00053428	0.0002184	1043.7	3.5298e-06	5.5837e-06	1076.8	334.79	7.1306e-06	7.3178e-06	395.85	133.38	108.51	42.489	5.9156e-06	59.769	0.00049726	0.00044302	0.0001241	974.19	4.8834e-06	4.7507e-06	1000.6	312.3	4.9315e-06	4.7266e-06	369.75	124.53	101.04	40.166	4.8649e-06	56.577	116.537	201.853	195.262	93.357	260.581	280.601	92.765	98.908	200.129	273.728	97.782	102.877	103.515	109.747	245.696	107.817	-8191	255	
58856.723	1	1	0	0	0.11088	0.31518	0.19722	0.079481	0.21182	0.13774	0.2362	0.11753	0.046109	0.042717	0.13749	0.1307	0.031569	0.22312	0.17384	0.19504	-3.0354	-3.9354	-3.9979	-3.5542	-4.3021	-3.5229	-3.7104	-4.275	-3.3937	-3.9625	-4.1354	-3.5458	-4.3417	-3.7208	-3.6417	-4.3021	396.053	191.285	344.209	422.524	258.323	357.589	300.478	369.750	429.224	440.013	141.013	89.839	323.953	425.127	254.488	338.432	0.0010549	0.00050273	0.00020141	1042.9	7.2541e-06	8.0047e-06	1082	335.62	1.0495e-05	5.7921e-06	398.24	133.47	107.42	42.659	1.5442e-06	59.664	0.00050846	0.00043206	0.00012089	973.55	4.6951e-06	4.5389e-06	1000.9	313.08	4.8119e-06	4.7294e-06	371.05	124.47	101.05	40.222	4.827e-06	56.645	114.907	169.967	171.289	93.745	224.232	197.157	92.482	98.938	237.405	292.154	98.114	103.084	104.005	109.525	191.490	108.115	-8191	255	
58856.820	1	1	0	0	0.08799	0.19513	0.14922	0.15394	0.17703	0.13698	0.04825	0.24689	0.064518	0.15694	0.23705	0.50014	0.18347	0.052233	0.24621	0.11948	-3.1188	-4.0312	-4.0188	-3.3812	-4.2979	-3.8083	-3.7687	-4.3271	-3.3875	-3.8229	-4.1687	-3.3354	-4.275	-3.8125	-3.4021	-4.3521	248.802	349.226	371.426	372.712	402.452	233.438	332.446	386.394	308.755	143.551	86.233	383.588	190.477	268.481	265.350	123.450	0.0010347	0.00026793	0.00018969	1050.5	4.8709e-06	6.7269e-06	1086.9	336.55	7.9341e-06	6.086e-06	397.47	132.76	107.79	42.304	7.766e-06	59.864	0.00049558	0.0004498	0.0001235	973.83	4.6571e-06	4.7258e-06	1003.4	312.78	4.8059e-06	4.761e-06	370.51	124.28	101.27	39.977	4.6532e-06	56.351	105.772	133.694	167.782	93.596	229.485	205.689	92.738	98.965	217.102	260.592	97.897	102.963	103.876	109.609	225.735	107.969	-8191	255	
58856.914	1	1	0	0	0.030067	0.13529	0.25246	0.27241	0.052613	0.22222	0.097026	0.15505	0.21957	0.20826	0.039003	0.21615	0.14043	0.048149	0.18022	0.096241	-3.1042	-3.8	-4.1312	-3.5438	-4.1396	-3.9292	-3.7167	-4.3708	-3.6292	-3.7271	-4.4104	-3.4292	-4.2667	-4.1396	-3.5167	-4.4729	168.265	301.043	90.797	362.883	417.630	129.595	81.775	243.089	133.593	385.315	154.228	420.097	422.730	406.167	244.451	365.437	0.0010547	0.00035367	0.00024232	1046.5	5.9035e-06	4.3818e-06	1070.8	331.61	6.9494e-06	3.3326e-06	393.13	131.93	107.78	41.903	5.843e-06	58.862	0.0004938	0.00044029	0.00011529	971.26	4.7897e-06	4.7193e-06	995.25	310.68	4.815e-06	4.8357e-06	366.99	123.2	100.6	39.765	4.7301e-06	56.071	107.367	129.247	151.595	93.520	214.624	229.248	92.720	99.003	190.080	225.078	97.910	103.310	104.120	109.266	213.868	108.140	-8191	255	
58857.012	1	1	0	0	0.15297	0.10829	0.26819	0.38474	0.21972	0.17004	0.23053	0.31077	0.18298	0.090664	0.27745	0.42095	0.12036	0.15822	0.1568	0.22704	-3.3688	-3.5604	-4.2438	-3.4521	-4.1458	-4.0292	-3.6229	-4.3792	-3.6813	-3.825	-4.3042	-3.3729	-4.0771	-4.0083	-3.4396	-4.2854	200.523	308.833	85.506	304.104	230.759	370.305	297.568	398.973	196.696	121.815	423.439	408.050	377.763	334.203	375.670	402.163	0.0010075	0.00059373	0.00016101	1043.8	8.2032e-06	4.8917e-06	1067.5	332.61	6.644e-06	8.0802e-06	391.46	131.74	107.36	42.001	4.2601e-06	59.249	0.00048548	0.00043029	0.00011873	968.25	4.6788e-06	4.7086e-06	990.14	309.77	4.6159e-06	4.6465e-06	366.56	123.02	100.33	39.77	4.6191e-06	56.054	108.376	154.101	172.966	93.385	229.316	241.891	92.787	98.550	208.733	229.009	97.779	102.897	103.861	109.467	233.111	108.133	-8191	255	
58857.109	1	1	0	0	0.011095	0.10123	0.14373	0.14675	0.19957	0.069042	0.096612	0.070205	0.1052	0.084757	0.10891	0.080526	0.056363	0.064286	0.039188	0.17423	-3.3354	-3.6688	-4.2688	-3.6896	-3.7667	-4.1625	-3.5896	-4.4437	-3.8125	-3.5583	-4.575	-3.725	-3.8438	-4.15	-3.3292	-4.2833	111.374	299.797	168.141	426.819	346.831	214.051	351.407	200.397	173.822	114.912	270.788	287.750	354.250	141.439	374.792	112.564	0.0010621	0.00039616	0.0001987	1039.7	7.3277e-06	8.4506e-06	1069.4	334.41	7.2887e-06	5.8741e-06	391.56	131.33	108.5	42.356	4.5154e-06	58.766	0.00049423	0.00041832	0.0001207	964.73	4.7001e-06	4.8061e-06	992.44	310.63	4.6532e-06	4.7601e-06	367.13	123.1	100.7	39.901	4.6361e-06	55.976	111.018	144.402	160.097	93.326	189.963	236.215	92.800	98.841	211.798	225.350	98.114	103.250	103.881	109.245	263.288	108.108	-8191	255	
58857.227	1	1	0	0	0.10988	0.18326	0.19194	0.23708	0.1498	0.10693	0.16886	0.16319	0.041732	0.10224	0.22489	0.076188	0.23752	0.14542	0.33795	0.25548	-3.6042	-3.5333	-4.3354	-3.6188	-3.7833	-4.2083	-3.5771	-4.1271	-3.9646	-3.4125	-4.2188	-3.4583	-3.7854	-4.3646	-3.4229	-4.0563	93.769	434.737	128.495	375.710	303.018	125.681	148.457	379.947	131.484	389.655	371.087	394.333	82.219	122.646	383.358	344.777	0.001007	0.00062676	0.00026377	1039.3	6.2526e-06	8.1154e-06	1069.9	336.3	4.2162e-06	4.8362e-06	393.05	131.91	108.04	42.395	1.1151e-05	59.009	0.00050249	0.00042788	0.00012201	967.52	4.6365e-06	4.7292e-06	993.77	312.16	4.7973e-06	4.9451e-06	367.03	123.7	101.02	39.936	4.8495e-06	56.038	111.630	158.391	195.910	93.273	233.891	200.949	92.907	98.664	234.795	236.701	97.757	103.097	103.699	109.194	236.592	107.942	-8191	255	
58857.324	1	1	0	0	0.13112	0.11767	0.093536	0.28945	0.10512	0.14284	0.23514	0.12039	0.081873	0.12852	0.079952	0.23105	0.074764	0.1034	0.14979	0.15787	-3.7438	-3.4729	-4.2104	-3.6771	-3.5979	-4.2312	-3.7979	-4.0375	-4.0938	-3.3438	-4.3854	-3.8563	-3.6625	-4.275	-3.3812	-4.0062	439.260	100.934	344.887	391.940	402.419	375.240	369.717	395.912	91.554	269.774	398.010	392.009	83.217	81.679	226.689	279.874	0.001052	0.0004644	0.00016616	1041.9	1.5133e-06	1.0453e-05	1062.2	334.72	5.8025e-06	8.8334e-06	395.13	131	108.07	42.436	3.2553e-06	59.271	0.00049195	0.00044223	0.0001184	967.37	4.6108e-06	4.7257e-06	988.57	310.79	4.6792e-06	4.7611e-06	366.88	122.89	100.81	39.989	4.7207e-06	56.17	112.549	187.795	155.576	93.355	183.760	243.759	92.949	98.415	255.726	227.926	97.711	103.462	103.876	109.245	232.609	108.012	-8191	255	
58857.418	1	1	0	0	0.16261	0.077035	0.10149	0.17182	0.11206	0.13263	0.23301	0.3237	0.30197	0.092801	0.2477	0.12095	0.10839	0.17783	0.12623	0.26609	-3.725	-3.4062	-4.1417	-4.0958	-3.4062	-4.3729	-3.5687	-4.0708	-4.0104	-3.3333	-4.3438	-3.7854	-3.4833	-4.3521	-3.5083	-3.8479	280.537	254.694	273.333	394.189	301.967	439.973	422.424	392.279	104.869	163.754	345.373	154.980	136.636	237.952	111.747	97.634	0.0010532	0.00022502	0.00013711	1035.9	6.3404e-06	4.1625e-06	1065.2	334.28	5.6133e-06	3.2397e-06	391.81	131.55	107.75	42.42	4.5975e-06	59.379	0.00049329	0.00042449	0.0001208	961.74	4.7182e-06	4.7518e-06	985.16	310.03	4.7183e-06	4.7529e-06	365.86	122.97	100.5	39.99	4.7222e-06	56.175	113.198	179.112	190.378	93.471	186.004	185.906	92.891	98.605	171.289	222.739	97.461	102.979	103.716	109.086	228.512	107.719	-8191	255	
58857.516	1	1	0	0	0.15766	0.12212	0.10146	0.27405	0.030096	0.074588	0.42647	0.12588	0.14937	0.055246	0.10451	0.10427	0.12324	0.17612	0.18354	0.12106	-3.9562	-3.3417	-4.1	-4.0792	-3.4437	-4.0979	-3.7458	-3.6813	-4.1104	-3.4542	-4.1458	-3.9271	-3.5271	-4.3438	-3.6021	-3.5667	375.734	236.651	340.411	355.149	115.861	290.016	343.382	430.391	153.915	346.732	347.164	116.934	252.800	430.338	208.201	319.259	0.0010204	0.00043326	7.4746e-05	1031.3	7.7009e-06	5.6119e-06	1049.7	330.78	7.4351e-06	7.9498e-06	390.42	131.55	106.31	41.874	7.2778e-06	59.996	0.00049732	0.0004325	0.00012389	957.38	4.6738e-06	4.6098e-06	977.82	307.67	4.6819e-06	4.6981e-06	364.4	123.08	99.648	39.718	4.849e-06	56.431	108.396	213.358	160.031	93.758	218.326	221.027	92.821	98.817	232.336	264.527	97.612	102.988	103.768	109.586	251.115	108.042	-8191	255	
58857.609	1	1	0	0	0.29297	0.093926	0.24482	0.21745	0.24711	0.26816	0.24703	0.23252	0.034772	0.20453	0.14264	0.013931	0.02802	0.22054	0.27877	0.18069	-3.9729	-3.5062	-3.975	-4.2271	-3.5146	-4.2792	-3.8417	-3.8979	-4.325	-3.5312	-4.1646	-4.1875	-3.4396	-4.3104	-3.7542	-3.625	438.425	399.859	156.774	383.034	325.885	135.295	105.424	355.092	159.322	109.748	410.059	421.221	211.907	296.077	188.746	370.643	0.00099157	0.00049545	0.00025118	1030	3.9731e-06	3.6442e-06	1042.4	329.13	7.1165e-06	4.9581e-06	390.42	130.5	106.85	41.968	7.7622e-06	59.175	0.0004849	0.00043184	0.00012095	954.11	4.7591e-06	4.7195e-06	972.77	305.8	4.5919e-06	4.472e-06	363.17	122.41	99.381	39.843	4.749e-06	56.067	112.342	103.262	181.894	93.721	201.459	204.327	92.895	98.897	217.960	271.860	97.825	103.328	103.595	109.879	201.851	107.654	-8191	255	
58857.707	1	1	0	0	0.13344	0.19512	0.2581	0.16395	0.26227	0.081883	0.11835	0.11793	0.17698	0.30106	0.19068	0.064599	0.21833	0.21221	0.099607	0.13504	-3.9562	-3.4333	-3.8146	-4.2479	-3.3667	-4.2708	-4.0938	-3.6792	-4.4	-3.8042	-3.95	-4.1167	-3.3708	-4.1958	-3.9729	-3.475	193.347	145.194	344.161	343.909	86.801	168.536	372.682	408.015	181.357	261.426	406.744	121.446	274.350	388.116	324.194	312.134	0.00088335	0.00056853	0.00022756	1013.2	4.7822e-06	7.7338e-06	1036.8	324.3	6.7624e-06	3.2706e-06	385.44	130.57	105.07	41.503	2.2119e-06	58.934	0.00048794	0.00043286	0.00011951	943.39	4.5699e-06	4.5272e-06	964.46	303.4	4.5627e-06	4.6502e-06	359.14	121.64	98.781	39.39	4.7417e-06	55.791	107.735	166.619	160.223	93.333	220.630	223.701	92.797	98.723	227.620	267.329	97.644	103.240	104.252	109.485	181.261	107.740	-8191	255	
58857.828	1	1	0	0	0.26717	0.042112	0.10885	0.21184	0.083137	0.29404	0.19602	0.28351	0.04267	0.18303	0.19293	0.1946	0.18621	0.041705	0.079226	0.25749	-3.9729	-3.5979	-3.6167	-4.2292	-3.3646	-4.0813	-4.0813	-3.6625	-4.2542	-3.6188	-3.8438	-4.3354	-3.3854	-3.9417	-4.0417	-3.5667	360.155	159.114	373.611	440.488	181.224	248.171	302.289	347.664	350.810	410.031	425.768	427.654	419.906	377.971	326.580	346.247	0.0010704	0.00016486	0.00017278	1015.6	8.2005e-06	4.884e-06	1039.2	326.25	8.5156e-06	5.9829e-06	387.03	129.84	105.34	41.555	4.8949e-06	58.97	0.00049115	0.00043045	0.00011872	945.55	4.6239e-06	4.7161e-06	966.35	303.45	4.6149e-06	4.8419e-06	360.48	121.83	98.919	39.327	4.6452e-06	55.75	112.676	139.603	131.386	93.455	207.892	214.038	93.126	99.064	236.734	261.729	97.443	103.114	103.716	109.459	225.590	108.137	-8191	255	
58857.926	1	1	0	0	0.17199	0.21589	0.13722	0.36812	0.15811	0.14457	0.15397	0.032384	0.089155	0.047091	0.057321	0.17024	0.1406	0.15832	0.074367	0.32059	-3.8354	-3.6688	-3.5229	-4.3896	-3.5083	-3.9688	-4.3333	-3.4833	-3.9896	-3.8083	-3.6292	-4.4	-3.4542	-3.8833	-4.1	-3.425	322.066	115.653	84.547	398.140	273.172	244.063	377.623	138.747	235.729	328.350	162.445	405.415	356.682	432.167	391.277	341.778	0.00099872	0.00013942	0.00016941	1019.1	7.2624e-06	7.5711e-06	1045.5	326.64	3.9965e-06	8.6749e-06	383.68	131.89	105.91	41.79	7.0389e-06	59.285	0.00048163	0.0004302	0.00011754	947.55	4.6571e-06	4.5899e-06	973.06	304.23	4.7889e-06	4.6536e-06	360.81	122.84	99.264	39.655	4.6915e-06	55.994	107.753	332.790	151.046	93.518	263.927	271.006	93.188	98.688	219.932	270.851	97.665	103.320	104.207	109.604	222.642	108.171	-8191	255	
58858.020	1	1	0	0	0.17242	0.064737	0.11124	0.26829	0.17813	0.10873	0.16826	0.12214	0.090705	0.20093	0.19868	0.1296	0.12468	0.14336	0.090218	0.21237	-4.0604	-3.9208	-3.3958	-4.6167	-3.4188	-3.7146	-4.2917	-3.2979	-4.0646	-3.9688	-3.5479	-4.3979	-3.625	-3.975	-4.2583	-3.3229	123.620	95.480	330.381	401.848	345.552	331.639	385.377	394.316	125.648	141.776	100.956	214.001	395.335	410.197	118.547	290.868	0.00099244	0.00044503	0.00014396	1023.2	6.3791e-06	3.1187e-06	1046.1	329.53	5.7962e-06	3.4765e-06	388.17	131.13	106.16	42.067	7.146e-06	58.851	0.00048989	0.00041295	0.00011996	949.69	4.6719e-06	4.6001e-06	971.56	305.71	4.7662e-06	4.6291e-06	361.45	122.34	99.533	39.614	4.7322e-06	55.639	112.403	168.518	131.250	93.539	205.009	166.202	92.794	98.985	188.494	265.373	97.453	103.158	103.639	109.340	227.455	108.023	-8191	255	
58858.117	1	1	0	0	0.046734	0.17576	0.17017	0.16296	0.16848	0.10231	0.14189	0.24366	0.11327	0.13693	0.12335	0.19426	0.10616	0.095084	0.26436	0.23219	-3.7812	-4.0479	-3.4313	-4.5125	-3.5	-3.5146	-4.4167	-3.5458	-3.9604	-3.9708	-3.5167	-4.3313	-3.6937	-3.6854	-4.3438	-3.6292	332.983	182.033	294.109	356.806	400.124	276.234	275.356	406.324	314.077	183.668	345.834	324.665	155.332	252.189	303.816	371.325	0.00094574	0.00030553	0.00010685	1016.9	8.2818e-06	4.8884e-06	1044.7	329.43	6.6043e-06	6.1927e-06	386.65	130.53	106.23	42.179	1.5178e-06	59.009	0.00048394	0.00042112	0.00011997	948.79	4.6012e-06	4.7107e-06	971.57	306.36	4.7907e-06	4.5871e-06	361.93	122.02	99.417	39.575	4.406e-06	55.711	109.130	189.880	133.314	93.552	216.588	248.893	93.139	98.861	209.128	220.639	97.491	102.932	103.672	109.632	266.177	107.724	-8191	255	
58858.211	1	1	0	0	0.049175	0.031708	0.072366	0.26606	0.21332	0.16859	0.13934	0.033703	0.34697	0.089313	0.14772	0.08106	0.13713	0.038102	0.097954	0.14946	-3.525	-4.1479	-3.5458	-4.3833	-3.7771	-3.5646	-4.4917	-3.6312	-3.9083	-4.1667	-3.3854	-4.2792	-4.0708	-3.7208	-4.1979	-3.7396	438.580	425.660	223.518	360.907	346.530	205.762	377.007	304.319	215.622	215.169	89.733	121.911	280.025	182.377	269.392	81.844	0.00099919	0.00049736	9.1205e-05	1021.1	4.4335e-06	3.7354e-06	1044.4	328.31	5.1464e-06	3.3435e-06	386.65	132.41	106.25	41.681	4.6813e-06	59.21	0.00049471	0.00041335	0.00011409	948.38	4.6911e-06	4.6692e-06	973.55	305.51	4.4801e-06	4.46e-06	361.7	122.65	99.432	39.417	4.4714e-06	55.809	112.192	185.265	193.176	93.401	219.124	241.529	92.975	98.679	210.583	276.376	97.829	102.770	103.719	109.520	269.811	107.696	-8191	255	
58858.309	1	1	0	0	0.28858	0.029273	0.31982	0.1467	0.092328	0.11046	0.18494	0.21742	0.12849	0.064833	0.052129	0.24392	0.23674	0.23512	0.070652	0.10809	-3.3812	-4.4	-3.4604	-4.2854	-3.8708	-3.4667	-4.475	-3.6292	-3.6063	-4.3063	-3.4917	-4.1354	-4.1375	-3.6063	-4.3125	-3.9396	416.609	265.667	307.320	392.759	274.482	167.973	382.448	118.174	189.719	352.197	200.052	398.849	98.254	426.925	236.980	348.466	0.0010316	0.00038483	0.00014588	1015.3	5.1014e-06	7.4449e-06	1048.2	325.42	7.3339e-06	5.6597e-06	389.37	132.15	106.47	41.619	7.938e-06	59.757	0.00048247	0.00041643	0.00011524	946.4	4.4823e-06	4.5582e-06	973.62	304.36	4.546e-06	4.4758e-06	363.02	122.93	99.581	39.465	4.5926e-06	56.033	108.693	154.610	127.800	93.620	237.749	231.819	92.654	98.734	208.584	266.066	97.749	103.334	104.003	109.434	199.257	108.027	-8191	255	
58858.406	1	1	0	0	0.15137	0.14614	0.3026	0.11618	0.016941	0.24497	0.076217	0.06285	0.22634	0.051457	0.20779	0.2374	0.048804	0.06659	0.077636	0.15143	-3.4542	-4.1083	-3.5062	-4.0458	-4.1062	-3.5625	-4.6167	-3.8542	-3.6667	-4.2875	-3.5938	-3.9	-4.4542	-3.3812	-4.2688	-3.9875	175.065	211.319	263.469	396.961	330.593	322.739	385.825	223.637	124.174	439.431	423.688	108.539	94.329	254.171	217.911	319.032	0.001036	0.00020671	0.00020072	1022.7	5.1942e-06	4.2212e-06	1052.3	326.7	5.091e-06	5.646e-06	387.12	130.57	106.74	42.101	7.7315e-06	59.31	0.0004719	0.00042376	0.00011613	949.38	4.5479e-06	4.6889e-06	971.89	304.93	4.588e-06	4.4077e-06	361.28	122.27	99.546	39.914	4.4732e-06	56.352	110.320	155.134	151.947	93.289	179.330	221.700	92.953	98.907	206.677	255.415	97.768	102.858	104.202	109.681	230.610	107.836	-8191	255	
58858.523	1	1	0	0	0.17873	0.22313	0.19634	0.1881	0.2129	0.28849	0.15534	0.15217	0.053274	0.24693	0.27463	0.17946	0.25563	0.2506	0.15226	0.2122	-3.2792	-4.4688	-3.5938	-3.7958	-4.3187	-3.3875	-4.3542	-4.0167	-3.5583	-4.4167	-3.5458	-3.9938	-4.4292	-3.5271	-4.0437	-4.0354	189.192	246.108	262.854	391.661	325.450	361.075	337.634	425.030	132.059	366.791	391.379	382.724	439.558	392.384	255.821	358.109	0.0010529	0.000572	5.2555e-05	1006.9	2.2405e-06	5.0595e-06	1033.3	324.43	7.0655e-06	3.1062e-06	386.64	131.9	106.69	42.547	3.9328e-06	60.588	0.00047723	0.00041769	0.0001163	938.79	4.4998e-06	4.3328e-06	960.8	302.35	4.557e-06	4.5252e-06	360.59	123.45	99.817	40.228	4.5744e-06	57.359	112.412	140.604	171.266	93.813	233.891	235.193	93.034	98.949	193.145	249.113	97.680	103.385	103.734	109.573	177.167	108.036	-8191	255	
58858.621	1	1	0	0	0.065139	0.10083	0.11679	0.21216	0.25961	0.2073	0.33935	0.2704	0.34512	0.058182	0.2379	0.30482	0.09993	0.18155	0.24218	0.016604	-3.0104	-4.275	-3.5646	-3.925	-4.1188	-3.475	-4.2125	-4.1062	-3.425	-4.3042	-3.8583	-3.8479	-4.4771	-3.4417	-4	-4.2833	182.881	159.436	231.560	333.633	434.653	178.175	327.589	307.057	370.595	331.652	428.786	97.614	125.070	372.462	94.966	129.963	0.0010776	0.00040466	0.00019744	993.24	3.7931e-06	2.6491e-06	1031	325.01	6.7369e-06	3.7712e-06	389.44	134.36	106.86	43.488	5.0538e-06	61.94	0.00048374	0.00041391	0.00011478	926.33	4.4842e-06	4.6358e-06	954.72	302.57	4.5638e-06	4.6042e-06	362.94	125.36	100.45	41.092	4.658e-06	58.893	107.912	165.540	174.351	93.945	236.921	244.376	92.976	99.108	213.516	223.231	97.942	103.152	104.221	109.899	241.475	108.765	-8191	255	
58858.691	1	1	0	0	0.24634	0.08454	0.15404	0.079144	0.18623	0.26161	0.12395	0.1541	0.078197	0.27627	0.12728	0.13402	0.11022	0.18272	0.097688	0.26746	-3.0125	-4.1542	-3.6979	-3.6625	-4.3417	-3.5479	-4.125	-4.2042	-3.5062	-4.3063	-3.9083	-3.4229	-4.3854	-3.5042	-3.9562	-4.1917	273.965	348.473	100.958	394.223	288.876	373.365	395.569	363.026	371.517	116.182	361.200	106.276	112.715	251.429	276.726	85.796	0.0010131	0.00051131	0.00019829	991.72	5.9696e-06	6.9289e-06	1021.7	325.21	4.762e-06	4.1711e-06	390.18	135.92	108.24	44.815	8.465e-06	64.139	0.00048337	0.00043527	0.00011855	920.58	4.4875e-06	4.8955e-06	946.93	302.68	4.7112e-06	4.7984e-06	364.18	127.12	101.76	42.34	4.6951e-06	60.642	113.071	186.318	129.580	93.550	205.973	223.341	93.187	99.308	194.591	182.180	98.448	103.259	104.332	110.024	178.434	108.506	-8191	255	
58858.789	1	1	0	0	0.079079	0.31788	0.032434	0.28091	0.13176	0.16064	0.36007	0.098958	0.14986	0.059068	0.024739	0.079839	0.21247	0.13329	0.19687	0.18997	-3.1417	-4.2458	-3.8167	-3.6375	-4.2583	-3.2625	-3.8417	-4.2833	-3.3208	-4.1896	-4.0521	-3.5146	-4.3958	-3.675	-3.7917	-4.4125	183.292	361.325	381.546	402.699	133.258	140.840	355.599	319.759	277.349	264.227	332.877	314.884	392.070	117.565	261.815	388.959	0.0010907	0.00045912	0.00021183	980.85	9.4398e-06	3.7903e-06	1012.8	326.87	4.9628e-06	8.3373e-06	395.79	139.93	111.66	47.195	5.2188e-06	67.633	0.00050573	0.00043418	0.00012388	914.44	4.7552e-06	5.1199e-06	942.3	305.25	4.9704e-06	5.068e-06	369.89	131.01	104.97	44.661	5.0512e-06	64.224	107.472	167.922	152.884	93.968	192.313	163.152	92.981	99.541	209.674	251.144	98.621	103.863	104.336	110.494	229.734	108.626	-8191	255	
58858.906	1	1	0	0	0.20209	0.10309	0.13522	0.14867	0.040507	0.22486	0.30092	0.12914	0.257	0.19595	0.086631	0.31385	0.263	0.12227	0.13744	0.45527	-2.9562	-4.0125	-4.0479	-3.5062	-4.2167	-3.6625	-3.7896	-4.4313	-3.3792	-4.0292	-4.1708	-3.4292	-4.3667	-3.8479	-3.6396	-4.5062	354.696	228.160	225.221	375.466	269.541	111.005	406.508	415.903	349.453	172.085	308.485	430.510	366.795	151.697	114.779	432.327	0.0011856	0.00066037	0.00014431	982.59	8.6799e-06	5.1897e-06	1017.6	334.94	6.6819e-06	5.3831e-06	411.28	150.45	120.15	51.911	3.9901e-06	75.476	0.00052691	0.0004604	0.00012573	912.54	5.13e-06	5.0612e-06	945.45	313.75	5.2082e-06	5.1738e-06	384.43	140.95	112.32	49.261	5.1298e-06	70.937	112.901	166.833	151.160	94.048	206.607	267.179	93.300	99.637	252.704	247.197	98.578	103.491	104.542	110.268	210.475	108.420	-8191	255	
58859.004	1	1	0	0	0.049647	0.10724	0.21336	0.20794	0.26431	0.147	0.28904	0.34379	0.15317	0.25345	0.25979	0.26312	0.24316	0.38803	0.18733	0.07246	-2.9333	-3.8958	-4.2208	-3.5667	-4.2812	-3.8729	-3.7146	-4.4646	-3.6042	-3.7396	-4.2646	-3.5042	-4.3229	-3.925	-3.7542	-4.4729	133.241	116.561	373.416	429.020	423.985	356.905	421.455	433.727	272.332	366.557	401.677	262.899	102.129	122.862	205.237	371.749	0.001246	0.00031993	0.00014361	989	2.6903e-06	6.3799e-06	1017.9	343.36	5.9722e-06	7.9395e-06	415.74	152.53	121.57	52.901	6.0734e-06	76.083	0.00057506	0.00047933	0.00012946	917.51	5.1794e-06	5.0439e-06	944.96	319.86	5.08e-06	5.0782e-06	388.73	143.17	113.74	50.082	4.8815e-06	72.029	109.961	179.361	147.060	94.118	254.823	205.480	93.392	99.734	234.505	218.807	98.722	103.937	104.936	110.474	240.341	108.697	-8191	255	
58859.102	1	1	0	0	0.10717	0.34502	0.13235	0.22722	0.099709	0.20394	0.17128	0.25479	0.087215	0.056743	0.12951	0.296	0.14072	0.051909	0.10857	0.081667	-3.1813	-3.9104	-4.1896	-3.5292	-4.1292	-3.9625	-3.6271	-4.4437	-3.5375	-3.9021	-4.3229	-3.4271	-4.0771	-4.1083	-3.4938	-4.3354	227.713	125.963	251.731	82.007	419.000	301.630	385.037	92.058	344.415	385.740	311.388	342.178	418.232	267.898	358.053	327.984	0.0013077	0.00048748	7.6882e-05	984.57	3.5607e-06	5.8947e-06	1010.2	344.53	7.7896e-06	6.2975e-06	415.65	153.53	122.01	53.249	7.2461e-06	75.044	0.00057204	0.0004629	0.00012905	917.77	5.2554e-06	5.1416e-06	944.13	322.09	5.1929e-06	5.2626e-06	390.33	143.75	114.35	50.37	5.0232e-06	71.181	111.240	143.506	189.563	94.084	174.375	230.980	93.601	99.821	200.975	200.486	98.881	103.713	105.334	110.552	234.118	108.309	-8191	255	
58859.195	1	1	0	0	0.11251	0.31788	0.12686	0.23848	0.11594	0.056975	0.23008	0.3471	0.095154	0.20311	0.37909	0.045485	0.18413	0.14408	0.17967	0.22761	-3.2604	-3.8083	-4.2833	-3.5979	-4	-4.1958	-3.575	-4.1542	-3.5833	-3.6604	-4.4333	-3.65	-3.9688	-4.0437	-3.4375	-4.375	291.128	313.103	154.027	420.258	289.404	418.266	410.140	371.833	421.842	378.012	419.173	349.840	390.299	407.163	327.520	394.358	0.0012513	0.0007561	0.00020036	984.48	6.5352e-06	3.4627e-06	999.92	339.65	5.0113e-06	6.795e-06	409.36	148.49	119.44	51.935	2.3928e-06	74.116	0.0005639	0.00046364	0.00012441	912.7	5.002e-06	4.8546e-06	931.79	317.45	4.9953e-06	4.8837e-06	381.62	139.67	111.84	49.22	4.9267e-06	70.03	112.406	160.344	163.306	93.842	213.872	214.558	93.277	99.918	207.825	266.388	98.921	103.916	104.760	110.422	233.027	108.257	-8191	255	
58859.316	1	1	0	0	0.18273	0.13831	0.14006	0.17459	0.089637	0.043686	0.25204	0.15294	0.076215	0.18474	0.0034477	0.066122	0.10977	0.076753	0.15594	0.18039	-3.5146	-3.5354	-4.3125	-3.6146	-3.7979	-4.1646	-3.6354	-4.2979	-3.8479	-3.4917	-4.4708	-3.7833	-3.8521	-4.2708	-3.3229	-4.1667	297.066	366.783	269.250	431.237	332.634	143.680	399.513	148.356	230.831	173.699	241.072	374.643	182.885	229.283	288.751	436.267	0.0012972	0.00085625	0.00027814	970.55	7.2474e-06	3.8879e-06	991.24	333.66	8.7186e-06	5.4359e-06	401.99	147.29	117.63	51.466	1.049e-05	73.395	0.00053603	0.00045938	0.000125	902.99	4.9718e-06	4.8045e-06	921.12	311.22	4.9787e-06	4.8847e-06	375.33	138.38	109.81	48.608	4.9712e-06	69.536	109.898	195.963	180.314	93.993	232.256	210.182	93.611	99.884	246.696	252.534	98.768	104.006	104.522	110.654	236.693	108.380	-8191	255	
58859.391	1	1	0	0	0.11054	0.1192	0.082475	0.18376	0.16261	0.19173	0.2672	0.072885	0.048305	0.17679	0.31027	0.15963	0.13134	0.30598	0.1408	0.15696	-3.5271	-3.3937	-4.2063	-3.7229	-3.7354	-4.2521	-3.5396	-4.0271	-3.9813	-3.4396	-4.2708	-3.7812	-3.7188	-4.1937	-3.4771	-4.3021	415.998	306.320	338.373	362.012	323.933	384.078	366.453	287.067	326.514	88.454	419.047	409.370	388.949	373.677	378.117	89.709	0.0012618	0.00047116	0.00011382	953.86	6.4631e-06	4.7279e-06	987.24	330.52	6.19e-06	5.0814e-06	402.07	147.69	116.8	51.065	5.2576e-06	73.766	0.00053125	0.0004477	0.00012665	890.2	4.8727e-06	4.8621e-06	917.02	308.09	4.9446e-06	4.8971e-06	374.87	138.22	109.15	48.492	4.9185e-06	69.583	112.706	148.305	130.065	93.812	201.054	230.167	93.570	99.587	220.714	237.829	98.804	104.031	104.625	110.598	219.496	108.854	-8191	255	
58859.508	1	1	0	0	0.12108	0.13286	0.091935	0.049094	0.10684	0.12279	0.13417	0.18042	0.21469	0.021248	0.20391	0.12725	0.095365	0.0086016	0.12219	0.0070775	-3.7396	-3.45	-4.2854	-3.7396	-3.4917	-4.3792	-3.7292	-4.0604	-4.1104	-3.4167	-4.3375	-4.0458	-3.4083	-4.4354	-3.5146	-3.9833	263.653	247.995	101.206	281.526	191.127	439.267	431.634	400.199	147.610	143.981	416.518	132.681	406.770	353.066	234.595	396.829	0.0012816	0.00054344	4.8769e-05	954.33	5.6091e-06	1.0008e-05	977.5	326.64	6.8106e-06	8.2085e-07	393.95	145.39	115.79	50.729	7.2739e-06	72.262	0.00053166	0.00044776	0.00012596	886.95	4.756e-06	4.7272e-06	909.6	305.54	4.6996e-06	4.7949e-06	369.3	135.87	108.15	47.999	4.7956e-06	68.521	109.969	141.593	150.639	94.146	236.480	210.009	93.475	99.707	242.429	227.534	98.499	103.709	104.697	110.268	250.064	108.415	-8191	255	
58859.605	1	1	0	0	0.097133	0.077025	0.16597	0.32946	0.18024	0.15695	0.19363	0.17347	0.15226	0.20856	0.11541	0.23168	0.062167	0.10209	0.26334	0.18937	-3.85	-3.4042	-4.2354	-4.1229	-3.6104	-4.3833	-3.5563	-3.9583	-4.1104	-3.4313	-4.2646	-4.1375	-3.5563	-4.4333	-3.6021	-3.9542	362.835	409.912	222.930	104.615	332.140	141.970	410.801	440.876	387.028	361.915	389.083	128.245	140.500	254.133	293.630	392.256	0.0011965	0.00041511	0.00015285	950.46	6.5172e-06	5.4559e-06	979.13	327.11	4.7734e-06	6.2925e-06	392.29	143.84	115.02	50.221	4.0568e-06	72.009	0.00049965	0.00042118	0.00011869	886.07	4.5366e-06	4.5952e-06	907.38	304	4.5257e-06	4.6397e-06	368.75	135.03	107.56	47.606	4.7314e-06	67.948	109.594	160.758	189.529	94.255	200.197	231.792	93.544	99.614	214.830	210.327	98.235	104.424	105.491	110.160	204.732	108.629	-8191	255	
58859.699	1	1	0	0	0.039655	0.22262	0.034511	0.22673	0.099012	0.11395	0.20112	0.29342	0.19901	0.17305	0.1484	0.069775	0.10609	0.099551	0.18552	0.21117	-3.9875	-3.3292	-4.1542	-4.1146	-3.3083	-4.4521	-3.8021	-3.7812	-4.3167	-3.6188	-4.1479	-4.0563	-3.5062	-4.3208	-3.7375	-3.6917	398.485	287.323	438.973	419.513	91.032	328.929	384.971	369.549	205.963	363.688	409.888	99.210	111.455	340.839	124.592	411.555	0.0012955	0.00027556	0.00011165	950.68	7.1036e-06	7.4643e-06	971.61	321.45	8.6608e-06	5.6039e-06	392.08	143.82	113.13	49.521	9.1406e-06	71.567	0.00051259	0.00043912	0.0001183	881.82	4.5715e-06	4.6769e-06	902.74	301.38	4.47e-06	4.6325e-06	366.29	134.56	106.4	47.121	4.5675e-06	67.697	104.303	433.021	177.833	94.507	222.785	224.400	93.440	99.691	248.268	260.914	98.558	104.096	104.539	110.526	232.925	108.560	-8191	255	
58859.797	1	1	0	0	0.2371	0.046508	0.12575	0.15729	0.24104	0.094276	0.011787	0.35205	0.157	0.10884	0.25245	0.17666	0.13512	0.167	0.16841	0.29385	-4.0021	-3.3979	-3.7875	-4.2042	-3.4854	-4.2229	-3.8646	-3.6729	-4.3083	-3.3792	-3.8917	-4.3292	-3.3937	-4.2979	-3.7938	-3.55	102.393	347.179	366.222	91.308	139.114	147.184	237.650	357.793	256.876	244.458	403.229	422.124	277.130	207.341	207.078	231.249	0.0012008	0.00028011	0.00012588	940.1	6.4474e-06	7.052e-06	966.41	321.74	5.5203e-06	8.7024e-06	393.3	144.38	114.49	50.231	4.9891e-06	71.548	0.00050732	0.00040993	0.00011271	874.25	4.5337e-06	4.5622e-06	897.52	301.1	4.5908e-06	4.6365e-06	366.53	134.74	106.96	47.546	4.6059e-06	67.937	108.332	137.507	154.155	94.478	198.517	248.425	93.666	99.613	242.456	251.630	98.883	104.120	104.616	109.810	221.387	108.379	-8191	255	
58859.918	1	1	0	0	0.29112	0.14561	0.23015	0.12004	0.12886	0.29791	0.24009	0.40607	0.17039	0.12823	0.096652	0.10473	0.17886	0.13496	0.23185	0.29296	-3.925	-3.6188	-3.6875	-4.375	-3.4021	-4.1479	-4.1146	-3.7896	-4.3667	-3.6521	-3.8979	-4.4437	-3.4708	-4.0729	-3.9667	-3.5271	255.654	272.679	368.169	332.513	105.828	411.949	386.585	409.025	143.546	235.644	416.114	398.677	128.160	129.445	112.771	361.046	0.0012358	0.00034477	0.00010602	930.17	6.0883e-06	7.6371e-06	954.1	319.63	6.5088e-06	7.6051e-06	385.37	142.3	113.99	49.536	6.3473e-06	70.819	0.00050058	0.00041027	0.0001164	868.28	4.6475e-06	4.6708e-06	888.74	298.97	4.6057e-06	4.5332e-06	361.07	133.29	106.03	47.078	4.5795e-06	67.034	110.931	182.601	203.479	94.338	214.141	196.630	93.943	99.470	240.375	215.248	98.660	104.205	105.406	110.267	235.001	108.494	-8191	255	
58859.988	1	1	0	0	0.10395	0.064834	0.081227	0.11923	0.09562	0.18348	0.1828	0.037744	0.040549	0.1517	0.10605	0.086297	0.23866	0.079156	0.16363	0.27432	-3.8875	-3.6104	-3.5333	-4.5229	-3.4562	-4.0604	-4.1979	-3.4542	-4.4146	-3.8375	-3.5687	-4.4917	-3.6562	-3.9188	-4.1417	-3.5563	315.234	233.613	324.868	303.000	241.745	313.123	379.643	244.152	411.115	240.659	407.058	366.476	408.639	106.787	310.835	436.209	0.0011639	0.00068073	0.00016443	924.58	2.6969e-06	6.4862e-06	943.44	316.3	4.5895e-06	8.3467e-06	382.65	139.79	110.65	48.785	4.1971e-06	70.013	0.00052542	0.00041761	0.00011484	862.43	4.5017e-06	4.5263e-06	880.63	295.54	4.5987e-06	4.6932e-06	357.42	131.46	103.85	46.078	4.4574e-06	66.131	112.234	162.878	177.563	94.221	240.423	233.234	93.431	99.544	215.939	231.354	98.580	104.090	105.058	110.280	201.051	108.374	-8191	255	
58860.086	1	1	0	0	0.16954	0.1815	0.094313	0.13701	0.13547	0.1278	0.071752	0.068115	0.21531	0.025974	0.21895	0.032744	0.286	0.21502	0.17736	0.0024823	-4.075	-3.8667	-3.7104	-4.4875	-3.3063	-3.9167	-4.2521	-3.4375	-4.2812	-3.7812	-3.7646	-4.5146	-3.6229	-3.8125	-4.3354	-3.6125	267.541	237.218	273.439	83.599	430.058	205.625	389.596	326.207	439.983	359.005	124.543	336.289	427.260	155.104	253.987	82.207	0.0011602	0.00045946	0.00013643	918.4	4.4702e-06	7.3097e-06	944	312.16	9.4462e-06	7.6916e-06	379.1	138.67	109.48	47.649	8.4278e-06	68.095	0.00052055	0.00041954	0.00011813	857.08	4.4957e-06	4.5712e-06	878.37	292.05	4.5864e-06	4.492e-06	354.12	129.63	102.29	45.064	4.5509e-06	64.608	116.066	163.471	189.149	94.292	219.758	223.012	93.339	99.729	218.446	253.273	98.775	103.765	104.415	110.193	222.305	108.731	-8191	255	
58860.180	1	1	0	0	0.15107	0.12935	0.022128	0.26464	0.070999	0.14436	0.094494	0.14203	0.26414	0.14213	0.036954	0.1111	0.14088	0.14498	0.030394	0.049243	-3.9771	-3.9688	-3.4354	-4.4979	-3.5646	-3.8104	-4.4	-3.4396	-4.0479	-3.9229	-3.5833	-4.4604	-3.5896	-3.7104	-4.3	-3.55	94.285	331.799	387.729	91.442	439.017	224.853	90.549	419.642	250.950	139.373	85.506	378.823	353.442	139.121	308.729	428.965	0.0010523	0.00023805	0.00014326	920.88	2.8084e-06	7.4293e-06	951.51	310.83	6.6493e-06	6.6048e-06	377.07	136.19	107.62	46.573	5.0603e-06	66.685	0.00049207	0.00040706	0.00011211	856.37	4.4896e-06	4.3756e-06	879.66	290.02	4.4535e-06	4.5748e-06	351.1	127.34	101.14	43.987	4.5507e-06	63.088	114.654	221.702	183.984	93.715	213.740	241.729	93.573	99.706	196.873	246.243	98.573	103.854	104.802	110.029	209.601	108.289	-8191	255	
58860.301	1	1	0	0	0.34208	0.17842	0.072748	0.089105	0.14267	0.19226	0.22561	0.065652	0.064985	0.046601	0.24905	0.05124	0.081613	0.23182	0.17151	0.31851	-3.3896	-3.9771	-3.5917	-4.3333	-3.7062	-3.6479	-4.5062	-3.4604	-4.0375	-4.1375	-3.4521	-4.3271	-4.0083	-3.7229	-4.4667	-3.6312	297.454	435.243	252.974	138.059	359.675	139.538	428.787	98.369	400.776	273.207	383.408	330.323	437.329	376.873	257.642	357.517	0.001265	0.00064375	0.00016239	923.95	8.2433e-06	1.9434e-06	939.41	307.47	5.4799e-06	1.2656e-05	370.03	133.89	106.09	45.473	7.399e-06	65.05	0.00049311	0.0004013	0.00011975	858.23	4.5885e-06	4.3488e-06	875.42	287.42	4.397e-06	4.5642e-06	345.95	125.17	99.391	43.031	4.5534e-06	61.574	110.626	171.978	165.014	93.979	191.289	280.615	93.536	99.533	230.866	268.057	98.530	104.021	104.514	110.025	265.393	108.411	-8191	255	
58860.395	1	1	0	0	0.15284	0.039045	0.10636	0.12822	0.075467	0.37575	0.13224	0.16881	0.10726	0.10704	0.051037	0.2753	0.16271	0.20011	0.18675	0.12205	-3.5042	-4.2167	-3.4917	-4.3104	-3.6458	-3.3833	-4.4417	-3.4083	-3.5667	-4.2646	-3.5083	-4.175	-4	-3.5229	-4.3875	-3.6146	205.701	288.711	112.024	126.078	294.216	268.531	304.933	233.634	416.981	227.386	434.334	334.946	398.199	143.178	430.122	119.079	0.0010929	0.00071797	0.0001896	918.78	2.3047e-06	2.2366e-06	933.62	304.31	5.4563e-06	4.4408e-06	364.32	132	103.85	44.57	6.6543e-06	64.074	0.00049393	0.00041321	0.00011549	853.87	4.3702e-06	4.368e-06	869.2	284.09	4.4845e-06	4.4934e-06	342.14	123.27	97.786	42.198	4.4885e-06	60.555	109.770	150.920	178.164	94.211	262.702	243.573	93.308	99.679	166.375	282.211	98.266	104.249	104.552	110.073	252.679	108.400	-8191	255	
58860.492	1	1	0	0	0.15654	0.095918	0.14337	0.13147	0.14822	0.24904	0.11622	0.10933	0.19112	0.17981	0.12981	0.09437	0.20358	0.11527	0.053405	0.088368	-3.4792	-4.2188	-3.3438	-4.3313	-4.1292	-3.4625	-4.4854	-3.7375	-3.6792	-4.2021	-3.6292	-4.0813	-4.1	-3.4979	-4.4083	-3.7708	292.235	95.997	430.733	257.009	81.437	301.940	327.221	104.979	158.701	289.964	347.217	415.772	414.717	408.842	142.335	92.217	0.0011876	0.00062739	0.00020247	921.75	3.9531e-06	5.5605e-06	938.59	303.29	6.8873e-06	3.5094e-06	361.65	131.05	104.11	44.258	5.9957e-06	63.484	0.00049509	0.00040987	0.00011452	855.81	4.44e-06	4.4819e-06	870.02	283.25	4.423e-06	4.6677e-06	341.18	122.15	97.633	41.834	4.5143e-06	60.153	111.792	152.246	149.543	93.650	245.035	217.813	93.291	99.374	219.924	234.086	98.133	103.788	104.882	110.201	226.275	108.187	-8191	255	
58860.590	1	1	0	0	0.29297	0.13667	0.16827	0.19173	0.029507	0.031197	0.16442	0.070955	0.062504	0.11035	0.2198	0.15851	0.15671	0.051944	0.19771	0.25371	-3.2354	-4.2646	-3.4729	-3.9417	-4.1396	-3.5708	-4.3542	-3.8104	-3.5542	-4.3562	-3.5333	-3.8021	-4.2542	-3.6708	-4.1937	-3.975	98.814	246.202	378.596	112.829	93.324	272.823	390.236	342.153	186.306	83.646	391.037	208.659	149.100	342.631	291.279	403.463	0.0011427	0.0009679	7.8618e-05	919.48	4.2183e-06	5.7604e-06	940.57	302.46	4.6926e-06	1.1348e-05	363.86	129.51	103.55	43.82	3.9627e-06	62.772	0.00048482	0.00040781	0.00011834	853.05	4.4529e-06	4.5134e-06	872.79	282.69	4.3967e-06	4.5485e-06	339.79	121.2	96.666	41.282	4.3507e-06	59.251	109.972	184.304	110.968	93.836	196.569	190.110	93.487	99.554	220.931	247.888	98.426	103.478	104.653	110.360	288.906	108.658	-8191	255	
58860.684	1	1	0	0	0.096935	0.04408	0.14449	0.12897	0.18262	0.27503	0.17986	0.28684	0.41171	0.049744	0.1935	0.11175	0.04493	0.1755	0.24493	0.10347	-3.15	-4.3187	-3.5729	-3.9437	-4.2479	-3.5083	-4.3875	-4.0083	-3.3438	-4.3042	-3.5875	-3.8167	-4.3562	-3.4625	-4.0542	-4.0813	431.038	286.001	365.706	101.011	221.779	222.704	88.235	418.838	299.497	362.062	398.660	103.563	134.708	328.452	439.251	171.273	0.0010573	0.00055375	0.00023909	916.39	8.3528e-06	3.7316e-06	936.27	301.59	5.6912e-06	3.8787e-06	362.89	128.91	102.98	43.21	5.7713e-06	62.149	0.00047698	0.00040825	0.00011359	853	4.3139e-06	4.3798e-06	868.64	282.28	4.4629e-06	4.4123e-06	337.74	120.42	96.248	40.952	4.5287e-06	58.627	108.952	159.577	169.594	93.770	210.637	186.388	93.230	99.370	192.969	223.900	98.226	103.889	104.844	110.513	236.343	108.428	-8191	255	
58860.781	1	1	0	0	0.069676	0.17791	0.23875	0.19926	0.18603	0.060649	0.23034	0.32122	0.37366	0.090703	0.098679	0.14812	0.19903	0.21299	0.228	0.12379	-3.1583	-4.3354	-3.6333	-3.8521	-4.3125	-3.4958	-4.15	-4.1167	-3.3917	-4.3313	-3.8625	-3.7583	-4.2667	-3.5958	-3.9417	-4.2146	261.865	399.497	187.171	401.241	408.980	239.743	125.135	331.309	275.209	202.599	83.844	83.514	393.397	91.543	359.162	284.466	0.0010627	0.00061387	0.00010727	915.95	5.2633e-06	3.6309e-06	929.37	301.19	5.3581e-06	5.8197e-06	362.84	127.36	103.11	43.003	4.0703e-06	61.628	0.00047387	0.00040691	0.0001138	852.58	4.4017e-06	4.5208e-06	866.76	281.31	4.3579e-06	4.4114e-06	337.7	119.44	96.433	40.726	4.2796e-06	58.437	110.406	179.581	145.673	93.747	190.046	209.033	93.067	99.348	213.046	205.211	98.621	103.910	104.364	110.158	219.044	108.181	-8191	255	
58860.898	1	1	0	0	0.10355	0.15812	0.17204	0.073309	0.33537	0.066492	0.32335	0.14898	0.21946	0.13866	0.0067606	0.11314	0.34436	0.15349	0.23998	0.20522	-2.9396	-4.1292	-3.8292	-3.7271	-4.4187	-3.5812	-3.9229	-4.2479	-3.575	-4.3313	-4.1687	-3.7062	-4.3771	-3.6188	-3.8708	-4.4333	320.985	290.458	306.909	372.859	187.103	241.018	306.737	405.874	99.331	204.183	170.458	126.067	388.158	136.614	194.903	111.013	0.0010025	0.00067269	0.00026307	918.32	6.8687e-06	3.9352e-06	939.27	304.29	3.8641e-06	6.4982e-06	362.33	129.62	104.3	43.691	6.8329e-06	62.118	0.00046468	0.00040901	0.00010744	854.82	4.427e-06	4.3694e-06	870.58	284.77	4.5171e-06	4.4768e-06	340.5	121.15	97.66	41.303	4.4198e-06	58.676	110.617	168.487	156.237	93.794	210.026	175.650	93.246	99.757	203.060	205.388	98.238	103.703	104.452	109.834	242.655	107.999	-8191	255	
58860.996	1	1	0	0	0.12722	0.023692	0.12137	0.11594	0.14526	0.08754	0.25998	0.23114	0.25569	0.025961	0.29621	0.20131	0.1797	0.10705	0.023457	0.34899	-3.1521	-4.3042	-3.95	-3.5854	-4.5229	-3.7604	-3.7542	-4.3583	-3.4854	-4.1583	-3.9396	-3.4771	-4.2542	-3.6875	-3.5875	-4.4062	363.424	313.176	144.995	420.556	99.242	88.430	211.152	139.383	376.512	201.712	374.878	356.173	362.825	344.967	298.978	88.803	0.00098724	0.00046821	0.00010011	930.22	5.1014e-06	7.6456e-06	943.68	311.03	7.5493e-06	6.1604e-06	364.21	129.19	105.53	43.532	6.4576e-06	61.074	0.00048818	0.00040412	0.00011046	865.29	4.4938e-06	4.3529e-06	876.28	289.12	4.5495e-06	4.2947e-06	341.56	120.71	98.356	41.145	4.3684e-06	57.93	108.024	170.294	192.424	93.481	216.571	257.666	92.851	99.341	218.173	237.343	98.147	103.185	104.660	109.751	257.498	108.324	-8191	255	
58861.094	1	1	0	0	0.17077	0.15232	0.092489	0.28444	0.28544	0.10142	0.12121	0.15935	0.2001	0.14623	0.1301	0.1459	0.13984	0.35718	0.075557	0.11507	-3.1292	-3.9667	-4.0813	-3.5146	-4.2104	-3.6771	-3.8792	-4.2833	-3.325	-3.8521	-4.2146	-3.5021	-4.2312	-3.875	-3.5438	-4.1854	275.270	349.819	232.661	381.478	179.405	341.150	366.750	406.177	382.792	380.599	363.163	355.277	338.716	396.284	436.131	404.635	0.0010494	0.00053927	0.00014362	928.71	3.5409e-06	4.7568e-06	936.18	309.34	8.0652e-06	6.3311e-06	364.32	128.22	104.49	43.467	5.8655e-06	61.577	0.00048109	0.00040066	0.00011248	862.05	4.2226e-06	4.3208e-06	871.63	287.84	4.5229e-06	4.4419e-06	339.96	120.32	97.945	41.137	4.42e-06	58.143	114.914	173.291	111.038	93.699	198.490	211.061	92.729	99.145	226.972	203.169	98.658	103.510	104.449	110.051	251.308	108.333	-8191	255	
58861.188	1	1	0	0	0.12943	0.14697	0.14505	0.26398	0.22413	0.12498	0.18322	0.30182	0.094595	0.1929	0.24738	0.17439	0.10904	0.19819	0.29994	0.09647	-3.1646	-4.0292	-4.1271	-3.5667	-4.2188	-3.7687	-3.5958	-4.2833	-3.6479	-3.5563	-4.3292	-3.4521	-4.3583	-3.9062	-3.4208	-4.3688	105.772	153.064	186.043	439.708	217.184	401.777	220.699	339.674	175.889	396.103	427.864	397.510	125.042	440.992	300.851	107.626	0.0012137	0.00030505	0.00020021	925.53	4.9605e-06	7.0394e-06	936.13	308.18	7.0859e-06	6.6599e-06	365.93	129.9	105.52	44.42	6.836e-06	62.774	0.00048438	0.00041903	0.00011352	858.91	4.4298e-06	4.564e-06	871.04	287.9	4.5049e-06	4.2774e-06	342.34	121.85	98.64	41.728	4.5808e-06	59.174	113.432	135.787	152.085	93.530	204.230	194.948	93.336	99.464	197.372	269.151	98.615	103.711	104.447	110.204	250.023	107.610	-8191	255	
58861.285	1	1	0	0	0.091235	0.090414	0.16167	0.22893	0.32848	0.23735	0.24291	0.047438	0.051627	0.18729	0.22313	0.24246	0.22146	0.102	0.23015	0.058918	-3.2188	-3.7521	-4.1521	-3.3917	-3.9417	-4.0125	-3.5292	-4.2958	-3.7208	-3.6875	-4.3229	-3.5729	-4.1521	-4.0938	-3.4958	-4.3229	358.897	218.166	421.226	416.078	137.543	142.494	103.248	419.830	233.008	295.378	402.057	311.742	299.621	396.952	293.949	290.217	0.001118	0.00042767	0.00016625	920.34	8.4881e-06	3.5762e-06	939.03	312.87	6.0624e-06	5.345e-06	369.59	130.76	106.11	44.77	6.085e-06	63.988	0.00048027	0.00039787	0.00011644	859.5	4.4519e-06	4.332e-06	873.33	290.64	4.5405e-06	4.5188e-06	344.66	122.93	99.582	42.303	4.6757e-06	60.244	113.533	166.818	188.141	93.897	235.175	173.539	93.196	99.591	226.996	267.762	98.175	103.532	104.208	109.985	234.907	108.162	-8191	255	
58861.379	1	1	0	0	0.17304	0.10627	0.31646	0.09699	0.19981	0.062024	0.19079	0.2098	0.11528	0.16308	0.29007	0.37971	0.028729	0.045796	0.19247	0.062709	-3.3396	-3.5583	-4.2604	-3.5521	-3.8542	-4.2229	-3.4938	-4.2875	-3.85	-3.6667	-4.5083	-3.4188	-3.8542	-4.0833	-3.3708	-4.2792	161.003	323.569	96.364	409.696	410.731	317.107	245.361	90.209	210.946	425.992	132.058	350.680	308.301	416.023	331.382	104.151	0.0010916	0.00042449	0.00024186	924.96	6.337e-06	3.5056e-06	932.08	310.59	6.0694e-06	3.2339e-06	370.69	132.48	107.06	45.349	6.738e-06	65.135	0.00048247	0.00042013	0.00012061	858.04	4.6143e-06	4.5731e-06	868.04	290.89	4.6725e-06	4.6055e-06	345.47	124.18	100.3	43.115	4.668e-06	61.164	110.650	159.746	169.167	93.847	226.977	210.659	92.890	99.474	237.366	260.845	98.442	103.416	104.322	110.314	233.102	108.269	-8191	255	
58861.477	1	1	0	0	0.14091	0.24666	0.21837	0.24688	0.11666	0.26399	0.22962	0.21997	0.28038	0.10625	0.13396	0.026152	0.087336	0.044836	0.21769	0.27001	-3.525	-3.4333	-4.1917	-3.5729	-3.7958	-4.1375	-3.4583	-4.3083	-3.9188	-3.3792	-4.375	-3.6063	-3.7292	-4.275	-3.3229	-4.2667	219.535	176.339	362.995	340.535	234.427	253.238	430.731	428.295	439.830	411.540	374.098	219.823	348.125	434.400	152.275	190.786	0.0011129	0.00067529	0.00018293	912.85	7.1259e-06	6.1746e-06	930.11	309.69	8.3541e-06	4.9923e-06	368.96	133.7	107.84	45.716	5.6021e-06	65.446	0.00050226	0.00042876	0.00011915	849.79	4.614e-06	4.6745e-06	863.52	289.89	4.68e-06	4.6952e-06	345.54	124.83	100.64	43.549	4.7355e-06	61.899	112.499	154.883	165.366	93.640	191.707	217.762	93.289	99.481	213.644	251.750	98.657	103.969	104.231	110.300	219.135	108.278	-8191	255	
58861.598	1	1	0	0	0.36222	0.19412	0.16197	0.20424	0.31285	0.015827	0.10058	0.1611	0.097251	0.10083	0.19725	0.11333	0.25816	0.041697	0.0632	0.35035	-3.6646	-3.4646	-4.2271	-3.5896	-3.675	-4.0854	-3.5375	-4.1333	-3.9167	-3.3542	-4.175	-3.6875	-3.6667	-4.3708	-3.5167	-3.975	238.998	343.206	303.019	165.604	185.873	262.301	315.133	339.971	186.096	377.549	96.439	406.544	323.034	435.073	328.890	357.311	0.0010668	0.00060216	0.00010419	909.93	4.1248e-06	4.5578e-06	924.55	307.44	6.645e-06	8.2404e-06	369.67	134.43	107.03	46.232	6.1097e-06	66.758	0.00049203	0.00043062	0.00011921	848.2	4.6487e-06	4.8023e-06	859.19	287.59	4.6683e-06	4.6084e-06	345.18	125.65	100.39	43.653	4.6008e-06	62.685	115.413	145.574	163.135	93.654	212.181	249.072	93.424	99.348	223.639	256.407	98.275	103.808	104.549	110.428	252.886	108.459	-8191	255	
58861.691	1	1	0	0	0.12037	0.10325	0.13656	0.31711	0.055761	0.17971	0.050741	0.13674	0.1174	0.14047	0.12978	0.13011	0.27541	0.19191	0.076861	0.031724	-3.9229	-3.2875	-4.2771	-4.0479	-3.4083	-4.2792	-3.6396	-4.0417	-4.1646	-3.1688	-4.3292	-3.9521	-3.5771	-4.3375	-3.4375	-3.9229	152.515	329.831	125.528	412.873	405.443	191.930	303.974	199.295	92.053	386.560	414.826	415.706	128.303	428.115	128.738	326.599	0.001101	0.00022223	9.1885e-05	906.62	4.6146e-06	5.3598e-07	922.89	308.03	9.1371e-06	1.3982e-06	372.67	135.84	107.25	46.921	5.5419e-06	66.816	0.00049898	0.00041975	0.00011566	842.47	4.5232e-06	4.5681e-06	856.47	287.72	4.767e-06	4.6404e-06	346.71	126.4	100.78	44.251	4.6657e-06	63.275	110.063	139.132	131.665	94.099	229.775	300.727	93.388	99.328	206.018	193.975	98.774	104.036	104.803	110.223	250.344	108.396	-8191	255	
58861.785	1	1	0	0	0.11706	0.11511	0.33506	0.076054	0.21187	0.29964	0.18934	0.06289	0.23897	0.14181	0.45683	0.10348	0.39698	0.1029	0.13295	0.32375	-3.9104	-3.3479	-4.1271	-3.9354	-3.3438	-4.2854	-3.6333	-3.7542	-4.2396	-3.4813	-4.25	-4.1792	-3.5979	-4.4375	-3.5979	-3.8667	416.086	280.891	202.849	249.256	385.589	339.551	327.465	121.829	304.878	85.387	398.968	155.019	352.991	257.682	127.710	381.197	0.0010375	0.00051091	0.00016178	902.42	3.3832e-06	8.8464e-06	919.81	307.47	4.9238e-06	4.2085e-06	370.37	135.43	108.47	47.217	5.3776e-06	66.603	0.00051267	0.00041723	0.00012344	840.27	4.63e-06	4.6276e-06	855.41	287.81	4.8072e-06	4.809e-06	346.34	126.63	101.57	44.457	4.6849e-06	63.221	107.582	165.058	145.260	94.113	190.593	186.861	93.836	99.561	213.392	239.108	98.637	104.102	104.500	110.428	242.940	108.586	-8191	255	
58861.859	1	1	0	0	0.22927	0.045659	0.30748	0.18429	0.073258	0.11572	0.22861	0.040655	0.12899	0.21194	0.22981	0.13889	0.29742	0.19574	0.19889	0.11384	-3.9562	-3.2958	-4.1354	-4.0771	-3.4688	-4.4229	-3.7812	-3.7146	-4.3938	-3.4542	-4.0813	-4.2688	-3.3667	-4.1583	-3.7562	-3.5979	164.028	99.988	227.901	397.928	225.736	155.862	295.905	118.348	325.398	95.909	368.779	328.681	418.773	399.275	95.381	377.283	0.0011683	0.00075266	5.9254e-05	900.97	7.1717e-06	3.8944e-06	917.14	309.4	4.9732e-06	8.0052e-06	368.77	134.81	108.94	46.7	7.6354e-06	66.558	0.00052245	0.00044704	0.00012135	842.68	4.588e-06	4.8308e-06	853.88	288.52	4.7288e-06	4.8868e-06	345.47	126.16	101.53	44.281	4.8367e-06	62.826	110.687	164.419	268.064	93.897	189.358	114.465	93.241	99.509	194.065	203.403	98.285	104.146	104.645	109.934	206.139	108.254	-8191	255	
58861.980	1	1	0	0	0.094957	0.18206	0.17433	0.061647	0.080501	0.12105	0.051882	0.17636	0.09484	0.12871	0.15875	0.15647	0.23575	0.1236	0.11295	0.18652	-4.0375	-3.4104	-3.9396	-4.2	-3.4458	-4.1896	-3.9042	-3.4792	-4.3333	-3.5458	-3.8833	-4.2021	-3.4833	-4.0979	-3.8604	-3.4938	362.976	127.529	204.762	430.756	216.124	298.278	104.632	358.185	354.680	422.614	360.941	342.786	364.220	409.882	311.284	294.569	0.0011525	0.00050273	0.00016868	905.43	8.4492e-06	3.9765e-06	928.75	309.06	5.0959e-06	9.4165e-06	372.2	133.89	107.91	46.779	4.0741e-06	66.375	0.00051892	0.00043425	0.00012192	844.09	4.7047e-06	4.7319e-06	857.89	288.62	4.8677e-06	4.7866e-06	346.51	125.76	100.85	44.187	4.8534e-06	62.849	110.354	147.677	144.178	93.896	232.079	259.619	93.381	99.515	198.882	256.301	98.522	104.104	104.351	110.676	202.520	108.239	-8191	255	
58862.074	1	1	0	0	0.1107	0.12465	0.11796	0.092856	0.22471	0.3158	0.29916	0.23289	0.22431	0.13407	0.066585	0.22115	0.27287	0.096302	0.12604	0.24017	-3.8812	-3.5354	-3.6792	-4.2604	-3.4729	-4.0229	-4.1583	-3.4979	-4.3521	-3.6854	-3.7062	-4.2604	-3.3729	-4.1146	-4.0771	-3.4896	261.826	395.532	346.818	431.152	383.567	191.903	439.961	117.889	337.131	219.980	362.489	386.523	132.199	277.389	273.476	93.567	0.0011389	0.00049812	0.00018155	911.44	3.7625e-06	8.6623e-06	916.01	306.38	6.3501e-06	7.3286e-06	369.81	134.65	107.09	46.389	6.8164e-06	65.689	0.0005177	0.00044212	0.00012366	844.6	4.7058e-06	4.7382e-06	853.17	287.1	4.8481e-06	4.7099e-06	345.42	125.75	100.5	43.976	4.8191e-06	62.426	112.160	163.113	178.892	93.976	210.163	203.405	93.625	99.522	211.211	220.638	98.659	103.689	104.801	110.094	251.324	107.917	-8191	255	
58862.172	1	1	0	0	0.087281	0.1296	0.054901	0.29405	0.06088	0.12965	0.26811	0.2754	0.2409	0.18002	0.057861	0.0621	0.28434	0.13874	0.10861	0.25244	-4	-3.6312	-3.6	-4.3083	-3.2146	-4.0604	-4.1333	-3.3896	-4.1479	-3.7687	-3.625	-4.4896	-3.5792	-3.8958	-4.0708	-3.4833	107.335	225.028	126.876	431.862	279.952	97.547	269.559	331.531	243.059	415.360	377.788	261.773	105.519	403.180	93.351	325.178	0.0010721	0.00037254	0.00014227	906.8	3.5575e-06	6.7861e-06	917.5	305.06	3.2504e-06	5.4605e-06	367.53	134.94	107.74	46.189	6.4086e-06	65.169	0.00050199	0.00042118	0.00012309	841.39	4.7459e-06	4.6826e-06	852.69	286.14	4.674e-06	4.8444e-06	344	125.3	100.32	43.753	4.9487e-06	62.189	108.207	214.287	152.056	93.925	218.257	239.794	93.925	99.542	253.703	256.575	98.215	104.013	104.946	110.456	211.454	108.537	-8191	255	
58862.270	1	1	0	0	0.072228	0.28105	0.069146	0.14125	0.19393	0.17159	0.19705	0.24769	0.027186	0.20778	0.12575	0.13377	0.31704	0.25028	0.23693	0.1743	-3.9083	-3.8354	-3.4188	-4.4	-3.5354	-3.7792	-4.1771	-3.4917	-4.125	-3.9104	-3.4437	-4.4125	-3.6271	-3.8292	-4.1104	-3.3979	232.091	106.714	345.260	117.194	219.926	253.886	401.054	417.257	83.154	327.138	98.691	338.239	413.892	151.852	437.154	361.935	0.001103	0.00056397	0.00012578	901.94	9.2626e-06	1.9268e-06	919.04	305.04	5.518e-06	3.7976e-06	366.45	133.79	107.53	46.275	5.9256e-06	65.842	0.00051516	0.00043633	0.00012131	839.49	4.6132e-06	4.7035e-06	854.13	285.4	4.6941e-06	4.8591e-06	343.57	125.14	100.14	43.779	4.7633e-06	62.481	114.301	188.707	187.874	93.669	223.859	117.711	93.387	100.078	187.628	224.173	98.500	103.650	104.712	110.145	229.596	108.316	-8191	255	
58862.391	1	1	0	0	0.15763	0.24717	0.13737	0.20859	0.24648	0.12742	0.107	0.25422	0.014916	0.055078	0.14514	0.23607	0.093409	0.036434	0.10977	0.20283	-3.8333	-4.025	-3.4667	-4.2937	-3.5396	-3.7792	-4.2146	-3.4646	-3.9771	-4.0437	-3.3875	-4.3271	-3.6396	-3.6521	-4.1458	-3.475	408.906	415.625	113.448	436.930	234.611	264.163	376.243	91.493	382.711	311.607	239.986	301.791	291.001	94.019	296.706	352.763	0.0011736	0.00054514	0.00014734	902.7	6.0964e-06	4.1234e-06	916.84	307.03	6.2083e-06	2.414e-06	369.27	133.6	106.61	46.156	8.3036e-06	65.865	0.0005068	0.00043622	0.00011824	839.66	4.6906e-06	4.7372e-06	854.09	286.31	4.7181e-06	4.8605e-06	344.74	125.41	99.965	43.667	4.6434e-06	62.419	110.762	176.033	149.969	93.740	208.968	236.846	93.736	99.732	187.976	234.568	98.476	104.031	104.715	110.083	217.429	108.476	-8191	255	
58862.484	1	1	0	0	0.057126	0.17151	0.10214	0.14212	0.065408	0.11756	0.14563	0.19298	0.29437	0.11347	0.075574	0.1175	0.18834	0.063658	0.22956	0.19721	-3.5375	-3.9938	-3.175	-4.1167	-3.7979	-3.5958	-4.4729	-3.6625	-3.9604	-4.1146	-3.5187	-4.175	-4.0458	-3.5229	-4.1875	-3.7792	397.998	141.245	98.011	332.577	441.433	139.882	355.886	434.831	159.104	322.806	115.545	386.484	268.572	311.055	228.821	153.998	0.0012442	0.00030013	0.00019373	900.27	6.0471e-06	4.1726e-06	921.21	306.59	6.1728e-06	5.6959e-06	363.93	132.15	105.89	46.023	5.6522e-06	65.508	0.00051171	0.00043692	0.00011998	841.39	4.5846e-06	4.8113e-06	855.08	286.13	4.7761e-06	4.6947e-06	342.76	124.49	99.84	43.506	4.7557e-06	61.871	111.327	108.064	138.165	93.778	226.296	235.066	93.531	99.568	229.596	213.876	98.513	103.700	104.647	110.291	215.176	108.478	-8191	255	
58862.582	1	1	0	0	0.037486	0.15323	0.10864	0.1075	0.18832	0.25483	0.19511	0.11163	0.29127	0.28406	0.16027	0.44574	0.14387	0.32839	0.23775	0.12022	-3.5417	-4.1833	-3.4562	-4.1021	-3.8833	-3.4896	-4.4167	-3.75	-3.7354	-4.3167	-3.4729	-4.0375	-4.125	-3.4104	-4.3104	-3.8438	280.601	176.175	197.106	375.495	113.467	99.990	407.114	105.322	220.390	332.298	439.987	424.665	402.539	415.022	331.067	172.504	0.0011164	0.00061877	0.00010284	901.17	9.2219e-06	2.6618e-06	924.37	304.94	6.262e-06	5.9342e-06	369.12	132.22	105.78	45.578	6.3665e-06	64.7	0.00052188	0.00043346	0.0001208	842.31	4.7661e-06	4.8077e-06	858.04	285.51	4.7142e-06	4.6703e-06	344.11	124.08	99.638	43.137	4.7629e-06	61.417	109.967	203.895	155.145	93.888	217.413	255.332	93.093	99.569	240.064	242.405	98.245	103.505	104.685	109.983	180.892	108.393	-8191	255	
58862.676	1	1	0	0	0.12816	0.15713	0.19186	0.31178	0.1081	0.089158	0.06018	0.52391	0.12077	0.14724	0.20194	0.052124	0.070898	0.10909	0.089637	0.28776	-3.4958	-4.3167	-3.4167	-4.1	-3.9542	-3.4667	-4.4875	-3.8604	-3.6854	-4.2667	-3.4354	-3.975	-4.0208	-3.2958	-4.1792	-3.8458	373.667	297.069	323.521	419.184	382.478	280.170	116.816	389.430	438.084	97.620	407.637	255.814	138.655	234.085	386.189	115.636	0.001201	0.00063206	0.00015337	908.55	6.8608e-06	3.7049e-06	918.4	308.47	4.1852e-06	1.0117e-05	368.69	133.93	107.76	45.554	6.6063e-06	65.442	0.0005035	0.0004303	0.00012305	841.98	4.7168e-06	4.7676e-06	854.88	286.81	4.8757e-06	4.5286e-06	345	125.1	100.65	43.39	4.7752e-06	62.015	114.131	140.805	206.606	93.522	208.710	250.805	93.446	99.862	187.516	255.906	98.232	103.994	104.908	110.258	209.837	108.573	-8191	255	
58862.773	1	1	0	0	0.064784	0.1216	0.14065	0.13975	0.093516	0.069857	0.069263	0.14047	0.11411	0.25242	0.23679	0.14059	0.26122	0.22753	0.098691	0.14308	-3.4375	-4.1917	-3.2771	-3.8271	-4.0417	-3.3792	-4.3771	-3.9521	-3.5604	-4.2729	-3.6854	-3.8208	-4.1125	-3.525	-4.1396	-4.0167	418.901	381.044	144.106	119.861	335.460	147.469	221.659	388.115	97.384	221.017	433.137	439.788	424.523	418.278	103.996	102.757	0.0010488	0.00045866	0.0001278	904.12	5.8734e-06	6.0345e-06	927.93	306.37	5.8238e-06	5.0906e-06	366.31	134.58	107.39	46.014	4.3707e-06	66.51	0.00050013	0.00042641	0.00012027	841.62	4.5159e-06	4.7679e-06	860.41	286.19	4.6073e-06	4.9256e-06	345.02	125.76	100.13	43.551	4.8068e-06	62.699	113.829	121.181	174.314	94.047	208.356	243.200	93.543	99.591	213.467	208.142	98.468	104.034	104.614	110.328	204.145	108.877	-8191	255	
58862.871	1	1	0	0	0.14848	0.45062	0.1648	0.058003	0.10103	0.1156	0.20921	0.11812	0.18016	0.2594	0.13904	0.2482	0.12547	0.11741	0.092853	0.095125	-3.0292	-4.2167	-3.6063	-3.9021	-4.2042	-3.3521	-4.0188	-4.0125	-3.35	-4.2354	-3.6771	-3.8167	-4.35	-3.5875	-3.9625	-3.9375	156.717	336.444	144.442	286.347	127.579	228.392	272.893	257.363	103.823	138.101	351.423	380.358	417.071	433.674	277.739	410.945	0.0011844	0.00062013	0.00015119	900.82	8.2798e-06	4.142e-06	919.67	304.2	7.5762e-06	2.6613e-06	370.46	135.49	107.33	46.677	6.7434e-06	66.701	0.00050338	0.00042606	0.00011938	836.79	4.594e-06	4.5801e-06	853.3	284.65	4.7034e-06	4.6713e-06	345.58	126.25	100.2	44.129	4.6976e-06	63.123	110.751	178.740	159.217	93.630	209.314	254.448	93.612	99.562	254.704	246.534	98.805	103.567	105.154	110.018	227.129	108.827	-8191	255	
58862.988	1	1	0	0	0.12915	0.058304	0.22972	0.082842	0.1542	0.035368	0.071369	0.2104	0.13347	0.13897	0.099551	0.13755	0.17388	0.20186	0.071681	0.13856	-2.9771	-4.1396	-3.6667	-3.7917	-4.2438	-3.5042	-3.9167	-4.2063	-3.2771	-4.1646	-3.8104	-3.7083	-4.4771	-3.4083	-3.7812	-4.2188	257.540	110.045	109.620	105.229	175.546	190.760	344.679	90.332	390.847	283.782	335.365	407.438	102.022	110.992	363.566	193.074	0.0011605	0.00089677	7.0742e-05	898.95	3.654e-06	5.7933e-06	919.56	307.25	7.6029e-06	7.5748e-06	369.76	135.58	108.07	46.543	2.0798e-06	66.636	0.00050939	0.00044357	0.00012136	837.96	4.7071e-06	4.6532e-06	855.76	287.17	4.8444e-06	4.7834e-06	347.46	127.03	101.23	44.2	5.0339e-06	63.368	113.708	167.036	115.744	94.035	197.127	171.899	93.544	99.735	202.180	268.646	98.612	104.087	104.824	109.785	140.924	108.623	-8191	255	
58863.086	1	1	0	0	0.06662	0.10565	0.1704	0.11209	0.15819	0.13285	0.26107	0.11137	0.18203	0.037822	0.14882	0.017421	0.29707	0.16318	0.037204	0.28258	-3.1458	-4.1813	-3.9021	-3.6188	-4.3938	-3.5417	-3.7917	-4.3063	-3.3354	-4.2521	-3.8937	-3.5438	-4.2958	-3.6562	-3.8021	-4.3812	352.642	156.611	402.528	440.440	192.038	181.680	391.274	85.677	193.778	236.672	279.967	360.904	376.900	83.041	205.672	140.387	0.001203	0.00058732	0.00017536	902.56	7.1547e-06	4.0346e-06	930.31	308.61	2.6492e-06	2.8995e-06	371.53	135.84	107.59	46.658	3.5483e-06	67.257	0.00050402	0.00044358	0.00012354	840.67	4.7506e-06	4.9686e-06	861.5	288.97	4.8445e-06	4.8085e-06	347.64	127.28	100.96	44.38	4.8776e-06	63.751	112.903	175.753	189.572	93.762	183.028	206.443	93.488	99.702	239.391	308.508	98.707	103.814	104.830	110.515	212.410	108.731	-8191	255	
58863.156	1	1	0	0	0.2304	0.21562	0.069044	0.10445	0.01535	0.19668	0.11563	0.32693	0.16654	0.13216	0.21939	0.3051	0.09546	0.17144	0.15689	0.0088551	-3.1708	-4.1271	-4.0729	-3.6562	-4.3	-3.7083	-3.7354	-4.3562	-3.3979	-4.0042	-4.0083	-3.4833	-4.3896	-3.5646	-3.4917	-4.4479	240.725	173.838	342.130	397.335	366.335	410.330	84.448	114.220	419.820	233.589	347.187	403.506	320.203	387.510	157.362	397.133	0.0011082	0.00016902	0.00012214	902.24	2.8194e-06	3.9622e-06	927.81	307.47	5.792e-06	3.2442e-06	374.23	135.38	108.6	46.953	5.8438e-06	66.776	0.00050776	0.00044235	0.00012926	840.44	4.7921e-06	4.7553e-06	861.41	288.43	4.7048e-06	4.9773e-06	348.81	127.21	101.55	44.569	4.9415e-06	63.61	112.415	111.599	147.151	93.957	178.865	213.947	93.568	100.034	240.447	181.580	98.586	103.808	104.571	110.011	225.528	108.467	-8191	255	
58863.277	1	1	0	0	0.088451	0.057502	0.068321	0.18224	0.037347	0.17948	0.031498	0.10956	0.27551	0.28297	0.086335	0.095627	0.11073	0.30221	0.13951	0.30485	-3.0771	-3.8583	-4.05	-3.5542	-4.2937	-3.725	-3.9188	-4.4125	-3.5812	-4.0917	-4.2854	-3.2812	-4.3646	-4.0708	-3.5229	-4.3854	430.046	317.905	146.743	372.403	129.669	344.789	354.374	127.518	236.582	86.982	177.634	145.292	183.251	405.328	123.522	422.698	0.0010898	0.00021336	0.00032523	909.13	6.0824e-06	5.8883e-06	923.77	308.56	3.6612e-06	9.3565e-06	371.87	135.3	108.53	47.084	5.0316e-06	66.695	0.00050844	0.00045793	0.0001262	842.37	4.8225e-06	4.8702e-06	856.97	288.56	4.7778e-06	4.9438e-06	347.06	126.62	101.62	44.525	4.8539e-06	63.176	111.939	203.297	175.408	93.768	220.915	147.876	93.520	99.553	217.249	200.139	98.632	103.951	104.830	110.304	231.713	108.479	-8191	255	
58863.371	1	1	0	0	0.061009	0.13863	0.11094	0.10613	0.08694	0.17183	0.080677	0.051817	0.092995	0.22259	0.023865	0.15074	0.09613	0.084687	0.22303	0.066666	-3.075	-3.7583	-4.2229	-3.4688	-4.1958	-4.0083	-3.6708	-4.6104	-3.5958	-3.7604	-4.2229	-3.5417	-4.2417	-3.9667	-3.3708	-4.3021	157.201	342.111	161.591	366.979	138.162	404.176	100.129	364.327	405.126	94.696	123.760	155.200	238.808	235.153	379.037	433.287	0.0011638	0.00034811	0.00023771	911.17	5.5541e-06	8.2305e-06	918.48	310.84	5.7442e-06	3.3393e-06	372.36	135.05	107.66	46.817	4.7379e-06	66.43	0.00052149	0.00046149	0.0001195	845.13	4.7898e-06	4.7802e-06	859.02	289.96	4.809e-06	4.8498e-06	347.88	126.65	101.36	44.287	4.8873e-06	62.748	108.265	149.121	165.377	94.110	213.065	261.380	93.306	99.956	220.209	272.598	98.607	103.592	105.016	109.995	210.820	107.923	-8191	255	
58863.469	1	1	0	0	0.24205	0.2178	0.1606	0.26581	0.28858	0.14282	0.039717	0.35266	0.15339	0.086936	0.15737	0.098359	0.21451	0.21257	0.054814	0.10391	-3.2125	-3.7	-4.2833	-3.6167	-4.1062	-4.0417	-3.5271	-4.4187	-3.7396	-3.5729	-4.2167	-3.5542	-3.9542	-4.1937	-3.4604	-4.1687	354.326	248.527	299.165	429.258	101.015	250.044	178.355	308.279	429.446	252.830	304.515	304.336	404.736	417.347	373.327	341.166	0.0010571	0.00065847	0.00017069	914.02	4.7481e-06	5.3479e-06	929.13	312.79	5.9919e-06	7.5447e-06	374.6	135.13	109.46	46.409	6.266e-06	66.5	0.00050728	0.00045429	0.00012304	847.92	4.9256e-06	4.8105e-06	864.3	291.55	4.8494e-06	4.92e-06	350.34	126.87	102.14	44.097	4.8671e-06	62.866	113.938	127.375	155.395	93.878	206.234	192.582	93.314	99.402	251.872	226.817	98.381	104.020	104.426	110.122	244.700	108.171	-8191	255	
58863.566	1	1	0	0	0.099336	0.19527	0.29489	0.33511	0.16752	0.11454	0.18366	0.13993	0.21374	0.088041	0.079961	0.061617	0.10793	0.13092	0.16009	0.18286	-3.4354	-3.65	-4.4208	-3.4646	-3.7396	-4.2083	-3.5312	-4.2729	-3.8458	-3.5854	-4.3042	-3.7833	-3.7417	-4.2875	-3.4313	-4.0896	252.320	259.590	243.550	299.744	423.053	290.748	369.374	427.297	408.578	169.650	102.326	136.889	295.388	414.658	418.465	363.675	0.001114	0.00055488	0.00025929	909.93	6.7152e-06	6.9933e-06	924.69	309.42	7.4281e-06	8.2642e-06	371.63	134.97	108.44	46.062	8.2309e-06	65.735	0.00052537	0.00044602	0.00012323	847.36	4.8469e-06	4.7515e-06	862.26	290.52	4.896e-06	4.7642e-06	347.89	125.91	101.46	43.84	4.7961e-06	62.298	107.458	161.976	164.426	94.153	213.416	246.937	93.580	99.251	222.602	270.371	98.560	103.939	104.598	110.297	231.437	108.367	-8191	255	
58863.684	1	1	0	0	0.17467	0.13116	0.083777	0.12006	0.047323	0.14784	0.36672	0.26389	0.078151	0.28327	0.1681	0.090134	0.10147	0.014834	0.20339	0.16363	-3.5771	-3.3937	-4.225	-3.7	-3.5062	-4.1937	-3.4583	-4.2458	-4.0917	-3.3979	-4.4854	-3.5792	-3.7792	-4.2604	-3.5687	-4.1708	239.202	275.495	261.626	359.231	251.459	224.503	373.287	323.239	344.088	383.625	140.346	237.012	340.860	386.977	93.811	322.763	0.0011291	0.000478	0.0002571	909.37	7.2197e-06	4.4648e-06	921.21	309.31	5.4108e-06	4.7633e-06	370.85	133.42	108.07	46.231	5.4963e-06	65.439	0.00051507	0.00042379	0.0001224	845.61	4.5983e-06	4.7609e-06	857.95	288.69	4.7115e-06	4.8584e-06	345.7	124.96	100.76	43.772	4.7973e-06	61.918	114.150	189.027	163.592	93.880	212.471	172.926	93.507	99.646	237.461	231.672	98.537	103.783	104.463	110.282	209.468	108.540	-8191	255	
58863.781	1	1	0	0	0.2433	0.15996	0.18086	0.27154	0.15858	0.20329	0.15282	0.23071	0.2016	0.13704	0.19133	0.15696	0.10825	0.021049	0.17474	0.016071	-3.7229	-3.6083	-4.4187	-3.625	-3.5125	-4.2271	-3.475	-3.9958	-3.9271	-3.45	-4.2958	-3.8354	-3.6208	-4.5292	-3.475	-3.9208	440.333	104.466	201.365	130.653	185.763	315.964	379.487	400.081	319.668	234.800	425.547	434.708	358.795	182.446	242.314	333.157	0.0011805	0.00074284	0.00015868	904.52	3.3994e-06	5.5502e-06	922.69	308.8	6.598e-06	2.9878e-06	370.96	134.02	107.32	45.827	3.4148e-06	65.164	0.0005071	0.00043918	0.00011869	843.03	4.6038e-06	4.6301e-06	856.2	288.26	4.5966e-06	4.8124e-06	345.75	125.06	100.31	43.435	4.8774e-06	61.578	109.495	165.112	153.378	93.811	200.254	205.764	93.484	99.403	199.969	178.140	98.593	103.379	104.693	110.161	277.537	108.296	-8191	255	
58863.852	1	1	0	0	0.19116	0.22574	0.15594	0.19444	0.17803	0.15817	0.084982	0.15556	0.062553	0.25324	0.12706	0.12152	0.21234	0.12839	0.33132	0.12496	-3.8396	-3.2604	-4.2042	-3.8958	-3.4875	-4.4187	-3.6979	-3.8125	-4.1375	-3.5729	-4.3521	-4.0146	-3.5938	-4.5229	-3.6542	-3.8625	398.431	167.980	396.396	429.240	397.511	274.783	374.422	438.885	245.650	144.536	180.879	246.574	397.191	138.976	227.974	371.081	0.0011757	0.00044348	0.00024996	912.28	5.6509e-06	6.1532e-06	926.88	307.31	6.2226e-06	5.2523e-06	370.23	132.62	107.06	45.87	4.99e-06	64.202	0.00051431	0.00042742	0.00012204	847.32	4.581e-06	4.6392e-06	862.24	288.83	4.5987e-06	4.5967e-06	346.3	124.68	100.47	43.277	4.6852e-06	61.053	111.454	185.149	152.324	93.782	189.891	227.392	93.629	99.590	234.628	231.215	97.906	103.957	104.681	110.164	214.580	108.034	-8191	255	
58863.949	1	1	0	0	0.12951	0.36183	0.099642	0.23417	0.10077	0.060984	0.30533	0.070866	0.18619	0.086708	0.056551	0.12226	0.34417	0.16145	0.23987	0.17648	-3.9583	-3.5125	-4.1813	-4.2229	-3.4604	-4.4833	-3.7958	-3.75	-4.3125	-3.5896	-4.3562	-4.1042	-3.6646	-4.3875	-3.6083	-3.575	439.357	384.199	391.004	376.938	205.848	310.360	408.855	368.954	369.196	207.849	373.692	212.431	97.562	427.020	181.210	128.996	0.0010993	0.00045431	0.00024098	913.57	7.1116e-06	2.364e-06	925.64	309.45	8.3169e-06	8.5204e-06	368.07	133.25	107.2	45.326	7.0037e-06	63.867	0.00050395	0.00042708	0.00012202	850.33	4.5405e-06	4.7233e-06	860.84	289.23	4.5406e-06	4.6099e-06	344.12	123.99	100.08	43.01	4.6596e-06	60.473	113.400	172.912	146.254	93.878	227.466	279.612	93.499	99.163	201.005	238.441	98.327	103.658	104.201	109.944	224.537	108.003	-8191	255	
58864.070	1	1	0	0	0.076249	0.23406	0.20728	0.31014	0.21106	0.21301	0.19616	0.38418	0.26625	0.042971	0.25958	0.29349	0.37146	0.14293	0.20207	0.3012	-3.9688	-3.5375	-4.0583	-4.2771	-3.5167	-4.0917	-3.8625	-3.6979	-4.3063	-3.5604	-4.0396	-4.1875	-3.4875	-4.2167	-3.8792	-3.7208	440.808	230.981	304.948	378.219	217.290	330.715	380.073	400.250	122.766	415.631	93.053	343.496	422.457	338.454	101.826	395.757	0.0010561	0.00050528	0.00012579	915.06	5.7067e-06	4.1513e-06	924.9	309.69	9.3809e-06	6.5443e-06	366.86	132.06	106.61	45.399	5.4114e-06	64.067	0.00049561	0.00040616	0.00011751	849.74	4.4863e-06	4.6556e-06	860.14	288.46	4.691e-06	4.7343e-06	343.22	123.38	99.679	42.854	4.7718e-06	60.353	108.774	194.462	175.588	93.816	229.105	224.789	93.294	99.307	244.436	182.936	98.194	103.521	104.623	109.961	214.371	108.048	-8191	255	
58864.164	1	1	0	0	0.034854	0.27611	0.38511	0.35797	0.2972	0.11366	0.11023	0.28509	0.11232	0.15379	0.29676	0.16263	0.083937	0.11724	0.028911	0.34943	-3.8688	-3.5146	-3.9	-4.1813	-3.2146	-4.0604	-4.0062	-3.6125	-4.4229	-3.5229	-3.8583	-4.3833	-3.4667	-4.3458	-3.8875	-3.7188	304.310	180.506	262.046	85.672	108.764	378.473	415.798	218.691	439.470	211.123	155.911	106.289	97.537	389.279	428.879	402.579	0.0010656	0.00021016	6.0583e-05	904.8	6.7336e-06	1.7612e-06	925.64	307.98	1.7063e-06	7.4149e-06	368.7	131.72	106.52	45.368	7.1769e-06	64.28	0.00047339	0.0004189	0.00011833	845.27	4.5566e-06	4.7262e-06	858.21	287.49	4.5789e-06	4.7497e-06	343.71	123.37	99.672	42.853	4.6085e-06	60.721	108.766	197.142	120.368	93.870	192.436	257.412	93.374	99.491	284.064	263.637	98.249	103.752	104.417	109.975	216.207	108.315	-8191	255	
58864.262	1	1	0	0	0.23756	0.1446	0.1643	0.12366	0.093546	0.031902	0.030892	0.29685	0.088594	0.12698	0.2681	0.095158	0.20251	0.090129	0.1026	0.21724	-3.9271	-3.5104	-3.6021	-4.3	-3.4437	-4.0583	-4.1521	-3.4771	-4.25	-3.7313	-3.7542	-4.3354	-3.3667	-4.1479	-3.975	-3.3604	139.964	345.279	137.373	431.481	276.930	315.772	399.544	375.617	100.714	353.223	403.940	211.721	368.292	144.545	181.008	411.227	0.0010606	0.00067693	0.0001288	906.9	5.6613e-06	5.7714e-06	931.83	307.07	6.2999e-06	7.074e-06	366.74	132.29	106.42	44.793	7.2225e-06	64.117	0.00049897	0.00043941	0.00011896	845.53	4.7166e-06	4.618e-06	862.29	286.76	4.6962e-06	4.7154e-06	343.01	123.88	99.4	42.637	4.3867e-06	60.466	112.455	119.983	178.473	93.842	211.518	198.276	93.520	99.595	232.333	225.111	98.127	104.048	104.584	110.342	235.700	107.670	-8191	255	
58864.383	1	1	0	0	0.085315	0.10681	0.15678	0.38842	0.19181	0.21871	0.25011	0.097361	0.10404	0.29985	0.07778	0.042522	0.36988	0.036731	0.11819	0.21284	-4.0979	-3.8146	-3.5833	-4.4313	-3.5896	-3.9146	-4.4062	-3.3125	-4.1208	-3.8479	-3.6354	-4.3208	-3.5583	-3.9	-4.2208	-3.5542	111.316	263.232	204.943	376.295	245.734	141.853	404.043	366.666	157.953	150.930	117.162	334.982	418.673	280.981	262.509	352.884	0.0010686	0.00015065	0.00011498	910.91	6.2001e-06	4.9874e-06	926.72	307.24	8.0006e-06	5.1825e-06	364.59	131.16	106.41	44.816	5.7716e-06	63.552	0.00050194	0.00041766	0.00011757	846.34	4.6828e-06	4.5783e-06	858.77	286.02	4.467e-06	4.6885e-06	342.14	122.71	99.379	42.525	4.6076e-06	60.022	111.316	186.352	188.266	93.972	209.237	240.158	93.073	99.456	237.337	255.887	98.260	104.166	104.549	109.717	231.572	107.976	-8191	255	
58864.453	1	1	0	0	0.19406	0.11988	0.13371	0.20462	0.057351	0.19962	0.27676	0.2627	0.079916	0.087064	0.24794	0.19024	0.078761	0.17549	0.03065	0.19388	-3.8312	-3.9188	-3.6042	-4.5	-3.4625	-3.7896	-4.35	-3.2979	-3.9813	-3.9771	-3.4188	-4.3208	-3.6021	-3.675	-4.1521	-3.3792	217.708	360.211	382.519	375.095	382.948	160.552	399.619	277.780	186.570	99.090	123.592	409.469	378.522	309.703	99.315	384.311	0.0011089	0.00056482	0.00014795	915.56	8.9403e-06	2.3889e-06	923.2	309.77	5.9829e-06	3.8841e-06	368.13	130.53	106.18	44.98	4.3976e-06	62.742	0.00049362	0.00040903	0.0001134	848.7	4.6397e-06	4.3234e-06	861.23	287.84	4.6868e-06	4.4325e-06	343.34	122.51	99.387	42.274	4.4668e-06	59.34	110.416	177.997	133.378	93.670	203.879	153.343	93.258	99.478	240.513	283.316	98.466	103.743	104.346	109.929	226.197	108.067	-8191	255	
58864.551	1	1	0	0	0.24895	0.26044	0.15985	0.33545	0.1553	0.32475	0.20317	0.11889	0.2249	0.21049	0.072561	0.27361	0.2629	0.12978	0.071262	0.20714	-3.7313	-3.9521	-3.2708	-4.1792	-3.6083	-3.5521	-4.2271	-3.375	-3.9917	-4.0437	-3.3521	-4.2646	-3.8312	-3.7167	-4.3458	-3.6167	263.839	307.400	104.810	436.311	191.664	210.192	418.943	118.378	254.239	207.050	278.793	328.579	423.782	416.271	419.216	350.609	0.00095571	0.00045884	8.9494e-05	915.25	7.9238e-06	3.2834e-06	929.1	306.07	4.3486e-06	7.2912e-06	367.11	131.17	105.16	44.276	4.0935e-06	62.216	0.00046604	0.00041659	0.00011323	849.84	4.4941e-06	4.4291e-06	862.02	286.11	4.5169e-06	4.332e-06	342.07	122.44	98.458	41.914	4.3188e-06	59.023	108.645	136.500	139.735	93.970	239.202	261.618	93.025	99.544	217.152	215.076	98.330	103.307	104.114	109.564	239.782	108.435	-8191	255	
#DATA ENDS
