BOXY.EXE: ISS Imagent and Oximeter Data Acquisition Program Version 0.80
Ascii Record File

#ACQ INFORMATION
2  Detector Channels 
16  External MUX Channels 
1  Auxiliary Channels 
5000  Waveform (CCF) Frequency (Hz)
1  Waveforms Skipped 
30  Waveforms Averaged 
1  Cycles Averaged 
16  Acquisitions per Waveform 
10.0806  Updata Rate (Hz) 

#FILE INFORMATION
TRUE -- External MUX Channel results are PARSED.
FALSE -- AC DC and Phase are NOT grouped.
TRUE -- Companion Program Settings File CREATED.
FALSE -- AC data not excluded
FALSE -- DC data not excluded
FALSE -- Phase data not excluded
FALSE -- Auxillary Chn. data not excluded
Tab delimiters

#CALIBRATION STATE
TRUE -- Waveform Calibration Values APPLIED.


#AUX CALIBRATION VALUES
Val Type	aux-1	

Term	1.0000e+00	
Factor	0.0000e+00	


#WF CALIBRATION VALUES
A = Detector Channel
Val Type	A-AC1	A-AC2	A-AC3	A-AC4	A-AC5	A-AC6	A-AC7	A-AC8	A-AC9	A-AC10	A-AC11	A-AC12	A-AC13	A-AC14	A-AC15	A-AC16	A-DC1	A-DC2	A-DC3	A-DC4	A-DC5	A-DC6	A-DC7	A-DC8	A-DC9	A-DC10	A-DC11	A-DC12	A-DC13	A-DC14	A-DC15	A-DC16	A-Ph1	A-Ph2	A-Ph3	A-Ph4	A-Ph5	A-Ph6	A-Ph7	A-Ph8	A-Ph9	A-Ph10	A-Ph11	A-Ph12	A-Ph13	A-Ph14	A-Ph15	A-Ph16	

Term	0.00000e+00	0.00000e+00	0.00000e+00	0.00000e+00	0.00000e+00	0.00000e+00	0.00000e+00	0.00000e+00	0.00000e+00	0.00000e+00	0.00000e+00	0.00000e+00	0.00000e+00	0.00000e+00	0.00000e+00	0.00000e+00	0.00000e+00	0.00000e+00	0.00000e+00	0.00000e+00	0.00000e+00	0.00000e+00	0.00000e+00	0.00000e+00	0.00000e+00	0.00000e+00	0.00000e+00	0.00000e+00	0.00000e+00	0.00000e+00	0.00000e+00	0.00000e+00	0.00000e+00	0.00000e+00	0.00000e+00	0.00000e+00	0.00000e+00	0.00000e+00	0.00000e+00	0.00000e+00	0.00000e+00	0.00000e+00	0.00000e+00	0.00000e+00	0.00000e+00	0.00000e+00	0.00000e+00	0.00000e+00	
Factor	1.00000e+00	1.00000e+00	1.00000e+00	1.00000e+00	1.00000e+00	1.00000e+00	1.00000e+00	1.00000e+00	1.00000e+00	1.00000e+00	1.00000e+00	1.00000e+00	1.00000e+00	1.00000e+00	1.00000e+00	1.00000e+00	1.00000e+00	1.00000e+00	1.00000e+00	1.00000e+00	1.00000e+00	1.00000e+00	1.00000e+00	1.00000e+00	1.00000e+00	1.00000e+00	1.00000e+00	1.00000e+00	1.00000e+00	1.00000e+00	1.00000e+00	1.00000e+00	X	X	X	X	X	X	X	X	X	X	X	X	X	X	X	X	

B = Detector Channel
Val Type	B-AC1	B-AC2	B-AC3	B-AC4	B-AC5	B-AC6	B-AC7	B-AC8	B-AC9	B-AC10	B-AC11	B-AC12	B-AC13	B-AC14	B-AC15	B-AC16	B-DC1	B-DC2	B-DC3	B-DC4	B-DC5	B-DC6	B-DC7	B-DC8	B-DC9	B-DC10	B-DC11	B-DC12	B-DC13	B-DC14	B-DC15	B-DC16	B-Ph1	B-Ph2	B-Ph3	B-Ph4	B-Ph5	B-Ph6	B-Ph7	B-Ph8	B-Ph9	B-Ph10	B-Ph11	B-Ph12	B-Ph13	B-Ph14	B-Ph15	B-Ph16	

Term	0.00000e+00	0.00000e+00	0.00000e+00	0.00000e+00	0.00000e+00	0.00000e+00	0.00000e+00	0.00000e+00	0.00000e+00	0.00000e+00	0.00000e+00	0.00000e+00	0.00000e+00	0.00000e+00	0.00000e+00	0.00000e+00	0.00000e+00	0.00000e+00	0.00000e+00	0.00000e+00	0.00000e+00	0.00000e+00	0.00000e+00	0.00000e+00	0.00000e+00	0.00000e+00	0.00000e+00	0.00000e+00	0.00000e+00	0.00000e+00	0.00000e+00	0.00000e+00	-1.87007e+02	-1.34050e+02	-1.37969e+02	-1.83492e+02	-8.77581e+01	-7.32534e+01	-1.58200e+02	-1.62015e+02	-8.49259e+01	-6.14154e+01	-1.70701e+02	-1.71279e+02	-1.78850e+02	-1.76863e+02	-7.95451e+01	-1.49780e+02	
Factor	3.76548e-05	1.51883e-04	4.69219e-05	1.64088e-01	1.62550e-06	1.73594e-06	1.85429e-01	6.04996e-02	1.59724e-06	1.91212e-06	1.00259e-01	3.43440e-02	3.12106e-02	1.08452e-02	1.69460e-06	1.54572e-02	6.25193e-06	7.31936e-06	2.04454e-06	7.75377e-02	7.75653e-08	8.04797e-08	8.23581e-02	2.86645e-02	7.78837e-08	8.09403e-08	4.60320e-02	1.57531e-02	1.49403e-02	5.16929e-03	7.88347e-08	7.14857e-03	X	X	X	X	X	X	X	X	X	X	X	X	X	X	X	X	



#DISTANCE SETTINGS
A = Detector Channel
A-1	A-2	A-3	A-4	A-5	A-6	A-7	A-8	A-9	A-10	A-11	A-12	A-13	A-14	A-15	A-16	

2.5000e+00	3.0000e+00	2.5000e+00	3.0000e+00	2.0000e+00	3.0000e+00	1.5000e+00	3.0000e+00	3.0000e+00	3.0000e+00	3.0000e+00	3.0000e+00	3.0000e+00	3.0000e+00	1.5000e+00	3.0000e+00	

B = Detector Channel
B-1	B-2	B-3	B-4	B-5	B-6	B-7	B-8	B-9	B-10	B-11	B-12	B-13	B-14	B-15	B-16	

1.0000e+01	1.0000e+01	1.0000e+01	1.4400e+00	1.0000e+01	1.0000e+01	1.5100e+00	1.9400e+00	1.0000e+01	1.0000e+01	1.9900e+00	2.4900e+00	2.4100e+00	2.9000e+00	1.0000e+01	2.9800e+00	




#DATA BEGINS
time	group	step	mark	flag	A-AC1	A-AC2	A-AC3	A-AC4	A-AC5	A-AC6	A-AC7	A-AC8	A-AC9	A-AC10	A-AC11	A-AC12	A-AC13	A-AC14	A-AC15	A-AC16	A-DC1	A-DC2	A-DC3	A-DC4	A-DC5	A-DC6	A-DC7	A-DC8	A-DC9	A-DC10	A-DC11	A-DC12	A-DC13	A-DC14	A-DC15	A-DC16	A-Ph1	A-Ph2	A-Ph3	A-Ph4	A-Ph5	A-Ph6	A-Ph7	A-Ph8	A-Ph9	A-Ph10	A-Ph11	A-Ph12	A-Ph13	A-Ph14	A-Ph15	A-Ph16	B-AC1	B-AC2	B-AC3	B-AC4	B-AC5	B-AC6	B-AC7	B-AC8	B-AC9	B-AC10	B-AC11	B-AC12	B-AC13	B-AC14	B-AC15	B-AC16	B-DC1	B-DC2	B-DC3	B-DC4	B-DC5	B-DC6	B-DC7	B-DC8	B-DC9	B-DC10	B-DC11	B-DC12	B-DC13	B-DC14	B-DC15	B-DC16	B-Ph1	B-Ph2	B-Ph3	B-Ph4	B-Ph5	B-Ph6	B-Ph7	B-Ph8	B-Ph9	B-Ph10	B-Ph11	B-Ph12	B-Ph13	B-Ph14	B-Ph15	B-Ph16	aux-1	digaux	

58714.773	1	1	0	768	0.1888	0.11332	0.21311	0.092724	0.18457	0.16612	0.14092	0.178	0.15846	0.077118	0.25334	0.13794	0.21528	0.22453	0.13172	0.22506	-3.7792	-3.9313	-3.4	-4.5188	-3.5687	-3.7917	-4.5646	-3.5479	-4.2312	-4.05	-3.4917	-4.3708	-3.6542	-3.6271	-4.2063	-3.4417	116.817	-156.024	14.672	101.733	86.101	56.166	25.370	165.575	155.081	181.841	53.057	-172.842	-32.918	-152.017	-99.176	127.244	0.00097073	0.00052131	0.00021836	961.48	8.9556e-06	1.0127e-05	824.1	360.2	7e-06	8.3662e-06	356.17	131.1	119.02	43.459	5.5487e-06	53.525	0.0020074	0.0021727	0.00059671	982.1	2.3286e-05	2.3877e-05	845.4	369.91	2.4092e-05	2.4417e-05	369.41	136.14	124.31	45.531	2.416e-05	56.096	134.791	-63.549	-33.843	-161.822	-61.782	-34.680	-163.118	-156.944	-95.122	16.031	-158.836	-154.617	-152.848	-146.586	-19.192	-149.208	-8191	255	
58714.867	1	1	0	0	0.11332	0.10162	0.1845	0.16171	0.18351	0.13014	0.15387	0.047441	0.06108	0.15428	0.12683	0.19846	0.22206	0.15842	0.10233	0.3762	-3.7604	-4.0333	-3.5021	-4.4812	-3.7083	-3.4396	-4.4333	-3.5521	-3.9792	-4.0729	-3.4021	-4.2708	-3.9333	-3.5458	-4.2375	-3.4	170.769	7.905	49.258	-158.387	-57.923	135.911	-123.997	162.998	56.069	175.051	14.120	-33.026	102.855	-162.426	183.890	73.130	0.00087396	0.00099907	0.00025361	959.88	8.0453e-06	8.0687e-06	818.17	357.83	8.5525e-06	1.3769e-05	356.56	131.88	118.78	43.523	3.7324e-06	53.82	0.0020477	0.002226	0.0006224	982.2	2.3843e-05	2.4242e-05	843.1	369.65	2.3999e-05	2.4192e-05	370.36	136.66	124.03	45.618	2.4732e-05	56.539	148.232	-54.982	-66.639	-161.753	-98.472	23.212	-162.789	-156.738	-60.537	42.489	-159.135	-154.541	-152.682	-146.841	-41.605	-149.254	-8191	255	
58714.965	1	1	0	0	0.29022	0.15194	0.24304	0.12053	0.12236	0.12145	0.090232	0.2323	0.10473	0.24835	0.072382	0.18256	0.13205	0.19381	0.22768	0.057662	-3.6208	-4.2479	-3.3458	-4.3958	-3.8833	-3.4813	-4.4104	-3.6625	-3.7604	-4.1937	-3.3688	-4.0312	-4.0813	-3.6896	-4.1875	-3.6	143.591	12.749	165.423	-125.232	-145.941	-120.376	78.099	110.231	178.175	-25.132	-174.373	-101.751	151.730	180.994	41.397	181.249	0.00094034	0.00065576	0.00013499	958.64	1.2268e-05	7.4991e-07	817.72	360.18	1.1156e-05	6.1747e-06	359.19	134.07	120.48	44.111	6.9353e-06	54.842	0.0020837	0.0022918	0.00065136	980.33	2.5681e-05	2.6311e-05	848.47	371.31	2.6993e-05	2.7683e-05	375.39	139.88	126.24	46.495	2.8824e-05	57.95	136.667	-87.077	69.773	-161.824	-54.600	-113.135	-163.246	-156.887	-30.352	-51.953	-158.738	-154.590	-152.849	-146.524	-42.342	-149.475	-8191	255	
58715.059	1	1	0	0	0.17707	0.19224	0.13973	0.38026	0.051923	0.056982	0.23102	0.20759	0.1108	0.096454	0.33764	0.26528	0.026214	0.11214	0.14459	0.083163	-3.3729	-4.125	-3.3917	-4.25	-3.8458	-3.4271	-4.3313	-3.7667	-3.5646	-4.4437	-3.3833	-4.0958	-4.0021	-3.5	-4.3	-3.7083	144.687	-125.514	155.144	153.634	55.454	102.185	48.886	97.027	39.471	171.529	152.885	-138.874	161.367	49.512	42.535	85.180	0.0010169	0.0005307	0.00017152	959.39	9.4568e-06	1.1056e-05	818.41	360.17	4.946e-06	8.805e-07	361.63	133.82	120.25	43.685	2.8505e-06	53.95	0.0023613	0.0025923	0.00073741	987.81	2.7285e-05	2.7942e-05	850.19	372.08	2.6333e-05	2.7147e-05	375.53	138.94	125.57	45.846	2.6568e-05	56.978	133.629	-132.399	-133.929	-161.695	-94.089	-11.747	-163.232	-156.825	-53.599	59.002	-158.994	-154.306	-152.799	-146.647	-44.038	-149.440	-8191	255	
58715.156	1	1	0	0	0.09961	0.19197	0.13009	0.35375	0.090007	0.18989	0.17657	0.1093	0.055351	0.13815	0.13814	0.21679	0.13757	0.47161	0.10678	0.050523	-3.2083	-4.2271	-3.4646	-4.0437	-3.8875	-3.3833	-4.1292	-3.9146	-3.4458	-4.4646	-3.5646	-3.9333	-4.1958	-3.5333	-4.075	-3.8833	148.331	9.364	-37.265	134.685	-8.926	68.170	117.067	-158.266	99.938	-26.528	181.444	76.072	43.868	125.477	30.327	133.990	0.00097577	0.00051062	0.0002691	964.45	8.9418e-06	4.2515e-06	821.62	362.42	1.0661e-05	3.427e-06	357.14	132.15	119.55	43.556	4.0933e-06	52.968	0.0021592	0.002442	0.00069079	989.77	2.5907e-05	2.7004e-05	847.98	373.12	2.605e-05	2.7582e-05	373.18	137.57	125	45.606	2.7635e-05	56.322	143.253	-31.835	-108.010	-161.797	-58.326	34.571	-163.031	-156.991	-52.975	82.751	-158.824	-154.841	-152.892	-146.728	-0.915	-149.290	-8191	255	
58715.254	1	1	0	0	0.065487	0.12245	0.14736	0.087108	0.12426	0.069886	0.10776	0.12603	0.042025	0.22222	0.13854	0.14443	0.23131	0.18814	0.039839	0.12022	-3.1813	-4.2792	-3.45	-3.8083	-4.1146	-3.3625	-4.1813	-4.0104	-3.3688	-4.1333	-3.7188	-3.6708	-4.2146	-3.4146	-4.0479	-4.0979	102.156	78.501	94.533	127.734	-110.016	43.744	99.069	-160.055	-61.395	-43.446	151.200	128.017	-125.548	120.878	-145.848	71.200	0.00099675	0.00026649	0.00020045	959.95	1.0435e-05	9.7144e-06	820.36	360.98	8.9534e-06	4.8171e-06	357.79	132.14	119.53	43.079	5.4175e-06	53.412	0.0022618	0.0025744	0.00072242	986.61	2.6711e-05	2.8202e-05	846.25	371.55	2.6389e-05	2.7918e-05	371.62	137.24	125.02	45.34	2.6267e-05	56.33	141.482	-134.468	-113.004	-161.795	-59.561	-11.132	-163.187	-157.110	-41.880	-11.282	-158.649	-154.777	-152.861	-146.940	-3.680	-149.458	-8191	255	
58715.371	1	1	0	0	0.11391	0.076358	0.21993	0.22511	0.12694	0.12394	0.13274	0.043121	0.13152	0.18537	0.10903	0.19788	0.20526	0.27969	0.29189	0.14862	-3.0021	-4.1375	-3.6229	-3.6771	-4.1896	-3.2708	-4.0958	-4.1229	-3.3625	-4.3146	-3.6792	-3.7521	-4.2562	-3.3917	-3.8125	-4.2792	6.989	-112.814	46.035	183.683	-92.993	171.118	149.011	122.535	27.044	-163.525	72.685	-132.596	-112.951	176.672	98.590	97.832	0.0008358	8.7734e-05	0.00020119	961.93	1.0089e-05	1.8197e-06	815.34	360.73	3.5866e-06	1.8273e-06	356.71	132.96	119.81	43.491	6.143e-07	53.974	0.0021855	0.0024541	0.00068645	987.15	2.5912e-05	2.7118e-05	843.68	371.7	2.6862e-05	2.8121e-05	372.67	138.23	125.54	45.859	2.8497e-05	57.013	141.570	29.441	-104.765	-161.773	-69.224	101.435	-163.611	-156.813	-32.087	-35.875	-159.116	-154.628	-152.756	-146.995	38.772	-149.189	-8191	255	
58715.469	1	1	0	0	0.10595	0.174	0.095972	0.066862	0.25902	0.066755	0.11858	0.10615	0.072322	0.19254	0.081495	0.16502	0.1328	0.096194	0.078583	0.23133	-3.0312	-4.2604	-3.7062	-3.75	-4.1062	-3.3375	-3.8833	-4.3542	-3.4042	-4.05	-3.7812	-3.4958	-4.4	-3.3854	-3.8021	-4.0833	125.764	-134.080	81.232	158.598	-93.685	-98.468	75.098	-154.296	76.422	-150.253	-141.948	145.174	-14.220	60.806	-167.312	62.487	0.00091268	0.00097193	0.00022326	963.75	8.4111e-07	5.3046e-06	813.55	360.18	4.514e-06	1.2308e-06	353.32	132.36	120.15	43.626	9.609e-07	54.078	0.0023774	0.0027143	0.00075803	986.73	2.9121e-05	3.0238e-05	842.94	371.99	2.9994e-05	3.1402e-05	372.46	138.68	126.37	46.182	3.0329e-05	57.321	132.927	-85.669	-130.481	-161.960	-57.217	-46.410	-163.530	-156.939	-151.337	-154.416	-158.800	-154.688	-152.835	-147.165	-86.047	-149.406	-8191	255	
58715.562	1	1	0	0	0.18239	0.1707	0.10654	0.27722	0.15785	0.19297	0.15128	0.27423	0.14419	0.28327	0.1161	0.2534	0.2148	0.14802	0.18055	0.11965	-3.0708	-4.0667	-3.6333	-3.5333	-4.2375	-3.625	-3.7521	-4.3354	-3.3271	-4.0625	-3.9813	-3.5125	-4.2583	-3.6271	-3.6688	-4.3021	-148.567	-65.867	109.157	154.900	-83.451	-71.899	31.016	125.774	120.797	164.625	-105.821	152.025	-133.017	160.503	65.108	87.297	0.00098676	0.00075404	0.00030883	958.24	1.1478e-05	5.0159e-06	803.3	359.31	6.4408e-06	8.4692e-06	347.83	130.5	118.38	42.919	5.5437e-06	52.089	0.0025429	0.0028654	0.00078841	984.5	3.0133e-05	3.0604e-05	835.47	371.34	3.0016e-05	3.0976e-05	366.6	136.14	124.96	45.293	2.9231e-05	55.436	143.660	-48.735	-41.454	-161.953	-51.146	3.838	-163.622	-156.885	-18.820	32.881	-158.841	-154.913	-152.807	-146.960	-11.189	-149.037	-8191	255	
58715.660	1	1	0	0	0.208	0.08715	0.25368	0.051133	0.046045	0.25148	0.13913	0.35766	0.15629	0.22727	0.10144	0.037748	0.14743	0.043356	0.22967	0.1732	-2.9896	-4.05	-3.925	-3.4688	-4.1875	-3.7625	-3.7208	-4.3854	-3.3583	-3.7146	-4.0604	-3.575	-4.3542	-3.8187	-3.5104	-4.4375	178.849	-120.662	142.029	-64.501	174.485	-146.820	124.696	169.511	-111.645	-123.147	-81.184	104.356	-37.988	86.302	-54.317	-76.047	0.0010199	0.00078394	9.619e-05	955.74	4.7617e-06	9.1621e-06	795.08	355.95	1.1942e-05	3.619e-06	344.8	127.46	117.27	42.051	8.4037e-06	51.137	0.0024396	0.0027354	0.00074997	980.12	2.8654e-05	2.8757e-05	823.35	367.22	2.7378e-05	2.7793e-05	360.23	132.74	122.78	44.234	2.5131e-05	54.201	140.800	-107.724	-83.585	-161.994	-76.993	9.294	-163.531	-156.850	-17.955	118.897	-158.835	-154.676	-153.012	-146.858	6.613	-149.276	-8191	255	
58715.758	1	1	0	0	0.055681	0.10039	0.10185	0.22536	0.12544	0.20773	0.11192	0.11062	0.2576	0.20247	0.073618	0.078112	0.094381	0.10662	0.12538	0.14343	-3.1333	-3.7125	-3.9167	-3.3854	-4.1792	-3.7792	-3.5875	-4.4417	-3.3125	-3.8187	-4.3042	-3.5	-4.2833	-4.0125	-3.3542	-4.4625	184.882	90.308	-127.003	152.603	-108.632	179.749	139.341	112.656	59.850	164.410	115.242	20.091	145.693	-53.934	1.195	-145.103	0.00083893	0.0008193	0.00026278	950.84	5.2508e-07	1.3469e-05	795.93	355.81	6.0227e-06	2.8674e-06	346.53	128.26	117.83	42.51	9.2565e-06	52.24	0.0021455	0.0023291	0.00065118	977.08	2.5467e-05	2.6155e-05	823.92	366.64	2.664e-05	2.7196e-05	361.99	133.69	123.38	44.801	2.7861e-05	55.553	130.496	-159.150	-157.793	-161.823	-131.553	-6.113	-163.410	-156.944	39.072	-147.864	-158.900	-154.899	-152.700	-146.477	-120.286	-149.441	-8191	255	
58715.852	1	1	0	0	0.12066	0.06932	0.17667	0.44586	0.15558	0.10452	0.10489	0.41765	0.23436	0.080586	0.15027	0.28989	0.35037	0.15958	0.14936	0.21323	-3.3063	-3.8167	-4.1854	-3.6063	-3.9646	-4.1062	-3.5	-4.2521	-3.725	-3.6146	-4.4437	-3.4437	-4.0938	-4.0312	-3.375	-4.3042	59.815	-159.799	8.723	170.836	-71.862	177.976	129.107	158.264	-27.799	-55.247	117.585	-146.356	145.285	-142.940	90.845	101.239	0.0010254	0.00053969	0.00019079	948.55	4.1919e-06	9.2138e-06	796.18	355.05	5.5515e-06	1.8263e-06	347.04	131.45	118.76	43.78	7.4673e-06	54.414	0.0023841	0.002619	0.00074126	974.65	2.842e-05	2.8978e-05	825.72	366.2	2.8909e-05	2.9125e-05	365.74	137.15	124.66	46.186	2.7495e-05	57.638	133.657	-96.912	-76.637	-161.797	82.037	-45.297	-163.286	-157.068	-77.244	-23.763	-158.930	-154.457	-152.625	-146.736	-51.853	-149.525	-8191	255	
58715.973	1	1	0	0	0.34156	0.096992	0.067285	0.060442	0.083965	0.091456	0.076581	0.16882	0.12416	0.18266	0.22855	0.054335	0.32378	0.037697	0.17914	0.0164	-3.2646	-3.5604	-4.3875	-3.4562	-3.9979	-4.2375	-3.25	-4.3313	-3.7979	-3.3875	-4.3146	-3.4729	-3.8833	-4.2188	-3.4375	-4.2417	-160.627	-127.391	-81.583	99.574	126.819	13.719	52.059	164.197	-92.574	1.264	162.589	-40.476	136.748	10.781	-126.577	153.287	0.00089409	0.0008971	0.00026755	941.01	7.7525e-06	1.1577e-05	799.51	356.03	1.1266e-05	5.421e-06	349.44	130.92	119.58	43.489	3.4405e-06	53.553	0.0022134	0.002399	0.00067867	968.6	2.5067e-05	2.5741e-05	826.91	366.65	2.4851e-05	2.5508e-05	365.12	136.77	124.52	45.676	2.5474e-05	56.599	144.576	-72.821	-47.366	-161.569	-141.301	-46.641	-163.207	-157.085	-104.639	-70.493	-158.702	-154.522	-152.802	-146.741	-77.928	-149.351	-8191	255	
58716.066	1	1	0	0	0.237	0.050983	0.17458	0.083653	0.24408	0.13003	0.16253	0.27763	0.15665	0.20743	0.21803	0.039242	0.013923	0.099838	0.17071	0.27309	-3.3646	-3.4271	-4.4375	-3.5771	-3.7583	-4.2354	-3.4458	-4.1458	-3.9271	-3.3958	-4.4208	-3.6375	-3.8708	-4.3208	-3.2771	-4.1354	145.355	95.115	-47.676	108.986	171.816	134.734	128.169	155.332	36.943	-171.720	-113.319	-85.845	101.675	145.698	39.787	87.698	0.0007602	0.00044738	5.0944e-05	947.86	3.3726e-06	6.8475e-06	804.46	355.75	9.1634e-06	1.0823e-05	352.52	131.28	119.5	43.565	5.4717e-06	54.231	0.0020987	0.0023107	0.00065357	970.78	2.4255e-05	2.5393e-05	826.34	366.52	2.4087e-05	2.4971e-05	366.27	136.78	124.11	45.789	2.4781e-05	57.1	145.052	-96.508	-89.732	-161.902	-31.129	35.024	-163.426	-156.772	-59.382	-30.927	-158.900	-154.673	-152.977	-146.641	-51.687	-149.470	-8191	255	
58716.164	1	1	0	0	0.12012	0.023188	0.30766	0.29375	0.22046	0.14483	0.20299	0.26361	0.37379	0.045214	0.20519	0.058097	0.13081	0.10742	0.34998	0.056854	-3.6688	-3.4021	-4.15	-3.6833	-3.6146	-4.375	-3.5542	-4.2562	-3.8917	-3.3771	-4.3292	-3.6063	-3.7292	-4.3917	-3.4229	-3.9979	161.371	-111.925	-102.145	162.079	-127.230	-157.409	128.446	136.195	-125.365	184.566	52.027	-101.528	46.869	-44.413	-119.072	-64.083	0.0008681	0.00026455	0.00024046	945.39	4.0239e-06	1.0458e-05	804.17	356.61	7.0248e-07	3.6355e-06	353.43	132.15	119.86	44.121	7.6598e-06	55.178	0.0020696	0.0023573	0.00067197	971.52	2.5252e-05	2.6434e-05	832.73	367.08	2.6195e-05	2.7528e-05	369.76	138.39	125.42	46.59	2.9356e-05	58.406	147.344	-97.226	-111.279	-161.556	-18.843	-16.530	-163.271	-156.616	-33.559	10.444	-158.888	-154.688	-152.803	-146.613	-32.122	-149.253	-8191	255	
58716.262	1	1	0	0	0.046635	0.03686	0.17402	0.30634	0.076767	0.10229	0.16942	0.10503	0.14067	0.15454	0.050723	0.13004	0.048533	0.22639	0.22657	0.1655	-3.8229	-3.4354	-4.2188	-3.8167	-3.5333	-4.2292	-3.4188	-3.8458	-4.2083	-3.3271	-4.3812	-3.8125	-3.6125	-4.4208	-3.4625	-3.8937	54.323	72.665	51.954	184.472	-114.462	-94.799	72.017	-157.246	67.534	-5.916	32.901	-154.788	135.094	153.158	-156.727	144.171	0.00095602	0.00055588	7.8246e-05	945.26	1.0185e-05	3.7901e-06	798.27	356.11	4.6131e-06	4.4446e-06	346.3	131.33	118.78	44.06	2.8683e-06	54.221	0.0024965	0.002839	0.00081215	973.7	3.1226e-05	3.2854e-05	832.88	367.85	3.2481e-05	3.4462e-05	367.59	138.23	125.62	46.732	3.4704e-05	58.005	143.748	-47.833	-42.616	-161.674	-6.912	56.958	-163.445	-157.053	93.418	-97.827	-159.061	-154.893	-152.755	-147.159	11.972	-149.391	-8191	255	
58716.332	1	1	0	0	0.17589	0.15404	0.13158	0.21023	0.18671	0.14445	0.15118	0.23194	0.15666	0.046863	0.21242	0.17998	0.15634	0.12355	0.16484	0.15105	-3.9188	-3.2958	-4.1479	-4.0229	-3.3125	-4.2812	-3.575	-3.8187	-4.2083	-3.2313	-4.0854	-4.0229	-3.4958	-4.2771	-3.5667	-3.8479	126.963	-134.224	93.805	160.074	-144.646	-104.379	-106.156	160.492	-137.802	173.819	-161.794	88.580	64.699	-171.554	159.049	118.574	0.0010594	0.0008444	0.00022624	940.87	5.8695e-06	4.8901e-06	794.03	351.5	2.854e-06	4.6038e-06	347	129.85	117.23	43.42	3.7857e-06	53.431	0.0028551	0.0032189	0.00089938	974.19	3.3734e-05	3.5372e-05	828.96	365.17	3.3702e-05	3.4811e-05	365.22	136.09	124.35	46.205	3.3443e-05	57.328	147.282	-92.956	-66.045	-161.844	-67.348	-39.915	-163.134	-157.191	17.936	10.520	-158.911	-154.375	-152.635	-147.019	-70.786	-149.484	-8191	255	
58716.453	1	1	0	0	0.097965	0.088603	0.12501	0.03255	0.2433	0.037294	0.12282	0.18236	0.011253	0.24046	0.21517	0.10797	0.039534	0.20904	0.27266	0.12285	-3.9375	-3.4104	-3.9771	-4.1771	-3.3958	-4.1583	-3.8104	-3.7375	-4.0271	-3.2938	-4.0625	-4.1188	-3.2854	-4.1	-3.8167	-3.4792	-144.313	70.117	-34.511	-149.509	-49.743	27.493	79.644	-157.144	182.391	16.637	54.802	86.686	179.287	162.900	-150.292	132.811	0.00096527	0.00033641	6.0411e-06	942	6.4614e-06	1.665e-05	799.16	353.14	4.5843e-06	1.3305e-05	345.81	130.95	118.36	43.992	7.1841e-06	54.445	0.0027632	0.0030457	0.00085558	974.27	3.2664e-05	3.4031e-05	830.16	365.39	3.2704e-05	3.3701e-05	366.15	137.24	125.09	46.71	3.2482e-05	58.231	144.925	180.084	56.864	-161.713	52.561	-56.679	-163.420	-157.045	-28.321	-6.874	-158.860	-154.674	-153.028	-146.886	-62.518	-149.421	-8191	255	
58716.547	1	1	0	0	0.2795	0.20241	0.26493	0.068628	0.10258	0.083743	0.33797	0.31904	0.13369	0.17576	0.027203	0.16293	0.31616	0.15931	0.08661	0.14248	-3.8729	-3.4125	-3.7875	-4.2146	-3.3021	-4.1875	-3.7667	-3.6208	-4.3375	-3.55	-3.7313	-4.3313	-3.5292	-4.1271	-3.9896	-3.3125	144.174	19.503	-23.625	74.841	-127.497	34.958	127.183	123.843	-112.329	53.403	142.582	-173.989	156.683	38.322	103.077	-64.474	0.00083334	0.00083946	9.5173e-05	947.16	3.205e-06	4.5013e-06	795.85	355.21	3.8373e-07	9.5072e-06	349.64	132.26	119.57	44.953	2.5819e-06	55.507	0.0027645	0.0030989	0.00085768	976.24	3.3e-05	3.4526e-05	830.99	367.32	3.3343e-05	3.4307e-05	368.3	139.16	126.33	47.486	3.3474e-05	59.499	135.479	-56.390	176.287	-161.662	-98.164	62.591	-163.012	-157.068	87.787	-48.370	-159.056	-154.383	-152.812	-146.658	-48.697	-149.038	-8191	255	
58716.645	1	1	0	0	0.12167	0.049885	0.20496	0.029505	0.29046	0.17251	0.075534	0.1098	0.086662	0.23135	0.26083	0.03063	0.13994	0.051367	0.02364	0.18785	-4.0021	-3.5167	-3.7188	-4.4146	-3.2812	-4.1042	-4.1375	-3.5667	-4.2771	-3.7042	-3.7896	-4.4958	-3.5229	-4.0875	-3.9958	-3.4833	138.914	-93.341	36.955	-151.402	-130.273	88.497	146.376	-136.466	54.433	-13.133	181.494	113.152	-107.964	-155.943	95.397	129.477	0.00086197	0.00051445	7.0036e-05	940.68	1.0032e-05	2.6933e-06	806.74	354.94	9.86e-06	8.6899e-06	350.96	134.11	119.52	45.65	1.2858e-05	56.54	0.0028025	0.0031345	0.00087496	974.66	3.3706e-05	3.4656e-05	839.06	368.41	3.47e-05	3.5087e-05	371.84	141.36	127.24	48.298	3.4812e-05	60.623	142.020	-107.238	-154.663	-161.871	-73.320	-142.013	-163.314	-156.994	-82.762	50.502	-158.965	-154.588	-152.523	-147.079	-78.520	-149.680	-8191	255	
58716.738	1	1	0	0	0.12289	0.051137	0.043196	0.3389	0.01552	0.1512	0.15055	0.29172	0.24106	0.04777	0.29055	0.13765	0.1592	0.24652	0.22368	0.17385	-3.9125	-3.7833	-3.5792	-4.4354	-3.4042	-3.8688	-4.1833	-3.3792	-4.2063	-3.8354	-3.6354	-4.4062	-3.5625	-3.8688	-4.1396	-3.5646	-33.216	40.404	-67.195	173.809	-91.615	138.001	142.562	164.480	3.917	161.658	-139.772	34.942	4.919	104.670	-90.068	113.601	0.00090978	0.00059243	5.3264e-05	940.64	9.3309e-06	8.3532e-06	801.52	353.1	1.2134e-05	4.8193e-06	352.61	134.06	120.5	45.811	9.9126e-06	56.827	0.0029286	0.0032441	0.00090471	973.67	3.4839e-05	3.5821e-05	835.56	367.67	3.5396e-05	3.622e-05	372.76	142	128.14	48.591	3.7046e-05	60.875	139.796	-19.467	16.833	-161.503	-112.449	0.735	-163.354	-157.039	-71.392	-15.932	-158.815	-154.596	-152.584	-146.722	-61.642	-149.312	-8191	255	
58716.859	1	1	0	0	0.1958	0.22873	0.14102	0.022534	0.12775	0.070269	0.048822	0.12982	0.11943	0.20741	0.16263	0.15185	0.13188	0.040108	0.16741	0.17586	-3.7979	-3.8229	-3.3958	-4.3125	-3.5375	-3.85	-4.3438	-3.4437	-4.2167	-3.825	-3.5917	-4.3625	-3.4625	-3.9688	-4.1708	-3.4771	19.673	-1.253	-73.365	150.137	51.395	-25.615	-171.498	-159.852	24.093	-58.194	158.118	-170.421	-6.221	-91.731	-93.692	112.028	0.00099844	0.00058775	9.484e-05	941.52	6.0175e-06	4.3517e-06	794.91	353.18	6.9531e-06	3.4478e-06	349.07	133.72	119.62	45.652	4.4245e-06	56.315	0.003134	0.0035066	0.00099167	979.07	3.8156e-05	3.9613e-05	837.21	369.4	3.9261e-05	4.0448e-05	372.68	142.3	128.61	48.749	3.9967e-05	60.943	131.146	-57.671	-41.027	-161.614	-27.186	-116.955	-163.110	-156.983	-61.014	-103.123	-158.519	-154.601	-152.612	-146.712	55.618	-149.268	-8191	255	
58716.934	1	1	0	0	0.12764	0.22994	0.18135	0.33396	0.20074	0.15316	0.062461	0.071128	0.18093	0.12311	0.097229	0.10849	0.17188	0.21939	0.37297	0.20267	-3.7292	-3.9437	-3.3812	-4.3396	-3.6188	-3.7917	-4.3063	-3.475	-4.0333	-4.0896	-3.6021	-4.2438	-3.8312	-3.75	-4.3917	-3.45	-70.697	91.222	-56.552	183.403	-81.701	110.890	140.800	107.579	94.549	-48.734	174.689	172.255	158.696	-63.008	130.411	115.903	0.00094875	0.0012636	0.00022207	941.43	5.2369e-06	7.4739e-06	794.75	352.28	1.6512e-06	9.3105e-06	348.19	133.61	120.25	45.649	3.2604e-06	56.442	0.0032792	0.0037234	0.0010389	978.35	3.9289e-05	4.0717e-05	836.69	368.87	3.9659e-05	4.0948e-05	372.37	141.92	128.47	48.651	4.0209e-05	60.882	147.175	-105.920	-27.869	-161.813	-23.170	-19.995	-163.352	-157.051	18.210	-68.338	-158.908	-154.816	-152.773	-146.836	-98.544	-149.579	-8191	255	
58717.055	1	1	0	0	0.10593	0.068194	0.088165	0.1444	0.16106	0.11495	0.21629	0.092416	0.15304	0.20442	0.089557	0.13568	0.1077	0.19285	0.22958	0.10757	-3.625	-4.0875	-3.2958	-4.3667	-3.6896	-3.4979	-4.3583	-3.6875	-3.7938	-4.2625	-3.6437	-4.2562	-3.7521	-3.5667	-4.3729	-3.6021	53.401	157.824	-37.030	-156.759	-103.707	2.578	55.956	106.586	112.435	-169.564	183.619	109.981	-8.977	154.313	-24.511	91.708	0.00094437	0.0004016	0.00026317	942.77	7.1059e-06	5.7998e-06	798.58	352.88	1.0973e-05	1.0048e-05	348.6	134.22	120.36	45.173	4.6148e-06	56.047	0.0032694	0.0036902	0.0010241	980.05	3.8004e-05	3.9214e-05	836.76	368.83	3.7189e-05	3.83e-05	369.38	141.11	127.88	48.265	3.6927e-05	60.165	136.928	-160.814	-94.740	-161.799	-53.821	91.072	-163.573	-157.006	-73.566	5.729	-158.877	-154.658	-152.747	-146.978	-129.937	-149.491	-8191	255	
58717.148	1	1	0	0	0.31209	0.15902	0.20632	0.37384	0.15478	0.29816	0.21633	0.23288	0.10301	0.099794	0.1747	0.10443	0.12499	0.12046	0.11066	0.19115	-3.4479	-4.2542	-3.5083	-4.3167	-3.8333	-3.3917	-4.4854	-3.6396	-3.65	-4.2604	-3.3833	-4.0708	-4.25	-3.5667	-4.3104	-3.6896	92.050	155.293	56.550	152.754	-82.736	-108.332	132.217	131.546	117.089	-51.385	137.343	4.856	147.877	-147.233	-15.844	92.972	0.00087832	0.00050769	0.0002697	941.04	5.5106e-07	5.058e-06	794.94	353.39	1.2921e-05	4.7768e-06	347.38	132.88	120.16	44.772	1.2102e-05	55.602	0.0029996	0.0033895	0.00094113	976.43	3.5645e-05	3.6861e-05	831.55	367.68	3.4753e-05	3.5896e-05	367.6	140	127.33	47.731	3.3955e-05	59.577	144.603	-42.973	-65.075	-161.642	-163.860	-40.656	-163.133	-157.048	-39.014	-97.087	-158.743	-154.709	-152.755	-146.803	-80.552	-149.221	-8191	255	
58717.242	1	1	0	0	0.27054	0.07181	0.18003	0.20595	0.09919	0.31028	0.2382	0.17675	0.17182	0.13157	0.084109	0.14781	0.13171	0.24939	0.2752	0.12519	-3.3229	-4.2833	-3.3729	-4.1292	-4.1062	-3.4167	-4.4729	-3.85	-3.7958	-4.2438	-3.5167	-4.1396	-4.25	-3.3979	-4.2312	-3.9333	60.210	-162.193	31.522	174.778	-11.119	130.983	50.655	79.980	-128.058	16.987	-116.088	107.334	162.435	83.951	130.937	159.249	0.0010584	0.00041747	0.00020537	947.89	7.1392e-06	3.7818e-06	799.12	357.33	2.3714e-06	5.1691e-06	349.33	132.86	120.32	44.927	3.7594e-06	56.017	0.0027495	0.0031163	0.00085697	977.4	3.252e-05	3.3481e-05	833.37	368.93	3.2361e-05	3.3669e-05	368.47	139.73	127.29	47.626	3.2458e-05	59.666	133.938	-128.714	-15.134	-161.920	-9.822	-50.199	-163.209	-157.061	-27.629	-16.983	-158.878	-154.725	-152.883	-147.130	-86.317	-149.188	-8191	255	
58717.340	1	1	0	0	0.11296	0.22602	0.14006	0.089593	0.15876	0.16104	0.036589	0.1171	0.057683	0.10358	0.1669	0.21997	0.10456	0.23558	0.10482	0.16119	-3.2708	-4.1229	-3.4667	-3.8896	-4.0875	-3.3667	-4.2542	-4.0292	-3.5292	-4.2937	-3.5563	-3.9188	-4.2917	-3.4	-4.0792	-3.9833	-105.722	-135.796	-33.122	-95.488	-63.181	21.954	-55.930	163.220	152.788	-174.881	-159.890	-120.116	126.938	-4.287	-116.404	101.105	0.0011414	0.00080826	0.00014469	948.9	7.8844e-06	6.655e-06	802.86	357.15	6.1739e-06	9.3028e-06	351.22	132.94	121.32	44.879	6.999e-06	55.655	0.002698	0.0030591	0.0008451	979.93	3.2002e-05	3.2866e-05	835.47	370.27	3.162e-05	3.3204e-05	369.88	140.03	127.56	47.501	3.2005e-05	59.348	135.838	-92.146	-68.052	-161.494	8.180	57.500	-162.896	-157.030	-58.970	10.913	-158.893	-154.623	-152.928	-146.973	-113.855	-149.797	-8191	255	
58717.461	1	1	0	0	0.11209	0.13078	0.092292	0.090433	0.033298	0.076313	0.25682	0.27164	0.091056	0.036579	0.1625	0.073274	0.10752	0.1792	0.26861	0.17139	-3.2	-4.3229	-3.4458	-3.8333	-4.1771	-3.4229	-4.2229	-4.1479	-3.4062	-4.3854	-3.7646	-3.7771	-4.2979	-3.4354	-3.95	-4.1271	-96.394	-164.746	87.642	-153.689	-63.674	68.285	-129.461	-79.501	178.716	62.430	135.232	24.929	-140.787	-103.361	-71.050	84.592	0.00098532	0.00022462	4.4422e-05	953.28	7.8565e-06	5.6294e-06	800.17	357.86	8.2407e-07	1.1812e-05	348.53	131.81	120.4	44.158	7.0941e-06	54.566	0.002616	0.0029495	0.00080174	980.89	3.0497e-05	3.111e-05	832.4	370.09	2.921e-05	2.9945e-05	366.57	137.61	126.31	46.561	2.7798e-05	57.574	145.906	174.369	-1.463	-161.991	-40.971	-41.456	-163.199	-156.841	133.635	-15.803	-158.576	-154.692	-152.809	-146.942	-82.264	-149.208	-8191	255	
58717.559	1	1	0	0	0.20131	0.049217	0.042261	0.086821	0.14846	0.13096	0.16966	0.11408	0.085247	0.14737	0.072304	0.26486	0.10806	0.070234	0.3065	0.16959	-3.1125	-4.3542	-3.8063	-3.7104	-4.2354	-3.6688	-4.15	-4.2688	-3.5	-4.3771	-3.7917	-3.675	-4.2188	-3.6	-3.7792	-4.1333	18.667	-65.865	-11.278	82.258	144.660	81.294	168.352	143.012	30.921	29.391	77.712	-153.731	34.158	-134.462	-85.655	-147.643	0.00093579	0.0004635	0.00011067	957.18	1.1785e-05	4.1937e-06	797.76	359.64	4.8498e-06	5.1721e-06	346.31	129.33	119.71	43.48	6.5597e-06	53.29	0.0022854	0.0025331	0.00069687	981.6	2.6779e-05	2.7141e-05	824.6	369.73	2.5893e-05	2.7033e-05	362.69	134.86	124.82	45.555	2.6321e-05	56.34	135.373	-136.956	-123.576	-161.965	-58.635	18.984	-163.434	-156.910	-134.287	42.759	-158.692	-154.845	-152.864	-147.049	-83.017	-149.444	-8191	255	
58717.629	1	1	0	0	0.071444	0.13175	0.058899	0.15627	0.20838	0.13142	0.13788	0.38387	0.21679	0.074736	0.065895	0.25453	0.17432	0.05992	0.15931	0.17278	-3.0208	-4.2896	-3.8104	-3.6542	-4.2417	-3.5208	-3.9229	-4.4083	-3.3875	-4.1562	-4.2438	-3.575	-4.4208	-3.6688	-3.7812	-4.2562	-39.476	-7.080	68.827	141.381	164.182	137.076	152.284	135.859	-138.657	56.188	-171.113	132.213	-174.642	47.822	-139.151	100.684	0.00085365	0.00043286	0.00016653	953.61	4.4877e-06	6.1069e-06	797.55	358.35	1.0459e-05	7.999e-06	348.7	129.62	119.86	44.033	9.7525e-06	54.478	0.0022294	0.0024867	0.00070765	982.95	2.7376e-05	2.8307e-05	825.72	369.69	2.816e-05	2.9237e-05	364.73	136.29	125.84	46.34	2.9878e-05	57.738	140.985	61.679	-133.716	-161.879	-86.918	-24.838	-163.495	-157.013	-20.854	-22.493	-158.847	-154.552	-152.758	-146.972	-85.502	-149.202	-8191	255	
58717.750	1	1	0	0	0.047777	0.17529	0.15487	0.25225	0.11424	0.086839	0.25648	0.30651	0.12974	0.022112	0.17849	0.29715	0.058278	0.15316	0.050043	0.076637	-3.1958	-4.1687	-4.1125	-3.5187	-4.3167	-3.6542	-3.9333	-4.2562	-3.3438	-4.1396	-3.9813	-3.475	-4.2729	-4.025	-3.7812	-4.35	-85.011	-53.601	56.428	69.733	2.681	118.331	47.518	130.314	-34.919	-105.339	88.810	-136.839	-59.160	-169.567	-33.439	-9.326	0.000967	0.000612	0.00019035	949.04	3.6008e-06	4.7511e-06	795.91	357.79	7.7748e-06	2.804e-06	349.66	132.84	121.62	44.816	3.7e-06	55.929	0.0025153	0.002827	0.0008074	981.65	3.1452e-05	3.2793e-05	830.54	370.02	3.2615e-05	3.3798e-05	369.26	140.07	127.93	47.71	3.3498e-05	59.693	147.062	-141.664	-119.107	-161.895	12.711	-37.758	-163.497	-157.019	-44.919	29.963	-158.858	-154.729	-152.951	-146.801	-89.698	-149.521	-8191	255	
58717.844	1	1	0	0	0.069723	0.074046	0.38109	0.094494	0.099186	0.14159	0.19731	0.37722	0.22399	0.11855	0.29469	0.33851	0.065219	0.19047	0.15412	0.13184	-3.0938	-3.9437	-4.1958	-3.4854	-4.325	-3.8125	-3.6917	-4.3875	-3.5458	-3.8167	-4.3625	-3.5312	-4.3229	-4.0104	-3.4208	-4.4229	20.394	-45.949	19.490	-147.525	166.281	-37.993	124.403	111.503	64.996	4.627	136.488	141.881	-89.044	177.614	-139.793	63.376	0.00088415	0.00045711	0.00019422	944.36	6.3408e-06	6.5783e-06	792.73	357.64	8.0057e-06	3.2524e-06	348.7	133.11	121.22	45.349	1.0589e-05	55.492	0.0027748	0.0031331	0.00087702	977.13	3.3841e-05	3.4961e-05	828.33	370.33	3.3807e-05	3.5124e-05	368.55	140.13	128.36	48.066	3.3971e-05	59.379	140.125	-106.091	-77.739	-161.780	-69.190	-41.956	-163.431	-156.877	-92.982	-141.911	-158.681	-154.737	-152.656	-146.615	10.726	-149.298	-8191	255	
58717.941	1	1	0	0	0.052453	0.14455	0.11902	0.217	0.31815	0.020933	0.20715	0.30507	0.090124	0.084769	0.073062	0.065294	0.17216	0.18623	0.07188	0.30914	-3.3375	-3.7917	-4.2854	-3.6458	-4.1771	-3.975	-3.5438	-4.5417	-3.5375	-3.8208	-4.2708	-3.6229	-4.2958	-3.9375	-3.4729	-4.4021	-4.243	17.339	-87.168	173.899	-138.244	151.619	-164.948	97.322	-158.782	95.320	-122.104	133.458	148.760	-170.292	131.192	114.879	0.00096502	0.00041662	0.00018296	946.73	7.3454e-06	5.057e-06	791.33	357.86	1.1968e-05	9.385e-06	349.05	133.64	121.62	45.13	1.0143e-05	55.613	0.0027639	0.0031582	0.00088712	977.39	3.3403e-05	3.5006e-05	826.88	369.92	3.3932e-05	3.5652e-05	367.88	140.19	128.4	47.937	3.4515e-05	59.478	140.652	85.671	-87.186	-161.783	-106.504	-45.945	-163.152	-156.837	-56.148	39.331	-158.903	-154.674	-152.832	-146.829	-122.380	-149.494	-8191	255	
58718.039	1	1	0	0	0.13257	0.21377	0.15626	0.22496	0.1829	0.15254	0.2007	0.31699	0.21267	0.14074	0.083289	0.12656	0.093782	0.13593	0.1524	0.18265	-3.2438	-3.6333	-4.1583	-3.7562	-4.0833	-4.0604	-3.4958	-4.3812	-3.7167	-3.5771	-4.3646	-3.5438	-4.1229	-4.2667	-3.3854	-4.2625	-122.069	0.990	122.623	173.110	-49.254	-136.472	176.014	97.115	-36.027	74.070	67.250	146.723	117.257	31.618	-132.623	-160.208	0.00098333	0.0010789	0.00018648	948.54	6.301e-06	7.082e-06	790.59	356.55	1.1374e-05	1.3227e-06	349.47	132.82	121.15	45.115	3.1762e-06	55.818	0.0028768	0.0032632	0.000917	979.53	3.4656e-05	3.6457e-05	828.44	370.62	3.5745e-05	3.6974e-05	369.58	140.56	128.74	48.08	3.6531e-05	59.807	145.970	-118.720	-115.888	-161.816	-94.079	-8.725	-163.034	-157.002	-119.861	106.190	-158.727	-154.586	-152.875	-146.910	-54.017	-149.616	-8191	255	
58718.156	1	1	0	0	0.093286	0.16609	0.15512	0.094155	0.093074	0.21351	0.11193	0.29216	0.12794	0.013318	0.19096	0.026848	0.31728	0.095797	0.13642	0.15084	-3.3167	-3.4792	-4.2521	-3.475	-3.9208	-4.0292	-3.4	-4.2958	-3.8833	-3.4354	-4.3271	-3.625	-3.8	-4.1771	-3.2562	-4.2354	56.461	-108.557	24.993	-174.870	-16.441	113.637	80.061	123.783	56.045	110.135	139.258	54.319	137.210	163.814	152.936	-38.553	0.00091162	0.00060902	5.5387e-05	945.19	2.1302e-06	8.092e-06	793.77	356.02	7.1963e-06	5.1219e-06	347.73	134.41	121.97	45.528	8.6723e-06	55.912	0.0029977	0.0033806	0.00094398	978.3	3.5866e-05	3.7241e-05	831.27	370.81	3.6316e-05	3.7435e-05	369.46	141.61	129.32	48.398	3.6596e-05	60.219	146.513	41.931	141.879	-161.829	-153.747	42.403	-163.423	-156.950	-21.455	-39.421	-158.778	-154.704	-152.681	-146.715	-35.014	-149.643	-8191	255	
58718.227	1	1	0	0	0.17432	0.046649	0.1165	0.26487	0.034925	0.11866	0.24887	0.18951	0.17668	0.18424	0.25094	0.082811	0.03677	0.15681	0.2874	0.16189	-3.5896	-3.3958	-4.125	-3.7062	-3.7417	-4.1687	-3.4229	-4.1104	-3.9333	-3.3042	-4.2646	-3.7708	-3.8229	-4.2167	-3.4729	-4.1354	150.557	-94.024	-58.393	-103.612	-140.083	-129.520	158.286	143.039	-44.247	12.628	-66.240	148.424	-114.460	112.028	50.202	89.994	0.00089051	0.00052822	0.00020117	942.04	8.8076e-06	1.4492e-05	787.39	355.18	5.9714e-07	1.1245e-05	347.42	133.54	121.58	45.393	1.3164e-06	55.896	0.0030836	0.0034402	0.0009647	977.11	3.7188e-05	3.8621e-05	825.83	369.43	3.791e-05	3.9026e-05	368.71	141.35	128.99	48.494	3.8819e-05	60.307	143.482	-51.316	-95.330	-161.794	-104.096	-19.000	-163.449	-156.956	96.508	19.182	-159.055	-154.665	-153.043	-146.905	112.863	-149.258	-8191	255	
58718.324	1	1	0	0	0.20401	0.053181	0.11803	0.1383	0.068178	0.082929	0.12641	0.16707	0.034145	0.20353	0.38157	0.22175	0.15988	0.1828	0.042459	0.13931	-3.7292	-3.3937	-4.2854	-3.7896	-3.7396	-4.2667	-3.6729	-4.0312	-4.1729	-3.3417	-4.2562	-3.9104	-3.4896	-4.3688	-3.5833	-3.9208	-117.634	-112.402	26.438	11.935	-48.203	36.539	66.559	87.100	100.151	53.500	151.010	180.090	182.568	34.860	62.862	133.295	0.0008355	0.00036595	0.0001426	930.57	5.4539e-06	1.2212e-05	788.89	353.12	7.9459e-06	1.0001e-05	346.75	133.1	121.14	45.106	4.3575e-06	55.981	0.0032379	0.003656	0.001033	974.94	4.0014e-05	4.1667e-05	830.68	369.53	4.076e-05	4.2762e-05	370.88	141.84	129.32	48.483	4.2138e-05	60.387	140.045	94.625	58.906	-161.848	-28.882	2.841	-163.550	-157.244	-65.641	-8.256	-158.753	-154.501	-152.831	-147.053	-12.016	-149.534	-8191	255	
58718.422	1	1	0	0	0.070756	0.21963	0.29385	0.16352	0.14791	0.085167	0.069912	0.16411	0.020846	0.16436	0.28789	0.18492	0.13422	0.34012	0.21849	0.14322	-3.8958	-3.4313	-4.1458	-3.825	-3.5854	-4.4625	-3.7604	-3.9354	-4.1292	-3.5458	-4.1937	-4.0021	-3.4208	-4.2167	-3.5104	-3.9437	21.839	-30.868	107.879	-156.912	-0.840	31.925	142.116	147.821	106.882	136.566	-144.830	120.107	143.774	124.379	150.532	22.911	0.0010924	0.00073699	0.00035406	940.26	8.9236e-06	7.7098e-06	787.3	354.96	9.6214e-06	1.0811e-05	347.03	133.13	121.23	45.129	1.2202e-05	55.891	0.0034655	0.0039038	0.001102	981.09	4.2092e-05	4.3745e-05	833.74	371.77	4.3073e-05	4.4905e-05	373.26	142.51	129.9	48.586	4.5602e-05	60.639	130.747	-73.305	-152.969	-161.636	-59.240	-75.507	-163.389	-157.094	10.034	-59.279	-158.800	-154.739	-152.967	-147.141	-68.840	-149.742	-8191	255	
58718.539	1	1	0	0	0.086449	0.29145	0.21174	0.077983	0.28423	0.15017	0.17792	0.21568	0.1586	0.12915	0.18664	0.18584	0.1024	0.36549	0.16056	0.14046	-3.9375	-3.2938	-4.1062	-4.0375	-3.5333	-4.2354	-3.7229	-3.6417	-4.2	-3.5625	-4.1917	-4.1813	-3.6167	-4.2167	-3.7167	-3.6583	-56.524	-22.968	-158.638	55.339	-107.821	-170.983	92.031	121.131	-15.391	181.427	120.449	176.661	-161.670	176.701	139.412	42.347	0.00093847	0.00059938	0.00024041	943.21	2.6872e-06	5.6242e-06	786.6	352.87	6.8587e-06	8.783e-06	348.2	133.4	120.89	45.493	7.8972e-06	55.845	0.0037944	0.0042886	0.0012229	984.21	4.7478e-05	4.9956e-05	837.72	372.73	5.1696e-05	5.4774e-05	378.76	144.85	131.96	49.511	5.9359e-05	61.865	144.160	-141.720	-69.390	-161.807	-61.605	94.678	-163.276	-156.895	-89.016	145.959	-158.904	-154.624	-153.049	-146.967	-45.306	-149.691	-8191	255	
58718.637	1	1	0	0	0.069411	0.11238	0.16337	0.031617	0.16097	0.079577	0.082736	0.095316	0.037312	0.1674	0.13058	0.12709	0.16213	0.064906	0.14514	0.14821	-4.0333	-3.4208	-3.9646	-4.3313	-3.3229	-4.1521	-3.9938	-3.7	-4.2063	-3.4813	-3.8792	-4.2438	-3.5708	-4.3104	-3.825	-3.575	135.856	-168.288	67.351	-151.743	44.887	-114.128	75.876	78.023	145.581	145.350	-134.966	-70.340	-143.428	10.912	59.779	143.343	0.00086199	3.906e-05	0.00035295	925.32	1.2013e-05	8.1603e-06	783.46	350.16	9.0629e-06	4.2747e-06	342.08	132.57	120.41	45.226	3.2729e-06	55.621	0.0048936	0.005659	0.0016149	986.82	6.092e-05	6.3593e-05	844.13	373.7	6.2172e-05	6.4549e-05	379.99	145.52	132.49	49.816	6.3983e-05	62.071	143.185	-17.075	-92.927	-161.707	-72.903	-32.399	-163.005	-157.053	-123.433	-14.335	-158.727	-155.021	-152.732	-147.032	66.649	-149.570	-8191	255	
58718.734	1	1	0	0	0.13536	0.097672	0.077474	0.20438	0.2696	0.16443	0.14803	0.18348	0.1809	0.1779	0.21268	0.16451	0.16385	0.25306	0.14921	0.23186	-4.0708	-3.5167	-3.7562	-4.3792	-3.3083	-4.1167	-3.9667	-3.5833	-4.3958	-3.6708	-3.8854	-4.2	-3.4729	-4.1875	-3.95	-3.3583	-57.442	71.738	156.758	175.864	85.087	-47.429	18.181	126.362	172.714	-95.932	81.988	175.004	-14.953	182.564	115.833	68.611	0.00084637	0.00066797	0.00026163	920.51	9.3797e-06	1.2824e-05	775.87	348.55	4.7861e-06	7.0802e-06	341.2	132.85	120.85	45.526	2.7542e-06	56.218	0.0051573	0.0059646	0.0016746	985.15	6.2443e-05	6.4957e-05	840.31	372.83	6.029e-05	6.2095e-05	377.06	145.52	132.29	49.827	5.8114e-05	62.076	119.773	-133.403	-143.240	-161.976	-66.840	-169.022	-163.308	-156.973	-5.753	-11.882	-159.167	-154.660	-152.880	-146.852	6.016	-149.470	-8191	255	
58718.828	1	1	0	0	0.39524	0.075806	0.067448	0.099433	0.15483	0.17905	0.042956	0.098276	0.39681	0.12062	0.22222	0.12025	0.069868	0.12748	0.16432	0.26045	-4.0333	-3.7875	-3.6771	-4.4375	-3.4625	-4.0771	-4.1583	-3.5812	-4.3229	-3.8563	-3.6646	-4.3167	-3.5958	-4.1896	-4.125	-3.4354	-12.009	14.465	-81.101	-40.010	113.528	169.757	175.585	56.707	-142.994	90.288	-11.179	-12.366	-159.228	-9.224	136.478	53.939	0.00093886	0.00062346	0.00034526	922.09	4.8622e-06	8.2048e-06	785.82	349.06	6.3447e-06	6.3181e-06	343.5	134.04	120.77	45.135	5.7091e-06	55.786	0.0047062	0.0054488	0.0015222	981.52	5.8579e-05	6.2521e-05	844.64	374.09	6.1694e-05	6.5465e-05	381.07	146.69	133.26	50.019	6.444e-05	62.302	142.007	-55.854	-88.521	-161.652	-89.669	1.546	-163.037	-156.783	-45.673	-82.418	-158.840	-154.404	-152.989	-147.372	-15.918	-149.685	-8191	255	
58718.926	1	1	0	0	0.1207	0.2314	0.21796	0.22558	0.057634	0.21054	0.27066	0.015591	0.19331	0.24643	0.0925	0.1946	0.063725	0.050198	0.097452	0.26641	-4.0979	-3.6479	-3.4479	-4.4563	-3.4771	-3.9062	-4.3229	-3.3979	-4.3	-3.9333	-3.6104	-4.425	-3.5375	-3.9146	-4.2375	-3.55	55.454	-80.194	-161.557	131.059	-42.052	-47.488	154.774	44.289	-38.536	96.742	151.822	170.900	-53.698	53.107	136.785	164.302	0.00097317	0.00043516	0.00037492	924.6	2.2452e-05	3.6457e-06	778.59	349.61	4.3987e-06	1.3143e-05	342.09	132.01	119.72	44.616	1.1695e-05	54.588	0.0051681	0.0059192	0.0016426	985.04	6.1777e-05	6.3607e-05	843.45	373.31	6.0948e-05	6.3012e-05	377.84	144.1	131.62	49.186	6.0729e-05	60.713	139.243	-105.616	-63.244	-161.758	-31.611	-1.306	-163.633	-157.056	38.946	-32.508	-158.606	-154.625	-152.634	-147.186	-60.001	-149.548	-8191	255	
58719.023	1	1	0	0	0.18011	0.16125	0.23667	0.088472	0.13505	0.10774	0.29135	0.12866	0.091291	0.15953	0.25591	0.12739	0.22427	0.21661	0.33791	0.11527	-3.9958	-3.7687	-3.4479	-4.4208	-3.6688	-3.725	-4.2583	-3.2167	-4	-4.1021	-3.4437	-4.375	-3.7062	-3.6917	-4.3375	-3.4729	72.457	165.246	-8.957	-120.485	-69.670	-173.097	143.934	171.247	-172.750	-36.818	-4.682	-16.819	107.463	-47.098	160.780	-157.932	0.00078879	0.0013773	0.00017816	927.75	5.3783e-06	3.0697e-06	776.07	347.24	1.4069e-05	1.0475e-05	337.3	128.95	117.69	43.802	6.0367e-06	53.482	0.0049811	0.0057103	0.0015753	984.37	6.0494e-05	6.2847e-05	840.69	370.58	6.2453e-05	6.5163e-05	374.22	141.91	130.04	48.539	6.4709e-05	60.07	146.616	-121.967	-163.816	-161.603	-64.512	-52.668	-163.161	-157.016	-87.232	-34.919	-158.563	-154.610	-152.711	-147.271	27.294	-149.549	-8191	255	
58719.141	1	1	0	0	0.22832	0.050519	0.096966	0.12546	0.21681	0.10138	0.1661	0.24928	0.22977	0.24103	0.10231	0.051182	0.15789	0.164	0.22225	0.28743	-3.7417	-4.2667	-3.5062	-4.4437	-3.75	-3.6521	-4.4	-3.4625	-3.8792	-4.2083	-3.5104	-4.2833	-3.8479	-3.6646	-4.3479	-3.4417	117.420	166.875	143.336	159.317	-19.465	107.076	-153.280	99.338	183.457	-161.870	154.261	137.322	169.813	-92.154	40.275	102.785	0.00095455	0.0014323	0.00031353	919.18	1.4658e-06	1.1387e-05	769.81	342.97	1.3386e-05	1.587e-05	327.85	124.16	113.1	41.959	9.8343e-06	51.132	0.0053139	0.0060692	0.0016903	985.18	6.4348e-05	6.5335e-05	835.05	367.31	6.3198e-05	6.4882e-05	366.34	136.71	125.6	46.547	6.1729e-05	57.17	143.864	-41.545	-14.209	-161.868	10.895	-81.130	-163.537	-157.116	-126.484	-21.170	-159.045	-154.828	-152.866	-147.414	-44.009	-149.416	-8191	255	
58719.238	1	1	0	0	0.13044	0.19208	0.0914	0.29288	0.16147	0.10959	0.24909	0.1826	0.017686	0.034879	0.13213	0.20571	0.16054	0.22257	0.20458	0.21444	-3.6729	-4.15	-3.4625	-4.3812	-3.7667	-3.5292	-4.5354	-3.7354	-3.7729	-4.3229	-3.5208	-4.3229	-4.0729	-3.6021	-4.2688	-3.6625	-10.423	34.767	8.738	161.955	90.533	135.274	-61.574	-41.080	-41.398	67.569	166.230	79.213	173.028	-124.227	-139.994	81.469	0.00078784	0.00022752	0.00036188	931.62	6.807e-06	1.5575e-05	766.4	341.44	1.0249e-05	4.1268e-06	321.08	118.63	110.5	40.075	1.5388e-05	48.283	0.0050745	0.0057788	0.0015953	990.05	6.1011e-05	6.2407e-05	830.36	364.43	6.0358e-05	6.2353e-05	357	130.78	122.19	44.691	5.9693e-05	54.623	134.523	-172.211	-95.219	-161.726	-97.322	-161.537	-163.249	-157.351	-123.474	29.309	-159.131	-154.775	-152.782	-147.263	-59.555	-149.415	-8191	255	
58719.332	1	1	0	0	0.14054	0.10434	0.2342	0.16555	0.13884	0.25378	0.17541	0.1142	0.21513	0.036322	0.14013	0.25427	0.22082	0.18968	0.063631	0.22639	-3.5396	-4.3979	-3.4167	-4.2021	-3.8583	-3.4896	-4.4292	-3.6562	-3.6833	-4.35	-3.5146	-4.1417	-4.2375	-3.3979	-4.2812	-3.7292	-158.708	33.640	89.973	-60.899	86.014	131.659	166.290	171.382	-6.647	31.449	154.924	-117.543	123.677	-152.132	106.339	44.400	0.0009952	0.00067606	0.00013958	931.95	7.9181e-06	1.3826e-05	757.5	338.83	8.3e-06	9.3633e-06	315.28	115.17	109.13	39.63	4.6298e-06	47.194	0.0048478	0.0055301	0.0015322	989.33	5.916e-05	6.0465e-05	820.38	361.8	5.9249e-05	6.1033e-05	350.61	127.52	120.73	43.909	6.0282e-05	53.236	129.884	-95.332	-12.299	-161.571	-100.918	20.269	-163.517	-156.992	-4.128	-59.601	-159.037	-154.561	-152.845	-147.250	-78.231	-149.761	-8191	255	
58719.453	1	1	0	0	0.059646	0.11288	0.23441	0.31414	0.17468	0.34863	0.26066	0.055239	0.068501	0.15763	0.22159	0.071393	0.1088	0.17191	0.18395	0.20157	-3.175	-4.0979	-3.4479	-4.1208	-4.0833	-3.4562	-4.3667	-3.9167	-3.6167	-4.3208	-3.5229	-3.8979	-4.1604	-3.5771	-4.2896	-4.0271	-113.965	-159.381	82.724	-163.826	184.018	103.222	142.086	-110.987	24.114	59.385	76.761	-118.374	99.339	65.399	-100.461	173.474	0.00066388	0.0010266	0.0003149	923.69	1.1604e-05	4.8825e-06	749.88	335.48	5.3675e-06	1.18e-05	311.83	113.49	108.38	39.226	3.2404e-06	46.67	0.004825	0.00554	0.0015537	984.68	5.9036e-05	6.0473e-05	812.88	359.19	5.9379e-05	6.1708e-05	347.24	125.83	120	43.626	6.1021e-05	52.917	143.282	-93.395	-67.787	-161.803	-18.529	65.319	-163.254	-157.234	-66.230	105.414	-158.983	-154.467	-153.052	-147.016	-83.289	-149.358	-8191	255	
58719.523	1	1	0	0	0.27586	0.038658	0.065314	0.17654	0.0454	0.13377	0.072273	0.19363	0.20402	0.078079	0.17435	0.23669	0.046762	0.073557	0.10945	0.24337	-3.2708	-4.3646	-3.4375	-4.1021	-4.1979	-3.325	-4.2438	-3.9688	-3.4	-4.3187	-3.6167	-3.6937	-4.3167	-3.4875	-4.0667	-4.1708	111.015	58.047	-48.540	129.599	-105.021	-96.748	174.616	58.693	-98.240	57.336	8.345	-129.368	22.937	83.920	-45.073	133.561	0.001033	0.00024194	0.00021774	921.91	7.0252e-06	1.5788e-06	743.18	333.91	5.4601e-06	4.504e-06	309.56	112.59	107.43	39.011	9.0503e-06	46.815	0.0048627	0.0055719	0.001589	983.08	5.9882e-05	6.177e-05	807.61	357.68	5.9686e-05	6.2788e-05	346.26	125.28	119.63	43.533	6.1201e-05	52.698	131.587	116.015	-162.417	-161.987	37.376	138.738	-163.560	-156.909	-69.068	44.924	-159.048	-154.975	-153.038	-147.082	19.819	-149.627	-8191	255	
58719.621	1	1	0	0	0.34194	0.10862	0.17082	0.30006	0.1323	0.12865	0.18881	0.12899	0.20985	0.033993	0.031744	0.23495	0.18049	0.027434	0.22857	0.16024	-3.0708	-4.2708	-3.7375	-3.9979	-4.275	-3.5479	-4.1979	-4.2312	-3.4042	-4.3521	-3.8521	-3.9333	-4.4479	-3.5229	-3.8375	-4.1875	117.378	-62.992	173.382	161.781	-99.263	-93.404	58.088	123.262	18.712	161.240	6.839	-132.904	-128.336	-66.725	-115.300	108.101	0.00093412	0.0011178	0.00037527	921.08	4.883e-06	8.6332e-06	741.72	333.8	1.1908e-05	8.1304e-06	308.01	112.29	107.57	38.907	7.8228e-06	46.165	0.0047991	0.0055975	0.0015488	978.52	5.7277e-05	5.9515e-05	802.95	356.86	5.7086e-05	6.0374e-05	342.82	124.49	118.88	43.11	5.8499e-05	51.921	137.818	-155.816	-95.396	-162.256	-112.955	-34.641	-163.420	-157.085	6.301	31.204	-159.405	-154.800	-152.965	-147.238	-86.154	-149.742	-8191	255	
58719.719	1	1	0	0	0.12188	0.11231	0.097511	0.18974	0.10905	0.15979	0.024813	0.12363	0.0551	0.24786	0.079032	0.031959	0.099842	0.24334	0.070453	0.040712	-2.9854	-4.3	-3.6625	-3.6333	-4.2729	-3.6708	-3.9562	-4.3625	-3.3187	-4.2292	-3.8771	-3.5875	-4.3396	-3.5563	-3.7333	-4.2979	70.236	-101.427	-115.438	-158.672	165.722	-55.339	65.576	118.076	-20.371	-94.299	-19.743	-65.705	96.989	146.410	113.349	78.658	0.00078124	0.0010316	0.00016563	923.79	7.7931e-06	1.2677e-06	735.92	333.12	2.4254e-06	5.2515e-06	305.69	110.51	107.05	38.33	1.0763e-06	45.348	0.0046212	0.0053731	0.0014942	976.62	5.5951e-05	5.8641e-05	795.4	354.89	5.5495e-05	5.9061e-05	338.88	122.38	118.02	42.579	5.6378e-05	51.124	141.767	-159.123	18.210	-161.906	-68.424	-21.567	-163.488	-157.032	35.501	-125.617	-158.840	-154.776	-152.852	-147.070	-91.051	-149.336	-8191	255	
58719.840	1	1	0	0	0.13197	0.03737	0.12005	0.19444	0.087892	0.043635	0.25209	0.091247	0.15152	0.11923	0.16187	0.29926	0.051974	0.26226	0.14657	0.084125	-3.0896	-4.0646	-3.9104	-3.5938	-4.2896	-3.6625	-3.8396	-4.2104	-3.3521	-4.1646	-4.1708	-3.4125	-4.3854	-3.75	-3.9021	-4.2479	-123.611	-123.173	98.048	165.662	183.525	169.161	173.672	-13.495	-115.378	-151.234	-107.317	-169.603	113.021	88.336	-92.310	109.388	0.00056703	0.0010881	3.2293e-05	920.08	9.9412e-06	7.3418e-06	731.14	332.78	1.265e-05	3.9975e-06	304.82	112.58	107.78	38.676	7.8286e-06	45.49	0.0045398	0.005267	0.0014548	973.97	5.4451e-05	5.6604e-05	788.38	354.34	5.3298e-05	5.5631e-05	337.15	122.84	118.44	42.55	5.2697e-05	50.785	152.417	154.503	83.838	-161.942	-19.131	-50.228	-163.570	-157.188	-65.280	145.417	-159.024	-154.932	-152.793	-147.099	169.137	-149.429	-8191	255	
58719.934	1	1	0	0	0.12479	0.13366	0.060929	0.30481	0.19063	0.12686	0.16091	0.37829	0.16756	0.096452	0.016823	0.22346	0.102	0.42898	0.18053	0.15247	-3.1292	-3.9667	-4.0896	-3.625	-4.175	-3.8333	-3.7188	-4.3146	-3.3333	-3.9521	-4.3104	-3.5708	-4.4437	-3.9292	-3.6354	-4.4146	50.849	25.016	-119.570	140.683	-112.697	120.501	174.799	175.273	175.978	15.031	-139.094	20.910	-20.904	-160.601	-81.567	-108.451	0.00090948	0.0013353	0.00024679	921.81	1.1192e-05	3.4365e-06	734.48	335.46	5.1445e-06	3.4115e-06	306.07	112.95	108.82	38.946	7.5627e-06	45.664	0.0043233	0.0049623	0.0013825	973.85	5.2767e-05	5.4591e-05	789.56	355.63	5.343e-05	5.5883e-05	338.96	123.86	119.52	42.757	5.4105e-05	51.104	147.089	-136.268	-147.943	-161.976	-74.265	168.361	-163.567	-156.734	-131.606	-54.761	-158.670	-154.838	-152.671	-147.110	-64.853	-149.807	-8191	255	
58720.027	1	1	0	0	0.20218	0.21823	0.082179	0.24384	0.04094	0.066247	0.016664	0.1802	0.24075	0.19408	0.12428	0.040816	0.20131	0.42748	0.092205	0.10496	-3.3438	-3.8458	-4.1542	-3.5271	-4.2208	-3.8667	-3.6625	-4.5687	-3.5625	-3.6937	-4.3875	-3.5271	-4.1771	-3.9417	-3.3625	-4.3375	170.302	101.091	158.541	163.965	175.258	176.973	78.888	-95.513	-105.395	-170.270	182.699	107.327	147.609	26.667	85.838	-9.165	0.00080697	0.00039967	0.00018543	921.6	6.4421e-06	5.6498e-06	736.88	336.62	7.3665e-06	1.1304e-05	307.51	113.77	109.34	39.044	9.4144e-06	45.58	0.0044535	0.0050753	0.0013995	976.17	5.3443e-05	5.4804e-05	789.7	357.37	5.3856e-05	5.5578e-05	339.66	124.74	120.06	42.779	5.2762e-05	51.035	142.343	-152.153	-112.107	-161.985	-53.024	-44.609	-163.303	-157.209	-14.729	-17.218	-158.999	-154.694	-153.001	-147.024	29.946	-149.522	-8191	255	
58720.102	1	1	0	0	0.08121	0.061987	0.13722	0.059854	0.063273	0.16889	0.15332	0.16765	0.054286	0.15442	0.065041	0.31649	0.23826	0.19874	0.12474	0.1856	-3.2875	-3.7229	-4.2271	-3.4542	-4.1062	-3.8854	-3.4875	-4.4021	-3.6354	-3.7792	-4.4062	-3.4729	-4.1479	-4.15	-3.3708	-4.4292	158.055	-150.369	-164.779	-26.491	-74.223	-161.607	113.315	-167.402	40.630	-130.977	170.484	128.795	70.539	61.408	7.848	181.234	0.00078629	0.00075392	0.00015551	920.83	2.7972e-06	5.5706e-06	728.2	337.39	5.1028e-06	7.2082e-06	308.4	113.05	108.92	38.965	7.2959e-06	45.732	0.0043502	0.0049585	0.0013785	973.05	5.2642e-05	5.3785e-05	783.23	356.79	5.3185e-05	5.4884e-05	338.78	124.35	119.9	43.011	5.505e-05	51.534	127.129	-110.668	180.216	-161.852	-60.823	-121.621	-163.355	-156.897	-57.531	-24.609	-159.119	-154.412	-152.948	-146.956	-64.776	-149.507	-8191	255	
58720.223	1	1	0	0	0.12625	0.26544	0.22474	0.28386	0.15869	0.077906	0.34312	0.077912	0.30317	0.2529	0.11374	0.049256	0.2199	0.18692	0.20809	0.17557	-3.2771	-3.5125	-4.3583	-3.6937	-3.9167	-4.1542	-3.5938	-4.35	-3.7542	-3.6604	-4.4521	-3.4333	-3.9583	-4.2292	-3.2646	-4.1958	-1.642	-120.709	17.293	-110.212	157.212	-63.154	122.209	-132.160	-65.255	0.513	-143.993	90.719	173.905	108.201	-157.636	36.861	0.0010514	0.00044472	0.00010416	916.81	1.5467e-05	9.4865e-06	726.02	335.59	3.7757e-06	6.9347e-06	305.89	111.87	109.13	38.923	8.0571e-06	45.54	0.0046493	0.00532	0.0014965	975.63	5.8466e-05	5.9766e-05	786.67	358.17	5.8974e-05	6.0643e-05	340.72	124.48	120.61	43.19	5.8629e-05	51.674	128.748	-169.997	-84.384	-161.781	-41.103	-26.860	-163.767	-157.215	65.834	-17.289	-158.711	-154.789	-152.804	-146.771	-9.779	-149.790	-8191	255	
58720.316	1	1	0	0	0.14638	0.065418	0.084246	0.10746	0.17033	0.22945	0.23473	0.075282	0.10066	0.2701	0.1235	0.04075	0.11379	0.17064	0.26651	0.1546	-3.5438	-3.5062	-4.4979	-3.7292	-3.8625	-4.25	-3.45	-4.2562	-3.7812	-3.6583	-4.2521	-3.5104	-3.9188	-4.3792	-3.5292	-4.3792	-85.024	-156.100	-106.414	-98.038	-105.136	-136.464	176.178	-145.358	-105.202	98.153	166.511	-112.365	-103.059	137.565	-89.036	-28.556	0.0007145	0.0010034	0.00025478	916.65	7.9849e-06	4.8857e-06	727.57	335.67	7.6432e-06	9.3729e-06	306.93	113.88	109.94	39.288	1.0596e-05	46.274	0.0047724	0.0054233	0.0015318	975.05	5.7672e-05	5.9203e-05	787.66	358.17	5.7766e-05	5.9114e-05	341.79	125.68	121.29	43.424	5.7489e-05	52.069	136.350	-136.554	175.531	-161.722	-28.875	-60.801	-163.773	-157.271	-39.600	-148.388	-158.827	-154.545	-152.979	-146.999	-29.765	-149.573	-8191	255	
58720.414	1	1	0	0	0.12212	0.098107	0.39429	0.14647	0.25043	0.080944	0.099661	0.24533	0.1447	0.25337	0.052762	0.061172	0.21504	0.10293	0.13818	0.092316	-3.8083	-3.3229	-4.1854	-3.7771	-3.8125	-4.4042	-3.5125	-4.0687	-4.1604	-3.5292	-4.2833	-3.8896	-3.5958	-4.3958	-3.4562	-4.125	-18.997	102.097	103.432	179.092	86.506	-130.219	120.193	115.198	-21.241	69.694	97.776	114.147	165.243	84.518	-72.170	134.688	0.00076905	0.00042799	6.4496e-05	921.65	4.8811e-06	1.1337e-05	723.81	336.25	5.7008e-06	1.0277e-05	308.73	114.34	110.72	39.439	1.6859e-05	46.424	0.0045464	0.0051688	0.001474	973.25	5.4825e-05	5.6832e-05	785.73	358.15	5.5195e-05	5.7032e-05	342.38	126.2	121.32	43.593	5.6504e-05	52.176	151.857	-17.933	148.925	-161.728	-54.083	-5.994	-163.286	-156.723	-56.298	18.915	-158.991	-154.824	-152.787	-147.177	-16.897	-149.274	-8191	255	
58720.535	1	1	0	0	0.18545	0.17458	0.01094	0.036296	0.1562	0.17061	0.2211	0.029244	0.042606	0.1584	0.19886	0.24195	0.059482	0.090134	0.15346	0.23304	-3.8396	-3.3688	-4.1896	-4.0833	-3.5938	-4.3313	-3.6979	-4.0938	-4.1792	-3.3979	-4.3271	-3.9625	-3.5625	-4.5146	-3.5812	-3.7083	-115.977	-64.183	-47.109	48.077	-1.738	159.951	97.026	-41.749	-95.137	6.008	126.638	98.700	164.917	-152.858	127.791	106.718	0.00085212	0.00034751	0.00023358	910.82	7.96e-06	7.0445e-06	727.64	335.49	2.2729e-06	6.499e-06	308.72	114.69	110.28	39.888	8.2858e-06	46.913	0.0045012	0.0050981	0.0014652	966.15	5.4066e-05	5.7621e-05	784.78	357	5.5277e-05	5.7879e-05	342.85	126.3	120.97	44.013	5.7884e-05	52.808	137.123	72.625	-82.176	-161.866	-115.505	-73.796	-163.229	-157.121	-116.172	67.422	-158.745	-154.747	-152.999	-146.870	-32.202	-149.690	-8191	255	
58720.629	1	1	0	0	0.12061	0.07426	0.11157	0.24652	0.025218	0.14587	0.19937	0.17832	0.10466	0.20202	0.21104	0.088859	0.14783	0.079609	0.13806	0.24216	-4	-3.3625	-3.9479	-4.1042	-3.4708	-4.3083	-3.5771	-3.9521	-4.2729	-3.3146	-4.1042	-4.0208	-3.5625	-4.2917	-3.65	-3.7792	125.309	166.618	35.691	175.679	-157.373	-160.665	76.824	138.285	93.638	129.968	-99.040	-54.478	131.263	17.973	-140.916	-159.235	0.0010958	0.00052082	0.0002981	913.5	9.3764e-06	1.365e-05	725.51	335.23	1.344e-05	9.7575e-06	306.45	112.73	108.47	39.061	9.5516e-07	45.703	0.0046707	0.0054968	0.0015538	970.89	5.8536e-05	6.2263e-05	788.17	358.28	5.9554e-05	6.2239e-05	342.55	124.91	120.25	43.45	5.9344e-05	51.73	158.280	-98.950	-76.027	-161.634	27.223	53.526	-163.409	-157.169	-84.427	16.334	-159.059	-154.747	-152.977	-147.378	23.614	-149.504	-8191	255	
58720.727	1	1	0	0	0.1765	0.11482	0.14757	0.087747	0.10973	0.2801	0.1965	0.26814	0.12887	0.18548	0.16636	0.2071	0.1859	0.15997	0.065045	0.28635	-3.9292	-3.5271	-4.0354	-4.1188	-3.3708	-4.4125	-3.9708	-3.75	-4.4167	-3.4333	-4.1083	-4.2688	-3.4458	-4.1417	-3.7958	-3.5729	119.827	-163.172	-169.168	-93.345	158.009	-8.139	154.510	-137.582	149.134	99.538	-149.147	28.870	141.565	-130.361	-69.851	88.213	0.00097234	0.00053742	0.00020702	913.54	7.4295e-06	7.2097e-06	724.42	335.31	1.7775e-05	7.4448e-06	305.75	111.19	107.64	38.412	8.8101e-06	45.26	0.0047184	0.0054412	0.0015162	970.2	5.6429e-05	5.916e-05	783.43	356.18	5.6283e-05	5.8803e-05	340.3	123.04	118.9	42.674	5.7148e-05	50.763	130.743	137.734	-13.893	-161.529	-73.333	11.574	-163.371	-157.286	-78.104	89.564	-159.262	-155.032	-152.822	-146.844	2.408	-149.609	-8191	255	
58720.820	1	1	0	0	0.16598	0.063375	0.26713	0.11669	0.068493	0.087273	0.047798	0.21487	0.2143	0.20602	0.040823	0.15039	0.1794	0.20266	0.098973	0.11961	-3.8604	-3.3333	-3.775	-4.1917	-3.35	-4.0458	-3.9208	-3.7333	-4.2792	-3.5292	-4.0708	-4.3313	-3.3438	-4.2021	-3.8812	-3.5354	-52.226	157.429	61.520	71.726	115.293	50.308	-65.907	131.625	139.343	74.436	127.076	120.576	93.909	132.787	11.484	141.804	0.00068162	0.00038803	0.00020597	909.9	7.1742e-06	1.7791e-05	720.17	332.11	6.0578e-06	6.1952e-06	298.67	108.4	106.21	37.856	8.1973e-06	43.934	0.0046277	0.0053374	0.0014822	968.34	5.6483e-05	5.9133e-05	778.47	353.71	5.7035e-05	5.8957e-05	333.36	119.79	116.99	42.029	5.7e-05	49.664	160.661	168.643	-67.187	-161.878	139.067	-68.741	-163.277	-157.148	-41.596	-58.692	-159.132	-154.730	-152.925	-146.789	-62.179	-149.651	-8191	255	
58720.918	1	1	0	0	0.30604	0.037872	0.13354	0.087208	0.043289	0.20171	0.13575	0.092061	0.11316	0.20362	0.18567	0.15579	0.16406	0.51329	0.20313	0.1708	-3.9729	-3.5104	-3.5563	-4.4521	-3.5	-4.0708	-4	-3.5042	-4.4333	-3.625	-3.8063	-4.4854	-3.5062	-4.1292	-3.9979	-3.5104	-101.352	-138.314	-117.254	-127.357	37.708	51.560	1.392	147.681	137.383	-161.830	-158.375	-114.427	-144.397	149.889	24.917	82.294	0.0007883	0.0012754	0.00015264	911.58	9.2212e-06	8.7106e-06	714.13	330.29	2.3817e-06	7.6093e-06	299.19	107.4	105.49	37.351	4.0489e-06	43.902	0.0046725	0.0053335	0.0014723	964.57	5.6544e-05	5.8297e-05	772.02	351.05	5.5935e-05	5.791e-05	330.82	118.88	116.3	41.589	5.4783e-05	49.466	135.183	-62.325	23.194	-161.603	-80.528	-11.742	-163.523	-157.309	105.844	-100.445	-158.785	-154.782	-152.969	-147.143	59.722	-149.539	-8191	255	
58721.016	1	1	0	0	0.19491	0.24641	0.073298	0.14102	0.27629	0.25446	0.095039	0.27668	0.07618	0.20638	0.26982	0.15918	0.081011	0.26802	0.085086	0.20846	-3.9458	-3.925	-3.7458	-4.475	-3.3854	-3.9375	-4.1979	-3.5833	-4.3042	-3.8104	-3.7271	-4.3146	-3.5229	-3.9792	-4.025	-3.4667	-132.987	-36.298	70.893	155.274	-115.098	4.123	116.649	78.972	-71.265	25.922	42.528	-133.213	109.887	151.736	83.322	66.257	0.0006654	0.00052771	0.00010012	910.51	4.018e-06	3.1706e-06	714.18	331	5.8924e-06	4.1277e-06	299.19	107.52	105.61	37.531	5.156e-06	43.472	0.004485	0.0051087	0.0014089	964.26	5.4247e-05	5.6153e-05	771.6	351.62	5.5185e-05	5.6518e-05	329.36	119.18	116.48	41.542	5.4211e-05	49.106	154.905	160.948	179.240	-161.813	-141.896	-57.872	-163.214	-156.913	24.882	15.705	-159.315	-154.524	-152.811	-147.196	-53.669	-149.650	-8191	255	
58721.133	1	1	0	0	0.13223	0.11807	0.087476	0.18003	0.17109	0.10658	0.063616	0.35806	0.23558	0.15936	0.04861	0.16595	0.16282	0.29311	0.2025	0.1431	-3.8063	-3.8646	-3.7208	-4.4417	-3.6042	-4.0563	-4.3292	-3.3542	-4.2708	-3.9042	-3.5792	-4.2271	-3.6104	-3.8	-4.2708	-3.5333	-22.048	14.241	99.922	-120.137	61.323	-21.876	74.732	122.312	-25.373	-100.902	184.296	144.845	-15.867	118.686	-163.687	-144.195	0.00047708	0.001268	0.00015347	913.68	1.3096e-05	9.1763e-06	717.32	332.87	3.8823e-06	3.6955e-06	301.5	109.19	106.72	37.887	2.2044e-06	43.655	0.0043643	0.0049576	0.0013584	964.95	5.2143e-05	5.3876e-05	771.37	353.01	5.2341e-05	5.3172e-05	330.81	120	116.9	41.466	5.1865e-05	49.07	144.159	-52.657	-152.739	-161.584	-82.453	-48.595	-163.415	-157.169	108.658	34.172	-159.150	-155.011	-152.845	-147.079	-51.430	-149.174	-8191	255	
58721.230	1	1	0	0	0.063186	0.16921	0.16499	0.29335	0.096867	0.091413	0.18582	0.14909	0.092002	0.17225	0.39158	0.21668	0.14125	0.31938	0.18793	0.051336	-3.7896	-4.15	-3.425	-4.4521	-3.7375	-3.7354	-4.5521	-3.625	-3.8812	-4.2188	-3.4479	-4.2854	-3.8083	-3.6021	-4.3167	-3.3896	93.667	-87.873	-77.967	-148.782	-58.964	-66.564	160.234	146.668	-129.441	50.854	-135.165	140.027	-174.497	-166.977	-81.594	-150.671	0.00067684	0.00095142	0.00043774	915.56	8.3047e-06	1.0292e-05	716.41	331.22	4.5446e-06	6.0322e-06	298.76	108.82	105.78	37.613	9.1313e-06	43.718	0.0042277	0.0047647	0.0013387	964.45	5.1272e-05	5.2096e-05	768.98	350.62	5.0914e-05	5.2096e-05	329.49	119.01	115.99	41.301	5.2332e-05	48.978	142.227	-97.750	-57.826	-161.744	-51.988	39.065	-163.478	-157.105	-65.214	-31.850	-159.177	-154.539	-152.587	-147.392	-27.070	-149.464	-8191	255	
58721.324	1	1	0	0	0.1053	0.28125	0.43903	0.37623	0.19555	0.20567	0.22749	0.367	0.24033	0.22649	0.10276	0.30443	0.059202	0.20487	0.091822	0.17281	-3.5542	-4.1792	-3.3542	-4.2771	-3.8667	-3.6229	-4.3833	-3.6125	-3.9042	-4.1875	-3.4521	-4.2979	-3.9083	-3.4958	-4.35	-3.6312	-174.015	-130.799	0.011	176.040	71.327	38.683	121.628	127.800	-60.581	35.885	159.557	166.521	14.003	0.535	106.896	48.094	0.00052369	0.00055307	0.00038978	911.44	8.8329e-06	4.1996e-06	708.94	329.78	8.8472e-06	2.5814e-06	297.96	108.71	105.84	37.855	1.3741e-05	44.059	0.0042541	0.004791	0.0013492	960.27	5.0718e-05	5.1854e-05	765.37	349.84	5.0296e-05	5.1385e-05	328.47	118.84	115.95	41.452	5.0039e-05	49.095	138.957	-158.814	176.456	-161.685	-24.101	82.350	-163.557	-156.888	-96.589	72.101	-158.946	-154.960	-152.899	-147.364	89.313	-149.445	-8191	255	
58721.398	1	1	0	0	0.18165	0.080873	0.27351	0.060544	0.40014	0.33354	0.11356	0.18988	0.26512	0.29375	0.12094	0.07905	0.14983	0.24144	0.08897	0.156	-3.5875	-4.0042	-3.4146	-4.4	-3.9375	-3.4521	-4.4875	-3.5292	-3.6104	-4.2042	-3.4896	-4.0687	-4.0813	-3.45	-4.2167	-3.7646	179.295	91.393	38.515	16.197	156.206	20.081	95.518	159.509	-144.586	-5.187	133.417	-7.066	164.861	-148.948	121.638	54.841	0.00094966	0.00078457	0.00029366	908.74	5.9825e-06	4.9125e-06	713.98	331.17	2.5182e-06	2.4823e-06	299.19	109.13	107.03	38.09	1.444e-05	44.368	0.0039922	0.0045616	0.0012989	956.76	4.8327e-05	4.9934e-05	762.98	350.77	4.8379e-05	5.0828e-05	328.77	120.01	116.89	41.752	5.1327e-05	49.538	143.194	-85.873	-68.342	-161.644	-0.514	-5.152	-163.379	-156.908	3.004	11.606	-159.304	-154.676	-152.898	-147.135	-105.521	-149.502	-8191	255	
58721.520	1	1	0	0	0.10499	0.24383	0.11801	0.25037	0.093361	0.17171	0.24145	0.12911	0.24807	0.2292	0.046486	0.18643	0.12183	0.13377	0.06477	0.12139	-3.275	-4.1813	-3.4083	-4.025	-4.0729	-3.4896	-4.4208	-3.7958	-3.65	-4.375	-3.4354	-3.9083	-4.0271	-3.3396	-4.1042	-3.9542	-61.730	81.040	-71.684	134.258	-142.944	101.606	90.463	116.715	78.638	95.610	-32.289	150.182	110.209	-126.105	72.698	-103.788	0.00079106	0.00081043	0.00017892	907.58	5.2021e-06	6.3068e-06	712.02	333.06	1.1918e-05	9.8877e-06	299.16	109.89	107.22	38.292	5.0685e-06	44.96	0.0040597	0.0047521	0.0013339	957.92	4.9888e-05	5.2315e-05	766.17	351.71	5.0717e-05	5.3838e-05	331.8	121.05	117.64	42.222	5.4811e-05	50.296	136.145	-121.461	-101.333	-162.014	-101.553	3.571	-163.281	-156.816	-43.475	-164.096	-158.735	-155.024	-152.854	-146.896	-83.486	-149.227	-8191	255	
58721.613	1	1	0	0	0.072735	0.068918	0.18496	0.061835	0.056802	0.042723	0.18908	0.11165	0.26906	0.10266	0.19308	0.23237	0.18678	0.18238	0.20815	0.17831	-3.1333	-4.1896	-3.3688	-3.9708	-4.0979	-3.3937	-4.1917	-4.0604	-3.5042	-4.3333	-3.6125	-3.875	-4.1146	-3.3854	-4.1125	-3.9938	35.285	115.007	161.216	105.529	-31.152	8.613	130.250	-70.168	-56.083	107.839	-60.166	-144.370	-163.045	150.380	-61.901	57.027	0.00062922	0.00048639	0.00030376	899.38	1.0892e-05	8.5038e-06	708.29	331.54	4.2861e-06	1.8322e-05	300.05	110.55	107.51	39.045	4.7331e-06	45.736	0.0043651	0.0051675	0.001444	954.38	5.4325e-05	5.7314e-05	766.3	351.48	5.5458e-05	5.8181e-05	332.87	121.78	118.48	43.079	5.653e-05	51.292	142.804	-50.951	-160.546	-161.653	-4.361	-56.367	-163.194	-156.612	-114.358	-13.076	-159.030	-154.782	-152.957	-146.779	-26.993	-149.450	-8191	255	
58721.711	1	1	0	0	0.11774	0.20951	0.24572	0.17056	0.23112	0.11557	0.06123	0.23058	0.23516	0.084123	0.09891	0.1835	0.030145	0.27145	0.14871	0.16114	-3.1937	-4.3	-3.5333	-3.7875	-4.2583	-3.5167	-4.2542	-4.0646	-3.2771	-4.3625	-3.6104	-3.6583	-4.3083	-3.4396	-4.0229	-4.1542	-133.423	5.634	129.001	80.199	161.849	129.534	57.766	136.457	66.219	50.059	-105.864	159.757	-23.856	14.381	177.480	-120.933	0.00090196	0.00067674	0.00012897	901.92	1.0081e-05	3.5865e-06	709.11	330.51	1.1309e-05	1.4273e-05	300.64	111.56	108.01	39.579	6.9214e-06	46.695	0.0045237	0.0052294	0.0014537	954.45	5.4206e-05	5.6476e-05	767.09	350.64	5.389e-05	5.6096e-05	334.12	122.81	118.77	43.501	5.3787e-05	52.188	160.621	-64.931	-61.705	-161.982	-40.513	78.965	-163.549	-157.144	9.126	-69.084	-159.008	-155.066	-152.657	-146.854	-84.163	-149.280	-8191	255	
58721.809	1	1	0	0	0.19725	0.17547	0.15322	0.18018	0.22766	0.08893	0.20286	0.24743	0.053035	0.10974	0.041074	0.12946	0.11127	0.20336	0.22924	0.29762	-3.2687	-4.375	-3.7958	-3.8	-4.1833	-3.5708	-4.0875	-4.2146	-3.3792	-4.2771	-3.8583	-3.6271	-4.4979	-3.5812	-3.85	-4.325	142.107	34.159	65.743	98.873	-28.327	-106.185	150.125	125.667	41.605	-140.218	129.988	178.501	160.770	-159.584	-170.107	104.984	0.00077798	0.00076739	0.00037612	902.35	4.7554e-06	1.0786e-05	716.41	329.27	4.3928e-06	1.3632e-05	306.81	113.91	109.04	40.317	7.3345e-06	47.815	0.0043883	0.0050632	0.0014084	952.08	5.4494e-05	5.646e-05	773.3	351.17	5.5182e-05	5.8048e-05	338.49	125.21	120.33	44.489	5.7308e-05	53.81	145.732	-62.845	-108.295	-161.668	21.050	-35.080	-163.217	-156.865	-94.723	-60.021	-158.643	-154.969	-152.671	-146.940	-28.797	-149.495	-8191	255	
58721.902	1	1	0	0	0.13992	0.17965	0.093688	0.090778	0.24749	0.099401	0.10381	0.080427	0.2076	0.030226	0.12472	0.12827	0.061033	0.10241	0.064314	0.021872	-3.0958	-4.3125	-3.8458	-3.6354	-4.3229	-3.5417	-3.85	-4.2812	-3.4813	-4.075	-4.0479	-3.6437	-4.3771	-3.6729	-3.7708	-4.4479	172.309	86.294	-57.433	149.944	60.350	-84.359	144.777	-106.424	-17.643	15.739	-113.736	-89.671	148.852	-69.616	140.973	19.985	0.00091029	0.00080367	0.000151	904.56	9.4091e-06	5.1504e-06	721.71	330.2	6.9381e-06	4.6658e-06	305.14	113.99	108.78	40.336	7.5849e-06	47.924	0.0046955	0.0054356	0.0014955	957.6	5.8222e-05	6.0154e-05	781.42	353.37	5.8616e-05	6.0716e-05	340.2	125.7	120.35	44.433	5.7374e-05	53.615	136.193	-133.902	-104.189	-161.948	-25.105	-42.089	-163.261	-157.011	-102.736	-68.570	-159.132	-154.746	-152.973	-146.870	-137.060	-149.652	-8191	255	
58722.000	1	1	0	0	0.047029	0.23734	0.1333	0.13183	0.1319	0.021084	0.088307	0.052866	0.10254	0.23607	0.13689	0.41477	0.19486	0.20826	0.037768	0.30393	-3.1312	-3.9271	-4.0208	-3.5187	-4.1917	-3.7479	-3.7375	-4.3479	-3.2708	-4.1167	-4.1021	-3.4979	-4.3375	-3.9958	-3.5938	-4.3167	175.266	118.530	-56.828	179.391	-56.296	-141.366	-58.338	127.554	-61.626	141.565	44.672	116.863	147.636	134.629	139.649	116.303	0.00077603	0.00053836	0.00019693	901.82	8.012e-06	1.1207e-05	719.81	331.6	2.8384e-06	1.3421e-05	306.32	113.35	108.12	39.824	4.34e-06	47.326	0.0046965	0.0053793	0.0014733	957.59	5.5952e-05	5.7064e-05	777.17	352.8	5.4957e-05	5.6455e-05	337.8	124.63	119.3	43.877	5.4118e-05	53.002	128.411	-105.268	-40.825	-161.927	42.380	-40.588	-163.601	-157.023	-141.260	69.673	-158.760	-154.521	-152.483	-147.067	-82.585	-149.809	-8191	255	
58722.094	1	1	0	0	0.14505	0.093752	0.19978	0.34452	0.18055	0.10857	0.2046	0.24789	0.012139	0.066748	0.28787	0.10738	0.06441	0.028735	0.13137	0.035599	-2.9958	-3.7979	-4.0854	-3.7313	-4.1687	-3.7875	-3.6479	-4.3396	-3.475	-3.7771	-4.3604	-3.5271	-4.2646	-3.8292	-3.4479	-4.3979	-67.783	-82.574	157.295	113.445	-145.197	117.844	81.387	119.407	144.277	-113.131	-151.489	129.672	148.983	12.925	-81.506	62.102	0.00094171	0.00024558	6.6036e-05	902.33	6.7028e-06	1.0363e-05	728.22	331.21	1.5785e-05	1.1075e-05	308.27	114.89	109.4	40.31	2.1661e-06	47.986	0.0043724	0.0049779	0.0013931	957.56	5.3177e-05	5.4361e-05	781.42	352.59	5.2755e-05	5.4299e-05	340.19	125.93	119.73	44.193	5.4172e-05	53.631	145.952	-72.707	-55.755	-161.956	-171.475	-63.327	-163.396	-156.696	-55.027	-51.615	-159.052	-154.759	-153.006	-146.788	36.031	-149.461	-8191	255	
58722.215	1	1	0	0	0.12166	0.14624	0.043708	0.17142	0.19641	0.1597	0.083835	0.25238	0.12229	0.25141	0.10364	0.10768	0.18779	0.094025	0.13334	0.34394	-3.3521	-3.8354	-4.275	-3.3896	-4.0979	-3.8667	-3.5792	-4.4271	-3.4979	-3.7625	-4.4417	-3.5167	-4.0146	-4.1479	-3.3104	-4.375	-23.211	47.965	179.201	144.521	34.807	0.238	51.458	167.689	51.575	39.429	-139.715	156.367	-157.677	136.969	69.987	-93.433	0.00077691	0.00066572	0.000217	909.17	1.5153e-05	1.1128e-05	734.99	332.75	5.5025e-06	4.3027e-06	311.5	117.03	109.77	40.97	8.0131e-06	49.618	0.0044017	0.0049826	0.0014153	962.93	5.3753e-05	5.4966e-05	791.43	354.22	5.3912e-05	5.5647e-05	344.78	128.22	120.89	45.023	5.5415e-05	55.002	131.044	-76.471	-114.124	-162.046	-72.969	-17.785	-163.396	-156.933	29.984	13.477	-158.839	-154.650	-152.908	-146.735	-18.990	-149.014	-8191	255	
58722.309	1	1	0	0	0.14259	0.11739	0.22964	0.17398	0.1916	0.30099	0.16397	0.20842	0.12011	0.13436	0.16875	0.23093	0.067467	0.15164	0.22484	0.28858	-3.3125	-3.6625	-4.2542	-3.5979	-4.0771	-4.0125	-3.5396	-4.3438	-3.7958	-3.8104	-4.3875	-3.4229	-3.9833	-4.1937	-3.5604	-4.4083	26.493	87.240	-137.324	129.585	-146.193	26.496	36.831	70.362	18.210	-0.376	-16.983	156.007	155.935	-30.040	-65.209	-171.159	0.00082543	0.0012961	0.00029534	914.29	1.176e-05	3.4023e-07	738.46	333.97	9.4562e-06	1.0304e-05	317.46	118.1	110.92	40.994	3.8252e-06	50.014	0.0044215	0.0050118	0.0014295	966.36	5.3489e-05	5.5519e-05	795.3	355.06	5.3078e-05	5.4917e-05	346.33	128.99	121.32	45.106	5.2748e-05	55.163	145.409	-101.314	-151.192	-161.742	-35.030	-54.033	-163.722	-156.961	-123.415	-76.150	-159.094	-154.747	-152.912	-146.740	75.882	-149.462	-8191	255	
58722.406	1	1	0	0	0.043153	0.18652	0.037189	0.060626	0.15247	0.038499	0.25516	0.21363	0.098065	0.06519	0.089849	0.19587	0.14275	0.13728	0.37936	0.037865	-3.4896	-3.4562	-4.2854	-3.525	-3.8354	-4.225	-3.4125	-4.2417	-3.7354	-3.4813	-4.4	-3.6437	-3.8604	-4.1438	-3.3375	-4.0979	140.929	72.385	25.739	-123.300	-60.880	-64.290	104.227	-13.412	102.072	-33.105	121.825	86.060	155.426	-96.951	-108.980	42.710	0.00074731	0.00038766	0.00032994	913.47	4.6998e-06	6.158e-06	744.29	334.39	1.4106e-05	6.8572e-06	316.61	119.04	111.52	41.314	1.1518e-05	49.685	0.0041901	0.0048118	0.0013614	963.01	5.0682e-05	5.2998e-05	798.62	355.3	5.0536e-05	5.3225e-05	347.59	129.43	121.36	45.145	5.1482e-05	55.292	150.128	-35.174	-126.254	-161.929	-30.911	53.713	-163.644	-157.277	-72.868	-21.720	-159.064	-154.958	-152.959	-146.539	-61.860	-149.203	-8191	255	
58722.504	1	1	0	0	0.10543	0.17235	0.10889	0.21907	0.07544	0.31876	0.18438	0.1951	0.23433	0.048173	0.1425	0.085884	0.12164	0.17124	0.06425	0.13458	-3.5167	-3.3812	-4.2104	-3.8729	-3.5521	-4.1687	-3.575	-3.9729	-3.9625	-3.4042	-4.325	-3.6792	-3.5938	-4.2521	-3.4333	-3.9208	-105.947	106.371	3.172	71.980	18.086	166.922	19.105	170.880	-1.065	-18.311	98.525	120.333	-113.656	126.341	-32.201	73.514	0.00091781	0.00087488	0.00016607	916.07	1.264e-05	1.4519e-05	746.31	336.45	1.8704e-06	1.3643e-05	317.2	118.46	111.77	41.134	5.1885e-06	49.91	0.0041508	0.0048043	0.0013495	967.05	5.0742e-05	5.3606e-05	802.4	356.38	5.2843e-05	5.5624e-05	348.92	129.92	122.11	45.371	5.5631e-05	55.469	136.695	-84.649	-10.998	-162.034	-58.255	-91.716	-163.371	-156.907	90.731	-15.652	-158.920	-154.766	-152.757	-146.923	-171.239	-149.455	-8191	255	
58722.621	1	1	0	0	0.1066	0.083177	0.14531	0.081369	0.11267	0.14649	0.044449	0.1478	0.098466	0.032215	0.14881	0.15546	0.30683	0.13377	0.1301	0.23391	-3.7521	-3.4875	-4.2688	-3.8021	-3.55	-4.2312	-3.5229	-3.9688	-4.0021	-3.3187	-4.3229	-3.7313	-3.6021	-4.2896	-3.5292	-3.7896	38.115	8.092	124.862	56.633	132.319	18.343	155.817	150.836	-149.319	143.299	-75.265	-144.618	-143.807	63.799	-138.656	-71.111	0.00095551	0.00070769	0.0002544	914.39	2.863e-06	7.1829e-06	742.24	335.18	8.4184e-06	9.0491e-06	315.84	119.42	111.12	41.522	5.3456e-06	50.745	0.0045722	0.0052172	0.0014758	969.53	5.513e-05	5.6936e-05	801.64	356.9	5.5516e-05	5.7302e-05	350.88	131.13	122.73	45.736	5.6965e-05	56.326	140.818	-107.195	-110.759	-161.889	16.211	-105.365	-163.455	-157.136	-91.038	-44.792	-159.130	-154.512	-152.876	-146.717	-41.108	-149.509	-8191	255	
58722.695	1	1	0	0	0.22702	0.31514	0.11326	0.063892	0.15715	0.26766	0.14092	0.21693	0.12936	0.15804	0.11646	0.14605	0.21659	0.10136	0.075273	0.097134	-3.8063	-3.3542	-4.0792	-3.9479	-3.5271	-4.1646	-3.5438	-3.6896	-3.9354	-3.25	-4.1646	-3.7479	-3.5438	-4.2708	-3.5563	-3.6354	-84.968	-117.173	65.038	-50.219	-107.168	30.036	159.009	101.794	107.402	80.054	142.418	-139.073	77.959	42.437	-44.249	184.317	0.0010618	0.00052306	0.00034965	911.89	5.7639e-06	7.5556e-06	743.38	334.72	5.1102e-06	1.1141e-05	316.99	120.17	111.55	42.022	4.3406e-06	51.452	0.0046795	0.0053588	0.0015327	970.95	5.7801e-05	6.0894e-05	806.65	357.27	5.8925e-05	6.1077e-05	352.44	132.33	123.15	46.478	5.9042e-05	57.232	139.299	-68.620	-32.430	-161.933	-40.742	-9.041	-163.287	-157.220	-89.088	-41.847	-158.997	-154.666	-152.691	-146.831	-134.123	-149.217	-8191	255	
58722.816	1	1	0	0	0.04972	0.045278	0.24406	0.18634	0.25915	0.14272	0.14777	0.08067	0.11219	0.066572	0.051007	0.16371	0.10318	0.32383	0.15171	0.33317	-3.7667	-3.3667	-3.9396	-4.05	-3.3688	-4.2063	-3.8354	-3.7375	-4.2771	-3.4729	-4.1813	-4.0583	-3.4646	-4.4958	-3.6354	-3.7646	164.882	-2.601	151.516	176.684	-149.986	123.380	-132.035	12.334	-54.832	24.795	110.287	139.915	142.087	-162.810	164.479	73.491	0.00093738	0.00090077	0.00030583	910.66	9.7722e-06	2.0232e-06	748.66	333.73	3.347e-06	7.577e-06	318.44	120.92	111.94	42.859	1.4599e-06	51.881	0.0048257	0.0055303	0.0015288	967.12	5.6932e-05	5.9998e-05	810.13	355.97	5.8129e-05	6.0389e-05	353.66	133.63	123.92	47.088	5.9601e-05	58.163	137.259	76.984	-128.313	-161.901	-65.767	87.883	-163.424	-157.141	-108.538	29.206	-158.776	-154.585	-152.625	-147.005	102.235	-149.481	-8191	255	
58722.910	1	1	0	0	0.051275	0.1234	0.11397	0.10915	0.21698	0.25928	0.1956	0.24462	0.18474	0.059186	0.1348	0.20207	0.1138	0.24537	0.14602	0.1308	-4.0771	-3.4958	-3.8146	-4.1729	-3.3958	-4.2229	-3.8187	-3.6604	-4.2208	-3.675	-4.0771	-4.1687	-3.3583	-4.4521	-3.6854	-3.7438	-156.893	146.741	-104.884	87.216	147.344	93.753	149.694	118.127	-8.587	-164.393	-80.895	82.021	165.320	117.745	180.349	-88.737	0.00087702	0.00061311	0.00038874	914.43	7.7747e-06	9.5358e-06	752.12	332.39	6.6456e-06	1.1413e-05	319.6	122.06	112.1	42.752	5.759e-06	52.506	0.004928	0.0056305	0.0015634	970.45	5.9757e-05	6.2227e-05	815.22	356.45	6.0454e-05	6.2845e-05	355.07	134.66	123.96	47.353	6.0504e-05	58.7	128.540	-51.318	-31.928	-161.585	-72.396	-105.791	-163.518	-156.968	-66.283	-113.869	-158.879	-154.217	-152.865	-147.079	-26.738	-149.321	-8191	255	
58723.008	1	1	0	0	0.12178	0.26444	0.22536	0.11493	0.074792	0.22728	0.1336	0.10236	0.18431	0.018089	0.095521	0.11453	0.31483	0.10486	0.12283	0.08298	-4.025	-3.6312	-3.6542	-4.3625	-3.3646	-4.1792	-4.0813	-3.5812	-4.2375	-3.8063	-3.7333	-4.3396	-3.3625	-4.2562	-3.9729	-3.5458	-29.842	-23.531	117.130	-31.040	6.465	78.819	83.833	77.042	-9.674	-165.415	97.244	94.493	175.784	129.784	-174.296	23.587	0.00083153	0.00044118	0.00017523	908.8	8.9981e-06	1.1932e-05	752.95	333.72	8.9277e-06	5.6385e-06	319.39	121.78	112.47	42.454	4.4433e-06	52.241	0.0049298	0.0056348	0.0015852	970.18	6.0169e-05	6.2102e-05	818.7	357.02	6.1157e-05	6.2851e-05	356.08	134.52	124.26	47.064	6.1633e-05	58.457	141.949	119.755	-93.783	-161.829	-45.970	7.561	-163.404	-156.953	-124.829	-30.412	-159.151	-154.276	-152.366	-146.794	169.123	-149.595	-8191	255	
58723.102	1	1	0	0	0.1747	0.097159	0.39167	0.12391	0.11692	0.10039	0.32059	0.27559	0.090252	0.27692	0.24771	0.1736	0.31017	0.057251	0.30918	0.2778	-3.8604	-3.6708	-3.6083	-4.3792	-3.525	-4.0479	-4.2083	-3.4854	-4.3417	-3.7125	-3.5875	-4.3771	-3.5604	-3.9625	-4.1188	-3.4854	-97.591	-71.326	157.049	103.397	64.207	-147.679	90.074	118.470	35.466	109.996	117.783	149.707	145.596	149.375	124.892	173.883	0.0011184	0.0003204	0.00013972	913.1	3.8231e-06	4.749e-06	749.12	332.19	3.2838e-06	8.909e-06	317.99	121.08	111.01	42.138	1.7403e-06	51.089	0.0050194	0.0056906	0.0015979	970.56	6.0473e-05	6.2095e-05	812.92	356.19	6.0512e-05	6.33e-05	353.21	133.26	123.61	46.8	6.2137e-05	57.651	130.407	-104.111	50.255	-161.878	-46.639	-115.747	-163.432	-157.086	42.331	-25.985	-158.925	-154.621	-153.052	-146.972	21.353	-149.404	-8191	255	
58723.199	1	1	0	0	0.048173	0.11148	0.18023	0.20081	0.13817	0.16501	0.3164	0.22602	0.1489	0.077135	0.1394	0.082746	0.15567	0.14149	0.24956	0.20072	-3.8438	-3.7104	-3.5208	-4.3562	-3.4729	-3.875	-4.2604	-3.3458	-4.3354	-3.8833	-3.6458	-4.5062	-3.6333	-3.9417	-4.2188	-3.3854	17.947	108.451	151.798	109.877	38.581	158.392	76.124	70.091	-120.542	40.139	-43.406	118.242	10.432	-5.702	46.069	-4.478	0.0008893	0.00033298	0.00011394	908.84	5.9851e-06	7.6106e-06	745.27	331.61	1.0279e-05	6.5674e-06	313.22	119.24	110.51	42.004	1.4021e-05	50.948	0.0050312	0.0057092	0.0016171	968.48	6.1868e-05	6.4373e-05	809.23	355.53	6.2987e-05	6.5237e-05	352.17	132.57	123.34	46.689	6.502e-05	57.697	143.676	-10.238	-134.435	-161.704	-14.342	-18.235	-163.307	-156.901	-112.449	20.686	-158.779	-154.844	-152.714	-147.026	-76.056	-149.414	-8191	255	
58723.293	1	1	0	0	0.096355	0.26188	0.11971	0.44055	0.14337	0.1346	0.14312	0.15126	0.10541	0.21505	0.068636	0.14651	0.17016	0.16794	0.21266	0.20185	-3.875	-3.9125	-3.4188	-4.375	-3.5167	-3.7625	-4.3021	-3.5229	-3.9562	-4.1229	-3.4562	-4.2792	-3.6896	-3.8625	-4.2354	-3.5312	-134.411	-70.022	-47.896	132.069	175.615	-80.475	179.915	101.504	163.627	-115.075	31.714	-5.445	89.994	163.854	-154.485	-115.077	0.00094308	0.00086163	0.00013555	905.26	3.4718e-06	1.1214e-05	740.92	331.14	5.5281e-06	8.4517e-06	314.74	119.16	110.52	41.774	1.3865e-06	51.196	0.0052401	0.0060385	0.0016966	969.77	6.4147e-05	6.6635e-05	810.8	355.96	6.4167e-05	6.7392e-05	353.43	132.98	123.33	46.621	6.6489e-05	57.643	151.522	164.060	13.231	-161.836	102.970	-174.264	-163.588	-157.167	-38.251	-63.484	-159.121	-154.810	-152.709	-146.970	-37.426	-149.355	-8191	255	
58723.391	1	1	0	0	0.30292	0.39503	0.20342	0.22352	0.030493	0.065737	0.31685	0.22156	0.13535	0.05872	0.17025	0.13964	0.077851	0.18912	0.19954	0.18915	-3.7729	-4.2125	-3.5917	-4.4187	-3.7354	-3.6813	-4.4583	-3.5771	-3.9375	-4.0687	-3.6292	-4.1875	-3.8917	-3.4917	-4.3583	-3.4875	-164.378	43.329	6.465	108.691	146.450	149.222	153.065	138.960	-53.816	161.280	162.377	171.125	120.142	137.524	-93.520	-114.284	0.00088132	0.001398	0.00026116	908.84	3.2834e-06	6.0285e-06	745.29	331.21	1.0225e-05	1.0514e-05	317.26	119.73	110.76	41.727	1.4887e-05	51.011	0.0053386	0.0061764	0.0017071	970.86	6.424e-05	6.658e-05	812.83	355.94	6.4306e-05	6.6849e-05	354.49	132.73	123.54	46.555	6.5567e-05	57.458	143.642	-175.004	41.091	-161.970	-82.530	-59.542	-163.689	-157.087	-22.698	8.845	-159.029	-154.757	-152.886	-146.978	-73.321	-149.775	-8191	255	
58723.488	1	1	0	0	0.14199	0.04925	0.27154	0.2032	0.34652	0.10863	0.20119	0.16611	0.030015	0.18438	0.14467	0.099459	0.080045	0.19255	0.15356	0.10603	-3.5167	-4.1062	-3.3	-4.3229	-3.9583	-3.6875	-4.6083	-3.8917	-3.8792	-4.3521	-3.6625	-4.1896	-4.0271	-3.5938	-4.3229	-3.6646	-133.869	-88.159	104.292	-90.069	22.157	-115.361	5.726	-133.706	4.483	-9.597	115.191	123.657	67.426	148.120	27.821	94.697	0.0010401	0.00092052	0.00017492	909.6	4.0727e-06	1.5006e-05	738.75	330.58	5.6012e-06	1.1441e-05	313.01	119.04	109.89	41.917	1.2634e-05	50.7	0.0053265	0.0061566	0.0017127	972.41	6.5561e-05	6.7983e-05	810.53	355.86	6.6992e-05	7.0078e-05	353.38	132.71	123.73	46.723	6.9335e-05	57.653	138.909	-63.871	-109.314	-161.771	65.676	176.323	-163.567	-157.027	-97.439	-152.497	-158.940	-154.760	-152.880	-147.282	-32.967	-149.383	-8191	255	
58723.582	1	1	0	0	0.044825	0.064485	0.053101	0.10047	0.34263	0.091297	0.31897	0.14339	0.16513	0.18188	0.27172	0.064924	0.1515	0.025575	0.10567	0.13877	-3.3146	-4.1687	-3.3438	-4.1583	-4.0646	-3.4708	-4.4604	-3.7938	-3.7062	-4.1104	-3.4729	-4.0896	-4.1562	-3.5833	-4.2438	-3.7625	-44.353	90.238	-150.545	158.209	-18.351	118.027	149.752	24.090	-128.730	68.330	-153.820	-19.257	-147.568	164.120	98.464	159.605	0.00099104	0.00067743	0.00033348	905.89	7.9542e-06	4.7151e-06	738.37	329.98	1.031e-05	9.5154e-06	314.62	118.66	110.31	41.51	4.5982e-06	51.017	0.0055701	0.0064107	0.0017779	969.24	6.6746e-05	6.8771e-05	809.79	355.42	6.6163e-05	6.8221e-05	353.13	132.43	123.33	46.479	6.6443e-05	57.685	153.739	-28.547	-75.318	-161.789	-114.050	-43.638	-163.536	-157.158	-139.776	-117.190	-158.645	-154.818	-152.741	-146.882	-108.091	-149.331	-8191	255	
58723.703	1	1	0	0	0.050644	0.2194	0.10085	0.058916	0.032173	0.14209	0.24137	0.064257	0.20188	0.056965	0.044284	0.072603	0.097666	0.24263	0.054494	0.035548	-3.2708	-4.3208	-3.4479	-3.9542	-4.1521	-3.2062	-4.4229	-3.9021	-3.5938	-4.2854	-3.5542	-3.775	-4.1354	-3.4437	-4.2562	-4.0167	69.661	-152.272	-60.472	133.456	74.190	-117.966	163.209	98.073	112.174	90.742	-139.169	-144.889	161.089	122.737	106.753	98.994	0.0008566	0.00076892	0.00016801	907.13	1.3444e-05	1.2354e-05	744.3	331.12	1.2382e-05	7.0095e-06	315.74	120.27	110.65	41.783	5.0939e-06	51.818	0.005396	0.0061823	0.0017237	971.52	6.5594e-05	6.7317e-05	813.81	355.87	6.5366e-05	6.8621e-05	355.58	133.65	123.71	46.788	6.6877e-05	58.415	139.812	-31.407	-88.783	-161.584	40.047	-55.613	-163.382	-156.883	-62.158	-43.814	-158.667	-154.620	-152.786	-147.002	108.809	-149.368	-8191	255	
58723.801	1	1	0	0	0.21781	0.27649	0.056182	0.2722	0.2727	0.045868	0.099689	0.18451	0.1086	0.11995	0.12449	0.078627	0.24169	0.068856	0.049506	0.33821	-3.2896	-4.2146	-3.4333	-3.9417	-4.175	-3.4167	-4.1937	-4.1125	-3.3417	-4.2333	-3.6083	-3.8583	-4.325	-3.3729	-3.9917	-4.1438	54.545	53.431	-91.605	-150.653	22.098	134.842	175.222	104.921	153.888	176.342	-129.961	-116.575	-43.225	114.869	143.618	121.444	0.00096033	0.0014807	0.00017829	902.31	1.1589e-05	2.3491e-05	747.4	329.92	9.5688e-06	1.1954e-05	315.22	119.17	109.87	41.792	8.2985e-06	51.1	0.0054704	0.006343	0.001765	969.83	6.8143e-05	7.1006e-05	816.92	356.58	6.9119e-05	7.2746e-05	356.43	133.69	123.99	46.998	7.1106e-05	58.267	143.993	-105.680	-37.021	-161.758	-115.001	-13.513	-163.263	-156.999	-125.091	-127.738	-158.582	-154.782	-153.060	-146.972	81.562	-149.534	-8191	255	
58723.895	1	1	0	0	0.2211	0.10511	0.1698	0.10362	0.21591	0.070301	0.061004	0.33844	0.21089	0.18803	0.07882	0.038679	0.17251	0.11738	0.02087	0.13806	-3.1562	-4.2833	-3.6708	-3.8063	-4.3375	-3.3604	-4.0646	-4.2479	-3.3646	-4.1125	-3.7896	-3.5833	-4.3938	-3.4875	-3.8125	-4.2667	-64.995	11.629	175.382	93.702	-54.058	130.573	134.770	94.466	138.084	80.141	164.866	148.829	-125.439	60.993	-101.120	-167.487	0.00083963	0.00046346	9.3079e-05	901.11	4.7933e-06	1.2481e-05	737.58	328.67	7.8064e-06	1.1066e-05	314.87	118.97	110.02	41.863	6.7294e-06	51.198	0.0056966	0.0065722	0.0018311	970.42	6.8961e-05	7.0856e-05	812.26	355.56	6.7519e-05	7.0264e-05	354.03	132.86	123.44	46.716	6.7799e-05	57.984	138.439	102.639	176.217	-162.111	74.397	-150.397	-163.653	-156.999	-21.155	40.607	-158.791	-154.555	-152.662	-146.629	-82.633	-149.549	-8191	255	
58723.992	1	1	0	0	0.22452	0.051287	0.11566	0.28249	0.12836	0.1278	0.27144	0.2425	0.097016	0.21329	0.075849	0.10708	0.25554	0.18729	0.13138	0.17979	-3.0687	-4.175	-3.7771	-3.5792	-4.0625	-3.4667	-3.8417	-4.1854	-3.2062	-4.0979	-3.9	-3.4958	-4.4146	-3.9021	-3.7021	-4.2229	-9.050	-123.275	-13.839	131.363	12.293	51.332	56.004	-4.718	-119.657	-111.591	163.186	-104.233	133.998	-166.900	-128.676	177.125	0.00086302	0.00084619	0.00030214	902.66	5.0656e-06	8.9664e-06	740.46	329.68	1.3901e-05	1.3868e-05	316.4	119.42	110.5	41.912	7.3376e-06	51.121	0.0054804	0.0062314	0.001755	969.72	6.6224e-05	6.7986e-05	812.47	355.92	6.6313e-05	6.8502e-05	354.9	133.07	123.44	46.696	6.6643e-05	57.864	145.648	-108.314	162.575	-161.989	-19.057	-0.390	-163.679	-157.006	-103.205	63.327	-158.868	-154.625	-153.012	-146.912	-29.111	-149.611	-8191	255	
58724.090	1	1	0	0	0.18407	0.26439	0.1194	0.30811	0.055602	0.037298	0.32379	0.1304	0.29041	0.16572	0.033223	0.044633	0.10863	0.040637	0.082466	0.11992	-3.1375	-4.0813	-4.0083	-3.6458	-4.2167	-3.7708	-3.8854	-4.2333	-3.3396	-3.9958	-4.0479	-3.5187	-4.2979	-3.7458	-3.6854	-4.3479	65.785	19.777	-152.337	-173.033	-11.122	-77.213	97.930	79.502	78.702	-52.902	182.493	58.499	-170.702	35.148	164.839	-142.503	0.00088719	0.0010075	7.0876e-05	910.57	6.9078e-06	6.1506e-06	750.82	332.92	4.412e-06	5.6572e-06	315.87	120.44	110.64	41.692	1.864e-05	51.169	0.0053187	0.006157	0.0017246	973.1	6.4463e-05	6.6511e-05	816.49	357.17	6.3413e-05	6.6213e-05	354.87	133.02	123.31	46.262	6.2948e-05	57.474	136.130	-121.776	-14.005	-162.046	-117.656	19.484	-163.575	-157.121	4.175	5.199	-159.031	-154.643	-152.866	-146.992	-48.804	-149.334	-8191	255	
58724.184	1	1	0	0	0.077058	0.015981	0.078959	0.20429	0.10089	0.21576	0.22665	0.12978	0.20079	0.12626	0.11612	0.1411	0.20562	0.018131	0.099816	0.075171	-3.0458	-3.8375	-4.0396	-3.4458	-4.3771	-3.525	-3.6333	-4.6312	-3.4896	-3.9813	-4.1813	-3.3937	-4.4208	-4.1021	-3.6417	-4.4292	-6.791	52.457	148.290	143.453	-21.024	127.434	166.044	180.970	-24.368	-153.431	76.221	174.038	-128.817	175.082	-155.455	76.768	0.00090078	0.00066163	0.00017774	914.46	4.5097e-06	2.4542e-06	756.47	332.61	5.7741e-06	1.2604e-05	317.92	120.47	110.53	41.55	6.0097e-06	50.925	0.0050738	0.0058346	0.0016191	971.94	6.025e-05	6.2705e-05	815.09	356.48	5.9501e-05	6.2405e-05	353.19	132.39	122.55	46.011	5.968e-05	57.239	145.876	163.046	-31.614	-161.863	33.179	-42.768	-163.399	-157.114	-140.341	14.385	-159.046	-154.749	-152.619	-146.750	-151.995	-149.416	-8191	255	
58724.305	1	1	0	0	0.14454	0.16912	0.057861	0.13484	0.044374	0.16954	0.13286	0.15726	0.21261	0.12949	0.23945	0.16955	0.16063	0.22893	0.11888	0.2254	-3.1208	-3.8604	-4.1958	-3.525	-4.1646	-3.775	-3.5354	-4.3854	-3.4125	-3.8396	-4.3187	-3.4792	-4.2083	-4.1604	-3.4146	-4.2812	-156.202	-24.392	-89.696	159.540	40.708	37.455	134.548	141.871	-146.107	-172.709	159.421	84.139	-122.331	121.049	-5.285	114.796	0.00084704	0.0010154	0.00016604	907	6.6759e-06	8.7129e-06	746.44	333.15	5.7019e-06	1.9343e-05	317.73	119.97	110.72	41.347	5.1397e-06	50.938	0.0048288	0.0055797	0.0015683	966.98	5.8684e-05	6.1508e-05	811.92	355.21	5.9302e-05	6.2382e-05	353.07	132	122.44	45.927	6.0867e-05	57.035	126.997	-119.062	152.909	-162.146	37.220	-87.726	-163.268	-156.860	-107.065	0.189	-158.812	-154.524	-152.858	-146.804	52.244	-149.648	-8191	255	
58724.398	1	1	0	0	0.22626	0.16465	0.1506	0.18046	0.22636	0.050825	0.13054	0.27664	0.073529	0.11415	0.1011	0.15502	0.16352	0.13745	0.33525	0.15631	-3.2729	-3.6208	-4.35	-3.5979	-3.9958	-4.0667	-3.6208	-4.2375	-3.5229	-3.7	-4.45	-3.4396	-4.0708	-4.1208	-3.4313	-4.3125	-67.433	59.463	62.850	-80.452	-109.003	137.361	155.377	113.717	-12.204	38.995	-24.391	123.878	160.373	145.515	116.952	180.467	0.00091483	0.00030214	0.00036505	912.11	1.0816e-05	7.4173e-06	749.36	331.76	1.0412e-05	1.0618e-05	316.12	119.47	110.68	41.231	7.608e-06	50.744	0.0049788	0.0057012	0.0015947	971.59	6.0359e-05	6.2862e-05	812.11	355.73	6.0973e-05	6.3307e-05	353.8	132.15	122.85	45.911	6.1752e-05	56.978	143.632	-172.744	-143.462	-161.716	8.843	-154.422	-163.357	-156.948	-51.783	9.105	-158.805	-154.694	-152.849	-146.975	-44.233	-149.857	-8191	255	
58724.496	1	1	0	0	0.21768	0.25024	0.092535	0.046111	0.10445	0.10589	0.30785	0.16247	0.18203	0.29298	0.14113	0.055616	0.081998	0.128	0.14751	0.043889	-3.5083	-3.5125	-4.3438	-3.4646	-3.8688	-4.2042	-3.45	-4.2688	-3.8583	-3.3792	-4.3021	-3.5875	-3.8542	-4.4062	-3.5271	-4.2292	-92.140	100.078	-18.981	-172.946	127.738	176.640	177.799	-168.053	149.488	46.370	-6.680	-105.288	135.404	101.146	136.138	-131.231	0.00086679	0.00064292	0.00035712	912.52	6.1521e-06	1.1344e-05	752.88	331.55	7.1729e-06	1.8857e-05	317.96	121.03	110.67	41.331	1.5651e-05	50.435	0.005	0.0057155	0.0015987	972.01	6.0472e-05	6.2401e-05	814.21	355.78	5.9987e-05	6.1587e-05	353.99	132.4	122.55	45.795	5.9308e-05	56.801	159.713	-166.277	-38.255	-161.796	-71.881	-7.041	-163.411	-157.064	-107.075	-35.064	-159.194	-154.907	-152.808	-146.706	-83.628	-149.455	-8191	255	
58724.594	1	1	0	0	0.12521	0.20709	0.14675	0.2626	0.13066	0.065246	0.21064	0.2964	0.098739	0.12765	0.10162	0.07039	0.16898	0.20436	0.23453	0.08619	-3.4667	-3.4729	-4.3438	-3.5854	-3.6208	-4.3104	-3.7188	-4.2625	-4.1312	-3.4521	-4.4062	-3.6708	-3.7708	-4.3646	-3.3688	-4.1333	-87.529	62.904	-27.750	27.737	-89.794	168.521	140.452	162.381	138.269	22.536	-150.362	171.996	166.676	-157.870	-8.221	53.137	0.00064204	0.00054021	0.00018198	912.33	9.7585e-06	9.4995e-06	749.27	334.32	1.3873e-05	4.1555e-06	316.85	118.75	110.29	41.187	1.0328e-05	50.356	0.0048642	0.0055275	0.0015402	971.59	5.8111e-05	6.0266e-05	810.98	356.04	5.8543e-05	6.0138e-05	351.46	130.99	121.72	45.364	5.8929e-05	56.347	143.739	-13.728	-89.141	-161.796	-56.887	0.159	-163.516	-157.079	-69.506	-8.680	-159.253	-154.605	-153.059	-147.074	155.375	-149.753	-8191	255	
#DATA ENDS
