BOXY.EXE: ISS Imagent and Oximeter Data Acquisition Program Version 0.80
Ascii Record File

#ACQ INFORMATION
2  Detector Channels 
16  External MUX Channels 
1  Auxiliary Channels 
5000  Waveform (CCF) Frequency (Hz)
1  Waveforms Skipped 
30  Waveforms Averaged 
1  Cycles Averaged 
16  Acquisitions per Waveform 
10.0806  Updata Rate (Hz) 

#FILE INFORMATION
TRUE -- External MUX Channel results are PARSED.
FALSE -- AC DC and Phase are NOT grouped.
TRUE -- Companion Program Settings File CREATED.
FALSE -- AC data not excluded
FALSE -- DC data not excluded
FALSE -- Phase data not excluded
FALSE -- Auxillary Chn. data not excluded
Tab delimiters

#CALIBRATION STATE
TRUE -- Waveform Calibration Values APPLIED.


#AUX CALIBRATION VALUES
Val Type	aux-1	

Term	1.0000e+00	
Factor	0.0000e+00	


#WF CALIBRATION VALUES
A = Detector Channel
Val Type	A-AC1	A-AC2	A-AC3	A-AC4	A-AC5	A-AC6	A-AC7	A-AC8	A-AC9	A-AC10	A-AC11	A-AC12	A-AC13	A-AC14	A-AC15	A-AC16	A-DC1	A-DC2	A-DC3	A-DC4	A-DC5	A-DC6	A-DC7	A-DC8	A-DC9	A-DC10	A-DC11	A-DC12	A-DC13	A-DC14	A-DC15	A-DC16	A-Ph1	A-Ph2	A-Ph3	A-Ph4	A-Ph5	A-Ph6	A-Ph7	A-Ph8	A-Ph9	A-Ph10	A-Ph11	A-Ph12	A-Ph13	A-Ph14	A-Ph15	A-Ph16	

Term	0.00000e+00	0.00000e+00	0.00000e+00	0.00000e+00	0.00000e+00	0.00000e+00	0.00000e+00	0.00000e+00	0.00000e+00	0.00000e+00	0.00000e+00	0.00000e+00	0.00000e+00	0.00000e+00	0.00000e+00	0.00000e+00	0.00000e+00	0.00000e+00	0.00000e+00	0.00000e+00	0.00000e+00	0.00000e+00	0.00000e+00	0.00000e+00	0.00000e+00	0.00000e+00	0.00000e+00	0.00000e+00	0.00000e+00	0.00000e+00	0.00000e+00	0.00000e+00	0.00000e+00	0.00000e+00	0.00000e+00	0.00000e+00	0.00000e+00	0.00000e+00	0.00000e+00	0.00000e+00	0.00000e+00	0.00000e+00	0.00000e+00	0.00000e+00	0.00000e+00	0.00000e+00	0.00000e+00	0.00000e+00	
Factor	1.00000e+00	1.00000e+00	1.00000e+00	1.00000e+00	1.00000e+00	1.00000e+00	1.00000e+00	1.00000e+00	1.00000e+00	1.00000e+00	1.00000e+00	1.00000e+00	1.00000e+00	1.00000e+00	1.00000e+00	1.00000e+00	1.00000e+00	1.00000e+00	1.00000e+00	1.00000e+00	1.00000e+00	1.00000e+00	1.00000e+00	1.00000e+00	1.00000e+00	1.00000e+00	1.00000e+00	1.00000e+00	1.00000e+00	1.00000e+00	1.00000e+00	1.00000e+00	X	X	X	X	X	X	X	X	X	X	X	X	X	X	X	X	

B = Detector Channel
Val Type	B-AC1	B-AC2	B-AC3	B-AC4	B-AC5	B-AC6	B-AC7	B-AC8	B-AC9	B-AC10	B-AC11	B-AC12	B-AC13	B-AC14	B-AC15	B-AC16	B-DC1	B-DC2	B-DC3	B-DC4	B-DC5	B-DC6	B-DC7	B-DC8	B-DC9	B-DC10	B-DC11	B-DC12	B-DC13	B-DC14	B-DC15	B-DC16	B-Ph1	B-Ph2	B-Ph3	B-Ph4	B-Ph5	B-Ph6	B-Ph7	B-Ph8	B-Ph9	B-Ph10	B-Ph11	B-Ph12	B-Ph13	B-Ph14	B-Ph15	B-Ph16	

Term	0.00000e+00	0.00000e+00	0.00000e+00	0.00000e+00	0.00000e+00	0.00000e+00	0.00000e+00	0.00000e+00	0.00000e+00	0.00000e+00	0.00000e+00	0.00000e+00	0.00000e+00	0.00000e+00	0.00000e+00	0.00000e+00	0.00000e+00	0.00000e+00	0.00000e+00	0.00000e+00	0.00000e+00	0.00000e+00	0.00000e+00	0.00000e+00	0.00000e+00	0.00000e+00	0.00000e+00	0.00000e+00	0.00000e+00	0.00000e+00	0.00000e+00	0.00000e+00	-1.87007e+02	-1.34050e+02	-1.37969e+02	-1.83492e+02	-8.77581e+01	-7.32534e+01	-1.58200e+02	-1.62015e+02	-8.49259e+01	-6.14154e+01	-1.70701e+02	-1.71279e+02	-1.78850e+02	-1.76863e+02	-7.95451e+01	-1.49780e+02	
Factor	3.76548e-05	1.51883e-04	4.69219e-05	1.64088e-01	1.62550e-06	1.73594e-06	1.85429e-01	6.04996e-02	1.59724e-06	1.91212e-06	1.00259e-01	3.43440e-02	3.12106e-02	1.08452e-02	1.69460e-06	1.54572e-02	6.25193e-06	7.31936e-06	2.04454e-06	7.75377e-02	7.75653e-08	8.04797e-08	8.23581e-02	2.86645e-02	7.78837e-08	8.09403e-08	4.60320e-02	1.57531e-02	1.49403e-02	5.16929e-03	7.88347e-08	7.14857e-03	X	X	X	X	X	X	X	X	X	X	X	X	X	X	X	X	



#DISTANCE SETTINGS
A = Detector Channel
A-1	A-2	A-3	A-4	A-5	A-6	A-7	A-8	A-9	A-10	A-11	A-12	A-13	A-14	A-15	A-16	

2.5000e+00	3.0000e+00	2.5000e+00	3.0000e+00	2.0000e+00	3.0000e+00	1.5000e+00	3.0000e+00	3.0000e+00	3.0000e+00	3.0000e+00	3.0000e+00	3.0000e+00	3.0000e+00	1.5000e+00	3.0000e+00	

B = Detector Channel
B-1	B-2	B-3	B-4	B-5	B-6	B-7	B-8	B-9	B-10	B-11	B-12	B-13	B-14	B-15	B-16	

1.0000e+01	1.0000e+01	1.0000e+01	1.4400e+00	1.0000e+01	1.0000e+01	1.5100e+00	1.9400e+00	1.0000e+01	1.0000e+01	1.9900e+00	2.4900e+00	2.4100e+00	2.9000e+00	1.0000e+01	2.9800e+00	




#DATA BEGINS
time	group	step	mark	flag	A-AC1	A-AC2	A-AC3	A-AC4	A-AC5	A-AC6	A-AC7	A-AC8	A-AC9	A-AC10	A-AC11	A-AC12	A-AC13	A-AC14	A-AC15	A-AC16	A-DC1	A-DC2	A-DC3	A-DC4	A-DC5	A-DC6	A-DC7	A-DC8	A-DC9	A-DC10	A-DC11	A-DC12	A-DC13	A-DC14	A-DC15	A-DC16	A-Ph1	A-Ph2	A-Ph3	A-Ph4	A-Ph5	A-Ph6	A-Ph7	A-Ph8	A-Ph9	A-Ph10	A-Ph11	A-Ph12	A-Ph13	A-Ph14	A-Ph15	A-Ph16	B-AC1	B-AC2	B-AC3	B-AC4	B-AC5	B-AC6	B-AC7	B-AC8	B-AC9	B-AC10	B-AC11	B-AC12	B-AC13	B-AC14	B-AC15	B-AC16	B-DC1	B-DC2	B-DC3	B-DC4	B-DC5	B-DC6	B-DC7	B-DC8	B-DC9	B-DC10	B-DC11	B-DC12	B-DC13	B-DC14	B-DC15	B-DC16	B-Ph1	B-Ph2	B-Ph3	B-Ph4	B-Ph5	B-Ph6	B-Ph7	B-Ph8	B-Ph9	B-Ph10	B-Ph11	B-Ph12	B-Ph13	B-Ph14	B-Ph15	B-Ph16	aux-1	digaux	

58743.465	1	1	0	256	0.1236	0.087748	0.20128	0.33397	0.068192	0.067542	0.043203	0.035478	0.086156	0.35465	0.067024	0.09425	0.24791	0.095672	0.099562	0.081183	-3.9188	-3.475	-4.2521	-3.8833	-3.5375	-4.2833	-3.6813	-4.0146	-4.3333	-3.3417	-4.2208	-4.0833	-3.4	-4.3562	-3.3917	-3.7125	128.112	35.199	72.938	150.021	48.401	122.527	-33.430	-18.417	-38.976	37.099	61.398	64.165	103.062	140.914	5.228	-88.340	0.00088826	0.00057644	0.00019356	892.16	1.1208e-05	8.0865e-06	773.04	344.41	8.1378e-06	6.3598e-06	329.6	125.98	115.33	44.033	7.1334e-06	53.838	0.0033428	0.0038095	0.0010751	932.19	4.0473e-05	4.2521e-05	812.43	361.14	4.1757e-05	4.317e-05	355.05	134.22	123.48	47.517	4.1547e-05	58.534	133.874	-13.109	11.859	-161.342	-133.504	-42.100	-163.079	-156.514	-78.407	-28.655	-158.321	-154.398	-152.289	-146.194	-90.559	-149.353	-8191	255	
58743.559	1	1	0	0	0.19359	0.061819	0.17427	0.17517	0.36054	0.10881	0.20619	0.11661	0.12115	0.037946	0.26537	0.066338	0.15747	0.21983	0.23449	0.049468	-3.8854	-3.4	-4.0583	-4.0854	-3.3708	-4.4583	-3.8375	-3.7958	-4.2792	-3.3958	-3.9979	-4.0417	-3.3812	-4.2729	-3.7354	-3.7542	92.644	165.892	1.385	-139.779	94.066	-0.852	20.837	172.145	-125.206	139.307	-43.782	134.253	56.597	-27.787	2.372	-116.497	0.00093788	0.00050211	0.00015364	890.64	3.2252e-06	2.358e-06	767.86	343.97	4.6114e-06	1.427e-05	330.86	124.85	114.78	43.997	5.7327e-06	54.094	0.0034542	0.0038798	0.0010881	931.12	4.1605e-05	4.3312e-05	808.86	360.27	4.2486e-05	4.4264e-05	354.56	133.66	123.26	47.507	4.328e-05	58.655	132.250	-14.835	-119.995	-161.279	111.706	-99.056	-162.870	-156.823	-25.648	-50.146	-158.724	-154.364	-152.184	-146.240	-142.330	-149.357	-8191	255	
58743.633	1	1	0	0	0.18817	0.26362	0.32463	0.24816	0.15689	0.039504	0.20674	0.17229	0.25651	0.11975	0.18572	0.11431	0.16386	0.057215	0.18024	0.22768	-3.9625	-3.4042	-3.9625	-4.1083	-3.375	-4.3542	-3.9396	-3.6917	-4.1667	-3.5083	-3.8729	-4.3521	-3.2062	-4.1604	-3.7687	-3.5	30.667	179.248	-62.556	152.161	41.077	41.228	-17.476	123.629	-106.332	31.770	-136.391	-40.497	165.997	153.353	127.715	25.839	0.00076458	0.00047282	0.00022546	887.61	4.4899e-06	1.1759e-05	766.13	342.9	6.2244e-06	1.2787e-05	328.48	124.69	113.82	44.321	1.2473e-05	54.171	0.0036503	0.004131	0.0011486	931.59	4.4686e-05	4.65e-05	812.2	359.59	4.5811e-05	4.7795e-05	355.83	134.39	123.53	47.956	4.8247e-05	59.286	141.288	-68.756	112.793	-161.387	-99.625	-2.446	-162.961	-156.496	-91.026	-92.258	-158.176	-154.028	-152.408	-146.247	-158.512	-149.102	-8191	255	
58743.754	1	1	0	0	0.24491	0.15293	0.15496	0.17525	0.059281	0.14439	0.10796	0.1984	0.13632	0.066363	0.053341	0.17279	0.17935	0.10875	0.29935	0.16411	-3.8792	-3.5563	-3.7438	-4.1937	-3.4042	-4.0062	-3.9646	-3.625	-4.3292	-3.7417	-3.7625	-4.3708	-3.4125	-3.8479	-4.0208	-3.6208	134.469	-39.370	40.402	-124.849	-103.695	183.635	-107.057	132.183	-160.373	-135.686	78.498	65.287	137.006	99.084	67.441	45.633	0.00082961	0.0014791	7.5611e-05	884.71	6.3434e-06	4.3397e-06	763.12	340.64	1.2152e-05	1.0405e-05	326.34	124.32	113.25	44.005	8.624e-06	53.486	0.0040005	0.0045614	0.0012608	933.65	4.9132e-05	5.0937e-05	812.46	360.48	5.0322e-05	5.1857e-05	355.41	134.62	123.88	47.901	5.0311e-05	58.8	134.597	-78.123	166.519	-161.199	-138.450	86.835	-162.837	-156.587	-34.004	27.105	-158.664	-154.124	-152.315	-146.407	-97.370	-149.038	-8191	255	
58743.848	1	1	0	0	0.11823	0.083957	0.16573	0.10821	0.10581	0.036867	0.22096	0.22153	0.10033	0.11599	0.053484	0.17086	0.32801	0.21161	0.24178	0.30924	-4.0979	-3.65	-3.55	-4.2979	-3.4542	-3.9667	-4.0604	-3.3979	-4.1646	-3.8063	-3.6021	-4.3292	-3.5687	-3.9958	-4.0208	-3.6813	59.879	-87.345	-90.534	-95.452	-54.815	-78.971	115.957	139.226	27.935	181.092	80.314	69.044	82.319	152.314	-44.818	164.742	0.0007973	0.00025564	0.00036324	882.88	7.6187e-06	1.387e-05	756.19	340.46	4.5714e-06	3.6086e-06	323.73	122.86	113.01	43.818	7.6378e-06	53.301	0.0041362	0.0046739	0.0013119	933.1	5.0137e-05	5.1967e-05	807.31	360.4	5.0898e-05	5.2375e-05	353.82	133.65	123.65	47.783	5.2531e-05	58.746	149.718	90.429	-73.820	-161.341	-57.695	15.855	-162.757	-156.623	121.237	44.096	-158.679	-154.140	-152.024	-146.618	1.779	-149.161	-8191	255	
58743.941	1	1	0	0	0.090829	0.076525	0.10076	0.072997	0.10321	0.10981	0.29883	0.21972	0.31372	0.14505	0.13742	0.14248	0.022816	0.23725	0.13886	0.23519	-4.0333	-3.9083	-3.4417	-4.4125	-3.6083	-3.8583	-4.3292	-3.5458	-4.1521	-3.8792	-3.6063	-4.2875	-3.6667	-3.9562	-4.0729	-3.3	-22.454	-165.328	-130.142	131.176	164.457	-40.021	-126.101	160.704	-65.698	-10.200	169.654	39.964	29.899	-160.261	123.503	74.768	0.00099579	0.00012856	0.00022969	882.61	4.6811e-06	6.7971e-06	753.09	339.17	3.3679e-06	7.2411e-06	321.37	122.68	113.46	43.698	1.1092e-05	53.477	0.0043403	0.0049321	0.0013959	936.28	5.3374e-05	5.5332e-05	808.62	360.24	5.5099e-05	5.7127e-05	355.05	134.09	124.34	48.155	5.8813e-05	59.273	140.290	-161.830	-143.772	-161.383	-35.602	-76.036	-163.025	-156.612	-150.646	7.148	-158.575	-154.394	-152.332	-146.516	27.658	-149.258	-8191	255	
58744.039	1	1	0	0	0.10223	0.19572	0.10978	0.0647	0.025212	0.1514	0.053494	0.17461	0.20113	0.11511	0.18144	0.13381	0.1962	0.19118	0.066489	0.17933	-3.5333	-4.0062	-3.2521	-4.2271	-3.4938	-3.7208	-4.4812	-3.3729	-3.9479	-4.0708	-3.5479	-4.3458	-3.5896	-3.6833	-4.2292	-3.4833	-60.657	24.996	177.796	102.599	23.256	-8.918	9.812	52.187	-98.987	-26.621	150.310	-106.025	161.064	-138.140	-37.355	68.918	0.0010797	0.00075627	0.0001715	883.69	2.8305e-06	7.2011e-06	746.66	337.92	7.7955e-06	3.5391e-06	319.84	122.04	111.93	43.85	1.4643e-05	52.615	0.0048413	0.0056356	0.0015841	942.62	6.0663e-05	6.3341e-05	813.94	362.15	6.1461e-05	6.4039e-05	356.74	134.37	124.53	48.365	6.1922e-05	59.093	138.497	-69.085	-121.930	-161.458	-157.605	21.856	-163.089	-156.552	-57.229	71.484	-158.424	-154.395	-152.340	-146.748	-40.226	-148.968	-8191	255	
58744.133	1	1	0	0	0.20838	0.16852	0.22654	0.10621	0.18721	0.27806	0.16702	0.19054	0.15784	0.10368	0.26026	0.059142	0.23466	0.069131	0.13457	0.20035	-3.4	-4.1604	-3.3354	-4.4104	-3.7917	-3.4292	-4.4083	-3.5958	-3.5833	-4.0563	-3.3312	-4.2688	-3.8	-3.525	-4.2625	-3.5146	-128.819	23.108	-127.557	182.843	149.733	93.284	47.311	175.284	166.496	152.697	67.478	-61.860	139.477	-10.792	-110.088	41.269	0.00096797	0.00062946	0.00037607	876.86	1.0909e-05	1.306e-05	744.92	338.4	8.3039e-06	2.5245e-06	317.64	119.45	112.09	43.41	1.0385e-05	51.746	0.0049555	0.0057492	0.0015955	938.7	6.0649e-05	6.2755e-05	810.89	361.86	6.0177e-05	6.2715e-05	354.4	132.89	123.81	47.821	6.0344e-05	58.146	151.101	-95.598	-66.443	-161.471	-77.440	-14.936	-162.957	-156.645	-9.956	68.506	-158.302	-154.296	-151.863	-146.177	-16.927	-148.896	-8191	255	
58744.230	1	1	0	0	0.21143	0.17556	0.19312	0.066741	0.10874	0.13888	0.13767	0.18286	0.15935	0.095657	0.069216	0.20098	0.22975	0.1345	0.083524	0.087537	-3.4833	-4.1271	-3.3167	-4.2083	-3.9271	-3.4313	-4.3667	-3.6	-3.7125	-4.2146	-3.4521	-4.0771	-4.1896	-3.4646	-4.2021	-3.8	21.172	-82.184	20.204	146.140	-152.949	-44.218	153.647	-149.301	5.647	-136.378	-4.683	-88.129	-149.653	-167.279	-81.864	-149.988	0.00084906	0.00079975	0.00012648	880.32	7.6831e-06	2.8136e-06	745.03	336.75	5.3132e-06	2.7471e-06	314.97	119.34	111.61	43.049	2.2044e-06	51.979	0.0048296	0.005637	0.0015668	936.17	5.96e-05	6.1671e-05	806.16	359.76	5.9963e-05	6.1803e-05	352.41	132.11	123.4	47.507	5.8941e-05	57.874	128.522	-66.099	-160.823	-161.302	-37.649	137.650	-162.979	-156.492	-155.631	62.529	-158.603	-154.448	-152.069	-146.572	69.431	-149.484	-8191	255	
58744.328	1	1	0	0	0.030281	0.20549	0.12867	0.27393	0.16515	0.29294	0.13693	0.085899	0.12827	0.14049	0.24071	0.053419	0.1192	0.24439	0.26954	0.030525	-3.4208	-4.1937	-3.3271	-4.1646	-4.025	-3.2771	-4.3146	-3.7958	-3.5625	-4.4021	-3.6312	-3.9854	-4.1208	-3.5812	-4.2271	-3.8438	61.967	-62.086	-113.654	93.555	12.180	-54.768	184.685	60.930	-68.329	-97.294	-79.589	24.743	145.844	122.544	-4.519	-42.296	0.00092768	0.00082006	0.00016774	875.87	4.9558e-06	9.2857e-06	745.32	339.13	9.4468e-06	9.9517e-06	318.63	119.91	112.58	43.036	1.4435e-05	52.32	0.0046881	0.005373	0.0014953	931.82	5.6064e-05	5.7556e-05	803.81	359.4	5.5855e-05	5.7906e-05	351.32	132.17	123.54	47.323	5.5999e-05	57.985	148.347	-38.714	139.396	-161.477	14.191	-89.793	-162.877	-156.277	-25.752	-38.625	-158.121	-154.196	-152.271	-146.278	9.370	-149.091	-8191	255	
58744.422	1	1	0	0	0.14824	0.30803	0.14999	0.20598	0.15155	0.20675	0.1239	0.44298	0.058209	0.025904	0.309	0.05334	0.23714	0.16936	0.11157	0.070636	-3.3104	-4.3667	-3.3792	-3.7667	-4.0604	-3.3479	-4.2646	-3.9417	-3.5229	-4.175	-3.575	-3.875	-4.1562	-3.4458	-4.1375	-4.1333	183.743	36.432	45.126	156.285	-166.843	-40.999	113.502	136.086	93.315	-127.946	63.062	-91.807	73.344	-151.260	-63.066	107.934	0.0011511	0.00029143	0.00027756	877.31	1.071e-05	1.3565e-05	745.95	337.84	8.4999e-06	7.8981e-07	318.5	120.86	111.8	43.206	2.8812e-06	52.312	0.0044586	0.0051193	0.0014118	931.42	5.3932e-05	5.597e-05	801.71	359.58	5.4318e-05	5.6922e-05	351.22	132.2	123	47.452	5.5522e-05	58.004	140.783	-24.346	-46.832	-161.468	-17.825	-66.878	-162.862	-156.614	-115.988	71.661	-158.552	-154.540	-152.258	-146.916	-55.512	-148.972	-8191	255	
58744.543	1	1	0	0	0.19603	0.17106	0.088822	0.19087	0.17124	0.18599	0.10096	0.21194	0.23222	0.18768	0.2885	0.085996	0.38524	0.051633	0.045064	0.18501	-3.3312	-4.1229	-3.5917	-3.8937	-4.2208	-3.5396	-4.2208	-3.9958	-3.4542	-4.2417	-3.6021	-3.7083	-4.3542	-3.4708	-4.0625	-4.15	-126.254	40.025	148.083	154.207	137.432	15.453	74.332	118.177	-50.972	10.606	149.825	-133.159	-150.979	122.006	-38.734	150.845	0.00080878	0.00070634	0.00034372	870.48	5.2611e-06	6.8558e-06	735.64	336.07	4.429e-06	6.4518e-06	315.84	119.16	110.38	42.914	1.2822e-05	51.67	0.0045236	0.0051829	0.0014371	926.56	5.5244e-05	5.684e-05	797.04	358.46	5.5558e-05	5.8181e-05	348.3	130.54	122	47.083	5.6738e-05	57.313	126.851	-74.936	-117.263	-161.597	-66.512	-51.569	-162.993	-156.513	147.654	-151.718	-158.425	-154.273	-152.141	-146.392	-155.991	-148.934	-8191	255	
58744.637	1	1	0	0	0.2652	0.13539	0.10344	0.27396	0.10149	0.10822	0.10839	0.070261	0.082767	0.048686	0.22678	0.1501	0.087013	0.16341	0.23725	0.025607	-3.1583	-4.4271	-3.5062	-3.6333	-4.2729	-3.3438	-4.1583	-4.3	-3.4125	-4.1708	-4.0458	-3.5812	-4.425	-3.4979	-3.8958	-4.2542	-95.636	-131.683	81.271	121.255	-67.314	-103.364	112.574	73.174	178.223	-156.809	-163.009	176.130	50.775	-172.441	-85.630	-23.657	0.00083432	0.00032153	7.3631e-05	867.82	5.6433e-06	4.1193e-06	733.29	334.56	3.9181e-06	6.4516e-06	314.59	117.67	110.88	42.51	6.0017e-06	51.458	0.0045885	0.0052626	0.0014826	924.97	5.5908e-05	5.7888e-05	793.37	356.66	5.5677e-05	5.6926e-05	347.18	129.57	121.63	46.691	5.4697e-05	56.926	124.962	-87.923	15.601	-161.428	-48.994	-5.423	-163.075	-156.296	-36.802	-136.798	-158.801	-154.338	-152.478	-146.393	-13.619	-149.002	-8191	255	
58744.734	1	1	0	0	0.27221	0.21904	0.075828	0.23107	0.23807	0.35896	0.11935	0.21535	0.10826	0.06717	0.11319	0.19483	0.18844	0.029506	0.15373	0.14417	-2.9479	-4.0479	-3.7438	-3.7208	-4.3271	-3.425	-3.7792	-4.5042	-3.4021	-4.1229	-4.1458	-3.7833	-4.525	-3.6417	-3.7375	-4.2979	-99.290	-101.346	-30.644	56.136	-96.764	19.532	-129.135	-151.748	-64.151	-70.567	89.268	-133.320	-164.964	184.865	82.514	142.713	0.0010489	0.00062942	0.00025974	863.64	1.1906e-05	5.2853e-06	733.53	333.31	6.8215e-06	6.8937e-06	312.05	117.52	109.54	42.499	1.2972e-06	51.259	0.00444	0.0050772	0.0014284	919.92	5.4466e-05	5.5577e-05	791.53	354.9	5.4054e-05	5.6403e-05	345.65	128.99	120.66	46.47	5.4466e-05	56.929	136.313	144.874	-95.757	-161.407	9.604	36.302	-163.236	-156.414	-113.862	-69.085	-158.250	-154.718	-152.451	-146.367	-98.940	-149.339	-8191	255	
58744.855	1	1	0	0	0.27889	0.28503	0.23885	0.19175	0.25133	0.2083	0.19784	0.2581	0.057645	0.038829	0.26697	0.15019	0.12868	0.17166	0.16251	0.096059	-3.0542	-4.1229	-4.0104	-3.4562	-4.3063	-3.6562	-3.7396	-4.3604	-3.325	-4.0354	-4.2083	-3.5396	-4.2833	-3.8083	-3.6375	-4.3667	-10.862	31.195	-33.547	-164.736	-172.410	-43.231	140.918	68.209	-167.453	177.242	52.770	109.987	163.252	-129.993	-19.258	124.224	0.00083281	0.00018385	0.00023976	865.17	8.9629e-06	1.1488e-05	733.14	333.14	2.6591e-06	4.8324e-06	313.51	118.01	109.3	42.108	9.548e-06	51.375	0.0043879	0.0050201	0.0014191	919.55	5.3238e-05	5.4707e-05	791.01	354.26	5.2565e-05	5.5052e-05	344.66	128.77	120.28	46.287	5.1554e-05	56.766	136.764	-59.438	-10.095	-161.195	-115.400	-16.686	-163.205	-156.646	-59.360	-71.466	-158.547	-154.327	-152.321	-146.444	3.097	-149.100	-8191	255	
58744.926	1	1	0	0	0.18949	0.19467	0.1221	0.19157	0.04622	0.35322	0.16772	0.17681	0.10274	0.23978	0.19087	0.18959	0.10817	0.16508	0.1024	0.33763	-2.9271	-3.8458	-4.125	-3.3354	-3.9958	-3.7771	-3.6146	-4.5479	-3.5146	-3.7729	-4.2937	-3.4708	-4.2708	-4.0146	-3.5354	-4.4583	155.082	53.396	-147.469	173.212	-159.419	86.366	5.757	125.707	182.396	160.285	-147.727	83.461	7.721	-129.905	18.194	175.152	0.0010438	0.00085746	5.3289e-05	864.07	8.1222e-06	5.6645e-06	730.75	332.13	8.5731e-06	7.7226e-06	314.25	117.61	109.18	42.3	8.6308e-06	51.133	0.00413	0.0046997	0.0013277	913.51	4.9475e-05	5.1996e-05	784.5	352.02	4.9514e-05	5.1481e-05	342.28	127.66	119.36	46.066	4.8994e-05	56.394	134.929	-134.348	-172.725	-161.495	-84.231	73.317	-163.205	-156.847	-107.054	-85.765	-158.450	-154.623	-152.232	-146.733	-50.203	-148.968	-8191	255	
58745.023	1	1	0	0	0.17577	0.16763	0.11601	0.28369	0.19423	0.14647	0.059055	0.15352	0.15627	0.22608	0.19589	0.088622	0.090889	0.080285	0.09485	0.31456	-3.2	-3.7125	-4.3396	-3.4604	-4.0563	-4.0083	-3.5708	-4.3812	-3.7062	-3.7313	-4.3688	-3.4708	-4.0542	-3.9333	-3.3354	-4.3562	-126.287	39.362	-169.980	-120.113	-16.133	68.036	-10.666	161.562	166.237	-20.385	-95.317	125.189	-115.449	162.532	79.053	140.453	0.00095191	0.00015222	0.00019735	863.47	5.087e-06	1.6688e-05	734.53	333.02	8.8531e-06	9.1896e-06	313.77	117.94	109.74	42.267	6.273e-06	51.471	0.0039708	0.0045625	0.0012719	910.31	4.7985e-05	5.0134e-05	783.94	352.18	4.8359e-05	5.0174e-05	343.34	128.4	119.62	46.144	4.9018e-05	56.509	144.394	27.579	165.556	-161.487	-55.385	-26.889	-162.814	-156.721	-89.665	9.359	-158.602	-154.490	-152.335	-146.548	-25.392	-149.520	-8191	255	
58745.145	1	1	0	0	0.40607	0.11941	0.12724	0.3399	0.020185	0.094406	0.16128	0.28482	0.11611	0.10612	0.14392	0.024712	0.23204	0.26552	0.054536	0.16533	-3.3104	-3.6354	-4.1833	-3.5521	-4	-4.1562	-3.4562	-4.3229	-3.7958	-3.5833	-4.3667	-3.5958	-4.0042	-4.2646	-3.3521	-4.2688	-127.524	-109.046	39.858	123.996	-20.338	16.813	161.984	114.311	-161.298	34.682	100.372	-99.078	125.654	146.099	153.993	74.845	0.00084356	0.001069	0.00015981	866.77	1.0261e-05	5.4213e-06	733.76	333.95	1.0146e-05	2.5674e-06	314.44	118.58	109.61	42.41	1.6072e-05	51.366	0.0040234	0.0045652	0.0012788	914.01	4.8502e-05	5.0033e-05	788.67	353.56	4.8551e-05	5.0224e-05	344.76	128.81	120.09	46.136	4.8901e-05	56.505	139.483	-48.577	-140.476	-161.274	-43.006	46.334	-162.956	-156.532	-131.503	79.673	-158.234	-154.320	-152.448	-146.164	-52.889	-149.226	-8191	255	
58745.238	1	1	0	0	0.25862	0.15538	0.10506	0.034302	0.079982	0.070615	0.28278	0.15035	0.084803	0.27163	0.020336	0.058833	0.21929	0.19954	0.3805	0.14996	-3.5	-3.4646	-4.1896	-3.6208	-3.925	-4.0896	-3.3083	-4.1979	-3.8833	-3.55	-4.3812	-3.6271	-3.7812	-4.3771	-3.4062	-4.1771	84.703	20.928	-73.911	-110.201	-93.791	175.689	86.130	145.203	173.894	-61.527	-124.710	69.792	-143.586	176.057	-108.708	-20.407	0.00092993	0.0009293	0.00017194	868.9	6.3673e-06	9.1937e-06	737.54	335.19	7.348e-06	6.8421e-06	314.59	118.29	111.12	42.432	8.9682e-06	50.914	0.0040362	0.0045553	0.0012781	917.55	4.8396e-05	5.0533e-05	787.5	354.59	4.8603e-05	5.0103e-05	342.95	128.24	120.38	46.019	4.8335e-05	55.985	145.350	151.691	-169.895	-161.601	-166.523	25.254	-162.757	-156.594	-13.621	89.785	-158.264	-154.155	-152.159	-146.438	79.665	-149.431	-8191	255	
58745.336	1	1	0	0	0.14788	0.1215	0.23545	0.13471	0.031448	0.11923	0.37008	0.12436	0.184	0.090134	0.23548	0.067272	0.18263	0.072591	0.20389	0.19649	-3.5771	-3.2417	-4.1625	-3.8187	-3.6708	-4.2708	-3.5146	-4.1792	-3.8604	-3.5854	-4.4688	-3.8292	-3.6083	-4.4292	-3.5396	-4.1021	-35.554	31.331	-96.196	83.044	157.160	121.107	157.413	149.697	-134.238	-111.105	-116.953	130.014	15.934	-167.249	83.234	151.346	0.001009	0.00086555	0.00031359	869.07	5.7098e-06	5.4494e-06	732.75	336.32	9.0633e-06	9.8488e-06	312.82	117.32	109.96	42.199	5.5537e-06	50.81	0.0039096	0.0044623	0.0012531	918.91	4.7652e-05	4.9851e-05	782.73	354.43	4.8208e-05	5.0011e-05	342	127.94	119.89	45.933	4.8649e-05	56.125	138.058	-119.546	-63.007	-161.336	-49.636	-34.163	-163.080	-156.662	-55.101	-26.054	-158.493	-154.176	-152.457	-146.466	54.594	-149.528	-8191	255	
58745.434	1	1	0	0	0.19305	0.18337	0.038923	0.24515	0.18743	0.13394	0.12127	0.1718	0.19652	0.15494	0.079136	0.21884	0.24612	0.23019	0.051312	0.19023	-3.7958	-3.4771	-4.2271	-3.8646	-3.5958	-4.0958	-3.7229	-3.9229	-4.1958	-3.4646	-4.3021	-4.0542	-3.4104	-4.3583	-3.5167	-3.8333	183.167	75.468	69.125	160.619	89.854	166.027	151.857	-21.696	-57.376	-67.100	-44.472	159.307	148.915	107.506	153.518	-151.173	0.00094793	0.00032316	0.00014415	865.33	4.021e-06	1.1607e-05	731.02	333.74	5.4594e-06	1.4141e-05	312.24	117.95	109.41	42.224	6.4249e-06	51.589	0.004026	0.0045576	0.0012786	915.23	4.8233e-05	5.0004e-05	782.39	352.85	4.9249e-05	5.0665e-05	341.89	128.37	119.8	46.031	4.9332e-05	56.56	137.133	-143.302	11.577	-161.226	-99.405	-57.171	-163.026	-156.631	-92.590	37.910	-158.367	-154.707	-151.992	-146.526	-85.777	-149.177	-8191	255	
58745.527	1	1	0	0	0.25168	0.14413	0.077222	0.07741	0.054509	0.15471	0.13433	0.16556	0.13876	0.064994	0.20802	0.10772	0.16993	0.14501	0.16284	0.121	-3.8833	-3.4437	-4.0687	-3.9437	-3.5854	-4.3396	-3.6562	-3.7708	-4.2479	-3.3333	-4.2167	-4.0771	-3.5896	-4.4125	-3.4875	-3.7958	144.072	88.532	-130.333	-109.842	14.850	150.942	82.418	177.169	-41.771	-96.600	-47.041	170.410	-69.138	-131.073	184.786	142.469	0.00087051	0.00041334	0.00030038	868.36	2.9343e-06	1.437e-05	731.11	332.34	1.4658e-05	1.1724e-06	314.6	119.61	109.87	42.431	2.3039e-06	52.229	0.0040014	0.0045388	0.0012823	914.09	4.7932e-05	4.9667e-05	783.45	352.36	4.8276e-05	4.9388e-05	343.85	129.52	119.73	46.268	4.8262e-05	57.123	144.799	-80.720	-24.172	-161.489	-11.310	-66.891	-162.810	-156.599	-92.790	-106.726	-158.775	-154.578	-152.176	-146.539	6.513	-149.070	-8191	255	
58745.621	1	1	0	0	0.12417	0.18509	0.078331	0.061888	0.16848	0.08849	0.11433	0.11561	0.062667	0.058017	0.18935	0.14183	0.093579	0.34759	0.08327	0.22865	-4.0542	-3.4833	-4.0479	-4.15	-3.3667	-4.275	-3.8458	-3.8	-4.4708	-3.4167	-4	-4.1792	-3.4604	-4.2854	-3.8167	-3.6688	-29.620	78.168	-34.741	183.901	127.374	20.248	56.078	-112.524	-172.119	-99.599	77.039	124.819	39.450	119.853	13.626	-160.837	0.0010698	0.00036975	0.00022477	861.05	9.4659e-06	9.4201e-07	734.85	332.38	5.9722e-06	5.7512e-06	313.11	119.18	110.17	42.813	4.5188e-06	52.386	0.0039827	0.0044929	0.0012806	912.38	4.755e-05	4.9728e-05	784.27	352.46	4.8096e-05	4.9643e-05	343.75	129.46	119.92	46.62	4.9919e-05	57.436	134.434	-163.735	-43.577	-161.375	-127.637	-39.704	-162.580	-156.611	-29.286	-102.086	-158.656	-154.290	-152.237	-146.407	-149.789	-149.131	-8191	255	
58745.719	1	1	0	0	0.14114	0.20022	0.139	0.16534	0.25716	0.11708	0.066504	0.20059	0.12133	0.073749	0.1295	0.063698	0.20459	0.062634	0.048614	0.16267	-3.9729	-3.5729	-3.8021	-4.2271	-3.3646	-4.1375	-3.9313	-3.7333	-4.3083	-3.7188	-3.825	-4.1729	-3.4458	-4.1729	-3.8708	-3.4521	-76.831	148.030	32.747	113.957	-7.596	-90.512	176.992	102.714	-47.464	117.002	116.675	-0.999	137.958	139.698	102.661	121.184	0.001043	0.00085894	0.00018726	863.48	7.371e-06	1.6499e-05	731.05	331.88	1.0686e-05	7.9421e-06	313.35	119.45	110.16	42.932	3.5906e-06	52.111	0.0040647	0.0046231	0.0012978	909.9	4.847e-05	5.0565e-05	784.06	351.7	4.875e-05	5.0476e-05	343.61	129.8	120.08	46.574	4.9402e-05	57.489	140.157	-139.779	32.971	-161.566	-78.213	13.665	-163.040	-156.647	0.037	82.519	-158.409	-154.190	-152.315	-146.863	-136.382	-149.226	-8191	255	
58745.816	1	1	0	0	0.12985	0.24646	0.057756	0.032966	0.088062	0.17805	0.09799	0.20438	0.18461	0.064606	0.01996	0.19822	0.12013	0.20608	0.023027	0.13251	-4.0396	-3.6	-3.7542	-4.3229	-3.4333	-4.0771	-4.0729	-3.55	-4.3708	-3.5958	-3.6875	-4.4958	-3.6083	-4.1375	-4.0938	-3.4917	-29.199	24.001	89.128	15.073	119.365	-15.193	102.829	-150.817	-134.809	-92.944	-110.734	-102.679	-98.288	150.053	109.913	-11.593	0.00074349	0.00073533	0.00019396	860.99	4.1773e-06	3.6555e-06	734.6	332.16	6.5221e-06	4.4794e-06	314.75	120.51	109.97	42.939	8.1992e-06	52.698	0.0039811	0.0045479	0.001266	908.88	4.7805e-05	4.9699e-05	785.21	351.54	4.779e-05	4.9636e-05	345.49	130.23	119.83	46.657	4.8407e-05	57.898	134.519	-67.366	-61.240	-161.521	-149.514	-2.898	-162.888	-156.626	-87.181	85.919	-158.431	-154.556	-152.499	-146.719	129.738	-149.174	-8191	255	
58745.934	1	1	0	0	0.19529	0.13536	0.05892	0.071189	0.1345	0.0069922	0.14326	0.12162	0.19437	0.11711	0.14737	0.22951	0.39052	0.099905	0.14739	0.03132	-3.7604	-3.725	-3.6729	-4.4125	-3.4688	-3.9521	-4.2708	-3.5083	-4.3167	-3.8771	-3.6896	-4.3833	-3.6375	-3.7271	-4.0667	-3.4062	132.202	3.375	80.111	-143.196	-140.928	-13.014	-155.854	147.604	128.686	18.762	-125.581	163.673	152.575	-81.439	79.383	-140.623	0.0010401	0.0003287	0.00014674	865.95	1.3386e-05	8.5537e-06	735.81	333.11	3.6015e-06	3.404e-06	319.85	120.28	110.22	43.266	3.8371e-06	53.294	0.0039602	0.0045488	0.0012663	911.47	4.8297e-05	5.0787e-05	789.61	352.12	4.8778e-05	5.101e-05	346.69	131	120.24	46.982	4.8869e-05	58.368	156.362	-157.208	-120.346	-161.439	-83.866	-83.890	-163.011	-156.459	-61.891	-24.152	-158.545	-153.918	-152.289	-146.545	136.646	-149.419	-8191	255	
58746.031	1	1	0	0	0.089782	0.07086	0.10247	0.18649	0.17291	0.14606	0.10353	0.33399	0.19187	0.17094	0.29929	0.23078	0.12684	0.25878	0.21276	0.45568	-4.0813	-3.8792	-3.4562	-4.375	-3.6458	-3.6729	-4.2604	-3.5812	-4.0708	-3.9062	-3.45	-4.1542	-3.6833	-3.7562	-4.2875	-3.5812	92.463	58.202	166.913	-147.643	-147.005	127.373	122.182	136.500	155.500	99.287	153.204	140.454	144.122	-23.824	109.406	137.295	0.0010657	0.00049583	8.0595e-05	860.49	9.2901e-06	5.3484e-06	735.48	330.93	4.3219e-06	7.4563e-06	315.63	120.55	110.13	43.235	4.0304e-06	53.253	0.0040246	0.0045915	0.0012758	909.35	4.8293e-05	5.016e-05	788.85	350.4	4.8835e-05	5.0296e-05	344.52	130.54	120.23	46.938	4.8629e-05	58.263	140.237	-100.691	-113.976	-161.586	-70.106	-34.671	-163.008	-156.642	-25.774	-107.774	-158.568	-154.130	-152.320	-146.445	-29.416	-149.592	-8191	255	
58746.129	1	1	0	0	0.011631	0.076691	0.19407	0.20865	0.056616	0.15828	0.11875	0.39589	0.15842	0.23653	0.12833	0.19939	0.32241	0.11255	0.29531	0.10274	-3.6625	-4.0104	-3.5	-4.4271	-3.7104	-3.7958	-4.4437	-3.4583	-3.925	-4.1042	-3.4604	-4.2979	-3.9208	-3.5667	-4.2146	-3.4417	16.914	-127.841	-122.344	74.365	-58.853	36.482	158.072	184.707	-147.981	10.041	155.344	155.188	139.120	-29.385	17.634	-154.476	0.0010485	0.00058555	0.00019585	859.93	7.9538e-06	5.3999e-06	742.85	330.69	5.8231e-06	1.0537e-05	315.73	121.08	110.7	43.194	8.1455e-06	53.419	0.0039666	0.0045167	0.0012453	905.64	4.7664e-05	4.9182e-05	787.83	350.31	4.8034e-05	4.915e-05	344.54	130.84	120.44	46.998	4.7274e-05	58.329	139.579	160.684	-120.595	-161.293	153.517	-56.388	-163.144	-156.742	67.615	-35.422	-158.518	-154.007	-151.903	-146.686	-83.267	-149.125	-8191	255	
58746.223	1	1	0	0	0.26395	0.15134	0.077629	0.10998	0.22297	0.26868	0.16365	0.12023	0.15299	0.28817	0.14625	0.22241	0.034095	0.041364	0.1261	0.11602	-3.5792	-4.0792	-3.2917	-4.4833	-3.7146	-3.4458	-4.225	-3.4333	-3.6979	-4.2583	-3.4188	-4.2063	-3.9042	-3.625	-4.2958	-3.6937	-85.006	65.692	62.025	-155.492	-70.126	108.316	168.817	21.656	37.615	-65.089	-3.804	167.751	114.727	36.525	-147.514	37.783	0.00087985	0.00040647	0.00027714	860.37	1.2069e-05	1.1958e-05	739.85	333.16	9.7606e-06	8.5526e-06	318.23	121.97	110.53	43.521	6.2998e-06	53.938	0.0039026	0.0044537	0.0012236	908.47	4.7543e-05	4.9047e-05	790.56	351.02	4.836e-05	4.9721e-05	346.11	131.68	120.41	47.252	4.7916e-05	58.906	146.034	115.011	-125.610	-161.420	-67.429	-20.102	-162.933	-156.479	-36.327	-38.521	-157.966	-154.281	-152.183	-146.214	-17.575	-149.148	-8191	255	
58746.320	1	1	0	0	0.092739	0.10447	0.23453	0.29743	0.179	0.11656	0.15205	0.21839	0.02543	0.17844	0.07441	0.23549	0.25117	0.047049	0.029055	0.061	-3.4042	-4.1104	-3.4958	-4.1104	-3.9646	-3.4792	-4.4479	-3.5917	-3.6042	-4.2229	-3.5479	-3.9729	-4.05	-3.5625	-4.3104	-3.9271	185.060	157.105	79.607	103.509	146.820	-126.611	159.167	137.651	-41.931	-155.159	4.934	163.887	175.434	-174.680	-43.150	10.942	0.00061203	0.00060468	0.00018356	861.55	4.3989e-06	1.1698e-05	741.99	331.94	4.1276e-06	1.4303e-05	316.75	121.93	110.78	43.704	4.0085e-06	54.139	0.0039577	0.0044477	0.001233	909.03	4.7223e-05	4.8534e-05	792.07	350.76	4.7017e-05	4.8795e-05	346.78	132.06	120.61	47.387	4.6925e-05	59.083	130.964	-125.757	-154.724	-161.472	-70.991	-68.260	-162.830	-156.726	-27.812	-34.331	-158.453	-154.475	-152.284	-146.640	-121.797	-148.904	-8191	255	
58746.414	1	1	0	0	0.15737	0.15692	0.12487	0.12955	0.10324	0.088738	0.093994	0.25188	0.048198	0.20378	0.27892	0.41581	0.17475	0.037041	0.31411	0.091385	-3.4208	-4.1896	-3.2854	-4.0396	-4.0042	-3.2687	-4.3	-3.75	-3.5792	-4.4354	-3.5021	-3.8979	-4.1562	-3.4521	-4.1229	-3.8521	-122.306	-25.303	148.611	165.425	92.684	-173.042	42.915	174.373	37.903	-80.003	-110.359	175.797	117.339	-142.344	-10.907	82.287	0.00087325	0.0005816	0.00020619	857.3	6.9632e-06	1.2413e-05	740.26	330.63	6.0243e-06	1.3405e-05	319.08	122.4	110.64	43.707	1.2796e-05	54.238	0.0037932	0.0042836	0.0011938	904.81	4.5536e-05	4.642e-05	787.32	349.82	4.4653e-05	4.6659e-05	345.72	131.88	120.23	47.135	4.533e-05	58.952	143.926	-33.963	183.877	-161.286	-10.903	-93.768	-163.005	-156.512	-113.357	9.313	-158.714	-153.990	-152.348	-146.363	-85.875	-149.235	-8191	255	
58746.535	1	1	0	0	0.063455	0.11579	0.066146	0.28597	0.22164	0.093908	0.24963	0.12831	0.030714	0.10643	0.053738	0.1194	0.10469	0.24649	0.25868	0.16035	-3.0563	-4.35	-3.4146	-4.1146	-4.1	-3.4604	-4.3625	-4.0062	-3.4688	-4.3104	-3.7646	-3.7667	-4.2625	-3.4792	-3.8833	-4.0167	99.471	151.584	115.417	169.143	-169.967	-106.968	72.354	-129.250	22.304	-66.972	-127.265	54.194	-91.912	89.468	120.675	98.611	0.00093412	0.00053191	0.00024334	860.58	4.2957e-06	2.4727e-06	735.68	333.48	8.0776e-06	8.9921e-06	320.6	122.65	111.45	43.73	8.0468e-06	53.937	0.0036472	0.0041363	0.0011707	903.39	4.3802e-05	4.5061e-05	785.79	349.66	4.3321e-05	4.4713e-05	346.35	131.66	120.33	47.176	4.3859e-05	58.791	139.730	180.364	-78.269	-161.427	0.313	-168.385	-163.133	-156.371	-94.770	-56.998	-158.384	-154.624	-152.229	-146.443	-95.050	-148.803	-8191	255	
58746.633	1	1	0	0	0.096743	0.11704	0.2661	0.20233	0.058316	0.13474	0.11029	0.18341	0.23385	0.11523	0.24806	0.12351	0.24188	0.11488	0.23475	0.23342	-3.0438	-4.2646	-3.5375	-3.6813	-4.0521	-3.3312	-3.9708	-4.0604	-3.2188	-4.3479	-3.8375	-3.6604	-4.1937	-3.5167	-3.8333	-4.1292	121.111	-23.386	-143.041	-153.571	-9.471	-122.286	133.143	143.770	145.481	152.447	141.632	166.876	154.718	31.272	41.827	-60.204	0.00098108	0.00043043	9.2526e-05	860.76	6.8859e-06	7.5056e-06	746.09	335.22	1.0295e-05	4.0448e-06	319.2	123.13	112.45	43.716	8.2453e-06	54.384	0.0035183	0.0040407	0.0011324	904.34	4.2483e-05	4.3611e-05	790.69	351	4.2128e-05	4.4011e-05	347.06	132.16	120.71	47.24	4.3549e-05	59.175	140.668	-43.960	-117.833	-161.686	6.879	49.055	-163.092	-156.479	-61.038	63.700	-158.272	-154.340	-152.347	-146.312	181.820	-149.177	-8191	255	
58746.727	1	1	0	0	0.17518	0.21512	0.31864	0.12879	0.19472	0.19125	0.091826	0.19204	0.17721	0.17998	0.041471	0.20401	0.15751	0.1573	0.090076	0.059211	-3.1354	-4.1542	-3.8292	-3.6021	-4.2167	-3.325	-4.0083	-4.2937	-3.2687	-4.125	-3.9375	-3.5208	-4.3083	-3.7042	-3.7896	-4.3208	-46.409	20.255	184.851	171.365	-5.516	22.692	73.663	170.774	-53.314	48.782	69.913	100.011	127.741	73.528	183.583	82.462	0.00086882	0.00045659	0.00022571	862.83	3.7356e-06	5.5569e-06	745.16	333.91	6.1503e-06	3.883e-06	321.63	123	112.39	43.892	3.883e-06	54.312	0.0034853	0.0040169	0.0011266	906.37	4.2273e-05	4.4435e-05	791.15	351.69	4.2599e-05	4.5021e-05	347.35	132.25	120.78	47.311	4.413e-05	58.973	137.255	26.279	-41.450	-161.554	-161.479	-111.782	-163.032	-156.369	167.899	156.760	-158.220	-154.370	-152.421	-146.601	-19.350	-149.054	-8191	255	
58746.824	1	1	0	0	0.10152	0.1355	0.10846	0.2383	0.1595	0.11273	0.24692	0.16436	0.012606	0.082129	0.15124	0.19068	0.37301	0.11403	0.1964	0.13109	-2.9	-4.2562	-4.1229	-3.5833	-4.4292	-3.6042	-3.6458	-4.5	-3.3521	-3.9896	-4.05	-3.4771	-4.3021	-3.7021	-3.5958	-4.1562	55.743	9.427	153.980	-139.956	50.370	-28.116	96.311	109.798	3.519	40.044	173.834	-100.851	-146.617	167.884	-143.912	83.794	0.00096259	0.00088732	7.5706e-05	861	1.0817e-05	1.8388e-06	741.93	333.82	9.6977e-06	6.7759e-06	320	121.83	111.43	43.624	4.9953e-06	53.558	0.0035808	0.0041455	0.0011492	905.91	4.3733e-05	4.5574e-05	787.63	350.57	4.4061e-05	4.599e-05	345.91	131.61	120.38	47.215	4.5367e-05	58.691	140.770	-108.806	-4.424	-161.730	-50.391	-44.085	-163.063	-156.356	-31.591	22.851	-158.915	-154.368	-152.176	-146.522	-104.819	-148.885	-8191	255	
58746.918	1	1	0	0	0.10191	0.11147	0.01538	0.094114	0.29331	0.16435	0.065765	0.0422	0.16382	0.32085	0.094243	0.065831	0.15436	0.19268	0.11505	0.2587	-3.0021	-4.1	-4.175	-3.6167	-4.3125	-3.7792	-3.75	-4.3146	-3.4375	-3.9437	-4.1771	-3.4792	-4.1771	-3.9062	-3.5187	-4.1979	147.932	-67.281	-66.605	162.630	143.856	163.704	-115.095	13.570	-59.035	-65.856	-144.106	-70.425	69.549	-138.831	100.973	-165.704	0.00087923	0.00054718	0.00011696	860	3.3847e-06	8.8941e-06	736.79	332.88	5.0367e-06	1.3442e-06	318.5	121.9	110.56	43.579	4.8762e-06	53.903	0.0037264	0.0042926	0.0011948	902.86	4.5638e-05	4.7187e-05	785.77	350.05	4.5644e-05	4.764e-05	345.09	131.51	120.17	47.147	4.5333e-05	58.729	134.656	-66.634	165.793	-161.554	-153.199	114.813	-162.953	-156.717	-82.805	-90.750	-158.507	-154.093	-152.247	-146.294	-90.235	-149.074	-8191	255	
58747.016	1	1	0	0	0.058395	0.028867	0.20408	0.10342	0.12562	0.055435	0.21331	0.049571	0.26215	0.10404	0.21277	0.21188	0.20071	0.085516	0.35468	0.10118	-2.95	-3.7146	-4.1833	-3.4437	-4.1354	-3.8396	-3.5479	-4.3396	-3.4667	-3.7313	-4.175	-3.2562	-4.2271	-3.9313	-3.4104	-4.3938	2.437	-116.914	-47.493	160.415	-61.067	20.362	152.001	-3.893	-47.968	-109.613	97.949	100.735	161.047	120.212	-64.677	130.860	0.0010076	0.00086454	7.195e-05	855.96	6.6343e-06	5.9885e-06	746.81	330.15	1.354e-05	1.0649e-05	318.67	122.57	111.3	43.633	1.0436e-05	53.977	0.003765	0.0042733	0.00118	901.45	4.5561e-05	4.6381e-05	788.17	349.76	4.5408e-05	4.6562e-05	345.97	131.5	120.38	47.086	4.4945e-05	58.823	146.806	-76.067	53.455	-161.735	-96.377	84.195	-163.013	-156.368	-52.428	-18.601	-158.211	-154.154	-152.160	-146.314	153.338	-148.969	-8191	255	
58747.113	1	1	0	0	0.12711	0.31898	0.088307	0.085586	0.21553	0.076583	0.065302	0.33165	0.12591	0.069808	0.15673	0.27615	0.18561	0.0088477	0.27345	0.11742	-3.2083	-3.625	-4.1813	-3.5667	-4.0542	-4.0354	-3.6854	-4.2354	-3.6979	-3.5792	-4.3562	-3.3688	-3.9958	-3.9813	-3.5354	-4.4146	140.358	-16.697	38.168	-90.141	-108.181	176.674	96.977	164.402	-31.806	-88.111	-159.470	185.154	42.083	179.915	-154.384	111.972	0.00085216	0.00076247	0.00013633	859.88	1.0149e-05	5.7679e-06	739.51	330.84	4.1937e-06	3.8596e-06	319.5	121.19	110.97	43.444	7.2611e-06	53.693	0.0037311	0.0042357	0.0011756	902.68	4.5534e-05	4.6637e-05	785.08	349.36	4.5443e-05	4.6339e-05	344.98	130.85	119.99	47.003	4.4851e-05	58.523	143.865	-131.402	-137.995	-161.509	-36.487	4.752	-163.260	-156.686	-94.934	-50.189	-158.332	-154.156	-152.287	-146.719	-35.231	-149.121	-8191	255	
58747.230	1	1	0	0	0.094332	0.19586	0.3031	0.19564	0.19569	0.19441	0.091232	0.11412	0.060729	0.15982	0.21391	0.26157	0.099663	0.32091	0.09829	0.16986	-3.3563	-3.5729	-4.2792	-3.4333	-3.7979	-4.1042	-3.4667	-4.1667	-3.7521	-3.4271	-4.2937	-3.6708	-4.0104	-4.2125	-3.4958	-4.2	-4.833	179.421	123.851	160.010	128.562	184.413	13.516	55.858	-105.247	-84.040	79.432	128.400	-4.128	-149.484	-79.210	52.503	0.0010256	0.00081196	0.00024315	857.74	3.8097e-06	1.0575e-05	738.16	329.7	5.9079e-06	4.3858e-06	315.95	121	110.71	43.506	2.1414e-06	53.91	0.0037267	0.0041931	0.001167	901.67	4.4618e-05	4.6073e-05	783.1	348.67	4.5024e-05	4.6125e-05	343.08	130.9	119.53	46.931	4.4314e-05	58.668	139.373	179.893	104.604	-161.590	-9.887	-50.052	-163.111	-156.592	44.098	6.009	-158.346	-154.157	-152.567	-146.538	-54.519	-149.000	-8191	255	
58747.328	1	1	0	0	0.092603	0.21391	0.19077	0.26172	0.12656	0.25451	0.18119	0.32683	0.029263	0.087393	0.17798	0.15155	0.12009	0.084901	0.13609	0.23882	-3.4313	-3.5917	-4.2958	-3.5563	-3.7042	-4.2979	-3.6437	-4.3375	-3.7833	-3.4	-4.5167	-3.7333	-3.8479	-4.3562	-3.4437	-4.1479	-62.487	-38.459	103.804	180.083	-174.094	131.156	150.752	118.715	-131.184	-21.340	155.691	-143.421	105.986	-22.070	58.247	161.621	0.0009922	0.0004369	0.00023199	856.67	1.6513e-05	1.5527e-07	738.98	330.6	1.0688e-05	7.978e-06	318.47	121.87	110.24	43.352	4.0291e-06	54.087	0.0036182	0.0040849	0.0011492	900.03	4.3021e-05	4.4695e-05	782.92	349.03	4.3408e-05	4.4302e-05	344.53	131.04	119.53	46.839	4.3427e-05	58.834	143.224	110.390	-70.433	-161.200	-32.680	175.370	-163.256	-156.686	-19.841	42.842	-158.249	-154.127	-152.293	-146.417	124.105	-149.145	-8191	255	
58747.398	1	1	0	0	0.16565	0.077365	0.16011	0.15377	0.26916	0.094438	0.26124	0.11822	0.22309	0.20996	0.28837	0.24342	0.047632	0.22699	0.19137	0.16266	-3.7917	-3.1708	-4.2229	-3.7708	-3.6063	-4.3042	-3.5604	-3.9646	-4.1396	-3.4042	-4.4521	-3.7188	-3.6125	-4.3417	-3.2854	-4.0271	152.086	40.042	131.909	164.033	14.057	141.975	53.827	165.712	-54.430	-101.667	124.317	115.655	-68.736	180.899	-131.615	-60.096	0.0010538	0.0010746	0.00029256	858.49	1.095e-05	7.5693e-06	745.76	332.06	1.0678e-05	1.7293e-05	319.63	122.36	110.73	43.633	4.0806e-06	54.248	0.0035419	0.0040009	0.0011289	901.66	4.2382e-05	4.3682e-05	789.1	349.49	4.2769e-05	4.388e-05	345.79	131.5	119.51	47.007	4.3352e-05	58.854	144.670	-107.593	-62.075	-161.348	-77.289	75.655	-163.059	-156.439	-94.888	0.200	-158.542	-154.221	-152.519	-146.574	19.411	-149.040	-8191	255	
58747.496	1	1	0	0	0.097784	0.081587	0.058114	0.21235	0.047227	0.049212	0.07125	0.11251	0.15867	0.20598	0.33724	0.16103	0.30549	0.22642	0.13517	0.040539	-3.8229	-3.1958	-4.0104	-3.8896	-3.2854	-4.225	-3.5583	-3.975	-3.9792	-3.3688	-4.1667	-4.1604	-3.5729	-4.3438	-3.4729	-3.65	58.461	-126.624	-129.191	89.865	-3.246	51.547	68.490	162.737	-81.273	177.553	131.453	80.985	130.735	171.442	28.695	-43.265	0.00080057	0.00029989	0.00021771	863.09	7.5965e-06	4.4771e-06	740.56	333.43	9.3638e-06	4.4399e-06	320.31	122.09	111.5	43.451	1.7324e-05	53.749	0.0034796	0.0039435	0.0011337	901.84	4.1927e-05	4.3956e-05	786.48	349.25	4.2376e-05	4.4208e-05	344.66	130.83	119.53	46.91	4.3877e-05	58.578	134.069	-79.105	-141.374	-161.476	-171.279	126.746	-163.075	-156.641	-79.551	16.269	-158.437	-154.253	-152.570	-146.789	-91.207	-149.315	-8191	255	
58747.617	1	1	0	0	0.2015	0.09488	0.19986	0.16783	0.1663	0.13005	0.2602	0.16244	0.027448	0.22448	0.12343	0.1287	0.13822	0.12807	0.34005	0.11047	-3.9792	-3.3167	-4.0437	-4.1292	-3.4417	-4.3812	-3.8312	-3.8854	-4.3271	-3.2875	-4.175	-4.1729	-3.3396	-4.1813	-3.7083	-3.6437	175.594	-154.141	-0.123	145.599	-46.515	9.076	111.922	142.750	15.818	111.097	-41.435	-103.373	171.456	-138.170	6.117	-102.930	0.00074787	0.00099337	0.00025507	860.84	8.3708e-06	2.5791e-06	738.2	331.89	7.6245e-06	6.9686e-06	318.11	121.9	110.72	43.421	1.1249e-05	53.573	0.0035508	0.0040767	0.0011377	902.27	4.1992e-05	4.4504e-05	785.09	348.71	4.2691e-05	4.4905e-05	344.76	131.04	119.53	46.87	4.3819e-05	58.453	143.090	-122.957	-117.408	-161.340	-109.988	115.051	-162.734	-156.462	-39.159	-57.402	-158.451	-154.108	-152.742	-146.371	-123.623	-149.261	-8191	255	
58747.711	1	1	0	0	0.19933	0.19565	0.1901	0.14444	0.28648	0.27884	0.10797	0.086973	0.1675	0.058197	0.064437	0.19942	0.24316	0.11571	0.25614	0.031377	-3.7646	-3.3063	-3.8146	-4.0583	-3.5	-4.2125	-3.6896	-3.6312	-4.2438	-3.3458	-3.8208	-4.2438	-3.2438	-4.225	-3.7854	-3.5812	-140.803	-88.288	35.903	-129.701	63.194	-77.698	8.226	-124.466	-42.170	-67.602	17.911	128.957	-44.683	-123.199	65.034	40.712	0.00088704	0.00071399	0.00010675	860	3.4403e-06	7.4473e-06	743.34	332.03	3.1899e-06	3.1759e-06	318.62	121.16	111.22	43.466	1.0993e-05	53.93	0.0035726	0.0041151	0.0011515	902.43	4.2901e-05	4.5765e-05	787.6	349.52	4.3503e-05	4.5584e-05	345.5	131.16	119.72	46.955	4.4402e-05	58.672	139.875	-134.078	-22.734	-161.205	-55.006	-40.806	-163.107	-156.721	116.531	40.821	-158.523	-153.973	-152.467	-146.525	-18.130	-149.214	-8191	255	
58747.809	1	1	0	0	0.24303	0.060069	0.1124	0.189	0.2416	0.080293	0.17533	0.10603	0.1595	0.13596	0.12956	0.14056	0.26823	0.075241	0.12439	0.14377	-4.0687	-3.5583	-3.7333	-4.1292	-3.35	-4.0458	-3.9396	-3.5938	-4.2896	-3.4458	-3.7292	-4.3875	-3.3521	-4.1708	-3.9938	-3.4792	9.297	81.308	61.177	86.369	-71.015	-80.850	90.158	146.512	-31.108	-49.969	27.362	171.729	81.031	6.772	57.489	-173.890	0.0010182	0.00040172	0.00023198	860.18	1.6011e-06	4.945e-06	746.42	332.91	1.9239e-05	4.4695e-06	320.79	122.45	111.43	43.29	6.6143e-06	53.734	0.0036084	0.004147	0.0011534	904.91	4.3805e-05	4.6253e-05	789.95	350.33	4.4713e-05	4.616e-05	346.13	131.73	120.1	46.926	4.5282e-05	58.648	136.321	-80.684	-164.277	-161.312	-152.271	57.226	-162.906	-156.395	-61.961	-17.173	-158.520	-153.705	-152.053	-146.556	-59.003	-149.142	-8191	255	
58747.902	1	1	0	0	0.27883	0.037144	0.22857	0.16343	0.1967	0.055525	0.18918	0.21486	0.12366	0.14378	0.12977	0.25798	0.11295	0.17214	0.13163	0.15862	-3.8542	-3.5875	-3.6833	-4.3354	-3.5271	-4.025	-4.1125	-3.4396	-4.2875	-3.7042	-3.6667	-4.2708	-3.5812	-4.0563	-3.9625	-3.3417	-157.714	-171.018	48.415	139.826	-115.460	55.453	-17.838	153.666	-114.598	-127.512	144.524	63.914	60.494	177.038	-147.398	152.587	0.0010848	0.00059479	0.00017217	858.88	4.2275e-06	8.8105e-06	737.69	332.32	7.1231e-06	9.5339e-06	317.76	121.6	110.65	43.397	1.3793e-05	53.533	0.0037569	0.0042705	0.0011861	903.92	4.4915e-05	4.6521e-05	785.26	349.61	4.5271e-05	4.6268e-05	344.01	130.69	119.82	46.779	4.4509e-05	58.295	137.217	-91.930	-60.595	-161.331	-91.937	-11.758	-163.044	-156.673	-74.253	-22.378	-158.623	-154.520	-152.181	-146.688	-44.324	-149.373	-8191	255	
58748.023	1	1	0	0	0.17832	0.064102	0.14994	0.20603	0.11051	0.099608	0.10877	0.24516	0.067423	0.14974	0.18145	0.36555	0.17859	0.15858	0.10872	0.11091	-3.725	-3.6063	-3.5083	-4.3875	-3.5521	-3.7854	-4.3292	-3.5458	-4.1854	-3.8	-3.6375	-4.2688	-3.5292	-3.8458	-4.2979	-3.3854	66.132	9.924	-139.874	-49.374	-59.414	3.070	162.284	83.704	-123.121	147.521	-18.962	119.587	99.945	172.516	102.463	111.260	0.0010131	0.00020488	0.0001231	860.06	6.039e-06	9.0264e-06	741.19	332.43	4.4383e-06	6.9257e-06	318.2	121.71	109.89	42.877	6.855e-06	53.493	0.0037243	0.0041975	0.0011541	904.19	4.4822e-05	4.6632e-05	787.57	349.75	4.598e-05	4.741e-05	344.64	131.03	119.64	46.698	4.5335e-05	58.402	133.487	179.084	-65.108	-161.353	60.173	-67.794	-162.998	-156.524	-36.713	-112.405	-158.597	-154.480	-152.101	-146.718	-125.846	-148.835	-8191	255	
58748.098	1	1	0	0	0.066844	0.28543	0.023506	0.098418	0.019172	0.34287	0.2229	0.17964	0.19926	0.21501	0.17738	0.1328	0.21552	0.15368	0.22813	0.2575	-3.7667	-3.9354	-3.4854	-4.3146	-3.5229	-3.5875	-4.5125	-3.5146	-4.0479	-4.0667	-3.3833	-4.3854	-3.5958	-3.6937	-4.2708	-3.5917	160.813	113.437	-51.880	-113.408	71.842	65.571	181.083	-167.021	118.831	48.983	-157.416	-168.929	-47.973	-80.272	113.329	171.476	0.00094373	0.00039927	0.00016564	860.22	6.7329e-06	1.0004e-05	739.51	331.84	1.3303e-05	1.0943e-05	319.88	121.83	110.46	43.122	6.6697e-06	53.869	0.0037604	0.0042132	0.001166	905.47	4.4785e-05	4.6101e-05	789.05	349.95	4.5491e-05	4.6751e-05	346.46	131.58	119.87	46.779	4.5489e-05	58.689	140.457	180.877	-110.193	-161.600	-17.220	-69.252	-162.644	-156.436	-40.672	42.510	-158.369	-154.335	-152.448	-146.476	112.138	-149.141	-8191	255	
58748.215	1	1	0	0	0.12091	0.058863	0.04065	0.2114	0.30275	0.079689	0.23387	0.23796	0.10524	0.073556	0.12622	0.32661	0.17164	0.069019	0.27972	0.30178	-3.6042	-4.0208	-3.4292	-4.3625	-3.7083	-3.5938	-4.1542	-3.6396	-3.975	-3.9917	-3.4104	-4.3979	-3.8458	-3.5312	-4.1479	-3.6021	94.984	-63.579	-93.974	-151.317	155.143	155.563	111.808	176.949	-141.012	-109.719	-156.124	117.184	100.857	118.376	-4.313	152.725	0.00083058	0.00027865	0.0003295	862.81	3.2681e-06	8.4234e-06	742.77	332.02	7.4961e-06	3.1341e-06	320.21	121.38	111.15	43.129	6.4902e-06	53.726	0.0037409	0.004229	0.001168	906.41	4.4922e-05	4.6058e-05	790.78	350.23	4.5219e-05	4.6308e-05	345.47	131.31	119.86	46.699	4.546e-05	58.465	142.726	174.111	-4.187	-161.172	61.638	-23.002	-162.998	-156.483	-84.125	69.326	-158.465	-154.031	-152.328	-146.583	-143.919	-149.253	-8191	255	
58748.312	1	1	0	0	0.09424	0.088641	0.059511	0.16187	0.095451	0.26606	0.33776	0.071569	0.21514	0.1327	0.23112	0.11833	0.068015	0.1825	0.14291	0.25585	-3.5208	-4.1208	-3.1667	-4.3562	-3.8958	-3.4062	-4.425	-3.775	-3.7521	-4.1333	-3.4021	-4.2312	-4.0208	-3.3688	-4.1417	-3.5875	10.697	-60.284	138.381	181.417	137.993	-65.723	157.252	37.665	-112.019	101.859	157.474	-30.789	25.645	-170.817	12.498	96.702	0.00083969	6.4597e-05	0.00013285	861.05	3.3808e-06	8.0569e-06	736.05	332.29	4.6318e-06	5.6542e-06	318.63	120.85	110.59	43.113	9.7551e-06	53.297	0.0036794	0.0041495	0.0011753	907.1	4.443e-05	4.5752e-05	787.13	350.12	4.4787e-05	4.6514e-05	344.82	130.97	119.88	46.556	4.6161e-05	58.252	133.552	154.290	-127.715	-161.370	-82.472	5.596	-162.777	-156.338	-137.041	10.309	-158.515	-154.175	-152.318	-146.369	-98.306	-149.258	-8191	255	
58748.410	1	1	0	0	0.21995	0.16406	0.14744	0.14313	0.2416	0.084445	0.063424	0.089694	0.29072	0.076697	0.2548	0.07176	0.16854	0.16062	0.13154	0.14322	-3.4271	-4.1792	-3.3812	-4.2042	-4.0188	-3.3104	-4.5167	-3.7417	-3.5896	-4.4187	-3.5229	-3.9417	-4.2	-3.4875	-4.2562	-3.9437	-74.363	-136.496	99.726	-107.376	-77.664	167.245	35.729	-155.461	-77.660	-162.273	35.253	-67.862	133.083	96.183	83.079	113.135	0.00081107	0.00091865	2.9833e-05	860.65	5.2741e-06	4.2115e-06	745.51	332.23	9.2744e-06	1.4893e-05	316.71	121.32	109.97	43.168	8.5133e-06	53.119	0.0037196	0.0041922	0.0011892	905.46	4.4788e-05	4.6314e-05	789.84	350.42	4.522e-05	4.7342e-05	345.46	131.27	119.51	46.724	4.7148e-05	58.392	151.922	-95.356	166.083	-161.643	74.647	-36.094	-162.676	-156.715	-60.439	12.962	-158.328	-154.341	-151.974	-146.669	-146.790	-149.016	-8191	255	
58748.504	1	1	0	0	0.0093677	0.12673	0.1047	0.26728	0.11749	0.1544	0.29889	0.25562	0.033599	0.20772	0.096763	0.1568	0.19016	0.1008	0.20488	0.14858	-3.3438	-4.1375	-3.4813	-3.8417	-4.0542	-3.425	-4.2188	-3.9479	-3.3729	-4.3542	-3.5687	-3.7604	-4.2458	-3.4896	-4.1271	-4.1083	101.720	9.025	-149.167	154.531	-105.618	-168.537	84.553	-173.893	-56.961	141.570	76.009	-139.087	52.434	-72.796	27.528	92.881	0.00083875	0.00063719	0.00023636	858.54	3.3224e-06	1.9258e-06	746.03	332.28	3.4459e-06	7.153e-07	318.42	121.58	110.31	43.046	5.4179e-06	53.521	0.0037234	0.0043281	0.0012162	906.43	4.5407e-05	4.7344e-05	790.24	350	4.562e-05	4.7858e-05	345.91	131.34	119.79	46.753	4.7358e-05	58.547	147.070	-0.352	-107.808	-161.184	-132.776	-70.341	-163.025	-156.457	49.750	-21.377	-158.332	-154.604	-152.309	-146.628	113.592	-149.142	-8191	255	
58748.625	1	1	0	0	0.071153	0.13953	0.17326	0.10105	0.13398	0.088791	0.22832	0.26157	0.10785	0.27425	0.081857	0.079051	0.20099	0.17161	0.16182	0.051702	-3.0979	-4.3187	-3.5687	-3.9167	-4.1521	-3.575	-4.1729	-4.0646	-3.2771	-4.3167	-3.6396	-3.6813	-4.2583	-3.5146	-3.9542	-3.9958	-21.440	46.376	-13.826	-168.388	55.374	86.457	7.620	128.837	158.287	-63.019	56.489	-67.489	93.358	-163.633	127.248	163.069	0.00064992	0.00026822	0.00025005	857.72	8.4554e-06	1.3956e-05	738.17	331	1.1931e-05	9.3876e-06	316.04	121.22	110.4	42.893	1.8872e-06	52.994	0.0037485	0.0044001	0.0012148	904.61	4.6153e-05	4.8294e-05	786.99	349.86	4.6218e-05	4.8986e-05	344.54	130.52	119.58	46.645	4.7939e-05	58.236	135.874	-4.488	-64.636	-161.596	-91.317	-54.753	-163.075	-156.551	-85.299	-11.673	-158.396	-154.366	-152.195	-146.520	-136.204	-149.021	-8191	255	
58748.695	1	1	0	0	0.061495	0.23524	0.4163	0.20485	0.055703	0.14356	0.14633	0.18994	0.1002	0.067691	0.18704	0.10845	0.11707	0.10796	0.095074	0.11949	-3.2625	-4.1625	-3.4271	-3.6042	-4.1396	-3.6104	-4.0771	-4.2063	-3.3875	-4.2375	-3.9625	-3.6167	-4.3167	-3.5187	-3.9625	-4.2063	112.167	-65.965	-70.542	99.724	-112.753	-148.602	-151.626	115.062	-80.938	-9.775	71.437	167.249	137.848	171.971	33.316	1.644	0.00098908	0.00057028	8.6887e-05	852.94	1.6833e-06	6.4453e-06	730.06	328.02	1.0403e-05	1.5518e-05	315.64	119.9	109.11	42.609	9.5564e-06	53.053	0.0038533	0.0045346	0.0012527	898.73	4.7869e-05	4.9922e-05	782.13	347.76	4.8106e-05	5.0929e-05	342.78	129.69	119.07	46.539	4.9048e-05	58.183	140.809	-141.684	-18.884	-161.429	-40.355	-35.832	-163.089	-156.684	-44.710	-77.843	-158.821	-154.499	-152.452	-146.624	-106.218	-149.278	-8191	255	
58748.793	1	1	0	0	0.10238	0.13436	0.13067	0.16532	0.10713	0.03585	0.14338	0.17123	0.17437	0.12516	0.16334	0.17187	0.11975	0.17013	0.11189	0.11758	-3.2667	-4.0854	-3.7417	-3.5583	-4.2958	-3.4958	-3.8125	-4.2438	-3.2104	-4.1687	-4.1458	-3.4938	-4.4354	-3.625	-3.7521	-4.225	141.082	152.936	-95.847	50.937	-117.364	63.379	100.547	138.816	-32.084	-171.574	37.099	8.252	-59.235	90.879	-155.329	-53.381	0.00073293	0.00047173	0.00019237	846.98	5.8062e-06	3.8974e-06	725.36	328.68	1.0677e-05	3.2024e-06	313.53	118.57	109.06	42.372	3.6453e-06	52.752	0.004003	0.0046333	0.0012745	894.88	4.8417e-05	4.9821e-05	779.91	346.48	4.8431e-05	5.0296e-05	342.44	129.02	118.67	46.26	4.8128e-05	57.856	132.670	-39.608	-71.643	-161.510	138.917	88.678	-163.056	-156.631	-116.300	15.922	-158.272	-154.430	-152.532	-146.618	124.327	-149.217	-8191	255	
58748.887	1	1	0	0	0.079537	0.11722	0.056585	0.16614	0.063669	0.059317	0.10024	0.31991	0.15979	0.085564	0.16452	0.297	0.25019	0.17654	0.079475	0.16749	-3.0229	-4.1396	-4.0354	-3.4313	-4.1771	-3.5833	-3.6937	-4.2917	-3.4583	-4.2229	-4.3271	-3.5021	-4.3167	-3.7792	-3.5438	-4.3875	83.195	84.903	-65.755	-161.671	-173.373	48.690	-75.625	99.619	177.330	40.284	-92.163	107.542	156.094	154.671	-23.445	102.244	0.0010534	0.00040793	0.00017799	849.04	9.2418e-06	1.5691e-05	731.66	329.41	8.7816e-06	3.7694e-06	315.07	119.01	108.36	42.273	3.906e-06	52.873	0.0039707	0.0045313	0.0012437	897.09	4.7766e-05	4.9003e-05	780.55	347.24	4.7721e-05	4.9628e-05	342.16	129.22	118.46	46.173	4.7382e-05	57.823	139.046	23.918	-65.041	-161.473	22.973	3.760	-162.780	-156.519	-86.714	-51.872	-158.113	-154.572	-152.359	-146.309	159.395	-149.052	-8191	255	
58749.008	1	1	0	0	0.22209	0.12109	0.16968	0.21694	0.16965	0.23616	0.13134	0.11116	0.15154	0.31692	0.12619	0.24661	0.17828	0.17812	0.058861	0.33589	-3.1708	-3.8417	-4.0854	-3.3	-4.2833	-3.6625	-3.6271	-4.325	-3.4104	-3.725	-4.2333	-3.6208	-4.1646	-3.7875	-3.4813	-4.3229	140.719	-59.216	60.836	128.278	-174.026	-152.575	36.026	26.814	22.391	-28.775	125.869	61.511	-76.724	-150.856	83.380	93.506	0.00095932	0.00067045	0.00024192	846.46	1.0907e-05	3.7503e-06	722.12	325.81	4.1795e-06	3.6943e-06	312.09	117.89	108.5	42.262	1.7245e-06	52.671	0.0039577	0.0045154	0.0012412	894.83	4.853e-05	5.0008e-05	776.56	345.26	4.8749e-05	5.0063e-05	339.52	128.24	118.08	45.996	4.9041e-05	57.682	149.077	-47.083	-11.431	-161.402	-83.956	32.809	-162.978	-156.406	-39.972	-97.061	-158.227	-154.210	-152.292	-146.489	-7.791	-149.295	-8191	255	
58749.105	1	1	0	0	0.10407	0.11659	0.10085	0.13573	0.038782	0.16698	0.28895	0.081194	0.20541	0.17015	0.085941	0.22228	0.071856	0.16388	0.15837	0.053682	-3.1771	-3.7354	-4.1167	-3.5417	-4.0854	-3.9292	-3.4396	-4.3833	-3.3771	-3.5771	-4.2875	-3.2792	-4.2104	-3.8854	-3.2021	-4.325	94.225	-146.458	134.194	144.323	-169.191	5.681	134.498	-48.700	100.127	-143.956	183.178	18.516	135.523	-57.672	-134.807	7.270	0.00092336	0.00044182	0.00021646	841.81	1.8468e-06	7.5637e-06	722.48	326.03	1.2567e-05	6.383e-06	311.11	117.16	107.34	42.182	8.1992e-06	52.173	0.0040779	0.0045756	0.0012763	889.92	4.8908e-05	4.9734e-05	772.54	344.17	4.7892e-05	4.8871e-05	339.2	127.58	117.17	45.807	4.6761e-05	57.345	132.965	-72.731	-147.725	-161.389	-132.406	-42.046	-163.092	-156.223	-42.210	-28.773	-158.531	-154.307	-152.539	-146.616	-82.142	-149.082	-8191	255	
58749.199	1	1	0	0	0.20776	0.10126	0.054317	0.24114	0.097653	0.10949	0.039961	0.085782	0.13741	0.12508	0.025519	0.16483	0.13923	0.081084	0.44461	0.16414	-3.1188	-3.5812	-4.1542	-3.5167	-3.95	-4.1083	-3.3396	-4.4187	-3.5187	-3.5083	-4.3333	-3.4604	-3.9604	-4.125	-3.2729	-4.1625	-110.290	-130.491	30.464	170.271	-111.312	110.675	-40.203	155.423	-121.267	-166.652	93.254	116.957	132.077	149.141	-1.712	126.933	0.00101	0.00041793	8.7996e-05	843.74	6.1722e-06	8.352e-06	724.02	323.23	5.1042e-06	8.8094e-06	310.5	117.92	107.83	42.325	6.2926e-06	52.777	0.0038495	0.0043077	0.0012178	887.81	4.6533e-05	4.7533e-05	772.87	342.95	4.659e-05	4.7902e-05	338.83	127.77	117.16	45.861	4.7677e-05	57.687	138.034	67.492	148.604	-161.291	23.625	-52.846	-163.004	-156.362	-46.124	-112.446	-158.518	-154.330	-152.436	-146.513	-63.718	-149.074	-8191	255	
58749.297	1	1	0	0	0.12004	0.042725	0.29462	0.13247	0.15561	0.067749	0.22546	0.085058	0.05225	0.13954	0.15037	0.23052	0.07156	0.27569	0.20965	0.18551	-3.4604	-3.5417	-4.2562	-3.5625	-3.5438	-4.1771	-3.3083	-4.1667	-3.7354	-3.4167	-4.5021	-3.5187	-3.7625	-4.2	-3.3792	-4.1583	48.046	-117.054	99.700	-104.521	-54.570	109.556	110.749	-135.603	-20.057	51.403	51.665	101.363	96.647	-168.319	162.755	31.741	0.00099458	0.00048325	0.00013834	840.61	7.6123e-06	1.4067e-05	728.46	325.22	7.5155e-06	5.5258e-06	311.59	118.71	108.02	42.622	7.182e-06	52.795	0.0038342	0.0043508	0.0012379	887.88	4.6758e-05	4.8057e-05	775.83	343.78	4.6734e-05	4.7841e-05	339.94	128.48	117.3	46.182	4.7135e-05	57.849	142.011	-90.964	-91.432	-161.218	68.097	8.456	-162.807	-156.663	-81.924	34.858	-158.366	-154.217	-152.148	-146.603	-51.980	-149.077	-8191	255	
58749.391	1	1	0	0	0.062125	0.20775	0.10422	0.27928	0.043027	0.23957	0.10701	0.10679	0.03237	0.16972	0.14913	0.20941	0.067702	0.31572	0.081251	0.037401	-3.625	-3.2875	-4.3875	-3.65	-3.5312	-4.3063	-3.5563	-4.1813	-3.7646	-3.5563	-4.3562	-3.5812	-3.725	-4.3229	-3.4125	-4.0646	-35.962	-111.365	-111.450	109.566	-64.097	-26.063	112.506	43.708	-75.762	-132.618	-10.342	-153.701	22.641	184.712	120.250	-5.546	0.0010461	0.00036991	7.0712e-05	837.63	7.6556e-06	5.3204e-06	723.54	323.97	9.9571e-06	7.2285e-06	310.6	118.5	107.94	42.512	1.0484e-05	52.717	0.0038	0.0043292	0.0012279	885.01	4.5821e-05	4.8187e-05	772.87	343.12	4.6254e-05	4.836e-05	339.35	128.48	117.24	46.233	4.7833e-05	57.958	137.314	-104.229	-0.850	-161.417	3.090	-3.779	-163.028	-156.568	-84.146	-35.799	-158.377	-154.432	-152.173	-146.498	-88.739	-149.190	-8191	255	
58749.488	1	1	0	0	0.092474	0.21924	0.051403	0.085306	0.12647	0.065492	0.21708	0.044676	0.10374	0.15842	0.20196	0.03889	0.074347	0.22274	0.06244	0.089773	-3.7812	-3.3312	-4.2458	-3.6917	-3.4979	-4.3521	-3.5979	-4.0917	-4.1729	-3.325	-4.3688	-3.7542	-3.6583	-4.3625	-3.4167	-3.9771	-15.388	157.097	3.525	-61.789	-113.738	-1.003	-80.343	74.516	-127.044	-155.108	-129.907	-40.922	10.693	117.053	-74.631	57.298	0.00083133	0.00093342	0.00023227	841.33	3.3602e-06	6.1826e-06	721.53	325.87	5.0253e-06	1.3326e-05	310.42	118.22	107.83	42.326	4.7093e-06	52.791	0.0038427	0.004473	0.0012596	887.37	4.7505e-05	5.0445e-05	774	344.36	4.8741e-05	5.1516e-05	341.59	128.72	117.78	46.309	5.0287e-05	57.908	135.498	-112.979	-67.601	-161.307	-114.799	68.176	-163.159	-156.822	-64.970	0.086	-158.542	-154.292	-152.062	-146.240	-155.842	-149.265	-8191	255	
58749.586	1	1	0	0	0.19511	0.1846	0.32017	0.051057	0.21476	0.13228	0.23295	0.075389	0.23646	0.16344	0.2064	0.061133	0.19167	0.028735	0.21675	0.14159	-3.7542	-3.3792	-4.0437	-3.9292	-3.4583	-4.2188	-3.5979	-3.8708	-4.2375	-3.6104	-4.0979	-3.8854	-3.6292	-4.4542	-3.7292	-3.6604	50.380	-113.509	-112.283	114.574	-35.335	-70.077	39.128	32.053	151.205	-14.709	112.402	125.341	-61.977	147.238	77.560	133.763	0.00090256	0.00081643	0.00016741	847.85	8.6219e-06	1.4319e-05	726.63	326.7	9.9698e-06	7.4069e-06	311.67	118.34	108.11	42.175	8.4696e-06	52.566	0.0040443	0.0046458	0.0013085	892.95	4.8964e-05	5.148e-05	776.84	346.36	4.9128e-05	5.1134e-05	341.9	128.89	118.32	46.094	4.9099e-05	57.549	147.822	170.276	-79.323	-161.454	-64.140	-164.613	-163.173	-156.613	-79.274	28.940	-158.507	-154.290	-152.598	-146.532	83.018	-149.168	-8191	255	
58749.703	1	1	0	0	0.18507	0.2172	0.2209	0.16849	0.1013	0.16566	0.015645	0.17555	0.011159	0.095301	0.1003	0.058433	0.01601	0.057553	0.13999	0.22963	-3.8146	-3.3271	-4.0521	-4.0021	-3.2958	-4.2833	-3.8688	-3.8854	-4.3583	-3.3542	-3.9562	-4.0771	-3.3646	-4.2854	-3.6667	-3.6208	29.602	175.718	-117.619	125.009	103.867	-65.494	-66.585	100.559	97.636	38.067	58.261	-36.806	168.653	93.964	181.358	22.465	0.00075221	0.00063888	0.00021184	845.47	1.16e-05	3.2301e-06	726.93	328.08	7.669e-06	1.1378e-05	312.93	119.43	109.38	42.358	5.4867e-06	52.633	0.0039926	0.0044844	0.0012464	894.3	4.6234e-05	4.8171e-05	775.95	346.6	4.5586e-05	4.6863e-05	340.44	128.69	118.11	45.936	4.4434e-05	57.334	128.560	-93.367	153.163	-161.430	-54.836	-144.404	-162.944	-156.554	-74.111	-108.587	-158.495	-154.230	-152.448	-146.533	-18.261	-149.631	-8191	255	
58749.801	1	1	0	0	0.069785	0.19671	0.16722	0.21112	0.37551	0.1655	0.15994	0.25822	0.088861	0.15422	0.16004	0.1764	0.044008	0.30035	0.16886	0.17036	-4.0271	-3.3875	-3.8187	-4.325	-3.35	-4.1229	-3.9688	-3.5417	-4.3146	-3.3667	-3.8583	-4.1521	-3.5625	-4.3083	-3.8208	-3.4604	73.345	84.782	138.368	176.571	-130.255	-56.800	35.294	168.344	-173.411	127.875	179.872	-115.838	165.836	133.758	151.080	115.215	0.00079224	0.00038805	0.00015597	845.71	3.9066e-06	8.2655e-06	727.22	327.7	8.4086e-06	3.2499e-06	314.83	119.45	108.74	42.823	9.3142e-06	53.117	0.0036504	0.0041321	0.0011497	892.78	4.4208e-05	4.6259e-05	774.03	345.47	4.5069e-05	4.6963e-05	340.51	129.2	118.18	46.337	4.5481e-05	57.932	138.880	-11.945	-121.302	-161.216	-26.627	16.562	-162.703	-156.341	-20.499	-102.839	-158.478	-154.245	-152.407	-146.628	-93.861	-149.119	-8191	255	
58749.895	1	1	0	0	0.18554	0.0040837	0.19149	0.28114	0.19822	0.096591	0.074938	0.2128	0.045575	0.36971	0.10762	0.10884	0.093938	0.18217	0.13424	0.24312	-4.0875	-3.4167	-3.6937	-4.3104	-3.1875	-3.8708	-3.9083	-3.6208	-4.3729	-3.5396	-3.6792	-4.2271	-3.375	-4.175	-4.0479	-3.5458	115.615	69.520	-148.141	178.743	-161.508	181.850	100.735	180.150	60.137	130.432	-161.866	-139.536	161.368	160.711	5.842	88.712	0.0010073	0.00066812	0.00011475	846.31	4.6072e-06	5.1012e-06	729.2	326.42	1.3912e-05	9.8418e-06	314.44	120.63	108.74	42.834	5.2271e-06	53.416	0.0038073	0.004327	0.0011952	888.51	4.5774e-05	4.7782e-05	774.95	345.07	4.6134e-05	4.7263e-05	340.83	130.27	118.47	46.517	4.6876e-05	58.392	143.060	-132.440	-89.583	-161.337	-17.446	-113.401	-162.918	-156.623	-134.279	-80.551	-158.508	-153.870	-152.286	-146.500	-32.196	-149.156	-8191	255	
58749.992	1	1	0	0	0.30442	0.20644	0.035987	0.23808	0.10693	0.18587	0.31648	0.16448	0.11633	0.14244	0.08303	0.23755	0.13032	0.22053	0.074204	0.091851	-3.8937	-3.8	-3.55	-4.4917	-3.3208	-3.9542	-4.1771	-3.5208	-4.1875	-3.8542	-3.7062	-4.2771	-3.4938	-3.9146	-4.15	-3.5146	-15.828	-161.633	45.685	-170.313	172.910	-154.839	84.212	99.946	183.747	-101.483	102.589	135.951	-155.542	-83.548	1.369	16.880	0.001016	0.00080548	0.00022965	843.42	2.104e-06	5.9151e-06	730.58	329.11	3.5877e-06	1.5171e-05	315.91	120.41	109.45	42.813	5.8542e-06	53.177	0.0039048	0.0043951	0.0012188	891.68	4.6752e-05	4.7854e-05	778.75	346.88	4.7194e-05	4.833e-05	343.14	130.44	118.94	46.458	4.7282e-05	58.242	124.814	-16.374	-40.223	-161.547	-82.416	5.506	-163.143	-156.603	-3.942	-18.868	-158.454	-154.439	-152.046	-146.286	-109.157	-149.195	-8191	255	
58750.086	1	1	0	0	0.10601	0.048239	0.084011	0.17706	0.31527	0.11106	0.24963	0.20154	0.39439	0.20397	0.12218	0.31672	0.14634	0.072835	0.16319	0.11286	-3.9167	-3.8417	-3.3104	-4.4146	-3.5458	-3.7562	-4.4354	-3.5833	-4.2417	-3.8563	-3.4396	-4.4458	-3.6479	-3.9021	-4.1125	-3.4146	120.536	159.197	-129.899	88.158	-10.707	-2.617	19.669	1.556	-32.430	184.274	-73.661	127.208	64.153	-88.762	144.291	121.186	0.00092209	0.00063867	0.00031729	853.38	5.4035e-06	2.5303e-06	731.55	329.46	7.4306e-06	6.7474e-06	314.56	119.25	110.03	42.757	2.2853e-06	52.614	0.0038928	0.0043363	0.0012091	898.67	4.6109e-05	4.7477e-05	781.39	347.79	4.6124e-05	4.7166e-05	342.58	129.87	118.83	46.107	4.5743e-05	57.703	141.542	-91.521	-116.638	-161.330	-97.287	57.914	-162.986	-156.706	-19.919	-41.273	-158.463	-154.270	-152.527	-146.632	-156.167	-149.179	-8191	255	
58750.184	1	1	0	0	0.27616	0.13908	0.15346	0.021766	0.30067	0.13827	0.27395	0.21247	0.17	0.17165	0.099596	0.090539	0.27928	0.20132	0.11976	0.18467	-3.8667	-4.0125	-3.2667	-4.3104	-3.6396	-3.6125	-4.3854	-3.6646	-4.025	-4.1292	-3.5438	-4.3271	-3.7167	-3.575	-4.2438	-3.4583	177.681	-41.543	87.788	-116.848	50.561	-116.668	41.672	102.296	-167.989	-121.841	171.859	42.767	-149.210	93.028	64.829	-6.558	0.0009306	0.00052279	0.00027747	851.31	5.7205e-06	8.97e-07	729.26	329.17	7.0035e-06	9.7319e-06	315.96	120.49	109.78	42.84	1.0265e-05	53.181	0.0037118	0.0041429	0.0011657	894.75	4.3498e-05	4.4682e-05	777.11	345.82	4.3552e-05	4.4559e-05	341.98	129.89	118.3	46.211	4.4312e-05	58.025	139.197	-136.288	-144.469	-161.345	-115.370	-157.969	-162.853	-156.771	-101.859	-30.788	-158.550	-154.063	-152.453	-146.416	-39.860	-148.966	-8191	255	
58750.305	1	1	0	0	0.13952	0.077453	0.057115	0.2764	0.12172	0.18478	0.26039	0.17574	0.12461	0.14795	0.17723	0.29511	0.1801	0.18262	0.19164	0.22739	-3.6937	-4.0687	-3.3688	-4.2812	-3.7771	-3.4333	-4.3875	-3.6292	-3.8438	-4.0958	-3.4208	-4.2125	-3.8229	-3.5125	-4.2271	-3.4458	-61.438	18.850	124.187	68.027	-42.662	56.826	-157.276	153.365	52.231	126.377	80.421	184.780	76.918	-125.328	139.269	180.560	0.00076864	0.0014234	0.00034654	847.5	8.3904e-06	8.8004e-06	733.91	328.49	4.2508e-06	8.481e-06	316.78	121.65	109.24	43.225	5.1208e-06	53.489	0.0035666	0.0040419	0.0011339	890.94	4.287e-05	4.4943e-05	779.48	345.5	4.373e-05	4.5593e-05	341.95	130.57	118.14	46.591	4.4989e-05	58.594	136.115	-132.467	-77.228	-161.439	-36.038	147.201	-162.882	-156.607	-165.023	94.214	-158.477	-153.953	-152.057	-146.518	-106.559	-148.977	-8191	255	
58750.398	1	1	0	0	0.16311	0.018049	0.22712	0.2456	0.017731	0.10914	0.023335	0.18059	0.19142	0.14525	0.12705	0.034168	0.092089	0.27559	0.20319	0.24693	-3.3125	-4.1979	-3.2479	-4.0667	-3.7708	-3.4625	-4.2063	-3.6188	-3.5771	-4.1292	-3.4271	-4.1188	-3.9667	-3.3875	-4.2229	-3.5604	108.038	-107.413	82.750	131.406	45.299	-92.490	-164.616	82.290	-38.087	-96.718	-51.709	-150.806	162.107	153.870	86.330	155.358	0.00098169	0.00062713	0.00015042	849.58	3.9716e-06	5.1921e-06	732.4	327.52	2.4794e-06	3.8571e-06	317.14	121.29	108.91	43.242	8.6416e-06	53.764	0.003591	0.00416	0.0011604	889.52	4.3703e-05	4.5767e-05	779.43	344.75	4.4046e-05	4.7001e-05	342.88	130.51	118.23	46.556	4.5329e-05	58.501	139.343	-119.331	-78.751	-161.665	89.920	-155.635	-162.770	-156.521	-133.735	-91.192	-158.829	-154.381	-152.157	-146.554	-51.286	-149.064	-8191	255	
58750.496	1	1	0	0	0.34743	0.12644	0.22065	0.057285	0.22125	0.18001	0.085302	0.26308	0.18568	0.083817	0.10913	0.13132	0.19498	0.16765	0.086233	0.41874	-3.6104	-4.1854	-3.3958	-3.9854	-4.0333	-3.4813	-4.3146	-3.6208	-3.65	-4.1438	-3.4167	-3.8333	-4.0958	-3.5083	-4.2312	-3.9146	131.609	-105.391	42.862	-105.869	88.176	-2.719	-47.297	92.475	141.792	-98.647	-162.854	24.009	152.102	-74.413	-94.552	-143.044	0.00085469	0.0010312	0.00044434	843.81	8.7567e-06	8.327e-06	728.72	327.35	3.5107e-06	9.7868e-06	315.29	121.09	109.37	42.679	1.0859e-05	53.097	0.0036422	0.0041224	0.0011497	889.45	4.2821e-05	4.4936e-05	776.37	345.43	4.3236e-05	4.5214e-05	341.09	129.7	118.47	46.207	4.5202e-05	57.833	133.896	-97.183	-119.941	-161.434	-25.143	-128.367	-162.911	-156.678	17.516	-46.687	-158.462	-154.040	-152.226	-146.623	-10.118	-149.273	-8191	255	
58750.566	1	1	0	0	0.2356	0.2516	0.089459	0.1072	0.083331	0.056562	0.13356	0.27568	0.04344	0.17549	0.16285	0.22961	0.21307	0.27394	0.15578	0.15756	-3.1562	-4.1271	-3.4375	-3.9708	-4.0333	-3.0917	-4.0979	-3.875	-3.4333	-4.2063	-3.6042	-3.825	-4.3271	-3.3542	-3.9771	-4.0208	-84.048	-30.759	35.162	40.778	109.345	-71.288	125.663	112.962	3.566	112.245	182.061	-138.784	92.948	-146.166	-49.476	164.633	0.0008462	0.00058567	9.2552e-05	848.16	4.887e-06	1.3929e-05	728.89	327.21	4.7514e-06	8.0609e-06	312.27	119.72	108.85	42.422	7.8524e-06	52.757	0.0036646	0.0041869	0.0011745	889.95	4.4392e-05	4.654e-05	776.51	345.01	4.5132e-05	4.7051e-05	339.99	129.18	118.11	46.158	4.5154e-05	57.75	123.313	-104.683	24.893	-161.516	-109.315	7.222	-163.140	-156.704	-70.762	-23.342	-158.377	-154.592	-152.265	-146.490	29.996	-148.995	-8191	255	
58750.688	1	1	0	0	0.07089	0.094152	0.22281	0.15098	0.11646	0.10073	0.34699	0.23428	0.063356	0.077067	0.086863	0.22691	0.15405	0.1233	0.199	0.21569	-3.0917	-4.2312	-3.6708	-3.7729	-4.2688	-3.3667	-4.1125	-4.0479	-3.5083	-4.2708	-3.7979	-3.6854	-4.2063	-3.4333	-3.9	-4.1979	-12.585	181.255	180.155	96.054	67.046	-96.874	121.720	139.653	-94.782	26.385	22.758	-167.321	-87.161	49.880	-107.797	-170.236	0.0010211	0.00017265	0.00032364	847.8	9.9885e-06	8.0004e-06	731.81	325.08	1.3512e-05	5.1112e-06	314.12	120.21	108.8	42.656	8.5582e-06	53.427	0.0037121	0.0042802	0.001177	890.93	4.5169e-05	4.6956e-05	777.27	344.84	4.5525e-05	4.762e-05	341.44	129.77	118.24	46.249	4.501e-05	58.279	138.285	162.174	-71.564	-161.391	-86.632	-165.183	-162.651	-156.395	-83.111	-16.929	-158.298	-154.143	-152.175	-146.927	-52.881	-148.938	-8191	255	
58750.785	1	1	0	0	0.08025	0.21056	0.15149	0.17633	0.086772	0.012678	0.041309	0.12816	0.097581	0.079171	0.18392	0.24286	0.23627	0.097042	0.02279	0.10521	-3.0854	-4.075	-3.6625	-3.7229	-4.1937	-3.3312	-3.8937	-4.1667	-3.2417	-4.1312	-3.9125	-3.6042	-4.4104	-3.5458	-3.7	-4.275	-156.876	-156.166	-97.984	-170.400	-120.470	104.770	-164.733	-168.330	75.565	104.829	95.779	155.682	-107.201	68.067	116.543	148.755	0.00095113	0.00077601	7.1288e-05	845.15	4.9154e-06	5.0194e-06	729.1	325.94	7.2268e-06	1.0249e-05	313.94	121.17	108.94	42.727	8.3547e-07	53.37	0.0037211	0.0042468	0.0011765	891.17	4.5872e-05	4.7326e-05	780.5	344.96	4.6082e-05	4.8524e-05	342.73	130.24	118.34	46.489	4.7444e-05	58.676	137.889	-40.769	-166.365	-161.464	-92.734	28.205	-163.018	-156.408	-98.213	78.936	-158.579	-154.146	-152.357	-146.263	-65.620	-148.883	-8191	255	
58750.883	1	1	0	0	0.025669	0.026397	0.17103	0.15853	0.18429	0.29405	0.17905	0.37071	0.15981	0.2355	0.17417	0.019984	0.029855	0.10631	0.24888	0.15006	-3.0312	-3.9604	-3.7188	-3.525	-4.2333	-3.625	-3.6458	-4.4771	-3.3146	-3.9729	-4.1542	-3.4896	-4.3313	-3.6979	-3.6542	-4.3187	-107.410	-37.170	23.926	-168.177	-66.181	29.990	-135.076	61.346	-90.610	-20.735	-162.437	168.673	130.957	-122.165	-56.160	86.132	0.0011018	0.0012182	0.00014757	844.01	5.4151e-07	7.7937e-06	726.93	324.83	5.4229e-07	6.5245e-06	312.6	118.95	107.68	42.623	2.5865e-06	53.073	0.0039095	0.0044943	0.0012454	889.64	4.837e-05	4.9378e-05	778.2	344.2	4.9216e-05	5.1124e-05	342.17	129.68	118.2	46.507	5.0251e-05	58.502	135.151	16.684	-101.635	-161.450	33.406	-48.476	-163.346	-156.356	165.937	5.980	-158.250	-154.007	-152.197	-146.731	137.651	-149.323	-8191	255	
58750.977	1	1	0	0	0.045836	0.085279	0.24869	0.13189	0.14363	0.40491	0.22995	0.059106	0.1961	0.066125	0.17371	0.28023	0.16793	0.15944	0.088759	0.03242	-2.9604	-4.1583	-4.2063	-3.3667	-4.1375	-3.5479	-3.7333	-4.4437	-3.4021	-4.0062	-4.1917	-3.5375	-4.3063	-3.7833	-3.5125	-4.2771	-134.733	-23.876	-17.515	4.009	124.596	49.882	150.612	-168.150	-40.652	150.872	123.570	141.287	-12.193	-151.382	-143.203	-119.258	0.00089541	0.00092239	0.00010631	838.11	6.9094e-06	5.3972e-06	730.04	325.5	6.343e-06	1.021e-05	312.16	118.33	107.48	42.226	5.3561e-06	52.212	0.0041817	0.0047401	0.0013244	891.17	5.0806e-05	5.2463e-05	781.28	345.86	5.2226e-05	5.4165e-05	343.17	129.41	118.85	46.354	5.4159e-05	58.037	150.142	-53.181	67.910	-161.666	-54.742	13.717	-163.178	-156.573	-99.716	12.905	-158.060	-154.446	-152.242	-146.850	-134.877	-149.090	-8191	255	
58751.098	1	1	0	0	0.17363	0.19463	0.19397	0.11409	0.06169	0.096248	0.13386	0.12087	0.07927	0.25004	0.24233	0.035238	0.06207	0.18746	0.17315	0.081971	-3.1729	-3.6937	-4.0375	-3.375	-4.1104	-3.8125	-3.5167	-4.4708	-3.5875	-3.8063	-4.3521	-3.4771	-4.0813	-3.9708	-3.4562	-4.4042	28.067	79.250	69.400	71.974	20.421	109.669	-54.406	157.637	-67.395	88.300	53.303	145.447	132.026	-94.607	41.301	171.462	0.0011031	0.00031628	0.00015329	846.9	5.7369e-06	4.6959e-06	721.88	325.01	1.4303e-05	1.2985e-05	309.72	117.16	107.88	41.759	2.7423e-06	51.556	0.0044407	0.0050872	0.0014505	899.82	5.6937e-05	5.8619e-05	785.36	348.26	5.9651e-05	6.1828e-05	345.96	130.2	119.8	46.484	6.3914e-05	58.101	139.767	-137.553	-130.661	-161.320	80.711	-15.910	-162.913	-156.657	-55.584	-36.373	-158.226	-154.452	-152.122	-146.399	169.016	-148.935	-8191	255	
58751.191	1	1	0	0	0.11653	0.038478	0.16783	0.27156	0.24273	0.13938	0.23359	0.076826	0.10925	0.15317	0.22626	0.103	0.19963	0.25534	0.29523	0.08834	-3.1667	-3.8667	-4.0417	-3.5458	-3.9896	-4.0021	-3.4958	-4.325	-3.5458	-3.5979	-4.3729	-3.4667	-3.9417	-4.0687	-3.3563	-4.3104	-1.951	-98.317	122.546	132.238	3.894	-42.807	150.088	175.097	73.490	75.124	144.576	151.265	114.958	-138.915	77.330	59.086	0.0011432	0.00077923	0.0002186	841.6	6.0925e-06	4.1622e-06	719.69	322.76	1.5215e-05	5.223e-06	305.7	115.12	105.75	40.982	3.7811e-06	50.629	0.0053326	0.0062055	0.0017911	911.6	6.9961e-05	7.3649e-05	794.61	351.86	7.4379e-05	7.9454e-05	352.16	131.74	121.99	47.148	8.375e-05	58.94	135.207	-27.921	-78.068	-161.488	-25.153	153.549	-162.715	-156.618	-27.766	45.404	-158.247	-154.492	-152.482	-146.331	-48.315	-149.212	-8191	255	
58751.266	1	1	0	0	0.037756	0.2871	0.16692	0.10178	0.14321	0.17496	0.20644	0.1791	0.1508	0.14779	0.24848	0.10251	0.21511	0.39919	0.22661	0.17733	-3.0917	-3.5771	-4.2458	-3.4958	-3.7542	-4.0104	-3.4729	-4.4792	-3.6937	-3.5667	-4.4229	-3.5271	-3.9521	-4.1833	-3.1937	-4.3521	75.830	-174.616	-82.986	100.926	-121.092	134.653	86.014	147.554	156.576	157.775	129.975	-156.884	111.111	145.031	-163.982	-26.832	0.0008254	0.0016956	0.00013692	838.49	9.157e-06	4.2235e-06	710.91	321.82	1.8728e-05	9.5469e-06	302.93	114.34	106	41.235	2.9139e-06	50.645	0.0067884	0.0078676	0.0022254	922.76	8.2588e-05	8.5191e-05	799.71	352.77	7.9934e-05	8.3556e-05	350.63	130.66	121.16	46.847	7.5754e-05	58.098	134.624	-46.604	-169.946	-161.510	-62.330	-82.787	-162.660	-156.733	-80.681	-32.266	-158.260	-154.114	-152.165	-146.341	-64.611	-149.176	-8191	255	
58751.383	1	1	0	0	0.044091	0.028512	0.24572	0.27506	0.095778	0.27457	0.095326	0.14516	0.098464	0.17264	0.044334	0.13894	0.055927	0.24198	0.082759	0.18839	-3.5771	-3.4625	-4.2396	-3.5208	-3.7333	-4.0292	-3.4	-4.1958	-4.05	-3.4042	-4.5542	-3.5458	-3.8104	-4.2812	-3.375	-4.1833	145.184	-138.210	-156.623	59.460	-59.125	93.344	56.175	108.346	-155.136	-71.463	148.843	-132.851	52.609	150.777	-36.068	-169.903	0.00086316	0.00073854	9.6552e-05	835.63	6.9168e-06	8.4864e-06	713.7	322.35	5.9731e-06	3.073e-06	303.25	114.54	106.53	41.14	1.1596e-05	50.878	0.0059656	0.0068272	0.0018875	908.38	7.0743e-05	7.3844e-05	789.55	349.72	7.0772e-05	7.4302e-05	346.22	129.52	120.6	46.671	7.1867e-05	58.005	132.763	-57.275	-25.909	-161.413	32.507	-30.043	-163.133	-156.571	109.975	-133.578	-158.514	-154.267	-152.295	-146.446	-84.676	-148.918	-8191	255	
58751.480	1	1	0	0	0.035783	0.088194	0.14342	0.12803	0.011282	0.2751	0.19908	0.24021	0.10076	0.23236	0.26491	0.16885	0.041304	0.13668	0.072014	0.18833	-3.6937	-3.3563	-4.2146	-3.6521	-3.5208	-4.1479	-3.5146	-4.0125	-3.9979	-3.2938	-4.2646	-3.8208	-3.6833	-4.4646	-3.5354	-3.9458	-123.729	-149.346	100.034	-106.931	75.191	-41.975	-130.934	129.651	-83.444	-105.238	178.403	18.900	16.035	161.835	84.386	-167.044	0.00082874	0.00062059	0.00031842	836.8	7.2747e-06	1.1556e-05	716.48	323.04	1.9183e-06	7.2195e-06	303.54	115.44	105.78	41.658	6.5282e-06	51.374	0.0057876	0.0066053	0.0018525	906.97	6.9091e-05	7.1657e-05	787.62	349.62	6.8796e-05	7.1326e-05	346.45	130.11	120.39	47.004	7.1573e-05	58.535	147.861	-131.570	-123.415	-161.566	-87.964	-36.740	-163.172	-156.628	-162.753	7.227	-158.476	-154.251	-152.011	-146.342	115.197	-149.094	-8191	255	
58751.578	1	1	0	0	0.063187	0.18733	0.26714	0.15484	0.20919	0.12996	0.090656	0.060367	0.075604	0.15164	0.1465	0.18228	0.14748	0.053166	0.27076	0.077571	-3.7208	-3.2729	-4.1937	-3.8229	-3.3812	-4.1687	-3.5896	-4.0312	-4.2438	-3.2708	-4.1583	-3.9417	-3.4458	-4.325	-3.4313	-3.8667	18.948	126.690	-160.947	88.207	-93.121	115.316	131.393	-83.047	-64.857	-170.047	118.971	47.260	103.366	93.496	-102.151	149.101	0.00066395	0.00062703	0.00022124	842.55	9.7946e-06	4.7499e-06	711.16	321.78	1.1008e-05	8.954e-06	305.41	114.37	106.05	41.828	6.794e-06	50.826	0.0059203	0.0068325	0.0019286	913.45	7.4236e-05	7.8317e-05	792.52	351.64	7.7179e-05	7.9655e-05	349.84	131.18	121.66	47.389	7.7677e-05	58.746	138.484	39.199	-91.297	-161.410	-14.887	-19.798	-163.237	-156.343	-123.790	-150.946	-158.434	-154.331	-152.555	-146.690	110.814	-149.105	-8191	255	
58751.695	1	1	0	0	0.23411	0.098258	0.13444	0.12714	0.11503	0.10527	0.33071	0.23349	0.12924	0.25326	0.20754	0.16225	0.1645	0.12933	0.035134	0.28486	-3.7687	-3.2917	-4.0146	-3.9333	-3.4208	-4.2917	-3.8042	-3.8125	-4.1937	-3.2208	-4.1312	-3.9542	-3.4729	-4.3667	-3.4479	-3.6083	-93.218	-117.284	77.212	97.691	90.348	-164.946	40.994	167.104	-85.812	68.211	-128.622	75.795	-3.191	-162.174	19.883	65.447	0.00094188	0.00066042	0.0001581	832.07	8.4917e-06	5.3245e-06	706.51	321.56	8.1862e-06	1.1126e-05	302.03	115.93	107.01	41.928	1.3892e-05	51.146	0.0063448	0.0072907	0.0020489	911.68	7.7386e-05	8.0144e-05	788.9	350.63	7.5393e-05	7.7192e-05	346.2	130.45	120.98	47.063	6.97e-05	58.339	139.263	-114.758	-115.878	-161.738	-141.243	-5.607	-162.973	-156.462	-3.846	-6.108	-158.538	-154.557	-152.466	-146.602	-94.306	-149.303	-8191	255	
58751.793	1	1	0	0	0.12806	0.4031	0.048637	0.2887	0.12704	0.22317	0.068355	0.12689	0.16319	0.13373	0.051252	0.091583	0.16276	0.1663	0.01807	0.046148	-3.9188	-3.425	-3.9375	-4.1833	-3.35	-4.1562	-3.8667	-3.6625	-4.3333	-3.3833	-3.9958	-4.2208	-3.4458	-4.1833	-3.8312	-3.6396	56.030	139.975	-108.185	149.528	94.016	-6.680	-13.531	93.322	-91.850	15.691	-63.408	-113.336	-114.715	-70.837	34.457	24.690	0.00090748	0.0010309	0.00020126	838.3	3.6066e-06	5.4014e-06	711.36	321.75	1.4243e-05	1.0718e-05	306.38	117.69	108.28	42.87	9.2773e-06	52.516	0.0055583	0.0062318	0.0017151	901.47	6.2681e-05	6.4629e-05	778.12	346.87	6.0717e-05	6.266e-05	342.05	130	119.79	47.113	5.7149e-05	58.525	121.273	-29.721	167.323	-161.331	-129.758	-80.585	-163.198	-156.711	-68.997	5.153	-158.632	-154.146	-152.392	-146.611	-46.962	-149.385	-8191	255	
58751.863	1	1	0	0	0.078265	0.10601	0.27784	0.19708	0.057128	0.26341	0.094291	0.078442	0.22141	0.089076	0.11518	0.18057	0.15838	0.22696	0.17587	0.087522	-3.7708	-3.3937	-3.7438	-4.2292	-3.3708	-4.0479	-4.0333	-3.4604	-4.3313	-3.5021	-3.7354	-4.2917	-3.2188	-4.2	-3.9083	-3.5	-15.012	-101.120	-41.971	135.872	82.226	-95.551	-99.368	-139.178	-126.201	157.862	-159.350	83.053	-130.664	154.379	-58.818	142.892	0.00080354	0.00075234	0.00010985	842.24	4.1313e-07	2.0887e-05	721.07	327.19	1.6068e-06	9.3426e-06	312.06	119.92	110.28	43.697	9.7811e-06	54.323	0.0045333	0.0050866	0.0014051	896.67	5.2775e-05	5.3908e-05	776.65	348.33	5.1564e-05	5.327e-05	342.64	130.79	120.32	47.552	5.0859e-05	59.434	144.326	-90.944	139.792	-161.446	88.601	-50.124	-163.133	-156.812	-89.307	-12.581	-158.423	-154.344	-152.534	-146.454	-53.531	-149.412	-8191	255	
58751.984	1	1	0	0	0.22159	0.24836	0.16523	0.079671	0.032218	0.18778	0.093606	0.098384	0.066688	0.18033	0.1285	0.078198	0.24685	0.13837	0.15457	0.20243	-3.8917	-3.3875	-3.8104	-4.3125	-3.2958	-3.9437	-3.9208	-3.5833	-4.3146	-3.6979	-3.5396	-4.3271	-3.5396	-3.9667	-4.0708	-3.4125	42.444	-131.263	-21.045	-95.302	85.590	-68.002	81.539	-88.006	111.342	-126.833	103.547	-118.201	161.063	-166.229	-140.009	-167.424	0.0011355	0.00072736	7.8182e-05	852.39	3.1583e-06	5.5837e-06	727.33	329.37	1.3025e-05	4.1781e-06	311.99	119.52	110.59	43.885	6.2607e-06	54.428	0.0041365	0.0046628	0.0013197	899.21	4.9375e-05	5.1094e-05	779.07	349.56	5.0009e-05	5.1976e-05	343.04	130.65	120.77	47.903	5.197e-05	59.643	150.001	-80.414	-129.141	-161.604	-61.993	-99.286	-163.077	-156.849	-59.274	-107.476	-158.420	-154.332	-152.404	-146.840	-42.938	-149.366	-8191	255	
58752.078	1	1	0	0	0.19622	0.16569	0.14833	0.085399	0.086005	0.09715	0.18163	0.2527	0.25641	0.10469	0.15357	0.29878	0.15409	0.15696	0.12285	0.099317	-3.8771	-3.6521	-3.4792	-4.2167	-3.4021	-3.8792	-4.3083	-3.4646	-4.0979	-3.9208	-3.4813	-4.1583	-3.4708	-3.8292	-4.1333	-3.3896	77.576	184.436	-43.493	-79.406	6.625	46.771	157.602	136.503	101.757	-54.359	-62.611	151.078	-125.862	125.140	-66.873	45.682	0.00096608	0.00087734	0.00011571	851.91	7.9108e-06	1.3895e-05	729.08	329.26	5.864e-06	3.3015e-06	310.01	119.67	110.4	44.114	3.4318e-06	53.966	0.0042043	0.004824	0.0013482	902.42	5.1578e-05	5.398e-05	782.89	350.39	5.3587e-05	5.5922e-05	344.12	131.47	121.62	48.338	5.6108e-05	59.858	153.164	-125.927	134.833	-161.378	-85.084	-91.089	-162.817	-156.538	-76.167	-9.658	-158.807	-154.499	-152.305	-146.804	1.937	-149.329	-8191	255	
58752.176	1	1	0	0	0.1586	0.095773	0.072348	0.3967	0.10377	0.07252	0.14225	0.092306	0.10743	0.11062	0.44344	0.14962	0.018607	0.2074	0.13594	0.14011	-3.6958	-3.8646	-3.275	-4.3104	-3.4646	-3.6042	-4.1875	-3.4125	-4.0292	-3.9979	-3.525	-4.2792	-3.6708	-3.7188	-4.1667	-3.4062	-145.058	-92.881	-97.949	-162.313	62.535	135.713	-137.646	131.005	-14.017	-8.810	136.338	87.221	122.586	-174.226	4.381	156.889	0.0010259	0.00030142	0.00032355	853.77	7.373e-06	1.5292e-05	729.58	327.52	8.305e-06	1.9391e-05	312.57	119.62	110.66	43.903	1.1548e-05	54.286	0.0045509	0.0052012	0.0014473	907.49	5.5229e-05	5.7201e-05	786.03	350.71	5.5939e-05	5.9233e-05	345.92	131.7	122.12	48.409	5.8811e-05	60.441	135.386	-50.981	-112.961	-161.380	-79.730	-24.394	-163.005	-156.376	-13.505	23.396	-158.749	-154.302	-152.389	-146.647	-36.184	-149.352	-8191	255	
58752.273	1	1	0	0	0.35132	0.14374	0.14395	0.078016	0.044853	0.24302	0.27471	0.17386	0.14351	0.12897	0.10779	0.1721	0.13138	0.17293	0.016188	0.11383	-3.7792	-3.7812	-3.4458	-4.35	-3.6979	-3.5979	-4.3833	-3.4562	-4.2396	-4.1521	-3.4458	-4.375	-3.9521	-3.5312	-4.2729	-3.4729	41.412	-14.417	52.866	-134.570	-150.617	-83.269	-106.729	121.577	4.339	60.326	-120.273	124.438	148.953	143.591	182.212	-172.757	0.00091272	0.00030354	0.00015473	851.53	1.0242e-05	8.3176e-06	728.73	327.35	1.2971e-05	5.7157e-06	311.19	119.47	109.4	43.765	1.9526e-05	53.564	0.0048614	0.0056374	0.001579	913.22	6.0494e-05	6.3812e-05	794.08	352.68	6.2808e-05	6.6084e-05	348.21	132.44	122.89	48.734	6.6742e-05	60.658	153.735	106.063	-55.853	-161.473	180.706	-33.651	-163.022	-156.723	-84.101	22.600	-158.939	-154.484	-152.619	-146.564	-29.648	-149.190	-8191	255	
58752.395	1	1	0	0	0.080434	0.35001	0.099437	0.071713	0.1455	0.061891	0.045447	0.36328	0.23692	0.087325	0.024213	0.13035	0.12823	0.15981	0.24182	0.17566	-3.4625	-4.0833	-3.2333	-4.1646	-3.8104	-3.6063	-4.3625	-3.6813	-3.9833	-4.1729	-3.5792	-4.3146	-3.9062	-3.7542	-4.3646	-3.6667	-94.386	59.085	-134.988	96.143	170.347	167.818	180.008	135.098	171.819	-27.802	132.030	134.035	100.619	123.954	26.736	143.973	0.00095245	0.00064443	5.3307e-05	847.93	9.2453e-06	4.4306e-06	722.39	325.11	9.5726e-06	4.343e-06	305.66	118.01	109.38	43.671	7.2753e-06	53.672	0.0054718	0.0063382	0.0017638	916.73	6.7506e-05	7.017e-05	794.78	352.34	6.9328e-05	7.2116e-05	348.57	132.39	123.33	48.867	7.2525e-05	60.858	146.457	175.828	155.372	-161.562	-105.253	-13.917	-163.143	-156.778	2.033	78.873	-158.282	-154.479	-152.641	-146.766	17.961	-149.423	-8191	255	
58752.488	1	1	0	0	0.074635	0.071675	0.1815	0.27506	0.20206	0.13615	0.034138	0.083243	0.36158	0.077325	0.12747	0.1874	0.39866	0.12759	0.015111	0.18627	-3.4	-4.2104	-3.4292	-4.2521	-3.9646	-3.4125	-4.3771	-3.8646	-3.6917	-4.2458	-3.5729	-4.1562	-4.2438	-3.6771	-4.4146	-3.7979	40.945	76.438	-33.149	146.836	82.927	96.960	33.652	97.449	-27.109	-61.896	34.674	-142.377	135.816	-36.796	155.476	55.677	0.0011334	0.00013861	0.00036455	849.2	1.1503e-05	1.5072e-05	722.52	323.78	1.0993e-05	1.2599e-05	305.78	116.84	108.29	43.707	1.3178e-05	53.22	0.0058989	0.0068242	0.0019069	920.19	7.3429e-05	7.6263e-05	800.35	353.99	7.5064e-05	7.7923e-05	350.92	132.63	123.77	49.188	7.5958e-05	61.016	141.365	36.060	118.869	-161.762	-3.864	-19.677	-163.165	-156.649	-50.928	-32.018	-158.560	-154.488	-152.100	-146.461	-45.076	-149.048	-8191	255	
58752.562	1	1	0	0	0.22611	0.22973	0.24506	0.16297	0.17042	0.080056	0.10218	0.18835	0.095102	0.028294	0.20997	0.20176	0.10752	0.21685	0.083763	0.11021	-3.4375	-4.0687	-3.4854	-4.125	-4.0354	-3.3812	-4.2167	-4.1417	-3.4375	-4.3854	-3.6604	-3.9208	-4.1312	-3.3312	-4.0854	-4.1229	-98.450	5.234	149.891	170.385	-139.047	-40.269	86.536	165.920	-93.917	-114.083	102.411	-155.471	95.454	152.878	37.569	-106.484	0.00087189	0.00069985	0.00044756	846.75	9.8163e-06	6.9141e-06	719.07	323.9	4.1102e-06	1.6271e-05	306.67	116.81	109.5	43.558	1.4315e-05	53.589	0.0061896	0.0071499	0.0019933	923.42	7.5794e-05	7.8057e-05	801.27	353.2	7.4761e-05	7.7834e-05	350.16	132.38	123.76	49.06	7.4446e-05	61.182	147.125	-169.169	-96.828	-161.667	16.997	17.341	-163.147	-156.619	1.485	-23.967	-158.493	-154.625	-152.241	-146.851	-90.140	-149.299	-8191	255	
58752.656	1	1	0	0	0.33423	0.18855	0.15801	0.20478	0.035894	0.059911	0.21864	0.061502	0.033456	0.10301	0.25496	0.079729	0.053237	0.18065	0.12711	0.12389	-3.1312	-4.3208	-3.5229	-4.1917	-4.3146	-3.3667	-4.3354	-4.0479	-3.4583	-4.4396	-3.7354	-3.8667	-4.2854	-3.5646	-4.0208	-4.0792	24.170	-52.733	182.014	172.770	143.032	155.823	110.392	36.547	-63.213	-21.320	130.971	-121.712	130.088	102.417	-156.681	133.866	0.00096222	0.000401	0.00024668	849.64	5.3511e-06	1.2889e-05	724.64	325.57	4.5173e-06	1.6625e-05	305.04	116.4	108.61	43.694	5.14e-06	53.161	0.0059781	0.0069257	0.0019135	921.83	7.3954e-05	7.5836e-05	800.69	354.33	7.4424e-05	7.7858e-05	350.2	132.31	123.7	49.042	7.5793e-05	60.796	137.125	98.331	-55.639	-161.497	-47.146	-75.613	-163.175	-156.813	181.421	35.427	-158.723	-154.349	-152.241	-146.917	136.751	-149.750	-8191	255	
58752.777	1	1	0	0	0.040863	0.12629	0.079815	0.055791	0.1707	0.066679	0.17132	0.22015	0.13565	0.24251	0.13535	0.12811	0.23244	0.1885	0.15807	0.12181	-3.1188	-4.3646	-3.5187	-3.8812	-4.1146	-3.3438	-4.15	-4.1562	-3.4792	-4.2688	-3.8229	-3.5625	-4.4417	-3.5792	-3.8604	-4.4104	-139.028	-122.595	136.640	-33.620	82.020	139.895	99.075	144.459	107.548	143.840	170.173	-122.155	-29.815	-146.455	-1.387	9.774	0.0010054	0.00017219	0.00012904	849.13	2.8211e-06	1.5305e-05	716.63	324.44	9.1887e-06	3.7463e-06	304.7	116.28	108.38	43.29	4.1675e-06	53.035	0.0060888	0.0070206	0.0019654	922.06	7.4671e-05	7.7586e-05	797.62	353.89	7.4302e-05	7.7361e-05	348.79	131.59	123.31	48.86	7.505e-05	60.587	138.232	145.021	-91.091	-161.524	176.846	-39.049	-163.030	-156.654	-79.569	-27.880	-158.634	-154.503	-152.490	-146.711	95.577	-149.376	-8191	255	
58752.875	1	1	0	0	0.24273	0.23976	0.1197	0.083744	0.057859	0.058665	0.24396	0.16761	0.11024	0.11969	0.086779	0.099664	0.09855	0.20977	0.19514	0.21803	-3.1667	-4.3146	-3.8958	-3.6333	-4.3333	-3.4688	-3.9771	-4.2937	-3.1521	-4.1354	-3.8833	-3.5729	-4.4	-3.5229	-3.7542	-4.2875	-40.553	170.979	49.975	169.882	29.395	-35.184	153.098	56.153	-0.743	-161.501	70.373	70.893	137.132	165.544	-81.256	129.293	0.0011346	0.00068375	9.6414e-05	846.39	6.3328e-06	2.0655e-06	714.15	326.03	2.0499e-05	4.025e-06	306.24	115.92	108.04	43.288	1.2268e-05	52.99	0.00598	0.0068955	0.0019408	919.01	7.3084e-05	7.5783e-05	795.31	354.01	7.3653e-05	7.693e-05	348.98	130.95	122.88	48.773	7.416e-05	60.346	141.641	174.037	151.463	-161.411	-162.432	10.862	-163.152	-156.696	-95.329	102.983	-158.278	-154.445	-152.473	-146.794	18.527	-149.380	-8191	255	
58752.969	1	1	0	0	0.09216	0.063222	0.097211	0.28261	0.12529	0.22967	0.31808	0.25097	0.18823	0.16385	0.22191	0.090962	0.40548	0.23398	0.036274	0.15165	-2.9896	-4.1271	-4.0292	-3.7938	-4.3417	-3.8333	-4.0229	-4.4375	-3.4896	-3.9833	-4.1229	-3.5167	-4.5208	-3.7146	-3.6562	-4.4354	73.191	168.620	62.046	114.570	-15.444	150.187	57.302	164.412	133.794	-0.152	28.814	-160.620	103.654	168.604	11.277	-89.960	0.00086048	0.0010573	0.00031917	846.38	1.1637e-05	4.9136e-06	720.41	325.93	7.4576e-06	1.6285e-05	302.3	114.41	108.38	43.147	6.595e-06	52.418	0.0058922	0.0067927	0.0018937	918.4	7.0723e-05	7.4438e-05	792.81	353.61	7.133e-05	7.3878e-05	346.41	129.67	122.02	48.276	6.9687e-05	59.669	135.995	-84.620	-80.746	-161.757	-56.466	-165.233	-163.520	-156.424	-94.473	43.393	-158.388	-154.379	-152.387	-146.747	-39.099	-149.300	-8191	255	
58753.066	1	1	0	0	0.12217	0.11308	0.15948	0.2965	0.13311	0.12194	0.12147	0.28715	0.18696	0.27019	0.10374	0.11751	0.27134	0.18024	0.20621	0.18151	-3.075	-4.0104	-4.0333	-3.5312	-4.2833	-3.8146	-3.7812	-4.2083	-3.5604	-3.8146	-3.9917	-3.45	-4.2	-3.85	-3.6229	-4.3458	62.393	-0.832	-48.410	-167.223	98.576	110.481	-121.183	59.961	72.522	-48.212	-55.343	175.239	124.255	102.644	-11.594	-55.660	0.00091368	0.00061883	9.3035e-05	849.63	3.3967e-06	5.6742e-06	714.9	326.27	2.2937e-06	1.2887e-05	302.97	113.91	107.56	42.897	6.4946e-06	51.759	0.005627	0.0065368	0.0018221	917.01	6.9668e-05	7.3392e-05	791.4	353.7	7.174e-05	7.5588e-05	345.8	128.84	121.96	48.316	7.4827e-05	59.417	146.955	-64.245	13.221	-161.778	26.079	-166.253	-163.214	-156.690	-137.165	-99.872	-158.650	-154.520	-152.385	-146.748	15.499	-149.763	-8191	255	
58753.160	1	1	0	0	0.27262	0.078266	0.21276	0.13833	0.16696	0.11147	0.03971	0.15701	0.17846	0.13014	0.28224	0.036741	0.13421	0.13235	0.038533	0.19911	-3.2042	-3.7313	-4.1062	-3.4062	-4.1438	-3.8312	-3.4708	-4.4	-3.6875	-3.8333	-4.1542	-3.5	-4.0521	-4.0292	-3.5021	-4.4021	176.088	105.047	-59.582	96.689	-72.667	15.494	-136.754	-159.258	23.588	-48.215	-169.539	148.129	72.819	169.731	7.250	54.896	0.00084986	0.00074011	0.00013744	843.59	4.6129e-06	1.1453e-05	709.25	323.72	7.1682e-06	1.5889e-05	299.89	111.99	106.55	42.626	8.0214e-06	51.49	0.0061504	0.0071465	0.0019772	917.37	7.5708e-05	7.8601e-05	790.17	352.6	7.6429e-05	7.9194e-05	345.64	128.23	121.36	48.009	7.5705e-05	59.135	156.562	13.310	-101.640	-161.806	-94.022	-78.468	-163.059	-156.768	-58.165	44.543	-158.524	-154.625	-152.192	-146.585	-6.015	-149.418	-8191	255	
58753.258	1	1	0	0	0.24278	0.17585	0.088732	0.2757	0.15538	0.29367	0.029265	0.0804	0.23846	0.18544	0.22993	0.18856	0.10158	0.24605	0.086784	0.07263	-3.2625	-3.6146	-4.3167	-3.6604	-4.0729	-3.9708	-3.4625	-4.3104	-3.8229	-3.6188	-4.2354	-3.3875	-3.9792	-4.1792	-3.3688	-4.2167	161.714	-163.018	-101.475	179.451	-26.901	-83.618	-45.564	118.369	26.310	-25.752	-134.677	168.634	-155.345	60.820	-126.457	156.983	0.0009789	0.00036616	5.2594e-05	838.89	8.0495e-06	8.4264e-06	707.51	321.72	1.6019e-06	9.3457e-06	298.41	112.24	105.97	42.47	4.077e-06	51.651	0.0060832	0.0069218	0.001923	912.15	7.2196e-05	7.4501e-05	783.72	350.2	7.1971e-05	7.461e-05	342.83	127.32	120.36	47.738	7.207e-05	58.999	133.603	-9.538	-173.191	-161.602	-171.232	-149.805	-163.154	-156.570	-31.706	-45.891	-158.523	-154.278	-152.268	-146.765	-48.917	-149.766	-8191	255	
#DATA ENDS
