BOXY.EXE: ISS Imagent and Oximeter Data Acquisition Program Version 0.80
Ascii Record File

#ACQ INFORMATION
2  Detector Channels 
16  External MUX Channels 
1  Auxiliary Channels 
5000  Waveform (CCF) Frequency (Hz)
1  Waveforms Skipped 
30  Waveforms Averaged 
1  Cycles Averaged 
16  Acquisitions per Waveform 
10.0806  Updata Rate (Hz) 

#FILE INFORMATION
TRUE -- External MUX Channel results are PARSED.
FALSE -- AC DC and Phase are NOT grouped.
TRUE -- Companion Program Settings File CREATED.
FALSE -- AC data not excluded
FALSE -- DC data not excluded
FALSE -- Phase data not excluded
FALSE -- Auxillary Chn. data not excluded
Tab delimiters

#CALIBRATION STATE
TRUE -- Waveform Calibration Values APPLIED.


#AUX CALIBRATION VALUES
Val Type	aux-1	

Term	1.0000e+00	
Factor	0.0000e+00	


#WF CALIBRATION VALUES
A = Detector Channel
Val Type	A-AC1	A-AC2	A-AC3	A-AC4	A-AC5	A-AC6	A-AC7	A-AC8	A-AC9	A-AC10	A-AC11	A-AC12	A-AC13	A-AC14	A-AC15	A-AC16	A-DC1	A-DC2	A-DC3	A-DC4	A-DC5	A-DC6	A-DC7	A-DC8	A-DC9	A-DC10	A-DC11	A-DC12	A-DC13	A-DC14	A-DC15	A-DC16	A-Ph1	A-Ph2	A-Ph3	A-Ph4	A-Ph5	A-Ph6	A-Ph7	A-Ph8	A-Ph9	A-Ph10	A-Ph11	A-Ph12	A-Ph13	A-Ph14	A-Ph15	A-Ph16	

Term	0.00000e+00	0.00000e+00	0.00000e+00	0.00000e+00	0.00000e+00	0.00000e+00	0.00000e+00	0.00000e+00	0.00000e+00	0.00000e+00	0.00000e+00	0.00000e+00	0.00000e+00	0.00000e+00	0.00000e+00	0.00000e+00	0.00000e+00	0.00000e+00	0.00000e+00	0.00000e+00	0.00000e+00	0.00000e+00	0.00000e+00	0.00000e+00	0.00000e+00	0.00000e+00	0.00000e+00	0.00000e+00	0.00000e+00	0.00000e+00	0.00000e+00	0.00000e+00	0.00000e+00	0.00000e+00	0.00000e+00	0.00000e+00	0.00000e+00	0.00000e+00	0.00000e+00	0.00000e+00	0.00000e+00	0.00000e+00	0.00000e+00	0.00000e+00	0.00000e+00	0.00000e+00	0.00000e+00	0.00000e+00	
Factor	1.00000e+00	1.00000e+00	1.00000e+00	1.00000e+00	1.00000e+00	1.00000e+00	1.00000e+00	1.00000e+00	1.00000e+00	1.00000e+00	1.00000e+00	1.00000e+00	1.00000e+00	1.00000e+00	1.00000e+00	1.00000e+00	1.00000e+00	1.00000e+00	1.00000e+00	1.00000e+00	1.00000e+00	1.00000e+00	1.00000e+00	1.00000e+00	1.00000e+00	1.00000e+00	1.00000e+00	1.00000e+00	1.00000e+00	1.00000e+00	1.00000e+00	1.00000e+00	X	X	X	X	X	X	X	X	X	X	X	X	X	X	X	X	

B = Detector Channel
Val Type	B-AC1	B-AC2	B-AC3	B-AC4	B-AC5	B-AC6	B-AC7	B-AC8	B-AC9	B-AC10	B-AC11	B-AC12	B-AC13	B-AC14	B-AC15	B-AC16	B-DC1	B-DC2	B-DC3	B-DC4	B-DC5	B-DC6	B-DC7	B-DC8	B-DC9	B-DC10	B-DC11	B-DC12	B-DC13	B-DC14	B-DC15	B-DC16	B-Ph1	B-Ph2	B-Ph3	B-Ph4	B-Ph5	B-Ph6	B-Ph7	B-Ph8	B-Ph9	B-Ph10	B-Ph11	B-Ph12	B-Ph13	B-Ph14	B-Ph15	B-Ph16	

Term	0.00000e+00	0.00000e+00	0.00000e+00	0.00000e+00	0.00000e+00	0.00000e+00	0.00000e+00	0.00000e+00	0.00000e+00	0.00000e+00	0.00000e+00	0.00000e+00	0.00000e+00	0.00000e+00	0.00000e+00	0.00000e+00	0.00000e+00	0.00000e+00	0.00000e+00	0.00000e+00	0.00000e+00	0.00000e+00	0.00000e+00	0.00000e+00	0.00000e+00	0.00000e+00	0.00000e+00	0.00000e+00	0.00000e+00	0.00000e+00	0.00000e+00	0.00000e+00	-1.65560e+02	-1.26939e+02	-1.30200e+02	-1.83531e+02	-7.95580e+01	-6.23298e+01	-1.55913e+02	-1.62015e+02	-8.00935e+01	-6.99222e+01	-1.69783e+02	-1.70754e+02	-1.79463e+02	-1.76415e+02	-7.83609e+01	-1.49214e+02	
Factor	2.59736e-05	1.59396e-04	3.76247e-05	1.70707e-01	1.04767e-06	1.40068e-06	1.50441e-01	4.85057e-02	9.61463e-07	1.40745e-06	8.22453e-02	2.84523e-02	2.38378e-02	8.71675e-03	1.43886e-06	1.23208e-02	3.02569e-06	3.31224e-06	9.20197e-07	9.14355e-02	3.58392e-08	3.62363e-08	7.61070e-02	2.61631e-02	3.57514e-08	3.62322e-08	4.28669e-02	1.48528e-02	1.29378e-02	4.71403e-03	3.60000e-08	6.45373e-03	X	X	X	X	X	X	X	X	X	X	X	X	X	X	X	X	



#DISTANCE SETTINGS
A = Detector Channel
A-1	A-2	A-3	A-4	A-5	A-6	A-7	A-8	A-9	A-10	A-11	A-12	A-13	A-14	A-15	A-16	

2.5000e+00	3.0000e+00	2.5000e+00	3.0000e+00	2.0000e+00	3.0000e+00	1.5000e+00	3.0000e+00	3.0000e+00	3.0000e+00	3.0000e+00	3.0000e+00	3.0000e+00	3.0000e+00	1.5000e+00	3.0000e+00	

B = Detector Channel
B-1	B-2	B-3	B-4	B-5	B-6	B-7	B-8	B-9	B-10	B-11	B-12	B-13	B-14	B-15	B-16	

1.0000e+01	1.0000e+01	1.0000e+01	1.4400e+00	1.0000e+01	1.0000e+01	1.5100e+00	1.9400e+00	1.0000e+01	1.0000e+01	1.9900e+00	2.4900e+00	2.4100e+00	2.9000e+00	1.0000e+01	2.9800e+00	




#DATA BEGINS
time	group	step	mark	flag	A-AC1	A-AC2	A-AC3	A-AC4	A-AC5	A-AC6	A-AC7	A-AC8	A-AC9	A-AC10	A-AC11	A-AC12	A-AC13	A-AC14	A-AC15	A-AC16	A-DC1	A-DC2	A-DC3	A-DC4	A-DC5	A-DC6	A-DC7	A-DC8	A-DC9	A-DC10	A-DC11	A-DC12	A-DC13	A-DC14	A-DC15	A-DC16	A-Ph1	A-Ph2	A-Ph3	A-Ph4	A-Ph5	A-Ph6	A-Ph7	A-Ph8	A-Ph9	A-Ph10	A-Ph11	A-Ph12	A-Ph13	A-Ph14	A-Ph15	A-Ph16	B-AC1	B-AC2	B-AC3	B-AC4	B-AC5	B-AC6	B-AC7	B-AC8	B-AC9	B-AC10	B-AC11	B-AC12	B-AC13	B-AC14	B-AC15	B-AC16	B-DC1	B-DC2	B-DC3	B-DC4	B-DC5	B-DC6	B-DC7	B-DC8	B-DC9	B-DC10	B-DC11	B-DC12	B-DC13	B-DC14	B-DC15	B-DC16	B-Ph1	B-Ph2	B-Ph3	B-Ph4	B-Ph5	B-Ph6	B-Ph7	B-Ph8	B-Ph9	B-Ph10	B-Ph11	B-Ph12	B-Ph13	B-Ph14	B-Ph15	B-Ph16	aux-1	digaux	

32339.777	1	1	0	512	0.22513	0.027443	0.21276	0.23165	0.14038	0.08157	0.08375	0.25873	0.18035	0.074769	0.25541	0.12943	0.19811	0.13146	0.17437	0.066502	-2.3042	-3.5958	-2.8375	-3.3229	-3.2167	-2.7	-3.3479	-3.1	-2.8792	-3.5771	-2.9625	-3.2479	-3.3625	-2.6083	-3.2979	-3.1188	102.169	414.396	417.415	242.098	248.784	134.103	343.209	94.964	236.501	81.257	113.109	419.869	399.221	321.867	257.563	278.471	0.00025057	0.0056003	0.00092431	137.77	2.9147e-05	4.2062e-05	210.16	52.684	2.0112e-05	2.1895e-05	84.083	29.811	17.856	8.3631	5.4093e-05	15.413	0.075761	0.082797	0.02312	2451.7	0.00089477	0.00090454	2130.4	711.24	0.00089092	0.00090293	1166.4	405.12	340.74	126.45	0.00089802	177.54	106.735	183.202	249.300	83.519	159.986	192.190	82.853	88.207	180.346	173.560	86.535	90.904	92.921	98.092	133.417	94.732	-8191	255	
32339.873	1	1	0	0	0.11404	0.18976	0.22304	0.14556	0.053864	0.080515	0.25779	0.15699	0.17426	0.098249	0.26039	0.10878	0.29264	0.28163	0.14722	0.25279	-2.3583	-3.4542	-2.8333	-3.0167	-3.3187	-2.9062	-3.4104	-3.175	-2.9542	-3.5021	-2.8438	-3.0312	-3.5396	-2.8354	-3.3812	-3.3125	389.221	188.541	406.941	100.569	408.675	368.955	330.814	195.185	302.746	387.160	147.412	330.908	253.735	423.392	293.240	318.643	0.00017092	0.0030856	0.0011661	133.16	3.4142e-05	3.8027e-05	203.25	50.165	2.5953e-05	2.2563e-05	81.118	31.296	17.353	8.8038	5.5509e-05	15.145	0.074885	0.082048	0.022846	2417.6	0.00088371	0.00089188	2106.5	700.41	0.00087768	0.00088991	1148.4	398.57	335.68	124.94	0.00088492	175.09	217.410	211.540	130.500	84.336	377.631	313.414	82.408	89.640	180.890	74.506	86.974	91.563	96.169	96.719	260.667	93.766	-8191	255	
32339.969	1	1	0	0	0.2572	0.16963	0.15125	0.14226	0.14526	0.095883	0.14977	0.25566	0.19287	0.23983	0.14661	0.13533	0.17234	0.13747	0.11275	0.30825	-2.3458	-3.5521	-3.0729	-2.8187	-3.55	-2.6417	-3.2708	-3.2396	-2.7208	-3.3208	-3.1208	-3.0542	-3.65	-2.65	-3.2479	-3.4896	192.455	155.105	114.036	401.025	376.647	361.536	325.084	286.745	87.472	316.863	95.642	373.880	233.658	205.399	86.552	82.056	0.0011649	0.0037081	0.00042085	139.96	1.652e-05	1.5338e-05	201.39	51.396	3.7839e-05	3.8001e-05	85.142	30.856	18.167	8.4176	2.3358e-05	15.374	0.073793	0.081242	0.022652	2393.9	0.00087685	0.00088995	2097.7	698.06	0.00087507	0.00089212	1150.4	398.54	337.11	125.69	0.00088985	175.79	90.131	83.873	403.370	85.915	379.922	144.470	81.398	87.658	100.461	357.855	86.540	91.361	90.684	97.107	397.716	94.574	-8191	255	
32340.064	1	1	0	0	0.093843	0.18726	0.28751	0.074907	0.14578	0.11373	0.27636	0.13343	0.20434	0.17725	0.23487	0.13132	0.29615	0.23242	0.22145	0.06133	-2.3854	-3.3729	-3.0375	-2.5938	-3.5	-3.0083	-3.0917	-3.5271	-2.6646	-3.3292	-3.1937	-2.8542	-3.5563	-2.9896	-3.1229	-3.3667	255.523	344.748	361.341	290.212	209.210	160.582	370.366	332.693	74.363	339.553	199.038	312.551	192.834	161.052	169.340	359.642	0.0004033	0.0024892	0.00013444	140.19	2.7686e-05	1.3424e-05	202.9	52.47	1.4932e-05	5.0027e-05	83.104	30.617	16.997	8.7286	1.0459e-05	15.353	0.074462	0.081841	0.022737	2397.5	0.00088036	0.0008934	2097	696.43	0.00087619	0.00089168	1144.4	396.95	336.26	125.37	0.00088557	175.05	160.042	73.848	345.199	86.009	291.480	351.462	82.751	87.200	298.292	184.839	83.876	89.734	91.361	97.232	91.784	93.181	-8191	255	
32340.186	1	1	0	0	0.27876	0.2264	0.16605	0.13585	0.11202	0.1535	0.10645	0.078363	0.10697	0.076168	0.028558	0.33356	0.14426	0.15036	0.080139	0.073316	-2.3	-3.3521	-3.2125	-2.6729	-3.4854	-3.0875	-3.1417	-3.5021	-2.775	-3.2812	-3.3333	-2.7354	-3.5333	-3.0417	-2.8896	-3.5729	427.400	144.359	403.549	257.485	157.238	218.210	376.443	286.311	390.490	334.071	312.533	377.909	376.180	219.916	120.334	408.192	0.0010751	0.0021914	0.0011036	136.07	2.8414e-05	2.3208e-05	205.57	50.17	2.3434e-05	9.9024e-06	84.29	30.663	18.324	8.5655	1.1046e-05	15.189	0.074353	0.081678	0.022645	2391.2	0.00088006	0.00089277	2094.8	696.06	0.00087626	0.00089279	1143.5	396.37	336.32	125.25	0.00088188	174.61	115.162	116.858	415.826	82.170	235.674	130.956	83.488	88.690	238.157	404.035	86.390	91.040	94.597	98.772	211.785	95.209	-8191	255	
32340.281	1	1	0	0	0.19352	0.1533	0.21592	0.09611	0.14961	0.083977	0.10162	0.10242	0.23005	0.24044	0.074081	0.16187	0.094778	0.13871	0.097709	0.23112	-2.4333	-3.3396	-3.2687	-2.7333	-3.3729	-2.9979	-2.9313	-3.4688	-2.7229	-3.2458	-3.3104	-2.8667	-3.4604	-2.9521	-2.8187	-3.4125	329.018	184.247	244.956	204.182	305.779	413.531	186.284	393.101	131.079	319.855	272.744	389.055	377.229	107.493	237.555	293.196	0.0004893	0.0051858	0.00033986	137.44	1.098e-05	3.9154e-05	204.17	50.749	3.6826e-05	3.3107e-05	83.497	31.108	17.828	8.3128	3.787e-05	15.602	0.074168	0.081343	0.022503	2380.8	0.00087681	0.0008875	2076.7	691.96	0.00087335	0.00088705	1137.1	394.98	335.35	124.42	0.00087558	173.78	219.837	182.491	404.221	83.725	203.440	365.574	82.583	86.807	98.930	121.405	85.242	90.854	95.519	97.611	391.469	92.426	-8191	255	
32340.379	1	1	0	0	0.1184	0.14222	0.15281	0.013956	0.19034	0.175	0.074142	0.085215	0.073534	0.16966	0.26541	0.14423	0.26625	0.21261	0.029454	0.28902	-2.4625	-3.1083	-3.3479	-2.6667	-3.3833	-3.0083	-2.9938	-3.3563	-3.0875	-3.1521	-3.375	-2.6854	-3.4583	-3.2042	-2.8896	-3.4896	357.735	123.586	205.451	368.025	187.427	411.308	369.305	282.220	183.271	285.814	85.468	330.792	96.152	313.087	90.210	366.220	0.00042166	0.0021643	0.00031353	138.98	4.5732e-05	3.9862e-05	199.55	52.455	2.9083e-05	2.645e-05	82.709	30.977	17.243	8.5057	2.8963e-06	15.384	0.073808	0.080847	0.022323	2366.8	0.0008731	0.00088137	2058.2	687.64	0.0008672	0.00087717	1125.2	391.14	332.08	123.13	0.0008644	172.02	316.572	281.748	176.416	86.140	108.863	117.979	84.791	88.609	74.191	181.543	85.955	92.104	93.546	96.270	272.587	93.207	-8191	255	
32340.475	1	1	0	0	0.17038	0.30809	0.16059	0.033593	0.087083	0.12498	0.19073	0.14868	0.08908	0.054158	0.10443	0.13542	0.14504	0.048797	0.10904	0.075137	-2.4104	-2.8792	-3.4333	-2.8667	-3.1854	-3.1625	-2.8417	-3.3854	-2.8833	-2.9708	-3.3875	-2.6813	-3.3792	-3.3333	-2.4667	-3.5792	321.441	411.255	414.694	290.729	208.622	89.254	198.121	334.070	291.108	371.090	366.133	374.028	117.083	109.120	415.331	344.651	0.00045211	0.0022982	0.0014068	136.41	1.5382e-05	1.5645e-05	203.94	50.717	7.7762e-06	3.0139e-05	86.664	31.182	17.208	8.7208	3.6803e-05	15.547	0.073058	0.079748	0.02205	2347.5	0.00086476	0.00087143	2046.4	685.18	0.00086284	0.00087314	1122.6	391.88	332.11	123.09	0.00086616	173.06	162.534	324.129	98.197	84.852	357.622	102.630	83.451	89.501	191.235	243.281	86.534	91.029	92.734	98.153	117.934	92.314	-8191	255	
32340.594	1	1	0	0	0.085631	0.12933	0.090235	0.24938	0.1168	0.21851	0.11807	0.16379	0.01732	0.094506	0.040937	0.30425	0.067479	0.18384	0.22323	0.093406	-2.6562	-2.75	-3.4104	-2.7562	-3.1896	-3.3479	-2.8792	-3.3521	-2.9875	-2.8937	-3.6937	-2.95	-3.2	-3.3937	-2.6688	-3.5458	194.920	345.915	299.959	133.320	192.812	141.623	368.003	76.068	179.110	227.815	99.802	371.260	342.788	404.636	150.468	149.630	0.0003771	0.0033082	0.0010842	135.22	1.8916e-05	2.2812e-05	202.24	51.34	1.1945e-05	4.5682e-05	86.705	30.794	17.358	8.8099	1.711e-05	15.593	0.073381	0.079866	0.022155	2361.5	0.00086793	0.00087385	2051.5	687.3	0.00086333	0.00087306	1124.1	392.48	332.95	123.03	0.00086831	173.52	422.956	366.222	150.389	83.217	243.628	350.193	83.225	88.012	322.103	372.077	87.637	91.259	92.435	96.804	388.517	95.461	-8191	255	
32340.664	1	1	0	0	0.17496	0.16907	0.10212	0.17828	0.12861	0.17331	0.057365	0.20407	0.16816	0.060188	0.088221	0.17738	0.1978	0.061045	0.11683	0.19078	-2.6521	-2.7812	-3.4062	-2.95	-3.0771	-3.4583	-2.6083	-3.2979	-3.3354	-2.7562	-3.6354	-2.8667	-2.8937	-3.4646	-2.6292	-3.4229	395.956	82.253	285.117	327.753	371.207	378.325	216.915	176.163	371.714	274.594	150.838	247.950	313.475	370.662	130.120	350.243	0.00053206	0.0044392	0.00071665	138.71	4.0193e-05	4.2375e-05	196.91	51.38	1.0736e-05	3.125e-05	84.457	30.569	17.692	8.511	4.1915e-05	15.285	0.073436	0.079864	0.022255	2369.5	0.00086948	0.00087466	2060.8	689.88	0.00086614	0.00087375	1128.2	393.9	332.62	123.07	0.00087033	173.58	389.303	298.289	105.613	82.482	141.987	114.933	83.695	88.634	343.784	84.933	86.422	92.825	90.841	98.335	233.674	91.745	-8191	255	
32340.785	1	1	0	0	0.28031	0.21756	0.096209	0.16365	0.14525	0.079023	0.1403	0.12323	0.1394	0.13817	0.15254	0.2383	0.12394	0.10088	0.082741	0.1948	-2.6417	-2.6208	-3.5229	-2.7333	-2.8542	-3.3792	-2.65	-3.0604	-3.2917	-2.7438	-3.5687	-2.8333	-2.9062	-3.4771	-2.9458	-3.2375	119.761	389.113	413.281	415.779	231.031	268.301	106.533	384.448	388.909	216.040	394.737	179.761	209.102	107.405	104.759	355.247	0.0010122	0.0065454	0.00035193	135.49	4.0499e-05	3.328e-05	204.74	49.789	1.0722e-05	4.0495e-05	83.417	31.087	17.753	8.6161	2.3054e-05	15.725	0.073297	0.079979	0.022267	2368.7	0.0008661	0.00087365	2064.8	691.35	0.00086638	0.00087584	1131	394.46	332.42	123.17	0.00087289	173.79	85.250	322.918	136.845	84.954	333.595	367.996	82.751	89.388	195.614	249.453	86.841	89.646	92.146	95.935	83.635	92.495	-8191	255	
32340.881	1	1	0	0	0.2687	0.13952	0.25125	0.26546	0.20825	0.057455	0.21031	0.17759	0.19054	0.098431	0.13986	0.30523	0.16663	0.06398	0.056088	0.28477	-2.9521	-2.6521	-3.4271	-3.05	-2.7354	-3.5458	-3.0646	-3.1854	-3.3854	-2.5458	-3.4562	-3.1396	-2.7208	-3.4375	-2.8458	-3.1771	169.550	397.322	267.551	409.238	365.425	382.208	80.062	315.867	424.112	116.416	294.649	286.267	411.023	386.489	126.290	105.302	0.00021273	0.0019286	0.00098018	142.58	8.0641e-06	4.9114e-05	198.55	51.787	2.791e-05	1.7407e-05	87.674	31.046	17.296	8.4762	1.1136e-05	15.17	0.07331	0.080123	0.022348	2372.2	0.00086686	0.00087465	2068	689.52	0.00086246	0.0008741	1130.5	392.6	330.51	122.9	0.00087122	172.94	77.594	113.670	184.017	81.953	107.358	372.469	82.062	89.438	289.797	153.121	87.065	91.076	92.592	98.103	228.761	93.901	-8191	255	
32340.979	1	1	0	0	0.11639	0.24199	0.24349	0.099856	0.22699	0.085401	0.10452	0.19409	0.16799	0.097115	0.19906	0.2249	0.073769	0.11815	0.05923	0.12194	-3.1021	-2.7938	-3.2646	-3.1312	-2.9021	-3.4479	-3.0104	-2.8604	-3.3958	-2.7917	-3.2125	-3.3229	-2.5979	-3.4688	-2.9646	-3.0667	396.406	255.836	84.751	301.855	281.150	388.620	373.154	100.061	273.722	240.580	360.565	376.212	115.695	358.706	413.085	374.548	0.0005477	0.005141	0.00059562	137.08	2.5456e-05	6.7132e-05	200.8	51.881	2.5243e-05	3.5141e-05	84.891	30.949	18.038	8.4954	8.1813e-05	15.406	0.072839	0.079716	0.022319	2360.8	0.00086294	0.00087353	2065.1	687.57	0.00085957	0.00087425	1130.7	392.31	330.62	123.22	0.00087179	172.79	137.929	247.121	369.615	84.578	169.888	239.166	83.175	89.859	225.101	97.149	88.318	90.999	91.867	97.364	127.838	93.800	-8191	255	
32341.074	1	1	0	0	0.14769	0.091317	0.08732	0.095602	0.053386	0.025582	0.022855	0.24703	0.22924	0.13884	0.19393	0.09596	0.024696	0.16849	0.10952	0.16159	-3.1125	-2.7604	-3.3458	-3.2354	-2.6354	-3.4958	-3.0938	-3.0187	-3.4104	-2.8875	-3.2562	-3.3688	-2.7208	-3.4292	-3.075	-3.1208	331.088	393.469	209.196	127.545	90.726	133.268	131.496	313.986	189.473	395.227	424.289	168.404	414.658	401.585	198.757	268.716	4.8105e-05	0.0036215	0.00068696	136.36	2.4622e-05	1.7036e-05	201.84	51.944	2.1769e-05	2.878e-05	83.109	30.645	17.285	8.4284	7.5403e-05	15.349	0.072947	0.08015	0.022389	2365.7	0.00086597	0.00087976	2075.1	689.4	0.00086263	0.00087729	1132	392.14	330.64	123.31	0.00087157	172.37	111.139	229.329	204.836	83.342	266.475	333.338	82.838	88.126	131.228	420.262	86.024	90.358	92.453	96.687	332.285	93.027	-8191	255	
32341.193	1	1	0	0	0.048489	0.20647	0.14948	0.164	0.063154	0.15526	0.17566	0.22244	0.022634	0.1129	0.059059	0.14789	0.067111	0.1642	0.18377	0.06318	-3.1833	-2.7333	-3.0187	-3.325	-2.6854	-3.2958	-3.125	-2.9542	-3.6479	-2.8812	-3.1521	-3.3063	-2.7771	-3.5125	-3.2292	-2.7042	352.934	291.387	418.629	277.631	305.043	148.669	313.486	422.894	136.662	133.936	362.200	290.451	224.533	89.388	333.057	308.247	0.00013989	0.003044	0.0012189	137.89	1.8923e-05	3.625e-05	203.66	50.633	4.4386e-05	1.6094e-05	81.563	30.939	18.275	8.4613	2.2511e-05	15.308	0.072825	0.080175	0.022252	2353.3	0.00086159	0.0008765	2064.6	684.99	0.00086086	0.00087715	1129.8	390.88	330.64	123.51	0.00087212	172.27	356.476	136.569	341.402	83.949	342.178	187.887	83.462	88.550	213.142	143.144	86.138	89.909	92.323	94.748	168.849	95.291	-8191	255	
32341.266	1	1	0	0	0.29824	0.19292	0.0819	0.083755	0.14368	0.13901	0.10333	0.11184	0.077714	0.3107	0.16159	0.064867	0.21821	0.14614	0.18921	0.20425	-3.1521	-2.8312	-3.1271	-3.3979	-2.6979	-3.3208	-3.2667	-2.8854	-3.5042	-2.9333	-2.9062	-3.4958	-2.5708	-3.0896	-3.3187	-2.6917	388.930	200.923	417.492	418.221	262.822	309.401	104.156	121.276	348.223	219.297	399.913	398.167	342.876	306.909	279.514	379.172	0.00078585	0.0018569	0.00043752	136.62	3.1126e-05	2.5113e-05	195.16	51.531	6.3072e-05	1.5866e-05	79.023	30.896	17.891	8.36	4.4415e-05	15.239	0.073022	0.080446	0.022318	2355.6	0.00086508	0.00087868	2060.6	684.33	0.00086061	0.00087654	1124.7	389.45	330.7	123.21	0.00086714	171.76	419.281	108.458	166.813	81.221	144.722	101.779	82.224	88.006	177.589	79.011	86.892	90.234	92.321	95.704	386.117	92.786	-8191	255	
32341.361	1	1	0	0	0.068717	0.14129	0.1578	0.28266	0.14992	0.13355	0.10495	0.15337	0.17318	0.17938	0.31224	0.19307	0.2644	0.12905	0.22029	0.087162	-3.1104	-2.8375	-2.9313	-3.5812	-2.9938	-3.375	-3.4688	-2.6417	-3.3792	-2.9792	-2.9354	-3.6208	-2.8667	-3.1292	-3.3083	-2.8812	419.375	330.989	162.868	279.230	348.497	359.607	109.802	357.468	372.542	303.281	375.861	387.049	336.977	335.162	246.364	304.302	0.00041889	0.0040048	0.00082832	135.76	9.6335e-06	4.5086e-05	201.65	50.646	3.0859e-05	2.3886e-05	86.298	31.318	18.232	8.6064	2.0569e-05	15.238	0.072934	0.08005	0.022159	2343.5	0.00086273	0.00087412	2048.4	681.11	0.00085826	0.00087214	1118	387.94	329.48	122.49	0.00086022	170.78	288.198	354.703	307.389	82.895	150.969	424.729	82.029	90.449	309.335	371.102	87.061	90.724	92.743	97.456	94.143	92.494	-8191	255	
32341.457	1	1	0	0	0.11209	0.21319	0.27593	0.039918	0.051287	0.17059	0.13731	0.074052	0.1928	0.011681	0.10734	0.18126	0.18342	0.20011	0.12905	0.1783	-3.0375	-3.1271	-2.8917	-3.55	-2.9125	-3.1208	-3.475	-2.8125	-3.3104	-2.9771	-2.9083	-3.5979	-2.8854	-3.1708	-3.5396	-2.8	263.257	84.151	267.842	351.183	244.237	252.711	322.237	123.623	383.144	288.113	361.337	313.321	237.931	244.866	419.638	337.061	0.00056318	0.0042225	0.00032779	140.55	7.938e-06	3.4696e-05	206.95	51.738	2.3441e-05	3.9411e-05	81.718	30.632	18.121	8.6558	3.5737e-05	15.677	0.07242	0.079388	0.021955	2329.9	0.00085713	0.0008674	2035.4	679.1	0.0008565	0.0008686	1114.3	388.43	330.3	122.56	0.00086262	171.38	109.226	369.317	194.111	85.264	202.484	239.798	82.344	88.375	245.281	126.827	86.579	92.157	92.259	98.146	186.469	92.892	-8191	255	
32341.555	1	1	0	0	0.046273	0.059028	0.16083	0.16634	0.20688	0.1107	0.071185	0.05833	0.057421	0.12657	0.040671	0.12432	0.22673	0.075137	0.16536	0.016	-3.0979	-3.2208	-2.825	-3.5583	-2.9479	-3.0625	-3.4771	-2.8021	-3.3	-3.2771	-2.8542	-3.5438	-2.9792	-3.0042	-3.5125	-2.7896	287.184	411.702	429.331	431.217	295.645	327.615	377.831	333.623	355.568	99.138	142.664	298.544	128.059	320.523	138.181	306.860	7.79e-05	0.0025149	0.00055123	137.45	2.9836e-05	9.1494e-06	206.07	52.237	1.4087e-05	4.2146e-05	86.12	30.555	18.148	8.6803	1.6767e-05	15.192	0.073116	0.079976	0.022141	2359.6	0.00086908	0.00087716	2056.7	687.66	0.00086798	0.00087862	1128.9	393.42	334.64	123.83	0.00087305	173.74	407.194	244.085	369.999	85.644	213.878	214.754	82.217	89.878	264.322	119.907	85.326	90.628	91.670	94.948	162.285	93.778	-8191	255	
32341.674	1	1	0	0	0.22051	0.081419	0.1732	0.12596	0.3315	0.14936	0.16544	0.060256	0.15671	0.17507	0.044251	0.081014	0.2534	0.14928	0.12411	0.35661	-2.8771	-3.325	-2.5833	-3.6333	-2.9125	-3.0396	-3.4396	-2.8812	-3.2792	-3.4354	-2.6854	-3.4958	-3.0938	-2.875	-3.4125	-2.7479	211.070	405.566	257.644	134.720	290.887	153.709	180.256	348.915	113.500	313.142	417.535	221.733	330.280	337.607	372.156	301.547	0.00059372	0.0040671	0.0004603	146.58	1.9321e-05	2.5602e-05	209.3	51.335	1.4259e-05	3.0885e-05	80.259	30.647	17.864	8.4896	4.3477e-05	15.283	0.073901	0.080439	0.022305	2379.2	0.00087509	0.00088022	2067.8	693.9	0.00087325	0.00088072	1131.6	395.32	335.43	123.83	0.0008754	174.42	172.675	418.784	301.770	84.485	72.648	304.983	83.348	87.982	127.741	290.067	87.169	91.640	92.863	97.345	380.183	95.199	-8191	255	
32341.770	1	1	0	0	0.18136	0.30586	0.039931	0.098124	0.05306	0.018777	0.15422	0.3027	0.13361	0.23029	0.14665	0.12541	0.11862	0.19905	0.11734	0.15633	-2.7625	-3.5375	-2.675	-3.5563	-3.1146	-2.7083	-3.5083	-2.9917	-3.0958	-3.4	-2.5875	-3.3833	-3.3604	-2.5583	-3.4333	-2.8979	382.356	366.265	156.314	400.089	272.100	98.291	188.524	285.993	146.683	103.234	258.208	260.907	191.823	290.876	304.842	394.694	0.00019615	0.0053624	0.0012748	140.16	2.0882e-05	5.6562e-05	206.16	53.001	2.7038e-05	3.7225e-05	85.41	30.413	16.918	8.3104	5.1011e-05	15.318	0.074008	0.080708	0.02242	2394.6	0.00087721	0.00088457	2079.2	698.06	0.00087555	0.00088414	1137.5	397.67	336.24	124.34	0.00087868	175.07	173.737	124.313	209.630	83.202	250.282	363.659	81.966	87.939	324.064	202.587	86.704	90.581	95.768	95.446	96.167	92.073	-8191	255	
32341.865	1	1	0	0	0.066253	0.096941	0.10008	0.19676	0.096087	0.1121	0.12411	0.095296	0.095979	0.14565	0.072104	0.22511	0.26863	0.045763	0.27219	0.099585	-2.4771	-3.3521	-2.8292	-3.2958	-3.4188	-2.8146	-3.4271	-3.0312	-2.85	-3.5083	-2.7271	-3.1958	-3.4	-2.7083	-3.4458	-3.0604	227.047	254.008	100.706	396.260	213.051	222.611	182.248	236.325	102.218	186.311	367.895	401.916	354.948	324.093	238.762	255.610	0.00066387	0.0010473	0.00099331	135.64	2.5765e-05	7.3741e-05	203.84	51.135	2.1481e-05	3.3997e-05	86.081	30.049	17.575	8.5694	3.5359e-05	15.569	0.074239	0.080795	0.022499	2400.8	0.00087749	0.00088488	2085.1	699.09	0.00087625	0.00088637	1143.7	398.44	336.13	124.44	0.00088209	175.31	191.884	410.164	214.862	84.336	334.783	305.944	83.453	88.955	93.559	149.532	85.879	91.352	90.482	96.420	287.813	93.777	-8191	255	
32341.963	1	1	0	0	0.21691	0.17275	0.089055	0.18682	0.22019	0.069889	0.14513	0.40008	0.20021	0.12782	0.07061	0.043854	0.20467	0.12625	0.20797	0.14132	-2.5667	-3.6292	-2.7729	-3.1375	-3.4104	-2.7833	-3.4417	-3.2083	-2.7646	-3.475	-2.8271	-3.1896	-3.2125	-2.7083	-3.4896	-3.0729	156.023	276.031	234.338	334.817	359.735	200.083	250.902	398.204	350.672	377.421	401.132	408.454	183.497	71.413	147.312	269.664	0.00085669	0.0072354	0.00083935	138.27	1.6242e-05	3.1183e-05	200.63	51.597	3.527e-05	1.8928e-05	81.996	31.083	17.895	8.4239	4.7707e-05	15.198	0.074036	0.080768	0.022569	2399.3	0.0008766	0.00088485	2090.4	699.31	0.00087397	0.00088557	1143.4	398.01	335.17	124.26	0.00088288	174.57	186.835	91.499	426.509	81.003	152.593	157.444	83.891	88.214	159.829	153.478	86.301	91.211	94.710	94.763	215.379	93.415	-8191	255	
32342.059	1	1	0	0	0.14886	0.27994	0.19091	0.1761	0.043383	0.22078	0.23138	0.14963	0.15518	0.076428	0.059587	0.092673	0.098263	0.15867	0.36554	0.2381	-2.35	-3.4146	-2.9313	-2.9958	-3.3667	-2.6792	-3.5646	-3.1771	-2.7625	-3.4542	-2.9813	-2.9333	-3.3521	-2.6271	-3.2479	-3.2729	325.316	372.322	259.534	406.574	280.676	333.275	219.731	278.959	340.746	208.212	296.160	86.648	308.120	275.595	234.361	403.688	0.00096112	0.0057471	0.0010307	141.59	6.1558e-06	4.4625e-05	207.31	50.868	2.1493e-06	2.0011e-05	84.891	29.831	16.853	8.6319	4.6351e-05	15.022	0.073711	0.080743	0.022563	2389.7	0.00087414	0.00088409	2089.3	695.87	0.0008707	0.00088377	1143.2	396.55	335.01	124.53	0.00088458	174.69	205.714	153.232	251.657	84.699	94.403	320.420	83.237	88.151	205.634	232.898	85.027	92.526	91.915	96.929	178.374	94.009	-8191	255	
32342.154	1	1	0	0	0.094069	0.07564	0.19826	0.069932	0.10266	0.23074	0.12527	0.068053	0.22498	0.2216	0.18557	0.16982	0.066734	0.17682	0.038492	0.13491	-2.3271	-3.5333	-3.0875	-2.9042	-3.5625	-2.8729	-3.2729	-3.3896	-2.925	-3.5104	-3.0792	-2.8063	-3.4333	-2.575	-3.3229	-3.4417	306.349	98.585	111.659	264.530	188.322	380.315	426.513	423.386	371.919	318.285	314.589	192.379	367.953	144.940	328.404	244.081	0.0011359	0.0054613	0.00086618	138.02	1.7278e-05	2.6758e-05	202.79	51.541	1.3342e-05	1.6812e-05	84.843	30.621	18.143	8.7253	4.067e-05	15.36	0.073741	0.081095	0.022616	2389.8	0.00087462	0.00088848	2095.4	696.58	0.00087165	0.00088634	1142.9	394.9	333.44	124.01	0.00087865	173.38	92.075	109.319	125.570	82.642	74.417	354.250	83.452	88.386	149.336	184.216	84.436	90.141	93.035	98.022	304.311	94.572	-8191	255	
32342.275	1	1	0	0	0.24359	0.27039	0.18468	0.15167	0.14471	0.14919	0.084687	0.10776	0.21945	0.34306	0.27351	0.11336	0.056282	0.08004	0.084794	0.15936	-2.3021	-3.4458	-3.025	-2.7958	-3.5542	-2.8875	-3.0521	-3.4	-2.6792	-3.4813	-3.2375	-2.7438	-3.575	-2.7667	-2.9521	-3.4688	84.480	89.925	302.753	135.797	81.382	281.954	177.892	357.237	177.050	427.056	98.969	162.239	299.199	367.993	392.623	340.696	0.00034772	0.0050417	0.00040427	146.9	1.4455e-05	5.0673e-05	204.2	51.076	2.4308e-05	2.0067e-05	82.914	30.713	18.134	8.4994	1.4657e-05	15.17	0.073252	0.080653	0.022442	2370.3	0.00086891	0.00088386	2076	690.98	0.00086706	0.00088401	1138.1	393.97	333.62	124.61	0.00087851	173.68	252.937	73.292	84.143	84.746	190.429	142.934	82.990	89.113	384.551	79.954	84.879	91.319	95.805	96.804	315.316	92.461	-8191	255	
32342.371	1	1	0	0	0.22196	0.2276	0.073969	0.24122	0.17436	0.15086	0.054676	0.24953	0.049424	0.17715	0.21808	0.19476	0.2859	0.16335	0.19893	0.20109	-2.225	-3.3	-3.1333	-2.6562	-3.4167	-2.8208	-2.8688	-3.4104	-2.7313	-3.4458	-3.2188	-2.7875	-3.45	-3.0875	-2.8646	-3.4021	228.087	419.224	350.148	76.899	153.185	251.471	175.082	228.339	273.250	107.230	350.378	404.833	408.406	228.228	217.290	303.421	0.00047554	0.0032891	0.00065344	143.52	3.2752e-05	4.0632e-05	209.06	49.566	2.3782e-05	3.2895e-05	86.215	31.234	17.994	8.4259	3.1003e-05	15.222	0.073788	0.081253	0.022573	2388.2	0.00087902	0.00089531	2098.2	696.37	0.00087804	0.00089467	1145.7	396.81	336.85	125.5	0.0008833	174.55	73.119	72.254	146.506	85.213	241.454	224.677	83.515	88.372	316.411	188.484	86.223	89.518	94.439	95.956	246.696	93.673	-8191	255	
32342.465	1	1	0	0	0.15894	0.11954	0.12862	0.059037	0.19041	0.23485	0.10079	0.14215	0.20907	0.20371	0.12894	0.11065	0.22748	0.14035	0.20753	0.30571	-2.4042	-3.0542	-3.3708	-2.675	-3.4396	-3.0458	-2.8729	-3.6167	-2.9688	-3.0312	-3.2812	-2.5896	-3.4271	-3.1667	-2.8104	-3.5896	380.557	222.507	252.459	335.582	220.848	244.799	320.325	320.865	171.469	286.709	265.935	416.689	258.461	371.376	236.048	79.342	0.00019406	0.0050413	0.00069308	143.38	3.0474e-05	3.7506e-05	199.14	52.53	8.1656e-06	2.2538e-05	82.982	29.806	18.252	8.4093	3.1348e-05	15.826	0.074213	0.081581	0.022608	2389.4	0.00088149	0.00089624	2095.6	698.88	0.00088115	0.00089591	1146.5	397.97	338.64	125.8	0.00088454	175.15	79.757	281.028	291.174	86.152	278.937	312.984	83.222	90.058	364.529	177.867	85.783	90.395	94.265	97.574	397.863	94.119	-8191	255	
32342.561	1	1	0	0	0.2401	0.093143	0.24343	0.22736	0.10717	0.13778	0.23271	0.1971	0.259	0.14688	0.35814	0.29062	0.25827	0.24531	0.16237	0.13952	-2.3125	-3.0312	-3.3438	-2.6833	-3.2438	-3.2625	-2.7167	-3.3937	-2.7313	-3.0917	-3.3271	-2.7333	-3.3937	-3.1042	-2.8688	-3.575	314.900	333.105	184.466	229.304	155.838	246.841	74.338	319.203	308.063	358.537	403.766	214.375	119.199	342.152	195.522	311.077	0.00011944	0.0010822	0.00052465	140.65	2.018e-05	3.831e-05	209.07	50.846	5.0971e-05	3.5552e-05	82.096	31.838	18.098	8.7458	5.5714e-05	15.051	0.074696	0.081986	0.022696	2406.3	0.00088894	0.00089845	2101.5	702.24	0.00088744	0.00090194	1153.6	401.17	341.51	126.69	0.0008922	177.04	409.015	280.565	173.071	86.879	187.645	302.761	81.862	87.073	414.138	296.786	87.030	91.448	94.857	98.022	332.318	93.878	-8191	255	
32342.658	1	1	0	0	0.27434	0.18718	0.081875	0.1431	0.13779	0.27238	0.10028	0.04192	0.1926	0.18475	0.14605	0.15812	0.1938	0.011776	0.16312	0.18808	-2.5312	-2.9375	-3.35	-2.7104	-3.125	-3.2812	-2.6937	-3.3521	-2.8417	-2.8771	-3.5271	-2.825	-3.3812	-3.2708	-2.65	-3.5333	421.024	259.514	234.577	253.359	136.993	258.370	272.957	348.998	134.017	422.527	304.393	116.046	270.310	258.704	318.839	92.535	0.0006628	0.00092807	0.0012946	141.1	3.1852e-06	1.8488e-05	200.52	51.196	1.5973e-05	2.6755e-05	83.125	30.582	17.566	8.7089	2.8225e-05	15.506	0.075696	0.082865	0.022954	2438.5	0.0009005	0.00090793	2119.6	710.14	0.00089877	0.00090844	1160.1	405.7	344.68	127.37	0.00089851	178.4	99.988	83.645	160.416	84.349	308.062	137.204	83.380	88.534	290.985	380.145	84.971	90.953	91.957	95.442	142.032	92.956	-8191	255	
32342.754	1	1	0	0	0.18356	0.087084	0.15791	0.13761	0.0695	0.086029	0.020705	0.24627	0.33038	0.26882	0.26061	0.13295	0.1867	0.080266	0.12379	0.1559	-2.5833	-2.9583	-3.2958	-2.8375	-3.1271	-3.2958	-2.7854	-3.3583	-2.9771	-2.9458	-3.4542	-2.65	-2.9333	-3.3917	-2.5479	-3.3896	208.832	126.637	355.971	244.434	90.632	419.116	81.950	335.917	162.357	374.446	80.746	370.637	137.844	240.309	301.848	243.106	0.00078953	0.0025114	0.00051351	138.38	3.0298e-05	3.0242e-05	202.03	50.536	3.2632e-05	3.3033e-05	82.737	30.814	17.836	8.5786	2.3239e-05	15.296	0.076002	0.08271	0.022901	2438.4	0.00089792	0.00090433	2117.8	709.6	0.00089609	0.00090269	1157.2	404.08	342.88	126.58	0.00089482	177.91	145.276	397.037	141.555	84.122	124.068	213.213	83.041	88.974	342.208	264.513	85.139	90.017	91.005	98.340	187.895	95.097	-8191	255	
32342.850	1	1	0	0	0.19555	0.10274	0.2025	0.20827	0.05445	0.045788	0.12851	0.092796	0.16016	0.30351	0.067075	0.2448	0.10269	0.22071	0.26969	0.19244	-2.6458	-2.9021	-3.6146	-2.825	-2.9979	-3.4417	-2.7958	-3.3542	-3.1937	-2.6875	-3.5042	-2.9042	-2.9708	-3.2833	-2.5812	-3.3458	176.780	124.248	96.779	301.446	297.520	158.542	183.015	419.940	421.512	376.726	92.511	112.228	334.209	387.888	326.805	244.699	0.0012872	0.005507	0.0017814	141.7	2.5715e-05	4.6166e-05	205.49	51.853	3.6616e-05	1.9384e-05	86.818	30.107	18.427	8.5645	3.5551e-05	15.211	0.075621	0.082354	0.022869	2439.4	0.00089563	0.00090144	2119.7	712.65	0.00089516	0.00090394	1161.9	405.86	343.68	126.89	0.00089843	178.98	138.911	226.822	206.108	82.860	415.929	306.221	82.888	88.808	409.878	274.649	86.485	89.740	94.505	97.993	258.232	93.685	-8191	255	
32342.971	1	1	0	0	0.22752	0.40024	0.10637	0.15687	0.1631	0.083573	0.22899	0.15257	0.21693	0.08506	0.15617	0.3184	0.20154	0.2155	0.40619	0.28406	-2.7833	-2.6667	-3.6375	-2.8312	-2.8792	-3.375	-2.6583	-3.1625	-3.4125	-2.8125	-3.3979	-2.8604	-2.9625	-3.4042	-2.6083	-3.2354	94.924	236.447	291.915	403.996	177.552	156.085	233.353	262.525	215.720	267.736	163.551	234.928	200.526	427.977	221.571	112.165	0.00049117	0.00472	0.0013786	139.99	8.5273e-06	2.8508e-05	203.15	51.958	3.4137e-05	4.0926e-05	86.267	30.251	17.892	8.27	2.7581e-05	15.571	0.075827	0.082717	0.023044	2453	0.0008987	0.00090512	2131.3	714.99	0.00089702	0.00090562	1167.8	407.99	343.94	127.53	0.00090554	179.92	146.024	123.411	277.686	82.969	118.316	210.555	82.446	87.789	154.790	404.540	85.625	90.352	95.075	95.876	240.702	93.806	-8191	255	
32343.066	1	1	0	0	0.24329	0.18945	0.23994	0.12108	0.26818	0.14989	0.27091	0.21503	0.20039	0.23048	0.033016	0.22495	0.17991	0.20052	0.23659	0.2242	-2.7917	-2.7396	-3.3958	-3.0354	-2.8667	-3.5271	-2.7917	-3.1333	-3.3937	-2.6583	-3.4542	-3.0667	-2.7292	-3.5438	-2.6167	-3.1917	419.636	79.713	299.334	261.669	312.385	132.144	102.473	122.451	76.323	223.979	429.515	121.599	326.980	351.118	99.334	184.985	0.00034311	0.0033281	0.00023451	141.69	7.5603e-06	1.7362e-05	201.72	51.833	2.0467e-05	4.8084e-05	81.449	30.594	17.582	8.572	4.9993e-05	15.338	0.076166	0.083052	0.023181	2460.9	0.0008997	0.00090698	2137.8	714.35	0.00089557	0.00090506	1166.9	406.4	341.93	126.94	0.00090124	178.27	140.148	182.300	134.524	82.360	157.487	407.362	83.695	89.059	255.770	384.230	87.903	91.495	92.599	96.392	210.618	94.040	-8191	255	
32343.139	1	1	0	0	0.03812	0.053878	0.10742	0.041354	0.099087	0.15105	0.16939	0.34156	0.070782	0.36424	0.11793	0.19783	0.16666	0.059789	0.19866	0.31288	-2.8812	-2.5125	-3.4104	-3.0563	-2.7667	-3.4646	-2.7583	-3.0854	-3.3625	-2.5625	-3.2687	-3	-2.7417	-3.5146	-2.8917	-2.9083	231.619	74.106	312.311	225.237	219.648	290.418	334.312	281.475	71.296	211.755	242.319	256.207	417.271	349.361	113.205	400.343	0.0010694	0.0029464	0.00066128	137.75	1.7795e-05	3.807e-05	203.95	51.643	2.0264e-05	3.7812e-05	83.666	29.559	17.078	8.2461	3.5264e-05	15.144	0.075212	0.082379	0.023032	2437.4	0.00089032	0.00090127	2126.3	709.45	0.00088754	0.00090248	1165.3	404.69	341.54	127.34	0.00090516	178.51	404.346	298.652	253.020	82.362	161.770	391.043	83.635	88.744	185.686	283.454	86.783	91.452	94.286	96.462	138.125	92.252	-8191	255	
32343.234	1	1	0	0	0.21321	0.26111	0.048148	0.083104	0.12169	0.070366	0.19782	0.032806	0.26136	0.16658	0.14471	0.34899	0.14919	0.069131	0.067523	0.094677	-3.0083	-2.7021	-3.0521	-2.9917	-2.6958	-3.5646	-2.8583	-2.9646	-3.5792	-2.6833	-3.3396	-3.2188	-2.6312	-3.5208	-3.0271	-2.9271	329.802	112.378	228.700	322.616	420.923	424.424	89.427	382.288	230.096	183.153	87.724	293.696	293.403	86.875	345.086	412.472	0.0005336	0.0032206	0.0010972	135.54	6.1318e-05	8.8308e-06	204.53	51.167	1.6647e-05	2.9057e-05	82.788	29.671	18.447	8.733	1.7252e-05	15.263	0.075547	0.083015	0.023151	2441	0.00089418	0.00090808	2137.8	710.45	0.00089103	0.00090771	1167.8	404.43	341.41	127.31	0.00090462	178.04	126.245	74.780	184.393	83.155	164.295	403.274	82.536	88.949	136.119	414.660	84.744	91.242	91.578	97.057	383.185	94.769	-8191	255	
32343.355	1	1	0	0	0.22841	0.13553	0.044779	0.17611	0.14927	0.1482	0.022788	0.10701	0.21471	0.15679	0.17399	0.21048	0.13315	0.26196	0.28823	0.12768	-3.0896	-2.9125	-3.0375	-3.3	-2.5563	-3.5	-3.0854	-2.8021	-3.4542	-2.9062	-3.0583	-3.3625	-2.7396	-3.2625	-3.1042	-2.8229	116.015	345.704	82.693	123.876	371.171	195.502	415.093	168.374	361.261	138.791	191.125	335.513	74.510	295.778	214.978	258.159	0.00022936	0.00068688	0.00098711	140.23	4.2345e-05	5.4279e-05	201.33	51.971	2.689e-05	4.058e-05	81.31	30.175	17.511	8.3809	4.3656e-05	15.258	0.075432	0.083092	0.02315	2444.4	0.0008973	0.00091274	2141.9	713.23	0.00089708	0.00091465	1175.1	406.24	344.04	128.37	0.00090741	178.46	251.370	417.711	300.761	85.874	77.522	180.500	82.911	88.757	264.542	188.641	85.484	91.384	96.433	97.818	369.003	93.255	-8191	255	
32343.449	1	1	0	0	0.062754	0.12035	0.24567	0.27308	0.22968	0.085301	0.18491	0.1736	0.077164	0.13461	0.097104	0.071744	0.21104	0.04833	0.12325	0.092745	-3.0375	-2.7854	-2.9708	-3.3937	-2.6042	-3.4771	-3.1813	-2.7208	-3.4271	-2.8354	-2.9792	-3.4333	-2.7208	-3.2167	-3.2229	-2.7375	246.262	333.720	393.134	362.849	287.443	205.217	313.329	252.905	370.247	357.836	261.283	266.049	424.779	258.095	313.555	229.545	0.00075497	0.0014315	0.0011175	136.51	9.5536e-06	6.5569e-05	204	51.952	1.4856e-05	2.9356e-05	85.445	30.35	17.734	8.7702	2.341e-05	15.335	0.075851	0.083601	0.023182	2448.2	0.0009016	0.00091631	2143.2	712.66	0.00090023	0.00091752	1173.6	406.43	345.6	128.84	0.00090905	178.93	170.132	377.831	283.103	84.025	334.676	181.332	82.776	88.892	147.412	170.072	86.162	91.463	92.756	98.627	106.643	94.748	-8191	255	
32343.547	1	1	0	0	0.16209	0.12727	0.18736	0.12161	0.12517	0.25224	0.066636	0.38988	0.07174	0.173	0.10175	0.097895	0.16519	0.31253	0.12019	0.24882	-3.1833	-3.0938	-2.7687	-3.4437	-2.7708	-3.2229	-3.2021	-2.7833	-3.5771	-3.0875	-2.7854	-3.3333	-2.6521	-3.1771	-3.3312	-2.8167	199.553	375.497	136.201	426.003	170.288	181.408	400.635	389.882	327.377	228.446	145.929	285.074	309.897	396.410	411.932	76.501	0.0010572	0.0032722	0.001027	141.36	9.884e-06	2.8807e-05	198.73	49.742	3.6563e-05	1.2456e-05	84.78	30.536	17.73	8.474	3.2867e-05	15.659	0.076441	0.084022	0.023235	2451.4	0.00090398	0.00091734	2140.9	712.82	0.00090356	0.00091856	1171.2	406.94	346.99	128.95	0.00090785	179.48	148.185	233.270	312.577	83.951	83.356	181.611	83.245	88.941	329.125	219.526	87.027	90.538	91.606	95.121	297.716	94.477	-8191	255	
32343.666	1	1	0	0	0.13324	0.2089	0.11889	0.12065	0.24948	0.26626	0.28983	0.037823	0.10157	0.084518	0.080505	0.070705	0.1409	0.29254	0.20756	0.11942	-2.95	-3.0417	-2.7333	-3.4458	-2.8667	-3.0083	-3.4813	-2.6542	-3.3792	-3.1021	-2.8354	-3.4437	-2.7875	-3.2146	-3.4313	-2.75	318.629	286.408	196.132	113.206	158.021	174.198	127.804	402.318	203.957	235.409	161.145	239.340	428.485	119.524	275.740	317.698	0.0015677	0.0091021	0.00032327	139.83	4.4715e-06	5.5076e-05	204.63	53.349	3.7829e-05	3.8766e-05	84.526	30.974	19.135	8.57	2.9155e-05	15.416	0.076675	0.084164	0.023278	2470.3	0.00091405	0.00092553	2160	722.46	0.00091527	0.00092966	1185.9	413.41	352.17	130.71	0.0009213	182.43	127.003	255.061	200.625	82.641	344.427	139.962	83.757	88.640	160.294	311.278	85.466	91.714	94.895	95.577	310.674	94.004	-8191	255	
32343.762	1	1	0	0	0.28127	0.083133	0.12525	0.08792	0.033731	0.15617	0.11957	0.010799	0.066729	0.016765	0.056922	0.28113	0.095853	0.25089	0.089514	0.12724	-3.0271	-3.1625	-2.8417	-3.525	-2.8958	-3.0604	-3.6396	-2.9479	-3.2625	-3.2333	-2.8208	-3.4208	-2.9625	-2.9354	-3.5167	-2.7104	163.914	292.049	154.267	142.052	187.531	322.864	353.728	217.182	133.922	371.440	306.325	349.388	400.160	358.289	348.936	412.398	0.00052252	0.0014695	0.00030197	140.43	3.5556e-05	2.9849e-05	209.57	52.001	1.7514e-05	2.5623e-05	85.115	30.745	17.903	8.3094	7.4779e-05	15.318	0.078201	0.085534	0.02364	2513.9	0.00093009	0.0009396	2187.8	734.41	0.00093154	0.000942	1201.2	419.72	356.93	131.96	0.00093191	184.54	121.387	221.766	148.107	84.700	151.817	316.400	83.193	90.123	222.597	244.872	87.195	92.324	91.531	97.107	157.749	94.630	-8191	255	
32343.834	1	1	0	0	0.1796	0.11084	0.034318	0.20994	0.10638	0.060875	0.12723	0.11833	0.20703	0.20296	0.35472	0.079082	0.04677	0.32562	0.336	0.14994	-2.9562	-3.4104	-2.7479	-3.4104	-3.1104	-2.9792	-3.4271	-2.9083	-3.2104	-3.1833	-2.6937	-3.2	-3.0458	-2.6729	-3.3	-2.7521	406.448	413.212	408.408	274.005	207.999	99.343	110.145	400.018	361.331	108.490	423.604	86.994	319.769	234.740	108.386	409.585	0.00039388	0.0073206	0.0013943	140.84	5.0657e-05	3.4666e-05	210.05	53.764	2.136e-05	3.9403e-05	84.4	30.49	17.669	8.5355	3.885e-05	15.237	0.0789	0.085997	0.023824	2530.8	0.00093221	0.0009369	2186.1	734.3	0.00092758	0.00093487	1195.3	417.34	354.09	130.73	0.00092557	183.16	186.277	379.796	407.187	84.143	187.094	223.034	81.800	88.833	179.567	72.910	86.198	91.122	90.420	97.998	327.532	95.520	-8191	255	
32343.955	1	1	0	0	0.24044	0.071788	0.15662	0.13681	0.13819	0.077469	0.21758	0.41454	0.21082	0.20809	0.25481	0.067407	0.008799	0.22372	0.073648	0.055719	-2.8771	-3.35	-2.875	-3.4	-3.0438	-2.8875	-3.6229	-2.8792	-3.1958	-3.4375	-2.7438	-3.3563	-3.1208	-2.8042	-3.3479	-2.9542	126.175	306.331	167.624	319.848	185.860	93.129	331.943	270.611	206.164	266.825	405.477	152.160	251.670	325.244	179.457	252.193	0.00062306	0.0011695	0.0014006	147.87	2.2283e-05	3.2413e-05	204.32	54.407	1.4687e-05	1.4904e-05	84.215	30.212	17.682	8.667	3.4369e-05	15.06	0.078089	0.084896	0.02359	2505.4	0.00092079	0.00092677	2167.4	728.34	0.00091419	0.00092235	1184.2	413.36	350.1	129.32	0.00091511	181.73	270.772	95.113	95.096	87.197	347.853	416.853	82.551	89.862	250.665	247.283	85.904	90.296	92.184	95.475	376.658	95.473	-8191	255	
32344.051	1	1	0	0	0.037429	0.19586	0.12344	0.17159	0.10137	0.14733	0.24836	0.21037	0.18282	0.086647	0.30274	0.25056	0.050417	0.212	0.0832	0.21493	-2.4708	-3.3792	-2.7833	-3.3354	-3.4188	-2.7	-3.5479	-2.8792	-2.9292	-3.4458	-2.7729	-3.2708	-3.3833	-2.725	-3.4688	-2.9625	215.731	402.510	278.396	216.649	205.024	344.643	396.941	83.515	257.512	375.432	253.610	238.889	345.439	80.980	271.289	361.372	0.00062518	0.0024752	0.00064666	146.23	4.189e-05	5.3574e-05	209.03	51.964	6.7204e-06	1.2571e-05	85.453	30.592	17.628	8.9178	3.8948e-05	15.418	0.077032	0.083899	0.023374	2480.6	0.00090714	0.00091495	2145.6	719.68	0.00090285	0.00091233	1175.3	409.98	345.99	127.97	0.00090918	179.92	79.896	202.680	284.248	83.427	255.108	261.724	82.654	89.510	306.924	259.187	86.854	88.754	93.223	97.960	425.576	93.410	-8191	255	
32344.146	1	1	0	0	0.11898	0.3408	0.21455	0.16853	0.18425	0.024607	0.099183	0.39647	0.060364	0.14798	0.33644	0.11435	0.13872	0.23127	0.1047	0.088302	-2.7062	-3.575	-2.8688	-3.0604	-3.2625	-2.7729	-3.4042	-3.0083	-2.8604	-3.6479	-2.7021	-3.0521	-3.125	-2.6583	-3.3542	-3.2271	349.605	290.484	138.529	238.202	245.729	173.151	224.098	264.567	103.354	117.377	86.152	99.401	72.970	396.158	73.749	412.922	0.00021941	0.00047714	0.001301	141.45	5.8775e-05	2.9932e-05	207.93	51.508	1.825e-05	7.7473e-06	86.904	30.846	18.274	8.9079	2.9716e-05	14.803	0.076024	0.083135	0.023207	2460.7	0.00090105	0.00090994	2142.8	717.86	0.00089825	0.00091161	1174.2	408.96	345.14	127.98	0.00091164	180	287.500	200.114	193.276	84.229	399.940	348.196	83.570	88.288	253.574	160.217	85.943	91.491	92.453	97.632	210.987	93.865	-8191	255	
32344.268	1	1	0	0	0.058633	0.10381	0.087972	0.25943	0.17988	0.31189	0.18661	0.3496	0.12038	0.1061	0.29906	0.19803	0.073396	0.20479	0.19312	0.12777	-2.4354	-3.425	-2.8688	-2.9396	-3.4562	-2.5958	-3.2792	-2.9854	-2.6458	-3.5583	-2.9146	-2.9833	-3.2854	-2.6792	-3.125	-3.3229	366.801	170.403	257.633	308.249	104.390	278.219	362.508	401.287	185.848	224.925	346.252	286.324	300.064	271.286	410.160	98.715	0.00045042	0.001633	0.00092375	140.86	3.3221e-05	1.7196e-05	207.01	52.838	1.378e-05	5.5694e-05	84.848	30.322	18.208	8.5848	1.6832e-05	14.932	0.076334	0.083513	0.023339	2467	0.00090303	0.00091613	2153.6	717.95	0.00089958	0.00091316	1173.6	407.13	343.87	127.76	0.00090849	178.96	377.518	263.727	389.540	85.554	337.208	173.783	82.940	89.827	189.999	208.856	83.798	91.139	91.565	98.111	93.015	93.167	-8191	255	
32344.361	1	1	0	0	0.20606	0.058568	0.29797	0.2142	0.19885	0.18923	0.18001	0.24625	0.11878	0.18222	0.21797	0.14294	0.099294	0.12436	0.079985	0.17281	-2.3812	-3.5667	-2.775	-2.9229	-3.25	-2.625	-3.3208	-3.2	-2.7083	-3.5792	-2.9375	-2.9396	-3.3937	-2.85	-3.2583	-3.3083	385.304	267.518	369.698	405.020	171.669	331.148	336.741	419.875	231.792	224.253	117.589	328.509	130.085	366.530	260.527	98.512	0.00013811	0.0019118	0.00012467	137.08	1.763e-05	1.2474e-05	201.55	50.851	4.1281e-05	4.0589e-05	84.839	29.851	17.873	9.0737	3.4341e-05	14.803	0.075879	0.083373	0.023255	2455.7	0.00089877	0.00091269	2145.7	715.04	0.00089699	0.00091359	1174.7	406.78	343.54	128.08	0.00090911	178.75	430.119	99.894	406.262	83.251	423.504	374.837	84.854	88.957	293.743	152.986	86.891	90.754	92.444	96.613	182.066	93.244	-8191	255	
32344.436	1	1	0	0	0.062743	0.16411	0.19416	0.12556	0.091725	0.116	0.13684	0.12374	0.21833	0.16264	0.14911	0.09435	0.067307	0.23406	0.090446	0.041173	-2.3042	-3.2125	-3.0708	-2.8104	-3.4813	-2.7375	-3.225	-3.4021	-2.6958	-3.4479	-3.0438	-2.8583	-3.4708	-2.9333	-2.975	-3.4583	276.415	234.225	164.365	276.728	215.621	400.249	363.572	381.309	361.001	381.490	379.864	134.299	95.383	368.277	77.285	184.012	0.0014135	0.0014387	0.0010964	139.57	3.4693e-05	1.9501e-05	203.09	52.212	2.1984e-05	1.9005e-05	84.525	30.649	17.499	8.4888	5.4783e-05	14.99	0.076003	0.083588	0.023239	2452.6	0.00089944	0.00091374	2144.7	712.95	0.00089704	0.00091568	1175.3	406.87	344.8	128.68	0.00091041	179.03	154.877	123.837	250.407	83.482	192.575	211.825	84.123	88.832	241.655	198.021	85.521	91.524	92.786	98.532	278.718	93.853	-8191	255	
32344.531	1	1	0	0	0.12955	0.13713	0.056945	0.1023	0.12281	0.12807	0.13612	0.25731	0.26831	0.25493	0.21251	0.15908	0.18296	0.15616	0.17569	0.045206	-2.2208	-3.2917	-3.0646	-2.8458	-3.4062	-3.025	-3.1229	-3.3854	-2.7417	-3.4354	-3.2729	-2.6417	-3.5229	-2.9938	-2.9021	-3.2062	99.764	204.906	398.911	375.054	206.750	162.264	370.298	235.413	153.995	100.991	97.881	333.084	187.735	115.299	409.463	205.844	0.00043	0.0092298	0.0017543	143.83	2.4692e-05	3.6563e-05	204.94	50.539	2.7462e-05	5.0784e-05	81.297	29.987	17.331	8.9647	1.0453e-05	15.04	0.076152	0.08379	0.023252	2454.3	0.00090272	0.00091803	2144.3	714.03	0.0008999	0.00091754	1173.6	406.15	345.57	128.82	0.00090872	178.98	201.448	212.779	307.397	83.966	252.740	374.574	83.186	90.214	289.965	184.561	87.167	88.986	92.992	95.419	196.193	94.813	-8191	255	
32344.650	1	1	0	0	0.22872	0.11343	0.12398	0.23999	0.046858	0.079351	0.045255	0.13588	0.30181	0.027521	0.10811	0.22785	0.13835	0.074812	0.039267	0.15274	-2.4167	-3.2833	-3.3229	-2.7062	-3.3563	-2.9125	-2.9375	-3.3125	-2.7375	-3.1396	-3.2708	-2.7938	-3.325	-2.9521	-2.8229	-3.5708	358.923	363.190	160.848	209.010	231.764	280.008	287.041	216.800	110.081	202.374	193.113	87.436	283.611	102.624	72.374	197.055	0.00027616	0.0036243	0.00040804	141.26	5.2482e-05	3.7886e-05	198.84	52.845	1.9886e-05	2.4343e-05	84.148	30.445	18.1	8.6888	7.7022e-05	15.268	0.07644	0.084159	0.023278	2459.3	0.00090754	0.00092206	2147	717.34	0.00090692	0.00092097	1176.1	407.8	347.75	129.09	0.00091079	179.69	118.167	264.668	237.151	84.674	215.760	405.070	82.100	89.257	243.469	132.954	86.475	91.501	92.386	97.830	206.495	93.386	-8191	255	
32344.746	1	1	0	0	0.11443	0.1524	0.10316	0.1401	0.12507	0.05105	0.13059	0.18692	0.086289	0.37371	0.12505	0.12081	0.060666	0.13896	0.13084	0.20498	-2.4	-3.1875	-3.3063	-2.7917	-3.3542	-2.975	-2.7	-3.5854	-3.0417	-3.2792	-3.3104	-2.7042	-3.3333	-3.0208	-2.6333	-3.5417	399.176	104.671	349.893	151.548	224.590	294.458	221.882	105.819	307.932	370.596	254.362	81.793	269.603	390.838	167.637	346.223	0.00068753	0.0032863	0.0011044	143.29	1.3448e-05	4.1249e-05	203.49	52.573	3.3241e-05	4.7538e-05	80.435	29.522	18.262	8.3563	4.143e-05	15.298	0.076842	0.084289	0.023357	2473.1	0.00091383	0.00092321	2155.2	721.02	0.00091067	0.00092482	1178.6	409.49	349.1	129.33	0.00091236	180.29	310.926	418.280	194.200	85.821	376.680	287.119	83.701	89.919	153.833	150.983	86.017	90.489	93.773	97.827	428.065	92.806	-8191	255	
32344.844	1	1	0	0	0.37674	0.25216	0.095755	0.075668	0.17064	0.05456	0.024147	0.12676	0.2629	0.051626	0.081812	0.074784	0.22498	0.10681	0.32372	0.083368	-2.4083	-3.0042	-3.4125	-2.6771	-3.4021	-3.3042	-2.9917	-3.4583	-3.0438	-3.0125	-3.5	-2.8021	-3.3458	-3.2438	-2.6583	-3.4062	222.625	427.112	326.292	388.604	350.620	269.394	338.579	368.053	254.607	151.621	397.644	212.895	391.897	144.545	417.049	160.752	0.00094068	0.0024759	0.0020675	143.52	3.8566e-05	3.5901e-05	201.39	51.841	1.2472e-05	3.3945e-05	83.748	30.776	18.039	8.2237	2.8811e-05	15.221	0.077154	0.084311	0.023367	2480.2	0.00091514	0.00092282	2149.8	719.73	0.00090922	0.00091893	1174	408.35	347.81	128.51	0.00090535	179.41	171.762	322.280	155.848	84.062	298.808	289.947	82.516	88.268	232.349	379.867	86.232	91.786	93.599	95.501	109.828	93.980	-8191	255	
32344.939	1	1	0	0	0.10397	0.085589	0.064855	0.2472	0.13541	0.098872	0.19196	0.013379	0.19895	0.1705	0.053713	0.20726	0.013304	0.146	0.16487	0.15122	-2.5542	-2.9292	-3.2125	-2.7479	-3.1979	-3.2833	-2.5771	-3.4229	-2.8833	-2.7979	-3.4042	-2.8333	-3.3063	-3.1813	-2.6375	-3.5208	306.810	314.769	74.165	356.685	162.204	197.137	98.242	152.201	128.778	83.586	273.163	115.912	395.176	177.450	334.637	248.060	0.00068032	0.0051669	0.00073625	143.17	2.17e-05	3.9891e-05	203.29	51.565	4.9507e-06	4.803e-05	84.551	30.77	17.476	8.4372	3.6045e-05	14.831	0.076704	0.08359	0.023172	2463.8	0.00090955	0.00091544	2141.6	718.45	0.00090727	0.00091723	1173.9	410.22	348.77	128.79	0.00091208	181.28	126.516	288.291	218.524	82.219	414.730	211.883	83.376	89.246	381.123	394.174	84.955	91.595	92.403	97.345	360.996	93.779	-8191	255	
32345.061	1	1	0	0	0.16718	0.22028	0.29808	0.10136	0.18837	0.070915	0.07008	0.16516	0.12139	0.21474	0.071558	0.26235	0.073442	0.18679	0.2131	0.14716	-2.9562	-2.725	-3.4	-2.8146	-3.0938	-3.4042	-2.7021	-3.3104	-3.1729	-2.875	-3.5687	-2.8937	-3.1542	-3.4333	-2.6333	-3.3833	239.727	354.669	310.167	342.202	274.370	263.451	410.752	251.464	244.298	402.030	135.865	342.654	351.668	296.428	95.668	252.540	0.00015338	0.0065683	0.0014654	137.22	5.3457e-05	6.4189e-06	204.05	53.776	2.4657e-05	3.6441e-05	85.468	30.324	17.849	8.5962	1.613e-05	14.487	0.077228	0.084197	0.023389	2485.7	0.00091471	0.00092103	2156	723.58	0.00091221	0.00092069	1180.1	411.89	348.78	129.01	0.0009145	181.38	404.021	261.677	272.252	82.894	365.638	299.394	82.861	89.663	222.495	225.555	88.232	91.205	93.755	96.870	271.038	93.092	-8191	255	
32345.131	1	1	0	0	0.10732	0.11125	0.091872	0.17844	0.34058	0.021031	0.12784	0.19018	0.12217	0.10282	0.16679	0.25303	0.099556	0.13459	0.18944	0.085923	-2.7979	-2.8021	-3.35	-2.8521	-2.9729	-3.4021	-2.6042	-3.3083	-3.1042	-2.5708	-3.3688	-2.8312	-2.9604	-3.1667	-2.7771	-3.3458	379.455	100.133	91.142	107.606	169.809	86.750	152.440	299.485	114.125	84.364	346.429	217.709	107.776	329.617	254.727	350.160	0.00046531	0.0053317	0.00097664	142.47	1.4991e-05	6.8837e-06	204.57	51.613	2.6238e-05	3.5704e-05	82.415	30.793	17.671	8.5067	4.6296e-05	15.171	0.077179	0.084029	0.023439	2494.9	0.0009149	0.0009213	2162.7	725.31	0.00091236	0.00092079	1185.5	413.59	349.45	129.39	0.00092033	182.13	163.545	106.700	93.103	84.490	396.579	212.613	83.715	87.556	207.006	159.343	86.185	90.490	95.026	95.368	254.064	93.450	-8191	255	
32345.227	1	1	0	0	0.082162	0.034543	0.19133	0.29333	0.076428	0.31162	0.16828	0.019981	0.20084	0.012078	0.18801	0.096703	0.11265	0.1452	0.40335	0.20146	-2.7729	-2.8354	-3.4396	-2.8812	-2.925	-3.4917	-2.7875	-3.2271	-3.3542	-2.9104	-3.3438	-2.9729	-2.9958	-3.6792	-2.7896	-3.2021	218.816	347.089	421.523	291.948	101.445	105.185	179.309	369.507	388.172	175.152	101.520	419.837	105.677	181.922	109.212	262.077	0.00070911	0.0049202	0.0014772	140.61	4.808e-05	6.0327e-05	207.7	51.936	1.5218e-05	3.1464e-05	84.567	30.424	17.837	8.4434	9.4818e-06	15.338	0.077298	0.084489	0.023567	2503.7	0.00091682	0.0009266	2178.5	730.49	0.00091791	0.00092994	1198.5	416.96	352.79	130.86	0.00093159	184.06	95.996	205.833	120.387	83.865	86.335	197.833	81.710	87.918	100.686	321.941	86.590	90.300	96.044	98.476	380.369	94.075	-8191	255	
32345.348	1	1	0	0	0.20271	0.19717	0.095608	0.20787	0.20112	0.016556	0.21209	0.02287	0.18265	0.14675	0.17729	0.019991	0.23053	0.15564	0.13333	0.20217	-2.9625	-2.4813	-3.3438	-3.0812	-2.6271	-3.4625	-2.8833	-3.15	-3.3708	-2.7667	-3.3312	-3.2687	-2.7583	-3.5792	-3.0438	-3.025	378.804	348.626	215.254	146.550	418.048	169.567	146.929	324.385	190.043	70.724	293.636	121.047	253.225	309.039	119.875	288.015	0.00016327	0.0028897	0.00060178	146.47	2.5498e-05	6.8905e-05	209.84	52.74	3.1526e-05	2.2854e-05	81.409	30.94	17.642	8.8562	2.0533e-05	15.175	0.07798	0.085432	0.02387	2526.6	0.00092543	0.00093789	2202.3	735.43	0.00092356	0.00093782	1206.2	418.2	353.73	131.39	0.00093537	184.1	423.211	295.731	173.165	86.116	171.526	205.045	83.911	87.753	134.348	214.107	86.649	91.243	96.495	97.356	158.212	93.196	-8191	255	
32345.443	1	1	0	0	0.24823	0.2239	0.18326	0.1694	0.076302	0.23145	0.053319	0.10529	0.15895	0.13082	0.067487	0.035506	0.20546	0.16301	0.13734	0.15707	-2.9667	-2.5396	-3.4021	-3.1625	-2.8125	-3.4854	-2.9688	-2.7604	-3.4833	-2.7562	-3.0312	-3.3688	-2.6146	-3.5521	-3.0146	-2.9875	166.884	95.807	228.755	233.861	107.172	157.426	141.021	199.812	342.827	352.975	359.900	388.216	304.326	407.258	146.302	209.069	0.00054129	0.0040207	0.00093331	139.05	2.3079e-05	1.4973e-05	205.65	51.177	2.4338e-05	3.955e-05	81.238	30.599	18.075	8.8206	2.1371e-05	14.788	0.078071	0.085717	0.02394	2524.7	0.00092524	0.00093838	2201.2	734.45	0.00092337	0.00093753	1208.8	418.92	354.77	132.07	0.00094002	184.44	182.694	82.871	157.652	82.616	278.620	75.712	84.026	87.000	277.805	108.553	85.965	90.936	94.188	98.910	369.230	93.010	-8191	255	
32345.539	1	1	0	0	0.21884	0.16568	0.051475	0.036637	0.14211	0.14347	0.062655	0.2315	0.02405	0.1512	0.10739	0.074995	0.3089	0.22065	0.095957	0.27106	-3.1813	-2.7271	-3.0521	-3.5812	-2.6312	-3.6021	-3.1937	-2.9646	-3.5146	-2.9396	-3.2646	-3.5146	-2.8667	-3.1792	-3.1521	-2.6896	73.290	260.961	128.361	241.573	329.604	112.218	388.054	192.734	187.451	363.617	137.290	108.261	419.427	382.805	358.498	322.482	0.00051627	0.0024557	0.001342	140.62	9.4243e-06	5.8356e-05	202.8	52.921	1.5186e-05	7.2697e-05	83.101	30.111	18.789	8.7135	6.621e-05	15.406	0.078643	0.086586	0.024137	2544.1	0.00093592	0.0009513	2225.2	741.71	0.0009355	0.00095498	1223.4	423.8	359.33	134	0.00095161	186.55	263.222	272.453	179.864	83.655	217.320	193.184	83.007	89.644	300.354	201.458	86.450	90.878	93.662	98.692	154.004	93.819	-8191	255	
32345.635	1	1	0	0	0.29833	0.21734	0.187	0.22653	0.21106	0.13649	0.066823	0.14353	0.17038	0.082964	0.049731	0.078348	0.14719	0.1723	0.16456	0.1955	-3.1458	-2.775	-3.0667	-3.5271	-2.7854	-3.3479	-3.1729	-2.8021	-3.4542	-2.8208	-3.0687	-3.5687	-2.8083	-3.3542	-3.2062	-2.9062	155.449	370.569	98.665	213.264	94.693	124.713	215.467	128.542	301.307	187.044	252.891	215.621	374.731	98.388	402.061	321.885	0.0015113	0.0031182	0.0010742	141.83	3.8531e-05	4.0089e-05	204.29	54.183	5.9477e-06	2.0174e-05	84.881	30.184	18.655	8.6375	2.5985e-05	15.146	0.079663	0.087773	0.024311	2562.4	0.00094136	0.0009575	2231.7	743.37	0.00093741	0.0009546	1218.4	421.61	358.12	133.44	0.00094189	185.16	128.025	151.315	181.251	84.512	277.627	273.898	82.845	90.478	85.444	173.712	88.369	90.196	93.276	96.935	330.363	94.413	-8191	255	
32345.730	1	1	0	0	0.29288	0.091029	0.11054	0.13624	0.088919	0.15059	0.075194	0.1663	0.16239	0.034965	0.16548	0.12561	0.025642	0.11828	0.31596	0.091587	-3.0833	-2.8667	-2.8521	-3.3021	-2.825	-3.2875	-3.3167	-2.8396	-3.45	-2.9729	-2.9083	-3.5187	-2.6917	-3.1021	-3.375	-2.8187	386.158	405.998	202.002	221.890	411.473	318.393	121.875	280.923	418.764	187.378	69.799	423.238	82.839	156.901	263.089	372.721	0.000917	0.0025395	0.0015162	145.22	1.615e-05	3.9313e-05	200.38	55.445	2.1889e-05	1.8905e-05	85.527	30.029	18.764	8.7488	2.4707e-05	15.049	0.079277	0.087084	0.024159	2545.6	0.00094031	0.00095545	2222.7	742.48	0.00093881	0.00095505	1218.6	421.86	359.8	133.72	0.00094513	185.73	115.722	133.237	379.897	85.356	227.204	367.681	83.667	87.487	116.772	118.218	86.355	91.688	94.916	96.863	230.262	93.596	-8191	255	
32345.826	1	1	0	0	0.15868	0.11535	0.067324	0.088952	0.15776	0.20416	0.085238	0.11759	0.2914	0.070851	0.29395	0.030936	0.096319	0.22317	0.092526	0.3503	-2.9688	-2.9375	-2.8	-3.5062	-2.9292	-3.2042	-3.475	-2.7792	-3.4562	-3.0583	-2.9188	-3.4	-2.8917	-3.0896	-3.5229	-2.9146	215.540	299.875	112.069	132.060	182.226	275.383	95.581	242.194	303.730	429.640	405.248	93.001	331.461	94.603	210.344	356.272	0.00089707	0.0031012	0.0010163	139.96	3.0321e-05	3.9883e-05	207.87	52.509	2.5212e-05	5.3447e-05	84.216	29.242	18.07	8.6726	2.9135e-05	15.219	0.079647	0.087363	0.024169	2555.6	0.00094392	0.0009561	2220.9	741.96	0.00094129	0.00095543	1216.3	422.11	359.65	133.41	0.00094252	185.25	418.648	136.799	321.104	85.210	249.307	314.718	82.661	88.298	203.605	127.361	87.118	91.500	92.565	96.385	214.370	92.752	-8191	255	
32345.947	1	1	0	0	0.069252	0.08609	0.20631	0.12766	0.1659	0.28263	0.17152	0.073653	0.064843	0.27176	0.14152	0.04873	0.19357	0.20574	0.19078	0.045899	-3.0687	-3.1458	-2.775	-3.2375	-2.9417	-2.9583	-3.5812	-2.7229	-3.2562	-3.0979	-2.7812	-3.6479	-2.9813	-2.9437	-3.4833	-2.8	102.915	207.189	185.793	101.530	361.268	150.240	338.253	135.341	368.188	376.597	166.073	348.224	100.102	234.917	359.380	184.996	0.00046521	0.0015216	0.00066865	145.47	3.3974e-05	3.6086e-05	207.3	52.356	2.2867e-05	1.6324e-05	84.841	30.343	18.542	8.924	2.0104e-05	15.534	0.079382	0.086781	0.024011	2537.9	0.00093808	0.00094623	2200.7	736.86	0.00093372	0.00094461	1203.7	419.05	356.76	131.87	0.00093072	183.84	376.967	72.591	107.988	82.589	337.605	303.292	83.040	88.071	122.816	385.213	85.807	89.699	93.093	97.033	224.007	93.802	-8191	255	
32346.045	1	1	0	0	0.26185	0.099707	0.15587	0.31175	0.062781	0.23341	0.1713	0.12974	0.085784	0.22276	0.11348	0.22901	0.071916	0.047539	0.094407	0.07629	-2.9146	-3.2646	-2.5667	-3.3729	-3.175	-2.9854	-3.4917	-2.8688	-3.1312	-3.4917	-2.9104	-3.4625	-3.1396	-2.7938	-3.5	-2.8208	205.293	80.197	139.673	234.880	157.342	132.431	370.582	336.046	263.023	106.816	370.562	254.862	392.684	167.498	212.024	377.383	0.0012272	0.0072646	0.00089207	150.96	2.5472e-05	1.996e-05	205.9	50.969	1.9346e-05	3.8846e-05	86.684	31.168	17.45	8.6262	2.2129e-05	15.057	0.078526	0.085634	0.023708	2517.1	0.00092914	0.00093601	2186.1	732.39	0.00092415	0.00093409	1193.2	416.32	353.94	130.7	0.00092231	182.91	219.049	340.757	257.898	83.250	341.914	281.599	82.148	89.108	115.678	317.526	87.516	93.091	92.416	96.185	267.809	94.291	-8191	255	
32346.141	1	1	0	0	0.050092	0.14001	0.13092	0.18441	0.20003	0.065085	0.20108	0.20813	0.10601	0.018517	0.2567	0.26454	0.27724	0.24527	0.15575	0.25607	-2.875	-3.1604	-2.6542	-3.4646	-3.0854	-2.8917	-3.5625	-2.7917	-3.1583	-3.325	-2.7292	-3.5833	-3.0917	-2.825	-3.625	-2.8083	124.273	341.494	185.983	331.060	247.789	343.366	224.565	336.090	163.302	269.268	78.345	279.152	105.540	98.563	173.738	205.724	0.00032872	0.0027809	0.00082455	138.69	3.5371e-05	5.4426e-05	207.33	54.486	5.6243e-06	1.9596e-05	82.973	31.1	17.928	8.321	5.2326e-05	15.37	0.078084	0.084978	0.023587	2512.2	0.00092452	0.00093211	2176.4	731.57	0.00092227	0.00093246	1193.7	417.37	354.2	130.96	0.00092677	183.78	135.256	245.868	252.271	85.100	101.453	150.891	82.698	88.484	259.409	306.898	86.312	91.642	93.348	98.249	101.570	95.153	-8191	255	
32346.236	1	1	0	0	0.13119	0.10614	0.21144	0.21887	0.32971	0.067574	0.17721	0.242	0.18116	0.27249	0.26751	0.12876	0.1179	0.19219	0.070016	0.16475	-2.6167	-3.5229	-2.8479	-3.3063	-3.2646	-2.6958	-3.5167	-2.8875	-3.0187	-3.4313	-2.8396	-3.4729	-3.2188	-2.7417	-3.4646	-3.0771	153.185	181.952	377.314	196.874	254.572	428.002	129.146	114.710	172.892	81.906	358.059	403.828	297.655	74.981	120.918	403.125	0.000665	0.0020972	0.00030876	144.51	2.6373e-05	1.3051e-05	203.04	52.026	1.7495e-05	1.004e-05	82.753	30.741	18.169	8.6842	6.0023e-05	15.229	0.078304	0.085265	0.023706	2520.6	0.00092749	0.0009322	2187.5	735.05	0.00092428	0.00093396	1198.8	418.45	354.84	131.35	0.00093414	184.98	194.440	406.178	386.825	83.444	282.516	268.004	83.299	88.721	239.721	330.072	86.886	90.773	90.907	98.207	241.066	93.015	-8191	255	
32346.332	1	1	0	0	0.11508	0.1709	0.07761	0.083305	0.14487	0.22471	0.099066	0.13063	0.12637	0.41345	0.045205	0.18311	0.12512	0.043905	0.35413	0.0603	-2.7625	-3.4938	-2.85	-3.2313	-3.2687	-2.7854	-3.4833	-3.2042	-2.8625	-3.4208	-2.8375	-2.9833	-3.3833	-2.7271	-3.4917	-3.0792	380.124	303.961	85.255	99.301	365.821	264.782	414.062	304.266	359.504	201.129	226.292	170.266	414.915	428.292	111.283	356.212	0.0004032	0.0014648	0.00025882	140.76	3.6035e-05	8.9247e-06	208	53.912	2.3909e-05	1.425e-05	85.156	31.301	17.381	8.5814	1.7525e-05	15.177	0.078595	0.085847	0.023954	2544	0.00093224	0.00094281	2212.8	742.14	0.00093282	0.0009444	1215.2	423.37	358.14	132.7	0.00094463	186.8	222.141	333.768	317.049	83.607	409.260	274.692	81.852	88.988	93.114	131.055	88.760	89.280	93.217	96.869	386.822	93.107	-8191	255	
32346.428	1	1	0	0	0.15705	0.38412	0.2777	0.11481	0.04422	0.075382	0.17108	0.31994	0.26125	0.13412	0.34122	0.29939	0.071053	0.12901	0.13936	0.14906	-2.6083	-3.4083	-2.8083	-3.1292	-3.3708	-2.7729	-3.4313	-3.1917	-2.7438	-3.6312	-2.7646	-3.0563	-3.5604	-2.8063	-3.4479	-3.0938	274.987	426.241	110.390	317.734	381.875	294.392	293.203	84.067	416.801	193.524	103.962	171.259	119.400	79.671	132.361	409.672	0.00060008	0.0041681	0.0012385	136.67	1.7385e-06	6.9179e-06	206.76	53.462	3.8138e-05	5.1593e-05	85.675	30.227	18.01	8.5161	2.894e-05	15.118	0.079281	0.086805	0.024275	2565.6	0.00094118	0.00095238	2230.2	745.12	0.00093561	0.0009491	1221.2	423.64	357.46	132.88	0.00094702	186.09	128.385	246.755	400.806	85.379	192.837	201.012	82.728	90.159	105.522	139.533	87.050	90.440	93.123	94.772	395.768	93.893	-8191	255	
32346.525	1	1	0	0	0.14839	0.097314	0.17911	0.1182	0.016206	0.016859	0.29355	0.16828	0.26747	0.055175	0.32209	0.12409	0.087496	0.016834	0.12759	0.1634	-2.3792	-3.5167	-2.9688	-2.8	-3.4646	-2.8021	-3.1937	-3.2771	-2.5396	-3.5292	-2.95	-3.2313	-3.5229	-2.7062	-3.3354	-3.5396	175.920	154.055	291.078	287.960	105.242	205.194	416.778	129.206	127.631	175.815	195.716	205.498	428.380	95.644	213.068	318.050	0.00034019	0.0023033	0.00017673	139.1	3.8393e-05	5.4876e-05	203.05	52.022	2.3209e-05	1.7007e-05	83.248	30.834	18.114	8.6801	5.4436e-05	15.085	0.07924	0.086977	0.02433	2571.6	0.00094363	0.00095697	2243	749.8	0.00094351	0.00095974	1232.5	427.34	362.15	134.85	0.0009617	188.38	219.685	348.203	315.307	83.274	239.827	108.671	83.567	89.941	241.974	233.005	84.754	91.592	94.483	97.745	431.068	93.987	-8191	255	
32346.619	1	1	0	0	0.098308	0.077779	0.26192	0.13737	0.16745	0.082089	0.12442	0.058775	0.25189	0.22761	0.27183	0.043803	0.28743	0.28464	0.20227	0.080543	-2.4042	-3.4688	-3.1021	-3.0563	-3.5646	-2.8375	-3.2	-3.375	-2.7958	-3.5708	-3.2021	-2.7687	-3.4521	-2.9437	-3.2104	-3.5146	319.883	131.271	78.233	260.323	272.032	213.368	302.279	170.847	184.747	344.379	368.450	120.077	326.010	278.693	365.744	365.619	0.00053984	0.0018664	0.00027158	144.83	2.4558e-05	7.476e-06	203.06	52.539	4.5013e-05	7.8583e-05	83.021	30.406	18.69	8.7394	4.0076e-05	15.648	0.080241	0.088367	0.024615	2589.8	0.00095129	0.00096767	2260.4	754.37	0.00095269	0.0009731	1244	431.63	366.76	136.77	0.00097471	190.96	115.728	145.992	94.628	83.078	249.819	198.886	83.386	89.134	111.138	176.099	87.371	88.997	95.081	94.503	399.691	95.552	-8191	255	
32346.717	1	1	0	0	0.092846	0.086113	0.17399	0.22619	0.16381	0.093644	0.17546	0.14911	0.053883	0.24194	0.21803	0.16231	0.1768	0.077853	0.17981	0.090155	-2.3438	-3.3104	-3.1146	-2.8167	-3.4313	-2.9875	-3.2271	-3.5083	-2.7646	-3.4083	-3.2167	-2.8146	-3.6333	-3.0333	-2.9792	-3.4062	205.722	323.069	110.577	264.288	230.044	152.553	330.234	94.304	208.297	407.491	111.127	252.980	396.107	328.391	366.077	193.303	0.00052259	0.0047135	0.00018795	135.16	3.6998e-05	0.00010671	203.38	53.083	3.0167e-05	3.3394e-05	82.661	29.92	18.076	8.2688	2.7051e-05	15.277	0.081853	0.090291	0.025147	2646.1	0.00097696	0.00099514	2313.1	772.77	0.00098092	0.0010018	1275.5	441.15	376.3	140.18	0.00099289	194.35	138.287	99.690	75.477	82.218	162.229	240.466	83.339	88.062	210.421	400.946	85.572	90.643	94.983	97.646	107.957	93.032	-8191	255	
32346.836	1	1	0	0	0.074467	0.28252	0.28466	0.062064	0.070868	0.33393	0.082252	0.13144	0.18314	0.090073	0.23861	0.031811	0.17599	0.1072	0.13851	0.141	-2.3104	-3.5229	-3.2042	-2.7958	-3.6896	-2.9792	-2.9938	-3.6146	-2.6646	-3.2729	-3.3604	-2.6688	-3.4646	-3.1937	-2.9354	-3.5729	202.487	163.882	334.585	199.106	353.578	74.871	134.312	79.085	110.802	154.153	261.154	277.565	155.075	168.686	339.353	278.592	0.0017821	0.0074494	0.00020309	140.85	5.3556e-05	3.0079e-05	198.62	52.174	2.4909e-05	2.9294e-05	83.52	31.002	17.848	8.6282	3.6087e-05	15.105	0.083392	0.091861	0.02545	2673.9	0.00098776	0.0010058	2326	776.58	0.00098604	0.001004	1273.3	441	376.83	139.75	0.00098787	192.96	97.935	243.973	239.055	81.061	163.075	222.488	82.978	88.617	181.881	227.980	87.638	91.317	96.647	99.408	301.201	94.869	-8191	255	
32346.932	1	1	0	0	0.13679	0.21697	0.22936	0.13735	0.1755	0.077077	0.10784	0.15502	0.034067	0.1816	0.025458	0.42074	0.23867	0.17651	0.3585	0.11241	-2.4646	-3.2062	-3.2479	-2.7167	-3.4417	-3.0896	-2.8479	-3.5146	-2.6958	-3.2479	-3.4875	-2.6833	-3.4562	-3.2271	-2.7417	-3.4979	139.201	334.187	272.588	274.050	277.170	221.062	112.420	172.187	207.406	113.906	179.557	109.335	341.110	75.729	232.074	122.325	0.00025265	0.010643	0.00052526	144.59	1.7596e-05	2.8703e-05	203.25	52.06	1.8023e-05	3.2784e-05	82.196	30.394	17.806	8.4263	3.1825e-05	15.341	0.082896	0.090985	0.025117	2642.6	0.00097944	0.00099283	2294.6	767.57	0.00097643	0.00099217	1258.9	437.86	374.5	138.72	0.0009828	192.63	421.179	232.242	373.606	83.436	153.375	72.676	82.590	89.251	203.621	114.809	86.384	92.757	94.296	97.616	206.090	93.243	-8191	255	
32347.027	1	1	0	0	0.22645	0.10529	0.22619	0.17447	0.17138	0.11891	0.30509	0.082991	0.038716	0.18751	0.055893	0.26027	0.38477	0.051464	0.063804	0.13483	-2.4688	-3.0896	-3.3708	-2.7604	-3.4688	-3.2146	-2.9604	-3.4521	-2.9458	-3.0729	-3.5812	-2.9188	-3.4417	-3.2687	-2.8125	-3.6312	149.662	287.155	141.797	175.147	429.160	93.827	367.282	355.436	193.114	260.553	287.878	348.557	74.807	371.251	92.270	300.961	0.0010356	0.0021462	0.00091661	142.99	2.5326e-05	4.6531e-06	198.62	53.556	4.0236e-05	5.6514e-05	81.752	30.419	18.75	8.6043	2.208e-05	15.178	0.083033	0.090959	0.025087	2649.6	0.00098355	0.00099388	2295.7	771.05	0.00098052	0.00099039	1256.7	437.24	373.02	137.7	0.0009733	191.39	140.444	116.585	384.440	84.410	258.000	78.223	82.468	89.968	176.251	295.968	87.222	89.854	94.527	97.170	76.581	93.035	-8191	255	
32347.123	1	1	0	0	0.3042	0.016392	0.12722	0.22499	0.077015	0.07982	0.20895	0.073358	0.23765	0.21261	0.062842	0.23288	0.17546	0.10826	0.1104	0.1834	-2.5583	-3.0104	-3.5542	-2.8438	-3.2188	-3.3667	-2.8167	-3.3479	-3.0292	-2.8396	-3.4729	-2.8	-3.2729	-3.3229	-2.5667	-3.4792	254.906	158.980	210.610	127.564	148.427	201.048	132.704	167.085	305.638	110.149	275.642	423.986	322.907	282.248	92.376	206.380	0.00060849	0.003491	0.00050142	142.29	1.6945e-05	3.2973e-06	204.59	51.438	3.3723e-05	2.9975e-05	81.315	30.849	17.44	8.4832	2.4009e-05	15.423	0.082271	0.089792	0.024835	2627.8	0.00097385	0.00098094	2274.6	765.19	0.00097226	0.00098027	1247.5	435.4	371.27	137.02	0.00096981	191.47	371.869	204.373	85.865	82.202	161.873	150.402	82.111	91.697	307.661	411.305	87.067	90.795	91.972	97.331	221.332	93.847	-8191	255	
32347.221	1	1	0	0	0.2798	0.205	0.1377	0.11462	0.057426	0.073044	0.16067	0.26129	0.037895	0.21257	0.037987	0.26194	0.14673	0.29811	0.25841	0.21847	-2.6917	-2.6958	-3.5917	-2.8396	-3.2271	-3.4062	-2.7229	-3.4688	-3.0875	-2.8083	-3.6521	-2.9146	-3.0021	-3.4396	-2.5958	-3.5167	140.160	257.416	194.390	374.168	174.966	222.193	406.905	324.268	311.574	358.506	256.185	164.883	91.543	333.836	151.288	373.989	0.00057836	0.0062326	0.0011175	140.14	1.7709e-05	2.965e-05	198.71	52.579	3.3653e-05	2.6664e-05	84.491	30.669	18.338	8.3823	0.00011537	15.356	0.082155	0.08965	0.024818	2632.4	0.00097395	0.00097957	2273	766.58	0.00096932	0.00097774	1246.7	435.88	370.3	136.61	0.00097071	191.9	372.036	344.561	315.051	82.645	403.303	232.547	84.131	88.144	361.143	287.493	87.261	90.645	93.925	96.552	204.955	94.441	-8191	255	
32347.316	1	1	0	0	0.057337	0.051143	0.30391	0.19182	0.26108	0.30637	0.44271	0.090766	0.15593	0.19522	0.19049	0.01914	0.20101	0.19004	0.29797	0.16801	-2.925	-2.9417	-3.5187	-2.7604	-2.9854	-3.5187	-2.6479	-3.2938	-3.1896	-2.8187	-3.4125	-3.0687	-3.05	-3.4833	-2.7438	-3.2687	427.387	278.543	140.447	214.991	137.409	72.673	88.226	89.854	245.959	236.139	413.405	411.237	429.477	354.069	97.667	98.215	0.00093452	0.0037683	0.00095426	143.37	1.3355e-05	3.7561e-05	199.39	50.835	2.6579e-05	3.7674e-05	84.402	30.865	17.668	8.7891	6.6219e-05	15.176	0.082057	0.089338	0.024831	2636.3	0.0009706	0.00097786	2275	767.25	0.00096824	0.00097728	1250.7	437.3	370.59	136.65	0.00097656	192.34	418.455	331.216	398.600	83.873	188.457	94.531	83.423	88.255	304.849	427.314	85.372	90.515	95.987	97.025	239.169	92.200	-8191	255	
32347.438	1	1	0	0	0.14588	0.30687	0.16043	0.054937	0.144	0.12421	0.15392	0.077773	0.102	0.31238	0.12993	0.37121	0.11318	0.30362	0.19995	0.32213	-2.8333	-2.7292	-3.5438	-2.8396	-2.8583	-3.5625	-2.7229	-3.0792	-3.4229	-2.6667	-3.4021	-3.1562	-2.8187	-3.5438	-2.7229	-3.2583	378.570	190.416	232.968	265.366	218.799	172.134	355.206	423.284	329.972	259.056	340.902	76.348	268.715	118.130	374.357	357.655	0.00033517	0.0033009	0.00099786	129.91	2.7336e-05	2.1179e-05	202.38	52.282	1.2851e-05	3.3226e-05	78.919	29.833	17.694	8.5113	3.9034e-05	14.612	0.082204	0.089627	0.025048	2651.7	0.00097627	0.00098469	2298.1	772.52	0.00097426	0.00098521	1262.2	439.55	371.4	137.38	0.00098196	192.81	208.471	125.545	78.591	81.735	240.861	221.992	81.723	89.392	324.106	152.617	85.330	89.259	93.067	97.399	206.370	93.878	-8191	255	
32347.531	1	1	0	0	0.22725	0.22793	0.11068	0.1842	0.083737	0.043275	0.25617	0.26785	0.12447	0.21141	0.24577	0.34232	0.1992	0.03431	0.19858	0.12751	-2.9042	-2.6688	-3.3271	-3.1417	-2.8563	-3.4042	-2.9562	-3.0354	-3.5375	-2.9667	-3.4938	-3.3042	-2.7021	-3.4	-2.975	-2.9646	143.580	300.431	147.382	82.302	410.787	221.684	292.588	159.749	150.375	93.974	230.878	420.591	90.352	420.244	344.369	97.303	0.0010943	0.0029158	0.00028634	141.47	2.0517e-05	2.7987e-05	200.68	50.299	1.3468e-05	8.6157e-05	81.736	30.025	18.131	8.5212	6.8836e-05	14.87	0.082112	0.089871	0.025109	2653.5	0.00097403	0.00098614	2304.3	773.52	0.00097375	0.00098839	1268.8	440.41	372.73	138.25	0.00098864	193.28	166.900	390.310	424.791	82.580	153.579	267.102	83.753	88.173	154.684	225.340	86.788	90.724	92.569	96.890	219.253	93.259	-8191	255	
32347.629	1	1	0	0	0.054609	0.16399	0.095072	0.14247	0.21682	0.0754	0.23833	0.046916	0.1006	0.30737	0.18521	0.1401	0.12097	0.065599	0.15481	0.25663	-2.8875	-2.6354	-3.3937	-3.1875	-2.7625	-3.4792	-2.8083	-3.0104	-3.45	-2.8229	-3.3063	-3.1937	-2.7417	-3.3479	-3.0208	-2.9437	239.070	156.185	241.186	366.694	317.477	134.298	293.792	93.059	117.961	316.327	129.488	223.108	242.889	261.923	169.113	355.342	0.00048733	0.0040159	0.00048909	144.03	2.2285e-05	4.4315e-05	202.17	52.99	3.4946e-05	5.0394e-05	84.113	30.509	18.117	8.4645	2.2787e-05	15.215	0.082507	0.090433	0.025282	2660.4	0.00097697	0.00098985	2304.1	769.61	0.00096802	0.00098453	1260	436.05	369.34	137.41	0.00098066	191.7	84.376	423.876	413.779	83.204	158.083	204.743	82.103	88.939	393.917	148.438	86.986	91.334	92.663	97.791	205.204	92.802	-8191	255	
32347.725	1	1	0	0	0.14813	0.44807	0.059707	0.15376	0.37531	0.10173	0.09988	0.12057	0.063808	0.033444	0.079146	0.28717	0.22201	0.06856	0.093396	0.06004	-3.2313	-2.8438	-3.2042	-3.1688	-2.5417	-3.4021	-3.075	-3.0125	-3.5104	-2.8312	-3.1063	-3.4354	-2.7542	-3.4167	-3.2104	-2.8271	71.108	393.273	264.368	380.627	141.254	378.966	352.349	322.955	225.983	384.064	83.737	359.074	172.813	187.211	79.411	280.372	0.00085476	0.0015936	0.0011044	144.9	2.6875e-05	1.0106e-05	205.34	50.977	1.4725e-05	1.371e-05	85.735	30.275	17.857	8.7428	2.9991e-05	14.987	0.081726	0.09	0.025054	2636.4	0.00096985	0.000986	2296.9	766.95	0.0009685	0.00098737	1260.4	435.6	369.86	137.87	0.00098173	191.57	250.545	217.037	391.319	84.573	230.674	113.456	82.668	88.486	195.619	294.506	86.149	90.763	95.422	97.971	238.879	95.198	-8191	255	
32347.820	1	1	0	0	0.036661	0.22003	0.23264	0.14877	0.22099	0.28969	0.19665	0.040324	0.22609	0.11429	0.096088	0.23488	0.1334	0.25565	0.17003	0.15518	-3.0125	-2.6896	-3.0292	-3.4771	-2.5896	-3.4604	-3.2625	-2.7938	-3.5125	-2.7687	-3.2271	-3.4917	-2.6604	-3.2833	-3.35	-2.8	220.448	339.937	322.579	179.338	409.072	293.434	171.728	118.196	104.329	376.780	128.721	95.713	412.565	330.948	154.868	297.425	0.00050756	0.0016981	0.00011953	142.58	2.7759e-05	3.1021e-05	203.86	53.13	3.8277e-05	5.5261e-06	80.885	29.322	18.15	8.6254	5.2396e-05	15.038	0.081944	0.090107	0.025002	2626.3	0.00096822	0.00098492	2287.1	762.81	0.00096574	0.0009857	1254.1	433.63	369.84	137.8	0.0009779	191.12	393.874	91.552	321.820	83.262	239.973	341.716	82.493	88.829	173.483	250.588	85.897	91.319	96.472	98.275	148.700	94.181	-8191	255	
32347.916	1	1	0	0	0.24688	0.10251	0.092279	0.119	0.089258	0.17637	0.073183	0.2102	0.19463	0.26113	0.1506	0.12016	0.2542	0.14763	0.15449	0.33209	-3.0167	-2.8042	-2.9521	-3.475	-2.8021	-3.3083	-3.2854	-2.7583	-3.45	-2.9583	-2.9354	-3.5167	-2.5896	-3.3104	-3.2687	-2.5792	162.282	406.783	370.324	106.320	199.460	361.334	77.416	303.723	304.722	289.507	119.142	399.306	369.599	340.194	108.185	90.407	0.00096706	0.0010054	0.00097637	136.61	5.3754e-06	1.8358e-05	205.72	52.692	5.5288e-06	5.0478e-05	84.501	29.964	18.709	8.6197	1.4054e-05	15.032	0.082043	0.090414	0.025066	2632.2	0.00097518	0.00099042	2294.2	767.87	0.00097303	0.00099067	1258.4	435.35	371.88	138.13	0.00097448	190.8	387.730	123.181	341.155	83.375	302.975	386.120	82.594	88.800	338.245	364.032	86.236	92.488	92.050	96.340	121.729	92.621	-8191	255	
32348.037	1	1	0	0	0.31866	0.11078	0.093859	0.15371	0.34414	0.12426	0.065342	0.14015	0.037951	0.36714	0.25664	0.066502	0.10943	0.15638	0.061752	0.29243	-3.1083	-2.8604	-2.8042	-3.5396	-2.5771	-3.1479	-3.1708	-2.6604	-3.5729	-3.1021	-2.9292	-3.6583	-2.7438	-3.0896	-3.5021	-2.75	88.278	356.260	384.647	401.456	280.623	377.754	376.756	267.487	334.574	235.169	298.811	320.393	332.393	377.303	188.365	90.040	0.00018365	0.0038189	0.0012704	138.87	6.2404e-06	4.0084e-05	204.19	51.339	3.2084e-05	2.2995e-05	83.938	30.253	19.087	8.6772	1.1153e-05	15.284	0.082014	0.090197	0.024893	2625.1	0.00097311	0.00098522	2280.3	761.88	0.00097013	0.00098371	1248.3	433.3	370.4	137.42	0.00097158	190.53	179.438	402.686	190.786	83.835	79.791	423.351	82.877	91.098	174.318	247.864	85.921	90.792	93.507	96.296	321.854	93.150	-8191	255	
32348.133	1	1	0	0	0.12139	0.15485	0.17748	0.12655	0.14814	0.067339	0.19815	0.14184	0.12606	0.1238	0.17108	0.090321	0.15072	0.098474	0.19129	0.12607	-3.0354	-3.1562	-2.7917	-3.5021	-3.0667	-3.1229	-3.2229	-2.7313	-3.1771	-3.2333	-2.8104	-3.5167	-2.8354	-2.8479	-3.3875	-2.6479	377.364	180.595	236.791	149.868	415.332	122.643	280.297	349.396	393.200	146.311	305.096	178.500	238.842	224.508	335.983	331.293	0.00083447	0.0019875	0.00055481	139.75	2.76e-05	5.9606e-05	200.58	51.167	2.9825e-05	4.0496e-05	83.443	30.043	17.183	8.4492	3.5439e-05	15.134	0.082058	0.089941	0.024849	2624.7	0.00097304	0.00098402	2273.6	763.75	0.00097009	0.00098073	1244.5	433.27	370.18	136.91	0.00096931	190.54	113.808	102.868	427.116	82.956	223.090	230.650	82.716	90.615	105.702	118.460	87.636	92.354	91.016	94.866	222.114	93.054	-8191	255	
32348.229	1	1	0	0	0.066019	0.11922	0.31211	0.040774	0.19229	0.088929	0.17299	0.16735	0.1322	0.18222	0.10673	0.28391	0.16443	0.08306	0.080339	0.27776	-2.8375	-3.1625	-2.7792	-3.6333	-2.875	-2.7917	-3.5542	-2.7271	-3.1542	-3.2792	-2.65	-3.4271	-3.1479	-2.8958	-3.5021	-2.7979	366.467	145.135	279.570	317.566	99.404	332.185	418.738	334.178	424.757	320.317	388.162	129.663	416.573	365.091	158.692	74.152	0.00025522	0.002408	0.00084488	141.04	3.4693e-05	9.7414e-06	197.89	51.987	1.6286e-05	6.4789e-05	81.924	30.667	18.206	8.3853	2.4396e-05	15.377	0.082035	0.089416	0.02472	2622.1	0.0009698	0.00097818	2266.8	763.19	0.00096703	0.00097743	1243.8	434.43	370.06	136.8	0.00097052	191.75	317.853	265.163	280.678	83.208	321.221	123.489	82.475	88.366	185.799	384.572	87.482	91.037	92.831	96.378	211.273	94.538	-8191	255	
32348.301	1	1	0	0	0.10443	0.19175	0.22756	0.1288	0.16851	0.1756	0.11623	0.091835	0.060548	0.16322	0.30856	0.053709	0.1371	0.14722	0.18218	0.32711	-2.8	-3.2854	-2.5375	-3.2917	-3.0854	-2.8042	-3.2729	-2.8104	-3.0667	-3.4542	-2.6146	-3.4562	-3.1542	-3.0125	-3.4	-2.7687	425.607	151.369	416.707	197.834	315.572	312.637	371.750	203.642	264.756	327.823	83.228	206.607	295.289	211.357	288.532	372.955	0.00095208	0.0067122	0.00037578	145.12	1.5556e-05	1.6687e-05	205.52	51.684	3.4904e-05	5.8293e-05	83.439	29.966	17.901	8.4297	3.8058e-05	15.177	0.082346	0.089579	0.024836	2636.8	0.00097447	0.00097967	2277.5	767.55	0.00097183	0.00098012	1249.6	436.86	371.57	137.06	0.00097588	192.84	147.510	215.040	416.120	83.065	81.160	263.182	82.849	89.749	409.666	352.932	87.451	91.266	90.879	96.923	202.571	95.180	-8191	255	
32348.396	1	1	0	0	0.10642	0.19299	0.25175	0.074889	0.066429	0.19153	0.1249	0.30693	0.10976	0.093847	0.30178	0.081289	0.14013	0.23028	0.12102	0.076185	-2.5104	-3.3646	-2.6917	-3.3021	-2.9688	-2.8125	-3.3833	-2.8958	-2.9	-3.3729	-2.6458	-3.3229	-3.2042	-2.7604	-3.5458	-2.9458	302.763	384.045	135.989	191.760	90.513	202.841	400.199	149.309	293.346	358.568	330.875	373.126	167.067	74.251	393.699	430.421	0.00058709	0.001681	0.0010078	140.34	3.7943e-05	2.8837e-05	195.58	51.352	2.1337e-05	3.4816e-06	82.299	29.779	17.857	8.8011	2.8665e-05	14.896	0.082513	0.089849	0.025028	2653.4	0.00097762	0.00098404	2292	772	0.00097728	0.00098442	1260.1	439.67	372.77	137.65	0.0009813	193.1	260.573	132.132	269.980	85.027	270.926	145.070	85.628	88.549	228.191	83.337	87.121	92.963	95.617	96.625	251.719	95.222	-8191	255	
32348.516	1	1	0	0	0.19907	0.13723	0.20819	0.17606	0.26709	0.02411	0.195	0.10855	0.19882	0.14042	0.11176	0.17578	0.094509	0.16798	0.16902	0.11802	-2.625	-3.4042	-2.6646	-3.1063	-3.3312	-2.7292	-3.3958	-2.8396	-2.8458	-3.4688	-2.8937	-3.2521	-3.3042	-2.8979	-3.4479	-2.9521	185.517	159.264	139.474	181.280	402.730	82.020	401.317	322.423	386.439	286.494	364.042	183.247	359.353	403.831	402.772	412.429	0.00019173	0.006269	0.00080295	135.07	4.8415e-05	2.7814e-05	196.76	51.198	3.8262e-05	2.827e-05	83.349	30.016	17.481	8.5702	5.8282e-05	15.09	0.082321	0.089841	0.025033	2645.7	0.00097086	0.00097685	2280	766.21	0.00096214	0.00097302	1247.9	434.06	366.96	135.98	0.0009704	191.13	130.290	222.149	110.845	85.439	194.398	133.275	82.937	87.441	264.408	234.410	86.917	89.094	93.801	97.528	191.553	94.110	-8191	255	
32348.611	1	1	0	0	0.28264	0.10051	0.21804	0.10699	0.096577	0.13729	0.13008	0.21724	0.27833	0.054061	0.036627	0.25373	0.055464	0.12311	0.19367	0.052334	-2.3354	-3.5125	-2.8042	-3.1917	-3.4458	-2.6542	-3.4188	-3.0917	-2.5729	-3.4458	-2.7104	-3.1854	-3.3542	-2.7	-3.2667	-3.0229	169.125	324.143	422.221	323.851	93.080	340.899	380.050	430.873	360.931	242.145	144.041	275.861	388.189	188.075	342.512	388.804	0.0010082	0.0017223	0.0010224	135.53	1.8368e-05	2.1955e-05	200.69	51.944	2.8303e-05	2.4972e-05	87.127	30.665	18.045	8.8275	2.7471e-05	15	0.081345	0.08909	0.024912	2633.7	0.00096623	0.00097906	2286.5	766	0.00096541	0.00097901	1254.5	435.86	368.5	136.95	0.00097741	191.27	384.450	352.942	84.455	84.779	380.270	182.272	82.729	89.407	183.159	74.681	84.148	90.353	93.804	96.637	283.302	93.639	-8191	255	
32348.707	1	1	0	0	0.28694	0.15458	0.18761	0.13998	0.071364	0.034474	0.19696	0.21817	0.11849	0.15052	0.18444	0.14221	0.2992	0.11761	0.26166	0.15651	-2.5146	-3.2812	-2.7792	-2.8708	-3.5021	-2.8125	-3.2875	-3.2062	-2.6979	-3.5083	-2.9625	-3.0187	-3.4708	-2.6354	-3.3187	-3.2313	386.948	338.192	90.802	368.347	112.831	198.980	351.374	107.164	318.431	151.387	80.913	319.866	110.693	71.758	156.999	158.851	0.00094273	0.0039326	0.00092434	139.71	6.1966e-06	1.001e-05	198.43	52.096	4.5424e-05	2.3064e-05	83.664	30.659	18.074	8.7342	2.4892e-05	15.32	0.081605	0.089444	0.024989	2632.8	0.00096623	0.00098013	2291.2	764.67	0.00096349	0.00097986	1254.1	434.43	367.59	136.83	0.00097331	190.46	153.661	308.782	385.151	84.938	185.743	134.076	82.849	89.739	305.867	169.595	87.707	90.589	93.234	98.344	137.877	93.754	-8191	255	
32348.828	1	1	0	0	0.2499	0.13221	0.25063	0.13106	0.24359	0.077817	0.16664	0.1551	0.12196	0.17007	0.15468	0.094091	0.18729	0.1608	0.098377	0.075661	-2.3729	-3.3833	-2.8208	-2.8208	-3.5229	-2.9083	-3.175	-3.3479	-2.6562	-3.4354	-3.0187	-2.7542	-3.4542	-2.8354	-3.1063	-3.4521	342.767	126.772	149.436	352.233	78.470	315.041	259.467	195.280	410.703	245.719	307.911	271.496	329.656	366.948	201.335	414.769	0.00062169	0.0027712	0.0011643	138.5	4.0935e-05	5.4325e-05	204.34	52.489	1.4258e-05	3.5643e-05	80.412	30.529	17.646	8.7572	6.0993e-05	14.955	0.081162	0.089283	0.024881	2612	0.00096112	0.00097526	2274.4	756.72	0.00095361	0.00097201	1240.2	429.33	364.03	135.87	0.00096492	188.63	262.599	72.076	196.344	83.663	409.833	103.272	84.022	86.764	203.055	179.449	85.481	91.243	95.269	98.087	220.917	95.836	-8191	255	
32348.900	1	1	0	0	0.1459	0.15818	0.099308	0.056531	0.062736	0.23187	0.08814	0.17639	0.016841	0.046846	0.10795	0.1375	0.045494	0.28052	0.29878	0.094576	-2.0458	-3.3708	-3.0708	-2.6917	-3.4625	-2.9125	-3.0708	-3.2521	-2.725	-3.4146	-3.0312	-2.7396	-3.7042	-2.7583	-3.0229	-3.4896	272.292	139.691	93.408	375.433	134.891	279.543	78.243	411.171	320.887	273.733	129.481	388.902	231.469	261.047	283.593	328.946	0.00054266	0.0037143	0.001931	145.09	1.7843e-05	4.1861e-05	201.14	50.228	1.4685e-05	4.8164e-05	82.879	30.391	18.007	8.7726	1.8405e-05	15.378	0.080681	0.088908	0.024685	2597.5	0.00095868	0.00097487	2267.4	757.18	0.00095884	0.00097818	1245.8	432.12	368.21	137.28	0.00097299	190.53	195.755	307.462	167.863	81.336	293.650	243.316	83.147	89.598	426.918	257.067	86.723	91.966	94.934	96.569	149.890	96.441	-8191	255	
32348.996	1	1	0	0	0.075695	0.18057	0.10091	0.26404	0.14339	0.32952	0.054277	0.073626	0.112	0.1291	0.15741	0.1784	0.18256	0.1776	0.45847	0.12551	-2.3292	-3.2146	-3.1479	-2.775	-3.5396	-2.9833	-2.9625	-3.4083	-2.6375	-3.2812	-3.1708	-2.7271	-3.4271	-2.9688	-2.7958	-3.5208	321.315	252.935	334.112	188.415	357.559	412.958	374.926	152.874	320.130	170.318	424.757	262.402	196.133	81.223	254.491	199.663	0.0011118	0.0072368	0.001524	141.18	9.7035e-06	2.7375e-05	200.12	50.902	1.1008e-05	4.3736e-05	82.823	29.868	17.191	8.6451	2.3505e-05	14.856	0.081753	0.089839	0.024888	2614.6	0.00096667	0.00098224	2274.9	759.89	0.00096386	0.00098174	1247	431.52	368.63	137.05	0.000968	189.75	103.124	354.749	69.298	83.481	73.297	414.342	83.777	86.815	185.362	272.822	89.158	89.674	92.889	97.357	316.319	92.779	-8191	255	
32349.117	1	1	0	0	0.15989	0.074623	0.10153	0.15226	0.23025	0.045704	0.25633	0.061374	0.11554	0.23768	0.085103	0.18611	0.048751	0.11531	0.083226	0.165	-2.4354	-3.3167	-3.4062	-2.7917	-3.3833	-3.0792	-2.8021	-3.5021	-2.6562	-3.175	-3.4	-2.7125	-3.4375	-2.9854	-2.8104	-3.5042	355.123	280.486	182.083	405.420	278.158	423.565	416.616	406.999	191.818	326.424	95.370	418.689	275.624	171.852	249.463	424.772	0.0011052	0.0016256	0.0013433	140.18	2.1482e-05	4.4299e-05	201.93	52.326	3.1051e-05	1.8663e-05	84.723	30.24	18.317	8.7194	2.0371e-05	15.528	0.08151	0.089337	0.024718	2605.9	0.00096458	0.0009767	2261.1	757.59	0.00096049	0.00097471	1238.6	429.61	366.61	135.9	0.00095788	188.53	234.141	338.928	328.114	81.915	196.172	277.993	83.323	91.216	137.325	113.219	85.839	91.270	92.142	96.775	189.858	95.576	-8191	255	
32349.213	1	1	0	0	0.073278	0.12846	0.17335	0.12755	0.096634	0.15288	0.11321	0.20516	0.18714	0.33183	0.040774	0.081568	0.23495	0.16041	0.076689	0.08796	-2.4958	-3	-3.2708	-2.6312	-3.4396	-3.1125	-2.8458	-3.3812	-2.9771	-3.0875	-3.4708	-2.8625	-3.1833	-3.0833	-2.8583	-3.5354	101.981	369.696	109.699	307.042	182.095	318.272	351.026	312.823	347.758	84.593	359.106	83.586	181.142	79.240	209.618	188.642	0.00079741	0.0056125	0.0013384	142.71	8.5642e-06	1.175e-05	203.28	55.693	1.7167e-05	6.0593e-05	84.164	31.358	17.616	8.4241	2.7507e-05	15.5	0.080977	0.088503	0.024457	2588.4	0.00095664	0.0009673	2242.1	752.2	0.00095388	0.00096617	1228.7	428.52	365.89	135.37	0.0009572	188.71	137.489	270.225	144.959	85.013	418.132	230.523	82.232	88.026	367.019	240.329	87.892	91.368	93.732	97.486	299.710	93.028	-8191	255	
32349.309	1	1	0	0	0.19544	0.095251	0.097576	0.14242	0.19799	0.1418	0.21421	0.14121	0.18649	0.095114	0.14193	0.13509	0.36518	0.057486	0.18674	0.11047	-2.55	-2.925	-3.4479	-2.6083	-3.3354	-3.1979	-2.7938	-3.5083	-2.9354	-2.9292	-3.6583	-2.8438	-3.2604	-3.4437	-2.7208	-3.4646	71.882	176.401	420.742	223.056	199.627	366.002	310.987	327.962	215.146	89.004	303.036	73.018	385.978	380.684	400.889	306.064	0.0010347	0.0029935	0.0022648	146.84	1.4288e-05	1.7326e-05	204.13	53.64	2.12e-05	2.7574e-05	84.864	29.836	18.096	8.5136	8.2901e-06	15.247	0.08108	0.088667	0.024528	2601.1	0.00096292	0.00097005	2251.3	758.08	0.00096047	0.00096948	1235.8	431.07	367.29	135.76	0.00095943	189.33	82.324	410.388	146.094	86.105	285.604	255.963	82.078	89.310	175.933	391.126	85.231	93.109	89.690	96.938	156.345	94.417	-8191	255	
32349.430	1	1	0	0	0.23709	0.14683	0.10662	0.11157	0.10488	0.17662	0.39668	0.17868	0.13473	0.16537	0.14251	0.068144	0.082323	0.076133	0.38371	0.10319	-2.6083	-2.7104	-3.7188	-2.925	-3.0854	-3.4042	-2.6146	-3.4854	-3.0104	-2.8208	-3.4417	-2.8271	-3.05	-3.4458	-2.6312	-3.375	94.799	334.537	148.163	336.071	394.257	370.086	338.936	385.339	305.036	409.405	390.768	265.788	244.273	417.295	357.759	357.802	0.00084609	0.0018744	0.00069319	143.84	3.1491e-05	3.2754e-05	202.19	53.18	4.0971e-05	5.646e-05	84.124	31.221	19.003	8.4179	1.972e-05	14.803	0.081132	0.088392	0.024473	2598.1	0.00095797	0.00096301	2241.6	754.41	0.00095152	0.00095944	1226.7	427.28	362.91	133.89	0.00094779	187.66	123.098	136.239	134.609	82.585	188.838	121.612	82.312	88.413	93.148	289.347	88.015	89.809	91.952	98.270	355.845	92.976	-8191	255	
32349.500	1	1	0	0	0.34399	0.21305	0.16193	0.16297	0.25997	0.079282	0.10838	0.17402	0.32015	0.24413	0.065188	0.24526	0.17741	0.080849	0.1592	0.12842	-2.8417	-2.7896	-3.5271	-2.7583	-3.1688	-3.3979	-2.8792	-3.3896	-3.25	-2.8354	-3.4833	-2.9062	-3.1	-3.5208	-2.7667	-3.2771	398.675	132.426	426.129	308.314	71.151	311.078	224.250	209.835	142.512	355.248	305.415	419.401	369.087	323.908	331.654	236.527	0.0002855	0.002279	0.0010461	142.56	2.9659e-05	1.203e-05	203.98	51.821	2.5143e-06	6.1035e-05	82.847	30.661	17.4	8.8462	3.8751e-05	15.296	0.080005	0.0873	0.024276	2581.1	0.00094742	0.00095443	2229.7	750.04	0.00094373	0.00095289	1223.1	426.86	361.38	133.75	0.00094944	187.5	113.781	196.926	177.260	84.177	234.019	186.216	83.046	87.771	227.457	140.892	86.540	92.973	93.465	97.412	256.192	93.340	-8191	255	
32349.596	1	1	0	0	0.40559	0.12469	0.17765	0.20002	0.3044	0.08728	0.22625	0.071195	0.16261	0.2168	0.04891	0.16069	0.069902	0.084652	0.098816	0.14747	-2.8187	-2.7667	-3.4875	-2.9854	-3.05	-3.5438	-2.8792	-3.2542	-3.4958	-2.75	-3.5333	-2.9292	-2.775	-3.4125	-2.5896	-3.1958	281.188	187.741	410.436	368.852	229.156	76.191	84.856	289.042	386.030	319.098	189.460	71.137	334.872	290.723	354.422	293.409	0.00057051	0.00060608	0.0011978	135.28	1.6473e-05	4.8852e-05	206.87	52.559	2.0891e-05	4.3136e-05	84.355	30.183	18.317	9.0099	4.4921e-05	15.455	0.079737	0.087145	0.024255	2572.3	0.00094444	0.00095242	2228.1	748.18	0.00094039	0.00095397	1224.6	426.51	361.92	134.06	0.000956	188.49	102.538	373.096	250.055	83.089	280.947	368.322	84.291	88.766	102.901	351.206	86.915	91.248	91.806	97.693	192.018	94.346	-8191	255	
#DATA ENDS
