BOXY.EXE: ISS Imagent and Oximeter Data Acquisition Program Version 0.80
Ascii Record File

#ACQ INFORMATION
2  Detector Channels 
16  External MUX Channels 
1  Auxiliary Channels 
5000  Waveform (CCF) Frequency (Hz)
1  Waveforms Skipped 
30  Waveforms Averaged 
1  Cycles Averaged 
16  Acquisitions per Waveform 
10.0806  Updata Rate (Hz) 

#FILE INFORMATION
TRUE -- External MUX Channel results are PARSED.
FALSE -- AC DC and Phase are NOT grouped.
TRUE -- Companion Program Settings File CREATED.
FALSE -- AC data not excluded
FALSE -- DC data not excluded
FALSE -- Phase data not excluded
FALSE -- Auxillary Chn. data not excluded
Tab delimiters

#CALIBRATION STATE
TRUE -- Waveform Calibration Values APPLIED.


#AUX CALIBRATION VALUES
Val Type	aux-1	

Term	1.0000e+00	
Factor	0.0000e+00	


#WF CALIBRATION VALUES
A = Detector Channel
Val Type	A-AC1	A-AC2	A-AC3	A-AC4	A-AC5	A-AC6	A-AC7	A-AC8	A-AC9	A-AC10	A-AC11	A-AC12	A-AC13	A-AC14	A-AC15	A-AC16	A-DC1	A-DC2	A-DC3	A-DC4	A-DC5	A-DC6	A-DC7	A-DC8	A-DC9	A-DC10	A-DC11	A-DC12	A-DC13	A-DC14	A-DC15	A-DC16	A-Ph1	A-Ph2	A-Ph3	A-Ph4	A-Ph5	A-Ph6	A-Ph7	A-Ph8	A-Ph9	A-Ph10	A-Ph11	A-Ph12	A-Ph13	A-Ph14	A-Ph15	A-Ph16	

Term	0.00000e+00	0.00000e+00	0.00000e+00	0.00000e+00	0.00000e+00	0.00000e+00	0.00000e+00	0.00000e+00	0.00000e+00	0.00000e+00	0.00000e+00	0.00000e+00	0.00000e+00	0.00000e+00	0.00000e+00	0.00000e+00	0.00000e+00	0.00000e+00	0.00000e+00	0.00000e+00	0.00000e+00	0.00000e+00	0.00000e+00	0.00000e+00	0.00000e+00	0.00000e+00	0.00000e+00	0.00000e+00	0.00000e+00	0.00000e+00	0.00000e+00	0.00000e+00	0.00000e+00	0.00000e+00	0.00000e+00	0.00000e+00	0.00000e+00	0.00000e+00	0.00000e+00	0.00000e+00	0.00000e+00	0.00000e+00	0.00000e+00	0.00000e+00	0.00000e+00	0.00000e+00	0.00000e+00	0.00000e+00	
Factor	1.00000e+00	1.00000e+00	1.00000e+00	1.00000e+00	1.00000e+00	1.00000e+00	1.00000e+00	1.00000e+00	1.00000e+00	1.00000e+00	1.00000e+00	1.00000e+00	1.00000e+00	1.00000e+00	1.00000e+00	1.00000e+00	1.00000e+00	1.00000e+00	1.00000e+00	1.00000e+00	1.00000e+00	1.00000e+00	1.00000e+00	1.00000e+00	1.00000e+00	1.00000e+00	1.00000e+00	1.00000e+00	1.00000e+00	1.00000e+00	1.00000e+00	1.00000e+00	X	X	X	X	X	X	X	X	X	X	X	X	X	X	X	X	

B = Detector Channel
Val Type	B-AC1	B-AC2	B-AC3	B-AC4	B-AC5	B-AC6	B-AC7	B-AC8	B-AC9	B-AC10	B-AC11	B-AC12	B-AC13	B-AC14	B-AC15	B-AC16	B-DC1	B-DC2	B-DC3	B-DC4	B-DC5	B-DC6	B-DC7	B-DC8	B-DC9	B-DC10	B-DC11	B-DC12	B-DC13	B-DC14	B-DC15	B-DC16	B-Ph1	B-Ph2	B-Ph3	B-Ph4	B-Ph5	B-Ph6	B-Ph7	B-Ph8	B-Ph9	B-Ph10	B-Ph11	B-Ph12	B-Ph13	B-Ph14	B-Ph15	B-Ph16	

Term	0.00000e+00	0.00000e+00	0.00000e+00	0.00000e+00	0.00000e+00	0.00000e+00	0.00000e+00	0.00000e+00	0.00000e+00	0.00000e+00	0.00000e+00	0.00000e+00	0.00000e+00	0.00000e+00	0.00000e+00	0.00000e+00	0.00000e+00	0.00000e+00	0.00000e+00	0.00000e+00	0.00000e+00	0.00000e+00	0.00000e+00	0.00000e+00	0.00000e+00	0.00000e+00	0.00000e+00	0.00000e+00	0.00000e+00	0.00000e+00	0.00000e+00	0.00000e+00	-2.67418e+02	-1.23981e+02	-1.44473e+02	-1.81854e+02	-1.05914e+02	-7.68791e+01	-1.57311e+02	-1.62015e+02	-7.09312e+01	-7.89950e+01	-1.71511e+02	-1.71453e+02	-1.84794e+02	-1.77817e+02	-1.04389e+02	-1.50452e+02	
Factor	5.71809e-05	8.97066e-05	3.11288e-05	1.96425e-01	1.13358e-06	8.75478e-07	1.57363e-01	5.65123e-02	1.42736e-06	9.07431e-07	8.42968e-02	3.04734e-02	2.81487e-02	8.63089e-03	1.04281e-06	1.25646e-02	5.48854e-07	5.55714e-07	1.54520e-07	9.50652e-02	6.08120e-09	6.08269e-09	7.27127e-02	2.73195e-02	6.08719e-09	6.08483e-09	3.88846e-02	1.39013e-02	1.32012e-02	4.11566e-03	6.08014e-09	5.73139e-03	X	X	X	X	X	X	X	X	X	X	X	X	X	X	X	X	



#DISTANCE SETTINGS
A = Detector Channel
A-1	A-2	A-3	A-4	A-5	A-6	A-7	A-8	A-9	A-10	A-11	A-12	A-13	A-14	A-15	A-16	

2.5000e+00	3.0000e+00	2.5000e+00	3.0000e+00	2.0000e+00	3.0000e+00	1.5000e+00	3.0000e+00	3.0000e+00	3.0000e+00	3.0000e+00	3.0000e+00	3.0000e+00	3.0000e+00	1.5000e+00	3.0000e+00	

B = Detector Channel
B-1	B-2	B-3	B-4	B-5	B-6	B-7	B-8	B-9	B-10	B-11	B-12	B-13	B-14	B-15	B-16	

1.0000e+01	1.0000e+01	1.0000e+01	1.4400e+00	1.0000e+01	1.0000e+01	1.5100e+00	1.9400e+00	1.0000e+01	1.0000e+01	1.9900e+00	2.4900e+00	2.4100e+00	2.9000e+00	1.0000e+01	2.9800e+00	




#DATA BEGINS
time	group	step	mark	flag	A-AC1	A-AC2	A-AC3	A-AC4	A-AC5	A-AC6	A-AC7	A-AC8	A-AC9	A-AC10	A-AC11	A-AC12	A-AC13	A-AC14	A-AC15	A-AC16	A-DC1	A-DC2	A-DC3	A-DC4	A-DC5	A-DC6	A-DC7	A-DC8	A-DC9	A-DC10	A-DC11	A-DC12	A-DC13	A-DC14	A-DC15	A-DC16	A-Ph1	A-Ph2	A-Ph3	A-Ph4	A-Ph5	A-Ph6	A-Ph7	A-Ph8	A-Ph9	A-Ph10	A-Ph11	A-Ph12	A-Ph13	A-Ph14	A-Ph15	A-Ph16	B-AC1	B-AC2	B-AC3	B-AC4	B-AC5	B-AC6	B-AC7	B-AC8	B-AC9	B-AC10	B-AC11	B-AC12	B-AC13	B-AC14	B-AC15	B-AC16	B-DC1	B-DC2	B-DC3	B-DC4	B-DC5	B-DC6	B-DC7	B-DC8	B-DC9	B-DC10	B-DC11	B-DC12	B-DC13	B-DC14	B-DC15	B-DC16	B-Ph1	B-Ph2	B-Ph3	B-Ph4	B-Ph5	B-Ph6	B-Ph7	B-Ph8	B-Ph9	B-Ph10	B-Ph11	B-Ph12	B-Ph13	B-Ph14	B-Ph15	B-Ph16	aux-1	digaux	

2047.851	1	1	0	768	0.17983	0.14536	0.048482	0.16275	0.14968	0.16579	0.19092	0.15478	0.17957	0.18282	0.14462	0.095374	0.046292	0.33768	0.14141	0.31502	-4.6813	-4.5583	-4.3667	-5.2229	-4.2625	-4.5687	-5.1188	-4.1687	-5.0542	-4.6813	-4.2688	-5.2667	-4.475	-4.5021	-5.0729	-4.3271	213.577	210.042	166.833	175.164	235.957	61.110	131.213	95.924	245.485	155.012	95.504	250.723	6.542	137.620	168.443	176.286	0.0014801	0.00067988	0.00019029	802.53	7.7211e-06	4.3422e-06	811.02	305.41	6.3448e-06	5.4947e-06	349.67	187.04	142.82	68.879	6.0209e-06	93.777	0.00028397	0.00027318	7.5691e-05	799.93	2.9828e-06	2.9735e-06	811.85	299.97	2.99e-06	2.9608e-06	340.33	178.54	136.42	66.111	2.9787e-06	88.435	55.869	-16.666	-54.295	-90.334	39.900	42.420	-91.780	-85.865	72.143	58.443	-87.531	-83.802	-82.890	-76.569	-34.226	-79.628	-8191	255	
2047.946	1	1	0	0	0.014872	0.11845	0.17035	0.19784	0.20482	0.091775	0.1242	0.13748	0.18316	0.12075	0.12251	0.09327	0.13466	0.090302	0.034648	0.21699	-4.5396	-4.6292	-4.2729	-5.0521	-4.5437	-4.5042	-5.1125	-4.3688	-4.8104	-4.7167	-4.2875	-5.15	-4.5208	-4.5375	-5.1146	-4.4313	154.401	-5.530	-35.231	176.642	225.235	139.869	218.123	207.764	235.285	164.166	-60.824	-61.554	18.719	-21.950	-40.035	202.851	0.0011585	0.00026579	0.00012961	800.94	6.6118e-06	2.0566e-06	807.27	305.14	5.7601e-06	7.5491e-06	346.58	185.13	141.89	68.634	2.5449e-06	92.562	0.00028152	0.00026821	7.5151e-05	796.44	2.9455e-06	2.9395e-06	808.13	299.41	2.9851e-06	2.9495e-06	338.24	177.5	135.97	65.838	2.9883e-06	87.784	58.857	-100.481	-33.127	-90.458	-36.490	181.941	-91.612	-85.484	0.879	65.285	-87.993	-83.802	-82.559	-76.742	116.332	-79.684	-8191	255	
2048.042	1	1	0	0	0.12881	0.045465	0.016676	0.17442	0.20913	0.16108	0.20215	0.28112	0.12329	0.28475	0.086178	0.069059	0.072608	0.1439	0.080208	0.30059	-4.4437	-4.8562	-4.1188	-5.1708	-4.6479	-4.3667	-5.2208	-4.3187	-4.7479	-4.9313	-4.2854	-5.0958	-4.5875	-4.6583	-5.1312	-4.3812	83.460	-77.650	182.581	91.242	-15.665	87.881	226.795	167.769	27.739	78.302	-60.382	-97.517	186.595	-102.728	-69.129	187.898	0.001303	0.00020001	0.0001254	800.62	5.43e-06	1.29e-06	808.35	305.25	8.3684e-06	6.8064e-06	347.82	187.17	141.91	68.73	1.3895e-06	92.632	0.00028346	0.00027023	7.517e-05	797.74	2.9571e-06	2.9774e-06	807.49	299.19	2.9644e-06	2.9389e-06	338.96	177.79	136.17	65.963	3.0204e-06	87.969	58.640	13.188	-39.874	-90.632	-30.686	85.579	-91.499	-85.565	-28.976	7.434	-87.817	-83.891	-82.760	-76.836	10.941	-79.825	-8191	255	
2048.138	1	1	0	0	0.19153	0.22229	0.11087	0.13818	0.24258	0.21148	0.10754	0.15352	0.096717	0.041774	0.17432	0.076996	0.073833	0.18137	0.047265	0.10744	-4.2604	-4.9979	-4.1229	-4.9354	-4.6833	-4.2042	-5.3812	-4.425	-4.5458	-4.9812	-4.1896	-5.0563	-4.875	-4.4729	-5.025	-4.6104	48.037	117.745	28.136	236.728	229.206	198.524	186.499	241.801	-63.436	238.696	85.772	71.876	237.936	-73.441	168.213	-76.881	0.0016512	0.00038371	0.00013092	799.1	6.1145e-06	5.7564e-06	812.99	304.89	4.5336e-06	3.6726e-06	349.61	186.46	141.78	69.133	8.1807e-06	93.519	0.00028563	0.00027461	7.6817e-05	796.55	3.0234e-06	3.0424e-06	812.19	299.69	3.0502e-06	3.0322e-06	340.75	178.24	136.2	66.171	3.0403e-06	88.584	70.296	-4.896	32.334	-90.586	37.212	61.345	-91.733	-85.541	27.535	5.665	-87.631	-83.718	-82.498	-76.800	13.540	-79.672	-8191	255	
2048.234	1	1	0	0	0.031194	0.17331	0.059696	0.037557	0.32926	0.2099	0.086603	0.10775	0.064406	0.1407	0.20906	0.3286	0.04167	0.13097	0.057615	0.33833	-4.1125	-5.0667	-4.0479	-4.7208	-4.8271	-4.3292	-5.1438	-4.5771	-4.2396	-5.0979	-4.1937	-4.7396	-4.875	-4.3854	-4.9146	-4.7917	139.411	178.308	26.121	57.551	203.437	95.867	-94.318	-95.779	229.605	41.388	12.552	191.670	152.076	-81.446	246.883	171.121	0.0014556	0.00057954	0.00011761	798.99	5.2477e-06	1.0752e-06	815.81	304.79	1.3989e-05	2.6608e-06	349.86	186.96	141.9	69.977	2.5145e-06	94.253	0.00028358	0.00027676	7.7523e-05	799.66	3.0083e-06	3.0648e-06	814.59	300.18	3.0831e-06	3.0826e-06	342.27	178.57	136.53	66.776	3.057e-06	89.275	55.156	17.265	234.110	-90.537	-1.986	199.500	-91.420	-85.733	91.406	19.507	-87.495	-83.653	-82.606	-76.603	-2.362	-79.784	-8191	255	
2048.330	1	1	0	0	0.15016	0.15493	0.09214	0.15788	0.062058	0.16615	0.19767	0.17666	0.16794	0.065293	0.12026	0.022186	0.10846	0.4873	0.13059	0.16689	-3.9771	-4.9354	-4.15	-4.8521	-5.0042	-4.0229	-5.1167	-4.8479	-4.2583	-5.0542	-4.4396	-4.6792	-5.1292	-4.3771	-4.85	-4.9	-59.387	213.481	249.342	-60.431	-90.337	230.753	234.857	167.795	159.820	223.902	-72.912	-84.601	227.712	213.976	91.332	245.190	0.0012502	0.00082409	9.6997e-05	799.11	5.7047e-06	2.346e-06	812.78	305.73	1.1016e-05	6.3913e-06	350.21	185.9	142.21	69.378	4.8209e-06	94.102	0.0002875	0.00027563	7.623e-05	797.99	2.997e-06	3.0167e-06	813.69	300.97	3.0695e-06	3.0386e-06	341.98	177.52	136.08	66.671	3.0803e-06	89.048	53.597	-0.679	21.298	-90.463	9.804	86.655	-91.680	-85.358	27.003	59.874	-87.518	-83.746	-82.763	-76.668	7.225	-79.517	-8191	255	
2048.451	1	1	0	0	0.22649	0.14607	0.18628	0.13514	0.069539	0.11623	0.24528	0.15197	0.090939	0.15785	0.22983	0.31718	0.18975	0.28452	0.18119	0.16157	-3.8896	-5.0208	-4.3812	-4.6375	-5.0292	-4.1375	-4.9062	-4.8521	-4.15	-5.1271	-4.5375	-4.5437	-5.2021	-4.3667	-4.7167	-5.0583	53.349	-27.140	-16.912	76.164	204.657	80.864	139.972	190.538	88.092	236.381	-99.783	180.910	-35.979	221.402	212.639	194.712	0.0014596	0.00055422	9.6618e-05	792.21	2.2864e-06	4.1911e-06	809.45	304.42	1.8965e-06	6.9671e-07	350.06	185.32	141.55	69.401	4.318e-06	93.982	0.00028946	0.0002808	7.7999e-05	792.26	3.0298e-06	3.0657e-06	810.25	299.62	3.0801e-06	3.0954e-06	341.52	177.57	135.67	66.608	3.0737e-06	88.807	56.084	41.570	-29.941	-90.496	91.957	44.204	-91.503	-85.461	94.058	-17.843	-87.430	-83.904	-82.365	-76.604	57.584	-79.561	-8191	255	
2048.547	1	1	0	0	0.20062	0.26022	0.25096	0.17704	0.1177	0.10626	0.13093	0.065765	0.28324	0.20102	0.057449	0.10643	0.15428	0.15895	0.040957	0.15902	-3.8542	-4.9458	-4.3604	-4.4458	-4.9896	-4.2542	-4.8771	-5	-4.2333	-4.9437	-4.6667	-4.3938	-5.1062	-4.3875	-4.6438	-5.1792	186.996	248.734	-75.499	246.653	121.629	143.732	236.147	108.460	106.075	150.096	121.844	158.904	165.599	256.605	153.162	196.096	0.0013682	0.00058551	0.00026685	790.82	4.814e-06	1.6655e-06	804.49	303.32	1.0854e-05	1.4522e-06	347.72	185.29	140.76	69.466	4.5158e-06	93.888	0.00029445	0.00028326	7.8657e-05	789.64	3.0687e-06	3.0787e-06	804.7	298.52	3.0835e-06	3.0794e-06	340.97	177.27	135.48	66.666	3.0367e-06	88.783	49.383	-4.870	-23.767	-90.585	8.306	57.195	-91.612	-85.401	28.686	210.541	-87.642	-83.857	-82.484	-76.450	6.521	-79.363	-8191	255	
2048.643	1	1	0	0	0.30614	0.13557	0.18067	0.11287	0.23609	0.17729	0.1991	0.0080142	0.18203	0.097652	0.15178	0.18172	0.12775	0.16593	0.070025	0.2444	-3.7917	-4.8042	-4.6771	-4.3167	-4.9083	-4.3667	-4.6438	-5.0229	-4.1	-4.9	-4.8833	-4.3542	-5.275	-4.5771	-4.5229	-5.1771	206.107	175.320	78.397	135.685	145.716	-0.713	181.309	46.198	82.210	-1.093	165.485	-69.998	188.737	195.490	-97.824	221.611	0.0012365	0.00052885	0.00029352	785.72	2.7362e-06	7.4693e-06	807.24	301.17	4.0698e-06	4.7149e-06	350.37	185.28	141.51	69.301	6.5084e-06	94.397	0.00028481	0.00027643	7.7083e-05	787.42	3.0467e-06	3.0375e-06	806.04	297.73	3.1164e-06	3.0644e-06	341.48	177.37	135.51	66.639	3.0915e-06	89.295	51.831	-2.034	-20.304	-90.461	-24.154	42.051	-91.871	-85.439	-70.315	92.029	-87.581	-83.686	-82.670	-76.581	34.100	-79.577	-8191	255	
2048.739	1	1	0	0	0.20005	0.10342	0.16889	0.19159	0.21109	0.1021	0.089927	0.25487	0.26817	0.19964	0.21012	0.21138	0.17371	0.16613	0.19011	0.21575	-3.8417	-4.7771	-4.9458	-4.2729	-5.0375	-4.5396	-4.3375	-5.2167	-4.2438	-4.9021	-5.0042	-4.2562	-5.2771	-4.7542	-4.2083	-5.2521	247.545	-32.614	202.025	-101.353	46.939	189.632	206.285	241.311	171.590	-94.779	-15.587	245.298	-70.114	214.936	238.607	220.112	0.0014769	0.00075133	0.00016515	787.06	5.0934e-06	4.2835e-06	809.91	304.01	1.2981e-05	4.5744e-06	350.53	186.06	141.27	69.603	3.6301e-06	94.279	0.00029317	0.00028672	7.8382e-05	789.43	3.1098e-06	3.1179e-06	809.62	299.3	3.121e-06	3.0902e-06	342.9	178.29	135.78	66.758	3.1339e-06	89.386	63.652	2.923	9.302	-90.557	30.611	7.520	-91.941	-85.348	-11.176	46.499	-87.681	-83.524	-82.629	-76.592	-36.024	-79.688	-8191	255	
2048.836	1	1	0	0	0.056468	0.28108	0.14021	0.15989	0.21926	0.13748	0.14597	0.093757	0.12257	0.10552	0.14392	0.312	0.16253	0.21185	0.27563	0.10739	-3.9146	-4.5479	-4.9896	-4.2146	-4.9396	-4.5021	-4.3417	-5.275	-4.3146	-4.6	-5.1562	-4.3438	-4.9875	-4.8417	-4.2875	-5.2104	231.901	-97.946	125.972	233.290	12.568	53.460	227.629	218.260	-42.875	-1.975	223.956	176.514	-47.577	-69.284	-67.845	240.428	0.0015138	0.00071124	8.1422e-05	786.89	2.4617e-06	6.2e-06	802.79	302.38	4.7745e-07	3.3568e-06	348.63	185.5	141.3	69.508	3.0351e-06	93.546	0.00029459	0.00028559	7.9442e-05	787.9	3.1284e-06	3.1152e-06	805.37	298.46	3.122e-06	3.0923e-06	341.25	177.51	135.86	66.667	3.0952e-06	88.788	56.525	-4.423	-60.876	-90.368	42.817	22.319	-91.656	-85.399	-71.846	47.803	-87.592	-83.620	-82.816	-76.591	-53.764	-79.660	-8191	255	
2048.932	1	1	0	0	0.1526	0.19577	0.059704	0.36478	0.13687	0.14646	0.099991	0.18857	0.077938	0.040791	0.14861	0.2341	0.29938	0.084401	0.19678	0.28204	-4.0229	-4.4146	-4.9875	-4.2375	-4.7979	-4.6271	-4.1896	-5.1021	-4.2917	-4.4042	-5.1833	-4.3812	-4.8083	-5.0062	-4.2146	-5.1854	178.907	42.484	98.475	-52.862	6.460	145.877	171.526	81.562	90.159	55.907	235.865	-77.473	227.506	-90.429	-79.250	208.473	0.00098605	0.00057473	0.00022592	785	5.214e-06	3.0339e-06	802.42	302.06	9.7305e-06	4.4793e-06	348.6	185.4	140.84	69.451	3.8797e-06	93.786	0.0002923	0.00028278	7.8947e-05	786.78	3.1084e-06	3.08e-06	803.02	298.19	3.1037e-06	3.1036e-06	340.62	177.29	135.8	66.538	3.1535e-06	88.816	57.107	11.077	-6.524	-90.700	-37.935	-11.264	-91.920	-85.856	62.206	55.611	-87.506	-83.724	-82.686	-76.713	-15.645	-79.675	-8191	255	
2049.051	1	1	0	0	0.077187	0.12112	0.094437	0.069096	0.033564	0.17668	0.13292	0.28782	0.1795	0.054298	0.13227	0.2462	0.1803	0.22727	0.26419	0.18172	-4.2833	-4.3208	-5	-4.2708	-4.6104	-4.8875	-4.1375	-4.9354	-4.4042	-4.2312	-5.1	-4.4542	-4.6708	-5.1667	-4.0813	-5.1979	-62.387	-80.370	29.215	24.721	-19.756	-78.933	-52.419	221.730	-80.175	-9.535	186.218	-41.717	235.425	236.847	190.418	202.621	0.0015303	0.00062322	0.00031003	786.56	8.6052e-06	2.0615e-06	803.89	302.32	5.8234e-06	3.7454e-06	349.21	186.07	140.93	69.329	7.7098e-07	94.147	0.00029537	0.00028863	7.9634e-05	788.65	3.1554e-06	3.1505e-06	805.32	298.4	3.1802e-06	3.1752e-06	341.56	178.03	135.91	66.626	3.1834e-06	89.38	58.001	-5.697	-46.334	-90.480	34.156	137.340	-92.025	-85.415	-10.197	-1.860	-87.753	-83.647	-82.603	-76.523	117.532	-79.499	-8191	255	
2049.147	1	1	0	0	0.026883	0.12353	0.070975	0.23463	0.17757	0.067341	0.28113	0.24921	0.16651	0.13888	0.28042	0.29783	0.13465	0.1167	0.17695	0.12283	-4.45	-4.1979	-4.9667	-4.4521	-4.4958	-5.0917	-4.2312	-4.9917	-4.6708	-4.1813	-5.1896	-4.5292	-4.6104	-5.0563	-4.1562	-5.1021	130.396	56.787	87.448	204.580	150.733	156.123	189.577	173.109	-89.532	-45.604	253.635	220.742	-98.009	201.516	197.131	-93.066	0.0013028	0.00079661	0.00013288	790.39	9.7685e-07	2.4918e-06	806.43	301.93	6.0489e-06	3.8966e-06	349.49	186.89	141.42	69.196	5.8507e-06	94.606	0.00030017	0.00029199	8.1866e-05	790.61	3.2258e-06	3.1997e-06	809.77	298.9	3.2338e-06	3.2447e-06	343.05	178.72	136.12	66.622	3.2517e-06	89.606	61.605	25.603	-26.421	-90.701	-87.381	99.179	-91.759	-85.360	-64.923	27.383	-87.480	-83.801	-83.063	-76.849	-22.305	-80.008	-8191	255	
2049.243	1	1	0	0	0.17384	0.20411	0.050589	0.17169	0.066772	0.11794	0.26555	0.22966	0.22843	0.30941	0.019191	0.27163	0.18713	0.11402	0.079989	0.20468	-4.4917	-4.2854	-4.9583	-4.7604	-4.2771	-5.1208	-4.225	-4.8063	-5.0646	-4.1604	-5.1771	-4.8292	-4.4	-5.2542	-4.3521	-4.7479	-62.732	233.589	17.816	185.762	193.279	99.952	111.627	-103.210	245.380	61.078	28.167	179.364	187.319	-83.892	-41.228	-100.054	0.001466	0.00042979	0.00015014	793.75	3.7093e-06	7.8209e-06	809.42	302.73	7.1982e-06	4.74e-06	350.33	186.06	141.58	69.505	3.409e-06	93.966	0.00030371	0.00029708	8.2576e-05	794.03	3.178e-06	3.179e-06	811.44	299.17	3.1642e-06	3.1882e-06	342.37	178.41	136.02	66.596	3.1907e-06	89.03	69.728	2.326	-84.667	-90.488	220.177	22.364	-91.738	-85.564	30.619	14.234	-87.401	-84.015	-82.741	-76.896	230.513	-79.829	-8191	255	
2049.339	1	1	0	0	0.11486	0.19749	0.17063	0.19844	0.071611	0.025714	0.028195	0.0789	0.17322	0.031023	0.17417	0.22636	0.10959	0.17609	0.26886	0.3364	-4.6917	-4.3167	-4.8917	-4.725	-4.3625	-5.125	-4.5417	-4.6062	-4.9354	-4.3438	-5.0292	-4.725	-4.1854	-5.1979	-4.4062	-4.7271	101.132	42.720	-3.301	-89.831	0.321	207.541	246.441	72.604	65.642	242.304	201.359	181.323	-78.677	-99.766	150.015	-96.588	0.0013145	0.00039001	0.00010976	791.44	6.4777e-06	6.5938e-06	803.82	302.55	6.2505e-06	4.6067e-06	346.64	184.34	141.33	69.084	1.4152e-06	93.178	0.00030034	0.00029129	8.142e-05	793.96	3.21e-06	3.1729e-06	806.82	299.17	3.1661e-06	3.1901e-06	340.03	176.91	135.88	66.368	3.1668e-06	88.366	44.956	-46.734	80.118	-90.602	-5.180	41.575	-91.890	-85.484	41.595	38.683	-87.358	-84.017	-82.986	-76.769	172.340	-79.851	-8191	255	
2049.435	1	1	0	0	0.14053	0.28141	0.12931	0.12969	0.022636	0.18317	0.17511	0.12742	0.35686	0.27809	0.11455	0.064472	0.14662	0.16606	0.10911	0.26477	-4.7625	-4.1188	-4.7771	-4.7521	-4.2583	-5.1021	-4.5583	-4.6375	-5.1208	-4.1625	-4.7312	-5.0396	-4.3146	-5.4479	-4.4563	-4.525	11.439	242.323	54.840	111.879	123.375	60.612	186.393	-101.432	178.063	-20.808	79.806	200.817	-63.967	255.489	28.113	134.016	0.0014143	0.00050248	0.00015317	791.21	6.1072e-06	4.5577e-06	800.34	301.11	8.6091e-06	1.0785e-05	343.72	183.73	140.03	68.616	6.2616e-06	93.119	0.00029621	0.00028708	7.999e-05	791.78	3.1627e-06	3.131e-06	805.23	298.13	3.1783e-06	3.1141e-06	338.85	176.62	135.25	66.071	3.0868e-06	88.35	48.461	-15.006	4.462	-90.323	11.320	2.634	-91.979	-85.713	56.257	58.131	-87.828	-84.012	-82.734	-77.088	-87.300	-79.877	-8191	255	
2049.531	1	1	0	0	0.12607	0.21902	0.1498	0.094051	0.064337	0.031118	0.15586	0.2462	0.069422	0.14357	0.26463	0.19727	0.17997	0.28128	0.16519	0.29064	-4.75	-4.1687	-4.6854	-5.0146	-4.2	-4.9229	-4.7542	-4.3938	-5.0813	-4.3417	-4.6708	-5.1479	-4.2833	-5.1417	-4.7479	-4.4042	234.088	188.201	44.302	-48.572	-22.977	207.114	156.478	247.479	149.057	-15.955	-82.568	165.822	193.356	215.760	94.260	-102.026	0.0011598	0.00023663	7.8166e-05	785.03	5.8057e-06	3.9194e-06	800.88	300.68	3.7216e-06	4.6263e-06	345.19	184.24	140.03	68.553	4.3584e-06	92.787	0.00029053	0.00028324	7.8181e-05	791.33	3.0933e-06	3.0603e-06	805.78	297.79	3.093e-06	3.0938e-06	338.76	177.01	135.31	66.076	3.0655e-06	88.4	44.894	55.315	239.044	-90.572	-19.069	47.189	-91.893	-85.648	-17.724	35.669	-88.035	-84.292	-82.807	-76.834	2.506	-79.976	-8191	255	
2049.628	1	1	0	0	0.14193	0.28488	0.20362	0.21458	0.20475	0.15483	0.29585	0.21339	0.25891	0.041869	0.094144	0.17113	0.065402	0.4131	0.01467	0.29362	-4.925	-4.3271	-4.5854	-5.1729	-4.0833	-4.9271	-4.7479	-4.425	-5.1271	-4.5083	-4.6292	-5.1146	-4.2229	-4.8313	-4.7521	-4.3688	-80.435	107.511	158.878	246.203	66.134	-12.187	149.277	251.529	-28.681	231.091	167.385	250.900	167.088	252.066	15.214	108.927	0.0010851	0.00084156	0.00017205	791.22	4.0334e-06	4.4891e-06	800.63	300.47	7.8156e-06	5.5915e-06	344.3	184.78	140.56	68.603	3.841e-06	93.072	0.0002921	0.00028137	7.8095e-05	793.49	3.087e-06	3.068e-06	807.89	298.49	3.0635e-06	3.0637e-06	339.29	177.58	135.54	66.067	3.0952e-06	88.43	54.426	5.840	57.812	-90.883	237.836	55.392	-91.898	-85.759	97.970	84.347	-87.767	-83.947	-82.764	-76.787	-5.951	-79.881	-8191	255	
2049.724	1	1	0	0	0.14465	0.25298	0.071515	0.098851	0.14496	0.12159	0.19271	0.15951	0.024035	0.063055	0.060845	0.065564	0.1058	0.22928	0.20349	0.14031	-4.7604	-4.4812	-4.4583	-5.0208	-4.1625	-4.8313	-4.9062	-4.1896	-5.2542	-4.6312	-4.4521	-5.1854	-4.6	-4.9354	-4.9875	-4.4563	-25.293	37.570	231.482	109.345	255.897	-82.406	-28.323	140.583	114.540	81.111	-52.602	244.870	241.052	183.889	42.666	78.290	0.0014842	0.00046672	0.00011684	787.59	1.7621e-06	4.0621e-06	804.49	300.62	9.6289e-06	1.4688e-06	343.29	183.52	139.56	68.281	4.751e-06	92.13	0.00029257	0.0002812	7.8066e-05	791.47	3.0883e-06	3.114e-06	807.2	297.72	3.0954e-06	3.0645e-06	337.85	176.62	134.96	65.912	3.0501e-06	87.786	45.763	-23.955	-64.323	-90.540	-68.415	-11.307	-91.688	-85.709	86.652	65.550	-88.062	-83.889	-83.040	-76.984	128.787	-80.013	-8191	255	
2049.820	1	1	0	0	0.189	0.0897	0.11282	0.19191	0.16525	0.19321	0.065172	0.094134	0.16802	0.075071	0.05189	0.34332	0.028839	0.14518	0.149	0.28268	-4.7354	-4.7208	-4.2688	-5.1813	-4.4083	-4.8375	-5.2479	-4.3604	-4.8875	-4.7833	-4.3875	-5.3375	-4.5188	-4.8438	-4.9667	-4.2021	-24.253	-46.256	102.185	193.482	179.939	222.608	192.698	-37.018	-94.632	-7.701	-62.511	212.524	-53.069	230.409	152.565	211.303	0.0012005	0.001006	0.00010438	789.82	1.584e-06	5.2033e-06	798.43	298.94	1.2613e-05	9.9451e-07	341.7	182.75	139.19	68.154	5.2703e-06	92.209	0.00028777	0.00027823	7.7395e-05	790.46	3.0196e-06	3.0052e-06	801.85	296.66	3.0097e-06	2.9897e-06	336.69	175.99	134.77	65.814	3.0425e-06	87.882	55.748	2.984	-15.471	-90.805	-38.013	20.763	-91.918	-86.102	11.024	-4.244	-87.825	-84.313	-82.774	-77.144	-1.752	-79.921	-8191	255	
2049.939	1	1	0	0	0.076689	0.13247	0.15776	0.081253	0.13768	0.13363	0.16299	0.11673	0.27706	0.091861	0.052132	0.10746	0.23136	0.02544	0.12983	0.082664	-4.6583	-4.9208	-4.3583	-5.2208	-4.4563	-4.4229	-5.2125	-4.3458	-4.7292	-4.8104	-4.325	-5.0979	-4.525	-4.5542	-5.0458	-4.4875	75.863	58.472	67.596	202.005	-8.340	-88.993	216.587	211.598	128.109	-16.931	21.039	245.924	-94.074	217.701	71.501	135.714	0.0013816	0.00026899	0.00018333	783.02	4.4961e-06	3.8679e-06	796.97	298.54	7.527e-06	9.3924e-07	344.81	183.88	139.6	68.455	2.2957e-06	92.43	0.00028875	0.00028031	7.8936e-05	787.68	3.0869e-06	3.1253e-06	804.57	296.65	3.1373e-06	3.1164e-06	339.47	177.16	135.18	66.108	3.0743e-06	88.425	58.284	222.978	-4.899	-90.667	-20.985	54.508	-91.763	-86.036	55.436	86.306	-88.226	-84.007	-83.052	-76.996	-88.310	-79.946	-8191	255	
2050.012	1	1	0	0	0.11069	0.1732	0.14928	0.24225	0.1618	0.26349	0.3791	0.19692	0.099667	0.12866	0.14753	0.21375	0.14792	0.018628	0.059976	0.22148	-4.3812	-4.9563	-4.2188	-5.1229	-4.4979	-4.5167	-5.2833	-4.4667	-4.6417	-4.8542	-4.3187	-5.1771	-4.6833	-4.4229	-5.1417	-4.4583	-57.516	61.477	-86.988	178.489	253.004	-74.512	206.865	253.034	138.931	99.975	45.475	-7.482	-80.735	140.743	188.016	167.502	0.0013654	0.00026453	0.00013151	789.85	1.0416e-05	6.2009e-06	802.7	300.05	2.0534e-06	5.1764e-06	346.66	184.11	140.32	68.572	6.9305e-06	93.083	0.00028862	0.00027919	7.8406e-05	793.83	3.0386e-06	3.0646e-06	808.77	297.97	3.0729e-06	3.0876e-06	340.58	177.8	135.32	66.279	3.0917e-06	88.87	47.645	-3.012	-71.397	-90.947	-10.709	-16.563	-91.941	-85.754	109.260	73.545	-87.869	-84.242	-82.866	-77.052	30.562	-79.983	-8191	255	
2050.131	1	1	0	0	0.13647	0.090481	0.05682	0.041634	0.13331	0.14081	0.071821	0.098914	0.12192	0.16025	0.2129	0.16366	0.19526	0.075606	0.14839	0.28009	-4.1854	-5.1521	-4.2042	-4.9625	-4.6625	-4.1271	-5.4708	-4.7042	-4.4313	-5.1583	-4.3646	-4.9271	-4.9792	-4.3896	-5.0583	-4.5521	156.694	200.977	-40.626	73.171	-0.810	126.732	54.503	215.858	53.526	58.948	173.182	-52.528	-94.703	-5.580	-9.239	170.047	0.001398	0.00069511	0.00014766	785.94	3.9597e-06	7.9753e-07	798.5	299.34	7.0107e-06	5.7855e-06	345.1	184.09	140.4	68.466	9.4524e-06	92.726	0.00029272	0.00028093	7.8484e-05	791.91	3.077e-06	3.13e-06	808.81	297.97	3.0952e-06	3.108e-06	340.37	177.7	135.56	66.19	3.0951e-06	88.477	56.703	7.984	-26.226	-90.841	-54.377	67.782	-92.250	-85.913	32.122	59.681	-87.921	-84.111	-82.760	-76.942	-0.382	-80.162	-8191	255	
2050.227	1	1	0	0	0.034056	0.15153	0.26675	0.095003	0.14326	0.28054	0.11816	0.046213	0.10086	0.082455	0.16913	0.090209	0.24127	0.031366	0.082795	0.31084	-4.2021	-4.9187	-4.1958	-4.925	-4.7125	-4.2042	-4.9375	-4.6896	-4.2896	-5.0542	-4.3187	-4.7271	-4.9583	-4.3271	-5.0042	-4.7	18.270	58.441	-64.126	197.019	102.663	-53.083	-1.122	222.951	161.475	163.065	250.355	136.409	159.861	-86.658	199.951	145.737	0.0014257	0.00027997	0.00027272	782.7	5.9024e-06	3.1193e-06	795.74	298.59	1.3891e-05	4.1709e-06	343.44	183.84	139.66	68.522	3.9335e-06	92.484	0.0002907	0.00028249	7.8619e-05	788.96	3.0596e-06	3.0895e-06	804.18	297.29	3.1197e-06	3.1034e-06	338.23	177.27	135.19	66.139	3.1133e-06	88.395	55.714	-36.152	7.494	-90.761	47.826	26.341	-92.014	-85.950	35.849	73.741	-87.808	-84.185	-82.906	-77.085	44.843	-79.874	-8191	255	
2050.323	1	1	0	0	0.12211	0.063561	0.16059	0.082553	0.065155	0.17607	0.1084	0.25349	0.19503	0.27823	0.10326	0.056488	0.24399	0.0954	0.16676	0.049845	-4.0125	-5.0271	-4.2542	-4.5708	-5.0667	-4.0083	-5.2958	-4.8	-4.1979	-5.2104	-4.5	-4.675	-5.0979	-4.2542	-4.9167	-4.8333	-89.690	85.585	203.011	39.611	225.369	133.351	126.001	149.703	87.358	180.783	-81.038	158.160	250.477	165.298	145.768	11.543	0.001502	0.00041079	2.9059e-05	785.91	5.63e-06	1.6618e-06	796.93	298.27	1.4458e-05	5.559e-06	342.03	183.76	140.42	68.582	3.4754e-06	92.739	0.00029318	0.0002855	7.8706e-05	789.95	3.1171e-06	3.0971e-06	804.57	296.73	3.0993e-06	3.0736e-06	337.66	177.27	135.43	66.069	3.0233e-06	88.369	53.131	40.744	4.371	-90.934	35.662	139.324	-92.032	-85.574	10.033	17.733	-87.890	-84.099	-82.751	-76.925	-84.652	-79.939	-8191	255	
2050.419	1	1	0	0	0.041573	0.024696	0.14278	0.30236	0.089594	0.1291	0.20122	0.30606	0.033221	0.11327	0.19714	0.23399	0.26104	0.33248	0.21223	0.18156	-3.9875	-5.1396	-4.5083	-4.3688	-4.9958	-4.3625	-4.9729	-5.0729	-4.2583	-5.175	-4.5354	-4.5625	-5.2063	-4.4625	-4.7	-5.05	17.746	249.424	180.788	221.582	-74.480	236.008	168.754	202.238	96.314	203.624	233.727	156.445	233.625	171.527	201.552	221.421	0.0010908	0.00061573	0.00020739	784.27	1.0676e-05	6.2294e-06	798.09	300.03	7.4935e-06	7.5501e-06	344.85	184.57	140.68	68.181	3.4371e-06	92.838	0.00028945	0.00027803	7.6746e-05	789.39	3.0159e-06	3.0213e-06	804.42	297.01	3.0229e-06	3.0107e-06	338.13	177.7	135.37	66.039	3.0015e-06	88.565	55.159	19.944	-38.373	-90.891	24.018	57.341	-92.230	-85.735	21.900	-1.550	-87.818	-84.331	-82.813	-77.036	-9.528	-80.018	-8191	255	
2050.540	1	1	0	0	0.27521	0.1367	0.0064426	0.10966	0.29551	0.054066	0.26527	0.047374	0.22788	0.12335	0.11409	0.086348	0.10753	0.27814	0.098923	0.20777	-3.9167	-5.1188	-4.5458	-4.3667	-5.05	-4.3875	-4.7917	-4.9812	-4.0521	-5.0167	-4.6729	-4.4146	-5.1771	-4.575	-4.5625	-5.0896	-87.474	14.292	98.307	203.364	53.827	220.432	230.055	112.542	13.203	191.956	227.413	-79.971	-82.072	230.197	-43.036	220.117	0.0012068	0.00086163	0.00017576	783.81	4.6747e-06	5.049e-06	800.92	298.66	3.4844e-06	4.7032e-06	343.9	184.59	139.78	68.327	1.933e-06	92.644	0.0002864	0.00027502	7.6637e-05	787.35	3.0023e-06	2.9924e-06	805.69	296.31	2.999e-06	2.9827e-06	338.27	177.6	135.26	66.035	2.993e-06	88.47	46.345	-6.069	-47.819	-90.665	-38.853	53.539	-91.901	-86.061	-6.015	-42.269	-87.898	-84.133	-83.039	-77.055	122.610	-79.928	-8191	255	
2050.636	1	1	0	0	0.10415	0.28936	0.13504	0.38628	0.10623	0.21384	0.37494	0.24906	0.11591	0.086191	0.2179	0.12116	0.17778	0.21358	0.11482	0.12365	-3.7917	-4.8979	-4.65	-4.3125	-5.2521	-4.4542	-4.4812	-5.0083	-4.1	-4.7333	-4.9	-4.2833	-4.9979	-4.5792	-4.4021	-5.2042	63.524	-61.948	-71.412	233.088	-31.122	130.860	188.390	177.472	46.198	240.555	32.284	30.242	223.973	223.099	-99.251	203.227	0.0014021	0.00022382	0.00020575	782.34	2.4706e-06	5.7143e-06	797.27	297.89	7.4474e-06	2.9199e-06	343.01	183.6	139.63	68.051	2.5853e-06	92.194	0.00028193	0.00027312	7.5514e-05	786.1	2.9878e-06	2.9349e-06	802.18	295.29	2.96e-06	2.9448e-06	336.76	176.55	134.65	65.697	2.9832e-06	87.891	53.860	93.668	-4.329	-90.935	-48.896	14.447	-92.059	-85.581	-33.292	16.510	-87.807	-84.105	-82.786	-76.919	207.757	-80.108	-8191	255	
2050.708	1	1	0	0	0.10043	0.11111	0.04817	0.15346	0.21994	0.14211	0.23401	0.19873	0.07622	0.17842	0.14171	0.14701	0.13883	0.17735	0.050683	0.13254	-3.8833	-4.9271	-4.9729	-4.3042	-5.1271	-4.4021	-4.5292	-5.2771	-4.2	-4.5687	-5.0479	-4.3313	-5.1771	-4.8146	-4.4417	-5.1958	110.570	77.485	186.170	-90.308	157.854	164.795	180.079	156.010	51.151	79.079	163.210	-73.572	236.705	146.396	175.427	-14.638	0.0014017	0.00070127	0.00017035	779.29	4.9243e-06	3.6213e-06	792.83	299.38	1.136e-05	5.3523e-06	341.77	183.57	139.51	68.198	6.4506e-06	92.36	0.00028053	0.00027127	7.5531e-05	783.81	2.9566e-06	2.9316e-06	798.44	294.9	2.9313e-06	2.9247e-06	335.67	176.47	134.92	65.692	2.9433e-06	88.115	56.159	-4.695	17.210	-90.608	50.958	77.694	-91.979	-85.750	39.789	81.264	-87.835	-84.117	-82.705	-76.891	-100.447	-80.025	-8191	255	
2050.829	1	1	0	0	0.12411	0.15253	0.047101	0.16534	0.12364	0.12962	0.14848	0.238	0.17573	0.19933	0.13328	0.042181	0.12758	0.29223	0.14432	0.30583	-3.9333	-4.6396	-4.8667	-4.2625	-5.0604	-4.7	-4.3604	-5.0062	-4.1479	-4.4271	-4.9625	-4.3417	-4.8187	-5	-4.2229	-5.3583	204.619	-89.471	247.770	33.198	251.609	141.493	196.887	254.738	200.541	-2.038	-90.173	93.836	225.314	188.465	200.508	211.820	0.001352	0.00076022	9.8085e-05	778.64	7.2247e-06	4.3723e-06	793.17	297.38	3.6214e-06	2.1294e-06	343.63	184.22	139.75	68.383	5.5699e-06	93.179	0.00027795	0.00026833	7.4457e-05	781.67	2.935e-06	2.9252e-06	797.3	294.4	2.9435e-06	2.9352e-06	336.89	177.24	134.79	65.973	2.9293e-06	88.816	60.265	-0.065	-77.521	-90.926	-52.043	21.172	-92.130	-85.807	-79.620	3.706	-87.744	-84.049	-83.147	-76.894	98.507	-79.921	-8191	255	
2050.925	1	1	0	0	0.070683	0.22501	0.079572	0.023041	0.20316	0.28537	0.19257	0.28777	0.11486	0.1292	0.11934	0.083667	0.13369	0.25984	0.28341	0.14554	-4.1333	-4.5208	-4.9958	-4.3313	-4.6375	-4.7979	-4.325	-5.1729	-4.3896	-4.4187	-5.1333	-4.2188	-4.9479	-5.0708	-4.2271	-5.2521	109.902	65.304	-32.674	-59.550	176.195	123.285	37.962	234.612	149.988	65.433	255.242	-99.953	247.363	248.987	174.635	171.985	0.0013049	0.00050244	3.6609e-05	781.27	5.4636e-06	5.1814e-06	796.99	297.78	3.5036e-06	6.8274e-06	345.28	184.36	140.53	68.388	2.0788e-06	93.485	0.00027144	0.00026612	7.3744e-05	782.62	2.8974e-06	2.886e-06	801.52	294.51	2.9073e-06	2.9229e-06	337.93	178.04	135.02	66.06	2.9387e-06	89.129	59.573	-85.404	4.317	-90.747	22.196	27.452	-91.686	-85.714	45.826	31.341	-87.688	-84.034	-83.085	-76.992	-38.760	-80.046	-8191	255	
2051.019	1	1	0	0	0.046726	0.11128	0.064762	0.26071	0.076441	0.025987	0.2208	0.1124	0.11584	0.074917	0.15984	0.12302	0.25594	0.18031	0.10806	0.11642	-4.2771	-4.2812	-5.0938	-4.2667	-4.7312	-4.9646	-4.3167	-4.8958	-4.4771	-4.0833	-5.2812	-4.3854	-4.4396	-5.0333	-4.0458	-4.9833	-76.153	-85.411	-12.910	240.739	-2.451	18.619	-95.933	65.383	164.059	175.865	181.182	149.437	-91.480	42.202	82.723	210.765	0.0012022	0.00031973	0.0001222	777.09	5.7478e-06	4.2994e-06	793.99	297.13	7.9815e-06	6.6155e-06	342.81	185.72	139.61	68.391	9.232e-06	93.368	0.00027401	0.00026639	7.3804e-05	780.09	2.9073e-06	2.8704e-06	800.16	294.2	2.8863e-06	2.9157e-06	337.68	178.06	135.11	65.997	2.9131e-06	88.78	69.554	-42.559	-26.548	-90.726	68.160	16.483	-92.081	-86.104	35.340	42.244	-87.822	-84.054	-82.983	-77.060	1.893	-80.069	-8191	255	
2051.115	1	1	0	0	0.031563	0.18622	0.14397	0.33957	0.13934	0.16556	0.34483	0.17713	0.20651	0.039088	0.15036	0.093994	0.21017	0.10054	0.25953	0.022411	-4.3167	-4.2917	-4.9958	-4.3854	-4.5687	-4.8979	-4.0625	-4.9792	-4.7229	-4.0896	-4.9833	-4.5125	-4.4833	-5.1979	-3.9667	-4.825	227.402	69.728	-18.686	176.743	84.386	210.949	188.186	-84.694	198.810	145.025	211.088	184.313	188.681	-20.433	189.896	216.726	0.0015284	0.00058986	1.4811e-05	774.5	3.4611e-06	4.6649e-06	791.76	296.98	6.7743e-06	9.3125e-06	344.36	185.12	140.06	68.339	3.8193e-06	93.204	0.00027223	0.00026886	7.4539e-05	778.94	2.9195e-06	2.9382e-06	796.69	294.28	2.922e-06	2.9107e-06	336.96	177.71	134.89	65.998	2.9335e-06	88.644	56.844	-3.947	166.158	-90.772	-36.920	75.959	-92.194	-85.982	24.845	44.671	-87.817	-84.257	-83.185	-77.084	6.336	-79.967	-8191	255	
2051.236	1	1	0	0	0.10335	0.15281	0.069927	0.2436	0.15868	0.092406	0.12372	0.11453	0.20361	0.11044	0.18243	0.18652	0.23697	0.27171	0.10218	0.12198	-4.6021	-4.0813	-5.05	-4.6687	-4.2833	-4.9521	-4.3063	-4.7333	-4.8146	-4.1396	-5.1687	-4.7188	-4.3562	-5.2958	-4.2417	-4.7271	228.983	154.634	89.477	186.878	-99.284	63.487	44.639	190.854	10.987	13.524	45.189	180.996	-60.749	229.491	-66.645	140.141	0.0013209	0.00025706	0.00020183	775.36	9.689e-07	3.3434e-06	789.9	296.33	7.7732e-06	4.6176e-06	344.83	184.87	140.33	68.424	4.8502e-06	93.202	0.00027514	0.00027063	7.5019e-05	777.74	2.9632e-06	2.942e-06	796.84	293.59	2.9589e-06	2.9713e-06	337.99	178.27	135.15	66.045	3.011e-06	88.904	63.903	-35.607	-22.676	-90.677	31.096	72.565	-91.927	-85.846	-28.599	145.538	-87.764	-83.634	-83.043	-76.868	8.150	-79.989	-8191	255	
2051.308	1	1	0	0	0.2842	0.088013	0.17688	0.15871	0.26829	0.1588	0.21704	0.21268	0.20642	0.15458	0.15749	0.15718	0.22942	0.084174	0.040621	0.1495	-4.6042	-4.1479	-4.9062	-4.7771	-4.2438	-5	-4.3625	-4.6042	-5.0312	-4.2438	-5.0167	-4.85	-4.2771	-5.1708	-4.3208	-4.6333	190.886	-80.323	168.617	185.525	246.331	113.983	148.916	216.365	-84.576	104.895	236.205	224.634	186.620	141.063	-32.366	-57.338	0.0013564	0.00028607	8.7198e-05	774.13	6.6273e-06	6.0809e-06	793.09	296.42	1.0367e-06	6.6852e-06	343.5	185.63	139.79	68.429	3.4643e-06	93.717	0.00028568	0.00027904	7.7258e-05	780.05	3.0404e-06	3.0115e-06	801.94	294.26	3.0248e-06	3.0275e-06	338.68	178.82	135.32	66.144	3.0402e-06	89.422	63.429	-64.010	-41.283	-90.914	-13.583	-3.796	-91.678	-85.695	230.813	56.196	-88.025	-83.961	-83.237	-76.781	-3.115	-79.954	-8191	255	
2051.404	1	1	0	0	0.1263	0.18576	0.032647	0.20677	0.17663	0.14422	0.075882	0.083009	0.018485	0.16021	0.083356	0.13636	0.18983	0.21183	0.13351	0.16868	-4.8625	-4.2208	-4.6979	-4.8646	-4.2042	-4.9708	-4.6854	-4.4875	-5.0813	-4.2729	-4.975	-4.9313	-4.2792	-5.1562	-4.5292	-4.5625	56.358	-88.742	5.577	167.600	166.216	-53.458	182.525	120.860	181.864	-33.371	217.349	122.348	202.813	-99.336	127.376	256.152	0.0011243	0.00047647	0.00016182	780.15	6.7815e-06	1.8128e-06	796.54	297.27	6.3925e-06	4.051e-06	345.93	185.29	140.61	68.321	6.2833e-06	93.618	0.00028786	0.00027927	7.7126e-05	781.18	3.067e-06	3.0374e-06	804.5	294.57	3.0774e-06	3.0528e-06	340.06	179.02	135.52	66.179	3.0456e-06	89.302	53.738	17.718	-93.972	-90.684	-20.790	-4.697	-91.914	-85.752	-60.060	14.822	-87.614	-83.928	-82.712	-76.855	-93.247	-80.171	-8191	255	
2051.500	1	1	0	0	0.29372	0.13909	0.12576	0.26331	0.0069354	0.032821	0.11891	0.1765	0.11031	0.19791	0.22874	0.27926	0.23873	0.14539	0.074117	0.19421	-4.8729	-4.1542	-4.8021	-4.9229	-4.1	-4.8292	-4.7312	-4.2542	-5.0188	-4.325	-4.6687	-5.0604	-4.2667	-5.1083	-4.7333	-4.2708	-82.207	-10.074	34.210	145.382	244.106	-0.294	167.533	-49.521	7.559	237.508	178.798	242.109	175.203	197.097	141.613	208.905	0.001263	0.00045979	0.00018268	780.36	6.8002e-06	2.1394e-06	794.2	297.25	4.3818e-06	9.399e-06	345.09	185.43	139.39	68.285	7.3402e-06	93.246	0.00028869	0.00027885	7.7955e-05	782.41	3.0703e-06	3.0347e-06	801.12	294.65	3.0608e-06	3.0327e-06	338.9	178.42	135.04	65.985	3.0377e-06	88.812	58.823	-44.981	-44.341	-90.703	-33.205	83.941	-91.747	-85.736	-93.691	13.814	-87.620	-83.936	-82.888	-76.824	53.992	-79.955	-8191	255	
2051.620	1	1	0	0	0.13552	0.063464	0.24662	0.11107	0.028759	0.16631	0.21651	0.31097	0.033588	0.17816	0.15193	0.15864	0.36571	0.041412	0.19946	0.23096	-4.6229	-4.3333	-4.5188	-5.1375	-4.2333	-4.9667	-5.0458	-4.3958	-4.9833	-4.6188	-4.6104	-5.1667	-4.3458	-5.0208	-4.7354	-4.2896	20.435	226.869	192.476	195.324	125.263	-47.168	-102.110	189.801	163.837	-52.138	-63.786	210.006	221.743	-58.192	192.877	140.736	0.0013642	0.00051239	0.00017297	775.54	4.4067e-06	4.559e-06	793.86	295.8	3.095e-06	7.3652e-06	342.65	184.81	140.14	68.532	3.9316e-06	93.001	0.00028837	0.00027804	7.7577e-05	781.08	3.0662e-06	3.0598e-06	800.26	293.9	3.0436e-06	3.0181e-06	337.61	178.21	135.23	66.081	3.0539e-06	88.762	55.585	4.751	-22.756	-90.612	-10.555	33.610	-92.086	-85.824	-100.269	94.311	-87.648	-84.058	-83.093	-76.955	0.241	-79.850	-8191	255	
2051.717	1	1	0	0	0.22465	0.023276	0.14083	0.11838	0.27048	0.081418	0.045365	0.14506	0.09871	0.14954	0.26685	0.19916	0.15523	0.24552	0.2318	0.1439	-4.6979	-4.6521	-4.4333	-5.1021	-4.1646	-4.6604	-4.9208	-4.3458	-5.0458	-4.5646	-4.2021	-5.3021	-4.2646	-4.7312	-4.8792	-4.2812	1.617	125.392	73.457	253.966	-50.777	227.191	149.889	111.226	11.685	119.386	199.240	156.252	241.872	-88.191	7.257	168.319	0.0012715	0.00051386	0.0001554	778.6	5.5071e-06	5.287e-06	793.25	296.72	8.8482e-06	6.0536e-06	342.29	184.81	140.36	68.367	4.2218e-06	93.701	0.00028991	0.00027807	7.8104e-05	780.97	3.0749e-06	3.0749e-06	799.62	294.1	3.0791e-06	3.0555e-06	338.17	178.32	135.47	66.08	3.054e-06	89.184	63.888	5.094	-11.183	-90.600	-29.542	76.421	-91.842	-85.952	34.961	-59.189	-87.821	-84.034	-83.120	-77.012	-57.458	-79.967	-8191	255	
2051.813	1	1	0	0	0.164	0.092864	0.092123	0.085413	0.1876	0.15644	0.26856	0.12689	0.040996	0.10838	0.25755	0.17099	0.096689	0.21216	0.037793	0.42731	-4.7271	-4.5479	-4.2688	-5.1042	-4.3417	-4.5687	-5.1125	-4.1583	-4.8229	-4.8438	-4.2854	-5.3354	-4.4417	-4.5167	-5.0458	-4.3562	244.966	223.401	-65.089	195.892	32.478	217.350	230.877	185.532	113.314	34.180	233.484	-55.273	-29.254	253.797	173.190	184.727	0.0012584	7.3968e-05	6.5437e-05	777.44	2.7079e-06	5.2328e-06	793.34	297.82	7.2819e-07	5.5621e-06	345.57	186.13	140.14	68.635	6.2971e-06	94.074	0.00028519	0.00027827	7.7826e-05	781.79	3.0182e-06	3.0442e-06	802.45	294.49	3.0342e-06	3.0345e-06	339.35	179	135.12	66.226	3.0662e-06	89.452	64.487	102.080	58.961	-90.585	58.115	33.474	-91.791	-85.897	218.947	63.014	-88.009	-84.077	-83.043	-77.020	-60.992	-80.001	-8191	255	
2051.909	1	1	0	0	0.089495	0.31055	0.11862	0.19565	0.15185	0.25567	0.090105	0.24031	0.15555	0.23354	0.092557	0.32735	0.12834	0.21361	0.13092	0.088817	-4.5583	-4.7812	-4.125	-5.1729	-4.5729	-4.3	-5.2542	-4.4583	-4.7812	-4.9708	-4.3604	-5.225	-4.5583	-4.4042	-5.0479	-4.5354	13.100	133.825	177.884	182.890	182.055	2.562	-85.478	237.616	-4.396	88.420	-0.103	207.629	129.157	234.795	-68.574	98.600	0.0011965	0.00021971	0.00013764	779.18	1.0108e-05	5.4644e-06	794.89	294.96	4.2295e-06	5.1465e-06	343.88	185.73	139.63	68.431	6.4415e-06	93.259	0.00028664	0.00027772	7.7138e-05	784.83	3.0366e-06	3.0808e-06	803.41	294.11	3.075e-06	3.0788e-06	338.45	178.25	135.09	66.126	3.0699e-06	88.65	58.752	96.565	2.084	-90.597	-24.647	123.639	-91.766	-85.976	46.585	70.825	-87.830	-84.164	-82.914	-77.152	17.159	-79.825	-8191	255	
2052.005	1	1	0	0	0.050977	0.19741	0.30953	0.056042	0.12714	0.053735	0.080197	0.1784	0.083625	0.12248	0.10294	0.10379	0.14985	0.28198	0.042356	0.10513	-4.55	-4.8333	-4.1729	-5.1188	-4.725	-4.2979	-5.2438	-4.4187	-4.5125	-5.0563	-4.1417	-5.2208	-4.7417	-4.3542	-4.9917	-4.4729	140.685	134.469	46.085	184.364	191.723	-99.665	91.970	210.056	229.668	-75.640	-81.228	-102.428	-7.884	-89.124	121.152	240.059	0.0014611	0.00062303	0.00010773	777.32	7.7258e-06	2.4056e-06	793.41	294.23	4.5125e-06	3.6202e-06	341.74	183.82	139.79	68.27	6.2642e-06	92.594	0.00028654	0.0002778	7.6804e-05	782.02	3.0142e-06	3.058e-06	798.98	293.21	3.0525e-06	3.0198e-06	336.58	177.21	134.79	65.871	3.0239e-06	88.341	58.856	-14.828	-50.585	-90.880	8.026	42.001	-91.879	-86.174	41.625	39.884	-87.866	-83.910	-82.987	-76.974	-82.951	-80.074	-8191	255	
2052.101	1	1	0	0	0.11729	0.10073	0.093655	0.20015	0.14975	0.19262	0.15325	0.15121	0.40329	0.10612	0.088151	0.13703	0.14445	0.18611	0.16125	0.21628	-4.3917	-5.0125	-4.2104	-4.9542	-4.8729	-4.1833	-5.1833	-4.3438	-4.3479	-4.975	-4.3917	-5.0271	-4.9437	-4.3333	-5.1083	-4.775	115.860	-82.581	-96.439	219.212	11.727	-5.098	-95.810	198.524	234.477	-55.419	23.401	191.267	254.563	250.382	5.952	160.684	0.0014042	0.00025075	0.00011613	775.46	5.6259e-06	3.3004e-06	792.18	295.83	9.6937e-06	4.5391e-06	343.4	184.52	140.8	68.725	4.0263e-06	93.634	0.00028685	0.00027578	7.7585e-05	781.38	3.0359e-06	3.0465e-06	797.43	293.74	3.0276e-06	3.0091e-06	336.43	177.77	135.21	66.117	3.0364e-06	88.982	50.682	-71.996	-48.569	-90.639	-38.088	24.491	-92.025	-86.055	49.149	224.788	-88.084	-83.991	-82.878	-76.926	24.579	-79.800	-8191	255	
2052.220	1	1	0	0	0.18411	0.24487	0.31521	0.13736	0.054214	0.17866	0.24893	0.22256	0.16252	0.22426	0.12193	0.28737	0.070645	0.13825	0.17918	0.049994	-4.1333	-5.1562	-4.1042	-4.8604	-4.8125	-4.0583	-5.1854	-4.5729	-4.3354	-5.1292	-4.2562	-4.9313	-5.1958	-4.2562	-4.9	-4.9437	-71.663	-62.774	-41.102	204.323	160.696	-35.954	186.520	238.626	162.667	-32.923	-53.624	187.964	51.810	-95.768	211.999	-100.604	0.0011956	0.0007551	0.00010927	773.62	5.7915e-06	1.1615e-06	791.46	295.76	1.0029e-05	2.5575e-06	344.27	185.5	140.3	68.59	5.3058e-06	93.623	0.00029045	0.00027983	7.9118e-05	781.52	3.0938e-06	3.0899e-06	800.99	294.55	3.1048e-06	3.0767e-06	338.48	178.53	135.59	66.277	3.0494e-06	89.194	76.146	-39.248	113.919	-90.797	-81.240	-30.987	-91.725	-85.772	28.837	-24.041	-88.028	-84.372	-83.013	-77.005	-49.123	-79.861	-8191	255	
2052.316	1	1	0	0	0.091957	0.17791	0.068215	0.075609	0.10359	0.021358	0.095891	0.13839	0.098596	0.17085	0.20149	0.23595	0.057431	0.1273	0.28774	0.11738	-3.9625	-5.1208	-4.3667	-4.5229	-5.05	-4.2604	-4.9875	-4.8688	-4.0729	-4.9646	-4.3542	-4.6521	-5.1979	-4.2396	-4.6771	-4.9062	235.128	-81.650	-42.484	177.221	36.224	109.736	168.948	-47.538	196.298	236.439	242.515	210.303	-38.640	-86.055	29.103	179.630	0.0013829	0.00047499	0.00033753	782.18	3.9565e-06	5.3255e-06	796.33	297.47	8.5502e-06	5.6317e-06	346.65	186.51	141.14	68.88	9.407e-06	93.965	0.00029012	0.00027974	7.7202e-05	785.88	3.0526e-06	3.0669e-06	803.75	295.39	3.1045e-06	3.0556e-06	340.42	179.85	136.4	66.562	3.0306e-06	89.607	60.863	-49.022	-65.616	-90.760	42.419	136.669	-92.219	-85.651	34.053	4.931	-87.718	-84.008	-83.037	-76.910	16.398	-79.963	-8191	255	
2052.412	1	1	0	0	0.19143	0.21367	0.069535	0.16486	0.14465	0.03549	0.25644	0.1369	0.098344	0.044731	0.18419	0.24437	0.32594	0.016929	0.23121	0.078708	-3.9896	-5.1271	-4.225	-4.5938	-5.0021	-4.1438	-4.7875	-4.9646	-4.1958	-4.8562	-4.5208	-4.4604	-5.0938	-4.2292	-4.6042	-4.9979	43.550	87.488	-13.014	127.924	144.167	184.805	214.988	146.407	132.369	-49.864	-56.562	231.956	232.899	-72.793	155.107	199.811	0.001613	0.00014651	0.00025679	782.36	5.1502e-06	2.4748e-06	796.67	297.85	6.3664e-06	7.1276e-06	344.09	185.91	140.75	68.542	3.4979e-06	93.833	0.00028818	0.00027816	7.7066e-05	785.59	3.0392e-06	3.0192e-06	804.43	295.38	3.0681e-06	3.0217e-06	338.57	179.07	136.07	66.331	3.0836e-06	89.223	58.595	129.884	-64.628	-90.544	-17.930	88.800	-91.928	-85.920	-18.755	33.454	-87.906	-83.648	-83.024	-76.743	-57.520	-79.876	-8191	255	
2052.533	1	1	0	0	0.12993	0.11493	0.14845	0.10703	0.23935	0.084899	0.24236	0.071945	0.022221	0.20398	0.2452	0.2953	0.29018	0.28514	0.103	0.19887	-3.9083	-4.8792	-4.5062	-4.275	-4.9	-4.2208	-4.625	-4.9479	-4.3375	-5.0042	-4.6333	-4.4854	-5.0625	-4.4792	-4.5521	-5.1146	-24.971	179.139	72.086	206.740	98.636	-26.365	90.271	-58.121	207.629	57.941	254.453	232.137	-65.438	159.785	227.447	176.949	0.0012868	0.00051804	8.3391e-05	783.61	4.3246e-06	6.7331e-06	793.93	297.27	5.9075e-06	3.3271e-06	343.43	186.12	140.14	68.524	6.5517e-06	93.388	0.00029001	0.00028014	7.766e-05	784.47	3.0987e-06	3.0552e-06	802.4	295.4	3.1192e-06	3.091e-06	338.58	179.11	135.54	66.199	3.0888e-06	89.168	55.416	10.950	151.834	-90.654	-4.113	38.363	-92.237	-85.758	82.929	-10.960	-87.657	-84.170	-82.974	-77.035	4.281	-79.859	-8191	255	
2052.605	1	1	0	0	0.026999	0.12101	0.10766	0.18888	0.11253	0.2895	0.092453	0.18167	0.16212	0.19437	0.20092	0.34255	0.14219	0.26345	0.083258	0.11374	-3.8229	-4.8708	-4.8271	-4.3875	-5.0229	-4.4542	-4.5833	-5.1896	-4.0854	-4.8958	-4.9458	-4.3458	-5.1458	-4.6354	-4.3542	-5.2042	93.232	-19.373	244.916	-53.642	34.199	24.717	153.737	139.902	165.577	213.108	158.447	239.600	-47.342	184.058	192.609	173.665	0.0013736	0.00057512	0.00017361	778.85	9.1383e-06	6.0375e-06	791.68	297.9	9.3083e-06	2.8671e-06	343.04	186.28	140.47	68.431	2.4442e-06	93.692	0.00029207	0.00028049	7.8318e-05	783.5	3.0733e-06	3.0713e-06	802.49	295.44	3.0933e-06	3.0722e-06	339.04	179.2	135.84	66.25	3.0485e-06	89.44	56.957	-37.907	-29.500	-90.789	73.543	14.976	-92.168	-85.760	20.449	93.040	-87.560	-84.123	-83.086	-76.690	-28.649	-80.025	-8191	255	
2052.701	1	1	0	0	0.14997	0.20207	0.12632	0.080025	0.085724	0.13202	0.1471	0.090428	0.059617	0.079158	0.095748	0.26653	0.091506	0.17844	0.17995	0.037465	-3.9583	-4.8146	-4.8854	-4.2312	-4.9917	-4.4917	-4.4292	-5.2646	-4.2792	-4.5333	-4.9479	-4.2896	-5.1583	-4.7729	-4.2438	-5.3208	252.156	89.198	110.090	-82.798	86.125	69.063	231.506	225.878	82.302	220.461	-30.357	212.163	249.534	194.190	20.295	-60.176	0.0012351	0.00070946	7.1009e-05	783.68	6.8213e-06	2.1438e-06	797.1	299.81	3.109e-06	2.5696e-06	345.02	186.77	141.61	68.826	8.9183e-06	94.323	0.00028789	0.0002793	7.7675e-05	786.35	3.0694e-06	3.0659e-06	804.41	296.25	3.0514e-06	3.0689e-06	339.41	179.58	136.31	66.412	3.0714e-06	89.683	43.679	13.273	-53.361	-90.753	-16.539	-2.623	-91.554	-85.778	0.836	5.759	-87.686	-83.812	-82.900	-77.020	-23.174	-79.697	-8191	255	
2052.797	1	1	0	0	0.19428	0.22844	0.11838	0.10042	0.091036	0.18257	0.11001	0.028254	0.088158	0.2442	0.085295	0.14399	0.031007	0.17634	0.158	0.18842	-4.0792	-4.6271	-4.8833	-4.1521	-4.8792	-4.5396	-4.3396	-5.1333	-4.2854	-4.5625	-5.0875	-4.3646	-4.9021	-4.9229	-4.1937	-5.2667	-76.588	-60.825	-71.287	-64.704	126.430	191.762	227.165	255.096	174.497	192.550	178.690	130.969	114.135	-78.298	238.320	-101.762	0.0013335	0.00055188	0.00011007	780.5	3.0447e-06	4.6217e-06	799.94	300.12	5.295e-06	7.769e-07	344.71	186.29	140.47	68.892	1.6861e-06	94.042	0.00028894	0.00028045	7.7673e-05	786.56	3.0529e-06	3.0703e-06	806.88	296.73	3.0562e-06	3.0998e-06	339.95	179.21	135.7	66.337	3.0945e-06	89.419	51.857	17.330	-5.654	-90.641	-17.395	42.880	-92.144	-85.818	-18.738	52.194	-87.735	-84.036	-82.772	-76.899	-6.458	-79.694	-8191	255	
2052.916	1	1	0	0	0.13017	0.11266	0.065674	0.097989	0.16842	0.35929	0.10536	0.17771	0.062209	0.050914	0.11373	0.13983	0.1172	0.14432	0.16275	0.16672	-4.0354	-4.3542	-5.1896	-4.3042	-4.7125	-4.7833	-4.2875	-5.1417	-4.4542	-4.2208	-5.2521	-4.3104	-4.7229	-5.0896	-4.0229	-5.225	123.498	216.694	-19.460	196.513	150.691	20.852	-13.578	219.822	195.056	-0.425	185.581	194.008	245.263	198.355	122.496	186.112	0.0012468	0.00062115	0.00021343	781.14	5.7888e-06	6.2933e-06	797.61	297.37	4.1225e-06	4.7757e-06	344.95	186.21	140.74	68.994	3.2311e-06	93.712	0.00028722	0.00027899	7.8009e-05	782.44	3.0409e-06	3.0544e-06	803.55	295.29	3.0666e-06	3.042e-06	338.6	178.72	135.76	66.292	3.0282e-06	89.053	50.353	-49.648	-32.261	-90.570	-47.878	31.356	-91.789	-85.738	38.946	7.610	-87.704	-83.929	-82.796	-76.722	32.776	-79.785	-8191	255	
2053.012	1	1	0	0	0.17517	0.13256	0.17052	0.032271	0.17241	0.045636	0.21038	0.049468	0.18132	0.058804	0.093683	0.27914	0.071338	0.16831	0.20712	0.12087	-4.2104	-4.2937	-5.0292	-4.3854	-4.6021	-5.0312	-4.2333	-4.9979	-4.5687	-4.2208	-5.1354	-4.3896	-4.4333	-5.0521	-4.1042	-5.1062	174.617	112.871	35.871	110.269	183.581	-12.365	186.765	221.835	-22.022	-93.492	72.362	159.258	-89.859	228.328	-102.165	145.110	0.0013794	0.00048825	0.00039915	784.89	7.6689e-06	1.687e-06	797.74	299.66	9.9117e-06	5.0888e-06	344.8	186.75	141.86	68.885	7.1197e-06	94.091	0.00028622	0.00027703	7.7744e-05	784.39	3.0406e-06	3.0484e-06	803.07	296.01	3.0453e-06	3.0471e-06	339.43	179.2	136.22	66.284	3.0298e-06	89.304	55.411	-33.854	14.650	-90.755	18.144	67.120	-91.745	-85.915	48.569	36.482	-87.618	-84.083	-82.958	-76.833	-101.429	-79.882	-8191	255	
2053.108	1	1	0	0	0.14095	0.026161	0.089191	0.12797	0.16309	0.16391	0.18016	0.12445	0.22619	0.078153	0.289	0.29168	0.24647	0.10322	0.07179	0.18453	-4.3375	-4.4062	-5.2042	-4.5417	-4.6396	-5.0771	-4.2479	-4.8583	-4.85	-4.1354	-5.0979	-4.6479	-4.5104	-5.1521	-4.0938	-5.0146	99.411	118.671	145.264	-92.040	51.585	44.082	240.630	125.851	39.158	125.877	217.276	215.555	200.566	239.457	93.481	-79.396	0.0016029	0.00037418	0.00010928	790.26	7.4353e-06	6.5539e-06	803.82	299.61	9.7722e-06	8.4372e-06	346.68	187.55	141.27	68.774	3.8385e-06	94.512	0.00028456	0.00027967	7.6762e-05	787.71	3.0157e-06	3.0083e-06	806.05	296.25	2.9937e-06	3.0073e-06	340.04	179.69	136.1	66.293	2.9955e-06	89.673	65.577	-11.812	34.608	-90.494	2.065	9.911	-92.099	-85.974	34.402	51.727	-88.127	-83.915	-82.913	-76.709	-18.522	-79.693	-8191	255	
2053.182	1	1	0	0	0.1078	0.18685	0.076895	0.34357	0.15508	0.33599	0.11167	0.18184	0.035285	0.16095	0.28416	0.074132	0.097475	0.071354	0.055512	0.19636	-4.6125	-4.1854	-4.9	-4.6438	-4.4646	-5.0979	-4.4521	-4.8208	-4.9292	-4.1896	-5.0875	-4.7333	-4.4521	-5.275	-4.3063	-4.8438	45.769	-73.226	247.312	209.202	203.744	-54.544	120.087	210.979	88.503	-18.720	231.682	117.366	203.527	203.302	141.467	161.318	0.0015685	0.00038349	0.0002787	789.99	7.5084e-06	9.3537e-06	803.47	299.64	6.2216e-06	3.3092e-06	348.3	186.65	141.8	68.891	4.1547e-06	94.167	0.00028483	0.00027608	7.6536e-05	788.3	3.0449e-06	3.0346e-06	807.4	296.8	3.0447e-06	3.06e-06	341.35	179.97	136.53	66.49	3.0294e-06	89.796	54.505	-65.806	-38.552	-90.597	7.901	35.840	-92.138	-85.833	9.683	-22.820	-87.746	-83.944	-83.010	-76.892	20.853	-79.926	-8191	255	
2053.300	1	1	0	0	0.088713	0.26838	0.27784	0.11904	0.29075	0.22582	0.20298	0.26859	0.12614	0.19769	0.03641	0.25536	0.37581	0.092649	0.27046	0.32283	-4.7729	-4.1917	-4.9083	-4.8771	-3.975	-5.15	-4.3208	-4.6042	-4.9979	-4.0958	-4.8938	-4.9333	-4.3208	-5.1146	-4.4958	-4.5417	221.710	-95.677	107.896	58.574	-93.099	-103.573	-53.867	228.955	214.488	83.473	205.891	206.803	202.392	-50.863	-74.092	194.040	0.00135	0.00075862	7.6102e-05	783.12	6.9017e-06	3.2607e-06	805.2	297.78	5.5625e-06	4.0988e-06	346.13	186.37	140.25	68.858	2.9876e-06	93.61	0.00028935	0.0002786	7.7532e-05	787.78	3.0831e-06	3.0713e-06	807.76	296.1	3.1007e-06	3.072e-06	340.08	178.88	135.87	66.344	3.086e-06	89.026	63.977	-39.252	158.456	-90.443	-25.852	67.309	-91.935	-85.701	64.081	51.054	-87.707	-84.286	-83.014	-76.811	62.802	-79.973	-8191	255	
2053.397	1	1	0	0	0.11384	0.12501	0.2398	0.13983	0.085827	0.14558	0.16672	0.18273	0.25405	0.20996	0.22583	0.049692	0.12792	0.25508	0.15027	0.1574	-4.8417	-4.2625	-4.6792	-4.8438	-4.2375	-4.9979	-4.6083	-4.4792	-5.0396	-4.0625	-4.6729	-4.9854	-4.2604	-5.0938	-4.5938	-4.4	117.180	-62.164	-69.599	-81.842	2.165	0.327	134.210	193.640	94.212	31.422	217.168	245.302	129.485	218.064	19.030	187.497	0.0013953	0.00052427	0.00013079	782.85	6.7792e-06	3.4086e-06	792.11	298.37	8.6626e-06	4.8201e-06	342.75	184.75	139.88	68.42	4.198e-06	92.828	0.00029171	0.00027969	7.7501e-05	785.7	3.0841e-06	3.0606e-06	801.9	295.69	3.08e-06	3.0428e-06	337.62	178.18	135.51	66.161	3.0544e-06	88.679	62.209	-26.718	-20.357	-90.763	63.186	27.127	-92.126	-85.880	45.789	48.059	-88.079	-83.950	-82.877	-76.909	-27.784	-80.099	-8191	255	
2053.493	1	1	0	0	0.069004	0.091962	0.0679	0.22812	0.044031	0.29331	0.13758	0.1122	0.13573	0.14639	0.14174	0.22498	0.16734	0.18547	0.1996	0.21373	-4.6667	-4.1	-4.6458	-4.8771	-4.0896	-4.9021	-4.8313	-4.2438	-5.0354	-4.2688	-4.5896	-5.1083	-4.0312	-4.9208	-4.7208	-4.4229	-54.039	156.917	-93.786	150.674	117.228	-3.893	245.469	64.262	185.216	214.002	176.103	-55.018	-88.359	217.497	242.643	114.663	0.0014908	0.00046968	0.00023622	779.84	3.7728e-06	3.4695e-06	793.81	297.16	6.4414e-06	7.6468e-06	342.82	184.34	140.14	68.592	9.0528e-06	93.686	0.00028735	0.00028023	7.7557e-05	785.35	3.0746e-06	3.0553e-06	802.19	295.91	3.0464e-06	3.0641e-06	337.62	178.21	135.68	66.258	3.067e-06	89.108	60.421	56.477	-65.469	-90.494	14.112	-5.726	-92.005	-86.065	54.774	44.493	-87.712	-84.027	-83.087	-76.888	30.735	-79.994	-8191	255	
2053.613	1	1	0	0	0.21514	0.078731	0.33387	0.11416	0.15994	0.17596	0.14991	0.036135	0.1307	0.15062	0.12594	0.12658	0.091787	0.23925	0.1088	0.16783	-4.75	-4.4313	-4.4708	-4.9979	-4.0021	-4.8875	-4.8187	-4.2625	-4.9479	-4.3812	-4.4708	-5.0854	-4.3875	-4.9479	-4.8688	-4.3167	62.127	145.429	195.553	161.125	19.210	195.413	-31.009	156.778	31.967	189.255	220.899	-102.547	218.365	-102.257	37.184	206.784	0.0012196	0.00052394	9.342e-05	782.09	1.5292e-06	1.3859e-06	797.53	298.93	1.2196e-05	3.8779e-06	345.87	186.24	141.27	68.675	5.1909e-06	93.94	0.00028783	0.00027753	7.7697e-05	786.59	3.0575e-06	3.0216e-06	805.49	296.17	3.0353e-06	3.0458e-06	340.01	179.62	136.14	66.435	3.0303e-06	89.614	63.243	-5.196	-36.952	-91.105	-11.945	49.852	-91.882	-85.962	14.419	31.947	-87.685	-84.003	-83.109	-77.057	-19.877	-79.998	-8191	255	
2053.710	1	1	0	0	0.050818	0.14861	0.099244	0.11896	0.11589	0.16824	0.17064	0.35627	0.15361	0.071223	0.16245	0.28218	0.089685	0.1195	0.22241	0.32155	-4.7042	-4.6042	-4.3125	-5.2146	-4.0167	-4.6083	-5.0125	-4.2792	-4.8083	-4.6562	-4.4875	-5.2792	-4.3375	-4.6667	-4.8667	-4.3562	35.676	85.890	4.777	215.761	142.026	256.186	118.156	244.583	56.619	-43.461	146.430	242.920	-102.286	243.597	214.066	184.835	0.0011745	0.00035136	0.00019979	783.67	8.9572e-06	8.9778e-07	801.29	298.79	1.3477e-06	1.1334e-05	346.7	186.54	140.98	68.697	5.7983e-06	94.023	0.00028832	0.00028081	7.7957e-05	788.57	3.0889e-06	3.0772e-06	810.3	297.01	3.0739e-06	3.0609e-06	341.83	180.04	136.16	66.515	3.0781e-06	89.611	49.369	-23.324	-72.981	-90.884	-2.702	80.007	-91.956	-85.794	252.435	17.682	-88.083	-83.881	-83.025	-76.931	4.533	-80.143	-8191	255	
2053.806	1	1	0	0	0.17358	0.11782	0.19108	0.038552	0.14517	0.21876	0.22004	0.090297	0.26173	0.13558	0.12143	0.29741	0.093495	0.14528	0.16969	0.20085	-4.5625	-4.7792	-4.2396	-5.2292	-4.2146	-4.5604	-5.0271	-4.1813	-4.8	-4.675	-4.3292	-5.3438	-4.4979	-4.6229	-5.125	-4.3396	116.918	223.188	254.589	119.064	216.921	-77.268	209.992	148.988	230.859	62.505	223.438	210.813	-33.444	215.838	3.070	182.868	0.0014414	0.00040372	0.00023156	783.65	1.0501e-05	4.6683e-06	799.27	299.57	1.4145e-06	2.4234e-06	345.11	186.2	140.18	68.558	5.3554e-06	93.287	0.00029083	0.00028253	7.8421e-05	788.98	3.0908e-06	3.127e-06	809.06	296.78	3.0909e-06	3.0978e-06	339.74	179.25	136.1	66.424	3.0886e-06	89.133	62.158	-61.297	-12.999	-90.667	-25.459	66.898	-91.724	-85.807	81.851	23.323	-88.008	-84.013	-82.913	-76.984	-58.708	-80.071	-8191	255	
2053.902	1	1	0	0	0.1311	0.1435	0.14645	0.076595	0.16866	0.14028	0.218	0.16792	0.059229	0.025408	0.22756	0.1398	0.25692	0.086841	0.059028	0.1664	-4.4917	-4.6729	-4.2167	-5.0104	-4.3917	-4.3771	-5.1833	-4.2104	-4.5083	-4.7292	-4.3229	-5.0021	-4.5312	-4.5208	-4.9958	-4.5333	115.333	-64.370	116.370	117.324	74.595	225.865	229.422	184.708	217.776	63.792	-40.000	114.398	-70.040	232.192	251.317	101.541	0.0011839	0.00053769	0.00015624	789.35	3.0555e-06	4.3848e-06	802.84	299.12	1.0813e-05	4.0947e-06	343.54	185.88	141.15	68.73	6.167e-06	93.733	0.00029174	0.00027999	7.8373e-05	789.83	3.0581e-06	3.0743e-06	806.27	296.67	3.0912e-06	3.0461e-06	339.6	178.93	136.33	66.427	3.0623e-06	89.261	60.669	-7.061	-22.975	-90.580	-30.598	46.453	-91.794	-85.633	41.370	68.173	-87.799	-84.038	-83.149	-77.048	-21.945	-79.880	-8191	255	
2053.996	1	1	0	0	0.14715	0.21092	0.16509	0.11592	0.23774	0.26854	0.18681	0.16284	0.061188	0.07072	0.23533	0.29361	0.26204	0.19551	0.20811	0.044476	-4.4417	-4.8458	-4.1292	-5.025	-4.5458	-4.1708	-5.1	-4.4021	-4.5104	-4.9812	-4.3333	-4.9792	-4.8146	-4.3438	-4.9688	-4.4146	236.713	-31.065	23.349	75.934	-64.090	-13.024	245.820	-84.662	171.993	249.853	-103.675	216.155	-80.137	-68.403	-4.220	79.506	0.0011841	0.00086401	0.00010644	784.42	8.5783e-06	7.0782e-06	802.25	298.15	2.3716e-06	5.7253e-06	345.23	185.16	140.8	68.867	2.3762e-06	94.03	0.00028808	0.00028025	7.7612e-05	789.64	3.0448e-06	3.0718e-06	808.51	296.58	3.0786e-06	3.07e-06	340.19	179.2	136.12	66.536	3.058e-06	89.575	44.009	-19.206	83.218	-90.735	18.445	2.968	-91.960	-85.874	235.262	31.177	-87.755	-83.862	-82.842	-77.088	182.716	-79.913	-8191	255	
2054.092	1	1	0	0	0.13505	0.23335	0.1997	0.20956	0.026856	0.20776	0.41682	0.068066	0.1436	0.26084	0.2046	0.02073	0.034866	0.17902	0.11725	0.30443	-4.1604	-4.8708	-4.1271	-4.8271	-4.6562	-4.1354	-5.0229	-4.4917	-4.4167	-5.1896	-4.325	-4.8417	-5.0396	-4.3854	-4.8792	-4.6188	232.451	33.418	148.013	210.662	203.173	16.957	138.823	-34.900	73.535	115.155	173.729	179.596	136.748	220.251	103.764	205.955	0.0013535	0.00083851	0.00013575	788.42	5.5972e-06	3.9152e-06	806.61	300.16	3.8112e-06	6.0381e-06	347.54	187.51	140.95	68.959	5.9696e-06	94.658	0.0002884	0.00027892	7.7354e-05	792.75	3.0487e-06	3.0562e-06	813.19	297.84	3.0607e-06	3.0529e-06	342.05	180.74	136.39	66.63	3.0064e-06	90.112	50.430	-31.359	-45.515	-90.984	44.860	77.742	-92.127	-85.945	35.502	51.872	-87.871	-84.126	-82.792	-77.206	70.739	-79.944	-8191	255	
2054.213	1	1	0	0	0.058306	0.092885	0.33132	0.1668	0.19167	0.2676	0.22384	0.33551	0.13179	0.37505	0.074616	0.11241	0.22576	0.11032	0.041919	0.11441	-3.9729	-5.0792	-4.1229	-4.5542	-5.0604	-4.0083	-4.9729	-4.8125	-4.3625	-5.0687	-4.3021	-4.5979	-5.0646	-4.2625	-4.8958	-4.7229	-13.034	72.849	-50.184	237.642	181.165	-58.572	188.339	242.593	20.652	65.195	-20.281	252.165	-67.553	223.317	245.639	-92.400	0.0012837	0.0004477	0.00015438	793.51	7.0631e-06	5.4546e-06	808.26	301.09	5.1426e-06	3.47e-06	347.3	188.12	141.61	69.031	7.7432e-06	94.047	0.00028837	0.00027631	7.6467e-05	793.88	3.0237e-06	3.0165e-06	813.95	297.95	3.0542e-06	3.0322e-06	341.66	180.39	136.47	66.687	3.0313e-06	89.601	44.835	-17.120	-46.679	-90.736	33.698	36.160	-91.771	-86.068	-32.132	-55.970	-87.721	-84.149	-83.074	-76.992	-29.205	-79.968	-8191	255	
2054.309	1	1	0	0	0.20989	0.22805	0.12599	0.047693	0.26628	0.25376	0.27515	0.1508	0.11531	0.11698	0.26217	0.35458	0.33698	0.25115	0.10964	0.39908	-3.9521	-4.9667	-4.4854	-4.6146	-4.9542	-3.9979	-4.9125	-4.825	-4.0604	-5.1813	-4.4208	-4.5333	-4.9604	-4.35	-4.7958	-4.8417	41.743	67.268	176.756	-29.984	-66.429	-93.804	168.509	174.991	150.260	181.075	154.729	-67.756	-74.711	248.503	10.688	135.887	0.0014111	0.00020088	0.00011716	787.21	1.4864e-06	2.1214e-06	804.69	301.04	2.6815e-06	9.3263e-07	346.52	186.26	140.76	69.089	4.2772e-06	94.166	0.00028715	0.00027601	7.6448e-05	792.14	3.044e-06	3.0186e-06	811.49	297.84	3.0362e-06	2.9969e-06	340.92	179.58	136.34	66.56	3.0254e-06	89.608	46.444	-6.364	-32.523	-90.886	-6.430	1.530	-91.845	-85.649	111.863	-69.768	-87.714	-84.220	-82.822	-76.862	2.165	-79.702	-8191	255	
2054.405	1	1	0	0	0.051316	0.12611	0.22816	0.16361	0.23087	0.038701	0.11218	0.2952	0.23577	0.25678	0.16513	0.054953	0.18389	0.21104	0.023965	0.42007	-3.8021	-5.0229	-4.4583	-4.3854	-5.0146	-4.0208	-4.7229	-4.9958	-4.0646	-5.0708	-4.5417	-4.3917	-5.1292	-4.1813	-4.5958	-5.0188	238.434	203.160	181.518	-21.937	253.779	46.304	227.337	189.928	190.888	51.473	209.524	206.440	-86.102	230.147	61.498	179.188	0.0012391	0.00098194	0.00012032	791.23	6.9103e-06	1.9191e-06	802.31	300	8.9208e-06	5.1007e-06	347.15	187.25	141.46	68.889	1.4332e-06	94.315	0.00028499	0.00027539	7.6512e-05	790.99	3.0217e-06	3.0203e-06	809.97	297.51	3.034e-06	2.9829e-06	340.92	180.07	136.57	66.532	3.0202e-06	89.723	61.226	9.995	-93.821	-90.692	-11.080	129.527	-91.989	-85.755	-0.942	-10.126	-87.739	-84.257	-83.107	-76.873	135.396	-79.770	-8191	255	
2054.477	1	1	0	0	0.13613	0.14789	0.040798	0.12967	0.17307	0.1008	0.079083	0.022486	0.17502	0.087387	0.12791	0.2846	0.040685	0.047602	0.20635	0.01736	-3.7292	-5.0208	-4.4187	-4.4688	-5.0542	-4.4625	-4.5938	-5.0667	-3.9917	-4.8896	-4.7708	-4.2979	-5.1687	-4.3438	-4.4104	-5.1625	-44.466	-86.670	17.190	213.145	252.417	84.111	200.413	-83.776	115.725	168.114	205.853	235.054	-37.452	-63.391	42.635	55.140	0.0014491	0.00040241	9.6656e-05	787.2	4.192e-06	4.0795e-06	807.26	301.32	6.7006e-06	3.4435e-06	347.62	186.75	141.51	69.186	3.94e-07	94.127	0.0002834	0.00027394	7.622e-05	791.89	2.953e-06	2.9638e-06	812.58	298.01	2.9701e-06	2.9623e-06	341.83	179.88	136.57	66.616	2.9887e-06	89.916	57.274	-17.679	27.409	-90.795	24.270	109.392	-91.783	-85.635	153.987	-6.584	-87.767	-84.079	-83.081	-76.710	-56.467	-79.907	-8191	255	
2054.573	1	1	0	0	0.042292	0.31892	0.070514	0.063783	0.034894	0.24945	0.17237	0.14408	0.074529	0.14458	0.13276	0.051702	0.10942	0.21522	0.07073	0.1118	-3.6292	-4.9062	-4.6625	-4.0667	-5.1375	-4.3458	-4.4208	-5.0729	-4.1521	-4.7229	-4.9062	-4.3187	-5.1104	-4.6937	-4.2854	-5.1854	227.214	-48.190	45.819	-93.976	226.209	43.186	213.042	233.195	191.896	242.604	-37.650	22.266	237.042	-93.174	50.305	235.932	0.0014059	0.00079538	0.00015018	788.81	6.9953e-06	2.4688e-06	807.02	300.17	8.0401e-06	3.2145e-06	348.85	187.71	141.84	68.975	6.293e-06	94.705	0.00027982	0.0002724	7.5652e-05	792.82	2.9931e-06	2.9772e-06	813.9	297.88	2.9627e-06	2.9624e-06	342.19	180.57	136.62	66.625	2.9762e-06	90.024	55.987	0.121	-65.985	-90.869	253.233	-2.344	-91.737	-85.782	44.193	57.508	-87.565	-84.009	-82.774	-76.599	165.214	-79.729	-8191	255	
2054.694	1	1	0	0	0.13265	0.033126	0.22013	0.2364	0.30056	0.08071	0.33494	0.13359	0.079442	0.021352	0.18488	0.27616	0.12223	0.26437	0.053183	0.14704	-3.7146	-4.6979	-4.8313	-4.2354	-5.0854	-4.4479	-4.3708	-5.2229	-4.2958	-4.5312	-5.0938	-4.1646	-4.9458	-4.8229	-4.1354	-5.2229	85.531	49.240	103.543	217.831	133.104	190.428	220.331	162.295	209.379	244.344	241.046	219.667	-83.816	234.072	225.427	196.483	0.0011461	5.5957e-05	0.00020001	790.17	3.2591e-06	3.644e-06	806.12	300.98	7.5458e-06	3.0331e-06	344.92	186.01	141.47	68.825	2.5588e-06	94.056	0.00028043	0.00027257	7.5527e-05	792.23	2.9605e-06	2.9427e-06	810.04	298.13	2.9949e-06	3.0043e-06	339.73	179.02	136.29	66.411	2.9994e-06	89.326	60.932	112.364	14.034	-91.066	-39.634	80.022	-91.966	-85.766	-30.149	63.629	-87.691	-84.046	-82.857	-76.911	-0.855	-79.905	-8191	255	
2054.790	1	1	0	0	0.15001	0.27821	0.04302	0.094829	0.17382	0.14014	0.1311	0.10233	0.087371	0.094062	0.34036	0.22061	0.10532	0.12814	0.19725	0.29278	-4.125	-4.5833	-5.0563	-4.3063	-4.9125	-4.7229	-4.3917	-5.0437	-4.3125	-4.6	-4.9833	-4.125	-4.8	-4.9271	-4.1958	-5.1667	-62.175	-19.733	196.092	-8.620	234.502	169.472	-68.137	66.162	238.232	-28.401	212.535	211.401	164.627	-94.625	77.087	166.626	0.001152	0.00044087	0.00014372	791.71	8.3153e-06	1.5108e-06	801.89	299.26	5.8136e-06	4.9505e-06	345.77	185.94	142.04	68.907	7.8889e-06	93.591	0.0002811	0.00027258	7.5822e-05	791.78	2.9598e-06	2.9656e-06	806.64	296.55	2.9394e-06	2.9711e-06	338.91	178.68	136.25	66.389	2.9502e-06	89.089	45.213	-12.850	8.064	-90.899	11.634	11.732	-91.962	-85.586	29.912	29.150	-87.769	-84.008	-83.009	-77.049	-48.318	-79.906	-8191	255	
2054.886	1	1	0	0	0.086659	0.10858	0.065083	0.018535	0.14073	0.091386	0.027227	0.1225	0.11781	0.093928	0.067917	0.12092	0.26654	0.17247	0.17129	0.14163	-4.1208	-4.3875	-5.0021	-4.1438	-4.6542	-4.8104	-4.4729	-5.1333	-4.4396	-4.325	-5.3146	-4.4875	-4.5833	-5.1271	-4.0458	-5.0667	215.682	237.486	241.575	92.711	30.577	14.524	-65.027	-56.576	91.352	252.741	146.702	-74.123	209.995	-88.602	44.219	203.360	0.0013539	0.00034886	0.00017684	785.32	2.6558e-06	6.842e-06	801.88	299.68	6.0794e-06	8.2321e-06	347.46	187.14	141.08	68.845	1.0629e-06	93.92	0.00027703	0.00026935	7.4823e-05	788.88	2.9499e-06	2.9312e-06	806.68	296.8	2.942e-06	2.9527e-06	339.47	179.05	136.05	66.423	2.9307e-06	89.367	59.538	43.419	-20.827	-90.461	21.606	44.898	-92.073	-85.882	62.035	-4.125	-87.961	-84.135	-82.887	-76.843	91.758	-80.003	-8191	255	
2054.982	1	1	0	0	0.059116	0.11086	0.19901	0.14715	0.086265	0.027291	0.10515	0.22081	0.28256	0.16633	0.12199	0.10256	0.19166	0.11676	0.079243	0.12795	-4.3812	-4.2833	-4.9521	-4.3187	-4.4688	-4.8792	-4.1687	-4.9792	-4.5792	-4.0792	-5.1208	-4.4375	-4.4979	-5.0708	-3.9542	-5.0271	36.981	72.994	-1.599	202.625	97.246	242.389	191.858	225.524	35.025	231.628	234.740	192.505	240.722	249.154	67.358	140.687	0.0010327	0.00055847	0.00013737	789.06	2.9427e-06	8.6917e-06	805.81	301.02	9.0833e-06	4.3692e-06	346.72	187.39	141.15	69.375	2.9436e-06	94.941	0.00027836	0.00027036	7.4692e-05	791.07	2.9687e-06	2.9557e-06	811.01	297.61	2.9457e-06	2.9636e-06	341.04	179.82	136.21	66.62	2.9434e-06	90.141	53.177	-22.392	53.687	-90.902	-48.196	-9.948	-91.852	-85.890	28.936	-39.667	-87.602	-83.827	-82.869	-76.827	-62.754	-79.973	-8191	255	
2055.078	1	1	0	0	0.28754	0.090584	0.1729	0.10029	0.02102	0.32304	0.17888	0.22246	0.064573	0.2168	0.12715	0.17451	0.21427	0.19472	0.18786	0.037864	-4.3187	-4.1354	-5.0167	-4.3042	-4.3354	-5.0458	-4.2354	-4.8146	-4.8208	-4.1396	-5.0521	-4.5854	-4.3	-5.1146	-4.2292	-4.8833	34.591	-39.255	-92.567	140.701	137.954	204.443	229.927	237.731	75.449	-83.034	224.545	164.903	130.285	24.646	-69.915	227.725	0.0011875	0.00010651	8.2029e-05	793.14	8.5798e-06	2.1315e-06	808.68	300.77	6.1788e-06	8.1264e-06	346.1	187.4	142.28	69.164	3.848e-06	93.991	0.00028021	0.00027171	7.5143e-05	794.14	2.9857e-06	2.9659e-06	813.12	298.14	2.9701e-06	2.9652e-06	340.98	179.79	136.6	66.541	2.9862e-06	89.553	47.899	40.333	-0.517	-90.881	-36.686	5.109	-91.959	-85.988	90.341	45.970	-87.673	-83.829	-82.921	-76.711	-40.683	-79.926	-8191	255	
2055.175	1	1	0	0	0.016411	0.0084681	0.15052	0.1116	0.17113	0.16656	0.2539	0.18448	0.16119	0.11719	0.18404	0.051024	0.18453	0.45854	0.078386	0.30315	-4.4688	-4.0437	-4.9958	-4.7021	-4.1708	-5.0938	-4.4854	-4.7604	-4.9417	-4.1792	-5.0583	-4.7854	-4.2333	-5.2896	-4.2312	-4.7521	12.834	-53.597	205.156	46.082	-83.815	242.504	174.938	104.502	147.871	-23.477	60.218	-94.456	-28.185	208.521	201.321	-92.743	0.0011155	0.0004763	0.00021908	789.94	4.6742e-06	3.8617e-06	809.49	299.23	4.7808e-06	3.1496e-06	344.81	186.13	141.18	68.979	7.1119e-06	93.999	0.00028167	0.00027018	7.529e-05	791.09	2.9596e-06	2.953e-06	811.04	297.42	2.9558e-06	2.9582e-06	339.67	179.09	136.01	66.539	2.9798e-06	89.438	58.752	5.505	-61.151	-90.761	75.863	34.399	-91.854	-86.068	-7.590	33.450	-87.917	-83.879	-82.947	-77.119	40.825	-79.984	-8191	255	
2055.293	1	1	0	0	0.20548	0.12961	0.10745	0.22984	0.16656	0.20937	0.068974	0.18095	0.14208	0.14794	0.11362	0.10799	0.14332	0.14652	0.19774	0.17335	-4.5729	-4.1208	-4.8896	-4.7021	-4.1312	-5.1292	-4.4979	-4.5938	-5.0687	-4.2771	-4.9021	-4.8875	-4.4187	-5.2583	-4.4437	-4.5604	148.792	94.285	235.954	181.827	-10.469	-55.633	150.957	229.502	-68.523	254.182	211.588	254.888	227.266	196.068	104.222	250.076	0.0014669	0.00012857	8.3849e-05	791.65	1.6288e-06	5.2191e-06	805.27	301.02	5.086e-06	2.7843e-06	345.48	186.38	141.23	68.751	5.0588e-06	94.465	0.00028248	0.00027073	7.601e-05	791.59	3.0061e-06	2.9691e-06	808.87	297.44	2.9647e-06	2.9668e-06	339.66	179.1	136.26	66.566	2.9465e-06	89.649	55.689	-81.137	-58.084	-90.529	7.371	109.354	-91.842	-85.582	38.132	-6.487	-87.916	-84.035	-82.800	-76.792	-3.021	-79.918	-8191	255	
2055.390	1	1	0	0	0.017253	0.11696	0.13457	0.19252	0.17369	0.0082617	0.33576	0.15267	0.19137	0.053617	0.1605	0.08517	0.23135	0.11411	0.18376	0.078407	-4.8187	-4.1188	-4.7417	-4.8	-4.0792	-4.9458	-4.4854	-4.4	-5.0479	-4.275	-4.7896	-4.975	-4.225	-5.2271	-4.5021	-4.3417	217.258	160.050	225.450	254.317	11.798	-7.143	204.184	-80.424	33.759	239.384	233.950	243.973	255.940	-71.611	56.733	-98.702	0.0015105	0.00064394	9.3206e-05	792.03	9.0563e-06	6.1438e-06	807.02	301.89	8.6542e-06	1.1539e-06	346.79	187.19	142.18	69.073	9.303e-06	94.12	0.00027917	0.0002697	7.5747e-05	794.32	2.9645e-06	2.935e-06	813.51	298.59	2.9495e-06	2.9817e-06	340.79	179.76	136.5	66.552	2.9489e-06	89.78	64.320	-33.304	0.352	-90.358	80.870	46.863	-92.029	-85.849	51.752	40.946	-88.054	-84.054	-82.783	-76.696	-6.499	-79.686	-8191	255	
2055.486	1	1	0	0	0.35543	0.27413	0.14489	0.23267	0.12005	0.24321	0.13323	0.25518	0.02968	0.23388	0.27616	0.10315	0.22286	0.017234	0.11346	0.25254	-4.8229	-4.1979	-4.5312	-4.9979	-4.0729	-4.7708	-4.8417	-4.3583	-5.075	-4.4062	-4.6354	-5.0208	-4.1896	-4.9417	-4.6958	-4.4333	234.725	109.022	-96.297	201.715	75.949	186.309	212.783	222.353	150.966	167.314	184.278	110.883	247.456	221.560	137.115	208.771	0.0013433	0.00041756	0.00010165	793.63	6.2089e-06	6.8639e-06	811.24	301.69	1.0683e-05	3.7905e-06	348.27	189.04	142.67	69.3	7.0674e-06	94.714	0.0002785	0.00026894	7.4874e-05	795.09	2.9268e-06	2.9404e-06	815.37	298.59	2.951e-06	2.9619e-06	342.78	180.68	136.81	66.77	2.9571e-06	90.056	54.630	27.636	-12.042	-90.974	10.161	-13.174	-91.728	-85.996	44.529	17.319	-87.772	-83.951	-83.003	-76.702	-46.490	-79.855	-8191	255	
2055.582	1	1	0	0	0.09947	0.18908	0.18667	0.30468	0.2614	0.078955	0.05054	0.19719	0.15784	0.18227	0.15155	0.095689	0.064739	0.19399	0.15445	0.27747	-4.8104	-4.3896	-4.4917	-5.0667	-4.1	-4.7208	-4.9125	-4.2896	-4.9854	-4.3938	-4.4146	-5.0542	-4.1562	-4.7917	-4.6604	-4.2396	-51.151	108.447	-73.505	220.870	80.685	236.209	167.946	218.586	-14.802	56.998	59.973	243.569	255.032	-70.002	155.764	216.747	0.0010131	0.00039665	0.00013418	791.18	6.2425e-06	2.2568e-06	813.56	302	8.7463e-06	4.7249e-06	347.52	188.29	141.98	69.422	3.8821e-06	94.405	0.00027942	0.00027082	7.6039e-05	796.5	2.9519e-06	2.9568e-06	814.2	298.53	2.9486e-06	2.9602e-06	340.8	180.05	136.46	66.651	2.9468e-06	89.645	64.748	16.801	34.200	-90.610	7.063	-51.167	-91.592	-85.722	79.798	108.778	-87.750	-83.863	-82.899	-76.883	-10.151	-79.928	-8191	255	
2055.703	1	1	0	0	0.075945	0.16245	0.2804	0.0095456	0.13681	0.05317	0.12899	0.41745	0.27711	0.19942	0.32396	0.10132	0.05683	0.19377	0.20826	0.28624	-4.6	-4.4563	-4.3063	-5.0917	-4.0771	-4.6667	-5.0813	-4.2375	-4.9521	-4.5708	-4.2937	-5.2479	-4.2562	-4.6708	-4.8875	-4.3083	218.811	66.997	183.002	-2.329	-39.376	130.681	104.542	163.398	-20.381	234.085	164.151	151.664	-33.756	-46.892	81.767	-102.619	0.0016516	0.00026992	0.00012084	792.93	1.6532e-06	5.3801e-06	811.12	303.13	3.8832e-06	7.9258e-06	350.58	187.19	141.95	69.124	5.6037e-06	94.271	0.00027734	0.00026828	7.4684e-05	793.1	2.9648e-06	2.9442e-06	812.34	298.47	2.9511e-06	2.93e-06	341.48	179.44	136.34	66.568	2.9131e-06	89.574	66.790	-23.649	-8.508	-90.293	197.490	6.079	-91.698	-85.734	-18.098	22.556	-87.708	-83.841	-82.538	-76.868	77.785	-79.871	-8191	255	
2055.774	1	1	0	0	0.058622	0.068743	0.17153	0.13083	0.22457	0.18439	0.21274	0.39909	0.18557	0.24569	0.091403	0.12207	0.088068	0.12198	0.15574	0.053333	-4.5167	-4.6813	-4.2458	-5.0896	-4.2896	-4.5312	-5.1333	-4.1833	-4.8438	-4.6854	-4.2354	-5.0958	-4.6125	-4.4896	-5.0062	-4.4833	125.228	94.958	-6.983	197.013	224.404	22.953	168.572	-64.427	-50.230	242.118	217.772	136.040	114.379	-62.314	-70.008	168.006	0.001305	0.00059853	0.0001581	791.12	7.5561e-06	2.9271e-06	807.92	301.9	1.0666e-05	5.6856e-07	348.79	187.67	142.57	69.045	3.0537e-06	94.619	0.00027953	0.00026605	7.4686e-05	794.45	2.9142e-06	2.9288e-06	811.85	297.53	2.9429e-06	2.9058e-06	340.88	180	136.5	66.436	2.9119e-06	89.617	59.590	-27.204	-55.196	-90.617	1.627	57.632	-91.825	-85.655	-32.165	121.686	-87.500	-83.985	-82.915	-76.907	15.999	-79.898	-8191	255	
2055.895	1	1	0	0	0.18621	0.040589	0.21993	0.036481	0.052321	0.21359	0.18008	0.14891	0.12149	0.17445	0.16246	0.31453	0.20317	0.21757	0.18313	0.19552	-4.4375	-4.8646	-4.1521	-5.1396	-4.5708	-4.2896	-5.1958	-4.2771	-4.7229	-4.9167	-4.3667	-5.2167	-4.5958	-4.4042	-4.9688	-4.4333	68.499	245.008	170.943	211.133	141.757	65.375	-43.088	211.671	-24.875	27.854	-95.962	-92.171	-89.198	221.723	28.056	-89.541	0.0014311	0.0002302	9.7456e-05	795.35	5.8542e-06	6.4203e-06	813.89	301.35	4.547e-06	5.609e-06	348.95	188.58	141.87	69.071	5.368e-06	94.768	0.00027663	0.00026499	7.3854e-05	794.77	2.9041e-06	2.9334e-06	814.37	297.71	2.9226e-06	2.9202e-06	341.75	180.46	136.39	66.571	2.8903e-06	89.938	64.880	-12.347	246.114	-90.687	-30.100	19.519	-91.839	-85.682	101.424	17.331	-87.527	-83.663	-82.220	-76.466	-4.751	-79.389	-8191	255	
2055.989	1	1	0	0	0.11009	0.12952	0.15869	0.051556	0.1044	0.24004	0.17492	0.069325	0.19632	0.11402	0.05593	0.0029224	0.24777	0.25995	0.19386	0.061043	-4.2917	-4.8542	-4.0312	-4.9104	-4.6167	-4.2792	-5.4313	-4.2625	-4.4229	-4.9125	-4.2292	-4.9229	-4.8875	-4.3021	-5.1771	-4.5687	119.303	-15.398	12.721	190.534	-12.447	161.696	189.413	109.088	124.936	77.802	-51.959	1.826	-13.622	225.472	-76.067	18.200	0.00126	0.00021806	4.9639e-05	795.16	3.6849e-06	5.4429e-06	812.34	302.94	4.686e-06	1.0036e-06	347.83	188.06	142.32	69.342	6.9717e-06	94.771	0.00027674	0.00026688	7.4278e-05	795.92	2.927e-06	2.9357e-06	816.1	298.32	2.9343e-06	2.8817e-06	340.7	180.3	136.43	66.529	2.856e-06	89.715	56.616	-98.548	-13.008	-89.920	-20.157	113.360	-91.456	-85.219	-57.934	-5.072	-87.087	-83.696	-82.348	-76.458	37.899	-79.521	-8191	255	
2056.085	1	1	0	0	0.16593	0.21359	0.2246	0.24304	0.22897	0.24296	0.18317	0.16768	0.028189	0.036684	0.024557	0.24564	0.10566	0.16976	0.16971	0.061546	-4.1604	-5.0333	-4.3125	-4.9146	-4.6792	-4.1917	-5.1375	-4.4854	-4.3604	-5.1062	-4.2542	-4.7208	-4.9875	-4.2708	-4.9125	-4.6937	12.132	8.256	-18.147	-92.622	-41.777	4.311	237.242	228.903	174.670	203.856	-9.393	239.764	246.558	-62.687	75.161	180.041	0.0014265	0.00049996	0.00014106	795.61	4.2105e-06	2.9997e-06	809.25	302.74	6.4475e-06	4.0235e-06	347.5	186.43	141.25	69.062	6.6378e-06	94.072	0.00027416	0.00026075	7.2891e-05	793.34	2.87e-06	2.8348e-06	810.79	297.88	2.8786e-06	2.8158e-06	338.7	178.96	135.85	66.302	2.8713e-06	89.094	55.167	-59.278	-22.546	-90.061	28.171	-46.776	-91.270	-85.034	-18.442	-1.255	-87.036	-83.437	-82.188	-76.283	-31.273	-79.326	-8191	255	
2056.182	1	1	0	0	0.14056	0.14987	0.11966	0.14735	0.26558	0.17933	0.2823	0.21422	0.066919	0.070101	0.16812	0.2284	0.14972	0.32765	0.083118	0.12193	-4.0229	-5.0271	-4.1375	-4.6708	-4.8646	-4.0042	-4.9917	-4.5687	-4.275	-5.0833	-4.3729	-4.7375	-4.9792	-4.3063	-4.7729	-4.7917	74.664	78.826	139.515	193.819	34.382	102.680	189.946	151.351	-91.422	-54.223	1.398	170.937	-81.821	-99.026	35.244	207.550	0.0014342	0.0003106	0.00015992	793.1	4.4347e-06	5.6796e-06	809.02	301.11	5.8294e-06	1.7276e-06	346.95	187.28	142.36	69.094	4.1931e-06	94.423	0.00027149	0.00025909	7.215e-05	792.21	2.8434e-06	2.807e-06	808.78	297	2.8707e-06	2.8288e-06	339.02	179.17	136.24	66.436	2.8461e-06	89.552	57.808	55.594	-62.877	-90.128	-3.091	70.979	-91.225	-85.209	35.022	117.598	-87.451	-83.532	-82.403	-76.389	4.524	-79.641	-8191	255	
2056.278	1	1	0	0	0.1427	0.0681	0.17201	0.037261	0.061676	0.10744	0.15988	0.12466	0.11032	0.055812	0.2416	0.098404	0.059063	0.098878	0.17009	0.31635	-3.825	-5.0375	-4.2792	-4.5479	-4.8812	-4.0875	-5.0146	-4.7917	-4.1229	-5.0125	-4.4479	-4.5167	-5.0792	-4.325	-4.7042	-4.8354	-37.083	130.375	-37.850	150.518	68.717	246.820	236.256	-94.961	-86.281	-4.540	185.813	235.491	-45.901	9.627	115.635	152.800	0.0012717	0.00086318	0.00010024	792	4.2562e-06	2.309e-06	811.25	301.63	4.0714e-06	5.4824e-06	349.05	189.11	141.89	69.427	1.4201e-06	94.725	0.00026962	0.00026041	7.2329e-05	791.55	2.8555e-06	2.873e-06	812.63	297.27	2.8384e-06	2.8337e-06	340.33	180.54	136.39	66.568	2.8695e-06	89.818	58.938	2.198	-5.640	-90.154	51.435	-15.030	-91.521	-85.430	3.692	44.783	-87.528	-83.941	-82.625	-76.637	250.806	-79.521	-8191	255	
2056.374	1	1	0	0	0.12028	0.1151	0.26795	0.25123	0.14271	0.057448	0.24279	0.12128	0.25291	0.058653	0.011852	0.089546	0.18164	0.012755	0.22738	0.20818	-3.7708	-5.0896	-4.4938	-4.3938	-5.0729	-4.0958	-4.8021	-4.8438	-4.2458	-5.0167	-4.7479	-4.4771	-4.9917	-4.3938	-4.4313	-5.0437	-19.698	-90.274	-100.045	245.897	6.161	255.265	-34.200	172.018	124.450	187.128	240.836	204.802	-53.558	128.357	-97.251	206.858	0.0014986	0.00058525	0.00012071	797.68	5.9944e-06	6.7704e-06	815.57	303.09	2.4933e-06	4.8955e-06	351.13	189.84	143.19	69.496	2.6263e-06	95.697	0.00027059	0.00026235	7.2149e-05	794.8	2.8487e-06	2.8487e-06	815.06	297.92	2.8463e-06	2.8451e-06	342.08	181.38	136.89	66.695	2.8768e-06	90.614	53.750	5.226	-24.403	-90.528	15.387	51.469	-91.865	-85.462	-98.615	40.595	-87.130	-83.827	-82.532	-76.726	185.139	-79.471	-8191	255	
2056.470	1	1	0	0	0.12121	0.092828	0.15207	0.20633	0.21153	0.154	0.12077	0.29522	0.093367	0.032598	0.16802	0.056329	0.22516	0.25139	0.23527	0.16545	-3.7542	-4.9	-4.5396	-4.4521	-4.9812	-4.2292	-4.7083	-5.0687	-4.2	-4.8583	-4.8667	-4.4187	-5.0625	-4.4167	-4.4062	-5.1708	-55.478	-19.123	-76.594	248.351	236.597	140.341	-99.137	237.683	-97.625	127.385	114.134	161.489	237.838	187.049	89.594	145.866	0.0014683	0.00026996	0.00019391	800.59	9.5713e-06	4.0152e-06	814.98	302.16	5.0743e-06	9.0363e-06	349.7	189.26	142.57	69.605	5.5258e-06	95.29	0.00027037	0.00026313	7.2412e-05	796.25	2.8436e-06	2.8531e-06	816.92	298.16	2.8622e-06	2.8629e-06	342.5	180.77	136.85	66.714	2.9123e-06	90.084	63.177	-26.713	-61.081	-90.355	13.466	62.655	-91.536	-85.376	65.028	25.041	-88.206	-84.491	-83.198	-77.094	-69.107	-79.884	-8191	255	
2056.566	1	1	0	0	0.15352	0.11877	0.10541	0.16344	0.16336	0.19618	0.15952	0.065803	0.10847	0.03372	0.17166	0.17724	0.12354	0.18883	0.12995	0.20169	-3.7833	-4.7875	-4.7625	-4.2625	-4.8458	-4.4896	-4.625	-5.0188	-4.1438	-4.6	-5.0167	-4.3896	-5.0417	-4.6708	-4.2979	-5.1188	-55.138	45.065	92.829	209.822	-64.849	232.865	242.905	-102.364	127.084	188.613	219.437	219.398	162.887	191.740	84.055	237.128	0.0014146	0.00059303	7.1559e-05	798.21	8.7304e-06	5.3716e-06	809.22	303.24	5.2701e-06	3.3973e-07	349.91	188.31	142.27	69.414	3.0424e-06	94.918	0.00027352	0.00026512	7.3566e-05	795.05	2.894e-06	2.8953e-06	812.05	298.12	2.8633e-06	2.8852e-06	341.16	180	136.52	66.616	2.8939e-06	89.851	58.747	26.782	-78.201	-90.124	6.697	-5.276	-91.662	-85.132	15.533	231.585	-87.508	-83.460	-82.493	-76.289	-14.927	-79.387	-8191	255	
2056.662	1	1	0	0	0.16275	0.14303	0.18624	0.35694	0.22716	0.0057639	0.16341	0.2393	0.1881	0.18096	0.18675	0.27422	0.11595	0.17352	0.16005	0.17954	-3.9375	-4.6042	-4.9667	-4.2	-5.0813	-4.6021	-4.2896	-5.25	-4.2688	-4.6042	-5.1708	-4.3521	-5.1292	-4.8625	-4.1687	-5.3375	-35.467	253.722	-93.245	221.767	180.164	223.716	210.025	201.122	241.949	19.016	-100.407	170.208	148.617	-22.355	124.980	200.062	0.0016365	0.00055899	0.00018274	793.77	2.4267e-06	2.9687e-06	808.71	301.15	1.567e-06	2.2e-06	347.75	188.07	142.66	69.449	5.4702e-07	94.758	0.00027349	0.00026421	7.2326e-05	791.72	2.8841e-06	2.8363e-06	811.01	297.2	2.8471e-06	2.8576e-06	340.07	179.85	136.43	66.643	2.854e-06	89.871	52.968	30.113	-22.941	-90.369	-41.402	30.839	-91.782	-85.425	-14.715	-70.845	-88.226	-84.535	-83.080	-77.269	-17.633	-80.238	-8191	255	
2056.783	1	1	0	0	0.085729	0.22693	0.15897	0.11743	0.048624	0.019386	0.13389	0.14221	0.14571	0.10839	0.22138	0.14386	0.17768	0.23026	0.2557	0.40532	-3.8937	-4.4646	-4.8333	-4.1229	-4.8125	-4.825	-4.3104	-5.1229	-4.3375	-4.4708	-5.1625	-4.3313	-4.8333	-4.9521	-3.9813	-5.2063	105.380	7.886	210.502	232.470	-56.800	98.902	155.423	-23.346	55.892	75.856	133.288	230.055	188.210	215.229	-97.868	162.112	0.0012667	0.0003357	0.00011484	794.82	3.6076e-06	8.7468e-06	812.66	301.82	5.1527e-06	4.873e-06	350.22	189.06	142.27	69.394	4.6438e-06	95.061	0.00027023	0.00026145	7.228e-05	792.67	2.8782e-06	2.859e-06	812.89	297.88	2.8774e-06	2.8689e-06	341.3	180.67	136.6	66.653	2.873e-06	90.149	56.054	-77.008	38.787	-90.770	-41.709	49.695	-92.169	-85.984	117.306	10.961	-87.890	-84.356	-83.116	-77.308	9.336	-79.827	-8191	255	
2056.879	1	1	0	0	0.15466	0.21335	0.10603	0.2586	0.089828	0.11294	0.21899	0.18879	0.21097	0.20692	0.31869	0.10817	0.31575	0.32917	0.18137	0.054722	-4.1917	-4.3562	-5.0833	-4.1521	-4.6146	-4.8938	-4.3583	-5.0833	-4.5979	-4.2521	-5.2958	-4.1042	-4.5729	-5.0271	-4.0708	-5.125	-85.222	-96.033	210.911	216.609	-68.207	-45.224	207.525	123.746	165.618	-85.809	166.771	246.442	248.352	242.799	-47.991	125.479	0.0011861	4.1243e-05	0.00019566	795.91	1.0049e-05	1.6141e-06	813.07	303.02	9.5406e-06	5.7745e-06	351.59	189.47	141.89	69.377	7.4604e-06	95.3	0.00027224	0.00026081	7.2367e-05	794.26	2.8658e-06	2.8566e-06	816.22	298.95	2.8881e-06	2.8775e-06	342.66	180.86	136.44	66.617	2.8833e-06	90.134	48.022	24.322	-92.418	-90.980	-9.401	-45.660	-91.926	-85.865	13.336	21.466	-88.154	-84.451	-83.602	-77.379	-7.818	-80.329	-8191	255	
2056.975	1	1	0	0	0.063414	0.21923	0.20394	0.015737	0.095969	0.18	0.11939	0.13065	0.2478	0.22727	0.29991	0.113	0.12121	0.079981	0.16075	0.20803	-4.4708	-4.3792	-5.0667	-4.425	-4.5396	-4.9583	-4.3125	-4.95	-4.8167	-4.425	-5.2479	-4.3812	-4.6083	-5.2312	-4.0979	-5.1125	-68.536	162.667	201.705	169.010	225.419	185.810	126.155	192.462	79.742	-99.988	197.458	146.467	-74.763	242.606	-8.203	187.865	0.0014108	0.00031617	0.00024288	795.97	5.5386e-06	3.8825e-06	811.06	300.29	6.3019e-06	1.2684e-06	348.98	187.13	141.88	69.343	3.4722e-06	94.678	0.00027267	0.00026297	7.3016e-05	793.8	2.8509e-06	2.8505e-06	812.12	297.77	2.8297e-06	2.8433e-06	340.99	179.51	136.26	66.539	2.8614e-06	89.797	46.713	-37.075	-8.430	-91.164	1.421	48.744	-92.332	-86.193	-6.623	-17.807	-88.271	-84.179	-83.284	-77.185	80.381	-80.211	-8191	255	
2057.070	1	1	0	0	0.080778	0.14963	0.12303	0.19282	0.038565	0.1192	0.17561	0.20203	0.20747	0.17308	0.13143	0.16871	0.27794	0.097795	0.083334	0.10592	-4.4792	-4.3771	-5.0646	-4.5	-4.2896	-5.1583	-4.3354	-4.9146	-4.8833	-4.2708	-5.2229	-4.6521	-4.4667	-5.0458	-4.1562	-4.9187	80.061	102.637	196.711	218.496	-48.291	-24.478	161.332	185.589	19.677	-60.367	-83.694	-63.960	189.580	-6.926	-27.327	246.326	0.001411	0.00022031	0.00020291	796.44	5.6749e-06	5.3694e-06	809.64	301.42	5.1223e-06	1.7315e-06	348.04	186.68	141.42	69.252	6.6858e-06	94.849	0.00026964	0.00026187	7.256e-05	790.73	2.8553e-06	2.8606e-06	809.78	297.27	2.8432e-06	2.8836e-06	339.55	179.11	135.86	66.503	2.8382e-06	89.755	73.084	254.025	-65.612	-90.943	-28.857	59.310	-92.010	-85.905	3.611	156.556	-87.837	-84.036	-82.932	-76.819	36.891	-79.989	-8191	255	
2057.166	1	1	0	0	0.35978	0.068562	0.23087	0.24812	0.15935	0.046771	0.26473	0.088757	0.11584	0.11048	0.24769	0.1285	0.15372	0.12811	0.12821	0.2001	-4.5875	-4.2354	-5.0667	-4.6396	-4.2562	-5.1042	-4.4	-4.6083	-4.8729	-4.0396	-5.1583	-4.8604	-4.3583	-5.1729	-4.3271	-4.7333	206.237	154.388	18.501	116.099	107.917	117.228	201.057	194.734	-66.176	-50.442	206.566	116.068	244.683	210.483	76.851	-86.415	0.0011291	0.00099362	0.00027292	791.59	9.5711e-07	4.4988e-06	807.42	300.83	4.7718e-06	2.9604e-06	348.24	187.7	142.19	69.137	5.2694e-07	94.592	0.00026962	0.00025824	7.1999e-05	790.59	2.8416e-06	2.8206e-06	808.26	296.65	2.8511e-06	2.8358e-06	340.05	179.4	136.1	66.434	2.824e-06	89.824	52.740	-46.074	-3.711	-90.743	-96.141	52.221	-91.737	-85.956	-57.545	33.503	-87.902	-84.024	-83.020	-76.937	17.625	-80.087	-8191	255	
2057.264	1	1	0	0	0.10306	0.12858	0.15186	0.15392	0.1591	0.084762	0.12898	0.099812	0.11302	0.14384	0.20202	0.17598	0.12263	0.38262	0.12306	0.12787	-4.7271	-4.1438	-4.8271	-4.9896	-4.1208	-5.0208	-4.3854	-4.5604	-5.0208	-4.0938	-4.8583	-4.8375	-4.2188	-5.3	-4.325	-4.6167	177.122	109.445	248.862	174.875	83.142	32.459	-78.733	-82.082	-83.624	126.277	210.438	-53.189	-88.088	235.537	-96.389	168.555	0.0013829	0.0004331	0.00012102	795.19	6.1832e-06	4.003e-06	810.62	302.45	4.5805e-06	3.1348e-06	349.35	187.33	142.06	69.306	7.7424e-06	95.364	0.00026859	0.0002595	7.2418e-05	792.04	2.8381e-06	2.8344e-06	812.02	297.59	2.8359e-06	2.8633e-06	340.52	179.76	136.04	66.454	2.8557e-06	90.154	51.503	-84.545	-54.900	-90.465	-17.728	30.681	-91.825	-85.690	6.728	-90.774	-88.155	-84.272	-83.225	-77.147	30.171	-80.191	-8191	255	
2057.383	1	1	0	0	0.11399	0.2048	0.24613	0.16421	0.23456	0.1147	0.27786	0.19868	0.21242	0.22941	0.17535	0.1226	0.080816	0.26812	0.19204	0.081279	-4.7562	-4.2146	-4.6542	-4.8958	-4.0729	-4.9104	-4.6937	-4.3896	-5	-4.2479	-4.725	-5.0729	-4.2083	-5.1146	-4.5208	-4.4271	-26.521	60.521	17.157	255.504	-57.889	-35.319	160.677	8.270	129.974	163.375	204.717	-77.616	80.040	172.024	11.488	236.606	0.0011541	0.00060752	5.4451e-05	793.45	6.8973e-06	3.2288e-06	811.52	301.79	4.6301e-06	1.5592e-06	346.21	188.21	141.56	69.135	4.1007e-06	94.967	0.00026541	0.00026015	7.187e-05	793.01	2.843e-06	2.8642e-06	812.06	297.67	2.8626e-06	2.8524e-06	340.18	179.61	135.87	66.34	2.8759e-06	89.561	51.995	19.376	41.712	-90.802	40.586	53.317	-91.718	-85.664	45.179	193.665	-88.174	-84.000	-83.089	-76.959	42.594	-80.011	-8191	255	
2057.479	1	1	0	0	0.16037	0.10882	0.14997	0.029114	0.055459	0.18179	0.072597	0.16865	0.15375	0.065159	0.12747	0.114	0.16146	0.076405	0.15266	0.29011	-4.7083	-4.2521	-4.5563	-4.9083	-4.1708	-4.9896	-4.7542	-4.5104	-4.9958	-4.35	-4.5312	-5.1771	-4.1417	-4.8458	-4.6875	-4.2833	163.728	-66.603	139.607	185.043	106.960	32.783	133.995	-87.334	173.239	-69.468	191.036	154.925	-94.371	-80.335	-86.775	235.922	0.0013727	0.00051391	0.00013736	791.78	7.3384e-06	3.8521e-06	807.89	302.05	2.2648e-06	5.4906e-06	347.31	186.92	141.45	69.113	8.2568e-06	94.359	0.00027239	0.00026515	7.4461e-05	789.9	2.9411e-06	2.9245e-06	808.14	296.2	2.9291e-06	2.8971e-06	338.42	178.63	135.6	66.288	2.9256e-06	89.295	59.270	-36.342	-56.322	-90.463	1.025	0.377	-91.917	-85.827	-10.404	153.631	-87.766	-83.784	-83.193	-77.049	-38.510	-80.034	-8191	255	
2057.575	1	1	0	0	0.14044	0.28553	0.10944	0.14951	0.16728	0.16815	0.24022	0.15294	0.23064	0.24954	0.076194	0.14806	0.0093097	0.15434	0.10521	0.18875	-4.7771	-4.2833	-4.3292	-5.2146	-4.2438	-4.8271	-4.8333	-4.1021	-4.9271	-4.4167	-4.4375	-5.1729	-4.3292	-4.8396	-4.8688	-4.275	144.604	249.396	124.149	245.584	122.094	-40.608	199.399	194.987	251.371	-22.542	-7.200	208.406	226.579	249.311	233.387	205.817	0.0016056	0.00046882	0.0001852	793.59	3.1324e-06	1.7613e-06	806.93	300.58	6.8312e-06	1.8044e-06	346.15	187.34	141.68	69.092	6.1411e-06	94.288	0.00027656	0.00026881	7.4666e-05	789.45	2.9321e-06	2.9469e-06	807.39	295.92	2.9895e-06	2.9658e-06	338.49	178.8	135.57	66.233	2.9922e-06	89.406	53.948	-9.493	-13.762	-90.424	6.350	227.106	-91.463	-85.660	20.898	56.084	-87.581	-83.947	-82.598	-76.627	-25.307	-79.728	-8191	255	
2057.671	1	1	0	0	0.16896	0.12458	0.13248	0.2037	0.20865	0.081887	0.06596	0.17129	0.11178	0.158	0.18389	0.10004	0.19064	0.13785	0.13061	0.084326	-4.7292	-4.5542	-4.2271	-5.0396	-4.0771	-4.8125	-5.0229	-4.2188	-4.9896	-4.7042	-4.5563	-5.2146	-4.3938	-4.6875	-4.9688	-4.3167	130.951	209.111	-49.783	235.318	103.834	-42.093	139.805	-43.527	27.453	-15.639	205.997	202.669	216.582	-40.397	88.826	233.910	0.0011021	0.00046559	0.00014632	794.77	3.7368e-06	3.3825e-06	812.57	301.88	4.1303e-06	6.308e-06	346.7	188.28	141.15	69.151	1.7585e-06	94.758	0.00028487	0.00027469	7.6648e-05	790.5	3.0221e-06	3.0198e-06	810.45	297.43	3.0132e-06	3.0078e-06	340.4	179.42	135.77	66.315	3.0232e-06	89.752	59.309	-48.269	-19.686	-90.020	20.446	54.080	-90.933	-85.266	-22.084	62.929	-87.535	-83.108	-82.192	-76.155	150.783	-79.148	-8191	255	
#DATA ENDS
