BOXY.EXE: ISS Imagent and Oximeter Data Acquisition Program Version 0.80
Ascii Record File

#ACQ INFORMATION
2  Detector Channels 
16  External MUX Channels 
1  Auxiliary Channels 
5000  Waveform (CCF) Frequency (Hz)
1  Waveforms Skipped 
30  Waveforms Averaged 
1  Cycles Averaged 
16  Acquisitions per Waveform 
10.0806  Updata Rate (Hz) 

#FILE INFORMATION
TRUE -- External MUX Channel results are PARSED.
FALSE -- AC DC and Phase are NOT grouped.
TRUE -- Companion Program Settings File CREATED.
FALSE -- AC data not excluded
FALSE -- DC data not excluded
FALSE -- Phase data not excluded
FALSE -- Auxillary Chn. data not excluded
Tab delimiters

#CALIBRATION STATE
TRUE -- Waveform Calibration Values APPLIED.


#AUX CALIBRATION VALUES
Val Type	aux-1	

Term	1.0000e+00	
Factor	0.0000e+00	


#WF CALIBRATION VALUES
A = Detector Channel
Val Type	A-AC1	A-AC2	A-AC3	A-AC4	A-AC5	A-AC6	A-AC7	A-AC8	A-AC9	A-AC10	A-AC11	A-AC12	A-AC13	A-AC14	A-AC15	A-AC16	A-DC1	A-DC2	A-DC3	A-DC4	A-DC5	A-DC6	A-DC7	A-DC8	A-DC9	A-DC10	A-DC11	A-DC12	A-DC13	A-DC14	A-DC15	A-DC16	A-Ph1	A-Ph2	A-Ph3	A-Ph4	A-Ph5	A-Ph6	A-Ph7	A-Ph8	A-Ph9	A-Ph10	A-Ph11	A-Ph12	A-Ph13	A-Ph14	A-Ph15	A-Ph16	

Term	0.00000e+00	0.00000e+00	0.00000e+00	0.00000e+00	0.00000e+00	0.00000e+00	0.00000e+00	0.00000e+00	0.00000e+00	0.00000e+00	0.00000e+00	0.00000e+00	0.00000e+00	0.00000e+00	0.00000e+00	0.00000e+00	0.00000e+00	0.00000e+00	0.00000e+00	0.00000e+00	0.00000e+00	0.00000e+00	0.00000e+00	0.00000e+00	0.00000e+00	0.00000e+00	0.00000e+00	0.00000e+00	0.00000e+00	0.00000e+00	0.00000e+00	0.00000e+00	0.00000e+00	0.00000e+00	0.00000e+00	0.00000e+00	0.00000e+00	0.00000e+00	0.00000e+00	0.00000e+00	0.00000e+00	0.00000e+00	0.00000e+00	0.00000e+00	0.00000e+00	0.00000e+00	0.00000e+00	0.00000e+00	
Factor	1.00000e+00	1.00000e+00	1.00000e+00	1.00000e+00	1.00000e+00	1.00000e+00	1.00000e+00	1.00000e+00	1.00000e+00	1.00000e+00	1.00000e+00	1.00000e+00	1.00000e+00	1.00000e+00	1.00000e+00	1.00000e+00	1.00000e+00	1.00000e+00	1.00000e+00	1.00000e+00	1.00000e+00	1.00000e+00	1.00000e+00	1.00000e+00	1.00000e+00	1.00000e+00	1.00000e+00	1.00000e+00	1.00000e+00	1.00000e+00	1.00000e+00	1.00000e+00	X	X	X	X	X	X	X	X	X	X	X	X	X	X	X	X	

B = Detector Channel
Val Type	B-AC1	B-AC2	B-AC3	B-AC4	B-AC5	B-AC6	B-AC7	B-AC8	B-AC9	B-AC10	B-AC11	B-AC12	B-AC13	B-AC14	B-AC15	B-AC16	B-DC1	B-DC2	B-DC3	B-DC4	B-DC5	B-DC6	B-DC7	B-DC8	B-DC9	B-DC10	B-DC11	B-DC12	B-DC13	B-DC14	B-DC15	B-DC16	B-Ph1	B-Ph2	B-Ph3	B-Ph4	B-Ph5	B-Ph6	B-Ph7	B-Ph8	B-Ph9	B-Ph10	B-Ph11	B-Ph12	B-Ph13	B-Ph14	B-Ph15	B-Ph16	

Term	0.00000e+00	0.00000e+00	0.00000e+00	0.00000e+00	0.00000e+00	0.00000e+00	0.00000e+00	0.00000e+00	0.00000e+00	0.00000e+00	0.00000e+00	0.00000e+00	0.00000e+00	0.00000e+00	0.00000e+00	0.00000e+00	0.00000e+00	0.00000e+00	0.00000e+00	0.00000e+00	0.00000e+00	0.00000e+00	0.00000e+00	0.00000e+00	0.00000e+00	0.00000e+00	0.00000e+00	0.00000e+00	0.00000e+00	0.00000e+00	0.00000e+00	0.00000e+00	-2.67418e+02	-1.23981e+02	-1.44473e+02	-1.81854e+02	-1.05914e+02	-7.68791e+01	-1.57311e+02	-1.62015e+02	-7.09312e+01	-7.89950e+01	-1.71511e+02	-1.71453e+02	-1.84794e+02	-1.77817e+02	-1.04389e+02	-1.50452e+02	
Factor	5.71809e-05	8.97066e-05	3.11288e-05	1.96425e-01	1.13358e-06	8.75478e-07	1.57363e-01	5.65123e-02	1.42736e-06	9.07431e-07	8.42968e-02	3.04734e-02	2.81487e-02	8.63089e-03	1.04281e-06	1.25646e-02	5.48854e-07	5.55714e-07	1.54520e-07	9.50652e-02	6.08120e-09	6.08269e-09	7.27127e-02	2.73195e-02	6.08719e-09	6.08483e-09	3.88846e-02	1.39013e-02	1.32012e-02	4.11566e-03	6.08014e-09	5.73139e-03	X	X	X	X	X	X	X	X	X	X	X	X	X	X	X	X	



#DISTANCE SETTINGS
A = Detector Channel
A-1	A-2	A-3	A-4	A-5	A-6	A-7	A-8	A-9	A-10	A-11	A-12	A-13	A-14	A-15	A-16	

2.5000e+00	3.0000e+00	2.5000e+00	3.0000e+00	2.0000e+00	3.0000e+00	1.5000e+00	3.0000e+00	3.0000e+00	3.0000e+00	3.0000e+00	3.0000e+00	3.0000e+00	3.0000e+00	1.5000e+00	3.0000e+00	

B = Detector Channel
B-1	B-2	B-3	B-4	B-5	B-6	B-7	B-8	B-9	B-10	B-11	B-12	B-13	B-14	B-15	B-16	

1.0000e+01	1.0000e+01	1.0000e+01	1.4400e+00	1.0000e+01	1.0000e+01	1.5100e+00	1.9400e+00	1.0000e+01	1.0000e+01	1.9900e+00	2.4900e+00	2.4100e+00	2.9000e+00	1.0000e+01	2.9800e+00	




#DATA BEGINS
time	group	step	mark	flag	A-AC1	A-AC2	A-AC3	A-AC4	A-AC5	A-AC6	A-AC7	A-AC8	A-AC9	A-AC10	A-AC11	A-AC12	A-AC13	A-AC14	A-AC15	A-AC16	A-DC1	A-DC2	A-DC3	A-DC4	A-DC5	A-DC6	A-DC7	A-DC8	A-DC9	A-DC10	A-DC11	A-DC12	A-DC13	A-DC14	A-DC15	A-DC16	A-Ph1	A-Ph2	A-Ph3	A-Ph4	A-Ph5	A-Ph6	A-Ph7	A-Ph8	A-Ph9	A-Ph10	A-Ph11	A-Ph12	A-Ph13	A-Ph14	A-Ph15	A-Ph16	B-AC1	B-AC2	B-AC3	B-AC4	B-AC5	B-AC6	B-AC7	B-AC8	B-AC9	B-AC10	B-AC11	B-AC12	B-AC13	B-AC14	B-AC15	B-AC16	B-DC1	B-DC2	B-DC3	B-DC4	B-DC5	B-DC6	B-DC7	B-DC8	B-DC9	B-DC10	B-DC11	B-DC12	B-DC13	B-DC14	B-DC15	B-DC16	B-Ph1	B-Ph2	B-Ph3	B-Ph4	B-Ph5	B-Ph6	B-Ph7	B-Ph8	B-Ph9	B-Ph10	B-Ph11	B-Ph12	B-Ph13	B-Ph14	B-Ph15	B-Ph16	aux-1	digaux	

2552.516	1	1	0	768	0.1659	0.24122	0.21291	0.063155	0.10667	0.30905	0.15243	0.26848	0.15	0.11805	0.085553	0.20259	0.23864	0.23926	0.12945	0.3403	-4.3208	-5.0417	-4.3708	-5.1021	-4.9583	-4.4583	-5.4542	-4.8063	-4.5771	-5.2521	-4.6521	-5.225	-5.2208	-4.5917	-5.2917	-4.9396	6.328	205.547	122.930	-47.918	130.917	44.713	168.188	276.062	-64.110	-1.401	162.512	-5.673	273.591	266.798	117.953	223.310	0.0009139	0.00035941	0.00013372	911.73	6.8952e-06	2.8975e-06	906.14	379.07	5.8953e-06	2.8164e-06	392.04	178.75	164.15	86.734	1.69e-06	101.94	9.4285e-05	8.2077e-05	2.2818e-05	851.64	8.8668e-07	9.0969e-07	858.89	354.09	8.9639e-07	8.8899e-07	360.09	162.86	148.82	79.698	9.1106e-07	92.15	17.734	27.185	1.920	-52.199	28.793	87.063	-53.881	-46.866	43.945	91.559	-49.291	-45.170	-43.199	-37.651	101.412	-41.306	-8191	255	
2552.612	1	1	0	0	0.15037	0.24744	0.24017	0.14668	0.040018	0.068073	0.15297	0.13467	0.2034	0.10631	0.20723	0.10424	0.057972	0.43138	0.19721	0.23931	-4.4208	-5.4083	-4.2833	-4.9958	-5.3042	-4.3646	-5.4396	-4.8438	-4.4667	-5.3083	-4.6167	-5.0375	-5.3208	-4.6188	-5.3229	-5.25	246.376	-31.499	-50.181	247.787	192.619	243.095	292.874	151.252	120.911	284.725	-48.718	3.502	202.494	275.076	22.538	261.863	0.00098372	0.00029774	0.00012749	908.99	3.3906e-06	4.4217e-06	900.5	381.86	4.6409e-06	4.7481e-06	395.45	178.11	165.62	87.079	2.7345e-06	102.48	9.2939e-05	8.1771e-05	2.2723e-05	851.82	8.837e-07	8.8356e-07	854.5	355.04	8.9134e-07	8.6894e-07	360.82	162.56	150.19	80.267	8.8147e-07	92.466	24.841	54.127	-18.799	-52.052	36.740	61.739	-53.739	-46.802	90.957	51.506	-49.703	-45.554	-43.024	-37.347	53.005	-41.200	-8191	255	
2552.708	1	1	0	0	0.20299	0.10275	0.034857	0.10913	0.099436	0.037253	0.20394	0.19044	0.18521	0.17486	0.10143	0.044676	0.16274	0.26017	0.13689	0.17582	-4.1729	-5.3833	-4.6687	-4.8604	-5.1771	-4.4792	-5.3729	-5.1917	-4.3417	-5.35	-4.7979	-4.7896	-5.3812	-4.5813	-5.0583	-5.1937	231.991	293.782	36.541	227.504	6.270	177.183	183.113	285.138	165.936	-36.546	209.279	236.817	26.327	254.625	-22.584	-64.583	0.00097291	0.00038549	0.00021465	921.39	6.2194e-06	3.3916e-06	912.19	384.81	4.5697e-06	2.6959e-06	396.4	178.96	165.93	86.938	7.271e-06	101.75	9.0832e-05	8.0418e-05	2.189e-05	858.09	8.7187e-07	8.6264e-07	861.06	358.09	8.8286e-07	8.6118e-07	362.05	162.81	150.36	80.001	8.7996e-07	92.265	27.199	5.932	13.287	-52.211	47.580	105.282	-53.685	-46.700	32.681	70.124	-49.594	-45.400	-43.152	-37.466	46.664	-41.116	-8191	255	
2552.804	1	1	0	0	0.11067	0.28579	0.26492	0.23502	0.10227	0.1879	0.23887	0.1561	0.10859	0.16256	0.18246	0.25173	0.189	0.093122	0.23918	0.16229	-4.1562	-5.2646	-4.7229	-4.7229	-5.2917	-4.475	-5.1708	-5.2271	-4.4313	-5.2354	-4.9375	-4.6854	-5.425	-4.725	-4.9	-5.25	258.083	173.002	-31.311	247.825	112.946	143.661	283.987	-23.922	220.375	223.610	-45.636	280.909	261.842	234.303	28.590	257.023	0.00087053	0.00052778	0.00017561	917.69	4.815e-06	4.9639e-06	909.53	382.8	7.9431e-06	6.9706e-06	395.21	180.62	165.37	86.585	4.1799e-06	102.44	9.0405e-05	8.0229e-05	2.1448e-05	855.89	8.5388e-07	8.5734e-07	861.6	356.5	8.7692e-07	8.7188e-07	362.78	164.32	150.32	79.838	8.7877e-07	92.695	33.719	13.783	46.481	-52.082	57.777	67.209	-53.729	-46.683	67.872	67.623	-49.386	-45.561	-43.247	-37.619	70.402	-41.291	-8191	255	
2552.901	1	1	0	0	0.081622	0.031544	0.07205	0.30331	0.12702	0.17259	0.062931	0.029621	0.19009	0.1095	0.19305	0.12813	0.08183	0.1488	0.081748	0.24863	-3.9979	-5.375	-4.7937	-4.6458	-5.3667	-4.4417	-5.1271	-5.3542	-4.4146	-5.1333	-4.9979	-4.6292	-5.4833	-4.8542	-4.8521	-5.4833	-63.948	36.747	123.475	226.457	50.632	272.542	-34.221	256.935	-46.930	-56.088	199.915	290.800	-27.265	24.033	188.593	119.842	0.00083334	0.00056301	0.00018228	911.18	3.0357e-06	2.9268e-06	915.68	381.81	6.0984e-06	5.8905e-06	397.38	181.29	166.09	86.784	5.6596e-06	102.18	9.2159e-05	8.033e-05	2.172e-05	853.41	8.7396e-07	8.4287e-07	864.46	355.76	8.8971e-07	8.6219e-07	363.84	164.89	150.61	79.875	8.7059e-07	92.312	22.389	20.038	-12.766	-52.135	67.033	114.771	-53.829	-46.675	88.595	65.839	-49.418	-45.064	-43.317	-37.631	-2.623	-41.350	-8191	255	
2552.997	1	1	0	0	0.19158	0.24753	0.069251	0.11271	0.03048	0.19606	0.13905	0.28479	0.11094	0.1225	0.19504	0.18615	0.17653	0.11771	0.067362	0.38613	-4.1708	-4.9812	-4.9354	-4.5396	-5.3958	-4.675	-4.7438	-5.3875	-4.3458	-5.0479	-5.1542	-4.6312	-5.6292	-4.8625	-4.6771	-5.4708	20.628	12.565	4.685	-25.863	-8.023	291.095	-0.576	188.104	104.273	-10.748	-35.192	231.132	262.220	-45.073	74.331	225.315	0.0010793	0.00030393	9.5293e-05	912.77	3.9565e-06	3.5769e-06	904.33	380.24	4.3281e-06	3.8933e-06	392.58	178.66	164.47	86.352	6.0798e-06	101.21	9.0979e-05	7.9171e-05	2.1567e-05	850.68	8.5578e-07	8.3005e-07	856.55	353.26	8.4843e-07	8.3318e-07	360.08	163.43	149.42	79.382	8.7187e-07	91.643	24.569	50.478	11.317	-52.057	9.487	78.788	-53.498	-46.906	38.981	46.848	-49.553	-45.606	-43.037	-37.379	51.806	-41.336	-8191	255	
2553.116	1	1	0	0	0.12207	0.27581	0.097241	0.14859	0.15953	0.25809	0.16061	0.11099	0.023451	0.072252	0.075433	0.21972	0.31164	0.196	0.094927	0.21657	-4.2	-5.0542	-5.1667	-4.6312	-5.2167	-4.875	-4.7229	-5.4938	-4.4688	-5.025	-5.2854	-4.55	-5.2937	-5.0271	-4.5062	-5.5229	195.773	68.948	208.642	-60.714	0.796	-17.922	268.507	221.085	275.685	180.311	44.230	272.023	237.235	256.286	232.072	174.132	0.00084009	0.00030418	0.0001506	904.54	5.472e-06	5.9537e-06	901.35	376.21	6.0672e-06	4.8228e-06	394	180.33	163.93	86.286	2.948e-06	101.96	8.8044e-05	7.632e-05	2.139e-05	845.04	8.4663e-07	8.2339e-07	853.36	351.74	8.4732e-07	8.4646e-07	359.93	163.71	149.08	79.376	8.7596e-07	92.079	35.097	31.152	-4.219	-52.405	71.256	59.183	-53.823	-46.754	98.182	83.405	-49.458	-45.466	-43.149	-37.371	73.812	-41.325	-8191	255	
2553.212	1	1	0	0	0.11572	0.13185	0.21029	0.20647	0.0291	0.083977	0.085801	0.12192	0.16893	0.041368	0.1917	0.19735	0.27623	0.16207	0.082714	0.3003	-4.2604	-4.8771	-5.1917	-4.5958	-5.175	-4.9187	-4.6729	-5.4083	-4.6479	-4.8271	-5.4708	-4.5354	-5.1937	-5.3896	-4.4917	-5.4583	123.205	-12.237	112.570	-63.479	20.536	90.846	190.102	202.601	-50.024	29.049	185.406	225.967	217.428	-33.321	99.018	203.532	0.00086272	0.00030791	0.00013415	907.51	5.6774e-06	3.4409e-06	907.66	378.98	2.5609e-06	2.5672e-06	396.13	181.33	165.72	87.132	2.5613e-06	103.26	8.9026e-05	7.6988e-05	2.1205e-05	846.09	8.443e-07	8.1929e-07	857.29	353.66	8.555e-07	8.3967e-07	363.04	164.9	150.57	80.155	8.8267e-07	93.05	31.658	55.615	-5.901	-52.184	76.560	69.178	-53.709	-46.693	10.869	65.479	-49.554	-45.417	-42.960	-37.488	91.464	-41.315	-8191	255	
2553.308	1	1	0	0	0.16704	0.1552	0.12758	0.1198	0.13781	0.087794	0.026942	0.20893	0.015475	0.09499	0.16754	0.18722	0.28463	0.38366	0.14719	0.26388	-4.3313	-4.825	-5.2833	-4.5604	-5.1125	-4.9646	-4.6562	-5.3208	-4.6229	-4.7438	-5.3042	-4.4625	-5.1021	-5.4104	-4.4833	-5.5396	-31.064	103.114	42.096	49.102	223.176	127.045	185.141	237.873	114.031	97.861	241.525	-34.127	-51.605	255.448	109.632	244.850	0.0010036	0.00036871	0.00017865	914.02	5.5305e-06	3.4456e-06	911.29	382.14	6.188e-06	2.754e-06	399.12	181.72	166.8	87.147	7.3289e-07	102.29	8.8098e-05	7.8845e-05	2.1704e-05	851.96	8.4605e-07	8.4278e-07	865.35	357.14	8.5498e-07	8.4494e-07	366.08	165.92	151.18	80.415	8.6443e-07	92.656	32.834	36.078	0.052	-52.226	50.763	69.647	-53.521	-46.727	91.605	70.533	-49.469	-45.162	-43.125	-37.483	108.309	-41.292	-8191	255	
2553.404	1	1	0	0	0.085707	0.086022	0.25613	0.19144	0.042819	0.097385	0.079223	0.27362	0.20284	0.061083	0.10798	0.19304	0.20071	0.26315	0.17071	0.26237	-4.4792	-4.4854	-5.3583	-4.6083	-5.0167	-5.1167	-4.4958	-5.3875	-4.6792	-4.4854	-5.3792	-4.7417	-4.9354	-5.3792	-4.3917	-5.4104	-19.289	-58.105	69.180	171.285	132.769	189.718	284.459	234.227	-29.805	218.368	-30.132	8.224	267.695	270.028	229.488	261.356	0.0010906	0.00037852	0.00013589	911.43	6.405e-06	3.6344e-06	907.06	379.3	3.1196e-06	2.9566e-06	390.43	179.46	164.74	86.734	1.2904e-06	101.58	8.687e-05	7.7324e-05	2.1306e-05	849.43	8.306e-07	8.2812e-07	856.03	353.54	8.3128e-07	8.4536e-07	359.42	163.51	149.59	79.81	8.5332e-07	91.638	25.831	38.329	55.966	-51.865	41.965	69.449	-54.009	-47.010	79.410	60.672	-49.354	-45.277	-43.300	-37.460	9.649	-41.386	-8191	255	
2553.500	1	1	0	0	0.19797	0.1996	0.23311	0.056091	0.11572	0.14418	0.17403	0.087035	0.20119	0.22078	0.10799	0.019763	0.15061	0.099085	0.17703	0.225	-4.6479	-4.5521	-5.2625	-4.7271	-4.6792	-5.3667	-4.6271	-5.2542	-4.9104	-4.5646	-5.375	-4.8667	-4.7979	-5.5625	-4.4521	-5.1458	263.126	60.989	229.636	142.133	130.743	36.451	196.959	218.501	288.123	258.115	218.913	63.313	-51.689	166.281	95.367	254.566	0.00093488	0.00057783	0.00014071	905.23	9.4921e-06	5.2251e-06	907.76	379.91	4.6265e-06	4.0276e-06	394.48	178.92	166.6	86.992	3.2954e-06	101.98	8.5708e-05	7.592e-05	2.1002e-05	848.78	8.3566e-07	8.168e-07	858.52	354.48	8.3074e-07	8.3547e-07	360.74	163.33	150.8	80.095	8.4539e-07	91.958	27.253	26.290	-21.291	-52.363	69.874	75.272	-53.808	-46.755	59.723	15.024	-49.654	-45.560	-43.145	-37.467	37.913	-41.401	-8191	255	
2553.596	1	1	0	0	0.061174	0.11488	0.091645	0.13704	0.11498	0.2066	0.066969	0.074907	0.13448	0.10122	0.18219	0.14083	0.19925	0.21716	0.27847	0.21201	-4.6979	-4.1854	-5.3042	-4.9208	-4.6687	-5.3583	-4.6042	-5.0042	-5.0417	-4.3583	-5.3833	-4.8396	-4.8396	-5.7312	-4.4688	-5.0958	167.286	162.292	12.091	-50.374	217.133	256.564	234.487	-49.817	160.427	9.225	238.787	155.112	277.548	-41.388	224.939	-57.554	0.0010328	0.00030902	6.358e-05	917.18	3.6274e-06	4.0057e-06	911.45	382.06	6.4138e-06	4.276e-07	397.33	179.45	165.98	87.012	2.3503e-06	101.91	8.8407e-05	7.7228e-05	2.1185e-05	853.32	8.5222e-07	8.3238e-07	861.94	357.09	8.5496e-07	8.5686e-07	362.89	163.77	150.39	79.991	8.6221e-07	91.978	21.135	74.256	23.350	-51.993	75.096	107.785	-53.775	-46.873	145.724	18.779	-49.329	-45.362	-43.331	-37.248	38.377	-41.513	-8191	255	
2553.717	1	1	0	0	0.10708	0.092716	0.048394	0.11554	0.13501	0.20739	0.16731	0.045285	0.13774	0.14513	0.24283	0.088312	0.24037	0.20364	0.13296	0.28602	-4.9313	-4.3708	-5.2417	-5.0333	-4.4646	-5.2708	-4.7375	-4.8479	-5.2854	-4.5146	-5.3938	-5.1396	-4.5583	-5.4771	-4.5708	-4.8604	218.911	125.639	50.020	218.202	134.727	229.423	176.673	154.728	238.364	46.079	220.669	-3.657	275.961	236.883	174.013	254.346	0.00087361	0.00019705	0.00012492	912.89	7.023e-06	4.2134e-06	915.96	382.33	8.5761e-06	5.4668e-06	397.48	180.79	165.67	86.447	2.324e-06	101.34	8.7181e-05	7.7137e-05	2.1184e-05	851.82	8.4681e-07	8.295e-07	864.63	356.14	8.4817e-07	8.4539e-07	363.73	164.4	150.37	79.731	8.3938e-07	91.596	34.085	29.150	19.539	-52.197	68.495	89.472	-53.732	-46.793	94.875	76.847	-49.589	-45.419	-43.151	-37.393	49.513	-41.340	-8191	255	
2553.813	1	1	0	0	0.28469	0.19376	0.1891	0.18612	0.086773	0.12975	0.089845	0.14054	0.21189	0.23457	0.075445	0.36279	0.19663	0.38914	0.15887	0.22344	-4.8417	-4.3958	-5.2333	-5.2083	-4.325	-5.3146	-4.6937	-4.85	-5.2708	-4.4146	-5.1896	-5.0917	-4.5021	-5.5125	-4.8354	-4.8521	-47.149	281.931	232.456	-52.204	198.359	188.241	163.057	147.596	-32.005	220.711	40.741	268.371	-61.859	255.948	168.742	-61.908	0.00099977	0.00058367	0.00010786	910.84	4.3991e-06	5.0005e-06	908.03	379.72	7.0971e-06	5.842e-06	391.67	177.24	164.04	85.052	4.6941e-06	99.365	8.8721e-05	7.6467e-05	2.0987e-05	849.91	8.5697e-07	8.2227e-07	859.55	354.25	8.4291e-07	8.1312e-07	359.66	161.44	148.81	78.565	8.263e-07	89.797	15.943	42.180	4.562	-52.034	57.160	63.461	-53.538	-46.848	92.835	52.526	-49.895	-45.376	-43.296	-37.437	95.987	-41.524	-8191	255	
2553.908	1	1	0	0	0.11766	0.11836	0.21138	0.22646	0.19235	0.15266	0.17644	0.32183	0.30268	0.18518	0.2003	0.053632	0.18459	0.22437	0.15049	0.26957	-4.975	-4.5146	-4.8979	-5.1937	-4.4896	-5.2312	-4.9917	-4.8729	-5.3167	-4.3479	-5.0333	-5.4667	-4.6292	-5.3521	-4.8542	-4.7021	73.123	253.358	-21.852	172.777	263.429	261.524	209.032	266.276	-60.566	228.472	-60.164	17.128	180.202	-4.051	44.138	249.804	0.0008547	0.00049783	0.00011636	910.18	3.0788e-06	5.4458e-06	914.22	379.43	4.0158e-06	3.508e-06	389.95	175.13	162.02	84.782	3.8018e-06	98.348	8.6342e-05	7.3621e-05	2.0889e-05	850.82	8.2562e-07	8.1193e-07	861.58	353.43	8.1544e-07	8.1405e-07	357.35	159.73	147.09	77.921	8.2614e-07	89.153	30.698	30.296	5.799	-52.310	55.685	45.832	-53.889	-46.678	57.953	96.854	-49.493	-45.259	-43.006	-37.663	80.518	-41.404	-8191	255	
2554.004	1	1	0	0	0.10017	0.031326	0.10358	0.17187	0.19109	0.15155	0.080103	0.16101	0.083105	0.13003	0.017872	0.040782	0.09455	0.23019	0.16294	0.025555	-5.0167	-4.5167	-4.8063	-5.2771	-4.2542	-5.3354	-5.0208	-4.6542	-5.4688	-4.6646	-4.8521	-5.3792	-4.55	-5.4292	-4.8292	-4.6	161.892	222.569	87.556	267.052	214.260	218.491	138.791	249.198	272.936	101.794	-1.353	-37.116	218.918	-49.946	222.542	-33.117	0.00090943	0.0004475	0.00012517	918.05	7.5566e-06	3.874e-06	918.13	378.23	3.4162e-06	5.0799e-06	390.71	174.35	160.64	84.318	8.2274e-06	98.616	8.5086e-05	7.4579e-05	2.0496e-05	852.7	8.315e-07	8.029e-07	867.97	352.8	8.2168e-07	8.1775e-07	358.5	158.89	145.42	77.598	8.4152e-07	89.125	35.491	48.472	20.017	-52.140	52.463	85.325	-53.733	-46.950	86.770	53.015	-49.796	-45.404	-43.560	-37.515	58.671	-41.430	-8191	255	
2554.077	1	1	0	0	0.15957	0.24798	0.063362	0.14955	0.064895	0.11147	0.15849	0.16882	0.065973	0.18094	0.14917	0.16537	0.21034	0.12467	0.083482	0.16774	-5.0563	-4.5458	-4.7646	-5.3354	-4.5292	-4.95	-5.1479	-4.525	-5.3125	-4.4729	-4.6479	-5.2854	-4.4938	-5.2208	-5.0271	-4.5729	244.603	-11.428	-1.770	-42.069	271.792	150.629	217.691	184.920	-2.898	-42.536	233.924	241.766	283.913	251.210	-2.075	279.621	0.00098191	0.000402	0.00015814	918.66	3.5055e-06	4.4918e-06	931.88	383.94	3.4698e-06	5.0763e-06	398.79	175.16	161.57	84.106	4.5374e-06	98.509	8.4167e-05	7.4729e-05	2.1507e-05	857.52	8.1698e-07	8.0274e-07	878.82	357.18	8.2034e-07	8.0086e-07	363.57	159.66	146.45	77.469	8.2483e-07	88.907	22.602	6.990	-11.554	-52.237	40.272	44.166	-53.983	-46.970	124.878	45.130	-49.691	-45.461	-43.154	-37.534	71.560	-41.437	-8191	255	
2554.196	1	1	0	0	0.14957	0.12549	0.10758	0.10994	0.092465	0.16825	0.052016	0.16819	0.057588	0.16987	0.20941	0.0084174	0.15723	0.045978	0.015103	0.2264	-5.0875	-4.7833	-4.4896	-5.3542	-4.4146	-4.8729	-5.3042	-4.5687	-5.2417	-4.7146	-4.55	-5.4896	-4.6729	-4.9375	-5.125	-4.4896	152.692	191.659	100.451	233.257	76.783	229.231	266.208	-40.625	-59.037	285.309	195.215	145.129	194.743	57.423	221.569	265.417	0.00093922	0.00040697	0.00015919	920.05	3.5776e-06	4.1952e-06	929.68	381.84	5.3757e-06	4.158e-06	390.49	173.01	159.07	82.959	4.4441e-06	96.29	8.5134e-05	7.3405e-05	2.0731e-05	859.67	8.0789e-07	8.1174e-07	879.93	356.21	8.0774e-07	7.9766e-07	359.64	157.34	144.15	76.189	8.2454e-07	87.11	22.078	17.428	-4.776	-52.352	13.905	59.725	-53.926	-47.025	70.451	86.508	-49.851	-45.240	-43.269	-37.605	49.708	-41.463	-8191	255	
2554.292	1	1	0	0	0.21557	0.056709	0.10351	0.23127	0.0418	0.048106	0.17381	0.30732	0.18358	0.10543	0.085942	0.14063	0.19344	0.10488	0.03756	0.14794	-4.8562	-4.8375	-4.4354	-5.375	-4.6854	-4.5854	-5.2375	-4.5375	-5	-5.0833	-4.5354	-5.3104	-4.7333	-4.6854	-5.0062	-4.7229	237.867	-6.889	153.827	262.914	-9.040	14.945	152.982	194.243	-45.231	22.148	292.927	273.670	250.777	-53.925	144.205	242.121	0.00085437	0.00033041	0.00013416	922.37	3.3288e-06	4.392e-06	926.17	380.88	5.3824e-06	3.5423e-06	393.12	172.19	158.9	82.313	3.0792e-06	96.434	8.2649e-05	7.3133e-05	2.0684e-05	856.49	8.0694e-07	7.9458e-07	878.9	355	8.1969e-07	8.0524e-07	359.4	156.5	144.06	75.827	8.2215e-07	87.088	28.176	22.512	20.380	-52.328	77.651	109.645	-53.980	-47.093	92.675	74.094	-49.852	-45.389	-43.128	-37.485	66.609	-41.173	-8191	255	
2554.388	1	1	0	0	0.015815	0.18644	0.11153	0.049265	0.028053	0.023418	0.069283	0.075395	0.16596	0.076622	0.11083	0.23413	0.14286	0.17188	0.12313	0.083176	-4.7625	-5.0813	-4.4042	-5.3333	-4.8042	-4.65	-5.5312	-4.5687	-4.9333	-5.15	-4.5417	-5.3583	-4.7812	-4.7188	-5.2479	-4.55	144.348	234.041	171.047	9.172	205.759	257.361	62.804	291.225	141.054	212.095	243.102	276.836	69.607	251.418	176.140	245.237	0.0010082	0.00039564	0.00012184	922.48	4.7814e-06	2.7305e-06	940.67	386.79	3.5663e-06	4.3902e-06	396.01	173.56	160.74	83.648	3.7452e-06	97.87	8.5054e-05	7.3816e-05	2.0271e-05	858.54	7.8852e-07	8.0558e-07	889.45	360.65	8.2513e-07	7.9768e-07	362.93	158.37	145.91	76.835	8.1696e-07	88.399	15.943	1.736	29.284	-52.249	94.847	59.347	-54.022	-47.112	130.333	29.756	-49.967	-45.484	-43.287	-37.723	84.848	-41.493	-8191	255	
2554.484	1	1	0	0	0.21652	0.057508	0.21204	0.11475	0.15195	0.073297	0.063415	0.2502	0.078905	0.024891	0.098851	0.1864	0.075936	0.3191	0.056858	0.14319	-4.5687	-5.0979	-4.2583	-5.2917	-4.6771	-4.4271	-5.4604	-4.5896	-4.6271	-5.0646	-4.2896	-5.3187	-4.9979	-4.5521	-5.4042	-4.6146	268.916	-13.639	280.400	-22.336	239.789	63.419	90.857	290.322	14.265	88.015	182.054	44.086	37.480	290.477	175.158	187.306	0.0009239	0.00045985	0.00017755	922.98	4.0643e-06	2.612e-06	946.31	385.74	6.947e-06	3.643e-06	396.24	175.98	161.2	84.107	4.3382e-06	98.294	8.5176e-05	7.2831e-05	2.0754e-05	861.53	8.096e-07	8.1597e-07	891.49	360.33	8.2524e-07	8.1205e-07	362.83	160.22	146.46	77.264	8.1856e-07	89.077	33.924	19.559	-26.291	-52.380	60.514	74.208	-53.979	-47.053	106.919	88.058	-49.618	-45.234	-43.139	-37.510	90.560	-41.444	-8191	255	
2554.605	1	1	0	0	0.18245	0.18712	0.075189	0.023423	0.089292	0.17616	0.31415	0.20463	0.15432	0.2136	0.092081	0.27807	0.11524	0.25486	0.14671	0.1761	-4.4854	-5.3896	-4.3708	-5.0396	-5.0687	-4.3354	-5.4646	-4.7937	-4.7688	-5.2	-4.5354	-5.0354	-5.1438	-4.5979	-5.225	-4.75	43.043	255.460	144.191	118.598	257.644	182.785	245.415	274.289	288.813	16.907	125.959	250.045	224.922	282.556	-37.360	247.474	0.00093959	0.00036775	0.00017023	919.15	5.2512e-06	1.7174e-06	939.74	382.73	6.7597e-06	3.0249e-06	393.64	174.83	161.8	83.141	5.3429e-06	96.903	8.7306e-05	7.4364e-05	2.0533e-05	856.14	8.0328e-07	8.2709e-07	888.82	356.95	8.4401e-07	7.9932e-07	360.54	159.19	146.23	76.407	8.2423e-07	87.609	36.826	-15.300	-13.569	-52.318	38.188	61.777	-54.021	-47.280	109.508	63.110	-49.730	-45.510	-43.281	-37.729	72.047	-41.603	-8191	255	
2554.677	1	1	0	0	0.096679	0.26061	0.11185	0.12848	0.16945	0.10385	0.14029	0.10482	0.23487	0.024021	0.073572	0.18114	0.11575	0.056077	0.20094	0.16134	-4.3208	-5.2771	-4.3979	-4.9104	-5.075	-4.3542	-5.375	-4.9437	-4.4729	-5.4292	-4.5917	-4.9729	-5.2667	-4.3958	-5.1583	-4.9125	79.345	91.572	-28.233	-44.298	-8.670	37.985	233.169	17.479	-4.266	-34.798	-40.904	-44.973	131.719	80.848	179.706	242.280	0.00084646	0.00041916	0.00011064	908.41	4.7752e-06	2.3311e-06	936.49	384.46	1.859e-06	4.4858e-06	392.69	175.78	161.96	83.585	6.4582e-06	98.228	8.6737e-05	7.5437e-05	2.0532e-05	851.79	8.2001e-07	8.2166e-07	883.38	358.88	8.3443e-07	8.0978e-07	361.21	160.22	147.41	77.09	8.2469e-07	88.591	26.072	30.686	-0.884	-52.346	41.105	25.805	-54.004	-47.147	106.544	68.713	-49.552	-45.436	-43.290	-37.602	59.395	-41.679	-8191	255	
2554.797	1	1	0	0	0.30412	0.14326	0.19597	0.20468	0.096047	0.19173	0.22824	0.27826	0.15645	0.10435	0.22765	0.20515	0.086742	0.097787	0.075818	0.19441	-4.0979	-5.2375	-4.4313	-4.8583	-4.9646	-4.3042	-5.1062	-4.9979	-4.3417	-5.3854	-4.7167	-4.6625	-5.2479	-4.6729	-5.1562	-5.1417	-44.569	232.151	101.965	-59.158	261.228	158.555	210.806	223.980	-44.392	29.189	90.327	264.030	-59.267	152.846	-29.577	215.299	0.00089033	0.00039329	0.00013816	915.08	2.9385e-06	2.8701e-06	940.57	386.02	3.4358e-06	5.9376e-06	398.31	177.48	163.79	85.609	2.8412e-06	100.06	8.4657e-05	7.337e-05	2.0442e-05	853.84	8.0243e-07	7.9952e-07	888.72	360.45	8.0891e-07	7.946e-07	363.16	161.95	148.37	78.705	8.0581e-07	90.459	28.968	26.303	3.244	-52.401	49.264	65.130	-54.234	-47.150	106.888	92.156	-49.672	-45.830	-43.343	-37.663	93.813	-41.599	-8191	255	
2554.894	1	1	0	0	0.11362	0.1586	0.13155	0.1677	0.11384	0.22366	0.094546	0.14501	0.074729	0.24802	0.11831	0.22262	0.25539	0.14244	0.21766	0.14535	-4.2208	-5.2438	-4.7063	-4.8042	-5.2812	-4.3583	-5.1292	-5.1896	-4.3583	-5.3833	-4.8271	-4.7458	-5.2104	-4.5583	-4.9812	-5.3729	23.312	130.295	130.825	-27.102	28.612	200.905	4.558	240.521	251.475	219.249	152.418	236.846	8.653	251.544	31.006	237.352	0.00083681	0.00053793	0.00015517	918.39	3.9121e-06	3.7114e-06	949.07	388.95	7.3774e-06	3.3004e-06	400.87	179.09	166.31	85.644	5.9172e-06	100.11	8.5587e-05	7.2896e-05	2.0728e-05	855.93	8.0856e-07	8.129e-07	894.11	362.49	8.2311e-07	8.0812e-07	366.22	163.12	150.24	78.845	8.2734e-07	90.416	37.834	22.083	-0.781	-52.521	41.036	81.437	-54.296	-47.204	112.075	105.574	-49.646	-45.793	-43.422	-37.850	65.450	-41.485	-8191	255	
2554.990	1	1	0	0	0.22781	0.080742	0.032174	0.037534	0.10398	0.1962	0.087757	0.29777	0.075571	0.15326	0.11496	0.1828	0.085841	0.29435	0.15196	0.070265	-4.05	-5.2771	-4.7875	-4.6167	-5.4	-4.5729	-4.9417	-5.2521	-4.4167	-5.2979	-5.1021	-4.5625	-5.4542	-4.6833	-4.6958	-5.3042	5.858	-50.283	40.379	264.936	223.437	200.284	-11.087	232.138	214.483	293.724	233.425	266.612	13.774	-38.067	-10.611	221.723	0.00098386	0.00045351	9.1547e-05	917.51	4.2301e-06	3.3864e-06	945.17	388.46	6.6383e-06	7.3913e-06	398.31	177.07	163.83	83.818	5.8063e-06	97.83	8.565e-05	7.3929e-05	2.0763e-05	857.74	8.0189e-07	8.1056e-07	893.81	362.28	8.3325e-07	8.0919e-07	363.64	161.29	148.32	77.184	8.3636e-07	88.338	26.999	21.842	-30.585	-52.423	39.403	77.798	-53.952	-47.152	51.598	63.974	-49.648	-45.734	-43.282	-37.547	41.723	-41.331	-8191	255	
2555.086	1	1	0	0	0.15785	0.1547	0.22318	0.21372	0.065143	0.092746	0.3002	0.18087	0.025692	0.065565	0.040772	0.3072	0.15871	0.15575	0.18501	0.28654	-4.0521	-5.1229	-4.8396	-4.4375	-5.1479	-4.3708	-4.8125	-5.2875	-4.4458	-5.0875	-5.0771	-4.3938	-5.3146	-4.7438	-4.6	-5.4479	101.339	256.134	217.981	4.768	135.335	90.086	239.707	229.975	-4.669	6.838	145.738	255.916	4.349	227.002	-59.973	234.200	0.00078307	0.00031319	0.00022166	910.15	5.0405e-06	3.3089e-06	931.25	383.2	5.6615e-06	6.1867e-06	391.12	174.83	161.26	83.172	2.7182e-06	97.271	8.3484e-05	7.3462e-05	2.063e-05	847.71	8.0179e-07	8.1542e-07	879.29	356.33	8.1112e-07	8.0424e-07	358.36	159.15	146.07	76.553	8.4043e-07	87.663	24.489	4.092	33.396	-52.004	17.339	84.688	-53.956	-47.085	58.566	105.474	-49.433	-45.968	-43.470	-37.493	18.900	-41.575	-8191	255	
2555.205	1	1	0	0	0.18701	0.13007	0.12957	0.13747	0.10973	0.16401	0.036454	0.16012	0.47275	0.15576	0.18428	0.15568	0.13442	0.02956	0.18012	0.15369	-3.9813	-4.9083	-4.8792	-4.5542	-5.2333	-4.7146	-4.6813	-5.5188	-4.4229	-4.9271	-5.2542	-4.45	-5.3667	-5.0271	-4.5208	-5.5896	-5.535	1.782	285.076	219.214	146.449	273.396	11.442	270.010	-11.474	-63.149	40.621	-60.565	204.469	109.077	60.350	-60.825	0.00093102	0.00027084	0.00017775	911.15	6.2941e-07	1.6459e-06	933.1	382.96	7.2077e-06	3.1882e-06	394.99	175.33	162.34	84.092	4.0002e-06	97.958	8.2766e-05	7.2773e-05	2.0182e-05	847.67	7.9711e-07	7.9126e-07	883.15	357.2	8.1245e-07	8.0174e-07	361.19	159.84	147.29	77.209	8.1307e-07	88.281	37.177	53.426	-0.527	-52.263	17.044	15.020	-53.770	-46.837	101.197	70.292	-49.556	-45.305	-43.056	-37.250	68.781	-41.362	-8191	255	
2555.301	1	1	0	0	0.19726	0.1446	0.037114	0.088052	0.04944	0.31834	0.06526	0.096694	0.060071	0.15359	0.050752	0.21106	0.037734	0.29832	0.093174	0.25662	-4.2042	-4.8667	-5.125	-4.4583	-5.0646	-4.9917	-4.5896	-5.5437	-4.6	-4.7375	-5.2292	-4.5625	-5.3479	-5.1813	-4.3021	-5.3562	72.483	-31.018	227.777	124.103	153.599	282.208	193.907	145.570	36.356	183.855	217.215	208.765	266.863	-44.219	109.289	265.763	0.0010284	0.00035509	0.00011659	917.55	7.5478e-06	3.9586e-06	940.21	385.24	2.8606e-06	3.6802e-06	391.23	175.01	160.64	83.349	4.3661e-06	97.307	8.4087e-05	7.2844e-05	2.0227e-05	853.62	8.1009e-07	7.895e-07	886.18	357.68	8.2032e-07	8.1078e-07	359.06	159.03	145.8	76.733	8.3546e-07	88.082	29.005	44.282	4.549	-52.546	55.751	22.387	-53.984	-46.916	71.996	82.646	-49.340	-45.449	-43.483	-37.017	88.148	-41.239	-8191	255	
2555.373	1	1	0	0	0.16824	0.048959	0.11056	0.083081	0.15676	0.12818	0.10903	0.21146	0.042911	0.015277	0.15249	0.067724	0.28981	0.058686	0.15727	0.1572	-4.2771	-4.8021	-5.2354	-4.5104	-5.0521	-5.0833	-4.5896	-5.4146	-4.6937	-4.7417	-5.4125	-4.3396	-4.9896	-5.3708	-4.3938	-5.3771	65.427	35.888	279.175	148.025	197.877	195.655	290.632	181.164	144.604	-18.856	236.497	-52.955	269.593	291.095	-19.143	286.477	0.0009418	0.00062053	8.1908e-05	916.41	3.4887e-06	3.2663e-06	937.41	382.6	4.9872e-06	3.3232e-06	391.8	174.52	161.12	83.177	3.8229e-06	97.659	8.437e-05	7.4744e-05	2.0845e-05	849.74	8.2853e-07	8.0963e-07	884.69	355.93	8.206e-07	8.1359e-07	359.75	159.59	146.2	76.821	8.2065e-07	88.226	19.364	-13.134	6.833	-52.194	45.728	88.467	-53.534	-46.760	102.616	87.567	-49.539	-45.466	-43.017	-37.284	56.028	-41.036	-8191	255	
2555.493	1	1	0	0	0.16966	0.23637	0.11962	0.22059	0.082948	0.12609	0.12438	0.1966	0.022595	0.12488	0.19972	0.15661	0.08194	0.40622	0.1456	0.050025	-4.4083	-4.6562	-5.2042	-4.5625	-4.8833	-5.1438	-4.4729	-5.3	-4.8271	-4.5062	-5.3417	-4.6125	-5.0813	-5.4271	-4.3562	-5.3625	59.455	-17.522	-62.677	-36.986	45.460	178.039	37.816	240.323	97.524	125.346	-21.125	-14.993	-50.667	-41.855	57.850	218.805	0.00095375	0.00046535	0.00022418	915.89	6.3041e-06	2.4604e-06	935.71	387.28	7.3189e-06	4.8452e-06	394.91	176.87	163.59	84.413	3.8623e-06	97.817	8.5227e-05	7.4825e-05	2.0647e-05	850.37	8.3497e-07	7.9624e-07	882.88	359.77	8.0816e-07	7.9784e-07	361.24	160.94	148.16	77.588	8.1959e-07	88.391	25.585	71.646	0.462	-51.589	48.667	52.513	-53.602	-46.762	70.586	87.560	-49.068	-45.444	-42.847	-36.922	43.573	-41.052	-8191	255	
2555.589	1	1	0	0	0.29105	0.23414	0.24777	0.078836	0.15998	0.10675	0.3074	0.20589	0.093453	0.10668	0.024369	0.16321	0.14416	0.25687	0.20727	0.23313	-4.7688	-4.4313	-5.2875	-4.6896	-4.5813	-5.1646	-4.5896	-5.1375	-4.9542	-4.5437	-5.5292	-4.7812	-4.7208	-5.4021	-4.4417	-5.1271	228.326	-51.567	-26.387	247.841	258.845	29.189	180.282	247.509	202.644	229.073	94.315	-40.369	231.491	282.579	62.658	273.963	0.0009839	0.00041336	0.00016987	906.88	6.7851e-06	5.6851e-06	932.51	385.26	6.9536e-06	6.3341e-06	396.83	177.83	163.85	83.264	6.1998e-06	97.373	8.5144e-05	7.4966e-05	2.034e-05	847.16	8.167e-07	8.0944e-07	880.43	359.26	8.2261e-07	8.261e-07	361.89	161.53	148.49	76.594	8.2513e-07	87.912	23.923	11.706	21.176	-51.754	45.197	60.997	-53.357	-46.625	101.171	83.711	-48.983	-45.081	-42.729	-36.990	66.044	-40.752	-8191	255	
2555.685	1	1	0	0	0.20292	0.076147	0.15513	0.22847	0.19435	0.13936	0.18548	0.09942	0.062435	0.1252	0.27279	0.25615	0.14695	0.33273	0.17043	0.25763	-4.75	-4.4354	-5.2583	-4.7271	-4.6854	-5.3625	-4.6312	-5.1562	-5.0437	-4.3063	-5.4104	-4.7167	-4.6771	-5.4437	-4.3542	-5.0813	222.042	201.986	-23.804	230.988	58.614	246.022	222.882	-11.137	152.071	101.665	-47.208	244.253	291.231	285.533	254.953	280.880	0.0010822	0.00036994	0.0001272	904.84	6.4379e-06	3.6576e-06	932.12	384.31	3.7563e-06	2.6416e-06	399.23	179.78	165.36	85.156	1.5496e-06	99.296	8.652e-05	7.6874e-05	2.0842e-05	842.18	8.2651e-07	7.9976e-07	882.36	358.52	8.2077e-07	8.1438e-07	364.24	163.58	149.51	78.117	8.3973e-07	89.774	27.692	43.151	12.469	-51.724	34.587	74.362	-53.366	-46.483	151.840	81.128	-49.321	-45.111	-42.805	-37.138	61.969	-41.108	-8191	255	
2555.806	1	1	0	0	0.15278	0.20821	0.13586	0.24043	0.074639	0.15697	0.047723	0.26303	0.078898	0.081634	0.11438	0.16115	0.10908	0.17378	0.1825	0.12781	-4.9104	-4.2729	-5.2479	-5	-4.5354	-5.2125	-4.4292	-4.9292	-5.1875	-4.2792	-5.2708	-4.9771	-4.5	-5.4521	-4.6146	-4.9396	151.988	100.467	44.598	257.781	97.695	269.524	71.408	256.149	109.840	-17.692	258.941	-56.050	155.050	-21.400	-4.334	243.881	0.0011003	0.00024302	0.00010268	909.92	5.4185e-06	3.3684e-06	942.27	388.99	3.5609e-06	3.9629e-06	399.83	181.24	165.51	85.686	2.2266e-06	99.784	8.6316e-05	7.43e-05	2.0642e-05	848.55	8.3529e-07	8.1142e-07	889.96	362.36	8.3605e-07	8.2148e-07	366.4	164.82	149.97	78.683	8.4924e-07	90.079	21.950	7.490	50.074	-51.736	19.056	62.622	-53.516	-46.506	111.798	83.457	-49.034	-45.236	-42.891	-37.049	15.623	-41.184	-8191	255	
2555.901	1	1	0	0	0.15135	0.23169	0.094169	0.12044	0.2005	0.17319	0.23653	0.15146	0.14303	0.094456	0.20759	0.20727	0.34215	0.32835	0.2379	0.20736	-4.8854	-4.3833	-5.125	-5.2104	-4.5083	-5.2188	-4.7562	-4.8021	-5.2479	-4.2312	-5.0542	-5.0729	-4.5875	-5.5312	-4.5417	-4.7812	-9.922	56.811	35.854	229.980	154.125	-26.809	237.223	220.247	32.352	34.475	293.834	-57.793	237.396	237.623	37.941	200.454	0.00082332	0.00055927	4.8772e-05	905.67	6.6244e-06	2.731e-06	937.93	386.61	5.2408e-06	2.5897e-06	395.14	177.8	163.71	84.909	3.1369e-06	98.492	8.719e-05	7.6696e-05	2.1213e-05	845.27	8.4593e-07	8.0545e-07	883.11	359.65	8.4277e-07	8.1679e-07	361.76	162.05	148.44	78.28	8.429e-07	89.13	30.963	12.427	-20.286	-51.578	57.827	86.011	-53.404	-46.590	41.945	98.286	-49.226	-45.062	-42.906	-37.203	59.411	-40.999	-8191	255	
2555.974	1	1	0	0	0.17992	0.078431	0.11574	0.11364	0.093021	0.16978	0.080353	0.018337	0.12615	0.26504	0.20871	0.3169	0.11362	0.17243	0.11158	0.14308	-4.9896	-4.425	-5.0833	-5.2354	-4.3792	-5.3625	-4.875	-4.6917	-5.1771	-4.625	-5.0667	-5.3167	-4.4271	-5.2937	-4.9646	-4.6271	96.431	272.689	196.402	225.906	294.541	188.051	267.800	62.030	28.626	55.144	174.366	278.251	287.731	245.209	241.552	281.841	0.0010838	0.00049168	0.00016957	904.96	4.1195e-06	6.7762e-06	933.69	384.96	2.0588e-06	3.716e-06	393.04	177.7	164.48	84.534	4.2657e-06	98.313	8.4775e-05	7.4375e-05	2.0971e-05	843.65	8.341e-07	8.2745e-07	880.02	358.4	8.2716e-07	8.311e-07	361	161.91	148.68	77.865	8.3213e-07	88.784	28.722	10.200	3.126	-51.625	65.804	57.144	-53.269	-46.468	67.911	85.318	-49.414	-45.021	-43.180	-37.111	83.698	-41.307	-8191	255	
2556.070	1	1	0	0	0.23682	0.068416	0.086919	0.1533	0.072325	0.22947	0.11757	0.30227	0.15079	0.012481	0.068391	0.19062	0.19786	0.17145	0.10273	0.39778	-5.0604	-4.5604	-4.9292	-5.2604	-4.2979	-5.3021	-5.0542	-4.6062	-5.3604	-4.4917	-4.9792	-5.3417	-4.5938	-5.2583	-4.9437	-4.5979	253.218	287.053	7.088	170.043	274.845	-18.958	273.396	265.209	2.299	252.799	55.151	274.503	279.275	272.432	-20.909	243.484	0.00097803	0.00043544	0.00016601	910.4	6.4952e-06	3.8605e-06	935.49	383.81	4.7541e-06	2.3347e-06	396.43	177.79	163.12	84.39	4.2747e-06	98.306	8.5004e-05	7.5845e-05	2.1193e-05	847.41	8.3633e-07	8.2635e-07	884.31	358.07	8.3436e-07	8.1893e-07	363.26	161.88	147.91	77.595	8.4306e-07	88.73	36.469	39.958	2.768	-51.936	66.058	43.520	-53.530	-46.547	164.272	76.589	-48.879	-45.126	-42.910	-37.181	29.030	-40.937	-8191	255	
2556.166	1	1	0	0	0.13401	0.22407	0.072791	0.12529	0.11759	0.074399	0.22983	0.29272	0.11268	0.22477	0.077654	0.032933	0.1317	0.16828	0.058426	0.37491	-5.1292	-4.7729	-4.5958	-5.2708	-4.3229	-4.9604	-5.2146	-4.4625	-5.4208	-4.7271	-4.7229	-5.175	-4.5667	-5.2271	-5.025	-4.5729	147.992	240.910	18.637	55.708	245.799	-47.708	148.932	235.960	180.288	235.550	230.444	209.144	207.420	-55.873	86.628	234.386	0.00086281	0.00044219	0.0001281	910.04	6.0145e-06	2.4619e-06	937.58	385.79	8.8696e-06	4.2858e-06	398.3	180.21	165.12	85.215	4.882e-06	98.756	8.7046e-05	7.5501e-05	2.1565e-05	847.94	8.5352e-07	8.3752e-07	886.11	359.68	8.4845e-07	8.3376e-07	365.79	163.57	149.37	78.441	8.4011e-07	89.533	25.623	41.560	12.619	-51.994	27.181	110.279	-53.691	-46.709	95.500	66.749	-49.379	-45.154	-42.941	-37.203	51.037	-40.999	-8191	255	
2556.285	1	1	0	0	0.12031	0.13358	0.044033	0.13519	0.18529	0.082537	0.082935	0.11866	0.017717	0.18826	0.058436	0.025654	0.094631	0.40595	0.041022	0.050953	-5.0375	-4.8271	-4.575	-5.4125	-4.4271	-4.8917	-5.3021	-4.5563	-5.2479	-4.8729	-4.5312	-5.5813	-4.7042	-4.9625	-5.2396	-4.6396	232.280	180.238	155.877	291.035	278.113	238.483	241.328	221.162	95.649	164.966	227.134	245.940	19.501	262.123	100.880	26.597	0.0010772	0.0003777	0.00013124	911.61	5.004e-06	5.6332e-06	941.16	389.73	2.6881e-06	3.7524e-06	396.76	179.64	165.17	85.462	4.8694e-06	99.022	8.7007e-05	7.5979e-05	2.1208e-05	851.58	8.3547e-07	8.3585e-07	890.4	363.3	8.2928e-07	8.1178e-07	364.22	163.01	149.42	78.797	8.3141e-07	89.619	22.494	-9.433	37.335	-51.767	42.610	99.159	-53.428	-46.661	136.397	75.661	-49.300	-45.156	-42.813	-36.925	89.347	-41.384	-8191	255	
2556.381	1	1	0	0	0.28338	0.081678	0.14897	0.25368	0.11066	0.085029	0.075079	0.304	0.18513	0.18303	0.11648	0.30173	0.43958	0.21766	0.23987	0.11047	-4.9667	-4.8688	-4.4	-5.4417	-4.4229	-4.6646	-5.4917	-4.4938	-4.9958	-4.8792	-4.5646	-5.3625	-4.6813	-4.8187	-5.225	-4.6458	119.976	193.181	-53.137	225.785	48.530	181.656	277.690	222.485	63.669	56.218	186.831	275.841	-62.115	292.917	84.605	225.823	0.0010919	0.00038197	8.3651e-05	918.58	4.9776e-06	5.243e-06	942.76	388.84	5.2549e-06	3.8218e-06	398.59	179.7	165.13	86.138	1.9154e-06	99.983	8.5477e-05	7.4904e-05	2.0778e-05	855.35	8.1954e-07	8.0901e-07	889.17	362.39	8.2721e-07	8.0301e-07	364.59	163.1	149.45	79.19	8.0827e-07	90.184	20.687	20.418	-23.329	-51.756	38.410	101.915	-53.729	-46.642	39.845	48.528	-49.043	-45.185	-42.680	-37.268	120.158	-41.193	-8191	255	
2556.477	1	1	0	0	0.23682	0.25175	0.14121	0.12119	0.14393	0.067259	0.17455	0.21505	0.052437	0.10773	0.25409	0.24715	0.21183	0.19653	0.10072	0.16151	-4.7521	-5.0583	-4.4812	-5.3979	-4.6333	-4.5833	-5.4688	-4.6479	-4.775	-5.0104	-4.4187	-5.4208	-4.8854	-4.5979	-5.3042	-4.6813	191.256	102.667	16.195	216.091	137.996	41.165	181.712	6.422	-38.947	-57.604	-23.637	239.162	287.000	292.169	49.149	254.762	0.00087541	0.00056018	0.00011319	911.63	4.6707e-06	2.2658e-06	946.92	390.44	6.8713e-06	6.2167e-06	400.16	180.5	165.24	84.872	3.2677e-06	99.078	8.6138e-05	7.5393e-05	2.0776e-05	851.83	8.2062e-07	8.044e-07	892.53	363.1	8.3203e-07	8.0813e-07	366.53	163.98	149.47	78.202	8.1314e-07	89.377	33.570	42.244	20.756	-52.052	37.925	58.274	-53.235	-46.533	83.842	71.217	-49.281	-45.091	-42.818	-36.995	40.390	-40.988	-8191	255	
2556.574	1	1	0	0	0.016659	0.1209	0.075597	0.15927	0.15618	0.20453	0.18405	0.070254	0.1398	0.073662	0.1602	0.11167	0.20895	0.20445	0.073088	0.2883	-4.5271	-5.0104	-4.2854	-5.2104	-4.8854	-4.6979	-5.4833	-4.6687	-4.7646	-5.2208	-4.5854	-5.2396	-5.1521	-4.6562	-5.2646	-4.8125	143.807	237.474	57.439	250.296	240.001	73.498	210.511	205.644	-47.960	17.056	291.135	35.807	218.537	-25.271	-11.205	230.474	0.00087793	0.00042172	0.00011811	911.96	3.6876e-06	4.9398e-06	947.8	388.29	4.342e-06	4.8534e-06	401.38	180.23	165.65	84.408	1.5605e-06	98.353	8.4737e-05	7.2245e-05	2.0472e-05	853.38	8.0054e-07	8.0471e-07	895.96	362.27	8.2311e-07	7.9776e-07	367.3	164.2	149.39	77.573	8.1375e-07	88.88	31.029	24.720	9.325	-51.985	67.632	41.220	-53.664	-46.649	69.071	85.988	-49.062	-45.227	-42.703	-37.033	25.262	-40.924	-8191	255	
2556.670	1	1	0	0	0.062476	0.077991	0.045045	0.21503	0.1583	0.081395	0.1199	0.16804	0.095294	0.19638	0.13834	0.11199	0.10949	0.14565	0.17891	0.15508	-4.6188	-5.3354	-4.4125	-5.0896	-4.8583	-4.3688	-5.5083	-4.7729	-4.6271	-5.1958	-4.7188	-5.2167	-5.2604	-4.4708	-5.25	-4.8792	-7.124	35.464	222.996	275.977	3.857	-50.652	245.697	-48.531	226.813	226.159	154.011	175.923	221.211	263.804	167.542	240.392	0.001046	0.00039201	0.00013907	918.91	2.4469e-06	3.7035e-06	945.47	387.29	5.6925e-06	4.5939e-06	396.05	176.45	163.08	83.951	6.0097e-06	97.304	8.4642e-05	7.2473e-05	2.0474e-05	854.22	8.1085e-07	8.1195e-07	892.87	360.7	8.3356e-07	7.9298e-07	362.83	160.88	147.86	77.269	8.2133e-07	87.829	23.011	20.682	-35.972	-51.871	13.175	39.086	-53.453	-46.393	131.217	88.428	-49.223	-45.147	-42.791	-37.048	54.045	-40.951	-8191	255	
2556.766	1	1	0	0	0.1645	0.13544	0.18764	0.13594	0.11919	0.045991	0.14527	0.22982	0.28243	0.21946	0.054977	0.12105	0.12534	0.15449	0.21349	0.20098	-4.2146	-5.2875	-4.5417	-5.0437	-5.0667	-4.3688	-5.3333	-4.9146	-4.5083	-5.3542	-4.6583	-5.1479	-5.1083	-4.5542	-5.1583	-5.1854	200.934	183.296	63.096	279.989	274.021	285.608	-30.645	275.971	191.375	13.480	247.413	264.413	250.521	202.547	62.921	183.071	0.00091074	0.00044959	0.00016381	911.92	5.5396e-06	2.8825e-06	945.92	389.82	3.0071e-06	2.7139e-06	397.88	177.53	163.51	84.454	2.5124e-06	98.123	8.5294e-05	7.1755e-05	2.055e-05	852.24	7.9379e-07	8.0014e-07	892.17	362.17	8.0377e-07	7.8703e-07	363.93	161.51	148.24	77.851	8.1848e-07	88.523	38.119	46.875	-16.813	-52.021	64.669	80.969	-53.578	-46.581	86.830	83.072	-48.963	-45.043	-42.743	-37.089	61.518	-41.121	-8191	255	
2556.886	1	1	0	0	0.18701	0.26297	0.030613	0.21277	0.063961	0.133	0.28633	0.22596	0.15833	0.23002	0.18391	0.17332	0.03659	0.41958	0.20551	0.23894	-4.1042	-5.3292	-4.5771	-4.8708	-5.1875	-4.3542	-5.2042	-5.1958	-4.4563	-5.375	-4.7104	-4.7625	-5.3812	-4.5188	-4.9042	-5.2521	66.656	90.267	283.946	233.465	-16.748	150.874	251.330	220.889	278.786	242.081	129.006	223.624	268.944	291.187	-7.764	258.960	0.00084961	0.0003729	0.00017782	928.12	4.5296e-06	2.7465e-06	950.15	389.72	5.6157e-06	5.2943e-06	399.52	178.17	163.82	84.668	5.1058e-06	98.211	8.3777e-05	7.2384e-05	2.0252e-05	859.07	7.9747e-07	8.0654e-07	898.03	363.48	8.1521e-07	7.9795e-07	364.83	161.61	148.2	77.876	8.2671e-07	88.753	35.141	69.260	10.495	-51.880	13.675	53.845	-53.319	-46.537	57.073	43.095	-49.349	-45.295	-42.834	-37.033	23.727	-40.883	-8191	255	
2556.981	1	1	0	0	0.13988	0.024637	0.14532	0.37605	0.17569	0.13069	0.17952	0.26962	0.12664	0.05821	0.16016	0.059597	0.11537	0.23996	0.17074	0.11189	-4.2458	-5.2708	-4.6062	-4.7625	-5.2333	-4.4313	-5.2021	-5.2104	-4.5125	-5.1833	-4.8229	-4.7354	-5.3771	-4.6458	-4.95	-5.3375	156.883	148.670	111.592	-35.683	265.732	143.657	214.232	280.444	21.751	252.433	-50.620	222.313	263.324	233.862	47.178	139.627	0.00088346	0.00058375	0.00020437	917.16	6.1627e-06	1.6406e-06	951.33	389.8	6.0877e-06	5.9174e-06	400.4	178.84	163.98	84.871	4.033e-06	99.421	8.4958e-05	7.3931e-05	2.0612e-05	857.43	8.0392e-07	8.1106e-07	899.69	363.56	8.2622e-07	8.0217e-07	365.88	162.35	148.44	78.208	8.3084e-07	89.695	30.426	11.814	22.610	-52.003	62.409	112.595	-53.459	-46.468	125.690	70.646	-49.340	-45.253	-42.740	-36.920	74.278	-41.033	-8191	255	
2557.077	1	1	0	0	0.19024	0.18617	0.11418	0.13222	0.028723	0.040956	0.27467	0.20439	0.059003	0.15838	0.087148	0.17864	0.090564	0.1495	0.098516	0.20313	-3.8812	-5.2042	-4.9771	-4.5687	-5.3271	-4.4896	-4.9417	-5.2438	-4.3938	-5.2021	-4.9979	-4.6167	-5.3875	-4.8229	-4.7688	-5.3958	-47.030	-19.766	16.700	0.038	149.202	225.006	267.850	217.813	176.802	166.937	211.546	232.202	194.459	-8.351	93.016	254.055	0.0010496	0.00052013	7.1383e-05	928.44	3.6714e-06	4.2224e-06	957.77	394.17	6.4111e-06	3.4242e-06	402.23	177.79	164.54	85.063	5.3988e-06	98.523	8.5963e-05	7.5067e-05	2.0747e-05	862.82	8.1437e-07	8.1156e-07	902.73	366.6	8.3377e-07	8.082e-07	366.97	162.09	149.29	78.498	8.3294e-07	88.977	29.982	5.934	-5.416	-51.675	9.592	122.837	-53.543	-46.335	136.627	81.547	-49.176	-45.039	-42.647	-36.979	41.552	-41.092	-8191	255	
2557.198	1	1	0	0	0.099966	0.11515	0.15896	0.12421	0.22845	0.15239	0.31247	0.13976	0.13241	0.12713	0.20251	0.063862	0.13075	0.16144	0.17048	0.14886	-4.1646	-5.0625	-4.9104	-4.5917	-5.2646	-4.6042	-4.8	-5.4458	-4.3042	-5.0542	-5.0062	-4.4271	-5.3833	-4.7979	-4.5938	-5.4458	237.404	44.163	148.902	237.995	-12.022	-0.573	281.153	182.757	185.797	-42.332	1.794	92.596	-40.069	258.233	10.615	-0.527	0.0010001	0.00015029	0.00010295	925.41	4.2965e-06	3.7584e-06	946.51	392.78	5.0949e-06	5.2071e-06	398.57	178.06	164.84	86.186	3.7036e-06	99.576	8.5882e-05	7.4422e-05	2.0788e-05	862.85	8.1665e-07	8.1006e-07	895.17	366.03	8.3296e-07	8.1603e-07	364.74	162.24	149.58	79.316	8.4599e-07	89.832	16.945	61.665	-12.541	-51.949	56.768	108.970	-53.724	-46.627	64.341	52.392	-49.358	-45.342	-42.625	-37.111	52.875	-40.885	-8191	255	
2557.269	1	1	0	0	0.19312	0.14754	0.24819	0.23401	0.076468	0.21929	0.087538	0.10878	0.083314	0.18761	0.11675	0.21305	0.093587	0.22996	0.19902	0.085571	-4.0062	-4.8604	-5.1521	-4.3208	-5.0375	-4.7271	-4.6417	-5.3708	-4.5271	-4.8479	-5.1604	-4.5	-5.3604	-4.9396	-4.675	-5.6125	54.968	79.800	179.037	-61.686	169.303	177.494	275.709	282.956	54.126	258.631	234.649	-57.625	207.045	68.800	248.763	291.803	0.00079421	0.00049055	0.00011614	925.87	4.8311e-06	2.947e-06	953.22	398.92	3.989e-06	2.9967e-06	407.52	180.62	167.67	86.381	4.8139e-06	100.68	8.6918e-05	7.5864e-05	2.0697e-05	865.47	8.2419e-07	8.2267e-07	899.86	370.92	8.38e-07	8.3266e-07	370.87	164.48	151.97	79.754	8.2675e-07	90.51	24.303	17.696	2.541	-52.107	58.953	78.796	-53.785	-46.470	61.374	72.675	-49.302	-45.036	-42.772	-36.904	74.072	-41.170	-8191	255	
2557.365	1	1	0	0	0.084184	0.10289	0.22669	0.020031	0.084649	0.21124	0.34433	0.06298	0.14426	0.22799	0.23525	0.13457	0.0416	0.017749	0.18651	0.012491	-4.1667	-4.7812	-5.0625	-4.4521	-5.0542	-4.6875	-4.7562	-5.4521	-4.5208	-4.8021	-5.3562	-4.3583	-5.2271	-5.1625	-4.3542	-5.5333	11.148	189.782	-22.352	75.512	4.419	248.904	288.200	178.273	202.415	272.598	241.244	204.525	-7.823	124.935	98.901	248.874	0.00094086	0.00065063	0.00011677	934.06	3.9943e-06	6.9286e-06	966.8	403.9	2.1131e-06	4.2372e-06	410.89	183.06	168.84	87.297	4.4849e-06	101.69	8.5284e-05	7.5453e-05	2.0382e-05	872.19	8.245e-07	7.9109e-07	909.87	375.73	8.2448e-07	8.1769e-07	375.21	166.5	152.74	80.54	8.0852e-07	91.822	28.906	40.040	34.739	-51.917	77.171	58.893	-53.714	-46.461	284.559	52.349	-49.315	-45.128	-42.901	-36.754	86.398	-40.985	-8191	255	
2557.462	1	1	0	0	0.072708	0.21079	0.11216	0.10434	0.15329	0.13817	0.2016	0.20698	0.085999	0.094199	0.11809	0.26086	0.22503	0.39062	0.21581	0.2664	-4.2854	-4.7937	-5.1271	-4.3896	-5.0146	-5.0437	-4.65	-5.3854	-4.5521	-4.7458	-5.4292	-4.5021	-5.0771	-5.3375	-4.325	-5.4521	31.071	243.115	-36.256	143.533	73.918	13.693	270.272	-40.661	212.118	4.760	-8.821	275.089	-12.484	287.155	70.176	230.207	0.00094367	0.0003342	9.077e-05	933.27	4.9593e-06	4.4329e-06	962.11	400.83	6.2598e-06	5.459e-06	406.8	180.62	167.87	86.929	2.7826e-06	100.13	8.5111e-05	7.3905e-05	2.0501e-05	871.16	8.2057e-07	7.9031e-07	909.43	373.51	8.2911e-07	8.2891e-07	373.2	165.22	152.18	80.014	8.4462e-07	90.393	29.080	28.812	14.737	-51.741	29.485	64.235	-53.722	-46.628	76.466	47.983	-48.994	-45.219	-42.886	-36.846	51.179	-40.894	-8191	255	
2557.582	1	1	0	0	0.14034	0.11735	0.080996	0.17403	0.10465	0.12804	0.27225	0.074623	0.036101	0.16252	0.1468	0.28822	0.21832	0.229	0.18075	0.17179	-4.3917	-4.4396	-5.2146	-4.5167	-4.75	-5.0958	-4.5979	-5.4	-4.8896	-4.4604	-5.3229	-4.6104	-5.0021	-5.3542	-4.2667	-5.375	35.571	-50.610	217.831	282.042	7.454	5.315	260.428	251.872	130.753	205.875	-48.840	236.752	265.572	246.154	284.553	280.852	0.0010736	0.00010731	0.00022466	931.28	3.5255e-06	3.447e-06	954.35	400.99	1.9077e-06	2.7538e-06	407.88	181.5	169.15	86.99	3.347e-06	99.833	8.6738e-05	7.5172e-05	2.0815e-05	868.62	8.3818e-07	8.0423e-07	899.11	373.17	8.5032e-07	8.3228e-07	372.91	165	153.29	80.113	8.4234e-07	90.289	32.973	-3.344	-3.316	-51.598	58.497	51.045	-53.454	-46.359	60.696	104.372	-49.306	-45.119	-42.581	-36.761	22.045	-41.067	-8191	255	
2557.678	1	1	0	0	0.17337	0.16209	0.08319	0.2293	0.22228	0.17285	0.18188	0.050785	0.2021	0.10259	0.089859	0.17299	0.27304	0.31919	0.078501	0.38812	-4.35	-4.45	-5.3313	-4.6417	-4.6417	-5.2542	-4.4667	-5.3458	-4.9333	-4.3833	-5.5021	-4.6729	-4.8708	-5.1292	-4.2917	-5.1625	166.124	114.038	237.780	217.199	244.755	-12.674	219.815	-0.046	30.879	171.657	280.947	227.308	205.574	245.976	114.452	257.170	0.0010326	0.00038833	9.6653e-05	937.8	2.4576e-06	5.2922e-06	961.18	401.73	5.9641e-06	7.7522e-06	408.84	182.49	168.93	87.587	3.0004e-06	100.55	8.6232e-05	7.6311e-05	2.0418e-05	871.98	8.304e-07	8.1419e-07	902.49	375.38	8.2516e-07	8.1959e-07	374.15	166.07	153.26	80.563	8.4147e-07	90.803	34.339	58.441	-8.502	-51.714	51.457	94.244	-53.389	-46.603	70.840	57.976	-49.364	-44.870	-42.698	-36.919	93.479	-41.095	-8191	255	
2557.775	1	1	0	0	0.02191	0.026522	0.30564	0.11745	0.23786	0.1672	0.18621	0.11668	0.1672	0.10995	0.20859	0.12997	0.23317	0.50393	0.16459	0.22406	-4.5813	-4.4292	-5.175	-4.7521	-4.5125	-5.2917	-4.6083	-5.2021	-5.1229	-4.4958	-5.3167	-4.9792	-4.6458	-5.4646	-4.4958	-5.1958	114.044	207.930	174.748	254.348	172.927	54.958	269.477	-53.108	51.920	44.760	268.312	111.907	-58.831	234.565	-23.720	276.530	0.00089571	0.00049901	0.00026656	933.11	3.8333e-06	3.4835e-06	958.35	401.7	6.0597e-06	5.3637e-06	412.31	184.01	169.71	87.612	3.6502e-06	101.13	8.6256e-05	7.5557e-05	2.0613e-05	870.39	8.2646e-07	8.1048e-07	901.76	373.9	8.2268e-07	8.4611e-07	376.4	167.42	153.86	80.583	8.4523e-07	91.498	24.945	13.501	-1.448	-51.704	52.973	95.693	-53.517	-46.406	64.421	100.349	-49.281	-45.043	-42.479	-36.923	28.393	-40.875	-8191	255	
2557.846	1	1	0	0	0.082957	0.08967	0.1314	0.1341	0.20899	0.11089	0.082258	0.0768	0.20618	0.079255	0.13486	0.196	0.13571	0.005617	0.12763	0.090732	-4.9792	-4.4083	-4.9875	-4.9	-4.5354	-5.3688	-4.5542	-5.0687	-5.1542	-4.4917	-5.225	-4.85	-4.6542	-5.5813	-4.3042	-4.9146	262.920	227.934	171.519	-47.862	8.623	92.275	237.356	-35.770	-53.890	29.141	232.078	251.815	-28.739	268.852	275.216	192.620	0.00094907	0.00035653	0.00018472	934.12	5.3156e-06	3.5917e-06	962.28	405.99	4.8161e-06	3.5531e-06	415.98	184.73	172.21	87.336	1.6909e-06	100.43	8.5927e-05	7.5648e-05	2.1093e-05	870.96	8.4696e-07	8.2636e-07	906.86	376.81	8.3856e-07	8.3549e-07	380.29	168.39	155.86	80.586	8.601e-07	90.815	20.091	57.596	26.585	-51.646	48.896	63.307	-53.429	-46.500	85.054	37.312	-49.061	-44.879	-42.667	-36.947	28.782	-40.966	-8191	255	
2557.967	1	1	0	0	0.37479	0.31796	0.19817	0.080798	0.13468	0.0655	0.27922	0.24354	0.21152	0.14512	0.19984	0.066075	0.17592	0.33803	0.079481	0.20773	-4.7688	-4.3542	-5.0687	-5.1667	-4.4187	-5.2958	-4.7729	-4.7021	-5.0854	-4.3542	-5.1458	-5.0229	-4.4333	-5.4667	-4.7125	-4.775	169.361	-5.468	-51.650	-12.215	43.924	38.550	239.196	238.235	214.649	116.170	-60.633	123.086	285.550	-43.227	221.049	208.018	0.001041	0.00033302	0.00012777	932.7	3.6927e-06	5.5349e-06	949.53	401.35	3.4453e-06	8.6657e-06	407.43	181.06	168.27	86.442	2.1554e-06	98.294	8.6457e-05	7.702e-05	2.146e-05	869.8	8.5585e-07	8.4002e-07	895.31	374.5	8.5212e-07	8.4383e-07	373.18	164.94	153.18	79.433	8.4478e-07	88.976	27.955	52.672	30.869	-51.710	22.294	51.418	-53.532	-46.355	91.834	76.302	-49.008	-44.691	-42.742	-36.983	115.512	-40.873	-8191	255	
2558.061	1	1	0	0	0.14986	0.19832	0.14595	0.19091	0.062243	0.10906	0.080552	0.13645	0.081159	0.028878	0.20112	0.35388	0.10534	0.16668	0.14144	0.21612	-5.0333	-4.2354	-4.925	-5.0479	-4.3917	-5.1896	-4.8667	-4.7479	-5.2708	-4.4667	-4.95	-5.2729	-4.3875	-5.4062	-4.7562	-4.5708	169.323	236.622	294.024	254.306	-5.488	24.602	41.055	-29.734	-55.411	15.521	-55.659	-57.927	176.113	-59.273	30.521	278.003	0.00097947	0.00039186	0.00024457	927.37	6.9034e-06	4.4213e-06	930.94	392.05	4.9339e-06	1.6943e-06	399.09	179.46	166.13	85.815	3.1858e-06	98.405	8.9144e-05	7.7431e-05	2.1668e-05	861.84	8.6446e-07	8.4591e-07	882.67	366.2	8.6115e-07	8.4665e-07	366.28	163.34	150.66	78.97	8.6219e-07	89.182	18.776	43.584	-8.930	-51.809	51.771	46.857	-53.518	-46.450	60.510	89.086	-49.392	-44.888	-42.441	-36.769	26.618	-40.905	-8191	255	
2558.159	1	1	0	0	0.29879	0.18508	0.12671	0.32464	0.30768	0.07602	0.078097	0.23208	0.069837	0.20652	0.10832	0.31498	0.18312	0.28202	0.076554	0.18214	-5.0896	-4.4375	-4.7979	-5.1083	-4.4313	-5.1625	-5.1083	-4.5458	-5.2146	-4.4646	-4.8042	-5.2917	-4.5042	-5.3917	-4.9062	-4.6438	278.545	70.976	272.262	292.131	230.494	187.262	232.476	252.582	58.463	184.065	17.339	234.546	-20.409	256.904	-39.250	165.495	0.0010332	0.00060833	0.00015239	921.67	5.2413e-06	3.8883e-06	935.56	396.29	7.4273e-06	3.5943e-06	406.92	183.44	170.25	87.056	5.9581e-06	100.22	8.9757e-05	7.8844e-05	2.1673e-05	860.3	8.8774e-07	8.6106e-07	884.07	369.03	8.8163e-07	8.656e-07	373.15	166.92	154.63	80.289	8.7085e-07	90.574	29.252	48.004	25.632	-51.615	48.616	81.295	-53.197	-46.346	70.735	60.603	-49.333	-44.955	-42.810	-36.894	74.086	-40.895	-8191	255	
2558.278	1	1	0	0	0.11263	0.20993	0.21269	0.057976	0.062182	0.1157	0.12796	0.26469	0.13772	0.1093	0.15712	0.3215	0.25697	0.40583	0.022668	0.11767	-5.0771	-4.5417	-4.8083	-5.3292	-4.3292	-5.0417	-5.0792	-4.4667	-5.2083	-4.6979	-4.5667	-5.3438	-4.4146	-5.0833	-5.0875	-4.5146	188.304	103.920	42.636	-57.701	107.794	-38.086	26.417	-55.649	175.058	92.421	216.741	221.306	-49.941	284.507	25.341	246.957	0.00084148	0.00045712	1.1343e-05	923.34	4.096e-06	4.174e-06	938.51	397.15	3.986e-06	3.5448e-06	411.98	186.43	171.2	87.675	6.7093e-06	100.96	9.0459e-05	7.9911e-05	2.2063e-05	861.53	8.8949e-07	8.6737e-07	885.22	370.68	8.9856e-07	8.6503e-07	376.77	169.44	155.51	80.963	8.8784e-07	91.367	33.216	17.561	-44.549	-51.616	40.144	92.691	-53.264	-46.243	120.882	86.952	-49.049	-44.922	-42.792	-36.866	66.469	-40.862	-8191	255	
2558.374	1	1	0	0	0.13433	0.043519	0.18094	0.27106	0.19955	0.052924	0.22699	0.10536	0.17803	0.24486	0.21431	0.1296	0.063103	0.15109	0.28355	0.22413	-4.7812	-4.7708	-4.5896	-5.3479	-4.5062	-4.9146	-5.2583	-4.4646	-5.2021	-4.6458	-4.5	-5.4542	-4.4854	-5.0854	-5.0729	-4.4042	148.553	287.455	184.703	-52.642	25.196	134.413	248.778	-7.815	51.060	187.897	-28.877	-57.462	-26.803	211.920	-5.660	259.396	0.00081728	0.00041005	0.00010478	918.71	5.9813e-06	3.6518e-06	920.02	390.59	1.0512e-06	6.9636e-06	405.23	184.84	171.98	88.072	2.054e-06	101.58	9.194e-05	8.0041e-05	2.2394e-05	857.03	8.7645e-07	8.6939e-07	871.62	364.81	8.8264e-07	8.547e-07	371.03	167.92	155.16	81.165	8.7097e-07	91.531	33.053	15.380	36.455	-51.684	56.783	74.702	-53.490	-46.383	69.397	77.513	-49.042	-44.873	-42.731	-36.842	64.328	-41.039	-8191	255	
2558.470	1	1	0	0	0.16586	0.19507	0.19097	0.27077	0.15152	0.11856	0.028294	0.12512	0.22694	0.038168	0.13193	0.14145	0.10052	0.28642	0.073627	0.1591	-5.0229	-4.7708	-4.4521	-5.475	-4.5354	-4.6062	-5.4646	-4.375	-5.15	-4.8583	-4.5479	-5.3938	-4.6104	-4.7479	-5.075	-4.4979	270.414	51.232	261.777	275.870	149.342	136.150	260.256	-55.151	155.459	278.241	237.072	294.013	214.729	283.953	219.233	253.128	0.00095282	0.00025758	0.00016079	918.68	4.3688e-06	3.3567e-06	921.31	396.04	4.3407e-06	3.7989e-06	406.24	186.47	172.11	89.283	2.7801e-06	101.76	9.0608e-05	7.8641e-05	2.2093e-05	857.35	8.8019e-07	8.628e-07	872.46	367.41	8.9154e-07	8.4833e-07	372.72	169.31	156.31	81.948	8.9168e-07	91.894	17.664	-27.386	6.601	-51.474	62.713	87.728	-53.170	-46.266	83.637	92.634	-49.263	-45.068	-42.527	-36.934	17.059	-40.884	-8191	255	
2558.566	1	1	0	0	0.035596	0.22687	0.058508	0.18798	0.33014	0.08304	0.14663	0.079451	0.11843	0.12226	0.13827	0.14415	0.23815	0.24003	0.1211	0.2088	-4.8	-4.9708	-4.3146	-5.1562	-4.6917	-4.6354	-5.4542	-4.4938	-4.9	-5.0958	-4.4604	-5.3146	-4.7958	-4.7042	-5.2063	-4.5708	-51.045	232.568	252.753	264.158	-18.532	27.084	251.082	159.748	71.529	6.008	223.680	211.680	-59.638	-60.073	266.640	219.050	0.00084728	0.00031913	7.7056e-05	915.39	5.3252e-06	3.7074e-06	917.65	391.76	3.4843e-06	3.5856e-06	407.19	187.54	172.29	88.58	4.5512e-06	102.04	9.0923e-05	8.0701e-05	2.2587e-05	855.87	9.0037e-07	8.8127e-07	870.17	366.48	8.9184e-07	8.7648e-07	373.16	170.04	156.39	81.605	9.1429e-07	92.053	21.608	46.702	31.079	-51.722	32.127	73.936	-53.337	-46.279	54.127	95.812	-49.064	-45.024	-42.711	-36.946	35.291	-40.925	-8191	255	
2558.663	1	1	0	0	0.064836	0.24656	0.19114	0.071953	0.25956	0.25199	0.24992	0.19285	0.09596	0.15541	0.036117	0.20069	0.15469	0.33582	0.24234	0.075185	-4.4271	-5.0021	-4.1729	-5.075	-4.6875	-4.5062	-5.2396	-4.5333	-4.8292	-5.125	-4.2396	-5.25	-4.9667	-4.65	-5.2312	-4.6125	254.918	93.556	28.502	257.951	143.412	-17.969	243.631	249.820	25.362	108.608	104.401	213.187	290.608	261.066	-1.668	-26.263	0.00092322	0.00057663	0.00010438	916.99	4.7285e-06	4.8612e-06	927.53	395.4	8.0717e-06	5.5593e-06	412.32	188.25	174.5	89.354	2.1362e-06	103.12	9.2866e-05	8.1025e-05	2.2711e-05	855.26	8.7928e-07	8.8881e-07	875.4	367.82	9.0902e-07	8.7513e-07	377.14	171.89	157.98	82.455	9.0209e-07	93.31	28.131	12.295	-7.136	-51.365	46.107	84.098	-53.228	-46.508	86.152	84.639	-49.507	-44.881	-42.455	-36.942	40.440	-40.916	-8191	255	
2558.759	1	1	0	0	0.1327	0.13891	0.20102	0.11318	0.15703	0.062344	0.23195	0.19268	0.029277	0.13904	0.050729	0.30334	0.22143	0.25251	0.073977	0.24262	-4.4333	-4.9958	-4.0833	-5.0208	-4.8833	-4.175	-5.3583	-4.5354	-4.6729	-5.1979	-4.5104	-4.9938	-5.0042	-4.5938	-5.125	-4.7312	69.469	160.633	191.256	125.016	266.159	202.630	233.236	241.869	88.501	60.686	138.671	243.972	278.850	-61.732	174.655	242.885	0.0010049	0.00028976	0.00019338	914.49	4.4293e-06	3.0337e-06	926.96	397.45	9.1616e-06	4.7478e-06	410.67	188.27	174.99	89.423	2.361e-06	101.79	9.2445e-05	8.2719e-05	2.2889e-05	858.75	8.802e-07	9.0153e-07	877.05	370.23	9.0587e-07	8.758e-07	377.07	171.51	158.45	82.334	9.0673e-07	92.257	28.492	9.968	-1.060	-51.699	72.880	68.204	-53.246	-46.105	45.237	68.897	-49.304	-44.970	-42.549	-36.804	61.539	-40.735	-8191	255	
2558.879	1	1	0	0	0.047981	0.24079	0.064394	0.26022	0.044921	0.081138	0.2098	0.089541	0.16531	0.21793	0.25017	0.13957	0.17023	0.21424	0.021163	0.078003	-4.2958	-5.1354	-4.2396	-5.0312	-5.0042	-4.2896	-5.2937	-4.9208	-4.4667	-5.3167	-4.4667	-5.0021	-5.1438	-4.6312	-5.2562	-4.9208	271.587	148.996	217.815	256.086	274.526	254.789	234.350	0.600	30.349	208.088	290.406	-62.029	293.158	261.832	147.100	278.996	0.0010158	0.0001403	9.2126e-05	921.69	8.3856e-06	4.7114e-06	925.47	395.99	4.6295e-06	3.3389e-06	410.21	187.14	173.52	88.477	7.8593e-06	100.96	9.2607e-05	8.1846e-05	2.2579e-05	858.28	8.8758e-07	9.0149e-07	871.16	368.6	9.2065e-07	8.9157e-07	375.44	170.52	157.6	81.418	9.0946e-07	91.337	25.084	15.864	5.317	-51.677	42.318	55.219	-53.673	-46.214	82.789	23.511	-49.230	-45.055	-42.479	-36.844	52.683	-40.985	-8191	255	
2558.974	1	1	0	0	0.15342	0.086536	0.25647	0.32269	0.28157	0.13861	0.17721	0.25052	0.21059	0.0071136	0.2411	0.40878	0.023469	0.16816	0.13455	0.20227	-4.2188	-5.1792	-4.5563	-4.9021	-5.2958	-4.25	-5.3521	-5.0146	-4.325	-5.3167	-4.6	-4.6417	-5.3458	-4.4083	-5.0687	-5.1271	166.339	0.094	186.287	275.579	83.026	294.787	230.805	236.080	276.577	217.991	261.081	238.707	-51.120	258.533	153.371	241.706	0.00097475	0.00034818	0.00016367	912.23	6.0081e-06	3.7212e-06	914.03	394.32	5.2759e-06	3.2964e-06	408.83	187.74	173.69	88.651	6.7982e-06	101.45	9.6227e-05	8.3701e-05	2.3326e-05	852.34	9.1522e-07	9.1463e-07	868.4	367.45	9.4056e-07	9.0606e-07	375.19	170.93	157.7	81.696	9.3347e-07	91.975	31.905	-1.690	20.507	-51.751	49.152	72.512	-53.441	-46.197	95.527	37.841	-49.175	-45.143	-42.567	-36.865	97.165	-40.557	-8191	255	
2559.070	1	1	0	0	0.10491	0.29033	0.28102	0.38916	0.054956	0.066964	0.37619	0.068153	0.029555	0.2574	0.19269	0.16609	0.065273	0.15825	0.026888	0.316	-4.0062	-5.3417	-4.5979	-4.6562	-5.0521	-4.2438	-4.9833	-5.0167	-4.1438	-5.3417	-4.7458	-4.4771	-5.2271	-4.5188	-4.725	-5.1042	220.817	45.618	3.125	241.663	-29.946	217.843	276.334	79.640	-37.762	-25.612	278.114	-37.807	279.226	-60.935	-31.457	216.787	0.0010103	0.00049133	0.00013109	913.76	4.361e-06	4.0873e-06	919.71	397.79	4.7899e-06	2.8948e-06	414.9	188.99	175.01	89.826	4.4542e-06	102.48	9.5578e-05	8.3541e-05	2.3338e-05	855.43	9.2117e-07	9.1304e-07	873.82	371.03	9.4589e-07	9.1683e-07	378.85	172	158.78	82.556	9.3262e-07	92.991	24.459	55.652	-23.445	-51.660	50.338	70.293	-53.264	-46.213	79.382	66.911	-48.991	-45.161	-42.533	-36.766	28.466	-40.757	-8191	255	
2559.143	1	1	0	0	0.262	0.23923	0.26048	0.045564	0.051027	0.081057	0.21083	0.049149	0.018472	0.1501	0.19658	0.30207	0.14165	0.10006	0.078937	0.13597	-4.075	-5.1417	-4.7063	-4.6229	-5.2333	-4.3104	-5.0604	-5.2458	-4.35	-5.1937	-4.8187	-4.5	-5.4125	-4.7688	-4.7854	-5.3187	137.897	-41.604	-49.414	279.719	-32.134	280.342	287.358	259.890	275.392	153.596	293.450	248.810	215.608	-59.316	262.256	272.114	0.00095203	0.0003507	0.0001641	917.43	7.5259e-06	3.5317e-06	919.88	394.17	8.6503e-06	4.9381e-06	407.68	186.3	172.13	89.586	1.2481e-06	102.1	9.6614e-05	8.4547e-05	2.2976e-05	856	9.242e-07	9.3415e-07	870.92	367.96	9.5129e-07	9.135e-07	373.27	170.08	156.91	82.415	9.1925e-07	92.341	34.851	42.848	24.032	-51.693	28.807	96.990	-53.291	-46.153	69.451	69.000	-49.262	-45.158	-42.572	-36.963	208.463	-40.829	-8191	255	
2559.262	1	1	0	0	0.23429	0.19691	0.069309	0.081117	0.18668	0.067599	0.10847	0.18484	0.19746	0.28123	0.14257	0.20731	0.16848	0.2484	0.054347	0.15163	-3.875	-5.1417	-4.7396	-4.4812	-5.2438	-4.4896	-4.8021	-5.2854	-4.4521	-4.9896	-5.0417	-4.5563	-5.4271	-4.6937	-4.5708	-5.3792	-14.704	-35.081	-34.119	-28.664	284.572	172.793	251.256	251.537	190.293	265.024	16.654	243.783	241.133	268.196	-3.666	220.450	0.00095217	0.00022668	0.00017826	916.04	1.8185e-06	5.1163e-06	912.35	391.57	4.2182e-06	5.2002e-06	401.96	186.12	172.74	89.163	7.0492e-06	101.83	9.5382e-05	8.3348e-05	2.2762e-05	853.67	9.1303e-07	9.0754e-07	862.32	365.28	9.2941e-07	9.125e-07	369.4	169.24	156.64	82.414	9.307e-07	92.132	34.718	16.596	-20.349	-51.830	52.401	78.919	-53.375	-46.306	86.497	54.124	-49.010	-45.032	-42.634	-36.828	64.082	-40.813	-8191	255	
2559.358	1	1	0	0	0.20228	0.070912	0.14806	0.081862	0.15134	0.15546	0.24048	0.15308	0.1442	0.34695	0.10557	0.186	0.018632	0.17295	0.12244	0.2615	-4.0437	-4.9917	-4.9208	-4.5146	-5.2937	-4.6042	-4.8146	-5.4146	-4.3458	-4.8562	-5.1042	-4.4729	-5.2521	-4.7792	-4.4062	-5.4729	-26.191	-30.346	226.294	238.257	25.280	86.792	229.271	-61.352	74.611	62.183	234.060	276.111	-53.873	224.649	91.879	258.873	0.00091588	0.0002784	0.00011975	910.69	5.9906e-06	4.7976e-06	913.13	395.67	8.9621e-06	4.1653e-06	407.18	186.83	173.86	89.979	2.9079e-06	102.82	9.4731e-05	8.2503e-05	2.2848e-05	852.21	8.9932e-07	8.9621e-07	866.24	368.46	9.2921e-07	9.0635e-07	373.42	170.56	157.67	82.962	9.3386e-07	93.027	23.409	7.324	-8.271	-51.496	15.731	83.248	-53.528	-46.326	57.300	41.361	-49.408	-45.045	-42.656	-36.995	81.293	-40.876	-8191	255	
2559.455	1	1	0	0	0.097762	0.067279	0.15412	0.11875	0.27327	0.20198	0.32806	0.46311	0.30006	0.17881	0.11173	0.24009	0.40287	0.14027	0.14304	0.18879	-4.1188	-4.8208	-5.0604	-4.3938	-5.2167	-4.775	-4.5167	-5.3542	-4.4396	-4.725	-5.2583	-4.3396	-5.1813	-4.9938	-4.5979	-5.5958	-51.457	221.697	183.151	254.755	50.725	192.537	165.792	226.201	105.657	199.078	273.964	-47.959	291.399	-43.630	40.986	14.501	0.00085628	0.00037463	9.7772e-05	914.41	2.7414e-06	2.9688e-06	921.16	394.84	4.2616e-06	5.1783e-06	407.78	187.37	174.74	90.136	4.5442e-06	103.42	9.447e-05	8.2458e-05	2.2795e-05	854.7	9.2009e-07	8.958e-07	870.57	368.3	9.4066e-07	9.0301e-07	374.05	170.82	158.11	83.09	9.3201e-07	93.542	27.890	45.894	36.107	-51.683	75.948	108.042	-53.426	-46.404	119.018	61.213	-48.954	-45.245	-42.747	-36.893	54.866	-40.931	-8191	255	
2559.551	1	1	0	0	0.1913	0.21226	0.16062	0.14307	0.3179	0.02551	0.23916	0.18507	0.18317	0.20798	0.053664	0.09354	0.023093	0.36595	0.059351	0.21885	-4.2854	-4.7521	-5.2042	-4.5979	-5.1625	-5.0083	-4.5208	-5.4396	-4.6021	-4.7271	-5.3146	-4.6542	-5.1562	-5.175	-4.3333	-5.6083	61.497	185.152	248.954	219.186	270.391	211.287	233.024	283.233	152.622	266.907	-6.402	208.522	-4.724	256.154	228.890	0.180	0.0010852	0.00034794	0.00011525	915.6	4.1132e-06	4.8628e-06	920.2	393.28	8.074e-06	5.6109e-06	406.77	185.75	172.66	89.095	6.7441e-06	102.33	9.5422e-05	8.3508e-05	2.3325e-05	854.1	9.1637e-07	9.0138e-07	870.02	366.44	9.2624e-07	9.0942e-07	372.1	169.94	156.38	82.251	9.3124e-07	92.379	23.920	3.398	24.750	-51.692	62.915	60.356	-53.125	-46.156	82.574	63.499	-49.020	-45.107	-42.560	-36.779	71.866	-40.979	-8191	255	
2559.647	1	1	0	0	0.055128	0.090808	0.015073	0.10289	0.095736	0.074654	0.085118	0.24793	0.020779	0.24762	0.12124	0.10927	0.08833	0.24592	0.1174	0.30277	-4.3458	-4.5	-5.2937	-4.4812	-4.9125	-5.0146	-4.4104	-5.1896	-4.7292	-4.5083	-5.4542	-4.5479	-4.9042	-5.3688	-4.425	-5.3396	273.831	26.787	148.837	283.633	272.349	225.578	209.174	292.622	244.443	249.986	217.937	67.917	251.728	250.929	256.671	274.127	0.0008448	0.00036562	0.00019871	916.4	6.1047e-06	4.9822e-06	907.71	388.7	6.7509e-06	1.7295e-06	400.61	183.3	170.2	88.582	2.4657e-06	100.9	9.2943e-05	8.3283e-05	2.3007e-05	851.25	9.0313e-07	9.0004e-07	860.33	362.91	9.0608e-07	9.1707e-07	367.91	167.38	154.79	81.653	9.4223e-07	91.255	23.077	40.214	-9.456	-51.469	37.044	76.153	-53.536	-46.376	115.358	46.605	-49.219	-45.310	-42.603	-36.881	72.508	-40.793	-8191	255	
2559.743	1	1	0	0	0.21826	0.22661	0.1652	0.095717	0.073904	0.21969	0.15154	0.14744	0.088028	0.14983	0.16448	0.16645	0.36004	0.27596	0.066304	0.076672	-4.5375	-4.4896	-5.25	-4.5833	-4.7167	-5.2063	-4.6104	-5.2667	-4.9083	-4.3354	-5.3417	-4.7	-4.9417	-5.3417	-4.2708	-5.3958	145.881	-42.984	236.167	262.764	267.712	118.295	203.369	-14.578	44.907	168.046	-22.368	164.124	260.854	235.290	-49.190	-54.049	0.00087783	0.00050018	0.00012612	906.46	7.758e-06	2.5948e-06	906.19	386.08	7.8114e-06	4.2169e-06	398.35	183.17	168.83	88.214	3.3354e-06	100.58	9.1429e-05	8.3583e-05	2.3363e-05	846.8	9.0833e-07	9.0772e-07	858.39	360.33	9.1856e-07	9.2662e-07	365.04	166.39	153.29	81.093	9.2884e-07	90.666	21.547	28.035	-19.953	-51.731	70.752	108.376	-53.401	-46.395	59.491	60.498	-49.204	-45.222	-42.589	-36.873	51.861	-41.095	-8191	255	
2559.839	1	1	0	0	0.30116	0.14036	0.34954	0.32525	0.11436	0.18472	0.2179	0.22511	0.16522	0.32896	0.12897	0.24944	0.27181	0.15269	0.11102	0.2431	-4.6479	-4.3146	-5.2708	-4.7333	-4.6083	-5.4292	-4.5354	-5.1937	-4.9042	-4.3625	-5.35	-4.8	-4.7479	-5.4396	-4.3708	-4.975	82.424	-64.081	276.208	256.414	55.071	24.270	221.929	154.630	25.494	254.910	179.989	218.651	-36.153	277.969	117.889	265.120	0.00094071	0.00038591	0.00013485	895.32	3.7852e-06	4.1423e-06	902.49	382.05	6.135e-06	5.1129e-06	398.3	182.79	167.69	87.9	4.7188e-06	100.92	9.3468e-05	8.386e-05	2.2894e-05	841.94	9.1417e-07	9.0791e-07	855.8	356.49	9.2113e-07	9.0025e-07	364.98	166.71	152.59	80.891	9.1984e-07	91.245	24.375	64.942	8.893	-51.795	50.225	60.724	-53.620	-46.374	54.431	90.380	-49.106	-44.947	-42.578	-36.899	58.505	-41.106	-8191	255	
2559.960	1	1	0	0	0.23901	0.092494	0.11206	0.15045	0.11424	0.16402	0.18798	0.10271	0.094106	0.1955	0.19371	0.18853	0.18031	0.20785	0.1075	0.21026	-4.7854	-4.3562	-5.1479	-4.8167	-4.6375	-5.3771	-4.7021	-5.0021	-5.1021	-4.3396	-5.2646	-4.9563	-4.6333	-5.5312	-4.5042	-4.9542	185.100	110.018	11.269	239.427	285.218	73.853	163.589	142.139	131.134	35.376	270.901	-42.809	-56.665	289.221	245.738	294.901	0.0010595	0.0005458	0.00012383	910.06	2.8837e-06	4.1734e-06	914.13	384.21	6.6168e-06	4.4327e-06	397.97	182.11	167.75	87.396	3.8663e-06	100.16	9.324e-05	8.4104e-05	2.3231e-05	848.42	9.1782e-07	8.8736e-07	864.09	359.28	8.9833e-07	9.0897e-07	365.31	166.13	152.16	80.622	9.0784e-07	90.468	34.666	35.864	21.829	-51.622	25.242	46.988	-53.486	-46.343	72.524	76.015	-49.294	-44.784	-42.727	-36.886	80.936	-41.051	-8191	255	
2560.054	1	1	0	0	0.22477	0.023655	0.080031	0.10236	0.078879	0.072252	0.24231	0.29957	0.027228	0.14261	0.18832	0.22731	0.035589	0.11252	0.064833	0.10597	-4.9396	-4.3313	-5.0271	-4.8792	-4.4646	-5.2063	-4.4979	-4.8042	-5.2958	-4.45	-5.1521	-4.9958	-4.4437	-5.5188	-4.6792	-4.6958	-10.692	225.378	277.149	279.245	-51.756	92.127	174.952	272.581	-37.918	109.540	291.791	257.572	106.091	244.467	32.155	252.312	0.00097091	0.00022997	7.9362e-05	902.12	2.6649e-06	5.5059e-06	906.07	380.47	1.7768e-06	4.0342e-06	392.18	179.28	165.49	86.435	4.5668e-06	98.341	9.3071e-05	8.2815e-05	2.2867e-05	842.76	9.1347e-07	8.9751e-07	856.35	355.37	9.1295e-07	8.9614e-07	359.9	163.34	150.01	79.459	9.029e-07	88.865	21.532	3.875	-60.283	-51.896	72.077	62.331	-53.682	-46.451	103.906	75.842	-49.182	-45.094	-42.772	-37.195	86.578	-41.082	-8191	255	
2560.150	1	1	0	0	0.46072	0.11632	0.21059	0.33703	0.21233	0.045065	0.22946	0.082195	0.10509	0.28102	0.11599	0.23587	0.091947	0.077966	0.090424	0.20413	-5.1208	-4.3729	-4.8521	-5	-4.2854	-5.2417	-4.9229	-4.6937	-5.2229	-4.4271	-5.0042	-5.275	-4.5104	-5.3271	-4.6854	-4.7688	175.243	14.638	4.825	217.275	195.649	-15.986	264.606	194.996	289.821	217.377	117.140	264.117	-8.575	-52.301	-3.209	263.329	0.00078939	0.00022316	0.0002566	898.42	3.0064e-06	5.9303e-06	900.69	378.74	5.479e-06	6.7093e-06	389.69	176.95	164.22	85.138	4.1046e-06	97.04	9.3849e-05	8.2948e-05	2.2749e-05	840.63	9.07e-07	8.8001e-07	852.24	353.43	9.0779e-07	8.8296e-07	357.04	161.99	149.09	78.409	9.2105e-07	87.95	29.867	17.550	7.026	-51.662	75.196	68.827	-53.540	-46.228	108.509	84.667	-49.354	-45.203	-42.766	-36.924	67.349	-41.233	-8191	255	
2560.248	1	1	0	0	0.18373	0.23406	0.070272	0.24627	0.15838	0.14594	0.093591	0.1282	0.1285	0.13199	0.25491	0.02284	0.1741	0.31415	0.051746	0.11158	-4.975	-4.4667	-4.7312	-5.2208	-4.3146	-5.1375	-5.0437	-4.6396	-5.325	-4.4479	-4.8063	-5.3625	-4.4604	-5.3562	-4.9021	-4.5208	149.432	8.427	118.745	287.259	-30.103	138.075	244.335	-9.185	-60.019	197.114	279.973	273.869	-63.295	248.376	41.590	64.561	0.00091318	0.00039739	0.00013902	898.57	2.6898e-06	2.3918e-06	905.67	375.85	4.9994e-06	3.7037e-06	387.66	177.46	163.07	84.723	3.2852e-06	97.23	9.3428e-05	8.2958e-05	2.3071e-05	837.7	9.1465e-07	9.1204e-07	851.04	351.27	9.2321e-07	9.1449e-07	357.12	161.74	148.01	78.116	9.1575e-07	88.046	26.965	51.304	21.161	-51.638	78.941	58.551	-53.551	-46.636	61.922	47.040	-49.194	-45.060	-42.736	-37.009	33.754	-41.136	-8191	255	
2560.367	1	1	0	0	0.15254	0.15019	0.12715	0.018691	0.2796	0.1376	0.054673	0.27472	0.053264	0.048024	0.14754	0.2222	0.12645	0.24262	0.11328	0.18195	-5.0458	-4.5437	-4.6813	-5.2979	-4.3458	-5.125	-5.0854	-4.4938	-5.2667	-4.7292	-4.6625	-5.3021	-4.5479	-5.2312	-4.9792	-4.6813	39.452	42.318	44.105	109.527	213.428	9.932	193.576	10.529	58.158	116.358	-21.480	288.938	-10.760	-51.432	40.610	267.752	0.00078275	0.00025559	0.00020221	898.16	7.1209e-06	2.8661e-06	904.09	379.17	7.4364e-06	6.5409e-06	394.64	178.22	164.83	85.443	3.1264e-06	97.868	9.3139e-05	8.1696e-05	2.2921e-05	839.13	9.1936e-07	9.1447e-07	855.96	353.36	9.0922e-07	9.0858e-07	360.78	162.94	149.54	78.732	9.2661e-07	88.445	29.934	56.294	12.464	-51.604	39.434	66.816	-53.448	-46.503	98.891	88.388	-49.424	-44.907	-42.622	-36.965	125.832	-41.068	-8191	255	
2560.439	1	1	0	0	0.037451	0.162	0.23339	0.38101	0.13413	0.29552	0.035206	0.25447	0.18699	0.18527	0.17729	0.19743	0.11744	0.29033	0.098842	0.10253	-4.9625	-4.6833	-4.5938	-5.4167	-4.2312	-5.0938	-5.2292	-4.4313	-5.0437	-4.6896	-4.6417	-5.4104	-4.55	-5.0271	-5.2958	-4.6021	-39.292	178.726	-1.981	-19.975	259.403	14.855	231.249	240.570	208.706	-15.050	-18.057	217.509	-49.176	265.667	37.995	243.464	0.00087064	0.00053327	0.00019837	896.75	3.5506e-06	5.8396e-06	901.74	378.49	3.6086e-06	4.6373e-06	391	177.08	163.1	84.241	3.641e-06	96.128	9.3824e-05	8.3676e-05	2.3565e-05	840.96	9.0792e-07	9.1812e-07	853.12	353.32	9.1754e-07	9.1097e-07	356.67	160.96	148.19	77.768	9.3553e-07	86.911	26.762	30.997	26.616	-51.635	32.180	130.597	-53.587	-46.499	63.567	56.481	-49.321	-45.167	-42.637	-37.048	37.920	-41.288	-8191	255	
2560.559	1	1	0	0	0.11464	0.10865	0.012994	0.096245	0.17381	0.063807	0.093691	0.23771	0.11626	0.089729	0.048382	0.20783	0.040431	0.14653	0.1062	0.18368	-5.0271	-4.825	-4.5458	-5.2417	-4.4208	-4.65	-5.2521	-4.4875	-5.3125	-4.8938	-4.575	-5.3708	-4.6458	-4.9042	-5.0813	-4.5042	-57.137	-14.825	107.372	-63.473	178.545	6.317	240.986	247.684	261.304	129.662	67.237	271.767	257.749	-27.047	51.175	278.737	0.0010885	0.00050233	0.00019827	895.32	3.2472e-06	2.976e-06	895.82	373.56	6.9139e-06	3.7313e-06	388.31	176.25	163	84.44	4.1661e-06	96.775	9.4255e-05	8.4151e-05	2.3699e-05	836.7	9.274e-07	9.1732e-07	846.39	349.66	9.0974e-07	9.2323e-07	355.58	161	147.92	77.868	9.3249e-07	87.369	32.992	35.323	27.984	-51.620	21.834	54.785	-53.390	-46.340	72.031	46.722	-49.416	-45.074	-42.397	-37.011	67.384	-41.230	-8191	255	
2560.656	1	1	0	0	0.18747	0.12869	0.11768	0.10785	0.15189	0.17573	0.19536	0.15301	0.11707	0.14451	0.13314	0.1035	0.041983	0.14743	0.12379	0.2	-4.7646	-4.9563	-4.3521	-5.4854	-4.7375	-4.7063	-5.3729	-4.525	-4.9333	-5.0333	-4.5125	-5.3583	-4.8688	-4.7646	-5.25	-4.8229	-35.545	204.783	32.206	-56.164	124.557	164.102	204.987	-9.350	113.371	71.404	58.103	92.111	228.210	-59.300	241.518	261.404	0.00079486	0.00045617	0.000149	888.57	7.2428e-06	2.527e-06	899.04	376.88	9.4427e-07	2.4012e-06	390.02	177.88	164.75	84.899	5.3833e-06	97.203	9.5158e-05	8.2967e-05	2.3666e-05	834.23	9.1815e-07	9.2889e-07	851.19	351.22	9.3542e-07	9.2099e-07	358.26	162.02	148.93	78.377	9.3162e-07	87.939	30.758	35.615	52.597	-51.626	53.410	60.773	-53.457	-46.403	149.357	61.894	-49.263	-45.050	-42.669	-36.795	43.519	-40.774	-8191	255	
2560.752	1	1	0	0	0.19228	0.25125	0.072466	0.15993	0.18596	0.17733	0.19419	0.23171	0.21851	0.085136	0.32808	0.19865	0.23073	0.11284	0.12327	0.24626	-4.3187	-5.0208	-4.2854	-5.1896	-4.7417	-4.575	-5.3979	-4.7333	-4.8708	-5.2562	-4.4271	-5.3646	-5.0875	-4.8354	-5.4271	-4.7958	3.573	178.854	151.643	-25.167	259.315	83.917	212.328	179.865	144.461	290.083	247.030	-21.421	143.600	241.327	93.493	253.105	0.0010011	0.00064642	0.00016028	895.86	6.6768e-06	2.641e-06	902.67	376.49	4.7257e-06	3.1878e-06	390.51	178.81	163.32	84.461	1.9571e-06	97.378	9.3657e-05	8.5443e-05	2.3702e-05	836.14	9.3599e-07	9.2506e-07	854.18	351.26	9.3413e-07	9.0683e-07	358.45	162.81	148	77.829	9.2637e-07	87.963	21.178	24.139	31.101	-51.856	52.301	109.626	-53.623	-46.462	55.960	97.328	-49.271	-45.059	-42.696	-36.804	50.245	-40.630	-8191	255	
2560.848	1	1	0	0	0.1348	0.047333	0.18628	0.07386	0.21361	0.099754	0.12011	0.12478	0.13337	0.070696	0.11008	0.081667	0.12435	0.14572	0.33043	0.076618	-4.4833	-5.2479	-4.3375	-5.2771	-4.9938	-4.6208	-5.4271	-4.7229	-4.7583	-5.3146	-4.5521	-5.1562	-5.1354	-4.6604	-5.3229	-4.9521	-46.536	259.450	85.755	245.892	103.155	-36.650	193.635	163.222	10.638	150.948	211.175	259.530	188.880	-52.328	45.448	253.883	0.0008117	0.00041419	0.00013651	888.8	7.2931e-06	3.4723e-06	898.64	371.96	7.0863e-06	3.9945e-06	386.92	176.3	161.05	83.254	3.1295e-06	96.018	9.5131e-05	8.3417e-05	2.3389e-05	830.56	9.4326e-07	9.1228e-07	847.62	346.47	9.4354e-07	9.2738e-07	354.42	161.23	146.36	76.87	9.4289e-07	86.833	17.765	26.586	3.389	-51.998	56.533	89.917	-53.490	-46.375	77.079	67.790	-49.333	-45.168	-42.690	-36.893	29.272	-40.953	-8191	255	
2560.968	1	1	0	0	0.14899	0.17348	0.11827	0.066191	0.19485	0.053602	0.14296	0.10461	0.15662	0.1224	0.16539	0.11598	0.12494	0.1917	0.23477	0.065416	-4.4313	-5.4333	-4.4958	-5.2458	-5.0896	-4.3208	-5.4125	-4.7792	-4.575	-5.325	-4.5271	-5.1333	-5.2125	-4.6188	-5.1833	-4.9729	-49.394	180.152	86.444	195.154	103.085	88.761	54.834	-59.700	210.698	95.744	275.986	193.712	245.997	224.569	176.431	218.631	0.00083226	0.00055387	0.00020353	881.93	5.9244e-06	4.4449e-06	893.01	371.05	7.384e-06	2.0703e-06	387.1	177.34	162.77	84.097	2.9178e-06	96.826	9.4156e-05	8.4335e-05	2.2967e-05	829.83	9.097e-07	9.2411e-07	845.36	347.05	9.3871e-07	9.1506e-07	355.73	161.64	147.65	77.662	9.3842e-07	87.482	22.147	33.864	15.227	-51.669	75.211	78.595	-53.356	-46.181	75.964	47.931	-49.509	-45.120	-42.796	-36.839	71.578	-40.760	-8191	255	
2561.040	1	1	0	0	0.19019	0.22936	0.11691	0.34746	0.040706	0.20572	0.08043	0.11178	0.15777	0.18282	0.076626	0.22418	0.013676	0.1377	0.33998	0.073336	-4.1667	-5.4271	-4.4062	-4.8896	-5.1771	-4.5813	-5.3792	-4.8625	-4.4771	-5.3354	-4.6229	-4.8958	-5.2583	-4.6458	-5.2208	-5.1625	-16.554	231.216	184.806	278.244	126.750	170.200	163.110	253.485	-11.480	-50.927	266.378	262.012	34.886	272.581	271.031	209.135	0.00094061	0.00044423	1.7221e-05	891.74	6.6338e-06	2.6318e-07	894.84	374.58	5.6915e-06	5.4e-06	389.63	178.8	163.2	84.911	2.9159e-06	98.126	9.6732e-05	8.3722e-05	2.3764e-05	833.17	9.2761e-07	9.0992e-07	849	349.28	9.46e-07	9.1921e-07	356.96	162.71	148.42	78.378	9.3686e-07	88.439	27.233	35.721	41.057	-51.964	45.888	51.367	-53.529	-46.345	77.926	68.679	-49.368	-45.069	-42.752	-37.023	40.566	-40.938	-8191	255	
2561.135	1	1	0	0	0.12023	0.068709	0.1151	0.071178	0.046193	0.081789	0.059801	0.11933	0.21947	0.2636	0.11257	0.20762	0.27452	0.25431	0.17152	0.23746	-4.1604	-5.3917	-4.6646	-4.7479	-5.1833	-4.3521	-5.3458	-5.2417	-4.4688	-5.3479	-4.5792	-4.7271	-5.4062	-4.6333	-4.925	-5.35	229.918	-20.864	32.118	250.866	242.842	24.106	242.791	295.417	157.762	47.492	143.230	265.105	260.443	274.223	92.744	199.912	0.00078207	0.00051861	0.00018924	893.62	6.3304e-06	5.0141e-06	901.06	374.17	4.8201e-06	5.2761e-06	391.06	179.72	163.65	84.8	2.8522e-06	98.764	9.685e-05	8.6004e-05	2.4029e-05	836	9.4128e-07	9.2129e-07	851.49	349.3	9.5665e-07	9.2273e-07	358.06	164.05	148.85	78.468	9.6213e-07	89.347	32.958	29.885	2.740	-51.984	49.991	51.823	-53.663	-46.308	174.181	67.140	-49.080	-45.044	-42.679	-36.935	51.381	-40.789	-8191	255	
2561.231	1	1	0	0	0.19557	0.11861	0.19857	0.16898	0.13233	0.20101	0.21671	0.08414	0.1991	0.13418	0.21169	0.14679	0.13026	0.17655	0.19808	0.091452	-4.0938	-5.2917	-4.7354	-4.65	-5.2562	-4.4875	-5.0292	-5.2583	-4.5042	-5.3542	-4.8875	-4.5083	-5.5646	-4.7854	-4.9479	-5.5	86.129	141.158	88.685	61.112	50.149	215.097	211.492	90.651	143.587	83.538	125.933	247.792	290.907	251.189	243.035	245.817	0.0011712	0.00067648	0.00011147	893.23	5.8661e-06	2.2471e-06	899.11	377.06	3.9219e-06	1.4821e-06	393.19	180.68	164.56	85.886	4.5058e-06	98.329	9.682e-05	8.5926e-05	2.3785e-05	834.28	9.6141e-07	9.4773e-07	852.84	352.61	9.6559e-07	9.2752e-07	360.99	165.01	150.23	79.197	9.6846e-07	89.016	29.740	5.507	-12.212	-51.750	48.951	68.906	-53.586	-46.203	15.939	90.561	-49.246	-45.256	-42.765	-37.088	43.028	-40.978	-8191	255	
2561.329	1	1	0	0	0.057835	0.068944	0.14044	0.21015	0.079488	0.080717	0.21538	0.20122	0.25196	0.097398	0.095768	0.15601	0.1765	0.30142	0.13417	0.12876	-4.0521	-5.1104	-4.9396	-4.5479	-5.3292	-4.5667	-4.9229	-5.3104	-4.2625	-5.0104	-5.0333	-4.5083	-5.1604	-4.7479	-4.6	-5.4792	193.604	265.627	64.799	208.593	67.539	88.801	243.912	215.677	-42.779	147.294	238.751	-25.642	279.593	270.456	30.463	276.857	0.0008411	0.00025666	0.00016076	893.06	9.4385e-06	5.7933e-06	900.06	379.46	3.6681e-06	3.8853e-06	391.81	179.02	164.51	85.092	3.5671e-06	97.159	9.6745e-05	8.5084e-05	2.3738e-05	836.42	9.2993e-07	9.1515e-07	852.5	353.61	9.5003e-07	9.2615e-07	359.34	163.09	149.5	78.518	9.5964e-07	87.758	20.866	18.761	-4.389	-51.777	46.214	89.022	-53.605	-46.076	51.032	64.088	-49.307	-44.966	-42.803	-36.822	40.526	-40.955	-8191	255	
2561.447	1	1	0	0	0.12203	0.055891	0.051059	0.12874	0.0883	0.20471	0.22952	0.21425	0.073903	0.05574	0.21255	0.10133	0.20047	0.11585	0.10526	0.20338	-4.0375	-4.9688	-5.0167	-4.4354	-5.2208	-4.5875	-4.7063	-5.5271	-4.4667	-4.875	-5.2188	-4.3417	-5.4396	-4.9417	-4.4854	-5.525	179.553	34.021	90.588	233.475	83.295	-39.754	192.916	-63.546	245.236	264.687	-43.368	74.795	252.773	224.770	275.755	187.404	0.0009296	0.00035151	0.0001913	892.92	3.5632e-06	2.3545e-06	911.18	376.88	1.117e-06	6.3918e-06	391.72	175.65	161.03	82.657	3.1818e-06	94.868	9.6323e-05	8.577e-05	2.362e-05	837.22	9.4123e-07	9.3088e-07	860.94	352.08	9.4774e-07	9.5465e-07	359.89	160.55	146.78	76.331	9.7102e-07	85.895	25.598	5.599	55.952	-51.783	81.199	97.531	-53.515	-46.268	69.845	74.974	-49.381	-45.174	-42.574	-36.825	66.829	-40.899	-8191	255	
2561.544	1	1	0	0	0.20535	0.059906	0.18499	0.21871	0.14714	0.083958	0.10556	0.059453	0.24441	0.19658	0.21156	0.05569	0.05934	0.33985	0.14144	0.18508	-4.1208	-4.9354	-5.0854	-4.4958	-5.2812	-4.7667	-4.8354	-5.3938	-4.4667	-4.7646	-5.3	-4.5667	-5.3104	-5.0604	-4.3958	-5.4833	112.918	-46.350	-52.029	227.212	230.909	112.379	106.544	-58.545	-35.898	238.649	-63.198	-43.193	295.525	-60.679	-18.119	222.819	0.00087202	0.00028751	7.4285e-05	899.54	5.946e-06	2.6397e-06	917.67	381.18	3.4403e-06	4.619e-06	395.81	175.88	161.54	82.437	3.3006e-06	95.285	9.6768e-05	8.7669e-05	2.3847e-05	840.27	9.5277e-07	9.5052e-07	872.08	356.11	9.6119e-07	9.6414e-07	363.09	160.4	146.86	76.278	9.6967e-07	86.176	33.021	42.914	-30.020	-51.883	29.626	102.025	-53.696	-46.416	91.164	74.030	-49.189	-45.120	-42.739	-36.738	112.197	-41.175	-8191	255	
2561.640	1	1	0	0	0.1225	0.070477	0.11952	0.22695	0.12627	0.19434	0.20636	0.077341	0.21086	0.19669	0.073771	0.1222	0.07107	0.31553	0.23224	0.048307	-4.2479	-4.6438	-5.2417	-4.3667	-4.9542	-4.9167	-4.5188	-5.4458	-4.4313	-4.7417	-5.3063	-4.5104	-5.025	-5.1229	-4.3667	-5.4938	-11.455	146.890	10.538	-18.828	293.277	185.893	202.266	189.308	195.232	143.111	213.961	148.748	20.601	265.799	-19.218	268.777	0.00092411	0.00022224	0.00016661	897.08	2.7301e-06	4.8333e-06	924.79	379.28	6.3346e-06	1.4377e-06	394.17	174.93	160.01	82.4	4.6845e-06	94.32	9.7584e-05	8.7895e-05	2.4316e-05	840.8	9.6811e-07	9.445e-07	875.13	354.71	9.5171e-07	9.3682e-07	361.21	159.49	145.88	75.971	9.5888e-07	85.434	16.804	-1.289	14.451	-52.005	10.883	87.607	-53.685	-46.474	125.611	110.306	-49.218	-45.201	-42.875	-36.632	42.139	-40.832	-8191	255	
2561.736	1	1	0	0	0.052925	0.10984	0.09993	0.1585	0.10162	0.080781	0.10035	0.19553	0.13142	0.088596	0.1407	0.062256	0.098884	0.20666	0.13123	0.25791	-4.4229	-4.5625	-5.3917	-4.6687	-4.8375	-5.0792	-4.5125	-5.4229	-4.8042	-4.5604	-5.4812	-4.6687	-5.1708	-5.3625	-4.2833	-5.35	201.054	-0.523	62.329	73.103	149.486	240.295	293.095	238.265	200.139	-22.970	182.839	137.775	-47.504	270.548	-7.327	274.465	0.00093267	0.0004163	0.00019097	890.62	4.0818e-06	4.5693e-06	915.22	377.87	6.9813e-06	3.4583e-06	387.95	173.31	160.05	82.05	4.4067e-06	93.828	9.5435e-05	8.5839e-05	2.3458e-05	835.55	9.4316e-07	9.4656e-07	865.67	352.78	9.4969e-07	9.3095e-07	356.17	158.06	145.55	75.567	9.6408e-07	84.774	31.597	27.249	22.953	-51.928	62.432	86.904	-53.777	-46.368	124.732	20.845	-49.563	-45.282	-42.841	-36.591	53.617	-40.991	-8191	255	
2561.832	1	1	0	0	0.11942	0.14773	0.10905	0.39117	0.19431	0.090531	0.19313	0.25304	0.14542	0.24025	0.086384	0.15437	0.26151	0.10904	0.062328	0.25815	-4.4729	-4.5479	-5.3708	-4.6521	-4.7229	-5.2667	-4.5062	-5.25	-4.925	-4.4812	-5.4479	-4.7458	-4.9292	-5.4292	-4.3604	-5.25	32.577	210.710	192.783	-11.957	246.836	-57.966	251.675	-59.509	147.044	290.572	224.125	-21.044	272.437	-41.759	215.701	268.653	0.00082753	0.00076053	9.5679e-05	893.75	6.0761e-06	4.0929e-06	920.22	382.06	4.7336e-06	2.9374e-06	392.12	173.6	160.96	82.072	3.6432e-07	93.919	9.6295e-05	8.719e-05	2.3501e-05	836.97	9.2817e-07	9.2337e-07	870.28	355.97	9.4564e-07	9.3864e-07	358.57	158.58	146.21	75.644	9.559e-07	84.85	17.603	52.748	7.263	-51.901	33.794	73.340	-53.884	-46.534	73.121	80.003	-49.368	-45.254	-42.684	-36.745	-5.334	-41.032	-8191	255	
2561.928	1	1	0	0	0.29447	0.36261	0.23711	0.2065	0.23182	0.0336	0.067468	0.19472	0.11264	0.03108	0.082778	0.094917	0.14635	0.19289	0.23727	0.18592	-4.6083	-4.4083	-5.4396	-4.6375	-4.7521	-5.3729	-4.6146	-5.1833	-5.1167	-4.5437	-5.325	-4.8646	-4.8021	-5.4938	-4.3938	-5.1021	72.211	283.014	152.604	123.194	224.168	152.468	291.828	211.818	54.682	294.167	226.871	149.436	52.217	247.492	283.252	203.174	0.00082256	0.00038788	0.00015494	895.62	4.6056e-06	3.8005e-06	915.12	380.23	4.0678e-06	3.0099e-06	389.06	172.95	160.81	81.571	1.6129e-06	93.42	9.7157e-05	8.593e-05	2.3795e-05	835.07	9.5869e-07	9.4336e-07	866.89	354.54	9.3779e-07	9.3667e-07	357.93	157.99	145.88	75.214	9.6397e-07	84.532	29.960	56.839	29.703	-52.127	43.239	87.762	-53.928	-46.243	84.825	45.306	-49.515	-45.106	-42.769	-36.896	-0.363	-41.092	-8191	255	
2562.049	1	1	0	0	0.078503	0.37937	0.10764	0.14329	0.12354	0.16085	0.051305	0.06902	0.13633	0.27053	0.14664	0.11269	0.31119	0.29394	0.067391	0.26581	-4.8708	-4.3063	-5.1937	-4.8958	-4.6958	-5.2292	-4.6646	-5.1792	-5.1979	-4.3646	-5.4229	-4.9542	-4.6979	-5.4979	-4.5583	-5.0854	148.229	-47.360	165.811	277.259	231.715	62.425	206.753	66.070	235.423	-44.341	205.267	-44.739	-23.122	294.921	218.642	14.917	0.00063296	0.00031265	0.00021271	887.9	6.4959e-06	2.7721e-06	919.53	378.34	7.7893e-06	3.4744e-06	391.13	173.11	160.38	81.063	5.0943e-06	92.613	9.6809e-05	8.7243e-05	2.4302e-05	833.51	9.7717e-07	9.3922e-07	869.66	354.09	9.6633e-07	9.5498e-07	358.62	158.05	145.71	74.971	9.7643e-07	83.899	39.350	11.536	-6.490	-52.061	20.839	67.540	-53.940	-46.505	89.351	47.298	-49.294	-45.109	-42.880	-36.724	50.970	-40.887	-8191	255	
2562.143	1	1	0	0	0.12133	0.13797	0.19315	0.076943	0.20404	0.12296	0.022782	0.29709	0.24498	0.14636	0.15428	0.022965	0.030767	0.38214	0.092037	0.20749	-5.0354	-4.4333	-5.1583	-4.9875	-4.4271	-5.4333	-4.7667	-5.1	-5.3146	-4.4583	-5.2188	-5.1458	-4.6979	-5.4083	-4.725	-4.8292	232.724	184.293	38.720	-0.769	103.085	44.155	156.259	196.189	-7.295	180.396	-44.624	44.570	-24.559	226.873	2.993	217.581	0.00086291	0.00038749	0.00015356	891.71	5.9824e-06	5.0433e-06	908.79	379.12	4.1529e-06	5.1076e-06	386.49	171.79	159.7	81.177	3.6733e-06	92.174	9.7157e-05	8.8188e-05	2.4637e-05	833.96	9.8604e-07	9.426e-07	863.11	352.75	9.758e-07	9.552e-07	354.56	156.63	145.04	74.694	9.6621e-07	83.188	19.609	3.444	12.841	-51.836	40.914	29.575	-53.732	-46.511	80.318	56.417	-49.263	-45.331	-42.912	-36.878	72.952	-41.035	-8191	255	
2562.239	1	1	0	0	0.24586	0.18626	0.061425	0.20776	0.077418	0.16996	0.22876	0.19255	0.2193	0.13374	0.34223	0.10736	0.35554	0.19691	0.11146	0.23694	-5.0958	-4.375	-4.8604	-5.3313	-4.4917	-5.3187	-4.8625	-4.7083	-5.2583	-4.5833	-5.0792	-5.3021	-4.6083	-5.5792	-4.7812	-4.8021	-45.586	242.460	50.880	280.527	-26.298	226.994	229.240	-49.703	131.845	8.165	284.589	239.428	259.858	-38.112	236.099	268.089	0.00072695	0.00050526	0.00011509	886.76	2.5921e-06	3.9648e-06	905.55	376.79	4.2103e-06	3.1305e-06	386.21	171.26	159.07	80.575	2.1106e-06	91.345	9.7032e-05	8.7256e-05	2.4428e-05	830.69	9.6561e-07	9.4696e-07	861.17	352.16	9.6893e-07	9.5827e-07	354.1	156.35	144.82	74.412	9.8501e-07	82.808	30.146	35.211	13.903	-51.899	52.460	138.197	-53.699	-46.675	61.125	62.383	-49.278	-45.253	-42.604	-36.815	-16.809	-40.925	-8191	255	
2562.336	1	1	0	0	0.12976	0.26854	0.13032	0.21309	0.040202	0.19491	0.14688	0.10444	0.16202	0.19584	0.11316	0.1486	0.27066	0.26711	0.26457	0.22852	-5.1562	-4.5375	-5.0229	-5.1854	-4.2792	-5.175	-4.9208	-4.5938	-5.3792	-4.4354	-4.9875	-5.2312	-4.4167	-5.3917	-4.9938	-4.4667	228.267	18.571	248.647	-31.252	1.431	0.234	250.619	172.920	-57.407	203.061	128.550	286.596	283.680	278.931	248.808	180.619	0.00076171	0.00042552	0.00020519	885.15	5.2778e-06	3.2645e-06	906.23	375.93	8.5317e-06	6.1453e-06	385.12	170.39	157.84	80.082	4.1397e-06	91.434	9.6604e-05	8.9508e-05	2.4828e-05	828.87	9.8566e-07	9.7487e-07	858.56	351.48	9.9023e-07	9.9439e-07	353.59	155.74	144.13	73.926	1.012e-06	82.641	21.521	-10.880	4.200	-51.881	62.331	65.734	-53.755	-46.579	70.566	71.269	-49.371	-45.272	-42.837	-36.893	75.581	-40.801	-8191	255	
#DATA ENDS
