BOXY.EXE: ISS Imagent and Oximeter Data Acquisition Program Version 0.80
Ascii Record File

#ACQ INFORMATION
2  Detector Channels 
16  External MUX Channels 
1  Auxiliary Channels 
5000  Waveform (CCF) Frequency (Hz)
1  Waveforms Skipped 
30  Waveforms Averaged 
1  Cycles Averaged 
16  Acquisitions per Waveform 
10.0806  Updata Rate (Hz) 

#FILE INFORMATION
TRUE -- External MUX Channel results are PARSED.
FALSE -- AC DC and Phase are NOT grouped.
TRUE -- Companion Program Settings File CREATED.
FALSE -- AC data not excluded
FALSE -- DC data not excluded
FALSE -- Phase data not excluded
FALSE -- Auxillary Chn. data not excluded
Tab delimiters

#CALIBRATION STATE
TRUE -- Waveform Calibration Values APPLIED.


#AUX CALIBRATION VALUES
Val Type	aux-1	

Term	1.0000e+00	
Factor	0.0000e+00	


#WF CALIBRATION VALUES
A = Detector Channel
Val Type	A-AC1	A-AC2	A-AC3	A-AC4	A-AC5	A-AC6	A-AC7	A-AC8	A-AC9	A-AC10	A-AC11	A-AC12	A-AC13	A-AC14	A-AC15	A-AC16	A-DC1	A-DC2	A-DC3	A-DC4	A-DC5	A-DC6	A-DC7	A-DC8	A-DC9	A-DC10	A-DC11	A-DC12	A-DC13	A-DC14	A-DC15	A-DC16	A-Ph1	A-Ph2	A-Ph3	A-Ph4	A-Ph5	A-Ph6	A-Ph7	A-Ph8	A-Ph9	A-Ph10	A-Ph11	A-Ph12	A-Ph13	A-Ph14	A-Ph15	A-Ph16	

Term	0.00000e+00	0.00000e+00	0.00000e+00	0.00000e+00	0.00000e+00	0.00000e+00	0.00000e+00	0.00000e+00	0.00000e+00	0.00000e+00	0.00000e+00	0.00000e+00	0.00000e+00	0.00000e+00	0.00000e+00	0.00000e+00	0.00000e+00	0.00000e+00	0.00000e+00	0.00000e+00	0.00000e+00	0.00000e+00	0.00000e+00	0.00000e+00	0.00000e+00	0.00000e+00	0.00000e+00	0.00000e+00	0.00000e+00	0.00000e+00	0.00000e+00	0.00000e+00	0.00000e+00	0.00000e+00	0.00000e+00	0.00000e+00	0.00000e+00	0.00000e+00	0.00000e+00	0.00000e+00	0.00000e+00	0.00000e+00	0.00000e+00	0.00000e+00	0.00000e+00	0.00000e+00	0.00000e+00	0.00000e+00	
Factor	1.00000e+00	1.00000e+00	1.00000e+00	1.00000e+00	1.00000e+00	1.00000e+00	1.00000e+00	1.00000e+00	1.00000e+00	1.00000e+00	1.00000e+00	1.00000e+00	1.00000e+00	1.00000e+00	1.00000e+00	1.00000e+00	1.00000e+00	1.00000e+00	1.00000e+00	1.00000e+00	1.00000e+00	1.00000e+00	1.00000e+00	1.00000e+00	1.00000e+00	1.00000e+00	1.00000e+00	1.00000e+00	1.00000e+00	1.00000e+00	1.00000e+00	1.00000e+00	X	X	X	X	X	X	X	X	X	X	X	X	X	X	X	X	

B = Detector Channel
Val Type	B-AC1	B-AC2	B-AC3	B-AC4	B-AC5	B-AC6	B-AC7	B-AC8	B-AC9	B-AC10	B-AC11	B-AC12	B-AC13	B-AC14	B-AC15	B-AC16	B-DC1	B-DC2	B-DC3	B-DC4	B-DC5	B-DC6	B-DC7	B-DC8	B-DC9	B-DC10	B-DC11	B-DC12	B-DC13	B-DC14	B-DC15	B-DC16	B-Ph1	B-Ph2	B-Ph3	B-Ph4	B-Ph5	B-Ph6	B-Ph7	B-Ph8	B-Ph9	B-Ph10	B-Ph11	B-Ph12	B-Ph13	B-Ph14	B-Ph15	B-Ph16	

Term	0.00000e+00	0.00000e+00	0.00000e+00	0.00000e+00	0.00000e+00	0.00000e+00	0.00000e+00	0.00000e+00	0.00000e+00	0.00000e+00	0.00000e+00	0.00000e+00	0.00000e+00	0.00000e+00	0.00000e+00	0.00000e+00	0.00000e+00	0.00000e+00	0.00000e+00	0.00000e+00	0.00000e+00	0.00000e+00	0.00000e+00	0.00000e+00	0.00000e+00	0.00000e+00	0.00000e+00	0.00000e+00	0.00000e+00	0.00000e+00	0.00000e+00	0.00000e+00	-2.67418e+02	-1.23981e+02	-1.44473e+02	-1.81854e+02	-1.05914e+02	-7.68791e+01	-1.57311e+02	-1.62015e+02	-7.09312e+01	-7.89950e+01	-1.71511e+02	-1.71453e+02	-1.84794e+02	-1.77817e+02	-1.04389e+02	-1.50452e+02	
Factor	5.71809e-05	8.97066e-05	3.11288e-05	1.96425e-01	1.13358e-06	8.75478e-07	1.57363e-01	5.65123e-02	1.42736e-06	9.07431e-07	8.42968e-02	3.04734e-02	2.81487e-02	8.63089e-03	1.04281e-06	1.25646e-02	5.48854e-07	5.55714e-07	1.54520e-07	9.50652e-02	6.08120e-09	6.08269e-09	7.27127e-02	2.73195e-02	6.08719e-09	6.08483e-09	3.88846e-02	1.39013e-02	1.32012e-02	4.11566e-03	6.08014e-09	5.73139e-03	X	X	X	X	X	X	X	X	X	X	X	X	X	X	X	X	



#DISTANCE SETTINGS
A = Detector Channel
A-1	A-2	A-3	A-4	A-5	A-6	A-7	A-8	A-9	A-10	A-11	A-12	A-13	A-14	A-15	A-16	

2.5000e+00	3.0000e+00	2.5000e+00	3.0000e+00	2.0000e+00	3.0000e+00	1.5000e+00	3.0000e+00	3.0000e+00	3.0000e+00	3.0000e+00	3.0000e+00	3.0000e+00	3.0000e+00	1.5000e+00	3.0000e+00	

B = Detector Channel
B-1	B-2	B-3	B-4	B-5	B-6	B-7	B-8	B-9	B-10	B-11	B-12	B-13	B-14	B-15	B-16	

1.0000e+01	1.0000e+01	1.0000e+01	1.4400e+00	1.0000e+01	1.0000e+01	1.5100e+00	1.9400e+00	1.0000e+01	1.0000e+01	1.9900e+00	2.4900e+00	2.4100e+00	2.9000e+00	1.0000e+01	2.9800e+00	




#DATA BEGINS
time	group	step	mark	flag	A-AC1	A-AC2	A-AC3	A-AC4	A-AC5	A-AC6	A-AC7	A-AC8	A-AC9	A-AC10	A-AC11	A-AC12	A-AC13	A-AC14	A-AC15	A-AC16	A-DC1	A-DC2	A-DC3	A-DC4	A-DC5	A-DC6	A-DC7	A-DC8	A-DC9	A-DC10	A-DC11	A-DC12	A-DC13	A-DC14	A-DC15	A-DC16	A-Ph1	A-Ph2	A-Ph3	A-Ph4	A-Ph5	A-Ph6	A-Ph7	A-Ph8	A-Ph9	A-Ph10	A-Ph11	A-Ph12	A-Ph13	A-Ph14	A-Ph15	A-Ph16	B-AC1	B-AC2	B-AC3	B-AC4	B-AC5	B-AC6	B-AC7	B-AC8	B-AC9	B-AC10	B-AC11	B-AC12	B-AC13	B-AC14	B-AC15	B-AC16	B-DC1	B-DC2	B-DC3	B-DC4	B-DC5	B-DC6	B-DC7	B-DC8	B-DC9	B-DC10	B-DC11	B-DC12	B-DC13	B-DC14	B-DC15	B-DC16	B-Ph1	B-Ph2	B-Ph3	B-Ph4	B-Ph5	B-Ph6	B-Ph7	B-Ph8	B-Ph9	B-Ph10	B-Ph11	B-Ph12	B-Ph13	B-Ph14	B-Ph15	B-Ph16	aux-1	digaux	

2568.075	1	1	0	256	0.17075	0.29051	0.12262	0.22805	0.18415	0.11665	0.28062	0.35783	0.18152	0.075652	0.34342	0.092403	0.30194	0.27431	0.095282	0.1637	-4.4396	-4.4875	-5.2208	-4.5583	-4.8771	-5.2604	-4.5146	-5.3708	-4.8167	-4.3979	-5.2937	-4.5687	-4.8667	-5.3938	-4.2583	-5.1896	14.679	288.868	190.620	63.688	104.125	-17.117	221.362	273.784	183.403	162.442	207.690	-33.073	269.228	274.361	82.893	209.580	0.00067045	0.00046869	0.00013327	873.47	4.0708e-06	2.6037e-06	874.25	375.55	6.3757e-06	4.4641e-06	386.97	179.38	165.13	85.626	1.6529e-06	96.464	0.00012906	0.00011982	3.2609e-05	822.33	1.2935e-06	1.2822e-06	833.59	351.08	1.2772e-06	1.2537e-06	357.91	163.65	150.84	79.175	1.2539e-06	87.668	25.147	13.745	-4.503	-51.170	157.040	80.402	-53.661	-46.093	73.658	80.125	-49.137	-45.263	-42.542	-36.437	36.856	-40.777	-8191	255	
2568.171	1	1	0	0	0.070926	0.050193	0.034762	0.28127	0.32536	0.012733	0.080808	0.071807	0.14941	0.20739	0.12765	0.28119	0.049911	0.22996	0.057492	0.10453	-4.5979	-4.4812	-5.3708	-4.7146	-4.7833	-5.3083	-4.5604	-5.3042	-4.8562	-4.4208	-5.5354	-4.8917	-4.8708	-5.475	-4.2583	-5.2792	55.533	157.195	248.311	41.172	141.791	208.831	62.116	-8.194	65.965	257.212	259.942	152.787	136.542	254.749	73.428	176.486	0.00092921	0.00042725	0.00018793	875.94	5.441e-06	5.9201e-06	881.55	377.77	4.322e-06	5.279e-06	395.7	182.69	168.54	85.975	6.1211e-06	97.809	0.00012164	0.00011274	3.0776e-05	822.98	1.2028e-06	1.1766e-06	840.26	355.51	1.18e-06	1.1484e-06	365.13	166.31	153.14	79.548	1.1584e-06	88.769	32.466	58.256	-21.338	-51.596	53.161	73.143	-53.424	-46.097	116.771	90.614	-48.916	-45.006	-42.784	-36.323	84.193	-40.785	-8191	255	
2568.290	1	1	0	0	0.21781	0.066819	0.075375	0.19174	0.022966	0.13163	0.18016	0.27755	0.24258	0.28738	0.21795	0.23835	0.074696	0.24325	0.16711	0.11493	-4.65	-4.3917	-5.1271	-4.5542	-4.4917	-5.325	-4.6062	-5.175	-5.0875	-4.3083	-5.3917	-4.9104	-4.6083	-5.5458	-4.4375	-5.1396	23.531	216.549	-7.204	265.372	-41.957	122.788	244.563	233.348	-26.105	-26.475	223.537	249.998	167.150	-58.185	-55.778	276.359	0.00098223	0.00060419	0.00016316	880.45	5.1042e-06	3.3026e-06	885.33	379.1	7.3569e-06	4.2007e-06	398.55	182.55	166.99	85.597	3.7606e-06	97.607	0.00011394	0.00010352	2.8687e-05	823.97	1.1679e-06	1.1433e-06	843.1	356.4	1.1771e-06	1.1533e-06	367.48	166.97	152.7	79.226	1.167e-06	88.462	20.450	31.570	-3.972	-51.381	94.349	83.382	-53.498	-45.896	46.771	26.580	-49.077	-45.040	-42.677	-36.637	22.582	-40.754	-8191	255	
2568.386	1	1	0	0	0.15763	0.074645	0.089293	0.083329	0.21591	0.11496	0.057642	0.16559	0.10598	0.37263	0.095447	0.019141	0.30362	0.33449	0.082244	0.28913	-4.8104	-4.3688	-5.1375	-4.8771	-4.5542	-5.2646	-4.5979	-4.9604	-5.2104	-4.4375	-5.1792	-5.0167	-4.7063	-5.5	-4.4625	-4.8042	76.863	262.771	-19.545	50.503	3.662	185.718	154.740	231.237	235.006	-16.972	213.478	182.929	216.123	262.807	203.936	269.483	0.00083993	0.0005606	0.00015046	870.35	4.4552e-06	2.0928e-06	879.68	379.22	4.9191e-06	2.8534e-06	393.58	180.92	166.68	85.714	3.7171e-06	97.065	0.00011562	0.00010574	2.9058e-05	819.61	1.156e-06	1.1209e-06	837.17	354.17	1.1435e-06	1.1277e-06	363.2	165.26	151.97	79.312	1.159e-06	88.049	40.866	56.333	11.982	-51.622	91.857	36.913	-53.556	-46.294	102.193	41.188	-49.235	-45.177	-42.664	-36.714	106.115	-41.004	-8191	255	
2568.482	1	1	0	0	0.17117	0.10373	0.22512	0.12047	0.16186	0.1475	0.064025	0.23378	0.16467	0.021098	0.22575	0.16339	0.23299	0.1286	0.25439	0.34216	-4.85	-4.2042	-5.1083	-5.0604	-4.3187	-5.2521	-4.8583	-4.8354	-5.1542	-4.3542	-5.1375	-5.1333	-4.4521	-5.5417	-4.6167	-4.7	8.676	-25.774	49.520	289.540	36.320	-8.708	275.444	202.611	207.926	24.320	10.601	275.965	236.793	191.960	264.278	281.457	0.00084927	0.00035041	0.00015299	874	6.3714e-06	4.7399e-06	884.77	378.13	2.2638e-06	4.0997e-06	396.27	180.38	166.9	85.866	7.3166e-06	96.791	0.00011367	0.00010412	2.8928e-05	823.85	1.1536e-06	1.1261e-06	839.42	355.41	1.1436e-06	1.1489e-06	364.57	165.01	152.58	79.242	1.1583e-06	87.939	21.747	67.439	-8.951	-51.474	77.745	108.367	-53.209	-46.393	53.644	1.542	-49.041	-44.849	-42.501	-36.630	68.690	-41.036	-8191	255	
2568.603	1	1	0	0	0.043511	0.12708	0.15797	0.19684	0.17528	0.15095	0.096852	0.11548	0.14962	0.13585	0.29724	0.064007	0.11627	0.019301	0.14782	0.21162	-4.9875	-4.4083	-4.9271	-5.2438	-4.2771	-5.3562	-4.9167	-4.6604	-5.2917	-4.525	-4.8958	-5.3313	-4.4417	-5.3396	-4.85	-4.7417	80.875	189.129	-6.873	207.600	100.348	-55.406	264.195	239.709	179.999	109.124	192.876	188.924	-10.445	59.024	98.490	236.932	0.00073039	0.00038196	4.8945e-05	876.6	3.091e-06	2.8564e-06	881.7	378.34	5.2684e-06	3.1938e-06	394.76	180.63	166.29	85.709	3.5414e-06	97.502	0.0001155	0.00010404	2.9478e-05	822.16	1.169e-06	1.141e-06	838.77	354.44	1.1433e-06	1.1358e-06	364.22	165.41	151.91	79.105	1.1439e-06	88.221	14.782	30.378	30.963	-51.473	52.588	88.292	-53.497	-46.148	59.153	35.961	-49.375	-44.963	-42.568	-36.706	91.109	-41.145	-8191	255	
2568.674	1	1	0	0	0.14687	0.09411	0.092075	0.1127	0.27135	0.27032	0.21635	0.11897	0.28344	0.080691	0.19953	0.14572	0.20787	0.01778	0.22753	0.25856	-4.9667	-4.3542	-4.75	-5.2979	-4.2833	-5.1417	-5.0437	-4.6687	-5.3979	-4.6208	-4.7167	-5.375	-4.5667	-5.4375	-5.1417	-4.5813	171.964	223.092	90.600	230.971	182.532	-55.073	199.034	132.058	42.561	148.137	1.147	6.912	203.128	147.633	176.096	241.778	0.00089447	0.00074639	0.00020988	877.81	5.9783e-06	5.9145e-06	884.51	378.95	6.2304e-06	5.2323e-06	399.19	182.97	168.65	86.907	3.7562e-06	98.998	0.00011597	0.00010337	2.9552e-05	822.33	1.1405e-06	1.1314e-06	842.93	354.78	1.1273e-06	1.1097e-06	367.6	167.44	153.35	80.105	1.1337e-06	89.548	26.197	27.653	30.555	-51.318	48.600	89.670	-53.387	-46.114	120.982	81.978	-49.130	-45.014	-42.625	-36.669	53.723	-40.935	-8191	255	
2568.771	1	1	0	0	0.25882	0.10909	0.27892	0.26525	0.015515	0.089449	0.039337	0.30593	0.14365	0.069335	0.16817	0.18173	0.23694	0.21845	0.34416	0.33263	-5.0667	-4.5479	-4.5479	-5.2875	-4.2271	-5.0042	-5.2354	-4.4021	-5.1208	-4.6271	-4.6	-5.4042	-4.4729	-5.0583	-5.0708	-4.5563	93.781	267.294	58.423	206.495	56.710	38.943	-20.768	268.524	77.046	40.128	282.708	-55.695	47.874	229.654	235.649	209.834	0.00090572	0.00055159	0.00021499	878.36	3.4964e-06	5.2773e-06	883.45	381.03	5.9495e-06	4.8849e-06	396.23	181.63	166.94	86.153	6.1165e-06	97.746	0.00011129	0.00010294	2.8464e-05	826.15	1.1207e-06	1.1166e-06	840.11	356.57	1.1238e-06	1.1238e-06	364.53	165.69	152.68	79.55	1.1584e-06	88.299	27.912	47.425	-7.431	-51.430	22.996	35.461	-53.343	-46.110	103.857	69.492	-49.340	-45.205	-42.505	-36.697	51.362	-41.160	-8191	255	
2568.891	1	1	0	0	0.019918	0.057265	0.17041	0.14972	0.066409	0.12294	0.099775	0.050188	0.23751	0.049767	0.13336	0.093595	0.13375	0.2229	0.13942	0.215	-4.9062	-4.6708	-4.5083	-5.4604	-4.5396	-4.8208	-5.3354	-4.5312	-5.1646	-4.8354	-4.4333	-5.3896	-4.6021	-4.9187	-5.1146	-4.5479	190.458	-12.246	123.671	11.672	243.914	292.705	72.184	41.585	183.300	37.972	216.226	292.285	29.763	268.822	148.360	273.451	0.0010639	0.00058825	0.00024137	867.67	2.869e-06	6.6753e-06	878	378.05	7.7879e-06	4.5381e-06	394.11	180.2	166.32	85.828	3.3203e-06	96.941	0.00011382	0.00010274	2.9075e-05	820.13	1.1396e-06	1.1509e-06	835.98	354.16	1.1408e-06	1.1354e-06	362.68	164.61	151.82	79.213	1.1498e-06	88.108	22.293	21.199	23.429	-51.457	35.655	38.369	-53.612	-46.303	72.533	53.958	-49.470	-45.026	-42.518	-36.781	59.420	-40.793	-8191	255	
2568.987	1	1	0	0	0.17096	0.10578	0.22796	0.081411	0.20629	0.13217	0.24546	0.23144	0.014399	0.1449	0.12223	0.24118	0.16998	0.12218	0.24629	0.10379	-4.7896	-4.9604	-4.5104	-5.3458	-4.6229	-4.6667	-5.3417	-4.4271	-4.8333	-5.0583	-4.5771	-5.3708	-4.8542	-4.7063	-5.2792	-4.4271	252.977	81.914	49.050	43.979	194.672	264.907	223.470	257.027	-61.368	27.147	276.695	-39.347	269.837	247.845	248.459	216.033	0.00084274	0.00035466	0.00016929	869.56	5.9949e-06	4.1082e-06	881.58	378.05	4.6055e-06	3.5551e-06	394.17	180.29	166.88	86.298	3.4552e-06	97.968	0.00011462	0.00010335	2.8985e-05	819.01	1.1223e-06	1.1314e-06	836.67	353.11	1.1473e-06	1.1228e-06	362.57	165.14	152.44	79.62	1.1424e-06	88.614	28.443	13.113	13.121	-51.401	53.488	85.365	-53.315	-46.035	75.437	102.146	-49.069	-45.084	-42.695	-36.764	63.227	-40.881	-8191	255	
2569.082	1	1	0	0	0.053976	0.28992	0.085138	0.17511	0.25894	0.062997	0.14159	0.035852	0.23959	0.21363	0.063639	0.086027	0.083048	0.15616	0.058542	0.18324	-4.7646	-5.0479	-4.45	-5.3042	-4.6167	-4.5417	-5.3958	-4.4688	-5.0375	-5.0917	-4.4125	-5.625	-4.9333	-4.7	-5.3229	-4.6875	-55.516	221.110	73.003	208.985	168.846	183.913	238.333	-1.661	172.331	6.174	-4.734	256.524	275.375	256.916	146.015	271.669	0.00082063	0.00051075	0.00024926	880.98	3.315e-06	2.8295e-06	889.01	381.35	7.5379e-06	4.7816e-06	399.15	181.41	167.98	86.03	4.8919e-06	97.745	0.00011386	0.0001034	2.8605e-05	825.63	1.1407e-06	1.1443e-06	843.67	357.63	1.1417e-06	1.1321e-06	366.91	166.51	153.4	79.732	1.152e-06	88.664	42.089	13.642	30.363	-51.322	20.773	99.690	-53.484	-46.139	39.364	83.294	-49.601	-44.977	-42.501	-36.738	78.917	-40.778	-8191	255	
2569.202	1	1	0	0	0.20067	0.23493	0.1808	0.096064	0.11121	0.109	0.27749	0.10754	0.21919	0.098202	0.10397	0.10643	0.033864	0.28823	0.19536	0.095342	-4.6062	-5.1229	-4.2292	-5.2688	-4.6708	-4.5167	-5.4625	-4.5604	-4.7042	-5.1312	-4.4708	-5.0958	-5.0062	-4.5896	-5.2625	-4.7917	212.548	220.143	-49.477	130.020	239.585	-53.110	163.675	277.731	-34.414	-12.888	215.338	-8.889	97.993	272.765	203.126	194.675	0.00096618	0.00041171	0.00017988	871.86	5.2899e-06	5.4702e-06	882.24	378.12	8.0549e-06	3.167e-06	392.75	180.32	167.35	85.679	1.3885e-06	96.334	0.00011412	0.00010447	2.9046e-05	823.34	1.1522e-06	1.136e-06	838.09	354.99	1.1432e-06	1.1207e-06	362.49	164.93	152.07	79.021	1.1409e-06	87.445	28.538	20.720	-6.674	-51.404	57.504	65.436	-53.463	-46.281	132.067	32.662	-49.339	-45.083	-42.435	-36.729	60.113	-40.975	-8191	255	
2569.274	1	1	0	0	0.085981	0.15642	0.15452	0.15958	0.15101	0.070326	0.29582	0.038143	0.063937	0.079385	0.069677	0.17107	0.21862	0.3275	0.22021	0.16877	-4.4104	-5.2854	-4.3729	-5.0042	-4.9208	-4.4354	-5.4792	-4.9396	-4.5813	-5.4	-4.4375	-5.0667	-5.0854	-4.6312	-5.25	-4.8458	-4.506	161.063	136.976	253.326	204.306	230.580	225.444	168.769	177.071	121.065	188.711	279.033	266.452	234.237	19.032	17.890	0.00096966	0.000617	0.00015558	873.88	7.7889e-06	2.7748e-06	872.77	376.35	8.5295e-06	4.9795e-06	389.07	178.52	165.96	85.112	2.9554e-06	95.823	0.00011493	0.00010318	2.8745e-05	819.04	1.1448e-06	1.1471e-06	828.71	352	1.1715e-06	1.1436e-06	359.8	162.89	151.2	78.554	1.1725e-06	86.895	27.042	43.290	63.574	-51.259	75.731	101.751	-53.664	-46.063	103.810	100.037	-49.172	-44.983	-42.354	-36.659	37.487	-40.776	-8191	255	
2569.370	1	1	0	0	0.079808	0.11569	0.13046	0.084596	0.1175	0.0014453	0.1073	0.10651	0.052365	0.17103	0.1088	0.12984	0.13545	0.43111	0.069224	0.12702	-4.3187	-5.3542	-4.3792	-5.0188	-5.0542	-4.3688	-5.2521	-5.0208	-4.6292	-5.3292	-4.5021	-5.0375	-5.1292	-4.5667	-5.1479	-5.075	18.965	89.711	239.626	-54.649	38.340	180.000	295.031	154.490	92.946	35.498	-43.422	207.250	44.859	272.247	118.792	-45.189	0.00081861	0.00037996	8.8135e-05	870.88	2.0864e-06	3.6351e-06	876.61	376.76	9.6715e-06	5.4997e-06	394.09	179.17	166.56	85.345	3.276e-06	96.323	0.00011569	0.00010381	2.9237e-05	820.21	1.1278e-06	1.1406e-06	833.37	353.05	1.1568e-06	1.1343e-06	361.26	163.57	151.63	78.923	1.1643e-06	87.473	25.511	41.368	-12.619	-51.527	33.107	101.023	-53.621	-46.265	122.547	51.911	-49.265	-44.763	-42.214	-36.505	109.274	-40.810	-8191	255	
2569.466	1	1	0	0	0.16784	0.17507	0.12181	0.047031	0.14988	0.15831	0.23667	0.14488	0.16493	0.26186	0.078168	0.26555	0.09279	0.21272	0.17326	0.27127	-4.1896	-5.2292	-4.6438	-4.7625	-5.1833	-4.3146	-5.2063	-5.0833	-4.4458	-5.375	-4.7917	-4.9229	-5.3958	-4.7875	-4.9146	-5.1979	73.029	-13.384	161.797	180.706	218.711	145.081	249.001	265.283	42.831	-55.195	271.233	278.327	43.485	-57.654	96.649	254.365	0.00078224	0.00086742	0.00018774	867.57	4.72e-06	3.9557e-06	880.54	378.33	5.951e-06	4.6434e-06	394.75	179.87	166.69	85.569	5.0115e-06	97.321	0.00011487	0.00010485	2.9179e-05	818.49	1.1345e-06	1.1297e-06	836.56	354.12	1.1399e-06	1.1033e-06	362.48	164.78	151.73	79.009	1.1478e-06	88.129	39.915	29.909	-18.641	-51.400	32.323	82.449	-53.467	-46.193	60.975	47.277	-49.226	-44.991	-42.217	-36.511	82.149	-40.769	-8191	255	
2569.585	1	1	0	0	0.16932	0.12116	0.090039	0.24481	0.22877	0.16862	0.12798	0.1884	0.17966	0.16528	0.26763	0.20934	0.21414	0.19687	0.16442	0.22777	-4.125	-5.3187	-4.6312	-4.7104	-5.3479	-4.5062	-5.0708	-5.2875	-4.425	-5.1792	-4.7312	-4.7417	-5.3146	-4.7917	-4.9	-5.2812	195.316	213.668	-26.498	277.998	258.742	-1.686	-45.667	191.505	-23.603	230.118	232.136	282.611	-35.831	237.119	-3.387	273.016	0.00084108	0.00029988	0.00014248	870.15	2.498e-06	4.6936e-06	885.2	377.17	4.5724e-06	5.3168e-06	393.69	181.09	166.59	85.79	2.8148e-06	97.26	0.00011285	0.0001024	2.8403e-05	818.1	1.1006e-06	1.1018e-06	837.01	352.81	1.124e-06	1.1196e-06	362.48	165.43	151.81	79.151	1.1077e-06	88.054	28.358	20.784	36.720	-51.436	108.684	108.282	-53.286	-45.829	73.281	66.357	-49.024	-45.128	-42.585	-36.873	96.622	-40.646	-8191	255	
2569.681	1	1	0	0	0.3391	0.19524	0.27003	0.11006	0.046493	0.087368	0.086486	0.232	0.16874	0.10987	0.14505	0.11554	0.2396	0.26107	0.034693	0.26032	-4.0229	-5.1792	-4.8708	-4.6438	-5.1625	-4.4292	-4.8604	-5.3396	-4.175	-5.0479	-4.9229	-4.5437	-5.4896	-4.6896	-4.6354	-5.3104	223.934	115.252	74.452	272.183	156.535	73.611	255.810	255.369	-14.394	272.596	-55.114	258.195	-3.621	270.368	43.836	192.942	0.0010068	0.00070512	0.0001561	869.51	9.6343e-06	1.6914e-06	877.74	378.4	2.2017e-06	7.975e-06	394.06	180.37	167.56	85.325	3.8271e-06	96.592	0.00011252	0.00010105	2.7727e-05	818.1	1.1034e-06	1.0888e-06	833.27	354.44	1.1297e-06	1.0958e-06	363.78	164.78	152.53	78.925	1.1278e-06	87.56	23.950	17.039	27.363	-51.351	47.602	164.641	-53.426	-45.816	157.737	66.428	-49.241	-45.134	-42.210	-36.662	13.989	-40.824	-8191	255	
2569.778	1	1	0	0	0.033938	0.23398	0.20378	0.052403	0.126	0.11201	0.17194	0.12077	0.11139	0.11953	0.13186	0.18369	0.25663	0.28486	0.073236	0.15697	-4.0896	-4.8792	-4.8021	-4.4833	-5.3063	-4.5771	-4.8125	-5.1625	-4.2271	-5.075	-4.9833	-4.5271	-5.3667	-4.825	-4.5917	-5.4542	-11.478	221.616	64.611	136.236	72.009	221.252	217.722	293.196	164.874	24.760	-21.270	279.860	286.156	278.768	7.735	210.681	0.00082051	0.00035839	0.00017456	873.98	6.2929e-06	5.1667e-06	875.7	378.33	9.8416e-07	5.2226e-06	393.97	177.91	165.85	83.941	6.9175e-06	95.606	0.00011044	0.00010291	2.7924e-05	819.32	1.1207e-06	1.1042e-06	833.56	353.8	1.1334e-06	1.1176e-06	362.29	163.3	151.34	77.558	1.144e-06	86.45	23.470	10.520	9.605	-51.510	18.420	62.186	-53.340	-45.946	87.198	62.916	-48.966	-45.123	-42.558	-36.545	65.758	-40.791	-8191	255	
2569.874	1	1	0	0	0.024506	0.053364	0.29009	0.12036	0.010853	0.16587	0.21723	0.20648	0.11701	0.18285	0.20729	0.093557	0.025184	0.22923	0.16182	0.25569	-3.9833	-4.8375	-5.1188	-4.5729	-5.2708	-4.7812	-4.6729	-5.4	-4.25	-4.8021	-5.2417	-4.4729	-5.2979	-4.95	-4.4979	-5.5521	28.485	17.359	-24.063	202.529	79.508	245.908	277.151	230.266	103.964	-11.584	255.709	201.504	100.772	273.011	145.151	255.325	0.00088318	0.00029701	0.00015566	865.3	7.6648e-06	6.343e-06	876.01	374.94	6.6758e-06	1.541e-06	395.97	179.89	166.12	84.649	6.5512e-06	96.111	0.00011393	0.00010373	2.8302e-05	814.23	1.1359e-06	1.1314e-06	832.54	351.9	1.1471e-06	1.1353e-06	363.04	164.33	151.72	78.052	1.1672e-06	87.304	30.020	13.638	-21.484	-51.645	64.664	58.691	-53.620	-46.122	88.929	12.859	-48.928	-44.933	-42.607	-36.548	54.550	-40.660	-8191	255	
2569.970	1	1	0	0	0.16434	0.12188	0.17671	0.12276	0.0088568	0.20446	0.30343	0.2561	0.14053	0.24334	0.079946	0.10431	0.24027	0.30179	0.15237	0.11102	-4.15	-4.7667	-5.0896	-4.3604	-5.0708	-4.7646	-4.5146	-5.4479	-4.7854	-4.775	-5.4187	-4.5042	-5.3042	-5.1	-4.4146	-5.4479	-32.601	127.371	130.610	205.726	-61.618	-36.513	199.039	262.605	59.078	10.797	193.294	-40.869	3.674	232.724	100.266	263.005	0.00086244	0.00049846	0.00016555	873.72	3.8002e-06	1.7824e-06	879.16	379.57	8.2598e-06	4.0463e-06	397.78	179.6	166.97	84.733	1.6533e-06	95.984	0.00011402	0.00010541	2.8195e-05	820.93	1.1589e-06	1.1225e-06	838.01	354.85	1.1595e-06	1.1422e-06	364.79	164.14	151.89	78.304	1.1425e-06	86.878	23.088	44.361	11.990	-51.495	30.068	116.105	-53.651	-46.112	66.565	87.680	-49.490	-45.083	-42.085	-36.717	115.217	-40.976	-8191	255	
2570.066	1	1	0	0	0.10871	0.16355	0.20588	0.071408	0.066441	0.2583	0.21859	0.12988	0.18177	0.24759	0.22535	0.060792	0.096049	0.18881	0.19921	0.17584	-4.175	-4.7167	-5.3438	-4.5229	-4.9229	-5.0021	-4.4583	-5.4146	-4.4563	-4.5	-5.2833	-4.5458	-4.8979	-5.0625	-4.2875	-5.4271	243.957	-57.799	199.205	-63.353	260.394	181.500	279.842	-23.075	280.826	116.004	163.387	274.795	182.990	-33.838	291.243	237.645	0.00090751	0.00065653	0.00021217	866.04	1.7885e-06	3.4913e-06	872.12	377.65	3.9818e-06	3.8482e-06	390.75	178.99	166.55	84.703	8.8084e-07	95.417	0.00011398	0.00010379	2.8462e-05	817.58	1.1364e-06	1.1079e-06	827.97	353.56	1.1241e-06	1.121e-06	360.44	162.93	151.53	78.335	1.1476e-06	86.675	26.818	27.543	-33.184	-51.588	41.789	117.524	-53.572	-46.219	6.613	60.938	-49.135	-44.920	-42.520	-36.560	-46.541	-41.080	-8191	255	
2570.162	1	1	0	0	0.2417	0.07851	0.25187	0.18936	0.071206	0.10828	0.16291	0.30848	0.14599	0.18408	0.12125	0.22183	0.29113	0.10329	0.10576	0.25128	-4.4375	-4.6333	-5.2937	-4.4479	-4.9354	-5.0979	-4.4187	-5.2937	-4.7937	-4.5583	-5.3917	-4.6708	-4.8979	-5.325	-4.2708	-5.2688	-26.457	89.009	234.029	271.681	6.971	220.497	207.531	-52.624	90.278	-26.842	257.041	-3.193	-42.154	6.324	277.865	-63.991	0.00082415	0.00071734	0.00012987	865.7	5.6368e-06	3.8207e-06	877.58	377.24	3.0794e-06	3.1852e-06	394.02	178.66	167.06	85.618	4.8011e-06	96.428	0.00011126	0.00010215	2.7857e-05	814.47	1.1054e-06	1.0956e-06	831.77	353.63	1.1338e-06	1.107e-06	362.84	163.67	152.09	78.818	1.1254e-06	87.353	26.869	31.529	-12.231	-51.385	84.943	64.668	-53.756	-46.198	112.452	85.122	-49.220	-45.067	-42.280	-36.542	53.079	-40.901	-8191	255	
2570.283	1	1	0	0	0.12721	0.17905	0.017871	0.25603	0.24277	0.15103	0.10023	0.16213	0.10527	0.31378	0.33687	0.15194	0.31214	0.24939	0.05303	0.046297	-4.4417	-4.3917	-5.2021	-4.6062	-4.5167	-5.2438	-4.4104	-5.1792	-4.7312	-4.3063	-5.375	-4.6833	-4.8729	-5.4271	-4.4417	-4.9708	-37.315	-59.581	30.119	260.757	118.343	-30.523	-63.185	53.359	237.036	116.873	234.105	206.420	232.080	267.694	-4.040	294.524	0.00080131	0.00056952	0.00014797	875.56	6.2145e-06	3.6347e-06	885.87	382.95	3.3819e-06	1.7357e-06	403.47	180.28	168.74	85.466	3.9583e-06	97.051	0.00011041	0.00010011	2.8061e-05	822.38	1.1055e-06	1.091e-06	840.86	359.38	1.1057e-06	1.1131e-06	369.32	165.1	153.83	78.976	1.1435e-06	87.808	32.732	-23.221	11.665	-51.203	47.111	57.704	-53.173	-46.152	105.084	45.488	-48.945	-45.052	-42.581	-36.363	42.187	-40.878	-8191	255	
2570.379	1	1	0	0	0.084796	0.12994	0.25301	0.058398	0.13266	0.16932	0.2371	0.18422	0.09847	0.25748	0.14796	0.12186	0.082394	0.34655	0.12867	0.2182	-4.7021	-4.2792	-5.1708	-4.6958	-4.525	-5.2021	-4.4792	-5.0583	-5.0667	-4.4625	-5.4313	-4.8271	-4.5958	-5.4083	-4.4333	-4.8646	1.780	36.264	156.918	268.387	144.561	57.909	-45.576	236.515	268.280	158.434	123.476	250.086	72.715	267.998	27.109	204.287	0.00097041	0.00047478	0.00018242	873.91	3.2873e-06	4.3536e-06	889.2	386.42	6.5698e-06	4.2793e-06	400.68	180.86	168.14	85.549	4.8624e-06	96.463	0.00011394	0.00010296	2.8659e-05	824.43	1.1318e-06	1.1139e-06	844.94	360.26	1.1345e-06	1.1414e-06	368.37	165.31	153.49	78.981	1.1591e-06	87.523	24.611	61.217	-12.948	-51.668	85.470	58.934	-53.561	-46.180	61.108	104.179	-49.380	-45.197	-42.420	-36.463	95.570	-40.835	-8191	255	
2570.475	1	1	0	0	0.11786	0.15328	0.098982	0.19137	0.29882	0.15384	0.14349	0.083963	0.071182	0.14328	0.052254	0.19163	0.21278	0.17652	0.078921	0.11373	-4.9625	-4.2542	-5.1479	-4.9938	-4.4917	-5.3917	-4.6375	-4.8167	-5.1813	-4.4	-5.1708	-5.0208	-4.7396	-5.6146	-4.8021	-4.9396	148.568	252.827	58.231	165.105	-55.879	124.624	225.042	193.992	137.679	87.016	261.580	279.074	235.434	169.183	56.340	42.285	0.00077328	0.00051817	0.00015498	873.1	2.6472e-06	4.747e-06	880.8	381.44	2.6147e-06	3.8417e-06	394.44	178.03	167.79	85.736	6.2889e-06	95.632	0.00011337	0.00010541	2.9178e-05	822.16	1.1599e-06	1.1441e-06	836.04	357.21	1.1743e-06	1.1654e-06	363.72	163.41	152.86	79.148	1.1874e-06	86.948	24.190	2.879	15.227	-51.306	56.369	134.724	-53.501	-46.226	1.561	80.811	-48.801	-45.009	-42.506	-36.394	58.967	-40.709	-8191	255	
2570.571	1	1	0	0	0.21568	0.092901	0.11993	0.11685	0.36796	0.12075	0.1536	0.015963	0.18014	0.20534	0.28243	0.14809	0.30382	0.28007	0.20211	0.21596	-4.8646	-4.3792	-5.0875	-5.0396	-4.5437	-5.2792	-4.8729	-4.6729	-5.3	-4.4083	-5.0646	-5.1146	-4.5542	-5.4229	-4.7	-4.8542	69.073	53.686	190.505	183.111	92.805	56.898	250.414	-25.237	59.180	279.728	-60.860	227.004	269.973	239.146	153.966	219.571	0.00089806	0.00033251	5.1038e-05	876.55	5.364e-06	4.222e-06	879.83	386.14	3.1598e-06	4.7302e-06	398.59	179.94	169.56	86.945	4.6658e-06	97.422	0.00011756	0.00010794	3.045e-05	826.06	1.2256e-06	1.2026e-06	837.5	360.98	1.195e-06	1.1913e-06	367.33	165.05	154.81	80.446	1.1732e-06	88.318	38.825	64.412	98.091	-51.537	23.454	88.505	-53.509	-46.040	95.576	106.254	-49.221	-45.038	-42.519	-36.339	26.509	-40.868	-8191	255	
2570.666	1	1	0	0	0.060058	0.071136	0.044944	0.25598	0.04496	0.056651	0.16853	0.27637	0.14991	0.20611	0.1818	0.24836	0.1441	0.2968	0.28784	0.032885	-4.9167	-4.2333	-4.9333	-5.2562	-4.2604	-5.2583	-4.8187	-4.6083	-5.1104	-4.3208	-5.0604	-5.2479	-4.4792	-5.5437	-4.8938	-4.6792	159.976	-36.843	241.987	124.444	80.632	196.899	295.912	241.051	-43.393	33.463	-19.970	260.471	231.436	270.847	58.298	274.005	0.0010875	0.00051508	0.00010235	880.95	6.4478e-06	3.1683e-06	891.6	387.03	4.115e-06	1.7802e-06	399.26	181.78	170.06	87.112	4.6329e-06	97.683	0.00011553	0.00010746	2.9516e-05	829.22	1.1829e-06	1.1467e-06	844.59	362.44	1.1825e-06	1.1886e-06	368.28	166.09	154.95	80.686	1.2073e-06	88.711	35.266	7.734	49.449	-51.551	30.207	43.949	-53.535	-45.936	5.213	2.840	-49.027	-45.063	-42.568	-36.695	40.356	-40.839	-8191	255	
2570.762	1	1	0	0	0.036223	0.24463	0.13323	0.24492	0.14207	0.058309	0.16667	0.15335	0.14688	0.091888	0.034041	0.14385	0.24366	0.32717	0.15837	0.30412	-5.0104	-4.4104	-4.7229	-5.2042	-4.2896	-5.2271	-5.1375	-4.5813	-5.3604	-4.6125	-4.8083	-5.3187	-4.4187	-5.0958	-4.9542	-4.7229	47.925	250.495	-57.719	139.874	17.767	88.493	209.841	223.168	110.139	12.566	57.648	249.647	-52.387	283.950	158.613	224.441	0.00084465	0.0005406	0.00011462	879.58	6.7552e-06	5.5492e-06	884.12	385.96	4.8896e-06	4.6377e-06	401.17	181.49	169.63	86.284	3.4399e-06	96.984	0.00012073	0.00011064	3.095e-05	827.74	1.2409e-06	1.2258e-06	842.02	360.87	1.2408e-06	1.2347e-06	368.92	166.18	154.36	79.986	1.2222e-06	87.853	20.414	10.511	-18.503	-51.236	68.244	102.678	-53.486	-46.097	175.490	48.471	-49.276	-44.917	-42.374	-36.403	36.765	-40.749	-8191	255	
2570.882	1	1	0	0	0.07016	0.17669	0.14394	0.20142	0.14658	0.12343	0.015248	0.17864	0.26605	0.21855	0.12635	0.31835	0.20743	0.23012	0.14077	0.33284	-4.9667	-4.6687	-4.6167	-5.3646	-4.4854	-4.9688	-5.1937	-4.5792	-5.0729	-4.5354	-4.6792	-5.3938	-4.4792	-5.1042	-5.0271	-4.5833	246.224	263.313	58.641	237.813	73.980	178.824	-49.569	240.408	171.186	-6.010	-15.637	294.740	268.282	291.151	80.990	269.084	0.00075513	0.00042215	0.0001003	878.14	4.5999e-06	2.5299e-06	878.14	386.18	3.2389e-06	4.445e-06	397.78	179.48	169.31	86.126	6.0122e-06	96.125	0.00012186	0.00011222	3.1276e-05	826.79	1.2285e-06	1.2376e-06	835.03	360.77	1.2135e-06	1.2028e-06	366.31	164.41	154.26	79.545	1.1751e-06	87.192	19.542	14.033	74.080	-51.442	60.775	120.499	-53.671	-46.059	36.843	79.432	-49.323	-44.752	-42.406	-36.542	68.363	-40.742	-8191	255	
2570.979	1	1	0	0	0.17191	0.10166	0.18026	0.05575	0.10544	0.084239	0.03229	0.35275	0.099047	0.14911	0.20543	0.1336	0.23803	0.23132	0.15077	0.12996	-4.925	-4.7521	-4.5188	-5.4604	-4.3187	-4.8479	-5.2667	-4.4583	-4.9854	-4.7958	-4.4854	-5.45	-4.4833	-4.9583	-5.1562	-4.5625	75.988	234.896	6.131	202.348	84.273	145.906	11.288	279.883	145.076	151.288	183.767	236.154	279.905	237.904	111.481	221.525	0.00087437	5.5935e-05	0.00016332	874.03	2.8752e-06	2.9658e-06	878.6	381.87	4.2691e-06	5.7348e-06	396.95	179.28	169.49	85.627	4.4051e-06	95.903	0.00011734	0.00010616	3.0017e-05	823.06	1.1693e-06	1.1758e-06	834.63	358.22	1.1859e-06	1.1656e-06	365.5	163.93	153.9	79.243	1.1715e-06	87.275	34.014	290.581	-6.783	-51.388	138.124	103.773	-53.521	-46.040	89.896	43.467	-49.395	-44.917	-42.598	-36.512	33.301	-40.672	-8191	255	
2571.075	1	1	0	0	0.057542	0.1541	0.1084	0.1934	0.13441	0.09544	0.060805	0.23625	0.10876	0.098	0.13417	0.16398	0.076545	0.22549	0.039934	0.14474	-4.7812	-4.8708	-4.4667	-5.2688	-4.4146	-4.6042	-5.3625	-4.5042	-5.0354	-5.0104	-4.5354	-5.4208	-4.7396	-4.8375	-5.1167	-4.4896	170.610	-7.299	175.718	19.005	284.749	22.755	68.549	210.851	214.321	162.298	202.039	-44.954	-54.981	228.099	183.726	246.793	0.00082065	0.00073208	7.7429e-05	874.13	1.0336e-05	4.0864e-06	877.03	382.69	5.5248e-06	2.8312e-06	397.43	180.43	169.61	85.902	3.4294e-06	96.543	0.0001171	0.00010478	2.9743e-05	821.55	1.1836e-06	1.1503e-06	835.26	358.76	1.1734e-06	1.1449e-06	367.73	165.3	154.28	79.279	1.1774e-06	87.657	41.398	45.424	70.331	-51.142	60.615	74.741	-53.187	-46.026	135.818	60.760	-49.042	-45.172	-42.137	-36.270	83.768	-40.665	-8191	255	
2571.171	1	1	0	0	0.25375	0.097788	0.15777	0.22293	0.12451	0.21642	0.072152	0.19584	0.048863	0.1042	0.17876	0.23683	0.010841	0.34908	0.14508	0.18737	-4.675	-4.9021	-4.1	-5.3083	-4.4917	-4.5813	-5.4125	-4.6042	-4.9292	-5.0583	-4.5292	-5.3604	-4.7688	-4.7458	-5.2479	-4.675	105.277	273.250	102.822	273.252	65.541	280.352	89.944	258.898	-31.448	-48.116	246.296	207.110	3.068	295.812	83.211	166.515	0.00078983	0.00072164	9.0249e-05	877.16	7.3747e-06	1.6536e-06	890.15	387.16	8.4129e-06	3.339e-06	402.26	182.39	170.73	85.94	7.2875e-06	97.501	0.00011802	0.00010673	2.9479e-05	825.96	1.1701e-06	1.158e-06	844.36	362.22	1.1705e-06	1.1413e-06	371.66	166.67	155.49	79.54	1.1562e-06	88.179	18.477	22.401	1.456	-51.159	70.727	55.948	-53.515	-45.935	134.387	99.119	-49.171	-45.134	-42.377	-36.443	37.446	-40.886	-8191	255	
2571.267	1	1	0	0	0.21805	0.22887	0.10326	0.13473	0.24245	0.012824	0.063313	0.28536	0.066613	0.12669	0.083437	0.2145	0.12771	0.18369	0.023412	0.13177	-4.3854	-5.1771	-4.4521	-5.1354	-4.7458	-4.4458	-5.425	-4.5604	-4.7604	-5.1667	-4.4771	-5.275	-5.0479	-4.5271	-5.2125	-4.6604	169.038	86.371	-38.296	-63.513	22.964	-61.000	4.898	-56.896	253.449	56.803	174.254	-0.316	289.200	-45.504	244.598	124.457	0.00088849	0.00034425	0.00019393	875.07	1.0635e-05	6.5388e-06	882.73	386.26	5.3711e-06	6.5601e-06	398.18	179.5	169.03	85.943	3.2732e-06	95.897	0.00011719	0.00010578	2.9574e-05	826.09	1.1529e-06	1.1446e-06	838.5	361.2	1.1719e-06	1.1583e-06	367.39	164.6	154.21	79.263	1.1916e-06	87.116	28.147	36.121	4.756	-51.144	35.965	29.407	-53.520	-45.941	93.709	80.031	-49.394	-45.146	-42.441	-36.762	1.447	-40.920	-8191	255	
2571.363	1	1	0	0	0.10494	0.048809	0.018988	0.30149	0.08594	0.21069	0.13493	0.026721	0.067861	0.035487	0.10047	0.11188	0.16994	0.060195	0.083038	0.1263	-4.3979	-5.2375	-4.3812	-5.0583	-5.0667	-4.2833	-5.3708	-4.8292	-4.7375	-5.1167	-4.4417	-5.1125	-5.1	-4.5938	-5.0979	-4.6896	237.573	-29.238	104.503	-53.016	139.969	-45.906	212.235	-33.525	172.528	227.616	245.061	-63.376	-20.427	30.462	182.452	116.058	0.0011321	0.0003774	9.9229e-05	871.61	2.0477e-06	2.6494e-06	879.75	383.86	3.1459e-06	5.4946e-06	397.68	180.5	170.35	86.135	2.2968e-06	96.553	0.00011655	0.00010659	2.9555e-05	821.98	1.1533e-06	1.1709e-06	834.82	360.7	1.1807e-06	1.171e-06	366.71	164.72	154.75	79.676	1.1967e-06	87.63	31.279	17.622	-58.149	-51.335	-1.758	35.710	-53.655	-45.971	77.018	63.418	-49.141	-44.971	-42.373	-36.493	102.355	-40.897	-8191	255	
2571.459	1	1	0	0	0.087373	0.11636	0.15272	0.19865	0.15154	0.13706	0.12786	0.11331	0.10208	0.19929	0.028572	0.050628	0.10128	0.27355	0.014367	0.17259	-4.2271	-5.1813	-4.3562	-4.9104	-5.0771	-4.2875	-5.2979	-4.95	-4.4167	-5.0896	-4.5042	-4.875	-5.2958	-4.5938	-5.1375	-5.0271	256.568	152.126	5.220	-42.660	123.836	39.755	62.633	243.512	-20.175	91.323	-22.155	263.041	293.374	295.729	-35.504	217.189	0.001034	0.00063351	0.00018421	875.65	4.6623e-06	5.8267e-06	883.42	388.15	4.6135e-07	4.5554e-06	402.35	181.29	171.72	87.324	1.6715e-06	98.065	0.00011815	0.00010599	3.005e-05	826.61	1.1683e-06	1.1599e-06	840.57	363.37	1.1727e-06	1.156e-06	370.14	166.27	156.58	80.671	1.1818e-06	88.846	46.533	49.064	15.537	-51.483	108.963	72.626	-53.390	-45.844	79.290	76.283	-49.291	-45.200	-42.251	-36.431	-28.170	-40.461	-8191	255	
2571.556	1	1	0	0	0.16682	0.2624	0.029042	0.052343	0.20694	0.11767	0.18225	0.15536	0.12541	0.22406	0.21258	0.27559	0.10287	0.33722	0.058249	0.14095	-4.1208	-5.3771	-4.5208	-4.7917	-5.2354	-4.375	-5.2167	-4.975	-4.4833	-5.1396	-4.6021	-4.7625	-5.3729	-4.5396	-5.0042	-5.25	192.045	220.575	234.708	89.402	192.578	159.459	256.878	191.049	-49.813	-63.660	179.788	268.368	204.399	263.213	-19.644	253.695	0.00079838	0.00036968	0.00018281	880.65	4.025e-06	2.0564e-06	887.85	389.64	4.6618e-06	3.7791e-06	404.99	183.51	173.1	88.273	2.3106e-06	99.61	0.00011997	0.00010808	3.004e-05	829.27	1.1736e-06	1.1877e-06	845.27	364.66	1.1853e-06	1.1652e-06	373.83	167.9	157.16	81.578	1.1608e-06	90.17	23.856	47.767	27.986	-51.434	20.790	5.653	-53.368	-45.844	96.793	41.541	-49.148	-44.933	-42.593	-36.448	87.892	-40.872	-8191	255	
2571.674	1	1	0	0	0.071002	0.15151	0.21131	0.13918	0.081437	0.15959	0.24444	0.15577	0.1717	0.050525	0.21265	0.17827	0.32515	0.096264	0.10662	0.11363	-4.1458	-5.1771	-4.6958	-4.6208	-5.1083	-4.4333	-5.2125	-5.0583	-4.1917	-5.3125	-4.7271	-4.6521	-5.3458	-4.7208	-4.8583	-5.3021	88.632	283.394	215.990	256.184	46.579	-42.393	257.075	207.846	40.249	186.413	276.139	293.937	264.495	219.420	49.711	-47.446	0.0010168	0.00030378	0.00016538	884.22	3.8286e-06	4.5323e-06	890.46	390.05	7.7919e-06	3.7894e-06	405.89	184.97	172.56	90.013	4.2697e-06	99.953	0.0001144	0.00010283	2.8048e-05	829.48	1.0933e-06	1.0941e-06	844.33	364.95	1.1126e-06	1.0841e-06	372.14	169.05	157.38	83.079	1.1083e-06	90.821	14.199	-4.543	26.481	-51.323	66.491	76.874	-53.503	-45.845	106.568	39.118	-49.103	-45.171	-42.290	-36.548	68.593	-40.740	-8191	255	
2571.771	1	1	0	0	0.033882	0.13481	0.059215	0.18738	0.082847	0.04117	0.30442	0.17959	0.08758	0.12241	0.14927	0.14039	0.26493	0.26825	0.13444	0.18249	-4.0125	-5.0417	-4.7125	-4.5229	-5.2646	-4.5854	-5.1271	-5.2188	-4.3104	-5.2208	-4.9938	-4.4437	-5.4208	-4.7521	-4.6625	-5.5312	231.963	-50.918	-30.341	155.955	235.991	6.130	244.805	-0.297	-57.196	-12.790	217.970	226.654	287.624	-61.731	103.399	135.708	0.0008014	0.00066442	0.00011397	882.78	8.7707e-06	4.7276e-06	888.79	389.17	6.6558e-06	5.1366e-06	403.26	183.6	171.78	88.581	2.9931e-06	98.088	0.0001127	0.00010076	2.753e-05	831.57	1.0986e-06	1.1083e-06	843.45	365.33	1.1495e-06	1.1265e-06	370.17	167.8	156.68	81.795	1.18e-06	89	27.959	37.930	42.116	-51.512	21.191	65.927	-53.558	-45.712	38.158	111.539	-49.013	-45.030	-42.251	-36.527	60.005	-40.980	-8191	255	
2571.844	1	1	0	0	0.1093	0.24124	0.11454	0.18921	0.081307	0.1055	0.17541	0.21993	0.0883	0.092039	0.26166	0.14263	0.17418	0.30153	0.081511	0.14068	-3.9875	-5.0583	-4.9146	-4.3958	-5.2521	-4.6396	-4.8208	-5.4854	-4.3667	-5.1167	-5.1896	-4.4	-5.3458	-4.8104	-4.5354	-5.4146	17.158	264.132	28.531	291.778	119.815	115.454	183.759	-7.653	172.628	205.957	209.035	18.984	18.753	163.124	-46.818	270.714	0.00097508	0.00047624	0.00018914	879.36	5.1246e-06	4.7092e-06	880.8	384.97	5.3647e-06	5.6222e-06	396.71	179.95	169.69	86.277	1.7657e-06	96.429	0.0001178	0.0001084	3.0349e-05	827.12	1.2198e-06	1.1994e-06	837.31	360.42	1.2439e-06	1.2149e-06	365.68	164.41	154.29	79.7	1.222e-06	87.444	29.728	57.121	12.851	-51.323	35.925	75.308	-53.227	-45.924	113.961	74.188	-49.308	-45.265	-42.175	-36.298	155.328	-40.833	-8191	255	
2571.963	1	1	0	0	0.1008	0.17823	0.043146	0.36076	0.15011	0.21792	0.18926	0.085438	0.082951	0.26487	0.070752	0.2424	0.11637	0.042931	0.10931	0.16515	-4.0021	-4.8792	-5.1958	-4.4479	-5.1	-4.7583	-4.5854	-5.3875	-4.4396	-4.8333	-5.1854	-4.5938	-5.25	-4.9187	-4.3521	-5.4771	33.293	172.035	13.228	-26.669	14.225	-3.886	83.023	244.035	78.502	66.483	-3.242	240.833	294.289	292.469	144.161	274.123	0.00099421	0.00042735	0.00013201	876.81	6.9448e-06	4.7736e-06	876.93	382.5	2.8803e-06	4.3819e-06	396.69	181.62	169.61	87.518	9.6081e-07	98.421	0.0001201	0.00010965	2.9941e-05	823.21	1.1784e-06	1.1676e-06	836.24	358.93	1.2056e-06	1.1611e-06	366.13	166.03	154.12	80.971	1.1777e-06	89.005	32.105	33.024	38.612	-51.231	39.006	60.965	-53.446	-46.089	109.390	63.560	-49.054	-45.069	-42.210	-36.602	264.869	-40.795	-8191	255	
2572.059	1	1	0	0	0.066403	0.20268	0.40868	0.34691	0.054533	0.17694	0.18337	0.027818	0.17603	0.13538	0.072852	0.19204	0.29581	0.23746	0.37415	0.091559	-3.9521	-4.7542	-5.2	-4.4354	-5.2354	-4.6687	-4.4979	-5.3229	-4.2854	-4.6771	-5.3792	-4.3	-5.3812	-5.1854	-4.4271	-5.5167	143.394	54.137	19.538	-58.125	288.005	124.457	186.787	43.583	189.962	23.550	-14.628	253.555	-17.957	280.189	-41.776	180.619	0.00088439	0.00075163	0.00018033	879.06	4.5934e-06	3.8382e-06	878.37	382.1	2.4353e-06	4.0868e-06	393.83	178.48	169.36	86.424	2.6808e-06	95.52	0.00011543	0.00010593	2.9135e-05	825.27	1.1534e-06	1.1365e-06	834.25	358.24	1.1744e-06	1.1679e-06	362.97	163.64	154.06	79.931	1.2073e-06	86.882	26.993	17.514	39.724	-51.317	36.025	69.943	-53.164	-45.695	11.607	60.891	-48.993	-44.889	-42.349	-36.602	7.541	-40.720	-8191	255	
2572.155	1	1	0	0	0.16659	0.14703	0.11296	0.13016	0.070473	0.056734	0.30279	0.24768	0.038686	0.14916	0.19892	0.11706	0.31652	0.16033	0.16628	0.17862	-4.225	-4.6958	-5.2146	-4.3875	-4.9104	-5.0104	-4.5625	-5.4479	-4.6917	-4.6958	-5.4042	-4.5687	-5.0479	-5.225	-4.1312	-5.3375	208.774	62.254	239.540	230.879	-20.043	197.338	267.467	293.941	255.521	48.411	232.113	-5.299	276.008	-37.829	13.563	278.418	0.00084359	0.00042238	3.8146e-05	875	7.4245e-06	6.5158e-06	870.88	381.97	2.1289e-06	4.9003e-06	388.26	177.33	167.49	87.142	3.066e-06	96.162	0.00011761	0.00010757	2.956e-05	823.29	1.1855e-06	1.1603e-06	827.87	356.49	1.159e-06	1.1649e-06	358.29	161.83	152.49	80.318	1.1608e-06	87.232	27.200	63.246	17.626	-51.527	-3.756	86.817	-53.601	-45.725	170.833	112.307	-49.092	-45.043	-42.410	-36.511	115.764	-40.800	-8191	255	
2572.276	1	1	0	0	0.069155	0.15706	0.22551	0.16647	0.32992	0.091998	0.22689	0.047333	0.054516	0.040873	0.22962	0.13168	0.15631	0.1465	0.11889	0.19081	-4.3938	-4.5563	-5.2812	-4.5375	-4.725	-4.8979	-4.3833	-5.1979	-4.6875	-4.5417	-5.35	-4.4667	-4.9604	-5.2729	-4.0375	-5.1521	15.747	190.370	152.993	276.069	203.907	293.985	185.657	47.340	-38.010	-16.368	194.646	-27.332	209.646	254.340	87.072	266.154	0.00089752	0.00028394	0.00018271	876.64	5.3697e-06	4.7712e-06	868.73	378.93	8.0359e-06	2.7307e-06	387.54	176.33	166.46	87.319	3.669e-06	96.702	0.00011294	0.00010436	2.8988e-05	822.6	1.1194e-06	1.1248e-06	826.9	354.89	1.1255e-06	1.1245e-06	358.34	161.86	152.12	80.589	1.1382e-06	87.646	37.822	61.093	21.734	-51.226	81.831	73.604	-53.413	-45.828	62.086	118.468	-49.110	-45.070	-42.336	-36.501	16.297	-40.766	-8191	255	
2572.372	1	1	0	0	0.086289	0.12118	0.080355	0.17448	0.030949	0.18938	0.016597	0.18831	0.10493	0.24469	0.22166	0.26778	0.13208	0.3525	0.14278	0.25775	-4.5229	-4.3583	-5.2958	-4.4667	-4.7771	-5.2042	-4.4625	-5.2708	-4.6833	-4.4812	-5.2396	-4.6292	-4.75	-5.3229	-4.4563	-5.2542	270.574	97.723	84.596	1.784	-1.190	185.903	276.311	280.903	-53.855	178.833	230.516	239.007	246.137	-45.893	-16.006	245.650	0.00083548	0.00011634	0.00011252	878.23	4.8901e-06	3.5895e-06	873.37	385.28	5.7904e-06	7.3259e-06	395.26	179.65	170.38	88.037	2.2529e-06	97.552	0.00011265	0.00010218	2.8558e-05	824.79	1.1385e-06	1.1183e-06	830.99	359.9	1.1349e-06	1.1271e-06	363.18	164.14	155.03	81.419	1.1202e-06	88.541	24.753	136.903	-45.442	-51.195	69.527	63.064	-53.735	-46.150	93.858	71.202	-49.107	-44.973	-42.649	-36.452	18.444	-40.860	-8191	255	
2572.444	1	1	0	0	0.056345	0.18469	0.16177	0.10454	0.08211	0.15008	0.31395	0.045084	0.082017	0.054193	0.13837	0.12187	0.080078	0.35905	0.24712	0.24695	-4.65	-4.3167	-5.1792	-4.75	-4.4375	-5.1896	-4.4604	-5.0271	-5.0354	-4.4583	-5.3187	-4.8896	-4.6042	-5.4146	-4.2958	-4.9396	198.804	274.045	85.199	-16.392	93.093	-60.445	185.493	267.308	29.326	78.154	179.608	228.428	-38.263	252.623	227.764	279.870	0.00091757	0.00056852	0.00017607	878.16	3.1729e-06	3.5579e-06	875.85	386.75	3.1024e-06	1.038e-06	393.81	178.17	169.57	87.932	2.3113e-06	97.536	0.00011274	0.00010219	2.8033e-05	827.64	1.1333e-06	1.1165e-06	833.34	361.59	1.1007e-06	1.1298e-06	361.85	162.88	154.41	81.34	1.0904e-06	88.157	36.637	23.099	45.367	-51.483	59.602	82.979	-53.273	-45.966	104.115	79.478	-49.075	-45.019	-42.370	-36.304	67.677	-40.910	-8191	255	
2572.564	1	1	0	0	0.066729	0.14271	0.16479	0.19384	0.11884	0.15117	0.19946	0.22409	0.082787	0.18394	0.36151	0.16056	0.09572	0.17895	0.16392	0.23172	-4.8146	-4.35	-5.1333	-4.7688	-4.3917	-5.3917	-4.6479	-4.9271	-5.175	-4.2646	-5.0979	-5.0604	-4.5396	-5.3833	-4.4354	-4.9854	191.125	50.890	144.981	230.315	70.836	2.178	112.579	233.453	12.169	152.382	235.059	282.751	-37.426	12.472	75.255	192.496	0.000888	0.0002784	0.00018776	874.14	1.4816e-06	1.9215e-06	870.08	384.32	3.4037e-06	6.2399e-06	390.35	177.48	169.68	87.931	4.3579e-06	96.792	0.00010848	9.9982e-05	2.7789e-05	823.42	1.0938e-06	1.0849e-06	829.27	359.34	1.1028e-06	1.0906e-06	360.66	162.19	154.39	81.274	1.0891e-06	87.675	31.128	35.178	33.988	-51.435	26.144	68.546	-53.611	-46.058	95.828	109.589	-48.989	-44.796	-42.398	-36.418	79.090	-41.006	-8191	255	
2572.659	1	1	0	0	0.22438	0.12199	0.16115	0.086026	0.093016	0.22126	0.18347	0.18848	0.296	0.11233	0.24659	0.20906	0.13658	0.17231	0.036726	0.15654	-4.8979	-4.4604	-5.0958	-5.0813	-4.3542	-5.2812	-4.7583	-4.8125	-5.2333	-4.3667	-5.0229	-5.05	-4.5271	-5.4167	-4.7729	-4.8042	195.121	282.024	272.094	232.412	-47.003	68.943	221.281	284.313	-26.081	264.330	-37.770	247.530	259.059	-59.090	-19.618	251.306	0.00089855	0.00044044	7.9283e-05	878.56	3.9173e-06	3.7448e-06	871.19	386.26	8.5643e-06	6.7436e-06	393.35	179.65	170.26	89.189	3.9806e-06	98.655	0.00011092	0.00010001	2.7898e-05	825.15	1.0993e-06	1.0851e-06	831.6	361.39	1.0966e-06	1.0859e-06	362.91	164.34	155.59	82.138	1.0843e-06	89.051	23.129	-1.375	-25.466	-51.347	57.842	75.476	-53.433	-45.952	106.700	85.418	-49.199	-45.039	-42.389	-36.428	127.788	-40.872	-8191	255	
2572.755	1	1	0	0	0.0044763	0.069321	0.208	0.094587	0.2846	0.16518	0.30447	0.084024	0.080708	0.080065	0.057332	0.16658	0.31931	0.24134	0.11358	0.11809	-4.9062	-4.3792	-4.9688	-5.1646	-4.2625	-5.125	-4.8354	-4.6417	-5.2854	-4.2833	-4.9083	-5.375	-4.2917	-5.3396	-4.7917	-4.5896	116.356	213.418	192.007	-37.776	-48.105	170.582	270.046	242.729	218.509	204.861	227.774	281.509	293.550	253.815	247.033	234.542	0.00081932	0.00047549	0.0001363	878.69	6.9689e-06	1.388e-06	880.83	387.16	4.7683e-06	6.2461e-06	397.88	181.25	171.46	88.405	3.6373e-06	98.097	0.0001087	0.00010017	2.8179e-05	825.04	1.1055e-06	1.0943e-06	834.11	362.87	1.1209e-06	1.1162e-06	366.27	166.02	156.04	81.624	1.1007e-06	89.07	36.042	57.082	41.189	-50.995	87.509	154.957	-53.413	-46.054	94.110	82.072	-49.234	-45.091	-42.373	-36.498	23.822	-40.929	-8191	255	
2572.851	1	1	0	0	0.024779	0.093459	0.12432	0.081432	0.12872	0.22252	0.33249	0.29425	0.057915	0.12747	0.24499	0.12505	0.18165	0.1416	0.097059	0.23059	-4.9604	-4.4708	-4.65	-5.1146	-4.3187	-5.0521	-4.8187	-4.5563	-5.1521	-4.5	-4.7104	-5.3854	-4.4625	-5.1312	-4.8833	-4.4833	215.585	-27.291	102.631	10.413	93.046	294.485	212.427	268.879	185.324	36.870	224.136	268.501	269.372	-53.581	75.381	209.139	0.0010775	0.00023528	0.00010637	876.07	9.5374e-06	4.1081e-06	877.62	383.97	7.5673e-06	5.9482e-06	395.56	181.18	169.97	87.758	8.5325e-06	97.242	0.00011043	9.8673e-05	2.7578e-05	823.97	1.0876e-06	1.0804e-06	833.1	358.72	1.0924e-06	1.0866e-06	363.81	165.63	154.82	81.021	1.1229e-06	87.907	28.608	-25.960	44.968	-51.263	60.963	111.750	-53.400	-46.146	75.473	60.697	-49.358	-44.926	-42.445	-36.375	63.447	-40.840	-8191	255	
2572.972	1	1	0	0	0.02095	0.10574	0.1475	0.077734	0.072194	0.017177	0.12784	0.080598	0.026962	0.083089	0.14907	0.10856	0.26778	0.2383	0.10377	0.087329	-5.0083	-4.5375	-4.5563	-5.2375	-4.3729	-4.8313	-4.9833	-4.4875	-5.2021	-4.5604	-4.5938	-5.2917	-4.3958	-5.0604	-5.0333	-4.525	90.022	204.942	181.934	168.532	37.400	192.590	224.339	294.208	286.756	-22.386	248.573	290.324	251.712	210.181	40.014	261.507	0.00072128	0.000604	0.00014645	867.21	4.5993e-07	4.623e-06	866.55	381.96	4.8498e-06	6.6412e-07	392.56	180.2	170.55	88.038	4.5317e-06	97.195	0.00011235	0.00010107	2.8416e-05	815.72	1.1249e-06	1.1032e-06	823.39	356.96	1.1246e-06	1.0924e-06	361.91	164.73	155.22	81.24	1.1127e-06	88.17	22.277	45.373	24.361	-51.134	51.954	75.922	-53.451	-46.153	59.686	152.879	-49.261	-44.898	-42.440	-36.641	65.149	-40.867	-8191	255	
2573.068	1	1	0	0	0.14512	0.020865	0.13549	0.06877	0.082321	0.14447	0.097709	0.32274	0.13096	0.26152	0.13538	0.11815	0.32079	0.1495	0.077126	0.094676	-4.9646	-4.7896	-4.4688	-5.2562	-4.5021	-4.8063	-5.3375	-4.5042	-4.9812	-4.9396	-4.7479	-5.6417	-4.5917	-5.0521	-5.1979	-4.6271	18.361	131.736	284.099	-37.031	80.431	-22.726	197.368	242.469	43.312	263.760	222.814	189.908	-43.614	-56.183	-23.511	211.560	0.0010084	0.00044345	0.00017918	876.36	7.8485e-07	3.4758e-06	875.05	385.35	2.3827e-06	4.0402e-06	394.98	180.39	171.08	88.071	4.6826e-06	97.624	0.00011053	9.9739e-05	2.8583e-05	821.14	1.0952e-06	1.0918e-06	829.67	360.52	1.1135e-06	1.1131e-06	364.29	165.26	155.8	81.433	1.142e-06	88.411	24.419	49.706	-1.251	-51.375	22.804	77.751	-53.175	-45.937	58.603	76.474	-48.927	-44.944	-42.138	-36.607	12.373	-40.834	-8191	255	
2573.139	1	1	0	0	0.037153	0.18261	0.13486	0.19156	0.21981	0.099126	0.1836	0.16627	0.019517	0.19895	0.28971	0.072633	0.039803	0.24301	0.17549	0.37294	-4.8667	-4.8104	-4.4625	-5.3833	-4.5708	-4.7312	-5.4688	-4.4979	-5.1	-5.0542	-4.3833	-5.525	-4.6542	-4.7917	-5.2042	-4.7063	-63.314	66.075	82.645	288.848	22.874	273.218	-44.871	2.683	129.238	84.845	255.173	-49.886	9.991	271.636	32.789	264.012	0.0011001	0.00027063	0.00013207	868.47	3.5861e-06	2.7741e-06	876.72	384.89	6.8409e-06	6.3937e-06	397.38	181.64	171.39	87.964	2.3495e-06	97.871	0.0001122	0.00010114	2.8595e-05	820.15	1.1001e-06	1.1114e-06	832.56	360.07	1.1204e-06	1.105e-06	364.83	165.9	155.64	81.239	1.1362e-06	88.737	29.414	16.187	50.568	-51.107	41.296	65.025	-53.225	-46.039	86.562	73.751	-49.049	-45.062	-42.191	-36.507	95.422	-40.711	-8191	255	
2573.236	1	1	0	0	0.13315	0.17582	0.1064	0.23954	0.036432	0.21129	0.15097	0.062512	0.13447	0.058642	0.29982	0.15192	0.096563	0.1954	0.22347	0.18463	-4.7458	-5.0479	-4.1833	-5.1854	-4.7021	-4.5771	-5.3729	-4.5604	-4.8875	-5.1604	-4.5437	-5.3042	-4.8458	-4.575	-5.15	-4.6792	135.065	53.111	92.251	234.689	82.978	215.294	231.161	282.464	261.920	214.905	290.449	-18.729	5.694	225.988	238.649	294.637	0.00085273	0.00028545	0.000134	878.62	6.2362e-06	2.9998e-06	880.19	384.74	5.8262e-06	4.6831e-06	396.29	181.31	171.94	88.128	3.8984e-06	97.766	0.00011205	0.00010114	2.8688e-05	823.94	1.1096e-06	1.121e-06	835.07	360.77	1.1106e-06	1.0963e-06	365.62	165.8	155.88	81.382	1.1278e-06	88.488	13.941	-17.338	-7.748	-51.434	21.893	97.336	-53.265	-45.838	137.825	76.017	-49.342	-44.941	-42.341	-36.386	49.155	-40.674	-8191	255	
2573.356	1	1	0	0	0.033831	0.085516	0.31112	0.14129	0.22549	0.13863	0.15442	0.14828	0.27802	0.10932	0.11357	0.13568	0.093054	0.010705	0.25933	0.26048	-4.6646	-4.9917	-4.2042	-5.3083	-4.8812	-4.425	-5.4792	-4.4979	-4.7646	-5.2417	-4.5479	-5.2417	-5.2354	-4.6542	-5.3562	-4.8771	141.607	23.106	33.608	205.254	256.782	188.313	-52.089	191.542	11.070	270.757	32.040	287.868	226.685	117.835	219.981	211.591	0.00078168	0.0004001	4.736e-05	878.84	2.3844e-06	5.8046e-06	872.68	387.79	1.0576e-05	4.07e-06	395.77	181.24	171.93	88.622	2.2562e-06	98.136	0.00011104	9.9669e-05	2.8006e-05	825.27	1.0872e-06	1.1012e-06	832.9	362.37	1.082e-06	1.0798e-06	365.48	165.82	156.6	81.66	1.0935e-06	88.786	12.680	15.438	24.211	-51.091	155.640	86.743	-53.236	-45.950	53.711	50.999	-49.163	-45.058	-42.245	-36.658	-18.533	-40.647	-8191	255	
2573.452	1	1	0	0	0.073339	0.084661	0.1023	0.16061	0.20152	0.16257	0.090713	0.064602	0.17633	0.054219	0.19824	0.30582	0.17233	0.2268	0.10863	0.065816	-4.5146	-5.2188	-4.3125	-5.0354	-4.9187	-4.4208	-5.525	-4.6438	-4.6896	-5.2438	-4.4896	-5.0229	-5.0667	-4.5062	-5.2854	-4.9271	178.628	58.680	13.954	269.024	-37.330	171.270	-23.042	227.091	290.011	93.178	-50.899	264.864	222.806	-50.570	169.347	216.568	0.0010145	0.00023466	0.00019395	878.04	6.3092e-06	1.8977e-06	882.79	387.96	5.6935e-06	4.5972e-06	398.17	182.25	172.19	88.662	4.0182e-06	98.768	0.00010947	9.8713e-05	2.7152e-05	825.47	1.0675e-06	1.0855e-06	835.51	362.14	1.0926e-06	1.0524e-06	366.64	166.11	156.68	81.89	1.083e-06	89.307	19.543	31.957	-3.140	-51.262	25.972	59.911	-53.327	-45.755	92.031	53.448	-48.989	-45.127	-42.198	-36.531	54.513	-40.852	-8191	255	
2573.547	1	1	0	0	0.16268	0.14547	0.06561	0.15455	0.15095	0.091069	0.31307	0.27179	0.11567	0.063174	0.26593	0.059334	0.13675	0.092273	0.085822	0.26218	-4.1729	-5.2188	-4.2458	-4.8729	-5.0979	-4.2792	-5.3479	-4.9146	-4.5417	-5.2167	-4.3792	-4.8187	-5.2937	-4.5833	-5.0312	-5.0542	223.520	161.286	43.776	205.119	129.423	121.674	231.153	203.103	165.160	98.193	221.781	192.603	269.897	271.152	-22.658	252.422	0.00096941	0.00046847	0.00023344	875.66	4.1879e-06	3.2446e-06	885.52	387.39	4.6565e-06	1.1796e-06	402.4	183.54	173.54	89.254	6.4956e-06	99.197	0.0001106	9.6936e-05	2.6742e-05	823.28	1.0878e-06	1.093e-06	838.37	363.75	1.1095e-06	1.0826e-06	369.9	167.45	157.8	82.277	1.0942e-06	89.918	21.959	-2.942	6.153	-51.331	55.412	66.000	-53.524	-45.909	75.075	66.532	-49.162	-45.024	-42.150	-36.438	69.990	-40.783	-8191	255	
2573.645	1	1	0	0	0.2182	0.15999	0.069326	0.24218	0.16459	0.14623	0.23185	0.18914	0.17821	0.093514	0.22752	0.25875	0.063822	0.28443	0.033798	0.16048	-4.2375	-5.3938	-4.6375	-4.8771	-5.2438	-4.3167	-5.1813	-5.2896	-4.3562	-5.35	-4.6062	-4.7854	-5.2875	-4.5292	-5.0437	-5.1937	267.495	26.344	101.741	165.466	75.159	-41.620	245.632	105.745	222.517	14.753	270.603	259.051	156.397	-36.549	-44.529	238.349	0.0010069	0.00035811	0.00015951	882.7	8.4738e-06	4.6661e-06	891.62	392.63	3.0221e-07	4.0632e-06	405.55	183.94	173.98	89.13	2.8891e-06	98.785	0.00011123	0.0001005	2.7729e-05	828.65	1.0971e-06	1.0881e-06	845.68	366.98	1.1048e-06	1.0557e-06	372.26	168.22	158.2	82.256	1.0831e-06	89.494	29.242	-4.362	34.325	-51.325	61.059	57.661	-53.444	-45.814	210.097	98.108	-49.214	-45.148	-42.255	-36.459	82.350	-40.985	-8191	255	
2573.739	1	1	0	0	0.2461	0.17314	0.2469	0.42274	0.27819	0.15373	0.11684	0.14283	0.076994	0.084914	0.12153	0.19616	0.26905	0.12098	0.15116	0.16384	-4.3479	-5.1646	-4.5958	-4.6438	-5.15	-4.4729	-5.2208	-5.1208	-4.3812	-5.2479	-4.8146	-4.7292	-5.3854	-4.5813	-4.8583	-5.4083	-36.869	-2.393	-24.326	286.137	-33.709	214.525	215.949	188.621	-51.811	60.536	201.548	14.634	-38.091	290.433	25.909	148.489	0.00075258	0.00039523	0.00015676	875.48	5.732e-06	5.3818e-06	880.66	387.53	9.8534e-06	2.4924e-06	400.42	182.37	172.74	87.527	2.4807e-06	97.544	0.00010755	9.6595e-05	2.6727e-05	824.77	1.0557e-06	1.0569e-06	836.55	363.6	1.0879e-06	1.0513e-06	368.8	167	157.16	80.99	1.0934e-06	88.482	23.678	3.856	-15.678	-51.199	87.237	72.039	-53.656	-45.861	82.625	94.598	-49.156	-45.098	-42.340	-36.447	80.816	-40.575	-8191	255	
2573.835	1	1	0	0	0.082053	0.11422	0.19068	0.21586	0.059129	0.25715	0.28357	0.35755	0.12744	0.065291	0.17501	0.28363	0.21838	0.15173	0.26092	0.082898	-4.0979	-5.3646	-4.8583	-4.5958	-5.2646	-4.4187	-4.9938	-5.3417	-4.4125	-5.1875	-4.8604	-4.575	-5.4125	-4.7	-4.6083	-5.4458	272.235	80.027	250.262	279.765	-10.492	272.542	204.887	228.837	154.758	-3.637	-49.941	236.832	-31.584	193.995	107.562	264.763	0.00061911	0.00056617	0.00018074	877.03	2.2397e-06	3.1188e-06	877.01	388.16	2.5923e-06	5.8824e-06	400.58	182.92	172.18	87.027	4.5412e-06	97.406	0.00010916	9.8086e-05	2.7284e-05	821.3	1.0827e-06	1.0613e-06	834.92	362.75	1.0658e-06	1.0609e-06	368.77	166.71	156.72	80.565	1.0944e-06	88.374	17.845	28.561	23.518	-51.315	30.505	92.025	-53.660	-45.791	102.424	62.703	-49.126	-45.147	-42.266	-36.550	99.082	-40.607	-8191	255	
2573.956	1	1	0	0	0.28226	0.15304	0.11974	0.14158	0.10626	0.26057	0.21597	0.21072	0.13692	0.1483	0.089033	0.049609	0.28532	0.33071	0.10479	0.31485	-4.1917	-5.0542	-4.8167	-4.425	-5.4229	-4.5521	-4.6771	-5.2896	-4.4062	-4.9979	-4.9292	-4.4083	-5.4042	-4.8083	-4.8396	-5.4958	248.275	12.613	51.902	-49.332	-22.307	-62.836	281.594	211.175	268.717	-22.404	273.608	268.114	266.773	250.503	216.650	199.252	0.00082481	0.00059062	0.00023075	870.9	1.1314e-05	3.6928e-06	882.67	389.05	4.9403e-06	3.6298e-06	405.49	183.45	173.54	88.037	5.6459e-06	99.049	0.00010903	9.7572e-05	2.6882e-05	820.84	1.0755e-06	1.0741e-06	839.23	364.23	1.0811e-06	1.0613e-06	372.58	167.76	157.86	81.252	1.0904e-06	89.684	30.161	17.038	2.962	-51.392	45.350	124.635	-53.186	-45.896	99.684	59.449	-49.095	-45.047	-42.744	-36.186	52.939	-40.631	-8191	255	
2574.052	1	1	0	0	0.34065	0.026935	0.1887	0.089378	0.12247	0.19924	0.161	0.093669	0.11736	0.11447	0.18517	0.12941	0.15746	0.3905	0.11172	0.042106	-4.0563	-4.8417	-4.8875	-4.35	-5.3583	-4.6979	-4.7396	-5.5479	-4.4	-4.95	-5.3208	-4.4292	-5.3521	-5.0062	-4.3438	-5.4458	152.664	-56.794	135.299	185.596	113.912	123.738	268.712	-48.403	127.931	-29.098	284.379	178.349	268.051	261.572	130.652	236.109	0.0010134	0.00049633	7.0816e-05	879.03	2.1803e-06	6.1851e-06	892.49	395.64	5.1078e-06	6.6908e-06	407.86	184.38	174.8	88.376	2.0638e-06	98.774	0.0001081	9.8903e-05	2.7208e-05	828.3	1.0589e-06	1.0644e-06	846.83	368.53	1.0832e-06	1.0793e-06	375.18	168.94	158.86	81.498	1.1009e-06	89.582	31.727	10.220	44.631	-51.415	20.716	54.777	-53.573	-45.944	54.904	52.835	-49.177	-45.372	-42.376	-36.471	31.205	-40.638	-8191	255	
2574.148	1	1	0	0	0.22909	0.083364	0.15004	0.2009	0.044446	0.13875	0.15917	0.1037	0.052676	0.1478	0.050901	0.16233	0.20213	0.30837	0.10302	0.2253	-4.2188	-4.8146	-5.125	-4.4021	-5.1292	-4.7771	-4.5771	-5.4646	-4.3688	-4.7646	-5.4979	-4.35	-5.1625	-5.2146	-4.3729	-5.5292	105.759	-29.796	129.762	198.571	144.546	89.022	2.975	243.074	281.690	288.396	283.703	258.735	-38.801	287.743	15.035	221.509	0.00091145	0.00054331	0.00016784	880.3	5.49e-06	2.079e-06	882.9	390.76	9.077e-06	1.1949e-06	405.92	183.8	173.88	88.063	3.0978e-06	98.73	0.00010748	9.8169e-05	2.7162e-05	827.84	1.0589e-06	1.04e-06	839.73	365.59	1.0723e-06	1.0638e-06	372.01	167.53	157.97	81.324	1.0808e-06	89.129	25.582	20.878	-11.445	-51.333	64.746	-62.946	-53.428	-45.869	89.516	55.555	-49.002	-45.238	-42.489	-36.329	79.554	-40.720	-8191	255	
2574.244	1	1	0	0	0.10566	0.049382	0.11264	0.17673	0.2525	0.13573	0.20649	0.1767	0.30456	0.22549	0.10058	0.066624	0.29163	0.16409	0.14973	0.26562	-4.2875	-4.5979	-5.1792	-4.4833	-5.0188	-5.0146	-4.4	-5.5396	-4.6292	-4.5292	-5.3833	-4.5729	-4.9375	-5.2417	-4.5375	-5.3917	216.038	-40.948	240.240	55.270	68.563	214.012	-15.597	216.410	137.856	127.867	-25.467	88.183	-59.776	17.718	262.092	270.169	0.00086512	0.00041304	0.00012814	882.2	3.7452e-06	3.99e-06	886.93	393.93	4.9013e-06	2.9262e-06	408.37	184.64	174.37	87.818	3.7718e-06	99.043	0.00010706	9.7801e-05	2.665e-05	827.15	1.0609e-06	1.0466e-06	842.1	367.94	1.0762e-06	1.0623e-06	374.24	168.06	158.79	81.394	1.0849e-06	89.543	31.515	53.373	17.719	-51.129	35.101	43.966	-53.523	-45.805	79.876	19.588	-48.944	-45.036	-42.507	-36.263	45.751	-40.931	-8191	255	
2574.365	1	1	0	0	0.16573	0.12941	0.1563	0.10914	0.095118	0.11968	0.21456	0.33726	0.13203	0.2674	0.075118	0.053308	0.080944	0.12805	0.089664	0.20782	-4.5375	-4.3583	-5.3646	-4.625	-4.9958	-4.9979	-4.5333	-5.3458	-4.9313	-4.4187	-5.2521	-4.5604	-4.9313	-5.45	-4.325	-5.2771	20.316	176.226	171.863	282.600	29.463	44.393	275.011	220.432	116.959	-7.896	-59.183	186.475	282.430	250.597	56.998	215.978	0.0010929	0.00038313	0.00018976	883.63	6.087e-06	3.24e-06	891.4	392.82	6.9753e-06	3.5778e-06	405.78	185.12	174.83	88.834	6.4009e-06	99.843	0.00010816	0.00010034	2.6887e-05	828.77	1.0803e-06	1.0685e-06	846.65	367.76	1.0699e-06	1.0705e-06	374.39	169.17	159	81.838	1.0819e-06	90.346	31.369	41.983	6.522	-51.219	3.686	64.480	-53.390	-45.657	129.707	76.293	-49.093	-45.141	-42.492	-36.438	101.586	-40.881	-8191	255	
2574.437	1	1	0	0	0.10567	0.12982	0.056335	0.04092	0.24	0.065762	0.16516	0.061262	0.15364	0.071795	0.02242	0.25343	0.30486	0.087932	0.056137	0.30174	-4.6042	-4.4646	-5.1271	-4.5229	-4.7208	-5.2104	-4.5229	-5.3271	-5.0146	-4.4125	-5.4333	-4.8625	-4.6896	-5.3562	-4.4437	-5.0854	-58.389	-6.126	201.244	87.182	226.195	104.741	158.336	260.670	95.195	-12.703	215.234	193.722	-59.794	244.424	168.290	236.605	0.00087343	0.00034363	0.00011971	881.03	7.8043e-06	3.8117e-06	899.02	394.07	4.8925e-06	4.5747e-06	409.75	186.46	174.76	89.211	4.334e-06	99.861	0.00010826	9.7898e-05	2.6459e-05	829.33	1.0689e-06	1.0431e-06	851.11	368.51	1.0722e-06	1.0848e-06	376.86	170.27	159.33	82.215	1.0746e-06	90.493	22.211	7.321	0.189	-51.168	21.098	80.770	-53.400	-45.896	66.051	93.008	-49.189	-44.875	-42.439	-36.329	72.895	-40.810	-8191	255	
2574.533	1	1	0	0	0.21785	0.060572	0.15337	0.1482	0.096985	0.16785	0.1308	0.076109	0.050211	0.19985	0.32492	0.30901	0.28432	0.22627	0.053891	0.18028	-4.6479	-4.3958	-5.2063	-4.6229	-4.6562	-5.3083	-4.4458	-4.9875	-5.0708	-4.325	-5.2917	-4.7937	-4.6396	-5.3896	-4.4667	-5.0229	276.973	155.464	118.281	278.264	272.353	231.553	232.487	40.645	283.416	-47.367	283.353	282.858	283.702	252.553	286.873	-19.386	0.00081654	0.00057117	0.00016575	879.28	2.8336e-06	5.2521e-06	888.71	394.72	4.7204e-06	3.804e-06	406.25	185.72	175.05	88.699	2.3234e-06	98.953	0.00010731	9.6959e-05	2.6626e-05	827.75	1.0513e-06	1.0326e-06	842.37	368.53	1.05e-06	1.0482e-06	374.49	169.02	159.42	82.029	1.0579e-06	89.912	26.263	19.855	10.709	-51.403	86.025	70.399	-53.442	-45.715	67.762	94.883	-49.154	-45.145	-42.461	-36.255	60.185	-40.787	-8191	255	
2574.652	1	1	0	0	0.14121	0.083509	0.08213	0.22145	0.10769	0.092501	0.24468	0.16991	0.15947	0.12572	0.17558	0.06643	0.14771	0.18914	0.12485	0.25903	-4.8812	-4.3792	-5.2438	-4.8396	-4.4833	-5.2063	-4.6188	-4.9625	-5.1625	-4.3896	-5.3458	-5.0312	-4.5042	-5.5563	-4.5208	-4.7875	223.233	235.382	-11.532	293.020	265.255	290.192	222.402	283.954	33.201	186.519	228.650	145.899	-54.505	277.561	-29.993	285.033	0.00085994	0.00025242	2.4222e-05	881.5	5.7232e-06	2.1131e-06	886.42	395.58	8.3793e-06	2.5929e-06	409.08	185.04	175.09	89.14	3.2767e-06	100.01	0.00010645	9.6994e-05	2.6634e-05	826.95	1.0642e-06	1.0424e-06	845.24	369.62	1.0676e-06	1.0559e-06	375.12	169.09	159.54	82.397	1.05e-06	90.511	26.436	67.157	11.189	-51.134	45.502	57.230	-53.309	-45.912	54.660	95.285	-49.168	-44.802	-42.626	-36.374	25.488	-40.827	-8191	255	
2574.748	1	1	0	0	0.029942	0.1383	0.26338	0.37013	0.17758	0.10485	0.35831	0.14385	0.076939	0.26142	0.063549	0.080146	0.25079	0.21115	0.15035	0.13656	-4.9083	-4.5021	-5.1312	-5.0312	-4.5521	-5.4042	-4.9271	-4.775	-5.2792	-4.4104	-5.0417	-5.1354	-4.4187	-5.5833	-4.5083	-4.8354	210.078	41.253	0.407	249.135	197.587	-44.850	194.800	270.693	133.015	149.870	213.796	243.693	286.824	-43.473	154.385	-48.218	0.00088669	0.00071544	0.00016151	886.48	2.4213e-06	2.6147e-06	890.22	394.2	3.6132e-06	5.5368e-06	411.92	187.2	176.11	89.565	5.7015e-06	100.67	0.00010587	9.5116e-05	2.6508e-05	829.72	1.0536e-06	1.0333e-06	848.62	369.8	1.0646e-06	1.052e-06	378.42	170.99	160.24	82.741	1.0677e-06	91.226	36.617	37.936	-7.544	-51.386	61.830	67.387	-53.373	-45.805	87.246	64.987	-49.220	-45.135	-42.371	-36.419	79.126	-40.845	-8191	255	
2574.844	1	1	0	0	0.070839	0.045609	0.011739	0.21036	0.21221	0.1649	0.1077	0.18029	0.33357	0.17445	0.33232	0.20373	0.12189	0.10169	0.15982	0.14836	-4.8958	-4.5042	-4.9479	-5.2646	-4.3583	-5.275	-4.7875	-4.8	-5.3958	-4.4958	-4.925	-5.2625	-4.5792	-5.4917	-4.8	-4.5938	95.726	-39.122	43.170	-55.478	112.222	208.483	225.369	178.482	187.284	163.374	288.837	256.278	249.720	95.431	294.632	-22.767	0.0011077	0.00049851	0.00020093	882.84	6.0973e-06	3.8691e-06	894.62	396.82	2.9065e-06	4.2402e-06	413.87	187.82	177.12	89.951	4.8391e-06	100.58	0.0001075	9.6896e-05	2.7735e-05	829.34	1.1076e-06	1.0792e-06	850.91	371.23	1.1138e-06	1.1048e-06	380.01	171.79	161.29	82.812	1.1101e-06	91.101	31.733	16.348	6.655	-51.253	40.105	72.981	-52.986	-45.858	91.961	90.087	-49.077	-45.068	-42.218	-36.351	61.488	-40.889	-8191	255	
2574.940	1	1	0	0	0.06698	0.17183	0.068082	0.087346	0.17942	0.15185	0.17191	0.37756	0.29453	0.042304	0.075509	0.089065	0.041193	0.29036	0.17741	0.037194	-4.9854	-4.3708	-4.6458	-5.0604	-4.2833	-5.0167	-5.1104	-4.5375	-5.3792	-4.5771	-4.7583	-5.2562	-4.5771	-5.0854	-4.875	-4.4979	224.177	29.036	-2.228	178.419	69.043	-18.342	250.553	291.237	49.142	118.880	249.444	251.968	221.908	-34.539	214.413	172.893	0.00097183	0.0002265	0.00027088	881.92	4.7603e-06	1.4587e-06	889.94	396.81	6.0743e-06	7.046e-06	409.23	184.72	176.17	88.496	7.4667e-06	98.881	0.00011272	0.0001027	2.8645e-05	829.22	1.128e-06	1.1386e-06	847.45	371.22	1.1338e-06	1.1543e-06	376.55	169.38	160.19	81.71	1.139e-06	89.617	20.500	27.532	27.474	-51.097	39.773	75.733	-53.260	-45.733	76.949	102.984	-49.025	-44.820	-42.368	-36.340	70.025	-40.929	-8191	255	
2575.036	1	1	0	0	0.11324	0.10218	0.18371	0.51397	0.082841	0.13762	0.15919	0.08923	0.1681	0.1668	0.25989	0.042958	0.27427	0.1381	0.27666	0.30903	-4.9187	-4.5625	-4.6687	-5.3812	-4.4563	-4.9896	-5.225	-4.4771	-5.2958	-4.6667	-4.6958	-5.2417	-4.575	-4.975	-5.0771	-4.5583	265.850	88.932	166.141	255.223	56.342	270.567	-52.057	17.079	219.593	180.255	222.939	-53.530	286.905	295.955	-8.313	249.456	0.00090799	0.00061813	0.00015811	870.83	7.207e-06	5.9594e-06	881.31	394.23	3.1044e-06	6.1492e-06	405.62	184.93	174.94	88.318	4.6177e-06	98.527	0.00011501	0.00010335	2.9483e-05	823.26	1.1912e-06	1.196e-06	839.09	368.49	1.2078e-06	1.2043e-06	374.4	169.09	159.41	81.506	1.2021e-06	89.62	25.717	19.239	-16.010	-51.096	48.170	69.858	-53.077	-45.826	64.869	56.582	-48.878	-44.920	-42.350	-36.461	70.958	-40.806	-8191	255	
2575.132	1	1	0	0	0.18884	0.061754	0.2231	0.20851	0.11501	0.091129	0.074632	0.15733	0.059801	0.12813	0.061768	0.18271	0.1614	0.21455	0.11709	0.076023	-4.7917	-4.7312	-4.5563	-5.2708	-4.4729	-4.8292	-5.3896	-4.5625	-5.225	-5.0458	-4.6167	-5.2208	-4.6271	-4.9667	-5.2562	-4.5104	69.975	175.252	85.157	226.749	21.369	68.138	164.606	262.534	93.884	274.801	282.221	274.198	226.812	227.893	173.614	-38.554	0.00088145	0.00067611	7.2641e-05	872.4	3.0137e-06	2.0997e-06	883.48	395.95	8.366e-06	4.7104e-06	413.4	186.48	178.35	88.806	3.944e-06	100.96	0.00011832	0.00010797	3.0259e-05	822.15	1.1624e-06	1.1585e-06	842.35	371.37	1.1763e-06	1.1589e-06	380.37	171.27	161.97	82.102	1.1666e-06	91.204	17.201	-0.935	15.333	-51.022	3.085	65.924	-53.203	-45.856	60.133	58.960	-49.094	-44.874	-42.249	-36.364	76.959	-40.911	-8191	255	
2575.228	1	1	0	0	0.15739	0.07154	0.077493	0.091116	0.062486	0.15184	0.13572	0.08414	0.053632	0.23316	0.25513	0.20552	0.092969	0.1545	0.013441	0.17182	-4.7875	-5.0292	-4.5083	-5.4771	-4.6083	-4.6833	-5.4229	-4.4958	-5.0354	-4.9958	-4.525	-5.4688	-4.6771	-4.7229	-5.0188	-4.4625	179.447	111.086	-1.667	202.841	286.968	-33.105	275.618	267.989	290.220	285.288	247.773	-61.312	292.604	207.838	249.830	159.624	0.00097601	0.00037582	0.00015107	885.15	6.8954e-06	3.0993e-06	896.04	403.25	8.8015e-06	4.2497e-06	418.8	188.34	178.83	89.231	5.0915e-06	100.7	0.00011686	0.00010457	2.9273e-05	829.4	1.141e-06	1.1665e-06	851.87	376.13	1.168e-06	1.1488e-06	384.87	172.37	162.58	82.378	1.177e-06	91.209	22.586	41.264	32.010	-51.014	65.832	119.066	-53.134	-45.968	53.705	59.202	-49.102	-44.893	-42.112	-36.543	90.350	-40.574	-8191	255	
2575.325	1	1	0	0	0.13799	0.2926	0.092478	0.05923	0.087678	0.14114	0.21852	0.14718	0.23952	0.072522	0.05864	0.17306	0.15192	0.029188	0.24035	0.070014	-4.6208	-4.9917	-4.5333	-5.2667	-4.625	-4.5208	-5.3146	-4.575	-4.8438	-5.2333	-4.5146	-5.4187	-4.9083	-4.7542	-5.1708	-4.6312	120.235	227.747	28.571	1.791	257.906	59.550	264.101	220.726	222.280	108.500	132.373	168.641	-35.510	185.785	-1.981	223.645	0.00055336	0.00045315	0.00012107	883.49	5.433e-06	6.3689e-06	890.03	399.49	9.3527e-06	3.6304e-06	413.89	187.28	178.29	89.044	5.8171e-06	100.05	0.00011893	0.00010818	3.0035e-05	829.62	1.1728e-06	1.1821e-06	847.23	373.8	1.1827e-06	1.1572e-06	381.81	171.15	162.13	82.343	1.1769e-06	90.696	30.256	27.304	-1.787	-51.143	52.104	67.086	-53.226	-45.916	101.432	55.541	-48.940	-44.891	-42.177	-36.497	48.537	-40.788	-8191	255	
2575.445	1	1	0	0	0.15373	0.057765	0.16801	0.17234	0.05919	0.13945	0.21601	0.13403	0.085718	0.057567	0.15877	0.134	0.19112	0.34225	0.19282	0.048119	-4.6083	-5.1729	-4.2479	-5.1375	-4.8125	-4.3812	-5.4271	-4.6542	-4.7271	-5.2354	-4.4417	-5.1875	-5.1604	-4.5833	-5.2333	-4.8	26.196	111.265	104.678	-11.276	66.392	268.233	173.689	-63.273	283.965	-6.709	236.489	235.905	288.435	243.589	178.848	269.765	0.00088594	0.00067844	0.00010674	880.99	4.2193e-06	5.6133e-06	890.04	400.47	6.1964e-06	6.5892e-06	414.71	187.23	178.49	89.81	2.9477e-06	100.75	0.00011569	0.00010379	2.9172e-05	827.27	1.1455e-06	1.146e-06	845.2	374.76	1.1477e-06	1.1226e-06	381.82	171.3	162.47	82.978	1.1622e-06	91.459	20.844	61.276	54.477	-51.146	25.223	50.368	-53.230	-45.870	97.789	60.679	-49.027	-44.810	-42.174	-36.353	65.045	-40.694	-8191	255	
2575.540	1	1	0	0	0.034861	0.10423	0.1871	0.095899	0.16987	0.1527	0.26943	0.20352	0.14397	0.22686	0.15633	0.22481	0.097049	0.18254	0.046531	0.40414	-4.3354	-5.2875	-4.3208	-4.95	-5.0667	-4.2292	-5.3292	-4.9417	-4.5396	-5.3375	-4.3521	-4.9812	-5.2	-4.6562	-5.2063	-4.8833	44.674	266.839	105.841	234.921	107.277	194.639	237.457	253.852	125.693	178.843	-31.777	194.623	236.935	291.893	82.024	212.353	0.00092914	0.00045172	0.00016281	880.06	5.9159e-06	5.5814e-06	894.93	402.58	8.5164e-06	4.9217e-06	418.66	188.98	179.56	90.199	4.7225e-06	101.82	0.00011537	0.00010356	2.8645e-05	829.04	1.1231e-06	1.1362e-06	849.35	377.01	1.1567e-06	1.127e-06	383.86	172.69	163.45	83.375	1.1501e-06	92.225	22.861	35.398	4.292	-51.468	57.229	100.036	-53.135	-45.708	66.379	61.721	-49.089	-44.946	-42.461	-36.429	25.900	-40.980	-8191	255	
2575.638	1	1	0	0	0.13207	0.12339	0.042508	0.079316	0.073247	0.12221	0.11258	0.12591	0.13153	0.091055	0.10395	0.087908	0.095982	0.065623	0.15302	0.077589	-4.3083	-5.1687	-4.3625	-4.8479	-5.0521	-4.425	-5.2729	-4.9938	-4.3875	-5.3187	-4.5083	-4.8417	-5.2375	-4.4958	-5.0792	-5.1875	96.761	162.811	-36.691	128.170	-59.628	149.356	279.234	235.831	273.428	270.600	201.910	291.126	12.789	264.561	235.623	196.344	0.00089628	0.00031133	0.00023055	880.26	6.8644e-06	3.4431e-06	897.86	403.7	7.3313e-06	7.213e-06	421.85	189.6	180.63	91.868	2.5185e-06	103.85	0.0001169	0.00010421	2.9522e-05	829.63	1.15e-06	1.1461e-06	851.31	378.4	1.1777e-06	1.1246e-06	386.5	173.27	164.18	84.819	1.1563e-06	94.193	31.867	49.833	10.930	-51.132	63.125	64.232	-53.317	-45.868	104.329	78.866	-49.166	-44.811	-42.259	-36.443	21.157	-40.795	-8191	255	
2575.734	1	1	0	131072	0.089465	0.31338	0.015109	0.10188	0.07271	0.10493	0.053284	0.10679	0.079036	0.11164	0.18874	0.15593	0.25618	0.26931	0.2688	0.10922	-4.1583	-5.2229	-4.6354	-4.6625	-5.2292	-4.2792	-5.2458	-4.9187	-4.3125	-5.2167	-4.7	-4.8313	-5.4271	-4.5813	-4.9979	-5.0708	270.859	38.718	129.776	1.218	37.005	72.746	-32.053	150.743	258.949	204.659	232.708	273.517	293.691	237.309	233.391	-18.398	0.0009103	0.00051944	0.00022155	882.77	7.2126e-06	4.2411e-06	896.28	404.18	6.0386e-06	3.324e-06	416.23	189.67	180.63	92.982	3.8937e-06	104	0.00011562	0.00010313	2.8745e-05	831.37	1.1382e-06	1.1305e-06	850.34	378.49	1.1426e-06	1.0994e-06	383.29	172.99	164.32	85.891	1.132e-06	94.395	26.722	48.786	11.562	-51.277	31.051	70.219	-53.101	-45.844	100.861	31.776	-48.887	-45.160	-42.254	-36.471	6.301	-40.736	-8191	255	
2575.828	1	1	0	131072	0.11345	0.18688	0.22548	0.13764	0.26867	0.076591	0.25189	0.08324	0.10666	0.22204	0.12623	0.42691	0.082642	0.083869	0.17341	0.26459	-4.0521	-5.1375	-4.7063	-4.4979	-5.1438	-4.3313	-5.0667	-5.2854	-4.3729	-5.1771	-4.8625	-4.7167	-5.3688	-4.8042	-4.8042	-5.4083	267.717	182.332	-13.877	-25.602	75.751	10.866	282.806	-54.060	253.704	-49.420	294.605	231.294	248.339	-48.613	252.336	-55.614	0.0010844	0.00041052	0.00012746	884.48	7.2245e-06	4.2576e-06	891.94	408.15	8.6124e-06	3.8849e-06	421.04	189.39	181.72	93.834	6.7304e-06	104.54	0.00011011	0.00010079	2.8125e-05	831.14	1.0909e-06	1.102e-06	847.26	381.13	1.1281e-06	1.094e-06	385.08	172.99	165.02	86.94	1.1103e-06	94.784	23.595	-24.519	33.526	-51.075	34.913	87.738	-53.179	-45.965	72.698	125.036	-49.082	-44.999	-42.551	-36.453	38.404	-40.739	-8191	255	
2575.924	1	1	0	131072	0.09364	0.15241	0.13765	0.26126	0.047499	0.06946	0.080009	0.036067	0.028098	0.28789	0.094474	0.3235	0.035788	0.070558	0.2217	0.11759	-4.0021	-5.1667	-4.8542	-4.5229	-5.1667	-4.3562	-4.9187	-5.3271	-4.4479	-5.1396	-5.0083	-4.6771	-5.5083	-4.8833	-4.7	-5.4417	179.357	186.350	69.506	-42.886	-34.872	-54.325	-18.694	241.798	-14.225	11.347	78.967	200.259	294.168	285.996	260.027	152.585	0.00080554	0.00061536	0.00013859	883.87	5.9553e-06	6.3893e-06	893.1	407.86	4.7841e-06	5.665e-06	419.35	189.65	181.62	94.32	1.2682e-06	105.24	0.00011209	0.00010114	2.8007e-05	830.92	1.1117e-06	1.0967e-06	847.29	381.65	1.1254e-06	1.1078e-06	386.28	173.63	165.34	87.228	1.1248e-06	95.334	22.435	-5.735	-11.225	-50.984	79.402	83.247	-53.286	-45.820	75.935	53.880	-49.116	-45.112	-42.563	-36.455	84.853	-40.903	-8191	255	
2576.045	1	1	0	131072	0.23606	0.10462	0.16005	0.086841	0.23939	0.11097	0.28707	0.11841	0.089588	0.24836	0.14605	0.17788	0.018736	0.12132	0.34067	0.19686	-4.0604	-5.0479	-4.9833	-4.375	-5.2417	-4.6104	-4.7542	-5.3542	-4.3458	-4.8167	-5.1229	-4.5	-5.3313	-4.8521	-4.6208	-5.475	24.453	79.475	203.672	143.671	147.748	245.080	278.649	192.390	286.646	226.802	175.992	244.926	-40.214	283.906	86.154	287.696	0.00087448	0.00033059	0.00018426	882.84	3.5527e-06	3.9828e-06	899.72	410.24	4.6715e-06	7.7251e-06	426.03	192.24	182.7	94.907	7.2509e-06	107.18	0.00011217	0.00010093	2.7741e-05	829.02	1.0834e-06	1.0693e-06	853.34	382.57	1.1038e-06	1.0822e-06	391.14	175.87	166.61	88.167	1.1018e-06	96.943	22.914	54.138	2.281	-51.185	38.645	69.048	-53.362	-45.709	100.923	40.400	-48.956	-45.117	-42.471	-36.644	59.463	-40.853	-8191	255	
2576.141	1	1	0	131072	0.055147	0.20326	0.17928	0.1574	0.1353	0.14102	0.24418	0.15763	0.23103	0.16606	0.24539	0.21052	0.097749	0.037238	0.046467	0.19923	-3.9437	-4.8833	-4.9812	-4.4604	-5.1833	-4.6625	-4.6208	-5.4021	-4.4521	-4.7708	-5.1292	-4.6667	-5.2625	-5.0188	-4.4042	-5.4313	48.901	143.820	32.330	211.762	225.558	-46.195	272.588	293.010	151.593	-37.606	36.820	-55.039	-58.327	237.668	71.572	228.866	0.0011007	0.00030316	0.00017671	885.81	5.317e-06	4.5214e-06	898.46	410.04	1.8182e-06	1.6537e-06	424.41	190.76	182.59	95.017	1.2576e-06	106.62	0.00011187	9.9157e-05	2.8182e-05	832.88	1.1199e-06	1.1054e-06	854.67	383.23	1.1123e-06	1.1111e-06	389.98	174.59	166.17	88.185	1.1273e-06	96.553	20.871	57.676	-10.694	-51.264	69.598	86.894	-53.398	-45.602	68.319	68.276	-48.709	-44.990	-42.528	-36.571	50.832	-40.810	-8191	255	
2576.237	1	1	0	131072	0.22996	0.071954	0.30204	0.14533	0.14663	0.047502	0.19056	0.162	0.2326	0.10592	0.082331	0.10106	0.18259	0.20676	0.11579	0.18208	-4.075	-4.8021	-5.0771	-4.4479	-5.0833	-4.9146	-4.5375	-5.4271	-4.4417	-4.5958	-5.1729	-4.4729	-5.1708	-5.0896	-4.2125	-5.3979	45.503	234.352	109.094	277.242	-14.914	7.476	189.884	258.076	125.823	54.458	31.077	190.681	247.753	234.266	137.066	250.651	0.0011603	0.00046469	0.00020236	882.99	3.6206e-06	5.2598e-06	894.88	408.28	7.2259e-06	1.5876e-06	421.6	190.98	181.33	95.012	5.8493e-06	106.29	0.00011214	0.00010198	2.8119e-05	830.18	1.1145e-06	1.086e-06	849.91	381.88	1.1258e-06	1.0842e-06	388.57	174.44	165.81	87.977	1.1253e-06	96.301	37.296	14.267	18.186	-51.254	67.550	91.757	-53.436	-45.627	56.092	146.100	-48.840	-45.045	-42.467	-36.281	38.308	-40.813	-8191	255	
2576.309	1	1	0	131072	0.074088	0.10696	0.059048	0.06103	0.14283	0.089375	0.084568	0.17634	0.12561	0.12559	0.071315	0.081452	0.32085	0.24381	0.048065	0.12572	-4.3333	-4.4688	-5.1	-4.4021	-4.7625	-5.0646	-4.4292	-5.375	-4.6125	-4.4104	-5.3104	-4.6687	-5.0292	-5.2979	-4.4646	-5.3063	119.338	105.786	-48.141	283.733	49.110	-59.847	-8.047	258.285	41.230	178.160	175.396	169.146	217.863	294.026	66.776	116.256	0.00097597	0.0008059	3.1289e-05	882.73	5.72e-06	2.5749e-06	893.01	407.62	5.078e-06	2.1279e-06	421.36	190.23	181.68	94.733	4.3538e-06	105.86	0.00011469	0.00010327	2.8091e-05	828.92	1.1379e-06	1.1206e-06	848.27	381.09	1.1294e-06	1.145e-06	387.42	173.81	165.41	87.727	1.1455e-06	95.891	25.181	24.520	140.504	-50.859	49.241	124.040	-53.117	-45.862	126.347	79.887	-48.866	-45.040	-42.570	-36.177	26.540	-40.936	-8191	255	
2576.429	1	1	0	131072	0.087285	0.16105	0.040643	0.24243	0.15516	0.2428	0.19132	0.42154	0.10979	0.18157	0.061103	0.18957	0.386	0.27352	0.1383	0.16085	-4.3833	-4.4083	-5.275	-4.3333	-4.7812	-5.0146	-4.4187	-5.1875	-4.8854	-4.4917	-5.2958	-4.5646	-4.7958	-5.2917	-4.0875	-5.1854	211.549	57.136	-39.263	268.635	-23.185	145.102	231.496	220.405	203.345	-32.116	280.594	189.343	284.217	248.851	236.566	-9.884	0.00097776	0.00054312	0.00014584	879.54	1.5302e-06	4.4812e-06	897.28	407.22	5.5995e-06	3.739e-06	421.77	191.97	182.68	95.187	3.0904e-06	106.48	0.0001136	0.00010269	2.849e-05	828.6	1.1288e-06	1.1038e-06	850.25	381.34	1.1418e-06	1.1373e-06	388.9	175.34	166.36	88.217	1.1469e-06	96.762	30.421	18.825	-18.552	-51.356	25.293	109.224	-53.182	-45.770	90.478	70.882	-48.964	-45.146	-42.457	-36.367	92.859	-40.802	-8191	255	
2576.524	1	1	0	131072	0.16486	0.081629	0.079507	0.19345	0.1892	0.27939	0.085791	0.24093	0.12334	0.14735	0.12529	0.20266	0.19534	0.45887	0.052645	0.15865	-4.6833	-4.5479	-5.2625	-4.6292	-4.8021	-5.1917	-4.4042	-5.2083	-5.0563	-4.2771	-5.4187	-4.6833	-4.8854	-5.3521	-4.2729	-5.2208	81.645	-59.038	163.779	281.578	20.227	247.246	-23.589	205.092	233.208	43.766	289.377	286.166	-61.575	247.934	9.031	222.829	0.001048	0.00047631	0.00012	883.83	3.1528e-06	7.2588e-06	896.27	409.71	3.8353e-07	5.5439e-06	422.99	190.46	182.85	94.926	1.6229e-06	106.37	0.00011597	0.00010296	2.8787e-05	830.53	1.1457e-06	1.1276e-06	851.01	382.74	1.1353e-06	1.0926e-06	388.38	174.79	166.25	88.143	1.1326e-06	96.424	21.161	4.669	37.735	-51.199	77.196	90.890	-53.209	-45.711	20.314	91.117	-48.986	-45.141	-42.414	-36.319	-43.376	-41.005	-8191	255	
2576.620	1	1	0	131072	0.19192	0.10602	0.13259	0.10896	0.014053	0.15109	0.054739	0.13814	0.17878	0.045311	0.24766	0.18975	0.027204	0.11059	0.087394	0.24342	-4.7458	-4.2771	-5.1458	-4.8417	-4.3187	-5.1979	-4.4396	-4.8792	-5.1083	-4.3167	-5.2875	-4.75	-4.5375	-5.4167	-4.4292	-4.7875	63.099	184.471	295.547	175.402	277.544	55.826	133.191	260.283	173.109	181.885	256.554	249.526	-27.376	-3.561	36.747	245.230	0.00102	0.00027773	8.9353e-05	878.51	5.2626e-06	3.7922e-06	889.9	407.35	2.6198e-06	4.8779e-06	420.02	190.35	180.89	94.768	2.5521e-06	105.62	0.00011282	0.00010184	2.8243e-05	827.62	1.1314e-06	1.0844e-06	845.39	380.75	1.1172e-06	1.1053e-06	386.6	174.02	165.44	87.915	1.1322e-06	95.827	35.067	21.017	6.711	-50.757	55.914	33.971	-53.121	-45.576	74.169	64.598	-49.012	-44.811	-42.261	-36.436	81.813	-40.865	-8191	255	
2576.716	1	1	0	131072	0.035658	0.093097	0.051827	0.22362	0.073805	0.11421	0.21207	0.12167	0.16318	0.23918	0.17331	0.15523	0.11671	0.29917	0.091352	0.078785	-4.7667	-4.4583	-5.2354	-5.0125	-4.3917	-5.4	-4.5208	-4.8521	-5.2104	-4.2292	-5.1875	-4.9896	-4.3833	-5.3708	-4.3396	-4.675	295.873	-39.334	288.277	-5.794	92.310	18.815	-54.816	267.720	32.002	-20.237	-44.276	264.827	264.002	287.967	251.224	-58.175	0.0011188	0.00075335	8.4578e-05	886.15	6.0752e-06	7.1803e-06	892.9	409.15	6.5942e-06	4.2206e-06	423.17	192.27	182.88	95.103	2.2249e-06	107.08	0.00011317	9.953e-05	2.7927e-05	829.49	1.1042e-06	1.1045e-06	849.76	383.11	1.1077e-06	1.096e-06	388.65	175.57	166.87	88.568	1.1141e-06	97.093	30.234	25.511	-4.073	-51.064	55.517	91.722	-52.876	-45.708	115.915	76.179	-49.173	-45.111	-42.579	-36.503	77.310	-40.954	-8191	255	
2576.837	1	1	0	131072	0.11949	0.14652	0.035113	0.14169	0.26897	0.3165	0.089183	0.21741	0.16737	0.28262	0.29055	0.3046	0.071848	0.2662	0.11938	0.23569	-4.925	-4.2312	-4.9354	-5.0667	-4.2937	-5.0854	-4.7312	-4.5896	-5.1854	-4.2208	-5.0083	-5.125	-4.475	-5.4229	-4.7104	-4.6708	13.955	221.376	-12.795	-47.218	89.078	215.776	1.960	203.027	44.759	229.529	286.229	273.030	237.231	202.078	47.946	222.633	0.00098727	0.0003579	0.00018005	882.99	1.4277e-06	1.4833e-06	905	414.56	2.6318e-06	2.4979e-06	428.43	196.33	184.99	95.731	5.3768e-06	108.98	0.00011159	0.00010078	2.7897e-05	832.94	1.1008e-06	1.0781e-06	857.78	386.43	1.0959e-06	1.0991e-06	394.61	178.69	168.78	89.536	1.1082e-06	98.684	21.790	11.642	39.638	-51.002	97.479	103.985	-53.116	-45.877	85.113	88.244	-48.977	-45.191	-42.676	-36.452	76.451	-40.603	-8191	255	
2576.908	1	1	0	131072	0.089553	0.083048	0.18151	0.18284	0.13291	0.17011	0.11946	0.14069	0.13062	0.075878	0.060307	0.27009	0.21093	0.23458	0.060114	0.33962	-4.9354	-4.3083	-4.7417	-4.9979	-4.2396	-5.1062	-5.1021	-4.5146	-5.3292	-4.3812	-4.8292	-5.1771	-4.3417	-5.3313	-4.8479	-4.6583	239.456	36.453	67.010	251.555	-45.537	241.323	222.693	273.442	130.854	20.401	43.124	-61.148	286.327	183.463	22.866	254.974	0.00086228	0.00056622	0.00011952	894.23	2.8425e-06	6.1671e-06	907.08	411.89	5.7417e-06	4.4235e-06	427.67	193.62	183.24	95.196	5.2847e-06	107.36	0.00011115	0.00010115	2.8276e-05	834.58	1.0923e-06	1.1109e-06	861.83	385.04	1.1042e-06	1.0871e-06	392.28	176.9	166.97	88.58	1.1267e-06	97.271	20.255	22.990	-2.266	-51.034	102.735	78.211	-53.064	-45.681	77.487	68.759	-48.983	-44.928	-42.580	-36.514	27.485	-40.962	-8191	255	
2577.005	1	1	0	131072	0.08167	0.19891	0.087625	0.17869	0.19948	0.069942	0.18491	0.064794	0.19672	0.099884	0.22298	0.33897	0.16143	0.25197	0.23758	0.054777	-4.8979	-4.4417	-4.75	-5.1875	-4.3021	-4.9583	-5.0542	-4.5771	-5.1417	-4.6458	-4.7125	-5.1625	-4.4812	-5.1125	-4.9688	-4.6062	-36.658	-23.394	246.262	272.669	93.389	155.681	-33.541	-18.645	249.112	227.018	114.688	-59.122	279.138	-58.532	173.621	276.909	0.0010855	0.00058188	0.00014886	883.56	4.5576e-06	1.6628e-06	895.49	409.53	7.8662e-06	4.0731e-06	420.48	192.81	182.72	94.919	3.6925e-06	106.46	0.00011241	0.00010107	2.8411e-05	830.16	1.1311e-06	1.1046e-06	852.37	382.72	1.1171e-06	1.1064e-06	388.58	175.71	166.44	88.237	1.1172e-06	96.439	36.500	43.444	-18.093	-50.738	56.664	72.373	-53.244	-45.977	74.533	125.935	-48.968	-44.856	-42.243	-36.437	81.114	-40.908	-8191	255	
2577.125	1	1	0	131072	0.15009	0.14967	0.017479	0.061541	0.0942	0.048107	0.083931	0.21875	0.11534	0.13885	0.056285	0.28218	0.19598	0.31478	0.22332	0.28858	-4.9917	-4.55	-4.4396	-5.15	-4.3812	-4.875	-5.1854	-4.4104	-5.1146	-4.6271	-4.6188	-5.2937	-4.6354	-5.0979	-4.95	-4.5271	-33.219	-57.458	240.341	-44.417	151.724	206.051	-37.552	-51.543	92.127	54.179	293.759	235.335	110.142	270.952	20.288	254.008	0.0010843	0.00070799	0.00026408	885.51	3.299e-06	4.4689e-06	901.01	408.86	5.1012e-06	4.7646e-06	422.55	193.29	182.66	95.307	3.7785e-06	107.15	0.00011128	0.00010059	2.7773e-05	831.43	1.1019e-06	1.1081e-06	854.47	382.59	1.0953e-06	1.0832e-06	389.55	176.22	166.57	88.388	1.0982e-06	97.218	31.558	48.890	-1.222	-50.949	48.352	71.708	-53.400	-45.871	56.696	85.647	-48.875	-45.038	-42.408	-36.380	76.374	-41.086	-8191	255	
2577.221	1	1	0	131072	0.032391	0.14366	0.11179	0.073381	0.091657	0.090703	0.092413	0.16775	0.14028	0.17158	0.25875	0.14308	0.1566	0.27782	0.26755	0.2631	-4.9604	-4.7188	-4.4187	-5.1937	-4.6979	-4.8896	-5.3771	-4.4792	-5.1188	-4.8729	-4.5813	-5.4229	-4.5646	-4.9771	-5.2292	-4.3958	127.423	52.538	119.654	5.642	76.439	-59.421	246.448	243.356	236.909	-26.919	219.369	273.448	239.233	280.700	213.201	273.356	0.001113	0.00066158	8.9269e-05	885.38	7.1474e-06	5.5136e-06	902.96	411.83	5.3702e-06	2.4571e-06	431.69	194.66	183.54	95.297	3.6383e-06	108.4	0.00011178	9.8519e-05	2.7494e-05	831.42	1.093e-06	1.0689e-06	858.15	384.9	1.1056e-06	1.0812e-06	394.46	178.03	167.37	88.815	1.0907e-06	98.119	24.569	30.363	-15.796	-51.253	67.170	45.444	-52.999	-45.835	75.696	42.498	-49.111	-45.167	-42.317	-36.543	71.564	-40.946	-8191	255	
2577.318	1	1	0	131072	0.044838	0.063663	0.1608	0.13734	0.086995	0.19083	0.18058	0.52694	0.21511	0.1699	0.16042	0.17236	0.40428	0.18308	0.26501	0.13217	-4.6104	-4.9187	-4.3	-5.4146	-4.5875	-4.7417	-5.3938	-4.6271	-5.0479	-5.0125	-4.4938	-5.4917	-4.8	-4.6729	-5.2729	-4.6604	211.418	36.901	38.650	51.799	-59.609	269.008	221.763	233.747	267.115	285.535	251.197	268.451	291.182	214.005	199.937	255.088	0.00098451	0.00064141	0.00011359	887.99	4.49e-06	4.3431e-06	905.29	409.75	6.0074e-06	9.3654e-06	426.78	192.77	182.67	94.787	2.357e-06	105.69	0.00011157	9.9156e-05	2.7884e-05	834.61	1.1192e-06	1.1225e-06	860.22	384.85	1.1684e-06	1.1337e-06	391.66	176.01	166.45	87.861	1.219e-06	95.954	26.573	-9.583	17.870	-50.986	65.664	51.011	-53.221	-45.746	29.107	85.365	-49.269	-45.004	-42.251	-36.327	57.698	-40.918	-8191	255	
2577.438	1	1	0	131072	0.11358	0.15866	0.21007	0.30277	0.094543	0.21192	0.043277	0.32004	0.07536	0.15426	0.18509	0.077965	0.15733	0.058189	0.16802	0.14262	-4.5479	-4.8958	-4.3896	-5.2396	-4.7354	-4.6604	-5.4	-4.6229	-4.8979	-5.1062	-4.2812	-5.2229	-4.8958	-4.5708	-5.1896	-4.5792	154.511	-2.542	87.455	284.152	165.644	58.054	197.733	294.887	-59.210	244.988	162.165	293.227	246.261	197.574	119.266	183.250	0.00091098	0.00048407	0.0001555	884.16	5.0798e-06	2.8246e-06	893.15	404.39	6.3702e-06	2.9768e-06	416.71	189.4	180.79	94.086	2.2515e-06	105.01	0.00012502	0.00011297	3.1954e-05	831.95	1.2545e-06	1.2499e-06	847.79	379.79	1.2641e-06	1.24e-06	385.01	173.66	164.93	87.203	1.236e-06	95.201	26.573	20.531	33.438	-51.123	36.922	56.177	-53.516	-45.757	69.194	81.124	-49.149	-44.825	-42.287	-36.546	138.701	-40.909	-8191	255	
2577.534	1	1	0	131072	0.22614	0.13893	0.163	0.13075	0.052623	0.29048	0.21438	0.09876	0.15498	0.16964	0.10061	0.22888	0.088206	0.23319	0.12117	0.15921	-4.5771	-5.1354	-4.3333	-5.1229	-4.7312	-4.3917	-5.3479	-4.5625	-4.5563	-4.975	-4.3958	-5.1188	-4.9271	-4.6417	-5.3375	-4.8021	261.484	-43.926	-19.090	-15.510	155.523	255.864	152.766	190.723	183.510	295.159	-49.444	242.860	242.970	-42.074	72.890	251.064	0.00095511	0.00020518	0.00017045	882.23	6.0301e-06	3.6243e-06	893.18	405.88	3.1762e-06	5.8839e-06	420.69	190.12	181.83	94.74	1.0752e-06	106.17	0.00012403	0.00011055	3.08e-05	829.76	1.2147e-06	1.2048e-06	849.88	380.95	1.2476e-06	1.243e-06	387.14	174.16	165.89	87.839	1.3462e-06	96.31	38.354	11.244	2.968	-51.126	48.235	24.212	-53.140	-45.682	116.960	80.163	-48.915	-44.914	-42.250	-36.321	43.589	-40.871	-8191	255	
2577.606	1	1	0	131072	0.091537	0.17342	0.16362	0.19577	0.19801	0.069396	0.092749	0.072386	0.031774	0.031285	0.24589	0.14185	0.34643	0.23664	0.074173	0.12142	-4.2125	-5.2958	-4.3438	-4.9667	-4.8375	-4.2958	-5.1604	-4.9187	-4.7083	-5.2083	-4.4625	-5.0583	-5.2958	-4.5917	-5.2083	-5.0938	279.096	77.732	36.840	164.636	188.661	88.508	282.271	219.771	200.996	34.075	227.100	233.578	-17.110	292.181	119.176	271.958	0.0010872	0.0005584	9.2382e-05	879.17	6.8205e-06	6.923e-06	904.97	410.71	7.2388e-06	5.1309e-06	426.86	191.77	182.53	94.729	2.2201e-06	106.67	0.00013501	0.00012379	3.5071e-05	830.32	1.3775e-06	1.3761e-06	857.52	385.3	1.3851e-06	1.3706e-06	393.11	175.65	166.49	88.016	1.3953e-06	96.83	39.933	23.308	3.532	-51.057	55.993	111.567	-52.857	-45.493	36.603	76.379	-49.270	-44.824	-42.161	-36.359	120.029	-40.656	-8191	255	
2577.727	1	1	0	131072	0.10759	0.047649	0.2673	0.17475	0.21779	0.13674	0.13226	0.12646	0.35026	0.2071	0.17771	0.089201	0.053326	0.036296	0.25817	0.13559	-4.2562	-5.3104	-4.2979	-4.7937	-5.0646	-4.2042	-5.175	-4.9313	-4.4938	-5.2271	-4.6167	-4.9333	-5.3458	-4.4854	-5.1125	-5.0062	132.783	15.427	286.019	-40.155	94.566	166.974	255.344	242.621	293.295	-18.230	260.742	255.222	237.377	235.298	-13.169	-53.593	0.00086428	0.00056413	0.00020684	887.39	2.7845e-06	4.2476e-06	910.57	410.45	7.7275e-06	2.3025e-06	427.35	193.93	183.27	95.013	3.9655e-06	107.71	0.00013621	0.00012571	3.4987e-05	837.22	1.3878e-06	1.3836e-06	865.55	386.27	1.412e-06	1.4032e-06	395.58	177.83	167.59	88.803	1.4431e-06	97.904	39.813	12.262	9.712	-50.984	42.338	67.585	-53.230	-45.586	82.558	102.486	-48.991	-45.051	-42.076	-36.276	83.699	-40.878	-8191	255	
2577.821	1	1	0	131072	0.11481	0.15249	0.21167	0.07902	0.18031	0.14078	0.1219	0.18583	0.082901	0.15983	0.087387	0.23998	0.11234	0.28109	0.13489	0.22076	-3.9625	-5.3187	-4.5833	-4.7479	-5.2	-4.3167	-5.1646	-4.9917	-4.2688	-5.1792	-4.575	-4.7292	-5.5083	-4.65	-5.0271	-5.1188	-9.313	284.557	127.596	257.793	232.890	265.174	214.752	280.980	-29.929	21.360	62.267	233.037	202.645	203.100	6.332	182.877	0.00095945	0.00057312	0.00012464	881.37	8.1613e-06	4.6369e-06	904.51	412.2	5.3516e-06	5.4591e-06	426.15	192.75	184.22	95.395	9.6576e-07	108.12	0.00014143	0.00012966	3.6134e-05	833.34	1.3939e-06	1.4118e-06	857.59	386.68	1.4321e-06	1.4149e-06	394.27	177.46	168.45	89.118	1.4367e-06	98.184	24.424	23.997	12.106	-50.913	77.753	103.160	-53.384	-45.478	94.480	69.937	-48.826	-45.102	-42.233	-36.494	-1.698	-40.705	-8191	255	
2577.917	1	1	0	131072	0.088407	0.083173	0.18312	0.045559	0.11811	0.082545	0.26939	0.21223	0.073067	0.10189	0.1098	0.13276	0.14523	0.27819	0.19995	0.25949	-4.1167	-5.3458	-4.5417	-4.6188	-5.2104	-4.4417	-4.9083	-5.1208	-4.1271	-5.2812	-4.8958	-4.6208	-5.5833	-4.4938	-4.725	-5.4146	81.520	275.096	-40.432	29.158	250.524	25.934	225.009	224.799	168.947	267.422	241.356	208.779	290.411	217.760	224.295	276.546	0.0010377	0.0003998	0.00011678	872.99	6.5404e-06	4.2625e-06	894.58	414.97	1.3673e-05	4.445e-06	432.18	196.35	186.2	95.541	6.0877e-06	109.96	0.0001448	0.00013217	3.6945e-05	829.3	1.4622e-06	1.4558e-06	855.97	390.02	1.4632e-06	1.4403e-06	399.34	179.99	170.16	90.161	1.4643e-06	99.878	20.847	12.216	1.126	-50.828	47.356	78.809	-52.989	-45.589	80.321	88.302	-49.079	-44.952	-42.106	-36.225	77.346	-40.575	-8191	255	
#DATA ENDS
