BOXY.EXE: ISS Imagent and Oximeter Data Acquisition Program Version 0.80
Ascii Record File

#ACQ INFORMATION
2  Detector Channels 
16  External MUX Channels 
1  Auxiliary Channels 
5000  Waveform (CCF) Frequency (Hz)
1  Waveforms Skipped 
30  Waveforms Averaged 
1  Cycles Averaged 
16  Acquisitions per Waveform 
10.0806  Updata Rate (Hz) 

#FILE INFORMATION
TRUE -- External MUX Channel results are PARSED.
FALSE -- AC DC and Phase are NOT grouped.
TRUE -- Companion Program Settings File CREATED.
FALSE -- AC data not excluded
FALSE -- DC data not excluded
FALSE -- Phase data not excluded
FALSE -- Auxillary Chn. data not excluded
Tab delimiters

#CALIBRATION STATE
TRUE -- Waveform Calibration Values APPLIED.


#AUX CALIBRATION VALUES
Val Type	aux-1	

Term	1.0000e+00	
Factor	0.0000e+00	


#WF CALIBRATION VALUES
A = Detector Channel
Val Type	A-AC1	A-AC2	A-AC3	A-AC4	A-AC5	A-AC6	A-AC7	A-AC8	A-AC9	A-AC10	A-AC11	A-AC12	A-AC13	A-AC14	A-AC15	A-AC16	A-DC1	A-DC2	A-DC3	A-DC4	A-DC5	A-DC6	A-DC7	A-DC8	A-DC9	A-DC10	A-DC11	A-DC12	A-DC13	A-DC14	A-DC15	A-DC16	A-Ph1	A-Ph2	A-Ph3	A-Ph4	A-Ph5	A-Ph6	A-Ph7	A-Ph8	A-Ph9	A-Ph10	A-Ph11	A-Ph12	A-Ph13	A-Ph14	A-Ph15	A-Ph16	

Term	0.00000e+00	0.00000e+00	0.00000e+00	0.00000e+00	0.00000e+00	0.00000e+00	0.00000e+00	0.00000e+00	0.00000e+00	0.00000e+00	0.00000e+00	0.00000e+00	0.00000e+00	0.00000e+00	0.00000e+00	0.00000e+00	0.00000e+00	0.00000e+00	0.00000e+00	0.00000e+00	0.00000e+00	0.00000e+00	0.00000e+00	0.00000e+00	0.00000e+00	0.00000e+00	0.00000e+00	0.00000e+00	0.00000e+00	0.00000e+00	0.00000e+00	0.00000e+00	0.00000e+00	0.00000e+00	0.00000e+00	0.00000e+00	0.00000e+00	0.00000e+00	0.00000e+00	0.00000e+00	0.00000e+00	0.00000e+00	0.00000e+00	0.00000e+00	0.00000e+00	0.00000e+00	0.00000e+00	0.00000e+00	
Factor	1.00000e+00	1.00000e+00	1.00000e+00	1.00000e+00	1.00000e+00	1.00000e+00	1.00000e+00	1.00000e+00	1.00000e+00	1.00000e+00	1.00000e+00	1.00000e+00	1.00000e+00	1.00000e+00	1.00000e+00	1.00000e+00	1.00000e+00	1.00000e+00	1.00000e+00	1.00000e+00	1.00000e+00	1.00000e+00	1.00000e+00	1.00000e+00	1.00000e+00	1.00000e+00	1.00000e+00	1.00000e+00	1.00000e+00	1.00000e+00	1.00000e+00	1.00000e+00	X	X	X	X	X	X	X	X	X	X	X	X	X	X	X	X	

B = Detector Channel
Val Type	B-AC1	B-AC2	B-AC3	B-AC4	B-AC5	B-AC6	B-AC7	B-AC8	B-AC9	B-AC10	B-AC11	B-AC12	B-AC13	B-AC14	B-AC15	B-AC16	B-DC1	B-DC2	B-DC3	B-DC4	B-DC5	B-DC6	B-DC7	B-DC8	B-DC9	B-DC10	B-DC11	B-DC12	B-DC13	B-DC14	B-DC15	B-DC16	B-Ph1	B-Ph2	B-Ph3	B-Ph4	B-Ph5	B-Ph6	B-Ph7	B-Ph8	B-Ph9	B-Ph10	B-Ph11	B-Ph12	B-Ph13	B-Ph14	B-Ph15	B-Ph16	

Term	0.00000e+00	0.00000e+00	0.00000e+00	0.00000e+00	0.00000e+00	0.00000e+00	0.00000e+00	0.00000e+00	0.00000e+00	0.00000e+00	0.00000e+00	0.00000e+00	0.00000e+00	0.00000e+00	0.00000e+00	0.00000e+00	0.00000e+00	0.00000e+00	0.00000e+00	0.00000e+00	0.00000e+00	0.00000e+00	0.00000e+00	0.00000e+00	0.00000e+00	0.00000e+00	0.00000e+00	0.00000e+00	0.00000e+00	0.00000e+00	0.00000e+00	0.00000e+00	-2.67418e+02	-1.23981e+02	-1.44473e+02	-1.81854e+02	-1.05914e+02	-7.68791e+01	-1.57311e+02	-1.62015e+02	-7.09312e+01	-7.89950e+01	-1.71511e+02	-1.71453e+02	-1.84794e+02	-1.77817e+02	-1.04389e+02	-1.50452e+02	
Factor	5.71809e-05	8.97066e-05	3.11288e-05	1.96425e-01	1.13358e-06	8.75478e-07	1.57363e-01	5.65123e-02	1.42736e-06	9.07431e-07	8.42968e-02	3.04734e-02	2.81487e-02	8.63089e-03	1.04281e-06	1.25646e-02	5.48854e-07	5.55714e-07	1.54520e-07	9.50652e-02	6.08120e-09	6.08269e-09	7.27127e-02	2.73195e-02	6.08719e-09	6.08483e-09	3.88846e-02	1.39013e-02	1.32012e-02	4.11566e-03	6.08014e-09	5.73139e-03	X	X	X	X	X	X	X	X	X	X	X	X	X	X	X	X	



#DISTANCE SETTINGS
A = Detector Channel
A-1	A-2	A-3	A-4	A-5	A-6	A-7	A-8	A-9	A-10	A-11	A-12	A-13	A-14	A-15	A-16	

2.5000e+00	3.0000e+00	2.5000e+00	3.0000e+00	2.0000e+00	3.0000e+00	1.5000e+00	3.0000e+00	3.0000e+00	3.0000e+00	3.0000e+00	3.0000e+00	3.0000e+00	3.0000e+00	1.5000e+00	3.0000e+00	

B = Detector Channel
B-1	B-2	B-3	B-4	B-5	B-6	B-7	B-8	B-9	B-10	B-11	B-12	B-13	B-14	B-15	B-16	

1.0000e+01	1.0000e+01	1.0000e+01	1.4400e+00	1.0000e+01	1.0000e+01	1.5100e+00	1.9400e+00	1.0000e+01	1.0000e+01	1.9900e+00	2.4900e+00	2.4100e+00	2.9000e+00	1.0000e+01	2.9800e+00	




#DATA BEGINS
time	group	step	mark	flag	A-AC1	A-AC2	A-AC3	A-AC4	A-AC5	A-AC6	A-AC7	A-AC8	A-AC9	A-AC10	A-AC11	A-AC12	A-AC13	A-AC14	A-AC15	A-AC16	A-DC1	A-DC2	A-DC3	A-DC4	A-DC5	A-DC6	A-DC7	A-DC8	A-DC9	A-DC10	A-DC11	A-DC12	A-DC13	A-DC14	A-DC15	A-DC16	A-Ph1	A-Ph2	A-Ph3	A-Ph4	A-Ph5	A-Ph6	A-Ph7	A-Ph8	A-Ph9	A-Ph10	A-Ph11	A-Ph12	A-Ph13	A-Ph14	A-Ph15	A-Ph16	B-AC1	B-AC2	B-AC3	B-AC4	B-AC5	B-AC6	B-AC7	B-AC8	B-AC9	B-AC10	B-AC11	B-AC12	B-AC13	B-AC14	B-AC15	B-AC16	B-DC1	B-DC2	B-DC3	B-DC4	B-DC5	B-DC6	B-DC7	B-DC8	B-DC9	B-DC10	B-DC11	B-DC12	B-DC13	B-DC14	B-DC15	B-DC16	B-Ph1	B-Ph2	B-Ph3	B-Ph4	B-Ph5	B-Ph6	B-Ph7	B-Ph8	B-Ph9	B-Ph10	B-Ph11	B-Ph12	B-Ph13	B-Ph14	B-Ph15	B-Ph16	aux-1	digaux	

2207.052	1	1	0	768	0.054524	0.14856	0.014208	0.071802	0.19677	0.17274	0.18019	0.17659	0.18801	0.1334	0.062004	0.11066	0.31432	0.21095	0.076207	0.42451	-4.2292	-5.2354	-4.1792	-4.8604	-4.8854	-4.0813	-5.0542	-4.4896	-4.2646	-5.1417	-4.2542	-4.7667	-5.0687	-4.1417	-5.0729	-4.6667	17.712	218.613	-15.010	-92.181	20.017	151.093	192.340	-133.772	-118.687	10.745	-95.020	-129.826	167.281	223.976	-54.593	205.421	0.0014648	0.0001504	0.00019566	629.46	1.0956e-05	2.6916e-06	667.68	227.7	2.7405e-06	1.4392e-06	270.21	125.32	92.505	48.595	1.9665e-06	69.097	0.00035116	0.00034622	9.5954e-05	650.97	3.7736e-06	3.8295e-06	683.93	230.98	3.8412e-06	3.8265e-06	273.25	124.06	92.713	47.664	3.8275e-06	67.045	60.466	-47.039	-77.267	-121.259	-13.748	-0.638	-122.089	-115.883	-38.891	220.853	-117.472	-113.571	-111.948	-106.190	-102.339	-109.160	-8191	255	
2207.148	1	1	0	0	0.21257	0.31807	0.10977	0.044233	0.11492	0.12141	0.34406	0.2535	0.21526	0.18801	0.14458	0.11833	0.28735	0.11555	0.23856	0.14397	-3.9729	-5.1958	-4.2917	-4.6188	-5.0813	-4.2438	-5.0396	-4.6708	-4.3417	-5.0125	-4.3208	-4.5563	-5.125	-4.3021	-4.8896	-4.75	-18.710	198.889	164.265	219.874	123.402	-27.659	109.718	147.727	1.444	57.074	-129.650	100.111	184.765	178.611	61.181	-70.065	0.0012763	0.00017028	0.00020091	630.64	6.0763e-06	1.2983e-06	672.76	227.04	1.1451e-05	4.6321e-06	271.46	126.26	92.22	48.611	7.2658e-06	69.847	0.00036388	0.00035702	9.9274e-05	652.67	3.9251e-06	3.9047e-06	687.63	231.29	3.9284e-06	3.8618e-06	273.92	124.78	92.588	47.713	3.7943e-06	67.401	73.417	-87.350	-45.491	-121.339	-79.383	16.447	-122.008	-115.687	-30.875	4.025	-117.599	-113.630	-112.519	-106.158	90.233	-109.302	-8191	255	
2207.244	1	1	0	0	0.10642	0.093729	0.20488	0.049528	0.098841	0.088358	0.16179	0.25866	0.092342	0.15601	0.19157	0.27809	0.086194	0.13382	0.12306	0.34161	-3.8438	-5.1896	-4.3438	-4.4292	-4.9958	-3.9813	-4.8187	-4.9062	-4.1729	-4.8938	-4.5813	-4.4292	-4.975	-4.3729	-4.8187	-4.9125	-28.525	203.616	173.967	-34.366	81.718	-10.019	188.798	133.007	23.005	111.839	190.273	-110.929	-128.135	-107.403	22.902	143.904	0.0012781	0.00048238	7.5295e-05	631.29	4.1364e-06	2.8693e-06	670.82	227.7	3.7465e-06	6.3835e-06	271.3	125.9	92.796	48.516	7.4283e-06	68.985	0.0003542	0.00034148	9.4441e-05	651.47	3.757e-06	3.7151e-06	686.84	231.23	3.7903e-06	3.7262e-06	273.71	124.24	92.574	47.557	3.7836e-06	66.909	66.395	-35.935	-71.196	-121.399	155.340	14.909	-122.025	-115.756	27.993	-27.956	-117.614	-113.639	-112.498	-106.284	-21.530	-109.243	-8191	255	
2207.340	1	1	0	0	0.20446	0.13588	0.15785	0.11561	0.16093	0.20749	0.22641	0.22399	0.088031	0.19702	0.16926	0.059512	0.24265	0.44816	0.18676	0.10597	-3.9875	-4.9833	-4.5	-4.4	-5.0125	-4.2229	-4.5979	-4.9021	-4.1083	-4.9563	-4.6542	-4.4563	-5	-4.2854	-4.6146	-5.1396	79.515	71.556	-24.817	202.077	67.309	69.051	197.078	183.701	-103.706	153.634	204.786	-120.300	96.645	192.192	-44.809	-70.152	0.0012739	0.00047393	0.00027714	631.77	1.0867e-05	6.3429e-06	669.36	228.5	1.1295e-05	2.4479e-06	269.43	126.29	92.723	48.244	6.2431e-06	69.082	0.00035224	0.00034637	9.6011e-05	651.43	3.8232e-06	3.8048e-06	685.21	231.74	3.8265e-06	3.7965e-06	273.11	124.34	92.517	47.567	3.7844e-06	66.749	49.328	-25.251	-12.860	-121.238	-14.415	14.873	-121.995	-115.655	9.790	117.910	-117.512	-113.317	-112.251	-105.888	-72.650	-109.065	-8191	255	
2207.436	1	1	0	0	0.10467	0.028582	0.091939	0.27757	0.17891	0.11747	0.071255	0.21398	0.29721	0.054583	0.04663	0.075561	0.15243	0.18507	0.095812	0.26345	-3.8458	-4.8792	-4.5333	-4.0667	-5.0354	-4.2667	-4.5792	-5.1479	-4.0646	-4.8458	-4.8292	-4.25	-5.1333	-4.4958	-4.4167	-5.2583	68.865	-94.378	126.258	185.803	148.818	91.975	169.948	76.520	-52.119	124.315	59.879	60.467	66.881	217.822	23.854	-117.980	0.0015035	0.00022967	0.00029225	632.44	4.7603e-06	4.3658e-06	670.26	228.31	6.8239e-06	2.8087e-06	271.05	127.53	92.68	48.609	5.8564e-06	69.696	0.00034289	0.00033727	9.3336e-05	650.06	3.6365e-06	3.6529e-06	684.79	230.98	3.6461e-06	3.6556e-06	272.52	124.66	92.572	47.622	3.6596e-06	67.193	56.001	79.079	7.258	-121.158	-6.290	-10.567	-122.212	-115.902	16.490	-18.607	-117.730	-113.474	-112.174	-105.978	-88.725	-109.499	-8191	255	
2207.532	1	1	0	0	0.090544	0.16086	0.13124	0.12795	0.22461	0.1381	0.29744	0.19907	0.14164	0.23502	0.2058	0.053949	0.15139	0.22638	0.16803	0.35029	-3.8479	-4.7375	-4.6813	-4.1708	-4.9667	-4.4187	-4.4062	-5.0979	-4.075	-4.7458	-5.0604	-4.2958	-5.1687	-4.5604	-4.2375	-5.1708	-102.470	26.084	-88.583	188.261	-47.732	181.412	159.408	-99.531	-81.379	161.224	219.596	208.091	197.702	219.630	-124.858	189.583	0.0015956	0.00010809	0.00011078	635.31	6.5577e-06	6.1709e-06	671.9	228.88	6.2129e-06	4.172e-06	270.5	127.4	93.029	48.422	3.2029e-06	70.087	0.00033807	0.00033386	9.3737e-05	651.82	3.6445e-06	3.626e-06	686.97	231.31	3.6258e-06	3.6913e-06	273.67	125.12	92.726	47.733	3.6887e-06	67.691	63.954	33.110	-11.437	-121.269	49.793	43.896	-122.503	-115.822	89.246	31.618	-117.706	-113.466	-112.168	-106.265	-71.761	-109.127	-8191	255	
2207.653	1	1	0	0	0.10852	0.21143	0.11295	0.18559	0.23799	0.28622	0.12244	0.17876	0.168	0.14491	0.16774	0.26381	0.24136	0.17982	0.15248	0.13126	-3.8542	-4.5563	-5.0896	-4.2438	-4.9708	-4.7312	-4.3063	-5.1375	-3.9938	-4.5833	-5.1354	-4.2063	-5.0854	-4.7854	-4.3458	-5.1917	-110.287	-113.998	40.338	-123.051	-45.831	74.662	173.507	224.814	214.092	180.279	176.007	211.788	-40.876	192.406	114.512	-78.956	0.0013789	0.00026755	0.00013458	632.58	5.1336e-06	6.6851e-06	674.81	228.41	7.4348e-06	6.2994e-06	271.91	127.31	93.105	48.79	1.0909e-05	69.335	0.00033919	0.00033704	9.3273e-05	649.64	3.6603e-06	3.6489e-06	688.98	230.99	3.6617e-06	3.6564e-06	273.95	124.87	92.508	47.692	3.6349e-06	67.087	62.780	-31.783	-1.943	-120.945	220.564	15.202	-122.224	-115.809	-28.810	-5.379	-117.490	-113.547	-111.977	-106.096	-9.211	-109.279	-8191	255	
2207.749	1	1	0	0	0.16143	0.068644	0.14497	0.17018	0.24407	0.029642	0.17295	0.064471	0.13449	0.17687	0.29396	0.057579	0.24792	0.12611	0.08138	0.12567	-3.9792	-4.4542	-4.9854	-4.2375	-4.8063	-4.8063	-4.2771	-5.1375	-4.4396	-4.4104	-5.1521	-4.0875	-4.7333	-4.9938	-4.0771	-5.1917	-30.855	188.122	102.648	156.655	-7.903	-59.566	185.797	209.077	79.510	-44.014	185.348	168.981	-66.432	117.025	0.587	122.512	0.0019174	0.00038475	6.4777e-06	632.97	7.9242e-06	2.9388e-06	669.06	228.78	7.8809e-07	5.6355e-06	270.32	126.45	92.587	48.589	4.4884e-06	69.121	0.00034003	0.0003336	9.2507e-05	648.72	3.6647e-06	3.6446e-06	683.38	230.33	3.6252e-06	3.7014e-06	272.38	124.36	92.374	47.568	3.6739e-06	66.829	62.367	-51.811	-9.027	-120.953	-86.575	71.151	-122.011	-115.946	106.834	-13.768	-117.522	-113.262	-112.421	-105.991	-21.032	-109.337	-8191	255	
2207.845	1	1	0	0	0.14229	0.11564	0.18681	0.2525	0.34102	0.13865	0.076529	0.10995	0.19328	0.17304	0.1215	0.036555	0.20131	0.16156	0.062995	0.17394	-4.1542	-4.2958	-5.0229	-4.3354	-4.7312	-4.8646	-4.1354	-5.0292	-4.4708	-4.2688	-5.1521	-4.2667	-4.6375	-4.9896	-4.1771	-5.15	-106.847	16.252	110.458	215.275	201.210	215.675	-41.013	148.019	-80.744	16.916	190.135	207.956	186.778	225.055	159.255	99.684	0.001363	0.00028565	0.00015166	632.39	3.9459e-06	2.3256e-06	667.26	226.43	2.8992e-06	1.5453e-06	269.19	126.08	92.655	48.382	7.635e-06	68.999	0.00033961	0.000333	9.2093e-05	648.45	3.6174e-06	3.6103e-06	682.73	229.54	3.6291e-06	3.642e-06	271.2	124.08	92.337	47.384	3.6756e-06	66.784	70.393	9.640	-9.875	-121.188	-10.197	49.964	-122.310	-116.026	65.369	17.891	-117.421	-113.301	-112.365	-106.025	-54.077	-109.446	-8191	255	
2207.942	1	1	0	0	0.055508	0.022238	0.088113	0.073705	0.23103	0.19751	0.12989	0.017186	0.106	0.048205	0.091219	0.2086	0.18625	0.3172	0.093839	0.28067	-4.1458	-4.2312	-5.0292	-4.3729	-4.6125	-5.0396	-4.2729	-4.9917	-4.5646	-4.2625	-5.1104	-4.3313	-4.3271	-4.9854	-4.15	-4.9604	76.522	29.312	91.008	14.095	158.085	4.216	113.067	100.065	143.983	-117.653	85.697	217.904	159.265	-118.633	193.723	180.768	0.0013725	0.00042098	0.00013003	630.76	3.0117e-06	4.1735e-06	669.6	227.56	2.9535e-06	2.8566e-06	271.07	126.91	92.776	48.646	3.0962e-06	69.511	0.00034162	0.0003368	9.2855e-05	647.98	3.6739e-06	3.6717e-06	684.35	229.94	3.6485e-06	3.6617e-06	272.51	124.77	92.262	47.536	3.5561e-06	67.103	67.789	-115.953	-32.277	-121.116	-1.682	-58.807	-122.010	-115.845	34.064	-107.030	-117.710	-113.423	-112.542	-105.963	-20.252	-109.198	-8191	255	
2208.036	1	1	0	0	0.074184	0.11395	0.05714	0.32788	0.083121	0.29931	0.16436	0.083827	0.2041	0.22966	0.29592	0.046931	0.17164	0.15655	0.028078	0.10695	-4.5437	-4.1479	-4.9833	-4.4542	-4.3792	-4.9187	-4.2083	-4.6937	-4.6208	-4.0854	-5.2104	-4.4083	-4.3854	-5.0792	-4.0271	-4.7771	179.147	225.606	-55.525	175.528	-31.347	210.489	-108.004	95.171	166.162	5.424	-118.801	166.973	-72.581	-113.275	224.280	134.984	0.0012453	3.5984e-05	1.3575e-05	631.45	7.7099e-06	3.1136e-06	676.85	227.94	1.1041e-06	1.3133e-06	268.37	126.57	92.019	48.086	3.0735e-06	69.472	0.00033259	0.00032571	8.9973e-05	647.23	3.5843e-06	3.5653e-06	685.53	229.68	3.6008e-06	3.6111e-06	271.9	124.32	92.01	47.332	3.6065e-06	66.974	58.902	-124.643	-27.929	-120.927	-17.478	104.888	-121.785	-115.682	19.620	11.797	-117.131	-113.445	-112.161	-105.742	100.147	-109.083	-8191	255	
2208.132	1	1	0	0	0.024388	0.039382	0.16331	0.24882	0.15862	0.14472	0.31195	0.076191	0.034821	0.17319	0.28432	0.054205	0.13594	0.085507	0.10161	0.16455	-4.5104	-4.0271	-4.7375	-4.5542	-4.2479	-4.9271	-4.1813	-4.6333	-4.9896	-4.1542	-5.0521	-4.6292	-4.2583	-5.1646	-4.2896	-4.6854	105.287	-18.034	163.825	128.363	-3.388	139.862	174.247	-125.963	50.719	-10.399	148.679	-115.386	146.627	-28.092	23.447	154.071	0.001184	0.00029145	1.6559e-05	628.01	5.3611e-06	2.7618e-06	670.65	225.85	1.3449e-05	4.4746e-06	268.97	125.58	91.739	48.433	2.293e-06	69.011	0.00033595	0.0003301	9.1778e-05	644.73	3.6552e-06	3.6253e-06	681.13	228.98	3.6757e-06	3.6715e-06	271.11	123.44	91.832	47.35	3.6551e-06	66.746	78.421	-51.992	190.844	-121.001	-54.651	57.186	-122.239	-115.761	-33.808	70.293	-117.302	-113.446	-112.446	-106.078	13.721	-109.298	-8191	255	
2208.253	1	1	0	0	0.35825	0.11663	0.13955	0.1413	0.055657	0.18013	0.17253	0.057523	0.11883	0.11624	0.17286	0.18227	0.051365	0.10379	0.11173	0.078872	-4.6979	-4.1458	-4.8292	-4.6333	-4.0417	-4.9479	-4.4979	-4.5021	-5.0292	-4.2333	-4.9125	-4.8771	-4.4083	-5.025	-4.2562	-4.3979	18.877	-63.178	-98.737	151.059	-105.767	-45.108	149.848	88.783	-105.283	156.279	198.774	-38.357	-7.938	206.271	221.070	-84.748	0.0016737	0.00019187	0.00012617	626.36	5.1278e-06	3.5613e-06	667.76	225.55	1.5393e-05	4.2634e-06	267.94	125.17	92.086	48.362	4.0423e-06	69.181	0.00034006	0.00033169	9.252e-05	645.05	3.6657e-06	3.5694e-06	680.21	228.24	3.5903e-06	3.579e-06	270.87	123.22	91.44	47.253	3.5652e-06	66.739	63.952	28.538	-106.148	-120.844	211.995	-48.302	-121.941	-115.828	4.018	31.158	-117.513	-113.469	-112.547	-106.287	-10.653	-109.283	-8191	255	
2208.349	1	1	0	0	0.21311	0.28697	0.20427	0.039861	0.1163	0.182	0.071172	0.23217	0.11894	0.094893	0.19436	0.15071	0.10297	0.29014	0.16807	0.15144	-4.8125	-4.0896	-4.7875	-4.8583	-4.1521	-5.0375	-4.4938	-4.2937	-4.9896	-4.275	-4.7708	-4.9458	-4.2479	-5.0479	-4.4667	-4.4875	-113.652	6.341	99.096	196.208	-129.161	27.482	-133.249	51.286	127.386	211.527	154.301	142.310	189.783	206.256	70.108	137.987	0.0013427	0.00061216	0.00031615	629.4	9.795e-07	2.6549e-06	669.45	226.93	3.1578e-06	4.2076e-06	270.19	126.75	92.254	48.676	6.7854e-06	69.852	0.00032664	0.00032329	9.0427e-05	644.64	3.5471e-06	3.5586e-06	681.15	228.74	3.5546e-06	3.568e-06	271.96	123.95	91.726	47.45	3.5597e-06	67.154	57.529	-91.117	-43.968	-121.065	-117.391	12.621	-122.199	-115.407	191.153	33.213	-117.893	-113.220	-112.424	-106.241	-15.928	-109.193	-8191	255	
2208.445	1	1	0	0	0.12794	0.14912	0.068498	0.20368	0.079627	0.11474	0.1769	0.055892	0.1758	0.16929	0.13263	0.34562	0.20212	0.078955	0.087901	0.21426	-4.6792	-4.2917	-4.6396	-4.9042	-3.9521	-4.7438	-4.8479	-4.3938	-5	-4.2417	-4.5646	-4.975	-4.0813	-5.0021	-4.6042	-4.3562	-23.407	135.584	118.699	22.142	127.980	70.077	152.396	213.608	-76.543	73.016	110.457	222.343	219.118	68.472	174.358	149.509	0.0017198	0.00045166	0.00020218	629.56	6.5035e-06	1.1428e-06	674.46	226.7	5.808e-06	2.29e-06	270.14	126.89	92.114	48.461	2.6224e-06	69.497	0.00033192	0.00032444	9.12e-05	645.69	3.5712e-06	3.5998e-06	686.89	229.34	3.5804e-06	3.597e-06	272.92	124.83	92.025	47.508	3.6334e-06	67.026	68.086	4.604	-105.387	-121.024	-36.006	47.062	-121.931	-115.859	-42.365	178.870	-117.589	-113.462	-112.322	-105.819	187.417	-109.296	-8191	255	
2208.541	1	1	0	0	0.10341	0.17388	0.28325	0.32639	0.073937	0.1723	0.11068	0.11657	0.11612	0.070774	0.067777	0.15317	0.33181	0.23643	0.12673	0.14621	-4.8438	-4.2729	-4.4229	-5.0417	-4.125	-4.8021	-4.9375	-4.0875	-4.9292	-4.6458	-4.5667	-5.0021	-4.275	-4.95	-4.8792	-4.2917	65.744	-93.568	40.453	-99.466	12.699	-58.281	-95.760	150.980	1.945	112.507	-16.587	-16.068	-12.582	-133.049	17.244	186.594	0.0018277	0.00028416	0.00023364	635.23	1.6204e-06	3.007e-06	671.03	227.79	6.2246e-06	5.1465e-06	269.59	126.09	92.037	48.078	6.1637e-06	68.58	0.00033581	0.00033172	9.208e-05	646.49	3.5813e-06	3.643e-06	684.07	229.53	3.6651e-06	3.6502e-06	271.47	124	91.821	47.265	3.6627e-06	66.624	47.326	55.994	-42.845	-121.255	212.739	-58.948	-121.691	-115.713	-8.238	5.127	-117.632	-113.401	-112.292	-106.263	-5.320	-109.486	-8191	255	
2208.637	1	1	0	0	0.063841	0.16019	0.12207	0.080057	0.23253	0.20405	0.18386	0.30727	0.1583	0.15026	0.12297	0.062185	0.20855	0.073527	0.35906	0.19305	-4.6875	-4.3833	-4.2854	-5.0021	-4.0875	-4.7562	-5.0292	-4.1542	-4.8438	-4.55	-4.375	-5.1146	-4.2	-4.7229	-5.0479	-4.2667	-133.051	171.967	-8.035	-43.560	-48.628	187.386	172.471	156.078	41.213	-110.097	-116.114	147.569	-7.239	-129.426	-113.448	-66.821	0.0016326	0.00059246	0.00014029	628.22	1.0972e-06	4.2253e-06	673.58	226.42	3.5335e-06	6.0142e-06	269.75	126.28	92.607	48.294	8.0617e-06	69.632	0.00034311	0.00033668	9.4102e-05	646.8	3.679e-06	3.7032e-06	685.07	229.09	3.6643e-06	3.6461e-06	272.46	124.21	92.152	47.372	3.5963e-06	66.987	58.202	-26.568	5.554	-121.008	130.661	-30.551	-121.826	-115.648	188.115	-67.545	-117.437	-113.337	-111.914	-106.047	-57.329	-109.250	-8191	255	
2208.733	1	1	0	0	0.10348	0.22701	0.2972	0.040295	0.13508	0.14526	0.10156	0.080977	0.14949	0.083179	0.27946	0.21358	0.18224	0.18584	0.2379	0.21921	-4.6396	-4.6646	-4.1854	-5.125	-4.1687	-4.5813	-5.0208	-4.2208	-4.9125	-4.6562	-4.1875	-5.2021	-4.375	-4.3875	-5.0437	-4.2771	191.024	58.325	-20.072	61.507	-5.803	141.462	-91.462	81.605	-4.204	147.308	99.685	95.703	-21.252	-20.023	43.136	188.649	0.0015312	0.00021452	0.00028893	632.06	3.4116e-06	3.1073e-06	677.62	228.11	6.1956e-06	3.3172e-06	273.15	127.49	92.747	48.525	4.1329e-06	69.969	0.00033653	0.00032866	9.1426e-05	648.51	3.5763e-06	3.5925e-06	689.2	230.09	3.6314e-06	3.6135e-06	275.48	125.6	92.423	47.574	3.6418e-06	67.437	66.502	72.738	-72.984	-120.664	8.212	-25.075	-122.056	-115.631	-9.203	11.037	-117.603	-113.339	-112.336	-106.124	-83.978	-109.108	-8191	255	
2208.830	1	1	0	0	0.03801	0.046197	0.17687	0.15086	0.21307	0.28002	0.18599	0.33491	0.077585	0.085164	0.14528	0.15397	0.14198	0.036495	0.062178	0.29497	-4.3375	-4.7562	-4.1979	-5.1167	-4.3604	-4.425	-5.0729	-4.1896	-4.6917	-4.7917	-4.0583	-5.0875	-4.5437	-4.3729	-5.0625	-4.3604	-60.579	-97.737	-109.587	-51.766	46.962	104.087	217.684	193.570	26.489	-132.661	-94.867	205.680	217.446	-26.273	15.510	128.230	0.0016092	0.0005237	0.00020823	635.22	2.6172e-06	4.1141e-06	683.09	229.54	3.4563e-06	3.428e-06	274.1	128.19	93.033	48.678	4.5864e-06	70.306	0.00033897	0.00033274	9.2934e-05	652.69	3.6842e-06	3.7301e-06	695.58	232.31	3.7155e-06	3.6875e-06	277.81	126.15	92.914	47.727	3.6536e-06	67.762	60.956	-54.585	-49.524	-121.182	-47.194	-34.366	-122.019	-115.796	27.962	168.770	-117.770	-113.415	-112.197	-106.252	-62.860	-109.108	-8191	255	
2208.926	1	1	0	0	0.26558	0.038456	0.17605	0.12421	0.25881	0.111	0.23742	0.25771	0.051449	0.068746	0.19336	0.12615	0.052209	0.18633	0.26059	0.35817	-4.4375	-4.8313	-4.0792	-5.0667	-4.5687	-4.3354	-5.0458	-4.3458	-4.6917	-5.0021	-4.1646	-5.0708	-4.6062	-4.2667	-5.0938	-4.3604	-119.285	-1.393	172.040	187.315	-107.597	-76.258	217.070	-123.097	157.539	52.635	-23.951	163.215	-41.703	-75.621	-132.896	149.829	0.0015145	0.0004598	0.00015101	636.67	7.8438e-06	4.9552e-06	681.47	231.25	6.7067e-06	2.8789e-06	275.38	127.57	93.149	48.706	2.0698e-06	69.582	0.00034337	0.00033712	9.3909e-05	654.9	3.7368e-06	3.7167e-06	696.14	232.9	3.7226e-06	3.6452e-06	276.61	125.62	92.748	47.554	3.6726e-06	67.301	59.051	-62.759	-63.999	-121.472	1.752	6.776	-122.084	-115.999	-72.315	-100.709	-117.434	-113.373	-112.370	-105.932	7.870	-109.181	-8191	255	
2209.022	1	1	0	0	0.078744	0.1896	0.048273	0.14555	0.145	0.11271	0.17765	0.10844	0.11657	0.11852	0.17253	0.030291	0.27324	0.2458	0.21233	0.21524	-4.2646	-5.05	-4.0667	-4.8333	-4.8458	-3.9833	-5.0667	-4.2354	-4.3896	-4.9792	-4.2396	-4.7646	-4.925	-4.2312	-4.9458	-4.5458	-129.470	16.764	2.594	222.344	6.404	-80.195	141.570	131.256	191.652	-5.281	103.638	151.738	176.987	195.976	160.128	169.185	0.0011813	0.00045814	0.00015738	632.5	1.4689e-06	2.2501e-06	674.52	228.43	6.6857e-06	1.3721e-06	272.92	127.39	92.61	48.597	3.035e-06	69.963	0.00034516	0.00033547	9.3566e-05	652.07	3.6966e-06	3.6972e-06	691.41	230.5	3.6915e-06	3.6518e-06	275.01	125.11	92.244	47.531	3.6472e-06	67.31	70.397	-26.652	-36.935	-121.475	-111.278	79.655	-121.955	-115.592	23.032	-42.189	-117.480	-113.496	-112.319	-106.138	-65.702	-109.082	-8191	255	
2209.141	1	1	0	0	0.10011	0.15134	0.19711	0.23333	0.17887	0.17727	0.18247	0.06727	0.039828	0.090029	0.0074179	0.13308	0.20204	0.10402	0.15237	0.20745	-3.9521	-5.0646	-4.1458	-4.7542	-4.8375	-4.0521	-5.0312	-4.5146	-4.3292	-5.1	-4.2708	-4.7021	-4.9292	-4.3229	-4.8583	-4.6937	118.924	113.148	-118.058	43.581	175.385	131.596	139.429	204.206	54.417	29.584	96.399	167.509	-113.202	178.444	-114.913	141.907	0.001616	0.00049055	0.00024331	631.9	5.0998e-06	3.4971e-06	675.61	228.63	7.6106e-06	3.9348e-06	273.44	127.63	93.22	48.363	8.2837e-06	69.903	0.00034097	0.0003274	9.1475e-05	648.94	3.5416e-06	3.5333e-06	690	229.6	3.5089e-06	3.5047e-06	273.58	124.92	92.158	47.356	3.5873e-06	67.382	65.688	-90.519	223.597	-121.282	20.546	150.465	-122.130	-115.843	-33.999	139.593	-117.405	-113.630	-112.422	-105.962	-123.207	-109.005	-8191	255	
2209.214	1	1	0	0	0.16392	0.10477	0.014761	0.13784	0.10096	0.12892	0.052419	0.032145	0.28698	0.024609	0.24379	0.10521	0.082579	0.25159	0.1406	0.34421	-3.7292	-5.0104	-4.1354	-4.5583	-4.9	-4.0375	-4.8688	-4.5958	-4.1292	-5.0104	-4.3875	-4.5062	-4.9979	-4.1042	-4.7792	-4.7729	199.921	187.874	-33.996	174.924	187.505	152.460	-96.177	196.070	-99.138	0.815	42.991	133.376	-29.131	207.592	-56.206	178.209	0.0015515	0.00068852	9.2845e-05	634.35	2.9279e-06	6.1557e-06	675.9	227.49	4.0736e-06	7.8376e-06	272.73	127.68	92.484	48.58	1.1816e-06	70.251	0.00033774	0.00032738	9.1228e-05	650.73	3.6381e-06	3.6506e-06	691.18	229.93	3.6454e-06	3.6226e-06	273.76	125.65	92.287	47.504	3.6355e-06	67.549	70.088	-26.951	-63.058	-121.328	1.871	25.327	-122.194	-115.539	-98.988	-66.006	-117.544	-113.538	-112.159	-105.915	179.945	-109.096	-8191	255	
2209.333	1	1	0	0	0.036321	0.036566	0.23185	0.15612	0.25527	0.23169	0.085226	0.016562	0.21813	0.12893	0.21342	0.21087	0.12168	0.37324	0.23029	0.16785	-3.7792	-5.0896	-4.3208	-4.6604	-4.8667	-4.1417	-4.9729	-4.9021	-4.1375	-5.1958	-4.5375	-4.3	-4.9917	-4.1917	-4.675	-4.8917	-36.664	125.752	129.133	217.476	-71.014	208.809	216.439	175.571	207.373	-21.363	-39.963	133.620	208.520	180.618	-68.621	-107.510	0.0017707	0.00085793	5.216e-05	629.66	3.1134e-06	3.8535e-06	676.67	227.08	3.0787e-06	5.8723e-06	272.88	127.71	93.011	48.62	2.7044e-06	69.819	0.00033709	0.00032988	9.1694e-05	650.39	3.5902e-06	3.6436e-06	690.99	229.41	3.6195e-06	3.6209e-06	274.24	125.72	92.178	47.49	3.6267e-06	67.292	72.799	-60.521	143.020	-121.193	-25.768	24.023	-122.057	-115.727	-103.291	-22.683	-117.587	-113.599	-112.242	-105.973	-80.247	-109.089	-8191	255	
2209.429	1	1	0	0	0.12624	0.18161	0.12372	0.10653	0.02766	0.22247	0.343	0.15811	0.20147	0.11306	0.077477	0.13067	0.15692	0.16757	0.22111	0.060089	-3.7896	-4.8708	-4.5833	-4.3729	-5.1188	-4.1771	-4.8083	-4.9667	-4.0938	-4.9417	-4.75	-4.3792	-5.075	-4.3729	-4.4604	-5.0542	37.317	-122.322	103.361	136.806	173.822	110.570	175.374	166.085	155.961	37.046	-120.301	176.224	185.898	223.234	-23.490	-7.643	0.0013373	7.2625e-05	0.00020266	630.09	6.6945e-06	6.1739e-06	671.45	226.93	6.0041e-06	5.363e-06	271.23	128.2	92.505	48.457	1.877e-06	69.834	0.00033752	0.00032734	9.0861e-05	646.41	3.5311e-06	3.514e-06	685.85	228.43	3.4926e-06	3.4724e-06	271.81	125.29	92.021	47.329	3.5522e-06	67.179	63.467	-70.698	-103.619	-121.323	-111.040	-31.089	-122.159	-115.599	-2.889	-7.614	-117.648	-113.378	-112.457	-106.059	-3.533	-108.886	-8191	255	
2209.525	1	1	0	0	0.080863	0.17192	0.066089	0.20568	0.13122	0.07285	0.35502	0.16143	0.21367	0.14271	0.21616	0.15743	0.13488	0.22196	0.13775	0.16107	-3.7583	-4.9563	-4.5	-4.2708	-4.9812	-4.2812	-4.525	-4.9792	-4.0229	-4.8313	-4.8542	-4.2604	-5.0854	-4.4333	-4.4083	-5.0958	-14.328	94.678	62.600	218.513	-105.328	-73.413	143.412	126.820	199.843	-4.966	89.795	162.586	189.190	188.598	154.969	218.464	0.0014179	0.00067739	0.00016462	628.92	2.3184e-06	4.0696e-06	676.95	227.96	5.7033e-06	2.8468e-06	271.49	127.77	92.856	48.574	4.0588e-06	70.11	0.0003255	0.00032004	8.86e-05	645.93	3.509e-06	3.5207e-06	687.73	229.23	3.4788e-06	3.5248e-06	272.8	125.59	92.151	47.514	3.4666e-06	67.67	57.830	-89.126	-30.968	-121.215	-106.625	116.967	-122.176	-115.776	-29.841	-13.220	-117.228	-113.556	-112.363	-105.899	-47.376	-109.070	-8191	255	
2209.622	1	1	0	0	0.20783	0.013056	0.030588	0.26575	0.094222	0.1629	0.14172	0.2258	0.19737	0.14726	0.068669	0.1448	0.039411	0.14193	0.30296	0.25019	-3.7812	-4.6479	-4.6833	-4.2146	-4.8	-4.2812	-4.5333	-5.0083	-4.2	-4.6646	-4.9458	-4.1937	-4.9125	-4.5479	-4.1667	-5.2188	113.815	139.128	-40.501	215.274	152.481	-96.870	111.143	174.602	117.369	-107.438	25.618	156.257	-133.500	179.032	216.604	118.494	0.0013687	8.2103e-05	0.00012176	633.34	4.0484e-06	3.6807e-06	679.33	228.89	2.7308e-06	3.2731e-06	275.39	129.2	93.736	48.861	3.574e-06	70.696	0.00032352	0.00031495	8.7339e-05	648.28	3.4364e-06	3.4432e-06	691.6	230.22	3.4858e-06	3.4589e-06	276.06	126.66	92.803	47.733	3.4162e-06	68.206	64.239	108.814	-35.014	-121.337	26.623	24.963	-121.849	-115.719	114.720	-57.235	-117.550	-113.533	-112.200	-106.032	152.019	-109.099	-8191	255	
2209.742	1	1	0	0	0.063085	0.11802	0.15291	0.1407	0.060267	0.028864	0.23694	0.096003	0.12298	0.21028	0.3626	0.17397	0.094616	0.10108	0.1777	0.27971	-3.85	-4.7708	-4.7937	-4.2271	-4.9292	-4.5417	-4.4771	-5.2292	-4.3104	-4.6062	-5.0708	-4.1875	-5.0687	-4.7562	-4.1479	-5.1583	-53.820	-55.449	-16.443	171.188	-131.013	6.841	219.231	-33.709	193.188	63.425	205.576	165.548	119.866	157.162	-30.967	212.080	0.0014145	0.0004589	0.00019432	636.96	1.743e-06	3.6398e-06	686.68	230.49	7.6707e-06	2.079e-06	279.61	131.11	94.002	49.26	5.0908e-06	71.608	0.00032123	0.00031454	8.5869e-05	650.07	3.4197e-06	3.4232e-06	698.91	232.04	3.4299e-06	3.4352e-06	279.04	127.96	93.41	48.044	3.4406e-06	68.545	53.307	13.649	-103.599	-121.201	-21.091	154.629	-122.058	-115.732	46.004	-42.200	-117.387	-113.558	-112.081	-105.831	-78.029	-109.077	-8191	255	
2209.837	1	1	0	0	0.092438	0.21757	0.22849	0.1402	0.15881	0.12815	0.14755	0.089391	0.11574	0.029094	0.164	0.19321	0.2121	0.23586	0.24814	0.13937	-4.1	-4.45	-5	-4.1354	-4.8958	-4.825	-4.4104	-5.1542	-4.2833	-4.3083	-5.0167	-4.2604	-4.7188	-4.7521	-4.175	-5.3187	-10.848	-16.469	174.421	225.907	-30.025	97.310	184.673	161.605	25.809	-78.839	156.055	-7.644	125.915	-108.787	-57.668	112.307	0.0014128	0.00013952	6.3227e-05	639.28	8.3471e-06	9.2826e-06	687.39	232.37	7.5122e-06	2.5373e-06	278.17	130.19	94.002	49.152	6.1943e-06	70.731	0.00032028	0.00031588	8.7255e-05	653.25	3.4645e-06	3.4254e-06	698.11	232.81	3.4402e-06	3.4433e-06	278.64	127.55	93.5	47.887	3.436e-06	68.207	62.014	194.036	-84.433	-121.146	-41.794	37.282	-122.170	-115.745	-20.520	-65.805	-117.517	-113.657	-112.478	-106.089	-52.234	-109.085	-8191	255	
2209.934	1	1	0	0	0.069205	0.11184	0.12806	0.088488	0.2746	0.11276	0.12232	0.076952	0.10375	0.33654	0.21262	0.11611	0.19238	0.13377	0.059369	0.085442	-4.1604	-4.3458	-4.8854	-4.3354	-4.6104	-4.9146	-4.2438	-5.3354	-4.4938	-4.3625	-5.0167	-4.2458	-4.5896	-5.0833	-4.1375	-5.1708	103.954	167.077	-116.431	9.045	82.731	137.840	95.954	11.186	144.643	67.405	182.982	203.583	166.555	219.511	23.164	150.160	0.0014705	0.00032936	0.00011701	639.02	7.7406e-06	4.2375e-06	688.5	230.54	5.6964e-06	5.9858e-06	275.69	129.8	94.222	48.946	5.0076e-07	70.951	0.00032094	0.0003148	8.7672e-05	651.7	3.4543e-06	3.4151e-06	697.33	231.87	3.4388e-06	3.4221e-06	276.88	127.03	93.247	47.701	3.4726e-06	68.105	55.417	-46.626	-6.899	-121.005	-4.785	-20.023	-121.964	-115.670	38.608	2.217	-117.288	-113.465	-112.404	-106.089	121.616	-109.080	-8191	255	
2210.029	1	1	0	0	0.096969	0.089845	0.11255	0.16201	0.060694	0.092291	0.11595	0.021145	0.12174	0.36834	0.24509	0.043764	0.044278	0.099037	0.25935	0.16706	-4.1687	-4.3083	-5.0188	-4.4146	-4.4167	-5.1687	-4.1208	-4.925	-4.5896	-4.2562	-5.2479	-4.4833	-4.625	-5.2312	-4.2438	-4.825	-123.843	-49.887	143.582	160.811	79.321	212.836	71.761	-24.028	-80.092	92.161	-132.391	173.908	-44.185	67.504	81.036	3.351	0.0014707	0.00062687	8.8802e-05	637.15	5.6451e-06	5.7416e-06	685.25	230.82	5.2203e-06	2.9012e-06	278.13	129.94	93.267	48.681	4.1426e-06	70.616	0.0003247	0.00031875	8.8631e-05	652.65	3.498e-06	3.5005e-06	697.85	232.32	3.4893e-06	3.4856e-06	277.61	127.12	93.02	47.656	3.4782e-06	68.124	61.200	-35.775	-104.700	-121.162	195.401	-56.141	-122.125	-115.750	-8.793	-78.551	-117.522	-113.580	-112.353	-106.021	-65.638	-109.163	-8191	255	
2210.125	1	1	0	0	0.13647	0.20919	0.14638	0.087921	0.083281	0.16701	0.20067	0.17127	0.2047	0.084815	0.24255	0.091862	0.12883	0.088551	0.023383	0.25656	-4.5208	-4.1167	-5.0813	-4.6021	-4.3375	-5.1875	-4.2708	-4.85	-4.7458	-4.1188	-5.2042	-4.6312	-4.3333	-5.1875	-4.3083	-4.8375	26.332	70.832	28.114	-69.614	43.941	188.023	185.196	166.950	-72.836	-65.803	154.134	179.633	-84.309	-91.359	-123.750	203.732	0.0013964	0.00037798	2.9223e-05	638.02	1.9195e-06	8.558e-06	686.37	230.22	9.6646e-06	6.0033e-06	275.85	129.25	93.44	48.715	7.3426e-06	70.095	0.00032428	0.00032157	9.1193e-05	654.1	3.6321e-06	3.6185e-06	699.91	232.43	3.675e-06	3.7037e-06	279.03	127.34	93.437	47.779	3.7449e-06	67.978	73.268	67.332	222.521	-120.687	68.010	-2.991	-122.160	-115.645	-36.595	-21.650	-117.429	-113.341	-112.510	-106.008	49.967	-109.079	-8191	255	
2210.221	1	1	0	0	0.10417	0.19915	0.19588	0.26206	0.30235	0.16043	0.12896	0.20018	0.31821	0.10723	0.15915	0.15153	0.053651	0.14078	0.11178	0.016814	-4.7063	-4.1021	-4.8938	-4.5708	-4.2396	-5.0271	-4.2688	-4.7292	-4.7083	-4.0458	-4.9917	-4.7146	-4.2958	-5.2354	-4.1813	-4.5875	130.278	-53.824	22.685	-82.786	187.259	-64.090	46.059	144.681	129.047	14.073	49.849	199.975	225.883	216.859	110.373	109.801	0.0015569	0.00011867	0.00019224	637.11	5.4107e-06	8.5461e-06	679.91	228.87	6.2904e-06	7.2154e-07	272.67	128.84	92.276	48.296	4.3396e-06	69.47	0.0003462	0.0003446	9.5775e-05	655.12	3.7706e-06	3.7775e-06	695.54	231.77	3.7403e-06	3.7452e-06	276.43	126.12	92.704	47.383	3.7762e-06	67.102	54.945	-6.145	-58.444	-120.731	-62.641	24.048	-121.802	-115.594	-25.615	38.402	-117.773	-113.312	-112.222	-106.114	-110.076	-109.239	-8191	255	
2210.317	1	1	0	0	0.14854	0.12877	0.011303	0.11598	0.17568	0.061437	0.22583	0.23106	0.16896	0.096027	0.051796	0.14258	0.16973	0.14015	0.1124	0.12247	-4.4354	-4.1729	-4.8521	-4.7708	-4.1354	-5.0875	-4.4938	-4.4854	-4.9792	-3.9875	-5.1417	-4.7771	-4.4021	-5.1896	-4.2562	-4.6417	-86.207	33.881	-78.214	-112.057	-133.637	88.642	-99.257	60.583	-48.494	104.582	224.585	137.225	195.350	192.493	-94.253	-42.299	0.0014117	0.00029858	0.00016578	629.36	1.3703e-06	1.7213e-06	673.25	224.57	1.1377e-05	3.0097e-06	267.22	124.16	88.686	46.424	4.4649e-06	66.655	0.00035665	0.00035401	9.7719e-05	651.1	3.8472e-06	3.8068e-06	690.82	228.09	3.8495e-06	3.953e-06	272.36	122.83	90.304	46.048	4.5231e-06	65.348	62.217	-18.657	-71.916	-121.142	-69.888	194.588	-121.914	-115.826	-44.212	-107.156	-117.301	-112.904	-112.169	-105.586	-65.003	-108.988	-8191	255	
2210.438	1	1	0	0	0.14883	0.083696	0.087688	0.050231	0.0090162	0.15092	0.13923	0.14592	0.032243	0.093737	0.19537	0.067446	0.23071	0.11529	0.10457	0.17107	-4.7958	-4.0708	-4.7542	-4.9271	-4.1375	-5.1354	-4.5958	-4.4771	-5	-4.2229	-4.6667	-5.0646	-4.1667	-4.9708	-4.625	-4.3	-96.597	-115.177	2.776	117.516	-33.622	182.322	88.465	148.761	27.081	133.540	-64.310	38.226	-31.388	-81.293	0.116	36.330	0.0012487	0.00031107	5.8332e-05	617.8	2.2862e-06	4.4265e-06	661.03	217.57	9.4713e-06	4.2383e-06	259.58	119.34	86.089	45.276	2.6923e-06	65.378	0.00044052	0.00044942	0.00012933	660.45	5.2947e-06	5.3972e-06	698.44	228.57	5.4972e-06	5.5349e-06	275.58	122.38	90.821	45.706	5.5295e-06	65.039	54.343	-49.449	-80.157	-120.585	-40.425	26.294	-121.906	-115.582	36.088	162.140	-117.229	-113.197	-111.790	-105.849	203.731	-108.868	-8191	255	
2210.510	1	1	0	0	0.076683	0.04397	0.19728	0.17211	0.3531	0.14333	0.18061	0.10877	0.12494	0.047407	0.11875	0.037539	0.064971	0.20769	0.34173	0.12389	-4.6333	-4.1188	-4.725	-4.9875	-4.0354	-4.8812	-4.7875	-4.3708	-4.8708	-4.225	-4.4812	-4.9958	-4.1458	-4.8708	-4.5875	-4.2896	30.079	-20.011	153.260	-57.145	-51.727	78.031	171.382	215.356	92.975	95.610	207.234	6.759	-18.084	-112.821	83.024	84.503	0.0012894	0.00015729	0.00024124	614.37	4.8642e-06	3.3873e-06	663.03	217.33	3.3911e-06	1.7679e-06	262.6	121.04	86.972	45.099	4.7281e-06	65.552	0.00050938	0.00051016	0.00014217	664.74	5.5745e-06	5.493e-06	700.06	229.02	5.4755e-06	5.4457e-06	276.84	123.67	91.132	45.61	5.4468e-06	65.124	73.354	199.167	-35.444	-120.972	-75.605	76.755	-121.572	-115.557	139.082	-19.468	-117.380	-112.832	-111.782	-105.725	-78.949	-108.694	-8191	255	
2210.606	1	1	0	0	0.12185	0.075422	0.14449	0.12724	0.13333	0.11823	0.073708	0.10854	0.16151	0.11829	0.20777	0.22046	0.20501	0.25605	0.10181	0.066624	-4.7917	-4.3458	-4.4542	-5.0333	-4.075	-4.7688	-4.8333	-4.0896	-4.9542	-4.5875	-4.3812	-5.0417	-4.125	-5.0042	-4.6875	-4.2083	193.439	96.489	210.202	-118.005	128.363	209.524	81.593	222.668	-8.052	113.834	171.238	160.433	201.186	148.649	-3.335	-86.242	0.0015282	0.00022177	1.4417e-05	618.03	9.1324e-06	2.6696e-06	664.37	219.29	1.2588e-05	5.8238e-06	261.77	121.28	86.963	45.15	5.8701e-06	64.982	0.00050728	0.00050802	0.00013979	666.97	5.4885e-06	5.5017e-06	701.06	229.85	5.5074e-06	5.4518e-06	276.47	123.55	91.221	45.667	5.4356e-06	64.712	64.482	72.640	120.888	-120.980	82.124	-79.922	-121.698	-115.535	-80.498	-13.040	-117.367	-113.108	-111.787	-105.525	19.429	-108.839	-8191	255	
2210.702	1	1	0	0	0.03541	0.15921	0.089856	0.041699	0.24059	0.031374	0.3517	0.033081	0.18184	0.065157	0.083901	0.21049	0.093397	0.14933	0.1285	0.085013	-4.7646	-4.5687	-4.3583	-5.0208	-4.2396	-4.6354	-4.9333	-4.0042	-4.9938	-4.5896	-4.3729	-5.2417	-4.3896	-4.575	-4.8958	-4.2417	176.881	93.887	-10.057	62.609	122.600	148.744	146.371	222.385	-118.541	-110.843	175.666	188.194	106.995	35.362	46.245	-116.179	0.0013777	0.00031882	0.00012776	616.78	5.7607e-06	2.3467e-06	660.15	217.23	5.6147e-06	8.2007e-06	261.22	120.54	87.532	44.969	4.2392e-06	65.166	0.00050098	0.0004931	0.00013868	666.05	5.4416e-06	5.4662e-06	697.34	229.3	5.4862e-06	5.4618e-06	275.24	122.93	91.237	45.563	5.4058e-06	64.579	52.515	14.572	3.780	-121.144	2.723	27.307	-122.112	-115.788	-45.543	-58.787	-117.293	-113.010	-111.957	-105.911	105.639	-108.850	-8191	255	
2210.823	1	1	0	0	0.18119	0.20341	0.062747	0.14239	0.10595	0.090807	0.21496	0.089682	0.20668	0.17648	0.084772	0.21913	0.1695	0.30015	0.08939	0.2246	-4.5771	-4.5167	-4.2854	-4.9583	-4.2438	-4.4938	-5.0167	-4.2021	-5.0104	-4.75	-4.2583	-5.1667	-4.4563	-4.4125	-4.9563	-4.25	17.580	66.407	16.400	48.503	-15.869	221.860	160.073	1.628	167.315	153.663	35.183	131.469	184.442	212.709	76.841	178.699	0.0012187	0.00056675	0.00010692	617.8	4.0277e-06	4.1618e-06	660.65	216.63	7.4128e-06	2.241e-06	260.31	120.56	86.889	45.15	9.3154e-06	65.148	0.00049012	0.0004814	0.00013477	660.99	5.2408e-06	5.2532e-06	692.73	228.09	5.2819e-06	5.2396e-06	273.65	122.65	90.657	45.522	5.2863e-06	64.669	47.531	-69.009	93.373	-120.858	124.805	49.681	-121.838	-115.526	57.954	76.098	-117.216	-113.243	-112.270	-105.713	99.169	-108.851	-8191	255	
2210.917	1	1	0	0	0.17813	0.10399	0.13183	0.19903	0.067472	0.058509	0.17429	0.18615	0.079453	0.11431	0.27845	0.10287	0.11124	0.12979	0.06395	0.20733	-4.6271	-4.6375	-4.0667	-5.0833	-4.1354	-4.4583	-5.2542	-4.425	-4.8708	-4.7	-4.2021	-5.0542	-4.4521	-4.3604	-4.9667	-4.2438	59.557	200.028	127.590	-81.328	-88.436	-42.919	58.566	202.592	-97.216	64.269	-109.741	-99.266	31.960	167.340	100.271	207.646	0.0017595	1.9592e-05	0.00022895	615.98	2.8013e-06	9.4813e-07	659.52	218.61	1.2187e-05	1.6486e-06	260.99	121.43	87.564	45.415	3.8704e-06	65.46	0.00048804	0.00048198	0.000136	662.41	5.2763e-06	5.2908e-06	695.24	228.38	5.2477e-06	5.1912e-06	273.96	123.04	90.853	45.662	5.1186e-06	64.945	57.599	85.318	-35.448	-120.906	-52.615	16.016	-121.789	-115.384	58.312	0.964	-117.105	-113.202	-111.883	-105.670	-49.419	-108.777	-8191	255	
2211.015	1	1	0	0	0.15936	0.088691	0.034879	0.25246	0.17375	0.2421	0.17153	0.17642	0.14297	0.13712	0.25634	0.17448	0.11904	0.26028	0.14707	0.32659	-4.4208	-4.8604	-3.875	-4.9729	-4.4333	-4.2521	-4.8979	-4.1562	-4.5333	-4.8646	-3.9188	-4.875	-4.4979	-4.3875	-4.95	-4.2854	191.884	199.113	117.717	-56.593	-61.906	27.643	205.814	171.852	215.962	205.115	181.117	-94.001	138.808	207.032	-34.307	-132.821	0.0016366	0.00071328	0.00017702	618.17	8.4812e-06	9.6289e-06	661.31	218.06	7.099e-06	6.1701e-06	261.33	122.02	87.537	45.349	7.8452e-06	65.252	0.00047023	0.00045955	0.00012836	658.81	4.9823e-06	4.9944e-06	694.2	226.95	4.9367e-06	4.9347e-06	273.42	123.05	90.464	45.496	4.9642e-06	64.654	53.081	45.544	-48.007	-120.897	108.491	7.013	-121.794	-115.714	45.662	27.630	-117.394	-112.743	-111.573	-105.763	-88.048	-108.667	-8191	255	
2211.109	1	1	0	0	0.23556	0.22656	0.19116	0.12102	0.041501	0.085869	0.27356	0.27339	0.15686	0.016078	0.15104	0.26024	0.23079	0.14926	0.031119	0.065058	-4.2	-4.9833	-4.1146	-4.8938	-4.6125	-4.2271	-5.2125	-4.4875	-4.5104	-4.9521	-4.1667	-4.8917	-4.7479	-4.3438	-4.9354	-4.4354	-117.694	122.191	37.527	184.704	189.422	34.606	205.507	129.012	105.141	-36.235	113.386	219.941	225.170	-85.511	48.441	178.253	0.0013271	0.00061445	0.0002876	618.36	2.9059e-06	1.2667e-06	655.38	216.25	3.7511e-06	4.1409e-06	260.18	120.93	86.62	45.043	6.4621e-06	64.682	0.00045836	0.00045657	0.00012793	657.71	5.0234e-06	5.1209e-06	691.2	226.55	5.1184e-06	5.1744e-06	272.63	122.9	90.804	45.562	5.2825e-06	64.28	68.453	-71.771	-92.335	-121.044	-44.182	164.224	-121.443	-115.715	145.596	-86.175	-117.085	-113.074	-112.028	-105.999	-27.973	-108.889	-8191	255	
2211.205	1	1	0	0	0.19544	0.086906	0.096375	0.24218	0.29205	0.27595	0.12562	0.18752	0.11812	0.22503	0.03362	0.13834	0.11272	0.041249	0.17043	0.096628	-4.0396	-5.0833	-4.0771	-4.8313	-4.7229	-4.1521	-5.0854	-4.5875	-4.3833	-5.0354	-4.3938	-4.7979	-4.8875	-4.2771	-4.7354	-4.5563	223.535	-114.550	-86.043	114.850	153.543	220.386	-126.701	150.627	19.609	-66.295	-34.706	34.314	7.597	51.228	-130.314	-0.844	0.0015458	0.00057848	0.00014707	614.32	5.3508e-06	4.5639e-06	653.77	216.65	4.854e-06	6.7151e-06	257.28	120.13	86.961	44.996	6.3886e-06	64.626	0.00048776	0.00048689	0.00013515	660.24	5.3546e-06	5.3929e-06	689.85	226.9	5.3048e-06	5.3272e-06	270.94	122.47	90.558	45.423	5.1858e-06	64.201	68.443	18.566	-63.191	-120.765	-79.086	70.781	-121.759	-115.730	-24.475	-8.585	-117.218	-113.068	-111.949	-105.675	-14.861	-108.735	-8191	255	
2211.302	1	1	0	0	0.25888	0.11579	0.11176	0.12772	0.31642	0.057381	0.11768	0.11904	0.099389	0.16178	0.18334	0.12761	0.22278	0.017195	0.11879	0.096486	-3.95	-4.9646	-4.25	-4.7562	-4.8125	-4.1583	-5.0521	-4.7354	-4.3333	-5.1312	-4.3708	-4.6312	-5.1292	-4.0958	-4.7937	-4.7646	130.852	-122.345	-128.919	-105.767	-63.857	43.259	5.362	149.413	7.608	-17.435	-37.303	178.338	214.044	220.197	147.461	136.903	0.0013875	0.00057194	6.1602e-05	612.1	3.2338e-06	5.4597e-06	655.92	215.84	5.235e-06	1.4597e-06	256.88	120.97	87.671	45.065	6.1071e-06	65.219	0.00047764	0.00047216	0.00013062	655.93	5.1572e-06	5.2117e-06	690.18	226.27	5.2505e-06	5.2784e-06	271.03	122.94	90.894	45.369	5.1905e-06	64.385	62.883	-78.944	183.930	-120.985	-39.619	-37.829	-121.753	-115.661	203.484	183.539	-117.432	-113.286	-111.442	-105.724	219.721	-108.788	-8191	255	
2211.422	1	1	0	0	0.12518	0.12012	0.093091	0.0841	0.13573	0.13646	0.22168	0.11218	0.10419	0.065148	0.37189	0.11451	0.11905	0.046229	0.25271	0.12396	-3.8854	-5.1	-4.3167	-4.4333	-4.9271	-4.1167	-4.9563	-4.6771	-3.9958	-5.1062	-4.3479	-4.4437	-5.0292	-4.2833	-4.6896	-4.9229	153.054	28.157	-90.963	200.029	45.429	-77.362	203.475	164.348	84.790	110.985	189.330	-104.002	23.543	-122.901	29.132	-49.705	0.0013397	0.00047904	0.0002288	614.63	6.5028e-06	4.0956e-06	659.58	216.87	6.1512e-06	2.7899e-06	261.67	121.09	88.023	44.931	6.088e-06	65.237	0.00047811	0.00047099	0.00012971	656.32	5.091e-06	5.1288e-06	692.36	226.66	5.1408e-06	5.0966e-06	273.38	123.44	91.052	45.341	5.1333e-06	64.591	53.381	42.618	15.844	-120.891	43.107	35.334	-122.095	-115.297	53.023	104.826	-117.130	-113.208	-111.940	-105.951	-11.539	-108.618	-8191	255	
2211.518	1	1	0	0	0.13143	0.2163	0.12709	0.18483	0.11768	0.08414	0.16195	0.19746	0.10793	0.072366	0.12843	0.24554	0.22646	0.14015	0.16365	0.15763	-3.7875	-4.9458	-4.7	-4.3354	-5.0354	-4.1125	-4.8271	-5.0625	-3.9354	-5.0667	-4.5687	-4.3646	-4.9583	-4.2292	-4.4958	-4.9958	223.029	194.037	49.321	146.054	-100.963	-99.837	210.390	160.933	7.365	3.021	-93.554	-120.765	122.751	198.145	177.580	135.842	0.0016351	0.00061412	0.00013598	617.28	1.3236e-06	2.7556e-06	659.28	216.25	1.1227e-05	4.9357e-06	258.81	120.65	87.466	44.745	5.1348e-06	64.504	0.00047967	0.00047116	0.00013018	658.9	5.1634e-06	5.1822e-06	691.76	226.89	5.1592e-06	5.178e-06	272.26	122.95	90.813	45.178	5.1919e-06	64.192	47.322	163.098	-130.361	-121.064	-127.535	10.983	-121.759	-115.240	50.554	116.446	-117.593	-113.045	-112.037	-105.800	156.494	-108.865	-8191	255	
2211.614	1	1	0	0	0.16634	0.18269	0.084529	0.26286	0.11582	0.16905	0.20402	0.093644	0.12345	0.11733	0.14208	0.033972	0.1353	0.16615	0.12626	0.2781	-3.75	-4.8667	-4.6188	-4.1083	-4.9896	-4.1875	-4.7396	-5.0771	-4.0813	-4.8187	-4.7125	-4.2458	-5.0833	-4.2771	-4.4646	-4.9667	122.749	-72.909	-66.134	136.753	191.397	-21.721	221.936	147.804	218.708	107.005	-117.433	148.389	162.020	-100.405	80.631	170.363	0.0014396	8.0655e-05	5.7515e-05	611.19	6.4557e-07	4.5086e-06	654.14	215.44	5.4845e-06	7.3547e-07	257.97	120.16	87.055	45.026	5.0516e-06	64.735	0.00048306	0.00047634	0.00013133	656.97	5.1936e-06	5.1741e-06	688.12	225.71	5.1284e-06	5.0729e-06	269.64	121.81	90.026	45.2	5.0539e-06	64.087	59.469	-45.192	7.609	-120.959	116.989	56.957	-121.989	-115.698	61.797	-70.371	-116.898	-113.109	-112.125	-105.587	-35.932	-108.655	-8191	255	
2211.735	1	1	0	0	0.2158	0.24136	0.015685	0.33686	0.18127	0.19697	0.090022	0.075014	0.23167	0.17034	0.16988	0.19816	0.17413	0.21194	0.32045	0.45292	-3.8688	-4.7646	-4.7188	-4.0396	-5.0687	-4.3417	-4.4833	-4.95	-4.0354	-4.6208	-4.8729	-4.2146	-4.9792	-4.45	-4.1333	-5.2271	-5.737	116.752	194.696	-59.290	2.918	-29.464	111.450	224.376	128.982	71.370	-33.089	97.164	219.104	152.305	-84.644	114.413	0.0010843	0.0006219	0.00012551	608.85	6.6189e-06	4.075e-06	657.04	215.33	7.1507e-06	7.3761e-07	258.56	120.45	86.588	45.001	6.0273e-06	64.77	0.00046495	0.00045676	0.00012697	651.66	5.0321e-06	5.0129e-06	684.6	224.76	5.0544e-06	5.0052e-06	269.65	121.86	89.834	45.146	4.9823e-06	64.059	33.135	-89.498	0.107	-120.923	-58.191	-24.628	-121.869	-115.685	153.191	141.811	-117.184	-112.927	-112.158	-105.812	-22.152	-108.812	-8191	255	
2211.807	1	1	0	0	0.055032	0.1695	0.045472	0.16385	0.12562	0.059183	0.10899	0.10204	0.060942	0.16394	0.02921	0.33874	0.23537	0.043695	0.097763	0.08402	-3.9042	-4.6521	-4.9208	-4.1729	-4.9313	-4.5083	-4.4646	-5.2208	-4.0563	-4.6042	-4.9563	-4.0958	-4.9792	-4.7167	-4.1188	-5.2	94.261	156.273	-13.333	114.307	-55.603	101.238	219.820	110.010	-52.606	37.293	-81.759	-34.414	-129.826	105.591	32.626	182.602	0.0015175	0.00020069	0.00022668	608.94	2.1985e-06	3.2431e-06	654.06	214.72	2.4059e-06	5.3026e-06	258.18	120.63	87.13	44.943	5.0346e-06	64.973	0.00045556	0.00045033	0.00012441	650.33	4.8876e-06	4.8812e-06	685.74	223.95	4.8556e-06	4.839e-06	269.33	122.05	89.616	45.085	4.8676e-06	64.31	72.924	-57.450	-66.035	-120.743	-46.857	33.804	-121.984	-115.650	-72.299	28.160	-117.038	-113.425	-112.095	-105.681	-103.529	-108.885	-8191	255	
2211.903	1	1	0	0	0.14056	0.18723	0.1437	0.23875	0.055344	0.051041	0.013313	0.27325	0.18779	0.19648	0.092228	0.23213	0.13084	0.11839	0.12699	0.25757	-3.9562	-4.5354	-4.9437	-4.0729	-4.7688	-4.7333	-4.2812	-4.9896	-4.2833	-4.4979	-4.9938	-4.2562	-4.8646	-4.8271	-4.0729	-5.1438	27.670	144.201	78.802	178.606	140.304	-52.396	-8.253	121.137	209.921	-1.307	190.159	222.991	101.358	162.795	80.591	217.693	0.0015495	0.00073961	6.6183e-05	610.56	1.5739e-06	2.841e-06	656.52	216.17	2.0484e-06	5.8666e-06	257.75	120.3	86.268	44.864	7.6879e-06	64.285	0.00044458	0.00044097	0.00012124	648.21	4.7995e-06	4.8173e-06	685.56	224.26	4.9083e-06	4.9785e-06	269.75	121.73	89.751	45.108	5.0567e-06	63.916	75.152	10.511	-65.308	-121.129	-38.038	99.145	-122.112	-115.667	-10.787	-33.781	-117.138	-112.937	-112.398	-105.552	-6.165	-108.687	-8191	255	
2211.999	1	1	0	0	0.099354	0.15803	0.092032	0.18309	0.089145	0.1694	0.33216	0.12166	0.060817	0.28117	0.095417	0.29642	0.16742	0.25372	0.11149	0.14553	-4.15	-4.2167	-4.8479	-4.2729	-4.6208	-4.7833	-4.2937	-4.9458	-4.4542	-4.1896	-4.9625	-4.1354	-4.5938	-4.9833	-4.2479	-5.2188	177.731	184.741	137.707	8.263	60.711	-115.938	81.496	162.548	12.048	226.292	150.257	203.082	-121.362	208.314	-100.705	165.635	0.0012959	0.00021764	0.00027166	610.76	7.3176e-06	1.1131e-06	653.05	213.84	4.3767e-06	4.121e-06	255.52	118.61	86.044	44.585	7.6731e-06	64.238	0.00046194	0.00046536	0.00012861	649.74	5.0619e-06	5.056e-06	683.79	224.34	5.0986e-06	5.2053e-06	269.24	121.16	90.082	45.12	5.3554e-06	63.858	67.243	222.185	-37.038	-121.135	-120.566	-12.134	-122.062	-115.509	26.805	-37.162	-117.216	-113.162	-112.056	-105.606	41.212	-108.737	-8191	255	
2212.118	1	1	0	0	0.08728	0.29269	0.13405	0.059683	0.082257	0.12899	0.18268	0.30543	0.16948	0.070979	0.22249	0.10569	0.19852	0.14392	0.11929	0.19379	-4.3313	-4.3479	-5.1083	-4.3604	-4.4729	-4.9875	-4.2542	-5.025	-4.5167	-4.0729	-5.0875	-4.2729	-4.55	-5.05	-4.2667	-5.0188	115.092	-131.969	151.429	75.450	218.879	-65.392	156.667	136.673	-12.405	-60.909	142.357	158.086	-124.478	197.615	87.635	112.403	0.0012408	0.00078103	0.00011843	605.75	3.6539e-06	8.5927e-06	645.43	213.62	7.7848e-06	7.0847e-06	255.47	119.18	86.142	44.637	7.6969e-06	64.118	0.00049446	0.00049242	0.00013696	653.18	5.3764e-06	5.3749e-06	682.99	224.6	5.2904e-06	5.3429e-06	269.13	121.31	89.943	45.068	5.2813e-06	63.798	47.607	-18.137	117.907	-120.948	31.318	-1.294	-121.843	-115.419	-96.347	-51.250	-117.316	-113.110	-112.039	-105.603	-119.271	-108.948	-8191	255	
2212.214	1	1	0	0	0.30469	0.10921	0.12674	0.051285	0.13156	0.18152	0.18043	0.10413	0.30936	0.32786	0.23988	0.042049	0.20276	0.039633	0.11104	0.24487	-4.4104	-4.1854	-5.1562	-4.6062	-4.3833	-5.0417	-4.2562	-4.7146	-4.875	-4.0979	-5.2229	-4.4021	-4.4062	-5.2438	-4.2333	-4.65	-39.370	-15.277	-97.283	134.676	194.605	-84.576	45.173	-128.183	79.269	-6.828	-33.532	121.603	41.311	54.316	48.909	-125.746	0.0015509	0.0004643	0.00037319	612.7	2.9373e-06	1.0573e-05	654.99	214.49	5.3146e-06	5.7403e-06	257.36	119.98	86.64	44.728	1.374e-06	64.902	0.00048394	0.00048337	0.00013488	652.86	5.2975e-06	5.2658e-06	686.74	224.73	5.1312e-06	5.1497e-06	270.76	121.98	89.865	45.013	5.073e-06	64.195	57.732	35.111	-128.158	-121.012	33.961	-8.814	-121.699	-115.778	20.566	82.635	-117.243	-113.251	-112.103	-105.724	30.392	-109.073	-8191	255	
2212.310	1	1	0	0	0.26575	0.071306	0.10526	0.04819	0.10273	0.14487	0.10977	0.19983	0.16172	0.14664	0.16246	0.007483	0.21714	0.09346	0.064832	0.071968	-4.5083	-4.0875	-5.0021	-4.6396	-4.3583	-4.9958	-4.3	-4.6958	-4.7646	-3.9792	-5.05	-4.6042	-4.2521	-5.1917	-4.1271	-4.6292	156.237	-7.714	53.774	6.727	-104.323	190.390	-96.287	142.806	-43.710	-122.182	-131.228	195.403	205.293	27.339	170.926	-71.732	0.00099338	0.00012421	2.4305e-05	613.44	4.8373e-06	7.3768e-06	659.49	215.57	2.516e-06	5.3707e-06	259.17	121.15	87.297	44.783	6.1474e-06	64.701	0.00047007	0.0004711	0.00012998	655.4	5.2164e-06	5.2234e-06	691.47	226.13	5.198e-06	5.2488e-06	272.87	122.52	90.417	45.081	5.163e-06	64.086	68.217	110.747	-91.055	-120.893	-41.590	-40.963	-122.194	-115.624	125.123	-4.383	-117.162	-113.046	-111.642	-105.393	-43.305	-108.728	-8191	255	
2212.382	1	1	0	0	0.22611	0.14661	0.12759	0.01994	0.10692	0.094681	0.29644	0.077006	0.093256	0.13981	0.15463	0.099488	0.092057	0.17396	0.30647	0.29909	-4.6687	-4.0437	-4.8562	-4.5833	-4.0979	-5.1625	-4.425	-4.5563	-4.9271	-4.1937	-4.8875	-4.6792	-4.2604	-5.3125	-4.4396	-4.4062	-91.139	-33.355	88.347	137.991	37.201	112.732	224.107	200.257	44.566	58.255	-66.664	149.535	152.162	190.324	160.234	-108.055	0.0013139	0.00033768	9.646e-05	613.41	4.067e-06	1.3512e-06	658.21	216.41	2.5062e-06	3.1151e-06	256.98	119.29	86.626	44.747	5.7519e-06	64.199	0.00047743	0.00047693	0.00013127	655.14	5.2089e-06	5.1689e-06	688.51	225.98	5.1646e-06	5.1856e-06	270.6	121.91	90.226	45.062	5.2054e-06	63.75	68.549	-65.677	-16.088	-121.158	104.625	20.391	-121.993	-115.562	-69.710	202.040	-117.334	-112.961	-112.157	-105.547	-40.477	-108.819	-8191	255	
2212.503	1	1	0	0	0.28447	0.0614	0.14564	0.11935	0.079479	0.15732	0.14667	0.15886	0.12119	0.019356	0.18056	0.11744	0.15687	0.057456	0.14561	0.18948	-4.6375	-4.0563	-4.7312	-4.7417	-4.0542	-4.9917	-4.5271	-4.3583	-4.9479	-4.2042	-4.7354	-4.8625	-4.1708	-4.9458	-4.3583	-4.3542	166.593	54.688	-99.795	30.462	-89.254	164.799	136.087	-128.307	205.636	15.181	-38.717	102.693	-110.565	173.232	17.203	151.248	0.0011601	0.00049243	0.00031349	609.86	3.9416e-06	5.4704e-06	648.62	214.97	6.0612e-06	4.8744e-06	255.69	119.32	86.218	44.509	3.7705e-06	64.283	0.00047966	0.00047215	0.00013141	652.78	5.1613e-06	5.111e-06	683.03	224.15	5.0538e-06	5.0427e-06	268.33	121.05	89.347	44.762	4.9263e-06	63.518	64.053	52.775	-64.862	-120.990	137.654	106.454	-121.840	-115.661	-67.401	-18.236	-117.289	-113.078	-112.021	-105.690	28.402	-108.844	-8191	255	
2212.599	1	1	0	0	0.13569	0.14009	0.32878	0.19684	0.027154	0.041054	0.14773	0.25221	0.23839	0.12566	0.003743	0.064348	0.039969	0.19522	0.20139	0.081587	-4.6458	-4.1312	-4.5208	-5.0042	-4.0208	-5	-4.6458	-4.2375	-5.0125	-4.175	-4.6333	-4.9417	-3.9688	-4.9	-4.5604	-4.4708	192.655	111.870	-7.322	120.248	-18.940	147.293	129.951	194.954	-56.337	18.587	196.859	163.461	-64.515	224.291	-30.544	-122.915	0.0011038	0.00034837	8.5642e-05	611.56	1.0875e-05	8.5217e-06	656.97	213.15	8.2487e-06	9.1334e-06	255.66	119.99	86.045	44.607	2.432e-06	64.567	0.00045846	0.00044404	0.00012382	649.09	4.8747e-06	4.808e-06	683.46	222.99	4.8804e-06	4.8515e-06	267.58	121.04	89.177	44.781	4.9024e-06	63.766	54.027	-46.930	203.707	-120.778	12.613	6.682	-121.847	-115.638	-115.847	-22.711	-117.071	-113.201	-111.691	-105.899	218.446	-109.040	-8191	255	
2212.695	1	1	0	0	0.21999	0.17819	0.2367	0.18812	0.16811	0.1608	0.14297	0.14562	0.12719	0.14739	0.22355	0.17446	0.12383	0.058574	0.017001	0.22788	-4.7646	-4.3021	-4.3375	-4.9	-4.0521	-4.6854	-4.8688	-4.2521	-5.0292	-4.2979	-4.4938	-5.0104	-4.1292	-4.8083	-4.5375	-4.0687	146.282	-28.768	218.368	28.059	-108.634	-78.667	214.262	151.872	-93.870	-52.717	139.775	166.454	-60.405	-126.740	61.631	141.443	0.0011071	0.00089262	0.0001252	606.84	3.5429e-06	1.5283e-06	656.05	212.77	1.1305e-05	9.4835e-07	257.02	120.15	86.193	44.69	7.4842e-06	64.542	0.00045656	0.00044747	0.00012531	647.93	4.9511e-06	4.8641e-06	685.6	222.73	4.9646e-06	4.8734e-06	268.84	121.51	89.29	44.815	4.9798e-06	63.876	49.868	-31.732	145.520	-121.086	-34.675	40.088	-121.847	-115.658	18.991	-51.209	-117.624	-112.903	-112.197	-105.719	-12.410	-108.727	-8191	255	
2212.815	1	1	0	0	0.1621	0.28021	0.21006	0.12984	0.2233	0.063234	0.12763	0.16927	0.07064	0.13603	0.19171	0.14502	0.30428	0.17033	0.048956	0.2149	-4.7271	-4.4125	-4.15	-5.0396	-4.0625	-4.5979	-4.8125	-4.1771	-4.8771	-4.4708	-4.45	-4.9271	-4.1	-4.7667	-4.8125	-4.2562	33.298	-28.969	-18.201	209.441	144.270	166.954	-92.920	191.663	-10.956	-19.670	3.062	-126.087	39.356	170.452	-111.854	208.821	0.0013006	0.0006011	6.7635e-05	610.49	1.1184e-05	1.5973e-06	651.45	212.65	9.5701e-06	4.4296e-06	256.24	119.17	85.875	44.529	3.7837e-06	64.33	0.00045809	0.00045033	0.00012548	649.59	4.8429e-06	4.8661e-06	681.99	221.87	4.8504e-06	4.8258e-06	267.62	121.03	88.842	44.639	4.8949e-06	63.491	54.593	-6.595	-63.148	-120.814	-34.808	42.451	-121.737	-115.764	129.640	-99.445	-116.810	-113.044	-111.814	-105.666	-46.963	-109.020	-8191	255	
2212.910	1	1	0	0	0.14543	0.3064	0.048768	0.12106	0.090264	0.17976	0.23901	0.16624	0.1534	0.20159	0.1313	0.31024	0.11334	0.11617	0.17039	0.23565	-4.6958	-4.6	-4.2396	-5.0771	-4.3708	-4.5375	-5.1771	-4.1292	-5.0375	-4.6188	-4.2875	-5.1562	-4.3271	-4.5813	-5.0813	-4.2312	70.514	58.892	114.038	-25.037	-119.722	-129.472	167.177	-124.465	156.551	-74.106	73.769	172.398	115.008	-66.037	132.840	-132.668	0.0013925	8.7525e-05	0.00022365	609.13	2.0909e-06	2.4557e-06	650.48	212.74	9.2679e-06	2.677e-06	254.34	119.36	85.35	44.297	9.4485e-06	64.012	0.00045242	0.00044804	0.00012494	648.62	4.8657e-06	4.9474e-06	679.65	221.84	4.9168e-06	4.941e-06	267.66	121.09	88.9	44.693	5.0776e-06	63.384	45.448	183.234	-9.553	-120.676	61.578	-9.958	-122.086	-115.849	77.181	166.156	-117.004	-112.947	-111.876	-105.602	24.518	-108.713	-8191	255	
2213.006	1	1	0	0	0.034218	0.18764	0.14948	0.092788	0.22838	0.27812	0.23458	0.15538	0.18939	0.11498	0.19585	0.33453	0.074136	0.070638	0.066109	0.10421	-4.5333	-4.6229	-4.2042	-5.2292	-4.4812	-4.2604	-5.2167	-4.2375	-4.6458	-4.6813	-4.4292	-5.1042	-4.3688	-4.4313	-4.9771	-4.3333	190.216	-108.301	141.460	-125.701	117.120	-56.504	191.821	202.506	-82.252	220.566	132.820	153.537	-86.541	-120.608	87.007	199.000	0.0011651	8.8924e-05	0.00011757	605.65	6.7788e-06	3.0879e-06	648.12	211.95	6.4366e-06	2.8181e-07	253.62	119.66	85.682	44.543	4.9456e-06	64.154	0.0004727	0.00047454	0.00013275	651.2	5.16e-06	5.2093e-06	683.84	222.56	5.2123e-06	5.2334e-06	268.39	121.58	89.576	44.955	5.3667e-06	63.847	72.285	159.984	-60.484	-120.910	5.861	17.619	-121.775	-115.786	149.982	-106.052	-117.012	-113.335	-112.053	-105.605	-101.984	-108.789	-8191	255	
2213.104	1	1	0	0	0.029682	0.20907	0.30837	0.19682	0.13748	0.24056	0.20945	0.10132	0.28875	0.072319	0.11656	0.24997	0.01651	0.18756	0.15643	0.2362	-4.3021	-4.8208	-3.9583	-5.0979	-4.5083	-4.3708	-5.1458	-4.1375	-4.5271	-4.8958	-4.0875	-4.9729	-4.6312	-4.3417	-5.1479	-4.1708	-90.014	132.969	74.508	67.463	71.372	8.096	-71.165	-103.262	85.383	203.399	199.848	-131.577	81.313	178.720	-1.726	156.910	0.0013974	0.00038554	9.3592e-05	607.16	2.8669e-06	5.1267e-06	653.19	212.14	6.788e-06	5.4854e-06	256.2	120.7	86.216	44.64	7.8706e-06	64.624	0.00050045	0.00049861	0.00014004	657.78	5.5082e-06	5.5258e-06	690	224.57	5.4196e-06	5.3698e-06	270.83	122.49	89.99	44.937	5.1862e-06	64.203	54.214	22.309	-62.010	-121.156	131.254	173.599	-121.784	-115.658	28.896	23.133	-117.222	-112.980	-111.829	-105.693	21.951	-108.746	-8191	255	
2213.198	1	1	0	0	0.19867	0.06111	0.064846	0.17045	0.1965	0.30369	0.17099	0.13274	0.10243	0.26107	0.32708	0.019679	0.14916	0.14421	0.17453	0.14494	-4.3438	-4.8833	-4.0437	-4.8583	-4.6729	-4.2021	-5.1562	-4.2812	-4.1708	-4.8583	-4.1813	-4.8375	-4.8583	-4.1354	-4.8458	-4.4354	-86.942	75.548	-60.037	170.988	73.336	135.676	152.080	136.227	226.475	138.073	163.103	95.286	199.675	-46.331	-41.494	-95.562	0.00085324	0.00037825	0.00018255	605.68	3.8923e-06	7.0062e-06	656.97	215.37	2.3888e-06	1.2758e-06	258.75	120.41	86.651	44.702	1.3504e-06	64.54	0.00047304	0.00046214	0.00012798	651.27	4.9202e-06	4.9274e-06	689.11	224.08	4.9417e-06	4.9515e-06	270.61	122.37	89.932	44.891	5.0221e-06	63.979	68.442	-55.564	-11.615	-120.854	-29.677	-8.123	-121.459	-115.469	58.838	205.732	-117.257	-113.259	-112.035	-105.629	64.201	-108.609	-8191	255	
2213.294	1	1	0	0	0.057262	0.20751	0.076753	0.19335	0.22391	0.1268	0.20865	0.060516	0.04809	0.13817	0.050324	0.12686	0.3879	0.06949	0.083356	0.072186	-3.9708	-4.9208	-4.0625	-4.8208	-4.7688	-4.1271	-5.1854	-4.4125	-4.4083	-4.9208	-4.1979	-4.7354	-4.9042	-4.0792	-4.9729	-4.5229	-70.074	6.399	-118.996	-64.561	193.038	110.692	126.120	166.578	-15.566	11.898	139.922	-123.971	201.205	29.791	214.844	164.509	0.0013851	0.00067648	0.00028134	611.11	5.2555e-06	4.0293e-06	649.31	214.61	9.0758e-06	1.4371e-06	255.98	119.93	85.674	44.23	4.0615e-06	63.86	0.00047601	0.00047483	0.000132	655.74	5.3042e-06	5.381e-06	688.27	225.77	5.4464e-06	5.4475e-06	271.5	122.14	89.966	44.903	5.2985e-06	63.66	65.220	-23.127	-89.932	-120.991	-58.410	38.338	-122.012	-115.745	-10.006	196.972	-117.308	-112.936	-111.791	-105.816	27.301	-108.798	-8191	255	
2213.415	1	1	0	0	0.14595	0.025755	0.0018717	0.099507	0.18494	0.29317	0.24457	0.22021	0.18828	0.056544	0.12792	0.19599	0.27787	0.14588	0.061461	0.24773	-4.0375	-5.0604	-4.0813	-4.6979	-5.0042	-4.025	-5.0667	-4.6167	-4.2063	-4.9042	-4.2229	-4.5146	-4.9042	-4.2625	-4.9229	-4.7083	57.796	211.097	180.000	213.220	2.875	-70.205	206.616	39.347	151.745	-118.491	-81.507	-25.171	160.049	37.152	90.289	-120.815	0.0011723	0.00025089	1.7864e-05	608.82	6.0157e-06	3.7874e-06	652.59	214.03	4.2166e-06	3.5373e-06	255.73	118.84	85.519	44.72	3.2782e-06	64.478	0.00048845	0.00047659	0.00013148	652.15	5.1553e-06	5.1084e-06	683.52	223.43	5.0686e-06	5.0176e-06	268.28	120.99	89.116	44.894	4.9703e-06	63.822	55.813	116.870	-95.454	-121.398	-21.422	20.316	-121.875	-115.276	136.984	-54.377	-117.152	-113.269	-111.965	-105.626	-114.427	-108.609	-8191	255	
2213.511	1	1	0	0	0.14353	0.03483	0.10864	0.19592	0.034147	0.13401	0.10469	0.1591	0.25864	0.19438	0.040929	0.24348	0.22529	0.29681	0.14829	0.067573	-3.9729	-5.0042	-4.1917	-4.3917	-4.9354	-4.0833	-4.8979	-4.75	-4.0771	-5.0354	-4.3375	-4.4604	-5.0104	-4.1333	-4.7354	-4.7646	172.196	138.394	167.888	-127.706	93.136	88.028	117.920	-114.360	-125.857	156.985	-87.459	215.219	-52.685	-98.074	-61.705	150.535	0.0010398	0.00037271	0.00014579	611.1	3.0142e-06	7.9247e-06	656.19	214.52	8.4264e-06	7.4375e-06	258.85	120.03	86.271	44.729	4.6942e-06	64.962	0.0004611	0.00045281	0.00012525	650.36	4.9529e-06	4.9312e-06	685.96	224.07	4.986e-06	4.9301e-06	270.23	121.56	89.525	44.88	4.9233e-06	64.218	48.021	6.945	3.850	-121.126	111.337	-4.372	-121.573	-115.546	-117.398	46.668	-117.172	-113.066	-111.845	-105.795	-78.016	-108.500	-8191	255	
2213.607	1	1	0	0	0.1448	0.080911	0.19406	0.19923	0.06482	0.077918	0.1737	0.14267	0.13145	0.10269	0.13807	0.23173	0.16817	0.11674	0.19622	0.15325	-3.8875	-5.1292	-4.3854	-4.4083	-4.9833	-4.125	-4.7438	-4.9479	-4.2417	-5.0542	-4.6562	-4.3854	-5.1188	-4.3646	-4.5792	-4.9146	102.202	-26.521	72.556	194.793	-87.428	154.424	-31.773	162.103	164.846	-69.827	-58.736	112.621	161.490	-96.767	199.689	220.181	0.0014039	0.00061221	0.00017118	616.98	9.2636e-06	6.5076e-06	659.41	216.06	7.5744e-06	6.0489e-06	259.95	120.71	86.189	44.708	8.2524e-06	64.763	0.0004559	0.00045053	0.00012562	652.55	4.9289e-06	4.9417e-06	691.11	225.17	5.0087e-06	4.9408e-06	272.54	122.36	89.662	45.062	5.0084e-06	64.276	55.935	-51.282	-1.158	-120.975	-43.934	-97.619	-121.601	-115.490	-29.434	-5.031	-116.947	-113.137	-111.794	-105.708	-5.902	-108.869	-8191	255	
2213.679	1	1	0	0	0.13146	0.16553	0.04471	0.023171	0.14116	0.077409	0.082062	0.077688	0.12501	0.17076	0.11934	0.1194	0.24322	0.10058	0.094495	0.22255	-3.8563	-4.8708	-4.5958	-4.3604	-5.0479	-4.3938	-4.65	-5.0042	-3.9521	-4.9521	-4.7312	-4.2917	-5.0146	-4.4479	-4.4646	-5.0292	-28.612	-24.283	-7.096	52.137	-53.322	-52.386	-99.184	78.994	146.623	-51.732	70.374	189.127	-72.133	203.214	69.106	117.318	0.0012195	0.0002833	0.00017398	611.01	6.4889e-06	7.4496e-07	654.95	216.27	1.1727e-05	9.8869e-06	259.72	120.36	86.365	44.53	1.5838e-06	64.458	0.00046073	0.00045681	0.00012726	652.77	4.9889e-06	4.9751e-06	687.3	225.18	5.0081e-06	4.9773e-06	271.6	121.94	89.548	44.892	5.0915e-06	64.004	69.748	14.129	-69.537	-120.753	-50.110	216.379	-121.742	-115.643	-21.439	-34.166	-116.949	-113.242	-112.036	-105.629	188.646	-108.701	-8191	255	
2213.800	1	1	0	0	0.092686	0.16129	0.042352	0.075536	0.19358	0.11617	0.11811	0.16421	0.15335	0.055651	0.29633	0.21172	0.23291	0.075398	0.30055	0.16164	-3.8312	-4.7375	-4.6792	-4.2562	-4.9667	-4.3125	-4.4604	-5.125	-4.1292	-4.6958	-4.875	-4.1937	-4.9583	-4.5542	-4.2771	-5.1021	29.671	-46.873	-19.470	178.720	-128.420	36.447	-110.140	168.572	88.863	204.724	170.608	-126.791	-30.068	164.025	-25.815	129.426	0.0013492	0.00039831	0.00015639	608.49	1.1634e-05	2.5466e-06	652.2	214.19	1.1249e-05	7.6324e-06	258.8	119.78	85.685	44.667	7.2108e-06	64.77	0.00046336	0.00046225	0.00012888	650.57	4.985e-06	5.0079e-06	684.9	223.96	4.9404e-06	4.922e-06	269.1	121.35	88.866	44.799	4.9095e-06	63.925	67.806	-59.072	27.560	-121.191	24.892	175.491	-121.750	-115.367	15.177	35.530	-117.154	-112.988	-112.159	-105.664	-24.621	-109.061	-8191	255	
2213.896	1	1	0	0	0.23564	0.28213	0.20201	0.11595	0.080058	0.086192	0.069988	0.15374	0.14534	0.28763	0.097472	0.22748	0.087295	0.080981	0.26657	0.063147	-3.7792	-4.6417	-4.7667	-4.4062	-4.9	-4.3958	-4.3896	-5.1438	-4.05	-4.6729	-5.0375	-4.3208	-4.8917	-4.7625	-4.1354	-5.1208	-4.711	-84.265	193.731	123.780	95.775	93.395	87.676	104.086	76.832	-125.235	138.669	165.171	31.075	-28.790	44.721	-130.525	0.001266	0.00051374	5.4437e-05	602.26	4.0143e-06	2.5557e-06	653.9	214.97	3.1256e-06	1.527e-06	259.07	119.49	85.795	44.576	1.1227e-06	65.264	0.00044759	0.0004484	0.00012456	647.11	4.8825e-06	4.9331e-06	684.67	223.62	4.9154e-06	4.9128e-06	269.51	121.5	89.142	44.755	4.9464e-06	64.158	46.364	53.607	153.425	-120.925	30.299	-27.049	-121.778	-115.667	221.533	210.611	-116.965	-112.778	-111.987	-105.678	-36.424	-108.789	-8191	255	
2213.992	1	1	0	0	0.13883	0.048003	0.013742	0.21106	0.2022	0.036977	0.12698	0.05497	0.012846	0.056321	0.22409	0.13575	0.20549	0.057611	0.089903	0.14149	-4.0208	-4.5479	-4.9958	-4.0646	-4.9396	-4.7063	-4.2854	-5.1604	-4.2521	-4.2917	-5.0708	-4.2479	-4.7479	-4.7396	-4.0625	-5.0375	123.722	-88.432	114.278	221.973	-22.732	-127.286	-92.221	75.123	142.164	166.250	-75.067	125.388	-73.642	-41.122	216.737	208.624	0.0012612	0.00017414	0.00017896	607.74	2.064e-06	4.3356e-06	657.85	215.6	7.3107e-06	1.8239e-06	258.13	121.14	86.499	44.573	7.1282e-06	64.862	0.00045048	0.0004507	0.00012447	647.64	4.8739e-06	4.888e-06	686.72	223.87	4.8959e-06	4.9193e-06	270.5	122.32	89.674	44.779	4.9603e-06	64.168	66.332	-13.282	17.163	-121.339	-94.285	-37.486	-121.875	-115.493	18.237	-88.246	-117.412	-113.205	-112.009	-105.676	-38.392	-108.541	-8191	255	
2214.086	1	1	0	0	0.059464	0.077321	0.16099	0.02448	0.23281	0.048226	0.12597	0.065129	0.24814	0.22251	0.053844	0.21239	0.15127	0.3785	0.20309	0.092216	-4.15	-4.4125	-4.9729	-4.1021	-4.8271	-4.7854	-4.3792	-5.1937	-4.4458	-4.3667	-5.1687	-4.3042	-4.6125	-4.8792	-4.0437	-5.0417	126.591	-61.932	181.117	-103.356	4.346	31.062	52.752	178.592	24.004	212.646	152.842	-113.518	-131.572	-120.788	-62.748	102.236	0.0013645	0.0004579	0.00030777	611.8	4.4343e-06	6.0454e-06	656.31	214.21	8.8317e-06	5.2931e-06	257.25	119.63	86.254	44.462	1.1586e-06	63.958	0.00045892	0.00045595	0.00012689	650.52	4.9922e-06	4.989e-06	687.52	223.61	5.0479e-06	5.0202e-06	269.26	121.58	89.517	44.603	5.0091e-06	63.598	78.024	-55.537	-60.166	-121.216	-72.084	125.395	-121.851	-115.196	-10.204	-10.282	-117.294	-113.188	-112.023	-105.516	159.447	-108.429	-8191	255	
2214.184	1	1	0	0	0.23835	0.13477	0.069358	0.19598	0.23813	0.071037	0.075354	0.20787	0.23173	0.27408	0.15898	0.037889	0.11182	0.16695	0.041382	0.080079	-4.1167	-4.0729	-4.9812	-4.0938	-4.5938	-4.8583	-4.0771	-4.9062	-4.5208	-4.1333	-5.0458	-4.2875	-4.3396	-4.8708	-3.8646	-4.8167	-28.592	187.132	73.909	-15.119	-113.422	-56.457	149.038	-69.993	-4.128	-90.420	-64.037	138.988	200.152	203.665	186.796	91.731	0.0013648	0.00039564	3.9151e-05	611.97	9.5928e-06	5.2483e-06	653.59	212.7	9.2739e-06	2.4726e-06	255.68	120.1	86.127	44.348	8.1076e-06	64.498	0.00045456	0.00045059	0.00012514	648.56	4.9291e-06	4.8664e-06	682.59	222.29	4.8514e-06	4.8929e-06	267.74	121.31	89.175	44.581	4.8802e-06	63.781	67.084	44.432	-36.027	-121.133	-29.142	72.733	-122.009	-115.401	3.275	-18.379	-117.278	-113.139	-112.045	-105.556	-63.334	-108.930	-8191	255	
2214.279	1	1	0	0	0.018618	0.10088	0.37557	0.097032	0.20426	0.055755	0.17006	0.30869	0.089974	0.085784	0.12778	0.24257	0.15278	0.16912	0.197	0.048088	-4.2625	-4.1312	-5.1229	-4.2188	-4.3125	-4.8083	-4.1333	-4.6979	-4.7042	-3.9708	-5.0167	-4.3792	-4.3667	-5.1417	-4.0521	-4.8417	166.350	138.946	33.560	61.845	-49.485	23.707	-118.452	225.756	-45.297	225.993	215.659	213.273	11.664	213.328	180.250	-111.113	0.0013497	0.00059215	0.00017295	608.33	6.5673e-06	4.0887e-06	650.59	214.25	8.8125e-06	5.4378e-06	258.08	119.87	85.45	44.389	1.2089e-06	64.62	0.00045642	0.00045784	0.00012665	648.01	5.0621e-06	5.054e-06	683.85	223.75	5.1433e-06	5.1871e-06	270.35	121.89	89.546	44.781	5.1614e-06	64.032	67.016	-74.307	-89.096	-120.923	-50.479	63.507	-122.058	-115.466	9.911	83.187	-117.351	-112.928	-112.267	-105.443	-30.953	-108.546	-8191	255	
2214.375	1	1	0	0	0.16336	0.17463	0.15805	0.10495	0.23415	0.21014	0.078197	0.14853	0.075543	0.12751	0.026782	0.12994	0.13879	0.13077	0.16639	0.19648	-4.5042	-4.1292	-4.9479	-4.35	-4.1271	-5.0479	-4.0396	-4.6813	-4.7562	-4.1083	-4.8729	-4.7438	-4.25	-5.0104	-4.1667	-4.6417	-2.352	-2.510	102.783	-106.173	-55.404	56.138	145.058	197.908	37.793	-38.028	200.948	67.054	-9.811	205.809	181.712	191.241	0.0010635	0.00027271	8.3842e-05	607.78	3.9324e-06	3.7359e-06	652.95	213.84	8.8912e-06	4.3276e-06	259.98	120.95	86.19	44.513	5.8913e-06	65.262	0.00047754	0.00047206	0.00013075	651.55	5.1575e-06	5.1453e-06	688.19	224.76	5.1146e-06	5.0669e-06	272.55	122.66	89.838	44.953	4.8984e-06	64.605	54.507	57.805	-43.271	-120.989	-92.552	-41.926	-122.161	-115.448	-24.357	76.813	-116.826	-113.094	-112.098	-105.484	-57.825	-108.728	-8191	255	
2214.495	1	1	0	0	0.050417	0.090104	0.11792	0.29079	0.30221	0.14816	0.18793	0.29283	0.092227	0.11357	0.14278	0.055218	0.22098	0.19717	0.16702	0.0808	-4.5167	-4.0792	-4.7688	-4.6708	-4.1896	-5.0479	-4.4229	-4.575	-4.8104	-4.1062	-4.9625	-4.8167	-4.1375	-5.15	-4.4375	-4.6792	220.326	-84.508	37.122	120.099	158.779	-51.792	159.181	-94.398	205.866	70.588	180.434	-71.753	178.646	171.598	152.962	-2.463	0.0014971	0.00027741	0.00025522	615.19	1.0236e-05	3.9081e-06	663.13	217.48	7.221e-06	5.2897e-06	263.28	122.13	86.554	44.689	5.0345e-06	65.055	0.00044772	0.00044107	0.00012265	649.97	4.8171e-06	4.8412e-06	692.46	225.97	4.9363e-06	4.9897e-06	274.96	123.27	90.239	45.145	5.0431e-06	64.56	68.767	-81.520	-68.279	-120.820	-84.955	78.081	-121.659	-115.600	-17.434	30.691	-117.112	-113.161	-111.996	-105.998	8.673	-108.672	-8191	255	
2214.592	1	1	0	0	0.094615	0.14487	0.15836	0.070729	0.2398	0.16318	0.13666	0.10093	0.11328	0.16012	0.086853	0.046102	0.064579	0.12762	0.24526	0.14907	-4.7438	-3.925	-4.7854	-4.7771	-4.1271	-5.0188	-4.4958	-4.5458	-4.9417	-4.1271	-4.9021	-4.7771	-4.1604	-5.1333	-4.4083	-4.3542	-35.647	10.873	-42.493	151.026	-31.092	206.615	137.064	-115.464	-32.102	0.278	-93.483	77.518	156.897	225.274	-26.243	80.839	0.0014625	0.00078698	0.00021829	613.23	2.825e-06	3.5924e-06	659.33	216.49	3.0973e-06	4.7635e-06	261.13	121.49	86.659	44.982	5.6356e-06	64.984	0.00046556	0.00046309	0.00012838	653.75	5.053e-06	5.0123e-06	689.07	226.2	5.0122e-06	5.0391e-06	273.48	123.21	90.137	45.168	4.972e-06	64.344	54.846	-12.489	-12.215	-120.748	221.904	15.414	-121.688	-115.594	54.932	45.195	-117.302	-113.191	-112.200	-105.439	0.009	-108.791	-8191	255	
2214.688	1	1	0	0	0.17514	0.091896	0.19916	0.086802	0.082134	0.29102	0.28449	0.15809	0.079698	0.14511	0.23642	0.25194	0.18595	0.26345	0.0092728	0.1159	-4.6438	-4.0729	-4.5958	-4.9417	-4.1188	-4.9563	-4.6625	-4.3792	-5.0667	-4.1958	-4.6875	-4.875	-4.1021	-4.9771	-4.5646	-4.4437	38.241	-130.782	-59.022	106.052	34.979	154.494	78.392	223.208	197.576	-38.413	133.506	220.366	103.373	-97.168	193.458	167.471	0.001216	0.00025035	0.00019429	606.37	4.2506e-06	3.1792e-06	653.49	216.29	4.2758e-06	7.0289e-06	259.38	121.18	86.731	45.046	2.9968e-06	65.485	0.00045083	0.00044474	0.00012288	646.89	4.756e-06	4.7219e-06	684.06	224.79	4.7715e-06	4.7848e-06	270.69	122.59	89.487	45.055	4.8101e-06	64.544	48.448	-38.521	-69.202	-121.317	33.570	-0.346	-122.043	-115.344	-38.436	35.163	-117.390	-112.876	-112.459	-105.930	223.219	-109.062	-8191	255	
2214.784	1	1	0	0	0.072454	0.19474	0.15142	0.17338	0.045891	0.35829	0.17435	0.14103	0.18863	0.24585	0.1978	0.21808	0.16486	0.35457	0.068348	0.29767	-4.7063	-4.3417	-4.3708	-4.9792	-3.95	-4.8354	-4.7083	-4.0979	-4.9021	-4.4271	-4.4437	-4.9833	-4.0458	-4.9792	-4.6438	-4.2875	107.858	82.553	163.865	-70.557	-128.601	-89.977	162.845	-91.948	-43.317	85.470	-55.099	184.683	178.065	-105.180	151.504	163.463	0.001414	0.00035493	0.00015663	610.58	5.9279e-06	3.7138e-06	654.24	216.36	7.2379e-06	2.3595e-06	261.7	123.67	88.012	45.455	3.7801e-06	66.475	0.00044005	0.00043696	0.00012143	646.26	4.7302e-06	4.7523e-06	683.63	224.69	4.7064e-06	4.6881e-06	271.68	123.73	90.171	45.505	4.5757e-06	65.36	54.960	-102.994	-53.039	-120.944	-55.614	-13.211	-121.608	-115.652	-79.941	-33.243	-117.411	-113.300	-112.223	-105.641	-93.822	-108.876	-8191	255	
2214.905	1	1	0	0	0.11281	0.13919	0.090527	0.29486	0.19446	0.034753	0.26198	0.061916	0.079154	0.23139	0.48934	0.03955	0.18637	0.16412	0.11493	0.10795	-4.5813	-4.2521	-4.2021	-4.9729	-4.0479	-4.4854	-5.0146	-4.0583	-5.1687	-4.4667	-4.3729	-4.9812	-4.0896	-4.8187	-4.8229	-4.1021	-80.255	-106.104	-13.678	-107.296	137.112	-91.768	167.772	-58.155	-27.247	157.816	201.522	-114.931	76.470	-119.893	177.346	225.882	0.0014146	0.00047691	0.0002451	615.32	5.5384e-06	4.0657e-06	663.42	218.59	6.6791e-06	5.9836e-06	264.33	125.32	88.995	46.331	4.4387e-06	67.197	0.00042206	0.00041577	0.00011516	646.59	4.4631e-06	4.4804e-06	687.11	226.2	4.4912e-06	4.4538e-06	273.92	125.15	91.087	46.047	4.4774e-06	65.801	66.305	122.172	-95.140	-121.163	-35.214	-117.738	-121.974	-115.817	-16.849	0.094	-117.132	-113.098	-112.292	-105.812	-74.453	-108.995	-8191	255	
2214.976	1	1	0	0	0.13624	0.089395	0.11103	0.22638	0.19221	0.30435	0.25842	0.18645	0.33817	0.091532	0.05178	0.11768	0.17313	0.063481	0.20233	0.11884	-4.6833	-4.3833	-4.2208	-5.0687	-4.2167	-4.5646	-4.9292	-4.1083	-4.7854	-4.4729	-4.1833	-5.0917	-4.3688	-4.6062	-4.9771	-4.0687	129.490	84.530	3.981	208.660	108.422	41.188	208.053	-38.478	7.671	138.821	-10.200	-26.993	212.433	225.062	205.575	183.920	0.0014869	0.00028875	0.00010747	618.14	5.805e-06	5.9426e-06	662.73	220.23	9.8127e-06	5.4189e-06	267.12	124.31	89.656	46.261	2.485e-06	67.053	0.00041579	0.00040831	0.00011416	648.58	4.4273e-06	4.46e-06	686.89	226.85	4.4342e-06	4.3902e-06	273.55	124.69	91.496	46.028	4.3466e-06	65.593	63.800	48.699	-18.788	-121.262	93.372	-12.102	-121.549	-115.586	-103.949	35.611	-117.053	-113.190	-112.121	-105.889	14.959	-108.799	-8191	255	
2215.095	1	1	0	0	0.18351	0.1614	0.16711	0.1444	0.21449	0.10847	0.091531	0.26523	0.073025	0.081614	0.088392	0.14936	0.12711	0.15209	0.088942	0.21959	-4.5708	-4.6604	-4.1958	-5.0042	-4.3896	-4.4396	-5.0833	-4.1937	-4.6562	-4.7562	-4.2021	-5.0979	-4.4875	-4.4125	-4.9583	-4.3542	-17.614	33.939	8.217	37.320	24.008	-120.467	190.824	149.856	52.909	108.936	147.788	124.259	-45.939	-120.252	211.333	152.506	0.0014116	0.00037811	0.00012781	616.54	8.1092e-06	1.6672e-06	660.75	219.55	1.1999e-05	2.1653e-06	262.64	124.66	89.711	46.015	4.5598e-06	67.2	0.00040231	0.00039292	0.00010845	645.19	4.2611e-06	4.2565e-06	683.28	225.47	4.2745e-06	4.2477e-06	270.82	124.51	90.954	45.782	4.2975e-06	65.637	54.471	-71.689	-44.703	-120.987	-1.546	65.563	-121.846	-115.648	38.343	-25.398	-117.441	-113.396	-112.153	-106.185	17.206	-108.741	-8191	255	
2215.191	1	1	0	0	0.099114	0.12886	0.081986	0.067485	0.12217	0.2063	0.09466	0.2322	0.21866	0.12779	0.34735	0.093799	0.29043	0.19299	0.15288	0.092069	-4.4083	-4.8125	-4.1396	-5.0479	-4.5458	-4.2417	-5.0208	-4.1896	-4.5938	-4.8833	-4.1062	-4.9729	-4.5417	-4.3354	-4.9917	-4.3625	-112.304	-116.487	211.410	58.365	50.263	7.532	-55.154	205.789	149.618	211.771	70.250	190.268	187.818	224.844	-125.091	95.589	0.0014262	0.00057633	0.0001936	615.4	2.1968e-06	6.2402e-06	664.19	219.1	1.0902e-05	4.4217e-06	265.88	124.71	89.679	46.239	1.7855e-06	67.123	0.00040683	0.00039793	0.00011093	647.01	4.3825e-06	4.4209e-06	686.33	225.65	4.3966e-06	4.3787e-06	272.24	125.06	91.137	45.836	4.2791e-06	65.619	67.252	-42.887	-89.334	-121.084	65.132	11.921	-121.956	-115.483	29.222	31.067	-117.345	-113.229	-111.979	-105.759	-61.175	-109.051	-8191	255	
2215.287	1	1	0	0	0.078207	0.087191	0.26256	0.080446	0.17962	0.034316	0.13587	0.15777	0.33448	0.15963	0.089416	0.11441	0.11532	0.16942	0.10087	0.042745	-4.1021	-4.9521	-4.0104	-4.8063	-4.6687	-4.225	-5.1646	-4.2583	-4.2979	-4.8729	-4.0646	-4.8792	-4.6292	-4.1208	-4.9979	-4.5083	204.592	167.899	94.625	120.974	16.041	100.802	210.372	153.769	102.471	-124.810	169.520	201.899	-41.914	-41.212	-54.085	17.164	0.0017293	0.00042157	0.00019984	622.4	3.5291e-06	6.4921e-06	667.33	220.21	6.3405e-06	2.3513e-06	267.41	126.16	89.82	46.237	3.2234e-06	67.369	0.00039801	0.00038862	0.00010726	649.51	4.2436e-06	4.273e-06	689.68	226.04	4.2798e-06	4.2387e-06	274.32	125.81	91.384	45.902	4.2253e-06	66.029	68.330	33.106	-58.643	-121.005	37.308	13.541	-121.851	-115.716	-61.363	-57.612	-117.246	-113.228	-112.296	-105.785	68.386	-108.847	-8191	255	
2215.384	1	1	0	0	0.12855	0.10685	0.10023	0.12304	0.10725	0.13031	0.26594	0.4359	0.098787	0.15642	0.07336	0.25599	0.13695	0.22713	0.062952	0.1717	-4.1854	-5.0083	-4.0333	-4.7438	-4.7812	-4.2104	-5.0792	-4.5625	-4.4833	-4.9583	-4.1146	-4.7354	-4.8896	-4.2625	-4.9021	-4.675	-91.786	126.737	-100.738	63.907	103.749	-60.347	109.364	153.324	-104.649	67.694	-103.223	187.692	191.570	-83.910	52.547	224.597	0.0015822	0.00014679	0.00019851	620.33	1.8235e-06	5.4025e-06	671.69	221.2	4.3039e-06	4.8603e-06	267.87	126.19	89.521	45.917	6.4479e-06	66.802	0.00039509	0.00038796	0.0001091	650.8	4.2732e-06	4.2747e-06	693.45	226.97	4.3483e-06	4.3022e-06	273.46	125.58	91.256	45.741	4.3446e-06	65.451	67.466	-19.200	-9.631	-120.958	-25.727	-13.523	-121.836	-115.740	152.650	115.886	-116.876	-113.051	-112.123	-106.072	206.963	-108.814	-8191	255	
2215.504	1	1	0	0	0.12439	0.21554	0.22023	0.14544	0.13457	0.059162	0.21248	0.15683	0.12935	0.22183	0.097311	0.1419	0.078728	0.10617	0.10595	0.11953	-3.7917	-4.8562	-4.1708	-4.5396	-4.8271	-4.2625	-5.0833	-4.5333	-4.2104	-5.0813	-4.1104	-4.4917	-4.9625	-4.0979	-4.7292	-4.7396	187.126	-86.079	60.457	215.048	-19.812	63.244	120.385	75.645	44.857	19.074	-60.683	179.302	-31.689	29.722	102.980	167.399	0.0012789	0.00070542	0.00019269	619.93	5.0866e-06	3.618e-06	666.65	219.19	1.3641e-05	4.2344e-06	263.97	125.07	89.825	46.025	1.9875e-06	66.815	0.00040597	0.00039372	0.0001104	650.97	4.3466e-06	4.3723e-06	690.08	226.13	4.3421e-06	4.3657e-06	271.99	124.71	90.951	45.708	4.3179e-06	65.23	60.322	38.069	5.936	-121.040	-21.748	25.069	-121.668	-115.646	-8.708	61.896	-117.036	-113.188	-112.156	-105.736	115.825	-108.794	-8191	255	
2215.576	1	1	0	0	0.12931	0.14843	0.17998	0.27249	0.2634	0.11632	0.07225	0.12413	0.049981	0.16735	0.11796	0.084347	0.19062	0.27096	0.073247	0.26042	-3.7646	-4.9604	-4.2812	-4.5396	-4.9437	-4.0146	-4.9167	-4.7771	-4.05	-5.1125	-4.2604	-4.4625	-4.9917	-4.1479	-4.65	-4.9104	119.819	185.704	175.389	211.049	136.722	73.060	136.274	119.513	-133.065	-18.811	173.164	222.846	180.612	-104.695	-85.152	-125.524	0.0012902	0.00025397	0.00023972	618.3	4.1124e-06	3.1605e-06	661.79	218.73	7.4669e-06	3.3768e-06	265.15	124.5	88.592	45.761	9.7202e-06	66.729	0.00039874	0.00039417	0.00011045	649.15	4.3398e-06	4.354e-06	688.48	225.09	4.3612e-06	4.3276e-06	271.36	124.49	90.512	45.369	4.271e-06	65.296	59.272	-79.081	25.414	-121.073	50.711	93.426	-121.802	-115.660	1.692	66.166	-117.543	-113.204	-112.364	-105.814	-2.273	-108.790	-8191	255	
2215.672	1	1	0	0	0.18759	0.13826	0.12427	0.26586	0.26426	0.21526	0.19137	0.23161	0.20044	0.20554	0.18821	0.11854	0.020586	0.17933	0.17377	0.10962	-3.7812	-4.9938	-4.5396	-4.4958	-4.9833	-3.9562	-4.6979	-4.9542	-3.9562	-4.9167	-4.5979	-4.4604	-4.9083	-4.4688	-4.5083	-5.0167	225.302	0.630	-7.603	-117.059	-45.734	44.283	-57.450	-120.191	124.613	-114.204	219.278	167.742	-67.562	184.235	-79.103	142.970	0.0015248	0.00085671	0.00023704	621.4	4.2222e-06	1.4817e-06	668.31	220.15	5.0034e-06	3.541e-06	267.35	126.22	89.709	46.336	4.7448e-06	67.742	0.00039034	0.00038549	0.00010598	647.84	4.1194e-06	4.1753e-06	691.36	225.36	4.2049e-06	4.1918e-06	273.38	125.39	90.911	45.836	4.1852e-06	65.888	66.618	-81.526	-62.359	-121.174	4.995	-98.819	-121.917	-115.855	28.351	96.446	-117.104	-113.356	-112.196	-105.768	-32.423	-108.719	-8191	255	
2215.768	1	1	0	0	0.18155	0.17493	0.30463	0.17739	0.23999	0.12251	0.21154	0.11546	0.053367	0.10791	0.23939	0.13572	0.17224	0.24237	0.32428	0.12364	-3.9792	-4.8208	-4.6521	-4.3354	-5.0417	-4.2188	-4.6625	-5.1292	-4.0167	-4.8292	-4.8063	-4.2604	-4.9208	-4.3458	-4.4021	-4.9437	19.090	39.383	173.505	-27.572	141.091	-118.696	224.095	-77.521	-90.934	-50.403	183.934	184.070	70.019	174.058	181.015	-70.460	0.0016557	0.0004084	9.1799e-05	620.66	4.6708e-06	9.1526e-07	674.01	220.41	6.1549e-06	4.2999e-06	269.18	126.41	89.992	46.497	3.3055e-06	68.076	0.00038935	0.00038599	0.0001071	650.06	4.226e-06	4.2823e-06	696.05	226.74	4.3449e-06	4.3733e-06	276.42	126.44	91.643	46.098	4.4304e-06	66.45	69.937	-63.688	-55.302	-120.943	-68.826	36.549	-121.712	-115.441	158.981	12.026	-117.422	-113.151	-112.515	-105.660	-30.487	-108.611	-8191	255	
2215.864	1	1	0	0	0.063648	0.14679	0.20396	0.047684	0.21408	0.15575	0.27461	0.069442	0.22802	0.11742	0.079299	0.23342	0.18084	0.092902	0.20081	0.09035	-3.75	-4.8396	-4.7875	-4.2312	-5.0333	-4.3333	-4.4583	-5.1958	-4.0417	-4.8271	-4.8667	-4.1542	-5.0646	-4.5896	-4.3479	-5.0417	-49.476	-61.911	9.782	-75.628	-114.187	-71.368	189.495	114.118	9.169	0.266	-89.341	-71.062	-130.807	140.859	-105.797	-59.577	0.0012805	0.00071805	0.00018162	621.96	1.7669e-06	2.5342e-06	670.17	219.85	5.4675e-06	7.8906e-06	268.45	126.39	90.257	46.366	5.5892e-06	67.38	0.00041078	0.00040208	0.00011152	648.9	4.3846e-06	4.3995e-06	692.31	226.4	4.4161e-06	4.3901e-06	274.26	125.86	91.472	45.908	4.3523e-06	65.861	72.903	-58.853	-80.828	-121.110	114.960	-3.297	-122.042	-115.765	14.081	23.086	-117.076	-113.294	-112.293	-105.877	-13.268	-109.148	-8191	255	
2215.983	1	1	0	0	0.055777	0.19524	0.13311	0.34495	0.073309	0.098895	0.16618	0.13173	0.069272	0.079327	0.19608	0.27662	0.17039	0.14464	0.16835	0.047243	-4	-4.6458	-4.7042	-4.2937	-4.9938	-4.6583	-4.325	-5.1667	-4.2917	-4.5042	-5.025	-4.3	-4.8313	-4.5417	-4.2521	-5.0437	-32.850	72.727	44.411	221.033	123.634	-19.143	152.043	143.197	-81.397	-42.252	212.571	-132.865	-103.377	150.710	179.592	201.631	0.0015159	0.00022341	4.9102e-05	618.78	4.1005e-06	7.4298e-07	667.66	218.44	1.6516e-05	9.5809e-06	264.78	125.4	89.502	45.913	4.069e-06	66.815	0.00040481	0.00040025	0.00011095	648.66	4.444e-06	4.4064e-06	692.85	225.81	4.5031e-06	4.5122e-06	273.3	125.82	91.621	45.738	4.5942e-06	65.654	65.866	127.599	208.660	-120.980	-98.161	210.176	-121.721	-115.599	-19.781	25.062	-116.769	-113.190	-112.008	-105.616	81.940	-108.815	-8191	255	
2216.079	1	1	0	0	0.054341	0.15534	0.090942	0.059318	0.15361	0.10467	0.23292	0.28224	0.15767	0.12784	0.055119	0.23915	0.11758	0.19507	0.20977	0.062183	-4.0271	-4.5979	-4.8875	-4.2063	-4.85	-4.6188	-4.0875	-5.0958	-4.3771	-4.475	-4.9646	-4.3042	-4.7229	-4.8458	-4.0021	-5.1375	220.681	104.729	117.316	-99.946	92.575	-81.590	189.618	155.492	38.413	-82.619	-23.779	-117.919	213.654	177.293	154.717	23.675	0.0016356	0.00046056	3.8896e-05	618.35	7.4532e-06	3.2991e-06	667.75	219.05	1.1528e-05	7.267e-06	264.76	125.02	89.068	45.579	4.306e-06	66.806	0.0004251	0.00042177	0.00011655	653.62	4.6452e-06	4.6645e-06	693.8	225.99	4.7114e-06	4.7396e-06	274.04	125.86	91.433	45.62	4.8354e-06	65.712	55.449	-23.347	153.174	-121.020	-41.489	124.803	-121.993	-115.679	-1.639	9.181	-117.596	-113.214	-112.236	-106.074	63.504	-108.834	-8191	255	
2216.176	1	1	0	0	0.15538	0.076461	0.1698	0.022796	0.20879	0.15751	0.19589	0.11729	0.36348	0.10774	0.18327	0.1525	0.040758	0.13182	0.13146	0.36959	-4.1562	-4.2771	-5.0042	-4.3146	-4.7333	-4.8208	-4.2792	-4.9333	-4.5583	-4.1792	-5.0417	-4.1792	-4.6375	-5.0271	-4.1125	-5.1042	199.225	8.934	6.164	192.310	141.573	121.168	167.507	-61.744	-96.415	181.496	116.833	46.368	58.679	173.536	135.889	123.177	0.0011742	0.00036295	8.1038e-05	620.15	6.6425e-06	4.3592e-06	663	217.71	8.1609e-06	4.1686e-06	264.06	125.29	88.413	45.55	3.463e-06	66.804	0.00044684	0.00044847	0.00012414	656.24	4.8584e-06	4.8406e-06	694.92	226.43	4.8139e-06	4.7609e-06	274.19	125.96	91.296	45.565	4.7493e-06	65.673	63.057	-29.393	-1.221	-120.971	90.814	-89.300	-121.987	-115.368	-24.388	41.150	-117.056	-113.046	-112.150	-106.055	-26.769	-108.805	-8191	255	
2216.272	1	1	0	0	0.054983	0.15902	0.12303	0.19598	0.1919	0.25116	0.24459	0.13241	0.22669	0.048758	0.15443	0.10635	0.21281	0.17873	0.065617	0.24026	-4.3083	-4.2375	-4.9708	-4.0875	-4.4521	-4.8833	-4.1229	-4.8562	-4.6062	-4.2625	-5.0083	-4.3104	-4.4042	-4.9146	-3.9896	-5.0458	107.721	91.232	122.522	41.094	203.022	-77.927	-112.743	135.718	54.121	18.042	-106.116	213.301	111.091	163.835	36.678	223.704	0.0014883	0.00032352	0.00022146	619.2	2.3726e-06	4.9907e-06	662.21	216.2	1.3552e-06	2.914e-06	262.28	124.42	88.867	45.103	1.3386e-06	66.196	0.00043973	0.00043629	0.00012198	656	4.8391e-06	4.7753e-06	692.6	225.41	4.7362e-06	4.7701e-06	273.26	125.41	91.382	45.242	4.8114e-06	65.251	62.899	-64.330	-93.963	-121.202	22.686	26.746	-121.912	-115.487	92.581	71.292	-117.096	-113.166	-112.458	-105.855	12.273	-108.783	-8191	255	
2216.368	1	1	0	0	0.16733	0.1626	0.16112	0.16429	0.10118	0.21742	0.082407	0.064936	0.14894	0.15216	0.1371	0.36436	0.22877	0.092701	0.25432	0.20687	-4.5062	-4.1521	-4.9875	-4.2771	-4.2479	-4.9854	-4.1604	-4.9083	-4.6917	-4.1	-5.0167	-4.2708	-4.4333	-5.0563	-3.9896	-4.7688	56.611	130.577	42.083	130.794	219.235	-36.098	-118.805	66.625	-117.621	193.818	142.305	175.238	6.467	-101.008	123.678	141.672	0.00107	0.0010819	0.00014742	619.15	4.5346e-06	2.4062e-06	662.04	216.53	7.7738e-06	5.9643e-06	261.75	123.88	88.795	45.127	4.0641e-06	65.925	0.00044809	0.0004452	0.00012418	654.7	4.8823e-06	4.8509e-06	690.77	225.19	4.856e-06	4.8507e-06	272.59	125.13	91.512	45.354	4.9545e-06	65.124	65.668	-75.623	47.794	-121.099	-24.937	-81.370	-121.828	-115.468	11.948	59.925	-117.485	-113.136	-112.403	-105.724	15.495	-108.902	-8191	255	
2216.464	1	1	0	0	0.23376	0.19164	0.14076	0.21219	0.15046	0.053327	0.14345	0.24389	0.14639	0.090037	0.064132	0.15139	0.33609	0.13616	0.17965	0.0056272	-4.4792	-4.0938	-4.9958	-4.4583	-4.3854	-5.0813	-4.3542	-4.7458	-4.8958	-4.1562	-5.0146	-4.575	-4.2479	-5.0104	-4.0979	-4.7979	86.014	188.605	-29.949	222.423	47.927	-76.241	189.111	221.815	165.944	29.801	31.429	123.342	217.261	-69.661	205.373	-43.803	0.0011764	0.00046143	0.00042192	614.41	7.14e-06	4.6362e-06	663.8	216.87	8.9645e-06	2.8224e-06	262.88	124.08	88.605	45.112	6.3963e-06	66.169	0.00045402	0.00045086	0.00012578	653.69	4.8754e-06	4.8579e-06	692.07	225.68	4.7962e-06	4.7919e-06	273.21	125.02	91.201	45.217	4.764e-06	65.101	78.438	-34.945	-45.223	-120.853	215.236	-56.799	-121.692	-115.296	11.208	-27.629	-117.472	-112.941	-112.018	-105.842	-33.833	-108.787	-8191	255	
2216.585	1	1	0	0	0.27396	0.22085	0.17041	0.14589	0.17542	0.07077	0.082726	0.15147	0.14796	0.14804	0.32079	0.11722	0.12869	0.17107	0.17261	0.23801	-4.5292	-4.1188	-4.8979	-4.7	-4.3313	-5.0042	-4.2083	-4.7083	-4.8083	-4.0979	-4.8792	-4.6708	-4.1771	-5.2667	-4.3583	-4.6792	40.691	145.715	31.160	217.859	-46.679	-30.005	-92.960	132.905	-118.083	-31.165	205.519	188.295	55.197	-74.317	18.648	198.596	0.0015193	0.0003071	0.00022378	619.4	1.2213e-05	4.1784e-06	664.29	218.65	5.5916e-06	4.9768e-06	266.42	125.25	88.792	45.362	5.5004e-06	66.534	0.00044006	0.00043748	0.0001213	655.07	4.7051e-06	4.735e-06	694.64	226.27	4.7061e-06	4.7231e-06	274.66	125.8	91.231	45.34	4.7577e-06	65.46	66.976	112.168	-5.692	-120.749	-62.624	49.778	-121.872	-115.779	-31.678	-49.029	-117.285	-113.204	-112.267	-105.736	69.010	-108.935	-8191	255	
2216.681	1	1	0	0	0.13325	0.05771	0.2637	0.063448	0.034251	0.089455	0.28421	0.11512	0.15371	0.023935	0.37	0.33546	0.10645	0.091504	0.12599	0.085109	-4.5917	-4.1375	-4.8229	-4.8667	-4.3208	-4.9729	-4.4583	-4.3604	-4.8208	-4.3417	-4.7646	-4.7979	-4.0333	-5.1917	-4.4354	-4.2646	222.870	151.455	-43.573	174.813	-15.414	141.521	115.864	168.435	-107.996	40.863	121.639	126.422	-111.819	-100.084	135.469	139.044	0.0011767	0.0003343	0.0001125	619.79	3.5003e-06	6.1394e-06	670.98	217.37	1.2206e-05	5.6778e-06	267.27	125.4	88.925	45.512	7.5512e-06	66.434	0.00044071	0.00044265	0.00012272	658.12	4.8393e-06	4.8803e-06	698.64	227.11	4.8682e-06	4.9125e-06	276.95	126.2	91.721	45.563	4.8634e-06	65.389	58.086	-31.725	9.828	-120.806	72.540	80.385	-121.861	-115.765	1.718	-122.230	-117.124	-113.134	-112.209	-106.063	-10.922	-108.770	-8191	255	
2216.777	1	1	0	0	0.27778	0.19548	0.042998	0.06134	0.10823	0.048661	0.2231	0.16483	0.06213	0.13736	0.25215	0.081313	0.14853	0.29808	0.03735	0.21456	-4.7708	-4.0542	-4.4583	-4.8667	-4	-4.9625	-4.6417	-4.1167	-5.0354	-4.2542	-4.7625	-4.9083	-4.2438	-4.9917	-4.5896	-4.3313	215.665	-96.805	-3.143	-53.923	-83.484	52.090	199.782	216.496	-52.437	167.302	183.041	192.377	-112.460	186.882	105.909	158.923	0.001252	0.0011321	0.0001246	623.28	8.9895e-06	1.9078e-06	665.56	217.52	1.5974e-05	3.9678e-06	264.76	124.54	88.755	45.13	4.9302e-06	65.975	0.00044756	0.00044244	0.00012316	658.65	4.8626e-06	4.8581e-06	694.99	227.36	4.8958e-06	4.9031e-06	275.31	125.77	91.569	45.36	4.8869e-06	65.023	52.245	-17.615	80.940	-120.965	7.277	178.457	-121.713	-115.707	-54.515	-69.597	-117.339	-113.106	-112.174	-105.992	-12.081	-108.967	-8191	255	
2216.873	1	1	0	0	0.13542	0.057803	0.060922	0.056956	0.092394	0.059375	0.21734	0.42729	0.064126	0.1445	0.20613	0.15227	0.24187	0.079407	0.18495	0.088924	-4.7229	-4.1896	-4.5583	-4.9583	-4.1125	-4.8125	-4.825	-4.1958	-5.0708	-4.2958	-4.5813	-5.0167	-4.0625	-4.7979	-4.6958	-4.2083	83.551	139.518	-38.338	165.835	28.464	199.278	134.703	131.747	176.969	147.295	138.329	-131.026	-92.601	-59.521	222.846	75.800	0.0014852	0.00059627	0.00021979	619.15	2.2222e-06	4.8026e-06	658.54	218.36	4.8488e-06	3.6784e-06	263.18	124.66	88.009	44.862	2.498e-06	65.582	0.00045161	0.00044384	0.00012375	655.41	4.8637e-06	4.8314e-06	690.47	226.23	4.8585e-06	4.8648e-06	273.8	125.28	91.086	45.236	4.8487e-06	64.963	57.918	-125.239	-69.825	-121.304	-17.223	82.250	-121.615	-115.815	-59.865	65.495	-116.991	-112.963	-112.103	-105.986	-43.376	-109.080	-8191	255	
#DATA ENDS
