BOXY.EXE: ISS Imagent and Oximeter Data Acquisition Program Version 0.80
Ascii Record File

#ACQ INFORMATION
2  Detector Channels 
16  External MUX Channels 
1  Auxiliary Channels 
5000  Waveform (CCF) Frequency (Hz)
1  Waveforms Skipped 
30  Waveforms Averaged 
1  Cycles Averaged 
16  Acquisitions per Waveform 
10.0806  Updata Rate (Hz) 

#FILE INFORMATION
TRUE -- External MUX Channel results are PARSED.
FALSE -- AC DC and Phase are NOT grouped.
TRUE -- Companion Program Settings File CREATED.
FALSE -- AC data not excluded
FALSE -- DC data not excluded
FALSE -- Phase data not excluded
FALSE -- Auxillary Chn. data not excluded
Tab delimiters

#CALIBRATION STATE
TRUE -- Waveform Calibration Values APPLIED.


#AUX CALIBRATION VALUES
Val Type	aux-1	

Term	1.0000e+00	
Factor	0.0000e+00	


#WF CALIBRATION VALUES
A = Detector Channel
Val Type	A-AC1	A-AC2	A-AC3	A-AC4	A-AC5	A-AC6	A-AC7	A-AC8	A-AC9	A-AC10	A-AC11	A-AC12	A-AC13	A-AC14	A-AC15	A-AC16	A-DC1	A-DC2	A-DC3	A-DC4	A-DC5	A-DC6	A-DC7	A-DC8	A-DC9	A-DC10	A-DC11	A-DC12	A-DC13	A-DC14	A-DC15	A-DC16	A-Ph1	A-Ph2	A-Ph3	A-Ph4	A-Ph5	A-Ph6	A-Ph7	A-Ph8	A-Ph9	A-Ph10	A-Ph11	A-Ph12	A-Ph13	A-Ph14	A-Ph15	A-Ph16	

Term	0.00000e+00	0.00000e+00	0.00000e+00	0.00000e+00	0.00000e+00	0.00000e+00	0.00000e+00	0.00000e+00	0.00000e+00	0.00000e+00	0.00000e+00	0.00000e+00	0.00000e+00	0.00000e+00	0.00000e+00	0.00000e+00	0.00000e+00	0.00000e+00	0.00000e+00	0.00000e+00	0.00000e+00	0.00000e+00	0.00000e+00	0.00000e+00	0.00000e+00	0.00000e+00	0.00000e+00	0.00000e+00	0.00000e+00	0.00000e+00	0.00000e+00	0.00000e+00	0.00000e+00	0.00000e+00	0.00000e+00	0.00000e+00	0.00000e+00	0.00000e+00	0.00000e+00	0.00000e+00	0.00000e+00	0.00000e+00	0.00000e+00	0.00000e+00	0.00000e+00	0.00000e+00	0.00000e+00	0.00000e+00	
Factor	1.00000e+00	1.00000e+00	1.00000e+00	1.00000e+00	1.00000e+00	1.00000e+00	1.00000e+00	1.00000e+00	1.00000e+00	1.00000e+00	1.00000e+00	1.00000e+00	1.00000e+00	1.00000e+00	1.00000e+00	1.00000e+00	1.00000e+00	1.00000e+00	1.00000e+00	1.00000e+00	1.00000e+00	1.00000e+00	1.00000e+00	1.00000e+00	1.00000e+00	1.00000e+00	1.00000e+00	1.00000e+00	1.00000e+00	1.00000e+00	1.00000e+00	1.00000e+00	X	X	X	X	X	X	X	X	X	X	X	X	X	X	X	X	

B = Detector Channel
Val Type	B-AC1	B-AC2	B-AC3	B-AC4	B-AC5	B-AC6	B-AC7	B-AC8	B-AC9	B-AC10	B-AC11	B-AC12	B-AC13	B-AC14	B-AC15	B-AC16	B-DC1	B-DC2	B-DC3	B-DC4	B-DC5	B-DC6	B-DC7	B-DC8	B-DC9	B-DC10	B-DC11	B-DC12	B-DC13	B-DC14	B-DC15	B-DC16	B-Ph1	B-Ph2	B-Ph3	B-Ph4	B-Ph5	B-Ph6	B-Ph7	B-Ph8	B-Ph9	B-Ph10	B-Ph11	B-Ph12	B-Ph13	B-Ph14	B-Ph15	B-Ph16	

Term	0.00000e+00	0.00000e+00	0.00000e+00	0.00000e+00	0.00000e+00	0.00000e+00	0.00000e+00	0.00000e+00	0.00000e+00	0.00000e+00	0.00000e+00	0.00000e+00	0.00000e+00	0.00000e+00	0.00000e+00	0.00000e+00	0.00000e+00	0.00000e+00	0.00000e+00	0.00000e+00	0.00000e+00	0.00000e+00	0.00000e+00	0.00000e+00	0.00000e+00	0.00000e+00	0.00000e+00	0.00000e+00	0.00000e+00	0.00000e+00	0.00000e+00	0.00000e+00	-2.67418e+02	-1.23981e+02	-1.44473e+02	-1.81854e+02	-1.05914e+02	-7.68791e+01	-1.57311e+02	-1.62015e+02	-7.09312e+01	-7.89950e+01	-1.71511e+02	-1.71453e+02	-1.84794e+02	-1.77817e+02	-1.04389e+02	-1.50452e+02	
Factor	5.71809e-05	8.97066e-05	3.11288e-05	1.96425e-01	1.13358e-06	8.75478e-07	1.57363e-01	5.65123e-02	1.42736e-06	9.07431e-07	8.42968e-02	3.04734e-02	2.81487e-02	8.63089e-03	1.04281e-06	1.25646e-02	5.48854e-07	5.55714e-07	1.54520e-07	9.50652e-02	6.08120e-09	6.08269e-09	7.27127e-02	2.73195e-02	6.08719e-09	6.08483e-09	3.88846e-02	1.39013e-02	1.32012e-02	4.11566e-03	6.08014e-09	5.73139e-03	X	X	X	X	X	X	X	X	X	X	X	X	X	X	X	X	



#DISTANCE SETTINGS
A = Detector Channel
A-1	A-2	A-3	A-4	A-5	A-6	A-7	A-8	A-9	A-10	A-11	A-12	A-13	A-14	A-15	A-16	

2.5000e+00	3.0000e+00	2.5000e+00	3.0000e+00	2.0000e+00	3.0000e+00	1.5000e+00	3.0000e+00	3.0000e+00	3.0000e+00	3.0000e+00	3.0000e+00	3.0000e+00	3.0000e+00	1.5000e+00	3.0000e+00	

B = Detector Channel
B-1	B-2	B-3	B-4	B-5	B-6	B-7	B-8	B-9	B-10	B-11	B-12	B-13	B-14	B-15	B-16	

1.0000e+01	1.0000e+01	1.0000e+01	1.4400e+00	1.0000e+01	1.0000e+01	1.5100e+00	1.9400e+00	1.0000e+01	1.0000e+01	1.9900e+00	2.4900e+00	2.4100e+00	2.9000e+00	1.0000e+01	2.9800e+00	




#DATA BEGINS
time	group	step	mark	flag	A-AC1	A-AC2	A-AC3	A-AC4	A-AC5	A-AC6	A-AC7	A-AC8	A-AC9	A-AC10	A-AC11	A-AC12	A-AC13	A-AC14	A-AC15	A-AC16	A-DC1	A-DC2	A-DC3	A-DC4	A-DC5	A-DC6	A-DC7	A-DC8	A-DC9	A-DC10	A-DC11	A-DC12	A-DC13	A-DC14	A-DC15	A-DC16	A-Ph1	A-Ph2	A-Ph3	A-Ph4	A-Ph5	A-Ph6	A-Ph7	A-Ph8	A-Ph9	A-Ph10	A-Ph11	A-Ph12	A-Ph13	A-Ph14	A-Ph15	A-Ph16	B-AC1	B-AC2	B-AC3	B-AC4	B-AC5	B-AC6	B-AC7	B-AC8	B-AC9	B-AC10	B-AC11	B-AC12	B-AC13	B-AC14	B-AC15	B-AC16	B-DC1	B-DC2	B-DC3	B-DC4	B-DC5	B-DC6	B-DC7	B-DC8	B-DC9	B-DC10	B-DC11	B-DC12	B-DC13	B-DC14	B-DC15	B-DC16	B-Ph1	B-Ph2	B-Ph3	B-Ph4	B-Ph5	B-Ph6	B-Ph7	B-Ph8	B-Ph9	B-Ph10	B-Ph11	B-Ph12	B-Ph13	B-Ph14	B-Ph15	B-Ph16	aux-1	digaux	

1018.505	1	1	0	256	0.22378	0.085607	0.11475	0.16821	0.106	0.2393	0.3499	0.14864	0.20271	0.14826	0.18114	0.22397	0.13862	0.12758	0.38776	0.10321	-4.075	-4.4062	-5.1854	-4.5417	-4.8958	-4.95	-4.5208	-5.2063	-4.4917	-4.375	-5.2875	-4.4396	-5.0542	-5.0563	-4.4271	-5.3562	145.836	169.402	362.895	377.826	292.437	298.356	360.095	363.773	167.809	318.261	121.078	128.945	448.193	315.569	455.807	158.263	0.0010378	2.7294e-05	0.00018625	1103.6	1.0876e-06	1.8834e-06	1205.2	231.21	8.2333e-06	2.5014e-06	292.02	82.774	64.072	18.545	2.2709e-06	25.937	0.00029192	0.0002894	7.9551e-05	1067.5	3.1158e-06	3.0922e-06	1169.4	227.12	2.998e-06	2.9832e-06	285.99	81.516	63.857	19.106	3.0157e-06	26.515	403.003	439.183	224.312	106.161	388.715	151.090	106.313	114.124	249.050	179.389	113.597	120.407	121.160	127.585	198.850	127.374	-8191	255	
1018.626	1	1	0	0	0.19348	0.14011	0.068902	0.11763	0.24065	0.077959	0.11438	0.15326	0.12702	0.033729	0.087385	0.11191	0.31153	0.036744	0.074557	0.1067	-4.3187	-4.4125	-5.2688	-4.6562	-4.8583	-5.1958	-4.4708	-5.1604	-4.8333	-4.4938	-5.4583	-4.5083	-4.6729	-5.1438	-4.2479	-5.0958	425.137	182.335	202.525	443.179	267.856	117.964	356.489	404.850	361.508	109.038	400.495	153.665	119.396	412.318	234.695	358.122	0.00091291	0.00027762	0.0001127	1097.2	9.4702e-07	4.65e-06	1202.2	230.28	1.2933e-05	5.3236e-06	292.58	82.146	64.152	18.681	5.127e-06	25.913	0.0002812	0.00027875	7.7389e-05	1064.8	3.1082e-06	3.1379e-06	1168.3	228.08	3.3192e-06	3.377e-06	288.77	82.523	64.911	19.534	3.5579e-06	27.05	406.904	279.015	162.239	106.268	194.084	387.436	106.165	113.965	290.815	192.535	113.241	120.320	120.660	127.584	149.436	127.196	-8191	255	
1018.722	1	1	0	0	0.16925	0.13875	0.087228	0.11889	0.16881	0.30845	0.13898	0.078552	0.055181	0.22223	0.024763	0.09111	0.13089	0.062037	0.1974	0.086067	-4.7771	-4.625	-5.3208	-4.5958	-4.5417	-5.1417	-4.5271	-5.1625	-5.0229	-4.4854	-5.3562	-4.725	-4.6583	-5.2875	-4.3604	-4.9563	395.810	145.787	349.149	423.230	398.931	354.664	356.227	385.420	117.279	285.956	101.770	201.232	390.983	376.365	331.719	216.919	0.00056143	0.00068753	0.00011789	1105.6	2.9949e-06	1.8108e-06	1202.2	232.1	8.5284e-06	3.9871e-06	294.18	82.667	64.169	18.52	5.5073e-06	25.788	0.00033122	0.00033263	9.2106e-05	1076.6	3.5374e-06	3.48e-06	1173.9	229.61	3.3704e-06	3.3029e-06	288.51	82.019	64.216	19.213	3.0531e-06	26.469	385.537	185.762	384.665	106.394	372.838	110.260	106.349	113.758	299.579	120.448	113.465	120.657	120.316	127.781	361.144	126.686	-8191	255	
1018.818	1	1	0	0	0.19526	0.11318	0.025884	0.021581	0.18096	0.11367	0.066928	0.053788	0.098718	0.23115	0.084225	0.15209	0.12389	0.10339	0.24364	0.12015	-4.6771	-4.3271	-5.3229	-4.8938	-4.5604	-5.1354	-4.5583	-5.0875	-4.9938	-4.2458	-5.2375	-4.7979	-4.4917	-5.4146	-4.3542	-4.8396	127.671	117.002	117.878	181.484	272.066	334.281	121.580	242.869	420.484	165.570	285.445	338.380	152.836	233.664	218.079	107.947	0.00095021	0.00025698	0.00014778	1108.2	4.1312e-06	3.4786e-06	1203.6	231.58	1.1702e-05	2.1959e-06	292.63	82.477	64.149	18.615	2.3499e-06	26.042	0.00027684	0.00027398	7.5791e-05	1067.8	3.0133e-06	3.0316e-06	1168.7	227.92	3.0806e-06	3.0627e-06	287.28	81.829	64.123	19.202	3.0471e-06	26.667	396.090	246.122	433.702	106.099	160.585	179.688	106.229	113.892	224.146	252.948	113.271	120.457	120.744	127.991	129.846	127.195	-8191	255	
1018.915	1	1	0	0	0.14486	0.17765	0.19806	0.25666	0.14266	0.087872	0.19792	0.011502	0.11934	0.18259	0.1214	0.079112	0.17549	0.16394	0.17074	0.17834	-4.8542	-4.4187	-5.1125	-4.8542	-4.3896	-5.2333	-4.7	-4.8271	-5.2479	-4.4812	-5.3833	-4.9604	-4.4417	-5.2521	-4.6208	-4.8812	181.825	120.306	266.366	112.451	133.522	409.931	346.897	198.163	372.271	268.738	261.533	311.664	121.119	329.379	451.132	366.403	0.00092099	0.00029744	0.00020158	1100	4.9148e-06	1.3693e-06	1203.8	232.62	4.8767e-06	3.293e-06	294.74	82.466	64.428	18.53	2.0426e-06	26.144	0.00028081	0.00027912	7.8115e-05	1067	3.0988e-06	3.082e-06	1168.1	228.86	3.1522e-06	3.1511e-06	288.09	82.079	64.435	19.302	3.1662e-06	26.723	408.798	166.554	179.962	106.600	164.733	250.914	106.221	114.254	310.288	188.341	113.622	120.261	120.567	128.055	252.883	126.972	-8191	255	
1019.011	1	1	0	0	0.082999	0.17236	0.20903	0.18153	0.10651	0.13671	0.060203	0.066402	0.18744	0.14603	0.17546	0.14907	0.17231	0.098868	0.040807	0.06392	-4.95	-4.3292	-5.0604	-5.05	-4.5396	-5.2167	-4.8562	-4.7021	-5.1104	-4.1958	-4.8917	-5.0208	-4.2292	-5.0667	-4.6083	-4.6167	348.942	166.083	381.141	402.469	258.064	373.176	425.936	101.823	352.871	405.263	348.806	378.620	203.497	295.776	142.652	405.568	0.00073852	0.00015302	8.5265e-05	1104.6	7.7961e-06	2.7744e-06	1199.1	232.42	7.5075e-06	3.8891e-06	294.81	83.039	64.361	18.565	2.5412e-06	26.088	0.00028779	0.00028853	7.9178e-05	1070.2	3.1381e-06	3.148e-06	1167	228.68	3.1797e-06	3.1821e-06	288.75	82.314	64.78	19.379	3.3481e-06	26.933	406.544	395.930	411.957	106.219	329.760	131.735	106.325	114.170	312.351	257.179	113.291	120.686	120.016	128.117	324.333	127.098	-8191	255	
1019.107	1	1	0	0	0.09687	0.17585	0.19205	0.18129	0.046228	0.15497	0.44178	0.082497	0.079395	0.11909	0.07257	0.13167	0.18283	0.058407	0.15745	0.069959	-5.0146	-4.2708	-4.7958	-5.0729	-4.2875	-5.2271	-5.0188	-4.5167	-5.1479	-4.3792	-5.0813	-5.1312	-4.4354	-5.1021	-4.6896	-4.3417	446.193	340.945	125.556	193.168	236.883	186.767	418.945	403.298	97.534	271.474	192.798	134.675	394.056	226.728	150.785	420.090	0.00082938	0.00069774	0.00016414	1103	5.4779e-06	2.3087e-06	1207.2	233.2	5.2241e-06	4.2796e-06	293.22	83.114	63.862	18.731	6.6269e-06	26.084	0.00031229	0.00031532	8.7742e-05	1077.5	3.5277e-06	3.5098e-06	1176.9	231.67	3.5565e-06	3.5666e-06	290.74	83.233	65.384	19.73	3.6094e-06	27.188	405.852	209.372	217.981	106.509	160.609	272.988	106.793	113.746	181.696	231.786	113.220	120.335	120.725	127.986	169.370	126.918	-8191	255	
1019.226	1	1	0	0	0.15084	0.10721	0.18819	0.1002	0.044994	0.039786	0.28607	0.053485	0.10079	0.1687	0.15514	0.19223	0.20899	0.26336	0.12269	0.10878	-5.0542	-4.4688	-4.625	-5.1188	-4.2667	-5.1521	-4.9979	-4.4917	-5.3833	-4.3979	-4.6604	-5.0271	-4.3187	-5.1104	-5.0271	-4.3833	324.379	444.752	348.159	164.294	289.854	264.237	367.750	382.755	325.324	396.357	153.975	97.417	352.114	395.108	451.657	127.455	0.00094224	0.00054453	0.00031205	1107.6	6.9423e-06	5.222e-06	1204.6	233.51	1.2115e-05	2.698e-06	292.61	82.82	64.126	18.685	8.0319e-06	26.201	0.00033143	0.00033066	9.2722e-05	1078.5	3.668e-06	3.683e-06	1177	232.35	3.7776e-06	3.7535e-06	292.54	83.687	65.868	19.792	3.7856e-06	27.406	407.182	201.340	154.732	106.435	114.650	151.078	106.608	114.061	271.954	324.438	113.440	120.490	120.337	127.749	205.727	127.404	-8191	255	
1019.322	1	1	0	0	0.052091	0.27531	0.1796	0.034397	0.12714	0.062774	0.21214	0.19138	0.15161	0.12065	0.090489	0.13437	0.10852	0.22779	0.24787	0.14384	-4.8083	-4.4271	-4.6833	-5.3229	-4.1542	-4.7958	-5.0917	-4.2396	-5.1937	-4.5583	-4.4854	-5.2479	-4.5125	-4.8417	-5.0792	-4.5333	200.117	138.499	129.713	299.721	421.455	209.621	130.280	97.009	251.952	160.762	346.853	99.691	265.127	158.333	145.499	217.043	0.0010278	0.0004141	0.00014318	1101.8	4.1333e-06	3.1674e-06	1209.6	233.97	2.6486e-06	2.9269e-06	293.83	83.349	64.508	18.671	7.0706e-06	26.12	0.00034548	0.00034562	9.5856e-05	1078.7	3.7862e-06	3.7761e-06	1179.4	232.91	3.8459e-06	3.8232e-06	292.65	83.999	66.123	19.859	3.8813e-06	27.498	382.792	431.296	314.931	106.404	214.588	188.266	106.542	114.108	277.976	313.538	113.275	120.472	120.740	128.188	140.274	127.373	-8191	255	
1019.418	1	1	0	0	0.14434	0.12254	0.16777	0.1098	0.063843	0.052125	0.20811	0.13007	0.0072385	0.12002	0.1537	0.05377	0.17714	0.17431	0.077177	0.19073	-4.85	-4.5292	-4.6104	-5.3438	-4.4625	-4.8646	-5.0563	-4.4062	-5.1375	-4.9375	-4.5625	-5.3292	-4.4646	-4.7875	-5.3583	-4.2583	309.343	238.054	126.538	96.942	203.890	119.876	406.197	309.444	99.021	227.236	191.538	410.530	415.257	169.282	448.044	433.694	0.0013208	0.0004728	0.00011993	1103.6	8.1926e-06	2.2048e-06	1208.3	234.11	4.2043e-06	5.0924e-06	295.14	82.935	64.325	18.722	2.9654e-06	26.066	0.00035875	0.00035901	0.0001	1084.4	3.9874e-06	4.0473e-06	1182	233.84	4.0399e-06	4.0486e-06	295.27	84.52	66.368	19.923	3.9702e-06	27.427	394.050	293.989	310.370	106.332	127.694	249.140	106.669	114.206	278.070	237.083	113.541	120.611	120.729	128.458	198.545	127.520	-8191	255	
1019.514	1	1	0	0	0.35487	0.25949	0.054648	0.18702	0.093754	0.27781	0.25292	0.13253	0.30687	0.092727	0.21613	0.084218	0.23217	0.090552	0.22562	0.067292	-4.7438	-4.8875	-4.4708	-5.3354	-4.5417	-4.8688	-5.3958	-4.4833	-5.1625	-4.8917	-4.4771	-5.2896	-4.5854	-4.8187	-5.4167	-4.3833	134.509	188.327	338.442	386.288	187.847	178.004	413.833	368.829	192.514	199.942	130.187	390.210	386.558	152.590	175.060	199.502	0.0012664	0.00035093	0.000122	1106.6	4.1153e-06	4.9096e-06	1208.1	233.85	1.6212e-06	5.5073e-06	295.04	82.911	64.079	18.593	3.8891e-06	25.977	0.00035928	0.00035086	9.622e-05	1083	3.7225e-06	3.7144e-06	1179.1	232.49	3.6687e-06	3.6359e-06	293.03	83.173	65.345	19.635	3.6201e-06	27.165	394.949	235.111	185.189	106.797	188.933	200.565	106.747	114.244	333.183	206.365	113.750	120.947	121.139	128.106	268.116	127.154	-8191	255	
1019.635	1	1	0	0	0.030295	0.2189	0.20577	0.042604	0.08569	0.16825	0.14293	0.13479	0.072694	0.16065	0.1833	0.22797	0.13687	0.092494	0.14391	0.11221	-4.5833	-4.8646	-4.4458	-5.4	-4.7125	-4.6792	-5.2354	-4.2875	-4.9146	-5.1562	-4.4583	-5.1208	-4.7229	-4.5417	-5.1958	-4.6479	97.866	191.021	173.571	433.129	260.293	160.749	364.444	402.042	210.949	114.958	439.734	276.279	389.096	401.408	280.411	280.725	0.0010781	0.00031037	3.5103e-05	1103.2	4.5994e-06	4.1099e-06	1205.3	233.22	5.2504e-06	3.3919e-06	294.96	82.956	64.081	18.707	1.1316e-05	25.934	0.00033449	0.00033733	9.4058e-05	1078.5	3.7353e-06	3.7385e-06	1177.7	232.52	3.7348e-06	3.744e-06	292.56	83.641	65.61	19.768	3.8489e-06	27.337	408.198	181.084	384.657	106.321	184.969	170.946	106.462	114.028	311.632	283.580	113.821	120.938	121.023	127.991	277.511	127.290	-8191	255	
1019.706	1	1	0	0	0.057175	0.16065	0.12223	0.10921	0.17358	0.25261	0.18658	0.2008	0.23448	0.16541	0.21544	0.18164	0.33904	0.1366	0.16379	0.078825	-4.5687	-5.0021	-4.1687	-5.2458	-4.9625	-4.5458	-5.5104	-4.4604	-4.6292	-5.1708	-4.4563	-5.1333	-4.7438	-4.2271	-5.2812	-4.7604	164.924	454.160	158.196	182.361	131.704	283.732	383.380	335.494	183.197	138.326	432.366	402.552	142.545	157.394	354.730	182.643	0.0010434	0.00046927	0.00013362	1105	6.7502e-06	3.4936e-06	1204.6	232.64	4.2862e-06	6.9057e-06	293.35	83.061	64.26	18.659	8.5825e-07	25.942	0.00035504	0.0003569	9.9149e-05	1083.9	3.9325e-06	3.9529e-06	1180.3	233.45	3.9507e-06	3.9276e-06	294.07	84.014	66.038	19.79	3.8916e-06	27.424	377.674	135.450	240.026	106.700	253.308	341.260	106.535	114.634	223.408	263.752	113.472	120.576	121.576	128.612	395.509	127.657	-8191	255	
1019.803	1	1	0	0	0.093801	0.038754	0.090696	0.20242	0.059904	0.081431	0.14306	0.063233	0.20621	0.17383	0.21519	0.088332	0.19625	0.20424	0.18422	0.036557	-4.3167	-5.0292	-4.3	-5.1917	-4.8917	-4.5896	-5.3	-4.5979	-4.5396	-5.2646	-4.3063	-4.9521	-5.1312	-4.5521	-5.0125	-4.5771	270.954	200.439	144.577	319.696	163.509	142.783	347.474	334.149	228.245	181.295	333.023	381.082	125.279	118.575	288.319	138.848	0.00091842	0.00051333	5.9382e-05	1108.8	3.727e-06	4.8686e-06	1207	234.19	6.4504e-06	1.7196e-06	295.36	83.081	64.559	18.527	6.376e-06	25.94	0.00035303	0.00035075	9.8228e-05	1082.3	3.8458e-06	3.8372e-06	1180.6	232.67	3.8487e-06	3.8137e-06	293.51	83.96	66.067	19.754	3.9021e-06	27.458	393.515	279.129	112.117	106.834	313.044	210.252	106.839	114.481	246.347	440.249	113.695	120.525	120.914	128.165	229.839	127.336	-8191	255	
1019.899	1	1	0	0	0.073594	0.20719	0.26825	0.16205	0.14584	0.13077	0.28391	0.13174	0.1438	0.041738	0.11804	0.22811	0.023913	0.22379	0.14622	0.19272	-4.0479	-5.2458	-4.3167	-5.0125	-4.8896	-4.2937	-5.2542	-4.8542	-4.4812	-4.9938	-4.3458	-4.9417	-5.1271	-4.3167	-5.05	-4.9417	396.896	194.754	283.973	438.377	417.686	348.752	324.293	376.929	318.739	218.812	327.365	382.263	280.337	155.647	251.973	130.717	0.0011336	0.00043782	0.00021643	1108.7	6.6909e-06	1.7361e-06	1205.8	233.02	1.1442e-05	8.4267e-06	293.96	83.07	64.652	18.732	3.7679e-06	25.915	0.00036115	0.00036616	0.00010278	1086.2	4.104e-06	4.1075e-06	1183.9	234.74	4.2411e-06	4.2633e-06	296.89	85.014	67.263	20.162	4.3777e-06	27.972	395.947	186.436	251.027	106.723	185.795	186.002	106.785	114.510	269.719	259.257	114.104	120.998	121.324	128.410	216.261	127.808	-8191	255	
1020.018	1	1	0	0	0.046235	0.1767	0.11668	0.098957	0.30575	0.13802	0.17091	0.15937	0.090907	0.050504	0.10979	0.18466	0.090163	0.2	0.076916	0.23979	-4.1417	-5.0646	-4.4542	-4.7188	-4.9604	-4.4125	-5.4208	-5.0458	-4.3063	-5.1958	-4.5813	-4.6229	-5.2875	-4.3313	-4.9812	-4.7854	259.918	336.397	424.225	162.404	283.294	431.329	382.187	334.007	141.269	153.912	455.757	387.505	102.618	118.367	122.660	388.514	0.00097043	0.00022053	0.00012806	1105.8	4.6491e-06	3.0381e-06	1207.1	234.14	3.1544e-06	1.0884e-05	296.67	83.576	64.98	18.648	3.7404e-06	26.063	0.00040575	0.00040417	0.00011355	1095.6	4.4878e-06	4.5341e-06	1189.6	236.9	4.505e-06	4.4966e-06	298.94	85.716	67.655	20.228	4.41e-06	27.923	413.919	354.308	283.923	106.648	349.731	366.167	106.540	114.228	132.439	307.236	114.065	120.945	120.800	128.294	333.411	127.510	-8191	255	
1020.114	1	1	0	0	0.080571	0.30461	0.17764	0.11526	0.073909	0.11079	0.28834	0.1764	0.13653	0.15191	0.17682	0.24967	0.093462	0.15073	0.061635	0.18233	-4.0354	-5.3292	-4.5021	-4.6896	-5.1917	-4.1625	-5.0667	-5.0292	-4.3479	-5.2312	-4.7063	-4.7188	-5.3083	-4.45	-4.7188	-5.2083	370.387	346.728	427.199	386.628	425.170	161.707	349.004	356.031	171.236	446.218	381.635	152.352	425.141	113.013	437.748	278.042	0.0009314	0.00010988	0.00012911	1106.7	7.2857e-06	5.3222e-06	1206.9	234.84	4.0079e-06	1.9349e-06	294.72	83.123	64.487	18.718	2.2379e-06	26.084	0.00039992	0.00039752	0.00011014	1091.3	4.3065e-06	4.3397e-06	1186.5	236.17	4.3194e-06	4.3076e-06	297.27	85.008	67.17	20.161	4.3085e-06	27.804	402.795	288.238	211.698	106.593	181.284	109.005	106.397	114.478	310.217	275.919	113.737	120.853	120.526	128.088	343.665	127.119	-8191	255	
1020.210	1	1	0	0	0.36793	0.24637	0.1017	0.18411	0.14679	0.14442	0.033325	0.28281	0.21103	0.19498	0.12212	0.14274	0.12613	0.1257	0.047051	0.033994	-4.0292	-5.1146	-4.5125	-4.6021	-5.5167	-4.4396	-4.7229	-5.3438	-4.5354	-5.075	-4.8625	-4.3021	-5.175	-4.4854	-4.7562	-5.2667	362.091	173.610	346.312	440.959	364.161	207.708	351.097	451.712	115.477	238.737	115.433	312.610	275.790	397.617	320.890	318.935	0.0005759	0.0002689	0.00016773	1104.8	2.2742e-06	4.6898e-06	1206.9	233.7	8.5591e-06	3.4214e-06	295.03	83.186	64.524	18.7	5.44e-06	25.977	0.0003937	0.00039382	0.00010889	1089.2	4.3705e-06	4.4182e-06	1190	236.35	4.46e-06	4.4656e-06	298.7	85.556	67.471	20.243	4.3942e-06	27.861	379.885	217.618	266.572	106.347	376.785	104.887	106.755	114.075	306.544	220.186	113.791	120.904	120.756	127.810	218.624	127.343	-8191	255	
1020.306	1	1	0	0	0.29295	0.27245	0.28412	0.18092	0.25242	0.010143	0.11859	0.30099	0.18268	0.057421	0.16235	0.18484	0.12814	0.11169	0.062626	0.13104	-3.9917	-5.0625	-4.9187	-4.5479	-5.3	-4.4729	-4.7937	-5.1813	-4.4437	-4.9771	-5.1417	-4.2458	-5.4479	-4.7646	-4.5208	-5.2188	259.609	194.682	427.148	104.294	308.815	220.479	176.624	247.017	361.085	353.705	387.276	131.610	405.985	420.651	390.957	167.123	0.0011685	0.00056056	0.00011828	1113.8	5.7343e-06	4.7859e-06	1212.7	232.41	3.3129e-06	4.0225e-06	295.37	83.254	64.339	18.618	1.4082e-06	26.055	0.00040314	0.0003985	0.00010957	1093.1	4.2963e-06	4.2868e-06	1188.9	235.7	4.2824e-06	4.2688e-06	297.33	85.137	67.001	20.083	4.3028e-06	27.834	391.304	212.556	301.402	106.683	277.046	237.188	106.876	114.605	348.777	177.513	113.922	120.832	120.715	128.295	224.949	127.628	-8191	255	
1020.402	1	1	0	0	0.045628	0.12173	0.062266	0.30274	0.1791	0.13817	0.034917	0.16742	0.14366	0.062269	0.3072	0.18636	0.04963	0.094291	0.18436	0.18727	-4.1792	-4.9208	-5.0271	-4.5271	-5.0188	-4.85	-4.6958	-5.3417	-4.3375	-4.7521	-5.25	-4.4896	-5.0625	-4.8375	-4.4708	-5.3063	325.466	446.675	448.635	98.046	170.502	280.753	128.884	386.271	288.271	247.983	409.885	338.373	242.340	374.941	198.003	203.716	0.0011021	0.00027358	0.00014105	1106.2	4.8809e-06	6.184e-06	1206.1	232.8	1.2404e-05	5.7284e-06	293.65	83.153	64.475	18.616	6.2635e-06	26.145	0.00039439	0.00039028	0.00010827	1090.4	4.2108e-06	4.1866e-06	1185.3	234.57	4.1564e-06	4.1051e-06	295.79	84.636	66.551	19.964	4.0893e-06	27.644	399.535	147.700	210.840	106.606	377.327	208.853	106.656	114.397	237.869	276.505	113.697	120.723	121.058	128.639	390.816	127.496	-8191	255	
1020.498	1	1	0	0	0.35999	0.13751	0.14245	0.16987	0.09886	0.13768	0.25285	0.21325	0.26372	0.10375	0.20822	0.15321	0.033013	0.2185	0.04607	0.13744	-4.1667	-4.6646	-5.2104	-4.3792	-5.0813	-4.9042	-4.4792	-5.1271	-4.5792	-4.7583	-5.1125	-4.5042	-5.1417	-4.9083	-4.4104	-5.3583	418.186	382.396	311.748	220.974	202.134	268.304	387.970	454.581	411.189	285.619	374.081	208.819	366.081	173.458	384.735	410.260	0.00083653	0.00030276	0.00012078	1104.5	3.0369e-06	2.0002e-06	1208.4	234	7.8056e-06	4.7538e-06	295.03	83.229	64.442	18.625	1.0822e-05	25.976	0.00037827	0.00037982	0.00010605	1088.4	4.1415e-06	4.151e-06	1185.4	235.19	4.211e-06	4.1956e-06	296.23	84.839	66.807	20.079	4.2901e-06	27.783	380.784	325.644	178.048	107.288	258.399	291.115	107.099	114.579	230.811	254.602	114.016	121.010	121.422	128.297	188.079	127.649	-8191	255	
1020.595	1	1	0	0	0.13388	0.19359	0.098962	0.27483	0.089281	0.083209	0.12027	0.066697	0.26407	0.17492	0.20868	0.20465	0.16462	0.23096	0.16507	0.30597	-4.45	-4.8708	-5.1729	-4.4292	-4.9167	-4.9479	-4.4833	-5.3542	-4.6875	-4.6167	-5.0854	-4.2812	-4.8417	-5.0938	-4.1687	-5.2292	162.666	173.146	228.010	413.061	227.046	153.984	426.157	437.744	107.751	228.745	428.278	430.082	445.337	312.128	359.988	319.653	0.0013581	0.00030517	9.9369e-05	1103.4	1.4972e-06	3.4996e-06	1204.9	234.34	6.3198e-06	3.582e-06	295.53	82.747	64.222	18.583	2.85e-06	26.148	0.00039441	0.00038885	0.00010883	1088.7	4.3255e-06	4.2883e-06	1186.7	235.67	4.2535e-06	4.2502e-06	296.59	84.519	66.689	19.933	4.1369e-06	27.626	380.103	281.964	278.573	107.022	175.764	242.954	106.818	114.734	249.847	265.763	114.350	120.974	121.453	128.595	304.901	127.644	-8191	255	
1020.715	1	1	0	0	0.051124	0.14559	0.11926	0.28265	0.16162	0.093108	0.13026	0.068952	0.25262	0.177	0.056634	0.18759	0.092989	0.25516	0.073814	0.064618	-4.6104	-4.4896	-5.3354	-4.5062	-4.7396	-4.9083	-4.5062	-5.3812	-4.7875	-4.4125	-5.3271	-4.4479	-4.7979	-5.0583	-4.1833	-5.3354	180.644	195.150	435.302	418.280	246.475	201.047	385.411	109.334	145.851	97.980	267.708	445.075	285.476	405.301	283.451	316.211	0.00054564	0.0002006	0.00018224	1106.3	8.1006e-06	4.2972e-06	1196.9	235.27	7.4758e-06	2.4684e-06	295.12	83.069	64.618	18.576	5.6013e-06	25.994	0.00037639	0.00037539	0.00010444	1086.7	4.0652e-06	4.115e-06	1180.8	234.89	4.0929e-06	4.1077e-06	295.47	84.313	66.557	19.912	4.1014e-06	27.47	364.819	210.761	172.956	106.958	296.296	230.087	107.009	114.922	250.302	327.565	114.127	121.099	121.612	128.887	248.686	128.037	-8191	255	
1020.811	1	1	0	0	0.086781	0.073221	0.14698	0.25934	0.097891	0.070713	0.29893	0.11201	0.31516	0.15281	0.10988	0.071662	0.29193	0.07876	0.13693	0.15645	-4.55	-4.4	-5.325	-4.4958	-4.5604	-5.3271	-4.4104	-5.0729	-4.9542	-4.3667	-5.4542	-4.4771	-4.5312	-5.2333	-4.2417	-5.0312	161.880	99.260	346.651	378.957	432.834	361.718	391.443	207.778	362.268	132.086	437.501	208.260	134.135	213.353	280.536	250.896	0.00087976	0.00031669	0.00013905	1103.5	1.0483e-06	3.9199e-06	1209.7	234.3	4.1283e-06	2.628e-06	293.94	83.035	63.57	18.592	3.3857e-06	26.034	0.00037114	0.0003721	0.00010176	1083.2	4.0232e-06	3.9758e-06	1181.5	234.1	3.9505e-06	3.9573e-06	294.05	83.836	65.797	19.733	3.871e-06	27.352	367.968	144.049	190.228	107.255	328.828	327.285	107.444	114.959	400.621	142.844	114.200	121.355	121.432	128.533	181.229	128.396	-8191	255	
1020.907	1	1	0	0	0.15304	0.12277	0.045124	0.081643	0.012582	0.12599	0.3148	0.16803	0.12874	0.22348	0.22484	0.17119	0.084266	0.10578	0.15592	0.13114	-4.5	-4.3354	-5.2896	-4.6937	-4.8	-5.3812	-4.5188	-4.9083	-4.9042	-4.3979	-5.3333	-4.7063	-4.5708	-5.1792	-4.4958	-4.9604	279.567	277.640	328.277	194.991	414.197	108.873	386.745	364.204	198.542	339.255	143.235	451.270	203.692	98.347	173.325	280.707	0.001026	0.00065682	0.00027755	1100.7	1.6584e-06	4.5769e-06	1199.5	232.72	5.9096e-06	5.3649e-06	296.02	82.528	64.115	18.543	2.5321e-06	25.865	0.00035342	0.00035186	9.7855e-05	1080.6	3.8797e-06	3.8795e-06	1176.3	233.09	3.9089e-06	3.9397e-06	294.68	83.962	66.253	19.83	4.0004e-06	27.52	394.383	147.993	163.929	107.536	157.427	282.590	107.390	115.193	262.690	300.349	113.960	121.150	121.303	128.569	215.446	127.403	-8191	255	
1021.004	1	1	0	0	0.28734	0.097494	0.079439	0.13135	0.1261	0.12807	0.25883	0.13429	0.02084	0.34034	0.075458	0.098534	0.187	0.11405	0.12701	0.15226	-4.7167	-4.3708	-5.25	-5.0146	-4.4354	-5.2521	-4.7667	-4.9771	-5.1271	-4.2542	-5.2979	-4.9187	-4.45	-5.1396	-4.3938	-4.7583	219.379	207.665	288.190	230.580	152.836	166.835	397.570	96.884	122.979	212.791	428.225	323.580	455.481	329.811	108.848	120.215	0.0010983	0.00068363	0.00019927	1105.1	6.4292e-06	9.5474e-06	1203.2	232.99	5.3819e-06	3.848e-06	294.81	82.962	64.465	18.581	2.5465e-06	25.909	0.00036797	0.00036925	0.00010318	1084.2	4.0604e-06	4.0091e-06	1180.4	233.05	4.004e-06	4.0009e-06	294.03	83.877	66.045	19.76	3.9606e-06	27.374	393.651	299.055	184.993	107.269	170.586	226.473	107.334	114.624	274.987	222.638	114.133	121.234	121.388	128.499	310.433	128.001	-8191	255	
1021.100	1	1	0	0	0.23907	0.1153	0.18417	0.29122	0.077063	0.16919	0.32222	0.14917	0.079307	0.074062	0.18401	0.21724	0.10457	0.16993	0.021773	0.09517	-4.9688	-4.3396	-4.9667	-5.1146	-4.4646	-5.45	-4.7542	-4.5979	-5.275	-4.4792	-4.975	-5.0271	-4.4271	-5.1979	-4.6792	-4.4625	454.219	214.353	230.693	410.148	365.929	432.273	442.613	403.124	267.577	359.179	424.976	403.461	99.361	99.616	274.002	385.027	0.00074122	0.0004925	9.8945e-05	1105.2	2.5737e-06	5.8764e-06	1204.2	233.09	1.9114e-06	4.4165e-06	295.76	82.621	64.122	18.444	1.9453e-06	25.95	0.000363	0.00035721	0.0001007	1082.9	3.9742e-06	3.9912e-06	1181.4	233.83	4.095e-06	4.0947e-06	295.3	84.325	66.357	19.918	4.1717e-06	27.677	408.476	236.447	390.325	107.073	273.598	214.836	106.708	114.574	105.095	394.758	113.992	121.061	120.755	128.791	212.784	127.579	-8191	255	
1021.194	1	1	0	0	0.053894	0.15661	0.064165	0.17479	0.1064	0.095452	0.044405	0.1741	0.155	0.178	0.27763	0.12536	0.079258	0.14161	0.088702	0.18037	-4.9375	-4.4958	-4.7	-4.975	-4.3625	-5.2458	-4.8667	-4.4542	-5.3396	-4.4792	-4.8833	-5.1687	-4.4125	-5.2771	-4.9792	-4.5354	346.522	288.637	224.605	139.119	224.503	295.113	260.024	397.312	219.509	329.477	105.505	138.692	254.215	324.559	385.196	141.794	0.0012085	0.00041519	0.0001409	1104.2	7.2283e-06	5.0459e-06	1202.7	232.95	1.0133e-05	5.5093e-06	294.76	82.936	64.307	18.56	3.2344e-06	25.804	0.00038343	0.00037944	0.00010592	1086.6	4.142e-06	4.1035e-06	1181.8	234.31	4.0289e-06	4.0352e-06	294.26	83.876	66.052	19.781	3.9053e-06	27.336	388.758	226.185	226.471	107.200	165.672	223.575	106.953	114.667	245.006	251.381	114.243	121.020	121.512	128.282	309.547	127.854	-8191	255	
1021.315	1	1	0	0	0.21177	0.14808	0.11262	0.085906	0.043769	0.05695	0.2027	0.23997	0.11147	0.13844	0.045796	0.12957	0.22361	0.27134	0.095157	0.052012	-4.8854	-4.4146	-4.6854	-5.3083	-4.3313	-5.1667	-4.9583	-4.4979	-5.3208	-4.5354	-4.75	-5.1979	-4.2729	-5.0729	-4.8146	-4.475	455.699	181.560	181.032	418.327	270.246	245.088	404.889	418.260	424.404	379.372	319.422	111.780	108.240	219.640	391.401	150.721	0.0011744	0.00068198	0.00015476	1099.4	2.3498e-06	7.21e-06	1201.6	233.34	1.0645e-05	7.9062e-07	294.63	82.548	64.124	18.626	9.6041e-06	26.072	0.00035938	0.00035658	9.9568e-05	1080.5	3.9294e-06	3.9644e-06	1178.5	233.73	3.9546e-06	3.9454e-06	294.14	83.688	65.994	19.803	3.9322e-06	27.374	391.161	289.797	295.419	107.104	364.024	253.803	107.090	114.869	194.943	345.833	114.281	120.761	120.719	128.548	193.333	127.770	-8191	255	
1021.411	1	1	0	0	0.13376	0.26207	0.12187	0.16769	0.23386	0.10184	0.28545	0.12778	0.19712	0.038366	0.19031	0.067283	0.22115	0.18954	0.14638	0.19336	-5.0875	-4.5563	-4.4708	-5.2479	-4.2333	-4.8125	-5.0271	-4.5021	-5.1167	-4.5	-4.3583	-5.2937	-4.4292	-5.0125	-4.9437	-4.3333	354.997	102.109	420.173	455.217	99.205	130.098	397.192	270.296	168.617	134.923	321.738	374.767	361.372	262.719	200.063	288.296	0.00096309	0.00063519	7.558e-05	1100.5	7.8154e-06	2.6437e-06	1203.3	231.22	6.5472e-06	3.4964e-06	294.91	83.372	64.301	18.523	6.1998e-06	25.923	0.00036043	0.00035922	9.9093e-05	1080.6	3.8581e-06	3.8731e-06	1176.2	231.63	3.7472e-06	3.7575e-06	292.67	83.474	65.655	19.617	3.6834e-06	27.074	392.294	193.458	134.785	107.075	220.136	188.989	107.077	114.697	141.796	312.854	114.065	121.221	121.479	128.887	207.833	127.908	-8191	255	
1021.507	1	1	0	0	0.15222	0.17383	0.22123	0.2365	0.27079	0.14928	0.31367	0.18496	0.046301	0.061471	0.1532	0.12696	0.21358	0.032026	0.20346	0.30486	-4.8625	-4.5479	-4.4938	-5.2854	-4.4833	-4.7396	-5.175	-4.3792	-5.1375	-4.8771	-4.6396	-5.3625	-4.5583	-4.7458	-5.0208	-4.3604	342.796	157.043	265.246	349.992	136.542	190.054	314.390	415.973	311.126	377.722	130.440	424.703	196.091	207.740	291.470	387.594	0.00095755	0.0001063	0.00011216	1098.4	1.1112e-05	2.9169e-06	1205.1	232.64	1.3349e-05	3.0395e-06	294.29	82.862	63.759	18.557	7.7544e-06	25.626	0.00033596	0.00033789	9.2984e-05	1076.3	3.6475e-06	3.625e-06	1174.6	231.33	3.5892e-06	3.5663e-06	291.08	82.881	64.973	19.494	3.5733e-06	26.952	410.926	123.626	415.044	107.138	181.585	283.984	107.530	114.911	290.195	348.677	114.562	121.734	121.641	128.638	221.970	127.916	-8191	255	
1021.579	1	1	0	0	0.060734	0.18997	0.28463	0.22228	0.11678	0.14957	0.17367	0.2531	0.28084	0.1168	0.033482	0.17679	0.26823	0.045628	0.066605	0.11173	-4.7271	-4.7604	-4.3625	-5.3562	-4.45	-4.5125	-5.25	-4.4021	-5.0625	-4.9833	-4.3958	-5.2208	-4.5979	-4.6458	-5.3292	-4.4313	298.947	97.320	306.565	420.882	212.276	236.652	337.651	421.726	194.351	318.133	163.434	404.297	118.058	362.339	331.663	222.964	0.00097701	0.00030355	5.3953e-05	1104.5	7.6554e-06	3.3036e-06	1205.1	234	6.0377e-06	2.6955e-06	294.57	82.966	63.984	18.403	4.0044e-06	25.8	0.00033249	0.00033108	9.2592e-05	1076.7	3.6604e-06	3.7148e-06	1174.8	232.17	3.7279e-06	3.6882e-06	292.33	83.09	65.334	19.546	3.6156e-06	26.94	378.864	153.258	350.399	107.615	174.553	190.248	107.437	114.718	194.730	404.583	113.666	120.621	120.895	128.225	446.180	127.350	-8191	255	
1021.675	1	1	0	0	0.036146	0.082878	0.20049	0.11198	0.22078	0.065116	0.1934	0.22425	0.14805	0.14592	0.27759	0.059421	0.065593	0.18524	0.11214	0.1288	-4.6062	-4.9479	-4.3542	-5.4	-4.7354	-4.6479	-5.3333	-4.4271	-4.8104	-5.0813	-4.4771	-5.2333	-4.8479	-4.4354	-5.2396	-4.4167	353.334	215.737	414.475	303.557	103.541	413.246	451.825	116.093	299.930	267.297	330.138	341.293	325.702	233.323	297.801	157.293	0.0007627	0.00017472	0.0002078	1099.9	2.744e-06	2.6177e-06	1200.1	232.9	5.0264e-06	5.1367e-06	295.12	82.768	64.645	18.552	1.2154e-06	25.545	0.00032898	0.00032671	9.1191e-05	1073.9	3.641e-06	3.5971e-06	1173.6	231.57	3.6893e-06	3.6684e-06	292.01	82.986	65.318	19.539	3.5517e-06	26.883	401.317	147.666	422.730	106.916	410.773	241.255	106.601	114.120	401.076	202.516	113.554	121.359	120.599	128.371	290.981	127.502	-8191	255	
1021.796	1	1	0	0	0.14117	0.033118	0.142	0.054779	0.036338	0.10203	0.33792	0.14825	0.049149	0.16864	0.32388	0.17723	0.10146	0.22138	0.082879	0.2676	-4.3	-5.0437	-4.1687	-5.1042	-4.9604	-4.5771	-5.5687	-4.6125	-4.6729	-5.2375	-4.4542	-5.3688	-4.9333	-4.5062	-5.1937	-4.4062	347.450	368.599	107.485	109.620	342.221	319.063	404.930	360.438	213.186	333.049	403.966	122.673	152.197	181.836	338.989	409.020	0.00084811	0.00036095	0.00016482	1105	5.7446e-06	4.1057e-06	1198.2	232.34	8.1762e-06	6.3012e-06	292.93	82.132	63.933	18.414	5.1846e-06	25.622	0.00032427	0.00031882	8.695e-05	1073.3	3.3781e-06	3.3629e-06	1168.1	229.49	3.2851e-06	3.2469e-06	288.42	81.6	64.106	19.132	3.1784e-06	26.424	411.193	240.860	335.482	106.671	262.891	440.300	106.831	114.470	281.916	228.862	114.029	121.234	121.071	128.778	360.771	127.565	-8191	255	
1021.892	1	1	0	0	0.11236	0.032974	0.14906	0.33672	0.25348	0.11371	0.15252	0.20089	0.26913	0.1117	0.10171	0.19549	0.068061	0.096749	0.16152	0.22583	-4.3417	-5.3042	-4.425	-5.1542	-4.7292	-4.4917	-5.6208	-4.7396	-4.6521	-5.2375	-4.475	-5.1167	-4.925	-4.5208	-5.1562	-4.6687	137.006	194.740	358.643	452.587	349.618	307.275	390.496	165.754	414.490	277.445	137.806	237.494	315.133	419.642	140.448	428.739	0.0010212	0.00045087	7.3174e-05	1099.4	5.155e-06	2.3252e-06	1198	231.74	9.054e-06	3.2408e-06	290.99	82.443	63.305	18.219	1.324e-06	25.574	0.00029176	0.00028652	8.0225e-05	1064.3	3.1331e-06	3.1249e-06	1163.6	227.45	3.1106e-06	3.1083e-06	285.78	81.487	63.608	18.948	3.0613e-06	26.298	399.216	198.467	365.458	107.505	169.426	174.989	107.085	115.395	293.606	146.712	114.182	121.370	121.921	129.004	278.144	128.377	-8191	255	
1021.988	1	1	0	0	0.28699	0.16918	0.17351	0.16354	0.028411	0.32709	0.21435	0.12224	0.18444	0.21763	0.30447	0.20664	0.11959	0.063884	0.10224	0.23483	-4.1396	-5.3354	-4.6687	-5.1854	-5.0292	-4.4125	-5.6083	-4.7854	-4.4417	-5.3438	-4.3896	-4.7562	-5.3479	-4.5667	-5.0437	-4.8833	331.353	318.945	137.240	144.875	112.826	426.325	408.107	384.874	186.380	272.338	126.335	321.963	103.083	399.319	292.221	102.822	0.00061903	0.00035891	0.00010983	1102.7	5.2028e-06	4.1687e-06	1193.5	230.82	1.0702e-05	1.1456e-06	290.46	82.309	63.5	18.416	2.8027e-06	25.447	0.00028287	0.00028118	7.9185e-05	1064.4	3.1554e-06	3.1514e-06	1164.6	227.61	3.1339e-06	3.1258e-06	286.31	81.34	63.676	18.967	2.9663e-06	26.104	381.473	170.219	100.333	107.385	255.269	220.476	107.116	114.710	290.382	261.505	114.357	121.330	121.816	129.172	421.470	128.541	-8191	255	
1022.108	1	1	0	0	0.10866	0.12119	0.056686	0.038566	0.17331	0.12962	0.091167	0.154	0.12195	0.1779	0.1193	0.082945	0.082622	0.058143	0.074506	0.15654	-4.1229	-5.3479	-4.4667	-4.8417	-4.9625	-4.175	-5.2375	-4.9563	-4.5021	-5.2792	-4.6854	-4.8229	-5.3063	-4.4271	-4.9896	-4.8688	264.646	305.360	156.855	140.797	317.467	342.216	101.430	419.200	286.127	316.911	387.067	104.893	417.964	366.260	300.842	453.459	0.00094787	0.00029608	0.00010371	1095.7	4.919e-06	2.6804e-06	1196.9	229.47	7.4574e-06	5.6698e-06	289.01	81.066	62.69	18.179	5.8169e-06	25.382	0.0002667	0.00026019	7.0662e-05	1056.2	2.7107e-06	2.6681e-06	1155.7	223.39	2.6114e-06	2.5924e-06	280.25	79.698	62.151	18.524	2.6665e-06	25.64	406.799	244.642	304.491	107.120	100.059	243.607	107.064	115.024	254.165	259.873	114.625	121.640	122.216	129.178	190.321	127.843	-8191	255	
1022.180	1	1	0	0	0.10084	0.18952	0.24615	0.26691	0.0064348	0.22027	0.25726	0.19184	0.15951	0.059407	0.13334	0.11355	0.20775	0.29058	0.098426	0.1306	-4.1979	-5.2729	-4.8333	-4.6479	-5.3063	-4.3104	-5.0479	-5.0958	-4.2354	-5.1854	-4.7875	-4.5271	-5.2104	-4.5021	-4.9437	-5.2542	439.451	135.748	296.146	392.889	227.674	135.790	337.552	419.213	422.021	101.887	117.354	252.195	123.720	237.983	303.971	426.489	0.00097447	0.00021076	9.0289e-05	1089.4	6.7048e-06	1.344e-06	1191.4	227.63	4.7937e-06	2.3096e-06	289.4	81.844	63.061	18.13	4.3258e-06	25.246	0.00025441	0.00025445	7.1655e-05	1053.7	2.9129e-06	2.9763e-06	1154.9	224.34	3.0682e-06	3.0439e-06	283.36	80.784	62.951	18.738	3.0141e-06	25.796	405.442	181.798	123.207	107.137	286.847	211.692	106.889	114.656	345.453	358.979	114.176	120.784	121.601	128.560	406.111	127.469	-8191	255	
1022.276	1	1	0	0	0.13152	0.18901	0.1303	0.13115	0.12803	0.1058	0.13845	0.062561	0.19649	0.10414	0.18805	0.022792	0.13877	0.19576	0.25138	0.20056	-4.0771	-5.2188	-4.6021	-4.5104	-5.3	-4.3562	-4.9187	-5.3083	-4.25	-5.1646	-4.9688	-4.5042	-5.3917	-4.4917	-4.6479	-5.3	273.471	166.752	317.113	254.976	372.621	381.384	126.856	112.364	162.529	127.070	354.349	435.860	335.365	336.897	418.318	331.746	0.0011738	0.00040568	0.00015259	1086.6	5.8413e-06	4.4131e-06	1185.6	227.65	5.0065e-06	5.6855e-06	289.04	81.507	63.164	18.061	3.1492e-06	25.286	0.00026945	0.00026501	7.2907e-05	1049.8	2.8375e-06	2.8049e-06	1150.1	222.44	2.7764e-06	2.7659e-06	280.71	79.624	62.22	18.469	2.7138e-06	25.496	406.316	273.679	284.466	107.047	293.914	201.870	106.792	114.981	189.688	328.837	114.106	121.080	121.419	128.500	370.962	127.277	-8191	255	
1022.395	1	1	0	0	0.14189	0.20394	0.10973	0.19667	0.31553	0.10316	0.20353	0.30446	0.15469	0.14863	0.24411	0.33323	0.15887	0.15562	0.14329	0.098729	-4.2042	-5.1396	-4.8812	-4.475	-5.2812	-4.5437	-4.95	-5.3271	-4.2688	-5.0646	-4.9229	-4.3729	-5.2875	-4.6167	-4.5167	-5.2104	313.449	149.230	455.369	428.100	428.688	434.810	426.543	151.538	248.036	106.742	427.185	160.218	179.344	413.574	384.613	306.528	0.00063372	0.00056093	9.6139e-05	1087.4	4.9086e-06	5.1051e-06	1187.1	225.64	8.041e-06	4.2781e-06	286.96	80.68	62.77	17.976	6.7051e-06	24.98	0.00025053	0.00024762	6.8903e-05	1048.4	2.777e-06	2.7992e-06	1151.8	222.4	2.9723e-06	3.0588e-06	282.39	80.352	63.353	18.896	3.3547e-06	26.219	406.779	110.370	146.123	106.586	251.891	202.711	106.610	114.443	181.753	447.208	114.052	121.006	120.999	128.099	188.983	128.038	-8191	255	
1022.491	1	1	0	0	0.2115	0.095799	0.24062	0.23679	0.33967	0.30509	0.17224	0.24034	0.16617	0.21498	0.042431	0.19098	0.27291	0.073917	0.27474	0.12473	-3.9604	-5.1646	-5.0896	-4.3979	-5.125	-4.7	-4.7167	-5.4646	-4.5938	-4.8604	-5.1271	-4.5021	-5.1188	-4.8375	-4.5833	-5.4875	228.325	204.535	335.153	373.690	134.762	344.827	393.795	426.283	138.995	171.260	317.509	358.731	104.717	411.370	129.129	406.110	0.00079936	0.00070854	2.282e-05	1089.8	3.9056e-06	6.6547e-06	1187.9	227.33	3.6358e-06	4.4714e-06	289.7	81.285	62.836	18.072	3.8484e-06	25.199	0.00031862	0.00031771	8.9323e-05	1061.6	3.5105e-06	3.4895e-06	1160.8	226.47	3.4657e-06	3.4186e-06	286.41	81.375	63.911	18.992	3.3786e-06	26.229	406.946	176.302	256.594	106.657	263.319	217.179	106.587	114.567	145.728	239.278	113.828	120.783	120.959	128.248	194.059	127.562	-8191	255	
1022.587	1	1	0	0	0.07512	0.05426	0.26645	0.059504	0.069162	0.11487	0.16167	0.030332	0.20014	0.13103	0.1637	0.099239	0.11394	0.19229	0.22412	0.15598	-4.2625	-4.6542	-5.1354	-4.4812	-5.1188	-4.6354	-4.6396	-5.4812	-4.4167	-4.5604	-5.1042	-4.3438	-5.1813	-4.7812	-4.1687	-5.2688	291.892	416.214	338.635	285.361	130.646	286.614	377.882	319.406	256.884	201.287	448.174	123.456	276.731	308.447	402.325	307.666	0.00073882	0.00083118	9.4321e-05	1091.7	6.6432e-06	4.1023e-06	1190.2	228.31	9.0218e-07	6.7108e-06	288.8	81.57	63.213	18.209	3.9574e-06	25.219	0.00031004	0.00031024	8.5738e-05	1064	3.362e-06	3.3376e-06	1163.5	226.66	3.43e-06	3.403e-06	286.59	81.589	64.037	19.02	3.3791e-06	26.215	414.693	236.636	402.498	106.427	172.393	277.253	106.517	114.448	303.483	253.476	113.874	120.397	120.841	128.139	256.904	127.642	-8191	255	
1022.708	1	1	0	0	0.12482	0.15434	0.12761	0.16956	0.28048	0.12469	0.26037	0.13576	0.40958	0.14724	0.19499	0.10266	0.14821	0.056493	0.10771	0.11294	-4.3063	-4.6875	-5.0375	-4.5312	-4.8292	-5.1125	-4.6687	-5.5	-4.6062	-4.6125	-5.0646	-4.4292	-5.0292	-5.1167	-4.2521	-5.2104	229.821	385.438	188.198	147.676	382.101	432.138	415.855	398.112	140.417	198.265	225.863	443.595	331.516	317.987	395.104	360.354	0.00087572	0.00036329	0.00020087	1093.3	8.9786e-06	3.701e-06	1192.5	227.61	5.5022e-06	5.1769e-06	289.64	81.422	63.527	18.084	7.6734e-06	25.415	0.00030974	0.00030835	8.6403e-05	1063.9	3.3811e-06	3.3744e-06	1162.6	226.54	3.385e-06	3.4037e-06	286.33	81.543	64.108	18.996	3.4001e-06	26.301	405.870	250.157	111.398	106.404	176.004	277.938	106.218	114.439	247.294	341.230	113.430	120.681	121.095	128.343	276.919	127.405	-8191	255	
1022.804	1	1	0	0	0.036007	0.22466	0.13274	0.17185	0.17477	0.11813	0.23852	0.34509	0.087675	0.22296	0.22119	0.066387	0.21486	0.19903	0.086253	0.17982	-4.3313	-4.5396	-5.3375	-4.5646	-4.8708	-5.1083	-4.4125	-5.0833	-4.6021	-4.5167	-5.3271	-4.4458	-4.7396	-5.2125	-4.0938	-5.025	297.748	204.121	281.497	380.815	256.976	420.525	417.026	400.485	143.971	332.729	379.373	128.557	379.522	446.502	273.900	287.829	0.0011372	0.00042482	7.7221e-05	1095.2	8.5133e-06	6.9918e-06	1192	229.15	8.0255e-06	4.5506e-06	288.25	81.694	62.827	18.138	6.3426e-06	25.085	0.00031223	0.00030985	8.6806e-05	1063.2	3.3942e-06	3.4153e-06	1163.3	226.27	3.356e-06	3.3676e-06	286.09	81.368	63.741	18.97	3.3787e-06	26.111	380.981	195.957	109.076	106.521	197.156	204.266	106.384	113.906	235.166	207.521	113.520	120.581	120.510	128.580	242.349	126.868	-8191	255	
1022.876	1	1	0	0	0.037327	0.14235	0.26415	0.13091	0.09058	0.18646	0.20621	0.045476	0.065481	0.21377	0.081268	0.14905	0.19803	0.1232	0.1777	0.091157	-4.4812	-4.4021	-5.3542	-4.6521	-4.8625	-5.2646	-4.5625	-5	-4.8479	-4.4125	-5.4146	-4.6667	-4.6937	-5.2833	-4.2896	-5.1	127.270	294.190	260.669	270.071	290.459	412.297	418.914	319.343	249.227	273.716	354.548	355.624	403.095	118.133	330.185	344.099	0.00086364	0.00033241	0.00024255	1094.5	2.9627e-06	6.0848e-06	1189.2	228.26	5.7935e-06	1.3505e-06	289.65	81.418	63.245	18.115	8.9122e-07	25.108	0.00030971	0.00030928	8.645e-05	1065.1	3.4317e-06	3.4086e-06	1161.8	226.78	3.4802e-06	3.4553e-06	286.84	81.608	64.169	19.055	3.456e-06	26.243	399.729	167.362	137.663	106.519	393.901	148.964	106.325	114.517	313.402	400.875	113.330	120.441	121.046	127.874	156.661	127.253	-8191	255	
1022.997	1	1	0	0	0.083421	0.2759	0.013462	0.25136	0.098385	0.23407	0.22214	0.16716	0.22624	0.13626	0.14106	0.011904	0.12425	0.065467	0.042695	0.22232	-4.8	-4.425	-5.1667	-4.6562	-4.6792	-5.2167	-4.3271	-4.9604	-5.0021	-4.4896	-5.2688	-4.6375	-4.4708	-5.3021	-4.4812	-4.8458	122.175	253.386	106.785	378.810	435.208	345.219	111.758	98.034	293.819	335.190	332.377	131.975	227.622	143.828	297.656	138.785	0.00084514	0.00062725	0.00010514	1096.1	2.9556e-06	2.0398e-06	1190.8	228.48	3.9165e-06	1.6698e-06	289.09	81.426	63.028	18.2	2.4426e-06	25.101	0.00031717	0.00031471	8.653e-05	1065.1	3.3755e-06	3.3699e-06	1163.1	226.38	3.3311e-06	3.3535e-06	286.2	81.425	64.001	19.028	3.3915e-06	26.279	410.040	236.869	200.879	106.626	140.110	274.915	106.285	114.176	229.053	452.266	113.701	120.914	120.568	128.062	181.633	127.240	-8191	255	
1023.091	1	1	0	0	0.22634	0.26468	0.11181	0.12301	0.022693	0.066415	0.26815	0.22285	0.13823	0.2074	0.10178	0.1049	0.20304	0.19788	0.25719	0.05279	-4.7583	-4.2396	-5.0917	-4.9771	-4.4563	-5.4042	-4.5292	-4.8042	-5.1521	-4.3479	-5.2917	-4.9729	-4.3708	-5.3146	-4.5292	-4.8583	289.623	241.750	452.004	410.031	311.650	391.992	411.038	400.168	241.290	440.297	200.105	431.529	380.418	412.744	426.637	245.730	0.00076484	0.00085641	0.00013583	1093.5	3.0661e-06	2.8354e-06	1193.3	228.05	4.1352e-06	8.3612e-06	290.04	81.748	63.397	18.135	1.1327e-05	25.044	0.00031439	0.00031575	8.7248e-05	1065.5	3.5043e-06	3.4985e-06	1163.8	227.17	3.4791e-06	3.4887e-06	287.49	81.629	64.246	19.023	3.3957e-06	26.248	405.224	191.403	440.678	106.519	214.539	407.032	106.497	114.259	192.357	256.549	113.774	120.665	121.210	128.490	216.655	127.747	-8191	255	
1023.187	1	1	0	0	0.14095	0.15274	0.070687	0.29685	0.11559	0.046023	0.11523	0.22717	0.08833	0.088649	0.024678	0.10532	0.19173	0.1922	0.32007	0.10311	-4.9313	-4.4313	-5.1062	-4.8562	-4.3583	-5.2	-4.6583	-4.7042	-5.3417	-4.4292	-4.9792	-5.0542	-4.4458	-5.3542	-4.7792	-4.6271	437.863	447.776	455.611	450.963	377.844	308.079	449.001	291.277	394.226	241.751	220.264	320.580	302.665	329.885	424.904	409.689	0.00080916	2.0308e-05	7.8278e-05	1095.8	6.0758e-06	3.977e-06	1193.8	228.74	3.1683e-06	3.9982e-06	292.54	81.945	62.851	18.318	1.1176e-06	25.111	0.00031184	0.00031116	8.6373e-05	1064.5	3.4198e-06	3.4222e-06	1165.1	227.05	3.4723e-06	3.4304e-06	288.05	81.786	64.132	19.185	3.4435e-06	26.362	387.130	313.668	127.422	106.780	208.208	428.513	106.421	114.161	197.161	229.057	113.783	120.362	121.099	128.324	343.419	127.433	-8191	255	
1023.283	1	1	0	0	0.059293	0.18659	0.10777	0.12275	0.095611	0.069129	0.25142	0.30283	0.20846	0.098825	0.16447	0.10576	0.12566	0.20849	0.049953	0.05328	-4.8604	-4.3938	-4.8708	-4.9646	-4.2521	-5.1438	-4.9938	-4.6062	-5.1646	-4.2979	-4.9479	-5.25	-4.3167	-5.1021	-4.7854	-4.4958	293.772	381.980	387.173	391.882	385.156	203.627	311.637	120.132	270.826	151.683	297.461	367.080	351.548	360.488	137.807	424.872	0.00094191	0.00010311	0.00012468	1098.9	2.2928e-06	4.6906e-06	1194.9	229.55	3.5443e-06	3.4734e-06	291.08	81.99	63.108	18.401	7.0084e-06	25.479	0.00032399	0.00032089	8.9701e-05	1068.6	3.5269e-06	3.5526e-06	1167.4	228.46	3.6534e-06	3.686e-06	289.33	82.768	65.034	19.435	3.8029e-06	26.81	401.860	354.802	131.919	106.302	193.910	265.220	106.554	114.159	275.654	141.177	113.653	120.860	120.962	128.452	220.730	127.231	-8191	255	
1023.379	1	1	0	0	0.043224	0.12504	0.21143	0.1707	0.12797	0.1672	0.27696	0.089684	0.10744	0.12779	0.2403	0.16113	0.080432	0.15475	0.20268	0.0088104	-5.1875	-4.4896	-4.6458	-5.2688	-4.2937	-5.2708	-4.9479	-4.4688	-5.4062	-4.6083	-4.8	-5.2063	-4.4354	-5.1167	-5.2167	-4.3333	288.234	244.227	314.229	431.742	269.794	285.496	433.222	267.417	235.679	228.438	417.357	264.931	369.118	383.120	143.519	198.825	0.00069146	0.00011167	0.00022221	1094.6	4.788e-06	2.215e-06	1203.6	229.48	6.4156e-06	3.4651e-06	292.13	82.385	63.52	18.261	8.0735e-06	25.383	0.00035016	0.00035084	9.7699e-05	1075.3	3.8336e-06	3.8373e-06	1176.1	229.58	3.8267e-06	3.7792e-06	290.89	83.198	65.208	19.487	3.7488e-06	26.772	402.823	320.567	182.048	106.726	451.865	207.286	106.549	113.988	271.083	219.647	113.487	120.906	120.767	128.269	142.123	127.205	-8191	255	
1023.476	1	1	0	0	0.11736	0.12404	0.1798	0.22333	0.15072	0.15271	0.098975	0.25828	0.10197	0.091887	0.1273	0.15723	0.07117	0.13655	0.063327	0.29514	-5.0146	-4.475	-4.5708	-5.4125	-4.4958	-5.0542	-5.1458	-4.4563	-5.2125	-4.6	-4.6167	-5.3104	-4.5188	-4.6937	-4.9417	-4.375	176.447	328.907	339.926	95.879	352.698	261.880	409.241	398.624	124.872	453.967	429.776	259.678	232.921	347.703	251.530	365.199	0.00082204	0.00011425	6.6507e-05	1093.8	6.9901e-06	3.3901e-06	1203.7	228.94	4.851e-06	3.2229e-06	290.2	82.432	63.735	18.397	1.3532e-06	25.619	0.00034637	0.00034587	9.6423e-05	1077.3	3.817e-06	3.8028e-06	1177.9	229.99	3.8311e-06	3.8551e-06	291.77	83.238	65.611	19.573	3.8883e-06	26.958	390.681	139.250	401.382	106.487	221.353	360.222	106.464	113.857	221.341	122.002	113.836	120.520	120.976	127.807	390.442	127.538	-8191	255	
1023.572	1	1	0	0	0.21629	0.25885	0.18319	0.23859	0.10993	0.11349	0.10875	0.08303	0.043731	0.1578	0.060995	0.25052	0.15091	0.28659	0.17465	0.30398	-5.0417	-4.6729	-4.3812	-5.2688	-4.3042	-4.875	-5.2583	-4.4667	-5.1646	-4.8646	-4.5042	-5.2354	-4.4938	-4.8438	-5.0563	-4.4563	337.539	419.287	197.808	447.420	211.844	359.326	408.431	317.346	168.548	175.880	333.071	194.195	305.719	427.184	448.362	418.519	0.00077891	0.0002871	0.00012169	1105.1	7.1032e-06	3.3309e-06	1200.4	230.67	3.5867e-06	1.8025e-06	292.8	82.502	64.269	18.268	2.6413e-06	25.439	0.00035716	0.00035412	9.8817e-05	1080.9	3.8759e-06	3.8613e-06	1179.2	230.83	3.8677e-06	3.8456e-06	291.5	83.298	65.519	19.525	3.79e-06	26.875	394.561	358.955	262.616	106.261	214.529	279.509	106.392	114.224	345.893	384.620	113.112	120.755	120.652	128.522	277.546	127.121	-8191	255	
1023.668	1	1	0	0	0.12723	0.14046	0.080616	0.18778	0.23088	0.15029	0.070271	0.092264	0.20132	0.24183	0.047585	0.040514	0.39491	0.091238	0.24713	0.22635	-4.8542	-4.8354	-4.4521	-5.3542	-4.4021	-4.7208	-5.5312	-4.5125	-5	-5.0646	-4.4604	-5.4563	-4.5583	-4.5896	-5.0229	-4.2375	132.818	120.374	245.949	434.242	442.067	166.064	433.801	443.748	259.117	312.859	238.549	312.948	449.058	197.185	447.580	136.207	0.00074621	0.0001978	2.7341e-05	1101.2	7.4913e-06	3.4881e-06	1204.1	230.93	3.5026e-06	3.0158e-06	293.67	82.085	63.737	18.568	2.9815e-06	25.663	0.00034769	0.0003489	9.6927e-05	1080.7	3.8429e-06	3.8672e-06	1180.9	231.04	3.8849e-06	3.9132e-06	293.01	83.542	65.896	19.727	3.9552e-06	27.096	413.341	319.736	444.715	106.804	104.357	102.810	106.626	114.179	330.762	355.581	113.559	120.350	120.940	128.153	272.422	127.450	-8191	255	
1023.788	1	1	0	0	0.11546	0.20398	0.026633	0.056919	0.29899	0.25513	0.19633	0.10507	0.01591	0.19287	0.069811	0.10184	0.13864	0.068517	0.059152	0.042985	-4.6417	-4.9333	-4.4688	-5.2896	-4.5312	-4.5792	-5.5	-4.5563	-4.9604	-4.9812	-4.2958	-5.0417	-4.8396	-4.5375	-5.3708	-4.4688	243.613	124.947	224.279	265.360	99.408	128.856	455.903	432.370	412.765	438.006	401.749	183.327	393.575	114.146	252.717	400.395	0.0011619	0.00054954	6.491e-05	1100.9	7.8936e-06	4.4038e-06	1199.3	231.07	1.2193e-05	2.0504e-06	291.73	82.855	63.995	18.524	5.881e-06	25.562	0.00036165	0.00035896	9.9886e-05	1083.1	3.9095e-06	3.9037e-06	1179.3	231.93	3.916e-06	3.9033e-06	292.39	83.722	65.759	19.741	3.9243e-06	27.078	387.295	286.759	278.168	106.524	167.760	346.663	106.583	114.150	224.984	321.038	113.602	120.584	120.615	127.794	195.464	127.292	-8191	255	
1023.885	1	1	0	0	0.02067	0.11266	0.14103	0.11489	0.28961	0.1854	0.28262	0.22209	0.088517	0.087118	0.11501	0.077893	0.16228	0.12455	0.19071	0.064745	-4.6479	-5.2104	-4.3313	-5.2958	-4.7917	-4.4917	-5.3896	-4.5125	-4.8667	-5.2562	-4.4417	-4.9792	-4.6854	-4.3646	-5.3313	-4.7167	306.148	278.497	374.872	449.102	258.376	227.147	408.445	380.876	205.219	169.901	395.711	348.727	171.199	139.677	305.255	256.035	0.00085514	0.00024287	3.314e-05	1102.3	6.2383e-06	1.7477e-06	1207	232.52	8.5403e-06	3.7914e-07	293.98	82.311	64.088	18.48	4.7248e-06	25.709	0.00035795	0.00035932	9.9788e-05	1081.8	3.9057e-06	3.8957e-06	1180.9	232.44	3.9225e-06	3.9345e-06	293.09	83.888	66.05	19.745	3.9092e-06	27.156	417.259	279.413	436.302	106.845	136.735	190.381	106.547	114.257	229.499	97.720	113.650	120.098	120.271	127.693	120.325	126.850	-8191	255	
1023.981	1	1	0	0	0.087257	0.16053	0.32259	0.2035	0.14266	0.17948	0.12621	0.23061	0.054999	0.1659	0.15549	0.11907	0.3051	0.040692	0.12645	0.30559	-4.4583	-5.0896	-4.1583	-5.0312	-4.8562	-4.4333	-5.5771	-4.6771	-4.7042	-5.1125	-4.2958	-5.0396	-5.1396	-4.5687	-5.25	-4.9146	372.883	237.672	99.713	398.393	397.761	427.444	370.022	348.252	444.790	388.525	316.213	321.581	394.804	154.504	179.442	110.867	0.0010125	0.0002263	0.00014366	1105.2	3.6996e-06	2.9635e-06	1209.7	231.63	7.6945e-06	5.9189e-06	294.24	82.541	64.275	18.595	1.0924e-05	25.837	0.00035547	0.00035154	9.7644e-05	1080.7	3.7501e-06	3.7098e-06	1181.4	231.24	3.7103e-06	3.6841e-06	292.36	83.292	65.72	19.729	3.8998e-06	27.292	381.878	270.476	262.190	106.375	216.389	265.285	106.461	114.217	290.874	237.052	113.557	120.655	121.040	127.713	261.578	127.819	-8191	255	
1024.077	1	1	0	0	0.20959	0.19621	0.017672	0.35356	0.13661	0.12748	0.11597	0.095667	0.11213	0.28804	0.16118	0.1679	0.37844	0.15362	0.14222	0.0029119	-4.3333	-5.2146	-4.3167	-4.8396	-4.8104	-4.3208	-5.2208	-4.8042	-4.5708	-5.3042	-4.6021	-4.8875	-5.1729	-4.2854	-5.1104	-4.7146	320.576	247.687	202.391	431.098	328.262	329.762	160.841	342.165	116.976	289.374	388.303	379.357	360.291	111.757	375.802	375.858	0.00086176	0.00017302	0.00013096	1107.2	4.7474e-06	4.1806e-06	1214.1	233.62	1.0178e-05	9.6933e-08	293.51	83.057	64.47	18.719	3.1027e-06	26.034	0.00036935	0.00037337	0.00010489	1091.5	4.229e-06	4.2633e-06	1191.7	235.1	4.362e-06	4.3759e-06	297.37	85.253	67.348	20.162	4.287e-06	27.78	401.859	341.205	308.576	106.433	128.358	175.867	106.591	114.052	208.430	440.774	113.458	120.435	121.103	127.727	421.531	127.254	-8191	255	
1024.171	1	1	0	0	0.047923	0.15332	0.097997	0.10234	0.18356	0.21419	0.22667	0.15201	0.11751	0.1675	0.087495	0.21214	0.20908	0.28786	0.20341	0.11483	-4.1583	-5.3938	-4.5396	-4.9792	-5.1896	-4.5188	-5.1937	-4.9021	-4.3125	-5.2396	-4.7063	-4.7271	-5.3167	-4.4333	-5.0938	-5.0792	311.685	451.247	314.364	406.891	414.170	381.736	371.789	174.628	144.203	440.931	112.422	370.303	140.026	427.377	420.156	392.491	0.0013423	0.00094332	0.00014422	1111.1	3.4742e-06	2.2946e-06	1214.3	234.74	5.0011e-06	2.8852e-06	295.57	83.095	64.237	18.613	2.3258e-07	25.932	0.00038887	0.00038076	0.00010502	1092.9	4.0409e-06	3.9674e-06	1189.7	233.53	3.8185e-06	3.7123e-06	292.99	83.543	65.52	19.55	3.5295e-06	27.059	380.334	229.584	183.584	106.445	169.343	147.927	106.633	114.186	237.998	199.874	113.240	120.451	120.958	128.193	120.620	127.311	-8191	255	
1024.267	1	1	0	0	0.071981	0.17864	0.19305	0.030011	0.16827	0.29867	0.13086	0.054818	0.019519	0.051852	0.067814	0.21668	0.23243	0.092664	0.1018	0.1686	-3.9	-5.1979	-4.5792	-4.7792	-5.3583	-4.3958	-5.1854	-4.9333	-4.2937	-5.2646	-4.6708	-4.6208	-5.2458	-4.3917	-4.725	-5.2792	241.946	261.833	127.979	326.991	237.211	119.065	422.309	236.959	219.792	262.041	424.022	392.871	158.289	394.325	315.937	234.161	0.00075132	0.00037635	0.00011075	1110.6	2.8743e-06	2.9416e-06	1211.4	232.95	4.8127e-06	9.1861e-07	293.26	82.82	64.322	18.643	5.1399e-06	25.953	0.0003255	0.00032109	8.9446e-05	1080.7	3.5463e-06	3.5544e-06	1180.8	231.73	3.5293e-06	3.5314e-06	291.73	83.091	65.06	19.474	3.4855e-06	26.995	395.479	445.542	437.276	106.307	247.950	392.160	106.652	114.117	311.314	253.019	113.645	120.401	120.820	127.868	167.844	127.069	-8191	255	
1024.388	1	1	0	0	0.12651	0.11604	0.0056102	0.22991	0.31225	0.097404	0.044869	0.18778	0.125	0.092582	0.30794	0.21669	0.13962	0.17966	0.086589	0.070685	-4.025	-5.3229	-4.7875	-4.5604	-5.2312	-4.3792	-4.8125	-5.1729	-4.4062	-5.2146	-4.9375	-4.4792	-5.2688	-4.5458	-4.8021	-5.1625	161.956	322.665	193.829	416.939	253.214	356.666	354.660	140.123	299.054	254.067	434.961	314.497	391.512	431.657	168.955	243.549	0.0011423	0.00053459	6.9445e-05	1108.2	3.6009e-06	4.9642e-06	1207.4	232.07	1.026e-05	7.0059e-06	294.44	82.554	63.895	18.541	5.2304e-06	25.828	0.00031572	0.00030896	8.5109e-05	1074.9	3.2302e-06	3.1628e-06	1171	229.02	2.9737e-06	2.9315e-06	287	81.13	63.647	18.981	2.899e-06	26.368	395.049	204.750	352.618	106.431	186.516	247.148	106.248	114.232	216.803	295.120	113.569	120.394	121.275	127.880	210.732	127.625	-8191	255	
1024.482	1	1	0	0	0.10897	0.20155	0.070334	0.23704	0.10267	0.20667	0.16645	0.15943	0.14708	0.094957	0.14576	0.07595	0.23913	0.16158	0.16923	0.085347	-3.9167	-4.9521	-4.9292	-4.6146	-5.2229	-4.775	-4.7667	-5.2667	-4.4354	-5.1042	-5.0583	-4.5167	-5.2812	-4.7167	-4.6646	-5.4688	333.624	314.179	212.234	312.852	287.062	447.575	295.656	398.861	164.026	97.243	434.607	452.607	178.054	104.654	264.476	285.203	0.00087828	0.0001905	0.00017827	1098.9	3.593e-06	4.3201e-06	1201.5	232.42	5.1261e-06	4.8974e-06	294.19	82.724	64.392	18.598	2.7785e-07	25.909	0.00027451	0.00027504	7.874e-05	1069.6	3.2659e-06	3.3044e-06	1170.9	230.33	3.5048e-06	3.574e-06	291.24	83.235	65.807	19.733	3.892e-06	27.469	399.337	223.599	292.480	106.478	204.931	154.604	106.453	114.517	226.435	148.172	113.638	120.292	120.457	127.782	103.302	127.302	-8191	255	
1024.579	1	1	0	0	0.22941	0.10944	0.10464	0.22807	0.22507	0.007274	0.24349	0.23716	0.18046	0.099194	0.1316	0.071583	0.27985	0.090946	0.077388	0.16395	-3.8917	-4.8771	-4.8562	-4.4375	-5.4667	-4.6875	-4.8562	-5.5604	-4.4	-4.9125	-5.0792	-4.3167	-5.2333	-4.8208	-4.6646	-5.5167	104.343	245.746	244.336	156.696	316.901	171.671	106.586	367.833	181.804	413.173	199.745	371.764	417.487	147.362	213.985	320.448	0.0012543	0.00021313	0.00011557	1110.9	8.7533e-06	1.9812e-06	1206.1	233.92	3.9251e-06	2.1598e-06	295.9	83.132	64.532	18.43	1.4872e-06	26.007	0.00036447	0.00036321	0.00010069	1085.7	3.9088e-06	3.8287e-06	1181.6	232.73	3.5817e-06	3.4834e-06	290.7	82.486	64.501	19.164	3.082e-06	26.474	405.680	143.438	399.335	106.410	203.619	364.106	106.099	114.215	262.272	252.198	113.340	120.536	120.630	128.164	215.688	127.483	-8191	255	
1024.675	1	1	0	0	0.059129	0.1253	0.079109	0.2379	0.099504	0.086341	0.25514	0.22907	0.076481	0.23403	0.26759	0.24995	0.16701	0.28615	0.31799	0.08304	-4.2604	-4.9	-5.2354	-4.5458	-5.2812	-4.9625	-4.6271	-5.3542	-4.3375	-4.7625	-5.1292	-4.1875	-5.1438	-4.7917	-4.5146	-5.2896	328.312	269.325	424.131	358.876	144.294	246.608	373.946	157.779	294.325	116.711	391.982	404.002	145.023	288.511	297.533	346.492	0.0012844	0.00020184	0.00010593	1101	4.4775e-06	3.3715e-06	1203.8	232.07	8.073e-06	6.3996e-06	293.58	82.111	63.655	18.509	2.2852e-06	25.917	0.0002764	0.00027026	7.5076e-05	1065.9	2.9921e-06	3.0332e-06	1168.4	228.76	3.1783e-06	3.2112e-06	289.32	82.308	64.539	19.403	3.427e-06	26.995	395.723	205.397	321.704	106.281	246.742	302.145	106.157	113.736	255.577	212.198	113.320	120.387	120.412	127.774	251.401	127.780	-8191	255	
1024.771	1	1	0	0	0.12292	0.018139	0.17925	0.11977	0.30881	0.14601	0.28842	0.36563	0.18772	0.24728	0.17228	0.082325	0.1662	0.16813	0.09155	0.13507	-4.3396	-4.8688	-5.2667	-4.2729	-4.9708	-4.9125	-4.5042	-5.2875	-4.6875	-4.6396	-5.2375	-4.1708	-4.7937	-5.0417	-4.35	-5.3229	280.733	236.285	111.956	447.924	293.112	456.075	381.125	347.304	324.242	435.275	318.004	265.893	306.262	364.362	244.436	207.838	0.00082213	0.00038582	0.00014969	1103.1	3.0252e-06	3.7588e-06	1206.6	232.35	1.1429e-05	1.1919e-06	293.06	82.548	63.926	18.587	7.5524e-07	25.636	0.00031743	0.00031507	8.716e-05	1076	3.3641e-06	3.348e-06	1174.9	229.79	3.223e-06	3.2106e-06	288.62	82.136	64.231	19.277	3.1455e-06	26.489	382.422	268.863	129.138	106.150	190.551	336.053	106.146	114.156	235.366	431.797	113.537	120.415	120.628	127.973	381.839	127.101	-8191	255	
1024.867	1	1	0	0	0.1166	0.11613	0.12609	0.13903	0.16429	0.11525	0.021649	0.22504	0.31734	0.14923	0.10837	0.086887	0.27065	0.30585	0.133	0.1018	-4.4771	-4.425	-5.2042	-4.5083	-4.9167	-5.1375	-4.4104	-5.3562	-4.7312	-4.5708	-5.4354	-4.5875	-4.6667	-5.1104	-4.2958	-5.1854	175.744	258.637	394.280	372.851	250.215	153.707	161.025	405.304	335.354	431.705	324.337	309.426	318.725	182.275	315.045	148.434	0.0011671	0.00050829	0.00010063	1106.1	3.1772e-06	4.7259e-06	1204.1	232.55	2.0079e-06	1.9896e-06	295.31	82.705	64.362	18.585	3.188e-06	25.749	0.00028982	0.00028701	8.0395e-05	1070.6	3.1593e-06	3.156e-06	1172.8	229.54	3.1933e-06	3.1857e-06	289.4	81.887	64.324	19.32	3.1476e-06	26.616	391.646	268.294	430.142	106.212	298.234	266.498	106.231	113.934	393.880	297.823	113.484	120.283	120.758	127.578	289.477	127.282	-8191	255	
1024.963	1	1	0	0	0.054926	0.1592	0.31313	0.21831	0.076087	0.20239	0.038132	0.18694	0.29816	0.099753	0.1974	0.11074	0.25703	0.090035	0.093858	0.15572	-4.425	-4.4771	-5.1875	-4.6875	-4.775	-4.9688	-4.2792	-5.1979	-4.8833	-4.2958	-5.3313	-4.5146	-4.5583	-5.3521	-4.3229	-5.1167	256.798	161.841	303.085	408.433	397.215	198.372	439.134	103.322	210.207	135.154	115.824	126.352	356.600	146.923	361.680	262.013	0.00094858	0.0002677	3.1614e-05	1106.1	8.7578e-06	4.3317e-06	1203.8	231.93	2.0803e-06	1.9763e-06	294.21	82.604	63.795	18.367	2.8356e-06	25.877	0.00028524	0.0002834	7.7264e-05	1067.9	3.013e-06	2.9716e-06	1167.4	227.77	2.9391e-06	2.9677e-06	287.34	81.365	63.754	19.032	2.9406e-06	26.417	388.576	116.218	422.993	106.057	155.122	332.202	106.131	113.635	226.282	322.878	113.396	120.494	120.428	127.883	229.681	126.551	-8191	255	
1025.059	1	1	0	0	0.22586	0.093294	0.087688	0.13403	0.083232	0.21606	0.25715	0.21556	0.20501	0.2119	0.068729	0.13952	0.09858	0.088546	0.28034	0.165	-4.6708	-4.3583	-5.2979	-4.8042	-4.525	-5.25	-4.6167	-4.9792	-5.0271	-4.2417	-5.1708	-4.7583	-4.5563	-5.3354	-4.325	-5.0188	304.775	186.811	305.668	419.503	123.558	152.149	418.222	350.938	188.132	299.663	181.929	415.489	264.190	277.169	425.935	412.195	0.00077441	0.00012255	0.00015655	1101.7	4.7804e-06	5.5794e-06	1202.3	232.33	5.603e-06	2.3217e-06	292.74	82.877	64.16	18.395	4.923e-06	25.887	0.00026898	0.00026607	7.3497e-05	1064.6	2.9031e-06	2.8781e-06	1165.2	227.66	2.8751e-06	2.8475e-06	286.45	81.26	63.628	18.996	2.8463e-06	26.31	403.258	350.089	257.430	106.218	186.465	252.779	106.412	113.835	220.347	200.159	113.515	120.428	120.587	127.919	215.754	127.197	-8191	255	
1025.180	1	1	0	0	0.14752	0.085443	0.070511	0.094427	0.17839	0.14113	0.26677	0.18064	0.18177	0.086764	0.11854	0.042144	0.23227	0.088176	0.1559	0.14858	-4.975	-4.2917	-5.0125	-4.8604	-4.5896	-5.2083	-4.4938	-4.8542	-5.0437	-4.5188	-5.3833	-4.9604	-4.2833	-5.3479	-4.4833	-4.7167	269.710	142.863	336.219	417.606	180.392	146.070	450.497	353.168	335.080	314.239	387.058	206.473	416.561	135.010	199.469	455.622	0.0010104	0.000345	0.00016246	1104.1	4.2132e-06	1.5745e-06	1202.4	232.13	3.9923e-06	4.4995e-07	293.24	82.38	63.273	18.42	3.6567e-06	25.837	0.00026707	0.00026302	7.2956e-05	1064	2.8953e-06	2.8576e-06	1166.2	227.55	2.8488e-06	2.8692e-06	286.11	81.154	63.497	18.959	2.9478e-06	26.423	402.912	142.969	134.162	106.427	195.497	241.337	105.971	114.239	164.141	431.333	113.369	120.368	120.749	128.124	199.090	127.157	-8191	255	
1025.276	1	1	0	0	0.1349	0.16308	0.091332	0.15943	0.11829	0.12034	0.24061	0.14793	0.062012	0.044662	0.14852	0.087834	0.15143	0.017452	0.1712	0.025634	-4.8313	-4.4042	-5.1417	-4.9042	-4.3604	-5.1458	-4.4917	-4.8104	-5.1604	-4.4521	-5.1625	-4.9437	-4.2292	-5.3313	-4.7833	-4.6646	265.988	331.587	346.492	118.472	223.084	259.462	424.654	118.957	160.941	193.390	438.783	230.777	100.557	367.936	275.916	297.464	0.0008426	0.00042159	0.00011527	1099.1	4.4623e-07	1.8811e-06	1202.4	232.56	4.0994e-06	2.0934e-06	294.25	82.69	63.266	18.533	3.3685e-06	25.836	0.00027576	0.00027732	7.6879e-05	1063.9	3.1077e-06	3.138e-06	1167.4	228.47	3.1271e-06	3.1514e-06	288.3	81.88	63.904	19.156	3.185e-06	26.54	412.315	156.609	170.877	106.560	308.883	288.036	106.285	113.895	156.636	110.032	113.311	120.671	120.354	128.221	104.525	127.255	-8191	255	
1025.348	1	1	0	0	0.134	0.043413	0.080793	0.13731	0.090363	0.072354	0.17379	0.16025	0.21069	0.14768	0.095681	0.34087	0.18089	0.13583	0.055377	0.14589	-4.8229	-4.3625	-4.9604	-5.1729	-4.2792	-5.1896	-4.7958	-4.6521	-5.1292	-4.3812	-4.7896	-5.1125	-4.4104	-5.2458	-4.725	-4.675	365.567	440.805	394.924	104.947	396.126	350.591	99.735	103.930	142.261	130.343	126.556	355.559	437.270	340.377	338.965	184.407	0.0011094	0.00024873	0.00026411	1103.2	2.7953e-06	4.4976e-06	1191.4	231.51	5.8574e-06	2.1888e-06	292.31	81.971	64.166	18.454	6.4951e-06	25.83	0.00029345	0.00029249	8.0755e-05	1067.7	3.2341e-06	3.2381e-06	1165.4	229.07	3.2549e-06	3.2485e-06	288.64	82.007	64.397	19.197	3.2498e-06	26.613	381.571	248.251	239.825	106.691	455.609	381.724	106.350	114.101	236.365	280.957	113.365	120.930	120.611	127.699	196.701	126.629	-8191	255	
1025.468	1	1	0	0	0.14147	0.062584	0.086529	0.10816	0.075457	0.17622	0.32374	0.25114	0.18208	0.13246	0.11365	0.046427	0.10905	0.18889	0.0793	0.089322	-4.9833	-4.4125	-4.9521	-5.2625	-4.4146	-5.0792	-5.1833	-4.675	-5.3438	-4.5271	-4.8333	-5.175	-4.2688	-5.0604	-4.9083	-4.4938	153.571	230.116	316.006	331.676	146.957	391.169	359.985	379.406	151.868	179.233	153.094	271.267	274.094	197.585	202.820	413.163	0.00089764	0.00034629	0.00018143	1098.8	3.6886e-06	3.2461e-06	1202.2	232.46	4.537e-06	2.4862e-06	292.3	82.647	63.961	18.377	6.6645e-06	25.672	0.00029952	0.00030239	8.4917e-05	1068.5	3.3174e-06	3.3081e-06	1169.3	229.76	3.3329e-06	3.3223e-06	289.45	82.582	64.704	19.334	3.4295e-06	26.822	394.437	333.944	219.970	106.386	208.286	108.190	106.507	113.842	444.585	322.938	113.561	120.737	120.438	127.676	248.694	127.010	-8191	255	
1025.565	1	1	0	0	0.10958	0.1546	0.098311	0.074895	0.10947	0.24247	0.17285	0.19158	0.16137	0.24264	0.27063	0.19186	0.11413	0.1931	0.070807	0.1162	-5.0458	-4.5458	-4.4	-5.2812	-4.4563	-4.9792	-5.0833	-4.3729	-5.2063	-4.6687	-4.6896	-5.3542	-4.3896	-4.9083	-5.0167	-4.2646	137.754	201.458	327.723	196.255	314.447	248.724	197.332	414.380	294.501	292.241	381.986	455.577	436.931	288.684	406.587	190.666	0.00092649	0.00036826	5.3431e-05	1102.1	5.9566e-06	1.285e-07	1198.4	232.93	4.6253e-06	1.5082e-06	293.52	81.758	63.882	18.442	6.3289e-06	25.712	0.00031834	0.0003135	8.7976e-05	1073.7	3.4649e-06	3.4731e-06	1171.8	230.26	3.5069e-06	3.4851e-06	290.39	82.457	64.825	19.42	3.5253e-06	26.847	408.743	401.624	430.478	106.552	279.914	116.149	106.435	113.910	336.017	212.574	113.029	120.398	120.742	128.178	173.252	126.661	-8191	255	
1025.659	1	1	0	0	0.07404	0.18939	0.10405	0.17174	0.21248	0.060383	0.19314	0.22978	0.22136	0.23228	0.4274	0.25582	0.16421	0.023088	0.022943	0.069967	-4.9917	-4.675	-4.5646	-5.3396	-4.3063	-4.8604	-5.1479	-4.5625	-5.175	-4.6604	-4.5875	-5.3354	-4.5479	-4.7312	-5.1396	-4.5875	123.895	435.722	122.323	423.731	313.239	126.642	384.309	442.562	399.822	222.134	429.732	413.613	286.496	419.914	137.626	392.109	0.0010018	0.00073628	0.00012854	1102	2.4765e-06	2.0702e-06	1203.4	232.22	5.8037e-06	2.8033e-06	293.87	82.113	63.536	18.375	3.8891e-06	25.664	0.00032025	0.00031426	8.6756e-05	1070.2	3.3602e-06	3.3514e-06	1169.5	229.4	3.3003e-06	3.3265e-06	288.7	81.844	64.063	19.195	3.2758e-06	26.609	393.957	251.071	265.776	106.194	162.549	379.625	106.459	114.247	256.930	280.611	113.620	120.293	120.495	128.008	213.823	127.083	-8191	255	
1025.757	1	1	0	0	0.030846	0.14758	0.17887	0.18973	0.057812	0.052697	0.14893	0.10295	0.18084	0.12785	0.25475	0.15197	0.26832	0.10189	0.13362	0.078422	-4.775	-4.9583	-4.5333	-5.3375	-4.4125	-4.6583	-5.2771	-4.4604	-5.0563	-4.7625	-4.5833	-5.3917	-4.6333	-4.7562	-5.1312	-4.3792	295.525	192.073	382.250	393.373	364.638	288.193	361.571	423.160	421.402	372.105	142.755	238.825	443.168	96.755	126.599	335.637	0.0010002	0.00074894	2.9124e-05	1099.2	4.3477e-06	2.9211e-06	1204.8	231.34	6.3351e-06	4.022e-06	296.63	81.557	63.717	18.473	1.5566e-06	25.53	0.00030476	0.00030273	8.4894e-05	1070.5	3.3866e-06	3.4315e-06	1172.9	230.66	3.529e-06	3.563e-06	291.36	82.798	65.04	19.459	3.6279e-06	26.886	393.666	180.568	182.355	106.606	181.712	147.040	106.228	114.073	179.245	264.951	113.465	120.729	120.751	127.935	265.881	127.393	-8191	255	
1025.876	1	1	0	0	0.073273	0.23808	0.31233	0.16459	0.073083	0.27029	0.31149	0.16488	0.18287	0.20832	0.19434	0.2455	0.028759	0.15967	0.25755	0.047179	-4.8063	-5.1542	-4.4583	-5.3042	-4.7021	-4.5687	-5.4979	-4.5188	-5.0417	-4.9708	-4.4792	-5.2438	-4.7104	-4.4854	-5.2646	-4.5437	195.294	186.288	184.324	116.922	171.333	268.093	416.399	418.393	200.471	293.155	370.211	430.374	207.413	418.009	426.300	377.791	0.00093637	5.7045e-05	4.169e-05	1101.8	9.5802e-06	7.4504e-06	1200.7	233.26	8.2577e-06	6.1106e-06	294.86	82.871	63.702	18.436	1.984e-06	25.709	0.00033084	0.00033039	9.1178e-05	1075	3.5362e-06	3.5048e-06	1172.4	230.5	3.4463e-06	3.461e-06	289.81	82.701	64.704	19.331	3.4777e-06	26.727	415.284	203.950	235.866	106.513	205.445	223.151	106.522	114.206	220.906	231.587	113.547	120.731	120.556	127.825	273.696	127.643	-8191	255	
1025.972	1	1	0	0	0.11854	0.04574	0.21942	0.11326	0.10664	0.16732	0.1259	0.35196	0.28232	0.14752	0.13689	0.19828	0.23769	0.37869	0.14314	0.0518	-4.7833	-5.1542	-4.4646	-5.3688	-4.9917	-4.4875	-5.6417	-4.6292	-4.7063	-5.1979	-4.5417	-5.0979	-4.8	-4.3646	-5.4208	-4.7937	231.120	183.730	314.346	447.843	256.957	297.031	410.589	421.839	134.907	112.790	396.486	142.050	436.399	120.659	190.057	443.850	0.00091226	0.00031038	4.144e-05	1097.5	5.7939e-06	2.0418e-06	1201.8	231.68	8.9495e-06	4.3433e-06	294.3	82.228	63.569	18.421	5.195e-06	25.973	0.00031746	0.00031687	8.8301e-05	1070.9	3.4733e-06	3.4708e-06	1172.9	229.93	3.4932e-06	3.5255e-06	290.48	82.598	64.863	19.374	3.5083e-06	26.788	402.934	239.768	248.903	106.326	239.163	150.594	106.334	114.177	248.240	240.174	113.445	120.667	120.644	128.145	389.467	126.863	-8191	255	
1026.068	1	1	0	0	0.17326	0.22311	0.24298	0.39157	0.12221	0.10514	0.16539	0.044714	0.31552	0.12314	0.19028	0.2632	0.14824	0.12835	0.14757	0.18391	-4.4958	-5.1312	-4.2875	-5.125	-5.0104	-4.4938	-5.3979	-4.5729	-4.7312	-5.2229	-4.4042	-5.0479	-5.0687	-4.3583	-5.1417	-4.6146	334.426	283.693	250.861	432.729	173.364	295.254	396.583	191.535	319.302	98.589	436.837	389.520	110.524	369.476	409.515	408.114	0.00083267	0.00034058	0.00011181	1098.5	6.0356e-06	5.4817e-06	1202.2	231.99	8.0796e-06	4.8582e-06	293.98	82.369	64.347	18.584	3.5984e-06	25.737	0.00032756	0.00032256	9.0981e-05	1072.4	3.5675e-06	3.572e-06	1173.5	230.51	3.5553e-06	3.5454e-06	290	82.593	64.883	19.373	3.4671e-06	26.763	382.154	293.017	187.895	106.299	170.621	264.270	106.513	114.160	287.016	205.461	113.166	120.578	120.861	128.025	145.566	127.617	-8191	255	
1026.164	1	1	0	0	0.0079947	0.14132	0.13484	0.060133	0.14268	0.075869	0.19016	0.24146	0.036675	0.11126	0.29789	0.1124	0.11189	0.14445	0.16478	0.095129	-4.3208	-5.1479	-4.4917	-5.1375	-5.0917	-4.4083	-5.4083	-4.9729	-4.6521	-5.2646	-4.4854	-4.7479	-5.0854	-4.3292	-5.1854	-4.8375	187.771	346.235	318.139	242.893	410.879	278.695	125.336	429.932	103.228	110.010	437.450	286.152	142.616	435.376	171.005	455.702	0.0010341	0.00062317	0.0001833	1101.2	6.2067e-06	1.0549e-06	1201.1	231.1	3.9584e-06	3.4595e-06	293.79	82.076	64.121	18.483	3.8485e-06	25.822	0.00032079	0.00031852	8.7714e-05	1072.3	3.4682e-06	3.4287e-06	1174.1	230.09	3.4299e-06	3.4529e-06	289.53	82.289	64.826	19.358	3.5461e-06	26.765	387.362	149.939	222.218	106.221	169.303	228.952	106.363	113.982	240.055	267.668	113.646	120.793	121.140	127.832	330.464	127.548	-8191	255	
1026.260	1	1	0	0	0.18166	0.26644	0.094581	0.38168	0.2012	0.079174	0.31688	0.19728	0.15807	0.10555	0.051549	0.33511	0.12621	0.12735	0.16318	0.14461	-4.0604	-5.3	-4.3229	-4.8375	-5.1333	-4.3271	-5.1625	-4.9292	-4.5938	-5.3625	-4.6646	-4.7188	-5.3	-4.4979	-5.1625	-5.0375	280.222	437.223	311.489	423.463	368.986	340.436	406.345	424.046	185.454	217.153	428.049	133.507	244.255	357.969	213.469	170.342	0.0012045	0.00015274	9.2831e-05	1102.9	1.3321e-06	6.5043e-06	1202.2	231.32	6.3767e-06	5.7933e-06	292.96	83.337	63.743	18.399	9.3521e-06	25.603	0.0003271	0.00032685	9.1291e-05	1075.9	3.6621e-06	3.6406e-06	1175.3	231.02	3.7091e-06	3.6784e-06	291.79	83.153	65.205	19.494	3.7287e-06	26.968	393.484	227.527	351.109	106.710	140.494	329.573	106.847	114.513	279.165	201.936	113.641	120.509	120.815	128.375	116.872	127.618	-8191	255	
1026.357	1	1	0	0	0.0083497	0.29791	0.030246	0.17116	0.1182	0.15059	0.15167	0.23169	0.29007	0.25635	0.15556	0.15702	0.14968	0.16455	0.11142	0.19459	-4.0896	-5.3917	-4.6833	-4.5896	-5.1	-4.4542	-5.15	-5.0687	-4.3	-5.3542	-4.8063	-4.7583	-5.4979	-4.3208	-4.7792	-5.0229	247.383	200.286	126.157	102.183	294.797	367.190	327.281	113.068	193.961	261.905	186.553	186.502	387.362	456.110	301.482	386.631	0.00084932	0.00068906	0.00019546	1104.8	1.068e-05	1.065e-06	1208.5	232.48	2.3132e-06	3.1709e-06	294.02	82.778	64.412	18.369	6.0319e-06	25.695	0.00034209	0.00034282	9.469e-05	1079.8	3.7872e-06	3.7869e-06	1178.9	231.96	3.7731e-06	3.7438e-06	291.88	83.166	65.428	19.438	3.6729e-06	26.879	411.212	160.347	127.003	106.654	206.050	222.025	106.498	114.105	210.681	200.750	113.743	120.987	120.924	128.100	388.909	127.057	-8191	255	
1026.477	1	1	0	0	0.24211	0.10982	0.27451	0.25536	0.10393	0.19914	0.1029	0.17664	0.28032	0.12918	0.076815	0.30377	0.058205	0.23082	0.14472	0.085427	-4.0958	-5.1875	-4.6729	-4.6104	-5.325	-4.4812	-4.9646	-5.1687	-4.2208	-5.3042	-4.8396	-4.3	-5.2042	-4.6458	-4.7562	-5.2292	221.237	280.257	440.960	122.122	200.392	220.113	343.718	371.927	373.858	417.868	281.012	248.581	388.926	405.364	184.915	326.441	0.0011331	0.00022665	3.4519e-05	1102.6	7.9333e-06	3.4307e-06	1207.1	232.83	3.6717e-06	2.096e-06	294.14	82.628	63.566	18.494	7.0606e-06	25.728	0.00033376	0.00032735	9.2055e-05	1074.5	3.5528e-06	3.5296e-06	1175.2	230.65	3.5157e-06	3.4722e-06	290.66	82.496	64.883	19.382	3.5006e-06	26.745	395.685	243.610	330.513	106.585	221.142	234.392	106.705	114.461	361.096	400.587	113.759	120.745	121.144	128.438	229.599	127.522	-8191	255	
1026.572	1	1	0	0	0.035814	0.17182	0.20725	0.21651	0.024457	0.17831	0.12652	0.18675	0.13564	0.069806	0.15578	0.14027	0.11055	0.11965	0.09648	0.062957	-3.9521	-5.1687	-4.9917	-4.6667	-5.3167	-4.65	-4.7896	-5.3875	-4.3271	-4.8125	-4.9187	-4.2188	-5.3604	-4.825	-4.5479	-5.2083	377.485	354.489	233.435	443.749	196.136	306.757	275.538	362.038	441.454	406.361	436.523	429.427	255.372	398.313	381.647	233.991	0.0010382	0.00045385	0.00019444	1101.8	3.6349e-06	2.0204e-06	1202.2	232.82	9.5961e-06	6.0333e-06	293.19	82.63	64.171	18.476	3.7111e-06	25.49	0.00032396	0.00032342	9.0735e-05	1074.3	3.5566e-06	3.5769e-06	1173.9	230.93	3.6045e-06	3.5805e-06	291.3	82.885	65.071	19.43	3.652e-06	26.838	394.284	123.768	187.842	106.625	314.188	403.122	106.558	114.335	195.894	427.659	113.899	120.894	121.210	128.472	232.840	127.633	-8191	255	
1026.645	1	1	0	0	0.081038	0.14553	0.16045	0.19775	0.14974	0.22338	0.36883	0.32373	0.14969	0.27296	0.23924	0.094777	0.085648	0.058072	0.18727	0.079112	-4.0521	-5.0521	-4.9292	-4.2792	-4.9792	-4.7812	-4.7	-5.3146	-4.4375	-4.8667	-5.2312	-4.4062	-5.2354	-4.75	-4.3458	-5.4646	411.672	178.964	355.104	367.562	433.205	116.564	423.158	403.747	149.644	111.481	117.488	449.281	446.779	154.559	184.938	299.773	0.0010371	0.00040188	0.00028767	1099	3.1014e-06	2.7904e-06	1201.2	232.26	3.7869e-06	6.9856e-07	294.18	83.066	63.291	18.491	4.9845e-06	25.643	0.00033705	0.00033426	9.2971e-05	1076	3.6899e-06	3.6594e-06	1176.1	231.75	3.661e-06	3.6772e-06	291.73	83.115	64.973	19.476	3.6127e-06	26.848	389.636	167.957	150.216	106.639	134.392	215.456	106.579	114.244	308.143	155.084	114.016	120.384	120.889	128.065	366.996	127.687	-8191	255	
1026.739	1	1	0	0	0.093087	0.17851	0.2452	0.11241	0.096346	0.18194	0.26558	0.17095	0.053897	0.11543	0.18756	0.09217	0.21545	0.2279	0.34426	0.04393	-4.0813	-4.7833	-5.0437	-4.5062	-5.1562	-5.0042	-4.5604	-5.2729	-4.7208	-4.7625	-5.1833	-4.2688	-5.2229	-4.8979	-4.4271	-5.2875	126.532	379.467	259.749	144.737	321.230	346.505	407.510	381.915	169.793	266.474	391.849	411.585	358.393	365.197	339.310	208.926	0.0010148	0.00014281	3.1832e-05	1102.7	3.2335e-06	5.0236e-06	1209.2	232.99	2.8793e-06	3.3809e-06	293.37	82.612	63.933	18.404	3.8775e-06	25.651	0.00033076	0.00032829	9.1452e-05	1076.7	3.5879e-06	3.5965e-06	1176.1	231.25	3.5958e-06	3.5719e-06	290.95	82.649	64.963	19.364	3.558e-06	26.766	391.224	98.405	455.612	106.899	221.299	246.227	106.812	114.224	356.440	193.359	113.955	120.895	121.126	129.038	252.731	127.503	-8191	255	
1026.860	1	1	0	0	0.149	0.12334	0.20598	0.18402	0.086953	0.096009	0.064291	0.078541	0.15534	0.20002	0.18586	0.10075	0.16622	0.20622	0.16079	0.2485	-4.1375	-4.8292	-5.2479	-4.3688	-5.0958	-5.0271	-4.5896	-5.4917	-4.5729	-4.5646	-5.1875	-4.4354	-4.9333	-4.9917	-4.3625	-5.3021	234.602	127.981	362.863	418.536	325.773	439.236	300.496	124.570	137.954	341.686	341.775	452.814	209.154	437.180	249.861	364.395	0.0011518	0.00031901	0.00023766	1101.2	5.5328e-06	2.085e-06	1201.5	232.52	7.2151e-06	3.7426e-06	293.66	82.364	63.79	18.591	3.6203e-06	25.684	0.00032651	0.00032495	9.0462e-05	1075.7	3.5952e-06	3.566e-06	1175.8	231.4	3.6435e-06	3.6194e-06	291.39	82.929	65.198	19.511	3.6491e-06	26.912	392.898	382.141	164.374	106.647	124.815	393.107	106.929	114.568	326.899	288.954	113.820	120.808	121.171	128.548	445.645	127.728	-8191	255	
1026.956	1	1	0	0	0.066621	0.10873	0.1452	0.15152	0.21364	0.16275	0.28321	0.14762	0.039777	0.11577	0.15493	0.065465	0.15014	0.29751	0.18114	0.18587	-4.5021	-4.4542	-5.2438	-4.4479	-4.6625	-5.0938	-4.5771	-5.2146	-4.75	-4.3625	-5.3854	-4.525	-4.8229	-5.1396	-4.3271	-5.125	128.442	204.118	410.151	433.559	341.692	215.150	416.658	131.276	305.666	333.204	140.019	360.010	437.882	162.957	411.821	377.121	0.0010876	0.00074528	7.7517e-05	1102.4	2.5346e-06	6.8119e-07	1205.5	231.75	5.8538e-06	4.1772e-06	292.49	82.293	64.096	18.434	4.8573e-06	25.678	0.00033409	0.00033214	9.2298e-05	1076.9	3.6058e-06	3.5913e-06	1176.3	230.83	3.5835e-06	3.5842e-06	290.57	82.77	65.057	19.377	3.5385e-06	26.753	384.311	164.648	296.784	107.155	169.862	366.923	106.852	114.552	297.322	242.738	113.833	120.688	121.582	128.111	219.744	127.821	-8191	255	
1027.052	1	1	0	0	0.1528	0.079524	0.17932	0.26071	0.093532	0.035652	0.18457	0.23851	0.038	0.16563	0.21114	0.10237	0.20208	0.14332	0.17874	0.2727	-4.4896	-4.5396	-5.4062	-4.5167	-4.6792	-5.1438	-4.5917	-5.2271	-4.9354	-4.4958	-5.5	-4.7083	-4.6271	-5.0875	-4.4125	-5.1667	270.711	450.817	236.946	448.065	211.839	148.098	370.536	374.177	378.391	333.259	411.341	435.952	416.506	358.226	410.861	419.347	0.0012823	0.0002478	7.4475e-05	1105.2	5.219e-06	4.2725e-06	1203.5	233.46	2.3322e-06	1.3652e-06	292.62	82.207	63.99	18.425	7.5645e-07	25.598	0.00032164	0.00032084	8.8873e-05	1075.3	3.4984e-06	3.5022e-06	1174.4	230.98	3.5184e-06	3.545e-06	290.47	82.746	64.946	19.414	3.5752e-06	26.774	404.394	159.502	441.848	106.788	280.342	375.373	106.752	114.421	326.404	169.493	113.984	121.020	121.486	128.491	371.455	128.040	-8191	255	
1027.148	1	1	0	0	0.29139	0.055007	0.065816	0.13493	0.21026	0.17063	0.2552	0.14007	0.10822	0.3498	0.088785	0.28883	0.17349	0.20678	0.1775	0.28788	-4.5229	-4.4479	-5.1771	-4.8812	-4.3958	-5.3625	-4.6813	-5.15	-5.1125	-4.3458	-5.2708	-4.7208	-4.6083	-5.1292	-4.3354	-5.0479	351.773	112.442	228.347	371.722	261.660	426.490	409.574	409.328	122.758	213.142	180.830	409.306	396.367	358.745	422.254	435.826	0.0011966	0.00096801	0.00032434	1102.9	6.552e-06	5.0964e-06	1201.6	232.03	1.1675e-05	5.302e-06	294.6	82.807	63.709	18.319	5.9008e-06	25.872	0.0003278	0.00032492	8.9611e-05	1074.7	3.5198e-06	3.4766e-06	1173.4	230.41	3.4382e-06	3.4212e-06	289.84	82.37	64.683	19.302	3.4107e-06	26.657	398.115	173.300	137.671	106.912	282.277	206.534	106.953	114.401	211.161	106.313	114.011	120.925	120.986	127.932	192.889	127.418	-8191	255	
1027.269	1	1	0	0	0.15496	0.040319	0.085702	0.1108	0.069784	0.17232	0.026072	0.29509	0.030777	0.16635	0.061204	0.083043	0.19057	0.094263	0.092326	0.10976	-4.7167	-4.2854	-5.2792	-4.8104	-4.4146	-5.3771	-4.6375	-5.0062	-4.9938	-4.2	-5.3104	-4.9812	-4.5333	-5.3292	-4.4437	-4.7625	181.187	338.928	411.434	448.808	426.605	324.835	454.233	417.827	363.683	107.353	107.079	302.365	343.667	366.985	294.453	143.702	0.00087934	0.00074684	0.00024491	1104.8	6.0825e-06	1.9514e-06	1204.3	232.54	8.4651e-06	5.8499e-06	294.94	82.603	64.21	18.295	5.6777e-06	25.835	0.00031285	0.00031315	8.6045e-05	1073.1	3.4128e-06	3.4092e-06	1173.3	230.07	3.4392e-06	3.4402e-06	289.95	82.43	64.542	19.234	3.4204e-06	26.658	369.324	176.830	192.489	107.048	218.960	217.434	106.999	114.519	213.276	224.667	114.211	121.388	121.000	129.002	107.169	128.445	-8191	255	
1027.341	1	1	0	0	0.16701	0.067787	0.21594	0.15538	0.063223	0.066555	0.32913	0.23612	0.071794	0.11814	0.28987	0.11186	0.1609	0.14015	0.18476	0.20491	-4.8917	-4.3979	-4.9875	-5.1292	-4.3646	-5.4458	-4.9229	-4.725	-5.0917	-4.3771	-5.1458	-5.2688	-4.4229	-5.3458	-4.6167	-4.5104	179.134	174.133	254.620	436.951	279.868	431.526	406.871	407.137	301.278	111.100	432.067	354.893	448.680	386.364	189.324	284.899	0.0013388	0.00061264	0.00019521	1103.8	7.0103e-06	1.7181e-06	1200.5	232.23	6.1085e-07	4.3956e-06	292.5	81.984	64.13	18.428	2.2904e-06	25.641	0.00031402	0.0003117	8.6461e-05	1072.4	3.3924e-06	3.3814e-06	1174	230.03	3.3682e-06	3.3959e-06	288.88	81.94	64.638	19.261	3.4209e-06	26.622	392.015	451.837	248.889	107.107	155.410	266.622	107.072	114.624	193.948	263.260	114.205	121.155	121.298	128.868	172.987	127.976	-8191	255	
1027.437	1	1	0	0	0.36779	0.11072	0.086747	0.17849	0.29134	0.036003	0.4717	0.23673	0.11929	0.15619	0.42426	0.14077	0.095828	0.055217	0.17479	0.1351	-4.9854	-4.2562	-5.1125	-5.0958	-4.4417	-5.2458	-4.7688	-4.5729	-5.2125	-4.4125	-5.1354	-5.2167	-4.2708	-5.2354	-4.7688	-4.5333	189.636	321.220	100.033	354.574	314.587	133.320	398.329	144.480	210.163	402.377	433.425	415.589	192.756	283.015	115.492	134.575	0.00075279	0.00066011	0.00013035	1102.7	4.7457e-06	1.4446e-06	1202.6	233.88	8.8058e-06	5.0399e-06	295.06	82.407	63.79	18.373	4.7905e-06	25.788	0.00031385	0.00031576	8.7848e-05	1075.2	3.4728e-06	3.4947e-06	1175	231.04	3.4696e-06	3.4889e-06	290.64	82.564	64.663	19.29	3.3772e-06	26.692	401.927	435.677	174.107	107.132	199.717	185.636	107.146	114.861	250.215	106.833	113.953	121.261	121.666	129.326	180.713	127.908	-8191	255	
1027.558	1	1	0	0	0.26222	0.10135	0.15812	0.089059	0.16273	0.09663	0.19764	0.19445	0.11607	0.13612	0.20711	0.13924	0.062085	0.082637	0.21562	0.19856	-4.9479	-4.3792	-4.9896	-5.2063	-4.4583	-5.1438	-5.1396	-4.6229	-5.3375	-4.5687	-4.6354	-5.1958	-4.4083	-5.0396	-4.8	-4.3938	169.367	186.513	313.900	144.307	378.925	238.632	380.115	227.691	402.382	117.628	403.671	374.504	106.006	423.978	405.001	121.110	0.00097635	0.00020002	0.00014482	1104.3	3.8381e-06	6.9778e-06	1200.7	233.01	6.4427e-06	4.471e-06	293.28	82.524	64.095	18.435	4.1461e-06	25.702	0.00030881	0.00030343	8.5435e-05	1071.9	3.3162e-06	3.2869e-06	1170.1	229.82	3.3085e-06	3.3049e-06	289.36	82.166	64.546	19.229	3.3105e-06	26.589	386.347	222.995	156.428	107.757	124.375	406.185	107.734	114.894	194.040	319.048	114.668	121.282	121.083	128.857	161.286	127.648	-8191	255	
1027.652	1	1	0	0	0.13344	0.10346	0.17381	0.10223	0.093924	0.030144	0.15398	0.11652	0.18772	0.1998	0.09764	0.17303	0.13465	0.13858	0.070526	0.14435	-4.9667	-4.4688	-4.8167	-5.3271	-4.2583	-4.9333	-5.2708	-4.5667	-5.0542	-4.5042	-4.7292	-5.3167	-4.3958	-4.9979	-5.0833	-4.5188	299.332	367.958	127.066	183.965	382.460	132.146	125.042	389.541	297.343	333.676	143.954	199.591	353.689	400.732	277.922	149.299	0.0010809	0.0002483	0.00010726	1101.2	3.2416e-06	2.9013e-06	1206.6	230.77	7.6226e-06	3.0536e-06	293.89	82.207	64.151	18.394	3.7757e-06	25.609	0.00030493	0.00030507	8.4141e-05	1071.8	3.3187e-06	3.3278e-06	1171.9	229.62	3.3832e-06	3.3724e-06	289.33	82.087	64.598	19.244	3.363e-06	26.706	408.017	227.413	180.749	107.301	249.085	153.344	107.397	114.856	244.417	296.558	114.642	121.713	121.836	129.800	204.425	128.400	-8191	255	
1027.750	1	1	0	0	0.22084	0.18192	0.076105	0.089485	0.12228	0.13371	0.14707	0.14368	0.1312	0.10742	0.15043	0.17432	0.15228	0.24044	0.27716	0.29992	-4.9229	-4.7271	-4.4146	-5.1479	-4.4187	-4.9167	-5.4125	-4.3979	-5.1771	-4.8438	-4.4708	-5.1792	-4.5563	-4.8562	-5.1958	-4.4979	301.491	398.326	229.256	414.046	160.545	358.243	356.598	355.518	303.314	216.539	248.104	122.654	157.783	104.043	378.431	283.656	0.0011823	0.00026258	5.1576e-05	1105.7	1.0289e-06	5.3804e-06	1207.9	231.43	4.568e-06	2.6756e-06	295.38	82.762	63.924	18.398	5.6148e-06	25.872	0.00031111	0.00030563	8.6195e-05	1075.1	3.3541e-06	3.3445e-06	1175.9	229.8	3.3777e-06	3.3896e-06	290.28	82.357	64.676	19.283	3.416e-06	26.697	402.025	162.264	215.340	107.362	453.373	327.990	107.648	115.198	244.668	289.914	115.336	121.348	122.074	128.887	239.519	127.784	-8191	255	
1027.869	1	1	0	0	0.22144	0.10073	0.042275	0.10391	0.22199	0.013525	0.24822	0.22236	0.070471	0.11327	0.14341	0.2628	0.081801	0.14071	0.17578	0.051873	-4.6896	-4.7771	-4.3313	-5.3063	-4.6167	-4.6979	-5.425	-4.1375	-4.9583	-4.9833	-4.7208	-5.4958	-4.6292	-4.7937	-5.3583	-4.2646	376.610	229.359	203.392	419.838	175.649	440.442	371.942	448.639	442.634	258.023	343.240	369.130	306.554	395.890	375.126	409.403	0.0010923	0.00053722	0.00021364	1102.7	5.9337e-06	1.7832e-06	1203.7	230.79	2.7467e-06	7.1509e-06	294.36	82.552	64.059	18.416	1.1588e-05	25.697	0.00031809	0.00031541	8.7954e-05	1074.2	3.4835e-06	3.4778e-06	1174.4	230.05	3.4562e-06	3.4931e-06	290.25	82.601	64.876	19.381	3.5e-06	26.749	417.012	444.209	253.153	107.429	127.136	243.585	107.509	115.196	205.394	178.673	114.474	121.377	121.635	129.410	170.957	128.375	-8191	255	
1027.940	1	1	0	0	0.20086	0.11009	0.12344	0.13012	0.28782	0.20345	0.10409	0.029546	0.19654	0.21807	0.30117	0.011719	0.032148	0.061766	0.1715	0.11965	-4.6667	-4.9208	-4.5	-5.4333	-4.5938	-4.5875	-5.4542	-4.4437	-4.7104	-5.0229	-4.3354	-5.3042	-4.9229	-4.5083	-5.2271	-4.4958	353.916	276.187	195.280	446.617	369.616	209.816	353.268	288.354	196.440	385.503	387.220	393.004	448.486	144.335	259.388	419.956	0.0010573	0.00017987	6.43e-05	1101.1	9.5899e-06	4.737e-06	1206.5	232.39	8.1528e-06	7.3365e-06	294.82	82.638	63.631	18.471	3.7042e-06	25.598	0.00032197	0.00032243	8.9033e-05	1074.8	3.5284e-06	3.4836e-06	1176.8	230.32	3.4639e-06	3.4737e-06	290.54	82.599	64.811	19.388	3.4548e-06	26.766	392.338	311.963	302.525	107.864	249.229	248.045	107.689	115.405	278.601	164.429	114.517	121.734	122.006	128.997	163.192	129.271	-8191	255	
1028.037	1	1	0	0	0.22341	0.15287	0.18926	0.2042	0.11467	0.13098	0.043975	0.16077	0.17531	0.10083	0.32089	0.2282	0.1208	0.18892	0.045096	0.20661	-4.5771	-5.0208	-4.3542	-5.3479	-4.8042	-4.4604	-5.4396	-4.5479	-4.7896	-5.0458	-4.5708	-5.1458	-4.6646	-4.4271	-5.1771	-4.8979	112.932	241.205	153.269	372.726	220.113	353.565	438.588	374.471	246.118	441.016	392.150	252.842	221.443	109.231	261.604	361.446	0.0010575	0.0005579	0.00010624	1102.1	9.3656e-06	3.7064e-06	1210.2	233.78	9.6354e-06	8.6794e-06	294.8	82.324	64.074	18.485	6.3068e-06	25.809	0.00032361	0.00031751	8.9399e-05	1075.7	3.5202e-06	3.515e-06	1177.1	231.16	3.5429e-06	3.5062e-06	291.02	82.767	65.02	19.43	3.518e-06	26.872	391.925	186.617	191.579	107.506	203.126	185.231	107.755	115.444	173.357	189.158	114.975	121.623	121.639	129.106	215.363	128.823	-8191	255	
1028.157	1	1	0	0	0.14641	0.1023	0.074443	0.077786	0.023514	0.14208	0.18541	0.2117	0.13195	0.16147	0.2574	0.11769	0.1834	0.21029	0.16328	0.08757	-4.3187	-5.0542	-4.3875	-5.2562	-4.8167	-4.425	-5.3562	-4.75	-4.7812	-5.2271	-4.3604	-5.1625	-4.8875	-4.4271	-5.1042	-4.6062	301.461	268.511	401.654	228.956	300.567	323.037	407.831	378.005	164.970	127.911	438.339	402.584	383.623	294.189	322.641	99.553	0.0010497	0.00042302	0.00013261	1104.3	1.6968e-06	3.9588e-06	1205.7	233.92	6.7533e-06	5.4038e-06	291.4	82.946	63.911	18.522	6.4344e-06	25.765	0.00032431	0.0003227	8.95e-05	1074.4	3.4992e-06	3.5168e-06	1175.7	231.08	3.5187e-06	3.543e-06	289.89	82.74	64.897	19.394	3.5691e-06	26.895	393.782	182.039	116.809	107.437	127.656	112.499	107.623	115.268	168.796	325.558	114.677	121.815	121.899	128.954	245.335	128.553	-8191	255	
1028.253	1	1	0	0	0.11049	0.1002	0.11015	0.27008	0.15357	0.091008	0.26014	0.15757	0.15316	0.086172	0.088238	0.29832	0.098188	0.1946	0.080175	0.20755	-4.2875	-5.3479	-4.4792	-4.9563	-5.0229	-4.2708	-5.4896	-4.7	-4.5437	-5.3313	-4.375	-4.8646	-5.2521	-4.3063	-5.2271	-4.9292	253.917	380.907	204.769	106.669	158.958	358.288	441.299	415.569	234.829	305.072	174.608	383.787	199.680	414.147	176.522	342.803	0.00079335	0.00020531	0.00017837	1107.6	2.9025e-06	3.7825e-06	1206.6	231.82	7.157e-06	4.472e-06	295.38	82.201	64.241	18.628	7.8249e-06	26.042	0.00033101	0.00033112	9.2032e-05	1078.7	3.651e-06	3.6582e-06	1178.7	231.22	3.6693e-06	3.6528e-06	291.92	83.068	65.365	19.554	3.6936e-06	27.01	413.595	259.775	104.028	107.172	106.441	223.403	107.005	115.035	283.854	169.839	114.422	121.212	121.233	128.684	241.237	127.923	-8191	255	
1028.349	1	1	0	0	0.094884	0.16511	0.2111	0.27165	0.15793	0.36146	0.20988	0.16209	0.24833	0.051652	0.055936	0.12818	0.15393	0.07233	0.095462	0.1383	-4.2292	-5.3604	-4.3729	-4.8187	-5.2708	-4.275	-5.2854	-5.0479	-4.3354	-5.2604	-4.6562	-4.5312	-5.2063	-4.2604	-4.9563	-5.1104	389.753	110.292	155.530	125.523	208.667	275.808	393.525	372.232	228.963	301.799	409.737	449.883	125.199	302.878	230.205	141.760	0.00069566	0.00035307	0.00015194	1105.7	9.3112e-06	2.0625e-06	1207.1	234.22	3.7924e-06	3.4245e-06	291.64	82.374	64.115	18.574	2.3992e-06	25.73	0.00033754	0.00033724	9.4221e-05	1080.2	3.6973e-06	3.6814e-06	1177.2	231.95	3.6961e-06	3.6947e-06	291.49	83.158	65.3	19.557	3.7056e-06	27.024	416.414	185.525	180.584	107.328	182.493	304.538	107.207	114.906	312.492	254.377	114.657	121.906	122.355	129.562	292.257	127.848	-8191	255	
#DATA ENDS
