BOXY.EXE: ISS Imagent and Oximeter Data Acquisition Program Version 0.80
Ascii Record File

#ACQ INFORMATION
2  Detector Channels 
16  External MUX Channels 
1  Auxiliary Channels 
5000  Waveform (CCF) Frequency (Hz)
1  Waveforms Skipped 
30  Waveforms Averaged 
1  Cycles Averaged 
16  Acquisitions per Waveform 
10.0806  Updata Rate (Hz) 

#FILE INFORMATION
TRUE -- External MUX Channel results are PARSED.
FALSE -- AC DC and Phase are NOT grouped.
TRUE -- Companion Program Settings File CREATED.
FALSE -- AC data not excluded
FALSE -- DC data not excluded
FALSE -- Phase data not excluded
FALSE -- Auxillary Chn. data not excluded
Tab delimiters

#CALIBRATION STATE
TRUE -- Waveform Calibration Values APPLIED.


#AUX CALIBRATION VALUES
Val Type	aux-1	

Term	1.0000e+00	
Factor	0.0000e+00	


#WF CALIBRATION VALUES
A = Detector Channel
Val Type	A-AC1	A-AC2	A-AC3	A-AC4	A-AC5	A-AC6	A-AC7	A-AC8	A-AC9	A-AC10	A-AC11	A-AC12	A-AC13	A-AC14	A-AC15	A-AC16	A-DC1	A-DC2	A-DC3	A-DC4	A-DC5	A-DC6	A-DC7	A-DC8	A-DC9	A-DC10	A-DC11	A-DC12	A-DC13	A-DC14	A-DC15	A-DC16	A-Ph1	A-Ph2	A-Ph3	A-Ph4	A-Ph5	A-Ph6	A-Ph7	A-Ph8	A-Ph9	A-Ph10	A-Ph11	A-Ph12	A-Ph13	A-Ph14	A-Ph15	A-Ph16	

Term	0.00000e+00	0.00000e+00	0.00000e+00	0.00000e+00	0.00000e+00	0.00000e+00	0.00000e+00	0.00000e+00	0.00000e+00	0.00000e+00	0.00000e+00	0.00000e+00	0.00000e+00	0.00000e+00	0.00000e+00	0.00000e+00	0.00000e+00	0.00000e+00	0.00000e+00	0.00000e+00	0.00000e+00	0.00000e+00	0.00000e+00	0.00000e+00	0.00000e+00	0.00000e+00	0.00000e+00	0.00000e+00	0.00000e+00	0.00000e+00	0.00000e+00	0.00000e+00	0.00000e+00	0.00000e+00	0.00000e+00	0.00000e+00	0.00000e+00	0.00000e+00	0.00000e+00	0.00000e+00	0.00000e+00	0.00000e+00	0.00000e+00	0.00000e+00	0.00000e+00	0.00000e+00	0.00000e+00	0.00000e+00	
Factor	1.00000e+00	1.00000e+00	1.00000e+00	1.00000e+00	1.00000e+00	1.00000e+00	1.00000e+00	1.00000e+00	1.00000e+00	1.00000e+00	1.00000e+00	1.00000e+00	1.00000e+00	1.00000e+00	1.00000e+00	1.00000e+00	1.00000e+00	1.00000e+00	1.00000e+00	1.00000e+00	1.00000e+00	1.00000e+00	1.00000e+00	1.00000e+00	1.00000e+00	1.00000e+00	1.00000e+00	1.00000e+00	1.00000e+00	1.00000e+00	1.00000e+00	1.00000e+00	X	X	X	X	X	X	X	X	X	X	X	X	X	X	X	X	

B = Detector Channel
Val Type	B-AC1	B-AC2	B-AC3	B-AC4	B-AC5	B-AC6	B-AC7	B-AC8	B-AC9	B-AC10	B-AC11	B-AC12	B-AC13	B-AC14	B-AC15	B-AC16	B-DC1	B-DC2	B-DC3	B-DC4	B-DC5	B-DC6	B-DC7	B-DC8	B-DC9	B-DC10	B-DC11	B-DC12	B-DC13	B-DC14	B-DC15	B-DC16	B-Ph1	B-Ph2	B-Ph3	B-Ph4	B-Ph5	B-Ph6	B-Ph7	B-Ph8	B-Ph9	B-Ph10	B-Ph11	B-Ph12	B-Ph13	B-Ph14	B-Ph15	B-Ph16	

Term	0.00000e+00	0.00000e+00	0.00000e+00	0.00000e+00	0.00000e+00	0.00000e+00	0.00000e+00	0.00000e+00	0.00000e+00	0.00000e+00	0.00000e+00	0.00000e+00	0.00000e+00	0.00000e+00	0.00000e+00	0.00000e+00	0.00000e+00	0.00000e+00	0.00000e+00	0.00000e+00	0.00000e+00	0.00000e+00	0.00000e+00	0.00000e+00	0.00000e+00	0.00000e+00	0.00000e+00	0.00000e+00	0.00000e+00	0.00000e+00	0.00000e+00	0.00000e+00	-2.67418e+02	-1.23981e+02	-1.44473e+02	-1.81854e+02	-1.05914e+02	-7.68791e+01	-1.57311e+02	-1.62015e+02	-7.09312e+01	-7.89950e+01	-1.71511e+02	-1.71453e+02	-1.84794e+02	-1.77817e+02	-1.04389e+02	-1.50452e+02	
Factor	5.71809e-05	8.97066e-05	3.11288e-05	1.96425e-01	1.13358e-06	8.75478e-07	1.57363e-01	5.65123e-02	1.42736e-06	9.07431e-07	8.42968e-02	3.04734e-02	2.81487e-02	8.63089e-03	1.04281e-06	1.25646e-02	5.48854e-07	5.55714e-07	1.54520e-07	9.50652e-02	6.08120e-09	6.08269e-09	7.27127e-02	2.73195e-02	6.08719e-09	6.08483e-09	3.88846e-02	1.39013e-02	1.32012e-02	4.11566e-03	6.08014e-09	5.73139e-03	X	X	X	X	X	X	X	X	X	X	X	X	X	X	X	X	



#DISTANCE SETTINGS
A = Detector Channel
A-1	A-2	A-3	A-4	A-5	A-6	A-7	A-8	A-9	A-10	A-11	A-12	A-13	A-14	A-15	A-16	

2.5000e+00	3.0000e+00	2.5000e+00	3.0000e+00	2.0000e+00	3.0000e+00	1.5000e+00	3.0000e+00	3.0000e+00	3.0000e+00	3.0000e+00	3.0000e+00	3.0000e+00	3.0000e+00	1.5000e+00	3.0000e+00	

B = Detector Channel
B-1	B-2	B-3	B-4	B-5	B-6	B-7	B-8	B-9	B-10	B-11	B-12	B-13	B-14	B-15	B-16	

1.0000e+01	1.0000e+01	1.0000e+01	1.4400e+00	1.0000e+01	1.0000e+01	1.5100e+00	1.9400e+00	1.0000e+01	1.0000e+01	1.9900e+00	2.4900e+00	2.4100e+00	2.9000e+00	1.0000e+01	2.9800e+00	




#DATA BEGINS
time	group	step	mark	flag	A-AC1	A-AC2	A-AC3	A-AC4	A-AC5	A-AC6	A-AC7	A-AC8	A-AC9	A-AC10	A-AC11	A-AC12	A-AC13	A-AC14	A-AC15	A-AC16	A-DC1	A-DC2	A-DC3	A-DC4	A-DC5	A-DC6	A-DC7	A-DC8	A-DC9	A-DC10	A-DC11	A-DC12	A-DC13	A-DC14	A-DC15	A-DC16	A-Ph1	A-Ph2	A-Ph3	A-Ph4	A-Ph5	A-Ph6	A-Ph7	A-Ph8	A-Ph9	A-Ph10	A-Ph11	A-Ph12	A-Ph13	A-Ph14	A-Ph15	A-Ph16	B-AC1	B-AC2	B-AC3	B-AC4	B-AC5	B-AC6	B-AC7	B-AC8	B-AC9	B-AC10	B-AC11	B-AC12	B-AC13	B-AC14	B-AC15	B-AC16	B-DC1	B-DC2	B-DC3	B-DC4	B-DC5	B-DC6	B-DC7	B-DC8	B-DC9	B-DC10	B-DC11	B-DC12	B-DC13	B-DC14	B-DC15	B-DC16	B-Ph1	B-Ph2	B-Ph3	B-Ph4	B-Ph5	B-Ph6	B-Ph7	B-Ph8	B-Ph9	B-Ph10	B-Ph11	B-Ph12	B-Ph13	B-Ph14	B-Ph15	B-Ph16	aux-1	digaux	

1837.524	1	1	0	768	0.17474	0.13754	0.055898	0.088163	0.17184	0.067982	0.067661	0.25328	0.13933	0.14734	0.16384	0.23823	0.14001	0.069769	0.20741	0.1737	-4.1292	-5.2625	-4.5771	-4.5208	-5.3146	-4.3771	-4.9604	-5.15	-4.2375	-5.3	-4.7208	-4.6188	-5.3479	-4.4625	-4.825	-5.4125	87.907	155.078	93.757	229.709	306.460	102.665	18.997	300.615	13.647	-21.743	286.717	-1.086	-23.689	-11.216	88.223	259.744	0.00082191	0.00044435	9.6024e-05	668.94	4.1951e-06	4.12e-06	756.38	283.83	8.2019e-06	4.1306e-06	361.08	153.89	120.79	62.311	7.3723e-06	86.006	0.00021186	0.00020053	5.6565e-05	657.34	2.2986e-06	2.2947e-06	744.28	275.77	2.4119e-06	2.412e-06	345.59	145.6	114.48	59.28	2.4224e-06	80.156	6.761	76.220	97.975	-23.861	54.881	73.937	-25.190	-18.548	97.718	37.341	-20.577	-16.261	-14.719	-8.594	93.255	-12.700	-8191	255	
1837.620	1	1	0	0	0.055731	0.0093709	0.12256	0.22986	0.05378	0.23589	0.11004	0.058955	0.096713	0.13875	0.073238	0.22955	0.1674	0.20767	0.078012	0.22933	-3.9625	-5.2375	-4.85	-4.5146	-5.2729	-4.45	-4.9208	-5.1979	-4.2396	-5.1083	-4.8458	-4.6229	-5.3292	-4.6708	-4.725	-5.4354	48.136	289.019	-11.881	254.721	182.572	75.324	1.686	312.590	48.676	311.204	-31.800	288.827	-33.829	280.026	58.941	29.714	0.00080405	0.0010011	9.8085e-05	668.65	5.2137e-06	4.8419e-06	762.48	286.43	1.2899e-05	2.7161e-06	363.49	154.8	121.62	62.249	6.5854e-06	85.073	0.00022786	0.00021678	5.9764e-05	661.05	2.3707e-06	2.3439e-06	746.32	277.15	2.3308e-06	2.2959e-06	345.31	145.95	114.62	58.782	2.2714e-06	79.38	1.787	43.828	63.731	-24.207	87.551	171.835	-24.915	-18.274	71.130	105.484	-20.661	-16.052	-14.558	-8.571	122.510	-12.681	-8191	255	
1837.716	1	1	0	0	0.17642	0.077383	0.15716	0.18867	0.15525	0.13924	0.19449	0.19915	0.14471	0.1079	0.1321	0.09282	0.09971	0.27901	0.12646	0.098147	-4.0938	-5.1083	-4.9563	-4.5729	-5.4042	-4.4125	-4.7229	-5.3521	-4.3521	-5.0188	-5.0437	-4.6312	-5.3875	-4.7958	-4.6875	-5.5729	238.255	157.016	25.749	248.332	191.356	-0.041	296.910	255.578	13.221	290.760	225.637	220.997	283.059	298.463	-13.088	282.480	0.00099701	0.00020425	5.6506e-05	670.95	2.4537e-06	4.963e-06	763.2	286.4	4.2395e-06	4.9549e-06	363.7	155.28	120.28	61.602	4.6357e-06	85.794	0.00021407	0.00020246	5.5194e-05	657.49	2.2009e-06	2.17e-06	745.71	275.48	2.2043e-06	2.1777e-06	344.64	146.1	113.85	58.404	2.1931e-06	79.701	0.197	69.178	-7.767	-24.155	107.981	74.992	-24.980	-18.301	118.037	104.290	-20.753	-16.277	-14.593	-8.501	26.768	-12.641	-8191	255	
1837.812	1	1	0	0	0.19462	0.098696	0.18286	0.2953	0.16372	0.13779	0.15502	0.095184	0.10933	0.041631	0.10657	0.097436	0.13141	0.25055	0.11783	0.16996	-3.9458	-4.9646	-5.0813	-4.3021	-5.2854	-4.6771	-4.6813	-5.5271	-4.5583	-4.7354	-5.3146	-4.3521	-5.25	-5.0042	-4.6146	-5.3812	80.711	191.541	74.923	250.925	44.884	-10.683	274.350	141.478	163.808	-19.261	292.531	319.092	202.528	272.455	139.818	244.091	0.00095322	0.00038983	0.00025238	669.96	4.0912e-06	1.6251e-06	760.61	283.45	1.2266e-05	5.9457e-06	362.38	154.32	118.96	60.952	4.9743e-06	85.197	0.00021053	0.00020181	5.6401e-05	658.85	2.2611e-06	2.2304e-06	748.25	275.15	2.2972e-06	2.2597e-06	345.29	145.67	113.28	58.012	2.2517e-06	79.323	3.873	87.026	36.124	-23.936	75.956	181.621	-25.335	-18.354	115.886	100.390	-20.667	-16.342	-14.540	-8.715	87.221	-12.594	-8191	255	
1837.908	1	1	0	0	0.22333	0.12637	0.059635	0.17888	0.099537	0.21062	0.20553	0.11525	0.085838	0.23122	0.11239	0.18876	0.12015	0.070774	0.10887	0.1161	-4.0708	-4.6813	-5.1375	-4.5396	-5.1646	-4.8313	-4.6021	-5.6104	-4.4292	-4.5167	-5.1854	-4.3625	-5.1354	-5.1271	-4.3542	-5.4583	140.891	235.021	309.324	302.171	237.537	28.945	316.966	250.286	-7.415	99.503	110.291	115.243	-9.449	308.084	-6.930	240.837	0.0010969	0.00038219	0.00017345	668.97	6.5548e-06	2.8433e-06	764.45	283.47	2.1066e-06	4.5118e-06	359.7	152.38	118.1	59.981	4.242e-06	83.619	0.0002143	0.00020469	5.6627e-05	659.76	2.2286e-06	2.1892e-06	749.92	273.81	2.1892e-06	2.1545e-06	342.95	144.11	112.08	56.989	2.117e-06	78.032	14.093	-7.888	30.534	-24.218	99.467	90.478	-25.006	-18.298	207.600	103.306	-20.745	-16.259	-14.429	-8.558	54.490	-12.686	-8191	255	
1838.004	1	1	0	0	0.14719	0.13817	0.061286	0.14872	0.066986	0.076107	0.11691	0.2217	0.038112	0.067109	0.04446	0.22352	0.015416	0.17375	0.16166	0.28327	-4.2333	-4.7229	-5.2917	-4.4292	-4.8625	-5.0042	-4.5125	-5.2958	-4.5917	-4.5271	-5.1271	-4.5458	-5.0271	-5.1625	-4.3562	-5.4187	166.882	196.666	24.568	292.689	243.303	2.419	317.956	-10.083	137.336	162.237	93.322	35.707	-23.909	-6.435	79.562	224.871	0.0011759	0.00041062	7.7737e-05	673.37	5.8033e-06	3.9462e-06	763.05	284.75	2.1463e-06	3.5297e-06	361.63	152.67	118.48	60.51	4.4522e-06	84.779	0.00020197	0.00019246	5.3502e-05	661.12	2.1186e-06	2.0864e-06	750.24	273.96	2.1112e-06	2.1207e-06	342.84	144.31	111.88	57.292	2.1789e-06	78.846	14.634	15.608	51.024	-24.156	94.750	99.516	-25.503	-18.454	108.921	61.424	-20.601	-16.324	-14.614	-8.523	70.417	-12.702	-8191	255	
1838.125	1	1	0	0	0.19365	0.072385	0.25843	0.16665	0.10057	0.029502	0.13623	0.091594	0.15325	0.27176	0.1899	0.21739	0.021391	0.040838	0.1277	0.019383	-4.5271	-4.4792	-5.2354	-4.3229	-4.6417	-5.1438	-4.3875	-5.2083	-4.8021	-4.5042	-5.4646	-4.5437	-4.5792	-5.4167	-4.1375	-5.1521	-12.372	48.119	-18.126	231.113	239.217	-35.861	306.395	-31.331	232.220	122.028	23.931	185.333	261.147	8.757	2.136	-14.532	0.00092226	0.00064613	8.2269e-05	671.87	1.6948e-06	7.6851e-06	766.2	283.7	3.4773e-06	5.2009e-06	360.52	154.04	119.64	61.05	3.1604e-06	85.566	0.00020651	0.00019944	5.4737e-05	659.37	2.1435e-06	2.1501e-06	750.4	274.33	2.1451e-06	2.1584e-06	343.54	145.32	112.7	57.913	2.1726e-06	79.648	-4.475	69.777	31.060	-24.250	112.710	69.507	-25.202	-18.378	15.348	145.559	-20.562	-16.240	-14.718	-8.563	77.782	-12.773	-8191	255	
1838.219	1	1	0	0	0.070461	0.12509	0.062917	0.1572	0.16337	0.025785	0.12478	0.20774	0.016269	0.17274	0.079926	0.13383	0.30298	0.25027	0.12265	0.10747	-4.6646	-4.25	-5.3729	-4.5146	-4.6146	-5.2312	-4.4396	-5.1333	-5.0125	-4.3958	-5.2625	-4.8292	-4.6021	-5.4042	-4.2375	-5.0271	261.345	60.618	237.471	305.054	198.045	-13.751	251.947	-32.319	67.654	49.984	294.846	227.957	-35.144	-23.113	-23.757	162.175	0.0012096	0.00012099	8.625e-05	673.29	7.1655e-06	2.8083e-06	761.16	282.52	2.6507e-06	5.6152e-06	362.96	154.59	119.54	61.938	6.5138e-06	86.694	0.00020394	0.00019572	5.3973e-05	655.17	2.1218e-06	2.0869e-06	746.17	273.59	2.0861e-06	2.1335e-06	344.9	145.96	113.33	58.745	2.2136e-06	81.045	4.058	38.012	-20.010	-24.227	128.147	150.809	-25.092	-18.649	147.895	68.368	-20.363	-16.483	-14.947	-8.549	107.531	-12.944	-8191	255	
1838.316	1	1	0	0	0.14386	0.19111	0.10924	0.044575	0.17064	0.075615	0.050213	0.10124	0.12734	0.057651	0.18604	0.10588	0.1872	0.090977	0.14277	0.1293	-4.7104	-4.2167	-5.0917	-4.7292	-4.4375	-5.3104	-4.5646	-4.9396	-5.2396	-4.3208	-5.2396	-4.7542	-4.5104	-5.3688	-4.2896	-4.9771	2.594	192.130	132.991	91.794	23.445	269.948	270.224	232.947	135.422	104.987	261.049	266.248	210.293	171.596	51.638	196.365	0.00081901	0.00039146	0.00023998	669.95	1.1365e-06	3.0326e-06	758.98	285.89	9.1633e-06	1.8687e-06	363.25	154.99	120.33	62.671	1.6188e-06	87.027	0.00021262	0.00020829	5.7508e-05	657.63	2.2889e-06	2.2742e-06	746.99	276.42	2.2492e-06	2.2562e-06	347.36	146.88	114.09	59.501	2.2221e-06	81.276	10.017	45.740	17.066	-24.048	138.413	0.299	-25.144	-18.759	155.847	77.719	-20.955	-16.360	-14.973	-8.640	95.966	-12.776	-8191	255	
1838.412	1	1	0	0	0.13265	0.061189	0.092565	0.10681	0.13029	0.24968	0.094479	0.13933	0.051704	0.02911	0.15017	0.11457	0.21928	0.07151	0.2603	0.19832	-4.8542	-4.1021	-5.1917	-4.8917	-4.3417	-5.1958	-4.6438	-4.8542	-5.1521	-4.1292	-5.2292	-5.0396	-4.4833	-5.4646	-4.5687	-4.8604	85.498	244.957	54.635	-29.764	251.472	101.881	220.482	287.495	197.541	71.098	285.329	1.293	-5.745	29.194	136.586	286.438	0.00108	0.0003807	0.00017521	664.29	2.9698e-06	2.1334e-06	757.13	285.47	5e-06	4.2218e-06	363.1	155.08	120.81	62.933	2.1333e-06	87.274	0.00021013	0.00020194	5.5658e-05	652.84	2.2138e-06	2.1968e-06	739.84	275.41	2.2039e-06	2.2172e-06	346.17	146.57	114.43	59.71	2.2238e-06	81.26	12.281	27.252	53.283	-23.946	65.098	10.458	-25.084	-18.601	84.563	82.552	-20.730	-16.216	-14.729	-8.634	52.436	-12.776	-8191	255	
1838.508	1	1	0	0	0.13851	0.10532	0.14246	0.066604	0.1231	0.16371	0.012011	0.33809	0.20956	0.14098	0.21847	0.17902	0.11351	0.06553	0.11986	0.25315	-4.8667	-4.3688	-4.9146	-5.1667	-4.2771	-5.3833	-4.725	-4.5437	-5.2104	-4.4042	-5.0021	-5.0771	-4.3812	-5.4125	-4.9042	-4.5354	-14.009	188.616	263.220	60.599	257.588	68.854	84.659	273.674	7.307	107.134	284.950	289.009	278.951	70.991	217.313	264.594	0.0010094	0.00011105	0.0001855	660.84	3.5692e-06	7.4696e-06	749.88	285.07	7.5003e-06	2.7968e-06	364.86	156.33	121.54	63.388	4.6292e-06	87.93	0.00021543	0.0002039	5.6697e-05	650.6	2.2712e-06	2.2608e-06	736.86	276.93	2.278e-06	2.2484e-06	347.76	147.65	115.04	60.07	2.238e-06	81.784	10.042	4.824	64.032	-23.895	44.601	147.429	-24.952	-18.642	92.350	178.945	-21.016	-16.255	-14.943	-8.730	87.370	-12.997	-8191	255	
1838.604	1	1	0	0	0.18559	0.235	0.066256	0.18194	0.10286	0.061064	0.25386	0.063418	0.1014	0.095359	0.067947	0.032186	0.037376	0.15313	0.032224	0.20947	-4.8333	-4.4667	-4.7625	-5.2292	-4.3104	-5.0667	-4.7812	-4.4437	-5.2396	-4.5437	-4.975	-5.2521	-4.4646	-5.1271	-4.8104	-4.7312	6.333	36.636	-20.893	275.588	1.216	138.919	185.661	166.195	291.905	151.597	272.232	196.374	180.077	264.751	-21.735	246.853	0.00087982	0.00024576	0.00011498	660.89	5.9372e-06	4.1004e-06	743.25	284.94	3.6576e-06	1.7354e-06	363.96	155	119.74	62.251	1.1655e-06	86.427	0.00021391	0.00020746	5.7659e-05	648.95	2.2458e-06	2.2516e-06	734.58	275.93	2.2909e-06	2.247e-06	347.7	146.65	113.87	59.246	2.2702e-06	80.715	7.514	303.093	4.690	-24.254	63.253	100.372	-25.215	-18.572	25.840	68.875	-20.707	-16.287	-14.648	-8.513	18.328	-12.776	-8191	255	
1838.725	1	1	0	0	0.16904	0.29392	0.11913	0.031814	0.090857	0.098271	0.31671	0.11952	0.1162	0.16557	0.13367	0.12349	0.15091	0.15651	0.095559	0.14234	-5.1354	-4.6583	-4.8104	-5.3313	-4.375	-5.0875	-5.0146	-4.4292	-5.25	-4.6146	-4.7	-5.3646	-4.4896	-4.9917	-4.8562	-4.5271	50.595	114.098	287.653	3.075	195.443	306.786	310.499	216.184	280.537	56.794	126.025	212.658	304.260	7.282	62.084	250.680	0.00082016	0.00043104	0.00020649	659.24	5.6365e-06	5.8164e-06	749.73	283.64	3.1802e-06	3.078e-06	364	154.27	119.58	61.318	2.3772e-06	84.99	0.00022006	0.0002121	5.9213e-05	649.37	2.3535e-06	2.3631e-06	737.14	275.34	2.3708e-06	2.362e-06	346.93	145.9	112.95	58.392	2.342e-06	79.512	5.788	82.362	2.465	-23.481	56.711	116.823	-25.097	-18.411	170.175	84.479	-20.677	-16.117	-14.678	-8.538	121.512	-12.548	-8191	255	
1838.821	1	1	0	0	0.24197	0.16068	0.099418	0.19519	0.23084	0.23967	0.20921	0.091964	0.14589	0.080158	0.066336	0.059123	0.07183	0.21029	0.1421	0.22889	-5.025	-4.5917	-4.6125	-5.3542	-4.4104	-4.9104	-5.3083	-4.6167	-5.0667	-4.7208	-4.5667	-5.3333	-4.5771	-4.8875	-5.0917	-4.5896	17.784	310.768	291.263	-19.921	269.629	269.790	295.382	223.338	269.732	219.264	305.411	-13.742	-8.879	286.220	262.085	227.810	0.001151	0.00042542	0.00011921	655.29	1.1424e-05	1.1176e-06	742.19	280.91	1.5155e-06	5.2885e-06	359.73	151.64	117.47	60.521	3.2015e-06	83.528	0.00022144	0.00021299	5.9749e-05	647.88	2.3481e-06	2.2766e-06	733.53	273.59	2.3116e-06	2.3188e-06	344.18	143.91	111.84	57.777	2.4355e-06	78.203	5.591	57.344	18.760	-24.096	43.577	97.362	-25.279	-18.629	16.406	119.920	-20.644	-16.053	-14.644	-8.429	64.712	-12.583	-8191	255	
1838.917	1	1	0	0	0.17718	0.22455	0.16512	0.081861	0.10879	0.30234	0.13128	0.11956	0.19369	0.16755	0.043619	0.17821	0.13253	0.1482	0.064728	0.15643	-4.925	-4.8667	-4.4625	-5.3833	-4.4792	-4.7312	-5.2854	-4.45	-5.0917	-4.9708	-4.4938	-5.3917	-4.6646	-4.7021	-5.175	-4.4146	54.831	62.052	278.381	290.798	-33.254	177.867	57.254	245.580	46.642	107.196	17.709	-33.782	-17.215	306.085	125.524	91.209	0.00093601	0.00026005	6.4212e-05	655.31	1.2609e-06	3.4004e-06	743.66	283.14	7.509e-06	6.1899e-06	357.67	149.65	116.67	60.529	5.172e-06	82.476	0.00023474	0.00022686	6.4587e-05	652.96	2.6029e-06	2.6235e-06	737.96	276.37	2.7762e-06	2.8173e-06	346.38	143.84	112.66	57.97	3.2316e-06	78.238	-0.994	50.642	-8.025	-23.949	146.643	15.509	-25.172	-18.331	85.914	125.691	-21.030	-15.964	-14.312	-8.327	88.449	-12.567	-8191	255	
1839.013	1	1	0	0	0.2223	0.31359	0.087942	0.21969	0.27157	0.16552	0.31492	0.35767	0.22412	0.055614	0.11514	0.22865	0.13955	0.11687	0.17734	0.20799	-4.7354	-4.8729	-4.4208	-5.3479	-4.6188	-4.5792	-5.3771	-4.4708	-4.9417	-5.1333	-4.5958	-5.3292	-4.7021	-4.7625	-5.2521	-4.5875	125.270	114.965	70.802	274.231	56.960	84.339	181.306	259.625	45.411	216.735	171.002	287.565	322.299	273.384	123.665	239.430	0.00094305	0.00044725	0.0001268	658.52	2.1628e-06	1.7062e-06	741.88	281.66	1.2284e-05	2.1626e-06	355.17	148.27	115.99	59.431	1.5894e-06	82.064	0.00031498	0.00031455	8.9513e-05	669.56	3.561e-06	3.5897e-06	747.27	279.71	3.5899e-06	3.5733e-06	349.7	143.71	112.56	57.509	3.7167e-06	77.892	8.948	62.016	43.546	-24.066	19.176	58.910	-25.012	-18.176	20.493	212.287	-20.565	-15.855	-14.206	-8.329	2.083	-12.296	-8191	255	
1839.085	1	1	0	0	0.1597	0.16296	0.19571	0.04767	0.074195	0.15891	0.056368	0.24286	0.15452	0.15531	0.17652	0.13517	0.053301	0.037305	0.16694	0.23655	-4.6646	-5.0708	-4.2896	-5.2854	-4.6958	-4.5917	-5.4271	-4.6583	-4.7562	-5.1188	-4.3667	-5.1687	-5.0042	-4.5333	-5.3708	-4.65	-34.961	147.259	258.445	276.720	44.528	121.708	-20.480	280.777	311.359	234.122	316.450	260.218	249.687	-5.526	31.195	319.628	0.0010746	0.00036061	4.144e-05	655.32	2.9103e-06	5.1673e-07	746	284.77	7.0959e-06	1.1785e-06	359.76	149.08	116.07	60.572	2.4565e-06	83.651	0.00034629	0.00033967	9.5693e-05	672.5	3.7302e-06	3.7882e-06	751.68	281.4	3.8053e-06	3.8193e-06	353.18	144.63	113.45	58.378	3.924e-06	79.326	-4.708	74.777	-10.160	-23.977	190.077	317.100	-24.906	-18.257	93.638	25.843	-20.473	-15.851	-14.075	-8.256	144.387	-12.137	-8191	255	
1839.205	1	1	0	0	0.021021	0.15857	0.19797	0.1604	0.1009	0.2027	0.079171	0.088184	0.1697	0.054035	0.093464	0.23985	0.35105	0.22279	0.028651	0.22589	-4.5125	-5.2333	-4.4521	-5.1646	-5.0354	-4.3625	-5.3938	-4.7083	-4.6167	-5.0354	-4.5208	-5.1354	-5.0646	-4.5542	-5.2146	-4.9021	165.137	-22.856	190.284	256.133	143.718	-8.188	54.723	277.429	66.115	62.588	309.689	251.860	-32.012	278.117	130.772	266.490	0.00069081	0.00027239	0.00018346	661.2	8.3636e-06	5.594e-07	748	286.54	4.3301e-06	6.5626e-06	359.73	148.37	115.62	60.196	7.3497e-06	82.593	0.00037048	0.00036677	0.00010206	677.69	3.9593e-06	4.0151e-06	754.75	284.88	4.0902e-06	4.1253e-06	355.04	144.99	114.38	58.779	4.2362e-06	79.184	19.747	64.237	222.741	-23.550	244.609	-18.541	-24.656	-18.295	183.816	117.575	-21.070	-15.994	-14.472	-8.281	47.579	-12.398	-8191	255	
1839.300	1	1	0	0	0.11652	0.097637	0.12181	0.2038	0.11106	0.090857	0.23954	0.13899	0.10334	0.14375	0.056095	0.18309	0.18167	0.27139	0.13665	0.21086	-4.3042	-5.3167	-4.3812	-4.9229	-5.2292	-4.3479	-5.1979	-4.7708	-4.3375	-5.4146	-4.5062	-5.0354	-5.1646	-4.4542	-5.2792	-4.9458	277.303	197.605	-9.099	285.375	-15.708	222.055	115.475	321.840	84.289	-22.888	177.745	293.193	-26.001	241.302	318.056	280.183	0.0010851	0.00013728	0.00023924	656.73	9.6743e-07	2.298e-06	738.83	283.68	3.7779e-06	4.3451e-06	355.17	146.69	115.36	59.845	8.3396e-06	81.737	0.00039361	0.00038726	0.00010656	677.79	4.188e-06	4.2265e-06	746.42	284.66	4.25e-06	4.2319e-06	352.17	143.68	113.93	58.436	4.1942e-06	78.257	19.715	43.866	39.778	-24.176	318.492	251.438	-24.541	-18.285	210.574	9.416	-20.618	-16.086	-14.314	-8.437	20.604	-12.365	-8191	255	
1839.396	1	1	0	0	0.034907	0.26446	0.083397	0.1764	0.18233	0.18099	0.18104	0.16443	0.11714	0.13735	0.096304	0.11654	0.12499	0.14037	0.30994	0.040577	-4.1958	-5.2688	-4.4708	-4.7979	-5.1604	-4.3396	-5.2771	-5.0917	-4.3729	-5.3354	-4.5979	-4.8833	-5.3729	-4.4313	-5.2583	-5.0375	137.523	177.656	80.975	302.030	129.050	139.594	51.762	242.226	108.713	248.321	282.799	182.235	112.220	18.051	215.148	112.621	0.0011223	0.00045233	0.00010971	658.07	4.1907e-06	7.9061e-06	734.55	285.92	1.1616e-05	2.9219e-06	355.49	146.87	115.66	59.975	2.9101e-07	81.901	0.00039183	0.00038511	0.00010599	678.59	4.2086e-06	4.2486e-06	744.16	285.44	4.2139e-06	4.1606e-06	352.3	143.31	113.5	58.208	3.9844e-06	78.329	-2.024	196.260	-28.465	-24.180	295.048	98.561	-25.135	-18.174	137.083	136.450	-20.504	-15.991	-14.180	-8.338	71.393	-12.112	-8191	255	
1839.492	1	1	0	0	0.1965	0.10235	0.11512	0.16006	0.16509	0.26061	0.13291	0.11378	0.12992	0.29437	0.042802	0.26441	0.20068	0.066218	0.11979	0.11698	-4.0625	-5.2	-4.5917	-4.6958	-5.2229	-4.45	-5.1896	-5.1604	-4.2583	-5.2896	-4.9	-4.6875	-5.2583	-4.6333	-4.9167	-5.2729	262.741	240.143	37.160	-9.930	113.700	-21.453	314.308	276.124	-0.350	13.416	97.099	209.731	271.081	6.096	227.376	247.324	0.0014201	0.00064218	0.00040201	661.96	6.439e-06	6.0044e-06	743.59	286.96	1.1838e-06	2.8273e-06	359.75	151.21	118.62	61.989	1.8991e-06	85.557	0.00036936	0.0003666	0.00010107	675.76	4.0041e-06	3.9982e-06	749.26	285.35	3.9987e-06	3.988e-06	354.27	146.2	115.69	59.815	3.8251e-06	81.287	12.778	69.938	43.434	-23.843	154.907	137.406	-25.138	-18.256	-35.432	75.971	-20.318	-16.238	-14.393	-8.374	107.427	-12.475	-8191	255	
1839.613	1	1	0	0	0.077715	0.14375	0.14998	0.072172	0.20757	0.11169	0.16781	0.18749	0.26714	0.15988	0.035647	0.18027	0.15958	0.11468	0.23707	0.12393	-4.3375	-5.15	-4.6396	-4.6021	-5.225	-4.5771	-4.9771	-5.1937	-4.3208	-5.1271	-4.9187	-4.5729	-5.3979	-4.7542	-4.7542	-5.35	44.716	182.073	0.325	115.577	182.459	140.214	-18.196	-5.752	232.726	-26.756	217.353	261.910	170.430	-17.460	317.539	284.078	0.0010091	0.00044052	0.00010859	667.76	4.3438e-06	4.6732e-06	755.5	290.76	4.4804e-06	6.3261e-06	368.82	156.53	122.44	63.624	6.1009e-06	88.137	0.00035826	0.00034886	9.6604e-05	680.72	3.8215e-06	3.7953e-06	760.62	288	3.8662e-06	3.8263e-06	359.83	151.29	119.38	61.389	3.8236e-06	83.198	-14.048	49.867	81.076	-24.062	-9.796	-28.537	-25.069	-18.284	74.003	113.295	-20.761	-16.270	-14.245	-8.317	174.015	-12.477	-8191	255	
1839.684	1	1	0	0	0.3664	0.21444	0.1088	0.48991	0.36072	0.21777	0.098172	0.2022	0.10853	0.072571	0.20461	0.10875	0.24923	0.093518	0.15291	0.13648	-4.0542	-5.0167	-4.8521	-4.575	-5.3333	-4.5229	-4.9396	-5.1292	-4.325	-4.9458	-5.0312	-4.4479	-5.3646	-4.7104	-4.6375	-5.475	23.465	16.574	187.237	277.785	268.667	69.527	193.431	38.787	52.273	40.294	-23.927	-2.646	293.614	138.199	10.341	279.782	0.0009579	0.00041916	0.0001713	674.59	3.6279e-06	4.6155e-06	764.68	292.53	9.7166e-06	6.2385e-06	370.24	160.73	126.26	64.992	4.1551e-06	88.842	0.00035614	0.00034797	9.6796e-05	686.6	3.8502e-06	3.7926e-06	766.52	289.51	3.824e-06	3.7906e-06	360.62	154.72	122.11	62.55	3.7786e-06	84.184	16.803	113.486	319.568	-23.750	229.829	196.725	-25.022	-18.300	137.170	135.640	-20.730	-16.140	-14.403	-8.378	68.109	-12.696	-8191	255	
1839.805	1	1	0	0	0.12548	0.098408	0.17891	0.031884	0.14641	0.089217	0.024963	0.082366	0.14549	0.11612	0.090339	0.048645	0.12423	0.26068	0.095272	0.14064	-4.1687	-4.9604	-5.0604	-4.4042	-5.2771	-4.9083	-4.6583	-5.275	-4.3771	-4.9146	-5.2292	-4.2937	-5.1125	-5.0167	-4.45	-5.3542	171.666	35.001	196.959	320.508	221.492	147.132	3.697	219.123	130.036	44.617	-26.233	237.387	313.910	277.737	197.778	305.931	0.00098384	0.00052348	3.674e-05	678.75	7.3515e-06	3.503e-06	765.7	292.81	3.9178e-06	6.92e-06	371.4	161.63	127.01	65.294	2.3258e-06	89.61	0.00034794	0.00033865	9.5145e-05	686.55	3.6866e-06	3.6708e-06	765.55	288.83	3.6336e-06	3.6687e-06	361.29	154.83	122.47	62.807	3.7781e-06	84.515	-3.105	-9.215	118.468	-23.874	20.378	56.709	-24.938	-18.340	11.767	89.125	-20.806	-16.266	-14.819	-8.405	16.329	-12.829	-8191	255	
1839.901	1	1	0	0	0.17514	0.1943	0.28214	0.090253	0.058126	0.22071	0.21643	0.055823	0.037831	0.062427	0.098258	0.3497	0.0063785	0.28764	0.24934	0.16074	-4.0875	-4.7104	-5.2125	-4.3896	-5.1062	-4.9896	-4.5625	-5.3854	-4.4	-4.7875	-5.3646	-4.3792	-4.9854	-5.0542	-4.4104	-5.4229	119.486	196.449	154.566	171.241	160.523	204.464	-36.132	322.892	-2.502	121.251	18.758	303.485	56.633	-14.083	116.413	9.532	0.0010185	0.00047589	0.00013526	682.49	8.2358e-06	8.6071e-06	761.22	292.63	1.7555e-06	5.5939e-06	370.5	160.95	125.99	64.799	7.8231e-06	88.966	0.00034954	0.00034438	9.621e-05	690.31	3.7906e-06	3.74e-06	766.22	290.05	3.7847e-06	3.7982e-06	362.28	154.78	122.21	62.542	3.8478e-06	84.219	10.920	79.391	16.593	-23.706	108.771	69.370	-25.225	-18.215	223.400	174.516	-20.584	-16.035	-14.578	-8.369	43.572	-12.586	-8191	255	
1839.997	1	1	0	0	0.10948	0.11379	0.1275	0.12503	0.23581	0.089707	0.25184	0.15144	0.21547	0.32104	0.13444	0.076178	0.18233	0.21914	0.1264	0.16382	-4.2354	-4.6292	-5.1625	-4.4875	-4.975	-5.0146	-4.5479	-5.3646	-4.7479	-4.4646	-5.4062	-4.5771	-4.9563	-5.3063	-4.2937	-5.3583	306.270	264.777	25.921	238.089	8.429	219.161	249.888	258.443	276.634	293.152	229.268	-9.604	226.647	283.697	58.904	0.117	0.00086823	0.00063651	0.00015056	679.52	7.3306e-06	7.294e-06	762.36	292.08	7.508e-06	5.57e-06	368.33	160.34	125.6	64.539	1.6275e-06	88.615	0.00035974	0.00035694	9.8821e-05	690.25	3.8707e-06	3.8637e-06	766.5	289.24	3.8448e-06	3.8973e-06	361.46	154.42	121.97	62.194	3.8639e-06	84.061	-2.163	45.590	130.630	-23.933	102.484	106.706	-24.973	-18.192	84.620	53.329	-20.447	-16.208	-14.605	-8.437	45.033	-12.603	-8191	255	
1840.093	1	1	0	0	0.18465	0.02159	0.077802	0.022243	0.041033	0.27113	0.11142	0.096714	0.11929	0.20962	0.15222	0.20174	0.094132	0.11591	0.075788	0.15553	-4.2812	-4.4042	-5.2958	-4.5146	-4.7562	-5.1646	-4.4313	-5.3271	-4.7729	-4.4667	-5.4563	-4.6521	-4.9958	-5.2562	-4.3167	-5.1875	133.811	89.126	65.190	258.206	319.388	58.885	289.925	253.421	193.804	214.846	266.495	303.660	264.944	297.262	210.357	277.349	0.0013532	0.00017208	4.7085e-05	677.04	5.5318e-06	4.1125e-06	763.48	291.45	1.2859e-06	1.9455e-06	370.33	160.3	125.66	64.49	6.4668e-06	88.481	0.00035769	0.00035308	9.8073e-05	689.14	3.8854e-06	3.8737e-06	768.3	288.86	3.9171e-06	3.9697e-06	362.17	154.76	122.46	62.201	3.9958e-06	83.886	3.461	194.831	158.683	-24.037	67.767	250.004	-25.177	-18.455	38.743	180.511	-20.546	-16.310	-14.478	-8.414	38.545	-12.652	-8191	255	
1840.214	1	1	0	0	0.027895	0.21009	0.20797	0.20583	0.18447	0.13622	0.20393	0.20139	0.20685	0.15772	0.085406	0.16913	0.2778	0.07949	0.20845	0.33134	-4.5813	-4.4625	-5.2167	-4.5729	-4.5771	-5.3521	-4.4583	-5.1458	-4.8583	-4.3187	-5.2042	-4.8042	-4.7479	-5.2812	-4.35	-4.9083	74.042	176.828	284.618	208.007	32.673	268.517	-3.334	255.941	293.748	-6.653	41.669	-7.581	291.651	0.624	270.924	246.183	0.0008869	0.00047874	0.00024721	673.23	9.4997e-06	1.9637e-06	759.06	292.66	1.1273e-05	2.3109e-06	367.68	159.42	126.09	64.896	7.2249e-06	88.803	0.0003649	0.00036157	0.00010128	689.59	4.0125e-06	3.9991e-06	765.96	290.16	4.0474e-06	4.0281e-06	362.3	154.77	123.34	62.742	4.0377e-06	84.156	-5.322	95.000	15.112	-23.947	140.352	197.348	-24.853	-18.340	98.833	156.418	-20.853	-16.154	-14.769	-8.635	159.016	-12.688	-8191	255	
1840.308	1	1	0	0	0.2248	0.095908	0.23549	0.12729	0.15271	0.16059	0.23572	0.15767	0.063566	0.1246	0.2417	0.292	0.14024	0.1726	0.22388	0.17183	-4.7583	-4.3688	-5.1896	-4.7833	-4.5167	-5.325	-4.6062	-4.9979	-5.0333	-4.3333	-5.2875	-4.9292	-4.4604	-5.3833	-4.4646	-4.9104	198.972	254.398	313.407	308.472	133.345	257.453	264.644	261.682	96.922	101.340	183.620	288.880	318.611	272.438	41.581	294.317	0.0010306	0.00017164	0.00024148	670.26	9.2741e-06	1.21e-06	755.98	291.67	4.8553e-06	6.4189e-06	369.24	159.68	126.43	65.27	7.1233e-06	88.937	0.00038164	0.0003741	0.00010319	689.5	4.0962e-06	4.0756e-06	764.18	291.2	4.1436e-06	4.103e-06	363.46	154.84	123.51	63.185	4.1367e-06	84.648	11.298	44.554	39.169	-23.945	83.642	240.708	-24.884	-18.463	136.803	62.468	-20.558	-16.128	-14.567	-8.454	61.274	-12.550	-8191	255	
1840.380	1	1	0	0	0.05625	0.094711	0.13485	0.18781	0.10901	0.049514	0.22798	0.1017	0.1351	0.08292	0.03992	0.085577	0.031384	0.12591	0.11892	0.15219	-4.7896	-4.3938	-5.0792	-4.9187	-4.3083	-5.1521	-4.3875	-4.8938	-5.1146	-4.2083	-5.3187	-4.9812	-4.6667	-5.35	-4.6854	-4.7854	310.643	185.722	100.759	222.157	171.724	174.412	287.997	220.649	311.168	235.851	-13.863	297.020	8.925	101.963	18.844	275.277	0.00097467	0.00078241	8.4805e-05	673.13	6.1441e-06	4.9276e-06	754.77	292.86	1.5289e-05	7.1593e-06	369.55	160.28	126.64	65.539	6.1301e-06	89.455	0.00038359	0.00037731	0.00010445	688.53	4.1679e-06	4.1203e-06	761.68	291.58	4.1054e-06	4.1019e-06	363.58	155.59	123.35	63.227	4.1163e-06	85.07	18.843	32.542	73.808	-23.655	88.490	83.360	-24.847	-18.216	86.873	127.771	-20.837	-16.356	-14.249	-8.548	131.514	-12.623	-8191	255	
1840.501	1	1	0	0	0.15237	0.044973	0.1174	0.19631	0.10355	0.13441	0.18034	0.36631	0.063493	0.071363	0.23977	0.22371	0.036573	0.27198	0.20401	0.11169	-4.9521	-4.4271	-4.9604	-5.0854	-4.3333	-5.325	-4.8562	-4.4417	-5.2229	-4.4646	-5.1542	-5.1333	-4.3771	-5.3604	-4.6521	-4.6396	118.991	233.336	298.864	275.260	80.663	-24.178	87.156	-28.072	161.726	248.331	290.673	239.562	98.065	303.613	241.260	234.273	0.0010014	0.00064337	0.00017544	671.3	1.0934e-05	4.097e-06	755.5	291.69	1.0516e-05	8.2327e-06	372.82	160.7	126.38	65.215	6.5312e-06	89.37	0.00038736	0.00038136	0.00010516	689.8	4.1944e-06	4.1715e-06	762.38	291.71	4.1712e-06	4.1454e-06	365.61	155.4	123.04	63.113	4.0833e-06	84.92	0.454	43.169	49.895	-23.906	62.096	205.626	-24.956	-18.563	105.077	177.359	-20.672	-16.155	-14.185	-8.340	18.243	-12.598	-8191	255	
1840.597	1	1	0	0	0.27518	0.074771	0.049583	0.083734	0.069962	0.035754	0.048102	0.084511	0.096648	0.35647	0.2281	0.093504	0.13007	0.14198	0.14143	0.30127	-4.9854	-4.5542	-4.9875	-5.2521	-4.3083	-5.2167	-4.9021	-4.6583	-5.3104	-4.5917	-5.0833	-5.2729	-4.5167	-5.2979	-4.8667	-4.7375	279.494	67.874	288.161	280.568	185.137	220.079	243.281	232.910	32.427	111.754	213.915	-16.387	16.477	57.075	186.720	267.646	0.0012294	0.00024615	0.00014598	673.44	2.4608e-06	4.9108e-06	751.55	291.67	1.2173e-05	3.5138e-06	369.46	159.52	125.27	64.847	6.8083e-06	88.782	0.00037865	0.00037063	0.00010368	688.35	4.103e-06	4.0294e-06	759.65	290.16	4.0727e-06	4.081e-06	363.07	154.03	121.61	62.7	4.0382e-06	84.206	19.942	56.943	35.343	-23.676	111.840	97.034	-24.670	-18.528	215.001	126.592	-20.650	-16.058	-14.390	-8.431	121.431	-12.819	-8191	255	
1840.693	1	1	0	0	0.12871	0.18735	0.3282	0.20904	0.10489	0.11719	0.11404	0.18638	0.12713	0.094414	0.029521	0.14853	0.24317	0.020471	0.14969	0.21965	-5.0271	-4.4479	-4.6687	-5.1458	-4.3104	-5.15	-5.0646	-4.4583	-5.1792	-4.5708	-4.8396	-5.2292	-4.4875	-5.1188	-5.0979	-4.5833	209.422	147.117	281.473	-35.535	71.460	252.775	111.300	311.954	309.106	139.574	275.636	293.153	256.404	164.942	302.788	249.194	0.00094288	0.00023213	0.00014781	666.35	1.061e-05	2.439e-06	749.22	290.81	1.6247e-06	3.6217e-06	365.59	155.94	123.52	64.232	1.0451e-06	87.54	0.00037548	0.00036786	0.00010391	683.39	4.0599e-06	4.0556e-06	754.97	290.46	4.0917e-06	4.0741e-06	361.16	151.76	120.49	62.339	4.1223e-06	83.52	15.323	33.091	56.393	-23.722	102.077	91.266	-25.174	-18.281	138.054	148.083	-20.871	-16.034	-14.615	-8.246	-33.080	-12.766	-8191	255	
1840.789	1	1	0	0	0.0942	0.053686	0.066704	0.015704	0.11403	0.15613	0.25527	0.093986	0.088443	0.27335	0.026992	0.067126	0.13895	0.051939	0.15743	0.037595	-5.1083	-4.6146	-4.7333	-5.2333	-4.35	-5.0604	-5.0917	-4.5271	-5.4021	-4.7854	-4.6771	-5.4812	-4.5521	-4.9083	-5.0563	-4.4292	142.161	129.764	47.132	-9.588	233.232	74.158	241.691	208.306	21.277	268.525	90.177	178.431	-27.702	64.847	14.725	97.538	0.00076522	0.00026412	0.00030757	666.08	8.8263e-06	5.4089e-06	746.3	291.64	8.1811e-06	6.2901e-06	363.52	154.91	122.61	63.739	1.5398e-06	87.294	0.00038147	0.00037175	0.00010469	681.8	4.0608e-06	4.0455e-06	754.47	290.16	4.078e-06	4.0729e-06	360.22	150.67	119.53	61.887	4.0769e-06	83.195	4.247	50.450	22.336	-24.006	0.788	182.211	-24.842	-18.379	116.937	64.604	-20.672	-15.978	-14.342	-8.535	241.694	-12.548	-8191	255	
1840.910	1	1	0	0	0.17818	0.25298	0.28965	0.16276	0.32423	0.16446	0.13584	0.083921	0.16815	0.15841	0.020673	0.078249	0.02966	0.28673	0.20252	0.16609	-4.8354	-4.875	-4.5854	-5.1604	-4.4646	-4.7208	-5.2979	-4.4146	-5.2438	-4.9187	-4.5521	-5.3875	-4.6583	-4.725	-5.4	-4.5354	-5.092	137.898	76.972	282.170	160.227	211.094	308.259	208.721	278.672	283.744	145.748	182.389	-34.999	312.818	12.154	303.455	0.00078766	0.00023994	0.00014447	662.01	4.7939e-06	3.9435e-06	746.17	289.41	6.9187e-06	4.6057e-06	366.56	156.2	122.43	63.945	4.4462e-06	87.968	0.00037983	0.00037249	0.00010534	681.35	4.0619e-06	4.0832e-06	754.24	289.52	4.0439e-06	4.0864e-06	361.52	151.31	119.57	61.89	4.0456e-06	83.571	10.287	276.599	-7.119	-23.736	179.698	159.069	-25.079	-18.583	66.579	160.816	-20.768	-15.695	-14.174	-8.457	-1.539	-12.587	-8191	255	
1840.982	1	1	0	0	0.21973	0.079334	0.20913	0.18907	0.068318	0.033668	0.29129	0.11076	0.26138	0.18152	0.24063	0.33139	0.19099	0.17355	0.06289	0.047859	-4.6625	-4.85	-4.3917	-5.3083	-4.6229	-4.5875	-5.3688	-4.4125	-5.0479	-5.0625	-4.4792	-5.4333	-4.7771	-4.6042	-5.1854	-4.5042	104.018	86.319	98.317	239.518	22.380	103.743	184.663	203.083	159.930	303.932	276.315	278.829	300.170	287.060	156.339	-34.184	0.0011843	0.00051862	6.2277e-05	667.72	1.778e-06	3.6095e-06	754.06	292.31	8.686e-06	2.4527e-06	369.42	159.21	123.87	65.239	7.3164e-06	89.328	0.00037625	0.00037152	0.00010353	682.46	4.0239e-06	4.0284e-06	759.07	290.09	4.031e-06	4.0198e-06	362.91	153.88	121.32	62.969	4.0314e-06	84.717	6.853	8.871	-24.294	-23.415	41.214	85.725	-24.870	-18.379	75.459	277.760	-20.598	-16.093	-14.513	-8.500	113.598	-12.727	-8191	255	
1841.078	1	1	0	0	0.038199	0.088509	0.10615	0.095671	0.22351	0.30266	0.11616	0.087739	0.13637	0.18969	0.11005	0.13353	0.054628	0.21442	0.20101	0.15532	-4.6167	-5.2479	-4.3812	-5.2375	-4.7292	-4.3417	-5.2896	-4.4875	-4.7812	-5.1979	-4.5188	-5.3313	-5.0938	-4.5729	-5.1917	-4.7646	264.585	318.827	218.299	166.305	7.966	92.810	-11.951	248.601	156.501	18.787	270.813	266.201	320.040	248.258	89.759	130.166	0.0010132	0.00077998	0.00013772	671.45	7.7237e-06	6.2313e-06	751.99	293.32	1.0248e-05	3.5184e-06	368.22	161.17	126.75	66.062	5.2218e-06	90	0.00037642	0.00036907	0.00010295	685.6	4.0311e-06	4.0487e-06	759.56	291.01	4.0632e-06	4.0385e-06	363.34	155.98	123.7	63.745	4.0235e-06	85.414	25.301	54.606	104.571	-23.925	-4.044	32.654	-24.753	-18.253	87.559	104.720	-20.713	-16.189	-14.839	-8.701	66.974	-12.577	-8191	255	
1841.174	1	1	0	0	0.14236	0.17885	0.079664	0.2313	0.055606	0.10315	0.069311	0.17384	0.17299	0.2562	0.15982	0.22067	0.11923	0.27853	0.27829	0.049825	-4.4958	-5.3021	-4.2937	-5.2188	-4.9979	-4.3479	-5.4125	-4.7958	-4.5938	-5.275	-4.4146	-5.1188	-4.8583	-4.6021	-5.1	-4.8646	116.135	3.365	67.663	-11.624	-34.269	310.523	-6.102	197.570	299.710	105.067	-22.510	303.527	28.256	275.771	88.064	-28.727	0.0010368	0.00033603	0.00019489	672.53	6.1061e-06	8.4161e-06	753.36	293.78	8.5148e-06	3.1182e-06	371.13	162.9	128.18	66.062	6.6146e-06	90.547	0.00037891	0.00036778	0.00010213	689.58	4.0087e-06	4.0606e-06	761.69	291.42	3.9849e-06	3.975e-06	364.44	157.63	124.82	63.805	3.9399e-06	85.9	6.045	93.723	30.222	-23.989	21.469	74.011	-25.076	-18.313	17.758	187.309	-20.915	-16.156	-14.913	-8.810	116.780	-12.533	-8191	255	
1841.293	1	1	0	0	0.084449	0.14414	0.11192	0.10221	0.23927	0.1036	0.077092	0.041612	0.11101	0.18581	0.014645	0.053385	0.15358	0.16547	0.028294	0.15065	-4.2646	-5.2708	-4.3875	-5.0542	-5.0563	-4.3042	-5.4187	-4.9563	-4.3812	-5.2438	-4.5021	-4.9062	-5.275	-4.6875	-5.2417	-4.9729	297.167	170.583	280.578	-18.974	261.989	180.753	102.070	229.509	72.233	27.999	68.614	266.529	34.290	315.213	304.637	226.387	0.00074416	0.00049727	0.00018348	675.95	6.3226e-06	8.3799e-06	756.93	293.75	7.3737e-06	5.9425e-06	372.63	164.53	129.23	66.321	6.9361e-06	91.322	0.00036825	0.00036436	9.9891e-05	689.63	3.9297e-06	3.9274e-06	763.47	291.41	3.9229e-06	3.913e-06	365.06	158.65	125.38	63.966	3.8831e-06	86.398	14.073	85.050	52.876	-24.016	122.533	76.378	-24.815	-18.545	92.643	111.816	-20.955	-16.531	-14.735	-8.564	117.199	-12.695	-8191	255	
1841.389	1	1	0	0	0.21776	0.11806	0.26254	0.12747	0.12738	0.10745	0.29178	0.11454	0.10098	0.13163	0.10099	0.13913	0.12332	0.30355	0.11586	0.32802	-4.2354	-5.3208	-4.5292	-4.8625	-5.2542	-4.2188	-5.2125	-5.0375	-4.5604	-5.1542	-4.7271	-4.7771	-5.2438	-4.4625	-5.0208	-5.0833	318.065	261.277	83.698	315.948	33.267	87.882	250.320	288.358	-25.995	74.809	-3.067	-23.998	237.065	59.894	92.319	249.144	0.001185	0.000425	0.00021337	676.13	8.7553e-07	2.166e-06	763	293.31	1.0161e-05	2.0252e-06	373.17	165.44	129.6	66.325	6.1248e-06	91.32	0.00036337	0.00035157	9.8405e-05	689.29	3.8936e-06	3.8617e-06	766.48	291.28	3.905e-06	3.8984e-06	366.83	159.87	126.01	64.086	3.8453e-06	86.866	5.615	296.684	21.290	-24.138	103.821	112.876	-25.287	-18.385	59.532	203.774	-20.624	-16.498	-14.526	-8.726	71.396	-12.865	-8191	255	
1841.485	1	1	0	0	0.16579	0.049297	0.12653	0.064045	0.15879	0.021977	0.10661	0.065756	0.10004	0.066483	0.15992	0.087023	0.028393	0.33523	0.10341	0.090843	-4.2667	-5.225	-4.6458	-4.6979	-5.2167	-4.4125	-5.15	-5.0729	-4.4187	-5.2896	-4.775	-4.5979	-5.4229	-4.4271	-4.9604	-5.2667	320.439	175.414	141.671	193.180	-20.935	238.752	285.577	-22.684	89.349	-20.287	199.655	77.948	84.213	319.952	159.977	152.583	0.00090362	0.00034611	6.8759e-05	675.11	1.0807e-05	3.8103e-06	762.78	293.65	8.5031e-06	2.5635e-06	373.79	166.61	130.3	66.839	2.5141e-06	91.239	0.00035783	0.00034498	9.661e-05	687.8	3.7781e-06	3.7649e-06	767.15	291.55	3.7802e-06	3.7263e-06	366.25	160.17	126.27	64.265	3.7585e-06	86.644	-8.063	108.815	93.865	-24.023	52.168	87.171	-24.977	-18.441	94.956	34.604	-20.811	-16.731	-14.600	-8.745	96.485	-12.587	-8191	255	
1841.581	1	1	0	0	0.10127	0.031207	0.13675	0.16702	0.27187	0.13916	0.016736	0.24604	0.13927	0.22252	0.15748	0.19051	0.13558	0.11849	0.075198	0.33556	-4.0229	-5.1979	-4.5896	-4.6042	-5.425	-4.5604	-4.9729	-5.3	-4.225	-5.0458	-4.95	-4.4437	-5.2833	-4.7729	-4.6875	-5.4479	312.261	172.815	282.116	222.008	134.775	175.460	217.529	318.414	115.815	112.071	256.859	298.149	314.028	55.047	216.180	259.492	0.0014079	0.0004762	0.00023103	678.69	4.7305e-06	2.826e-06	757.91	294.93	4.8912e-06	2.619e-06	373.41	165.69	130.03	66.974	1.0892e-06	92.136	0.00034942	0.00033775	9.4699e-05	688.86	3.7204e-06	3.7078e-06	764.26	291.76	3.7271e-06	3.696e-06	365.98	159.88	126.29	64.44	3.7573e-06	87.071	17.947	81.751	46.765	-23.996	196.688	33.147	-24.886	-18.603	57.748	215.150	-20.997	-16.406	-14.803	-8.653	252.986	-12.650	-8191	255	
1841.677	1	1	0	0	0.12196	0.16043	0.18042	0.08258	0.086022	0.090912	0.076841	0.13239	0.17771	0.072565	0.07828	0.15849	0.14656	0.20745	0.16278	0.17284	-4.1167	-4.9979	-4.8271	-4.5646	-5.2646	-4.525	-4.7333	-5.2625	-4.3854	-5.1167	-5.0917	-4.6146	-5.5125	-4.7479	-4.6833	-5.3521	237.112	297.460	132.718	-18.799	251.444	3.514	250.006	243.800	315.821	51.504	94.399	167.473	-10.101	220.464	75.111	152.966	0.0010289	0.00026936	0.00016702	677.43	6.0876e-06	9.8996e-06	761.88	294.5	2.1253e-06	6.1181e-06	372.65	165.39	129.89	67.02	1.6867e-06	92.32	0.00035293	0.00034288	9.5997e-05	687.68	3.7488e-06	3.7745e-06	764.51	292.1	3.7331e-06	3.7576e-06	366.41	159.68	126.21	64.52	3.7648e-06	87.214	11.621	-27.135	33.114	-23.716	119.387	160.748	-25.204	-18.340	109.618	85.580	-20.812	-16.492	-14.619	-8.707	55.614	-12.665	-8191	255	
1841.773	1	1	0	0	0.043802	0.062202	0.11276	0.15345	0.10744	0.24016	0.23023	0.073298	0.13044	0.077277	0.10254	0.16728	0.37546	0.16715	0.13318	0.29554	-4.0625	-5.0813	-4.9792	-4.4208	-5.1458	-4.6625	-4.725	-5.3688	-4.4187	-4.9271	-5.3021	-4.6417	-5.325	-5.0188	-4.6104	-5.55	0.456	281.610	288.227	249.536	69.315	31.363	-26.049	-15.339	-25.881	168.945	-9.428	270.701	261.083	285.887	296.389	294.254	0.00078647	0.0005445	0.00015765	675.05	3.8266e-06	4.8266e-07	759.93	296.36	5.6085e-06	5.9953e-06	373.3	165.74	130.17	66.992	7.3475e-06	92.561	0.00034643	0.00034229	9.556e-05	687.55	3.7389e-06	3.7465e-06	764.05	291.81	3.7514e-06	3.7488e-06	367.07	160.01	126.13	64.462	3.7998e-06	87.408	4.767	170.897	4.601	-24.252	138.797	17.576	-25.013	-18.698	173.448	85.501	-20.790	-16.525	-14.785	-8.672	101.455	-12.787	-8191	255	
1841.894	1	1	0	0	0.19801	0.21461	0.12905	0.23958	0.10267	0.13383	0.19328	0.26132	0.039633	0.13547	0.081923	0.24233	0.049185	0.26003	0.093773	0.4565	-4.2479	-4.8479	-5.3021	-4.5396	-5.1896	-4.8771	-4.6958	-5.5708	-4.6521	-4.9417	-5.475	-4.6333	-5.4062	-5.1146	-4.4646	-5.6375	231.544	70.963	216.408	268.671	14.597	175.914	77.626	182.192	248.862	186.727	263.914	-29.928	264.028	315.887	297.073	300.456	0.0014295	0.00044558	0.00013378	674.96	6.0894e-06	3.2439e-06	762.78	294.11	7.0104e-06	6.6196e-06	376.21	166.18	129.55	66.41	7.7799e-06	91.444	0.00035128	0.00034736	9.656e-05	688.15	3.7364e-06	3.7496e-06	765.99	291.22	3.7753e-06	3.7727e-06	367.89	160	126.33	64.213	3.7748e-06	86.701	21.403	67.652	46.607	-23.814	100.948	141.914	-24.830	-18.707	11.265	160.789	-20.814	-16.478	-14.963	-8.671	147.622	-12.859	-8191	255	
1841.990	1	1	0	0	0.20968	0.15219	0.10302	0.16456	0.10006	0.18185	0.14399	0.15342	0.14228	0.10011	0.15475	0.12386	0.15848	0.19747	0.11145	0.24105	-4.575	-4.775	-5.2542	-4.525	-5.1708	-5.1188	-4.6312	-5.4542	-4.6687	-4.6813	-5.5625	-4.5167	-5.1042	-5.4333	-4.6083	-5.5021	74.832	104.304	182.937	188.853	293.940	259.871	32.638	-28.786	138.220	235.954	106.252	22.168	-6.126	313.945	232.546	265.613	0.0013539	0.00045549	0.00014346	675.14	1.1042e-05	6.488e-06	757.11	291.69	1.0095e-05	3.6142e-06	371.69	164.47	129.64	66.431	8.9246e-06	91.1	0.00035088	0.00034617	9.5706e-05	686.53	3.7564e-06	3.7686e-06	762.4	290.56	3.7821e-06	3.7915e-06	364.61	159.01	125.67	63.912	3.7717e-06	85.956	13.159	317.848	65.896	-23.783	143.121	102.994	-25.182	-18.420	111.651	223.400	-20.510	-16.327	-14.709	-8.384	128.899	-12.699	-8191	255	
1842.086	1	1	0	0	0.096396	0.23586	0.14471	0.14045	0.0679	0.046809	0.1857	0.10253	0.15418	0.3561	0.038259	0.11698	0.12649	0.25169	0.10376	0.16393	-4.5	-4.8083	-5.3146	-4.7542	-4.8875	-5.275	-4.5667	-5.3583	-4.9	-4.5229	-5.6354	-4.6896	-5.0771	-5.3063	-4.5646	-5.2479	151.980	279.466	265.629	207.266	17.440	-18.988	215.456	260.156	-8.085	-8.247	253.633	-35.538	218.807	245.897	80.365	-29.075	0.0012926	0.00032865	0.00011558	676.66	4.1792e-07	1.9532e-06	756.73	292.85	3.8129e-06	4.5835e-06	374.64	165.15	130.16	66.245	1.6955e-06	91.2	0.00035017	0.000346	9.5826e-05	687.08	3.818e-06	3.8143e-06	761.71	290.4	3.8173e-06	3.8361e-06	364.63	158.89	125.89	63.772	3.7643e-06	85.701	10.697	-4.916	13.501	-23.609	153.075	198.370	-25.017	-18.321	163.453	90.561	-20.597	-16.196	-14.700	-8.524	3.565	-12.659	-8191	255	
1842.205	1	1	0	0	0.053056	0.10394	0.19041	0.23892	0.081331	0.10983	0.18423	0.13982	0.10399	0.063073	0.21324	0.10527	0.13714	0.26813	0.12256	0.091135	-4.6375	-4.6229	-5.4437	-4.7208	-4.65	-5.4125	-4.5458	-5.2667	-5.0917	-4.5625	-5.3896	-4.9	-4.9875	-5.4292	-4.5854	-5.3646	83.402	141.428	185.949	226.053	-10.961	208.055	303.227	218.500	244.436	30.653	-27.748	177.550	210.006	267.569	20.147	277.362	0.0011646	0.00029036	0.00015512	677.62	2.252e-06	3.5439e-06	758.58	293.65	4.4489e-06	4.821e-06	372.8	165.13	129.88	66.379	1.3089e-06	90.757	0.00035059	0.00034717	9.4995e-05	685.72	3.779e-06	3.7665e-06	761.45	290.3	3.762e-06	3.7881e-06	363.77	159.14	125.79	63.686	3.7991e-06	85.882	4.857	-22.100	20.429	-23.886	119.445	12.717	-24.998	-18.546	173.946	83.581	-20.680	-16.221	-14.761	-8.359	245.195	-12.791	-8191	255	
1842.277	1	1	0	0	0.22305	0.14786	0.12816	0.21687	0.24172	0.22083	0.29405	0.050516	0.10937	0.023987	0.091187	0.28362	0.11648	0.16954	0.13734	0.15372	-4.7771	-4.4313	-5.3938	-4.7625	-4.7896	-5.5604	-4.7	-5.0687	-5.1062	-4.575	-5.3917	-4.9563	-4.6375	-5.4417	-4.4437	-5.0687	135.471	193.692	220.483	-21.854	131.132	103.734	204.921	310.221	-21.829	-23.312	-21.927	208.796	310.700	285.811	51.079	262.845	0.0010402	0.00051159	0.00025197	674.31	3.7609e-06	5.1843e-06	757.62	293.88	1.4114e-05	3.1296e-06	375.13	166.4	129.49	66.194	7.1541e-06	90.886	0.00035297	0.00034866	9.7511e-05	687.23	3.8629e-06	3.8483e-06	763.58	290.44	3.8698e-06	3.8282e-06	366.32	159.96	125.5	63.782	3.8237e-06	86.145	12.904	99.464	68.667	-23.897	88.380	61.867	-25.137	-18.763	111.483	6.951	-20.633	-16.385	-14.779	-8.400	138.645	-12.737	-8191	255	
1842.373	1	1	0	0	0.055554	0.076133	0.11079	0.029496	0.20369	0.17069	0.2203	0.066956	0.15177	0.30015	0.18391	0.15759	0.16845	0.19253	0.08105	0.25742	-5.0813	-4.6229	-5.2354	-5.0771	-4.5833	-5.3375	-4.7333	-5.0167	-5.3438	-4.4667	-5.2542	-5.2	-4.6	-5.6521	-4.7937	-4.8896	109.383	249.198	139.509	61.426	38.662	-29.408	244.209	145.846	164.998	36.324	244.042	282.767	258.144	-9.145	126.996	321.848	0.0010729	0.00056288	0.00016935	674.54	6.353e-06	1.7212e-06	761.41	291.92	8.8764e-06	3.026e-06	374.53	166.19	130	66.337	1.9376e-06	90.981	0.00035643	0.00035172	9.731e-05	686.2	3.8971e-06	3.8846e-06	765.21	289.95	3.8832e-06	3.8884e-06	366.2	159.76	126.26	63.816	3.8027e-06	85.907	10.513	79.515	24.520	-23.856	142.275	101.944	-24.975	-18.445	149.945	158.340	-20.730	-15.841	-14.841	-8.639	271.222	-12.905	-8191	255	
1842.469	1	1	0	0	0.29966	0.16183	0.16541	0.14126	0.10801	0.14848	0.36289	0.17591	0.14494	0.17752	0.036425	0.16228	0.16397	0.20572	0.089029	0.14948	-5.0563	-4.3187	-5.0896	-5.0646	-4.3083	-5.4479	-4.7812	-4.9	-5.3729	-4.5333	-5.0917	-5.2542	-4.6146	-5.5417	-4.8104	-4.9292	161.741	283.825	308.992	281.829	152.266	314.848	193.078	214.040	135.502	104.137	36.327	263.810	48.527	270.957	8.669	301.699	0.0009282	0.00040714	0.00015238	675.7	1.4252e-06	5.4038e-06	763.61	294.95	8.7278e-06	5.7299e-06	374.58	166.91	130.43	67.072	9.5771e-06	91.142	0.00035197	0.00034579	9.6223e-05	686.57	3.765e-06	3.8055e-06	762.62	290.71	3.8357e-06	3.8472e-06	366.55	160.46	126.82	64.281	3.8732e-06	86.049	14.795	42.503	-28.312	-23.981	130.566	140.247	-24.843	-18.250	177.229	234.405	-20.517	-16.144	-14.541	-8.386	-0.929	-12.652	-8191	255	
1842.590	1	1	0	0	0.054875	0.075242	0.077505	0.34183	0.18833	0.13691	0.22681	0.1434	0.11573	0.21245	0.58142	0.1542	0.14735	0.11456	0.16362	0.11332	-4.975	-4.4708	-5.1271	-5.2542	-4.3708	-5.2896	-4.9958	-4.8313	-5.3833	-4.4917	-5.0146	-5.4167	-4.6396	-5.4354	-4.9187	-4.7188	0.932	272.021	148.168	282.533	204.383	316.458	262.258	-33.007	296.130	138.199	306.337	288.850	317.598	256.004	78.877	198.792	0.00098001	0.00072664	6.5415e-05	678.97	7.249e-06	1.6198e-06	765.14	295.88	9.2061e-06	7.4352e-06	375	167.57	131.62	67.055	5.8594e-06	91.766	0.00036171	0.0003551	9.9543e-05	689.19	3.931e-06	3.9028e-06	764.35	292.06	3.8954e-06	3.8969e-06	367.28	160.76	126.8	64.439	3.9213e-06	86.594	9.962	81.886	38.414	-24.043	87.186	129.903	-24.986	-18.259	79.347	26.190	-20.729	-16.035	-14.551	-8.455	123.594	-12.688	-8191	255	
1842.686	1	1	0	0	0.24294	0.12293	0.29866	0.095948	0.10795	0.16384	0.25162	0.1802	0.23804	0.12128	0.23744	0.12334	0.10903	0.22694	0.25587	0.33282	-5.1292	-4.6333	-4.6958	-5.3479	-4.4792	-5.4104	-5.2042	-4.4875	-5.2833	-4.7667	-4.8667	-5.4604	-4.6208	-5.275	-5.2125	-4.5646	187.582	287.385	66.391	287.366	283.291	241.959	113.746	301.905	-23.923	147.834	267.359	4.568	-7.708	-25.491	152.697	288.540	0.0010603	0.00038505	8.3887e-05	681.06	7.2083e-06	5.6251e-06	764.76	296.01	7.2836e-06	4.51e-06	376.13	167.07	130.26	66.896	7.2763e-06	91.757	0.00036252	0.00035908	9.984e-05	689.79	3.9361e-06	3.9592e-06	764.07	291.76	3.9253e-06	3.9219e-06	367.27	160.7	126.6	64.345	3.9285e-06	86.729	8.194	60.999	218.271	-23.680	117.362	56.379	-24.542	-18.272	47.870	89.965	-20.759	-16.163	-14.604	-8.707	21.327	-12.655	-8191	255	
1842.782	1	1	0	0	0.17315	0.052094	0.031833	0.29723	0.052656	0.21016	0.38159	0.088536	0.11173	0.22774	0.27463	0.1784	0.12293	0.19734	0.28924	0.19368	-4.9812	-4.8521	-4.7792	-5.4125	-4.5125	-5.0708	-5.2562	-4.6854	-5.3771	-4.7063	-4.8208	-5.5104	-4.6729	-5.1354	-5.2417	-4.4604	125.766	40.325	233.717	226.504	12.224	215.880	236.140	282.690	0.422	59.778	-29.877	267.980	13.239	292.381	227.258	238.598	0.0011757	0.00029646	0.00016427	677.62	6.6844e-06	5.6429e-06	759.75	294.68	7.7402e-06	2.7134e-06	378.64	167.8	131.37	67.227	7.8486e-06	92.395	0.00036523	0.00036279	0.00010049	688.88	3.9805e-06	3.9843e-06	766.06	292	3.9739e-06	3.9743e-06	369.72	161.39	127.14	64.755	3.9635e-06	87.306	19.644	13.512	51.324	-23.558	139.851	135.062	-24.866	-18.334	253.026	61.656	-20.734	-16.192	-14.679	-8.648	68.570	-12.526	-8191	255	
1842.854	1	1	0	0	0.2661	0.073639	0.15186	0.20537	0.061493	0.18429	0.059501	0.14553	0.22188	0.12504	0.16422	0.072432	0.0024923	0.13198	0.14675	0.19542	-5.0417	-4.9583	-4.6083	-5.5979	-4.6417	-4.8708	-5.3875	-4.5646	-5.2688	-4.9708	-4.6625	-5.6125	-4.8104	-4.9563	-5.4146	-4.8125	144.505	217.898	281.117	-33.249	-18.764	117.094	210.808	248.270	183.243	148.897	7.553	253.144	200.150	294.669	58.288	322.184	0.00093406	0.00028781	0.00019119	676.54	2.3582e-06	4.192e-06	758.92	292.8	9.0038e-06	5.0547e-06	375.78	167.43	131.24	67.246	9.6146e-07	91.376	0.00037037	0.00036383	0.00010152	690.93	3.9725e-06	3.9861e-06	763.93	292.24	3.985e-06	3.9936e-06	368.69	161.37	127.35	64.869	4.0551e-06	86.576	34.326	-14.786	43.272	-23.978	27.157	99.128	-24.938	-18.397	128.735	121.671	-20.628	-16.286	-14.737	-8.527	314.105	-12.688	-8191	255	
1842.974	1	1	0	0	0.10637	0.22515	0.16172	0.12754	0.12243	0.13284	0.10742	0.21996	0.21045	0.16949	0.32307	0.2579	0.077833	0.13906	0.054952	0.10032	-4.9	-5.0646	-4.45	-5.5146	-4.7562	-4.8521	-5.5667	-4.6542	-5.05	-5.175	-4.5792	-5.4375	-4.9313	-4.7771	-5.3479	-4.6062	85.542	82.624	153.239	222.965	-9.219	268.984	58.367	213.174	305.275	20.279	240.478	315.838	299.286	129.286	197.000	4.224	0.0014241	0.00027975	0.00016682	674.27	4.6754e-06	2.4823e-06	756	295.08	8.7287e-06	4.2845e-06	373.88	166.98	131.81	67.505	8.911e-06	92.035	0.00037613	0.00037082	0.00010224	690.8	4.0055e-06	4.0301e-06	761.47	292.29	3.9743e-06	3.8981e-06	367.22	161.2	127.74	65.031	3.8485e-06	86.93	-9.780	8.012	42.974	-23.883	39.268	131.913	-25.045	-18.409	101.848	109.006	-20.583	-16.175	-14.764	-8.628	114.614	-12.526	-8191	255	
1843.071	1	1	0	0	0.081293	0.059761	0.14584	0.081989	0.0094448	0.10498	0.16035	0.22727	0.017906	0.23904	0.071992	0.20694	0.19525	0.11023	0.095909	0.048012	-4.8271	-5.325	-4.3958	-5.4208	-4.8125	-4.7271	-5.3542	-4.5125	-4.9417	-5.3354	-4.4896	-5.3938	-5.0271	-4.75	-5.4208	-4.7208	302.642	233.293	295.306	0.547	191.677	198.354	318.139	221.644	300.977	13.537	82.989	272.213	-33.947	309.676	253.529	244.238	0.0010186	0.00062084	0.00017354	676.04	6.5111e-06	4.0369e-06	760.42	295.02	3.8851e-06	5.9525e-06	374.56	167.81	132.3	67.344	1.851e-06	91.763	0.00036489	0.0003563	9.8725e-05	688.94	3.8997e-06	3.9347e-06	761.63	292.46	3.9287e-06	3.9346e-06	367.01	161.72	127.98	64.949	3.9292e-06	86.839	10.102	31.896	68.067	-23.855	260.768	107.373	-25.029	-18.355	-10.740	103.046	-20.828	-16.234	-14.317	-8.749	96.740	-12.513	-8191	255	
1843.167	1	1	0	0	0.080944	0.052152	0.086377	0.40736	0.1575	0.064166	0.20642	0.1235	0.19246	0.066957	0.22991	0.10161	0.19161	0.34125	0.096025	0.26068	-4.5896	-5.2417	-4.5271	-5.3333	-5.0042	-4.4458	-5.5417	-4.9292	-4.7937	-5.3021	-4.6208	-5.2104	-5.2417	-4.7438	-5.3667	-5.0375	164.748	293.011	201.978	310.554	187.539	97.201	-17.632	-12.924	134.446	248.838	228.168	305.473	300.492	294.991	36.551	239.283	0.0010817	0.0010163	7.7529e-05	675.09	1.2132e-05	3.6783e-06	758.25	295.82	8.7324e-06	5.0424e-06	375.92	168.15	132.32	67.548	3.9887e-06	91.948	0.00037062	0.00036412	0.00010128	690.26	3.9947e-06	4.0085e-06	764.58	292.66	4.0461e-06	3.9722e-06	368.12	162.22	128.14	65.017	3.9227e-06	87.002	6.321	51.526	-10.041	-23.941	76.929	18.009	-24.828	-18.457	143.539	60.054	-20.544	-16.172	-14.531	-8.731	168.984	-12.570	-8191	255	
1843.287	1	1	0	0	0.060678	0.19194	0.12568	0.25231	0.052224	0.1411	0.18847	0.076546	0.11485	0.11349	0.083806	0.36028	0.012017	0.28868	0.10248	0.12066	-4.4875	-5.4208	-4.4479	-5.1937	-5.1021	-4.425	-5.4146	-4.9292	-4.7937	-5.5188	-4.7354	-5.0396	-5.2729	-4.7271	-5.2333	-4.9958	312.271	-2.558	139.166	272.777	293.325	30.379	292.531	-4.569	93.708	132.866	266.503	286.596	174.926	277.860	151.724	277.101	0.00097186	0.00038205	0.00021716	676.95	3.6106e-06	4.9894e-06	758.04	295.73	2.5187e-06	7.6368e-06	375.77	167.89	132.27	67.253	2.4142e-06	91.485	0.00036487	0.00035967	9.9147e-05	690.64	3.9275e-06	3.9205e-06	763.88	292.7	4.0015e-06	3.9518e-06	367.77	161.93	127.91	64.763	3.9533e-06	86.704	25.752	-31.264	53.755	-23.597	100.684	17.228	-24.803	-18.629	286.350	134.313	-20.238	-16.115	-14.739	-8.858	163.801	-12.739	-8191	255	
1843.382	1	1	0	0	0.15891	0.18008	0.030938	0.13499	0.10858	0.086256	0.067876	0.29717	0.19004	0.17581	0.18913	0.070726	0.13655	0.18582	0.28492	0.11541	-4.3833	-5.4292	-4.575	-5.0437	-5.4062	-4.5	-5.2979	-5.1208	-4.4792	-5.3021	-4.8313	-5.0104	-5.3979	-4.6	-5.2	-5.2438	258.511	163.039	-25.014	8.779	194.782	38.031	310.979	301.281	-29.268	9.564	290.514	282.690	-35.868	321.154	254.554	275.179	0.00086373	0.00032552	0.00014243	679.09	1.0189e-05	4.4863e-06	758.9	293.2	1.3972e-05	3.64e-06	373.89	168.58	132.25	67.237	3.6281e-06	91.268	0.00036762	0.0003574	9.9202e-05	687.41	3.926e-06	3.8829e-06	759.62	291.21	3.8935e-06	3.8935e-06	366.52	161.42	127.84	64.82	3.862e-06	86.456	13.865	109.768	158.241	-23.702	38.341	68.341	-24.936	-18.351	172.139	95.508	-20.540	-16.259	-14.480	-8.617	155.263	-12.542	-8191	255	
1843.478	1	1	0	0	0.16844	0.11714	0.2103	0.28161	0.21343	0.12652	0.14887	0.045505	0.20646	0.041253	0.071384	0.11702	0.018366	0.14755	0.17469	0.22852	-4.2792	-5.5312	-4.9979	-4.8104	-5.2063	-4.4563	-5.2854	-5.2958	-4.5938	-5.4479	-4.85	-4.8104	-5.5437	-4.8812	-5.1854	-5.2167	302.160	60.167	320.015	251.545	-0.778	194.189	86.946	254.263	225.602	40.439	75.920	258.639	250.526	284.824	261.473	299.878	0.0012502	0.00049026	0.00027059	674.56	1.1171e-05	1.9144e-06	753.45	294.68	9.0001e-07	7.5039e-06	374.27	167.46	131.49	67.297	5.2666e-06	91.732	0.00036071	0.00035032	9.772e-05	687.37	3.835e-06	3.834e-06	757.89	291.26	3.8548e-06	3.8876e-06	365.76	161.19	127.27	64.802	3.8678e-06	86.755	11.553	37.653	22.828	-23.902	99.793	304.443	-25.157	-18.553	-27.605	150.581	-20.631	-16.363	-14.644	-8.799	48.231	-12.361	-8191	255	
1843.574	1	1	0	0	0.25792	0.20108	0.10581	0.20858	0.22064	0.053355	0.16244	0.2476	0.12431	0.17128	0.14276	0.056085	0.24276	0.15531	0.10713	0.040336	-4.0917	-5.3417	-4.7917	-4.775	-5.3896	-4.6354	-5.1604	-5.2417	-4.6354	-5.4021	-5.1375	-4.8479	-5.5062	-4.7333	-4.8479	-5.5	211.413	310.098	291.546	266.312	88.849	312.042	208.847	-27.306	-12.681	29.786	259.359	-30.848	165.833	254.562	16.049	286.992	0.0014075	0.00034572	0.0001446	673.62	1.6733e-06	5.1375e-06	752.86	294.07	9.0605e-06	7.105e-06	374.25	167.89	131.3	67.494	3.4877e-06	92.435	0.00035529	0.00035191	9.7808e-05	687.23	3.8593e-06	3.8647e-06	758.54	291.4	3.825e-06	3.8389e-06	366.22	161.38	127.34	64.806	3.7844e-06	87.056	8.144	115.748	33.109	-23.858	40.188	200.634	-25.120	-18.473	116.788	115.278	-20.645	-16.113	-14.793	-8.611	83.201	-12.442	-8191	255	
1843.670	1	1	0	0	0.065614	0.19226	0.20265	0.16274	0.21154	0.028118	0.30568	0.087277	0.11143	0.15955	0.21624	0.11508	0.1442	0.10248	0.15779	0.2074	-4.2458	-5.3042	-4.975	-4.625	-5.5375	-4.6896	-5.0146	-5.5375	-4.4187	-5.3292	-5.2375	-4.6958	-5.4958	-4.8063	-4.7312	-5.5479	259.346	18.828	72.901	200.140	302.290	199.333	298.500	263.767	126.689	272.535	292.900	286.641	-18.940	-26.441	30.391	239.967	0.0011657	0.00085621	0.0001698	680.41	2.3031e-06	5.4252e-06	760.58	295.23	2.0762e-06	6.8222e-06	377	168.96	132.21	67.743	5.4117e-06	92.385	0.00034861	0.0003419	9.6113e-05	685.74	3.7663e-06	3.7916e-06	761.1	292	3.8171e-06	3.8559e-06	369.01	162.47	127.74	65.036	3.8177e-06	87.349	13.415	52.511	91.057	-23.661	204.596	38.676	-25.071	-18.110	46.252	125.902	-20.604	-16.090	-14.645	-8.519	95.262	-12.690	-8191	255	
1843.766	1	1	0	0	0.23653	0.20278	0.18055	0.11994	0.18576	0.19747	0.074386	0.20774	0.22118	0.12012	0.2115	0.13092	0.18839	0.26866	0.13427	0.20836	-4.2021	-5.1687	-5.1479	-4.5125	-5.4292	-4.8875	-4.8479	-5.4021	-4.5312	-5.1625	-5.5208	-4.625	-5.4062	-5.0958	-4.5646	-5.6458	188.368	298.050	322.264	245.852	126.443	292.013	301.018	194.741	14.349	-11.992	65.656	264.642	276.893	309.256	129.124	273.005	0.0011306	6.8802e-05	0.00025549	678.65	4.3382e-06	3.2812e-06	758.13	295.32	8.6018e-06	6.095e-06	376	167.11	131.96	67.716	7.4985e-06	92.702	0.00035682	0.00035283	9.705e-05	687.18	3.8173e-06	3.8261e-06	759.75	291.93	3.8218e-06	3.7935e-06	366.8	161.32	127.4	65.166	3.7486e-06	87.344	2.374	-20.957	67.224	-23.825	130.924	166.209	-24.926	-18.137	111.142	148.787	-20.605	-16.518	-14.557	-8.665	65.918	-12.655	-8191	255	
1843.887	1	1	0	0	0.17991	0.12926	0.064062	0.18264	0.24867	0.27342	0.21601	0.061777	0.12713	0.20689	0.16315	0.20765	0.11901	0.15761	0.15953	0.31169	-4.3021	-4.8812	-5.1917	-4.5979	-5.0792	-4.9792	-4.9104	-5.5938	-4.7188	-4.9375	-5.5479	-4.5563	-5.2833	-5.1937	-4.5	-5.7	210.884	92.086	48.553	316.643	293.280	124.377	290.646	290.487	42.190	36.693	247.131	246.781	313.737	-19.049	278.942	-34.959	0.0012024	0.00035544	4.2293e-05	676.12	5.7261e-06	4.6901e-06	755.3	295.76	1.2028e-05	2.442e-06	375.38	167.99	131.61	67.642	4.66e-06	92.636	0.00034693	0.00034144	9.4176e-05	684.92	3.7494e-06	3.76e-06	757.99	291.89	3.7728e-06	3.7908e-06	367.32	161.62	127.41	65.202	3.7598e-06	87.565	-4.488	61.498	251.814	-23.909	174.196	116.024	-24.815	-18.296	78.237	131.402	-20.512	-15.972	-14.576	-8.740	134.022	-12.578	-8191	255	
1843.983	1	1	0	0	0.078013	0.12742	0.10208	0.15594	0.058315	0.050921	0.11023	0.16851	0.11439	0.15653	0.017736	0.19689	0.146	0.11707	0.24847	0.1581	-4.2812	-4.8479	-5.1521	-4.5167	-5.0083	-5.0583	-4.625	-5.5792	-4.7417	-4.7562	-5.4708	-4.675	-5.2083	-5.3083	-4.5354	-5.4854	199.497	79.391	323.010	298.642	212.718	63.894	270.193	292.322	34.526	278.425	-4.509	305.885	261.600	272.205	318.872	303.905	0.0010803	0.00041839	4.6777e-05	677.37	9.8434e-06	4.6283e-06	755.93	295.29	1.0339e-05	6.3285e-06	376.03	169.12	132.13	67.876	4.6562e-06	92.686	0.00034896	0.00034272	9.3995e-05	684.53	3.7352e-06	3.7365e-06	758.49	291.67	3.758e-06	3.7507e-06	367.4	162.02	127.4	65.102	3.7735e-06	87.749	5.684	34.351	37.645	-23.945	87.792	122.496	-24.691	-18.303	130.344	50.713	-20.474	-16.223	-14.735	-8.638	243.968	-12.416	-8191	255	
1844.079	1	1	0	0	0.22176	0.089862	0.14419	0.13969	0.23796	0.043691	0.18301	0.18595	0.039521	0.087073	0.072479	0.22132	0.33467	0.055668	0.055101	0.20452	-4.5312	-4.4917	-5.4437	-4.7125	-5.0271	-5.1625	-4.6542	-5.3688	-4.8688	-4.6771	-5.5667	-4.7042	-5.0396	-5.5979	-4.5312	-5.5625	221.307	235.895	88.395	-25.245	244.161	233.513	257.508	59.289	42.865	222.232	135.898	275.720	-28.398	90.127	158.526	270.803	0.00081085	0.0001726	0.00024437	672.14	8.1401e-06	5.1258e-06	758.12	294.63	4.7782e-06	6.5023e-06	376.76	168.34	131.81	67.255	3.8667e-06	92.481	0.00035193	0.00034849	9.6397e-05	683.62	3.8082e-06	3.8016e-06	759.76	291.63	3.816e-06	3.8506e-06	368.25	162.02	127.43	64.842	3.8885e-06	87.544	9.634	102.191	54.977	-23.769	63.522	132.607	-25.195	-18.490	29.592	228.936	-20.631	-16.203	-14.852	-8.423	121.662	-12.553	-8191	255	
1844.151	1	1	0	0	0.061373	0.15574	0.12364	0.15547	0.40705	0.061603	0.28989	0.16022	0.10662	0.22755	0.095488	0.039714	0.18999	0.21476	0.038207	0.33137	-4.6375	-4.6771	-5.4187	-4.7125	-4.8854	-5.2958	-4.6917	-5.3583	-5.1521	-4.5458	-5.5563	-4.8875	-4.975	-5.6083	-4.3875	-5.5021	144.627	302.301	314.545	302.578	224.559	283.132	206.663	-15.455	253.652	136.406	-22.633	310.902	-7.341	305.978	-27.186	269.033	0.0010692	0.00065575	0.00028605	670.43	2.1701e-06	8.0304e-06	756.61	295.31	1.3452e-05	5.289e-06	375.3	169.55	132.33	67.696	5.5522e-06	92.538	0.00036397	0.00035925	9.9155e-05	685.55	3.9155e-06	3.8499e-06	762.33	291.9	3.8549e-06	3.85e-06	368.35	163.07	127.85	64.992	3.8347e-06	87.389	13.956	47.810	32.425	-23.646	-3.144	101.164	-24.823	-18.245	109.633	129.219	-20.435	-16.202	-14.850	-8.501	95.188	-12.593	-8191	255	
1844.270	1	1	0	0	0.14252	0.1578	0.12093	0.16985	0.21254	0.020949	0.12203	0.1263	0.20322	0.074121	0.22189	0.18174	0.030164	0.2715	0.24985	0.11282	-4.8021	-4.5208	-5.45	-4.825	-4.9479	-5.3417	-4.5875	-5.2208	-5.3354	-4.625	-5.4479	-5.1167	-4.6375	-5.6958	-4.5604	-5.1042	85.603	200.012	76.261	248.606	190.803	-14.684	20.062	320.415	285.571	32.250	186.736	37.183	192.661	322.817	229.954	215.554	0.0010541	0.00056075	0.00015147	675.79	6.3132e-06	7.3691e-06	757.01	295.82	4.9649e-06	5.6104e-06	375.75	168.03	131.49	67.353	4.0424e-06	92.22	0.00035663	0.00034859	9.7305e-05	684.87	3.8724e-06	3.8116e-06	760.42	291.93	3.8147e-06	3.8473e-06	367.37	161.97	127.52	64.801	3.9259e-06	87.128	11.273	96.285	-0.418	-23.782	137.442	46.818	-24.989	-18.643	109.095	-7.732	-20.500	-16.143	-14.488	-8.598	112.032	-12.652	-8191	255	
1844.366	1	1	0	0	0.18361	0.14554	0.087209	0.18821	0.38161	0.097593	0.078623	0.023672	0.15952	0.21339	0.14458	0.071686	0.16702	0.15631	0.082339	0.13711	-4.8917	-4.3542	-5.3083	-5.0542	-4.6125	-5.4458	-4.7208	-4.9979	-5.2229	-4.5625	-5.4271	-5.1646	-4.5458	-5.6208	-4.6562	-4.9958	246.453	281.873	134.717	302.855	150.758	30.850	309.944	238.666	196.280	209.242	-26.752	15.769	316.413	247.218	307.491	272.928	0.00094904	0.00019663	8.7542e-05	673.99	4.9122e-06	3.6518e-06	753.66	295.09	5.6325e-06	8.4432e-06	375.16	168.05	131.32	67.392	7.277e-06	92.017	0.00036107	0.00035819	9.9471e-05	687.31	3.9082e-06	3.887e-06	759.71	291.55	3.9086e-06	3.8779e-06	366.83	161.84	127.23	64.848	3.8847e-06	87.224	12.605	99.590	42.642	-23.983	180.558	112.089	-24.919	-18.578	126.813	111.199	-20.830	-16.063	-14.793	-8.627	81.407	-12.550	-8191	255	
1844.462	1	1	0	0	0.099881	0.23026	0.11667	0.049773	0.13561	0.10582	0.25455	0.10628	0.080344	0.091415	0.084369	0.13808	0.043059	0.1904	0.13745	0.28854	-5.1708	-4.5938	-4.9667	-5.2	-4.6937	-5.375	-4.9104	-4.8938	-5.4396	-4.475	-5.0771	-5.1667	-4.6333	-5.4792	-4.6771	-4.9229	184.592	304.195	-21.538	-24.999	27.868	148.727	283.205	317.601	101.305	181.252	292.222	114.534	211.589	237.253	223.072	270.919	0.001057	0.0005095	0.00027486	671.64	3.6963e-06	2.1464e-06	755.93	294.05	9.934e-06	2.6455e-06	375.96	168.95	131.83	67.324	3.5678e-06	92.474	0.00036106	0.00035523	9.8532e-05	684.5	3.831e-06	3.8342e-06	759.84	290.84	3.8063e-06	3.81e-06	368.07	162.41	127.26	64.775	3.825e-06	87.341	-8.182	40.000	-32.932	-23.636	17.187	82.313	-24.908	-18.407	155.348	67.554	-20.711	-16.130	-15.045	-8.469	179.227	-12.772	-8191	255	
1844.558	1	1	0	0	0.083049	0.40531	0.17839	0.17279	0.16443	0.068519	0.20157	0.1658	0.12373	0.080365	0.10346	0.11734	0.011051	0.13581	0.27217	0.14909	-5.1458	-4.4542	-5.0417	-5.1937	-4.3792	-5.5083	-4.9667	-4.7229	-5.4771	-4.7562	-5.15	-5.6687	-4.5729	-5.3042	-4.8313	-4.7646	261.738	5.288	185.232	-22.020	145.587	-22.407	306.251	297.699	271.424	33.177	296.057	62.278	56.460	12.838	66.151	288.425	0.0011813	0.00055651	0.00020187	672.75	2.56e-06	3.4655e-06	761.41	294.5	5.5014e-06	6.6925e-06	377.98	171.46	132.8	67.611	7.0414e-06	93.345	0.00035549	0.00034816	9.7378e-05	684.62	3.8183e-06	3.8368e-06	763.6	291.54	3.788e-06	3.7989e-06	369.12	163.83	127.98	64.934	3.758e-06	87.964	-3.658	66.161	322.519	-23.632	39.059	102.751	-24.933	-18.483	81.103	107.671	-20.699	-16.230	-14.947	-8.537	103.331	-12.853	-8191	255	
1844.654	1	1	0	0	0.17274	0.062912	0.14355	0.17036	0.26259	0.11763	0.10658	0.091692	0.19799	0.14075	0.076806	0.094955	0.23176	0.11332	0.096823	0.066948	-5.0625	-4.5833	-4.8042	-5.3375	-4.4062	-5.3333	-5.1854	-4.7417	-5.5312	-4.7021	-4.8292	-5.4125	-4.6417	-5.25	-5.1917	-4.5708	300.908	-18.151	-3.705	254.462	34.162	255.771	281.233	221.630	172.165	174.327	17.612	297.842	-29.047	-17.087	316.763	157.363	0.00095686	0.00029074	0.00023189	678.23	5.5222e-06	4.6385e-06	759.81	295.33	1.1044e-05	1.6802e-06	379.56	170.3	133.05	67.798	8.9746e-06	93.287	0.00034979	0.00034223	9.5418e-05	683.73	3.7399e-06	3.7297e-06	761.8	291.53	3.7569e-06	3.7055e-06	369.94	163.97	128.13	65.112	3.7708e-06	87.694	7.311	291.207	76.119	-24.128	50.994	117.206	-24.739	-18.393	71.124	106.474	-20.802	-16.082	-14.979	-8.644	122.217	-12.743	-8191	255	
1844.751	1	1	0	0	0.063089	0.060518	0.13153	0.15593	0.12799	0.10125	0.16215	0.043912	0.13395	0.077797	0.32211	0.17113	0.22446	0.20954	0.1677	0.12717	-5.1062	-4.7896	-4.7417	-5.4083	-4.3354	-5.0375	-5.1792	-4.3667	-5.4437	-4.6625	-4.6917	-5.425	-4.5062	-5.0583	-5.1917	-4.6417	42.682	-33.179	-5.534	110.380	250.872	18.577	221.905	248.984	248.513	284.900	313.438	280.276	304.487	10.260	302.200	-16.823	0.0010654	0.00041867	0.00032956	675.93	1.8188e-06	6.9861e-06	757.23	296.82	5.029e-06	5.6403e-06	377.8	170.77	133.26	68.129	6.3889e-06	92.934	0.00035416	0.00034846	9.6381e-05	687.4	3.8045e-06	3.7508e-06	760.74	292.49	3.7973e-06	3.7984e-06	369.34	163.97	128.57	65.292	3.7206e-06	87.84	19.573	11.484	28.356	-23.743	121.170	135.920	-24.621	-18.337	185.105	164.283	-20.751	-16.241	-14.642	-8.538	171.242	-12.630	-8191	255	
1844.847	1	1	0	0	0.12853	0.015835	0.1336	0.05366	0.15989	0.22957	0.13612	0.076382	0.10064	0.14154	0.054742	0.17347	0.076813	0.22937	0.13433	0.34382	-5.0062	-4.9083	-4.6521	-5.3896	-4.5083	-4.8625	-5.4479	-4.5458	-5.2854	-5.0979	-4.6042	-5.3458	-4.7625	-4.9812	-5.1125	-4.6438	277.625	84.949	165.421	4.553	97.152	314.003	286.287	153.651	217.184	119.850	185.501	300.224	-5.628	276.954	197.521	260.631	0.0010633	0.00074077	0.00026117	676.26	5.1847e-06	2.6434e-06	761.78	294.53	1.5053e-05	8.4186e-06	378.02	170.89	132.59	67.86	6.4184e-06	92.901	0.00035302	0.00034481	9.5766e-05	686.34	3.7883e-06	3.7821e-06	763.27	291.34	3.7945e-06	3.7895e-06	369.5	163.9	128.11	65.112	3.7291e-06	87.756	5.556	38.844	36.057	-23.956	60.184	143.182	-24.787	-18.624	132.831	82.818	-21.037	-16.096	-14.804	-8.733	169.106	-12.779	-8191	255	
1844.967	1	1	0	0	0.17654	0.21026	0.25135	0.058171	0.19802	0.033405	0.13473	0.24237	0.091562	0.13045	0.2214	0.090456	0.28224	0.29363	0.1351	0.083843	-5.0375	-5.0521	-4.35	-5.4313	-4.7812	-4.7729	-5.4437	-4.5479	-5.1521	-5.1583	-4.6292	-5.5583	-4.9417	-4.7792	-5.3604	-4.8229	-29.214	86.809	282.575	-13.097	76.136	202.869	282.016	277.833	247.903	140.132	286.331	293.876	209.600	272.273	9.638	199.145	0.0010389	0.00021125	7.9786e-05	676.62	2.7358e-06	3.9326e-06	759.24	296.98	7.8662e-06	3.6295e-06	381.79	171.09	132.78	67.757	9.6855e-06	93.159	0.00035273	0.00034485	9.5687e-05	685.95	3.7838e-06	3.7623e-06	762.78	293.09	3.7725e-06	3.7396e-06	371.14	164.2	128.2	64.988	3.6441e-06	88.191	13.978	63.485	102.405	-23.856	124.744	153.212	-24.643	-18.532	23.687	73.949	-20.778	-16.401	-14.605	-8.762	198.525	-12.575	-8191	255	
1845.064	1	1	0	0	0.070152	0.085157	0.27816	0.19746	0.24273	0.25321	0.12356	0.10569	0.12125	0.14143	0.27707	0.21431	0.25675	0.23777	0.098742	0.051847	-4.6896	-5.2292	-4.575	-5.4062	-4.7854	-4.5521	-5.5625	-4.6604	-4.9979	-5.1937	-4.7208	-5.5188	-4.9812	-4.6813	-5.3042	-4.7521	36.306	249.642	-19.325	198.801	5.504	128.584	301.462	15.118	211.961	19.814	272.458	-30.541	307.511	262.593	112.003	-0.250	0.0011787	0.00053482	0.00022779	675.11	6.9604e-06	5.1825e-06	766.44	295.32	4.5267e-06	3.0712e-06	381.68	171.75	132.85	68.467	3.5494e-06	94.275	0.00034193	0.0003313	9.2386e-05	684.39	3.615e-06	3.5958e-06	766.18	292.03	3.697e-06	3.658e-06	371.51	164.87	128.58	65.474	3.6765e-06	88.924	13.522	13.174	38.615	-23.579	60.141	124.623	-24.566	-18.298	129.224	78.210	-20.436	-16.099	-14.631	-8.666	76.316	-12.673	-8191	255	
1845.160	1	1	0	0	0.07456	0.056548	0.16651	0.18193	0.31297	0.079658	0.21234	0.11399	0.18876	0.11504	0.11227	0.26905	0.19543	0.14844	0.10575	0.20327	-4.6021	-5.1625	-4.4646	-5.3521	-5.0792	-4.5188	-5.5875	-4.9417	-4.9333	-5.3167	-4.7604	-5.3354	-5.1875	-4.8229	-5.3917	-4.7854	230.722	145.290	318.835	298.556	-28.849	206.171	312.094	276.965	226.675	84.352	9.704	238.676	238.093	260.886	258.033	280.391	0.00095459	2.0592e-05	0.00019729	678.86	3.6855e-06	5.1179e-06	764.46	299.94	7.4813e-06	6.2795e-07	383.64	172.52	134.45	68.415	8.3516e-06	93.979	0.00034424	0.00033685	9.4124e-05	686.95	3.6454e-06	3.6474e-06	766.26	294.34	3.6419e-06	3.6115e-06	373.35	165.44	129.78	65.702	3.6368e-06	88.823	12.594	285.137	69.329	-24.157	74.797	114.059	-24.402	-18.066	101.261	305.006	-20.764	-16.532	-14.591	-8.902	107.785	-12.525	-8191	255	
1845.256	1	1	0	0	0.16853	0.19798	0.12115	0.10228	0.054552	0.23913	0.17807	0.13805	0.2534	0.19843	0.060043	0.15524	0.10123	0.096574	0.24133	0.31506	-4.5854	-5.2812	-4.5521	-5.1333	-5.2375	-4.6062	-5.5979	-4.9187	-4.7917	-5.4625	-4.8313	-5.2208	-5.2583	-4.7083	-5.3042	-5.1354	89.698	268.622	46.247	-25.980	200.755	253.436	108.428	99.180	280.155	36.608	305.410	236.878	84.377	302.102	1.844	262.505	0.0011652	0.00052527	0.00012051	681.63	5.4256e-06	7.7715e-06	762.59	299.73	2.6637e-06	1.9051e-08	384.82	172.43	134.86	68.805	4.2279e-06	94.832	0.0003424	0.00033665	9.3489e-05	689.94	3.6931e-06	3.7038e-06	765.5	295.07	3.7734e-06	3.7363e-06	374.23	165.44	129.62	65.791	3.7284e-06	89.103	25.491	74.442	-7.483	-23.892	54.802	128.051	-24.828	-18.599	123.283	73.252	-20.520	-16.250	-14.728	-8.602	38.191	-12.703	-8191	255	
1845.375	1	1	0	0	0.06499	0.05583	0.07732	0.23454	0.12844	0.30271	0.18542	0.2138	0.095893	0.20297	0.22634	0.34431	0.24889	0.20422	0.11795	0.19686	-4.3042	-5.4	-4.6229	-4.9646	-5.3521	-4.5896	-5.4167	-5.2896	-4.5521	-5.4271	-4.775	-4.9521	-5.5125	-4.6667	-5.3292	-5.1667	142.411	164.456	217.388	291.274	167.028	211.116	313.626	315.294	143.428	76.859	199.792	299.680	308.904	-30.617	26.490	281.733	0.0011419	0.00096182	0.00015095	681.47	1.6334e-06	6.5038e-06	769.79	300.28	6.4292e-06	9.7659e-06	384.41	173.04	133.94	67.895	5.7735e-06	94.19	0.00034628	0.00033607	9.4744e-05	690.41	3.7176e-06	3.7487e-06	768.56	295.33	3.7816e-06	3.7928e-06	374.83	165.67	129.18	65.477	3.7667e-06	89.133	7.697	52.238	63.405	-23.589	275.663	156.240	-24.963	-18.461	197.926	146.158	-20.481	-16.245	-14.726	-8.743	64.539	-12.557	-8191	255	
1845.446	1	1	0	0	0.054729	0.22856	0.20383	0.092339	0.034707	0.069468	0.045933	0.2899	0.090622	0.14738	0.064357	0.15152	0.23247	0.097395	0.11689	0.27098	-4.2958	-5.2604	-4.7292	-4.9313	-5.3458	-4.3979	-5.1937	-5.2354	-4.4979	-5.425	-4.9896	-4.9187	-5.4146	-4.6521	-4.9604	-5.4958	206.653	307.883	322.236	-19.863	227.886	239.791	-23.683	29.323	83.525	322.899	167.272	245.833	193.855	302.758	0.922	321.043	0.0011792	0.00027608	0.00020493	681.55	4.2741e-06	6.4772e-06	769.43	298.18	1.5315e-05	5.882e-07	384.92	172.82	133.59	68.098	6.5883e-06	94.343	0.00035332	0.00034484	9.6123e-05	689.61	3.7716e-06	3.7779e-06	771.13	294.59	3.7677e-06	3.7789e-06	376.2	166.19	129.45	65.497	3.803e-06	89.277	4.851	100.129	103.870	-23.818	-1.994	106.582	-24.946	-18.217	215.829	106.354	-20.613	-16.248	-14.537	-8.697	-20.137	-12.538	-8191	255	
1845.544	1	1	0	0	0.029807	0.059151	0.16664	0.13721	0.25354	0.087967	0.25781	0.19132	0.091597	0.12804	0.13385	0.34426	0.19815	0.054206	0.16412	0.24964	-4.3125	-5.2812	-4.7688	-4.6604	-5.3271	-4.4375	-5.3104	-5.4437	-4.4875	-5.3354	-5.0563	-4.6104	-5.5938	-4.7708	-4.8354	-5.4333	125.446	201.362	319.874	323.406	163.867	-13.215	279.937	24.818	186.106	240.085	306.210	268.040	28.746	85.005	290.974	255.344	0.0013789	0.00037446	0.00021691	680.86	6.4101e-06	7.257e-06	766.84	299.5	1.2971e-05	5.7116e-06	384.35	172.31	133.74	68.149	9.371e-06	93.837	0.00035549	0.00034976	9.6748e-05	691.56	3.8219e-06	3.8253e-06	770.55	295.64	3.788e-06	3.8055e-06	374.73	165.63	129.04	65.356	3.7357e-06	88.294	-2.569	99.986	13.817	-23.698	22.246	103.909	-24.910	-18.529	138.793	86.639	-20.937	-16.612	-14.821	-8.769	58.089	-12.517	-8191	255	
1845.663	1	1	0	0	0.17476	0.26162	0.21278	0.32411	0.012454	0.098436	0.18193	0.024446	0.13896	0.10412	0.11985	0.12875	0.24418	0.2452	0.10075	0.25816	-4.1562	-5.1875	-4.9313	-4.5667	-5.3688	-4.6375	-4.8458	-5.2667	-4.3896	-5.3396	-5.2188	-4.7542	-5.5521	-4.8979	-4.7792	-5.4167	122.127	238.167	267.061	104.831	236.239	38.097	222.170	117.908	178.081	13.519	291.718	74.025	307.528	309.985	21.596	291.427	0.0011386	0.00073353	0.00017801	681.28	1.4051e-06	2.894e-06	765.42	298.49	8.6578e-06	4.3251e-06	384.42	172.37	133.03	67.757	3.883e-06	93.609	0.00034925	0.00034235	9.4383e-05	688.4	3.7122e-06	3.7336e-06	766.11	294.63	3.703e-06	3.7044e-06	374.02	165.07	128.73	65.116	3.6823e-06	88.15	3.004	48.950	155.564	-23.890	-2.019	185.127	-25.133	-18.515	50.127	148.660	-20.847	-16.181	-14.958	-8.669	77.046	-12.663	-8191	255	
1845.759	1	1	0	0	0.22342	0.15658	0.1352	0.2362	0.17464	0.034947	0.083794	0.064563	0.096129	0.29791	0.19624	0.1321	0.079323	0.254	0.2458	0.37486	-4.1937	-5.1562	-5.1417	-4.5792	-5.425	-4.8542	-4.7833	-5.4792	-4.625	-5.1542	-5.3292	-4.4875	-5.4625	-4.8812	-4.6521	-5.5292	99.614	35.865	230.533	261.516	-36.394	307.990	194.253	282.516	51.703	99.769	318.844	-33.324	-14.012	-25.060	168.456	273.305	0.00063629	0.00036672	0.00016298	679.2	1.5138e-05	2.9176e-06	763.37	299.5	1.4418e-05	1.1413e-06	386.12	173.77	134.13	68.217	6.003e-06	93.611	0.00034525	0.00033558	9.3323e-05	686.94	3.7032e-06	3.6745e-06	764.97	295.72	3.7062e-06	3.6659e-06	375.08	165.9	129.19	65.211	3.6734e-06	88.484	17.549	14.435	72.867	-24.082	80.012	239.369	-24.906	-18.432	106.319	317.956	-20.624	-16.332	-14.794	-8.702	302.781	-12.592	-8191	255	
1845.855	1	1	0	0	0.30407	0.1449	0.087368	0.16198	0.16905	0.17238	0.10725	0.053742	0.28959	0.10097	0.054082	0.31415	0.16301	0.22743	0.1245	0.10647	-4.2583	-4.9688	-5.2354	-4.5896	-5.2125	-4.8708	-4.6604	-5.6125	-4.6729	-5.1083	-5.3542	-4.5979	-5.3333	-5.1458	-4.5854	-5.6438	134.002	-22.602	55.088	156.129	137.171	215.428	98.467	92.508	3.134	-7.483	50.183	298.155	249.436	309.336	177.491	266.033	0.0011668	0.0012641	0.00024338	679.73	6.9531e-06	2.2628e-06	767.79	300.05	8.8468e-06	2.2922e-06	386.17	173.44	134.33	68.003	6.857e-07	94.461	0.00034209	0.00033937	9.2633e-05	687.61	3.7226e-06	3.676e-06	766.74	296.18	3.7304e-06	3.7054e-06	376.04	166.25	129.17	65.291	3.698e-06	89.15	10.768	85.873	12.485	-23.560	-8.615	317.531	-24.774	-18.309	121.589	80.177	-20.735	-16.120	-14.756	-8.797	17.613	-12.610	-8191	255	
1845.976	1	1	0	0	0.073597	0.055018	0.11079	0.087622	0.13311	0.021179	0.097987	0.017335	0.067188	0.13205	0.1234	0.11515	0.10971	0.17905	0.037543	0.31895	-4.3646	-4.7417	-5.3521	-4.65	-5.2896	-5.1312	-4.5521	-5.45	-4.6417	-4.6979	-5.4458	-4.675	-5.2854	-5.2458	-4.6021	-5.4833	183.343	277.675	317.198	204.830	48.288	223.440	279.028	80.718	22.093	135.327	21.784	17.274	290.326	9.483	225.384	295.373	0.0014886	0.00070886	0.00013898	679.99	5.1655e-06	3.6256e-06	771.03	299.68	6.3288e-06	1.1092e-05	386.44	173.76	133.84	68.039	1.0591e-05	93.997	0.00034568	0.00033929	9.3835e-05	688.62	3.7275e-06	3.6624e-06	770.66	296.12	3.7526e-06	3.733e-06	377.72	166.89	129.42	65.388	3.7843e-06	88.948	11.916	31.257	36.489	-23.831	-11.061	102.461	-24.944	-18.434	150.662	1.768	-20.556	-16.494	-14.883	-8.604	77.501	-12.619	-8191	255	
1846.048	1	1	0	0	0.15031	0.17308	0.18387	0.053975	0.063991	0.056474	0.13409	0.20213	0.13715	0.099699	0.12869	0.06942	0.15758	0.29912	0.14507	0.15129	-4.3438	-4.6438	-5.375	-4.7562	-4.9375	-5.2583	-4.5938	-5.6354	-4.9625	-4.7	-5.5687	-4.7104	-5.0271	-5.4	-4.6312	-5.4688	305.124	318.266	53.395	203.349	188.843	120.629	292.691	199.478	202.882	237.293	272.048	260.837	-7.518	305.233	50.661	291.933	0.0010637	0.00031596	0.00013429	679.58	1.2051e-05	5.5799e-06	767.13	299.19	7.1526e-06	4.9591e-06	385.31	173.84	134.03	68.18	7.8049e-06	93.82	0.00035074	0.00034057	9.4493e-05	687.99	3.7487e-06	3.6998e-06	769.03	295.64	3.6827e-06	3.6559e-06	375.32	166.36	129.24	65.305	3.6928e-06	88.679	20.066	87.768	59.311	-23.682	60.306	203.199	-24.644	-18.531	122.039	107.962	-20.591	-16.062	-14.844	-8.515	35.319	-12.541	-8191	255	
1846.144	1	1	0	0	0.1754	0.14175	0.045745	0.19788	0.18015	0.11212	0.24239	0.067888	0.22198	0.03814	0.09788	0.19924	0.23029	0.12707	0.10111	0.14279	-4.7667	-4.6792	-5.3667	-4.8604	-4.8417	-5.3292	-4.6062	-5.3583	-5.0687	-4.5938	-5.5625	-4.7167	-4.9021	-5.4812	-4.3938	-5.4292	22.319	299.004	22.606	279.536	293.926	282.257	290.125	-16.210	60.455	86.120	238.587	-7.881	298.942	315.855	180.626	44.052	0.001094	0.00039072	7.8728e-05	676.05	5.5219e-06	3.903e-06	769.7	300.25	1.1695e-05	2.6903e-06	387.5	173.97	134.1	68.552	7.9434e-06	95.103	0.00034097	0.00033537	9.4019e-05	686.73	3.7042e-06	3.6846e-06	769.01	296.09	3.6397e-06	3.6332e-06	377.14	166.71	129.22	65.571	3.6481e-06	89.427	6.202	80.954	55.713	-24.023	51.111	121.899	-25.024	-18.196	138.406	45.415	-20.640	-16.315	-14.948	-8.625	113.247	-12.730	-8191	255	
1846.240	1	1	0	0	0.086488	0.069192	0.10988	0.087401	0.063692	0.18121	0.12452	0.18502	0.047565	0.21421	0.16208	0.07177	0.2173	0.11344	0.32134	0.16523	-4.8688	-4.5875	-5.2833	-4.7958	-4.7021	-5.4854	-4.6458	-5.2438	-5.1854	-4.6125	-5.5813	-5.0437	-4.75	-5.6417	-4.4958	-5.1438	220.207	122.282	74.862	29.130	43.592	186.040	160.226	202.568	-16.060	69.900	238.368	247.355	127.296	303.134	88.753	-30.725	0.001093	0.0002944	0.0002744	679.35	1.3013e-06	5.1601e-06	769.53	300.25	4.5247e-06	6.4437e-06	388.79	174.73	133.6	68.283	8.7653e-06	95.176	0.00033901	0.00033562	9.3783e-05	687.42	3.6659e-06	3.6878e-06	768.89	296.51	3.6471e-06	3.6736e-06	377.99	167.06	129.17	65.584	3.6171e-06	89.6	6.764	-31.060	28.518	-23.529	7.132	57.319	-24.969	-18.598	143.557	87.471	-20.465	-16.360	-14.811	-8.659	160.568	-12.605	-8191	255	
1846.336	1	1	0	0	0.09819	0.27788	0.16727	0.021212	0.27291	0.092208	0.13213	0.25827	0.099279	0.11079	0.2824	0.04385	0.19848	0.29039	0.1128	0.048105	-4.9896	-4.475	-5.3625	-5.0771	-4.4833	-5.4104	-4.5958	-4.9812	-5.4729	-4.4854	-5.5083	-5.1667	-4.8458	-5.5542	-4.6937	-4.9688	187.609	259.293	-23.405	27.589	-9.749	33.215	-14.390	292.319	206.276	321.973	309.925	160.054	227.655	281.883	157.894	112.412	0.0015218	0.00062893	0.0002025	678.28	5.0233e-06	4.4842e-06	772.27	301.7	4.4209e-06	1.4215e-05	391.02	174.94	134.33	68.381	2.3574e-06	95.721	0.00033677	0.00033662	9.2048e-05	686.62	3.658e-06	3.6781e-06	771.31	296.73	3.6757e-06	3.6805e-06	379.65	167.77	129.42	65.611	3.6997e-06	90.129	11.253	32.657	44.495	-23.928	92.145	67.286	-24.707	-18.634	114.686	116.946	-20.747	-15.991	-15.042	-8.436	306.033	-12.731	-8191	255	
1846.455	1	1	0	0	0.097384	0.095463	0.05903	0.047496	0.25604	0.13715	0.17638	0.29515	0.20163	0.17114	0.0068714	0.1068	0.090282	0.40651	0.064544	0.16526	-5.2271	-4.5021	-5.125	-5.1667	-4.6042	-5.4958	-4.9187	-4.9396	-5.3187	-4.4208	-5.3021	-5.1958	-4.6292	-5.7042	-4.7354	-4.9875	-21.496	41.534	106.938	45.902	312.411	-23.312	306.716	223.306	313.451	15.696	23.274	76.880	300.972	266.860	-25.208	267.761	0.001047	0.00037816	0.00017017	681.1	2.9199e-06	5.7945e-06	773.18	302.21	1.2372e-05	1.0312e-05	388.21	175.01	134.59	68.737	4.7765e-06	95.102	0.00034089	0.00033484	9.1803e-05	686.78	3.5772e-06	3.6158e-06	772.24	296.39	3.5704e-06	3.6014e-06	377.89	167.5	129.6	65.611	3.5767e-06	89.363	-2.402	90.554	45.139	-24.017	247.766	167.412	-24.766	-18.383	120.641	86.285	-20.845	-16.098	-15.027	-8.808	236.645	-12.541	-8191	255	
1846.551	1	1	0	0	0.20851	0.14741	0.10764	0.012812	0.16326	0.14566	0.27779	0.13225	0.045981	0.18061	0.16338	0.13718	0.30792	0.21355	0.17104	0.37737	-5.2167	-4.5375	-4.7729	-5.2688	-4.5167	-5.2292	-5.0563	-4.6521	-5.5083	-4.4187	-5.0479	-5.3208	-4.4917	-5.3458	-4.9083	-4.7771	155.042	97.876	312.515	209.596	78.967	22.991	18.047	-25.795	23.675	106.389	276.447	308.147	281.159	-25.340	116.286	295.006	0.0013722	0.00046993	0.00010946	679.93	7.5982e-06	5.6935e-06	773.75	302.05	8.0074e-06	3.1872e-06	388.04	175.61	134.52	68.597	2.5933e-06	95.158	0.00033421	0.00033106	9.0648e-05	685.88	3.5821e-06	3.5862e-06	769.79	295.98	3.5206e-06	3.5253e-06	376.29	167.26	128.85	65.419	3.4724e-06	89.344	10.805	119.075	93.078	-23.856	-7.767	79.794	-24.573	-18.744	156.282	86.785	-20.468	-16.260	-14.983	-8.713	57.352	-12.635	-8191	255	
1846.647	1	1	0	0	0.17544	0.14309	0.092872	0.12369	0.058981	0.098567	0.21481	0.14632	0.079131	0.034004	0.096061	0.0099692	0.17411	0.23721	0.10737	0.29451	-5.1708	-4.6396	-4.7854	-5.3417	-4.4354	-5.1729	-5.1188	-4.6417	-5.475	-4.725	-4.9271	-5.4875	-4.4938	-5.2208	-4.8458	-4.7271	171.376	309.512	28.982	247.424	316.911	70.360	301.882	304.527	-26.252	282.516	306.584	131.199	25.907	283.604	12.393	250.333	0.00070031	0.0003723	6.1952e-05	683.7	3.7303e-06	1.8427e-06	770.7	299.31	8.1664e-06	5.2262e-06	389.28	174.05	134.69	68.29	4.7611e-06	95.054	0.00032975	0.0003221	8.993e-05	686.72	3.5592e-06	3.5839e-06	768.97	295.44	3.5998e-06	3.5386e-06	377.22	166.95	128.87	65.365	3.5224e-06	89.503	22.467	161.874	143.536	-23.513	154.688	75.244	-24.868	-18.449	159.615	65.808	-20.835	-16.154	-14.993	-8.649	149.209	-12.699	-8191	255	
1846.744	1	1	0	0	0.13563	0.087	0.054723	0.22703	0.090417	0.1754	0.10089	0.089296	0.24254	0.075456	0.080339	0.20939	0.083452	0.15475	0.066545	0.20662	-5.2458	-4.6438	-4.6188	-5.5396	-4.55	-5.0542	-5.4542	-4.6833	-5.2875	-4.7604	-4.7188	-5.4	-4.5854	-5.0646	-5.1042	-4.7312	202.071	298.209	24.014	321.624	72.701	-14.495	124.617	22.456	285.988	56.507	211.564	-35.600	201.361	252.849	163.619	253.564	0.0010791	0.00038205	0.00022262	679.97	6.7311e-06	9.3016e-06	774.82	300.01	1.1052e-05	3.0793e-06	388.51	175.63	134.52	68.501	5.9343e-06	95.571	0.00032743	0.00031972	8.886e-05	683.59	3.497e-06	3.4854e-06	769.46	294.87	3.5284e-06	3.5464e-06	377.42	167.8	128.97	65.427	3.5425e-06	89.717	7.481	127.141	27.551	-23.676	27.610	65.492	-24.661	-18.452	35.858	127.787	-20.417	-16.124	-14.682	-8.715	77.960	-12.481	-8191	255	
1846.840	1	1	0	0	0.11053	0.058055	0.081423	0.039799	0.052529	0.089188	0.051733	0.12299	0.14725	0.068098	0.073502	0.34332	0.30368	0.21127	0.16257	0.11876	-5.1208	-4.8104	-4.4646	-5.4896	-4.6021	-5.0167	-5.3812	-4.5542	-5.1833	-5.15	-4.8458	-5.5917	-4.8458	-5.0854	-5.3458	-4.6604	167.578	160.392	243.577	128.598	22.075	272.808	51.039	195.727	163.264	244.994	173.453	180.263	323.682	257.380	-6.510	271.194	0.0011812	0.00056114	0.00019105	680.26	4.3856e-06	8.0234e-06	774.24	300.58	1.4752e-05	5.5873e-06	390.73	176.12	133.78	68.332	2.5932e-06	95.029	0.00033585	0.00032984	9.1956e-05	685.94	3.5899e-06	3.611e-06	772.11	296.09	3.6435e-06	3.5796e-06	379.11	167.93	128.94	65.348	3.627e-06	89.414	-0.526	53.433	-12.372	-23.551	64.802	59.825	-24.577	-18.313	134.376	119.235	-20.850	-16.174	-14.733	-8.683	159.842	-12.449	-8191	255	
1846.936	1	1	0	0	0.20376	0.090527	0.1727	0.18243	0.1539	0.064609	0.24466	0.26338	0.08545	0.19531	0.069046	0.21753	0.13733	0.21057	0.096588	0.30619	-5.0521	-5.0312	-4.6771	-5.6271	-4.6229	-4.9646	-5.5312	-4.6167	-5.0938	-5.0083	-4.7229	-5.5042	-4.8375	-5.0521	-5.4	-4.7646	139.292	80.386	190.603	294.608	227.412	53.428	225.868	296.575	90.011	3.364	31.746	231.599	291.320	310.470	255.715	249.066	0.0011	0.00085842	0.00034749	674.2	2.1088e-06	8.6897e-06	768.03	299.73	3.2295e-06	5.4581e-06	386.72	173.61	133.58	67.674	5.6364e-06	94.492	0.00033757	0.00033158	9.1995e-05	685.28	3.6195e-06	3.646e-06	770.14	295.01	3.6547e-06	3.6015e-06	376.46	166.46	128.52	64.871	3.5874e-06	88.676	-1.273	116.919	30.248	-23.879	-28.203	109.677	-24.821	-18.626	193.340	134.145	-20.943	-16.235	-14.534	-8.726	83.721	-12.688	-8191	255	
1847.056	1	1	0	0	0.06705	0.18794	0.14342	0.095868	0.11526	0.13112	0.11395	0.10826	0.019005	0.10322	0.30388	0.31889	0.13856	0.062416	0.20435	0.21265	-4.7479	-5.2125	-4.5188	-5.6188	-4.7875	-4.6833	-5.5958	-4.6583	-4.9125	-5.1667	-4.5583	-5.2708	-5.025	-4.6708	-5.2979	-4.6792	304.557	71.659	220.133	287.086	86.651	161.389	133.388	310.577	274.094	312.703	272.338	282.486	262.611	-26.065	90.148	178.244	0.00094066	8.967e-05	0.00015685	679	7.1756e-06	4.1301e-06	769.6	301.09	1.6522e-05	2.6277e-06	387.3	174.09	134.25	68.164	4.6154e-06	94.905	0.00033565	0.00032406	9.0917e-05	685.7	3.5191e-06	3.53e-06	768.69	295.27	3.5624e-06	3.5407e-06	376.21	166.72	128.75	65.015	3.562e-06	89.048	6.994	89.327	23.716	-23.818	106.265	114.223	-24.761	-18.571	121.954	137.706	-20.744	-16.211	-14.814	-8.782	100.693	-12.524	-8191	255	
1847.153	1	1	0	0	0.091624	0.14003	0.08595	0.16499	0.19997	0.20178	0.20247	0.18298	0.091242	0.33146	0.11276	0.11627	0.20817	0.16639	0.11871	0.33957	-4.5437	-5.2708	-4.3187	-5.2458	-4.8854	-4.6625	-5.4583	-4.775	-4.7458	-5.2792	-4.575	-5.2979	-5.1917	-4.6521	-5.5583	-4.9771	126.310	239.086	34.283	268.584	200.542	240.658	-3.764	240.571	21.909	256.105	311.383	296.176	24.666	262.297	169.755	245.861	0.00098258	0.00079336	0.00011524	679.42	6.4367e-06	3.393e-06	771.65	301.93	9.231e-06	3.2255e-07	389.94	176.01	133.98	67.75	6.2483e-06	95.415	0.00033103	0.00032274	8.9553e-05	683.79	3.5225e-06	3.5358e-06	768.91	295.1	3.4917e-06	3.5297e-06	377.28	167.3	128.66	64.989	3.5926e-06	89.494	7.457	58.884	72.851	-23.877	91.840	142.008	-24.516	-18.577	134.107	2.815	-20.770	-16.269	-14.788	-8.790	239.226	-12.472	-8191	255	
1847.247	1	1	0	0	0.31388	0.19711	0.062522	0.21422	0.062048	0.085681	0.22865	0.23346	0.063815	0.14811	0.19683	0.1557	0.10161	0.16908	0.29619	0.13924	-4.4271	-5.4146	-4.5583	-5.1542	-5.2312	-4.5083	-5.5813	-5.0312	-4.6583	-5.4125	-4.3958	-5.1417	-5.1167	-4.4667	-5.3104	-4.9313	268.084	-24.763	82.605	257.347	216.076	147.874	267.912	230.464	143.103	92.148	314.602	309.333	305.080	302.718	268.832	244.872	0.00097454	0.00069292	7.2771e-05	680.32	2.7285e-06	6.7053e-06	769.82	299.86	6.8509e-06	6.5012e-06	389.9	174.58	133.97	67.971	9.3318e-06	95.558	0.00033194	0.00032485	9.032e-05	685.39	3.5079e-06	3.533e-06	768.95	294.92	3.4913e-06	3.5388e-06	377.96	167.62	128.7	65.151	3.6201e-06	89.699	-4.419	-11.137	172.506	-23.648	83.926	59.995	-25.220	-18.610	-13.581	89.151	-20.702	-16.408	-14.337	-8.593	75.719	-12.556	-8191	255	
1847.343	1	1	0	0	0.10309	0.19939	0.14905	0.063558	0.13177	0.21071	0.17661	0.20016	0.15738	0.13476	0.085036	0.056738	0.069456	0.14129	0.18019	0.20209	-4.2875	-5.3104	-4.2646	-4.9187	-5.1104	-4.35	-5.3167	-5.0583	-4.3896	-5.2896	-4.7271	-4.8125	-5.3333	-4.5458	-5.0458	-5.0979	313.464	-14.810	217.852	201.844	116.788	68.289	52.421	295.821	19.938	226.421	276.648	168.382	184.971	269.960	289.766	129.798	0.0015026	0.00035887	0.00018988	679.6	6.4196e-06	4.4499e-06	772.95	299.66	7.8144e-06	2.975e-06	389.99	176.19	134.06	68.046	8.5533e-06	94.751	0.00034005	0.0003312	9.2147e-05	688.15	3.5631e-06	3.6002e-06	771.61	294.62	3.5537e-06	3.5356e-06	378.56	167.9	128.62	65.08	3.5045e-06	89.211	6.234	-28.248	26.351	-23.807	56.502	85.815	-24.721	-18.493	150.567	132.697	-20.579	-16.400	-14.742	-8.621	149.740	-12.740	-8191	255	
#DATA ENDS
