BOXY.EXE: ISS Imagent and Oximeter Data Acquisition Program Version 0.80
Ascii Record File

#ACQ INFORMATION
2  Detector Channels 
16  External MUX Channels 
1  Auxiliary Channels 
5000  Waveform (CCF) Frequency (Hz)
1  Waveforms Skipped 
30  Waveforms Averaged 
1  Cycles Averaged 
16  Acquisitions per Waveform 
10.0806  Updata Rate (Hz) 

#FILE INFORMATION
TRUE -- External MUX Channel results are PARSED.
FALSE -- AC DC and Phase are NOT grouped.
TRUE -- Companion Program Settings File CREATED.
FALSE -- AC data not excluded
FALSE -- DC data not excluded
FALSE -- Phase data not excluded
FALSE -- Auxillary Chn. data not excluded
Tab delimiters

#CALIBRATION STATE
TRUE -- Waveform Calibration Values APPLIED.


#AUX CALIBRATION VALUES
Val Type	aux-1	

Term	1.0000e+00	
Factor	0.0000e+00	


#WF CALIBRATION VALUES
A = Detector Channel
Val Type	A-AC1	A-AC2	A-AC3	A-AC4	A-AC5	A-AC6	A-AC7	A-AC8	A-AC9	A-AC10	A-AC11	A-AC12	A-AC13	A-AC14	A-AC15	A-AC16	A-DC1	A-DC2	A-DC3	A-DC4	A-DC5	A-DC6	A-DC7	A-DC8	A-DC9	A-DC10	A-DC11	A-DC12	A-DC13	A-DC14	A-DC15	A-DC16	A-Ph1	A-Ph2	A-Ph3	A-Ph4	A-Ph5	A-Ph6	A-Ph7	A-Ph8	A-Ph9	A-Ph10	A-Ph11	A-Ph12	A-Ph13	A-Ph14	A-Ph15	A-Ph16	

Term	0.00000e+00	0.00000e+00	0.00000e+00	0.00000e+00	0.00000e+00	0.00000e+00	0.00000e+00	0.00000e+00	0.00000e+00	0.00000e+00	0.00000e+00	0.00000e+00	0.00000e+00	0.00000e+00	0.00000e+00	0.00000e+00	0.00000e+00	0.00000e+00	0.00000e+00	0.00000e+00	0.00000e+00	0.00000e+00	0.00000e+00	0.00000e+00	0.00000e+00	0.00000e+00	0.00000e+00	0.00000e+00	0.00000e+00	0.00000e+00	0.00000e+00	0.00000e+00	0.00000e+00	0.00000e+00	0.00000e+00	0.00000e+00	0.00000e+00	0.00000e+00	0.00000e+00	0.00000e+00	0.00000e+00	0.00000e+00	0.00000e+00	0.00000e+00	0.00000e+00	0.00000e+00	0.00000e+00	0.00000e+00	
Factor	1.00000e+00	1.00000e+00	1.00000e+00	1.00000e+00	1.00000e+00	1.00000e+00	1.00000e+00	1.00000e+00	1.00000e+00	1.00000e+00	1.00000e+00	1.00000e+00	1.00000e+00	1.00000e+00	1.00000e+00	1.00000e+00	1.00000e+00	1.00000e+00	1.00000e+00	1.00000e+00	1.00000e+00	1.00000e+00	1.00000e+00	1.00000e+00	1.00000e+00	1.00000e+00	1.00000e+00	1.00000e+00	1.00000e+00	1.00000e+00	1.00000e+00	1.00000e+00	X	X	X	X	X	X	X	X	X	X	X	X	X	X	X	X	

B = Detector Channel
Val Type	B-AC1	B-AC2	B-AC3	B-AC4	B-AC5	B-AC6	B-AC7	B-AC8	B-AC9	B-AC10	B-AC11	B-AC12	B-AC13	B-AC14	B-AC15	B-AC16	B-DC1	B-DC2	B-DC3	B-DC4	B-DC5	B-DC6	B-DC7	B-DC8	B-DC9	B-DC10	B-DC11	B-DC12	B-DC13	B-DC14	B-DC15	B-DC16	B-Ph1	B-Ph2	B-Ph3	B-Ph4	B-Ph5	B-Ph6	B-Ph7	B-Ph8	B-Ph9	B-Ph10	B-Ph11	B-Ph12	B-Ph13	B-Ph14	B-Ph15	B-Ph16	

Term	0.00000e+00	0.00000e+00	0.00000e+00	0.00000e+00	0.00000e+00	0.00000e+00	0.00000e+00	0.00000e+00	0.00000e+00	0.00000e+00	0.00000e+00	0.00000e+00	0.00000e+00	0.00000e+00	0.00000e+00	0.00000e+00	0.00000e+00	0.00000e+00	0.00000e+00	0.00000e+00	0.00000e+00	0.00000e+00	0.00000e+00	0.00000e+00	0.00000e+00	0.00000e+00	0.00000e+00	0.00000e+00	0.00000e+00	0.00000e+00	0.00000e+00	0.00000e+00	-2.67418e+02	-1.23981e+02	-1.44473e+02	-1.81854e+02	-1.05914e+02	-7.68791e+01	-1.57311e+02	-1.62015e+02	-7.09312e+01	-7.89950e+01	-1.71511e+02	-1.71453e+02	-1.84794e+02	-1.77817e+02	-1.04389e+02	-1.50452e+02	
Factor	5.71809e-05	8.97066e-05	3.11288e-05	1.96425e-01	1.13358e-06	8.75478e-07	1.57363e-01	5.65123e-02	1.42736e-06	9.07431e-07	8.42968e-02	3.04734e-02	2.81487e-02	8.63089e-03	1.04281e-06	1.25646e-02	5.48854e-07	5.55714e-07	1.54520e-07	9.50652e-02	6.08120e-09	6.08269e-09	7.27127e-02	2.73195e-02	6.08719e-09	6.08483e-09	3.88846e-02	1.39013e-02	1.32012e-02	4.11566e-03	6.08014e-09	5.73139e-03	X	X	X	X	X	X	X	X	X	X	X	X	X	X	X	X	



#DISTANCE SETTINGS
A = Detector Channel
A-1	A-2	A-3	A-4	A-5	A-6	A-7	A-8	A-9	A-10	A-11	A-12	A-13	A-14	A-15	A-16	

2.5000e+00	3.0000e+00	2.5000e+00	3.0000e+00	2.0000e+00	3.0000e+00	1.5000e+00	3.0000e+00	3.0000e+00	3.0000e+00	3.0000e+00	3.0000e+00	3.0000e+00	3.0000e+00	1.5000e+00	3.0000e+00	

B = Detector Channel
B-1	B-2	B-3	B-4	B-5	B-6	B-7	B-8	B-9	B-10	B-11	B-12	B-13	B-14	B-15	B-16	

1.0000e+01	1.0000e+01	1.0000e+01	1.4400e+00	1.0000e+01	1.0000e+01	1.5100e+00	1.9400e+00	1.0000e+01	1.0000e+01	1.9900e+00	2.4900e+00	2.4100e+00	2.9000e+00	1.0000e+01	2.9800e+00	




#DATA BEGINS
time	group	step	mark	flag	A-AC1	A-AC2	A-AC3	A-AC4	A-AC5	A-AC6	A-AC7	A-AC8	A-AC9	A-AC10	A-AC11	A-AC12	A-AC13	A-AC14	A-AC15	A-AC16	A-DC1	A-DC2	A-DC3	A-DC4	A-DC5	A-DC6	A-DC7	A-DC8	A-DC9	A-DC10	A-DC11	A-DC12	A-DC13	A-DC14	A-DC15	A-DC16	A-Ph1	A-Ph2	A-Ph3	A-Ph4	A-Ph5	A-Ph6	A-Ph7	A-Ph8	A-Ph9	A-Ph10	A-Ph11	A-Ph12	A-Ph13	A-Ph14	A-Ph15	A-Ph16	B-AC1	B-AC2	B-AC3	B-AC4	B-AC5	B-AC6	B-AC7	B-AC8	B-AC9	B-AC10	B-AC11	B-AC12	B-AC13	B-AC14	B-AC15	B-AC16	B-DC1	B-DC2	B-DC3	B-DC4	B-DC5	B-DC6	B-DC7	B-DC8	B-DC9	B-DC10	B-DC11	B-DC12	B-DC13	B-DC14	B-DC15	B-DC16	B-Ph1	B-Ph2	B-Ph3	B-Ph4	B-Ph5	B-Ph6	B-Ph7	B-Ph8	B-Ph9	B-Ph10	B-Ph11	B-Ph12	B-Ph13	B-Ph14	B-Ph15	B-Ph16	aux-1	digaux	

2068.475	1	1	0	256	0.055142	0.090727	0.07603	0.082215	0.22675	0.15004	0.15256	0.096116	0.096324	0.11824	0.064547	0.13159	0.19085	0.13405	0.29814	0.13747	-3.9458	-4.7937	-4.9208	-4.2083	-4.9875	-4.6458	-4.3875	-5.2958	-4.2958	-4.7708	-5.0833	-4.2812	-4.9479	-5.0083	-4.1729	-5.1375	81.300	169.708	115.354	-35.675	163.098	157.494	169.370	-64.482	64.261	197.696	17.855	-99.118	-74.182	-66.362	169.606	-97.392	0.0014414	0.00055733	0.00030354	795.69	8.38e-06	3.1507e-06	821.13	319.24	1.9904e-06	6.8688e-06	379.34	205.38	153.24	75.13	3.8472e-06	103.95	0.00037731	0.00036695	0.00010188	808.55	4.0216e-06	4.0052e-06	835.53	318.08	4.0275e-06	4.0321e-06	375.23	198.48	149.13	72.658	4.0029e-06	99.024	55.626	-37.131	-57.778	-90.266	53.843	125.905	-91.803	-85.583	139.496	32.180	-87.683	-84.077	-83.095	-76.933	29.572	-80.060	-8191	255	
2068.571	1	1	0	0	0.13859	0.13458	0.26594	0.15875	0.10073	0.18097	0.27445	0.086632	0.18771	0.29523	0.070258	0.23322	0.033284	0.14982	0.075994	0.075513	-4.025	-4.4313	-5.0729	-4.1562	-4.9458	-4.6958	-4.3521	-5.2021	-4.1583	-4.3938	-5.2167	-4.0917	-4.8271	-4.9062	-4.1292	-5.2771	193.732	168.196	-13.291	173.519	-98.438	93.856	213.249	156.092	-40.068	-47.584	-53.920	201.351	175.236	206.772	152.061	-84.885	0.0014593	0.00049882	0.00017534	792.04	6.709e-06	5.6675e-06	824.01	319.29	1.0687e-05	3.1718e-06	378.95	205.84	153.77	74.999	7.2371e-06	103.57	0.00037543	0.00036771	0.00010173	807.37	3.9893e-06	3.993e-06	834.57	317.19	3.9961e-06	4.0035e-06	375.46	198.09	149.16	72.635	4.0234e-06	98.979	59.555	50.917	-45.819	-90.575	18.326	51.555	-91.874	-85.723	28.832	232.188	-87.629	-84.164	-82.866	-76.725	-60.499	-79.982	-8191	255	
2068.690	1	1	0	0	0.18816	0.060537	0.081723	0.34966	0.25252	0.13745	0.31038	0.12854	0.18023	0.23252	0.23075	0.13687	0.23041	0.18627	0.058542	0.21112	-4.1854	-4.4313	-5.1	-4.2792	-4.8	-4.9125	-4.1833	-5.1146	-4.4042	-4.2271	-5.1083	-4.2417	-4.825	-5.1438	-4.1292	-5.2188	-41.274	109.149	-30.384	179.623	-3.751	-56.701	205.123	135.802	-14.214	152.522	241.766	167.324	-22.559	221.964	179.573	204.170	0.0013685	0.00056605	0.00017407	795.96	4.1602e-06	5.1565e-06	819.15	318.98	7.8164e-06	6.3035e-06	381.16	206.41	154.22	75.047	1.8573e-06	104.5	0.00037646	0.00036838	0.00010318	808.49	4.0447e-06	4.0366e-06	835.32	317.5	4.0576e-06	4.0509e-06	376.87	198.49	149.61	72.737	4.0167e-06	99.392	60.528	-38.964	-28.130	-90.501	-25.178	3.042	-91.949	-85.678	102.151	-3.236	-87.824	-84.282	-82.803	-77.022	1.205	-79.961	-8191	255	
2068.786	1	1	0	0	0.14235	0.085759	0.15017	0.20229	0.14566	0.044477	0.38801	0.14098	0.13868	0.089407	0.31825	0.074928	0.15647	0.036667	0.20138	0.12374	-4.3229	-4.2958	-4.9979	-4.3021	-4.5229	-4.9479	-4.1979	-5.1021	-4.7521	-4.1708	-5.1854	-4.5188	-4.7646	-5.125	-4.05	-5.1042	-2.747	-59.583	78.077	-64.725	8.579	99.314	186.067	156.606	26.582	232.501	221.664	94.488	197.309	-45.841	169.126	229.962	0.0017204	0.00053992	0.00013055	795.2	8.29e-06	6.0989e-06	826.26	318.8	2.2153e-06	5.7613e-06	382.63	207.75	154.88	75.437	4.7475e-06	104.81	0.0003792	0.0003726	0.00010347	809	4.0708e-06	4.0589e-06	838.77	318.24	4.0567e-06	4.0763e-06	378.28	199.78	150.18	72.965	4.0504e-06	100.14	65.001	102.028	-35.300	-90.489	0.268	19.904	-91.784	-85.387	7.968	-9.508	-87.444	-84.067	-82.953	-76.909	-20.257	-80.247	-8191	255	
2068.882	1	1	0	0	0.09304	0.24834	0.15873	0.1602	0.18764	0.032143	0.13351	0.1485	0.19455	0.19517	0.3199	0.25224	0.13443	0.29635	0.2607	0.13558	-4.5271	-4.1604	-5.1687	-4.3646	-4.5042	-4.9854	-4.3771	-4.8917	-4.7688	-4.1958	-5.0958	-4.6125	-4.4062	-5.1083	-4.0938	-4.8104	-76.971	205.694	158.538	-68.802	-59.531	191.645	-88.831	224.705	203.933	-10.158	168.954	136.070	-92.670	237.204	28.529	183.883	0.0015235	0.00039552	0.00014158	799.91	7.0768e-06	3.7234e-06	824.31	319.75	1.3156e-05	6.5474e-06	382.13	206.61	154.54	75.493	1.3974e-06	104.78	0.00037813	0.00037002	0.00010221	811.5	4.0172e-06	4.009e-06	840.57	319.31	4.0026e-06	4.0255e-06	378.13	199.57	149.95	72.997	4.0543e-06	99.785	40.714	5.587	-49.658	-90.298	-5.323	-8.500	-91.553	-85.785	9.474	23.695	-87.615	-84.317	-82.876	-77.041	-58.220	-79.942	-8191	255	
2068.978	1	1	0	0	0.1152	0.23447	0.12013	0.3165	0.1839	0.13518	0.090859	0.12228	0.032066	0.18461	0.12236	0.21541	0.20682	0.15521	0.31273	0.24443	-4.6188	-4.0604	-4.9979	-4.4917	-4.2417	-5.0896	-4.3833	-4.6958	-4.9375	-4.0792	-4.9125	-4.7958	-4.1979	-5.2833	-4.2375	-4.8479	-3.955	197.345	13.488	194.359	159.105	-97.681	78.470	-12.333	159.436	6.754	150.840	236.774	252.704	-81.630	202.972	125.259	0.0014049	0.00073876	0.00011743	798.28	1.267e-05	5.8222e-06	824.24	319.38	7.2889e-06	6.6163e-06	381.37	206.7	154.67	75.535	3.952e-06	104.38	0.00037715	0.00037413	0.00010345	810.08	4.0723e-06	4.0721e-06	837.66	319.31	4.0397e-06	4.0409e-06	377.35	199.23	150.04	73.111	4.0703e-06	99.616	58.137	24.704	-46.424	-90.508	2.741	28.498	-91.457	-85.678	-20.798	93.662	-87.661	-84.288	-82.870	-77.078	0.318	-80.060	-8191	255	
2069.074	1	1	0	0	0.11521	0.21404	0.24063	0.058569	0.097441	0.14767	0.082764	0.352	0.074209	0.20793	0.26315	0.14672	0.089188	0.16088	0.042878	0.0491	-4.625	-4.0354	-4.7812	-4.7771	-4.1604	-5.0583	-4.575	-4.4625	-4.9229	-4.0563	-5.0854	-4.9521	-4.3833	-5.1729	-4.35	-4.5521	-25.472	249.733	125.846	109.385	221.034	80.322	78.108	198.223	-54.012	241.831	-77.283	255.051	-16.269	230.900	83.461	-76.807	0.00184	0.00068415	0.00014191	795.95	8.3097e-06	5.9816e-06	825.25	319.44	7.4539e-06	1.0204e-05	380.25	206.69	153.79	75.787	1.1103e-06	105.26	0.0003781	0.00037188	0.00010373	809.93	4.0806e-06	4.076e-06	836.27	318.3	4.1208e-06	4.1405e-06	377.86	199.58	149.77	73.268	4.1194e-06	100.15	50.745	-34.277	-49.067	-90.319	85.361	58.821	-91.777	-85.594	143.084	77.024	-87.445	-84.009	-83.207	-76.708	-45.507	-79.980	-8191	255	
2069.171	1	1	0	0	0.09988	0.096967	0.091451	0.1524	0.16571	0.077719	0.14464	0.1117	0.15494	0.31088	0.24441	0.18902	0.10451	0.35918	0.19332	0.20082	-4.6083	-4.0896	-4.85	-4.7979	-4.1333	-4.9563	-4.7375	-4.3729	-5.0062	-4.1729	-4.7083	-5.1646	-4.1542	-5.1687	-4.4583	-4.3542	12.150	172.998	251.017	175.121	-4.390	8.094	-89.477	171.134	-70.358	-48.832	212.587	145.398	133.827	250.386	103.668	244.263	0.0015806	0.00059857	0.00035991	792.77	2.612e-06	4.1069e-06	827.8	320.24	8.8635e-06	2.0561e-06	383.41	208.27	154.7	75.926	7.9508e-06	105.49	0.00038793	0.00037931	0.00010517	811.29	4.1359e-06	4.1134e-06	840.78	319.5	4.1299e-06	4.1184e-06	379.64	200.8	150.49	73.4	4.1402e-06	100.63	54.026	-48.206	-51.302	-90.266	-49.840	45.467	-91.479	-85.646	26.348	113.244	-87.730	-84.212	-82.995	-76.894	-9.258	-80.173	-8191	255	
2069.291	1	1	0	0	0.20949	0.1446	0.081448	0.1089	0.10939	0.16318	0.042739	0.10962	0.077014	0.20713	0.20615	0.38971	0.27403	0.067631	0.12063	0.31667	-4.7771	-4.3479	-4.5625	-4.8271	-4.1687	-5.0375	-4.8229	-4.275	-5.1583	-4.2958	-4.7	-5.2667	-4.3271	-4.9771	-4.6896	-4.3354	23.049	250.519	156.906	210.104	225.408	123.273	196.506	-33.301	61.702	112.892	147.678	227.785	205.798	24.634	11.422	203.334	0.0013118	0.00054864	9.2297e-05	794.49	3.7213e-06	9.6351e-07	832.13	322.17	7.1945e-06	6.9597e-06	386.74	209.8	156.27	76.238	5.3949e-06	105.95	0.00039064	0.00037995	0.00010612	813.27	4.1279e-06	4.0962e-06	845.06	320.65	4.0617e-06	4.0414e-06	381.85	202.15	151.59	73.827	4.022e-06	100.98	54.953	66.000	21.501	-90.502	20.736	-32.780	-91.378	-85.458	41.566	33.040	-87.799	-84.156	-82.913	-76.955	-34.887	-80.127	-8191	255	
2069.387	1	1	0	0	0.08878	0.0090988	0.14694	0.20328	0.14119	0.2428	0.23645	0.18414	0.31607	0.24105	0.083452	0.19906	0.20125	0.11941	0.18812	0.16461	-4.75	-4.1833	-4.3688	-5.0437	-4.1917	-4.7312	-4.8854	-4.1875	-5.125	-4.4812	-4.3771	-5.1896	-4.2979	-4.775	-4.9229	-4.2792	169.989	141.692	-39.384	133.352	-22.765	17.608	-80.729	-55.396	179.193	144.209	206.719	206.888	256.251	169.020	158.714	237.482	0.0014026	0.0009683	7.1722e-05	804.31	7.5129e-06	3.1422e-06	835.17	322.83	1.0545e-05	4.8954e-06	383.43	208.96	156.38	76.317	7.9438e-06	105.94	0.00038015	0.00036845	0.0001033	817.91	4.0954e-06	4.0774e-06	845.37	321.59	4.0835e-06	4.0644e-06	380.12	201.43	151.46	73.965	3.9846e-06	100.79	51.093	42.609	-26.785	-90.448	21.616	-54.494	-91.507	-85.557	24.235	72.137	-87.790	-84.005	-82.933	-76.898	79.649	-80.049	-8191	255	
2069.482	1	1	0	0	0.25846	0.26838	0.088575	0.10078	0.049822	0.13014	0.28043	0.14645	0.16996	0.061687	0.21686	0.25935	0.10247	0.34329	0.16862	0.1835	-4.7438	-4.5	-4.2229	-5.1771	-4.175	-4.5625	-5.0875	-4.225	-4.8979	-4.5667	-4.3396	-5.1333	-4.4375	-4.7188	-4.9437	-4.3354	60.199	-10.711	154.543	-27.059	-11.339	207.738	191.794	133.094	230.468	241.920	-96.072	213.269	-42.452	-102.135	84.193	189.935	0.0015244	0.00075895	0.00013478	805.75	5.718e-06	2.6008e-06	828.28	323.35	2.0621e-06	5.6867e-06	385.13	209.55	156.82	76.787	5.6916e-06	106.1	0.00037633	0.00036364	0.00010224	817.56	4.0127e-06	4.02e-06	841.64	321.19	4.0156e-06	3.9932e-06	380.14	201.89	151.74	74.035	3.9497e-06	100.98	62.202	-3.262	-26.340	-90.385	-7.279	-44.879	-91.450	-85.713	141.454	-17.123	-87.823	-83.946	-83.060	-76.986	-95.569	-80.266	-8191	255	
2069.578	1	1	0	0	0.13323	0.1482	0.016744	0.10037	0.077973	0.042211	0.20366	0.28129	0.12474	0.16358	0.20383	0.13391	0.11119	0.10234	0.26019	0.21512	-4.5583	-4.55	-4.2333	-5.225	-4.3313	-4.5667	-5.1479	-4.1188	-4.8938	-4.725	-4.3292	-5.3667	-4.4521	-4.7188	-5.1583	-4.3875	-54.177	16.568	137.455	-86.954	128.000	96.852	198.345	209.479	42.187	122.488	-89.821	163.935	216.463	207.837	55.157	152.951	0.0017044	0.0003633	0.00021809	805.96	9.6924e-06	6.6077e-06	840.49	324.89	5.98e-06	3.502e-06	386.82	210.75	157.71	77.031	1.6941e-06	106.87	0.00036888	0.00035667	0.00010015	818.36	3.9005e-06	3.9117e-06	846.44	322.59	3.9236e-06	3.8701e-06	381.37	202.91	152.69	74.335	3.9472e-06	101.4	56.707	-0.128	-63.346	-90.240	9.016	23.920	-91.503	-85.327	13.510	56.999	-87.802	-84.116	-83.086	-77.178	-59.079	-80.133	-8191	255	
2069.698	1	1	0	0	0.18091	0.23927	0.0809	0.13178	0.033264	0.15541	0.1978	0.12374	0.1537	0.15063	0.22761	0.26367	0.2096	0.31769	0.26658	0.06871	-4.4375	-4.8208	-4.0542	-5.1083	-4.4542	-4.2667	-5.1312	-4.3042	-4.6792	-4.8125	-4.2188	-4.9979	-4.7	-4.4104	-4.9833	-4.5	222.215	21.309	47.333	-70.556	143.106	98.915	145.931	233.276	-61.869	181.259	171.270	133.730	148.175	-81.393	24.489	224.551	0.0015689	0.00051502	0.00018207	806.47	5.8352e-06	1.7706e-06	834.26	324.76	1.5631e-06	2.3965e-06	386.93	210.23	157.41	76.868	3.6836e-06	106.96	0.00037294	0.00036267	0.00010189	819.34	3.9877e-06	3.9942e-06	847.64	322.41	4.0084e-06	3.9516e-06	381.57	203.05	152.27	74.209	3.972e-06	101.71	58.859	-54.592	-50.100	-90.673	28.668	41.691	-91.576	-85.693	71.329	-74.047	-87.857	-84.252	-82.847	-76.849	-82.440	-79.924	-8191	255	
2069.770	1	1	0	0	0.036986	0.077185	0.15472	0.24541	0.10384	0.037051	0.26219	0.1359	0.12088	0.087288	0.12672	0.30034	0.11159	0.3649	0.032021	0.26552	-4.2375	-4.8646	-4	-4.9917	-4.6292	-4.1208	-5.1354	-4.475	-4.3313	-5.0646	-4.2896	-5.0271	-4.7771	-4.2729	-5.1333	-4.4646	169.463	126.624	155.947	122.363	-57.594	121.583	161.135	168.456	-49.874	183.952	-67.322	239.268	193.712	216.347	88.976	147.621	0.0013448	0.00051034	0.00014437	805.97	4.0535e-06	2.7673e-06	840.88	323.82	9.6881e-06	2.2039e-06	384.47	210.26	157.36	76.925	1.7433e-06	106.02	0.00037142	0.00035963	0.00010094	817.68	3.9473e-06	3.9646e-06	847.44	321.76	3.9451e-06	3.9663e-06	381.22	202.19	151.94	74.179	3.9363e-06	100.97	59.207	56.439	10.477	-90.506	22.822	43.263	-91.668	-85.592	87.002	78.887	-87.939	-84.246	-82.907	-77.055	-48.360	-80.104	-8191	255	
2069.866	1	1	0	0	0.22234	0.31627	0.10695	0.1352	0.26507	0.25159	0.16056	0.10049	0.1103	0.17024	0.37942	0.24789	0.25717	0.21075	0.014378	0.19297	-4.2104	-5.1562	-4.2042	-4.8854	-4.8229	-4.2396	-5.3542	-4.4542	-4.2937	-5.0917	-4.2125	-4.8292	-4.9167	-4.1792	-5.1021	-4.7562	222.577	60.114	145.886	-101.996	130.409	94.352	-90.527	63.546	253.911	77.268	217.194	252.512	-67.015	-87.411	113.535	188.370	0.0017612	0.00060317	0.00032752	803.2	8.7672e-06	3.3155e-06	832.15	324.33	2.0204e-05	3.11e-06	384.41	209.22	156.27	76.905	3.8522e-06	106.22	0.00036922	0.00035742	9.9605e-05	815.62	3.8887e-06	3.9267e-06	844.61	322.02	3.9709e-06	3.9313e-06	380.09	201.84	151.78	74.172	3.9302e-06	101.07	58.605	-34.077	-7.480	-90.308	-78.542	50.647	-91.759	-85.524	7.018	-48.523	-87.919	-84.013	-82.899	-77.054	2.852	-80.233	-8191	255	
2069.962	1	1	0	0	0.22454	0.090784	0.208	0.21915	0.10714	0.2609	0.12931	0.17746	0.1548	0.028525	0.18232	0.075069	0.24096	0.18027	0.24486	0.2268	-3.9688	-4.975	-4.2729	-4.7146	-4.8604	-4.0938	-5.0896	-4.6521	-4.0646	-5.0917	-4.2542	-4.6792	-5.1396	-4.2063	-4.7083	-4.8917	101.382	-17.991	7.950	199.311	109.992	22.427	8.528	252.129	111.733	133.952	238.329	21.569	253.673	-73.485	96.310	159.451	0.0015966	0.00061182	0.00014366	804.25	4.1483e-06	4.7097e-06	831.87	324.31	4.6863e-06	9.6514e-06	384.62	210.46	157.23	77.003	6.5182e-06	106.28	0.00036642	0.00035961	9.9653e-05	816.29	3.9e-06	3.9266e-06	844.13	321.97	3.9751e-06	3.9261e-06	380.4	202.12	151.98	74.215	3.9212e-06	101.03	66.266	-70.730	-14.134	-90.501	249.287	54.473	-91.786	-85.564	97.774	-10.877	-87.465	-84.323	-82.752	-77.061	7.517	-80.119	-8191	255	
2070.083	1	1	0	0	0.065505	0.11696	0.20696	0.15619	0.14032	0.226	0.089718	0.14098	0.23122	0.12603	0.15274	0.26256	0.23698	0.26681	0.14484	0.27568	-3.8854	-4.9896	-4.1375	-4.5646	-5.0104	-4.0875	-5.0687	-4.8792	-4.1271	-4.9854	-4.5333	-4.5875	-5.0687	-4.4062	-4.7479	-5.0167	196.951	100.516	97.289	22.135	13.962	196.423	89.537	186.046	118.115	-85.142	236.623	243.605	230.624	172.770	154.430	168.697	0.0013594	0.00054839	0.00027281	802.89	3.3232e-06	5.1423e-06	833.85	325.12	5.974e-06	1.0829e-05	385.49	210.52	156.66	76.912	9.9834e-07	106.8	0.00036839	0.00036174	0.0001002	815.97	3.9532e-06	3.9569e-06	845.96	321.87	3.9428e-06	3.9361e-06	381.05	202.27	151.86	74.125	3.9227e-06	101.47	48.271	-1.313	-4.525	-90.696	37.064	68.360	-91.567	-85.597	15.260	83.387	-87.520	-84.094	-82.738	-76.926	-1.023	-80.096	-8191	255	
2070.179	1	1	0	0	0.061392	0.095486	0.11478	0.12051	0.12337	0.29482	0.18201	0.12129	0.032201	0.12355	0.068131	0.22894	0.1272	0.18568	0.15086	0.017294	-3.9208	-5.0938	-4.4854	-4.4604	-4.8875	-4.2646	-4.8	-4.9771	-4.0896	-5.0312	-4.4938	-4.4583	-5.1188	-4.3646	-4.5354	-5.0896	212.508	211.234	185.237	245.063	105.183	-55.522	207.011	163.559	-39.595	-38.027	-74.978	-101.974	144.049	217.879	49.811	231.380	0.0015926	0.000438	0.00012327	804.67	9.0121e-06	4.0635e-06	837.51	322.72	1.0347e-06	5.2773e-06	384.36	210.3	156.76	76.879	1.4732e-06	106.16	0.00036999	0.00035913	9.9664e-05	816.51	3.9057e-06	3.9132e-06	847.7	321.48	3.9197e-06	3.9162e-06	380.85	202.12	151.86	74.043	3.9167e-06	100.87	47.820	-96.413	59.478	-90.414	124.659	55.225	-91.655	-85.361	167.125	20.508	-87.879	-84.400	-82.983	-76.955	70.184	-79.920	-8191	255	
2070.275	1	1	0	0	0.041277	0.19838	0.15255	0.21207	0.23386	0.24884	0.067622	0.26509	0.14577	0.058999	0.13105	0.10198	0.17126	0.17159	0.19365	0.22094	-3.8667	-4.8042	-4.5354	-4.4229	-5.0854	-4.275	-4.6687	-5.0667	-4.0062	-4.825	-4.9542	-4.5062	-5.0521	-4.55	-4.45	-5.3812	243.869	17.752	-53.268	95.225	164.803	-102.093	228.917	235.387	-35.433	102.306	192.221	249.937	204.370	227.800	43.483	185.523	0.0019072	0.00065951	0.0001588	800.86	3.3687e-06	1.5144e-06	832.21	322.32	7.2501e-06	3.4288e-06	383.81	208.15	156.16	76.349	9.4446e-06	104.74	0.00036657	0.00036139	9.8731e-05	813.85	3.8982e-06	3.8768e-06	841.67	320.67	3.9008e-06	3.9e-06	377.87	200.65	151.2	73.652	3.916e-06	100.03	48.123	-69.614	-13.792	-90.477	80.557	146.851	-91.791	-85.543	72.815	141.156	-87.608	-84.411	-82.884	-76.956	-6.089	-80.264	-8191	255	
2070.372	1	1	0	0	0.17683	0.13534	0.12554	0.25162	0.21374	0.060425	0.068682	0.16097	0.080952	0.37149	0.1558	0.3676	0.37207	0.09887	0.16661	0.28517	-3.8604	-4.8958	-4.6937	-4.3375	-5.1021	-4.525	-4.5833	-5.1562	-4.1062	-4.7937	-4.8875	-4.2937	-5.0563	-4.5583	-4.2208	-5.2708	-96.593	124.355	21.450	166.704	224.107	120.723	210.276	253.798	134.262	-46.254	166.580	224.057	240.382	235.104	244.859	168.184	0.0014911	0.00084586	0.00025123	802.76	7.3529e-06	5.5506e-06	830.6	322.3	5.0207e-06	2.2696e-06	381.09	207.88	155.29	76.127	5.4139e-06	105	0.0003683	0.00035944	9.9724e-05	813.39	3.8756e-06	3.8939e-06	839.04	319.9	3.944e-06	3.9148e-06	377.02	200.3	150.88	73.579	3.9311e-06	100.14	54.018	-25.254	-31.727	-90.522	0.689	34.183	-91.708	-85.546	12.690	62.545	-87.760	-84.251	-83.105	-76.980	-22.301	-80.205	-8191	255	
2070.468	1	1	0	0	0.013236	0.16461	0.028368	0.24947	0.082872	0.09057	0.16313	0.067679	0.10379	0.25258	0.26513	0.18675	0.08556	0.15704	0.062559	0.13138	-3.8875	-4.5292	-4.9333	-4.1917	-4.9625	-4.4979	-4.3646	-5.1104	-4.2979	-4.5396	-5.025	-4.3438	-5.0813	-4.7896	-4.3938	-5.3063	36.983	-84.132	-55.507	1.630	194.256	100.878	-81.327	-11.266	158.107	103.202	-81.040	-79.314	-98.956	236.043	158.877	78.571	0.0016782	0.00080493	0.00027628	798.06	5.4962e-06	8.6902e-06	828.04	320.64	1.0514e-05	6.6951e-06	381.01	207.89	155.91	75.983	1.2826e-05	104.82	0.00036641	0.00035792	9.9236e-05	812.35	3.9226e-06	3.8568e-06	838.62	319.53	3.9529e-06	3.9115e-06	377.34	200.56	150.99	73.471	3.9488e-06	100.35	50.497	-6.805	-59.468	-90.381	-44.293	39.360	-91.731	-85.451	-35.575	79.984	-87.802	-84.200	-82.860	-77.104	9.531	-80.515	-8191	255	
2070.564	1	1	0	0	0.08181	0.15459	0.18553	0.25795	0.070894	0.32554	0.076931	0.05522	0.11492	0.22988	0.25696	0.14833	0.20207	0.39816	0.096243	0.4208	-4.1667	-4.5271	-4.8688	-4.2688	-4.7729	-4.8979	-4.2688	-5.1292	-4.3229	-4.3271	-5.0792	-4.275	-5.0854	-4.9833	-3.9417	-5.2646	66.964	-64.613	95.906	220.094	-20.913	-75.354	-30.312	-103.700	-79.706	-4.220	-52.921	248.076	237.245	-79.043	112.885	191.794	0.0015538	0.00056945	0.00014305	792.57	2.5383e-06	1.5272e-06	824.25	319.58	5.8702e-06	3.6609e-06	381.68	206.47	155.2	75.891	3.4724e-06	104.84	0.00036833	0.00035887	0.00010029	811.24	3.9654e-06	3.9361e-06	840.42	319.69	3.9875e-06	3.9469e-06	378.57	200.86	150.97	73.652	3.9724e-06	100.8	53.539	25.265	16.778	-90.948	-12.711	171.187	-91.745	-85.761	75.798	97.328	-87.968	-84.180	-83.358	-77.125	-19.977	-80.048	-8191	255	
2070.660	1	1	0	0	0.10225	0.15564	0.14642	0.29235	0.31181	0.075744	0.039011	0.44523	0.039467	0.013923	0.32585	0.18036	0.12943	0.33168	0.15853	0.29191	-4.1292	-4.5062	-5.2208	-4.2146	-4.6354	-4.9333	-4.2979	-5.1604	-4.625	-4.3708	-5.1625	-4.4083	-4.6854	-5.2542	-4.0062	-5.2063	96.591	-47.780	238.421	233.651	17.942	147.388	4.323	214.377	32.423	43.887	238.283	-102.802	219.744	237.364	20.543	194.013	0.0015368	0.00074037	0.00022253	794.46	1.0813e-05	2.0813e-06	825.12	318.7	6.9248e-06	7.2371e-06	379.55	207.13	154.15	75.723	3.8594e-06	104.63	0.00037071	0.00036284	0.00010048	811.6	3.9931e-06	3.9601e-06	840.8	318.99	4.012e-06	4.0066e-06	378.4	200.47	150.64	73.498	3.9789e-06	100.22	56.816	5.836	-33.362	-90.815	37.182	116.786	-92.021	-85.791	54.751	-6.087	-87.701	-84.399	-83.198	-77.169	-97.182	-80.363	-8191	255	
2070.779	1	1	0	0	0.07355	0.16135	0.1916	0.12547	0.025658	0.14227	0.18216	0.10608	0.1045	0.1495	0.1712	0.17085	0.31585	0.12212	0.17254	0.28727	-4.3021	-4.3979	-5.1146	-4.45	-4.6333	-4.9021	-4.3208	-5.0396	-4.7771	-4.2125	-5.2125	-4.5542	-4.5021	-5.2063	-4.0646	-5.225	225.100	223.682	176.730	-103.394	128.516	-72.215	177.498	-93.883	-93.502	17.254	246.856	-90.605	176.518	170.193	82.041	199.494	0.0016098	0.00041218	0.00028566	793.43	3.2366e-06	1.4358e-06	821.08	318.34	3.0389e-06	3.8816e-06	381.05	207.24	154.99	75.76	3.9286e-06	104.9	0.00037143	0.00036557	0.00010182	810.5	3.982e-06	3.9741e-06	837.28	319.52	3.9788e-06	3.9916e-06	377.94	200.32	151.02	73.642	4.008e-06	100.38	46.409	-66.915	29.765	-90.828	44.028	-60.202	-92.062	-85.632	-55.692	-9.149	-87.898	-84.348	-82.932	-77.043	23.835	-80.150	-8191	255	
2070.875	1	1	0	0	0.092312	0.034934	0.25388	0.3522	0.029499	0.11916	0.17388	0.096882	0.12064	0.10618	0.14355	0.24083	0.32887	0.31369	0.15764	0.17214	-4.5646	-4.1146	-5.1292	-4.4958	-4.3979	-5.0125	-4.3854	-4.7875	-4.8438	-4.0687	-5.0687	-4.4229	-4.5104	-5.2438	-4.1854	-4.8083	159.361	69.098	240.750	-58.216	172.951	109.673	172.229	37.683	-56.472	-33.104	214.279	207.266	-54.593	211.468	127.785	238.327	0.0016544	0.00079309	0.00016733	794.12	4.1374e-06	7.5849e-06	821.78	318.59	2.8329e-06	3.4606e-06	379.86	206.91	155.57	76.22	1.1014e-06	105.19	0.00036958	0.00036649	0.00010162	810.66	3.9982e-06	4.003e-06	839.74	319.77	3.9607e-06	3.9946e-06	378.23	200.65	151.64	74.076	3.9491e-06	100.78	46.011	-76.919	-1.669	-90.565	-31.074	40.663	-91.534	-85.436	101.783	28.060	-87.996	-84.315	-83.052	-76.996	35.326	-80.299	-8191	255	
2070.971	1	1	0	0	0.094636	0.19991	0.12117	0.12748	0.276	0.14539	0.072261	0.15551	0.17592	0.36299	0.1335	0.26291	0.24832	0.14084	0.054176	0.16277	-4.6854	-4.2312	-4.9625	-4.5813	-4.325	-5.1104	-4.5125	-4.65	-4.8792	-4.0542	-5.0979	-4.6479	-4.3458	-5.3083	-4.3542	-4.6167	19.396	78.442	169.571	160.183	-102.469	-24.864	240.767	186.923	74.495	78.051	-65.066	219.997	244.100	210.968	222.553	144.644	0.0016398	0.00030364	0.00012746	796.45	8.1965e-06	6.5861e-06	826.43	320.84	1.4605e-06	2.5973e-06	381.74	208.06	155.09	75.654	3.7614e-06	105.36	0.0003714	0.00036198	0.00010051	812.86	3.9956e-06	3.9706e-06	843.04	320.67	3.9773e-06	4.0028e-06	379.23	201.38	151.56	73.904	4.0081e-06	100.92	53.250	-62.142	-53.161	-90.683	18.476	3.608	-91.959	-85.832	145.573	-84.607	-87.815	-84.161	-83.051	-77.014	-30.427	-80.308	-8191	255	
2071.067	1	1	0	0	0.079614	0.17616	0.077644	0.1436	0.19094	0.24871	0.15255	0.025264	0.10429	0.1304	0.1407	0.082553	0.12504	0.14651	0.092907	0.16811	-4.6438	-4.0479	-4.9292	-4.6271	-4.1521	-5.0896	-4.5646	-4.4437	-5.05	-4.2292	-4.9729	-5.0167	-4.3938	-5.2896	-4.4167	-4.7312	-30.826	64.430	-94.393	229.248	237.700	137.382	151.131	69.037	8.924	112.424	64.324	-46.312	209.100	247.885	130.829	226.488	0.0015798	0.00023722	0.0001445	795.04	5.1811e-06	6.5959e-06	829.07	320.28	6.6217e-06	7.2155e-06	383.82	208.05	155.5	76.179	8.1356e-07	104.96	0.00037636	0.00036591	0.00010188	813.11	4.0122e-06	3.9784e-06	844.91	321.53	3.9518e-06	3.9574e-06	380.74	202.11	151.84	74.068	3.9905e-06	100.79	55.476	246.020	-34.868	-90.407	2.863	55.170	-91.698	-85.753	-69.273	36.532	-87.807	-84.116	-83.245	-77.007	-15.062	-80.209	-8191	255	
2071.163	1	1	0	0	0.18379	0.058661	0.19618	0.03639	0.26677	0.15768	0.07148	0.20946	0.090963	0.090798	0.17509	0.064399	0.085412	0.26238	0.13415	0.31082	-4.7333	-4.2292	-4.6271	-4.9458	-4.1646	-5.0792	-4.7042	-4.3562	-5.1375	-4.175	-4.7708	-5.2021	-4.2333	-5.1479	-4.5062	-4.4417	110.745	-96.448	199.112	-21.396	-60.361	168.911	80.246	-84.408	-2.440	237.692	151.869	-43.094	228.360	222.665	40.351	198.511	0.0014763	0.00010172	0.00021933	795.75	8.6463e-07	4.6042e-06	827.74	319.5	9.6357e-06	7.6086e-06	380.68	207.91	155.95	76.559	3.5152e-06	105.64	0.00037386	0.00036439	0.00010182	814.63	4.0765e-06	4.0151e-06	841.88	320.95	4.0032e-06	4.0198e-06	378.52	201.05	151.5	74.043	3.9524e-06	100.7	44.946	-38.030	-40.257	-90.364	-78.708	117.847	-91.618	-85.665	-31.594	46.385	-87.767	-84.213	-83.001	-76.924	-61.173	-80.313	-8191	255	
2071.260	1	1	0	0	0.10673	0.056699	0.11331	0.20068	0.020836	0.062608	0.1042	0.25554	0.014019	0.16223	0.069873	0.074629	0.020045	0.23442	0.075141	0.36861	-4.6188	-4.2604	-4.5729	-5.0771	-4.1917	-4.9208	-4.8375	-4.4021	-5.2	-4.4146	-4.6042	-5.2479	-4.1625	-4.825	-4.9187	-4.5021	239.336	5.041	-48.273	240.065	-69.412	-82.807	-101.141	244.005	104.489	119.843	74.744	-56.402	239.962	215.534	141.764	194.319	0.0014187	0.00059782	0.00020703	795.37	5.7336e-06	8.6981e-06	823.3	320.07	1.7378e-06	3.251e-06	380.41	207.02	155.22	76.066	4.0952e-06	105.4	0.00037267	0.00036171	0.00010082	812.81	3.9882e-06	3.9652e-06	840.51	320.2	4.0113e-06	4.0112e-06	378	200.68	151.4	73.982	3.9724e-06	100.76	50.411	-25.241	-21.453	-90.344	102.811	6.263	-91.748	-85.848	31.791	97.602	-87.749	-83.977	-83.237	-77.132	-53.344	-80.400	-8191	255	
2071.380	1	1	0	0	0.16368	0.23641	0.17008	0.09629	0.23676	0.080789	0.086304	0.0952	0.12544	0.16479	0.20687	0.16833	0.099598	0.19212	0.1988	0.34175	-4.6917	-4.3792	-4.4458	-5.1937	-4.0521	-4.7396	-5.1042	-4.35	-5.1813	-4.5292	-4.5062	-5.1708	-4.2708	-4.9	-4.9146	-4.5021	167.077	97.168	149.407	-26.364	-66.770	-45.377	174.447	127.430	-18.455	225.892	177.079	154.805	107.432	229.164	25.657	177.632	0.0015151	0.00021608	0.0002679	798.49	4.8771e-06	3.6249e-06	830.19	320.45	8.0383e-06	4.4383e-06	381.92	208.32	155.51	76.346	4.8991e-06	105.82	0.00037178	0.00035796	9.9688e-05	815.29	3.8918e-06	3.8884e-06	842.48	320.87	3.9315e-06	3.877e-06	378.96	201.53	151.69	74.016	3.9339e-06	100.92	59.598	194.891	-1.383	-90.538	18.318	-50.648	-91.731	-85.746	52.231	9.310	-87.848	-84.267	-83.086	-77.307	148.784	-80.199	-8191	255	
2071.475	1	1	0	0	0.14023	0.19941	0.12658	0.11512	0.18545	0.122	0.20701	0.094551	0.095201	0.16386	0.16476	0.22369	0.32051	0.26222	0.11242	0.30528	-4.6917	-4.5125	-4.3833	-5.2375	-4.2167	-4.4896	-5.0437	-4.2958	-4.8812	-4.7146	-4.45	-5.2104	-4.3958	-4.8229	-5.1021	-4.3479	27.937	212.030	38.120	185.006	114.098	-36.702	-98.115	-75.148	176.509	-28.078	149.467	184.262	248.774	253.592	-23.142	185.352	0.0014039	0.00022638	0.00020639	800.79	5.1674e-06	4.2185e-06	828.34	320.78	8.1412e-06	4.6374e-06	380.01	207.41	155.79	76.542	4.4572e-06	105.76	0.00037262	0.00036292	0.00010161	815.17	4.0229e-06	3.9803e-06	843.67	320.79	4.0294e-06	3.9809e-06	379.37	201.32	151.47	74.082	3.964e-06	101.08	51.309	20.834	-20.747	-90.466	14.691	48.339	-91.923	-85.588	-38.844	65.219	-87.726	-84.132	-82.702	-77.098	-17.863	-80.473	-8191	255	
2071.571	1	1	0	0	0.056248	0.03676	0.10118	0.13346	0.10381	0.095598	0.23368	0.24606	0.21974	0.092582	0.11545	0.18212	0.024053	0.19418	0.063116	0.27988	-4.625	-4.6875	-4.2021	-5.2104	-4.4167	-4.5083	-5.0292	-4.0667	-4.9771	-4.8896	-4.2854	-5.2833	-4.6	-4.6021	-5.0229	-4.3938	189.064	236.398	191.675	-88.545	234.896	-23.104	155.857	96.286	45.773	167.924	-76.768	-100.750	-65.398	-100.472	55.088	175.387	0.0011137	0.00075075	0.0001524	796.92	4.4735e-06	1.8616e-06	821.28	319.19	1.1092e-05	5.8636e-06	379.93	207.26	154.5	75.684	6.6755e-06	104.22	0.00037411	0.00036296	0.00010164	811.88	3.9965e-06	4.0088e-06	839.9	319.6	4.0147e-06	3.9913e-06	377.8	200.51	150.95	73.762	4.005e-06	100.03	60.070	20.514	203.415	-90.817	30.085	0.914	-91.603	-85.427	56.325	-4.839	-87.893	-84.215	-83.130	-77.060	9.790	-80.053	-8191	255	
2071.644	1	1	0	0	0.080033	0.16207	0.16969	0.05959	0.039807	0.1766	0.053839	0.18053	0.053262	0.209	0.4254	0.19379	0.21492	0.22634	0.1998	0.079759	-4.5229	-4.7875	-4.1438	-5.2146	-4.4979	-4.3958	-5.2417	-4.3313	-4.8292	-4.8521	-4.3646	-5.0604	-4.7188	-4.3229	-5.2479	-4.5667	61.402	72.751	254.528	91.133	50.064	-22.368	-49.118	207.051	103.001	-21.478	208.049	241.101	232.704	-89.360	-81.339	182.577	0.001574	0.00074701	9.1173e-05	794.57	2.7907e-06	5.7534e-06	818.62	316.07	8.7024e-06	2.7128e-06	376.62	204.98	154.22	75.561	6.5763e-06	103.95	0.00037635	0.0003664	0.00010237	811.52	4.0075e-06	4.0586e-06	836.94	318.24	4.0666e-06	4.0965e-06	376.12	199.24	150.41	73.476	4.0659e-06	100.07	63.120	4.856	11.441	-90.576	-54.324	80.865	-91.891	-85.457	16.191	41.970	-87.694	-84.292	-82.837	-77.158	22.569	-80.444	-8191	255	
2071.763	1	1	0	0	0.16729	0.059673	0.15872	0.1033	0.11701	0.066547	0.48807	0.29331	0.23439	0.16589	0.27849	0.10995	0.12286	0.21106	0.23918	0.18173	-4.2604	-4.9042	-4.1875	-4.9146	-4.7063	-4.3333	-5.225	-4.4	-4.6208	-5.2042	-4.3021	-5.0042	-4.9812	-4.3396	-5.0146	-4.6354	232.005	37.385	190.672	-25.846	161.072	-28.416	181.090	151.967	21.276	189.786	173.983	206.222	223.720	254.414	179.686	-86.776	0.0014644	0.00034947	0.0001598	786.81	1.2233e-06	4.5258e-06	822.82	316.68	6.8549e-06	7.5088e-06	377.65	205.38	154.15	75.585	9.6179e-06	104.02	0.00038132	0.0003707	0.0001041	807.5	4.0929e-06	4.1321e-06	837.77	318.08	4.163e-06	4.1273e-06	376.51	199.47	150.29	73.399	4.104e-06	99.996	54.964	-1.078	-51.629	-90.455	11.281	24.997	-91.794	-85.946	41.941	43.977	-87.752	-84.331	-82.868	-77.097	10.879	-79.992	-8191	255	
2071.859	1	1	0	0	0.16461	0.083218	0.17815	0.17299	0.080456	0.079379	0.33544	0.17982	0.12386	0.1623	0.07935	0.10451	0.11087	0.33979	0.099207	0.11294	-4.1354	-4.9896	-4.0583	-4.9375	-4.8042	-4.2354	-5.2354	-4.5542	-4.3521	-5.2021	-4.3875	-4.9313	-5	-4.2937	-5.1542	-4.8417	227.904	223.893	50.626	206.563	116.430	-40.289	158.430	87.730	212.205	52.872	199.161	32.614	-89.577	-97.166	61.632	137.748	0.001493	0.0006592	0.00018771	792.1	4.4496e-06	8.8962e-07	823.34	318.37	1.7235e-06	8.2931e-06	379.17	207.5	154.29	75.703	2.6507e-06	104.8	0.00038678	0.00037894	0.00010574	811.04	4.1466e-06	4.166e-06	841.85	318.73	4.1872e-06	4.15e-06	378.1	200.36	150.43	73.477	4.1759e-06	100.46	42.014	-6.738	5.650	-90.672	111.455	-69.753	-91.796	-85.712	-83.149	28.732	-87.726	-84.225	-82.906	-77.192	14.648	-80.065	-8191	255	
2071.955	1	1	0	0	0.10288	0.18047	0.13263	0.19776	0.15036	0.053652	0.15935	0.13201	0.093185	0.1052	0.24738	0.19046	0.27708	0.23839	0.24267	0.031147	-3.925	-5.1583	-4.2625	-4.7188	-4.8562	-4.1438	-5.0917	-4.6917	-4.2229	-5.0104	-4.15	-4.7188	-5.0979	-4.3021	-4.7521	-4.8396	-39.809	161.394	56.131	226.328	-46.494	-51.888	110.484	96.678	-87.995	-2.628	157.760	214.436	247.604	243.063	224.166	-56.112	0.0015231	0.00079825	0.00018793	787.32	9.7967e-06	3.9904e-06	823.76	316.84	5.7475e-06	5.0177e-06	378.47	205.13	154.19	75.579	1.1836e-05	104.84	0.0003896	0.00037957	0.00010591	811.55	4.1834e-06	4.1686e-06	844.08	318.47	4.2045e-06	4.1905e-06	378.83	199.92	150.29	73.427	4.2142e-06	100.19	55.391	-32.013	-11.259	-90.353	52.145	7.998	-91.734	-85.598	19.583	67.824	-87.889	-84.231	-82.769	-76.760	-48.064	-80.213	-8191	255	
2072.052	1	1	0	0	0.17289	0.066915	0.11207	0.14659	0.16134	0.17816	0.22391	0.16649	0.21314	0.02724	0.043728	0.22357	0.14402	0.083297	0.12839	0.28233	-4.1083	-5.25	-4.4771	-4.7146	-5.025	-4.3354	-4.9479	-4.9313	-4.1729	-5.2083	-4.5375	-4.5104	-5.1542	-4.2604	-4.7479	-5.1917	45.810	209.083	-18.775	-84.388	-81.276	54.948	-87.064	-30.580	164.680	44.857	149.693	163.508	105.662	229.346	136.736	200.311	0.0014135	0.0011991	0.00022015	789.77	1.4853e-05	3.5684e-06	815.49	315.36	6.623e-06	7.1337e-06	376.31	202.71	151.69	74.572	2.8009e-06	103.39	0.000396	0.00038559	0.000108	810.89	4.2453e-06	4.2387e-06	836.86	317.31	4.2755e-06	4.2507e-06	375.72	197.87	149.26	72.905	4.265e-06	99.266	55.173	-25.316	-13.101	-90.374	-55.014	67.844	-91.781	-85.473	-3.038	24.192	-87.829	-84.150	-82.928	-76.949	-75.647	-80.123	-8191	255	
2072.172	1	1	0	0	0.11357	0.040438	0.19834	0.19267	0.16097	0.11953	0.060117	0.28064	0.20647	0.19262	0.17455	0.094074	0.050092	0.081264	0.26512	0.012509	-3.9396	-5.0312	-4.5271	-4.425	-5.0667	-4.0583	-4.6729	-4.8104	-4.0333	-4.9625	-4.6896	-4.4875	-5.2104	-4.4229	-4.6292	-5.1104	21.816	-10.955	199.418	-78.942	253.869	233.363	244.109	245.578	195.699	146.351	87.659	197.950	167.239	247.714	-42.061	156.708	0.0015738	0.00049907	0.00018115	789.37	5.0127e-06	9.4596e-06	818.69	314.28	1.0232e-05	5.0553e-06	377.53	204.18	152.68	74.672	3.2898e-06	104.01	0.00040005	0.0003907	0.00010742	808.68	4.2403e-06	4.2358e-06	835.5	315.93	4.2039e-06	4.2166e-06	375.71	197.7	149.03	72.689	4.2224e-06	99.297	50.502	3.857	-3.970	-90.451	26.231	30.806	-91.488	-85.405	27.371	75.535	-87.723	-84.176	-82.875	-76.845	69.258	-80.051	-8191	255	
2072.244	1	1	0	0	0.27359	0.090843	0.10009	0.22257	0.15377	0.08703	0.11557	0.17142	0.2225	0.11695	0.19401	0.15019	0.10111	0.13887	0.18047	0.24386	-3.8521	-4.8583	-4.5458	-4.3958	-5.0979	-4.4625	-4.6896	-5.1312	-4.0896	-4.9625	-4.7479	-4.4437	-5.2	-4.525	-4.4187	-5.1917	114.661	46.470	17.323	128.274	102.835	219.645	213.794	198.862	109.073	45.205	189.342	226.409	186.194	-33.327	178.668	137.594	0.0016665	0.0010137	0.00016352	788.69	8.1457e-06	5.9335e-06	822.84	315.39	9.6716e-06	7.0064e-06	378.3	203.98	152.18	75.055	4.5385e-06	103.63	0.00039557	0.00038504	0.00010689	807.83	4.2203e-06	4.2036e-06	837.51	316.57	4.2206e-06	4.1706e-06	376.47	197.91	149.09	72.821	4.2218e-06	99.427	62.573	-21.963	-49.694	-90.599	-64.798	43.786	-91.781	-85.628	-14.745	49.884	-87.474	-83.988	-83.018	-76.838	-8.634	-80.168	-8191	255	
2072.340	1	1	0	0	0.069629	0.083848	0.12316	0.20241	0.066725	0.094385	0.10138	0.28723	0.06777	0.08332	0.090729	0.14748	0.22987	0.080726	0.20253	0.18344	-3.8604	-4.6708	-4.7937	-4.3042	-5.0521	-4.5083	-4.4833	-5.1792	-4.2208	-4.6937	-4.9771	-4.2729	-5.1583	-4.6188	-4.4521	-5.2479	-89.688	57.460	198.252	233.920	-90.973	14.060	89.451	118.105	175.045	35.046	256.441	12.763	-85.785	-91.450	202.967	53.432	0.001499	0.00089095	0.00026167	786.33	4.0732e-06	3.1489e-06	814.18	313.98	1.0033e-05	7.1219e-06	376.39	203.02	152.5	74.3	6.3218e-06	103.49	0.00039428	0.00038051	0.00010643	806.89	4.1691e-06	4.1855e-06	836.9	316.17	4.1982e-06	4.1991e-06	375.37	197.61	148.69	72.444	4.2393e-06	99.387	60.825	0.777	-49.648	-90.421	216.448	164.537	-91.766	-85.523	51.045	25.804	-87.582	-84.466	-82.890	-77.002	44.179	-80.133	-8191	255	
2072.461	1	1	0	0	0.056201	0.097098	0.13668	0.055722	0.27861	0.11126	0.14082	0.14959	0.057544	0.094477	0.056213	0.20086	0.083023	0.098511	0.10132	0.30507	-4.0479	-4.4542	-4.9708	-4.1458	-4.8833	-4.6042	-4.4354	-5.1562	-4.2833	-4.5312	-5.0896	-4.2604	-4.9688	-4.8313	-4.1104	-5.1979	232.217	142.410	-23.507	46.223	225.215	157.299	80.540	175.907	-7.421	49.713	-7.993	255.513	92.451	231.881	-70.174	191.282	0.0012842	0.00065055	0.00032403	784.4	1.0062e-05	2.9047e-06	816.94	315.57	1.1212e-05	5.0968e-06	376.93	203.23	151.54	74.62	1.9229e-06	103.29	0.0003935	0.00038289	0.0001066	805.29	4.1463e-06	4.1468e-06	835.49	315.42	4.1457e-06	4.1335e-06	374.34	196.57	147.89	72.405	4.1549e-06	98.578	52.950	62.790	-60.992	-90.421	5.580	52.674	-91.749	-85.508	6.941	-40.815	-87.495	-84.060	-82.523	-76.633	45.786	-80.156	-8191	255	
2072.555	1	1	0	0	0.16224	0.12387	0.16816	0.19213	0.14266	0.11832	0.099428	0.22567	0.2104	0.060749	0.076443	0.10081	0.12121	0.20811	0.14951	0.23471	-3.8792	-4.5	-5.0667	-4.1708	-4.8604	-4.6896	-4.2438	-5.2104	-4.4604	-4.55	-5.2312	-4.2792	-5.0208	-5.0833	-4.2188	-5.1729	93.077	113.750	231.720	37.725	-1.506	72.041	237.720	-100.888	19.176	-6.701	212.746	112.380	236.745	234.765	19.839	118.558	0.0014361	0.00016191	0.00027585	788.07	2.227e-06	3.2009e-06	814.76	315.14	1.0042e-05	3.0637e-06	374.91	203.42	152.05	74.748	7.8777e-06	103.22	0.00038171	0.00037729	0.00010506	801.85	4.067e-06	4.0947e-06	831.68	314.74	4.1038e-06	4.1117e-06	372.96	196.08	147.98	72.38	4.1243e-06	98.512	55.684	63.776	-5.022	-90.620	210.853	20.098	-91.620	-85.364	77.981	5.567	-87.659	-83.953	-82.751	-76.461	-50.032	-79.875	-8191	255	
2072.653	1	1	0	0	0.16702	0.15151	0.1723	0.14923	0.15941	0.080509	0.10384	0.08419	0.19803	0.23866	0.06876	0.16856	0.24	0.16051	0.20169	0.23128	-4.175	-4.2521	-4.9583	-4.2479	-4.6542	-4.8417	-4.3167	-5.0125	-4.7208	-4.1813	-5.0062	-4.4625	-4.6229	-5.0271	-3.925	-5.0979	30.183	-1.560	-4.947	192.036	33.732	139.115	138.379	-83.024	24.188	124.795	36.256	182.962	181.661	232.745	138.196	224.738	0.001536	0.00069637	9.0941e-05	782.36	7.2462e-06	1.144e-05	813.53	313.21	1.213e-05	1.0004e-05	376.36	202.97	152.26	74.916	3.5357e-06	103.92	0.00038292	0.00037902	0.00010603	802.53	4.2031e-06	4.1813e-06	830.03	314.22	4.1898e-06	4.1978e-06	373.7	196.76	147.99	72.504	4.1861e-06	99.031	57.779	-31.765	-31.318	-90.128	-0.943	30.002	-91.587	-85.396	122.167	23.780	-87.432	-83.980	-82.844	-76.660	35.179	-79.937	-8191	255	
2072.772	1	1	0	0	0.13471	0.15642	0.084444	0.17938	0.13248	0.19576	0.17314	0.24759	0.055857	0.086678	0.18464	0.21768	0.23969	0.35578	0.055444	0.026583	-4.3729	-4.1979	-4.9854	-4.4417	-4.3625	-4.9896	-4.2521	-4.9042	-4.5687	-4.2083	-5.0292	-4.5437	-4.6667	-5.2063	-4.1188	-5.0646	-82.066	-0.278	-55.993	78.628	210.753	234.639	202.821	-103.166	38.402	-67.436	-99.799	220.401	-46.639	224.860	50.966	214.757	0.0015468	0.00053066	0.00011946	788.12	4.3794e-06	6.7939e-06	824.33	314	6.3278e-06	6.966e-06	379.02	203.93	152.46	75.305	5.4325e-06	104.06	0.00039007	0.00038415	0.00010678	804.4	4.1856e-06	4.1648e-06	836.89	315.27	4.1412e-06	4.2007e-06	375.89	197.65	148.75	72.784	4.1872e-06	99.528	51.750	-13.949	-19.012	-90.249	6.423	37.170	-91.710	-85.581	224.357	78.285	-87.480	-83.942	-82.941	-76.715	-8.925	-79.936	-8191	255	
2072.868	1	1	0	0	0.10125	0.2381	0.032496	0.12365	0.14106	0.13712	0.19777	0.17914	0.10976	0.20406	0.12001	0.11306	0.17269	0.15463	0.11012	0.25972	-4.4771	-4.1333	-5.0083	-4.3313	-4.2771	-5.0479	-4.25	-4.8021	-4.7979	-3.9562	-5.1438	-4.6229	-4.4625	-5.2188	-4.325	-4.8083	144.728	172.885	107.848	184.412	-31.237	28.777	250.837	232.683	-49.976	161.496	-79.530	20.445	192.792	25.466	-78.863	158.240	0.001377	0.00049856	0.00024323	788.3	4.0283e-06	9.5683e-06	823.05	317.53	4.2617e-06	4.2668e-06	379.69	205.64	153.48	75.15	6.4848e-06	104.53	0.00039162	0.00038259	0.00010622	805.06	4.1803e-06	4.1419e-06	839.14	317.37	4.1458e-06	4.2005e-06	377.22	198.55	149.38	72.992	4.1876e-06	99.85	63.346	-44.302	-28.583	-90.377	198.880	11.878	-91.603	-85.223	-16.099	5.716	-87.457	-83.977	-82.697	-76.694	-83.652	-79.945	-8191	255	
2072.940	1	1	0	0	0.17222	0.079452	0.098047	0.22505	0.13458	0.21807	0.12978	0.090876	0.084377	0.18176	0.12229	0.17232	0.13798	0.1737	0.068632	0.23186	-4.6979	-4.0271	-4.9604	-4.6792	-4.3938	-5.0771	-4.3792	-4.6396	-4.9583	-4.2729	-5.0563	-4.7854	-4.3958	-5.2458	-4.2479	-4.7125	125.848	-96.997	60.432	130.314	71.582	88.730	196.752	141.683	190.050	136.596	-23.897	183.182	35.986	180.904	164.895	189.571	0.0013531	0.00046925	9.969e-05	789.93	8.8465e-06	2.4482e-06	823.77	317.34	4.6752e-06	4.084e-06	379.7	205.18	153.69	75.601	2.6152e-06	104.59	0.0003904	0.00038318	0.00010638	805.44	4.1846e-06	4.1571e-06	837.96	316.79	4.1254e-06	4.1637e-06	376.27	198.19	149.26	73.105	4.1302e-06	99.662	59.343	15.506	-76.505	-90.464	-55.167	34.055	-91.454	-85.405	71.167	-3.184	-87.523	-84.200	-82.869	-76.808	15.206	-79.907	-8191	255	
2073.060	1	1	0	0	0.092926	0.14205	0.1861	0.17423	0.34245	0.26549	0.19525	0.20749	0.15328	0.059546	0.051836	0.23913	0.21813	0.053425	0.067967	0.25093	-4.6937	-3.9771	-4.9417	-4.75	-4.1979	-5.0646	-4.4417	-4.6208	-5.0604	-4.2188	-4.8833	-4.9083	-4.3146	-5.1312	-4.4875	-4.575	-47.293	63.352	59.448	-78.073	225.988	-96.531	208.394	202.419	-95.742	39.243	182.330	230.130	185.475	150.363	2.162	152.721	0.0012936	0.0004536	0.00029877	793.79	6.699e-06	1.5205e-06	823.01	316.73	7.0364e-06	6.1516e-06	376.84	205.96	153.62	75.619	6.234e-06	104.75	0.00038693	0.00037956	0.00010388	808.28	4.1203e-06	4.1163e-06	835.23	316.91	4.1058e-06	4.0989e-06	375.49	198.35	149.27	73.123	4.0714e-06	99.827	56.787	23.246	-34.830	-90.559	-16.497	61.176	-91.680	-85.376	-28.849	113.745	-87.468	-83.927	-82.919	-76.737	-12.877	-80.053	-8191	255	
2073.156	1	1	0	0	0.087095	0.11279	0.090122	0.1584	0.020808	0.063475	0.15119	0.12576	0.11585	0.091936	0.13878	0.079321	0.1151	0.32302	0.0666	0.31059	-4.7771	-4.1229	-4.8417	-5.0333	-4.1083	-5.0375	-4.4604	-4.5042	-5.0563	-4.3	-4.7812	-5.1229	-4.2562	-5.0625	-4.6396	-4.2729	28.718	226.378	23.853	-102.780	-64.401	105.685	194.564	240.193	-52.440	31.696	182.141	106.645	-68.377	244.067	-9.209	212.732	0.0016502	0.00022669	0.00013845	793.14	3.9151e-06	9.3394e-07	824.3	317.3	1.0444e-05	5.1947e-06	379.69	205.7	153.86	75.409	6.3858e-06	104.23	0.00038659	0.0003791	0.00010512	808.7	4.1433e-06	4.1038e-06	837.79	317.14	4.123e-06	4.1118e-06	376.68	198.76	149.36	72.951	4.0861e-06	99.656	58.488	-80.332	-69.000	-90.390	94.864	129.174	-91.435	-85.338	49.245	-13.744	-87.578	-83.721	-82.755	-76.731	0.546	-80.021	-8191	255	
2073.253	1	1	0	0	0.074847	0.26211	0.21076	0.099208	0.19774	0.20491	0.20212	0.54177	0.19359	0.012087	0.35991	0.24848	0.3321	0.32053	0.18165	0.39691	-4.8646	-4.1271	-4.5604	-4.9896	-4.0792	-4.8896	-4.7583	-4.3396	-5.0292	-4.2125	-4.5125	-5.1771	-4.4083	-5.1042	-4.8333	-4.3896	216.526	168.763	6.818	238.847	162.888	-61.390	159.434	187.132	-56.230	-86.287	-84.081	-96.962	243.205	253.295	144.155	230.095	0.0016253	0.00077256	0.00011733	798.55	7.3087e-06	8.4132e-06	825.42	316.73	6.4261e-06	3.2686e-06	379.52	204.64	153.03	75.35	4.567e-06	104.6	0.00038357	0.00037672	0.00010484	810.19	4.123e-06	4.0799e-06	839.2	316.62	4.0879e-06	4.0683e-06	376.38	198.38	148.96	72.844	4.1517e-06	99.781	48.013	32.453	-36.143	-90.422	-9.520	5.900	-91.756	-85.554	3.955	14.878	-87.697	-84.049	-82.924	-76.712	59.935	-79.905	-8191	255	
2073.349	1	1	0	0	0.039676	0.20125	0.20053	0.11198	0.16685	0.1905	0.15149	0.22347	0.15781	0.058493	0.18561	0.42505	0.26484	0.21763	0.26371	0.086847	-4.7167	-4.3917	-4.4125	-5.1667	-4.3104	-4.7792	-5.0062	-4.2917	-5.0563	-4.425	-4.3833	-5.2917	-4.2688	-4.9625	-5.0146	-4.3396	-12.858	-86.895	188.695	192.285	201.248	115.361	-74.939	168.593	24.072	167.778	140.210	188.405	251.973	-56.055	-35.361	-70.541	0.0011777	0.00062529	1.8143e-05	796.21	9.8791e-06	1.1078e-05	826.12	317	1.2782e-05	1.0142e-06	378.29	205.87	152.2	75.326	6.2509e-06	103.99	0.0003825	0.00037491	0.00010476	809.4	4.0713e-06	4.0377e-06	837.94	316.2	4.0376e-06	4.0628e-06	374.69	197.95	148.57	72.852	4.0685e-06	99.115	52.249	-37.411	-31.686	-90.190	-3.390	12.176	-91.607	-85.499	64.240	148.563	-87.428	-83.810	-82.784	-76.911	-27.168	-80.096	-8191	255	
2073.469	1	1	0	0	0.17046	0.17713	0.061456	0.024714	0.19684	0.21529	0.0919	0.20395	0.28686	0.10086	0.14896	0.35998	0.17126	0.10431	0.064335	0.27279	-4.7646	-4.5292	-4.2833	-5.1604	-4.225	-4.6146	-5.0437	-4.15	-4.9458	-4.6104	-4.35	-5.2562	-4.3438	-4.6813	-4.8938	-4.4167	-52.154	-31.452	81.289	242.770	-93.919	93.558	17.763	45.615	129.144	148.771	172.346	199.906	183.729	247.661	202.752	173.102	0.0013891	0.00073142	0.00032526	798.89	3.3362e-06	7.3292e-06	823.85	316.53	1.3514e-05	5.8304e-06	377.29	205.07	152.2	75.131	6.6773e-06	104.35	0.00037629	0.0003678	0.00010363	808.69	4.0142e-06	4.0424e-06	835.02	315.33	4.0623e-06	4.0444e-06	374.08	197.54	148.3	72.685	4.0973e-06	99.157	40.687	-31.268	16.379	-90.325	21.012	30.594	-91.714	-85.580	10.245	30.047	-87.704	-84.132	-82.674	-76.814	3.065	-79.904	-8191	255	
2073.541	1	1	0	0	0.092476	0.13081	0.20295	0.056629	0.34319	0.22268	0.25005	0.21854	0.21459	0.1442	0.21111	0.26953	0.077505	0.37302	0.23551	0.26913	-4.5729	-4.7542	-4.0792	-5.0729	-4.3125	-4.45	-5.0229	-4.3688	-4.7979	-4.7646	-4.4292	-5.2917	-4.5938	-4.5062	-5.0792	-4.2729	29.901	-78.301	61.851	154.656	11.703	-75.837	138.369	222.192	204.296	225.842	132.551	212.821	169.115	219.262	206.577	205.256	0.001358	0.00057695	0.00024222	786.73	5.6301e-06	5.5623e-06	823.87	314.44	7.0851e-06	5.5607e-06	377.67	205.06	153.18	75.13	1.602e-06	104.08	0.00038154	0.00037615	0.00010519	805.93	4.0934e-06	4.1071e-06	836.22	315.48	4.115e-06	4.0922e-06	374.89	197.99	148.66	72.662	4.1236e-06	99.248	49.541	40.396	-86.329	-90.355	229.024	91.246	-91.435	-85.534	33.713	67.409	-87.528	-83.848	-82.912	-76.640	-74.236	-80.010	-8191	255	
2073.635	1	1	0	0	0.064494	0.09698	0.15635	0.27828	0.096863	0.26289	0.11283	0.28957	0.10641	0.16939	0.23729	0.40314	0.069266	0.26757	0.31718	0.26495	-4.475	-4.9187	-4.2083	-5.0667	-4.5188	-4.4417	-5.2688	-4.4042	-4.6208	-4.9146	-4.1542	-5.0917	-4.5875	-4.4187	-5.1208	-4.4	11.427	229.619	-63.068	190.250	120.220	-33.792	239.632	244.478	-22.737	-40.775	-72.877	190.661	-50.527	213.581	-31.024	211.845	0.0015933	0.0002088	0.00010266	790	2.6537e-06	5.2146e-06	826.3	314.96	6.2985e-06	4.4602e-06	378.11	204.98	152.97	75.051	6.2306e-06	104.23	0.00038596	0.00037776	0.0001064	806.88	4.1434e-06	4.189e-06	838.88	315.89	4.183e-06	4.1544e-06	375.1	197.94	148.76	72.657	4.1254e-06	99.533	45.382	-14.783	17.715	-90.237	50.232	18.061	-91.597	-85.440	222.420	28.891	-87.561	-83.966	-82.854	-76.880	-46.484	-79.802	-8191	255	
2073.733	1	1	0	0	0.13538	0.17375	0.1668	0.057767	0.30179	0.13394	0.083565	0.1799	0.18219	0.27698	0.28713	0.021965	0.16758	0.29875	0.064718	0.26653	-4.0875	-5.0854	-4.1354	-5.0021	-4.7125	-4.1937	-5.2292	-4.3125	-4.4729	-4.9187	-4.2292	-4.8833	-4.6896	-4.3208	-4.9938	-4.4146	179.810	-36.149	-23.070	88.064	44.347	248.508	-54.787	128.871	215.539	254.247	216.079	-39.498	-94.377	216.256	76.517	195.897	0.0015601	0.00026466	0.00024778	787.29	5.6145e-06	8.7862e-06	825.12	317.55	3.4671e-06	2.6626e-06	379.54	205.46	153.1	75.258	4.5062e-06	104.46	0.00038493	0.00037585	0.00010514	807.64	4.1346e-06	4.1661e-06	840.8	316.32	4.1716e-06	4.177e-06	376.03	198.28	148.81	72.682	4.1334e-06	99.345	59.797	-59.546	-18.598	-90.296	-7.093	32.260	-91.546	-85.353	0.537	111.613	-87.383	-84.038	-82.667	-76.524	-97.399	-79.733	-8191	255	
2073.852	1	1	0	0	0.20799	0.099764	0.19309	0.091336	0.16706	0.17454	0.055062	0.16251	0.094119	0.15772	0.060281	0.33334	0.16133	0.32657	0.238	0.26498	-4.075	-5.1104	-4.3021	-4.75	-4.8646	-4.0292	-5.1562	-4.5813	-4.4271	-5.2104	-4.4688	-4.9375	-4.9979	-4.2937	-5.0354	-4.5875	-100.909	153.958	54.656	-69.876	221.098	-102.036	-50.229	237.454	217.526	29.377	88.615	253.632	242.359	217.970	33.705	252.502	0.001293	0.00042909	3.7929e-05	795.5	7.1108e-06	6.0514e-06	820.39	316.18	5.5852e-06	4.2437e-06	377.36	204.13	153	74.99	6.3781e-06	103.97	0.00039012	0.00037902	0.00010498	808.78	4.1449e-06	4.1564e-06	835.49	315.33	4.1529e-06	4.1094e-06	374.19	197.07	148.78	72.535	4.1046e-06	99.096	55.051	76.508	36.856	-90.357	28.558	29.887	-91.537	-85.320	-10.284	104.083	-87.577	-83.916	-82.630	-76.751	-40.076	-79.866	-8191	255	
2073.948	1	1	0	0	0.097445	0.14353	0.23911	0.28897	0.15351	0.26118	0.45002	0.14489	0.14121	0.24113	0.08957	0.11413	0.11248	0.21197	0.027601	0.17503	-4.0542	-5.0979	-4.1562	-4.7	-4.8292	-4.1917	-5.0563	-4.8833	-4.2562	-5.0729	-4.4021	-4.7188	-4.9979	-4.3646	-4.8187	-4.8979	171.904	165.585	89.353	224.274	212.820	254.713	200.960	38.485	13.077	203.520	-78.001	146.069	91.999	241.907	182.939	237.987	0.0014373	0.00022614	8.618e-05	790.4	1.0171e-05	4.6383e-06	821.77	316	1.3505e-06	8.982e-07	376.34	204.77	152.94	74.984	6.4297e-06	103.72	0.00038771	0.00037625	0.00010397	805.68	4.093e-06	4.0696e-06	833.86	315.43	4.1319e-06	4.098e-06	374.22	197.17	148.48	72.611	4.1221e-06	99.001	65.583	115.685	-10.258	-90.533	9.871	54.638	-91.682	-85.419	35.862	52.124	-87.645	-83.782	-82.616	-76.724	-53.760	-79.880	-8191	255	
2074.044	1	1	0	0	0.2264	0.19198	0.17633	0.13252	0.25821	0.17592	0.21786	0.35363	0.049147	0.040055	0.13855	0.27949	0.26001	0.11499	0.091444	0.1324	-3.7271	-4.9812	-4.4208	-4.5208	-4.9208	-4.1792	-4.9521	-4.9417	-4.4938	-5.0354	-4.4292	-4.6271	-5.2583	-4.3167	-4.8021	-4.9875	-91.168	-82.209	189.996	-36.568	9.020	22.748	191.501	193.891	-58.661	62.572	182.868	234.821	-92.299	139.035	22.017	-82.856	0.001456	0.00064874	7.1003e-05	788.87	4.7753e-06	3.7554e-06	822.55	315.53	4.3384e-06	9.7659e-06	377.56	203.84	152.81	74.929	7.5511e-06	103.87	0.00039012	0.00037968	0.0001055	805.71	4.1617e-06	4.1657e-06	836.23	315.23	4.1872e-06	4.1588e-06	374.69	197.13	148.62	72.547	4.1806e-06	99.223	46.856	-30.062	-65.261	-90.525	5.192	157.728	-91.455	-85.480	-82.672	32.075	-87.523	-84.108	-82.521	-76.644	-51.576	-79.897	-8191	255	
2074.141	1	1	0	0	0.15113	0.076386	0.20735	0.040165	0.13411	0.33502	0.10553	0.21632	0.040067	0.11092	0.07934	0.12865	0.066048	0.02647	0.17728	0.10143	-3.8812	-5	-4.5229	-4.425	-5.0458	-4.125	-4.6062	-4.9333	-3.9896	-4.8792	-4.7479	-4.3792	-5.0104	-4.4958	-4.4979	-5.1896	-96.206	-81.366	59.407	95.764	241.211	-59.785	87.610	251.502	12.159	-96.147	234.683	-96.770	231.513	228.379	-62.661	156.345	0.0014704	0.00026251	0.00017363	789.73	6.2841e-06	6.2445e-06	822.31	314.72	1.0103e-05	3.8376e-06	376.92	204.67	152.52	74.819	4.8795e-06	103.91	0.00038992	0.00037554	0.00010511	807.46	4.149e-06	4.1614e-06	836.58	315.43	4.1871e-06	4.1521e-06	374.9	197.65	148.49	72.484	4.1614e-06	99.44	50.356	-5.881	-75.966	-90.182	-21.741	57.085	-91.742	-85.392	35.523	-49.458	-87.543	-83.848	-82.652	-76.697	-33.265	-79.857	-8191	255	
2074.237	1	1	0	0	0.087046	0.10199	0.1228	0.13267	0.16118	0.082995	0.24643	0.20758	0.18038	0.20829	0.40273	0.23165	0.17231	0.10373	0.081121	0.17639	-3.8625	-4.8333	-4.6958	-4.3667	-5.0875	-4.2521	-4.6375	-5.0979	-3.9792	-4.975	-4.9187	-4.3583	-5.0896	-4.5479	-4.475	-5.1958	40.542	-30.539	131.457	178.662	12.765	218.961	105.744	182.345	189.497	169.708	210.592	-87.529	250.358	207.458	12.479	-66.501	0.0013657	0.00038847	3.6434e-05	788.9	6.7309e-06	4.814e-06	817.85	315.83	1.6979e-05	2.7368e-06	375.58	203.88	152	74.827	5.7452e-06	103.17	0.00038871	0.00037679	0.00010564	806.21	4.1541e-06	4.1324e-06	834.51	315.11	4.1633e-06	4.1459e-06	372.96	196.62	147.81	72.209	4.1739e-06	98.315	62.915	-16.933	-72.104	-90.501	55.130	71.225	-91.658	-85.278	26.369	-93.807	-87.406	-83.996	-82.710	-76.654	8.031	-79.926	-8191	255	
2074.333	1	1	0	0	0.28184	0.13257	0.1824	0.23732	0.19662	0.13916	0.083201	0.27597	0.16491	0.21927	0.14388	0.18114	0.25138	0.30235	0.10234	0.14891	-3.9562	-4.7708	-4.7896	-4.1438	-4.9938	-4.4938	-4.5437	-5.0625	-4.0896	-4.6813	-4.8958	-4.2792	-5.1167	-4.8375	-4.2063	-5.3458	128.857	132.153	125.707	-65.718	29.011	-77.175	180.011	176.989	-75.434	199.747	242.445	194.287	211.415	181.797	17.939	175.697	0.0016163	0.00081955	0.00026351	785.81	7.8804e-06	1.7758e-06	813.74	313.26	1.5314e-05	8.1414e-06	372.68	202.75	151.97	74.114	4.9834e-06	102.8	0.00038695	0.00037852	0.00010522	802.63	4.1081e-06	4.1034e-06	828.5	312.76	4.109e-06	4.125e-06	370.34	195.82	147.39	71.936	4.1314e-06	98.162	55.540	-11.056	-10.057	-90.243	12.824	48.893	-91.673	-85.444	50.358	75.189	-87.446	-83.985	-82.750	-76.745	-53.364	-80.210	-8191	255	
2074.454	1	1	0	0	0.17192	0.13181	0.25915	0.088141	0.058881	0.30583	0.29462	0.32271	0.1784	0.27816	0.14577	0.11764	0.106	0.24591	0.049279	0.13948	-4.0583	-4.6292	-4.8333	-4.1521	-4.8667	-4.6562	-4.3604	-5.1375	-4.3646	-4.5437	-5.0708	-4.3333	-5.0375	-5.0104	-4.2042	-5.5062	-14.381	150.420	166.109	133.631	97.230	103.603	-101.459	239.853	5.244	251.379	94.070	189.046	172.770	199.316	130.084	207.668	0.0015326	0.00058151	0.00013911	786.96	6.3222e-06	5.0901e-06	818.95	312.96	1.506e-06	7.3876e-06	375.02	203.59	151.84	74.431	7.594e-06	103.43	0.00038345	0.00037857	0.00010551	802.73	4.1374e-06	4.145e-06	830.27	313.34	4.1874e-06	4.2499e-06	372.68	196.48	147.68	72.059	4.3e-06	98.854	54.971	48.480	4.804	-90.278	73.333	30.275	-91.520	-85.563	254.091	109.268	-87.491	-84.039	-82.835	-76.754	-8.984	-80.002	-8191	255	
2074.550	1	1	0	0	0.12421	0.27622	0.28794	0.20612	0.24242	0.027389	0.22299	0.35403	0.069616	0.25652	0.066713	0.22595	0.12331	0.23825	0.24621	0.16207	-3.9771	-4.5854	-5.1479	-4.4125	-4.8187	-4.8229	-4.3646	-5.2979	-4.3667	-4.4625	-5.0396	-4.5	-4.8208	-5.0667	-4.0583	-5.1708	78.267	119.750	187.302	186.793	46.637	225.981	172.366	247.771	77.986	242.268	220.551	206.026	-36.435	216.431	95.405	221.039	0.001605	0.00062076	0.0002473	783.04	3.9842e-06	8.4676e-06	816.43	313.16	1.0537e-05	5.1918e-06	376.16	204.45	152.26	74.937	3.0432e-06	104.37	0.00039913	0.00039083	0.00010824	800.76	4.272e-06	4.2675e-06	832.64	313.99	4.2492e-06	4.2335e-06	374.26	197.48	148.39	72.421	4.2774e-06	99.659	54.511	-41.534	-1.909	-90.200	52.487	54.167	-91.477	-85.338	28.185	41.959	-87.312	-83.954	-82.719	-76.697	1.953	-79.762	-8191	255	
2074.644	1	1	0	0	0.086421	0.097743	0.051428	0.15476	0.12219	0.13441	0.19827	0.36754	0.1017	0.16198	0.032304	0.054891	0.094559	0.22045	0.094764	0.09824	-4.2729	-4.3583	-5.1292	-4.3229	-4.7688	-4.9083	-4.3146	-5.1146	-4.4896	-4.3854	-5.225	-4.4208	-4.6667	-5.1375	-4.1521	-5.175	62.464	-45.051	221.738	207.077	-30.626	13.992	-51.151	186.206	6.535	-10.211	180.170	119.124	-84.896	248.324	87.032	-4.336	0.0013546	0.00073319	0.00024139	784.77	6.1997e-06	3.5341e-06	820.58	314.93	9.3825e-06	5.1135e-06	376.37	204.35	152.67	74.796	7.295e-06	104.16	0.00039974	0.00039217	0.00010855	801.5	4.2775e-06	4.2626e-06	834.91	314.76	4.269e-06	4.2744e-06	374.63	197.97	148.54	72.378	4.2405e-06	99.269	55.165	30.207	-41.812	-90.191	71.163	75.381	-91.759	-85.429	-2.729	7.695	-87.593	-84.028	-82.677	-76.625	-8.174	-79.999	-8191	255	
2074.740	1	1	0	0	0.18971	0.19133	0.19274	0.080329	0.13335	0.059227	0.20245	0.29886	0.16077	0.15835	0.12529	0.2984	0.24458	0.25484	0.24147	0.40015	-4.5	-4.2854	-5.1646	-4.375	-4.5729	-5.0646	-4.55	-5.0667	-4.6271	-4.275	-5.1229	-4.4792	-4.5813	-5.3333	-4.1438	-5.0521	95.367	-21.526	-65.529	-92.117	87.435	66.396	2.085	184.880	48.662	128.604	-12.489	180.105	247.032	226.952	191.407	222.335	0.0017511	0.00054695	0.00029672	783.77	3.9468e-06	2.8094e-06	820.59	313.96	9.8148e-06	7.928e-06	374.64	202.68	151.87	74.559	4.1459e-06	103.37	0.00039521	0.00039085	0.00010888	803.02	4.2809e-06	4.2838e-06	833.45	313.66	4.274e-06	4.278e-06	373.3	196.37	147.82	72.144	4.29e-06	98.49	49.231	-10.568	4.650	-90.343	37.475	36.137	-91.307	-85.423	57.423	-10.117	-87.259	-83.994	-82.856	-76.520	-30.339	-79.870	-8191	255	
2074.836	1	1	0	0	0.036642	0.13236	0.1062	0.29605	0.28068	0.06153	0.22452	0.26021	0.059524	0.26679	0.32492	0.1585	0.18552	0.13949	0.1037	0.051203	-4.6104	-4.2271	-5.0854	-4.4708	-4.3542	-5.1104	-4.3917	-5.0146	-4.8604	-4.1083	-5.1375	-4.625	-4.4104	-5.4062	-4.15	-4.85	-80.245	-75.866	83.334	36.136	207.904	-98.333	185.295	227.468	140.764	167.266	-62.677	225.821	-69.239	-93.962	-48.580	175.152	0.00144	0.00049005	0.00020453	782.57	5.593e-06	8.5785e-06	816.26	311.62	1.0267e-05	8.4365e-06	373.03	200.78	150.66	73.886	5.0673e-06	102.47	0.00039898	0.00039444	0.00010896	802.46	4.3256e-06	4.2755e-06	829.19	312.05	4.3303e-06	4.3472e-06	371.73	195.13	146.95	71.617	4.3881e-06	98.007	59.114	22.607	10.726	-90.300	46.626	89.104	-91.513	-85.140	67.524	33.454	-87.158	-84.123	-82.668	-76.321	116.480	-79.784	-8191	255	
2074.933	1	1	0	0	0.14111	0.25299	0.1511	0.21793	0.061431	0.18439	0.1795	0.21322	0.18821	0.28735	0.16576	0.32149	0.098784	0.18774	0.14212	0.1942	-4.3771	-4.1792	-4.7625	-4.6937	-4.3375	-4.9979	-4.2979	-4.5687	-4.8958	-4.25	-5.0646	-4.7146	-4.5083	-5.2063	-4.2542	-4.7958	227.431	147.263	-3.668	224.631	129.094	-7.273	103.957	193.005	190.196	169.553	206.061	181.378	191.231	201.517	236.436	155.983	0.0014131	0.00072431	9.3003e-05	778.88	1.591e-06	6.2318e-06	808.61	309.6	4.4663e-06	6.0438e-06	371.93	201.28	149.51	73.65	2.2141e-06	102.28	0.00041089	0.00040351	0.00011261	799.02	4.4703e-06	4.4756e-06	827.32	311.34	4.4835e-06	4.4911e-06	371.41	194.97	146.3	71.399	4.4679e-06	98.049	53.466	-24.130	-65.576	-90.536	42.263	44.578	-91.393	-85.272	65.130	65.341	-87.202	-83.744	-82.546	-76.535	-53.083	-79.977	-8191	255	
2075.029	1	1	0	0	0.17389	0.10091	0.10932	0.16657	0.34884	0.141	0.12021	0.12128	0.11899	0.13707	0.20161	0.24167	0.24644	0.0567	0.092176	0.32816	-4.7438	-4.1833	-4.9021	-4.8396	-4.1708	-4.8958	-4.5667	-4.5104	-5.025	-4.0375	-4.8583	-4.9854	-4.2167	-5.2417	-4.5437	-4.6542	-2.415	65.201	97.813	243.786	-18.465	-57.299	256.165	-69.933	143.906	224.181	177.504	205.055	224.828	256.363	-100.240	181.750	0.0012653	0.00019276	4.6601e-05	775.95	4.7602e-06	5.6723e-06	809.45	308.38	2.9326e-06	1.3392e-06	371.78	200.87	148.85	73.359	7.083e-06	102.04	0.00041623	0.00040723	0.00011399	799.55	4.487e-06	4.4664e-06	830.19	311.47	4.4542e-06	4.4629e-06	371.68	195.36	146.37	71.532	4.4445e-06	98.254	43.438	78.366	-84.814	-90.360	-59.011	64.702	-91.435	-85.460	156.816	126.088	-87.882	-84.038	-82.987	-76.664	14.530	-79.884	-8191	255	
2075.149	1	1	0	0	0.14986	0.076639	0.13212	0.065889	0.13053	0.2077	0.20294	0.10376	0.12298	0.16123	0.026917	0.32686	0.18709	0.30263	0.16627	0.029298	-4.6208	-4.3667	-4.6021	-4.9104	-4.1333	-5.0083	-4.6271	-4.3583	-4.975	-4.2021	-4.5771	-4.9667	-4.15	-5.1104	-4.5771	-4.525	182.035	-32.770	-80.009	183.287	42.417	161.367	151.032	57.557	67.796	-18.292	32.788	-75.999	194.885	-101.270	208.135	185.932	0.0013798	0.00049665	0.00012431	776.58	6.6158e-06	5.114e-06	807.01	308.56	4.7089e-06	4.3978e-06	369.25	201.38	149.29	73.479	3.4817e-06	101.69	0.00041639	0.00040565	0.00011233	799.46	4.4494e-06	4.4312e-06	827.92	311.18	4.4392e-06	4.435e-06	370.33	195.07	146.47	71.616	4.3911e-06	98.042	52.552	10.593	-93.663	-90.141	-40.478	41.704	-91.722	-85.492	57.668	3.445	-87.599	-84.010	-82.804	-76.624	63.944	-80.146	-8191	255	
2075.245	1	1	0	0	0.12127	0.36237	0.075772	0.051898	0.040095	0.041045	0.12429	0.12027	0.17549	0.11332	0.16973	0.1641	0.18123	0.20035	0.090933	0.16003	-4.8875	-4.3375	-4.5	-5.0146	-4.2292	-4.9375	-4.7646	-4.3063	-5.0479	-4.2562	-4.6687	-5.2417	-4.2937	-5.0583	-4.775	-4.3917	-101.068	61.531	155.665	-19.505	167.160	54.716	193.590	75.131	250.564	46.887	131.584	155.564	175.762	-84.901	43.157	174.959	0.0013431	0.00052754	0.00010585	773.93	7.8867e-06	3.9306e-06	805.05	308.04	8.4262e-07	5.4737e-06	370.33	200.72	149.26	73.657	6.0316e-06	102.07	0.00040823	0.00040424	0.00011201	797.77	4.3741e-06	4.3882e-06	826.85	310.8	4.3746e-06	4.3573e-06	370.95	195.3	146.55	71.759	4.3944e-06	98.199	51.492	-13.493	-12.807	-90.323	37.885	7.520	-91.706	-85.613	3.349	62.160	-87.662	-83.797	-82.929	-76.682	-47.296	-80.052	-8191	255	
2075.342	1	1	0	0	0.10334	0.15331	0.044764	0.15172	0.10713	0.1715	0.27514	0.1747	0.10785	0.23505	0.2211	0.12247	0.27968	0.29102	0.097368	0.15894	-4.6625	-4.3542	-4.5542	-5.1583	-4.125	-4.8812	-4.9125	-4.1833	-4.8812	-4.5104	-4.4146	-5.1917	-4.225	-4.9	-4.9187	-4.3875	130.831	56.037	153.517	168.715	33.849	217.440	93.186	152.773	45.947	91.904	-100.157	135.138	234.438	248.380	116.307	199.754	0.0016958	0.0011815	3.2887e-05	774.58	5.7567e-06	1.0938e-05	801.17	308.54	6.3346e-06	3.028e-06	371.82	200.43	149.41	73.479	3.0879e-06	102.63	0.00040962	0.00040627	0.00011283	795.49	4.4363e-06	4.3923e-06	825.23	310.87	4.3812e-06	4.3747e-06	371.79	195.47	146.7	71.861	4.3072e-06	98.677	61.851	-26.852	252.156	-90.308	-84.010	80.870	-91.467	-85.738	-18.939	69.036	-87.839	-84.117	-82.871	-76.870	21.050	-80.109	-8191	255	
2075.413	1	1	0	0	0.092148	0.075678	0.097218	0.19622	0.05633	0.09426	0.33887	0.26038	0.24813	0.10371	0.1075	0.098039	0.23899	0.032911	0.19699	0.090015	-4.6667	-4.5354	-4.2396	-5.3479	-4.2771	-4.5104	-4.9979	-4.2458	-5.0375	-4.6042	-4.1333	-5.0896	-4.5062	-4.5458	-4.9583	-4.3	188.614	237.496	-28.539	-84.672	-3.296	182.999	175.406	179.794	240.316	63.691	225.816	-81.145	-100.298	40.875	96.696	124.271	0.0014495	0.00063786	4.8101e-05	776.65	1.0373e-05	6.7744e-06	809.49	310.33	5.2162e-06	6.2639e-06	371.32	202.23	150.4	74.095	3.6605e-06	103.13	0.00040294	0.00039056	0.00011001	796.92	4.2764e-06	4.2989e-06	829.49	312.35	4.2852e-06	4.2698e-06	373.02	196.52	147.12	72.13	4.2919e-06	99.167	65.015	-9.529	101.144	-90.442	-7.899	18.028	-91.766	-85.754	-13.842	48.923	-87.491	-84.102	-82.798	-76.725	-4.505	-79.962	-8191	255	
2075.534	1	1	0	0	0.096081	0.085147	0.079429	0.17519	0.32868	0.11846	0.043257	0.1853	0.12966	0.15792	0.092267	0.16524	0.14888	0.30956	0.085846	0.21992	-4.5021	-4.7333	-4.0771	-5.1687	-4.2125	-4.5062	-5.0646	-4.1771	-4.725	-4.8542	-4.1667	-5.2896	-4.5104	-4.3833	-5.1479	-4.3958	197.592	-85.682	191.945	-56.538	67.306	13.674	16.178	182.568	202.894	74.584	220.850	203.354	237.605	191.205	168.535	241.682	0.001736	0.00021521	0.00036449	775.05	1.1724e-05	3.8762e-06	814.6	308.93	2.1252e-06	1.3609e-06	372.11	203.37	150.42	74.319	2.6247e-06	103.55	0.00039849	0.00038722	0.00010831	798.4	4.2215e-06	4.233e-06	832.88	312.34	4.2184e-06	4.2404e-06	373.63	197.26	147.65	72.35	4.1933e-06	99.287	64.446	45.813	-65.651	-90.557	32.059	-54.074	-91.889	-85.452	-26.605	210.100	-87.607	-84.019	-82.945	-76.692	15.291	-80.107	-8191	255	
2075.628	1	1	0	0	0.019262	0.10208	0.071299	0.098921	0.19369	0.16011	0.1763	0.16217	0.25884	0.29314	0.22449	0.026833	0.24225	0.37135	0.17418	0.30956	-4.4	-4.7125	-4.0896	-5.0583	-4.5271	-4.3313	-5.1375	-4.2417	-4.4604	-4.8417	-4.1708	-5.1771	-4.5604	-4.5958	-4.9146	-4.45	-25.278	132.692	213.387	68.690	142.332	67.516	182.140	-25.350	-68.038	68.923	174.189	129.245	213.629	222.091	18.627	196.050	0.001768	0.00067175	0.00014777	776.6	1.076e-06	2.911e-06	813.91	311.95	9.2743e-07	8.4379e-06	374.76	204.19	151.86	74.783	9.5639e-06	103.94	0.00039259	0.00038106	0.00010632	797.34	4.1273e-06	4.1597e-06	831.33	313.43	4.1376e-06	4.1514e-06	373.55	198.03	148.5	72.833	4.1439e-06	99.804	54.967	-14.177	-87.059	-90.412	91.348	21.445	-91.616	-85.605	179.836	46.193	-87.495	-83.977	-82.769	-76.895	-21.313	-79.919	-8191	255	
2075.724	1	1	0	0	0.14836	0.067085	0.14905	0.22463	0.14355	0.085465	0.20629	0.36001	0.16801	0.09587	0.28725	0.14315	0.15828	0.32895	0.12369	0.2035	-4.2333	-4.9292	-4	-5.0062	-4.6	-4.2479	-5.1583	-4.4688	-4.4583	-4.975	-4.3479	-5.0125	-5.0021	-4.3333	-4.9229	-4.6229	182.830	-1.020	76.412	221.386	89.612	243.843	206.382	220.368	225.126	-93.736	-77.001	245.582	216.028	-103.215	-46.089	162.575	0.0013104	0.00010581	0.00013416	779	7.377e-06	1.6439e-06	814.76	314.31	1.2231e-05	1.4156e-06	376.27	207.12	153.92	76.027	3.3915e-06	105.58	0.00038815	0.00037801	0.00010411	800.77	4.0885e-06	4.1375e-06	832.43	315.03	4.1376e-06	4.096e-06	375.43	200.34	150.13	73.742	4.0688e-06	101.07	52.966	-31.012	-22.044	-90.557	32.820	-2.348	-91.752	-85.679	54.399	-83.890	-87.964	-84.158	-83.052	-77.016	-49.097	-80.138	-8191	255	
2075.821	1	1	0	0	0.15431	0.12047	0.20283	0.24762	0.14084	0.19767	0.12167	0.14354	0.079402	0.11229	0.16514	0.21284	0.099684	0.24179	0.1464	0.36821	-3.925	-5.025	-4.2354	-4.6854	-4.7771	-4.1292	-5.0542	-4.6062	-4.225	-5.0271	-4.2979	-4.6708	-4.9208	-4.5437	-5.0042	-4.6396	-87.820	-29.709	-45.795	220.168	-32.009	-23.177	184.962	241.584	92.235	50.460	-66.157	184.087	-74.952	201.119	-93.844	110.958	0.0015418	0.00048502	0.00013548	780.12	1.3952e-05	3.4481e-06	819.18	315.63	3.9731e-06	6.5023e-06	380.1	207.76	154.2	76.191	2.8917e-06	106.31	0.00038521	0.00037538	0.0001046	801.09	4.1211e-06	4.0975e-06	836.99	316.68	4.1326e-06	4.117e-06	378.84	201.94	150.93	74.188	4.1193e-06	102.06	56.986	-13.445	-43.973	-90.348	10.575	41.871	-91.774	-85.435	94.511	4.523	-87.807	-84.510	-82.841	-77.201	-1.293	-80.097	-8191	255	
2075.941	1	1	0	0	0.21391	0.18353	0.21421	0.10946	0.21153	0.21982	0.21402	0.18029	0.1021	0.083811	0.072955	0.17187	0.14155	0.39416	0.16647	0.29866	-3.9917	-5.0229	-4.1854	-4.7042	-4.9417	-4.1375	-5.0687	-4.6354	-4.1417	-5.0208	-4.4958	-4.6083	-5.0167	-4.3187	-4.8146	-4.8958	198.339	180.367	131.131	199.754	-80.534	9.100	255.120	187.471	201.946	60.862	93.340	216.884	110.824	192.758	101.238	177.711	0.0014995	0.00025637	0.00021642	778.57	5.1409e-06	8.8603e-06	821.31	316.06	1.0756e-05	6.1451e-06	380.4	208.93	155.06	76.549	3.404e-06	106.45	0.0003904	0.00037732	0.00010506	801.15	4.1152e-06	4.1367e-06	839.41	317.14	4.1582e-06	4.1241e-06	379.84	202.45	151.17	74.271	4.1599e-06	101.73	48.344	37.106	-2.769	-90.379	170.028	72.579	-91.710	-85.664	1.563	34.835	-87.730	-84.017	-83.012	-77.152	-0.534	-80.123	-8191	255	
2076.037	1	1	0	0	0.0679	0.052755	0.10838	0.079518	0.32619	0.23454	0.083293	0.18779	0.10034	0.092087	0.022112	0.16589	0.33619	0.29575	0.11231	0.054438	-3.8292	-5.0479	-4.3917	-4.3333	-5.0208	-4.2312	-4.9417	-5.0583	-4.1562	-5.0917	-4.7521	-4.4729	-5.0813	-4.2917	-4.725	-5.1229	35.294	239.721	151.112	-79.458	42.306	113.351	164.041	206.588	-67.416	171.984	118.452	244.379	196.989	209.223	-40.576	-26.536	0.0018295	0.00031849	0.00012034	776.96	4.7398e-06	9.1911e-06	813.4	314.7	3.4302e-06	7.0868e-06	377.96	206.96	154.09	75.865	5.7619e-06	105.6	0.00038967	0.0003785	0.00010554	800.09	4.1689e-06	4.1546e-06	833.97	316.08	4.1943e-06	4.1834e-06	377.2	201.18	150.57	73.922	4.1667e-06	101.36	55.146	-10.599	-20.929	-90.659	-7.811	32.181	-92.000	-85.671	27.522	23.082	-87.853	-84.496	-82.947	-77.033	5.403	-79.967	-8191	255	
2076.134	1	1	0	0	0.35022	0.18306	0.25143	0.24774	0.15864	0.086961	0.40889	0.2235	0.068189	0.18528	0.080584	0.15056	0.039822	0.21453	0.17697	0.33514	-3.7958	-5.0062	-4.5125	-4.4042	-4.8958	-4.2208	-4.8063	-5.0125	-3.9542	-4.9812	-4.6062	-4.3958	-5.2271	-4.4812	-4.5958	-5.1833	-80.641	120.907	19.431	213.513	-37.850	132.555	215.628	-80.004	143.085	-16.411	-6.558	-45.185	240.836	247.956	-94.013	160.561	0.0016253	0.00032343	0.00011654	776.46	2.6722e-06	5.8873e-06	812.43	313.73	2.9791e-06	3.2964e-06	378.08	207.05	153.52	75.823	9.0374e-06	105.59	0.00038997	0.00038095	0.00010614	795.94	4.1609e-06	4.1616e-06	832.94	315.89	4.1738e-06	4.1701e-06	377.81	200.91	150.23	73.819	4.2123e-06	101.21	37.068	161.016	-15.773	-90.648	233.038	103.223	-91.682	-85.489	154.290	23.967	-87.692	-84.267	-83.045	-77.090	1.505	-80.035	-8191	255	
2076.230	1	1	0	0	0.044141	0.12229	0.2653	0.11393	0.1804	0.15918	0.12508	0.14074	0.085832	0.28786	0.11788	0.12329	0.19571	0.08603	0.23797	0.22492	-3.7708	-4.875	-4.8208	-4.3604	-5.0583	-4.2729	-4.4771	-5.2479	-4.1604	-4.9521	-4.9333	-4.3604	-5.1583	-4.5375	-4.5625	-5.3417	136.270	183.323	217.249	223.484	187.014	196.788	-84.259	161.225	-35.837	-27.806	-82.940	158.335	-100.130	194.147	50.823	186.736	0.0014315	0.00064757	1.5979e-05	777.03	8.0246e-06	2.1769e-06	817.73	314.17	7.802e-06	5.2686e-06	377.85	206.54	153.82	75.813	6.1616e-06	105.81	0.00039291	0.00038394	0.0001054	797.17	4.1585e-06	4.1678e-06	834.72	315.71	4.1893e-06	4.1767e-06	377.53	200.64	150.13	73.644	4.231e-06	101.49	44.513	16.577	-93.757	-90.679	-5.079	-82.759	-91.790	-85.534	26.288	-58.955	-87.451	-84.431	-82.808	-76.994	37.895	-80.203	-8191	255	
2076.326	1	1	0	0	0.15245	0.13947	0.089213	0.1447	0.084354	0.17721	0.27586	0.10693	0.20193	0.05797	0.23234	0.084584	0.16008	0.27861	0.040413	0.28846	-3.8542	-4.8187	-4.8562	-4.3042	-5.1646	-4.3958	-4.5417	-5.125	-4.225	-4.6062	-5.0813	-4.2312	-5.1625	-4.6979	-4.3625	-5.2396	166.503	48.127	35.462	-87.291	-28.592	-24.392	229.120	-86.548	96.091	-60.447	217.885	141.681	158.644	179.670	-86.633	219.282	0.0015525	0.0008155	0.00024068	776.16	3.6145e-06	6.6351e-06	816.6	315.34	3.0423e-06	6.6884e-06	380.03	208.36	153.75	76.125	1.3043e-06	106.43	0.00039443	0.00038656	0.00010724	799.58	4.2277e-06	4.2087e-06	836.71	316.7	4.2338e-06	4.226e-06	379.91	201.75	150.46	74.052	4.1908e-06	102.07	41.069	1.351	-34.184	-90.570	70.536	32.960	-91.848	-85.305	134.597	-56.795	-87.555	-84.342	-82.896	-76.856	-15.342	-80.157	-8191	255	
2076.422	1	1	0	0	0.15483	0.14856	0.1244	0.068515	0.19033	0.1666	0.11976	0.11621	0.18501	0.15137	0.087212	0.44831	0.06404	0.25137	0.2301	0.085884	-3.9479	-4.7021	-4.9479	-4.0625	-5.0771	-4.6479	-4.4521	-5.1833	-4.1312	-4.5667	-5.0833	-4.2021	-4.8104	-4.8354	-4.3875	-5.25	-31.546	152.604	-22.418	-71.314	-82.826	37.902	194.139	75.528	54.074	-42.692	255.754	-99.695	237.046	241.205	40.129	173.552	0.0015442	0.0002245	0.0001551	779.83	6.5059e-06	4.7235e-06	816.73	315.01	9.1712e-06	7.5851e-06	380.05	206.72	153.46	76.205	6.4226e-06	105.6	0.00039176	0.00038284	0.00010636	799.86	4.1966e-06	4.2283e-06	835.63	316.79	4.233e-06	4.2294e-06	379.27	200.92	150.44	73.864	4.2136e-06	101.29	55.249	-41.597	23.750	-90.922	18.114	40.487	-91.832	-85.557	61.519	23.763	-87.622	-84.120	-83.019	-76.998	11.212	-80.152	-8191	255	
2076.543	1	1	0	0	0.20869	0.014002	0.028571	0.012496	0.24891	0.11819	0.21036	0.37781	0.071966	0.01631	0.060644	0.11077	0.10879	0.158	0.15919	0.099155	-3.9813	-4.3313	-4.8979	-4.2188	-4.8167	-4.7854	-4.2312	-5.2562	-4.4104	-4.2896	-5.1729	-4.3688	-4.8354	-4.9604	-4.05	-5.1687	73.698	147.755	57.009	59.430	48.230	-56.584	158.666	164.784	-52.551	254.427	191.621	243.039	162.642	-97.968	-89.858	215.148	0.0015284	0.00016055	0.00021979	777.38	5.278e-06	8.3011e-06	816.8	313.67	5.2808e-06	3.1706e-06	377.16	206.59	153.75	75.989	4.6891e-06	105.9	0.0003942	0.00038541	0.00010733	798.09	4.2488e-06	4.2347e-06	833.98	315.52	4.2572e-06	4.2742e-06	377.17	200.55	150.06	73.832	4.2357e-06	101.49	57.107	-56.771	-51.746	-90.474	7.721	-3.463	-91.877	-85.455	-19.504	21.046	-87.471	-84.262	-82.929	-76.849	256.063	-80.134	-8191	255	
2076.637	1	1	0	0	0.23568	0.11475	0.10433	0.10313	0.072624	0.11144	0.19924	0.26055	0.072298	0.20345	0.1221	0.043769	0.028906	0.18946	0.1181	0.15091	-4.1417	-4.4229	-4.9479	-4.3042	-4.6583	-5.0604	-4.2875	-4.9958	-4.6104	-4.1813	-5.1583	-4.4354	-4.5875	-5.0542	-3.9604	-5.1562	100.839	248.283	115.366	-52.171	-70.622	67.011	198.821	-86.425	-12.632	185.849	-35.412	-15.930	135.711	219.486	199.328	243.709	0.0017283	0.00036459	0.00010762	772.5	5.3428e-06	4.2742e-06	813.31	313.41	1.4698e-05	8.5409e-06	378.23	207.37	153.9	75.818	1.8423e-06	106.54	0.0003959	0.00038924	0.00010743	797.48	4.2733e-06	4.2327e-06	834.07	315.85	4.2621e-06	4.2968e-06	378.25	201.42	150.57	73.929	4.2734e-06	102.07	58.312	244.403	210.001	-90.589	-17.349	55.873	-91.598	-85.608	26.604	29.507	-87.609	-83.884	-83.112	-77.058	-87.133	-80.122	-8191	255	
2076.709	1	1	0	0	0.096908	0.11654	0.022396	0.09224	0.12043	0.15921	0.19661	0.17171	0.077866	0.21391	0.30812	0.33814	0.060524	0.34954	0.20756	0.19703	-4.3417	-4.1646	-5.05	-4.3583	-4.5229	-5.0125	-4.1396	-5.0083	-4.6042	-4.2	-5.0938	-4.4125	-4.5125	-5.2479	-4.025	-4.8833	113.744	254.817	239.976	-98.913	86.252	99.198	247.760	154.517	-14.848	103.653	99.131	-38.726	193.414	245.774	110.786	196.698	0.0017806	5.3964e-05	0.00010792	776.4	3.2016e-06	1.8539e-06	814.17	315.37	7.0914e-06	2.1182e-06	378.47	208.92	154.1	76.025	2.2419e-06	106.91	0.00040002	0.00038915	0.00010813	797.81	4.2707e-06	4.2522e-06	836.08	316.81	4.2755e-06	4.2666e-06	380	202.74	151.16	74.219	4.2475e-06	102.62	56.796	162.552	-46.711	-90.580	20.203	52.851	-91.702	-85.626	5.119	-10.652	-87.881	-84.367	-82.900	-77.030	-101.822	-80.014	-8191	255	
2076.805	1	1	0	0	0.13943	0.068039	0.021863	0.12909	0.11692	0.16242	0.21791	0.12678	0.11207	0.069384	0.17318	0.089567	0.22883	0.36858	0.034692	0.33871	-4.55	-4.0146	-5.0521	-4.5792	-4.5021	-5.0917	-4.35	-4.8167	-4.7458	-4.0979	-5.0875	-4.7729	-4.3104	-5.1792	-4.3667	-4.6854	177.817	93.848	19.660	-70.876	251.572	5.227	249.623	-59.230	171.885	20.571	226.030	212.506	189.257	231.118	24.349	198.248	0.0014828	0.0012208	0.00016935	785.44	4.656e-06	1.8461e-06	826.43	317.64	6.114e-06	1.7536e-06	384.47	210.69	156.71	77.494	4.7195e-06	107.75	0.00039586	0.00038589	0.00010818	802.93	4.1666e-06	4.1718e-06	839.14	318.48	4.1729e-06	4.1403e-06	382.08	204.38	152.7	75.032	4.166e-06	102.95	53.449	-13.776	5.116	-90.502	71.972	51.392	-91.585	-85.619	53.196	180.848	-87.834	-84.361	-83.090	-76.923	1.951	-80.154	-8191	255	
2076.925	1	1	0	0	0.17501	0.049476	0.077323	0.16598	0.061268	0.15236	0.12301	0.15871	0.16047	0.068615	0.085592	0.098762	0.15251	0.18422	0.29619	0.13398	-4.5896	-4.0333	-5.0354	-4.85	-4.2583	-5.1792	-4.3208	-4.7792	-4.9938	-4.1312	-5.1583	-4.8646	-4.2542	-5.2562	-4.2958	-4.6292	74.083	0.871	-77.855	241.849	113.547	156.980	132.168	166.390	71.562	251.613	-76.471	-41.899	235.103	232.197	168.607	231.345	0.0016797	0.0003873	0.00016529	779.8	3.7811e-06	4.9616e-06	818.62	318.04	7.0693e-06	7.7907e-06	383.18	211.89	157.13	77.771	9.1343e-06	107.66	0.00039455	0.0003826	0.00010638	800.48	4.2169e-06	4.1342e-06	835.53	319.13	4.1631e-06	4.1552e-06	381.8	204.44	152.98	75.318	4.1508e-06	103.05	55.450	12.109	-8.870	-90.198	11.284	81.659	-91.723	-85.608	20.086	20.595	-87.680	-84.267	-83.042	-76.893	59.657	-80.085	-8191	255	
2077.022	1	1	0	0	0.19933	0.18635	0.11137	0.24967	0.14824	0.047815	0.10151	0.092946	0.037181	0.028141	0.2257	0.1812	0.1802	0.44366	0.16879	0.04591	-4.5875	-4.0229	-4.8729	-4.8042	-4.1021	-5.0146	-4.5229	-4.5375	-4.8583	-4.1708	-4.8729	-4.9917	-4.2708	-5.125	-4.3375	-4.3542	229.387	180.632	183.605	-62.994	-39.809	49.777	52.530	-17.118	10.005	-37.076	157.221	256.232	247.330	255.069	53.706	140.713	0.0017648	0.00035774	0.00021488	782.18	7.3209e-06	4.6975e-06	819.87	319.72	4.6537e-06	3.2932e-06	382.72	211.38	156.48	77.581	4.7188e-06	107.88	0.00038697	0.00038281	0.00010632	802.31	4.1599e-06	4.1889e-06	836.28	319.49	4.1765e-06	4.1778e-06	381.65	204.55	153.12	75.366	4.1443e-06	103.53	66.767	-24.520	-41.624	-90.404	-22.937	85.167	-91.743	-85.778	14.281	-17.021	-87.763	-84.471	-83.247	-77.085	-35.806	-80.150	-8191	255	
2077.118	1	1	0	0	0.23517	0.18371	0.22792	0.038328	0.20774	0.076127	0.079584	0.19653	0.21323	0.12348	0.060161	0.097734	0.22657	0.28714	0.16788	0.13288	-4.7208	-4.3479	-4.5021	-4.8979	-3.9271	-4.9958	-4.675	-4.4479	-5.1979	-4.1417	-4.5854	-4.9104	-4.3917	-5.1208	-4.5854	-4.5104	245.403	231.205	248.301	141.289	186.364	-37.783	230.791	249.906	167.923	156.728	193.741	173.277	228.875	197.225	193.794	211.969	0.0013862	0.00055219	0.00017046	782.33	1.0699e-05	4.2766e-06	824.43	320.7	1.0922e-05	5.4088e-06	385.93	213.41	159.71	78.121	2.9673e-06	109.4	0.00038733	0.0003807	0.00010508	804.24	4.1062e-06	4.1338e-06	842.62	321.48	4.0844e-06	4.0861e-06	384.62	206.88	154.86	75.866	4.0816e-06	104.57	63.038	30.985	17.308	-90.541	-8.214	3.213	-91.558	-85.570	17.300	30.130	-88.103	-84.288	-83.328	-77.165	170.471	-80.282	-8191	255	
2077.214	1	1	0	0	0.090172	0.17561	0.10989	0.094118	0.15458	0.069132	0.098432	0.20589	0.069242	0.24173	0.25243	0.26216	0.04853	0.096366	0.021465	0.35128	-4.6604	-4.1354	-4.5625	-5.1271	-4.1188	-4.7667	-4.8771	-4.2729	-5.0833	-4.3458	-4.4187	-5.1312	-4.4917	-5.0104	-4.7271	-4.2729	95.505	77.658	137.436	140.476	137.427	89.292	222.867	223.093	-92.559	-50.797	142.343	228.892	139.529	213.981	-39.718	216.666	0.0012595	0.00065896	0.00020027	793.57	4.0163e-06	6.1663e-06	832.81	321.58	4.2329e-06	3.4661e-06	389.13	215.09	159.22	78.498	7.02e-06	109.8	0.00038419	0.00037983	0.00010561	810.49	4.1141e-06	4.1528e-06	848.84	322.84	4.1421e-06	4.1208e-06	386.68	207.88	155.13	76.292	4.0848e-06	104.88	48.177	19.849	53.458	-90.205	183.955	106.576	-91.731	-85.668	228.919	152.763	-87.919	-84.473	-83.147	-77.335	22.374	-80.416	-8191	255	
2077.310	1	1	0	0	0.28215	0.073803	0.24571	0.29514	0.20009	0.15924	0.27487	0.1468	0.11794	0.087831	0.15393	0.18094	0.11608	0.087671	0.096549	0.19995	-4.8187	-4.3146	-4.1708	-5.1292	-4.0938	-4.6833	-4.8438	-4.2188	-5.0167	-4.5333	-4.2917	-5.2583	-4.175	-4.9313	-4.7771	-4.3667	161.868	124.046	94.247	206.792	158.442	-62.086	172.855	200.780	40.064	16.176	120.177	-82.885	196.083	205.479	8.819	209.253	0.0016077	0.0002517	0.00021839	788.28	2.63e-06	4.7806e-06	824.25	322.49	9.5821e-06	3.3831e-06	389.87	217.13	161.32	79.603	6.0232e-06	110.37	0.00038149	0.00037127	0.00010315	807.96	4.0218e-06	4.0186e-06	844.85	323.35	3.9905e-06	3.9926e-06	387.16	209.67	156.64	77.228	3.8427e-06	105.69	51.566	-22.152	12.224	-90.181	-21.033	8.162	-91.611	-85.520	-56.008	45.635	-87.905	-84.442	-83.211	-77.155	74.911	-80.418	-8191	255	
2077.406	1	1	0	0	0.17573	0.11392	0.14493	0.11537	0.097153	0.1121	0.23873	0.11849	0.12009	0.093611	0.038797	0.052409	0.17458	0.17669	0.057054	0.33184	-4.6125	-4.825	-4.3208	-5.1875	-4.2688	-4.5042	-4.9792	-4.0833	-4.8854	-4.5312	-4.3208	-5.2188	-4.4083	-4.5938	-4.7708	-4.375	224.504	16.038	222.632	-48.305	215.377	172.160	250.955	210.493	4.165	-75.349	-31.589	87.739	-77.900	-103.123	101.231	191.813	0.0016542	0.00067482	0.00032336	789.65	5.0513e-06	4.7407e-06	831.54	323.55	7.6981e-06	6.2391e-06	392.09	218.45	162.17	80.08	2.7866e-06	111.17	0.0003575	0.00034477	9.6116e-05	802.87	3.7532e-06	3.775e-06	843.91	323.38	3.7381e-06	3.7182e-06	388.33	210.75	156.84	77.462	3.6994e-06	106.08	56.183	-4.652	3.646	-90.507	-69.136	35.413	-91.620	-85.965	-6.512	70.077	-87.971	-84.439	-83.140	-77.347	71.880	-80.421	-8191	255	
2077.502	1	1	0	0	0.22733	0.16003	0.10422	0.36537	0.14255	0.14938	0.26157	0.11039	0.17692	0.065193	0.23309	0.091919	0.11387	0.20924	0.094352	0.18864	-4.7229	-4.8063	-4.0208	-5.1667	-4.3271	-4.4917	-5.1979	-4.2688	-4.7521	-4.7688	-4.0938	-5.0542	-4.4146	-4.5271	-4.9688	-4.3625	-95.886	-43.396	218.384	250.791	74.404	1.063	233.035	206.830	254.998	139.772	214.343	166.450	-64.063	240.558	-20.432	166.776	0.0014735	0.00039608	0.00024683	787.69	1.1135e-05	6.7038e-06	828.27	322.38	5.0748e-06	7.7203e-06	389.12	216.41	160.03	78.4	4.9752e-06	109.99	0.00034872	0.00033744	9.3744e-05	801.06	3.6658e-06	3.6571e-06	841.15	321.09	3.6893e-06	3.6512e-06	384.87	208.67	154.54	75.979	3.6616e-06	104.68	69.636	56.925	-56.859	-90.715	5.421	15.410	-91.691	-85.801	44.873	22.183	-87.764	-84.353	-83.214	-77.206	-49.668	-80.369	-8191	255	
2077.623	1	1	0	0	0.075658	0.11674	0.21706	0.022626	0.16683	0.030464	0.076929	0.11041	0.051649	0.11633	0.10687	0.078867	0.2015	0.2652	0.13704	0.50485	-4.325	-4.6667	-4.0708	-5.025	-4.4292	-4.2167	-5.1542	-4.2604	-4.6521	-4.9208	-4.3479	-5.0917	-4.775	-4.475	-5.1125	-4.425	184.531	-76.624	-57.309	-33.886	97.578	-74.180	-23.781	242.954	26.240	-16.634	87.603	240.618	202.558	-51.438	187.808	181.030	0.001591	0.00093432	1.9415e-05	788.81	4.3245e-06	1.1877e-06	836.23	320.26	6.4288e-06	7.8485e-06	390.04	215.39	158.57	78.124	4.591e-06	109.13	0.00034737	0.00033716	9.4325e-05	803.87	3.7096e-06	3.7485e-06	847.17	320.28	3.7791e-06	3.7979e-06	385.69	207.19	153.96	75.702	3.8666e-06	104.11	52.540	-18.660	-32.901	-90.657	167.503	11.534	-92.046	-85.575	192.977	70.524	-87.804	-84.396	-83.083	-77.235	-60.741	-80.249	-8191	255	
2077.717	1	1	0	0	0.29156	0.13201	0.036227	0.043716	0.22885	0.12577	0.16036	0.25963	0.21559	0.083883	0.18046	0.097826	0.12875	0.15276	0.038895	0.2586	-4.3542	-5.0042	-4.2021	-4.9021	-4.5458	-4.0583	-5.2646	-4.5875	-4.5042	-5.0771	-4.2271	-5.0396	-4.8688	-4.3917	-4.9812	-4.5854	187.777	-96.467	143.554	73.910	84.674	-12.778	126.831	-57.812	-57.142	44.628	-93.602	-2.203	234.533	35.754	219.971	225.922	0.0016808	8.2833e-05	0.00018055	795.72	1.8279e-06	5.9653e-06	834.08	322.49	3.0474e-06	3.6087e-06	386.26	211.89	158.29	77.869	1.1491e-06	107.46	0.00036807	0.00035934	0.00010086	813.65	4.0229e-06	4.0411e-06	851.12	322.73	4.1459e-06	4.1184e-06	385.54	205.21	154.33	75.602	4.2383e-06	103.33	49.201	-89.787	-46.401	-90.616	138.200	-3.613	-92.021	-85.699	-100.372	-9.396	-87.883	-84.313	-83.259	-77.385	-88.951	-80.344	-8191	255	
2077.814	1	1	0	0	0.096145	0.11224	0.13734	0.088468	0.27737	0.11168	0.18103	0.1501	0.19135	0.15845	0.23622	0.26161	0.11718	0.25766	0.06428	0.14924	-4.2292	-5.1062	-4.2271	-4.8083	-4.8875	-4.2083	-5.2188	-4.7438	-4.3333	-4.9563	-4.4104	-4.7292	-5.1167	-4.2104	-4.9938	-4.7458	189.508	24.331	37.113	39.126	160.436	-97.389	109.483	161.960	19.806	-103.843	-69.612	-101.448	249.547	219.628	129.658	-100.288	0.0015415	0.00053618	0.00023167	796.67	2.3708e-06	9.9704e-06	831.95	321.28	3.8708e-06	3.6546e-06	386.35	210.82	156.93	77.348	4.2896e-06	107.16	0.00040523	0.00039281	0.00011068	818.08	4.4038e-06	4.414e-06	851.77	323.83	4.5051e-06	4.4956e-06	387.09	205.48	154.09	75.295	4.537e-06	103.12	59.163	72.322	-42.579	-90.326	37.595	105.104	-91.926	-85.888	54.586	-48.404	-88.086	-84.432	-83.291	-77.310	73.559	-80.328	-8191	255	
2077.934	1	1	0	0	0.07864	0.08808	0.088821	0.093815	0.16749	0.10388	0.18112	0.05632	0.23499	0.080692	0.12501	0.27341	0.14445	0.22972	0.22804	0.21445	-3.9917	-5.0563	-4.2792	-4.7646	-4.975	-4.1292	-5.0229	-4.8146	-4.1771	-5.1562	-4.3979	-4.5292	-4.9667	-4.2167	-4.8917	-4.9604	15.015	-40.943	181.857	-32.558	-25.026	186.451	218.787	235.307	211.459	-46.929	180.437	246.690	221.165	158.713	1.861	134.937	0.0015885	0.00032838	0.00014014	793.67	3.3358e-06	1.0451e-05	832.82	323.59	6.6855e-06	6.4765e-06	391.11	214.46	159.33	78.186	4.6559e-07	109.29	0.00042607	0.00041344	0.00011519	821.3	4.5079e-06	4.5361e-06	854.99	325.33	4.4954e-06	4.4397e-06	389.5	208.25	155.86	76.101	4.454e-06	104.66	60.004	241.731	-39.837	-90.546	51.194	28.115	-91.801	-85.715	139.418	35.576	-87.759	-84.535	-83.021	-77.320	55.477	-80.554	-8191	255	
2078.006	1	1	0	0	0.1307	0.10799	0.033536	0.19685	0.10889	0.092199	0.083339	0.22957	0.15671	0.038218	0.11484	0.054946	0.21503	0.21806	0.054641	0.30865	-3.8979	-5.0958	-4.3688	-4.5479	-5.0333	-4.1229	-4.9229	-4.9271	-4.0583	-5.1125	-4.6625	-4.575	-5.2125	-4.4938	-4.6271	-4.9417	184.674	-3.466	117.779	-45.450	242.439	-57.969	-100.692	135.644	45.362	158.533	184.987	-63.264	246.118	174.176	91.326	166.271	0.0018487	0.00028255	8.6408e-05	802.72	7.7291e-06	1.8301e-06	838.94	326.18	7.0784e-06	1.956e-06	395.26	215.76	160.79	78.841	7.0661e-06	109.71	0.0004143	0.00040467	0.00011237	826.94	4.4342e-06	4.4602e-06	860.46	327.93	4.3684e-06	4.3662e-06	392.51	209.67	157.13	76.608	4.3378e-06	105.37	61.430	-2.085	-79.496	-90.790	62.200	46.506	-91.810	-85.905	25.692	223.577	-88.189	-84.449	-83.352	-77.394	9.391	-80.248	-8191	255	
2078.102	1	1	0	0	0.11887	0.16094	0.17055	0.30027	0.062299	0.19782	0.051981	0.31417	0.23124	0.12523	0.17044	0.35723	0.12331	0.31528	0.13073	0.16636	-4.0771	-4.9833	-4.3875	-4.3688	-5.075	-4.2125	-4.8792	-4.9354	-4.0125	-5.1208	-4.6458	-4.375	-5.2604	-4.5062	-4.5979	-5.0875	235.188	190.371	219.650	-96.623	223.896	243.744	162.422	158.389	4.570	137.649	-40.314	-92.781	236.815	197.904	46.907	200.167	0.0016484	0.00024049	0.0001155	810.45	8.4422e-06	6.4639e-06	841.93	328.89	9.2202e-06	3.1775e-06	394.12	217.21	162.64	79.536	1.1199e-05	110.04	0.00040809	0.00039753	0.0001106	831.03	4.3436e-06	4.346e-06	862.01	330.18	4.3636e-06	4.3858e-06	393.25	210.84	158.8	77.149	4.3813e-06	105.37	66.473	-5.707	-39.519	-90.285	14.695	-5.281	-91.658	-85.573	-1.465	-2.657	-87.593	-84.635	-83.282	-77.283	-15.785	-80.407	-8191	255	
2078.223	1	1	0	0	0.14063	0.14388	0.25294	0.089894	0.17494	0.06959	0.089699	0.093498	0.11588	0.082939	0.13042	0.18967	0.27083	0.25322	0.34145	0.37375	-3.9188	-4.7312	-4.4792	-4.2417	-5	-4.3	-4.6125	-4.9771	-4.325	-4.6479	-4.8292	-4.3958	-5.0625	-4.6521	-4.5437	-5.1813	-95.545	118.212	164.471	-102.933	193.506	47.334	251.500	180.498	-14.660	-38.049	122.984	203.309	232.007	193.206	99.337	-95.312	0.00158	0.00064159	0.00011421	809.11	1.023e-05	1.0394e-05	843.75	328.76	9.5549e-06	1.6483e-06	393.05	217.32	163.52	79.352	3.2544e-06	110.32	0.00040911	0.00039867	0.00011102	832.48	4.35e-06	4.3446e-06	862.43	331.24	4.3786e-06	4.3619e-06	392.27	210.82	158.94	77.243	4.3713e-06	105.44	62.695	-9.135	-101.270	-90.662	34.712	28.641	-91.765	-85.553	31.649	92.406	-87.872	-84.523	-83.382	-77.276	249.418	-80.294	-8191	255	
2078.319	1	1	0	0	0.10254	0.037161	0.27672	0.044578	0.30384	0.14554	0.16935	0.15145	0.24771	0.30299	0.13413	0.16858	0.37239	0.19488	0.16976	0.15634	-3.8812	-4.8042	-4.8042	-4.2063	-5.0312	-4.4854	-4.3542	-5.2146	-4.2146	-4.825	-5.0229	-4.1542	-5.0417	-4.7021	-4.3063	-5.275	129.914	82.963	-61.488	-7.913	-100.105	162.340	-77.472	221.536	20.169	50.822	223.271	175.270	249.684	168.626	-56.936	182.465	0.001706	0.0006293	0.0001048	814.89	6.5294e-06	4.2761e-06	837.67	327.1	4.402e-06	2.455e-06	394.17	216.85	162.13	79.105	1.6663e-06	109.91	0.00040491	0.00039698	0.00010993	832.31	4.3623e-06	4.3407e-06	860.45	329.59	4.2987e-06	4.3125e-06	392.6	210.17	158.34	76.922	4.2645e-06	105.34	49.971	10.044	97.526	-90.383	-15.692	36.321	-91.752	-85.843	38.090	44.459	-87.850	-84.517	-83.182	-77.417	31.928	-80.098	-8191	255	
#DATA ENDS
