BOXY.EXE: ISS Imagent and Oximeter Data Acquisition Program Version 0.80
Ascii Record File

#ACQ INFORMATION
2  Detector Channels 
16  External MUX Channels 
1  Auxiliary Channels 
5000  Waveform (CCF) Frequency (Hz)
1  Waveforms Skipped 
30  Waveforms Averaged 
1  Cycles Averaged 
16  Acquisitions per Waveform 
10.0806  Updata Rate (Hz) 

#FILE INFORMATION
TRUE -- External MUX Channel results are PARSED.
FALSE -- AC DC and Phase are NOT grouped.
TRUE -- Companion Program Settings File CREATED.
FALSE -- AC data not excluded
FALSE -- DC data not excluded
FALSE -- Phase data not excluded
FALSE -- Auxillary Chn. data not excluded
Tab delimiters

#CALIBRATION STATE
TRUE -- Waveform Calibration Values APPLIED.


#AUX CALIBRATION VALUES
Val Type	aux-1	

Term	1.0000e+00	
Factor	0.0000e+00	


#WF CALIBRATION VALUES
A = Detector Channel
Val Type	A-AC1	A-AC2	A-AC3	A-AC4	A-AC5	A-AC6	A-AC7	A-AC8	A-AC9	A-AC10	A-AC11	A-AC12	A-AC13	A-AC14	A-AC15	A-AC16	A-DC1	A-DC2	A-DC3	A-DC4	A-DC5	A-DC6	A-DC7	A-DC8	A-DC9	A-DC10	A-DC11	A-DC12	A-DC13	A-DC14	A-DC15	A-DC16	A-Ph1	A-Ph2	A-Ph3	A-Ph4	A-Ph5	A-Ph6	A-Ph7	A-Ph8	A-Ph9	A-Ph10	A-Ph11	A-Ph12	A-Ph13	A-Ph14	A-Ph15	A-Ph16	

Term	0.00000e+00	0.00000e+00	0.00000e+00	0.00000e+00	0.00000e+00	0.00000e+00	0.00000e+00	0.00000e+00	0.00000e+00	0.00000e+00	0.00000e+00	0.00000e+00	0.00000e+00	0.00000e+00	0.00000e+00	0.00000e+00	0.00000e+00	0.00000e+00	0.00000e+00	0.00000e+00	0.00000e+00	0.00000e+00	0.00000e+00	0.00000e+00	0.00000e+00	0.00000e+00	0.00000e+00	0.00000e+00	0.00000e+00	0.00000e+00	0.00000e+00	0.00000e+00	0.00000e+00	0.00000e+00	0.00000e+00	0.00000e+00	0.00000e+00	0.00000e+00	0.00000e+00	0.00000e+00	0.00000e+00	0.00000e+00	0.00000e+00	0.00000e+00	0.00000e+00	0.00000e+00	0.00000e+00	0.00000e+00	
Factor	1.00000e+00	1.00000e+00	1.00000e+00	1.00000e+00	1.00000e+00	1.00000e+00	1.00000e+00	1.00000e+00	1.00000e+00	1.00000e+00	1.00000e+00	1.00000e+00	1.00000e+00	1.00000e+00	1.00000e+00	1.00000e+00	1.00000e+00	1.00000e+00	1.00000e+00	1.00000e+00	1.00000e+00	1.00000e+00	1.00000e+00	1.00000e+00	1.00000e+00	1.00000e+00	1.00000e+00	1.00000e+00	1.00000e+00	1.00000e+00	1.00000e+00	1.00000e+00	X	X	X	X	X	X	X	X	X	X	X	X	X	X	X	X	

B = Detector Channel
Val Type	B-AC1	B-AC2	B-AC3	B-AC4	B-AC5	B-AC6	B-AC7	B-AC8	B-AC9	B-AC10	B-AC11	B-AC12	B-AC13	B-AC14	B-AC15	B-AC16	B-DC1	B-DC2	B-DC3	B-DC4	B-DC5	B-DC6	B-DC7	B-DC8	B-DC9	B-DC10	B-DC11	B-DC12	B-DC13	B-DC14	B-DC15	B-DC16	B-Ph1	B-Ph2	B-Ph3	B-Ph4	B-Ph5	B-Ph6	B-Ph7	B-Ph8	B-Ph9	B-Ph10	B-Ph11	B-Ph12	B-Ph13	B-Ph14	B-Ph15	B-Ph16	

Term	0.00000e+00	0.00000e+00	0.00000e+00	0.00000e+00	0.00000e+00	0.00000e+00	0.00000e+00	0.00000e+00	0.00000e+00	0.00000e+00	0.00000e+00	0.00000e+00	0.00000e+00	0.00000e+00	0.00000e+00	0.00000e+00	0.00000e+00	0.00000e+00	0.00000e+00	0.00000e+00	0.00000e+00	0.00000e+00	0.00000e+00	0.00000e+00	0.00000e+00	0.00000e+00	0.00000e+00	0.00000e+00	0.00000e+00	0.00000e+00	0.00000e+00	0.00000e+00	-2.67418e+02	-1.23981e+02	-1.44473e+02	-1.81854e+02	-1.05914e+02	-7.68791e+01	-1.57311e+02	-1.62015e+02	-7.09312e+01	-7.89950e+01	-1.71511e+02	-1.71453e+02	-1.84794e+02	-1.77817e+02	-1.04389e+02	-1.50452e+02	
Factor	5.71809e-05	8.97066e-05	3.11288e-05	1.96425e-01	1.13358e-06	8.75478e-07	1.57363e-01	5.65123e-02	1.42736e-06	9.07431e-07	8.42968e-02	3.04734e-02	2.81487e-02	8.63089e-03	1.04281e-06	1.25646e-02	5.48854e-07	5.55714e-07	1.54520e-07	9.50652e-02	6.08120e-09	6.08269e-09	7.27127e-02	2.73195e-02	6.08719e-09	6.08483e-09	3.88846e-02	1.39013e-02	1.32012e-02	4.11566e-03	6.08014e-09	5.73139e-03	X	X	X	X	X	X	X	X	X	X	X	X	X	X	X	X	



#DISTANCE SETTINGS
A = Detector Channel
A-1	A-2	A-3	A-4	A-5	A-6	A-7	A-8	A-9	A-10	A-11	A-12	A-13	A-14	A-15	A-16	

2.5000e+00	3.0000e+00	2.5000e+00	3.0000e+00	2.0000e+00	3.0000e+00	1.5000e+00	3.0000e+00	3.0000e+00	3.0000e+00	3.0000e+00	3.0000e+00	3.0000e+00	3.0000e+00	1.5000e+00	3.0000e+00	

B = Detector Channel
B-1	B-2	B-3	B-4	B-5	B-6	B-7	B-8	B-9	B-10	B-11	B-12	B-13	B-14	B-15	B-16	

1.0000e+01	1.0000e+01	1.0000e+01	1.4400e+00	1.0000e+01	1.0000e+01	1.5100e+00	1.9400e+00	1.0000e+01	1.0000e+01	1.9900e+00	2.4900e+00	2.4100e+00	2.9000e+00	1.0000e+01	2.9800e+00	




#DATA BEGINS
time	group	step	mark	flag	A-AC1	A-AC2	A-AC3	A-AC4	A-AC5	A-AC6	A-AC7	A-AC8	A-AC9	A-AC10	A-AC11	A-AC12	A-AC13	A-AC14	A-AC15	A-AC16	A-DC1	A-DC2	A-DC3	A-DC4	A-DC5	A-DC6	A-DC7	A-DC8	A-DC9	A-DC10	A-DC11	A-DC12	A-DC13	A-DC14	A-DC15	A-DC16	A-Ph1	A-Ph2	A-Ph3	A-Ph4	A-Ph5	A-Ph6	A-Ph7	A-Ph8	A-Ph9	A-Ph10	A-Ph11	A-Ph12	A-Ph13	A-Ph14	A-Ph15	A-Ph16	B-AC1	B-AC2	B-AC3	B-AC4	B-AC5	B-AC6	B-AC7	B-AC8	B-AC9	B-AC10	B-AC11	B-AC12	B-AC13	B-AC14	B-AC15	B-AC16	B-DC1	B-DC2	B-DC3	B-DC4	B-DC5	B-DC6	B-DC7	B-DC8	B-DC9	B-DC10	B-DC11	B-DC12	B-DC13	B-DC14	B-DC15	B-DC16	B-Ph1	B-Ph2	B-Ph3	B-Ph4	B-Ph5	B-Ph6	B-Ph7	B-Ph8	B-Ph9	B-Ph10	B-Ph11	B-Ph12	B-Ph13	B-Ph14	B-Ph15	B-Ph16	aux-1	digaux	

2608.040	1	1	0	768	0.21375	0.22866	0.13185	0.2535	0.24145	0.11303	0.054233	0.052616	0.065299	0.1405	0.032449	0.12994	0.17107	0.30153	0.046831	0.17839	-4.2229	-4.5437	-5.1417	-4.3562	-4.7312	-5.1333	-4.2875	-5.3229	-4.6625	-4.4167	-5.2042	-4.5958	-4.7917	-5.1625	-4.2479	-5.2625	-65.716	119.022	32.077	140.876	76.407	-59.886	68.308	182.337	39.426	110.230	-35.169	107.519	-88.696	-141.526	-76.009	119.391	0.0019676	0.00016921	6.5274e-05	589.64	9.2336e-07	1.8542e-06	609.63	268.48	3.1717e-06	3.1119e-06	285.63	140.74	117.86	65.255	4.6553e-06	77.215	6.5405e-05	5.2647e-05	1.4158e-05	561.48	5.6621e-07	5.6395e-07	587.57	254.29	5.8304e-07	5.6577e-07	267.31	130.17	108.21	61.205	5.8026e-07	71.01	65.645	-108.243	-81.131	-137.098	-41.309	-38.078	-139.184	-131.673	-13.064	8.079	-134.482	-130.794	-128.181	-122.570	-14.387	-126.502	-8191	255	
2608.136	1	1	0	0	0.0097004	0.17163	0.041191	0.088428	0.070975	0.16075	0.062841	0.026027	0.021517	0.23229	0.1101	0.096615	0.20684	0.23982	0.12865	0.18691	-4.5417	-4.3979	-5.0875	-4.5208	-4.6438	-5.1125	-4.3125	-4.9479	-4.9104	-4.2917	-5.2937	-4.5583	-4.7667	-5.3292	-4.2875	-5.2542	-89.010	-6.837	188.674	-142.040	-73.505	-104.459	-111.102	68.572	-4.900	-133.431	-129.487	-45.761	-98.062	184.227	-111.182	100.014	0.0018392	0.00024862	0.00010801	590.15	3.7945e-06	1.6863e-06	603.86	267.68	2.5809e-06	4.3429e-06	284.3	139.5	117.03	65.299	2.3857e-06	76.214	6.5869e-05	5.3071e-05	1.4283e-05	559.63	5.7228e-07	5.4306e-07	581.44	253.28	5.661e-07	5.5883e-07	264.96	128.81	107.59	61.04	5.7048e-07	70.384	62.222	-108.585	-44.598	-136.747	-46.456	0.705	-139.105	-131.774	14.854	-4.538	-134.801	-131.086	-128.477	-122.113	-56.277	-126.698	-8191	255	
2608.232	1	1	0	0	0.1612	0.055748	0.29609	0.091515	0.23461	0.30663	0.12255	0.10358	0.23697	0.024586	0.020247	0.29598	0.20672	0.071503	0.26673	0.2607	-4.6604	-4.4292	-5.225	-4.6042	-4.5	-5.2063	-4.3917	-5.0312	-4.9062	-4.4062	-5.3292	-4.7667	-4.475	-5.3938	-4.1188	-4.9625	-94.407	84.976	58.569	-92.302	-117.525	-77.743	-21.611	-132.864	-4.152	42.790	139.197	-116.486	-125.280	181.947	-105.574	112.666	0.0018031	0.00029989	0.00012393	583.02	3.8784e-06	2.2104e-06	600.77	264.88	4.4897e-06	1.1582e-06	281.48	139.1	117.33	65.073	2.6221e-06	76.586	6.3403e-05	5.1441e-05	1.3978e-05	556.3	5.6218e-07	5.4996e-07	578.86	251.98	5.6708e-07	5.5021e-07	262.65	128.37	107.64	60.906	5.5675e-07	70.394	62.788	-42.259	-96.908	-136.899	-51.239	-23.563	-139.211	-131.332	-28.729	-0.302	-134.721	-130.819	-128.465	-122.268	-43.368	-126.693	-8191	255	
2608.329	1	1	0	0	0.22998	0.17142	0.13907	0.18776	0.11375	0.24959	0.16985	0.097734	0.10263	0.17654	0.1478	0.23292	0.090185	0.35718	0.059481	0.1307	-4.8396	-4.3479	-5.1771	-4.7625	-4.4479	-5.1687	-4.4563	-4.875	-5.1354	-4.4062	-5.1625	-4.8604	-4.4854	-5.4042	-4.4979	-4.8187	-20.320	-50.472	-28.323	-138.723	181.905	-16.327	-65.348	86.232	119.512	-83.675	184.408	160.218	-43.528	186.356	-135.414	177.809	0.0019667	0.00030749	0.00015394	583.26	4.8319e-06	3.334e-06	603.52	267.48	6.5159e-06	2.7344e-06	285.43	139.66	116.76	65.585	3.1164e-06	77.839	6.2725e-05	4.9742e-05	1.3588e-05	556.38	5.5553e-07	5.4174e-07	581.63	252.93	5.5093e-07	5.4516e-07	265.16	129.17	107.59	61.282	5.5462e-07	71.347	59.469	-69.119	-84.625	-136.837	-33.387	-18.052	-138.972	-131.410	-50.443	-6.128	-134.607	-131.015	-128.576	-122.346	-42.207	-126.764	-8191	255	
2608.425	1	1	0	0	0.17405	0.10612	0.091042	0.26079	0.20499	0.053614	0.3036	0.11913	0.093203	0.1317	0.18398	0.11454	0.15543	0.2567	0.29443	0.13026	-4.8271	-4.2063	-4.9958	-4.9354	-4.2188	-5.2354	-4.4458	-4.7917	-5.1167	-4.3729	-5.0938	-5.0437	-4.4125	-5.2708	-4.5229	-4.625	40.391	191.351	25.954	-112.788	12.934	191.882	126.573	139.422	5.759	-26.674	-139.479	-44.213	199.907	156.549	-75.638	147.911	0.0018732	0.00035394	0.00017051	587.09	7.0367e-06	4.3874e-06	608.26	267.16	3.601e-06	2.1092e-06	284.84	140.46	116.78	65.547	5.4645e-06	77.764	6.3298e-05	4.9997e-05	1.374e-05	557.76	5.6175e-07	5.4778e-07	586.13	253.03	5.5296e-07	5.4344e-07	265.82	129.81	107.45	61.45	5.664e-07	71.625	64.239	-49.683	-93.526	-136.742	-35.844	-20.776	-138.896	-131.887	6.819	-73.032	-134.578	-130.704	-128.559	-122.379	-35.434	-126.783	-8191	255	
2608.521	1	1	0	0	0.18139	0.22396	0.091264	0.059806	0.14983	0.13171	0.16315	0.14604	0.071014	0.35155	0.063069	0.13039	0.1296	0.24856	0.21458	0.056793	-4.9667	-4.2875	-5.0188	-5.0229	-4.2125	-5.1396	-4.6667	-4.5271	-5.1521	-4.4708	-4.825	-5.1312	-4.2583	-5.2729	-4.6021	-4.5312	145.332	99.437	-106.136	-23.996	44.078	198.700	-109.088	-114.111	172.380	207.127	-104.288	106.056	-88.274	-128.723	93.546	185.441	0.0020218	0.00037843	0.00011143	586.61	3.3412e-06	3.2141e-06	600.89	263.38	7.8758e-06	4.0349e-06	278.04	137.01	115.69	64.603	3.5331e-06	75.676	6.3646e-05	5.1931e-05	1.4266e-05	558.74	5.6773e-07	5.6104e-07	580.76	250.37	5.7516e-07	5.5935e-07	258.8	126.43	106.01	60.387	5.7845e-07	69.376	63.723	-53.790	-112.704	-136.771	-50.181	-1.521	-139.166	-131.567	-0.807	-44.342	-134.794	-130.682	-128.354	-122.388	-46.474	-126.682	-8191	255	
2608.642	1	1	0	0	0.30578	0.093573	0.066593	0.27671	0.12695	0.1019	0.12838	0.29437	0.097204	0.113	0.14988	0.18468	0.10758	0.16476	0.1373	0.30864	-4.9104	-4.3771	-4.8812	-5.0646	-4.1771	-5.1729	-4.8146	-4.4083	-5.1521	-4.3854	-4.7833	-5.1042	-4.4938	-5.1604	-4.8354	-4.3812	-35.285	60.650	197.836	195.538	188.071	53.985	-123.767	93.598	40.382	196.429	132.386	185.000	126.971	-135.921	126.613	133.217	0.0018435	0.00039312	9.4396e-05	580.06	3.5779e-06	4.2089e-06	594.85	261.05	5.096e-06	3.3502e-06	273.48	136.34	114.11	64.234	3.3055e-06	75.423	6.5573e-05	5.2455e-05	1.4442e-05	553.38	5.653e-07	5.4477e-07	574.17	248.14	5.6665e-07	5.5873e-07	255.3	125.56	105.2	60.194	5.6444e-07	69.384	61.560	-34.019	-79.782	-136.766	-28.284	-7.454	-139.025	-131.692	-43.625	-69.774	-134.879	-130.780	-128.626	-122.707	-59.349	-126.780	-8191	255	
2608.738	1	1	0	0	0.044991	0.10759	0.084974	0.10616	0.13052	0.10486	0.072314	0.22692	0.076743	0.1163	0.12384	0.01481	0.37796	0.039776	0.10604	0.035419	-4.85	-4.4375	-4.6375	-5.1521	-4.2562	-4.9812	-5.2292	-4.425	-5.1896	-4.5958	-4.6708	-5.3271	-4.2562	-4.9729	-4.8396	-4.4667	17.481	144.197	59.463	-123.723	8.473	139.745	-132.751	159.125	162.508	37.990	40.389	-93.741	200.080	205.656	183.586	-57.246	0.0019773	0.0005659	0.00010958	581.07	3.4622e-06	3.5716e-06	600.65	260.81	3.9263e-06	1.3779e-06	278.4	136.64	114.43	64.68	3.8743e-06	75.847	6.3484e-05	4.9945e-05	1.4193e-05	553.86	5.5444e-07	5.49e-07	576.09	247.84	5.4388e-07	5.288e-07	257.49	125.97	105.28	60.313	5.4586e-07	69.925	61.358	-44.428	-55.822	-136.690	-30.156	3.738	-138.850	-131.728	-4.535	12.691	-134.940	-131.030	-128.405	-122.472	-7.059	-126.701	-8191	255	
2608.834	1	1	0	0	0.0068897	0.09425	0.17996	0.13699	0.24437	0.086984	0.22578	0.31883	0.058426	0.013615	0.32564	0.046918	0.07203	0.034685	0.18324	0.3489	-4.7583	-4.7917	-4.4146	-5.2229	-4.45	-4.7688	-4.9542	-4.3167	-5.3083	-4.7958	-4.7979	-5.4146	-4.5146	-4.9229	-5.0625	-4.5146	159.589	-4.206	-98.318	136.087	-84.916	-35.012	131.250	177.226	82.987	106.859	87.507	184.535	-148.582	65.794	64.213	160.610	0.0019056	0.00027618	0.00010945	582.52	3.9492e-06	2.5221e-06	600.28	263.6	5.0935e-06	1.6844e-06	280.36	138.72	115.53	64.486	2.3528e-06	76.279	6.2104e-05	4.9578e-05	1.3595e-05	553.68	5.3931e-07	5.3189e-07	579.69	249.79	5.5023e-07	5.3616e-07	261.06	127.88	106.19	60.506	5.4763e-07	70.312	59.062	-64.620	-62.104	-137.255	-38.601	18.504	-139.305	-131.699	-5.806	5.216	-134.817	-130.728	-128.592	-122.450	-64.966	-126.897	-8191	255	
2608.930	1	1	0	0	0.19726	0.15252	0.077518	0.12126	0.27386	0.16748	0.1859	0.19448	0.11949	0.048073	0.20654	0.22197	0.15205	0.10238	0.041179	0.30282	-4.8417	-4.9313	-4.3958	-5.3812	-4.4646	-4.7833	-5.3667	-4.2958	-4.8875	-4.8208	-4.5167	-5.3583	-4.6687	-4.8354	-5.1792	-4.4979	133.833	-101.072	-115.336	106.748	24.844	7.765	207.350	112.434	209.192	-93.073	115.472	166.975	19.632	-131.229	112.521	193.004	0.001837	0.00039112	0.00014224	586.45	2.2899e-06	2.9922e-06	598.41	263.01	7.6863e-06	3.0742e-06	280.7	137.66	114.26	64.131	3.913e-06	75.302	6.2058e-05	4.9259e-05	1.3855e-05	554.86	5.4662e-07	5.2397e-07	577.9	248.91	5.4091e-07	5.1274e-07	260.99	126.83	105.39	59.903	5.2982e-07	69.421	59.673	-83.187	-70.997	-136.904	-36.389	22.344	-139.475	-131.856	-51.853	-17.018	-134.862	-131.056	-128.339	-122.473	-59.346	-126.981	-8191	255	
2609.024	1	1	0	0	0.073534	0.16838	0.026444	0.1681	0.03674	0.21553	0.15847	0.20124	0.052883	0.14971	0.049918	0.043583	0.023512	0.13868	0.072658	0.22995	-4.6833	-4.8562	-4.4062	-5.3167	-4.4708	-4.6146	-5.2125	-4.4354	-5.0125	-5.0229	-4.3187	-5.2771	-4.6708	-4.6792	-5.2333	-4.4187	-28.563	88.877	205.360	51.312	6.335	21.446	81.388	-100.505	4.002	159.701	84.749	182.759	50.519	209.476	-94.758	109.367	0.0018982	0.00030954	0.00012005	578.51	2.007e-06	3.8531e-06	594.67	260	5.0447e-06	3.4309e-06	274.82	136.28	113.68	63.716	4.0662e-06	74.956	6.0282e-05	4.6605e-05	1.3021e-05	547.96	5.1468e-07	5.2205e-07	569.97	245.66	5.2732e-07	5.1357e-07	255.47	125.36	104.4	59.617	5.1429e-07	68.982	59.488	-44.289	-64.208	-136.867	-46.311	-24.006	-138.948	-131.608	-23.444	-23.804	-134.884	-131.099	-128.252	-122.254	-42.030	-127.059	-8191	255	
2609.121	1	1	0	0	0.20165	0.020059	0.2158	0.087955	0.07716	0.11451	0.091502	0.067336	0.25031	0.070177	0.23348	0.068788	0.23845	0.18112	0.18478	0.17556	-4.5583	-4.9563	-4.2792	-5.0979	-4.6958	-4.5479	-5.2917	-4.4708	-4.6687	-5.1167	-4.4875	-5.175	-4.875	-4.4875	-5.3313	-4.6312	-3.412	-8.606	158.152	134.896	29.217	210.235	14.351	82.535	-81.079	139.931	-144.616	176.683	-88.490	-11.103	179.579	104.335	0.001942	0.00032257	8.6675e-05	577.07	5.1354e-06	1.5331e-06	594.43	258.14	3.2137e-06	3.2614e-06	274.66	136.71	114.42	63.971	3.7166e-06	75.447	6.0206e-05	4.6887e-05	1.3261e-05	548.09	5.1539e-07	5.219e-07	569.6	245.14	5.262e-07	5.1175e-07	255.98	125.99	105.09	59.894	5.289e-07	69.482	61.100	-36.655	-83.470	-136.938	-65.396	-3.394	-139.372	-131.717	-31.424	9.012	-135.138	-130.925	-128.628	-122.381	-75.858	-126.911	-8191	255	
2609.217	1	1	0	0	0.069836	0.058744	0.084041	0.037704	0.13137	0.23877	0.023736	0.084773	0.16275	0.037842	0.086805	0.078054	0.17809	0.18825	0.17139	0.045853	-4.2292	-5.1042	-4.3229	-4.9812	-4.8417	-4.4333	-5.3833	-4.5729	-4.7333	-5.1167	-4.3896	-5.025	-5.2937	-4.5208	-5.2188	-4.7917	150.314	177.091	110.021	-15.453	208.336	53.106	-27.689	134.961	-103.153	174.829	-41.465	-108.717	158.878	-137.145	-31.057	-109.184	0.0017515	0.00027415	8.6179e-05	578.08	3.7441e-06	2.0886e-06	591.9	259.56	6.3179e-06	3.042e-06	274.92	136.29	113.72	63.755	5.2139e-06	75.147	6.1944e-05	4.833e-05	1.3328e-05	548.8	5.3001e-07	5.3448e-07	572.44	245.8	5.5022e-07	5.1886e-07	256.74	125.92	104.69	59.695	5.4075e-07	69.44	59.872	-105.218	-87.123	-136.880	-40.319	-32.823	-139.106	-131.223	-26.275	12.773	-134.586	-130.590	-128.306	-122.356	-63.439	-126.557	-8191	255	
2609.337	1	1	0	0	0.03094	0.043972	0.089043	0.21818	0.1127	0.090529	0.24414	0.13453	0.032781	0.12296	0.10512	0.12551	0.2176	0.22108	0.13764	0.16616	-4.4354	-5.3771	-4.2667	-5.0125	-4.975	-4.3354	-5.2792	-4.6562	-4.4812	-5.3104	-4.3646	-5.0312	-5.1417	-4.5	-5.1687	-4.8625	199.150	-70.353	-29.773	-36.555	189.707	-47.306	107.718	149.428	96.818	-82.454	-109.733	-131.411	-128.707	192.282	-26.343	175.950	0.0018844	0.00028526	7.1784e-05	577.11	5.3781e-06	2.2089e-06	597.36	259.25	4.528e-06	3.4495e-06	274.25	135.94	113.43	63.403	2.9724e-06	74.697	6.087e-05	4.8307e-05	1.3648e-05	549.69	5.3219e-07	5.2993e-07	574.91	246.12	5.4861e-07	5.1552e-07	256.03	125.25	104.32	59.387	5.3214e-07	68.62	66.591	-50.341	-73.821	-136.862	-36.954	-10.832	-139.027	-131.490	-15.465	-20.996	-134.391	-130.928	-128.332	-122.248	-64.606	-126.580	-8191	255	
2609.433	1	1	0	0	0.026455	0.067566	0.15384	0.37173	0.070547	0.025468	0.063097	0.18187	0.14749	0.30831	0.11195	0.24176	0.05851	0.1858	0.2095	0.14823	-4.1562	-5.1021	-4.4563	-4.9375	-5.1687	-4.4083	-5.1896	-4.8292	-4.2104	-5.3083	-4.4812	-4.6333	-5.275	-4.3021	-5.0208	-4.8187	36.582	-64.214	41.259	55.675	-111.041	179.652	138.956	-146.657	126.078	84.152	96.723	128.522	206.614	151.058	-25.354	185.994	0.0017674	0.00021601	9.6596e-05	577.71	2.5131e-06	3.3727e-06	589.57	258.02	6.8331e-06	2.1664e-06	273.6	134.47	112.9	62.938	5.0953e-06	73.724	6.0606e-05	4.6182e-05	1.34e-05	547.53	5.1069e-07	5.1206e-07	566.75	244.68	5.2745e-07	5.1383e-07	254.2	124.18	103.84	58.899	5.2923e-07	67.879	59.760	-48.346	-119.501	-137.081	-49.597	-21.616	-138.937	-131.263	-14.654	-9.105	-134.712	-131.041	-128.577	-122.239	-40.507	-126.530	-8191	255	
2609.530	1	1	0	0	0.16505	0.095559	0.036669	0.27044	0.053946	0.41148	0.13091	0.10162	0.17713	0.25305	0.1292	0.25023	0.089622	0.17489	0.10761	0.13124	-4.0458	-5.0083	-4.5521	-4.7917	-5.0479	-4.35	-5.0167	-5.1	-4.3083	-5.2458	-4.5833	-4.5708	-5.225	-4.3229	-4.8125	-5.1229	-78.303	-138.977	114.636	170.606	175.556	83.774	11.629	165.817	202.662	-131.439	-39.136	158.721	139.713	-133.746	30.002	204.680	0.0017695	0.0002623	0.00010332	572.43	3.1601e-06	2.9718e-06	589.6	258.27	6.2991e-06	4.1727e-06	274.83	135.58	113.01	63.257	4.3686e-06	73.684	6.054e-05	4.7247e-05	1.3134e-05	546.4	5.0907e-07	5.1683e-07	568.1	244.74	5.3079e-07	5.0299e-07	254.96	124.75	103.97	59.115	5.2693e-07	67.956	64.208	-38.495	-89.944	-137.394	-49.638	-4.081	-138.797	-131.425	-7.175	-21.484	-134.653	-130.771	-128.362	-122.195	-70.698	-126.664	-8191	255	
2609.601	1	1	0	0	0.14798	0.060871	0.026754	0.24243	0.05174	0.19613	0.18996	0.38763	0.095728	0.19257	0.10955	0.090605	0.1201	0.077253	0.15999	0.1825	-3.9125	-5.1479	-4.6646	-4.6125	-5.1562	-4.45	-4.9583	-5.2146	-4.1854	-5.2125	-4.7771	-4.525	-5.2021	-4.4833	-4.6875	-5.3	184.606	207.519	57.559	96.220	-38.935	113.165	153.113	112.216	-37.145	-43.730	-36.865	17.605	-85.763	147.793	-68.679	158.450	0.001713	0.00035993	0.00010197	577.05	3.0817e-06	3.7962e-06	591	258.39	4.8934e-06	3.1294e-06	274.79	136.67	114.47	64.157	2.8786e-06	75.354	6.0161e-05	4.7107e-05	1.3034e-05	548.82	5.0773e-07	5.1225e-07	571.17	245.75	5.2478e-07	5.0316e-07	257.15	126.12	105.36	59.859	5.2522e-07	69.463	59.919	-72.455	-75.715	-136.461	-47.572	14.199	-139.276	-131.687	6.459	-26.797	-134.502	-131.259	-128.103	-122.160	-68.482	-126.824	-8191	255	
2609.722	1	1	0	0	0.095711	0.14347	0.1854	0.12109	0.19987	0.2274	0.21254	0.21835	0.17426	0.16504	0.19622	0.21992	0.22079	0.16971	0.28615	0.16345	-3.9938	-5.1271	-4.6583	-4.5125	-5.1333	-4.4563	-4.6375	-5.1854	-4.3479	-5.0062	-5.0458	-4.3771	-5.1125	-4.7396	-4.5708	-5.2562	-58.142	189.792	89.334	88.326	38.146	-136.577	54.371	190.584	-104.857	-99.966	45.316	-149.193	204.646	161.166	-90.467	125.474	0.0018345	0.00035204	0.00013199	580.65	2.1452e-06	2.3719e-06	602.49	262.6	8.1895e-06	2.7645e-06	279.54	136.46	114.02	63.322	1.4247e-06	74.051	5.9951e-05	4.6796e-05	1.2598e-05	551.42	5.1642e-07	5.0801e-07	578.94	248.26	5.2472e-07	5.0431e-07	260.02	126.13	104.96	59.236	5.1699e-07	68.274	62.642	-90.681	-41.181	-136.964	-13.862	15.519	-139.148	-131.413	-14.949	4.338	-134.675	-130.935	-128.306	-122.209	1.202	-126.661	-8191	255	
2609.818	1	1	0	0	0.091958	0.1591	0.12137	0.11311	0.079939	0.11014	0.27779	0.16664	0.1113	0.080139	0.20117	0.16748	0.20657	0.044648	0.18694	0.14599	-3.9896	-5.0729	-4.8875	-4.4563	-5.2083	-4.6	-4.5604	-5.1979	-4.2583	-5.0104	-5.0687	-4.4146	-5.1458	-4.8229	-4.3333	-5.3583	75.399	68.372	-13.085	-103.413	194.753	-109.170	180.693	184.112	181.984	-62.477	-124.322	30.489	-129.651	120.301	-103.764	142.355	0.0018026	0.00041964	6.0522e-05	574.59	2.2556e-06	3.2249e-06	593.56	259.96	1.5139e-06	2.6908e-06	275.09	134.4	113.08	62.766	4.7196e-06	73.127	5.9439e-05	4.7202e-05	1.2802e-05	546.66	5.0521e-07	5.0793e-07	569.2	245.52	5.1249e-07	5.037e-07	255.86	124.05	104.12	58.748	5.1138e-07	67.682	62.167	-77.197	-90.741	-137.133	-35.418	-15.336	-138.995	-131.636	-2.529	24.419	-134.470	-130.695	-128.102	-122.064	-27.713	-126.670	-8191	255	
2609.914	1	1	0	0	0.056541	0.15829	0.073015	0.07546	0.19666	0.18589	0.1308	0.1417	0.067692	0.12447	0.14276	0.33894	0.093965	0.25834	0.081877	0.23582	-4.0125	-4.6271	-4.9521	-4.4625	-5.125	-4.7833	-4.5583	-5.2812	-4.275	-4.6792	-5.2229	-4.4896	-5.1771	-4.7708	-4.4896	-5.3792	68.558	187.082	190.875	138.378	195.851	-108.190	139.630	80.183	163.025	180.944	34.564	-148.991	-135.850	196.342	-61.269	124.677	0.0017096	0.00020719	0.00010378	572.92	2.8537e-06	2.8943e-06	589.53	259.24	7.551e-06	1.986e-06	275.29	136.52	114.26	63.642	3.1489e-06	74.331	5.8379e-05	4.6241e-05	1.2443e-05	544.49	5.0468e-07	4.9328e-07	567.23	245.82	5.1716e-07	4.9667e-07	256.82	125.78	105.09	59.43	5.1071e-07	68.536	64.561	-14.278	-60.700	-136.664	-70.341	-3.679	-139.340	-131.559	-21.786	-5.707	-134.740	-131.052	-128.433	-122.219	-58.698	-126.502	-8191	255	
2610.010	1	1	0	0	0.028112	0.10219	0.033961	0.23438	0.29554	0.14361	0.041663	0.031752	0.42422	0.11185	0.074396	0.043278	0.10041	0.15061	0.21599	0.21294	-4.1604	-4.6188	-5.1167	-4.3542	-5.0208	-5.0208	-4.4917	-5.2688	-4.5604	-4.4646	-5.1958	-4.4979	-5.0312	-4.9771	-4.1542	-5.4708	-96.504	49.123	118.688	-61.434	76.613	149.402	-131.027	-85.455	-91.609	41.885	197.325	-13.431	-15.370	209.048	-13.611	-137.936	0.0018126	0.00024517	0.00013045	576.49	3.8355e-06	2.3066e-06	592.77	259.55	2.1986e-06	2.8193e-06	276.46	135.95	113.75	63.032	3.0648e-06	73.752	5.8957e-05	4.5798e-05	1.2647e-05	548.44	5.0821e-07	4.9983e-07	569.73	246.18	5.1321e-07	5.0319e-07	257.46	125.42	104.75	59.011	5.248e-07	68.072	59.563	-46.769	-85.186	-136.794	-50.833	-19.993	-139.164	-131.832	-5.865	-27.747	-134.463	-130.642	-128.207	-122.097	-93.397	-126.563	-8191	255	
2610.129	1	1	0	0	0.086113	0.083731	0.17979	0.27942	0.042398	0.046408	0.19926	0.093693	0.10952	0.14326	0.06901	0.082003	0.20716	0.30143	0.090769	0.1051	-4.2604	-4.4875	-5.1813	-4.3104	-4.9437	-5.0396	-4.3229	-5.1979	-4.5104	-4.4354	-5.3021	-4.4917	-4.825	-5.125	-4.25	-5.2167	87.556	-82.359	-1.976	-144.532	69.626	192.528	154.071	193.540	57.178	-104.644	-73.425	-115.994	193.228	148.061	183.559	16.145	0.0019261	0.00036312	8.652e-05	576.98	2.753e-06	8.7866e-07	597.41	262.07	5.0439e-06	1.7886e-06	282.79	137.49	114.24	63.36	3.7103e-06	74.228	5.9871e-05	4.6139e-05	1.2928e-05	546.39	5.0926e-07	4.9429e-07	573.5	247.36	5.0582e-07	5.0573e-07	262.35	126.61	105.04	59.105	5.0971e-07	68.422	58.250	-60.633	-85.702	-136.801	-18.158	-38.093	-139.307	-131.510	-36.413	-29.926	-134.847	-130.585	-128.505	-122.033	-19.870	-126.506	-8191	255	
2610.203	1	1	0	0	0.1215	0.089246	0.13197	0.1935	0.14579	0.1658	0.12579	0.084105	0.12065	0.26153	0.045839	0.054589	0.11775	0.31238	0.11462	0.26327	-4.5417	-4.5021	-5.0979	-4.5271	-4.6562	-5.0708	-4.3292	-5.2854	-4.8229	-4.3042	-5.1458	-4.6396	-4.6542	-5.2646	-4.3479	-5.1438	118.440	189.711	-18.455	43.293	-91.991	-106.816	-44.166	35.479	-85.575	-138.901	-100.226	61.964	18.999	163.330	-52.742	196.723	0.0016692	0.00026419	0.00012877	575.31	1.3419e-06	3.019e-06	591.05	260.31	4.5603e-06	1.7085e-06	279.35	136.37	113.99	62.936	5.3787e-06	73.78	5.6486e-05	4.4956e-05	1.2416e-05	546.62	4.9364e-07	4.7583e-07	569.85	246.85	4.9898e-07	4.7884e-07	259.81	125.83	104.6	58.861	4.9846e-07	67.815	61.179	-63.085	-78.208	-136.879	-43.837	-1.799	-139.122	-131.414	-12.830	26.539	-134.400	-130.745	-128.266	-122.290	-64.510	-126.683	-8191	255	
2610.322	1	1	0	0	0.12585	0.096293	0.20494	0.090526	0.066133	0.14711	0.157	0.083476	0.15313	0.1092	0.20163	0.2502	0.17533	0.26512	0.12116	0.23828	-4.4771	-4.2833	-5.3146	-4.4563	-4.6438	-5.1083	-4.2729	-5	-4.8729	-4.2229	-5.2083	-4.675	-4.6083	-5.3375	-4.3708	-5.0792	22.643	-39.538	106.061	144.704	38.129	155.527	-11.797	199.250	206.954	-132.323	192.718	91.934	-128.802	185.095	-28.909	199.453	0.0017496	0.00030681	9.8491e-05	576.57	5.0645e-06	3.2846e-06	590.17	257.73	5.0151e-06	3.3676e-06	276.94	134.71	112.93	62.886	5.4461e-06	73.177	5.7018e-05	4.4486e-05	1.2107e-05	544.63	4.9448e-07	4.7164e-07	566.36	245.15	4.9562e-07	4.8461e-07	256.6	124.46	103.89	58.597	4.9837e-07	67.48	65.638	-48.490	-33.145	-137.057	-55.336	-30.155	-139.189	-131.411	-8.156	-49.079	-134.476	-130.873	-128.395	-122.048	-44.763	-126.439	-8191	255	
2610.418	1	1	0	0	0.14982	0.063013	0.27637	0.1512	0.0627	0.08641	0.1786	0.28451	0.18679	0.067131	0.24113	0.10694	0.064652	0.076534	0.034951	0.23316	-4.6958	-4.1542	-5.1167	-4.7729	-4.5	-5.2063	-4.4083	-5.0146	-5.0646	-4.2375	-5.1542	-4.9083	-4.5104	-5.3438	-4.5271	-4.7063	-72.836	24.350	-131.955	126.687	38.961	53.232	206.857	176.813	147.606	49.255	-145.232	-143.744	130.312	17.800	188.298	154.854	0.001889	0.00022738	0.00011866	571.8	2.3286e-06	4.2722e-06	587.4	256.7	4.5785e-06	4.0309e-06	273.32	134.28	112.2	62.205	4.002e-06	73.378	5.7221e-05	4.5064e-05	1.2105e-05	540.87	4.9751e-07	4.8635e-07	566.06	243.12	5.0198e-07	4.915e-07	254.25	123.96	103.03	58.364	5.0897e-07	67.641	61.061	-55.065	-57.686	-136.836	-26.676	-19.413	-139.425	-131.115	-20.833	-32.704	-134.584	-130.880	-128.510	-122.003	-83.431	-126.691	-8191	255	
2610.514	1	1	0	0	0.13675	0.085426	0.16203	0.1775	0.06873	0.061836	0.12381	0.064436	0.05891	0.017053	0.14581	0.17283	0.083269	0.18593	0.19484	0.15355	-4.7937	-4.1583	-5.0729	-4.8187	-4.2625	-5.3938	-4.7167	-4.8063	-5	-4.2583	-5.0521	-5.0104	-4.3875	-5.4187	-4.4896	-4.7771	-31.491	-79.766	112.490	184.540	-141.477	-74.447	144.205	158.844	91.855	113.803	207.328	184.815	181.066	-96.560	204.963	158.023	0.00163	0.00037156	0.00011071	573.28	1.9064e-06	2.1895e-06	591.21	255.39	6.9223e-06	3.3983e-06	273.87	135.31	112.76	63.22	3.5526e-06	73.958	5.7478e-05	4.5748e-05	1.255e-05	542.04	5.025e-07	4.9389e-07	567.97	242.47	4.9333e-07	4.979e-07	255.16	124.95	103.62	58.88	5.0777e-07	68.157	64.324	-58.137	-99.284	-136.811	-32.780	84.840	-138.850	-131.545	-27.084	-7.583	-134.868	-130.871	-128.464	-122.028	-52.690	-126.720	-8191	255	
2610.610	1	1	0	0	0.15092	0.085526	0.13168	0.13847	0.25743	0.16955	0.2653	0.11652	0.11051	0.18793	0.057651	0.18491	0.17923	0.25707	0.27531	0.31106	-4.8646	-4.1854	-4.9375	-4.9792	-4.4479	-5.1917	-4.7542	-4.5729	-5.2354	-4.3771	-5.1583	-5.0896	-4.4708	-5.3812	-4.6104	-4.5021	43.973	-4.835	-86.827	83.638	5.705	136.706	108.945	154.206	-63.762	34.998	-131.859	172.849	189.299	208.296	-8.423	139.155	0.0018554	0.00013841	0.00010241	568.08	1.4647e-06	2.2366e-06	586.9	254.06	3.3928e-06	2.3044e-06	268.41	133.85	111.78	62.13	3.989e-06	72.544	5.7886e-05	4.5735e-05	1.2532e-05	541.23	5.0746e-07	4.9218e-07	563.4	241.14	5.1358e-07	4.9462e-07	250.33	123.13	102.72	58.13	5.1107e-07	66.843	62.808	-18.270	-77.825	-136.968	-3.799	-23.134	-139.069	-131.345	-4.406	-47.877	-134.567	-130.810	-128.219	-122.149	-60.921	-126.751	-8191	255	
2610.731	1	1	0	0	0.070031	0.14952	0.090327	0.17975	0.11149	0.046259	0.045406	0.14052	0.20455	0.055635	0.092465	0.1352	0.3024	0.032824	0.22589	0.08745	-4.9896	-4.4313	-4.7875	-4.9729	-4.2458	-5.2083	-4.8187	-4.6354	-5.2729	-4.2771	-4.7562	-5.2771	-4.4146	-5.1771	-4.8604	-4.6021	79.753	-40.548	192.389	-142.655	-55.685	-79.612	-139.287	154.407	114.287	185.120	67.326	208.786	-140.409	190.298	39.922	108.630	0.0018062	0.00025583	7.6854e-05	567.96	3.5643e-06	3.3648e-06	581.87	252.53	4.0337e-06	4.262e-06	266.51	132.05	110.54	61.907	2.6935e-06	72.372	5.763e-05	4.4928e-05	1.2581e-05	539.41	5.0466e-07	4.9144e-07	559.26	239.4	5.1487e-07	4.9195e-07	248.06	122.05	101.96	58.067	5.0667e-07	66.604	60.015	-81.108	-77.888	-136.833	-67.733	-17.799	-139.200	-131.726	11.566	-8.332	-134.787	-130.805	-128.553	-122.136	-34.503	-126.798	-8191	255	
2610.827	1	1	0	0	0.27534	0.16444	0.07717	0.082775	0.15919	0.14434	0.13002	0.21958	0.13714	0.17109	0.21618	0.26341	0.17439	0.32438	0.23115	0.10861	-5.0188	-4.4104	-4.5958	-5.2792	-4.2521	-5.0938	-4.8917	-4.4833	-5.0708	-4.6	-4.7208	-5.2542	-4.3854	-5.0208	-4.9125	-4.4458	-84.268	-40.308	114.635	196.356	-31.541	59.018	135.966	175.775	187.455	86.536	-95.168	-130.626	125.333	-132.024	58.532	-19.559	0.0016879	0.00021094	0.00011236	567.87	4.5291e-06	3.4395e-06	580.93	254.08	5.4768e-06	3.0037e-06	269.81	133.16	110.9	62.011	3.0063e-06	72.634	5.7683e-05	4.5389e-05	1.2772e-05	538.79	4.934e-07	4.847e-07	560.08	239.82	4.7938e-07	4.8746e-07	250.27	122.59	101.97	58.039	5.0759e-07	66.953	59.456	-69.262	-64.491	-136.726	-42.701	-25.258	-139.260	-131.524	-42.657	-8.177	-134.592	-130.831	-128.314	-122.167	-98.909	-126.619	-8191	255	
2610.923	1	1	0	0	0.13681	0.086036	0.13991	0.18407	0.12954	0.09744	0.057401	0.085751	0.17548	0.039625	0.23374	0.19683	0.13653	0.047287	0.22945	0.1001	-4.9229	-4.5375	-4.4187	-5.1542	-4.2792	-4.95	-5.1188	-4.3146	-5.1771	-4.7083	-4.5	-5.3	-4.5333	-5.025	-5.0938	-4.3771	196.130	143.138	157.588	-51.778	-109.581	72.477	-92.251	209.371	36.396	141.598	-124.546	88.164	-40.830	-124.051	-138.948	90.987	0.0015619	0.00025261	0.00010275	569.26	4.2512e-06	3.2889e-06	588.77	253.66	5.6343e-06	2.908e-06	273.02	133.92	111.87	62.202	2.7153e-06	73.535	5.6748e-05	4.5537e-05	1.2619e-05	538.82	4.9998e-07	4.8757e-07	564.07	240.55	5.0494e-07	4.9468e-07	253.44	123.51	102.6	58.161	5.095e-07	67.765	65.208	-62.535	-95.107	-136.864	-30.646	-35.517	-138.816	-131.747	-32.323	6.979	-134.739	-130.797	-127.948	-122.196	-49.505	-126.643	-8191	255	
2611.017	1	1	0	0	0.17077	0.22666	0.18275	0.19536	0.042786	0.14335	0.22187	0.11847	0.045875	0.18168	0.15896	0.086151	0.1063	0.36612	0.16055	0.20576	-4.6833	-4.7	-4.4979	-5.2042	-4.3792	-4.7688	-5.2333	-4.3708	-4.9854	-4.925	-4.5188	-5.3438	-4.5687	-4.85	-5.1708	-4.2104	-48.465	-19.353	62.538	-128.813	68.632	78.260	177.758	126.103	115.894	100.354	122.763	109.146	72.592	171.173	164.726	-97.539	0.0018588	0.00018542	5.5368e-05	569.28	1.688e-06	3.5433e-06	589.04	255.58	5.691e-06	4.0447e-06	273.07	134.65	111.36	62.531	2.4528e-06	73.357	5.7916e-05	4.3376e-05	1.2438e-05	539.99	4.9738e-07	4.8696e-07	565.56	242.2	5.0134e-07	4.8284e-07	254.05	124.26	103.21	58.441	4.9882e-07	67.393	61.990	-30.500	-72.335	-136.844	-128.001	-5.785	-138.863	-131.752	-21.916	-32.888	-134.561	-130.802	-127.951	-122.324	-66.353	-126.941	-8191	255	
2611.113	1	1	0	0	0.16434	0.087235	0.30852	0.02619	0.14825	0.0072952	0.057964	0.16538	0.25443	0.060799	0.012259	0.27544	0.17354	0.36732	0.22588	0.070925	-4.6604	-4.6604	-4.35	-5.3583	-4.5	-4.7542	-5.1813	-4.4333	-4.875	-4.8875	-4.3792	-5.4021	-4.7042	-4.5417	-5.2562	-4.4	1.271	-110.784	75.319	44.390	35.229	84.466	46.621	-107.860	-86.257	-67.031	-136.267	203.391	187.361	-137.435	-13.644	144.833	0.0017743	0.00028674	0.0001097	569.85	4.1106e-06	3.0313e-06	586.48	255.49	4.735e-06	9.8696e-07	273.76	134.71	112.78	62.842	5.6944e-06	73.664	5.8135e-05	4.466e-05	1.2409e-05	540.47	5.0085e-07	4.8658e-07	561.25	242.67	4.8316e-07	4.8007e-07	254.05	124.36	103.55	58.768	5.0002e-07	67.735	62.844	-56.316	-71.234	-136.894	-20.346	14.162	-138.938	-131.583	-18.656	-13.876	-134.586	-130.439	-128.413	-122.220	-38.914	-126.546	-8191	255	
2611.210	1	1	0	0	0.098928	0.21049	0.23045	0.083494	0.09852	0.046828	0.14511	0.13673	0.067635	0.078711	0.04727	0.1855	0.077701	0.31137	0.057262	0.13032	-4.5625	-4.9792	-4.2188	-5.1875	-4.6854	-4.3125	-5.475	-4.5875	-4.8167	-5.1875	-4.2604	-5.0771	-4.7792	-4.5625	-5.2667	-4.5271	175.939	-7.287	122.209	-50.106	42.042	-84.320	83.152	110.019	29.664	182.820	51.722	204.929	163.968	198.974	-145.560	-34.937	0.0017454	0.00036784	0.00010984	568.51	1.8305e-06	3.3861e-06	587.42	256.15	9.2682e-06	1.3753e-06	270.78	135	113.69	63.038	2.544e-06	73.969	5.7151e-05	4.4238e-05	1.2711e-05	541.13	4.8064e-07	4.8883e-07	564.77	243.1	4.9876e-07	4.8188e-07	253.01	124.62	103.96	58.986	5.0385e-07	68.14	65.435	-73.249	-92.558	-136.765	-52.942	19.425	-138.680	-131.091	-18.586	6.127	-134.800	-130.790	-128.409	-122.007	-54.984	-126.489	-8191	255	
2611.306	1	1	0	0	0.1348	0.014639	0.13981	0.06497	0.22472	0.047376	0.15234	0.069991	0.15	0.091498	0.044868	0.27695	0.17411	0.14667	0.1008	0.10882	-4.5042	-5.0625	-4.2333	-5.1125	-4.6438	-4.1854	-5.3688	-4.5771	-4.5375	-5.1417	-4.3021	-4.9625	-4.9604	-4.5104	-5.1167	-4.6417	182.446	-30.670	-78.934	-78.967	198.540	20.672	155.392	172.137	-117.846	15.325	-89.763	188.456	148.242	123.832	-87.120	138.319	0.0017539	0.00033698	0.00011535	573.1	2.0354e-06	3.1512e-06	592.54	258.96	3.9511e-06	3.6257e-06	274.11	137.24	114	64.051	4.4673e-06	75.352	5.7002e-05	4.3898e-05	1.2729e-05	544.02	4.8865e-07	4.903e-07	569.44	244.69	5.0661e-07	4.8274e-07	255.91	126.2	105.11	59.767	5.0493e-07	69.208	63.187	-54.768	-45.711	-136.925	22.062	-24.136	-138.833	-131.436	-33.953	-46.243	-134.580	-130.580	-128.029	-121.997	-49.110	-126.411	-8191	255	
2611.426	1	1	0	0	0.14758	0.15923	0.21425	0.12	0.060875	0.21563	0.29223	0.17126	0.14769	0.047064	0.35832	0.023663	0.32011	0.057377	0.10779	0.040708	-4.1583	-5.1583	-4.1521	-4.9104	-4.8562	-4.1458	-5.4604	-4.7542	-4.3708	-5.2312	-4.5188	-4.9083	-5.0979	-4.4938	-5.2354	-4.8646	5.121	116.560	208.107	110.726	-81.167	-6.594	166.503	208.457	147.815	102.997	169.193	208.357	-92.172	208.713	-89.834	-120.788	0.0018239	0.00039989	0.00010586	576.5	3.0724e-06	1.6042e-06	597.5	260.77	4.0834e-06	3.1214e-06	277.47	137.18	115.19	64.043	2.4586e-06	74.308	5.7978e-05	4.5799e-05	1.2758e-05	547.84	4.7907e-07	5.0343e-07	572.22	247.3	5.1764e-07	4.8509e-07	256.7	126.36	106.06	59.859	4.9372e-07	68.496	63.707	-63.881	-64.329	-136.772	-36.043	-4.404	-138.991	-131.512	-63.479	-20.766	-134.387	-130.774	-128.167	-121.978	-84.214	-126.431	-8191	255	
2611.498	1	1	0	0	0.050369	0.13795	0.1377	0.13604	0.20584	0.20263	0.066642	0.2091	0.082969	0.10734	0.19813	0.1841	0.086905	0.25505	0.063504	0.13216	-4.0417	-5.1458	-4.3167	-4.8917	-5.0104	-4.2021	-5.2625	-4.8417	-4.3667	-5.2125	-4.5167	-4.8042	-5.1354	-4.4708	-5.0813	-4.9271	5.842	98.990	209.976	-118.793	-27.165	-0.928	139.207	171.359	-74.124	-140.026	134.408	121.062	-68.958	122.955	2.855	-141.897	0.0018135	0.0002248	0.00011101	575.84	4.3168e-06	2.6821e-06	591.29	261.19	2.6504e-06	1.9706e-06	276.23	137.09	115.2	63.938	3.2736e-06	74.312	5.6825e-05	4.4171e-05	1.2467e-05	547.25	4.934e-07	4.8815e-07	567.64	247.4	5.0522e-07	4.8495e-07	257.17	125.97	105.97	59.716	5.1416e-07	68.232	63.192	-41.728	-72.100	-136.727	-17.711	4.039	-138.626	-131.129	-20.069	-19.518	-134.279	-130.710	-128.038	-121.948	-78.626	-126.690	-8191	255	
2611.594	1	1	0	0	0.15483	0.10378	0.24465	0.19961	0.30266	0.15854	0.21834	0.12351	0.13029	0.16022	0.1826	0.1727	0.17347	0.23943	0.30373	0.28646	-3.9542	-5.1646	-4.4229	-4.7292	-5.0729	-4.4771	-5.0542	-4.8979	-4.3187	-5.2125	-4.7375	-4.7667	-5.2188	-4.4708	-5.0229	-4.9271	-142.173	-143.889	31.403	-117.008	-149.192	-84.089	156.346	106.495	87.525	197.356	-111.175	-58.142	139.553	-51.617	-10.092	142.488	0.0018019	0.00038763	9.8833e-05	577.4	5.3013e-06	3.9929e-06	588.44	262.93	5.0743e-06	1.6934e-06	279.3	138.11	115.98	64.198	6.7281e-06	74.892	5.8383e-05	4.4778e-05	1.2157e-05	547.56	4.9217e-07	4.9301e-07	569.43	248.39	5.0746e-07	4.8786e-07	260.04	127.21	106.5	60	5.0066e-07	69.024	61.283	-50.008	-97.512	-136.720	-43.447	-20.277	-139.073	-131.258	-15.505	13.628	-134.373	-130.602	-128.280	-121.982	-74.408	-126.372	-8191	255	
2611.690	1	1	0	0	0.05369	0.1569	0.041533	0.13182	0.10578	0.15854	0.37325	0.050146	0.1892	0.079489	0.17663	0.2928	0.10696	0.10569	0.14521	0.15379	-4.025	-5.0062	-4.5729	-4.55	-5.1958	-4.4604	-5.1062	-5.0625	-4.2479	-5.3479	-4.7521	-4.4729	-5.2729	-4.3646	-4.75	-5.1708	4.438	73.601	-16.793	-137.649	189.402	139.900	115.234	139.562	-91.022	-15.588	168.085	165.069	198.846	27.605	182.987	144.481	0.0018698	0.00019673	8.3914e-05	582.15	4.3115e-06	3.3925e-06	595.61	263.64	3.2442e-06	3.5638e-06	280.1	138.49	116.1	64.316	4.6125e-06	75.345	5.8259e-05	4.4815e-05	1.2297e-05	550.36	4.9987e-07	4.8934e-07	574.42	249.92	5.0598e-07	4.9524e-07	260.8	127.8	106.51	60.061	5.0314e-07	69.113	64.105	-58.112	-62.174	-136.714	-74.820	-27.945	-138.975	-131.135	-17.444	-15.942	-134.624	-130.682	-128.297	-121.952	-46.599	-126.249	-8191	255	
2611.811	1	1	0	0	0.19043	0.23437	0.18995	0.14271	0.20418	0.24838	0.14794	0.19586	0.063104	0.041955	0.041039	0.071938	0.0742	0.29505	0.19337	0.13444	-4.0833	-5.0979	-4.9062	-4.3792	-5.2875	-4.425	-4.8917	-5.1958	-4.2292	-4.9354	-4.8646	-4.4375	-5.2688	-4.6646	-4.625	-5.1271	153.687	41.430	199.827	-111.225	106.267	-77.018	-119.598	166.114	-76.488	-85.365	28.342	42.806	101.807	113.120	-42.618	-119.245	0.0018825	0.00040913	7.9759e-05	578.51	4.1952e-06	1.4988e-06	596.94	261.12	7.1892e-06	2.141e-06	275.89	137.48	115.41	63.692	5.4296e-06	74.859	5.9559e-05	4.4742e-05	1.2456e-05	549.1	5.0055e-07	5.1003e-07	574.19	247.94	5.1046e-07	4.9707e-07	257.51	126.63	105.71	59.655	5.0375e-07	68.6	64.824	-55.408	-87.957	-136.552	-46.923	15.466	-138.981	-131.222	-32.613	-17.121	-134.307	-130.929	-127.971	-121.729	-59.350	-126.378	-8191	255	
2611.907	1	1	0	0	0.18232	0.095031	0.24515	0.10091	0.15506	0.22785	0.22786	0.015107	0.15666	0.070391	0.21339	0.093472	0.15967	0.18601	0.10702	0.11441	-4.0125	-4.9354	-4.9396	-4.3542	-5.2542	-4.6333	-4.7771	-5.4417	-4.4333	-5.0771	-5.1167	-4.4354	-5.3833	-4.9062	-4.5813	-5.4146	147.613	30.766	116.405	157.970	195.227	134.749	-39.091	80.387	62.022	36.301	180.497	22.615	155.681	186.844	2.546	65.643	0.0017922	0.00010553	6.1156e-05	575.02	4.1014e-06	3.1497e-06	591.24	262.04	6.7161e-06	2.6281e-06	275.42	136.59	114.67	63.93	4.3676e-06	74.312	5.852e-05	4.3702e-05	1.2437e-05	546.59	4.8031e-07	4.6951e-07	568.1	247.58	5.0577e-07	4.7728e-07	257.22	126.19	105.66	59.615	4.9795e-07	68.348	63.629	-67.698	-91.948	-136.771	-74.381	-29.590	-139.085	-131.132	-14.071	-13.899	-134.187	-130.752	-128.088	-122.082	-48.939	-126.523	-8191	255	
2612.003	1	1	0	0	0.012933	0.0052526	0.085139	0.12588	0.057276	0.24396	0.10047	0.13266	0.032273	0.077393	0.20067	0.3729	0.12151	0.11834	0.019077	0.17574	-3.9729	-4.7771	-5.0854	-4.3562	-5.0917	-4.7458	-4.5958	-5.2562	-4.2021	-4.7042	-5.2125	-4.3771	-5.2438	-4.9854	-4.35	-5.4458	-81.553	112.699	-25.865	1.572	164.173	152.566	193.528	197.396	194.911	26.188	152.036	75.891	168.628	-140.187	-47.118	22.124	0.0018603	0.00028669	0.00014195	574.32	3.3173e-06	4.6946e-07	590.27	260.05	6.7545e-06	4.797e-06	275.62	136.52	114.91	64.091	3.3089e-06	74.931	5.8055e-05	4.4689e-05	1.2025e-05	545.06	4.8685e-07	4.7899e-07	567.25	246.72	4.9065e-07	4.7846e-07	255.97	126	105.91	59.939	4.9861e-07	68.886	61.406	-59.181	-76.137	-136.668	-8.895	-26.996	-138.718	-131.275	-5.988	-0.799	-134.084	-130.679	-127.890	-121.806	-46.721	-126.302	-8191	255	
2612.098	1	1	0	0	0.23701	0.066293	0.15901	0.13925	0.0055717	0.053278	0.18083	0.06878	0.07401	0.048788	0.11977	0.15334	0.069894	0.18436	0.12955	0.079034	-4.1542	-4.7042	-5.1208	-4.3479	-5.0521	-4.8083	-4.4229	-5.3208	-4.4792	-4.7229	-5.3292	-4.3875	-5.1646	-5.1042	-4.2479	-5.3833	149.064	-123.940	-116.955	210.324	-67.176	-122.845	-57.161	142.214	-148.618	179.580	-52.633	-129.738	104.536	-133.320	152.418	124.991	0.0017294	0.0004391	0.00011336	575.67	3.3938e-06	2.5081e-06	594.38	262.31	7.3763e-06	2.5044e-06	276.96	137.23	115.37	64.21	2.4139e-06	75.062	5.5974e-05	4.4396e-05	1.2409e-05	547.52	4.861e-07	4.7828e-07	571.17	247.58	4.9316e-07	4.7658e-07	257.28	126.55	105.78	59.948	5.1016e-07	69.036	62.694	-58.338	-91.261	-136.322	-10.977	-22.861	-138.847	-131.117	-16.422	5.640	-134.123	-130.313	-128.011	-121.520	-35.182	-126.159	-8191	255	
2612.194	1	1	0	0	0.13595	0.15347	0.072537	0.1972	0.0299	0.16569	0.10221	0.11752	0.087331	0.071902	0.080758	0.15427	0.097245	0.19177	0.26529	0.35293	-4.175	-4.3771	-5.2729	-4.2812	-5.0292	-4.7146	-4.2812	-5.4104	-4.5896	-4.4417	-5.3292	-4.2667	-4.9542	-5.2292	-4.2021	-5.1438	167.249	51.219	67.250	-119.749	-16.645	18.430	131.495	159.898	2.702	-122.962	-20.245	72.741	-128.132	173.394	119.310	-127.079	0.0018471	0.00038079	0.00013626	574.2	4.9534e-06	1.9131e-06	596	261.58	6.4976e-06	1.8705e-06	278.44	137.68	114.69	63.887	5.0547e-06	75.006	5.7011e-05	4.458e-05	1.242e-05	548.14	4.9582e-07	4.7468e-07	573.58	247.72	4.9466e-07	4.9093e-07	258.4	126.75	105.7	59.746	4.9589e-07	68.871	64.670	-82.310	-80.473	-136.571	-24.296	-29.173	-138.406	-130.730	7.196	-43.531	-134.220	-130.459	-128.383	-121.835	-69.805	-126.432	-8191	255	
2612.290	1	1	0	0	0.057695	0.29342	0.19575	0.0051699	0.22663	0.02461	0.034774	0.25393	0.11648	0.1941	0.1795	0.11767	0.053597	0.37279	0.14507	0.085347	-4.3625	-4.45	-5.175	-4.4979	-4.8354	-5.0417	-4.4625	-5.2083	-4.775	-4.3562	-5.3979	-4.6271	-4.8021	-5.3458	-4.3292	-5.1312	128.885	-115.152	195.682	-86.392	162.331	148.767	3.425	162.677	119.361	170.463	25.401	104.715	179.356	167.339	-124.193	202.156	0.0017915	0.00017099	8.7942e-05	574.66	1.8665e-06	2.1127e-06	592.11	260.88	5.4804e-06	3.3029e-06	276.14	135.23	115.63	63.673	3.1044e-06	74.179	5.6367e-05	4.5457e-05	1.2102e-05	548.06	4.8185e-07	4.6625e-07	568.73	247.52	4.8529e-07	4.8518e-07	255.8	125.2	105.74	59.505	5.0342e-07	68.033	63.498	-107.467	-90.666	-136.876	-45.485	-52.764	-139.051	-131.072	-22.370	2.373	-134.081	-130.696	-128.288	-121.789	-91.185	-126.497	-8191	255	
2612.411	1	1	0	0	0.25219	0.24438	0.19878	0.037055	0.37364	0.049053	0.19539	0.1585	0.22849	0.1522	0.015439	0.023001	0.25789	0.23449	0.034844	0.23582	-4.6979	-4.3833	-5.4062	-4.6354	-4.5771	-5.2354	-4.5375	-5.0042	-4.9167	-4.4458	-5.4208	-4.7583	-4.6146	-5.3271	-4.4208	-5.1583	-148.097	196.753	139.552	-105.681	-120.759	-121.433	134.219	31.881	-105.983	-46.220	-143.973	81.144	-101.912	202.251	85.835	202.534	0.0016971	0.00018168	0.00015142	568.58	5.2886e-06	3.282e-06	585.75	261.74	4.9371e-06	1.1657e-06	276.82	136.2	115.94	64.298	4.2841e-06	75.172	5.6443e-05	4.3709e-05	1.2122e-05	544.32	4.8923e-07	4.7159e-07	566.83	247.55	4.8676e-07	4.8495e-07	257.36	126.12	106.1	60.113	4.9167e-07	68.956	62.692	-26.815	-79.019	-136.923	-39.874	-53.073	-139.131	-131.293	-22.959	21.608	-134.656	-130.794	-128.437	-122.121	-60.612	-126.826	-8191	255	
2612.507	1	1	0	0	0.18255	0.20834	0.083753	0.25012	0.23199	0.21149	0.066109	0.12587	0.23465	0.22966	0.14388	0.054469	0.04254	0.23748	0.26497	0.18231	-4.6146	-4.3542	-5.125	-4.7896	-4.4625	-5.2312	-4.5104	-4.8333	-5.0396	-4.275	-5.3438	-4.7875	-4.5188	-5.3063	-4.3708	-4.9167	52.648	-41.130	174.532	103.070	-2.238	5.868	-48.291	100.890	11.804	120.439	160.152	198.681	173.313	-120.573	136.814	193.471	0.0018326	0.00039922	0.00010665	577.64	5.3293e-06	2.9776e-06	591.01	263.28	8.5284e-07	4.1073e-06	278.74	138.01	115.36	64.736	1.8296e-06	75.513	5.7954e-05	4.5613e-05	1.2363e-05	546.42	4.9614e-07	4.7034e-07	569.4	248.58	4.9608e-07	4.9621e-07	257.67	127.17	106.24	60.532	4.9981e-07	69.553	65.674	-57.903	-83.266	-136.663	-57.768	-27.056	-138.894	-131.390	-143.064	7.977	-134.687	-130.981	-128.494	-121.986	-53.180	-126.775	-8191	255	
2612.603	1	1	0	0	0.076476	0.087408	0.078594	0.19696	0.13999	0.20738	0.060833	0.1515	0.20759	0.10253	0.2029	0.21553	0.22941	0.0733	0.068924	0.068662	-4.7312	-4.2188	-5.0896	-4.8542	-4.4292	-5.1375	-4.6188	-4.7854	-5.2354	-4.3542	-5.1667	-4.8917	-4.5646	-5.2021	-4.5667	-4.7021	-0.261	-104.375	-23.086	170.243	71.586	-99.378	100.345	107.095	73.725	34.773	102.273	149.106	92.173	-43.216	45.137	-72.194	0.0018752	0.00020489	0.0001232	573.77	4.2797e-06	2.1202e-06	597.36	259.52	7.0917e-06	4.4781e-06	272.03	135.74	114.32	63.617	3.6149e-06	73.966	5.7164e-05	4.4829e-05	1.2223e-05	546.42	4.8771e-07	4.9265e-07	570.36	245.75	5.0077e-07	5.0638e-07	253.48	125.5	105.11	59.584	5.0874e-07	68.245	60.769	-85.434	-89.404	-136.642	-32.927	-40.873	-139.062	-131.266	-21.794	-19.690	-134.475	-130.586	-128.160	-121.971	-73.760	-126.813	-8191	255	
2612.724	1	1	0	0	0.13075	0.16034	0.035754	0.057137	0.040809	0.32232	0.25411	0.14295	0.23821	0.21489	0.075401	0.08601	0.21579	0.043506	0.18122	0.21395	-4.7896	-4.3875	-5.0312	-4.9729	-4.3896	-5.2896	-4.7479	-4.7167	-5.1896	-4.3938	-5.0104	-5.1521	-4.5271	-5.2688	-4.6292	-4.7167	72.075	-77.525	176.574	103.851	35.301	148.056	133.448	109.980	104.413	149.070	176.708	164.514	-136.132	-76.506	-40.962	208.691	0.0019157	0.00029377	0.00013707	574.71	2.7108e-06	2.9653e-06	587.12	257.19	4.5178e-06	2.8301e-06	271.12	135.46	114.64	63.809	2.3708e-06	73.948	5.8914e-05	4.5968e-05	1.2524e-05	545.07	4.9146e-07	4.8207e-07	562.51	244.53	5.0109e-07	4.849e-07	252.47	125.18	105.28	59.718	5.0072e-07	68.172	62.937	-45.324	-106.345	-136.715	-46.178	6.479	-138.626	-131.196	-39.165	-24.965	-134.274	-130.083	-128.261	-121.821	-84.457	-126.547	-8191	255	
2612.795	1	1	0	0	0.11382	0.073168	0.11336	0.022549	0.19465	0.088319	0.14814	0.21839	0.072236	0.16624	0.10799	0.15888	0.11521	0.12895	0.092986	0.011393	-4.8583	-4.2854	-4.9646	-5.1896	-4.2375	-5.1188	-4.8375	-4.5667	-5.2792	-4.3896	-5.0792	-5.2729	-4.3146	-5.2854	-4.8667	-4.6292	165.772	102.223	190.609	-15.695	110.368	-19.809	171.450	-99.563	114.006	180.377	180.232	-111.637	-40.346	161.721	142.415	-106.043	0.0016867	0.0004718	0.00012517	568.81	6.1774e-06	4.2362e-06	584.58	257.79	6.8028e-06	4.349e-06	271.13	134.74	113.53	63.519	2.839e-06	73.753	5.5706e-05	4.489e-05	1.2159e-05	543.11	4.8085e-07	4.8441e-07	561.3	244.86	4.934e-07	4.9197e-07	251.8	123.98	104.68	59.265	4.9872e-07	67.669	64.176	-53.426	-64.103	-136.442	-35.247	-10.031	-138.362	-131.100	-56.273	-25.906	-134.010	-130.226	-127.843	-121.333	-62.183	-125.987	-8191	255	
2612.891	1	1	0	0	0.1751	0.31165	0.21751	0.18402	0.16872	0.23852	0.20389	0.19464	0.19702	0.18094	0.15934	0.21407	0.097163	0.36547	0.16446	0.069109	-5.0354	-4.475	-4.6937	-5.1771	-4.3042	-5.2208	-4.975	-4.5	-5.3396	-4.5813	-4.7542	-5.3438	-4.5625	-5.225	-5.0875	-4.4396	24.055	-132.502	132.717	152.908	-10.543	-7.141	176.865	145.689	192.313	-37.685	179.044	81.419	157.199	159.499	9.900	143.086	0.0018136	0.00033703	0.00011161	571.52	3.0397e-06	2.1219e-06	581.36	257.42	3.1798e-06	2.3893e-06	269.9	134.99	114.48	63.807	6.8487e-06	74.274	5.7709e-05	4.4909e-05	1.2465e-05	541.65	4.997e-07	4.9348e-07	559.95	243.67	4.9808e-07	4.9557e-07	251.22	124.52	105.07	59.476	5.0903e-07	68.152	63.530	-113.201	-53.966	-135.605	-77.011	-17.786	-137.868	-130.610	-32.321	-24.149	-133.841	-129.811	-127.698	-121.104	-57.167	-125.676	-8191	255	
2612.988	1	1	0	0	0.20628	0.08469	0.24867	0.073361	0.059021	0.10207	0.15822	0.20445	0.094638	0.021873	0.16308	0.090417	0.17438	0.14409	0.11153	0.22629	-5.0062	-4.6458	-4.7104	-5.3083	-4.3979	-4.9938	-5.0292	-4.3708	-5.1646	-4.7333	-4.5646	-5.3792	-4.3271	-4.9708	-4.8479	-4.5125	-127.342	72.996	-50.818	144.598	189.788	140.599	137.583	110.849	30.884	-58.146	110.302	-57.734	198.023	196.111	28.359	176.225	0.0018624	0.00032309	0.00012966	572.32	2.9547e-06	4.7528e-06	591.52	258.18	4.2441e-06	6.427e-07	274.32	136.7	114.67	64.161	2.5841e-06	74.073	5.7739e-05	4.5095e-05	1.2834e-05	543.8	4.9672e-07	4.852e-07	565.8	245.45	4.9744e-07	4.8243e-07	254.5	125.84	105.1	59.7	4.962e-07	68.242	62.894	-41.092	-73.944	-135.770	-10.977	-27.195	-138.167	-130.747	-12.395	-12.801	-133.420	-129.694	-127.577	-121.252	-56.301	-126.262	-8191	255	
2613.106	1	1	0	0	0.092441	0.062698	0.072465	0.095954	0.20427	0.098084	0.24149	0.2861	0.046129	0.22106	0.098437	0.080702	0.16241	0.069856	0.096742	0.2052	-4.8313	-4.9333	-4.5854	-5.3979	-4.5125	-4.8229	-5.1813	-4.3104	-5.2958	-4.8854	-4.6188	-5.3917	-4.6208	-4.8	-5.0792	-4.4187	28.731	-139.184	16.871	204.667	57.283	-39.452	-106.158	-3.260	5.258	48.083	104.940	-14.745	-139.018	-55.898	-30.820	144.872	0.0019549	0.00022715	9.9802e-05	573.4	3.135e-06	2.1104e-06	580.66	257.25	5.5914e-06	1.2733e-06	270.34	135.16	113.35	63.22	5.3976e-06	73.149	5.8159e-05	4.4271e-05	1.2454e-05	542.43	4.9094e-07	4.9058e-07	559.32	244.4	4.9636e-07	4.8298e-07	251.96	124.36	104.6	59.084	4.968e-07	67.242	61.510	-79.948	-94.898	-135.929	-54.395	-5.585	-138.178	-131.074	-14.154	-9.980	-134.541	-130.415	-128.052	-121.816	-36.637	-126.585	-8191	255	
2613.203	1	1	0	0	0.043334	0.05468	0.066843	0.11851	0.086628	0.18307	0.12569	0.17415	0.1393	0.064592	0.073155	0.15288	0.1492	0.17105	0.036911	0.16109	-4.8042	-4.9958	-4.3938	-5.4187	-4.5687	-4.8	-5.2854	-4.5771	-4.9729	-5.0021	-4.4688	-5.6333	-4.6687	-4.6167	-5.2479	-4.4688	44.980	135.871	-76.233	170.649	32.911	-88.437	100.431	142.427	61.671	-18.395	128.196	-54.069	157.437	151.217	104.875	-145.438	0.0017829	0.00032548	9.6073e-05	571.7	3.9129e-06	3.9409e-06	581.33	257.85	4.4525e-06	1.5765e-06	269.35	134.64	114.36	63.395	3.103e-06	73.22	5.6754e-05	4.4074e-05	1.2727e-05	541.42	4.9021e-07	4.9206e-07	558.51	244.11	4.9706e-07	4.7326e-07	250.57	123.99	104.81	59.205	5.0526e-07	67.295	64.610	-78.601	-86.066	-136.500	-33.567	-52.324	-138.851	-131.176	-37.584	-67.381	-134.349	-130.268	-127.652	-121.516	-38.063	-125.996	-8191	255	
2613.299	1	1	0	0	0.17107	0.18018	0.040542	0.10448	0.18026	0.22629	0.078825	0.25441	0.1086	0.11896	0.31121	0.064326	0.089168	0.36226	0.07435	0.040714	-4.825	-5.1062	-4.3146	-5.1958	-4.8187	-4.5625	-5.2688	-4.5333	-4.8104	-5.275	-4.4354	-5.3104	-4.8958	-4.675	-5.275	-4.6687	93.886	70.310	94.673	-37.484	7.763	-101.641	-118.545	105.020	112.667	14.495	163.409	-132.847	-87.379	202.887	-90.053	77.735	0.001832	0.00014558	8.1726e-05	570.37	3.2621e-06	3.5498e-06	581.69	254.64	4.3526e-06	3.9911e-06	268.9	133.6	112.77	62.744	3.3882e-06	72.998	5.7243e-05	4.4102e-05	1.2645e-05	540.62	4.9196e-07	4.9284e-07	558.49	242.13	4.8534e-07	4.7254e-07	249.21	123.11	103.8	58.747	4.9563e-07	67.126	67.330	15.293	-95.039	-135.955	-46.650	-1.289	-138.526	-130.794	-36.455	0.152	-134.441	-130.384	-127.821	-121.824	-52.052	-126.111	-8191	255	
2613.372	1	1	0	0	0.13173	0.094859	0.18616	0.16581	0.27177	0.1951	0.11669	0.30925	0.13743	0.075911	0.032974	0.15869	0.15902	0.055057	0.093854	0.065613	-4.6667	-5.2063	-4.3125	-5.225	-4.85	-4.5104	-5.4375	-4.5062	-4.6833	-5.1958	-4.4812	-5.2271	-4.9521	-4.4313	-5.2125	-4.5292	-94.445	92.158	173.373	171.051	-56.261	-10.776	-102.872	187.081	110.616	74.111	182.821	-31.748	133.861	-137.105	-85.127	196.962	0.0017407	0.00023026	5.7775e-05	568.21	3.9796e-06	3.3758e-06	584.27	257.07	5.663e-06	2.5228e-06	269.39	134.89	113.67	63.438	3.1814e-06	74.226	5.7577e-05	4.541e-05	1.2844e-05	538.68	4.9477e-07	4.9854e-07	561.11	243.75	5.004e-07	4.8922e-07	251.42	124.55	104.64	59.242	5.0341e-07	68.058	68.626	-42.149	-26.643	-136.402	-59.880	-13.727	-138.398	-130.907	-5.928	-35.840	-133.979	-130.273	-127.779	-121.529	-72.059	-126.129	-8191	255	
2613.491	1	1	0	0	0.21283	0.037205	0.24181	0.098519	0.19937	0.11077	0.33195	0.11027	0.33738	0.16357	0.095952	0.10552	0.20766	0.27864	0.18303	0.097861	-4.3417	-5.1562	-4.2646	-5.1896	-5.0792	-4.3667	-5.4333	-4.7937	-4.6042	-5.2792	-4.4729	-5.1292	-5.1375	-4.4854	-5.2021	-4.8479	-102.276	191.031	169.893	192.513	99.271	156.889	111.212	206.689	92.338	-74.454	136.167	100.170	-120.822	88.437	192.385	166.932	0.0018523	0.0003998	0.0001385	572.16	2.9057e-06	2.0314e-06	579.4	256.82	3.7214e-06	2.792e-06	268.73	134.14	112.85	63.051	3.477e-06	73.066	5.7997e-05	4.4132e-05	1.2304e-05	541.52	4.9529e-07	4.8053e-07	558.64	243.03	5.0401e-07	4.8539e-07	249.54	123.57	104.09	58.928	4.9007e-07	67.143	66.466	-53.138	-78.516	-136.294	-55.099	-34.780	-138.277	-131.278	-5.649	0.691	-134.411	-130.655	-127.706	-121.614	-46.590	-126.289	-8191	255	
2613.587	1	1	0	0	0.27785	0.061625	0.10367	0.074009	0.09843	0.18417	0.10413	0.12257	0.18333	0.16983	0.051758	0.10424	0.1349	0.15606	0.092279	0.25204	-4.1917	-5.2542	-4.3917	-5.0542	-5.075	-4.2604	-5.375	-4.7979	-4.5125	-5.2771	-4.8	-4.9521	-5.1438	-4.4208	-4.9563	-5.075	183.820	-95.737	54.789	170.077	116.738	-66.633	14.240	152.386	64.912	56.074	206.924	-107.747	151.943	175.240	37.057	178.656	0.0016396	0.00043543	7.0078e-05	567.56	2.7977e-06	3.2021e-06	578.65	256.76	5.1122e-06	2.0099e-06	270.21	134.61	113.73	63.37	2.8079e-06	74.018	5.7913e-05	4.387e-05	1.2435e-05	538.1	4.9207e-07	4.8892e-07	555.62	242.58	4.9943e-07	4.8491e-07	250.42	123.72	104.35	59.228	4.9292e-07	67.924	58.539	-32.797	-58.628	-136.483	-51.872	5.473	-138.419	-130.662	-10.329	-15.056	-134.213	-130.444	-127.530	-121.530	-64.450	-126.104	-8191	255	
2613.683	1	1	0	0	0.22957	0.051281	0.019773	0.13945	0.20554	0.1169	0.090527	0.12462	0.16538	0.17387	0.28852	0.19293	0.20444	0.23471	0.19185	0.21804	-4.3146	-5.2146	-4.5188	-4.7604	-5.2271	-4.375	-5.0958	-5.0167	-4.5104	-5.5042	-4.7229	-4.7583	-5.3208	-4.5854	-4.8688	-5.1042	36.932	-52.504	169.305	98.148	-82.855	-64.375	-88.265	125.200	-34.287	36.664	190.679	123.988	178.614	205.087	94.645	108.825	0.0018189	0.00049492	0.00012317	571.75	3.2674e-06	2.2175e-06	581.33	258.19	5.5042e-06	3.2371e-06	270.48	134.7	113.66	63.27	2.2633e-06	73.901	5.7103e-05	4.4388e-05	1.2092e-05	541.86	4.8172e-07	4.8521e-07	559.43	244.26	5.0645e-07	4.7369e-07	251.12	124.18	104.39	59.169	5.0634e-07	67.742	63.154	-54.301	-72.898	-136.197	-41.036	0.701	-138.420	-130.872	-23.489	2.292	-134.247	-130.307	-127.715	-121.572	-14.546	-125.935	-8191	255	
2613.804	1	1	0	0	0.20045	0.080395	0.34209	0.16727	0.19943	0.22847	0.272	0.23233	0.099819	0.1458	0.090097	0.24307	0.12491	0.26616	0.17448	0.19109	-4.0958	-5.2854	-4.5062	-4.6979	-5.275	-4.5333	-5.1229	-5.2375	-4.3958	-5.3208	-4.8833	-4.7	-5.2562	-4.6521	-4.8875	-5.3333	-90.753	-17.261	5.317	176.136	-86.514	20.026	108.409	173.283	189.266	-113.083	-63.183	200.176	193.959	207.762	-73.054	115.193	0.0017341	0.00040534	0.00013657	569.74	4.1378e-06	2.8726e-06	587.71	258.73	5.3114e-06	3.3353e-06	273.24	135.76	114.41	63.524	4.8103e-06	74.18	5.9001e-05	4.5166e-05	1.24e-05	541.07	4.8633e-07	4.9146e-07	562.72	244.73	4.9992e-07	4.7653e-07	253.64	125.16	105.09	59.499	4.914e-07	68.249	59.909	-50.355	-67.139	-136.103	-43.758	-25.319	-138.604	-130.624	7.872	-17.214	-133.991	-130.171	-127.537	-121.598	-64.210	-126.245	-8191	255	
2613.900	1	1	0	0	0.12285	0.24173	0.19317	0.19439	0.12931	0.045569	0.18953	0.10996	0.17831	0.23755	0.1354	0.16278	0.18443	0.13555	0.11307	0.13978	-4.05	-5.2396	-4.7833	-4.6646	-5.3146	-4.3917	-5.0292	-5.175	-4.3604	-5.1833	-4.8229	-4.5354	-5.2833	-4.7208	-4.7104	-5.4437	181.581	-47.552	22.401	152.733	-54.749	22.475	193.823	68.364	-132.730	-74.273	193.833	172.517	-133.470	131.308	-73.640	180.344	0.0017821	0.00032866	0.00012312	571.88	4.1225e-06	3.7827e-06	592.43	261.08	6.1853e-06	2.3546e-06	273.51	135.65	113.66	63.377	3.6153e-06	72.948	5.6997e-05	4.3782e-05	1.2488e-05	544.1	4.8033e-07	4.7553e-07	566.45	245.89	4.9879e-07	4.6748e-07	253.75	124.87	104.84	59.068	5.0052e-07	67.2	63.657	-59.560	-88.527	-136.085	-27.756	-0.227	-138.406	-130.575	-15.129	-10.317	-134.064	-130.223	-127.729	-121.526	-76.729	-125.875	-8191	255	
2613.994	1	1	0	0	0.19748	0.17129	0.018964	0.31365	0.097328	0.19287	0.22716	0.24043	0.053276	0.27889	0.31228	0.11561	0.24606	0.19337	0.18279	0.023483	-3.9271	-5.1875	-4.9208	-4.4271	-4.9625	-4.5354	-4.6958	-5.3896	-4.5	-4.9917	-5.0312	-4.425	-5.3604	-4.6396	-4.6375	-5.3917	138.049	-74.064	176.365	166.291	-112.755	-78.491	168.832	-123.756	30.114	124.744	197.042	104.498	-134.492	157.155	-81.196	108.329	0.0017488	0.00040396	0.00014941	570.66	3.4714e-06	3.9613e-06	585.89	259.08	1.8008e-06	2.1505e-06	272.93	134.95	114.55	63.5	3.7993e-06	73.394	5.7954e-05	4.495e-05	1.2193e-05	541.52	4.7973e-07	4.8722e-07	562.11	244.46	4.9079e-07	4.8287e-07	252.61	124.42	105.02	59.249	4.9363e-07	67.581	64.327	-17.563	-74.215	-136.500	-46.423	-48.550	-138.790	-130.806	-36.896	25.156	-134.057	-130.093	-127.650	-121.408	-44.959	-125.825	-8191	255	
2614.092	1	1	0	0	0.092379	0.10622	0.048299	0.31951	0.15373	0.068646	0.091444	0.097551	0.039085	0.08791	0.1785	0.28485	0.16616	0.1628	0.078911	0.13137	-4.0625	-4.9333	-5.3438	-4.2146	-5.2521	-4.8646	-4.6208	-5.4417	-4.4437	-4.8625	-5.1042	-4.3604	-5.3208	-4.9479	-4.5729	-5.3583	63.091	149.896	100.005	209.163	102.111	-25.803	-62.182	161.929	50.356	204.910	134.169	185.282	-118.074	190.156	166.539	106.763	0.0018002	0.00038805	0.00011682	573.81	5.5761e-06	3.632e-06	588.58	260.78	5.0103e-06	2.9706e-06	273.49	136.64	115.29	63.444	5.082e-06	73.84	5.7925e-05	4.3624e-05	1.2266e-05	542.85	4.8971e-07	4.8161e-07	564.08	246.62	4.8976e-07	4.9151e-07	254.84	125.52	105.67	59.375	5.1087e-07	67.879	66.160	-33.453	-76.760	-136.149	-24.662	4.032	-138.471	-130.873	-29.326	-54.583	-133.765	-130.124	-127.838	-121.374	-47.927	-125.882	-8191	255	
2614.187	1	1	0	0	0.11939	0.19514	0.12596	0.046531	0.039877	0.21563	0.10975	0.12866	0.27073	0.18825	0.063455	0.14359	0.2725	0.18934	0.15173	0.20371	-4.2354	-4.5958	-5.2896	-4.3604	-5.0125	-4.8917	-4.4458	-5.3292	-4.4771	-4.8417	-5.3458	-4.3542	-5.2958	-5.225	-4.3917	-5.4208	-10.749	-49.057	-112.749	74.801	-103.769	-91.165	208.441	38.893	92.616	-77.171	-137.561	146.114	205.447	-137.033	-107.365	162.139	0.0017976	0.00032675	0.00012732	571.91	5.3726e-06	3.5374e-06	591.3	259.96	5.0553e-06	2.346e-06	276.93	137.25	114.98	63.456	4.6455e-06	74.231	5.7028e-05	4.4867e-05	1.2273e-05	544.31	4.9159e-07	4.876e-07	568.03	246.7	4.889e-07	4.8249e-07	257.46	126.34	105.43	59.337	5.1556e-07	68.212	63.352	-52.231	-94.296	-136.150	-58.505	-11.545	-138.449	-130.810	5.057	-4.501	-133.504	-130.143	-128.011	-121.479	-56.484	-125.736	-8191	255	
2614.283	1	1	0	0	0.14734	0.15429	0.078682	0.07777	0.10686	0.18397	0.23768	0.070731	0.10109	0.088282	0.27894	0.11742	0.31415	0.27981	0.07518	0.15342	-4.1396	-4.5271	-5.2583	-4.4583	-5.0396	-5.0771	-4.4146	-5.2937	-4.7167	-4.6271	-5.4437	-4.4104	-5.1625	-5.2542	-4.3729	-5.3875	83.885	138.036	-75.478	-133.026	185.048	18.616	126.526	-135.337	21.314	177.922	133.130	22.979	163.780	91.297	-18.536	167.891	0.0016495	0.00031984	0.00010616	573.32	4.3574e-06	1.1764e-06	587.78	259.12	7.0454e-06	6.9746e-07	273.33	135.33	113.96	62.835	5.1931e-06	73.398	5.764e-05	4.5153e-05	1.2293e-05	544.43	4.969e-07	4.8243e-07	565.88	245.35	4.9022e-07	4.835e-07	253.64	124.53	104.66	58.858	5.0575e-07	67.317	62.690	-49.134	-76.200	-135.504	-45.511	41.826	-138.365	-130.478	-17.641	-9.003	-134.024	-130.373	-127.589	-121.531	-84.574	-126.109	-8191	255	
2614.404	1	1	0	0	0.05017	0.13322	0.1316	0.30055	0.075603	0.094373	0.14274	0.11404	0.14138	0.15564	0.047154	0.21377	0.19888	0.37888	0.04095	0.06925	-4.45	-4.4583	-5.3292	-4.5542	-4.9292	-5.2042	-4.4333	-5.3375	-4.6833	-4.4146	-5.4792	-4.5312	-4.9854	-5.2688	-4.2271	-5.2333	6.895	89.125	-84.209	188.209	-99.769	190.898	150.501	210.192	201.874	-18.194	137.062	-73.248	206.637	199.834	199.317	-52.029	0.0017917	0.00049084	0.00016047	568.67	2.2308e-06	2.3507e-06	584.37	259.51	4.6305e-06	3.1536e-06	272.64	135.65	114.38	62.916	4.4959e-06	73.304	5.6958e-05	4.6061e-05	1.219e-05	540.69	4.8812e-07	4.6775e-07	561.59	245.52	4.843e-07	4.8827e-07	253.21	124.46	104.82	58.977	4.9875e-07	67.273	63.619	-49.470	-114.532	-136.078	-58.749	39.991	-138.213	-130.853	-26.941	-29.689	-133.786	-130.210	-127.899	-121.655	-83.450	-126.212	-8191	255	
2614.500	1	1	0	0	0.13559	0.17155	0.022257	0.071351	0.13437	0.21746	0.14484	0.12771	0.2187	0.23986	0.1062	0.020663	0.25245	0.23772	0.14915	0.087405	-4.4646	-4.3417	-5.2625	-4.6438	-4.6021	-5.0563	-4.4146	-5.2	-4.9	-4.4125	-5.475	-4.6542	-4.6542	-5.3021	-4.3688	-5.0021	23.683	137.655	4.959	-119.596	-44.590	-31.156	211.270	-129.262	-87.098	32.999	208.858	9.714	127.211	170.247	140.510	157.603	0.0018554	0.00029254	6.5032e-05	571.83	3.2199e-06	2.0598e-06	583.14	258.24	6.9436e-06	3.993e-06	271.99	134.79	113.28	63.037	4.8031e-06	73.246	5.6354e-05	4.4786e-05	1.2034e-05	541.71	4.8219e-07	4.7465e-07	560.43	244.13	4.8555e-07	4.9021e-07	251.76	123.98	104.22	58.917	4.9245e-07	67.227	62.137	-41.574	-71.025	-136.021	-45.836	11.294	-138.572	-130.744	-27.876	-11.157	-133.951	-130.299	-127.547	-121.678	-72.493	-126.020	-8191	255	
2614.596	1	1	0	0	0.23879	0.2384	0.075648	0.10119	0.090155	0.076309	0.21884	0.20239	0.068991	0.3109	0.11688	0.23108	0.11679	0.4093	0.16568	0.10531	-4.6875	-4.4917	-5.0479	-4.65	-4.7438	-5.2479	-4.4417	-5.1229	-5.0792	-4.3396	-5.1875	-4.9146	-4.6583	-5.3438	-4.3958	-5.0125	-15.918	47.442	-2.734	-118.450	-131.291	-1.675	-135.394	151.380	155.850	-131.750	76.781	181.035	-112.618	205.734	107.394	-100.334	0.0017875	0.00038508	0.00012237	569.23	3.4153e-06	3.6578e-06	581.85	257.66	3.4027e-06	3.0606e-06	269.67	135.12	113.93	63.176	4.2941e-06	73.992	5.6659e-05	4.4432e-05	1.2087e-05	540.24	4.8486e-07	4.8257e-07	560.4	243.46	4.8193e-07	4.7673e-07	251.26	124.31	104.56	59.268	5.028e-07	67.994	62.444	-90.359	-94.369	-136.157	-72.526	-35.492	-138.559	-130.926	16.098	1.226	-134.085	-130.228	-128.135	-121.709	-65.751	-126.317	-8191	255	
2614.668	1	1	0	0	0.23554	0.1934	0.22372	0.043513	0.13358	0.07676	0.063177	0.055064	0.19273	0.1031	0.11664	0.051469	0.1274	0.14317	0.3308	0.12008	-4.7667	-4.425	-5.2354	-4.775	-4.4167	-5.2937	-4.5458	-4.7812	-5.1354	-4.3292	-5.2271	-4.9375	-4.6833	-5.4167	-4.3187	-4.8458	109.205	-27.409	204.291	168.266	153.953	-9.757	89.683	-1.517	-3.488	58.681	-136.932	-132.557	86.077	168.513	-63.686	172.761	0.0017712	0.00021286	9.3409e-05	572.5	4.9611e-06	1.5984e-06	587.39	258.89	3.7879e-06	3.5976e-06	270.83	135.29	114.14	63.787	4.9904e-06	73.896	5.7145e-05	4.4036e-05	1.224e-05	541.46	4.9339e-07	4.7928e-07	564.3	244.92	4.9384e-07	4.9271e-07	251.79	124.7	104.96	59.663	4.9139e-07	67.864	64.011	-66.373	-67.177	-136.535	-61.948	52.044	-138.699	-131.233	-30.937	10.394	-134.401	-130.588	-128.096	-121.899	-43.751	-126.561	-8191	255	
2614.788	1	1	0	0	0.14656	0.23016	0.16654	0.3756	0.1201	0.12455	0.21552	0.31802	0.094418	0.10977	0.20254	0.2058	0.072143	0.30201	0.11881	0.051041	-4.95	-4.25	-4.8208	-4.8396	-4.3979	-5.3146	-4.7042	-4.7854	-5.2417	-4.3375	-5.1458	-5.1104	-4.4167	-5.4604	-4.6188	-4.7312	-148.700	55.278	204.650	191.917	62.166	178.628	101.358	198.152	2.863	120.493	-87.349	124.208	197.944	206.433	-49.210	62.431	0.0019104	0.00032941	0.00013299	571.26	5.8883e-06	3.5095e-06	582.34	258.87	4.2138e-06	2.7883e-06	269.95	134.75	113.67	63.316	3.9856e-06	73.022	5.695e-05	4.4112e-05	1.2214e-05	541.35	4.8676e-07	4.6977e-07	559.58	245.2	4.8919e-07	4.7465e-07	250.68	124.21	104.82	59.234	4.9272e-07	67.188	62.947	-59.899	-83.917	-136.668	-51.817	-3.182	-138.679	-131.136	-28.542	3.795	-134.279	-130.541	-127.839	-121.985	-41.724	-126.330	-8191	255	
2614.883	1	1	0	0	0.19485	0.081482	0.10024	0.16046	0.16851	0.1993	0.15685	0.11946	0.11111	0.033057	0.062567	0.086548	0.076071	0.26657	0.082643	0.20657	-4.8667	-4.2979	-4.8063	-5.1	-4.2333	-5.1687	-4.8313	-4.5771	-5.2104	-4.425	-4.9688	-5.1146	-4.3875	-5.4021	-4.7063	-4.6729	16.523	-35.465	-25.065	166.003	142.207	5.785	23.394	-126.422	-9.506	199.382	-100.059	-122.802	8.226	-128.075	70.884	208.728	0.0017117	0.00017364	0.00014364	569.94	3.554e-06	2.9635e-06	579.54	258.27	2.5785e-06	3.8115e-06	272	134.99	113.82	63.183	3.882e-06	73.449	5.6228e-05	4.3835e-05	1.2213e-05	539.6	4.857e-07	4.8087e-07	558.25	244.03	4.8284e-07	4.8677e-07	252.41	124.62	104.87	59.05	4.9247e-07	67.429	65.112	-49.169	-95.055	-136.003	-49.941	-12.457	-138.539	-130.901	9.796	-17.245	-133.947	-130.335	-127.786	-121.521	-97.292	-126.160	-8191	255	
2614.980	1	1	0	0	0.017334	0.050758	0.30419	0.21918	0.088241	0.26228	0.18128	0.075546	0.099658	0.19869	0.14262	0.14396	0.21598	0.31365	0.24734	0.15406	-4.9125	-4.4333	-4.7479	-5.1604	-4.2979	-5.1438	-4.9042	-4.4896	-5.1583	-4.3938	-4.7562	-5.3438	-4.425	-4.9958	-4.8604	-4.4417	-34.401	-118.813	104.837	-72.471	177.695	-74.795	203.014	118.309	46.404	195.561	16.090	-137.320	-132.935	184.542	33.465	123.836	0.0017032	0.00021045	0.00010876	573.83	6.3033e-06	1.2745e-06	588.27	262.05	4.6564e-06	2.1669e-06	278.09	137.92	116.01	64.321	4.264e-06	74.824	5.6797e-05	4.4296e-05	1.2324e-05	543.1	4.9458e-07	4.7792e-07	566.22	247.76	4.8358e-07	4.8584e-07	258.38	127.07	106.48	60.077	4.9608e-07	68.759	62.171	-54.710	-78.505	-136.145	-51.150	-22.797	-138.190	-130.697	-24.322	-18.693	-134.216	-130.139	-127.999	-121.716	-79.241	-126.487	-8191	255	
2615.075	1	1	0	0	0.12109	0.12422	0.29844	0.18263	0.095975	0.22364	0.056106	0.11706	0.17393	0.11812	0.36117	0.12086	0.18117	0.15923	0.035015	0.29366	-4.8333	-4.6687	-4.6854	-5.2937	-4.2979	-4.9583	-5.0604	-4.4542	-5.275	-4.6083	-4.5354	-5.4208	-4.4833	-5.0042	-5.0375	-4.5479	107.272	51.574	-77.853	158.682	-36.019	-15.751	121.160	189.265	-65.071	-37.918	185.832	41.270	140.336	-142.808	90.564	175.916	0.0019785	0.00022335	9.8967e-05	572.42	3.5192e-06	2.1541e-06	594.42	262.06	4.1801e-06	3.2106e-06	275.68	137.72	116.11	64.408	3.5634e-06	74.827	5.7459e-05	4.5454e-05	1.258e-05	544.18	4.8927e-07	4.9461e-07	570.89	247.79	4.8766e-07	4.8456e-07	256.08	126.87	106.59	60.261	4.9632e-07	68.625	62.978	-63.845	-56.181	-135.960	-54.504	-68.169	-138.266	-130.571	-21.102	-27.448	-134.244	-130.300	-127.722	-121.520	-70.189	-126.036	-8191	255	
2615.195	1	1	0	0	0.19925	0.067313	0.13205	0.13826	0.11056	0.15197	0.0461	0.26222	0.1116	0.035098	0.058501	0.10702	0.33352	0.39958	0.16066	0.20242	-4.9583	-4.7667	-4.6083	-5.2854	-4.3833	-5.0479	-5.1729	-4.4354	-5.1042	-4.7396	-4.6354	-5.2583	-4.5417	-4.9083	-5.1271	-4.4542	-147.066	152.199	-20.893	148.349	157.398	-46.914	157.745	137.480	-80.445	-0.502	36.180	167.895	0.145	209.555	117.033	-98.290	0.0018597	0.0002046	0.00015542	574.06	3.6238e-06	3.1931e-06	585.11	260.62	6.1762e-06	1.7022e-06	271.51	135.99	114.91	63.935	1.7479e-06	74.017	5.772e-05	4.397e-05	1.2643e-05	543.62	4.8543e-07	4.8568e-07	563.24	246.23	4.9701e-07	4.7885e-07	252.68	125.21	105.49	59.72	5.0782e-07	67.983	59.534	-33.953	-86.431	-135.750	-33.293	-20.253	-138.093	-130.755	-28.356	20.585	-133.702	-130.227	-127.317	-121.574	-54.247	-126.271	-8191	255	
2615.267	1	1	0	0	0.17872	0.25182	0.20852	0.1552	0.17692	0.20099	0.10274	0.0629	0.028058	0.052157	0.19045	0.25385	0.22468	0.14721	0.10981	0.14205	-4.6958	-5.05	-4.5104	-5.3979	-4.3771	-4.4437	-5.225	-4.4021	-5.0458	-5.0021	-4.5062	-5.3958	-4.7063	-4.6854	-5.2688	-4.4187	-130.392	85.038	-75.204	-96.705	-99.230	-136.213	179.119	155.573	100.651	-9.308	128.407	175.381	48.439	-88.484	-24.473	144.513	0.0017356	0.00033757	7.4716e-05	572.34	2.9774e-06	2.1595e-06	586	259.82	4.0905e-06	1.5988e-06	271.91	136.45	115.4	64.595	3.8576e-06	74.542	5.7876e-05	4.4792e-05	1.2409e-05	542.66	4.96e-07	4.867e-07	562.97	246.17	4.8453e-07	4.672e-07	252.76	125.68	106.09	60.406	4.973e-07	68.706	65.827	-59.640	-39.540	-135.906	-56.992	38.018	-138.276	-130.832	-57.316	33.463	-134.067	-130.084	-127.783	-122.066	-14.470	-126.356	-8191	255	
2615.363	1	1	0	0	0.16546	0.10299	0.14326	0.24227	0.13643	0.14486	0.088504	0.26466	0.017508	0.30743	0.15786	0.18714	0.085166	0.083788	0.14929	0.28896	-4.6604	-4.9604	-4.2333	-5.2312	-4.5854	-4.5062	-5.2354	-4.55	-4.9271	-4.9042	-4.4062	-5.15	-4.8083	-4.5333	-5.2896	-4.5771	79.110	144.600	-21.782	81.644	204.795	-63.688	43.619	162.143	-41.744	165.612	41.836	-134.454	85.687	-101.414	198.212	161.834	0.0017804	0.00031501	6.3889e-05	575.46	4.238e-06	1.9959e-06	593.23	263.86	5.9433e-06	4.878e-06	279.3	140.01	116.87	65.042	3.3002e-06	76.054	5.7822e-05	4.449e-05	1.2277e-05	545.28	4.8243e-07	4.826e-07	569.42	249.19	4.9671e-07	4.7284e-07	258.99	128.59	107.61	60.847	4.9724e-07	69.899	64.644	-65.011	-103.503	-136.530	-58.752	-4.063	-138.345	-130.831	-28.716	2.489	-133.628	-130.342	-128.059	-121.651	-44.780	-126.314	-8191	255	
2615.484	1	1	0	0	0.20439	0.098052	0.26376	0.25884	0.23686	0.30609	0.13879	0.11362	0.17192	0.11128	0.07284	0.21864	0.12409	0.26236	0.12642	0.20036	-4.425	-5.0813	-4.2312	-5.2958	-4.6729	-4.425	-5.3375	-4.6	-4.8313	-4.9271	-4.175	-5.1375	-4.9604	-4.5583	-5.1104	-4.6125	-85.156	-37.366	-116.810	-35.226	-6.276	-119.966	126.807	72.916	189.861	6.183	51.815	-130.760	3.761	-129.853	80.664	118.206	0.0017574	2.1418e-05	0.00014655	579.87	4.7298e-06	3.1363e-06	598.92	263.54	4.846e-06	2.3486e-06	280.46	139.93	116.72	65.327	1.7403e-06	75.292	5.6527e-05	4.4084e-05	1.2423e-05	548.02	4.8585e-07	4.8283e-07	576.3	250.1	4.9257e-07	4.8672e-07	260.64	128.71	107.47	60.857	4.8507e-07	69.404	65.207	-76.908	-91.714	-136.054	-57.652	13.571	-138.260	-130.985	-8.295	-8.694	-134.017	-130.172	-127.661	-121.522	-62.609	-125.939	-8191	255	
2615.580	1	1	0	0	0.076291	0.15953	0.18796	0.056583	0.12101	0.11794	0.090205	0.074364	0.22053	0.18395	0.10554	0.04197	0.15901	0.055271	0.28937	0.37302	-4.5188	-5.1167	-4.35	-5.0229	-4.8375	-4.3271	-5.2438	-4.7021	-4.6104	-5.2542	-4.4417	-5.1771	-5.0104	-4.4437	-5.1667	-4.7729	95.266	96.606	12.455	-142.269	110.197	162.250	-63.579	92.740	152.991	64.964	-76.073	112.591	157.377	204.959	45.362	179.483	0.0019185	0.0003054	0.00012026	579.91	1.9986e-06	2.9157e-06	589.98	263.81	2.7828e-06	3.0259e-06	276.94	138.24	116	64.68	5.5951e-06	74.676	5.6813e-05	4.2967e-05	1.2189e-05	547.56	4.8054e-07	4.8632e-07	568.8	249.12	4.8822e-07	4.7052e-07	257	127.05	106.98	60.46	4.8259e-07	68.615	64.413	-46.856	-99.922	-135.919	-58.559	-4.925	-138.423	-131.077	14.988	2.265	-134.077	-130.365	-127.560	-121.853	-46.423	-126.104	-8191	255	
2615.676	1	1	0	0	0.24047	0.15605	0.079479	0.17687	0.34255	0.12538	0.082152	0.054968	0.11826	0.13796	0.18547	0.2984	0.025571	0.1627	0.059902	0.15362	-4.2458	-5.2125	-4.3292	-4.9	-4.9396	-4.3333	-5.3167	-4.7708	-4.5021	-5.275	-4.5271	-4.8354	-5.0979	-4.6417	-5.1271	-4.9417	-15.180	164.248	20.930	108.525	-87.329	62.064	56.318	123.392	20.312	120.195	87.843	-51.605	-117.978	125.685	197.858	-120.180	0.0019071	0.00036084	9.0082e-05	573.73	4.1718e-06	2.6759e-06	589.09	262.4	6.3319e-06	2.2897e-06	276.68	137.09	116.52	64.382	5.0053e-06	74.407	5.6739e-05	4.2488e-05	1.2083e-05	545.28	4.7416e-07	4.7524e-07	566.62	248.24	4.8411e-07	4.6929e-07	256.17	126.75	106.91	60.186	4.8288e-07	68.505	64.633	-40.406	-33.259	-136.112	-50.013	-19.065	-138.457	-130.666	4.635	-51.803	-134.311	-130.380	-127.838	-121.821	-63.196	-126.104	-8191	255	
2615.772	1	1	0	0	0.10495	0.059233	0.1813	0.12637	0.059418	0.15068	0.14321	0.19286	0.17906	0.070033	0.1951	0.11692	0.12251	0.30357	0.16682	0.31521	-4.2708	-5.2	-4.5583	-4.9167	-5.1562	-4.4688	-5.1833	-4.8979	-4.4625	-5.2729	-4.5437	-4.6646	-5.2646	-4.3833	-4.9396	-5.0458	70.107	-11.537	-68.344	178.598	-32.915	142.274	19.112	197.678	-38.504	159.578	-124.596	-146.559	157.680	205.570	39.801	130.284	0.0018223	0.00041948	0.00014945	575.49	3.2545e-06	2.2921e-06	588.58	262.46	4.3936e-06	4.4309e-06	279.48	138.84	117.09	65.074	3.0348e-06	75.623	5.7321e-05	4.2745e-05	1.2139e-05	545.84	4.756e-07	4.8108e-07	568.45	248.72	4.9207e-07	4.727e-07	259.27	128	107.45	60.686	4.8485e-07	69.508	61.189	-58.250	-77.360	-136.247	-4.553	-39.468	-138.397	-130.868	-3.199	0.597	-134.206	-130.386	-127.607	-121.568	-75.205	-125.987	-8191	255	
2615.893	1	1	0	0	0.041019	0.20806	0.20399	0.1332	0.10035	0.12979	0.12315	0.032909	0.17037	0.11027	0.23416	0.18089	0.11078	0.21838	0.19943	0.18569	-3.9917	-5.1542	-4.6625	-4.6042	-5.0375	-4.1896	-5.0292	-4.9271	-4.1979	-5.1521	-4.6792	-4.7042	-5.3063	-4.6042	-4.8	-5.1937	205.049	103.791	-38.733	184.981	-79.387	-80.191	188.238	-91.283	107.673	-85.081	132.800	181.529	10.179	170.545	-55.708	200.906	0.0018163	0.00044109	8.4629e-05	578.58	3.0826e-06	2.5819e-06	600.8	265.89	4.8407e-06	1.5933e-06	280.9	139.93	117.3	64.99	2.9068e-06	75.984	5.6753e-05	4.3812e-05	1.2078e-05	548.26	4.7607e-07	4.7729e-07	576.82	250.19	4.9325e-07	4.8324e-07	261.28	128.93	107.76	60.815	4.911e-07	69.711	59.627	-83.234	-143.813	-136.588	-28.874	-13.777	-138.723	-131.106	-49.075	11.849	-134.538	-130.614	-128.126	-122.040	-87.911	-126.597	-8191	255	
2615.965	1	1	0	0	0.23897	0.17704	0.19023	0.1258	0.21073	0.19104	0.24376	0.081166	0.1221	0.20868	0.045987	0.042541	0.092683	0.081949	0.13474	0.15568	-3.9417	-5.0667	-4.7188	-4.4229	-5.1479	-4.4146	-4.8146	-5.1292	-4.1542	-5.2167	-4.8292	-4.6104	-5.4292	-4.7417	-4.8125	-5.3583	-141.420	-5.533	179.452	132.670	166.451	99.679	-80.536	207.934	43.496	-100.446	172.070	-60.188	-93.584	167.310	-138.022	-126.363	0.0018211	0.0001568	0.00010272	578.24	2.0272e-06	2.4816e-06	593.29	263.78	4.5929e-06	3.747e-06	277.74	138.72	116.65	64.591	2.7845e-06	74.996	5.6586e-05	4.3347e-05	1.1935e-05	548.33	4.7193e-07	4.7421e-07	570.56	249.38	4.882e-07	4.655e-07	258.36	127.44	106.99	60.374	4.9052e-07	68.827	67.036	-77.888	-75.358	-136.757	-77.484	-0.680	-138.719	-130.973	0.349	-15.842	-134.086	-130.333	-127.803	-121.451	-48.387	-126.210	-8191	255	
2616.061	1	1	0	0	0.19103	0.17134	0.19343	0.06844	0.14131	0.067667	0.17931	0.31484	0.098384	0.29595	0.20676	0.038374	0.16802	0.15031	0.23651	0.25665	-4.1208	-5.0563	-4.8771	-4.25	-5.3458	-4.3875	-4.7125	-5.3187	-4.2438	-4.9042	-5.0625	-4.4125	-5.3958	-4.6229	-4.7312	-5.2396	79.081	40.796	129.757	203.518	-42.927	108.444	182.258	125.375	-16.243	12.829	81.808	-145.578	187.751	156.530	37.998	115.512	0.0018492	0.00048886	0.00012701	575.94	1.5016e-06	2.6952e-06	590.94	262.97	5.899e-06	3.2243e-06	276.92	138.14	116.72	64.463	3.1731e-06	74.877	5.6772e-05	4.3082e-05	1.2102e-05	544.33	4.7445e-07	4.6406e-07	567.76	248.87	4.9532e-07	4.7117e-07	257.22	127.2	106.98	60.344	4.8816e-07	68.797	62.363	-77.516	-64.091	-136.783	-90.709	-11.678	-138.711	-130.913	-18.363	-18.160	-133.811	-130.657	-127.717	-121.890	-64.958	-126.312	-8191	255	
2616.180	1	1	0	0	0.2181	0.035713	0.077366	0.053486	0.10955	0.10379	0.18355	0.37384	0.13972	0.23465	0.12168	0.085419	0.18561	0.14771	0.083485	0.080276	-4.1229	-4.9333	-5.0188	-4.6521	-5.2104	-4.8083	-4.5708	-5.2438	-4.2458	-5.0229	-5.1146	-4.4688	-5.1833	-4.8104	-4.4313	-5.4417	-116.462	149.393	-80.902	-44.122	-102.829	91.678	152.479	192.750	-75.244	-93.756	-98.405	188.905	159.886	142.634	-148.557	133.153	0.0019185	0.00027453	7.6623e-05	574.45	5.1065e-06	2.7242e-06	591.87	262.57	5.8513e-06	2.5252e-06	277.32	138.89	116.33	64.676	2.1384e-06	75.024	5.6838e-05	4.3692e-05	1.2011e-05	544.74	4.7854e-07	4.7861e-07	568.01	248	4.8892e-07	4.7473e-07	257.57	127.47	106.97	60.383	4.9648e-07	68.94	66.207	-50.771	-75.228	-136.362	-61.410	9.962	-138.331	-130.822	-12.017	-26.777	-134.279	-130.562	-127.897	-121.723	-83.512	-126.307	-8191	255	
2616.276	1	1	0	0	0.1067	0.17059	0.20919	0.15643	0.12306	0.21055	0.18195	0.26145	0.12015	0.10378	0.12832	0.25748	0.12552	0.077915	0.13375	0.1299	-4.0896	-4.8187	-5.0417	-4.4146	-5.0875	-4.6625	-4.5687	-5.3042	-4.4604	-4.6646	-5.2042	-4.4667	-5.1917	-5.0312	-4.425	-5.3771	-20.901	194.800	43.650	186.429	-16.471	94.560	139.471	158.929	202.057	-135.646	-123.167	200.589	107.340	196.492	-21.255	-115.147	0.0018069	0.00026433	3.5305e-05	574.64	4.693e-06	2.2354e-06	595.21	262.84	6.304e-06	2.7177e-06	277.01	138.53	116.56	64.627	3.5305e-06	75.751	5.71e-05	4.4178e-05	1.2067e-05	544.95	4.8963e-07	4.6841e-07	571.57	247.78	4.907e-07	4.8539e-07	256.99	128	107.05	60.551	4.9192e-07	69.636	60.098	-77.319	197.932	-136.418	-51.942	-21.492	-138.756	-131.058	-36.683	-14.343	-134.268	-130.196	-127.687	-121.608	-50.736	-126.480	-8191	255	
2616.372	1	1	0	0	0.08548	0.098571	0.21884	0.16389	0.15937	0.10219	0.099611	0.21188	0.1193	0.054452	0.15456	0.16618	0.18333	0.083789	0.070452	0.16528	-4.2292	-4.7125	-4.9917	-4.3938	-4.9271	-4.775	-4.4354	-5.3792	-4.4771	-4.4458	-5.175	-4.5271	-5.0354	-5.1354	-4.3187	-5.2063	-22.208	-89.482	107.756	60.045	140.450	182.177	200.874	169.829	146.293	-70.949	-119.264	170.916	208.656	-132.939	74.500	89.423	0.0018512	0.00034339	8.0401e-05	576	5.794e-06	3.7132e-06	591.52	262.29	2.3173e-06	3.3263e-06	275.13	137.65	116.76	64.936	2.5338e-06	74.776	5.6562e-05	4.4146e-05	1.1833e-05	545.41	4.7926e-07	4.7932e-07	567.41	248.44	4.9148e-07	4.7937e-07	255.33	126.79	106.98	60.524	4.882e-07	68.568	65.775	-91.242	-114.053	-136.327	-31.935	-2.093	-138.757	-131.057	5.316	1.537	-134.443	-130.557	-128.358	-121.911	-22.218	-126.520	-8191	255	
2616.468	1	1	0	0	0.22956	0.023377	0.19553	0.05623	0.14322	0.09911	0.21584	0.1955	0.15565	0.27096	0.32602	0.18289	0.16464	0.16397	0.17054	0.10533	-4.0604	-4.4625	-5.3187	-4.4396	-4.9417	-5.0104	-4.3292	-5.2917	-4.5938	-4.5917	-5.2438	-4.4896	-4.8729	-5.1729	-4.2063	-5.2625	-87.182	-33.807	-89.918	165.288	34.285	-33.652	143.017	134.802	113.926	36.703	-135.293	160.153	145.851	-142.459	-105.560	100.335	0.0017738	0.00040168	7.8586e-05	572.17	4.0395e-06	2.4068e-06	585.72	259.71	5.9194e-06	3.3396e-06	271.11	136.09	114.98	64.333	3.8071e-06	74.23	5.7253e-05	4.3719e-05	1.2082e-05	542.74	4.8123e-07	4.633e-07	563.12	246.12	4.8108e-07	4.7483e-07	252.43	125.64	106.22	60.163	4.8314e-07	68.265	62.764	-34.139	-44.648	-136.203	-60.099	-20.811	-138.712	-131.260	-42.105	18.275	-134.463	-130.772	-128.124	-121.948	-49.992	-126.863	-8191	255	
2616.564	1	1	0	0	0.069448	0.12514	0.0096247	0.064127	0.055927	0.048588	0.2236	0.33151	0.10929	0.075694	0.10964	0.18609	0.25917	0.13462	0.18043	0.1908	-4.5104	-4.3167	-5.3083	-4.6438	-4.5729	-5.1771	-4.5479	-5.2042	-4.8	-4.5021	-5.3938	-4.6562	-4.7146	-5.2583	-4.3896	-5.1188	18.809	-32.761	91.532	-20.311	-27.872	-4.696	-122.918	164.557	-57.184	35.804	-146.499	-3.142	207.779	-106.674	35.415	123.225	0.0017984	0.00034029	9.5565e-05	573.64	4.6277e-06	2.3439e-06	586.64	260.86	4.2271e-06	3.0768e-06	274.93	137.94	115.89	64.892	3.4439e-06	75.498	5.6325e-05	4.3213e-05	1.1948e-05	543.87	4.8041e-07	4.7131e-07	564.23	246.56	4.8651e-07	4.7909e-07	255.42	126.87	106.76	60.577	4.8711e-07	69.143	68.994	-65.641	-69.396	-136.587	-40.321	12.998	-138.934	-131.462	-33.169	-24.207	-134.482	-130.940	-128.695	-121.939	-40.833	-126.845	-8191	255	
2616.660	1	1	0	0	0.086296	0.22193	0.15414	0.17786	0.20545	0.18215	0.20531	0.06967	0.24416	0.065414	0.1721	0.2265	0.073988	0.1971	0.13477	0.05879	-4.6708	-4.3417	-5.2312	-4.5354	-4.5646	-5.1333	-4.4167	-5.0146	-4.9083	-4.4333	-5.2792	-4.7729	-4.5354	-5.3562	-4.4646	-4.95	-47.033	-39.331	147.192	28.461	-129.088	110.042	159.425	-144.568	72.521	-82.565	147.093	138.460	205.216	-146.052	-62.650	179.585	0.0017434	0.00030059	0.00011094	573.56	4.3962e-06	2.7999e-06	590.58	263.25	4.5319e-06	2.1827e-06	281.37	140.14	117.76	65.206	4.057e-06	76.134	5.655e-05	4.4465e-05	1.1979e-05	544.16	4.7679e-07	4.7061e-07	569.98	249.15	4.722e-07	4.8585e-07	260.95	129.22	108.21	60.967	4.9415e-07	70.164	62.798	-32.959	-75.964	-136.756	-35.829	-62.611	-138.918	-131.380	-2.128	6.927	-134.735	-130.745	-128.448	-122.065	-23.506	-126.792	-8191	255	
2616.757	1	1	0	0	0.10711	0.10355	0.19317	0.10927	0.080808	0.10626	0.16088	0.21473	0.11118	0.20898	0.17122	0.30445	0.080144	0.20736	0.11773	0.036811	-4.7479	-4.3333	-5.1438	-4.6917	-4.5271	-5.2604	-4.5854	-4.9417	-5.0333	-4.1542	-5.3583	-4.8917	-4.3646	-5.4979	-4.5188	-4.9021	200.110	148.858	-80.755	155.290	26.560	-87.598	138.109	114.477	42.095	1.493	179.088	111.180	-137.190	-130.488	149.437	-14.291	0.0018931	0.00032641	9.422e-05	580.11	2.58e-06	3.7194e-06	594.53	264.18	6.4678e-06	4.5044e-06	278.98	137.72	117.01	64.384	4.6835e-06	74.81	5.6049e-05	4.3803e-05	1.2043e-05	550.17	4.8491e-07	4.699e-07	571.07	250.03	4.8373e-07	4.7512e-07	260.14	127.54	107.33	60.22	4.8654e-07	68.808	61.661	-47.221	-115.889	-136.918	-66.615	5.080	-139.201	-131.632	-16.448	5.460	-134.551	-131.093	-128.205	-122.061	-60.278	-127.080	-8191	255	
2616.853	1	1	0	0	0.064652	0.18652	0.049843	0.17463	0.2851	0.064486	0.067474	0.2546	0.23208	0.083495	0.23101	0.30603	0.15314	0.11637	0.14414	0.27701	-4.7708	-4.5021	-5.1562	-4.9354	-4.2667	-5.3146	-4.6083	-4.7917	-5.0687	-4.3354	-5.1292	-4.9062	-4.3063	-5.4354	-4.5875	-4.6083	-49.423	-117.461	-23.020	-22.744	130.691	27.077	208.461	106.384	-81.519	15.389	-136.241	197.558	189.915	-103.712	92.642	114.383	0.0018021	0.00045475	0.00015456	571.97	4.9053e-06	4.7837e-06	591.2	261.05	3.2895e-06	3.4709e-06	274.86	137.27	116.41	64.247	4.9638e-06	74.297	5.5419e-05	4.3611e-05	1.2195e-05	544.52	4.7707e-07	4.6568e-07	565.75	247.72	4.7826e-07	4.6638e-07	256	126.42	106.67	60.105	4.8406e-07	68.237	65.574	-71.281	-54.922	-136.731	-26.019	-31.212	-138.867	-131.504	-45.485	-1.905	-134.768	-130.735	-128.490	-122.285	-46.105	-127.003	-8191	255	
2616.972	1	1	0	0	0.12086	0.14347	0.14084	0.1157	0.22803	0.057404	0.16376	0.13604	0.24111	0.095649	0.072891	0.1176	0.2315	0.081562	0.14293	0.13144	-4.9167	-4.3833	-4.8167	-5.0083	-4.1583	-5.125	-4.7521	-4.5813	-5.2458	-4.475	-4.9313	-5.1458	-4.5312	-5.2854	-4.6833	-4.6208	-26.505	55.014	-126.007	104.461	-120.741	-6.077	-113.563	-93.671	-46.350	-8.952	155.696	100.237	169.065	152.649	-16.891	99.153	0.001905	6.8589e-05	0.00013223	572.81	1.1057e-06	3.6008e-06	588.08	261.25	4.6126e-06	2.7248e-06	273	135.8	115.28	63.951	3.3673e-06	73.903	5.5423e-05	4.4216e-05	1.214e-05	542.59	4.7958e-07	4.6258e-07	563.5	246.23	4.8865e-07	4.7909e-07	253.41	125.58	105.9	59.869	4.8946e-07	68.207	62.110	-74.114	-78.588	-137.162	-38.578	-14.072	-139.108	-131.700	4.626	-34.508	-135.109	-130.958	-128.573	-121.945	-23.602	-126.882	-8191	255	
2617.068	1	1	0	0	0.083433	0.17204	0.030547	0.060375	0.1267	0.2457	0.092762	0.0229	0.3475	0.25353	0.057007	0.125	0.2468	0.22845	0.17259	0.12631	-4.8479	-4.3875	-4.7354	-4.9812	-4.3521	-5.1083	-4.9854	-4.4187	-5.1562	-4.6083	-4.8458	-5.2021	-4.3896	-5.1937	-4.8958	-4.5583	-49.301	-58.555	-131.742	37.102	110.681	163.301	-65.795	101.847	44.479	97.274	-84.104	87.307	106.592	166.454	113.122	43.059	0.0017055	0.00036229	7.6267e-05	574.94	9.7501e-07	2.0624e-06	586.44	259.4	3.1125e-06	2.4912e-06	272.99	137.94	116.21	64.422	3.7448e-06	75.377	5.6395e-05	4.4763e-05	1.2424e-05	543.84	4.9791e-07	4.7166e-07	564.49	245.83	4.789e-07	4.6729e-07	254.86	126.78	106.63	60.3	4.9376e-07	69.286	62.045	-69.019	-69.063	-137.095	-24.805	-25.846	-139.188	-131.666	-97.520	-19.530	-134.646	-130.957	-128.441	-122.433	-38.123	-126.935	-8191	255	
2617.166	1	1	0	0	0.17529	0.074392	0.10551	0.14681	0.096692	0.30197	0.19317	0.32432	0.11773	0.098994	0.27715	0.20735	0.16768	0.13952	0.087759	0.2386	-5.0875	-4.4792	-4.5062	-5.3458	-4.2167	-4.8896	-4.9604	-4.4313	-5.1625	-4.6687	-4.6708	-5.2	-4.4208	-5.0667	-4.9417	-4.6375	196.541	-101.654	28.503	59.952	61.270	-21.377	154.613	97.465	137.921	109.172	-124.153	204.386	98.018	-46.352	-52.588	128.667	0.001995	0.00035289	0.00013366	572.25	4.8444e-06	3.7601e-06	590.84	260.84	5.7612e-06	5.0983e-06	275.21	137.71	116.1	64.516	4.3458e-06	74.252	5.7077e-05	4.3797e-05	1.2474e-05	543.81	4.95e-07	4.7622e-07	567.66	247.78	4.8766e-07	4.7323e-07	256.32	126.63	106.79	60.337	4.8608e-07	68.465	62.441	-37.532	-78.366	-137.162	-36.137	-7.124	-139.159	-131.602	2.235	-0.213	-134.942	-130.976	-128.528	-122.537	-41.867	-127.118	-8191	255	
2617.260	1	1	0	0	0.076693	0.1424	0.074016	0.17949	0.20673	0.13337	0.067959	0.11601	0.22427	0.27271	0.10125	0.12704	0.27095	0.22133	0.10251	0.22699	-4.9146	-4.7958	-4.375	-5.2646	-4.4729	-4.7833	-5.0813	-4.3771	-5.2646	-4.6896	-4.4542	-5.2792	-4.4604	-4.8313	-5.1562	-4.5604	-22.826	69.523	-4.408	-100.459	137.030	-28.207	-12.596	-134.446	-24.383	161.456	36.208	182.033	-136.346	171.448	-132.663	114.983	0.0017592	0.00026398	7.483e-05	571.28	2.0839e-06	3.624e-06	587.07	258.75	3.3414e-06	1.5298e-06	273.14	135.81	114.94	63.496	3.5991e-06	73.164	5.5437e-05	4.3296e-05	1.2183e-05	541.58	4.7241e-07	4.6843e-07	562.93	245.42	4.7625e-07	4.7225e-07	253.93	125.12	105.43	59.315	4.7988e-07	67.335	62.762	-53.988	-64.874	-136.650	-49.906	-27.445	-139.337	-131.716	-8.120	21.690	-134.836	-130.867	-128.528	-122.246	-59.173	-126.849	-8191	255	
2617.356	1	1	0	0	0.059118	0.043782	0.077766	0.19052	0.21815	0.2045	0.21024	0.098988	0.083969	0.12572	0.14259	0.075463	0.13476	0.05163	0.13265	0.17647	-4.8333	-4.7958	-4.3063	-5.2771	-4.55	-4.7667	-5.2542	-4.2875	-5.0917	-5.0583	-4.4521	-5.3854	-4.8229	-4.8146	-5.2625	-4.575	204.495	202.347	172.208	155.393	-74.360	-9.079	118.789	-128.141	-21.041	35.144	83.638	146.643	85.074	-51.733	178.552	149.846	0.0018856	0.00039135	5.0115e-05	568.87	2.9187e-06	2.5305e-06	587.11	261.14	6.0293e-06	2.9639e-06	276.51	137.49	115.53	64.128	3.7611e-06	74.781	5.6091e-05	4.3239e-05	1.2192e-05	540.39	4.7193e-07	4.817e-07	563.36	245.85	4.8881e-07	4.6075e-07	256.88	126.52	106.28	59.991	4.7944e-07	68.759	66.266	-58.189	-93.410	-136.963	-50.246	-6.798	-139.539	-131.718	-8.737	-23.744	-134.712	-130.965	-128.554	-122.193	-43.511	-126.978	-8191	255	
2617.452	1	1	0	0	0.20823	0.16278	0.16008	0.062297	0.11763	0.04006	0.050424	0.10784	0.079703	0.021848	0.14748	0.058558	0.20094	0.032323	0.046732	0.09624	-4.6333	-4.85	-4.3917	-5.2104	-4.5021	-4.6417	-5.2917	-4.5813	-4.9917	-4.9729	-4.3458	-5.2208	-4.8	-4.7625	-5.1813	-4.5292	-92.032	32.506	-1.014	14.708	-134.272	-139.936	119.170	23.358	-125.360	-13.512	125.963	201.381	-139.929	207.730	57.689	144.836	0.0018803	0.00044815	0.00012149	573.2	3.9636e-06	1.3249e-06	596.55	262.68	4.9558e-06	4.218e-06	283.14	138.78	116.06	63.959	4.3046e-06	74.53	5.6311e-05	4.2572e-05	1.2029e-05	543.75	4.774e-07	4.7351e-07	570.45	249.13	4.8142e-07	4.621e-07	261.68	128	106.72	60.008	4.859e-07	68.609	62.427	-40.959	-56.587	-136.959	-49.233	24.725	-139.135	-131.531	-2.159	-27.471	-134.827	-131.306	-128.124	-122.295	-45.114	-126.814	-8191	255	
2617.573	1	1	0	0	0.18511	0.1204	0.079569	0.18504	0.11047	0.41492	0.097908	0.17794	0.19282	0.078685	0.04903	0.13269	0.31667	0.29882	0.047182	0.02756	-4.5458	-4.9708	-4.3229	-5.2208	-4.6458	-4.4083	-5.3438	-4.4187	-4.6833	-5.2125	-4.3146	-5.1021	-4.9354	-4.6229	-5.2125	-4.5208	-130.174	186.240	23.266	-79.928	137.499	-141.436	91.093	84.063	36.589	144.904	172.032	155.567	190.420	-110.263	-60.034	104.546	0.0018981	0.00050573	8.8069e-05	571.61	3.3703e-06	2.5594e-06	592.98	260.81	3.2596e-06	3.1672e-06	277.07	137.26	115.34	63.494	6.1112e-06	73.717	5.5847e-05	4.2753e-05	1.2377e-05	543.57	4.8347e-07	4.7946e-07	569.86	247.85	4.8519e-07	4.6275e-07	258.14	126.38	106.11	59.53	4.8788e-07	67.796	66.491	-69.927	-82.632	-136.850	-32.115	-29.226	-139.282	-131.605	-58.315	-47.495	-135.145	-131.099	-128.825	-122.437	-82.268	-126.968	-8191	255	
2617.669	1	1	0	0	0.075028	0.1336	0.38737	0.21808	0.04552	0.15466	0.28934	0.06265	0.25249	0.088319	0.10702	0.10707	0.2009	0.30974	0.21251	0.01942	-4.3854	-5.1167	-4.1562	-5.1687	-4.8187	-4.5146	-5.3146	-4.5917	-4.6271	-5.0708	-4.375	-5.1813	-5.0417	-4.3542	-5.2604	-4.7188	-143.878	187.578	-59.324	62.463	0.012	150.561	156.476	-50.382	29.613	207.954	-124.869	205.325	208.127	148.074	62.532	3.997	0.0018742	0.00034082	0.00016	570.34	5.235e-06	3.0929e-06	586.93	260.47	5.7998e-06	1.9186e-06	272.91	136.06	115.06	63.571	4.7365e-06	73.554	5.677e-05	4.3123e-05	1.2254e-05	541.93	4.8088e-07	4.727e-07	563.06	246.61	4.8805e-07	4.6756e-07	254.41	125.32	105.71	59.565	4.8945e-07	67.416	61.898	-71.287	-42.663	-137.265	-25.386	-7.447	-139.657	-131.548	-25.894	-51.463	-134.534	-131.368	-128.545	-122.522	-39.075	-126.876	-8191	255	
2617.765	1	1	0	0	0.027138	0.13134	0.24544	0.059211	0.11471	0.14105	0.087654	0.0072773	0.13751	0.038216	0.089803	0.11763	0.17199	0.070278	0.12999	0.18953	-4.3208	-5.0417	-4.3271	-4.9771	-5.0375	-4.4688	-5.3729	-4.7917	-4.5896	-5.1146	-4.4271	-5.0229	-4.9583	-4.5146	-5.2521	-4.8313	-3.007	-134.117	-33.271	103.526	160.296	-21.413	-47.179	95.256	96.388	205.991	203.630	188.225	17.352	-130.055	193.617	117.960	0.0018911	0.00024538	0.00012505	567.96	2.9694e-06	3.9561e-06	582.31	257.92	7.3543e-06	1.5997e-06	269.82	134.68	113.95	63.154	3.614e-06	73.041	5.7002e-05	4.334e-05	1.2423e-05	539.85	4.7419e-07	4.7678e-07	561.64	244.19	4.8914e-07	4.7942e-07	251.08	124.05	104.77	59.131	4.9424e-07	67.121	60.349	-56.760	-65.694	-137.083	-12.992	-18.827	-139.292	-131.879	-53.276	-34.372	-134.893	-131.218	-128.391	-122.427	-55.751	-126.865	-8191	255	
2617.861	1	1	0	0	0.1718	0.048831	0.077932	0.084102	0.21477	0.22714	0.16909	0.087579	0.10045	0.11497	0.17104	0.13418	0.29209	0.10412	0.13518	0.082494	-4.0604	-5.0813	-4.2188	-4.9333	-5.1021	-4.0604	-5.1833	-4.8896	-4.3646	-5.2104	-4.6687	-4.7562	-5.1375	-4.3521	-5.1167	-5.0333	-76.602	191.119	0.945	40.747	106.478	139.028	2.677	-27.514	-106.515	87.733	119.922	124.464	195.312	-74.793	200.007	200.201	0.0017002	0.00017511	0.0001285	564.96	3.9539e-06	3.7416e-06	582.53	257.34	6.0181e-06	4.1922e-06	275.56	136.29	114.56	63.682	3.8165e-06	74.298	5.6889e-05	4.219e-05	1.2243e-05	537.32	4.7585e-07	4.7667e-07	560.45	243.78	4.8695e-07	4.699e-07	254.36	125.46	105.4	59.634	4.8485e-07	68.38	56.402	-55.185	-72.321	-137.053	-19.743	-10.036	-139.511	-131.853	-2.756	-3.113	-134.760	-131.167	-128.353	-122.365	-49.303	-126.858	-8191	255	
#DATA ENDS
