BOXY.EXE: ISS Imagent and Oximeter Data Acquisition Program Version 0.80
Ascii Record File

#ACQ INFORMATION
2  Detector Channels 
16  External MUX Channels 
1  Auxiliary Channels 
5000  Waveform (CCF) Frequency (Hz)
1  Waveforms Skipped 
30  Waveforms Averaged 
1  Cycles Averaged 
16  Acquisitions per Waveform 
10.0806  Updata Rate (Hz) 

#FILE INFORMATION
TRUE -- External MUX Channel results are PARSED.
FALSE -- AC DC and Phase are NOT grouped.
TRUE -- Companion Program Settings File CREATED.
FALSE -- AC data not excluded
FALSE -- DC data not excluded
FALSE -- Phase data not excluded
FALSE -- Auxillary Chn. data not excluded
Tab delimiters

#CALIBRATION STATE
TRUE -- Waveform Calibration Values APPLIED.


#AUX CALIBRATION VALUES
Val Type	aux-1	

Term	1.0000e+00	
Factor	0.0000e+00	


#WF CALIBRATION VALUES
A = Detector Channel
Val Type	A-AC1	A-AC2	A-AC3	A-AC4	A-AC5	A-AC6	A-AC7	A-AC8	A-AC9	A-AC10	A-AC11	A-AC12	A-AC13	A-AC14	A-AC15	A-AC16	A-DC1	A-DC2	A-DC3	A-DC4	A-DC5	A-DC6	A-DC7	A-DC8	A-DC9	A-DC10	A-DC11	A-DC12	A-DC13	A-DC14	A-DC15	A-DC16	A-Ph1	A-Ph2	A-Ph3	A-Ph4	A-Ph5	A-Ph6	A-Ph7	A-Ph8	A-Ph9	A-Ph10	A-Ph11	A-Ph12	A-Ph13	A-Ph14	A-Ph15	A-Ph16	

Term	0.00000e+00	0.00000e+00	0.00000e+00	0.00000e+00	0.00000e+00	0.00000e+00	0.00000e+00	0.00000e+00	0.00000e+00	0.00000e+00	0.00000e+00	0.00000e+00	0.00000e+00	0.00000e+00	0.00000e+00	0.00000e+00	0.00000e+00	0.00000e+00	0.00000e+00	0.00000e+00	0.00000e+00	0.00000e+00	0.00000e+00	0.00000e+00	0.00000e+00	0.00000e+00	0.00000e+00	0.00000e+00	0.00000e+00	0.00000e+00	0.00000e+00	0.00000e+00	0.00000e+00	0.00000e+00	0.00000e+00	0.00000e+00	0.00000e+00	0.00000e+00	0.00000e+00	0.00000e+00	0.00000e+00	0.00000e+00	0.00000e+00	0.00000e+00	0.00000e+00	0.00000e+00	0.00000e+00	0.00000e+00	
Factor	1.00000e+00	1.00000e+00	1.00000e+00	1.00000e+00	1.00000e+00	1.00000e+00	1.00000e+00	1.00000e+00	1.00000e+00	1.00000e+00	1.00000e+00	1.00000e+00	1.00000e+00	1.00000e+00	1.00000e+00	1.00000e+00	1.00000e+00	1.00000e+00	1.00000e+00	1.00000e+00	1.00000e+00	1.00000e+00	1.00000e+00	1.00000e+00	1.00000e+00	1.00000e+00	1.00000e+00	1.00000e+00	1.00000e+00	1.00000e+00	1.00000e+00	1.00000e+00	X	X	X	X	X	X	X	X	X	X	X	X	X	X	X	X	

B = Detector Channel
Val Type	B-AC1	B-AC2	B-AC3	B-AC4	B-AC5	B-AC6	B-AC7	B-AC8	B-AC9	B-AC10	B-AC11	B-AC12	B-AC13	B-AC14	B-AC15	B-AC16	B-DC1	B-DC2	B-DC3	B-DC4	B-DC5	B-DC6	B-DC7	B-DC8	B-DC9	B-DC10	B-DC11	B-DC12	B-DC13	B-DC14	B-DC15	B-DC16	B-Ph1	B-Ph2	B-Ph3	B-Ph4	B-Ph5	B-Ph6	B-Ph7	B-Ph8	B-Ph9	B-Ph10	B-Ph11	B-Ph12	B-Ph13	B-Ph14	B-Ph15	B-Ph16	

Term	0.00000e+00	0.00000e+00	0.00000e+00	0.00000e+00	0.00000e+00	0.00000e+00	0.00000e+00	0.00000e+00	0.00000e+00	0.00000e+00	0.00000e+00	0.00000e+00	0.00000e+00	0.00000e+00	0.00000e+00	0.00000e+00	0.00000e+00	0.00000e+00	0.00000e+00	0.00000e+00	0.00000e+00	0.00000e+00	0.00000e+00	0.00000e+00	0.00000e+00	0.00000e+00	0.00000e+00	0.00000e+00	0.00000e+00	0.00000e+00	0.00000e+00	0.00000e+00	5.06194e+01	-1.29438e+02	-1.31290e+02	-1.83563e+02	-6.55746e+01	-6.95186e+01	-1.58231e+02	-1.62015e+02	-5.78124e+01	-7.32865e+01	-1.70600e+02	-1.70833e+02	-1.78671e+02	-1.76838e+02	-6.47668e+01	-1.49876e+02	
Factor	6.06753e-05	1.77433e-04	4.50731e-05	1.61896e-01	2.38399e-06	1.84020e-06	1.81550e-01	5.88728e-02	2.84769e-06	1.77999e-06	1.01125e-01	3.33508e-02	3.05324e-02	1.05122e-02	2.09870e-06	1.49555e-02	1.12874e-05	1.48015e-05	4.16755e-06	7.72785e-02	1.51997e-07	1.66052e-07	8.13358e-02	2.81645e-02	1.53049e-07	1.66029e-07	4.70097e-02	1.54312e-02	1.47354e-02	5.07175e-03	1.59162e-07	7.00736e-03	X	X	X	X	X	X	X	X	X	X	X	X	X	X	X	X	



#DISTANCE SETTINGS
A = Detector Channel
A-1	A-2	A-3	A-4	A-5	A-6	A-7	A-8	A-9	A-10	A-11	A-12	A-13	A-14	A-15	A-16	

2.5000e+00	3.0000e+00	2.5000e+00	3.0000e+00	2.0000e+00	3.0000e+00	1.5000e+00	3.0000e+00	3.0000e+00	3.0000e+00	3.0000e+00	3.0000e+00	3.0000e+00	3.0000e+00	1.5000e+00	3.0000e+00	

B = Detector Channel
B-1	B-2	B-3	B-4	B-5	B-6	B-7	B-8	B-9	B-10	B-11	B-12	B-13	B-14	B-15	B-16	

1.0000e+01	1.0000e+01	1.0000e+01	1.4400e+00	1.0000e+01	1.0000e+01	1.5100e+00	1.9400e+00	1.0000e+01	1.0000e+01	1.9900e+00	2.4900e+00	2.4100e+00	2.9000e+00	1.0000e+01	2.9800e+00	




#DATA BEGINS
time	group	step	mark	flag	A-AC1	A-AC2	A-AC3	A-AC4	A-AC5	A-AC6	A-AC7	A-AC8	A-AC9	A-AC10	A-AC11	A-AC12	A-AC13	A-AC14	A-AC15	A-AC16	A-DC1	A-DC2	A-DC3	A-DC4	A-DC5	A-DC6	A-DC7	A-DC8	A-DC9	A-DC10	A-DC11	A-DC12	A-DC13	A-DC14	A-DC15	A-DC16	A-Ph1	A-Ph2	A-Ph3	A-Ph4	A-Ph5	A-Ph6	A-Ph7	A-Ph8	A-Ph9	A-Ph10	A-Ph11	A-Ph12	A-Ph13	A-Ph14	A-Ph15	A-Ph16	B-AC1	B-AC2	B-AC3	B-AC4	B-AC5	B-AC6	B-AC7	B-AC8	B-AC9	B-AC10	B-AC11	B-AC12	B-AC13	B-AC14	B-AC15	B-AC16	B-DC1	B-DC2	B-DC3	B-DC4	B-DC5	B-DC6	B-DC7	B-DC8	B-DC9	B-DC10	B-DC11	B-DC12	B-DC13	B-DC14	B-DC15	B-DC16	B-Ph1	B-Ph2	B-Ph3	B-Ph4	B-Ph5	B-Ph6	B-Ph7	B-Ph8	B-Ph9	B-Ph10	B-Ph11	B-Ph12	B-Ph13	B-Ph14	B-Ph15	B-Ph16	aux-1	digaux	

46614.070	1	1	0	256	0.090777	0.18394	0.046895	0.23138	0.042349	0.10605	0.15593	0.28596	0.066957	0.1211	0.14545	0.053798	0.14588	0.19861	0.14237	0.10953	-4.2729	-3.9833	-4.675	-4.35	-4.0875	-4.8208	-4.1312	-4.3979	-4.6208	-3.9958	-4.9563	-4.4437	-4.0542	-4.9896	-4.1146	-4.6167	233.208	53.750	173.721	149.864	179.134	-57.860	192.749	236.137	197.349	-2.927	235.214	111.581	198.983	-48.236	20.831	244.855	0.0013203	0.00060067	0.00020317	480.81	8.0394e-06	3.197e-06	683.02	224.83	8.853e-06	5.2966e-06	340.25	176.06	107.02	55.311	7.7749e-06	105.08	0.0011889	0.0012113	0.00033992	474.7	1.2413e-05	1.3442e-05	672.54	222.99	1.246e-05	1.3398e-05	338.09	175.03	107.24	55.746	1.3302e-05	105.39	9.762	-12.680	-11.027	-88.387	71.855	51.295	-88.566	-82.757	47.316	44.666	-83.671	-78.397	-78.086	-72.470	65.115	-74.442	-8191	255	
46614.191	1	1	0	0	0.36296	0.15102	0.11572	0.046348	0.1119	0.19905	0.14779	0.15725	0.10172	0.14489	0.06647	0.15853	0.093297	0.22554	0.18062	0.38299	-4.3	-3.9521	-4.7146	-4.4521	-4.0062	-4.9792	-4.4125	-4.2979	-4.7083	-3.9208	-4.6292	-4.6979	-4.2042	-4.8771	-4.1188	-4.3396	94.382	219.287	8.043	32.867	83.719	0.298	174.229	-82.515	6.619	57.303	-18.554	104.277	-54.941	129.373	-60.486	161.211	0.0013306	0.0006427	0.00013803	481.71	7.9569e-06	7.0654e-06	681.11	224.44	7.099e-06	3.2373e-06	339.18	175.41	107.07	55.502	6.6336e-06	104.82	0.0011716	0.0012073	0.00033448	475.73	1.2195e-05	1.3394e-05	673.09	222.94	1.2494e-05	1.3498e-05	336.96	174.67	107.04	55.68	1.301e-05	105.04	10.442	-3.758	-19.876	-88.058	43.903	48.213	-88.462	-82.772	47.412	36.557	-83.649	-78.286	-78.126	-72.562	42.320	-74.284	-8191	255	
46614.289	1	1	0	0	0.10987	0.19129	0.10873	0.060251	0.10197	0.13327	0.28417	0.2516	0.16942	0.16265	0.17296	0.13592	0.2365	0.25856	0.076087	0.26619	-4.4521	-3.8958	-4.5938	-4.5958	-3.8646	-4.7833	-4.3542	-4.1458	-4.7833	-3.95	-4.5292	-4.6771	-3.8854	-5.0292	-4.2208	-4.3229	-37.325	-85.511	-27.896	-36.001	203.203	64.588	188.807	-99.255	-23.944	112.679	16.587	227.773	238.304	-87.582	149.874	215.886	0.0013639	0.0004903	0.00013551	483.73	5.314e-06	5.8107e-06	682.22	223.95	7.5906e-06	6.3877e-06	339.09	175.57	106.86	55.458	6.6747e-06	104.66	0.0011717	0.0011859	0.00033658	475.7	1.2183e-05	1.3136e-05	671.05	222.21	1.2446e-05	1.3188e-05	336.32	174.2	106.9	55.617	1.2882e-05	104.91	11.123	0.639	-14.563	-88.093	44.836	64.328	-88.383	-82.732	51.575	50.891	-84.011	-78.741	-77.918	-72.398	56.124	-74.541	-8191	255	
46614.383	1	1	0	0	0.05437	0.18686	0.11527	0.031845	0.23684	0.095882	0.14164	0.20208	0.22816	0.10388	0.10786	0.048497	0.32154	0.091915	0.063772	0.40881	-4.6625	-4.2208	-4.3479	-4.8104	-3.7917	-4.6604	-4.4542	-4.1312	-4.8396	-3.775	-4.4437	-4.8646	-3.8042	-4.7917	-4.5229	-4.1292	247.164	-66.604	36.994	228.456	130.863	-81.771	194.307	-84.445	26.999	-73.998	-67.055	-79.044	210.432	166.642	194.359	208.883	0.0013355	0.00046333	0.00022984	482.05	5.1825e-06	6.3014e-06	681.09	224.59	7.4039e-06	6.0249e-06	338.83	174.84	106.84	55.009	6.3856e-06	104.27	0.0011727	0.0011772	0.00032629	474.68	1.2195e-05	1.3044e-05	671.4	222.29	1.2425e-05	1.3047e-05	336.46	173.95	106.67	55.38	1.2719e-05	104.58	11.212	-5.046	-1.538	-88.272	53.465	73.961	-88.330	-82.784	38.822	24.093	-83.769	-78.536	-77.890	-72.578	45.522	-74.361	-8191	255	
46614.480	1	1	0	0	0.20073	0.19387	0.19253	0.28121	0.053764	0.21317	0.053728	0.10481	0.039289	0.23246	0.19457	0.18155	0.35567	0.11117	0.11865	0.18006	-4.8187	-4.0833	-4.1333	-4.6771	-3.7708	-4.6167	-4.6833	-3.8208	-4.7229	-4.1917	-4.3021	-4.8396	-4.0563	-4.6958	-4.6521	-4.1208	195.890	57.946	-37.617	25.476	-13.752	-100.456	86.651	133.318	210.506	171.240	240.453	158.312	-37.755	-5.519	105.390	219.292	0.0013583	0.00050506	0.00016626	480.86	6.4315e-06	7.3287e-06	682.32	224.33	8.6229e-06	6.5169e-06	337.95	173.78	106.23	54.866	7.7445e-06	104.02	0.0011665	0.0011752	0.00032554	474.53	1.2098e-05	1.3112e-05	671.08	222.16	1.2186e-05	1.3258e-05	335.96	173.49	106.35	55.091	1.2572e-05	104.11	7.290	-29.842	-7.334	-88.101	45.623	44.863	-88.460	-82.940	67.875	51.016	-83.647	-78.552	-77.961	-72.716	56.565	-74.399	-8191	255	
46614.574	1	1	0	0	0.020586	0.12667	0.12457	0.064859	0.37999	0.22192	0.097166	0.14655	0.26002	0.1127	0.12426	0.20509	0.28387	0.24756	0.16618	0.19163	-4.4458	-4.2292	-4.1271	-4.9292	-4.0271	-4.4771	-4.7125	-3.8625	-4.6833	-4.2396	-4.2167	-4.9667	-3.8875	-4.5125	-4.8	-4.0042	17.734	28.625	150.883	-87.242	113.880	-0.123	-97.477	-67.354	-28.914	243.160	141.413	114.759	108.780	-70.739	248.289	202.280	0.0013163	0.00077159	0.00018829	478.63	9.0413e-06	5.5521e-06	677.16	222.91	6.9017e-06	6.7009e-06	337.1	174.72	106.38	54.988	5.7738e-06	104.13	0.0011789	0.0011643	0.00032487	472.57	1.2207e-05	1.3059e-05	669.81	221.31	1.2266e-05	1.3128e-05	335.27	173.42	106.21	55.2	1.2774e-05	104.38	8.102	1.826	-32.922	-88.027	49.903	46.320	-88.377	-82.961	53.747	23.528	-83.757	-78.650	-77.978	-72.522	54.040	-74.277	-8191	255	
46614.672	1	1	0	0	0.12438	0.010886	0.093981	0.19483	0.11116	0.081442	0.09159	0.12867	0.13041	0.19411	0.19454	0.14256	0.17311	0.17112	0.053044	0.035461	-4.5583	-4.4062	-3.9354	-4.7937	-4.0563	-4.3104	-4.8792	-4.1396	-4.75	-4.5167	-4.1667	-4.9437	-4.175	-4.3	-4.95	-4.1312	79.726	-49.458	115.586	56.549	142.056	-19.255	52.669	37.083	-13.189	61.934	-60.746	47.463	-89.601	220.304	217.775	-54.668	0.0013094	0.0007983	0.00019667	479.97	7.9916e-06	9.5339e-06	678.91	223.15	5.4083e-06	6.4727e-06	336.41	173.6	106.16	54.744	5.5145e-06	103.7	0.0011654	0.0011623	0.00032275	474.15	1.2253e-05	1.3049e-05	669.92	221.36	1.2023e-05	1.2767e-05	334.71	172.88	106.23	55.019	1.2505e-05	103.95	14.267	0.457	-18.236	-88.381	40.787	42.131	-88.589	-82.935	56.798	43.832	-83.875	-78.551	-78.039	-72.654	67.381	-74.372	-8191	255	
46614.793	1	1	0	0	0.13584	0.067168	0.18936	0.06251	0.21623	0.1644	0.29113	0.1427	0.23478	0.086434	0.15202	0.30434	0.12182	0.062762	0.13913	0.095505	-4.325	-4.4646	-3.9125	-5.0125	-4.1813	-4.1375	-4.8625	-3.8667	-4.6875	-4.5417	-4.0521	-4.8812	-4.3271	-4.2396	-4.8292	-4.1667	207.780	-29.216	58.598	232.790	39.851	192.129	195.418	249.894	176.379	43.283	186.362	-93.422	214.203	172.736	-0.193	-78.249	0.0013808	0.000749	0.00014915	479.57	5.0723e-06	6.5638e-06	679.43	222.45	6.133e-06	7.3488e-06	336.65	173.48	105.91	54.804	4.5598e-06	103.64	0.0011376	0.0011138	0.00031637	473.98	1.1637e-05	1.2448e-05	669.37	221	1.1747e-05	1.2531e-05	334.67	172.78	106.13	54.97	1.2319e-05	104.11	12.150	-26.151	-14.818	-88.207	36.596	52.724	-88.495	-82.754	59.871	46.154	-83.654	-78.569	-78.042	-72.561	46.897	-74.399	-8191	255	
46614.887	1	1	0	0	0.25488	0.13989	0.092489	0.17442	0.0776	0.055533	0.12356	0.1307	0.14018	0.12984	0.31082	0.13118	0.15334	0.20745	0.13913	0.13761	-4.0813	-4.6979	-4.0208	-4.7604	-4.2208	-4.0271	-5.0563	-3.9688	-4.2771	-4.7146	-4.0687	-4.7708	-4.4125	-4.0896	-4.8958	-4.1562	-58.330	167.972	244.634	187.004	206.724	171.613	175.551	170.422	60.142	-70.419	193.754	-87.369	63.790	252.875	36.919	149.307	0.0014477	0.00065091	0.00010138	480.28	4.9505e-06	6.602e-06	680.25	224.13	6.2613e-06	5.2664e-06	336.94	174.71	106.45	54.763	6.7269e-06	103.61	0.0011194	0.0011249	0.00031966	474.14	1.1718e-05	1.2754e-05	669.04	221.44	1.1894e-05	1.2637e-05	335.61	173.28	106.23	54.985	1.2523e-05	103.99	12.190	-23.030	-7.260	-88.194	25.153	47.019	-88.289	-82.768	50.707	30.591	-83.690	-78.535	-77.905	-72.688	36.594	-74.131	-8191	255	
46614.961	1	1	0	0	0.15376	0.12136	0.068376	0.088883	0.090691	0.070686	0.14731	0.1569	0.23933	0.030513	0.13305	0.18841	0.2677	0.19144	0.15232	0.073594	-4.0938	-4.6479	-3.9896	-4.6771	-4.3917	-3.9208	-4.8479	-3.9625	-4.0458	-4.8604	-3.8688	-4.7792	-4.6188	-4.1604	-5.0813	-4.4667	187.968	139.114	124.313	1.583	257.255	-57.475	47.595	142.628	131.505	107.986	122.852	-92.576	203.115	-93.086	31.961	228.903	0.0013603	0.00057197	0.00019617	480.62	7.5394e-06	7.723e-06	679.79	222.75	8.0152e-06	7.3945e-06	336.32	173.12	105.97	54.361	6.127e-06	103.22	0.0011262	0.0011434	0.00032318	474.23	1.1862e-05	1.2749e-05	671.27	221.23	1.2039e-05	1.2816e-05	335.69	173.12	106.21	54.717	1.2596e-05	103.8	13.625	-29.856	-26.175	-87.816	44.469	48.023	-88.311	-82.857	23.321	69.964	-83.511	-78.285	-77.658	-72.510	34.065	-74.073	-8191	255	
46615.055	1	1	0	0	0.074369	0.20554	0.18187	0.074301	0.18883	0.068402	0.05965	0.07652	0.10224	0.29428	0.29206	0.23882	0.14033	0.094775	0.077595	0.29147	-3.875	-4.9521	-3.9229	-4.725	-4.6125	-3.9667	-4.85	-4.4021	-4.0333	-4.8708	-3.9604	-4.6354	-4.9375	-4.0188	-4.7042	-4.6	75.461	191.743	147.754	-91.505	-31.282	216.550	201.689	-86.994	148.674	-73.151	158.367	259.259	154.114	252.774	-20.992	172.117	0.0013828	0.00053012	9.8303e-05	479.42	5.4654e-06	7.0364e-06	680.26	222.88	9.6623e-06	5.8419e-06	336.51	173.68	105.63	54.49	5.1861e-06	103.06	0.0011499	0.001142	0.00032237	473.77	1.1666e-05	1.2812e-05	670.7	221.36	1.2034e-05	1.2669e-05	335.77	172.96	105.94	54.823	1.2786e-05	103.53	9.681	-15.453	-5.546	-88.086	54.703	43.181	-88.344	-82.610	25.093	41.895	-83.652	-78.548	-77.886	-72.325	26.879	-74.001	-8191	255	
46615.176	1	1	0	0	0.043716	0.079428	0.054844	0.10152	0.13462	0.20849	0.1035	0.15895	0.19628	0.21939	0.10367	0.20098	0.15834	0.18106	0.042808	0.22024	-3.7625	-4.9563	-4.025	-4.2521	-4.7729	-3.7438	-4.7667	-4.4021	-3.8937	-5.0167	-4.175	-4.375	-4.825	-4.05	-4.6813	-4.6271	21.029	-62.897	91.359	209.211	156.902	118.338	235.787	207.290	25.171	243.204	138.559	224.706	-78.870	-22.770	70.424	222.250	0.001402	0.00038955	0.00016066	478.1	6.6379e-06	5.3296e-06	679.44	223.03	5.4946e-06	3.7993e-06	334.5	173.81	105.84	54.291	5.503e-06	103.2	0.0011349	0.0011479	0.00032576	473.06	1.1906e-05	1.3001e-05	669.83	221.09	1.2191e-05	1.2932e-05	334.33	172.73	106.16	54.607	1.2796e-05	103.55	15.037	-4.533	-2.614	-87.954	47.669	62.964	-88.284	-82.644	63.553	51.952	-83.505	-78.404	-77.703	-72.576	22.056	-73.973	-8191	255	
46615.273	1	1	0	0	0.15843	0.075427	0.31403	0.20134	0.15706	0.13052	0.18447	0.27568	0.20227	0.099376	0.28696	0.14912	0.25848	0.12688	0.063835	0.2029	-3.7125	-4.7646	-4.0625	-4.1833	-4.9375	-3.9083	-4.9062	-4.55	-3.8896	-4.9104	-4.2667	-4.2146	-4.9083	-4.0167	-4.5979	-4.6729	167.742	201.690	-21.021	240.333	30.033	-46.090	117.211	239.058	206.289	-77.596	143.043	-96.398	201.475	-43.705	238.408	166.938	0.0012362	0.00034187	0.00016078	478.86	7.5966e-06	8.4265e-06	677.87	222.03	6.4765e-06	7.966e-06	337.75	174.02	106.06	54.724	3.9549e-06	103.6	0.0011564	0.001167	0.00032427	473.17	1.2067e-05	1.3191e-05	669.53	220.91	1.2185e-05	1.3205e-05	336	173.27	106.26	54.983	1.2795e-05	104.08	13.908	-31.732	-23.377	-88.037	51.557	33.052	-88.334	-82.599	86.571	27.761	-83.503	-78.537	-77.785	-72.419	26.120	-74.183	-8191	255	
46615.367	1	1	0	0	0.11624	0.11702	0.14526	0.054164	0.082465	0.21981	0.21877	0.16616	0.14134	0.13837	0.15676	0.27464	0.27512	0.11853	0.011173	0.18101	-3.4917	-4.7521	-4.2812	-4.0625	-4.9187	-3.9104	-4.4583	-4.8625	-3.825	-4.8417	-4.5167	-4.15	-4.9812	-4.2188	-4.4417	-4.8104	136.416	238.177	-90.228	12.552	167.822	-18.719	183.294	139.711	-86.255	64.866	232.143	116.115	200.755	-24.299	-30.173	228.053	0.001356	0.00032633	0.00019171	480.36	6.1434e-06	6.1448e-06	683.9	221.66	8.2131e-06	4.5195e-06	339.28	174.2	105.86	54.832	4.9647e-06	104.34	0.0011604	0.0011721	0.00032987	474.23	1.1977e-05	1.3216e-05	671.57	221.36	1.2286e-05	1.3077e-05	337.13	173.62	106.35	55.161	1.2902e-05	104.51	14.377	-27.817	-24.214	-88.202	39.014	25.291	-88.495	-82.754	37.637	82.967	-83.494	-78.587	-77.776	-72.411	29.859	-74.123	-8191	255	
46615.465	1	1	0	0	0.044565	0.19191	0.15685	0.14842	0.21483	0.28781	0.11595	0.20302	0.11342	0.14464	0.16196	0.13005	0.15264	0.0327	0.33389	0.25096	-3.5708	-4.5229	-4.3729	-4.0083	-4.8104	-4.1042	-4.4479	-4.8375	-4.0583	-4.6062	-4.7104	-3.9896	-4.9667	-4.3583	-4.1562	-5.0062	173.857	-31.264	-11.705	219.765	234.650	24.760	241.508	215.943	88.181	222.736	217.144	252.109	227.800	-18.868	115.172	215.688	0.0013156	0.00058859	0.00015593	480.42	7.8196e-06	4.9231e-06	682	224	7.1725e-06	5.9488e-06	339.13	174.11	106.46	54.788	7.247e-06	103.71	0.0011704	0.0011571	0.00032805	474.6	1.2162e-05	1.3007e-05	671.65	221.9	1.2184e-05	1.2825e-05	336.89	173.78	106.39	55.135	1.2859e-05	104.21	8.580	-6.393	-9.979	-88.026	54.426	18.268	-88.283	-82.859	63.104	10.996	-83.340	-78.287	-77.818	-72.271	62.674	-74.158	-8191	255	
46615.559	1	1	0	0	0.13328	0.13114	0.15375	0.1506	0.085941	0.30188	0.17198	0.16053	0.1779	0.32315	0.09057	0.14874	0.20981	0.3269	0.20165	0.22347	-3.5521	-4.4792	-4.6417	-3.9	-4.8479	-4.3313	-4.1083	-4.7417	-3.7646	-4.4833	-4.5542	-3.9229	-4.8875	-4.2646	-4.1458	-4.9812	75.144	-41.394	177.438	200.884	-23.605	199.865	119.102	200.420	-99.350	220.498	228.558	-57.516	-56.370	232.989	199.293	159.744	0.0013587	0.00067939	0.00016409	480.55	6.7338e-06	3.5018e-06	678.31	222.6	6.0942e-06	6.122e-06	338.75	173.61	106.3	54.492	5.7639e-06	103.62	0.0011567	0.0011772	0.00032843	473.83	1.2241e-05	1.3252e-05	669.71	221.24	1.2491e-05	1.3386e-05	336.35	173.12	106.57	54.988	1.3239e-05	104.1	15.244	-20.401	11.020	-88.216	35.685	57.695	-88.274	-82.531	84.418	23.896	-83.372	-78.380	-77.846	-72.413	49.272	-74.088	-8191	255	
46615.656	1	1	0	0	0.17439	0.14962	0.18057	0.17397	0.16743	0.17909	0.24922	0.19055	0.21638	0.23713	0.14358	0.25806	0.016022	0.038024	0.0080944	0.13072	-3.6771	-4.3	-4.6646	-3.8187	-4.8063	-4.3812	-3.9708	-4.9563	-4.1333	-4.3438	-4.9083	-4.0625	-4.8938	-4.4958	-3.9667	-5.125	156.715	234.527	152.863	-77.614	-5.894	124.118	138.076	-85.033	218.263	192.458	10.221	236.554	0.470	102.990	-54.213	141.105	0.0012697	0.00054846	0.00015151	476.25	8.6701e-06	9.6765e-06	677.91	222.79	1.0199e-05	5.9304e-06	337.31	174.06	106.32	54.686	5.8749e-06	104.02	0.0011953	0.0012311	0.00034635	471.9	1.2821e-05	1.3808e-05	668.52	221.36	1.291e-05	1.3678e-05	336.48	173.57	106.58	55.181	1.3461e-05	104.41	8.257	-9.107	-9.094	-88.190	58.141	36.597	-88.165	-82.715	44.783	38.312	-83.617	-78.388	-77.885	-72.446	31.060	-74.073	-8191	255	
46615.754	1	1	0	0	0.17622	0.024893	0.26798	0.10633	0.056749	0.048095	0.25389	0.085638	0.16277	0.073126	0.049399	0.053071	0.14186	0.044519	0.069508	0.20141	-3.5917	-4.3375	-4.9354	-3.8854	-4.4646	-4.4542	-4.1583	-4.8604	-4.0125	-4.0938	-4.8208	-3.9208	-4.6188	-4.7042	-3.8438	-5.0708	45.950	-98.923	243.734	-37.951	65.920	213.036	170.729	-69.861	119.956	194.926	195.556	-56.335	259.194	158.792	-44.172	166.334	0.0013952	0.00043246	0.00019042	477.06	6.1743e-06	8.8758e-06	677.16	221.95	6.8344e-06	6.002e-06	337.8	174.08	106.22	55.096	4.8322e-06	104.22	0.0012119	0.001211	0.0003411	472.35	1.2645e-05	1.3591e-05	668.57	220.99	1.2718e-05	1.3422e-05	336.52	173.9	106.68	55.443	1.3168e-05	104.94	12.554	-20.083	-7.832	-88.220	47.554	65.891	-88.207	-82.712	38.773	25.616	-83.415	-78.366	-77.691	-72.331	84.693	-74.117	-8191	255	
46615.871	1	1	0	0	0.090656	0.13389	0.13685	0.041309	0.27074	0.19077	0.079686	0.071748	0.34102	0.26007	0.078344	0.04411	0.089354	0.10826	0.084747	0.23022	-3.9979	-4.2042	-4.8812	-4.0083	-4.3438	-4.675	-4.025	-4.9542	-4.1542	-3.9604	-4.8375	-4.075	-4.5042	-4.8604	-3.8083	-4.9521	-13.012	-72.883	-50.378	-77.876	97.491	122.329	219.643	229.282	216.091	-88.603	38.869	8.708	-84.563	-50.129	-53.217	207.352	0.0014086	0.00051722	0.00011463	476.59	5.6713e-06	4.7383e-06	674.94	222.21	6.3978e-06	4.1544e-06	337.07	173.19	105.74	55.045	5.8559e-06	103.87	0.0011899	0.0012005	0.00033575	472.38	1.2345e-05	1.335e-05	667.67	220.8	1.2432e-05	1.3403e-05	335.73	173.24	106.27	55.394	1.3238e-05	104.62	11.911	-14.103	-37.843	-87.866	46.910	20.402	-88.103	-82.746	41.794	69.980	-83.662	-78.311	-77.985	-72.377	48.431	-74.202	-8191	255	
46615.969	1	1	0	0	0.096905	0.069524	0.1383	0.33471	0.090686	0.14482	0.24619	0.069755	0.080683	0.11575	0.18267	0.2215	0.37658	0.025648	0.17781	0.1666	-3.9938	-3.9333	-4.9146	-4.1021	-4.2979	-4.7229	-4.0229	-4.825	-4.5021	-3.7687	-4.9021	-4.0771	-4.3625	-4.8	-3.8729	-4.8812	253.273	-65.136	225.264	-99.878	204.183	-47.046	208.193	15.649	-89.640	-61.361	221.552	226.508	-93.588	179.595	41.606	152.589	0.0013748	0.00066722	0.00018425	476.55	3.2162e-06	5.8777e-06	674.9	220.55	5.467e-06	4.8483e-06	336.21	173.23	105.96	54.914	4.2158e-06	103.82	0.0011655	0.001197	0.00033307	470.91	1.2334e-05	1.292e-05	664.96	220.05	1.218e-05	1.3056e-05	335.03	172.93	106.18	55.263	1.2778e-05	104.37	9.663	-1.770	-26.374	-88.092	48.711	36.184	-88.119	-82.758	88.344	53.060	-83.542	-78.407	-77.786	-72.345	39.510	-74.079	-8191	255	
46616.062	1	1	0	0	0.2557	0.046854	0.060795	0.036537	0.048079	0.16364	0.17119	0.11537	0.16481	0.15461	0.25923	0.11207	0.17796	0.19573	0.13395	0.074176	-4.1896	-3.6771	-4.9479	-4.2396	-4.3063	-4.8938	-4.1833	-4.7521	-4.5583	-3.9875	-4.8313	-4.35	-4.3521	-4.9583	-3.8542	-4.5708	-10.821	251.435	-13.809	64.131	166.063	-15.951	244.018	-12.834	231.396	23.274	226.396	-54.485	183.539	-72.001	230.928	109.338	0.0013018	0.00030516	5.9421e-05	474.23	8.9066e-06	5.0389e-06	673.51	221.14	5.9172e-06	5.3409e-06	334.85	172.77	105.2	54.792	5.947e-06	103.58	0.0011502	0.001163	0.00032512	469.02	1.1982e-05	1.2829e-05	663.86	219.53	1.1985e-05	1.2652e-05	334.2	172.87	105.86	55.191	1.2545e-05	104.21	8.928	-8.802	5.366	-88.011	65.367	51.360	-88.284	-82.650	47.872	38.550	-83.512	-78.222	-77.860	-72.225	33.863	-74.122	-8191	255	
46616.184	1	1	0	0	0.15265	0.08645	0.18252	0.10454	0.20905	0.046067	0.21674	0.064906	0.15882	0.1435	0.21728	0.1671	0.34396	0.15034	0.1124	0.25546	-4.4187	-4.0479	-4.8167	-4.2937	-4.1104	-4.9042	-3.9958	-4.35	-4.6229	-3.825	-4.8354	-4.55	-4.2146	-4.9812	-3.9979	-4.5146	109.168	-54.375	38.347	109.312	209.771	1.348	147.583	228.906	20.481	153.132	242.543	201.651	-79.534	-42.615	-74.083	215.218	0.0013789	0.00076937	0.00015105	470.93	4.6922e-06	3.3803e-06	674.09	221.11	8.4076e-06	5.1567e-06	335.59	173.35	105.49	54.867	1.0118e-06	103.74	0.0011425	0.0011335	0.00032292	467.77	1.1894e-05	1.2526e-05	664.52	219.3	1.1895e-05	1.2472e-05	334.87	172.95	105.77	55.163	1.2456e-05	104.35	11.358	-3.169	-10.512	-88.071	58.164	71.511	-88.250	-82.808	37.911	11.231	-83.707	-78.339	-77.668	-72.370	-19.495	-74.117	-8191	255	
46616.258	1	1	0	0	0.068912	0.26948	0.1857	0.081148	0.18565	0.2956	0.068683	0.2613	0.16067	0.23899	0.16272	0.030044	0.20674	0.19007	0.092089	0.18555	-4.4208	-3.6896	-4.8812	-4.7729	-4.0375	-4.8812	-4.2438	-4.2688	-4.7854	-3.875	-4.6625	-4.6729	-3.9875	-4.9229	-4.1333	-4.5042	237.519	205.573	148.558	254.244	173.504	162.627	9.407	217.063	152.329	-71.193	219.838	131.588	197.016	145.481	107.717	160.053	0.0013258	0.00065772	9.4404e-05	473.33	3.8177e-06	5.4996e-06	672.09	219.78	1.0062e-05	6.9668e-06	334.76	172.82	104.94	54.325	4.6071e-06	102.83	0.0011281	0.0011254	0.00031542	468.58	1.1728e-05	1.2436e-05	664.1	219.09	1.1633e-05	1.2604e-05	334.19	172.14	105.42	54.751	1.2245e-05	103.52	9.582	-37.070	-25.200	-88.136	30.981	32.845	-88.239	-82.744	57.953	61.860	-83.198	-78.234	-77.715	-72.287	-8.128	-74.320	-8191	255	
46616.352	1	1	0	0	0.15421	0.1637	0.10441	0.10687	0.24629	0.12597	0.10353	0.2679	0.06183	0.095417	0.16213	0.040633	0.19739	0.1959	0.013024	0.12583	-4.7562	-3.9396	-4.5875	-4.7042	-4.0625	-4.7708	-4.4187	-4.2125	-4.9187	-3.9562	-4.6208	-4.7208	-4.0292	-4.9729	-4.4292	-4.2667	-18.298	213.443	-47.745	141.591	192.503	152.265	181.809	135.157	178.075	-10.252	175.653	187.197	-97.572	-61.376	-54.719	258.682	0.0014101	0.00050716	0.00023814	472.08	6.9426e-06	6.7414e-06	668.5	219.69	5.3936e-06	5.9894e-06	333.59	171.28	104.89	54.119	6.7446e-06	102.44	0.0011154	0.001135	0.00031631	468.05	1.1523e-05	1.2503e-05	661.96	218.71	1.1601e-05	1.2381e-05	332.38	171.18	105.04	54.57	1.2285e-05	103.1	12.865	3.032	7.155	-87.761	75.817	42.920	-88.247	-82.656	71.487	42.578	-83.727	-78.117	-77.616	-72.264	34.191	-74.072	-8191	255	
46616.449	1	1	0	0	0.069914	0.27117	0.057704	0.1975	0.11545	0.22079	0.037883	0.074433	0.066311	0.077579	0.19386	0.088856	0.029927	0.1745	0.026012	0.12902	-4.7417	-4.0437	-4.3271	-4.7375	-3.7729	-4.6833	-4.4896	-4.1792	-4.85	-4.0396	-4.4146	-4.9042	-4.0188	-4.7854	-4.2896	-4.1562	-70.902	16.411	-53.790	184.579	168.772	-7.104	6.287	165.848	91.106	94.210	249.524	-34.166	147.469	201.087	122.113	-90.202	0.001343	0.0006099	0.00020138	473.45	8.1701e-06	5.6198e-06	666.72	219.69	5.0033e-06	4.7662e-06	334.34	172.27	105.4	54.26	5.1093e-06	103.01	0.0011243	0.0011179	0.00031908	467.74	1.1665e-05	1.2511e-05	661.26	218.55	1.1981e-05	1.2575e-05	333.29	171.61	105.32	54.835	1.2349e-05	103.46	13.338	-21.467	-17.082	-87.932	65.215	80.512	-87.995	-82.709	21.302	34.454	-83.654	-78.269	-77.948	-72.204	35.154	-74.152	-8191	255	
46616.566	1	1	0	0	0.09293	0.038825	0.12674	0.17396	0.37617	0.15933	0.10871	0.33853	0.20675	0.21888	0.25737	0.10148	0.10841	0.19547	0.071043	0.34749	-4.5854	-4.1083	-4.3646	-4.8562	-3.9771	-4.6604	-4.6042	-4.0771	-4.775	-4.2125	-4.0542	-4.9167	-3.95	-4.7188	-4.4667	-3.9229	-55.902	126.689	102.238	169.311	124.617	-9.798	-52.731	252.771	-40.181	-20.503	238.891	-41.040	-48.014	231.558	68.716	-94.833	0.0013196	0.00070061	0.00013556	472.29	8.1395e-06	6.1294e-06	670.01	219.99	6.8598e-06	5.7412e-06	334.22	172.53	104.83	54.403	3.7036e-06	103.29	0.0011198	0.0011217	0.00031845	467.97	1.1628e-05	1.2548e-05	663.07	218.87	1.1919e-05	1.2726e-05	333.2	172.04	105.44	54.753	1.2524e-05	103.69	13.082	-12.490	-10.982	-88.038	53.874	27.928	-87.892	-82.420	75.896	45.367	-83.534	-78.340	-78.058	-72.481	23.469	-74.149	-8191	255	
46616.664	1	1	0	0	0.12036	0.1907	0.14618	0.049358	0.11991	0.10705	0.11219	0.15395	0.17458	0.16241	0.2294	0.18507	0.19602	0.059509	0.18244	0.13335	-4.6104	-4.2896	-3.875	-4.8479	-3.7562	-4.4229	-4.7521	-3.9125	-4.7417	-4.425	-4.1875	-4.8812	-4.0021	-4.3896	-4.6979	-4.1104	229.421	2.538	228.705	58.137	-64.431	109.985	198.270	87.133	233.280	43.351	181.929	-35.779	87.959	175.269	76.700	188.431	0.0013083	0.00051554	0.00015196	473.71	6.5268e-06	6.7787e-06	672.23	221.39	7.9169e-06	3.0369e-06	335.98	172.83	105.5	54.322	5.3325e-06	103.33	0.0011273	0.0011312	0.00032161	468.4	1.171e-05	1.2582e-05	663.43	219.61	1.1911e-05	1.2636e-05	334.4	172.3	105.39	54.765	1.2346e-05	103.58	7.977	-9.687	-34.253	-87.967	68.829	61.070	-88.075	-82.785	63.724	35.500	-83.696	-78.284	-78.119	-72.468	14.018	-74.440	-8191	255	
46616.762	1	1	0	0	0.075127	0.16528	0.10016	0.091893	0.13636	0.25107	0.13014	0.13688	0.1734	0.087793	0.073774	0.092733	0.085071	0.16672	0.15475	0.12922	-4.2979	-4.4083	-4.0813	-4.9563	-4.1438	-4.2229	-4.8542	-3.9062	-4.5333	-4.5083	-3.9229	-5.0208	-4.275	-4.2479	-4.6542	-4.0646	-23.294	39.697	-78.819	-30.493	61.139	64.026	177.023	208.954	173.962	110.511	20.021	-90.206	50.425	-69.950	195.438	194.551	0.0014014	0.00059459	0.00014204	475.44	6.7132e-06	5.7038e-06	671.92	221.44	4.5216e-06	6.1393e-06	335.85	172.3	104.39	54.388	6.5661e-06	102.58	0.001135	0.0011596	0.00032022	468.9	1.1914e-05	1.2572e-05	663.09	219.23	1.1936e-05	1.2692e-05	333.5	171.43	104.93	54.62	1.2477e-05	103.1	12.514	-15.073	6.632	-88.276	56.115	57.504	-88.319	-82.861	56.381	19.985	-83.752	-78.478	-77.754	-72.604	30.544	-74.330	-8191	255	
46616.832	1	1	0	0	0.16837	0.13131	0.15845	0.041659	0.023473	0.14391	0.0576	0.20769	0.222	0.21806	0.11632	0.34137	0.16725	0.18485	0.19331	0.2431	-4.2438	-4.5938	-4.0104	-4.8125	-3.9938	-4.0521	-4.8688	-3.9375	-4.5417	-4.6188	-3.9104	-4.8	-4.3958	-4.1729	-4.6625	-4.0625	93.809	109.279	80.398	240.513	-100.473	255.051	205.487	128.903	89.637	215.518	188.267	196.633	192.256	212.720	122.716	219.298	0.0013862	0.00050459	0.00012541	474.1	8.6893e-06	4.8418e-06	669.31	220.15	6.9826e-06	4.4288e-06	335.26	171.72	104.68	54.524	5.9121e-06	102.46	0.0011359	0.0011316	0.00031952	468.4	1.1747e-05	1.27e-05	660.39	218.52	1.1887e-05	1.2801e-05	332.98	171.29	105	54.664	1.264e-05	102.94	14.115	-14.673	-17.951	-88.242	22.308	53.573	-88.324	-82.643	27.903	57.232	-83.622	-78.414	-77.935	-72.313	32.943	-74.333	-8191	255	
46616.953	1	1	0	0	0.11872	0.016821	0.10886	0.2167	0.17042	0.093315	0.063946	0.25913	0.12442	0.088093	0.087782	0.21729	0.050472	0.41735	0.04469	0.23544	-4.0042	-4.6104	-3.9938	-4.7708	-4.375	-3.9729	-4.8896	-4.1188	-4.2917	-4.7979	-3.8979	-4.8854	-4.4938	-4.1125	-4.75	-4.1958	215.695	-61.275	61.132	170.818	47.659	125.764	-72.588	35.008	-47.888	257.658	238.711	203.357	194.979	167.962	114.760	159.920	0.0013308	0.00047199	0.00013442	476.22	6.7987e-06	4.7308e-06	670.29	220.07	7.2616e-06	8.2651e-06	336.2	172.18	104.9	54.323	5.056e-06	102.8	0.0011419	0.0011395	0.00032463	468.73	1.1765e-05	1.2671e-05	661.69	218.76	1.215e-05	1.2821e-05	333.3	171.75	105.18	54.65	1.2847e-05	103.35	14.327	-38.016	-28.242	-88.110	40.309	49.529	-88.215	-82.724	57.626	54.126	-83.672	-78.272	-77.895	-72.708	13.111	-74.133	-8191	255	
46617.047	1	1	0	0	0.12768	0.032414	0.13232	0.18744	0.19804	0.16602	0.15102	0.10661	0.24356	0.092751	0.085542	0.27427	0.089914	0.20236	0.094911	0.10474	-4.0542	-4.7854	-3.7687	-4.6	-4.4167	-3.9688	-4.8458	-4.2729	-4.2021	-4.8313	-4.0458	-4.5354	-4.6375	-3.9333	-4.6188	-4.2833	232.016	2.679	72.398	-87.295	144.227	209.563	94.469	139.222	28.147	35.744	235.257	196.048	158.034	149.155	-48.991	-47.061	0.0013232	0.00053737	0.00014031	474.61	5.8658e-06	5.8418e-06	668.88	221.04	6.9208e-06	6.562e-06	335.74	172.22	105.06	54.202	3.2955e-06	102.86	0.0011473	0.0011406	0.00032768	468.98	1.2029e-05	1.2768e-05	663.5	218.74	1.2059e-05	1.2839e-05	334.35	172.03	105.2	54.829	1.2653e-05	103.62	9.872	-9.627	5.989	-88.059	57.659	37.288	-88.135	-82.815	19.105	56.604	-83.720	-78.352	-77.760	-72.605	44.627	-74.250	-8191	255	
46617.145	1	1	0	0	0.15507	0.24744	0.10948	0.10114	0.13924	0.21657	0.2026	0.18749	0.18435	0.19894	0.10263	0.19994	0.11157	0.06863	0.052428	0.1062	-3.7125	-4.8896	-3.9437	-4.5979	-4.4896	-4.0083	-4.7167	-4.3396	-3.9354	-4.7083	-3.9583	-4.5229	-4.7562	-3.8563	-4.5687	-4.4896	204.508	35.011	-25.385	201.326	134.967	4.925	149.717	63.934	137.887	26.490	-39.994	-89.966	229.680	-7.401	13.279	241.831	0.0013678	0.00060849	0.00013065	473.88	5.6311e-06	5.9404e-06	672.32	220.18	5.7244e-06	4.6356e-06	335.19	172.64	105.14	54.29	3.3284e-06	102.53	0.0011472	0.0011688	0.00032642	470.01	1.1895e-05	1.3081e-05	664.04	219.15	1.1996e-05	1.2993e-05	334.6	172.04	105.41	54.786	1.2926e-05	103.18	13.737	-15.245	-15.031	-88.039	61.094	39.795	-88.499	-82.567	49.521	34.358	-83.491	-78.385	-77.805	-72.549	36.313	-74.007	-8191	255	
46617.266	1	1	0	0	0.059374	0.19053	0.38616	0.18064	0.21077	0.15058	0.13467	0.043243	0.20749	0.11449	0.16232	0.029183	0.095825	0.21259	0.29088	0.044716	-3.6937	-4.8729	-3.8542	-4.4708	-4.6167	-3.8146	-4.9271	-4.3292	-4.0792	-5.0208	-4.1687	-4.3271	-4.8792	-3.9688	-4.5	-4.5208	-4.516	-76.957	181.252	196.172	245.414	93.812	151.302	251.812	-19.467	-34.322	33.424	86.700	51.753	222.950	50.811	-25.085	0.0013386	0.00068761	0.00016197	474.76	5.0127e-06	6.9445e-06	673.35	220.4	6.8199e-06	4.9492e-06	335.97	172.11	105	54.118	6.9745e-06	102.37	0.0011438	0.0011583	0.00032704	470.63	1.2183e-05	1.3173e-05	663.43	218.76	1.2306e-05	1.2937e-05	333.33	171.42	105.27	54.575	1.2999e-05	103.02	10.901	23.407	-35.212	-88.148	61.065	59.485	-88.086	-82.776	33.374	33.644	-83.416	-78.435	-77.767	-72.492	97.357	-74.090	-8191	255	
46617.359	1	1	0	0	0.10788	0.11215	0.15217	0.017911	0.15656	0.084174	0.1427	0.14504	0.18617	0.13088	0.069466	0.074232	0.08512	0.039727	0.099959	0.21631	-3.5208	-4.7604	-4.0188	-4.2229	-4.8042	-3.9792	-4.5958	-4.6042	-3.9625	-4.8958	-4.2104	-4.2688	-4.9	-4.1	-4.425	-4.6708	114.439	74.469	253.989	244.257	-18.593	75.745	141.963	-46.805	33.255	217.247	140.834	-88.407	46.416	-17.749	-85.204	220.048	0.0011677	0.00068999	0.000191	476.69	5.552e-06	5.9632e-06	670.58	219.87	6.187e-06	3.1955e-06	335.9	172.3	104.97	54.263	5.776e-06	102.88	0.0011738	0.0011582	0.0003317	469.72	1.2069e-05	1.3446e-05	662.52	218.74	1.239e-05	1.2815e-05	333.82	171.7	105.2	54.688	1.296e-05	103.19	10.953	-22.774	-2.586	-87.858	9.828	40.406	-88.096	-82.606	45.810	18.512	-83.624	-78.570	-77.847	-72.605	41.516	-74.047	-8191	255	
46617.453	1	1	0	0	0.14798	0.21913	0.23935	0.26771	0.15213	0.13754	0.31925	0.085855	0.083497	0.14368	0.14593	0.097042	0.26314	0.18938	0.16452	0.19283	-3.6042	-4.6917	-4.2188	-4.1667	-4.7812	-4.0271	-4.4604	-4.6917	-3.8937	-4.6458	-4.4458	-4.0167	-4.8542	-4.1229	-4.325	-4.9062	39.760	-2.950	181.184	-95.484	80.218	149.269	156.975	163.124	253.844	-45.923	-80.025	-57.599	257.633	219.812	158.132	200.643	0.0012563	0.0006158	0.00017465	476.23	6.3215e-06	5.324e-06	671.78	220.3	2.8428e-06	9.5769e-06	336.82	172.46	105.07	54.271	6.6993e-06	103.14	0.0011671	0.0011828	0.00033102	469.73	1.2342e-05	1.3116e-05	662.88	219.13	1.2286e-05	1.3032e-05	334.42	171.81	105.29	54.605	1.3027e-05	103.41	9.365	-39.190	19.465	-88.175	61.749	43.947	-88.354	-82.729	78.524	20.456	-83.573	-78.385	-77.888	-72.521	28.765	-74.124	-8191	255	
46617.551	1	1	0	0	0.22485	0.17116	0.25497	0.11127	0.020933	0.020914	0.13163	0.087957	0.23369	0.031165	0.13929	0.063185	0.32688	0.16695	0.089221	0.19766	-3.4625	-4.7708	-4.5167	-4.0021	-4.6542	-4.1167	-4.1083	-4.7937	-3.8167	-4.5938	-4.4729	-4.0292	-5.0958	-4.275	-4.0458	-5.0188	-87.449	151.262	21.649	-52.241	137.713	-96.924	-61.102	39.830	123.019	13.322	-89.519	-55.590	-61.047	145.952	121.774	181.020	0.0013536	0.0010111	0.00016778	474.64	6.8515e-06	4.7305e-06	672.08	220.4	1.1524e-05	5.5817e-06	335.12	172.73	104.69	54.136	4.6659e-06	102.49	0.0011708	0.0011767	0.00033255	469.79	1.2125e-05	1.314e-05	664.14	219.23	1.251e-05	1.3103e-05	334.29	171.75	105.27	54.544	1.2987e-05	103.13	8.295	-11.819	-12.598	-88.124	73.376	21.604	-88.372	-82.844	37.507	50.431	-83.390	-78.098	-77.829	-72.407	39.116	-74.112	-8191	255	
46617.648	1	1	0	0	0.15775	0.11518	0.27519	0.12755	0.062115	0.083502	0.16049	0.17483	0.057461	0.081945	0.075879	0.22707	0.10555	0.22185	0.046122	0.099547	-3.375	-4.4313	-4.7063	-3.8937	-4.7438	-4.2937	-4.1833	-4.9479	-3.7792	-4.6188	-4.6854	-4.0917	-4.9313	-4.2792	-3.8708	-5.0542	214.198	-51.332	99.541	249.332	128.260	66.014	27.068	241.478	-24.797	212.645	-51.023	171.276	95.549	209.279	239.911	120.517	0.001286	0.00080887	0.00015393	475.26	4.0639e-06	5.4724e-06	673.45	219.91	7.4467e-06	6.2641e-06	335.84	171.69	104.99	54.197	5.068e-06	102.35	0.0011673	0.0011983	0.00033316	469.71	1.2232e-05	1.3157e-05	664.06	219.1	1.2567e-05	1.3222e-05	333.79	171.19	105.22	54.507	1.3206e-05	102.85	8.134	7.663	4.311	-87.850	40.161	41.547	-88.472	-82.561	20.917	29.301	-83.484	-78.368	-77.682	-72.356	14.461	-74.131	-8191	255	
46617.742	1	1	0	0	0.17038	0.070193	0.043545	0.078806	0.1431	0.21001	0.25514	0.20716	0.14714	0.082678	0.24274	0.17677	0.13605	0.26944	0.22028	0.035118	-3.6771	-4.2729	-4.575	-3.9979	-4.7021	-4.4021	-4.1438	-4.9583	-3.7917	-4.3521	-4.8417	-3.9042	-4.7896	-4.5375	-3.9917	-5.0687	-42.827	132.650	116.904	250.983	218.419	-7.298	256.648	197.591	102.174	20.725	-92.850	129.861	141.414	246.659	39.982	-14.710	0.0013055	0.00069418	0.00013285	474.36	1.0389e-05	5.1869e-06	672.49	221.5	1.3024e-05	6.6212e-06	336.6	171.88	105	54.041	7.3186e-06	102.68	0.0011784	0.0012026	0.00033125	470.07	1.2267e-05	1.3317e-05	662.92	218.93	1.2496e-05	1.3404e-05	333.98	171.26	105.17	54.468	1.3026e-05	103.01	11.815	-23.550	-4.835	-88.126	50.280	32.328	-88.083	-82.678	51.845	40.926	-83.563	-78.260	-77.822	-72.421	46.595	-74.165	-8191	255	
46617.863	1	1	0	0	0.14622	0.11061	0.0091993	0.028591	0.24184	0.05344	0.11151	0.098014	0.094748	0.10254	0.15708	0.34255	0.19049	0.195	0.20791	0.099793	-3.7396	-4.15	-4.6833	-3.8396	-4.3708	-4.5229	-3.9625	-4.8417	-4.2792	-4.0771	-4.9667	-3.9313	-4.8604	-4.6333	-3.9688	-5.0104	-27.309	36.670	-58.356	11.919	187.125	97.470	161.284	136.999	37.038	-99.836	133.309	208.786	171.293	196.228	96.655	175.848	0.0013471	0.00048225	0.00014106	475.46	9.219e-06	5.4395e-06	672.08	220.4	7.6098e-06	7.2321e-06	336.42	171.96	105.02	54.136	5.8499e-06	102.55	0.0011751	0.0012062	0.00033611	470	1.2554e-05	1.3262e-05	663.53	219.25	1.2655e-05	1.3481e-05	334.32	171.52	105.12	54.552	1.3247e-05	103.22	7.728	-19.665	10.925	-88.052	13.499	38.498	-88.225	-82.550	39.807	35.534	-83.511	-78.482	-77.995	-72.385	13.926	-74.069	-8191	255	
46617.961	1	1	0	0	0.13257	0.090071	0.15106	0.043102	0.13845	0.2039	0.05034	0.058785	0.13965	0.10884	0.18729	0.058295	0.37721	0.2966	0.13183	0.25683	-3.7687	-4.0667	-4.7063	-3.9979	-4.3187	-4.6875	-4.1271	-4.7771	-4.1208	-4.0938	-4.9458	-4.1062	-4.3646	-4.8083	-3.8438	-4.9458	96.239	37.443	141.778	-16.444	163.708	258.860	219.457	181.686	-40.681	18.920	-55.189	-23.004	228.250	218.597	31.038	-68.795	0.0012777	0.00043042	0.00016994	476.63	6.8902e-06	5.0539e-06	671.18	220.09	8.0949e-06	6.1382e-06	336.25	171.34	104.52	54.01	1.8588e-06	102.52	0.0011891	0.001221	0.00033958	470.45	1.2431e-05	1.3244e-05	663.57	219.15	1.2816e-05	1.3569e-05	334.68	171.49	104.91	54.456	1.3439e-05	103.12	13.083	6.996	-10.953	-88.232	25.729	70.715	-88.221	-82.708	61.626	48.298	-83.719	-78.276	-77.651	-72.214	30.124	-74.193	-8191	255	
46618.059	1	1	0	0	0.069506	0.095582	0.098043	0.089753	0.042049	0.19875	0.041737	0.15258	0.076952	0.1474	0.24444	0.20937	0.17018	0.037164	0.12458	0.080896	-4.1542	-4.0208	-4.7396	-4.0708	-4.2229	-4.7979	-3.95	-4.6854	-4.4688	-3.9458	-4.9979	-4.2146	-4.2667	-4.8583	-3.9875	-4.7375	167.302	-57.101	62.133	175.434	29.885	172.145	5.014	169.327	252.360	196.161	185.462	-96.999	-27.236	39.911	-65.295	11.440	0.0013235	0.00032983	0.00013246	474.59	5.721e-06	7.2583e-06	674.64	219.9	1.0487e-05	3.5665e-06	333.82	171.53	104.31	54.133	3.9441e-06	102.16	0.0011896	0.0012361	0.00034458	469.65	1.2685e-05	1.3599e-05	664.95	218.88	1.2902e-05	1.3481e-05	333.74	170.94	104.95	54.537	1.3338e-05	102.93	13.364	7.848	2.580	-88.148	42.818	80.208	-88.259	-82.690	58.670	47.501	-83.430	-78.409	-77.512	-72.368	82.443	-74.134	-8191	255	
46618.129	1	1	0	0	0.22056	0.11816	0.082443	0.15167	0.11906	0.24406	0.41205	0.21621	0.15819	0.094531	0.02447	0.14086	0.10536	0.24831	0.23395	0.47821	-4.2167	-3.6375	-4.8104	-4.1229	-4.0104	-4.7583	-4	-4.5167	-4.5125	-3.7229	-4.8125	-4.425	-4.1167	-5.0521	-4.0437	-4.5229	-0.092	-73.126	105.989	209.274	136.894	184.623	178.053	143.707	102.601	-91.955	237.244	44.723	-30.304	181.005	131.847	-96.121	0.0013861	0.00068639	0.0001221	473.37	6.3529e-06	3.56e-06	669.56	220.4	7.6568e-06	6.6812e-06	334.88	171.03	104.21	54.113	4.5685e-06	102.3	0.0011923	0.0012408	0.00034273	470.55	1.2631e-05	1.3579e-05	663.79	219.44	1.2769e-05	1.3477e-05	333.61	171	104.89	54.403	1.3334e-05	102.84	8.612	2.215	-6.400	-87.981	41.424	80.844	-88.209	-82.839	35.858	37.582	-83.582	-78.336	-77.925	-72.316	81.318	-74.094	-8191	255	
46618.246	1	1	0	0	0.18545	0.36792	0.21205	0.064619	0.14721	0.10843	0.078678	0.20584	0.12731	0.050485	0.066914	0.10521	0.20764	0.20375	0.14341	0.17881	-4.5042	-3.9271	-4.8104	-4.4292	-3.9562	-4.7917	-4.0458	-4.6167	-4.5979	-4.0062	-4.8021	-4.4833	-4.0208	-4.8938	-3.9333	-4.6312	-78.548	-10.618	182.430	198.818	159.956	-64.490	66.356	97.728	109.653	16.797	178.507	50.132	-51.123	191.488	175.395	183.049	0.0014835	0.00077144	0.00016347	474.73	6.8107e-06	6.9623e-06	667.89	220.06	6.1745e-06	7.1576e-06	335.52	171.73	104.53	54.262	5.861e-06	102.87	0.0011954	0.0012145	0.00034373	470.24	1.2684e-05	1.3507e-05	663.21	219.13	1.2846e-05	1.3648e-05	334.29	171.57	105.16	54.795	1.333e-05	103.53	10.575	-19.324	-35.217	-88.009	42.420	39.397	-88.248	-82.690	54.379	47.048	-83.362	-78.224	-77.963	-72.339	22.492	-73.953	-8191	255	
46618.344	1	1	0	0	0.11866	0.097739	0.1211	0.23604	0.17358	0.14213	0.072067	0.14415	0.066995	0.075833	0.18378	0.12007	0.10559	0.24687	0.0065772	0.18812	-4.3708	-3.9375	-4.3833	-4.3688	-3.9521	-4.9125	-4.1312	-4.3021	-4.8125	-3.8646	-4.5979	-4.6	-4.0083	-4.9042	-4.0854	-4.4083	193.609	-32.399	75.218	76.891	-5.937	193.805	66.985	179.918	-49.069	85.604	177.042	-68.114	95.322	204.383	228.174	148.005	0.0013924	0.00052916	0.00018361	473.57	2.6588e-06	7.1053e-06	674.13	220.95	7.5074e-06	5.6232e-06	336.08	172.79	104.97	54.424	4.0942e-06	103.13	0.0012156	0.0012227	0.00035059	470.33	1.2702e-05	1.3551e-05	665.07	219.45	1.3066e-05	1.3818e-05	334.54	172.23	105.41	54.922	1.3616e-05	103.82	9.375	-22.904	-31.867	-88.088	21.699	56.848	-88.326	-82.671	60.104	64.109	-83.505	-78.192	-77.714	-72.491	61.801	-74.258	-8191	255	
46618.441	1	1	0	0	0.29482	0.062318	0.090122	0.14148	0.070536	0.12681	0.12857	0.16222	0.098577	0.098351	0.11442	0.070567	0.093128	0.080984	0.080381	0.30913	-4.5125	-3.9125	-4.6062	-4.7542	-3.8438	-4.6021	-4.25	-4.0917	-4.7417	-3.8646	-4.5208	-4.8125	-3.8812	-4.8396	-4.3	-4.0979	175.081	37.082	125.603	227.569	222.234	215.927	205.397	253.578	118.284	20.356	124.059	171.315	137.636	242.426	-76.852	230.560	0.0013121	0.00062543	0.00015233	478.11	6.9434e-06	5.9267e-06	674.11	220.57	5.6925e-06	5.9788e-06	335.51	172.48	104.91	54.273	3.976e-06	102.37	0.0012104	0.0012469	0.00035431	471.73	1.2869e-05	1.3811e-05	665.67	219.05	1.3027e-05	1.3879e-05	334.57	172.15	105.31	54.746	1.3654e-05	103.11	9.370	-37.262	-29.607	-88.188	53.294	32.201	-88.338	-82.710	3.197	39.851	-83.629	-78.392	-77.956	-72.394	33.816	-73.991	-8191	255	
46618.535	1	1	0	0	0.13387	0.15923	0.15965	0.2517	0.25859	0.27686	0.13847	0.097642	0.21836	0.23719	0.052679	0.20545	0.022011	0.10075	0.17529	0.15788	-4.4604	-3.9125	-4.2354	-4.7208	-3.8146	-4.7771	-4.3854	-3.9458	-4.7458	-4.0958	-4.3729	-4.8792	-3.9208	-4.8417	-4.4604	-4.1292	-69.471	-5.331	133.890	68.575	101.344	183.643	202.196	179.795	-2.456	146.016	202.891	-99.207	40.156	-58.610	26.141	181.926	0.0012863	0.0007096	0.00013961	475.55	7.7703e-06	7.4796e-06	670.14	220.15	7.6685e-06	1.0636e-06	334.09	172.58	104.63	54.344	7.4067e-06	103.05	0.0012093	0.0012433	0.00035104	471.48	1.2641e-05	1.3883e-05	663.69	219.14	1.2954e-05	1.4042e-05	333.47	171.99	105.23	54.823	1.3544e-05	103.51	8.512	-30.992	-4.616	-87.966	79.904	36.283	-88.279	-82.943	52.259	61.106	-83.461	-78.232	-77.630	-72.390	45.040	-73.954	-8191	255	
46618.656	1	1	0	0	0.10933	0.072374	0.11739	0.17232	0.21566	0.055379	0.11433	0.078668	0.049945	0.15846	0.10124	0.077082	0.023336	0.16325	0.15361	0.041611	-4.5312	-4.125	-4.1562	-4.8479	-3.9417	-4.6333	-4.7333	-3.9833	-4.5625	-4.0708	-4.3021	-4.9958	-4.0375	-4.5188	-4.5021	-4.0479	198.648	190.615	-66.772	-53.826	91.461	87.122	-100.473	236.852	84.983	3.209	-79.628	85.559	161.255	-90.365	74.823	219.367	0.0012948	0.00089186	0.0001411	476.3	4.4389e-06	7.899e-06	671.93	219.71	9.4427e-06	4.8765e-06	335.26	172.17	104.98	54.787	5.9256e-06	103.39	0.0012086	0.001256	0.00034857	470.84	1.2659e-05	1.3949e-05	664.34	218.68	1.2981e-05	1.394e-05	334.19	172.17	105.46	55.031	1.353e-05	103.82	9.021	-33.678	-1.434	-87.867	68.701	54.214	-88.102	-82.860	33.058	59.758	-83.514	-78.236	-77.870	-72.564	73.263	-74.392	-8191	255	
46618.727	1	1	0	0	0.18568	0.11701	0.25025	0.063029	0.063049	0.15744	0.32713	0.21823	0.14001	0.050623	0.32684	0.04325	0.17527	0.15489	0.096398	0.05605	-4.6813	-4.0813	-4.0896	-4.9583	-4.0625	-4.5292	-4.7625	-3.8646	-4.7146	-4.3583	-4.1521	-4.8875	-4.0458	-4.4604	-4.625	-3.9958	165.428	59.549	153.185	-97.066	-74.971	113.665	157.982	159.806	249.016	241.630	203.391	245.456	151.454	167.288	-93.518	223.467	0.0014798	0.00072917	0.00012103	474.97	4.3871e-06	7.769e-06	670.52	220.49	1.2327e-05	5.452e-06	335.58	172.86	104.9	54.508	6.8865e-06	103.2	0.0012116	0.0012346	0.00034537	470.37	1.2761e-05	1.3871e-05	662.25	218.72	1.3012e-05	1.3677e-05	334.01	172.1	105.27	54.971	1.3527e-05	103.75	11.303	-10.801	-12.508	-88.052	25.296	49.822	-88.216	-82.889	48.979	23.959	-83.559	-78.607	-78.106	-72.423	32.864	-74.190	-8191	255	
46618.824	1	1	0	0	0.12758	0.18748	0.17599	0.02834	0.13033	0.20797	0.24379	0.070746	0.16928	0.19071	0.37471	0.078108	0.066731	0.17398	0.090429	0.14324	-4.3104	-4.2104	-3.75	-4.8979	-4.0729	-4.1042	-4.8187	-3.8563	-4.4104	-4.3104	-4.0563	-4.8979	-4.1729	-4.0229	-4.7188	-3.9271	253.153	-30.703	211.252	-96.574	75.759	153.734	167.354	188.837	-13.087	-14.707	148.072	190.105	239.190	-99.109	167.078	181.867	0.0013157	0.0005282	0.00015436	473.59	4.983e-06	3.7953e-06	671.78	220.08	7.2703e-06	5.1146e-06	334.14	172.83	105.32	54.645	6.5293e-06	103.26	0.0012121	0.0012119	0.00034471	468.76	1.2887e-05	1.3681e-05	661.53	218.37	1.2904e-05	1.3575e-05	332.62	171.76	105.2	55.082	1.3259e-05	103.58	8.940	-40.523	-23.057	-87.902	73.311	37.954	-88.168	-82.570	62.216	74.657	-83.549	-78.326	-77.713	-72.521	42.629	-74.213	-8191	255	
46618.945	1	1	0	0	0.1774	0.11799	0.14313	0.087902	0.22892	0.32135	0.10875	0.20046	0.22429	0.15455	0.1306	0.099896	0.13064	0.23226	0.23497	0.42695	-4.3063	-4.5479	-3.8187	-4.8146	-4.3354	-4.1646	-4.9354	-3.8542	-4.5875	-4.5917	-3.9896	-4.8979	-4.3292	-4.2083	-4.7812	-4.0729	-38.550	102.144	-72.213	225.057	8.650	224.070	-79.649	52.388	179.325	72.277	235.549	234.182	52.085	-89.711	235.577	258.969	0.0013278	0.00063247	0.00011014	473.08	8.1476e-06	4.6087e-06	670.73	218.79	5.312e-06	4.9721e-06	332.1	171.94	104.72	54.614	6.0088e-06	102.97	0.0011816	0.0012303	0.00034485	468.79	1.2514e-05	1.3495e-05	660.56	217.76	1.2774e-05	1.3333e-05	330.97	171.52	105.03	54.916	1.298e-05	103.46	9.545	-33.845	-25.112	-87.989	61.020	47.945	-88.056	-82.685	22.298	39.842	-83.650	-78.334	-77.733	-72.618	71.779	-74.159	-8191	255	
46619.039	1	1	0	0	0.12422	0.12258	0.1162	0.090569	0.053689	0.16371	0.20255	0.14159	0.24361	0.33135	0.23535	0.1112	0.052677	0.21606	0.093444	0.23659	-4.1083	-4.525	-3.7896	-4.7812	-4.2646	-3.9437	-4.8208	-4.0354	-4.3104	-4.6708	-3.7979	-4.7583	-4.4688	-4.0458	-4.6708	-4.3104	198.489	92.590	189.194	-42.175	-18.518	181.370	220.668	-98.601	148.010	167.444	-73.020	63.261	142.083	243.649	227.949	255.835	0.0012785	0.00070614	0.00015517	472.77	1.0957e-05	1.9072e-06	667.57	218.15	7.4139e-06	6.4479e-06	333.64	171.75	104.56	54.543	3.5195e-06	102.81	0.0011792	0.0011858	0.00033847	467.21	1.238e-05	1.3264e-05	659.6	217.1	1.2478e-05	1.3018e-05	331.49	171.47	104.64	54.803	1.2896e-05	103.35	7.579	-9.269	-26.541	-88.011	58.225	74.138	-88.151	-82.579	54.137	34.296	-83.588	-78.266	-77.617	-72.575	56.845	-74.189	-8191	255	
46619.137	1	1	0	0	0.28054	0.16897	0.088333	0.15867	0.033713	0.2067	0.12858	0.14594	0.059569	0.16856	0.37825	0.16018	0.12835	0.1898	0.08679	0.21885	-3.9729	-4.7875	-3.8896	-4.6875	-4.4	-3.8708	-4.9646	-4.1479	-4.1042	-4.7458	-3.8979	-4.6958	-4.625	-3.9167	-4.7667	-4.3479	255.382	-94.191	125.727	196.909	5.844	-63.764	238.970	4.295	57.218	110.487	207.084	-45.562	192.190	-82.672	57.782	185.854	0.0014048	0.00061436	0.00016162	474.01	4.7121e-06	6.8667e-06	668.68	218.66	3.5454e-06	6.1839e-06	334.4	172.79	104.47	54.669	6.3106e-06	102.96	0.0011774	0.0011673	0.00033228	467.63	1.2246e-05	1.3164e-05	660.52	217.48	1.2383e-05	1.2926e-05	332.27	171.78	104.89	54.876	1.2887e-05	103.5	13.187	9.611	-15.046	-88.230	-2.055	67.852	-88.245	-82.839	41.166	51.639	-83.300	-78.296	-77.719	-72.437	58.610	-73.959	-8191	255	
46619.234	1	1	0	0	0.033648	0.21972	0.15143	0.11954	0.23321	0.081179	0.29841	0.11503	0.064966	0.13489	0.33345	0.12312	0.10351	0.18304	0.13944	0.24733	-3.7354	-4.7958	-3.8583	-4.6729	-4.5771	-3.8479	-4.8396	-4.3625	-3.9708	-4.8708	-3.9667	-4.4062	-4.6438	-3.9062	-4.6208	-4.4292	17.002	-48.552	-81.805	229.317	-59.114	-45.682	197.505	163.273	191.621	23.085	-68.589	-76.757	-91.122	185.127	-21.401	189.611	0.001289	0.00055514	0.00019717	473.07	7.5721e-06	5.5638e-06	666.49	219	7.9485e-06	4.2608e-06	333.54	172.28	104.42	54.456	5.2121e-06	102.95	0.0011551	0.0011803	0.00033039	467.57	1.2131e-05	1.3109e-05	659.77	217.89	1.2406e-05	1.2832e-05	332.12	171.44	104.69	54.821	1.2994e-05	103.23	11.244	-8.506	-9.821	-88.146	31.682	50.317	-88.393	-82.742	73.195	42.922	-83.422	-78.410	-77.982	-72.439	55.732	-74.106	-8191	255	
46619.352	1	1	0	0	0.13098	0.14889	0.10388	0.063736	0.2072	0.15741	0.0097437	0.13219	0.15778	0.17329	0.098596	0.28372	0.20181	0.066747	0.13557	0.31827	-3.7	-4.8438	-4.0062	-4.4354	-4.7208	-3.8292	-4.8354	-4.5146	-4.0208	-4.7625	-4.2604	-4.4979	-4.7812	-3.9479	-4.6292	-4.7937	-71.143	2.383	165.362	240.724	38.569	140.257	1.894	-41.137	243.270	91.520	47.424	211.780	-35.250	-34.211	166.668	203.366	0.0013681	0.00061396	0.00020544	473.96	6.4428e-06	3.3356e-06	669.01	218.18	1.0812e-05	6.3279e-06	331.68	171.78	104.49	54.335	5.9084e-06	102.54	0.0011727	0.0011741	0.00033063	467.54	1.2117e-05	1.3138e-05	659.49	217.33	1.2332e-05	1.2796e-05	330.92	170.75	104.49	54.632	1.2875e-05	102.81	11.972	-9.032	-8.550	-88.056	37.215	47.784	-88.284	-82.522	37.951	44.667	-83.644	-78.444	-77.617	-72.378	48.361	-74.226	-8191	255	
46619.426	1	1	0	0	0.12626	0.1965	0.13834	0.11458	0.16968	0.039879	0.0533	0.21441	0.27268	0.094499	0.17388	0.35811	0.078869	0.18832	0.119	0.16257	-3.4729	-4.7771	-4.1479	-4.2583	-4.7937	-3.8021	-4.5479	-4.7292	-3.8729	-4.8146	-4.1271	-4.1271	-4.725	-3.8333	-4.4563	-4.875	-81.842	141.188	-33.751	255.098	-80.089	222.691	11.787	149.952	209.242	97.581	135.299	-91.908	133.278	219.104	-68.469	219.115	0.0013333	0.00065917	0.00021071	472.34	8.1046e-06	4.9574e-06	667.67	218.19	1.0018e-05	4.1201e-06	331.31	171.73	104.35	54.18	7.4837e-06	102.11	0.0011616	0.0011609	0.00032752	466.53	1.1959e-05	1.3199e-05	659.63	216.99	1.2177e-05	1.303e-05	330.77	170.83	104.57	54.544	1.3025e-05	102.88	13.194	-4.375	-22.211	-88.038	46.890	36.422	-88.158	-82.555	63.477	70.358	-83.603	-78.344	-77.810	-72.413	45.455	-74.149	-8191	255	
46619.543	1	1	0	0	0.096898	0.1894	0.16864	0.10568	0.12178	0.10307	0.10517	0.086766	0.072788	0.14279	0.21144	0.061565	0.12288	0.36352	0.083141	0.22007	-3.6188	-4.6687	-4.2188	-4.2	-4.7562	-3.7292	-4.475	-4.7604	-3.75	-4.7875	-4.2583	-4.15	-4.875	-3.9875	-4.3	-4.7479	187.201	6.671	176.271	-3.025	-62.916	165.981	167.642	-48.371	3.354	-48.018	161.730	-42.656	-60.576	-25.974	213.033	157.068	0.0013426	0.00064784	0.00016934	472.93	8.69e-06	6.8797e-06	666.52	219.05	1.1227e-05	7.0789e-06	331.95	171.81	104	54.242	4.6197e-06	102.37	0.0011551	0.0011892	0.000331	467.43	1.2135e-05	1.3162e-05	659.66	217.43	1.2576e-05	1.3191e-05	331.16	170.95	104.48	54.65	1.2712e-05	103	10.931	-26.241	-15.706	-88.386	46.124	27.124	-88.257	-82.629	50.497	32.224	-83.477	-78.352	-77.665	-72.472	10.391	-74.091	-8191	255	
46619.641	1	1	0	0	0.32108	0.08398	0.067787	0.19358	0.053836	0.15108	0.15819	0.16765	0.2577	0.15324	0.30447	0.10449	0.26977	0.17326	0.094127	0.14428	-3.6021	-4.7063	-4.4125	-4.0125	-4.7917	-3.9479	-4.2417	-4.8125	-3.9833	-4.6792	-4.5625	-3.9792	-4.8729	-4.2083	-4.0958	-4.8729	-87.329	223.575	-40.926	198.269	50.236	206.831	178.477	8.906	188.080	7.189	201.850	180.955	-82.055	235.341	-70.286	202.926	0.001343	0.00055714	0.0001906	472.77	5.4122e-06	6.6733e-06	671.76	220.12	5.7618e-06	4.5832e-06	333.52	171.76	104.27	54.116	6.1218e-06	102	0.0011729	0.0011927	0.00033233	467.61	1.2261e-05	1.3244e-05	661.85	218.31	1.2329e-05	1.3166e-05	332.55	170.89	104.72	54.447	1.288e-05	102.58	10.115	-10.752	-13.472	-88.290	68.227	25.059	-88.250	-82.566	89.685	42.665	-83.625	-78.308	-77.781	-72.483	50.111	-73.998	-8191	255	
46619.738	1	1	0	0	0.17864	0.12976	0.19922	0.072424	0.15115	0.11475	0.4203	0.076609	0.07489	0.13229	0.21897	0.3886	0.056999	0.20543	0.19795	0.14349	-3.5521	-4.5958	-4.4229	-3.8625	-4.775	-4.1958	-4.2708	-4.8187	-3.9271	-4.5813	-4.8208	-3.9625	-4.8313	-4.5708	-4.0917	-4.9979	8.700	64.005	69.443	-75.887	17.373	-72.796	203.357	152.005	-100.117	-57.340	195.948	221.536	95.926	247.540	5.034	207.406	0.0014422	0.00077526	0.00016833	472.79	8.4974e-06	8.2057e-06	669.19	219.52	2.1054e-06	7.8319e-06	333.63	171.23	104.1	53.765	7.3524e-06	101.22	0.0011625	0.0011865	0.00033417	468.12	1.2095e-05	1.3299e-05	661.51	218.19	1.2473e-05	1.3127e-05	332.04	170.32	104.43	54.141	1.2911e-05	101.97	9.887	-7.641	-3.635	-88.252	58.302	36.877	-88.132	-82.646	4.003	63.612	-83.561	-78.359	-77.901	-72.368	33.781	-74.009	-8191	255	
46619.832	1	1	0	0	0.039388	0.082592	0.10906	0.109	0.10666	0.099073	0.14543	0.11062	0.23187	0.23507	0.17392	0.076925	0.054988	0.080995	0.056832	0.28537	-3.6917	-4.3958	-4.7042	-3.7896	-4.7583	-4.3104	-4.0687	-5.0833	-3.9625	-4.4354	-4.7604	-3.8792	-4.6438	-4.4333	-3.9521	-5.1167	196.078	40.504	192.299	1.673	242.947	77.946	5.475	132.701	-38.040	203.982	227.877	226.697	139.032	217.798	41.817	202.808	0.00116	0.00053712	0.00019833	469.11	6.402e-06	3.295e-06	667.1	218.37	5.9327e-06	6.3277e-06	332.19	169.61	104.29	53.599	5.4007e-06	101.38	0.0011813	0.0011999	0.00032815	466.59	1.2246e-05	1.3389e-05	659.27	217.45	1.2518e-05	1.3373e-05	331.14	169.67	104.35	54.043	1.2776e-05	101.87	6.817	-32.655	-12.167	-88.169	53.986	75.867	-88.334	-82.800	64.114	47.783	-83.651	-78.257	-77.870	-72.352	28.873	-74.146	-8191	255	
46619.953	1	1	0	0	0.22737	0.14021	0.062154	0.2684	0.082758	0.064321	0.16126	0.20379	0.07481	0.18876	0.20662	0.2182	0.016253	0.11201	0.15272	0.095059	-3.6583	-4.2271	-4.6625	-3.9188	-4.4958	-4.5458	-3.8646	-5.0104	-4.2312	-4.1333	-5.0375	-4.0146	-4.6813	-4.7833	-3.8187	-4.9979	33.244	49.892	64.699	107.184	71.528	176.752	182.183	235.659	-73.348	-29.006	-87.019	242.210	37.244	220.895	-43.662	212.260	0.0012704	0.00064049	0.0001185	474.88	6.9773e-06	7.0285e-06	670.21	220.66	1.1059e-05	5.5219e-06	333.39	171.64	104.75	54.138	6.6111e-06	102.25	0.0011808	0.001186	0.00033748	467.99	1.232e-05	1.3014e-05	660.4	218.53	1.2546e-05	1.3412e-05	333.01	170.8	104.92	54.449	1.3009e-05	102.6	6.609	4.021	-3.585	-88.370	60.573	53.602	-88.385	-82.736	37.120	44.953	-83.692	-78.633	-77.957	-72.476	31.310	-74.075	-8191	255	
46620.023	1	1	0	0	0.21446	0.10384	0.10017	0.081364	0.19538	0.088019	0.12324	0.1877	0.12226	0.091604	0.15502	0.072507	0.010343	0.19522	0.11305	0.16275	-3.9958	-4.1438	-4.8625	-3.9062	-4.4313	-4.6375	-4.0729	-4.8938	-4.2792	-4.0521	-5	-4.0667	-4.4417	-4.8938	-3.8563	-4.7729	-33.482	-47.085	132.833	108.885	-75.651	-81.260	180.257	154.941	163.990	231.718	187.044	73.151	21.007	172.195	0.619	243.040	0.0013409	0.0006693	0.00015319	476.47	1.1326e-05	7.8098e-06	669.28	220.57	5.4574e-06	4.3174e-06	335.73	171.98	104.74	54.11	7.1566e-06	102.56	0.0011867	0.0011917	0.00033647	469.22	1.2534e-05	1.3265e-05	662.01	219.03	1.251e-05	1.3212e-05	334.38	171.63	105.02	54.486	1.3188e-05	102.92	10.487	-9.968	-2.521	-88.198	58.933	30.662	-88.277	-83.001	32.061	35.237	-83.595	-78.302	-77.971	-72.452	46.965	-74.353	-8191	255	
46620.121	1	1	0	0	0.087573	0.15729	0.10629	0.096081	0.27475	0.19876	0.174	0.046987	0.15068	0.23178	0.14466	0.3321	0.055627	0.26788	0.038003	0.11789	-4.1708	-3.9208	-4.9083	-4.2417	-4.1729	-4.7354	-3.9	-4.8583	-4.3542	-4.1312	-4.9604	-4.0583	-4.3083	-4.8542	-3.7562	-4.7667	69.872	9.144	-27.045	250.323	72.166	35.054	83.232	61.922	204.616	207.685	140.075	190.674	124.368	185.081	169.066	126.447	0.0013261	0.00051094	0.00011613	474.97	5.7661e-06	6.0885e-06	674.63	220.96	9.1737e-06	5.1231e-06	336.61	172.39	105.24	54.564	5.0114e-06	102.75	0.0011913	0.0011989	0.00033593	469.78	1.2418e-05	1.3155e-05	664.01	219.34	1.2511e-05	1.3292e-05	335.28	171.83	105.32	54.813	1.3184e-05	103.03	8.763	-13.278	-30.102	-88.228	38.505	38.203	-88.414	-82.850	24.050	17.993	-83.688	-78.501	-78.085	-72.532	43.175	-74.273	-8191	255	
46620.219	1	1	0	0	0.17492	0.078313	0.16116	0.13949	0.029779	0.089263	0.032219	0.12297	0.13122	0.12673	0.088833	0.179	0.084359	0.14857	0.15659	0.1247	-4.1979	-3.9583	-4.6833	-4.1833	-4.0854	-4.9104	-4.0292	-4.6521	-4.6188	-3.9688	-4.9229	-4.3729	-4.1896	-4.9042	-3.925	-4.5437	131.186	-95.681	245.848	35.941	-7.744	211.026	64.174	-99.866	22.502	163.412	175.846	230.185	-60.135	113.230	-90.405	100.656	0.0012661	0.00082561	0.00016465	477.45	8.3845e-06	5.5814e-06	673.81	221.39	6.9634e-06	6.5186e-06	336.58	173.09	105.82	54.72	4.3591e-06	102.68	0.0011825	0.0012001	0.00033963	471.93	1.2433e-05	1.3484e-05	663.54	219.64	1.2587e-05	1.3502e-05	335.13	172.09	105.54	54.966	1.3451e-05	103.2	10.683	-1.848	-6.434	-88.026	48.960	61.761	-88.610	-82.851	46.600	50.257	-83.676	-78.339	-78.075	-72.529	46.532	-74.209	-8191	255	
46620.336	1	1	0	0	0.40766	0.099774	0.23373	0.042794	0.08751	0.15663	0.14813	0.18891	0.3279	0.11197	0.12205	0.22261	0.10681	0.21379	0.11331	0.13749	-4.3604	-3.7479	-4.8229	-4.4437	-4.0896	-5.0312	-4.1438	-4.4875	-4.5813	-3.8146	-4.9542	-4.4521	-3.8979	-5.0292	-3.9583	-4.5292	141.350	184.166	80.637	-60.604	151.639	110.175	-61.493	215.816	-55.730	97.004	-91.014	-31.064	-43.583	171.583	114.952	174.935	0.001376	0.00058868	0.00015926	476.84	4.8761e-06	4.1862e-06	675.03	222.13	9.893e-06	3.5392e-06	336.89	172.76	105.37	54.848	6.1282e-06	103.12	0.0011685	0.0012051	0.00033663	470.66	1.2412e-05	1.3627e-05	665.01	220.23	1.2636e-05	1.3558e-05	335.22	172.21	105.64	55.043	1.3349e-05	103.41	9.614	-10.574	-27.843	-88.138	83.928	38.376	-88.544	-82.997	52.943	46.635	-83.786	-78.399	-77.850	-72.663	79.846	-74.282	-8191	255	
46620.434	1	1	0	0	0.12911	0.21287	0.18755	0.18556	0.085112	0.16204	0.14042	0.12016	0.15123	0.18034	0.21252	0.44249	0.29477	0.013263	0.34227	0.19686	-4.3979	-3.8438	-4.5229	-4.5375	-3.7417	-4.9271	-4.3479	-4.25	-4.7292	-3.7854	-4.725	-4.6104	-3.8521	-4.8458	-4.1396	-4.2854	32.527	130.354	150.321	150.533	98.627	-36.813	30.609	200.219	-53.215	59.208	147.745	236.719	197.223	212.504	195.844	147.864	0.0012221	0.00052653	0.00018532	480.57	8.4239e-06	8.0612e-06	677.6	221.8	7.974e-06	6.5808e-06	337.61	173.44	105.56	54.706	6.6388e-06	103.16	0.0011889	0.0011995	0.0003355	472.31	1.2347e-05	1.3596e-05	666.6	220.38	1.2661e-05	1.3694e-05	336.18	172.43	105.48	54.949	1.3245e-05	103.53	6.897	-10.938	-33.942	-88.281	55.871	42.498	-88.404	-83.096	22.206	25.823	-83.678	-78.377	-77.794	-72.459	47.659	-74.111	-8191	255	
46620.527	1	1	0	0	0.15853	0.1135	0.018679	0.073908	0.1517	0.06586	0.18649	0.20746	0.088579	0.28171	0.028311	0.11035	0.18263	0.041238	0.20008	0.21915	-4.5146	-3.7917	-4.5542	-4.5417	-3.8438	-4.7792	-4.2812	-4.1583	-4.9729	-4.0104	-4.5708	-4.775	-4.1229	-4.9396	-4.3104	-4.2125	58.809	191.807	129.956	170.530	255.772	37.350	245.518	244.633	149.455	-17.104	-5.401	-7.623	163.293	183.047	73.937	185.683	0.0012977	0.00048057	0.00018521	478.52	1.0152e-05	3.5553e-06	674.15	222.12	7.6871e-06	7.1632e-06	337	173.38	105.55	54.688	4.0312e-06	103.08	0.0011868	0.00121	0.00034111	473.18	1.2625e-05	1.3593e-05	666.45	220.39	1.2757e-05	1.3741e-05	336.45	172.42	105.6	55.04	1.3065e-05	103.4	12.512	6.447	-13.426	-88.211	44.241	48.177	-88.123	-82.792	67.472	28.754	-83.547	-78.159	-78.080	-72.414	51.272	-74.172	-8191	255	
46620.625	1	1	0	0	0.096162	0.11948	0.14706	0.12628	0.055798	0.030121	0.12298	0.24562	0.22082	0.13612	0.27598	0.0081569	0.10312	0.12936	0.17493	0.17131	-4.6604	-3.8542	-4.2146	-4.6833	-3.8563	-4.6854	-4.5396	-4.0875	-5.0458	-4.0062	-4.3917	-4.9021	-3.9604	-4.6833	-4.4271	-4.1792	120.788	92.209	16.177	78.237	173.257	-87.993	129.385	94.247	246.704	3.746	195.051	196.527	-85.502	197.788	170.311	160.481	0.0013894	0.00071199	0.00017475	478.24	8.1227e-06	4.7224e-06	676.4	221.78	6.2941e-06	5.4983e-06	337.52	172.94	105.51	54.874	5.8845e-06	102.92	0.0012052	0.0012356	0.00034388	472.99	1.2762e-05	1.3529e-05	666.36	220.39	1.2764e-05	1.3716e-05	335.92	172.44	105.73	55.177	1.3352e-05	103.46	14.138	13.367	-2.878	-88.099	36.624	46.182	-88.239	-82.970	13.586	51.185	-83.503	-78.358	-78.055	-72.380	43.475	-74.141	-8191	255	
46620.723	1	1	0	0	0.2906	0.18677	0.094342	0.19051	0.17911	0.043106	0.059168	0.19135	0.054209	0.018549	0.15219	0.06525	0.073043	0.29928	0.2936	0.39067	-4.7125	-4.025	-4.0625	-4.6521	-3.6688	-4.5646	-4.6271	-4.0583	-4.775	-4.1542	-4.3479	-4.8396	-3.9625	-4.6479	-4.5417	-4	-88.097	119.559	-61.599	-66.282	86.936	159.496	166.127	84.882	122.711	-16.110	-80.362	196.673	220.728	194.921	82.865	177.695	0.001485	0.00062249	0.00018398	478.36	4.3746e-06	6.5211e-06	677.96	221.51	5.4833e-06	6.2283e-06	337.56	173.27	105.54	54.692	7.0912e-06	103.15	0.0012027	0.0012217	0.00034687	472.91	1.2634e-05	1.3471e-05	668.37	220.45	1.2794e-05	1.3903e-05	335.78	172.57	105.74	55.154	1.3296e-05	103.5	11.568	-6.183	-13.432	-87.981	73.125	25.725	-88.362	-82.765	46.023	65.151	-83.611	-78.316	-77.941	-72.432	27.506	-74.135	-8191	255	
46620.816	1	1	0	0	0.13452	0.062124	0.10411	0.17664	0.30543	0.019961	0.24417	0.19445	0.11571	0.099243	0.11713	0.22207	0.1196	0.032503	0.082531	0.28887	-4.5062	-4.2854	-4.0396	-5.0625	-3.8438	-4.5917	-4.7979	-3.9083	-4.8667	-4.1937	-4.1813	-4.9667	-4.0667	-4.7646	-4.9437	-4.1937	-86.265	-6.649	75.519	256.700	140.997	20.278	251.182	-66.923	-50.039	76.405	205.089	245.287	61.077	209.306	148.522	201.252	0.0013573	0.00087961	0.00017021	478.6	3.2655e-06	5.9242e-06	676.59	221.65	3.4614e-06	6.4676e-06	337.33	173.59	105.44	54.786	8.2876e-06	103.08	0.0012202	0.0012397	0.00034776	473.29	1.2866e-05	1.3758e-05	667.86	220.54	1.3131e-05	1.3914e-05	336.13	172.65	105.64	55.114	1.3553e-05	103.65	13.379	-29.663	-20.098	-88.113	114.466	49.708	-88.316	-83.005	48.934	43.220	-83.687	-78.203	-77.988	-72.508	52.285	-74.174	-8191	255	
46620.914	1	1	0	0	0.064056	0.23305	0.14494	0.052103	0.17001	0.046641	0.18921	0.20777	0.1247	0.018611	0.24068	0.15704	0.29779	0.18275	0.054622	0.13077	-4.4083	-4.3771	-4.0104	-4.9688	-3.9708	-4.3146	-4.8417	-3.8979	-4.5396	-4.4917	-4.1104	-5.0625	-4.2104	-4.2604	-4.7333	-4.1958	63.004	176.730	69.647	154.269	70.871	34.439	157.425	206.910	128.459	51.800	228.047	204.296	244.788	231.223	29.154	184.142	0.0013916	0.00048484	0.00018223	480.29	6.6881e-06	4.5227e-06	678.6	222.69	4.1462e-06	8.3876e-06	338.34	174.98	105.88	55.135	5.554e-06	104.09	0.0012242	0.0012414	0.00034175	474.08	1.2688e-05	1.3748e-05	669.43	221	1.2967e-05	1.3601e-05	337.15	173.84	105.88	55.378	1.3441e-05	104.29	12.819	-23.934	-30.110	-87.945	24.315	30.918	-88.514	-82.962	75.595	54.310	-83.424	-78.545	-77.980	-72.683	50.189	-74.237	-8191	255	
46621.035	1	1	0	0	0.15447	0.17532	0.034051	0.037162	0.098566	0.067171	0.33271	0.10962	0.07777	0.09035	0.25061	0.1899	0.031752	0.12147	0.17302	0.029308	-4.2646	-4.4313	-3.9667	-4.8083	-4.0875	-4.0042	-4.9458	-3.8896	-4.4437	-4.7333	-4.025	-4.9604	-4.3854	-4.1771	-4.9875	-4.1271	27.373	-17.226	190.174	18.088	143.286	6.912	148.707	31.750	213.051	214.784	167.655	212.246	134.029	130.675	133.923	33.105	0.0013258	0.00076172	0.00021035	482.01	4.6011e-06	5.1388e-06	681.67	222.3	8.3713e-06	6.6513e-06	340.14	174.88	105.47	55.29	5.3962e-06	103.75	0.0012174	0.001234	0.00034829	476	1.291e-05	1.352e-05	670.63	220.85	1.2963e-05	1.3823e-05	337.59	173.64	105.95	55.477	1.3531e-05	104.11	12.337	-4.489	-23.201	-88.207	49.026	28.411	-88.127	-82.872	49.505	32.284	-83.554	-78.193	-77.688	-72.384	56.712	-74.323	-8191	255	
46621.129	1	1	0	0	0.065902	0.14529	0.032337	0.15884	0.16097	0.13143	0.080035	0.060071	0.16508	0.12837	0.56523	0.14124	0.27355	0.11202	0.10049	0.26755	-4.1146	-4.6521	-3.7875	-4.8146	-4.2688	-4.0771	-4.9583	-4.1438	-4.3063	-4.6333	-4.0208	-4.8812	-4.4437	-4.125	-4.8646	-4.1667	86.481	91.289	-73.108	128.030	-5.279	133.045	48.043	-43.415	-59.033	-75.854	192.230	146.379	210.696	256.236	-25.617	-29.183	0.0012596	0.00069364	0.00014939	479.88	4.8247e-06	5.8279e-06	678.31	221.73	1.0126e-05	4.9681e-06	338.01	173.5	105.61	55.004	3.5186e-06	103.43	0.0012169	0.0012258	0.00034868	474.51	1.2864e-05	1.369e-05	669.51	220.51	1.2988e-05	1.3754e-05	336.45	172.92	105.83	55.378	1.3692e-05	103.97	13.031	-4.910	-26.318	-88.283	62.022	28.891	-88.414	-82.872	50.155	40.971	-83.537	-78.200	-77.885	-72.642	56.292	-74.154	-8191	255	
46621.227	1	1	0	0	0.17675	0.15062	0.14191	0.15042	0.1586	0.17321	0.074925	0.046296	0.22099	0.10635	0.065924	0.10173	0.019026	0.045866	0.17222	0.061613	-4.0771	-4.7083	-3.7896	-4.9479	-4.5042	-4.0667	-5.1458	-4.2562	-4.0854	-4.6583	-3.8542	-4.5646	-4.5687	-3.9854	-4.9896	-4.3271	148.717	211.571	-81.176	-8.901	-60.169	76.228	-94.957	131.664	1.439	235.780	92.785	107.228	177.271	-68.382	137.822	222.444	0.0013645	0.00041109	0.00019004	478.77	6.0106e-06	4.7612e-06	676.29	221.64	8.3113e-06	4.1634e-06	338.54	173.66	105.44	55.306	2.7558e-06	103.86	0.001203	0.0012425	0.00034889	474.57	1.2712e-05	1.398e-05	669.98	220.72	1.3071e-05	1.3818e-05	337.21	173.52	105.83	55.488	1.3632e-05	104.29	10.171	-16.938	7.402	-88.187	47.261	40.134	-88.181	-82.716	30.031	41.814	-83.579	-78.273	-77.713	-72.520	40.928	-74.173	-8191	255	
46621.320	1	1	0	0	0.11324	0.13611	0.11975	0.098275	0.11502	0.07005	0.13457	0.14335	0.18766	0.088766	0.057125	0.063232	0.19077	0.17604	0.065394	0.30637	-3.8583	-4.8104	-3.8292	-4.5188	-4.6292	-3.9021	-4.925	-4.3542	-4.0854	-4.6854	-3.9792	-4.5312	-4.5208	-4.075	-4.7083	-4.4104	98.298	39.366	-72.523	241.984	1.669	-32.542	-68.055	-92.097	-6.527	101.031	20.798	-95.212	107.578	-22.917	49.865	247.188	0.0013341	0.00097822	0.00016384	482.25	3.8997e-06	2.0007e-06	679.52	222.44	9.257e-06	5.4422e-06	338.81	174.3	105.85	55.19	5.0823e-06	103.47	0.0012158	0.0012491	0.00035191	475.88	1.2918e-05	1.3756e-05	671.17	220.95	1.2806e-05	1.3798e-05	337.37	173.59	105.89	55.406	1.3939e-05	104.19	8.915	-30.611	-13.157	-88.308	61.938	30.684	-88.278	-82.667	54.228	37.067	-83.615	-78.444	-77.811	-72.674	69.147	-74.062	-8191	255	
46621.418	1	1	0	0	0.031876	0.080284	0.19988	0.14093	0.21422	0.14341	0.12674	0.22494	0.12375	0.042032	0.11718	0.17725	0.10211	0.084498	0.069718	0.047335	-3.6417	-4.7229	-4.0208	-4.5333	-4.7792	-3.8563	-4.8125	-4.4792	-3.9542	-4.7542	-4.2604	-4.4354	-4.8542	-3.9604	-4.6375	-4.7	191.680	153.366	-22.966	239.861	176.306	196.985	-88.072	132.300	78.236	251.574	222.172	259.052	3.177	-78.330	170.603	229.043	0.0013571	0.00069077	0.00016862	479.07	7.6552e-06	6.1079e-06	676.55	222.64	6.9342e-06	5.966e-06	338.68	173.81	105.47	54.996	5.5315e-06	103.55	0.0012213	0.0012619	0.00035248	474.15	1.2869e-05	1.4173e-05	669.27	220.73	1.3114e-05	1.3956e-05	336.58	173.08	105.71	55.377	1.3781e-05	103.91	13.898	-9.240	-4.120	-88.545	63.291	28.200	-88.381	-82.818	31.709	39.987	-83.605	-78.408	-77.958	-72.764	77.702	-74.216	-8191	255	
46621.512	1	1	0	0	0.049701	0.24574	0.10719	0.21251	0.10495	0.0057645	0.075639	0.074962	0.084444	0.2275	0.23427	0.086988	0.066213	0.064464	0.19452	0.22324	-3.6479	-4.8292	-3.95	-4.1333	-4.7125	-3.9042	-4.7271	-4.4417	-3.7979	-4.9729	-4.275	-4.2583	-4.925	-3.9271	-4.5083	-4.7688	63.983	53.514	-87.077	-71.979	61.670	130.194	236.870	127.399	-52.837	83.703	237.795	212.373	-39.332	98.664	-100.009	187.719	0.0013789	0.00045849	0.00020537	480.46	7.4093e-06	5.1115e-06	679.88	221.72	3.9382e-06	4.5701e-06	337.76	173.98	105.92	55.143	7.8384e-06	103.99	0.0012244	0.0012438	0.00035172	474.45	1.2846e-05	1.4102e-05	669.94	220.24	1.3073e-05	1.378e-05	336.51	173.22	105.86	55.513	1.3777e-05	104.22	9.140	1.917	-4.754	-88.284	92.990	79.560	-88.243	-82.655	45.560	26.516	-83.605	-78.446	-77.717	-72.388	55.597	-74.328	-8191	255	
46621.633	1	1	0	0	0.13764	0.35709	0.10714	0.16445	0.13197	0.14516	0.11313	0.11943	0.11536	0.08432	0.12093	0.15011	0.06817	0.27249	0.098346	0.32421	-3.6688	-4.75	-4.0896	-4.0542	-4.8	-3.9583	-4.5062	-4.7667	-3.6875	-4.8187	-4.4771	-4.0938	-4.8667	-3.9688	-4.2583	-4.8938	84.425	69.234	-84.254	257.990	179.892	215.781	-88.360	175.983	131.792	-71.145	207.818	238.154	226.519	201.994	238.112	211.538	0.0013617	0.00077024	0.00012376	481.7	7.0187e-06	4.8846e-06	676.3	221.78	6.8748e-06	4.7675e-06	338.93	174.02	105.37	55.271	1.3445e-06	104.14	0.0012215	0.00124	0.00035673	474.97	1.2779e-05	1.3961e-05	668.45	220.09	1.3069e-05	1.3867e-05	336.51	173.4	105.73	55.568	1.3715e-05	104.39	15.089	5.619	-19.733	-88.301	43.591	47.059	-88.441	-82.880	10.829	20.251	-83.774	-78.506	-77.692	-72.625	87.635	-74.375	-8191	255	
46621.730	1	1	0	0	0.26163	0.097226	0.15278	0.22262	0.31757	0.05804	0.12335	0.22125	0.097618	0.1642	0.047478	0.21772	0.10554	0.050378	0.2209	0.13472	-3.425	-4.6271	-4.3417	-3.9417	-4.7417	-4.0917	-4.3083	-4.8521	-3.8396	-4.5687	-4.375	-4.0188	-4.8958	-4.0979	-4.1062	-4.9625	-65.514	93.630	106.028	225.329	201.792	-56.473	227.879	212.009	-62.091	-70.575	144.340	235.945	210.003	125.506	225.100	152.579	0.0013282	0.00069969	0.00011997	479.67	8.0476e-06	6.4501e-06	676.84	221.93	7.7749e-06	6.8605e-06	338.64	174.34	105.64	55.19	6.3022e-06	103.93	0.0012186	0.0012377	0.00034478	473.95	1.2768e-05	1.3907e-05	669.17	220.1	1.3008e-05	1.3659e-05	336.5	173.36	105.72	55.528	1.335e-05	104.4	10.730	-3.779	-0.123	-88.266	37.726	41.285	-88.352	-82.746	21.238	61.035	-83.651	-78.407	-78.031	-72.625	10.659	-74.115	-8191	255	
46621.824	1	1	0	0	0.07735	0.015916	0.15345	0.15915	0.071342	0.18674	0.15802	0.30263	0.18129	0.26226	0.062157	0.05224	0.30325	0.051286	0.13323	0.28254	-3.5187	-4.6062	-4.4313	-3.9833	-4.7542	-4.1646	-4.2063	-4.7021	-3.8396	-4.525	-4.7229	-3.8958	-4.9104	-4.3521	-4.0604	-4.9458	44.860	54.031	38.047	-74.764	250.253	-17.577	-59.162	186.413	194.134	40.997	150.748	33.218	-86.650	213.247	255.765	211.748	0.0013055	0.00054461	0.0001878	480.83	5.9318e-06	7.6026e-06	679.05	221.45	8.4797e-06	7.602e-06	336.78	173.59	105.18	55.026	7.7283e-06	103.69	0.0012299	0.0012378	0.00035291	474.42	1.2741e-05	1.3871e-05	667.81	219.75	1.2919e-05	1.3922e-05	335.6	172.99	105.46	55.354	1.3489e-05	104.02	16.240	-16.974	-13.589	-88.127	59.318	65.369	-88.533	-82.933	62.275	39.222	-83.562	-78.499	-78.002	-72.467	37.897	-74.046	-8191	255	
46621.898	1	1	0	0	0.18188	0.15629	0.11953	0.11446	0.05094	0.4201	0.13545	0.12102	0.030579	0.2009	0.1858	0.20604	0.0678	0.28251	0.067416	0.13322	-3.7333	-4.3208	-4.6229	-3.8917	-4.8708	-4.2896	-4.2771	-4.9667	-3.9146	-4.3625	-4.8125	-3.9333	-4.825	-4.5104	-4.0292	-5.0792	-58.314	238.676	247.578	235.243	-19.347	118.649	178.195	147.896	221.429	50.370	-72.972	-85.609	256.377	163.326	162.477	226.054	0.0014674	0.00067567	0.00011857	478.1	6.1239e-06	7.3502e-06	675.69	220.25	6.6838e-06	6.8713e-06	335.94	173.96	104.89	55.049	3.3516e-06	103.99	0.0012153	0.0012171	0.00034272	472.53	1.2698e-05	1.3495e-05	666.05	219.03	1.2967e-05	1.3743e-05	333.98	172.77	105.3	55.338	1.32e-05	104.13	10.556	-21.212	-34.911	-88.335	65.005	49.469	-88.413	-83.180	51.378	32.456	-83.478	-78.496	-77.617	-72.600	69.296	-74.352	-8191	255	
46621.992	1	1	0	0	0.20967	0.10716	0.28709	0.054656	0.07733	0.028201	0.152	0.24628	0.083156	0.16441	0.16743	0.14422	0.044551	0.11099	0.083504	0.13653	-3.7167	-4.1833	-4.6917	-3.8438	-4.4771	-4.35	-4.1604	-5.0229	-4.1833	-4.1583	-4.9042	-3.9083	-4.7521	-4.625	-3.9542	-4.9833	-36.098	231.191	167.136	207.346	24.083	98.088	167.062	197.257	147.281	-55.921	0.568	-65.158	206.743	53.934	-78.079	201.216	0.0012808	0.00069259	0.00014778	478.51	1.0444e-05	4.468e-06	674.89	220.11	7.9951e-06	3.2565e-06	336.01	173.58	105.11	55.229	4.6451e-06	103.45	0.0011967	0.0012385	0.00034282	471.29	1.2475e-05	1.3532e-05	664.14	218.22	1.2913e-05	1.3642e-05	334.01	172.68	105.33	55.363	1.3156e-05	104.1	13.146	-11.856	-38.928	-88.058	58.915	67.963	-88.220	-82.839	33.835	47.057	-83.432	-78.505	-77.881	-72.428	90.426	-73.998	-8191	255	
46622.113	1	1	0	0	0.18439	0.071734	0.1949	0.16064	0.14853	0.16754	0.093718	0.21747	0.090946	0.32566	0.077688	0.16938	0.048867	0.12412	0.070703	0.20518	-3.9333	-4.0833	-4.775	-3.9979	-4.3938	-4.5604	-4.0167	-4.9729	-4.2146	-4.1	-4.8583	-4.1646	-4.6583	-4.9042	-3.7771	-4.925	74.544	73.297	135.571	194.452	36.158	55.605	118.714	54.960	226.064	253.389	131.565	218.510	228.538	205.475	96.559	258.078	0.0013726	0.00051795	0.00013541	476.23	7.1189e-06	6.2838e-06	674.27	220.82	7.1988e-06	5.6156e-06	336.45	173.83	104.68	55.272	4.9865e-06	104.14	0.0011928	0.0012251	0.00033667	470.15	1.2427e-05	1.3205e-05	664.8	218.46	1.2727e-05	1.3715e-05	334.05	172.8	105.2	55.496	1.3428e-05	104.36	7.212	-14.283	-8.732	-88.160	69.655	12.158	-88.288	-82.863	64.190	46.901	-83.644	-78.273	-77.980	-72.483	78.206	-74.174	-8191	255	
46622.211	1	1	0	0	0.073142	0.13999	0.1173	0.32503	0.12708	0.081991	0.056591	0.063482	0.26973	0.1247	0.26359	0.19044	0.027551	0.052798	0.18838	0.15364	-3.7583	-4.0188	-4.7375	-3.8438	-4.1458	-4.7	-3.9437	-4.5979	-4.4313	-3.825	-4.9375	-4.0771	-4.3396	-4.7667	-3.7188	-4.7479	116.745	46.542	109.537	-97.195	9.852	-58.678	-89.375	68.238	15.855	176.541	-89.612	193.877	-90.461	54.596	-31.192	-72.883	0.0012917	0.00049622	0.00015163	476.05	8.5645e-06	7.1504e-06	675.9	220.53	8.7355e-06	5.1897e-06	337.47	173.86	105.02	55.246	4.4e-06	103.82	0.0011655	0.0011907	0.00033703	471.11	1.2362e-05	1.3236e-05	664.92	218.34	1.2341e-05	1.3303e-05	334.56	173.03	105.12	55.437	1.3168e-05	104.22	9.260	-27.287	-14.406	-88.025	45.026	43.292	-88.389	-83.012	23.625	34.692	-83.498	-78.289	-78.074	-72.517	28.598	-74.089	-8191	255	
46622.309	1	1	0	0	0.13681	0.17727	0.078449	0.074042	0.0694	0.12127	0.1368	0.30597	0.16506	0.13898	0.14678	0.1234	0.1572	0.023869	0.13257	0.21998	-4.1875	-3.8604	-4.7771	-4.2312	-4.1646	-4.8792	-3.9083	-4.5292	-4.3979	-3.7667	-4.9	-4.1521	-4.2521	-5.0146	-3.8229	-4.6229	141.004	-77.690	98.364	207.745	200.307	-15.745	203.605	156.074	207.991	25.347	188.760	258.660	184.107	90.118	-53.535	233.155	0.001334	0.00047768	0.00018614	478.17	1.0089e-05	4.1396e-06	674.02	220.94	7.939e-06	6.4188e-06	335.84	173.29	105.09	55.12	7.0719e-06	103.42	0.0011792	0.0011908	0.00033645	471.42	1.2136e-05	1.32e-05	664.65	218.6	1.2458e-05	1.317e-05	333.98	172.4	105.19	55.393	1.3064e-05	103.87	9.416	-6.511	0.067	-88.116	50.417	37.651	-88.200	-82.886	41.871	51.531	-83.429	-78.287	-77.818	-72.479	55.592	-74.288	-8191	255	
46622.426	1	1	0	0	0.096569	0.2253	0.081246	0.26726	0.20075	0.11532	0.32117	0.089016	0.16044	0.2173	0.11506	0.24035	0.012331	0.1917	0.16748	0.24354	-4.3396	-3.7354	-4.8208	-4.3562	-3.9938	-4.8271	-4.0521	-4.6521	-4.6521	-3.9688	-4.7875	-4.4625	-4.1021	-5.0396	-3.875	-4.4104	177.980	-54.060	-0.392	219.182	63.750	-37.212	181.234	142.407	86.251	-94.338	218.349	-95.388	254.451	150.698	57.937	251.038	0.0013095	0.00075238	0.00014577	477.54	6.9939e-06	5.8195e-06	672.52	220.18	9.2387e-06	5.2098e-06	336.18	172.59	104.73	54.836	3.2252e-06	103.65	0.0011706	0.0011873	0.00033567	470.95	1.2389e-05	1.3337e-05	663.5	218.42	1.2322e-05	1.3275e-05	334.04	171.94	104.95	55.185	1.3181e-05	103.74	10.925	-4.459	-27.073	-88.316	48.772	53.303	-88.396	-83.032	42.778	36.799	-83.762	-78.427	-77.673	-72.498	41.620	-74.085	-8191	255	
46622.523	1	1	0	0	0.17014	0.054143	0.086963	0.014856	0.094661	0.043394	0.041724	0.098898	0.060906	0.23408	0.13115	0.22121	0.16655	0.063014	0.09352	0.17197	-4.3583	-3.8	-4.7792	-4.4667	-4.0083	-4.8896	-4.1813	-4.3333	-4.6771	-3.8208	-4.8354	-4.7104	-4.1604	-4.9938	-4.0938	-4.25	131.776	212.640	54.963	54.881	102.595	137.409	218.673	189.541	-57.770	221.812	245.554	192.502	-41.470	230.175	102.213	226.460	0.0013336	0.00064955	0.00016518	475.66	8.1708e-06	7.0192e-06	672.37	219.81	5.2353e-06	6.6804e-06	336.57	172.94	104.41	54.958	6.0089e-06	103.24	0.0011643	0.0012154	0.00033243	470.63	1.2289e-05	1.3428e-05	664.17	217.91	1.2481e-05	1.3389e-05	334.23	172.13	104.73	55.147	1.3037e-05	103.71	6.226	-15.110	-5.925	-88.161	59.509	21.677	-88.317	-83.020	12.305	26.907	-83.561	-78.317	-78.063	-72.515	46.705	-74.237	-8191	255	
46622.594	1	1	0	0	0.10866	0.16431	0.06974	0.055698	0.30507	0.036169	0.07049	0.13972	0.069422	0.20165	0.27366	0.13088	0.18338	0.20188	0.25898	0.14361	-4.5292	-3.7229	-4.6312	-4.65	-3.7896	-4.7083	-4.325	-4.0354	-4.8167	-3.8958	-4.2979	-4.6271	-3.8167	-4.7667	-4.1583	-4.2375	70.102	232.282	129.224	111.667	-8.619	188.736	-44.408	-57.383	70.462	61.243	236.251	-73.043	23.390	-11.570	19.637	141.105	0.0013299	0.0008724	0.00016164	475.9	5.5946e-06	9.1625e-06	674.79	219.71	1.0741e-05	8.7758e-06	335.4	173.06	104.43	54.818	6.3615e-06	103.19	0.0011773	0.0012285	0.00033988	469.67	1.2449e-05	1.3395e-05	664.87	218.22	1.2603e-05	1.3339e-05	334.05	172.34	104.84	55.062	1.3404e-05	103.71	13.854	-33.869	-23.473	-88.355	58.204	41.864	-88.312	-83.059	23.042	39.227	-83.435	-78.482	-78.133	-72.534	61.027	-74.430	-8191	255	
46622.715	1	1	0	0	0.030606	0.13664	0.14859	0.13918	0.099289	0.085864	0.19214	0.16817	0.18391	0.15785	0.16282	0.14278	0.10388	0.11843	0.22638	0.16686	-4.4437	-3.9146	-4.2625	-4.6875	-3.875	-4.7875	-4.5042	-4.1271	-4.7958	-3.7979	-4.4563	-4.8313	-3.9021	-4.8292	-4.3438	-4.1604	98.537	-4.354	230.680	246.814	199.010	86.530	207.980	178.472	131.708	254.221	22.540	228.174	2.259	219.966	-91.286	98.909	0.0012063	0.00078836	0.00018304	475.86	7.0511e-06	6.469e-06	674.92	220.46	4.3295e-06	5.4877e-06	335.15	173.11	104.98	54.826	5.5713e-06	103.34	0.0011905	0.0012152	0.00034208	470.47	1.2404e-05	1.3442e-05	664.37	218.34	1.2605e-05	1.3436e-05	333.92	172.14	104.97	55.129	1.3238e-05	103.72	14.517	-21.649	-6.774	-88.101	84.079	70.308	-88.457	-82.853	49.237	39.160	-83.618	-78.258	-77.901	-72.421	51.384	-74.361	-8191	255	
46622.809	1	1	0	0	0.17503	0.077558	0.31634	0.15948	0.17722	0.17073	0.047028	0.20616	0.21139	0.046786	0.18199	0.17923	0.09831	0.083398	0.10408	0.31456	-4.675	-4.0854	-4.1937	-4.8792	-3.7313	-4.6375	-4.5687	-3.8438	-4.7917	-4.0854	-4.2125	-4.8375	-4.1229	-4.6208	-4.4521	-3.925	-46.820	254.300	123.427	199.233	-65.199	34.933	190.785	245.998	109.460	-81.788	146.163	-41.632	-34.600	233.143	-66.127	198.216	0.0013825	0.00055051	0.00016022	478.78	5.3853e-06	5.2279e-06	675.15	220.66	4.6678e-06	3.708e-06	336.75	173.44	104.47	55.026	7.8669e-06	103.64	0.0011952	0.0012285	0.00034372	470.89	1.2447e-05	1.3524e-05	664.88	218.55	1.2833e-05	1.3429e-05	334.39	172.31	104.83	55.28	1.3277e-05	103.78	9.360	15.062	9.493	-88.247	-13.700	73.573	-88.166	-83.082	60.186	41.013	-83.612	-78.419	-78.079	-72.469	6.267	-74.302	-8191	255	
46622.906	1	1	0	0	0.14084	0.10479	0.14312	0.032828	0.10936	0.080507	0.25309	0.2037	0.10456	0.06985	0.22254	0.31465	0.20611	0.20925	0.020712	0.324	-4.5396	-4.0958	-4.1937	-4.8479	-3.9167	-4.4396	-4.75	-3.8083	-4.8417	-4.3271	-4.1062	-4.9167	-4.1042	-4.5167	-4.6521	-3.9313	-14.621	-24.923	53.252	-29.444	-74.281	-95.972	170.119	-29.036	106.848	33.473	-71.335	176.452	-62.008	-58.611	178.397	227.826	0.0012304	0.00067922	0.00011222	477.76	4.6414e-06	5.5984e-06	674.19	220.32	6.6379e-06	3.6602e-06	335.42	172.87	104.54	54.829	4.028e-06	103.08	0.0011918	0.0012147	0.00034303	471.02	1.2778e-05	1.364e-05	664.77	218.29	1.2784e-05	1.3455e-05	334.06	171.89	104.62	55.043	1.321e-05	103.51	14.952	12.313	-10.754	-88.092	49.726	30.756	-88.529	-82.996	48.637	43.521	-83.551	-78.426	-78.017	-72.768	7.161	-74.213	-8191	255	
46623.027	1	1	0	0	0.13458	0.040569	0.15312	0.19181	0.18199	0.072287	0.094971	0.11076	0.274	0.10721	0.052883	0.005917	0.028431	0.068007	0.13727	0.19451	-4.3729	-4.3729	-3.9854	-4.9146	-4.0021	-4.3	-5.0229	-3.9479	-4.8688	-4.4229	-4.1542	-4.9458	-4.1792	-4.525	-5.0292	-3.9437	-14.201	58.478	60.885	82.905	82.801	-20.324	86.213	183.576	63.044	-37.755	159.056	46.333	-38.072	76.389	-66.202	142.378	0.0013517	0.00086749	0.00012452	477.29	8.7477e-06	6.7361e-06	674.49	219.66	4.1175e-06	7.527e-06	334.91	172.57	104.37	54.51	6.9279e-06	103.07	0.0011957	0.0012275	0.0003438	470.41	1.2785e-05	1.3597e-05	665.43	218.2	1.2861e-05	1.3602e-05	333.46	171.85	104.54	54.819	1.3446e-05	103.28	12.133	-6.857	-16.501	-88.275	59.952	53.623	-88.377	-82.883	0.665	55.754	-83.671	-78.473	-77.971	-72.580	67.471	-74.320	-8191	255	
46623.121	1	1	0	0	0.15007	0.20605	0.097595	0.11603	0.1595	0.15466	0.073927	0.35249	0.13376	0.162	0.38096	0.13294	0.1509	0.23862	0.19836	0.27769	-4.3458	-4.4208	-3.7646	-4.9792	-4.0208	-4.1854	-4.6542	-3.8667	-4.5583	-4.4187	-4.0875	-4.9187	-4.2125	-4.2	-4.7208	-4.1354	68.254	238.693	34.517	138.582	92.152	-8.395	83.760	225.821	161.222	-97.744	229.067	17.550	-39.920	197.233	121.287	105.311	0.0012911	0.00043971	0.00010064	477.45	3.2353e-06	5.408e-06	675.6	219.8	8.9481e-06	4.3771e-06	336.96	172.21	104.6	54.281	4.8441e-06	102.72	0.0011968	0.0012079	0.00033708	470.73	1.2689e-05	1.3724e-05	665.78	218.23	1.286e-05	1.3525e-05	333.8	171.63	104.57	54.775	1.3492e-05	103.06	14.134	-13.908	-12.735	-88.082	56.836	33.113	-88.206	-83.032	60.440	37.584	-83.729	-78.428	-77.858	-72.568	16.763	-74.331	-8191	255	
46623.195	1	1	0	0	0.12226	0.24233	0.055449	0.20379	0.21281	0.1073	0.1893	0.23173	0.28125	0.18602	0.26141	0.14502	0.36834	0.044152	0.13522	0.14731	-4.3	-4.6813	-3.9021	-4.8063	-4.2917	-4.0125	-4.8979	-3.9604	-4.3479	-4.8125	-3.875	-4.9104	-4.4062	-4.1479	-4.7667	-4.0917	247.488	225.666	150.194	197.079	217.581	255.552	241.969	-93.580	0.132	120.213	124.780	-98.208	191.983	27.075	35.988	167.626	0.0012834	0.00080915	0.00016315	475.61	1.0018e-05	5.5396e-06	676.26	218.46	6.9628e-06	3.8797e-06	335.29	172.24	103.85	54.382	8.1439e-06	102.69	0.0011994	0.0012219	0.0003456	470.15	1.2734e-05	1.361e-05	665.77	217.68	1.2855e-05	1.3714e-05	333.28	171.45	104.26	54.713	1.3384e-05	103.06	11.339	0.715	-8.998	-88.116	74.134	50.376	-88.123	-82.807	26.471	60.724	-83.618	-78.557	-77.793	-72.397	46.162	-74.192	-8191	255	
46623.316	1	1	0	0	0.15633	0.049954	0.10963	0.053928	0.12532	0.29313	0.031847	0.026471	0.11962	0.11488	0.12649	0.23033	0.3572	0.12162	0.083036	0.20766	-4.1667	-4.7625	-4.0563	-4.7792	-4.2708	-3.9896	-4.8438	-4.1479	-4.3021	-4.8229	-3.9729	-4.9688	-4.8604	-4.1292	-4.9354	-4.3479	68.119	209.159	-31.109	110.532	91.076	-7.321	233.505	-71.727	24.952	139.047	72.164	232.298	247.682	201.520	89.815	148.870	0.0013035	0.00086003	0.0001133	475.94	4.066e-06	6.238e-06	676.5	219.93	9.48e-06	4.0718e-06	335.01	172.15	104.26	54.436	7.0121e-06	102.89	0.0012154	0.001212	0.00034729	470.71	1.2742e-05	1.3891e-05	665.64	217.8	1.2863e-05	1.3772e-05	333.35	171.44	104.41	54.731	1.3529e-05	103.16	9.113	-12.062	-4.956	-88.396	65.240	61.564	-88.636	-82.791	20.674	26.094	-83.662	-78.404	-77.817	-72.586	55.295	-74.162	-8191	255	
46623.410	1	1	0	0	0.14421	0.038778	0.05562	0.059315	0.2377	0.026059	0.10339	0.11359	0.04126	0.074109	0.16636	0.22372	0.16847	0.20759	0.16113	0.23497	-3.9833	-4.7167	-3.9708	-4.6229	-4.575	-3.9875	-4.925	-4.4	-4.1479	-4.9229	-4.1229	-4.5938	-4.7979	-4.0521	-4.9313	-4.325	-95.947	218.717	191.575	187.553	84.885	87.668	39.128	212.004	54.639	43.940	215.062	247.197	241.993	-14.000	-59.944	172.690	0.0012797	0.00029072	0.0001109	475.21	5.7281e-06	6.8278e-06	677.49	219.56	7.5594e-06	4.1904e-06	335.41	172.84	103.71	54.586	5.7656e-06	103.04	0.0012065	0.0012203	0.00034663	470.46	1.2836e-05	1.3756e-05	666.65	217.91	1.3032e-05	1.3644e-05	333.27	171.86	104.31	54.746	1.3387e-05	103.19	10.820	-21.806	24.060	-88.178	74.206	37.809	-88.670	-82.811	42.950	33.126	-83.632	-78.357	-77.815	-72.680	40.048	-74.297	-8191	255	
46623.508	1	1	0	0	0.28772	0.0901	0.15914	0.32074	0.16785	0.12868	0.25996	0.20441	0.29242	0.11831	0.080348	0.1136	0.035966	0.2166	0.24176	0.33956	-3.825	-4.7833	-3.9667	-4.6292	-4.625	-4.0146	-4.9479	-4.3812	-3.9688	-4.9042	-4.0167	-4.4083	-4.675	-4.0875	-4.65	-4.6229	-100.090	239.602	219.715	-90.974	182.515	208.992	164.888	159.686	-48.649	143.402	200.076	212.354	13.870	234.915	204.447	224.600	0.0013465	0.00053009	0.00018083	478.88	4.0041e-06	5.933e-06	675.87	219.34	6.7154e-06	4.8177e-06	336.24	171.92	104.34	54.315	5.0205e-06	102.59	0.0012349	0.001238	0.00034964	470.7	1.2887e-05	1.3851e-05	665.85	218.03	1.3055e-05	1.3613e-05	333.46	171.39	104.33	54.664	1.3471e-05	102.97	11.407	-40.856	-23.500	-88.264	47.583	22.695	-88.405	-82.706	30.010	41.510	-83.764	-78.454	-77.842	-72.471	63.742	-74.226	-8191	255	
46623.602	1	1	0	0	0.23514	0.11128	0.17317	0.17085	0.35058	0.067449	0.20592	0.081493	0.22463	0.19382	0.047529	0.15821	0.00895	0.29711	0.11358	0.12705	-3.7583	-4.8562	-4.0646	-4.3375	-4.6937	-3.8646	-4.6	-4.4229	-3.9854	-4.8646	-4.2438	-4.3625	-4.7188	-4.15	-4.4437	-4.7146	196.675	-97.189	120.680	29.263	86.230	227.957	-95.758	243.612	-38.857	-33.935	164.884	-55.036	233.627	223.239	4.274	183.385	0.0014328	0.0005758	0.00017344	477.88	9.3348e-06	9.8109e-06	672.68	219.06	5.6845e-06	6.7514e-06	334.14	171.73	103.75	54.147	4.9241e-06	102.17	0.0012179	0.0012494	0.00035618	470.59	1.2928e-05	1.4085e-05	665.05	217.58	1.3161e-05	1.3807e-05	332.07	170.8	103.92	54.391	1.3737e-05	102.51	12.601	-33.440	11.016	-88.391	49.022	60.890	-88.366	-82.964	19.504	45.378	-83.724	-78.401	-77.959	-72.565	52.276	-74.210	-8191	255	
46623.699	1	1	0	0	0.14832	0.032568	0.20963	0.16188	0.10123	0.17154	0.15692	0.12451	0.35079	0.26658	0.16008	0.2369	0.21339	0.24409	0.089345	0.09329	-3.6458	-4.8646	-4.1771	-4.2063	-4.6875	-3.8458	-4.7125	-4.575	-3.9271	-4.7833	-4.2021	-4.0958	-4.7937	-3.9271	-4.4271	-4.9542	-17.326	55.878	100.336	215.163	-21.387	60.482	-91.672	94.482	62.306	-1.624	-57.787	246.856	258.024	236.363	236.606	58.447	0.0012649	0.00079847	7.0491e-05	475.61	7.0063e-06	5.9503e-06	673.31	219.46	9.8766e-06	4.3923e-06	333.29	171.18	103.62	54.138	5.1461e-06	101.95	0.0012238	0.0012318	0.00035161	469.66	1.2774e-05	1.3953e-05	664.97	217.48	1.3199e-05	1.3934e-05	331.76	170.72	103.79	54.317	1.3786e-05	102.41	9.608	-17.467	2.440	-88.055	67.465	54.856	-88.508	-82.820	39.067	26.480	-83.479	-78.540	-77.685	-72.510	56.519	-74.305	-8191	255	
46623.820	1	1	0	0	0.09431	0.13002	0.44389	0.14072	0.23107	0.1918	0.22673	0.06936	0.17958	0.021491	0.14655	0.14664	0.14272	0.15492	0.22444	0.030695	-3.7687	-4.7042	-4.3146	-3.9167	-4.8562	-3.9396	-4.5146	-4.85	-3.9083	-4.6667	-4.5604	-4.1104	-4.9021	-4.1438	-4.325	-4.9604	20.328	197.652	-91.405	182.543	-54.154	60.946	248.279	-34.850	10.686	218.065	204.861	65.889	-97.166	92.270	-31.309	170.902	0.0013564	0.00061563	0.00017325	475.99	5.6563e-06	9.2238e-06	674.68	219.13	9.4636e-06	8.315e-06	334.08	171.43	103.63	53.873	6.8782e-06	101.57	0.001214	0.0012389	0.00035082	469.47	1.3027e-05	1.3907e-05	665.29	217.21	1.3319e-05	1.398e-05	332.55	170.39	103.83	54.144	1.3657e-05	102.02	12.531	-1.434	-4.021	-88.415	40.183	34.954	-88.470	-82.784	55.272	56.739	-83.540	-78.531	-77.968	-72.532	32.029	-74.039	-8191	255	
46623.891	1	1	0	0	0.092985	0.22391	0.078409	0.30285	0.12662	0.13837	0.24879	0.12993	0.3558	0.1024	0.2728	0.2944	0.051004	0.058321	0.070643	0.19381	-3.6542	-4.5813	-4.4271	-3.9958	-4.8271	-4.275	-4.3542	-4.7792	-3.9333	-4.4	-4.6375	-3.9521	-4.8625	-4.2833	-4.225	-4.9646	80.571	88.325	204.314	76.656	225.395	31.470	-96.760	121.289	92.229	18.841	211.996	252.495	150.996	43.461	183.703	55.199	0.0014099	0.00053129	0.00018689	477.15	1.0857e-05	7.7116e-06	673.3	218.56	2.2259e-06	4.4119e-06	333.19	169.97	103.06	53.485	2.2794e-06	100.87	0.001229	0.0012616	0.00035452	469.96	1.3008e-05	1.4302e-05	664.43	216.95	1.3148e-05	1.4156e-05	331.43	169.58	103.29	53.699	1.3706e-05	101.28	12.845	-19.573	-30.544	-88.370	62.712	71.485	-88.338	-82.936	38.239	50.494	-83.538	-78.526	-77.953	-72.360	29.547	-73.992	-8191	255	
#DATA ENDS
