BOXY.EXE: ISS Imagent and Oximeter Data Acquisition Program Version 0.80
Ascii Record File

#ACQ INFORMATION
2  Detector Channels 
16  External MUX Channels 
1  Auxiliary Channels 
5000  Waveform (CCF) Frequency (Hz)
1  Waveforms Skipped 
30  Waveforms Averaged 
1  Cycles Averaged 
16  Acquisitions per Waveform 
10.0806  Updata Rate (Hz) 

#FILE INFORMATION
TRUE -- External MUX Channel results are PARSED.
FALSE -- AC DC and Phase are NOT grouped.
TRUE -- Companion Program Settings File CREATED.
FALSE -- AC data not excluded
FALSE -- DC data not excluded
FALSE -- Phase data not excluded
FALSE -- Auxillary Chn. data not excluded
Tab delimiters

#CALIBRATION STATE
TRUE -- Waveform Calibration Values APPLIED.


#AUX CALIBRATION VALUES
Val Type	aux-1	

Term	1.0000e+00	
Factor	0.0000e+00	


#WF CALIBRATION VALUES
A = Detector Channel
Val Type	A-AC1	A-AC2	A-AC3	A-AC4	A-AC5	A-AC6	A-AC7	A-AC8	A-AC9	A-AC10	A-AC11	A-AC12	A-AC13	A-AC14	A-AC15	A-AC16	A-DC1	A-DC2	A-DC3	A-DC4	A-DC5	A-DC6	A-DC7	A-DC8	A-DC9	A-DC10	A-DC11	A-DC12	A-DC13	A-DC14	A-DC15	A-DC16	A-Ph1	A-Ph2	A-Ph3	A-Ph4	A-Ph5	A-Ph6	A-Ph7	A-Ph8	A-Ph9	A-Ph10	A-Ph11	A-Ph12	A-Ph13	A-Ph14	A-Ph15	A-Ph16	

Term	0.00000e+00	0.00000e+00	0.00000e+00	0.00000e+00	0.00000e+00	0.00000e+00	0.00000e+00	0.00000e+00	0.00000e+00	0.00000e+00	0.00000e+00	0.00000e+00	0.00000e+00	0.00000e+00	0.00000e+00	0.00000e+00	0.00000e+00	0.00000e+00	0.00000e+00	0.00000e+00	0.00000e+00	0.00000e+00	0.00000e+00	0.00000e+00	0.00000e+00	0.00000e+00	0.00000e+00	0.00000e+00	0.00000e+00	0.00000e+00	0.00000e+00	0.00000e+00	0.00000e+00	0.00000e+00	0.00000e+00	0.00000e+00	0.00000e+00	0.00000e+00	0.00000e+00	0.00000e+00	0.00000e+00	0.00000e+00	0.00000e+00	0.00000e+00	0.00000e+00	0.00000e+00	0.00000e+00	0.00000e+00	
Factor	1.00000e+00	1.00000e+00	1.00000e+00	1.00000e+00	1.00000e+00	1.00000e+00	1.00000e+00	1.00000e+00	1.00000e+00	1.00000e+00	1.00000e+00	1.00000e+00	1.00000e+00	1.00000e+00	1.00000e+00	1.00000e+00	1.00000e+00	1.00000e+00	1.00000e+00	1.00000e+00	1.00000e+00	1.00000e+00	1.00000e+00	1.00000e+00	1.00000e+00	1.00000e+00	1.00000e+00	1.00000e+00	1.00000e+00	1.00000e+00	1.00000e+00	1.00000e+00	X	X	X	X	X	X	X	X	X	X	X	X	X	X	X	X	

B = Detector Channel
Val Type	B-AC1	B-AC2	B-AC3	B-AC4	B-AC5	B-AC6	B-AC7	B-AC8	B-AC9	B-AC10	B-AC11	B-AC12	B-AC13	B-AC14	B-AC15	B-AC16	B-DC1	B-DC2	B-DC3	B-DC4	B-DC5	B-DC6	B-DC7	B-DC8	B-DC9	B-DC10	B-DC11	B-DC12	B-DC13	B-DC14	B-DC15	B-DC16	B-Ph1	B-Ph2	B-Ph3	B-Ph4	B-Ph5	B-Ph6	B-Ph7	B-Ph8	B-Ph9	B-Ph10	B-Ph11	B-Ph12	B-Ph13	B-Ph14	B-Ph15	B-Ph16	

Term	0.00000e+00	0.00000e+00	0.00000e+00	0.00000e+00	0.00000e+00	0.00000e+00	0.00000e+00	0.00000e+00	0.00000e+00	0.00000e+00	0.00000e+00	0.00000e+00	0.00000e+00	0.00000e+00	0.00000e+00	0.00000e+00	0.00000e+00	0.00000e+00	0.00000e+00	0.00000e+00	0.00000e+00	0.00000e+00	0.00000e+00	0.00000e+00	0.00000e+00	0.00000e+00	0.00000e+00	0.00000e+00	0.00000e+00	0.00000e+00	0.00000e+00	0.00000e+00	-1.54582e+01	-1.31826e+02	-1.18987e+02	-1.83770e+02	-1.30688e+02	-8.11710e+01	-1.58254e+02	-1.62015e+02	4.03488e+00	-7.49322e+01	-1.70683e+02	-1.70651e+02	-1.78365e+02	-1.76938e+02	-7.39507e+01	-1.49895e+02	
Factor	3.55145e-05	9.56148e-05	2.78179e-05	1.65747e-01	1.12877e-06	1.04670e-06	1.79515e-01	5.89105e-02	1.19376e-06	1.16421e-06	9.76336e-02	3.40614e-02	3.16364e-02	1.08962e-02	1.16736e-06	1.55437e-02	9.88457e-07	1.01235e-06	2.82120e-07	8.20202e-02	1.10315e-08	1.10754e-08	8.33426e-02	2.89522e-02	1.10356e-08	1.10748e-08	4.58140e-02	1.59180e-02	1.53075e-02	5.26684e-03	1.10529e-08	7.23307e-03	X	X	X	X	X	X	X	X	X	X	X	X	X	X	X	X	



#DISTANCE SETTINGS
A = Detector Channel
A-1	A-2	A-3	A-4	A-5	A-6	A-7	A-8	A-9	A-10	A-11	A-12	A-13	A-14	A-15	A-16	

2.5000e+00	3.0000e+00	2.5000e+00	3.0000e+00	2.0000e+00	3.0000e+00	1.5000e+00	3.0000e+00	3.0000e+00	3.0000e+00	3.0000e+00	3.0000e+00	3.0000e+00	3.0000e+00	1.5000e+00	3.0000e+00	

B = Detector Channel
B-1	B-2	B-3	B-4	B-5	B-6	B-7	B-8	B-9	B-10	B-11	B-12	B-13	B-14	B-15	B-16	

1.0000e+01	1.0000e+01	1.0000e+01	1.4400e+00	1.0000e+01	1.0000e+01	1.5100e+00	1.9400e+00	1.0000e+01	1.0000e+01	1.9900e+00	2.4900e+00	2.4100e+00	2.9000e+00	1.0000e+01	2.9800e+00	




#DATA BEGINS
time	group	step	mark	flag	A-AC1	A-AC2	A-AC3	A-AC4	A-AC5	A-AC6	A-AC7	A-AC8	A-AC9	A-AC10	A-AC11	A-AC12	A-AC13	A-AC14	A-AC15	A-AC16	A-DC1	A-DC2	A-DC3	A-DC4	A-DC5	A-DC6	A-DC7	A-DC8	A-DC9	A-DC10	A-DC11	A-DC12	A-DC13	A-DC14	A-DC15	A-DC16	A-Ph1	A-Ph2	A-Ph3	A-Ph4	A-Ph5	A-Ph6	A-Ph7	A-Ph8	A-Ph9	A-Ph10	A-Ph11	A-Ph12	A-Ph13	A-Ph14	A-Ph15	A-Ph16	B-AC1	B-AC2	B-AC3	B-AC4	B-AC5	B-AC6	B-AC7	B-AC8	B-AC9	B-AC10	B-AC11	B-AC12	B-AC13	B-AC14	B-AC15	B-AC16	B-DC1	B-DC2	B-DC3	B-DC4	B-DC5	B-DC6	B-DC7	B-DC8	B-DC9	B-DC10	B-DC11	B-DC12	B-DC13	B-DC14	B-DC15	B-DC16	B-Ph1	B-Ph2	B-Ph3	B-Ph4	B-Ph5	B-Ph6	B-Ph7	B-Ph8	B-Ph9	B-Ph10	B-Ph11	B-Ph12	B-Ph13	B-Ph14	B-Ph15	B-Ph16	aux-1	digaux	

18030.463	1	1	0	768	0.19983	0.021845	0.16819	0.20615	0.22861	0.079113	0.28714	0.079363	0.1489	0.15686	0.15635	0.18544	0.083858	0.21304	0.24155	0.13942	-2.1937	-3.1104	-3.1583	-2.8083	-3.2333	-3.1562	-2.7979	-3.375	-2.7292	-2.8937	-3.2833	-2.7667	-3.1146	-3.0708	-2.8146	-3.325	-3.243	108.732	18.219	86.791	133.891	-43.529	275.398	-50.635	168.361	198.075	129.789	233.240	245.228	-6.927	-25.082	288.451	0.00058567	0.0022723	0.0010922	455.55	4.9177e-05	3.863e-05	517.99	149.92	5.7396e-05	6.0964e-05	194.78	88.307	63.518	31.759	4.4148e-05	45.318	0.014824	0.013599	0.0034577	1596.4	0.00016205	0.00014293	1526.9	547.79	0.00015631	0.00014115	735.59	307.61	274.85	96.746	0.00013148	146.07	68.393	-18.942	-31.271	-44.510	-51.241	30.386	-46.176	-39.033	118.047	60.516	-40.997	-35.009	-33.957	-29.168	227.545	-31.393	-8191	255	
18030.559	1	1	0	0	0.096928	0.15868	0.10963	0.13034	0.42206	0.2342	0.21241	0.062908	0.10717	0.13287	0.33244	0.45054	0.34861	0.16036	0.23182	0.13957	-2.5708	-2.9354	-3.2938	-2.7979	-3.1875	-3.0354	-2.9	-3.3042	-2.7687	-2.8812	-3.3896	-2.7646	-3.2354	-3.2208	-2.7958	-3.4229	-48.450	297.001	20.396	-27.302	-25.215	264.214	107.328	-47.421	273.314	42.716	-42.291	35.640	-34.068	231.001	-3.110	277.590	0.0017295	0.0040334	0.0012758	456.77	6.8716e-05	2.3171e-05	511.58	150.13	8.2285e-05	4.7976e-05	188.25	87.322	61.721	31.115	6.8826e-05	45.499	0.013622	0.012696	0.0033743	1632.9	0.00015104	0.00013657	1524.2	564.65	0.00014698	0.0001352	741.72	313.88	261.62	93.792	0.00013604	148.79	74.256	-27.796	162.884	-44.716	-25.691	-22.577	-46.413	-38.818	127.700	-10.803	-39.954	-35.332	-33.664	-29.788	220.596	-31.728	-8191	255	
18030.654	1	1	0	0	0.16317	0.19119	0.050205	0.086817	0.25735	0.10603	0.14918	0.060956	0.18682	0.36005	0.33692	0.023425	0.093474	0.065792	0.087387	0.14255	-2.4583	-2.7875	-3.1937	-2.7854	-3.2562	-3.2438	-2.8458	-3.4688	-2.8625	-2.8792	-3.3792	-2.8729	-3.0104	-3.1729	-2.8438	-3.4917	75.273	209.886	12.130	202.974	214.925	78.725	-14.418	198.926	218.816	52.014	256.770	244.426	225.845	44.468	75.594	277.448	0.0019722	0.0032896	0.0023958	461.03	3.9893e-05	5.9046e-05	502.98	154.95	2.3566e-05	2.2203e-05	190.64	89.344	61.966	31.498	0.00012037	47.367	0.012933	0.01228	0.0035717	1664.8	0.00014602	0.00013575	1626.3	587.61	0.00014819	0.00013955	825.88	330.23	269.61	97.057	0.00015549	153.86	92.028	-37.728	159.509	-45.116	-51.050	-4.485	-46.351	-38.780	122.983	14.749	-39.716	-35.971	-34.702	-29.885	208.345	-31.941	-8191	255	
18030.752	1	1	0	0	0.032162	0.079602	0.21574	0.33248	0.11203	0.12543	0.10398	0.13417	0.31448	0.15302	0.16587	0.10923	0.11051	0.27972	0.17483	0.42853	-2.4667	-2.7479	-3.4271	-2.8896	-3.15	-3.3667	-2.8458	-3.4271	-3.0396	-2.9	-3.3812	-2.8354	-2.9125	-3.3	-2.8583	-3.2188	39.348	15.610	-32.475	239.685	291.818	64.009	116.654	209.622	102.307	293.558	286.000	-43.365	227.164	300.353	162.999	245.845	0.00062086	0.00076247	0.003109	472.04	4.3647e-05	2.5924e-05	507.13	158.27	4.874e-05	1.7746e-05	196.16	92.118	63.345	31.432	6.9345e-05	47.987	0.013103	0.012531	0.0039912	1671.8	0.00014561	0.00013608	1733.4	580.2	0.00014452	0.00013897	870.19	318.83	261.68	97.484	0.00016414	149.98	156.657	278.031	148.346	-46.078	-31.995	205.480	-45.763	-39.162	129.287	36.640	-38.899	-35.168	-33.737	-28.286	205.378	-32.471	-8191	255	
18030.848	1	1	0	0	0.25264	0.25081	0.12119	0.21299	0.061534	0.047926	0.18541	0.14857	0.28184	0.344	0.12895	0.19811	0.14895	0.16314	0.26583	0.15236	-2.6896	-2.7917	-3.2938	-2.8542	-2.9062	-3.2542	-2.8292	-3.3646	-3.2604	-2.6729	-3.4125	-3.0042	-2.8521	-3.2083	-2.8187	-3.3021	169.631	288.027	-9.179	295.880	43.520	83.724	67.203	188.381	206.606	-27.056	2.812	267.045	269.534	-48.734	21.587	239.625	0.0010649	0.0049942	0.0016618	473.91	3.8339e-05	8.0499e-05	521.03	157.83	5.3598e-05	8.0619e-05	199.51	90.54	62.269	31.007	3.162e-05	46.953	0.012917	0.013059	0.0043071	1648.1	0.00014527	0.00014471	1817.2	568.2	0.00014258	0.00014891	907.45	312	260.64	103.64	0.00017346	148.33	63.226	123.958	158.371	-46.223	-31.255	222.804	-46.274	-39.485	147.752	211.925	-40.769	-36.718	-34.476	-27.859	48.177	-32.453	-8191	255	
18030.943	1	1	0	0	0.088495	0.2521	0.068744	0.27799	0.24527	0.2137	0.29948	0.060835	0.20427	0.22069	0.0871	0.1516	0.15533	0.14159	0.078842	0.16336	-2.8083	-2.5917	-3.375	-2.9917	-2.8167	-3.3542	-2.8333	-3.1521	-3.3583	-2.8729	-3.3937	-3.0021	-2.8312	-3.5792	-2.8542	-3.0958	73.949	108.359	196.850	238.380	119.342	22.498	-45.576	35.282	112.439	263.842	298.175	290.352	143.236	-25.891	20.973	267.227	0.00087426	0.0080364	0.0012624	471.81	1.2176e-05	9.9222e-05	527.99	155.21	2.681e-05	8.7547e-05	199.18	89.675	62.247	31.209	0.00012242	46.227	0.013018	0.014596	0.0045538	1653.9	0.00014996	0.00016741	1903.7	587.2	0.00015335	0.00017493	956.72	324.44	273.67	115.44	0.00017994	152.15	111.663	160.575	-13.994	-46.082	-37.330	195.674	-46.245	-39.733	-30.540	189.594	-42.050	-36.001	-33.358	-27.631	16.743	-32.368	-8191	255	
18031.064	1	1	0	0	0.10029	0.13273	0.10091	0.17486	0.041372	0.17421	0.26783	0.39226	0.24722	0.13518	0.13036	0.13501	0.085014	0.10432	0.15918	0.064812	-2.9813	-2.8167	-3.3583	-3.0792	-2.8583	-3.4708	-2.8042	-3.3458	-3.2687	-2.7271	-3.375	-3.2062	-2.8042	-3.5708	-2.8083	-3.0271	-44.292	133.454	38.254	-13.944	141.050	-49.188	246.604	289.555	-22.335	22.339	-28.212	130.741	59.923	-43.574	232.255	34.140	0.0012113	0.0087551	0.0016568	472.49	4.9635e-05	6.7364e-05	530.98	157.98	7.0385e-05	5.4209e-05	202.1	89.861	60.756	31.308	6.1012e-05	46.865	0.013529	0.016311	0.0045473	1651.3	0.00015156	0.00017972	1833.7	571.84	0.00015317	0.00018417	917.64	313.39	275.8	119.52	0.00017168	150.55	243.591	156.678	-5.090	-45.392	183.218	199.905	-46.316	-39.097	265.762	211.214	-41.623	-35.456	-32.314	-28.071	27.806	-32.227	-8191	255	
18031.160	1	1	0	0	0.13627	0.095839	0.10141	0.039962	0.16659	0.052768	0.13836	0.10306	0.055178	0.13299	0.10101	0.24068	0.22075	0.30689	0.27117	0.39217	-2.925	-2.7771	-3.0646	-3.3104	-2.6667	-3.4333	-3.1729	-2.8875	-3.4646	-2.85	-3.2771	-3.2917	-2.7667	-3.4188	-3.0792	-2.9146	-6.843	192.246	8.658	284.527	162.735	107.384	248.148	-46.104	-44.980	64.825	64.539	291.945	206.178	255.865	142.156	-35.773	0.0031458	0.002675	0.0014745	479.96	8.5057e-05	2.1779e-05	532.68	156.57	7.1876e-05	5.4777e-05	205.23	92.685	60.62	32.754	4.4496e-05	47.027	0.014441	0.017574	0.0045035	1670	0.00016836	0.00019568	1861	586.27	0.00017311	0.0001978	935.61	324.88	311.11	127.11	0.00017548	153.84	274.704	118.372	7.993	-45.914	131.368	127.637	-46.422	-39.711	278.113	30.409	-42.250	-35.121	-31.121	-29.282	43.414	-32.298	-8191	255	
18031.256	1	1	0	0	0.13957	0.12983	0.041342	0.14784	0.07304	0.158	0.10238	0.049991	0.11897	0.16965	0.21957	0.16117	0.15428	0.023898	0.1926	0.087874	-3.1312	-2.8521	-3.2375	-3.3229	-2.9646	-3.4854	-3.1271	-2.9938	-3.5125	-2.9938	-2.9771	-3.3042	-2.7125	-3.4271	-2.9958	-2.8542	67.173	92.316	223.259	168.804	81.223	20.613	76.978	-40.056	81.185	-8.500	62.643	185.011	103.901	49.153	155.836	-32.560	0.0040392	0.0044913	0.0013745	474.55	0.00011706	5.0916e-05	526.95	156.35	0.00011004	6.2884e-05	200	88.748	61.29	32.748	5.7889e-05	45.98	0.016327	0.017971	0.0044945	1679.3	0.00018608	0.00019465	1828.4	582.62	0.00018732	0.00019066	910.18	320.46	326.56	122.2	0.00016969	152.78	280.824	-14.118	19.501	-45.098	149.929	35.325	-46.342	-39.270	284.961	29.451	-42.194	-34.783	-31.417	-29.965	46.160	-31.753	-8191	255	
18031.352	1	1	0	0	0.1094	0.12575	0.19929	0.0164	0.15361	0.10699	0.2617	0.13424	0.25608	0.28385	0.11071	0.18012	0.2939	0.22327	0.054801	0.19166	-3.0708	-2.6875	-2.9479	-3.2729	-2.7375	-3.2958	-3.2042	-2.8979	-3.3	-3.0417	-3.0979	-3.5479	-2.6958	-3.1729	-3.2833	-2.7042	217.037	106.100	262.004	268.362	116.179	260.133	-26.892	270.763	140.926	234.725	-37.917	67.200	206.343	200.162	101.310	-41.989	0.0027621	0.0043743	0.0016911	472.18	6.8266e-05	7.9559e-05	528.6	154.81	4.4398e-05	7.8012e-05	201.64	87.047	63.368	32.908	5.9577e-05	45.25	0.01742	0.017224	0.0043851	1712.3	0.0001978	0.00018822	1808.2	608.24	0.00020182	0.00018697	910.11	341.78	348.62	121.75	0.00017072	164.79	248.490	-34.358	-22.087	-44.396	124.121	11.367	-45.666	-37.969	279.171	31.261	-41.334	-34.108	-32.651	-30.052	27.609	-31.781	-8191	255	
18031.447	1	1	0	0	0.022966	0.14186	0.085529	0.29023	0.12942	0.079977	0.28494	0.04796	0.10289	0.25051	0.22958	0.13899	0.095096	0.079832	0.10055	0.12898	-3.0187	-3.0792	-2.9333	-3.4792	-2.9083	-3.2417	-3.3792	-2.7875	-3.4292	-2.9646	-3.0438	-3.4333	-2.8729	-3.2292	-3.25	-2.7104	207.394	-52.418	156.140	-44.724	253.564	248.090	207.284	-34.490	156.039	11.654	280.646	-11.976	196.540	-29.792	142.522	197.039	0.00078549	0.0053424	0.00066328	466.17	3.7691e-05	5.8699e-05	533.28	152.74	3.4875e-05	6.6134e-05	201.52	89.94	67.294	33.381	1.7588e-05	46.176	0.018524	0.01692	0.0043814	1841.8	0.00020414	0.00018427	1805.6	652.38	0.00020413	0.00018197	905.92	367.56	347.76	121.08	0.00017	177.6	274.257	-37.105	-16.746	-43.941	-12.831	-0.623	-46.549	-37.813	83.076	3.555	-41.055	-33.922	-34.446	-29.478	19.898	-31.240	-8191	255	
18031.543	1	1	0	0	0.15955	0.17471	0.1847	0.13321	0.10323	0.094018	0.13255	0.10166	0.19639	0.02013	0.14899	0.29272	0.12378	0.14744	0.1663	0.20822	-3.1229	-3.0375	-2.8438	-3.2708	-2.925	-3.1229	-3.4375	-2.7104	-3.1917	-3.125	-2.8083	-3.3063	-2.8833	-2.9958	-3.1958	-2.8187	73.771	27.965	269.762	-42.443	209.403	133.608	236.298	277.455	273.520	197.623	-55.469	287.692	-49.258	-53.678	-40.461	105.820	0.0019293	0.0045532	0.00037632	476.35	6.8919e-05	3.9059e-05	521.69	157.81	0.00010067	4.7744e-05	199.08	90.45	67.24	33.417	5.5422e-05	46.593	0.018331	0.016751	0.0044115	1988.6	0.00020022	0.00018121	1817.6	689.26	0.00019457	0.00017471	897.8	377.42	324.92	114.5	0.00016511	175.66	111.525	-35.113	-17.302	-44.372	-49.970	32.307	-46.606	-38.438	95.839	-2.823	-40.375	-34.702	-35.406	-29.873	197.834	-31.572	-8191	255	
18031.664	1	1	0	0	0.22918	0.066397	0.14653	0.23205	0.095663	0.12514	0.096248	0.12428	0.22164	0.12058	0.18866	0.29822	0.10963	0.21004	0.32329	0.21016	-2.9271	-2.9938	-2.6917	-3.4917	-2.7875	-2.9833	-3.2229	-2.9125	-3.3312	-3.15	-2.8563	-3.2708	-2.9458	-2.825	-3.2687	-2.7125	301.634	267.168	282.200	201.633	0.388	74.222	108.195	243.747	-4.834	27.095	117.209	184.697	93.950	34.545	183.985	169.175	0.0021954	0.0045692	0.0022921	486.61	5.3021e-05	4.7838e-05	511.42	161.5	5.3881e-05	6.3799e-05	190.12	91.106	66.331	33.065	0.00010866	47.518	0.016399	0.015163	0.0042798	1952.9	0.0001782	0.00016586	1804.1	677.47	0.0001774	0.00016261	912.57	372.6	304.83	109.54	0.00017321	172.76	84.301	11.229	136.073	-44.869	-31.548	53.552	-45.570	-39.282	89.197	31.355	-40.143	-35.308	-34.441	-29.575	213.957	-32.131	-8191	255	
18031.760	1	1	0	0	0.24852	0.1172	0.042414	0.10451	0.1252	0.16327	0.10298	0.25355	0.23479	0.18793	0.053238	0.19022	0.30529	0.15738	0.20006	0.15825	-2.65	-3.1813	-2.8187	-3.35	-2.8604	-2.8937	-3.3833	-2.7917	-2.9229	-3.3729	-2.6479	-3.2292	-2.9354	-2.7375	-3.3292	-2.7938	182.753	130.565	47.863	287.589	147.573	58.707	-36.203	85.103	244.543	-36.553	127.108	278.143	291.314	238.977	231.897	-22.963	0.0005227	0.0018831	0.0033248	492.44	4.9331e-05	3.3427e-05	505.23	166.06	1.5952e-05	1.86e-05	194.72	94.597	65.7	33.014	0.00010369	48.774	0.01537	0.014406	0.004488	1903	0.00016694	0.00015686	1862.6	647.74	0.00016527	0.00015352	941.56	355.13	289.62	106.85	0.00018077	165.6	47.869	23.774	165.599	-45.859	-7.911	1.209	-45.363	-39.808	25.452	60.628	-40.051	-35.686	-33.394	-29.109	208.800	-32.282	-8191	255	
18031.855	1	1	0	0	0.28626	0.066126	0.26524	0.041488	0.099739	0.24897	0.17431	0.18469	0.16069	0.09233	0.099691	0.095884	0.20866	0.12583	0.1921	0.19515	-2.575	-3.2479	-2.6792	-3.3312	-3.0854	-2.8104	-3.5292	-2.9188	-2.8896	-3.1354	-2.8208	-3.2479	-3.05	-2.8396	-3.3708	-2.9104	275.768	5.045	44.396	-53.348	-21.692	82.448	-48.283	289.630	107.838	46.216	8.607	297.949	74.764	153.238	68.610	239.445	0.00072912	0.0020904	0.0020917	493.34	4.4442e-05	7.4358e-05	533.84	167.05	3.4766e-05	8.2701e-05	203.86	95.3	66.819	33.413	5.4359e-05	49.975	0.014716	0.014323	0.0047745	1854.2	0.00016474	0.00016286	2003.7	646.88	0.00016872	0.00016547	1021.2	356.83	294.73	114.15	0.00019709	165.71	94.483	156.499	161.436	-46.056	-36.478	211.728	-45.366	-40.344	97.099	196.964	-39.953	-36.109	-34.220	-28.513	205.094	-32.025	-8191	255	
18031.951	1	1	0	0	0.24551	0.29147	0.35204	0.14561	0.11472	0.287	0.19902	0.11064	0.1661	0.20342	0.20354	0.19547	0.11687	0.10298	0.16817	0.061832	-2.5	-3.2333	-2.7438	-3.1688	-3.2292	-2.8021	-3.3583	-3.0646	-2.9354	-3.4354	-2.9104	-3.0938	-3.4062	-2.7042	-3.4813	-2.95	205.672	45.720	79.823	-50.408	102.476	16.083	-52.709	170.003	-42.786	62.241	150.129	-55.939	-28.177	258.248	126.369	165.260	0.00045257	0.010679	0.00092481	492.48	4.5823e-05	0.00010488	539.59	166.68	2.6586e-05	0.00012044	208.76	92.071	65.731	32.477	4.5128e-05	47.86	0.014877	0.015631	0.0050422	1818.4	0.00016165	0.00017385	2019.9	623.4	0.00016321	0.00017781	1019.5	345.98	289.45	120.42	0.00019513	159.7	20.422	157.513	192.800	-45.950	-4.103	181.825	-46.486	-39.624	143.457	207.504	-41.218	-37.151	-33.867	-27.475	25.372	-32.455	-8191	255	
18032.023	1	1	0	0	0.049248	0.07698	0.17727	0.15801	0.049728	0.11546	0.16371	0.17426	0.27061	0.16154	0.05325	0.18605	0.17029	0.11704	0.29482	0.0856	-2.4896	-3.2062	-2.8667	-2.9146	-3.3521	-2.7562	-3.2917	-2.9625	-2.7604	-3.3729	-2.8375	-3.0646	-3.2625	-2.7562	-3.1688	-3.2083	238.690	161.057	236.370	105.146	44.110	214.718	223.775	268.983	41.523	278.758	156.044	275.727	193.652	134.504	173.305	93.086	0.00031967	0.0079975	0.0020353	490.47	7.9246e-06	0.00011311	542.34	164.31	2.3763e-05	7.0145e-05	204.17	92.313	64.175	33.124	8.3288e-05	47.674	0.014439	0.016758	0.004856	1759.3	0.00015673	0.00018474	1941.2	597.61	0.00015758	0.00018542	957.74	330.5	283.02	123.28	0.00018243	154.41	119.757	148.308	-20.266	-45.877	282.904	203.668	-46.468	-38.857	222.373	195.274	-41.869	-35.652	-32.906	-28.399	10.211	-31.835	-8191	255	
18032.145	1	1	0	0	0.076855	0.23687	0.034201	0.1408	0.024494	0.14526	0.21717	0.2033	0.048176	0.18928	0.20042	0.19156	0.19348	0.085504	0.14394	0.15289	-2.4917	-3.3917	-2.8583	-3.0667	-3.3917	-2.7396	-3.3187	-3.0583	-2.6896	-3.2562	-3.0479	-2.9229	-3.4042	-2.7333	-3.0667	-3.2771	225.403	178.755	-41.576	294.803	30.837	81.155	295.137	293.062	84.947	-7.832	262.547	-39.540	-18.909	239.642	298.750	212.794	0.0016109	0.0062108	0.00096055	486.28	9.47e-05	3.5468e-05	543.52	163.75	8.1853e-05	1.026e-05	209.36	93.187	62.849	33.514	6.0297e-05	48.739	0.014497	0.017588	0.0046161	1723.7	0.00016312	0.00019375	1878.4	581.49	0.00016308	0.00018836	901.65	316.28	288	122.16	0.00016792	147.45	291.700	184.050	-20.665	-45.347	152.102	205.359	-46.332	-39.326	279.438	77.259	-40.964	-35.419	-31.740	-28.933	70.097	-31.972	-8191	255	
18032.240	1	1	0	0	0.19541	0.25261	0.030677	0.063353	0.18625	0.042958	0.087314	0.03568	0.050489	0.075314	0.16822	0.081348	0.19797	0.073785	0.15144	0.11015	-2.3187	-3.3167	-2.9792	-2.8438	-3.4833	-2.8125	-3.175	-3.2021	-2.6104	-3.5083	-3.0812	-2.9292	-3.4167	-2.9146	-2.9083	-3.2208	212.360	126.664	44.592	256.684	263.597	2.642	296.473	-7.964	9.601	193.864	-26.913	-40.713	223.170	123.594	-55.859	-37.284	0.0029644	0.0015129	0.0011775	486.44	0.00013704	5.3282e-05	539.78	163.01	0.00012116	9.5477e-05	205.99	92.962	64.505	34.136	5.4466e-05	47.093	0.014864	0.017086	0.0042539	1651.8	0.0001703	0.00018868	1812.2	568.86	0.00017481	0.00018696	889.73	316.59	312.21	121.78	0.00016762	149.19	256.789	295.202	299.774	-45.282	155.259	9.977	-46.690	-39.190	275.516	33.033	-41.065	-35.107	-29.911	-29.572	2.818	-31.353	-8191	255	
18032.338	1	1	0	0	0.1515	0.082192	0.34651	0.44515	0.083799	0.22535	0.14115	0.18603	0.18894	0.12523	0.16608	0.17337	0.15553	0.18169	0.12085	0.090422	-2.2771	-3.1208	-3.0271	-2.8312	-3.5354	-2.95	-3.1063	-3.3187	-2.5729	-3.2958	-3.1583	-2.5729	-3.3646	-2.8271	-2.9458	-3.4542	108.991	131.190	141.394	269.536	65.783	76.155	151.543	29.758	170.485	298.853	214.911	213.856	0.230	295.512	152.672	251.830	0.0029896	0.0052341	0.00034933	475.64	7.8355e-05	6.9586e-05	534.16	157.43	8.0114e-05	7.5771e-05	199.26	90.12	63.725	33.513	3.9484e-05	45.635	0.016455	0.017058	0.0042572	1666.6	0.0001848	0.00018088	1769.9	568.21	0.00018355	0.0001764	852.59	316.25	321.31	115.69	0.00016028	150.39	241.244	301.937	205.184	-44.956	136.656	0.657	-46.231	-38.317	302.514	15.565	-41.475	-34.190	-31.671	-29.605	20.480	-31.403	-8191	255	
18032.457	1	1	0	0	0.050386	0.1327	0.29091	0.037134	0.095094	0.1363	0.095711	0.17131	0.12395	0.19674	0.085048	0.10554	0.068456	0.10043	0.15561	0.11811	-2.5958	-3.1729	-3.1813	-2.7	-3.2938	-3.0042	-2.8083	-3.3667	-2.65	-3.1708	-3.2	-2.8521	-3.3292	-3.0875	-2.8375	-3.4208	-19.493	75.925	228.732	167.655	279.248	71.007	289.575	238.629	229.611	230.447	30.452	18.071	4.637	236.163	-42.329	175.253	0.0012597	0.0059765	0.00092919	477.35	1.6971e-05	4.7186e-05	529.74	156.92	3.5652e-05	5.6777e-05	201.81	89.589	65.824	33.088	1.6454e-05	45.794	0.016821	0.015957	0.0040456	1706.5	0.00018881	0.00017092	1716.5	592.87	0.00018743	0.00017015	840.4	335.32	325.85	112.88	0.00015648	159.87	190.899	-11.208	-13.659	-44.459	97.287	43.524	-46.574	-37.962	97.303	32.767	-42.262	-33.424	-32.991	-29.354	-24.302	-31.031	-8191	255	
18032.553	1	1	0	0	0.13674	0.31508	0.12791	0.22856	0.1062	0.065405	0.30544	0.29071	0.13052	0.2524	0.14656	0.15564	0.2149	0.18349	0.051671	0.036757	-2.4938	-3.0979	-3.3083	-2.8021	-3.3792	-2.9729	-2.9354	-3.2687	-2.7354	-3.05	-3.4104	-2.6937	-3.2479	-3.1146	-2.7292	-3.3208	135.814	64.070	37.272	275.704	33.800	287.246	238.851	-20.614	34.339	215.389	145.682	202.934	-15.088	19.973	76.012	187.587	0.0008179	0.0033559	0.00062467	466.13	4.2295e-05	4.1344e-05	520.6	156.89	9.854e-05	3.5653e-05	198.89	91.32	66.926	33.542	4.5014e-05	47.657	0.016759	0.015405	0.0039578	1797.4	0.00018492	0.00016547	1702.3	629.12	0.00018097	0.00016507	833.53	351.42	312.77	110.05	0.00015362	166.49	37.997	-11.657	20.221	-44.043	297.058	31.052	-46.410	-37.749	107.292	75.985	-41.104	-33.535	-33.940	-29.283	217.379	-31.436	-8191	255	
18032.625	1	1	0	0	0.17867	0.18681	0.11274	0.28285	0.085675	0.079442	0.24385	0.074195	0.084584	0.23465	0.20274	0.091246	0.23861	0.10892	0.50719	0.071493	-2.2812	-2.8396	-3.1833	-2.7229	-3.1729	-3.2313	-2.8375	-3.4729	-2.7104	-2.8937	-3.3937	-2.8542	-3.1604	-3.0771	-2.7521	-3.4333	-50.336	-49.396	-23.498	225.430	243.376	16.810	232.790	155.424	-18.370	235.541	116.335	65.643	15.134	256.047	113.912	280.759	0.0024982	0.0052899	0.0012636	474.09	8.5244e-05	3.8757e-05	516.38	158.43	8.1004e-05	4.8227e-05	194.66	91.087	66.019	33.142	9.8001e-05	47.138	0.01565	0.014634	0.003898	1837.4	0.00017187	0.00015527	1699.4	639.76	0.00016864	0.00015634	849.25	356.55	296.6	105.32	0.00015809	165.64	105.243	-5.175	180.061	-44.579	-26.851	28.058	-46.008	-38.181	118.548	32.343	-39.805	-34.383	-34.604	-29.851	207.148	-32.151	-8191	255	
18032.744	1	1	0	0	0.16116	0.14279	0.03599	0.17636	0.23554	0.33726	0.27287	0.068126	0.14902	0.05238	0.13081	0.065113	0.24971	0.19404	0.044918	0.12624	-2.3854	-2.8375	-3.2729	-2.7583	-3.1312	-3.1458	-2.8438	-3.4562	-2.9042	-2.8771	-3.3583	-2.8292	-3.0771	-3.1667	-2.7104	-3.4042	233.371	134.090	235.516	207.884	296.385	150.089	214.660	206.263	231.782	-28.890	175.417	81.252	51.556	273.695	76.131	172.814	0.0010128	0.0029412	0.0024792	481.52	4.6466e-05	2.1881e-05	506.44	160.22	6.6117e-05	5.7895e-05	187.7	91.423	64.947	32.652	0.00013482	48.287	0.014494	0.013729	0.004028	1810	0.00016056	0.00014793	1753.9	631.63	0.00015922	0.00014947	882.2	346.27	284.08	102.37	0.00016838	162.61	114.373	-34.679	155.659	-45.407	-16.568	-1.595	-45.976	-38.668	112.133	84.795	-38.726	-35.912	-34.052	-29.086	195.687	-32.414	-8191	255	
18032.840	1	1	0	0	0.065426	0.29393	0.12094	0.12983	0.18166	0.053225	0.24885	0.18424	0.071098	0.18116	0.095671	0.19769	0.060184	0.16991	0.16226	0.085892	-2.5896	-2.7188	-3.1937	-2.9958	-3.175	-3.2792	-2.7292	-3.3896	-3.0833	-2.9521	-3.325	-2.925	-3.1021	-3.3208	-2.825	-3.425	242.216	-15.346	194.986	187.577	302.519	30.190	-6.701	246.714	-26.328	200.849	278.658	300.194	88.401	102.739	193.254	79.795	0.00045393	0.00071325	0.0024784	489.85	2.9767e-05	2.2687e-05	513.75	166.26	3.1929e-05	1.622e-05	199.65	94.377	66.043	32.69	7.403e-05	49.151	0.014146	0.013781	0.0044473	1812.1	0.0001619	0.00015245	1890	629.65	0.00015925	0.00015415	953.75	343.9	285.2	105.99	0.00018192	159.93	229.355	242.763	147.116	-45.668	-37.646	211.345	-45.866	-39.269	77.532	165.936	-40.600	-36.226	-34.318	-28.174	225.614	-32.763	-8191	255	
18032.936	1	1	0	0	0.20184	0.094417	0.13272	0.17889	0.22321	0.090765	0.203	0.2336	0.098659	0.12875	0.16354	0.14379	0.10128	0.077886	0.20233	0.25419	-2.7062	-2.6292	-3.4083	-2.8833	-3	-3.2375	-2.7458	-3.3063	-3.1708	-2.6937	-3.5083	-3.0542	-2.7625	-3.3833	-2.8167	-3.2333	-2.215	238.592	212.913	210.449	44.790	192.159	276.596	260.131	161.671	225.062	200.029	-12.744	92.206	194.984	212.807	183.860	0.00053151	0.0057551	0.00099945	489.42	2.6068e-05	7.1871e-05	532.61	166	4.5958e-05	0.00012165	206.94	94.871	65.775	32.896	2.2241e-05	48.933	0.013844	0.014233	0.0046317	1724.4	0.00015361	0.00015545	1905.7	595.51	0.00015121	0.00015957	958.91	328.22	275.11	110.39	0.00018155	154.31	79.701	140.668	154.067	-45.855	-16.894	203.314	-46.604	-40.063	109.333	199.761	-40.771	-35.571	-34.237	-27.365	9.887	-32.271	-8191	255	
18033.057	1	1	0	0	0.038309	0.14481	0.13823	0.24649	0.15987	0.11005	0.17464	0.080606	0.24395	0.14906	0.11228	0.14869	0.11236	0.095622	0.21717	0.15893	-2.7354	-2.7125	-3.3542	-2.9979	-2.9458	-3.4396	-2.8208	-3.1896	-3.2021	-2.7687	-3.4271	-3.0875	-2.8396	-3.5458	-2.9313	-3.1896	17.012	87.406	-23.591	44.710	225.305	-49.861	215.850	-51.240	55.024	20.175	-7.394	21.259	297.685	154.898	188.499	158.871	0.0010955	0.0079795	0.0016722	481.95	2.7858e-05	0.00012596	537.17	159.94	8.6532e-06	8.6653e-05	205.12	91.746	63.899	32.064	6.5334e-05	47.793	0.013321	0.015026	0.0045746	1659.4	0.00014707	0.00016483	1852.2	571.63	0.00014384	0.00016769	919.94	313.93	266.51	114.29	0.00017289	149.04	75.721	149.557	-25.245	-45.963	-28.245	201.189	-46.646	-39.873	240.814	201.966	-41.331	-34.892	-33.029	-27.672	11.779	-31.971	-8191	255	
18033.152	1	1	0	0	0.20751	0.1961	0.094196	0.24375	0.15353	0.050335	0.045816	0.21674	0.092905	0.15079	0.13028	0.20941	0.088997	0.072368	0.1779	0.099864	-2.875	-2.8	-3.2646	-3.0729	-2.7438	-3.6104	-2.9542	-2.9938	-3.1917	-2.7458	-3.3563	-3.1417	-2.7708	-3.4792	-2.8187	-2.9604	228.783	-7.318	240.867	300.056	161.331	121.116	194.079	-27.294	107.713	184.885	192.099	0.485	-34.111	40.240	82.048	37.493	0.0015455	0.0070823	0.0017504	482.81	4.1599e-05	7.5658e-05	533.91	161.6	6.4421e-05	6.3901e-05	202.66	91.835	62.688	32.992	8.6704e-05	47.245	0.01322	0.016081	0.004411	1635.5	0.00015021	0.00017763	1804.8	565.87	0.00014961	0.00017921	896.56	309.88	276.25	119.05	0.00016582	146.64	251.237	174.026	-14.195	-45.857	160.635	185.004	-46.044	-39.376	278.012	216.464	-41.555	-35.524	-31.851	-28.818	50.125	-32.240	-8191	255	
18033.248	1	1	0	0	0.091532	0.12809	0.17857	0.1513	0.058206	0.082164	0.12775	0.26711	0.024803	0.23315	0.21751	0.089965	0.16224	0.43261	0.17997	0.15167	-2.9917	-2.6813	-3.2521	-3.3312	-2.8146	-3.475	-2.9917	-2.9833	-3.4333	-2.8396	-3.2458	-3.3417	-2.9521	-3.4771	-2.8958	-2.9458	142.745	210.074	7.561	59.635	236.925	254.803	33.738	295.852	-19.894	93.395	299.074	264.315	233.396	118.314	231.912	75.746	0.0033156	0.00085199	0.0017525	484.25	0.00012396	2.2072e-05	528.33	162.58	7.5551e-05	5.643e-05	203.04	92.187	62.775	33.316	1.6212e-05	47.668	0.013978	0.016721	0.0042313	1604.4	0.00015952	0.00018171	1750.3	557.06	0.00016113	0.00018056	871.58	305.69	295.01	119.78	0.00016215	146.86	267.278	86.425	-8.054	-46.034	134.690	70.637	-46.161	-39.566	290.108	26.350	-41.786	-35.915	-31.127	-29.252	90.268	-32.306	-8191	255	
18033.320	1	1	0	0	0.024658	0.30981	0.2213	0.11688	0.24121	0.17084	0.22833	0.17797	0.06166	0.156	0.27388	0.12828	0.097344	0.16522	0.17419	0.21209	-2.9771	-2.7896	-3.0167	-3.375	-2.6521	-3.425	-2.9813	-2.9292	-3.3833	-2.8104	-3.1813	-3.2042	-2.7042	-3.2792	-3.0042	-2.8771	26.072	94.649	276.752	158.157	301.043	27.892	-18.813	-37.010	114.495	271.631	102.322	211.056	190.053	-40.503	62.669	165.906	0.0041649	0.0057856	0.00049659	480.71	0.00012182	5.6601e-05	536.02	159.62	7.8338e-05	7.2848e-05	207.28	93.106	63.326	33.608	3.3396e-05	46.868	0.015318	0.016713	0.0042046	1616.3	0.00017638	0.00018211	1759.3	566.54	0.00017887	0.00017982	878.3	313.46	317.99	118.2	0.0001597	148.4	261.489	-28.566	-32.439	-45.448	153.794	21.150	-46.645	-39.146	272.191	23.119	-41.069	-34.414	-30.927	-29.238	45.167	-31.307	-8191	255	
18033.439	1	1	0	0	0.067344	0.077945	0.12399	0.09682	0.54333	0.18108	0.072011	0.033866	0.12319	0.10844	0.14082	0.27981	0.10613	0.055552	0.065375	0.14552	-3.1396	-2.975	-2.9083	-3.4	-2.6729	-3.1167	-3.1312	-2.7542	-3.1833	-2.8875	-2.9396	-3.2104	-2.7479	-3.1708	-3.1063	-2.7625	218.992	271.863	230.489	0.144	103.374	149.815	46.146	253.584	111.028	125.020	244.770	228.779	13.819	222.713	21.812	-36.303	0.001518	0.0053394	0.0014778	470.38	3.4017e-05	9.3445e-05	533.54	155.3	3.3965e-05	7.8155e-05	197.25	87.904	64.636	33.321	2.9232e-05	45.709	0.016363	0.015942	0.0040635	1640.8	0.00018452	0.00017385	1713.6	582	0.00018804	0.00017312	859.63	327.61	328.43	115.52	0.00015877	156.94	291.707	-21.051	-19.129	-44.567	93.461	8.902	-46.815	-39.010	210.734	56.484	-42.374	-33.977	-33.084	-29.507	72.815	-31.520	-8191	255	
18033.535	1	1	0	0	0.082114	0.071468	0.056391	0.19405	0.27899	0.18775	0.12412	0.085441	0.16025	0.099285	0.21133	0.21502	0.082874	0.25772	0.14146	0.25776	-3.0167	-2.95	-2.6646	-3.4229	-2.675	-3.0896	-3.3229	-2.6729	-3.3	-3.0625	-2.8146	-3.5104	-2.7896	-3.1188	-3.2812	-2.6833	107.815	303.402	179.775	-1.549	293.635	-18.066	155.026	-19.236	88.665	179.954	235.394	230.415	290.605	22.490	252.267	250.865	0.0019349	0.006343	0.00095381	475.42	2.4486e-05	5.8985e-05	530.28	155.51	5.6153e-05	5.3136e-05	199.96	88.594	67.563	33.857	2.3047e-05	46.86	0.017	0.015501	0.0040233	1752.2	0.00018718	0.00016923	1695.9	617.24	0.00018578	0.00016593	842	344.82	321.33	112.53	0.0001537	164.83	62.557	-29.963	-17.196	-44.269	-22.955	18.465	-46.165	-38.064	100.555	42.983	-40.663	-33.833	-33.914	-29.104	77.928	-31.152	-8191	255	
18033.633	1	1	0	0	0.078029	0.26107	0.099504	0.16234	0.11095	0.2294	0.16544	0.27298	0.077151	0.093183	0.26264	0.37837	0.14887	0.011838	0.19292	0.22517	-3.1312	-3.0333	-2.7188	-3.4667	-2.7438	-2.9813	-3.2104	-2.725	-3.3229	-3.0542	-2.9104	-3.3083	-3.1021	-2.8625	-3.3833	-2.7458	31.932	210.271	135.692	-55.372	-18.676	176.733	209.705	18.031	118.587	139.735	170.210	46.622	22.876	46.694	148.489	21.159	0.0023264	0.0042885	0.0006497	482.11	6.7044e-05	3.63e-05	524.19	163.91	5.9948e-05	5.3752e-05	200.4	93.647	67.51	34.24	9.0948e-05	48.226	0.016372	0.014975	0.0039863	1851.8	0.00017959	0.00016483	1708.2	652.19	0.00017871	0.00016231	858.83	364.19	311.99	111.72	0.0001601	173.11	91.595	-43.903	94.249	-44.269	-41.232	43.004	-46.589	-38.427	107.402	-9.272	-40.120	-34.173	-34.280	-29.398	217.261	-30.847	-8191	255	
18033.729	1	1	0	0	0.27165	0.07639	0.22857	0.28003	0.25614	0.31828	0.19477	0.17768	0.31697	0.21438	0.018492	0.1636	0.1105	0.10129	0.051888	0.16961	-2.9792	-3.1333	-2.6583	-3.3479	-2.8833	-2.8146	-3.55	-3.0792	-3.2083	-3.125	-2.6396	-3.4062	-2.8875	-2.8312	-3.3979	-2.7146	264.297	-48.789	3.123	221.461	81.695	120.728	38.098	113.993	38.777	116.446	279.902	-33.823	-32.200	261.527	27.192	180.207	0.0023329	0.0052043	0.0019276	501.35	4.7901e-05	3.7843e-05	517.73	167.58	6.3734e-05	4.5706e-05	192.69	93.179	66.802	33.815	9.5256e-05	47.973	0.0158	0.014692	0.0042013	1929.4	0.00017398	0.00016259	1801.8	673.69	0.00017437	0.00016021	909.49	369.26	303.01	109.3	0.00017224	170.72	94.919	-30.107	162.091	-44.644	-51.597	63.442	-46.152	-38.690	127.965	41.896	-40.146	-35.489	-34.415	-29.130	195.409	-32.144	-8191	255	
18033.850	1	1	0	0	0.21605	0.12931	0.026282	0.20913	0.14036	0.14186	0.071024	0.22874	0.078891	0.065979	0.23299	0.10474	0.071231	0.13683	0.11721	0.11501	-2.9188	-3.1917	-2.7687	-3.2271	-2.9646	-2.9146	-3.5146	-2.7042	-3.0812	-3.5021	-2.8333	-3.4062	-3.0604	-2.8667	-3.4667	-2.925	221.429	183.422	151.115	6.974	35.139	139.400	124.640	301.576	152.494	136.330	-52.510	12.040	-39.062	-31.482	63.738	271.593	0.0010081	0.0034933	0.0026502	498.22	3.124e-05	4.0958e-05	509.87	167.63	3.0055e-05	1.1902e-05	191.73	92.805	66.173	32.606	8.7742e-05	48.38	0.015161	0.014201	0.0044715	1886.8	0.00016587	0.00015522	1859.9	642.96	0.00016383	0.00015235	936.62	350.2	286.31	105.62	0.00017721	160.8	147.039	-43.504	166.770	-45.809	-18.768	79.404	-45.392	-39.054	132.670	132.483	-39.832	-35.423	-33.781	-29.405	218.001	-31.712	-8191	255	
18033.922	1	1	0	0	0.16766	0.18031	0.14635	0.13147	0.077024	0.18402	0.14296	0.45029	0.16443	0.091158	0.079914	0.16892	0.11014	0.14208	0.1035	0.19567	-2.55	-3.2979	-2.6604	-3.2333	-3.1	-2.7854	-3.375	-2.85	-2.8479	-3.2125	-2.9521	-3.1917	-3.2083	-2.8229	-3.3729	-3.0125	-48.381	107.632	253.353	131.911	272.217	200.215	227.166	251.555	231.120	274.314	-0.392	222.562	177.141	14.939	227.106	272.730	0.00010393	0.0034474	0.0018366	494.67	3.8486e-05	5.9352e-05	520.48	166.8	4.3872e-05	9.2617e-05	199.03	93.715	66.39	33.228	2.2836e-06	49.049	0.014122	0.013702	0.0045358	1767.5	0.00015451	0.00015251	1890.8	604.09	0.00015406	0.00015254	948.39	332.98	274.94	107.53	0.00017982	154.53	86.628	144.136	165.811	-45.796	-50.804	191.684	-45.806	-39.007	99.845	185.912	-40.825	-36.078	-33.369	-27.798	100.175	-32.087	-8191	255	
18034.018	1	1	0	0	0.18515	0.14321	0.052	0.058724	0.074952	0.22322	0.15322	0.15857	0.16511	0.19735	0.11734	0.16796	0.058288	0.27471	0.26006	0.24923	-2.4479	-3.3312	-2.7208	-3.1104	-3.1792	-2.6896	-3.5292	-3.1167	-2.8792	-3.4062	-2.9542	-3.1083	-3.2771	-2.6667	-3.4729	-2.9125	-48.294	101.097	124.568	-47.092	-44.946	264.771	110.850	229.782	-35.904	201.613	242.942	148.387	-21.048	253.294	300.970	293.931	0.00049478	0.010191	0.000562	490.24	1.8794e-05	6.9584e-05	535.64	162.38	3.4085e-05	8.9451e-05	207.3	93.788	66.237	33.076	5.4779e-05	48.679	0.013573	0.014375	0.0045999	1698.8	0.00014832	0.00016058	1889.9	581.3	0.00014747	0.00016188	932.78	320.68	265.97	112.15	0.00017466	149.69	75.011	146.263	129.252	-45.415	31.083	193.143	-45.685	-39.312	92.277	201.642	-41.797	-35.244	-33.578	-27.307	39.251	-31.878	-8191	255	
18034.137	1	1	0	0	0.13756	0.15757	0.077582	0.28293	0.10745	0.24556	0.088369	0.10456	0.033596	0.12722	0.32228	0.12405	0.21723	0.20063	0.35651	0.34454	-2.2917	-3.3438	-2.7687	-3.0208	-3.2146	-2.7729	-3.3771	-3.0396	-2.8333	-3.5021	-2.9104	-3.1063	-3.2188	-2.7562	-3.4208	-3.2229	200.984	285.295	36.039	-20.849	48.523	12.258	232.872	275.147	-33.221	-36.084	241.036	283.036	180.595	101.717	177.118	-18.332	0.00040152	0.0091573	0.00126	487.41	2.225e-05	8.8261e-05	532.97	163.23	4.8342e-05	7.1627e-05	202.36	91.624	64.046	32.813	8.6783e-05	47.55	0.013116	0.015352	0.0044256	1648.9	0.00014438	0.00017052	1826.8	563.4	0.00014632	0.00017222	892.86	310.15	265.79	115.42	0.00016377	142.96	-30.923	142.570	7.683	-45.424	126.901	193.590	-46.843	-39.563	253.620	204.137	-41.127	-35.919	-32.391	-28.094	18.812	-32.245	-8191	255	
18034.232	1	1	0	0	0.073696	0.19058	0.14974	0.16437	0.060692	0.16587	0.18248	0.16401	0.087272	0.062573	0.15828	0.2676	0.19313	0.20947	0.15093	0.033727	-2.5208	-3.1896	-2.6813	-2.9458	-3.3937	-2.7604	-3.3563	-3.1063	-2.7188	-3.4938	-3.1312	-2.8604	-3.3333	-2.8958	-3.1396	-3.3792	80.890	172.305	85.535	253.694	96.169	176.291	237.329	56.095	178.586	198.085	140.084	222.740	301.616	206.302	69.904	46.314	0.0022684	0.0073984	0.0015033	485.68	8.6739e-05	8.6801e-06	529.36	160.37	9.706e-05	9.0859e-06	204.01	91.853	63.997	33.906	2.2391e-05	48.048	0.013068	0.015636	0.0040556	1576.2	0.00014568	0.00017233	1724.9	537.07	0.00014869	0.00017275	843.85	298.13	273.67	115.27	0.00015416	138.89	262.127	144.559	-25.614	-46.273	156.557	109.334	-45.977	-39.340	278.312	31.924	-41.971	-35.184	-31.985	-29.488	62.208	-31.848	-8191	255	
18034.330	1	1	0	0	0.06481	0.03882	0.24922	0.17393	0.1313	0.15808	0.038133	0.18425	0.15961	0.12739	0.15598	0.073099	0.25036	0.15722	0.098531	0.16217	-2.2812	-3.1625	-2.7938	-2.7938	-3.275	-2.9083	-3.175	-3.2812	-2.7083	-3.4604	-3.1188	-2.9062	-3.4229	-3.0563	-3.1854	-3.1813	195.953	143.450	14.220	61.594	77.802	223.827	287.205	-5.886	139.131	-37.473	26.653	125.931	251.748	298.033	221.251	94.272	0.0029211	0.0025635	0.00078599	486.2	0.00012328	3.5521e-05	536.57	160.27	9.5177e-05	7.2673e-05	199.38	92.653	64.152	33.986	2.8535e-05	48.532	0.013728	0.015475	0.0038367	1533.8	0.00015375	0.00016566	1644.1	518.73	0.00015608	0.00016478	806.29	291.52	286.1	112.05	0.00014933	139.38	268.112	288.690	-35.276	-45.687	138.606	34.698	-46.735	-38.781	282.671	24.183	-41.275	-34.613	-31.101	-29.252	39.360	-31.118	-8191	255	
18034.426	1	1	0	0	0.042652	0.038333	0.20962	0.18014	0.24132	0.17612	0.32617	0.014709	0.13341	0.12619	0.19774	0.13847	0.24627	0.05372	0.34909	0.18359	-2.4167	-3.3979	-3.1063	-2.7812	-3.2875	-3.0667	-3.2146	-3.3146	-2.8104	-3.5062	-3.1125	-2.8312	-3.4083	-3.0021	-2.8688	-3.4562	291.953	209.699	124.017	-54.090	90.822	54.751	195.912	78.854	7.835	87.071	268.408	92.767	-51.903	201.062	17.639	179.082	0.0032641	0.0046055	0.00060365	480.58	7.1512e-05	6.5661e-05	530.06	158.42	5.7528e-05	6.2199e-05	204.29	90.581	64.887	33.951	5.035e-05	47.076	0.014764	0.015131	0.0038071	1550.3	0.00016702	0.00016195	1646.9	532.41	0.0001667	0.00015822	790.23	294.77	294.35	106.13	0.00014107	139.2	275.910	-10.626	3.034	-44.670	149.685	35.672	-45.780	-38.313	298.365	56.074	-40.494	-34.355	-31.653	-29.077	46.026	-31.668	-8191	255	
18034.520	1	1	0	0	0.15384	0.1478	0.01553	0.13682	0.052917	0.13896	0.15983	0.088513	0.052304	0.03526	0.22634	0.27197	0.049511	0.15072	0.13248	0.21376	-2.3708	-3.1708	-2.9896	-2.8167	-3.3542	-2.9167	-3.0875	-3.0938	-2.8521	-3.2021	-3.2042	-2.725	-3.2313	-3.05	-2.6958	-3.4583	215.343	113.217	220.625	230.098	201.634	244.144	-31.402	36.771	29.834	149.746	-39.688	201.897	-34.289	240.011	-12.975	201.536	0.00091628	0.0054016	0.00064718	467.1	1.7593e-05	3.4309e-05	523.82	154.73	1.0727e-05	1.4939e-05	198.71	88.417	65.237	32.777	3.9608e-05	45.932	0.014764	0.013897	0.003513	1547.6	0.00016395	0.00014838	1557.5	538.44	0.00016247	0.00014674	750.52	302.57	287.31	101.25	0.00013454	144.04	-38.951	-30.020	10.402	-44.579	67.520	-2.962	-45.737	-38.088	-0.670	21.809	-40.919	-33.759	-33.889	-28.938	-21.428	-30.983	-8191	255	
18034.615	1	1	0	0	0.18647	0.064082	0.26427	0.13735	0.13316	0.15709	0.30185	0.22653	0.15981	0.22088	0.14219	0.098758	0.11061	0.14768	0.15189	0.16888	-2.2896	-3.0708	-3.2625	-2.7021	-3.1667	-2.9479	-2.675	-3.3729	-2.7104	-2.9521	-3.3979	-2.7771	-3.3292	-3.0104	-2.7271	-3.4437	50.244	267.154	-28.026	228.127	-6.312	115.532	238.639	290.058	81.558	32.634	72.339	83.352	144.438	292.114	103.301	292.094	0.0013001	0.0045004	0.00038721	462.59	6.406e-05	3.026e-05	516.67	154.67	3.8268e-05	3.6397e-05	194.38	90.63	66.985	33.22	3.5273e-05	47.684	0.014247	0.013176	0.0033933	1614.1	0.00015905	0.00014291	1535.6	564.94	0.00015672	0.00014288	750.7	319.68	281.79	100.5	0.00013681	152.57	105.096	-15.103	279.186	-44.272	-18.233	6.837	-45.773	-38.514	72.170	-32.684	-40.834	-33.529	-34.101	-29.020	200.251	-31.120	-8191	255	
18034.736	1	1	0	0	0.28534	0.073871	0.18575	0.072746	0.10469	0.16892	0.22134	0.22375	0.098904	0.17448	0.26068	0.1332	0.23489	0.28746	0.17798	0.24548	-2.4146	-2.8854	-3.3292	-2.6208	-3.1708	-3.0583	-2.8708	-3.3187	-2.8812	-2.9896	-3.3187	-2.7792	-3.1042	-3.1604	-2.7375	-3.5833	178.633	54.459	33.630	236.188	-16.081	-28.380	193.582	233.718	81.912	158.042	-41.849	-0.066	259.480	202.776	289.005	257.139	0.0017668	0.0022934	0.00078558	463.54	5.2976e-05	3.9924e-05	512.95	157.96	6.2076e-05	6.2276e-05	196.86	94.591	65.894	33.715	0.00011179	49.16	0.013668	0.012649	0.0033975	1648.2	0.00014833	0.00013556	1553.6	578.67	0.00014643	0.00013646	766.3	322.69	266.06	96.492	0.00013954	152.4	82.969	-9.993	134.532	-43.825	-20.753	13.523	-45.477	-38.365	115.576	11.367	-40.257	-34.486	-34.594	-29.765	215.202	-31.720	-8191	255	
18034.832	1	1	0	0	0.28994	0.038439	0.19817	0.20582	0.089233	0.17289	0.25357	0.088775	0.1003	0.32141	0.096026	0.026418	0.061076	0.2505	0.20282	0.16872	-2.3771	-2.8229	-3.3625	-2.7729	-3.1146	-3.1396	-2.8083	-3.45	-2.9313	-2.9938	-3.3292	-2.75	-3.0083	-3.3708	-2.75	-3.2292	228.553	0.586	262.974	98.830	-45.619	124.989	217.986	166.115	173.677	170.120	173.082	-17.411	160.121	-11.986	46.127	-28.072	0.0011573	0.0041063	0.0030335	478.02	3.9653e-05	2.5437e-05	510.51	160.56	6.6603e-06	1.7742e-05	190.8	93.28	65.341	33.026	0.00011062	48.168	0.012677	0.012056	0.0035579	1631	0.00013913	0.00012767	1587.3	561.55	0.00013654	0.00012817	789.81	311.02	253.27	92.917	0.00014641	145.56	80.591	-34.078	160.519	-45.793	-17.855	5.305	-45.419	-38.708	86.926	87.444	-39.276	-35.505	-34.131	-29.027	224.089	-31.924	-8191	255	
18034.930	1	1	0	0	0.25798	0.073943	0.094568	0.31251	0.1929	0.14072	0.20572	0.12007	0.078889	0.081965	0.16541	0.25784	0.042129	0.21106	0.13805	0.35488	-2.6688	-2.6312	-3.3833	-2.7896	-2.8917	-3.1583	-2.6875	-3.3917	-2.9938	-2.7396	-3.3646	-2.7042	-2.8146	-3.1771	-2.6937	-3.1708	73.251	140.260	99.326	262.255	-8.035	114.166	196.104	236.519	75.287	160.323	213.846	148.507	-29.229	278.667	21.370	190.291	0.00047491	0.0021136	0.0023477	481.83	3.5977e-05	1.5921e-05	513.39	161.51	2.093e-05	4.5394e-05	195.55	93.804	66.158	32.449	7.7256e-05	48.809	0.012058	0.01168	0.0037664	1575.8	0.00013467	0.0001275	1662.5	546.25	0.00013254	0.00012984	829.23	300.08	247.24	93.837	0.00015182	140.26	38.960	81.445	190.574	-46.086	-37.362	262.256	-45.322	-39.782	56.935	243.690	-40.420	-36.140	-34.149	-28.244	179.781	-31.748	-8191	255	
18035.025	1	1	0	0	0.22406	0.026361	0.078258	0.10737	0.24658	0.10986	0.2627	0.073798	0.12607	0.18554	0.20318	0.071443	0.19225	0.18529	0.17878	0.15746	-2.6667	-2.6	-3.2875	-2.9313	-3.0917	-3.2646	-2.5312	-3.125	-3.1312	-2.7354	-3.2917	-2.7938	-2.7146	-3.3812	-2.5583	-3.2208	58.675	279.231	130.048	280.427	120.980	301.494	-26.394	57.718	96.473	80.763	201.995	-28.589	-23.117	168.208	-12.772	151.021	0.0015751	0.0061307	0.00093961	480.07	5.1125e-05	7.5435e-05	523.04	161.41	4.7255e-05	8.4731e-05	202.2	94.477	65.318	32.845	5.5531e-05	48.91	0.011585	0.011944	0.0039024	1515.4	0.00012882	0.00013129	1670	519.43	0.00012409	0.00013214	818.46	284.65	236.25	96.796	0.00014828	134.92	28.785	139.154	132.071	-46.494	-2.885	208.484	-45.880	-39.417	109.822	204.415	-40.148	-35.587	-33.358	-27.879	-33.455	-31.862	-8191	255	
18035.146	1	1	0	0	0.28899	0.11044	0.061863	0.10657	0.12713	0.2187	0.27404	0.13625	0.26721	0.2912	0.10588	0.19763	0.20679	0.18575	0.22494	0.18749	-2.7625	-2.6813	-3.3167	-2.9958	-2.6854	-3.2417	-2.7208	-2.8396	-3.1562	-2.7062	-3.4458	-2.9938	-2.9396	-3.3396	-2.8771	-2.7292	81.493	112.495	99.829	276.204	154.897	188.115	226.084	265.437	206.306	230.534	-19.801	223.111	247.432	-43.133	174.744	213.013	0.00084881	0.007841	0.00088541	474.34	1.7957e-05	8.3177e-05	536.49	160.12	1.194e-05	7.7896e-05	206.16	93.479	64.589	32.989	5.9509e-05	48.223	0.010934	0.012481	0.0037594	1447.1	0.00012196	0.00013795	1620.1	500.63	0.00012029	0.00014068	795.92	277.73	232.84	100.75	0.00014142	131.13	41.581	146.771	9.448	-45.809	270.462	186.562	-46.035	-39.108	-3.503	215.998	-41.448	-35.945	-33.187	-27.866	31.882	-31.753	-8191	255	
18035.219	1	1	0	0	0.229	0.10478	0.1026	0.23946	0.080261	0.19998	0.23412	0.097389	0.114	0.12872	0.12783	0.11825	0.15519	0.16335	0.13484	0.1761	-2.9771	-2.7146	-3.2542	-3.0125	-2.7438	-3.3937	-3.0125	-2.8958	-3.2938	-2.725	-3.2583	-3.1271	-2.7896	-3.3312	-2.7687	-2.9333	167.919	54.825	-38.377	203.430	152.180	265.103	299.752	201.513	112.579	42.129	4.112	205.094	-35.022	19.143	30.035	109.091	0.0021871	0.00338	0.0017168	473.81	5.3079e-05	4.0245e-05	525.25	158.41	6.6741e-05	1.2418e-05	198.32	91.957	62.156	32.461	5.4793e-05	46.79	0.010879	0.013215	0.0035855	1406.8	0.0001228	0.00014506	1555	484.87	0.00012259	0.00014516	751.65	265.65	234.22	100.85	0.00013151	125.72	279.212	167.772	-17.955	-45.315	137.937	182.212	-47.172	-39.286	273.770	299.302	-41.582	-35.357	-31.837	-28.353	28.932	-31.969	-8191	255	
18035.314	1	1	0	0	0.21432	0.27078	0.22566	0.35092	0.14391	0.18038	0.19633	0.050445	0.35682	0.21822	0.11986	0.19344	0.070291	0.075062	0.092792	0.083534	-3.0021	-2.6771	-2.9917	-3.1688	-2.6667	-3.1583	-2.8604	-2.7938	-3.2375	-2.725	-3.1167	-3.2375	-2.7917	-3.1854	-2.8729	-2.8604	180.701	302.443	135.627	135.782	95.143	157.548	-30.303	272.882	274.281	17.378	-0.371	4.815	-25.315	-37.638	131.774	211.033	0.0020803	0.001267	0.0011651	466.88	7.6638e-05	8.4063e-06	516.9	157.9	7.4647e-05	3.3867e-05	196.53	91.742	62.614	32.955	1.8227e-05	48.106	0.011199	0.013218	0.0033522	1358.4	0.00012808	0.00014568	1503.3	474.12	0.00013107	0.00014589	739.72	263.09	249.89	101.56	0.00012906	125.87	270.021	197.171	-19.057	-45.590	167.080	4.041	-46.052	-38.877	284.052	292.444	-41.914	-34.883	-32.207	-29.291	-10.069	-31.998	-8191	255	
18035.410	1	1	0	0	0.054916	0.086013	0.13741	0.15272	0.11614	0.12621	0.30979	0.068988	0.2221	0.2046	0.12559	0.19784	0.078194	0.18568	0.095125	0.05045	-3.1188	-2.6854	-3.0938	-3.2375	-2.5563	-3.0812	-3.0208	-2.6542	-3.2646	-2.7146	-2.9813	-3.2708	-2.5875	-3.3104	-2.9979	-2.7646	-34.539	107.278	231.399	301.377	251.535	42.635	294.029	278.962	250.171	196.075	177.078	115.401	202.006	-48.532	295.618	80.825	0.0033967	0.0046109	0.00055062	467.42	3.5892e-05	6.6984e-05	521.59	154.15	7.8356e-05	4.122e-05	202.69	91.749	63.038	33.465	4.0442e-05	48.357	0.012257	0.013151	0.0033196	1361.5	0.00014015	0.00014385	1493.1	478.45	0.00014325	0.0001428	735.62	268.64	265.26	100.14	0.00012781	129.93	276.075	-9.820	-20.189	-45.561	159.015	16.494	-46.148	-38.989	301.367	26.103	-42.478	-35.489	-32.323	-29.979	-4.759	-31.418	-8191	255	
18035.506	1	1	0	0	0.13963	0.10562	0.16579	0.021606	0.25975	0.22036	0.048007	0.1347	0.10829	0.16626	0.083636	0.12157	0.26145	0.23837	0.17593	0.19002	-3.0833	-2.7479	-2.8854	-3.2938	-2.7438	-3.1104	-3.1208	-2.7375	-3.3187	-2.9792	-3.0563	-3.3167	-2.8646	-3.1729	-3.0812	-2.8688	103.877	266.682	217.693	-50.431	194.273	-28.245	-29.059	104.287	163.155	89.062	108.330	194.085	77.169	221.638	-2.503	-27.052	0.0013933	0.0048364	0.00066547	467.47	3.6405e-05	3.85e-05	527	152.95	4.8221e-05	3.615e-05	200.53	90.153	64.471	32.95	1.3232e-05	46.264	0.013224	0.012815	0.0032919	1410.3	0.0001494	0.00013963	1473.3	496.6	0.00014968	0.00013653	720.82	278.27	270.95	97.353	0.00012481	134.02	275.861	-3.400	25.474	-44.557	178.503	25.222	-46.282	-38.595	289.654	11.881	-41.790	-34.257	-33.795	-29.423	100.102	-31.488	-8191	255	
18035.625	1	1	0	0	0.18144	0.15868	0.11321	0.32311	0.048357	0.3615	0.11718	0.049657	0.15939	0.024978	0.15743	0.15643	0.088971	0.23838	0.079302	0.080709	-3.1021	-2.95	-2.8187	-3.3375	-2.6813	-2.9542	-3.425	-2.7708	-3.1479	-2.8875	-2.8229	-3.4437	-2.9396	-3.0125	-3.1312	-2.6562	121.759	185.428	-50.828	189.840	186.302	301.255	-45.113	6.638	8.455	193.621	203.052	141.855	-14.253	90.217	22.188	200.745	0.00018799	0.001588	0.0010523	463.7	4.0294e-05	3.1375e-05	520.18	152.75	3.388e-05	3.3868e-05	199.31	89.032	64.069	32.838	3.2809e-05	46.224	0.013416	0.012296	0.0031964	1478.1	0.00014823	0.00013493	1445.4	522.55	0.00014926	0.00013408	712.42	295.69	268.08	96.148	0.00012432	141.8	164.283	-19.980	-15.513	-44.672	-30.047	-21.278	-46.633	-38.757	134.055	31.772	-41.386	-34.257	-34.538	-29.640	214.214	-31.963	-8191	255	
18035.721	1	1	0	0	0.22215	0.13586	0.13235	0.18706	0.20598	0.005537	0.04724	0.13203	0.11003	0.27668	0.17573	0.10063	0.096401	0.17744	0.095773	0.18163	-2.8708	-2.8812	-2.9375	-3.4792	-2.9021	-2.8646	-3.3771	-2.8333	-3.0646	-2.9938	-2.6063	-3.3396	-2.8104	-2.9479	-3.0833	-2.6667	81.770	282.635	227.145	262.598	264.742	-4.338	111.464	297.504	47.181	267.727	268.370	13.891	248.183	11.607	234.447	273.641	0.0023978	0.0019187	0.00074103	464.78	7.0544e-05	2.4508e-05	521.59	152.77	6.1849e-05	4.6993e-05	196.52	91.349	66.214	33.419	7.3043e-05	47.774	0.013148	0.012118	0.0032354	1572.1	0.00014542	0.00013416	1478	553.2	0.00014516	0.00013241	734.32	311.41	262.73	96.071	0.00013221	149.8	85.555	5.213	182.520	-45.085	-20.281	42.726	-46.494	-38.732	109.786	21.080	-40.410	-35.206	-34.635	-29.677	215.969	-31.784	-8191	255	
18035.816	1	1	0	0	0.10202	0.099881	0.21042	0.096662	0.092941	0.063075	0.32509	0.23886	0.14258	0.06803	0.085559	0.070876	0.4208	0.19809	0.10556	0.36067	-2.8729	-3.1437	-2.5521	-3.2021	-2.9479	-2.8812	-3.45	-2.8021	-3.15	-3.4	-2.6937	-3.3688	-2.9396	-2.9958	-3.3542	-2.9229	185.148	-29.571	-44.607	54.041	236.967	-25.164	203.167	111.588	163.287	189.242	256.402	299.900	235.975	252.915	204.546	247.262	0.0016363	0.0048778	0.0020987	476.99	4.1359e-05	3.5801e-05	511.46	161.83	7.8716e-05	2.8573e-05	193.78	94.905	64.59	33.551	8.3135e-05	49.491	0.013027	0.012228	0.003523	1671.9	0.00014589	0.00013643	1592.9	585.69	0.00014671	0.00013394	801.59	325.58	263.8	97.148	0.00014709	153.03	73.595	297.204	163.358	-44.585	-29.283	21.301	-45.829	-38.840	94.981	43.245	-39.947	-35.910	-33.981	-29.809	197.702	-32.021	-8191	255	
18035.912	1	1	0	0	0.45206	0.039177	0.12643	0.44755	0.22982	0.16953	0.32336	0.14213	0.027086	0.11023	0.097934	0.071838	0.10258	0.17715	0.038915	0.31934	-2.5396	-3.1854	-2.6604	-3.1708	-2.9167	-2.9271	-3.4354	-2.8312	-2.9667	-3.1479	-2.7229	-3.2667	-2.8042	-2.9479	-3.3187	-2.7167	61.961	277.469	161.534	282.837	14.801	244.243	247.255	223.411	-39.769	248.393	153.423	115.651	23.018	219.588	25.407	208.309	0.00033911	0.0031444	0.0021411	489.85	5.3472e-05	7.1482e-06	507.65	162.16	4.9591e-05	1.4477e-05	194.89	93.56	65.953	33.115	6.4113e-05	48.747	0.012911	0.012169	0.0038524	1671.1	0.0001431	0.00013506	1692.3	580.94	0.00014597	0.0001363	862.88	326	267.37	100.12	0.00016687	154.42	-22.626	-28.731	172.948	-46.125	291.621	40.935	-46.308	-38.912	109.816	253.579	-40.508	-36.593	-34.708	-29.193	213.609	-32.714	-8191	255	
18036.010	1	1	0	0	0.085939	0.1134	0.37793	0.11276	0.15877	0.28471	0.27129	0.30915	0.25338	0.27217	0.2199	0.10306	0.22183	0.21094	0.31229	0.11508	-2.6	-3.2104	-2.75	-3.2583	-3.1521	-2.8458	-3.5208	-2.8333	-2.8854	-3.3937	-2.8792	-3.3771	-3.15	-2.7792	-3.45	-2.8354	300.271	263.965	281.457	-32.254	236.737	262.550	233.631	300.129	229.101	62.869	46.821	77.960	201.678	11.075	101.784	3.301	0.0012378	0.0047455	0.0015522	488.38	5.3626e-05	7.064e-05	520.17	166.27	6.5193e-05	7.5808e-05	203.75	95.641	67.538	32.706	1.8581e-05	49.299	0.013454	0.013207	0.0044061	1724.5	0.00015114	0.00015172	1880	600.82	0.0001546	0.00015532	955.79	334.43	277.28	109.61	0.00018441	157.35	88.948	135.062	146.264	-46.197	-22.661	205.481	-46.386	-39.466	80.740	228.108	-41.417	-36.167	-34.024	-28.249	230.288	-32.494	-8191	255	
18036.105	1	1	0	0	0.075924	0.19351	0.13106	0.080808	0.066996	0.15915	0.12263	0.098394	0.097155	0.034154	0.19628	0.19295	0.30859	0.13928	0.07912	0.10541	-2.4771	-3.3333	-2.8375	-3.1396	-3.2313	-2.7896	-3.4938	-3.0062	-2.725	-3.1833	-2.9813	-3.1167	-3.0958	-2.6188	-3.5542	-3.1667	181.834	90.958	184.067	141.728	102.202	100.481	-39.159	222.392	16.793	206.037	241.363	87.650	41.281	-40.316	38.366	168.717	0.00062945	0.011474	0.00028378	495.5	5.1764e-05	0.00010049	539.97	165.64	2.1139e-05	0.00013484	211.1	95.599	67.197	33.977	0.00010348	50.524	0.013993	0.015098	0.0047925	1757.9	0.00015692	0.00017226	1982.8	614.46	0.00016052	0.00017782	1001.7	345.6	289.13	122.47	0.00019453	163.33	3.946	160.161	211.110	-45.481	-11.687	201.007	-46.496	-39.684	139.090	216.251	-42.071	-36.112	-34.254	-28.148	19.515	-32.216	-8191	255	
18036.227	1	1	0	0	0.10094	0.23962	0.15132	0.17295	0.27725	0.29335	0.2316	0.11113	0.14395	0.22005	0.059399	0.093852	0.21831	0.30217	0.23501	0.10965	-2.5083	-3.475	-2.6937	-2.9625	-3.3312	-2.7562	-3.3125	-2.9854	-2.8563	-3.5146	-3.0062	-3.0125	-3.175	-2.8646	-3.2625	-3.0917	73.082	131.273	148.570	276.815	-24.861	-43.855	240.074	40.753	173.406	227.075	190.040	67.045	295.938	222.165	280.852	255.532	0.00054781	0.0079261	0.0014614	505.56	1.479e-05	6.5048e-05	557.2	171.42	6.056e-05	8.099e-05	216.76	97.408	66.95	34.574	7.9212e-05	50.371	0.01472	0.017367	0.0049456	1806.5	0.00016316	0.00019292	1991.1	620.08	0.00016449	0.00019296	979.98	340.57	292.74	127.46	0.00018443	157.91	131.639	151.886	5.265	-46.145	86.004	204.598	-46.803	-39.217	-43.260	170.002	-42.980	-36.100	-32.068	-28.890	13.333	-32.274	-8191	255	
18036.322	1	1	0	0	0.34127	0.17227	0.063575	0.19778	0.18147	0.16887	0.16478	0.093457	0.30342	0.15045	0.047476	0.032117	0.12174	0.034853	0.27064	0.1986	-2.2583	-3.3521	-2.7354	-3.0083	-3.3833	-2.7979	-3.2583	-3.0521	-2.8542	-3.5354	-2.7146	-2.9229	-3.3625	-2.8458	-3.3542	-3.2687	108.648	60.541	50.118	-47.170	120.124	-55.740	255.964	1.147	102.194	261.544	144.751	239.308	198.189	-34.710	133.812	-35.217	0.0022456	0.0057019	0.0020998	505.24	8.5059e-05	1.1427e-05	535.99	170.66	0.00011904	1.5034e-05	211.05	95.894	67.553	35.202	5.0942e-05	49.731	0.014825	0.017796	0.0046022	1739.1	0.00016607	0.00019552	1895.7	601.31	0.00017264	0.0001993	949.1	336.36	314.1	130.61	0.00018193	157.58	266.273	134.570	-19.160	-46.079	158.324	258.572	-47.065	-40.089	288.041	125.991	-42.363	-36.587	-32.274	-29.797	12.631	-31.969	-8191	255	
18036.420	1	1	0	131072	0.036852	0.17289	0.12604	0.16151	0.1116	0.23846	0.11118	0.20603	0.17898	0.033183	0.25953	0.19973	0.034226	0.23927	0.053904	0.33549	-2.3688	-3.2833	-2.8979	-2.9	-3.4	-2.9	-3.25	-3.3104	-2.7917	-3.4375	-3.0292	-2.8917	-3.5083	-2.8646	-3.0625	-3.4167	81.609	7.131	159.071	77.009	209.587	101.231	127.668	-8.008	223.218	281.903	8.469	279.412	38.115	-53.248	200.403	263.384	0.0040037	0.0023657	0.00088805	507.45	0.0001359	4.3306e-05	544.14	169.9	0.00017742	6.6593e-05	213.8	95.305	68.835	36.17	5.0461e-05	49.328	0.016374	0.018519	0.0046251	1769.2	0.00018808	0.00020299	1928	613.61	0.00019423	0.00020482	965.06	344.17	346.13	132.1	0.00018447	162.39	259.259	-42.903	-34.413	-46.673	148.537	22.147	-46.447	-39.382	278.564	11.776	-41.467	-35.479	-32.017	-30.373	-7.500	-32.370	-8191	255	
18036.516	1	1	0	131072	0.21339	0.11037	0.08341	0.22384	0.16072	0.29999	0.1351	0.073065	0.035805	0.14799	0.34354	0.052035	0.22921	0.22519	0.04326	0.28023	-2.3625	-3.3417	-2.9979	-2.9625	-3.5146	-2.8312	-3.0312	-3.3	-2.7667	-3.3167	-3.2083	-2.7521	-3.4188	-2.9542	-2.8125	-3.2667	99.128	66.273	196.895	152.091	131.024	-38.344	92.885	279.228	-32.399	273.366	211.427	-45.396	206.578	227.644	209.192	-48.854	0.0036168	0.0073528	0.0009411	505.13	5.7786e-05	8.6754e-05	552.69	170.31	8.4803e-05	8.2825e-05	212.15	95.175	69.09	36.437	6.1228e-05	49.87	0.018272	0.018553	0.0046473	1820	0.00020614	0.00019991	1929.9	636.74	0.0002102	0.00020114	966.97	362.02	370.47	132.48	0.00018896	176.2	259.984	-27.652	-18.323	-45.385	148.360	7.481	-46.176	-39.122	286.030	36.018	-41.090	-34.687	-33.193	-31.246	39.886	-32.407	-8191	255	
18036.609	1	1	0	131072	0.20708	0.19933	0.2483	0.18803	0.12961	0.11525	0.18248	0.11593	0.0055912	0.11954	0.11024	0.23503	0.26875	0.11835	0.18874	0.31518	-2.325	-3.1437	-3.0854	-2.5792	-3.4083	-2.8312	-3.0167	-3.2042	-2.7521	-3.1333	-3.1271	-2.675	-3.3375	-2.9708	-2.8625	-3.2771	47.121	190.745	231.949	-28.448	46.789	264.690	205.317	-7.818	-51.578	70.043	219.265	-20.182	230.163	279.070	294.412	272.326	0.00073002	0.0079717	0.0016177	509.98	3.3913e-05	6.347e-05	540.88	167.48	1.9172e-05	7.4488e-05	208.85	93.003	72.291	35.121	2.6426e-05	47.051	0.020075	0.018939	0.0048292	2000.6	0.00022566	0.00020443	1983.8	702.78	0.00022371	0.00020302	975.31	390.82	378.9	130.69	0.00018854	186.76	233.294	301.718	19.538	-44.881	-46.012	5.681	-46.815	-38.699	113.623	60.431	-42.016	-34.572	-34.072	-29.824	-5.779	-31.026	-8191	255	
18036.705	1	1	0	131072	0.1861	0.25016	0.13208	0.25788	0.16274	0.20696	0.28196	0.12746	0.1056	0.17738	0.090539	0.12875	0.25847	0.24328	0.1823	0.19785	-2.3521	-2.9313	-3.2646	-2.7479	-3.4104	-2.9479	-2.7208	-3.3167	-2.7875	-2.9542	-3.35	-2.8083	-3.2708	-3.2438	-2.4333	-3.4813	108.701	-2.725	299.484	230.859	298.961	-44.318	225.051	154.111	211.695	132.323	140.530	277.027	189.996	229.288	297.388	240.372	0.0019799	0.005859	0.00052029	492.03	5.8987e-05	7.8283e-05	542.87	162.16	0.00010217	6.628e-05	205.36	90.698	72.008	33.45	9.6613e-05	44.645	0.020071	0.018712	0.004822	2141.4	0.00022647	0.00020552	2011.2	763.89	0.00022628	0.00020806	1013.8	427.52	383.86	132.43	0.00019896	201.9	103.033	-11.368	76.810	-44.143	-25.392	9.613	-46.888	-38.154	103.567	11.599	-41.176	-35.475	-35.726	-29.635	171.710	-31.102	-8191	255	
18036.826	1	1	0	131072	0.10622	0.45364	0.14927	0.15148	0.037004	0.42957	0.14746	0.15056	0.14324	0.094694	0.095314	0.24413	0.14425	0.14224	0.30017	0.21041	-2.4354	-2.7729	-3.0854	-2.6708	-3.3521	-3.0896	-2.8125	-3.5104	-2.7292	-2.7833	-3.2625	-2.7646	-3.1292	-3.2167	-2.7854	-3.4208	299.488	233.086	118.164	233.087	33.917	0.238	297.679	287.242	147.523	60.144	-42.192	213.447	27.733	12.549	-8.874	181.891	0.0030397	0.0039529	0.0027926	472.51	8.4926e-05	2.9688e-05	522.76	166.83	8.4467e-05	6.0167e-05	201.03	95.444	71.518	35.812	0.00013587	48.194	0.020054	0.018966	0.0051176	2275	0.00022064	0.00020124	2066.3	788.31	0.00021413	0.00019897	1040.3	431.11	363.19	127.48	0.00020296	200.58	107.279	-6.758	166.473	-44.863	-32.632	61.067	-45.620	-39.371	122.271	-2.013	-38.682	-34.626	-34.487	-29.845	227.084	-31.686	-8191	255	
18036.922	1	1	0	131072	0.15628	0.062958	0.16789	0.32634	0.12936	0.017254	0.42273	0.27139	0.1414	0.12772	0.05058	0.13646	0.14385	0.29628	0.25262	0.053295	-2.5375	-2.85	-3.3083	-2.8396	-3.0208	-3.1333	-2.925	-3.3583	-2.9646	-2.8438	-3.3333	-2.775	-3.2687	-3.3021	-2.6833	-3.2021	72.110	17.861	234.670	281.015	0.625	282.936	243.850	227.762	107.599	172.199	3.795	181.893	98.672	293.828	225.866	146.686	0.0021609	0.0052909	0.0031528	503.74	6.0056e-05	1.4386e-05	521.73	177.87	5.7594e-05	8.0639e-05	204.58	99.728	72.376	35.692	0.00012116	51.822	0.018405	0.017521	0.0051911	2192	0.00020181	0.00018481	2089.9	752.88	0.00019597	0.00018349	1058.7	407.25	336.58	120.18	0.00020457	188.06	70.639	-30.410	153.918	-46.175	-13.349	122.613	-45.258	-39.472	90.895	42.881	-39.701	-35.527	-34.141	-28.818	201.293	-32.259	-8191	255	
18037.018	1	1	0	131072	0.13536	0.048525	0.14394	0.18255	0.10672	0.10964	0.093327	0.20322	0.033218	0.15603	0.11341	0.09061	0.13369	0.1667	0.24408	0.25329	-2.4854	-2.8667	-3.1229	-2.9521	-3.0625	-3.2313	-2.7438	-3.2375	-2.9333	-2.7375	-3.3333	-2.7542	-3.0021	-3.2188	-2.6979	-3.2625	157.443	14.993	147.834	-36.843	-10.943	274.102	7.999	63.818	242.275	135.051	20.628	214.968	-22.646	241.321	74.220	299.166	0.00099788	0.0016615	0.002445	518.03	6.5255e-05	4.28e-05	517.45	176.81	3.6278e-05	3.0177e-05	201.68	97.327	69.374	34.416	5.4982e-05	50.38	0.016743	0.01628	0.0052592	2048.8	0.0001877	0.00017794	2129.4	710.14	0.00018365	0.00017977	1079.2	382.5	321.63	120.16	0.00020936	177.89	93.900	132.811	155.866	-45.962	-16.436	217.760	-45.686	-39.348	120.218	185.606	-39.359	-36.018	-34.023	-27.536	220.467	-32.232	-8191	255	
18037.090	1	1	0	131072	0.18746	0.083594	0.23603	0.1739	0.13021	0.14903	0.041342	0.11645	0.25382	0.25785	0.16417	0.29901	0.1237	0.15207	0.18976	0.026459	-2.6562	-2.6417	-3.4146	-2.6646	-2.7771	-3.3646	-2.7917	-3.0958	-3.0333	-2.4938	-3.4333	-2.9479	-2.8229	-3.2021	-2.6375	-3.275	-8.736	243.559	128.738	260.847	105.267	-22.074	129.127	277.293	236.182	179.631	52.514	257.581	292.128	292.359	39.309	257.163	0.0016701	0.0072713	0.00039553	508.9	7.7384e-05	6.7134e-05	538.69	172.85	7.4893e-05	9.9791e-05	209.46	97.019	69.444	34.751	3.5418e-05	50.259	0.016043	0.01665	0.0054007	1957	0.00018088	0.00018427	2152.5	681.34	0.00017706	0.00018852	1086.1	369.93	313.38	125.98	0.00020851	173.6	86.919	164.669	209.068	-45.626	-8.758	200.366	-45.843	-39.504	93.909	200.910	-40.530	-35.397	-33.646	-27.378	62.874	-32.353	-8191	255	
18037.211	1	1	0	131072	0.13073	0.054754	0.073997	0.18641	0.21474	0.045162	0.35551	0.10801	0.04377	0.17298	0.15869	0.13285	0.11361	0.20316	0.22562	0.077159	-2.775	-2.7833	-3.2833	-2.9167	-2.7604	-3.2938	-2.9875	-3.1021	-3.2646	-2.575	-3.1063	-2.9604	-2.8063	-3.2875	-2.8521	-3.0875	18.892	250.301	250.596	-16.839	29.272	278.597	40.581	96.887	129.019	31.529	178.821	10.337	13.668	191.101	291.040	243.910	0.00037912	0.009773	0.0017716	508.35	1.5582e-05	0.00010096	546.62	174.6	1.9158e-05	0.00010474	213.83	97.951	67.82	35.42	7.5517e-05	51.63	0.015514	0.017793	0.0053485	1909.4	0.000175	0.00019783	2104.8	661.2	0.00017121	0.00019855	1044.9	356.37	305.35	130.26	0.00019494	167.1	270.776	156.136	-12.302	-44.966	-2.836	193.820	-45.236	-39.162	-6.355	219.044	-40.895	-35.776	-33.211	-28.348	33.684	-31.842	-8191	255	
18037.307	1	1	0	0	0.19347	0.10437	0.068831	0.15658	0.14177	0.10586	0.11371	0.094115	0.076847	0.13657	0.18566	0.20499	0.017998	0.17649	0.16119	0.081251	-2.6333	-2.5958	-3.0833	-2.8583	-2.5979	-3.4208	-3.0104	-2.8625	-3.2458	-2.7042	-3.0833	-3.2021	-2.675	-3.3104	-2.7833	-2.9042	-13.526	3.813	-19.770	73.427	76.482	99.761	90.776	157.764	-32.299	232.376	114.180	26.050	115.932	9.235	144.771	37.317	0.0011074	0.0067745	0.0013946	508.52	6.4479e-05	7.8526e-05	546.91	171.56	9.6895e-05	4.343e-05	215.4	96.67	66.211	35.319	5.5253e-05	49.801	0.014967	0.018041	0.0048388	1776.4	0.00016433	0.00019178	1895	599.96	0.00015803	0.00018614	925.29	321.4	288.77	122.72	0.00016666	149.18	291.110	135.536	-19.777	-45.685	133.878	216.125	-45.645	-39.196	285.716	190.527	-41.342	-35.176	-32.057	-28.491	9.493	-31.886	-8191	255	
18037.402	1	1	0	0	0.22405	0.21696	0.067213	0.098049	0.27133	0.23929	0.030601	0.16881	0.23996	0.32259	0.29261	0.16108	0.14467	0.088958	0.33067	0.12397	-2.9521	-2.6646	-3.05	-3.1229	-2.5563	-3.3229	-2.9375	-2.7625	-3.3021	-2.6958	-3.0604	-3.2667	-2.7604	-3.4271	-2.95	-2.9813	200.687	62.921	85.119	2.635	-36.704	68.927	61.451	275.365	178.880	-2.307	-9.541	213.759	241.435	124.548	282.714	236.165	0.0031164	0.00015065	0.001503	493.23	0.00010063	1.6317e-05	530.32	167.13	0.00011843	4.6195e-05	204.56	93.572	65.406	34.797	4.0864e-05	48.58	0.014048	0.016467	0.0041692	1607.3	0.00016072	0.00018125	1761.1	564.83	0.00016367	0.00017996	871.35	305	293.5	117.01	0.00015418	142.41	261.841	33.727	298.504	-45.344	147.724	30.927	-46.326	-39.383	282.161	8.044	-40.561	-34.907	-31.324	-29.062	168.433	-31.431	-8191	255	
18037.498	1	1	0	0	0.26907	0.10286	0.15358	0.18469	0.11337	0.20755	0.20842	0.22611	0.32644	0.091405	0.10898	0.072004	0.24296	0.19728	0.094223	0.019191	-3.0875	-2.5146	-2.9021	-3.1813	-2.6688	-3.1375	-3.0083	-2.6354	-3.1667	-2.7687	-3.0396	-3.1729	-2.5604	-3.1521	-2.9229	-2.9208	85.146	-32.975	71.394	62.291	-44.981	141.959	228.084	134.044	152.487	204.827	-1.619	171.219	237.709	13.499	12.489	-33.802	0.0037047	0.0051132	0.00094162	489.94	8.244e-05	5.4624e-05	531.97	164.54	0.00010994	7.2736e-05	205.12	93.491	64.679	35.104	3.8478e-05	48.907	0.014477	0.01537	0.0038887	1538.3	0.00016343	0.00016758	1676.1	542.78	0.0001667	0.00016535	828.69	301.02	303.02	113.92	0.00015222	147.37	268.118	-33.453	-20.705	-44.975	146.606	41.512	-45.908	-38.283	279.977	14.930	-40.700	-34.014	-31.581	-29.039	51.539	-31.898	-8191	255	
18037.617	1	1	0	0	0.012853	0.29365	0.085501	0.054749	0.03966	0.079318	0.095696	0.15996	0.20043	0.2509	0.23829	0.1282	0.17203	0.27114	0.21662	0.085011	-3.0542	-2.8125	-2.8187	-3.2146	-2.775	-3.1521	-3.1646	-2.9479	-3.2375	-2.8708	-2.9583	-3.2896	-2.8875	-3.2167	-3.0354	-2.6813	180.690	141.980	-12.239	196.216	33.962	-47.196	-51.576	184.998	71.371	287.204	268.416	175.624	30.116	223.729	-17.750	227.733	0.0029169	0.0052068	0.0017775	481.77	2.2092e-05	7.661e-05	535.78	162.33	5.1078e-05	5.8427e-05	209.55	93.626	68.907	35.143	3.8549e-05	49.506	0.01562	0.014991	0.0038589	1601.4	0.00017514	0.00016481	1671.6	571.18	0.00017775	0.00016342	834.25	321.69	315.1	112.26	0.0001478	154.02	280.114	-32.243	-11.554	-44.693	73.409	37.143	-45.354	-38.521	286.065	32.677	-41.453	-33.607	-34.220	-29.135	-0.046	-31.930	-8191	255	
18037.689	1	1	0	0	0.29771	0.023766	0.27798	0.15407	0.035793	0.10913	0.31369	0.098489	0.089727	0.10249	0.15777	0.2603	0.053884	0.23418	0.15375	0.16158	-3.0479	-2.9146	-2.725	-3.4042	-2.6229	-3.1417	-3.1479	-2.7625	-3.2896	-3.0292	-2.7125	-3.3896	-2.7583	-2.9188	-3.1667	-2.875	121.779	192.944	6.594	130.897	193.106	130.041	172.375	121.812	155.757	220.855	-26.669	169.084	60.493	-51.561	106.731	215.214	7.5563e-05	0.00057214	0.0011012	481.61	5.5268e-05	3.8221e-05	531.6	161.3	1.3909e-05	3.7736e-05	204.57	92.529	68.152	34.212	2.3469e-05	47.946	0.015711	0.014464	0.0037706	1692.3	0.00017548	0.00016098	1661	608.66	0.00017796	0.00016007	821.32	336.93	305.55	108.69	0.00014544	159.33	-11.207	65.585	-18.473	-44.302	-48.084	61.189	-46.419	-38.253	109.745	-4.931	-40.454	-33.209	-33.310	-29.659	231.367	-30.805	-8191	255	
18037.787	1	1	0	0	0.28015	0.14581	0.12375	0.1754	0.21785	0.22785	0.1266	0.25154	0.07302	0.16734	0.045409	0.19512	0.24099	0.19054	0.15871	0.27405	-2.8063	-2.9708	-2.7	-3.3042	-2.925	-3.1271	-3.2062	-2.7896	-3.3542	-3.0958	-2.5979	-3.4042	-2.8375	-3.0521	-3.2542	-2.6083	103.541	245.659	115.667	119.785	110.756	196.204	245.956	213.210	278.341	93.834	277.727	249.299	293.323	62.289	127.365	-35.042	0.00064392	0.0044377	0.0012988	480.94	6.5673e-05	3.0527e-05	517.14	161.13	4.9943e-05	3.6208e-05	197.89	94.318	67.611	34.725	9.9588e-05	49.418	0.015288	0.014199	0.003768	1774.4	0.00016818	0.00015573	1646.4	626.64	0.00016959	0.00015586	841.32	357.09	305.77	111.37	0.00016093	172.99	114.845	-43.106	210.264	-44.701	-16.173	74.803	-44.755	-38.455	112.354	41.375	-40.591	-34.942	-34.276	-29.658	213.638	-31.089	-8191	255	
18037.906	1	1	0	0	0.088344	0.13378	0.2637	0.096386	0.088982	0.10618	0.27417	0.057501	0.12041	0.14912	0.1505	0.053338	0.32082	0.059663	0.2329	0.13865	-2.7938	-2.8563	-2.6813	-3.4375	-2.8542	-2.8917	-3.3063	-2.7146	-3.1958	-3.1063	-2.8458	-3.3312	-2.9125	-2.9417	-3.4729	-2.8646	296.800	-29.687	65.142	-24.362	255.416	29.493	187.185	247.201	175.038	100.262	14.727	198.467	300.660	16.969	5.725	169.894	0.0017619	0.0037786	0.0031198	493.31	5.1584e-05	3.589e-05	507.58	166.82	6.4124e-05	3.6292e-05	197.3	97.682	68.743	34.339	9.7629e-05	51.005	0.015675	0.014678	0.0041897	1899.2	0.00017004	0.0001587	1774.5	655.25	0.00016865	0.00015603	904.45	365.61	300.56	109.94	0.00017214	171.75	87.711	-32.093	167.195	-44.970	0.081	14.327	-45.708	-38.995	143.844	42.528	-39.530	-35.334	-34.203	-28.720	206.202	-32.220	-8191	255	
18038.004	1	1	0	0	0.17045	0.18667	0.10552	0.23426	0.077277	0.043621	0.041219	0.22107	0.034028	0.12138	0.21341	0.33507	0.1625	0.14655	0.15155	0.092457	-2.6937	-3.1104	-2.7896	-3.2729	-2.9604	-2.8333	-3.2687	-2.8563	-2.8937	-3.3417	-2.7146	-3.3312	-3.0521	-2.8729	-3.4417	-3.0229	149.669	301.559	-43.664	252.991	270.268	29.083	295.662	225.563	19.703	225.671	-8.782	273.942	82.389	-6.417	232.693	-7.320	0.001024	0.003203	0.0025465	496.18	2.8952e-05	2.3186e-05	517.3	170.37	2.3071e-05	3.0935e-05	201.7	97.896	67.602	33.638	7.8829e-05	49.88	0.015089	0.01424	0.0044773	1879.7	0.00016582	0.00015631	1875.5	642.67	0.00016395	0.00015307	940.96	349.6	285.84	106.02	0.00017628	162.73	69.675	294.068	164.362	-46.026	-11.347	36.728	-45.350	-39.262	55.947	230.871	-39.600	-35.531	-34.630	-28.602	210.331	-32.228	-8191	255	
18038.100	1	1	0	0	0.17661	0.041625	0.21491	0.37689	0.22552	0.28832	0.13868	0.033276	0.14256	0.15249	0.30662	0.11164	0.22583	0.16061	0.061158	0.28175	-2.4604	-3.2354	-2.6167	-3.2354	-3.0812	-2.7854	-3.3229	-2.9688	-3.0292	-3.2521	-2.8479	-3.1917	-2.9604	-2.8104	-3.2833	-2.9521	212.323	3.302	140.314	149.679	127.442	174.943	-7.353	204.503	258.285	137.275	-37.202	2.805	269.218	69.250	139.449	284.724	0.00076201	0.0042081	0.00078387	493.04	4.244e-05	4.3759e-05	518.57	166.38	6.6145e-05	0.00010293	200.59	95.216	67.808	33.128	1.874e-05	48.78	0.014353	0.014063	0.0046988	1821.5	0.00016221	0.00016166	1963.1	628.98	0.00016174	0.00016208	983.88	344.49	286.22	112.12	0.00018789	159.53	44.325	192.424	130.132	-45.658	-49.925	211.418	-45.635	-39.022	131.542	218.126	-40.459	-35.984	-33.368	-27.806	-52.397	-32.680	-8191	255	
18038.219	1	1	0	0	0.12071	0.11875	0.30386	0.20631	0.2731	0.14509	0.32409	0.1693	0.25811	0.24428	0.13394	0.22933	0.072967	0.078718	0.19726	0.25425	-2.4104	-3.2313	-2.6813	-3.0792	-3.1708	-2.5875	-3.2292	-2.8146	-2.9875	-3.525	-2.8125	-2.8771	-3.1479	-2.4792	-3.1896	-3.0729	80.462	-40.810	263.653	300.513	101.583	199.805	209.714	255.268	4.806	161.870	144.890	288.193	149.791	239.433	185.467	286.574	0.001387	0.0093506	0.00076463	486	3.1232e-05	8.9627e-05	528.26	164	5.8301e-05	0.00010921	208.24	94.738	66.371	33.481	2.5001e-05	49.427	0.014226	0.015207	0.0047824	1755.1	0.0001556	0.00016918	1935.5	601.52	0.00015585	0.00017134	966.49	334.96	278.79	117.18	0.0001828	156.28	70.833	151.904	29.910	-45.307	1.798	186.454	-45.334	-38.457	90.534	192.620	-41.022	-35.677	-33.170	-27.909	63.372	-31.589	-8191	255	
18038.314	1	1	0	0	0.2967	0.16229	0.15922	0.056749	0.20332	0.098454	0.27115	0.20216	0.18371	0.069941	0.14822	0.18429	0.14226	0.059951	0.24337	0.1668	-2.3708	-3.3625	-2.8396	-3.0708	-3.1167	-2.7167	-3.2771	-3.1583	-2.6937	-3.225	-2.8729	-2.9813	-3.1667	-2.6729	-3.3937	-3.15	42.085	147.180	240.547	208.510	88.871	-56.236	69.326	57.971	-24.411	157.389	49.174	248.260	41.244	24.203	20.615	45.465	0.00040224	0.0086798	0.00087571	486.28	3.6585e-05	7.4615e-05	536.51	165.91	5.8502e-05	7.4247e-05	207.96	96.084	65.714	34.224	6.3302e-05	50.777	0.013779	0.016109	0.0045802	1698.9	0.00015037	0.000176	1856.7	578.65	0.00015043	0.00017662	912.82	320.79	274.37	119.78	0.00017078	151.07	285.874	144.208	4.068	-45.577	201.086	192.361	-46.134	-39.008	280.669	201.021	-41.038	-35.777	-31.348	-27.827	36.306	-31.718	-8191	255	
18038.387	1	1	0	0	0.027078	0.14041	0.16152	0.10853	0.23323	0.28724	0.077118	0.1572	0.065376	0.15593	0.22726	0.16196	0.16573	0.17374	0.26325	0.072704	-2.3646	-3.1208	-2.7958	-2.9583	-3.1854	-2.6979	-3.3021	-3.0208	-2.7125	-3.2917	-2.9896	-2.825	-3.2292	-2.5979	-3.0104	-3.1688	28.826	143.814	58.861	35.439	85.651	124.150	8.296	302.448	-21.133	71.685	278.018	82.368	111.099	272.731	224.417	110.205	0.0026143	0.0015967	0.0020954	491.3	9.7012e-05	4.0396e-05	540.53	167.12	0.00010793	3.1493e-05	205.8	95.073	64.281	34.189	6.5493e-05	49.011	0.013832	0.016614	0.0043335	1658.8	0.00015582	0.00018266	1800.3	563.88	0.00015667	0.00017891	868.32	309.53	283.45	118.2	0.00016002	144.3	275.589	132.820	-27.774	-45.585	156.386	230.167	-46.439	-39.435	280.571	91.782	-41.228	-36.234	-31.027	-28.908	43.401	-32.311	-8191	255	
18038.506	1	1	0	0	0.2193	0.15999	0.26635	0.23327	0.1997	0.18365	0.11288	0.18294	0.096302	0.20717	0.074883	0.15857	0.15505	0.33923	0.16013	0.25647	-2.2812	-3.3542	-2.85	-2.7083	-3.25	-2.9229	-3.0896	-3.3312	-2.625	-3.3729	-2.8104	-2.8604	-3.4167	-2.8083	-2.8812	-3.2833	197.321	292.336	-1.005	80.377	290.046	-31.606	294.618	190.512	-25.933	283.291	77.618	178.787	266.138	-15.805	0.740	282.618	0.0029117	0.0029651	0.0013304	488.59	9.4996e-05	3.0742e-05	528.69	162.1	9.1718e-05	6.6701e-05	201.75	94.407	65.139	34.457	5.3678e-05	48.23	0.014335	0.016147	0.0040692	1593.3	0.00016397	0.00017663	1737.6	549.51	0.00016692	0.00017464	846.54	303.04	296.55	113.81	0.00015262	140.49	264.116	-51.078	-6.042	-45.638	151.482	-22.949	-46.450	-39.166	277.580	23.426	-41.168	-35.380	-31.028	-30.120	35.865	-31.775	-8191	255	
18038.602	1	1	0	0	0.27455	0.05402	0.1673	0.19538	0.19706	0.1636	0.21049	0.24156	0.10286	0.1455	0.084762	0.12309	0.18299	0.074178	0.038117	0.089087	-2.125	-3.0792	-3.0104	-2.7938	-3.2167	-2.7271	-2.9792	-3.0479	-2.7375	-3.1854	-2.8917	-2.7	-3.4688	-2.9146	-2.75	-3.35	41.771	256.795	97.210	64.382	-9.854	252.254	27.758	263.291	171.250	-0.785	150.661	-53.919	-53.430	280.863	233.600	-6.648	0.0029732	0.0071308	0.00089052	480.17	7.3947e-05	4.0449e-05	531.34	160.3	7.425e-05	7.385e-05	208.54	92.84	67.288	34.885	5.7338e-05	48.606	0.014805	0.01503	0.0037919	1541.5	0.0001661	0.00016165	1649	537.64	0.00016928	0.00016191	813.33	305.4	304.46	110.36	0.00014936	146.72	265.356	-26.679	-34.672	-44.611	145.486	11.070	-46.408	-38.093	252.229	20.181	-42.205	-34.910	-33.030	-29.395	-2.274	-31.294	-8191	255	
18038.697	1	1	0	0	0.16931	0.075336	0.13214	0.33336	0.19678	0.12363	0.083594	0.022529	0.20772	0.024093	0.0944	0.18907	0.24376	0.37775	0.12891	0.10239	-2.1937	-3.0458	-3.0187	-2.5167	-3.4313	-2.8438	-2.8812	-3.4	-2.4792	-3.2083	-3.1396	-2.7667	-3.3312	-3.0375	-2.6979	-3.3625	99.008	198.303	-5.653	279.644	239.731	203.276	-22.981	166.215	-29.667	279.144	233.657	208.840	263.757	-5.861	139.489	12.644	0.0013745	0.0028098	0.0010411	482.3	2.2827e-05	2.4804e-05	543.19	160.85	3.4463e-05	4.0253e-05	210.1	94.142	69.55	34.744	2.868e-05	49.153	0.01561	0.014736	0.0037728	1633.2	0.00017497	0.0001589	1646.5	574.98	0.00017422	0.0001588	806.58	325.67	308.55	108.44	0.0001448	154.09	-17.943	-36.488	0.234	-44.211	68.275	30.528	-46.474	-38.721	82.143	-11.365	-41.687	-34.447	-34.154	-29.623	-14.813	-31.580	-8191	255	
18038.795	1	1	0	0	0.17569	0.045645	0.1339	0.15935	0.14334	0.22004	0.14157	0.37479	0.27988	0.21085	0.07298	0.15113	0.16603	0.19631	0.21732	0.15636	-2.375	-3.1083	-3.0708	-2.7542	-3.2625	-3.025	-2.9417	-3.2729	-2.9188	-2.9396	-3.2125	-2.7812	-3.3875	-3.0646	-2.8563	-3.4208	143.799	-31.405	205.805	167.261	53.779	267.178	267.342	301.068	204.953	154.703	179.768	27.297	-35.053	223.423	181.041	275.157	0.001609	0.0034146	0.00077263	479.75	4.781e-05	1.9074e-05	525.56	162.79	5.5215e-05	5.2314e-05	200.83	92.195	67.738	34.2	2.0757e-05	48.658	0.015197	0.014085	0.0036028	1692.3	0.00016523	0.00014876	1582.1	586.32	0.00016256	0.00014889	774.31	329.27	289.32	103.12	0.00014153	157.12	93.222	-16.707	41.275	-44.988	-37.607	-4.930	-46.775	-38.966	117.454	42.918	-41.182	-33.982	-33.744	-29.625	288.269	-31.391	-8191	255	
18038.891	1	1	0	0	0.34081	0.19445	0.22693	0.32651	0.14317	0.23223	0.076568	0.32298	0.081211	0.095788	0.03713	0.26199	0.10795	0.21833	0.21333	0.085813	-2.3708	-2.9125	-3.2333	-2.675	-3.1	-3.05	-2.6125	-3.3542	-2.7208	-2.7208	-3.2021	-2.7	-3.1375	-3.1646	-2.6646	-3.4313	8.201	293.609	218.739	-48.197	293.991	84.669	35.413	276.311	244.872	190.837	293.527	46.407	88.554	142.988	255.457	35.209	0.0018665	0.0028069	0.0013405	486.21	6.7582e-05	4.9929e-05	516.33	163.91	8.9543e-05	5.2974e-05	199.02	95.351	67.924	34.328	0.00012589	49.775	0.014319	0.01347	0.0036273	1732.9	0.00015695	0.00014348	1605.6	599.64	0.00015266	0.00014221	790.13	333	275.95	99.517	0.00014489	156.48	104.656	289.349	175.712	-45.237	-23.424	27.658	-45.475	-38.725	106.061	17.515	-40.190	-35.678	-34.453	-29.794	193.335	-31.514	-8191	255	
18038.986	1	1	0	0	0.19001	0.036133	0.15598	0.10742	0.17375	0.25756	0.20289	0.2932	0.13356	0.11018	0.09111	0.10229	0.03383	0.13427	0.23919	0.17284	-2.5417	-2.8333	-3.2604	-2.7562	-3.0521	-3.0187	-2.7708	-3.3208	-3.0583	-2.7979	-3.5479	-2.7333	-3.0667	-3.3208	-2.5229	-3.2792	70.474	106.857	52.632	-36.362	49.650	283.416	265.496	-5.494	279.996	281.862	180.931	33.637	193.102	-9.531	276.716	212.960	0.0011655	0.0043931	0.0028849	488.28	2.5551e-05	3.6265e-05	520.33	166.96	5.2511e-05	2.492e-05	199.79	97.472	68.208	34.099	6.9467e-05	51.678	0.013249	0.012634	0.0037356	1700.1	0.00014647	0.00013409	1644.2	583.02	0.00014256	0.00013369	822.43	323.83	265.4	97.198	0.00015341	153.05	99.418	-9.905	171.745	-45.610	-1.031	3.634	-45.587	-39.312	161.356	49.050	-39.569	-35.793	-34.231	-29.002	199.731	-31.882	-8191	255	
18039.082	1	1	0	0	0.030609	0.08126	0.097979	0.097608	0.23323	0.12835	0.09983	0.20059	0.1153	0.11277	0.18675	0.16378	0.23654	0.12445	0.0567	0.12818	-2.6437	-2.7042	-3.2667	-2.7542	-2.9938	-3.4083	-2.8833	-3.2687	-2.9792	-2.75	-3.4771	-2.9417	-3.0875	-3.3187	-2.75	-3.2271	265.790	159.714	293.261	-7.241	208.586	1.783	296.754	294.129	168.061	136.201	71.036	203.373	298.182	82.938	89.990	-53.256	0.00079601	0.0012509	0.0016736	494.74	3.9419e-05	2.7992e-05	527.3	167.18	3.5454e-05	4.3777e-05	200.59	97.565	67.375	33.397	5.3805e-05	50.331	0.012684	0.012237	0.0039281	1633.2	0.00013979	0.00013219	1710.5	564.1	0.00013799	0.0001344	855.93	311.27	257.71	97.475	0.00015911	146.47	116.635	69.274	159.309	-46.423	-12.531	178.895	-45.674	-39.443	105.428	187.247	-40.503	-35.965	-34.136	-27.769	202.871	-32.164	-8191	255	
18039.180	1	1	0	0	0.19486	0.16235	0.07959	0.025942	0.5339	0.22548	0.23371	0.30118	0.15167	0.27788	0.10674	0.078993	0.17711	0.24963	0.22639	0.16442	-2.6146	-2.7042	-3.1271	-2.9146	-2.6188	-3.3458	-2.8125	-3.1312	-3.0625	-2.6688	-3.3333	-3.0312	-2.8833	-3.3125	-2.6437	-3.2375	67.153	115.436	231.797	162.531	55.673	136.587	77.344	220.404	225.173	105.387	32.477	33.072	242.846	243.001	292.533	-17.060	0.0014547	0.0052062	0.00030177	488.55	4.5498e-05	6.0275e-05	522.69	164.2	2.9041e-05	9.3133e-05	202.95	93.825	65.654	32.965	4.5265e-05	49.345	0.012215	0.012586	0.0040967	1580.9	0.00013671	0.0001395	1745.4	545.23	0.00013397	0.00014182	863.33	300.01	249.31	101.34	0.0001588	141.5	100.377	151.766	190.256	-46.079	10.436	183.484	-46.089	-39.149	144.631	216.581	-40.537	-35.846	-34.388	-27.489	19.394	-31.928	-8191	255	
18039.301	1	1	0	0	0.10944	0.074834	0.27592	0.092313	0.10872	0.12546	0.096045	0.19987	0.28006	0.091672	0.10633	0.23163	0.071269	0.15985	0.18157	0.31705	-2.775	-2.6208	-3.2896	-3.0563	-2.85	-3.4875	-2.6562	-2.9313	-3.1354	-2.7333	-3.1708	-2.9917	-2.7333	-3.4313	-2.7771	-2.9854	118.158	209.506	-48.909	12.124	-25.959	141.752	300.504	187.272	190.849	62.511	-23.046	135.118	240.454	202.275	21.701	229.828	0.00054796	0.0053217	0.0016386	484.41	3.7109e-05	6.3143e-05	533.33	159.15	3.1482e-05	0.00010864	206.59	96.101	65.375	33.369	3.4589e-05	49.609	0.01169	0.013267	0.0039741	1506.2	0.00012834	0.00014444	1664.7	515.29	0.0001254	0.0001457	817.51	286.07	239.85	103.61	0.0001469	135.84	14.890	162.684	-21.368	-45.567	289.738	189.425	-45.796	-39.324	81.612	202.169	-41.362	-35.569	-33.937	-28.518	13.485	-32.277	-8191	255	
18039.395	1	1	0	0	0.045719	0.24013	0.036057	0.2686	0.17658	0.15496	0.2316	0.15649	0.26583	0.13152	0.24568	0.17118	0.23699	0.29528	0.069293	0.17334	-2.8167	-2.7521	-3.2	-2.9688	-2.8104	-3.3063	-2.8333	-3.0375	-3.1917	-2.6562	-3.225	-3.1813	-2.5708	-3.175	-2.8458	-2.7979	209.787	255.985	200.431	242.977	187.090	294.149	144.879	247.454	-21.849	242.020	272.320	-57.336	276.420	-49.467	95.067	-37.779	0.0016455	0.00524	0.0011801	481.26	4.6469e-05	4.9839e-05	539.04	163.28	5.0001e-05	3.0454e-05	210.58	95.558	63.878	34.046	5.7578e-05	50.364	0.011254	0.013584	0.0036736	1438.4	0.00012542	0.00014749	1584.4	496.47	0.00012442	0.00014683	771.07	272.71	237.13	102.33	0.00013157	128.18	270.729	140.577	-37.203	-45.533	165.296	196.311	-46.415	-39.993	252.793	152.085	-41.784	-35.328	-32.097	-28.544	-1.178	-31.911	-8191	255	
18039.490	1	1	0	0	0.21075	0.38518	0.15153	0.2333	0.064131	0.10821	0.14733	0.11207	0.16722	0.27811	0.18986	0.16396	0.23389	0.14536	0.18333	0.26491	-2.7708	-2.6875	-3.2083	-3.2417	-2.65	-3.2938	-2.8521	-2.9	-3.3667	-2.7646	-3.1917	-3.1833	-2.5292	-3.4583	-2.8937	-2.8021	259.688	221.157	44.241	127.363	-12.604	198.469	54.271	226.681	142.106	80.790	66.312	233.172	241.451	5.839	59.556	106.703	0.0021806	0.0014355	0.00086597	472.76	7.3595e-05	4.6683e-05	534.61	159.06	9.9495e-05	6.2167e-05	203.65	94.323	63.502	33.148	1.2842e-05	48.709	0.011055	0.01299	0.0032947	1343.6	0.00012422	0.00014011	1471.6	461.22	0.00012401	0.00013749	710.44	255.24	237.68	96.601	0.00011968	120.64	258.187	261.943	-43.615	-45.094	151.005	-8.195	-45.932	-39.307	292.074	36.288	-41.873	-34.993	-31.236	-29.176	84.032	-32.092	-8191	255	
18039.588	1	1	0	0	0.075429	0.2334	0.1918	0.30206	0.11595	0.15546	0.15599	0.026057	0.13976	0.3038	0.23069	0.24214	0.15123	0.24001	0.18359	0.11477	-3.025	-2.8688	-2.8854	-3.1229	-2.7188	-3.375	-3.0354	-2.9229	-3.2229	-2.7167	-2.9271	-3.2687	-2.6958	-3.2458	-3.0229	-2.8187	119.232	117.592	284.785	188.763	-37.971	-30.155	254.292	55.446	-3.229	168.690	74.860	161.867	202.117	-19.701	213.372	168.731	0.002954	0.0046344	0.00109	457.34	4.92e-05	3.9176e-05	520.36	155.15	3.8972e-05	4.1113e-05	196.9	92.521	62.7	33.089	2.408e-05	47.882	0.011246	0.012007	0.0030267	1276.7	0.00012641	0.00012899	1390.9	440.75	0.00012638	0.00012555	668.86	246.25	238.55	90.849	0.00011098	117.99	272.375	-3.804	-2.621	-45.260	148.137	40.560	-45.839	-39.297	302.265	31.099	-41.206	-35.045	-32.370	-29.765	53.232	-31.865	-8191	255	
18039.684	1	1	0	0	0.02837	0.12976	0.35015	0.034832	0.10264	0.085559	0.13795	0.29011	0.18036	0.18756	0.20455	0.20842	0.089488	0.020386	0.16011	0.04754	-3.0083	-2.6396	-2.7438	-3.0375	-2.6604	-3.1188	-3.0812	-2.6063	-3.1583	-2.8688	-2.7271	-3.2542	-2.6583	-3.0104	-2.9938	-2.4938	41.152	226.845	77.732	-3.110	-32.991	-8.571	269.883	278.966	77.354	292.494	253.363	-9.004	14.878	252.068	205.446	134.275	0.0016362	0.0046336	0.0011579	455.52	1.7299e-05	6.2567e-05	523.2	153.32	1.5425e-05	5.0321e-05	204.02	92.258	63.611	32.871	2.0885e-05	47.796	0.011376	0.011034	0.0028216	1263.1	0.00012673	0.00011886	1330.6	443.47	0.00012708	0.00011693	646.05	252.75	238.76	87.292	0.00010598	122	268.258	-23.051	-1.447	-43.809	234.517	27.713	-46.381	-38.438	-48.279	16.844	-40.399	-34.097	-32.634	-29.111	46.929	-31.066	-8191	255	
18039.779	1	1	0	0	0.039449	0.2277	0.07549	0.060274	0.09033	0.2394	0.12228	0.30337	0.12332	0.19818	0.040042	0.10219	0.28455	0.085609	0.18798	0.076348	-2.9417	-2.7542	-2.6458	-3.4021	-2.8875	-2.9042	-3.2146	-2.6063	-3.2583	-3	-2.6813	-3.3812	-2.6688	-3.0229	-3.3396	-2.7	70.276	59.891	250.944	229.873	55.934	276.792	128.127	256.670	-16.630	301.694	251.460	45.876	-19.961	20.096	193.654	103.534	0.00063808	0.0011434	0.0007073	459	1.715e-05	1.5255e-05	519.12	152.54	5.4302e-05	4.8308e-05	203.5	94.547	65.141	32.891	3.3633e-05	48.489	0.011282	0.010407	0.0026953	1309.4	0.0001246	0.00011331	1307.6	462.13	0.00012413	0.000112	633.49	263.16	232.85	85.627	0.00010331	126.98	65.524	301.620	-37.134	-44.359	-19.137	-39.282	-45.749	-38.315	93.428	42.734	-40.754	-34.486	-33.318	-28.878	-23.825	-31.773	-8191	255	
18039.898	1	1	0	0	0.2658	0.21552	0.20452	0.16733	0.10795	0.15808	0.099949	0.13698	0.15391	0.11351	0.13085	0.15669	0.18009	0.05468	0.28904	0.27307	-2.6333	-2.8771	-2.7146	-3.1479	-2.5229	-2.875	-3.3146	-2.7	-3.2438	-2.9375	-2.5521	-3.2729	-2.7625	-2.7938	-3.3021	-2.7	-32.742	148.985	-4.863	281.163	172.206	149.001	-33.764	-25.000	90.323	282.593	286.797	-14.730	153.649	76.476	-46.868	181.750	0.00084463	0.0048478	0.00028031	456.23	4.7721e-05	3.8736e-05	512.01	152.48	4.7141e-05	5.9436e-05	193.78	91.635	63.849	32.472	5.3909e-05	47.875	0.010933	0.010143	0.0026902	1377.5	0.00012116	0.00011143	1312.6	480.93	0.00012033	0.00010981	638.22	272.88	225.86	83.45	0.00010683	129.32	67.767	-17.827	127.017	-44.355	-38.896	-9.735	-45.320	-38.460	78.224	8.326	-39.982	-34.675	-34.047	-28.903	195.415	-31.422	-8191	255	
18039.994	1	1	0	0	0.1506	0.090529	0.224	0.11058	0.30637	0.32667	0.12511	0.11372	0.16643	0.1076	0.16049	0.13898	0.20642	0.087905	0.13414	0.14556	-2.7146	-2.9792	-2.5708	-3.3187	-2.7	-2.7625	-3.3667	-2.7208	-3.0354	-3.2958	-2.7521	-3.2083	-2.9458	-2.8583	-3.3333	-2.8125	242.399	144.878	13.542	183.805	194.047	281.729	243.775	159.179	239.075	53.759	168.275	186.400	-23.531	-43.023	68.909	295.577	0.00011444	0.0020317	0.0012277	460.91	6.6302e-05	3.5134e-05	510.93	154.16	3.5667e-05	2.8208e-05	192.8	93.433	63.902	32.35	6.4142e-05	48.999	0.010462	0.0097801	0.0027864	1395.8	0.00011465	0.00010688	1347.9	484.7	0.00011487	0.0001058	665.87	274.45	219.77	82.343	0.00011483	129.92	91.256	-25.082	162.480	-44.551	-25.713	6.548	-45.448	-38.627	111.815	-22.675	-40.080	-34.326	-33.647	-29.457	207.256	-31.511	-8191	255	
18040.092	1	1	0	0	0.20407	0.10099	0.17212	0.032	0.15446	0.28116	0.16917	0.1401	0.14933	0.075116	0.098998	0.27148	0.10041	0.30011	0.19358	0.084832	-2.5854	-3.0479	-2.625	-3.3354	-2.9625	-2.8708	-3.4458	-2.7479	-2.9083	-3.1417	-2.7146	-3.2625	-2.9583	-2.9708	-3.2833	-2.7729	27.690	27.844	61.769	127.972	133.907	57.148	204.643	136.348	213.385	251.557	235.178	-35.565	27.966	-42.207	46.057	231.538	0.00052718	0.0010601	0.0011975	463.09	3.2061e-05	2.2657e-05	508.55	157.4	5.4838e-05	1.6625e-05	197.59	94.845	64.056	32.544	4.0471e-05	50.064	0.010187	0.0095169	0.0030026	1393.7	0.00011239	0.00010565	1429.7	482.32	0.00011289	0.00010588	708.91	272.71	217.84	83.394	0.00012426	128.91	80.423	-3.841	154.485	-44.938	-54.917	-33.631	-45.082	-38.505	141.230	253.021	-40.262	-35.336	-33.332	-28.084	217.182	-31.502	-8191	255	
18040.188	1	1	0	0	0.075698	0.15856	0.064986	0.15359	0.11617	0.078315	0.25052	0.28252	0.12625	0.264	0.10542	0.14368	0.057696	0.29549	0.18208	0.033951	-2.5625	-3.2687	-2.7771	-3.2292	-2.9021	-2.7292	-3.3625	-2.6979	-2.7833	-3.2062	-2.6167	-3.0396	-3.1083	-2.725	-3.2104	-2.975	24.190	83.825	239.006	93.854	253.175	-8.856	242.852	31.834	263.302	94.320	94.475	158.232	-29.481	20.953	16.858	-50.009	0.0004848	0.0018841	0.00066664	465.73	3.1002e-05	2.8514e-05	522.5	157.29	4.4382e-05	4.0448e-05	199.55	95.085	63.006	31.777	8.8398e-06	48.565	0.010038	0.009741	0.0032056	1359.6	0.00010965	0.00010784	1479.4	466.54	0.00010954	0.00010879	726.33	263.15	211.3	84.823	0.00012865	124.11	-7.022	92.500	166.494	-45.802	-20.613	167.529	-45.246	-38.736	99.951	199.708	-41.038	-35.160	-33.349	-27.501	168.936	-31.049	-8191	255	
18040.283	1	1	0	0	0.19119	0.14263	0.082912	0.21487	0.1369	0.017369	0.24392	0.25045	0.074403	0.15915	0.2035	0.14236	0.11055	0.1168	0.16414	0.049038	-2.3542	-3.3125	-2.7812	-3.2208	-3.1958	-2.6417	-3.2396	-2.925	-2.6979	-3.2792	-2.6667	-2.9396	-3.1646	-2.6521	-3.1562	-2.9437	273.471	63.926	-5.674	221.700	276.153	-18.822	214.858	234.147	-34.199	14.317	277.655	223.544	219.189	265.884	2.247	30.375	0.0015086	0.0059117	0.00063173	457.61	2.2641e-05	6.9759e-05	523.42	153.19	5.1757e-05	9.5433e-05	196.51	94.088	62.779	31.688	3.2388e-05	48.298	0.0097409	0.010365	0.003292	1330.2	0.00010753	0.00011679	1500.3	457.75	0.00010853	0.00011895	729.58	258.8	209.78	89.384	0.00012863	123.01	116.160	134.095	-51.141	-45.590	-47.995	202.971	-45.640	-38.958	79.478	219.441	-40.757	-34.785	-33.334	-27.322	39.997	-31.773	-8191	255	
#DATA ENDS
