BOXY.EXE: ISS Imagent and Oximeter Data Acquisition Program Version 0.80
Ascii Record File

#ACQ INFORMATION
2  Detector Channels 
16  External MUX Channels 
1  Auxiliary Channels 
5000  Waveform (CCF) Frequency (Hz)
1  Waveforms Skipped 
30  Waveforms Averaged 
1  Cycles Averaged 
16  Acquisitions per Waveform 
10.0806  Updata Rate (Hz) 

#FILE INFORMATION
TRUE -- External MUX Channel results are PARSED.
FALSE -- AC DC and Phase are NOT grouped.
TRUE -- Companion Program Settings File CREATED.
FALSE -- AC data not excluded
FALSE -- DC data not excluded
FALSE -- Phase data not excluded
FALSE -- Auxillary Chn. data not excluded
Tab delimiters

#CALIBRATION STATE
TRUE -- Waveform Calibration Values APPLIED.


#AUX CALIBRATION VALUES
Val Type	aux-1	

Term	1.0000e+00	
Factor	0.0000e+00	


#WF CALIBRATION VALUES
A = Detector Channel
Val Type	A-AC1	A-AC2	A-AC3	A-AC4	A-AC5	A-AC6	A-AC7	A-AC8	A-AC9	A-AC10	A-AC11	A-AC12	A-AC13	A-AC14	A-AC15	A-AC16	A-DC1	A-DC2	A-DC3	A-DC4	A-DC5	A-DC6	A-DC7	A-DC8	A-DC9	A-DC10	A-DC11	A-DC12	A-DC13	A-DC14	A-DC15	A-DC16	A-Ph1	A-Ph2	A-Ph3	A-Ph4	A-Ph5	A-Ph6	A-Ph7	A-Ph8	A-Ph9	A-Ph10	A-Ph11	A-Ph12	A-Ph13	A-Ph14	A-Ph15	A-Ph16	

Term	0.00000e+00	0.00000e+00	0.00000e+00	0.00000e+00	0.00000e+00	0.00000e+00	0.00000e+00	0.00000e+00	0.00000e+00	0.00000e+00	0.00000e+00	0.00000e+00	0.00000e+00	0.00000e+00	0.00000e+00	0.00000e+00	0.00000e+00	0.00000e+00	0.00000e+00	0.00000e+00	0.00000e+00	0.00000e+00	0.00000e+00	0.00000e+00	0.00000e+00	0.00000e+00	0.00000e+00	0.00000e+00	0.00000e+00	0.00000e+00	0.00000e+00	0.00000e+00	0.00000e+00	0.00000e+00	0.00000e+00	0.00000e+00	0.00000e+00	0.00000e+00	0.00000e+00	0.00000e+00	0.00000e+00	0.00000e+00	0.00000e+00	0.00000e+00	0.00000e+00	0.00000e+00	0.00000e+00	0.00000e+00	
Factor	1.00000e+00	1.00000e+00	1.00000e+00	1.00000e+00	1.00000e+00	1.00000e+00	1.00000e+00	1.00000e+00	1.00000e+00	1.00000e+00	1.00000e+00	1.00000e+00	1.00000e+00	1.00000e+00	1.00000e+00	1.00000e+00	1.00000e+00	1.00000e+00	1.00000e+00	1.00000e+00	1.00000e+00	1.00000e+00	1.00000e+00	1.00000e+00	1.00000e+00	1.00000e+00	1.00000e+00	1.00000e+00	1.00000e+00	1.00000e+00	1.00000e+00	1.00000e+00	X	X	X	X	X	X	X	X	X	X	X	X	X	X	X	X	

B = Detector Channel
Val Type	B-AC1	B-AC2	B-AC3	B-AC4	B-AC5	B-AC6	B-AC7	B-AC8	B-AC9	B-AC10	B-AC11	B-AC12	B-AC13	B-AC14	B-AC15	B-AC16	B-DC1	B-DC2	B-DC3	B-DC4	B-DC5	B-DC6	B-DC7	B-DC8	B-DC9	B-DC10	B-DC11	B-DC12	B-DC13	B-DC14	B-DC15	B-DC16	B-Ph1	B-Ph2	B-Ph3	B-Ph4	B-Ph5	B-Ph6	B-Ph7	B-Ph8	B-Ph9	B-Ph10	B-Ph11	B-Ph12	B-Ph13	B-Ph14	B-Ph15	B-Ph16	

Term	0.00000e+00	0.00000e+00	0.00000e+00	0.00000e+00	0.00000e+00	0.00000e+00	0.00000e+00	0.00000e+00	0.00000e+00	0.00000e+00	0.00000e+00	0.00000e+00	0.00000e+00	0.00000e+00	0.00000e+00	0.00000e+00	0.00000e+00	0.00000e+00	0.00000e+00	0.00000e+00	0.00000e+00	0.00000e+00	0.00000e+00	0.00000e+00	0.00000e+00	0.00000e+00	0.00000e+00	0.00000e+00	0.00000e+00	0.00000e+00	0.00000e+00	0.00000e+00	-2.90631e+01	-1.25552e+02	-1.34417e+02	-1.83772e+02	-7.20645e+01	-6.10955e+01	-1.58193e+02	-1.62015e+02	-3.23909e+01	-1.01832e+02	-1.70609e+02	-1.70696e+02	-1.78180e+02	-1.76850e+02	-4.40641e+01	-1.49933e+02	
Factor	3.20294e-05	1.37736e-04	3.60325e-05	1.67790e-01	1.23194e-06	1.40486e-06	1.82739e-01	6.01972e-02	1.41033e-06	1.15288e-06	1.00393e-01	3.50361e-02	3.11072e-02	1.11864e-02	1.47115e-06	1.60536e-02	1.28001e-06	1.31859e-06	3.66219e-07	8.30035e-02	1.44006e-08	1.44477e-08	8.47747e-02	2.96083e-02	1.44213e-08	1.44501e-08	4.73672e-02	1.64815e-02	1.52180e-02	5.44559e-03	1.43905e-08	7.51965e-03	X	X	X	X	X	X	X	X	X	X	X	X	X	X	X	X	



#DISTANCE SETTINGS
A = Detector Channel
A-1	A-2	A-3	A-4	A-5	A-6	A-7	A-8	A-9	A-10	A-11	A-12	A-13	A-14	A-15	A-16	

2.5000e+00	3.0000e+00	2.5000e+00	3.0000e+00	2.0000e+00	3.0000e+00	1.5000e+00	3.0000e+00	3.0000e+00	3.0000e+00	3.0000e+00	3.0000e+00	3.0000e+00	3.0000e+00	1.5000e+00	3.0000e+00	

B = Detector Channel
B-1	B-2	B-3	B-4	B-5	B-6	B-7	B-8	B-9	B-10	B-11	B-12	B-13	B-14	B-15	B-16	

1.0000e+01	1.0000e+01	1.0000e+01	1.4400e+00	1.0000e+01	1.0000e+01	1.5100e+00	1.9400e+00	1.0000e+01	1.0000e+01	1.9900e+00	2.4900e+00	2.4100e+00	2.9000e+00	1.0000e+01	2.9800e+00	




#DATA BEGINS
time	group	step	mark	flag	A-AC1	A-AC2	A-AC3	A-AC4	A-AC5	A-AC6	A-AC7	A-AC8	A-AC9	A-AC10	A-AC11	A-AC12	A-AC13	A-AC14	A-AC15	A-AC16	A-DC1	A-DC2	A-DC3	A-DC4	A-DC5	A-DC6	A-DC7	A-DC8	A-DC9	A-DC10	A-DC11	A-DC12	A-DC13	A-DC14	A-DC15	A-DC16	A-Ph1	A-Ph2	A-Ph3	A-Ph4	A-Ph5	A-Ph6	A-Ph7	A-Ph8	A-Ph9	A-Ph10	A-Ph11	A-Ph12	A-Ph13	A-Ph14	A-Ph15	A-Ph16	B-AC1	B-AC2	B-AC3	B-AC4	B-AC5	B-AC6	B-AC7	B-AC8	B-AC9	B-AC10	B-AC11	B-AC12	B-AC13	B-AC14	B-AC15	B-AC16	B-DC1	B-DC2	B-DC3	B-DC4	B-DC5	B-DC6	B-DC7	B-DC8	B-DC9	B-DC10	B-DC11	B-DC12	B-DC13	B-DC14	B-DC15	B-DC16	B-Ph1	B-Ph2	B-Ph3	B-Ph4	B-Ph5	B-Ph6	B-Ph7	B-Ph8	B-Ph9	B-Ph10	B-Ph11	B-Ph12	B-Ph13	B-Ph14	B-Ph15	B-Ph16	aux-1	digaux	

11071.747	1	1	0	256	0.32475	0.16602	0.18515	0.18592	0.22163	0.36063	0.13761	0.15845	0.15406	0.29925	0.088624	0.32207	0.042012	0.22731	0.12885	0.041331	-2.2104	-2.8708	-2.3875	-3.0917	-2.7083	-2.5104	-3.0333	-2.4604	-2.5938	-2.8292	-2.4146	-2.8604	-2.7208	-2.4708	-3.0333	-2.4625	285.985	331.227	328.952	209.910	350.069	284.299	372.984	267.353	338.529	407.411	227.868	438.072	375.089	473.586	248.061	231.996	0.00042907	0.00011959	5.2113e-05	1064.8	1.8921e-06	1.4061e-06	1169.8	223.66	4.7011e-06	2.1076e-06	284.03	81.239	62.865	18.588	3.728e-06	26.091	0.00019547	0.0001759	5.211e-05	1030.2	2.0635e-06	1.9323e-06	1125.9	217.49	2.0308e-06	1.8758e-06	274.89	78.854	61.309	18.476	2.0918e-06	25.848	286.728	455.734	249.922	155.276	342.261	268.923	155.388	163.068	290.817	292.686	162.473	169.267	170.003	176.589	371.270	176.137	-8191	255	
11071.867	1	1	0	0	0.047315	0.17642	0.11412	0.22653	0.13291	0.1591	0.15037	0.16969	0.2715	0.42074	0.17001	0.15118	0.19466	0.052888	0.26128	0.12715	-2.1208	-2.9	-2.3438	-2.9667	-2.7417	-2.3833	-3.2	-2.5875	-2.7271	-2.9875	-2.5104	-2.9208	-2.8292	-2.7333	-3.1583	-2.6979	189.971	454.718	312.252	460.812	241.303	262.993	453.991	429.729	178.143	439.367	167.484	236.096	179.974	457.155	185.067	358.130	0.00039996	0.00022599	6.2793e-05	1062.8	1.5679e-06	2.9511e-06	1169.9	225.2	5.5117e-06	2.6953e-06	285.07	81.341	63.243	18.67	4.4098e-06	26.055	0.00018777	0.00017246	5.3746e-05	1030.6	1.977e-06	1.8819e-06	1125.3	217.16	1.9597e-06	1.8779e-06	274.93	78.693	61.165	18.457	2.1841e-06	25.815	299.228	206.833	245.868	155.288	252.674	302.868	155.256	163.031	300.449	279.841	162.494	169.337	170.027	176.532	311.188	176.364	-8191	255	
11071.964	1	1	0	0	0.081845	0.2397	0.26406	0.091982	0.096587	0.22288	0.055407	0.095548	0.073293	0.17978	0.11845	0.11566	0.094495	0.25282	0.209	0.05974	-2.0646	-3.1625	-2.4167	-3.0104	-2.9229	-2.3937	-3.1833	-2.9042	-2.3104	-3.1375	-2.5104	-2.7687	-2.9854	-2.3917	-3.1458	-2.8021	422.694	354.740	238.794	425.617	434.814	291.465	453.479	278.609	386.387	360.202	414.353	492.232	420.866	180.668	401.985	383.089	0.00039934	0.00042826	0.00010262	1062.6	2.0514e-06	3.737e-06	1167.4	223.84	5.4176e-06	4.1062e-06	285.12	81.178	62.835	18.484	1.9336e-06	26.283	0.00018348	0.000176	5.6157e-05	1027.5	1.9288e-06	1.959e-06	1126	216.71	1.9159e-06	1.9878e-06	275.25	78.523	61.137	18.473	2.2194e-06	25.803	286.304	248.635	249.663	155.597	300.897	257.346	155.124	163.146	375.344	223.463	162.415	169.759	169.991	176.928	369.335	176.004	-8191	255	
11072.060	1	1	0	0	0.22406	0.12877	0.13429	0.22573	0.30659	0.18329	0.41869	0.34441	0.17701	0.070159	0.37658	0.18762	0.20248	0.019206	0.22958	0.16914	-2.1458	-3.1167	-2.5208	-2.8854	-2.9396	-2.2646	-3.025	-3.0104	-2.5229	-3.0479	-2.5542	-2.7854	-3.0458	-2.3563	-2.8729	-3.0021	477.242	364.421	207.756	145.753	243.026	498.693	440.809	442.259	444.873	248.854	328.680	399.785	157.142	214.732	367.462	429.293	0.00040242	0.00032146	0.00015108	1063.5	1.0095e-06	3.4081e-06	1167.2	224.88	4.702e-06	2.2894e-06	283.05	80.541	63.076	18.721	2.688e-06	25.943	0.00017924	0.00018551	5.6637e-05	1030.4	1.9135e-06	2.0882e-06	1127.1	216.6	1.9001e-06	2.16e-06	274.88	78.393	61.105	18.616	2.1745e-06	25.634	286.240	226.274	237.958	155.424	211.089	303.130	155.445	163.087	384.285	235.467	162.649	169.366	170.109	176.965	275.960	176.210	-8191	255	
11072.180	1	1	0	0	0.18292	0.18813	0.14431	0.39598	0.12838	0.19446	0.2375	0.30637	0.26365	0.25587	0.19953	0.20343	0.17166	0.33145	0.14048	0.035903	-2.0542	-3.0229	-2.4292	-2.6229	-2.925	-2.5229	-3.0625	-2.7812	-2.2667	-3.1437	-2.6896	-2.6833	-3.1208	-2.4313	-2.7229	-2.8417	270.285	417.383	158.081	409.163	268.128	270.590	439.772	483.459	173.616	187.600	353.297	194.668	162.920	209.586	254.919	257.188	0.00037226	0.00028393	2.3914e-05	1061.3	7.0493e-06	3.1161e-06	1168.7	224.62	4.8921e-06	2.3549e-06	285.44	80.87	62.941	18.666	5.8819e-06	26.229	0.000182	0.00020326	5.4828e-05	1027.3	1.9512e-06	2.2528e-06	1125.7	216.61	1.9769e-06	2.2599e-06	275.42	78.28	61.269	18.587	2.0952e-06	25.735	297.766	272.142	450.157	155.478	261.621	266.543	155.145	163.077	318.592	221.682	162.598	169.301	169.840	176.664	328.010	175.970	-8191	255	
11072.275	1	1	0	0	0.17774	0.14808	0.15214	0.27052	0.10561	0.061825	0.18434	0.10002	0.14632	0.25366	0.28041	0.19938	0.25125	0.11078	0.098128	0.074473	-2.05	-2.9854	-2.6146	-2.4229	-3.0354	-2.5104	-2.7833	-2.9813	-2.4167	-3.1437	-2.8229	-2.3396	-3.1229	-2.4979	-2.8125	-3.1042	151.827	438.564	206.991	183.529	403.484	436.916	473.862	166.653	375.306	238.320	365.992	421.868	163.964	478.551	161.526	160.769	0.00035678	0.00030181	0.0001225	1062.9	2.324e-06	5.491e-06	1163.8	223.86	1.8173e-06	2.5874e-06	283.93	80.565	62.7	18.495	5.3209e-06	26.16	0.0001878	0.00021161	5.1575e-05	1028.6	2.1045e-06	2.2947e-06	1124.4	216.66	2.1429e-06	2.3243e-06	274.43	78.293	61.336	18.548	2.0961e-06	25.699	284.951	256.066	229.120	155.377	221.814	358.305	155.272	163.191	233.801	315.523	162.700	169.608	169.478	177.082	360.393	175.911	-8191	255	
11072.371	1	1	0	0	0.077208	0.16366	0.1378	0.16122	0.13022	0.2491	0.19169	0.083954	0.050438	0.049553	0.24299	0.20571	0.12822	0.31841	0.28107	0.086349	-2.1167	-2.8271	-2.7896	-2.4396	-3.125	-2.3563	-2.7458	-2.9979	-2.4021	-2.9542	-2.8875	-2.5792	-2.9833	-2.5646	-2.5396	-2.8083	245.190	332.084	378.641	160.644	424.167	366.631	396.794	179.086	325.817	176.710	202.924	371.527	335.295	424.220	449.016	267.717	0.00045509	0.00054523	4.0341e-05	1070.2	4.3204e-06	5.5823e-06	1168.5	224.36	4.623e-06	5.0362e-06	284.47	80.59	62.601	18.714	2.4044e-06	26.121	0.00020873	0.00020932	5.2974e-05	1030.1	2.2724e-06	2.2757e-06	1125.4	216.94	2.2996e-06	2.2585e-06	274.45	78.414	61.663	18.631	2.0871e-06	25.771	286.870	272.667	337.893	155.172	272.653	329.884	155.177	163.095	325.067	367.168	162.502	169.152	170.127	176.910	430.511	176.126	-8191	255	
11072.443	1	1	0	0	0.12092	0.063637	0.07137	0.17058	0.051067	0.15226	0.15954	0.19071	0.16805	0.25254	0.40035	0.15777	0.09324	0.14235	0.17125	0.12233	-1.9	-2.8042	-2.8208	-2.4688	-2.85	-2.5729	-2.6667	-3.0646	-2.2979	-2.6437	-2.8063	-2.2854	-2.8979	-2.6125	-2.4896	-3.0062	421.336	310.202	152.430	447.089	190.135	360.003	404.119	151.068	260.557	447.521	390.654	438.504	438.787	431.065	366.076	450.111	0.00045323	0.00038717	0.00012098	1063.2	2.8998e-06	4.4283e-06	1166.2	223.87	2.4655e-06	2.9211e-06	282.59	81.112	63.214	18.574	2.4175e-06	25.889	0.0002237	0.00020362	5.2635e-05	1029.7	2.414e-06	2.1639e-06	1125.2	217.14	2.3766e-06	2.193e-06	274.26	78.718	61.792	18.6	2.0318e-06	25.767	286.041	257.848	258.768	155.284	282.849	360.742	155.308	163.142	361.241	330.103	162.709	169.329	170.179	177.149	289.919	176.289	-8191	255	
11072.563	1	1	0	0	0.10595	0.14611	0.1113	0.57002	0.10922	0.3612	0.089034	0.42129	0.14285	0.14831	0.15396	0.2264	0.14488	0.19052	0.15686	0.24482	-2	-2.6292	-2.9167	-2.3646	-2.8458	-2.6417	-2.4958	-3.2313	-2.2854	-2.5458	-2.9292	-2.3083	-2.875	-2.7833	-2.4917	-3.1167	432.153	355.174	174.282	499.732	472.539	148.820	423.012	163.639	368.476	302.798	492.586	490.495	146.331	213.581	348.857	160.828	0.00043232	0.00035127	2.7286e-05	1066.2	1.3311e-06	3.8852e-06	1169.6	224.58	5.8173e-06	2.5011e-06	285.67	80.523	62.961	18.665	3.1702e-06	26.228	0.00022431	0.00020032	5.1217e-05	1032	2.4079e-06	2.1687e-06	1127.2	217.89	2.3881e-06	2.1374e-06	275.33	78.832	61.806	18.546	2.0307e-06	25.993	308.759	302.350	228.403	155.613	360.517	330.371	155.270	163.103	315.106	266.856	162.769	169.450	169.557	177.309	332.626	176.271	-8191	255	
11072.659	1	1	0	0	0.18277	0.31586	0.057512	0.23108	0.25367	0.27665	0.28818	0.080892	0.048339	0.19631	0.24087	0.10878	0.19565	0.022405	0.16324	0.078154	-2	-2.3958	-2.8312	-2.3604	-2.8542	-2.9021	-2.2896	-3.0417	-2.6562	-2.5125	-2.9979	-2.2667	-2.8146	-2.7854	-2.4167	-2.9042	159.486	220.021	380.557	471.474	263.726	405.436	450.909	306.862	203.722	208.647	435.569	342.687	352.784	208.824	286.382	204.589	0.00040048	9.0459e-05	1.9286e-05	1058.8	1.5722e-06	3.533e-06	1169.2	222.28	5.177e-06	5.9613e-06	283.62	80.496	62.558	18.678	2.5316e-06	25.955	0.00021538	0.00019101	5.0806e-05	1031.2	2.2657e-06	2.0457e-06	1127	217.56	2.2319e-06	2.0771e-06	274.55	78.905	61.475	18.585	2.0754e-06	25.948	299.107	285.008	338.482	155.333	410.974	314.687	155.175	163.185	344.990	284.190	162.725	169.231	169.738	177.232	278.549	176.333	-8191	255	
11072.755	1	1	0	0	0.27372	0.13565	0.13262	0.1491	0.069167	0.090918	0.29224	0.17141	0.065269	0.23258	0.20914	0.16312	0.1648	0.18279	0.074057	0.095624	-2.2333	-2.4875	-3.0187	-2.6479	-2.675	-2.8375	-2.4562	-3.0646	-2.6875	-2.4688	-3.1604	-2.4167	-2.775	-2.9208	-2.3937	-3.0292	289.169	438.253	392.877	477.059	495.667	220.086	189.816	499.114	279.393	368.682	249.792	467.532	481.825	479.147	167.462	454.993	0.0004212	0.00045306	4.0929e-05	1057.8	1.7577e-06	3.2932e-06	1162.1	223.72	3.0814e-06	3.0673e-06	283.58	80.608	62.82	18.638	4.0562e-06	26.023	0.00020402	0.0001855	5.2488e-05	1030.7	2.1514e-06	1.9642e-06	1126.2	217.7	2.0999e-06	1.9895e-06	275.32	78.848	61.533	18.504	2.1658e-06	25.878	301.517	245.310	233.641	155.599	274.023	216.323	155.351	162.977	395.643	286.547	162.775	169.635	170.170	177.001	218.149	175.893	-8191	255	
11072.852	1	1	0	0	0.10827	0.048608	0.17315	0.25086	0.069819	0.19076	0.1823	0.061491	0.2116	0.060487	0.076797	0.10051	0.13125	0.1514	0.13629	0.26377	-2.3833	-2.5125	-3.0708	-2.65	-2.4854	-3.0396	-2.4042	-2.9104	-2.7917	-2.5563	-3.0083	-2.6479	-2.6292	-2.9896	-2.3063	-2.9333	473.859	212.177	174.972	156.760	164.538	192.421	369.877	188.938	223.337	316.663	494.906	197.138	165.856	467.960	326.560	472.110	0.00040723	0.0002035	6.8686e-05	1067.4	4.0708e-06	3.8843e-06	1168.3	223.84	2.5985e-06	2.1354e-06	283.85	80.682	63.56	18.76	8.3896e-07	25.878	0.00019436	0.00018023	5.5925e-05	1033.1	2.081e-06	1.9114e-06	1129.3	217.77	2.0163e-06	1.9109e-06	275.75	78.744	61.428	18.526	2.1839e-06	25.756	286.693	257.904	340.608	155.416	256.362	249.827	155.265	163.076	328.461	342.577	162.537	169.299	169.967	177.334	254.490	175.958	-8191	255	
11072.972	1	1	0	0	0.13714	0.15786	0.076588	0.26451	0.18659	0.12631	0.28078	0.21577	0.09522	0.061681	0.13812	0.039824	0.28216	0.20321	0.20198	0.16187	-2.6083	-2.3125	-3.0083	-2.5854	-2.3438	-3.05	-2.5792	-2.6271	-2.8854	-2.325	-3.0687	-2.5958	-2.3604	-3.0146	-2.4583	-2.7875	149.312	338.905	305.930	490.809	406.660	368.535	169.729	410.825	375.293	193.497	311.326	374.060	194.286	489.405	324.880	333.359	0.00039659	9.5228e-05	0.00013599	1061.8	3.4381e-06	4.9594e-06	1167.3	222.92	2.8461e-06	1.5812e-06	283.79	81.064	62.998	18.503	3.7105e-06	26.065	0.00018144	0.00017358	5.6286e-05	1029.1	1.9784e-06	1.9106e-06	1125.5	216.63	1.9416e-06	1.9722e-06	275.04	78.315	61.16	18.451	2.1913e-06	25.633	293.554	188.624	203.067	155.386	147.141	276.412	155.312	163.016	374.236	279.260	162.548	169.411	169.707	177.345	268.838	176.078	-8191	255	
11073.044	1	1	0	0	0.11651	0.11514	0.21847	0.066723	0.29973	0.40215	0.16122	0.086444	0.18883	0.25501	0.11125	0.21298	0.14405	0.1113	0.22249	0.19794	-2.4792	-2.1104	-2.95	-2.7646	-2.35	-2.9896	-2.6542	-2.7979	-2.9313	-2.4625	-2.7687	-2.8875	-2.375	-2.8333	-2.5667	-2.5333	191.863	153.661	386.105	457.563	497.188	145.967	452.140	150.683	170.610	479.965	361.145	170.363	470.979	211.672	284.973	253.699	0.00044937	0.00061673	7.4391e-05	1060.5	2.3357e-06	3.1705e-06	1159.7	223.19	6.6705e-06	2.7213e-06	281.3	80.896	62.943	18.411	2.0144e-06	25.889	0.00017498	0.00018146	5.4792e-05	1026.9	1.8441e-06	1.9827e-06	1121.8	216.16	1.7922e-06	2.0023e-06	273.11	78.197	61.087	18.393	2.0417e-06	25.608	298.243	275.256	240.710	155.432	281.752	278.981	155.484	163.219	301.524	237.282	162.545	169.509	169.867	177.536	312.017	176.221	-8191	255	
11073.140	1	1	0	0	0.19662	0.076548	0.064724	0.15352	0.15166	0.045082	0.26546	0.079752	0.1693	0.074305	0.059559	0.13152	0.18756	0.23722	0.28887	0.098807	-2.6125	-2.3521	-2.7333	-3.0208	-2.325	-3.0812	-2.8104	-2.6083	-3.1188	-2.4208	-2.8583	-2.9896	-2.4146	-3.0458	-2.5333	-2.7188	218.925	210.620	446.133	392.381	212.064	371.931	366.404	178.894	305.805	157.238	466.816	449.149	472.920	161.827	376.694	322.159	0.00041597	0.00032427	3.4608e-05	1054.9	3.1477e-06	2.302e-06	1156.9	220.47	7.2444e-06	4.1201e-06	282.57	80.528	62.763	18.56	2.0682e-06	25.825	0.00016655	0.00018604	5.0434e-05	1020.1	1.7826e-06	2.0519e-06	1116.2	215	1.7873e-06	2.0927e-06	273.19	77.927	60.727	18.408	1.9251e-06	25.432	295.675	335.566	170.839	155.587	255.488	276.918	155.415	163.051	318.383	290.672	162.341	169.926	169.663	177.093	260.372	175.969	-8191	255	
11073.261	1	1	0	0	0.25234	0.10816	0.05809	0.21853	0.21363	0.19933	0.21454	0.23728	0.15552	0.36659	0.20626	0.11895	0.035321	0.11823	0.1542	0.24387	-2.5208	-2.3625	-2.5667	-3.0583	-2.5479	-3.1021	-2.8104	-2.5854	-2.9167	-2.3688	-2.8187	-2.9896	-2.4375	-3.0229	-2.5833	-2.4313	323.856	347.633	259.286	479.093	263.171	404.741	374.833	348.937	290.420	501.872	163.912	398.560	467.417	365.424	369.208	473.499	0.00046022	0.00017172	0.00010828	1053.2	7.3511e-07	4.3749e-06	1154.3	221.38	4.979e-06	3.3311e-06	283.19	79.582	62.549	18.47	4.4526e-06	25.874	0.00016953	0.0001894	4.829e-05	1017.8	1.8511e-06	2.0541e-06	1112.5	214.6	1.8622e-06	2.0323e-06	272.16	77.542	60.729	18.329	1.7861e-06	25.373	294.112	205.554	207.619	155.352	241.350	292.083	155.438	163.126	271.264	333.191	162.442	169.176	169.948	176.537	307.458	175.908	-8191	255	
11073.355	1	1	0	0	0.17365	0.18893	0.2626	0.41694	0.13347	0.21165	0.13371	0.094595	0.034338	0.10343	0.1793	0.14562	0.29005	0.10392	0.075836	0.13595	-2.6458	-2.3937	-2.65	-3.0125	-2.3417	-3.0229	-2.8333	-2.5479	-3.1417	-2.5333	-2.5958	-3.1542	-2.3083	-2.9	-2.9083	-2.4458	406.027	277.334	308.751	493.516	196.349	231.914	496.507	296.029	326.805	377.307	430.697	464.926	296.408	166.554	457.823	495.118	0.00046534	0.00029373	7.2604e-05	1052.2	6.0975e-06	3.8652e-06	1149.6	220.07	4.3643e-06	2.7983e-06	280.77	80.064	62.216	18.414	5.6514e-06	25.75	0.00017981	0.00018167	4.6321e-05	1016	1.9449e-06	1.9613e-06	1108.9	214.06	1.9394e-06	1.9436e-06	271.21	77.268	60.781	18.279	1.733e-06	25.335	289.898	332.800	179.680	155.591	258.540	284.128	155.248	163.343	346.820	249.141	162.470	169.050	169.789	177.293	297.663	176.261	-8191	255	
11073.451	1	1	0	0	0.067646	0.05414	0.22474	0.16586	0.078345	0.24314	0.041245	0.28619	0.16764	0.10412	0.18167	0.16274	0.31382	0.15643	0.18539	0.2027	-2.6375	-2.4208	-2.4917	-3.0833	-2.4188	-2.9604	-2.9813	-2.3125	-3.0083	-2.6667	-2.6063	-3.1083	-2.7333	-2.7188	-2.8729	-2.5583	432.672	429.395	385.398	471.622	254.443	477.600	399.956	432.103	201.501	333.399	379.964	422.290	335.880	469.584	188.410	196.667	0.00043895	3.8724e-05	6.3525e-05	1044.9	3.3509e-06	4.4301e-06	1146	220.22	1.5482e-06	1.163e-06	279.06	80.092	62.546	18.478	4.797e-06	25.947	0.00018358	0.00017069	4.4128e-05	1009.8	2.0086e-06	1.8386e-06	1104.6	213.24	1.951e-06	1.7869e-06	270.24	77.51	60.635	18.23	1.6668e-06	25.334	307.590	427.856	196.404	155.400	239.913	349.768	155.433	163.027	231.229	251.274	162.492	169.711	170.012	177.213	395.518	176.280	-8191	255	
11073.547	1	1	0	0	0.11087	0.073046	0.20929	0.47646	0.080483	0.071767	0.31623	0.20554	0.11384	0.079723	0.096696	0.11648	0.035148	0.19005	0.10645	0.15558	-2.7458	-2.8417	-2.5125	-3.1667	-2.3667	-2.8083	-3.1625	-2.4688	-2.925	-2.6875	-2.5667	-3.2354	-2.5917	-2.7188	-2.9292	-2.4146	246.894	177.053	417.920	446.237	313.325	446.521	415.193	162.711	339.716	388.648	173.429	189.479	354.908	197.829	174.785	478.719	0.00038544	0.00029884	9.9304e-05	1046.1	1.0832e-06	2.9816e-06	1148.9	220.77	3.4949e-06	4.197e-06	281.27	80.239	62.434	18.31	2.2561e-06	25.607	0.00018544	0.000162	4.2046e-05	1009.4	1.9705e-06	1.7277e-06	1103	213.33	1.9243e-06	1.7145e-06	269.98	77.44	60.457	18.151	1.6084e-06	25.311	289.732	253.173	250.133	155.409	199.909	348.966	155.260	163.021	343.432	354.091	162.538	169.367	170.070	177.439	344.483	176.123	-8191	255	
11073.644	1	1	0	0	0.069867	0.27996	0.22038	0.18219	0.19152	0.13328	0.30986	0.12632	0.31222	0.13666	0.33376	0.13288	0.1603	0.23167	0.091778	0.20002	-2.5375	-2.5583	-2.3354	-3.3208	-2.4333	-2.6271	-3.2438	-2.475	-2.8625	-3.0167	-2.3083	-3.175	-2.6479	-2.5375	-3.1333	-2.5938	154.835	326.110	237.577	453.866	488.815	151.672	432.549	400.629	298.594	203.692	404.692	228.801	407.146	166.903	276.925	151.418	0.00038281	6.9893e-05	0.00018084	1039.2	6.3659e-06	2.3646e-06	1143.8	219.54	5.998e-07	5.1267e-06	279.92	79.417	62.068	18.126	2.446e-06	25.72	0.00017884	0.00015665	4.1437e-05	1007	1.8681e-06	1.6956e-06	1102.6	213.19	1.8413e-06	1.6795e-06	270.01	77.503	60.315	18.049	1.6777e-06	25.377	291.203	305.946	247.632	155.619	280.927	261.894	155.394	163.168	350.133	192.409	162.207	169.484	170.082	177.015	208.861	176.227	-8191	255	
11073.740	1	1	0	0	0.42071	0.18544	0.07549	0.24307	0.075156	0.17811	0.15942	0.32421	0.18491	0.20623	0.11612	0.051284	0.27233	0.27895	0.303	0.31162	-2.3917	-2.6437	-2.4479	-3.1667	-2.6854	-2.4833	-3.2875	-2.5583	-2.6646	-2.9542	-2.4729	-2.9875	-2.675	-2.5146	-3.2021	-2.5625	337.441	345.173	299.063	447.780	311.414	222.271	455.425	384.064	177.722	458.246	439.688	451.007	230.809	245.094	374.019	457.860	0.00039857	0.00018711	3.2113e-05	1039	5.5628e-06	5.3658e-06	1143.5	220.3	6.4397e-06	2.7894e-06	278.86	79.863	61.972	18.376	2.6643e-06	25.809	0.00017189	0.00015193	4.3719e-05	1006	1.7959e-06	1.6661e-06	1101.2	213.65	1.7821e-06	1.6693e-06	269.85	77.391	60.154	18.103	1.8127e-06	25.416	296.002	295.414	266.813	155.364	265.444	367.640	155.539	163.093	356.396	244.655	162.604	169.677	170.322	177.072	309.266	176.316	-8191	255	
11073.860	1	1	0	0	0.21078	0.23573	0.12338	0.17223	0.076464	0.1244	0.16013	0.2011	0.19889	0.1197	0.10702	0.047206	0.25031	0.20229	0.22062	0.174	-2.3021	-3.0521	-2.3521	-3.2729	-2.7687	-2.4479	-3.2646	-2.6125	-2.5563	-2.9896	-2.3271	-2.9	-2.8458	-2.4125	-2.9354	-2.6042	393.924	241.257	343.335	433.205	192.275	327.387	419.044	426.284	378.815	328.076	443.871	496.737	413.979	452.272	492.439	453.302	0.00051582	0.00045512	5.7936e-05	1041	3.6146e-06	9.0884e-07	1153.6	219.44	4.3763e-06	2.486e-06	282.21	80.144	62.542	18.439	5.6154e-06	25.758	0.00016605	0.0001497	4.6397e-05	1006.3	1.7349e-06	1.632e-06	1101.9	212.7	1.7152e-06	1.6088e-06	270.37	77.441	60.233	18.119	1.8518e-06	25.269	292.143	246.961	328.766	155.150	228.996	210.087	155.399	162.831	302.805	263.654	162.607	169.631	169.794	177.028	256.925	176.181	-8191	255	
11073.956	1	1	0	0	0.16951	0.051029	0.1029	0.23839	0.18218	0.15543	0.2375	0.22916	0.0715	0.08963	0.12448	0.12236	0.12262	0.30216	0.10696	0.2264	-1.975	-2.9458	-2.5187	-2.9708	-2.9875	-2.4333	-3.1271	-2.875	-2.5062	-3.0708	-2.3458	-2.8083	-2.9813	-2.4417	-2.9792	-2.6292	244.839	442.633	423.951	501.931	250.411	203.157	425.259	197.550	258.491	299.982	467.299	323.536	454.215	449.056	380.277	343.990	0.00039686	0.0005957	0.00012169	1051.8	1.4748e-06	3.8677e-06	1147.3	222.43	3.3239e-06	1.5802e-06	280.88	80.023	62.193	18.299	2.9468e-06	25.829	0.00016141	0.00014596	4.7081e-05	1008.2	1.6598e-06	1.6228e-06	1100.4	213.51	1.6312e-06	1.6132e-06	270.44	77.249	59.954	18.054	1.8603e-06	25.18	300.239	223.963	223.025	155.278	290.920	304.679	155.399	162.875	275.716	171.235	162.617	169.490	169.930	176.866	283.164	176.203	-8191	255	
11074.053	1	1	0	0	0.338	0.29732	0.20529	0.09	0.25583	0.20743	0.18926	0.21453	0.2893	0.12114	0.048719	0.18235	0.12374	0.16248	0.086911	0.23841	-1.9708	-2.9125	-2.5125	-2.8854	-2.9729	-2.4667	-3.2375	-2.7062	-2.525	-3.1458	-2.5	-2.5938	-3.0896	-2.2542	-2.7729	-2.6854	212.312	199.115	263.022	413.758	152.842	228.834	161.300	398.092	358.672	427.317	238.972	300.201	459.873	221.020	459.027	173.327	0.00038293	0.0003431	4.0353e-05	1039.7	1.8082e-06	3.9624e-06	1139.2	220.28	4.8477e-06	1.649e-06	278.84	79.298	61.913	18.265	1.6462e-06	25.743	0.00014959	0.00015156	4.6351e-05	1002.1	1.578e-06	1.64e-06	1094.4	212.04	1.5285e-06	1.6433e-06	268.55	76.704	59.771	18.003	1.7333e-06	25.107	289.316	218.979	227.734	155.309	257.720	286.721	155.190	163.079	290.934	396.294	162.595	169.558	169.900	177.089	368.813	176.009	-8191	255	
11074.149	1	1	0	0	0.20896	0.13904	0.30758	0.10611	0.11635	0.13671	0.32955	0.086246	0.12997	0.048712	0.28022	0.14425	0.1232	0.16058	0.19871	0.20119	-2.1562	-2.9354	-2.575	-2.7042	-3.0563	-2.3125	-3.0458	-3.0312	-2.3604	-2.9104	-2.5833	-2.6208	-3.25	-2.4313	-2.775	-2.9979	218.537	325.552	183.096	325.591	214.819	429.741	444.824	198.665	272.932	452.963	241.258	417.264	351.701	467.868	453.126	418.537	0.00041033	0.0002608	0.00012695	1033.2	6.4355e-06	2.3246e-06	1133.3	217.79	4.1162e-06	5.6634e-06	276.99	78.382	61.253	18.185	5.004e-06	25.532	0.00014327	0.00015229	4.2663e-05	994.43	1.4749e-06	1.7006e-06	1088.7	210.82	1.4782e-06	1.6927e-06	266.87	76.371	59.506	17.992	1.5969e-06	24.967	291.517	338.350	241.450	155.434	255.744	259.100	155.464	163.463	308.906	268.753	162.627	169.668	170.025	177.276	258.130	176.801	-8191	255	
11074.268	1	1	0	0	0.15255	0.28607	0.14577	0.21174	0.11645	0.17196	0.34309	0.064924	0.10131	0.18944	0.20046	0.24463	0.15408	0.071153	0.135	0.13635	-2.0042	-3.0062	-2.7062	-2.7687	-2.9708	-2.5375	-2.9729	-3.2042	-2.4938	-3.0438	-2.6813	-2.55	-3.0375	-2.5062	-2.6521	-3.0958	176.269	433.860	251.059	493.784	458.065	406.856	428.657	434.170	391.250	487.884	204.288	178.703	338.308	446.978	462.047	192.550	0.00039953	0.00011923	0.00010291	1017.5	2.7651e-06	5.1153e-06	1121.3	216.74	2.3286e-06	4.2031e-06	277.25	78.236	60.973	18.135	2.484e-06	25.372	0.00014153	0.00015442	4.0132e-05	987.13	1.5053e-06	1.6863e-06	1082.4	209.74	1.5341e-06	1.6806e-06	266.28	75.993	59.214	17.933	1.5219e-06	24.897	282.335	387.592	247.903	155.438	237.676	233.098	155.366	163.269	336.868	254.456	162.593	169.679	170.135	177.543	321.457	176.389	-8191	255	
11074.339	1	1	0	0	0.13275	0.032258	0.15884	0.14062	0.2219	0.27812	0.11743	0.25659	0.035056	0.1834	0.22867	0.1788	0.058657	0.18926	0.19508	0.11962	-2.0312	-2.9813	-2.6437	-2.7104	-3.1333	-2.4062	-2.8083	-3.1813	-2.3	-2.7458	-2.8896	-2.4417	-3.0687	-2.4917	-2.725	-3.0833	346.479	228.022	307.757	397.547	349.254	231.585	145.775	175.245	345.812	420.539	167.410	329.000	435.020	204.053	370.726	310.539	0.00034462	0.00055669	8.0758e-05	1021.4	4.2042e-06	1.6198e-06	1128.7	215.74	5.3652e-06	1.7902e-06	275.26	78.954	61.53	18.213	2.7887e-06	25.323	0.0001509	0.00015177	3.7892e-05	987.03	1.5827e-06	1.6416e-06	1083.4	209.52	1.6436e-06	1.6158e-06	265.64	76.164	59.699	17.966	1.4729e-06	24.896	295.316	197.228	274.771	155.648	239.385	351.624	155.511	163.350	337.986	297.276	162.632	169.198	170.182	177.380	309.324	176.476	-8191	255	
11074.435	1	1	0	0	0.097086	0.18191	0.10939	0.085359	0.28055	0.088919	0.1239	0.24713	0.036164	0.15817	0.070703	0.147	0.14875	0.25062	0.20462	0.23356	-2.1646	-2.7333	-2.7979	-2.5229	-3.1792	-2.475	-2.7708	-3.0854	-2.5125	-2.8146	-2.8875	-2.3063	-2.9021	-2.6479	-2.4479	-3.0979	324.650	272.973	347.721	235.183	420.711	411.775	154.569	489.012	151.717	372.898	244.845	170.325	162.801	403.293	328.984	441.420	0.00043156	0.00033166	0.00010693	1020.9	3.5967e-06	2.8154e-06	1121.6	216.33	5.1142e-06	3.5775e-07	277.11	78.638	61.598	18.026	2.241e-06	25.767	0.00015232	0.00014049	3.5761e-05	986.9	1.6168e-06	1.5084e-06	1081.2	209.4	1.6055e-06	1.4607e-06	265.54	75.959	59.436	17.828	1.3164e-06	24.961	287.012	260.132	200.971	155.400	283.272	376.757	155.459	163.499	348.211	318.059	162.912	169.372	170.123	177.260	262.948	176.202	-8191	255	
11074.532	1	1	0	0	0.20301	0.11985	0.15697	0.37937	0.13589	0.070495	0.14662	0.095036	0.16457	0.067663	0.13191	0.10272	0.036339	0.14966	0.12654	0.087589	-2.1312	-2.6208	-2.8958	-2.5542	-2.8229	-2.6937	-2.6562	-2.85	-2.5896	-2.7458	-3.0729	-2.4104	-2.85	-2.8146	-2.4896	-3.0354	204.210	265.283	403.649	430.945	255.449	392.786	283.006	187.518	268.483	391.053	443.693	187.725	460.608	175.035	442.234	147.314	0.00040612	0.00016657	8.7135e-06	1020.9	7.4722e-06	3.2616e-06	1129.5	218.8	4.2983e-06	3.2399e-06	278.3	79.485	61.583	18.279	3.4351e-06	25.489	0.00014892	0.00012744	3.2531e-05	984.84	1.5432e-06	1.3762e-06	1080.3	210.24	1.5141e-06	1.3412e-06	266.03	76.431	59.399	17.845	1.2501e-06	24.953	289.237	217.130	204.824	155.578	244.544	287.771	155.189	163.146	335.367	334.702	162.549	169.208	170.004	177.178	256.779	176.540	-8191	255	
11074.652	1	1	0	0	0.14725	0.12367	0.17289	0.16045	0.14329	0.14423	0.23212	0.21441	0.11702	0.12	0.045643	0.13814	0.14614	0.14241	0.065727	0.3242	-2.1208	-2.5958	-2.8417	-2.5208	-2.8354	-2.6229	-2.4792	-3.0375	-2.6437	-2.6979	-2.9833	-2.3708	-2.9271	-2.9062	-2.2	-3.2167	350.175	389.247	263.837	147.916	491.577	349.058	466.714	490.674	348.355	265.280	195.436	297.419	453.584	147.893	266.019	185.727	0.00050385	0.00041871	2.4672e-05	1016.8	4.7593e-06	2.3736e-06	1121.1	217.23	2.2025e-06	2.4272e-06	275.44	79.116	61.444	18.22	2.6551e-06	25.557	0.00013855	0.00011663	3.0151e-05	981.03	1.4352e-06	1.2777e-06	1076	210.32	1.4088e-06	1.2584e-06	265.48	76.37	59.226	17.822	1.2492e-06	24.985	290.063	347.539	432.929	155.712	301.060	264.324	155.630	163.452	286.741	285.479	162.931	169.557	170.081	177.432	326.925	176.013	-8191	255	
11074.748	1	1	0	0	0.28569	0.052481	0.16052	0.20628	0.10279	0.012664	0.46577	0.09526	0.14515	0.29591	0.12376	0.16328	0.10116	0.16396	0.20067	0.087954	-2.0312	-2.4313	-2.9313	-2.5917	-2.8021	-2.8396	-2.4188	-2.9083	-2.7396	-2.5146	-3.0542	-2.5125	-2.8833	-2.7979	-2.5312	-3.1083	306.214	464.822	321.092	375.004	473.005	399.605	460.122	362.048	467.034	240.100	353.300	432.206	494.959	463.678	211.845	334.548	0.00040091	0.00012434	0.00011926	1011.2	1.5576e-06	1.8179e-06	1115.5	217.54	5.501e-06	2.7615e-06	278.14	79.934	61.993	18.408	3.2013e-06	25.635	0.00013075	0.00011358	3.1178e-05	979.05	1.3332e-06	1.2047e-06	1074.3	210.1	1.3141e-06	1.2135e-06	266.54	76.435	59.46	17.832	1.3059e-06	24.939	307.857	157.099	310.551	155.658	304.018	167.138	155.494	163.441	298.381	269.851	162.667	169.577	169.873	177.230	377.449	176.149	-8191	255	
11074.845	1	1	0	0	0.16683	0.1218	0.26695	0.41075	0.15396	0.10765	0.15908	0.19011	0.18428	0.15537	0.19568	0.20449	0.16108	0.21399	0.081472	0.31872	-2.3917	-2.5583	-3.1208	-2.5812	-2.7292	-2.8854	-2.4833	-2.9646	-2.725	-2.4646	-3.2479	-2.4271	-2.6562	-2.9333	-2.4125	-2.7542	166.830	496.436	372.172	146.788	179.371	192.979	424.280	475.827	284.497	264.869	177.994	296.971	165.880	266.899	200.412	492.950	0.00036202	0.00019906	9.4544e-05	1018.7	3.2687e-06	1.6079e-06	1129.8	219.77	5.1244e-06	3.0047e-06	278.41	79.55	61.572	18.306	3.8956e-06	25.862	0.00012341	0.00010659	3.2301e-05	979.95	1.3027e-06	1.1834e-06	1075.2	210.82	1.287e-06	1.1753e-06	267.29	76.264	59.222	17.792	1.3777e-06	24.868	288.462	231.422	185.503	155.486	266.661	490.053	155.197	163.090	336.025	257.116	162.756	169.174	169.618	176.755	303.666	176.431	-8191	255	
11074.941	1	1	0	0	0.2702	0.1275	0.19917	0.19829	0.047167	0.27266	0.35025	0.051178	0.073392	0.25431	0.078395	0.096758	0.32082	0.10105	0.15071	0.2811	-2.6417	-2.4042	-3.0229	-2.6833	-2.7188	-3.0563	-2.7833	-3.0042	-2.9562	-2.35	-3.2521	-2.5708	-2.5979	-2.9917	-2.5354	-2.6813	430.154	180.888	438.573	462.194	394.228	278.715	433.761	490.659	386.609	328.734	397.662	358.227	209.471	394.924	415.873	364.451	0.00043075	0.00028914	0.00013401	1018.6	6.7996e-07	1.0403e-06	1125.4	218.95	3.7183e-06	1.1295e-06	280.14	79.498	61.867	18.263	2.1963e-06	25.617	0.00011961	0.00010872	3.5363e-05	980.06	1.2779e-06	1.203e-06	1076	210.5	1.2403e-06	1.2411e-06	266.98	76.176	59.189	17.798	1.4469e-06	24.906	298.744	248.819	244.748	155.467	309.631	398.529	155.244	162.785	331.547	480.883	162.465	169.357	169.887	177.064	256.456	175.960	-8191	255	
11075.037	1	1	0	0	0.062199	0.12048	0.13597	0.14065	0.20122	0.020982	0.37334	0.23879	0.12146	0.1329	0.030567	0.25208	0.16834	0.076745	0.2003	0.080418	-2.5312	-2.3729	-3.1063	-2.5938	-2.3354	-3.1083	-2.5167	-2.7125	-2.9604	-2.3688	-2.9479	-2.6979	-2.4667	-2.9104	-2.4771	-2.7167	462.080	424.806	463.894	452.516	398.060	468.608	458.859	464.060	451.331	195.818	422.572	191.194	497.970	155.579	447.387	488.859	0.00035245	0.00027603	1.7617e-05	1021.5	3.2398e-06	2.4192e-06	1126.1	219.61	1.0814e-06	3.2367e-06	277.87	79.278	61.529	18.312	2.4479e-06	25.664	0.00012004	0.00011831	3.6486e-05	977.73	1.2553e-06	1.3152e-06	1076.3	210.62	1.2231e-06	1.3282e-06	266.6	76.055	59.066	17.846	1.4012e-06	24.812	295.672	488.684	146.421	155.400	233.472	342.938	155.188	162.975	311.349	261.143	162.608	169.540	169.903	177.013	244.774	175.953	-8191	255	
11075.133	1	1	0	0	0.1997	0.17255	0.11558	0.2894	0.165	0.26474	0.12768	0.22593	0.051954	0.22196	0.14812	0.35162	0.13344	0.25923	0.10918	0.13606	-2.6958	-2.4729	-3.0479	-2.9375	-2.4375	-3.0375	-2.6437	-2.7542	-3.0479	-2.3875	-3.1167	-2.8187	-2.3458	-3.1021	-2.6083	-2.4646	477.673	291.529	379.716	456.362	195.559	169.616	412.570	417.030	487.696	501.957	401.042	405.130	488.338	342.308	154.915	294.684	0.00039655	0.00040769	2.2966e-05	1017.8	3.0605e-06	2.7482e-06	1122.5	218.17	3.9494e-06	1.8176e-06	277.26	78.707	61.165	18.206	7.5893e-07	25.583	0.00011698	0.00012878	3.5991e-05	976.78	1.2388e-06	1.3933e-06	1074.4	210.15	1.2426e-06	1.4507e-06	266.42	75.945	58.983	17.841	1.3584e-06	24.744	301.480	248.319	294.238	155.492	260.773	419.443	155.392	163.130	335.593	193.158	162.744	169.530	169.903	176.882	493.581	175.798	-8191	255	
11075.229	1	1	0	0	0.053933	0.029112	0.13068	0.014472	0.18985	0.067933	0.29357	0.2414	0.3719	0.086536	0.238	0.16671	0.13604	0.19607	0.2219	0.093763	-2.6458	-2.2917	-2.8292	-3.0125	-2.3708	-3.0187	-2.8937	-2.4313	-3.0375	-2.3896	-2.8125	-2.9458	-2.325	-3.0083	-2.7188	-2.6063	371.337	284.604	293.010	176.939	464.104	264.145	436.244	478.020	407.081	404.929	287.784	490.261	163.049	491.266	338.377	403.996	0.00041364	0.00041134	4.2141e-05	1018.2	4.3587e-06	2.3534e-06	1114	216.91	1.9257e-06	1.9115e-06	277.35	78.338	60.97	18.064	3.2511e-06	25.203	0.00012178	0.00013076	3.3892e-05	978.71	1.2877e-06	1.4304e-06	1071.7	209.84	1.2913e-06	1.4522e-06	265.7	75.657	58.928	17.776	1.3291e-06	24.789	289.120	199.573	182.334	155.484	243.985	263.141	155.512	163.297	336.906	336.553	162.645	169.653	170.310	177.107	285.281	176.488	-8191	255	
11075.348	1	1	0	0	0.16471	0.17962	0.16027	0.18209	0.35252	0.13718	0.034205	0.4504	0.06874	0.091241	0.19226	0.10879	0.03864	0.24368	0.17756	0.028328	-2.7792	-2.4917	-2.7354	-2.8563	-2.4104	-3.1562	-2.9146	-2.6688	-3.1125	-2.5271	-2.7271	-2.9771	-2.3354	-2.9375	-2.8625	-2.4333	452.871	347.315	201.042	359.266	338.626	483.496	288.378	440.039	291.986	359.954	494.583	149.468	364.125	152.347	424.315	373.741	0.00039448	0.00016006	7.8336e-05	1014.3	3.9724e-06	6.4496e-07	1113.9	217.31	5.2088e-06	1.3579e-06	274.4	78.282	61.104	17.944	3.0962e-06	25.334	0.00012963	0.00013362	3.4187e-05	977.22	1.4034e-06	1.4448e-06	1071.7	209.76	1.416e-06	1.4448e-06	265.43	75.643	59.062	17.774	1.3142e-06	24.692	289.024	258.907	295.189	155.764	263.399	195.197	155.734	163.195	286.053	478.454	162.810	169.976	169.608	177.558	258.199	176.561	-8191	255	
11075.444	1	1	0	0	0.14151	0.34215	0.02671	0.092922	0.10938	0.028583	0.051311	0.087621	0.10446	0.13985	0.07451	0.078526	0.20911	0.36601	0.22558	0.25075	-2.6104	-2.4854	-2.6208	-2.9458	-2.3833	-3.0167	-2.9875	-2.4771	-3.125	-2.6625	-2.6458	-3.1292	-2.5146	-2.8625	-3.1	-2.3833	368.564	395.540	209.708	146.026	498.226	168.983	259.147	171.437	394.478	183.465	423.035	381.053	201.931	445.928	340.074	256.407	0.0004555	0.00020673	9.029e-05	1012.4	2.3276e-06	1.3861e-06	1113.4	214.86	3.3498e-06	2.9412e-06	273.15	78.076	60.682	17.951	3.2525e-06	25.21	0.00013651	0.00012978	3.3298e-05	976.07	1.4901e-06	1.4061e-06	1069.2	208.92	1.5039e-06	1.3627e-06	264.65	75.67	58.932	17.75	1.2849e-06	24.695	291.653	258.497	303.855	155.687	294.310	496.126	155.652	163.460	309.840	349.158	163.018	169.502	170.398	177.681	318.175	176.632	-8191	255	
11075.540	1	1	0	0	0.0921	0.092417	0.22027	0.29925	0.14056	0.17669	0.12009	0.18527	0.23599	0.30496	0.13874	0.11855	0.095932	0.30927	0.093324	0.1335	-2.6312	-2.4396	-2.4458	-3.1542	-2.5271	-2.7021	-3.05	-2.4792	-2.9104	-3.0625	-2.4938	-3.1833	-2.5812	-2.7208	-2.8854	-2.5104	354.299	459.113	352.712	423.223	211.161	345.246	478.659	161.646	201.332	344.906	468.375	322.968	290.090	145.939	209.433	308.390	0.00035229	0.00035098	2.5906e-05	1009.3	1.6498e-06	3.3096e-06	1107.2	215.02	2.6805e-06	2.1399e-06	274.29	78.04	60.893	17.865	1.4646e-06	25.174	0.00014397	0.00012608	3.304e-05	975.5	1.5363e-06	1.3811e-06	1069.3	208.84	1.5786e-06	1.4077e-06	264.36	75.564	59.035	17.662	1.3363e-06	24.758	292.572	283.968	485.024	155.625	314.994	343.159	155.719	163.292	318.305	231.386	162.740	169.840	170.480	177.059	353.598	176.554	-8191	255	
11075.636	1	1	0	0	0.18543	0.10267	0.20455	0.1925	0.16473	0.23584	0.32497	0.084297	0.19833	0.18084	0.12423	0.094104	0.19508	0.10715	0.06896	0.22789	-2.5812	-2.6833	-2.4062	-3.0417	-2.4729	-2.7167	-3.1167	-2.4938	-2.9562	-2.8729	-2.4917	-3.1708	-2.6521	-2.5708	-2.9875	-2.4771	234.732	211.113	430.329	153.474	394.337	499.404	423.713	343.120	381.478	411.581	206.262	387.829	479.796	504.645	276.701	171.207	0.00035453	0.00011603	8.1188e-05	1013.3	3.2214e-06	1.3577e-06	1106.3	216.78	1.8504e-06	1.6863e-06	274.92	77.843	60.79	17.978	4.2559e-06	25.159	0.00015075	0.00012958	3.4625e-05	980.95	1.5774e-06	1.4071e-06	1071.5	209.61	1.5437e-06	1.4095e-06	264.78	75.898	58.948	17.639	1.3658e-06	24.802	291.457	187.474	206.776	155.643	256.369	335.349	155.752	163.143	273.240	184.658	162.979	169.722	169.810	177.600	263.890	176.664	-8191	255	
11075.733	1	1	0	0	0.14332	0.29717	0.1045	0.23603	0.16677	0.083064	0.20609	0.15506	0.13014	0.16082	0.40086	0.083982	0.25596	0.044207	0.18672	0.18699	-2.5979	-2.6167	-2.4292	-3.0667	-2.5083	-2.5187	-3.2708	-2.4437	-2.725	-2.8604	-2.5042	-3.1333	-2.6875	-2.6042	-3.1437	-2.5042	230.909	247.691	213.563	465.605	293.416	302.141	424.488	268.996	190.546	342.855	158.635	207.856	355.561	172.494	189.682	473.122	0.00031594	0.0001753	0.00014542	1010.7	3.4514e-06	2.1766e-06	1112.2	214.08	4.6246e-06	2.0728e-06	274.69	77.625	60.707	17.883	5.7055e-06	25.141	0.00014399	0.00012823	3.4752e-05	980.64	1.5242e-06	1.3653e-06	1071.9	208.28	1.5194e-06	1.3605e-06	264.87	75.752	58.755	17.662	1.4737e-06	24.838	298.589	367.300	185.203	155.788	272.265	178.147	155.960	163.179	328.218	252.329	162.555	169.667	170.031	177.246	246.039	176.166	-8191	255	
11075.829	1	1	0	0	0.11467	0.15152	0.39005	0.13938	0.20662	0.1551	0.15697	0.09157	0.126	0.14435	0.085768	0.22323	0.28244	0.11316	0.072269	0.24389	-2.2729	-2.775	-2.3729	-3.1312	-2.6896	-2.5333	-3.3542	-2.5146	-2.5854	-3.0896	-2.5896	-3	-2.8646	-2.475	-3	-2.375	459.327	234.666	482.976	312.221	360.360	277.002	440.155	377.284	157.548	354.070	400.607	373.382	150.982	347.081	407.074	190.246	0.00040373	0.00042887	9.4239e-05	1009.8	4.6797e-06	1.6297e-06	1112.5	215.07	3.6411e-06	3.0962e-06	273.93	77.882	60.316	17.791	3.1645e-06	25.198	0.00014303	0.00012195	3.8267e-05	980.87	1.5034e-06	1.361e-06	1073.2	208.9	1.4611e-06	1.3301e-06	264.64	75.825	58.747	17.648	1.5193e-06	24.815	312.028	261.263	227.426	155.811	300.647	323.520	155.580	163.266	356.764	307.065	162.921	169.623	169.989	177.749	287.397	176.433	-8191	255	
11075.949	1	1	0	0	0.049512	0.29282	0.043999	0.20526	0.1614	0.17686	0.26762	0.27847	0.25961	0.20625	0.17462	0.074713	0.031794	0.25492	0.4405	0.078743	-2.4542	-2.9813	-2.3	-3.1875	-2.8729	-2.4167	-3.3312	-2.6583	-2.6146	-3.2833	-2.5687	-2.9271	-2.9688	-2.5458	-3.0438	-2.7167	420.402	299.458	462.949	419.832	176.255	350.138	383.293	363.199	212.379	380.963	435.534	244.550	325.068	264.913	292.887	408.763	0.00041305	0.00019717	0.00010616	1019	1.1891e-06	2.2121e-06	1109.6	213.88	3.0525e-06	1.3011e-06	273.17	78.116	60.214	17.923	2.39e-06	25.156	0.00013622	0.00012548	3.9784e-05	982.42	1.4296e-06	1.3678e-06	1073.8	208.49	1.3826e-06	1.3569e-06	265.16	75.674	58.66	17.716	1.5921e-06	24.765	298.154	167.934	503.467	155.532	251.455	291.229	155.654	163.062	331.759	246.135	162.961	169.542	170.227	176.990	306.325	176.775	-8191	255	
11076.046	1	1	0	0	0.058834	0.14347	0.29753	0.26555	0.058861	0.14876	0.1625	0.20947	0.080178	0.17012	0.14835	0.1229	0.091685	0.22214	0.16616	0.2556	-2.0979	-3.0312	-2.45	-3.1167	-3.0958	-2.4562	-3.1146	-2.8375	-2.4938	-3.1479	-2.4229	-2.8396	-2.9583	-2.4188	-3.2125	-3.0812	393.015	355.780	257.111	403.814	503.412	287.511	161.363	485.049	483.720	147.183	491.078	326.099	306.230	304.844	485.109	336.005	0.00042431	0.00037895	0.00014045	1008.6	3.0546e-06	1.9749e-06	1112.9	215.64	2.2042e-06	2.5688e-06	275.63	78.474	61.017	18.045	4.3148e-07	25.073	0.00013586	0.00012768	4.1387e-05	978.51	1.3671e-06	1.4461e-06	1075.4	208.26	1.3791e-06	1.4473e-06	265.34	75.947	58.823	17.8	1.5764e-06	24.687	294.828	186.533	195.046	155.808	251.758	253.462	155.633	163.143	327.887	231.927	162.603	170.004	170.319	177.210	444.269	176.637	-8191	255	
11076.140	1	1	0	0	0.11497	0.26109	0.23993	0.12602	0.2468	0.0093445	0.16498	0.095174	0.16725	0.088316	0.25454	0.46989	0.14442	0.24227	0.11306	0.40293	-2.2208	-3.1146	-2.5458	-2.8417	-3.1167	-2.575	-3.0458	-2.8271	-2.4688	-3.0708	-2.5979	-2.7958	-3.0375	-2.2333	-3.0187	-2.8354	211.740	462.830	420.397	170.100	455.361	151.272	474.414	367.147	277.613	391.082	154.191	455.645	488.196	378.136	181.260	465.830	0.00043901	0.00035369	9.8906e-05	1015.4	1.7995e-06	4.2962e-06	1114.1	215.91	4.5443e-06	3.8586e-06	273.73	77.675	61.198	18.047	2.9556e-06	25.527	0.0001323	0.00013943	3.9665e-05	982.01	1.3624e-06	1.5396e-06	1075.1	208.47	1.3693e-06	1.5332e-06	264.76	75.453	58.953	17.784	1.5309e-06	24.787	291.324	217.226	371.331	155.609	225.678	259.412	155.545	163.549	273.796	226.214	162.767	169.365	170.306	176.852	211.405	175.900	-8191	255	
11076.213	1	1	0	0	0.074943	0.076343	0.25072	0.07628	0.25217	0.029558	0.35225	0.20293	0.14502	0.12571	0.15779	0.13262	0.27405	0.25308	0.15382	0.17679	-2.1937	-3.1521	-2.7625	-2.6083	-2.9042	-2.5417	-3.0417	-3.1146	-2.4083	-3.0687	-3.0021	-2.8083	-3.2938	-2.3063	-2.6896	-2.9458	281.581	182.616	314.308	432.642	409.702	278.612	438.139	384.845	406.820	467.199	441.741	400.806	224.822	157.989	327.950	325.716	0.00045576	0.00017674	8.9865e-05	1008.2	4.5815e-06	1.9358e-06	1109.8	215.35	4.2793e-06	1.7089e-06	274.05	78.491	60.843	17.908	1.0733e-06	25.218	0.00013498	0.00014383	3.8066e-05	979.67	1.3864e-06	1.6168e-06	1074.7	208.83	1.4504e-06	1.605e-06	265.04	75.739	58.968	17.781	1.4919e-06	24.67	295.082	270.888	261.379	155.765	219.441	283.557	155.699	163.477	353.782	222.200	162.242	169.708	170.256	177.634	329.194	176.357	-8191	255	
11076.309	1	1	0	0	0.1359	0.10356	0.19117	0.42948	0.16886	0.15021	0.097547	0.30146	0.22379	0.11216	0.021442	0.073039	0.16481	0.11217	0.16745	0.2207	-1.9396	-3.05	-2.6937	-2.6958	-3.1104	-2.4125	-2.8229	-3.1708	-2.3167	-3.0854	-3.0146	-2.6521	-3.2042	-2.5458	-2.6208	-3.3312	315.913	459.474	495.816	430.022	353.092	168.012	394.316	149.405	156.452	236.444	235.641	340.609	336.702	420.075	475.188	278.388	0.00036781	4.6293e-05	0.00012502	1007.9	3.1557e-06	3.6759e-06	1114.4	215.24	2.4228e-06	3.6884e-06	273.77	77.924	60.62	17.906	3.3527e-06	25.174	0.0001422	0.00014999	3.6581e-05	980.48	1.5221e-06	1.6164e-06	1075.4	208.41	1.5619e-06	1.6152e-06	265.09	75.673	58.982	17.749	1.468e-06	24.711	288.307	159.690	253.184	155.447	227.973	420.118	155.741	163.523	329.357	264.669	163.149	169.641	170.472	177.638	303.699	176.793	-8191	255	
11076.428	1	1	0	0	0.11196	0.15238	0.15002	0.11975	0.038317	0.16833	0.33692	0.12518	0.20297	0.095533	0.15121	0.17116	0.24079	0.54054	0.21164	0.21893	-2.1063	-3.0687	-2.8958	-2.7083	-3.1937	-2.7104	-2.7208	-3.1208	-2.4125	-2.9938	-2.8625	-2.4021	-3.1458	-2.6437	-2.5292	-3.1708	489.320	157.846	153.738	452.762	363.038	419.627	163.268	454.765	325.222	216.345	476.178	355.737	163.811	495.050	228.898	427.591	0.0004902	0.00013124	3.0612e-05	1009.5	2.1068e-06	4.9955e-07	1117.8	215.27	3.4524e-06	3.4004e-06	272.67	78.063	60.817	18	6.3433e-07	25.399	0.00015178	0.00014456	3.5748e-05	982.13	1.6146e-06	1.5432e-06	1077.4	208.95	1.6313e-06	1.5135e-06	264.31	75.848	59.218	17.749	1.3905e-06	24.802	295.126	247.308	327.831	155.680	234.685	185.117	155.606	163.257	332.026	292.144	162.745	169.265	169.844	177.548	413.705	176.452	-8191	255	
11076.525	1	1	0	0	0.22954	0.31523	0.09353	0.25658	0.21917	0.075297	0.2557	0.027874	0.24354	0.20199	0.09499	0.076812	0.16736	0.20881	0.14318	0.030388	-2.3354	-2.9792	-3.0167	-2.6063	-3.0667	-2.9292	-2.7167	-3.1708	-2.5146	-2.8063	-3.1	-2.55	-2.9875	-2.6688	-2.4458	-3.0396	395.940	324.058	244.024	475.841	227.981	474.137	496.213	180.150	186.707	370.147	380.291	157.383	150.026	469.194	270.194	164.558	0.00032437	0.00036208	6.5613e-05	1014.5	5.2366e-06	8.5039e-07	1114.9	215.61	4.442e-06	3.651e-06	276.01	78.706	61.142	18.04	3.0793e-06	25.178	0.00015289	0.00013437	3.3839e-05	982.33	1.6082e-06	1.454e-06	1075.8	209.05	1.6185e-06	1.44e-06	265.1	75.861	59.307	17.774	1.3374e-06	24.775	288.935	201.802	301.482	155.584	237.241	353.808	155.466	163.556	297.899	278.280	162.641	169.489	170.202	177.472	349.357	176.098	-8191	255	
11076.621	1	1	0	0	0.16337	0.14533	0.15462	0.15961	0.095985	0.03352	0.30186	0.28524	0.19329	0.20029	0.2452	0.4446	0.11852	0.18589	0.14353	0.029972	-2.0979	-2.5479	-3.0271	-2.5208	-2.8333	-2.6667	-2.5438	-3.1458	-2.6312	-2.7292	-3.2104	-2.4208	-2.8667	-2.8167	-2.3854	-3.0354	156.903	230.186	397.867	152.443	437.825	457.477	402.189	482.774	392.043	334.135	427.427	299.974	502.501	384.864	430.629	277.202	0.00038743	0.00036191	7.4348e-05	1018.6	1.0235e-06	1.2957e-06	1119	216.91	3.2715e-06	3.1078e-06	275.14	77.887	60.831	18.042	2.3392e-06	25.369	0.00015021	0.00013246	3.3671e-05	984.91	1.5889e-06	1.4094e-06	1076.3	209.76	1.5503e-06	1.4193e-06	265.13	76.063	59.229	17.752	1.3803e-06	24.925	299.118	225.675	222.601	155.533	323.710	345.995	155.364	163.373	364.200	205.328	162.489	169.996	170.493	177.058	308.345	176.281	-8191	255	
11076.741	1	1	0	0	0.16013	0.23289	0.14778	0.22504	0.23885	0.15166	0.027595	0.13672	0.23271	0.15335	0.16305	0.12195	0.077757	0.10392	0.088803	0.12164	-2.0375	-2.5563	-3.0563	-2.5646	-2.9625	-2.9771	-2.6333	-3.0583	-2.4833	-2.5458	-3.0771	-2.3833	-2.9417	-2.9042	-2.4646	-3.1021	455.134	494.846	281.925	442.853	403.451	432.869	250.713	454.198	161.055	397.319	179.116	183.821	330.740	433.136	279.753	463.557	0.00031496	0.00012926	9.9772e-05	1018.6	6.6514e-07	1.1783e-06	1117.5	217.67	5.0026e-06	2.9423e-06	278.32	79.08	61.525	18.113	2.2179e-06	25.669	0.00014731	0.00012844	3.5294e-05	985.84	1.5542e-06	1.4056e-06	1080.7	210.46	1.4964e-06	1.3807e-06	266.33	76.263	59.32	17.823	1.3992e-06	25.08	292.291	227.725	258.425	155.359	241.680	460.670	155.539	163.255	324.077	204.213	162.471	169.417	169.761	177.220	290.760	176.042	-8191	255	
11076.813	1	1	0	0	0.18902	0.051806	0.32081	0.156	0.062902	0.25682	0.12908	0.27347	0.23069	0.11358	0.28416	0.099892	0.22822	0.12981	0.34817	0.20952	-2.3812	-2.4167	-3.1458	-2.7771	-2.725	-3.1562	-2.4771	-3.0104	-2.6396	-2.6312	-3.025	-2.55	-2.7292	-2.9854	-2.4854	-3.0146	210.353	214.155	369.430	503.862	357.515	335.727	397.423	460.230	477.535	465.050	479.166	392.414	317.289	175.265	408.614	504.596	0.00040807	9.1221e-05	0.00010865	1023.1	2.2238e-06	4.6618e-06	1132.9	217.86	6.3755e-06	4.1046e-06	278.15	79.5	61.991	18.213	4.6845e-06	25.364	0.00013737	0.00012407	3.6327e-05	987.24	1.4693e-06	1.3228e-06	1085.7	210.74	1.4388e-06	1.3201e-06	267.12	76.546	59.427	17.793	1.5059e-06	24.923	286.519	397.836	212.214	155.486	288.518	314.808	155.390	163.218	336.172	272.119	162.717	169.697	169.821	177.109	302.254	176.095	-8191	255	
11076.909	1	1	0	0	0.13548	0.31022	0.19422	0.27526	0.074675	0.039724	0.39387	0.063663	0.12931	0.022467	0.15074	0.071513	0.32546	0.10415	0.094819	0.035363	-2.3854	-2.5792	-3.0125	-2.7729	-2.6042	-3.2438	-2.5875	-3.0042	-2.8104	-2.3896	-3.2292	-2.6125	-2.5396	-3.025	-2.2375	-2.7667	283.373	439.045	382.145	454.026	430.292	241.472	407.464	241.743	372.831	178.838	157.271	447.604	500.710	489.453	412.619	183.223	0.00041555	7.9518e-05	8.9242e-05	1027.3	1.997e-06	1.7993e-06	1126	218.46	2.4697e-06	2.2582e-06	278.31	79.333	62.177	18.074	2.042e-06	25.709	0.00013285	0.00012058	3.8377e-05	990.64	1.3765e-06	1.3353e-06	1083.9	210.93	1.3698e-06	1.3255e-06	267.4	76.279	59.327	17.81	1.5613e-06	24.994	296.670	234.012	256.268	155.489	293.291	322.547	155.323	162.911	290.555	230.273	162.162	169.460	169.905	177.056	332.028	176.499	-8191	255	
11077.030	1	1	0	0	0.063452	0.25214	0.051685	0.10751	0.017329	0.17191	0.13859	0.2709	0.042665	0.022267	0.040678	0.025122	0.16055	0.20038	0.09401	0.08332	-2.4167	-2.4125	-2.9625	-2.5	-2.5	-3.0521	-2.6417	-2.8563	-2.8563	-2.3792	-3.1021	-2.7896	-2.5646	-3.075	-2.3229	-2.7687	471.227	483.299	370.625	471.671	471.654	184.414	342.999	413.525	343.733	244.905	416.448	406.206	255.595	454.658	398.596	372.855	0.00041367	0.00022497	3.1921e-05	1028.1	5.7064e-06	4.5705e-06	1131.3	217.35	3.0735e-06	1.9184e-06	277.96	79.445	62.019	18.152	4.0659e-06	25.507	0.00012841	0.00012395	3.9356e-05	989.4	1.385e-06	1.3832e-06	1086.7	210.3	1.3453e-06	1.4233e-06	267.59	76.191	59.389	17.912	1.5603e-06	24.875	289.358	178.006	323.342	155.590	248.327	347.008	155.483	162.992	242.969	208.502	162.688	169.343	170.134	176.990	301.784	176.484	-8191	255	
11077.126	1	1	0	0	0.11193	0.21157	0.13616	0.30466	0.1832	0.15231	0.26134	0.035487	0.17043	0.14465	0.11389	0.33646	0.1573	0.08964	0.089928	0.32484	-2.5458	-2.5125	-3.0146	-2.9354	-2.6271	-3.1833	-2.6063	-2.6354	-3.1854	-2.4208	-3.0854	-2.8958	-2.6542	-3.1375	-2.6	-2.7687	410.028	419.232	233.525	168.873	355.400	206.271	430.462	192.326	432.145	275.639	172.329	261.913	490.664	339.377	378.702	486.722	0.00033432	0.00040977	3.9649e-05	1024.5	1.9106e-06	1.4945e-06	1135	218.13	3.6184e-06	1.8787e-06	279.19	79.629	61.693	18.243	3.0913e-06	25.623	0.00012648	0.00013101	3.9037e-05	988.63	1.3497e-06	1.4695e-06	1086	210.41	1.3035e-06	1.5202e-06	267.51	76.349	59.349	17.914	1.5157e-06	24.892	292.258	269.510	502.822	155.751	242.062	218.619	155.452	163.241	292.488	151.187	162.652	169.478	169.560	177.296	411.998	176.398	-8191	255	
11077.222	1	1	0	0	0.33626	0.23307	0.22386	0.30296	0.11446	0.044474	0.40192	0.091906	0.080897	0.1523	0.1884	0.1272	0.24447	0.12649	0.10656	0.12214	-2.6104	-2.2958	-2.9333	-3.0687	-2.5646	-3.1396	-2.9021	-2.7146	-3.0854	-2.5438	-3.0083	-2.8937	-2.5375	-3.0792	-2.825	-2.6396	376.032	271.413	251.904	486.757	363.993	260.726	458.830	353.251	251.132	486.720	205.267	453.716	479.653	188.866	320.797	323.508	0.000415	0.00027414	3.7831e-06	1032	3.3692e-06	2.3939e-06	1137.7	219.22	3.4759e-06	3.2656e-06	279.55	79.426	62.19	18.267	1.7405e-06	25.703	0.00012854	0.00014105	3.7715e-05	990.52	1.3946e-06	1.5683e-06	1086.5	211	1.3799e-06	1.5896e-06	267.54	76.199	59.428	17.953	1.4291e-06	24.94	296.861	278.774	447.485	155.427	285.357	306.822	155.211	162.973	286.196	268.107	162.647	169.320	169.748	176.711	382.298	176.070	-8191	255	
11077.341	1	1	0	0	0.14594	0.19132	0.24449	0.11064	0.33393	0.168	0.16767	0.28906	0.23608	0.1444	0.20207	0.098126	0.15212	0.1467	0.28885	0.20884	-2.9167	-2.4271	-2.8896	-3.1458	-2.4917	-3.15	-2.9208	-2.7	-3.1021	-2.6	-2.8083	-3.2167	-2.2979	-2.9708	-2.9375	-2.5312	150.506	354.521	244.492	481.649	241.337	352.103	427.731	384.887	172.117	304.557	295.864	300.026	283.533	465.224	365.353	425.584	0.00044571	0.00011179	6.7773e-05	1035.1	3.4173e-07	2.4383e-06	1133.6	220.58	3.443e-06	2.7203e-06	280.63	80.152	62.01	18.445	4.2897e-06	25.783	0.00013266	0.00014569	3.535e-05	991.07	1.4515e-06	1.5364e-06	1085.8	211.15	1.4441e-06	1.5124e-06	268.23	76.563	59.594	17.968	1.3715e-06	24.968	295.229	345.304	284.107	155.269	346.057	219.219	155.296	162.850	284.092	203.040	162.188	169.547	169.335	177.381	315.357	175.636	-8191	255	
11077.437	1	1	0	0	0.27299	0.16545	0.22662	0.15745	0.22784	0.28293	0.23047	0.31826	0.21253	0.059431	0.39719	0.040671	0.18055	0.23416	0.15812	0.16208	-2.6208	-2.5729	-2.8917	-3.2292	-2.4375	-3.1896	-3.0938	-2.5354	-3.0979	-2.7521	-2.575	-3.1042	-2.5646	-3.0375	-2.8146	-2.5292	374.644	173.883	320.381	146.204	497.651	315.130	459.778	149.260	230.931	404.488	465.347	410.196	314.351	177.458	384.994	324.013	0.00035596	0.00052293	0.0001184	1033.1	4.1312e-06	2.7383e-06	1136.4	219.97	2.3272e-06	4.6002e-06	280.97	79.921	62.169	18.224	4.1253e-06	25.624	0.00014502	0.0001397	3.5555e-05	992.23	1.5365e-06	1.4843e-06	1086.1	211.48	1.5358e-06	1.4733e-06	268.37	76.587	59.738	17.926	1.3378e-06	24.995	288.853	221.001	259.314	155.218	231.909	275.728	155.384	162.751	372.808	261.748	162.283	169.611	169.718	177.236	303.149	176.119	-8191	255	
11077.509	1	1	0	0	0.11791	0.075127	0.32207	0.17956	0.27968	0.21904	0.24572	0.044239	0.080107	0.13304	0.24462	0.24488	0.20239	0.21922	0.14	0.14566	-2.8375	-2.5354	-2.575	-3.2458	-2.3729	-2.8354	-3.1396	-2.4146	-3.0062	-2.575	-2.4729	-3.0667	-2.5042	-2.8417	-3.0792	-2.4083	256.728	489.241	276.134	388.713	336.548	378.922	463.874	355.583	291.080	474.923	409.490	495.080	491.851	457.288	398.113	421.523	0.000416	0.00021877	8.4933e-05	1034.6	2.5254e-06	1.8646e-06	1137.4	219.3	1.6655e-06	1.6796e-06	278.95	79.707	62.168	18.216	1.4241e-06	25.497	0.00015057	0.0001325	3.4795e-05	991.23	1.5812e-06	1.4384e-06	1086	211.57	1.5576e-06	1.42e-06	267.6	76.465	59.838	17.986	1.3047e-06	24.944	294.398	325.323	227.709	155.508	243.704	231.376	155.257	163.082	298.944	287.532	162.351	169.363	169.633	176.764	345.643	176.174	-8191	255	
11077.605	1	1	0	0	0.18196	0.14169	0.19459	0.27447	0.26167	0.11614	0.18665	0.15166	0.1444	0.099541	0.082743	0.095976	0.21684	0.1193	0.1207	0.28371	-2.5646	-2.5896	-2.3958	-3.2979	-2.4958	-2.7125	-3.1271	-2.5729	-2.9917	-2.7958	-2.4646	-3.0875	-2.3583	-2.6125	-3.1	-2.3625	346.041	274.707	484.655	473.506	387.029	303.339	482.639	146.731	210.108	446.802	436.562	259.152	444.456	263.696	182.512	173.571	0.00035597	0.00017778	0.00015403	1028.5	1.7201e-06	1.3492e-06	1131.6	219.78	4.9378e-06	2.6435e-06	280.46	79.297	61.818	18.326	2.7498e-06	25.694	0.00014921	0.00012522	3.3785e-05	992.08	1.5215e-06	1.3695e-06	1084.8	211.78	1.5274e-06	1.3677e-06	267.74	76.633	59.619	17.907	1.2912e-06	25.129	299.060	460.690	298.668	155.536	207.744	251.650	155.455	163.034	317.585	272.368	162.355	169.669	170.190	177.418	296.792	176.008	-8191	255	
11077.726	1	1	0	0	0.33987	0.12041	0.11713	0.10125	0.19699	0.15485	0.23916	0.095081	0.22807	0.26267	0.18338	0.19049	0.098743	0.25012	0.068708	0.3461	-2.55	-3.0312	-2.4437	-3.2646	-2.6937	-2.6479	-3.3917	-2.3083	-3.0333	-3.0042	-2.4625	-3.0729	-2.7938	-2.5938	-3.0083	-2.4896	219.249	462.067	146.221	472.569	473.395	192.721	415.114	221.786	441.245	386.784	432.207	503.881	406.524	445.096	263.936	170.742	0.00047291	0.00023863	2.9643e-05	1030.1	2.8152e-06	3.7989e-06	1136.3	220.88	2.8059e-06	3.9213e-06	277.66	79.864	62.248	18.272	1.4487e-06	25.733	0.00014335	0.00012347	3.3385e-05	991.99	1.4604e-06	1.3332e-06	1086.5	212.28	1.4598e-06	1.2935e-06	267.21	76.601	59.581	17.825	1.3705e-06	25.016	294.371	181.498	196.143	155.426	275.197	382.273	155.401	163.252	328.230	266.383	162.461	169.486	169.790	177.329	335.855	175.969	-8191	255	
11077.822	1	1	0	0	0.16248	0.046909	0.11399	0.14492	0.21431	0.20976	0.28479	0.16047	0.096112	0.11108	0.12138	0.16964	0.16501	0.11608	0.088966	0.038286	-2.4521	-2.8271	-2.3312	-3.1375	-2.6729	-2.7104	-3.3125	-2.6729	-2.7833	-2.8792	-2.4833	-3.0208	-2.8063	-2.5312	-2.9917	-2.7313	312.705	325.446	326.581	473.281	184.214	198.272	465.523	466.288	315.122	251.969	329.326	496.156	421.901	329.054	408.117	496.803	0.00037796	3.8019e-05	0.00012365	1026.9	4.0234e-06	1.9046e-06	1128.1	220.07	3.2034e-06	1.4489e-06	278.71	79.63	61.551	18.217	5.2668e-06	25.271	0.00013969	0.00012171	3.6021e-05	990.94	1.4127e-06	1.317e-06	1083.9	211.75	1.4107e-06	1.3186e-06	267.74	76.634	59.393	17.845	1.4421e-06	24.924	298.457	185.596	181.999	155.362	300.810	352.589	155.419	163.357	283.530	154.828	162.551	169.600	169.879	176.945	339.395	176.631	-8191	255	
11077.918	1	1	0	0	0.019905	0.16626	0.040678	0.096833	0.205	0.052065	0.33863	0.097848	0.046854	0.084576	0.26464	0.21067	0.23352	0.029671	0.058315	0.12443	-2.2438	-3.1063	-2.5521	-3.0375	-2.9521	-2.5896	-3.2646	-2.8271	-3.0146	-3.1396	-2.3667	-2.8896	-2.9479	-2.3812	-3.0271	-2.7208	178.299	185.265	307.127	427.263	275.939	458.464	473.424	482.897	152.432	422.369	424.289	487.530	180.035	484.505	293.342	450.202	0.00041908	0.00053446	6.5261e-05	1023.9	3.2682e-06	2.6113e-06	1120.5	218.51	4.1943e-06	9.6089e-07	277.09	79.078	61.659	18.184	2.9463e-06	25.531	0.00013433	0.00011738	3.7398e-05	989.03	1.3771e-06	1.3018e-06	1083.9	211.26	1.4066e-06	1.3097e-06	268.18	76.381	59.386	17.865	1.5368e-06	24.95	294.836	246.811	218.823	155.729	231.717	187.018	155.496	163.426	282.016	240.111	162.663	169.400	170.121	177.727	223.829	176.187	-8191	255	
11078.014	1	1	0	0	0.21071	0.03076	0.40122	0.24647	0.15449	0.27078	0.35464	0.56851	0.093622	0.22764	0.12102	0.1722	0.13237	0.030796	0.22111	0.17187	-2.0458	-3.0604	-2.3479	-2.9521	-2.825	-2.6312	-3.3021	-2.6833	-2.5062	-2.9771	-2.5833	-2.9062	-2.825	-2.3208	-3.0479	-2.7062	298.042	243.700	277.352	411.754	210.119	254.918	448.768	431.094	348.406	307.245	366.563	234.039	203.838	298.931	477.939	179.111	0.00038228	0.00035437	7.1674e-05	1021.2	2.1987e-06	2.8131e-06	1128.9	217.66	3.3189e-06	3.6093e-06	276.49	79.265	62.007	18.167	4.3478e-06	25.677	0.00013264	0.00012073	3.9332e-05	988.42	1.3278e-06	1.3653e-06	1085.1	211.07	1.3487e-06	1.3966e-06	267.3	76.432	59.421	17.847	1.5724e-06	24.945	295.084	222.230	258.515	155.319	265.034	280.656	155.484	163.403	310.563	276.919	162.356	169.376	170.069	177.425	373.517	176.084	-8191	255	
11078.110	1	1	0	0	0.21533	0.096551	0.27204	0.20351	0.27251	0.0718	0.23676	0.21482	0.38468	0.20934	0.15374	0.22107	0.081348	0.22596	0.21868	0.04694	-2.1583	-3.1562	-2.4958	-2.9333	-2.9125	-2.3333	-3.0812	-3.0417	-2.4417	-3.0854	-2.5271	-2.8229	-3	-2.3479	-3.0167	-2.9146	482.437	370.669	495.139	306.549	478.051	208.400	400.115	418.981	343.174	450.074	156.671	499.764	505.491	402.712	501.383	249.618	0.0003779	0.00036908	9.7066e-05	1024.8	4.5401e-06	2.3507e-06	1129.5	219.6	4.0248e-06	2.516e-06	277.41	79.108	61.369	18.118	2.3515e-06	25.651	0.000129	0.00012971	3.9097e-05	989.3	1.326e-06	1.4278e-06	1086.5	211.3	1.3404e-06	1.4938e-06	267.4	76.241	59.257	17.882	1.486e-06	24.894	297.145	200.804	272.020	155.721	285.356	254.672	155.138	163.492	363.280	202.951	162.798	169.215	170.296	177.302	252.719	176.588	-8191	255	
11078.206	1	1	0	0	0.092375	0.019951	0.11945	0.038524	0.057624	0.26706	0.070211	0.33374	0.19757	0.17051	0.059369	0.27533	0.11193	0.044202	0.32847	0.070056	-2.05	-3.3125	-2.7	-2.9333	-3.1104	-2.4083	-2.9292	-2.8646	-2.4271	-3.1646	-2.5896	-2.5167	-2.9771	-2.4062	-2.8458	-2.9771	482.357	415.753	383.643	452.543	186.890	345.211	488.649	464.196	305.247	500.225	496.665	416.338	320.170	304.674	334.557	357.208	0.00042224	0.00024137	7.893e-05	1023.8	3.3121e-06	1.0781e-06	1130.5	219.95	4.7581e-06	2.3517e-06	279.72	79.22	62.099	18.388	1.6764e-06	25.783	0.00012801	0.00014137	3.7082e-05	988.94	1.3332e-06	1.5379e-06	1083.4	211.35	1.3709e-06	1.5549e-06	268.03	76.094	59.627	17.944	1.4353e-06	24.911	289.405	276.620	287.750	155.461	283.115	402.068	155.270	163.219	336.763	311.625	162.716	169.052	170.016	176.890	404.948	175.700	-8191	255	
11078.302	1	1	0	0	0.24274	0.097188	0.17948	0.21737	0.087903	0.2143	0.15663	0.10976	0.30062	0.070471	0.072229	0.077922	0.25256	0.092484	0.12177	0.27932	-1.9208	-3.0021	-2.675	-2.8104	-3.0875	-2.7167	-2.9417	-3.0083	-2.5146	-2.9604	-2.7521	-2.5646	-3.2188	-2.7042	-2.6375	-3.0417	187.628	467.508	349.554	406.055	431.365	209.574	434.084	244.298	206.157	409.070	378.491	196.176	502.482	436.323	157.982	398.102	0.00031259	0.00031302	7.7267e-05	1027.1	4.5558e-06	3.3286e-06	1129.3	219.85	1.0486e-06	2.5393e-06	280.21	79.107	61.355	18.055	4.0867e-06	25.7	0.00013316	0.00014283	3.5865e-05	988.41	1.4002e-06	1.5593e-06	1084.9	210.87	1.421e-06	1.5562e-06	267.79	76.405	59.387	17.869	1.387e-06	24.856	291.378	206.386	297.011	155.246	296.106	362.189	155.575	163.451	487.035	266.433	162.645	169.825	169.970	176.969	338.940	176.323	-8191	255	
11078.421	1	1	0	0	0.28725	0.25145	0.056572	0.045204	0.22039	0.041753	0.24377	0.17989	0.038307	0.35857	0.03908	0.11275	0.18424	0.2939	0.11465	0.23278	-1.6854	-2.9604	-2.8438	-2.4646	-3.1333	-2.75	-2.6688	-3.1312	-2.2708	-3.0479	-2.9292	-2.5312	-3.1063	-2.5812	-2.6688	-3.2229	503.100	467.162	438.735	151.266	478.122	312.604	492.271	302.485	159.231	424.373	167.852	338.193	169.468	290.658	488.253	217.662	0.0003912	6.1628e-05	1.9392e-05	1024.6	1.1739e-06	3.8393e-06	1129.4	218.02	2.2957e-06	1.4005e-06	278.79	79.746	61.517	18.285	3.8745e-06	25.388	0.00014254	0.0001388	3.5548e-05	988.22	1.5216e-06	1.5057e-06	1083.6	210.54	1.543e-06	1.4951e-06	267.81	76.305	59.559	17.927	1.3538e-06	24.89	289.106	170.274	480.165	155.584	355.095	310.673	155.571	163.015	277.318	495.123	162.546	169.315	169.707	177.684	209.238	176.185	-8191	255	
11078.517	1	1	0	0	0.1333	0.14059	0.10715	0.20293	0.19884	0.1799	0.0604	0.092081	0.06157	0.13971	0.097237	0.065421	0.14436	0.2203	0.13112	0.063541	-2.0521	-2.9083	-3.0521	-2.675	-3.1479	-2.6	-2.6917	-3.1146	-2.5646	-2.7604	-3.0604	-2.5146	-2.9896	-2.65	-2.6146	-3.1167	299.956	318.456	179.646	475.021	286.001	459.539	458.650	402.546	233.370	489.925	463.964	435.136	440.637	487.938	392.034	456.103	0.00039271	0.00049852	8.55e-05	1025	2.692e-06	2.2669e-06	1128	219.87	5.2073e-06	8.1525e-07	278.47	79.372	61.734	18.201	1.2736e-06	25.736	0.00014903	0.00013236	3.4106e-05	986.63	1.5701e-06	1.414e-06	1082.9	210.98	1.6019e-06	1.434e-06	266.69	76.232	59.509	17.85	1.3129e-06	24.943	285.240	262.030	241.467	155.278	233.791	319.953	155.309	163.087	339.598	326.724	162.714	169.377	169.672	177.030	300.570	176.083	-8191	255	
11078.614	1	1	0	0	0.16616	0.26602	0.056248	0.21069	0.10466	0.22546	0.20018	0.095727	0.10286	0.11281	0.18244	0.11287	0.07778	0.077194	0.34338	0.11898	-2.1979	-2.7729	-3.0292	-2.6583	-3.0687	-2.9979	-2.7417	-3.2729	-2.5458	-2.6896	-3.1083	-2.4646	-2.7917	-2.8229	-2.2417	-3.0729	222.934	338.810	290.821	490.210	212.918	376.148	471.063	342.575	222.567	164.155	431.748	208.224	459.299	460.529	259.366	327.414	0.00039482	0.00021804	7.8381e-05	1029.6	5.0676e-06	1.8743e-06	1133.6	219.49	5.1894e-06	1.9989e-06	277.8	79.427	62.105	18.346	3.8031e-06	25.297	0.00014693	0.00012772	3.2848e-05	988.32	1.5472e-06	1.3985e-06	1083.2	211.57	1.553e-06	1.4088e-06	266.9	76.529	59.643	17.844	1.3327e-06	24.882	297.277	232.653	237.055	155.285	268.086	323.226	155.394	163.059	321.518	289.172	162.730	168.945	170.178	176.956	313.084	176.395	-8191	255	
11078.710	1	1	0	0	0.02647	0.081917	0.16039	0.31058	0.19915	0.11214	0.14506	0.068011	0.078549	0.25632	0.13706	0.1127	0.14443	0.23059	0.12732	0.27408	-2.1229	-2.7771	-3.0229	-2.5354	-2.9042	-2.8292	-2.6646	-3.175	-2.6083	-2.5563	-3.1521	-2.4646	-2.8521	-2.8708	-2.6271	-3.2313	233.398	325.950	365.008	462.678	295.624	456.677	371.257	245.728	370.159	270.484	376.729	453.840	348.711	352.943	159.474	359.769	0.00045469	0.00019112	8.4302e-05	1026.7	4.7529e-06	3.4678e-07	1128	218.6	1.8869e-06	3.5054e-06	278.64	79.826	62.21	18.156	6.0057e-06	25.593	0.00014299	0.00012589	3.3286e-05	989.05	1.5119e-06	1.342e-06	1083	211.52	1.4937e-06	1.3502e-06	266.91	76.58	59.583	17.777	1.367e-06	25.034	282.670	188.473	249.774	155.260	305.342	166.637	155.503	163.164	323.562	254.687	162.632	169.318	169.889	177.526	324.001	176.000	-8191	255	
11078.804	1	1	0	0	0.37206	0.19093	0.1339	0.22972	0.17765	0.12549	0.16828	0.11315	0.037706	0.2985	0.23226	0.22923	0.12066	0.27118	0.078401	0.099943	-2.2021	-2.4083	-3.0542	-2.5729	-2.7375	-3.0729	-2.5479	-3.0438	-2.6854	-2.3833	-3.0646	-2.4625	-2.7625	-2.9604	-2.3125	-3.0771	295.727	387.885	230.389	444.248	219.545	481.144	166.661	392.968	225.195	268.946	188.719	484.578	280.887	423.290	361.997	215.844	0.00038721	0.00027525	0.00013751	1025.6	2.4071e-06	4.6404e-06	1131	218.39	2.7145e-06	1.3344e-06	280.32	78.888	61.353	18.156	7.1167e-06	25.507	0.00013767	0.00012265	3.4587e-05	986.99	1.4804e-06	1.3098e-06	1081.1	211.54	1.4336e-06	1.3029e-06	267.47	76.137	59.348	17.763	1.473e-06	24.927	292.722	493.667	211.890	155.401	323.424	336.118	155.215	163.154	276.351	346.710	162.555	169.227	169.506	177.068	282.708	176.630	-8191	255	
11078.900	1	1	0	0	0.09435	0.034543	0.18548	0.27143	0.11278	0.14565	0.074051	0.2409	0.14618	0.14788	0.059708	0.14496	0.14176	0.12571	0.14322	0.1395	-2.4083	-2.5208	-3.1792	-2.5917	-2.6833	-3.0083	-2.4292	-2.925	-2.7875	-2.3708	-3.1979	-2.5333	-2.5708	-2.9146	-2.4396	-2.8729	371.664	452.496	314.178	411.722	207.158	160.965	154.159	439.011	182.857	249.787	498.585	443.729	160.895	160.865	314.300	474.038	0.00040649	0.00018282	7.5705e-05	1020.1	3.8489e-06	6.0013e-06	1127.2	219.64	4.4905e-06	2.7926e-06	277.95	79.356	61.499	18.034	4.2931e-06	25.46	0.00013398	0.00012047	3.7541e-05	985.17	1.3999e-06	1.3022e-06	1081	211.35	1.3929e-06	1.3096e-06	267.22	76.235	59.119	17.775	1.5211e-06	24.907	296.596	217.644	234.699	155.306	294.966	334.765	155.120	162.954	316.525	262.995	162.758	169.637	169.673	177.246	257.591	176.215	-8191	255	
11079.021	1	1	0	0	0.16754	0.25178	0.078112	0.13516	0.27405	0.2433	0.13784	0.19351	0.13072	0.049484	0.19144	0.29565	0.14438	0.20818	0.22366	0.074412	-2.5271	-2.6042	-3.1188	-2.7021	-2.7188	-3.0687	-2.6208	-2.8167	-2.7938	-2.3792	-3.1896	-2.6188	-2.4792	-3.0479	-2.3812	-2.7708	396.628	441.855	426.707	361.573	353.901	365.161	462.202	446.558	192.782	423.960	461.357	149.728	504.807	459.269	147.812	281.518	0.00039112	0.00023027	0.00012016	1027.9	2.2082e-06	1.6332e-06	1124.6	218.8	2.8744e-06	1.7639e-06	277.47	78.801	61.501	18.23	3.015e-06	25.618	0.00012832	0.00012163	3.8857e-05	986.36	1.3728e-06	1.3044e-06	1079.7	210.68	1.3145e-06	1.3533e-06	267.49	76.054	59.267	17.804	1.5416e-06	24.803	291.532	219.108	216.585	155.371	263.877	339.186	155.488	163.071	264.156	314.528	162.339	169.306	169.887	177.114	368.264	175.986	-8191	255	
11079.117	1	1	0	0	0.15427	0.12667	0.035207	0.06512	0.31472	0.088976	0.13025	0.18189	0.026476	0.075379	0.15666	0.18167	0.0719	0.21271	0.17639	0.1281	-2.7292	-2.4292	-2.8771	-2.825	-2.4625	-3.0896	-2.7125	-2.7687	-3.0583	-2.4042	-3.075	-2.8667	-2.4688	-3.1021	-2.525	-2.7208	454.362	389.191	433.776	233.912	295.152	245.370	441.021	297.646	262.029	314.850	433.312	168.993	347.327	220.374	159.559	365.799	0.00033358	0.00027683	8.7128e-05	1022.9	2.5e-06	2.6938e-06	1129.3	218.95	5.2503e-06	2.833e-06	278.38	79.625	61.903	18.295	1.3251e-06	25.675	0.00012729	0.00012863	3.8314e-05	984.3	1.3125e-06	1.4322e-06	1080.1	210.72	1.3009e-06	1.4719e-06	267.34	76.176	59.202	17.841	1.4928e-06	24.848	292.649	301.675	258.070	155.526	259.479	242.399	155.619	162.988	288.084	277.527	162.378	169.175	169.661	176.401	364.491	175.643	-8191	255	
11079.213	1	1	0	0	0.14017	0.087158	0.079743	0.50916	0.20475	0.18367	0.15547	0.062793	0.10302	0.1969	0.38917	0.21981	0.28554	0.16103	0.10476	0.056415	-2.7125	-2.4625	-2.7729	-2.8667	-2.5917	-3.0958	-2.7938	-2.6375	-3.0625	-2.4896	-2.8479	-2.7458	-2.5375	-3.1312	-2.6917	-2.6125	294.596	357.999	199.991	437.014	319.579	211.924	486.620	292.166	473.826	414.621	471.159	353.829	419.740	482.962	192.910	424.865	0.0004482	0.00074281	3.3517e-05	1022.3	3.4723e-06	2.2914e-06	1129	219.61	2.3223e-06	3.8803e-06	280.37	78.956	61.495	18.203	3.6818e-06	25.446	0.00012451	0.00013522	3.6924e-05	983.2	1.3288e-06	1.477e-06	1080.3	211.02	1.3034e-06	1.4894e-06	267.29	76.096	59.057	17.877	1.3817e-06	24.784	291.330	199.788	261.781	155.270	293.756	397.546	155.026	162.502	394.029	253.238	162.359	168.937	169.648	176.942	297.176	176.120	-8191	255	
11079.309	1	1	0	0	0.14644	0.12765	0.18507	0.2066	0.12999	0.061717	0.16413	0.043261	0.085628	0.19928	0.10331	0.067946	0.20106	0.1838	0.11269	0.2299	-2.6417	-2.5375	-2.7708	-3.0917	-2.3458	-2.9792	-2.9646	-2.65	-3.2375	-2.6104	-2.8333	-3.0271	-2.4542	-2.8208	-2.6063	-2.5375	351.611	477.330	162.913	219.057	237.113	244.052	475.279	471.158	471.668	154.591	300.902	396.034	161.946	399.692	465.389	382.137	0.00035619	0.00014254	3.5645e-05	1026.4	1.8656e-06	1.1854e-06	1127.8	220.08	2.1934e-06	2.6041e-06	278.31	79.496	61.561	18.223	2.8345e-06	25.706	0.00012676	0.00013645	3.4818e-05	982.34	1.357e-06	1.496e-06	1079.6	210.55	1.3533e-06	1.497e-06	266.92	76.164	59.135	17.827	1.3308e-06	24.842	285.354	333.235	206.827	155.114	238.146	338.529	155.055	162.951	313.291	193.737	162.606	169.647	169.592	176.984	311.607	176.242	-8191	255	
11079.406	1	1	0	0	0.245	0.14837	0.014872	0.23492	0.19761	0.22382	0.40409	0.079553	0.17596	0.13718	0.052604	0.29051	0.13947	0.18983	0.24811	0.10106	-2.7604	-2.4646	-2.7083	-2.8604	-2.3458	-2.9583	-3.1021	-2.5396	-3.2438	-2.4292	-2.6833	-3.1667	-2.4042	-2.8833	-2.8646	-2.4396	347.986	196.376	190.756	406.177	322.040	487.123	446.787	477.862	241.741	337.939	502.355	402.477	230.634	393.312	207.359	496.157	0.0003667	0.00037995	0.00010075	1026	4.1467e-06	2.0724e-06	1131.2	219.61	3.5628e-06	1.2223e-06	278.8	79.477	61.139	18.122	3.4111e-06	25.552	0.00013596	0.00013439	3.3546e-05	982.45	1.473e-06	1.465e-06	1078.1	210.27	1.4722e-06	1.421e-06	266.67	76.029	59.123	17.794	1.3047e-06	24.73	284.636	246.684	187.419	155.292	239.138	271.845	155.004	162.839	318.779	152.604	162.185	169.172	169.690	176.593	285.599	175.700	-8191	255	
11079.502	1	1	0	0	0.14666	0.091721	0.37245	0.15719	0.10696	0.14629	0.24743	0.39689	0.09201	0.1461	0.37532	0.1808	0.24811	0.20949	0.07569	0.21474	-2.5604	-2.5146	-2.5979	-3.2917	-2.3521	-2.9896	-3.1479	-2.4146	-2.9062	-2.6188	-2.6667	-3.0396	-2.5187	-2.8979	-2.7604	-2.5458	327.158	168.587	386.223	449.265	425.916	259.030	443.539	457.896	324.347	219.401	464.682	370.003	430.832	462.096	329.792	394.547	0.00045509	0.00011492	1.2943e-05	1026.8	1.4897e-06	2.5072e-06	1125.6	218.13	3.6161e-06	3.158e-06	278.52	79.338	61.48	18.223	2.9161e-06	25.804	0.0001401	0.00013046	3.3006e-05	983.99	1.5285e-06	1.418e-06	1076.1	210.56	1.514e-06	1.3638e-06	265.68	75.936	59.224	17.777	1.2646e-06	24.733	298.565	375.976	146.820	155.318	166.573	318.401	155.188	162.986	333.292	284.024	162.078	168.997	170.017	177.173	307.337	175.569	-8191	255	
11079.598	1	1	0	0	0.10374	0.16405	0.16813	0.11753	0.24019	0.12681	0.15031	0.14204	0.056155	0.14153	0.17364	0.096655	0.12107	0.066665	0.15077	0.077493	-2.6417	-2.6979	-2.6437	-3.1667	-2.6292	-2.6562	-3.1375	-2.4417	-3.0187	-2.8521	-2.6312	-3.2229	-2.6708	-2.7042	-3.1375	-2.3792	424.220	420.538	279.892	455.622	473.116	426.461	428.892	349.612	176.850	471.495	219.912	208.726	174.178	464.124	251.162	232.670	0.00047489	0.00021322	5.2754e-05	1027.2	2.223e-06	1.6209e-06	1125.2	218.05	3.1927e-06	3.7286e-06	280.26	79.089	61.547	18.231	1.1162e-06	25.46	0.00014512	0.0001227	3.1839e-05	982.61	1.5194e-06	1.3547e-06	1076.2	210.17	1.4757e-06	1.3154e-06	266.37	75.859	59.13	17.781	1.254e-06	24.769	293.666	289.135	196.468	155.062	351.669	373.475	155.177	162.734	286.332	290.928	162.053	169.055	169.537	177.101	242.475	175.705	-8191	255	
11079.694	1	1	0	0	0.11899	0.2753	0.23004	0.15372	0.13929	0.18648	0.25709	0.15678	0.077197	0.033322	0.069059	0.14184	0.14424	0.17093	0.27569	0.23758	-2.6979	-2.9479	-2.425	-3.2521	-2.7687	-2.7521	-3.2562	-2.5729	-2.9688	-2.9625	-2.4292	-3.0792	-2.7104	-2.6292	-3.1521	-2.6458	263.106	359.230	215.329	429.161	368.345	469.927	408.144	495.478	243.390	339.028	399.318	279.321	167.821	339.390	504.379	467.995	0.00038569	0.00039122	0.00011673	1022.5	3.8566e-06	3.4678e-06	1117.8	217.24	3.8761e-06	2.6087e-06	278.02	79.505	61.398	18.205	4.4862e-06	25.546	0.00013946	0.00012228	3.2173e-05	982.21	1.4526e-06	1.3103e-06	1074	210.08	1.4084e-06	1.3094e-06	265.57	76.048	59.128	17.752	1.3206e-06	24.873	296.862	265.872	275.905	155.052	278.141	344.250	155.201	162.944	289.924	320.832	162.234	169.178	169.761	177.020	220.862	176.423	-8191	255	
11079.813	1	1	0	0	0.12199	0.078466	0.16853	0.28574	0.1544	0.11352	0.19971	0.025848	0.03594	0.34615	0.087668	0.10672	0.061529	0.077347	0.18507	0.1078	-2.3521	-3.1063	-2.1437	-3.1375	-2.6146	-2.4313	-3.2146	-2.5312	-2.8708	-2.9729	-2.5375	-3.1063	-2.6042	-2.6667	-3.3229	-2.4958	335.147	194.726	276.111	448.633	257.003	151.882	206.255	151.378	259.274	172.783	189.919	314.797	285.896	308.628	283.348	457.398	0.00047775	0.00017431	5.3248e-05	1021.5	3.9991e-06	2.117e-06	1127.5	219.04	3.2094e-06	2.7025e-06	276.42	79.514	61.406	18.28	5.3048e-06	25.722	0.00013543	0.00011859	3.3321e-05	981.44	1.4003e-06	1.3053e-06	1075.7	210.44	1.385e-06	1.2727e-06	265.66	76.116	58.82	17.768	1.3834e-06	24.9	285.017	362.935	236.265	155.170	298.587	308.360	155.105	163.136	345.296	261.741	162.303	169.065	169.634	177.078	311.422	175.818	-8191	255	
11079.909	1	1	0	0	0.071797	0.19078	0.056517	0.3423	0.22411	0.075391	0.21469	0.32241	0.1617	0.056212	0.25696	0.085493	0.060221	0.070112	0.037085	0.10962	-2.3729	-3.1042	-2.5167	-3.0667	-2.7938	-2.4021	-3.4125	-2.7062	-2.6937	-3.1437	-2.3042	-2.8917	-2.9729	-2.3937	-2.975	-2.5896	323.798	284.909	285.068	500.688	310.414	351.438	410.132	424.219	335.436	213.205	296.807	200.682	360.341	365.375	237.941	396.796	0.00039039	0.00027686	7.9951e-05	1022.3	1.7794e-06	2.474e-06	1124	218.17	5.0964e-06	1.9912e-06	277.43	79.516	61.705	18.485	5.2052e-06	25.619	0.00012954	0.00011494	3.5664e-05	982.15	1.3384e-06	1.2764e-06	1076	210.13	1.36e-06	1.2603e-06	266.01	76.056	59.078	17.761	1.4686e-06	24.865	290.179	241.955	263.453	155.067	295.872	288.692	155.238	162.787	316.100	328.308	162.417	169.444	170.144	176.985	293.384	176.300	-8191	255	
11079.982	1	1	0	0	0.19844	0.075051	0.11967	0.2712	0.38842	0.024023	0.016266	0.20715	0.12738	0.10732	0.21711	0.063926	0.16812	0.025176	0.095634	0.097326	-2.325	-3.0021	-2.3708	-3.1208	-2.9667	-2.4188	-3.3708	-2.7479	-2.5333	-2.9625	-2.5833	-2.8958	-3.0979	-2.3917	-3.0979	-2.8917	493.016	441.456	416.836	464.027	260.128	268.312	460.687	197.670	347.241	453.333	412.734	145.954	415.474	480.183	424.106	485.685	0.00040982	0.00025337	0.000138	1025.3	9.2323e-07	6.5468e-06	1121.7	219.01	5.6516e-06	3.4314e-06	279.91	79.364	61.751	18.159	2.3568e-06	25.626	0.00012581	0.00011517	3.6871e-05	982.99	1.3286e-06	1.3016e-06	1075.6	210.32	1.3197e-06	1.289e-06	267.13	75.999	59.04	17.763	1.5139e-06	24.816	288.715	258.049	231.451	155.266	418.346	302.837	155.651	162.977	311.647	261.606	162.537	169.362	169.921	177.089	384.221	175.991	-8191	255	
11080.101	1	1	0	0	0.033935	0.13161	0.23179	0.051334	0.11684	0.29867	0.016706	0.20577	0.088755	0.054579	0.36683	0.15465	0.071225	0.031276	0.047305	0.15141	-2.1417	-2.9729	-2.4125	-2.8479	-2.9562	-2.4958	-3.075	-2.6042	-2.4333	-3.0229	-2.4458	-2.7417	-2.9458	-2.2729	-2.8771	-2.8604	200.846	163.838	419.709	221.986	230.313	479.191	438.780	187.277	283.948	285.995	413.789	426.752	300.294	354.108	341.577	378.799	0.00031484	0.00044532	9.4357e-05	1023.1	3.569e-06	3.9614e-06	1121.8	218.48	1.9796e-06	4.6956e-06	276.8	78.975	62.004	18.213	4.3442e-06	25.656	0.00012479	0.00012209	3.8796e-05	981.22	1.2763e-06	1.3964e-06	1076.3	209.69	1.2942e-06	1.4286e-06	266.08	75.859	59.141	17.785	1.4717e-06	24.763	300.903	195.138	263.163	155.508	277.933	275.616	155.284	163.102	306.214	234.722	162.282	169.425	169.783	177.131	311.608	176.120	-8191	255	
11080.197	1	1	0	0	0.10664	0.13745	0.059598	0.23361	0.13207	0.20865	0.09285	0.066945	0.075019	0.15044	0.16685	0.17696	0.028304	0.10136	0.074089	0.056854	-1.9479	-2.9854	-2.3833	-2.7417	-2.9979	-2.3187	-3.0187	-2.8146	-2.475	-2.9333	-2.7583	-2.6792	-3.0583	-2.3292	-2.8542	-2.9479	466.638	249.527	235.323	453.803	206.557	338.816	376.703	197.270	182.563	457.991	190.329	453.332	262.842	176.068	283.759	275.458	0.00036387	0.00036733	0.00013479	1018.6	4.2881e-06	3.3949e-06	1125.6	218.65	2.9725e-06	4.8493e-07	275.69	78.679	61.186	18.056	4.1695e-06	25.384	0.00012637	0.00013297	3.661e-05	982.16	1.2617e-06	1.4617e-06	1076.6	209.87	1.2907e-06	1.4872e-06	265.83	75.897	59.111	17.814	1.4132e-06	24.743	283.658	285.580	240.567	155.231	251.721	229.340	155.353	163.091	278.006	431.159	162.538	169.452	169.962	177.266	416.769	176.537	-8191	255	
11080.294	1	1	0	0	0.11274	0.14313	0.02906	0.3008	0.042602	0.19957	0.19447	0.23583	0.10846	0.067705	0.31429	0.18056	0.20491	0.34449	0.060257	0.14702	-1.9917	-3.0333	-2.6896	-2.6771	-3.0896	-2.3875	-3.0979	-3.0854	-2.3854	-2.9917	-2.7125	-2.5729	-3.1042	-2.4313	-2.8146	-2.9417	245.103	423.676	412.667	470.937	444.302	151.816	466.856	290.726	228.249	284.543	163.092	455.986	208.330	437.436	274.683	319.308	0.00033763	0.00070751	5.1821e-05	1021	1.0216e-06	3.2376e-06	1118.6	219.04	4.1388e-06	2.9701e-06	277.67	78.859	61.078	18.047	6.5943e-07	25.391	0.00012653	0.00013741	3.4943e-05	981.69	1.3543e-06	1.5192e-06	1074.7	210.11	1.36e-06	1.5171e-06	266.46	75.779	59.03	17.808	1.3683e-06	24.696	283.011	281.096	284.702	155.543	251.442	286.929	155.460	163.245	285.531	293.412	162.522	169.458	170.366	177.131	304.149	176.080	-8191	255	
11080.414	1	1	0	0	0.036688	0.094304	0.11895	0.39912	0.07256	0.10208	0.15607	0.31169	0.070123	0.1668	0.15262	0.072612	0.17435	0.11203	0.11918	0.28536	-1.9979	-2.8479	-2.7687	-2.4521	-3.0042	-2.6083	-2.7625	-2.9167	-2.3688	-2.9167	-3.0062	-2.4333	-3.1625	-2.5438	-2.7062	-3.0375	216.727	400.414	478.967	467.240	410.349	262.423	464.781	156.506	149.382	243.862	366.009	163.939	492.143	478.223	199.363	223.732	0.00041244	0.00028183	0.00012875	1015.1	4.3425e-06	2.06e-06	1124.9	217.4	9.7512e-06	1.6414e-06	276.15	78.289	61.267	17.948	4.5655e-06	25.297	0.00013511	0.00013651	3.3714e-05	978.68	1.4517e-06	1.4505e-06	1076	209.89	1.4519e-06	1.4237e-06	266.11	75.758	59.144	17.787	1.3185e-06	24.694	287.033	214.804	201.143	155.585	270.113	362.873	155.336	163.208	331.507	399.359	162.504	169.241	170.219	177.350	320.995	176.116	-8191	255	
11080.510	1	1	0	0	0.029444	0.23785	0.067479	0.2074	0.37706	0.12733	0.081916	0.08622	0.056632	0.10889	0.28792	0.43875	0.29989	0.33437	0.039226	0.021208	-2.1854	-2.9083	-2.8688	-2.6208	-2.9417	-2.7146	-2.5667	-3.0104	-2.3042	-2.9292	-2.9333	-2.4208	-2.9688	-2.6604	-2.4938	-3.1688	338.731	359.027	473.292	423.744	229.739	216.098	487.341	355.115	343.878	173.108	462.495	439.425	393.338	439.295	233.576	451.290	0.00037641	0.00047349	4.0058e-05	1015.9	2.1846e-06	4.0931e-06	1114	217.42	2.8426e-06	8.6351e-07	277.5	78.359	61.005	18.072	9.7757e-07	25.545	0.00014476	0.00013039	3.3228e-05	978.57	1.4898e-06	1.426e-06	1072.6	209.75	1.5229e-06	1.397e-06	266.03	75.891	59.229	17.775	1.3028e-06	24.862	289.273	270.518	195.024	155.546	245.927	219.957	155.417	163.311	333.930	209.421	163.003	169.276	169.849	177.031	406.168	176.534	-8191	255	
11080.605	1	1	0	0	0.36115	0.23168	0.27506	0.18828	0.15007	0.092227	0.16747	0.10993	0.17276	0.21991	0.19648	0.15064	0.31227	0.15507	0.076362	0.070408	-2.1708	-2.7083	-2.9854	-2.5042	-3.0187	-2.7313	-2.6875	-3.1417	-2.3854	-2.85	-3.2208	-2.4813	-2.9146	-2.8354	-2.4917	-2.975	442.958	332.277	189.728	485.650	469.906	463.268	464.600	473.303	409.971	192.294	426.422	354.604	171.366	472.213	161.569	348.094	0.00037108	0.0001282	0.00012268	1016.8	1.7342e-06	1.3891e-06	1121.6	218.48	5.4636e-06	2.6987e-06	277.15	78.726	61.03	18.186	4.3689e-06	25.489	0.00014743	0.00012588	3.2503e-05	980.05	1.5528e-06	1.3593e-06	1075.3	210.24	1.5208e-06	1.3926e-06	265.88	75.99	59.141	17.743	1.2968e-06	24.815	288.993	463.853	197.769	155.438	354.536	357.554	155.348	163.365	309.042	263.369	162.503	169.528	170.175	177.280	337.030	176.605	-8191	255	
11080.703	1	1	0	0	0.23309	0.19882	0.17236	0.14919	0.12015	0.20826	0.20128	0.23008	0.076817	0.23762	0.20584	0.18361	0.12844	0.18144	0.31523	0.11307	-2.2146	-2.5771	-3	-2.5729	-3.0792	-3.0167	-2.7042	-3.2562	-2.6396	-2.5958	-3.0729	-2.5187	-3.0187	-2.9062	-2.4896	-3.0958	324.478	336.479	156.653	425.812	379.407	480.399	490.102	479.173	327.789	276.413	380.638	287.914	352.335	150.409	207.417	399.662	0.00042177	0.00020514	4.172e-05	1021.4	3.486e-06	1.8693e-06	1121.3	218.2	3.275e-06	2.5958e-06	278.06	79.028	61.631	18.117	9.5779e-07	25.432	0.00014417	0.00012505	3.2041e-05	982.63	1.5005e-06	1.3593e-06	1075.1	210.51	1.4627e-06	1.3417e-06	266.04	76.18	59.162	17.723	1.3494e-06	24.844	292.904	227.108	347.809	155.426	324.243	387.288	155.425	163.117	304.131	350.021	162.732	169.018	169.906	177.301	363.465	175.975	-8191	255	
11080.797	1	1	0	0	0.055427	0.05107	0.16704	0.064921	0.11998	0.29151	0.21963	0.25907	0.1344	0.10436	0.22396	0.19219	0.19952	0.1163	0.22855	0.16558	-2.2062	-2.5271	-3.0812	-2.6125	-2.7896	-2.8625	-2.575	-3.0062	-2.7479	-2.425	-3.2021	-2.5708	-2.8583	-2.9188	-2.5083	-3.1625	218.912	490.499	500.586	299.471	297.656	346.252	416.219	364.592	402.368	381.947	484.620	471.896	149.883	232.170	222.207	245.298	0.00038667	0.00014104	0.00011511	1013.4	3.4868e-06	3.0335e-06	1113.4	217.18	5.0922e-06	6.279e-07	275.23	77.914	61.266	17.964	3.2089e-06	25.419	0.00013922	0.00012315	3.4402e-05	981.14	1.4423e-06	1.2897e-06	1074.8	210.6	1.4114e-06	1.3421e-06	265.9	75.833	58.984	17.685	1.4122e-06	24.888	293.492	298.696	234.390	155.578	279.180	333.378	155.338	163.320	337.971	398.595	162.866	169.801	169.934	177.352	267.641	175.874	-8191	255	
11080.893	1	1	0	0	0.12026	0.023888	0.16512	0.090383	0.30205	0.14322	0.17508	0.10726	0.13092	0.33193	0.17003	0.12483	0.26703	0.084291	0.12858	0.1248	-2.4729	-2.4958	-3.0792	-2.5812	-2.7896	-3.1271	-2.6479	-3.1854	-2.925	-2.65	-3.2667	-2.5083	-2.7354	-3.0167	-2.4188	-2.8604	194.551	469.975	201.766	359.976	328.882	444.137	449.679	145.027	459.193	504.064	355.975	486.761	223.890	478.382	310.564	267.012	0.00038626	0.00030175	5.994e-05	1012.7	6.0303e-06	4.3166e-06	1121.4	217.64	3.4445e-06	2.3022e-06	277.59	79.044	61.727	18.084	3.6868e-06	25.523	0.00013396	0.00012025	3.6893e-05	980.66	1.3951e-06	1.2899e-06	1076.8	210.61	1.3667e-06	1.265e-06	266.96	76.184	59.174	17.715	1.5037e-06	24.876	294.173	193.788	204.208	155.664	280.924	304.929	155.414	162.997	362.946	502.808	162.861	169.350	169.730	177.380	300.901	175.861	-8191	255	
11080.989	1	1	0	0	0.19966	0.42887	0.15297	0.14151	0.1022	0.26791	0.029494	0.13364	0.072707	0.08151	0.20572	0.06549	0.16362	0.25682	0.13176	0.18028	-2.5458	-2.4062	-3.0833	-2.7	-2.6146	-3.0875	-2.6375	-2.9396	-2.8375	-2.375	-3.1437	-2.7167	-2.7812	-3.1688	-2.5458	-2.9313	167.931	300.372	435.490	497.683	411.836	162.540	414.214	454.999	328.114	359.838	324.847	448.353	414.505	448.981	386.476	207.544	0.00039047	0.00053555	4.8572e-05	1026.8	2.8419e-06	1.4476e-06	1122.9	218.16	6.1893e-06	2.684e-06	276.58	78.704	61.263	18.002	3.2512e-06	25.425	0.00013056	0.00012073	3.8448e-05	985.04	1.3461e-06	1.2978e-06	1078.9	210.32	1.3344e-06	1.3298e-06	266.89	75.957	59.03	17.78	1.5354e-06	24.772	291.780	190.654	244.137	155.565	301.821	227.145	155.486	163.294	356.268	233.676	162.818	169.717	170.056	177.560	291.293	175.788	-8191	255	
11081.110	1	1	0	0	0.036538	0.13724	0.19634	0.1533	0.35231	0.25257	0.064	0.10042	0.1675	0.20218	0.19285	0.33311	0.26218	0.073024	0.044646	0.18056	-2.6021	-2.4146	-3.0042	-2.9646	-2.5729	-3.2521	-2.5208	-2.8104	-2.9458	-2.3458	-3.1167	-2.8292	-2.5208	-2.9375	-2.4208	-2.8375	371.207	394.368	302.223	444.848	220.152	149.392	346.067	245.275	438.957	412.274	299.769	477.755	478.511	165.899	193.355	332.666	0.00044745	0.00039188	8.6285e-06	1016.7	4.5535e-06	3.0404e-06	1118.1	217.4	3.0804e-06	7.2274e-07	277.44	79.511	61.764	18.241	2.4319e-06	25.586	0.00012358	0.00012362	3.9011e-05	981.13	1.3069e-06	1.3724e-06	1076.2	210.46	1.2915e-06	1.4029e-06	266.83	76.176	59.192	17.842	1.5176e-06	24.822	298.788	211.631	179.413	155.463	268.169	292.775	155.433	163.221	321.749	215.028	162.634	169.560	170.006	177.158	335.777	176.376	-8191	255	
11081.206	1	1	0	0	0.2582	0.27462	0.21792	0.11372	0.093415	0.44776	0.050071	0.021236	0.23569	0.19369	0.15319	0.32353	0.26183	0.21051	0.081171	0.090176	-2.6813	-2.4042	-2.9979	-2.775	-2.4521	-3.2292	-2.85	-2.7438	-3.1542	-2.5667	-2.9104	-3.0646	-2.4833	-2.9813	-2.6625	-2.65	235.007	225.842	360.925	258.095	382.217	248.917	420.883	494.165	291.726	351.127	251.522	465.049	320.752	177.691	194.509	235.976	0.00039845	0.00040254	6.3084e-05	1017.7	5.848e-06	2.6051e-06	1118.4	219.19	3.0322e-06	1.5967e-06	277.52	78.852	61.577	18.239	1.5112e-06	25.595	0.00012254	0.00013384	3.7951e-05	983.1	1.3433e-06	1.4887e-06	1077.6	210.44	1.2915e-06	1.5018e-06	266.77	75.967	59.155	17.86	1.4425e-06	24.789	294.129	232.899	223.468	155.362	306.309	344.981	155.433	163.018	367.752	228.906	162.435	169.508	169.881	177.369	396.891	176.516	-8191	255	
11081.278	1	1	0	0	0.084854	0.11884	0.1299	0.14126	0.22601	0.19687	0.15309	0.12667	0.058685	0.28811	0.24656	0.18414	0.14067	0.18709	0.12552	0.060383	-2.6667	-2.3125	-2.9521	-2.9854	-2.4542	-2.9792	-2.7917	-2.5833	-3.0062	-2.425	-2.625	-3.0292	-2.1792	-3.025	-2.6021	-2.4146	304.177	299.749	392.004	443.659	392.838	402.670	428.808	159.258	182.191	409.767	217.495	377.485	433.255	267.552	432.820	482.696	0.00039483	0.0001256	0.00011418	1024.8	3.1783e-06	1.4528e-06	1121.9	218.11	3.7291e-06	5.6474e-07	277.64	78.665	61.619	18.224	2.0305e-06	25.547	0.00012882	0.00014045	3.5893e-05	983.85	1.353e-06	1.5491e-06	1076	210.28	1.3728e-06	1.5419e-06	266.11	75.912	59.23	17.862	1.3677e-06	24.752	290.895	414.948	250.769	155.523	261.223	260.447	155.546	162.857	309.891	244.947	162.710	169.366	169.937	177.397	239.984	176.632	-8191	255	
11081.374	1	1	0	0	0.046789	0.25286	0.25888	0.053173	0.24708	0.20841	0.23591	0.15319	0.19055	0.10654	0.25927	0.12181	0.10472	0.15738	0.28441	0.080425	-2.7354	-2.4271	-2.5771	-3.1312	-2.2062	-2.9146	-3.0187	-2.5104	-3.0854	-2.5271	-2.6771	-3.0687	-2.5687	-2.9771	-2.8146	-2.5479	224.243	297.709	206.390	195.197	335.783	309.514	461.614	153.753	188.742	199.788	456.546	457.916	170.819	326.568	419.056	270.072	0.00035437	0.00016608	0.00010059	1025	3.1751e-06	6.3745e-06	1122.7	217.75	5.0821e-06	3.9396e-06	278.34	79.108	61.956	18.264	4.3899e-06	25.543	0.00013528	0.00013755	3.422e-05	982.95	1.4524e-06	1.4985e-06	1077.1	209.91	1.4545e-06	1.4696e-06	266.54	75.958	59.464	17.893	1.3412e-06	24.774	282.649	150.322	220.325	155.514	255.919	304.227	155.596	163.162	288.552	284.384	162.401	169.744	170.011	177.339	345.635	176.083	-8191	255	
11081.495	1	1	0	0	0.28219	0.12702	0.063912	0.099801	0.10662	0.011627	0.084199	0.25056	0.16122	0.18793	0.13344	0.21318	0.11255	0.11512	0.049489	0.41662	-2.7167	-2.4229	-2.5729	-3.1208	-2.5062	-3.1292	-3.1979	-2.6729	-2.9979	-2.4042	-2.8479	-3.2458	-2.3396	-2.8417	-3.0667	-2.3458	418.921	426.723	333.008	504.284	447.004	164.030	309.771	187.077	229.420	217.446	161.328	170.309	483.035	490.392	334.582	444.420	0.00043677	0.00020346	3.2909e-05	1022.4	4.8503e-06	2.3952e-06	1121.9	217.31	5.0016e-06	1.4528e-06	278.79	79.327	61.391	18.177	3.9548e-06	25.517	0.00014155	0.00012932	3.3646e-05	982.88	1.5251e-06	1.444e-06	1077.3	209.77	1.5561e-06	1.4155e-06	266.8	76.003	59.38	17.778	1.3071e-06	24.844	288.669	186.699	292.299	155.614	258.028	273.229	155.445	163.109	299.340	284.058	162.467	169.645	169.810	177.250	380.713	175.934	-8191	255	
11081.591	1	1	0	0	0.23649	0.030703	0.22049	0.070427	0.19694	0.057728	0.094907	0.1416	0.16983	0.22742	0.093202	0.093913	0.2676	0.10294	0.14963	0.27828	-2.6729	-2.7313	-2.5125	-3.2458	-2.3583	-2.9104	-3.1583	-2.4417	-3.0938	-2.5792	-2.7333	-3.1417	-2.4333	-2.7625	-2.9958	-2.5521	282.533	422.579	412.160	311.343	409.413	206.443	183.754	218.109	318.530	403.315	459.170	283.229	502.827	201.539	187.137	454.492	0.00042397	0.00037571	0.00013444	1021.2	1.8457e-06	2.0731e-06	1122.1	217.25	2.7465e-06	4.0133e-06	279.17	79.157	61.399	18.273	2.9288e-06	25.422	0.00014654	0.00012917	3.3671e-05	984.86	1.5726e-06	1.4095e-06	1075.9	210.01	1.5535e-06	1.3709e-06	266.8	76.154	59.184	17.782	1.264e-06	24.785	298.818	196.980	204.521	155.658	343.144	357.303	155.643	162.960	338.367	255.101	163.030	169.348	169.922	177.369	329.245	176.647	-8191	255	
#DATA ENDS
