BOXY.EXE: ISS Imagent and Oximeter Data Acquisition Program Version 0.80
Ascii Record File

#ACQ INFORMATION
2  Detector Channels 
16  External MUX Channels 
1  Auxiliary Channels 
5000  Waveform (CCF) Frequency (Hz)
1  Waveforms Skipped 
30  Waveforms Averaged 
1  Cycles Averaged 
16  Acquisitions per Waveform 
10.0806  Updata Rate (Hz) 

#FILE INFORMATION
TRUE -- External MUX Channel results are PARSED.
FALSE -- AC DC and Phase are NOT grouped.
TRUE -- Companion Program Settings File CREATED.
FALSE -- AC data not excluded
FALSE -- DC data not excluded
FALSE -- Phase data not excluded
FALSE -- Auxillary Chn. data not excluded
Tab delimiters

#CALIBRATION STATE
TRUE -- Waveform Calibration Values APPLIED.


#AUX CALIBRATION VALUES
Val Type	aux-1	

Term	1.0000e+00	
Factor	0.0000e+00	


#WF CALIBRATION VALUES
A = Detector Channel
Val Type	A-AC1	A-AC2	A-AC3	A-AC4	A-AC5	A-AC6	A-AC7	A-AC8	A-AC9	A-AC10	A-AC11	A-AC12	A-AC13	A-AC14	A-AC15	A-AC16	A-DC1	A-DC2	A-DC3	A-DC4	A-DC5	A-DC6	A-DC7	A-DC8	A-DC9	A-DC10	A-DC11	A-DC12	A-DC13	A-DC14	A-DC15	A-DC16	A-Ph1	A-Ph2	A-Ph3	A-Ph4	A-Ph5	A-Ph6	A-Ph7	A-Ph8	A-Ph9	A-Ph10	A-Ph11	A-Ph12	A-Ph13	A-Ph14	A-Ph15	A-Ph16	

Term	0.00000e+00	0.00000e+00	0.00000e+00	0.00000e+00	0.00000e+00	0.00000e+00	0.00000e+00	0.00000e+00	0.00000e+00	0.00000e+00	0.00000e+00	0.00000e+00	0.00000e+00	0.00000e+00	0.00000e+00	0.00000e+00	0.00000e+00	0.00000e+00	0.00000e+00	0.00000e+00	0.00000e+00	0.00000e+00	0.00000e+00	0.00000e+00	0.00000e+00	0.00000e+00	0.00000e+00	0.00000e+00	0.00000e+00	0.00000e+00	0.00000e+00	0.00000e+00	0.00000e+00	0.00000e+00	0.00000e+00	0.00000e+00	0.00000e+00	0.00000e+00	0.00000e+00	0.00000e+00	0.00000e+00	0.00000e+00	0.00000e+00	0.00000e+00	0.00000e+00	0.00000e+00	0.00000e+00	0.00000e+00	
Factor	1.00000e+00	1.00000e+00	1.00000e+00	1.00000e+00	1.00000e+00	1.00000e+00	1.00000e+00	1.00000e+00	1.00000e+00	1.00000e+00	1.00000e+00	1.00000e+00	1.00000e+00	1.00000e+00	1.00000e+00	1.00000e+00	1.00000e+00	1.00000e+00	1.00000e+00	1.00000e+00	1.00000e+00	1.00000e+00	1.00000e+00	1.00000e+00	1.00000e+00	1.00000e+00	1.00000e+00	1.00000e+00	1.00000e+00	1.00000e+00	1.00000e+00	1.00000e+00	X	X	X	X	X	X	X	X	X	X	X	X	X	X	X	X	

B = Detector Channel
Val Type	B-AC1	B-AC2	B-AC3	B-AC4	B-AC5	B-AC6	B-AC7	B-AC8	B-AC9	B-AC10	B-AC11	B-AC12	B-AC13	B-AC14	B-AC15	B-AC16	B-DC1	B-DC2	B-DC3	B-DC4	B-DC5	B-DC6	B-DC7	B-DC8	B-DC9	B-DC10	B-DC11	B-DC12	B-DC13	B-DC14	B-DC15	B-DC16	B-Ph1	B-Ph2	B-Ph3	B-Ph4	B-Ph5	B-Ph6	B-Ph7	B-Ph8	B-Ph9	B-Ph10	B-Ph11	B-Ph12	B-Ph13	B-Ph14	B-Ph15	B-Ph16	

Term	0.00000e+00	0.00000e+00	0.00000e+00	0.00000e+00	0.00000e+00	0.00000e+00	0.00000e+00	0.00000e+00	0.00000e+00	0.00000e+00	0.00000e+00	0.00000e+00	0.00000e+00	0.00000e+00	0.00000e+00	0.00000e+00	0.00000e+00	0.00000e+00	0.00000e+00	0.00000e+00	0.00000e+00	0.00000e+00	0.00000e+00	0.00000e+00	0.00000e+00	0.00000e+00	0.00000e+00	0.00000e+00	0.00000e+00	0.00000e+00	0.00000e+00	0.00000e+00	-2.52595e+02	-1.26487e+02	-1.31810e+02	-1.83580e+02	-9.53217e+01	-7.04341e+01	-1.58163e+02	-1.62015e+02	-9.38048e+01	-7.07157e+01	-1.70649e+02	-1.71149e+02	-1.78736e+02	-1.76810e+02	-6.95905e+01	-1.49929e+02	
Factor	6.57577e-05	1.42588e-04	3.98813e-05	1.59387e-01	2.26321e-06	1.63867e-06	1.78960e-01	5.86508e-02	1.89516e-06	1.75252e-06	9.77644e-02	3.36656e-02	3.08182e-02	1.06301e-02	1.65800e-06	1.51188e-02	3.52109e-06	3.79331e-06	1.05871e-06	7.47961e-02	4.09069e-08	4.16821e-08	7.88279e-02	2.75229e-02	4.08750e-08	4.15652e-08	4.44068e-02	1.52238e-02	1.45320e-02	5.00993e-03	4.13229e-08	6.90354e-03	X	X	X	X	X	X	X	X	X	X	X	X	X	X	X	X	



#DISTANCE SETTINGS
A = Detector Channel
A-1	A-2	A-3	A-4	A-5	A-6	A-7	A-8	A-9	A-10	A-11	A-12	A-13	A-14	A-15	A-16	

2.5000e+00	3.0000e+00	2.5000e+00	3.0000e+00	2.0000e+00	3.0000e+00	1.5000e+00	3.0000e+00	3.0000e+00	3.0000e+00	3.0000e+00	3.0000e+00	3.0000e+00	3.0000e+00	1.5000e+00	3.0000e+00	

B = Detector Channel
B-1	B-2	B-3	B-4	B-5	B-6	B-7	B-8	B-9	B-10	B-11	B-12	B-13	B-14	B-15	B-16	

1.0000e+01	1.0000e+01	1.0000e+01	1.4400e+00	1.0000e+01	1.0000e+01	1.5100e+00	1.9400e+00	1.0000e+01	1.0000e+01	1.9900e+00	2.4900e+00	2.4100e+00	2.9000e+00	1.0000e+01	2.9800e+00	




#DATA BEGINS
time	group	step	mark	flag	A-AC1	A-AC2	A-AC3	A-AC4	A-AC5	A-AC6	A-AC7	A-AC8	A-AC9	A-AC10	A-AC11	A-AC12	A-AC13	A-AC14	A-AC15	A-AC16	A-DC1	A-DC2	A-DC3	A-DC4	A-DC5	A-DC6	A-DC7	A-DC8	A-DC9	A-DC10	A-DC11	A-DC12	A-DC13	A-DC14	A-DC15	A-DC16	A-Ph1	A-Ph2	A-Ph3	A-Ph4	A-Ph5	A-Ph6	A-Ph7	A-Ph8	A-Ph9	A-Ph10	A-Ph11	A-Ph12	A-Ph13	A-Ph14	A-Ph15	A-Ph16	B-AC1	B-AC2	B-AC3	B-AC4	B-AC5	B-AC6	B-AC7	B-AC8	B-AC9	B-AC10	B-AC11	B-AC12	B-AC13	B-AC14	B-AC15	B-AC16	B-DC1	B-DC2	B-DC3	B-DC4	B-DC5	B-DC6	B-DC7	B-DC8	B-DC9	B-DC10	B-DC11	B-DC12	B-DC13	B-DC14	B-DC15	B-DC16	B-Ph1	B-Ph2	B-Ph3	B-Ph4	B-Ph5	B-Ph6	B-Ph7	B-Ph8	B-Ph9	B-Ph10	B-Ph11	B-Ph12	B-Ph13	B-Ph14	B-Ph15	B-Ph16	aux-1	digaux	

52842.246	1	1	0	768	0.059601	0.12035	0.23249	0.2647	0.13995	0.14794	0.11736	0.078653	0.10544	0.13723	0.26907	0.063946	0.15792	0.183	0.12167	0.16516	-4.8667	-4.1271	-4.7521	-4.9375	-4.1687	-5.1875	-4.475	-4.6562	-5.2167	-4.0958	-4.6292	-4.8896	-4.175	-5.0437	-4.3979	-4.3729	-46.769	35.096	-41.121	230.366	269.733	199.140	136.787	15.574	182.946	-58.986	69.816	-44.192	45.771	-50.462	79.551	197.256	0.00075351	0.00027064	9.621e-05	594.45	2.3465e-06	3.3833e-06	747.42	180.45	3.0113e-06	4.5963e-06	265.75	113.84	65.166	30.862	4.4915e-06	61.115	0.00016192	0.00012685	3.421e-05	611.46	1.3415e-06	1.2837e-06	770.59	186.73	1.333e-06	1.3238e-06	273.46	117.86	67.859	32.291	1.3711e-06	63.687	56.522	5.861	-13.400	-67.398	26.829	87.609	-68.084	-62.527	51.915	70.550	-63.071	-57.453	-56.975	-51.358	83.528	-53.120	-8191	255	
52842.344	1	1	0	0	0.095917	0.13742	0.23345	0.18328	0.057383	0.19912	0.071354	0.26237	0.12501	0.24671	0.36108	0.16882	0.24165	0.1577	0.078392	0.32375	-4.8583	-4.2208	-4.6667	-5.0333	-4.0333	-4.9812	-4.6625	-4.2458	-5.1354	-4.2583	-4.7958	-5.1417	-4.1687	-5.2083	-4.6438	-4.2229	-50.921	211.202	160.701	250.337	-47.830	67.289	166.680	270.794	5.467	49.236	210.229	226.979	229.526	1.692	49.765	-71.636	0.00075062	0.00023498	8.5825e-05	592.57	3.6497e-06	2.7768e-06	750.65	180.73	3.4853e-06	4.8605e-06	265.29	113.47	65.586	31	2.4638e-06	61.393	0.00016238	0.00012156	3.359e-05	611.71	1.3646e-06	1.2993e-06	772.76	186.99	1.3681e-06	1.3089e-06	273.92	118.11	68.065	32.381	1.2997e-06	63.808	48.514	48.098	0.906	-67.404	48.819	56.521	-68.126	-62.522	37.440	105.941	-62.633	-57.589	-56.784	-51.610	89.411	-53.202	-8191	255	
52842.441	1	1	0	0	0.13538	0.22684	0.017273	0.094662	0.041766	0.12461	0.13456	0.22273	0.18009	0.21359	0.058464	0.22662	0.068617	0.41302	0.082823	0.14176	-4.7667	-4.1458	-4.2958	-5.1312	-4.1792	-4.7958	-4.7042	-4.125	-5.0083	-4.3646	-4.5417	-5.1167	-4.4271	-4.775	-4.8125	-4.0958	-39.886	222.085	-46.880	270.858	177.989	116.807	18.100	196.907	-44.128	223.602	274.974	207.940	-10.227	-59.210	246.919	-77.825	0.00080911	0.00036216	0.00010336	594.99	3.6007e-06	2.1521e-06	752.28	181.47	3.0231e-06	3.2274e-06	266.41	114.09	65.611	30.935	4.0816e-06	60.887	0.0001641	0.00012133	3.2586e-05	613.5	1.3438e-06	1.2966e-06	773.33	187.33	1.3356e-06	1.2942e-06	274.12	118.1	68.035	32.356	1.3128e-06	63.645	58.260	0.046	29.319	-67.406	69.540	46.245	-68.037	-62.524	47.196	41.662	-63.349	-57.508	-56.581	-51.460	78.269	-53.061	-8191	255	
52842.535	1	1	0	0	0.16339	0.077611	0.15254	0.1817	0.084842	0.12163	0.07224	0.087521	0.19007	0.14211	0.18457	0.10681	0.20121	0.1674	0.17676	0.20082	-4.9	-4.3542	-4.5667	-5.1458	-4.1917	-4.6625	-5.0354	-4.2271	-5.1125	-4.6625	-4.5042	-5.0958	-4.3542	-4.6604	-4.9292	-4.1521	-21.982	264.784	37.568	128.465	66.564	93.842	74.421	-47.254	-48.205	-36.562	-74.678	127.695	-68.128	-61.823	256.699	-75.989	0.00077866	0.00036822	0.00013001	595.39	4.9416e-06	3.7484e-06	750.41	180.5	3.5256e-06	2.4318e-06	263.55	113.36	65.426	30.923	2.9784e-06	60.977	0.00016025	0.00011924	3.3274e-05	610.64	1.3041e-06	1.2783e-06	768.96	186.75	1.2954e-06	1.2665e-06	272.78	117.55	67.935	32.284	1.2904e-06	63.387	56.509	2.173	-17.705	-67.374	44.528	51.749	-67.866	-62.549	15.836	110.557	-62.898	-57.552	-57.041	-51.299	72.347	-52.797	-8191	255	
52842.633	1	1	0	0	0.090543	0.18639	0.06197	0.064863	0.35239	0.2742	0.15081	0.26772	0.18091	0.21307	0.030986	0.41461	0.095157	0.21683	0.12324	0.048383	-4.6729	-4.5646	-4.2312	-5.2646	-4.3229	-4.5417	-5.1958	-4.3292	-4.8542	-4.6792	-4.2396	-5.1979	-4.3354	-4.5083	-5.1479	-4.2083	150.545	-76.856	-37.591	-21.402	59.974	277.065	228.630	-40.794	54.544	-55.642	242.850	-59.396	-57.509	178.029	84.484	169.291	0.0008285	0.00036142	9.3626e-05	595.88	4.1638e-06	3.1073e-06	747.43	180.65	4.6419e-06	3.3346e-06	264.86	114.16	65.312	30.835	1.1905e-06	61.093	0.00016098	0.00011498	3.2639e-05	611.11	1.3412e-06	1.2656e-06	769.41	186.66	1.3165e-06	1.2497e-06	273.06	117.93	67.816	32.222	1.2847e-06	63.456	54.030	11.867	2.419	-67.157	55.261	51.071	-67.875	-62.399	65.361	43.888	-63.051	-57.583	-56.873	-51.671	61.727	-53.082	-8191	255	
52842.730	1	1	0	0	0.14094	0.17552	0.228	0.074366	0.19347	0.096716	0.15664	0.11803	0.12656	0.13551	0.11164	0.06105	0.13566	0.058489	0.20447	0.12485	-4.5542	-4.6292	-4.2688	-5.2208	-4.2521	-4.2875	-5.1625	-4.3854	-4.8167	-4.8271	-4.2271	-5.2208	-4.6	-4.3583	-5.2125	-4.3604	-52.972	228.915	27.633	256.935	140.731	258.038	112.497	56.104	8.796	77.407	193.497	229.145	120.037	-30.881	250.683	218.911	0.00078845	0.0004267	9.6701e-05	592.22	5.9156e-06	3.7253e-06	745.14	180.65	2.3758e-06	2.1093e-06	264.95	114.06	65.628	30.923	2.9615e-06	60.979	0.00015782	0.00011333	3.2899e-05	609.15	1.3054e-06	1.2743e-06	768.85	187.01	1.2693e-06	1.2446e-06	273.94	118.11	68.053	32.336	1.316e-06	63.56	52.571	23.259	14.551	-67.406	52.130	63.430	-67.885	-62.337	-35.857	84.756	-62.978	-57.686	-56.642	-51.383	79.455	-52.991	-8191	255	
52842.848	1	1	0	0	0.14101	0.17646	0.19486	0.17198	0.06555	0.13892	0.06437	0.1151	0.15287	0.13948	0.047928	0.036821	0.14956	0.085299	0.076153	0.10059	-4.475	-4.8875	-4.2208	-5.0875	-4.4125	-4.4187	-5.2479	-4.4521	-4.5875	-4.95	-4.1958	-5.0437	-4.625	-4.3354	-5.1417	-4.3229	66.411	160.221	195.983	260.304	248.316	182.393	-80.192	174.687	140.035	256.386	-10.932	151.124	39.686	199.157	112.249	195.712	0.00072516	0.00023364	0.00010144	595.09	2.4587e-06	4.0467e-06	750.82	181.14	2.643e-06	4.9567e-06	264.94	114.55	64.983	31.146	4.6938e-06	61.002	0.00015769	0.00011498	3.3427e-05	609.83	1.3103e-06	1.2875e-06	771.71	187.17	1.314e-06	1.2288e-06	274.42	118.37	67.914	32.312	1.2889e-06	63.526	53.750	8.794	-1.580	-67.061	51.109	62.631	-67.931	-62.425	11.584	72.981	-62.682	-57.733	-56.867	-51.625	54.178	-53.098	-8191	255	
52842.945	1	1	0	0	0.069939	0.16551	0.27216	0.31837	0.15868	0.13059	0.084765	0.11416	0.083099	0.039643	0.19597	0.07681	0.089605	0.17612	0.19219	0.17854	-4.3271	-4.9292	-3.8646	-5.0271	-4.6167	-4.2438	-5.1687	-4.5292	-4.5146	-5.0375	-4.3021	-4.95	-4.8979	-4.2833	-5.2396	-4.3958	141.676	188.864	-64.298	201.271	236.613	46.659	237.166	202.498	207.513	211.309	215.736	268.579	220.911	261.075	100.380	152.210	0.00074985	0.00037386	0.00011033	590.01	4.3862e-06	2.8086e-06	744.88	179.76	3.2282e-06	4.8413e-06	263.27	114.01	65.005	30.849	3.9931e-06	60.633	0.00015891	0.00011302	3.3069e-05	607.69	1.2883e-06	1.2756e-06	766.77	186.46	1.285e-06	1.2799e-06	273.01	117.89	67.612	32.144	1.2958e-06	63.126	54.245	5.232	-12.625	-67.362	49.153	64.114	-67.748	-62.438	21.914	75.254	-62.649	-57.488	-56.817	-51.352	78.628	-53.087	-8191	255	
52843.039	1	1	0	0	0.15937	0.14442	0.16404	0.095107	0.17109	0.189	0.12924	0.053966	0.040661	0.17615	0.13178	0.097588	0.091485	0.020352	0.0422	0.14169	-4.1083	-5.1208	-4.125	-4.8	-4.8521	-4.125	-5.1625	-4.5625	-4.4833	-5.0833	-4.3646	-4.7125	-4.8	-4.2292	-5.0958	-4.6167	172.274	115.354	264.386	246.361	66.066	33.800	34.959	-56.872	169.734	-25.941	263.107	1.476	16.259	-79.384	-65.419	215.932	0.00078834	0.00035339	6.7728e-05	588.72	3.6643e-06	4.8273e-06	746.42	180.32	2.528e-06	3.9619e-06	264.87	113.69	64.915	30.486	1.7759e-06	60.533	0.00015652	0.0001146	3.1922e-05	606.47	1.2873e-06	1.2941e-06	766.62	186.13	1.2774e-06	1.2593e-06	273.49	117.52	67.634	32.046	1.3189e-06	62.995	51.940	20.877	-0.360	-67.495	32.607	70.485	-68.021	-62.362	15.130	52.484	-62.768	-57.456	-56.808	-51.177	73.123	-52.945	-8191	255	
52843.137	1	1	0	0	0.1305	0.20946	0.055293	0.11128	0.028225	0.17758	0.19346	0.36178	0.37663	0.25775	0.13634	0.10827	0.03179	0.15024	0.24425	0.23392	-3.9896	-5.2104	-4.3313	-4.8292	-4.8396	-3.9854	-5.0625	-4.625	-4.2875	-5.0729	-4.2833	-4.6271	-4.9917	-4.0708	-4.8729	-4.7208	184.987	272.272	124.762	-13.649	159.646	239.760	254.403	158.097	-33.129	-8.822	132.176	203.523	140.951	-20.645	228.622	-79.667	0.00081742	0.00040183	7.9409e-05	591.11	3.9696e-06	2.3481e-06	742.88	179.41	3.4483e-06	4.3158e-06	264.95	113.49	65.265	30.522	2.5087e-06	60.639	0.00016078	0.00011579	3.215e-05	606.52	1.291e-06	1.2626e-06	765.78	185.97	1.327e-06	1.2783e-06	273.19	117.78	67.597	32.062	1.2843e-06	63.166	54.027	5.211	18.305	-67.381	81.636	50.974	-67.972	-62.339	81.909	56.547	-62.512	-57.518	-56.717	-51.355	42.177	-52.915	-8191	255	
52843.230	1	1	0	0	0.085102	0.075597	0.081156	0.073501	0.10451	0.20659	0.20454	0.017355	0.077005	0.19274	0.35571	0.043168	0.13448	0.32815	0.18881	0.012392	-3.8458	-5.0708	-4.2417	-4.3792	-4.9542	-4.0729	-4.9604	-4.7646	-4.1479	-5.1771	-4.4104	-4.5292	-5.2688	-4.1083	-4.9208	-4.9458	-63.793	-30.893	119.777	-36.729	191.261	190.869	129.012	75.301	233.913	246.052	-50.739	40.871	265.234	133.286	85.802	203.824	0.00073095	0.00045769	9.9135e-05	591.37	5.1995e-06	4.7284e-06	747.13	180.49	4.2238e-06	4.0337e-06	264.82	114.13	65.308	30.825	1.4404e-06	61.212	0.00015951	0.00011615	3.1808e-05	606.96	1.2981e-06	1.2628e-06	767.46	186.22	1.3206e-06	1.2612e-06	274.27	118.03	67.832	32.125	1.2624e-06	63.515	51.480	11.038	9.173	-67.444	73.517	50.489	-67.928	-62.194	11.064	61.252	-62.882	-57.458	-56.973	-51.517	33.656	-52.394	-8191	255	
52843.328	1	1	0	0	0.25414	0.12663	0.027327	0.18574	0.099021	0.11126	0.18296	0.074705	0.11604	0.11721	0.10335	0.098056	0.17826	0.023334	0.095242	0.091648	-3.7292	-5.1375	-4.3042	-4.4563	-5.0917	-4.2833	-4.85	-5.0062	-4.1312	-5.0958	-4.6104	-4.3583	-5.2208	-4.2458	-4.6312	-4.9792	156.030	247.278	197.931	263.434	-78.264	49.998	-50.295	-4.723	272.548	105.521	206.702	-75.271	-56.707	204.809	203.113	127.034	0.00075334	0.00042454	9.2909e-05	589.25	3.048e-06	1.9599e-06	745.92	181.71	4.6526e-06	4.1202e-06	265.32	114	65.197	30.72	3.7189e-06	60.593	0.00016315	0.00011498	3.1642e-05	606.66	1.2998e-06	1.2811e-06	767.32	187.19	1.2867e-06	1.2305e-06	273.86	117.93	67.796	32.055	1.308e-06	63.029	56.826	5.692	-7.047	-67.239	58.340	58.704	-67.966	-61.950	53.659	58.229	-62.801	-57.585	-57.121	-51.283	64.787	-52.942	-8191	255	
52843.449	1	1	0	0	0.19844	0.098218	0.10744	0.18461	0.10495	0.17964	0.1224	0.10385	0.18735	0.13419	0.020524	0.10281	0.319	0.14153	0.088459	0.25075	-3.8292	-5.0604	-4.6937	-4.2396	-5.0729	-4.3438	-4.8375	-5.1062	-4.1458	-4.9792	-4.7042	-4.1833	-5.25	-4.325	-4.575	-5.2229	76.254	8.126	26.566	265.121	72.629	3.562	244.405	35.601	245.741	189.385	151.948	58.830	262.119	164.306	177.291	209.511	0.00068217	0.00037022	0.00010887	586.37	5.2653e-06	4.8297e-06	742.67	180.41	3.8355e-06	4.3298e-06	265.29	112.55	64.822	30.596	3.7843e-06	60.421	0.00016129	0.00011215	3.1678e-05	604.53	1.2961e-06	1.2585e-06	765.03	186.38	1.2843e-06	1.2292e-06	273.13	117.29	67.657	31.955	1.3126e-06	62.869	46.817	3.440	3.792	-67.344	36.526	71.946	-68.088	-62.191	1.768	52.976	-63.084	-57.492	-56.785	-51.660	102.386	-53.318	-8191	255	
52843.543	1	1	0	0	0.14013	0.0812	0.20059	0.20839	0.079498	0.11486	0.067066	0.20612	0.10102	0.064987	0.29461	0.11784	0.20639	0.18317	0.12789	0.14105	-3.8354	-4.8458	-4.7896	-4.225	-5.2562	-4.3688	-4.5521	-5.0833	-4.1687	-4.8542	-4.925	-4.2083	-5.2271	-4.5792	-4.3021	-5.2771	186.310	-15.469	203.010	214.847	6.183	178.477	251.624	248.122	140.372	138.379	205.116	103.115	255.859	155.352	126.842	-24.726	0.000747	0.00021196	4.2862e-05	587.46	5.52e-06	1.2839e-06	740.94	179.73	1.5273e-06	3.9707e-06	265.32	112.88	64.834	30.679	3.4348e-06	60.569	0.0001614	0.00011397	3.1905e-05	603.23	1.2678e-06	1.2474e-06	762.57	185.93	1.3117e-06	1.2368e-06	273.27	117.39	67.449	31.954	1.2783e-06	62.926	57.054	39.176	14.911	-67.409	35.014	55.112	-67.903	-62.000	30.759	60.311	-62.788	-57.707	-56.837	-51.286	56.413	-53.139	-8191	255	
52843.641	1	1	0	0	0.088116	0.12005	0.12345	0.155	0.16613	0.21131	0.2114	0.17996	0.04064	0.092083	0.1397	0.26921	0.22376	0.31628	0.25848	0.1932	-3.875	-4.6708	-4.6937	-4.2583	-4.9313	-4.45	-4.2146	-5.3333	-4.3083	-4.6229	-4.9646	-4.1875	-5.0896	-4.7771	-4.3729	-5.2063	89.322	88.057	211.565	162.272	29.418	109.961	166.889	-30.687	226.045	158.111	99.050	141.813	161.131	193.857	-17.694	-48.093	0.00075289	0.00024935	9.492e-05	583.49	6.5043e-06	5.3899e-06	741.98	180.44	1.0144e-06	2.8758e-06	265.42	113.77	64.584	30.839	2.8724e-06	60.345	0.00015769	0.00010971	3.2324e-05	603.64	1.2656e-06	1.2604e-06	765.66	186.19	1.3058e-06	1.2573e-06	273.66	117.81	67.517	32.057	1.3143e-06	63.108	60.075	-5.918	3.568	-67.379	80.497	54.695	-67.894	-62.401	37.331	81.357	-62.569	-57.549	-56.665	-51.048	52.739	-53.181	-8191	255	
52843.734	1	1	0	0	0.12088	0.16272	0.17996	0.10076	0.30695	0.20384	0.066628	0.36926	0.029786	0.14685	0.27327	0.07013	0.13017	0.15538	0.17398	0.20291	-3.8896	-4.6042	-4.8812	-4.0229	-4.9958	-4.7937	-4.45	-5.2292	-4.3896	-4.5542	-5.1333	-4.2646	-4.8958	-4.6875	-4.2104	-5.1625	84.425	236.412	195.163	-59.421	170.972	42.605	235.466	227.011	119.100	117.779	253.109	-1.146	220.747	197.621	4.086	165.332	0.00077593	0.0003124	9.2141e-05	586.42	5.8135e-06	4.3783e-06	743.19	179.81	2.242e-06	4.5442e-06	265.95	113.36	64.641	30.642	4.2183e-06	60.169	0.00015673	0.00011451	3.1982e-05	603.59	1.2748e-06	1.263e-06	765.2	186.42	1.2952e-06	1.2613e-06	274.47	117.6	67.397	31.929	1.3113e-06	62.77	55.910	6.528	-14.257	-67.286	29.161	61.415	-67.968	-62.598	-32.863	82.661	-62.829	-57.508	-57.064	-51.521	58.757	-52.655	-8191	255	
52843.809	1	1	0	0	0.19401	0.092289	0.23694	0.071609	0.27255	0.18202	0.15669	0.12397	0.22704	0.1903	0.2742	0.12416	0.15915	0.16086	0.029357	0.1692	-4.0708	-4.4458	-5.0771	-4.3708	-4.8229	-4.8833	-4.2688	-5.0938	-4.4437	-4.4729	-5.175	-4.4396	-4.6125	-4.8938	-4.1625	-5.2667	-26.558	233.535	249.962	61.433	138.634	134.703	26.734	261.583	26.265	59.627	156.678	-11.084	-17.184	198.758	93.999	227.871	0.00079989	0.00029947	0.00014351	588.7	3.8201e-06	2.9029e-06	739.72	179.35	3.5711e-06	4.075e-06	264.61	112.92	64.407	30.409	3.2815e-06	60.005	0.00015664	0.00011515	3.207e-05	602.83	1.2444e-06	1.2318e-06	762.08	185.44	1.277e-06	1.2575e-06	273	117.09	67.196	31.808	1.3049e-06	62.543	47.878	23.928	5.145	-67.374	39.581	83.650	-68.036	-62.127	30.851	80.302	-62.686	-57.336	-56.636	-51.164	60.599	-53.151	-8191	255	
52843.930	1	1	0	0	0.17933	0.028698	0.08948	0.23219	0.062235	0.20985	0.071409	0.16549	0.12332	0.15915	0.18008	0.064848	0.32338	0.086881	0.12584	0.26036	-4.2333	-4.1125	-5.0333	-4.2771	-4.5417	-5.0292	-4.1354	-5.1562	-4.5479	-4.3042	-5.3104	-4.2625	-4.8146	-5.1958	-3.9625	-5.1167	-4.537	153.179	166.199	119.222	-32.623	56.357	248.460	234.279	86.303	-23.171	274.733	183.442	229.778	129.251	230.862	231.979	0.00072489	0.00031223	6.8711e-05	587.62	4.7018e-06	3.1349e-06	743.18	180.34	2.3191e-06	2.8173e-06	264.9	113	64.108	30.412	3.7743e-06	60.154	0.00015328	0.00011663	3.1739e-05	603.82	1.3015e-06	1.2698e-06	762.71	185.42	1.2686e-06	1.2633e-06	272.29	116.89	66.94	31.76	1.3205e-06	62.593	51.960	-0.897	-4.360	-67.351	40.279	53.170	-68.087	-62.467	49.883	92.228	-63.192	-57.791	-56.842	-51.392	72.373	-53.340	-8191	255	
52844.023	1	1	0	0	0.18065	0.17213	0.16852	0.17202	0.082581	0.12085	0.073917	0.22442	0.12359	0.17266	0.17418	0.18761	0.015051	0.17629	0.068302	0.20698	-4.4083	-4.3292	-5.0292	-4.4042	-4.4771	-4.9958	-4.2	-4.8396	-4.8646	-4.1583	-5.1396	-4.3042	-4.4521	-5.0771	-4.1583	-4.9354	181.749	100.497	89.758	233.705	66.587	34.179	272.388	235.032	49.742	22.071	-71.541	219.833	246.374	264.582	163.366	213.674	0.00079313	0.00041836	8.7084e-05	587.89	3.9442e-06	2.9827e-06	740.9	178.96	3.3811e-06	4.5925e-06	265.69	112.59	64.454	30.307	3.3966e-06	60.09	0.00015643	0.00011643	3.1022e-05	604.01	1.277e-06	1.2225e-06	761.41	185.15	1.2707e-06	1.2539e-06	272.91	116.79	67.005	31.723	1.2854e-06	62.542	53.359	6.310	-20.127	-67.320	40.847	97.275	-68.104	-62.154	29.160	61.745	-62.797	-57.506	-56.500	-51.201	82.904	-52.885	-8191	255	
52844.121	1	1	0	0	0.016964	0.16436	0.2088	0.26246	0.034856	0.13891	0.11043	0.13172	0.15649	0.077971	0.21744	0.1126	0.12505	0.11136	0.13505	0.15601	-4.4708	-4.1146	-4.9896	-4.4667	-4.3271	-4.975	-4.3187	-4.8521	-4.8521	-4.1188	-4.95	-4.6083	-4.4208	-5.1792	-4.2167	-4.7333	276.292	278.204	270.136	252.788	-36.018	247.847	270.013	-57.732	206.032	-14.280	-66.021	-67.499	276.663	-19.404	182.298	258.912	0.00076084	0.00035698	8.1858e-05	585.46	4.2038e-06	3.1567e-06	742.2	179.41	3.2282e-06	3.1948e-06	264.73	112.81	64.336	30.59	3.5292e-06	60.311	0.00015487	0.00011551	3.1942e-05	601.59	1.3033e-06	1.2263e-06	762.92	185.09	1.2598e-06	1.2553e-06	272.75	116.98	67.125	31.84	1.3075e-06	62.656	48.821	-2.893	0.399	-67.425	20.133	54.141	-68.049	-62.234	15.916	47.289	-62.849	-57.759	-56.648	-51.187	76.831	-52.966	-8191	255	
52844.242	1	1	0	0	0.11333	0.095155	0.10005	0.29923	0.23605	0.16068	0.14355	0.058659	0.23285	0.053552	0.18091	0.038859	0.19138	0.052902	0.19301	0.073018	-4.7438	-4.125	-4.9688	-4.5271	-4.2521	-5.0083	-4.2812	-4.4875	-4.9146	-4.0917	-5.0958	-4.9458	-4.1958	-5.1979	-4.2375	-4.5687	11.391	163.026	201.145	-58.466	238.946	187.957	97.405	108.400	91.939	272.480	208.335	-39.091	260.041	8.339	111.657	-64.540	0.00076377	0.00020992	7.2355e-05	584.86	4.1313e-06	2.0934e-06	739.15	178.54	3.3622e-06	2.7311e-06	264.39	112.49	64.432	30.383	3.1813e-06	60.03	0.00015645	0.00011906	3.2255e-05	600.85	1.2703e-06	1.2101e-06	760.82	184.63	1.2373e-06	1.2747e-06	272.1	116.45	67.03	31.748	1.2894e-06	62.375	50.738	13.026	6.326	-67.177	56.113	45.478	-67.940	-62.029	-5.054	33.203	-63.322	-57.544	-56.539	-51.256	32.012	-53.068	-8191	255	
52844.336	1	1	0	0	0.16496	0.13911	0.17239	0.37474	0.11365	0.036398	0.18104	0.098705	0.18036	0.096941	0.25183	0.13374	0.18876	0.23757	0.097332	0.14623	-4.8375	-4.0625	-4.8063	-4.9062	-4.1583	-5.1417	-4.4938	-4.5083	-5.0813	-4.1271	-4.925	-4.9688	-4.1604	-5	-4.3271	-4.5979	-78.084	69.996	100.416	206.829	224.627	87.974	176.217	-24.113	184.166	246.674	240.207	-67.443	-21.901	13.499	151.891	-67.199	0.00079178	0.00040699	0.00011422	585.46	2.4996e-06	4.4884e-06	736.24	178.63	3.7881e-06	5.1964e-06	263.27	112.4	64.245	30.377	3.5926e-06	59.922	0.00015612	0.00011644	3.1625e-05	601.06	1.3036e-06	1.1918e-06	759.54	184.51	1.2859e-06	1.2397e-06	270.94	116.58	66.89	31.734	1.2455e-06	62.411	53.096	12.658	14.050	-67.158	70.549	65.558	-67.763	-62.287	17.405	71.567	-62.824	-57.561	-56.874	-51.329	87.141	-52.866	-8191	255	
52844.410	1	1	0	0	0.24177	0.11245	0.25157	0.11415	0.17403	0.30582	0.23862	0.19634	0.10778	0.059692	0.21901	0.16336	0.20049	0.061011	0.091897	0.16607	-4.8729	-3.9833	-4.6687	-4.9042	-3.9792	-5.0646	-4.6083	-4.1875	-5.0771	-4.1271	-4.7167	-5.1	-4.1104	-5.0479	-4.5958	-4.4042	-14.509	-68.195	278.051	-63.685	186.065	235.003	181.787	-36.328	146.095	-34.942	179.981	32.463	221.270	-32.230	274.823	214.048	0.00065266	0.00026904	0.00010253	582.37	5.036e-06	3.9681e-06	736.36	178.65	4.8164e-06	2.586e-06	263.83	112.81	64.321	30.369	3.6987e-06	60.114	0.00015598	0.00011453	3.2227e-05	600.15	1.288e-06	1.2411e-06	758.77	184.3	1.2505e-06	1.2567e-06	271.33	116.77	66.909	31.712	1.2731e-06	62.41	55.203	5.083	-2.066	-67.301	79.195	68.042	-67.797	-62.536	24.587	78.135	-63.026	-57.337	-57.066	-50.820	56.521	-52.906	-8191	255	
52844.527	1	1	0	0	0.072136	0.10191	0.15438	0.16453	0.071728	0.17245	0.090641	0.16488	0.13755	0.2408	0.21016	0.12574	0.079725	0.17152	0.2456	0.17216	-4.8771	-4.2021	-4.6062	-5.1042	-3.8542	-4.9563	-4.7333	-4.2812	-5.2937	-4.425	-4.5458	-5.125	-4.0646	-4.7729	-4.7917	-4.2521	-14.327	-64.458	95.049	275.256	246.053	145.199	230.280	48.346	163.874	86.615	262.348	171.418	26.582	223.164	-79.650	187.842	0.00067763	0.00022605	0.00010366	582.47	4.3021e-06	3.3052e-06	736.54	178.2	1.4926e-06	4.0487e-06	264.5	113.02	64.227	30.303	4.6785e-06	60.117	0.00015332	0.00011551	3.1585e-05	597.47	1.2512e-06	1.2488e-06	757.12	183.88	1.2551e-06	1.2186e-06	271.79	116.97	66.881	31.683	1.2584e-06	62.615	42.088	24.444	0.008	-67.373	31.794	85.077	-67.909	-62.481	56.062	62.547	-63.055	-57.414	-56.689	-51.420	69.807	-53.170	-8191	255	
52844.625	1	1	0	0	0.1996	0.18878	0.07078	0.0261	0.28047	0.068573	0.090675	0.0077662	0.17642	0.21371	0.063203	0.17085	0.051279	0.17393	0.1805	0.18638	-4.8187	-4.4333	-4.2688	-5.1188	-4.0771	-4.8417	-4.9375	-4.3542	-4.9812	-4.3271	-4.3812	-5.1417	-4.0917	-4.7188	-4.9021	-4.3104	-57.899	210.625	27.919	119.143	191.642	188.912	-78.474	56.959	-58.757	3.262	-39.070	240.313	-52.422	-35.001	271.618	176.898	0.00069479	0.0003819	9.9629e-05	580.88	3.2716e-06	3.2167e-06	737.73	177.84	3.5086e-06	5.2735e-06	262.93	112.13	64.211	30.059	2.7458e-06	59.312	0.00015196	0.00011635	3.23e-05	597.47	1.2772e-06	1.2286e-06	758.27	184.12	1.2367e-06	1.214e-06	270.89	116.41	66.621	31.354	1.2202e-06	61.916	56.536	44.539	13.724	-67.281	42.598	59.076	-67.640	-62.265	47.051	76.683	-62.999	-57.355	-56.459	-51.194	66.586	-53.221	-8191	255	
52844.719	1	1	0	0	0.11556	0.12257	0.21498	0.066359	0.1428	0.06553	0.054903	0.070509	0.043498	0.084607	0.031164	0.14974	0.33852	0.21766	0.08666	0.11703	-4.6979	-4.6396	-4.3729	-5.2333	-4.1854	-4.7021	-5.2104	-4.2125	-4.9958	-4.6708	-4.1771	-5.0625	-4.5229	-4.7375	-4.9771	-4.1417	222.498	-7.468	158.389	59.567	152.979	165.959	9.587	230.565	-55.722	43.014	110.783	259.715	145.842	-62.907	154.060	271.453	0.00085695	0.0003298	9.3332e-05	573.76	3.0895e-06	3.7821e-06	731.11	176.5	5.7322e-06	3.91e-06	260.82	111.65	63.508	29.598	4.2469e-06	59.001	0.0001512	0.00010817	3.0603e-05	589.61	1.2529e-06	1.197e-06	749.3	182.32	1.2285e-06	1.1791e-06	269.33	115.81	66.094	31.132	1.1867e-06	61.458	53.363	23.630	-4.649	-67.125	28.809	59.901	-67.869	-62.311	32.845	68.481	-62.932	-57.431	-56.538	-51.137	50.431	-52.894	-8191	255	
52844.840	1	1	0	0	0.056694	0.1761	0.14971	0.16779	0.089055	0.079195	0.19912	0.15678	0.25382	0.13086	0.076193	0.04048	0.38493	0.21004	0.058658	0.25623	-4.7792	-4.7	-4.3521	-5.1875	-4.2958	-4.4979	-5.1958	-4.0646	-4.6937	-4.6167	-4.3562	-5.3208	-4.3792	-4.4042	-5.1125	-4.1333	63.159	147.861	235.202	216.180	134.080	-15.891	181.761	219.485	118.829	36.667	257.631	52.122	-60.651	-42.009	97.616	193.660	0.00070747	0.00024998	0.00010418	570.95	2.9402e-06	3.1902e-06	725.89	176.4	7.6565e-07	4.5683e-06	260.28	111.4	63.415	29.866	2.336e-06	59.183	0.00014997	0.000107	2.9827e-05	589.46	1.2515e-06	1.224e-06	748.67	182.6	1.1982e-06	1.1821e-06	269.78	115.92	66.147	31.204	1.1873e-06	61.724	51.084	39.332	4.688	-67.296	75.521	57.174	-67.731	-62.389	17.476	62.030	-62.801	-57.478	-56.797	-51.281	80.755	-52.663	-8191	255	
52844.938	1	1	0	0	0.076505	0.018546	0.20145	0.093122	0.13335	0.016888	0.039206	0.11272	0.055329	0.096401	0.30183	0.21165	0.18899	0.20944	0.046319	0.035501	-4.3688	-4.8771	-4.125	-5.1583	-4.5604	-4.4833	-5.1917	-4.1792	-4.6062	-4.9542	-4.0729	-5.125	-4.5458	-4.3729	-5.1458	-4.35	-24.328	52.879	-36.215	-39.598	121.929	2.508	223.373	210.498	127.929	57.847	-76.170	278.616	255.143	-38.142	181.306	59.751	0.00068133	0.00034484	0.00012794	574.18	4.4801e-06	1.857e-06	729.66	177.93	4.3152e-06	2.8497e-06	262.58	111.98	63.864	29.896	1.6477e-06	59.717	0.00015149	0.00010517	3.0449e-05	590.66	1.2209e-06	1.1925e-06	750.29	182.85	1.2128e-06	1.1529e-06	271.08	116.39	66.308	31.288	1.2028e-06	61.996	48.620	29.418	6.029	-67.439	43.544	89.736	-68.012	-62.184	27.630	80.914	-63.098	-57.522	-56.737	-51.226	124.932	-52.820	-8191	255	
52845.031	1	1	0	0	0.06796	0.080597	0.094058	0.023369	0.092695	0.071063	0.1671	0.085362	0.24679	0.059076	0.13578	0.056901	0.080178	0.23961	0.091424	0.29864	-4.5437	-5.0042	-4.15	-5.2083	-4.5417	-4.3896	-5.1	-4.3583	-4.6229	-4.8854	-4.2	-5.0104	-4.6083	-4.2812	-5.0333	-4.5021	279.264	277.528	99.373	37.437	253.975	118.955	245.119	-18.755	-23.987	5.627	244.848	195.444	203.232	-66.070	74.074	222.225	0.00076733	0.00023257	0.00012979	575.06	5.39e-06	4.6064e-06	732.2	177.7	1.3219e-06	4.5317e-06	263.32	112.05	63.941	29.917	4.8145e-06	59.27	0.00015093	0.00010963	2.9792e-05	591.6	1.2172e-06	1.1826e-06	751.85	183.23	1.2136e-06	1.1523e-06	271.17	116.37	66.407	31.221	1.183e-06	61.731	53.701	38.759	12.108	-67.206	45.199	112.417	-67.939	-61.991	98.263	90.805	-62.883	-57.537	-56.606	-51.136	49.194	-52.955	-8191	255	
52845.105	1	1	0	0	0.14596	0.12228	0.09847	0.21302	0.12861	0.13355	0.2794	0.10771	0.20781	0.1005	0.16531	0.14079	0.16956	0.19708	0.11316	0.23737	-4.05	-4.8688	-4.05	-4.9583	-4.6229	-4.1958	-5.1917	-4.3146	-4.5021	-5.1979	-4.1917	-4.775	-4.7521	-4.2333	-5.0167	-4.6188	260.969	223.306	7.512	-74.839	146.048	90.481	233.779	231.831	137.424	208.739	-2.201	-67.759	135.445	265.147	215.812	219.587	0.00072853	0.00036644	6.9519e-05	573.5	4.8433e-06	3.1221e-06	731.32	176.36	3.3374e-06	5.0697e-06	261.52	112.06	63.531	29.794	4.2552e-06	59.095	0.00015217	0.00010635	2.9962e-05	589.75	1.2153e-06	1.1836e-06	749.24	182.52	1.2125e-06	1.1255e-06	270.29	115.92	66.156	31.139	1.2071e-06	61.426	54.842	16.084	32.911	-67.105	31.028	77.806	-67.764	-62.019	18.827	59.700	-63.033	-57.452	-56.684	-50.933	60.361	-52.931	-8191	255	
52845.227	1	1	0	0	0.26853	0.23033	0.027188	0.063745	0.050196	0.10383	0.10654	0.098922	0.13332	0.01178	0.17227	0.16087	0.098436	0.14642	0.054196	0.023919	-4.3375	-5.1042	-4.1417	-4.8583	-4.8771	-4.1771	-5.1979	-4.5521	-4.2542	-5.1833	-4.425	-4.7125	-4.9146	-4.3542	-4.9917	-4.7771	251.670	30.500	-73.474	95.637	14.780	-24.238	-71.672	236.635	-7.854	186.174	213.337	210.302	-49.653	59.404	58.425	77.731	0.0007498	0.00038186	9.6353e-05	573.69	3.655e-06	4.5474e-06	723.88	177.18	2.755e-06	5.8072e-06	263.24	111.84	63.653	29.732	2.5335e-06	59.171	0.0001497	0.0001034	3.0445e-05	589.7	1.21e-06	1.1598e-06	747.88	182.48	1.2068e-06	1.1139e-06	270.8	116.4	66.186	31.12	1.214e-06	61.582	56.324	22.941	15.916	-67.124	69.122	57.975	-67.903	-62.064	86.997	57.636	-62.705	-57.507	-56.528	-50.790	67.549	-52.394	-8191	255	
52845.320	1	1	0	0	0.18432	0.16506	0.10928	0.10816	0.17608	0.23701	0.17737	0.19029	0.071409	0.12287	0.26715	0.1393	0.04844	0.055278	0.1309	0.10229	-4.0604	-5.0208	-4.4	-4.8812	-5.0208	-4.0458	-4.9917	-4.7542	-4.1229	-5.2167	-4.6417	-4.5188	-5.0958	-4.275	-4.7417	-4.9125	-16.451	-5.422	222.379	184.165	102.575	8.552	-22.450	139.377	92.967	179.251	155.620	-38.961	213.100	182.936	168.447	203.904	0.00072822	0.00022453	0.00011225	575.68	3.3316e-06	2.647e-06	728.56	176.43	2.5768e-06	2.4958e-06	262.67	112.15	63.9	30.049	2.1557e-06	59.283	0.00015012	0.00010104	3.0568e-05	590.35	1.1563e-06	1.1519e-06	749.63	182.58	1.1905e-06	1.1682e-06	271.37	116.48	66.467	31.255	1.2194e-06	61.749	51.005	8.909	30.373	-67.492	46.894	51.258	-67.710	-62.401	78.653	76.531	-62.702	-57.256	-56.814	-50.916	38.564	-52.894	-8191	255	
52845.418	1	1	0	0	0.074569	0.40808	0.25883	0.1384	0.073207	0.20569	0.32763	0.081491	0.22924	0.11587	0.21303	0.03789	0.082081	0.2414	0.15546	0.2543	-4	-5.1875	-4.4479	-4.425	-5.1792	-3.8812	-4.8729	-4.8583	-4.1458	-5.1896	-4.6792	-4.5021	-5.1979	-4.2771	-4.5687	-5.0271	6.189	124.124	265.537	175.473	164.748	169.864	-42.004	9.902	128.946	157.480	269.409	-61.876	59.412	249.437	172.482	156.933	0.00077579	0.00023244	0.00014539	573.86	5.0207e-06	4.0873e-06	729.86	176.83	2.9042e-06	3.3015e-06	264.11	112.4	64.224	29.889	3.0285e-06	59.593	0.00015147	0.00010781	3.0824e-05	589.58	1.1863e-06	1.1803e-06	750.08	183.35	1.1901e-06	1.1792e-06	272.36	116.82	66.609	31.284	1.2258e-06	61.917	55.768	54.141	1.761	-67.071	1.419	70.929	-67.858	-61.796	21.917	39.156	-62.703	-57.641	-56.561	-51.253	60.716	-52.640	-8191	255	
52845.512	1	1	0	0	0.12875	0.17743	0.28909	0.2065	0.10888	0.15605	0.21351	0.088033	0.18665	0.075389	0.16477	0.22103	0.18742	0.21497	0.14306	0.17537	-3.6917	-5.0833	-4.5708	-4.5125	-5.1042	-4.3396	-4.8646	-4.9333	-4.275	-5.0646	-4.5958	-4.2708	-5.2646	-4.4375	-4.7021	-5.1438	225.573	-34.727	221.371	278.419	196.506	102.117	198.531	260.435	110.607	256.138	273.047	-79.259	272.250	-27.997	70.961	217.879	0.00074874	0.00028068	0.00011852	574.98	3.2026e-06	1.3723e-06	732.16	177.33	2.4455e-06	3.3276e-06	263.78	112.23	63.908	29.759	2.4336e-06	59.068	0.00014943	0.00010756	3.0464e-05	590.63	1.1901e-06	1.1795e-06	750.5	183.13	1.1957e-06	1.1637e-06	271.98	116.38	66.551	31.21	1.2039e-06	61.628	50.888	5.527	2.864	-67.242	74.619	98.113	-67.644	-61.895	46.770	21.631	-62.769	-57.438	-56.574	-50.978	62.193	-52.729	-8191	255	
52845.633	1	1	0	0	0.10436	0.16784	0.25608	0.025051	0.15238	0.10073	0.12488	0.19006	0.30173	0.052051	0.094048	0.043098	0.20856	0.13536	0.10345	0.19573	-3.9375	-4.9771	-4.75	-4.4583	-5.0792	-4.3688	-4.5563	-5.0646	-4.2833	-4.8438	-4.8875	-4.2104	-5.2771	-4.5208	-4.5458	-5.2729	3.168	157.980	14.672	101.729	-26.295	-69.287	40.964	186.891	246.630	237.622	-78.594	135.278	117.928	-17.885	135.784	48.281	0.00077733	0.00029344	5.6499e-05	576.51	3.3626e-06	1.9181e-06	725	176.73	2.986e-06	3.0167e-06	262.5	111.91	63.999	29.84	3.8251e-06	59.257	0.00014969	0.0001088	3.0498e-05	590.2	1.2011e-06	1.1867e-06	748.99	183.11	1.2413e-06	1.1862e-06	271.61	116.49	66.522	31.276	1.2554e-06	61.765	57.396	-0.280	21.332	-67.338	47.659	88.531	-68.178	-62.313	69.255	75.273	-62.654	-57.505	-56.891	-51.296	56.719	-52.738	-8191	255	
52845.703	1	1	0	0	0.050697	0.14924	0.18789	0.22112	0.010706	0.065319	0.036425	0.11592	0.18596	0.16015	0.17038	0.13794	0.053716	0.16325	0.13164	0.081185	-4.0687	-4.8521	-4.8708	-4.2125	-5.0938	-4.5	-4.3792	-5.2583	-4.1354	-4.7646	-5.1667	-4.3812	-5.0521	-4.7063	-4.2292	-5.3083	133.617	162.293	127.723	-77.738	96.512	129.553	66.102	268.608	54.837	222.774	-19.327	174.570	-69.363	183.965	6.696	241.786	0.00066877	0.00035616	8.24e-05	572.65	4.067e-06	2.9377e-06	729.53	177.36	4.1727e-06	3.8375e-06	264.56	112.21	64.276	30.087	3.8223e-06	59.84	0.00015248	0.0001101	3.016e-05	589.84	1.2124e-06	1.1615e-06	750.36	183.36	1.2259e-06	1.1723e-06	272.75	116.54	66.722	31.412	1.2271e-06	62.107	48.553	32.644	-18.464	-67.338	76.413	85.164	-68.192	-62.306	36.883	58.034	-62.724	-57.325	-56.650	-50.954	94.558	-52.790	-8191	255	
52845.801	1	1	0	0	0.13357	0.18787	0.12048	0.1314	0.31611	0.036178	0.18109	0.29746	0.2691	0.13737	0.18104	0.027887	0.10926	0.22769	0.19404	0.10203	-4.0062	-4.6438	-4.8938	-4.1229	-4.9167	-4.4938	-4.4729	-5.3063	-4.3375	-4.5667	-5.0667	-4.1229	-5.0167	-4.6479	-4.2688	-5.2979	93.260	42.496	233.205	59.422	5.764	-48.673	151.925	-57.749	121.170	88.407	-16.856	146.985	109.350	-21.694	-13.230	-56.239	0.00064119	0.00052536	9.9615e-05	574.45	4.0204e-06	4.8461e-06	731.02	177.75	3.4829e-06	2.4013e-06	264.62	112.69	63.812	30.01	4.8349e-06	59.945	0.00015425	0.0001095	3.0312e-05	591.27	1.2287e-06	1.1945e-06	752.71	183.54	1.1999e-06	1.1794e-06	273.04	116.94	66.609	31.426	1.2409e-06	62.222	47.761	0.656	4.209	-67.141	91.664	68.222	-68.043	-62.103	57.857	36.199	-62.616	-57.166	-56.912	-50.868	56.485	-52.627	-8191	255	
52845.922	1	1	0	0	0.19009	0.16865	0.20755	0.03384	0.14369	0.19009	0.20583	0.12688	0.23945	0.14952	0.10636	0.097927	0.15463	0.23407	0.25037	0.091032	-4.1292	-4.4583	-5.1333	-4.1458	-4.8375	-4.6625	-4.3562	-5.125	-4.2979	-4.6646	-5.2521	-4.3229	-4.8958	-5.1021	-3.9604	-5.2625	114.264	145.404	115.994	243.704	38.481	134.590	174.789	274.266	81.171	114.466	51.341	25.987	274.876	125.424	-13.909	122.617	0.00068978	0.00042455	0.00011957	574.37	4.4729e-06	3.7083e-06	729.83	178.05	4.0943e-06	4.7844e-06	264.69	112.73	64.297	30.121	4.0116e-06	59.636	0.00014943	0.0001096	2.984e-05	591.45	1.1906e-06	1.1605e-06	752.84	184.09	1.2383e-06	1.1932e-06	273.43	117.1	66.875	31.463	1.2071e-06	62.051	57.702	6.943	6.071	-67.351	23.656	81.344	-67.908	-62.283	52.525	80.781	-62.648	-57.424	-56.275	-51.440	50.722	-52.756	-8191	255	
52846.016	1	1	0	0	0.23725	0.1502	0.12484	0.072411	0.17473	0.22518	0.071251	0.053158	0.057452	0.067175	0.099569	0.049828	0.059029	0.090267	0.06248	0.20543	-4.2646	-4.4	-5.1271	-4.2625	-4.4729	-4.9042	-4.175	-5.0979	-4.6417	-4.2667	-5.1229	-4.4271	-4.8125	-4.9646	-4.0542	-5.1917	54.732	21.206	-66.712	-61.208	101.680	78.955	205.514	35.153	12.173	-1.356	256.667	237.250	-30.006	266.781	162.229	169.254	0.00062495	0.00038455	0.00010944	576.26	6.6508e-06	3.7971e-06	726.5	178.31	5.2873e-06	3.6421e-06	263.83	112.86	64.314	30.141	3.9112e-06	59.768	0.00015227	0.00010886	3.0242e-05	591.74	1.2443e-06	1.1657e-06	749.83	183.78	1.249e-06	1.1739e-06	272.52	116.86	66.776	31.427	1.2071e-06	62.005	59.859	14.072	10.286	-67.353	38.247	76.776	-68.139	-62.308	54.787	70.992	-62.756	-57.438	-56.419	-51.166	56.027	-52.690	-8191	255	
52846.113	1	1	0	0	0.33015	0.032321	0.17923	0.19234	0.18844	0.024777	0.21758	0.12286	0.090658	0.16564	0.093016	0.13494	0.26566	0.18299	0.056256	0.029976	-4.3729	-4.1687	-5.0729	-4.4187	-4.5167	-5.025	-4.1937	-4.9333	-4.7417	-4.1104	-5.2104	-4.5292	-4.4375	-5.0792	-4.1021	-4.8542	211.804	165.879	196.862	118.946	8.031	105.435	194.603	-65.778	-13.852	-74.271	247.224	228.270	72.487	17.661	135.070	11.583	0.00070024	0.00033159	0.00011946	573.62	3.5897e-06	6.7195e-06	726.87	178.3	3.7369e-06	2.5426e-06	264.81	113.29	64.354	30.032	3.4085e-06	59.555	0.00014895	0.00010908	2.9337e-05	590.55	1.2249e-06	1.1681e-06	750.42	183.78	1.2039e-06	1.1779e-06	272.92	116.98	66.936	31.452	1.2732e-06	62.091	53.842	11.858	-14.529	-67.218	62.688	53.796	-67.873	-62.143	91.175	60.490	-62.841	-57.279	-56.992	-50.927	105.363	-52.819	-8191	255	
52846.211	1	1	0	0	0.32901	0.11958	0.0643	0.056204	0.14227	0.05248	0.14854	0.050578	0.096952	0.12963	0.11261	0.1528	0.048215	0.10865	0.10269	0.083585	-4.5	-4.0813	-5.1021	-4.375	-4.4708	-5.1333	-4.3208	-4.7271	-4.8104	-4.275	-5.1104	-4.5437	-4.3771	-5.1354	-4.1146	-4.8521	121.688	-63.298	123.435	258.252	25.619	65.924	-21.267	85.542	69.893	51.885	-66.711	86.448	13.567	216.925	-2.777	238.610	0.00073581	0.00023296	9.0716e-05	575.08	3.7596e-06	4.1208e-06	733.47	177.71	2.8203e-06	4.7837e-06	265.38	113.4	64.421	30.151	3.4878e-06	59.877	0.0001499	0.00010758	3.0389e-05	591.75	1.2327e-06	1.1828e-06	753.85	184.19	1.2184e-06	1.1828e-06	273.8	117.42	66.959	31.545	1.2379e-06	62.347	47.562	4.349	24.019	-67.185	35.719	89.902	-67.898	-62.341	20.274	55.230	-62.567	-57.221	-56.735	-51.052	68.202	-52.967	-8191	255	
52846.305	1	1	0	0	0.061437	0.26566	0.28125	0.15325	0.31137	0.28231	0.33157	0.14785	0.23062	0.021335	0.1477	0.12322	0.16948	0.19048	0.28721	0.10742	-4.6396	-4.1917	-5.05	-4.6479	-4.3458	-5.0042	-4.3313	-4.7604	-5.1667	-4.2042	-5.0333	-4.7479	-4.2312	-5.2625	-4.2875	-4.6083	268.258	55.430	255.059	164.463	102.142	212.592	115.683	167.379	250.097	-12.432	53.770	145.580	74.341	60.263	113.785	158.909	0.00070192	0.00040406	0.00010424	575.32	3.1018e-06	3.1246e-06	730.15	178.33	3.2614e-06	3.5632e-06	267.85	113.35	64.518	30.329	4.6876e-06	60.071	0.00015219	0.00010985	3.0449e-05	592.46	1.227e-06	1.1782e-06	754.89	184.32	1.2033e-06	1.1905e-06	274.48	117.46	67.121	31.556	1.2898e-06	62.345	56.477	26.791	10.010	-67.134	95.066	81.570	-67.750	-61.969	58.910	83.602	-62.572	-57.016	-57.103	-50.671	56.497	-52.959	-8191	255	
52846.402	1	1	0	0	0.093765	0.044898	0.28481	0.24398	0.29554	0.17496	0.17793	0.099125	0.08831	0.25388	0.20422	0.094686	0.071584	0.23263	0.1367	0.18044	-4.6896	-4.1667	-4.85	-4.8688	-4.175	-5.1042	-4.6708	-4.4083	-4.9604	-4.2021	-4.8271	-4.8604	-4.2979	-5.225	-4.4437	-4.4271	84.944	83.368	241.858	61.302	208.133	89.760	146.015	136.676	-65.856	20.886	201.399	-1.758	76.980	-1.483	37.516	251.212	0.00071568	0.00035692	0.00010977	577.75	5.5661e-06	3.1633e-06	730.76	177.75	3.1668e-06	3.269e-06	265.87	113.3	64.307	30.173	2.0554e-06	59.485	0.00014748	0.00011205	3.0359e-05	592.97	1.2171e-06	1.2084e-06	754.26	184.4	1.1914e-06	1.2221e-06	274	117.28	67.025	31.554	1.2374e-06	62.061	57.761	-2.497	4.476	-67.268	57.646	65.088	-67.890	-62.073	32.045	75.196	-62.592	-57.401	-56.797	-51.187	20.729	-52.767	-8191	255	
52846.523	1	1	0	0	0.095996	0.0979	0.11792	0.072645	0.10039	0.079368	0.039545	0.23174	0.12679	0.082158	0.15861	0.096057	0.064729	0.28739	0.11072	0.037856	-4.7458	-4.2396	-4.7958	-4.7937	-3.8729	-5.0333	-4.625	-4.4167	-5.0646	-4.2188	-4.8792	-4.8	-4.3	-5.1417	-4.625	-4.4688	78.581	42.194	12.230	-24.999	33.486	21.232	-40.462	-69.462	206.264	41.762	256.092	39.729	99.768	151.012	31.279	122.812	0.00070135	0.00034916	6.9085e-05	578.3	1.9708e-06	2.4479e-06	737.27	178.59	3.3142e-06	3.6115e-06	264.82	112.97	64.477	30.193	2.535e-06	59.756	0.00015228	0.00011475	3.0978e-05	593.57	1.2673e-06	1.2006e-06	754.84	184.43	1.2273e-06	1.224e-06	273.79	117.21	67.128	31.62	1.2598e-06	62.291	50.220	14.703	25.428	-67.243	17.876	71.908	-67.864	-62.301	42.226	68.870	-62.520	-57.252	-56.442	-51.087	88.654	-52.846	-8191	255	
52846.617	1	1	0	0	0.059907	0.060964	0.019168	0.11916	0.15624	0.083082	0.12654	0.1088	0.083829	0.27844	0.24208	0.1877	0.04601	0.079176	0.057613	0.25326	-4.7667	-4.1438	-4.7917	-5.0938	-3.9479	-4.9542	-4.6542	-4.2083	-5.0083	-4.3604	-4.8042	-5.1521	-4.0583	-5.0333	-4.6458	-4.275	1.032	50.399	260.185	225.874	164.795	-6.884	53.115	-28.039	184.561	126.761	175.549	103.920	-44.108	206.260	117.870	213.486	0.00068393	0.00042446	8.0443e-05	579.69	5.7268e-06	2.1677e-06	736.03	178.62	4.2197e-06	1.7477e-06	265.86	113.68	64.519	30.415	2.3899e-06	59.737	0.00015253	0.00011331	3.1589e-05	594.4	1.2642e-06	1.2082e-06	756.04	184.57	1.2252e-06	1.1901e-06	273.78	117.67	67.089	31.602	1.2406e-06	62.335	50.954	7.771	4.834	-67.045	36.710	78.063	-67.460	-62.080	38.601	79.145	-62.675	-57.417	-56.775	-51.379	97.857	-52.906	-8191	255	
52846.715	1	1	0	0	0.19888	0.056435	0.13215	0.26349	0.096847	0.09319	0.089239	0.13423	0.095757	0.17998	0.1943	0.041072	0.097387	0.2619	0.12369	0.042609	-4.9625	-4.3479	-4.3646	-5.1583	-4.1021	-4.8938	-4.7896	-4.2458	-5.2125	-4.4604	-4.4271	-5.1021	-4.2771	-4.8104	-4.9646	-4.2125	75.096	-53.208	226.713	223.721	-69.465	184.388	-60.818	254.647	-41.694	246.372	234.485	39.729	131.150	271.823	80.666	269.640	0.00078951	0.00038474	7.7865e-05	578.45	3.9487e-06	3.1633e-06	733.42	178.08	3.6935e-06	4.4776e-06	265.84	113.53	64.31	30.363	3.2207e-06	60.019	0.00015409	0.00011617	3.0875e-05	593.72	1.2584e-06	1.1971e-06	755.3	184.26	1.2237e-06	1.1944e-06	274.03	117.57	66.977	31.626	1.2313e-06	62.379	55.342	38.919	8.150	-67.520	25.698	68.414	-67.576	-62.317	61.220	90.274	-62.720	-57.310	-56.601	-51.353	74.597	-52.790	-8191	255	
52846.809	1	1	0	0	0.13583	0.11845	0.10822	0.21333	0.18618	0.05999	0.061451	0.33241	0.13998	0.18652	0.031147	0.076131	0.18897	0.063233	0.15755	0.2495	-4.7063	-4.4583	-4.4104	-5.1979	-4.125	-4.6896	-5.0104	-4.2292	-4.9542	-4.5188	-4.3771	-5.2271	-4.2125	-4.65	-4.8854	-4.1854	101.913	-63.318	77.792	259.500	272.914	263.343	91.370	-61.157	188.528	116.990	108.919	83.928	249.452	-61.489	-65.051	230.327	0.00072154	0.00038669	0.00010485	577.35	5.8694e-06	5.3939e-06	730.93	178.12	3.6753e-06	4.6834e-06	265.43	112.89	64.262	30.225	1.41e-06	59.623	0.00015262	0.00011112	3.0749e-05	593.28	1.2641e-06	1.2124e-06	754.57	184.48	1.2337e-06	1.2044e-06	273.39	117.23	66.953	31.537	1.2067e-06	62.075	48.261	-0.205	-3.505	-67.372	69.803	47.254	-67.719	-61.951	81.700	51.705	-62.872	-57.560	-56.830	-51.366	38.719	-52.962	-8191	255	
52846.930	1	1	0	0	0.22079	0.16102	0.22802	0.19891	0.28525	0.22259	0.065204	0.057496	0.1814	0.1153	0.084031	0.16362	0.17955	0.17354	0.26714	0.082598	-4.5958	-4.4875	-4.1146	-5.1479	-4.2937	-4.5854	-5.1146	-4.1333	-4.8771	-4.6438	-4.2479	-5.1417	-4.4729	-4.3667	-5.075	-4.0813	111.146	-4.109	-37.155	244.399	123.981	228.577	276.300	33.068	197.193	-3.310	198.316	19.364	210.276	95.901	19.935	232.829	0.00073595	0.00026696	0.00010176	576.72	1.887e-06	2.3377e-06	735.56	178.12	2.7371e-06	4.9298e-06	264.56	111.94	64.171	30.041	2.6259e-06	59.667	0.00015287	0.00010915	3.0987e-05	593.74	1.2829e-06	1.1751e-06	754.45	183.99	1.256e-06	1.1687e-06	272.78	116.97	66.866	31.488	1.2082e-06	62.014	53.336	24.247	5.671	-67.278	47.124	67.570	-67.909	-61.984	40.645	61.187	-63.053	-57.457	-57.004	-51.125	74.391	-53.046	-8191	255	
52847.000	1	1	0	0	0.25649	0.14268	0.15509	0.062144	0.15245	0.18865	0.057372	0.12555	0.037107	0.053623	0.15839	0.2504	0.22441	0.17292	0.14234	0.1127	-4.5417	-4.6708	-4.1229	-5.1	-4.3979	-4.3146	-5.2271	-4.1542	-4.8042	-4.8729	-4.2479	-5.2833	-4.5083	-4.375	-5.0104	-4.2833	41.414	-8.407	-77.600	191.954	81.501	-20.953	147.919	179.960	98.820	97.314	218.744	238.298	-63.848	-27.447	279.765	19.938	0.00071012	0.00036678	0.00010754	578.39	5.0723e-06	5.148e-06	730.92	178.38	2.4769e-06	4.2272e-06	264.68	112.52	63.895	30.132	2.3205e-06	59.801	0.00015348	0.00010757	3.1814e-05	592.88	1.2854e-06	1.2235e-06	754.25	183.77	1.2459e-06	1.1814e-06	272.7	116.71	66.725	31.486	1.2415e-06	62.011	47.139	24.097	12.041	-67.167	46.250	51.435	-67.995	-62.212	7.562	70.019	-62.744	-57.539	-56.708	-51.200	69.159	-52.813	-8191	255	
52847.098	1	1	0	0	0.052905	0.12128	0.28147	0.21526	0.24254	0.11294	0.25671	0.1182	0.18239	0.020239	0.16148	0.027019	0.24523	0.19032	0.12536	0.11403	-4.4083	-4.8604	-4.0042	-5.1458	-4.7167	-4.2875	-5.1583	-4.2104	-4.6375	-5.1062	-4.3021	-5.0854	-4.4437	-4.3917	-4.9938	-4.3292	105.927	225.593	267.666	264.986	237.043	159.299	171.113	102.342	185.955	123.546	168.365	245.840	271.257	176.571	-76.594	238.938	0.00072758	0.00036379	0.00010413	576.06	5.0743e-06	3.1122e-06	736.2	177.97	2.7928e-06	3.5097e-06	265.8	113.04	64.629	30.186	4.2868e-06	59.656	0.00015475	0.00011031	3.02e-05	592.57	1.2641e-06	1.2063e-06	754.51	183.85	1.2188e-06	1.1615e-06	272.92	116.87	66.823	31.518	1.1997e-06	62.076	48.291	35.734	-15.836	-67.256	36.112	64.115	-67.587	-62.220	35.492	55.420	-63.099	-57.321	-56.651	-51.229	71.046	-52.828	-8191	255	
52847.191	1	1	0	0	0.18486	0.13178	0.15569	0.21574	0.12566	0.2392	0.11859	0.18907	0.11075	0.21591	0.084897	0.15297	0.15117	0.11447	0.048475	0.085264	-4.2937	-5.1125	-3.9917	-4.9563	-4.5646	-4.1083	-5.2417	-4.2792	-4.3229	-5.1813	-4.175	-4.8208	-4.8958	-4.1104	-4.8458	-4.5292	156.714	144.193	-28.047	159.841	-78.870	148.211	208.797	-71.658	97.134	78.530	134.296	121.538	265.129	65.112	-43.529	-54.852	0.0007219	0.00042961	9.517e-05	575.52	4.0559e-06	4.2967e-06	735.13	177.99	2.5295e-06	3.9715e-06	264.54	112.13	63.477	30.244	2.9128e-06	59.26	0.0001554	0.00010749	3.1521e-05	593.17	1.2307e-06	1.2135e-06	754.6	183.64	1.2689e-06	1.1927e-06	272.04	116.67	66.444	31.481	1.2426e-06	61.87	50.947	29.520	10.977	-67.322	55.874	54.653	-67.850	-62.029	70.482	67.798	-62.581	-57.437	-56.603	-51.248	73.981	-52.945	-8191	255	
52847.312	1	1	0	0	0.25284	0.11843	0.0079471	0.12439	0.28421	0.11364	0.16868	0.20394	0.093096	0.13293	0.093502	0.13509	0.17564	0.097824	0.097914	0.22064	-4.0896	-4.9542	-4.1208	-4.7521	-4.875	-4.0125	-5.2229	-4.525	-4.3479	-5.0625	-4.2083	-4.7604	-4.9125	-4.125	-4.9062	-4.4604	181.056	206.551	267.954	107.622	34.575	137.575	179.134	147.391	68.981	197.767	256.558	20.212	135.844	-46.068	186.388	251.000	0.00074505	0.00037408	7.8733e-05	573.41	5.3295e-06	3.0877e-06	730.49	176.06	2.6035e-06	4.522e-06	263.47	112.28	63.91	30.157	3.0431e-06	58.854	0.00015114	0.000108	3.1461e-05	591.19	1.2008e-06	1.2126e-06	751.65	182.5	1.2379e-06	1.1785e-06	271.42	116.33	66.476	31.383	1.2563e-06	61.594	49.370	7.269	15.377	-67.436	60.002	33.698	-67.909	-62.102	5.624	76.754	-62.799	-57.649	-56.944	-51.174	92.399	-52.840	-8191	255	
52847.410	1	1	0	0	0.18367	0.080632	0.2147	0.15558	0.19957	0.15011	0.17651	0.17391	0.15911	0.16569	0.11337	0.17899	0.05547	0.11892	0.17174	0.28775	-4.0583	-5.1583	-4.2729	-4.6875	-4.9437	-3.9437	-5.0271	-4.6	-4.175	-5.1125	-4.3313	-4.6208	-5.0375	-4.1312	-4.9458	-4.7854	163.149	168.029	168.222	232.934	198.626	-63.240	103.120	136.929	259.212	14.460	265.789	193.529	14.072	45.860	155.407	165.227	0.00067684	0.00019834	0.00012737	574.24	4.8902e-06	3.9285e-06	727.3	176.73	3.0517e-06	3.9465e-06	262.19	111.56	63.511	30.097	2.5837e-06	59.188	0.00015279	0.00010514	3.125e-05	590.13	1.1828e-06	1.2387e-06	750.11	182.64	1.2282e-06	1.1842e-06	271.01	116.14	66.317	31.319	1.2377e-06	61.682	54.386	7.661	15.489	-67.011	56.204	61.174	-67.881	-62.314	42.281	63.396	-63.058	-57.451	-56.782	-51.099	93.648	-52.803	-8191	255	
52847.508	1	1	0	0	0.10556	0.068954	0.19949	0.25	0.06937	0.071087	0.26476	0.10667	0.077215	0.29021	0.21857	0.17717	0.11897	0.11239	0.032891	0.15446	-3.8354	-5.0563	-4.3271	-4.4417	-5.1458	-3.9146	-4.8542	-4.7583	-4.0521	-5.1021	-4.3208	-4.4333	-5.1667	-4.1937	-4.7	-5.0417	125.769	138.120	-46.871	-46.792	-31.931	104.537	205.355	216.144	16.724	277.055	194.635	68.509	-31.814	-57.398	168.031	-23.617	0.00078976	0.00021297	9.0284e-05	574.8	5.4992e-06	3.0703e-06	731.04	176.22	4.2553e-06	4.0464e-06	263.07	112.09	63.649	29.899	3.9247e-06	59.066	0.00014745	0.00011124	3.1783e-05	590.05	1.2169e-06	1.2169e-06	751.16	182.49	1.2779e-06	1.2223e-06	271.01	116.16	66.401	31.337	1.2152e-06	61.638	56.540	15.530	9.872	-67.203	58.493	86.083	-68.048	-62.095	32.124	71.905	-62.917	-57.458	-56.681	-50.942	55.509	-52.878	-8191	255	
52847.602	1	1	0	0	0.10351	0.051132	0.097606	0.19127	0.11496	0.12626	0.088434	0.099539	0.12968	0.063333	0.2333	0.24259	0.24093	0.050937	0.0441	0.07739	-3.7667	-5.0625	-4.4667	-4.4396	-4.9563	-4.1625	-4.7188	-4.9667	-4.1667	-4.9083	-4.4042	-4.5208	-5.1167	-4.3458	-4.6083	-5.0396	192.705	62.937	-42.173	95.707	226.133	254.451	50.300	237.322	-19.786	67.077	168.216	259.441	264.786	137.462	-15.046	163.653	0.00077574	0.00044198	8.1811e-05	569.96	3.9762e-06	3.5928e-06	729.71	176.24	3.7396e-06	3.7034e-06	260.77	111.8	63.986	29.686	3.7718e-06	59.041	0.00015271	0.00011166	3.0495e-05	587.86	1.2261e-06	1.2251e-06	751.52	182.26	1.2341e-06	1.1993e-06	270.31	116.14	66.324	31.173	1.2186e-06	61.47	59.718	29.627	-3.397	-67.417	41.054	70.633	-68.094	-62.160	58.373	52.510	-62.640	-57.712	-56.924	-51.211	70.919	-52.705	-8191	255	
52847.695	1	1	0	0	0.0048783	0.13467	0.1777	0.17464	0.035188	0.16953	0.10211	0.15009	0.13059	0.15998	0.046241	0.10926	0.037878	0.044648	0.2055	0.045451	-3.8375	-4.8583	-4.6896	-4.3458	-5.0729	-4.2417	-4.6208	-5.0271	-4.1312	-4.9563	-4.7771	-4.2667	-4.9229	-4.4	-4.4563	-5.125	113.696	-43.124	-60.007	-79.576	70.672	206.537	113.062	161.461	-78.376	226.825	22.302	166.116	51.220	152.496	-6.871	132.277	0.00062541	0.00026161	9.2284e-05	571.98	3.8615e-06	2.696e-06	723.3	175.25	1.5763e-06	2.7091e-06	262.15	111.24	63.678	29.872	9.7516e-07	59.087	0.00015202	0.0001105	3.0502e-05	588.76	1.2244e-06	1.2006e-06	748.22	181.96	1.2402e-06	1.1895e-06	270.25	115.67	66.32	31.162	1.2346e-06	61.516	52.932	32.986	9.012	-67.409	51.856	91.087	-67.911	-61.941	52.173	53.173	-62.642	-57.708	-56.738	-51.083	84.230	-52.785	-8191	255	
52847.793	1	1	0	0	0.1441	0.29253	0.14394	0.21938	0.054453	0.13633	0.073123	0.17836	0.19797	0.15005	0.20301	0.17961	0.16364	0.18431	0.086561	0.16729	-3.8292	-4.9104	-4.7979	-4.1813	-5.0271	-4.4333	-4.375	-5.0271	-4.1479	-4.7292	-4.8458	-4.2438	-5.1729	-4.5687	-4.2917	-5.1917	76.691	116.196	254.126	224.152	23.777	196.447	57.458	102.171	-33.022	-25.826	190.116	271.607	1.058	-0.970	99.419	180.326	0.00070277	0.00027086	6.1501e-05	572.83	4.2293e-06	4.5808e-06	730.08	175.93	2.4768e-06	3.7514e-06	262.69	112.19	63.876	30	1.5347e-06	59.074	0.00015607	0.0001055	2.9673e-05	589.1	1.2093e-06	1.205e-06	749.65	182.41	1.2717e-06	1.1983e-06	270.9	116.04	66.286	31.322	1.2248e-06	61.647	53.223	-1.240	9.475	-67.544	60.225	86.931	-67.873	-62.094	57.957	50.659	-62.616	-57.801	-56.655	-51.059	53.501	-52.738	-8191	255	
52847.891	1	1	0	0	0.062479	0.18446	0.088128	0.15501	0.24001	0.17857	0.084809	0.042744	0.21456	0.15018	0.15218	0.21399	0.11142	0.085108	0.18583	0.12777	-3.7979	-4.6021	-4.8625	-4.1583	-4.925	-4.6729	-4.4542	-5.1833	-4.1979	-4.6687	-5.0188	-4.25	-4.9812	-4.6021	-3.9833	-5.2312	237.035	260.756	20.194	153.915	279.251	196.841	109.477	14.187	134.283	-75.661	182.223	29.793	-51.693	27.850	41.891	84.149	0.00085188	0.00018555	0.00011409	574.18	5.4825e-06	3.4524e-06	732.03	176.95	4.881e-06	3.3482e-06	264.15	112.52	63.828	30.112	3.5162e-06	59.607	0.00015463	0.00011066	3.0703e-05	590.13	1.2494e-06	1.1732e-06	752.98	183.12	1.2358e-06	1.1915e-06	272.54	116.68	66.601	31.436	1.2644e-06	62.129	57.032	-25.659	10.317	-67.236	49.248	86.772	-68.045	-61.768	65.675	26.390	-62.800	-57.568	-56.758	-51.094	73.105	-52.886	-8191	255	
52848.012	1	1	0	0	0.024606	0.048005	0.12674	0.052524	0.13652	0.11809	0.11242	0.18496	0.043718	0.21911	0.026589	0.20676	0.20918	0.26215	0.070273	0.14083	-3.8063	-4.5167	-5.0542	-4.0208	-4.8146	-4.7667	-4.1312	-5.0771	-4.3896	-4.5563	-5.0479	-4.1583	-4.7688	-4.7667	-4.1792	-5.1167	151.942	235.974	-3.281	269.153	-57.916	-46.645	226.406	276.982	25.690	269.029	211.556	196.621	274.452	242.630	182.093	137.935	0.00069309	0.00032631	8.8098e-05	577.27	4.3723e-06	3.5339e-06	731.39	177.7	2.362e-06	2.5673e-06	265.41	112.76	63.989	30.168	4.0557e-06	59.664	0.00015229	0.00011076	3.0365e-05	592	1.2617e-06	1.1429e-06	755.11	183.72	1.3065e-06	1.1805e-06	273.05	117.11	66.806	31.568	1.2737e-06	62.225	53.367	-5.030	10.264	-67.352	33.294	78.593	-67.827	-62.030	98.733	77.885	-62.793	-57.520	-56.763	-51.250	96.070	-52.858	-8191	255	
52848.105	1	1	0	0	0.052188	0.13377	0.15295	0.12032	0.30733	0.21698	0.21201	0.080523	0.17999	0.19263	0.16486	0.078914	0.20358	0.18881	0.27851	0.13883	-4.0708	-4.4313	-5.0542	-4.0792	-4.8708	-4.775	-4.175	-5.1875	-4.4729	-4.3	-5.2771	-4.3	-4.6875	-4.9646	-4.0729	-5.0042	268.033	228.277	3.510	107.089	-18.999	92.064	232.657	133.936	179.527	194.729	79.559	0.343	-17.965	17.218	237.892	165.315	0.0007557	0.00035443	0.00011358	577.56	4.6087e-06	4.8675e-06	732.59	176.28	3.6366e-06	4.8073e-06	263.76	112.32	64.151	30.011	2.9567e-06	59.324	0.00015357	0.00011053	2.9891e-05	592.53	1.2356e-06	1.1792e-06	754.41	183.17	1.2187e-06	1.2206e-06	272.39	116.74	66.72	31.389	1.2571e-06	61.862	56.054	22.639	4.439	-67.331	47.292	65.725	-67.893	-62.287	70.599	66.047	-62.747	-57.474	-56.882	-50.918	67.874	-52.857	-8191	255	
52848.203	1	1	0	0	0.15396	0.073675	0.0061161	0.13611	0.24431	0.068871	0.1497	0.11055	0.046731	0.090109	0.24854	0.24524	0.24683	0.056916	0.13785	0.29945	-4.2958	-4.3354	-5.1292	-4.3688	-4.4417	-4.8229	-4.1583	-4.95	-4.5687	-4.3042	-5.0396	-4.4688	-4.6042	-4.9417	-4.0375	-5.0813	258.952	209.216	278.511	-29.885	-48.369	202.969	248.911	223.616	205.923	63.670	212.345	273.711	195.874	153.894	194.423	176.715	0.00075765	0.00024336	0.00011435	574.13	5.3829e-06	5.1486e-06	730.58	177.85	2.8031e-06	2.5998e-06	263.72	112.19	63.871	29.967	3.0279e-06	59.275	0.00015278	0.00010903	3.1117e-05	591.09	1.2398e-06	1.184e-06	752.57	183.2	1.2061e-06	1.1872e-06	272.4	116.48	66.649	31.424	1.2818e-06	61.887	54.906	50.547	24.293	-67.301	87.000	82.494	-67.720	-62.328	19.852	54.920	-62.776	-57.173	-56.484	-51.079	59.393	-53.081	-8191	255	
52848.297	1	1	0	0	0.031069	0.17582	0.10025	0.13965	0.058126	0.17701	0.15641	0.24502	0.10685	0.1334	0.069416	0.22441	0.062436	0.04661	0.12402	0.20044	-4.3521	-4.2562	-5.0396	-4.4625	-4.3562	-4.9583	-4.1979	-4.8	-4.6771	-4.0979	-5.0958	-4.5083	-4.4583	-5.2396	-4.15	-4.7937	244.344	75.340	226.903	215.210	-11.067	48.907	243.273	222.986	-54.441	68.328	90.505	234.658	-13.130	-58.560	-0.363	271.711	0.00069956	0.00026631	0.00010871	577.11	6.3363e-06	2.8525e-06	733.1	177.46	4.1589e-06	2.585e-06	262.11	112.6	64.538	29.961	3.0673e-06	59.467	0.00015172	0.00011391	3.0167e-05	591.15	1.2401e-06	1.1956e-06	753.52	183.42	1.2312e-06	1.2179e-06	272.05	116.8	66.821	31.467	1.2912e-06	62.081	52.365	-19.476	23.096	-67.456	60.745	60.686	-67.774	-62.032	54.535	33.908	-62.722	-57.357	-56.794	-51.066	43.745	-52.849	-8191	255	
52848.395	1	1	0	0	0.2025	0.22149	0.036628	0.25233	0.1849	0.17524	0.095909	0.30823	0.15159	0.15091	0.17922	0.06555	0.14243	0.1846	0.075608	0.21196	-4.5625	-4.1729	-5.1687	-4.5896	-4.375	-5.0687	-4.2688	-4.6813	-4.9333	-4.0146	-5.025	-4.6729	-4.3375	-5.1479	-4.1188	-4.7125	10.548	241.480	200.259	240.765	249.024	-45.664	210.143	228.827	68.807	-31.880	260.561	243.042	57.075	68.589	105.750	244.847	0.00074993	0.00025893	0.00012673	576.75	4.4573e-06	4.4587e-06	734.2	177.86	2.6215e-06	3.281e-06	265.11	112.4	64.481	30.314	2.0859e-06	59.528	0.00015114	0.00011342	3.1166e-05	592.56	1.2681e-06	1.2041e-06	755.35	183.73	1.2455e-06	1.229e-06	273.26	117.1	67.003	31.573	1.2984e-06	62.172	54.741	6.165	10.537	-67.236	59.058	98.701	-67.851	-61.943	108.146	48.869	-63.034	-57.158	-56.728	-50.999	67.919	-52.793	-8191	255	
52848.492	1	1	0	0	0.15262	0.21856	0.1693	0.096902	0.2033	0.067365	0.17196	0.21806	0.061315	0.1846	0.052653	0.018728	0.13916	0.11469	0.089738	0.038375	-4.8458	-4.0479	-4.8729	-4.8438	-4.275	-5.2167	-4.6042	-4.6042	-4.975	-4.2625	-4.95	-4.8313	-4.2604	-5.1833	-4.25	-4.5062	27.130	116.682	4.792	185.653	130.713	57.375	86.398	-30.273	6.377	96.268	27.558	-32.731	162.164	-0.192	-45.964	3.563	0.00067652	0.00021911	6.8085e-05	577.46	6.1166e-06	3.8201e-06	731.99	177.8	2.0608e-06	3.2602e-06	266.49	113.96	64.419	30.156	1.4626e-06	59.641	0.00014923	0.00011194	3.0681e-05	593.57	1.2777e-06	1.1981e-06	756.48	184.05	1.2353e-06	1.1998e-06	273.89	117.48	66.941	31.566	1.2777e-06	62.184	53.099	23.579	-2.020	-67.151	70.683	60.040	-67.724	-62.298	47.551	76.969	-62.705	-57.225	-56.607	-51.092	102.031	-53.031	-8191	255	
52848.609	1	1	0	0	0.14775	0.099341	0.18015	0.18001	0.17076	0.10402	0.22664	0.1805	0.05165	0.026734	0.16452	0.23004	0.12745	0.24915	0.16098	0.32453	-4.8812	-4.2063	-4.8396	-4.8667	-4.1167	-5.0604	-4.6396	-4.5479	-5.0917	-4.0521	-4.7562	-4.8979	-4.1167	-5.1146	-4.5687	-4.3729	103.009	-1.561	179.085	-75.031	-3.529	116.675	216.289	235.573	166.140	272.807	210.135	279.855	201.354	278.724	146.497	221.916	0.00069535	0.00040932	8.588e-05	575.81	3.3484e-06	4.0042e-06	732.51	177.06	2.2423e-06	3.8468e-06	265.22	112.56	64.082	30.113	3.6003e-06	59.41	0.00015188	0.00011434	3.1252e-05	591.65	1.2338e-06	1.2022e-06	753.3	183.48	1.2307e-06	1.269e-06	273.51	116.76	66.785	31.44	1.261e-06	61.941	47.102	13.310	-3.931	-67.428	54.637	87.752	-67.863	-61.986	17.594	77.641	-62.645	-57.512	-57.155	-50.880	81.321	-52.899	-8191	255	
52848.707	1	1	0	0	0.17344	0.19066	0.059721	0.22281	0.20326	0.17425	0.15936	0.24329	0.22839	0.07334	0.1831	0.10768	0.23926	0.10703	0.038388	0.13752	-4.7167	-4.0792	-4.7396	-4.9667	-4.1604	-5.0083	-4.6875	-4.2208	-5.0625	-4.25	-4.6375	-5.0312	-4.1833	-5.1312	-4.4625	-4.3042	203.871	-5.747	79.466	271.097	9.674	-14.382	276.853	-69.663	58.228	19.893	-69.726	189.356	-53.639	122.389	267.312	205.141	0.00086084	0.00031311	8.5429e-05	574.93	4.8745e-06	3.4214e-06	732.85	177.25	2.9595e-06	2.6215e-06	264.84	112.77	64.264	30.168	3.3755e-06	59.589	0.00015378	0.00011385	3.074e-05	591.7	1.2592e-06	1.1585e-06	754.72	183.59	1.2264e-06	1.2165e-06	273.42	117.08	66.931	31.584	1.2369e-06	62.142	52.355	-4.389	3.101	-67.484	35.163	61.308	-67.575	-62.153	52.880	81.345	-62.568	-57.272	-56.605	-51.201	64.261	-52.835	-8191	255	
52848.801	1	1	0	0	0.044205	0.2451	0.20903	0.2355	0.16429	0.18613	0.087893	0.09003	0.10672	0.19556	0.12295	0.068202	0.16181	0.1037	0.029109	0.15186	-4.9292	-4.2083	-4.45	-5.2208	-3.9562	-4.9458	-4.8354	-4.1312	-4.8896	-4.4688	-4.5458	-5.1146	-4.1417	-4.8688	-4.825	-4.2438	-59.710	178.803	92.038	231.191	2.303	-66.418	183.978	263.160	-19.110	105.163	263.398	61.333	232.919	170.829	19.835	228.880	0.00072224	0.00031839	7.361e-05	578.12	2.0655e-06	2.3164e-06	735.24	178.79	4.0214e-06	3.0096e-06	265.61	113.63	64.701	30.39	3.9174e-06	60.128	0.00015429	0.00011323	3.0703e-05	594.93	1.2553e-06	1.2062e-06	757.31	184.6	1.2534e-06	1.2092e-06	274.12	117.64	67.222	31.784	1.273e-06	62.637	51.208	-13.778	7.364	-67.291	62.516	70.101	-67.953	-62.419	39.663	78.665	-62.588	-57.508	-56.405	-51.357	111.120	-52.825	-8191	255	
52848.871	1	1	0	0	0.15627	0.16822	0.0097348	0.18412	0.31462	0.21562	0.23136	0.038008	0.18155	0.12832	0.23283	0.26742	0.13329	0.18922	0.17208	0.03136	-4.6979	-4.3625	-4.2854	-5.1854	-3.9875	-4.6917	-4.8979	-4.2417	-5.0604	-4.5188	-4.1604	-5.2333	-4.1479	-4.8292	-4.7812	-4.2208	25.376	215.421	223.874	-39.631	163.069	270.358	205.991	268.872	-72.313	217.574	149.752	180.610	148.802	93.050	22.438	270.415	0.00076356	0.00039099	8.3432e-05	578.81	3.9777e-06	3.1907e-06	738.97	178.92	3.2024e-06	3.912e-06	267.37	113.82	64.998	30.501	3.367e-06	60.303	0.00015418	0.00011374	3.2033e-05	595.14	1.2896e-06	1.1866e-06	760.51	185.08	1.2563e-06	1.2043e-06	275.15	118.16	67.477	31.903	1.268e-06	62.891	55.422	13.413	27.523	-67.224	61.437	82.058	-67.970	-62.281	18.226	47.908	-62.624	-57.247	-56.702	-51.305	63.873	-52.733	-8191	255	
52848.969	1	1	0	0	0.16141	0.066003	0.11274	0.12249	0.18738	0.014293	0.21056	0.12696	0.036306	0.15138	0.13081	0.080856	0.0079233	0.2558	0.17554	0.30837	-4.6604	-4.4437	-4.2333	-5.2708	-4.1292	-4.5542	-5.0708	-4.1687	-4.9042	-4.6396	-4.3854	-5.2333	-4.3167	-4.5708	-5.15	-4.3208	226.768	-16.470	-9.375	98.295	136.883	47.632	257.708	125.564	242.102	201.857	176.740	228.753	90.506	-45.620	95.568	220.289	0.00073397	0.00026187	9.7136e-05	583.6	4.2521e-06	3.5169e-06	738.2	179.22	3.8127e-06	4.8126e-06	265.21	113.99	64.866	30.466	2.7564e-06	59.979	0.00015697	0.00011266	3.256e-05	597.75	1.2753e-06	1.2249e-06	760.28	185.1	1.2288e-06	1.1951e-06	274.46	117.8	67.547	31.804	1.2619e-06	62.523	48.280	33.741	-8.597	-67.392	52.783	59.409	-67.675	-62.340	55.301	71.803	-62.732	-57.355	-56.775	-50.949	108.970	-52.942	-8191	255	
52849.090	1	1	0	0	0.11953	0.1113	0.037496	0.04978	0.083537	0.055205	0.35188	0.0079705	0.10168	0.13209	0.20999	0.09311	0.079564	0.072758	0.14355	0.18221	-4.675	-4.7958	-4.0437	-5.1188	-4.4708	-4.4187	-5.1854	-4.2729	-4.7667	-4.9875	-4.2833	-5.3896	-4.5458	-4.2167	-5.1125	-4.2021	-28.223	-75.709	265.821	241.668	75.642	13.252	205.901	148.912	211.720	205.494	253.680	-1.441	185.262	3.093	103.436	-67.880	0.0007355	0.00029125	9.613e-05	580.29	5.3387e-06	3.4611e-06	740.83	178.98	3.1959e-06	4.4602e-06	265.05	113.53	64.512	30.374	4.0828e-06	59.761	0.00015547	0.00011614	3.1947e-05	595.28	1.2559e-06	1.2019e-06	759.25	184.77	1.2476e-06	1.2412e-06	274.51	117.75	67.327	31.838	1.2196e-06	62.409	57.182	-7.490	-1.658	-67.553	48.385	111.727	-67.775	-62.338	25.147	79.005	-63.043	-57.518	-56.732	-51.379	69.269	-52.824	-8191	255	
52849.188	1	1	0	0	0.16587	0.080416	0.12049	0.18119	0.17314	0.11033	0.1769	0.2274	0.063369	0.086537	0.075237	0.13138	0.13899	0.16257	0.040204	0.26757	-4.4563	-4.8396	-4.0208	-5.1042	-4.5208	-4.3333	-5.25	-4.0604	-4.6208	-4.9833	-4.2125	-5.2833	-4.5667	-4.2188	-5.1542	-4.4604	-78.374	263.320	-26.756	202.951	267.447	246.003	182.143	237.756	104.834	89.825	238.153	214.651	143.587	-47.539	18.943	203.142	0.0007596	0.00016417	8.6063e-05	577.55	3.8773e-06	4.0042e-06	735.98	179.39	3.0589e-06	3.1306e-06	265.69	113.75	64.696	30.42	4.9672e-06	60.419	0.00015651	0.0001089	3.2571e-05	595.07	1.2135e-06	1.2086e-06	759.14	185.2	1.2204e-06	1.1837e-06	274.71	117.93	67.437	31.84	1.2646e-06	62.779	56.053	31.114	27.775	-67.331	29.062	41.401	-67.736	-62.056	7.256	79.474	-63.008	-57.485	-56.600	-51.209	73.878	-53.011	-8191	255	
52849.281	1	1	0	0	0.23723	0.16663	0.29398	0.17563	0.13814	0.18683	0.063755	0.16254	0.1542	0.10087	0.23793	0.018973	0.063793	0.13725	0.22097	0.021579	-4.175	-4.9208	-3.9979	-5.0625	-4.6104	-4.2937	-5.2833	-4.3854	-4.5729	-5.0458	-4.2562	-4.9042	-4.8042	-4.3396	-5.0271	-4.55	257.074	47.207	274.458	163.452	182.593	2.648	199.183	193.708	-20.347	-45.504	257.813	133.504	172.334	12.594	152.071	235.888	0.0007605	0.00036835	0.00012078	579.2	3.6165e-06	4.3316e-06	736.84	178.44	3.7588e-06	4.2061e-06	267.44	113.65	64.516	30.522	2.8915e-06	60.206	0.00015449	0.00011388	3.2851e-05	596.44	1.265e-06	1.2428e-06	760.01	184.56	1.2928e-06	1.2166e-06	275.16	117.91	67.402	31.801	1.2687e-06	62.587	51.998	7.353	2.176	-67.247	33.458	52.280	-67.796	-62.392	8.554	25.277	-62.678	-57.294	-56.388	-50.997	94.930	-52.967	-8191	255	
52849.402	1	1	0	0	0.093453	0.13403	0.052764	0.11657	0.11699	0.075465	0.18454	0.13132	0.076698	0.241	0.23358	0.17211	0.053175	0.075935	0.17188	0.2414	-4.0354	-5.1646	-4.0521	-4.9458	-4.7458	-4.1917	-5.0708	-4.5104	-4.3417	-5.1312	-4.1312	-4.7854	-4.7896	-4.0917	-4.9583	-4.4604	265.035	53.610	-37.572	-52.500	237.867	-55.330	257.011	50.537	126.477	130.777	121.847	251.027	-22.924	230.955	-59.737	-53.180	0.00079573	0.0004301	7.6078e-05	578.6	3.7833e-06	4.4541e-06	739.36	177.93	1.9961e-06	5.216e-06	265.19	113.86	64.755	30.472	2.6575e-06	60.014	0.00015816	0.0001149	3.2271e-05	594.9	1.2777e-06	1.2354e-06	758.42	184.36	1.2957e-06	1.2206e-06	273.88	118.01	67.327	31.79	1.231e-06	62.397	53.516	-4.912	15.925	-67.463	34.692	73.593	-67.717	-62.165	51.950	75.181	-62.962	-57.547	-56.883	-51.369	84.152	-52.812	-8191	255	
52849.477	1	1	0	0	0.32942	0.1414	0.092632	0.13572	0.21193	0.10199	0.1491	0.20201	0.15247	0.060279	0.11125	0.011686	0.046971	0.13741	0.064108	0.17337	-4.0354	-5.0333	-4.3167	-4.7188	-4.7937	-4.1354	-5.0708	-4.7104	-4.2063	-5.075	-4.2604	-4.6479	-5.1167	-4.1813	-4.9437	-4.7979	35.606	97.865	-57.877	-15.943	-58.639	131.558	259.538	262.322	218.582	141.409	249.028	240.629	170.133	143.716	90.643	238.817	0.0007208	0.00038335	8.8579e-05	575.34	4.8988e-06	3.2506e-06	735.75	179.28	2.6252e-06	4.3931e-06	266.43	112.93	64.838	30.339	3.4181e-06	59.958	0.00015678	0.00011138	3.1296e-05	593.3	1.2657e-06	1.2667e-06	757.23	184.74	1.3213e-06	1.2093e-06	274.11	117.4	67.358	31.773	1.2658e-06	62.451	52.451	18.463	5.585	-67.101	43.467	90.397	-68.013	-61.834	52.386	64.358	-62.724	-57.409	-56.961	-51.453	84.812	-52.822	-8191	255	
52849.570	1	1	0	0	0.15601	0.21801	0.23736	0.18758	0.16275	0.2916	0.17344	0.074249	0.093917	0.24011	0.11653	0.19555	0.1386	0.18516	0.30407	0.074233	-3.9417	-5.1333	-4.3417	-4.5542	-4.9938	-4.1292	-4.9563	-4.7562	-4.0563	-5.1979	-4.4479	-4.4396	-5.1937	-4.0896	-4.8167	-4.9667	276.745	-63.100	156.337	170.030	-38.440	246.326	242.519	2.866	-17.822	98.994	169.073	240.118	-33.585	247.715	26.778	194.278	0.00077328	0.00025475	9.7667e-05	578.29	4.5359e-06	3.2287e-06	734.07	179.3	4.39e-06	3.6073e-06	266.5	113.47	64.714	30.261	4.0712e-06	59.82	0.00015981	0.00011634	3.1834e-05	595.32	1.2645e-06	1.2652e-06	758.05	184.82	1.3002e-06	1.2231e-06	274.06	117.61	67.278	31.758	1.2649e-06	62.557	56.509	21.685	20.212	-67.477	68.499	54.477	-67.754	-62.087	48.347	60.040	-62.407	-57.609	-56.841	-51.140	42.514	-52.763	-8191	255	
52849.691	1	1	0	0	0.11012	0.36668	0.010102	0.20294	0.025819	0.06497	0.22769	0.3136	0.095891	0.19122	0.077888	0.21994	0.10794	0.24407	0.19297	0.13214	-3.9188	-5.1083	-4.5229	-4.3562	-5.1625	-4.0208	-4.7146	-4.9792	-4.1771	-5.1062	-4.7688	-4.3812	-5.2104	-4.1896	-4.5563	-5.0167	-73.865	16.498	-51.526	-72.989	129.081	225.717	227.784	190.124	279.011	11.728	242.302	200.823	126.404	-10.006	6.639	-23.007	0.00069757	0.00035868	8.053e-05	578.89	6.428e-06	4.2321e-06	740.8	178.89	1.8399e-06	3.1402e-06	265.88	113.63	64.692	30.611	2.5559e-06	60.282	0.00015648	0.0001132	3.1834e-05	596.45	1.2609e-06	1.2598e-06	761.49	184.6	1.3338e-06	1.2103e-06	274.36	118.02	67.417	31.838	1.3123e-06	62.7	50.356	14.227	-0.467	-67.443	54.202	73.220	-68.097	-62.060	-5.429	28.998	-62.597	-57.384	-56.318	-51.277	62.002	-53.071	-8191	255	
52849.785	1	1	0	0	0.17088	0.09522	0.18597	0.12281	0.14139	0.17668	0.12896	0.19022	0.15425	0.165	0.23378	0.25063	0.081176	0.077602	0.27482	0.16882	-3.8104	-4.8875	-4.4771	-4.3083	-5.075	-4.1875	-4.6729	-4.875	-4.15	-4.8896	-4.8292	-4.2646	-5.0583	-4.3167	-4.3875	-5.3292	247.019	219.917	143.677	164.493	13.724	53.720	-66.884	137.856	188.782	76.965	178.745	236.475	-70.164	44.934	-33.291	-78.607	0.00074545	0.000346	4.8762e-05	581.29	2.6859e-06	3.7775e-06	739.56	179.33	4.2304e-06	4.6101e-06	266.85	113.05	64.426	30.262	2.1483e-06	59.722	0.00016006	0.00011589	3.1395e-05	597.39	1.2866e-06	1.2346e-06	763.33	185.05	1.3255e-06	1.2183e-06	274.99	117.85	67.156	31.729	1.263e-06	62.465	58.652	-3.055	-3.170	-67.298	70.273	89.060	-67.871	-61.924	4.145	55.124	-63.088	-57.126	-56.457	-51.022	74.184	-52.739	-8191	255	
52849.883	1	1	0	0	0.12784	0.13975	0.07481	0.053547	0.018879	0.14104	0.21459	0.16099	0.18247	0.075005	0.033124	0.29863	0.13998	0.10485	0.21871	0.086153	-3.8417	-4.9083	-4.7875	-4.4604	-5.2896	-4.4042	-4.5729	-5.1396	-3.9417	-4.8125	-4.8417	-4.3125	-5.0229	-4.6229	-4.2458	-5.2771	244.707	-60.283	194.647	267.101	-42.340	-65.041	219.105	99.112	236.076	1.647	244.471	224.986	-69.681	-41.068	263.514	-60.301	0.00077612	0.00044631	0.00013521	581.73	5.5479e-06	2.6655e-06	738.16	178.29	4.3926e-06	3.6242e-06	264.38	112.83	64.239	30.237	1.7655e-06	59.456	0.00015708	0.00011241	3.2591e-05	596.49	1.2656e-06	1.2347e-06	760.87	184.24	1.2752e-06	1.2465e-06	273.3	117	66.822	31.476	1.2709e-06	61.936	57.814	15.886	6.060	-67.717	48.135	51.431	-68.040	-62.215	70.892	107.680	-62.629	-57.410	-56.879	-51.109	120.433	-52.644	-8191	255	
52850.004	1	1	0	0	0.066552	0.2143	0.18586	0.10797	0.05504	0.38338	0.12156	0.085395	0.3195	0.1313	0.18963	0.41428	0.12536	0.22144	0.077809	0.18203	-3.8854	-4.7417	-4.8583	-4.2333	-5.0458	-4.5271	-4.5875	-5.4062	-4.0938	-4.7104	-4.975	-4.2167	-5.1104	-4.6458	-4.1979	-5.1604	262.230	-23.987	14.371	200.425	-18.568	-55.474	202.959	-43.233	119.677	104.442	183.482	-16.769	206.747	-36.021	-36.637	169.702	0.00069605	0.00043426	0.00013791	579.14	3.3727e-06	8.2819e-07	734.13	178.04	3.7145e-06	2.9466e-06	264.42	111.97	63.963	29.993	2.9131e-06	59.288	0.00015269	0.00011159	3.0577e-05	594.61	1.1749e-06	1.2271e-06	757.38	183.76	1.2632e-06	1.2449e-06	272.79	116.48	66.657	31.352	1.2764e-06	61.823	56.695	22.707	39.044	-67.165	21.392	63.478	-67.963	-62.393	48.193	83.122	-62.644	-57.687	-56.654	-50.895	36.922	-52.698	-8191	255	
52850.098	1	1	0	0	0.16536	0.1174	0.08916	0.12682	0.14223	0.299	0.12709	0.11862	0.37256	0.09834	0.14741	0.17092	0.22799	0.20115	0.099629	0.19395	-3.7729	-4.6229	-5.0125	-4.1813	-5.0979	-4.7937	-4.4917	-5.2146	-4.2042	-4.5312	-5.0917	-4.1708	-4.8354	-4.7896	-4.1188	-5.3333	268.518	111.033	-42.187	6.805	63.091	169.075	197.145	204.866	194.443	-37.084	242.015	179.672	244.438	170.862	84.145	-33.041	0.00075563	0.00032637	7.2221e-05	578.86	4.2341e-06	2.1917e-06	735.99	177.97	2.1922e-06	2.4569e-06	262.99	111.95	64.103	30.075	4.6992e-06	59.379	0.00015297	0.00011288	3.1038e-05	594.81	1.2439e-06	1.2487e-06	757.06	183.44	1.2752e-06	1.2248e-06	272.66	116.71	66.623	31.385	1.3222e-06	61.879	52.622	15.167	-9.126	-67.106	28.895	102.877	-67.943	-62.098	74.145	45.829	-62.802	-57.385	-56.755	-51.048	72.035	-52.980	-8191	255	
52850.172	1	1	0	0	0.28347	0.10502	0.10719	0.25043	0.14735	0.021142	0.12723	0.12421	0.067672	0.12063	0.1114	0.14059	0.25651	0.12475	0.21034	0.12191	-4.125	-4.4229	-5.1396	-4.0312	-4.8854	-4.7917	-4.1188	-5.2333	-4.4604	-4.3604	-5.2042	-4.2438	-4.6937	-4.8771	-3.9313	-5.1792	-52.416	-24.683	231.841	32.513	239.008	178.573	21.723	190.735	-25.189	2.165	53.583	-79.963	111.055	93.774	67.725	228.849	0.000702	0.00018974	5.2786e-05	575.58	4.292e-06	3.4031e-06	738.38	177.6	1.7372e-06	3.5586e-06	263.9	112.79	63.858	30.014	4.1285e-06	59.609	0.00015425	0.00011395	3.0875e-05	593.84	1.2376e-06	1.2087e-06	759.57	183.57	1.2236e-06	1.2e-06	272.73	116.94	66.627	31.421	1.2692e-06	62.104	56.857	0.101	2.899	-67.310	61.941	56.233	-67.626	-62.189	63.659	77.251	-62.986	-57.606	-56.593	-51.151	69.005	-52.920	-8191	255	
52850.266	1	1	0	0	0.21376	0.13092	0.18159	0.16082	0.05141	0.1754	0.23928	0.13895	0.17297	0.21067	0.075056	0.17582	0.23767	0.21201	0.14226	0.22044	-4.3104	-4.2688	-4.8854	-4.4042	-4.6542	-4.8875	-4.1875	-4.9875	-4.625	-4.3208	-5.1417	-4.5146	-4.6958	-5.1479	-4.2104	-5.0146	-69.015	-13.890	40.362	226.532	156.198	193.206	271.872	180.652	81.306	94.853	-8.786	239.838	266.468	259.553	-50.382	262.620	0.00063494	0.00034221	0.0001278	577.1	4.7561e-06	5.0609e-06	737.16	176.22	5.2665e-06	4.1979e-06	262.97	112.1	63.909	29.912	5.0505e-06	59.255	0.00015511	0.00011216	3.1327e-05	593.74	1.2504e-06	1.1944e-06	757.73	183.11	1.2572e-06	1.1898e-06	271.95	116.42	66.446	31.35	1.2792e-06	61.778	56.171	29.529	8.476	-67.331	74.987	63.972	-67.735	-62.197	35.314	78.629	-62.640	-57.331	-56.957	-51.110	86.779	-52.965	-8191	255	
52850.387	1	1	0	0	0.13285	0.031001	0.19167	0.10919	0.17531	0.18416	0.15109	0.10567	0.13299	0.16767	0.13919	0.10518	0.11064	0.16238	0.15751	0.070314	-4.2979	-4.2375	-4.9229	-4.4792	-4.4083	-5.0271	-4.3354	-4.8562	-4.625	-4.175	-5.1708	-4.4417	-4.3583	-5.225	-4.0312	-4.7812	97.280	225.929	134.062	162.638	260.928	-63.481	-79.925	273.867	140.301	115.327	173.455	88.718	171.194	71.881	36.019	65.073	0.00070709	0.00025983	0.00012514	576.43	3.6152e-06	3.609e-06	732.32	176.73	3.861e-06	2.6722e-06	263.99	112.37	63.986	30.088	3.5417e-06	59.186	0.00015444	0.0001131	3.052e-05	591.55	1.2838e-06	1.1862e-06	753.83	182.52	1.2238e-06	1.2076e-06	271.52	116.5	66.451	31.304	1.2541e-06	61.679	50.247	23.016	19.109	-67.482	3.386	74.366	-67.777	-62.289	32.772	27.581	-62.465	-57.330	-56.821	-50.848	72.609	-52.877	-8191	255	
52850.484	1	1	0	0	0.068319	0.17231	0.16508	0.044983	0.19787	0.095427	0.11534	0.18479	0.1055	0.11414	0.23373	0.16057	0.2091	0.071737	0.069045	0.052439	-4.6	-4.0667	-5.0687	-4.4875	-4.3771	-5.0854	-4.2188	-4.8521	-4.9083	-4.1979	-5.0854	-4.4812	-4.3083	-5.0958	-4.3187	-4.8833	133.070	213.057	58.520	-79.293	-23.155	88.570	154.799	277.988	167.714	101.099	200.648	-62.489	-70.063	-16.675	52.837	-32.488	0.00074505	0.00043854	7.8948e-05	575.25	5.2034e-06	4.6785e-06	733.07	177.67	6.3271e-06	1.3417e-06	263.55	112.12	63.678	29.926	2.3541e-06	59.324	0.0001531	0.00011248	3.0262e-05	590.89	1.2585e-06	1.2058e-06	754.45	182.95	1.2408e-06	1.1966e-06	271.42	116.43	66.396	31.32	1.2297e-06	61.802	56.015	16.909	0.629	-67.253	68.840	61.093	-67.839	-62.156	50.288	90.477	-62.563	-57.472	-56.579	-50.951	71.289	-52.856	-8191	255	
52850.578	1	1	0	0	0.19539	0.18411	0.10974	0.09845	0.18483	0.11469	0.18459	0.060068	0.18443	0.12179	0.17709	0.14072	0.048178	0.23638	0.018867	0.084537	-4.7479	-4.2312	-5.0687	-4.6771	-4.1042	-5.0958	-4.5354	-4.5146	-5.0542	-3.9833	-5.0604	-4.7979	-4.1979	-5.1687	-4.2729	-4.5792	38.984	245.160	55.425	259.173	12.691	-23.052	233.716	253.970	77.634	-8.635	214.365	255.974	53.769	275.272	-33.548	28.802	0.00072631	0.00038117	9.2526e-05	572.88	2.2583e-06	3.9734e-06	733.95	177.04	2.3046e-06	3.0052e-06	263.4	112.36	63.835	30.056	3.0089e-06	59.491	0.00015277	0.00011347	3.1117e-05	589.53	1.28e-06	1.178e-06	755.06	182.62	1.2283e-06	1.2152e-06	271.74	116.66	66.276	31.33	1.2596e-06	61.869	51.274	27.341	5.142	-67.276	49.723	65.855	-67.893	-62.379	31.091	29.909	-62.673	-56.975	-57.248	-51.104	75.526	-52.909	-8191	255	
52850.676	1	1	0	0	0.10434	0.17107	0.33126	0.10287	0.22368	0.14352	0.047842	0.055407	0.028036	0.13015	0.15496	0.21419	0.24015	0.088734	0.088008	0.13014	-4.7354	-4.1687	-4.825	-4.6521	-4.15	-5.1542	-4.3938	-4.5125	-5.0667	-4.0208	-4.7771	-4.9417	-4.1208	-5.05	-4.3229	-4.5188	133.610	6.947	242.248	81.101	173.676	-51.806	13.181	-24.902	40.636	-60.879	-70.049	240.545	-37.441	175.743	-29.868	154.176	0.00083954	0.00039766	0.00013138	573.32	7.4044e-06	4.0662e-06	735.1	175.93	2.9131e-06	5.6796e-06	264.87	112.4	63.933	29.933	3.0403e-06	59.29	0.00015337	0.00011434	3.0762e-05	589.68	1.2714e-06	1.1654e-06	755.44	182.42	1.2435e-06	1.2233e-06	272.25	116.7	66.543	31.326	1.2542e-06	61.787	57.645	26.598	20.087	-67.119	53.976	55.855	-67.894	-62.251	32.820	49.073	-62.875	-57.414	-56.692	-51.143	57.116	-52.652	-8191	255	
52850.770	1	1	0	0	0.05714	0.13204	0.26893	0.034321	0.40667	0.067645	0.1868	0.21608	0.17277	0.23076	0.10355	0.08465	0.083706	0.24529	0.26661	0.25333	-4.7688	-4.2	-4.8208	-4.9833	-4.2083	-5.0125	-4.6438	-4.2958	-5.1438	-4.1458	-4.7312	-5.0188	-4	-4.9313	-4.5563	-4.3708	117.867	123.815	-45.702	-79.534	148.319	97.329	148.076	267.459	243.083	66.655	240.353	168.381	179.961	-18.052	272.877	-39.898	0.00073359	0.00025394	5.663e-05	574.01	4.5924e-06	3.5685e-06	732.49	176.73	4.4724e-06	1.5376e-06	264.2	112.03	63.645	29.846	2.8693e-06	59.083	0.00014867	0.00011343	3.1144e-05	590.26	1.2606e-06	1.1826e-06	754.14	182.74	1.2193e-06	1.198e-06	271.2	116.41	66.27	31.253	1.2876e-06	61.602	52.165	19.486	21.267	-67.251	26.536	76.759	-67.738	-62.006	75.067	80.593	-62.643	-57.265	-56.913	-50.803	75.029	-52.933	-8191	255	
52850.867	1	1	0	0	0.15241	0.056346	0.18107	0.16091	0.13179	0.13426	0.2086	0.068512	0.14136	0.14976	0.34177	0.050021	0.065154	0.12412	0.14072	0.099044	-4.8208	-4.2875	-4.3917	-5.15	-4.0271	-5.0167	-4.8521	-4.3021	-4.9417	-4.2125	-4.5979	-4.9667	-3.9437	-4.8083	-4.7812	-4.1271	5.635	9.253	56.925	-79.974	1.875	-13.213	217.822	86.382	-26.965	138.218	247.544	-52.468	185.778	163.518	56.480	-59.863	0.00074928	0.0001676	7.2529e-05	573.74	5.8664e-06	3.4542e-06	733.09	177.1	8.9767e-07	2.4098e-06	264.39	112.27	63.47	29.874	2.364e-06	59.293	0.00015516	0.00010893	3.0886e-05	589.78	1.2303e-06	1.1931e-06	753.67	182.34	1.2475e-06	1.2251e-06	272.2	116.47	66.365	31.267	1.2251e-06	61.716	49.958	24.235	-21.966	-67.084	63.375	87.660	-67.750	-62.247	10.140	62.971	-62.959	-57.211	-56.828	-50.972	67.647	-52.919	-8191	255	
52850.961	1	1	0	0	0.12055	0.22473	0.21056	0.072269	0.08668	0.013458	0.18878	0.09868	0.18688	0.079991	0.03273	0.15464	0.053637	0.17645	0.090742	0.14754	-4.7896	-4.3625	-4.3667	-5.0958	-4.0813	-4.75	-4.825	-4.1479	-4.9229	-4.4833	-4.3917	-5.1854	-4.1229	-4.6771	-4.9854	-4.2854	258.773	236.423	184.038	258.836	267.916	41.211	230.858	-69.877	157.435	99.201	275.451	157.912	259.385	125.979	209.388	225.901	0.00062458	0.00040584	9.9205e-05	574.63	1.2637e-06	4.6342e-06	729.33	177.05	3.3879e-06	3.6113e-06	264.05	112.4	63.883	30.005	1.4633e-06	59.551	0.00014842	0.00011383	3.1625e-05	590.37	1.2216e-06	1.2069e-06	752.22	182.69	1.2177e-06	1.2133e-06	272.3	116.74	66.438	31.332	1.2253e-06	61.901	52.067	22.372	-15.062	-67.112	73.724	55.146	-67.683	-62.407	65.098	99.429	-62.802	-57.254	-56.823	-51.027	70.303	-52.740	-8191	255	
52851.082	1	1	0	0	0.23023	0.14353	0.11081	0.26603	0.16363	0.075287	0.17604	0.11543	0.18637	0.040442	0.17109	0.085928	0.13805	0.10397	0.16777	0.23245	-4.7125	-4.3125	-4.2458	-5.1208	-4.275	-4.6083	-5.0896	-4.0667	-5.0042	-4.4625	-4.3417	-5.2354	-4.2396	-4.6104	-4.9437	-4.125	274.512	-11.240	45.613	-46.036	130.052	258.369	271.900	-54.774	-46.074	59.410	141.098	268.109	259.296	243.218	151.079	22.726	0.00078684	0.00034485	9.5356e-05	572.64	3.8781e-06	3.6744e-06	732.1	176.21	3.9679e-06	3.9113e-06	265.25	112.33	63.883	29.798	2.8221e-06	59.58	0.00014995	0.00011084	3.2011e-05	589.24	1.2679e-06	1.2247e-06	755.26	182.57	1.247e-06	1.2462e-06	273.03	116.96	66.532	31.285	1.3011e-06	61.91	55.647	4.439	16.798	-67.156	40.054	73.371	-68.050	-62.058	55.055	82.640	-62.863	-57.053	-56.698	-50.910	78.398	-52.801	-8191	255	
52851.180	1	1	0	0	0.091713	0.12511	0.22653	0.05353	0.026372	0.21294	0.20752	0.27632	0.14652	0.084864	0.16279	0.24161	0.30931	0.14838	0.11413	0.033338	-4.7271	-4.6104	-4.1562	-5.0813	-4.2312	-4.3396	-5.0375	-4.2771	-4.9604	-4.7333	-4.2396	-5.1354	-4.3667	-4.5333	-5.1208	-4.4021	193.574	48.083	-10.521	122.736	25.693	126.274	190.486	116.020	84.201	166.738	91.652	-78.082	227.523	228.559	19.265	158.772	0.00073867	0.00043848	0.00010352	574.19	6.039e-06	4.3042e-06	733.24	175.92	8.9686e-07	3.7283e-06	264.22	112.38	63.882	29.898	7.4969e-07	59.222	0.00015458	0.00011306	3.0833e-05	589.47	1.2394e-06	1.2204e-06	752.58	182.33	1.2469e-06	1.1773e-06	272.37	116.73	66.321	31.231	1.2326e-06	61.739	50.400	14.524	-2.721	-67.212	44.962	62.918	-67.826	-61.906	72.267	70.809	-62.666	-57.508	-56.369	-50.975	21.654	-52.392	-8191	255	
52851.273	1	1	0	0	0.19347	0.20552	0.051005	0.16642	0.13171	0.02802	0.13754	0.12347	0.04127	0.097997	0.30348	0.091556	0.16155	0.10522	0.045773	0.10534	-4.4521	-4.7812	-4.1854	-5.1979	-4.3792	-4.2979	-5.1792	-4.1646	-4.6917	-4.8771	-4.0875	-5.1625	-4.4833	-4.2646	-5.0646	-4.275	-72.130	2.450	-72.135	127.335	27.626	71.172	117.305	148.865	125.869	104.349	214.647	178.605	-8.420	44.992	57.484	114.665	0.00073473	0.0003229	0.00010806	571.28	1.8636e-06	4.4751e-06	730.62	176.47	2.7668e-06	3.6482e-06	265.38	113.02	63.726	29.945	1.7492e-06	59.448	0.00015335	0.00010882	3.1139e-05	589.46	1.2243e-06	1.2119e-06	753.95	182.4	1.2463e-06	1.1708e-06	273.03	117.08	66.479	31.304	1.174e-06	61.893	56.211	20.066	13.970	-67.283	47.576	94.004	-67.793	-61.782	58.096	50.904	-62.563	-57.314	-56.951	-51.157	61.594	-52.757	-8191	255	
52851.371	1	1	0	0	0.28989	0.1823	0.21541	0.21447	0.11679	0.089939	0.2675	0.063376	0.23564	0.12724	0.065207	0.095741	0.08265	0.12024	0.055554	0.17368	-4.3688	-4.8771	-4.0771	-5.0792	-4.6667	-4.2312	-5.2354	-4.275	-4.7188	-5	-4.0667	-4.975	-4.6958	-4.2333	-5.075	-4.2896	25.321	166.223	248.714	147.338	98.800	279.791	205.772	58.457	226.200	178.649	198.262	105.162	245.621	227.033	20.880	6.837	0.0006945	0.0003461	0.00010231	573.63	4.2915e-06	5.1546e-06	733.41	176.65	3.1874e-06	3.1496e-06	265.06	113	64.108	29.875	2.2094e-06	59.752	0.00015163	0.00011008	3.1408e-05	589.54	1.2495e-06	1.2185e-06	754.93	182.79	1.2273e-06	1.1364e-06	273.37	117.18	66.694	31.328	1.2155e-06	62.162	49.543	29.005	21.408	-67.439	22.975	88.664	-67.880	-61.807	37.117	67.998	-62.618	-57.571	-56.340	-51.207	90.708	-52.764	-8191	255	
52851.469	1	1	0	0	0.051944	0.18129	0.11657	0.13833	0.12204	0.089253	0.20352	0.12929	0.051776	0.17465	0.15877	0.19742	0.13869	0.23658	0.11638	0.10454	-4.0729	-5.0375	-4.1479	-4.9187	-4.8333	-4.2354	-5.2542	-4.3583	-4.4792	-5.0729	-4.0958	-4.7937	-4.7625	-4.2312	-4.9958	-4.5208	84.792	40.010	245.145	206.564	58.056	31.451	223.652	47.229	236.975	-43.619	1.857	91.504	15.207	264.444	209.704	-71.436	0.00075303	0.00035117	7.9624e-05	576.26	2.9588e-06	4.7344e-06	734	177.04	1.9492e-06	4.2128e-06	265.61	113.48	64.48	30.208	2.1225e-06	59.656	0.000154	0.00010718	3.1338e-05	591.65	1.2547e-06	1.2448e-06	755.83	183.12	1.2496e-06	1.1736e-06	274.21	117.65	66.911	31.515	1.2234e-06	62.423	51.594	5.087	49.463	-67.174	16.159	69.270	-67.764	-62.109	20.806	65.153	-62.563	-57.435	-56.496	-51.127	60.803	-52.812	-8191	255	
52851.562	1	1	0	0	0.092407	0.065985	0.098932	0.13838	0.12915	0.12491	0.15723	0.059177	0.19658	0.08046	0.17369	0.12814	0.18111	0.016744	0.14027	0.27285	-3.9667	-5.1208	-4.1625	-4.7	-4.9187	-4.2458	-5.0333	-4.5125	-4.3167	-5.0583	-4.1937	-4.6125	-4.9146	-4.1167	-4.8812	-4.6292	34.959	-78.791	259.365	54.104	145.832	-58.521	273.902	107.395	206.476	276.855	152.532	104.049	-47.345	-1.527	245.287	101.245	0.00079933	0.00036944	8.6473e-05	574.91	2.9453e-06	4.4643e-06	734.35	177.43	2.4721e-06	2.9137e-06	266.56	113.22	64.793	30.054	1.9418e-06	59.676	0.00015794	0.00011039	3.1589e-05	591.29	1.2362e-06	1.1749e-06	757.22	183.5	1.2496e-06	1.1598e-06	274.26	117.55	66.933	31.409	1.2525e-06	62.161	50.553	22.720	15.030	-67.219	45.988	76.845	-67.704	-61.931	29.854	74.511	-62.608	-57.490	-56.584	-51.054	88.308	-52.646	-8191	255	
52851.684	1	1	0	0	0.17727	0.15514	0.16964	0.058723	0.26671	0.24067	0.082655	0.14638	0.075177	0.18643	0.011235	0.14318	0.058572	0.089346	0.052299	0.1187	-3.8312	-5.2292	-4.1083	-4.4646	-4.9688	-4.0375	-5.1792	-4.6729	-4.2542	-5.1458	-4.4187	-4.6354	-5.0437	-4.1479	-4.8729	-4.825	-45.156	239.272	0.534	45.077	256.954	-70.466	-9.140	-29.956	260.017	241.396	-16.659	252.711	115.208	-34.357	46.668	144.297	0.00077609	0.00027193	0.00012638	573.73	4.6844e-06	5.1082e-06	737.16	177.13	2.4384e-06	2.7075e-06	266.98	113.59	64.056	30.093	1.7621e-06	59.842	0.00015402	0.00011165	3.2275e-05	590.86	1.2184e-06	1.2552e-06	756.54	183.58	1.2393e-06	1.1202e-06	274.27	117.39	66.925	31.486	1.2436e-06	62.265	55.137	11.888	24.389	-67.428	47.488	81.368	-67.856	-62.155	34.966	96.782	-62.504	-57.324	-56.677	-51.246	71.709	-52.580	-8191	255	
52851.777	1	1	0	0	0.1831	0.13237	0.15301	0.24061	0.198	0.16934	0.23752	0.19243	0.056784	0.13312	0.040251	0.10787	0.14668	0.14958	0.22401	0.036616	-3.8167	-4.9479	-4.2875	-4.4604	-5.1792	-4.1979	-4.8458	-4.9125	-4.2479	-5.025	-4.45	-4.4083	-5.0875	-4.1438	-4.575	-5.1583	225.475	173.182	108.248	246.252	238.966	102.940	113.831	-11.653	251.634	148.459	123.807	-74.760	21.090	131.384	-74.852	64.452	0.00065439	0.0003501	4.0675e-05	575.32	3.6331e-06	3.6891e-06	734.87	177.87	3.7138e-06	4.5655e-06	266.06	113.65	65.032	30.298	2.2893e-06	59.847	0.00015713	0.00011013	3.2198e-05	592.1	1.2298e-06	1.2393e-06	757.65	183.57	1.2646e-06	1.2193e-06	274.44	117.81	67.25	31.617	1.2743e-06	62.46	49.202	17.347	-16.219	-67.280	24.300	72.287	-67.719	-62.188	38.747	58.667	-62.631	-57.387	-56.742	-51.294	28.019	-52.383	-8191	255	
52851.875	1	1	0	0	0.23349	0.11058	0.086817	0.19314	0.13169	0.24679	0.12589	0.2864	0.040148	0.12769	0.25624	0.24063	0.11991	0.16101	0.042745	0.23427	-3.8021	-5.0813	-4.5042	-4.3208	-4.9958	-4.1854	-4.7375	-4.9417	-4.0292	-4.9979	-4.5917	-4.2458	-5.0042	-4.4563	-4.4583	-5.2646	180.000	267.597	-1.051	264.052	112.049	71.895	276.152	264.020	232.210	-34.442	-61.142	202.252	130.304	-22.845	34.382	183.914	0.00071432	0.00029763	8.711e-05	576.93	4.6268e-06	3.5705e-06	740.34	178.04	3.7111e-06	3.019e-06	268.34	113.76	64.878	30.338	3.226e-06	60.029	0.00015456	0.00011396	3.1483e-05	593.77	1.1988e-06	1.2605e-06	759.77	184.29	1.2351e-06	1.214e-06	275.61	117.98	67.363	31.679	1.2919e-06	62.693	48.663	-12.528	-6.189	-67.516	36.916	66.127	-67.754	-62.097	13.691	44.713	-62.834	-57.361	-56.460	-51.221	49.813	-52.640	-8191	255	
52851.973	1	1	0	0	0.17712	0.21493	0.25961	0.12239	0.1416	0.14358	0.083851	0.25111	0.1158	0.22925	0.13739	0.16249	0.044204	0.085529	0.1005	0.080821	-3.8688	-4.8562	-4.6312	-4.1979	-5.1479	-4.2812	-4.6208	-5.0458	-4.0896	-4.8833	-4.8479	-4.2312	-5.0375	-4.4146	-4.4792	-5.3146	90.703	229.230	7.408	232.856	91.901	148.533	202.496	211.367	254.102	231.788	33.481	169.921	-50.809	68.449	228.633	147.502	0.00073303	0.00033631	8.9142e-05	577.11	2.6174e-06	2.4293e-06	735.56	179.52	1.8662e-06	4.4575e-06	266.84	113.77	64.552	30.15	3.9074e-06	60.306	0.00015656	0.00011498	3.2161e-05	593.4	1.2273e-06	1.2349e-06	759.17	184.55	1.2676e-06	1.2325e-06	275.5	118.18	67.153	31.689	1.2529e-06	62.701	57.270	-16.213	11.336	-67.332	64.988	67.328	-67.775	-62.222	5.673	75.849	-62.799	-57.445	-56.579	-50.833	57.348	-52.673	-8191	255	
52852.066	1	1	0	0	0.26292	0.1259	0.044652	0.054658	0.27646	0.087744	0.13541	0.19929	0.19102	0.061976	0.10967	0.231	0.11491	0.10862	0.069904	0.27117	-3.825	-4.7396	-4.675	-4.3417	-4.8958	-4.5938	-4.3792	-5.0354	-3.9792	-4.6875	-5.0312	-4.2917	-4.9979	-4.7646	-4.3083	-5.1542	217.292	70.045	-41.036	33.710	54.069	116.664	250.079	-76.079	177.243	100.483	-58.498	220.169	140.554	114.418	-37.544	171.753	0.00069246	0.00027984	0.00013995	574.63	2.9519e-06	1.2481e-06	737.67	177.16	1.1634e-06	4.3364e-06	266.11	113.43	64.307	30.342	1.4324e-06	60.225	0.00015592	0.00011383	3.1592e-05	592.29	1.2592e-06	1.2435e-06	758.2	183.88	1.2876e-06	1.2199e-06	274.4	117.96	67.075	31.664	1.2543e-06	62.568	52.062	-7.431	2.798	-67.112	61.416	27.123	-68.026	-62.099	17.270	74.253	-62.909	-57.480	-56.971	-51.020	102.113	-52.664	-8191	255	
#DATA ENDS
