BOXY.EXE: ISS Imagent and Oximeter Data Acquisition Program Version 0.80
Ascii Record File

#ACQ INFORMATION
2  Detector Channels 
16  External MUX Channels 
1  Auxiliary Channels 
5000  Waveform (CCF) Frequency (Hz)
1  Waveforms Skipped 
30  Waveforms Averaged 
1  Cycles Averaged 
16  Acquisitions per Waveform 
10.0806  Updata Rate (Hz) 

#FILE INFORMATION
TRUE -- External MUX Channel results are PARSED.
FALSE -- AC DC and Phase are NOT grouped.
TRUE -- Companion Program Settings File CREATED.
FALSE -- AC data not excluded
FALSE -- DC data not excluded
FALSE -- Phase data not excluded
FALSE -- Auxillary Chn. data not excluded
Tab delimiters

#CALIBRATION STATE
TRUE -- Waveform Calibration Values APPLIED.


#AUX CALIBRATION VALUES
Val Type	aux-1	

Term	1.0000e+00	
Factor	0.0000e+00	


#WF CALIBRATION VALUES
A = Detector Channel
Val Type	A-AC1	A-AC2	A-AC3	A-AC4	A-AC5	A-AC6	A-AC7	A-AC8	A-AC9	A-AC10	A-AC11	A-AC12	A-AC13	A-AC14	A-AC15	A-AC16	A-DC1	A-DC2	A-DC3	A-DC4	A-DC5	A-DC6	A-DC7	A-DC8	A-DC9	A-DC10	A-DC11	A-DC12	A-DC13	A-DC14	A-DC15	A-DC16	A-Ph1	A-Ph2	A-Ph3	A-Ph4	A-Ph5	A-Ph6	A-Ph7	A-Ph8	A-Ph9	A-Ph10	A-Ph11	A-Ph12	A-Ph13	A-Ph14	A-Ph15	A-Ph16	

Term	0.00000e+00	0.00000e+00	0.00000e+00	0.00000e+00	0.00000e+00	0.00000e+00	0.00000e+00	0.00000e+00	0.00000e+00	0.00000e+00	0.00000e+00	0.00000e+00	0.00000e+00	0.00000e+00	0.00000e+00	0.00000e+00	0.00000e+00	0.00000e+00	0.00000e+00	0.00000e+00	0.00000e+00	0.00000e+00	0.00000e+00	0.00000e+00	0.00000e+00	0.00000e+00	0.00000e+00	0.00000e+00	0.00000e+00	0.00000e+00	0.00000e+00	0.00000e+00	0.00000e+00	0.00000e+00	0.00000e+00	0.00000e+00	0.00000e+00	0.00000e+00	0.00000e+00	0.00000e+00	0.00000e+00	0.00000e+00	0.00000e+00	0.00000e+00	0.00000e+00	0.00000e+00	0.00000e+00	0.00000e+00	
Factor	1.00000e+00	1.00000e+00	1.00000e+00	1.00000e+00	1.00000e+00	1.00000e+00	1.00000e+00	1.00000e+00	1.00000e+00	1.00000e+00	1.00000e+00	1.00000e+00	1.00000e+00	1.00000e+00	1.00000e+00	1.00000e+00	1.00000e+00	1.00000e+00	1.00000e+00	1.00000e+00	1.00000e+00	1.00000e+00	1.00000e+00	1.00000e+00	1.00000e+00	1.00000e+00	1.00000e+00	1.00000e+00	1.00000e+00	1.00000e+00	1.00000e+00	1.00000e+00	X	X	X	X	X	X	X	X	X	X	X	X	X	X	X	X	

B = Detector Channel
Val Type	B-AC1	B-AC2	B-AC3	B-AC4	B-AC5	B-AC6	B-AC7	B-AC8	B-AC9	B-AC10	B-AC11	B-AC12	B-AC13	B-AC14	B-AC15	B-AC16	B-DC1	B-DC2	B-DC3	B-DC4	B-DC5	B-DC6	B-DC7	B-DC8	B-DC9	B-DC10	B-DC11	B-DC12	B-DC13	B-DC14	B-DC15	B-DC16	B-Ph1	B-Ph2	B-Ph3	B-Ph4	B-Ph5	B-Ph6	B-Ph7	B-Ph8	B-Ph9	B-Ph10	B-Ph11	B-Ph12	B-Ph13	B-Ph14	B-Ph15	B-Ph16	

Term	0.00000e+00	0.00000e+00	0.00000e+00	0.00000e+00	0.00000e+00	0.00000e+00	0.00000e+00	0.00000e+00	0.00000e+00	0.00000e+00	0.00000e+00	0.00000e+00	0.00000e+00	0.00000e+00	0.00000e+00	0.00000e+00	0.00000e+00	0.00000e+00	0.00000e+00	0.00000e+00	0.00000e+00	0.00000e+00	0.00000e+00	0.00000e+00	0.00000e+00	0.00000e+00	0.00000e+00	0.00000e+00	0.00000e+00	0.00000e+00	0.00000e+00	0.00000e+00	-1.70766e+02	-1.55360e+02	-1.36989e+02	-1.83556e+02	-7.39167e+01	-1.11136e+02	-1.57958e+02	-1.62015e+02	-8.77219e+01	-9.53084e+01	-1.70441e+02	-1.71054e+02	-1.79201e+02	-1.76666e+02	-9.97883e+01	-1.49357e+02	
Factor	2.98084e-05	1.06056e-04	3.44200e-05	1.51934e-01	8.83417e-07	1.01984e-06	1.64616e-01	5.40301e-02	8.79708e-07	1.14181e-06	8.93439e-02	3.10184e-02	2.90158e-02	9.72131e-03	1.45861e-06	1.37752e-02	7.84505e-07	7.99803e-07	2.22624e-07	7.65306e-02	8.71945e-09	8.76617e-09	7.79789e-02	2.70018e-02	8.73877e-09	8.78194e-09	4.25643e-02	1.47342e-02	1.42478e-02	4.76412e-03	8.78011e-09	6.51403e-03	X	X	X	X	X	X	X	X	X	X	X	X	X	X	X	X	



#DISTANCE SETTINGS
A = Detector Channel
A-1	A-2	A-3	A-4	A-5	A-6	A-7	A-8	A-9	A-10	A-11	A-12	A-13	A-14	A-15	A-16	

2.5000e+00	3.0000e+00	2.5000e+00	3.0000e+00	2.0000e+00	3.0000e+00	1.5000e+00	3.0000e+00	3.0000e+00	3.0000e+00	3.0000e+00	3.0000e+00	3.0000e+00	3.0000e+00	1.5000e+00	3.0000e+00	

B = Detector Channel
B-1	B-2	B-3	B-4	B-5	B-6	B-7	B-8	B-9	B-10	B-11	B-12	B-13	B-14	B-15	B-16	

1.0000e+01	1.0000e+01	1.0000e+01	1.4400e+00	1.0000e+01	1.0000e+01	1.5100e+00	1.9400e+00	1.0000e+01	1.0000e+01	1.9900e+00	2.4900e+00	2.4100e+00	2.9000e+00	1.0000e+01	2.9800e+00	




#DATA BEGINS
time	group	step	mark	flag	A-AC1	A-AC2	A-AC3	A-AC4	A-AC5	A-AC6	A-AC7	A-AC8	A-AC9	A-AC10	A-AC11	A-AC12	A-AC13	A-AC14	A-AC15	A-AC16	A-DC1	A-DC2	A-DC3	A-DC4	A-DC5	A-DC6	A-DC7	A-DC8	A-DC9	A-DC10	A-DC11	A-DC12	A-DC13	A-DC14	A-DC15	A-DC16	A-Ph1	A-Ph2	A-Ph3	A-Ph4	A-Ph5	A-Ph6	A-Ph7	A-Ph8	A-Ph9	A-Ph10	A-Ph11	A-Ph12	A-Ph13	A-Ph14	A-Ph15	A-Ph16	B-AC1	B-AC2	B-AC3	B-AC4	B-AC5	B-AC6	B-AC7	B-AC8	B-AC9	B-AC10	B-AC11	B-AC12	B-AC13	B-AC14	B-AC15	B-AC16	B-DC1	B-DC2	B-DC3	B-DC4	B-DC5	B-DC6	B-DC7	B-DC8	B-DC9	B-DC10	B-DC11	B-DC12	B-DC13	B-DC14	B-DC15	B-DC16	B-Ph1	B-Ph2	B-Ph3	B-Ph4	B-Ph5	B-Ph6	B-Ph7	B-Ph8	B-Ph9	B-Ph10	B-Ph11	B-Ph12	B-Ph13	B-Ph14	B-Ph15	B-Ph16	aux-1	digaux	

23902.742	1	1	0	768	0.065842	0.073087	0.29408	0.15144	0.19599	0.10109	0.034986	0.10324	0.10058	0.069134	0.23709	0.050788	0.14678	0.068232	0.19357	0.1178	-3.6604	-4.4187	-3.4313	-4.4	-4.0833	-3.775	-4.6208	-3.7917	-4.0542	-4.5083	-3.8187	-4.4167	-4.0854	-3.5854	-4.5208	-3.8	47.631	124.551	81.801	97.520	-16.033	-6.211	133.254	176.535	52.604	126.831	171.463	-139.256	-56.487	-42.143	185.021	60.808	0.00042773	0.00025872	0.00010176	772.43	1.9771e-06	2.3427e-06	1232.4	240.08	1.9025e-06	5.0671e-06	436.42	130.04	67.079	20.361	8.3497e-06	48.671	0.00024489	0.00023493	7.9036e-05	705.41	2.6436e-06	2.6895e-06	1118	218.69	2.6637e-06	2.7322e-06	392.08	116.92	61.522	18.932	3.1529e-06	43.811	165.060	-93.126	-54.686	-138.448	91.245	204.056	-138.683	-133.611	3.446	19.075	-134.030	-128.940	-129.375	-123.281	-72.629	-123.088	-8191	255	
23902.838	1	1	0	0	0.042745	0.092772	0.10072	0.084524	0.075453	0.03288	0.30325	0.18844	0.062512	0.19041	0.16681	0.12255	0.097964	0.25554	0.15964	0.29817	-3.55	-4.6	-3.475	-4.5104	-4.2562	-3.5083	-4.7312	-4.0479	-3.7667	-4.4458	-3.7271	-4.2688	-4.1833	-3.625	-4.5646	-3.9062	-24.057	-80.285	96.150	192.704	4.503	130.141	127.236	116.645	-130.797	176.154	180.116	-142.528	-47.197	40.337	4.182	146.974	0.00052199	0.00043698	0.00018041	767.42	1.8687e-06	2.9722e-06	1229	239.84	5.7988e-06	2.4983e-06	434.08	129	67.172	20.327	1.5089e-05	49.05	0.00024377	0.00025884	8.0627e-05	704.34	2.5902e-06	2.8996e-06	1118.3	218.28	2.6036e-06	3.0084e-06	390.73	116.9	61.31	19.197	3.3175e-06	44.134	176.190	143.861	3.441	-139.181	-119.088	-150.117	-139.332	-134.521	-75.055	-33.568	-134.878	-130.026	-129.939	-123.895	9.419	-123.525	-8191	255	
23902.934	1	1	0	0	0.11618	0.085856	0.16405	0.1795	0.1298	0.15581	0.2614	0.26686	0.046823	0.050702	0.16023	0.10726	0.18107	0.12668	0.23947	0.13118	-3.4708	-4.5458	-3.6521	-4.3187	-4.3604	-3.6625	-4.6937	-4.05	-3.6771	-4.5479	-3.625	-4.0479	-4.2854	-3.6771	-4.5125	-4.1229	99.374	101.005	90.410	65.629	-79.423	134.019	158.830	129.701	-18.267	-12.538	138.792	107.308	121.785	192.168	62.051	103.237	0.0006744	0.00025217	0.00028161	791.53	1.3961e-06	7.2386e-06	1250.4	242.87	2.0377e-06	5.9113e-06	439.51	130.07	67.306	20.22	1.3699e-05	48.785	0.00026576	0.00030969	8.6973e-05	725.06	2.9076e-06	3.4512e-06	1140.5	221.33	2.9924e-06	3.461e-06	394.06	117.3	61.79	19.365	3.2713e-06	44.191	161.876	-125.986	16.466	-139.413	49.226	-12.660	-139.469	-134.773	-127.030	-96.893	-135.081	-130.469	-130.227	-123.992	-22.998	-124.441	-8191	255	
23903.031	1	1	0	0	0.093597	0.15451	0.061724	0.10564	0.18136	0.11059	0.33411	0.10994	0.10824	0.09139	0.287	0.083257	0.15889	0.47374	0.0068903	0.13235	-3.5042	-4.5687	-3.6479	-4.1438	-4.3104	-3.3312	-4.3917	-4.0917	-3.6688	-4.6729	-3.7979	-3.9292	-4.5042	-3.5458	-4.0979	-4.2438	-122.834	-48.162	-21.659	204.891	-106.835	0.202	135.732	108.023	-136.969	-138.037	96.264	174.322	110.247	205.235	-63.069	153.308	0.00057135	0.00045328	0.00028279	793.15	3.6512e-06	4.3746e-06	1259.5	242.93	2.7728e-06	5.5101e-06	438.2	130.7	68.02	20.281	5.3104e-06	49.06	0.00028476	0.00033037	8.4505e-05	730.06	3.1698e-06	3.7463e-06	1147.2	221.9	3.2932e-06	3.7181e-06	394.65	117.95	62.797	19.509	3.1837e-06	44.45	152.196	-118.476	-47.853	-139.837	160.918	-61.646	-139.639	-134.765	181.705	-36.479	-135.001	-130.178	-130.383	-124.182	-56.124	-123.581	-8191	255	
23903.127	1	1	0	0	0.058482	0.18423	0.05063	0.11087	0.1356	0.069355	0.23001	0.26077	0.23118	0.13414	0.050619	0.071148	0.13193	0.033557	0.14152	0.10055	-3.1542	-4.5125	-3.7313	-3.7958	-4.5646	-3.5417	-4.3562	-4.3542	-3.5312	-4.5021	-3.8354	-3.8937	-4.5938	-3.5667	-4.2146	-4.5229	-118.033	88.107	107.953	165.616	-88.862	51.008	-61.171	122.800	-33.441	151.223	119.534	63.617	203.351	120.630	-19.615	-67.828	0.00067717	0.00074688	0.00019761	793.11	3.224e-06	4.0081e-06	1247.8	239.91	9.395e-06	3.6588e-06	437.86	129.8	67.175	20.421	5.9816e-06	49.011	0.00030249	0.00032127	7.8843e-05	723.14	3.2685e-06	3.4268e-06	1132.1	219.1	3.3387e-06	3.4166e-06	391.69	117.25	62.946	19.487	3.2814e-06	44.521	155.688	-101.796	-71.751	-139.362	-124.852	-83.111	-139.759	-134.825	-99.566	-16.776	-134.799	-130.462	-130.203	-123.766	-48.077	-123.796	-8191	255	
23903.223	1	1	0	0	0.15148	0.18272	0.19131	0.13336	0.064736	0.25343	0.32675	0.22246	0.15569	0.043715	0.40692	0.41485	0.2121	0.27532	0.17709	0.02122	-3.1479	-4.7146	-3.9813	-3.8187	-4.5896	-3.65	-4.1042	-4.3333	-3.4979	-4.4604	-4.2604	-3.7833	-4.5208	-3.6708	-3.7833	-4.5292	153.952	173.143	-123.164	206.261	0.956	195.026	188.433	133.597	-38.761	100.104	126.797	182.445	202.685	181.142	163.066	77.608	0.00044051	0.00068901	0.00025942	811.72	3.5076e-06	5.5741e-06	1266.5	244.08	2.1372e-06	5.2139e-06	437.89	129.95	66.874	20.67	1.3158e-05	49.243	0.00035782	0.00034215	8.5774e-05	746.61	3.9438e-06	3.6997e-06	1156.3	223.15	3.8979e-06	3.6013e-06	394.5	118.03	63.502	19.608	3.2261e-06	44.794	142.849	-125.948	-60.148	-139.407	-76.433	-3.902	-139.400	-134.157	-112.800	-28.117	-134.718	-130.103	-130.702	-124.216	-54.449	-123.885	-8191	255	
23903.344	1	1	0	0	0.072959	0.089791	0.031869	0.098564	0.063797	0.1614	0.26547	0.17556	0.092725	0.20459	0.26099	0.20002	0.11572	0.069148	0.056116	0.20346	-3.1688	-4.3375	-4.1521	-3.6104	-4.4375	-3.7646	-4.1813	-4.475	-3.5167	-4.2229	-4.3812	-3.3563	-4.4667	-3.8583	-3.8771	-4.5354	190.327	-25.149	144.970	80.256	15.935	126.191	122.343	69.533	-107.890	182.714	126.510	159.849	81.745	-145.903	95.134	202.423	0.00045618	0.00021148	0.00032194	812.64	7.2902e-06	5.5124e-06	1272.9	243.24	6.1713e-06	4.4943e-06	438.95	130.47	67.209	20.5	6.4995e-06	49.809	0.00035541	0.00031495	8.0382e-05	747.82	3.9052e-06	3.4924e-06	1159.3	224.5	4.008e-06	3.551e-06	396.94	119.46	63.818	19.7	3.2995e-06	45.654	175.464	14.600	-72.591	-139.938	-43.048	-94.587	-139.638	-134.977	-71.426	20.952	-134.427	-130.202	-130.658	-123.150	68.342	-123.611	-8191	255	
23903.438	1	1	0	0	0.054775	0.14153	0.042205	0.17508	0.26704	0.13531	0.16762	0.13468	0.13644	0.090337	0.16737	0.11234	0.039485	0.1398	0.15982	0.16809	-3.0354	-4.1875	-4.2208	-3.6479	-4.4583	-3.775	-3.825	-4.4938	-3.4521	-4.1979	-4.375	-3.5083	-4.5188	-4.1583	-3.7375	-4.4812	149.302	199.638	-84.842	99.466	-137.563	-135.824	143.750	174.099	-83.454	-48.875	151.038	54.717	202.054	175.871	102.728	71.991	0.00040008	0.00045693	9.7935e-05	814.05	2.1405e-06	1.9155e-06	1275.1	245.44	3.271e-06	4.4789e-06	442.77	131.95	66.834	20.846	1.0193e-05	49.811	0.0003569	0.00031864	8.3612e-05	754.66	3.8616e-06	3.4315e-06	1162	226.65	3.8267e-06	3.4645e-06	397.77	120.23	63.824	19.793	3.3902e-06	45.895	154.233	-11.968	178.886	-139.821	36.678	74.330	-140.054	-134.717	-76.785	-54.340	-134.763	-130.360	-130.593	-123.683	-83.002	-123.774	-8191	255	
23903.535	1	1	0	0	0.013721	0.28867	0.12687	0.2928	0.151	0.17102	0.056965	0.13439	0.105	0.048021	0.2563	0.31623	0.21507	0.12732	0.10489	0.13203	-3.3083	-4.0125	-4.4708	-3.6292	-4.3562	-3.9896	-3.7521	-4.4729	-3.7854	-3.9104	-4.4333	-3.5938	-4.3	-4.1646	-3.5542	-4.6687	107.705	-83.111	-127.019	135.159	172.383	86.084	113.864	84.345	-119.138	-110.238	172.663	126.958	98.376	204.007	-113.887	110.488	0.00042326	0.0010514	0.00024384	816.32	4.1478e-06	5.4917e-06	1267.5	242.81	3.9179e-06	7.3853e-06	442.62	130.49	66.561	20.805	5.2237e-06	49.532	0.00034225	0.00031464	8.5724e-05	757.26	3.7682e-06	3.4045e-06	1161.1	226.66	3.7116e-06	3.4556e-06	398.59	120.11	63.418	19.805	3.7493e-06	45.898	183.063	-116.559	-55.461	-139.533	-3.155	-2.342	-139.908	-134.745	-28.166	-10.829	-135.021	-129.792	-130.003	-123.904	79.423	-123.953	-8191	255	
23903.631	1	1	0	0	0.22783	0.080041	0.077287	0.13889	0.2048	0.21032	0.28154	0.10815	0.22886	0.099106	0.18843	0.099285	0.22551	0.071214	0.12995	0.12316	-3.2083	-3.6813	-4.5271	-3.5417	-4.2292	-4.3083	-3.7313	-4.6229	-3.9104	-3.9188	-4.6604	-3.65	-4.3208	-4.4313	-3.5687	-4.5583	44.372	-52.964	148.492	161.646	-101.199	-136.641	165.884	-101.805	94.886	166.252	142.483	-125.525	-84.439	94.389	159.827	113.502	0.00041075	0.00031368	0.00014764	808.72	1.2606e-06	7.7512e-06	1266.8	243.6	3.2415e-06	5.3719e-06	439.71	130.39	67.447	20.99	7.0262e-06	49.703	0.00033943	0.00031756	9.7921e-05	755.29	3.6932e-06	3.3876e-06	1161.8	225.52	3.6207e-06	3.4216e-06	399.57	120.14	63.661	19.887	4.1267e-06	45.91	185.152	195.995	129.036	-139.474	80.983	-87.361	-140.051	-134.862	-8.661	-98.517	-134.954	-129.755	-129.884	-123.559	154.582	-123.809	-8191	255	
23903.727	1	1	0	0	0.037094	0.18243	0.023494	0.10935	0.2089	0.15801	0.2286	0.073901	0.092554	0.13398	0.043372	0.18767	0.1383	0.12023	0.085339	0.17301	-3.6979	-3.6521	-4.6104	-3.6771	-4.1917	-4.4354	-3.6917	-4.5354	-4.0542	-3.5958	-4.6188	-3.775	-4.0333	-4.4604	-3.5229	-4.4208	59.747	131.781	48.709	166.262	-31.193	105.624	130.260	173.163	124.479	184.977	132.813	198.232	-62.171	-132.666	66.089	102.712	0.0004342	0.0005067	0.00025029	812.35	2.8495e-06	5.5928e-06	1273.3	243.02	3.8289e-06	3.4393e-06	441.3	131.21	67.533	20.924	7.6085e-06	50.571	0.00033253	0.00031554	0.00010605	754.07	3.6215e-06	3.4955e-06	1167.9	225.37	3.5975e-06	3.6359e-06	402.11	120.3	63.914	20.065	4.4726e-06	46.24	162.608	-62.211	-99.147	-139.315	-52.534	-36.252	-139.500	-134.895	-71.620	88.341	-134.208	-129.741	-129.829	-123.609	-98.801	-123.290	-8191	255	
23903.822	1	1	0	0	0.31039	0.18863	0.16736	0.14025	0.090734	0.20053	0.39119	0.19036	0.12837	0.21271	0.055427	0.24831	0.020299	0.067193	0.19234	0.25454	-3.8583	-3.6854	-4.4896	-3.8521	-3.85	-4.4563	-3.7375	-4.4437	-4.1167	-3.4875	-4.7188	-3.8312	-3.9646	-4.6104	-3.5687	-4.1937	42.263	143.413	0.414	115.708	-74.536	-50.716	133.225	103.505	186.389	-58.567	153.092	-111.742	159.254	-57.389	-126.258	136.834	0.00076652	0.0006892	0.00023188	811.71	1.4572e-06	5.5184e-06	1273	242.86	6.0857e-06	5.522e-06	442.99	130.95	66.847	21.174	8.8475e-06	50.259	0.00034294	0.00035673	0.00011197	754.7	3.6515e-06	3.8641e-06	1167.6	225.65	3.6188e-06	3.9916e-06	402.72	120.21	63.383	20.34	4.3643e-06	46.083	190.619	-135.632	-130.497	-139.463	173.107	-75.133	-139.026	-134.223	-13.293	-32.907	-133.770	-129.488	-129.468	-122.927	-8.394	-123.238	-8191	255	
23903.943	1	1	0	0	0.056654	0.042191	0.08496	0.23574	0.086813	0.18505	0.04485	0.16923	0.23273	0.14635	0.16308	0.30428	0.20775	0.071381	0.25356	0.29277	-4.0021	-3.6333	-4.3812	-3.7771	-3.8104	-4.6083	-3.7646	-4.2479	-4.1729	-3.5146	-4.6104	-4.0042	-3.6562	-4.525	-3.6417	-4.0771	38.632	73.853	98.626	194.899	-54.666	146.249	-27.895	16.917	-93.157	-68.062	-0.549	176.039	191.824	-5.760	-144.402	131.672	0.00038643	0.00032207	0.00010483	816.99	4.3094e-06	2.0041e-06	1272.2	243.41	5.0248e-06	7.2416e-06	441.84	130.68	67.187	21.008	1.6202e-05	49.868	0.0003311	0.00038622	0.00011188	754.54	3.6818e-06	4.2829e-06	1168.4	225.52	3.6646e-06	4.3388e-06	401.1	119.67	63.663	20.46	4.3295e-06	45.735	155.299	191.155	-61.255	-139.208	-90.491	-61.840	-138.641	-134.377	-18.415	73.378	-134.042	-129.051	-129.835	-122.886	-52.718	-123.268	-8191	255	
23904.039	1	1	0	0	0.19884	0.12595	0.15129	0.19156	0.19962	0.090433	0.38803	0.05579	0.061751	0.062179	0.12811	0.016037	0.2609	0.10108	0.041028	0.29487	-4.125	-3.3958	-4.5271	-4.1146	-3.5792	-4.6062	-3.7333	-4.1333	-4.4958	-3.5646	-4.5792	-4.2	-3.6375	-4.5417	-3.7479	-3.9938	98.287	-101.331	40.885	119.647	145.446	-60.954	173.384	150.177	89.218	86.048	184.522	-118.682	86.340	185.878	136.281	143.146	0.0005687	0.00054043	0.0003921	809.46	1.5829e-06	6.4184e-06	1265.2	242.34	2.9358e-06	6.2758e-06	440.36	131.33	67.608	21.122	3.5664e-06	50.3	0.00034542	0.00041016	0.00010834	749.78	3.8167e-06	4.498e-06	1160.8	224.21	3.7723e-06	4.4817e-06	398.33	119.1	63.965	20.532	4.0319e-06	45.908	159.739	3.830	-132.179	-138.929	35.165	-24.607	-138.622	-133.868	133.888	130.179	-133.948	-129.241	-130.186	-122.801	-7.636	-123.249	-8191	255	
23904.135	1	1	0	0	0.048082	0.24244	0.15766	0.21173	0.28918	0.22785	0.20166	0.18338	0.15489	0.16521	0.17407	0.062135	0.19201	0.054454	0.13128	0.28718	-4.2271	-3.6042	-4.1667	-4.3292	-3.6437	-4.5708	-3.8312	-3.9062	-4.6208	-3.6104	-4.2208	-4.3208	-3.5083	-4.5146	-3.7188	-3.8479	151.743	179.912	-64.770	100.343	-130.488	39.508	153.210	-65.714	28.521	21.125	152.818	173.189	149.224	109.863	3.755	-118.515	0.00072362	0.000485	0.00010283	812.9	3.0094e-06	4.3602e-06	1274.9	245.47	7.7552e-06	5.7034e-06	440.5	130.79	67.58	21.147	7.324e-06	50.367	0.00036767	0.00041019	0.0001018	750.32	4.0758e-06	4.5164e-06	1164.9	225.26	4.1786e-06	4.5099e-06	400.17	119.7	64.941	20.595	3.9877e-06	46.129	143.873	-110.370	186.022	-138.928	72.705	23.107	-138.832	-134.129	-86.955	-21.779	-134.281	-129.330	-129.426	-122.832	-97.229	-123.029	-8191	255	
23904.232	1	1	0	0	0.063996	0.020604	0.088854	0.076208	0.022113	0.18633	0.19904	0.17056	0.047907	0.073477	0.18163	0.045146	0.10987	0.11785	0.22486	0.079098	-4.2542	-3.3729	-4.1667	-4.3208	-3.5	-4.4313	-4.0896	-3.65	-4.6208	-3.5604	-4.2125	-4.4708	-3.5417	-4.3688	-4.0896	-3.8667	103.926	-100.112	50.739	-29.718	-13.843	-133.055	81.923	115.463	-108.515	12.239	173.294	194.169	45.972	-6.015	183.121	-37.897	0.00058678	0.00086291	0.00014344	823.6	7.7955e-06	1.162e-05	1272	244.98	3.4305e-06	6.5842e-06	443.9	131.68	67.881	21.243	1.2743e-05	50.406	0.00041105	0.00040566	0.00010283	758.47	4.5743e-06	4.448e-06	1165.4	226.45	4.5632e-06	4.3254e-06	401.05	120.39	65.242	20.598	3.8722e-06	46.34	150.829	-81.039	-69.410	-139.065	-101.202	-99.649	-138.612	-134.264	161.049	-41.994	-133.605	-128.973	-129.252	-122.657	91.854	-122.688	-8191	255	
23904.303	1	1	0	0	0.075877	0.15902	0.15005	0.061886	0.21049	0.10557	0.22689	0.23532	0.11432	0.14863	0.27407	0.14836	0.17217	0.13804	0.069384	0.062537	-4.3104	-3.5917	-3.8563	-4.5271	-3.5438	-4.5042	-4.4187	-3.5438	-4.6896	-3.8187	-3.9813	-4.5958	-3.5479	-4.4208	-4.2312	-3.4688	-136.391	2.336	190.408	64.374	-108.825	142.945	184.959	93.082	117.450	-39.471	-3.875	175.886	160.191	-38.243	-17.576	124.684	0.00055964	0.00025493	0.00016322	818.41	5.2896e-06	5.0369e-06	1277.1	243.41	6.943e-07	8.4402e-06	441.81	131.54	68.202	21.272	7.9589e-06	50.392	0.0004248	0.00038098	9.9372e-05	759.93	4.6798e-06	4.2111e-06	1167.2	226.73	4.6227e-06	4.0143e-06	398.99	120.66	65.329	20.438	3.7257e-06	46.385	146.819	-136.310	1.855	-138.589	-16.313	-117.506	-138.741	-134.331	118.531	-6.803	-133.581	-129.158	-129.306	-122.860	-38.021	-122.833	-8191	255	
23904.422	1	1	0	0	0.098058	0.2802	0.11769	0.25153	0.16093	0.17071	0.27713	0.16456	0.26017	0.16121	0.15125	0.12508	0.076475	0.20862	0.10266	0.11945	-4.2646	-3.6562	-3.9792	-4.775	-3.5583	-4.1625	-4.4083	-3.5604	-4.5354	-3.8187	-4.0333	-4.7354	-3.475	-4.2021	-4.4792	-3.4792	-66.651	-74.882	-143.911	-120.278	50.103	-149.370	148.413	206.069	-128.181	14.869	172.339	-149.804	-54.143	99.578	56.471	178.508	0.00060163	0.00023876	0.00019113	819.49	7.0793e-06	4.8621e-06	1285.3	246.46	5.0948e-06	6.6991e-06	444.12	131.86	67.569	21.165	8.8747e-06	50.454	0.00041799	0.00036021	9.5205e-05	763.29	4.4479e-06	3.9867e-06	1169.6	228.88	4.3661e-06	3.8452e-06	399.66	121.3	64.661	20.319	3.5936e-06	46.582	167.671	137.344	-23.947	-138.770	40.583	-65.357	-138.706	-133.851	-80.407	-61.025	-133.659	-129.211	-129.497	-122.968	-140.592	-122.850	-8191	255	
23904.518	1	1	0	0	0.08669	0.13706	0.10737	0.062786	0.2373	0.18988	0.38083	0.2546	0.11117	0.22005	0.088747	0.30077	0.1608	0.14975	0.21167	0.2265	-4.1792	-3.9729	-3.575	-4.7458	-3.6625	-4.0542	-4.5813	-3.5062	-4.4458	-4	-3.5958	-4.7083	-3.8083	-3.8125	-4.4437	-3.4771	-148.710	-72.469	12.273	-150.764	196.295	49.449	152.790	-146.105	-145.721	68.202	-148.337	143.339	128.319	53.312	-46.226	-139.874	0.00070552	0.00082943	0.00020878	821.68	6.5216e-06	1.417e-06	1277.2	247.25	4.7791e-06	6.9453e-06	442.45	132.47	68.597	21.393	9.1596e-06	50.699	0.00038874	0.00034799	9.6151e-05	764.97	4.2629e-06	3.9124e-06	1167.9	229.74	4.1909e-06	3.7545e-06	400.28	121.81	64.787	20.354	3.8844e-06	46.815	162.957	207.295	132.600	-138.701	0.956	80.099	-138.762	-133.948	58.008	3.379	-134.083	-129.046	-129.389	-122.816	-102.777	-123.025	-8191	255	
23904.615	1	1	0	0	0.073402	0.21214	0.15463	0.30676	0.091641	0.1568	0.18786	0.12266	0.22289	0.16943	0.22258	0.17153	0.10073	0.17235	0.063822	0.16442	-3.8604	-4.1583	-3.4417	-4.575	-3.7625	-3.7833	-4.5563	-3.6104	-4.1854	-4.1	-3.6396	-4.6271	-3.8396	-3.8458	-4.6	-3.7292	133.872	-97.013	-144.712	186.198	10.203	160.889	150.656	84.049	140.546	35.861	68.507	177.850	-72.288	-141.836	192.523	103.351	0.00054025	0.00084617	0.00016612	818.74	4.9535e-06	2.5064e-06	1281.2	245.23	8.7988e-07	8.8427e-06	440.56	132.96	68.13	21.452	5.5585e-06	50.813	0.00037258	0.00034442	0.00010352	764.01	4.0378e-06	3.7911e-06	1172	229.32	4.0422e-06	3.7436e-06	401.7	122.15	64.619	20.336	4.1963e-06	46.812	155.089	-95.310	-78.671	-139.207	-14.579	-74.106	-139.153	-134.386	44.809	-69.968	-134.049	-129.331	-129.419	-122.945	-147.005	-122.805	-8191	255	
23904.734	1	1	0	0	0.18745	0.11927	0.046937	0.083659	0.094014	0.1327	0.20957	0.045476	0.14785	0.2733	0.097193	0.1185	0.27598	0.10221	0.20998	0.42506	-3.9667	-4.1917	-3.6188	-4.6312	-3.8979	-3.7104	-4.675	-3.4729	-4.0021	-4.2625	-3.4646	-4.5125	-3.9417	-3.6896	-4.3917	-3.5896	48.369	125.429	132.141	143.582	-1.923	55.037	126.158	167.601	127.731	119.154	177.221	130.265	80.481	10.091	-91.291	75.308	0.00055515	0.00051158	0.00012688	813.69	7.9366e-06	3.1837e-06	1264.5	243.61	3.358e-06	1.1277e-05	441.49	131.68	67.707	21.095	8.3242e-06	49.814	0.00035697	0.00032584	0.00010719	754.89	3.7752e-06	3.6892e-06	1160.8	226.37	3.8803e-06	3.6714e-06	401.12	121.08	64.041	20.235	4.4894e-06	46.037	167.753	-91.844	-51.657	-138.945	13.994	-62.728	-139.056	-133.995	-67.377	56.099	-134.285	-129.218	-129.612	-123.540	-64.053	-122.964	-8191	255	
23904.830	1	1	0	0	0.25645	0.027463	0.19038	0.1072	0.14353	0.070977	0.25461	0.20539	0.1084	0.24238	0.16918	0.28971	0.24857	0.090225	0.12042	0.16905	-3.8083	-4.4667	-3.4146	-4.5833	-3.9875	-3.6354	-4.5625	-3.6375	-3.7833	-4.4208	-3.6021	-4.3167	-4.0396	-3.3833	-4.3938	-3.7687	-25.954	-66.082	179.510	-124.210	-21.502	36.493	153.024	142.386	-148.928	72.477	150.113	64.922	128.446	132.952	32.316	-114.968	0.0005891	0.00040612	6.9135e-05	807.48	8.2224e-06	7.4556e-07	1258.9	243.87	2.6702e-06	7.187e-06	438.86	130.83	67.832	21.034	5.7922e-06	50.165	0.00035335	0.00034292	0.00011355	750.7	3.6636e-06	3.8228e-06	1159.5	225.16	3.692e-06	3.8522e-06	399.46	119.8	63.87	20.358	4.4766e-06	46.062	183.700	20.787	-47.917	-138.755	-14.159	117.681	-139.021	-134.475	93.388	-109.353	-134.126	-129.786	-130.241	-123.321	-55.881	-123.199	-8191	255	
23904.902	1	1	0	0	0.11362	0.074857	0.064107	0.14377	0.012066	0.077263	0.21735	0.16826	0.14432	0.053947	0.08588	0.15542	0.19083	0.13328	0.094116	0.15803	-3.625	-4.4979	-3.4979	-4.3583	-4.1146	-3.6167	-4.6021	-3.8833	-3.6542	-4.45	-3.7375	-4.25	-4.1896	-3.6437	-4.4771	-3.9375	28.541	13.926	103.811	-102.190	62.724	128.086	118.706	128.946	27.821	-100.861	143.339	-80.759	-86.155	-77.223	106.604	130.640	0.00076865	0.00063627	7.3224e-05	805.87	3.9361e-06	1.21e-06	1259.1	241.3	1.1483e-05	1.5508e-06	438.49	130.56	68.235	21.201	3.2876e-06	50.493	0.00033901	0.00036433	0.00011098	747.97	3.5698e-06	4.0899e-06	1157	224.49	3.5493e-06	4.1523e-06	398.65	119.54	63.905	20.594	4.2359e-06	46.134	166.493	-143.033	-2.053	-139.317	147.301	-77.869	-139.172	-134.299	-49.209	-105.746	-134.493	-129.809	-129.872	-123.530	138.959	-123.546	-8191	255	
23905.023	1	1	0	0	0.27912	0.21655	0.14361	0.24134	0.17298	0.32667	0.14677	0.23413	0.23607	0.136	0.021257	0.15699	0.013667	0.15033	0.093793	0.32561	-3.2896	-4.6583	-3.5854	-4.0917	-4.1375	-3.3375	-4.4333	-3.8771	-3.6396	-4.4583	-3.5708	-3.8187	-4.2396	-3.2667	-4.2083	-4.0354	30.279	-29.543	100.736	177.354	65.329	-18.379	201.530	146.491	159.918	86.905	91.630	194.790	-1.233	-39.230	-107.231	150.790	0.00073092	0.00041706	0.00044669	811.05	2.5776e-06	3.0056e-06	1260	242.09	5.944e-06	3.2407e-06	440.35	130.84	68.335	21.386	5.8362e-06	50.333	0.00033752	0.00039082	0.00010529	748.31	3.5633e-06	4.2881e-06	1155	223.62	3.5193e-06	4.2228e-06	396.97	119.83	63.588	20.626	3.7485e-06	45.929	158.030	156.621	-52.866	-139.525	-58.046	-128.138	-139.765	-134.649	-24.624	32.871	-134.561	-130.310	-129.997	-123.955	13.486	-123.664	-8191	255	
23905.119	1	1	0	0	0.14361	0.10247	0.2571	0.17604	0.16859	0.23856	0.40062	0.14814	0.24121	0.18609	0.26518	0.14384	0.039227	0.035077	0.12762	0.16288	-3.2062	-4.4313	-3.5271	-4.0354	-4.2792	-3.4562	-4.2458	-4.0188	-3.6896	-4.5021	-3.7417	-3.7979	-4.4604	-3.4333	-4.0813	-4.0396	-18.889	-151.738	181.460	-125.926	-47.474	32.361	174.273	-112.685	-63.651	176.687	-136.108	177.623	176.948	16.635	-67.854	178.957	0.00054316	0.00027687	0.00022333	802.12	1.6621e-06	2.7489e-06	1235.2	240.97	2.4742e-06	6.7071e-06	431.5	129.59	67.391	21.264	3.6444e-06	50.145	0.00033679	0.00037933	9.3457e-05	737.7	3.5423e-06	4.1529e-06	1137.5	221.15	3.6733e-06	4.04e-06	390.14	118.26	63.395	20.484	3.5527e-06	45.662	160.159	191.574	196.018	-139.449	139.428	-98.384	-139.435	-134.696	-132.648	30.934	-134.579	-129.812	-130.229	-123.578	21.854	-123.390	-8191	255	
23905.217	1	1	0	0	0.18346	0.060415	0.19996	0.15997	0.14268	0.10402	0.29949	0.23768	0.11806	0.1438	0.28488	0.35738	0.23438	0.41878	0.109	0.24204	-3.1125	-4.5021	-3.7771	-3.9188	-4.4437	-3.625	-4.1146	-4.4208	-3.3833	-4.4375	-4.0312	-3.6188	-4.4333	-3.4646	-4.0354	-4.3771	61.424	136.842	4.097	167.407	-107.347	-65.947	124.950	128.768	188.406	-61.351	161.701	-117.568	-137.921	51.159	37.607	201.049	0.00073791	0.00044998	0.00014429	795.89	3.4259e-06	2.8302e-06	1240.2	238.78	4.0624e-06	5.2008e-06	431.67	129.85	67.058	21.103	6.1153e-06	50.164	0.00034628	0.00035654	8.7507e-05	727.48	3.6997e-06	3.7231e-06	1127.8	219.28	3.6487e-06	3.6363e-06	388.24	117.26	63.389	20.1	3.1529e-06	45.398	158.354	-95.844	-107.449	-139.340	-97.390	4.450	-139.119	-134.527	-120.313	68.342	-134.389	-129.882	-129.966	-123.777	-38.056	-123.731	-8191	255	
23905.336	1	1	0	0	0.049939	0.1604	0.32603	0.32049	0.18974	0.3137	0.24047	0.23348	0.24297	0.19288	0.11092	0.1605	0.10046	0.33402	0.051264	0.06549	-3.2479	-4.1375	-4.0312	-3.625	-4.475	-3.5896	-4.1	-4.325	-3.4979	-4.1583	-4.2604	-3.5854	-4.4958	-3.8042	-3.8458	-4.4229	51.792	17.303	158.813	-129.747	-47.833	-46.664	136.312	203.338	205.607	137.260	140.626	90.296	-59.903	-11.968	-52.423	-95.322	0.00058489	0.00042877	0.00020379	783.2	3.5734e-06	4.2106e-06	1236.4	240.76	3.9481e-06	4.68e-06	435.16	129.71	67.515	21.304	8.6926e-06	50.461	0.00033796	0.00031479	7.8058e-05	717.95	3.6574e-06	3.3292e-06	1121.1	220.41	3.7544e-06	3.4305e-06	389.25	118.23	63.645	19.98	3.1926e-06	45.63	152.286	-0.397	-60.558	-138.933	64.567	-11.324	-138.923	-133.774	41.663	1.958	-134.073	-129.534	-129.946	-123.003	-41.183	-123.175	-8191	255	
23905.434	1	1	0	0	0.22171	0.14674	0.35739	0.30336	0.08834	0.099409	0.15843	0.051686	0.40481	0.056394	0.073029	0.10787	0.041427	0.072709	0.076008	0.20583	-2.9896	-4.3271	-4.2667	-3.4417	-4.4479	-3.6979	-3.9979	-4.5792	-3.4	-4.1438	-4.1333	-3.5187	-4.6021	-3.7938	-3.8417	-4.5208	87.832	194.718	47.650	153.061	-39.628	-70.979	197.662	-84.146	103.704	136.871	195.284	-10.912	-15.570	-149.467	103.380	112.314	0.00057339	0.00056204	0.00031276	783.2	5.0014e-06	5.3092e-06	1231.4	240	2.4159e-06	1.0806e-05	435.23	130.36	67.396	21.264	1.3908e-05	50.289	0.00034632	0.00030514	7.6903e-05	724.04	3.7267e-06	3.2642e-06	1120.6	221.85	3.6961e-06	3.2323e-06	390.33	118.82	63.777	20.005	3.1712e-06	45.804	174.933	-135.829	-40.199	-138.763	76.536	-36.696	-139.210	-133.919	-30.064	9.261	-133.866	-129.550	-129.583	-123.097	-45.803	-123.893	-8191	255	
23905.527	1	1	0	0	0.14052	0.12262	0.17146	0.21131	0.16538	0.08463	0.30598	0.28868	0.38046	0.039636	0.43052	0.17135	0.10065	0.10661	0.10198	0.16775	-3.2875	-4.0542	-4.25	-3.4542	-4.5146	-4.1479	-3.9479	-4.4896	-3.5208	-3.9854	-4.3854	-3.5229	-4.4125	-3.9917	-3.6708	-4.5583	-104.231	44.252	-113.543	156.327	-58.460	-121.540	150.959	126.364	-145.746	-136.249	193.242	52.177	62.112	190.108	167.509	143.569	0.00043735	0.00022982	0.00019079	785.69	5.5161e-06	9.5028e-06	1225.8	239	5.3467e-06	3.025e-06	431.75	129.29	66.973	20.829	8.7476e-06	49.25	0.00033887	0.00030001	7.7443e-05	726.28	3.5803e-06	3.1183e-06	1116.2	220.92	3.458e-06	3.1113e-06	387.74	117.96	62.841	19.608	3.1202e-06	45.132	193.299	-31.378	106.776	-139.345	132.272	-79.539	-139.314	-133.970	-17.526	67.632	-134.167	-129.753	-129.768	-123.203	-95.329	-123.677	-8191	255	
23905.600	1	1	0	0	0.10786	0.11473	0.20272	0.13105	0.15464	0.16493	0.22822	0.18488	0.11019	0.13863	0.2936	0.26839	0.23832	0.27228	0.33231	0.14282	-3.3646	-3.9771	-4.4437	-3.6167	-4.1687	-4.0687	-3.5896	-4.6458	-3.6708	-3.7146	-4.6104	-3.4313	-4.2542	-4.1604	-3.4313	-4.4229	-13.434	134.886	182.173	-72.674	-71.480	-18.377	165.110	147.485	106.485	-92.010	121.444	103.666	199.399	-135.376	35.494	178.876	0.00046197	0.00092386	0.00020977	773.62	5.3657e-06	8.8839e-06	1223.8	239.61	4.4433e-06	5.4556e-06	432.21	129.81	67.268	21.009	1.2704e-06	49.294	0.00030953	0.0002831	8.0002e-05	719.72	3.3255e-06	3.013e-06	1115.7	220.88	3.2262e-06	3.0625e-06	388.33	118.13	62.535	19.642	3.3449e-06	45.131	161.715	-117.803	-131.596	-138.812	-12.070	23.840	-139.063	-133.786	71.080	-120.518	-134.104	-129.751	-129.630	-123.075	-75.763	-123.632	-8191	255	
23905.719	1	1	0	0	0.1456	0.15927	0.23183	0.12568	0.28906	0.31599	0.026985	0.2349	0.068334	0.045513	0.14673	0.13243	0.17739	0.28611	0.11411	0.1303	-3.2729	-3.7521	-4.5542	-3.6375	-4.0875	-4.0833	-3.7854	-4.6167	-3.6479	-3.7521	-4.5208	-3.5438	-3.9229	-4.2958	-3.3271	-4.4104	22.217	-80.134	116.067	192.017	38.775	73.422	88.860	155.381	25.151	173.292	106.186	-109.433	175.435	-136.719	29.015	135.201	0.0004321	2.4099e-05	2.6829e-05	773.49	2.5063e-06	2.2837e-06	1214.4	238.24	3.7239e-06	2.5023e-06	431.52	129.3	67.083	21.103	1.1107e-05	49.876	0.00028543	0.00025974	8.0811e-05	710.08	2.9641e-06	2.7689e-06	1108.4	219.31	3.0857e-06	3.0101e-06	389.79	117.75	62.206	19.744	3.7257e-06	45.522	180.834	155.571	1.685	-138.725	206.235	151.478	-139.255	-133.952	86.196	-13.199	-134.358	-129.590	-129.523	-122.762	-94.773	-122.788	-8191	255	
23905.814	1	1	0	0	0.11369	0.12046	0.23361	0.081725	0.21522	0.15782	0.36693	0.20979	0.13614	0.11304	0.044036	0.034822	0.26237	0.18758	0.21719	0.079877	-3.5292	-3.6854	-4.3938	-3.5917	-3.95	-4.3812	-3.6167	-4.4646	-3.8604	-3.6792	-4.5437	-3.6625	-4.0771	-4.2688	-3.4396	-4.3854	69.801	-65.872	-31.545	12.487	31.228	23.192	136.431	79.912	-3.678	-150.513	107.862	-113.917	-136.005	140.504	167.035	121.993	0.00047802	0.0006302	6.6463e-05	780.68	2.9147e-06	1.6826e-06	1209.1	235.42	1.2254e-06	6.9741e-06	426.98	128.63	65.999	20.843	7.1712e-06	49.624	0.00029399	0.00028716	9.2078e-05	718.65	3.0281e-06	2.9269e-06	1110	216.74	2.8105e-06	2.9066e-06	386.47	116.42	61.334	19.621	3.5062e-06	45.049	161.306	-121.939	206.378	-138.662	86.976	-97.861	-138.946	-133.903	58.236	-14.354	-133.876	-129.046	-129.578	-123.303	-124.023	-122.919	-8191	255	
23905.912	1	1	0	0	0.1491	0.065251	0.19703	0.30792	0.17515	0.11998	0.19079	0.15457	0.12432	0.19712	0.23649	0.088133	0.14577	0.2078	0.2307	0.18076	-3.7771	-3.6167	-4.45	-3.6792	-3.6375	-4.4062	-3.4229	-4.2479	-4.1708	-3.4562	-4.5521	-3.9167	-3.8396	-4.4938	-3.425	-4.1833	184.926	-44.695	-81.067	154.945	-11.305	-50.462	151.484	88.445	163.299	-149.728	160.845	190.455	151.246	144.347	66.818	-63.333	0.00041449	0.00018652	0.00013157	784.55	3.954e-06	3.2827e-06	1221.8	237.44	4.9802e-06	7.008e-06	429.22	127.52	66.35	20.889	6.4999e-06	49.041	0.00027005	0.00029033	9.3322e-05	719.28	3.0504e-06	3.2641e-06	1117.5	217.2	2.8836e-06	3.3157e-06	387.42	115.62	61.341	19.656	3.3887e-06	44.476	174.068	159.370	35.951	-138.839	-35.779	21.377	-138.833	-133.926	-101.684	-69.822	-133.769	-129.372	-129.675	-122.729	12.943	-123.458	-8191	255	
23906.008	1	1	0	0	0.19862	0.16794	0.21403	0.11881	0.19591	0.18543	0.30227	0.13958	0.16308	0.17395	0.17074	0.14142	0.3706	0.24879	0.21114	0.12298	-3.9792	-3.3979	-4.525	-3.7375	-3.4208	-4.4417	-3.6813	-4.0375	-4.2083	-3.3563	-4.35	-3.925	-3.6583	-4.4458	-3.6104	-4.1354	-90.786	-134.050	-118.955	-149.990	72.211	104.314	98.880	159.585	160.471	40.942	139.264	81.803	164.869	143.469	95.923	75.679	0.00051765	0.00038857	6.2316e-05	772.43	3.1613e-06	5.0939e-06	1209.3	235.45	3.4106e-06	6.9219e-06	426.19	127.58	66.184	21.003	7.0594e-06	49.12	0.00025756	0.00029984	8.4698e-05	709.45	2.8257e-06	3.3483e-06	1105.6	215.62	2.7979e-06	3.3824e-06	384.71	115.29	61.229	19.796	3.2054e-06	44.553	165.721	207.320	51.280	-138.615	-55.422	-121.566	-139.073	-133.869	56.277	-54.214	-133.735	-129.465	-129.619	-123.599	52.577	-123.282	-8191	255	
23906.129	1	1	0	0	0.077036	0.1172	0.27114	0.083654	0.096835	0.23248	0.073245	0.082461	0.26307	0.057719	0.085879	0.07094	0.16599	0.18803	0.18759	0.013384	-4.0208	-3.4229	-4.2438	-3.8708	-3.4813	-4.4958	-3.9	-3.8438	-4.2917	-3.3458	-4.3708	-4.0938	-3.5042	-4.5312	-3.5396	-3.7375	89.437	78.104	-54.417	-63.284	-125.295	92.372	-98.936	181.095	-89.643	22.208	92.240	-131.523	-145.339	-46.908	-108.388	29.473	0.00057683	0.00050296	0.00022499	772.29	2.3373e-06	5.2394e-06	1212.3	237.43	1.1718e-06	4.2296e-06	425.97	127.81	65.992	21.048	1.307e-05	49.319	0.0002689	0.00031702	8.0791e-05	709	2.9675e-06	3.5049e-06	1106.6	216.27	3.0054e-06	3.5466e-06	384.43	115.88	61.769	19.88	3.0987e-06	44.788	146.492	34.845	-23.417	-138.914	-76.028	-58.849	-138.821	-134.126	-117.139	-85.039	-134.085	-129.734	-129.660	-123.111	-17.206	-123.066	-8191	255	
23906.199	1	1	0	0	0.29339	0.02901	0.24814	0.074795	0.051283	0.098469	0.22704	0.12657	0.17621	0.27592	0.13768	0.19322	0.29106	0.014991	0.1715	0.27802	-4.0979	-3.3292	-4.0208	-4.275	-3.2792	-4.4708	-3.9104	-3.7958	-4.3667	-3.3667	-4.1979	-4.2667	-3.6813	-4.3812	-3.8688	-3.6458	115.697	-91.910	-113.746	-114.447	121.219	153.719	166.023	85.024	-128.936	-16.414	152.736	164.338	170.311	-111.812	-38.134	186.128	0.00061244	0.00079593	0.00014239	772.87	4.6016e-06	2.6299e-06	1212.8	236.51	1.3631e-06	4.2224e-06	425.92	128.85	66.288	20.829	1.8212e-06	49.62	0.0002938	0.00032414	7.8908e-05	708.48	3.29e-06	3.5238e-06	1106	215.67	3.3154e-06	3.4907e-06	384.28	116.34	62.305	19.858	3.0684e-06	44.84	179.933	-36.882	-79.863	-138.759	45.827	2.043	-138.820	-134.057	150.305	-28.638	-133.664	-129.410	-129.172	-122.572	57.860	-123.050	-8191	255	
23906.297	1	1	0	0	0.041579	0.10427	0.17942	0.23052	0.18672	0.030575	0.19971	0.14619	0.11402	0.13862	0.25352	0.2677	0.02348	0.074234	0.18035	0.22227	-4.2208	-3.5958	-3.9021	-4.2604	-3.225	-4.3562	-4.0125	-3.7479	-4.5229	-3.5208	-4.1021	-4.425	-3.5604	-4.375	-3.9062	-3.5938	-62.065	146.673	114.070	69.634	137.054	-110.373	199.798	166.925	36.733	29.626	205.941	201.244	-66.925	-67.280	-30.191	183.702	0.00052166	0.0005257	0.00030442	774.39	3.7713e-06	5.9206e-06	1218.6	234.17	4.2615e-06	5.0722e-06	424.81	127.76	66.164	20.991	3.632e-06	49.447	0.00031932	0.00030869	7.7078e-05	709.88	3.483e-06	3.3235e-06	1106.2	215.33	3.5158e-06	3.284e-06	382.95	115.7	62.429	19.742	3.0048e-06	44.782	177.261	-133.968	-6.316	-138.570	-149.499	4.082	-138.275	-133.683	-68.751	26.056	-133.589	-129.136	-129.332	-122.745	-31.860	-122.824	-8191	255	
23906.418	1	1	0	0	0.21841	0.36802	0.20527	0.13916	0.25181	0.2045	0.14487	0.2177	0.076261	0.081204	0.28945	0.11355	0.1763	0.17995	0.13713	0.15133	-4.25	-3.5312	-3.6646	-4.4583	-3.3354	-4.1937	-4.1979	-3.6562	-4.3229	-3.8417	-3.9	-4.4917	-3.5375	-4.2167	-4.1979	-3.4583	122.285	-119.925	85.179	-123.877	-23.171	-110.329	160.834	122.544	60.170	18.113	123.591	145.145	158.083	170.680	154.803	156.599	0.00041281	0.00040592	0.00020503	777.9	4.4269e-06	9.2997e-06	1221.2	236.91	6.3277e-06	5.6799e-06	426.78	128.52	66.336	20.957	1.1593e-05	49.896	0.00033227	0.00029264	7.5036e-05	711.52	3.5214e-06	3.1407e-06	1106.7	216.83	3.4999e-06	3.1083e-06	382.8	116.59	62.268	19.744	2.8945e-06	45.111	169.961	-124.826	-114.606	-138.649	-50.011	-11.083	-138.675	-133.884	20.721	11.297	-133.870	-129.408	-129.340	-122.732	13.797	-122.839	-8191	255	
23906.512	1	1	0	0	0.44662	0.15457	0.20568	0.1554	0.14066	0.062416	0.11538	0.26922	0.23669	0.03994	0.13115	0.25266	0.14861	0.28866	0.17548	0.13651	-4.1354	-3.6896	-3.6437	-4.625	-3.3354	-4.1396	-4.3187	-3.6271	-4.4708	-3.8854	-3.6896	-4.5417	-3.4333	-4.125	-4.3208	-3.6312	-99.017	-32.511	-113.073	134.818	2.195	27.008	122.943	126.097	17.181	202.327	134.225	207.023	-147.075	-5.016	117.622	-60.060	0.00042907	0.00053586	7.1689e-05	775.08	4.9072e-06	5.3963e-06	1214.7	236.43	5.6363e-06	9.6047e-06	426.14	127.95	66.725	21.274	9.0036e-06	49.79	0.0003232	0.00028018	7.3852e-05	714.96	3.4215e-06	3.0526e-06	1105.2	217.66	3.432e-06	3.0832e-06	383.17	117.42	62.593	19.832	2.9852e-06	45.543	173.150	-101.862	13.688	-138.869	-54.797	-61.836	-138.875	-133.738	-32.591	-21.831	-134.364	-129.463	-129.359	-123.071	-29.658	-123.544	-8191	255	
23906.607	1	1	0	0	0.35871	0.06375	0.14762	0.30991	0.13032	0.26973	0.090013	0.17595	0.16836	0.23643	0.27186	0.14957	0.21475	0.17686	0.17743	0.15736	-3.9875	-4.0875	-3.725	-4.5958	-3.7104	-3.9479	-4.4146	-3.4333	-4.3208	-4.1167	-3.7896	-4.7875	-3.7333	-3.9229	-4.3646	-3.5521	21.482	51.104	118.939	181.715	132.924	19.131	148.488	171.583	-49.284	171.628	190.033	75.816	130.434	116.045	29.445	68.419	0.00052333	0.00062726	0.00029025	781.59	7.2001e-06	4.2591e-06	1224.7	238.04	2.1615e-06	1.1313e-05	427.36	129.52	66.918	21.24	1.7747e-06	49.882	0.00031306	0.00027841	7.7941e-05	722.76	3.3973e-06	3.1078e-06	1114.7	220.21	3.3676e-06	3.072e-06	386.69	118.16	62.498	19.86	3.1847e-06	45.582	184.420	-112.631	51.178	-139.574	-8.625	-52.241	-139.505	-134.849	-71.082	-35.228	-134.569	-129.935	-129.933	-123.554	205.535	-123.974	-8191	255	
23906.703	1	1	0	0	0.20408	0.26713	0.19284	0.24549	0.03867	0.019092	0.033416	0.044284	0.097953	0.11033	0.1292	0.26425	0.26668	0.20802	0.091713	0.24026	-3.9167	-4.0542	-3.5	-4.6208	-3.7625	-3.6562	-4.4604	-3.5687	-4.1312	-4.3333	-3.5563	-4.4625	-3.925	-3.7042	-4.4896	-3.625	-126.573	57.949	181.950	-130.406	100.554	110.930	72.873	-38.216	56.266	-67.222	-131.054	176.298	111.657	155.074	66.772	148.619	0.00032508	0.00016637	0.00023881	778.81	5.1622e-06	6.6995e-06	1210.9	237.59	5.2249e-06	7.125e-07	425.39	128.06	66.243	21.156	4.2699e-06	49.344	0.00029508	0.00026714	8.2856e-05	718.53	3.1285e-06	2.9032e-06	1110.3	218.73	3.1733e-06	2.8738e-06	385.58	116.94	61.945	19.703	3.4955e-06	45.236	151.289	-120.585	-55.998	-139.107	100.342	-77.664	-139.084	-134.776	-82.858	-50.064	-134.853	-130.031	-129.672	-123.443	-33.255	-123.429	-8191	255	
23906.801	1	1	0	0	0.080665	0.17884	0.31799	0.10513	0.089902	0.2039	0.30369	0.28639	0.040815	0.072454	0.10324	0.072812	0.029894	0.022745	0.18538	0.32608	-3.8063	-4.3917	-3.4479	-4.4875	-3.8667	-3.7062	-4.6875	-3.5771	-3.9729	-4.4354	-3.425	-4.3875	-4.0021	-3.6396	-4.3479	-3.7687	198.533	-63.539	53.590	6.420	24.813	-32.259	138.459	161.155	48.861	63.566	53.057	113.421	69.173	18.971	151.808	110.150	0.00052206	0.0008061	0.00031694	777.19	4.9752e-07	3.7764e-06	1211.3	238.12	7.0858e-06	4.8401e-06	428.97	129.08	66.408	21.241	3.552e-06	49.551	0.00029659	0.00026927	8.8742e-05	717.19	2.9904e-06	2.9483e-06	1109.3	218.09	2.9945e-06	2.8843e-06	386.85	117	61.387	19.751	3.5103e-06	45.162	178.669	-112.440	-140.476	-139.381	180.045	-131.636	-139.597	-134.309	-77.163	-50.776	-133.976	-129.232	-129.150	-122.902	14.718	-123.025	-8191	255	
23906.896	1	1	0	0	0.085484	0.22566	0.12005	0.096181	0.12676	0.2009	0.084511	0.19846	0.12668	0.12719	0.014886	0.21262	0.18528	0.15281	0.095662	0.16671	-3.4896	-4.4208	-3.3104	-4.5667	-3.8979	-3.4604	-4.7937	-3.7542	-3.8792	-4.6167	-3.6437	-4.4292	-4.275	-3.5396	-4.375	-3.9396	-130.318	184.178	-136.680	42.012	-58.626	129.398	204.981	52.120	193.287	137.629	185.691	177.503	116.176	154.756	42.194	81.471	0.00054864	0.00041674	0.00025537	778.29	6.3579e-06	4.534e-06	1225.4	237.85	6.413e-06	6.6968e-06	429.11	129.7	67.489	21.119	5.3783e-06	50.575	0.00028062	0.00027244	9.1667e-05	715.37	2.9463e-06	3.1727e-06	1116.4	218.8	3.0319e-06	3.2469e-06	389.2	117.6	62.051	20.078	3.6594e-06	45.584	155.304	-117.049	-133.584	-138.866	-14.933	125.988	-138.358	-133.413	43.643	-75.095	-133.328	-128.673	-128.777	-122.406	-135.963	-122.347	-8191	255	
23907.016	1	1	0	0	0.27153	0.069009	0.32665	0.1801	0.23867	0.092412	0.33573	0.13996	0.15886	0.1333	0.18817	0.33787	0.0072037	0.32249	0.12622	0.27782	-3.5187	-4.4917	-3.3167	-4.1937	-4.2292	-3.3646	-4.6229	-3.9875	-3.8208	-4.3708	-3.7875	-4.2708	-4.4688	-3.4271	-4.4833	-3.9729	160.074	205.836	-130.912	-121.728	0.592	-79.226	201.958	205.406	169.018	135.030	-147.419	190.428	-33.639	97.126	-17.629	-148.020	0.00056467	0.00031012	0.00028586	781.25	3.8183e-06	3.8897e-06	1214.4	238.6	4.1063e-06	3.5836e-06	431.52	130.43	67.235	21.143	7.6094e-06	49.938	0.00028001	0.00030768	9.1272e-05	716.95	2.9412e-06	3.4734e-06	1114.3	218.94	3.0447e-06	3.5491e-06	389.88	117.97	62.389	20.264	3.5968e-06	45.52	165.877	-34.865	-100.625	-138.595	35.500	-60.731	-138.651	-133.754	-85.086	184.379	-133.827	-129.135	-128.674	-122.581	-2.753	-122.654	-8191	255	
23907.113	1	1	0	0	0.10882	0.013357	0.1564	0.083738	0.30358	0.14078	0.31218	0.13906	0.23339	0.074536	0.35861	0.14872	0.1303	0.28591	0.087411	0.0052029	-3.4417	-4.3187	-3.55	-4.0083	-4.2958	-3.3375	-4.575	-4.0813	-3.6562	-4.4812	-3.6021	-3.8208	-4.4604	-3.45	-4.3375	-4.1125	-24.921	-24.636	124.374	-140.205	166.182	-45.143	157.574	194.856	-76.009	100.261	-132.010	21.279	200.981	140.112	-50.216	-27.660	0.00039577	0.00055249	0.00026557	786.27	7.4848e-07	3.0774e-06	1226.3	238.5	4.7368e-06	1.7492e-06	430.67	129.31	67.041	21.258	3.2937e-06	49.65	0.00028724	0.00033384	8.8509e-05	717.18	3.0659e-06	3.7207e-06	1115.7	218.62	3.1465e-06	3.7573e-06	387.51	117.02	62.476	20.258	3.3699e-06	45.113	173.279	-99.262	-92.735	-138.797	13.291	-57.160	-138.594	-133.237	92.878	-86.648	-133.988	-129.640	-129.586	-123.003	-146.647	-123.129	-8191	255	
23907.209	1	1	0	0	0.10221	0.10317	0.17681	0.24719	0.11896	0.1444	0.26268	0.019835	0.075672	0.21176	0.13697	0.23134	0.4086	0.12062	0.28085	0.1832	-3.2083	-4.5083	-3.5708	-3.7292	-4.4396	-3.6229	-4.5563	-4.1896	-3.5062	-4.4896	-3.9146	-3.8979	-4.3958	-3.5146	-4.1687	-4.4208	10.571	-10.914	-139.358	-52.667	7.477	-23.531	163.229	201.159	-72.279	187.811	85.496	175.691	188.459	-13.885	-22.423	57.929	0.00039058	0.00091293	5.3551e-05	782.99	1.7355e-06	2.8835e-06	1221.2	238.19	6.0696e-06	4.0463e-06	428.66	130.03	67.591	21.186	1.7986e-06	50.218	0.00029814	0.00033326	8.1158e-05	714.12	3.151e-06	3.501e-06	1107.8	217.33	3.2031e-06	3.4651e-06	385.31	117.03	62.789	20.108	3.0803e-06	45.136	154.591	-66.625	82.146	-138.746	-24.518	-87.958	-138.726	-133.696	-124.219	-47.633	-133.975	-129.217	-129.753	-123.159	135.657	-123.465	-8191	255	
23907.305	1	1	0	0	0.22199	0.34585	0.20198	0.14699	0.0091645	0.13833	0.30581	0.22345	0.11924	0.17432	0.079188	0.052406	0.16234	0.14656	0.14629	0.10092	-2.9708	-4.4729	-3.8354	-3.7188	-4.4604	-3.45	-4.2125	-4.2958	-3.3646	-4.4688	-4.0604	-3.7333	-4.5708	-3.6562	-4.0208	-4.4625	52.900	-89.826	7.081	-95.873	-139.879	-106.518	153.825	22.528	-84.179	-107.149	171.933	202.954	-102.254	117.800	194.623	188.351	0.00059841	0.0012455	0.00023224	782.11	4.2939e-06	1.7127e-06	1215	239.72	6.7325e-06	5.6184e-06	431.72	129.42	67.106	21.136	8.3976e-06	50.46	0.00031546	0.00031426	7.815e-05	714.43	3.3791e-06	3.3765e-06	1108.8	217.71	3.4346e-06	3.3498e-06	385.86	117.2	63.262	20.01	3.0338e-06	45.561	179.600	-58.552	-144.542	-138.780	-60.514	-148.061	-138.971	-133.657	27.201	126.698	-133.838	-129.126	-129.375	-122.570	-49.682	-122.817	-8191	255	
23907.426	1	1	0	0	0.15945	0.17319	0.15657	0.28787	0.22795	0.1457	0.25459	0.2991	0.090777	0.043821	0.15038	0.067614	0.234	0.166	0.065838	0.019208	-3.2479	-4.3875	-3.9583	-3.4875	-4.5375	-3.6354	-4.05	-4.5792	-3.4146	-4.1583	-4.1021	-3.5021	-4.6188	-3.8646	-3.8729	-4.4812	-134.515	-5.473	39.180	133.401	-121.088	135.488	155.565	-140.012	-78.553	-1.761	78.889	-78.719	-68.370	-124.708	110.982	-84.296	0.00055742	0.00059179	7.0059e-05	780.19	4.3003e-06	6.9856e-06	1224.6	240.16	4.1662e-06	4.4962e-06	430.11	129.83	66.923	21.354	1.1068e-05	49.943	0.00033157	0.00030255	7.7048e-05	715.24	3.6751e-06	3.2638e-06	1113.5	219.46	3.6124e-06	3.2794e-06	385.85	117.55	63.208	20.092	2.981e-06	45.483	173.025	-51.091	189.542	-138.855	-50.841	-17.124	-139.040	-133.992	-55.655	-12.212	-133.913	-129.466	-129.238	-122.662	-110.289	-123.105	-8191	255	
23907.494	1	1	0	0	0.12251	0.088955	0.14091	0.21732	0.13112	0.26438	0.24603	0.20483	0.20133	0.18771	0.032919	0.28036	0.08312	0.088656	0.18267	0.27374	-3.15	-4.2208	-4.2396	-3.7729	-4.3979	-3.7667	-3.9104	-4.6729	-3.4896	-4.1062	-4.2438	-3.5938	-4.5542	-3.8583	-3.6604	-4.6375	-133.344	-101.908	-112.082	157.586	-8.772	69.660	115.137	175.311	181.123	150.412	70.777	-121.145	97.283	157.101	-132.820	107.932	0.00032343	0.00025692	8.1372e-05	782.83	6.8769e-06	1.0164e-05	1225.7	237.48	5.6775e-06	1.291e-05	432.68	130.06	66.831	21.303	8.5349e-06	49.996	0.00032694	0.00028784	7.4228e-05	720.56	3.5419e-06	3.1086e-06	1114.9	220.18	3.5777e-06	3.2115e-06	386.85	118.11	63.392	19.966	3.044e-06	45.616	149.758	-84.406	4.111	-138.807	20.405	-32.562	-138.923	-133.982	-8.538	6.581	-134.136	-129.789	-129.054	-123.301	-130.109	-123.310	-8191	255	
23907.592	1	1	0	0	0.20182	0.07208	0.0011489	0.18707	0.13921	0.054407	0.1487	0.18378	0.11334	0.10527	0.10699	0.12009	0.045553	0.080109	0.085604	0.17418	-3.3667	-3.9833	-4.1312	-3.4104	-4.4688	-4.0146	-3.8583	-4.6917	-3.5354	-4.1396	-4.4042	-3.4292	-4.4125	-3.9625	-3.5687	-4.4854	36.017	194.653	180.000	-123.080	75.619	31.040	-125.613	108.507	23.120	-80.563	205.131	206.735	140.655	-32.856	-98.739	129.550	0.00051304	0.00030995	0.00013697	782.23	6.2959e-06	4.5608e-06	1227	238.95	6.4654e-06	9.4636e-07	427.57	130.04	67.454	21.257	5.9016e-06	49.988	0.00032342	0.00028502	7.508e-05	721.37	3.4102e-06	3.0687e-06	1113.5	220.69	3.3539e-06	3.0674e-06	386.29	118.39	62.752	19.916	3.1633e-06	45.899	172.862	-95.752	117.164	-138.857	-17.239	-8.063	-139.375	-133.888	-27.559	-95.206	-133.931	-129.577	-129.036	-123.141	-126.063	-123.034	-8191	255	
23907.688	1	1	0	0	0.061877	0.069332	0.043806	0.22084	0.15798	0.28833	0.12602	0.17021	0.13725	0.064081	0.15459	0.12083	0.22618	0.14281	0.16051	0.10052	-3.2604	-3.825	-4.5208	-3.5083	-4.2521	-4.2625	-3.6208	-4.4688	-3.5896	-3.7479	-4.5375	-3.45	-4.2604	-4.2083	-3.4021	-4.3583	151.851	-82.187	96.315	178.426	74.338	167.117	193.182	181.163	-149.475	39.072	149.177	-110.090	92.930	172.268	-20.722	127.732	0.00066162	0.00045438	0.00026183	778.2	5.8061e-06	7.7156e-07	1223.7	239.25	6.3852e-06	1.0207e-05	432.65	130.69	67.848	21.344	3.2256e-06	50.188	0.00030844	0.00028251	8.0986e-05	721.89	3.2841e-06	2.9766e-06	1113.7	221.49	3.2407e-06	3.0324e-06	388.79	118.56	62.925	19.927	3.4275e-06	45.955	162.214	-75.467	-85.026	-138.866	73.260	-77.314	-138.999	-134.148	-50.436	-29.418	-134.377	-129.294	-129.519	-123.478	196.794	-122.959	-8191	255	
23907.809	1	1	0	0	0.21705	0.10562	0.1258	0.35693	0.15045	0.12649	0.26041	0.14198	0.24342	0.17754	0.024545	0.16968	0.14492	0.2569	0.099556	0.045556	-3.45	-3.8812	-4.3375	-3.6312	-4.0625	-4.2312	-3.7167	-4.4896	-3.8417	-3.7062	-4.55	-3.5167	-4.0729	-4.3292	-3.3563	-4.4833	-92.679	67.661	135.325	108.723	-4.580	63.522	175.889	170.234	-31.727	-138.044	197.654	43.769	-131.208	180.321	22.623	51.258	0.00064701	0.00081843	0.00020638	780.67	2.9257e-06	2.0193e-06	1221.1	240.45	5.6864e-06	4.8294e-06	431.74	130.15	67.236	21.529	6.6153e-06	50.115	0.00029218	0.00027338	8.7813e-05	721.56	3.1904e-06	2.962e-06	1118.3	221.44	3.2015e-06	3.0718e-06	390.17	118.33	62.521	20.049	3.6055e-06	45.702	173.114	-79.860	142.526	-139.217	6.032	-49.262	-138.757	-133.475	-1.372	59.686	-133.813	-129.251	-129.295	-122.525	-142.677	-122.886	-8191	255	
23907.904	1	1	0	0	0.16492	0.17525	0.21446	0.36091	0.046784	0.21426	0.22348	0.31404	0.10735	0.17745	0.064646	0.19062	0.17711	0.061191	0.16179	0.36723	-3.725	-3.4646	-4.3125	-3.6792	-4.0646	-4.3	-3.6458	-4.45	-4.0521	-3.6813	-4.7479	-3.8937	-3.9208	-4.4042	-3.4229	-4.3896	36.512	69.448	-128.971	-150.847	-20.697	166.512	142.542	163.607	154.515	92.633	-81.549	144.194	39.607	-107.676	-0.353	-137.191	0.00044366	0.00060048	0.0001898	770.33	3.4329e-06	3.0716e-06	1209.8	238.57	4.5221e-06	1.5387e-05	431	128.32	67.39	21.48	4.6469e-06	49.726	0.00027937	0.00027242	8.9222e-05	710.93	2.9522e-06	2.9239e-06	1105.9	219.15	2.907e-06	3.0486e-06	387.55	116.88	62.3	19.989	3.6091e-06	45.207	166.211	-55.480	-48.834	-138.791	-84.663	108.325	-138.571	-133.794	29.455	-112.248	-133.947	-128.920	-128.867	-122.488	-4.026	-122.514	-8191	255	
23908.002	1	1	0	0	0.16817	0.28032	0.033063	0.17441	0.058168	0.13711	0.16466	0.084815	0.073956	0.15186	0.16188	0.28302	0.11038	0.060072	0.094155	0.4587	-3.9708	-3.5979	-4.5583	-3.8146	-3.7479	-4.6875	-3.7167	-4.2812	-4.2729	-3.6104	-4.5417	-3.9562	-3.7583	-4.3771	-3.6167	-4.2333	106.243	49.786	131.268	-150.863	204.920	-119.608	193.191	109.896	98.632	95.987	118.916	-124.919	80.629	-117.513	-19.646	134.972	0.00042825	0.00083964	0.00031475	781	4.0505e-06	2.3742e-06	1223.3	240.57	7.1382e-06	2.4422e-06	430.8	130.58	67.623	21.224	1.2503e-05	50.479	0.00027005	0.00029297	9.2659e-05	717.04	2.9591e-06	3.2642e-06	1116.5	219.9	2.8661e-06	3.3024e-06	387.94	117.77	62.351	20.082	3.4364e-06	45.458	163.866	-82.477	-70.099	-138.339	54.148	-113.045	-138.641	-133.107	-8.683	2.256	-133.261	-128.218	-128.250	-122.161	-34.880	-121.889	-8191	255	
23908.098	1	1	0	0	0.025225	0.26249	0.19318	0.16977	0.11398	0.14921	0.062958	0.065293	0.055814	0.1313	0.076085	0.15517	0.15252	0.098067	0.16007	0.065164	-4	-3.4854	-4.4667	-3.9562	-3.7396	-4.6625	-3.7479	-3.9667	-4.3229	-3.5021	-4.5792	-4.05	-3.6729	-4.5563	-3.5187	-4.0167	-76.409	-53.240	-36.630	172.885	-33.377	-61.746	158.940	94.615	-41.872	-87.195	166.319	180.737	-87.220	-145.853	165.165	81.034	0.00069789	0.00040621	0.00033806	785.36	2.4307e-06	3.2448e-06	1224.2	239.41	3.7217e-06	4.9644e-06	430.88	130.23	67.625	21.397	2.9505e-06	50.287	0.00026219	0.00031189	8.6709e-05	714.52	2.8664e-06	3.4265e-06	1114.8	218.99	2.8408e-06	3.4755e-06	387.52	117.55	62.636	20.268	3.2061e-06	45.484	161.510	-151.028	-77.416	-138.171	-51.842	-70.757	-138.220	-133.347	-50.033	-53.941	-133.403	-128.488	-128.936	-122.066	5.088	-122.607	-8191	255	
23908.193	1	1	0	0	0.044895	0.16725	0.074637	0.068036	0.16254	0.078355	0.36933	0.032759	0.080094	0.2696	0.34308	0.055803	0.10858	0.11175	0.11002	0.12006	-4.0521	-3.4125	-4.2812	-4.0917	-3.6333	-4.55	-3.675	-3.9188	-4.2833	-3.5771	-4.3562	-4.2354	-3.4604	-4.6188	-3.6083	-3.75	171.393	-3.907	103.320	65.843	-140.394	-100.244	110.136	-138.510	83.217	122.946	126.209	68.990	173.561	54.732	102.844	199.825	0.00060905	0.00050468	0.0001777	780.37	3.9952e-06	9.7697e-06	1216.4	239.69	4.3781e-06	3.8355e-06	430.59	130.07	66.98	21.328	1.1507e-05	50.244	0.00027425	0.00032111	7.9768e-05	710.44	3.0069e-06	3.488e-06	1107.4	218.8	3.0766e-06	3.4338e-06	386.3	116.83	62.677	20.224	3.0006e-06	45.156	159.862	-146.983	-54.305	-138.161	188.698	-29.602	-138.649	-133.706	-93.922	-45.579	-133.159	-129.027	-129.349	-122.607	-88.787	-122.299	-8191	255	
23908.289	1	1	0	0	0.11286	0.077373	0.12136	0.23552	0.23008	0.22152	0.05261	0.17877	0.052991	0.18198	0.3044	0.2107	0.092791	0.11631	0.22503	0.13405	-4.1479	-3.4771	-4.2063	-4.1542	-3.5687	-4.3604	-4.0625	-3.8604	-4.475	-3.575	-4.1417	-4.2833	-3.6146	-4.4021	-3.825	-3.6854	78.969	-21.407	192.794	130.676	-8.679	14.144	168.729	146.932	-4.063	-104.941	-57.009	206.673	147.880	-148.096	-117.958	108.757	0.00082621	0.00079593	0.00014176	771.34	3.7754e-06	7.9303e-06	1212.1	240.4	8.0981e-06	4.9707e-06	431.15	129.82	67.978	21.255	8.7546e-06	49.995	0.0002913	0.0003111	7.5493e-05	705.67	3.1853e-06	3.3263e-06	1099.1	217.79	3.2778e-06	3.2848e-06	385.44	116.42	63.172	20.033	2.9885e-06	45.026	145.564	-123.256	-83.177	-137.936	188.109	-7.319	-138.648	-133.555	198.066	126.428	-133.388	-128.839	-128.966	-122.646	-60.612	-122.397	-8191	255	
23908.385	1	1	0	0	0.096463	0.21849	0.10939	0.19641	0.16138	0.14767	0.17433	0.13563	0.018226	0.15743	0.23805	0.071613	0.053676	0.20819	0.04147	0.25066	-4.225	-3.4979	-4.1521	-4.3812	-3.4542	-4.2875	-4.1438	-3.6854	-4.5687	-3.7771	-4.1312	-4.4854	-3.3917	-4.3104	-4.1125	-3.8063	153.824	100.229	-46.813	-149.723	14.404	-141.086	154.291	172.116	-105.111	173.590	198.826	-135.237	106.156	-126.842	112.310	154.920	0.00046141	0.001096	7.4334e-05	775.43	4.8049e-06	6.3196e-06	1216.6	237.97	6.3218e-06	7.6086e-06	431.55	129.36	67.677	21.362	8.8901e-06	49.251	0.00032041	0.00030314	7.5777e-05	708.65	3.417e-06	3.244e-06	1104.1	217.84	3.5132e-06	3.1575e-06	386.09	117.06	63.484	20.059	2.9128e-06	45.111	169.615	-104.414	-111.607	-138.283	-151.220	-27.966	-138.073	-133.487	-45.904	-41.526	-133.113	-128.613	-128.876	-122.424	-51.741	-121.357	-8191	255	
23908.506	1	1	0	0	0.044887	0.051826	0.1873	0.16392	0.11502	0.24361	0.12668	0.095352	0.035667	0.13621	0.19709	0.083744	0.12539	0.089094	0.21569	0.097075	-4.2625	-3.7271	-3.9458	-4.4625	-3.5479	-4.3021	-4.275	-3.5917	-4.6312	-3.8396	-4.0292	-4.5167	-3.5958	-4.2271	-4.2	-3.5208	-48.977	50.240	4.773	128.408	38.330	-101.018	80.354	180.170	91.521	-42.485	196.779	157.430	128.949	-52.265	-48.071	0.180	0.00060976	0.00094897	0.00013206	783.71	6.5489e-06	1.2285e-06	1222	240.92	8.5203e-06	2.0216e-05	434.69	129.12	67.777	21.261	6.1591e-06	50.039	0.00033355	0.00028719	7.5494e-05	717.78	3.5893e-06	3.1188e-06	1110.8	220.96	3.5974e-06	3.1629e-06	388.59	118.22	63.654	20.1	2.9845e-06	45.656	150.010	-77.721	-121.576	-138.294	-42.764	69.627	-138.319	-133.158	-77.869	12.634	-133.615	-128.941	-128.756	-122.512	-78.098	-122.624	-8191	255	
23908.600	1	1	0	0	0.1702	0.16255	0.17784	0.0908	0.081989	0.072885	0.21809	0.067309	0.23005	0.22168	0.15723	0.22777	0.17269	0.27808	0.095419	0.16628	-4.3229	-3.7479	-3.6937	-4.6562	-3.5438	-4.2542	-4.4708	-3.5625	-4.4958	-3.9208	-3.9083	-4.6479	-3.6688	-3.9125	-4.4458	-3.7313	87.425	-83.136	-117.704	-138.801	89.018	-72.222	89.246	96.468	92.642	175.985	141.882	204.810	-135.281	-104.734	-45.672	-140.158	0.00052736	0.00040755	0.00014905	781.78	2.6429e-06	2.5187e-06	1213.2	238.56	1.0233e-06	1.9558e-06	429.83	130.33	67.48	21.164	6.1509e-06	49.601	0.00033222	0.00028881	7.5982e-05	719.75	3.5466e-06	3.1543e-06	1107.1	220.57	3.4896e-06	3.0958e-06	385.32	118.02	63.143	19.992	3.132e-06	45.627	158.822	-100.692	-146.040	-138.230	-31.345	-56.852	-138.163	-133.575	41.552	62.307	-133.736	-128.960	-128.941	-122.660	35.590	-123.030	-8191	255	
23908.695	1	1	0	0	0.23724	0.33097	0.09	0.065873	0.074553	0.17912	0.10291	0.02504	0.23333	0.057141	0.18508	0.17794	0.32762	0.090994	0.088345	0.044629	-3.9521	-4	-3.5563	-4.6312	-3.6333	-3.9458	-4.6125	-3.5396	-4.1604	-4.0104	-3.6292	-4.7125	-3.8104	-4.0125	-4.4854	-3.6146	-104.312	110.094	199.400	116.985	157.615	16.562	124.692	120.385	1.918	117.951	-106.824	-76.299	131.004	-13.506	-128.529	18.230	0.00036203	0.00038429	7.3251e-05	783.97	6.3044e-06	6.7732e-06	1229.3	239.76	9.0908e-06	1.6818e-06	430.32	129.15	67.575	21.234	1.3187e-05	49.732	0.00032764	0.00029497	8.3624e-05	727.1	3.498e-06	3.2787e-06	1117.8	222.29	3.4953e-06	3.2075e-06	387.08	118.31	63.141	19.905	3.4639e-06	45.591	180.043	-97.305	-74.713	-138.365	11.753	-43.317	-138.672	-133.359	-16.938	62.856	-133.816	-128.730	-129.181	-122.901	-132.887	-122.306	-8191	255	
23908.793	1	1	0	0	0.12395	0.18342	0.092438	0.19238	0.21886	0.28922	0.2707	0.15476	0.22046	0.11969	0.28908	0.14128	0.13858	0.12945	0.010671	0.28307	-3.9354	-4.1833	-3.3042	-4.5021	-3.6667	-3.7667	-4.7042	-3.6	-4.0813	-4.2792	-3.6271	-4.7917	-3.8792	-3.6937	-4.5938	-3.4313	17.302	22.793	172.878	185.928	98.238	43.954	149.657	121.870	-22.586	199.898	88.593	-112.902	122.983	-88.024	-53.034	178.737	0.00075227	9.238e-05	4.8997e-05	785.67	7.8524e-06	1.8035e-06	1230.8	239.75	5.1963e-06	6.1211e-06	432.17	130.25	67.796	21.295	8.0572e-06	50.14	0.00031446	0.00028791	9.0778e-05	725.38	3.3641e-06	3.2703e-06	1124.3	222.3	3.4663e-06	3.1826e-06	390.89	118.93	63.259	20.002	3.798e-06	45.799	169.503	-22.302	127.627	-138.080	-60.176	-18.942	-138.341	-133.246	168.077	-86.835	-133.562	-128.896	-129.119	-122.082	30.542	-122.498	-8191	255	
23908.889	1	1	0	0	0.098385	0.038533	0.1293	0.332	0.079936	0.05942	0.14234	0.26958	0.11292	0.16491	0.35572	0.084075	0.10617	0.17132	0.11862	0.17025	-3.8521	-4.1375	-3.3438	-4.325	-3.8292	-3.6792	-4.8229	-3.6104	-3.9875	-4.3688	-3.4708	-4.4083	-4.1521	-3.9604	-4.5021	-3.8042	156.570	190.674	-113.166	-128.192	61.231	-58.653	-144.376	-115.718	-71.672	48.531	-136.064	80.960	200.702	-4.400	-25.256	156.242	0.0006339	0.00034103	0.00020793	784.74	4.1871e-06	6.1381e-06	1226.9	240.06	2.2031e-06	5.5382e-06	431.09	129.5	67.748	21.047	9.0798e-06	49.847	0.00030969	0.00029198	9.6863e-05	726.02	3.3026e-06	3.257e-06	1126.7	222.23	3.3252e-06	3.2686e-06	392.05	118.34	63.068	19.991	3.9671e-06	45.593	148.463	-59.895	182.680	-138.414	6.234	-149.452	-138.369	-133.254	-113.985	-150.863	-133.698	-128.690	-129.000	-122.444	-23.992	-122.523	-8191	255	
23908.984	1	1	0	0	0.20506	0.13615	0.14323	0.054815	0.17469	0.14457	0.10963	0.21234	0.12699	0.13462	0.18145	0.2338	0.16723	0.12205	0.23991	0.17629	-3.7667	-4.3875	-3.6104	-4.1125	-4.1125	-3.6271	-4.6896	-3.7896	-3.9396	-4.3146	-3.7562	-4.2812	-4.1271	-3.5896	-4.5271	-3.8479	-42.834	115.657	-98.985	114.354	124.267	141.079	111.594	139.051	152.329	-100.601	146.067	129.920	188.831	94.178	31.448	128.481	0.00040723	0.00062251	0.00011554	785.93	6.8214e-07	4.9226e-06	1233.2	240.25	3.3841e-06	8.4875e-06	433.58	128.78	66.914	20.942	5.2798e-06	49.905	0.00030635	0.00031049	0.00010095	723.47	3.1672e-06	3.4554e-06	1126.4	221.04	3.2474e-06	3.4882e-06	390.98	117.17	62.492	20.017	3.8499e-06	45.347	146.072	-37.049	192.931	-138.455	75.466	123.936	-138.385	-133.125	-53.298	205.418	-133.399	-129.069	-129.194	-122.542	134.905	-122.703	-8191	255	
23909.105	1	1	0	0	0.064477	0.10609	0.34944	0.19392	0.14515	0.19937	0.058567	0.16872	0.087198	0.12403	0.09426	0.1187	0.24944	0.18748	0.17569	0.26538	-3.2771	-4.5396	-3.5	-4.2083	-4.2021	-3.2854	-4.7	-4.0521	-3.6396	-4.5167	-3.5854	-4.0208	-4.4042	-3.5187	-4.4646	-4.1792	172.002	-138.368	162.465	172.118	38.251	27.412	14.856	115.924	9.394	109.889	148.778	55.867	-66.605	-29.805	-145.844	-134.869	0.00049173	0.00042597	0.00011945	782.4	4.9839e-06	4.9278e-07	1220.2	241.76	7.0501e-07	3.0501e-06	428.08	129.31	66.651	20.928	2.3552e-06	49.644	0.00029176	0.00032572	9.4895e-05	719.66	3.0806e-06	3.6712e-06	1117.2	220.43	3.1948e-06	3.7586e-06	388.07	116.96	62.241	20.027	3.5489e-06	44.993	154.941	-74.691	-98.425	-138.094	138.274	-42.029	-138.344	-133.402	-22.215	-42.331	-133.472	-128.650	-129.035	-122.347	-143.705	-122.538	-8191	255	
23909.201	1	1	0	0	0.040178	0.11094	0.094584	0.16924	0.25286	0.19852	0.20534	0.12826	0.07263	0.0933	0.1461	0.25373	0.18528	0.11073	0.21451	0.25589	-3.3792	-4.6667	-3.5167	-3.9896	-4.2688	-3.4458	-4.6	-4.1146	-3.55	-4.5229	-3.7833	-3.8333	-4.325	-3.6146	-4.3271	-4.2958	132.202	-54.890	99.775	138.607	34.459	91.612	160.256	146.475	169.719	-84.108	-86.690	191.321	-99.744	-80.705	106.341	136.083	0.00061874	0.00026676	0.00043894	778.61	8.9033e-07	6.4979e-06	1219.3	239.24	4.694e-06	3.2663e-06	428.07	128.86	66.827	21.094	3.8451e-06	49.582	0.00028985	0.00034178	8.8845e-05	714.93	3.2243e-06	3.8555e-06	1115.5	219.1	3.3344e-06	3.8941e-06	386.91	116.42	62.447	20.116	3.3985e-06	44.855	168.882	-130.946	-92.217	-138.345	187.609	179.579	-138.257	-133.364	59.077	1.503	-133.400	-128.533	-129.063	-122.289	-7.893	-122.815	-8191	255	
23909.299	1	1	0	0	0.21512	0.054026	0.22353	0.1292	0.13183	0.052425	0.25545	0.1489	0.022448	0.13211	0.20519	0.17706	0.15441	0.050764	0.20097	0.073616	-3.2562	-4.5271	-3.8542	-3.9917	-4.525	-3.5354	-4.3396	-4.3875	-3.5979	-4.525	-4.0188	-3.8875	-4.5208	-3.6333	-4.075	-4.3167	100.825	164.422	65.186	-125.571	-52.131	108.831	162.071	88.674	4.577	67.633	176.632	-3.397	196.346	160.083	170.833	192.185	0.00057419	0.00091723	0.00044173	777.03	5.2769e-06	3.3727e-06	1210.8	238.3	3.9447e-06	1.2002e-05	426.47	128.57	66.695	21.139	3.0274e-06	49.047	0.00030629	0.00034819	8.331e-05	710.49	3.3082e-06	3.6397e-06	1102.2	217.54	3.3267e-06	3.4739e-06	382.9	115.64	62.477	19.876	3.0581e-06	44.558	153.819	-60.746	-94.855	-138.339	58.731	62.982	-138.376	-132.956	-91.066	82.280	-133.162	-129.226	-129.156	-122.670	-1.726	-122.515	-8191	255	
23909.369	1	1	0	0	0.24022	0.34413	0.12668	0.28925	0.17809	0.10899	0.038597	0.32419	0.19119	0.11641	0.10918	0.21909	0.14007	0.16054	0.21172	0.10437	-3.2625	-4.3271	-3.8146	-3.725	-4.5354	-3.4083	-4.2333	-4.2833	-3.3604	-4.4208	-4.1542	-3.8063	-4.5917	-3.5521	-4.0458	-4.5312	7.381	-113.481	-61.769	198.377	26.127	-10.191	152.796	-128.125	138.833	-148.358	130.078	44.459	-33.541	192.377	-54.134	107.945	0.00052349	0.00086111	9.2059e-05	771.77	5.9096e-06	8.3292e-06	1215.4	237.18	6.0886e-06	3.705e-06	430.84	127.83	66.582	20.872	8.2038e-06	49.457	0.0003142	0.00031353	7.7039e-05	706.25	3.4932e-06	3.3799e-06	1103.7	217.1	3.5959e-06	3.4123e-06	383.65	115.68	62.769	19.801	3.0065e-06	44.828	166.701	-69.242	-143.956	-138.360	-76.658	-63.363	-138.285	-133.266	-42.485	23.151	-133.271	-128.606	-128.698	-121.997	12.419	-122.613	-8191	255	
23909.467	1	1	0	0	0.11541	0.052511	0.19306	0.10875	0.263	0.043214	0.03119	0.21816	0.093795	0.068738	0.23783	0.033325	0.25301	0.30515	0.15366	0.12406	-3.1417	-4.4271	-4.1438	-3.6167	-4.4583	-3.7979	-4.05	-4.4417	-3.5104	-4.3208	-4.1708	-3.6583	-4.5604	-3.5938	-3.75	-4.5563	204.362	28.509	121.598	145.785	17.289	151.899	193.265	192.829	28.542	58.294	152.425	109.897	200.385	175.237	-41.895	-92.678	0.00076078	0.00051134	0.00014171	769.34	1.0049e-06	4.8288e-06	1215.1	238.74	5.1777e-06	2.4558e-06	429.62	128.78	66.745	21.021	7.3098e-06	49.792	0.00032978	0.00029403	7.4766e-05	706.46	3.5045e-06	3.0926e-06	1100.1	217.9	3.4658e-06	3.0719e-06	382.75	116.51	62.658	19.747	2.9028e-06	45.288	166.254	-114.953	-40.158	-138.151	137.873	-57.468	-138.174	-133.305	-11.132	-127.999	-133.056	-128.582	-128.905	-121.825	-6.305	-122.056	-8191	255	
23909.584	1	1	0	0	0.10112	0.19348	0.1219	0.068623	0.26075	0.18573	0.14496	0.14059	0.10892	0.11378	0.3304	0.098097	0.20764	0.10013	0.1105	0.25147	-3.1063	-4.1479	-4.2083	-3.5563	-4.3708	-3.7687	-3.8958	-4.4021	-3.5229	-4.2333	-4.2208	-3.4146	-4.5062	-4.0312	-3.5604	-4.5292	125.553	80.544	-69.359	205.056	-40.073	60.797	44.989	-118.527	41.643	18.578	187.222	188.746	-84.589	101.332	33.568	132.274	0.00056693	0.00057853	0.00026808	775.52	6.0182e-06	7.6931e-06	1212.1	238.15	2.2643e-06	3.0184e-06	427.45	129.87	66.727	21.204	1.5035e-06	50.541	0.00032533	0.00028346	7.3118e-05	712.85	3.4992e-06	3.0611e-06	1101.7	219.02	3.4308e-06	3.0289e-06	383.53	117.65	62.683	19.838	2.9195e-06	45.91	151.944	184.172	-114.979	-138.297	-41.261	-89.955	-138.310	-132.988	-48.416	-112.292	-133.090	-128.866	-128.739	-122.361	-69.811	-122.205	-8191	255	
23909.682	1	1	0	0	0.26055	0.24939	0.15339	0.15632	0.18043	0.25679	0.075276	0.17302	0.20632	0.010496	0.17055	0.22639	0.030995	0.024565	0.16896	0.21183	-3.4062	-3.9354	-4.3146	-3.6375	-4.2958	-3.9437	-3.6875	-4.7104	-3.6354	-4.0854	-4.4812	-3.6312	-4.3187	-4.1333	-3.4375	-4.575	170.333	7.840	171.676	162.671	-100.348	35.868	145.562	186.488	67.976	-8.210	184.405	177.412	43.696	1.418	57.302	202.966	0.00051668	0.00050237	0.00029099	767.73	5.1525e-06	5.5716e-06	1215.5	238.87	3.264e-06	4.0057e-06	430.05	129.44	67.626	21.128	5.807e-06	49.839	0.00030683	0.00027586	7.4241e-05	711.48	3.3352e-06	2.9975e-06	1104.9	220.23	3.2817e-06	3.0481e-06	386.15	118.04	62.689	19.829	3.1384e-06	45.824	181.420	53.797	-131.269	-138.183	-33.864	-54.426	-137.938	-132.953	-19.716	-60.047	-133.466	-128.781	-128.491	-122.156	5.233	-122.175	-8191	255	
23909.777	1	1	0	0	0.19664	0.10452	0.10825	0.30684	0.21327	0.39566	0.22452	0.19436	0.16693	0.35033	0.06393	0.13471	0.099948	0.086598	0.21191	0.21154	-3.3875	-4	-4.3354	-3.5854	-4.2792	-4.15	-3.6667	-4.6396	-3.6833	-3.8396	-4.6188	-3.6125	-4.2354	-4.2812	-3.3042	-4.5667	-94.627	-46.275	129.846	161.265	-108.091	120.915	184.731	30.815	166.546	-115.702	63.886	-109.015	42.987	117.403	100.301	-123.422	0.00047575	0.00040705	0.00011432	767.62	2.1496e-06	3.4673e-06	1213.3	239.11	4.353e-06	3.9909e-06	426.83	129.04	66.694	21.282	1.1194e-05	49.853	0.00029761	0.00026968	7.8652e-05	710.5	3.1413e-06	2.8858e-06	1102.6	219.51	3.0989e-06	2.9532e-06	385.62	117.33	62.132	19.734	3.3842e-06	45.367	177.531	-118.518	164.995	-138.233	-136.639	-88.381	-138.093	-133.006	15.064	-0.325	-133.124	-128.443	-128.563	-121.921	-94.207	-122.146	-8191	255	
23909.896	1	1	0	0	0.073307	0.20823	0.024138	0.12247	0.077339	0.26329	0.297	0.28552	0.12991	0.11154	0.059926	0.038807	0.086354	0.12225	0.24937	0.06653	-3.4229	-3.7208	-4.5833	-3.575	-4.0854	-4.4125	-3.7646	-4.6083	-3.8646	-3.7208	-4.6479	-3.8021	-3.9292	-4.2792	-3.3958	-4.4812	108.517	15.581	158.033	178.114	160.878	-79.964	195.100	39.551	-148.281	102.381	37.581	-85.774	-81.843	173.737	-116.046	127.035	0.0006961	0.0001862	0.00011201	763.1	8.8272e-07	7.4712e-06	1164.8	228.53	4.3077e-06	2.6954e-06	414.87	124.42	63.916	20.45	1.1987e-05	48.335	0.00028836	0.00026649	8.5416e-05	706.85	3.0205e-06	2.8019e-06	1090.2	216.41	2.9441e-06	2.8432e-06	382.35	116.02	61.366	19.627	3.5299e-06	45.126	173.233	167.682	196.179	-137.492	55.446	-5.600	-137.254	-132.252	-3.329	-109.898	-132.401	-127.547	-127.967	-121.112	108.588	-121.277	-8191	255	
23909.969	1	1	0	0	0.16688	0.058631	0.034125	0.34314	0.080268	0.15774	0.16084	0.25018	0.27057	0.10379	0.21128	0.082111	0.057512	0.20415	0.10607	0.13563	-3.7479	-3.5417	-4.5708	-3.7062	-3.9313	-4.4979	-3.7042	-4.4292	-4.1354	-3.5979	-4.6396	-3.7833	-3.7938	-4.4875	-3.5875	-4.2937	-149.555	164.543	-124.605	24.220	116.131	129.880	99.024	134.133	59.739	186.363	-16.610	-101.012	-4.777	153.360	117.292	-6.831	0.00049016	0.00016974	0.00014862	741.41	4.7879e-06	6.5822e-06	1172.4	232.35	2.9923e-06	6.397e-06	417.37	126.44	65.052	20.766	2.2504e-06	49.215	0.00027233	0.00027151	9.0162e-05	699.79	2.9491e-06	2.988e-06	1094.2	216.67	2.8857e-06	3.0864e-06	384.62	116.15	61.5	19.796	3.4813e-06	45.233	169.325	162.396	176.320	-137.643	-3.218	-76.736	-137.548	-132.271	-98.963	-113.971	-132.771	-127.759	-128.152	-121.385	101.826	-121.278	-8191	255	
23910.064	1	1	0	0	0.095287	0.073947	0.067589	0.084796	0.081297	0.28956	0.14464	0.24484	0.075276	0.068334	0.21041	0.16171	0.10243	0.24634	0.10027	0.25525	-3.8583	-3.5	-4.5458	-4.0021	-3.7917	-4.5125	-3.7375	-4.2625	-4.2125	-3.5542	-4.4458	-3.9313	-3.7812	-4.6229	-3.3792	-4.0771	-112.416	102.678	-105.654	101.113	166.723	87.957	-147.624	-146.583	73.732	168.437	-83.163	125.636	143.153	188.399	-117.789	156.736	0.00059756	0.00011776	0.00022698	739.32	2.8029e-06	8.8129e-06	1176.1	231.52	4.9416e-06	6.0623e-06	415.56	124.98	64.851	20.499	3.1457e-06	48.916	0.00026292	0.00028479	8.8211e-05	697.31	2.8686e-06	3.2055e-06	1094.1	215.84	2.7819e-06	3.3138e-06	383.48	115.62	61.212	19.867	3.2897e-06	44.94	169.838	-98.533	16.069	-137.061	45.218	-88.575	-137.364	-132.257	-42.174	38.727	-132.484	-127.843	-127.781	-121.263	-99.750	-121.328	-8191	255	
23910.186	1	1	0	0	0.12341	0.12169	0.26063	0.27307	0.18269	0.072093	0.092192	0.16514	0.083797	0.13422	0.13024	0.02731	0.091883	0.20986	0.23326	0.1119	-3.8812	-3.5187	-4.4062	-3.9688	-3.6125	-4.5208	-3.5896	-4.1896	-4.3833	-3.3271	-4.5813	-4.1562	-3.6875	-4.6312	-3.6354	-4.0813	8.641	-39.817	147.998	118.100	184.161	-30.184	-129.536	123.010	-134.699	45.489	208.672	-11.115	-142.865	151.518	-110.764	26.589	0.00050636	0.00074055	0.00013953	744.18	5.3197e-07	7.3715e-06	1164.6	232.65	3.1975e-06	4.0957e-06	417.82	125.44	65.213	20.678	1.4036e-05	48.767	0.00025687	0.00030669	8.1989e-05	693.47	2.8146e-06	3.3711e-06	1085.2	216.03	2.829e-06	3.4575e-06	381.46	115.25	61.364	19.952	3.1577e-06	44.92	164.496	-114.890	9.329	-137.274	2.913	-10.378	-137.257	-132.353	188.507	202.582	-132.584	-127.852	-128.266	-121.695	-70.510	-121.740	-8191	255	
23910.281	1	1	0	0	0.17725	0.075292	0.11647	0.26614	0.11873	0.083897	0.088806	0.11581	0.071657	0.22467	0.062986	0.11008	0.13277	0.26349	0.030424	0.23295	-4.15	-3.4917	-4.2708	-4.2083	-3.4062	-4.5917	-3.8812	-3.7854	-4.3146	-3.4813	-4.3688	-4.2729	-3.5229	-4.5104	-3.7958	-3.8937	167.498	132.655	41.178	127.734	112.325	-97.415	194.300	-141.660	-12.650	-120.228	-129.813	151.057	-88.012	-61.568	72.653	176.707	0.00057568	0.00064375	0.00021042	745.53	3.4763e-06	2.635e-06	1171.3	231.58	1.0896e-06	6.2373e-06	415.45	126.33	65.703	20.835	3.9492e-06	48.863	0.00027318	0.00031197	7.721e-05	693.44	2.9147e-06	3.3595e-06	1080.8	214.71	2.8959e-06	3.2979e-06	378.81	115.35	61.582	19.872	2.8705e-06	44.696	159.790	-21.448	-86.122	-137.397	-142.812	36.527	-137.402	-132.537	-38.683	39.558	-132.345	-127.541	-127.970	-121.451	-68.074	-121.790	-8191	255	
23910.379	1	1	0	0	0.027473	0.20581	0.031101	0.1962	0.18495	0.22628	0.064294	0.047466	0.16014	0.2315	0.066942	0.1277	0.22233	0.26157	0.10876	0.061461	-4.2812	-3.4813	-4.2021	-4.3688	-3.3458	-4.5042	-4.2083	-3.7896	-4.4208	-3.6	-4.1542	-4.5354	-3.4771	-4.375	-3.9625	-3.7417	128.603	-102.156	-29.437	191.860	145.928	-22.135	83.196	189.703	96.346	69.941	17.372	-146.962	-134.851	50.386	175.915	66.301	0.00064255	0.00067495	0.00013631	746.84	3.3904e-06	3.735e-06	1175.8	233.31	2.0178e-06	1.567e-06	418.15	126.09	66.178	20.77	2.3669e-06	50.238	0.0002818	0.00029736	7.4074e-05	691.95	3.1211e-06	3.2349e-06	1084.4	215.11	3.2041e-06	3.1778e-06	380.43	115.4	62.344	19.802	2.8567e-06	45.265	153.962	-85.057	-74.204	-137.140	-94.963	61.913	-137.316	-132.516	164.791	-100.490	-132.500	-127.605	-128.503	-121.291	139.246	-123.776	-8191	255	
23910.496	1	1	0	0	0.18508	0.08341	0.20382	0.25059	0.26149	0.086384	0.09243	0.19436	0.11763	0.2502	0.25252	0.22069	0.35166	0.080703	0.17606	0.11944	-4.225	-3.6958	-3.8417	-4.2875	-3.4104	-4.2021	-4.0771	-3.5729	-4.4542	-3.5833	-3.9125	-4.4812	-3.4938	-4.2667	-3.9875	-3.4562	74.399	-13.524	55.188	-114.150	-40.236	-67.378	-37.423	-70.849	-132.910	-90.615	153.464	194.953	197.700	184.906	70.106	-120.365	0.00044248	0.00067173	5.9667e-05	765.09	5.226e-06	6.1429e-06	1198.8	236.83	4.5048e-06	8.2058e-06	427.72	128.62	66.959	21.06	6.7333e-06	49.933	0.00031177	0.00028705	7.4044e-05	699.73	3.4382e-06	3.1271e-06	1089.4	216.87	3.3884e-06	3.0512e-06	382.2	116.38	62.528	19.867	2.7182e-06	45.154	162.569	-104.153	-49.079	-139.191	34.844	-39.906	-139.232	-134.405	-95.039	-21.740	-134.649	-129.549	-130.098	-123.947	56.444	-123.643	-8191	255	
23910.594	1	1	0	0	0.049777	0.060181	0.14559	0.086323	0.11204	0.10672	0.16456	0.098901	0.10785	0.059653	0.23236	0.22052	0.24801	0.12689	0.076212	0.1546	-4.3354	-3.6771	-3.9708	-4.5542	-3.5083	-4.2229	-4.3146	-3.5354	-4.4479	-3.7896	-3.9562	-4.5021	-3.6437	-4.1583	-4.1958	-3.6396	173.845	59.327	70.658	-121.510	162.862	-56.881	-126.500	85.955	-70.546	-110.169	-128.816	206.057	207.434	-114.277	86.407	111.288	0.00035726	0.00022951	0.00022807	762.82	3.6978e-06	8.8551e-06	1198.2	238.34	1.0385e-06	6.8942e-06	428.24	127.99	67.024	21.123	1.0798e-06	50.141	0.00031188	0.00026854	7.1129e-05	700.41	3.3224e-06	2.9589e-06	1088.5	217.4	3.3346e-06	2.9413e-06	382.22	116.61	62.364	19.817	2.7717e-06	45.408	166.716	-39.528	-144.433	-139.038	-44.088	-35.056	-139.286	-134.440	184.155	-20.805	-134.174	-129.570	-129.354	-123.246	-114.121	-123.449	-8191	255	
23910.664	1	1	0	0	0.11397	0.15454	0.10185	0.13134	0.070666	0.12412	0.27074	0.13365	0.14153	0.22973	0.33851	0.07252	0.12954	0.20649	0.12661	0.14167	-4.1083	-3.8729	-3.7583	-4.4729	-3.5354	-3.9188	-4.3646	-3.3583	-4.3583	-3.8729	-3.5875	-4.5729	-3.5187	-3.9229	-4.3396	-3.6146	-39.784	71.971	-89.813	156.161	113.823	-94.147	20.636	72.517	70.932	43.863	207.520	-79.838	192.479	173.980	62.160	135.609	0.00052174	0.00027415	7.5222e-05	761.52	3.5963e-06	2.1134e-06	1196.7	237.92	7.2192e-06	1.4523e-06	425.06	128.96	66.585	21.192	5.243e-06	50.132	0.0003054	0.00026342	7.0479e-05	701.37	3.1483e-06	2.8489e-06	1086.6	218.66	3.1517e-06	2.821e-06	380.88	117.44	62.108	19.78	2.8048e-06	45.683	158.856	-87.251	-128.761	-139.213	1.165	11.960	-139.276	-134.439	-14.693	-88.789	-134.159	-129.925	-129.927	-123.403	-123.668	-122.996	-8191	255	
23910.785	1	1	0	0	0.1083	0.074435	0.054739	0.06878	0.25134	0.14143	0.18382	0.23995	0.080965	0.12982	0.068061	0.067755	0.048439	0.022262	0.24305	0.36268	-3.875	-3.9146	-3.5875	-4.5021	-3.6021	-3.6583	-4.4271	-3.6104	-4.2979	-4.1708	-3.6917	-4.5271	-3.7458	-3.8937	-4.4333	-3.6167	91.565	101.128	-75.443	92.172	-102.480	205.653	179.290	192.510	38.196	-89.234	154.255	195.137	124.639	175.458	34.279	-129.104	0.00038242	0.00070353	0.00011521	763.65	5.0674e-07	4.1484e-06	1193	238.01	6.8265e-06	4.0793e-06	426.59	128.86	66.296	21.33	4.0984e-06	49.97	0.00028873	0.00025176	7.3496e-05	704.48	2.9897e-06	2.8031e-06	1089.5	218.6	3.0516e-06	2.7554e-06	383.36	117.54	61.94	19.85	3.1278e-06	45.807	161.059	-57.763	14.210	-139.128	-14.793	-37.653	-139.506	-134.288	7.807	63.561	-134.464	-129.807	-129.879	-123.617	90.129	-123.221	-8191	255	
23910.883	1	1	0	0	0.23565	0.27334	0.23696	0.21814	0.13518	0.43744	0.27776	0.1179	0.15298	0.12615	0.16882	0.033276	0.18912	0.26606	0.09416	0.17581	-3.9021	-4.1083	-3.3667	-4.4688	-3.8271	-3.5687	-4.5083	-3.5833	-4.0646	-4.2333	-3.5687	-4.4938	-3.8875	-3.7229	-4.5042	-3.4417	122.206	69.780	-39.851	161.163	22.764	158.765	120.153	72.580	-42.216	-89.511	130.639	165.092	-27.861	197.089	-96.792	170.547	0.00041252	0.00034134	0.00013264	762.27	5.9192e-06	2.8143e-06	1203	237.15	5.0987e-06	4.5091e-06	426.8	128.43	67.413	21.232	4.7709e-06	50.169	0.00028289	0.00025267	8.2331e-05	705.3	3.0004e-06	2.8403e-06	1097.8	218.57	3.0066e-06	2.8015e-06	384.47	117.3	61.993	19.877	3.4098e-06	45.632	174.981	-39.205	-84.875	-139.422	7.473	-32.260	-139.562	-134.522	-130.320	7.152	-134.233	-129.348	-129.292	-123.061	114.690	-123.407	-8191	255	
23910.979	1	1	0	0	0.059453	0.16998	0.26836	0.093334	0.09239	0.12469	0.28785	0.10826	0.045346	0.17997	0.20406	0.15362	0.21685	0.13756	0.17447	0.11331	-3.6479	-4.0708	-3.4292	-4.6312	-3.9979	-3.5667	-4.8146	-3.7125	-3.875	-4.4313	-3.5333	-4.2458	-4.2688	-3.6437	-4.6125	-3.6542	161.673	33.800	103.443	-72.125	47.383	192.315	177.587	158.549	-39.614	68.377	168.440	72.000	-107.386	126.430	-41.978	68.148	0.00060431	0.00018845	0.0001111	770.93	6.7721e-06	7.2574e-06	1204.5	238.88	1.0112e-05	6.2859e-06	425.25	128.69	66.841	21.338	4.6525e-06	50.035	0.00028067	0.00026352	8.8587e-05	707.46	3.0124e-06	2.9345e-06	1100.8	219.07	3.0687e-06	3.0488e-06	385.77	117.29	62.243	20.005	3.6825e-06	45.631	152.950	24.952	11.244	-138.992	-69.152	-91.044	-138.820	-134.210	-55.689	-97.784	-133.924	-129.472	-130.109	-122.981	38.642	-123.132	-8191	255	
23911.074	1	1	0	0	0.10815	0.17598	0.2262	0.083008	0.10945	0.096513	0.081521	0.13946	0.080709	0.24191	0.20276	0.16075	0.20517	0.10607	0.15001	0.049718	-3.7396	-4.275	-3.3875	-4.4167	-3.9167	-3.4979	-4.6979	-3.6354	-3.7417	-4.3354	-3.65	-4.0792	-4.0646	-3.5729	-4.4271	-3.9521	30.488	179.838	40.891	63.915	-105.998	-2.374	24.423	-115.583	-148.813	-133.488	68.758	-98.129	140.529	-97.459	59.825	-127.074	0.00039779	0.00068966	0.00010154	763	7.182e-07	4.6289e-06	1202.9	238.31	5.8168e-07	4.4794e-06	428.86	128.92	66.168	21.169	8.1671e-06	50.63	0.00027914	0.00028623	9.0706e-05	703.23	2.9177e-06	3.1973e-06	1101.4	218.81	2.9612e-06	3.1786e-06	386.63	116.9	61.725	20.104	3.4766e-06	45.689	135.596	-92.684	-55.077	-138.929	101.208	-82.542	-138.796	-134.363	90.016	-79.324	-134.123	-129.500	-129.809	-123.407	-83.087	-123.432	-8191	255	
23911.170	1	1	0	0	0.23287	0.25107	0.18998	0.21362	0.19139	0.074345	0.18315	0.28806	0.12569	0.083126	0.12821	0.083201	0.19607	0.11915	0.092797	0.16043	-3.4562	-4.4396	-3.5104	-4.325	-4.2333	-3.5229	-4.6042	-3.8563	-3.6479	-4.6708	-3.4583	-4.0938	-4.3562	-3.5896	-4.4646	-4.0479	207.580	145.116	168.586	207.166	-16.553	117.948	71.834	202.997	-129.021	189.712	-136.282	104.881	-130.532	31.879	13.233	117.183	0.00058467	0.00039339	4.0418e-05	765.64	1.5443e-06	6.2287e-06	1204.8	240.04	3.6874e-06	3.1683e-06	427.11	130.09	66.985	21.214	1.1271e-05	50.458	0.00026884	0.00030231	8.6672e-05	704.34	2.8518e-06	3.444e-06	1102.5	219.27	2.9315e-06	3.401e-06	386.13	117.5	61.955	20.194	3.323e-06	45.763	165.323	-20.903	24.024	-139.432	44.584	-96.746	-139.029	-134.142	-72.335	126.462	-134.182	-129.568	-129.716	-123.403	-18.143	-122.883	-8191	255	
23911.266	1	1	0	0	0.23953	0.050084	0.15548	0.066328	0.096776	0.1189	0.12163	0.12333	0.10291	0.13876	0.095013	0.3094	0.10513	0.20784	0.060617	0.1282	-3.2958	-4.5146	-3.5333	-3.9125	-4.2937	-3.4417	-4.4938	-4.1833	-3.5833	-4.4167	-3.7438	-3.8521	-4.4292	-3.4688	-4.1188	-4.3708	-129.567	-42.995	24.223	-30.894	-99.658	-145.499	150.786	31.068	198.847	161.697	193.991	154.363	-147.704	73.413	-10.098	48.610	0.00045962	0.00033969	0.00025157	766.5	3.0092e-06	1.2682e-05	1210.2	240.27	6.5343e-06	5.0522e-06	431.82	129.07	67.565	21.446	1.2883e-05	50.222	0.00027205	0.00031736	8.3354e-05	703.91	2.9816e-06	3.5788e-06	1101.4	219.52	3.1308e-06	3.5948e-06	386.57	117.17	62.689	20.255	3.2136e-06	45.486	183.816	-95.449	-78.771	-139.078	-22.943	-32.073	-138.844	-134.189	-76.043	49.736	-134.175	-129.484	-129.762	-123.464	-109.531	-122.761	-8191	255	
23911.361	1	1	0	0	0.20811	0.2469	0.085355	0.11038	0.16477	0.0089969	0.034106	0.019319	0.22155	0.2386	0.27953	0.065091	0.06338	0.10243	0.39874	0.21134	-3.1937	-4.4104	-3.7146	-3.8292	-4.3562	-3.4	-4.3896	-4.0563	-3.4708	-4.4437	-3.8083	-3.8937	-4.5083	-3.6229	-4.1021	-4.3167	-141.793	37.681	-19.392	191.345	-133.247	-38.269	118.093	161.881	-19.497	-115.223	98.379	146.082	187.948	-51.651	37.998	159.500	0.00042033	0.00033192	0.00010107	771.37	3.1398e-06	4.7995e-06	1207	239.41	4.1635e-06	2.3485e-06	427.01	129.58	67.322	21.135	8.1356e-06	49.869	0.00029559	0.00032022	7.945e-05	704.7	3.2161e-06	3.5462e-06	1100.4	218.9	3.3021e-06	3.5238e-06	384.23	116.55	62.966	20.044	3.0539e-06	45.155	173.162	-60.185	-115.925	-138.957	36.215	-2.622	-138.945	-134.042	100.327	-5.242	-133.995	-129.270	-129.761	-123.019	-91.023	-123.265	-8191	255	
23911.459	1	1	0	0	0.090998	0.17037	0.066404	0.31192	0.12813	0.16243	0.22186	0.19699	0.080775	0.15722	0.20899	0.13169	0.0036093	0.23457	0.22681	0.1655	-3.1479	-4.3146	-3.8875	-3.6896	-4.5	-3.6188	-4.2542	-4.3625	-3.5375	-4.3187	-3.9292	-3.6417	-4.5333	-3.5875	-3.8375	-4.5167	-93.610	118.298	31.708	151.047	61.182	194.377	177.956	203.184	-67.037	42.889	122.670	169.415	-69.845	-103.752	-29.574	162.246	0.00054166	0.0010693	0.00037429	770.34	4.0208e-06	4.8383e-06	1207.9	238.3	2.8676e-06	5.5882e-06	427.59	129.54	67.268	21.252	5.818e-06	50.124	0.0003139	0.00030643	7.6189e-05	701.73	3.3644e-06	3.2495e-06	1099.3	218.4	3.4687e-06	3.2776e-06	383.55	116.69	63.04	20.027	2.9556e-06	45.394	167.827	-37.603	-67.620	-139.190	-135.536	-44.103	-139.167	-133.752	-35.317	20.785	-134.242	-129.538	-129.593	-123.201	-61.740	-123.026	-8191	255	
23911.578	1	1	0	0	0.037047	0.13868	0.11949	0.12981	0.26513	0.22432	0.21782	0.29774	0.14858	0.096953	0.15866	0.23384	0.15023	0.0578	0.25067	0.31482	-3.1771	-4.0625	-4.0646	-3.725	-4.5167	-3.5646	-3.9313	-4.6583	-3.2062	-4.2396	-4.1875	-3.4813	-4.4896	-3.6875	-3.7417	-4.5625	-82.508	-11.892	-145.739	65.130	164.317	180.686	-144.507	-113.854	121.314	134.273	158.703	-134.022	-18.583	-57.068	125.578	-149.822	0.00065518	0.00040095	0.00013615	769.08	4.3724e-06	7.6789e-06	1209.5	240.41	4.4906e-06	3.7036e-06	430.55	129.06	67.27	21.365	6.8756e-06	50.486	0.00032423	0.00029128	7.4085e-05	705.32	3.5066e-06	3.1448e-06	1101.4	219.47	3.588e-06	3.2615e-06	386.51	117.6	63.293	20.05	2.9571e-06	45.969	164.585	-24.016	-30.406	-138.920	21.533	0.114	-138.841	-133.996	-44.963	-8.729	-134.008	-129.194	-129.648	-123.298	178.917	-123.147	-8191	255	
23911.674	1	1	0	0	0.141	0.050823	0.1262	0.072879	0.062591	0.02986	0.40686	0.047446	0.10759	0.26887	0.10491	0.21259	0.034012	0.016522	0.16914	0.039421	-3.4188	-4.1917	-4.2125	-3.5125	-4.4271	-3.8833	-4.0667	-4.3542	-3.3563	-4.1062	-4.3646	-3.5375	-4.4812	-3.7875	-3.4854	-4.5917	-122.070	-6.434	184.917	-100.451	-90.748	162.463	118.318	100.045	63.116	-129.900	-64.039	46.680	29.457	132.842	63.567	-126.365	0.00037331	0.00059797	0.00013415	764.14	4.9607e-06	3.1317e-06	1200.7	237.56	5.8129e-06	7.1482e-06	427.98	128.05	66.532	21.209	1.432e-05	49.908	0.00032026	0.00028595	7.1732e-05	704.25	3.3903e-06	3.0683e-06	1093.9	219.41	3.4222e-06	3.1292e-06	382.87	117.02	62.545	19.823	2.9839e-06	45.572	153.313	-125.551	-125.128	-138.760	-39.241	166.690	-138.899	-134.150	30.595	-47.686	-134.216	-129.700	-130.193	-123.059	-56.093	-123.442	-8191	255	
23911.770	1	1	0	0	0.044775	0.12448	0.11018	0.09701	0.1253	0.042793	0.07904	0.098212	0.2005	0.17941	0.24258	0.28496	0.065677	0.080557	0.23799	0.33528	-3.3229	-3.8708	-4.1875	-3.5854	-4.3354	-4.0021	-3.8063	-4.5729	-3.65	-3.8479	-4.6208	-3.5563	-4.275	-4.0521	-3.4875	-4.5687	-93.967	83.980	3.914	206.364	-42.662	180.364	157.313	143.197	143.364	37.498	99.141	85.473	166.557	-132.473	-37.194	151.751	0.00060009	0.00066636	0.00015066	763.1	5.5201e-06	3.2732e-06	1204.2	236.89	3.2736e-06	4.0756e-06	427.67	127.85	66.468	21.16	3.1599e-06	49.82	0.0003126	0.00027793	7.552e-05	705.03	3.2808e-06	2.9631e-06	1093.5	218.73	3.1885e-06	2.9448e-06	382.51	116.68	62.031	19.689	3.0539e-06	45.503	176.866	-48.167	-120.795	-138.654	-22.242	14.333	-138.979	-134.264	-4.908	-84.302	-134.229	-129.562	-129.488	-123.384	-46.003	-123.199	-8191	255	
23911.865	1	1	0	0	0.18931	0.20772	0.06972	0.25354	0.16378	0.16435	0.30132	0.15114	0.064265	0.062785	0.18138	0.10682	0.10145	0.16437	0.13849	0.24932	-3.45	-3.8958	-4.5021	-3.45	-4.3854	-4.0958	-3.7146	-4.4646	-3.6	-3.7646	-4.6646	-3.5333	-4.1417	-4.2521	-3.4042	-4.5542	-7.644	-0.744	57.247	-147.479	-128.663	-19.946	175.047	152.115	187.134	13.045	192.585	138.498	-81.480	37.433	-147.878	35.470	0.00055294	0.00024651	8.7698e-05	765.58	3.3818e-06	4.1696e-06	1201.7	238.54	4.9108e-06	7.7201e-06	426.64	128.79	66.86	20.992	1.1661e-05	49.429	0.00028693	0.00026474	7.8383e-05	705.5	3.1108e-06	2.8803e-06	1095.7	219.33	3.0506e-06	2.8666e-06	383.21	116.83	61.901	19.661	3.2894e-06	45.219	175.080	-47.871	70.884	-138.660	-52.071	-76.191	-139.057	-133.966	-26.123	15.762	-133.789	-129.241	-129.442	-122.895	201.557	-123.116	-8191	255	
23911.963	1	1	0	0	0.094642	0.067202	0.085449	0.15404	0.11004	0.013769	0.34675	0.20846	0.008345	0.20507	0.29549	0.13013	0.1443	0.086561	0.12	0.18537	-3.575	-3.7667	-4.5146	-3.8146	-3.975	-4.4958	-3.6188	-4.3583	-3.9	-3.475	-4.675	-3.6417	-3.9479	-4.3729	-3.4813	-4.4313	57.307	-101.775	-10.803	-100.529	84.667	-57.010	124.705	138.406	-110.535	116.884	135.516	-150.514	-103.602	-88.233	-54.791	142.149	0.00057006	0.00046891	0.0001808	767.14	4.2198e-06	7.4631e-06	1208.7	239.19	4.3692e-06	3.4284e-06	427.88	128.92	67.074	21.185	4.4107e-06	50.145	0.00028171	0.00025894	8.4804e-05	708.07	3.0363e-06	2.851e-06	1100.7	219.08	3.0382e-06	2.9456e-06	386.4	117.02	61.995	19.708	3.552e-06	45.534	159.650	-134.383	18.498	-138.870	46.553	161.980	-138.923	-133.730	-83.856	69.009	-134.103	-129.410	-129.972	-122.854	42.324	-122.735	-8191	255	
23912.059	1	1	0	0	0.042618	0.18404	0.071745	0.049459	0.11203	0.24765	0.20721	0.16879	0.15788	0.067018	0.015307	0.040684	0.0378	0.1363	0.060345	0.13389	-3.5417	-3.6708	-4.5542	-3.8708	-3.8708	-4.4563	-3.4875	-4.4396	-4.1021	-3.5833	-4.5333	-3.6583	-3.8604	-4.5708	-3.5563	-4.3771	69.299	-110.299	-118.199	83.293	146.960	185.241	133.221	161.233	148.421	129.687	60.947	174.382	-22.517	85.817	25.694	141.079	0.00022456	0.00070134	0.00021809	766.57	2.3922e-06	5.5836e-06	1199.1	237.66	4.9542e-07	4.4777e-06	427.19	128.26	66.266	21.094	7.0336e-06	49.421	0.00027643	0.00027821	8.9631e-05	705.83	2.9963e-06	3.0616e-06	1101	218.07	2.9648e-06	3.1266e-06	385.18	116.09	61.404	19.775	3.5097e-06	44.98	147.614	-15.888	-107.705	-138.878	-17.488	-77.258	-139.072	-134.234	-48.306	0.559	-134.118	-129.627	-129.221	-123.032	-70.593	-123.285	-8191	255	
23912.180	1	1	0	0	0.097522	0.14882	0.055284	0.35038	0.060976	0.15426	0.14351	0.2006	0.27724	0.16553	0.14318	0.047766	0.20745	0.014468	0.15836	0.23918	-3.8937	-3.3292	-4.5667	-3.7687	-3.7229	-4.3333	-3.7792	-4.1125	-4.1667	-3.4417	-4.5938	-3.9875	-3.7625	-4.4896	-3.5354	-4.2042	-14.491	160.865	202.337	163.203	203.567	-122.942	203.148	-70.933	59.459	28.779	178.449	-107.100	90.140	-61.233	-136.807	103.550	0.00050766	0.00021668	7.7014e-05	769.85	1.0222e-06	8.9659e-06	1205.6	238.25	4.5329e-06	2.9462e-06	424.15	127.72	66.265	20.99	1.7786e-05	49.787	0.00026665	0.00029183	8.7773e-05	704.71	2.8608e-06	3.1746e-06	1099.2	217.52	2.8753e-06	3.3511e-06	383.23	115.63	61.402	19.808	3.3982e-06	45.046	164.962	197.177	133.800	-138.773	-4.871	-80.973	-138.610	-133.702	-105.883	-145.044	-134.213	-129.316	-129.549	-122.909	-6.379	-123.200	-8191	255	
23912.275	1	1	0	0	0.26641	0.18024	0.02233	0.043673	0.10955	0.072137	0.28718	0.17818	0.13557	0.27776	0.12189	0.11078	0.27858	0.1334	0.099369	0.34469	-4.05	-3.4688	-4.5271	-3.7667	-3.6333	-4.7063	-3.6688	-4.0354	-4.4417	-3.3875	-4.3167	-4.0917	-3.6292	-4.6354	-3.5646	-3.9708	-133.635	-119.280	-133.199	104.274	-23.611	100.932	152.805	149.236	3.842	-38.368	59.432	22.905	-50.636	-3.414	-64.999	141.135	0.0005114	0.00023279	0.0003118	769.69	3.4552e-06	4.5969e-06	1210.6	235.98	3.0872e-06	1.1899e-05	425.27	127.39	66.332	20.974	8.0429e-06	49.96	0.00026842	0.00031658	8.4561e-05	704.48	2.9672e-06	3.4455e-06	1100.5	216.68	2.8889e-06	3.429e-06	382.07	115.27	61.657	19.888	3.0671e-06	45.062	164.381	159.330	6.774	-138.770	-49.804	-104.006	-139.111	-134.046	-106.940	14.092	-134.299	-129.483	-129.787	-123.008	-3.902	-123.326	-8191	255	
23912.371	1	1	0	0	0.045744	0.28577	0.15454	0.17232	0.22996	0.12238	0.34518	0.23434	0.087377	0.16585	0.040961	0.069335	0.15105	0.1382	0.10434	0.13202	-3.9688	-3.6083	-4.3417	-4.1354	-3.5958	-4.3979	-3.7729	-3.8625	-4.4271	-3.3	-4.3438	-4.2417	-3.4979	-4.4479	-3.6688	-3.7125	166.421	162.569	10.362	-74.717	-144.351	43.546	108.539	151.923	-87.258	-51.219	-69.362	162.715	-131.291	-68.183	-58.758	-28.024	0.0005445	0.00086772	0.00016531	766.68	7.2538e-06	3.1714e-06	1213.8	237.02	2.3867e-06	4.4745e-06	427.47	128.19	66.109	21.064	5.6869e-06	49.864	0.00027117	0.00031513	7.7227e-05	701.78	2.9841e-06	3.4096e-06	1099.2	216.52	3.0811e-06	3.4072e-06	383.38	115.73	61.664	19.933	3.0421e-06	45.314	160.531	-67.290	-101.448	-138.728	-63.667	-32.018	-139.234	-134.380	-38.207	114.450	-134.006	-129.439	-129.814	-122.765	14.294	-123.114	-8191	255	
23912.465	1	1	0	0	0.1326	0.14488	0.21399	0.18186	0.021547	0.062829	0.2583	0.16482	0.05042	0.14322	0.2865	0.35388	0.090876	0.29052	0.15095	0.081285	-4.2771	-3.5771	-4.1562	-4.2542	-3.3063	-4.6229	-3.9813	-3.85	-4.4833	-3.5458	-4.2604	-4.4917	-3.3833	-4.3771	-3.8875	-3.6021	143.836	1.994	-70.184	131.852	40.789	-104.643	100.849	-51.408	90.744	104.881	129.149	162.344	123.101	-143.596	195.761	100.800	0.00063952	0.00022775	0.00011606	770.44	9.5302e-07	6.6633e-06	1219.1	237.03	2.675e-06	4.489e-06	427.2	127.5	67.073	21.181	5.4795e-06	49.968	0.0002987	0.00030777	7.7225e-05	705.74	3.331e-06	3.4156e-06	1106.3	216.75	3.4244e-06	3.4152e-06	383.3	115.77	62.653	20.028	3.057e-06	45.285	162.666	-95.639	46.410	-138.972	207.462	-95.457	-138.885	-134.016	-50.181	27.422	-133.840	-129.277	-129.556	-122.827	42.119	-123.324	-8191	255	
23912.562	1	1	0	0	0.12924	0.1616	0.082697	0.047626	0.23476	0.19768	0.20734	0.26371	0.058542	0.11979	0.12245	0.071765	0.18696	0.049457	0.057485	0.12531	-4.1979	-3.5146	-3.8833	-4.3938	-3.5812	-4.3688	-4.2354	-3.6896	-4.525	-3.7167	-3.8417	-4.625	-3.5042	-4.3625	-4.125	-3.6021	99.679	89.685	81.916	108.959	11.378	-151.736	181.803	169.445	-105.359	103.101	138.306	126.539	-124.777	73.462	65.502	123.068	0.00064077	0.00036404	0.00020657	781.87	1.6072e-06	3.7033e-06	1211.3	236.17	5.8797e-06	6.6509e-06	426.83	127.92	65.903	21.175	7.8928e-06	50.216	0.00032443	0.00030716	7.7377e-05	712.75	3.5948e-06	3.3183e-06	1105.5	216.71	3.5961e-06	3.2235e-06	382.06	115.93	62.301	19.876	2.8841e-06	45.508	162.405	-65.888	-56.310	-138.927	205.610	-36.822	-138.977	-134.137	-126.522	-106.888	-134.310	-129.303	-129.602	-123.173	-63.068	-123.419	-8191	255	
#DATA ENDS
