BOXY.EXE: ISS Imagent and Oximeter Data Acquisition Program Version 0.80
Ascii Record File

#ACQ INFORMATION
2  Detector Channels 
16  External MUX Channels 
1  Auxiliary Channels 
5000  Waveform (CCF) Frequency (Hz)
1  Waveforms Skipped 
30  Waveforms Averaged 
1  Cycles Averaged 
16  Acquisitions per Waveform 
10.0806  Updata Rate (Hz) 

#FILE INFORMATION
TRUE -- External MUX Channel results are PARSED.
FALSE -- AC DC and Phase are NOT grouped.
TRUE -- Companion Program Settings File CREATED.
FALSE -- AC data not excluded
FALSE -- DC data not excluded
FALSE -- Phase data not excluded
FALSE -- Auxillary Chn. data not excluded
Tab delimiters

#CALIBRATION STATE
TRUE -- Waveform Calibration Values APPLIED.


#AUX CALIBRATION VALUES
Val Type	aux-1	

Term	1.0000e+00	
Factor	0.0000e+00	


#WF CALIBRATION VALUES
A = Detector Channel
Val Type	A-AC1	A-AC2	A-AC3	A-AC4	A-AC5	A-AC6	A-AC7	A-AC8	A-AC9	A-AC10	A-AC11	A-AC12	A-AC13	A-AC14	A-AC15	A-AC16	A-DC1	A-DC2	A-DC3	A-DC4	A-DC5	A-DC6	A-DC7	A-DC8	A-DC9	A-DC10	A-DC11	A-DC12	A-DC13	A-DC14	A-DC15	A-DC16	A-Ph1	A-Ph2	A-Ph3	A-Ph4	A-Ph5	A-Ph6	A-Ph7	A-Ph8	A-Ph9	A-Ph10	A-Ph11	A-Ph12	A-Ph13	A-Ph14	A-Ph15	A-Ph16	

Term	0.00000e+00	0.00000e+00	0.00000e+00	0.00000e+00	0.00000e+00	0.00000e+00	0.00000e+00	0.00000e+00	0.00000e+00	0.00000e+00	0.00000e+00	0.00000e+00	0.00000e+00	0.00000e+00	0.00000e+00	0.00000e+00	0.00000e+00	0.00000e+00	0.00000e+00	0.00000e+00	0.00000e+00	0.00000e+00	0.00000e+00	0.00000e+00	0.00000e+00	0.00000e+00	0.00000e+00	0.00000e+00	0.00000e+00	0.00000e+00	0.00000e+00	0.00000e+00	0.00000e+00	0.00000e+00	0.00000e+00	0.00000e+00	0.00000e+00	0.00000e+00	0.00000e+00	0.00000e+00	0.00000e+00	0.00000e+00	0.00000e+00	0.00000e+00	0.00000e+00	0.00000e+00	0.00000e+00	0.00000e+00	
Factor	1.00000e+00	1.00000e+00	1.00000e+00	1.00000e+00	1.00000e+00	1.00000e+00	1.00000e+00	1.00000e+00	1.00000e+00	1.00000e+00	1.00000e+00	1.00000e+00	1.00000e+00	1.00000e+00	1.00000e+00	1.00000e+00	1.00000e+00	1.00000e+00	1.00000e+00	1.00000e+00	1.00000e+00	1.00000e+00	1.00000e+00	1.00000e+00	1.00000e+00	1.00000e+00	1.00000e+00	1.00000e+00	1.00000e+00	1.00000e+00	1.00000e+00	1.00000e+00	X	X	X	X	X	X	X	X	X	X	X	X	X	X	X	X	

B = Detector Channel
Val Type	B-AC1	B-AC2	B-AC3	B-AC4	B-AC5	B-AC6	B-AC7	B-AC8	B-AC9	B-AC10	B-AC11	B-AC12	B-AC13	B-AC14	B-AC15	B-AC16	B-DC1	B-DC2	B-DC3	B-DC4	B-DC5	B-DC6	B-DC7	B-DC8	B-DC9	B-DC10	B-DC11	B-DC12	B-DC13	B-DC14	B-DC15	B-DC16	B-Ph1	B-Ph2	B-Ph3	B-Ph4	B-Ph5	B-Ph6	B-Ph7	B-Ph8	B-Ph9	B-Ph10	B-Ph11	B-Ph12	B-Ph13	B-Ph14	B-Ph15	B-Ph16	

Term	0.00000e+00	0.00000e+00	0.00000e+00	0.00000e+00	0.00000e+00	0.00000e+00	0.00000e+00	0.00000e+00	0.00000e+00	0.00000e+00	0.00000e+00	0.00000e+00	0.00000e+00	0.00000e+00	0.00000e+00	0.00000e+00	0.00000e+00	0.00000e+00	0.00000e+00	0.00000e+00	0.00000e+00	0.00000e+00	0.00000e+00	0.00000e+00	0.00000e+00	0.00000e+00	0.00000e+00	0.00000e+00	0.00000e+00	0.00000e+00	0.00000e+00	0.00000e+00	-1.54582e+01	-1.31826e+02	-1.18987e+02	-1.83770e+02	-1.30688e+02	-8.11710e+01	-1.58254e+02	-1.62015e+02	4.03488e+00	-7.49322e+01	-1.70683e+02	-1.70651e+02	-1.78365e+02	-1.76938e+02	-7.39507e+01	-1.49895e+02	
Factor	3.55145e-05	9.56148e-05	2.78179e-05	1.65747e-01	1.12877e-06	1.04670e-06	1.79515e-01	5.89105e-02	1.19376e-06	1.16421e-06	9.76336e-02	3.40614e-02	3.16364e-02	1.08962e-02	1.16736e-06	1.55437e-02	9.88457e-07	1.01235e-06	2.82120e-07	8.20202e-02	1.10315e-08	1.10754e-08	8.33426e-02	2.89522e-02	1.10356e-08	1.10748e-08	4.58140e-02	1.59180e-02	1.53075e-02	5.26684e-03	1.10529e-08	7.23307e-03	X	X	X	X	X	X	X	X	X	X	X	X	X	X	X	X	



#DISTANCE SETTINGS
A = Detector Channel
A-1	A-2	A-3	A-4	A-5	A-6	A-7	A-8	A-9	A-10	A-11	A-12	A-13	A-14	A-15	A-16	

2.5000e+00	3.0000e+00	2.5000e+00	3.0000e+00	2.0000e+00	3.0000e+00	1.5000e+00	3.0000e+00	3.0000e+00	3.0000e+00	3.0000e+00	3.0000e+00	3.0000e+00	3.0000e+00	1.5000e+00	3.0000e+00	

B = Detector Channel
B-1	B-2	B-3	B-4	B-5	B-6	B-7	B-8	B-9	B-10	B-11	B-12	B-13	B-14	B-15	B-16	

1.0000e+01	1.0000e+01	1.0000e+01	1.4400e+00	1.0000e+01	1.0000e+01	1.5100e+00	1.9400e+00	1.0000e+01	1.0000e+01	1.9900e+00	2.4900e+00	2.4100e+00	2.9000e+00	1.0000e+01	2.9800e+00	




#DATA BEGINS
time	group	step	mark	flag	A-AC1	A-AC2	A-AC3	A-AC4	A-AC5	A-AC6	A-AC7	A-AC8	A-AC9	A-AC10	A-AC11	A-AC12	A-AC13	A-AC14	A-AC15	A-AC16	A-DC1	A-DC2	A-DC3	A-DC4	A-DC5	A-DC6	A-DC7	A-DC8	A-DC9	A-DC10	A-DC11	A-DC12	A-DC13	A-DC14	A-DC15	A-DC16	A-Ph1	A-Ph2	A-Ph3	A-Ph4	A-Ph5	A-Ph6	A-Ph7	A-Ph8	A-Ph9	A-Ph10	A-Ph11	A-Ph12	A-Ph13	A-Ph14	A-Ph15	A-Ph16	B-AC1	B-AC2	B-AC3	B-AC4	B-AC5	B-AC6	B-AC7	B-AC8	B-AC9	B-AC10	B-AC11	B-AC12	B-AC13	B-AC14	B-AC15	B-AC16	B-DC1	B-DC2	B-DC3	B-DC4	B-DC5	B-DC6	B-DC7	B-DC8	B-DC9	B-DC10	B-DC11	B-DC12	B-DC13	B-DC14	B-DC15	B-DC16	B-Ph1	B-Ph2	B-Ph3	B-Ph4	B-Ph5	B-Ph6	B-Ph7	B-Ph8	B-Ph9	B-Ph10	B-Ph11	B-Ph12	B-Ph13	B-Ph14	B-Ph15	B-Ph16	aux-1	digaux	

17091.873	1	1	0	768	0.28093	0.2036	0.093924	0.21662	0.031314	0.1929	0.23295	0.28666	0.23323	0.020897	0.089993	0.26812	0.12735	0.12267	0.073438	0.30823	-2.6396	-2.6021	-2.5875	-2.8521	-2.2792	-2.9562	-2.8688	-2.7125	-3.0375	-2.8375	-2.85	-3.0938	-2.4979	-3.1937	-2.7458	-2.7	142.962	141.613	75.408	351.218	236.826	377.726	377.841	360.606	161.215	377.185	371.977	349.854	43.447	350.165	64.440	350.045	0.0014591	0.00049573	0.00012709	1350.1	5.6192e-06	2.7647e-06	1535.3	480.42	4.3841e-06	6.3987e-06	667.6	262.4	175.8	75.91	7.9808e-06	122.79	9.2701e-05	7.0854e-05	1.9533e-05	1170.6	7.6304e-07	7.9441e-07	1326.9	415.66	8.0843e-07	8.2743e-07	565.67	222.64	147.98	64.978	8.2137e-07	103.64	264.054	116.241	142.135	56.294	120.508	191.727	55.391	61.266	262.875	142.483	59.951	64.765	66.345	70.761	202.029	68.190	-8191	255	
17091.971	1	1	0	0	0.17853	0.034877	0.23542	0.31139	0.23122	0.17331	0.087871	0.21703	0.14956	0.20793	0.17169	0.12003	0.19473	0.13198	0.1909	0.15011	-2.6271	-2.6792	-2.6729	-3.0187	-2.4729	-2.9125	-2.8854	-2.4688	-3.0167	-2.5833	-2.7396	-3.1354	-2.5333	-2.8729	-2.8312	-2.6437	361.122	261.017	123.104	322.993	222.268	159.640	358.787	376.207	137.980	176.156	390.818	54.041	74.944	347.013	90.290	69.396	0.0014489	0.00031908	0.00014546	1302.2	3.9863e-06	3.3016e-06	1507.6	472.3	6.6444e-06	7.954e-06	651.32	257.42	172.91	74.892	3.2954e-06	120.87	0.00010751	8.1452e-05	2.1902e-05	1137.7	9.018e-07	8.6284e-07	1298.5	407.24	9.4387e-07	9.1328e-07	553.93	218.27	145.81	63.872	9.1172e-07	101.8	270.116	134.251	140.908	56.336	127.218	166.345	55.653	61.196	249.285	192.876	59.765	64.586	66.361	70.712	197.361	68.206	-8191	255	
17092.066	1	1	0	0	0.12391	0.18516	0.17374	0.12016	0.071908	0.081696	0.28616	0.020771	0.053997	0.083312	0.23408	0.24004	0.085865	0.06886	0.017794	0.15366	-2.575	-2.6958	-2.4208	-3.175	-2.4125	-2.7479	-3.0438	-2.3146	-2.7792	-2.5833	-2.6854	-3.0083	-2.6375	-2.7375	-2.7771	-2.55	202.871	370.000	260.161	70.116	317.724	48.018	359.339	159.578	191.293	399.468	286.080	382.335	370.550	271.688	79.794	178.469	0.0011615	0.00075672	0.00012824	1295.9	9.501e-06	4.6938e-06	1494	464.25	8.0994e-06	3.8023e-06	644.55	250.98	168.14	71.657	7.5527e-06	115.96	0.00011868	9.1762e-05	2.408e-05	1133.2	1.1231e-06	1.0782e-06	1292.9	402.63	1.1913e-06	1.1018e-06	548.27	214.2	142.81	61.615	1.1504e-06	97.802	262.762	153.870	128.873	56.156	133.123	199.228	55.650	61.472	263.424	188.823	59.904	64.901	66.726	70.991	177.446	68.614	-8191	255	
17092.162	1	1	0	0	0.137	0.1623	0.3713	0.25994	0.10452	0.090369	0.16025	0.18854	0.20767	0.13035	0.29734	0.40473	0.42535	0.18291	0.11859	0.11649	-2.5563	-2.6792	-2.5042	-3.0812	-2.4646	-2.5979	-3.0896	-2.65	-2.8937	-2.7375	-2.7042	-3.0563	-2.6042	-2.6729	-2.9854	-2.5333	229.607	300.430	282.836	399.443	306.183	345.817	344.039	331.031	128.703	53.615	371.346	332.848	375.633	395.804	326.300	267.267	0.001131	0.00058788	0.00017802	1300.8	9.3956e-06	4.4944e-06	1483.2	460.44	4.0184e-06	5.4525e-06	626.9	241.54	161.71	67.236	9.5216e-06	108.79	0.00014915	0.00012579	3.2903e-05	1138.3	1.6307e-06	1.5629e-06	1290.6	399.76	1.7557e-06	1.6758e-06	537.61	205.51	137.75	57.913	1.6656e-06	92.485	269.478	135.289	132.920	56.218	110.225	207.764	55.579	61.371	262.764	162.391	60.036	65.181	66.684	71.552	219.491	68.869	-8191	255	
17092.258	1	1	0	0	0.067514	0.064879	0.012937	0.15181	0.13115	0.25153	0.1279	0.34522	0.20376	0.16316	0.071918	0.19768	0.2868	0.20857	0.32104	0.17781	-2.3854	-2.6521	-2.1396	-3.1208	-2.5708	-2.55	-3.2229	-2.6354	-2.7812	-2.8958	-2.325	-3.3208	-2.7604	-2.6375	-3.0687	-2.5021	279.207	82.114	344.124	261.753	289.806	168.433	250.983	317.538	184.090	243.176	58.451	357.676	285.335	49.418	72.188	55.096	0.0010685	0.00034539	0.00013358	1316.7	7.1844e-06	5.3716e-06	1473.5	459.89	7.3484e-06	6.2927e-07	625.47	235.78	160.89	65.825	4.9926e-06	106.39	0.00019583	0.00016011	4.3283e-05	1148.7	1.7197e-06	1.5316e-06	1277.4	398.72	1.4799e-06	1.3438e-06	531.89	200.78	136.16	56.369	1.2247e-06	90.215	267.425	190.167	155.115	56.241	137.807	170.154	56.104	61.280	248.429	178.021	59.931	65.079	67.041	71.275	214.408	68.577	-8191	255	
17092.355	1	1	0	0	0.13929	0.21047	0.071922	0.21054	0.11397	0.20539	0.17948	0.38634	0.024438	0.15535	0.14948	0.038035	0.050993	0.26408	0.17934	0.22645	-2.1917	-2.6979	-2.4188	-2.9896	-2.6875	-2.4646	-3.1625	-2.5458	-2.5938	-3.0104	-2.3896	-2.9583	-2.5875	-2.5646	-3.0167	-2.7354	227.619	239.613	147.232	394.320	159.098	169.132	270.281	357.371	252.053	134.525	59.901	163.180	257.796	378.526	309.237	340.035	0.0011339	0.00062936	0.00015399	1325.4	4.4805e-06	6.8893e-06	1481.7	472.42	5.722e-06	9.8403e-06	643.2	245.05	169.96	69.411	7.7127e-06	112.95	0.00012684	9.015e-05	2.5112e-05	1152.3	9.3961e-07	8.2657e-07	1284.3	407.35	8.8069e-07	7.5595e-07	545.85	208.39	142.63	59.305	8.2744e-07	95.196	269.231	129.958	147.711	55.944	117.515	194.422	55.548	61.228	310.900	203.160	59.846	64.873	66.369	71.174	163.370	68.720	-8191	255	
17092.475	1	1	0	0	0.065425	0.22359	0.09227	0.17257	0.074173	0.15488	0.20866	0.24634	0.16846	0.30299	0.029535	0.34543	0.16482	0.060644	0.16382	0.24734	-2.2104	-2.8646	-2.4938	-3.0646	-2.7458	-2.3083	-3.3063	-2.7125	-2.6063	-2.9396	-2.4875	-3.0417	-3.0208	-2.4417	-2.8604	-2.6479	341.075	370.666	52.722	360.344	44.323	221.880	346.500	400.560	392.799	293.580	58.145	372.069	75.924	124.434	223.429	386.976	0.0012547	0.00034598	0.00013386	1362.5	6.4011e-06	5.7745e-06	1523	491.21	5.834e-06	4.8818e-06	665.22	258.31	175.54	73.076	3.9297e-06	119.18	9.7835e-05	6.5392e-05	2.1121e-05	1181.8	8.0507e-07	7.157e-07	1318.1	422.87	7.5707e-07	6.8313e-07	566.2	218.56	148.35	62.224	7.72e-07	100.43	267.504	110.566	145.736	56.354	115.562	180.616	55.909	61.171	291.590	211.081	59.735	64.885	66.438	71.177	189.891	68.325	-8191	255	
17092.570	1	1	0	0	0.080307	0.18259	0.062579	0.063567	0.18643	0.082365	0.16571	0.25642	0.17234	0.12454	0.13953	0.34693	0.1952	0.27958	0.14554	0.264	-2.4062	-3.0187	-2.5563	-2.8896	-2.8125	-2.4437	-3.0646	-2.8125	-2.5479	-2.9375	-2.5625	-2.825	-3.1042	-2.3625	-2.8625	-2.95	298.113	181.387	381.118	392.338	282.078	97.003	339.004	314.615	110.145	289.796	372.097	329.974	373.820	75.483	325.352	385.476	0.0012901	0.00059355	0.0001728	1398.3	7.4493e-06	6.1988e-06	1572.5	507.27	5.6646e-06	9.0985e-06	696.69	268.17	181.66	75.46	7.4377e-06	122.01	9.1173e-05	6.1034e-05	1.9024e-05	1209.2	6.9413e-07	6.6005e-07	1358.3	437.56	6.7163e-07	6.596e-07	590.34	227.35	153.72	64.431	7.0704e-07	103.29	264.268	109.927	141.423	56.313	120.074	187.074	55.801	61.305	273.403	170.933	59.869	64.765	66.204	71.108	172.246	68.686	-8191	255	
17092.668	1	1	0	0	0.1891	0.014745	0.19736	0.19291	0.054826	0.22412	0.14403	0.26314	0.13156	0.056875	0.23856	0.24645	0.052745	0.14526	0.15945	0.10155	-2.0021	-2.9646	-2.4708	-2.7104	-3.0479	-2.3417	-3	-2.8375	-2.3729	-3.0563	-2.4292	-2.6813	-2.9062	-2.4104	-2.8396	-2.8542	266.485	158.464	171.054	372.722	46.124	292.945	378.176	55.444	90.445	86.430	368.181	394.003	290.826	168.084	255.355	367.935	0.0013323	0.00056112	0.00017361	1404.9	5.0187e-06	5.3033e-06	1564.7	511.33	5.7596e-06	7.2374e-06	689.32	266.88	184.18	75.145	7.7762e-06	121.37	8.2159e-05	5.6207e-05	1.7239e-05	1219.9	6.0241e-07	6.4198e-07	1353	441.13	5.7663e-07	6.3376e-07	585.41	225.95	154.65	64.135	6.4127e-07	102.24	269.855	134.214	140.704	56.206	106.471	163.516	55.892	61.274	286.847	189.412	59.858	64.699	66.372	70.880	186.363	68.781	-8191	255	
17092.764	1	1	0	0	0.1687	0.18082	0.093213	0.34044	0.050835	0.13544	0.3621	0.20671	0.23621	0.047063	0.16714	0.32214	0.173	0.38955	0.032727	0.21924	-1.8208	-2.8812	-2.3375	-2.8667	-2.8833	-2.3625	-2.9833	-3.025	-2.3812	-3.0438	-2.6604	-2.6875	-3.0833	-2.5583	-2.7292	-2.9562	310.546	286.082	220.910	381.999	182.868	383.579	326.190	44.652	157.277	103.771	284.326	359.221	371.990	380.294	124.695	378.258	0.001343	0.00055982	0.00014401	1407.9	7.6008e-06	6.7294e-06	1558.3	517.7	7.1053e-06	8.3729e-06	700.13	272.94	189.45	77.374	8.0784e-06	124.85	7.9651e-05	5.8196e-05	1.6336e-05	1220.7	5.6686e-07	6.2532e-07	1349.4	446.86	5.7983e-07	6.2766e-07	594.52	230.85	159.07	66.086	6.007e-07	105.59	268.643	103.261	138.445	56.112	137.930	183.318	55.650	61.449	270.887	184.769	59.586	64.792	66.269	70.947	182.568	68.293	-8191	255	
17092.857	1	1	0	0	0.28243	0.16883	0.14327	0.39026	0.20115	0.24569	0.31059	0.51552	0.08671	0.12639	0.058021	0.25677	0.15178	0.07751	0.040274	0.1958	-1.8958	-2.8625	-2.4292	-2.6271	-2.7979	-2.6104	-2.8063	-2.8688	-2.4854	-2.9104	-2.8688	-2.6375	-3.0729	-2.4813	-2.5542	-3.1562	51.415	295.764	189.648	377.649	384.667	108.012	53.167	359.256	250.625	375.867	358.048	342.406	359.878	219.416	230.252	364.982	0.001343	0.0004305	0.00018877	1427.8	8.2872e-06	6.1566e-06	1577.6	525.7	6.7521e-06	6.2598e-06	707.78	275.97	190.76	78.065	5.3775e-06	124.93	7.8521e-05	5.6922e-05	1.4854e-05	1236.9	5.7957e-07	6.0045e-07	1369.4	454.12	5.7925e-07	5.8103e-07	600.78	233.2	160.42	66.429	5.6284e-07	105.34	266.759	130.776	127.822	56.449	119.320	180.774	55.726	61.148	273.675	191.574	59.874	64.634	65.958	70.831	210.859	68.259	-8191	255	
17092.953	1	1	0	0	0.14266	0.10005	0.35865	0.17054	0.17527	0.051853	0.19887	0.2082	0.03684	0.10591	0.13225	0.14732	0.19742	0.12904	0.17472	0.19257	-2.0208	-2.7792	-2.6688	-2.5083	-3.0125	-2.4229	-2.6667	-3.2167	-2.2417	-2.8083	-3.1167	-2.5146	-3.1	-2.6271	-2.6917	-3.1125	96.586	77.006	86.402	64.903	396.260	313.954	334.234	65.106	220.723	89.811	181.180	155.907	375.871	131.681	151.033	310.679	0.0013509	0.00049615	0.00018261	1440.8	6.2859e-06	3.6794e-06	1580.9	523.59	6.1701e-06	7.4625e-06	696.18	265.58	186.74	74.529	7.5118e-06	118.75	7.9647e-05	5.468e-05	1.3953e-05	1246.7	5.6587e-07	5.5536e-07	1364.6	452.52	5.8328e-07	5.3076e-07	588.5	225.49	156.59	63.598	5.3436e-07	99.98	269.654	122.876	147.695	56.184	135.124	210.626	55.706	61.064	269.766	168.707	59.859	64.433	66.226	70.696	155.931	68.400	-8191	255	
17093.051	1	1	0	0	0.13692	0.24941	0.34775	0.2931	0.050986	0.33227	0.26382	0.1779	0.18023	0.1619	0.28182	0.1865	0.081955	0.2319	0.27517	0.061104	-2.0729	-2.7417	-2.7167	-2.55	-3.1208	-2.6	-2.5729	-3.0104	-2.3083	-2.8542	-2.9792	-2.5771	-2.9521	-2.775	-2.4083	-3.1396	178.870	224.729	299.858	330.505	159.783	202.170	341.345	328.458	318.879	195.335	386.946	49.044	322.561	331.524	145.737	295.426	0.0013014	0.00040113	0.00016499	1423.9	5.3013e-06	5.9464e-06	1527.2	517.19	8.7921e-06	7.5361e-06	671.36	253.66	179.77	72.509	4.8752e-06	114.39	7.6677e-05	4.6733e-05	1.2129e-05	1233.3	5.6422e-07	4.798e-07	1321.9	445.38	5.5116e-07	4.9756e-07	569.37	214.6	151.38	61.471	4.7776e-07	96.708	267.137	159.462	150.663	56.156	136.709	181.526	55.804	61.204	260.003	175.777	59.995	64.492	66.108	70.805	179.992	68.266	-8191	255	
17093.172	1	1	0	0	0.34542	0.094436	0.14778	0.33538	0.27476	0.0742	0.23413	0.23413	0.033799	0.025417	0.20713	0.35497	0.20812	0.18124	0.44459	0.30213	-2.0021	-2.5438	-2.7792	-2.45	-2.8333	-2.7479	-2.5042	-2.9354	-2.4292	-2.6271	-3.0792	-2.425	-2.9083	-2.8042	-2.4417	-3.2021	188.943	397.675	261.805	382.806	236.718	163.910	344.495	64.168	271.095	314.066	61.765	310.504	402.553	339.606	129.042	356.644	0.0012591	0.00045389	0.00018811	1417.7	7.8144e-06	4.5589e-06	1530.9	516.51	7.6719e-06	6.2122e-06	681.86	258.73	182.32	74.258	7.6768e-06	117.89	7.2979e-05	4.5216e-05	1.1634e-05	1227.8	5.2728e-07	4.7193e-07	1321.3	445.95	5.553e-07	4.8404e-07	577.86	219.27	154.17	62.946	5.1313e-07	99.422	267.319	110.985	120.580	56.183	126.749	171.576	55.383	61.325	272.344	165.618	59.990	64.432	66.036	70.688	185.678	68.154	-8191	255	
17093.268	1	1	0	0	0.20276	0.15415	0.22183	0.12739	0.049267	0.15515	0.31695	0.17578	0.26962	0.25141	0.15319	0.12183	0.40427	0.088261	0.08643	0.17158	-1.9688	-2.6167	-2.9313	-2.3646	-2.9021	-2.9188	-2.5042	-3.2104	-2.55	-2.5771	-3.1521	-2.6312	-2.9146	-3.0583	-2.5896	-3.2229	63.338	300.352	390.601	282.920	328.640	357.791	328.893	47.095	258.460	256.462	338.123	360.397	373.240	61.858	118.197	354.394	0.0012637	0.00051229	0.00018141	1418.7	5.5396e-06	1.5319e-06	1542.9	522.03	6.6414e-06	5.411e-06	690.72	263.81	184.98	74.275	8.0939e-06	118.81	7.7209e-05	4.7494e-05	1.2647e-05	1231.6	5.7447e-07	5.0243e-07	1331	449.49	5.7951e-07	5.2206e-07	585.07	223.5	155.96	63.351	5.2589e-07	100.38	265.473	135.543	147.741	56.208	106.717	179.170	55.438	61.133	266.949	186.540	59.865	64.474	66.129	70.528	214.449	68.194	-8191	255	
17093.363	1	1	0	0	0.14912	0.21242	0.08591	0.17472	0.19647	0.13968	0.29007	0.089183	0.1067	0.15156	0.1557	0.13291	0.34174	0.23349	0.25753	0.18874	-2.2125	-2.5375	-3.0917	-2.6896	-2.7083	-2.9333	-2.3125	-2.9521	-2.6479	-2.6	-3.1292	-2.6104	-2.7646	-3.0271	-2.1979	-3.2771	396.267	395.296	308.044	400.269	133.646	286.118	312.733	96.072	333.404	267.178	274.541	103.855	366.714	346.008	193.075	372.623	0.0013324	0.00056456	0.00016587	1427.2	7.7979e-06	3.5055e-06	1540.3	521.34	5.0699e-06	2.0567e-06	682.17	258.45	182.55	72.118	7.5023e-06	113.55	7.4841e-05	4.6684e-05	1.3225e-05	1240.6	5.6212e-07	4.8868e-07	1332.2	449.32	5.3734e-07	4.642e-07	579.15	218.74	153.22	61.335	5.0353e-07	95.776	270.454	124.885	155.568	56.241	130.403	165.921	55.485	61.138	276.207	189.294	59.743	64.549	66.168	70.703	190.563	68.154	-8191	255	
17093.436	1	1	0	0	0.30506	0.20292	0.21046	0.29962	0.098923	0.25997	0.28196	0.19305	0.223	0.071142	0.15534	0.26724	0.21214	0.29448	0.35887	0.25781	-2.3667	-2.2208	-3.0771	-2.7729	-2.5667	-3.0563	-2.5167	-2.9417	-2.7812	-2.5875	-3.1229	-2.6729	-2.8312	-3.3104	-2.5417	-2.9562	306.023	157.848	290.038	356.733	255.393	74.290	367.575	348.228	346.172	302.352	376.272	366.179	329.835	312.904	178.587	365.537	0.0012032	0.00050073	0.000131	1411.2	5.4679e-06	5.7705e-06	1491.7	512.91	5.3707e-06	4.0479e-06	654.4	246.37	177.26	68.516	8.7448e-06	108.62	7.0353e-05	4.2232e-05	1.2735e-05	1224	4.9993e-07	4.3614e-07	1292.3	439.59	4.8973e-07	4.4486e-07	555.43	208.99	148.79	58.451	5.2467e-07	91.311	263.913	133.526	137.877	56.168	143.674	188.062	55.378	60.798	279.039	162.711	59.496	64.375	66.031	70.777	183.721	68.324	-8191	255	
17093.557	1	1	0	0	0.14647	0.092234	0.05943	0.12696	0.11381	0.11222	0.080847	0.16885	0.15358	0.0552	0.16973	0.1685	0.10029	0.28864	0.0437	0.22006	-2.3979	-2.4458	-2.9917	-2.5583	-2.6146	-2.9688	-2.6708	-3.0146	-2.8604	-2.4042	-3.225	-2.6917	-2.5583	-3.1688	-2.5521	-3.0479	81.908	103.761	355.501	235.328	351.133	393.912	387.477	378.492	319.331	362.813	140.536	354.657	218.279	338.571	286.179	75.983	0.0012372	0.00048461	0.00013638	1397.2	5.0608e-06	7.5527e-06	1465.9	505.17	7.4135e-06	5.641e-06	653.96	246.52	177.1	69.353	3.332e-06	109.66	6.5094e-05	4.0975e-05	1.2725e-05	1212.3	4.7447e-07	4.4809e-07	1272.7	435.66	4.8412e-07	4.4045e-07	553.81	208.54	148.71	58.956	5.1184e-07	92.576	263.051	144.523	138.309	56.317	144.168	168.924	55.737	61.288	267.292	181.648	59.769	64.458	66.317	70.665	197.264	68.391	-8191	255	
17093.650	1	1	0	0	0.11685	0.22403	0.21623	0.36698	0.11323	0.12926	0.19835	0.37956	0.22711	0.17115	0.11286	0.37106	0.19988	0.22625	0.30404	0.1797	-2.5521	-2.2438	-2.8958	-2.8583	-2.4583	-3.0333	-2.725	-2.6625	-2.9021	-2.1375	-3.0354	-2.8021	-2.4646	-3.1125	-2.6	-2.8771	237.417	353.718	374.077	314.844	159.152	123.235	360.108	329.947	269.589	350.431	303.838	386.557	332.055	339.460	305.149	395.632	0.0012146	0.00050532	9.244e-05	1409.1	3.7298e-06	6.2177e-06	1501.6	513.25	6.8582e-06	7.5901e-06	663.5	250.43	179.71	70.565	4.0581e-06	112.05	6.5634e-05	4.3441e-05	1.2487e-05	1222.9	4.7778e-07	4.8007e-07	1294.3	442.95	4.6669e-07	4.8941e-07	564.65	212.36	151.31	60.036	5.3779e-07	94.593	266.234	116.259	122.115	56.525	126.794	162.207	55.927	60.902	271.306	185.417	59.796	64.634	66.289	70.706	177.317	68.124	-8191	255	
17093.748	1	1	0	0	0.19851	0.42092	0.12819	0.18521	0.34207	0.15461	0.11526	0.29402	0.0030164	0.18116	0.23621	0.17119	0.38898	0.18018	0.050513	0.14241	-2.4604	-2.1188	-2.8083	-2.8563	-2.475	-3.2271	-2.6562	-2.6271	-3.0208	-2.4021	-3.0667	-3	-2.5229	-3.125	-2.5896	-2.7167	197.736	361.003	160.722	61.663	311.216	398.338	322.152	373.295	266.024	183.921	102.301	288.294	364.482	368.834	169.993	50.411	0.0011481	0.00068216	0.00015958	1421.6	5.0306e-06	7.4236e-06	1504.5	516.9	6.0899e-06	6.2601e-06	663.26	252.57	180.59	70.336	6.5009e-06	110.67	6.647e-05	4.6416e-05	1.242e-05	1233	4.7799e-07	4.9184e-07	1300.7	444.01	4.8028e-07	5.0243e-07	563.87	213.54	151.38	59.915	5.1364e-07	93.711	267.751	135.502	132.610	56.434	139.900	177.719	55.695	61.120	290.322	210.706	59.341	64.638	66.248	70.693	190.005	68.230	-8191	255	
17093.867	1	1	0	0	0.11221	0.23359	0.12313	0.14161	0.18156	0.055316	0.10359	0.017179	0.15227	0.063519	0.20337	0.2052	0.19884	0.14072	0.23632	0.22851	-2.6688	-2.3521	-2.9125	-3.0146	-2.4	-3.2042	-2.8542	-2.5396	-3.0917	-2.6333	-2.8229	-3.0625	-2.5646	-3.1417	-2.6833	-2.6042	362.569	273.272	83.017	77.549	279.645	308.956	213.154	379.504	329.979	302.213	349.278	260.412	358.241	112.624	222.018	315.455	0.0012531	0.00043052	9.2239e-05	1406.6	7.5632e-06	4.9441e-06	1482.9	512.43	7.9802e-06	5.0312e-06	659.06	251.11	179.98	70.012	4.3536e-06	111.17	6.941e-05	4.7956e-05	1.2432e-05	1219.1	4.9619e-07	5.1844e-07	1286.6	439.87	4.8731e-07	4.9387e-07	559.04	212.38	150.81	59.661	4.986e-07	93.861	268.708	151.054	144.576	56.724	149.602	189.140	55.580	60.868	272.423	195.058	59.694	64.631	66.129	70.500	195.454	68.180	-8191	255	
17093.963	1	1	0	0	0.22013	0.051851	0.14751	0.077899	0.053296	0.053856	0.29386	0.3127	0.085699	0.2294	0.23623	0.28158	0.1672	0.27669	0.35955	0.28669	-2.7208	-2.4958	-2.5604	-3.0229	-2.3042	-2.8854	-2.8396	-2.5583	-3.0187	-2.4479	-2.9208	-3.0604	-2.5042	-2.8417	-2.9062	-2.6583	329.611	227.992	125.929	65.978	142.262	274.945	295.968	368.774	66.922	139.814	51.883	373.868	362.434	390.038	237.990	345.383	0.0013081	0.00049811	0.00011651	1405.3	6.9422e-06	6.0949e-06	1487.1	513.3	5.7012e-06	3.6213e-06	658.42	253.07	180.81	70.903	6.2928e-06	113.03	7.2435e-05	4.8095e-05	1.2258e-05	1218	5.1055e-07	5.0474e-07	1289.2	441.26	5.258e-07	4.9684e-07	561.53	214.31	151.75	60.362	4.7398e-07	94.792	266.697	129.206	175.647	56.535	127.371	172.927	55.956	60.957	268.892	187.106	59.662	64.607	66.213	70.761	196.114	67.816	-8191	255	
17094.035	1	1	0	0	0.14255	0.18484	0.18119	0.3481	0.11889	0.079678	0.13144	0.27359	0.2438	0.14338	0.40571	0.086125	0.29853	0.053135	0.099629	0.55095	-2.5729	-2.4042	-2.4688	-3.1521	-2.4125	-2.8646	-3.1354	-2.5438	-3.0417	-2.4771	-2.7562	-3.1583	-2.3958	-2.8312	-3.0563	-2.2125	225.633	61.409	224.725	361.675	120.614	298.012	378.758	358.932	53.010	378.791	303.254	195.777	346.502	276.879	269.945	361.346	0.0011674	0.00051466	0.000175	1414.8	4.7637e-06	7.4261e-06	1501	514.93	7.5469e-06	4.9804e-06	669.8	254.42	181.71	70.633	6.2556e-06	113.04	6.9608e-05	4.4257e-05	1.2253e-05	1226.3	5.5229e-07	5.1607e-07	1298.6	443.14	5.5895e-07	4.943e-07	566.41	215.77	152.65	60.61	4.8197e-07	95.298	266.189	138.012	141.012	56.243	140.558	182.594	56.055	61.151	252.730	219.728	59.586	64.781	66.233	70.471	190.890	68.094	-8191	255	
17094.154	1	1	0	0	0.24453	0.14713	0.089263	0.23557	0.082967	0.043828	0.083663	0.36233	0.11172	0.15537	0.28753	0.1728	0.32915	0.19691	0.13614	0.37674	-2.6646	-2.3521	-2.3958	-3.1979	-2.3438	-2.7521	-2.9604	-2.5917	-2.8708	-2.8104	-2.5104	-3.1688	-2.4354	-2.6521	-2.9229	-2.4562	175.109	399.443	150.946	389.626	227.467	188.242	127.478	364.005	377.188	85.285	368.486	362.142	363.672	394.403	245.101	393.024	0.0012189	0.00086931	0.00011882	1421.9	6.869e-06	3.5781e-06	1496.9	510.57	8.3423e-06	5.1556e-06	657.96	249.87	177.74	68.845	3.8278e-06	109.26	7.261e-05	4.5043e-05	1.1719e-05	1228.9	5.4581e-07	4.9648e-07	1292.9	440.69	5.4684e-07	4.8609e-07	557.57	210.96	149.41	58.724	4.5522e-07	91.698	268.587	141.898	122.134	56.477	116.039	184.860	56.104	61.182	284.087	184.293	59.608	64.595	66.142	70.518	163.038	68.223	-8191	255	
17094.252	1	1	0	0	0.13173	0.23153	0.14367	0.25834	0.23298	0.086107	0.07304	0.31737	0.12049	0.43053	0.057265	0.24528	0.2302	0.20742	0.096411	0.12374	-2.3542	-2.6229	-2.4021	-3.15	-2.6354	-2.8479	-3.1354	-2.3	-2.675	-2.7583	-2.3875	-3.25	-2.75	-2.5375	-2.8563	-2.6708	325.194	78.247	289.486	359.383	324.944	150.602	52.849	372.791	72.628	57.327	292.680	371.208	343.314	362.744	348.652	396.524	0.001217	0.00047365	9.9189e-05	1393.6	6.1268e-06	5.0299e-06	1449.6	503.36	5.8077e-06	3.9982e-06	641.91	243.46	174.65	67.942	7.1454e-06	106.65	6.9581e-05	4.3266e-05	1.1069e-05	1207.9	5.1584e-07	4.6291e-07	1257.8	432.38	5.1718e-07	4.4417e-07	543.96	205.99	146.86	57.688	4.8455e-07	89.907	262.098	148.232	119.137	56.222	139.455	170.417	55.716	61.375	264.061	156.722	59.786	64.670	66.104	70.754	184.908	68.252	-8191	255	
17094.348	1	1	0	0	0.10393	0.26363	0.14987	0.14241	0.035659	0.13826	0.26756	0.068323	0.261	0.29523	0.15658	0.15019	0.22357	0.16185	0.15447	0.077193	-2.3646	-2.75	-2.3583	-3.1333	-2.5958	-2.4208	-3.0375	-2.4625	-2.5542	-2.7792	-2.5792	-3.1521	-2.7458	-2.5292	-3.0667	-2.4271	80.469	241.485	385.922	67.528	82.178	69.190	329.119	178.220	166.295	226.453	78.497	50.803	44.640	51.193	393.997	51.594	0.0011983	0.00051862	9.6186e-05	1391.4	5.4909e-06	5.229e-06	1458.8	503.36	4.7382e-06	6.1449e-06	650.85	246.24	175.95	68.729	8.225e-06	108.19	6.787e-05	4.1412e-05	1.163e-05	1205	4.9246e-07	4.4537e-07	1259.1	434.05	5.2173e-07	4.3568e-07	548.96	208.26	148.62	58.419	4.9054e-07	91.327	271.584	142.161	135.876	56.349	138.689	191.960	56.024	61.186	243.501	180.244	59.368	64.590	66.317	70.562	194.552	68.296	-8191	255	
17094.469	1	1	0	0	0.24935	0.059432	0.065248	0.26021	0.13426	0.38839	0.28605	0.14978	0.27428	0.2606	0.24048	0.29469	0.12488	0.054875	0.17429	0.20624	-2.3604	-2.8729	-2.3896	-2.9854	-2.5292	-2.35	-3.2438	-2.7458	-2.4417	-2.9771	-2.4271	-2.8333	-2.8854	-2.4708	-2.8896	-2.5812	97.340	84.331	129.690	44.301	56.822	50.554	307.777	354.748	147.729	67.456	394.478	375.551	73.858	66.448	370.265	53.968	0.0011914	0.0002815	0.00019253	1393.1	8.4951e-06	5.8768e-06	1457.4	502.93	3.2056e-06	5.6554e-06	647.96	247.05	176.9	68.494	6.3013e-06	108.89	6.9326e-05	4.1213e-05	1.2738e-05	1204.2	4.8778e-07	4.4733e-07	1262.3	434.09	5.1182e-07	4.3236e-07	550.18	209.06	148.63	58.3	5.1688e-07	91.553	269.076	94.513	144.227	56.454	172.278	173.045	56.081	61.106	288.706	174.844	59.620	64.537	66.097	70.718	194.573	68.387	-8191	255	
17094.564	1	1	0	0	0.019584	0.094793	0.22018	0.24031	0.27563	0.27232	0.34124	0.2686	0.15722	0.13063	0.15342	0.33997	0.24215	0.29507	0.09533	0.30577	-2.1292	-2.8604	-2.3729	-3.0042	-2.9229	-2.3771	-2.9292	-2.6458	-2.4188	-3.0021	-2.4896	-2.9104	-2.8792	-2.575	-2.9104	-2.7917	283.846	357.099	403.024	386.209	170.156	396.170	310.543	56.747	168.772	306.909	287.398	336.626	99.434	371.235	71.916	291.426	0.0010334	0.00064824	0.0001175	1389.6	4.9793e-06	5.0051e-06	1468.9	500.36	6.9857e-06	4.7853e-06	641.14	241.78	173.73	67.252	6.0293e-06	106.09	6.6367e-05	4.2051e-05	1.3125e-05	1207	4.7635e-07	4.5031e-07	1264	431.85	4.8007e-07	4.4703e-07	542.59	204.83	146.11	57.016	5.1216e-07	89.173	268.480	116.656	153.031	56.472	111.967	188.220	55.873	61.147	280.336	160.026	59.684	64.637	66.011	70.692	186.684	68.339	-8191	255	
17094.658	1	1	0	0	0.097958	0.10589	0.05261	0.09459	0.15496	0.12339	0.35957	0.32661	0.26922	0.10805	0.16888	0.27447	0.21082	0.24101	0.069785	0.17038	-2.1562	-3.0292	-2.3604	-2.8021	-2.8771	-2.4313	-3.1896	-2.7875	-2.5896	-3.0458	-2.4188	-2.9292	-3.2229	-2.5708	-3.0167	-2.7771	389.772	255.876	330.107	319.401	222.735	223.124	360.556	325.218	135.833	173.309	107.402	384.111	381.452	353.362	169.668	344.635	0.0011339	0.00046793	9.5944e-05	1369.7	5.9139e-06	7.9405e-06	1433.3	493.24	8.2501e-06	6.4851e-06	634.57	239.48	171.6	66.513	5.053e-06	106.07	6.4754e-05	4.2595e-05	1.2722e-05	1190.4	4.6103e-07	4.8508e-07	1240.6	426.19	4.823e-07	4.7326e-07	537	202.47	144.78	56.622	4.9853e-07	88.844	267.614	128.673	133.591	56.401	166.500	182.121	55.998	61.213	281.019	191.577	59.865	64.747	66.318	70.825	187.334	68.494	-8191	255	
17094.732	1	1	0	0	0.13954	0.18598	0.09209	0.1754	0.12162	0.15508	0.06861	0.23533	0.06219	0.35599	0.23612	0.41656	0.10054	0.20418	0.078066	0.24038	-1.9479	-2.8771	-2.5333	-2.6437	-3.0104	-2.4688	-2.9833	-2.8187	-2.3271	-3.1375	-2.6333	-2.6375	-3.0583	-2.4729	-2.7083	-2.7542	98.342	46.179	204.267	329.507	80.374	101.327	47.683	301.934	248.109	212.079	352.468	384.925	245.750	338.610	148.737	363.267	0.0011161	0.00052031	0.00010712	1382.3	7.5542e-06	5.3898e-06	1453.8	498.73	7.5625e-06	4.3551e-06	646.19	244.8	175.09	67.904	7.5264e-06	108.52	6.5734e-05	4.6193e-05	1.237e-05	1196.8	4.4795e-07	5.0714e-07	1256.3	429.76	4.8729e-07	4.9497e-07	546.34	207.1	147.07	58.02	5.0537e-07	91.298	264.912	145.032	163.937	56.419	133.582	186.174	55.901	61.112	262.798	214.423	59.608	64.682	66.182	70.557	176.959	68.462	-8191	255	
17094.852	1	1	0	0	0.2488	0.13165	0.14082	0.3456	0.2459	0.16532	0.2372	0.25299	0.14524	0.021328	0.12709	0.10487	0.077463	0.20745	0.11008	0.19263	-2.0354	-2.8583	-2.425	-2.5375	-2.9437	-2.4292	-3.0125	-3.0042	-2.3604	-3.0208	-2.625	-2.6646	-3	-2.4708	-2.6833	-3.0583	290.131	307.635	296.973	343.896	170.090	292.018	340.309	334.937	312.780	181.144	385.682	227.452	381.963	53.723	124.291	259.689	0.0011853	0.00050501	0.00013985	1392	6.1793e-06	7.0796e-06	1476.1	509.46	8.915e-06	2.9023e-06	655.13	249.48	178.55	69.682	6.3157e-06	110.05	6.8508e-05	4.7553e-05	1.2709e-05	1209	4.9394e-07	5.2613e-07	1275.3	437.8	5.1902e-07	5.12e-07	556.54	211.24	150.4	59.216	5.213e-07	92.774	264.844	121.791	152.662	56.241	145.262	166.776	55.646	61.046	287.837	156.875	59.944	64.547	66.238	70.477	193.074	68.318	-8191	255	
17094.947	1	1	0	0	0.23947	0.12779	0.099971	0.16188	0.25812	0.33555	0.19819	0.11516	0.15596	0.15079	0.081758	0.38333	0.18683	0.34082	0.097035	0.26059	-2	-2.6937	-2.6479	-2.5917	-3.0438	-2.5312	-2.9542	-3.0979	-2.2208	-2.8729	-2.8333	-2.6125	-3.0708	-2.5646	-2.4833	-3.2792	169.608	113.584	225.216	95.732	55.385	390.469	368.890	298.835	104.721	86.698	401.580	343.714	388.464	396.913	315.714	48.111	0.001286	0.00054755	9.5125e-05	1396.1	7.9245e-06	3.1942e-06	1476.1	508.94	4.406e-06	7.2653e-06	649.12	245.29	175.2	68.388	8.7197e-06	107.69	7.2594e-05	4.7517e-05	1.2088e-05	1212.9	5.268e-07	4.9989e-07	1273.2	437.01	5.3385e-07	4.9394e-07	550.15	207.58	147.94	58.083	4.7345e-07	90.569	268.600	136.302	130.399	56.393	130.678	192.939	55.712	61.372	270.859	177.580	59.684	64.693	65.987	70.561	195.264	68.348	-8191	255	
17095.043	1	1	0	0	0.25879	0.12996	0.015434	0.34636	0.16108	0.09953	0.28946	0.10668	0.23306	0.1823	0.38598	0.24244	0.37798	0.16047	0.043017	0.19084	-1.9229	-2.7896	-2.8354	-2.5646	-3.0021	-2.6521	-2.6	-2.9604	-2.2729	-2.7562	-2.8104	-2.4813	-3.1083	-2.6542	-2.4104	-3.0896	272.962	349.462	48.092	341.841	341.414	395.681	345.395	388.594	83.568	300.965	283.363	370.502	356.256	396.599	70.751	336.545	0.0012068	0.00034065	0.00010277	1381.6	6.5357e-06	5.0959e-06	1456.3	500.6	6.2721e-06	6.2257e-06	637.74	243.7	174.68	67.761	6.9285e-06	107.26	6.9569e-05	4.4139e-05	1.0929e-05	1202	5.1253e-07	4.6904e-07	1254.8	432.15	5.435e-07	4.6235e-07	542.1	205.8	146.7	57.709	4.4479e-07	90.234	268.046	115.417	133.716	56.507	149.901	179.311	55.338	61.377	284.534	183.368	60.144	64.566	66.087	70.844	201.462	68.559	-8191	255	
17095.139	1	1	0	0	0.28406	0.28274	0.19799	0.32112	0.20691	0.20273	0.4102	0.15823	0.22897	0.27093	0.34459	0.023751	0.17083	0.23586	0.08769	0.15454	-1.975	-2.6729	-2.675	-2.5271	-2.8375	-2.5021	-2.5792	-3.1854	-2.6021	-2.7583	-2.9896	-2.4021	-2.9521	-2.7896	-2.3979	-2.975	252.474	135.989	263.271	358.812	347.044	199.735	358.693	54.671	178.046	105.094	370.033	327.545	86.531	306.058	72.461	381.709	0.0012078	0.00042404	0.00017802	1387	6.6846e-06	3.7715e-06	1467.7	506.06	7.0604e-06	5.3228e-06	651.84	247.9	177.15	69.24	5.2818e-06	109.81	7.0992e-05	4.2641e-05	1.089e-05	1203.3	5.1552e-07	4.609e-07	1264.7	435.76	5.0184e-07	4.6715e-07	551.62	209.28	148.98	58.785	4.428e-07	92.522	266.272	124.834	154.194	56.374	130.269	154.514	55.615	61.183	293.325	183.740	60.018	64.722	66.139	70.852	203.914	68.450	-8191	255	
17095.260	1	1	0	0	0.11633	0.028145	0.060234	0.13431	0.048108	0.032586	0.46147	0.10759	0.20083	0.016339	0.2302	0.18371	0.31943	0.24418	0.16488	0.082138	-1.9375	-2.3688	-2.7104	-2.3812	-2.7396	-2.6063	-2.6063	-3.0396	-2.4354	-2.4	-3.0312	-2.3146	-2.95	-3	-2.3375	-3.225	84.549	185.314	67.213	349.389	96.165	132.767	372.276	371.134	80.376	78.077	368.083	286.320	69.574	363.780	134.830	334.789	0.0011714	0.0004757	0.00013252	1402	6.7232e-06	3.5309e-06	1478.1	514.38	6.6917e-06	3.9151e-06	657.87	249.37	178.31	69.559	6.6302e-06	110.29	6.891e-05	4.3303e-05	1.1284e-05	1214.1	5.257e-07	4.6438e-07	1279.8	441.72	5.2228e-07	4.7998e-07	558.46	211.6	150.15	59.228	4.8319e-07	92.812	263.390	126.556	148.536	56.314	119.150	193.664	55.637	61.163	274.739	177.564	60.033	64.519	66.038	70.787	183.399	68.208	-8191	255	
17095.332	1	1	0	0	0.19438	0.14379	0.11358	0.13074	0.17316	0.30022	0.32954	0.3377	0.2218	0.083176	0.1666	0.096275	0.37925	0.14422	0.22196	0.37644	-2.0312	-2.6396	-3.0146	-2.3958	-2.7875	-2.8479	-2.4104	-3.0479	-2.4708	-2.3229	-2.9938	-2.4292	-2.7271	-3.0187	-2.3312	-3.0479	329.389	126.256	99.947	401.912	293.945	256.244	373.881	324.311	64.968	187.418	188.302	260.155	368.894	130.487	252.045	350.428	0.0011362	0.00059241	0.00014708	1394.5	5.6342e-06	4.2007e-06	1469.2	503.66	7.2087e-06	5.0931e-06	647.32	242.81	174.28	67.84	5.3366e-06	108.06	7.0102e-05	4.4997e-05	1.2044e-05	1207.4	5.3829e-07	4.6067e-07	1265.6	432.85	5.5008e-07	4.6009e-07	546.69	205.45	146.7	57.624	5.0408e-07	90.586	261.267	138.458	135.706	56.326	151.829	159.433	56.139	60.924	256.773	180.223	60.022	64.858	66.392	71.021	169.252	68.283	-8191	255	
17095.428	1	1	0	0	0.038312	0.14056	0.18342	0.20785	0.11378	0.17089	0.38246	0.44307	0.23337	0.15962	0.060378	0.30712	0.075425	0.11848	0.077169	0.20612	-2.4792	-2.4188	-3.1917	-2.5729	-2.725	-3.0687	-2.5125	-2.9542	-2.7354	-2.4792	-3.0771	-2.6958	-2.8417	-2.9667	-2.2687	-2.9313	372.103	279.020	55.322	359.134	280.983	59.227	356.842	326.066	77.472	340.465	375.802	284.263	343.288	335.424	311.611	49.365	0.0011317	0.00068748	0.0001176	1385.5	6.5699e-06	5.4486e-06	1453.8	503.39	6.6757e-06	4.0425e-06	647.09	244.36	176.23	68.387	8.2055e-06	107.87	6.8552e-05	4.1466e-05	1.2496e-05	1200.4	5.0681e-07	4.4403e-07	1256.2	433.81	5.0086e-07	4.3448e-07	549.49	207.51	147.97	58.235	4.9982e-07	91.052	266.440	133.275	133.935	56.635	124.881	182.390	55.743	61.112	248.854	205.267	59.987	64.576	66.330	70.669	216.775	68.234	-8191	255	
17095.549	1	1	0	0	0.21415	0.16413	0.1411	0.3638	0.1832	0.029	0.18012	0.21237	0.18271	0.25034	0.091395	0.51629	0.27381	0.013901	0.25976	0.2975	-2.4729	-2.3937	-2.9458	-2.5708	-2.7271	-2.8917	-2.5563	-3.2708	-2.9354	-2.1875	-2.9396	-2.5479	-2.6688	-2.9604	-2.2854	-2.8792	106.405	377.370	336.889	358.123	83.968	162.147	292.681	389.699	75.847	291.857	61.676	367.056	360.085	278.650	115.226	292.063	0.0011916	0.00059334	9.4993e-05	1386.1	6.2671e-06	4.4533e-06	1460.5	506.51	7.839e-06	6.2597e-06	648.45	244.62	176.26	68.461	3.4102e-06	107.87	6.7629e-05	4.1895e-05	1.2168e-05	1204.9	4.7978e-07	4.3778e-07	1262.9	435.61	4.8704e-07	4.5543e-07	550.13	207.63	148.19	58.216	5.2554e-07	91.057	267.121	116.413	139.160	56.541	144.781	187.179	55.766	61.277	256.270	178.412	60.001	64.800	65.998	70.874	198.488	68.361	-8191	255	
17095.643	1	1	0	0	0.1896	0.2688	0.16067	0.18953	0.19303	0.26623	0.24589	0.31424	0.16102	0.11229	0.067865	0.26663	0.095992	0.20903	0.19279	0.31446	-2.5792	-2.2438	-2.8458	-2.8083	-2.5167	-3.0833	-2.6375	-2.9958	-2.9646	-2.2833	-3.2188	-2.65	-2.4021	-2.9625	-2.5146	-2.7896	341.964	326.737	306.555	381.746	210.665	151.759	348.579	354.016	375.620	263.891	379.053	399.503	168.219	401.474	402.546	67.910	0.0012254	0.00047228	0.0001802	1389.3	4.7727e-06	6.0297e-06	1458.5	505.64	6.7227e-06	4.6887e-06	642.07	242.38	174.07	67.097	1.0535e-05	106.14	6.6939e-05	4.1262e-05	1.3059e-05	1204.4	4.514e-07	4.5201e-07	1261.4	434.14	4.5189e-07	4.5838e-07	545.46	205.03	146.3	57.189	5.2386e-07	89.257	266.449	146.929	160.169	56.536	116.556	185.069	56.106	61.171	261.794	185.446	59.885	64.521	66.124	70.982	198.938	68.182	-8191	255	
17095.738	1	1	0	0	0.068686	0.050453	0.14508	0.18053	0.15117	0.21173	0.34245	0.2556	0.093927	0.088628	0.11329	0.048001	0.26386	0.19397	0.11478	0.10243	-2.4854	-2.3542	-2.7125	-2.725	-2.3833	-2.9062	-2.4875	-2.6208	-3.1792	-2.3833	-2.8042	-2.6708	-2.3125	-2.9917	-2.3521	-2.7771	181.762	331.240	79.672	43.910	291.843	103.354	307.590	327.554	401.218	174.617	44.288	87.640	324.411	214.227	137.609	265.414	0.0011529	0.00055154	0.00016342	1379	8.1588e-06	3.8624e-06	1435.6	492.82	6.9736e-06	7.1466e-06	620.75	232.59	168.3	64.468	6.1404e-06	101.48	6.3121e-05	4.4118e-05	1.2473e-05	1192.6	4.6139e-07	4.7601e-07	1237.1	424.33	4.4549e-07	4.6293e-07	527.36	196.82	141.47	54.886	4.7946e-07	85.452	265.141	141.986	141.584	56.377	122.875	160.454	55.986	61.394	271.363	152.331	60.041	65.087	66.330	70.727	195.547	68.251	-8191	255	
17095.836	1	1	0	0	0.21482	0.039152	0.17716	0.31741	0.33942	0.22884	0.18312	0.30114	0.16929	0.19052	0.31126	0.033238	0.12692	0.084692	0.11338	0.36548	-2.5604	-2.3125	-2.8333	-3.0958	-2.1292	-2.9104	-2.8	-2.575	-2.8792	-2.4458	-2.975	-2.8063	-2.4583	-3.1542	-2.6229	-2.55	47.510	203.294	278.642	354.109	70.581	403.334	359.845	281.019	61.840	299.451	281.131	179.657	49.574	272.118	257.681	334.518	0.00109	0.00040854	0.00010351	1358.9	7.9221e-06	5.8409e-06	1410.4	487.5	6.98e-06	5.2528e-06	620.85	230.29	167.53	64.946	6.2511e-06	102.23	6.1344e-05	4.3025e-05	1.1334e-05	1176.3	4.4724e-07	4.7783e-07	1217.3	420.2	4.4765e-07	4.534e-07	524.89	195.22	140.95	55.108	4.7205e-07	85.939	266.777	133.979	128.891	56.454	148.358	177.968	55.911	61.326	282.841	183.099	59.953	64.889	66.157	70.990	194.514	68.434	-8191	255	
17095.932	1	1	0	0	0.14767	0.3514	0.0216	0.40602	0.15088	0.18515	0.14922	0.18497	0.25121	0.076599	0.15256	0.15426	0.1202	0.33949	0.050156	0.285	-2.6292	-2.0292	-2.7646	-3.2167	-2.2188	-2.9771	-2.8937	-2.4479	-2.9	-2.5875	-2.7292	-3.0083	-2.4875	-2.925	-2.8083	-2.6312	290.440	85.490	326.804	390.713	241.213	160.151	53.088	401.085	65.779	237.413	331.981	320.146	272.607	342.616	249.235	311.360	0.0010912	0.00037146	0.00016934	1362.2	7.2547e-06	9.0115e-06	1419.9	490.61	7.91e-06	2.5934e-06	623.97	233.01	169.55	65.639	4.0635e-06	103.4	6.2777e-05	4.3907e-05	1.1451e-05	1183.5	4.6539e-07	4.7793e-07	1227.5	422.45	4.7865e-07	4.6251e-07	528.63	197.55	142.33	55.623	4.7184e-07	87.244	266.877	129.176	146.295	56.699	122.262	175.896	55.843	61.518	271.213	180.520	59.984	64.882	66.297	71.003	206.664	68.607	-8191	255	
17096.027	1	1	0	0	0.074895	0.030681	0.1185	0.36606	0.13689	0.21013	0.22606	0.35904	0.19814	0.091277	0.25532	0.062196	0.13192	0.042935	0.094958	0.12757	-2.5563	-2.3812	-2.4833	-2.9313	-2.2917	-2.6312	-2.975	-2.5229	-2.9646	-2.4458	-2.6021	-2.9771	-2.4708	-2.9333	-2.8771	-2.4792	209.099	179.012	229.787	363.332	51.430	113.745	311.473	354.078	283.970	224.563	282.278	346.765	337.567	336.472	292.451	142.446	0.0011712	0.00039397	0.00012367	1377.9	6.9197e-06	4.1887e-06	1436.3	498.13	6.8535e-06	6.6184e-06	631.27	235.48	170.14	65.194	7.7847e-06	103.94	6.8e-05	4.5275e-05	1.1602e-05	1192.6	5.0051e-07	4.6621e-07	1243.6	427.84	5.0332e-07	4.4119e-07	535.48	199.3	143.03	55.614	4.4953e-07	87.309	265.088	131.247	124.081	56.696	139.492	180.545	55.891	61.318	287.409	179.046	59.784	64.741	66.073	70.765	190.966	68.079	-8191	255	
17096.148	1	1	0	0	0.097703	0.19018	0.14811	0.051617	0.065735	0.18599	0.20225	0.18146	0.043072	0.23743	0.47671	0.16433	0.31293	0.25015	0.13114	0.067284	-2.6604	-2.7333	-2.6167	-3.4229	-2.8187	-2.7021	-2.9042	-2.4958	-2.9833	-2.7521	-2.6396	-3.1667	-2.5604	-2.9417	-3.0167	-2.4958	372.457	294.668	228.539	283.587	73.682	63.743	390.188	399.784	218.940	125.830	344.145	354.157	399.612	327.029	129.544	89.242	0.001128	0.00027862	0.00013733	1376.8	6.2049e-06	2.0233e-06	1431.2	493.2	6.8216e-06	4.3133e-06	621.94	232.38	168.63	65.383	5.8233e-06	102.9	6.5388e-05	4.1686e-05	1.0946e-05	1192.1	4.8982e-07	4.3812e-07	1235.2	424.21	5.1283e-07	4.2587e-07	527.68	196.91	142.14	55.354	4.2673e-07	86.659	270.921	114.229	149.566	56.421	136.042	195.019	55.712	60.942	269.435	178.233	59.607	64.802	66.101	70.649	196.918	68.116	-8191	255	
17096.244	1	1	0	0	0.094644	0.30355	0.071488	0.22316	0.15758	0.21524	0.071507	0.29857	0.11862	0.090925	0.32274	0.20872	0.28896	0.53599	0.041407	0.26865	-2.6437	-2.7	-2.4854	-3.3667	-2.3542	-2.4771	-3.1813	-2.5979	-2.7833	-2.8458	-2.5563	-3.2604	-2.7812	-2.4354	-3.0896	-2.4542	400.071	395.997	315.219	387.640	242.760	245.873	47.684	361.952	172.935	398.280	378.609	331.772	393.495	354.547	106.679	390.871	0.0010577	0.00063047	0.00015899	1373	2.5866e-06	5.8884e-06	1434.8	494.54	7.6036e-06	5.5038e-06	633.48	235.26	170.74	66.12	5.7387e-06	104.89	6.6511e-05	4.1973e-05	1.1089e-05	1191.9	5.0163e-07	4.4775e-07	1238.6	426.47	5.2585e-07	4.4509e-07	535.76	199.74	143.66	56.251	4.543e-07	88.361	269.953	135.828	168.321	56.243	126.433	178.108	55.694	61.080	264.654	181.105	59.969	64.403	65.806	70.586	199.689	68.088	-8191	255	
17096.340	1	1	0	0	0.22376	0.29122	0.1427	0.18968	0.14199	0.067711	0.042468	0.15632	0.094248	0.35827	0.050825	0.38219	0.3629	0.31629	0.075301	0.59097	-2.5625	-2.7167	-2.5062	-3.1917	-2.5833	-2.5979	-3.1458	-2.5292	-2.7125	-3.0417	-2.2438	-3.1375	-2.8521	-2.5458	-3.0292	-2.4938	172.031	368.681	287.112	63.538	137.547	60.963	373.188	318.547	374.079	89.293	395.126	357.269	60.413	370.455	386.856	349.103	0.0011713	0.00046297	9.843e-05	1387.5	5.8197e-06	4.0412e-06	1445.4	502.13	9.3398e-06	5.4526e-06	638.17	238.02	172.82	66.628	6.4827e-06	105.93	6.9262e-05	3.9623e-05	1.0848e-05	1201.4	5.0393e-07	4.4779e-07	1250.6	431.08	5.1681e-07	4.3655e-07	541.84	202.65	145.4	56.742	4.7741e-07	89.305	273.826	133.619	141.437	56.603	162.056	166.886	56.100	61.348	274.705	213.476	59.825	64.810	66.318	71.199	189.068	68.227	-8191	255	
17096.438	1	1	0	0	0.11777	0.18815	0.081979	0.12966	0.18281	0.078562	0.055158	0.29257	0.10988	0.081668	0.17195	0.33235	0.16204	0.25677	0.089195	0.020503	-2.4917	-2.7604	-2.1958	-3.1208	-2.4792	-2.4396	-3.2188	-2.4854	-2.6354	-3.0563	-2.5896	-2.9125	-2.8917	-2.4125	-3.1042	-2.6146	392.177	74.304	205.309	331.150	165.693	210.288	285.634	58.493	241.108	390.948	318.976	383.926	354.559	130.854	92.081	90.972	0.001108	0.00048591	0.00018002	1393	3.6588e-06	4.3344e-06	1465.3	502.81	8.6593e-06	5.6412e-06	639.69	238.1	171.7	66.332	5.4695e-06	104.71	6.6587e-05	3.8995e-05	1.1761e-05	1210	4.7893e-07	4.3088e-07	1264	433.23	4.9046e-07	4.2315e-07	543.38	201.78	144.74	56.408	4.9344e-07	88.306	269.512	128.311	136.624	56.706	80.010	177.752	55.809	61.315	261.513	183.739	59.818	64.574	66.341	70.782	202.783	68.433	-8191	255	
17096.557	1	1	0	0	0.046838	0.018905	0.14118	0.29991	0.1155	0.13624	0.22838	0.36203	0.21364	0.080862	0.39433	0.033395	0.10905	0.1342	0.20981	0.11656	-2.2229	-2.8646	-2.1396	-2.9813	-2.7208	-2.4	-3.1979	-2.8271	-2.5958	-3.0771	-2.5771	-2.8729	-3.175	-2.5583	-3.0333	-2.7042	336.093	222.172	106.950	357.238	330.568	63.977	268.161	362.612	170.837	197.668	352.674	309.305	296.764	105.931	377.607	337.570	0.0011094	0.00033903	0.00013066	1388.5	3.5561e-06	5.8647e-06	1431.3	496.91	7.1523e-06	5.6188e-06	629.88	232.97	169.87	65.425	6.4177e-06	103.41	6.4653e-05	3.9522e-05	1.1901e-05	1199	4.602e-07	4.1814e-07	1238.8	427.34	4.6347e-07	4.1314e-07	531.53	197.61	142.48	55.495	5.071e-07	87.064	267.255	145.028	130.021	56.286	132.343	188.479	56.078	61.608	280.103	187.225	59.703	64.941	66.382	70.594	193.120	68.243	-8191	255	
17096.627	1	1	0	0	0.22484	0.082428	0.48708	0.4271	0.17076	0.055046	0.35619	0.19873	0.087311	0.046757	0.33166	0.18997	0.10416	0.22585	0.28198	0.21769	-2.1979	-2.8937	-2.4292	-3.0521	-2.9	-2.3937	-3.2188	-2.9437	-2.4375	-3.0187	-2.425	-2.8625	-2.9688	-2.3187	-2.8917	-2.7792	215.691	327.342	152.435	339.257	56.222	207.528	343.012	306.437	55.183	313.535	386.121	71.278	398.747	317.140	44.584	362.959	0.0011526	0.00067479	0.00017708	1375.2	7.0323e-06	4.6304e-06	1431.5	495.68	4.6753e-06	6.335e-06	634.56	236.31	171.7	66.207	7.1841e-06	105.22	6.233e-05	3.8598e-05	1.2455e-05	1190.2	4.4259e-07	4.4345e-07	1237.7	428.29	4.6701e-07	4.4643e-07	537.66	200.61	144.13	56.499	5.1336e-07	88.964	265.862	117.651	152.628	56.655	132.299	160.648	56.020	61.374	264.289	163.298	60.341	64.818	66.566	70.828	181.129	68.632	-8191	255	
17096.723	1	1	0	0	0.11274	0.072915	0.20073	0.13837	0.18117	0.13502	0.37658	0.16191	0.29036	0.095652	0.27528	0.2922	0.15498	0.051701	0.23789	0.20069	-2.0896	-2.975	-2.5792	-2.7938	-2.9229	-2.3125	-2.8833	-3.0938	-2.4042	-3.0917	-2.7583	-2.5563	-2.9708	-2.4437	-2.8792	-2.9437	161.567	136.758	365.967	377.711	242.717	164.640	319.296	349.541	65.524	331.554	370.748	341.613	326.752	148.094	274.944	57.479	0.0010865	0.00058998	0.00015785	1383.2	5.1375e-06	3.217e-06	1444.2	498.96	5.5197e-06	4.5537e-06	635.41	238.76	173.06	66.777	7.3625e-06	106.57	6.0856e-05	4.4369e-05	1.2196e-05	1201.7	4.4774e-07	4.779e-07	1249.6	430.72	4.5228e-07	4.569e-07	540.21	202.59	145.3	56.904	5.1092e-07	89.624	267.231	99.594	155.482	56.520	133.032	177.274	56.193	61.415	280.153	193.812	59.964	64.673	66.227	70.740	200.304	68.346	-8191	255	
17096.818	1	1	0	0	0.13033	0.13816	0.070338	0.26526	0.15877	0.11659	0.18683	0.41355	0.15341	0.12735	0.32358	0.26278	0.29617	0.27023	0.29907	0.12175	-2.0146	-2.8896	-2.3333	-2.7854	-3.0167	-2.3292	-2.9479	-2.9333	-2.3479	-2.7313	-2.5687	-2.7146	-2.8833	-2.3625	-2.6333	-3.0646	72.504	280.139	44.362	354.295	292.539	262.884	356.640	388.205	87.686	361.836	383.820	343.284	373.052	279.938	102.581	298.515	0.0011489	0.0004289	0.00013785	1388.9	5.8151e-06	4.0784e-06	1460.3	501.68	5.5925e-06	4.5412e-06	639.18	237.69	171.61	66.016	4.0779e-06	104.88	6.364e-05	4.4968e-05	1.1704e-05	1207	4.5257e-07	4.7435e-07	1261.4	432.91	4.6216e-07	4.9864e-07	543.08	201.45	144.45	56.371	4.8064e-07	88.365	269.532	111.141	124.791	56.445	137.787	177.611	55.856	61.219	274.903	158.595	59.887	64.846	66.219	70.797	191.473	68.275	-8191	255	
17096.939	1	1	0	0	0.1028	0.12623	0.12365	0.25521	0.21693	0.1381	0.22825	0.3591	0.16261	0.17716	0.10668	0.17307	0.39906	0.45006	0.12075	0.31822	-1.6354	-2.8646	-2.5583	-2.5271	-2.9542	-2.4854	-2.7188	-3.0583	-2.4896	-3.15	-2.9833	-2.5667	-3.0125	-2.575	-2.6083	-3.1542	234.800	266.829	253.280	394.303	204.801	363.381	344.927	364.887	322.803	253.116	278.241	104.582	46.432	44.612	303.072	382.149	0.0011068	0.00042498	0.00013022	1370.8	7.7317e-06	4e-06	1427.7	495	6.1105e-06	7.0318e-06	627.53	233.64	169.12	65.094	4.0057e-06	103.26	6.3825e-05	4.5292e-05	1.2511e-05	1193.1	4.8348e-07	4.51e-07	1236	427.25	4.8005e-07	4.7605e-07	532.39	198.06	143.04	55.563	4.6949e-07	87.064	266.259	104.315	157.783	56.478	152.662	199.624	55.828	61.453	280.033	198.002	59.973	64.605	66.264	70.828	195.315	68.455	-8191	255	
17097.035	1	1	0	0	0.013041	0.054917	0.13376	0.10728	0.24437	0.19567	0.16836	0.096887	0.052311	0.16727	0.31617	0.20868	0.23496	0.26245	0.19067	0.28246	-1.925	-2.9938	-2.6208	-2.5583	-3.0187	-2.2521	-2.6646	-3.0938	-2.3312	-2.8417	-2.9	-2.6667	-3.0104	-2.8292	-2.5187	-3.1354	232.042	126.949	324.208	343.706	87.638	396.970	337.926	59.389	175.018	285.864	352.370	350.021	359.106	357.013	272.344	335.283	0.0012224	0.00067657	0.00016287	1382.4	3.8854e-06	2.8052e-06	1430.9	495.74	6.4338e-06	6.477e-06	628.48	234.4	171.41	65.898	4.7737e-06	104.32	6.7374e-05	4.5349e-05	1.1453e-05	1196.1	5.1253e-07	4.803e-07	1236.9	427.78	5.1865e-07	4.7631e-07	534.22	199.08	143.91	56.184	4.5812e-07	87.797	268.885	125.563	140.749	56.478	133.625	179.790	55.550	61.007	261.707	193.606	60.171	64.466	66.058	70.551	202.326	68.260	-8191	255	
17097.133	1	1	0	0	0.069455	0.018736	0.2061	0.27874	0.21128	0.23065	0.14657	0.16677	0.18979	0.056925	0.15562	0.12658	0.076339	0.19143	0.11389	0.10869	-2.0021	-2.9146	-2.7521	-2.4521	-3.1292	-2.5521	-2.5729	-3.2292	-2.475	-2.6708	-2.9354	-2.4188	-2.9083	-2.7708	-2.3063	-3.0812	206.916	244.987	305.517	73.405	298.146	146.843	314.620	367.903	376.764	348.423	131.672	63.313	281.816	100.746	87.715	302.962	0.0011299	0.00058592	0.00012011	1385.7	7.8062e-06	5.1103e-06	1428.7	498.75	6.7877e-06	5.6367e-06	628.55	234.44	170.44	66.338	5.6522e-06	104.53	6.907e-05	4.4156e-05	1.1339e-05	1195.3	5.1393e-07	4.5875e-07	1236.6	428.76	5.1334e-07	4.6263e-07	534.96	199.12	143.93	56.174	4.4782e-07	87.829	269.357	123.125	147.266	56.152	133.370	194.451	55.734	61.233	266.857	171.337	60.082	64.785	66.131	71.004	199.034	68.180	-8191	255	
17097.229	1	1	0	0	0.21511	0.065934	0.061079	0.39026	0.33095	0.20071	0.078319	0.18612	0.066948	0.17711	0.25889	0.34736	0.24291	0.019945	0.078902	0.26883	-1.9042	-2.7479	-2.7583	-2.5854	-2.9083	-2.6729	-2.4833	-3.1375	-2.4208	-2.5833	-3.1021	-2.4688	-2.9396	-2.775	-2.3667	-3.1542	232.932	52.578	157.323	385.308	372.073	338.938	173.732	301.259	267.494	369.244	332.724	322.714	308.050	348.127	77.088	367.305	0.0011491	0.00040494	0.0001156	1386.2	5.6263e-06	4.3761e-06	1427.1	501.01	5.6612e-06	4.7975e-06	632.91	233.51	168.41	65.18	3.9821e-06	103.3	6.7205e-05	4.212e-05	1.0561e-05	1200.4	4.9561e-07	4.4638e-07	1238.5	429.58	4.9909e-07	4.5374e-07	534.31	198.13	142.5	55.456	4.2975e-07	86.724	268.483	123.586	146.080	56.516	156.575	179.919	55.970	61.252	262.320	183.840	59.829	64.577	66.064	70.990	209.296	68.465	-8191	255	
17097.324	1	1	0	0	0.11628	0.088071	0.021525	0.080829	0.0073818	0.098958	0.16076	0.33514	0.19175	0.17431	0.12219	0.1842	0.41163	0.27539	0.086591	0.29603	-2.1042	-2.4021	-2.7896	-2.5062	-2.9	-2.75	-2.5	-3.2167	-2.4042	-2.6667	-3.1604	-2.6854	-2.6958	-3.0938	-2.2979	-3.0604	290.331	274.495	189.923	66.229	369.294	178.135	331.198	321.789	370.475	268.968	195.576	382.037	355.833	85.101	211.889	389.720	0.0011369	0.00057592	0.00013286	1362.1	5.2797e-06	4.2508e-06	1424.9	493.69	6.9445e-06	6.3178e-06	625.42	234.29	170.38	65.491	5.1799e-06	104.21	6.6255e-05	4.0492e-05	1.0644e-05	1186.4	5.1428e-07	4.2179e-07	1229.2	425.02	5.0819e-07	4.5335e-07	531.56	197.93	142.86	55.73	4.9012e-07	87.497	267.256	128.076	99.727	56.297	136.996	167.263	55.813	61.057	278.730	171.031	60.113	64.544	66.429	70.790	189.533	68.231	-8191	255	
17097.422	1	1	0	0	0.1327	0.056785	0.034661	0.30685	0.34304	0.2231	0.23245	0.30423	0.24304	0.14189	0.16464	0.066311	0.23431	0.076941	0.18525	0.14839	-2.2687	-2.4562	-2.8625	-2.4042	-2.5687	-2.7958	-2.3563	-2.8896	-2.7708	-2.4375	-3.0854	-2.4625	-2.5646	-2.8771	-2.3021	-2.9188	327.211	291.399	180.305	366.333	400.794	57.749	60.287	350.969	129.841	142.333	312.033	244.598	82.759	288.517	49.301	302.820	0.0011861	0.00046037	0.00014849	1378.5	6.4603e-06	4.7435e-06	1431.2	500.5	6.209e-06	2.9754e-06	634.41	236.23	171.76	66.271	5.7052e-06	105.44	6.8473e-05	4.1102e-05	1.1602e-05	1193.3	5.194e-07	4.3097e-07	1238.5	428.62	4.7681e-07	4.3822e-07	536.87	200.16	144.07	56.328	4.7467e-07	88.418	264.917	123.084	134.100	56.405	143.505	190.476	55.749	61.275	289.472	187.483	59.630	64.762	65.772	70.838	168.014	68.179	-8191	255	
17097.518	1	1	0	0	0.17913	0.13538	0.17532	0.24607	0.2897	0.24868	0.23266	0.19755	0.13319	0.12479	0.26857	0.40181	0.31664	0.19396	0.036579	0.045944	-2.225	-2.1125	-2.8458	-2.4979	-2.4875	-2.7792	-2.5771	-3.1521	-2.7417	-2.3937	-3.0896	-2.6729	-2.525	-3.0542	-2.4542	-2.9188	158.213	312.442	379.576	378.878	168.587	375.003	324.764	345.208	399.930	241.461	324.221	321.363	324.217	371.399	155.999	134.730	0.0011201	0.00042739	0.00017911	1382.3	5.9458e-06	5.3864e-06	1440.8	500.68	5.1303e-06	4.9801e-06	633.51	235.94	171.88	66.139	7.5828e-06	105.28	6.5586e-05	4.0471e-05	1.2061e-05	1200	4.6238e-07	4.1796e-07	1245.8	430.76	4.8518e-07	4.2779e-07	538.42	200.34	144.12	56.353	5.1601e-07	88.81	267.595	150.948	125.449	56.205	137.507	179.345	55.809	61.097	284.235	180.256	59.607	64.774	66.072	70.442	194.433	68.441	-8191	255	
17097.639	1	1	0	0	0.12642	0.24972	0.16154	0.15921	0.075781	0.094446	0.29407	0.28417	0.051081	0.26681	0.38895	0.30858	0.30133	0.26854	0.15997	0.33072	-2.3688	-2.2562	-2.9313	-2.6979	-2.5354	-3.0062	-2.5042	-2.6813	-2.8125	-2.3354	-2.9688	-2.6271	-2.5833	-2.925	-2.4333	-2.8354	327.850	326.108	238.975	369.399	148.799	258.532	364.328	366.298	161.175	96.060	347.891	366.230	54.856	333.074	345.026	285.686	0.001147	0.00051181	0.00015928	1389.1	5.9931e-06	3.07e-06	1450	498.57	7.7778e-06	6.0428e-06	641.35	237.75	171.77	66.765	9.9459e-06	106.09	6.3887e-05	3.9821e-05	1.2329e-05	1203.5	4.7075e-07	4.2931e-07	1252.4	431.2	4.5193e-07	4.3132e-07	541.29	201.12	144.73	56.683	5.0689e-07	89.198	262.799	116.858	138.216	56.190	131.342	162.501	55.710	61.213	277.621	187.171	59.746	64.713	65.929	70.454	182.966	67.757	-8191	255	
17097.732	1	1	0	0	0.28517	0.17823	0.072441	0.14684	0.24736	0.065547	0.23224	0.20351	0.14988	0.07042	0.20588	0.1293	0.19887	0.20114	0.18304	0.34289	-2.5687	-2.3104	-2.9146	-2.85	-2.4396	-2.9542	-2.5021	-2.8125	-2.7208	-2.2208	-2.925	-2.8063	-2.4625	-3.0771	-2.3375	-2.6854	197.900	258.154	225.661	370.343	238.845	313.042	393.831	378.065	353.673	59.338	322.828	384.637	344.391	312.890	138.395	305.261	0.001112	0.00051446	0.00014131	1386.4	5.4215e-06	5.9924e-06	1444.1	501.53	6.1078e-06	7.6248e-06	640.14	238.97	172.75	67.362	6.132e-06	106.17	6.2427e-05	4.3419e-05	1.2406e-05	1202	4.4491e-07	4.6399e-07	1248.1	431.65	4.5028e-07	4.7243e-07	541.84	202.42	145.1	57.289	5.1635e-07	89.648	265.972	122.533	135.184	56.526	123.233	194.218	55.742	61.145	250.863	182.838	59.859	64.933	66.074	70.729	181.920	68.184	-8191	255	
17097.828	1	1	0	0	0.10811	0.22844	0.15156	0.22819	0.17382	0.14413	0.31288	0.24719	0.046397	0.17877	0.25496	0.31587	0.38067	0.20797	0.13685	0.167	-2.5208	-2.2979	-2.7	-2.7479	-2.5229	-2.8688	-2.5708	-2.5229	-2.7708	-2.4125	-2.9083	-3.0396	-2.4125	-3.0417	-2.5354	-2.825	391.060	307.959	114.064	214.514	255.361	143.304	319.930	401.482	147.189	237.359	340.508	357.965	57.464	286.886	149.125	363.778	0.0012194	0.0005701	0.00011801	1391.4	5.6666e-06	6.4277e-06	1455.1	504.25	6.4036e-06	4.2223e-06	642.77	240.06	172.58	66.81	7.0162e-06	105.65	6.4968e-05	4.3949e-05	1.1944e-05	1207.3	4.5202e-07	4.8326e-07	1256.7	433.69	4.706e-07	4.914e-07	544.13	202.83	145.61	57.061	4.9049e-07	89.271	267.377	127.542	148.487	56.399	157.276	191.531	55.842	61.216	280.357	175.847	59.959	64.751	66.185	70.739	193.856	68.529	-8191	255	
17097.924	1	1	0	0	0.086173	0.27596	0.19325	0.27635	0.18288	0.12993	0.20505	0.26231	0.093455	0.091469	0.1918	0.16555	0.11713	0.099894	0.096592	0.19573	-2.5958	-2.3354	-2.7167	-3.0458	-2.3354	-3.0771	-2.8438	-2.75	-2.9875	-2.4979	-2.9854	-2.9458	-2.2271	-3.0187	-2.6937	-2.7062	147.798	402.225	352.193	297.664	293.239	67.715	334.155	401.142	372.876	339.076	334.761	339.669	342.812	392.448	62.782	366.884	0.0011951	0.00051881	0.00018654	1391.5	6.3276e-06	3.9301e-06	1448.5	503.12	7.2286e-06	4.5548e-06	640.66	239.63	171.64	66.67	5.9338e-06	106.09	6.5467e-05	4.49e-05	1.2064e-05	1207.5	4.8231e-07	4.7495e-07	1255.2	432.95	4.946e-07	4.7875e-07	542.76	202.2	144.89	56.722	4.662e-07	89.431	266.046	132.217	119.182	56.395	119.291	173.853	56.011	61.069	255.012	185.141	59.794	64.850	66.148	70.897	189.683	68.007	-8191	255	
17098.020	1	1	0	0	0.28155	0.1512	0.16346	0.26727	0.084061	0.22317	0.060066	0.3235	0.37256	0.25334	0.32063	0.25982	0.1674	0.21583	0.054301	0.32902	-2.6688	-2.4792	-2.525	-3.0604	-2.3	-2.8833	-2.9792	-2.6646	-3.05	-2.4479	-2.75	-3.0604	-2.5875	-2.9688	-2.7792	-2.3521	376.406	47.621	230.740	52.138	91.848	47.094	276.635	68.951	58.004	178.081	298.482	359.713	299.812	362.152	378.866	340.337	0.0011348	0.00044782	0.00012185	1389.3	7.3489e-06	5.6057e-06	1446.1	502.52	6.1794e-06	7.3496e-06	635.88	235.83	171.41	66.077	9.0934e-06	105.08	6.6115e-05	4.3533e-05	1.1759e-05	1207.2	5.0108e-07	4.7177e-07	1251	431.06	5.0281e-07	4.8602e-07	538.79	199.77	143.9	56.213	4.5423e-07	88.2	266.114	180.432	139.440	56.472	130.529	170.832	55.844	61.272	269.093	162.016	59.602	64.790	66.182	70.957	194.045	68.199	-8191	255	
17098.117	1	1	0	0	0.34118	0.097265	0.18234	0.22222	0.22551	0.22109	0.049142	0.40377	0.20249	0.079204	0.29082	0.42844	0.21329	0.18987	0.13189	0.2441	-2.5208	-2.5396	-2.5958	-3.1813	-2.5292	-2.5729	-3.1083	-2.5021	-2.9229	-2.6542	-2.7375	-3.0958	-2.3688	-2.9917	-2.9271	-2.5604	43.341	201.624	321.723	54.839	187.598	226.067	320.909	357.437	186.003	130.591	293.483	46.046	376.618	346.831	377.246	343.541	0.0011743	0.00049787	0.0001292	1378.4	5.7668e-06	4.8448e-06	1439.4	498.09	7.1482e-06	6.1537e-06	634.83	235.95	170.21	66.14	4.6191e-06	104.66	6.7695e-05	4.4253e-05	1.1301e-05	1195.5	4.9433e-07	4.6457e-07	1237.9	427.85	5.2189e-07	4.6318e-07	534.7	199.67	143.47	56.324	4.3656e-07	88.207	267.600	127.144	139.332	56.808	114.580	139.564	56.103	60.997	262.407	173.538	59.855	64.632	66.299	70.844	171.770	68.585	-8191	255	
17098.236	1	1	0	0	0.14071	0.085418	0.098083	0.27199	0.17379	0.095928	0.12837	0.20106	0.027006	0.15992	0.22492	0.28208	0.10345	0.14609	0.090398	0.3253	-2.5167	-2.5792	-2.3583	-3.1333	-2.4833	-2.5563	-3.0708	-2.4583	-2.8604	-2.8167	-2.7604	-3.1792	-2.6479	-2.8625	-3.0833	-2.3979	348.184	388.310	257.195	334.519	199.354	103.590	357.298	366.097	200.640	385.916	347.612	390.549	104.688	340.192	162.250	353.597	0.0011881	0.00047572	0.00020749	1389.2	8.1655e-06	4.0491e-06	1446	497.24	6.1537e-06	5.0571e-06	633.64	235.53	169.27	65.852	5.414e-06	104.37	6.8605e-05	4.3774e-05	1.0989e-05	1203.1	5.1131e-07	4.4244e-07	1245.6	429.88	5.1739e-07	4.5123e-07	536.2	199.81	143.48	56.037	4.26e-07	87.919	268.549	125.560	156.326	56.657	141.969	201.346	55.958	61.138	271.476	198.942	59.687	65.062	66.473	71.189	189.526	68.342	-8191	255	
17098.332	1	1	0	0	0.13789	0.066749	0.21383	0.40444	0.039621	0.082861	0.22991	0.28887	0.29492	0.23539	0.10733	0.22237	0.035835	0.059023	0.11439	0.30152	-2.4146	-2.8	-2.3917	-3.1646	-2.4208	-2.55	-3.1521	-2.6271	-2.8333	-2.8458	-2.4458	-3.0187	-2.5417	-2.7146	-3.0604	-2.3833	78.479	385.356	221.216	340.594	271.621	293.153	223.246	314.407	238.357	206.692	318.472	337.648	345.844	265.970	143.934	326.169	0.0011651	0.00045962	0.00012477	1377.5	4.6022e-06	4.1019e-06	1435.2	497.29	9.3879e-06	5.9063e-06	627.8	232.77	169.15	64.962	6.083e-06	103.15	6.6002e-05	4.0355e-05	1.0681e-05	1199.1	4.7835e-07	4.2513e-07	1240.9	428.4	4.9389e-07	4.2137e-07	531.98	197.68	142.41	55.192	4.438e-07	86.75	266.454	116.741	129.630	56.565	136.094	190.868	56.038	61.393	269.777	205.422	59.929	64.713	66.521	71.005	184.133	68.451	-8191	255	
17098.430	1	1	0	0	0.17885	0.12638	0.16376	0.31467	0.095281	0.025865	0.14562	0.17483	0.18153	0.24275	0.099336	0.15452	0.094056	0.13455	0.18361	0.17376	-2.4292	-2.85	-2.2313	-2.9875	-2.625	-2.3896	-3.2667	-2.5812	-2.65	-2.8354	-2.6083	-3.0708	-2.8229	-2.6312	-3.1896	-2.5354	322.086	227.249	355.996	362.050	178.502	44.476	372.750	338.706	284.400	239.202	93.854	382.632	280.756	340.945	212.321	362.386	0.0011047	0.00060935	0.00012927	1376	6.5151e-06	2.8179e-06	1421	492.69	5.1609e-06	2.3893e-06	618.54	227.91	168.03	63.712	6.0648e-06	100.51	6.3253e-05	3.9767e-05	1.0943e-05	1191.4	4.7645e-07	4.0432e-07	1225.3	424.08	4.8488e-07	3.9851e-07	523.32	193.62	140.45	54.08	4.5533e-07	84.618	264.298	132.205	147.116	56.581	120.510	231.916	56.107	61.549	272.283	200.736	59.753	65.041	66.288	70.686	178.855	68.509	-8191	255	
17098.502	1	1	0	0	0.048778	0.12411	0.084378	0.16992	0.13561	0.17879	0.15806	0.063577	0.007834	0.19654	0.20885	0.21073	0.23657	0.21302	0.038631	0.35641	-2.3104	-2.875	-2.3271	-3.1667	-2.6708	-2.6292	-3.0542	-2.5583	-2.4667	-2.8729	-2.6188	-3.0417	-2.9771	-2.6042	-2.9583	-2.5875	235.125	184.957	175.445	265.786	259.198	102.451	302.022	383.698	58.415	69.014	334.493	348.644	382.579	299.482	363.148	380.105	0.0011137	0.00054993	0.00018153	1360.7	4.2362e-06	4.0106e-06	1401.8	487.65	6.1776e-06	6.4044e-06	615.54	228.81	166.57	63.947	5.8672e-06	102.11	6.3482e-05	3.7582e-05	1.161e-05	1181	4.5434e-07	4.0534e-07	1212.8	419.56	4.6598e-07	4.0153e-07	521.63	193.24	140.44	54.439	4.7364e-07	85.607	265.521	131.100	154.161	56.441	148.136	195.872	56.334	61.244	281.625	195.134	59.674	64.712	66.730	70.821	189.094	68.496	-8191	255	
17098.598	1	1	0	0	0.19208	0.15495	0.13052	0.24569	0.016011	0.25914	0.42572	0.11387	0.25508	0.11704	0.22093	0.16287	0.39705	0.17939	0.22092	0.29494	-2.2938	-3.0438	-2.2771	-2.9771	-2.8271	-2.3833	-3.1229	-2.7229	-2.4583	-3.0604	-2.4521	-2.8187	-3.0604	-2.4833	-2.9667	-2.6979	55.310	135.919	112.159	386.427	182.661	106.324	347.592	372.522	299.251	363.602	79.522	343.433	88.653	353.013	66.264	320.946	0.0010741	0.00052129	0.00010479	1374.9	4.1318e-06	4.006e-06	1431.7	492.13	6.4275e-06	6.1783e-06	627.06	231.82	169.36	65.591	7.9799e-06	104.11	6.3e-05	3.9149e-05	1.2332e-05	1192.8	4.3494e-07	4.2532e-07	1234.2	424.87	4.6598e-07	4.2885e-07	531.57	197.1	142.38	55.713	5.0288e-07	87.67	266.763	123.306	139.842	56.443	145.632	188.803	55.959	61.403	273.437	170.298	59.568	65.112	66.570	70.866	217.117	68.465	-8191	255	
17098.717	1	1	0	0	0.26638	0.24301	0.33877	0.2352	0.12998	0.041036	0.062607	0.15732	0.12047	0.17182	0.054538	0.27029	0.16174	0.55788	0.15824	0.22597	-1.9958	-2.9771	-2.4458	-2.8292	-2.7604	-2.3458	-2.9729	-2.5979	-2.55	-3.0542	-2.6479	-2.65	-2.9167	-2.5417	-2.8583	-2.875	336.800	249.932	347.447	289.580	122.571	157.878	338.859	340.679	235.305	103.048	83.087	343.175	375.283	364.243	128.974	379.707	0.0012122	0.00025804	0.00011709	1392.8	7.9505e-06	7.5602e-06	1445.9	500.58	7.3105e-06	8.9103e-06	635.6	235.61	170.62	66.126	5.9418e-06	105.14	6.2042e-05	4.2572e-05	1.1984e-05	1206.9	4.511e-07	4.3596e-07	1250.9	431.35	4.5867e-07	4.7003e-07	538.21	199.68	143.83	56.136	4.9346e-07	88.495	266.825	126.415	141.249	56.350	133.954	171.966	55.875	61.488	273.847	191.141	60.185	64.701	66.126	70.770	196.192	68.591	-8191	255	
17098.812	1	1	0	0	0.21214	0.37038	0.035435	0.12073	0.10628	0.11813	0.24251	0.24009	0.072261	0.12493	0.1541	0.23123	0.30664	0.035441	0.047055	0.15691	-2.0521	-2.975	-2.6063	-2.7438	-2.9479	-2.4167	-3.1292	-3.0375	-2.3104	-3.15	-2.7729	-2.7417	-3.25	-2.6229	-2.8438	-2.9583	69.943	278.387	357.866	370.336	149.321	206.657	321.307	319.047	143.192	400.495	58.995	312.608	358.290	319.229	305.963	294.034	0.0012474	0.00055815	0.0001305	1399.8	6.2497e-06	6.7104e-06	1448.7	501.1	8.3144e-06	3.9929e-06	632.05	235.7	171.08	66.267	8.1878e-06	105.28	6.4536e-05	4.3476e-05	1.1998e-05	1211.4	4.5208e-07	4.7207e-07	1248.2	430.57	4.611e-07	4.6133e-07	535.14	199.3	144.09	56.307	4.7543e-07	88.454	266.109	125.447	137.730	56.155	144.958	190.609	56.192	61.275	275.844	162.407	59.882	64.521	66.137	70.824	184.698	68.489	-8191	255	
17098.908	1	1	0	0	0.21288	0.17427	0.078969	0.24077	0.1637	0.13084	0.067217	0.10089	0.22607	0.16012	0.16731	0.19091	0.16492	0.29533	0.16617	0.30055	-1.8583	-2.8583	-2.3729	-2.6021	-2.9667	-2.4562	-3.0563	-3.0083	-2.4583	-2.8979	-2.9083	-2.5833	-3.2021	-2.4771	-2.6688	-3.1312	231.121	208.716	106.788	55.545	135.225	129.360	299.163	84.218	142.981	74.536	376.737	366.732	50.285	316.368	58.592	320.254	0.0010069	0.00040935	0.00015921	1393	6.7216e-06	6.16e-06	1452.3	501.03	7.4854e-06	6.8885e-06	639.81	238.47	173.12	67.242	5.3817e-06	106.6	6.4773e-05	4.474e-05	1.2179e-05	1208.5	4.8215e-07	4.902e-07	1253.2	432.06	4.995e-07	4.7744e-07	541.69	201.6	145.31	57.093	4.8287e-07	89.526	263.724	116.617	147.262	56.245	134.782	156.088	55.809	61.230	272.348	176.717	59.924	64.894	66.291	70.983	188.062	68.599	-8191	255	
17099.029	1	1	0	0	0.2125	0.077118	0.09315	0.20624	0.20501	0.095544	0.18756	0.29342	0.043744	0.068304	0.40487	0.015174	0.20338	0.33192	0.099074	0.32041	-1.9917	-2.65	-2.5896	-2.4208	-3.0146	-2.6104	-2.7542	-3.0604	-2.1729	-2.9792	-2.8979	-2.4437	-3.0667	-2.5896	-2.4667	-3.2042	68.395	321.901	126.582	91.871	204.734	261.935	343.289	359.168	396.651	191.705	370.735	142.847	376.751	344.551	117.658	347.185	0.0013124	0.00039403	0.00010913	1405.6	6.8344e-06	5.2434e-06	1460.8	507.82	5.7643e-06	7.1668e-06	642.51	239.51	173.33	67.441	7.2734e-06	108.07	6.9221e-05	4.452e-05	1.1635e-05	1219.6	5.0425e-07	4.7232e-07	1263.8	437.1	5.0134e-07	4.659e-07	546.73	203.44	146.18	57.447	4.5874e-07	90.787	267.482	138.411	149.801	56.603	119.001	167.657	55.695	61.557	250.257	167.398	60.086	64.810	66.474	70.964	178.271	68.724	-8191	255	
17099.102	1	1	0	0	0.098122	0.26579	0.17964	0.25862	0.13047	0.093297	0.22784	0.32681	0.39267	0.055987	0.19678	0.39666	0.11749	0.14315	0.12824	0.22868	-1.9083	-2.8958	-2.7708	-2.4875	-2.8896	-2.5833	-2.6188	-3.1042	-2.3125	-2.8646	-3.0521	-2.4167	-2.9771	-2.7229	-2.475	-3.1646	237.895	372.261	374.277	352.199	233.724	97.916	66.050	57.665	143.652	169.660	346.155	390.784	390.064	393.749	252.023	81.380	0.0011831	0.00048919	0.00017249	1419.9	7.9203e-06	3.618e-06	1478.5	512.6	5.3899e-06	6.3314e-06	650.1	242.7	174.97	67.939	5.5097e-06	108.11	6.9013e-05	4.2624e-05	1.1074e-05	1230	5.2135e-07	4.6738e-07	1279	441.34	5.1162e-07	4.5554e-07	552.68	205.51	147.6	57.878	4.3385e-07	91.015	267.198	136.320	149.498	56.570	156.333	194.344	56.018	61.407	280.463	183.532	59.883	64.850	66.225	70.892	212.829	68.578	-8191	255	
17099.197	1	1	0	0	0.25284	0.22043	0.23447	0.27197	0.26367	0.20365	0.12992	0.11574	0.12534	0.18645	0.065239	0.20388	0.35864	0.29237	0.02792	0.41802	-2.0062	-2.8688	-2.8708	-2.4813	-3.1417	-2.6896	-2.6104	-3.3146	-2.4771	-2.6208	-3.1125	-2.5958	-2.8083	-2.7667	-2.4083	-3.1521	306.839	340.904	132.821	391.262	304.781	149.310	55.557	117.483	342.588	104.657	386.460	142.831	391.279	336.067	386.853	73.172	0.0012034	0.00065683	0.00018458	1408.2	6.9721e-06	5.5734e-06	1464.8	508.75	3.2807e-06	4.533e-06	638.95	238.46	171.87	66.839	6.0986e-06	105.4	7.032e-05	4.304e-05	1.0804e-05	1221.9	5.268e-07	4.4283e-07	1265.1	438.19	5.1371e-07	4.5072e-07	543.48	202.13	145.56	56.992	4.5727e-07	89.229	271.139	152.596	135.951	56.572	110.082	219.049	55.643	61.301	257.409	191.908	60.143	64.781	66.184	71.075	196.251	68.750	-8191	255	
17099.318	1	1	0	0	0.15207	0.13194	0.13555	0.25155	0.18972	0.03955	0.36163	0.22962	0.10987	0.14769	0.13475	0.40083	0.17993	0.51142	0.23419	0.19587	-2.1771	-2.4708	-2.9146	-2.5062	-2.775	-2.7104	-2.5563	-3	-2.5042	-2.5604	-3.0771	-2.5771	-2.9875	-2.8729	-2.2604	-2.9062	242.587	355.367	154.263	396.332	398.357	159.807	324.851	318.985	320.138	308.903	349.871	385.941	390.398	375.517	247.980	93.430	0.0012022	0.00053655	0.00020485	1391	6.6725e-06	4.225e-06	1454.9	505.38	4.9521e-06	4.702e-06	640.74	239.93	174.36	67.073	3.7485e-06	107.03	6.8893e-05	4.227e-05	1.0576e-05	1213.1	4.96e-07	4.2869e-07	1256.4	436.46	4.8485e-07	4.2945e-07	544.53	203.68	147	57.391	4.3735e-07	90.203	264.730	129.916	160.727	56.737	123.872	195.999	55.932	61.310	276.695	178.258	60.154	64.786	66.241	71.173	201.140	68.366	-8191	255	
17099.414	1	1	0	0	0.13789	0.06951	0.22083	0.24078	0.19385	0.19617	0.2834	0.28979	0.083154	0.14429	0.16683	0.18205	0.14125	0.2644	0.17663	0.25944	-2.1271	-2.4062	-2.9958	-2.625	-2.7917	-2.9771	-2.4875	-3.175	-2.6271	-2.6208	-3.2354	-2.5438	-2.6333	-3.2271	-2.5521	-3.1979	358.851	206.217	376.712	321.780	221.189	190.779	383.059	377.128	145.557	86.253	396.736	331.334	384.267	99.998	283.056	305.257	0.0011871	0.00043406	0.00016924	1395.7	8.03e-06	2.4731e-06	1449	506.47	5.9786e-06	5.0652e-06	641.95	239.24	173.75	66.574	6.1457e-06	106.34	6.5232e-05	3.9718e-05	1.0835e-05	1213.8	4.7392e-07	3.9664e-07	1257.6	436.67	4.6398e-07	4.1544e-07	544.35	203.3	146.49	57.082	4.697e-07	89.728	266.224	141.563	132.355	56.695	151.409	175.392	55.843	61.283	283.589	175.059	60.192	64.967	66.159	70.711	213.818	68.626	-8191	255	
17099.510	1	1	0	0	0.26836	0.29372	0.2984	0.50042	0.16878	0.18844	0.26954	0.10886	0.047339	0.26152	0.50529	0.22558	0.30656	0.21819	0.084599	0.34083	-2.325	-2.45	-2.9646	-2.6437	-2.6854	-2.8833	-2.5625	-3.1688	-2.7771	-2.5083	-3.0271	-2.4667	-2.6083	-3.0625	-2.1271	-3.1063	400.585	314.601	230.906	372.073	111.169	373.068	361.288	357.021	208.009	76.809	349.255	349.152	358.297	62.929	392.682	375.707	0.0011144	0.00056401	8.6862e-05	1411.5	8.1652e-06	5.8823e-06	1466.7	510.12	6.944e-06	6.0683e-06	649.37	244.11	176.51	68.474	6.6741e-06	107.9	6.3706e-05	3.8664e-05	1.13e-05	1223	4.548e-07	4.0084e-07	1267.3	440.67	4.6612e-07	4.2204e-07	551.26	206.67	148.7	58.011	5.0046e-07	91.033	273.951	135.550	160.747	56.768	133.204	187.226	55.984	61.362	254.201	188.492	59.735	64.634	66.048	70.853	199.501	68.321	-8191	255	
17099.629	1	1	0	0	0.13415	0.3969	0.16793	0.089671	0.32427	0.12421	0.25337	0.21676	0.13689	0.38867	0.45503	0.21312	0.15416	0.041595	0.03356	0.17509	-2.3	-2.3958	-2.8917	-2.7708	-2.4625	-3.1188	-2.5042	-3.0354	-2.9	-2.4271	-3.0792	-2.8375	-2.5	-3.2479	-2.5021	-2.875	159.747	184.117	144.379	313.528	148.170	62.050	337.171	324.452	249.018	76.041	343.176	45.421	242.305	307.383	197.999	312.675	0.0011441	0.00065562	0.00021407	1405.5	6.5068e-06	4.9041e-06	1463.1	507.69	6.0574e-06	6.9944e-06	643.28	242.37	174.99	68.182	6.3436e-06	106.93	6.473e-05	3.8952e-05	1.2342e-05	1219.8	4.6957e-07	4.1272e-07	1264	438.69	4.6883e-07	4.2869e-07	548.69	206.02	147.7	58.077	4.9593e-07	90.57	264.709	134.900	137.032	56.729	135.413	185.681	55.824	61.440	263.473	196.844	59.801	64.636	65.932	70.901	190.962	68.408	-8191	255	
17099.725	1	1	0	0	0.21417	0.25479	0.092612	0.17006	0.16308	0.21384	0.24539	0.21473	0.13676	0.069277	0.092594	0.22365	0.32891	0.12446	0.058538	0.36472	-2.5979	-2.3917	-3.0833	-2.7646	-2.4354	-2.9042	-2.7208	-2.8937	-2.8417	-2.2854	-3.0708	-3	-2.5354	-3	-2.5646	-2.6417	258.435	359.383	95.546	349.436	100.952	176.651	54.400	318.072	342.211	202.610	369.239	351.707	353.226	82.303	377.590	72.621	0.0011493	0.0004841	0.00017857	1393.8	6.0949e-06	6.2677e-06	1446.9	505.32	6.0065e-06	3.8402e-06	639.33	241.99	174.84	66.859	5.8805e-06	106.2	6.4373e-05	4.0526e-05	1.2004e-05	1215.4	4.4903e-07	4.3201e-07	1258	436.88	4.3823e-07	4.3263e-07	545.45	205.79	148.07	57.425	4.697e-07	89.889	268.549	137.171	143.123	56.572	123.504	169.611	55.943	61.087	275.256	188.681	60.043	64.667	66.129	70.652	199.079	68.621	-8191	255	
17099.797	1	1	0	0	0.28912	0.10138	0.27978	0.17954	0.20496	0.16497	0.1746	0.36263	0.19419	0.2571	0.23562	0.39147	0.12668	0.28791	0.21824	0.08293	-2.3875	-2.3458	-2.9	-2.8271	-2.4729	-3.1208	-2.6333	-2.7354	-2.9229	-2.3063	-2.9646	-2.8458	-2.4333	-3.0104	-2.6521	-2.7708	353.490	108.515	125.853	44.285	250.508	247.313	339.385	392.849	230.820	138.876	102.377	325.350	278.156	392.044	233.625	136.691	0.0011785	0.00037771	0.00015277	1400.2	4.4026e-06	4.2328e-06	1440.3	505.08	8.5879e-06	6.661e-06	637.07	240.64	174.78	67.107	4.7525e-06	106.31	6.1591e-05	4.332e-05	1.1281e-05	1217.4	4.4597e-07	4.4925e-07	1256.3	437.77	4.3131e-07	4.7705e-07	544.37	205.27	148.05	57.356	4.6528e-07	90.128	272.799	144.619	178.226	56.449	122.941	199.828	55.970	61.136	273.461	176.036	60.189	64.930	66.366	70.921	177.460	68.396	-8191	255	
17099.918	1	1	0	0	0.39009	0.14911	0.18598	0.073949	0.13683	0.029363	0.30446	0.46182	0.097922	0.23479	0.11193	0.11099	0.23297	0.31839	0.22897	0.22427	-2.5667	-2.3479	-2.7083	-2.9875	-2.4625	-3.0708	-2.875	-2.6833	-3.1125	-2.6271	-2.9813	-2.9833	-2.4542	-3.15	-2.6813	-2.7167	134.584	157.384	151.094	307.581	58.164	116.851	366.690	323.802	391.409	165.857	313.833	364.681	381.236	369.228	201.408	49.195	0.0012268	0.00045263	7.827e-05	1409.4	6.4328e-06	5.0841e-06	1459.7	508.05	9.3199e-06	5.9857e-06	647.52	244.21	176.74	67.515	4.1815e-06	107.15	6.3031e-05	4.1629e-05	1.1399e-05	1223.9	4.6137e-07	4.6434e-07	1267.4	441.55	4.6812e-07	4.7721e-07	551.8	208.06	149.37	57.905	4.6325e-07	90.874	266.091	123.017	175.007	56.683	128.185	199.621	55.951	61.275	254.648	202.877	59.933	64.889	66.288	70.669	174.171	68.185	-8191	255	
17100.014	1	1	0	0	0.18735	0.084448	0.37879	0.15058	0.10677	0.098785	0.31578	0.32698	0.1854	0.29	0.15694	0.15575	0.056294	0.13307	0.12533	0.26549	-2.4729	-2.4854	-2.75	-3.2188	-2.3396	-2.9437	-2.9688	-2.6417	-2.9437	-2.4333	-2.8333	-3.35	-2.5687	-3.1958	-2.85	-2.6396	394.655	93.407	362.798	340.076	47.068	260.663	59.113	372.040	277.211	92.513	325.782	53.451	306.129	98.931	162.478	346.444	0.0012402	0.00022886	0.0001427	1402.2	4.1771e-06	4.3841e-06	1441.6	508.07	7.101e-06	4.2488e-06	635.93	242.9	175.53	68.114	4.8085e-06	107.35	6.8033e-05	4.3818e-05	1.1383e-05	1222.2	4.7792e-07	4.6644e-07	1259.9	439.95	4.877e-07	4.5051e-07	546.59	207.83	148.95	58.2	4.4356e-07	90.99	266.364	135.717	129.129	56.876	142.014	168.462	55.994	61.291	281.742	171.902	60.107	64.992	66.342	70.910	192.925	68.684	-8191	255	
17100.109	1	1	0	0	0.27534	0.1515	0.070965	0.33479	0.17283	0.073438	0.25448	0.14556	0.085499	0.037853	0.24482	0.25727	0.21946	0.29521	0.3381	0.53221	-2.6208	-2.5583	-2.4813	-3.0792	-2.4042	-2.9083	-2.9979	-2.4833	-3.1542	-2.7542	-2.6271	-3.1875	-2.65	-2.8521	-2.9	-2.6771	58.748	215.899	305.982	362.426	392.668	111.948	377.649	57.784	96.920	130.448	56.243	346.930	376.959	341.520	178.043	372.011	0.001094	0.00057861	0.00014325	1394.4	7.4022e-06	4.302e-06	1455.6	508.24	6.3403e-06	3.9836e-06	648.36	245.04	176.66	68.092	7.6489e-06	107.9	6.552e-05	4.1646e-05	1.0645e-05	1217.1	5.0451e-07	4.3035e-07	1263.7	439.77	4.8361e-07	4.2223e-07	551	209.04	149.81	58.214	4.2001e-07	91.072	265.281	124.835	149.674	56.680	121.792	198.443	55.996	61.460	265.994	192.499	60.138	64.805	66.260	70.829	189.466	68.138	-8191	255	
17100.205	1	1	0	0	0.10898	0.21831	0.2629	0.14516	0.14514	0.14355	0.29305	0.23696	0.11803	0.27471	0.11995	0.35409	0.022553	0.29496	0.19696	0.10557	-2.7479	-2.7375	-2.3729	-3.2792	-2.3646	-2.5563	-3.0521	-2.6396	-2.9938	-2.6875	-2.5542	-3.0083	-2.4875	-2.6312	-2.825	-2.5292	365.705	120.202	280.321	280.330	386.928	63.574	329.824	347.231	77.348	282.200	374.065	386.855	216.704	365.231	195.077	45.066	0.0011413	0.00040064	0.00016566	1395	5.523e-06	5.467e-06	1454.9	507.74	8.1853e-06	3.7858e-06	643.03	244.18	177.04	67.546	5.108e-06	107	6.5893e-05	4.1391e-05	1.0158e-05	1218.3	4.8509e-07	4.4039e-07	1260.3	440.09	4.9003e-07	4.1881e-07	549.12	207.43	149.28	57.749	4.3378e-07	90.682	269.225	140.032	130.875	56.777	128.900	168.842	56.053	61.342	283.059	197.149	59.881	64.987	65.908	70.789	166.554	68.498	-8191	255	
17100.303	1	1	0	0	0.18731	0.077755	0.12102	0.052809	0.11816	0.27338	0.15533	0.067521	0.073655	0.13466	0.34268	0.31481	0.23482	0.16037	0.2045	0.14568	-2.4896	-2.7313	-2.3729	-3.2229	-2.4313	-2.5187	-3.3292	-2.4208	-2.8	-2.9792	-2.4646	-3.0333	-2.6229	-2.6396	-2.9375	-2.3542	183.525	114.281	376.164	229.627	401.068	308.575	365.049	332.602	303.398	155.230	343.176	307.073	317.735	366.168	287.046	57.385	0.001252	0.0003493	0.00012243	1415.9	7.599e-06	5.9754e-06	1459.6	509.44	6.7708e-06	5.4893e-06	646.28	243.84	175.75	67.778	6.6008e-06	107.54	6.6115e-05	3.9047e-05	1.0632e-05	1228.5	4.8357e-07	4.36e-07	1268.8	441.44	4.8628e-07	4.193e-07	550.39	208.03	148.92	57.926	4.4329e-07	90.996	266.800	94.933	141.778	56.652	149.169	169.735	55.749	61.489	285.908	170.405	60.122	64.877	66.461	70.489	175.144	68.499	-8191	255	
17100.398	1	1	0	0	0.2337	0.2632	0.19136	0.3617	0.065321	0.36105	0.24248	0.23626	0.11227	0.044138	0.038054	0.26006	0.1847	0.13281	0.064352	0.26731	-2.4104	-2.8625	-2.475	-3.0938	-2.7375	-2.5479	-3.1875	-2.5896	-2.7979	-2.8479	-2.5729	-2.9729	-2.7687	-2.5917	-3.0167	-2.7062	166.361	393.862	190.166	359.330	120.322	199.292	377.824	367.541	59.111	273.797	113.760	363.766	372.586	239.111	344.472	319.866	0.001195	0.00047938	0.00015074	1388.1	5.6426e-06	3.6602e-06	1451.5	504.3	5.3596e-06	6.8832e-06	638.31	241.89	175.09	67.658	6.645e-06	107.14	6.6264e-05	3.9944e-05	1.0359e-05	1217.9	4.8401e-07	4.2465e-07	1261.6	437.48	4.709e-07	4.3099e-07	546.23	206.74	148.24	57.914	4.6574e-07	90.987	267.434	121.702	147.574	56.682	147.058	175.866	56.115	61.358	267.627	163.541	60.371	64.849	66.455	71.055	216.703	68.666	-8191	255	
17100.494	1	1	0	0	0.26409	0.16647	0.39262	0.34041	0.086766	0.20042	0.26415	0.32344	0.17997	0.17207	0.28942	0.20134	0.19221	0.31456	0.30154	0.42443	-2.2313	-2.9417	-2.2229	-2.8875	-2.6771	-2.4938	-3.0687	-2.6833	-2.6833	-2.9042	-2.4792	-2.9583	-2.9208	-2.35	-2.9313	-2.6729	181.197	92.680	191.641	355.501	257.651	114.515	315.521	389.507	107.375	376.444	343.427	391.271	324.187	373.002	121.178	382.163	0.0011859	0.00047022	0.00018579	1384.5	7.2598e-06	4.2775e-06	1438.4	503.58	7.7627e-06	5.0328e-06	640.89	241.58	175.44	67.05	6.3867e-06	104.79	6.6245e-05	3.8185e-05	1.2139e-05	1212.9	4.6822e-07	4.1279e-07	1260.1	439.48	4.8934e-07	4.0769e-07	549.09	207.76	149.2	57.787	4.7276e-07	90.102	268.558	130.386	133.249	56.654	129.308	169.131	55.911	61.677	270.635	187.253	60.529	65.102	66.544	70.796	179.588	68.768	-8191	255	
17100.590	1	1	0	0	0.14103	0.07695	0.36546	0.23895	0.11838	0.12786	0.43948	0.10461	0.17713	0.20912	0.40695	0.15203	0.18262	0.16167	0.17278	0.29357	-2.1562	-2.8375	-2.35	-2.9833	-2.875	-2.4354	-3.15	-2.7375	-2.5	-2.8854	-2.4229	-2.9125	-3.0208	-2.4083	-2.9958	-2.6458	230.025	49.949	68.540	364.352	338.966	294.318	343.413	390.509	346.212	139.640	391.526	47.758	58.297	371.073	47.794	316.999	0.0011608	0.00070195	0.00012061	1381.3	6.9099e-06	5.0399e-06	1417.6	493.63	6.9397e-06	5.7704e-06	622.8	236.67	170.88	65.279	4.5171e-06	103.45	6.1669e-05	3.8503e-05	1.1994e-05	1212.7	4.428e-07	4.3093e-07	1247.4	434.8	4.4917e-07	3.8642e-07	540.06	204.27	146.64	56.667	4.8692e-07	88.574	268.470	136.690	139.965	56.926	123.871	180.145	56.014	61.662	263.941	166.608	60.201	65.150	66.646	70.815	201.523	68.606	-8191	255	
17100.709	1	1	0	0	0.16305	0.18426	0.1625	0.32728	0.068017	0.31768	0.19551	0.2136	0.032797	0.14199	0.28649	0.068974	0.31254	0.31613	0.19464	0.25325	-1.9604	-3.1167	-2.4104	-2.8521	-2.9854	-2.275	-3.1667	-2.8063	-2.5187	-3.0208	-2.4292	-2.9188	-3.2458	-2.3333	-2.975	-2.8937	378.503	247.878	137.089	403.237	192.745	94.129	313.521	329.672	217.891	315.895	392.163	318.551	371.880	53.135	292.603	379.234	0.0011235	0.00047448	0.00011386	1373.5	4.8631e-06	4.1804e-06	1399.8	492.82	6.224e-06	5.6896e-06	613.92	230.95	167.39	63.25	5.2127e-06	99.756	6.1231e-05	3.9341e-05	1.1486e-05	1207.3	4.2664e-07	4.204e-07	1236.3	430.92	4.4591e-07	4.3245e-07	530.71	198.83	143.16	54.989	4.7702e-07	85.887	267.537	116.786	153.297	56.811	147.080	166.606	55.981	61.794	271.760	185.621	60.380	65.302	66.499	70.953	168.670	68.816	-8191	255	
17100.805	1	1	0	0	0.06656	0.15744	0.23483	0.19754	0.068421	0.13986	0.095554	0.33089	0.11245	0.31196	0.14269	0.32661	0.21765	0.19539	0.16353	0.18596	-2.0521	-2.9062	-2.4375	-2.8937	-2.9188	-2.4417	-3.0771	-3.0646	-2.4542	-2.8563	-2.4521	-2.6167	-3.1979	-2.675	-2.8438	-2.9708	219.464	180.877	63.257	316.037	92.935	315.060	166.773	394.168	105.862	189.597	399.806	66.106	65.697	347.942	268.089	91.823	0.0010375	0.00040994	0.0002166	1333.4	6.0007e-06	2.4373e-06	1376.5	479.45	8.4523e-06	3.677e-06	603.48	226.72	166.43	63.142	6.0433e-06	99.916	6.0304e-05	4.2074e-05	1.1739e-05	1185.1	4.3453e-07	4.759e-07	1215.1	423.74	4.6885e-07	4.6973e-07	524.49	197.02	142.6	55.025	4.9482e-07	86.322	265.712	135.107	135.517	56.795	159.283	175.418	55.800	62.011	268.202	173.777	60.271	64.805	66.755	70.973	175.073	68.878	-8191	255	
17100.900	1	1	0	0	0.038349	0.18018	0.077836	0.21282	0.18355	0.26501	0.26817	0.44673	0.10567	0.20335	0.22807	0.060312	0.1307	0.43751	0.21212	0.24802	-1.975	-3.0833	-2.7083	-2.7188	-2.9562	-2.3833	-3.0167	-2.9667	-2.4271	-3.0208	-2.9437	-2.5771	-2.9375	-2.3875	-2.5875	-3.0958	343.300	391.154	137.684	398.852	178.736	83.141	333.142	362.741	203.189	83.733	46.843	88.388	367.327	391.535	354.585	53.658	0.0010436	0.00060623	0.00017445	1350.9	6.2843e-06	5.754e-06	1396.3	488.09	6.4104e-06	4.8889e-06	625.21	234.52	168.71	65.136	4.9584e-06	103.86	6.3333e-05	4.5642e-05	1.1893e-05	1194	4.727e-07	5.1452e-07	1235	428.99	4.9088e-07	5.0686e-07	538.04	202.73	145.7	56.75	4.9846e-07	89.155	266.284	136.461	123.590	56.547	137.144	190.669	56.127	61.896	273.573	180.131	60.284	65.167	66.708	71.129	197.179	68.632	-8191	255	
17100.998	1	1	0	0	0.073656	0.18546	0.11673	0.19554	0.12349	0.19564	0.060021	0.18425	0.23533	0.070184	0.37813	0.10251	0.087704	0.3328	0.12346	0.40414	-1.825	-2.8625	-2.6417	-2.7188	-2.8625	-2.2938	-2.8375	-3.0792	-2.3604	-3.05	-2.8	-2.375	-3.2687	-2.6542	-2.5604	-3.1042	188.275	320.770	216.915	370.670	198.310	403.040	110.577	385.041	298.606	273.992	376.913	290.864	50.626	344.495	237.727	66.285	0.0011462	0.00044524	0.00019241	1353	6.2011e-06	2.9795e-06	1414.2	488.68	8.4713e-06	5.6415e-06	622.22	233.63	170.11	64.694	5.3366e-06	102.67	6.5977e-05	4.6313e-05	1.2294e-05	1201.6	5.0276e-07	5.0042e-07	1246	432.51	5.195e-07	4.7345e-07	539.99	203.35	146.36	56.58	4.4852e-07	88.682	270.992	141.036	136.639	57.008	142.621	206.124	56.442	61.782	271.080	200.446	60.612	64.815	66.999	71.137	184.433	69.253	-8191	255	
17101.094	1	1	0	0	0.12969	0.12798	0.21072	0.26405	0.071358	0.042528	0.44865	0.15166	0.13207	0.31443	0.11332	0.40639	0.22974	0.26348	0.19637	0.14542	-1.9062	-2.7562	-2.675	-2.525	-3.025	-2.6167	-2.7146	-3.1646	-2.4958	-2.8667	-2.925	-2.45	-3.1917	-2.6771	-2.625	-3.0958	382.837	325.477	218.565	333.353	397.880	253.058	367.590	322.138	105.621	154.148	111.565	363.177	349.489	63.891	217.518	337.013	0.0011343	0.00049552	0.00019717	1351.9	4.4212e-06	4.6057e-06	1400.4	489.18	5.9459e-06	5.5408e-06	615.01	229.89	167.43	63.645	6.0281e-06	101.17	6.5955e-05	4.3103e-05	1.1233e-05	1203.7	4.8831e-07	4.381e-07	1242.5	430.87	4.9343e-07	4.3374e-07	534.49	199.85	144.49	55.443	4.2344e-07	86.93	270.502	146.025	150.066	56.839	117.113	200.502	56.075	61.795	277.508	194.566	60.390	65.079	66.411	71.078	193.483	68.837	-8191	255	
17101.189	1	1	0	0	0.090849	0.056533	0.22242	0.56791	0.1716	0.10673	0.311	0.24336	0.22264	0.21008	0.37958	0.15849	0.23397	0.24333	0.051433	0.071344	-2.1063	-2.8771	-2.8604	-2.6	-2.8812	-2.7812	-2.675	-3.1479	-2.275	-2.6562	-3.0354	-2.4667	-2.9917	-2.8375	-2.4729	-3.2	284.781	122.946	71.034	335.100	48.885	134.069	359.181	372.423	358.677	401.056	368.728	383.323	239.348	399.190	246.479	165.932	0.0010645	0.00030939	0.00016603	1342.1	6.6895e-06	6.27e-06	1392.7	486.61	5.5009e-06	5.9416e-06	610.58	229.9	166.86	63.326	7.1135e-06	101.05	6.6682e-05	4.0714e-05	1.0729e-05	1192.9	4.8656e-07	4.639e-07	1229.6	426.54	5.0023e-07	4.4207e-07	531.28	199.29	143.75	55.492	4.5128e-07	87.138	266.543	172.095	130.220	56.737	137.145	182.204	56.374	61.388	248.407	205.038	60.259	65.269	66.651	71.633	201.946	68.890	-8191	255	
17101.311	1	1	0	0	0.15921	0.24743	0.26042	0.10283	0.38912	0.1159	0.28939	0.18863	0.10194	0.15804	0.032407	0.13364	0.22391	0.10723	0.15741	0.44259	-2.1937	-2.6333	-2.925	-2.5604	-2.8479	-2.8625	-2.6792	-3.325	-2.5958	-2.4667	-3.1146	-2.5583	-2.8021	-3.0042	-2.4792	-3	401.890	249.152	254.169	268.461	278.015	289.735	376.104	377.129	209.071	214.236	335.884	327.007	389.118	382.127	137.029	375.913	0.0011633	0.00028535	0.00014397	1343.3	5.4151e-06	2.933e-06	1393.4	489.03	6.6589e-06	5.7149e-06	617.84	232.26	169.26	64.613	6.079e-06	103.66	6.6807e-05	4.2314e-05	1.1162e-05	1195	5.1163e-07	4.4355e-07	1235.8	430.06	5.0805e-07	4.5967e-07	536.88	201.63	145.58	56.357	4.4757e-07	88.941	266.299	143.080	140.565	56.811	129.089	173.495	56.219	61.474	265.838	186.287	60.345	64.916	66.566	70.966	185.257	68.531	-8191	255	
17101.406	1	1	0	0	0.041812	0.19548	0.22696	0.24774	0.25244	0.27852	0.31497	0.31538	0.19443	0.11374	0.12743	0.18545	0.1884	0.078927	0.086767	0.33185	-2.0938	-2.2958	-3	-2.5917	-2.85	-2.9062	-2.4375	-3.2667	-2.7292	-2.6854	-3.3063	-2.5479	-2.9229	-2.9708	-2.4271	-2.9813	196.797	325.270	151.624	371.327	285.806	81.138	403.508	341.740	371.956	94.357	257.430	352.529	64.647	385.506	337.230	373.404	0.0012343	0.00044395	0.00013743	1376.7	4.2083e-06	3.9584e-06	1413.9	496.06	8.8733e-06	5.8361e-06	633.63	240.29	173.35	67.319	4.9844e-06	107.98	6.9832e-05	4.0488e-05	1.1323e-05	1210.7	5.026e-07	4.3866e-07	1253.4	436.43	5.1647e-07	4.2606e-07	550.75	208.14	148.79	58.307	4.7099e-07	92.422	268.853	131.260	143.633	56.856	125.882	184.597	55.959	61.547	269.985	187.153	60.442	65.367	66.551	71.291	205.964	68.636	-8191	255	
17101.504	1	1	0	0	0.16399	0.29487	0.14236	0.31924	0.087394	0.14883	0.22059	0.13586	0.21123	0.23567	0.15445	0.3473	0.15163	0.064355	0.12774	0.13266	-2.2104	-2.375	-3.1583	-2.4771	-2.7938	-2.9083	-2.6708	-2.9854	-2.8	-2.4292	-3.0771	-2.7812	-2.6896	-3.1	-2.4271	-3.1833	148.990	301.305	258.928	379.479	381.408	306.772	368.807	280.082	382.923	357.432	341.539	388.682	386.821	385.842	137.973	336.259	0.0011976	0.00056743	0.00014892	1376.4	7.8296e-06	4.0699e-06	1449	501.14	7.6872e-06	5.1436e-06	641.18	243.97	174.04	67.566	7.4515e-06	105.89	6.7285e-05	3.9956e-05	1.1951e-05	1220.7	4.943e-07	4.1514e-07	1276	441.01	4.8837e-07	4.2149e-07	555.17	210.39	149.37	58.637	4.8492e-07	91.778	270.999	125.055	141.633	56.967	125.274	196.645	56.232	61.626	283.822	161.092	60.457	65.182	66.509	71.281	193.664	68.902	-8191	255	
17101.598	1	1	0	0	0.060543	0.17033	0.11308	0.52292	0.092079	0.36776	0.30383	0.072452	0.12149	0.22585	0.083457	0.27403	0.048042	0.046227	0.13558	0.086896	-2.3812	-2.5042	-2.9458	-2.7562	-2.7188	-3.0938	-2.3688	-3.0854	-2.9042	-2.4917	-2.8667	-2.6437	-2.5312	-3.0917	-2.4125	-3.0667	57.171	188.216	186.875	395.500	209.241	367.638	370.973	387.535	195.872	221.919	105.627	210.304	368.243	351.617	98.271	124.483	0.0012062	0.00047872	0.00019864	1372.1	6.3431e-06	3.5746e-06	1424.6	498.17	5.2264e-06	3.6244e-06	632.32	239.5	174.13	66.484	5.4693e-06	106.2	6.4765e-05	3.8763e-05	1.2143e-05	1211.8	4.5048e-07	4.0866e-07	1257.4	436.72	4.7085e-07	4.1664e-07	546.27	206.53	148.54	57.603	5.0134e-07	90.533	266.050	131.958	135.221	56.931	127.021	164.282	56.431	61.472	285.461	186.456	59.998	64.987	66.206	71.012	175.298	68.257	-8191	255	
17101.693	1	1	0	0	0.3183	0.20454	0.2538	0.30244	0.098686	0.11016	0.21695	0.21012	0.26131	0.051915	0.2875	0.034383	0.021824	0.11447	0.21112	0.068789	-2.4979	-2.2146	-2.8479	-2.8917	-2.4021	-2.9854	-2.6833	-2.8875	-2.9813	-2.3271	-3.1125	-2.6979	-2.4437	-3.0958	-2.4292	-2.8604	181.143	154.955	388.270	373.234	257.561	175.884	357.137	352.078	309.374	365.672	308.798	83.356	330.446	175.889	136.975	308.817	0.00131	0.00060204	0.00021695	1364.3	7.1442e-06	5.0519e-06	1424.2	498.29	7.4401e-06	5.2162e-06	626.99	238.52	172.03	66.272	6.5858e-06	105.21	6.434e-05	4.057e-05	1.273e-05	1208.9	4.5854e-07	4.2437e-07	1258.2	436.67	4.6276e-07	4.6353e-07	544.48	206.25	147.59	57.463	5.1276e-07	90.015	266.204	146.418	127.732	56.770	140.016	188.938	56.108	61.395	263.590	187.350	60.464	65.281	66.221	71.174	191.755	68.875	-8191	255	
#DATA ENDS
