BOXY.EXE: ISS Imagent and Oximeter Data Acquisition Program Version 0.80
Ascii Record File

#ACQ INFORMATION
2  Detector Channels 
16  External MUX Channels 
1  Auxiliary Channels 
5000  Waveform (CCF) Frequency (Hz)
1  Waveforms Skipped 
30  Waveforms Averaged 
1  Cycles Averaged 
16  Acquisitions per Waveform 
10.0806  Updata Rate (Hz) 

#FILE INFORMATION
TRUE -- External MUX Channel results are PARSED.
FALSE -- AC DC and Phase are NOT grouped.
TRUE -- Companion Program Settings File CREATED.
FALSE -- AC data not excluded
FALSE -- DC data not excluded
FALSE -- Phase data not excluded
FALSE -- Auxillary Chn. data not excluded
Tab delimiters

#CALIBRATION STATE
TRUE -- Waveform Calibration Values APPLIED.


#AUX CALIBRATION VALUES
Val Type	aux-1	

Term	1.0000e+00	
Factor	0.0000e+00	


#WF CALIBRATION VALUES
A = Detector Channel
Val Type	A-AC1	A-AC2	A-AC3	A-AC4	A-AC5	A-AC6	A-AC7	A-AC8	A-AC9	A-AC10	A-AC11	A-AC12	A-AC13	A-AC14	A-AC15	A-AC16	A-DC1	A-DC2	A-DC3	A-DC4	A-DC5	A-DC6	A-DC7	A-DC8	A-DC9	A-DC10	A-DC11	A-DC12	A-DC13	A-DC14	A-DC15	A-DC16	A-Ph1	A-Ph2	A-Ph3	A-Ph4	A-Ph5	A-Ph6	A-Ph7	A-Ph8	A-Ph9	A-Ph10	A-Ph11	A-Ph12	A-Ph13	A-Ph14	A-Ph15	A-Ph16	

Term	0.00000e+00	0.00000e+00	0.00000e+00	0.00000e+00	0.00000e+00	0.00000e+00	0.00000e+00	0.00000e+00	0.00000e+00	0.00000e+00	0.00000e+00	0.00000e+00	0.00000e+00	0.00000e+00	0.00000e+00	0.00000e+00	0.00000e+00	0.00000e+00	0.00000e+00	0.00000e+00	0.00000e+00	0.00000e+00	0.00000e+00	0.00000e+00	0.00000e+00	0.00000e+00	0.00000e+00	0.00000e+00	0.00000e+00	0.00000e+00	0.00000e+00	0.00000e+00	0.00000e+00	0.00000e+00	0.00000e+00	0.00000e+00	0.00000e+00	0.00000e+00	0.00000e+00	0.00000e+00	0.00000e+00	0.00000e+00	0.00000e+00	0.00000e+00	0.00000e+00	0.00000e+00	0.00000e+00	0.00000e+00	
Factor	1.00000e+00	1.00000e+00	1.00000e+00	1.00000e+00	1.00000e+00	1.00000e+00	1.00000e+00	1.00000e+00	1.00000e+00	1.00000e+00	1.00000e+00	1.00000e+00	1.00000e+00	1.00000e+00	1.00000e+00	1.00000e+00	1.00000e+00	1.00000e+00	1.00000e+00	1.00000e+00	1.00000e+00	1.00000e+00	1.00000e+00	1.00000e+00	1.00000e+00	1.00000e+00	1.00000e+00	1.00000e+00	1.00000e+00	1.00000e+00	1.00000e+00	1.00000e+00	X	X	X	X	X	X	X	X	X	X	X	X	X	X	X	X	

B = Detector Channel
Val Type	B-AC1	B-AC2	B-AC3	B-AC4	B-AC5	B-AC6	B-AC7	B-AC8	B-AC9	B-AC10	B-AC11	B-AC12	B-AC13	B-AC14	B-AC15	B-AC16	B-DC1	B-DC2	B-DC3	B-DC4	B-DC5	B-DC6	B-DC7	B-DC8	B-DC9	B-DC10	B-DC11	B-DC12	B-DC13	B-DC14	B-DC15	B-DC16	B-Ph1	B-Ph2	B-Ph3	B-Ph4	B-Ph5	B-Ph6	B-Ph7	B-Ph8	B-Ph9	B-Ph10	B-Ph11	B-Ph12	B-Ph13	B-Ph14	B-Ph15	B-Ph16	

Term	0.00000e+00	0.00000e+00	0.00000e+00	0.00000e+00	0.00000e+00	0.00000e+00	0.00000e+00	0.00000e+00	0.00000e+00	0.00000e+00	0.00000e+00	0.00000e+00	0.00000e+00	0.00000e+00	0.00000e+00	0.00000e+00	0.00000e+00	0.00000e+00	0.00000e+00	0.00000e+00	0.00000e+00	0.00000e+00	0.00000e+00	0.00000e+00	0.00000e+00	0.00000e+00	0.00000e+00	0.00000e+00	0.00000e+00	0.00000e+00	0.00000e+00	0.00000e+00	-2.52595e+02	-1.26487e+02	-1.31810e+02	-1.83580e+02	-9.53217e+01	-7.04341e+01	-1.58163e+02	-1.62015e+02	-9.38048e+01	-7.07157e+01	-1.70649e+02	-1.71149e+02	-1.78736e+02	-1.76810e+02	-6.95905e+01	-1.49929e+02	
Factor	6.57577e-05	1.42588e-04	3.98813e-05	1.59387e-01	2.26321e-06	1.63867e-06	1.78960e-01	5.86508e-02	1.89516e-06	1.75252e-06	9.77644e-02	3.36656e-02	3.08182e-02	1.06301e-02	1.65800e-06	1.51188e-02	3.52109e-06	3.79331e-06	1.05871e-06	7.47961e-02	4.09069e-08	4.16821e-08	7.88279e-02	2.75229e-02	4.08750e-08	4.15652e-08	4.44068e-02	1.52238e-02	1.45320e-02	5.00993e-03	4.13229e-08	6.90354e-03	X	X	X	X	X	X	X	X	X	X	X	X	X	X	X	X	



#DISTANCE SETTINGS
A = Detector Channel
A-1	A-2	A-3	A-4	A-5	A-6	A-7	A-8	A-9	A-10	A-11	A-12	A-13	A-14	A-15	A-16	

2.5000e+00	3.0000e+00	2.5000e+00	3.0000e+00	2.0000e+00	3.0000e+00	1.5000e+00	3.0000e+00	3.0000e+00	3.0000e+00	3.0000e+00	3.0000e+00	3.0000e+00	3.0000e+00	1.5000e+00	3.0000e+00	

B = Detector Channel
B-1	B-2	B-3	B-4	B-5	B-6	B-7	B-8	B-9	B-10	B-11	B-12	B-13	B-14	B-15	B-16	

1.0000e+01	1.0000e+01	1.0000e+01	1.4400e+00	1.0000e+01	1.0000e+01	1.5100e+00	1.9400e+00	1.0000e+01	1.0000e+01	1.9900e+00	2.4900e+00	2.4100e+00	2.9000e+00	1.0000e+01	2.9800e+00	




#DATA BEGINS
time	group	step	mark	flag	A-AC1	A-AC2	A-AC3	A-AC4	A-AC5	A-AC6	A-AC7	A-AC8	A-AC9	A-AC10	A-AC11	A-AC12	A-AC13	A-AC14	A-AC15	A-AC16	A-DC1	A-DC2	A-DC3	A-DC4	A-DC5	A-DC6	A-DC7	A-DC8	A-DC9	A-DC10	A-DC11	A-DC12	A-DC13	A-DC14	A-DC15	A-DC16	A-Ph1	A-Ph2	A-Ph3	A-Ph4	A-Ph5	A-Ph6	A-Ph7	A-Ph8	A-Ph9	A-Ph10	A-Ph11	A-Ph12	A-Ph13	A-Ph14	A-Ph15	A-Ph16	B-AC1	B-AC2	B-AC3	B-AC4	B-AC5	B-AC6	B-AC7	B-AC8	B-AC9	B-AC10	B-AC11	B-AC12	B-AC13	B-AC14	B-AC15	B-AC16	B-DC1	B-DC2	B-DC3	B-DC4	B-DC5	B-DC6	B-DC7	B-DC8	B-DC9	B-DC10	B-DC11	B-DC12	B-DC13	B-DC14	B-DC15	B-DC16	B-Ph1	B-Ph2	B-Ph3	B-Ph4	B-Ph5	B-Ph6	B-Ph7	B-Ph8	B-Ph9	B-Ph10	B-Ph11	B-Ph12	B-Ph13	B-Ph14	B-Ph15	B-Ph16	aux-1	digaux	

52895.234	1	1	0	256	0.20744	0.13379	0.14662	0.092478	0.24159	0.10583	0.062256	0.36033	0.1315	0.041411	0.16608	0.16143	0.36422	0.21562	0.090673	0.31114	-4.6979	-4.0229	-4.6167	-4.5917	-4.0417	-5.1417	-4.3229	-4.4625	-5.0458	-4.0167	-4.8	-4.7479	-4.2021	-5.1875	-4.3208	-4.3938	106.141	-60.735	232.060	272.831	30.369	-10.331	69.485	213.430	7.223	-72.770	-72.972	205.330	252.638	134.737	185.117	157.925	0.00079652	0.00055189	0.00012495	557.87	3.6628e-06	4.7144e-06	737.59	188.92	2.0697e-06	5.5837e-06	294.65	131.98	74.811	35.045	3.7391e-06	70.405	0.00018304	0.00013907	3.9241e-05	574.44	1.5362e-06	1.5064e-06	760.06	195.13	1.5238e-06	1.5412e-06	305.33	137.56	78.114	36.625	1.5539e-06	73.193	48.546	-0.055	19.117	-67.055	42.489	56.019	-67.465	-61.945	33.647	55.348	-62.418	-56.962	-56.494	-50.880	73.627	-52.456	-8191	255	
52895.328	1	1	0	0	0.14882	0.044029	0.061499	0.23021	0.13206	0.19658	0.19286	0.026987	0.12392	0.13339	0.11161	0.17448	0.062111	0.2549	0.2372	0.15791	-4.6417	-4.075	-4.6646	-4.875	-3.9854	-5.0813	-4.3521	-4.2771	-4.8958	-3.9958	-4.7375	-4.725	-4.0979	-5.0125	-4.3562	-4.2438	258.667	117.879	252.035	113.578	77.656	42.975	224.406	52.557	-66.878	255.174	254.651	-30.529	220.189	-44.496	32.864	186.653	0.00081725	0.00031624	0.00013468	556.74	3.6555e-06	4.4988e-06	737.79	187.56	1.029e-06	3.9465e-06	294.94	131.99	74.307	34.764	2.8477e-06	69.887	0.00018356	0.00014174	3.9236e-05	573.46	1.5101e-06	1.4734e-06	758	193.98	1.4802e-06	1.5435e-06	304.93	137.25	77.762	36.294	1.555e-06	72.754	52.666	24.183	17.839	-67.445	50.971	65.019	-67.378	-61.647	39.496	49.213	-62.050	-56.892	-56.378	-50.892	42.837	-52.674	-8191	255	
52895.426	1	1	0	0	0.11948	0.091808	0.11396	0.089339	0.14381	0.15666	0.20206	0.053932	0.34118	0.11661	0.082344	0.15965	0.28556	0.19298	0.058352	0.17126	-4.6104	-4.0437	-4.375	-5.0104	-3.9396	-5.0333	-4.6229	-4.3313	-5.075	-4.2792	-4.6479	-4.8375	-4.2	-4.9875	-4.6396	-4.2104	123.582	-16.882	202.604	228.783	161.449	-48.092	205.260	202.153	-58.661	55.010	221.279	251.092	54.246	3.963	43.678	211.765	0.00086921	0.00051835	4.4922e-05	553.98	3.2821e-06	4.7254e-06	732.32	186.6	2.6058e-06	6.138e-06	293.05	131.3	74.53	34.527	3.1713e-06	68.854	0.00018396	0.00013819	3.7159e-05	570.29	1.5118e-06	1.4564e-06	753.89	193.11	1.5138e-06	1.4973e-06	302.93	136.08	77.278	36.04	1.5081e-06	72.016	53.832	-3.047	14.921	-67.324	46.307	45.878	-67.381	-62.020	36.728	59.233	-61.989	-56.978	-56.265	-50.998	95.741	-52.742	-8191	255	
52895.523	1	1	0	0	0.18477	0.059874	0.1403	0.19908	0.086923	0.21931	0.16469	0.2234	0.14101	0.22344	0.18085	0.17162	0.19695	0.14897	0.31471	0.092677	-4.6583	-4.2562	-4.3896	-4.9583	-4.0729	-4.6708	-4.8271	-4.1479	-4.8333	-4.1083	-4.5083	-4.9062	-3.8896	-4.7729	-4.5813	-4.2396	-36.312	-74.254	263.535	-78.150	114.216	-19.617	236.428	215.395	200.551	84.870	-15.027	-16.795	-71.388	-61.198	231.300	154.576	0.00088141	0.00038772	9.3949e-05	552.82	2.9306e-06	4.1826e-06	726.27	185.28	2.8909e-06	4.1888e-06	291.32	130.11	73.875	34.243	3.3876e-06	68.81	0.00018574	0.00013667	3.8032e-05	568.73	1.545e-06	1.5055e-06	752.25	192.68	1.5465e-06	1.4973e-06	301.99	135.45	76.958	35.836	1.4912e-06	71.912	51.162	7.625	34.526	-67.368	4.493	79.063	-67.335	-61.633	48.267	80.127	-61.929	-57.099	-56.345	-50.824	69.856	-52.606	-8191	255	
52895.617	1	1	0	0	0.17931	0.045981	0.11456	0.28698	0.09216	0.20609	0.15201	0.047029	0.050107	0.22634	0.20709	0.14633	0.066339	0.1465	0.31838	0.051113	-4.5729	-4.2167	-4.1292	-5.0771	-4.0188	-4.5396	-4.8792	-4.0271	-4.9125	-4.3938	-4.3896	-5.1354	-4.1271	-4.5354	-4.8417	-4.1333	166.905	79.375	85.568	259.960	270.142	111.661	171.243	-73.331	267.725	54.682	18.021	95.938	41.976	215.855	63.175	244.677	0.00084363	0.00060618	0.00013356	551.83	3.7301e-06	4.2262e-06	731.78	187.47	2.2808e-06	4.6082e-06	292.44	130.5	74.146	34.316	3.9721e-06	69.287	0.00018516	0.00014044	3.8482e-05	569.43	1.5727e-06	1.5334e-06	753.56	193.29	1.5126e-06	1.4911e-06	302.45	135.85	77.278	35.933	1.4825e-06	72.179	54.720	1.662	10.379	-67.081	65.141	64.034	-67.309	-62.018	57.475	55.857	-62.057	-57.286	-56.507	-50.898	81.845	-52.842	-8191	255	
52895.738	1	1	0	0	0.20335	0.15822	0.18196	0.23441	0.082409	0.10823	0.13821	0.12106	0.038959	0.058489	0.20531	0.38726	0.10926	0.057794	0.21655	0.17532	-4.7771	-4.6146	-4.2667	-5.0354	-4.2292	-4.5917	-5.0542	-4.0708	-4.9437	-4.5896	-4.3021	-5.1708	-4.3479	-4.4083	-4.85	-4.0938	5.009	182.822	1.618	-78.478	271.906	84.260	-51.519	10.209	102.178	132.062	242.518	55.597	-67.087	43.341	113.727	-67.030	0.00088652	0.00043584	9.8252e-05	554.96	5.4049e-06	3.2548e-06	732.42	186.99	3.0902e-06	3.3036e-06	294.21	131.21	74.258	34.532	3.9013e-06	69.946	0.00018609	0.0001364	3.7875e-05	570.87	1.5556e-06	1.4368e-06	753.97	193.47	1.5532e-06	1.4705e-06	303.85	136.45	77.56	36.166	1.5339e-06	72.826	50.841	26.545	1.317	-67.311	76.039	71.141	-67.513	-61.777	25.127	88.422	-62.274	-56.962	-56.336	-50.859	64.476	-52.545	-8191	255	
52895.836	1	1	0	0	0.064343	0.11602	0.142	0.0058924	0.34853	0.11482	0.1379	0.17997	0.16507	0.050841	0.10431	0.029084	0.21206	0.12387	0.055497	0.16801	-4.4625	-4.7	-4.2125	-5.1229	-4.3042	-4.3479	-5.2354	-4.0271	-4.5083	-4.6917	-4.1813	-5.0938	-4.4563	-4.3187	-4.9167	-4.1854	-26.178	-76.157	-1.258	237.509	134.729	186.151	125.269	219.474	-24.301	20.521	210.578	223.857	72.774	-4.116	94.905	185.676	0.00086209	0.00035563	0.00011827	553.49	4.1579e-06	5.4217e-06	731.74	187.63	2.6764e-06	5.6306e-06	293.16	131.07	73.866	34.397	3.2187e-06	68.765	0.00018396	0.00013356	3.8555e-05	571.18	1.5297e-06	1.5038e-06	755.23	193.72	1.5347e-06	1.4219e-06	302.98	136	77.202	36.026	1.5434e-06	72.072	54.366	-0.816	-1.652	-67.256	32.552	74.700	-67.579	-61.562	36.553	75.242	-61.947	-57.009	-56.376	-50.654	85.140	-52.518	-8191	255	
52895.930	1	1	0	0	0.17372	0.10161	0.16755	0.12994	0.017348	0.094922	0.18638	0.25127	0.010168	0.070644	0.038472	0.1906	0.19449	0.23674	0.24663	0.17563	-4.5104	-4.9667	-4.0458	-5.05	-4.4583	-4.4104	-5.2542	-4.2875	-4.4729	-4.8271	-4.0375	-4.9625	-4.5021	-4.2958	-5.0854	-4.2542	-45.947	120.992	278.509	240.206	183.374	29.419	209.584	118.621	177.855	269.130	122.415	236.456	164.044	239.630	8.875	184.301	0.00086672	0.00044608	8.4237e-05	555.35	3.2682e-06	4.1477e-06	729.93	184.73	2.657e-06	3.6171e-06	293.62	130.75	74.377	34.387	2.4202e-06	68.964	0.00018378	0.00013571	3.9108e-05	569.52	1.5338e-06	1.4621e-06	752.35	192.58	1.4975e-06	1.4419e-06	302.68	135.64	77.203	35.94	1.5468e-06	71.969	52.562	18.019	18.361	-67.004	41.671	64.478	-67.440	-61.631	53.601	80.282	-62.144	-56.939	-56.534	-50.963	46.469	-52.477	-8191	255	
52896.027	1	1	0	0	0.13137	0.1389	0.08925	0.254	0.11045	0.071632	0.11371	0.071173	0.22595	0.10328	0.1391	0.075913	0.11105	0.066054	0.077013	0.049635	-4.3833	-5.0208	-4.1333	-4.8833	-4.5271	-4.1312	-5.1042	-4.3229	-4.45	-4.8458	-4.0146	-4.7688	-4.7146	-4.1542	-5.0875	-4.475	-3.977	275.061	17.614	202.913	189.796	152.402	8.337	262.447	62.389	174.958	31.034	202.913	246.812	33.014	164.173	180.043	0.00078915	0.00041986	0.00014749	552.63	6.2596e-06	3.9068e-06	731.92	186.22	5.4615e-06	2.5266e-06	294.21	130.93	73.758	34.145	3.283e-06	68.434	0.00018325	0.00013797	3.775e-05	569.38	1.4819e-06	1.521e-06	752.31	192.94	1.5363e-06	1.4454e-06	303.69	135.41	76.936	35.728	1.4987e-06	71.512	49.155	-20.728	-4.709	-67.479	37.249	59.557	-67.447	-61.497	61.331	49.994	-62.285	-56.813	-56.379	-50.642	58.194	-52.392	-8191	255	
52896.121	1	1	0	0	0.031448	0.23264	0.23143	0.1734	0.013577	0.11078	0.049785	0.13555	0.29129	0.058142	0.18082	0.29426	0.18668	0.35319	0.082695	0.23165	-4.1208	-4.9708	-4.0792	-4.7792	-4.7562	-4	-5.175	-4.4042	-4.3396	-4.9604	-4.1	-4.7312	-4.7896	-4.2854	-4.9583	-4.4021	-61.308	38.881	-42.469	175.412	-18.563	61.539	79.353	161.218	234.165	146.542	257.288	137.331	270.328	263.777	118.122	207.892	0.00088414	0.00050559	7.2526e-05	551.39	4.9487e-06	4.7807e-06	728.14	186.92	2.0363e-06	4.4339e-06	297.33	130.23	73.805	33.96	2.5005e-06	68.283	0.00018263	0.00013482	3.8936e-05	567.59	1.4658e-06	1.5072e-06	750.54	193.47	1.5376e-06	1.4632e-06	306.29	135.16	76.724	35.477	1.5013e-06	71.328	53.296	9.573	8.359	-67.378	51.152	60.364	-67.260	-61.898	47.358	93.130	-62.041	-57.144	-56.677	-50.669	95.617	-52.498	-8191	255	
52896.219	1	1	0	0	0.10908	0.1071	0.078961	0.0096255	0.14493	0.080763	0.13086	0.23632	0.43154	0.1716	0.13619	0.12117	0.17553	0.079905	0.19451	0.28998	-4.1979	-5.1458	-4.0375	-4.6792	-4.7312	-3.8896	-5.0813	-4.6104	-4.1792	-5.0062	-4.2167	-4.6583	-5.025	-4.0104	-4.9333	-4.5833	-28.376	-67.121	78.469	-66.985	113.898	73.859	217.717	257.126	142.422	-55.524	-74.899	192.936	141.729	117.614	154.651	185.202	0.00090872	0.00053427	9.0105e-05	549.27	3.2574e-06	3.0914e-06	727.01	187.78	2.7193e-06	5.9369e-06	298.7	129.66	73.575	33.544	1.9609e-06	67.579	0.00018529	0.00013411	3.8392e-05	565.63	1.4261e-06	1.4932e-06	750.77	194.13	1.4828e-06	1.4552e-06	308.51	134.6	76.477	35.117	1.5071e-06	70.636	52.132	5.406	9.227	-67.219	42.252	92.225	-67.574	-61.483	33.627	73.758	-62.142	-57.174	-56.074	-50.694	74.135	-52.402	-8191	255	
52896.340	1	1	0	0	0.26454	0.21858	0.051087	0.095245	0.083381	0.22737	0.18599	0.17608	0.27308	0.10798	0.19807	0.15093	0.23261	0.046731	0.20917	0.055244	-3.8354	-5.0917	-4.2979	-4.5875	-4.9167	-4.0542	-4.9917	-4.7521	-4.1125	-5.1396	-4.525	-4.575	-5.1333	-4.0417	-4.7375	-4.9458	171.752	197.194	188.456	237.521	32.331	20.063	-29.964	245.131	83.452	94.512	96.891	-73.070	204.814	258.766	197.302	-12.990	0.00080596	0.00029528	8.9541e-05	550.23	7.9795e-06	2.7064e-06	729.45	188.19	6.5693e-06	5.4459e-06	297.17	129.09	72.724	33.626	1.1948e-06	67.535	0.00018235	0.00013417	3.8001e-05	565.02	1.4803e-06	1.4717e-06	749.31	194.78	1.5186e-06	1.437e-06	309.51	134.4	76.262	35.049	1.5042e-06	70.302	52.979	-4.424	-2.247	-67.292	60.729	120.765	-67.550	-61.740	41.074	88.006	-61.951	-56.978	-56.501	-50.571	106.202	-52.315	-8191	255	
52896.434	1	1	0	0	0.30408	0.032779	0.10077	0.21318	0.071278	0.03416	0.081103	0.068992	0.17568	0.11101	0.045473	0.31306	0.10207	0.14544	0.167	0.17147	-3.7396	-5.0938	-4.2708	-4.4271	-5.0896	-4.125	-4.8354	-4.825	-4.1479	-5.2312	-4.5687	-4.4396	-5.0646	-4.1813	-4.7479	-4.9375	98.917	-45.669	119.942	240.806	-9.652	173.049	14.711	125.038	271.800	-27.008	-64.299	-54.455	121.778	152.250	85.244	66.557	0.00079448	0.00042698	8.357e-05	549.56	4.4611e-06	1.7243e-06	726.39	189.42	4.2394e-06	5.0198e-06	300.42	129.5	73.729	33.432	4.5951e-06	67.496	0.00018663	0.00013465	3.7792e-05	564.44	1.4733e-06	1.4835e-06	748.99	195.48	1.4527e-06	1.4754e-06	310.34	134.3	76.414	35.022	1.4782e-06	70.384	51.508	15.170	-13.059	-67.372	19.295	93.178	-67.513	-61.496	30.537	75.560	-61.948	-57.175	-56.387	-50.701	59.630	-52.335	-8191	255	
52896.508	1	1	0	0	0.06801	0.17171	0.25479	0.11178	0.14174	0.22876	0.14892	0.15422	0.18702	0.049253	0.066142	0.1406	0.066137	0.23547	0.065388	0.2231	-3.6125	-4.8604	-4.4625	-4.2229	-4.9208	-4.1458	-4.6125	-5.0708	-3.9396	-4.8938	-4.6792	-4.2646	-5.1771	-4.3229	-4.4396	-5.0625	235.367	-5.105	-66.045	-70.574	224.493	-13.766	229.392	277.946	-72.228	-29.856	182.747	257.275	243.932	232.398	230.027	222.505	0.00081363	0.00029482	0.00012922	547.9	3.3184e-06	3.0628e-06	727.19	188.62	4.3713e-06	1.8104e-06	300.91	130.06	73.442	33.516	3.9768e-06	67.678	0.00018172	0.00013499	3.6561e-05	565.15	1.4768e-06	1.4694e-06	751.07	195.45	1.5027e-06	1.465e-06	311.22	134.48	76.511	35.106	1.4946e-06	70.629	50.975	14.634	16.525	-67.542	59.221	70.642	-67.605	-61.562	35.903	71.895	-61.861	-56.901	-56.430	-50.729	63.679	-52.414	-8191	255	
52896.629	1	1	0	0	0.20109	0.24273	0.16463	0.072123	0.15996	0.074815	0.12431	0.21037	0.10971	0.11574	0.076204	0.16934	0.12252	0.34954	0.13883	0.10492	-3.6958	-4.7479	-4.5938	-4.2229	-4.9604	-4.2458	-4.5687	-5.0625	-4.0938	-4.9396	-4.8979	-4.2667	-5.125	-4.4083	-4.3125	-5.1208	194.489	176.535	138.976	-32.310	122.744	205.125	270.482	-30.599	133.686	-30.384	225.959	237.714	-51.418	195.001	-77.373	196.832	0.00081795	0.00048351	0.00014167	552.13	3.3341e-06	3.7218e-06	727.08	189.31	2.4265e-06	6.2628e-06	303.44	128.98	73.375	33.378	3.8253e-06	67.53	0.00018197	0.00013465	3.739e-05	565.81	1.494e-06	1.4927e-06	750.7	196.18	1.5428e-06	1.4283e-06	313.43	134.25	76.554	34.963	1.4982e-06	70.486	52.284	26.759	36.935	-67.241	43.726	44.219	-67.457	-61.528	-0.187	85.962	-61.885	-57.220	-56.383	-50.397	71.990	-52.458	-8191	255	
52896.723	1	1	0	0	0.04327	0.2976	0.19203	0.17223	0.10181	0.12435	0.11093	0.11759	0.063617	0.18193	0.055803	0.40291	0.34777	0.19676	0.29364	0.1041	-3.8104	-4.7208	-4.775	-4.1854	-5.1604	-4.5146	-4.4167	-5.1604	-4.2542	-4.6062	-4.9396	-4.2354	-5.0938	-4.6813	-4.2562	-5.2396	105.241	-49.171	267.458	147.633	-26.909	137.545	171.571	-11.656	93.121	268.641	-6.123	230.005	243.855	-62.430	11.211	-59.324	0.00079965	0.00033617	0.00013887	548.36	4.4559e-06	4.371e-06	725.85	190.4	6.1382e-06	1.5947e-06	303.47	128.71	73.055	33.231	3.9517e-06	67.147	0.00018375	0.00013586	3.7304e-05	566.27	1.4475e-06	1.4656e-06	749.01	196.83	1.5192e-06	1.453e-06	313.5	133.82	76.239	34.822	1.514e-06	69.953	51.965	22.886	-4.112	-67.267	56.505	62.349	-67.433	-61.734	39.392	96.328	-62.258	-57.029	-56.177	-50.926	85.329	-52.343	-8191	255	
52896.820	1	1	0	0	0.10775	0.05327	0.14957	0.062845	0.084892	0.14914	0.18019	0.23281	0.11629	0.13701	0.12351	0.11744	0.31768	0.17027	0.14107	0.15633	-3.8521	-4.5521	-4.8771	-4.0458	-4.9854	-4.7771	-4.3042	-5.0938	-4.1521	-4.4583	-5.1104	-3.9979	-4.9479	-4.8562	-3.9979	-5.0833	192.074	-60.451	77.272	162.049	211.032	142.494	252.144	266.888	252.240	-60.860	215.805	250.033	16.740	253.220	173.972	277.648	0.0008561	0.00040299	8.6843e-05	550.4	5.5309e-06	3.8911e-06	724.49	190.59	5.0303e-06	3.8117e-06	306.2	128.15	72.739	32.898	3.6029e-06	66.716	0.00017986	0.00013178	3.5943e-05	564.86	1.4645e-06	1.49e-06	747.68	197.14	1.4777e-06	1.4181e-06	315.45	133.08	75.743	34.431	1.5034e-06	69.552	48.018	8.049	-10.059	-67.169	28.420	52.868	-67.699	-61.688	22.261	50.339	-62.047	-56.817	-56.173	-50.831	54.618	-52.468	-8191	255	
52896.914	1	1	0	0	0.17853	0.043216	0.28839	0.21692	0.10346	0.10806	0.18384	0.028325	0.14487	0.14967	0.05231	0.1624	0.07832	0.13712	0.20982	0.2483	-3.9813	-4.425	-4.85	-4.2021	-4.7104	-4.8167	-4.1875	-5.0771	-4.3479	-4.3667	-5.25	-4.175	-4.8229	-4.8438	-4.0875	-5.0708	132.081	157.846	64.009	-24.912	146.099	39.346	162.175	68.035	-40.930	91.388	-48.676	257.422	201.699	189.019	165.291	262.030	0.00079248	0.00023824	0.00011748	545.22	5.4117e-06	2.5253e-06	722.4	190.14	2.8724e-06	4.1106e-06	306.96	127.64	71.876	32.756	3.0017e-06	66.579	0.00018035	0.00013593	3.6005e-05	563.24	1.4311e-06	1.4256e-06	746.23	197.36	1.4461e-06	1.4098e-06	316.76	132.64	75.215	34.392	1.4696e-06	69.5	48.011	31.595	10.644	-67.585	58.875	94.043	-67.352	-61.678	52.850	84.132	-61.959	-57.092	-56.359	-50.561	45.855	-52.445	-8191	255	
52897.035	1	1	0	0	0.059056	0.31179	0.082935	0.22601	0.23699	0.18264	0.17385	0.20704	0.10864	0.08156	0.08919	0.24344	0.15749	0.15235	0.058645	0.036607	-4.2146	-4.3146	-4.9646	-4.3187	-4.7271	-4.8271	-4.2125	-5.0042	-4.4313	-4.2458	-5.1333	-4.2688	-4.5021	-4.9542	-3.8875	-4.95	98.813	-23.417	-57.918	-43.863	82.761	-15.023	233.841	212.899	245.025	102.428	231.010	237.148	127.807	-4.427	245.564	165.964	0.00076966	0.00046974	0.00011479	547.63	5.697e-06	4.5687e-06	726.71	191.01	2.4089e-06	4.8263e-06	306.95	128.71	72.12	32.989	3.1201e-06	66.912	0.00017578	0.00013526	3.7342e-05	565.14	1.4628e-06	1.4388e-06	747.84	198.25	1.467e-06	1.4336e-06	318.33	133.35	75.612	34.577	1.4655e-06	69.881	50.783	-15.653	7.251	-67.187	29.269	83.579	-67.144	-61.425	40.751	58.802	-61.761	-56.886	-56.095	-50.539	63.302	-52.332	-8191	255	
52897.109	1	1	0	0	0.19715	0.20457	0.24999	0.17791	0.061416	0.17462	0.1266	0.22607	0.039	0.19198	0.24881	0.060848	0.18394	0.16211	0.092255	0.1336	-4.3187	-4.1208	-5.0604	-4.325	-4.4375	-4.9854	-4.2896	-5.0437	-4.4833	-4.1896	-4.9708	-4.4396	-4.3583	-5.1354	-3.9958	-4.8542	70.653	234.593	32.317	187.676	-75.805	115.085	239.058	219.200	63.047	-32.700	249.624	86.745	148.815	107.206	131.877	259.921	0.00081659	0.00039642	6.8079e-05	547.5	4.0093e-06	3.5873e-06	726.24	191.97	3.3199e-06	6.6815e-06	306.76	127.58	72.74	32.843	3.6563e-06	66.768	0.00018369	0.00013289	3.677e-05	565.33	1.4743e-06	1.4691e-06	749.37	198.32	1.4633e-06	1.5216e-06	317.73	132.8	75.796	34.414	1.5056e-06	69.439	51.891	24.287	44.740	-67.284	30.858	97.108	-67.493	-61.578	50.293	60.050	-62.106	-56.918	-56.397	-50.553	109.740	-52.529	-8191	255	
52897.203	1	1	0	0	0.15608	0.015932	0.097816	0.086233	0.017788	0.20451	0.010726	0.1109	0.077244	0.062598	0.2303	0.14591	0.26557	0.20994	0.1144	0.31339	-4.5792	-4.1188	-4.9958	-4.4229	-4.1833	-5.1542	-4.2771	-4.6917	-4.7937	-4.075	-5.2021	-4.7396	-4.5646	-5.0417	-4.0167	-4.5792	257.357	143.831	-54.707	235.314	5.433	87.422	168.903	-67.622	101.796	-35.021	258.812	177.381	-73.266	-75.620	24.781	223.156	0.00088627	0.0004386	8.0766e-05	550.27	4.6523e-06	4.1994e-06	723.95	190.97	3.4865e-06	5.5971e-06	307.85	127.72	71.782	32.654	3.6526e-06	65.94	0.0001785	0.00014057	3.8277e-05	565.24	1.5025e-06	1.4549e-06	747.29	198.74	1.4717e-06	1.486e-06	318.23	132.14	75.153	34.28	1.5172e-06	68.823	57.930	0.151	18.502	-67.163	71.131	66.496	-67.523	-61.427	-11.275	100.042	-62.292	-56.917	-56.440	-50.727	72.520	-52.309	-8191	255	
52897.301	1	1	0	0	0.16761	0.14167	0.038588	0.11958	0.077551	0.14024	0.23458	0.17275	0.18043	0.078058	0.3206	0.11621	0.049832	0.22021	0.15342	0.24551	-4.5813	-3.9688	-4.8875	-4.4938	-4.1708	-5.0938	-4.2458	-4.6167	-4.8	-4.0958	-5.0667	-4.5542	-4.1229	-5.15	-4.2771	-4.4833	-65.756	252.483	92.820	149.784	14.482	193.953	195.854	107.571	148.765	223.149	221.617	146.487	86.335	208.137	37.148	143.401	0.00078823	0.00044689	0.00012518	547.46	6.0122e-06	3.8579e-06	724.66	191.58	2.6337e-06	3.3542e-06	309.27	127.46	71.977	32.445	4.7656e-06	66.067	0.0001809	0.00013508	3.711e-05	563.75	1.5182e-06	1.4762e-06	747.46	198.9	1.4595e-06	1.4539e-06	319.68	132.17	75.084	34.16	1.5166e-06	68.885	54.842	3.411	32.790	-67.147	40.516	64.133	-67.121	-61.449	-1.026	79.043	-62.028	-57.001	-56.506	-50.282	73.776	-52.277	-8191	255	
52897.418	1	1	0	0	0.093957	0.15426	0.076652	0.21612	0.13253	0.14057	0.26198	0.20338	0.1574	0.033481	0.07101	0.084227	0.13224	0.18787	0.15697	0.31843	-4.6458	-3.9854	-4.6833	-4.7063	-3.95	-5.0667	-4.35	-4.3833	-4.8542	-4.0229	-4.9062	-4.6333	-4.1188	-5.0021	-4.2354	-4.4542	261.524	-11.485	-18.544	245.883	-3.762	279.478	141.551	243.148	184.075	122.631	-39.595	3.513	-60.734	280.258	126.510	232.195	0.00074753	0.00035409	0.00012703	546.19	3.3264e-06	3.4941e-06	724.68	192.25	2.707e-06	2.1245e-06	311.99	126.42	71.297	32.238	2.6917e-06	65.63	0.00017596	0.00013688	3.6342e-05	562.57	1.4786e-06	1.4067e-06	747.19	199.35	1.4701e-06	1.437e-06	321.35	131.29	74.549	33.77	1.4756e-06	68.572	51.007	31.721	3.667	-67.394	90.209	59.747	-67.413	-61.519	33.255	69.879	-62.055	-56.828	-56.231	-50.440	46.058	-52.230	-8191	255	
52897.516	1	1	0	0	0.29241	0.12058	0.26871	0.083856	0.08009	0.1746	0.13595	0.15671	0.07018	0.1447	0.16128	0.21855	0.096065	0.22967	0.14889	0.14498	-4.6396	-4.1125	-4.9146	-4.9062	-4.1312	-5.1438	-4.4771	-4.4333	-5.0354	-4.1333	-4.8979	-5.0687	-4.1604	-4.9375	-4.5396	-4.2708	201.028	215.818	106.809	142.757	182.460	-76.700	-77.798	-60.669	64.518	202.836	137.028	-63.163	-26.823	-76.041	35.679	226.434	0.00078714	0.00034678	1.2786e-05	547.24	4.5613e-06	2.5524e-06	722.94	193.18	4.854e-06	3.7437e-06	313.17	127.1	71.987	32.398	3.8414e-06	65.862	0.00017655	0.00013316	3.6762e-05	563.49	1.4643e-06	1.4161e-06	747.61	200.48	1.4645e-06	1.4152e-06	322.19	131.91	74.853	33.956	1.4752e-06	68.629	56.988	20.421	98.622	-67.475	14.326	69.429	-67.436	-61.438	42.239	57.851	-61.957	-56.780	-56.465	-50.469	70.563	-52.468	-8191	255	
52897.609	1	1	0	0	0.079244	0.068823	0.26907	0.065844	0.33769	0.15474	0.2547	0.16307	0.30096	0.063473	0.13082	0.14535	0.21787	0.04963	0.2043	0.072769	-4.8896	-4.3104	-4.4146	-5.0229	-4.1125	-4.9167	-4.6604	-4.4479	-5.0375	-4.1583	-4.5312	-5.0312	-4.1188	-4.6729	-4.6354	-4.4313	141.621	120.108	271.505	154.511	-51.166	269.113	174.806	-66.816	134.236	188.927	-58.453	186.766	172.598	31.279	54.089	268.284	0.00086938	0.00021634	0.00012023	548.36	5.7069e-06	3.4285e-06	723.72	193.51	2.9703e-06	5.2336e-06	309.86	126.35	71.564	32.244	2.9645e-06	65.254	0.00017737	0.00012617	3.7831e-05	565.39	1.4819e-06	1.4403e-06	746.5	200.35	1.4781e-06	1.4511e-06	321.16	131.38	74.739	33.807	1.4642e-06	68.158	52.324	7.014	0.256	-67.100	38.320	42.039	-67.287	-61.693	25.574	92.286	-61.921	-56.964	-56.199	-50.504	84.890	-52.214	-8191	255	
52897.730	1	1	0	0	0.13701	0.25256	0.15352	0.088006	0.064739	0.11898	0.065791	0.17646	0.12856	0.028744	0.30595	0.10757	0.05562	0.052772	0.11753	0.23027	-4.6417	-4.3	-4.5375	-4.975	-4.0833	-4.7729	-4.8417	-4.175	-5.1854	-4.3479	-4.5917	-5.1583	-4.1208	-4.8688	-4.8146	-4.2562	272.169	19.670	152.232	260.685	-16.478	141.984	250.620	259.591	249.631	15.184	-74.522	-51.533	260.673	57.073	259.721	259.954	0.00081467	0.00043638	9.3e-05	548.25	6.1111e-06	3.4842e-06	720.62	193.66	3.1564e-06	3.2873e-06	311.47	126.55	71.287	32.095	4.9566e-06	65.219	0.00017497	0.00013363	3.5879e-05	563.82	1.4894e-06	1.4636e-06	746.25	200.58	1.4642e-06	1.3978e-06	321.68	131.25	74.519	33.715	1.4725e-06	68.066	53.550	9.769	5.506	-67.275	65.068	62.318	-67.411	-61.609	32.360	69.640	-62.146	-56.936	-56.135	-50.710	68.424	-52.380	-8191	255	
52897.805	1	1	0	0	0.29757	0.09436	0.19034	0.17331	0.17952	0.20468	0.080034	0.11907	0.20283	0.098494	0.20031	0.2656	0.049713	0.13093	0.088878	0.13318	-4.6458	-4.4292	-4.3562	-5.1042	-4.2542	-4.5979	-4.8604	-4.0625	-4.9042	-4.6562	-4.4979	-5.1583	-4.1396	-4.6292	-4.8354	-4.2188	-35.755	82.482	61.196	180.597	25.453	65.930	178.147	261.071	20.663	259.390	34.780	253.904	196.081	251.722	33.202	166.677	0.00080558	0.00041968	7.6445e-05	547.88	2.9916e-06	3.9453e-06	724.14	193.89	1.8173e-06	4.8715e-06	311.22	125.46	70.77	31.859	1.7311e-06	64.639	0.00017524	0.00013361	3.6938e-05	563.89	1.4465e-06	1.4221e-06	746.48	200.3	1.4887e-06	1.442e-06	321.36	130.26	73.796	33.412	1.5117e-06	67.552	52.690	21.642	27.037	-67.230	80.214	79.274	-67.369	-61.619	41.113	36.114	-62.282	-56.894	-56.374	-50.465	118.834	-52.202	-8191	255	
52897.898	1	1	0	0	0.17937	0.2068	0.17954	0.042997	0.030129	0.045245	0.046248	0.070242	0.1762	0.21951	0.20604	0.092865	0.057426	0.18497	0.15495	0.23474	-4.5708	-4.5542	-4.2021	-5.2125	-4.0083	-4.4292	-5.1708	-3.9854	-4.8417	-4.5729	-4.2708	-5.075	-4.2438	-4.4688	-4.8063	-4.0333	253.095	84.656	232.465	172.820	110.806	-49.522	270.746	211.746	153.539	57.641	259.717	264.292	190.434	140.433	-17.172	15.542	0.00075733	0.00045644	9.5596e-05	545.31	4.2089e-06	3.3167e-06	723.49	192.96	2.6109e-06	5.098e-06	312.65	125.08	70.597	31.827	2.4207e-06	64.862	0.00017875	0.00013612	3.674e-05	563.1	1.4714e-06	1.4527e-06	746.97	200.07	1.4753e-06	1.4585e-06	322.15	129.87	73.541	33.271	1.4516e-06	67.634	50.183	3.266	17.130	-67.479	53.691	62.102	-67.300	-61.660	15.252	41.351	-62.204	-56.783	-56.398	-50.563	118.027	-52.090	-8191	255	
52898.020	1	1	0	0	0.10924	0.1983	0.25132	0.067283	0.089709	0.14545	0.1622	0.22457	0.2105	0.18117	0.073941	0.29545	0.012984	0.052645	0.078444	0.14287	-4.5	-4.6062	-3.9375	-5.0687	-4.2063	-4.3562	-5.2146	-4.2208	-4.7375	-4.7583	-4.1521	-5.0604	-4.4354	-4.2979	-4.925	-4.3	17.457	-1.895	-8.323	167.312	99.785	187.767	-14.466	229.925	259.035	105.474	-25.071	221.610	51.830	24.106	18.220	215.678	0.00067245	0.00038562	6.4563e-05	547.24	5.6888e-06	2.644e-06	724.05	192.27	2.2246e-06	3.8479e-06	308.51	124.08	69.877	31.38	3.6387e-06	63.955	0.00017759	0.00013262	3.6973e-05	563.06	1.4962e-06	1.4815e-06	746.95	199.35	1.5045e-06	1.4289e-06	319.81	128.88	72.792	32.889	1.4266e-06	66.667	56.655	15.764	21.002	-67.270	48.239	65.169	-67.407	-61.603	24.883	44.715	-62.073	-56.906	-56.361	-50.491	44.031	-52.438	-8191	255	
52898.113	1	1	0	0	0.075983	0.092893	0.086605	0.22753	0.22561	0.11218	0.11217	0.2682	0.1984	0.13017	0.062673	0.1083	0.15325	0.22963	0.18785	0.2136	-4.2604	-4.8896	-3.9688	-5.0042	-4.3854	-4.1979	-5.1771	-4.3396	-4.5292	-4.7125	-4.1417	-4.85	-4.4979	-4.3604	-5.1292	-4.2792	28.873	88.994	246.553	246.082	171.698	220.409	190.320	257.444	263.407	42.588	171.858	1.142	38.634	88.637	-67.128	262.241	0.00078276	0.00027354	8.7971e-05	545.94	5.8685e-06	3.9145e-06	721.82	191.02	3.2532e-06	3.856e-06	308.21	123.02	69.257	31.145	4.8557e-06	63.48	0.00017581	0.00013395	3.6559e-05	561.68	1.4761e-06	1.446e-06	743.81	198.27	1.474e-06	1.4166e-06	318.18	127.77	72.468	32.648	1.4448e-06	66.174	53.334	25.035	54.889	-67.306	55.622	65.640	-67.135	-61.662	19.738	63.434	-61.800	-56.873	-56.025	-50.325	79.456	-52.317	-8191	255	
52898.211	1	1	0	0	0.46457	0.11627	0.10308	0.080441	0.087604	0.22906	0.27483	0.076843	0.14319	0.11307	0.267	0.16231	0.13796	0.21407	0.16798	0.12965	-4.0875	-4.8146	-4.0354	-4.9896	-4.4313	-4.1188	-5.1687	-4.4125	-4.2396	-4.95	-4.1771	-4.8063	-4.6458	-4.1917	-4.8771	-4.4417	35.668	152.978	59.436	-16.953	170.600	48.326	173.206	245.901	69.028	54.944	240.526	231.478	248.767	241.398	177.179	-50.772	0.00079383	0.00046228	0.00012284	546.62	3.8669e-06	4.0547e-06	720.63	190.67	3.5124e-06	4.4925e-06	307.72	122.59	69.37	31.131	2.8219e-06	63.366	0.00017848	0.00013047	3.6521e-05	560.96	1.4548e-06	1.4523e-06	742.48	197.52	1.4983e-06	1.4049e-06	316.69	127.78	72.089	32.533	1.4493e-06	66.079	49.113	21.254	26.001	-67.591	59.554	66.218	-67.347	-61.602	40.603	45.357	-62.044	-56.936	-56.179	-50.444	67.256	-51.891	-8191	255	
52898.332	1	1	0	0	0.041014	0.27253	0.029435	0.091947	0.22473	0.13024	0.078201	0.23795	0.03141	0.077928	0.21106	0.14308	0.068354	0.063321	0.23388	0.2203	-3.9583	-4.9521	-3.9938	-4.7729	-4.8313	-4.0021	-5.1083	-4.4875	-4.1771	-5.1167	-4.0813	-4.5938	-4.7271	-4.075	-4.9104	-4.6583	109.142	260.884	174.173	204.778	187.191	-47.646	196.770	275.613	46.013	195.946	121.501	58.766	-25.809	31.701	132.460	209.461	0.00077463	0.00014772	3.6498e-05	545.8	6.3375e-06	2.7826e-06	721.7	189.62	4.247e-06	3.625e-06	306.91	122.52	69.34	31.074	1.9332e-06	63.699	0.00017729	0.00013251	3.6704e-05	561.4	1.4632e-06	1.4245e-06	742.26	196.93	1.4914e-06	1.4109e-06	316.66	127.67	72.224	32.558	1.4479e-06	66.353	52.819	44.876	19.736	-67.415	59.697	85.218	-67.230	-61.548	30.935	43.773	-62.107	-57.017	-56.503	-50.605	94.851	-52.207	-8191	255	
52898.402	1	1	0	0	0.097007	0.072148	0.052933	0.032165	0.045346	0.07528	0.01959	0.30646	0.26773	0.05826	0.19539	0.091029	0.099685	0.18774	0.10608	0.098737	-3.8063	-4.9625	-4.2271	-4.5771	-4.9396	-4.0938	-5.0687	-4.5646	-4.1958	-5.1896	-4.2812	-4.5875	-5.0875	-4.2583	-4.8167	-4.7479	95.072	183.406	6.145	109.956	155.665	79.242	102.325	-78.599	190.623	158.416	192.418	-32.149	127.924	239.062	-6.867	243.275	0.00077193	0.00035759	0.00011273	544.56	5.286e-06	4.5595e-06	719.83	189.72	1.4382e-06	2.6427e-06	306.01	122.9	69.156	30.976	1.4503e-06	63.082	0.00017468	0.00012648	3.7423e-05	561.29	1.4394e-06	1.4466e-06	743.03	196.73	1.4586e-06	1.4211e-06	315.48	127.49	72.109	32.487	1.4106e-06	65.923	56.227	19.535	13.764	-67.326	56.370	71.057	-67.422	-61.453	73.246	36.658	-62.094	-57.147	-56.298	-50.345	98.828	-52.116	-8191	255	
52898.500	1	1	0	0	0.095897	0.2307	0.17991	0.19899	0.14187	0.16291	0.23115	0.23585	0.12056	0.28033	0.077226	0.3315	0.12427	0.1233	0.11981	0.12461	-3.8354	-5.0979	-4.2125	-4.5083	-5.1375	-3.9437	-4.9583	-4.6854	-4.1396	-4.9479	-4.2583	-4.4542	-4.9812	-4.1562	-4.6458	-4.8708	53.345	139.670	-1.315	110.076	259.773	182.993	223.037	215.744	172.585	86.012	278.978	250.597	85.593	-8.360	-33.423	90.140	0.00080254	0.00023951	8.3633e-05	542.31	5.4629e-06	2.8859e-06	718.01	188.9	2.8926e-06	3.3745e-06	302.76	122.7	69.165	30.902	1.8101e-06	62.634	0.00017371	0.00013001	3.6837e-05	559.59	1.442e-06	1.4336e-06	740.39	196.17	1.4623e-06	1.4102e-06	314.4	127.06	72.032	32.436	1.434e-06	65.602	50.430	-24.383	7.779	-67.154	59.925	87.918	-67.434	-61.510	9.539	80.906	-61.908	-57.211	-56.125	-50.433	102.209	-52.341	-8191	255	
52898.594	1	1	0	0	0.11315	0.21547	0.25737	0.27576	0.071474	0.07723	0.16001	0.18472	0.054691	0.096504	0.11623	0.20004	0.29325	0.19029	0.046731	0.16887	-3.7062	-4.8187	-4.225	-4.325	-5.0188	-4.0354	-4.6542	-4.825	-4.0563	-4.9792	-4.5625	-4.4917	-4.9313	-4.2417	-4.5167	-4.95	-14.867	219.015	165.144	274.508	66.480	3.148	-60.520	196.550	245.581	145.943	-39.526	224.525	265.115	98.204	86.933	153.708	0.00077249	0.00044989	0.00012324	543.64	2.6788e-06	1.9391e-06	719.1	189.74	4.2188e-06	5.6942e-06	305.44	121.79	68.827	30.969	3.5128e-06	62.798	0.00017203	0.00012806	3.6945e-05	558.85	1.448e-06	1.4431e-06	740.89	196.4	1.4698e-06	1.4141e-06	315.67	126.85	71.879	32.385	1.4491e-06	65.644	52.639	-4.531	13.779	-67.120	33.139	87.810	-67.209	-61.564	45.426	64.330	-62.064	-56.718	-55.911	-50.615	76.698	-52.029	-8191	255	
52898.715	1	1	0	0	0.064754	0.21854	0.087839	0.23837	0.22366	0.034889	0.066626	0.14095	0.15347	0.25481	0.1096	0.16716	0.079113	0.15463	0.22652	0.26254	-3.6229	-4.8646	-4.4917	-4.3313	-4.9354	-4.2521	-4.5208	-5.1208	-3.9146	-4.7375	-4.7438	-4.2875	-5.0188	-4.2646	-4.3438	-5.0229	-40.901	16.407	-75.431	194.108	203.134	-68.575	116.768	62.844	58.333	41.351	-64.594	265.581	8.698	53.779	-12.846	109.725	0.00078155	0.00025559	9.4288e-05	541.41	3.6005e-06	3.7912e-06	716.87	188.69	4.0161e-06	4.1837e-06	304.59	120.36	68.135	30.429	4.5142e-06	62.098	0.00017069	0.00013403	3.6949e-05	557.52	1.431e-06	1.44e-06	740.84	195.74	1.4563e-06	1.4579e-06	315.07	125.86	71.005	31.887	1.4788e-06	65.032	54.282	50.752	6.836	-67.316	40.078	74.817	-67.228	-61.310	54.334	60.326	-61.958	-57.042	-56.172	-50.504	51.419	-52.066	-8191	255	
52898.812	1	1	0	0	0.064713	0.1911	0.12675	0.1386	0.16658	0.14171	0.24199	0.13918	0.13878	0.01507	0.237	0.22219	0.16312	0.18615	0.17493	0.14748	-3.7229	-4.8104	-4.6937	-4.0875	-5.0375	-4.3625	-4.4167	-5.0229	-3.9062	-4.725	-4.8646	-4.0292	-5.0687	-4.4875	-4.2604	-5.125	157.630	39.709	109.221	168.976	151.858	77.499	145.497	143.766	237.012	-60.231	250.137	-49.780	246.728	258.949	-1.153	150.335	0.00073017	0.00028445	0.00011874	541.78	3.0725e-06	3.5833e-06	717	189.21	4.3745e-06	3.7343e-06	304.72	121.11	68.362	30.474	3.4547e-06	62.553	0.00017404	0.00013365	3.7227e-05	557.8	1.4681e-06	1.4913e-06	740.18	195.88	1.4632e-06	1.4046e-06	314.41	125.85	71.01	31.953	1.4642e-06	65.38	49.732	11.375	26.554	-67.572	63.442	62.133	-67.372	-61.510	33.556	50.608	-62.137	-57.032	-55.927	-50.441	65.147	-52.209	-8191	255	
52898.906	1	1	0	0	0.084379	0.15853	0.18414	0.36641	0.31118	0.16663	0.16984	0.13492	0.10898	0.10512	0.030372	0.17356	0.14923	0.1331	0.17637	0.083379	-3.7979	-4.3562	-4.7604	-3.9979	-4.9833	-4.5271	-4.2562	-5.0771	-4.0938	-4.6542	-4.8958	-4.0542	-4.9729	-4.525	-4.2458	-5.0583	50.000	262.901	32.547	266.500	-52.804	169.050	-67.992	253.599	-38.168	173.663	206.010	32.443	222.450	192.806	229.794	234.787	0.00082308	0.00047868	8.3947e-05	543.5	3.9166e-06	5.2893e-06	717.13	190.52	1.6655e-06	3.7946e-06	304.07	121.03	68.252	30.706	5.5131e-06	62.746	0.00017541	0.00013454	3.6263e-05	559.17	1.4547e-06	1.4522e-06	740.31	196.41	1.5033e-06	1.4559e-06	314.97	126.08	71.448	32.161	1.5104e-06	65.389	57.026	6.919	2.594	-67.329	51.800	75.004	-67.329	-61.542	27.537	70.476	-62.088	-57.012	-56.461	-50.234	67.655	-52.195	-8191	255	
52899.004	1	1	0	0	0.022274	0.059209	0.22103	0.33109	0.3224	0.054833	0.22739	0.1259	0.14567	0.13448	0.040743	0.035325	0.23081	0.19239	0.1405	0.053429	-4.0208	-4.4333	-4.9229	-3.9958	-4.7667	-4.45	-4.2	-4.9146	-4.15	-4.3458	-4.9542	-4.2125	-4.6771	-4.5875	-4.0167	-5.0979	175.264	221.907	123.742	-54.288	140.249	134.620	137.349	239.106	111.747	43.820	25.792	-14.912	164.915	129.291	118.697	-18.264	0.0007701	0.00019137	0.00010622	542.83	6.0999e-06	5.1055e-06	714.77	190.29	2.8518e-06	2.5191e-06	304.47	121.18	68.467	30.775	4.1168e-06	62.6	0.00017927	0.00013216	3.7436e-05	558.34	1.4988e-06	1.4153e-06	738.79	196.37	1.4965e-06	1.461e-06	314.9	126.13	71.562	32.243	1.4692e-06	65.312	47.632	41.438	-10.907	-67.205	41.773	45.466	-67.263	-61.480	42.460	102.295	-62.054	-56.973	-55.877	-50.243	93.185	-52.320	-8191	255	
52899.102	1	1	0	0	0.16367	0.036913	0.18954	0.14858	0.067991	0.11055	0.15033	0.13733	0.2567	0.067655	0.16966	0.030868	0.11448	0.15242	0.10868	0.062336	-3.7604	-4.2604	-4.9021	-4.075	-4.7104	-4.7729	-3.9958	-5.1229	-4.2875	-4.3396	-5.1333	-4.3396	-4.6167	-4.7375	-4.1687	-5.0687	-15.870	128.932	263.823	228.832	-60.053	-78.820	225.392	191.374	164.022	-9.417	48.331	124.698	94.622	-29.253	30.528	232.487	0.00077714	0.00053692	0.00014458	542.8	3.1332e-06	3.7803e-06	716.2	189.03	4.4674e-06	5.5568e-06	304.8	121.44	68.576	30.764	3.3186e-06	62.738	0.00017644	0.0001346	3.569e-05	558.9	1.5017e-06	1.425e-06	740.59	195.82	1.4931e-06	1.4606e-06	314.97	126.24	71.673	32.238	1.4695e-06	65.586	48.214	14.151	12.676	-67.433	53.869	70.456	-67.387	-61.547	40.680	64.167	-61.993	-56.787	-56.173	-50.304	97.110	-52.073	-8191	255	
52899.195	1	1	0	0	0.050538	0.12205	0.24435	0.12595	0.12519	0.37726	0.20543	0.31992	0.25953	0.092514	0.081437	0.19545	0.2747	0.13671	0.069888	0.25692	-4.0854	-4.2542	-5.0292	-4.2958	-4.575	-4.9688	-4.1708	-4.9917	-4.3458	-4.15	-5.1042	-4.2167	-4.4396	-5.0021	-3.9938	-5.0167	9.622	84.661	101.239	178.704	181.119	84.167	279.249	275.553	169.755	-77.658	-45.282	180.050	234.676	185.500	185.683	194.007	0.00085709	0.00026823	0.00010868	541.25	5.3459e-06	3.0327e-06	719.67	190.55	4.0676e-06	3.9148e-06	305.7	122.02	69.283	31.118	4.6829e-06	63.331	0.00017664	0.00013423	3.6029e-05	559.4	1.4826e-06	1.433e-06	741.78	197.06	1.5083e-06	1.5009e-06	315.57	127.01	72.161	32.603	1.5079e-06	66.34	52.392	8.119	-6.870	-67.457	57.000	80.033	-67.523	-61.323	52.781	77.810	-62.088	-56.719	-56.018	-50.504	69.297	-52.064	-8191	255	
52899.293	1	1	0	0	0.12831	0.21894	0.03402	0.16112	0.071726	0.076837	0.095189	0.22951	0.19848	0.26003	0.24347	0.078649	0.07398	0.16833	0.057024	0.093974	-4.2021	-4.0208	-5.0542	-4.3646	-4.3354	-4.8479	-4.0208	-4.875	-4.6	-4.1667	-5.0708	-4.2562	-4.425	-5.0188	-3.9583	-4.7875	20.636	232.183	276.105	186.879	99.508	58.580	-57.397	184.942	32.977	75.446	-57.818	231.345	234.392	168.321	65.219	-19.959	0.00076151	0.00050527	0.00012431	544.62	3.096e-06	4.17e-06	721.8	189.91	1.7222e-06	4.8569e-06	307.03	122.5	69.743	31.186	3.1084e-06	63.647	0.00018139	0.00013445	3.7856e-05	561.83	1.5325e-06	1.4131e-06	743.55	197.36	1.5029e-06	1.4441e-06	316.36	127.77	72.674	32.748	1.5792e-06	66.339	49.454	-3.391	15.705	-67.254	36.020	91.933	-67.481	-61.596	-17.403	64.056	-62.023	-56.733	-56.549	-50.179	81.703	-52.402	-8191	255	
52899.410	1	1	0	0	0.14605	0.031248	0.20472	0.057514	0.16164	0.05228	0.28238	0.19951	0.15346	0.13566	0.10849	0.26037	0.15241	0.12312	0.27526	0.11399	-4.425	-3.7917	-5.0833	-4.4125	-4.1	-5.0125	-4.1208	-4.7208	-4.7979	-3.8896	-5.0813	-4.4729	-4.3479	-4.9771	-4.1792	-4.6083	14.274	-3.484	151.233	72.044	69.848	252.021	182.405	223.496	121.988	9.159	229.577	10.625	162.803	-30.962	242.110	-44.386	0.00079479	0.00039893	0.00014892	544.77	3.1299e-06	3.0293e-06	721.35	191.2	3.0322e-06	4.0496e-06	304.97	123.1	69.404	31.225	5.0952e-06	63.404	0.00017685	0.00013782	3.6338e-05	561.09	1.5044e-06	1.4715e-06	742.03	197.93	1.4963e-06	1.4657e-06	316.17	127.71	72.523	32.679	1.5474e-06	66.166	54.035	14.733	5.869	-67.170	68.534	72.589	-67.349	-61.316	23.639	49.913	-62.170	-56.867	-56.005	-50.473	70.306	-52.397	-8191	255	
52899.508	1	1	0	0	0.062717	0.14792	0.070005	0.19922	0.058537	0.1397	0.14471	0.28933	0.34068	0.20754	0.083695	0.19451	0.21322	0.34808	0.017761	0.37981	-4.7292	-3.9979	-4.7042	-4.5	-4.1813	-4.9583	-4.2875	-4.5646	-4.8812	-3.9521	-4.9083	-4.7833	-4.1479	-5.2354	-4.1854	-4.6229	260.902	160.676	168.637	153.630	198.942	98.700	246.737	256.148	249.291	-7.175	275.823	5.810	70.119	-50.639	102.502	276.465	0.00072522	0.00039974	0.00010639	546.79	4.4738e-06	3.2717e-06	718.57	189.83	3.2169e-06	4.6701e-06	305.91	122.58	69.474	31.131	4.124e-06	63.258	0.00018129	0.00013946	3.9203e-05	561.6	1.5134e-06	1.457e-06	742.08	197.22	1.4998e-06	1.4794e-06	315.99	127.4	72.302	32.602	1.5568e-06	66.073	56.114	24.252	26.499	-67.304	45.064	99.638	-67.333	-61.867	62.569	91.451	-62.250	-56.818	-56.308	-50.474	59.943	-52.403	-8191	255	
52899.605	1	1	0	0	0.21656	0.11124	0.072231	0.054824	0.12461	0.13836	0.12582	0.3346	0.22174	0.22903	0.25987	0.039357	0.098595	0.0073585	0.048387	0.35102	-4.7937	-4.1208	-4.8917	-4.975	-4.1375	-5.0708	-4.3625	-4.3542	-4.9708	-3.9792	-4.7917	-4.8458	-4.1854	-5.1167	-4.3479	-4.6	127.852	130.890	211.620	105.916	-39.394	214.679	35.209	186.740	-54.080	89.091	217.425	270.410	145.805	-22.815	188.040	191.911	0.00076857	0.00031556	7.4344e-05	544.41	3.6967e-06	5.0726e-06	719.67	191.51	3.5875e-06	2.8574e-06	306.45	123.05	69.114	31.104	2.6938e-06	63.398	0.00017699	0.00013947	3.8773e-05	561.83	1.528e-06	1.5135e-06	743.52	198.11	1.5005e-06	1.5147e-06	316.92	127.78	72.383	32.699	1.5719e-06	66.323	55.123	22.673	-7.012	-67.262	57.384	59.040	-67.187	-61.605	40.944	59.857	-62.070	-56.807	-56.241	-50.378	54.215	-52.067	-8191	255	
52899.699	1	1	0	0	0.15674	0.15788	0.060272	0.12418	0.12255	0.29012	0.10091	0.24306	0.19682	0.17904	0.12121	0.10541	0.099286	0.14838	0.22365	0.18509	-4.6458	-4.2708	-4.7438	-4.8938	-4.0833	-5.1042	-4.6104	-4.3083	-4.875	-4.3375	-4.6729	-5.0437	-4.1896	-4.9854	-4.5312	-4.2854	30.771	276.932	142.344	77.160	86.883	-22.304	125.307	58.979	13.119	229.026	-25.831	74.544	-55.521	255.496	39.423	241.105	0.00080713	0.00041594	8.4282e-05	546.3	3.4784e-06	3.8441e-06	719.35	191.03	4.252e-06	4.591e-06	307.48	122.7	69.633	31.327	5.2545e-06	63.82	0.00017809	0.00014139	3.919e-05	562.61	1.5149e-06	1.4796e-06	742.69	198.12	1.5159e-06	1.563e-06	317.44	127.82	72.714	32.813	1.5461e-06	66.369	51.725	27.067	-2.366	-67.082	80.704	41.348	-67.209	-61.274	-3.338	70.552	-61.700	-56.927	-56.015	-50.487	67.622	-52.238	-8191	255	
52899.797	1	1	0	0	0.1305	0.14741	0.12775	0.23028	0.24875	0.01882	0.16555	0.070504	0.21595	0.075982	0.20777	0.19214	0.10938	0.35134	0.10943	0.13427	-4.7625	-4.3833	-4.4729	-4.9896	-4.1417	-4.9563	-4.7229	-4.3125	-4.9979	-4.2771	-4.6396	-5.2104	-4.1271	-4.8917	-4.6792	-4.3021	5.957	165.889	-78.854	64.630	252.694	204.511	255.378	209.578	130.090	66.089	254.627	256.441	96.424	237.046	241.356	147.083	0.00072897	0.00034277	9.8114e-05	545.94	3.0336e-06	4.7038e-06	718.94	190.88	2.0901e-06	5.9578e-06	306.43	122.77	69.591	31.34	3.1984e-06	63.892	0.00018307	0.00014226	3.8974e-05	562.2	1.5578e-06	1.5172e-06	742.56	197.95	1.525e-06	1.5278e-06	317.03	128.04	72.846	32.877	1.5074e-06	66.503	55.351	21.433	-0.153	-67.399	85.447	63.583	-67.293	-61.585	35.106	62.367	-62.013	-56.862	-56.118	-50.391	94.650	-52.184	-8191	255	
52899.891	1	1	0	0	0.21548	0.22816	0.26056	0.22265	0.074516	0.19851	0.18705	0.11033	0.13828	0.053657	0.20476	0.16985	0.088387	0.085227	0.17619	0.23397	-4.7021	-4.2896	-4.2417	-5.1562	-4.1583	-4.8646	-4.8104	-4.0771	-4.9833	-4.5875	-4.4104	-5.1937	-4.2354	-4.8729	-4.6646	-4.1604	189.116	114.349	-6.122	138.255	7.824	180.776	-45.686	-17.969	70.216	84.293	249.691	253.600	190.076	195.342	-75.233	-37.556	0.00074402	0.00024376	6.263e-05	545.44	4.7029e-06	3.4871e-06	722.84	190.79	3.1429e-06	4.2678e-06	306.14	122.54	69.999	31.305	4.8343e-06	63.216	0.00017951	0.00014073	3.9016e-05	562.16	1.5468e-06	1.5153e-06	743.55	198.05	1.5275e-06	1.4747e-06	315.85	127.87	72.888	32.751	1.5171e-06	66.203	46.858	0.675	-3.868	-67.489	26.743	74.824	-67.268	-61.624	47.937	50.723	-62.158	-56.774	-55.736	-50.903	30.223	-52.142	-8191	255	
52900.012	1	1	0	0	0.11874	0.039214	0.097245	0.11948	0.28372	0.2578	0.021027	0.088427	0.04537	0.083978	0.19744	0.075156	0.16001	0.19075	0.07024	0.087924	-4.7229	-4.5458	-4.2208	-5.0271	-4.0854	-4.6354	-4.8979	-4.1167	-5.0125	-4.5333	-4.2958	-5.2292	-4.2417	-4.5833	-4.9854	-4.1813	236.962	240.580	165.357	239.540	242.427	121.648	279.094	19.963	221.175	71.504	268.167	-79.345	-54.133	-5.607	203.070	243.664	0.00072335	0.00034026	8.4142e-05	546.89	4.0839e-06	4.2144e-06	721.44	189.61	2.338e-06	2.9396e-06	304.83	123.12	69.427	31.193	2.4865e-06	63.711	0.00018027	0.00014014	3.8414e-05	563.39	1.5294e-06	1.4848e-06	745.02	197.32	1.5385e-06	1.5316e-06	316	127.85	72.555	32.71	1.4837e-06	66.437	52.527	-0.543	-13.882	-67.318	45.070	84.582	-67.257	-61.835	41.220	65.089	-62.101	-56.668	-55.949	-50.140	87.670	-52.048	-8191	255	
52900.105	1	1	0	0	0.1639	0.11464	0.34758	0.21705	0.057966	0.17503	0.13635	0.045433	0.18836	0.14584	0.21289	0.21289	0.26022	0.11757	0.14796	0.11395	-4.7292	-4.4458	-4.1458	-5.1042	-4.2958	-4.675	-5.125	-4.0958	-4.7292	-4.7042	-4.0333	-5.1208	-4.5708	-4.3792	-4.9458	-4.2708	6.674	78.123	236.095	-61.833	248.036	-34.810	241.181	155.467	256.239	-4.998	270.820	8.439	179.607	-63.874	-68.913	177.986	0.00075766	0.00046936	0.00010221	547.25	5.2638e-06	2.959e-06	725.84	191.58	2.4911e-06	1.7977e-06	305.98	123.43	70.026	31.283	3.1444e-06	63.551	0.00018383	0.00013698	4.037e-05	563.49	1.5336e-06	1.5434e-06	746.84	198.19	1.5597e-06	1.4722e-06	316.85	128.4	72.781	32.86	1.5148e-06	66.562	56.632	-3.952	18.146	-67.225	35.372	62.517	-67.100	-61.608	6.079	76.256	-62.107	-56.761	-56.174	-50.600	82.154	-52.284	-8191	255	
52900.203	1	1	0	0	0.20911	0.069695	0.067645	0.1151	0.10435	0.074495	0.064156	0.2553	0.10092	0.049837	0.18734	0.21143	0.15144	0.17842	0.10988	0.29799	-4.4583	-4.65	-4.0521	-5.1833	-4.3021	-4.3375	-5.0437	-4.1729	-4.6083	-4.7812	-4.2708	-5.0396	-4.3562	-4.3021	-4.975	-4.2562	115.166	-48.026	60.826	-7.696	262.152	55.754	273.159	260.912	13.200	274.748	164.788	-31.934	118.219	192.461	199.271	183.553	0.00075312	0.00029027	0.00011247	547.05	2.6516e-06	2.7792e-06	720.98	190.29	2.6908e-06	2.8186e-06	304.84	123.25	69.965	31.096	3.1074e-06	63.517	0.00018219	0.00013755	3.8839e-05	562.94	1.5375e-06	1.5066e-06	744.05	197.71	1.5745e-06	1.5055e-06	316.18	127.92	72.837	32.716	1.5259e-06	66.327	49.956	-10.175	33.141	-67.214	42.356	116.491	-67.177	-61.505	79.886	67.977	-61.925	-56.762	-56.112	-50.476	51.074	-52.333	-8191	255	
52900.277	1	1	0	0	0.094835	0.1223	0.19433	0.19147	0.11983	0.24292	0.17455	0.14729	0.22758	0.071881	0.17472	0.2811	0.17125	0.30066	0.091968	0.18893	-4.2083	-4.7083	-4.1042	-5.1333	-4.5646	-4.3083	-5.1792	-4.2063	-4.4812	-4.8542	-4.0875	-4.9208	-4.5938	-4.0042	-5.125	-4.3854	152.902	-34.208	3.980	15.430	-33.433	100.517	-34.562	-70.858	178.006	68.612	-69.220	234.208	-50.030	-16.378	96.408	268.920	0.00071021	0.00031995	9.2923e-05	545.05	4.4869e-06	4.3682e-06	722.24	190.95	2.5544e-06	5.0756e-06	307.22	121.97	69.525	31.119	6.0434e-06	63.169	0.00018442	0.00013286	3.8956e-05	564.02	1.526e-06	1.5004e-06	744.18	197.94	1.525e-06	1.4998e-06	316.66	127.34	72.661	32.648	1.5136e-06	65.999	49.323	0.585	0.176	-67.464	50.283	55.595	-67.187	-61.384	96.989	70.935	-62.076	-56.982	-55.944	-50.661	62.351	-52.184	-8191	255	
52900.371	1	1	0	0	0.21047	0.069382	0.22089	0.096501	0.066443	0.088988	0.1818	0.19062	0.10384	0.1477	0.054205	0.16906	0.053742	0.17058	0.058661	0.15016	-4.0479	-4.8187	-3.9521	-4.7667	-4.5667	-4.0563	-5.0146	-4.3063	-4.0938	-4.8521	-3.9583	-4.6125	-4.6146	-4.1917	-4.8646	-4.3521	49.025	176.855	112.266	22.906	45.904	59.409	209.007	246.953	240.749	49.909	264.982	268.372	252.759	-38.693	-65.256	196.393	0.00072247	0.00040268	0.0001251	547.06	4.8798e-06	3.9681e-06	721.01	190.49	2.8269e-06	4.0114e-06	306.06	121.54	69.002	31.103	3.512e-06	62.955	0.00018421	0.000134	3.9821e-05	563.46	1.5176e-06	1.5259e-06	743.82	197.41	1.5251e-06	1.4802e-06	315.22	126.92	72.157	32.566	1.5746e-06	65.847	54.924	14.628	-0.264	-67.351	70.345	55.113	-67.367	-61.412	49.626	73.023	-61.402	-57.132	-56.478	-50.435	59.848	-52.237	-8191	255	
52900.492	1	1	0	0	0.091611	0.12456	0.09508	0.056828	0.093623	0.22782	0.20103	0.050771	0.23429	0.11981	0.082439	0.29128	0.1409	0.15384	0.050491	0.22059	-4.0917	-5.0208	-3.9521	-4.7042	-4.8146	-3.9271	-5.2167	-4.4542	-4.1458	-4.8917	-4.0958	-4.6146	-4.7562	-4.2521	-4.8375	-4.5417	-65.082	-3.712	158.892	-64.368	48.259	106.188	233.689	29.952	-16.025	23.425	-61.879	240.006	-56.491	200.723	37.921	255.699	0.00076349	0.00029399	8.3543e-05	545.91	3.6559e-06	1.8869e-06	721.08	190.56	3.566e-06	3.8897e-06	303.9	122.35	68.824	30.972	2.7812e-06	62.984	0.00018288	0.00013733	3.9027e-05	563.34	1.5065e-06	1.4892e-06	744.73	197.49	1.4873e-06	1.4617e-06	315.54	127.11	72.034	32.524	1.5537e-06	65.969	49.452	-10.060	22.752	-67.402	64.977	90.157	-67.421	-61.555	39.354	106.904	-61.974	-56.700	-56.234	-50.579	87.424	-52.115	-8191	255	
52900.590	1	1	0	0	0.34819	0.17642	0.18222	0.008502	0.033198	0.29549	0.12475	0.15975	0.21922	0.050437	0.22506	0.17671	0.083708	0.10903	0.18969	0.20364	-3.9625	-5.05	-4.15	-4.4938	-4.8167	-4.0042	-5.0375	-4.4917	-4.0875	-4.8688	-4.2875	-4.5667	-4.8854	-3.9396	-4.8771	-4.7979	-68.722	-75.163	6.290	83.431	183.531	195.914	-36.015	96.867	212.636	79.773	145.698	234.530	186.755	278.974	158.789	201.648	0.0007393	0.00020925	9.5671e-05	546.13	7.5635e-06	2.6783e-06	721.8	190.54	2.1682e-06	3.4942e-06	304.09	122.33	69.038	30.773	3.3978e-06	62.488	0.00017941	0.00013823	3.8394e-05	562.49	1.5509e-06	1.5016e-06	743.76	197.4	1.4901e-06	1.4838e-06	315.22	126.91	72.017	32.269	1.5512e-06	65.393	56.022	14.098	31.584	-67.422	53.074	92.159	-67.531	-61.691	7.933	90.790	-62.007	-56.775	-55.857	-50.668	78.364	-52.233	-8191	255	
52900.684	1	1	0	0	0.16884	0.05122	0.013294	0.10539	0.12075	0.011792	0.096541	0.013113	0.080526	0.26109	0.38957	0.14026	0.11284	0.10549	0.14016	0.27452	-3.9938	-4.9708	-4.2667	-4.5125	-4.9479	-4.0583	-4.7208	-4.7792	-3.9229	-4.9979	-4.3229	-4.4125	-5.0583	-4.0625	-4.5563	-4.7688	82.273	115.241	-52.292	174.775	172.070	202.722	224.426	278.919	243.698	271.686	-18.401	124.223	50.335	154.632	234.935	222.365	0.00070904	0.00035589	9.8498e-05	547.19	1.4126e-06	4.7779e-06	718.29	189.28	3.02e-06	2.3426e-06	305	121.38	68.919	30.737	1.8668e-06	62.47	0.00017977	0.0001365	3.93e-05	563.25	1.5295e-06	1.5124e-06	743.28	196.94	1.54e-06	1.4905e-06	314.71	126.44	71.805	32.203	1.5201e-06	65.087	57.706	5.004	16.356	-67.449	45.362	75.909	-67.773	-61.243	35.233	64.988	-61.836	-56.910	-56.040	-50.319	85.597	-52.082	-8191	255	
52900.781	1	1	0	0	0.26735	0.14133	0.19169	0.052857	0.16235	0.24453	0.21886	0.11568	0.13118	0.055219	0.1107	0.15894	0.10766	0.10798	0.027426	0.17086	-3.6896	-4.7625	-4.3979	-4.3042	-4.9771	-4.0167	-4.5958	-4.8771	-3.9667	-4.8812	-4.55	-4.1396	-5.0583	-4.1333	-4.3292	-4.8313	163.670	28.010	84.058	29.902	174.283	194.751	-55.912	207.697	232.200	-31.186	189.927	95.819	226.115	230.240	121.088	204.817	0.00069628	0.00039994	9.6302e-05	544.29	4.3313e-06	3.9404e-06	722.7	190.01	1.5773e-06	3.002e-06	304.07	121.35	68.755	30.654	2.3898e-06	62.429	0.00017904	0.00013441	3.8233e-05	561.01	1.5076e-06	1.551e-06	743.62	197.03	1.5363e-06	1.4985e-06	314.66	126.01	71.723	32.158	1.5376e-06	65.262	50.875	21.770	-8.687	-67.050	61.023	66.385	-67.427	-61.510	10.272	54.860	-62.165	-56.707	-56.118	-50.267	55.390	-51.853	-8191	255	
52900.902	1	1	0	0	0.28442	0.12571	0.036365	0.033824	0.13769	0.11457	0.21671	0.27039	0.072792	0.032745	0.30071	0.057681	0.34756	0.13234	0.065337	0.088054	-3.5771	-4.8396	-4.6125	-4.2188	-4.975	-4.1562	-4.5208	-4.9229	-4.1771	-4.7729	-4.6625	-4.1354	-5.0292	-4.3208	-4.2937	-5.0458	-55.355	236.898	132.297	40.361	-66.861	-20.854	262.562	32.735	205.751	-60.387	124.833	-22.769	221.078	198.593	231.670	-45.646	0.0007921	0.00049177	8.0835e-05	543.52	3.3949e-06	5.662e-06	720.9	190.09	3.1861e-06	3.9707e-06	304.2	121.65	68.752	30.654	2.2256e-06	62.641	0.0001839	0.0001417	3.8275e-05	562.12	1.5125e-06	1.5315e-06	744.73	197.16	1.5189e-06	1.4556e-06	314.83	126.35	71.608	32.163	1.5138e-06	65.356	53.877	16.827	-4.823	-67.512	51.949	88.187	-67.720	-61.219	34.967	100.363	-61.955	-56.943	-56.084	-50.365	71.973	-52.298	-8191	255	
52900.973	1	1	0	0	0.17874	0.1531	0.15052	0.0046554	0.1108	0.045303	0.26747	0.11607	0.0759	0.11952	0.066325	0.20244	0.046677	0.13382	0.058291	0.073281	-3.8479	-4.7	-4.7063	-4.0875	-4.9187	-4.4625	-4.3792	-5.0062	-4.0146	-4.7208	-4.7229	-4.1417	-4.925	-4.4875	-4.1375	-5.1667	181.343	179.144	67.590	-34.521	-21.190	160.759	181.813	48.597	145.480	30.190	200.006	272.473	245.598	-11.418	-3.841	215.762	0.00086824	0.0002866	0.00013479	545.56	4.1563e-06	3.849e-06	723.27	191.05	1.3034e-06	4.2449e-06	304.05	120.92	68.873	30.662	1.6642e-06	62.374	0.00018325	0.00013669	3.7604e-05	562.76	1.5006e-06	1.5094e-06	745.51	197.33	1.589e-06	1.5081e-06	314.45	126.15	71.578	32.092	1.5199e-06	65.135	51.419	9.692	-1.062	-67.347	39.660	61.274	-67.357	-61.407	78.936	48.495	-61.680	-57.001	-56.091	-50.365	57.193	-52.124	-8191	255	
52901.094	1	1	0	0	0.072498	0.098561	0.13925	0.16193	0.1689	0.060854	0.033174	0.15833	0.21638	0.065553	0.061716	0.063602	0.21641	0.13805	0.34364	0.13145	-3.8271	-4.525	-4.6729	-4.15	-4.8458	-4.4771	-4.275	-5.0042	-4.0146	-4.5417	-4.9792	-3.9604	-4.9229	-4.6354	-4.1062	-5.075	-23.787	199.070	-55.237	-12.073	247.601	120.046	246.785	168.286	-21.256	71.679	118.602	209.939	-59.403	16.898	128.842	261.841	0.00077476	0.00023859	0.00012989	546.72	4.7825e-06	4.0776e-06	721.93	188.45	2.8195e-06	2.9251e-06	303.48	120.18	68.118	30.564	3.6724e-06	61.953	0.00018175	0.00013624	3.8645e-05	563.18	1.5099e-06	1.497e-06	742.91	195.77	1.544e-06	1.4968e-06	313	125.17	71.281	31.931	1.5215e-06	64.54	49.844	-0.157	9.892	-67.145	38.233	57.526	-67.334	-61.460	23.516	51.359	-61.814	-56.642	-56.169	-50.229	97.833	-52.261	-8191	255	
52901.191	1	1	0	0	0.18868	0.13954	0.060341	0.38909	0.27368	0.074062	0.24015	0.1239	0.048635	0.044796	0.12134	0.15038	0.067293	0.3192	0.06695	0.27186	-3.9	-4.4354	-4.8229	-4.0979	-4.8021	-4.6792	-4.1813	-5.0646	-4.2229	-4.2479	-5.0771	-3.8833	-4.7271	-4.8583	-4.0042	-5.0354	-65.346	115.805	153.514	248.952	-18.499	156.101	273.743	54.028	-3.105	183.932	80.229	-22.772	-77.666	6.127	209.942	198.043	0.000748	0.00034399	0.00010906	545.19	4.3837e-06	3.3106e-06	714.9	188.86	4.475e-06	5.1974e-06	300.43	120.05	68.331	30.394	1.2135e-06	61.932	0.00017658	0.00013413	3.7139e-05	561.62	1.49e-06	1.4323e-06	739.43	195.24	1.577e-06	1.4659e-06	311.64	125.07	71.109	31.916	1.5586e-06	64.653	52.342	-28.272	-13.981	-67.383	28.466	68.465	-67.342	-61.437	24.624	50.642	-61.827	-56.899	-56.559	-50.444	68.736	-51.810	-8191	255	
52901.285	1	1	0	0	0.15931	0.16962	0.15795	0.031168	0.013621	0.15747	0.16638	0.074704	0.065366	0.13161	0.15214	0.073534	0.10646	0.22182	0.24497	0.24189	-3.9688	-4.3833	-4.9771	-4.1125	-4.5771	-4.8604	-4.1292	-4.9333	-4.3229	-4.3042	-5.1875	-4.0354	-4.4958	-4.9125	-3.9562	-4.9	126.099	89.469	268.228	115.251	213.167	112.862	-29.575	-54.141	47.017	199.300	29.479	137.985	178.270	89.574	-60.855	275.369	0.0007839	0.00045218	0.00012915	544.75	1.8977e-06	3.2843e-06	716.9	187.93	8.1942e-07	4.9776e-06	301.92	120.2	68.255	30.433	3.4881e-06	62.164	0.00018102	0.00013596	3.7595e-05	560.27	1.5329e-06	1.4359e-06	741.17	194.92	1.496e-06	1.4815e-06	312.25	125.1	71.233	31.949	1.5104e-06	64.847	52.429	12.002	28.218	-67.297	47.530	58.083	-67.618	-61.682	279.817	66.382	-62.268	-57.000	-56.095	-50.254	49.125	-52.232	-8191	255	
52901.379	1	1	0	0	0.11337	0.11206	0.19908	0.238	0.065124	0.087162	0.021704	0.069005	0.10326	0.088153	0.062252	0.17329	0.040671	0.075774	0.24435	0.13964	-4.0542	-4.1208	-4.8562	-4.1458	-4.4417	-4.8896	-4.1708	-4.8917	-4.4792	-4.1354	-5.1021	-4.0563	-4.4938	-5.0771	-4.025	-4.8292	82.850	-50.839	139.974	119.470	175.999	232.150	164.356	-55.247	240.374	115.236	-17.078	256.314	193.982	-26.448	26.340	121.152	0.00071437	0.00035256	6.1669e-05	545.15	6.6698e-06	2.5728e-06	717.37	188.36	2.8155e-06	2.6039e-06	303.68	120.55	67.935	30.478	3.7461e-06	61.99	0.00017693	0.00013374	3.6956e-05	560.17	1.4816e-06	1.4344e-06	740.65	195.18	1.4993e-06	1.4659e-06	312.76	125.24	71.008	31.87	1.4972e-06	64.854	51.568	14.341	36.621	-67.538	50.545	71.038	-67.394	-61.372	60.965	80.491	-61.913	-56.984	-56.175	-50.502	70.537	-52.297	-8191	255	
52901.500	1	1	0	0	0.21237	0.14642	0.26043	0.10699	0.11569	0.15967	0.22685	0.058443	0.20217	0.14643	0.36133	0.10719	0.25831	0.1117	0.1298	0.10694	-4.2479	-4.1562	-4.7625	-4.2354	-4.3646	-4.9354	-4.1021	-4.6833	-4.6458	-3.9979	-5.1021	-4.1958	-4.4167	-4.7937	-3.8958	-4.6625	54.491	248.195	-58.856	226.770	171.140	-28.608	229.472	-62.043	279.869	-52.510	245.979	160.042	259.204	271.161	274.743	162.697	0.0008	0.00049904	9.543e-05	544.66	3.4943e-06	4.7257e-06	718	186.96	2.378e-06	2.7996e-06	301.19	120.36	67.57	30.129	1.2878e-06	61.722	0.00017661	0.00013693	3.6958e-05	561.56	1.5125e-06	1.4833e-06	739.38	194.59	1.4673e-06	1.4694e-06	311.49	124.79	70.805	31.742	1.5155e-06	64.52	50.800	9.465	13.145	-67.495	47.225	82.223	-67.400	-61.482	61.000	77.826	-61.749	-56.791	-56.143	-50.172	-2.595	-52.056	-8191	255	
52901.570	1	1	0	0	0.077191	0.1722	0.36155	0.13712	0.11868	0.15632	0.1031	0.089848	0.12658	0.14086	0.081903	0.081009	0.33522	0.17883	0.19552	0.054522	-4.4292	-4.0813	-4.95	-4.5396	-4.2188	-4.9	-4.1562	-4.6604	-4.8375	-3.9896	-4.9417	-4.45	-4.1417	-5.0042	-4.0646	-4.4708	23.064	210.046	-79.562	187.084	-7.229	203.064	108.373	3.071	9.466	274.353	-10.690	274.455	-58.349	255.020	225.201	183.224	0.00075061	0.00026934	8.3734e-05	541.29	5.8802e-06	4.9302e-06	716.27	187.49	2.8719e-06	4.8294e-06	301.82	120.43	68.037	30.357	1.7415e-06	62.157	0.00017586	0.00013563	3.7981e-05	558.85	1.4951e-06	1.4624e-06	737.86	194.48	1.4896e-06	1.4795e-06	311.63	124.92	70.867	31.857	1.5247e-06	64.681	56.330	19.178	4.347	-67.297	25.259	76.450	-67.408	-61.638	28.597	61.142	-62.007	-56.782	-56.291	-50.415	53.607	-52.134	-8191	255	
52901.691	1	1	0	0	0.0612	0.095461	0.0093828	0.22686	0.062805	0.21691	0.15765	0.12622	0.12997	0.081888	0.21045	0.32482	0.092213	0.22315	0.083618	0.26549	-4.5667	-4.0146	-4.9333	-4.6896	-3.9667	-5.1333	-4.3063	-4.3271	-4.8229	-4.0188	-4.9583	-4.7354	-4.1833	-5.15	-4.3417	-4.5146	113.465	-61.660	108.730	224.801	62.372	228.290	183.320	267.465	-56.859	-24.829	211.894	218.120	267.031	-73.288	263.094	198.450	0.0008333	0.0003716	9.1689e-05	542.74	6.3064e-06	4.6235e-06	716.98	187.28	2.2828e-06	4.0453e-06	301.76	120.31	68.081	30.376	3.557e-06	62.026	0.00017099	0.00013767	3.7849e-05	559.07	1.5046e-06	1.4466e-06	738.33	194.64	1.4767e-06	1.4925e-06	311.63	124.99	70.977	31.846	1.4824e-06	64.644	55.784	25.625	8.612	-67.231	35.438	64.785	-67.606	-61.911	44.254	61.109	-62.119	-56.849	-55.918	-50.302	61.999	-52.162	-8191	255	
52901.789	1	1	0	0	0.010437	0.042248	0.13814	0.17258	0.15053	0.17793	0.25903	0.25398	0.13953	0.18503	0.26435	0.035336	0.25018	0.072985	0.10915	0.072913	-4.6771	-4.0958	-4.7937	-4.7729	-3.9833	-5.0292	-4.4646	-4.425	-4.8896	-4.2063	-4.8458	-5.0563	-4.2333	-5.1562	-4.3938	-4.3167	279.439	59.449	61.556	-64.063	-63.904	-69.358	242.906	185.035	39.778	72.049	39.637	5.078	-27.210	-46.078	216.376	93.806	0.00073023	0.00032703	0.00010743	541.07	4.8348e-06	5.3725e-06	713.82	188.27	1.1127e-06	4.8656e-06	303.01	120.58	68.086	30.542	3.0057e-06	62.476	0.00017611	0.000134	3.7997e-05	558.9	1.5391e-06	1.4711e-06	739.18	194.84	1.5146e-06	1.5072e-06	312.74	125.63	71.269	32.036	1.4873e-06	65.3	57.906	-0.852	34.928	-67.274	70.310	53.112	-67.233	-61.491	9.444	73.188	-61.914	-56.692	-56.446	-50.162	105.254	-52.172	-8191	255	
52901.887	1	1	0	0	0.11846	0.013566	0.20446	0.13836	0.10226	0.080918	0.22976	0.17182	0.015871	0.19373	0.25514	0.092975	0.25116	0.16064	0.13333	0.14549	-4.6771	-4.125	-4.5917	-4.8167	-4.0333	-4.8792	-4.5042	-4.1271	-4.8729	-4.1813	-4.7417	-4.9812	-4.1229	-4.9146	-4.5854	-4.3146	7.118	-41.566	113.034	-70.842	-36.149	-56.164	213.913	274.393	244.344	27.245	257.847	183.180	-38.938	219.084	181.235	154.438	0.00083273	0.00037537	9.5772e-05	544	3.4735e-06	2.6868e-06	717.95	187.77	2.0544e-06	5.2866e-06	302.92	120.73	68.01	30.587	2.1847e-06	62.084	0.00017746	0.00013522	3.7287e-05	560.82	1.4986e-06	1.4921e-06	740.67	195.1	1.5165e-06	1.4698e-06	312.44	125.56	71.079	32.06	1.4745e-06	64.847	51.705	-3.032	9.527	-67.202	43.902	68.019	-67.337	-61.795	3.134	79.507	-61.801	-56.632	-56.245	-50.644	72.129	-52.092	-8191	255	
52901.980	1	1	0	0	0.16594	0.083232	0.24602	0.23979	0.16528	0.21498	0.28078	0.15385	0.15968	0.043946	0.1926	0.19402	0.14658	0.28822	0.12121	0.2725	-4.825	-4.1833	-4.6562	-5.0583	-4.0521	-4.8708	-4.7562	-4.1667	-4.9646	-4.3042	-4.3562	-5.0813	-4.1979	-4.6854	-4.4792	-4.2292	40.630	76.534	159.159	190.700	107.088	121.668	232.262	42.811	64.083	20.799	32.953	195.699	215.872	-69.164	202.446	-65.112	0.00075418	0.00026483	7.5593e-05	545.26	4.1398e-06	3.0575e-06	717.49	188.65	3.7781e-06	3.6935e-06	303.28	120.42	68.158	30.732	3.0901e-06	62.156	0.00017578	0.00013655	3.7066e-05	561.67	1.5316e-06	1.4479e-06	740.18	195.55	1.4737e-06	1.464e-06	312.92	125.61	71.559	32.21	1.4912e-06	64.974	52.442	34.501	-1.217	-67.140	13.025	78.695	-67.358	-61.747	3.060	59.492	-61.994	-56.680	-56.239	-50.528	75.806	-52.407	-8191	255	
52902.102	1	1	0	0	0.2726	0.14186	0.077277	0.33174	0.20157	0.087846	0.093698	0.1077	0.19942	0.22427	0.1481	0.10364	0.25151	0.055692	0.11078	0.10589	-4.8021	-4.2396	-4.3854	-5.0917	-3.9854	-4.5542	-4.8292	-4.0208	-5.0479	-4.3542	-4.2729	-5.0542	-4.1354	-4.7292	-4.8042	-3.8958	133.518	27.292	123.674	221.500	246.401	-26.137	197.904	105.472	60.256	268.797	239.984	-74.164	-46.621	-8.517	172.452	204.315	0.00083422	0.00042257	0.00012343	543.3	2.3706e-06	5.2596e-06	721.69	189.49	2.4818e-06	2.414e-06	302.73	120.6	68.691	30.53	2.3313e-06	62.262	0.00017517	0.00013413	3.8727e-05	560.91	1.5332e-06	1.4354e-06	742.15	195.43	1.4821e-06	1.4181e-06	312.24	125.59	71.522	32.041	1.5097e-06	64.958	50.139	29.379	-10.149	-67.367	11.092	66.060	-67.650	-61.662	19.350	78.182	-61.814	-57.033	-56.456	-50.464	57.659	-52.303	-8191	255	
52902.195	1	1	0	0	0.073964	0.16685	0.12909	0.1313	0.26141	0.038782	0.069511	0.11109	0.11449	0.051016	0.1068	0.084872	0.11459	0.059906	0.006451	0.13814	-4.5792	-4.4833	-4.1292	-5.2021	-4.3021	-4.3917	-4.9667	-3.95	-4.975	-4.5979	-4.1104	-5.1521	-4.3458	-4.5271	-4.9583	-4.1875	62.248	245.653	57.467	183.215	72.298	-33.836	193.304	-3.144	177.068	183.073	169.821	-32.692	249.575	51.935	-52.582	258.772	0.00076877	0.00025862	0.00010567	542.68	6.0544e-06	4.4757e-06	718.77	188.63	2.9904e-06	6.888e-06	302.68	121.35	68.481	30.582	4.0547e-06	62.495	0.00017966	0.00013628	3.8032e-05	560.66	1.4969e-06	1.4346e-06	741.47	195.6	1.4978e-06	1.4785e-06	312.76	125.69	71.544	32.103	1.5186e-06	65.378	54.154	14.487	22.064	-67.483	25.894	47.529	-67.476	-61.534	23.197	62.196	-62.171	-56.620	-55.925	-50.518	60.309	-52.042	-8191	255	
52902.270	1	1	0	0	0.11048	0.22521	0.16918	0.23327	0.28221	0.064381	0.054138	0.11542	0.16439	0.035643	0.080473	0.020338	0.14551	0.18045	0.042653	0.12976	-4.5458	-4.6792	-4.125	-4.9625	-4.3146	-4.4146	-5.0521	-4	-4.6687	-4.825	-4.3021	-5.1271	-4.6667	-4.3875	-5.1625	-4.175	24.918	99.286	-49.897	223.514	114.273	71.136	106.236	219.340	257.778	252.033	264.279	81.552	226.153	275.842	-41.683	272.782	0.00075899	0.00037565	8.0664e-05	545.71	3.9705e-06	5.8209e-06	722.32	188.7	3.1502e-06	3.2647e-06	302.68	120.78	68.226	30.58	1.9304e-06	62.082	0.00017567	0.00013394	3.773e-05	561.56	1.489e-06	1.465e-06	742.71	196.22	1.4782e-06	1.4701e-06	313.14	125.66	71.249	31.959	1.5208e-06	64.92	50.449	21.655	28.484	-67.434	53.884	75.796	-67.519	-61.797	-0.962	87.161	-62.028	-56.763	-56.249	-50.382	100.961	-51.971	-8191	255	
52902.363	1	1	0	0	0.20242	0.22994	0.07361	0.044437	0.17775	0.14758	0.064739	0.098659	0.1334	0.087021	0.24635	0.10553	0.076448	0.082796	0.10451	0.031538	-4.2646	-4.7937	-4.0563	-4.9292	-4.3125	-4.3479	-4.9979	-4.1625	-4.6375	-4.7521	-4.1104	-4.9958	-4.5354	-4.3	-5.0417	-4.2229	197.436	-44.152	125.627	211.229	210.119	243.155	46.100	-56.201	-47.559	180.968	123.890	184.987	67.949	-69.951	16.449	155.515	0.00073659	0.00032218	6.211e-05	545.87	4.5653e-06	2.9755e-06	718.47	189.85	3.8251e-06	3.4112e-06	302.45	119.76	68.201	30.457	3.7141e-06	62.176	0.00017298	0.00013418	3.8153e-05	560.98	1.4889e-06	1.4955e-06	740.15	196.25	1.5452e-06	1.4223e-06	312.63	125.05	71.134	31.864	1.4694e-06	64.693	54.211	29.664	14.870	-67.414	33.327	80.910	-67.423	-61.600	44.038	29.285	-61.917	-56.738	-56.108	-50.269	95.428	-52.308	-8191	255	
52902.461	1	1	0	0	0.10997	0.18874	0.1306	0.2179	0.14821	0.15327	0.13286	0.19242	0.14093	0.18673	0.40163	0.30796	0.23672	0.11969	0.081498	0.14765	-4.3313	-4.8708	-3.9688	-4.9083	-4.6125	-4.3417	-5.1667	-4.4021	-4.3292	-5.1	-4.1521	-4.9625	-4.6125	-4.2958	-4.9667	-4.3958	117.000	170.159	118.429	172.757	243.215	104.740	85.193	-56.417	238.527	46.993	226.806	218.563	-79.206	122.320	245.039	276.540	0.00073131	0.00033163	9.0607e-05	543.86	5.3024e-06	1.9565e-06	720.94	188.54	4.5606e-06	3.5052e-06	302.18	120.4	67.667	30.325	4.3988e-06	61.96	0.00017593	0.00013641	3.7511e-05	560.95	1.4982e-06	1.5408e-06	740.4	195.63	1.4964e-06	1.4207e-06	312.2	124.87	70.742	31.738	1.5033e-06	64.498	55.968	5.457	-6.945	-67.227	44.880	63.833	-67.346	-61.579	15.608	72.229	-62.277	-56.779	-56.437	-50.217	71.247	-52.042	-8191	255	
52902.582	1	1	0	0	0.10442	0.22174	0.10024	0.19144	0.2228	0.16697	0.14477	0.15943	0.12525	0.12655	0.15587	0.035464	0.10174	0.11487	0.0081156	0.13495	-4.0792	-4.9896	-4.0396	-4.825	-4.6854	-4.0667	-5.1833	-4.4083	-4.1417	-4.9875	-4.1458	-4.7708	-4.65	-4.0271	-4.8917	-4.4333	64.681	205.737	236.337	225.814	245.634	53.930	273.408	180.705	124.685	14.887	251.346	-9.970	180.092	214.007	247.110	172.631	0.00076364	0.00019705	7.2272e-05	545.47	5.7457e-06	4.6144e-06	718.27	188.3	2.2435e-06	5.1823e-06	303.29	119.9	67.441	30.125	2.3715e-06	61.647	0.00017804	0.00013232	3.8628e-05	560.73	1.4746e-06	1.4725e-06	740.24	195.45	1.5328e-06	1.4679e-06	312.73	124.41	70.413	31.538	1.5002e-06	64.41	47.274	17.089	19.280	-67.656	67.264	56.463	-67.351	-61.441	88.150	55.569	-61.945	-56.546	-55.964	-50.477	52.286	-52.182	-8191	255	
52902.676	1	1	0	0	0.092226	0.17966	0.10237	0.26526	0.059454	0.42218	0.03383	0.12425	0.28126	0.056764	0.11204	0.076071	0.1781	0.41452	0.11589	0.14201	-3.9042	-5.05	-4.1792	-4.8604	-4.7604	-4.1375	-4.9458	-4.6229	-4.2917	-4.9979	-4.2979	-4.7542	-5.1208	-4.0479	-5.0062	-4.6104	86.732	131.266	62.918	162.316	205.052	-57.750	235.417	152.359	101.797	80.093	53.855	-55.863	-29.137	-41.819	271.586	220.165	0.00089308	0.00036769	5.6516e-05	543.72	4.1673e-06	4.632e-06	722.04	188.81	3.494e-06	3.9617e-06	302.51	120.04	67.176	30.133	5.4271e-06	62.226	0.00018241	0.00013356	3.8934e-05	560.68	1.4662e-06	1.4833e-06	741.86	196.2	1.5458e-06	1.4463e-06	312.61	124.85	70.818	31.721	1.5062e-06	64.964	57.698	18.079	13.850	-67.641	32.778	53.347	-67.257	-61.800	44.052	59.978	-61.834	-57.156	-55.885	-50.388	66.471	-51.944	-8191	255	
52902.773	1	1	0	0	0.10528	0.085285	0.013115	0.18561	0.038026	0.020743	0.062406	0.27657	0.084986	0.21414	0.11686	0.038195	0.025638	0.26105	0.10106	0.2991	-3.8917	-5.0312	-4.1708	-4.5125	-4.8708	-4.1875	-5.0854	-4.7583	-4.1687	-5.1125	-4.3812	-4.4812	-4.9979	-4.1833	-4.8271	-4.7542	194.081	126.863	-64.381	271.801	216.468	41.691	251.616	191.777	176.583	-24.194	274.491	-27.922	259.959	212.648	80.291	132.481	0.0007377	0.00033636	6.405e-05	545.15	6.3777e-06	4.7349e-06	721.93	189.54	4.2668e-06	6.2766e-06	303.21	120.51	67.682	30.28	5.0526e-06	61.858	0.00017829	0.00013509	3.7838e-05	560.91	1.4703e-06	1.4741e-06	742.63	196.62	1.5443e-06	1.4471e-06	313.13	125	70.902	31.767	1.4924e-06	64.536	53.087	25.920	13.429	-67.486	49.461	75.848	-67.117	-61.806	54.096	70.143	-62.014	-56.945	-56.232	-50.635	63.099	-51.933	-8191	255	
52902.871	1	1	0	0	0.076318	0.14711	0.13698	0.28456	0.10203	0.11577	0.13816	0.08665	0.18129	0.16025	0.24517	0.19399	0.050333	0.12167	0.25481	0.21502	-3.8438	-4.975	-4.4167	-4.4167	-4.9667	-4.0708	-4.7167	-4.9042	-3.9917	-4.925	-4.2875	-4.2083	-5.0958	-4.1312	-4.6125	-4.8667	43.907	165.233	159.404	260.469	124.039	-6.183	141.741	242.664	259.255	207.164	248.767	218.312	223.042	264.380	-77.125	264.807	0.00084883	0.00043538	8.0318e-05	541.29	4.5295e-06	4.5003e-06	722.25	189.83	3.5293e-06	4.7199e-06	302.19	119.85	68.108	30.242	2.2233e-06	62.001	0.00018177	0.00013456	3.7302e-05	561.22	1.5224e-06	1.5024e-06	742.74	196.41	1.5166e-06	1.4317e-06	312.82	124.94	71.014	31.785	1.537e-06	64.543	55.318	34.193	8.697	-67.409	20.015	85.235	-67.360	-61.495	23.453	81.283	-61.971	-56.735	-55.946	-50.157	91.731	-52.014	-8191	255	
52902.965	1	1	0	0	0.082098	0.23283	0.071934	0.072678	0.19481	0.11989	0.067836	0.056369	0.24386	0.27237	0.30253	0.27636	0.35738	0.21166	0.17982	0.068461	-3.7354	-4.875	-4.4771	-4.1354	-4.8396	-4.05	-4.7125	-4.9437	-3.9625	-4.8562	-4.7146	-4.2958	-5.0208	-4.2917	-4.4104	-5.075	85.647	261.967	-41.238	-12.864	132.481	38.535	126.041	2.684	219.263	268.227	209.669	227.585	90.773	153.279	233.650	-54.367	0.00070853	0.00053115	8.5936e-05	544.23	6.1028e-06	4.0875e-06	723.4	189.3	2.1083e-06	6.186e-06	304.05	119.82	68.129	30.227	3.43e-06	61.797	0.00017839	0.00013568	3.7282e-05	562.39	1.4997e-06	1.4697e-06	742.63	196.47	1.5338e-06	1.4262e-06	314.23	125.22	71.235	31.761	1.5659e-06	64.777	54.703	-13.557	21.992	-67.428	47.441	44.734	-67.297	-61.347	79.468	65.806	-61.819	-57.016	-55.927	-50.237	114.175	-52.225	-8191	255	
52903.062	1	1	0	0	0.065666	0.21028	0.069792	0.23431	0.12667	0.12024	0.16824	0.07965	0.1256	0.055903	0.032072	0.091964	0.17505	0.11012	0.1135	0.33363	-3.8729	-4.8625	-4.5896	-4.0792	-4.95	-4.3771	-4.5854	-5.0875	-4.1062	-4.7646	-4.6917	-4.0896	-5.1771	-4.4521	-4.2562	-5.1417	235.656	182.594	198.031	210.113	28.058	213.969	-60.206	166.720	143.227	67.755	-9.473	-52.002	95.720	58.411	47.416	230.253	0.00076237	0.00025095	0.0001088	550.44	2.8898e-06	3.6772e-06	719	189.49	4.8401e-06	3.8137e-06	304.14	120.17	68.435	30.361	2.5842e-06	62.114	0.00017948	0.00013357	3.7818e-05	564.81	1.4858e-06	1.5059e-06	743.97	196.62	1.5601e-06	1.4673e-06	313.79	125.21	71.174	31.793	1.5326e-06	64.893	53.178	-14.555	39.214	-67.566	50.349	63.926	-67.026	-61.373	47.196	53.453	-61.872	-56.788	-56.331	-50.035	116.236	-51.822	-8191	255	
52903.184	1	1	0	0	0.14359	0.14026	0.10133	0.13323	0.22375	0.15692	0.098771	0.18843	0.18873	0.26628	0.1848	0.35283	0.17977	0.16313	0.14422	0.23233	-3.7979	-4.6375	-4.7375	-4.0188	-4.9375	-4.3708	-4.3292	-5.0958	-4.1333	-4.6583	-4.9167	-4.2292	-4.9875	-4.4708	-4.2292	-5.3187	264.443	100.261	152.096	196.625	-78.722	97.134	224.749	244.089	-59.688	46.149	279.272	171.447	260.205	269.416	127.634	112.213	0.00075108	0.00044789	9.8265e-05	548.45	3.7612e-06	3.6361e-06	726.83	189.81	4.8866e-06	4.5767e-06	304.48	119.75	67.95	30.262	3.9115e-06	61.932	0.00017843	0.00013891	3.8491e-05	563.42	1.4704e-06	1.4626e-06	744.93	196.8	1.5178e-06	1.5079e-06	314.3	124.82	71.099	31.678	1.5493e-06	64.542	50.496	15.131	4.984	-67.354	56.353	83.806	-67.835	-61.740	33.408	71.639	-61.924	-56.749	-56.091	-50.433	89.135	-52.139	-8191	255	
52903.277	1	1	0	0	0.15837	0.063215	0.16287	0.19297	0.03133	0.093694	0.18417	0.14931	0.081222	0.026334	0.11798	0.18895	0.13284	0.19269	0.31724	0.1503	-3.9771	-4.6292	-4.8229	-4.0792	-4.9396	-4.3771	-4.4125	-5.1354	-4.2	-4.4437	-5.1604	-4.0687	-4.9	-4.8604	-4.0437	-5.1188	187.053	4.471	250.501	242.490	213.138	186.419	272.473	273.493	10.727	178.380	200.720	-23.062	178.747	-75.297	111.508	39.050	0.00084491	0.00041155	0.00010528	548.11	2.8202e-06	3.7625e-06	721.04	190.34	4.5963e-06	3.9224e-06	302.17	120.45	68.149	30.21	3.3056e-06	61.894	0.00017755	0.00013576	3.6892e-05	562.79	1.4516e-06	1.4765e-06	743.34	196.89	1.4965e-06	1.449e-06	313.5	124.74	71.054	31.742	1.5252e-06	64.506	53.739	16.167	5.624	-67.475	59.441	62.354	-67.527	-61.847	11.896	81.722	-61.526	-56.862	-55.996	-50.134	52.077	-51.943	-8191	255	
52903.371	1	1	0	0	0.15385	0.18408	0.092943	0.054398	0.18591	0.083776	0.024986	0.2351	0.28778	0.050706	0.11975	0.16127	0.23616	0.32147	0.14018	0.21928	-4.0271	-4.4333	-4.8562	-4.0604	-4.825	-4.6521	-4.2937	-5.1396	-4.3438	-4.3792	-5.125	-4.1562	-4.8979	-4.8167	-4.0979	-5.1896	175.129	238.551	-6.145	98.762	-54.249	45.573	-18.227	256.965	-40.839	135.162	181.806	203.692	256.610	-74.934	211.330	254.114	0.00076545	0.00041193	0.0001161	547.5	2.4659e-06	3.5335e-06	718.25	189.74	2.3426e-06	4.604e-06	303.62	119.38	68.195	30.407	4.0255e-06	62.054	0.00017564	0.00013599	3.7227e-05	562.51	1.4836e-06	1.4247e-06	743.98	196.91	1.5353e-06	1.4482e-06	313.97	124.81	71.151	31.707	1.5258e-06	64.585	53.771	-13.590	-17.900	-67.584	42.925	69.506	-67.443	-61.570	35.823	88.060	-61.810	-56.957	-56.208	-50.415	61.917	-52.059	-8191	255	
52903.469	1	1	0	0	0.19777	0.181	0.074342	0.1461	0.12867	0.21981	0.12615	0.09995	0.174	0.38218	0.033809	0.26439	0.13753	0.085563	0.083415	0.15663	-4.0583	-4.1542	-5.1792	-4.1917	-4.7229	-4.8521	-4.3417	-5.0271	-4.5854	-4.3063	-5.1937	-4.2146	-4.6729	-4.8667	-4.1625	-5.1625	48.543	231.459	158.904	196.331	231.384	21.827	254.449	166.222	192.998	-17.141	279.055	202.588	-72.881	262.735	144.890	209.729	0.00075222	0.00051763	9.4664e-05	545.85	4.2144e-06	3.1418e-06	723.43	190.09	2.6694e-06	5.1194e-06	303.27	119.78	67.469	30.098	1.6321e-06	62.037	0.000178	0.00013399	3.8317e-05	562.69	1.5187e-06	1.4557e-06	745.09	196.73	1.5085e-06	1.4784e-06	313.72	124.88	70.732	31.623	1.5472e-06	64.632	50.109	5.891	15.017	-67.481	31.422	91.853	-67.531	-61.712	45.845	71.193	-62.090	-56.596	-56.260	-50.040	33.986	-51.866	-8191	255	
52903.566	1	1	0	0	0.15241	0.21326	0.091441	0.12909	0.30865	0.038352	0.37669	0.058661	0.0084861	0.025051	0.016633	0.10505	0.27033	0.14348	0.11257	0.076997	-4.175	-4.1687	-4.9479	-4.2958	-4.3875	-4.9458	-4.1042	-5.0125	-4.6229	-4.0604	-5.0375	-4.3375	-4.4688	-4.9229	-4.1833	-4.9812	27.609	12.934	43.669	123.169	215.059	-41.172	224.314	82.761	193.008	223.753	-19.609	2.180	-41.524	204.493	-48.053	251.136	0.00074999	0.00031116	9.8384e-05	546.33	6.0767e-06	2.6802e-06	728.76	190.19	4.1373e-06	5.0871e-06	305.2	120.33	67.954	30.179	2.4243e-06	62.255	0.00017887	0.00013776	3.6713e-05	563.74	1.5044e-06	1.482e-06	745.8	196.9	1.4883e-06	1.445e-06	314.55	125.18	71.088	31.749	1.4955e-06	64.913	54.552	13.132	-6.858	-67.156	58.933	102.951	-67.236	-61.483	64.002	77.860	-62.038	-56.713	-56.147	-50.153	41.929	-52.246	-8191	255	
52903.660	1	1	0	0	0.05285	0.18595	0.16074	0.26535	0.050256	0.12432	0.37391	0.26499	0.10006	0.15444	0.21849	0.10868	0.21421	0.068602	0.13115	0.099968	-4.3917	-4.1479	-5.0792	-4.3458	-4.4437	-5.0146	-4.1729	-4.875	-4.8167	-4.025	-5.05	-4.4313	-4.4417	-5.025	-4.0333	-4.9083	49.621	55.117	-64.615	224.155	-7.985	175.417	204.474	206.754	196.685	142.673	264.733	86.413	-70.821	-74.544	108.667	-69.612	0.00075217	0.00049024	0.00012124	547.39	3.2912e-06	1.9435e-06	727.49	189.63	4.9626e-06	5.1118e-06	302.23	119.64	68.366	30.197	2.2239e-06	61.787	0.00017834	0.00013741	3.756e-05	563.55	1.5234e-06	1.4579e-06	744.96	196.52	1.4964e-06	1.4599e-06	313.26	124.79	71.144	31.766	1.5256e-06	64.592	47.627	10.561	4.316	-67.288	88.171	28.786	-67.508	-61.657	41.497	66.831	-62.079	-56.919	-56.104	-50.337	71.285	-52.113	-8191	255	
52903.758	1	1	0	0	0.024405	0.095557	0.071539	0.19148	0.1749	0.07985	0.22705	0.08153	0.23355	0.11432	0.22984	0.14391	0.035253	0.30298	0.16702	0.053159	-4.5771	-4.0542	-4.8792	-4.7188	-4.2188	-5.025	-4.3	-4.7021	-4.8396	-4.1646	-5.1125	-4.5354	-4.3667	-5.1146	-4.1875	-4.5563	170.558	280.232	27.208	109.798	113.113	92.891	231.421	192.221	115.267	-44.919	198.333	267.487	214.330	-62.687	111.032	-4.032	0.00072814	0.00038441	9.7803e-05	548.56	4.4307e-06	1.9502e-06	721.68	189.84	1.8153e-06	4.8007e-06	303.85	119.75	67.667	30.209	2.5008e-06	61.809	0.00017715	0.00013942	3.758e-05	563.83	1.4755e-06	1.4263e-06	744.87	196.41	1.4716e-06	1.4996e-06	312.84	124.77	70.873	31.657	1.4928e-06	64.377	47.979	8.861	5.740	-67.380	28.719	64.578	-67.323	-61.607	11.251	68.406	-62.126	-56.931	-56.022	-50.145	81.059	-51.891	-8191	255	
52903.879	1	1	0	0	0.31214	0.14795	0.165	0.073619	0.14825	0.02447	0.30374	0.074801	0.23373	0.27645	0.026025	0.2011	0.06347	0.13641	0.17051	0.13866	-4.75	-4.0833	-4.8146	-4.7854	-4.0938	-5.0021	-4.45	-4.5708	-5.0479	-4.1021	-4.8917	-4.6854	-4.2188	-4.9854	-4.1958	-4.6292	-5.966	-49.143	91.631	264.495	4.799	252.579	-19.174	-58.014	259.711	85.514	55.038	1.232	-69.025	54.782	89.015	247.271	0.00079296	0.00041311	7.2944e-05	548.6	5.4063e-06	4.1967e-06	723.59	189.15	2.4553e-06	4.1105e-06	303.42	119.22	67.816	30.169	3.3907e-06	61.714	0.00017564	0.00013676	3.7752e-05	563.47	1.5235e-06	1.4257e-06	743.92	196.18	1.4788e-06	1.4453e-06	313.23	124.37	70.639	31.564	1.5035e-06	64.503	52.400	18.032	11.236	-67.544	64.342	80.065	-67.511	-61.650	50.233	92.497	-61.975	-56.639	-56.436	-50.201	40.220	-52.265	-8191	255	
52903.973	1	1	0	0	0.047916	0.094204	0.23413	0.19983	0.26926	0.088132	0.099761	0.13706	0.023806	0.16536	0.34634	0.14135	0.15492	0.22677	0.16466	0.1341	-4.8521	-4.0312	-4.8458	-4.9354	-3.9771	-5.1021	-4.5708	-4.3896	-4.9583	-4.2438	-4.7146	-4.9167	-4.2729	-5.0563	-4.5146	-4.2396	61.694	35.097	229.344	147.693	-19.564	-45.640	224.390	170.901	2.229	22.541	198.668	267.489	-30.357	211.861	167.613	220.527	0.00069667	0.00040068	9.8553e-05	544.87	5.0779e-06	2.9894e-06	722.89	189.16	3.2134e-06	3.4752e-06	301.72	120.08	67.363	30.032	4.5429e-06	61.511	0.00017949	0.00013726	3.7948e-05	563	1.5248e-06	1.4133e-06	744.05	195.97	1.5082e-06	1.4482e-06	312.42	124.48	70.211	31.488	1.5056e-06	64.387	56.471	20.045	12.506	-67.380	59.172	88.500	-67.224	-61.736	42.474	62.375	-62.035	-56.647	-56.003	-50.174	85.100	-52.128	-8191	255	
52904.070	1	1	0	0	0.11198	0.14637	0.082459	0.13326	0.1621	0.22099	0.23576	0.085386	0.13943	0.23879	0.18021	0.20431	0.057405	0.084168	0.18441	0.27774	-4.6854	-4.1417	-4.6625	-5.0854	-4.0708	-5.1188	-4.675	-4.3313	-5.1792	-4.1333	-4.6625	-4.9854	-4.0771	-4.9729	-4.4771	-4.1562	153.477	24.000	139.929	112.221	215.551	258.734	193.921	-66.343	5.767	-12.218	167.260	-78.006	21.521	-0.561	105.509	113.365	0.00075582	0.00035278	8.565e-05	547.16	5.7416e-06	2.6302e-06	723.51	189.02	2.9099e-06	4.8432e-06	299.99	119.13	67.055	29.879	3.8685e-06	61.207	0.00017705	0.00013269	3.7831e-05	563.4	1.5044e-06	1.4683e-06	744.64	195.68	1.4619e-06	1.4717e-06	311.38	123.81	70.116	31.316	1.4994e-06	63.862	57.861	8.716	33.764	-67.274	57.994	90.988	-67.310	-61.721	13.854	49.096	-62.159	-56.525	-56.014	-50.434	62.303	-51.866	-8191	255	
52904.141	1	1	0	0	0.15935	0.28473	0.24862	0.19836	0.14358	0.1536	0.23708	0.11007	0.011528	0.13022	0.21119	0.18734	0.24956	0.14891	0.042588	0.19193	-4.7729	-4.3417	-4.4792	-5.1833	-3.9917	-4.8354	-4.7729	-4.1021	-5.0792	-4.4042	-4.5021	-5.0917	-3.9458	-4.8396	-4.7438	-4.2688	39.999	153.440	107.146	190.120	152.905	99.080	174.531	211.567	-68.774	145.005	168.018	257.167	254.938	-37.768	89.852	198.705	0.00076923	0.00024954	8.0918e-05	547.45	2.822e-06	5.2247e-06	717.53	188.35	2.2457e-06	4.1021e-06	299.5	119.47	67.654	30.09	2.4662e-06	61.324	0.00017396	0.00013808	3.8151e-05	562.94	1.524e-06	1.5147e-06	742.28	195.12	1.4784e-06	1.4523e-06	310.57	123.96	70.27	31.441	1.468e-06	63.962	56.071	8.535	-1.314	-67.252	82.972	73.905	-67.596	-61.761	17.742	73.472	-62.073	-56.605	-55.975	-50.287	62.764	-52.205	-8191	255	
52904.262	1	1	0	0	0.087561	0.12189	0.188	0.091282	0.2339	0.21389	0.11385	0.11093	0.042424	0.10679	0.1586	0.14394	0.29324	0.16595	0.14144	0.084159	-4.8438	-4.4354	-4.4542	-5.1167	-4.1521	-4.7292	-4.9458	-4.1	-5.1	-4.4104	-4.3562	-5.15	-4.1312	-4.6021	-4.8833	-4.1167	-73.931	108.802	95.479	24.531	-73.806	172.460	216.241	-76.667	254.868	-48.794	254.743	-49.569	258.903	238.790	217.306	-11.504	0.00075482	0.00057022	0.00015045	546.57	4.2081e-06	2.4734e-06	720.93	188.19	3.0732e-06	4.3135e-06	300.66	119.88	67.434	29.996	3.4284e-06	61.565	0.00017459	0.0001374	3.8632e-05	562.78	1.5068e-06	1.4927e-06	742.74	194.98	1.4965e-06	1.4661e-06	311.35	124.42	70.423	31.478	1.467e-06	64.248	48.502	8.568	-7.026	-67.228	19.206	64.396	-67.229	-61.472	12.980	49.689	-62.124	-56.879	-55.978	-50.344	70.910	-52.311	-8191	255	
52904.355	1	1	0	0	0.20619	0.12542	0.12945	0.088171	0.14367	0.29402	0.0048637	0.16366	0.21406	0.17417	0.11264	0.27696	0.057737	0.1952	0.15051	0.042174	-4.6833	-4.4458	-4.2604	-5.1562	-4.2438	-4.5729	-5.0646	-4.1583	-4.9375	-4.6438	-4.3	-5.1354	-4.3854	-4.5521	-4.9333	-4.1687	-76.357	92.055	269.505	126.162	260.686	221.875	190.706	185.207	258.208	166.392	-21.458	223.859	138.695	-37.042	75.346	225.934	0.00074159	0.00031418	0.00011135	544.15	5.8189e-06	4.3713e-06	721.32	188.77	4.1325e-07	4.4243e-06	302.64	118.8	67.618	29.976	3.6859e-06	61.677	0.00017735	0.00013404	3.6592e-05	562.25	1.5244e-06	1.5165e-06	744.5	195.16	1.5062e-06	1.4304e-06	311.66	124.46	70.471	31.482	1.467e-06	64.279	48.474	-9.724	9.837	-67.409	35.584	43.144	-67.302	-61.557	43.566	67.071	-62.040	-56.755	-55.814	-50.496	48.114	-52.196	-8191	255	
52904.453	1	1	0	0	0.10192	0.20938	0.040626	0.0299	0.17481	0.1437	0.25141	0.25488	0.041593	0.14297	0.090417	0.18098	0.15469	0.19854	0.1434	0.03709	-4.4	-4.8375	-4.1417	-5.0354	-4.3375	-4.4	-5.1854	-4.2063	-4.7875	-4.775	-4.1646	-5.0833	-4.3896	-4.4396	-4.9458	-4.2792	-29.446	219.533	119.103	-8.515	235.046	-65.692	278.372	264.361	-78.748	-53.424	138.880	271.003	106.630	-52.955	135.430	172.379	0.00077276	0.00039881	9.6255e-05	545.07	5.3038e-06	4.2123e-06	719.84	187.96	3.4816e-06	3.6912e-06	300.9	120.11	67.761	30.228	2.5352e-06	61.846	0.00017641	0.00013535	3.6764e-05	562.37	1.5624e-06	1.4583e-06	742.18	194.62	1.4997e-06	1.4711e-06	311.18	124.71	70.584	31.656	1.4378e-06	64.448	50.179	12.258	7.107	-67.553	40.050	69.026	-67.320	-61.614	11.313	68.367	-62.226	-56.561	-56.193	-50.656	55.517	-52.259	-8191	255	
52904.574	1	1	0	0	0.17905	0.16273	0.22975	0.19078	0.15865	0.063555	0.090503	0.24969	0.09944	0.12558	0.1045	0.18858	0.061888	0.25267	0.047733	0.22771	-4.3896	-4.8583	-3.9646	-4.9667	-4.4667	-4.3729	-5.025	-4.2729	-4.4854	-4.9187	-4.2625	-5.2354	-4.5917	-4.2708	-5.0542	-4.4187	-12.067	54.635	232.078	278.352	-77.592	-66.995	-58.614	193.720	-72.677	-42.876	78.673	-40.210	243.581	279.196	166.777	-70.731	0.00076757	0.00023308	0.00014686	544.32	6.8201e-06	2.4309e-06	716.14	187.47	1.5083e-06	2.1489e-06	302.01	120	67.62	30.06	4.5643e-06	61.696	0.00017533	0.00013563	3.6949e-05	561.16	1.5067e-06	1.4654e-06	740.58	194.45	1.4955e-06	1.4329e-06	311.1	124.36	70.609	31.511	1.4313e-06	64.156	51.863	7.745	7.461	-67.398	41.738	111.217	-66.959	-61.581	57.799	106.124	-61.916	-56.969	-56.071	-50.476	87.205	-52.125	-8191	255	
52904.672	1	1	0	0	0.10764	0.15194	0.043478	0.34074	0.060694	0.14067	0.22494	0.1583	0.17328	0.14324	0.15728	0.096951	0.07336	0.062879	0.06944	0.30026	-4.2479	-4.8167	-4.125	-4.9625	-4.6042	-4.0563	-5.275	-4.3396	-4.4812	-5.0021	-4.1646	-4.9792	-4.775	-4.0917	-5.0521	-4.5271	211.268	88.923	26.202	248.537	166.168	228.941	-67.640	258.482	233.394	201.697	-25.569	119.399	121.237	103.671	48.040	-58.077	0.00072318	0.00033884	8.0637e-05	542.91	7.4034e-06	3.0263e-06	718.08	187.42	1.7559e-06	1.4109e-06	301.26	119.89	67.981	30.289	3.6274e-06	61.489	0.00017845	0.00013133	3.6929e-05	560.94	1.4809e-06	1.4326e-06	740.17	194.58	1.4741e-06	1.4668e-06	311.22	124.77	70.777	31.567	1.5147e-06	64.262	42.472	-10.637	23.254	-67.366	35.326	77.343	-67.568	-61.639	1.392	67.467	-61.866	-56.568	-56.044	-50.736	88.566	-52.212	-8191	255	
52904.742	1	1	0	0	0.083852	0.20727	0.15892	0.12753	0.14693	0.10797	0.16532	0.31365	0.080007	0.21804	0.094052	0.047973	0.13457	0.24835	0.17599	0.049853	-4.0958	-4.9604	-3.9646	-4.9542	-4.7937	-4.0604	-5.275	-4.5458	-4.275	-4.9667	-4.2688	-4.7875	-4.7208	-4.0687	-4.9563	-4.7479	-32.347	188.301	144.244	210.470	116.885	178.388	-66.534	128.002	-17.482	-40.506	179.028	56.390	135.663	-33.027	29.905	10.606	0.00066549	0.00022382	0.0001364	543.21	4.6786e-06	4.7795e-06	717.89	188.29	2.5093e-06	2.9903e-06	299.65	119.77	67.098	29.958	3.7071e-06	61.742	0.00017861	0.00013331	3.8202e-05	561.05	1.4478e-06	1.4647e-06	740.42	194.23	1.5071e-06	1.3918e-06	310.25	124.55	70.403	31.447	1.4826e-06	64.413	55.182	12.584	5.437	-67.494	26.368	47.208	-67.243	-61.481	55.144	89.779	-61.979	-56.873	-56.395	-50.691	63.130	-52.063	-8191	255	
52904.863	1	1	0	0	0.28469	0.18559	0.094652	0.12517	0.052905	0.1886	0.15099	0.1066	0.19589	0.094628	0.029806	0.20991	0.063018	0.169	0.059985	0.22913	-4.0563	-5.1771	-4.2208	-4.7125	-4.8146	-3.9375	-5.0875	-4.6042	-4.325	-5.0146	-4.2833	-4.5625	-4.9583	-4.1042	-4.9062	-4.8125	48.421	67.002	94.393	246.027	161.952	17.752	-54.895	-2.211	-2.353	45.498	46.665	-12.066	56.390	264.949	125.149	190.806	0.00077863	0.00028626	0.00011079	544.53	3.9988e-06	3.0564e-06	717.2	187.58	2.8262e-06	3.1678e-06	299.5	119.96	67.118	29.966	2.6837e-06	61.735	0.00017798	0.00013254	3.6814e-05	560.28	1.4653e-06	1.4374e-06	739.43	194.25	1.4821e-06	1.4099e-06	311.17	124.4	70.273	31.424	1.4785e-06	64.348	54.826	30.094	6.874	-67.461	71.100	81.545	-67.519	-61.631	34.193	65.418	-61.964	-56.742	-56.249	-50.155	67.027	-52.040	-8191	255	
52904.961	1	1	0	0	0.22308	0.05361	0.11365	0.24068	0.12724	0.16543	0.15184	0.087108	0.19898	0.043319	0.16384	0.26736	0.2336	0.095746	0.26216	0.22356	-3.8312	-5.2125	-4.3313	-4.4104	-4.95	-4.05	-5.0188	-4.8354	-4.0375	-5.0479	-4.5437	-4.3896	-5.0792	-4.1708	-4.7417	-4.8667	102.551	74.741	-21.441	-64.297	126.031	-3.455	180.845	-60.798	-46.954	277.462	-71.534	273.042	127.511	-21.557	-62.843	234.003	0.00069334	0.00027326	6.87e-05	544.65	4.149e-06	3.9763e-06	717.91	187.1	4.682e-06	6.3226e-06	299.86	118.56	67.444	29.834	3.5466e-06	61.238	0.00017486	0.00013149	3.7289e-05	560.83	1.4373e-06	1.4823e-06	740.58	194.06	1.4933e-06	1.4395e-06	310.12	123.55	70.255	31.3	1.5106e-06	63.93	56.890	23.342	36.154	-67.302	30.619	62.444	-67.357	-61.574	43.002	58.901	-61.868	-56.566	-56.392	-50.457	56.341	-52.023	-8191	255	
52905.055	1	1	0	0	0.14127	0.1128	0.15302	0.12208	0.1025	0.08024	0.21757	0.16707	0.19945	0.16868	0.13381	0.059557	0.14971	0.19619	0.030741	0.028954	-3.7938	-4.9688	-4.2271	-4.3375	-5.0312	-4.1229	-4.6937	-4.8729	-3.8812	-5.0292	-4.6458	-4.4812	-5.0938	-4.1687	-4.5792	-4.825	274.036	64.586	39.335	-14.482	267.499	60.504	186.416	187.732	-33.921	-68.375	275.099	177.286	-40.555	-7.161	-67.848	189.848	0.00070507	0.00040964	0.00011776	543.72	4.9606e-06	2.7765e-06	717.02	187.16	2.2998e-06	3.1832e-06	298.9	118.98	67.304	29.715	1.8824e-06	61.163	0.00017512	0.00013346	3.674e-05	559.59	1.436e-06	1.4882e-06	738.76	194	1.4837e-06	1.4292e-06	309.23	123.81	70.08	31.288	1.5018e-06	63.88	48.946	16.612	31.576	-67.162	50.509	43.433	-67.317	-61.460	51.316	87.084	-61.870	-56.812	-56.089	-50.350	76.659	-52.092	-8191	255	
#DATA ENDS
