BOXY.EXE: ISS Imagent and Oximeter Data Acquisition Program Version 0.80
Ascii Record File

#ACQ INFORMATION
2  Detector Channels 
16  External MUX Channels 
1  Auxiliary Channels 
5000  Waveform (CCF) Frequency (Hz)
1  Waveforms Skipped 
30  Waveforms Averaged 
1  Cycles Averaged 
16  Acquisitions per Waveform 
10.0806  Updata Rate (Hz) 

#FILE INFORMATION
TRUE -- External MUX Channel results are PARSED.
FALSE -- AC DC and Phase are NOT grouped.
TRUE -- Companion Program Settings File CREATED.
FALSE -- AC data not excluded
FALSE -- DC data not excluded
FALSE -- Phase data not excluded
FALSE -- Auxillary Chn. data not excluded
Tab delimiters

#CALIBRATION STATE
TRUE -- Waveform Calibration Values APPLIED.


#AUX CALIBRATION VALUES
Val Type	aux-1	

Term	1.0000e+00	
Factor	0.0000e+00	


#WF CALIBRATION VALUES
A = Detector Channel
Val Type	A-AC1	A-AC2	A-AC3	A-AC4	A-AC5	A-AC6	A-AC7	A-AC8	A-AC9	A-AC10	A-AC11	A-AC12	A-AC13	A-AC14	A-AC15	A-AC16	A-DC1	A-DC2	A-DC3	A-DC4	A-DC5	A-DC6	A-DC7	A-DC8	A-DC9	A-DC10	A-DC11	A-DC12	A-DC13	A-DC14	A-DC15	A-DC16	A-Ph1	A-Ph2	A-Ph3	A-Ph4	A-Ph5	A-Ph6	A-Ph7	A-Ph8	A-Ph9	A-Ph10	A-Ph11	A-Ph12	A-Ph13	A-Ph14	A-Ph15	A-Ph16	

Term	0.00000e+00	0.00000e+00	0.00000e+00	0.00000e+00	0.00000e+00	0.00000e+00	0.00000e+00	0.00000e+00	0.00000e+00	0.00000e+00	0.00000e+00	0.00000e+00	0.00000e+00	0.00000e+00	0.00000e+00	0.00000e+00	0.00000e+00	0.00000e+00	0.00000e+00	0.00000e+00	0.00000e+00	0.00000e+00	0.00000e+00	0.00000e+00	0.00000e+00	0.00000e+00	0.00000e+00	0.00000e+00	0.00000e+00	0.00000e+00	0.00000e+00	0.00000e+00	0.00000e+00	0.00000e+00	0.00000e+00	0.00000e+00	0.00000e+00	0.00000e+00	0.00000e+00	0.00000e+00	0.00000e+00	0.00000e+00	0.00000e+00	0.00000e+00	0.00000e+00	0.00000e+00	0.00000e+00	0.00000e+00	
Factor	1.00000e+00	1.00000e+00	1.00000e+00	1.00000e+00	1.00000e+00	1.00000e+00	1.00000e+00	1.00000e+00	1.00000e+00	1.00000e+00	1.00000e+00	1.00000e+00	1.00000e+00	1.00000e+00	1.00000e+00	1.00000e+00	1.00000e+00	1.00000e+00	1.00000e+00	1.00000e+00	1.00000e+00	1.00000e+00	1.00000e+00	1.00000e+00	1.00000e+00	1.00000e+00	1.00000e+00	1.00000e+00	1.00000e+00	1.00000e+00	1.00000e+00	1.00000e+00	X	X	X	X	X	X	X	X	X	X	X	X	X	X	X	X	

B = Detector Channel
Val Type	B-AC1	B-AC2	B-AC3	B-AC4	B-AC5	B-AC6	B-AC7	B-AC8	B-AC9	B-AC10	B-AC11	B-AC12	B-AC13	B-AC14	B-AC15	B-AC16	B-DC1	B-DC2	B-DC3	B-DC4	B-DC5	B-DC6	B-DC7	B-DC8	B-DC9	B-DC10	B-DC11	B-DC12	B-DC13	B-DC14	B-DC15	B-DC16	B-Ph1	B-Ph2	B-Ph3	B-Ph4	B-Ph5	B-Ph6	B-Ph7	B-Ph8	B-Ph9	B-Ph10	B-Ph11	B-Ph12	B-Ph13	B-Ph14	B-Ph15	B-Ph16	

Term	0.00000e+00	0.00000e+00	0.00000e+00	0.00000e+00	0.00000e+00	0.00000e+00	0.00000e+00	0.00000e+00	0.00000e+00	0.00000e+00	0.00000e+00	0.00000e+00	0.00000e+00	0.00000e+00	0.00000e+00	0.00000e+00	0.00000e+00	0.00000e+00	0.00000e+00	0.00000e+00	0.00000e+00	0.00000e+00	0.00000e+00	0.00000e+00	0.00000e+00	0.00000e+00	0.00000e+00	0.00000e+00	0.00000e+00	0.00000e+00	0.00000e+00	0.00000e+00	-2.90631e+01	-1.25552e+02	-1.34417e+02	-1.83772e+02	-7.20645e+01	-6.10955e+01	-1.58193e+02	-1.62015e+02	-3.23909e+01	-1.01832e+02	-1.70609e+02	-1.70696e+02	-1.78180e+02	-1.76850e+02	-4.40641e+01	-1.49933e+02	
Factor	3.20294e-05	1.37736e-04	3.60325e-05	1.67790e-01	1.23194e-06	1.40486e-06	1.82739e-01	6.01972e-02	1.41033e-06	1.15288e-06	1.00393e-01	3.50361e-02	3.11072e-02	1.11864e-02	1.47115e-06	1.60536e-02	1.28001e-06	1.31859e-06	3.66219e-07	8.30035e-02	1.44006e-08	1.44477e-08	8.47747e-02	2.96083e-02	1.44213e-08	1.44501e-08	4.73672e-02	1.64815e-02	1.52180e-02	5.44559e-03	1.43905e-08	7.51965e-03	X	X	X	X	X	X	X	X	X	X	X	X	X	X	X	X	



#DISTANCE SETTINGS
A = Detector Channel
A-1	A-2	A-3	A-4	A-5	A-6	A-7	A-8	A-9	A-10	A-11	A-12	A-13	A-14	A-15	A-16	

2.5000e+00	3.0000e+00	2.5000e+00	3.0000e+00	2.0000e+00	3.0000e+00	1.5000e+00	3.0000e+00	3.0000e+00	3.0000e+00	3.0000e+00	3.0000e+00	3.0000e+00	3.0000e+00	1.5000e+00	3.0000e+00	

B = Detector Channel
B-1	B-2	B-3	B-4	B-5	B-6	B-7	B-8	B-9	B-10	B-11	B-12	B-13	B-14	B-15	B-16	

1.0000e+01	1.0000e+01	1.0000e+01	1.4400e+00	1.0000e+01	1.0000e+01	1.5100e+00	1.9400e+00	1.0000e+01	1.0000e+01	1.9900e+00	2.4900e+00	2.4100e+00	2.9000e+00	1.0000e+01	2.9800e+00	




#DATA BEGINS
time	group	step	mark	flag	A-AC1	A-AC2	A-AC3	A-AC4	A-AC5	A-AC6	A-AC7	A-AC8	A-AC9	A-AC10	A-AC11	A-AC12	A-AC13	A-AC14	A-AC15	A-AC16	A-DC1	A-DC2	A-DC3	A-DC4	A-DC5	A-DC6	A-DC7	A-DC8	A-DC9	A-DC10	A-DC11	A-DC12	A-DC13	A-DC14	A-DC15	A-DC16	A-Ph1	A-Ph2	A-Ph3	A-Ph4	A-Ph5	A-Ph6	A-Ph7	A-Ph8	A-Ph9	A-Ph10	A-Ph11	A-Ph12	A-Ph13	A-Ph14	A-Ph15	A-Ph16	B-AC1	B-AC2	B-AC3	B-AC4	B-AC5	B-AC6	B-AC7	B-AC8	B-AC9	B-AC10	B-AC11	B-AC12	B-AC13	B-AC14	B-AC15	B-AC16	B-DC1	B-DC2	B-DC3	B-DC4	B-DC5	B-DC6	B-DC7	B-DC8	B-DC9	B-DC10	B-DC11	B-DC12	B-DC13	B-DC14	B-DC15	B-DC16	B-Ph1	B-Ph2	B-Ph3	B-Ph4	B-Ph5	B-Ph6	B-Ph7	B-Ph8	B-Ph9	B-Ph10	B-Ph11	B-Ph12	B-Ph13	B-Ph14	B-Ph15	B-Ph16	aux-1	digaux	

11130.117	1	1	0	768	0.12595	0.1167	0.08529	0.47131	0.15563	0.0066368	0.18394	0.08058	0.15773	0.16603	0.18358	0.15648	0.12885	0.094046	0.16867	0.17394	-2.7625	-2.5229	-2.7708	-2.9917	-2.3312	-2.9771	-2.85	-2.7208	-3.1292	-2.5104	-2.7542	-2.9604	-2.2458	-2.9667	-2.925	-2.5042	128.181	187.323	17.884	229.034	85.312	151.117	140.247	135.540	19.973	64.320	127.334	118.480	161.301	224.895	97.891	-11.935	0.00019487	0.00032974	0.00012549	1020.5	1.1853e-07	1.8564e-06	1111.7	212.09	3.3976e-06	2.3156e-06	268.39	76.666	59.41	17.282	2.4348e-06	24.808	0.00017714	0.0001926	4.9526e-05	982.74	2.0113e-06	2.1114e-06	1071.9	206.72	1.994e-06	2.0754e-06	260.64	74.738	58.482	17.206	1.8989e-06	24.462	-56.616	-75.199	-45.805	-114.155	141.375	86.340	-114.299	-106.905	45.534	5.431	-107.006	-99.889	-99.936	-92.826	9.074	-93.602	-8191	255	
11130.213	1	1	0	0	0.11595	0.11961	0.18108	0.27378	0.072712	0.23875	0.33734	0.011273	0.23255	0.13475	0.20552	0.21258	0.077122	0.18894	0.31419	0.11006	-2.6729	-2.6292	-2.6437	-3.1063	-2.3229	-2.8417	-3.1813	-2.4938	-3.0583	-2.7625	-2.7042	-3.1833	-2.4208	-3.0563	-3.0667	-2.6021	203.366	49.975	103.885	163.324	-32.358	-24.339	221.316	75.863	149.865	95.186	180.176	135.296	107.557	159.859	-87.180	213.639	0.00021562	0.00026754	0.00013094	1012.1	2.1235e-06	4.4975e-06	1102.9	212.29	4.1976e-06	5.0585e-06	266.52	75.814	58.901	17.117	6.1057e-06	24.729	0.00018845	0.00018409	4.7614e-05	980.73	2.0635e-06	2.0049e-06	1069.1	206.52	2.1076e-06	1.9749e-06	259.56	74.484	58.41	17.117	1.8401e-06	24.392	-43.200	-86.592	-96.613	-114.247	174.222	12.625	-113.932	-106.589	99.670	-24.830	-106.789	-99.800	-99.708	-92.315	5.965	-93.761	-8191	255	
11130.309	1	1	0	0	0.12195	0.1248	0.074374	0.39077	0.29242	0.14616	0.14891	0.11478	0.051594	0.20647	0.10503	0.08237	0.014227	0.11607	0.11132	0.18091	-2.6396	-2.7167	-2.7208	-3.2646	-2.4188	-2.7646	-3.0625	-2.5083	-3.05	-2.7604	-2.8312	-3.1437	-2.5708	-2.7542	-3.1958	-2.5979	-21.303	180.897	130.326	218.379	-52.994	147.213	114.371	-49.784	-55.841	195.843	-81.272	-101.626	79.208	230.877	-22.984	98.795	0.00018063	0.00040472	0.00013161	1012.7	5.0415e-06	7.418e-06	1105.9	213.14	3.029e-06	2.9832e-06	268.73	75.687	59.058	17.192	1.941e-06	24.631	0.00019366	0.00017651	4.6282e-05	979.51	2.0925e-06	1.9434e-06	1067.1	206.83	2.0831e-06	1.9264e-06	259.47	74.637	58.443	17.047	1.7775e-06	24.418	-68.293	-11.070	-32.903	-114.157	-29.253	-8.740	-114.156	-106.728	59.964	35.520	-107.067	-100.486	-99.534	-92.350	164.483	-93.237	-8191	255	
11130.405	1	1	0	0	0.20698	0.14483	0.20582	0.24699	0.16726	0.019767	0.11928	0.30375	0.29198	0.22139	0.34518	0.012811	0.18655	0.32525	0.14919	0.15098	-2.6813	-2.9104	-2.4979	-3.2042	-2.5958	-2.8042	-3.2583	-2.3667	-3.05	-2.8	-2.5917	-3.175	-2.7875	-2.7438	-3.2208	-2.4875	16.273	224.569	111.897	-106.286	195.883	76.009	119.686	197.551	-15.982	-62.339	201.373	68.971	-17.257	164.641	93.098	99.378	0.00023301	0.00037854	7.6758e-05	1012.7	3.9327e-06	4.8521e-06	1106.4	212.56	4.6994e-06	2.5999e-06	269.31	75.963	59.254	17.146	3.8009e-06	24.639	0.00018719	0.00017202	4.4848e-05	979.99	2.0607e-06	1.8993e-06	1068.5	206.85	2.0055e-06	1.8715e-06	259.86	74.754	58.236	17.076	1.7889e-06	24.463	-45.561	-25.879	-18.632	-114.028	-3.752	17.312	-114.156	-106.535	5.261	93.829	-106.981	-100.180	-100.099	-92.576	-37.303	-93.495	-8191	255	
11130.502	1	1	0	0	0.15	0.06074	0.099948	0.20083	0.073533	0.11953	0.25654	0.1538	0.21024	0.24651	0.13033	0.19603	0.055436	0.12074	0.26438	0.22265	-2.4604	-2.9	-2.4896	-2.9771	-2.6771	-2.6396	-3.25	-2.2938	-2.8667	-2.9708	-2.4688	-3.0521	-2.7583	-2.5708	-3.1146	-2.6188	-42.395	109.664	26.827	171.190	135.358	219.732	125.786	50.472	0.790	83.938	131.406	180.870	211.434	219.039	8.640	-58.644	0.00017005	0.00010156	2.473e-05	1012.6	9.7973e-07	1.4905e-06	1106	212.52	4.6263e-06	2.9357e-06	267.49	76.059	59.541	17.142	3.3096e-06	24.807	0.00018222	0.00016602	4.5993e-05	981	1.9727e-06	1.7828e-06	1068.1	207.31	1.9463e-06	1.7639e-06	259.47	74.731	58.222	17.027	1.8673e-06	24.495	-61.489	90.195	11.826	-114.180	185.866	86.567	-114.264	-106.961	31.767	7.014	-107.250	-100.251	-99.730	-92.479	-37.828	-93.315	-8191	255	
11130.598	1	1	0	0	0.08813	0.07245	0.047307	0.17375	0.01726	0.1332	0.10515	0.13267	0.11716	0.23825	0.16839	0.15182	0.01161	0.28401	0.092215	0.27453	-2.2875	-3.0958	-2.3917	-3.0896	-2.7646	-2.4917	-3.2208	-2.7958	-2.6854	-2.8771	-2.5354	-2.95	-2.9396	-2.4167	-3.1125	-2.5542	128.804	167.968	232.427	-85.151	25.275	196.104	-15.848	144.433	142.892	-96.766	126.015	-6.937	162.651	226.104	-58.769	-77.921	0.00015408	0.00043393	0.00013987	1016.6	2.9921e-06	2.1989e-06	1103.2	213.85	1.3616e-06	5.1611e-07	269.2	75.977	59.415	17.155	1.2174e-06	24.765	0.00017353	0.0001584	4.8658e-05	979.49	1.8801e-06	1.7198e-06	1067.7	206.98	1.8086e-06	1.7123e-06	260.33	74.644	58.205	16.985	1.9684e-06	24.373	-76.499	-32.507	-41.993	-114.412	-4.065	28.082	-114.178	-106.883	-16.133	155.703	-106.958	-100.135	-99.745	-92.463	-119.171	-93.551	-8191	255	
11130.718	1	1	0	0	0.18795	0.1138	0.30862	0.21834	0.084553	0.25725	0.056327	0.17853	0.12565	0.15159	0.21714	0.27708	0.25965	0.22166	0.27273	0.25505	-2.2542	-3.0042	-2.4938	-3.0625	-2.7938	-2.4875	-3.175	-2.4708	-2.7188	-3.0542	-2.4583	-2.875	-2.8521	-2.45	-3.1375	-2.7562	-33.316	99.132	193.307	220.491	233.109	-19.332	-121.960	187.350	36.975	-10.273	181.334	-122.299	-60.860	-104.522	56.038	-75.828	0.00013719	0.00024203	0.00012354	1012	3.28e-06	1.4821e-06	1103.4	211.93	2.9014e-06	3.0414e-06	267.89	76.096	58.916	17.149	4.7629e-06	24.544	0.00016971	0.00016083	5.0486e-05	977.27	1.8135e-06	1.7253e-06	1066.8	205.96	1.7938e-06	1.7741e-06	259.49	74.527	57.914	17.021	2.0376e-06	24.354	-38.921	-85.151	11.912	-114.251	-6.345	28.138	-114.024	-106.884	-50.015	-66.255	-107.006	-99.875	-99.506	-92.468	41.716	-92.959	-8191	255	
11130.813	1	1	0	0	0.13949	0.033458	0.17471	0.16642	0.29072	0.1147	0.102	0.36182	0.20394	0.095513	0.24597	0.33892	0.078281	0.10445	0.1048	0.23838	-2.1354	-3.0396	-2.5458	-3.0646	-2.8917	-2.4083	-3.2771	-2.7479	-2.5125	-3	-2.7583	-2.7188	-3.1125	-2.2438	-3.0062	-2.9417	6.764	-37.779	86.501	-43.981	208.179	179.100	223.431	180.503	-97.018	90.329	171.933	52.418	160.138	124.898	-22.507	-92.293	0.00013125	0.00017384	8.7413e-05	1010.2	3.3297e-06	2.0732e-06	1102.6	212.56	1.4139e-06	3.1201e-06	269.03	76.094	59.344	17.204	1.2436e-06	24.662	0.00016307	0.00016835	5.1307e-05	977.59	1.7608e-06	1.8719e-06	1067.3	206.28	1.7956e-06	1.9012e-06	260.22	74.624	57.989	17.109	1.9764e-06	24.292	-42.325	201.103	-19.098	-114.233	-6.062	-13.855	-114.222	-106.564	-53.745	119.204	-106.765	-100.331	-99.792	-92.532	163.924	-93.516	-8191	255	
11130.909	1	1	0	0	0.096253	0.14035	0.089894	0.24863	0.29543	0.058109	0.093488	0.073808	0.22747	0.038295	0.33068	0.017036	0.17276	0.24303	0.22946	0.2137	-2.1604	-3.0375	-2.3854	-2.7229	-3.0021	-2.2125	-2.9083	-2.8146	-2.3354	-3.1208	-2.6688	-2.5917	-2.8625	-2.3042	-2.9125	-3.0771	-4.778	60.373	-15.510	199.902	60.347	130.968	201.958	137.970	223.569	195.332	220.297	-76.684	170.782	162.441	-69.556	200.390	0.00020098	0.00020817	6.0707e-05	1016.3	2.4164e-06	2.2408e-06	1104.8	212.44	2.4623e-06	1.3498e-06	268.29	76.507	59.536	17.12	1.4924e-06	24.979	0.0001628	0.00017453	5.0599e-05	977.35	1.7486e-06	2.0207e-06	1067.2	205.78	1.7928e-06	2.0079e-06	259.24	74.682	58.033	17.09	1.9663e-06	24.392	-34.800	123.082	-53.296	-114.307	-77.014	27.377	-114.279	-107.077	-17.473	-20.206	-107.000	-100.379	-99.893	-92.329	98.014	-93.330	-8191	255	
11131.005	1	1	0	0	0.2284	0.1889	0.21948	0.11331	0.20951	0.18744	0.19713	0.36062	0.085382	0.20339	0.32665	0.25633	0.096108	0.103	0.10071	0.091997	-1.9354	-2.9562	-2.6833	-2.5917	-3.1104	-2.5958	-2.9104	-3.0479	-2.4958	-3.1604	-2.7687	-2.5312	-3.2313	-2.5042	-2.6292	-2.9313	-3.166	74.734	-105.588	211.892	-105.537	129.134	125.842	170.438	126.955	177.987	218.199	191.017	-85.363	208.541	-22.909	-108.374	0.00027551	0.00029209	4.8646e-05	1011.5	1.4872e-06	2.174e-06	1101.6	211.46	4.8546e-06	3.6328e-06	266.2	76.151	59.14	17.053	3.8875e-06	24.511	0.00016807	0.00018612	4.8348e-05	976.78	1.8485e-06	2.0513e-06	1065.1	205.78	1.8689e-06	2.0246e-06	259.1	74.452	58.109	17.087	1.9189e-06	24.219	-58.994	60.930	-66.609	-114.283	39.963	63.733	-114.203	-106.719	5.034	32.098	-106.959	-100.123	-99.686	-92.145	19.098	-93.542	-8191	255	
11131.101	1	1	0	0	0.05756	0.10496	0.10806	0.23669	0.20698	0.15617	0.15001	0.12262	0.11136	0.16185	0.19548	0.13873	0.32455	0.052113	0.082497	0.20809	-1.9521	-2.9979	-2.7938	-2.6417	-3.1063	-2.4042	-2.8125	-3.0875	-2.3604	-2.8792	-2.8292	-2.4271	-3.0667	-2.6437	-2.5146	-2.9562	219.955	-84.905	-93.342	-110.057	0.315	223.393	67.162	191.487	175.630	-91.672	158.948	98.072	192.935	169.873	119.194	176.791	0.00019273	0.0004824	5.4187e-05	1010.1	1.4335e-06	4.02e-06	1100.9	211.65	4.0238e-06	2.9723e-06	266.12	75.459	59.143	17.155	6.0223e-06	24.524	0.00017793	0.00018339	4.7766e-05	974.88	1.9541e-06	2.0432e-06	1064.4	206.56	1.9955e-06	2.0233e-06	258.92	74.259	58.181	17.061	1.8796e-06	24.213	-43.155	-21.797	-32.784	-114.159	-117.620	-15.697	-113.985	-106.636	80.097	-21.371	-106.681	-100.415	-99.786	-92.248	8.222	-93.471	-8191	255	
11131.197	1	1	0	0	0.25271	0.11291	0.28253	0.092928	0.039458	0.1099	0.077154	0.064545	0.12757	0.24337	0.19884	0.21692	0.25665	0.11359	0.083176	0.12608	-1.9542	-2.8625	-2.8563	-2.4479	-3.0875	-2.5729	-2.6833	-3.1813	-2.6333	-2.9229	-2.9979	-2.4875	-3.0979	-2.6042	-2.5104	-3.1437	60.044	26.628	111.755	232.053	-19.907	209.002	-36.010	188.413	75.009	99.920	-123.742	-81.541	109.700	94.299	209.326	123.365	0.00020018	0.00031275	4.543e-05	1007.4	1.9657e-06	4.5586e-06	1100.8	212.82	3.8662e-06	7.3357e-07	269.09	75.705	59.334	17.162	2.0675e-06	24.744	0.00019256	0.0001812	4.6815e-05	974.69	2.0814e-06	1.9597e-06	1063.7	206.42	2.098e-06	1.9548e-06	259.33	74.184	58.449	17.066	1.8012e-06	24.312	-72.771	-106.273	-9.711	-114.460	0.637	92.917	-114.225	-106.710	11.655	135.976	-107.126	-100.710	-99.664	-92.071	191.595	-93.035	-8191	255	
11131.293	1	1	0	0	0.24612	0.2235	0.090681	0.15362	0.23813	0.073314	0.26648	0.31095	0.13078	0.19994	0.27762	0.13336	0.21892	0.26223	0.1327	0.13799	-2.1271	-2.7146	-2.9896	-2.6292	-3.0271	-2.8771	-2.4875	-3.2708	-2.5042	-2.7271	-3.0646	-2.2229	-3.0396	-2.8063	-2.5062	-3.0667	-32.300	-36.128	104.798	151.940	-123.761	93.450	211.236	148.558	97.680	-21.496	224.092	-35.469	-23.279	121.476	-122.986	-119.632	0.00015238	0.00044185	3.9403e-05	1012	5.196e-06	3.0549e-06	1103.2	210.86	3.7348e-06	7.2509e-07	269.19	76.222	59.199	17.228	2.9334e-06	24.84	0.00019491	0.00017643	4.5941e-05	977.68	2.0927e-06	1.9178e-06	1064	206.43	2.1086e-06	1.9164e-06	258.77	74.431	58.347	17.065	1.7791e-06	24.467	-55.296	-60.852	-38.154	-114.246	-49.130	7.680	-114.337	-106.685	-0.235	47.478	-107.164	-100.495	-99.815	-92.644	71.437	-93.401	-8191	255	
11131.414	1	1	0	0	0.11754	0.041216	0.19316	0.38544	0.31491	0.060068	0.10812	0.1771	0.10983	0.27486	0.26776	0.2291	0.08701	0.16177	0.055205	0.16777	-2.0667	-2.55	-2.9625	-2.3458	-2.9229	-2.8521	-2.5979	-3.0042	-2.6083	-2.4875	-3.0271	-2.4542	-2.9396	-2.6354	-2.3354	-2.9229	-0.624	-119.748	210.486	171.807	-47.877	181.376	185.643	125.759	105.099	-47.073	102.181	228.703	55.619	36.342	144.885	24.271	0.00022379	8.5066e-05	3.5899e-05	1010.8	5.6127e-06	3.439e-06	1101	210.56	6.0825e-06	1.229e-06	268.03	75.547	59.356	16.993	1.3639e-06	24.659	0.00018734	0.00016857	4.5899e-05	976.17	2.0648e-06	1.8511e-06	1063.4	206.54	2.0045e-06	1.8339e-06	259.07	74.597	58.206	16.944	1.8231e-06	24.401	-53.237	59.644	-101.168	-114.294	50.116	69.508	-114.040	-106.461	59.299	103.581	-106.986	-100.115	-99.693	-92.216	-2.339	-93.508	-8191	255	
11131.510	1	1	0	0	0.11889	0.24751	0.018527	0.37235	0.099968	0.21387	0.19191	0.21796	0.12607	0.33761	0.30631	0.13099	0.15834	0.04511	0.10288	0.20542	-2.1813	-2.525	-2.8542	-2.4771	-2.8292	-3.0833	-2.4729	-3.0604	-2.6583	-2.4	-2.9729	-2.7833	-2.5104	-2.975	-2.3167	-2.8229	-51.870	-44.493	117.253	213.372	-69.042	-89.897	117.088	205.768	182.046	-100.363	189.697	104.029	-18.996	-123.379	-112.824	177.994	0.00018797	0.00033055	3.5571e-05	1008.4	1.095e-06	3.2781e-06	1103.1	212.28	4.1345e-07	8.7079e-07	268.57	76.016	59.159	17.319	1.9052e-06	24.714	0.00017759	0.00016558	4.6681e-05	975.75	1.9108e-06	1.8087e-06	1064.2	206.38	1.9322e-06	1.788e-06	259.82	74.591	58.069	17.013	1.9474e-06	24.425	-64.169	-70.748	37.891	-114.145	11.712	117.270	-114.128	-106.693	151.978	26.944	-107.119	-100.438	-100.041	-92.919	224.644	-93.357	-8191	255	
11131.606	1	1	0	0	0.14939	0.13477	0.26635	0.12934	0.062138	0.085025	0.17832	0.15735	0.019807	0.18564	0.17062	0.071456	0.13891	0.25763	0.23888	0.067165	-2.3583	-2.2979	-2.9396	-2.5833	-2.6104	-2.9875	-2.6375	-2.8667	-2.7438	-2.4208	-3.1771	-2.625	-2.65	-3.0687	-2.3583	-2.9625	-47.204	-2.183	178.628	231.331	187.215	182.662	153.846	231.140	27.315	164.677	102.804	94.579	155.831	189.772	-104.285	-47.598	0.00020933	0.00024409	7.2262e-05	1016.9	1.0983e-06	1.8439e-06	1100	211.42	5.3453e-06	2.8901e-06	269.52	76.063	59.376	17.165	1.3528e-06	24.735	0.00017428	0.00016305	4.9487e-05	977.09	1.8745e-06	1.7361e-06	1063.7	206.19	1.8664e-06	1.7699e-06	259.78	74.474	58.068	16.955	2.0438e-06	24.4	-40.987	221.550	29.599	-114.249	6.638	127.392	-114.052	-106.763	42.016	-25.182	-107.221	-100.406	-99.718	-92.648	-5.861	-92.910	-8191	255	
11131.678	1	1	0	0	0.24862	0.16539	0.11632	0.17158	0.15234	0.12589	0.14343	0.084753	0.10189	0.061481	0.074278	0.050495	0.15334	0.16446	0.17631	0.02751	-2.575	-2.3792	-2.8021	-2.6292	-2.4625	-3.1375	-2.5958	-2.9354	-3	-2.3125	-3.0208	-2.6229	-2.6042	-3.1896	-2.3625	-2.7354	42.031	-34.583	-123.611	207.960	-86.016	113.899	-15.800	229.605	173.294	103.718	129.545	-2.758	121.554	-92.700	91.617	-56.009	0.00013305	0.00055497	0.00015204	1006.2	1.6797e-06	3.8479e-06	1104.2	210.92	3.7306e-06	4.4749e-07	267.45	76.483	59.496	17.274	1.8263e-06	24.726	0.00017055	0.00016764	5.2464e-05	973.8	1.8459e-06	1.8187e-06	1065.9	206.13	1.8431e-06	1.8974e-06	259.95	74.535	58.237	17.115	2.1108e-06	24.519	-60.372	-17.019	-88.128	-114.092	48.853	-55.777	-114.323	-106.571	4.672	118.404	-106.957	-99.910	-99.942	-92.285	184.236	-93.551	-8191	255	
11131.797	1	1	0	0	0.15474	0.024951	0.183	0.13135	0.18637	0.18141	0.17124	0.20304	0.21692	0.18434	0.13654	0.1856	0.16439	0.034034	0.10705	0.097837	-2.6437	-2.5958	-2.9167	-2.85	-2.4854	-3.1729	-2.5375	-2.6833	-3.0229	-2.5479	-3.1396	-2.8812	-2.4375	-3.0083	-2.5896	-2.8125	-17.785	-9.482	110.938	-14.073	-71.871	-75.023	170.432	174.151	65.098	47.283	30.111	-14.117	-123.865	-42.151	154.228	131.226	0.00012703	0.00064755	3.5003e-05	1011.9	3.1234e-07	3.4986e-06	1107.5	212.92	2.1407e-06	5.3238e-06	270.45	76.836	60.186	17.242	2.0038e-06	24.916	0.00016789	0.00018383	5.449e-05	980.59	1.9035e-06	2.0538e-06	1073.5	207.59	1.9136e-06	2.124e-06	262.39	75.33	58.786	17.238	2.1973e-06	24.655	-0.733	22.786	-10.809	-114.150	-83.712	219.742	-114.252	-106.834	98.657	-53.860	-107.094	-100.264	-99.975	-92.712	-105.138	-93.633	-8191	255	
11131.893	1	1	0	0	0.19116	0.23468	0.084779	0.01469	0.076547	0.12841	0.25975	0.25048	0.15654	0.25163	0.24185	0.031647	0.153	0.26265	0.1375	0.12283	-2.6875	-2.4979	-2.8542	-2.9771	-2.2438	-3.0646	-2.6312	-2.7146	-3.1854	-2.5542	-2.9542	-2.7896	-2.5271	-3.0854	-2.5938	-2.6292	57.360	158.384	123.957	157.004	142.032	-29.375	198.950	224.741	-88.949	-55.391	107.456	-22.356	199.839	163.072	100.549	120.509	0.00010319	0.00066793	0.00018211	1022	8.2896e-07	2.3243e-06	1113.9	214.6	3.8883e-06	2.7792e-06	273.01	76.952	59.711	17.305	5.0983e-06	24.926	0.00017636	0.00019965	5.4685e-05	986.88	1.9518e-06	2.1829e-06	1076.9	208.68	1.9352e-06	2.1675e-06	263.26	75.187	58.772	17.3	1.9915e-06	24.585	-19.867	-12.236	-74.171	-114.225	88.363	69.038	-114.111	-106.918	-8.586	19.148	-106.929	-100.343	-99.962	-92.306	6.851	-93.201	-8191	255	
11131.991	1	1	0	0	0.16268	0.1468	0.1045	0.33202	0.12297	0.15478	0.079963	0.092823	0.34624	0.27538	0.22971	0.053113	0.064529	0.081394	0.26685	0.10146	-2.6354	-2.5375	-2.7979	-3.1458	-2.4229	-3.1521	-2.9188	-2.5521	-3.2646	-2.4833	-2.6292	-3.0167	-2.5375	-2.9125	-2.8354	-2.4375	164.754	71.210	56.925	173.271	-6.493	159.309	124.381	40.397	29.530	-78.250	235.178	165.381	178.020	103.395	-67.203	140.501	0.00016545	0.00017302	0.00013383	1022.8	1.2258e-06	4.4389e-06	1120.6	215.27	1.7617e-06	3.2402e-06	270.42	76.775	59.946	17.397	3.5329e-06	25.03	0.00017568	0.00019438	5.0377e-05	986.5	1.9311e-06	2.096e-06	1079	208.73	1.9651e-06	2.0863e-06	262.15	75.176	58.864	17.295	1.9055e-06	24.504	-40.851	-19.090	-31.935	-114.223	23.357	108.277	-114.057	-106.782	210.297	-23.432	-106.928	-100.202	-99.989	-92.524	13.611	-93.609	-8191	255	
11132.110	1	1	0	0	0.19019	0.13467	0.16325	0.30225	0.085884	0.24423	0.25756	0.13247	0.12854	0.13487	0.094927	0.26014	0.22575	0.18426	0.034504	0.28236	-2.6521	-2.5	-2.5896	-3.0646	-2.5167	-2.9729	-2.9521	-2.5062	-3.1229	-2.6	-2.5896	-3.0583	-2.2854	-2.9938	-2.9354	-2.4396	-25.485	230.075	178.029	226.372	12.173	212.724	199.903	220.650	46.029	-29.057	115.346	-79.507	114.373	186.630	-105.824	114.094	0.00014744	0.00035241	7.6506e-05	1021.7	2.1477e-06	5.2747e-06	1119.2	214.73	3.758e-06	3.4264e-06	271.1	76.79	59.836	17.365	1.822e-06	25.04	0.00018127	0.00018722	4.7573e-05	987.43	2.0627e-06	2.0285e-06	1077.2	208.45	2.0718e-06	2.0273e-06	262.63	75.16	58.899	17.293	1.8395e-06	24.616	-72.442	28.151	-74.926	-114.275	-25.507	53.203	-114.339	-106.950	55.078	84.055	-107.104	-100.206	-100.104	-92.590	-32.053	-93.314	-8191	255	
11132.206	1	1	0	0	0.13984	0.15407	0.26628	0.22919	0.27108	0.2888	0.22029	0.1708	0.26214	0.14935	0.24149	0.23506	0.13198	0.20453	0.30372	0.088362	-2.5792	-2.6146	-2.5521	-3.4146	-2.4646	-2.6125	-3.0479	-2.4688	-3.0625	-2.8333	-2.4125	-3.1833	-2.5187	-2.8104	-3.15	-2.3542	64.663	169.127	-8.147	173.474	-8.073	-67.508	201.136	145.491	-33.908	99.832	177.467	190.207	23.215	125.003	111.972	114.064	0.00023603	0.0004041	8.3257e-05	1020.4	1.7437e-06	1.7265e-06	1114.7	214.27	5.5561e-06	5.0445e-06	272.09	76.96	60.22	17.245	2.2069e-07	24.919	0.00019143	0.00017871	4.6553e-05	987.43	2.1238e-06	1.963e-06	1078.3	208.82	2.1109e-06	1.9537e-06	262.42	75.53	59.006	17.204	1.7878e-06	24.722	-73.321	-34.912	-112.146	-114.366	109.587	-3.857	-114.197	-106.908	-0.137	48.656	-107.213	-100.156	-99.966	-92.507	13.500	-93.594	-8191	255	
11132.278	1	1	0	0	0.083353	0.040926	0.045126	0.086672	0.33189	0.32361	0.20257	0.18161	0.14045	0.22429	0.30862	0.13518	0.15544	0.21728	0.15449	0.13931	-2.5312	-2.7562	-2.3667	-3.0958	-2.4542	-2.7625	-3.1562	-2.5146	-2.9688	-2.8417	-2.4479	-2.9479	-2.6333	-2.5271	-3.0417	-2.5104	40.070	54.889	186.304	139.761	79.497	227.997	63.657	-123.719	-53.665	-4.417	207.938	134.536	-89.279	185.142	-89.879	123.437	0.00013128	0.00015848	0.00014101	1022.4	1.689e-06	2.0297e-06	1115.9	214.48	4.4359e-06	1.8368e-06	274.16	76.896	60.049	17.482	1.0799e-06	24.924	0.00019106	0.00017659	4.6391e-05	989.56	2.0974e-06	1.9262e-06	1078.1	208.83	2.059e-06	1.8961e-06	263.19	75.615	59.019	17.279	1.7955e-06	24.64	-32.424	-51.692	-22.157	-114.406	-62.639	53.739	-114.254	-106.950	38.407	-12.605	-107.278	-100.513	-99.820	-92.670	20.615	-93.574	-8191	255	
11132.398	1	1	0	0	0.15759	0.17125	0.20299	0.26798	0.1475	0.040192	0.25345	0.32312	0.067907	0.26674	0.093472	0.094953	0.24448	0.12816	0.38789	0.25745	-2.4729	-2.8292	-2.3917	-3.1667	-2.6958	-2.5604	-3.1312	-2.3979	-2.9958	-2.9958	-2.5208	-3.0646	-2.6625	-2.5625	-3.0875	-2.3875	37.221	-74.686	119.715	138.655	-124.375	159.778	187.400	85.029	-91.357	-28.189	211.418	-57.329	222.611	-38.288	40.659	147.339	0.0001067	0.00032991	0.00012473	1022.7	2.0802e-06	4.1274e-06	1122.2	215.44	2.0874e-06	1.4227e-06	271.38	76.904	60.183	17.471	2.8425e-06	24.903	0.00018977	0.00017447	4.7663e-05	989.51	2.0401e-06	1.8881e-06	1080.7	209.43	2.0431e-06	1.8781e-06	263.02	75.762	59.03	17.299	1.9264e-06	24.689	-79.167	-77.999	-84.519	-114.364	35.254	36.397	-114.423	-106.768	-112.638	3.676	-107.280	-100.134	-100.035	-93.130	-100.479	-93.681	-8191	255	
11132.494	1	1	0	0	0.17459	0.22676	0.03867	0.20103	0.1754	0.07298	0.19883	0.19101	0.14595	0.18815	0.34485	0.15644	0.12116	0.01447	0.23412	0.12551	-2.3042	-3.1188	-2.3208	-3.1375	-2.675	-2.5646	-3.3375	-2.6104	-2.7917	-3.0104	-2.3229	-3.1021	-2.7708	-2.5292	-3.1167	-2.6896	-27.718	-89.415	-34.606	140.347	6.144	-26.720	179.334	95.735	-91.506	-5.015	-98.691	101.883	170.637	111.723	99.834	225.014	0.00015708	0.0003201	4.011e-05	1024.4	2.153e-06	7.2962e-07	1125	214.88	6.3076e-06	2.8539e-06	273.44	76.696	60.659	17.391	5.1774e-06	24.937	0.00018161	0.00016466	4.9877e-05	990.58	1.9642e-06	1.848e-06	1082.1	209.41	1.9784e-06	1.8461e-06	264.22	75.732	59.146	17.179	2.0224e-06	24.697	-31.807	-117.708	-58.253	-114.269	192.543	91.554	-114.371	-107.164	37.726	-9.413	-107.326	-100.412	-100.041	-92.566	84.013	-93.546	-8191	255	
11132.591	1	1	0	0	0.19502	0.2547	0.11714	0.36592	0.019494	0.19411	0.18637	0.16497	0.28802	0.17116	0.14828	0.17795	0.064577	0.35237	0.27161	0.072352	-2.2604	-3.0438	-2.2521	-2.8521	-2.8729	-2.4688	-3.2479	-2.7479	-2.6646	-2.9771	-2.4667	-2.9104	-2.8458	-2.5396	-3.1813	-2.5833	-97.290	-100.268	-4.116	-112.103	119.554	-69.659	188.076	169.438	36.297	194.352	-82.485	-77.124	-70.292	190.168	89.434	145.028	0.00015612	0.0002411	2.6284e-05	1027.7	1.8642e-06	3.2214e-06	1119.4	215.14	3.9937e-06	2.0021e-06	271.45	77.009	60.216	17.53	2.6015e-06	24.987	0.00018043	0.0001672	5.3112e-05	990.78	1.9256e-06	1.8102e-06	1080.5	209.49	1.9184e-06	1.8173e-06	263.98	75.574	58.846	17.302	2.1031e-06	24.69	-31.772	-24.787	85.492	-114.089	212.811	31.767	-114.102	-106.769	-6.416	-56.458	-106.982	-100.466	-100.006	-93.048	205.083	-93.345	-8191	255	
11132.711	1	1	0	0	0.20268	0.095537	0.10227	0.084719	0.023842	0.16231	0.27386	0.323	0.15531	0.18987	0.17686	0.10834	0.11729	0.27363	0.011254	0.033486	-2.1813	-3.1083	-2.4958	-2.7792	-2.8375	-2.5021	-3.1354	-2.7542	-2.6271	-3.1458	-2.6792	-2.7333	-2.9	-2.3208	-3.0771	-2.7271	177.676	122.054	-122.422	-35.374	230.077	-28.226	176.225	88.992	-32.767	101.114	115.825	105.355	185.342	210.778	168.679	-118.892	0.00019649	1.3149e-05	5.7712e-05	1029.3	1.8886e-06	2.6041e-06	1117.6	214.42	1.988e-06	1.9888e-06	273.98	76.681	60.043	17.294	3.8954e-06	25.003	0.00017396	0.00017062	5.4094e-05	990.94	1.884e-06	1.9133e-06	1081.4	209	1.8506e-06	1.9283e-06	264.61	75.442	58.75	17.264	2.0944e-06	24.671	-56.525	-20.327	159.027	-114.472	-23.202	105.042	-114.261	-106.496	90.238	61.410	-107.213	-100.230	-99.776	-92.844	59.440	-93.455	-8191	255	
11132.807	1	1	0	0	0.1657	0.19278	0.16763	0.1159	0.0034756	0.19667	0.19189	0.13647	0.034553	0.082819	0.15565	0.18613	0.051731	0.16239	0.14612	0.10081	-2.1521	-3.0875	-2.5125	-2.8333	-3.15	-2.3708	-2.9938	-2.8229	-2.3958	-3.2042	-2.7104	-2.5917	-2.9104	-2.5417	-2.8812	-3.0354	190.896	-52.667	161.341	37.802	-85.625	202.298	204.023	127.894	233.791	-29.835	221.188	-122.338	226.685	178.137	-74.289	146.660	0.00019206	0.00015775	0.00014503	1023.3	2.7266e-06	3.7325e-06	1119.4	214.88	4.8145e-06	2.8844e-06	272.79	77.295	60.163	17.416	2.3902e-06	25.109	0.00016864	0.00018031	5.3595e-05	988.61	1.8193e-06	2.0432e-06	1081.2	209.15	1.8279e-06	2.0636e-06	264.47	75.643	58.879	17.353	2.0606e-06	24.674	-45.102	220.101	-16.284	-114.047	10.172	13.623	-114.294	-106.730	75.251	219.529	-107.077	-100.234	-99.726	-92.785	60.518	-93.365	-8191	255	
11132.902	1	1	0	0	0.17842	0.12943	0.076223	0.3475	0.2274	0.28026	0.47335	0.42421	0.16098	0.25416	0.077884	0.40336	0.18123	0.21818	0.12424	0.10795	-2.0979	-2.9313	-2.5375	-2.7208	-3.1	-2.5667	-3.0042	-2.9542	-2.3729	-3.1083	-2.6917	-2.6167	-3.2292	-2.425	-2.8396	-3.0667	-9.014	187.725	94.474	-56.438	114.297	-89.278	176.960	-111.250	-114.103	234.053	-123.712	223.856	159.007	186.883	157.592	-13.869	0.00021736	0.00021535	4.9244e-05	1027.9	2.2685e-06	2.5925e-06	1127.3	215.31	3.6115e-06	1.3027e-06	273.37	77.014	60.186	17.514	4.0373e-06	25.185	0.00017109	0.00019079	5.1548e-05	990.82	1.8902e-06	2.1436e-06	1082.7	209.27	1.9402e-06	2.1403e-06	263.53	75.457	58.924	17.396	1.9812e-06	24.615	-65.496	37.033	-89.781	-114.465	72.337	188.168	-114.366	-107.012	168.026	-85.993	-107.119	-100.534	-99.793	-93.029	92.164	-93.635	-8191	255	
11132.973	1	1	0	0	0.24072	0.11576	0.16494	0.26494	0.12734	0.12686	0.27719	0.26093	0.058329	0.038987	0.12652	0.31102	0.18052	0.26028	0.041836	0.25171	-1.9312	-3.0104	-2.75	-2.8125	-2.9813	-2.4125	-3.0521	-3.1792	-2.3625	-3.0292	-2.7896	-2.5521	-2.9938	-2.6396	-2.6979	-3.0563	191.517	67.112	-54.583	175.395	47.729	221.822	156.837	232.316	-25.092	89.554	66.323	-81.228	-118.385	-82.859	-22.979	-82.933	0.00011227	0.00036398	9.6684e-05	1024.4	8.2363e-07	1.6693e-06	1118.1	214.53	3.2371e-06	4.6664e-06	271.83	77.567	60.307	17.481	3.9466e-06	24.983	0.00018098	0.0001985	5.0056e-05	989.58	2.0142e-06	2.1383e-06	1080.8	208.41	2.045e-06	2.1189e-06	263.22	75.562	59.055	17.359	1.9564e-06	24.605	-52.177	-86.962	-22.622	-114.462	-3.346	9.015	-114.242	-106.750	18.114	1.368	-107.212	-100.597	-99.741	-92.528	66.380	-93.250	-8191	255	
11133.094	1	1	0	0	0.20538	0.16734	0.1072	0.29157	0.066457	0.18555	0.16719	0.20116	0.21492	0.32264	0.18628	0.083484	0.128	0.11773	0.16264	0.224	-1.9688	-2.8833	-2.7062	-2.5875	-3.0854	-2.3917	-2.7313	-3.0062	-2.4479	-2.8854	-2.9938	-2.525	-3.0021	-2.6292	-2.575	-3.2313	213.273	227.839	-63.253	-97.350	-90.081	0.545	164.482	203.297	-55.018	226.444	216.904	202.605	217.568	223.024	170.485	163.862	0.0001757	0.00029761	5.7089e-05	1022.6	2.0291e-06	7.545e-06	1119.6	214.46	9.1844e-07	4.6898e-06	272.56	77.359	60.427	17.298	3.0576e-06	25.032	0.0001954	0.00018876	4.8849e-05	989.21	2.0889e-06	2.0537e-06	1080.9	208.89	2.1109e-06	2.0106e-06	263.07	75.4	59.269	17.27	1.9061e-06	24.663	-57.613	145.802	-122.680	-114.129	-48.915	8.639	-114.266	-107.012	16.881	-8.782	-107.061	-100.605	-100.308	-92.894	75.329	-93.571	-8191	255	
11133.190	1	1	0	0	0.11029	0.1523	0.16214	0.29368	0.14202	0.34461	0.064421	0.15639	0.085415	0.20571	0.09109	0.29075	0.18666	0.062372	0.062254	0.11426	-2.1542	-2.8854	-2.8542	-2.3979	-3.0062	-2.5708	-2.6	-3.0812	-2.5625	-2.6604	-3.0104	-2.3479	-3.2396	-2.7313	-2.6417	-3.35	40.197	-21.523	80.952	-116.985	131.865	9.673	-91.412	224.351	42.675	-124.267	-0.115	92.604	133.875	28.724	-47.578	94.099	0.00021588	0.00036348	0.00014834	1025.6	2.7467e-06	9.0767e-07	1119.1	215.13	1.08e-06	7.4287e-07	271.46	76.793	59.894	17.423	4.3308e-06	24.952	0.00019768	0.00018086	4.706e-05	987.22	2.1507e-06	1.9634e-06	1077.6	209.44	2.1568e-06	1.9553e-06	262.92	75.572	58.922	17.252	1.822e-06	24.709	-77.540	-55.812	-20.856	-114.307	23.252	95.376	-114.225	-106.554	36.569	94.684	-106.969	-100.530	-99.648	-92.672	39.146	-93.512	-8191	255	
11133.286	1	1	0	0	0.088893	0.19466	0.15288	0.12852	0.16042	0.2618	0.047463	0.24799	0.063863	0.16281	0.23345	0.11669	0.22196	0.26799	0.19014	0.107	-2.2438	-2.6458	-2.9375	-2.4729	-2.825	-2.9833	-2.8187	-3.2771	-2.7313	-2.7208	-3.1333	-2.4958	-2.9958	-2.8688	-2.4146	-3.0521	-117.305	151.311	22.194	102.911	-85.992	167.419	-3.070	-14.680	161.802	-74.924	179.120	205.008	-99.133	-104.749	16.833	189.559	0.00016242	0.00022045	0.00011469	1018.7	2.5617e-06	1.3407e-06	1118.5	215.8	3.5504e-06	3.0243e-06	273.12	76.774	60.11	17.362	3.9586e-06	24.999	0.00019229	0.000177	4.5394e-05	987.12	2.079e-06	1.9017e-06	1077.8	209.59	2.0596e-06	1.9035e-06	263.38	75.592	59.122	17.248	1.8201e-06	24.704	-76.443	56.224	-15.229	-114.070	-65.003	214.384	-114.278	-106.682	13.199	-21.391	-107.199	-100.443	-99.567	-92.675	57.473	-93.776	-8191	255	
11133.383	1	1	0	0	0.14015	0.0060987	0.096489	0.17013	0.21853	0.16462	0.29444	0.11525	0.18223	0.21189	0.17864	0.12047	0.24174	0.18444	0.13235	0.14302	-2.1625	-2.4604	-2.95	-2.625	-2.8354	-2.9167	-2.5	-3.0771	-2.7104	-2.7375	-3.1625	-2.5875	-2.6958	-3.1542	-2.4354	-3.1417	-103.260	80.006	143.773	190.055	120.970	-24.351	175.394	92.079	58.624	220.522	148.789	199.420	187.379	-56.453	180.589	156.891	0.00022562	0.00049388	6.3295e-05	1027.6	1.029e-06	9.8397e-07	1118.5	215.54	2.8327e-06	1.8946e-06	273.47	77.008	60.157	17.233	1.9606e-06	25.069	0.00018328	0.00017049	4.537e-05	989.89	2.0158e-06	1.7855e-06	1077.8	209.69	1.9841e-06	1.8114e-06	263.92	75.74	58.907	17.18	1.9065e-06	24.769	-49.513	-45.050	-69.790	-114.472	-23.931	36.399	-114.378	-106.877	14.824	65.142	-106.940	-100.078	-100.344	-91.965	164.340	-93.276	-8191	255	
11133.503	1	1	0	0	0.10802	0.037374	0.10045	0.13731	0.038215	0.19078	0.20144	0.22798	0.18361	0.19273	0.12721	0.16675	0.23792	0.080527	0.16107	0.083699	-2.375	-2.4354	-3.1375	-2.8458	-2.7375	-3.1417	-2.7021	-2.9979	-2.7604	-2.6021	-3.1708	-2.6604	-2.7396	-3.0625	-2.5479	-2.8708	-82.490	137.166	37.874	182.103	85.436	225.755	197.192	47.203	29.196	-46.374	122.086	229.622	12.679	-105.715	194.706	32.492	0.00015107	0.00061083	3.4443e-05	1027.8	1.7291e-06	2.7126e-06	1117.8	215.21	1.8915e-06	7.917e-07	272.09	77.044	60.096	17.429	4.9065e-06	24.88	0.00017892	0.00016679	4.9472e-05	991.46	1.9587e-06	1.7752e-06	1078.8	209.74	1.9674e-06	1.792e-06	263.86	75.56	58.835	17.201	2.0231e-06	24.706	-50.158	-22.583	209.718	-114.334	-28.596	61.742	-114.225	-106.733	16.412	41.132	-107.187	-100.098	-99.880	-92.603	33.329	-93.403	-8191	255	
11133.575	1	1	0	0	0.11653	0.27975	0.21753	0.17938	0.2082	0.12056	0.22811	0.065251	0.2331	0.052168	0.053742	0.11029	0.29294	0.22791	0.2078	0.239	-2.3896	-2.4229	-3.1354	-2.675	-2.8396	-3.0417	-2.4896	-2.8854	-2.9062	-2.4042	-3.1437	-2.7229	-2.6729	-3.1479	-2.4771	-2.7542	-112.979	-73.649	85.379	197.234	-9.595	99.850	192.209	-30.244	186.354	187.635	-88.482	-108.223	120.031	8.471	79.966	158.409	0.00018756	0.00023933	7.6258e-06	1026.2	3.4085e-06	2.1732e-06	1123.5	216.67	1.0802e-06	1.8341e-06	275.27	77.377	60.453	17.273	2.0687e-06	25.094	0.00017255	0.00016704	5.1659e-05	991.27	1.8931e-06	1.7868e-06	1080.5	209.53	1.8509e-06	1.8188e-06	264.99	75.679	59.034	17.235	2.0795e-06	24.667	-67.166	25.578	-107.516	-114.354	-26.788	49.115	-114.376	-106.708	9.741	-21.442	-106.774	-100.371	-99.995	-92.393	8.420	-93.289	-8191	255	
11133.671	1	1	0	0	0.081193	0.16636	0.20363	0.23604	0.089373	0.16239	0.17563	0.27772	0.068227	0.22325	0.32843	0.28142	0.23219	0.11173	0.16955	0.1887	-2.6	-2.2917	-3.0625	-2.725	-2.3875	-2.9896	-2.7354	-2.6979	-2.9021	-2.2854	-3.1833	-2.7646	-2.6042	-3.1104	-2.4	-2.6292	45.190	-40.083	128.182	130.312	181.003	-33.391	152.507	228.413	-51.490	-2.701	214.303	63.203	234.766	-28.002	-69.319	-116.217	0.00018368	0.00031145	3.0312e-05	1024	5.5416e-07	3.6209e-06	1117.6	215.08	1.2095e-06	3.4384e-07	273.39	77.684	59.96	17.381	2.0754e-06	25.154	0.00016657	0.0001735	5.1402e-05	988.99	1.8191e-06	1.9046e-06	1078.4	209.27	1.7827e-06	1.9265e-06	264.52	75.646	58.684	17.275	2.0756e-06	24.607	-61.607	163.370	24.237	-114.258	-92.923	79.790	-114.339	-106.934	184.125	169.429	-107.177	-100.640	-99.889	-92.726	10.291	-93.330	-8191	255	
11133.792	1	1	0	0	0.18448	0.14177	0.19433	0.21437	0.038279	0.22429	0.23277	0.23063	0.10736	0.16138	0.21399	0.060768	0.28834	0.10388	0.25964	0.20091	-2.65	-2.3458	-2.9208	-3.0083	-2.5792	-3.0917	-2.8583	-2.7729	-2.9958	-2.3792	-3.0917	-2.8917	-2.5854	-3.0125	-2.6375	-2.5104	-40.708	166.206	202.983	-93.002	-14.686	96.753	172.840	156.817	-85.299	-92.421	196.497	212.052	-90.804	197.503	-82.387	-69.443	0.00029978	0.00038868	6.3407e-05	1025.9	1.5896e-06	7.8188e-07	1118	214.81	1.4503e-06	3.2663e-06	273.08	77.075	60.59	17.437	2.4872e-06	25.128	0.00016253	0.00018147	5.0901e-05	989.56	1.7889e-06	1.996e-06	1078.3	209.27	1.7986e-06	2.0344e-06	263.97	75.317	58.87	17.379	1.9607e-06	24.637	-51.809	2.603	77.050	-114.379	66.927	27.113	-114.289	-106.369	139.344	-14.334	-107.340	-100.496	-99.992	-92.725	-79.737	-93.771	-8191	255	
11133.886	1	1	0	0	0.13367	0.32732	0.04919	0.32093	0.087638	0.14394	0.23816	0.17237	0.10415	0.12028	0.18902	0.092209	0.19473	0.23253	0.14275	0.061833	-2.6083	-2.5938	-2.8563	-3.0417	-2.4083	-3.1437	-2.8583	-2.6167	-3.1271	-2.3937	-2.9208	-3.1042	-2.6917	-3.0563	-2.7771	-2.3479	-79.418	84.756	225.460	212.973	30.300	102.209	206.148	169.698	-22.140	1.721	167.252	7.390	-54.245	193.306	50.012	-91.859	0.00025967	0.00024916	0.00017003	1027.9	4.8809e-06	3.078e-06	1117.3	216.01	7.6745e-07	1.7592e-06	274.48	77.264	60.217	17.284	2.2728e-06	25.054	0.00016721	0.00018967	4.9973e-05	987.62	1.8567e-06	2.0896e-06	1078.3	208.97	1.8595e-06	2.0963e-06	264.07	75.463	58.892	17.282	1.8915e-06	24.588	-72.450	-22.454	-13.046	-114.208	218.947	148.712	-114.432	-106.717	30.319	17.830	-107.250	-100.270	-99.814	-92.713	29.575	-93.697	-8191	255	
11133.982	1	1	0	0	0.41679	0.091282	0.13126	0.11958	0.19469	0.10317	0.18348	0.13702	0.05348	0.04052	0.21233	0.16296	0.11817	0.29828	0.057896	0.083893	-2.7667	-2.5292	-2.7229	-3.2083	-2.5042	-3.1917	-3.0792	-2.6604	-3.0583	-2.6688	-2.6521	-3.0854	-2.3667	-2.6583	-2.7979	-2.5312	124.030	-6.511	216.728	177.237	-21.750	26.825	165.342	-124.392	87.710	-91.807	159.661	74.686	146.512	216.857	81.991	222.354	0.00017805	0.00032604	5.0167e-05	1024	2.4039e-06	1.4483e-06	1115.1	215.8	3.5831e-06	3.2631e-06	274.6	77.296	60.369	17.491	7.4288e-07	25.049	0.00017914	0.00018677	4.7908e-05	987.45	1.9815e-06	2.0632e-06	1077	209.23	2.0245e-06	2.0115e-06	264.07	75.508	59.116	17.338	1.8371e-06	24.625	-59.919	-41.844	233.894	-114.306	27.642	136.618	-114.279	-107.039	65.135	4.975	-107.702	-100.319	-99.691	-92.677	-112.246	-93.779	-8191	255	
11134.078	1	1	0	0	0.23831	0.27429	0.019112	0.15232	0.13079	0.18805	0.10461	0.085682	0.058688	0.20657	0.091795	0.075686	0.043276	0.27397	0.11942	0.11652	-2.5563	-2.4625	-2.6063	-3.3375	-2.2042	-2.8542	-3.0354	-2.3979	-3.0563	-2.6958	-2.6917	-3.1104	-2.4854	-2.85	-3.0583	-2.4792	194.883	-54.941	-30.318	178.788	12.823	-101.908	93.461	98.518	-81.624	13.718	174.940	107.145	149.678	-82.577	188.477	76.467	0.00024909	0.00013139	0.00010374	1023	1.9171e-06	1.896e-06	1124.1	214.48	2.7776e-06	5.2418e-06	273.46	76.95	60.435	17.31	3.0542e-06	25.285	0.00018516	0.00018236	4.6248e-05	987.14	2.0791e-06	1.9807e-06	1078.1	209.09	2.0561e-06	1.9256e-06	263.98	75.428	59.263	17.309	1.7922e-06	24.714	-75.155	-63.680	-18.797	-114.156	27.447	67.295	-114.271	-106.689	-5.896	-1.429	-107.405	-100.364	-99.924	-93.123	108.989	-93.572	-8191	255	
11134.174	1	1	0	0	0.11919	0.10479	0.2114	0.18122	0.070727	0.30974	0.20583	0.31909	0.092281	0.080973	0.094413	0.12405	0.18815	0.24031	0.17445	0.23973	-2.7438	-2.7271	-2.5083	-3.0979	-2.6396	-2.8396	-3.05	-2.5292	-3.1646	-2.7479	-2.4167	-3.3125	-2.4896	-2.5396	-3.0062	-2.5583	-10.104	233.542	136.983	-123.576	-24.730	194.725	163.345	232.298	142.963	-34.909	178.894	-30.359	170.740	-74.272	84.360	25.224	9.8556e-05	0.00049771	4.275e-05	1025.8	3.1939e-06	1.0006e-06	1117.7	216.08	2.9965e-06	1.7564e-06	276.59	76.826	60.361	17.466	1.6915e-06	25.13	0.00019	0.0001762	4.5539e-05	986.91	2.0594e-06	1.8992e-06	1075	209.65	2.0414e-06	1.8979e-06	264.63	75.468	59.076	17.239	1.7407e-06	24.715	-65.766	-19.723	75.879	-114.294	15.941	146.086	-114.185	-106.799	36.194	-34.563	-107.367	-100.399	-99.597	-92.318	169.722	-93.700	-8191	255	
11134.271	1	1	0	0	0.027917	0.043421	0.1314	0.11295	0.15608	0.11402	0.11455	0.2038	0.22806	0.34711	0.2172	0.14748	0.32797	0.22259	0.23952	0.18015	-2.5625	-2.7521	-2.3917	-3.1479	-2.4083	-2.675	-3.125	-2.6021	-3.0292	-2.9146	-2.4938	-3.1063	-2.5521	-2.4521	-3.1125	-2.5	223.817	136.117	116.649	164.853	167.778	-86.905	170.756	164.567	-105.205	190.216	-71.566	-76.856	192.273	175.235	4.192	46.507	0.0001412	0.00025662	4.8022e-05	1028.2	1.4659e-06	5.7546e-06	1116.7	215.9	6.7228e-06	3.5423e-06	275.33	77.056	60.264	17.479	1.3725e-06	25.07	0.0001845	0.00016838	4.4915e-05	988.99	1.9852e-06	1.8309e-06	1075	210.02	1.9862e-06	1.7624e-06	264.1	75.439	59.076	17.261	1.7362e-06	24.697	-27.625	-2.148	107.092	-114.442	-102.770	59.099	-114.261	-106.742	15.017	-54.464	-107.100	-100.517	-99.659	-92.588	-31.899	-93.469	-8191	255	
11134.391	1	1	0	0	0.18502	0.043158	0.066695	0.089277	0.099715	0.18969	0.19649	0.016432	0.067474	0.075352	0.092607	0.095051	0.17598	0.17158	0.15361	0.35739	-2.5604	-3.0396	-2.3417	-3.1542	-2.6167	-2.7521	-3.2562	-2.7042	-2.8688	-2.95	-2.5563	-2.8979	-2.7896	-2.5	-3.0187	-2.5563	202.230	49.982	-63.496	9.327	104.314	41.137	192.053	196.257	65.530	28.602	-37.070	164.465	200.154	-41.516	-91.711	211.154	0.00019746	0.00013099	3.472e-05	1023.2	1.1665e-06	3.2871e-06	1114.2	215.22	3.1307e-06	1.1752e-06	272.38	77.516	60.75	17.42	3.1531e-06	24.927	0.0001756	0.00016178	4.617e-05	986.94	1.8667e-06	1.751e-06	1073.4	209.33	1.8692e-06	1.7547e-06	262.9	75.509	58.889	17.188	1.8335e-06	24.611	-57.409	1.886	79.079	-114.212	62.913	209.083	-114.335	-106.678	-24.141	21.186	-107.442	-100.521	-100.086	-93.319	2.756	-93.460	-8191	255	
11134.487	1	1	0	0	0.241	0.11741	0.22205	0.32977	0.11605	0.19987	0.26975	0.15853	0.028434	0.17534	0.12102	0.21281	0.11912	0.19229	0.17962	0.27474	-2.3583	-2.9958	-2.4896	-3.0563	-2.7708	-2.4729	-3.3417	-2.5625	-2.775	-2.925	-2.4167	-2.9396	-2.9938	-2.6521	-2.9875	-2.6396	117.109	-115.153	-12.686	-63.702	5.982	122.115	149.401	-111.662	-7.016	35.686	214.718	33.169	-71.928	-24.549	32.743	117.464	0.00016688	0.0004052	7.1161e-05	1022.7	3.7978e-06	1.271e-06	1116.3	215.01	2.6279e-06	2.1452e-06	273.18	77.251	59.768	17.282	4.1275e-06	25.054	0.00016679	0.00015398	4.7521e-05	985.65	1.8129e-06	1.713e-06	1074.4	209.27	1.8198e-06	1.6873e-06	263.54	75.464	58.657	17.181	1.9632e-06	24.577	-48.403	-29.383	-60.258	-114.445	4.963	-78.202	-114.283	-106.780	143.687	-16.476	-106.884	-100.313	-99.830	-92.308	82.696	-93.406	-8191	255	
11134.584	1	1	0	0	0.13752	0.040618	0.35255	0.25532	0.17671	0.14631	0.14632	0.3565	0.15695	0.077814	0.079055	0.13292	0.28742	0.064753	0.31115	0.038071	-2.2479	-3	-2.5333	-3.0583	-2.7792	-2.6417	-2.9542	-2.7292	-2.4062	-3	-2.5583	-2.9458	-3.0208	-2.4667	-3.0438	-2.5729	70.562	153.018	158.211	208.037	170.129	54.617	217.154	154.754	-23.613	140.441	12.841	233.305	142.689	175.028	190.052	101.563	0.00014182	0.00016939	3.0675e-05	1019.2	2.8062e-06	8.5931e-07	1116	215.78	5.2627e-06	5.8947e-07	273.35	77.136	59.942	17.213	9.4318e-07	24.992	0.00016497	0.00015458	5.0388e-05	982.74	1.7785e-06	1.77e-06	1074.6	208.94	1.7458e-06	1.7563e-06	264.01	75.426	58.615	17.163	1.9988e-06	24.595	-30.152	123.189	-66.923	-114.325	64.873	-26.443	-114.038	-106.827	-53.161	-77.039	-107.015	-100.423	-99.836	-92.993	5.562	-93.492	-8191	255	
11134.680	1	1	0	0	0.38536	0.20159	0.16519	0.10894	0.099366	0.10792	0.29563	0.21891	0.26753	0.23738	0.25968	0.066624	0.082843	0.24825	0.15216	0.096356	-2.125	-3.1021	-2.6604	-2.9104	-2.9708	-2.4771	-3.2	-2.8604	-2.5062	-3.1312	-2.7521	-2.7875	-2.9354	-2.4125	-2.975	-2.9208	12.072	-41.550	54.486	219.000	-5.277	167.226	51.943	182.767	138.919	191.181	123.315	159.453	23.082	-20.192	-118.875	70.214	0.00019344	0.00033742	6.8918e-05	1014.2	9.1015e-07	1.1041e-06	1113.1	216.42	4.7841e-06	1.3893e-06	273.63	76.658	60.404	17.298	1.7413e-06	24.807	0.00016093	0.00016511	4.9997e-05	981.44	1.691e-06	1.8487e-06	1073.3	208.98	1.7344e-06	1.8552e-06	263.66	75.21	58.725	17.209	1.923e-06	24.428	-43.286	55.070	-85.523	-114.416	-31.061	-89.085	-114.076	-106.558	18.466	-9.139	-107.239	-100.465	-100.068	-92.909	171.854	-93.634	-8191	255	
11134.799	1	1	0	0	0.11306	0.18667	0.22498	0.22393	0.12973	0.2601	0.12196	0.18839	0.11018	0.030614	0.10241	0.075138	0.15118	0.26107	0.10913	0.11774	-2.0042	-3.0229	-2.5917	-2.7375	-3.0312	-2.4521	-3.1542	-3.0187	-2.5167	-3.1708	-2.8479	-2.6063	-3.075	-2.5229	-2.9333	-3.0229	-75.679	108.910	107.292	167.243	209.448	35.768	207.348	1.659	84.589	-58.295	21.820	39.698	-37.696	152.687	69.550	195.677	0.00019171	7.8468e-05	3.47e-05	1022.2	3.2268e-06	2.219e-06	1107.6	215.23	1.4322e-06	2.2442e-06	272.85	77.343	60.305	17.444	3.9341e-06	25.008	0.00015773	0.00017338	4.7802e-05	983.92	1.7039e-06	1.9421e-06	1071.9	208.98	1.715e-06	1.9129e-06	263.36	75.196	58.699	17.26	1.8352e-06	24.498	-51.591	134.737	-43.780	-114.271	55.269	17.247	-114.302	-106.501	50.084	22.383	-107.035	-100.161	-100.060	-92.666	13.995	-93.137	-8191	255	
11134.872	1	1	0	0	0.30137	0.16014	0.2094	0.12231	0.02322	0.18338	0.24264	0.20741	0.11676	0.036859	0.2921	0.16775	0.27184	0.25349	0.16657	0.30919	-2.0646	-2.9875	-2.7833	-2.6542	-3.0979	-2.6125	-3.0812	-3.1125	-2.3125	-3.0271	-2.725	-2.425	-2.9458	-2.5604	-2.8167	-3.0729	95.563	136.018	-47.693	218.095	138.275	-64.685	148.689	162.885	150.958	167.669	202.084	-106.055	222.707	58.588	-44.479	71.608	0.00021955	0.00034216	3.861e-05	1018.6	3.2073e-06	2.0416e-06	1110.4	214.15	1.4706e-06	3.6956e-06	273.16	77.284	59.976	17.431	1.4785e-06	24.874	0.00016283	0.00017644	4.5329e-05	981.51	1.7493e-06	1.9213e-06	1070.3	207.86	1.7947e-06	1.937e-06	263.4	75.268	58.794	17.214	1.7506e-06	24.489	-88.426	18.130	-118.519	-114.403	55.338	122.272	-114.269	-106.933	70.603	0.028	-107.081	-100.666	-99.994	-92.259	-0.228	-93.083	-8191	255	
11134.966	1	1	0	0	0.20447	0.21278	0.11537	0.55585	0.070899	0.13123	0.21503	0.16261	0.14704	0.048479	0.17964	0.18092	0.20767	0.2133	0.26359	0.12018	-1.9813	-3.0417	-2.8479	-2.5875	-3.1792	-2.6979	-2.7479	-3.1604	-2.4958	-2.8917	-2.9271	-2.5479	-3.1	-2.8063	-2.5354	-3.0458	-120.316	-28.933	218.841	232.869	-57.436	-108.356	190.983	96.920	166.033	2.221	192.816	187.476	39.678	198.095	232.387	163.278	0.00020377	0.00022697	5.2999e-05	1014.8	3.2207e-06	5.6484e-06	1111.7	214.35	1.7264e-06	2.8857e-06	272.79	77.199	60.252	17.453	3.5652e-06	25.08	0.00017071	0.00017177	4.4622e-05	979.91	1.8647e-06	1.8803e-06	1071.6	208.2	1.9009e-06	1.8724e-06	262.81	75.157	58.955	17.185	1.672e-06	24.476	-72.414	89.169	-70.586	-114.462	-5.387	45.507	-114.205	-106.458	-83.071	-91.242	-107.330	-100.429	-100.127	-92.796	146.152	-93.636	-8191	255	
11135.063	1	1	0	0	0.38377	0.21331	0.02824	0.14581	0.14555	0.14134	0.1876	0.21832	0.16735	0.11354	0.3471	0.32226	0.15547	0.26533	0.20303	0.16253	-2.1542	-3.0333	-3.0187	-2.5833	-3.0812	-2.7125	-2.8042	-3.2292	-2.5292	-2.7938	-3.0083	-2.3542	-3.125	-2.7917	-2.5771	-2.9667	102.953	-5.216	-73.305	214.983	11.554	-13.775	-103.116	160.130	-4.216	73.179	121.662	199.225	-91.087	-67.883	109.647	31.057	0.00021349	0.00020025	9.1749e-05	1018.9	2.3537e-06	3.5864e-06	1108.8	215.68	2.8613e-06	8.7867e-07	272.78	77.155	60.433	17.319	1.8934e-06	25.084	0.000176	0.00016492	4.2753e-05	980.6	1.9225e-06	1.8033e-06	1069.6	208.89	1.9516e-06	1.7986e-06	262.62	75.179	58.899	17.168	1.6792e-06	24.523	-49.634	62.764	-29.493	-114.342	81.415	7.903	-114.330	-106.601	-20.177	-120.107	-107.031	-100.202	-100.170	-92.318	111.278	-93.468	-8191	255	
11135.183	1	1	0	0	0.069126	0.17715	0.14266	0.22483	0.19975	0.21391	0.042911	0.22272	0.031712	0.23681	0.13095	0.14936	0.12201	0.15787	0.066823	0.068473	-2.1417	-2.8375	-2.9688	-2.6437	-2.9104	-2.9958	-2.5833	-3.3125	-2.5021	-2.6854	-3.0021	-2.3521	-3.0125	-2.9125	-2.4771	-3.2417	179.464	220.597	-27.684	180.302	113.268	14.744	131.130	36.112	227.582	202.131	4.190	-66.066	-116.043	161.301	-34.104	106.761	0.00021527	0.00017867	6.1669e-05	1017.5	3.234e-06	1.9334e-06	1107.7	214.94	1.8287e-06	3.6874e-06	274.34	76.834	59.46	17.477	1.4193e-06	24.888	0.00017434	0.00016066	4.1459e-05	981.45	1.9482e-06	1.7438e-06	1069.8	208.96	1.8865e-06	1.7433e-06	263.35	75.347	58.625	17.223	1.6718e-06	24.536	-48.278	-30.821	-51.946	-114.205	8.049	-7.254	-114.260	-106.646	22.924	20.342	-107.069	-100.075	-99.857	-92.076	-22.907	-93.414	-8191	255	
11135.279	1	1	0	0	0.14954	0.34608	0.12651	0.26296	0.11578	0.18142	0.2737	0.36261	0.17696	0.12905	0.064923	0.16531	0.25429	0.10857	0.16016	0.091313	-2.1083	-2.8625	-3.1188	-2.5	-2.9313	-2.9688	-2.6396	-3.1792	-2.6104	-2.5563	-3.1479	-2.3542	-2.9313	-2.9979	-2.4083	-2.8688	13.439	-60.060	45.270	157.944	87.389	-27.928	113.902	215.179	53.372	13.797	92.753	-14.502	35.045	199.597	78.335	-92.093	0.00019194	0.00021248	0.00010882	1015.7	3.9854e-06	3.1452e-06	1105.9	213.83	3.7796e-06	1.7755e-06	272.23	77.031	60.674	17.346	1.3848e-06	24.956	0.00017529	0.00016233	4.1746e-05	981.74	1.8754e-06	1.7078e-06	1069.4	208.75	1.8524e-06	1.7502e-06	262.83	75.435	58.925	17.138	1.7711e-06	24.582	-55.746	-12.224	-19.083	-114.342	30.537	-47.585	-114.382	-106.795	46.876	-121.840	-106.988	-100.339	-100.340	-91.967	210.558	-93.249	-8191	255	
11135.375	1	1	0	0	0.016878	0.061394	0.21122	0.11096	0.19674	0.18619	0.20939	0.14012	0.089841	0.095805	0.14502	0.2039	0.35891	0.16975	0.2067	0.23001	-2.2229	-2.5625	-3.1417	-2.7292	-2.8375	-3.0833	-2.575	-2.8271	-2.8521	-2.6125	-3.1396	-2.5125	-2.6792	-3.1667	-2.4208	-3.1354	184.211	-40.515	-50.353	-33.843	-109.287	-8.555	227.509	101.451	120.215	-103.347	85.466	149.106	-12.932	-112.533	-86.491	37.867	0.00020532	0.00058388	3.6734e-05	1015.5	1.6615e-06	5.2004e-06	1107.9	214.42	3.9385e-06	2.0851e-06	273.38	76.316	59.405	17.368	1.1552e-06	25.066	0.00016557	0.00015833	4.4263e-05	981.76	1.8318e-06	1.6898e-06	1070.9	208.55	1.8088e-06	1.6871e-06	263.39	75.298	58.595	17.153	1.8681e-06	24.616	-61.369	-2.904	20.643	-114.033	6.475	57.240	-114.377	-106.629	-34.449	-13.594	-106.933	-100.162	-99.709	-92.243	59.784	-93.605	-8191	255	
11135.472	1	1	0	0	0.097521	0.065861	0.29565	0.16299	0.059941	0.28973	0.1036	0.14284	0.073323	0.12184	0.31747	0.26792	0.14631	0.046946	0.091855	0.12472	-2.5542	-2.4688	-3.1312	-2.6937	-2.6229	-2.975	-2.3917	-3.1208	-2.8396	-2.4813	-2.8896	-2.5479	-2.5812	-3.15	-2.3896	-2.9583	-85.867	49.319	-88.151	140.190	-108.335	2.827	46.539	-69.764	177.680	114.956	207.220	-101.454	148.928	226.419	-47.348	197.772	0.0002466	0.00038083	6.359e-05	1017.9	2.3365e-06	1.9787e-06	1108.5	214.85	3.6413e-06	1.9104e-06	272.77	76.87	60.047	17.233	2.5467e-06	24.755	0.00016146	0.00015431	4.8022e-05	981.24	1.7889e-06	1.6684e-06	1071.1	208.89	1.7711e-06	1.7043e-06	263.95	75.356	58.632	17.099	1.9556e-06	24.53	-44.894	-6.525	15.585	-114.359	-17.635	35.561	-113.927	-106.527	25.853	72.493	-107.004	-100.856	-100.116	-92.585	43.763	-93.286	-8191	255	
11135.568	1	1	0	0	0.38268	0.2311	0.061776	0.1147	0.17936	0.098436	0.099084	0.25284	0.092228	0.060252	0.077036	0.19423	0.15847	0.12402	0.056959	0.057769	-2.5	-2.5167	-2.9833	-2.6708	-2.5854	-3.1146	-2.6813	-2.8937	-3.0729	-2.7021	-3.1021	-2.875	-2.7313	-3.1146	-2.5125	-2.825	-45.050	-42.910	-107.294	198.697	40.215	188.888	-74.548	70.868	-42.751	37.584	-47.390	169.850	-70.570	-118.704	68.476	-99.798	0.00014066	0.00063704	2.8664e-05	1018.1	1.5904e-06	5.7815e-07	1111.7	214.39	5.2459e-06	3.3025e-06	274.69	77.233	59.588	17.347	4.2772e-06	24.918	0.00016036	0.00015817	4.9073e-05	980.26	1.7546e-06	1.7653e-06	1071.1	208.38	1.7154e-06	1.7927e-06	264.51	75.317	58.407	17.181	1.9667e-06	24.516	-48.310	-43.429	113.784	-114.314	51.874	-90.796	-114.350	-106.904	21.387	49.558	-106.987	-100.311	-100.304	-92.473	-14.602	-93.605	-8191	255	
11135.664	1	1	0	0	0.081559	0.21953	0.20708	0.25284	0.19551	0.19264	0.08094	0.11517	0.15497	0.20443	0.11107	0.28636	0.18808	0.069434	0.26989	0.08608	-2.6771	-2.3771	-3	-2.8458	-2.6417	-3.1813	-2.675	-2.8792	-3.0667	-2.475	-2.9313	-2.9938	-2.3396	-3.1479	-2.4938	-2.5104	188.880	-14.573	175.824	135.261	5.789	-102.916	162.504	170.578	-98.772	-47.848	-66.722	110.624	97.373	-78.483	124.006	11.009	0.00017945	0.00020715	0.00012391	1012	1.9012e-06	2.541e-06	1106.9	214.72	1.5144e-06	5.5087e-06	274.02	77.231	59.546	17.325	2.6768e-06	24.897	0.00015609	0.00016597	4.9015e-05	978.68	1.6996e-06	1.8592e-06	1070.3	208.48	1.6855e-06	1.9068e-06	264.12	75.312	58.506	17.199	1.8631e-06	24.555	-38.798	-49.995	-45.767	-114.086	135.364	180.488	-114.265	-106.774	-112.894	30.620	-107.156	-99.943	-100.271	-92.394	28.565	-93.827	-8191	255	
11135.760	1	1	0	0	0.10623	0.15566	0.050679	0.19322	0.14399	0.17234	0.17414	0.20884	0.1691	0.0935	0.016103	0.098311	0.014784	0.11606	0.3453	0.054977	-2.7146	-2.4062	-2.9854	-2.9396	-2.5854	-3.0438	-2.7854	-2.6417	-2.8438	-2.3271	-3.0938	-3.0667	-2.4229	-3.0812	-2.4875	-2.7542	229.075	-89.531	17.881	126.339	209.091	-56.814	187.534	191.464	-115.061	8.711	155.129	-3.150	-38.771	17.601	65.865	110.358	0.00022649	5.6379e-05	7.914e-05	1021.4	2.7536e-06	2.6924e-06	1109.7	214.98	3.1681e-06	2.7518e-06	272.99	77.224	60.128	17.394	3.8811e-06	25.009	0.00015183	0.00017498	4.7002e-05	981.74	1.715e-06	1.9046e-06	1071.1	208.37	1.6932e-06	1.9352e-06	262.89	75.287	58.549	17.234	1.7784e-06	24.508	-33.896	224.240	-68.650	-114.255	-4.909	10.607	-114.273	-107.076	38.058	6.065	-107.040	-100.283	-100.233	-92.634	94.694	-93.346	-8191	255	
11135.881	1	1	0	0	0.39186	0.17583	0.37464	0.43987	0.12021	0.034232	0.27264	0.13971	0.37608	0.1694	0.10637	0.02941	0.32108	0.24025	0.25543	0.073694	-2.8271	-2.4104	-2.7	-3.2625	-2.1958	-3.1604	-2.8187	-2.4813	-3.0833	-2.4042	-2.6958	-2.8792	-2.5604	-2.9	-2.7958	-2.3604	-45.928	56.576	-73.089	221.219	-87.115	221.267	149.557	229.627	133.243	199.753	165.079	31.433	230.473	-57.985	88.624	43.093	0.00022744	0.00022838	4.7155e-05	1017.4	2.0972e-06	1.2099e-06	1108.7	214.16	3.2788e-06	3.3145e-06	272.91	76.902	59.894	17.351	2.9718e-06	25.027	0.00016181	0.00017681	4.4615e-05	979.32	1.7964e-06	1.8953e-06	1070.1	207.75	1.8393e-06	1.8952e-06	263.15	75.138	58.66	17.213	1.7453e-06	24.448	-74.336	-26.253	-18.745	-114.122	190.407	-11.670	-114.244	-107.040	58.758	-19.688	-107.165	-99.708	-99.636	-92.480	51.294	-93.299	-8191	255	
11135.975	1	1	0	0	0.13414	0.24293	0.25609	0.13911	0.16337	0.33409	0.19594	0.23572	0.099968	0.11223	0.24053	0.20759	0.31995	0.12202	0.35304	0.13456	-2.7812	-2.4042	-2.5208	-3.2292	-2.3104	-2.9938	-3.0125	-2.5187	-3.2	-2.6625	-2.6354	-3.1271	-2.6208	-2.9437	-2.9917	-2.6063	129.228	119.230	-106.521	110.240	208.624	-95.017	160.797	181.835	67.021	-118.534	85.570	164.251	-108.964	-108.006	191.457	-72.872	0.00018575	0.00030169	0.00018262	1016.6	4.6789e-06	8.1569e-06	1107.2	214.31	1.5648e-06	2.188e-06	273.67	76.802	60.262	17.283	2.3492e-06	24.908	0.00017462	0.00016953	4.3643e-05	979.61	1.9192e-06	1.8826e-06	1068.9	208.11	1.9566e-06	1.8541e-06	263.41	75.009	58.894	17.206	1.7111e-06	24.444	-45.649	-90.843	-79.732	-114.079	-19.069	20.888	-114.089	-106.906	149.227	-54.513	-107.024	-100.815	-99.638	-92.531	-71.733	-93.672	-8191	255	
11136.071	1	1	0	0	0.098938	0.055479	0.18123	0.23618	0.1344	0.12335	0.093006	0.090204	0.22776	0.14417	0.33731	0.19468	0.15826	0.1906	0.19933	0.17152	-2.7542	-2.7833	-2.5646	-3.3	-2.5542	-2.9333	-3.125	-2.6333	-2.9583	-2.8063	-2.5458	-2.9354	-2.5458	-2.6646	-2.9042	-2.4458	-114.680	86.212	-18.399	195.716	88.451	50.549	214.532	-123.429	-100.016	68.972	77.031	138.175	-91.513	48.085	56.552	160.388	0.0001907	6.7794e-05	3.8955e-05	1016.4	4.1873e-06	7.8984e-06	1106.7	213.8	3.6884e-06	2.9154e-06	272.04	76.666	60.362	17.251	1.0732e-06	24.997	0.00017801	0.00016582	4.317e-05	978.54	1.97e-06	1.8139e-06	1068.7	208.19	1.9486e-06	1.8088e-06	262.52	75.104	58.857	17.121	1.6685e-06	24.56	-51.055	29.143	213.228	-114.131	-60.875	14.202	-113.978	-106.632	10.579	-30.532	-107.126	-100.367	-99.678	-92.922	66.445	-93.643	-8191	255	
11136.167	1	1	0	0	0.19892	0.33953	0.41383	0.090709	0.16576	0.21417	0.22185	0.21474	0.19239	0.044201	0.19102	0.097656	0.051713	0.12529	0.13793	0.18268	-2.6646	-2.8146	-2.6	-3.0812	-2.6792	-2.825	-3.1437	-2.55	-3.0167	-2.9771	-2.5146	-2.9021	-2.5125	-2.4042	-3.0229	-2.4938	23.796	-28.425	173.683	1.550	172.873	79.244	171.634	-43.725	54.214	230.064	193.845	-28.933	184.046	-100.175	140.137	215.932	0.00019919	0.00014143	9.3242e-05	1018.1	3.8448e-06	3.5167e-06	1109.5	214.49	2.3591e-07	2.0441e-06	274.02	76.604	60.311	17.4	2.2817e-06	24.877	0.00017977	0.00015836	4.2086e-05	980.56	1.9066e-06	1.7851e-06	1069.8	208.11	1.9028e-06	1.7774e-06	263.6	75.23	58.672	17.166	1.6726e-06	24.565	-46.104	43.665	-94.724	-114.180	-0.072	-15.332	-114.129	-107.148	-69.530	-29.789	-107.175	-100.129	-99.793	-91.963	103.252	-93.513	-8191	255	
11136.264	1	1	0	0	0.12022	0.19361	0.11731	0.17362	0.11704	0.19653	0.13237	0.071296	0.12108	0.062125	0.21238	0.27081	0.19637	0.28382	0.15106	0.12923	-2.5687	-2.9833	-2.3187	-3.2562	-2.7021	-2.6792	-3.1833	-2.6417	-2.8271	-2.9417	-2.7104	-3.1792	-2.8063	-2.4333	-2.9292	-2.625	-55.718	-88.803	228.470	115.624	68.871	62.171	125.733	154.886	-73.586	-121.528	111.859	-103.273	205.462	212.590	198.156	-0.064	0.0001926	0.00050719	9.4069e-05	1013.9	2.4974e-06	2.1326e-06	1107	214.45	4.2556e-06	2.0382e-06	273.72	76.238	59.99	17.284	1.3217e-06	24.843	0.00017048	0.00015678	4.3302e-05	981.39	1.8443e-06	1.6917e-06	1068.9	208.53	1.8612e-06	1.6793e-06	263.4	75.274	58.478	17.151	1.7404e-06	24.545	-87.894	-35.340	-63.069	-114.235	4.163	13.318	-114.046	-106.575	11.392	15.992	-107.246	-100.465	-99.589	-92.646	-100.614	-93.245	-8191	255	
11136.360	1	1	0	0	0.18872	0.22582	0.10319	0.19463	0.028844	0.22512	0.13583	0.057642	0.04558	0.10101	0.26441	0.026739	0.2877	0.13699	0.13584	0.10545	-2.4667	-2.8812	-2.5875	-3.0563	-2.6958	-2.6875	-3.2146	-2.55	-2.6625	-3.0792	-2.5625	-3	-2.7292	-2.5687	-3.2479	-2.5938	115.951	-33.166	146.808	130.228	-105.216	220.869	227.580	106.202	-68.445	-71.661	-58.835	-106.062	166.007	-9.632	145.512	145.844	0.00024713	0.00019489	1.174e-05	1014.9	3.8239e-06	3.3328e-06	1106.6	215.4	3.0966e-06	9.9073e-07	270.82	76.794	59.863	17.282	4.3567e-06	24.781	0.00016405	0.00015033	4.5056e-05	979	1.8193e-06	1.6863e-06	1069.4	208.7	1.7727e-06	1.6167e-06	262.59	75.215	58.414	17.096	1.8643e-06	24.492	-49.248	-13.800	91.801	-114.320	-20.908	76.438	-114.256	-106.746	-8.347	-39.770	-106.987	-100.099	-99.856	-92.692	27.154	-93.666	-8191	255	
11136.480	1	1	0	0	0.1147	0.26221	0.13012	0.34113	0.12798	0.03668	0.13971	0.20761	0.063585	0.16466	0.2149	0.13842	0.27451	0.31134	0.21379	0.092417	-2.1771	-2.9208	-2.2125	-3.1521	-2.9417	-2.6708	-3.1229	-2.5771	-2.5958	-3.0563	-2.5208	-3.0354	-2.9542	-2.4875	-3.2812	-2.7083	55.044	-76.848	-39.403	113.861	-23.847	167.754	135.573	182.289	60.867	-14.121	-21.526	-102.536	144.414	218.614	183.872	21.340	0.00016099	0.0004665	3.8044e-05	1015.3	2.7583e-06	3.7562e-06	1104.8	214.21	3.5384e-06	7.2412e-07	272	76.84	60.206	17.384	1.5975e-06	25.028	0.00015885	0.00014991	4.7161e-05	979.39	1.7076e-06	1.6668e-06	1067.7	208.58	1.6913e-06	1.6658e-06	263.34	75.258	58.369	17.13	1.9098e-06	24.531	-57.792	-70.306	71.670	-114.243	65.331	41.515	-114.269	-106.869	57.122	26.679	-107.124	-100.358	-99.901	-92.651	177.803	-93.240	-8191	255	
11136.576	1	1	0	0	0.18647	0.062976	0.0024048	0.11458	0.40175	0.13516	0.03002	0.20668	0.18802	0.14546	0.1893	0.1451	0.13735	0.26068	0.056604	0.16715	-2.1854	-3.1625	-2.4125	-3.0104	-2.9271	-2.25	-3.2292	-2.7479	-2.5062	-3.15	-2.6063	-2.6208	-3.0271	-2.4042	-3.0458	-2.7354	-60.787	151.402	180.000	-36.600	-122.381	88.027	-21.636	223.918	8.115	112.027	12.475	137.569	-58.108	208.619	-3.991	74.251	9.608e-05	0.00034675	3.8398e-05	1017.4	3.3664e-06	3.4329e-06	1106.1	215.28	4.3362e-06	1.2788e-06	272.73	77.127	60.046	17.552	1.8026e-06	25.007	0.00015656	0.00015689	4.8645e-05	978.77	1.7036e-06	1.7717e-06	1070.5	208.43	1.686e-06	1.7764e-06	263.47	75.055	58.481	17.201	1.8606e-06	24.5	-44.291	-24.747	-75.997	-114.179	-1.565	-3.793	-114.016	-106.595	6.079	-12.280	-107.017	-100.227	-100.081	-92.220	38.814	-93.337	-8191	255	
11136.673	1	1	0	0	0.048265	0.36896	0.13356	0.1639	0.03519	0.10057	0.38205	0.076669	0.085144	0.22595	0.080868	0.03506	0.1121	0.089464	0.13401	0.083487	-2.1021	-3.0625	-2.7208	-2.7271	-3.0417	-2.5646	-3.2042	-3.0667	-2.3438	-3.1771	-2.6521	-2.6875	-3.0958	-2.6417	-2.9458	-3.0125	-81.586	75.299	190.772	-116.385	165.815	141.372	153.320	177.231	19.173	64.070	185.314	-114.752	-122.764	74.599	184.728	-39.884	0.00014979	0.00023462	2.5544e-05	1012.8	2.0196e-06	3.9192e-06	1110.4	214.29	3.6671e-06	1.835e-06	271.75	76.754	60.035	17.421	1.8541e-06	25.016	0.00015378	0.00016632	4.6875e-05	977.36	1.6372e-06	1.8472e-06	1068.9	207.8	1.6832e-06	1.8381e-06	262.59	74.978	58.53	17.169	1.8177e-06	24.48	-72.539	-105.602	-5.957	-114.578	-62.539	23.664	-114.325	-106.609	45.189	-103.534	-107.030	-100.269	-100.106	-92.435	83.692	-93.674	-8191	255	
11136.744	1	1	0	0	0.18389	0.042246	0.18198	0.15247	0.10347	0.34533	0.25158	0.15386	0.15228	0.17178	0.046749	0.024926	0.092513	0.083992	0.1839	0.12808	-2.0708	-3.0208	-2.4813	-2.7021	-3.0292	-2.5687	-3.0271	-3.0479	-2.4562	-3.1125	-2.725	-2.4854	-3.0479	-2.5708	-2.7562	-3.1396	-72.490	5.144	108.686	-81.679	-120.289	-35.037	22.307	-103.870	151.061	-40.063	49.676	178.172	165.626	5.174	61.539	-116.806	0.00017453	0.00046153	5.9568e-05	1013.5	2.3365e-06	2.6576e-06	1111.1	214.54	4.7836e-06	1.3228e-06	271.8	77.031	60.739	17.335	6.4204e-07	25.128	0.00015359	0.00017166	4.4751e-05	976.15	1.6841e-06	1.9023e-06	1068.5	207.66	1.736e-06	1.8706e-06	262.65	74.985	58.642	17.18	1.7403e-06	24.421	-68.742	-16.479	-95.641	-114.223	-0.650	123.822	-114.086	-106.453	71.429	-69.133	-106.864	-100.081	-99.783	-92.018	-10.234	-94.058	-8191	255	
11136.840	1	1	0	0	0.19392	0.055363	0.072001	0.27529	0.095493	0.15864	0.235	0.095064	0.20278	0.22537	0.066058	0.48202	0.36154	0.14148	0.19831	0.18318	-2.0667	-2.9667	-2.5875	-2.5458	-3.1917	-2.5583	-2.9313	-3.1083	-2.3104	-2.9437	-2.9562	-2.5521	-3.1583	-2.6542	-2.7208	-2.9854	-43.062	-101.194	56.542	200.535	17.440	218.984	187.821	125.996	-75.559	-122.272	-124.040	154.094	176.485	148.967	39.619	140.392	0.00018747	0.0002222	0.00017832	1017.1	4.3052e-06	5.0626e-06	1109.5	214.7	3.3578e-06	3.494e-06	272.75	76.8	59.836	17.343	2.9374e-06	25.018	0.00016233	0.00017231	4.4196e-05	977.79	1.8134e-06	1.8661e-06	1067.5	208.1	1.8283e-06	1.8505e-06	262.79	74.994	58.583	17.166	1.7204e-06	24.42	-47.993	4.487	-28.265	-114.377	25.141	67.381	-114.440	-106.963	49.879	-37.729	-107.285	-100.228	-100.231	-92.481	28.671	-93.388	-8191	255	
11136.959	1	1	0	0	0.13089	0.24399	0.12129	0.042433	0.32067	0.045369	0.17863	0.16289	0.20043	0.037151	0.15366	0.10961	0.14294	0.30511	0.15585	0.17949	-1.9125	-2.8312	-2.8563	-2.5771	-3.1875	-2.5708	-2.6437	-3.0167	-2.1625	-2.7833	-3.0646	-2.5667	-3.0021	-2.7104	-2.6104	-3.2271	45.524	206.940	62.121	18.474	85.096	20.923	198.968	-121.652	27.284	181.098	97.807	223.277	219.339	174.990	230.455	-89.764	8.8805e-05	0.00043683	0.00013414	1014.2	9.7829e-07	5.1904e-06	1112.2	214.97	2.679e-06	4.1582e-07	274.2	77.447	60.316	17.316	1.7719e-06	25.094	0.00017447	0.00016735	4.2673e-05	977.51	1.9081e-06	1.8135e-06	1067.5	207.69	1.9125e-06	1.7733e-06	262.97	75.187	58.892	17.13	1.6382e-06	24.542	-37.562	15.389	-26.660	-114.282	109.634	33.498	-114.296	-106.955	62.669	229.738	-107.035	-100.231	-99.798	-92.320	71.183	-93.140	-8191	255	
11137.055	1	1	0	0	0.14715	0.061653	0.28269	0.099313	0.23996	0.14647	0.28831	0.24237	0.099406	0.15816	0.079414	0.19712	0.11627	0.098108	0.29416	0.13809	-2.0604	-2.8187	-3.0333	-2.3979	-2.9938	-2.675	-2.7625	-3.2854	-2.4354	-2.7333	-3.15	-2.5479	-2.775	-2.7062	-2.5354	-2.9083	-94.526	-69.209	-105.619	217.965	-18.716	-28.152	211.081	186.909	-42.646	6.058	-124.378	88.601	116.484	8.026	92.597	217.688	0.0002018	0.00049443	7.3885e-05	1014	2.2654e-06	3.3026e-06	1109.2	214.75	4.667e-06	3.699e-06	271.43	76.49	59.453	17.362	2.3344e-06	25.055	0.00017619	0.0001593	4.0725e-05	978.2	1.8697e-06	1.7237e-06	1067.2	208.28	1.8676e-06	1.7135e-06	261.7	75.07	58.665	17.145	1.635e-06	24.445	-54.435	-46.337	-53.121	-114.201	43.734	49.444	-114.438	-106.623	1.346	24.467	-107.095	-100.617	-99.951	-92.774	40.407	-93.311	-8191	255	
11137.152	1	1	0	0	0.24362	0.18293	0.085314	0.13268	0.22731	0.26498	0.17234	0.081785	0.13957	0.2944	0.40094	0.070051	0.18749	0.066418	0.073202	0.27734	-2.1813	-2.5521	-3.0062	-2.5729	-2.8896	-2.8958	-2.5917	-3.2583	-2.4625	-2.7771	-2.9688	-2.3063	-2.9062	-2.7438	-2.5208	-3.0542	51.311	22.929	158.882	213.042	-88.057	191.146	190.132	145.938	179.616	98.630	-32.040	-81.481	201.885	174.418	47.671	225.957	0.00012966	0.00045311	5.3214e-05	1013	2.033e-06	3.0363e-06	1106.8	214.27	1.0453e-06	1.8924e-06	274.07	76.767	60.171	17.27	1.8971e-06	25.078	0.00017182	0.00015561	4.0519e-05	976.31	1.8426e-06	1.6817e-06	1065.8	208	1.823e-06	1.688e-06	262.91	75.185	58.684	17.086	1.6778e-06	24.577	-59.214	-32.643	-15.950	-114.423	219.933	24.207	-114.499	-106.698	136.152	-75.522	-107.058	-100.182	-99.976	-92.381	85.365	-93.297	-8191	255	
11137.272	1	1	0	0	0.24011	0.21223	0.19015	0.18232	0.037286	0.19775	0.18536	0.16709	0.26998	0.28922	0.14352	0.092887	0.2688	0.1714	0.32606	0.12814	-2.0979	-2.6354	-2.9104	-2.4667	-2.7438	-3.1646	-2.7687	-2.9542	-2.6854	-2.4792	-3.1063	-2.3875	-2.7583	-2.9604	-2.3125	-3.1417	177.132	-19.577	95.123	176.509	-55.427	63.477	230.196	198.601	109.618	58.140	228.477	201.407	-99.989	176.516	-88.509	-117.441	0.00021239	0.00035334	3.3807e-05	1015.6	2.2204e-06	2.4528e-06	1108.5	214.48	1.9028e-06	4.1333e-06	275.92	77.645	60.713	17.346	2.1628e-06	25.104	0.00016503	0.00015274	4.1612e-05	977.58	1.7873e-06	1.6246e-06	1065.1	208.41	1.7416e-06	1.6366e-06	263.28	75.377	58.737	17.09	1.7553e-06	24.493	-63.779	-51.197	19.374	-114.345	81.426	-36.383	-114.670	-106.755	47.836	-38.207	-107.368	-100.288	-100.283	-92.613	156.979	-93.335	-8191	255	
11137.344	1	1	0	0	0.099614	0.21903	0.21689	0.20599	0.081447	0.1897	0.17149	0.10307	0.24897	0.057756	0.34995	0.21791	0.10122	0.18905	0.30888	0.04085	-2.4417	-2.4125	-3.0563	-2.7125	-2.4979	-2.9542	-2.4104	-2.9625	-2.85	-2.5479	-3.2167	-2.3708	-2.5812	-2.9667	-2.4917	-2.9375	16.119	226.618	83.945	80.377	-16.437	43.850	152.369	91.712	-114.851	215.529	172.928	212.888	15.314	96.834	157.859	181.018	0.00016083	0.00041823	5.0533e-05	1019.9	2.995e-06	3.008e-06	1109.8	215.17	4.6294e-06	2.1452e-06	273.41	77.09	60.336	17.265	4.3523e-06	24.91	0.00015795	0.00014996	4.5166e-05	978.36	1.7533e-06	1.5734e-06	1066.3	208.68	1.7253e-06	1.5861e-06	263.42	75.169	58.562	17.074	1.8408e-06	24.547	-32.911	-25.120	-59.542	-114.430	57.394	89.662	-114.284	-107.105	63.790	131.712	-107.264	-100.399	-99.670	-92.710	176.955	-93.766	-8191	255	
11137.440	1	1	0	0	0.10317	0.12595	0.25553	0.13358	0.13766	0.32969	0.050879	0.15613	0.19664	0.18666	0.13646	0.093573	0.10724	0.039461	0.1764	0.12916	-2.6729	-2.5062	-2.9854	-2.8604	-2.4938	-3.0938	-2.4938	-2.8542	-2.9708	-2.2562	-3.1104	-2.7438	-2.5146	-3.1021	-2.6396	-2.8542	116.067	145.651	127.553	-36.676	-83.005	122.234	-45.763	47.226	50.469	96.787	-19.488	-76.530	-87.478	172.520	228.529	227.004	0.00019262	0.0001104	0.00013571	1011.6	4.3448e-06	2.9125e-06	1104.7	215.69	4.4068e-06	2.0571e-06	271.7	76.878	59.548	17.318	2.0777e-06	24.819	0.0001534	0.00014971	4.7525e-05	975.43	1.6908e-06	1.6499e-06	1067.5	208.41	1.6613e-06	1.6789e-06	262.88	75.014	58.378	17.13	1.8885e-06	24.448	-34.529	-38.405	-67.616	-114.217	31.154	61.923	-114.336	-106.776	-4.798	2.549	-107.153	-100.392	-99.866	-92.311	33.225	-93.171	-8191	255	
11137.561	1	1	0	0	0.21645	0.040395	0.25044	0.25725	0.23231	0.14599	0.25646	0.15617	0.068924	0.067161	0.19521	0.17362	0.42526	0.034113	0.21463	0.27706	-2.5208	-2.4292	-3.1708	-2.8458	-2.5104	-3.1188	-2.6854	-2.8771	-3.1083	-2.45	-3.1208	-2.8187	-2.5021	-3.0958	-2.4583	-2.8417	20.315	35.887	10.846	164.614	-92.774	-124.400	196.921	-68.973	88.354	-96.669	228.543	88.005	202.582	-62.394	45.665	158.474	0.00020131	0.00032854	3.1401e-05	1013.1	2.1534e-06	2.5131e-06	1104	214.79	1.2368e-06	9.618e-07	275.72	76.713	59.83	17.304	9.8959e-07	24.93	0.00014685	0.00015621	4.6919e-05	976.53	1.6521e-06	1.7273e-06	1066.2	208.02	1.6443e-06	1.7729e-06	263.43	74.984	58.215	17.144	1.8225e-06	24.435	-64.054	-38.204	2.381	-114.156	-7.956	184.407	-114.097	-106.558	-84.184	-57.280	-107.131	-100.317	-99.932	-92.257	187.634	-93.969	-8191	255	
11137.657	1	1	0	0	0.040144	0.14377	0.46077	0.34194	0.12977	0.13933	0.12017	0.18782	0.10909	0.21301	0.16201	0.052496	0.021052	0.10317	0.16968	0.20331	-2.5563	-2.2771	-2.9833	-2.8438	-2.775	-3.1271	-2.7521	-2.5479	-3.2313	-2.4396	-3.0208	-2.9333	-2.4875	-3.2812	-2.6854	-2.625	150.334	15.679	234.514	203.503	62.235	-104.878	17.703	188.046	-85.810	-85.678	5.388	-80.659	115.037	19.231	-27.262	130.705	0.00013094	0.00061806	0.00014282	1015.7	2.1287e-06	4.0632e-07	1108.4	214.75	1.8019e-06	3.6474e-06	272.59	76.989	59.848	17.235	4.9448e-06	24.92	0.00015005	0.00016423	4.6552e-05	975.98	1.6191e-06	1.8061e-06	1065.8	207.88	1.6088e-06	1.8513e-06	263.37	74.68	58.518	17.105	1.7246e-06	24.343	-82.574	-16.645	-34.373	-114.154	-122.384	144.458	-114.238	-106.781	-9.181	-39.698	-107.194	-100.107	-99.823	-92.915	52.917	-93.357	-8191	255	
11137.753	1	1	0	0	0.16072	0.065431	0.13925	0.19302	0.13878	0.21655	0.048922	0.11743	0.16198	0.27072	0.14401	0.12115	0.13203	0.022047	0.35321	0.12236	-2.6271	-2.2958	-2.775	-3.1271	-2.3833	-3.1146	-2.9813	-2.5479	-3.1688	-2.6417	-2.6479	-2.875	-2.4313	-3.0479	-2.725	-2.6063	185.747	177.193	-85.032	-115.453	-27.285	-75.001	160.514	218.636	-122.737	-1.870	131.210	39.738	145.316	19.461	201.586	96.919	0.00021304	0.00011313	8.3042e-05	1009	2.6935e-06	5.8855e-06	1098.9	214.8	9.2102e-07	1.9052e-06	273.41	76.984	60.023	17.273	3.0178e-06	24.732	0.00015096	0.00016989	4.457e-05	975.04	1.6998e-06	1.8374e-06	1063.6	207.98	1.6942e-06	1.8558e-06	262.72	75.097	58.643	17.174	1.6869e-06	24.337	-85.428	-103.812	-15.033	-114.198	-111.502	68.590	-114.135	-106.846	7.272	-16.011	-107.261	-100.491	-99.725	-92.741	2.474	-93.194	-8191	255	
11137.872	1	1	0	0	0.28319	0.21858	0.091832	0.13897	0.25483	0.1234	0.24625	0.22546	0.021318	0.13516	0.091409	0.15019	0.17357	0.30715	0.22313	0.13441	-2.6854	-2.4354	-2.8208	-3.1271	-2.325	-3.0021	-3.0812	-2.4062	-3.2667	-2.4583	-2.7521	-3.1583	-2.575	-2.9708	-2.7271	-2.4354	92.696	83.986	198.009	233.256	162.777	-12.211	41.056	234.108	64.932	203.240	-117.087	204.109	178.853	45.382	80.960	121.813	0.00018551	0.00025826	6.06e-05	1016.1	3.8699e-06	4.127e-06	1104.7	214.43	3.5453e-06	3.3879e-06	273.41	76.364	59.806	17.075	1.9107e-06	24.903	0.00016388	0.00016647	4.2622e-05	975.41	1.787e-06	1.7602e-06	1065	207.72	1.7972e-06	1.7631e-06	262.84	74.795	58.663	17.07	1.6336e-06	24.356	-79.226	-47.189	-81.078	-114.067	60.780	49.686	-114.009	-106.698	15.064	-14.828	-107.041	-100.271	-99.886	-92.794	36.258	-93.840	-8191	255	
11137.968	1	1	0	0	0.13275	0.24586	0.14822	0.25657	0.27978	0.095811	0.14509	0.12136	0.051066	0.19128	0.11997	0.20102	0.27427	0.071309	0.084913	0.214	-2.7292	-2.6625	-2.6479	-3.0521	-2.3833	-2.7562	-2.9354	-2.5062	-3.1208	-2.575	-2.5687	-3.0938	-2.4417	-2.6375	-2.8771	-2.4208	-36.021	-11.514	-69.345	-89.532	-81.241	112.565	153.507	161.007	-7.380	-16.621	228.699	172.480	-106.556	233.105	95.443	173.228	0.00014034	0.00027755	1.6819e-05	1010.8	3.2075e-06	6.2747e-06	1103.8	213.72	2.7059e-06	1.546e-06	272.8	76.458	60.404	17.167	2.3252e-06	24.913	0.00016928	0.00015973	4.2396e-05	974.89	1.866e-06	1.7259e-06	1063.8	207.82	1.8976e-06	1.7271e-06	262.23	75.027	58.512	17.072	1.561e-06	24.389	-38.524	-115.303	-10.223	-114.290	15.879	90.948	-113.951	-106.710	132.198	-33.826	-107.186	-100.619	-99.764	-92.324	95.790	-93.778	-8191	255	
11138.040	1	1	0	0	0.047639	0.16942	0.1336	0.15287	0.25053	0.14274	0.13415	0.11902	0.068674	0.071093	0.26639	0.28171	0.03539	0.22834	0.11476	0.10425	-2.6167	-2.7729	-2.4979	-3.2438	-2.6417	-2.7687	-3.0792	-2.1875	-2.8312	-2.7375	-2.5187	-3.0146	-2.5417	-2.6833	-2.9979	-2.4604	30.102	-110.723	-118.933	-85.456	-6.421	32.591	92.715	58.487	128.038	166.662	155.567	189.353	-67.474	187.373	100.940	60.383	0.00019156	0.00041456	6.7786e-05	1014.7	2.9886e-06	1.1508e-06	1103.5	213.41	2.5375e-06	9.2278e-07	272.19	76.131	60.058	17.365	3.2276e-06	24.803	0.00017009	0.00015573	4.1272e-05	976.14	1.8657e-06	1.7198e-06	1065.3	207.75	1.8432e-06	1.6867e-06	261.99	74.988	58.652	17.12	1.5959e-06	24.435	-55.503	-78.154	230.153	-114.047	29.992	6.721	-114.052	-106.755	-48.655	205.248	-107.259	-100.446	-99.734	-92.848	113.577	-93.517	-8191	255	
11138.136	1	1	0	0	0.029105	0.24085	0.12221	0.14846	0.31852	0.12441	0.31054	0.23323	0.27583	0.13405	0.26408	0.24875	0.2142	0.19603	0.051342	0.071419	-2.4792	-2.9521	-2.3458	-3.1979	-2.8	-2.6646	-3.2208	-2.65	-2.8563	-3.0104	-2.6063	-3.1417	-2.8625	-2.7875	-3.0979	-2.5125	-55.845	-27.675	-36.686	171.315	129.899	40.827	210.044	105.893	226.334	-32.993	1.831	180.064	179.580	168.489	-15.729	218.017	0.00013149	0.00011712	8.7959e-05	1006.6	2.6778e-06	5.1638e-06	1105	214.92	2.5267e-06	3.6425e-06	274.03	77.368	59.848	17.391	5.6482e-06	24.91	0.00016835	0.00014798	4.0811e-05	977.01	1.7525e-06	1.6544e-06	1065	208.52	1.7793e-06	1.6238e-06	263.19	75.339	58.512	17.1	1.6258e-06	24.503	-44.319	-45.769	22.905	-114.257	20.298	29.457	-114.176	-106.859	93.908	18.895	-107.390	-100.716	-99.720	-92.924	66.248	-93.265	-8191	255	
11138.256	1	1	0	0	0.039869	0.086136	0.48022	0.076198	0.41778	0.25891	0.32474	0.14793	0.18178	0.11637	0.15352	0.35729	0.10989	0.31102	0.055855	0.019975	-2.3729	-2.8688	-2.2375	-3.0958	-2.7958	-2.4667	-3.2687	-2.4708	-2.6792	-2.9437	-2.4583	-2.95	-2.7917	-2.475	-3.1688	-2.5542	179.329	-48.602	131.954	142.586	188.782	-110.959	208.604	140.612	56.857	-117.584	171.923	-64.158	-24.335	179.879	-119.689	-62.506	0.00018822	0.00044576	7.7392e-05	1013.2	4.9056e-06	2.4247e-06	1106.4	214.97	3.3924e-06	2.6311e-06	273.26	76.956	60.181	17.321	2.9451e-06	24.767	0.00015972	0.00014814	4.3062e-05	977.35	1.7091e-06	1.5876e-06	1066	208.84	1.6965e-06	1.5955e-06	262.83	75.173	58.519	17.056	1.7752e-06	24.437	-45.934	-85.846	-123.940	-114.382	12.138	42.895	-114.137	-106.793	-22.811	25.572	-107.406	-100.442	-99.802	-91.968	-5.964	-93.449	-8191	255	
11138.353	1	1	0	0	0.088628	0.14339	0.20774	0.28392	0.17451	0.19603	0.099832	0.14762	0.24753	0.27899	0.084826	0.301	0.11029	0.020206	0.21783	0.15104	-2.3167	-2.8667	-2.3542	-2.9479	-2.8292	-2.3271	-3.2417	-2.6167	-2.6063	-3.1417	-2.6312	-2.9813	-3.1208	-2.4688	-3.2	-2.8417	13.986	-95.834	169.460	199.250	16.490	103.231	86.774	-105.718	66.419	117.815	142.123	184.130	-12.368	220.881	131.364	229.086	0.00018962	0.00026149	0.00010487	1012.3	3.7813e-06	8.8571e-07	1100.2	213.8	1.8882e-06	7.6614e-07	269.7	76.833	60.117	17.226	2.4355e-06	24.884	0.00015788	0.00014585	4.5678e-05	977.73	1.7004e-06	1.5874e-06	1064.7	207.81	1.6872e-06	1.5842e-06	262.76	75.059	58.557	17.08	1.8256e-06	24.428	-55.331	20.185	-37.850	-114.172	-58.742	27.935	-114.028	-106.525	11.514	52.665	-107.342	-99.969	-99.650	-92.800	15.933	-93.177	-8191	255	
11138.449	1	1	0	0	0.24147	0.13235	0.081128	0.32853	0.040851	0.15269	0.097084	0.32182	0.21091	0.33866	0.26251	0.12949	0.04641	0.4052	0.18724	0.21029	-2.2562	-3.0833	-2.4375	-2.8958	-3.0083	-2.4083	-3.2333	-2.7458	-2.6792	-3.1375	-2.6958	-2.7417	-3.0417	-2.5875	-3.1021	-2.7562	54.888	222.737	-80.451	160.321	122.437	206.786	108.408	83.207	178.247	193.536	94.690	215.827	89.799	38.636	58.635	175.236	0.00011729	0.00034021	0.00011892	1009.9	2.9919e-06	1.8392e-06	1099.1	214.37	7.7325e-07	2.4426e-06	272.19	76.855	59.677	17.245	5.0123e-06	24.858	0.00015275	0.00014726	4.5902e-05	978.21	1.6118e-06	1.6488e-06	1065.6	208.24	1.613e-06	1.6766e-06	263.83	75.199	58.336	17.117	1.8635e-06	24.38	-82.019	-28.400	-59.711	-114.282	-50.141	-35.266	-113.976	-106.707	-42.478	-55.213	-107.180	-100.552	-99.698	-92.750	2.498	-93.258	-8191	255	
11138.545	1	1	0	0	0.081204	0.039037	0.062099	0.19868	0.40294	0.03606	0.081761	0.096825	0.14374	0.19598	0.086771	0.12563	0.21233	0.12172	0.2121	0.10489	-2.1146	-2.9583	-2.5875	-2.8458	-3.1	-2.4333	-3.0687	-2.8542	-2.5646	-3.2667	-2.8396	-2.6667	-3.2229	-2.5083	-3.0521	-3.0667	101.808	186.204	-8.126	196.661	133.190	160.964	115.504	122.390	225.479	31.409	-65.724	218.275	213.566	225.554	-22.991	-34.378	0.00015514	0.00030674	0.00013531	1013	1.4844e-06	3.4684e-06	1104.2	213.92	1.1798e-06	2.6624e-06	271.68	76.981	59.99	17.308	5.5354e-06	24.798	0.00014812	0.0001557	4.5895e-05	977.72	1.6028e-06	1.75e-06	1066.9	208.4	1.6157e-06	1.7728e-06	262.34	75.062	58.488	17.145	1.778e-06	24.401	-45.678	-52.488	-20.284	-114.210	65.331	16.723	-114.092	-106.582	63.725	-15.525	-106.750	-100.501	-99.647	-92.624	96.128	-93.391	-8191	255	
11138.641	1	1	0	0	0.10759	0.14119	0.050926	0.064385	0.19281	0.13036	0.053675	0.29615	0.18386	0.012935	0.2132	0.067265	0.20348	0.061417	0.14937	0.24612	-2.1167	-3.1875	-2.625	-2.6125	-3.0271	-2.425	-3.075	-2.9479	-2.5333	-3.0458	-2.7604	-2.6083	-2.8958	-2.6333	-2.7812	-3.075	-65.371	191.588	-7.654	195.619	186.407	225.794	169.973	230.060	30.824	58.741	92.477	-62.011	142.203	-49.399	19.799	3.318	0.00017846	0.00017738	0.00020418	1013.7	1.5829e-06	2.4505e-06	1106.4	214.14	8.0407e-07	2.2729e-06	272.83	76.578	59.924	17.3	5.2881e-06	24.983	0.00014939	0.00016686	4.4401e-05	976.99	1.5993e-06	1.8244e-06	1067.2	208.25	1.6384e-06	1.8413e-06	263.02	74.889	58.493	17.18	1.7127e-06	24.387	-17.102	-28.830	-3.259	-114.078	-59.268	132.132	-114.256	-106.586	-103.194	71.314	-106.898	-100.561	-99.422	-92.217	41.572	-93.491	-8191	255	
11138.737	1	1	0	0	0.21917	0.12942	0.1859	0.33221	0.21439	0.026159	0.20318	0.2138	0.11057	0.16174	0.1241	0.18499	0.17762	0.26392	0.037004	0.28159	-1.8479	-2.9125	-2.8083	-2.5958	-3.1396	-2.7042	-2.9813	-2.9958	-2.4354	-2.8563	-2.7083	-2.5333	-3.1458	-2.625	-2.8292	-2.9979	229.126	128.805	-77.803	194.854	83.808	90.322	186.382	113.972	91.377	-38.608	-71.426	-110.682	-117.463	148.198	148.744	-114.505	0.00015265	0.00028333	7.7245e-05	1010.3	1.1201e-06	4.844e-06	1105.7	214.27	2.1145e-06	4.5455e-06	272.36	76.703	60.16	17.097	1.6988e-07	24.675	0.0001564	0.00016762	4.2437e-05	976.14	1.7185e-06	1.7791e-06	1065.8	208.37	1.7559e-06	1.8219e-06	263.05	75.028	58.609	17.105	1.6809e-06	24.301	-69.764	207.415	-41.010	-114.382	29.663	38.196	-114.357	-106.600	-3.198	20.738	-106.915	-100.594	-99.473	-92.045	-119.703	-93.008	-8191	255	
11138.833	1	1	0	0	0.099583	0.1555	0.08611	0.10522	0.013645	0.19408	0.27272	0.263	0.041937	0.26756	0.057855	0.2955	0.13179	0.08815	0.12225	0.23098	-1.975	-2.8604	-2.7812	-2.6146	-3	-2.5146	-2.7604	-3.0625	-2.5	-2.8812	-2.8729	-2.575	-3.2542	-2.7729	-2.6667	-3.3187	199.241	-41.584	-57.708	-82.428	179.011	-57.558	171.419	181.084	206.771	49.911	-118.213	46.879	-96.811	1.001	-110.225	-110.025	0.0002013	0.00047824	6.1813e-05	1007.9	1.2303e-06	2.8312e-06	1109.5	213.87	4.4776e-06	3.8835e-06	271.27	76.443	59.671	17.175	3.285e-06	24.941	0.00016472	0.00016201	4.1709e-05	975.99	1.8063e-06	1.7828e-06	1067.3	208.26	1.8413e-06	1.7433e-06	262.77	74.956	58.679	17.13	1.6233e-06	24.365	-63.195	-20.754	-40.077	-114.220	-18.533	76.085	-114.162	-106.901	-12.242	-51.691	-106.756	-100.136	-99.495	-92.497	38.115	-93.236	-8191	255	
11138.952	1	1	0	0	0.20089	0.10719	0.1704	0.26444	0.07829	0.29142	0.27856	0.18882	0.12257	0.17478	0.091556	0.11173	0.11157	0.14149	0.12529	0.091129	-2.1896	-2.8063	-2.9729	-2.4458	-2.9646	-2.6937	-2.6208	-3.0104	-2.4708	-2.6875	-3.0625	-2.4375	-2.8563	-2.7958	-2.5	-3.025	166.192	161.452	90.069	195.214	2.496	-76.208	194.574	208.117	233.860	52.731	143.730	187.432	177.381	-46.527	-119.608	131.958	0.00017423	0.0004221	5.6509e-05	1005	1.6525e-06	5.0184e-06	1099.7	213.82	3.7154e-06	2.2267e-06	272.03	76.698	59.561	17.334	6.2695e-06	24.855	0.00017041	0.00015659	4.0522e-05	974.03	1.8326e-06	1.6875e-06	1064.7	208.54	1.8143e-06	1.6802e-06	262.97	75.23	58.515	17.104	1.5385e-06	24.481	-40.901	-44.023	-36.883	-114.261	58.596	11.494	-114.118	-106.739	90.516	-27.983	-106.997	-100.603	-99.532	-92.821	32.572	-93.297	-8191	255	
11139.048	1	1	0	0	0.062094	0.24323	0.10405	0.16228	0.12305	0.25361	0.21573	0.12149	0.28429	0.092045	0.24341	0.13228	0.16409	0.1324	0.13956	0.12828	-1.9792	-2.6667	-3.0521	-2.575	-2.9896	-2.8063	-2.6312	-3.2292	-2.6063	-2.7521	-3.1896	-2.6458	-2.8979	-2.8063	-2.3937	-2.8771	20.047	57.494	52.739	-111.139	224.957	212.685	223.424	227.851	126.195	-58.640	141.570	146.705	-52.754	206.904	211.972	-50.877	0.00010811	0.00037933	1.9458e-05	1010.6	2.1396e-06	2.2352e-06	1103.9	215.31	3.8223e-06	3.2671e-06	272.25	76.88	59.764	17.241	1.2276e-06	24.862	0.0001645	0.00015125	3.9233e-05	977.09	1.8016e-06	1.6312e-06	1064.5	208.85	1.7779e-06	1.6535e-06	262.67	75.275	58.594	17.08	1.5796e-06	24.519	-78.210	-53.630	-120.807	-114.352	105.473	-13.990	-114.271	-106.300	-4.913	13.028	-106.843	-100.063	-99.550	-92.536	-122.248	-93.160	-8191	255	
11139.145	1	1	0	0	0.099504	0.18997	0.071345	0.19376	0.10982	0.29746	0.19231	0.066832	0.1006	0.26352	0.3207	0.17817	0.15908	0.10142	0.17732	0.22601	-2.2438	-2.5875	-3.0979	-2.5208	-2.7188	-2.9604	-2.6667	-3.1375	-2.5792	-2.6125	-3.1813	-2.4979	-2.9062	-2.775	-2.5021	-3.0354	42.020	175.923	117.895	-82.849	-80.949	-102.503	-40.292	15.284	41.980	60.099	120.280	229.140	192.953	140.044	40.592	158.853	0.00015598	3.5999e-05	5.9707e-05	1006.6	2.4177e-06	3.5127e-06	1103.1	213.99	2.0124e-06	1.6428e-06	272.91	76.554	60.094	17.263	6.7569e-07	24.593	0.00016169	0.00014699	4.0427e-05	975.47	1.752e-06	1.6116e-06	1066	209.2	1.7286e-06	1.5838e-06	263.05	75.197	58.657	17.11	1.673e-06	24.491	-46.259	27.003	-31.868	-114.211	-82.193	22.605	-114.191	-106.852	8.571	16.299	-107.048	-100.076	-99.923	-92.144	-73.074	-93.185	-8191	255	
11139.241	1	1	0	0	0.10128	0.15543	0.13057	0.1994	0.12146	0.14776	0.1192	0.09869	0.33415	0.15537	0.054398	0.11749	0.21497	0.30495	0.04814	0.06327	-2.2854	-2.3937	-3.0646	-2.6917	-2.8125	-2.9729	-2.4437	-3.1458	-2.6625	-2.4417	-3.2167	-2.6708	-2.6583	-3.0812	-2.4292	-2.7854	42.251	168.920	2.109	181.093	-19.964	182.292	139.661	192.491	-64.419	60.512	128.847	-48.705	-72.345	183.114	-82.237	88.566	0.00015331	0.00012193	7.6035e-05	1009.2	2.7418e-06	2.6806e-06	1103.9	213.01	1.7187e-06	1.9773e-06	272.68	76.524	59.769	17.366	1.4333e-06	24.506	0.00015931	0.00014586	4.4002e-05	976.42	1.6986e-06	1.5874e-06	1066.5	208.18	1.6908e-06	1.5687e-06	263.68	75.057	58.554	17.114	1.7927e-06	24.404	-51.240	80.544	-83.324	-114.205	54.855	47.303	-114.171	-106.538	-21.306	199.230	-107.109	-100.577	-99.855	-92.347	202.078	-93.403	-8191	255	
11139.337	1	1	0	0	0.19397	0.15381	0.059651	0.13427	0.082982	0.10678	0.054012	0.30816	0.25932	0.035445	0.27561	0.16629	0.22767	0.13698	0.18919	0.14195	-2.3854	-2.5042	-2.9875	-2.6937	-2.725	-3.0646	-2.625	-2.8333	-2.7771	-2.4062	-3.0104	-2.6021	-2.4938	-3.2	-2.3375	-2.8604	32.495	74.948	121.841	195.824	-43.808	164.654	188.458	208.425	3.811	53.811	226.808	232.400	213.568	-86.518	165.411	184.133	0.00012859	0.00015587	2.4433e-05	1008.1	1.8454e-06	3.3159e-06	1109.2	214.83	4.66e-06	1.7924e-06	273.9	76.926	59.983	17.318	3.5723e-06	24.946	0.00015308	0.00014569	4.502e-05	975.92	1.6427e-06	1.5851e-06	1069.1	208.85	1.6141e-06	1.575e-06	263.84	75.045	58.5	17.132	1.8483e-06	24.47	-18.637	-100.318	-60.831	-114.142	61.036	28.128	-114.270	-106.663	62.144	-112.684	-106.630	-100.376	-100.050	-92.616	48.070	-93.523	-8191	255	
11139.433	1	1	0	0	0.22083	0.23823	0.28627	0.15888	0.19619	0.24483	0.26406	0.27303	0.13501	0.097208	0.097386	0.21285	0.23552	0.016102	0.095052	0.17754	-2.4479	-2.2292	-2.9271	-2.7958	-2.4667	-3.0854	-2.7896	-2.9229	-2.9771	-2.55	-3.0333	-2.7854	-2.4854	-3.1437	-2.5146	-2.7917	-86.425	104.491	174.448	216.358	-72.643	105.372	176.583	189.879	233.047	91.186	-115.267	168.866	-97.038	218.316	-46.813	49.415	0.00013039	0.00048171	0.00010483	1016.5	3.3459e-06	2.1895e-06	1104.5	214.89	2.4009e-06	3.3808e-06	272.83	76.42	59.629	17.383	3.854e-06	24.928	0.00014901	0.00015156	4.6505e-05	976.97	1.6074e-06	1.649e-06	1066.3	208.89	1.5805e-06	1.7106e-06	263.71	74.974	58.297	17.152	1.7986e-06	24.439	-57.768	-104.349	-40.454	-114.379	3.387	7.010	-114.345	-106.890	80.947	21.031	-107.185	-100.368	-99.597	-92.656	179.863	-92.604	-8191	255	
11139.554	1	1	0	0	0.054542	0.065831	0.066051	0.098739	0.19489	0.1935	0.22157	0.12959	0.1578	0.21402	0.10178	0.10634	0.1717	0.055393	0.30009	0.19013	-2.4458	-2.2125	-2.8812	-2.9	-2.5583	-3.05	-2.7896	-2.8521	-3.0604	-2.4167	-2.8771	-3.0021	-2.4375	-3.0354	-2.7604	-2.7167	153.723	191.679	38.406	175.892	200.613	176.490	200.106	20.764	13.711	156.462	231.705	-26.697	79.304	4.619	-105.817	210.033	0.00025976	0.00029413	5.2611e-05	1006.8	2.61e-06	5.0139e-06	1106.3	213.68	3.618e-06	3.432e-06	273.91	76.382	59.89	17.178	4.2e-06	24.96	0.00014697	0.0001624	4.5509e-05	974.86	1.5689e-06	1.7821e-06	1065.2	208.31	1.5644e-06	1.807e-06	264.13	74.874	58.362	17.12	1.7058e-06	24.461	-57.188	17.969	52.309	-114.176	-16.626	33.446	-114.218	-106.845	-91.229	20.441	-107.081	-100.291	-99.541	-92.173	37.648	-93.308	-8191	255	
11139.650	1	1	0	0	0.21132	0.102	0.21338	0.12398	0.17872	0.15079	0.15179	0.02885	0.12477	0.1049	0.16666	0.19078	0.044507	0.15357	0.054841	0.27404	-2.8042	-2.5687	-2.9104	-3.0333	-2.5604	-3.0792	-2.7958	-2.6104	-3.1021	-2.5312	-2.7604	-3.0479	-2.475	-3.0208	-2.6792	-2.475	-66.552	68.935	79.214	227.714	-22.112	-54.621	200.243	-116.472	-35.407	217.892	95.230	221.894	-27.118	202.141	90.227	175.071	0.00014855	0.00019058	6.414e-05	1005.5	3.5943e-07	4.7134e-06	1104.5	215.12	1.4915e-06	1.9321e-06	274.33	76.521	59.959	17.381	8.8422e-07	24.969	0.00014772	0.00016608	4.3356e-05	973.8	1.6436e-06	1.7748e-06	1064.9	208.72	1.626e-06	1.7939e-06	263.9	74.826	58.539	17.158	1.6561e-06	24.398	-43.680	-76.319	-21.137	-114.017	179.212	-8.353	-114.231	-106.850	85.662	-22.630	-107.281	-100.367	-99.544	-92.577	-15.404	-93.455	-8191	255	
11139.746	1	1	0	0	0.25931	0.30238	0.13729	0.12746	0.028864	0.25023	0.33141	0.26248	0.39129	0.091325	0.084792	0.093713	0.077563	0.29547	0.095859	0.29636	-2.7792	-2.5583	-2.6667	-3.2083	-2.4521	-2.9625	-2.8396	-2.6729	-3.1125	-2.6479	-2.7562	-3.2562	-2.4188	-2.9479	-2.8229	-2.4313	-11.038	41.907	6.591	169.200	-58.364	148.168	53.207	104.869	229.417	218.526	-106.440	-55.777	165.401	17.098	-44.280	15.243	0.00016072	0.00020594	9.7943e-05	1009.7	2.4489e-06	3.9426e-06	1103.3	215.42	5.1391e-06	2.1786e-06	274.23	76.684	59.893	17.393	1.4888e-06	24.718	0.00015547	0.00016357	4.3247e-05	973.88	1.7489e-06	1.7779e-06	1065.4	208.24	1.7464e-06	1.7312e-06	263.01	75.014	58.548	17.187	1.5661e-06	24.286	-64.600	-20.774	-57.079	-114.354	41.250	61.383	-113.991	-106.873	48.594	-0.001	-106.955	-100.545	-99.864	-92.191	-42.855	-93.257	-8191	255	
11139.840	1	1	0	0	0.35825	0.15192	0.15352	0.34716	0.034424	0.089085	0.17875	0.12899	0.039351	0.22877	0.065779	0.19656	0.16772	0.44105	0.047435	0.24311	-2.7104	-2.5833	-2.5292	-3.2104	-2.4521	-2.9104	-3.0292	-2.5875	-3.05	-2.625	-2.6396	-3.1292	-2.4313	-2.8146	-2.9125	-2.3812	83.607	-30.341	-119.693	148.293	168.495	18.259	155.092	96.588	-60.674	89.755	61.517	149.935	-72.404	-106.856	-4.895	196.217	0.00018274	0.0003206	0.00017668	1007.1	3.1415e-06	2.8888e-06	1100.6	215.47	1.2607e-06	2.1102e-06	273.12	76.271	59.98	17.145	5.964e-06	24.717	0.00015988	0.00015625	4.0132e-05	974.51	1.8135e-06	1.6857e-06	1063.1	208.5	1.792e-06	1.7019e-06	262.6	74.947	58.583	17.065	1.5407e-06	24.344	-59.029	-10.977	-50.061	-114.393	-8.649	19.722	-113.938	-106.737	25.746	-24.370	-107.092	-100.525	-99.925	-92.503	62.635	-93.561	-8191	255	
11139.936	1	1	0	0	0.026971	0.051804	0.14817	0.024427	0.057971	0.26333	0.2467	0.066577	0.20896	0.24465	0.13826	0.09747	0.3246	0.13363	0.08851	0.15027	-2.5917	-2.6958	-2.5917	-3.2375	-2.5375	-2.7313	-3.275	-2.5021	-3.1333	-2.7854	-2.5604	-3.1896	-2.5229	-2.7438	-2.9437	-2.3542	10.357	176.101	74.629	191.653	119.660	222.867	133.063	230.726	129.705	-43.487	130.899	82.346	213.641	-44.599	59.679	218.759	0.000209	0.00013358	8.0801e-05	1006.1	7.5207e-07	1.0242e-06	1095	213.86	4.4689e-06	4.5558e-06	272.39	76.324	59.384	17.352	9.8654e-07	24.916	0.00016377	0.00015441	3.8877e-05	974.38	1.7817e-06	1.6335e-06	1061.3	208.48	1.8115e-06	1.604e-06	262.45	74.929	58.496	17.107	1.5082e-06	24.364	-47.124	129.434	-34.646	-114.077	114.454	23.226	-114.001	-106.642	71.700	22.532	-107.276	-100.274	-99.941	-92.722	152.396	-93.353	-8191	255	
#DATA ENDS
