BOXY.EXE: ISS Imagent and Oximeter Data Acquisition Program Version 0.80
Ascii Record File

#ACQ INFORMATION
2  Detector Channels 
16  External MUX Channels 
1  Auxiliary Channels 
5000  Waveform (CCF) Frequency (Hz)
1  Waveforms Skipped 
30  Waveforms Averaged 
1  Cycles Averaged 
16  Acquisitions per Waveform 
10.0806  Updata Rate (Hz) 

#FILE INFORMATION
TRUE -- External MUX Channel results are PARSED.
FALSE -- AC DC and Phase are NOT grouped.
TRUE -- Companion Program Settings File CREATED.
FALSE -- AC data not excluded
FALSE -- DC data not excluded
FALSE -- Phase data not excluded
FALSE -- Auxillary Chn. data not excluded
Tab delimiters

#CALIBRATION STATE
TRUE -- Waveform Calibration Values APPLIED.


#AUX CALIBRATION VALUES
Val Type	aux-1	

Term	1.0000e+00	
Factor	0.0000e+00	


#WF CALIBRATION VALUES
A = Detector Channel
Val Type	A-AC1	A-AC2	A-AC3	A-AC4	A-AC5	A-AC6	A-AC7	A-AC8	A-AC9	A-AC10	A-AC11	A-AC12	A-AC13	A-AC14	A-AC15	A-AC16	A-DC1	A-DC2	A-DC3	A-DC4	A-DC5	A-DC6	A-DC7	A-DC8	A-DC9	A-DC10	A-DC11	A-DC12	A-DC13	A-DC14	A-DC15	A-DC16	A-Ph1	A-Ph2	A-Ph3	A-Ph4	A-Ph5	A-Ph6	A-Ph7	A-Ph8	A-Ph9	A-Ph10	A-Ph11	A-Ph12	A-Ph13	A-Ph14	A-Ph15	A-Ph16	

Term	0.00000e+00	0.00000e+00	0.00000e+00	0.00000e+00	0.00000e+00	0.00000e+00	0.00000e+00	0.00000e+00	0.00000e+00	0.00000e+00	0.00000e+00	0.00000e+00	0.00000e+00	0.00000e+00	0.00000e+00	0.00000e+00	0.00000e+00	0.00000e+00	0.00000e+00	0.00000e+00	0.00000e+00	0.00000e+00	0.00000e+00	0.00000e+00	0.00000e+00	0.00000e+00	0.00000e+00	0.00000e+00	0.00000e+00	0.00000e+00	0.00000e+00	0.00000e+00	0.00000e+00	0.00000e+00	0.00000e+00	0.00000e+00	0.00000e+00	0.00000e+00	0.00000e+00	0.00000e+00	0.00000e+00	0.00000e+00	0.00000e+00	0.00000e+00	0.00000e+00	0.00000e+00	0.00000e+00	0.00000e+00	
Factor	1.00000e+00	1.00000e+00	1.00000e+00	1.00000e+00	1.00000e+00	1.00000e+00	1.00000e+00	1.00000e+00	1.00000e+00	1.00000e+00	1.00000e+00	1.00000e+00	1.00000e+00	1.00000e+00	1.00000e+00	1.00000e+00	1.00000e+00	1.00000e+00	1.00000e+00	1.00000e+00	1.00000e+00	1.00000e+00	1.00000e+00	1.00000e+00	1.00000e+00	1.00000e+00	1.00000e+00	1.00000e+00	1.00000e+00	1.00000e+00	1.00000e+00	1.00000e+00	X	X	X	X	X	X	X	X	X	X	X	X	X	X	X	X	

B = Detector Channel
Val Type	B-AC1	B-AC2	B-AC3	B-AC4	B-AC5	B-AC6	B-AC7	B-AC8	B-AC9	B-AC10	B-AC11	B-AC12	B-AC13	B-AC14	B-AC15	B-AC16	B-DC1	B-DC2	B-DC3	B-DC4	B-DC5	B-DC6	B-DC7	B-DC8	B-DC9	B-DC10	B-DC11	B-DC12	B-DC13	B-DC14	B-DC15	B-DC16	B-Ph1	B-Ph2	B-Ph3	B-Ph4	B-Ph5	B-Ph6	B-Ph7	B-Ph8	B-Ph9	B-Ph10	B-Ph11	B-Ph12	B-Ph13	B-Ph14	B-Ph15	B-Ph16	

Term	0.00000e+00	0.00000e+00	0.00000e+00	0.00000e+00	0.00000e+00	0.00000e+00	0.00000e+00	0.00000e+00	0.00000e+00	0.00000e+00	0.00000e+00	0.00000e+00	0.00000e+00	0.00000e+00	0.00000e+00	0.00000e+00	0.00000e+00	0.00000e+00	0.00000e+00	0.00000e+00	0.00000e+00	0.00000e+00	0.00000e+00	0.00000e+00	0.00000e+00	0.00000e+00	0.00000e+00	0.00000e+00	0.00000e+00	0.00000e+00	0.00000e+00	0.00000e+00	-2.90631e+01	-1.25552e+02	-1.34417e+02	-1.83772e+02	-7.20645e+01	-6.10955e+01	-1.58193e+02	-1.62015e+02	-3.23909e+01	-1.01832e+02	-1.70609e+02	-1.70696e+02	-1.78180e+02	-1.76850e+02	-4.40641e+01	-1.49933e+02	
Factor	3.20294e-05	1.37736e-04	3.60325e-05	1.67790e-01	1.23194e-06	1.40486e-06	1.82739e-01	6.01972e-02	1.41033e-06	1.15288e-06	1.00393e-01	3.50361e-02	3.11072e-02	1.11864e-02	1.47115e-06	1.60536e-02	1.28001e-06	1.31859e-06	3.66219e-07	8.30035e-02	1.44006e-08	1.44477e-08	8.47747e-02	2.96083e-02	1.44213e-08	1.44501e-08	4.73672e-02	1.64815e-02	1.52180e-02	5.44559e-03	1.43905e-08	7.51965e-03	X	X	X	X	X	X	X	X	X	X	X	X	X	X	X	X	



#DISTANCE SETTINGS
A = Detector Channel
A-1	A-2	A-3	A-4	A-5	A-6	A-7	A-8	A-9	A-10	A-11	A-12	A-13	A-14	A-15	A-16	

2.5000e+00	3.0000e+00	2.5000e+00	3.0000e+00	2.0000e+00	3.0000e+00	1.5000e+00	3.0000e+00	3.0000e+00	3.0000e+00	3.0000e+00	3.0000e+00	3.0000e+00	3.0000e+00	1.5000e+00	3.0000e+00	

B = Detector Channel
B-1	B-2	B-3	B-4	B-5	B-6	B-7	B-8	B-9	B-10	B-11	B-12	B-13	B-14	B-15	B-16	

1.0000e+01	1.0000e+01	1.0000e+01	1.4400e+00	1.0000e+01	1.0000e+01	1.5100e+00	1.9400e+00	1.0000e+01	1.0000e+01	1.9900e+00	2.4900e+00	2.4100e+00	2.9000e+00	1.0000e+01	2.9800e+00	




#DATA BEGINS
time	group	step	mark	flag	A-AC1	A-AC2	A-AC3	A-AC4	A-AC5	A-AC6	A-AC7	A-AC8	A-AC9	A-AC10	A-AC11	A-AC12	A-AC13	A-AC14	A-AC15	A-AC16	A-DC1	A-DC2	A-DC3	A-DC4	A-DC5	A-DC6	A-DC7	A-DC8	A-DC9	A-DC10	A-DC11	A-DC12	A-DC13	A-DC14	A-DC15	A-DC16	A-Ph1	A-Ph2	A-Ph3	A-Ph4	A-Ph5	A-Ph6	A-Ph7	A-Ph8	A-Ph9	A-Ph10	A-Ph11	A-Ph12	A-Ph13	A-Ph14	A-Ph15	A-Ph16	B-AC1	B-AC2	B-AC3	B-AC4	B-AC5	B-AC6	B-AC7	B-AC8	B-AC9	B-AC10	B-AC11	B-AC12	B-AC13	B-AC14	B-AC15	B-AC16	B-DC1	B-DC2	B-DC3	B-DC4	B-DC5	B-DC6	B-DC7	B-DC8	B-DC9	B-DC10	B-DC11	B-DC12	B-DC13	B-DC14	B-DC15	B-DC16	B-Ph1	B-Ph2	B-Ph3	B-Ph4	B-Ph5	B-Ph6	B-Ph7	B-Ph8	B-Ph9	B-Ph10	B-Ph11	B-Ph12	B-Ph13	B-Ph14	B-Ph15	B-Ph16	aux-1	digaux	

11030.381	1	1	0	256	0.098968	0.2818	0.14225	0.2482	0.13182	0.060918	0.24007	0.15573	0.23893	0.089074	0.31359	0.1642	0.22077	0.27529	0.3252	0.16767	-2.5938	-2.4083	-2.8667	-3.0896	-2.2833	-2.9604	-2.7812	-2.5104	-3.0438	-2.3792	-2.7417	-2.9875	-2.2708	-3.0625	-2.625	-2.4729	162.050	464.744	487.581	433.511	261.793	397.517	461.712	272.283	242.309	445.958	463.713	489.055	200.331	196.490	273.609	459.081	0.00032665	0.00012703	0.00015259	1113.3	2.5545e-06	1.1973e-05	1223	233.37	4.9316e-06	2.9789e-06	291.16	83.421	65.432	19.092	4.4234e-06	26.72	0.00032638	0.00037108	9.7762e-05	1089.9	3.6191e-06	4.0026e-06	1190.6	229.21	3.6114e-06	4.0063e-06	288.08	83.271	65.546	19.665	3.6613e-06	27.06	306.194	155.121	272.220	155.764	225.016	284.846	155.370	162.778	298.730	248.222	162.817	169.558	169.502	176.917	290.872	175.866	-8191	255	
11030.476	1	1	0	0	0.099067	0.18277	0.1296	0.22592	0.024207	0.13447	0.12749	0.13121	0.070296	0.17269	0.15597	0.094217	0.20433	0.27253	0.18715	0.11098	-2.675	-2.3271	-2.8688	-3.0458	-2.3979	-2.8646	-2.8979	-2.5417	-2.9208	-2.4479	-2.6417	-2.9958	-2.275	-2.8708	-2.8083	-2.3479	410.329	468.531	398.746	482.108	178.338	425.637	404.940	404.921	342.536	156.360	436.957	255.268	378.404	435.306	245.658	274.888	0.00043494	0.00029751	0.00018284	1119.2	3.5066e-06	3.1323e-06	1225.6	232.57	3.4362e-06	2.1901e-07	290.93	83.625	65.627	18.935	6.926e-06	26.28	0.00033076	0.00035517	9.2287e-05	1088.5	3.6943e-06	3.865e-06	1189.2	228.34	3.6517e-06	3.7934e-06	287.9	82.976	65.542	19.506	3.4588e-06	26.84	274.072	220.569	295.081	155.323	219.822	368.702	155.658	162.852	304.534	276.532	162.610	169.625	169.946	177.401	432.083	176.430	-8191	255	
11030.572	1	1	0	0	0.15742	0.11884	0.19485	0.17375	0.12625	0.15154	0.27082	0.29387	0.089679	0.2773	0.15498	0.093168	0.1807	0.2131	0.16815	0.24012	-2.5438	-2.3583	-2.6083	-2.9625	-2.2917	-2.8	-2.8521	-2.3021	-2.9896	-2.6604	-2.5146	-2.9625	-2.15	-2.7729	-2.8354	-2.2479	411.183	372.514	261.485	468.751	246.872	357.188	366.893	377.567	487.295	301.506	369.882	344.334	448.065	307.897	221.890	239.157	0.00046103	0.00073343	6.9631e-05	1110.5	3.1734e-06	1.27e-06	1219.1	231.35	5.1282e-07	3.6788e-06	289.99	83.441	64.857	18.792	4.5569e-06	26.439	0.00034092	0.00033457	8.7124e-05	1083.6	3.7472e-06	3.6155e-06	1184.2	227.62	3.7526e-06	3.546e-06	286.35	82.87	65.383	19.453	3.1814e-06	26.83	293.145	273.703	336.339	155.592	217.296	481.071	155.357	163.016	491.127	244.084	162.597	170.018	169.868	177.146	375.780	176.256	-8191	255	
11030.692	1	1	0	0	0.18749	0.099675	0.086228	0.051546	0.43684	0.19369	0.15719	0.089998	0.13413	0.15925	0.08621	0.15692	0.060254	0.33576	0.043185	0.23812	-2.525	-2.4854	-2.2979	-3.125	-2.3563	-2.6146	-3.1	-2.4437	-2.8625	-2.6813	-2.5875	-3.1167	-2.4938	-2.6167	-2.9896	-2.1229	388.850	333.138	200.119	181.589	342.198	173.935	498.901	331.154	224.026	349.488	388.237	168.223	278.203	431.128	235.998	462.533	0.00048795	0.00049682	4.4832e-05	1097.3	3.5379e-06	3.8639e-06	1213.7	229.49	3.9048e-06	5.5998e-06	287.46	82.597	64.475	18.741	4.218e-06	26.267	0.0003401	0.00031084	8.0372e-05	1079.3	3.6088e-06	3.3448e-06	1178.1	226.55	3.6175e-06	3.3313e-06	284.1	82.648	65.184	19.241	3.0381e-06	26.777	290.315	209.871	238.958	155.828	319.587	304.693	155.588	163.234	301.599	261.958	162.878	169.780	169.908	176.500	345.539	176.426	-8191	255	
11030.788	1	1	0	0	0.10215	0.19255	0.067062	0.13996	0.25394	0.15919	0.42486	0.18276	0.15408	0.090951	0.14003	0.18717	0.17162	0.12917	0.10246	0.2539	-2.6437	-2.7292	-2.3896	-3.1229	-2.5917	-2.4875	-3.1417	-2.2896	-2.8646	-2.6562	-2.4333	-3.275	-2.5917	-2.3958	-3.1792	-2.3396	203.384	478.293	374.346	180.640	450.487	470.206	447.222	468.577	212.041	176.301	161.263	469.975	364.038	213.985	299.902	464.274	0.00048363	0.00050987	0.00013393	1095.4	1.5725e-06	1.4788e-06	1199.4	228.01	5.869e-06	6.0092e-06	288.29	82.591	64.628	18.697	1.2326e-06	26.273	0.00032151	0.000295	7.7316e-05	1076.8	3.4519e-06	3.2121e-06	1172.7	226.14	3.4427e-06	3.1844e-06	283.69	82.597	64.733	19.228	3.0073e-06	26.87	297.892	254.361	221.107	155.827	358.448	407.649	155.681	163.001	301.179	222.501	162.930	169.287	170.118	177.239	220.075	176.446	-8191	255	
11030.885	1	1	0	0	0.047556	0.22566	0.090876	0.12373	0.15104	0.3525	0.24943	0.28039	0.1295	0.30786	0.23279	0.14323	0.090125	0.15165	0.30918	0.20501	-2.4021	-2.6042	-2.3333	-3.3583	-2.5333	-2.3854	-3.0521	-2.55	-2.8083	-2.9479	-2.2875	-2.9396	-2.6271	-2.425	-3.0917	-2.2146	261.825	373.533	355.035	146.633	303.637	333.504	469.926	474.810	145.052	158.069	446.092	397.309	251.329	266.580	453.724	465.760	0.00040848	0.00055282	0.00012339	1095.1	2.0286e-06	6.0395e-06	1198.3	227.74	3.8424e-06	2.0411e-06	284.62	82.261	64.568	18.838	4.1847e-06	26.33	0.00030493	0.00027882	7.685e-05	1075.8	3.2664e-06	3.0311e-06	1170.5	225.6	3.1817e-06	2.9228e-06	281.91	82.259	64.331	19.16	3.0055e-06	26.721	282.437	267.076	191.892	155.656	345.407	362.124	155.642	163.034	344.688	321.007	162.841	169.705	170.080	177.217	280.615	175.679	-8191	255	
11030.981	1	1	0	0	0.030878	0.16245	0.054022	0.13936	0.10816	0.37784	0.091165	0.22473	0.12892	0.21825	0.14632	0.084983	0.23873	0.24643	0.14818	0.19272	-2.1729	-2.8187	-2.1917	-2.85	-2.525	-2.4083	-3.0812	-2.475	-2.6479	-2.7208	-2.5125	-3.025	-2.8438	-2.4479	-3.0042	-2.4271	260.081	316.480	425.086	420.911	176.580	164.846	485.183	479.919	364.396	276.519	179.414	151.346	145.899	308.756	429.623	221.333	0.00047471	0.00060562	0.00012039	1098.3	3.2241e-06	2.839e-06	1203.1	229.24	4.6811e-06	3.4384e-06	287.44	82.682	64.313	18.898	2.435e-06	26.435	0.00028612	0.00026401	7.7437e-05	1071.4	3.0201e-06	2.8317e-06	1167.7	225.11	3.0162e-06	2.8277e-06	281.94	81.998	64.136	19.117	3.1538e-06	26.692	294.639	344.120	168.405	155.386	301.980	286.445	155.377	162.964	339.301	245.895	162.803	169.591	169.850	177.091	306.091	176.189	-8191	255	
11031.101	1	1	0	0	0.1448	0.081371	0.060567	0.13844	0.040886	0.21894	0.19105	0.22204	0.13779	0.081227	0.21257	0.07121	0.14696	0.12966	0.26909	0.14564	-2.1688	-2.9167	-2.5083	-2.8875	-2.7208	-2.3125	-3.1625	-2.6	-2.3438	-3.0292	-2.4958	-2.825	-2.8208	-2.2208	-3.0312	-2.6167	301.217	416.919	433.817	451.987	217.574	292.110	421.701	441.823	478.199	387.326	239.410	203.778	426.784	441.750	454.519	470.941	0.00040661	0.00060875	0.00010104	1097.7	5.8091e-06	6.5191e-06	1203.2	227.69	4.1683e-06	3.0308e-06	287.73	83.009	64.862	18.889	3.5472e-06	26.459	0.00027423	0.00025532	8.0905e-05	1068.4	2.9395e-06	2.812e-06	1168.6	224.24	2.9367e-06	2.8233e-06	283.07	81.893	63.968	19.063	3.2011e-06	26.613	290.376	227.090	166.988	155.311	277.494	340.937	155.423	163.044	370.978	292.787	162.599	169.645	169.920	176.548	262.164	176.424	-8191	255	
11031.173	1	1	0	0	0.11748	0.20665	0.087447	0.4314	0.2849	0.2313	0.27162	0.15555	0.050021	0.31707	0.27312	0.14505	0.087509	0.21798	0.070791	0.088412	-2.1354	-2.8771	-2.2479	-2.8146	-2.8458	-2.2646	-3.2125	-2.725	-2.3	-3.0104	-2.3646	-2.6354	-2.9	-2.45	-2.9313	-2.7875	162.776	188.321	431.800	394.905	161.466	391.485	421.156	179.421	442.468	158.098	423.015	387.160	457.539	372.220	375.845	156.236	0.00043871	0.00070401	0.00012514	1092.7	2.8302e-06	2.0124e-06	1199.5	227.16	5.3058e-06	5.0782e-06	286.11	82.189	64.63	18.69	4.6013e-06	26.31	0.00026319	0.00025902	8.2463e-05	1066	2.8023e-06	2.8934e-06	1165.9	223.37	2.8109e-06	2.9268e-06	281.46	81.566	63.804	19.126	3.2188e-06	26.557	296.427	200.133	230.673	155.310	264.086	336.567	155.410	163.371	360.373	281.881	163.011	169.055	169.902	177.200	320.583	176.234	-8191	255	
11031.267	1	1	0	0	0.047484	0.12399	0.048175	0.087333	0.21251	0.32208	0.1246	0.18917	0.30496	0.143	0.20297	0.31229	0.19464	0.1069	0.16094	0.06614	-1.8417	-2.9708	-2.3479	-2.7562	-2.9292	-2.2979	-3.0521	-2.675	-2.5167	-2.9062	-2.5375	-2.825	-2.7833	-2.3146	-2.7917	-2.7896	368.516	156.123	419.826	257.679	355.852	303.604	466.844	447.495	248.881	202.398	425.116	445.214	432.083	466.757	191.256	149.908	0.00051829	0.00039014	0.00013827	1089.1	4.1703e-06	3.7043e-06	1193.8	228.21	3.5625e-06	1.3247e-06	286.53	82.338	63.864	18.823	2.2737e-06	26.113	0.00025858	0.00027661	8.0729e-05	1063.7	2.776e-06	3.0529e-06	1163.2	223.26	2.7433e-06	3.0717e-06	281.45	81.511	63.561	19.166	3.0457e-06	26.532	286.590	208.948	229.797	155.708	313.158	236.806	155.670	163.373	377.802	324.430	162.965	169.680	170.072	177.629	372.410	176.379	-8191	255	
11031.364	1	1	0	0	0.099274	0.14534	0.1859	0.15501	0.26475	0.061097	0.10594	0.1702	0.24029	0.2021	0.12944	0.36172	0.1866	0.20087	0.072267	0.039066	-2.0875	-2.8771	-2.5104	-2.6979	-2.975	-2.375	-3.0146	-2.9458	-2.325	-2.9125	-2.7687	-2.6125	-3.0917	-2.3917	-2.7604	-2.8833	205.293	472.305	418.699	488.454	177.506	263.234	247.898	157.340	361.492	251.583	470.026	437.393	347.282	311.685	236.372	305.706	0.00035088	0.00035202	0.00012244	1082.5	3.2859e-06	3.0004e-06	1182.3	225.06	2.5022e-06	4.5591e-06	282.23	82.459	64.729	18.819	4.2611e-06	26.303	0.00025355	0.00028269	7.6108e-05	1061.6	2.7088e-06	3.1196e-06	1159.6	222.33	2.7299e-06	3.1241e-06	279.48	81.21	63.748	19.244	2.8964e-06	26.403	288.987	223.491	243.176	155.462	214.996	247.246	155.814	163.111	248.654	324.477	163.392	169.345	169.699	177.356	372.519	176.303	-8191	255	
11031.484	1	1	0	0	0.24126	0.23813	0.24491	0.017673	0.18263	0.10075	0.25676	0.10832	0.26529	0.15019	0.21727	0.045579	0.034754	0.13581	0.13268	0.13366	-1.8833	-3.0125	-2.5187	-2.5458	-2.875	-2.4313	-2.8229	-2.7833	-2.3958	-2.9292	-2.8875	-2.6104	-2.9125	-2.5625	-2.5312	-2.9333	405.751	319.615	411.667	358.685	392.324	242.252	476.323	483.295	266.277	233.842	445.495	351.738	374.470	443.955	487.840	396.991	0.00040631	0.00022261	9.1141e-05	1084.1	3.1711e-06	7.6067e-06	1188.1	226.66	5.181e-06	4.0084e-06	284.03	82.681	64.503	18.899	2.997e-06	26.414	0.00026234	0.00027819	7.1478e-05	1058.5	2.8391e-06	3.031e-06	1155.7	221.72	2.8865e-06	2.9868e-06	278.73	80.957	63.703	19.178	2.7609e-06	26.487	287.798	303.206	191.336	155.353	387.641	255.608	155.379	163.163	309.098	309.315	162.723	169.423	169.939	176.981	483.947	175.912	-8191	255	
11031.580	1	1	0	0	0.12023	0.21744	0.37497	0.31419	0.17808	0.19569	0.17829	0.19898	0.26728	0.16591	0.22449	0.22347	0.15602	0.041189	0.055798	0.17544	-1.7979	-2.9	-2.6792	-2.5187	-2.8542	-2.3	-2.6	-3.0833	-2.3187	-2.7292	-2.75	-2.4042	-2.9271	-2.5875	-2.5854	-3.0625	471.133	266.812	351.818	444.806	306.461	339.321	494.581	461.122	346.527	267.895	493.750	410.747	389.865	436.049	412.525	496.894	0.00030707	0.00026194	5.2597e-05	1086.3	6.3293e-06	1.4418e-06	1194	226.71	2.5059e-06	2.1038e-06	284.07	81.999	64.354	18.884	9.5383e-07	26.397	0.00026913	0.00027306	6.9103e-05	1057.1	2.9747e-06	2.9816e-06	1156.5	222.03	2.9792e-06	2.9043e-06	278.71	80.784	63.668	19.083	2.6831e-06	26.45	303.684	245.675	202.346	155.381	255.902	359.810	155.270	163.189	332.340	432.971	162.685	169.136	169.635	177.272	276.930	176.032	-8191	255	
11031.677	1	1	0	0	0.11788	0.16918	0.14808	0.026698	0.11657	0.49884	0.49669	0.20429	0.15552	0.30474	0.096584	0.22076	0.21656	0.21157	0.089386	0.13375	-1.9208	-2.6083	-2.7625	-2.3583	-2.9229	-2.6792	-2.6312	-3.0521	-2.3458	-2.775	-2.8729	-2.3833	-3.0125	-2.5604	-2.5229	-3	345.059	387.366	376.699	210.433	184.822	445.697	429.161	415.421	411.647	408.389	485.564	360.473	468.464	173.755	397.703	158.711	0.00040596	0.00066015	7.7028e-05	1086.7	2.928e-06	1.8729e-06	1189.5	227.07	8.4401e-06	4.216e-06	284.19	81.923	64.349	18.744	4.0166e-06	26.371	0.00028013	0.00026486	6.7299e-05	1057.3	3.0494e-06	2.7985e-06	1154.6	222.31	3.0648e-06	2.8008e-06	278.49	80.944	63.852	19.023	2.6091e-06	26.474	295.497	186.858	264.673	155.477	252.999	343.596	155.561	163.325	295.014	346.572	163.061	169.624	169.667	177.235	352.760	176.349	-8191	255	
11031.773	1	1	0	0	0.11321	0.093217	0.21588	0.11726	0.17668	0.23438	0.25504	0.32015	0.10716	0.13256	0.23951	0.17053	0.17799	0.30437	0.071322	0.095478	-2.1854	-2.6729	-2.9021	-2.3583	-2.9542	-2.6562	-2.6417	-3.0458	-2.3667	-2.5208	-3.0625	-2.3771	-2.8875	-2.8896	-2.4437	-3.1188	196.134	443.237	343.892	174.222	453.037	231.858	372.168	222.835	440.890	176.655	426.402	319.400	155.705	464.772	383.510	217.478	0.00042812	0.00019516	2.779e-05	1081.9	4.6699e-06	3.0774e-06	1184.3	226.57	2.9465e-06	4.2328e-06	280.68	81.94	63.744	18.618	4.1984e-06	26.114	0.0002793	0.0002545	6.5627e-05	1057.5	3.0418e-06	2.7793e-06	1152.7	222.29	2.9938e-06	2.7371e-06	276.83	81.168	63.626	18.989	2.5963e-06	26.506	294.021	218.060	332.323	155.610	246.449	326.331	155.531	163.172	290.848	337.254	163.048	169.658	169.852	177.469	338.671	176.590	-8191	255	
11031.869	1	1	0	0	0.073988	0.18322	0.15921	0.14077	0.05938	0.11351	0.11433	0.20592	0.18469	0.284	0.17	0.21373	0.14673	0.1932	0.22838	0.054545	-2.175	-2.4583	-2.7979	-2.3	-2.8063	-2.675	-2.5333	-3.0479	-2.3354	-2.4	-3.0646	-2.4792	-2.8063	-3.025	-2.1979	-2.85	211.530	162.794	460.639	443.349	166.988	387.793	465.282	469.136	309.035	240.860	435.214	430.170	472.103	263.283	448.134	484.769	0.00048193	0.00016421	0.00010574	1073.2	1.3792e-06	3.4851e-06	1176.7	224.06	1.2168e-06	4.5562e-06	280.29	81.801	63.287	18.704	2.2257e-06	26.067	0.00027027	0.00024718	6.6596e-05	1055.4	2.8822e-06	2.6754e-06	1150.4	222	2.9025e-06	2.6761e-06	277.15	81.226	63.415	19.014	2.7207e-06	26.591	301.439	173.122	276.015	155.766	309.162	385.840	155.659	163.164	263.176	270.385	163.009	169.231	170.399	177.645	387.147	176.176	-8191	255	
11031.965	1	1	0	0	0.28926	0.1139	0.072405	0.1642	0.11503	0.030819	0.14054	0.031357	0.16051	0.33763	0.15894	0.15582	0.15895	0.13264	0.16631	0.16483	-2.1521	-2.3583	-3.0771	-2.4479	-2.7958	-3.05	-2.525	-3.0375	-2.7792	-2.4896	-3.1	-2.4458	-2.8021	-2.9208	-2.1771	-2.8792	486.302	480.542	186.896	503.818	419.991	231.366	427.051	173.002	206.353	172.155	437.989	410.071	205.026	192.632	342.661	180.141	0.00038463	0.00045647	0.00014728	1083.3	3.0868e-06	3.2339e-06	1184.4	227	7.4103e-06	3.4846e-06	285.17	81.65	64.003	18.829	4.7798e-06	26.406	0.00026075	0.00024244	7.035e-05	1056.9	2.8528e-06	2.6317e-06	1153.3	222.8	2.8092e-06	2.6449e-06	279.56	81.113	63.386	18.951	2.9077e-06	26.57	293.570	209.783	191.934	155.233	291.191	286.796	155.282	163.182	365.814	311.650	162.938	169.383	169.869	177.095	326.518	176.486	-8191	255	
11032.061	1	1	0	0	0.21828	0.18306	0.10989	0.24666	0.19561	0.24454	0.4153	0.13244	0.29318	0.14571	0.2765	0.054511	0.067957	0.073478	0.13568	0.096037	-2.3646	-2.3417	-3.0625	-2.6562	-2.4125	-2.8667	-2.2729	-2.9917	-2.7958	-2.3229	-3.0875	-2.6437	-2.6312	-2.8771	-2.3063	-2.9396	472.153	459.443	288.091	460.660	475.319	252.532	425.540	145.347	484.319	332.995	441.564	474.375	166.421	265.954	476.800	211.090	0.00038452	0.00023974	9.6434e-05	1073.9	2.4366e-06	2.1659e-06	1180.8	224.74	3.0242e-06	2.829e-06	284.51	81.517	64.134	18.883	2.8875e-06	26.219	0.00025538	0.00023954	7.4323e-05	1054.7	2.7387e-06	2.5855e-06	1152.3	222.07	2.743e-06	2.6401e-06	278.98	80.9	63.302	18.994	2.9853e-06	26.439	284.485	502.658	176.022	155.654	242.383	346.075	155.653	163.199	313.427	445.804	162.849	169.709	169.890	177.218	220.015	176.405	-8191	255	
11032.182	1	1	0	0	0.26961	0.1925	0.11899	0.096013	0.48761	0.27982	0.16131	0.23114	0.26576	0.089778	0.17128	0.17527	0.2363	0.13019	0.14657	0.1939	-2.4146	-2.3688	-2.9313	-2.5021	-2.5083	-2.9958	-2.6	-2.7875	-2.7833	-2.3771	-2.8646	-2.7562	-2.4646	-3.0708	-2.4813	-2.8312	438.525	296.670	238.786	372.896	443.664	176.307	174.240	163.823	197.860	494.234	395.481	420.138	181.996	270.841	175.515	366.218	0.00040907	0.0002314	0.0001116	1075.2	3.6573e-06	4.9859e-06	1179.3	225.01	7.5355e-06	3.7829e-06	282.43	81.801	63.741	18.539	4.3865e-06	26.157	0.00024879	0.0002417	7.6547e-05	1054	2.7128e-06	2.6738e-06	1152.6	221.39	2.655e-06	2.7405e-06	278.43	80.59	63.132	18.93	3.0084e-06	26.476	293.494	362.727	263.163	155.773	272.865	295.852	155.697	163.215	323.315	285.140	162.927	169.852	170.053	177.251	230.249	176.605	-8191	255	
11032.276	1	1	0	0	0.35477	0.10727	0.1347	0.20368	0.085679	0.26311	0.21423	0.3548	0.075435	0.02366	0.096952	0.23802	0.10004	0.26384	0.19807	0.188	-2.3375	-2.0854	-2.95	-2.6458	-2.3771	-3.1167	-2.5438	-2.6958	-2.8771	-2.1562	-2.9896	-2.7021	-2.4167	-2.9667	-2.7188	-2.7021	199.907	227.023	367.840	159.861	145.759	280.583	476.816	453.803	362.703	316.390	370.745	498.625	481.871	449.799	421.897	438.562	0.00037525	0.00051231	7.1855e-05	1074.9	1.6617e-06	4.7648e-06	1174.8	224.04	3.9137e-06	3.5802e-06	280.6	81.493	63.207	18.565	3.8824e-06	25.812	0.00024159	0.00025628	7.5978e-05	1053.3	2.5992e-06	2.8031e-06	1151.5	220.96	2.5499e-06	2.9237e-06	278.47	80.698	62.847	19.017	2.966e-06	26.316	285.962	168.934	314.390	155.573	425.231	275.073	155.692	163.371	428.258	201.624	162.730	169.868	170.275	177.714	255.573	176.505	-8191	255	
11032.372	1	1	0	0	0.32221	0.089308	0.18753	0.11335	0.096505	0.18317	0.28562	0.14306	0.15582	0.13256	0.19094	0.082285	0.21002	0.19378	0.17195	0.042053	-2.4833	-2.2625	-2.9208	-2.8979	-2.5563	-2.9583	-2.7083	-2.5812	-2.9417	-2.3937	-3.0125	-2.8604	-2.3292	-2.9833	-2.6479	-2.5479	296.921	224.178	246.626	174.533	248.627	231.863	151.397	491.751	326.327	383.277	478.359	145.667	214.200	465.356	224.483	309.882	0.00031377	0.00036314	0.00014279	1073.3	1.9131e-06	2.6537e-07	1174.5	223.56	3.1859e-06	2.1137e-06	281	81.19	63.681	18.59	2.665e-06	26.085	0.00024103	0.00026876	7.4162e-05	1052.8	2.6618e-06	2.9469e-06	1150.8	221.05	2.5595e-06	2.9638e-06	277.93	80.403	63.09	19.072	2.8071e-06	26.312	303.389	495.631	180.644	155.718	320.090	339.108	155.794	163.384	336.441	276.933	163.244	169.798	170.221	177.258	281.692	176.256	-8191	255	
11032.468	1	1	0	0	0.33496	0.10837	0.34659	0.31753	0.060537	0.10934	0.014682	0.09847	0.29956	0.11869	0.30337	0.40421	0.13426	0.074729	0.12405	0.10705	-2.5292	-2.5229	-2.8167	-2.9521	-2.4646	-3.1792	-2.8229	-2.4708	-3.0062	-2.3375	-2.8563	-3.0229	-2.3833	-2.9688	-2.7292	-2.6271	200.186	275.528	174.757	468.392	155.991	423.822	431.995	279.034	165.742	341.726	169.413	183.238	189.969	340.736	381.824	276.136	0.00038777	0.00020523	0.00012969	1073.1	4.3812e-06	5.8155e-06	1178.7	223.35	6.2343e-06	4.6607e-06	281.97	80.676	63.402	18.611	5.3097e-06	26.219	0.000244	0.00027102	6.9949e-05	1052.8	2.7014e-06	2.9386e-06	1150.8	220.65	2.7092e-06	2.9677e-06	277.78	80.097	63.184	19.07	2.6854e-06	26.275	288.652	256.937	276.599	155.865	239.913	255.108	155.676	163.368	344.499	371.976	162.747	169.957	169.808	177.437	323.578	175.734	-8191	255	
11032.565	1	1	0	0	0.17451	0.15189	0.21174	0.26493	0.033102	0.20036	0.35026	0.2166	0.18313	0.13807	0.12154	0.084571	0.032933	0.082056	0.029841	0.19379	-2.7438	-2.3292	-2.6896	-2.9271	-2.2396	-2.7458	-2.9375	-2.5	-3.0187	-2.6	-2.725	-2.9396	-2.2687	-3.025	-2.8833	-2.4771	435.475	419.552	499.148	448.256	233.546	199.691	451.947	431.444	146.436	274.034	265.566	181.211	441.823	321.807	352.820	483.198	0.00043989	0.00033559	0.00010914	1075.9	4.5037e-06	1.3917e-06	1173.7	224.37	5.1276e-06	4.1691e-06	282.29	81.98	63.45	18.751	1.6047e-06	26.002	0.00025586	0.00026944	6.8394e-05	1050.9	2.8565e-06	2.8975e-06	1147	220.49	2.8779e-06	2.867e-06	277.27	80.527	63.499	19.047	2.6247e-06	26.26	293.484	158.351	283.999	155.589	241.025	224.698	155.860	163.151	292.674	276.297	162.791	169.368	169.963	177.226	501.486	175.720	-8191	255	
11032.661	1	1	0	0	0.050198	0.051542	0.11365	0.27266	0.11615	0.15295	0.21099	0.07205	0.15664	0.093448	0.28578	0.36844	0.071784	0.12619	0.13931	0.33219	-2.8688	-2.6458	-2.6188	-3.2104	-2.475	-2.7875	-2.775	-2.3708	-3.1292	-2.6458	-2.6625	-3.1146	-2.3479	-2.8667	-2.9062	-2.4854	416.682	419.655	216.651	428.394	305.964	347.520	451.193	438.968	220.228	416.706	350.514	381.446	374.611	160.381	146.225	433.952	0.00043135	0.00063036	3.4678e-05	1076.2	2.3615e-06	7.1481e-06	1184.5	224.92	2.8887e-06	1.4224e-06	283.49	81.965	64.359	18.859	3.2206e-06	26.158	0.00027132	0.00025365	6.6768e-05	1051	2.9717e-06	2.7795e-06	1146.9	220.48	2.9626e-06	2.7532e-06	277.15	80.591	63.568	19.032	2.5493e-06	26.331	289.668	319.271	165.625	155.492	286.730	282.822	155.592	162.884	295.377	378.982	162.498	169.979	169.956	177.006	368.488	176.184	-8191	255	
11032.781	1	1	0	0	0.07861	0.17886	0.27542	0.1405	0.24885	0.28827	0.04516	0.15657	0.10778	0.060723	0.23973	0.029553	0.24848	0.03883	0.13259	0.21722	-2.7542	-2.425	-2.4271	-3.1312	-2.3146	-2.6792	-3.2229	-2.3667	-2.8125	-2.675	-2.4958	-3.1063	-2.6562	-2.7167	-3.1333	-2.5208	301.063	220.964	282.600	482.071	159.615	145.044	438.672	500.040	173.642	461.515	463.410	340.788	453.430	178.977	155.075	454.930	0.00038243	0.00048013	6.0875e-05	1083.4	6.4545e-06	3.2401e-06	1186.6	225.82	5.1444e-06	2.4846e-06	284.53	81.948	64.138	18.861	7.2469e-06	26.16	0.00026865	0.00024918	6.5144e-05	1054.1	2.9564e-06	2.7237e-06	1149.2	221.28	2.9611e-06	2.668e-06	277.15	80.792	63.528	18.976	2.5188e-06	26.461	290.356	234.867	210.578	155.542	334.164	322.267	155.615	162.848	322.367	242.601	162.545	169.313	169.841	176.872	300.630	176.367	-8191	255	
11032.878	1	1	0	0	0.094579	0.21313	0.17683	0.32231	0.30574	0.049337	0.15198	0.23455	0.096591	0.23068	0.15128	0.19829	0.1187	0.17043	0.14302	0.36793	-2.5375	-2.8646	-2.4083	-3.1771	-2.5354	-2.7375	-3.2396	-2.3937	-2.9542	-2.7271	-2.3521	-2.8729	-2.4333	-2.5854	-3.1208	-2.4	275.702	455.901	458.615	459.439	281.492	418.451	472.016	150.392	161.984	492.776	313.203	493.943	206.748	432.512	251.292	465.481	0.00039107	0.00043896	1.3469e-05	1086.5	3.5178e-06	2.6086e-06	1189.8	226.93	3.7688e-06	2.4241e-06	285.19	82.652	64.356	18.692	2.1533e-06	26.288	0.00026621	0.00024572	6.4448e-05	1056.4	2.891e-06	2.6569e-06	1148	221.54	2.8347e-06	2.6331e-06	277.75	80.966	63.321	18.878	2.5578e-06	26.472	302.646	234.306	164.521	155.461	289.679	279.502	155.403	163.189	331.039	185.936	162.751	169.425	169.789	176.737	308.918	176.237	-8191	255	
11032.974	1	1	0	0	0.18616	0.1453	0.037344	0.12947	0.064358	0.26748	0.17317	0.21237	0.16057	0.11929	0.076755	0.20792	0.18153	0.20245	0.035883	0.1482	-2.3333	-2.6479	-2.3521	-3.2188	-2.6479	-2.6125	-3.2458	-2.5979	-2.6937	-2.9938	-2.3396	-2.925	-2.7438	-2.25	-3.1208	-2.4292	469.460	194.239	179.229	154.391	192.480	178.666	151.901	449.477	357.748	379.684	455.979	158.690	442.697	502.503	417.955	399.081	0.00036467	0.00032796	0.00014024	1084.6	4.4333e-07	5.65e-06	1190.2	227.33	1.4816e-06	6.1107e-06	285.2	82.394	64.033	18.804	2.8467e-06	26.171	0.0002555	0.00023301	6.5981e-05	1054	2.7279e-06	2.5644e-06	1149.8	221.66	2.7354e-06	2.5231e-06	278.39	80.899	63.197	18.928	2.6629e-06	26.465	308.167	183.746	222.666	155.537	204.190	274.811	155.433	162.915	274.163	269.513	162.490	169.224	169.979	176.546	375.919	176.125	-8191	255	
11033.045	1	1	0	0	0.15948	0.32185	0.19429	0.23773	0.19301	0.21137	0.15518	0.054874	0.077653	0.18528	0.21304	0.22974	0.075573	0.36127	0.33487	0.16041	-2.2125	-2.9	-2.3125	-3.1146	-2.7438	-2.4583	-3.0812	-2.4521	-2.6625	-2.7687	-2.4333	-2.8292	-2.8729	-2.3833	-3.0604	-2.3646	229.910	467.445	276.175	448.515	206.515	308.911	432.163	173.254	359.230	329.567	462.199	160.905	241.200	484.420	487.419	374.045	0.00045354	0.00013044	0.00013478	1082.8	1.9548e-06	3.0607e-06	1185	225.72	2.5199e-06	2.9157e-06	283.87	82.035	63.886	18.773	4.4899e-06	26.216	0.00024685	0.00022681	6.969e-05	1053.8	2.6672e-06	2.4802e-06	1148	221.07	2.6398e-06	2.4924e-06	277.15	80.774	63.077	18.891	2.8289e-06	26.39	290.676	411.701	244.573	155.348	332.355	320.565	155.342	163.014	246.953	184.244	162.363	169.459	169.973	177.163	279.530	176.009	-8191	255	
11033.164	1	1	0	0	0.23507	0.26254	0.26033	0.30812	0.10778	0.13941	0.090298	0.22178	0.047855	0.043324	0.1352	0.07476	0.14178	0.16437	0.24467	0.1821	-2.4313	-3.0938	-2.2521	-3.0417	-2.7896	-2.4562	-3.1396	-2.7396	-2.3146	-3.1	-2.5792	-2.7875	-2.8833	-2.4229	-3.0917	-2.7375	187.629	218.585	177.438	412.579	200.207	396.013	368.353	319.130	346.613	310.263	316.492	367.451	150.152	264.245	402.259	177.809	0.00037865	0.00023259	5.1302e-05	1080.7	3.5036e-06	2.8202e-06	1186.8	225.19	3.5059e-06	2.9695e-06	284.55	81.735	64.146	18.902	4.8777e-06	26.342	0.00024142	0.00022847	7.276e-05	1051.3	2.6012e-06	2.5265e-06	1149.1	220.32	2.5536e-06	2.5336e-06	278.35	80.641	62.977	18.926	2.9069e-06	26.317	298.326	271.962	439.308	155.366	260.691	275.899	155.203	162.926	199.826	217.805	162.358	169.409	169.614	176.680	323.312	176.235	-8191	255	
11033.260	1	1	0	0	0.15036	0.10006	0.048069	0.42745	0.10728	0.28917	0.20105	0.091426	0.15275	0.068349	0.22632	0.058204	0.078471	0.10424	0.13972	0.086721	-2.0479	-3.0521	-2.3063	-2.9104	-2.8958	-2.1646	-3.1646	-2.7354	-2.5604	-3.0833	-2.5542	-2.6042	-2.9562	-2.2896	-2.8208	-2.8021	407.111	169.743	318.394	442.828	192.721	346.302	404.668	412.519	429.605	227.746	467.058	469.458	207.032	352.848	189.592	473.278	0.00034205	8.0548e-05	0.00014704	1082.2	3.3362e-06	2.224e-06	1188.8	226.02	3.0153e-06	7.199e-07	284.39	81.35	64.311	18.94	1.3534e-06	26.394	0.00023533	0.00023779	7.4107e-05	1051.5	2.5075e-06	2.6269e-06	1149	220.51	2.5309e-06	2.7016e-06	278	80.368	62.921	18.953	2.8086e-06	26.232	292.316	297.979	276.274	155.271	293.222	222.579	155.445	163.316	363.700	191.399	162.380	169.298	169.705	176.731	326.411	175.923	-8191	255	
11033.357	1	1	0	0	0.34626	0.20239	0.30419	0.1174	0.23125	0.054768	0.32147	0.039887	0.12299	0.094947	0.32727	0.23711	0.09043	0.32919	0.3525	0.13022	-1.9875	-2.9104	-2.4646	-2.6937	-3.0563	-2.2625	-3.0312	-2.875	-2.3917	-3.0062	-2.4417	-2.5292	-3.0604	-2.4062	-2.9208	-2.9646	319.452	357.260	218.363	481.722	278.931	440.037	423.873	440.148	390.764	387.598	444.529	443.441	486.275	158.100	486.279	166.468	0.00045403	0.00019688	0.00010165	1088.5	1.0461e-06	4.6647e-06	1179.2	226.99	1.9604e-06	2.9127e-06	284.96	82.256	64.403	18.619	6.8979e-06	26.279	0.00022855	0.00025104	7.0335e-05	1052.3	2.4297e-06	2.7975e-06	1144.9	220.39	2.4617e-06	2.7926e-06	278.04	80.369	62.931	18.913	2.6683e-06	26.2	294.092	155.409	267.213	155.077	241.737	199.688	155.195	163.154	277.947	359.358	162.534	169.106	169.924	176.620	334.360	175.966	-8191	255	
11033.453	1	1	0	0	0.055365	0.20335	0.26689	0.039861	0.24309	0.15898	0.24013	0.075105	0.25383	0.090366	0.17659	0.10264	0.15953	0.27572	0.12041	0.066966	-1.9062	-2.7417	-2.5396	-2.7375	-2.9771	-2.3958	-2.9854	-2.8667	-2.4375	-2.9042	-2.6437	-2.7271	-3.1104	-2.3479	-2.6167	-2.9646	407.364	315.902	314.854	502.932	488.457	342.472	503.042	393.566	494.431	292.824	337.606	458.182	485.811	359.311	217.378	398.643	0.0004508	0.00071106	0.00015073	1079.8	2.643e-06	2.2599e-06	1182.8	226.37	6.5365e-06	1.8424e-06	285.54	81.547	64.069	18.7	6.0777e-06	26.32	0.00023418	0.00025833	6.7625e-05	1048.7	2.4978e-06	2.7989e-06	1145.6	219.78	2.5665e-06	2.8173e-06	277.73	80.044	63.11	18.928	2.5786e-06	26.19	293.717	246.644	255.484	155.433	304.137	303.234	155.217	163.088	324.094	317.738	162.363	169.599	170.157	176.727	308.148	176.366	-8191	255	
11033.573	1	1	0	0	0.14179	0.17147	0.1645	0.10773	0.17773	0.048511	0.1435	0.28291	0.24184	0.063215	0.3507	0.1433	0.16628	0.2459	0.08838	0.087976	-1.7292	-3	-2.5542	-2.5563	-3.0604	-2.3812	-2.8646	-2.8396	-2.2104	-2.7646	-2.7687	-2.4437	-3.1083	-2.5083	-2.4562	-2.9083	284.775	224.738	420.751	457.023	176.115	486.147	430.410	466.816	497.630	389.413	172.932	199.401	488.075	159.072	240.889	441.311	0.00039028	0.00030054	0.00018011	1077.5	2.4782e-06	1.8682e-06	1182.1	225	2.0494e-06	5.0567e-06	284.11	82.03	63.674	18.627	2.0103e-06	26.192	0.00024221	0.00025655	6.5067e-05	1048.1	2.6559e-06	2.7295e-06	1144.6	219.74	2.6626e-06	2.6745e-06	276.58	80.063	62.95	18.931	2.49e-06	26.101	282.580	223.107	258.453	155.437	275.491	400.610	155.256	163.378	220.285	238.966	162.542	169.170	169.738	177.181	340.693	176.016	-8191	255	
11033.645	1	1	0	0	0.082334	0.032278	0.15823	0.32727	0.028408	0.34724	0.21901	0.05978	0.20845	0.14518	0.18651	0.076675	0.17685	0.21994	0.12244	0.095225	-1.9021	-2.8458	-2.7792	-2.3688	-3.0208	-2.55	-2.5125	-3.0521	-2.4396	-2.9562	-2.8646	-2.4917	-3.0604	-2.5271	-2.525	-2.9479	478.266	446.845	235.404	450.995	209.386	412.953	412.986	156.997	175.109	414.260	424.896	199.740	389.251	379.210	208.388	180.765	0.00035725	0.00028298	7.0746e-05	1079.9	4.8959e-06	4.4551e-06	1174.6	225.62	8.0885e-06	1.6878e-07	282.05	81.393	64.152	18.676	3.3482e-06	26.05	0.00025449	0.00024382	6.2302e-05	1048.5	2.7807e-06	2.6622e-06	1142	219.68	2.7867e-06	2.6562e-06	275.7	80.061	63.266	18.871	2.4823e-06	26.032	289.656	226.742	228.835	155.346	309.831	354.281	155.177	163.100	354.316	382.411	162.781	169.295	169.712	177.398	293.043	176.013	-8191	255	
11033.741	1	1	0	0	0.11628	0.07209	0.22525	0.32806	0.1911	0.10578	0.072969	0.2762	0.10372	0.11617	0.19491	0.17617	0.3477	0.14614	0.054554	0.15179	-2.0521	-2.7708	-2.7729	-2.4333	-3.0521	-2.6813	-2.5917	-3.2687	-2.3167	-2.7917	-2.9896	-2.3396	-2.8396	-2.725	-2.5	-2.9875	385.923	471.735	430.902	480.513	461.333	469.061	468.355	505.262	385.619	308.905	313.407	470.418	473.444	450.062	231.682	354.699	0.00040117	0.00045925	0.00013981	1075.5	4.2028e-07	1.6781e-06	1178.2	224.51	5.2454e-06	2.3806e-06	281.46	81.299	63.951	18.629	2.6728e-06	26.34	0.00026193	0.00023985	6.1389e-05	1047	2.8092e-06	2.5612e-06	1141.3	219.94	2.8307e-06	2.5649e-06	275.92	80.125	63.092	18.842	2.4451e-06	26.255	285.466	290.236	193.914	155.333	459.879	404.270	155.360	163.510	269.658	251.858	162.795	169.524	169.916	177.225	413.048	175.970	-8191	255	
11033.862	1	1	0	0	0.19056	0.33315	0.017465	0.19836	0.19811	0.098284	0.40822	0.11695	0.18269	0.16155	0.052545	0.20662	0.21128	0.18937	0.33737	0.25936	-1.8625	-2.4813	-2.8333	-2.5729	-2.9625	-2.6167	-2.5021	-3.125	-2.7521	-2.4958	-3.0833	-2.3667	-2.8979	-2.8146	-2.4854	-3.1688	249.809	221.970	201.537	477.797	485.864	176.811	468.917	214.501	448.635	334.774	233.097	392.372	161.146	422.642	438.820	356.253	0.00045406	0.00041607	0.00016181	1075.2	1.8029e-06	2.9233e-06	1175.7	225.21	1.8269e-06	3.9545e-06	283.69	81.289	63.682	18.666	2.6697e-06	26.213	0.00026066	0.00024016	6.281e-05	1049.1	2.8269e-06	2.609e-06	1141.7	220.6	2.7935e-06	2.5985e-06	276.51	80.455	62.954	18.787	2.4653e-06	26.332	282.136	171.484	206.815	155.299	271.096	296.915	155.402	163.259	345.370	157.576	162.866	169.364	170.072	176.677	366.109	176.003	-8191	255	
11033.958	1	1	0	0	0.25842	0.0858	0.23363	0.31738	0.12313	0.17985	0.059457	0.27721	0.066752	0.33204	0.20105	0.21841	0.097496	0.30754	0.078224	0.15574	-2.2708	-2.6875	-3.1042	-2.4813	-2.9229	-2.7792	-2.6833	-3.2271	-2.6042	-2.3937	-3.1083	-2.4104	-2.8125	-2.9292	-2.3479	-3.0854	369.155	467.286	464.722	424.146	447.015	341.230	360.477	400.585	267.818	426.693	464.575	357.839	494.899	500.010	302.050	438.678	0.0004205	0.00060051	4.7353e-05	1077.7	2.4184e-06	4.4384e-06	1173	224.4	5.0045e-07	3.8076e-06	283.14	81.242	63.601	18.497	7.9816e-06	26.188	0.0002501	0.00023015	6.2484e-05	1049.9	2.7298e-06	2.5059e-06	1139.7	220	2.7323e-06	2.5368e-06	276.8	80.293	62.821	18.752	2.5913e-06	26.316	297.675	226.566	310.299	155.346	279.474	422.574	155.489	163.046	398.290	207.636	162.810	169.487	169.774	176.977	269.548	176.256	-8191	255	
11034.054	1	1	0	0	0.010216	0.10302	0.073837	0.21867	0.22318	0.052909	0.27221	0.18954	0.15566	0.059966	0.11294	0.061192	0.14875	0.17312	0.29652	0.18154	-2.2646	-2.2979	-3.1271	-2.6042	-2.8875	-3.0208	-2.7	-3.0708	-2.7062	-2.3042	-2.9604	-2.5625	-2.7021	-2.9188	-2.4104	-3.0083	283.504	482.215	363.332	464.421	334.043	449.295	448.485	450.756	381.457	168.152	254.172	158.078	425.350	148.477	168.313	462.380	0.0004343	0.00038943	5.8516e-05	1071.1	8.2018e-06	1.4458e-06	1177.5	224.63	3.9317e-06	4.3999e-06	281.88	80.98	63.54	18.62	2.0051e-06	26.145	0.00024288	0.00022911	6.683e-05	1046.3	2.6482e-06	2.4579e-06	1140.7	220.36	2.5976e-06	2.4508e-06	276.96	80.273	62.754	18.767	2.7698e-06	26.265	299.487	250.297	224.540	155.430	290.777	409.503	155.280	163.259	375.099	325.973	162.907	169.694	169.536	176.932	273.179	175.988	-8191	255	
11034.173	1	1	0	0	0.29216	0.17599	0.20491	0.14735	0.12006	0.17724	0.24209	0.12796	0.1877	0.10802	0.10885	0.19727	0.17825	0.17077	0.075789	0.35059	-2.2562	-2.3438	-3.0875	-2.6458	-2.4333	-2.8833	-2.5708	-2.9417	-2.9333	-2.2375	-3.0438	-2.5229	-2.5271	-3.0292	-2.4083	-2.7292	271.772	165.373	209.859	482.185	287.301	416.799	145.915	403.652	423.784	432.920	317.330	351.689	358.789	174.849	347.487	498.286	0.00033471	0.00029302	8.6268e-05	1073.8	1.5256e-06	3.6045e-06	1165.6	224	3.003e-06	2.8901e-06	281.43	80.894	63.491	18.655	4.4079e-06	25.904	0.00023803	0.00022224	7.0576e-05	1046.6	2.5941e-06	2.4531e-06	1138.2	220.08	2.5296e-06	2.4667e-06	277.43	80.088	62.662	18.8	2.8008e-06	26.215	306.270	266.916	157.288	155.639	425.077	310.682	155.541	162.752	324.949	205.404	162.904	169.124	169.839	176.749	270.216	176.587	-8191	255	
11034.269	1	1	0	0	0.27661	0.21562	0.13238	0.23088	0.13327	0.23517	0.20671	0.14558	0.12616	0.13551	0.087846	0.13119	0.070592	0.11685	0.23422	0.060751	-2.4521	-2.3458	-2.8958	-2.8896	-2.5479	-2.975	-2.4333	-2.8833	-2.7646	-2.3729	-3.0521	-2.6833	-2.3583	-2.8167	-2.4417	-2.7604	379.572	190.596	160.363	469.640	208.947	259.787	408.792	365.627	149.686	298.132	445.291	288.585	283.304	212.737	283.708	445.184	0.00033559	0.00025294	1.8055e-05	1073.3	6.6431e-06	1.3085e-06	1178.6	224.35	4.1426e-06	2.9738e-06	282.77	80.539	63.674	18.663	3.2393e-06	26.077	0.00023246	0.00023217	7.2461e-05	1046.3	2.5224e-06	2.5239e-06	1141.3	219.65	2.4513e-06	2.5848e-06	277.53	79.756	62.681	18.844	2.8272e-06	26.156	309.260	239.349	321.423	155.516	271.715	289.638	155.514	163.258	379.617	264.591	162.800	169.692	169.738	176.736	312.963	176.332	-8191	255	
11034.341	1	1	0	0	0.098184	0.18808	0.21884	0.13725	0.1019	0.060864	0.065726	0.076361	0.078649	0.010395	0.080657	0.1359	0.16843	0.078477	0.10117	0.21348	-2.4688	-2.4062	-2.9396	-2.9854	-2.2833	-2.9542	-2.5125	-2.4417	-3.0083	-2.3896	-2.7729	-2.7542	-2.4729	-2.9625	-2.3812	-2.5646	453.958	242.068	415.703	451.207	332.747	350.850	225.357	493.519	454.052	315.297	368.234	306.682	457.074	218.779	374.918	497.257	0.00039186	0.00017942	0.00013861	1071.6	2.1366e-06	3.6138e-06	1168.2	224.29	5.6768e-06	4.0299e-06	284.01	81.75	63.474	18.853	1.9666e-06	26.152	0.0002245	0.00024438	7.0925e-05	1044.3	2.4091e-06	2.6932e-06	1138.5	219.48	2.4235e-06	2.726e-06	277.12	79.926	62.268	18.884	2.6838e-06	26.071	296.407	298.496	203.714	155.735	384.603	337.977	155.382	163.469	299.299	234.192	162.562	169.606	169.686	176.997	376.057	176.471	-8191	255	
11034.461	1	1	0	0	0.34001	0.17616	0.21002	0.12782	0.097357	0.19647	0.47171	0.094999	0.26738	0.17795	0.069672	0.084483	0.15974	0.12659	0.16612	0.32201	-2.4708	-2.3937	-2.7333	-2.725	-2.2229	-2.8792	-2.5687	-2.4771	-2.9229	-2.3792	-2.8083	-2.8875	-2.4188	-2.8958	-2.5271	-2.3604	318.225	181.387	315.038	435.757	406.025	386.056	443.016	222.782	154.330	326.674	273.695	426.333	502.018	438.919	492.624	469.862	0.00047082	0.00053003	9.5479e-05	1072.8	2.6972e-06	3.0257e-06	1178.3	225.42	5.3579e-06	4.9586e-06	283.43	81.184	63.865	18.713	8.2175e-07	26.34	0.00022162	0.00025024	6.6333e-05	1044.4	2.4382e-06	2.7796e-06	1138.8	219.21	2.4479e-06	2.8127e-06	276.03	79.831	62.618	18.921	2.5905e-06	26.021	284.638	306.948	285.375	155.611	232.518	308.569	155.212	162.912	289.077	221.198	162.642	169.278	169.967	177.021	303.855	175.818	-8191	255	
11034.558	1	1	0	0	0.1234	0.037156	0.23627	0.25021	0.38233	0.10564	0.31725	0.12017	0.17441	0.15598	0.1841	0.096315	0.18138	0.29728	0.19948	0.33298	-2.6104	-2.5833	-2.5458	-3.0271	-2.25	-2.9583	-2.7625	-2.4625	-3.0312	-2.4375	-2.8021	-2.8521	-2.2708	-2.8292	-2.7438	-2.5458	145.699	288.348	408.235	452.216	227.379	267.266	488.374	480.907	155.597	215.013	465.610	392.255	416.024	148.304	490.525	322.342	0.00047136	0.00045087	3.1759e-05	1076.3	5.1534e-06	2.4033e-06	1179	224.33	7.2134e-06	5.0012e-06	284.3	81.636	63.669	18.714	5.2177e-06	25.959	0.00023569	0.00025769	6.4854e-05	1042.3	2.6319e-06	2.7254e-06	1137	219.44	2.6025e-06	2.7291e-06	276.12	79.771	62.709	18.886	2.5258e-06	25.987	297.864	227.306	353.636	155.425	272.656	293.070	155.318	162.890	361.783	307.837	162.297	169.411	169.985	177.029	276.795	175.925	-8191	255	
11034.654	1	1	0	0	0.25455	0.18816	0.16544	0.16195	0.18492	0.17822	0.039542	0.1432	0.1732	0.20811	0.050217	0.090747	0.2074	0.29243	0.19719	0.012638	-2.6729	-2.4167	-2.7458	-3.0979	-2.2938	-2.6562	-2.8042	-2.5292	-3.0208	-2.6354	-2.4938	-2.9	-2.1708	-2.8042	-2.7271	-2.2542	263.606	173.051	456.742	284.774	399.238	398.206	181.054	193.220	204.343	178.000	408.952	450.338	209.489	476.056	225.104	286.980	0.0004415	0.00014595	3.4307e-05	1075.3	3.9308e-06	4.374e-06	1176.2	224.75	5.7873e-06	3.5621e-06	283.87	82.004	64.062	18.599	4.794e-07	26.195	0.00025026	0.00024949	6.397e-05	1041.6	2.7608e-06	2.6744e-06	1136.6	218.93	2.7491e-06	2.6666e-06	276.35	79.7	62.994	18.788	2.4532e-06	26.07	285.901	300.348	158.848	155.382	247.210	363.240	155.339	162.917	312.619	223.665	162.407	169.161	170.024	177.074	383.921	175.885	-8191	255	
11034.750	1	1	0	0	0.080751	0.24371	0.07609	0.21275	0.0993	0.040332	0.17414	0.1136	0.057969	0.055581	0.28068	0.23745	0.11156	0.18466	0.056467	0.20423	-2.7479	-2.5333	-2.5833	-2.975	-2.5729	-2.8167	-3.0646	-2.3729	-3.0333	-2.7479	-2.5979	-3.0312	-2.5	-2.7125	-2.8563	-2.3854	323.835	418.217	166.004	503.096	184.181	227.071	146.011	458.805	249.693	235.194	390.204	175.477	405.000	488.888	292.274	165.050	0.00042773	0.00033066	6.2687e-05	1076.5	1.9583e-06	2.112e-06	1177.1	224.08	8.2802e-06	3.2267e-06	284.42	81.142	63.688	18.575	1.6821e-06	26.185	0.00025747	0.00024098	6.253e-05	1043.6	2.8423e-06	2.6201e-06	1137.9	219.28	2.8304e-06	2.6016e-06	275.93	79.827	62.905	18.752	2.4454e-06	26.127	295.740	286.464	256.251	155.377	222.652	320.572	155.324	163.110	276.333	247.991	162.528	169.264	169.434	176.648	289.822	175.804	-8191	255	
11034.870	1	1	0	0	0.066112	0.19973	0.2392	0.20776	0.1276	0.12355	0.2283	0.15806	0.25842	0.2346	0.145	0.24848	0.046033	0.36048	0.16176	0.14646	-2.4375	-2.5875	-2.2438	-3.0438	-2.4854	-2.6083	-2.9562	-2.1729	-2.8937	-2.7667	-2.3563	-2.9167	-2.3646	-2.6333	-2.8646	-2.3812	352.149	274.296	292.295	462.578	328.496	176.137	479.023	307.961	482.128	256.985	437.329	189.224	348.902	176.389	162.664	303.010	0.00045818	0.00012212	2.863e-05	1080.4	4.9899e-06	1.8883e-06	1180	223.35	2.2702e-06	4.01e-06	282.91	81.1	63.959	18.707	1.6269e-06	26.127	0.00025725	0.00023657	6.2395e-05	1047.1	2.8138e-06	2.6198e-06	1138.9	219.63	2.8339e-06	2.5824e-06	275.45	80.213	62.917	18.803	2.5077e-06	26.31	288.129	476.660	269.626	155.401	295.263	254.188	155.585	163.275	291.134	275.240	162.476	169.440	169.856	177.183	169.140	176.194	-8191	255	
11034.942	1	1	0	0	0.1174	0.17439	0.080721	0.21733	0.15798	0.10269	0.15235	0.16644	0.070139	0.14381	0.20534	0.29684	0.24044	0.089064	0.070825	0.13664	-2.3896	-2.6937	-2.35	-3.1083	-2.3312	-2.6333	-3.2271	-2.3312	-2.8063	-2.9396	-2.4313	-2.9729	-2.5521	-2.4688	-3.0125	-2.5021	427.692	407.520	312.677	483.459	224.738	395.806	456.723	166.587	188.944	332.544	468.994	277.536	357.898	479.328	418.255	319.793	0.0004513	0.0003802	5.2351e-05	1076	5.9305e-06	6.9274e-07	1175.2	224.85	1.9473e-06	3.9869e-06	280.87	81.815	63.794	18.681	5.5157e-06	25.97	0.00026054	0.00023758	6.4456e-05	1046.9	2.8089e-06	2.588e-06	1138.4	220.19	2.7859e-06	2.582e-06	275.94	80.469	62.812	18.761	2.6347e-06	26.226	306.408	245.724	214.871	155.423	232.052	204.884	155.395	163.229	361.751	157.432	162.482	169.593	169.809	177.104	263.529	175.500	-8191	255	
11035.038	1	1	0	0	0.16082	0.15626	0.0039585	0.11839	0.21407	0.13587	0.15296	0.15981	0.22101	0.051039	0.11275	0.24612	0.11879	0.25749	0.078696	0.26942	-2.2812	-2.8625	-2.3083	-3.1188	-2.6854	-2.5146	-3.0854	-2.2313	-2.5604	-2.8937	-2.2042	-2.9625	-2.7562	-2.4333	-2.9396	-2.6375	190.416	403.973	202.986	421.482	251.752	366.458	455.568	209.646	270.686	473.582	395.391	473.874	441.235	216.671	316.416	176.146	0.00044681	0.00030107	0.00018481	1073.6	2.5947e-06	9.0861e-07	1171.3	224.04	6.6556e-06	4.7592e-06	282.93	81.158	63.778	18.581	9.1494e-06	26.083	0.00025453	0.00023243	6.706e-05	1046.5	2.7236e-06	2.558e-06	1137.2	219.95	2.7052e-06	2.4951e-06	275.99	80.104	62.582	18.723	2.757e-06	26.234	291.389	175.686	227.659	155.551	259.974	303.596	155.517	163.357	351.207	202.811	162.490	169.315	169.909	176.915	261.393	175.975	-8191	255	
11035.134	1	1	0	0	0.078879	0.087801	0.14586	0.050892	0.17563	0.13935	0.3198	0.33388	0.2838	0.10513	0.058882	0.22517	0.20061	0.094755	0.05398	0.21594	-2.0667	-2.9229	-2.3333	-2.9333	-2.7021	-2.525	-3.3542	-2.5917	-2.6083	-2.8812	-2.4104	-2.6521	-2.8333	-2.3563	-2.975	-2.5958	186.615	248.767	194.021	150.030	449.470	281.301	409.835	241.137	163.049	178.196	433.263	486.303	444.972	266.962	377.755	204.966	0.00035257	0.00030527	0.00010075	1070.3	5.2395e-06	2.7842e-06	1169.9	223.9	2.0872e-06	1.1694e-06	281.29	81.204	63.21	18.471	1.4823e-06	25.96	0.00024666	0.00023232	7.2212e-05	1043.6	2.6509e-06	2.497e-06	1136.1	219.56	2.6458e-06	2.4917e-06	275.98	79.885	62.482	18.705	2.8834e-06	26.151	298.872	259.668	201.218	155.518	329.862	208.374	155.443	163.141	335.315	315.647	162.999	169.666	169.888	176.908	302.599	176.398	-8191	255	
11035.253	1	1	0	0	0.056094	0.16902	0.26104	0.26942	0.10661	0.30794	0.04424	0.18616	0.1748	0.14385	0.18729	0.19643	0.38599	0.039337	0.092706	0.20067	-2.1312	-3.0583	-2.2292	-2.7021	-2.9104	-2.3167	-3.2042	-2.6562	-2.4188	-3.1792	-2.4271	-2.6604	-2.8375	-2.3312	-2.875	-2.6875	229.483	330.146	202.337	453.046	394.173	446.885	451.381	499.396	289.670	369.342	246.774	403.731	200.383	174.272	154.796	438.839	0.00036829	7.0995e-05	0.00010841	1068.5	1.8191e-06	2.5717e-06	1166	223.23	6.596e-06	8.9448e-07	279.67	80.732	63.375	18.422	3.8547e-06	26.116	0.00024042	0.00023456	7.4505e-05	1042.6	2.6163e-06	2.6417e-06	1136.9	219.42	2.6242e-06	2.655e-06	276.03	79.77	62.414	18.733	2.9387e-06	26.079	285.875	203.235	433.734	155.412	249.589	326.845	155.498	163.055	295.340	504.850	162.745	169.691	170.404	177.143	451.517	175.932	-8191	255	
11035.349	1	1	0	0	0.21416	0.21105	0.070046	0.19586	0.17369	0.14986	0.15517	0.25225	0.14948	0.22605	0.015552	0.079874	0.21484	0.011045	0.22856	0.37314	-2.0042	-3.0979	-2.3979	-2.9542	-2.9417	-2.3167	-2.8937	-2.9458	-2.3563	-2.8083	-2.4688	-2.8375	-3.0333	-2.3875	-2.9688	-3.0292	330.047	501.623	379.433	437.931	377.838	283.058	375.744	395.952	346.601	181.640	177.950	234.360	429.241	150.684	441.761	355.051	0.00041109	0.00058096	4.5046e-05	1069.6	6.7487e-06	8.0971e-07	1168.4	225.05	1.2886e-06	2.569e-06	282.35	80.676	62.883	18.625	3.3345e-06	25.994	0.00023687	0.00024963	7.4285e-05	1042.8	2.5507e-06	2.8066e-06	1137.9	219.55	2.5864e-06	2.806e-06	276.72	79.634	62.276	18.822	2.8665e-06	26.047	290.522	189.704	246.215	155.172	256.962	401.622	155.297	163.131	378.470	186.293	162.645	169.447	170.098	176.820	379.435	176.557	-8191	255	
11035.446	1	1	0	0	0.0483	0.18443	0.18476	0.31416	0.13504	0.11176	0.18609	0.33882	0.090738	0.057242	0.19745	0.059507	0.3625	0.17068	0.16453	0.34695	-1.9813	-3.0438	-2.3937	-2.5812	-2.7396	-2.5792	-2.9333	-2.8708	-2.4292	-3.0271	-2.6646	-2.5396	-2.8542	-2.3875	-2.8333	-2.8208	390.256	237.281	210.042	435.352	452.424	317.473	480.959	466.562	453.695	386.264	475.405	475.022	409.140	453.919	279.638	163.887	0.000444	0.00035579	7.6667e-05	1067.4	2.8244e-06	4.652e-06	1171.1	223.58	3.7447e-06	5.2695e-06	280.62	80.813	63.602	18.503	5.2115e-06	26.053	0.00023656	0.00026038	7.3172e-05	1041.9	2.5397e-06	2.9264e-06	1137.7	219.07	2.6057e-06	2.9382e-06	276.01	79.693	62.598	18.877	2.7861e-06	25.971	287.388	498.560	269.742	155.374	309.985	312.780	155.656	163.004	331.822	221.030	162.675	169.480	169.870	177.308	294.806	176.195	-8191	255	
11035.542	1	1	0	0	0.11512	0.11324	0.20244	0.10548	0.037362	0.26212	0.13046	0.24774	0.068722	0.18121	0.30317	0.14161	0.28234	0.1863	0.15902	0.17903	-2.0854	-3.0104	-2.5312	-2.675	-2.9562	-2.3937	-2.6792	-2.7896	-2.25	-2.9917	-2.7479	-2.3771	-3.0042	-2.4396	-2.4437	-2.8167	164.849	318.220	388.806	504.466	421.597	176.607	463.575	467.273	364.870	475.974	145.283	201.161	358.779	277.259	300.431	209.717	0.00041189	0.00014239	9.3458e-05	1071.8	3.5307e-06	3.6254e-06	1181.4	225	2.3992e-06	1.7214e-06	285.06	81.647	64.143	18.712	1.7256e-06	25.912	0.00024785	0.0002712	6.9752e-05	1041.4	2.7025e-06	2.9391e-06	1138.4	219.23	2.7628e-06	2.9433e-06	276.52	79.572	62.718	18.803	2.6983e-06	25.922	298.676	272.754	380.821	155.591	304.576	391.773	155.304	163.215	313.642	222.855	162.500	169.110	169.452	176.632	303.447	176.026	-8191	255	
11035.638	1	1	0	0	0.13958	0.07476	0.15726	0.18397	0.064541	0.05442	0.18359	0.051912	0.14546	0.062494	0.16205	0.1523	0.20247	0.20729	0.20183	0.20662	-1.7208	-2.9125	-2.6146	-2.5875	-2.9979	-2.4729	-2.6833	-2.9229	-2.2771	-2.7521	-2.7958	-2.2396	-2.9229	-2.6437	-2.3896	-3.1188	212.723	469.480	357.741	422.620	364.174	418.202	477.999	242.569	332.591	209.251	443.476	202.422	429.716	404.718	341.133	158.501	0.00036386	0.00039818	1.9518e-05	1078.1	3.9905e-06	1.562e-06	1180.6	224.91	4.6663e-06	3.8298e-06	284.32	81.506	64.044	18.665	3.7144e-06	26.145	0.00026145	0.00026078	6.7201e-05	1042.8	2.8246e-06	2.8765e-06	1136.9	218.97	2.8654e-06	2.7997e-06	275.44	79.547	62.928	18.759	2.6224e-06	25.974	303.672	274.347	484.215	155.046	242.435	285.156	154.991	162.649	336.987	303.883	162.485	169.215	169.777	176.941	370.631	176.140	-8191	255	
11035.734	1	1	0	0	0.031969	0.19513	0.26869	0.21845	0.25029	0.09778	0.17992	0.10393	0.14714	0.30828	0.087582	0.17322	0.14468	0.12408	0.071287	0.30475	-1.8813	-2.7292	-2.7979	-2.3812	-2.9521	-2.5208	-2.6625	-3.1	-2.3312	-2.6042	-2.8583	-2.3563	-2.8812	-2.5354	-2.3521	-2.9354	350.715	456.330	319.383	175.264	409.188	259.076	434.183	491.408	266.135	284.518	230.200	430.926	421.807	459.546	425.587	439.078	0.00034882	0.00030874	0.00013246	1076.9	4.3954e-06	1.9308e-06	1181.1	225.82	6.8982e-06	8.1934e-06	283.4	81.671	63.599	18.656	2.9163e-06	25.919	0.00026734	0.00025233	6.5132e-05	1041	2.928e-06	2.7019e-06	1134.9	218.78	2.9269e-06	2.7234e-06	274.71	79.431	62.754	18.707	2.5186e-06	25.92	289.425	298.659	211.168	155.262	212.847	221.572	155.104	162.749	294.585	284.406	162.049	168.976	169.815	176.786	262.531	175.847	-8191	255	
11035.855	1	1	0	0	0.15093	0.095694	0.14394	0.25883	0.17071	0.14855	0.071673	0.24585	0.07652	0.1989	0.085223	0.22834	0.15443	0.038951	0.11104	0.21918	-2.1083	-2.6375	-2.6854	-2.6333	-2.9042	-2.7792	-2.4854	-3.0438	-2.3875	-2.5687	-2.9708	-2.3708	-3	-2.7917	-2.5729	-3.0479	267.681	268.890	294.793	468.593	157.693	232.623	370.385	405.664	424.304	312.706	225.883	458.971	151.135	341.600	167.356	455.693	0.00032624	0.00048065	9.4547e-06	1074.3	6.6335e-06	6.5184e-06	1178.7	226.55	2.18e-06	6.0939e-07	282.51	81.449	63.817	18.64	1.0344e-06	26.281	0.00026933	0.00024554	6.2768e-05	1040.4	2.8726e-06	2.6839e-06	1134.7	219.26	2.8807e-06	2.6368e-06	274.76	79.677	62.653	18.672	2.4476e-06	26.182	297.351	495.196	438.404	155.197	327.187	294.186	155.068	162.630	369.823	443.014	162.536	168.795	169.218	176.737	342.751	175.774	-8191	255	
11035.951	1	1	0	0	0.17539	0.097453	0.19888	0.30944	0.19945	0.20232	0.19598	0.12809	0.19606	0.17365	0.24124	0.06343	0.28822	0.18517	0.25396	0.10489	-2.1292	-2.7646	-3.0021	-2.4792	-2.9583	-2.8063	-2.4521	-2.9146	-2.4896	-2.7854	-2.8979	-2.4125	-2.7625	-2.8146	-2.3187	-3.0458	290.096	265.093	258.223	404.658	403.215	271.306	445.004	179.174	197.157	238.265	152.802	204.270	435.433	197.303	318.670	203.991	0.00028025	0.00057129	0.00014952	1073.5	3.5638e-06	3.3312e-06	1178.2	225.63	5.7763e-06	3.3536e-06	283	81.703	63.533	18.612	2.8476e-06	26.373	0.00025663	0.00023674	6.239e-05	1042.3	2.8202e-06	2.5969e-06	1133.7	219.26	2.8082e-06	2.5718e-06	274.49	80.009	62.51	18.684	2.5063e-06	26.125	291.442	484.632	240.911	155.116	259.687	409.545	154.952	162.904	325.196	387.130	162.188	169.145	169.660	176.736	330.669	175.679	-8191	255	
11036.047	1	1	0	0	0.21	0.046404	0.1289	0.24035	0.088884	0.033383	0.30783	0.14286	0.21986	0.22007	0.10532	0.0999	0.15006	0.11036	0.11615	0.017102	-2.3292	-2.6792	-2.9479	-2.4	-2.6521	-2.9188	-2.3042	-2.9854	-2.3458	-2.4125	-3.1063	-2.475	-2.6604	-2.8896	-2.1792	-2.9688	390.569	352.117	286.233	438.646	261.281	397.189	452.889	411.950	324.967	344.554	409.564	179.081	408.387	197.969	152.811	369.200	0.00034195	0.00033194	0.00013789	1077.7	2.4077e-06	9.2242e-07	1178.1	225.2	5.3393e-06	2.4619e-06	283.96	81.227	63.821	18.649	3.4234e-07	25.986	0.0002498	0.0002295	6.4384e-05	1041.7	2.674e-06	2.4352e-06	1133.3	219.48	2.6218e-06	2.4938e-06	275.25	79.716	62.329	18.615	2.6714e-06	25.958	301.233	195.970	220.521	155.261	297.402	178.252	154.996	162.862	281.485	280.611	162.113	168.804	169.362	176.763	157.189	175.517	-8191	255	
11036.143	1	1	0	0	0.14049	0.17394	0.11669	0.26241	0.24644	0.15625	0.16618	0.42515	0.21757	0.10788	0.22005	0.098125	0.16313	0.072109	0.15545	0.089292	-2.3167	-2.4042	-2.9854	-2.675	-2.5646	-2.8812	-2.3229	-2.8833	-2.7562	-2.4938	-3.1208	-2.5438	-2.6021	-2.9708	-2.275	-2.7771	336.274	311.959	410.126	488.842	195.591	444.670	452.434	500.328	148.057	490.673	316.968	404.383	496.906	151.717	335.168	199.013	0.00044243	0.00024118	9.1256e-05	1074.5	2.8338e-06	2.0362e-06	1178	224.97	2.3781e-06	3.5389e-06	283.26	81.113	64.03	18.636	5.413e-06	26.004	0.00024151	0.00022363	6.7731e-05	1039.3	2.5835e-06	2.4206e-06	1134.4	219.19	2.5859e-06	2.4685e-06	275.03	79.537	62.407	18.562	2.7944e-06	26.018	295.391	311.786	258.018	155.017	321.116	235.003	155.244	162.735	303.303	150.863	162.231	169.171	169.852	176.636	267.959	175.764	-8191	255	
11036.238	1	1	0	0	0.12759	0.15604	0.18237	0.22769	0.089539	0.25471	0.49876	0.17554	0.047772	0.17525	0.20327	0.23465	0.008116	0.084771	0.25535	0.23658	-2.3563	-2.2417	-2.8833	-2.6771	-2.4542	-3	-2.4604	-2.8063	-2.7771	-2.6	-3.1229	-2.4833	-2.4875	-3.0708	-2.4167	-2.6688	217.496	170.431	378.791	470.561	504.343	437.977	450.194	237.868	359.298	337.290	470.086	465.951	461.708	287.038	367.585	420.749	0.00035003	0.00015697	5.6949e-05	1070	4.3704e-06	9.4057e-07	1175.6	225.59	4.3199e-06	4.8022e-06	281.86	81.26	63.768	18.539	4.4448e-06	26.111	0.0002353	0.00022582	7.0194e-05	1036.2	2.5366e-06	2.4354e-06	1132.8	218.96	2.5211e-06	2.498e-06	275.36	79.392	62.14	18.587	2.8351e-06	25.909	282.100	149.852	381.527	155.250	290.245	217.362	155.219	162.566	334.211	272.005	162.568	169.491	169.858	176.388	322.353	176.316	-8191	255	
11036.334	1	1	0	0	0.15574	0.14761	0.010813	0.38334	0.13788	0.1228	0.13893	0.15381	0.24172	0.13372	0.017496	0.040679	0.27952	0.17329	0.26057	0.053232	-2.5187	-2.3042	-2.8271	-2.85	-2.325	-3.0312	-2.675	-2.9167	-2.9437	-2.2938	-3.0417	-2.6771	-2.4292	-2.9333	-2.3854	-2.7417	465.668	227.181	149.430	436.660	440.107	151.981	416.164	462.841	455.501	434.824	162.012	285.646	422.492	325.983	305.327	246.688	0.00035051	0.00050332	0.00010026	1072.2	2.7725e-06	2.3066e-06	1173.9	226.25	2.119e-06	1.3483e-06	284.1	81.314	63.86	18.63	4.0516e-06	25.911	0.00022279	0.00023638	7.0596e-05	1036.8	2.4604e-06	2.5775e-06	1131.4	218.58	2.368e-06	2.6375e-06	275.42	79.382	62.256	18.657	2.751e-06	25.811	302.702	186.138	320.989	155.481	219.291	346.781	154.959	162.684	364.127	251.088	162.315	169.018	169.375	176.968	318.859	175.824	-8191	255	
11036.430	1	1	0	0	0.23894	0.20434	0.029601	0.1719	0.096635	0.1432	0.27519	0.45582	0.28142	0.039454	0.26407	0.226	0.17011	0.2245	0.079994	0.2843	-2.5979	-2.4479	-2.8646	-2.9708	-2.3833	-2.875	-2.7708	-2.725	-3.1625	-2.425	-2.8979	-2.9479	-2.1667	-3.0708	-2.5042	-2.575	491.210	186.634	427.356	478.162	250.430	324.013	491.557	371.130	487.939	297.026	478.279	469.886	494.769	493.953	382.401	480.165	0.00044798	0.00029786	3.1137e-05	1071.4	2.1078e-06	5.1809e-06	1174.3	224.39	6.6685e-06	2.8518e-06	283.06	81.457	63.487	18.546	1.0503e-06	25.952	0.00022202	0.00024829	6.8091e-05	1034.5	2.4245e-06	2.7011e-06	1129.5	218.1	2.3997e-06	2.7724e-06	274.12	79.225	62.023	18.695	2.6629e-06	25.796	301.005	217.644	261.383	155.381	249.093	302.098	155.285	162.737	328.342	475.522	162.200	169.647	169.762	176.514	159.870	175.966	-8191	255	
11036.526	1	1	0	0	0.062743	0.10086	0.043743	0.18052	0.062087	0.15994	0.28912	0.13798	0.10504	0.17216	0.19668	0.016025	0.44339	0.24264	0.23145	0.088188	-2.6979	-2.4104	-2.9167	-2.9167	-2.3125	-3.0187	-2.7896	-2.6625	-3.0146	-2.5896	-2.8104	-2.8417	-2.4	-2.9292	-2.5938	-2.4688	488.838	177.754	401.862	317.499	162.147	196.463	442.446	375.571	279.734	265.642	294.904	204.177	472.528	397.178	387.514	483.370	0.0005195	0.00022127	0.00021647	1071	6.1746e-06	5.0717e-06	1171.3	224.54	5.892e-06	2.9727e-06	284.15	81.844	63.608	18.585	2.6488e-06	25.996	0.0002307	0.00025513	6.7075e-05	1036	2.5172e-06	2.783e-06	1128.1	217.68	2.5258e-06	2.7667e-06	274.44	79.412	62.156	18.656	2.5157e-06	25.779	283.936	465.105	217.547	155.415	265.818	346.064	155.210	163.176	299.343	383.582	162.457	169.364	170.034	176.936	305.603	175.926	-8191	255	
11036.647	1	1	0	0	0.16531	0.084617	0.13101	0.25297	0.20514	0.19838	0.31874	0.13805	0.12911	0.17638	0.074059	0.23619	0.1888	0.25696	0.15108	0.27037	-2.6312	-2.525	-2.6542	-3.1	-2.4083	-2.7875	-2.9938	-2.5062	-3.0854	-2.5771	-2.5771	-3.1437	-2.3375	-2.9437	-2.7854	-2.4479	479.825	257.393	502.429	430.977	292.457	459.367	440.379	153.531	259.167	472.188	171.708	489.555	477.575	480.874	183.748	238.818	0.00039229	0.00033098	7.7735e-05	1073.2	1.5767e-06	5.5561e-06	1169.6	225.05	2.0616e-06	3.613e-06	281.68	81.302	63.614	18.477	2.2163e-06	26.083	0.00023879	0.00025288	6.4365e-05	1034.4	2.658e-06	2.7758e-06	1128.9	218.06	2.6805e-06	2.728e-06	273.15	79.069	62.377	18.657	2.493e-06	25.811	289.449	276.551	456.119	155.522	289.589	295.873	155.138	162.916	260.190	204.714	162.642	169.035	169.734	176.914	364.201	176.370	-8191	255	
11036.743	1	1	0	0	0.1485	0.24327	0.209	0.38607	0.2358	0.33189	0.06421	0.26622	0.30385	0.15596	0.13928	0.096383	0.15172	0.11667	0.25992	0.10694	-2.4813	-2.6125	-2.6104	-3.0438	-2.325	-2.8937	-2.9667	-2.5771	-3.1229	-2.5792	-2.6146	-3.2188	-2.35	-2.8042	-2.8542	-2.5229	438.376	151.902	213.416	454.067	154.965	319.546	336.892	437.712	479.056	160.174	298.977	270.096	450.096	342.453	259.278	379.966	0.00038301	0.00027356	1.0168e-05	1071.5	4.866e-06	2.3109e-06	1172.8	224.62	8.1155e-06	2.4004e-06	282.83	81.235	63.026	18.636	1.3969e-06	25.968	0.00025528	0.00024255	6.3538e-05	1034.4	2.8062e-06	2.638e-06	1126.2	218.19	2.8036e-06	2.6883e-06	274.23	79.062	62.185	18.607	2.4148e-06	25.848	297.972	215.272	486.646	155.172	242.218	333.631	155.408	162.628	285.675	287.339	162.785	168.925	169.835	177.165	418.947	175.452	-8191	255	
11036.814	1	1	0	0	0.16512	0.16875	0.19468	0.19629	0.11919	0.19251	0.18803	0.085367	0.089526	0.17053	0.12079	0.032837	0.080833	0.16838	0.22839	0.088835	-2.6854	-2.5167	-2.4646	-3.025	-2.4521	-2.8354	-2.9271	-2.4333	-2.8854	-2.575	-2.6104	-2.9896	-2.3438	-2.7104	-2.8958	-2.2729	215.894	194.328	462.579	188.064	399.548	468.967	474.538	412.940	234.379	216.954	244.373	205.494	419.672	242.621	398.105	181.778	0.00034481	0.00041673	7.3837e-05	1071.6	2.036e-06	2.6882e-06	1176.1	224.05	5.1165e-06	3.1468e-06	283.69	81.335	63.53	18.605	4.4506e-06	25.935	0.0002592	0.0002378	6.0698e-05	1034.6	2.8225e-06	2.5873e-06	1127.7	218	2.7932e-06	2.5153e-06	273.17	79.493	62.259	18.587	2.3824e-06	25.894	287.055	191.719	187.192	155.013	146.782	272.920	155.168	162.518	307.889	225.297	162.092	169.342	169.330	176.668	194.259	176.325	-8191	255	
11036.935	1	1	0	0	0.17441	0.12362	0.30806	0.25633	0.1639	0.23712	0.082049	0.19121	0.27176	0.11256	0.17667	0.15089	0.19412	0.22767	0.26443	0.10936	-2.5708	-2.7333	-2.4604	-3.2333	-2.6604	-2.6604	-3.3292	-2.4792	-2.8833	-2.8333	-2.3917	-3.0625	-2.5917	-2.5812	-3.0729	-2.3917	292.355	222.592	462.505	500.792	147.437	229.309	188.459	172.316	196.841	404.266	309.345	486.539	412.339	480.712	457.313	367.603	0.0003915	0.00061774	8.2066e-05	1073.9	5.0666e-06	3.392e-06	1175.1	224.09	3.1099e-06	2.4112e-06	282.29	81.112	63.589	18.511	2.0285e-06	26.196	0.00025393	0.00023324	6.0817e-05	1036.1	2.7186e-06	2.4916e-06	1126.3	217.82	2.6806e-06	2.4411e-06	273.32	79.469	62.15	18.529	2.3966e-06	25.944	305.888	235.434	191.545	155.349	276.505	269.301	155.174	163.085	251.315	272.132	162.181	169.255	169.597	176.408	284.961	175.866	-8191	255	
11037.031	1	1	0	0	0.14407	0.19156	0.031674	0.19444	0.10407	0.11072	0.33255	0.22635	0.27511	0.44113	0.097533	0.26913	0.15706	0.24075	0.05651	0.29439	-2.3979	-2.7875	-2.3208	-3.175	-2.5583	-2.5229	-3.1396	-2.5708	-2.7438	-2.8979	-2.3958	-3.0292	-2.5833	-2.4021	-3.0396	-2.3792	155.937	489.765	315.597	158.403	487.156	286.962	412.266	287.818	370.008	225.050	263.382	493.403	212.217	429.712	228.021	363.517	0.00044445	0.00049179	0.00013484	1074	4.4661e-06	1.3628e-07	1173.1	223.94	5.2711e-06	1.4e-06	283.22	81.088	63.532	18.519	2.297e-06	25.955	0.00024416	0.00022648	6.2614e-05	1037.1	2.6182e-06	2.4486e-06	1127	218.5	2.6008e-06	2.4196e-06	273.98	79.529	62.077	18.524	2.5355e-06	25.956	290.111	263.368	213.350	154.904	253.101	282.173	155.074	163.072	333.302	300.368	162.126	169.400	169.920	176.626	305.846	176.149	-8191	255	
11037.127	1	1	0	0	0.1279	0.21693	0.16407	0.16174	0.011527	0.2705	0.21272	0.065118	0.19969	0.21754	0.13665	0.06751	0.29924	0.17222	0.14314	0.18883	-2.3063	-3.0396	-2.2271	-3.0125	-2.6854	-2.3208	-3.3563	-2.5812	-2.5792	-3.0042	-2.5563	-2.8833	-2.7958	-2.3625	-3.0292	-2.5292	453.885	192.201	266.673	412.782	191.375	317.152	405.052	369.148	304.683	503.242	490.723	186.694	174.132	486.731	316.431	191.275	0.00039668	0.00034302	0.00013964	1068.5	1.8452e-06	5.7776e-06	1170.7	225.12	6.614e-06	2.2724e-06	282.77	81.176	63.586	18.512	1.1005e-06	25.947	0.00024221	0.00021663	6.55e-05	1035.1	2.5358e-06	2.3655e-06	1126.8	218.44	2.573e-06	2.3761e-06	274.13	79.498	62.127	18.506	2.679e-06	25.921	294.180	307.709	159.134	155.362	365.536	228.488	155.340	163.011	315.920	282.889	161.883	169.233	169.420	176.531	369.650	175.890	-8191	255	
11037.224	1	1	0	0	0.064877	0.28471	0.19263	0.099917	0.037743	0.24852	0.17039	0.16618	0.21409	0.22955	0.13361	0.093594	0.30779	0.054971	0.086419	0.22366	-2.2667	-3.0104	-2.5229	-3.1521	-2.9146	-2.2979	-3.2146	-2.6917	-2.5083	-2.9896	-2.4188	-2.9458	-2.7604	-2.2583	-3.0229	-2.6292	267.574	395.381	165.296	472.724	437.477	414.527	413.530	158.017	475.590	481.052	251.106	423.591	166.481	435.105	257.493	314.361	0.00039	0.00011401	8.1783e-05	1066	6.6282e-06	3.6244e-06	1167.8	225.42	2.2591e-06	3.3839e-06	281.38	81.232	63.665	18.675	2.4204e-06	25.976	0.00023131	0.00021823	6.9754e-05	1033.7	2.4793e-06	2.389e-06	1128.1	218.45	2.4563e-06	2.3834e-06	273.76	79.533	61.878	18.526	2.7411e-06	25.853	289.455	192.549	153.964	155.193	259.639	326.634	155.449	162.899	291.598	259.218	162.122	169.147	169.799	177.242	451.027	175.884	-8191	255	
11037.342	1	1	0	0	0.10077	0.13328	0.090962	0.18494	0.12027	0.11661	0.21144	0.13762	0.1324	0.19841	0.24345	0.13189	0.30282	0.062092	0.28023	0.20204	-2.0854	-2.9313	-2.4062	-2.825	-2.8667	-2.4521	-3.0708	-2.5646	-2.4792	-3.1521	-2.5021	-2.4792	-2.9104	-2.4938	-2.8688	-2.7125	352.702	278.391	300.917	445.665	451.307	213.221	415.774	442.748	426.752	147.754	477.134	439.180	448.627	447.324	386.814	416.604	0.00036362	0.00042252	0.0001629	1070.6	1.3661e-06	5.4406e-07	1165	224.34	3.6707e-06	3.8202e-06	283.22	81.449	62.687	18.54	2.4172e-06	25.893	0.00022326	0.00022427	6.9376e-05	1032.5	2.3812e-06	2.4826e-06	1125.4	217.74	2.402e-06	2.5207e-06	274.64	79.137	61.438	18.549	2.7557e-06	25.793	301.083	219.734	206.123	155.081	256.447	377.009	154.963	163.125	366.622	191.202	162.570	168.645	169.984	176.711	248.840	176.140	-8191	255	
11037.439	1	1	0	0	0.094844	0.11498	0.13227	0.25904	0.23494	0.31227	0.089894	0.083505	0.31181	0.18439	0.15516	0.072544	0.12227	0.25436	0.33544	0.12971	-2.1312	-2.8104	-2.5604	-2.7958	-2.8542	-2.3375	-2.8958	-2.8271	-2.3271	-3.125	-2.5625	-2.5	-3.0208	-2.3542	-2.7938	-2.7646	334.317	440.585	211.746	434.109	299.691	274.530	294.552	386.811	256.889	148.766	212.535	163.068	431.021	439.502	294.968	406.986	0.00033724	0.00033319	2.3016e-05	1064.9	1.5796e-06	1.9083e-06	1163.7	223.42	3.0127e-06	2.4719e-06	280.92	81.093	63.551	18.546	9.551e-07	25.851	0.00022123	0.00024008	6.8465e-05	1030.3	2.3657e-06	2.6831e-06	1124.3	217.27	2.4129e-06	2.7122e-06	273.11	78.946	61.771	18.606	2.678e-06	25.65	282.402	185.303	240.827	155.376	226.116	277.414	155.294	163.008	289.932	221.100	162.009	168.955	169.529	176.683	315.706	175.508	-8191	255	
11037.535	1	1	0	0	0.21892	0.093836	0.18264	0.11015	0.10629	0.135	0.23665	0.071591	0.112	0.074929	0.19315	0.21373	0.20659	0.15328	0.29035	0.11113	-1.9417	-2.9354	-2.6312	-2.5438	-3.0604	-2.2521	-2.8375	-2.8083	-2.4396	-3.1063	-2.5333	-2.4646	-2.8958	-2.3708	-2.7917	-2.8417	297.993	407.297	234.681	433.228	298.546	191.340	500.074	363.901	449.447	278.830	494.304	415.971	478.816	237.518	218.725	392.064	0.00036929	6.0868e-05	0.00012606	1068.2	4.0875e-06	1.8373e-06	1166.3	223.35	3.4874e-06	2.8476e-06	281.37	80.756	62.767	18.336	3.2903e-06	25.778	0.00022811	0.00025301	6.7219e-05	1029.7	2.4374e-06	2.7734e-06	1122.9	217.23	2.4797e-06	2.7585e-06	272.6	78.507	61.582	18.518	2.566e-06	25.541	290.846	384.317	169.298	154.971	274.307	419.113	154.919	162.664	315.885	211.901	161.980	168.742	169.339	176.574	228.557	175.795	-8191	255	
11037.631	1	1	0	0	0.26914	0.23246	0.16878	0.16409	0.10766	0.30365	0.23029	0.42955	0.34729	0.10183	0.14061	0.27719	0.10717	0.1878	0.19085	0.15143	-2.1063	-2.8438	-2.6958	-2.4271	-2.925	-2.3354	-2.8625	-2.9646	-2.2938	-2.7146	-2.7167	-2.6021	-2.8708	-2.3125	-2.4729	-3.0438	452.353	198.573	285.543	391.913	476.185	195.882	386.882	465.888	411.409	325.214	451.946	437.533	165.974	461.140	287.165	334.256	0.000361	0.00043487	7.1312e-05	1065.4	3.8874e-06	2.6276e-06	1163.4	223.69	5.6054e-06	2.5975e-06	281.64	81.055	62.939	18.398	5.4583e-06	25.746	0.00023948	0.00025767	6.5659e-05	1027.2	2.6363e-06	2.7659e-06	1122.1	217.37	2.6746e-06	2.7775e-06	273.12	78.872	61.76	18.441	2.5484e-06	25.557	290.190	322.681	255.146	155.162	226.171	275.478	155.078	162.693	300.197	480.213	162.624	169.307	169.602	177.192	351.339	175.793	-8191	255	
11037.727	1	1	0	0	0.10198	0.21825	0.10967	0.099372	0.041614	0.1204	0.20658	0.19981	0.18546	0.14509	0.088847	0.30682	0.17752	0.089456	0.16953	0.054529	-2.0667	-2.9708	-2.9062	-2.4417	-2.9104	-2.3396	-2.8688	-2.8312	-2.2938	-2.9042	-3.0938	-2.3396	-3.0125	-2.5208	-2.5271	-2.9604	323.551	311.745	320.650	179.369	327.405	185.204	199.292	467.981	193.878	152.061	320.763	293.205	150.543	220.131	375.747	503.844	0.00045698	0.00028114	4.2377e-05	1061.1	3.2926e-06	3.1883e-06	1165.5	223.12	3.5371e-06	1.9893e-06	280.46	80.421	62.589	18.28	2.4738e-06	25.722	0.00025104	0.0002472	6.3563e-05	1026.4	2.7413e-06	2.6555e-06	1121.6	216.53	2.7881e-06	2.6929e-06	272.76	78.679	61.792	18.451	2.5165e-06	25.595	285.198	466.405	500.728	155.085	341.678	318.665	155.078	162.687	340.548	462.007	162.518	169.548	169.746	176.557	265.492	175.825	-8191	255	
11037.823	1	1	0	0	0.27744	0.22807	0.13911	0.29948	0.33697	0.43647	0.10561	0.19243	0.17771	0.089663	0.10573	0.11656	0.026459	0.090514	0.15518	0.061152	-1.9312	-2.875	-2.9021	-2.625	-3.0042	-2.5708	-2.5854	-2.9625	-2.4729	-2.7271	-3.0417	-2.4792	-3.0042	-2.7042	-2.4458	-2.9458	361.194	346.012	203.827	481.004	284.467	197.906	411.920	438.870	464.407	183.628	283.237	269.239	178.887	344.023	164.021	481.856	0.00042692	7.0308e-05	0.00015526	1065.5	7.0645e-06	4.178e-06	1164.9	223.28	2.4212e-06	1.6817e-06	282.5	80.995	62.922	18.442	5.0337e-06	25.773	0.00026687	0.0002439	6.2167e-05	1030.5	2.8589e-06	2.6167e-06	1123.1	217.13	2.8525e-06	2.6348e-06	273.04	78.901	62.025	18.55	2.4954e-06	25.719	297.419	363.523	220.678	154.981	265.807	390.208	155.206	162.916	354.198	229.944	162.620	169.082	169.887	176.612	330.731	176.192	-8191	255	
11037.944	1	1	0	0	0.34821	0.20705	0.13932	0.21856	0.16659	0.14034	0.32473	0.073157	0.15951	0.063482	0.23103	0.067616	0.18508	0.29587	0.24306	0.12824	-2.0563	-2.5875	-2.9104	-2.4292	-2.875	-2.7625	-2.6833	-3.1583	-2.7375	-2.775	-3.0146	-2.4437	-2.8854	-2.7646	-2.4167	-3.1312	177.210	389.638	277.464	300.925	402.222	398.407	434.660	428.676	303.111	456.424	173.890	157.860	217.556	405.544	460.206	276.060	0.00023906	0.00022557	2.4768e-05	1069.8	1.3489e-06	2.6294e-06	1167	223.23	5.9429e-06	1.4316e-06	280.86	80.388	63.234	18.293	3.2869e-06	25.693	0.00026313	0.00023818	6.29e-05	1032.6	2.829e-06	2.6021e-06	1123.3	217.45	2.8665e-06	2.6442e-06	272.43	79.048	61.995	18.441	2.4582e-06	25.755	281.780	258.578	234.554	155.107	388.487	350.445	154.832	162.609	389.750	307.163	162.417	169.516	169.302	176.802	261.818	175.477	-8191	255	
11038.038	1	1	0	0	0.16402	0.10958	0.2147	0.234	0.30558	0.099457	0.48677	0.075263	0.11495	0.082657	0.19026	0.16229	0.04515	0.034488	0.1375	0.21697	-2.2354	-2.5375	-2.9979	-2.5854	-2.775	-2.6833	-2.4667	-2.9708	-2.6437	-2.3979	-3.1333	-2.4375	-2.6792	-2.7646	-2.2771	-2.8708	498.989	199.711	439.405	366.659	300.012	444.942	446.926	234.169	188.174	218.825	417.071	154.997	490.472	251.012	147.686	213.015	0.00034505	0.00024097	6.2326e-05	1066.7	4.9611e-06	3.3038e-06	1161.3	223.85	7.4969e-07	3.772e-06	281.54	80.805	62.988	18.341	2.8158e-06	25.64	0.0002561	0.00023647	6.2572e-05	1034	2.7537e-06	2.5193e-06	1122.2	218.18	2.7149e-06	2.5395e-06	273.01	79.398	61.88	18.376	2.5928e-06	25.827	297.980	226.018	197.651	154.683	281.234	312.143	154.544	162.722	218.866	279.734	161.953	168.776	169.455	177.312	263.961	176.148	-8191	255	
11038.112	1	1	0	0	0.35226	0.19441	0.36414	0.28134	0.13884	0.22462	0.27619	0.14257	0.018654	0.18934	0.15027	0.24544	0.30381	0.13262	0.15614	0.16959	-2.0333	-2.4313	-2.8958	-2.5396	-2.7417	-2.8812	-2.5187	-2.8688	-2.8375	-2.3688	-3.2771	-2.45	-2.5375	-2.8979	-2.1646	-2.8167	179.271	233.714	436.788	428.426	214.630	226.087	458.637	481.661	359.970	148.747	393.632	354.185	435.597	396.710	411.507	244.176	0.00041434	0.00036718	9.2273e-05	1062.4	7.0898e-07	6.4437e-06	1167.4	223.64	4.4477e-06	2.0954e-06	282.46	80.95	62.992	18.574	3.4113e-06	25.858	0.00024628	0.00022868	6.5513e-05	1032.5	2.6502e-06	2.4184e-06	1124	217.87	2.5898e-06	2.4098e-06	273.81	79.232	61.853	18.408	2.6839e-06	25.795	293.442	267.446	223.345	154.906	441.151	389.536	154.816	162.790	216.067	227.040	162.000	168.676	169.407	176.299	307.452	175.668	-8191	255	
11038.208	1	1	0	0	0.25452	0.22253	0.13345	0.30577	0.021416	0.17535	0.27056	0.21152	0.35575	0.13042	0.40597	0.32282	0.10229	0.20653	0.082619	0.29044	-2.3396	-2.2146	-2.8729	-2.6646	-2.7333	-2.8979	-2.45	-2.8688	-2.8896	-2.3854	-3.2438	-2.6167	-2.6125	-3.1063	-2.2687	-2.9	399.205	312.300	409.217	495.214	152.340	338.528	395.530	181.950	371.103	486.859	461.080	283.501	410.488	359.824	355.443	402.670	0.0003875	0.00035563	0.00011396	1068.5	1.8835e-06	7.7932e-06	1163.6	223.34	1.0065e-05	1.1712e-06	281.84	80.676	63.074	18.48	6.49e-06	25.641	0.00023532	0.00022337	6.8536e-05	1033.8	2.5521e-06	2.4349e-06	1124	217.91	2.5443e-06	2.4646e-06	273.71	79.259	61.823	18.489	2.8299e-06	25.687	280.233	231.890	246.687	154.712	330.043	272.844	154.652	162.476	298.306	214.435	161.963	168.701	169.509	176.520	372.740	174.755	-8191	255	
11038.327	1	1	0	0	0.4535	0.2457	0.13138	0.072007	0.16949	0.1106	0.26417	0.093689	0.15608	0.18786	0.19397	0.18623	0.18883	0.2673	0.18005	0.32782	-2.3479	-2.1854	-2.8417	-2.7667	-2.2896	-2.9583	-2.6208	-2.7479	-2.7938	-2.4	-2.8854	-2.6917	-2.4688	-3.0208	-2.5625	-2.6958	286.556	413.840	287.796	240.004	413.273	318.927	453.823	277.786	147.166	453.771	430.321	146.528	164.352	186.247	258.554	320.007	0.00038244	0.00048045	0.00016457	1068	2.6645e-06	5.2168e-06	1174	224.03	5.6844e-06	3.9319e-06	282.24	80.307	63.283	18.46	7.9559e-06	25.722	0.00023061	0.00022554	7.2318e-05	1032.6	2.4968e-06	2.5285e-06	1128.1	217.93	2.4679e-06	2.6275e-06	274.15	78.865	61.868	18.488	2.8236e-06	25.702	294.252	265.289	230.778	154.778	229.729	270.241	154.788	162.370	342.505	190.175	162.071	168.347	169.184	176.470	310.000	175.381	-8191	255	
11038.423	1	1	0	0	0.093031	0.1612	0.052733	0.034455	0.16807	0.11009	0.21297	0.18897	0.12812	0.17904	0.073516	0.057829	0.12596	0.21953	0.19937	0.018592	-2.4896	-2.3229	-2.95	-2.7292	-2.1917	-3.0375	-2.725	-2.65	-3.0458	-2.1625	-2.9042	-2.7062	-2.4354	-3.0354	-2.3521	-2.5729	213.349	257.770	408.764	477.185	269.231	467.932	463.581	432.724	304.911	146.974	435.994	320.440	179.300	393.066	285.681	363.892	0.00038622	0.00082584	0.00013688	1068	4.2561e-06	2.7302e-06	1173.3	224.7	7.398e-06	3.5518e-06	279.34	81.228	63.341	18.521	3.1441e-06	25.726	0.00022607	0.00023943	7.1508e-05	1031.6	2.4447e-06	2.7182e-06	1127.5	217.66	2.4066e-06	2.7534e-06	273.53	78.968	61.773	18.613	2.741e-06	25.639	289.360	189.134	201.745	155.018	213.377	283.520	154.609	162.271	341.506	171.288	161.927	169.160	169.329	176.200	271.980	175.162	-8191	255	
11038.519	1	1	0	0	0.20503	0.16406	0.048668	0.14234	0.15416	0.065168	0.31317	0.044583	0.16212	0.15256	0.26211	0.058787	0.16165	0.055612	0.056151	0.2716	-2.5479	-2.3187	-2.8292	-3.0042	-2.3	-2.9917	-2.8083	-2.4917	-2.9708	-2.2833	-2.9125	-2.7354	-2.2771	-2.9083	-2.5479	-2.4542	226.987	192.982	457.364	498.385	287.819	254.809	441.622	281.938	392.640	333.675	435.810	243.445	458.886	320.999	387.145	144.700	0.0004209	3.2449e-05	2.7233e-05	1071.4	4.2976e-06	4.1928e-06	1164.1	224.01	3.5296e-06	2.2994e-06	281.35	81.566	63.104	18.439	1.4646e-06	25.767	0.00022569	0.00025333	6.8506e-05	1033.7	2.4846e-06	2.7912e-06	1126	217.25	2.4497e-06	2.8027e-06	273.52	78.967	61.715	18.632	2.63e-06	25.586	284.631	230.544	282.624	154.749	263.701	317.305	154.600	162.425	276.995	298.269	161.963	169.128	169.178	176.281	301.756	174.954	-8191	255	
11038.615	1	1	0	0	0.23192	0.2227	0.10858	0.12004	0.12438	0.16329	0.12707	0.21113	0.072555	0.11144	0.11987	0.061412	0.17858	0.14417	0.025495	0.19916	-2.5104	-2.4188	-2.6875	-3.0042	-2.3792	-2.9125	-2.7583	-2.3625	-3.0604	-2.5021	-2.8542	-3.1937	-2.45	-2.7875	-2.7333	-2.4646	306.222	359.871	157.592	497.066	263.835	404.588	201.274	443.536	374.643	331.111	177.679	167.016	272.673	186.278	486.684	188.492	0.00044883	0.000262	8.2984e-05	1065.5	5.7485e-06	1.3569e-06	1169.2	224.37	5.5045e-06	2.6068e-06	280.56	80.884	63.203	18.352	7.0767e-06	25.983	0.00023443	0.00025731	6.5705e-05	1029.4	2.6018e-06	2.7906e-06	1125.6	217.08	2.6039e-06	2.7685e-06	272.81	78.65	61.774	18.559	2.5388e-06	25.606	291.904	197.576	243.175	154.961	260.235	283.172	154.702	162.212	312.546	246.612	161.942	168.829	169.147	176.283	325.779	175.236	-8191	255	
11038.711	1	1	0	0	0.05496	0.070343	0.34343	0.16159	0.25898	0.1476	0.29358	0.1793	0.17921	0.082078	0.20716	0.030715	0.16703	0.044629	0.25224	0.23788	-2.5687	-2.35	-2.5958	-2.9375	-2.3396	-2.8521	-2.8479	-2.3646	-2.9854	-2.5021	-2.6583	-2.975	-2.3917	-2.7021	-2.7542	-2.4854	348.129	336.066	223.575	477.651	368.767	302.019	437.759	369.322	346.149	472.497	477.864	295.643	488.831	307.771	220.198	167.796	0.00039272	0.00010014	4.9319e-05	1067.4	5.229e-06	5.8679e-06	1166.9	223.4	3.3054e-06	4.2577e-06	283.49	80.953	63.047	18.532	1.7223e-06	25.692	0.00024555	0.00024729	6.3327e-05	1029.6	2.6962e-06	2.6961e-06	1123.2	217.05	2.7375e-06	2.6802e-06	273	78.738	61.961	18.561	2.4132e-06	25.577	289.764	189.520	491.679	154.837	248.067	295.222	154.562	162.285	331.469	298.321	161.893	168.778	169.414	176.442	288.949	175.470	-8191	255	
11038.807	1	1	0	0	0.44313	0.17226	0.15382	0.19104	0.19777	0.095143	0.22117	0.24791	0.21926	0.13263	0.22621	0.022405	0.077847	0.13994	0.12454	0.29757	-2.5167	-2.5125	-2.4688	-3.1083	-2.3333	-2.6854	-2.9417	-2.3729	-3.0458	-2.6167	-2.5104	-3.2188	-2.4146	-2.7604	-2.8729	-2.2562	412.827	148.872	201.532	470.319	171.548	272.080	459.050	424.194	268.095	205.946	409.399	193.600	166.294	214.628	336.268	158.495	0.00042819	0.00029909	0.00018692	1065.5	4.5345e-06	2.4824e-06	1166.7	223.81	3.9914e-06	5.3814e-06	280.39	80.051	63.263	18.386	4.9365e-06	25.916	0.00025688	0.00023676	6.2124e-05	1029.7	2.8247e-06	2.5788e-06	1123.6	217.31	2.7869e-06	2.6045e-06	272.58	78.685	62.084	18.507	2.3904e-06	25.753	292.701	468.922	202.011	154.725	229.853	167.814	154.501	162.336	276.463	229.371	161.738	168.765	169.174	176.522	303.196	175.302	-8191	255	
11038.904	1	1	0	0	0.24997	0.12019	0.17539	0.38943	0.068464	0.14696	0.47833	0.081789	0.29146	0.12654	0.16548	0.39403	0.34034	0.25034	0.24617	0.25244	-2.3104	-2.5854	-2.2062	-3.1188	-2.4292	-2.6437	-3.1229	-2.5583	-2.9604	-2.7458	-2.4437	-2.9979	-2.4271	-2.6083	-2.9125	-2.3208	224.681	293.705	436.623	502.690	453.407	372.270	398.314	465.044	254.746	491.445	492.949	183.123	449.299	151.832	156.938	155.643	0.00055333	0.00018644	0.00012426	1070.9	1.0345e-06	6.6977e-06	1172.1	223.41	2.5769e-06	3.7146e-07	281.61	80.407	63.257	18.495	3.2768e-06	25.799	0.00025998	0.00023306	6.1072e-05	1031.8	2.7687e-06	2.514e-06	1125.4	217.23	2.7107e-06	2.4951e-06	272.2	78.808	61.892	18.491	2.3217e-06	25.753	279.108	296.342	197.972	154.869	170.561	279.446	154.706	162.483	373.803	311.824	161.881	168.516	169.062	175.881	296.510	175.177	-8191	255	
11039.024	1	1	0	0	0.16683	0.31118	0.19009	0.28694	0.10369	0.13274	0.21199	0.085972	0.090377	0.20216	0.047242	0.15032	0.23387	0.37769	0.17382	0.20735	-2.325	-2.7625	-2.3729	-2.9354	-2.6646	-2.625	-3.075	-2.2938	-2.6167	-2.7875	-2.5354	-2.9208	-2.3937	-2.5521	-2.8917	-2.3979	265.170	470.526	235.031	497.368	169.144	239.344	404.140	265.370	215.753	289.113	192.468	431.441	386.832	458.536	443.379	270.478	0.0004348	0.00042666	8.059e-05	1067.2	2.7659e-06	4.0268e-06	1168.8	222.76	3.9147e-06	1.4413e-06	281.57	80.692	63.206	18.439	1.7082e-06	25.916	0.0002455	0.0002247	6.0666e-05	1032.1	2.7004e-06	2.4638e-06	1123.4	217.2	2.6254e-06	2.437e-06	272.81	79.115	61.745	18.472	2.452e-06	25.8	279.462	291.046	492.475	154.691	316.518	316.398	154.772	162.295	284.749	379.202	161.852	168.403	169.234	175.960	351.040	175.487	-8191	255	
11039.120	1	1	0	0	0.22028	0.050856	0.079933	0.23475	0.041755	0.31207	0.16426	0.096813	0.16104	0.12047	0.23883	0.20391	0.10663	0.37399	0.086593	0.20103	-2.3375	-2.8292	-2.1875	-3.0708	-2.4542	-2.2854	-3.3125	-2.2812	-2.6458	-2.9437	-2.4437	-2.9167	-2.5521	-2.4354	-2.9188	-2.4271	253.764	236.736	355.055	167.041	245.319	147.229	443.390	266.324	341.040	399.485	310.321	209.197	457.349	480.841	157.940	160.403	0.00042155	0.00027783	3.3376e-05	1066.2	3.1259e-06	3.0339e-06	1164.5	223.47	3.0846e-06	4.0676e-06	280.37	81.234	62.932	18.4	3.4055e-06	25.908	0.00023979	0.00021923	6.3128e-05	1032.2	2.5614e-06	2.3974e-06	1122.5	217.61	2.5252e-06	2.3454e-06	272.51	79.257	61.674	18.418	2.5423e-06	25.841	287.532	250.994	150.135	154.832	304.339	290.199	154.672	162.224	282.380	255.031	161.661	168.381	169.494	176.217	255.460	175.421	-8191	255	
11039.216	1	1	0	0	0.091143	0.29365	0.052624	0.45814	0.29346	0.12942	0.071014	0.22426	0.10887	0.26789	0.11442	0.16327	0.14619	0.047069	0.13119	0.11187	-2.0833	-2.9167	-2.4083	-3.0938	-2.5833	-2.3542	-3.1833	-2.6625	-2.5792	-3.1042	-2.3688	-2.8021	-2.8229	-2.2583	-2.9458	-2.5625	417.856	225.283	169.264	439.032	251.134	487.534	176.781	426.795	242.955	435.147	415.115	397.202	497.447	388.637	348.601	389.228	0.00043659	0.00019822	7.996e-05	1066.6	4.582e-06	1.3408e-06	1165.8	223.06	1.1485e-06	3.7108e-06	281.29	80.867	63.339	18.456	3.3963e-06	25.942	0.00023643	0.00021335	6.7674e-05	1030.8	2.4824e-06	2.3405e-06	1122.8	217.3	2.5042e-06	2.3611e-06	273.16	78.915	61.601	18.441	2.7061e-06	25.676	298.365	327.390	232.186	154.852	270.758	364.252	154.646	162.325	338.270	209.647	162.093	168.770	169.406	176.566	299.122	175.458	-8191	255	
11039.335	1	1	0	0	0.23073	0.12517	0.16065	0.10677	0.063196	0.15133	0.32458	0.057613	0.10769	0.017467	0.12703	0.094307	0.16742	0.18872	0.15521	0.1181	-2.2021	-3.1333	-2.3917	-2.8542	-3.0333	-2.4417	-3.2583	-2.5271	-2.6167	-3.0417	-2.3896	-2.6271	-2.925	-2.3312	-3.0083	-2.5604	286.912	340.211	246.951	145.584	215.025	477.325	442.255	318.694	248.321	157.327	497.049	472.334	500.254	503.017	254.148	449.775	0.00036386	0.00036852	3.1456e-05	1068.5	5.8353e-06	4.5669e-06	1160.8	223.5	1.5352e-06	3.7082e-07	280.06	80.85	63.184	18.531	3.5475e-06	25.842	0.00022726	0.00021518	6.8676e-05	1030.7	2.4298e-06	2.3679e-06	1122	217.03	2.4146e-06	2.4361e-06	273.26	78.849	61.591	18.439	2.7054e-06	25.676	305.608	222.002	237.906	154.828	267.359	277.841	154.696	162.510	317.505	158.370	161.780	168.436	169.558	175.967	322.460	175.160	-8191	255	
11039.407	1	1	0	0	0.13135	0.23058	0.22512	0.036394	0.20313	0.34428	0.25088	0.22164	0.11372	0.11196	0.2464	0.11479	0.16103	0.18288	0.091009	0.062626	-1.9583	-3.1021	-2.3396	-2.8354	-2.8708	-2.3083	-3.1875	-2.5604	-2.5229	-3.0646	-2.4688	-2.7979	-3.0396	-2.2979	-3.0354	-2.8083	332.746	278.770	371.454	502.871	232.261	274.837	459.742	459.913	461.675	298.773	396.559	180.105	435.744	397.028	470.264	341.526	0.00040393	0.00048919	0.00014735	1063.2	4.7358e-06	3.804e-06	1167.6	221.99	2.8408e-06	3.0781e-06	282.28	81.01	63.511	18.657	9.3519e-07	25.983	0.00021948	0.00022754	6.871e-05	1029.6	2.3219e-06	2.523e-06	1125.1	216.66	2.3771e-06	2.5691e-06	273.31	78.866	61.565	18.6	2.6274e-06	25.687	285.862	249.455	232.431	154.649	243.591	243.676	154.786	162.558	285.162	318.273	162.147	168.548	169.570	176.373	383.979	175.469	-8191	255	
11039.503	1	1	0	0	0.022876	0.083542	0.14392	0.37683	0.18951	0.055074	0.076689	0.23328	0.2286	0.14601	0.091609	0.39231	0.11466	0.097987	0.29987	0.067844	-1.8896	-2.9188	-2.4646	-2.6521	-2.8833	-2.4437	-2.9083	-2.8958	-2.3146	-2.9458	-2.6479	-2.4875	-2.8187	-2.3333	-2.7208	-2.8396	467.698	189.092	207.311	451.127	357.959	408.547	459.549	496.511	363.053	476.600	153.973	212.379	433.752	206.789	233.196	171.389	0.00035699	0.00036586	0.00014992	1062.8	1.0904e-06	3.696e-06	1163.2	223.09	4.3875e-06	5.0443e-06	281.32	80.635	63.218	18.323	2.1218e-06	25.833	0.00021731	0.00024108	6.7416e-05	1027.5	2.334e-06	2.6518e-06	1122.4	216.77	2.3574e-06	2.654e-06	272.97	78.622	61.56	18.505	2.5844e-06	25.651	291.212	186.335	352.117	154.599	306.748	311.076	154.712	162.462	322.977	169.868	161.981	168.911	169.256	176.229	358.915	175.186	-8191	255	
11039.624	1	1	0	0	0.20172	0.29979	0.10123	0.26128	0.20728	0.29446	0.26465	0.16344	0.057999	0.1256	0.28514	0.11325	0.17343	0.12256	0.078966	0.12088	-1.8271	-2.8146	-2.4479	-2.3792	-2.825	-2.3271	-2.9188	-2.8896	-2.4313	-2.9542	-2.6792	-2.3729	-3.0667	-2.5438	-2.7167	-3.125	493.069	227.373	348.858	465.726	312.015	283.693	474.462	449.292	452.103	152.906	483.887	439.704	195.448	338.795	364.847	425.571	0.0004842	0.00012507	0.00010573	1060	2.4843e-06	1.1339e-06	1163.6	224.27	6.9552e-06	1.2514e-06	280.38	80.608	63.056	18.527	3.9936e-06	25.976	0.00022379	0.00025184	6.4634e-05	1026.7	2.4408e-06	2.7344e-06	1122.6	217.23	2.4794e-06	2.7211e-06	272.57	78.517	61.822	18.592	2.4957e-06	25.582	299.443	435.346	232.519	154.462	238.796	496.269	154.657	162.312	256.692	386.312	162.212	168.866	169.296	176.103	317.971	175.803	-8191	255	
11039.720	1	1	0	0	0.14842	0.17683	0.05385	0.11402	0.17728	0.063429	0.3861	0.10703	0.18292	0.10901	0.061961	0.11352	0.18634	0.35289	0.27082	0.1204	-1.9292	-2.8812	-2.7604	-2.6979	-3.0312	-2.4104	-2.7896	-2.9083	-2.15	-2.8688	-2.9708	-2.3937	-3.1833	-2.3521	-2.6667	-3.0417	476.901	375.254	221.879	170.757	190.488	457.564	459.872	325.900	473.884	216.104	410.395	386.184	219.806	483.548	431.463	236.331	0.00026265	0.00048328	1.0482e-05	1062.4	3.199e-06	5.4764e-06	1163	223.26	6.2348e-06	1.4936e-06	281.94	80.625	63.326	18.387	1.7372e-06	25.824	0.00023746	0.0002489	6.3619e-05	1027.4	2.6124e-06	2.6963e-06	1121.9	217.13	2.6786e-06	2.6702e-06	272.57	78.585	61.902	18.573	2.4804e-06	25.551	281.554	213.408	370.692	154.669	288.044	296.606	154.493	162.015	328.309	207.168	161.993	168.784	169.518	176.069	364.803	175.252	-8191	255	
11039.816	1	1	0	0	0.15348	0.1611	0.043222	0.022062	0.031434	0.1635	0.22116	0.12193	0.14419	0.12427	0.15212	0.088235	0.14467	0.15834	0.1294	0.35244	-1.9646	-2.8021	-2.8021	-2.4813	-3.1771	-2.6292	-2.6437	-3.05	-2.5208	-2.6813	-2.8979	-2.4667	-3.0375	-2.6479	-2.4375	-2.9479	154.783	292.297	155.707	348.939	482.375	199.029	467.060	480.914	200.272	499.982	315.456	213.484	481.666	388.956	498.557	423.908	0.00039648	0.00023803	0.0001759	1065.2	4.8894e-06	2.7109e-06	1166.5	224.22	2.3808e-06	1.2728e-06	280.84	80.929	63.028	18.401	1.4828e-06	25.684	0.00025375	0.00024271	6.2798e-05	1029.1	2.7608e-06	2.622e-06	1121.6	217.25	2.8076e-06	2.5788e-06	272.83	78.828	61.89	18.477	2.4057e-06	25.633	291.165	226.191	276.800	154.662	264.291	345.421	154.542	162.299	196.373	467.455	162.154	168.902	169.150	176.542	321.694	175.176	-8191	255	
11039.912	1	1	0	0	0.085084	0.22564	0.21225	0.24709	0.20649	0.14672	0.081393	0.12807	0.17751	0.2193	0.031523	0.2237	0.2813	0.25983	0.10037	0.19709	-2.1292	-2.6604	-2.6417	-2.5833	-2.9417	-2.6271	-2.4521	-3.1083	-2.3625	-2.5438	-2.8917	-2.3458	-2.7062	-2.7521	-2.2667	-3.2	263.953	371.381	309.518	453.002	250.532	240.849	392.940	383.108	353.768	193.798	159.189	443.678	416.289	152.828	400.483	382.213	0.000319	0.00029722	0.00017093	1062	3.9193e-06	7.9786e-06	1165.8	223.57	4.1309e-06	3.1935e-06	281.37	80.842	63.736	18.405	2.5841e-06	25.891	0.00025645	0.00023325	6.0731e-05	1027.7	2.7966e-06	2.5646e-06	1121.2	217.24	2.7687e-06	2.5538e-06	272.6	78.892	62.076	18.491	2.3878e-06	25.775	308.434	310.331	227.611	154.646	333.148	294.396	154.497	162.247	321.821	268.461	162.068	168.583	169.622	176.746	327.515	175.370	-8191	255	
11040.008	1	1	0	0	0.20861	0.13057	0.14495	0.15373	0.12037	0.26459	0.17407	0.2523	0.16148	0.24415	0.12694	0.12145	0.21236	0.11504	0.14782	0.087475	-2.1083	-2.5667	-2.85	-2.5271	-2.8083	-2.8917	-2.4854	-2.9854	-2.3833	-2.4917	-3.0042	-2.3292	-2.8083	-2.8521	-2.2708	-3.025	433.008	250.146	236.156	485.275	432.130	286.941	497.476	277.630	372.011	329.887	240.735	497.015	464.000	150.204	401.148	257.961	0.00042111	0.00034826	0.00018911	1064.6	1.2458e-06	3.1206e-06	1167.2	224.15	5.9396e-06	2.2806e-06	280.87	80.549	63.574	18.446	5.0823e-06	25.854	0.00025632	0.000235	6.1382e-05	1029.9	2.734e-06	2.5416e-06	1121.5	218.21	2.7147e-06	2.55e-06	272.43	79.071	61.979	18.434	2.4677e-06	25.875	280.084	168.104	211.504	154.604	247.745	265.812	154.752	162.381	260.589	452.689	161.717	168.504	169.198	176.485	314.075	176.038	-8191	255	
11040.105	1	1	0	0	0.21435	0.39175	0.15819	0.26393	0.16839	0.098506	0.34086	0.10558	0.18322	0.27565	0.22947	0.18869	0.23102	0.063461	0.12532	0.16785	-2.1208	-2.4771	-2.9292	-2.5	-2.7479	-2.8458	-2.2	-2.9875	-2.4542	-2.3937	-3.2021	-2.2479	-2.6917	-2.8229	-2.3646	-3.0854	480.910	323.668	382.087	498.134	352.407	490.971	189.031	390.024	486.018	356.282	171.070	266.146	221.485	403.982	447.775	374.032	0.00043262	0.00028439	0.00014807	1066.4	5.3973e-06	4.2106e-06	1165.2	222.45	5.1883e-06	3.8708e-06	282.54	81.101	63.433	18.672	7.8433e-06	25.672	0.00024815	0.00022753	6.3232e-05	1030.6	2.6982e-06	2.5001e-06	1122	217.18	2.6714e-06	2.5266e-06	274.06	79.364	62.085	18.617	2.7405e-06	25.875	302.697	264.833	217.057	154.813	267.867	310.300	154.798	162.395	305.823	273.884	162.134	168.728	169.150	176.417	309.971	175.202	-8191	255	
11040.201	1	1	0	0	0.43728	0.12364	0.1218	0.40098	0.12175	0.43065	0.080513	0.27553	0.19177	0.11439	0.12344	0.14541	0.11752	0.24611	0.068255	0.030852	-2.1729	-2.3167	-2.8417	-2.5979	-2.6521	-2.8604	-2.3271	-2.8604	-2.5667	-2.4771	-3.0833	-2.5563	-2.5604	-2.9208	-2.3688	-2.8021	439.235	432.762	471.687	456.959	428.017	492.504	471.829	491.055	362.419	456.926	193.437	170.651	309.638	157.516	287.407	323.917	0.00043199	0.00032099	0.00012158	1069	1.7698e-06	2.9539e-06	1175	225.03	8.2539e-06	2.1331e-06	284.27	80.317	63.489	18.549	3.2954e-06	26.224	0.00025525	0.00023452	7.2408e-05	1037.7	2.8352e-06	2.6673e-06	1132.6	219.42	2.8779e-06	2.7557e-06	276.67	79.773	62.529	18.698	3.1264e-06	26.193	290.299	218.405	157.887	154.618	406.329	363.485	154.471	162.247	356.386	271.900	161.820	168.784	169.380	176.553	270.009	174.955	-8191	255	
#DATA ENDS
