BOXY.EXE: ISS Imagent and Oximeter Data Acquisition Program Version 0.80
Ascii Record File

#ACQ INFORMATION
2  Detector Channels 
16  External MUX Channels 
1  Auxiliary Channels 
5000  Waveform (CCF) Frequency (Hz)
1  Waveforms Skipped 
30  Waveforms Averaged 
1  Cycles Averaged 
16  Acquisitions per Waveform 
10.0806  Updata Rate (Hz) 

#FILE INFORMATION
TRUE -- External MUX Channel results are PARSED.
FALSE -- AC DC and Phase are NOT grouped.
TRUE -- Companion Program Settings File CREATED.
FALSE -- AC data not excluded
FALSE -- DC data not excluded
FALSE -- Phase data not excluded
FALSE -- Auxillary Chn. data not excluded
Tab delimiters

#CALIBRATION STATE
TRUE -- Waveform Calibration Values APPLIED.


#AUX CALIBRATION VALUES
Val Type	aux-1	

Term	1.0000e+00	
Factor	0.0000e+00	


#WF CALIBRATION VALUES
A = Detector Channel
Val Type	A-AC1	A-AC2	A-AC3	A-AC4	A-AC5	A-AC6	A-AC7	A-AC8	A-AC9	A-AC10	A-AC11	A-AC12	A-AC13	A-AC14	A-AC15	A-AC16	A-DC1	A-DC2	A-DC3	A-DC4	A-DC5	A-DC6	A-DC7	A-DC8	A-DC9	A-DC10	A-DC11	A-DC12	A-DC13	A-DC14	A-DC15	A-DC16	A-Ph1	A-Ph2	A-Ph3	A-Ph4	A-Ph5	A-Ph6	A-Ph7	A-Ph8	A-Ph9	A-Ph10	A-Ph11	A-Ph12	A-Ph13	A-Ph14	A-Ph15	A-Ph16	

Term	0.00000e+00	0.00000e+00	0.00000e+00	0.00000e+00	0.00000e+00	0.00000e+00	0.00000e+00	0.00000e+00	0.00000e+00	0.00000e+00	0.00000e+00	0.00000e+00	0.00000e+00	0.00000e+00	0.00000e+00	0.00000e+00	0.00000e+00	0.00000e+00	0.00000e+00	0.00000e+00	0.00000e+00	0.00000e+00	0.00000e+00	0.00000e+00	0.00000e+00	0.00000e+00	0.00000e+00	0.00000e+00	0.00000e+00	0.00000e+00	0.00000e+00	0.00000e+00	0.00000e+00	0.00000e+00	0.00000e+00	0.00000e+00	0.00000e+00	0.00000e+00	0.00000e+00	0.00000e+00	0.00000e+00	0.00000e+00	0.00000e+00	0.00000e+00	0.00000e+00	0.00000e+00	0.00000e+00	0.00000e+00	
Factor	1.00000e+00	1.00000e+00	1.00000e+00	1.00000e+00	1.00000e+00	1.00000e+00	1.00000e+00	1.00000e+00	1.00000e+00	1.00000e+00	1.00000e+00	1.00000e+00	1.00000e+00	1.00000e+00	1.00000e+00	1.00000e+00	1.00000e+00	1.00000e+00	1.00000e+00	1.00000e+00	1.00000e+00	1.00000e+00	1.00000e+00	1.00000e+00	1.00000e+00	1.00000e+00	1.00000e+00	1.00000e+00	1.00000e+00	1.00000e+00	1.00000e+00	1.00000e+00	X	X	X	X	X	X	X	X	X	X	X	X	X	X	X	X	

B = Detector Channel
Val Type	B-AC1	B-AC2	B-AC3	B-AC4	B-AC5	B-AC6	B-AC7	B-AC8	B-AC9	B-AC10	B-AC11	B-AC12	B-AC13	B-AC14	B-AC15	B-AC16	B-DC1	B-DC2	B-DC3	B-DC4	B-DC5	B-DC6	B-DC7	B-DC8	B-DC9	B-DC10	B-DC11	B-DC12	B-DC13	B-DC14	B-DC15	B-DC16	B-Ph1	B-Ph2	B-Ph3	B-Ph4	B-Ph5	B-Ph6	B-Ph7	B-Ph8	B-Ph9	B-Ph10	B-Ph11	B-Ph12	B-Ph13	B-Ph14	B-Ph15	B-Ph16	

Term	0.00000e+00	0.00000e+00	0.00000e+00	0.00000e+00	0.00000e+00	0.00000e+00	0.00000e+00	0.00000e+00	0.00000e+00	0.00000e+00	0.00000e+00	0.00000e+00	0.00000e+00	0.00000e+00	0.00000e+00	0.00000e+00	0.00000e+00	0.00000e+00	0.00000e+00	0.00000e+00	0.00000e+00	0.00000e+00	0.00000e+00	0.00000e+00	0.00000e+00	0.00000e+00	0.00000e+00	0.00000e+00	0.00000e+00	0.00000e+00	0.00000e+00	0.00000e+00	-1.70766e+02	-1.55360e+02	-1.36989e+02	-1.83556e+02	-7.39167e+01	-1.11136e+02	-1.57958e+02	-1.62015e+02	-8.77219e+01	-9.53084e+01	-1.70441e+02	-1.71054e+02	-1.79201e+02	-1.76666e+02	-9.97883e+01	-1.49357e+02	
Factor	2.98084e-05	1.06056e-04	3.44200e-05	1.51934e-01	8.83417e-07	1.01984e-06	1.64616e-01	5.40301e-02	8.79708e-07	1.14181e-06	8.93439e-02	3.10184e-02	2.90158e-02	9.72131e-03	1.45861e-06	1.37752e-02	7.84505e-07	7.99803e-07	2.22624e-07	7.65306e-02	8.71945e-09	8.76617e-09	7.79789e-02	2.70018e-02	8.73877e-09	8.78194e-09	4.25643e-02	1.47342e-02	1.42478e-02	4.76412e-03	8.78011e-09	6.51403e-03	X	X	X	X	X	X	X	X	X	X	X	X	X	X	X	X	



#DISTANCE SETTINGS
A = Detector Channel
A-1	A-2	A-3	A-4	A-5	A-6	A-7	A-8	A-9	A-10	A-11	A-12	A-13	A-14	A-15	A-16	

2.5000e+00	3.0000e+00	2.5000e+00	3.0000e+00	2.0000e+00	3.0000e+00	1.5000e+00	3.0000e+00	3.0000e+00	3.0000e+00	3.0000e+00	3.0000e+00	3.0000e+00	3.0000e+00	1.5000e+00	3.0000e+00	

B = Detector Channel
B-1	B-2	B-3	B-4	B-5	B-6	B-7	B-8	B-9	B-10	B-11	B-12	B-13	B-14	B-15	B-16	

1.0000e+01	1.0000e+01	1.0000e+01	1.4400e+00	1.0000e+01	1.0000e+01	1.5100e+00	1.9400e+00	1.0000e+01	1.0000e+01	1.9900e+00	2.4900e+00	2.4100e+00	2.9000e+00	1.0000e+01	2.9800e+00	




#DATA BEGINS
time	group	step	mark	flag	A-AC1	A-AC2	A-AC3	A-AC4	A-AC5	A-AC6	A-AC7	A-AC8	A-AC9	A-AC10	A-AC11	A-AC12	A-AC13	A-AC14	A-AC15	A-AC16	A-DC1	A-DC2	A-DC3	A-DC4	A-DC5	A-DC6	A-DC7	A-DC8	A-DC9	A-DC10	A-DC11	A-DC12	A-DC13	A-DC14	A-DC15	A-DC16	A-Ph1	A-Ph2	A-Ph3	A-Ph4	A-Ph5	A-Ph6	A-Ph7	A-Ph8	A-Ph9	A-Ph10	A-Ph11	A-Ph12	A-Ph13	A-Ph14	A-Ph15	A-Ph16	B-AC1	B-AC2	B-AC3	B-AC4	B-AC5	B-AC6	B-AC7	B-AC8	B-AC9	B-AC10	B-AC11	B-AC12	B-AC13	B-AC14	B-AC15	B-AC16	B-DC1	B-DC2	B-DC3	B-DC4	B-DC5	B-DC6	B-DC7	B-DC8	B-DC9	B-DC10	B-DC11	B-DC12	B-DC13	B-DC14	B-DC15	B-DC16	B-Ph1	B-Ph2	B-Ph3	B-Ph4	B-Ph5	B-Ph6	B-Ph7	B-Ph8	B-Ph9	B-Ph10	B-Ph11	B-Ph12	B-Ph13	B-Ph14	B-Ph15	B-Ph16	aux-1	digaux	

23933.906	1	1	0	256	0.12053	0.10907	0.085116	0.14334	0.14871	0.041269	0.089984	0.15543	0.29607	0.087877	0.20799	0.22761	0.20806	0.39442	0.15677	0.40382	-3.3604	-4.2208	-3.3333	-4.0854	-4.0687	-3.3729	-4.5646	-3.7833	-3.5042	-4.4875	-3.6688	-4.0208	-4.15	-3.4042	-4.2729	-3.8625	103.945	165.944	-56.113	110.046	-90.165	-48.514	74.321	-132.511	52.692	127.258	58.332	166.383	148.819	44.621	101.241	181.310	0.00053269	0.00040063	1.1141e-05	732.01	5.3963e-07	1.3845e-06	1105.1	164.27	1.4585e-06	1.9152e-06	321.4	109.44	51.308	20.143	2.4876e-06	51.94	9.0019e-05	9.2366e-05	2.7797e-05	657.11	8.7992e-07	1.0552e-06	997.83	147.11	8.9177e-07	1.0638e-06	282.37	96.414	45.559	17.9	1.0627e-06	45.539	158.271	-109.009	-82.465	-141.733	35.554	-63.963	-140.584	-134.430	36.376	-36.058	-134.125	-128.637	-128.708	-121.181	-47.789	-122.311	-8191	255	
23934.002	1	1	0	0	0.22869	0.069131	0.06445	0.12479	0.097792	0.11678	0.2998	0.18458	0.32028	0.070586	0.20949	0.067654	0.0056329	0.1496	0.12548	0.33511	-3.3271	-4.4542	-3.4375	-4.1271	-4.2375	-3.3917	-4.5104	-4.0854	-3.4792	-4.6292	-3.5229	-4.0312	-4.3396	-3.3812	-4.3146	-4.1646	177.752	119.570	-140.864	186.144	-109.306	119.061	119.572	152.837	-50.711	27.188	134.810	105.488	151.106	144.195	123.652	91.835	0.00061979	0.00022426	4.4782e-05	747.97	2.1406e-06	1.0453e-06	1143.6	168.82	2.3256e-06	7.1835e-06	326.89	111.72	52.555	20.625	2.4414e-06	53.26	9.4098e-05	0.00010063	2.7403e-05	671.16	9.7585e-07	1.1704e-06	1023.7	151.39	1.0078e-06	1.1916e-06	289.37	98.849	47.123	18.496	1.0632e-06	46.723	158.476	-141.117	-8.980	-141.489	-38.561	114.231	-140.361	-134.136	-48.966	-25.642	-133.454	-128.313	-128.611	-121.097	-33.306	-121.749	-8191	255	
23934.098	1	1	0	0	0.076425	0.14913	0.1165	0.21895	0.41167	0.13626	0.33108	0.10944	0.33231	0.017512	0.17247	0.05095	0.22844	0.35497	0.17738	0.19388	-3.1958	-4.5708	-3.6167	-3.8438	-4.475	-3.5646	-4.1542	-4.2229	-3.4896	-4.4833	-3.6833	-3.8438	-4.5208	-3.5812	-4.0208	-4.4	58.030	-133.771	53.064	85.129	146.223	150.603	154.158	142.838	12.638	203.220	-36.903	138.820	104.932	-93.821	60.168	131.568	0.00053266	0.0004218	5.2672e-05	743.59	1.6772e-06	4.6928e-06	1135.5	169.71	2.5058e-06	5.5922e-06	332.8	113.22	53.274	20.929	3.7137e-06	53.413	0.0001047	0.00010825	2.636e-05	666.8	1.0437e-06	1.1962e-06	1020.8	152.39	1.0809e-06	1.1662e-06	292.44	99.997	47.422	18.679	1.0911e-06	47.027	165.108	-75.563	-98.655	-140.857	-5.821	-33.047	-140.423	-133.862	-13.803	-42.088	-133.382	-127.597	-128.249	-121.549	24.000	-122.151	-8191	255	
23934.195	1	1	0	0	0.36227	0.094698	0.078468	0.22806	0.050967	0.20023	0.072416	0.18107	0.12986	0.15707	0.20512	0.18211	0.27827	0.11845	0.10475	0.19165	-2.9271	-4.4708	-3.8979	-3.6729	-4.4917	-3.5104	-3.9396	-4.3896	-3.2958	-4.4271	-4.0062	-3.4896	-4.475	-3.6104	-3.9854	-4.225	38.834	-21.686	116.744	165.564	20.897	173.823	-140.073	199.549	23.126	-126.282	165.397	205.076	-19.464	94.546	-114.257	162.754	0.00051849	0.00040207	0.00019525	761.37	1.3047e-06	2.9808e-06	1165.4	175.72	1.6938e-06	4.0299e-06	336.4	114.53	53.061	20.944	1.6256e-06	53.434	0.00011518	0.00010822	2.6415e-05	685.5	1.1849e-06	1.1698e-06	1043.1	156.17	1.2174e-06	1.1833e-06	295.24	100.83	47.933	18.729	1.0634e-06	46.996	161.945	-97.186	-82.757	-141.134	-118.268	-99.117	-140.475	-133.933	41.338	-78.784	-133.877	-128.018	-127.597	-121.372	81.481	-122.049	-8191	255	
23934.289	1	1	0	0	0.20546	0.055786	0.23071	0.20537	0.060818	0.24953	0.10065	0.12534	0.14512	0.12306	0.10655	0.071997	0.1571	0.13947	0.019332	0.072861	-3.0854	-4.2375	-3.9313	-3.6021	-4.5854	-3.6417	-3.8146	-4.3562	-3.3438	-4.1979	-4.0563	-3.5542	-4.3063	-3.7	-3.7458	-4.5792	149.947	-74.504	-18.953	154.969	123.466	-53.179	105.305	80.821	-42.891	107.879	144.671	193.663	172.712	-59.245	66.672	188.874	0.00052431	0.00023168	8.3912e-05	791.26	3.2424e-06	3.9066e-06	1192.9	177.9	4.1054e-06	5.0646e-06	337.89	114.65	54.473	21.236	8.5808e-06	54.169	0.00012218	0.0001026	2.6276e-05	709.93	1.2348e-06	1.097e-06	1069.6	159.74	1.2351e-06	1.0747e-06	298.84	101.42	48.686	18.805	1.0319e-06	47.42	168.735	-99.919	-119.951	-141.676	206.156	-19.594	-140.829	-134.759	37.928	5.120	-133.690	-128.097	-128.508	-121.334	-18.294	-122.161	-8191	255	
23934.387	1	1	0	0	0.15338	0.19161	0.26854	0.057968	0.22598	0.085815	0.15054	0.28152	0.097648	0.27775	0.068281	0.25936	0.14964	0.0649	0.010687	0.21653	-3.0042	-4.1312	-3.9813	-3.5083	-4.4938	-3.825	-3.8312	-4.5792	-3.4	-4.0062	-4.2417	-3.4479	-4.2604	-3.8563	-3.7917	-4.6958	6.306	-114.903	-38.952	90.029	70.747	-63.120	111.511	180.462	87.760	165.611	167.655	-112.835	-67.774	154.446	-50.990	-137.232	0.00057793	0.00063475	0.00013489	804.8	3.8239e-06	2.7967e-06	1207.1	179.26	3.9051e-06	4.8241e-06	341.18	116.32	54.993	21.424	2.5784e-06	54.639	0.00012032	0.00010166	2.5106e-05	722.2	1.2466e-06	1.0701e-06	1083.1	161.64	1.2182e-06	1.0985e-06	300.05	102.43	48.893	18.914	1.0433e-06	47.863	159.524	-36.985	-75.160	-141.274	-13.827	-89.133	-140.764	-134.904	-3.860	-27.688	-133.558	-128.210	-128.633	-121.550	11.278	-122.030	-8191	255	
23934.508	1	1	0	0	0.16131	0.1914	0.20658	0.14927	0.16235	0.12891	0.1025	0.12773	0.16071	0.16265	0.14459	0.049878	0.17439	0.2941	0.074066	0.19869	-3.2708	-4.0437	-4.3042	-3.3937	-4.4	-3.9333	-3.7729	-4.5771	-3.5625	-3.775	-4.4938	-3.3187	-4.1896	-4.0146	-3.4083	-4.5792	-29.105	-106.159	64.479	147.722	188.650	27.726	-118.715	203.493	91.273	165.553	35.325	-120.940	40.988	-53.065	163.511	160.734	0.00052784	6.0631e-05	8.8303e-05	801.19	4.32e-06	1.1441e-06	1198.4	177.13	8.7951e-07	2.9866e-06	340	114.38	54.106	20.965	6.388e-06	54.072	0.00011643	9.8249e-05	2.5643e-05	719.93	1.1882e-06	1.0381e-06	1074.9	160.04	1.1423e-06	1.038e-06	298.05	101.59	48.334	18.676	1.0887e-06	47.37	169.579	191.268	-135.640	-141.271	-24.651	-49.865	-140.633	-134.668	74.346	-43.928	-133.871	-128.061	-128.303	-121.669	-83.300	-122.265	-8191	255	
23934.604	1	1	0	0	0.23714	0.070141	0.2014	0.1489	0.12194	0.14914	0.059378	0.10604	0.092132	0.15665	0.075643	0.22096	0.095554	0.15587	0.037696	0.14442	-3.1312	-3.8583	-4.2792	-3.4229	-4.1604	-4.1125	-3.6042	-4.4604	-3.5958	-3.6833	-4.4833	-3.5271	-4.2167	-4.1729	-3.3625	-4.4187	-42.229	-44.947	138.622	70.981	44.997	-73.303	58.919	62.962	176.519	-137.983	207.360	177.294	1.539	109.173	56.434	-130.041	0.00050688	0.00039523	3.029e-05	781.59	2.3383e-06	2.4925e-06	1176.9	175.61	3.9244e-06	3.2361e-06	338.21	113.17	54.024	21.134	1.465e-06	52.699	0.00010754	9.1916e-05	2.7208e-05	699	1.0642e-06	9.7326e-07	1056.9	158.3	1.0557e-06	9.7754e-07	297.42	100.72	47.966	18.62	1.1177e-06	46.548	169.358	-134.519	54.107	-141.223	12.748	6.819	-140.347	-134.463	-10.048	14.311	-133.609	-127.532	-128.251	-121.154	-11.739	-121.698	-8191	255	
23934.699	1	1	0	0	0.11221	0.044964	0.073986	0.096411	0.15403	0.077071	0.044634	0.1471	0.17214	0.23883	0.32688	0.081639	0.081165	0.29681	0.2492	0.11287	-3.6417	-3.6646	-4.4333	-3.4688	-3.9708	-4.2292	-3.5083	-4.475	-3.675	-3.6125	-4.4917	-3.575	-3.9875	-4.3771	-3.3417	-4.3333	20.369	-59.887	-67.789	34.056	-51.881	9.319	118.950	156.422	-3.954	-40.686	44.836	167.649	172.537	149.603	53.650	112.946	0.00056474	0.00041516	8.2641e-05	774.78	2.5498e-06	1.1407e-06	1165.5	173.84	3.3512e-06	2.3359e-06	332.11	113.63	53.426	20.959	1.904e-06	53.3	0.00010059	8.6365e-05	2.75e-05	696.14	9.8459e-07	9.0129e-07	1045.2	156.13	9.631e-07	9.2562e-07	293.05	100.26	47.564	18.476	1.1082e-06	46.755	163.061	-119.940	-96.908	-140.847	-6.321	-142.520	-140.603	-134.367	-37.718	-81.762	-133.533	-127.778	-127.592	-121.147	35.186	-121.825	-8191	255	
23934.795	1	1	0	0	0.12675	0.21371	0.041627	0.39878	0.12331	0.13006	0.30441	0.12899	0.17481	0.15673	0.25089	0.1425	0.16745	0.14048	0.21437	0.15884	-3.7354	-3.4729	-4.4354	-3.5458	-3.7583	-4.2417	-3.5542	-4.4583	-4.0125	-3.4146	-4.525	-3.6375	-3.7833	-4.3187	-3.2854	-4.2271	45.649	99.844	109.787	102.498	87.098	-110.235	135.291	32.644	80.237	-107.826	-137.369	200.045	-77.227	-130.797	21.087	156.322	0.00056587	1.2678e-05	0.00010778	763.38	3.3994e-06	2.3676e-06	1158.8	171.82	4.6629e-06	5.0541e-06	331.22	113.36	53.23	20.817	5.988e-06	53.676	9.3237e-05	8.5191e-05	2.8092e-05	684.79	9.5592e-07	9.3088e-07	1039.3	154.37	9.1637e-07	9.6737e-07	292.37	100.15	47.268	18.491	1.1081e-06	46.879	162.405	-139.048	-29.540	-141.414	25.538	-52.498	-140.536	-134.887	-56.429	-95.867	-134.464	-128.703	-128.752	-122.127	9.267	-122.816	-8191	255	
23934.891	1	1	0	0	0.17841	0.10156	0.11778	0.19216	0.11818	0.044682	0.11094	0.13109	0.19181	0.004685	0.096928	0.17883	0.05521	0.17036	0.22273	0.1958	-3.6333	-3.4062	-4.3812	-3.8021	-3.6292	-4.3688	-3.5563	-4.1521	-4.3229	-3.2354	-4.4	-3.9021	-3.7271	-4.5417	-3.4042	-4.1583	154.715	-90.871	-13.857	145.715	54.649	21.506	22.330	149.988	173.129	-51.055	-71.921	-39.993	90.765	-65.699	-131.456	101.105	0.00050648	0.00059678	0.00023786	725.26	1.616e-06	3.5539e-06	1104.4	164.52	2.8498e-06	4.4488e-06	324.8	111.6	51.391	20.519	2.799e-06	52.923	8.6217e-05	8.859e-05	2.7153e-05	650.5	8.6766e-07	9.7549e-07	991.41	148.31	8.3271e-07	1.0068e-06	285.84	98.283	45.927	18.17	9.8767e-07	46.155	168.252	-142.342	-26.498	-141.375	13.646	-86.548	-140.541	-134.505	-6.138	-145.967	-133.955	-128.166	-129.487	-121.986	-32.909	-122.795	-8191	255	
23934.986	1	1	0	0	0.080413	0.14329	0.20283	0.28074	0.11166	0.071502	0.10795	0.066308	0.20901	0.08099	0.19346	0.26299	0.12488	0.067201	0.036751	0.093402	-3.9021	-3.3292	-4.4125	-3.8792	-3.5542	-4.4479	-3.7208	-3.9458	-4.2438	-3.2333	-4.3979	-4.0896	-3.5708	-4.5813	-3.475	-3.8604	-16.429	-16.773	59.547	33.438	5.604	207.674	127.719	151.839	3.549	-103.708	-115.619	-71.123	-21.534	188.622	47.258	61.140	0.00061998	0.00041539	0.00012021	705.28	2.1416e-06	3.6523e-06	1056.5	160.22	2.5069e-06	1.3413e-06	308.39	108.03	49.927	19.948	8.4404e-06	51.69	8.5684e-05	8.8838e-05	2.4497e-05	629.88	8.3988e-07	9.7958e-07	953.66	143.81	8.126e-07	9.6665e-07	273.84	95.401	44.325	17.727	8.2308e-07	45.039	155.740	-117.163	-74.056	-141.128	-18.173	-30.319	-140.427	-134.299	-54.829	-94.082	-133.684	-128.338	-128.692	-121.201	8.367	-122.634	-8191	255	
23935.084	1	1	0	0	0.15305	0.13422	0.054128	0.1914	0.2093	0.11788	0.21161	0.11747	0.14192	0.19139	0.37204	0.10124	0.12462	0.049092	0.054726	0.24068	-3.9896	-3.3479	-4.1667	-4.2583	-3.5333	-4.5083	-3.7125	-3.8438	-4.3667	-3.3083	-4.1042	-4.3625	-3.2833	-4.3625	-3.6417	-3.6729	32.495	187.891	23.671	155.463	138.834	-37.017	168.790	190.975	-125.111	87.505	63.843	18.573	73.414	172.935	94.090	-148.204	0.00052837	0.00015263	3.3891e-05	637.72	1.035e-06	2.4957e-06	1010	154.86	1.5861e-06	1.354e-06	308.19	107.79	49.958	19.92	2.6374e-06	51.715	7.8802e-05	8.212e-05	2.0392e-05	571.97	7.678e-07	8.7828e-07	902.4	138.58	7.6075e-07	8.7333e-07	270.57	95.079	44.122	17.631	7.5088e-07	45.098	162.631	177.037	-37.077	-140.367	9.547	-77.566	-139.603	-133.351	-45.193	-44.640	-133.519	-127.924	-128.447	-121.688	31.662	-122.357	-8191	255	
23935.201	1	1	0	0	0.18676	0.20799	0.14321	0.12542	0.078794	0.038149	0.042196	0.094059	0.046957	0.15286	0.18115	0.0042746	0.063736	0.12287	0.1347	0.10386	-4.1625	-3.3583	-4.2042	-4.3187	-3.3229	-4.475	-3.9083	-3.5979	-4.5042	-3.6042	-4.1271	-4.2021	-3.4083	-4.2604	-3.8792	-3.6917	207.055	40.234	179.768	-74.777	194.051	19.186	22.263	61.529	-142.701	82.128	92.366	-74.157	-78.614	147.277	-125.244	54.141	0.00049221	0.00014197	0.00012344	643.06	2.1276e-06	2.4936e-06	1010.9	156.03	7.8373e-07	3.2846e-06	311.25	109	49.741	19.978	6.958e-06	51.964	8.0611e-05	7.8257e-05	1.9635e-05	574.76	8.5676e-07	8.6049e-07	904.73	138.44	8.2951e-07	8.3489e-07	271.63	95.646	44.432	17.647	7.1273e-07	45.374	164.650	-69.078	-101.930	-140.640	62.882	-47.390	-140.009	-133.611	-48.149	-80.911	-133.506	-128.375	-127.978	-121.743	-35.599	-122.129	-8191	255	
23935.299	1	1	0	0	0.13132	0.22326	0.088046	0.028956	0.10359	0.1123	0.14758	0.14321	0.16787	0.15493	0.22258	0.10488	0.19003	0.23666	0.1714	0.25516	-4.0604	-3.4292	-3.95	-4.3292	-3.225	-4.1667	-4.1417	-3.6083	-4.475	-3.6417	-4.0667	-4.3187	-3.55	-4.3521	-3.9771	-3.65	-2.160	193.656	167.316	198.867	49.270	15.715	122.698	154.019	-109.268	108.001	148.713	166.859	95.784	-84.332	135.431	-22.742	0.00063889	0.00061672	0.00015744	638.17	4.7359e-06	1.4952e-06	1000.4	153.35	1.1671e-06	3.1783e-06	307.61	107.44	49.84	19.505	1.7794e-06	51.235	8.2255e-05	6.8913e-05	1.7942e-05	570.43	8.2915e-07	7.6627e-07	897.29	137.44	8.2239e-07	7.2206e-07	269.83	94.671	44.092	17.381	6.678e-07	44.648	167.617	-120.658	-79.924	-140.354	-7.859	47.403	-139.834	-133.746	64.243	5.108	-133.267	-127.815	-128.507	-121.607	-2.534	-121.841	-8191	255	
23935.369	1	1	0	0	0.16459	0.1717	0.12302	0.07464	0.044966	0.23289	0.19598	0.23858	0.050814	0.21104	0.17733	0.11307	0.14931	0.20026	0.12747	0.40036	-4.2604	-3.5708	-3.8354	-4.4604	-3.4062	-4.1146	-4.2729	-3.4292	-4.5958	-3.7313	-3.8042	-4.4375	-3.5354	-4.0479	-4.1521	-3.3375	208.315	101.201	-71.346	-28.384	-22.198	114.025	139.526	131.388	-28.212	-27.330	-103.638	204.194	-52.130	184.039	-21.977	180.988	0.00050193	0.00032773	7.8862e-05	631.61	2.4534e-06	1.9224e-06	993.88	154.2	3.1226e-06	8.4489e-07	307.69	107.69	49.711	19.588	4.5841e-06	50.969	8.3602e-05	6.4919e-05	1.7045e-05	565.59	8.1016e-07	6.8922e-07	890.6	137.68	8.075e-07	6.8858e-07	268.75	94.372	43.918	17.401	6.5628e-07	44.808	164.815	-79.310	-79.602	-140.022	-27.236	-61.805	-139.367	-133.262	46.390	-131.815	-132.960	-127.922	-127.788	-120.946	-1.410	-121.131	-8191	255	
23935.467	1	1	0	0	0.066677	0.12233	0.09098	0.21987	0.070814	0.060577	0.20319	0.11235	0.11126	0.20637	0.13707	0.22497	0.034157	0.16837	0.12691	0.12928	-4.2729	-3.7208	-3.5083	-4.5875	-3.575	-3.9938	-4.4458	-3.5792	-4.4396	-3.9333	-3.7375	-4.6896	-3.6729	-3.7979	-4.325	-3.5229	96.885	-128.700	176.934	133.445	173.928	-104.318	208.218	152.559	193.318	101.323	-150.364	-149.909	-99.952	36.636	182.348	139.092	0.00058375	0.00030492	7.5431e-05	639.5	1.9263e-06	4.2443e-06	1000.8	153.21	9.4906e-07	7.4393e-06	308.4	107.98	49.524	19.776	3.9987e-06	51.462	7.899e-05	6.2193e-05	1.6977e-05	569.94	7.6248e-07	7.0002e-07	895.17	137.65	7.425e-07	6.7647e-07	269.68	95.047	43.975	17.498	6.8851e-07	45.044	163.196	-86.502	-92.628	-139.133	-24.333	-19.335	-138.522	-132.619	-3.742	-20.885	-132.041	-127.343	-127.510	-120.575	-67.817	-121.163	-8191	255	
23935.588	1	1	0	0	0.16102	0.026362	0.14243	0.10604	0.10943	0.19348	0.072687	0.23406	0.12345	0.15628	0.12789	0.12731	0.037508	0.13274	0.097413	0.16869	-4.0625	-4.0917	-3.4104	-4.5542	-3.8375	-3.9333	-4.5604	-3.5292	-4.2771	-4.0563	-3.4146	-4.6625	-3.6958	-3.8063	-4.3792	-3.6854	-49.030	-118.109	70.714	56.199	-50.742	126.154	131.358	141.528	-147.545	-58.875	60.617	89.171	-124.308	187.690	135.181	123.255	0.00057229	0.0004581	5.5016e-05	643.3	4.1383e-06	3.7168e-06	1018.2	155.96	1.9535e-06	1.2342e-06	311.15	109	50.153	19.825	1.8887e-06	51.371	7.5675e-05	6.1548e-05	1.7951e-05	576.71	7.3425e-07	6.7651e-07	908.32	139.02	7.3451e-07	6.5519e-07	272.4	95.626	44.105	17.483	7.5068e-07	45.008	161.189	-59.131	-111.826	-139.389	-22.334	-39.731	-138.911	-132.480	-29.836	-8.495	-132.582	-127.192	-126.869	-121.286	23.964	-121.296	-8191	255	
23935.684	1	1	0	0	0.13653	0.11911	0.31891	0.24	0.13014	0.18888	0.15129	0.12059	0.2661	0.23788	0.34346	0.17587	0.13571	0.30701	0.21836	0.1417	-3.8479	-4.1917	-3.5271	-4.4437	-3.7167	-3.7708	-4.575	-3.6188	-4.1771	-4.2375	-3.2875	-4.5563	-3.7271	-3.6333	-4.6167	-3.4208	-119.300	-44.891	162.068	146.827	48.476	18.073	53.734	-44.358	-67.592	-85.662	173.695	171.365	119.914	117.213	-71.234	-12.683	0.00052186	8.9064e-05	0.00011766	639.37	1.9849e-06	3.9371e-06	1013.3	154.7	9.4944e-07	2.839e-06	308.94	107.78	49.863	19.616	2.7678e-06	51.079	7.2887e-05	5.9224e-05	1.9423e-05	573.13	6.9394e-07	6.6882e-07	904.42	138.53	7.0484e-07	6.4072e-07	271.02	94.515	43.977	17.346	7.8295e-07	44.688	173.014	-41.546	37.870	-139.640	-4.686	-15.631	-138.976	-132.830	-55.969	-7.992	-132.850	-127.372	-127.259	-120.678	3.697	-121.088	-8191	255	
23935.779	1	1	0	0	0.1866	0.19327	0.11516	0.24063	0.19825	0.15076	0.39986	0.29375	0.16357	0.12482	0.15687	0.15732	0.21514	0.15917	0.032375	0.068826	-3.6104	-4.2063	-3.4375	-4.5062	-4.0188	-3.7729	-4.6062	-3.6354	-3.9125	-4.5083	-3.6063	-4.2958	-3.9437	-3.5312	-4.5333	-3.7271	109.705	17.316	-18.870	86.116	113.102	99.819	118.013	186.360	-105.262	-134.691	66.420	-87.561	-103.582	-146.249	-103.178	123.745	0.00057156	0.00040227	0.000131	645.18	1.6172e-06	1.7291e-06	1002	154.29	2.0904e-06	3.7242e-06	308.41	106.91	49.337	19.655	4.381e-06	51.57	7.3153e-05	5.969e-05	2.0762e-05	576.83	6.6789e-07	6.7191e-07	896.91	137.57	6.5208e-07	6.6492e-07	270	94.183	43.423	17.366	7.9103e-07	44.62	170.501	-110.512	-82.122	-139.594	51.853	-68.029	-138.707	-132.794	-0.740	-59.772	-132.229	-126.839	-127.124	-120.635	5.389	-120.900	-8191	255	
23935.875	1	1	0	0	0.25729	0.17003	0.060754	0.1448	0.11049	0.14026	0.35925	0.14336	0.076788	0.27309	0.13	0.022254	0.13489	0.14989	0.038417	0.077166	-3.4021	-4.4167	-3.475	-4.3125	-4	-3.3833	-4.4187	-3.7021	-3.7667	-4.4458	-3.4146	-4.1708	-4.2812	-3.5542	-4.4479	-3.7625	-14.486	-90.126	-88.892	-53.742	-28.557	8.657	147.458	170.751	176.577	11.711	131.231	-122.775	176.222	120.660	-51.914	-85.601	0.00048348	0.00024988	0.00010373	629.03	2.0731e-06	1.9585e-06	998.23	153.47	1.9881e-06	4.1742e-06	307.35	108.08	49.571	19.801	3.9031e-06	51.539	6.9847e-05	6.2963e-05	2.036e-05	561.79	6.3681e-07	7.1123e-07	892.05	137.08	6.6628e-07	7.3172e-07	270.16	94.708	43.675	17.508	7.9467e-07	44.998	169.898	-64.456	-100.761	-139.492	-56.588	-36.767	-138.705	-132.316	-11.908	3.899	-132.326	-127.348	-127.247	-121.086	-54.087	-121.458	-8191	255	
23935.994	1	1	0	0	0.12982	0.16026	0.10615	0.044594	0.024658	0.070284	0.20498	0.11256	0.10067	0.2037	0.30112	0.086857	0.22016	0.31816	0.11039	0.24217	-3.1208	-4.45	-3.4104	-4.0917	-4.2438	-3.4896	-4.4417	-3.8354	-3.6125	-4.5583	-3.5792	-4.0833	-4.2417	-3.5083	-4.4146	-3.9813	-101.617	71.336	-84.901	-118.620	-27.657	-56.947	197.215	175.481	-75.726	-56.906	-57.174	69.427	140.269	150.850	172.415	116.890	0.00056118	0.00020981	8.6012e-05	627.15	2.8427e-06	2.6234e-06	999.69	155.7	2.2785e-06	5.5592e-06	308.07	108.59	49.556	19.958	5.6477e-06	51.593	7.0066e-05	6.9555e-05	1.9371e-05	561.22	6.4929e-07	7.9299e-07	895.68	138.37	6.9413e-07	7.9273e-07	271.3	95.346	43.77	17.499	7.361e-07	44.887	154.141	-115.965	49.824	-139.066	9.346	-0.803	-138.938	-132.403	-78.573	-47.133	-132.578	-127.280	-126.969	-120.475	-27.178	-120.896	-8191	255	
23936.068	1	1	0	0	0.1324	0.1025	0.16366	0.22602	0.17516	0.19423	0.24603	0.094813	0.21205	0.076206	0.28578	0.16305	0.12043	0.17508	0.24438	0.14061	-3.3479	-4.4146	-3.7375	-3.9667	-4.3854	-3.3125	-4.3646	-4.2063	-3.4583	-4.4583	-3.6625	-3.8083	-4.35	-3.3583	-4.0854	-4.1687	-90.218	167.182	-30.880	169.411	20.172	-11.889	100.506	197.734	125.258	-57.357	168.504	-101.228	104.231	99.765	-152.168	178.351	0.00050997	0.00021563	0.00015766	615.71	3.7654e-06	1.2739e-06	982.25	153	3.1312e-07	3.3938e-06	307.52	107.28	49.101	19.675	2.4845e-06	51.014	7.1807e-05	7.1646e-05	1.8307e-05	552.51	6.5378e-07	8.049e-07	879.44	136.52	7.1201e-07	7.9661e-07	268.81	94.149	43.626	17.39	7.1194e-07	44.622	158.671	-87.373	-46.270	-139.253	-7.951	-2.170	-140.110	-134.454	85.293	56.662	-133.886	-129.223	-128.707	-122.000	-14.902	-123.090	-8191	255	
23936.188	1	1	0	0	0.096314	0.18238	0.097536	0.16614	0.12449	0.10348	0.36163	0.26903	0.21413	0.21657	0.06012	0.34019	0.21182	0.025481	0.40637	0.17493	-3.0146	-4.4688	-3.7646	-3.7854	-4.4083	-3.4813	-4.1604	-4.1667	-3.2708	-4.55	-3.7646	-3.7667	-4.5813	-3.3958	-3.8333	-4.1375	-53.747	141.747	151.329	158.938	-39.303	-1.221	183.441	-104.773	14.616	45.009	-127.205	85.213	119.030	107.465	7.131	198.831	0.00053794	0.00011037	0.00013295	617.4	1.1452e-06	3.627e-06	970.82	152.69	2.8155e-06	2.7126e-06	306.81	107.23	49.295	19.511	4.407e-06	51.136	7.7609e-05	7.3304e-05	1.7301e-05	552.71	7.3934e-07	7.856e-07	871.74	135.71	7.6754e-07	7.484e-07	267.97	94.333	43.822	17.391	6.8465e-07	44.667	160.761	-90.496	-73.640	-140.713	96.358	-88.413	-140.237	-133.937	-8.849	-35.761	-133.736	-128.732	-128.537	-122.029	-75.252	-122.605	-8191	255	
23936.283	1	1	0	0	0.078042	0.034367	0.0268	0.23781	0.11978	0.38987	0.14246	0.13174	0.095905	0.077129	0.16032	0.10514	0.12555	0.063639	0.11096	0.068155	-2.9521	-4.2771	-3.9062	-3.4833	-4.3688	-3.4167	-4.1167	-4.3646	-3.2854	-4.3292	-4.0771	-3.5958	-4.3708	-3.5604	-3.8042	-4.4062	139.374	-27.006	-123.392	112.943	-5.176	-37.145	120.963	166.197	128.143	128.881	154.692	45.030	-137.544	30.295	128.884	5.410	0.0005137	0.00039287	2.6455e-05	608.47	3.0342e-06	1.8326e-06	978.47	151.13	2.0819e-06	3.8957e-06	308.32	108.2	49.871	19.599	4.5568e-06	51.611	8.1301e-05	6.8528e-05	1.689e-05	545.86	7.5018e-07	7.3924e-07	873.65	135.94	7.8948e-07	7.45e-07	269.34	94.869	43.943	17.423	6.7956e-07	45.19	160.424	-110.591	4.635	-140.510	70.139	39.560	-139.949	-133.477	-90.020	-14.954	-133.686	-128.584	-128.450	-121.910	-0.590	-122.639	-8191	255	
23936.379	1	1	0	0	0.15737	0.042663	0.22541	0.32395	0.29798	0.15408	0.20672	0.11485	0.11633	0.06714	0.25024	0.029335	0.19949	0.10852	0.065013	0.17341	-3.0583	-4.1667	-3.9104	-3.4437	-4.3438	-3.6396	-3.6354	-4.4583	-3.425	-4.1458	-4.1375	-3.4542	-4.4479	-3.5438	-3.6937	-4.5062	-141.240	113.319	118.558	140.565	121.286	-16.012	134.999	152.910	-80.058	-57.142	99.641	-47.820	84.822	15.161	-49.776	-99.759	0.00057131	0.00044662	6.1937e-05	618.74	1.869e-06	1.0334e-07	985.82	153.14	2.775e-06	2.3128e-06	308.72	107.94	49.172	19.748	6.9078e-06	51.259	8.4329e-05	6.6845e-05	1.6572e-05	553.92	8.211e-07	7.0865e-07	881.73	136.93	8.0501e-07	6.9692e-07	269.34	95.072	43.702	17.401	6.3956e-07	44.924	165.501	-104.811	-81.944	-140.399	-91.449	-118.788	-139.868	-133.743	-6.741	-52.161	-133.329	-128.072	-128.255	-122.251	-18.094	-122.574	-8191	255	
23936.475	1	1	0	0	0.10404	0.33334	0.21422	0.12048	0.17243	0.074024	0.33989	0.18557	0.039402	0.41456	0.11297	0.11207	0.25895	0.27387	0.32516	0.12199	-2.9708	-4.1937	-4.125	-3.425	-4.3063	-3.775	-3.6375	-4.3396	-3.4854	-3.8479	-4.4042	-3.3167	-4.4083	-3.9479	-3.4854	-4.5167	46.185	-138.517	110.063	123.592	-134.875	63.669	130.383	-70.540	-100.044	-15.261	148.504	154.843	-126.908	150.396	13.527	169.267	0.00048418	0.00042848	0.00013291	611.17	1.0307e-06	1.3311e-06	980.1	152.97	2.2381e-06	3.395e-06	306.49	107.9	50.381	19.69	5.8955e-06	51.489	8.1742e-05	6.3773e-05	1.6213e-05	547.99	7.7569e-07	6.8539e-07	873.36	136.89	7.8352e-07	7.0058e-07	267.83	94.657	43.864	17.372	6.6661e-07	44.865	165.066	-52.817	-94.869	-140.439	-1.744	-105.013	-139.637	-133.729	-1.577	-8.711	-133.210	-127.962	-127.277	-120.641	-31.106	-122.075	-8191	255	
23936.596	1	1	0	0	0.10815	0.22723	0.16882	0.12653	0.056936	0.053211	0.1835	0.0068901	0.16382	0.10035	0.1281	0.26204	0.020557	0.21319	0.038037	0.11694	-3.1813	-3.9917	-4.4042	-3.4708	-4.2896	-3.8875	-3.6292	-4.4583	-3.4813	-3.9271	-4.275	-3.2917	-4.1396	-4.2625	-3.4833	-4.4375	156.669	-54.985	70.745	46.335	-45.433	-57.216	28.427	-40.152	112.478	-30.874	50.777	111.713	-91.967	138.605	163.745	-13.189	0.00052958	0.00031867	8.2452e-05	613.39	1.4599e-06	2.426e-06	981.17	152.81	3.1636e-06	4.637e-07	308.86	106.98	49.327	19.86	1.3058e-06	51.598	7.5545e-05	6.296e-05	1.6566e-05	551.07	7.2371e-07	6.6075e-07	877.84	136.96	7.2572e-07	6.75e-07	270.22	94.934	43.76	17.518	7.2526e-07	45.199	170.489	-49.349	-89.764	-139.700	-34.298	-40.908	-139.511	-133.821	-23.941	-20.165	-133.034	-128.099	-128.095	-121.325	-34.305	-122.242	-8191	255	
23936.668	1	1	0	0	0.13079	0.14378	0.11802	0.19819	0.088902	0.15971	0.21442	0.043485	0.072306	0.11616	0.07874	0.18595	0.13939	0.064138	0.21368	0.13722	-3.3937	-3.6813	-4.2917	-3.5708	-4.1104	-4.1396	-3.5375	-4.5333	-3.7458	-3.5812	-4.5042	-3.5333	-4.1104	-4.1604	-3.3917	-4.3208	197.450	47.511	-85.735	91.870	-83.302	-130.678	205.919	-46.371	-76.351	-33.868	-87.510	151.946	-10.351	145.203	-84.489	134.281	0.00051852	0.0005431	2.3826e-05	610.88	3.3006e-06	4.6713e-06	985.46	153.57	4.5243e-06	2.4143e-06	308.4	109.18	49.983	20.085	5.5353e-06	51.988	7.305e-05	5.9602e-05	1.8706e-05	548.32	7.258e-07	6.5302e-07	880.75	137.47	7.3473e-07	6.7443e-07	271.89	95.802	44.088	17.58	8.0183e-07	45.624	167.054	-72.165	-69.593	-139.921	-26.877	-52.525	-139.589	-133.267	-43.099	58.509	-132.787	-127.986	-128.516	-121.335	-99.931	-122.666	-8191	255	
23936.764	1	1	0	0	0.15403	0.041891	0.084225	0.35811	0.080682	0.10129	0.20532	0.13825	0.1521	0.14648	0.056127	0.11236	0.23703	0.1099	0.22634	0.094989	-3.3021	-3.6021	-4.4854	-3.4437	-3.8292	-4.0938	-3.4542	-4.3187	-3.8458	-3.6188	-4.5208	-3.7333	-3.9854	-4.4542	-3.4042	-4.4437	165.303	15.354	-49.369	152.585	-76.887	-38.341	100.120	122.357	7.914	-16.414	-18.779	41.922	83.934	110.273	-57.422	-112.805	0.00056723	0.00035649	7.1535e-05	619.94	3.108e-06	7.0372e-07	987.71	154.12	2.9363e-06	2.6229e-06	310.47	108.85	50.569	19.953	2.3822e-06	51.573	7.5244e-05	6.1257e-05	2.0756e-05	555.47	7.2233e-07	6.7207e-07	885.6	138.03	7.3162e-07	7.178e-07	272.75	95.639	44.245	17.626	8.567e-07	45.146	167.438	-73.702	202.309	-140.147	-29.633	202.172	-139.796	-133.425	-26.580	-6.026	-132.794	-128.480	-127.649	-121.696	37.869	-122.720	-8191	255	
23936.859	1	1	0	0	0.079167	0.018544	0.24032	0.12556	0.09593	0.095033	0.093931	0.12131	0.14404	0.02003	0.13365	0.16876	0.19116	0.0067725	0.024171	0.2091	-3.7583	-3.6958	-4.3354	-3.6417	-3.9917	-4.4479	-3.5729	-4.2146	-4.0083	-3.5479	-4.5542	-3.65	-3.65	-4.4625	-3.4562	-4.2083	-93.890	154.072	103.690	187.025	115.312	107.292	154.714	189.418	50.758	-8.698	115.878	158.644	-83.193	187.674	120.338	48.748	0.00056299	0.00017647	9.9322e-05	613.97	1.9789e-06	4.5735e-06	980.4	152.94	3.7355e-06	5.5879e-06	311.08	108.09	50.032	19.944	3.7136e-06	51.809	7.2456e-05	6.5372e-05	2.1495e-05	551.56	7.0224e-07	7.3247e-07	880.3	137.36	6.8088e-07	7.5411e-07	271.84	95.194	43.952	17.559	8.2875e-07	45.22	170.923	-34.233	-80.002	-140.247	-57.205	-67.611	-139.784	-133.703	-58.952	-75.916	-132.942	-128.415	-128.617	-121.837	-36.134	-122.705	-8191	255	
23936.980	1	1	0	0	0.10785	0.083819	0.09872	0.058466	0.11979	0.093327	0.16018	0.082469	0.18142	0.11679	0.14593	0.054466	0.19945	0.18722	0.18424	0.26546	-3.8187	-3.4583	-4.2875	-3.9042	-3.5521	-4.5833	-3.6521	-4.0938	-4.1062	-3.3563	-4.4604	-3.7646	-3.6396	-4.5146	-3.675	-4.0604	7.385	-100.410	-62.943	-106.600	93.443	27.073	154.135	143.216	183.618	140.269	62.944	-56.267	34.307	198.459	81.839	107.149	0.00053804	0.00023978	0.00015429	608.73	9.4564e-07	1.2279e-06	972.89	155.55	2.2685e-06	3.3666e-06	308.96	108.83	50.093	19.918	4.5357e-06	51.759	7.0602e-05	7.1756e-05	2.1029e-05	544.55	6.8311e-07	7.9484e-07	872.51	137.26	6.7086e-07	8.1354e-07	271.57	95.706	44.083	17.643	7.6914e-07	45.402	162.868	-21.034	-141.204	-139.965	-147.877	-60.240	-139.588	-133.505	12.722	-37.076	-133.287	-128.135	-128.173	-121.410	-32.717	-122.362	-8191	255	
23937.074	1	1	0	0	0.19794	0.1259	0.12653	0.14066	0.067182	0.045246	0.39449	0.29434	0.14187	0.30569	0.24034	0.10036	0.083883	0.10563	0.22355	0.28639	-4.0229	-3.4938	-4.2417	-3.9271	-3.55	-4.6813	-3.7125	-3.9333	-4.4187	-3.5792	-4.2812	-4.0667	-3.4021	-4.4812	-3.5604	-3.8667	33.738	83.940	-39.794	160.446	-103.179	28.232	70.863	131.936	35.354	132.901	137.360	-149.142	82.244	44.910	166.572	159.585	0.00036498	0.00020554	8.9347e-05	612.35	6.7914e-07	2.0264e-06	980.61	154.91	1.6881e-06	3.5427e-06	312.45	109.56	50.393	20.106	4.6901e-06	52.338	7.1674e-05	7.4262e-05	1.9464e-05	548.26	6.7846e-07	8.1009e-07	876.52	137.64	6.9215e-07	8.3679e-07	273.83	96.359	44.344	17.763	7.2608e-07	45.661	159.955	-119.125	-85.098	-140.521	66.082	-85.354	-139.744	-133.585	-104.816	-89.013	-133.395	-128.253	-128.312	-121.761	-10.830	-122.534	-8191	255	
23937.172	1	1	0	0	0.2816	0.18391	0.076685	0.07584	0.094271	0.19732	0.13336	0.040762	0.045377	0.073519	0.11886	0.069297	0.1104	0.38372	0.020337	0.34164	-4.125	-3.3937	-4.1687	-4.1354	-3.5229	-4.5646	-3.7583	-3.8042	-4.4729	-3.525	-4.2917	-4.45	-3.5312	-4.4292	-3.5604	-3.8646	120.192	-125.865	132.607	152.860	203.096	-78.122	185.711	-64.309	-126.497	90.621	121.048	-56.930	-69.727	183.520	201.104	176.723	0.00049042	0.00013219	6.3904e-05	619.04	1.9021e-06	3.2039e-06	984.09	154.44	1.7958e-06	9.0681e-08	310.43	108.92	50.159	20.191	4.7804e-07	51.576	7.4757e-05	7.5661e-05	1.8101e-05	554.33	7.4281e-07	8.1555e-07	879.98	137.96	7.3466e-07	7.7792e-07	271.04	95.572	44.318	17.673	6.9343e-07	45.012	164.429	190.056	-143.734	-140.300	-132.035	-104.379	-139.617	-133.883	-50.449	-7.897	-133.488	-128.264	-128.597	-121.793	27.136	-122.518	-8191	255	
23937.270	1	1	0	0	0.21737	0.11236	0.075975	0.070681	0.13068	0.066743	0.22154	0.30661	0.14661	0.076183	0.24073	0.18643	0.22846	0.21351	0.084969	0.048944	-4.2042	-3.4667	-4.0104	-4.2646	-3.4104	-4.4167	-4.0833	-3.6542	-4.4187	-3.5979	-4.0813	-4.2812	-3.4208	-4.3375	-4.0271	-3.5312	179.821	-119.840	132.235	-86.293	19.478	-131.694	58.717	136.355	3.030	126.927	137.278	125.456	-92.965	118.243	4.301	156.898	0.00053164	0.00063595	6.3196e-05	617.89	1.3337e-06	3.3395e-06	983.66	153.58	1.0325e-06	5.4537e-06	309.81	108.68	50.733	19.878	4.2701e-06	51.635	7.8643e-05	7.35e-05	1.7977e-05	552.27	8.0946e-07	7.5528e-07	877.88	137.13	7.9552e-07	7.512e-07	270.6	95.436	44.39	17.605	6.5986e-07	45.186	159.925	-81.249	-72.693	-139.720	132.033	-40.393	-139.699	-133.715	-70.285	-45.674	-133.236	-128.264	-128.568	-121.667	0.508	-122.678	-8191	255	
23937.363	1	1	0	0	0.16577	0.032025	0.032664	0.11709	0.19885	0.066171	0.14846	0.12402	0.11119	0.099379	0.11989	0.080232	0.034075	0.045133	0.23109	0.16447	-4.2896	-3.6167	-3.8625	-4.3833	-3.3688	-4.3542	-4.2375	-3.5479	-4.4792	-3.7021	-3.9	-4.5958	-3.4062	-4.1062	-4.0646	-3.4354	99.428	64.177	-138.107	-23.767	69.228	-47.169	56.945	155.136	101.949	106.500	-141.987	-139.277	62.334	121.763	-25.431	133.760	0.00052479	0.00085695	4.7073e-05	607.27	1.3427e-06	3.432e-06	967.29	153.73	4.6848e-06	5.4438e-06	308.81	109.17	49.681	20.12	1.1317e-06	52.065	8.4109e-05	6.6137e-05	1.7265e-05	543.85	8.0293e-07	7.2851e-07	866.84	136.84	8.0548e-07	7.2027e-07	270.4	96.031	44.195	17.757	6.5048e-07	45.53	163.945	-88.937	-71.201	-140.032	-75.918	-8.279	-139.824	-133.594	-72.603	-42.478	-133.440	-128.038	-128.359	-122.024	151.605	-122.529	-8191	255	
23937.459	1	1	0	0	0.20297	0.24836	0.12205	0.16023	0.059246	0.10931	0.1573	0.26844	0.046848	0.21485	0.15963	0.17657	0.17943	0.20092	0.10479	0.1596	-4.0896	-3.6854	-3.5708	-4.525	-3.4667	-4.0854	-4.2729	-3.4229	-4.4625	-3.8	-3.75	-4.5271	-3.5312	-4.0396	-4.2375	-3.5563	123.135	102.866	-133.437	200.899	24.788	-71.720	130.126	156.385	171.140	135.185	-50.680	94.358	143.442	-103.118	-115.923	178.259	0.00045577	0.00055865	7.4633e-05	609.08	2.0279e-06	1.521e-06	981.34	153.5	4.157e-06	4.9045e-06	309.95	110.15	50.395	20.114	1.3715e-06	52.226	8.428e-05	6.5815e-05	1.6769e-05	545.97	8.171e-07	7.1066e-07	878.48	138.13	8.04e-07	7.1573e-07	272.83	96.82	44.692	17.805	6.8265e-07	45.594	157.409	-66.546	-122.697	-140.284	-36.650	-84.146	-139.755	-133.729	-33.622	-20.007	-133.503	-128.250	-128.562	-122.073	-5.681	-122.716	-8191	255	
23937.578	1	1	0	0	0.31067	0.12147	0.19706	0.21139	0.20069	0.17514	0.16928	0.38304	0.20354	0.05659	0.14477	0.12299	0.14513	0.050749	0.21654	0.080462	-3.9208	-3.8792	-3.5896	-4.5958	-3.4646	-3.9167	-4.4333	-3.5687	-4.2688	-3.9875	-3.575	-4.2937	-3.5312	-3.7792	-4.1875	-3.5396	-146.584	-110.205	13.623	100.585	162.108	-19.844	100.619	-141.949	102.971	30.476	-125.371	-97.698	36.215	-71.339	162.427	-9.165	0.00056149	0.00055507	9.4443e-05	622.44	3.1561e-06	2.8683e-06	979.51	154.26	2.4029e-06	5.1324e-06	309.96	109.48	50.199	20.161	2.4948e-06	51.681	8.1e-05	6.3654e-05	1.7331e-05	557.9	7.855e-07	6.9826e-07	880.79	138.05	7.5707e-07	6.6395e-07	271.24	96.065	44.234	17.695	7.119e-07	45.342	170.155	-138.501	-86.413	-140.206	-23.634	-122.409	-139.681	-133.561	-54.460	-1.271	-133.735	-128.698	-128.391	-121.807	-122.080	-122.475	-8191	255	
23937.674	1	1	0	0	0.042777	0.16884	0.12805	0.072428	0.2547	0.026876	0.16543	0.1722	0.27896	0.11061	0.17608	0.25892	0.24187	0.13692	0.13744	0.19303	-3.9771	-4.2833	-3.6437	-4.7917	-3.7646	-3.7375	-4.4437	-3.4396	-4.0354	-4.1458	-3.5292	-4.4521	-3.8	-3.75	-4.4208	-3.4375	-35.448	9.817	123.534	200.265	-129.978	-122.695	-91.961	81.099	149.447	183.122	73.322	108.055	87.323	-9.315	194.945	194.846	0.00049858	0.00032291	8.4027e-05	622.36	3.0246e-06	1.9966e-06	986.35	155.28	2.7064e-06	4.1417e-06	311.69	109.41	50.172	20.081	3.0531e-06	51.884	7.7622e-05	6.2495e-05	1.8788e-05	558.47	7.2955e-07	6.7337e-07	886.73	138.83	7.2727e-07	6.5455e-07	272.88	96.186	44.347	17.696	7.9297e-07	45.56	154.890	-88.089	-79.731	-140.556	12.883	-90.379	-140.076	-133.700	-8.423	-19.006	-133.428	-128.273	-128.386	-121.719	-45.834	-123.044	-8191	255	
23937.770	1	1	0	0	0.14832	0.14961	0.16264	0.072972	0.078359	0.13451	0.095745	0.12608	0.39919	0.22896	0.11972	0.061109	0.11092	0.080919	0.09107	0.10199	-3.9313	-4.0354	-3.5521	-4.3958	-3.875	-3.6312	-4.6562	-3.5125	-4.0687	-4.2021	-3.3875	-4.4854	-4.0437	-3.5896	-4.4458	-3.5417	-66.704	-142.264	96.399	-49.389	44.053	181.289	-10.834	-22.737	56.736	4.188	101.707	148.848	-34.830	147.411	-20.195	18.061	0.00057358	0.00024173	0.00010847	628.33	2.2279e-06	3.4423e-06	998.26	155.35	1.9093e-06	4.2458e-06	313.75	110	50.854	20.43	4.601e-06	52.344	7.569e-05	6.2653e-05	2.0005e-05	563.84	7.1859e-07	6.55e-07	892.9	139.22	7.2585e-07	6.6627e-07	274.82	97.054	44.622	17.873	8.3857e-07	45.787	163.945	-81.437	-77.026	-140.314	-33.884	2.222	-139.561	-133.973	9.396	-1.481	-133.901	-128.152	-128.405	-121.669	-48.825	-122.359	-8191	255	
23937.867	1	1	0	0	0.27166	0.08171	0.33872	0.16639	0.15543	0.16053	0.11425	0.12309	0.12708	0.1019	0.2112	0.17098	0.36049	0.25572	0.098862	0.11577	-3.7333	-4.3396	-3.3146	-4.3167	-4.0188	-3.5875	-4.6417	-3.6937	-3.8167	-4.2729	-3.3854	-4.2458	-3.9771	-3.3479	-4.3938	-3.8083	70.267	46.963	-48.667	-14.688	-141.828	-129.945	46.219	168.608	116.117	-145.796	103.106	46.627	-13.966	-86.105	67.600	147.770	0.00052269	0.00062085	4.1046e-05	631.12	1.9442e-06	2.3333e-06	1011.3	158.44	2.6842e-06	1.6672e-06	313.79	110.89	50.79	20.346	1.2695e-06	52.399	7.5242e-05	6.5217e-05	2.2385e-05	566.9	7.4064e-07	7.5038e-07	907.61	141.03	7.3852e-07	7.4361e-07	277.04	97.483	45.052	17.96	8.4293e-07	45.731	163.541	-97.676	-65.883	-140.715	-96.401	-33.704	-140.146	-134.371	-11.566	165.968	-133.614	-128.528	-128.364	-122.334	-28.063	-122.782	-8191	255	
23937.963	1	1	0	0	0.22087	0.039538	0.15693	0.27428	0.19227	0.14395	0.046215	0.029096	0.12741	0.18902	0.21843	0.032455	0.17906	0.21256	0.26093	0.35179	-3.3354	-4.4021	-3.2375	-4.2438	-4.1917	-3.475	-4.55	-3.7188	-3.6854	-4.4375	-3.7542	-4.0646	-4.3271	-3.4792	-4.2583	-4.0458	-50.450	-52.835	-56.185	174.410	-113.186	45.782	158.031	-42.492	206.963	57.339	95.553	-126.934	137.254	-103.135	58.916	190.367	0.00055973	0.00025593	7.181e-05	641.97	2.7685e-06	1.6904e-06	1008.3	156.41	2.6949e-06	3.1191e-06	311.75	109.53	50.854	20.272	5.0014e-06	52.015	7.3799e-05	6.8873e-05	2.1104e-05	574.64	6.7794e-07	7.4489e-07	908.1	139.96	6.7392e-07	7.7954e-07	274.46	96.42	44.648	17.899	7.7947e-07	45.373	163.763	-62.579	-104.538	-140.436	12.751	-59.551	-139.975	-133.501	-17.897	-11.304	-133.746	-127.961	-128.448	-121.465	-30.090	-122.045	-8191	255	
23938.059	1	1	0	0	0.11991	0.11276	0.11807	0.10222	0.089076	0.28102	0.12097	0.13572	0.13964	0.058236	0.063764	0.11439	0.047438	0.16643	0.13549	0.064912	-3.2208	-4.4292	-3.3458	-4	-4.3063	-3.3812	-4.4667	-3.9	-3.4062	-4.4542	-3.7042	-4.0771	-4.2729	-3.5896	-4.2646	-4.0229	-107.601	101.773	-128.932	179.351	-64.958	-52.315	-144.290	112.050	198.616	82.469	203.309	-35.132	-25.511	-124.041	66.693	83.479	0.00055793	0.00034049	9.6651e-05	651.36	2.1682e-06	4.665e-06	1020.1	159.31	3.2971e-06	1.5698e-06	315.46	110.33	51.225	20.227	3.0342e-06	51.955	7.179e-05	7.4023e-05	1.9587e-05	580.53	6.6271e-07	8.0744e-07	915.02	141.3	6.9479e-07	7.8953e-07	275.58	96.737	45.135	17.953	7.2597e-07	45.465	162.271	-141.110	-66.173	-140.638	-29.494	-20.421	-140.060	-133.963	-58.850	-41.070	-133.512	-128.470	-128.501	-122.083	-34.718	-122.493	-8191	255	
23938.154	1	1	0	0	0.076706	0.056177	0.037796	0.21598	0.089314	0.13085	0.18491	0.023104	0.24209	0.12776	0.090539	0.10719	0.1198	0.1099	0.089091	0.010701	-3.1375	-4.4667	-3.7438	-3.8792	-4.4229	-3.3812	-4.375	-4.2292	-3.45	-4.4396	-3.8521	-3.9313	-4.5312	-3.4313	-4.1021	-4.1312	-9.051	-3.160	115.250	-139.574	41.368	7.723	187.070	164.138	161.754	54.210	95.326	116.188	155.813	25.194	-32.958	61.282	0.00049232	0.00043355	5.1803e-05	643.66	1.3564e-06	6.6925e-06	1019.4	158.54	2.8318e-06	3.1792e-06	314.71	110.03	51.135	20.318	4.2602e-07	52.81	7.6759e-05	7.4258e-05	1.8385e-05	577.07	7.0153e-07	8.053e-07	907.77	140.65	7.4243e-07	7.9621e-07	276.16	96.894	44.999	17.963	7.1658e-07	45.928	169.182	-64.322	-44.780	-140.912	-50.511	-29.018	-140.273	-133.790	-55.176	-29.242	-133.283	-128.355	-128.636	-121.731	33.930	-122.663	-8191	255	
23938.275	1	1	0	0	0.23881	0.1032	0.21531	0.11782	0.16248	0.1015	0.16346	0.08151	0.32114	0.1429	0.12893	0.11327	0.29367	0.2089	0.11364	0.13338	-3.0771	-4.5604	-3.8583	-3.8583	-4.4625	-3.4854	-4.1854	-4.3583	-3.4313	-4.4479	-4.0417	-3.5021	-4.4437	-3.5938	-3.9604	-4.3833	66.350	198.135	-97.362	136.316	-139.606	-106.227	179.565	61.613	-8.112	-33.535	-92.221	-29.020	136.537	186.446	185.971	59.999	0.0005406	1.3147e-05	0.00012403	644.93	1.3853e-06	3.5525e-06	1014.8	157.88	2.5474e-06	7.4479e-07	314.47	109.68	51.129	20.097	6.1111e-06	52.017	8.0472e-05	7.2564e-05	1.7882e-05	578.53	7.8477e-07	7.9571e-07	909.82	141.09	8.211e-07	7.8646e-07	276.04	96.753	45.191	17.887	7.0612e-07	45.556	157.282	175.633	-16.662	-140.513	202.490	-26.905	-140.126	-133.481	68.869	-113.412	-133.353	-128.354	-128.256	-121.776	-15.800	-122.766	-8191	255	
23938.371	1	1	0	0	0.13735	0.073574	0.096066	0.1291	0.10111	0.10816	0.21338	0.28327	0.293	0.066722	0.055978	0.081692	0.12652	0.096928	0.094124	0.019729	-3.1167	-4.3063	-3.8375	-3.4833	-4.5042	-3.4521	-3.9292	-4.2646	-3.2646	-4.1354	-4.0208	-3.5875	-4.4771	-3.6396	-3.775	-4.4021	-112.620	191.610	129.901	-83.340	88.748	121.300	165.916	78.395	-71.744	123.234	-74.957	-67.061	171.589	-72.170	138.998	-45.379	0.00054984	0.00012931	5.7269e-05	639.15	2.809e-06	6.3423e-07	1006.9	156.48	2.166e-06	3.0087e-06	309.89	109.7	51.184	20.004	4.5311e-06	51.942	8.2839e-05	6.9606e-05	1.7309e-05	572.98	8.2842e-07	7.2392e-07	903.3	140.29	8.274e-07	7.3649e-07	273.45	96.384	45.145	17.762	6.8596e-07	45.432	163.610	-46.245	175.892	-140.498	-60.422	-24.853	-140.231	-134.016	-25.015	33.669	-133.686	-128.719	-128.303	-121.728	-18.907	-122.931	-8191	255	
23938.467	1	1	0	0	0.081438	0.24427	0.23294	0.23812	0.12745	0.24213	0.054208	0.093386	0.12128	0.097003	0.34421	0.057687	0.25697	0.10565	0.16503	0.14836	-3.1646	-4.2333	-3.9979	-3.5521	-4.4354	-3.7729	-3.9	-4.4396	-3.3917	-4.2479	-4.1896	-3.4708	-4.5104	-3.8708	-3.6625	-4.6521	11.433	193.254	71.653	194.619	200.793	-128.966	95.617	183.467	-68.210	129.521	161.192	120.827	-71.736	-134.906	66.832	-123.065	0.00055559	8.099e-05	9.2e-05	635.47	3.5788e-06	2.7028e-06	1004.3	156.52	2.4679e-06	1.2203e-06	312.68	109.29	50.74	20.322	4.4807e-06	51.79	8.4262e-05	6.6415e-05	1.6325e-05	567.61	8.084e-07	6.9872e-07	899.61	139.85	7.9441e-07	7.1489e-07	274.47	96.355	44.934	17.815	6.9685e-07	45.448	170.525	1.863	-51.107	-140.339	-33.751	-11.344	-139.844	-133.344	-10.251	23.946	-133.247	-128.413	-128.162	-121.546	-72.450	-122.663	-8191	255	
23938.539	1	1	0	0	0.11146	0.16128	0.10623	0.16625	0.15211	0.063218	0.21756	0.065577	0.32921	0.25343	0.17847	0.25614	0.15112	0.17053	0.053433	0.26233	-3.2917	-3.9542	-4.1813	-3.4875	-4.3	-3.9104	-3.8479	-4.4479	-3.5458	-3.9646	-4.3667	-3.3688	-4.3625	-3.9979	-3.5729	-4.6625	-147.561	20.363	-72.803	103.548	-90.601	203.225	149.386	66.995	53.685	-79.263	134.156	186.604	-117.513	158.075	-106.180	-146.695	0.0004868	0.00027587	0.00014284	638.53	1.5866e-06	1.08e-06	1006.8	157.78	3.4807e-06	1.5955e-06	313	109.33	51.242	19.959	1.765e-06	51.77	8.2035e-05	6.601e-05	1.6527e-05	571.64	7.9901e-07	6.8966e-07	902.93	140.65	7.7597e-07	7.0596e-07	274.79	96.722	44.853	17.664	7.1481e-07	45.378	150.794	-53.180	-67.181	-140.324	-15.999	-13.692	-139.897	-133.750	-40.551	-16.724	-133.439	-128.585	-128.461	-121.677	76.092	-122.377	-8191	255	
23938.658	1	1	0	0	0.2313	0.1327	0.32834	0.018779	0.1405	0.11617	0.22717	0.061159	0.12752	0.15958	0.12953	0.26527	0.10457	0.12246	0.069784	0.34525	-3.2896	-3.8958	-4.3771	-3.3375	-4.1958	-3.9333	-3.475	-4.675	-3.7479	-3.6375	-4.5729	-3.4854	-4.0375	-4.2083	-3.4167	-4.4771	27.860	-110.713	26.197	-75.596	-33.465	189.774	135.658	142.723	-60.755	0.965	143.117	116.060	-145.444	152.661	112.919	95.396	0.00051492	0.00016573	9.6689e-05	636.31	1.451e-06	2.3065e-06	1009	155.5	2.9448e-06	1.9649e-06	310.26	109.29	50.574	19.98	4.552e-06	51.519	7.6463e-05	6.112e-05	1.7482e-05	571.54	7.3252e-07	6.7333e-07	903.04	140.4	7.379e-07	6.6962e-07	273.49	96.099	44.452	17.577	7.7366e-07	45.138	164.454	-48.473	-58.489	-140.405	23.573	-51.675	-140.141	-133.837	-77.171	8.337	-133.446	-128.540	-128.767	-122.184	20.182	-122.978	-8191	255	
23938.756	1	1	0	0	0.30566	0.045872	0.054121	0.1177	0.11992	0.21351	0.24395	0.22504	0.11172	0.039052	0.17668	0.1507	0.20882	0.12663	0.11101	0.10277	-3.3208	-3.7458	-4.3833	-3.6417	-3.9437	-4.1208	-3.4292	-4.6833	-4.0375	-3.75	-4.4646	-3.5917	-4.15	-4.4917	-3.3417	-4.5021	133.558	192.375	191.474	205.865	133.676	130.720	43.758	116.081	-13.728	125.414	138.392	-111.597	-31.731	-135.695	175.625	69.776	0.00050377	0.00049869	8.2692e-05	637.01	4.701e-06	4.1681e-06	1000.9	155.87	2.6744e-06	3.4454e-06	310.47	109	50.489	20.091	3.3333e-06	51.575	7.5775e-05	6.0105e-05	1.9167e-05	572.62	7.3487e-07	6.6042e-07	900.68	139.7	7.0831e-07	6.6613e-07	273.23	95.93	44.382	17.63	8.1189e-07	45.195	171.615	-95.649	-11.298	-140.783	-22.543	-18.692	-140.054	-133.883	25.187	-34.828	-133.918	-128.245	-128.451	-122.080	-45.069	-122.627	-8191	255	
23938.852	1	1	0	0	0.23014	0.23111	0.17256	0.12082	0.19855	0.30187	0.22564	0.11045	0.2506	0.18057	0.22332	0.32384	0.059227	0.19906	0.20141	0.13988	-3.5396	-3.5875	-4.725	-3.6437	-3.8688	-4.45	-3.5521	-4.2042	-4.1271	-3.4583	-4.4437	-3.7625	-4.075	-4.45	-3.4417	-4.3438	106.256	94.613	-55.127	-105.529	61.396	64.429	63.729	207.344	33.441	-40.459	106.199	-144.126	12.732	199.968	191.603	171.255	0.00050924	0.00010288	7.4605e-05	636.93	2.261e-06	1.3756e-06	1004.9	155.04	2.446e-06	1.453e-06	310.93	108.96	50.598	20.172	4.5925e-06	51.74	7.1648e-05	6.1557e-05	2.0616e-05	570.06	6.8173e-07	6.8539e-07	901.11	139.31	6.955e-07	7.1002e-07	274.07	96.087	44.334	17.634	8.3587e-07	45.203	156.156	80.852	145.053	-140.834	63.274	-4.039	-140.128	-134.202	-12.126	-88.922	-133.913	-128.720	-128.758	-121.969	1.410	-122.891	-8191	255	
23938.947	1	1	0	0	0.11291	0.32399	0.18019	0.17377	0.06064	0.10749	0.12858	0.25155	0.031931	0.11915	0.15035	0.20003	0.053981	0.21019	0.17421	0.12784	-3.8396	-3.3688	-4.425	-3.6042	-3.6375	-4.4542	-3.6521	-4.3313	-4.25	-3.475	-4.4167	-3.7271	-3.7167	-4.5604	-3.4375	-4.0792	108.396	-60.129	-145.611	108.292	72.373	-125.236	101.603	-110.559	146.974	82.926	-94.176	130.318	169.901	194.776	-136.762	180.686	0.00055838	0.00042878	7.7395e-05	634.25	2.7928e-06	1.6645e-06	1010.8	157.4	3.1294e-06	2.182e-06	313.8	109.93	50.323	20.391	4.7663e-07	51.969	7.1619e-05	6.7127e-05	2.1342e-05	570.89	7.0008e-07	7.5356e-07	907.82	140.12	6.9087e-07	7.8426e-07	275.99	96.75	44.402	17.787	8.1964e-07	45.463	169.451	-88.052	-42.564	-140.593	-20.637	-119.874	-140.123	-134.224	-82.330	16.039	-133.743	-128.703	-128.690	-121.993	-95.041	-122.781	-8191	255	
23939.068	1	1	0	0	0.23741	0.038911	0.2037	0.18075	0.046834	0.067659	0.1933	0.20266	0.18062	0.029527	0.18754	0.051428	0.1598	0.1526	0.17224	0.26354	-4.0229	-3.4125	-4.4479	-3.9646	-3.7042	-4.5833	-3.475	-4.0167	-4.2	-3.5521	-4.4979	-4.0375	-3.5062	-4.5229	-3.6396	-3.9646	74.832	-9.658	85.551	-109.982	205.333	-133.007	124.565	191.932	143.965	130.036	-140.450	114.200	47.281	106.535	-62.786	181.411	0.00058643	6.9708e-05	5.3362e-05	634.46	2.5186e-06	1.5495e-06	1008.4	156.04	1.9793e-06	3.5717e-06	309.15	108.86	50.357	19.91	1.8024e-06	51.505	6.9697e-05	7.3924e-05	2.0876e-05	569.57	7.0622e-07	8.2e-07	903.47	139.53	6.942e-07	8.2955e-07	273.43	95.549	44.165	17.648	8.1236e-07	44.93	157.217	-124.514	196.143	-140.382	28.741	-87.349	-139.694	-133.872	14.289	163.717	-133.927	-128.238	-128.640	-121.350	131.628	-122.701	-8191	255	
23939.164	1	1	0	0	0.095466	0.13121	0.1698	0.30873	0.24203	0.13541	0.074531	0.32307	0.18959	0.21505	0.17964	0.19364	0.23883	0.089656	0.085591	0.103	-4.0813	-3.3187	-4.1479	-4.1208	-3.5812	-4.4417	-3.7042	-3.8	-4.4583	-3.3646	-4.3417	-4.2208	-3.4667	-4.4667	-3.5812	-3.8125	44.784	-43.249	62.510	163.766	-4.094	-45.622	116.418	192.338	70.560	-49.081	-128.603	-6.218	136.691	18.138	-3.501	27.629	0.00048378	0.0001439	0.00013076	639.01	2.9407e-06	2.5386e-06	1005.8	154.84	3.1659e-06	3.2756e-06	312.19	110.04	50.129	19.869	2.6529e-06	51.801	7.6169e-05	7.9525e-05	2.0589e-05	572.53	7.5105e-07	8.903e-07	902.99	139.05	7.6453e-07	8.7788e-07	273.32	96.049	44.409	17.674	7.742e-07	45.167	160.540	-96.639	-47.257	-140.330	-17.828	-22.746	-140.066	-133.908	-38.966	-54.360	-133.421	-128.177	-128.694	-121.018	-40.379	-122.357	-8191	255	
23939.260	1	1	0	0	0.26668	0.31384	0.17663	0.13053	0.13312	0.084281	0.23861	0.21289	0.18154	0.15414	0.23308	0.22112	0.17251	0.11977	0.067893	0.10684	-4.0062	-3.4792	-4.2354	-4.1667	-3.4396	-4.5312	-3.8812	-3.7729	-4.3438	-3.4604	-4.0729	-4.1979	-3.3854	-4.4292	-3.8458	-3.6875	-130.818	-76.126	-136.751	124.993	51.084	-149.521	98.921	141.794	32.823	-118.702	199.575	177.649	-52.472	69.911	-120.418	161.832	0.00053572	0.00044326	7.4675e-05	634.05	1.3924e-06	2.1041e-06	1007.3	157.13	2.3632e-06	5.1333e-06	311.11	110	50.26	19.935	1.6185e-06	51.426	8.1804e-05	7.9677e-05	2.0134e-05	568.76	8.4926e-07	8.7622e-07	903.25	139.69	8.4748e-07	8.8284e-07	273.86	96.391	44.691	17.766	7.7845e-07	45.175	161.457	-52.991	-59.628	-140.368	-65.906	199.036	-139.606	-133.784	-49.798	-25.366	-133.266	-128.137	-128.153	-121.215	23.454	-122.176	-8191	255	
23939.355	1	1	0	0	0.11344	0.1448	0.11918	0.18963	0.074842	0.019388	0.1677	0.11626	0.23273	0.20024	0.023448	0.078378	0.11022	0.14193	0.036056	0.12332	-4.1771	-3.4188	-3.9979	-4.3458	-3.325	-4.2562	-4.1396	-3.5563	-4.5542	-3.675	-4.025	-4.3521	-3.3354	-4.3292	-4.0979	-3.7396	110.053	-39.013	-84.358	-122.752	178.140	144.795	63.636	131.399	0.413	126.873	105.937	-109.415	127.902	-95.436	97.977	-20.748	0.00059983	0.00046614	0.00016244	641.63	3.6093e-06	3.4325e-06	1022.1	157	1.8747e-06	4.3551e-06	315.36	109.75	50.769	20.143	8.9492e-06	52.178	9.1854e-05	7.8437e-05	1.975e-05	575.6	9.1582e-07	8.7665e-07	911.75	140.84	9.6083e-07	8.7258e-07	277.73	97.256	45.217	17.847	8.049e-07	45.724	155.329	-82.112	-34.406	-140.265	-61.882	-28.118	-139.962	-133.702	-122.691	18.187	-132.888	-127.873	-128.345	-121.557	-39.141	-122.454	-8191	255	
23939.451	1	1	0	0	0.19418	0.23814	0.11024	0.13656	0.071632	0.18296	0.02811	0.031394	0.20723	0.22329	0.1511	0.078708	0.16066	0.20789	0.10505	0.13702	-4.2063	-3.4417	-3.9521	-4.6042	-3.3688	-4.1521	-4.325	-3.45	-4.4542	-3.8063	-3.8187	-4.5021	-3.4771	-4.15	-4.05	-3.4979	55.606	147.247	118.254	173.077	-145.933	102.744	-28.155	-131.926	-17.437	28.095	169.065	114.696	105.702	76.872	40.640	197.184	0.00054972	0.00029903	0.0001158	659.94	4.6141e-07	2.8202e-06	1033.6	159.07	3.4367e-06	5.5827e-06	314.34	110.14	50.951	20.061	4.2233e-06	51.835	0.00010085	8.237e-05	2.0667e-05	592.04	9.8633e-07	8.5598e-07	925.3	142.15	1.0059e-06	8.5783e-07	276.97	97.038	45.154	17.773	8.029e-07	45.528	162.857	-44.124	-88.916	-140.515	72.392	-17.232	-139.688	-133.683	-25.941	-24.456	-133.758	-128.196	-128.388	-121.269	-31.000	-122.620	-8191	255	
23939.549	1	1	0	0	0.18417	0.29817	0.10187	0.071883	0.20246	0.13234	0.14861	0.16447	0.26438	0.12622	0.07922	0.12389	0.31164	0.073603	0.13883	0.15134	-4.0167	-3.7292	-3.5354	-4.525	-3.2833	-4.125	-4.3938	-3.4979	-4.4458	-3.8375	-3.6917	-4.4792	-3.6188	-3.9146	-4.2604	-3.5021	96.805	74.066	141.415	-127.312	-78.982	-78.128	150.665	-77.669	-150.229	-85.200	-82.481	164.791	184.901	-121.492	96.224	71.879	0.0005071	0.00020611	2.763e-05	658.02	3.0797e-06	1.1702e-06	1025.6	158.55	2.7493e-07	1.4156e-06	314.19	110.39	51.074	20.146	2.1831e-06	51.875	9.5688e-05	7.3354e-05	2.0004e-05	586.96	8.9818e-07	8.2152e-07	921.52	142.07	8.9569e-07	8.0051e-07	277.01	97.317	45.02	17.806	7.571e-07	45.543	160.992	-81.103	162.307	-140.542	-40.166	-33.595	-140.224	-134.059	-20.630	89.197	-133.307	-127.805	-128.167	-121.546	-147.739	-122.297	-8191	255	
23939.668	1	1	0	0	0.073512	0.064327	0.22081	0.2404	0.15681	0.29894	0.14826	0.027193	0.19854	0.039522	0.18537	0.26134	0.16484	0.122	0.20823	0.42025	-4.0646	-3.9437	-3.5646	-4.6	-3.7396	-3.9521	-4.4375	-3.5083	-4.2083	-3.9167	-3.6458	-4.55	-3.5792	-3.8708	-4.3125	-3.375	-25.338	-86.214	-64.139	-64.836	207.351	100.529	-132.862	-5.440	-50.600	69.506	191.208	-151.159	-101.775	-121.429	136.605	173.213	0.00059168	0.00034442	9.1381e-05	653.47	2.1133e-06	5.9145e-06	1037.3	159.6	2.831e-06	2.4695e-06	316.79	110.49	50.642	19.975	3.4809e-06	52.701	8.867e-05	6.8965e-05	1.9674e-05	586.76	8.2508e-07	7.757e-07	927.19	142.33	8.5281e-07	7.5336e-07	278.36	97.583	44.903	17.818	8.257e-07	46.02	165.957	-32.563	16.205	-140.015	49.331	-45.339	-139.805	-133.847	-44.919	-127.324	-132.980	-127.970	-128.347	-121.766	-51.472	-122.048	-8191	255	
23939.764	1	1	0	0	0.23563	0.050669	0.077989	0.17142	0.14751	0.21937	0.023243	0.046711	0.18496	0.092835	0.19824	0.031794	0.16183	0.16517	0.18482	0.20343	-3.95	-4.125	-3.4896	-4.425	-3.7021	-3.5917	-4.5375	-3.7042	-4.0583	-4.2083	-3.5354	-4.65	-3.9042	-3.7438	-4.6083	-3.5917	-108.512	167.021	86.304	-59.622	159.628	-90.262	168.231	146.691	7.426	63.856	194.260	74.119	-73.760	-49.616	-147.952	195.333	0.0004666	0.00048782	5.6698e-05	656.28	3.8609e-06	4.6369e-06	1033	158.16	2.1013e-06	5.1098e-06	317.71	110.03	50.893	20.251	2.9522e-06	51.774	8.2764e-05	6.7635e-05	2.1157e-05	588.84	8.1465e-07	7.7214e-07	925.08	141.86	7.9423e-07	7.1904e-07	278.02	97.237	44.82	17.829	8.6168e-07	45.565	163.858	-122.451	-38.105	-140.314	-2.254	-41.642	-139.976	-133.728	-84.289	1.020	-133.110	-127.811	-127.942	-121.414	16.168	-122.013	-8191	255	
23939.836	1	1	0	0	0.066562	0.19544	0.15558	0.30458	0.071133	0.22231	0.34783	0.22104	0.076434	0.13596	0.18726	0.055971	0.20025	0.26075	0.073541	0.29451	-3.8	-4.1854	-3.5187	-4.3438	-3.7687	-3.5667	-4.5583	-3.6771	-3.9688	-4.3521	-3.5	-4.4021	-3.9958	-3.6667	-4.5792	-3.7667	-121.607	-31.828	-18.091	200.556	-88.367	161.020	150.088	-115.095	-54.610	-94.684	166.485	128.668	143.016	181.152	56.370	85.210	0.00049806	0.000255	6.5088e-05	657.12	2.47e-06	2.4433e-06	1025	157.07	1.0846e-06	1.2075e-06	313.52	109.82	49.896	20.077	4.6505e-07	51.822	8.2903e-05	6.7477e-05	2.2495e-05	587.43	7.5906e-07	7.5866e-07	919.02	141.09	7.7553e-07	7.2392e-07	275.58	96.217	44.608	17.766	9.0812e-07	45.34	160.668	-122.748	-75.482	-140.654	-48.882	-9.239	-139.605	-133.284	-12.424	-142.922	-133.331	-127.948	-127.636	-121.568	104.562	-121.960	-8191	255	
23939.955	1	1	0	0	0.17748	0.28873	0.15826	0.1491	0.12805	0.12232	0.31498	0.17364	0.18519	0.043821	0.10967	0.27806	0.16306	0.18353	0.065988	0.24315	-3.5167	-4.3458	-3.0812	-4.3479	-4.1292	-3.4958	-4.4583	-3.6063	-3.6979	-4.3938	-3.5208	-4.3083	-4.1604	-3.5625	-4.4646	-3.7854	7.886	-132.268	-21.979	-118.034	43.728	-65.157	157.061	51.776	22.245	156.573	115.166	184.040	78.184	-120.961	49.114	156.130	0.00052095	0.00022003	0.00014713	645.22	8.1689e-07	4.4801e-06	1014.8	157.57	2.3968e-06	4.6948e-06	315.57	109.75	50.543	20.179	2.0138e-06	52.382	7.7104e-05	6.8263e-05	2.2335e-05	577.14	7.4068e-07	7.6021e-07	909.83	140.55	7.2776e-07	8.0298e-07	276.35	96.653	44.696	17.828	8.8752e-07	45.679	160.482	-12.080	-42.551	-140.089	-99.105	-92.924	-139.184	-133.188	-18.055	-54.390	-132.875	-127.664	-127.575	-121.678	-25.937	-121.896	-8191	255	
23940.053	1	1	0	0	0.14428	0.18267	0.16073	0.055362	0.049778	0.17789	0.12363	0.020163	0.1233	0.12232	0.16931	0.13451	0.16875	0.1179	0.19004	0.30527	-3.4875	-4.2896	-3.3312	-4.0833	-4.125	-3.3417	-4.55	-3.775	-3.7292	-4.3812	-3.6333	-4.1708	-4.2562	-3.4313	-4.2917	-3.9542	-132.147	172.053	88.082	168.472	83.236	-119.168	131.762	8.862	13.457	-108.117	185.617	99.629	173.131	23.456	-1.841	-150.195	0.0004398	0.00037763	0.0001184	644.97	8.3073e-07	2.0423e-06	1021.4	157.85	6.6137e-07	2.0336e-06	314.71	110.28	50.901	20.303	3.4439e-06	52.473	7.4438e-05	7.4665e-05	2.1433e-05	576.61	6.9252e-07	8.0725e-07	913.91	140.93	7.2434e-07	8.3353e-07	276.77	97.288	44.721	17.984	8.2555e-07	45.914	165.497	177.238	-60.453	-140.238	-34.523	-16.541	-139.335	-133.635	-28.105	25.634	-132.861	-128.302	-127.942	-121.236	-23.357	-122.384	-8191	255	
23940.148	1	1	0	0	0.17755	0.21283	0.088217	0.081405	0.2401	0.065295	0.11419	0.054776	0.18177	0.10458	0.17612	0.25996	0.072546	0.061554	0.16094	0.14253	-3.5167	-4.5125	-3.5104	-4.1062	-4.2667	-3.4375	-4.3625	-4	-3.6	-4.3958	-3.6167	-4	-4.4417	-3.4125	-4.2646	-4.0542	-100.267	-46.411	26.418	100.955	207.714	-6.559	182.257	130.952	18.076	12.941	81.089	-138.696	146.230	134.141	-9.261	156.975	0.00058618	0.00039044	7.8252e-05	642.04	2.6521e-07	4.7016e-06	1015.5	157.1	2.6972e-06	1.6952e-06	312.84	109.85	50.345	20.036	1.7489e-06	52.094	7.394e-05	7.6826e-05	2.0065e-05	575.01	7.1029e-07	8.7905e-07	910.7	140.12	7.3997e-07	8.6083e-07	275.07	96.64	44.615	17.86	7.8448e-07	45.515	156.551	-131.345	-84.704	-140.681	-128.212	-73.784	-140.109	-134.010	-12.379	-21.437	-133.735	-128.206	-128.294	-121.676	26.683	-122.372	-8191	255	
23940.244	1	1	0	0	0.22501	0.12405	0.043334	0.23253	0.080763	0.10221	0.23905	0.09049	0.26432	0.063591	0.25867	0.055297	0.32925	0.42961	0.19395	0.089895	-3.3167	-4.6396	-3.5479	-3.8417	-4.4417	-3.4792	-4.4187	-4.1875	-3.5021	-4.4938	-3.9021	-3.9125	-4.4479	-3.4604	-3.8396	-4.2625	-86.087	-22.143	-114.386	187.040	-88.256	202.836	-126.646	162.258	-71.984	112.802	63.021	-141.986	123.847	29.157	87.603	-113.508	0.00058359	0.00053648	0.00012334	641.43	4.0354e-06	2.3453e-06	1005	155.17	2.6271e-06	2.8806e-06	310.91	108.56	50.168	20.004	3.6473e-06	52.085	7.9127e-05	8.107e-05	1.9928e-05	572.9	7.8608e-07	8.6902e-07	902.6	139.22	8.16e-07	8.3988e-07	273.46	96.192	44.53	17.733	7.3612e-07	45.497	155.979	-79.805	-71.180	-140.663	-11.054	-2.406	-139.986	-133.487	-80.745	-62.596	-133.189	-128.468	-128.830	-121.315	-63.306	-122.245	-8191	255	
23940.363	1	1	0	0	0.10175	0.2505	0.23145	0.45275	0.1109	0.1792	0.28615	0.1532	0.37448	0.19201	0.019516	0.23183	0.11251	0.28644	0.15358	0.059729	-3.0875	-4.4625	-3.9104	-3.8271	-4.3979	-3.4667	-4.0479	-4.2479	-3.4208	-4.4875	-4.0083	-3.6583	-4.3833	-3.525	-3.8979	-4.4833	66.820	-9.264	107.017	-111.029	50.807	-142.333	116.408	179.949	-102.848	103.643	7.932	-100.628	1.558	-132.657	-53.294	207.034	0.00051439	0.00037006	0.00020385	630.12	1.374e-06	3.012e-06	1003	156.62	2.7048e-06	1.9465e-06	312.64	109.27	50.468	20.172	7.8959e-07	52.249	8.4692e-05	7.5768e-05	1.8078e-05	562.51	8.2778e-07	8.2621e-07	894.07	139.05	8.6363e-07	8.0095e-07	273.86	96.431	44.631	17.775	7.2833e-07	45.644	157.711	-67.579	-51.863	-140.053	45.426	-11.973	-139.327	-133.263	-60.764	-26.690	-133.525	-128.072	-127.821	-121.964	207.119	-122.411	-8191	255	
23940.459	1	1	0	0	0.31775	0.08577	0.090981	0.29996	0.16133	0.13471	0.23215	0.07132	0.067757	0.18118	0.11336	0.082922	0.10683	0.08004	0.1004	0.24502	-3.1021	-4.275	-3.9229	-3.6479	-4.4854	-3.6375	-3.9896	-4.3729	-3.2188	-4.1021	-4.1271	-3.4083	-4.5417	-3.6167	-3.6083	-4.6979	113.130	-39.809	83.521	60.306	-5.206	-51.341	174.131	194.086	-96.752	38.739	158.536	-64.969	128.858	36.039	-33.019	92.691	0.00051294	0.00025904	0.00020256	632.3	3.5581e-06	5.7373e-06	1003	155.99	2.8585e-06	3.4399e-06	314.8	110.7	50.448	20.28	3.1094e-06	52.563	8.9144e-05	7.1877e-05	1.815e-05	569.21	8.5876e-07	7.5592e-07	901.28	139.92	8.6869e-07	7.8348e-07	276.2	97.554	45	17.951	7.104e-07	46.05	174.125	-88.022	-42.493	-140.201	-57.899	-55.529	-139.882	-133.499	-27.678	-55.793	-133.202	-128.363	-128.492	-121.436	-62.060	-122.137	-8191	255	
23940.533	1	1	0	0	0.25704	0.21958	0.12538	0.21049	0.050098	0.10254	0.077311	0.14382	0.10804	0.17049	0.14028	0.16196	0.056397	0.10841	0.14222	0.23045	-3.2354	-4.0271	-4.1771	-3.6458	-4.5	-3.9167	-3.8812	-4.525	-3.3146	-4.1875	-4.3479	-3.4042	-4.3417	-3.7875	-3.5687	-4.7063	103.166	207.776	-25.514	179.744	36.012	184.758	23.407	-122.099	-58.172	194.424	69.777	105.719	-83.048	116.908	-96.134	155.379	0.00056028	0.00055251	0.00011798	645.27	3.4816e-06	2.8003e-06	1017.3	156.92	2.8487e-06	2.1608e-06	313.47	109.4	50.258	19.958	1.5041e-06	52.058	8.6398e-05	6.68e-05	1.691e-05	579.37	8.4137e-07	7.3689e-07	912.55	140.89	8.1039e-07	6.9873e-07	274.22	96.55	44.347	17.709	6.6348e-07	45.45	155.614	-115.915	-87.558	-140.194	-8.623	-104.356	-139.723	-134.005	-74.681	-53.300	-133.742	-128.509	-128.557	-121.279	-70.072	-122.711	-8191	255	
23940.629	1	1	0	0	0.10131	0.058934	0.34769	0.095897	0.10859	0.075355	0.16237	0.097217	0.099715	0.27575	0.03961	0.25489	0.31516	0.12309	0.18789	0.20042	-3.2062	-4.0292	-4.1104	-3.5771	-4.3	-3.8458	-3.7562	-4.3896	-3.4792	-3.9729	-4.3208	-3.3646	-4.3417	-4	-3.4854	-4.5437	177.410	166.734	94.371	-70.052	-90.878	138.661	167.852	101.783	117.749	-98.526	-133.059	186.457	-77.988	160.242	71.950	198.374	0.00064793	0.00042785	9.8197e-05	645.15	4.1096e-06	1.934e-06	1014	156.66	1.8461e-06	1.1331e-06	313.19	109.37	50.133	20.281	4.1334e-06	52.117	8.0395e-05	6.5187e-05	1.7289e-05	577.95	8.0381e-07	6.893e-07	909.93	140.36	7.7185e-07	6.9205e-07	274.44	96.588	44.461	17.768	7.2826e-07	45.676	157.675	-150.813	-92.464	-140.630	-36.676	-72.715	-139.954	-133.941	4.344	57.321	-133.617	-128.902	-128.552	-121.536	157.361	-122.420	-8191	255	
23940.748	1	1	0	0	0.21629	0.23267	0.22138	0.1365	0.13738	0.17226	0.20456	0.16953	0.092686	0.27772	0.11336	0.049907	0.10038	0.19651	0.052478	0.079707	-3.2188	-3.8917	-4.0917	-3.5833	-4.1979	-4.1708	-3.6521	-4.5	-3.7146	-3.8	-4.6458	-3.5062	-4.2667	-4.1875	-3.4875	-4.5	34.013	116.283	160.058	-77.404	-132.691	-22.586	179.678	202.245	85.853	49.680	17.428	202.454	-45.975	137.877	94.311	-136.813	0.00057124	0.00034345	4.9548e-05	639.04	1.4907e-06	2.8682e-06	1014.9	156.02	2.002e-06	3.0456e-06	316.09	110.56	50.93	20.365	3.7896e-06	52.624	7.6976e-05	6.2578e-05	1.8117e-05	574.01	7.7318e-07	6.848e-07	905.71	139.93	7.4423e-07	7.0191e-07	276.36	97.588	45.051	17.933	8.0781e-07	46.018	162.810	-66.807	-14.375	-140.621	-64.258	21.349	-140.321	-134.136	12.536	-2.546	-133.545	-128.327	-128.287	-121.748	-28.991	-122.718	-8191	255	
23940.844	1	1	0	0	0.091645	0.41406	0.099085	0.12668	0.092839	0.21001	0.21073	0.28491	0.18369	0.081171	0.10289	0.30676	0.072921	0.24462	0.073621	0.24041	-3.4104	-3.7396	-4.6417	-3.6792	-4.1521	-4.2021	-3.4813	-4.3479	-3.7417	-3.6333	-4.5563	-3.525	-4.0833	-4.3646	-3.4333	-4.3125	19.622	-135.684	-13.631	-112.820	133.410	132.960	205.261	-107.739	133.504	-94.322	0.987	121.784	200.691	-62.326	-43.917	-139.468	0.00056902	6.9612e-05	6.7803e-05	641.63	3.1543e-06	5.0129e-06	1020.5	156.2	3.6454e-06	3.6011e-06	315.13	110.98	50.762	20.441	7.0677e-06	53.003	7.8674e-05	6.6102e-05	2.1238e-05	578.61	7.4646e-07	7.012e-07	913.33	141.01	7.2978e-07	7.0524e-07	277.74	97.747	45.093	17.992	8.9005e-07	46.262	164.863	-120.984	-51.986	-140.761	-47.659	-35.229	-140.365	-133.844	-8.414	-26.697	-133.526	-128.058	-128.079	-121.832	-30.989	-122.279	-8191	255	
23940.939	1	1	0	0	0.17286	0.10885	0.068066	0.1041	0.11177	0.10361	0.048092	0.22459	0.13225	0.13803	0.2296	0.034665	0.32075	0.12104	0.24187	0.23653	-3.7292	-3.6542	-4.45	-3.6813	-3.8167	-4.3458	-3.3875	-4.3812	-3.9458	-3.4917	-4.4958	-3.8187	-3.8083	-4.4313	-3.5792	-4.2854	36.897	84.653	127.752	-135.001	-60.197	-85.149	107.717	80.090	17.758	-146.412	-126.965	135.294	-133.844	-32.466	78.681	124.115	0.00060097	0.00037849	3.5649e-05	641.15	3.1544e-06	9.787e-07	1013.2	157.24	4.4743e-07	1.1032e-06	314.98	110.53	50.398	20.183	5.7294e-06	52.146	7.5201e-05	6.6542e-05	2.1929e-05	575.03	7.446e-07	7.0549e-07	907.92	140.74	7.2253e-07	7.5819e-07	276.34	96.724	44.562	17.9	8.9585e-07	45.497	165.904	-100.795	-30.135	-140.310	42.030	-52.981	-140.011	-133.598	109.876	-1.916	-133.552	-128.049	-127.878	-121.206	-92.889	-122.169	-8191	255	
23941.061	1	1	0	0	0.038801	0.15581	0.070663	0.17348	0.15286	0.15161	0.066879	0.02972	0.11453	0.22396	0.19329	0.15892	0.026068	0.16575	0.044035	0.11139	-3.7812	-3.4667	-4.2583	-3.7375	-3.6937	-4.4896	-3.4417	-4.0542	-4.4187	-3.4688	-4.4396	-3.9083	-3.6917	-4.5062	-3.4313	-4.0792	122.618	38.163	-69.843	148.859	108.209	40.760	91.272	47.102	-148.253	-19.244	81.519	-90.225	-4.153	-146.055	92.365	-64.535	0.0004368	0.00023392	0.0001543	633.81	3.0886e-06	2.0927e-06	1008.1	157.06	1.7718e-06	5.4319e-06	316.8	109.26	51.137	20.196	2.1102e-06	52.411	7.2856e-05	7.1666e-05	2.184e-05	570.32	7.0368e-07	7.7082e-07	901.74	139.92	6.8385e-07	7.9561e-07	276.4	96.652	44.777	17.829	8.3188e-07	45.682	158.198	-131.851	-53.651	-140.446	19.326	-123.468	-139.994	-134.370	-38.540	-17.706	-133.474	-127.962	-128.155	-120.688	120.483	-122.369	-8191	255	
23941.133	1	1	0	0	0.076304	0.34255	0.20645	0.11638	0.16973	0.1276	0.34314	0.093809	0.078435	0.14275	0.27859	0.21484	0.26138	0.084928	0.099813	0.27715	-3.9208	-3.4104	-4.4396	-3.9875	-3.6417	-4.6	-3.5687	-3.9021	-4.2833	-3.5062	-4.2229	-4.0604	-3.6354	-4.5	-3.5229	-4.0521	165.206	52.746	25.388	-64.526	48.821	-75.589	-139.115	207.563	36.230	108.393	172.509	161.713	163.904	-96.608	6.144	147.912	0.00052137	0.00031834	6.6572e-05	639.67	2.5082e-06	3.2748e-06	1004	155.63	2.1747e-06	3.429e-06	313.2	109.74	50.26	20.127	2.6726e-06	52.269	7.2302e-05	7.7428e-05	2.093e-05	570.67	6.9123e-07	8.1538e-07	899.98	139.53	7.0953e-07	8.4343e-07	275.66	96.911	44.533	17.896	8.0744e-07	45.791	151.171	139.568	-114.672	-140.743	-0.498	-50.992	-140.243	-134.004	-16.271	-46.941	-134.029	-128.489	-129.252	-121.553	73.189	-122.916	-8191	255	
23941.229	1	1	0	0	0.16948	0.29123	0.072942	0.052688	0.092369	0.064977	0.2424	0.20421	0.028657	0.093457	0.22582	0.13588	0.15486	0.15013	0.14419	0.10859	-4.0979	-3.3688	-4.2979	-4.1375	-3.4646	-4.5312	-3.7229	-3.7333	-4.4271	-3.4271	-4.3792	-4.2958	-3.4042	-4.4437	-3.65	-3.7771	-141.781	-93.263	-12.816	168.316	-140.313	37.564	152.291	-87.551	42.339	0.700	-128.596	63.696	-133.356	75.858	193.736	-38.600	0.00060067	0.00022423	6.2036e-05	643.72	2.7873e-06	3.2231e-06	1024.2	157.68	2.5077e-06	1.9054e-06	316.14	110.66	50.58	20.204	5.6277e-06	51.893	7.7802e-05	8.0375e-05	2.0295e-05	576.92	7.7211e-07	8.7152e-07	917.7	141.27	7.8025e-07	8.8774e-07	277.04	97.373	45.01	18.012	7.8447e-07	45.722	159.546	-125.075	-8.801	-140.701	-51.191	-8.009	-139.964	-134.190	-74.515	-31.035	-134.065	-128.215	-129.405	-122.298	-33.592	-122.962	-8191	255	
23941.350	1	1	0	0	0.26764	0.14582	0.18554	0.31266	0.25586	0.20237	0.25265	0.2354	0.13785	0.20859	0.082688	0.25412	0.098028	0.14001	0.27503	0.19035	-4.1667	-3.3583	-4.0958	-4.2208	-3.2896	-4.55	-3.875	-3.7479	-4.4396	-3.375	-4.1625	-4.3396	-3.4604	-4.2688	-3.8063	-3.5833	187.547	200.603	-84.320	-150.021	79.865	-76.495	79.275	192.664	-68.876	180.279	-114.528	170.817	91.916	-28.102	125.758	206.967	0.00053063	0.00030517	0.00010183	647.26	1.4022e-06	4.2443e-06	1014.2	156.88	2.2362e-07	2.4355e-06	316.29	110.95	51.056	20.326	5.2802e-06	52.624	8.311e-05	8.2298e-05	2.0062e-05	576.15	8.7142e-07	8.8118e-07	906.5	140.42	8.6377e-07	8.9726e-07	277.65	97.538	45.403	18.031	8.0973e-07	46.1	160.756	-117.607	-66.868	-140.736	-59.124	25.117	-140.122	-134.012	137.168	-128.141	-133.643	-128.234	-128.550	-121.771	-35.070	-122.887	-8191	255	
23941.443	1	1	0	0	0.13183	0.14145	0.13691	0.13742	0.10863	0.10086	0.13817	0.14749	0.083863	0.095868	0.074947	0.49629	0.27763	0.11643	0.12364	0.2198	-4.2896	-3.5958	-3.9833	-4.3167	-3.4271	-4.3562	-3.9562	-3.6458	-4.4271	-3.7396	-3.9083	-4.3479	-3.3729	-4.2708	-3.9729	-3.8333	40.172	-104.581	114.011	-125.606	105.039	84.976	102.172	-138.464	83.596	-7.689	191.206	-132.221	134.548	-29.635	50.247	146.544	0.00055272	0.00030253	0.00011548	634.77	1.279e-06	1.5324e-06	1008.3	158.23	1.7073e-06	7.0654e-06	316.98	111.07	50.591	20.318	6.9034e-06	52.741	9.5389e-05	8.0329e-05	1.9721e-05	568.73	9.6181e-07	8.6338e-07	901.98	141.51	9.3048e-07	8.3635e-07	278.58	97.919	45.308	18.031	7.6811e-07	46.226	165.363	-132.623	-25.284	-140.150	-13.650	18.204	-139.952	-133.407	-151.149	-58.305	-133.667	-128.000	-128.044	-121.697	-29.079	-121.474	-8191	255	
23941.539	1	1	0	0	0.16608	0.20809	0.13069	0.33241	0.10058	0.042162	0.22903	0.25393	0.20798	0.25543	0.077996	0.07214	0.021937	0.20802	0.10999	0.10484	-4.3271	-3.7	-4.0083	-4.5854	-3.4688	-4.3021	-4.2812	-3.3083	-4.425	-3.7979	-3.7833	-4.5062	-3.2646	-4.0396	-4.275	-3.4813	192.574	107.628	140.999	193.437	1.811	170.487	156.383	197.982	-9.385	123.206	116.446	104.542	-78.529	-146.498	73.822	193.205	0.00049405	0.00025256	0.00016009	639.08	3.7338e-06	4.5935e-06	1009.1	157.95	3.6119e-06	6.401e-07	317.66	111.79	51.156	20.342	5.9663e-06	52.384	9.318e-05	7.3988e-05	1.911e-05	571.88	8.8788e-07	7.9966e-07	905.59	140.82	8.8245e-07	7.7918e-07	277.91	98.057	45.306	17.948	7.1814e-07	46.102	172.030	-8.136	-69.320	-139.423	-21.739	-43.914	-139.279	-133.836	-27.737	-33.445	-133.477	-127.982	-128.402	-121.680	17.511	-122.718	-8191	255	
23941.660	1	1	0	0	0.10887	0.16535	0.3596	0.18302	0.20783	0.14014	0.39198	0.11761	0.19348	0.11418	0.21397	0.15993	0.10185	0.27506	0.1874	0.12095	-4.0896	-3.8063	-3.6292	-4.5604	-3.4042	-4.0333	-4.325	-3.5625	-4.4458	-3.8729	-3.7229	-4.4187	-3.6188	-3.9396	-4.325	-3.4292	194.104	189.989	-9.311	172.403	103.272	140.262	167.339	119.521	-103.268	25.986	-119.293	-148.605	110.271	145.483	158.791	149.382	0.00054043	0.00057808	2.3796e-05	640.53	2.8769e-06	4.7109e-06	1017.5	157.34	1.7504e-06	2.0056e-06	313.26	111.04	50.644	20.317	2.6001e-06	52.326	8.8195e-05	7.0734e-05	1.8441e-05	575.65	8.4306e-07	7.7153e-07	909.54	140.95	8.556e-07	7.8189e-07	276.24	97.711	44.996	17.914	7.8873e-07	45.921	170.249	-73.514	84.263	-140.605	61.629	-38.057	-140.094	-133.939	-38.491	-36.072	-132.997	-128.177	-127.973	-121.624	-11.148	-122.220	-8191	255	
23941.732	1	1	0	0	0.047795	0.12209	0.042642	0.041921	0.15318	0.029571	0.21694	0.070034	0.071574	0.26254	0.22067	0.35236	0.16135	0.3275	0.099456	0.18452	-4.0479	-3.9562	-3.5208	-4.5687	-3.5854	-3.8979	-4.5375	-3.4104	-4.2604	-4.0021	-3.6354	-4.6	-3.6771	-3.6875	-4.4625	-3.6833	162.821	206.279	103.129	-102.617	130.760	12.534	195.766	201.258	-73.112	-5.978	161.037	156.746	155.793	-149.003	130.989	130.498	0.00056504	0.00045071	0.00011026	648.72	2.5176e-06	3.0545e-06	1019.3	157.95	1.1983e-06	4.6439e-06	315.27	110.88	50.757	20.214	2.6103e-06	52.675	8.9597e-05	7.6351e-05	2.1647e-05	582.08	9.201e-07	8.3487e-07	916.94	142.08	9.0707e-07	8.2967e-07	277.07	97.893	45.093	17.929	8.8575e-07	46.219	155.920	-89.752	-41.023	-140.450	-15.406	-13.866	-139.283	-133.688	-17.996	37.388	-133.095	-127.595	-127.962	-121.174	-132.419	-122.014	-8191	255	
23941.828	1	1	0	0	0.090925	0.14614	0.24675	0.27354	0.12245	0.02998	0.091543	0.16311	0.081479	0.13804	0.16501	0.17352	0.068032	0.35199	0.19692	0.29834	-3.8937	-3.8896	-3.6562	-4.4146	-3.7896	-3.6396	-4.4563	-3.4792	-4.0917	-4.2646	-3.4292	-4.5958	-3.9625	-3.8542	-4.525	-3.5563	142.536	-79.013	194.446	92.471	43.377	-40.523	140.806	45.578	15.806	-2.330	165.772	114.283	195.474	-147.279	-85.013	-118.812	0.0005635	0.00033609	9.1597e-05	629.39	2.4712e-06	9.8284e-07	1002.7	156.92	2.6218e-06	4.3719e-06	316.1	110.93	50.788	20.314	3.7762e-06	52.968	8.7783e-05	7.0911e-05	2.2289e-05	566.36	8.0871e-07	7.8474e-07	900.46	140.54	8.1788e-07	7.5505e-07	277.12	97.817	44.955	17.914	9.3592e-07	46.338	166.859	-113.291	196.376	-139.930	8.920	-41.398	-139.108	-132.919	-9.529	-46.407	-133.178	-128.103	-128.412	-120.611	-20.082	-122.061	-8191	255	
23941.924	1	1	0	0	0.12576	0.10171	0.136	0.19043	0.13737	0.27734	0.14764	0.082275	0.22236	0.20192	0.10669	0.24356	0.17309	0.24051	0.1163	0.15167	-3.7938	-4.1312	-3.3417	-4.525	-3.9875	-3.5458	-4.7188	-3.5438	-3.8854	-4.3292	-3.4646	-4.35	-4.0437	-3.6417	-4.5188	-3.7729	125.856	79.806	-125.994	171.936	-110.589	-85.182	111.666	10.735	61.048	-51.595	55.407	173.161	-57.688	-123.632	200.773	35.160	0.00053811	0.00035673	0.00010724	634.47	1.1725e-06	2.219e-06	1019	157.38	4.6679e-06	1.8624e-06	318.47	111.84	51.139	20.471	3.48e-06	53.135	8.2481e-05	6.9516e-05	2.3659e-05	569.86	8.1703e-07	7.9489e-07	913.37	141.15	8.1753e-07	7.8468e-07	280.13	98.118	45.238	18.042	9.5279e-07	46.475	168.098	-53.595	-129.578	-139.979	-42.346	98.169	-139.241	-133.688	-43.400	-87.964	-132.670	-127.331	-126.851	-120.343	-52.190	-121.183	-8191	255	
23942.045	1	1	0	0	0.27682	0.096937	0.049734	0.089642	0.16494	0.26905	0.12016	0.015448	0.048615	0.11259	0.12445	0.10152	0.13243	0.19439	0.037984	0.063424	-3.5917	-4.4292	-3.3438	-4.2	-4.1646	-3.3208	-4.625	-3.6937	-3.6167	-4.6417	-3.5104	-4.3187	-4.1396	-3.4958	-4.4812	-3.875	11.867	182.933	170.096	-122.015	6.667	10.341	152.801	-34.854	65.220	-3.602	191.422	-98.557	129.199	-130.055	177.964	-122.937	0.00048698	0.0003443	0.00011555	648.04	1.2291e-06	3.1192e-06	1022.2	156.23	1.1318e-06	6.1582e-06	316.19	110.49	50.466	20.302	2.7916e-06	52.213	8.1033e-05	7.2257e-05	2.4614e-05	577.98	7.6121e-07	8.3257e-07	918.2	140.73	7.8389e-07	8.4813e-07	278.01	97.381	44.551	17.933	9.0587e-07	45.745	168.054	-122.767	-115.529	-140.276	32.298	49.040	-139.576	-133.270	-13.468	20.296	-133.324	-127.820	-127.744	-121.244	-117.403	-122.274	-8191	255	
23942.141	1	1	0	0	0.15799	0.15552	0.13518	0.081184	0.16748	0.079768	0.17441	0.32929	0.17889	0.078206	0.14364	0.13554	0.13764	0.22607	0.031785	0.26605	-3.3875	-4.4313	-3.4333	-4.1208	-4.1562	-3.4625	-4.475	-3.8354	-3.6813	-4.5333	-3.4979	-4.0625	-4.1917	-3.4542	-4.3167	-4.0708	89.693	1.451	-14.932	160.134	-41.165	177.099	102.701	-43.273	-75.321	-85.186	-103.925	137.090	-99.719	-142.846	-62.800	146.374	0.00051877	0.00037971	7.9663e-05	641.15	3.25e-06	7.3189e-07	1028	156.13	4.3155e-06	1.9559e-06	314.71	110.13	50.927	20.106	2.2088e-06	52.286	7.7107e-05	7.7964e-05	2.2525e-05	575.53	7.2824e-07	8.7092e-07	921.46	140.55	7.4451e-07	8.921e-07	277.71	97.454	44.883	18.007	8.8544e-07	45.757	170.771	-114.507	-88.595	-139.595	36.315	72.761	-140.318	-133.930	-113.130	148.370	-133.734	-128.185	-128.568	-121.878	-59.157	-122.522	-8191	255	
23942.236	1	1	0	0	0.14609	0.21718	0.12199	0.10152	0.13379	0.099653	0.17381	0.26341	0.044414	0.2444	0.22529	0.26271	0.16285	0.16347	0.084114	0.21911	-3.375	-4.5042	-3.5875	-4.0062	-4.2312	-3.2833	-4.5333	-4.0521	-3.7062	-4.6562	-3.8271	-3.8854	-4.5437	-3.4396	-4.35	-4.1729	101.855	103.492	-32.348	-139.259	181.736	-3.054	157.298	145.498	-67.108	4.668	-30.724	66.447	157.065	110.259	20.588	64.184	0.000536	0.00041637	5.8333e-05	681.95	1.8529e-06	3.1146e-06	1065.7	162.03	4.8847e-06	2.0078e-06	323.03	110.95	51.439	20.225	9.1705e-06	52.671	8.0967e-05	8.5859e-05	2.2249e-05	611.06	7.9714e-07	9.6207e-07	955.18	144.29	8.4349e-07	9.6728e-07	281.88	98.188	45.679	18.07	8.6524e-07	46.029	168.997	-40.543	-29.158	-141.016	6.910	-68.405	-140.303	-133.890	-60.245	-68.153	-133.179	-127.436	-128.461	-120.910	-10.363	-121.380	-8191	255	
23942.332	1	1	0	0	0.27764	0.1406	0.090725	0.052519	0.21138	0.17747	0.30259	0.29831	0.088193	0.24986	0.23678	0.070885	0.062953	0.074433	0.16271	0.17069	-3.2771	-4.5958	-3.875	-3.8354	-4.55	-3.4521	-4.3729	-4.1937	-3.3646	-4.4854	-3.8625	-3.8354	-4.6104	-3.4229	-4.0542	-4.3812	-45.993	131.319	153.740	146.411	93.576	-143.680	176.632	161.940	94.175	154.693	109.541	16.973	-148.905	-103.744	-4.397	136.235	0.00057611	0.00035503	9.6517e-05	676.32	3.0876e-06	1.1406e-06	1053.6	159.9	7.1759e-07	6.3023e-06	321.92	111.26	51.165	20.232	4.5588e-06	53.154	8.9726e-05	8.6514e-05	2.0912e-05	605.21	8.516e-07	9.228e-07	944.43	142.73	8.956e-07	9.17e-07	281.32	98.388	45.614	18.047	8.2352e-07	46.473	169.809	-56.864	189.604	-140.501	-59.984	-98.691	-139.688	-132.918	28.585	-54.024	-132.693	-128.081	-127.445	-121.394	-13.560	-122.003	-8191	255	
23942.430	1	1	0	0	0.14914	0.12376	0.15883	0.14192	0.09274	0.12437	0.34982	0.16064	0.18102	0.11333	0.13304	0.067452	0.20252	0.046062	0.16188	0.071054	-3.2458	-4.525	-4.0167	-3.8146	-4.5146	-3.5833	-4.1021	-4.3396	-3.4625	-4.4021	-4.0146	-3.5417	-4.5396	-3.5958	-3.8563	-4.4854	157.069	-95.004	120.447	120.320	83.358	56.896	135.353	121.096	38.154	-44.226	173.995	166.445	-51.785	-37.615	183.530	155.509	0.00058313	0.00042156	0.00010164	671.85	1.2534e-06	6.2157e-06	1056.8	159.57	1.4287e-06	3.9384e-06	320.26	111.85	51.563	20.173	3.2195e-06	52.53	9.2997e-05	8.3886e-05	2.0648e-05	602.33	9.3965e-07	9.0337e-07	945.89	142.97	9.4488e-07	9.005e-07	280.87	98.301	45.812	18.014	8.1767e-07	46.022	157.137	-81.036	-133.451	-140.902	-77.762	-44.244	-139.704	-133.650	-27.900	-13.002	-133.029	-127.895	-127.903	-120.963	-22.322	-121.301	-8191	255	
23942.525	1	1	0	0	0.2736	0.14965	0.1535	0.16237	0.066446	0.032959	0.18119	0.27016	0.054752	0.026375	0.21444	0.12892	0.12151	0.17293	0.18203	0.21711	-3.1604	-4.225	-4.0083	-3.6396	-4.4104	-3.65	-4.0146	-4.5062	-3.3812	-4.1917	-4.3187	-3.6917	-4.4646	-3.9146	-3.6063	-4.6208	-43.856	76.633	163.122	-51.755	-122.484	-93.444	156.817	126.998	-45.404	-14.554	144.003	132.857	-97.086	107.408	91.576	103.172	0.0005415	0.00028956	6.4642e-05	690.46	2.051e-06	5.9317e-06	1073.1	161.76	3.0212e-06	2.5122e-06	321.72	111.45	51.461	20.198	6.4989e-06	52.795	0.00010093	8.3764e-05	2.0896e-05	619.11	1.0023e-06	8.9357e-07	965.8	145.3	1.0057e-06	8.7212e-07	281.86	98.392	45.818	18.061	8.0173e-07	46.203	149.675	-24.219	-74.038	-140.596	-49.146	-13.009	-140.608	-134.082	51.778	49.787	-133.486	-128.284	-128.847	-121.653	-8.709	-122.410	-8191	255	
23942.621	1	1	0	0	0.26456	0.064607	0.068578	0.13353	0.20351	0.13104	0.38875	0.080089	0.21487	0.078945	0.12206	0.10056	0.19968	0.21363	0.32927	0.099476	-3.1646	-4.1479	-4.4292	-3.5271	-4.4938	-3.8063	-3.8563	-4.5854	-3.5812	-3.925	-4.3125	-3.4771	-4.6229	-3.9146	-3.7083	-4.5146	1.061	-20.693	-149.577	195.148	-151.862	132.223	169.873	89.584	144.111	-151.475	48.699	135.967	0.716	-77.355	-69.141	95.892	0.0005504	0.00016372	0.00014367	687.31	2.6976e-06	2.6148e-06	1072.2	161.48	1.4124e-06	5.094e-06	323.47	111.75	51.755	20.47	3.6979e-06	53.004	9.5531e-05	7.6016e-05	1.9138e-05	615.74	9.423e-07	8.0276e-07	963.28	145.29	9.3274e-07	8.2029e-07	283.56	98.726	45.818	18.156	7.8039e-07	46.413	165.185	-91.715	-65.234	-140.816	14.226	-58.139	-140.356	-133.916	7.712	-28.956	-133.447	-127.910	-127.678	-121.100	-53.761	-121.590	-8191	255	
23942.740	1	1	0	0	0.042083	0.078926	0.047163	0.16539	0.20047	0.23272	0.15198	0.24592	0.17176	0.074747	0.36151	0.13238	0.017307	0.27089	0.248	0.18523	-3.3021	-4.0625	-4.2896	-3.5229	-4.5479	-4.1	-3.7792	-4.6104	-3.6229	-3.8688	-4.3812	-3.5958	-4.2812	-4.1375	-3.5563	-4.5687	103.564	-107.781	-33.047	164.938	-48.811	-120.480	136.702	-92.149	137.671	-32.974	142.529	-48.763	-101.727	112.661	-21.830	203.483	0.00045213	0.00041145	0.00012718	695.18	5.0643e-06	1.737e-06	1081.7	161.95	4.9045e-06	5.486e-06	325.61	112.82	51.965	20.478	5.44e-06	53.025	9.1346e-05	7.2959e-05	1.962e-05	624.16	8.8719e-07	7.8623e-07	966.09	145.83	8.5758e-07	8.0706e-07	285.3	99.569	46.176	18.14	9.0152e-07	46.744	160.277	-13.834	57.318	-140.310	-3.260	-23.953	-139.524	-133.319	-30.102	-57.971	-133.550	-127.873	-128.171	-120.736	-29.118	-121.783	-8191	255	
23942.838	1	1	0	0	0.038525	0.070072	0.048756	0.06001	0.10849	0.086632	0.27525	0.16285	0.11343	0.1259	0.1321	0.20919	0.12988	0.25936	0.1862	0.18459	-3.3271	-3.9854	-4.4479	-3.5833	-4.1896	-4.2458	-3.5583	-4.6458	-3.75	-4.0375	-4.5229	-3.5875	-4.2583	-4.1667	-3.4958	-4.5479	134.813	-78.106	-73.429	182.492	-140.677	92.526	184.331	141.887	9.567	31.427	189.569	-58.448	145.727	22.242	-51.914	150.846	0.00048743	0.00054201	5.5077e-05	708.95	2.1642e-06	2.7916e-06	1091.9	164.7	3.1479e-06	2.0106e-06	326.33	112.52	52.162	20.562	2.9195e-06	52.783	9.2725e-05	7.7293e-05	2.3534e-05	635.08	9.3663e-07	8.5423e-07	983.03	148.02	9.12e-07	8.6165e-07	286.88	99.523	46.233	18.218	1.0461e-06	46.325	179.783	-66.078	-106.742	-140.789	-1.950	-84.779	-140.142	-133.484	-54.122	-77.291	-133.023	-127.442	-127.900	-120.333	162.562	-121.201	-8191	255	
23942.934	1	1	0	0	0.22223	0.13598	0.1035	0.10693	0.24998	0.045545	0.17454	0.13332	0.13336	0.16995	0.099137	0.29659	0.078863	0.16207	0.13305	0.030026	-3.4583	-3.7833	-4.5667	-3.6771	-4.1604	-4.4979	-3.5563	-4.5042	-3.9375	-3.7667	-4.7312	-3.6417	-4.1146	-4.3896	-3.4125	-4.4792	-55.135	0.690	-140.053	-10.043	191.363	-93.453	166.212	197.632	95.319	-111.501	183.242	153.468	-91.624	186.454	-77.330	132.171	0.00053181	0.00011759	0.00011609	703.65	3.4619e-06	3.7186e-06	1085	162.64	3.5629e-06	2.5308e-06	324.31	112.08	52.144	20.517	4.9299e-06	53.037	9.2271e-05	7.7549e-05	2.5018e-05	635.39	9.088e-07	8.213e-07	980.64	146.81	8.4817e-07	8.5547e-07	285.68	98.865	46.247	18.113	1.0264e-06	46.375	167.693	55.411	-94.010	-139.696	-6.637	-53.351	-139.178	-134.101	-32.866	-20.836	-133.948	-128.465	-129.174	-121.953	-3.506	-122.570	-8191	255	
23943.029	1	1	0	0	0.0098052	0.316	0.05469	0.1441	0.041147	0.09693	0.22131	0.20689	0.16624	0.074117	0.17384	0.027904	0.070479	0.072162	0.23333	0.12691	-3.7979	-3.6708	-4.5292	-3.7146	-3.7771	-4.35	-3.4062	-4.3187	-4.2229	-3.5604	-4.6229	-3.7625	-3.9417	-4.6021	-3.3438	-4.2854	10.632	-20.572	-61.785	-146.153	82.803	73.238	142.747	203.165	147.566	62.348	149.923	101.830	-30.078	133.879	193.989	-110.505	0.00047362	0.00030746	9.0875e-05	716.49	2.4005e-06	2.9789e-06	1100.6	164.03	1.0794e-06	1.3393e-06	323.52	113.08	52.111	20.59	6.0116e-06	53.001	8.7008e-05	7.9955e-05	2.6251e-05	641.47	8.4682e-07	8.8571e-07	990.37	147.58	8.2898e-07	8.9272e-07	287.45	99.747	46.14	18.29	1.0513e-06	46.566	168.401	-45.537	-76.994	-141.658	-1.335	-7.041	-140.722	-134.679	-98.883	70.211	-134.041	-128.313	-128.963	-122.053	-18.611	-122.994	-8191	255	
23943.125	1	1	0	0	0.057834	0.11026	0.034082	0.088901	0.14462	0.082635	0.16035	0.060733	0.35037	0.14296	0.12114	0.060685	0.20962	0.12496	0.038187	0.18047	-3.9396	-3.4542	-4.4292	-3.7854	-3.7542	-4.55	-3.5687	-4.2396	-4.3438	-3.3625	-4.6083	-3.9729	-3.7083	-4.5833	-3.3104	-4.1833	139.206	122.460	-1.523	121.019	36.164	-134.370	65.497	-47.878	99.182	60.678	85.097	181.484	202.447	-103.299	-125.354	155.268	0.00053816	0.00026499	0.00011289	708.94	3.4888e-06	4.0339e-06	1092.7	165.01	6.6985e-07	3.553e-06	324.55	112.18	52.644	20.386	6.7509e-06	52.679	8.5491e-05	8.8302e-05	2.578e-05	635.35	8.4673e-07	9.479e-07	979.92	146.97	8.2015e-07	9.9375e-07	286.79	99.454	46.297	18.256	9.7715e-07	46.458	156.828	-91.965	-81.915	-141.294	-17.439	-124.328	-140.424	-134.209	-3.939	-30.231	-134.277	-128.633	-128.744	-121.943	-34.800	-123.104	-8191	255	
23943.221	1	1	0	0	0.2534	0.08435	0.20241	0.18545	0.23171	0.082463	0.12007	0.17032	0.16385	0.1401	0.15384	0.26981	0.20671	0.10982	0.16502	0.399	-3.8812	-3.3854	-4.5437	-4.125	-3.6396	-4.6396	-3.8479	-4.0563	-4.3938	-3.2521	-4.4833	-4.0813	-3.6104	-4.4812	-3.4875	-3.8354	-18.070	169.821	206.027	-45.268	-28.182	36.293	92.857	-118.336	15.299	44.713	135.502	171.120	-0.096	-96.424	144.276	178.264	0.00050037	0.00045861	2.966e-05	690.77	8.6697e-07	7.7337e-07	1073.8	162.27	3.4213e-06	5.4889e-06	323.73	111.69	51.387	20.354	7.01e-06	52.578	8.2201e-05	9.1334e-05	2.3986e-05	621.36	8.324e-07	1.0036e-06	963.21	145.24	8.2219e-07	1.0003e-06	284.25	98.7	45.753	18.087	9.3055e-07	45.943	164.783	-60.874	-111.815	-141.226	18.045	183.185	-140.550	-134.452	-39.026	-49.310	-133.636	-128.535	-128.855	-122.187	-59.864	-122.702	-8191	255	
23943.342	1	1	0	0	0.093977	0.10513	0.073716	0.21187	0.1957	0.1642	0.20173	0.18307	0.1007	0.34717	0.15944	0.23668	0.16153	0.080859	0.059125	0.084495	-4.1104	-3.2958	-4.2042	-4.25	-3.4146	-4.4792	-3.9313	-3.8542	-4.4875	-3.4271	-4.4729	-4.2042	-3.4833	-4.4604	-3.8208	-3.7542	167.235	32.611	-75.593	-92.642	131.996	-50.479	153.039	173.233	-34.538	-141.486	-59.391	144.698	-65.173	-29.167	159.906	202.474	0.00058611	0.00036586	0.0001803	713.38	9.1445e-07	2.9495e-06	1103.1	164.15	1.2381e-06	2.5275e-06	324.78	112.76	52.477	20.481	7.7806e-06	52.736	8.8544e-05	9.7226e-05	2.3267e-05	640.32	9.2423e-07	1.0552e-06	992.05	147.74	9.6549e-07	1.0831e-06	287.4	99.574	46.698	18.285	9.5901e-07	46.36	169.416	-80.542	-87.149	-141.595	-86.446	-58.118	-140.792	-134.559	-88.408	-110.790	-133.959	-128.600	-128.483	-122.099	-32.011	-122.593	-8191	255	
23943.438	1	1	0	0	0.17634	0.23627	0.14345	0.13001	0.14115	0.044412	0.22397	0.19635	0.13152	0.26149	0.073808	0.1551	0.12612	0.13971	0.13393	0.10197	-4.1208	-3.4729	-4.0354	-4.3167	-3.2875	-4.3708	-3.9896	-3.7	-4.2458	-3.4104	-4.1042	-4.3938	-3.35	-4.475	-4.0625	-3.7417	132.341	-16.754	-148.301	98.404	195.457	-111.844	90.737	-16.527	-122.764	108.107	42.386	55.818	17.968	185.337	-57.998	134.852	0.00056148	0.00035658	9.5533e-05	731.22	4.0604e-06	3.9399e-06	1110.9	164.84	3.0661e-06	2.885e-06	327.67	113.66	52.944	20.749	3.6448e-06	53.3	0.00010441	0.00010021	2.4984e-05	657.36	1.0619e-06	1.0866e-06	999.66	148.77	1.0918e-06	1.0718e-06	288.99	100.4	47.131	18.395	9.642e-07	46.735	166.349	-78.126	-30.522	-141.495	-89.975	-49.445	-140.795	-134.535	-115.611	21.631	-133.952	-128.426	-128.924	-121.775	-20.376	-122.725	-8191	255	
23943.531	1	1	0	0	0.12394	0.16697	0.076088	0.092855	0.072205	0.1857	0.025812	0.26279	0.16314	0.14818	0.17295	0.11435	0.088183	0.11743	0.063095	0.11453	-4.3771	-3.5417	-3.9292	-4.6	-3.4188	-4.3229	-4.225	-3.5708	-4.5729	-3.7125	-3.9229	-4.3688	-3.4042	-4.3	-4.1396	-3.6917	38.514	138.203	113.918	204.026	63.574	-42.154	99.412	194.496	-30.340	0.846	176.160	-117.930	-97.291	150.556	84.225	201.983	0.00062574	0.00030856	0.00010078	710.32	3.3469e-06	3.4286e-06	1095	164.51	2.6246e-06	2.4675e-07	328.24	113.17	53.065	20.662	3.1187e-06	53.225	0.00011418	9.8632e-05	2.4991e-05	637.69	1.163e-06	1.079e-06	981.78	148.48	1.1922e-06	1.0597e-06	288.71	100.74	47.305	18.38	9.8127e-07	46.793	164.919	-95.536	25.654	-141.206	18.640	50.854	-140.309	-134.353	-1.678	-96.703	-133.660	-128.469	-128.670	-121.669	54.011	-122.807	-8191	255	
23943.629	1	1	0	0	0.16848	0.16697	0.2303	0.19664	0.22884	0.22214	0.22076	0.23446	0.20357	0.023114	0.15698	0.021953	0.043856	0.30517	0.24896	0.22906	-4.1625	-3.6104	-3.7667	-4.5021	-3.2625	-4.2292	-4.3583	-3.4146	-4.4958	-3.7125	-3.6729	-4.4792	-3.5333	-4.0979	-4.0771	-3.5292	82.764	188.375	-34.969	-151.981	-11.122	-40.314	129.557	-70.894	83.912	40.295	-59.564	2.289	89.065	14.348	27.033	111.941	0.00056887	5.7471e-05	9.5448e-05	704.17	6.9818e-06	4.48e-06	1092.9	165.28	1.2829e-06	3.182e-06	326.77	113.57	52.513	20.464	9.5987e-07	52.937	0.00011493	9.5003e-05	2.4357e-05	636	1.1806e-06	1.0444e-06	981.49	148.35	1.1324e-06	1.0108e-06	287.91	100.37	46.953	18.319	9.3446e-07	46.55	164.467	-22.044	-97.839	-141.072	13.616	-47.968	-140.305	-134.449	-2.447	1.154	-133.798	-128.312	-128.610	-121.870	-44.104	-122.684	-8191	255	
23943.701	1	1	0	0	0.05491	0.14817	0.21447	0.03303	0.21904	0.17311	0.15365	0.047659	0.031733	0.22391	0.16534	0.44924	0.18184	0.20065	0.12569	0.16317	-4.1458	-3.7625	-3.725	-4.5146	-3.7062	-3.8958	-4.3688	-3.4417	-4.3271	-3.9896	-3.6292	-4.4625	-3.5646	-4.05	-4.2875	-3.3688	91.021	-109.422	134.023	-118.450	-42.248	-46.616	154.306	60.459	8.238	88.033	203.074	181.359	-56.821	-116.666	160.155	151.600	0.0005661	0.00015237	0.00020267	705.84	3.1662e-06	3.5085e-06	1092.2	164.81	4.3028e-06	5.6076e-06	327.45	114.05	52.857	20.728	4.1762e-06	53.046	0.000108	8.7324e-05	2.3207e-05	634.09	1.0531e-06	9.5109e-07	980.36	148.44	1.0582e-06	9.3617e-07	288.37	100.47	46.867	18.277	9.4886e-07	46.819	169.714	-100.450	-14.678	-140.943	-36.946	-100.242	-140.231	-134.479	-41.066	-2.488	-134.039	-128.464	-128.660	-121.716	-79.775	-122.856	-8191	255	
#DATA ENDS
