BOXY.EXE: ISS Imagent and Oximeter Data Acquisition Program Version 0.80
Ascii Record File

#ACQ INFORMATION
2  Detector Channels 
16  External MUX Channels 
1  Auxiliary Channels 
5000  Waveform (CCF) Frequency (Hz)
1  Waveforms Skipped 
30  Waveforms Averaged 
1  Cycles Averaged 
16  Acquisitions per Waveform 
10.0806  Updata Rate (Hz) 

#FILE INFORMATION
TRUE -- External MUX Channel results are PARSED.
FALSE -- AC DC and Phase are NOT grouped.
TRUE -- Companion Program Settings File CREATED.
FALSE -- AC data not excluded
FALSE -- DC data not excluded
FALSE -- Phase data not excluded
FALSE -- Auxillary Chn. data not excluded
Tab delimiters

#CALIBRATION STATE
TRUE -- Waveform Calibration Values APPLIED.


#AUX CALIBRATION VALUES
Val Type	aux-1	

Term	1.0000e+00	
Factor	0.0000e+00	


#WF CALIBRATION VALUES
A = Detector Channel
Val Type	A-AC1	A-AC2	A-AC3	A-AC4	A-AC5	A-AC6	A-AC7	A-AC8	A-AC9	A-AC10	A-AC11	A-AC12	A-AC13	A-AC14	A-AC15	A-AC16	A-DC1	A-DC2	A-DC3	A-DC4	A-DC5	A-DC6	A-DC7	A-DC8	A-DC9	A-DC10	A-DC11	A-DC12	A-DC13	A-DC14	A-DC15	A-DC16	A-Ph1	A-Ph2	A-Ph3	A-Ph4	A-Ph5	A-Ph6	A-Ph7	A-Ph8	A-Ph9	A-Ph10	A-Ph11	A-Ph12	A-Ph13	A-Ph14	A-Ph15	A-Ph16	

Term	0.00000e+00	0.00000e+00	0.00000e+00	0.00000e+00	0.00000e+00	0.00000e+00	0.00000e+00	0.00000e+00	0.00000e+00	0.00000e+00	0.00000e+00	0.00000e+00	0.00000e+00	0.00000e+00	0.00000e+00	0.00000e+00	0.00000e+00	0.00000e+00	0.00000e+00	0.00000e+00	0.00000e+00	0.00000e+00	0.00000e+00	0.00000e+00	0.00000e+00	0.00000e+00	0.00000e+00	0.00000e+00	0.00000e+00	0.00000e+00	0.00000e+00	0.00000e+00	0.00000e+00	0.00000e+00	0.00000e+00	0.00000e+00	0.00000e+00	0.00000e+00	0.00000e+00	0.00000e+00	0.00000e+00	0.00000e+00	0.00000e+00	0.00000e+00	0.00000e+00	0.00000e+00	0.00000e+00	0.00000e+00	
Factor	1.00000e+00	1.00000e+00	1.00000e+00	1.00000e+00	1.00000e+00	1.00000e+00	1.00000e+00	1.00000e+00	1.00000e+00	1.00000e+00	1.00000e+00	1.00000e+00	1.00000e+00	1.00000e+00	1.00000e+00	1.00000e+00	1.00000e+00	1.00000e+00	1.00000e+00	1.00000e+00	1.00000e+00	1.00000e+00	1.00000e+00	1.00000e+00	1.00000e+00	1.00000e+00	1.00000e+00	1.00000e+00	1.00000e+00	1.00000e+00	1.00000e+00	1.00000e+00	X	X	X	X	X	X	X	X	X	X	X	X	X	X	X	X	

B = Detector Channel
Val Type	B-AC1	B-AC2	B-AC3	B-AC4	B-AC5	B-AC6	B-AC7	B-AC8	B-AC9	B-AC10	B-AC11	B-AC12	B-AC13	B-AC14	B-AC15	B-AC16	B-DC1	B-DC2	B-DC3	B-DC4	B-DC5	B-DC6	B-DC7	B-DC8	B-DC9	B-DC10	B-DC11	B-DC12	B-DC13	B-DC14	B-DC15	B-DC16	B-Ph1	B-Ph2	B-Ph3	B-Ph4	B-Ph5	B-Ph6	B-Ph7	B-Ph8	B-Ph9	B-Ph10	B-Ph11	B-Ph12	B-Ph13	B-Ph14	B-Ph15	B-Ph16	

Term	0.00000e+00	0.00000e+00	0.00000e+00	0.00000e+00	0.00000e+00	0.00000e+00	0.00000e+00	0.00000e+00	0.00000e+00	0.00000e+00	0.00000e+00	0.00000e+00	0.00000e+00	0.00000e+00	0.00000e+00	0.00000e+00	0.00000e+00	0.00000e+00	0.00000e+00	0.00000e+00	0.00000e+00	0.00000e+00	0.00000e+00	0.00000e+00	0.00000e+00	0.00000e+00	0.00000e+00	0.00000e+00	0.00000e+00	0.00000e+00	0.00000e+00	0.00000e+00	-2.52595e+02	-1.26487e+02	-1.31810e+02	-1.83580e+02	-9.53217e+01	-7.04341e+01	-1.58163e+02	-1.62015e+02	-9.38048e+01	-7.07157e+01	-1.70649e+02	-1.71149e+02	-1.78736e+02	-1.76810e+02	-6.95905e+01	-1.49929e+02	
Factor	6.57577e-05	1.42588e-04	3.98813e-05	1.59387e-01	2.26321e-06	1.63867e-06	1.78960e-01	5.86508e-02	1.89516e-06	1.75252e-06	9.77644e-02	3.36656e-02	3.08182e-02	1.06301e-02	1.65800e-06	1.51188e-02	3.52109e-06	3.79331e-06	1.05871e-06	7.47961e-02	4.09069e-08	4.16821e-08	7.88279e-02	2.75229e-02	4.08750e-08	4.15652e-08	4.44068e-02	1.52238e-02	1.45320e-02	5.00993e-03	4.13229e-08	6.90354e-03	X	X	X	X	X	X	X	X	X	X	X	X	X	X	X	X	



#DISTANCE SETTINGS
A = Detector Channel
A-1	A-2	A-3	A-4	A-5	A-6	A-7	A-8	A-9	A-10	A-11	A-12	A-13	A-14	A-15	A-16	

2.5000e+00	3.0000e+00	2.5000e+00	3.0000e+00	2.0000e+00	3.0000e+00	1.5000e+00	3.0000e+00	3.0000e+00	3.0000e+00	3.0000e+00	3.0000e+00	3.0000e+00	3.0000e+00	1.5000e+00	3.0000e+00	

B = Detector Channel
B-1	B-2	B-3	B-4	B-5	B-6	B-7	B-8	B-9	B-10	B-11	B-12	B-13	B-14	B-15	B-16	

1.0000e+01	1.0000e+01	1.0000e+01	1.4400e+00	1.0000e+01	1.0000e+01	1.5100e+00	1.9400e+00	1.0000e+01	1.0000e+01	1.9900e+00	2.4900e+00	2.4100e+00	2.9000e+00	1.0000e+01	2.9800e+00	




#DATA BEGINS
time	group	step	mark	flag	A-AC1	A-AC2	A-AC3	A-AC4	A-AC5	A-AC6	A-AC7	A-AC8	A-AC9	A-AC10	A-AC11	A-AC12	A-AC13	A-AC14	A-AC15	A-AC16	A-DC1	A-DC2	A-DC3	A-DC4	A-DC5	A-DC6	A-DC7	A-DC8	A-DC9	A-DC10	A-DC11	A-DC12	A-DC13	A-DC14	A-DC15	A-DC16	A-Ph1	A-Ph2	A-Ph3	A-Ph4	A-Ph5	A-Ph6	A-Ph7	A-Ph8	A-Ph9	A-Ph10	A-Ph11	A-Ph12	A-Ph13	A-Ph14	A-Ph15	A-Ph16	B-AC1	B-AC2	B-AC3	B-AC4	B-AC5	B-AC6	B-AC7	B-AC8	B-AC9	B-AC10	B-AC11	B-AC12	B-AC13	B-AC14	B-AC15	B-AC16	B-DC1	B-DC2	B-DC3	B-DC4	B-DC5	B-DC6	B-DC7	B-DC8	B-DC9	B-DC10	B-DC11	B-DC12	B-DC13	B-DC14	B-DC15	B-DC16	B-Ph1	B-Ph2	B-Ph3	B-Ph4	B-Ph5	B-Ph6	B-Ph7	B-Ph8	B-Ph9	B-Ph10	B-Ph11	B-Ph12	B-Ph13	B-Ph14	B-Ph15	B-Ph16	aux-1	digaux	

52280.855	1	1	0	768	0.064574	0.19119	0.043315	0.14124	0.1871	0.02742	0.16825	0.12985	0.06887	0.12134	0.16455	0.10268	0.21319	0.15672	0.09466	0.044557	-4.675	-4.2958	-4.2708	-5.2542	-4.0333	-4.7375	-5.0042	-4.2438	-5.0833	-4.4229	-4.3417	-5.0792	-4.1229	-4.7688	-4.8063	-4.1042	99.595	245.342	79.961	239.919	156.143	-22.953	282.353	160.004	258.396	169.700	-19.452	-30.549	22.338	263.330	197.988	230.996	0.00032633	0.00027011	5.1427e-05	1007	3.7239e-06	2.8712e-06	1114.7	211.68	1.3258e-06	2.822e-06	274.18	76.316	59.632	17.108	1.7675e-06	24.523	4.796e-05	3.1737e-05	9.2108e-06	989.35	4.5824e-07	2.8422e-07	1099.2	209.4	3.6566e-07	3.1849e-07	269.17	75.915	58.651	17.207	3.3825e-07	24.446	15.250	43.057	57.197	-20.378	126.904	137.130	-20.227	-13.179	156.388	133.241	-13.173	-6.342	-5.819	0.926	200.394	0.755	-8191	255	
52280.949	1	1	0	0	0.040268	0.10719	0.062122	0.20905	0.089565	0.11871	0.1618	0.284	0.085016	0.18889	0.12066	0.1166	0.064404	0.18493	0.18892	0.071331	-4.5646	-4.5229	-4.1292	-5.2417	-4.2521	-4.6979	-5.2042	-4.15	-4.9542	-4.7146	-4.2063	-5.0354	-4.2438	-4.4875	-5.0354	-4.1813	-13.527	67.758	1.299	286.646	5.264	316.606	323.558	231.521	98.527	317.686	71.620	30.650	20.736	308.453	75.598	109.268	0.00033405	0.00022647	3.8271e-05	1007.4	2.3244e-06	2.4748e-06	1118.4	211.98	2.9505e-06	1.9097e-06	274.04	76.438	58.903	17.23	1.1972e-06	24.359	4.606e-05	2.7999e-05	8.6836e-06	989.87	4.0592e-07	3.1774e-07	1099	209.72	3.5229e-07	2.9052e-07	269.47	75.923	58.466	17.252	3.3342e-07	24.435	16.024	49.711	58.679	-20.399	69.613	125.231	-20.387	-13.014	97.608	117.485	-13.439	-6.382	-5.692	1.114	144.591	0.476	-8191	255	
52281.047	1	1	0	0	0.081753	0.19769	0.092167	0.090196	0.043615	0.030442	0.2577	0.15221	0.16473	0.070283	0.252	0.086785	0.13012	0.11924	0.034636	0.10859	-4.6083	-4.9187	-4.275	-5.3271	-4.2833	-4.3458	-5.2229	-4.1604	-4.7583	-4.8875	-4.25	-5.1271	-4.4062	-4.2396	-4.9563	-4.2104	85.815	225.450	-23.235	69.930	171.926	110.561	250.101	277.925	-29.288	118.401	202.340	119.105	161.084	-27.770	171.541	-2.381	0.00039236	0.00016194	6.0726e-05	1003.6	3.5429e-06	3.4709e-06	1124.5	211.89	2.9875e-06	3.8206e-06	270.32	76.462	58.851	17.162	1.897e-06	24.366	4.5202e-05	2.8576e-05	8.9174e-06	988.48	3.8231e-07	3.305e-07	1100.7	209.22	3.5817e-07	3.0611e-07	268.78	76.183	58.418	17.193	3.3558e-07	24.418	16.559	81.076	59.568	-20.411	142.364	140.377	-20.186	-12.795	106.687	111.411	-13.168	-6.429	-5.712	1.513	91.111	0.076	-8191	255	
52281.145	1	1	0	0	0.0689	0.12733	0.096979	0.22662	0.14082	0.19269	0.10898	0.21359	0.087894	0.24476	0.19087	0.08012	0.11735	0.12539	0.13853	0.055253	-4.5188	-4.9083	-4.0375	-5.1438	-4.3521	-4.4479	-5.2937	-4.4167	-4.6146	-4.8292	-4.2854	-4.9208	-4.6854	-4.2479	-4.9792	-4.3667	293.255	-24.182	192.710	257.465	134.813	185.325	-3.961	259.186	37.041	89.305	296.448	-15.976	327.952	125.896	264.158	129.613	0.00034984	0.00016572	5.536e-05	1012	3.5247e-06	8.9257e-07	1120.8	212.36	3.3428e-06	3.821e-06	272.54	76.135	59.309	17.231	3.4212e-06	24.597	4.4923e-05	2.6474e-05	8.8292e-06	991.52	4.0038e-07	3.2147e-07	1100.1	209.56	3.5936e-07	3.1191e-07	268.53	76.003	58.6	17.222	3.4427e-07	24.524	19.878	45.028	39.171	-20.369	83.015	99.499	-20.223	-12.690	114.113	122.838	-13.115	-5.633	-5.794	0.955	130.551	0.201	-8191	255	
52281.238	1	1	0	0	0.058486	0.16572	0.11882	0.29052	0.1165	0.096464	0.28541	0.39108	0.030395	0.032525	0.076473	0.029058	0.15411	0.13206	0.18152	0.21741	-4.1958	-4.9313	-4.1062	-5	-4.7625	-4.2021	-5.1729	-4.5687	-4.3583	-4.9021	-4.3146	-5.1125	-4.7688	-4.1479	-5.0813	-4.3833	59.300	280.706	121.051	255.772	292.483	-1.067	261.917	295.209	-2.640	-13.424	319.116	289.260	76.772	-29.425	190.979	52.589	0.00034995	0.00026005	6.3934e-05	1008.4	3.1205e-06	2.1468e-06	1121.2	211.57	1.1535e-06	2.2352e-06	273.8	76.264	58.994	17.301	2.72e-06	24.355	4.5804e-05	2.7501e-05	8.5844e-06	990.93	3.6705e-07	3.1774e-07	1101.5	209.32	3.8772e-07	3.1278e-07	269.24	75.852	58.658	17.238	3.2602e-07	24.376	16.389	36.563	76.804	-20.248	142.254	108.793	-19.913	-12.427	136.374	136.505	-13.117	-6.346	-5.784	1.285	139.278	0.774	-8191	255	
52281.336	1	1	0	0	0.30611	0.089859	0.17926	0.20679	0.072723	0.096758	0.10234	0.10464	0.12454	0.31814	0.3715	0.13828	0.16908	0.29686	0.067425	0.036427	-4.1667	-4.8521	-4.0458	-4.8667	-4.8562	-4.1875	-5.1604	-4.3938	-4.3562	-5.0792	-4.075	-4.7688	-4.8646	-4.1062	-4.9542	-4.5833	261.102	52.120	209.073	314.087	129.887	312.244	-2.542	-0.067	135.113	276.228	328.751	316.437	203.557	69.098	293.058	175.671	0.00035072	0.00036152	8.3032e-05	1004.4	2.3653e-06	3.4667e-06	1121.2	212.1	2.7158e-06	3.4252e-06	274.15	76.173	58.729	17.213	2.8087e-06	24.353	4.9794e-05	2.8948e-05	8.7851e-06	988.31	3.9756e-07	3.4909e-07	1100	209.2	3.9368e-07	2.9581e-07	269.12	75.927	58.504	17.222	3.1095e-07	24.386	21.311	73.995	60.111	-20.357	117.311	110.211	-20.228	-13.024	106.390	117.009	-13.174	-6.092	-5.759	1.971	149.746	0.858	-8191	255	
52281.457	1	1	0	0	0.080351	0.1704	0.073233	0.1321	0.072401	0.056536	0.05553	0.22258	0.11506	0.051489	0.0929	0.22094	0.14676	0.17188	0.093918	0.076061	-4.0062	-5.0708	-4.1604	-4.5437	-5.0771	-4.0854	-5.0417	-4.5708	-4.1292	-5.1	-4.3896	-4.65	-5.2063	-4.0708	-4.8958	-4.825	276.095	327.863	71.194	9.226	219.170	95.814	229.909	248.434	119.720	128.228	229.452	87.300	202.945	247.138	131.667	-30.522	0.00036483	8.4174e-05	6.6803e-05	1006.7	4.353e-06	3.4196e-06	1115.6	212.19	4.3862e-07	2.4034e-06	275.03	76.367	58.573	17.183	2.3167e-06	24.264	5.022e-05	2.7177e-05	8.6241e-06	988.56	4.0958e-07	3.4205e-07	1100.3	209.66	3.8167e-07	2.8645e-07	269.91	76.023	58.433	17.197	3.1121e-07	24.418	9.830	84.947	49.335	-20.064	93.352	113.235	-20.095	-12.756	159.674	100.837	-12.855	-6.366	-5.428	1.453	153.295	0.754	-8191	255	
52281.551	1	1	0	0	0.11069	0.10956	0.15454	0.17486	0.16526	0.17061	0.23166	0.1131	0.059428	0.17652	0.26898	0.16874	0.13698	0.075929	0.060571	0.18456	-3.8396	-5.1125	-4.2792	-4.45	-5.0042	-4.125	-5.0062	-4.7708	-4.1	-4.95	-4.3458	-4.3792	-5.0208	-4.1021	-4.7937	-4.8875	277.218	231.875	81.396	-26.541	241.651	107.848	241.372	313.407	157.251	265.650	9.375	176.887	-1.932	300.262	63.639	-23.369	0.00027821	0.00013054	3.3622e-05	1006.7	3.9462e-06	2.2822e-06	1121.2	212.27	2.1723e-06	2.5224e-06	272.34	76.368	59.035	17.17	3.1786e-06	24.416	4.9897e-05	2.89e-05	7.894e-06	990.26	3.8725e-07	3.4631e-07	1099.2	209.76	4.016e-07	3.1235e-07	269.09	76.016	58.515	17.195	3.224e-07	24.477	27.255	40.640	43.140	-20.559	121.143	123.441	-20.245	-12.504	92.002	89.736	-13.027	-6.064	-6.125	0.993	116.817	0.593	-8191	255	
52281.645	1	1	0	0	0.038227	0.39058	0.067538	0.058949	0.13155	0.24976	0.28463	0.12532	0.11	0.10295	0.093732	0.26725	0.19165	0.20685	0.089078	0.23514	-3.6917	-5.1208	-4.5062	-4.5646	-5.0771	-4.2417	-4.75	-5.1042	-3.9896	-4.9583	-4.8063	-4.2979	-5.1271	-4.3354	-4.4771	-5.1125	148.581	58.072	126.128	9.408	313.620	87.744	296.172	41.237	70.527	192.562	122.187	244.498	164.998	13.137	4.243	95.544	0.00033538	0.00024217	4.759e-05	1009.2	3.4057e-06	1.4079e-06	1119.5	212.26	3.3772e-06	2.2225e-06	274.66	76.576	59.276	17.251	2.353e-06	24.41	5.2435e-05	2.7984e-05	7.8234e-06	989.9	3.8342e-07	3.0845e-07	1099.8	209.48	4.0219e-07	2.6636e-07	269.39	76.069	58.649	17.198	2.9313e-07	24.427	9.043	48.418	48.476	-20.567	137.731	131.529	-20.277	-12.553	120.579	107.620	-13.125	-6.032	-5.676	1.076	102.076	0.842	-8191	255	
52281.742	1	1	0	0	0.13075	0.04982	0.31907	0.27536	0.1199	0.08058	0.20117	0.38425	0.21543	0.11999	0.11706	0.11453	0.21205	0.12641	0.051224	0.11672	-3.8458	-4.9729	-4.6458	-4.3646	-5.2042	-4.3104	-4.6125	-5.1604	-4.1771	-4.9458	-4.8292	-4.2167	-5.0958	-4.1979	-4.3	-5.1646	150.600	128.054	16.948	254.128	282.377	238.564	233.121	1.654	312.984	136.197	298.834	194.762	-17.857	74.377	114.761	-30.007	0.00031872	0.00029052	6.0275e-05	1012.2	5.0018e-06	2.8379e-06	1119.9	211.56	2.6288e-06	2.0469e-06	273.11	76.826	59.307	17.239	2.6498e-06	24.333	5.1987e-05	2.5518e-05	7.4375e-06	990.24	3.9398e-07	2.9177e-07	1099.1	209.57	3.7171e-07	2.816e-07	269.34	76.011	58.573	17.17	3.2688e-07	24.349	8.926	40.724	71.526	-20.430	124.742	118.069	-20.120	-12.759	116.224	128.460	-13.167	-6.507	-6.014	1.228	109.370	0.418	-8191	255	
52281.840	1	1	0	0	0.25778	0.12318	0.23758	0.24961	0.12005	0.15722	0.26471	0.049217	0.19726	0.085437	0.063342	0.29246	0.29961	0.057023	0.10117	0.20856	-3.875	-4.7083	-4.6458	-4.3167	-4.9313	-4.3583	-4.4167	-5.0729	-3.9458	-4.9396	-4.9771	-4.1208	-5.0625	-4.4604	-4.2562	-5.0563	29.141	173.100	7.221	269.019	309.885	76.587	259.215	18.067	167.902	61.008	272.141	166.052	208.542	33.741	256.601	233.063	0.00026796	0.00027649	4.1071e-05	1005.6	3.4351e-06	1.6264e-06	1117.8	210.65	2.9222e-06	1.8991e-06	273.59	76.638	59.047	17.121	2.251e-06	24.462	4.6295e-05	2.5771e-05	8.0175e-06	987.85	3.9041e-07	3.0237e-07	1099.1	209.13	3.6779e-07	3.0776e-07	269.2	75.907	58.587	17.193	3.6924e-07	24.403	23.445	37.698	51.762	-20.249	84.752	123.577	-20.319	-13.120	102.629	169.896	-12.986	-6.008	-5.967	1.186	141.951	0.751	-8191	255	
52281.934	1	1	0	0	0.041134	0.16028	0.09026	0.13882	0.0755	0.2351	0.24057	0.1248	0.17978	0.098011	0.15179	0.22492	0.17938	0.14001	0.16935	0.11946	-3.8104	-4.5167	-4.8354	-4.4187	-4.8562	-4.6521	-4.5	-5.0292	-4.2625	-4.4854	-4.9854	-4.1708	-4.7937	-4.6833	-4.05	-5.2167	173.194	204.807	222.049	324.818	183.879	231.950	262.371	206.452	84.598	95.336	328.048	209.243	259.423	50.475	46.845	-27.934	0.00034625	0.0002461	4.4753e-05	1004	1.5852e-06	3.1573e-06	1122.8	212.52	2.5888e-06	3.4303e-06	274.25	76.48	59.359	17.15	2.2597e-06	24.299	4.7425e-05	2.7004e-05	7.572e-06	989.53	3.547e-07	2.929e-07	1099.6	209.47	3.4659e-07	3.023e-07	269.61	75.946	58.638	17.168	3.5787e-07	24.344	15.741	47.027	76.004	-20.331	108.454	106.772	-20.363	-12.743	101.490	132.015	-13.343	-6.110	-5.894	1.135	124.850	0.589	-8191	255	
52282.055	1	1	0	0	0.24105	0.1015	0.26333	0.27743	0.26703	0.080404	0.10955	0.067402	0.079485	0.13584	0.17456	0.12801	0.31557	0.20758	0.17515	0.12246	-4.1708	-4.4333	-4.9146	-4.2688	-4.8771	-4.8625	-4.3458	-5.0875	-4.4	-4.5104	-5.05	-3.9729	-4.8479	-4.9354	-3.9583	-5.1042	239.342	124.989	27.092	295.908	281.784	327.433	-21.012	186.354	258.894	245.242	316.296	-8.266	272.003	87.229	310.171	278.776	0.00031095	0.00027949	6.0383e-05	1007.4	3.3467e-06	1.6075e-06	1116	212.72	2.502e-06	3.6149e-06	272.7	76.421	59.701	17.053	1.2812e-06	24.428	4.5576e-05	3.0441e-05	7.7727e-06	988.7	3.7609e-07	2.9655e-07	1098.4	209.75	3.7579e-07	3.2871e-07	268.76	75.987	58.777	17.172	3.5477e-07	24.445	18.811	76.221	55.621	-20.451	111.576	116.765	-20.205	-12.859	100.075	101.197	-13.039	-6.710	-6.045	1.763	125.045	0.615	-8191	255	
52282.152	1	1	0	0	0.15774	0.10581	0.13752	0.19741	0.056272	0.12706	0.032793	0.32205	0.13199	0.24959	0.33073	0.10985	0.19865	0.14797	0.083153	0.17457	-4.0104	-4.5083	-5.0896	-4.3562	-4.6104	-4.8562	-4.3771	-4.95	-4.3479	-4.2417	-5.175	-4.3375	-4.6	-4.9437	-4.0583	-5.075	14.899	231.377	-19.131	272.785	128.934	218.110	317.630	304.548	272.712	195.212	279.233	7.997	5.040	242.952	328.158	44.815	0.00037869	0.00025245	8.0705e-05	1010.1	3.3901e-06	2.2935e-06	1119.2	212.35	1.4465e-06	3.5196e-06	273.88	76.8	58.739	17.229	2.8961e-06	24.336	4.8356e-05	3.0591e-05	8.0572e-06	991.18	4.0907e-07	2.9299e-07	1098.8	209.33	3.7264e-07	3.2092e-07	269.49	76.009	58.513	17.202	3.3317e-07	24.464	19.454	44.152	76.231	-20.419	115.112	123.893	-20.387	-12.822	124.304	110.719	-13.163	-6.368	-6.050	1.739	99.582	0.531	-8191	255	
52282.246	1	1	0	0	0.17938	0.10193	0.12166	0.169	0.068438	0.12578	0.20489	0.23673	0.072473	0.11089	0.056224	0.10078	0.039608	0.091353	0.3168	0.22558	-4.1333	-4.0667	-5.0667	-4.3354	-4.4812	-5.0104	-4.3125	-4.9646	-4.5479	-4.2729	-5.3438	-4.2458	-4.5604	-4.9625	-4.2417	-4.8479	250.186	133.485	278.583	-5.484	204.025	156.216	210.197	171.790	254.575	62.852	181.643	5.570	292.726	199.186	-12.881	288.086	0.00037256	0.0002579	6.7082e-05	1008.4	1.4006e-06	2.9338e-06	1118.9	212.62	2.2184e-06	2.0315e-06	273.21	76.431	59.067	17.217	3.7218e-06	24.227	4.7498e-05	3.12e-05	8.0242e-06	989.22	4.1256e-07	2.9325e-07	1099.6	209.85	3.5067e-07	3.5348e-07	269.95	76.017	58.663	17.247	3.5099e-07	24.368	16.709	76.541	49.297	-20.470	118.340	110.481	-20.027	-12.677	95.934	112.413	-13.017	-6.444	-6.176	0.866	105.349	0.438	-8191	255	
52282.344	1	1	0	0	0.054541	0.30898	0.07752	0.12291	0.037229	0.19331	0.11627	0.24893	0.22116	0.13271	0.14492	0.099035	0.088712	0.10862	0.11668	0.09257	-4.575	-4.2312	-5.2479	-4.4917	-4.4417	-5.0396	-4.2479	-4.7979	-4.9979	-4.1479	-5.15	-4.55	-4.2562	-5.0875	-4.1813	-4.65	18.963	50.586	64.299	277.552	13.247	301.109	137.394	-22.994	-30.936	88.394	218.603	221.262	-16.499	117.770	82.539	25.966	0.00035937	0.00027914	8.3314e-05	1007.7	2.7125e-06	2.633e-06	1119.1	212.35	2.0051e-06	1.9465e-06	274.03	76.026	58.864	17.329	2.0692e-06	24.531	4.8789e-05	3.237e-05	7.0735e-06	990.63	3.9543e-07	2.9308e-07	1099.1	209.95	3.5621e-07	3.2464e-07	269.89	76.035	58.563	17.256	3.0699e-07	24.475	12.754	88.536	65.071	-20.351	118.470	101.544	-20.226	-12.983	101.923	160.325	-13.194	-6.128	-6.203	1.413	122.883	0.755	-8191	255	
52282.414	1	1	0	0	0.085755	0.13559	0.18908	0.32788	0.20392	0.095125	0.14318	0.062369	0.26892	0.18715	0.20651	0.14666	0.19902	0.22622	0.30551	0.1516	-4.7021	-3.9813	-5.0583	-4.7542	-4.1604	-4.9917	-4.45	-4.6583	-4.9083	-4.1438	-5.1104	-4.8604	-4.1312	-5.2188	-4.1354	-4.6604	102.910	69.022	288.700	315.024	221.623	-10.601	108.189	269.644	208.335	203.892	193.079	290.891	97.630	253.745	68.136	316.154	0.00035174	0.0002724	8.3358e-05	1006.2	3.4629e-06	2.2344e-06	1118.2	212.37	1.0727e-06	2.4062e-06	273.15	76.691	59.414	17.256	1.0001e-06	24.394	4.7461e-05	3.0133e-05	7.733e-06	990.13	3.991e-07	2.8769e-07	1101	209.9	3.9308e-07	3.4006e-07	269.76	76.124	58.647	17.246	3.2731e-07	24.477	5.003	43.689	51.551	-20.535	114.450	103.990	-20.117	-12.989	89.434	132.070	-12.890	-6.107	-5.899	1.233	168.230	0.543	-8191	255	
52282.535	1	1	0	0	0.12946	0.16502	0.097999	0.092606	0.047403	0.21276	0.20063	0.2868	0.42214	0.052185	0.1462	0.29964	0.13797	0.11172	0.18321	0.15515	-4.5875	-4.0646	-4.9667	-4.8958	-4.0479	-4.975	-4.4625	-4.4854	-5.0646	-4.2458	-4.7937	-4.9542	-4.2458	-5.0771	-4.4062	-4.2896	67.630	36.040	8.906	144.290	180.370	24.503	223.616	322.801	239.248	307.612	207.381	123.925	4.865	-16.997	196.217	294.809	0.00036071	0.00019426	6.8096e-05	1007.3	3.0065e-06	2.1948e-06	1119.6	213.05	2.3086e-06	2.1537e-06	272.83	77.063	59.455	17.237	1.3623e-06	24.413	4.8268e-05	2.954e-05	7.3206e-06	991.44	4.2611e-07	2.804e-07	1101.9	210.06	3.4607e-07	2.9277e-07	269.9	76.301	58.681	17.222	3.3024e-07	24.449	16.903	40.138	35.149	-20.214	156.530	91.648	-20.060	-12.785	98.601	115.967	-13.111	-6.347	-6.191	1.010	96.410	0.704	-8191	255	
52282.633	1	1	0	0	0.18468	0.1408	0.034468	0.21409	0.096448	0.16306	0.2518	0.088525	0.21519	0.26618	0.13948	0.098155	0.1548	0.070445	0.18448	0.12147	-4.8063	-4.2271	-4.6604	-5.1292	-4.0583	-5.1125	-4.6167	-4.45	-5.0021	-4.2646	-4.6	-4.9854	-4.2229	-5.0354	-4.5667	-4.2125	287.844	-10.025	28.558	295.781	210.359	296.200	239.538	232.902	252.687	326.483	320.609	232.441	317.007	135.737	120.936	257.836	0.00036008	0.00029263	4.7773e-05	1009.2	2.931e-06	2.4121e-06	1124.9	211.87	2.5756e-06	2.5039e-06	273.58	76.713	59.259	17.289	2.2223e-06	24.629	4.6765e-05	3.003e-05	7.883e-06	992.56	3.9714e-07	2.7918e-07	1102.9	209.52	3.637e-07	2.9754e-07	269.55	76.082	58.526	17.236	3.3807e-07	24.534	18.101	62.269	60.266	-20.323	112.904	114.106	-20.409	-12.788	75.015	124.028	-13.003	-6.250	-5.737	1.141	149.273	0.171	-8191	255	
52282.727	1	1	0	0	0.050501	0.24868	0.099833	0.18709	0.27002	0.12102	0.2401	0.093897	0.13795	0.1581	0.17494	0.18207	0.1399	0.31503	0.15923	0.036898	-4.7958	-4.2042	-4.5854	-5.1354	-4.0979	-5.0437	-4.8688	-4.2917	-4.9271	-4.4771	-4.5208	-4.975	-4.1167	-4.8104	-4.6667	-4.2396	239.817	204.850	283.681	239.825	24.201	15.879	9.729	86.220	122.196	115.597	231.242	-18.632	284.663	270.839	10.946	141.881	0.00033434	0.00024852	6.1662e-05	1002.3	1.3025e-06	2.3212e-06	1120.3	211.86	2.6486e-06	2.0993e-06	272.62	76.558	59.463	17.24	2.0827e-06	24.53	4.328e-05	2.8837e-05	8.4895e-06	990.99	3.9458e-07	2.441e-07	1101.8	209.8	3.442e-07	3.0282e-07	269.69	76.198	58.735	17.274	3.3274e-07	24.481	14.983	56.160	66.496	-20.320	80.928	120.464	-20.108	-12.765	105.427	143.652	-13.415	-6.601	-6.226	1.021	115.282	0.849	-8191	255	
52282.848	1	1	0	0	0.079162	0.11346	0.085383	0.17873	0.088205	0.10577	0.16143	0.32189	0.07199	0.057321	0.042258	0.076078	0.32021	0.14707	0.062172	0.059298	-4.9146	-4.3104	-4.3042	-5.1687	-4.0646	-4.8229	-4.9417	-4.0875	-4.9667	-4.4625	-4.3521	-5.0667	-4.1917	-4.6813	-4.9583	-4.2792	257.943	109.871	43.460	251.072	106.469	282.798	-28.354	328.821	320.919	175.401	192.538	-7.885	303.672	-8.751	-20.183	130.986	0.00033688	0.00026987	6.1297e-05	1009.3	2.737e-06	2.3858e-06	1115.9	211.95	3.0632e-06	2.9938e-06	273.06	76.776	58.969	17.145	2.0721e-06	24.557	4.3346e-05	2.8205e-05	8.0749e-06	991.7	3.8214e-07	2.8231e-07	1100.1	209.44	3.419e-07	3.1252e-07	269.42	76.338	58.633	17.203	3.144e-07	24.477	21.545	45.748	66.350	-20.232	149.316	120.343	-20.199	-12.833	105.196	121.749	-13.023	-6.288	-5.862	1.406	111.058	0.438	-8191	255	
52282.945	1	1	0	0	0.066737	0.15336	0.18392	0.14726	0.23092	0.054776	0.29157	0.31581	0.16211	0.061597	0.16689	0.2733	0.056718	0.16956	0.052901	0.20469	-4.8917	-4.5292	-4.1333	-5.0938	-4.1062	-4.55	-4.9833	-4.1667	-4.8812	-4.6083	-4.1833	-5.1458	-4.1292	-4.4313	-4.9729	-4.0542	17.845	131.404	319.836	-27.771	218.398	305.228	258.275	286.749	57.798	6.594	288.541	214.606	107.942	48.013	274.003	8.593	0.00034989	0.00019943	4.4763e-05	1013.2	3.8526e-06	2.2266e-06	1122.8	211.97	2.2357e-06	3.4405e-06	274.86	76.432	59.399	17.221	2.6804e-06	24.404	4.5349e-05	2.958e-05	7.9293e-06	992.82	4.1103e-07	3.325e-07	1102.5	209.5	3.6191e-07	3.2871e-07	269.79	76.209	58.759	17.264	3.2559e-07	24.495	15.118	70.186	14.349	-20.376	117.069	123.689	-20.415	-12.683	117.206	107.289	-12.930	-6.168	-5.709	0.885	115.069	0.742	-8191	255	
52283.016	1	1	0	0	0.08562	0.15692	0.14306	0.051689	0.21123	0.25199	0.22238	0.12192	0.072217	0.13173	0.13414	0.22972	0.050762	0.19407	0.16063	0.16363	-4.5479	-4.6708	-4.2	-5.15	-4.1937	-4.5042	-5.2688	-4.1042	-4.5979	-4.675	-4.3313	-5.0292	-4.4583	-4.5292	-5.025	-4.1958	313.292	203.377	204.202	228.945	286.393	192.458	223.669	246.096	232.294	254.405	8.332	290.282	105.637	63.363	142.499	150.427	0.000319	0.00030286	7.4756e-05	1008.7	3.0754e-06	3.0404e-06	1115	211.63	3.7331e-06	4.2988e-06	274.25	76.816	58.973	17.248	1.0129e-06	24.295	4.4043e-05	3.1081e-05	8.6903e-06	992.11	4.2475e-07	3.1809e-07	1101.9	209.74	3.7946e-07	3.1789e-07	269.79	76.235	58.746	17.258	3.237e-07	24.417	15.444	71.585	28.929	-20.349	103.844	113.319	-19.857	-12.798	123.493	111.502	-13.291	-5.749	-5.914	1.015	98.574	0.953	-8191	255	
52283.137	1	1	0	0	0.13968	0.05581	0.13099	0.22849	0.12646	0.081612	0.25518	0.2382	0.086027	0.27825	0.073077	0.29946	0.25241	0.13085	0.064913	0.2465	-4.4458	-4.7583	-4.1188	-5.1312	-4.4146	-4.4563	-5.2604	-4.3187	-4.6542	-4.9187	-4.2958	-5.0938	-4.7083	-4.2	-5.1146	-4.0875	209.351	234.019	71.350	301.239	54.012	204.653	303.585	263.420	324.388	31.526	308.001	-12.756	53.758	267.504	214.276	-28.748	0.00037189	0.00026327	6.8933e-05	1011.1	2.4722e-06	2.0635e-06	1122.1	212.45	3.788e-06	2.8167e-06	274	76.874	59.468	17.252	2.512e-06	24.538	4.9303e-05	2.6403e-05	8.0506e-06	993.41	4.0106e-07	3.1974e-07	1102.7	210	3.8184e-07	3.0646e-07	269.88	76.38	58.771	17.328	2.977e-07	24.482	7.735	63.135	76.246	-20.431	110.775	128.279	-20.058	-12.703	122.257	152.905	-13.365	-6.206	-5.908	0.937	95.948	0.390	-8191	255	
52283.230	1	1	0	0	0.22819	0.34022	0.053398	0.20513	0.21255	0.15184	0.049341	0.070475	0.012216	0.11039	0.14443	0.13712	0.10083	0.23704	0.12165	0.34183	-4.3417	-4.8354	-4.1333	-4.9938	-4.5146	-4.1417	-5.2917	-4.3479	-4.2792	-5.1229	-4.0792	-4.8958	-4.8167	-4.2	-5.1208	-4.3542	124.570	10.068	242.076	277.242	19.988	224.740	271.919	141.429	301.107	128.874	198.203	120.920	-6.753	310.724	328.419	292.354	0.00037815	4.8913e-05	5.4652e-05	1012	3.3567e-06	2.5228e-06	1127.7	211.5	1.873e-06	2.8784e-06	272.94	76.499	59.091	17.278	2.7639e-06	24.287	4.6119e-05	2.8387e-05	7.8102e-06	993.79	3.783e-07	3.0862e-07	1104.9	209.75	3.7903e-07	2.8922e-07	269.51	76.195	58.803	17.306	2.8341e-07	24.517	9.685	34.957	42.420	-20.359	114.062	122.814	-20.108	-12.782	123.497	95.053	-13.039	-5.946	-5.839	0.792	117.565	0.753	-8191	255	
52283.328	1	1	0	0	0.31402	0.14679	0.1786	0.19359	0.20205	0.22254	0.24209	0.15874	0.083563	0.033948	0.10643	0.14477	0.27133	0.20102	0.11032	0.067032	-4.2083	-4.9479	-4.0792	-5.025	-4.9208	-4.075	-5.1813	-4.4083	-4.3063	-5.0958	-4.2625	-4.6854	-4.8271	-4.0979	-4.9167	-4.5479	63.044	4.198	136.104	221.931	46.874	125.993	278.617	212.551	241.328	326.872	258.340	298.838	53.047	210.481	32.158	107.775	0.00032856	0.00022246	9.4894e-05	1010.7	3.703e-06	4.3523e-06	1127.2	213.42	1.6327e-06	2.2858e-06	273.91	77.011	59.56	17.276	1.5515e-06	24.382	4.6302e-05	2.6522e-05	8.3396e-06	991.8	4.1052e-07	3.2069e-07	1105.2	209.99	4.0432e-07	2.7251e-07	269.93	76.32	58.819	17.292	2.9856e-07	24.525	14.368	48.421	65.724	-20.367	111.081	115.430	-19.918	-12.775	91.361	129.465	-13.329	-6.309	-5.717	1.542	118.777	0.860	-8191	255	
52283.449	1	1	0	0	0.051945	0.058462	0.1022	0.14374	0.21772	0.13051	0.31333	0.1408	0.1427	0.21639	0.11954	0.06326	0.07102	0.13971	0.23327	0.13564	-3.9604	-5.0375	-4.1958	-4.9812	-4.8229	-4.1687	-5.0687	-4.7167	-4.2771	-4.9354	-4.3417	-4.7271	-4.9313	-4.2104	-4.8688	-4.675	192.470	41.279	84.900	279.216	162.948	7.898	253.718	309.143	155.395	107.002	131.843	255.740	302.539	316.703	137.214	283.956	0.00033797	0.00027865	8.2395e-05	1019.8	3.1426e-06	2.4408e-06	1126.6	212.15	1.9823e-06	2.312e-06	274.11	76.714	59.545	17.182	3.3315e-06	24.211	5.022e-05	2.6e-05	8.3484e-06	994.65	4.0736e-07	3.0958e-07	1105.2	209.78	3.9206e-07	2.7485e-07	269.88	76.338	58.828	17.263	3.0837e-07	24.416	16.521	79.427	78.141	-20.484	111.642	110.312	-20.153	-12.839	102.327	115.657	-13.080	-6.426	-6.006	1.445	138.597	1.226	-8191	255	
52283.543	1	1	0	0	0.0021504	0.12598	0.30042	0.12044	0.23196	0.12114	0.19033	0.11104	0.21244	0.1765	0.21587	0.071359	0.27383	0.26507	0.071471	0.19109	-3.9208	-4.9938	-4.2646	-4.5729	-5.025	-4.1021	-5.0583	-4.8187	-3.9958	-5.1167	-4.5042	-4.5521	-5.0542	-4.025	-4.6583	-4.7833	170.906	68.566	72.988	286.877	323.481	16.672	298.657	270.394	288.316	159.478	259.690	288.854	-21.564	289.518	294.144	117.042	0.00032147	0.00026446	6.4687e-05	1009.5	3.5483e-06	2.3691e-06	1126	213.83	2.1857e-06	3.6029e-06	274.97	76.547	59.755	17.178	2.4868e-06	24.493	4.6266e-05	2.5186e-05	8.1058e-06	993.29	3.9075e-07	3.0749e-07	1104.5	210.31	3.9776e-07	2.8619e-07	270.32	76.468	58.979	17.231	3.447e-07	24.507	17.972	64.229	83.911	-20.457	124.715	130.234	-20.082	-12.477	68.735	96.603	-13.249	-6.116	-5.995	1.132	140.470	1.246	-8191	255	
52283.641	1	1	0	0	0.2087	0.13637	0.084923	0.17073	0.20776	0.16841	0.055423	0.051976	0.22815	0.12352	0.23346	0.13396	0.12396	0.20392	0.055767	0.10067	-3.8583	-4.9313	-4.4938	-4.3708	-4.9958	-4.1354	-4.8271	-4.7875	-4.0563	-5.0083	-4.3708	-4.3479	-5.0417	-4.1375	-4.7521	-5.0062	42.035	237.048	134.439	314.643	-19.052	59.852	216.405	250.988	277.980	252.189	262.603	321.273	-6.058	181.692	271.113	328.728	0.00040734	0.00022136	3.1579e-05	1013.8	5.1812e-06	2.2722e-06	1127.4	213.09	2.6806e-06	1.4139e-06	274.29	76.54	59.417	17.331	1.9318e-06	24.127	4.6794e-05	2.6695e-05	7.7771e-06	993.81	3.9935e-07	3.1878e-07	1104.6	210.52	3.746e-07	2.6221e-07	270.11	76.48	58.864	17.299	3.3549e-07	24.476	17.147	70.912	80.843	-20.583	141.893	117.922	-20.280	-12.701	102.023	124.643	-13.320	-6.061	-6.110	1.365	147.915	0.188	-8191	255	
52283.711	1	1	0	0	0.36744	0.20275	0.10732	0.26015	0.14711	0.12735	0.29319	0.11981	0.20302	0.14393	0.26924	0.18886	0.2204	0.083501	0.04306	0.11597	-3.7125	-4.8854	-4.4958	-4.3063	-4.8187	-4.2	-4.7271	-5.0229	-4.1417	-4.9333	-4.6729	-4.1833	-5.0021	-4.2937	-4.4917	-5.0062	170.621	111.444	80.797	255.031	148.804	120.875	-30.040	167.664	253.312	169.361	159.304	181.502	75.182	43.922	84.264	323.429	0.00032788	0.00013128	7.6593e-05	1013.6	3.6804e-06	2.9685e-06	1125.4	213.24	3.7757e-06	3.0154e-06	274.06	76.915	59.109	17.46	2.5277e-06	24.466	4.8224e-05	2.8118e-05	7.8168e-06	995.58	3.5308e-07	3.2694e-07	1106.3	210.71	3.7724e-07	2.9451e-07	270.27	76.423	58.864	17.359	3.509e-07	24.551	18.015	70.704	72.931	-20.359	94.443	116.328	-20.306	-12.755	111.491	131.418	-12.987	-6.188	-5.451	0.816	128.981	0.319	-8191	255	
52283.832	1	1	0	0	0.078681	0.22722	0.078156	0.45089	0.11356	0.1421	0.12343	0.13941	0.28931	0.11231	0.046376	0.13911	0.041939	0.15659	0.26473	0.15618	-3.9917	-4.7479	-4.8167	-4.2125	-5.0687	-4.4354	-4.6104	-5.1708	-4.1917	-4.5729	-4.7771	-4.2479	-5.0833	-4.5312	-4.2688	-5.1333	306.243	207.863	95.431	313.435	253.679	88.830	185.743	321.653	62.238	-21.592	178.984	246.074	95.975	297.037	325.315	226.458	0.00035596	0.00036789	7.4575e-05	1015	3.2388e-06	3.5908e-06	1124.5	212.96	3.1691e-06	3.2994e-06	273.07	76.985	59.414	17.345	2.0219e-06	24.46	4.8591e-05	3.1334e-05	8.28e-06	995.39	3.7166e-07	3.4492e-07	1105.4	210.76	3.8525e-07	3.094e-07	270.1	76.531	58.928	17.305	3.7156e-07	24.566	19.409	66.471	69.056	-20.554	114.554	135.835	-20.304	-12.900	84.633	126.240	-12.881	-6.264	-5.927	1.159	149.340	0.882	-8191	255	
52283.930	1	1	0	0	0.26834	0.091239	0.23032	0.31553	0.25336	0.09947	0.2702	0.073161	0.10365	0.13309	0.31764	0.20516	0.14858	0.015739	0.1062	0.25275	-3.8208	-4.5938	-4.9458	-4.3271	-4.8521	-4.4083	-4.3146	-5.0729	-4.1438	-4.5958	-5.0646	-4.1583	-4.975	-4.6396	-4.2479	-5.0375	100.712	46.584	219.478	313.888	328.123	255.183	262.399	69.210	128.645	207.180	308.987	175.689	271.485	-9.367	79.670	21.348	0.00036448	0.00023821	5.6004e-05	1013	4.2935e-06	2.1331e-06	1130.8	213.22	1.4692e-06	2.4729e-06	273.26	76.784	59.51	17.313	2.9291e-06	24.454	4.9178e-05	2.9288e-05	7.9425e-06	994.23	3.887e-07	3.1904e-07	1105.9	211.01	3.9555e-07	3.2092e-07	270.73	76.539	58.932	17.356	3.5348e-07	24.562	19.291	74.713	44.295	-20.445	101.345	106.502	-20.529	-13.024	101.604	147.191	-13.085	-6.370	-6.046	1.458	125.848	0.305	-8191	255	
52284.023	1	1	0	0	0.093732	0.072939	0.11522	0.13357	0.22078	0.070723	0.081785	0.15253	0.13617	0.16453	0.045529	0.01589	0.12851	0.07147	0.24297	0.076366	-4.0292	-4.5042	-4.9688	-4.1438	-4.875	-4.8083	-4.3604	-5.0667	-4.3229	-4.3917	-5.0437	-4.1729	-4.7792	-4.8333	-4.1229	-5.0625	62.605	151.528	90.526	292.805	280.232	297.295	224.277	97.709	7.328	156.730	111.232	98.466	83.687	116.945	89.783	245.037	0.00032714	0.00020025	9.1296e-05	1014.2	2.0239e-06	3.8967e-06	1123.6	213.59	2.2351e-06	2.3749e-06	275.24	77.227	59.474	17.264	2.2467e-06	24.572	4.8796e-05	2.845e-05	7.3625e-06	995.62	3.9168e-07	2.9846e-07	1105.9	211.29	3.953e-07	3.1451e-07	270.91	76.721	58.941	17.329	3.6924e-07	24.57	19.124	48.508	48.280	-20.681	98.370	104.322	-20.491	-12.951	117.089	90.784	-13.655	-6.479	-6.202	1.372	106.043	0.522	-8191	255	
52284.121	1	1	0	0	0.092681	0.1225	0.14237	0.30957	0.24272	0.12455	0.097567	0.37865	0.16705	0.09258	0.18578	0.027464	0.098356	0.088761	0.062834	0.17689	-4.0333	-4.2667	-4.9187	-4.1021	-4.5938	-4.7438	-4.2292	-5.0229	-4.5312	-4.3438	-5.1333	-4.1083	-4.5521	-4.9917	-4.0479	-5.1	67.738	44.999	180.890	309.078	261.499	7.989	-20.591	275.171	172.361	226.245	13.825	218.555	326.436	63.615	39.610	304.410	0.00030767	0.00020757	5.3551e-05	1015.4	4.4136e-06	3.2003e-06	1129	213.31	3.1486e-06	3.2094e-06	273.95	76.787	59.597	17.346	3.2175e-06	24.498	4.9002e-05	3.1121e-05	7.5566e-06	996.62	4.0438e-07	3.0497e-07	1107.5	211.12	3.8252e-07	3.2516e-07	270.73	76.496	59.116	17.379	3.503e-07	24.564	16.680	71.855	44.597	-20.263	144.891	109.133	-20.271	-12.577	77.430	123.608	-12.844	-5.993	-6.120	1.534	109.934	0.419	-8191	255	
52284.242	1	1	0	0	0.17316	0.14971	0.11796	0.34232	0.11681	0.06911	0.24153	0.21372	0.24479	0.20099	0.14629	0.20173	0.21298	0.17611	0.28108	0.12185	-4.2333	-4.2771	-5.0563	-4.3063	-4.6667	-4.8542	-4.4896	-4.9542	-4.7625	-4.2104	-5.1813	-4.3604	-4.3771	-5.0104	-3.9354	-4.7625	223.146	208.815	298.085	6.243	14.414	-6.620	217.793	234.484	240.032	296.718	305.094	276.163	195.837	94.596	151.976	279.275	0.00031799	0.00026981	7.4687e-05	1014.5	4.7319e-06	3.0739e-06	1122.6	214.23	3.0612e-06	2.5193e-06	277.3	77.067	59.781	17.439	2.248e-06	24.462	4.8166e-05	3.1714e-05	7.0118e-06	996.54	4.1282e-07	2.9169e-07	1105.3	211.02	3.591e-07	3.1823e-07	271.1	76.639	58.964	17.417	3.4582e-07	24.61	12.473	43.566	50.357	-20.226	146.866	112.955	-20.259	-12.779	126.295	145.054	-12.853	-6.161	-5.985	0.837	152.813	0.519	-8191	255	
52284.312	1	1	0	0	0.34059	0.19514	0.02282	0.081587	0.032295	0.15499	0.1537	0.13831	0.15099	0.16723	0.066177	0.1003	0.035219	0.30702	0.10759	0.070457	-4.3625	-4.0771	-5.0875	-4.5333	-4.5021	-5.1062	-4.3667	-4.8229	-4.7667	-4.1458	-5.0125	-4.4938	-4.3667	-5.0792	-4.0854	-4.6292	-25.855	46.718	280.814	11.000	275.383	234.305	-2.141	209.498	-20.989	134.875	256.093	70.464	81.767	132.156	-2.605	191.800	0.00037833	0.00025711	6.8394e-05	1016.9	3.6558e-06	2.8746e-06	1124.5	213.8	1.278e-06	2.644e-06	276.25	76.579	59.515	17.353	2.1762e-06	24.583	4.6471e-05	2.9912e-05	7.4551e-06	997.07	4.2671e-07	2.7371e-07	1105.9	211.49	3.8048e-07	3.1945e-07	271.32	76.465	58.996	17.332	3.4505e-07	24.582	17.978	41.351	56.202	-20.595	87.942	122.958	-20.454	-13.077	104.253	119.027	-12.980	-6.343	-5.685	1.134	140.462	0.470	-8191	255	
52284.410	1	1	0	0	0.077139	0.11809	0.088601	0.068158	0.071287	0.1099	0.23703	0.24904	0.05143	0.10168	0.067648	0.28359	0.27061	0.10243	0.061421	0.40203	-4.4812	-4.125	-5.0104	-4.6458	-4.1375	-4.9771	-4.2896	-4.7396	-4.7979	-3.9958	-5.1312	-4.5417	-4.2958	-5.0417	-4.0938	-4.4792	117.637	4.545	200.687	164.254	169.372	307.011	260.994	193.664	2.291	207.653	238.730	67.282	229.207	16.867	27.807	270.214	0.00032637	0.00030369	7.2031e-05	1016	3.6995e-06	2.6273e-06	1124.8	213.44	2.6565e-06	2.9751e-06	274.64	77.56	59.602	17.418	2.478e-06	24.436	4.642e-05	2.8466e-05	7.7837e-06	996.8	4.1495e-07	2.6598e-07	1107.2	211.26	3.5842e-07	3.2499e-07	271.15	76.718	59.08	17.347	3.3222e-07	24.554	8.998	68.751	46.014	-20.349	131.747	100.377	-20.193	-12.768	92.822	144.624	-13.194	-6.395	-6.065	0.976	121.717	0.548	-8191	255	
52284.527	1	1	0	0	0.064341	0.082041	0.23004	0.038919	0.17018	0.17072	0.061774	0.10464	0.15515	0.19454	0.24671	0.14491	0.22076	0.24069	0.17058	0.17194	-4.55	-4.1687	-5.0146	-4.7833	-4.1854	-5.1146	-4.6188	-4.5375	-4.9729	-3.9646	-4.8146	-4.8375	-4.1875	-5.0729	-4.4375	-4.5083	300.799	300.580	322.654	323.931	279.124	24.392	256.871	11.749	60.570	20.218	307.423	327.108	1.814	273.020	268.238	11.519	0.00039576	0.00028932	6.4437e-05	1008.4	5.2595e-06	2.7572e-06	1122.2	213.78	3.4186e-06	3.2972e-06	275.11	76.891	59.536	17.391	2.5234e-06	24.628	4.65e-05	3.0457e-05	8.194e-06	994.76	4.1359e-07	2.6129e-07	1104.8	211.28	3.4769e-07	2.9572e-07	270.88	76.564	59.117	17.377	3.187e-07	24.575	18.581	69.083	75.441	-20.394	102.564	80.352	-20.386	-13.032	134.904	134.634	-13.215	-5.900	-5.598	1.139	137.099	0.655	-8191	255	
52284.625	1	1	0	0	0.28873	0.13477	0.02077	0.27464	0.11434	0.24024	0.25719	0.030298	0.15739	0.089529	0.15545	0.16924	0.13925	0.1241	0.22345	0.11306	-4.7229	-4.0687	-4.6729	-4.9062	-4.0312	-5.0958	-4.6146	-4.2438	-4.9479	-4.0854	-4.7667	-4.9958	-4.1625	-5.0062	-4.5417	-4.2438	56.958	226.267	114.552	304.539	77.357	251.272	222.983	261.003	154.325	75.802	214.901	80.339	84.237	137.294	122.023	25.355	0.00042304	0.0003327	7.506e-05	1009.6	3.4467e-06	2.1917e-06	1133.7	214.97	2.7039e-06	3.2719e-06	274.52	77.012	59.961	17.278	2.3617e-06	24.715	4.5114e-05	2.9327e-05	7.5896e-06	994.74	4.118e-07	2.8118e-07	1108.4	211.47	3.2385e-07	3.1122e-07	271.17	76.568	59.112	17.346	3.119e-07	24.628	16.226	49.793	60.426	-20.401	110.464	138.802	-20.154	-12.794	122.074	141.326	-13.310	-6.143	-5.855	1.197	120.197	0.492	-8191	255	
52284.719	1	1	0	0	0.13188	0.12327	0.2577	0.16727	0.16877	0.11435	0.40786	0.097902	0.20429	0.10478	0.073247	0.20304	0.078898	0.17542	0.029034	0.075172	-4.7458	-4.2833	-4.4292	-5.0458	-3.9271	-4.9938	-4.725	-4.4083	-5.1104	-4.1833	-4.5604	-5.1167	-4.0667	-4.9458	-4.7625	-4.1104	41.622	178.534	321.567	325.966	33.507	161.196	300.469	-25.002	123.811	164.249	244.103	231.763	22.256	73.267	285.021	265.977	0.00035433	0.00026996	4.0823e-05	1013.6	1.9737e-06	3.1052e-06	1121.9	214.01	2.1419e-06	1.7902e-06	274.74	77.232	59.457	17.146	2.2973e-06	24.572	4.3067e-05	2.9216e-05	8.1411e-06	997.24	3.8862e-07	3.0437e-07	1105.7	211.39	3.3994e-07	3.5261e-07	271.01	76.596	59.078	17.313	3.3067e-07	24.593	16.340	78.989	90.863	-20.306	159.550	92.023	-20.167	-12.674	79.276	134.846	-13.378	-6.227	-5.973	0.547	114.673	0.507	-8191	255	
52284.816	1	1	0	0	0.10742	0.063921	0.055282	0.33882	0.13469	0.20374	0.062128	0.20456	0.010755	0.10981	0.16254	0.06197	0.19155	0.13253	0.0242	0.07509	-4.6208	-4.3542	-4.3771	-4.9958	-4.1562	-4.7458	-5.1167	-4.2417	-5.025	-4.3646	-4.3146	-5.075	-4.0771	-4.8688	-4.7375	-4.0771	204.870	213.007	63.569	300.922	95.427	282.281	309.379	247.839	304.506	216.700	231.432	186.648	15.121	247.319	91.087	325.422	0.00033367	0.00030567	7.3602e-05	1014.4	3.0485e-06	2.4657e-06	1127.9	214.52	3.16e-06	3.0668e-06	275.54	76.879	59.317	17.331	1.8973e-06	24.511	4.3574e-05	3.1571e-05	7.8367e-06	996.23	4.1657e-07	2.9777e-07	1105.9	211.44	3.6004e-07	2.9044e-07	271.71	76.43	58.998	17.366	3.1767e-07	24.544	14.713	75.345	26.997	-20.305	98.881	130.177	-20.156	-12.848	102.905	120.608	-13.326	-5.849	-6.214	0.844	107.496	0.391	-8191	255	
52284.910	1	1	0	0	0.041584	0.10379	0.036586	0.33098	0.21199	0.23701	0.2111	0.052659	0.17165	0.14196	0.26859	0.06328	0.10824	0.040998	0.14631	0.3181	-4.6604	-4.5479	-4.1667	-5.1229	-4.25	-4.6188	-5.0521	-4.2688	-4.9625	-4.5792	-4.2667	-5.0625	-4.2188	-4.5042	-4.9229	-3.9771	146.571	191.331	103.899	275.741	148.705	15.037	257.248	304.587	317.654	123.678	251.537	226.893	116.211	190.725	215.248	324.815	0.00035416	0.00034904	6.5112e-05	1011.5	4.116e-06	3.0977e-06	1121.4	213.41	3.5714e-06	2.5432e-06	273.75	77.24	59.349	17.429	1.8879e-06	24.723	4.7146e-05	2.9983e-05	8.3793e-06	993.87	4.2782e-07	2.9169e-07	1105.8	211.3	4.1003e-07	2.855e-07	270.89	76.592	59	17.343	3.1018e-07	24.558	20.861	53.038	47.639	-20.218	112.067	124.252	-20.307	-12.838	89.418	128.222	-13.066	-6.106	-5.835	1.253	125.429	0.805	-8191	255	
52285.008	1	1	0	0	0.20321	0.076159	0.10161	0.038401	0.15321	0.15033	0.094563	0.035848	0.19669	0.10125	0.15892	0.09392	0.1345	0.0077253	0.057248	0.17869	-4.6	-4.8021	-4.0146	-5.1687	-4.2354	-4.5333	-5.3063	-4.1042	-4.9125	-4.6604	-4.2458	-5.1458	-4.3729	-4.3604	-5.0875	-4.1562	260.770	96.865	38.216	302.924	225.652	92.131	148.708	218.940	26.486	154.671	316.163	198.081	82.032	201.066	159.955	193.987	0.00032877	0.00024768	6.428e-05	1013.2	5.1734e-06	2.0721e-06	1125.1	214.33	2.0136e-06	1.387e-06	276.58	76.746	59.76	17.443	1.8161e-06	24.66	4.6068e-05	2.988e-05	8.6373e-06	995.29	4.3378e-07	3.1305e-07	1106.1	211.42	3.7154e-07	2.9087e-07	271.14	76.501	59.009	17.344	2.9408e-07	24.561	30.060	64.098	55.963	-20.152	111.638	121.107	-20.546	-12.685	114.640	137.068	-13.380	-6.712	-5.969	1.269	83.335	0.130	-8191	255	
52285.129	1	1	0	0	0.14828	0.059228	0.080168	0.13183	0.18875	0.088075	0.29476	0.19352	0.087536	0.064846	0.12733	0.12266	0.15337	0.19018	0.1853	0.23972	-4.4229	-4.7833	-4.0896	-5.1146	-4.3208	-4.2125	-5.1396	-4.2292	-4.6167	-4.8	-4.0896	-5.1042	-4.6146	-4.0917	-5.0521	-4.2792	51.073	232.421	98.648	308.391	54.589	303.512	285.934	210.856	260.385	73.405	180.352	290.245	246.265	7.292	95.990	278.309	0.00034968	0.00026224	7.6227e-05	1015.6	3.8712e-06	3.2472e-06	1126.5	213.15	4.2135e-06	1.276e-06	273.63	77.007	59.832	17.302	2.6789e-06	24.384	4.6853e-05	2.8086e-05	7.711e-06	995.09	4.1597e-07	3.1522e-07	1106.9	211.17	4.033e-07	2.8515e-07	270.65	76.517	59.062	17.329	2.7308e-07	24.548	23.174	65.159	47.874	-20.160	104.199	69.292	-20.269	-12.690	89.232	117.468	-13.411	-6.109	-6.145	1.135	110.975	0.634	-8191	255	
52285.227	1	1	0	0	0.020961	0.19849	0.25705	0.12492	0.17656	0.043605	0.1054	0.18829	0.095914	0.14004	0.1731	0.17168	0.20587	0.25885	0.082322	0.2422	-4.1896	-4.8729	-4.1479	-5.1062	-4.5229	-4.1813	-5.0458	-4.2979	-4.5563	-4.9479	-4.0938	-4.9708	-4.6687	-4.1125	-5.0417	-4.3375	57.355	2.308	46.588	230.360	20.682	173.604	301.611	189.541	262.034	199.441	273.219	269.981	125.414	56.048	205.383	-10.871	0.00030451	0.00024838	6.5391e-05	1012.1	3.0894e-06	2.5282e-06	1120.1	214.07	2.469e-06	2.0517e-06	275.02	76.381	59.358	17.439	2.591e-06	24.584	4.865e-05	2.7802e-05	7.9822e-06	995.98	4.2185e-07	3.4909e-07	1104.1	210.93	3.9819e-07	2.6905e-07	270.54	76.171	58.926	17.341	3.1492e-07	24.559	11.135	52.618	67.273	-20.389	143.634	139.208	-20.178	-12.888	103.268	106.585	-13.391	-6.069	-5.874	0.798	156.897	0.628	-8191	255	
52285.320	1	1	0	0	0.24755	0.20047	0.12733	0.29395	0.23308	0.29947	0.12334	0.15423	0.056064	0.079325	0.16711	0.084245	0.13703	0.085635	0.14571	0.4439	-4.0333	-5.0271	-4.0687	-4.8375	-4.5229	-4.1271	-5.1937	-4.3542	-4.2604	-5.0521	-4.1271	-4.75	-4.8562	-4.2729	-5.1042	-4.5437	-22.222	43.324	96.153	263.094	149.974	220.361	149.830	139.673	11.899	161.654	318.325	-3.104	36.133	-16.496	281.823	126.710	0.00035231	0.00024196	2.8851e-05	1017.3	1.585e-06	2.0229e-06	1124.2	212.86	2.5776e-06	3.6779e-06	275.67	77.126	60.143	17.36	2.581e-06	24.452	5.074e-05	2.5257e-05	8.5535e-06	995.83	4.02e-07	2.7797e-07	1105.2	211.03	3.993e-07	2.6836e-07	271.44	76.649	59.052	17.31	3.1819e-07	24.528	8.118	76.809	59.312	-20.351	127.744	137.932	-20.048	-12.753	103.812	100.642	-13.276	-6.265	-5.683	1.069	107.890	0.707	-8191	255	
52285.418	1	1	0	0	0.094748	0.016672	0.21997	0.12875	0.28033	0.12918	0.44342	0.053536	0.17619	0.23372	0.10568	0.26574	0.30135	0.066655	0.062832	0.14394	-3.9354	-5.0208	-4.1333	-4.6896	-4.8063	-4.0229	-5.1896	-4.4854	-4.0938	-4.9688	-4.1604	-4.5396	-4.7646	-4.0521	-4.8	-4.5021	31.977	4.941	16.265	10.452	222.889	100.383	268.850	115.240	-24.212	23.398	38.821	236.836	249.653	184.523	301.579	116.985	0.00037866	0.00019896	6.1148e-05	1011.9	4.6917e-06	2.4648e-06	1124.5	213.61	4.4789e-06	3.0343e-06	274.78	77.087	59.634	17.194	2.4537e-06	24.557	5.0102e-05	2.5486e-05	8.6947e-06	996.43	3.8129e-07	3.2182e-07	1105.7	211.14	3.97e-07	2.8013e-07	271.58	76.427	58.956	17.306	3.4694e-07	24.583	11.043	75.489	75.631	-20.301	96.844	141.020	-19.983	-12.850	120.857	111.527	-12.939	-5.992	-6.334	1.406	99.702	0.479	-8191	255	
52285.535	1	1	0	0	0.25133	0.1603	0.25369	0.30873	0.11807	0.083216	0.18462	0.16463	0.17002	0.091373	0.25297	0.0035218	0.24123	0.10812	0.20528	0.066645	-3.8021	-5.0188	-4.1125	-4.7146	-5.025	-4.0125	-4.9083	-4.6708	-4.0312	-4.9458	-4.4271	-4.4292	-5.1438	-4.1104	-4.7729	-4.7208	298.440	11.966	322.013	292.725	283.066	225.316	197.563	181.156	-6.566	-21.117	252.330	109.685	47.362	227.152	29.958	52.297	0.00033341	0.00033682	4.6233e-05	1016.4	2.4643e-06	2.3499e-06	1127.5	213.92	1.3045e-06	2.7098e-06	274.74	76.713	59.632	17.3	2.514e-06	24.49	4.7307e-05	2.5052e-05	8.3815e-06	996.25	3.7336e-07	3.4752e-07	1106.8	211.06	3.6592e-07	2.752e-07	271.17	76.431	58.937	17.277	3.4591e-07	24.49	13.768	59.278	67.678	-20.528	159.516	113.793	-20.131	-12.728	114.872	93.165	-13.210	-6.734	-6.052	1.446	136.973	0.306	-8191	255	
52285.609	1	1	0	0	0.05101	0.10971	0.05666	0.14519	0.072225	0.23288	0.11677	0.32327	0.12675	0.068546	0.084415	0.18449	0.15633	0.078507	0.13288	0.21579	-3.8708	-5.0396	-4.2604	-4.4375	-4.9771	-4.1479	-4.7854	-4.9979	-4.0729	-5.0042	-4.6438	-4.35	-5.1229	-4.1896	-4.5792	-4.8292	259.176	145.630	-28.601	50.056	273.139	45.992	245.245	249.419	259.452	245.666	7.668	106.703	-13.841	215.547	101.382	149.023	0.00032024	0.00022658	4.4432e-05	1011.8	2.5087e-06	2.6939e-06	1125.8	214.94	2.1705e-06	2.2538e-06	274.75	77.059	59.833	17.353	2.313e-06	24.789	4.8371e-05	2.8331e-05	8.0352e-06	994.06	3.6254e-07	3.2e-07	1108	211.9	3.7673e-07	3.1676e-07	270.89	76.374	59.139	17.381	3.3919e-07	24.671	16.750	68.438	45.913	-20.443	142.753	120.800	-20.097	-12.909	89.241	113.878	-13.117	-5.848	-5.899	1.235	130.331	0.282	-8191	255	
52285.703	1	1	0	0	0.24285	0.32669	0.23406	0.13369	0.091364	0.13566	0.30102	0.1537	0.16306	0.37372	0.14775	0.12843	0.12839	0.085383	0.25532	0.28269	-3.7354	-4.9062	-4.6021	-4.3625	-4.9875	-4.1562	-4.6375	-4.9646	-4.0625	-4.8688	-4.7167	-4.1104	-5.0021	-4.3625	-4.3521	-4.8979	235.938	284.758	287.446	289.753	206.788	-8.672	242.703	307.908	207.165	213.449	264.555	154.737	272.730	244.146	23.039	236.625	0.00034986	0.00023047	8.1814e-05	1012	5.0252e-06	2.7997e-06	1132.6	213.99	3.9963e-06	2.6681e-06	275.6	76.545	59.435	17.391	3.4637e-06	24.601	4.8987e-05	2.8568e-05	8.5359e-06	995.12	3.9799e-07	3.5152e-07	1110.1	211.53	3.9334e-07	3.2369e-07	271.72	76.4	58.949	17.388	3.4048e-07	24.612	25.888	71.293	94.586	-20.588	91.898	135.084	-20.335	-12.766	117.904	112.767	-13.004	-6.133	-6.021	1.636	114.125	0.871	-8191	255	
52285.801	1	1	0	0	0.26778	0.088785	0.14437	0.21725	0.15885	0.14913	0.2213	0.12381	0.14324	0.039679	0.24427	0.27973	0.24041	0.10595	0.31469	0.22181	-3.7917	-4.7708	-4.6708	-4.3125	-4.9708	-4.3104	-4.4771	-5.0417	-4.0646	-4.7646	-4.8354	-4.1375	-4.9688	-4.4	-4.2312	-5.075	277.082	140.299	185.885	275.715	54.154	-22.983	283.803	302.442	215.816	258.898	210.931	281.921	290.199	11.797	61.889	24.031	0.0003075	0.00023414	4.4996e-05	1015.7	3.318e-06	2.3299e-06	1126.3	214.98	2.2685e-06	2.6504e-06	274.88	77.401	59.666	17.466	2.7833e-06	24.57	4.7806e-05	2.7296e-05	8.044e-06	997.62	3.8239e-07	3.0992e-07	1109.1	211.96	4.2059e-07	3.204e-07	271.53	76.549	59.187	17.417	3.3472e-07	24.604	20.680	62.564	43.039	-20.488	117.911	122.745	-20.467	-12.983	89.118	119.944	-13.224	-5.931	-5.804	1.264	129.532	0.241	-8191	255	
52285.922	1	1	0	0	0.16825	0.047835	0.13086	0.25399	0.22211	0.091853	0.14111	0.2008	0.2555	0.12705	0.18637	0.20106	0.36086	0.16295	0.01972	0.20437	-3.8042	-4.5833	-4.9313	-4.25	-4.9542	-4.4354	-4.3396	-5.0875	-4.1917	-4.3958	-4.9958	-4.1438	-4.9812	-4.4646	-4.0208	-5.0188	-10.727	262.449	207.823	293.680	252.017	112.270	150.889	285.516	272.237	-27.184	206.598	218.027	317.115	151.746	216.484	94.721	0.00035742	0.00025753	7.3731e-05	1018.9	3.0111e-06	2.4158e-06	1128.2	213.59	1.3494e-06	3.3203e-06	275.85	77.357	59.865	17.142	2.2303e-06	24.582	4.9024e-05	2.8971e-05	7.1066e-06	998.18	3.7072e-07	3.2529e-07	1106.5	211.81	3.6907e-07	3.2681e-07	271.96	76.844	59.164	17.297	3.3136e-07	24.665	15.980	53.177	26.764	-20.090	92.816	145.513	-20.130	-12.809	114.642	129.752	-13.227	-6.144	-6.210	1.388	126.373	0.745	-8191	255	
52286.016	1	1	0	0	0.17409	0.18171	0.31296	0.26483	0.094426	0.022933	0.12341	0.10523	0.089505	0.28439	0.31457	0.19485	0.069721	0.064462	0.16645	0.20266	-3.8354	-4.4646	-4.9479	-4.15	-4.5813	-4.7833	-4.3187	-5.1354	-4.4229	-4.3479	-5.0312	-3.9958	-4.8125	-4.7812	-4.0625	-5.0583	276.396	5.578	52.481	284.810	53.999	124.087	24.961	306.762	123.263	56.323	303.144	255.494	44.310	313.512	44.979	74.235	0.00033826	0.00037411	4.4194e-05	1019.4	2.4033e-06	2.2662e-06	1122.8	214.13	9.7445e-07	3.1772e-06	274.33	76.821	59.773	17.376	2.5282e-06	24.602	5.1804e-05	2.8932e-05	6.8574e-06	998.73	3.9194e-07	3.3823e-07	1106.5	211.88	3.7213e-07	3.2274e-07	271.38	76.652	59.141	17.423	3.2636e-07	24.555	7.724	78.373	40.747	-20.333	141.439	112.836	-20.436	-12.825	57.626	136.059	-13.482	-6.462	-6.191	1.537	125.995	0.682	-8191	255	
52286.113	1	1	0	0	0.076968	0.031656	0.017632	0.15756	0.20132	0.13741	0.34013	0.29008	0.21673	0.27797	0.15402	0.059483	0.17006	0.087679	0.18778	0.09833	-4.1	-4.2479	-4.9792	-4.2271	-4.5979	-4.6604	-4.1958	-5.0292	-4.4458	-4.2229	-5.0875	-4.1562	-4.6188	-4.9625	-3.9583	-4.8625	-13.408	82.983	160.493	299.399	197.533	220.872	271.018	280.121	210.114	267.819	315.905	25.432	269.828	20.881	57.288	231.873	0.0003358	0.00018262	9.6029e-05	1021.2	2.6484e-06	2.9508e-06	1128.2	214.78	2.3564e-06	2.3095e-06	275.51	77.338	59.921	17.291	2.0812e-06	24.662	4.9743e-05	2.9975e-05	7.3669e-06	998.16	3.9228e-07	2.7736e-07	1108.7	211.97	3.6336e-07	2.9113e-07	271.14	76.574	59.136	17.358	3.5564e-07	24.64	13.433	45.455	45.595	-20.315	123.823	132.086	-20.468	-12.930	117.092	127.504	-12.776	-6.156	-5.533	1.338	104.889	0.077	-8191	255	
52286.211	1	1	0	0	0.11627	0.087342	0.10769	0.27237	0.096024	0.064403	0.19721	0.12003	0.13455	0.038902	0.050456	0.1555	0.17953	0.22747	0.21953	0.090745	-4.2125	-4.1312	-5.0208	-4.1583	-4.5813	-4.8167	-4.0833	-4.8646	-4.6083	-3.975	-5.2083	-4.2333	-4.3354	-5.0167	-3.8979	-4.9917	93.581	48.055	101.571	302.115	-28.059	52.400	210.211	291.953	-12.506	129.657	186.270	306.359	267.641	182.858	241.230	-13.332	0.00029149	0.00028758	4.1898e-05	1017.7	3.17e-06	3.418e-06	1126.9	214.01	1.6437e-06	3.1269e-06	274.96	77.202	59.493	17.219	1.0996e-06	24.478	4.7608e-05	3.0212e-05	7.3625e-06	997.77	3.9756e-07	2.8379e-07	1107.6	211.87	3.884e-07	2.8299e-07	271.95	76.609	59.072	17.33	3.4556e-07	24.642	8.745	62.868	76.313	-20.368	124.426	89.365	-20.248	-12.673	138.053	90.456	-12.980	-6.256	-6.259	1.323	74.360	0.633	-8191	255	
52286.305	1	1	0	0	0.030235	0.233	0.059611	0.12328	0.11898	0.12841	0.16471	0.32133	0.11225	0.21894	0.46057	0.071675	0.057583	0.15915	0.091235	0.10772	-4.4083	-4.0771	-5.0542	-4.4167	-4.3583	-5.0312	-4.3562	-4.8771	-4.8021	-4.0146	-5.0479	-4.4021	-4.2292	-5.0271	-4.1125	-4.7083	284.333	148.820	-26.544	206.860	272.232	263.010	-18.305	233.670	193.661	50.926	278.372	46.971	245.865	311.967	59.518	-8.522	0.00035975	0.00029824	6.5795e-05	1017	3.2963e-06	2.1066e-06	1131.1	212.78	1.123e-06	2.271e-06	275.44	76.744	59.267	17.401	2.4907e-06	24.588	4.7373e-05	2.8932e-05	7.6668e-06	996.72	3.9194e-07	2.6876e-07	1109.5	211.44	3.4131e-07	3.0576e-07	270.96	76.543	58.97	17.362	3.6063e-07	24.617	23.692	59.669	82.304	-20.608	99.769	102.501	-20.285	-12.748	94.671	145.798	-13.160	-5.963	-6.239	1.398	114.035	0.483	-8191	255	
52286.402	1	1	0	0	0.09478	0.16372	0.13854	0.27585	0.058071	0.053186	0.16107	0.35557	0.17434	0.096534	0.17613	0.13961	0.24426	0.11473	0.12289	0.20194	-4.3958	-3.9854	-4.9479	-4.6937	-4.1312	-5.0604	-4.25	-4.6208	-4.8604	-4.1271	-5.0396	-4.5813	-4.1792	-5.0667	-4.1917	-4.4625	-9.227	106.503	163.793	266.852	282.926	293.548	254.140	254.903	220.664	222.483	314.612	229.451	194.807	219.680	282.475	223.874	0.00027432	0.00026502	8.5509e-05	1017.9	2.1847e-06	2.1787e-06	1126	213.78	2.7034e-06	3.5607e-06	276.73	77.033	59.432	17.36	3.1312e-06	24.546	4.3471e-05	2.8987e-05	7.9624e-06	998.44	4.0259e-07	2.7736e-07	1109.1	211.98	3.4011e-07	3.2802e-07	271.64	76.667	59.019	17.367	3.5607e-07	24.652	25.038	80.775	64.395	-20.334	104.283	111.557	-20.244	-12.976	127.246	115.474	-13.349	-6.032	-6.018	0.964	125.548	0.553	-8191	255	
52286.496	1	1	0	0	0.086922	0.025906	0.10273	0.35681	0.14618	0.092761	0.080828	0.085658	0.075292	0.13182	0.10926	0.14113	0.082679	0.075623	0.18563	0.18871	-4.5729	-3.8292	-4.8562	-4.7063	-4.1375	-5.0958	-4.2917	-4.4604	-4.9396	-3.9854	-4.8562	-4.7021	-4.1896	-4.9812	-4.3146	-4.3812	-27.766	96.907	220.370	220.452	289.840	323.690	272.282	87.843	121.616	220.645	214.288	259.130	143.591	29.011	13.938	244.068	0.00033368	0.00027318	3.1975e-05	1014	2.0322e-06	2.7224e-06	1125.9	214.51	2.0403e-06	3.5709e-06	274.06	77.205	60.101	17.366	2.0518e-06	24.555	4.0867e-05	3.2322e-05	8.2866e-06	996.48	3.7489e-07	2.8891e-07	1108.2	211.93	3.362e-07	3.2023e-07	271.28	76.628	59.19	17.372	3.3153e-07	24.592	23.926	61.983	96.178	-20.396	116.816	110.556	-20.177	-13.020	82.325	119.253	-13.258	-5.771	-6.017	1.095	136.220	0.614	-8191	255	
52286.617	1	1	0	0	0.25987	0.26745	0.11003	0.20575	0.22905	0.11194	0.21175	0.26919	0.13333	0.1887	0.14975	0.038752	0.11944	0.13148	0.23882	0.12045	-4.6646	-4.0167	-4.7021	-4.8562	-4.0542	-5.0167	-4.5958	-4.3521	-5.0312	-4.1562	-4.6521	-4.8438	-4.1438	-4.9896	-4.4333	-4.1667	243.110	224.728	104.957	253.818	316.689	153.948	227.903	1.128	121.857	63.271	215.928	313.751	-15.143	122.355	277.225	313.249	0.00036148	0.00020667	9.8722e-05	1013.5	1.4492e-06	2.8618e-06	1123.1	213.38	2.909e-06	2.5e-06	274.81	76.914	59.927	17.413	3.5535e-06	24.533	4.5136e-05	3.1974e-05	8.0947e-06	995.82	3.8734e-07	2.982e-07	1107.6	211.17	3.5961e-07	3.2499e-07	271.35	76.691	59.283	17.398	3.3334e-07	24.562	12.334	66.399	66.126	-20.346	102.352	120.407	-20.097	-12.989	109.889	109.089	-13.258	-6.385	-5.787	1.163	131.237	0.501	-8191	255	
52286.715	1	1	0	0	0.16434	0.027689	0.10823	0.31576	0.17695	0.17648	0.13472	0.35407	0.29099	0.060183	0.16096	0.20911	0.025592	0.1244	0.14156	0.20623	-4.6188	-4.0667	-4.5188	-4.8271	-3.9562	-4.8979	-4.7812	-4.0792	-5.1792	-4.0333	-4.5146	-4.8438	-4.0667	-4.8271	-4.6854	-4.1729	95.863	319.541	51.972	322.090	168.096	112.953	310.859	315.087	277.967	171.367	268.996	217.671	105.775	-23.048	-30.128	41.257	0.00032083	0.00030378	4.6286e-05	1014.8	4.5073e-06	1.9154e-06	1127.8	214.51	3.0039e-06	1.9993e-06	275.74	76.923	59.152	17.31	2.7875e-06	24.54	4.4835e-05	3.0718e-05	7.7639e-06	997.83	4.2884e-07	3.068e-07	1108.7	211.6	3.706e-07	3.2178e-07	271.85	76.431	58.883	17.337	3.0166e-07	24.537	13.671	63.730	56.801	-20.463	89.336	95.209	-20.127	-13.000	86.389	116.525	-12.880	-6.351	-6.052	0.971	135.888	0.489	-8191	255	
52286.809	1	1	0	0	0.041437	0.23696	0.059872	0.13046	0.054889	0.13887	0.30522	0.2776	0.18483	0.25329	0.22631	0.15101	0.15318	0.12079	0.15512	0.12899	-4.4688	-4.3125	-4.3271	-5.1875	-3.8708	-4.6667	-4.7958	-4.1667	-4.9021	-4.3771	-4.3104	-5.05	-4.0792	-4.7479	-4.8938	-4.1604	188.033	85.459	215.742	310.946	127.208	149.470	231.081	314.990	233.784	125.630	236.652	46.692	172.215	277.778	143.078	137.220	0.00032448	0.00023841	8.6837e-05	1014.6	3.9707e-06	1.8929e-06	1129.5	214.63	1.698e-06	2.9718e-06	275.93	77.088	59.461	17.297	1.9099e-06	24.697	4.796e-05	3.0481e-05	8.1852e-06	998	4.3216e-07	3.4787e-07	1109.4	211.86	3.7554e-07	3.314e-07	271.71	76.685	59.056	17.352	3.0708e-07	24.617	14.716	92.703	70.277	-20.289	131.445	119.959	-20.047	-12.730	96.054	129.184	-13.248	-5.922	-6.077	0.979	104.786	-0.039	-8191	255	
52286.906	1	1	0	0	0.075743	0.17367	0.19304	0.30448	0.12809	0.26585	0.1148	0.14629	0.16301	0.081327	0.28975	0.13474	0.14352	0.16086	0.26321	0.1834	-4.6813	-4.475	-4.1604	-5.3417	-4.1979	-4.6375	-5.2104	-4.0437	-4.7979	-4.4333	-4.2625	-5.0104	-4.2271	-4.4146	-4.9062	-4.2271	211.019	132.198	91.824	323.640	159.959	145.350	301.248	170.933	122.935	184.373	307.048	112.474	291.037	-9.139	79.900	61.893	0.00031261	0.00018403	8.7708e-05	1017.6	4.097e-06	2.0519e-06	1129.7	213.33	1.7411e-06	1.7728e-06	276.76	77.458	59.631	17.461	2.661e-06	24.552	4.7674e-05	2.8995e-05	8.13e-06	997.8	4.2594e-07	3.2755e-07	1108.9	211.42	3.7171e-07	3.1997e-07	271.72	76.759	59.144	17.387	2.9976e-07	24.578	15.859	53.790	49.738	-20.115	95.900	112.739	-20.378	-12.768	97.145	129.041	-13.054	-5.995	-5.937	1.126	116.908	0.087	-8191	255	
52287.000	1	1	0	0	0.11388	0.21585	0.14254	0.21097	0.0228	0.014103	0.39169	0.18818	0.19097	0.032584	0.10213	0.10627	0.34478	0.28196	0.32411	0.13361	-4.6813	-4.7208	-4.1354	-5.2958	-4.3042	-4.5646	-5.0833	-4.0188	-4.8042	-4.85	-4.1979	-5.0792	-4.2854	-4.4708	-4.7979	-4.1042	317.959	95.084	292.840	252.095	130.612	88.887	245.980	238.895	204.930	145.093	218.604	33.734	239.352	18.943	35.859	314.058	0.00035597	0.00026754	5.4751e-05	1015.1	4.1102e-06	2.5002e-06	1128	213.91	2.3186e-06	2.6199e-06	275.98	76.925	60.077	17.353	2.4921e-06	24.461	4.6361e-05	2.7952e-05	7.325e-06	997.76	4.3557e-07	3.0593e-07	1111.3	211.97	3.5255e-07	2.816e-07	271.3	76.757	59.297	17.37	3.1595e-07	24.616	22.174	54.524	49.694	-20.573	106.697	125.234	-20.333	-12.750	158.607	130.189	-13.546	-6.381	-5.908	0.952	144.681	0.007	-8191	255	
52287.098	1	1	0	0	0.21176	0.038609	0.037365	0.056809	0.14428	0.22748	0.15889	0.018473	0.078248	0.25564	0.12703	0.15468	0.052932	0.052319	0.1728	0.092925	-4.3646	-4.7625	-4	-5.0938	-4.2646	-4.4042	-5.1021	-3.8854	-4.6208	-4.7937	-4.0521	-4.7063	-4.4646	-4.1458	-5.0854	-4.2562	258.613	-8.964	166.586	234.379	-16.670	86.486	283.077	109.764	30.584	155.371	321.237	302.621	14.352	126.752	203.250	207.111	0.00032247	0.00020963	7.6468e-05	1018.4	3.8516e-06	2.3588e-06	1128.5	213.96	3.2227e-06	2.4731e-06	277.95	77.135	59.594	17.448	3.1772e-06	24.495	4.7417e-05	2.7873e-05	8.5557e-06	999.35	4.3719e-07	3.0315e-07	1109.4	211.86	3.7086e-07	2.5753e-07	272.03	76.615	59.021	17.358	3.2507e-07	24.586	15.916	65.536	55.811	-20.511	116.015	154.058	-20.133	-12.697	89.246	89.953	-13.195	-6.809	-5.703	1.485	109.779	0.499	-8191	255	
52287.219	1	1	0	0	0.086604	0.15242	0.10112	0.061985	0.084356	0.099842	0.25471	0.072057	0.078194	0.24369	0.033668	0.19496	0.12414	0.018464	0.092408	0.016516	-4.2167	-4.8979	-4.0917	-4.9812	-4.5396	-4.1125	-5.1687	-4.2542	-4.3625	-4.7333	-4.0292	-4.8354	-4.7125	-4.0875	-5.0021	-4.3063	171.925	104.452	133.450	277.691	-1.304	164.550	304.173	229.609	192.880	98.505	276.144	255.804	208.440	103.054	293.524	17.225	0.00033113	0.00021516	6.5096e-05	1015	2.0578e-06	2.8723e-06	1130.8	215.15	2.8207e-06	4.0541e-06	275.55	77.146	59.671	17.49	3.2054e-06	24.476	4.6875e-05	2.7905e-05	8.4653e-06	997.3	3.9492e-07	3.1644e-07	1109.3	211.94	3.557e-07	2.8567e-07	271.27	76.73	59.114	17.376	3.4289e-07	24.607	11.568	55.406	56.859	-20.415	96.104	132.769	-20.218	-12.558	93.359	107.847	-13.170	-6.512	-5.786	1.017	111.445	-0.254	-8191	255	
52287.312	1	1	0	0	0.080415	0.24437	0.11431	0.20097	0.1935	0.24195	0.034473	0.17499	0.016827	0.067318	0.12858	0.046522	0.26168	0.15833	0.18459	0.20059	-4.2479	-4.8229	-4.1271	-4.8083	-4.6333	-4.0437	-5.0979	-4.3042	-4.3104	-4.8896	-4.2063	-4.8562	-4.7625	-4.1312	-5.0042	-4.4708	-3.124	154.725	192.870	288.680	181.343	185.752	272.171	238.388	-21.107	60.625	139.039	47.680	46.630	237.837	197.822	282.784	0.00033963	0.00040953	3.8273e-05	1022.5	2.6966e-06	3.3383e-06	1126.2	213.59	2.179e-06	1.6722e-06	276.84	76.726	59.469	17.239	2.659e-06	24.52	4.6207e-05	2.8402e-05	8.7454e-06	997.5	3.737e-07	3.4101e-07	1108.7	211.84	3.7622e-07	2.8057e-07	271.51	76.589	59.008	17.32	3.4565e-07	24.628	12.831	65.458	63.748	-20.395	74.721	136.882	-19.920	-12.760	99.187	113.172	-13.009	-6.572	-5.813	0.814	164.284	1.085	-8191	255	
52287.410	1	1	0	0	0.215	0.087945	0.2174	0.16048	0.30159	0.17051	0.21097	0.19481	0.27255	0.035693	0.094265	0.09664	0.090297	0.15096	0.0035109	0.088952	-4.0646	-4.8313	-3.9583	-4.7979	-4.8063	-4.0417	-5.0896	-4.5271	-4.1	-4.9875	-4.2292	-4.5813	-4.8125	-3.9771	-4.7667	-4.6312	-6.293	-6.355	61.721	261.719	144.347	262.088	-13.166	106.294	112.137	103.548	142.781	113.890	196.242	320.431	48.442	42.313	0.00032278	0.00024602	9.4826e-05	1020.7	3.6597e-06	3.0744e-06	1131.9	214.25	2.8181e-06	1.3732e-06	273.84	77.672	59.467	17.247	2.3803e-06	24.551	4.5994e-05	2.7288e-05	8.355e-06	999.57	3.8274e-07	3.3693e-07	1108.2	211.87	3.5067e-07	2.9139e-07	271.09	76.64	59.198	17.328	3.4944e-07	24.595	14.598	83.696	51.944	-20.566	101.709	98.154	-20.439	-12.654	108.365	99.680	-12.689	-6.095	-5.791	1.248	124.501	0.207	-8191	255	
52287.480	1	1	0	0	0.16475	0.095145	0.068226	0.35413	0.063637	0.26965	0.19892	0.24217	0.059033	0.14183	0.099829	0.17394	0.27086	0.20803	0.19444	0.079621	-3.875	-4.9792	-4.2875	-4.6146	-4.8667	-3.9813	-4.9625	-4.7833	-4.0917	-4.9833	-4.2604	-4.5083	-5	-4.1604	-4.6896	-4.775	156.895	60.849	219.181	321.912	111.387	59.418	327.485	195.053	30.266	163.333	100.701	260.378	271.480	232.976	69.786	296.414	0.00033662	0.00022572	4.8079e-05	1019.1	2.4967e-06	2.563e-06	1128.3	215.94	9.0376e-07	3.1487e-06	274.91	77.579	59.63	17.342	2.6176e-06	24.541	4.6346e-05	3.0173e-05	8.8116e-06	998.28	3.766e-07	3.2408e-07	1107.9	212.5	3.6924e-07	3.0524e-07	271.49	76.793	59.139	17.383	3.5693e-07	24.581	22.018	51.717	52.553	-20.434	127.932	102.150	-20.360	-12.719	197.591	135.156	-12.605	-6.097	-5.939	1.105	131.381	0.577	-8191	255	
52287.602	1	1	0	0	0.13133	0.059629	0.27237	0.086928	0.043722	0.030588	0.19403	0.16602	0.14001	0.096418	0.21966	0.12179	0.11075	0.056762	0.09264	0.26366	-3.8896	-5.025	-4.3729	-4.3958	-4.9333	-4.1312	-4.9229	-4.7875	-4.0542	-4.9646	-4.4896	-4.2042	-5.0521	-4.2875	-4.5208	-4.9271	32.185	210.443	116.015	246.602	101.075	-14.061	292.648	55.645	245.187	184.199	282.064	237.750	217.136	182.984	-16.289	299.710	0.0003353	0.00033713	4.9849e-05	1017.8	4.2254e-06	8.8844e-07	1127.4	214.99	3.1497e-06	1.8238e-06	275.49	77.136	59.551	17.247	2.6578e-06	24.802	4.9105e-05	2.6909e-05	8.4013e-06	998.73	3.7259e-07	3.3719e-07	1109.4	211.65	3.8942e-07	2.6836e-07	271.4	76.826	59.079	17.361	3.4255e-07	24.67	15.816	72.600	61.874	-20.532	142.761	112.131	-20.367	-12.848	97.170	115.725	-13.232	-6.267	-5.849	0.997	140.983	0.532	-8191	255	
52287.695	1	1	0	0	0.22536	0.092274	0.10811	0.25838	0.13354	0.10183	0.21585	0.028068	0.044466	0.31305	0.085955	0.20366	0.14898	0.30027	0.1375	0.20831	-3.6958	-4.7896	-4.4125	-4.4104	-5.0958	-4.1708	-4.7	-5.0104	-4.0458	-4.925	-4.5958	-4.1	-5.1583	-4.3208	-4.4833	-5.05	51.807	-13.952	116.176	273.451	5.786	102.444	248.332	-10.490	284.356	-5.731	43.856	327.988	2.543	-7.255	228.271	21.664	0.0003691	0.00019831	4.6656e-05	1016.1	2.8591e-06	1.7368e-06	1126.3	213	2.7017e-06	2.6612e-06	276.89	77.531	59.955	17.47	3.5022e-06	24.502	4.8562e-05	2.4491e-05	7.5566e-06	997.31	3.8052e-07	3.3927e-07	1109.3	211.58	3.924e-07	2.9044e-07	271.84	76.829	59.14	17.383	3.385e-07	24.552	23.236	37.079	54.820	-20.070	100.809	117.882	-20.197	-12.792	126.514	111.383	-13.045	-5.741	-5.720	1.560	167.653	0.433	-8191	255	
52287.793	1	1	0	0	0.19495	0.13981	0.0095257	0.14706	0.12009	0.32505	0.12311	0.074026	0.18535	0.078157	0.051299	0.18289	0.062129	0.29941	0.28066	0.090568	-3.7583	-4.7937	-4.5	-4.3146	-4.9542	-4.2583	-4.5208	-5.25	-4.0229	-4.5979	-4.825	-4.1792	-4.975	-4.4292	-4.3167	-4.9479	94.945	125.911	205.712	274.906	235.971	16.289	220.929	242.317	89.894	1.245	214.819	61.419	285.188	-3.779	21.875	225.674	0.00033336	0.00012715	2.8737e-05	1017.2	3.8529e-06	1.5346e-06	1127.4	214.07	4.0692e-06	1.8364e-06	274.39	77.34	59.756	17.432	3.2847e-06	24.724	4.8716e-05	3.0923e-05	7.4529e-06	998.98	4.0072e-07	3.2321e-07	1109.5	211.71	3.8882e-07	2.8845e-07	271.13	76.86	59.149	17.358	3.1767e-07	24.709	13.087	74.159	37.202	-20.679	119.072	94.009	-20.192	-12.506	112.252	135.277	-13.191	-6.429	-6.180	1.263	133.674	0.133	-8191	255	
52287.891	1	1	0	0	0.21342	0.11656	0.14095	0.055189	0.17875	0.17153	0.21739	0.074994	0.23682	0.091072	0.24312	0.1408	0.18802	0.093506	0.055826	0.09401	-3.8042	-4.6667	-4.7854	-4.1875	-5.0062	-4.5208	-4.3354	-5.1062	-4.0938	-4.5771	-4.9521	-4.2104	-4.9688	-4.7521	-4.15	-5.0563	70.818	269.340	106.587	153.637	90.278	279.129	241.707	311.345	-5.634	261.092	-7.316	320.411	256.432	160.603	245.800	257.773	0.00032534	0.00024269	5.9524e-05	1016.1	5.0004e-06	1.9732e-06	1131.8	214.3	3.2463e-06	4.2879e-06	275.02	76.897	59.442	17.45	2.5124e-06	24.336	5.0674e-05	2.796e-05	7.1948e-06	997.77	4.0583e-07	3.0923e-07	1110.1	211.92	3.993e-07	2.9676e-07	271.78	76.707	59.116	17.365	3.3489e-07	24.606	8.829	70.857	84.255	-20.493	94.021	118.194	-20.160	-12.887	116.601	124.117	-12.851	-6.689	-5.659	1.058	108.450	1.307	-8191	255	
52288.012	1	1	0	0	0.060603	0.09644	0.068047	0.25964	0.12769	0.11557	0.18182	0.1874	0.14372	0.13344	0.07446	0.13062	0.11075	0.059476	0.18585	0.065964	-3.8417	-4.4833	-4.9396	-4.1917	-4.9083	-4.6104	-4.1958	-5.0708	-4.1958	-4.5312	-4.8187	-4.0667	-4.7542	-4.8333	-4.0229	-5.15	-23.324	305.693	132.914	-10.071	326.016	128.403	134.316	46.815	-29.275	31.639	169.660	129.342	150.562	69.004	-6.204	114.122	0.0003582	0.00018902	5.8959e-05	1012.7	4.2606e-06	2.7293e-06	1125.4	214.79	3.5523e-06	3.4533e-06	273.73	77.328	59.359	17.243	3.5363e-06	24.653	4.9772e-05	2.5115e-05	7.6823e-06	996.43	4.1776e-07	2.8952e-07	1108	212.08	4.033e-07	2.8836e-07	271.06	76.635	59.052	17.353	3.7346e-07	24.665	22.230	80.679	47.576	-20.354	122.427	150.725	-20.433	-12.984	125.796	103.435	-13.200	-5.830	-5.850	1.518	127.981	0.131	-8191	255	
52288.082	1	1	0	0	0.19057	0.20141	0.15009	0.21442	0.21387	0.20214	0.077074	0.15133	0.27656	0.07616	0.13706	0.10592	0.089481	0.1658	0.18646	0.064663	-4.0729	-4.3875	-4.9167	-4.1625	-4.5833	-4.8521	-4.0896	-5.0167	-4.5083	-4.3917	-5.0062	-4.15	-4.7271	-4.8333	-3.9292	-5.0125	119.500	265.091	273.011	304.607	158.708	197.497	120.222	0.979	227.850	282.336	117.884	195.037	303.897	242.125	246.352	195.374	0.00033199	0.00023877	7.7464e-05	1016.3	5.0653e-06	2.0213e-06	1129.7	213.85	2.6202e-06	2.0388e-06	276.27	76.834	59.408	17.193	1.8048e-06	24.453	4.9185e-05	2.7691e-05	7.9734e-06	996.2	4.1273e-07	2.9429e-07	1109.2	211.33	3.7877e-07	3.0498e-07	272.2	76.484	58.945	17.288	3.6373e-07	24.583	9.456	42.676	62.531	-20.262	123.239	112.984	-20.323	-12.997	132.243	107.600	-12.845	-6.240	-5.638	1.379	141.049	0.980	-8191	255	
52288.180	1	1	0	0	0.112	0.091293	0.099496	0.33447	0.14006	0.16763	0.10504	0.12792	0.19205	0.1511	0.19105	0.13208	0.25513	0.099719	0.1375	0.13795	-4.2167	-4.1917	-4.9417	-4.3021	-4.6375	-4.9437	-4.075	-5.0146	-4.4958	-4.2521	-5.1687	-4.2375	-4.5333	-4.8479	-4.1333	-4.875	159.412	281.691	294.364	-30.172	238.365	233.420	35.463	324.689	321.787	245.980	311.417	128.336	264.215	33.198	222.883	309.344	0.00030527	0.00033569	7.9914e-05	1013.5	2.9887e-06	1.9932e-06	1132.2	214.04	3.6459e-06	2.7962e-06	274.63	77.396	59.829	17.346	3.1629e-06	24.578	4.7887e-05	2.8956e-05	6.7272e-06	996.28	3.806e-07	3.0384e-07	1109.1	211.57	3.5025e-07	3.1269e-07	271.03	76.656	58.947	17.339	3.6433e-07	24.604	4.844	77.669	48.134	-20.183	141.232	126.368	-20.330	-12.912	115.383	121.551	-12.984	-6.463	-6.083	1.115	122.696	0.338	-8191	255	
52288.297	1	1	0	0	0.18085	0.25527	0.091412	0.19874	0.32378	0.036697	0.17419	0.071355	0.18047	0.10058	0.090734	0.14064	0.17022	0.16666	0.10456	0.18633	-4.35	-4.1479	-5.2104	-4.5292	-4.4104	-4.8354	-4.1	-4.8729	-4.6354	-4.2729	-5.1604	-4.4417	-4.2292	-5.0458	-4.0979	-4.8396	1.008	53.475	107.684	287.647	207.890	311.943	-16.206	214.933	101.209	293.169	99.972	322.210	24.734	323.836	318.116	-19.406	0.00032272	0.00015159	4.9209e-05	1013.7	1.9567e-06	2.4567e-06	1126.4	213.83	2.4866e-06	3.0361e-06	274.28	76.337	59.905	17.387	2.2194e-06	24.554	4.4718e-05	3.1998e-05	7.7043e-06	996.71	3.8879e-07	2.9846e-07	1107	211.59	3.4241e-07	3.1962e-07	271.37	76.397	59.097	17.363	3.4591e-07	24.556	12.397	57.299	50.343	-20.392	126.609	145.034	-20.104	-12.664	92.785	124.663	-13.381	-6.146	-5.886	1.081	106.169	0.896	-8191	255	
52288.395	1	1	0	0	0.037646	0.15486	0.088074	0.093718	0.17735	0.038369	0.19182	0.22196	0.090339	0.24612	0.10166	0.20478	0.054831	0.05531	0.23766	0.16025	-4.5229	-4.225	-4.9292	-4.4875	-4.1917	-5.0854	-4.2146	-4.6021	-4.9104	-4.0521	-5.0104	-4.6521	-4.3167	-5.0917	-4.0896	-4.6062	34.494	246.463	55.827	138.783	162.030	109.437	235.951	-21.834	3.229	328.813	282.964	293.553	10.299	35.381	158.122	280.795	0.00037315	0.00018482	7.5951e-05	1010.1	3.9449e-06	2.6886e-06	1127.3	214.06	3.571e-06	3.6422e-06	275.02	77.37	59.185	17.258	3.4556e-06	24.385	4.4938e-05	3.1097e-05	8.4476e-06	994.86	3.9842e-07	3.0341e-07	1107.2	211.63	3.396e-07	3.1815e-07	271.38	76.701	58.954	17.364	3.6011e-07	24.521	-0.188	28.971	63.832	-20.096	92.352	123.071	-20.327	-12.811	109.311	103.170	-13.185	-6.055	-5.768	0.707	128.994	0.114	-8191	255	
52288.492	1	1	0	0	0.03063	0.13978	0.21969	0.051118	0.037527	0.19195	0.072009	0.15167	0.2625	0.10012	0.018962	0.1495	0.15343	0.32643	0.22326	0.068605	-4.5958	-3.9625	-4.8562	-4.8604	-4.0104	-5.0188	-4.3708	-4.4771	-4.9833	-3.9979	-4.9187	-4.7771	-4.1667	-5.0854	-4.4479	-4.5312	131.819	6.103	226.759	199.590	164.042	286.204	320.224	278.738	60.610	90.336	221.292	304.148	24.980	245.209	204.839	314.717	0.00031842	0.00018564	7.2655e-05	1014.3	1.8047e-06	2.9995e-06	1127.9	212.96	1.7318e-06	3.177e-06	277.07	77.244	59.475	17.366	3.405e-06	24.499	4.7139e-05	3.1643e-05	8.0815e-06	995.89	4.0217e-07	2.9238e-07	1107.9	211.35	3.5885e-07	3.4006e-07	271.42	76.719	58.955	17.388	3.3472e-07	24.566	12.399	86.883	64.492	-20.166	107.045	134.956	-20.086	-13.095	104.257	129.779	-12.943	-6.299	-6.072	1.202	117.350	-0.062	-8191	255	
52288.609	1	1	0	0	0.060199	0.20922	0.34788	0.11164	0.06715	0.077367	0.34338	0.2117	0.10529	0.12917	0.060883	0.13742	0.16732	0.086279	0.067158	0.1448	-4.6646	-3.9917	-4.8313	-4.9729	-4.0542	-4.7667	-4.4125	-4.3208	-5.0854	-4.1604	-4.7479	-4.8083	-3.9729	-5.0625	-4.5229	-4.3313	25.364	228.949	54.224	226.173	300.481	131.521	213.278	249.165	-15.329	145.742	51.477	143.810	127.316	14.772	44.426	269.751	0.00036996	0.00020043	5.4942e-05	1012.9	3.6694e-06	2.4647e-06	1124.3	213.48	2.2459e-06	2.8045e-06	275.64	77.248	59.627	17.255	2.2527e-06	24.463	4.6214e-05	3.2156e-05	7.9359e-06	996.85	4.2501e-07	2.9586e-07	1106.2	211.48	3.7469e-07	3.1027e-07	271.37	76.619	59.137	17.356	3.138e-07	24.57	12.310	62.323	56.491	-20.428	107.905	122.339	-20.320	-12.531	95.922	104.661	-13.395	-6.343	-6.047	1.399	125.692	0.058	-8191	255	
52288.707	1	1	0	0	0.19721	0.17037	0.27461	0.10663	0.15542	0.1041	0.044324	0.22659	0.072684	0.20844	0.13361	0.21682	0.12627	0.055624	0.14724	0.062439	-4.7083	-4.1958	-4.3917	-5.0583	-3.9771	-4.8417	-4.9021	-4.3146	-5.0125	-4.2833	-4.5583	-4.9229	-4.0708	-4.95	-4.5771	-4.2396	52.566	276.766	-31.142	288.168	90.436	95.564	243.600	181.018	153.231	143.998	269.090	197.682	232.038	17.827	8.395	190.685	0.00035861	0.00033846	6.4099e-05	1015.4	3.4428e-06	1.9082e-06	1124.9	213.5	2.972e-06	2.0208e-06	276.32	77.5	59.366	17.502	2.3233e-06	24.503	4.7755e-05	3.1982e-05	7.8433e-06	997.22	4.3489e-07	2.9872e-07	1108.1	211.2	3.7171e-07	3.1598e-07	271.85	76.788	59.045	17.38	3.0915e-07	24.502	13.650	61.606	41.003	-20.292	131.205	143.397	-20.137	-13.239	115.270	134.091	-12.979	-6.162	-6.039	0.921	148.816	0.468	-8191	255	
52288.777	1	1	0	0	0.12133	0.057763	0.27415	0.069802	0.063936	0.097284	0.13386	0.26787	0.1508	0.22775	0.034267	0.072788	0.13472	0.19704	0.2979	0.19358	-4.7917	-4.0771	-4.4521	-5.1625	-4.0292	-4.85	-4.9104	-4.1562	-5.0292	-4.3625	-4.5396	-5.1729	-4.3375	-4.7792	-4.7667	-4.2896	46.799	96.627	16.426	285.869	28.754	-18.352	253.776	17.830	283.346	91.472	325.428	109.514	22.744	80.853	126.601	316.027	0.00039937	0.00036027	6.5287e-05	1017.5	2.7482e-06	2.8482e-06	1128	214.81	3.1631e-06	3.1726e-06	275.21	77.345	59.812	17.32	2.2585e-06	24.49	4.5723e-05	2.7636e-05	7.7374e-06	998.34	4.2722e-07	3.0619e-07	1107.9	211.61	3.7196e-07	2.8983e-07	271.65	76.759	59.071	17.351	3.0613e-07	24.64	7.747	52.216	43.754	-20.427	96.744	115.999	-20.046	-12.873	123.318	119.087	-13.103	-6.020	-6.132	1.320	125.978	0.426	-8191	255	
52288.871	1	1	0	0	0.11335	0.078254	0.16066	0.12842	0.090711	0.11773	0.075996	0.12452	0.13292	0.16369	0.26915	0.097019	0.1299	0.14534	0.19231	0.047948	-4.6667	-4.3125	-4.25	-5.0917	-4.0021	-4.5437	-4.9354	-3.9917	-4.9229	-4.5479	-4.2521	-5.2542	-4.2729	-4.575	-5.0958	-4.1292	38.125	260.153	-2.598	242.113	212.170	114.207	317.183	4.498	199.462	112.142	291.193	112.521	60.654	200.880	3.350	244.647	0.00036009	0.00013848	3.9081e-05	1019.5	2.7785e-06	1.9471e-06	1128	213.88	2.8944e-06	2.0933e-06	275.06	77.101	59.605	17.317	2.0168e-06	24.528	4.6346e-05	2.7707e-05	7.8499e-06	999.47	4.1094e-07	2.6633e-07	1109.2	211.48	3.264e-07	2.9736e-07	271.91	76.598	59.017	17.324	2.8237e-07	24.584	15.805	46.424	60.181	-20.388	91.919	132.483	-20.109	-12.739	94.340	99.617	-13.269	-6.014	-6.097	1.247	145.967	0.666	-8191	255	
52288.992	1	1	0	0	0.075436	0.064567	0.14575	0.27361	0.027076	0.09361	0.1942	0.16615	0.18225	0.26773	0.098832	0.14689	0.1803	0.24238	0.11036	0.27104	-4.4896	-4.6583	-3.9917	-5.1479	-4.2042	-4.4917	-5.0583	-4.1292	-4.8021	-4.7	-4.1979	-5.1458	-4.3208	-4.2292	-4.9917	-4.2958	52.457	64.390	291.126	267.882	66.238	274.330	182.735	283.182	122.950	241.558	243.968	115.354	-25.908	143.251	58.736	155.085	0.00033679	0.00025449	5.3915e-05	1017.3	2.9553e-06	2.7037e-06	1126.9	215.11	2.6154e-06	2.7935e-06	275.89	76.737	59.63	17.33	2.764e-06	24.519	4.8056e-05	2.6032e-05	8.0837e-06	997.46	3.9373e-07	2.6399e-07	1107.8	211.69	3.6421e-07	2.5831e-07	271.6	76.593	59.118	17.388	3.237e-07	24.568	11.343	49.242	59.179	-20.230	121.819	93.998	-20.429	-12.964	92.535	116.668	-13.456	-6.054	-5.868	1.410	163.771	0.523	-8191	255	
52289.090	1	1	0	0	0.063209	0.13181	0.25329	0.1761	0.20747	0.17749	0.16458	0.092687	0.085706	0.048299	0.042713	0.040997	0.12	0.14944	0.18427	0.20437	-4.6333	-4.7979	-4.1458	-5.1188	-4.3583	-4.175	-5.2312	-3.9771	-4.5854	-4.8729	-4.1146	-4.9979	-4.5	-4.2979	-5.1062	-4.225	314.118	120.848	273.086	262.746	236.080	275.932	257.548	316.031	220.015	92.841	256.077	285.306	132.247	-6.915	271.434	251.523	0.00031602	0.00032656	3.7883e-05	1014.7	3.8924e-06	3.1648e-06	1126.8	214.19	3.856e-06	2.3788e-06	277.73	76.804	59.452	17.456	1.5581e-06	24.575	4.4278e-05	2.6514e-05	8.8601e-06	997.31	3.7805e-07	3.0089e-07	1108.7	211.41	3.4514e-07	2.7615e-07	271.55	76.555	59.033	17.384	3.3015e-07	24.562	12.632	70.102	77.356	-20.154	112.512	122.453	-20.220	-12.843	97.767	132.581	-13.344	-5.931	-5.702	0.501	132.352	0.772	-8191	255	
52289.188	1	1	0	0	0.34884	0.17233	0.16654	0.11522	0.35444	0.11449	0.13428	0.093876	0.052142	0.16339	0.063007	0.11285	0.14257	0.11841	0.1436	0.068804	-4.2375	-4.9437	-4.0354	-5.0792	-4.4979	-4.1542	-5.3667	-4.2396	-4.4437	-5	-4.1646	-4.8208	-4.5271	-3.95	-5.1479	-4.2333	245.693	33.618	134.275	320.758	1.947	223.393	264.189	301.388	132.486	267.556	146.107	310.782	102.002	147.713	54.523	263.041	0.00045704	0.00024518	5.6975e-05	1014.8	3.0982e-06	2.3609e-06	1127	213.39	2.0852e-06	2.6684e-06	275.8	77.38	59.306	17.599	2.2031e-06	24.816	4.5877e-05	2.6577e-05	8.3131e-06	996.78	3.6876e-07	3.2911e-07	1107.2	211.71	3.6617e-07	3.1312e-07	271.69	76.816	59.1	17.436	3.0045e-07	24.705	15.454	47.086	81.755	-20.528	131.732	99.679	-20.150	-12.769	128.213	105.002	-13.272	-5.846	-5.911	1.296	140.038	0.945	-8191	255	
52289.281	1	1	0	0	0.1941	0.21316	0.27879	0.1323	0.14097	0.18994	0.16777	0.19168	0.068	0.11406	0.11881	0.064977	0.08781	0.10946	0.1076	0.17389	-4.1687	-4.8667	-4.0479	-4.8187	-4.7	-4.1333	-5.2771	-4.5229	-4.3438	-5.0437	-4.1854	-4.8021	-4.6708	-4.0646	-4.9896	-4.4563	174.073	57.240	13.314	214.410	89.769	37.294	266.913	327.903	63.358	148.751	322.326	227.239	225.662	268.463	10.573	87.563	0.00037192	0.00025335	8.0432e-05	1015.9	4.3974e-06	2.0021e-06	1130.5	214.4	1.1709e-06	4.9853e-06	274.37	77.037	59.825	17.291	1.5102e-06	24.7	4.964e-05	2.7391e-05	8.6616e-06	997.26	3.7396e-07	3.2451e-07	1110.3	211.41	3.7103e-07	3.0663e-07	271.64	76.724	59.093	17.369	3.4823e-07	24.682	11.408	55.787	45.803	-20.272	116.908	123.832	-20.043	-13.157	94.289	138.723	-13.502	-6.286	-6.010	1.219	133.490	0.843	-8191	255	
52289.379	1	1	0	0	0.1107	0.16321	0.25511	0.4827	0.061614	0.096365	0.18267	0.045045	0.24972	0.11038	0.038264	0.22095	0.14144	0.063644	0.24953	0.07339	-3.9646	-5.0396	-4.0208	-4.8146	-4.725	-3.9375	-5.2438	-4.5	-4.3917	-4.9479	-4.0167	-4.5625	-4.8042	-4.0375	-4.9979	-4.5604	325.189	-11.569	147.566	285.372	83.535	285.450	247.631	199.466	272.531	3.761	243.351	266.501	320.786	165.922	236.694	105.660	0.00037659	0.00015638	8.0616e-05	1016.6	4.2166e-06	2.4111e-06	1125.9	214.25	3.5387e-06	3.0351e-06	274.14	76.837	60.061	17.341	1.8572e-06	24.857	4.8349e-05	3.0196e-05	8.5469e-06	999.31	3.9756e-07	3.2712e-07	1109.3	211.57	4.0747e-07	2.8602e-07	271.22	76.782	59.127	17.366	3.4737e-07	24.677	17.026	63.292	54.143	-20.375	142.879	115.246	-20.365	-12.837	143.122	104.913	-12.998	-6.614	-5.470	1.103	137.704	0.724	-8191	255	
52289.477	1	1	0	0	0.29564	0.1008	0.077891	0.24384	0.056567	0.11102	0.13766	0.087737	0.090308	0.14725	0.29452	0.053109	0.098735	0.3113	0.15317	0.18056	-3.8583	-5.0479	-4.2479	-4.7	-4.7917	-4.0479	-4.9187	-4.5979	-4.1312	-5.0354	-4.3354	-4.5042	-4.9688	-3.9667	-4.5771	-4.7979	50.263	185.316	275.990	213.525	-13.884	135.332	223.514	-15.752	305.664	-5.269	327.170	17.733	248.876	288.138	61.914	228.025	0.00035949	0.00032918	6.2554e-05	1017.9	3.9915e-06	2.6444e-06	1133.3	214.08	2.3189e-06	1.9323e-06	274.88	77.2	59.833	17.395	1.5404e-06	24.662	5.3293e-05	2.8869e-05	8.4609e-06	999.67	3.8214e-07	3.4379e-07	1111.9	212.01	3.9393e-07	3.1252e-07	272.07	76.715	59.255	17.425	3.1888e-07	24.693	6.849	51.501	58.271	-20.458	100.515	134.685	-20.041	-12.948	102.195	119.237	-13.008	-6.404	-5.559	1.114	104.545	0.765	-8191	255	
52289.570	1	1	0	0	0.22563	0.093126	0.24464	0.23041	0.025514	0.075407	0.20482	0.14173	0.18139	0.17852	0.081313	0.19939	0.11168	0.27327	0.061851	0.14305	-3.8125	-5.0833	-4.2458	-4.5708	-5.0458	-4.0917	-4.7312	-4.9521	-4.0687	-4.8	-4.425	-4.3708	-5.0542	-4.1813	-4.6312	-5.0458	51.842	53.817	307.532	249.579	123.285	154.851	233.280	243.933	29.905	19.195	317.393	34.018	73.174	25.419	274.728	172.995	0.00033828	0.00032145	7.0363e-05	1017.8	2.9261e-06	3.2192e-06	1134.8	214.9	3.0709e-06	3.0963e-06	275.24	77.44	59.795	17.447	3.3181e-06	24.889	4.7109e-05	2.9943e-05	8.0286e-06	998.57	3.9816e-07	3.4379e-07	1109.2	212.04	4.1888e-07	3.0568e-07	271.63	76.863	59.094	17.425	3.1896e-07	24.768	16.831	61.855	80.624	-20.345	117.501	120.678	-20.402	-12.876	127.823	124.108	-13.173	-6.661	-6.373	0.937	112.855	0.379	-8191	255	
52289.691	1	1	0	0	0.0807	0.37148	0.11667	0.21364	0.19412	0.15197	0.10431	0.11107	0.10725	0.1727	0.11639	0.22266	0.1936	0.067249	0.096384	0.17918	-3.8479	-4.9271	-4.6438	-4.5896	-5.1854	-4.1833	-4.6333	-4.9854	-4.1021	-4.7438	-4.5875	-4.1417	-4.9875	-4.2792	-4.3854	-5.0958	40.148	268.017	15.399	239.795	0.042	98.094	242.781	128.200	254.238	270.875	169.461	248.531	271.269	278.222	72.020	102.592	0.00033682	0.00027254	6.4313e-05	1021.3	3.1484e-06	2.221e-06	1125.1	214.64	3.5162e-06	3.4134e-06	275.15	77.427	59.648	17.505	2.6228e-06	24.644	4.9721e-05	2.7494e-05	7.8367e-06	1000.8	3.9066e-07	3.233e-07	1109.8	212.06	4.142e-07	3.0966e-07	271.57	76.868	59.274	17.406	3.3394e-07	24.66	11.277	69.726	37.306	-20.395	140.125	135.459	-20.387	-12.926	118.986	122.467	-13.147	-6.276	-6.309	0.968	142.327	0.600	-8191	255	
52289.785	1	1	0	0	0.062826	0.1967	0.20551	0.14861	0.1998	0.25967	0.2779	0.23622	0.2911	0.03775	0.061165	0.17725	0.21782	0.05248	0.096886	0.22112	-3.8229	-4.8521	-4.7396	-4.2562	-5.1167	-4.2771	-4.4	-5.1333	-4.0437	-4.7542	-4.7229	-4.1333	-5.125	-4.4563	-4.3854	-5.0833	119.421	134.655	140.700	232.233	128.772	301.309	294.744	-9.467	38.994	57.865	302.300	309.247	219.907	257.015	209.712	312.186	0.00035647	0.00017049	5.4235e-05	1015.3	4.2742e-06	3.7413e-06	1128.6	215.02	1.7703e-06	1.844e-06	274.26	76.889	59.788	17.266	2.2005e-06	24.586	5.1408e-05	2.6996e-05	7.9536e-06	999.16	4.216e-07	3.2712e-07	1109.3	212.32	3.8491e-07	3.0983e-07	271.17	76.767	59.508	17.402	3.3007e-07	24.685	21.607	75.561	81.492	-20.615	120.338	128.864	-20.074	-12.738	147.728	100.131	-13.467	-6.143	-5.253	1.022	111.036	0.581	-8191	255	
52289.883	1	1	0	0	0.084698	0.19407	0.15093	0.18854	0.1881	0.066472	0.024281	0.039281	0.12439	0.19719	0.24476	0.15849	0.13455	0.073995	0.06576	0.17458	-3.8229	-4.6	-4.4979	-4.1167	-4.9604	-4.4583	-4.4625	-5.2146	-4.1917	-4.6583	-4.9646	-3.9583	-4.9875	-4.5583	-4.25	-5.0604	285.916	287.019	26.844	277.703	202.153	243.423	101.293	204.811	93.836	130.204	107.447	216.900	54.799	138.741	-26.287	282.990	0.00033605	0.00027354	9.4323e-05	1015	3.4017e-06	1.5379e-06	1125.7	214.66	2.3182e-06	3.0512e-06	275.55	77.099	60.314	17.37	2.6116e-06	24.555	4.8782e-05	2.5874e-05	8.4476e-06	997.63	4.0038e-07	2.7779e-07	1108.2	211.95	3.8721e-07	2.9364e-07	271.6	76.838	59.357	17.43	3.5744e-07	24.633	26.774	64.097	57.653	-20.445	112.806	100.255	-20.409	-12.845	159.691	110.135	-13.184	-6.428	-5.851	1.064	129.078	1.022	-8191	255	
52289.977	1	1	0	0	0.072665	0.090087	0.19878	0.25142	0.21123	0.068736	0.019641	0.088824	0.11174	0.10109	0.16148	0.078769	0.012695	0.088474	0.20977	0.080523	-3.9646	-4.6896	-4.9021	-4.0437	-4.6771	-4.5292	-4.2854	-5.0833	-4.1771	-4.4125	-5.0333	-4.1375	-4.8229	-4.6917	-4.2542	-5.1917	49.350	270.286	196.615	277.755	159.221	61.362	228.256	53.674	94.082	87.435	188.637	307.230	219.659	98.774	292.711	136.406	0.00032646	0.00019057	6.4438e-05	1020.1	3.8564e-06	1.2569e-06	1127.5	215.11	1.7358e-06	2.8777e-06	278.35	77.54	60.234	17.377	2.868e-06	24.6	4.8012e-05	2.8047e-05	8.1653e-06	999.15	3.8265e-07	2.9091e-07	1110.3	212.64	3.8933e-07	2.8438e-07	272.61	76.916	59.379	17.366	3.7991e-07	24.722	11.059	84.923	59.094	-20.454	136.951	150.044	-20.283	-12.723	106.878	113.497	-13.327	-6.111	-5.795	1.121	142.081	0.384	-8191	255	
52290.074	1	1	0	0	0.096392	0.30854	0.13751	0.16631	0.14505	0.12953	0.10693	0.21935	0.039032	0.27438	0.058192	0.19383	0.19744	0.090112	0.29136	0.15171	-4.0604	-4.4125	-5.0083	-4.0917	-4.7188	-4.6646	-4.1854	-5.0917	-4.3771	-4.1687	-5.1354	-4.0833	-4.6146	-4.9396	-4.0354	-5.0333	122.487	249.864	53.529	309.808	237.739	278.534	284.500	286.948	238.785	65.791	188.335	193.450	310.127	20.074	327.832	237.291	0.00036123	0.0001762	7.9002e-05	1019.3	5.047e-06	3.059e-06	1130.9	214.18	3.257e-06	3.8565e-06	276.34	77.508	59.851	17.498	1.6821e-06	24.501	4.8114e-05	2.9232e-05	7.5455e-06	999.94	4.0677e-07	2.9898e-07	1111	212.36	3.5595e-07	3.3676e-07	272.03	76.918	59.258	17.455	3.6545e-07	24.641	17.261	46.233	69.250	-20.106	112.568	109.231	-20.404	-12.838	129.202	127.222	-13.115	-5.901	-5.983	1.003	125.636	0.702	-8191	255	
52290.172	1	1	0	0	0.046391	0.13034	0.18337	0.16211	0.071185	0.17508	0.19702	0.37019	0.34775	0.13089	0.097188	0.17857	0.20022	0.089459	0.084387	0.21526	-4.2354	-4.2542	-5.125	-4.2125	-4.6375	-4.8521	-4.2333	-4.9917	-4.4979	-4.0563	-5.0479	-4.3083	-4.4521	-4.9896	-3.8917	-4.9104	270.847	21.769	286.967	236.946	133.878	0.380	-19.865	9.902	57.516	257.730	54.692	297.851	305.747	51.285	56.867	212.210	0.00038758	0.00034956	9.0159e-05	1019.7	3.2108e-06	2.456e-06	1124.1	214.15	2.701e-06	3.3742e-06	277.34	77.888	60.18	17.315	2.2434e-06	24.707	4.6875e-05	3.1714e-05	8.0639e-06	1000.4	4.0259e-07	3.0489e-07	1108.5	212	3.637e-07	3.4759e-07	272.87	76.902	59.194	17.365	3.6381e-07	24.664	27.650	59.317	66.296	-20.580	121.644	127.545	-20.386	-12.906	131.590	131.733	-13.373	-6.056	-6.074	1.079	145.086	0.170	-8191	255	
52290.289	1	1	0	0	0.10625	0.11557	0.16742	0.23247	0.028093	0.11747	0.13197	0.1741	0.12363	0.18891	0.057401	0.056085	0.069387	0.1074	0.077772	0.15963	-4.6312	-4.0521	-5.0833	-4.2646	-4.3729	-5.0771	-4.3458	-4.7167	-4.7521	-3.9833	-5.0479	-4.4271	-4.4396	-4.9604	-4.1	-4.7542	207.750	328.402	315.670	238.329	185.055	156.464	184.778	322.605	221.591	216.656	129.451	84.754	212.154	-23.842	187.785	239.461	0.00028893	0.00027695	5.6274e-05	1021.5	2.8171e-06	2.2112e-06	1126.7	214.77	2.0731e-06	2.4581e-06	275.87	77.272	59.554	17.481	1.8055e-06	24.591	4.562e-05	3.5325e-05	7.6514e-06	1000.8	4.2211e-07	2.9586e-07	1111.6	212.26	3.8635e-07	3.3642e-07	272.21	76.796	59.362	17.471	3.6855e-07	24.669	15.125	52.034	45.121	-20.331	136.692	97.807	-20.367	-13.010	117.430	136.113	-13.224	-6.005	-5.731	1.335	155.015	0.336	-8191	255	
52290.387	1	1	0	0	0.13283	0.072538	0.15435	0.17296	0.04503	0.20387	0.063885	0.20183	0.23297	0.34454	0.14798	0.11445	0.30496	0.31774	0.24269	0.15382	-4.5104	-4.1354	-4.875	-4.6438	-3.9729	-4.9333	-4.2937	-4.7188	-4.9792	-4.0646	-5.0792	-4.625	-4.1417	-5.0875	-4.1125	-4.6562	184.414	316.625	72.797	279.932	317.311	-21.478	-18.124	77.597	122.016	307.958	126.874	-21.969	315.296	-26.157	67.084	253.705	0.00033835	0.00022804	9.2084e-05	1019.2	3.0623e-06	2.8769e-06	1133	214.11	2.7795e-06	2.5609e-06	274.86	77.396	59.916	17.343	2.3138e-06	24.597	4.8422e-05	3.1935e-05	7.9734e-06	999.97	4.5509e-07	2.7336e-07	1110.6	211.96	3.6966e-07	3.514e-07	272.07	76.93	59.212	17.402	3.682e-07	24.662	14.230	69.974	43.864	-20.399	115.273	130.552	-20.003	-12.772	117.092	107.206	-13.335	-5.904	-5.922	1.167	115.950	0.018	-8191	255	
52290.480	1	1	0	0	0.068799	0.096784	0.13442	0.12859	0.2316	0.04961	0.19285	0.02923	0.1109	0.13044	0.12228	0.14958	0.25811	0.1827	0.050379	0.10774	-4.5875	-4.0312	-4.8479	-4.7917	-4.1271	-5	-4.4833	-4.5542	-4.9146	-3.975	-4.9187	-4.6438	-4.1271	-4.9417	-4.2896	-4.4292	0.351	276.751	220.081	321.868	230.333	254.176	307.748	122.088	210.074	119.123	259.763	196.470	-0.455	147.884	107.593	-14.259	0.00031507	0.00027528	8.1029e-05	1018.6	3.4885e-06	2.3797e-06	1129.2	214.23	1.3202e-06	3.0972e-06	275.01	76.951	59.645	17.507	2.5958e-06	24.705	4.7549e-05	3.2291e-05	8.119e-06	999.09	4.6591e-07	3.2043e-07	1111.2	212.37	3.8874e-07	3.2871e-07	272.25	76.716	59.122	17.449	3.2017e-07	24.677	19.111	51.838	59.472	-20.163	132.346	109.778	-20.306	-13.057	113.412	123.833	-12.802	-5.949	-5.810	1.287	167.659	0.325	-8191	255	
52290.578	1	1	0	0	0.061378	0.10271	0.27037	0.34296	0.15044	0.073595	0.18949	0.33682	0.064291	0.14307	0.1037	0.27186	0.13948	0.28364	0.24623	0.070216	-4.5521	-3.9688	-4.6562	-4.8938	-4.2333	-4.9375	-4.5729	-4.3083	-5.0188	-4.275	-4.8271	-4.8292	-4.05	-4.8417	-4.4542	-4.2875	108.137	279.324	316.657	272.490	188.254	122.563	283.383	300.457	289.402	217.819	40.719	195.883	252.637	187.241	311.301	129.433	0.00032831	0.00027086	5.7454e-05	1017.6	3.3258e-06	1.6635e-06	1131.6	215.12	2.2488e-06	3.8202e-06	275.45	77.424	59.821	17.371	2.5749e-06	24.578	4.9097e-05	3.3998e-05	7.1353e-06	999.31	4.3506e-07	2.8179e-07	1111.6	212.22	3.7077e-07	3.4975e-07	271.74	76.958	59.173	17.413	3.3325e-07	24.608	17.677	28.426	90.120	-20.418	149.316	129.137	-20.371	-12.813	105.560	115.236	-13.092	-5.818	-5.793	1.039	141.643	0.504	-8191	255	
52290.676	1	1	0	0	0.11499	0.17313	0.10503	0.12064	0.049839	0.14522	0.33671	0.08643	0.13903	0.13092	0.063165	0.2088	0.052688	0.24877	0.20759	0.13967	-4.9396	-4.0813	-4.625	-5.1229	-4.0229	-4.9875	-4.6062	-4.1896	-5.1583	-4.1917	-4.6521	-4.9688	-4.1312	-5.0312	-4.7167	-4.1396	159.324	313.823	68.326	270.520	134.388	323.764	267.562	296.033	154.182	44.623	163.737	273.986	297.480	308.176	235.292	57.459	0.00036754	0.00024215	6.332e-05	1016.8	3.4852e-06	1.6285e-06	1127.4	214.81	2.7209e-06	2.1228e-06	275.82	77.965	59.821	17.417	3.0088e-06	24.572	4.9801e-05	3.1208e-05	7.6161e-06	1000.5	4.1708e-07	2.7528e-07	1110.8	212.38	3.5953e-07	3.2525e-07	271.78	76.986	59.196	17.431	3.2473e-07	24.665	23.488	61.859	89.255	-20.200	114.584	143.266	-20.108	-12.660	111.212	109.929	-13.281	-6.499	-5.620	1.306	112.947	0.364	-8191	255	
#DATA ENDS
