BOXY.EXE: ISS Imagent and Oximeter Data Acquisition Program Version 0.80
Ascii Record File

#ACQ INFORMATION
2  Detector Channels 
16  External MUX Channels 
1  Auxiliary Channels 
5000  Waveform (CCF) Frequency (Hz)
1  Waveforms Skipped 
30  Waveforms Averaged 
1  Cycles Averaged 
16  Acquisitions per Waveform 
10.0806  Updata Rate (Hz) 

#FILE INFORMATION
TRUE -- External MUX Channel results are PARSED.
FALSE -- AC DC and Phase are NOT grouped.
TRUE -- Companion Program Settings File CREATED.
FALSE -- AC data not excluded
FALSE -- DC data not excluded
FALSE -- Phase data not excluded
FALSE -- Auxillary Chn. data not excluded
Tab delimiters

#CALIBRATION STATE
TRUE -- Waveform Calibration Values APPLIED.


#AUX CALIBRATION VALUES
Val Type	aux-1	

Term	1.0000e+00	
Factor	0.0000e+00	


#WF CALIBRATION VALUES
A = Detector Channel
Val Type	A-AC1	A-AC2	A-AC3	A-AC4	A-AC5	A-AC6	A-AC7	A-AC8	A-AC9	A-AC10	A-AC11	A-AC12	A-AC13	A-AC14	A-AC15	A-AC16	A-DC1	A-DC2	A-DC3	A-DC4	A-DC5	A-DC6	A-DC7	A-DC8	A-DC9	A-DC10	A-DC11	A-DC12	A-DC13	A-DC14	A-DC15	A-DC16	A-Ph1	A-Ph2	A-Ph3	A-Ph4	A-Ph5	A-Ph6	A-Ph7	A-Ph8	A-Ph9	A-Ph10	A-Ph11	A-Ph12	A-Ph13	A-Ph14	A-Ph15	A-Ph16	

Term	0.00000e+00	0.00000e+00	0.00000e+00	0.00000e+00	0.00000e+00	0.00000e+00	0.00000e+00	0.00000e+00	0.00000e+00	0.00000e+00	0.00000e+00	0.00000e+00	0.00000e+00	0.00000e+00	0.00000e+00	0.00000e+00	0.00000e+00	0.00000e+00	0.00000e+00	0.00000e+00	0.00000e+00	0.00000e+00	0.00000e+00	0.00000e+00	0.00000e+00	0.00000e+00	0.00000e+00	0.00000e+00	0.00000e+00	0.00000e+00	0.00000e+00	0.00000e+00	0.00000e+00	0.00000e+00	0.00000e+00	0.00000e+00	0.00000e+00	0.00000e+00	0.00000e+00	0.00000e+00	0.00000e+00	0.00000e+00	0.00000e+00	0.00000e+00	0.00000e+00	0.00000e+00	0.00000e+00	0.00000e+00	
Factor	1.00000e+00	1.00000e+00	1.00000e+00	1.00000e+00	1.00000e+00	1.00000e+00	1.00000e+00	1.00000e+00	1.00000e+00	1.00000e+00	1.00000e+00	1.00000e+00	1.00000e+00	1.00000e+00	1.00000e+00	1.00000e+00	1.00000e+00	1.00000e+00	1.00000e+00	1.00000e+00	1.00000e+00	1.00000e+00	1.00000e+00	1.00000e+00	1.00000e+00	1.00000e+00	1.00000e+00	1.00000e+00	1.00000e+00	1.00000e+00	1.00000e+00	1.00000e+00	X	X	X	X	X	X	X	X	X	X	X	X	X	X	X	X	

B = Detector Channel
Val Type	B-AC1	B-AC2	B-AC3	B-AC4	B-AC5	B-AC6	B-AC7	B-AC8	B-AC9	B-AC10	B-AC11	B-AC12	B-AC13	B-AC14	B-AC15	B-AC16	B-DC1	B-DC2	B-DC3	B-DC4	B-DC5	B-DC6	B-DC7	B-DC8	B-DC9	B-DC10	B-DC11	B-DC12	B-DC13	B-DC14	B-DC15	B-DC16	B-Ph1	B-Ph2	B-Ph3	B-Ph4	B-Ph5	B-Ph6	B-Ph7	B-Ph8	B-Ph9	B-Ph10	B-Ph11	B-Ph12	B-Ph13	B-Ph14	B-Ph15	B-Ph16	

Term	0.00000e+00	0.00000e+00	0.00000e+00	0.00000e+00	0.00000e+00	0.00000e+00	0.00000e+00	0.00000e+00	0.00000e+00	0.00000e+00	0.00000e+00	0.00000e+00	0.00000e+00	0.00000e+00	0.00000e+00	0.00000e+00	0.00000e+00	0.00000e+00	0.00000e+00	0.00000e+00	0.00000e+00	0.00000e+00	0.00000e+00	0.00000e+00	0.00000e+00	0.00000e+00	0.00000e+00	0.00000e+00	0.00000e+00	0.00000e+00	0.00000e+00	0.00000e+00	-2.52595e+02	-1.26487e+02	-1.31810e+02	-1.83580e+02	-9.53217e+01	-7.04341e+01	-1.58163e+02	-1.62015e+02	-9.38048e+01	-7.07157e+01	-1.70649e+02	-1.71149e+02	-1.78736e+02	-1.76810e+02	-6.95905e+01	-1.49929e+02	
Factor	6.57577e-05	1.42588e-04	3.98813e-05	1.59387e-01	2.26321e-06	1.63867e-06	1.78960e-01	5.86508e-02	1.89516e-06	1.75252e-06	9.77644e-02	3.36656e-02	3.08182e-02	1.06301e-02	1.65800e-06	1.51188e-02	3.52109e-06	3.79331e-06	1.05871e-06	7.47961e-02	4.09069e-08	4.16821e-08	7.88279e-02	2.75229e-02	4.08750e-08	4.15652e-08	4.44068e-02	1.52238e-02	1.45320e-02	5.00993e-03	4.13229e-08	6.90354e-03	X	X	X	X	X	X	X	X	X	X	X	X	X	X	X	X	



#DISTANCE SETTINGS
A = Detector Channel
A-1	A-2	A-3	A-4	A-5	A-6	A-7	A-8	A-9	A-10	A-11	A-12	A-13	A-14	A-15	A-16	

2.5000e+00	3.0000e+00	2.5000e+00	3.0000e+00	2.0000e+00	3.0000e+00	1.5000e+00	3.0000e+00	3.0000e+00	3.0000e+00	3.0000e+00	3.0000e+00	3.0000e+00	3.0000e+00	1.5000e+00	3.0000e+00	

B = Detector Channel
B-1	B-2	B-3	B-4	B-5	B-6	B-7	B-8	B-9	B-10	B-11	B-12	B-13	B-14	B-15	B-16	

1.0000e+01	1.0000e+01	1.0000e+01	1.4400e+00	1.0000e+01	1.0000e+01	1.5100e+00	1.9400e+00	1.0000e+01	1.0000e+01	1.9900e+00	2.4900e+00	2.4100e+00	2.9000e+00	1.0000e+01	2.9800e+00	




#DATA BEGINS
time	group	step	mark	flag	A-AC1	A-AC2	A-AC3	A-AC4	A-AC5	A-AC6	A-AC7	A-AC8	A-AC9	A-AC10	A-AC11	A-AC12	A-AC13	A-AC14	A-AC15	A-AC16	A-DC1	A-DC2	A-DC3	A-DC4	A-DC5	A-DC6	A-DC7	A-DC8	A-DC9	A-DC10	A-DC11	A-DC12	A-DC13	A-DC14	A-DC15	A-DC16	A-Ph1	A-Ph2	A-Ph3	A-Ph4	A-Ph5	A-Ph6	A-Ph7	A-Ph8	A-Ph9	A-Ph10	A-Ph11	A-Ph12	A-Ph13	A-Ph14	A-Ph15	A-Ph16	B-AC1	B-AC2	B-AC3	B-AC4	B-AC5	B-AC6	B-AC7	B-AC8	B-AC9	B-AC10	B-AC11	B-AC12	B-AC13	B-AC14	B-AC15	B-AC16	B-DC1	B-DC2	B-DC3	B-DC4	B-DC5	B-DC6	B-DC7	B-DC8	B-DC9	B-DC10	B-DC11	B-DC12	B-DC13	B-DC14	B-DC15	B-DC16	B-Ph1	B-Ph2	B-Ph3	B-Ph4	B-Ph5	B-Ph6	B-Ph7	B-Ph8	B-Ph9	B-Ph10	B-Ph11	B-Ph12	B-Ph13	B-Ph14	B-Ph15	B-Ph16	aux-1	digaux	

52680.191	1	1	0	256	0.18667	0.0065314	0.18888	0.38764	0.29502	0.072062	0.094166	0.22902	0.2136	0.21241	0.19047	0.31781	0.34078	0.10396	0.07218	0.11521	-4.3187	-4.2604	-5.2104	-4.4375	-4.5625	-5.05	-4.225	-5.0437	-4.7542	-4.1354	-5.2125	-4.6958	-4.6833	-5.2688	-4.1562	-5.1333	338.676	171.129	214.619	509.765	299.847	488.469	466.013	433.996	497.758	261.652	241.028	467.820	157.197	462.134	171.593	435.798	0.0027283	0.00058657	0.00029122	836.2	6.5067e-06	1.8132e-05	868.96	294.29	9.5246e-06	1.075e-05	402.66	170.71	114.55	49.501	1.4487e-05	84.807	0.0039228	0.0040868	0.0011668	914.7	4.4934e-05	4.611e-05	949.02	322.95	4.5739e-05	4.68e-05	451	185.63	129.49	55.142	4.7622e-05	92.761	433.029	496.169	237.837	162.922	186.338	279.804	162.056	168.630	226.289	315.296	167.271	172.189	172.822	179.019	391.869	176.413	-8191	255	
52680.289	1	1	0	0	0.28785	0.16507	0.18679	0.066069	0.13719	0.19805	0.054352	0.2354	0.11036	0.18921	0.16856	0.14524	0.091458	0.066632	0.20065	0.17997	-4.5083	-4.3438	-5.1958	-4.5875	-4.5938	-5.0958	-4.2958	-4.9208	-4.9	-4.2021	-5.2688	-4.6562	-4.5833	-5.2438	-4.3083	-4.8771	224.917	263.496	214.560	338.460	359.453	367.074	407.177	187.576	420.074	450.799	487.566	442.349	275.323	353.339	247.233	483.063	0.0034443	0.0011489	8.851e-05	837.78	1.8875e-05	7.9596e-06	870.19	295.91	1.3196e-05	1.7388e-06	405.16	169.99	115.05	49.823	1.7495e-05	85.329	0.004139	0.0043757	0.0012378	916.52	4.6721e-05	4.8305e-05	951.42	324.39	4.6578e-05	4.7797e-05	451.23	185.27	129.78	55.45	4.7303e-05	92.901	429.226	302.297	242.954	162.692	298.955	270.824	161.976	168.347	245.063	279.762	167.678	171.895	172.932	178.819	311.999	176.323	-8191	255	
52680.387	1	1	0	0	0.18836	0.083621	0.029248	0.17458	0.13915	0.36631	0.31093	0.086805	0.14641	0.055069	0.14402	0.20114	0.17551	0.30267	0.11417	0.048902	-4.5333	-4.2667	-5.0458	-4.725	-4.3479	-5.2542	-4.35	-4.8375	-4.8833	-4.1937	-5.0979	-4.9062	-4.4479	-5.3104	-4.3375	-4.7792	426.474	164.022	359.090	427.618	335.521	492.697	435.981	240.783	468.723	361.958	377.506	451.896	478.562	447.557	278.033	390.374	0.0030132	0.0011712	0.00063878	838.1	2.5907e-05	6.996e-06	868.72	295.5	1.5829e-05	6.4923e-06	404.01	170.7	115.5	49.615	3.9063e-06	84.974	0.0041214	0.0043656	0.0012332	915.72	4.6652e-05	4.8234e-05	949.17	324.41	4.6453e-05	4.7418e-05	451.13	185.43	130.25	55.44	4.6611e-05	92.595	419.852	224.554	261.847	162.905	254.894	316.682	162.302	168.299	240.469	209.140	167.398	171.981	172.931	178.729	371.871	176.492	-8191	255	
52680.480	1	1	0	0	0.13809	0.11141	0.06616	0.10527	0.13905	0.072237	0.34423	0.26248	0.14523	0.038755	0.16535	0.10971	0.20022	0.06491	0.079735	0.27819	-4.7375	-4.0979	-4.8875	-4.9521	-4.3125	-5.275	-4.5479	-4.5646	-5.0646	-4.1354	-5	-4.7958	-4.2937	-5.4292	-4.5333	-4.4083	397.002	404.960	457.534	153.422	495.560	422.560	438.092	477.210	231.433	231.300	429.821	151.706	162.265	483.467	445.228	495.177	0.0028651	0.00029749	0.00012282	842.82	2.6237e-05	3.916e-06	870.85	297.81	1.4042e-05	1.8559e-05	405.06	171.79	115.89	49.885	1.0975e-05	85.263	0.0040454	0.0042781	0.0012012	914.7	4.5692e-05	4.6868e-05	948.44	324.96	4.5827e-05	4.6868e-05	451.54	185.63	130.16	55.477	4.5928e-05	92.847	427.472	472.379	262.326	162.897	301.757	280.555	162.363	168.327	303.931	185.850	167.315	172.053	173.160	178.868	270.139	176.658	-8191	255	
52680.602	1	1	0	0	0.19617	0.22875	0.21952	0.2373	0.128	0.18254	0.14287	0.13452	0.2153	0.16948	0.21927	0.22435	0.092571	0.22602	0.14214	0.18499	-4.7917	-4.2125	-4.9271	-5.0104	-4.2521	-5.1417	-4.6937	-4.5542	-5.1021	-4.2396	-4.6896	-5.2083	-4.3	-5.1604	-4.5896	-4.4292	369.316	175.548	470.664	423.705	261.802	203.575	451.793	497.008	253.224	156.937	447.827	429.356	493.913	482.938	192.652	508.099	0.0030014	0.00089097	0.00043133	841.02	1.1173e-05	1.0125e-05	876.45	297.47	2.7983e-05	1.4745e-05	409.1	171.32	116.59	50.032	1.8204e-05	85.384	0.0040091	0.0041954	0.001168	915.08	4.457e-05	4.6085e-05	950.43	324.32	4.4509e-05	4.5655e-05	451.54	185.85	130.18	55.554	4.4591e-05	92.953	428.443	197.826	235.241	162.953	382.804	338.330	162.294	168.353	240.911	278.685	167.618	172.071	173.219	178.803	212.562	176.523	-8191	255	
52680.672	1	1	0	0	0.086794	0.12193	0.1759	0.27258	0.14067	0.077239	0.2904	0.026644	0.12046	0.21123	0.17777	0.20296	0.12942	0.045358	0.035349	0.21143	-4.9729	-4.1896	-4.5625	-5.0979	-4.1438	-5.0792	-4.75	-4.5167	-5.1667	-4.2438	-4.6896	-5.2896	-4.2188	-5.1208	-4.7792	-4.5333	162.549	255.565	460.000	477.561	262.228	166.874	403.823	356.123	191.209	294.337	493.402	479.051	448.526	392.294	478.959	240.170	0.0034174	0.00026011	0.0001771	846.5	8.4663e-06	8.7641e-06	876.19	298.78	1.5663e-05	1.9651e-05	405.63	171.2	116.81	50.323	1.4714e-05	85.422	0.0039694	0.0041644	0.0011491	917.78	4.5028e-05	4.6355e-05	950.03	325.94	4.5427e-05	4.5989e-05	451.16	186.25	130.95	55.725	4.4519e-05	93.058	428.720	305.379	465.817	162.792	351.055	269.759	162.095	168.432	302.353	278.196	167.121	172.210	172.973	178.837	355.904	176.574	-8191	255	
52680.770	1	1	0	0	0.11906	0.1521	0.059289	0.096974	0.07918	0.25126	0.37375	0.049146	0.19163	0.083423	0.19135	0.16119	0.1915	0.083135	0.17971	0.10407	-4.85	-4.3375	-4.5188	-5.1583	-4.0854	-4.9563	-5.075	-4.3	-5.1833	-4.5854	-4.5542	-5.3354	-4.3125	-4.9583	-4.8979	-4.5604	208.759	347.913	461.693	444.784	256.978	422.926	426.442	413.289	205.293	480.021	443.689	426.808	492.476	218.712	483.949	383.975	0.0030688	0.00046034	0.0003375	844.13	1.7814e-05	5.2708e-06	872.68	298.97	3.4879e-06	8.8975e-06	407.45	171.8	117.29	50.511	9.7344e-06	85.378	0.0039744	0.0041525	0.0011507	917.47	4.5247e-05	4.5883e-05	948.56	326.13	4.5353e-05	4.585e-05	450.98	186.78	131.39	55.824	4.5144e-05	93.142	420.428	278.311	253.082	162.937	289.578	244.537	162.353	168.227	416.423	200.384	167.451	171.988	173.307	178.648	282.741	176.339	-8191	255	
52680.863	1	1	0	0	0.11203	0.14235	0.25024	0.19999	0.15448	0.17813	0.21627	0.094768	0.26572	0.29737	0.21757	0.22581	0.11424	0.19835	0.024445	0.23182	-4.9042	-4.6438	-4.5563	-5.3438	-4.1937	-4.5938	-5.0417	-4.2792	-5.1396	-4.75	-4.4271	-5.2833	-4.3479	-4.7042	-5.0125	-4.3125	468.201	255.678	277.890	419.333	357.577	388.794	441.224	499.047	500.902	460.182	427.894	482.542	161.437	451.240	343.487	426.757	0.0027638	0.0011388	0.0001393	844.78	2.5754e-05	7.4903e-06	871.59	298.92	1.8905e-05	1.046e-05	408.73	172.81	117.46	50.129	8.1126e-07	85.567	0.0040166	0.0041421	0.001157	916.97	4.4963e-05	4.5591e-05	949.46	326.59	4.5401e-05	4.5428e-05	452.75	187.44	131.68	55.679	4.5391e-05	93.369	413.914	321.885	281.176	162.591	209.416	397.997	162.421	168.487	256.515	218.571	167.129	172.262	172.970	178.762	245.451	176.627	-8191	255	
52680.984	1	1	0	0	0.27317	0.073285	0.077403	0.26148	0.24736	0.1369	0.2925	0.022249	0.099576	0.11834	0.17802	0.16431	0.12541	0.23438	0.279	0.30115	-4.8063	-4.7375	-4.2375	-5.1521	-4.4875	-4.7021	-5.1896	-4.2417	-4.8583	-4.8875	-4.175	-5.2021	-4.5667	-4.4896	-5.1521	-4.3646	245.692	293.575	417.287	457.995	342.732	179.974	397.887	397.199	252.135	317.080	489.446	218.624	211.042	215.531	413.422	438.072	0.0032517	0.0016164	0.00031011	846.02	1.351e-05	8.5324e-06	879.33	297.33	9.8655e-06	8.5603e-06	409.95	171.81	117.72	50.152	1.9125e-05	85.48	0.0039788	0.004156	0.0011509	919.71	4.5149e-05	4.5464e-05	953.57	326.58	4.5293e-05	4.5748e-05	452.93	187.47	131.78	55.747	4.5777e-05	93.467	427.389	204.475	177.684	163.145	289.696	328.094	162.257	168.444	258.894	188.572	167.392	172.243	173.157	178.645	312.604	176.624	-8191	255	
52681.082	1	1	0	0	0.091862	0.021124	0.1177	0.1354	0.16663	0.13636	0.1405	0.28907	0.16561	0.23828	0.056915	0.32271	0.11722	0.20523	0.12539	0.036478	-4.5646	-4.8979	-3.9896	-5.2812	-4.4146	-4.4354	-5.2854	-4.1854	-4.7396	-5.0354	-4.3208	-5.2125	-4.9062	-4.4833	-5.0833	-4.3938	325.510	457.818	466.706	442.068	326.251	177.522	438.174	407.509	159.537	309.390	314.365	474.433	272.644	508.466	180.623	193.301	0.00299	0.00057723	0.00014523	848.83	1.5891e-05	1.0654e-05	875.9	298.79	3.6223e-06	8.1424e-06	407.66	172.61	117.61	50.301	1.5935e-05	85.636	0.0040212	0.004211	0.0011634	921.32	4.5025e-05	4.6025e-05	954.54	327.29	4.5182e-05	4.5794e-05	453.35	187.66	131.66	55.881	4.5788e-05	93.484	421.750	487.962	263.870	162.676	237.537	313.908	162.066	168.342	452.569	296.882	167.207	172.280	172.919	178.786	316.634	176.698	-8191	255	
52681.176	1	1	0	0	0.11347	0.16234	0.23484	0.13324	0.082	0.073456	0.32628	0.17371	0.11347	0.10959	0.2131	0.1025	0.21763	0.10544	0.06254	0.054453	-4.35	-5.2396	-4.1646	-5.225	-4.6375	-4.2729	-5.2646	-4.4167	-4.5146	-5.0583	-4.3958	-5.2021	-4.6792	-4.3625	-5.1375	-4.3875	441.971	496.210	461.975	247.082	501.018	213.833	464.087	365.537	309.514	172.648	421.768	493.888	452.417	495.144	493.521	434.428	0.002887	0.0009641	9.3586e-05	843.14	1.5866e-05	1.4265e-05	869.64	299.43	6.4915e-06	1.7095e-05	410.5	172.8	117.87	50.382	7.0163e-06	85.474	0.0039788	0.0042016	0.0011799	921.2	4.5335e-05	4.6051e-05	951.77	327.59	4.5487e-05	4.6702e-05	453.99	187.64	132.22	56.05	4.6983e-05	93.233	428.053	240.269	254.629	162.953	231.203	202.123	162.329	168.687	196.492	274.989	167.223	172.151	173.285	178.668	226.926	176.523	-8191	255	
52681.273	1	1	0	0	0.27371	0.18052	0.081914	0.13721	0.16206	0.18454	0.034486	0.077156	0.21959	0.095425	0.1554	0.10668	0.1847	0.13815	0.14697	0.12965	-4.1188	-5.2312	-4.1333	-5.1917	-4.8792	-4.4	-5.3021	-4.4729	-4.5458	-5.1729	-4.2354	-4.9583	-5.0104	-4.3292	-5.1458	-4.6604	398.221	154.116	179.511	280.982	271.286	396.414	469.926	383.701	457.483	228.651	172.171	204.590	459.138	185.997	390.829	442.736	0.0023332	0.00063338	7.8079e-05	848.67	5.2637e-06	9.643e-06	871.8	300.62	5.8952e-06	1.672e-05	407.29	172.42	117.95	50.476	1.2108e-05	85.773	0.0039945	0.0041824	0.0011735	920.2	4.4371e-05	4.5375e-05	948.92	326.96	4.3974e-05	4.5634e-05	452.67	187.27	131.84	56.057	4.5803e-05	93.255	420.371	315.499	155.465	163.016	393.162	301.688	162.219	168.811	505.720	264.495	167.233	171.890	173.195	178.650	304.003	176.528	-8191	255	
52681.367	1	1	0	0	0.10254	0.11602	0.089482	0.23626	0.13572	0.057224	0.13577	0.11783	0.093853	0.22056	0.20913	0.29726	0.16308	0.034871	0.12361	0.36947	-4.1125	-5.0354	-4.2667	-4.8417	-5.0083	-4.1896	-5.2812	-4.6958	-4.2917	-5.1771	-4.4896	-4.8292	-5.1333	-4.3479	-5.0062	-4.9208	181.149	205.667	368.730	346.836	409.136	468.067	400.401	223.575	288.658	507.087	418.475	461.105	445.461	424.326	482.455	492.380	0.0024147	0.0008371	0.00015488	843.25	1.0413e-05	1.1242e-05	868.15	299.73	3.9039e-06	1.9953e-05	407.05	173.64	117.83	50.342	7.5872e-06	85.467	0.0039889	0.0042446	0.0011902	919.61	4.5261e-05	4.6694e-05	950.84	326.3	4.5072e-05	4.6561e-05	452.84	187.11	132.07	55.995	4.6293e-05	93.166	434.128	276.914	224.395	162.966	330.317	270.653	162.291	168.718	302.330	323.748	167.222	171.943	173.179	178.724	374.930	176.799	-8191	255	
52681.465	1	1	0	0	0.29838	0.063741	0.11524	0.13675	0.18429	0.17434	0.13131	0.12764	0.074754	0.16932	0.085017	0.19545	0.093525	0.11362	0.15296	0.32122	-4.0167	-5.15	-4.5437	-4.7688	-5.0083	-4.4	-5.0958	-4.9479	-4.3833	-5.45	-4.5938	-4.6229	-5.3354	-4.5604	-5.0271	-5.1396	210.795	455.813	416.342	215.479	215.552	411.457	450.119	177.809	436.060	271.408	410.239	353.201	426.482	443.664	504.689	477.298	0.0030072	0.0012701	0.00024176	849.86	2.6099e-05	7.8959e-06	875.4	299.14	1.8683e-05	9.4862e-06	409.71	173.24	118.64	50.609	5.0761e-06	85.9	0.0040168	0.0042228	0.0011781	921.07	4.5143e-05	4.6282e-05	951.09	327.45	4.4656e-05	4.652e-05	453.46	187.52	132.22	56.128	4.5039e-05	93.394	425.391	255.009	281.715	162.750	278.969	269.909	162.266	168.858	297.276	310.275	167.515	171.826	173.273	178.784	290.011	176.884	-8191	255	
52681.562	1	1	0	0	0.13615	0.039684	0.063226	0.15931	0.23623	0.12021	0.14284	0.1821	0.24277	0.1949	0.18968	0.33287	0.13347	0.13419	0.0285	0.31226	-4.1687	-5.1104	-4.6021	-4.6979	-5.1854	-4.3104	-5.0896	-5.1562	-4.2688	-5.2583	-4.75	-4.5938	-5.1583	-4.4208	-4.8417	-5.15	336.042	396.194	406.477	327.629	429.789	313.723	419.436	462.417	210.069	430.060	469.933	475.821	229.350	399.604	345.759	469.346	0.0034703	0.0010919	5.708e-05	844.54	6.7376e-06	1.2656e-05	871.01	299.64	7.317e-06	8.5881e-06	406.98	172.82	118.61	50.437	1.5907e-05	85.714	0.0039519	0.0041776	0.0011553	917.67	4.4509e-05	4.5913e-05	947.71	326.74	4.4539e-05	4.557e-05	450.31	186.8	132.52	55.828	4.4107e-05	93.108	425.868	260.303	186.543	162.893	431.890	335.738	162.004	168.503	199.139	249.373	167.394	172.217	173.228	178.628	304.129	176.642	-8191	255	
52681.684	1	1	0	0	0.18051	0.13951	0.20285	0.10681	0.03468	0.14103	0.077507	0.30314	0.24967	0.10118	0.17822	0.14149	0.17008	0.19383	0.28372	0.14571	-3.9562	-5.0813	-4.7146	-4.4563	-5.2625	-4.5333	-4.9958	-5.1396	-4.2646	-5.1521	-4.9437	-4.5354	-5.2208	-4.5	-4.7292	-5.3208	286.328	229.512	434.802	382.031	303.451	361.205	195.407	474.015	323.368	221.867	302.672	499.003	261.603	402.552	202.709	502.890	0.0027874	0.00095846	0.00026987	844.93	7.3553e-06	1.0529e-05	866.78	299.56	2.4509e-05	1.6961e-05	407.94	172.3	118.33	50.393	2.0309e-05	85.264	0.0039009	0.0041229	0.0011402	914.79	4.4364e-05	4.5319e-05	942.75	326.1	4.4389e-05	4.5341e-05	450.05	186.22	132.3	55.761	4.4573e-05	92.995	432.834	502.818	224.821	163.025	370.054	337.456	162.374	168.635	242.332	357.486	167.310	171.921	172.806	178.714	327.048	176.675	-8191	255	
52681.777	1	1	0	0	0.23655	0.023572	0.13578	0.11891	0.090418	0.1139	0.1528	0.24138	0.021386	0.11285	0.11022	0.31678	0.082316	0.16404	0.14877	0.24522	-3.7917	-4.9625	-4.7542	-4.5	-5.1583	-4.3667	-4.5125	-5.1958	-4.2458	-4.9167	-4.8083	-4.35	-5.1729	-4.7792	-4.4938	-5.4708	232.342	174.867	423.941	189.630	339.287	199.626	436.608	396.734	209.693	418.440	182.914	159.537	181.451	378.279	436.168	475.558	0.0026675	0.0017051	0.0001831	842.5	1.1143e-05	3.2496e-06	862.32	299.35	1.6487e-05	5.898e-06	405.98	173.64	118.71	50.356	1.0014e-05	85.417	0.0039485	0.0041243	0.0011404	913.73	4.4676e-05	4.5046e-05	939.5	326.29	4.4367e-05	4.4976e-05	449.89	186.82	132.3	55.666	4.4018e-05	93.084	427.229	249.387	224.246	162.851	303.435	400.745	162.366	168.614	238.578	296.206	167.551	172.023	173.196	178.956	316.936	176.550	-8191	255	
52681.871	1	1	0	0	0.16338	0.105	0.1032	0.27223	0.20585	0.064519	0.25684	0.21649	0.12739	0.24709	0.093306	0.18563	0.27561	0.10805	0.19223	0.27533	-3.8229	-4.85	-4.8708	-4.1542	-5.1104	-4.7583	-4.4875	-5.4146	-4.3042	-4.6875	-5.2917	-4.3917	-5.2188	-4.95	-4.1792	-5.4104	305.508	156.721	414.895	365.117	260.498	478.455	452.213	408.415	406.213	322.874	471.092	459.409	506.633	433.992	494.717	469.937	0.003167	0.0015961	5.6188e-05	838.55	9.9234e-06	8.2927e-06	873.49	298.84	6.8251e-07	3.1717e-06	405.16	172.82	118.03	49.937	1.2019e-05	85.545	0.0039186	0.0040761	0.0011455	912.76	4.4875e-05	4.5037e-05	943.69	325.73	4.482e-05	4.5576e-05	450.4	186.49	131.7	55.477	4.5121e-05	93.242	426.616	201.215	383.626	162.722	160.702	279.810	162.284	168.541	193.844	224.565	167.586	172.170	173.234	178.908	368.922	176.547	-8191	255	
52681.969	1	1	0	0	0.094568	0.059006	0.097413	0.047708	0.13822	0.18703	0.15411	0.054349	0.1421	0.35913	0.13603	0.26009	0.2248	0.051116	0.25526	0.11957	-3.9688	-4.7896	-4.8521	-4.2	-5.025	-4.6729	-4.4333	-5.2271	-4.2562	-4.6979	-5.1396	-4.1125	-4.8833	-4.9125	-4.2833	-5.35	283.510	243.063	161.620	378.992	443.111	197.990	495.492	469.611	397.528	200.756	502.370	466.559	233.666	454.230	252.907	444.184	0.0031566	0.00095013	0.00029174	839.49	2.5076e-05	1.802e-05	864.99	298.22	8.5328e-06	1.5225e-05	407.52	171.87	116.25	49.976	6.3641e-06	84.928	0.003964	0.0041023	0.0011529	911.75	4.4899e-05	4.5214e-05	940.75	325.42	4.4185e-05	4.5011e-05	449.63	185.9	130.92	55.393	4.5003e-05	92.817	425.597	255.456	262.122	162.883	202.427	273.394	162.238	168.550	253.915	334.586	167.445	171.852	173.174	178.740	205.499	176.652	-8191	255	
52682.066	1	1	0	0	0.19171	0.056261	0.073645	0.29501	0.11165	0.14063	0.16085	0.11071	0.22468	0.29488	0.021036	0.097968	0.11064	0.059482	0.088582	0.20487	-4.0875	-4.475	-5.0521	-4.3688	-4.95	-4.8458	-4.4229	-5.2979	-4.4229	-4.6083	-5.2458	-4.3896	-4.9083	-5.0687	-4.4125	-5.2583	443.840	199.379	372.900	165.008	411.880	229.590	202.389	376.779	438.808	242.821	412.854	306.889	465.957	437.575	457.914	153.898	0.0025424	0.00073905	0.00016237	834.75	1.9287e-05	8.1737e-06	863.44	297.17	1.8791e-05	1.0244e-05	404.64	171	117.34	50.117	3.911e-06	85.63	0.0039597	0.0041528	0.0011726	910.77	4.4796e-05	4.59e-05	938.53	325.29	4.4758e-05	4.573e-05	449.39	185.54	131.13	55.654	4.5437e-05	93.156	429.012	380.127	380.491	162.712	506.900	401.751	162.053	168.536	246.096	278.467	167.381	172.245	172.784	178.696	206.889	176.760	-8191	255	
52682.160	1	1	0	0	0.099577	0.059684	0.25301	0.098232	0.091552	0.21039	0.11425	0.098677	0.096194	0.15991	0.10155	0.154	0.11887	0.18687	0.066846	0.057496	-4.3896	-4.3583	-5.1937	-4.3208	-4.7542	-4.9625	-4.2312	-5.2146	-4.7312	-4.2833	-5.3292	-4.425	-4.7167	-5.0771	-4.1875	-5.0979	281.376	427.791	395.836	306.982	423.308	407.092	430.664	155.259	325.100	261.566	444.969	411.817	227.897	151.751	415.247	416.253	0.0022747	0.00043273	7.7772e-05	835.48	6.3503e-06	1.9828e-05	861.02	297.31	2.0414e-05	1.0555e-05	404.5	171.94	117.08	50.351	1.2628e-05	86.059	0.003961	0.0041463	0.0011705	910.34	4.4794e-05	4.6005e-05	939.97	325.32	4.4612e-05	4.5214e-05	450.67	186.23	131.2	55.76	4.5274e-05	93.324	427.709	398.173	219.880	162.888	286.556	285.144	161.912	168.921	291.411	283.278	167.550	172.052	173.160	178.982	200.929	176.509	-8191	255	
52682.281	1	1	0	0	0.068824	0.20174	0.25599	0.13024	0.28229	0.17686	0.051753	0.15698	0.048061	0.15591	0.26358	0.10923	0.31954	0.097679	0.10262	0.16978	-4.5104	-4.2854	-5.1521	-4.3938	-4.5771	-5.0208	-4.2917	-5.0833	-4.7854	-4.1521	-5.2604	-4.6208	-4.6625	-5.2646	-4.2354	-5.025	244.239	405.151	340.613	505.114	275.835	287.334	496.409	377.109	228.625	416.375	426.379	359.103	451.238	159.619	452.608	448.782	0.0030167	0.00024473	0.0001667	843.98	3.1378e-06	5.4352e-06	865.05	296.79	2.3035e-05	2.473e-05	404.87	172.67	116.41	50.064	1.0681e-05	85.595	0.0039678	0.0041655	0.0011739	913	4.4919e-05	4.6053e-05	943.64	325.51	4.5201e-05	4.6046e-05	451.14	186.83	131.36	55.811	4.5655e-05	93.483	429.657	283.194	153.985	162.913	240.913	273.460	162.223	168.729	258.064	496.043	167.242	171.901	173.302	178.821	208.130	176.643	-8191	255	
52682.379	1	1	0	0	0.13018	0.14505	0.21107	0.11669	0.13392	0.15169	0.26855	0.15258	0.018508	0.18732	0.15374	0.26115	0.17389	0.15496	0.23156	0.13753	-4.6417	-4.1583	-5.2042	-4.7625	-4.3688	-5.0833	-4.475	-5.0042	-4.925	-4.2125	-5.1958	-4.7063	-4.4292	-5.2917	-4.1875	-5.0292	368.089	500.756	484.303	157.578	200.899	305.747	442.294	458.887	424.195	469.876	307.529	498.740	235.162	487.271	340.681	462.536	0.0030218	0.00067761	9.7855e-05	838.23	2.0968e-05	9.9698e-06	868.24	298.42	2.0061e-05	2.169e-05	407.7	172.68	117.53	50.405	1.0066e-05	86.015	0.0039708	0.0041577	0.0011737	912.18	4.4524e-05	4.587e-05	944.87	325.89	4.4626e-05	4.5781e-05	451.8	187.13	131.46	55.877	4.5476e-05	93.532	437.388	200.136	264.194	162.847	256.035	312.172	162.279	168.380	263.668	314.927	167.219	172.156	173.287	178.608	296.282	176.411	-8191	255	
52682.473	1	1	0	0	0.22797	0.17954	0.096856	0.18175	0.088985	0.15	0.21885	0.20323	0.16089	0.035825	0.16684	0.15556	0.19919	0.053981	0.11995	0.22147	-4.7562	-4.2208	-5.0833	-4.625	-4.2708	-5.1438	-4.5042	-4.6042	-5.1583	-4.0667	-5.0771	-4.8521	-4.3729	-5.2438	-4.4396	-4.8604	364.674	271.076	493.868	509.716	256.511	465.912	367.208	456.543	481.625	370.843	443.472	413.938	158.898	462.942	509.606	444.009	0.0031218	0.0014084	0.00027801	837.19	1.1059e-05	8.6255e-06	868.87	298.55	8.7704e-06	1.0557e-05	408.49	172.07	116.95	50.458	4.1472e-06	85.987	0.0040129	0.004223	0.0011763	913.63	4.55e-05	4.6825e-05	945.92	325.97	4.5714e-05	4.6415e-05	452.56	186.99	131.75	56.081	4.5664e-05	93.738	430.987	230.806	168.754	163.024	269.642	166.723	161.935	168.550	280.348	274.883	167.414	172.167	173.125	178.674	253.814	176.617	-8191	255	
52682.547	1	1	0	0	0.13673	0.2323	0.065377	0.05162	0.12566	0.16136	0.087095	0.2851	0.14752	0.24352	0.074433	0.20999	0.13409	0.16149	0.15117	0.21905	-4.8604	-4.1708	-4.8042	-4.9167	-4.075	-5.1771	-4.5813	-4.6687	-5.2438	-4.3979	-4.9646	-5.1354	-4.1479	-5.2146	-4.55	-4.5292	162.772	314.261	332.902	489.309	460.141	310.197	428.925	443.948	344.705	413.706	293.014	432.314	491.181	468.333	441.053	422.764	0.0031309	0.001543	0.00030185	836.51	2.7362e-05	9.1169e-06	868.58	299.05	1.6811e-05	1.1344e-05	405.92	173.37	117.45	50.583	9.8329e-06	86.414	0.0040426	0.0042434	0.0011852	914.32	4.5772e-05	4.765e-05	945.25	327.22	4.6292e-05	4.6926e-05	452.96	187.95	132.38	56.17	4.6278e-05	93.918	429.160	283.604	292.612	162.918	220.778	337.637	162.075	168.419	306.547	295.406	167.160	172.133	173.204	178.453	358.618	175.946	-8191	255	
52682.664	1	1	0	0	0.15517	0.25233	0.020612	0.096556	0.35097	0.040146	0.20616	0.22702	0.11865	0.096363	0.16191	0.030543	0.18607	0.13483	0.12624	0.11249	-4.9667	-4.1542	-4.8104	-5.1396	-4.2521	-5.2083	-4.6583	-4.5208	-5.0854	-4.2833	-4.8396	-5.1104	-4.3229	-5.0667	-4.8104	-4.5	166.582	509.679	293.614	495.299	233.937	249.486	428.909	483.857	480.840	197.650	486.655	488.736	390.254	448.425	425.439	428.291	0.0028249	0.00062746	0.00035814	843.11	1.6032e-05	1.7198e-05	867.51	299.36	1.5217e-05	1.2571e-05	407.5	173.37	117.61	50.438	5.4972e-06	86.116	0.0041005	0.0042802	0.0011944	915.97	4.6191e-05	4.7209e-05	947.57	327.04	4.6429e-05	4.6527e-05	453.95	188.41	132.48	56.085	4.6882e-05	94.052	430.186	273.469	236.351	163.038	354.247	331.470	162.526	168.421	233.969	273.595	167.151	172.129	172.895	178.663	340.983	176.598	-8191	255	
52682.762	1	1	0	0	0.033121	0.24118	0.1292	0.27084	0.12896	0.13998	0.30829	0.21465	0.1764	0.20327	0.1388	0.27608	0.21221	0.089897	0.010016	0.025936	-4.9187	-4.4375	-4.6896	-5.2146	-4.1979	-5.1125	-4.9917	-4.4125	-5.1521	-4.3604	-4.6958	-5.2312	-4.4292	-5.0167	-4.8771	-4.4292	501.467	350.882	499.401	230.080	191.656	277.460	450.609	152.712	366.589	421.383	444.276	484.487	195.250	161.135	221.976	406.651	0.002868	0.00074972	6.6598e-05	844.08	5.1674e-06	7.7417e-06	872.03	298.89	2.3348e-05	8.8007e-06	409.96	173.91	117.65	50.601	1.4658e-05	86.64	0.0041297	0.0043041	0.0012055	918.22	4.6615e-05	4.7364e-05	950.9	327.64	4.6822e-05	4.7126e-05	456.12	188.58	132.5	56.178	4.7617e-05	94.166	421.738	503.036	449.624	162.896	284.298	509.360	162.163	168.400	308.115	254.969	167.697	172.184	173.211	178.826	258.772	176.356	-8191	255	
52682.855	1	1	0	0	0.11623	0.10552	0.034299	0.14733	0.13906	0.15109	0.17341	0.19477	0.12741	0.064061	0.081346	0.067841	0.18239	0.068627	0.063001	0.14119	-4.7271	-4.4417	-4.4333	-5.325	-4.3	-4.9167	-5.1333	-4.1479	-4.9083	-4.5437	-4.6458	-5.2542	-4.1687	-4.9104	-5.025	-4.3938	419.551	169.379	315.776	446.076	351.433	303.576	449.705	159.017	207.104	355.181	461.921	176.017	476.879	476.054	487.654	446.167	0.0040046	0.00065075	0.00030023	842.16	8.4048e-07	7.8842e-06	874.08	300.2	1.1678e-05	4.2924e-06	408.11	172.6	117.51	50.45	7.0183e-06	85.967	0.0041817	0.0043666	0.0012242	918.86	4.7122e-05	4.7924e-05	952.49	328.17	4.7332e-05	4.8177e-05	455.02	188.5	132.85	56.198	4.7608e-05	93.85	430.184	177.992	203.715	162.830	173.575	180.114	162.218	168.153	307.426	245.730	167.193	172.092	173.276	178.586	322.472	176.352	-8191	255	
52682.953	1	1	0	0	0.17765	0.11314	0.24086	0.14561	0.16224	0.054472	0.21109	0.10569	0.17466	0.19217	0.12237	0.13769	0.077013	0.1817	0.087844	0.12588	-4.7271	-4.7208	-4.3646	-5.3833	-4.2958	-4.6917	-5.1104	-4.1979	-5.0875	-4.6083	-4.4062	-5.3042	-4.3938	-4.5729	-4.9833	-4.2438	279.297	370.459	179.772	495.646	187.417	225.410	482.952	394.013	508.808	213.530	481.993	286.599	387.215	506.148	196.202	177.778	0.0029223	0.00081374	0.00023809	842.71	8.574e-06	2.8582e-06	868.01	300.37	1.6228e-05	5.9265e-06	408.48	173.37	118.52	50.509	1.2213e-05	85.869	0.0041548	0.004377	0.0012153	919.26	4.6706e-05	4.7673e-05	949.63	328.36	4.7e-05	4.7711e-05	455	189.21	133.27	56.178	4.7704e-05	94.196	424.266	245.678	343.833	163.016	190.587	369.253	162.273	168.337	264.016	335.041	167.392	172.061	173.289	178.694	293.111	176.633	-8191	255	
52683.074	1	1	0	0	0.33974	0.21556	0.098527	0.086561	0.030113	0.24603	0.22122	0.21413	0.13819	0.074042	0.10995	0.35877	0.24585	0.14448	0.14931	0.074187	-4.6375	-4.7896	-4.2104	-5.2125	-4.3521	-4.4042	-5.0167	-4.3896	-4.9167	-4.7792	-4.2937	-5.1167	-4.7104	-4.4167	-5.0813	-4.4125	327.774	170.238	382.626	408.196	446.321	409.274	423.379	467.323	452.988	498.207	190.549	486.936	474.859	190.903	507.342	156.421	0.0024766	0.00058592	0.00013163	840.58	1.4432e-05	5.8092e-06	871.48	300.72	1.0255e-05	8.421e-06	406.67	174.03	117.76	50.216	1.9399e-06	85.987	0.0041779	0.0043973	0.0012267	920.04	4.7126e-05	4.8356e-05	951.84	329.09	4.738e-05	4.8257e-05	456.2	189.47	133.5	56.223	4.8092e-05	94.244	424.533	223.921	173.242	163.011	239.663	437.948	162.262	168.274	223.916	267.611	167.460	172.077	172.950	178.901	401.560	176.489	-8191	255	
52683.145	1	1	0	0	0.17913	0.073401	0.35383	0.2189	0.23679	0.23775	0.16377	0.30708	0.054629	0.17577	0.20677	0.1934	0.14763	0.080696	0.045858	0.090505	-4.5875	-5.0667	-4.1438	-5.1771	-4.4229	-4.4771	-5.2875	-4.3521	-4.6917	-4.8917	-4.2583	-5.1354	-4.7604	-4.3417	-5.1813	-4.3688	214.351	489.138	266.436	492.589	169.067	257.804	456.828	432.233	326.477	359.693	331.641	414.077	297.478	425.310	405.512	399.756	0.0028215	0.00061156	6.3609e-05	847.51	1.756e-05	5.0564e-06	870.16	299.82	7.3129e-06	2.4593e-05	410.32	174.36	118.4	50.676	8.936e-06	86.765	0.0042082	0.004394	0.0012299	922	4.7407e-05	4.8433e-05	954.86	329.1	4.7656e-05	4.8752e-05	458.31	189.89	133.89	56.545	4.8586e-05	94.576	422.035	210.171	160.809	162.840	179.559	347.054	162.210	168.269	187.696	282.369	167.282	172.277	173.274	178.459	298.205	176.438	-8191	255	
52683.242	1	1	0	0	0.15978	0.44918	0.21433	0.23463	0.099792	0.081669	0.20154	0.13798	0.12007	0.28683	0.059817	0.17292	0.15711	0.27053	0.14023	0.047392	-4.2875	-4.9729	-3.9854	-5.1771	-4.7063	-4.2833	-5.2833	-4.3187	-4.7792	-4.9958	-4.2104	-5.1687	-4.8896	-4.2875	-5.1271	-4.6438	248.397	449.530	286.874	447.885	504.632	448.375	172.976	489.909	323.446	361.046	472.996	488.737	368.469	462.963	238.890	276.606	0.0030354	0.001508	0.00016033	843.24	1.5442e-05	6.2266e-06	868.1	301.1	1.9799e-05	2.6613e-06	408.82	173.74	117.96	50.312	1.154e-05	86.271	0.0042413	0.0044753	0.0012415	922.83	4.7916e-05	4.8829e-05	954.31	329.72	4.8186e-05	4.8761e-05	456.45	189.67	133.75	56.345	4.8916e-05	94.39	427.119	229.197	235.846	162.831	238.790	273.382	162.238	168.481	244.721	315.571	167.322	171.979	173.334	178.874	273.903	176.506	-8191	255	
52683.363	1	1	0	0	0.045074	0.23119	0.16933	0.23889	0.028939	0.14486	0.014821	0.18025	0.065359	0.16412	0.10222	0.10235	0.18124	0.40507	0.059546	0.070899	-4.2312	-4.9812	-4.1375	-4.9333	-4.8146	-4.1417	-5.2708	-4.4729	-4.5271	-5.2354	-4.5083	-4.9042	-5.0062	-4.3438	-5.1417	-4.7021	373.800	308.652	263.879	466.929	491.437	506.289	379.910	159.829	341.178	388.732	499.610	304.746	341.053	182.933	191.011	336.817	0.0030353	6.1052e-05	0.00021414	842.66	6.6022e-06	8.12e-06	868.38	299.17	2.3807e-05	1.1249e-05	409.3	174.14	118.35	50.432	9.1293e-06	86.222	0.0042774	0.0045242	0.0012555	921.93	4.8596e-05	4.9288e-05	954.86	329.66	4.8751e-05	4.947e-05	457.93	189.8	134.1	56.531	4.9117e-05	94.532	426.863	159.772	502.977	162.954	284.357	275.542	162.417	168.802	291.738	236.304	167.279	171.962	173.172	178.510	340.147	176.715	-8191	255	
52683.457	1	1	0	0	0.19731	0.07302	0.037474	0.21475	0.050162	0.19754	0.1914	0.089402	0.25501	0.034789	0.34229	0.061901	0.085303	0.10105	0.19254	0.15687	-4.1583	-5.2042	-4.1521	-4.8958	-5.0958	-4.1375	-5.1042	-4.7146	-4.3521	-5.0625	-4.3812	-4.7	-5.0458	-4.3292	-4.975	-4.8958	194.461	381.809	509.286	391.457	185.276	210.916	414.844	498.752	179.243	354.614	410.222	364.330	495.511	395.035	394.615	429.812	0.003333	0.00070925	0.00041849	841.61	5.1499e-06	1.1272e-05	875.07	300.01	1.8194e-05	1.7634e-05	411.93	174.96	118.56	50.77	7.3193e-06	86.156	0.0042786	0.0045291	0.0012565	922.82	4.8573e-05	4.9465e-05	955.69	329.75	4.8565e-05	4.9581e-05	458.77	190.1	134.18	56.511	4.8803e-05	94.433	418.312	231.189	184.940	162.647	226.929	320.589	162.198	168.451	300.379	328.129	167.271	172.166	173.271	178.776	266.298	176.770	-8191	255	
52683.555	1	1	0	0	0.18311	0.13403	0.22182	0.046814	0.17456	0.14424	0.19335	0.23082	0.2188	0.12066	0.17978	0.16051	0.20301	0.22059	0.1483	0.11157	-4.0458	-5.0479	-4.2104	-4.7333	-5.1208	-4.3333	-5.0938	-4.7646	-4.3354	-5.0229	-4.5292	-4.5146	-5.0917	-4.3792	-4.6458	-5.1104	165.477	506.200	156.907	386.214	345.815	181.399	502.063	419.727	287.630	185.355	431.591	220.219	470.025	508.745	375.326	356.934	0.003541	0.00077707	0.00015983	843.8	1.4184e-05	5.7501e-06	871.58	299.65	7.7233e-06	7.2482e-06	411.32	174.54	118.63	50.538	1.3996e-05	86.169	0.0042545	0.0044905	0.0012557	923.52	4.8549e-05	4.9268e-05	956.01	330.34	4.8305e-05	4.9371e-05	459.18	190.23	134.46	56.554	4.901e-05	94.819	430.561	253.258	262.667	162.853	216.626	175.548	162.244	168.900	202.141	267.556	167.425	171.871	172.926	178.459	273.887	176.743	-8191	255	
52683.672	1	1	0	0	0.29262	0.22301	0.10181	0.17907	0.084487	0.2413	0.18722	0.28165	0.10944	0.084001	0.18138	0.17007	0.088309	0.18649	0.16262	0.21422	-3.9625	-5.0354	-4.5375	-4.4563	-5.0583	-4.2146	-4.9333	-5.0417	-4.2354	-5.0479	-4.7375	-4.2854	-5.2688	-4.15	-4.6854	-5.0646	246.942	355.474	362.052	156.731	325.647	200.741	329.651	179.626	439.821	469.779	268.328	308.531	449.760	498.625	332.436	388.868	0.0027702	0.00094494	0.00019069	843.01	8.3782e-06	9.2866e-06	872.62	299.71	3.3903e-05	1.1246e-05	410.95	174.2	119.08	50.558	1.2319e-05	85.977	0.0042692	0.0044952	0.001264	924.54	4.8449e-05	4.9434e-05	958.54	330.46	4.8665e-05	4.9704e-05	459.35	190.37	134.3	56.379	4.9502e-05	94.498	425.766	298.060	293.029	162.938	317.614	209.020	162.060	168.568	231.338	220.156	167.369	171.926	173.256	178.667	255.703	176.625	-8191	255	
52683.770	1	1	0	0	0.23785	0.28123	0.075802	0.066576	0.063668	0.067339	0.099078	0.2374	0.16118	0.2087	0.16692	0.11696	0.20708	0.42108	0.24324	0.15839	-3.8021	-4.875	-4.5458	-4.5333	-4.9333	-4.3313	-4.6521	-5.3125	-4.0417	-4.925	-4.8167	-4.4042	-5.2354	-4.4771	-4.4812	-5.2333	427.853	265.084	400.342	482.328	472.953	415.044	163.831	477.447	328.899	284.775	461.894	499.910	447.804	500.404	346.856	378.810	0.0036223	0.00050815	0.0001258	841.56	9.443e-06	1.0147e-05	870.56	300.74	1.043e-05	1.8111e-05	407.57	174.07	119.18	50.241	1.2577e-05	86.009	0.0043011	0.0045438	0.0012714	925.51	4.9222e-05	4.9828e-05	956.89	330.33	4.8864e-05	4.987e-05	458.29	189.98	134.31	56.45	4.934e-05	94.525	418.277	418.045	176.333	162.684	261.381	281.842	162.062	168.469	264.284	282.060	167.714	171.970	173.120	178.779	280.115	176.790	-8191	255	
52683.840	1	1	0	0	0.2386	0.11039	0.118	0.051316	0.053154	0.11268	0.27676	0.23053	0.085854	0.089672	0.083059	0.096083	0.30118	0.19025	0.097554	0.12924	-3.9417	-4.9292	-4.7063	-4.35	-5.0979	-4.4812	-4.6604	-5.2542	-4.2354	-4.9542	-5.0354	-4.2104	-5.2396	-4.4854	-4.3146	-5.3	200.976	236.718	273.495	237.616	377.736	361.980	352.882	466.255	189.867	421.317	404.694	503.012	381.037	273.278	260.638	250.691	0.0027187	0.0014806	0.00039217	844.82	9.9373e-06	1.5973e-06	872.35	302.06	1.1875e-05	1.1432e-05	408.74	174.02	119.38	50.791	1.7004e-05	86.722	0.0043159	0.004547	0.0012731	924.05	4.9278e-05	5.0203e-05	957.3	331.49	4.892e-05	5.0492e-05	458.6	190.65	134.84	56.668	4.989e-05	94.929	419.790	166.360	168.924	162.863	247.673	163.227	162.105	168.664	205.328	435.989	167.197	172.004	172.326	178.687	270.617	176.300	-8191	255	
52683.961	1	1	0	0	0.16774	0.04681	0.14792	0.15008	0.049385	0.11871	0.19021	0.13215	0.078876	0.068641	0.097034	0.057624	0.11109	0.21469	0.1585	0.1135	-3.8646	-4.7583	-5.0521	-4.3187	-4.9646	-4.525	-4.5542	-5.2479	-4.0813	-4.5896	-5.0833	-4.3187	-5.1354	-4.7854	-4.3104	-5.3229	410.140	151.738	451.548	470.116	283.635	204.780	245.292	194.142	475.914	414.615	352.610	275.707	377.826	171.328	372.423	479.774	0.0028959	0.00049253	0.00031491	845.07	1.4906e-05	1.0528e-05	873.02	300.89	2.1941e-05	1.8368e-05	407.52	174.05	118.46	50.464	1.4916e-05	86.522	0.0043606	0.0046198	0.0012835	925.65	4.9811e-05	5.0586e-05	957.48	331.6	4.9859e-05	5.0622e-05	459.62	190.72	134.38	56.612	5.0485e-05	94.909	429.397	469.225	260.178	162.507	200.016	315.158	162.062	168.386	309.688	435.872	167.715	172.264	172.978	178.642	292.610	176.559	-8191	255	
52684.059	1	1	0	0	0.24736	0.085865	0.082695	0.29437	0.084591	0.068008	0.10114	0.32678	0.29611	0.079584	0.31072	0.23408	0.31326	0.074033	0.2757	0.13345	-4.1188	-4.5312	-4.9979	-4.1896	-4.9625	-4.5521	-4.3167	-5.2354	-4.1896	-4.725	-4.9979	-4.2063	-5.0021	-4.9354	-4.1396	-5.1854	303.819	374.154	321.732	439.259	268.645	211.964	303.048	442.244	371.801	447.001	505.714	365.727	437.892	164.653	396.771	351.310	0.003153	0.00081261	0.00031796	838.73	1.3102e-05	1.543e-06	871.03	301.4	1.0302e-05	1.3211e-05	412.56	173.98	118.63	50.275	4.0659e-06	85.921	0.0044572	0.0046964	0.0013173	925.72	5.0986e-05	5.1745e-05	960.8	331.71	5.1058e-05	5.1993e-05	462.08	190.84	134.86	56.702	5.1681e-05	95.067	422.598	310.349	194.201	162.863	291.838	487.155	161.888	168.519	275.722	240.665	167.515	172.269	173.010	178.854	262.263	176.657	-8191	255	
52684.152	1	1	0	0	0.12813	0.035489	0.048991	0.033905	0.099318	0.11573	0.13426	0.21655	0.14145	0.069545	0.23062	0.16602	0.23747	0.23426	0.026081	0.15916	-4.1042	-4.4542	-5.0104	-4.2917	-4.7833	-4.8479	-4.3688	-5.1562	-4.5062	-4.4208	-5.3271	-4.3667	-4.8187	-4.9458	-4.0896	-5.2021	468.417	366.837	259.573	395.085	352.235	360.656	507.619	200.268	443.587	184.762	465.877	460.123	436.271	367.439	259.633	417.497	0.0030701	0.0011142	0.00044772	841.91	3.0788e-05	8.0593e-06	870.75	300.98	2.8887e-05	2.0304e-05	409.22	173.36	118.69	50.408	7.7252e-06	85.688	0.0045643	0.0047792	0.0013385	928.72	5.2269e-05	5.2902e-05	961.49	332.37	5.1651e-05	5.2407e-05	460.84	190.36	134.86	56.715	5.1433e-05	94.863	421.630	159.681	216.525	162.636	312.658	298.986	162.360	168.521	285.657	308.145	167.197	172.219	173.358	178.751	331.363	176.740	-8191	255	
52684.250	1	1	0	0	0.11713	0.11103	0.25762	0.32306	0.18977	0.35556	0.15264	0.17195	0.23589	0.16905	0.073895	0.24477	0.20797	0.13403	0.17463	0.24044	-4.2333	-4.4021	-5.0958	-4.2771	-4.7979	-4.9646	-4.2479	-5.0667	-4.7875	-4.3375	-5.2854	-4.3667	-4.7292	-5.1146	-4.1625	-5.0292	175.080	286.451	178.917	483.520	228.315	354.282	156.585	464.077	272.812	388.875	443.880	411.577	371.266	399.753	403.036	468.089	0.0033541	0.001072	0.00035482	841.21	1.2859e-05	7.7269e-06	869.22	302.92	5.2062e-06	5.9952e-06	409.3	172.98	118.56	50.465	8.08e-06	86.248	0.0045309	0.0047388	0.0013233	927.93	5.139e-05	5.2527e-05	959.17	333.17	5.1523e-05	5.2013e-05	461.68	190.88	135.17	56.776	5.145e-05	94.92	435.218	266.389	436.743	163.143	394.524	227.220	162.425	168.642	418.498	420.331	167.491	172.080	173.106	178.870	228.765	176.952	-8191	255	
52684.371	1	1	0	0	0.095623	0.16085	0.13038	0.2442	0.071502	0.26484	0.18608	0.26588	0.067077	0.020307	0.063374	0.061525	0.059182	0.2086	0.48391	0.1771	-4.4	-4.2438	-5.1375	-4.5167	-4.6229	-5.1229	-4.3375	-5.0917	-4.85	-4.2354	-5.3125	-4.6979	-4.4771	-5.1271	-4.0042	-4.9187	280.873	490.676	233.091	157.686	263.492	352.823	456.067	361.555	240.393	329.533	461.432	247.648	449.789	199.552	416.742	464.546	0.0032364	0.00097953	5.5429e-05	841.73	7.6392e-06	4.0335e-06	868.22	300.78	5.2869e-06	1.1382e-05	411.27	174.17	119.18	50.367	1.3181e-05	85.818	0.0045178	0.0047673	0.0013297	928.11	5.1336e-05	5.2531e-05	960.16	332.78	5.2123e-05	5.2496e-05	462.73	191.38	135.35	56.866	5.191e-05	95.08	421.720	498.660	161.865	162.851	304.697	269.615	162.464	168.619	252.988	371.254	167.603	171.992	173.534	178.716	266.060	176.679	-8191	255	
52684.441	1	1	0	0	0.18616	0.16728	0.030869	0.19261	0.043762	0.086285	0.060364	0.04945	0.15116	0.090247	0.15795	0.29937	0.080356	0.15745	0.11107	0.055054	-4.7167	-4.1479	-5.0958	-4.7292	-4.4083	-5.15	-4.4917	-4.9688	-4.8688	-4.0958	-5.2104	-4.8417	-4.4292	-5.1667	-4.2562	-4.9187	320.604	302.094	399.898	165.037	462.466	266.609	308.368	298.278	484.091	375.426	386.474	431.106	188.440	474.051	160.354	287.166	0.0034536	0.0013587	0.00035643	843.1	1.0831e-05	1.2208e-05	871.29	302.2	1.9902e-05	1.1647e-05	409.19	174.3	119.79	50.486	8.8367e-06	86.673	0.0045425	0.0047434	0.0013347	929.71	5.148e-05	5.2452e-05	959.63	333.42	5.1476e-05	5.2234e-05	463.86	191.79	135.62	56.81	5.2028e-05	95.256	429.143	272.774	301.198	162.950	328.521	380.971	162.331	168.922	336.619	281.965	167.337	172.384	172.897	178.771	238.022	176.376	-8191	255	
52684.539	1	1	0	0	0.11318	0.0067991	0.19389	0.085316	0.080373	0.15771	0.1053	0.10119	0.16053	0.16513	0.094647	0.11944	0.28816	0.067126	0.17581	0.30979	-4.6333	-4.1021	-4.8063	-4.6833	-4.1292	-5.0625	-4.4792	-4.725	-4.8521	-4.2354	-5.1583	-4.8542	-4.2854	-5.2833	-4.2917	-4.7604	285.711	348.018	163.024	449.202	179.387	311.579	368.076	481.097	456.542	152.724	508.021	485.809	469.727	246.886	231.563	401.711	0.0028578	0.00065482	0.00042322	845.58	2.3762e-05	4.2921e-06	873.85	300.75	1.2049e-05	9.5771e-06	410.96	174.99	118.38	50.283	1.2475e-05	85.947	0.0045111	0.0047126	0.0013311	926.16	5.1105e-05	5.2307e-05	961.62	332.66	5.1301e-05	5.1861e-05	463.07	191.94	135.22	56.682	5.2361e-05	94.934	422.820	244.579	171.858	162.946	273.649	386.039	162.586	168.655	223.887	331.462	167.391	171.934	173.202	178.901	227.260	176.875	-8191	255	
52684.637	1	1	0	0	0.1363	0.094258	0.093917	0.14525	0.11949	0.13829	0.11809	0.17206	0.21283	0.066922	0.19011	0.17654	0.15919	0.15964	0.18486	0.28037	-4.7646	-4.1417	-4.9875	-4.8354	-4.3375	-5.2396	-4.4583	-4.6729	-5.1125	-4.0062	-4.9313	-5.0167	-4.4729	-5.1854	-4.5208	-4.4479	285.833	310.987	232.305	486.867	506.772	378.853	446.309	167.642	273.693	437.898	441.451	499.306	161.547	273.985	456.770	421.261	0.0028677	0.00040625	0.00030558	840.03	1.5279e-05	1.1554e-05	864.75	299.77	4.3317e-06	1.1801e-05	406.39	173.88	118.26	50.267	9.6724e-06	85.666	0.0045757	0.0048046	0.0013521	925.28	5.177e-05	5.2667e-05	956.69	331.25	5.1793e-05	5.2714e-05	460.72	191.06	134.89	56.688	5.2634e-05	94.786	426.269	279.943	493.183	162.970	289.380	459.914	162.612	168.961	168.071	314.574	167.475	172.179	172.832	178.574	164.055	176.677	-8191	255	
52684.754	1	1	0	0	0.11999	0.28373	0.071499	0.24079	0.32239	0.13145	0.4333	0.2081	0.19278	0.057778	0.080918	0.31162	0.039826	0.052406	0.17673	0.20859	-4.8	-4.1292	-4.7562	-5.0542	-4.0646	-5.0125	-4.8063	-4.6562	-5.1792	-4.4042	-4.8438	-5.0708	-4.3333	-5.0833	-4.7292	-4.5479	221.505	376.328	315.285	459.807	455.830	275.207	455.928	399.862	254.356	261.206	235.232	152.043	382.236	381.644	186.613	211.226	0.0031612	0.00096222	2.9753e-05	836.26	2.6387e-05	2.0224e-06	856.65	298.51	1.2028e-05	1.08e-05	408.83	173.66	117.96	50.077	1.0975e-05	85.806	0.0046086	0.0048663	0.0013619	923.62	5.1595e-05	5.3184e-05	953.55	330.68	5.1932e-05	5.3379e-05	460.58	191.13	134.64	56.632	5.368e-05	94.783	419.561	399.826	333.159	162.744	297.140	478.375	162.341	168.852	253.394	283.703	167.585	172.187	173.117	179.027	364.257	176.626	-8191	255	
52684.852	1	1	0	0	0.033854	0.078108	0.11158	0.13942	0.25074	0.10018	0.12851	0.19338	0.20654	0.10503	0.043274	0.19523	0.094305	0.28466	0.17119	0.15263	-4.8875	-4.3604	-4.4292	-5.1937	-4.3458	-5.1625	-4.9271	-4.5	-5.0958	-4.3542	-4.6083	-5.1271	-4.2083	-5.0042	-4.8	-4.3104	189.990	319.957	398.127	488.989	312.377	212.110	358.187	444.808	384.928	166.478	178.922	504.220	225.848	161.739	151.277	190.282	0.0032315	0.00075206	0.00024552	836.71	1.5148e-05	1.1499e-05	865.12	297.74	1.0306e-05	3.353e-06	406.67	171.94	116.91	49.903	8.6292e-06	85.472	0.0046815	0.0049913	0.0013889	922.76	5.2783e-05	5.4916e-05	954.8	329.76	5.3656e-05	5.4871e-05	461.16	190.83	134.37	56.589	5.4834e-05	94.826	413.311	285.612	238.445	163.244	262.869	236.123	162.102	168.276	200.306	294.749	167.619	172.021	172.771	178.468	474.331	176.646	-8191	255	
52684.945	1	1	0	0	0.12357	0.13824	0.1551	0.082984	0.15764	0.13805	0.22816	0.5892	0.17367	0.20002	0.14507	0.22363	0.24096	0.11374	0.27395	0.16985	-4.8375	-4.3604	-4.5542	-5.1583	-4.2583	-4.8125	-5.0708	-4.3479	-5.0771	-4.5979	-4.4688	-5.2167	-4.4812	-4.8042	-4.8583	-4.4354	174.048	337.879	284.479	328.892	150.974	308.268	412.915	435.592	335.079	199.261	439.980	474.151	453.555	465.199	276.172	433.115	0.0028968	0.00070224	0.00015622	833.72	6.6571e-06	8.0214e-06	858.8	296.68	8.5665e-06	1.0924e-05	405.55	173.28	117.24	49.819	7.9802e-06	85.49	0.0047483	0.0050157	0.0014008	921	5.3956e-05	5.5359e-05	954.65	329.38	5.4001e-05	5.4921e-05	461.07	190.83	134.36	56.527	5.5015e-05	94.716	424.213	254.916	387.031	162.465	424.611	240.358	161.453	167.877	225.753	279.052	167.433	172.307	173.188	178.814	384.982	176.595	-8191	255	
52685.043	1	1	0	0	0.1641	0.15357	0.086661	0.14269	0.25798	0.042281	0.098691	0.099636	0.10717	0.18761	0.1303	0.10817	0.023862	0.1172	0.023196	0.13074	-4.9083	-4.4542	-4.2833	-5.2458	-4.2583	-4.7208	-5.1771	-4.2854	-4.9938	-4.7208	-4.3771	-5.3333	-4.5188	-4.6833	-5.1104	-4.2042	370.504	344.800	156.360	403.478	483.702	335.902	500.567	400.551	262.335	417.646	295.969	267.203	508.644	433.473	154.390	455.180	0.0026551	0.00059038	0.00037466	831.12	1.6899e-05	1.1535e-05	858.19	296.34	2.013e-05	5.0751e-06	404.84	171.5	116.77	49.504	3.6996e-06	85.622	0.0047894	0.0050802	0.0014007	920.17	5.4464e-05	5.5758e-05	953.1	329.74	5.4788e-05	5.5386e-05	459.83	190.1	134.52	56.458	5.4639e-05	94.666	424.267	228.593	259.640	163.205	275.899	258.931	162.341	168.488	209.778	429.413	167.630	172.248	173.012	178.986	218.298	176.599	-8191	255	
52685.137	1	1	0	0	0.14453	0.068742	0.12893	0.16054	0.13136	0.1678	0.21905	0.25473	0.072006	0.3085	0.12892	0.074598	0.056721	0.073615	0.23342	0.3085	-4.6562	-4.9	-4.1813	-5.2479	-4.3521	-4.5208	-5.1354	-4.2958	-4.8771	-4.9229	-4.3938	-5.2625	-4.3438	-4.4333	-5.0542	-4.3396	167.679	291.740	369.382	291.355	177.586	459.540	161.603	428.736	393.123	242.810	311.812	454.443	494.936	341.210	178.929	425.163	0.002858	0.00065296	0.00028018	824.31	5.7585e-06	1.2022e-05	856.16	295.76	2.1444e-06	1.3621e-05	407.36	172.16	117.08	49.767	1.0575e-05	85.451	0.0048186	0.0050651	0.0014057	918.2	5.4706e-05	5.5366e-05	952.98	329.6	5.4963e-05	5.5078e-05	460.44	190.78	134.53	56.537	5.4997e-05	94.651	430.670	204.701	201.762	162.849	425.170	283.473	162.300	168.299	277.786	292.042	167.478	172.386	172.949	178.730	375.045	176.707	-8191	255	
52685.234	1	1	0	0	0.034278	0.12905	0.11488	0.16664	0.053482	0.040322	0.10769	0.30493	0.20674	0.21848	0.070269	0.32264	0.14802	0.25054	0.14978	0.10196	-4.5417	-4.8042	-4.2063	-5.4688	-4.5167	-4.4604	-5.1083	-4.2292	-4.7521	-4.9167	-4.4	-5.1	-4.7604	-4.4812	-5.0833	-4.5437	467.251	324.438	193.945	427.565	208.373	385.313	381.998	464.572	351.126	371.879	237.129	508.461	476.635	435.856	171.668	158.245	0.0033235	0.0010318	0.00013514	829.22	1.488e-05	5.9766e-06	858.22	296.37	1.5546e-05	1.0093e-05	403.86	172.4	117.03	49.656	3.1026e-06	85.432	0.0048322	0.0050597	0.0014049	921.47	5.5057e-05	5.5751e-05	953.97	330.37	5.4625e-05	5.513e-05	459.52	190.98	134.69	56.376	5.4675e-05	94.84	425.739	200.766	169.191	163.065	324.686	470.370	162.238	168.826	267.343	377.716	167.682	171.944	173.046	178.682	243.462	176.723	-8191	255	
52685.355	1	1	0	0	0.13997	0.14155	0.15577	0.078428	0.032257	0.16907	0.10323	0.10929	0.19921	0.058498	0.048271	0.037229	0.34287	0.029	0.23485	0.21066	-4.3187	-5.1125	-4.0687	-5.0479	-4.6708	-4.2833	-5.1562	-4.3708	-4.5958	-5.0042	-4.3	-5.1292	-4.7604	-4.35	-5.1687	-4.5771	274.255	335.718	208.507	451.042	172.906	286.370	166.196	485.772	484.206	437.434	349.818	178.226	461.686	235.612	357.940	433.254	0.0024842	0.00064703	0.00041661	826.75	2.19e-05	1.449e-05	863.68	295.6	1.0641e-05	6.0082e-06	405.15	173.76	117.06	49.818	1.858e-06	85.753	0.004777	0.0050218	0.0014096	920.93	5.4795e-05	5.4974e-05	957.02	330.41	5.4243e-05	5.4977e-05	461.74	191.81	134.72	56.425	5.5404e-05	95.324	425.282	338.194	190.701	163.451	334.884	245.302	162.222	168.689	236.097	261.546	167.397	172.096	173.225	178.970	238.080	176.771	-8191	255	
52685.449	1	1	0	0	0.2483	0.12135	0.26579	0.083544	0.12281	0.10844	0.12947	0.090375	0.12146	0.14226	0.15094	0.051594	0.086389	0.16011	0.16582	0.36547	-4.1604	-5.0938	-4.0729	-4.9938	-4.9542	-4.2208	-5.275	-4.5563	-4.4333	-5.0062	-4.2854	-4.9229	-4.8063	-4.2438	-5.0083	-4.6667	426.260	457.934	377.333	454.402	180.035	475.143	333.646	463.691	370.138	277.265	445.255	193.092	260.477	495.335	294.692	430.533	0.0030606	0.00085571	0.00020281	828.07	1.671e-05	5.1407e-06	859.9	296.3	1.0359e-05	1.5563e-05	404.43	171.9	117.53	49.767	2.7093e-06	85.683	0.0048039	0.0050371	0.0014207	922.86	5.4924e-05	5.5324e-05	957.38	330.6	5.4008e-05	5.5177e-05	461.66	190.9	135.08	56.52	5.5556e-05	95.146	417.123	299.271	267.027	162.605	307.290	269.390	162.089	168.497	347.941	287.834	167.239	172.121	173.114	178.881	289.494	176.471	-8191	255	
52685.547	1	1	0	0	0.13718	0.21854	0.1506	0.30121	0.24288	0.069974	0.1786	0.09608	0.13478	0.27413	0.15157	0.048775	0.23849	0.080224	0.073767	0.20164	-4.0375	-5.2354	-4.2625	-4.8208	-4.9729	-4.1021	-5.075	-4.7021	-4.4083	-5.0938	-4.6188	-4.7729	-4.9792	-4.2271	-4.8917	-4.9292	308.082	484.313	427.786	479.034	509.664	306.294	477.574	400.761	456.371	406.033	327.835	299.544	473.482	440.697	461.584	184.800	0.0027769	0.0015041	0.00022933	829.84	4.0905e-06	1.7107e-05	862.74	296.6	2.0146e-06	3.9759e-06	405.13	174.06	117.49	50.181	1.0104e-05	86.192	0.0047362	0.0050138	0.0014001	919.69	5.3704e-05	5.4288e-05	957.02	330.43	5.3033e-05	5.4629e-05	461.34	191.93	134.83	56.756	5.5004e-05	95.48	426.226	263.238	251.156	162.860	302.148	258.583	162.439	168.891	500.145	318.609	167.493	172.173	173.500	178.542	329.429	176.477	-8191	255	
52685.645	1	1	0	0	0.085091	0.13804	0.12154	0.032218	0.10132	0.2028	0.10349	0.11508	0.10183	0.14388	0.1159	0.15248	0.058462	0.056031	0.090904	0.22327	-3.9542	-5.2438	-4.35	-4.6896	-5.1292	-4.0979	-5	-4.8458	-4.2667	-5.1292	-4.4833	-4.5521	-5.1875	-4.2	-4.8458	-5	382.621	293.255	303.319	229.028	373.798	223.934	471.503	432.220	440.573	458.754	445.025	472.539	177.405	372.775	346.563	510.560	0.0028183	0.00054775	0.00031325	825.87	1.4163e-05	3.3277e-06	862.24	296.84	9.5995e-06	8.0674e-06	407.75	173.13	117.36	49.914	2.6907e-06	85.801	0.0046986	0.0050301	0.0014023	917.79	5.3451e-05	5.4341e-05	957.09	330.29	5.2901e-05	5.4577e-05	461.88	191.38	134.53	56.511	5.3987e-05	95.178	433.197	381.738	450.458	162.763	351.588	242.000	162.680	168.736	495.533	276.605	167.568	171.844	173.400	178.628	266.580	176.689	-8191	255	
52685.738	1	1	0	0	0.093577	0.26436	0.26337	0.1337	0.19955	0.14444	0.1232	0.14324	0.064077	0.11278	0.02256	0.16344	0.28474	0.11494	0.074819	0.05421	-3.8729	-5.0708	-4.4854	-4.4187	-5.0896	-4.1813	-4.8396	-5.0021	-4.1583	-4.9833	-4.7208	-4.5083	-5.3125	-4.4042	-4.6229	-5.0354	487.070	300.392	250.062	485.057	226.160	167.059	344.236	311.511	404.095	496.343	284.940	490.804	495.027	487.964	340.327	436.791	0.0025913	0.00072923	0.0003358	833.31	9.5532e-06	1.5123e-05	864.93	295.34	7.4382e-06	1.3293e-05	409.34	173.84	118.56	49.998	6.4234e-06	86.167	0.0046119	0.0049743	0.0013853	920.51	5.3284e-05	5.4317e-05	959.27	330.03	5.2788e-05	5.4581e-05	462.51	191.37	134.66	56.614	5.3789e-05	95.382	423.971	279.020	288.738	162.946	394.202	299.853	162.083	168.745	208.292	243.392	167.727	172.080	173.386	178.424	293.200	176.927	-8191	255	
52685.836	1	1	0	0	0.10828	0.029194	0.083892	0.30567	0.14324	0.07861	0.15596	0.2207	0.10658	0.044485	0.22291	0.14898	0.094035	0.20785	0.14392	0.017873	-3.8187	-5.0208	-4.6479	-4.425	-4.9458	-4.3688	-4.8771	-5.1188	-4.1833	-5.075	-4.9833	-4.4375	-5.3021	-4.6667	-4.5792	-5.3333	157.511	243.310	185.492	454.569	471.933	301.500	352.429	443.846	317.823	446.889	390.083	478.411	177.672	209.894	457.904	329.566	0.0031936	0.0010662	0.00020993	833.82	2.7413e-05	3.4912e-06	861.55	297.4	1.3902e-05	1.3227e-05	407.67	173.63	117.92	49.869	1.891e-05	86.37	0.0046256	0.0049475	0.001374	920.83	5.3072e-05	5.4384e-05	958.98	330.32	5.3061e-05	5.4885e-05	462.47	191.68	134.93	56.568	5.3862e-05	95.314	429.002	159.018	179.119	162.832	304.537	302.195	162.282	168.824	302.627	327.717	167.592	172.020	173.456	178.809	273.412	176.620	-8191	255	
52685.930	1	1	0	0	0.16161	0.091276	0.031299	0.22169	0.091962	0.061789	0.12808	0.23041	0.10016	0.14711	0.12112	0.1691	0.10696	0.10076	0.24631	0.091425	-4.0312	-4.9792	-4.9208	-4.1833	-5.2146	-4.5479	-4.6	-5.2188	-4.25	-4.8833	-5.025	-4.3	-5.2542	-4.5792	-4.425	-5.3313	285.367	195.460	477.753	432.897	242.934	178.354	366.140	390.383	298.129	207.795	365.932	410.236	298.709	424.610	236.085	386.513	0.0035822	0.0011199	0.00034394	829.49	1.5181e-05	1.6282e-05	865.41	296.76	1.4986e-05	1.2228e-05	409.03	175.25	118.66	50.166	1.7167e-05	86.61	0.0046738	0.0049612	0.001382	917.38	5.3255e-05	5.4085e-05	956.05	330.14	5.2644e-05	5.3656e-05	461.07	191.59	134.94	56.541	5.2175e-05	95.41	418.476	301.539	166.769	163.064	228.655	350.382	162.085	168.738	313.921	374.847	167.623	172.379	173.127	178.766	311.052	176.819	-8191	255	
52686.027	1	1	0	0	0.044955	0.15636	0.10028	0.088888	0.077061	0.24763	0.32611	0.25401	0.20221	0.15248	0.078871	0.26817	0.041322	0.28332	0.063785	0.11846	-3.9896	-4.6813	-4.9479	-4.3167	-4.9646	-4.5958	-4.6	-5.3	-4.2646	-4.5604	-5.1625	-4.2854	-5.2521	-4.7333	-4.3417	-5.3583	467.890	185.361	391.275	497.929	187.693	200.315	445.247	474.182	222.491	375.032	483.494	477.983	219.602	487.938	184.694	362.672	0.0029975	0.00024037	0.00029196	831	9.9585e-06	2.9559e-06	864.2	297.99	1.6056e-05	1.8381e-05	407.81	174.99	117.53	50.046	1.663e-05	85.895	0.0045831	0.0048519	0.001332	916.18	5.1949e-05	5.3049e-05	952.86	329.58	5.1794e-05	5.2677e-05	460.78	191.5	134.52	56.38	5.1494e-05	95.092	421.958	153.122	184.654	162.932	302.132	300.267	162.018	168.598	212.169	265.000	167.794	171.794	173.014	178.890	384.544	176.837	-8191	255	
52686.148	1	1	0	0	0.2794	0.064381	0.1836	0.19314	0.14266	0.21597	0.13535	0.30234	0.019661	0.14331	0.030796	0.15434	0.12967	0.11604	0.23439	0.12173	-3.9646	-4.6	-5.0375	-4.2583	-4.7667	-4.7271	-4.4375	-5.4146	-4.3604	-4.4563	-5.2833	-4.325	-4.9938	-4.8333	-4.1979	-5.4646	374.415	497.473	209.596	436.766	334.049	324.721	398.614	473.134	464.599	249.351	231.948	157.208	364.079	480.201	182.937	480.034	0.0029546	0.0017019	1.0367e-05	827.98	2.1719e-05	5.3596e-06	863.99	298.49	1.0796e-05	6.036e-06	410.61	175.19	118.09	50.086	9.3612e-06	86.453	0.0045597	0.0047904	0.0013195	916.18	5.1782e-05	5.2378e-05	953.61	329.6	5.1139e-05	5.1482e-05	461.07	191.91	134.42	56.319	5.0421e-05	95.378	428.691	223.819	291.463	162.889	272.603	220.096	162.477	168.687	253.642	447.477	167.708	172.272	172.982	178.753	184.563	176.646	-8191	255	
52686.242	1	1	0	0	0.13997	0.019017	0.022495	0.17418	0.087134	0.15115	0.11361	0.23776	0.045388	0.20419	0.18257	0.24522	0.25764	0.098844	0.19821	0.35677	-4.1792	-4.6417	-5.0958	-4.3833	-4.8083	-4.9542	-4.4667	-5.1417	-4.525	-4.3688	-5.1729	-4.2021	-4.9437	-5.125	-4.0979	-5.3875	428.203	209.168	335.734	490.989	167.386	339.787	444.529	491.075	305.482	460.373	488.953	151.199	175.770	154.671	320.063	412.263	0.0037012	0.00057417	0.00063314	829.86	1.2766e-05	4.5818e-06	871.42	298.27	1.5927e-05	8.9263e-06	412.49	175.1	118.62	50.31	8.1252e-06	86.902	0.0045045	0.0046959	0.0013075	916.87	5.1746e-05	5.203e-05	958.82	330.5	5.1751e-05	5.211e-05	463.58	192.41	134.91	56.649	5.1892e-05	95.876	424.238	304.778	251.304	162.907	256.903	328.908	161.844	168.752	275.394	349.231	167.636	171.929	173.213	178.948	228.043	176.601	-8191	255	
52686.316	1	1	0	0	0.15923	0.19885	0.075905	0.30829	0.1561	0.095062	0.11984	0.3171	0.28945	0.062726	0.073042	0.0966	0.15596	0.078083	0.11232	0.031678	-4.4458	-4.3104	-5.1188	-4.3938	-4.6937	-4.9479	-4.3875	-5.1458	-4.7208	-4.3812	-5.2875	-4.4896	-4.6729	-5.075	-4.0563	-5.1604	362.974	218.791	469.959	439.524	178.581	308.750	460.802	438.618	204.758	180.624	198.219	306.032	187.875	446.582	290.695	475.790	0.0030358	0.00033683	0.00025897	830.94	1.3815e-05	4.1229e-06	871.35	295.95	2.1855e-05	1.9171e-06	409.61	174.57	117.58	50.254	4.9024e-06	85.818	0.0045775	0.0047632	0.0013427	917.49	5.1828e-05	5.2204e-05	956.9	330.02	5.1152e-05	5.1833e-05	461.06	191.44	133.91	56.224	5.1563e-05	94.911	427.786	239.364	507.036	162.978	244.536	395.731	162.311	168.641	275.191	200.866	167.690	172.068	172.727	178.795	191.691	176.853	-8191	255	
52686.434	1	1	0	0	0.19306	0.11686	0.043494	0.18491	0.13558	0.18285	0.14427	0.086544	0.02411	0.048348	0.098047	0.19878	0.1108	0.14942	0.14275	0.10107	-4.3771	-4.1167	-5.0521	-4.6375	-4.5167	-5.2125	-4.4146	-5.1354	-4.7542	-4.3604	-5.2812	-4.325	-4.5292	-5.2667	-4.2979	-5.0708	313.727	274.429	284.541	482.041	385.359	383.822	388.717	325.650	424.916	241.583	455.032	467.587	462.400	497.000	157.839	499.109	0.0030563	0.0012729	0.00024378	827.88	1.7469e-05	7.6921e-06	865.43	298.21	4.6789e-06	8.2813e-06	408.52	175.03	117.07	50.047	4.3636e-06	86.106	0.0045202	0.004703	0.0013406	919.06	5.1416e-05	5.2435e-05	956.35	329.95	5.1658e-05	5.2516e-05	462.48	191.8	134.28	56.338	5.2464e-05	95.281	420.479	300.710	203.974	162.823	258.895	249.719	162.179	168.717	198.904	310.330	167.718	172.140	172.829	178.577	453.622	176.706	-8191	255	
52686.531	1	1	0	0	0.38089	0.039653	0.13661	0.36205	0.1057	0.033607	0.024576	0.11705	0.2717	0.082408	0.16307	0.30085	0.063117	0.13367	0.16256	0.085878	-4.5875	-4.1208	-5.0146	-4.6125	-4.2521	-5.0875	-4.3958	-4.7937	-4.8875	-4.075	-5.2521	-4.6583	-4.2812	-5.1708	-4.3	-4.7854	397.615	335.662	428.949	482.848	448.689	322.280	425.924	416.009	263.467	276.159	162.539	497.677	195.896	197.976	395.691	216.189	0.0030075	0.00056778	0.00020962	833.61	9.3152e-06	6.027e-06	866.42	297.15	2.3426e-05	6.4767e-06	413.14	174.08	117.39	50.184	1.6927e-05	86.171	0.0045346	0.0047689	0.0013514	917.44	5.0968e-05	5.2208e-05	957.62	329.93	5.1106e-05	5.2322e-05	463.5	191.67	133.81	56.386	5.3041e-05	95.325	435.027	195.829	189.915	163.079	411.828	366.067	162.240	168.568	233.891	222.749	167.592	171.986	173.128	178.737	296.218	176.601	-8191	255	
52686.629	1	1	0	0	0.24487	0.22249	0.24453	0.12472	0.14877	0.16782	0.084274	0.16122	0.11337	0.0796	0.04886	0.22278	0.21693	0.08411	0.10313	0.10765	-4.7812	-4.2625	-5.1417	-4.8146	-4.3896	-5.1813	-4.525	-4.7292	-4.9958	-4.2396	-5.025	-4.7875	-4.4625	-5.3	-4.4604	-4.7188	446.129	447.948	298.143	510.207	403.368	336.427	298.676	388.742	199.550	464.624	347.640	440.415	474.800	373.927	380.671	320.262	0.0033733	0.00043457	0.00017661	830.51	2.8428e-05	1.8257e-05	871.03	296.9	1.1593e-05	6.1151e-07	410.78	174.88	117.7	50.13	1.6805e-05	86.106	0.0045775	0.0048445	0.0013693	918.82	5.1871e-05	5.357e-05	960.11	329.68	5.2049e-05	5.3112e-05	463.86	191.97	134.1	56.492	5.3468e-05	95.426	430.023	371.631	247.422	162.966	311.216	360.563	162.355	168.409	192.434	311.300	167.831	172.135	172.931	178.507	344.822	176.652	-8191	255	
52686.723	1	1	0	0	0.22122	0.10497	0.12812	0.064737	0.046512	0.076371	0.2273	0.13493	0.12213	0.32182	0.086704	0.12217	0.17363	0.19166	0.11753	0.061341	-5.0458	-4.1208	-4.9854	-5.0687	-4.1438	-5.2438	-4.5875	-4.5729	-5.1042	-4.3208	-5.025	-5.0125	-4.3167	-5.2708	-4.4437	-4.5771	428.385	477.110	286.761	232.241	429.560	238.515	442.314	493.720	256.888	420.904	498.579	481.673	481.946	464.554	462.297	394.645	0.0028446	0.00032412	0.00031111	832.84	2.3236e-05	1.9243e-05	865.25	296.15	9.5296e-06	2.9472e-06	406.82	173.52	116.74	49.547	1.5293e-05	85.36	0.004624	0.0049166	0.0013754	919.81	5.2562e-05	5.4622e-05	960.65	329.24	5.3166e-05	5.4675e-05	461.46	191.01	133.7	56.224	5.461e-05	94.792	431.683	371.220	170.251	163.156	498.459	287.765	162.515	168.623	360.934	321.398	167.407	172.107	173.173	178.681	323.887	176.812	-8191	255	
52686.844	1	1	0	0	0.14068	0.10836	0.13502	0.10739	0.21346	0.03209	0.18436	0.15727	0.053496	0.13056	0.074778	0.10157	0.12829	0.067333	0.12987	0.26233	-4.8458	-4.2125	-4.6438	-5.1396	-4.1438	-5	-4.8125	-4.3542	-4.9917	-4.35	-4.8542	-5.2042	-4.1833	-5.0583	-4.7271	-4.4187	240.669	377.972	197.301	393.624	326.130	239.808	436.642	253.515	250.185	225.503	151.652	246.006	391.793	450.847	180.311	436.113	0.0027347	0.0016227	0.00040781	827.9	2.494e-05	2.1329e-05	860.82	296.82	1.1459e-05	1.7292e-05	407.25	173.08	116.18	49.876	1.1111e-05	85.724	0.0047411	0.005024	0.0013957	921.17	5.3884e-05	5.5433e-05	958.77	328.79	5.4037e-05	5.488e-05	460.91	191.08	134.02	56.506	5.4896e-05	95.099	422.052	228.133	225.706	163.244	273.974	335.449	162.573	168.745	448.030	338.704	167.560	172.277	172.825	178.671	194.086	176.558	-8191	255	
52686.938	1	1	0	0	0.085936	0.24382	0.10041	0.016265	0.17579	0.24455	0.23955	0.22061	0.15714	0.19278	0.058489	0.12893	0.24147	0.26478	0.29929	0.24091	-4.8917	-4.4083	-4.625	-5.0104	-4.2146	-4.8229	-4.7958	-4.1521	-4.9583	-4.3229	-4.5	-5.3396	-4.1375	-4.9062	-4.7562	-4.3938	180.280	427.565	169.459	469.902	323.206	477.939	444.198	483.818	387.860	199.938	431.313	448.142	203.414	453.721	478.875	451.265	0.003107	0.0013153	0.00037119	832.39	2.0322e-05	7.1134e-06	866.55	297.32	9.8983e-06	9.3564e-06	404.94	172.39	116.5	49.368	5.7993e-06	85.615	0.0048386	0.0050828	0.0014141	923.15	5.4736e-05	5.5861e-05	961.29	329.96	5.4677e-05	5.5909e-05	461.58	191.08	134.07	56.377	5.528e-05	95.194	429.043	294.269	305.420	163.094	250.288	208.964	162.302	168.560	252.887	406.409	167.151	172.426	172.933	178.677	431.104	176.798	-8191	255	
52687.035	1	1	0	0	0.035016	0.15687	0.099088	0.084909	0.25418	0.14386	0.093583	0.15011	0.064807	0.13597	0.14453	0.15812	0.22801	0.27088	0.20602	0.035709	-4.7979	-4.5188	-4.3896	-5.2229	-4.0958	-4.7833	-5.0188	-4.1792	-5.1729	-4.5458	-4.3646	-5.2375	-4.2208	-4.7375	-4.8187	-4.3083	300.683	458.291	473.960	473.779	506.244	193.577	439.988	481.951	173.056	299.982	476.654	459.495	475.829	456.674	449.569	337.531	0.0030368	0.0012444	0.00048154	833.4	1.6283e-05	6.5124e-06	864.46	295.53	2.4207e-05	2.9543e-06	404.42	171.59	116.15	49.134	5.05e-06	85.318	0.004909	0.0052263	0.0014267	925.22	5.6244e-05	5.7532e-05	962.49	330.55	5.664e-05	5.7291e-05	462.67	190.8	133.98	56.201	5.6707e-05	95.156	429.617	358.411	242.131	163.064	271.099	193.021	162.324	168.755	342.609	329.397	167.426	172.192	172.911	178.827	360.394	176.589	-8191	255	
52687.133	1	1	0	0	0.08028	0.10443	0.12773	0.050352	0.096085	0.0454	0.29636	0.16806	0.19189	0.302	0.16143	0.22546	0.053738	0.35398	0.084046	0.29005	-4.8646	-4.5354	-4.2833	-5.1646	-4.3125	-4.7771	-5.1042	-4.4958	-4.9437	-4.6542	-4.3729	-5.225	-4.3292	-4.6667	-5.0896	-4.3354	486.668	350.438	152.087	168.008	155.837	329.404	413.303	190.479	459.649	459.144	509.089	465.056	491.345	483.636	157.810	413.350	0.003332	0.00095343	0.00010138	833.64	1.9868e-05	9.1226e-06	871.22	295.23	1.1602e-05	8.8874e-06	406.69	172.86	116.25	49.264	1.8666e-05	85.092	0.0050222	0.0052804	0.0014714	929.54	5.7454e-05	5.7963e-05	967.04	330.28	5.736e-05	5.7948e-05	463.74	191.58	134.31	56.267	5.7414e-05	95.243	413.039	343.984	262.921	163.254	282.434	408.813	162.162	168.456	231.741	356.324	167.399	172.199	172.958	178.570	285.633	176.681	-8191	255	
52687.227	1	1	0	0	0.10618	0.13871	0.17334	0.13775	0.40902	0.083697	0.20279	0.19087	0.157	0.20523	0.041767	0.043186	0.042342	0.11677	0.23379	0.19608	-4.7708	-4.7854	-4.1833	-5.3187	-4.3208	-4.475	-5.2375	-4.2937	-4.8729	-4.8833	-4.2354	-5.2708	-4.6	-4.5875	-4.9625	-4.2375	433.350	209.786	472.081	175.709	155.824	247.434	372.553	433.531	500.325	324.362	420.591	387.492	442.977	226.765	306.384	349.415	0.0028196	0.00049617	0.00015898	830.04	5.6779e-06	1.3844e-05	863.6	295.12	6.9633e-06	7.416e-06	406.1	172.25	115.64	49.304	1.7527e-06	85.339	0.0050458	0.0052682	0.0014677	927.34	5.7621e-05	5.7526e-05	964.77	330.87	5.7387e-05	5.7539e-05	462.82	191.44	134.37	56.293	5.7318e-05	95.132	425.894	406.547	171.772	162.961	201.527	343.137	162.490	168.760	426.849	432.469	167.625	172.128	173.470	178.513	304.169	176.443	-8191	255	
52687.324	1	1	0	0	0.054721	0.083762	0.033774	0.1538	0.12878	0.094991	0.3622	0.16326	0.08079	0.14208	0.20744	0.21	0.1826	0.093395	0.099853	0.19201	-4.3708	-4.8396	-4.1188	-5.2104	-4.4708	-4.3958	-5.3	-4.3417	-4.7396	-4.975	-4.3396	-5.1438	-4.6729	-4.5729	-5.275	-4.4437	451.526	309.044	375.858	174.866	469.304	188.361	441.220	483.384	332.977	447.438	175.664	464.810	423.000	378.937	500.402	476.714	0.0033988	0.00065751	9.6843e-05	828.97	1.6515e-05	1.2043e-05	865.48	296.27	8.3973e-06	9.5848e-06	403.96	171.39	115.12	49.06	1.3199e-05	85.303	0.0050157	0.0052154	0.0014648	927.2	5.6553e-05	5.718e-05	963.25	330.84	5.6496e-05	5.7321e-05	462.6	191.09	133.76	56.036	5.7771e-05	94.948	428.019	278.509	464.822	163.198	249.250	332.649	162.608	168.581	271.193	295.318	167.271	172.109	173.127	178.686	312.875	176.858	-8191	255	
52687.445	1	1	0	0	0.25208	0.29057	0.091429	0.17004	0.1647	0.12491	0.15031	0.19205	0.1587	0.30035	0.25952	0.026923	0.060632	0.18698	0.074473	0.18712	-4.3771	-5.0542	-4.1375	-5.1937	-4.6479	-4.3542	-5.2958	-4.4187	-4.5396	-5.1646	-4.2188	-4.95	-4.8271	-4.3167	-5.2458	-4.5208	312.286	409.934	205.832	153.715	369.581	232.958	184.515	452.220	423.780	314.264	488.312	393.419	449.233	212.361	218.338	421.465	0.0027367	0.00039819	0.00034738	830.89	2.6552e-05	1.3326e-05	860.41	294.2	2.4828e-05	1.7252e-05	407.44	172.14	115.43	48.888	1.0148e-05	84.869	0.00496	0.0052491	0.0014794	927.84	5.6854e-05	5.8098e-05	965.04	330.41	5.7088e-05	5.8463e-05	464.07	191.21	133.93	56.166	5.8217e-05	95.267	435.990	384.316	180.105	162.898	286.241	298.290	162.405	168.516	271.602	329.284	167.303	172.182	173.390	178.766	377.202	177.127	-8191	255	
52687.539	1	1	0	0	0.03285	0.17158	0.20222	0.19776	0.17053	0.029182	0.22314	0.16062	0.14959	0.16235	0.3948	0.034667	0.029473	0.16452	0.19885	0.12854	-4.0437	-5.1292	-4.225	-4.9688	-5.0312	-4.4229	-5.1521	-4.6521	-4.4521	-5.1625	-4.4104	-4.8729	-5.0125	-4.1625	-4.9792	-4.7458	396.783	357.016	241.578	257.669	342.269	503.328	422.235	413.370	502.704	238.291	463.005	369.133	420.221	341.139	272.412	367.068	0.0029997	0.00059336	7.7041e-05	831.91	1.928e-05	1.9735e-05	862.25	295.28	5.263e-06	3.8296e-06	405.58	171.59	115.8	48.85	1.3976e-05	85.094	0.0049759	0.0052882	0.0014802	925.46	5.6382e-05	5.7962e-05	964.95	330.07	5.6515e-05	5.8301e-05	463.63	191.14	133.78	56.061	5.8478e-05	94.996	430.132	377.568	480.269	163.043	307.862	274.640	162.244	168.491	356.658	331.746	167.327	172.316	173.059	178.745	325.838	177.016	-8191	255	
52687.613	1	1	0	0	0.17702	0.16719	0.15551	0.090893	0.04852	0.030922	0.086843	0.11149	0.046924	0.042224	0.078044	0.26804	0.14002	0.25855	0.11634	0.076345	-3.9896	-5.1458	-4.3229	-4.6854	-4.9938	-4.2312	-5.1562	-4.7354	-4.3438	-5.2521	-4.4437	-4.6104	-5.1958	-4.4167	-4.9729	-4.8875	499.049	453.469	334.996	298.770	197.792	443.547	442.488	365.871	166.242	468.850	343.928	441.685	220.295	434.189	506.838	371.487	0.0032987	0.00047739	0.00025553	820.82	2.3412e-05	1.2973e-05	861.47	293.05	4.9114e-06	7.9578e-06	401.19	170.96	113.78	48.452	3.9663e-06	84.637	0.0050511	0.0053899	0.0015042	923.17	5.7937e-05	5.9421e-05	963.54	329.39	5.8326e-05	6.014e-05	462.24	190.5	133.56	56.123	6.0309e-05	94.63	421.274	437.815	155.059	162.978	225.327	319.730	162.340	168.926	254.964	294.183	167.321	172.052	173.265	178.515	175.023	177.203	-8191	255	
52687.707	1	1	0	0	0.13711	0.19564	0.11836	0.24386	0.15206	0.094884	0.073105	0.13799	0.053621	0.087426	0.13035	0.090947	0.093333	0.23105	0.1416	0.21577	-3.9604	-5.2688	-4.4396	-4.6604	-5.0354	-4.2396	-5.1438	-4.7896	-4.2708	-5.3208	-4.6875	-4.4458	-5.1729	-4.2937	-5.0687	-5.0396	376.366	494.361	157.852	501.997	206.306	227.462	473.860	485.871	352.712	399.443	462.134	275.072	489.613	210.698	477.519	409.003	0.0030957	0.0012271	0.00028847	820.28	2.3872e-06	1.917e-05	856.17	291.93	2.4853e-05	3.7264e-06	398.99	170.09	114.11	48.716	1.1615e-05	84.489	0.0051827	0.0055629	0.001554	922.15	5.9888e-05	6.1299e-05	960.73	328.86	5.9659e-05	6.1665e-05	462.71	190.23	133.59	56.163	6.0629e-05	94.907	422.509	190.066	298.854	162.967	353.602	255.182	162.385	168.699	241.036	392.973	167.621	172.069	173.191	179.132	320.420	176.624	-8191	255	
52687.828	1	1	0	0	0.15062	0.18213	0.094321	0.15467	0.14502	0.14804	0.15287	0.13871	0.094559	0.14029	0.12467	0.05618	0.18592	0.18499	0.17737	0.26892	-3.9292	-5.1604	-4.4583	-4.6375	-5.1042	-4.1958	-4.9	-5.0896	-4.275	-5.1521	-4.8771	-4.3958	-5.3646	-4.5125	-4.6604	-5.125	340.272	343.951	387.247	190.126	239.950	166.709	434.998	394.838	499.286	188.526	180.613	181.739	179.136	162.374	497.756	462.557	0.0034749	0.0013447	0.00031695	819.05	1.6758e-05	1.3527e-05	853.57	291.24	1.3678e-05	1.63e-05	402.97	170.01	114.03	48.806	1.7603e-05	84.505	0.0052581	0.0056018	0.0015508	918.69	6.0369e-05	6.1924e-05	960	328.8	6.0201e-05	6.2391e-05	464	190.71	133.92	56.155	6.1449e-05	95.062	429.609	240.026	249.286	162.851	207.189	210.140	162.476	168.926	183.882	260.010	167.268	172.378	173.448	178.626	273.862	176.705	-8191	255	
52687.922	1	1	0	0	0.066786	0.14178	0.13451	0.12198	0.06096	0.052956	0.13427	0.22945	0.12259	0.11649	0.177	0.33508	0.20993	0.17241	0.23442	0.12832	-3.7792	-5.0771	-4.6125	-4.5854	-5.15	-4.3625	-4.775	-5.1333	-4.2	-4.925	-4.8792	-4.3625	-5.2833	-4.5208	-4.5125	-5.1604	244.909	492.536	438.704	479.662	239.300	384.651	199.035	497.070	316.471	476.279	506.088	158.627	491.785	456.676	360.329	501.641	0.003091	0.00065185	0.00034001	814.1	1.3288e-05	1.8884e-05	855.59	290.39	2.5102e-05	1.7371e-05	401.97	170.97	113.26	48.456	5.131e-06	84.563	0.0053859	0.0057468	0.001584	918.87	6.1489e-05	6.2973e-05	961.33	328.69	6.1268e-05	6.2429e-05	463.52	190.8	133.52	55.894	6.0689e-05	95.174	425.458	191.039	258.042	163.001	320.048	370.691	162.580	168.671	232.132	358.490	167.547	171.953	173.496	178.701	323.632	176.871	-8191	255	
52688.020	1	1	0	0	0.29316	0.23631	0.14313	0.075212	0.1441	0.073314	0.33605	0.15819	0.088406	0.028294	0.12944	0.18925	0.19375	0.17875	0.083893	0.1999	-3.8896	-5.0792	-4.825	-4.3396	-5.2312	-4.4021	-4.525	-5.2458	-4.3104	-4.7729	-5.0042	-4.4938	-5.1396	-4.6271	-4.3938	-5.3354	414.658	477.263	384.326	210.316	309.857	340.727	421.893	442.168	457.655	286.285	171.280	349.119	425.285	482.784	422.284	450.666	0.0032026	0.00066013	0.00030966	817.3	9.5853e-06	2.061e-06	848.65	291.69	8.4332e-06	6.4134e-06	402.3	169.54	113.6	48.672	6.3141e-07	84.305	0.0052894	0.005616	0.0015549	915.74	6.0203e-05	6.1235e-05	957.31	328.38	5.9921e-05	6.0926e-05	461.44	190.3	133.28	55.949	5.9798e-05	94.791	428.516	279.100	191.521	162.824	237.518	356.772	162.299	168.732	257.915	365.586	167.535	171.897	173.024	178.931	465.873	176.851	-8191	255	
52688.113	1	1	0	0	0.034837	0.15641	0.10376	0.14609	0.23496	0.24218	0.16931	0.38837	0.032606	0.1589	0.30834	0.22353	0.097068	0.072706	0.038922	0.097282	-3.9917	-4.9708	-4.9313	-4.2562	-5.1417	-4.5417	-4.5479	-5.2812	-4.4313	-4.75	-5.1229	-4.3562	-5.2042	-4.8833	-4.35	-5.3979	159.584	314.431	230.885	296.854	431.751	428.167	184.099	410.681	330.348	311.243	489.353	505.289	390.897	479.772	307.297	325.051	0.0029132	0.00020557	0.00011686	812.93	1.2304e-05	6.0788e-06	851.74	289.88	1.1283e-05	1.719e-05	400.43	169.55	112.99	48.665	3.0184e-05	84.38	0.0052691	0.0055247	0.0015426	914.75	6.0044e-05	6.0364e-05	956.59	327.56	5.9817e-05	6.0242e-05	460.87	190.09	132.82	55.961	5.9674e-05	95.104	428.436	204.258	432.191	162.852	302.512	329.541	162.063	168.924	323.496	237.424	167.587	172.261	173.136	179.161	287.222	176.721	-8191	255	
52688.211	1	1	0	0	0.061984	0.079305	0.12342	0.061008	0.053374	0.25831	0.24645	0.22049	0.21261	0.08613	0.074778	0.073592	0.025791	0.16398	0.35698	0.29317	-4.0542	-4.6333	-5.1646	-4.2875	-4.9479	-4.6771	-4.4167	-5.2375	-4.1625	-4.5687	-5.1875	-4.3417	-4.9437	-4.9104	-4.1	-5.2208	352.397	259.230	384.036	282.918	194.822	504.127	475.420	477.507	242.215	329.440	479.139	482.729	375.437	395.097	266.531	489.566	0.0031212	0.0020406	6.5544e-05	814.49	2.3748e-05	6.6984e-06	853.42	290.02	2.0491e-05	7.4843e-06	402.25	170.04	113.67	48.523	1.3628e-05	84.38	0.0052195	0.0054908	0.0015394	913.45	5.9324e-05	5.9963e-05	956	327.55	5.9033e-05	5.9513e-05	462.08	190.19	132.87	55.857	5.9034e-05	95.094	425.349	248.301	265.336	162.976	340.746	277.108	162.234	168.980	223.853	437.092	167.441	172.207	173.000	178.814	288.260	176.680	-8191	255	
52688.309	1	1	0	0	0.13874	0.11806	0.12503	0.045236	0.088349	0.243	0.32477	0.091182	0.23911	0.23657	0.17366	0.15576	0.097313	0.17297	0.022733	0.19068	-4.0708	-4.4979	-5.0917	-4.2646	-4.8083	-4.9104	-4.3125	-5.2875	-4.4854	-4.3542	-5.2271	-4.3604	-4.9396	-5.0312	-4.1625	-5.3479	330.372	285.898	185.486	417.845	255.301	185.369	463.573	430.417	395.534	291.909	487.056	465.211	374.686	477.678	330.976	453.644	0.0027846	0.0023502	0.00026365	818.49	1.074e-05	2.266e-05	850.81	290.81	5.5904e-06	1.1813e-05	403.33	171.37	113.52	48.966	1.655e-05	85.642	0.00515	0.0054097	0.0015246	913.91	5.8777e-05	5.9616e-05	957.82	327.68	5.8119e-05	5.9197e-05	463.48	191.07	132.68	56.113	5.9184e-05	95.761	424.193	235.243	205.674	162.939	373.117	293.640	162.575	168.622	151.708	222.234	167.430	172.273	173.133	178.922	329.068	176.947	-8191	255	
52688.402	1	1	0	0	0.20547	0.10008	0.23044	0.1303	0.14793	0.12357	0.18848	0.11854	0.1153	0.1436	0.11718	0.33752	0.12148	0.093629	0.21313	0.24193	-4.3	-4.3375	-4.9	-4.4563	-4.8187	-5.0312	-4.2646	-4.9042	-4.5708	-4.3625	-5.2792	-4.3438	-4.6104	-5.2063	-4.2354	-4.9688	506.820	500.505	201.761	402.810	503.840	263.218	483.540	396.697	402.084	159.064	454.173	491.370	157.700	218.936	494.856	478.644	0.0027482	0.0011609	0.00016335	813.18	1.4709e-05	2.5775e-05	854.95	292.98	1.4313e-05	5.3594e-06	403.22	171.77	114.24	49.011	1.8397e-05	85.837	0.0051005	0.0053978	0.0015223	914.1	5.7412e-05	5.9231e-05	957.96	328.16	5.7409e-05	5.8208e-05	463.13	191.12	132.77	56.161	5.8352e-05	95.79	423.388	287.495	388.042	162.878	198.601	338.686	162.249	168.329	258.680	216.956	167.735	172.208	173.271	178.721	212.025	176.825	-8191	255	
52688.523	1	1	0	0	0.27733	0.15385	0.18965	0.20163	0.071555	0.18468	0.10121	0.095029	0.16011	0.20875	0.21422	0.070452	0.31981	0.057824	0.039454	0.25015	-4.4917	-4.3042	-5.1125	-4.4146	-4.3688	-5.1146	-4.1625	-5.0979	-4.9646	-4.2833	-5.325	-4.4833	-4.5896	-5.3583	-4.1792	-4.9646	472.584	187.034	460.434	471.596	201.332	436.902	208.068	446.199	205.067	435.297	450.309	199.156	498.758	416.362	381.327	176.574	0.0027814	0.0013909	0.00046541	814.24	1.4568e-05	2.0713e-06	856.71	291.79	5.452e-06	1.0946e-05	402.76	171.42	114.23	49.014	1.0464e-05	85.614	0.0050558	0.0053729	0.0015186	913.7	5.7482e-05	5.9321e-05	959.63	327.41	5.7894e-05	5.9042e-05	462.91	190.91	133.05	56.202	5.8679e-05	95.705	421.228	294.140	229.055	163.056	250.200	177.520	162.220	168.886	348.622	255.904	167.629	172.043	173.315	179.005	234.898	176.880	-8191	255	
52688.621	1	1	0	0	0.1352	0.19895	0.03722	0.080137	0.14403	0.085916	0.23918	0.19187	0.10072	0.19172	0.16063	0.2646	0.2328	0.1062	0.22307	0.25183	-4.5958	-4.1146	-5.3125	-4.6771	-4.4187	-5.1937	-4.3979	-4.9688	-4.9833	-4.2354	-5.1167	-4.7208	-4.3542	-5.1854	-4.2937	-5.0125	499.136	426.756	337.853	156.585	239.263	340.644	435.860	368.136	265.210	219.040	461.592	152.232	465.521	436.726	337.332	448.859	0.0031907	0.0010603	0.00030658	818.26	2.9937e-05	1.2968e-05	859.16	291.15	1.1328e-05	2.5602e-05	403.58	171.61	114.12	49.111	5.4844e-06	85.723	0.0050712	0.0053508	0.0015126	912.36	5.731e-05	5.8707e-05	960.26	326.55	5.7322e-05	5.793e-05	462.69	190.95	132.81	56.187	5.7575e-05	95.656	430.046	231.246	186.105	163.149	223.882	264.362	162.404	168.385	262.002	226.478	167.040	172.337	173.322	178.887	298.006	176.814	-8191	255	
52688.719	1	1	0	0	0.085743	0.23666	0.12854	0.092059	0.19615	0.079916	0.14739	0.14388	0.024147	0.14445	0.15747	0.096239	0.082656	0.11421	0.22931	0.29494	-4.8458	-4.1667	-4.9875	-4.675	-4.225	-5.3063	-4.3958	-4.6229	-5.0021	-4.3917	-5.1375	-4.9979	-4.3438	-5.2125	-4.4292	-4.6833	489.908	198.903	284.227	212.410	483.197	417.950	437.385	500.501	209.164	215.649	430.462	227.416	161.856	481.721	332.765	399.971	0.0027981	0.0012859	0.00015162	813.18	1.0144e-05	1.2524e-05	857.09	291.77	1.5482e-05	6.1222e-06	403.28	171.42	114.51	49.408	5.9053e-06	86.25	0.0049901	0.0052984	0.0014886	910.82	5.6568e-05	5.8573e-05	960.65	327.17	5.7059e-05	5.7959e-05	462.9	191.35	132.72	56.362	5.6957e-05	96.035	421.566	191.943	270.542	163.022	229.202	353.700	162.207	168.650	205.593	485.197	167.708	172.441	173.413	178.852	305.985	176.965	-8191	255	
52688.836	1	1	0	0	0.28415	0.10266	0.18468	0.23975	0.11295	0.21637	0.2435	0.13256	0.11156	0.25377	0.18351	0.087293	0.12936	0.064348	0.14269	0.061049	-4.9812	-4.15	-4.825	-4.8583	-4.1937	-5.1333	-4.5021	-4.5208	-4.9604	-4.3042	-4.8729	-4.95	-4.4042	-5.2625	-4.5687	-4.6146	494.730	247.124	444.132	162.559	378.810	298.676	407.308	199.269	260.007	230.840	470.316	174.447	212.402	202.849	302.232	205.021	0.0030717	0.00083706	5.9217e-05	815.66	5.2499e-06	1.3071e-05	859.05	292.82	3.7085e-06	1.6632e-05	405.9	173.85	114.98	49.346	1.9355e-05	86.452	0.0049829	0.0052645	0.0014713	913.31	5.649e-05	5.8403e-05	961.15	327.33	5.6669e-05	5.7344e-05	463.3	192	132.74	56.355	5.6865e-05	96.177	421.244	444.955	227.323	162.870	374.197	314.891	162.401	168.595	348.870	177.232	167.503	172.275	173.002	179.192	317.260	176.540	-8191	255	
52688.906	1	1	0	0	0.18459	0.12166	0.20727	0.33229	0.28056	0.048937	0.068968	0.12019	0.04179	0.07153	0.16339	0.08893	0.095867	0.33332	0.080134	0.074536	-5.0271	-4.3229	-4.6083	-5.0396	-4.2896	-5.0563	-4.8875	-4.5	-5.1312	-4.5813	-4.6521	-5.0792	-4.3313	-5.1708	-4.6083	-4.3708	430.120	341.235	298.153	506.394	330.262	283.104	344.482	393.095	217.188	237.466	349.169	213.522	440.778	460.032	304.452	457.914	0.0030523	0.00086153	0.00017887	812.07	1.323e-05	4.8228e-06	857.38	290.58	9.5903e-06	2.3714e-05	405.03	172.95	115.09	49.152	8.9237e-06	86.028	0.00501	0.0052632	0.001472	912.61	5.7112e-05	5.8499e-05	960.56	326.79	5.7422e-05	5.7914e-05	463.25	191.78	133.07	56.306	5.7735e-05	95.96	431.988	151.276	281.079	162.941	287.992	489.713	162.444	168.562	373.419	333.461	167.434	172.321	173.000	178.960	296.735	176.819	-8191	255	
52689.004	1	1	0	0	0.07914	0.060648	0.2283	0.11532	0.26436	0.12685	0.069256	0.044136	0.13881	0.1563	0.24872	0.25636	0.18295	0.045266	0.12791	0.065066	-4.9875	-4.2458	-4.6458	-5.0042	-4.2188	-5.0312	-4.8042	-4.3333	-5.2021	-4.3333	-4.7	-5.1208	-4.2812	-4.9021	-4.925	-4.4708	175.099	369.581	196.204	414.904	336.861	430.060	230.418	330.506	355.707	182.576	504.117	500.551	176.438	494.512	412.476	421.799	0.0037402	0.0015022	0.00036544	816.71	1.5287e-05	3.4637e-06	859.13	292.95	5.1501e-06	1.8982e-05	407.71	172.58	114.82	49.411	3.3313e-06	86.026	0.00505	0.0052699	0.0014579	912.23	5.6953e-05	5.7775e-05	961.08	327.3	5.6542e-05	5.6997e-05	463.17	191.88	133.09	56.352	5.6918e-05	96.099	436.114	244.709	478.728	162.977	508.737	408.994	162.200	168.626	269.340	304.903	167.427	172.197	173.281	178.944	431.408	176.466	-8191	255	
52689.125	1	1	0	0	0.17329	0.12372	0.050646	0.050454	0.10313	0.11132	0.064387	0.15346	0.037414	0.19437	0.1817	0.28225	0.10248	0.1503	0.069683	0.086274	-4.8771	-4.4917	-4.4167	-5.0104	-4.2063	-4.7104	-5.0062	-4.1708	-5.0708	-4.6312	-4.5062	-5.1438	-4.3396	-4.6958	-4.7604	-4.2146	178.552	399.163	414.097	447.228	251.170	407.946	489.097	395.437	373.511	256.079	399.943	483.320	460.371	253.539	359.948	485.298	0.0031899	0.00077458	0.00042595	814.8	4.7493e-06	2.5956e-06	862.07	292.2	2.1865e-05	1.6403e-05	407.15	173.71	114.7	49.304	1.308e-05	86.35	0.0050105	0.0052427	0.0014592	913.56	5.6655e-05	5.7902e-05	961.84	327.73	5.6821e-05	5.7206e-05	463.82	192.24	133	56.259	5.6363e-05	96.315	421.449	295.759	254.811	163.189	335.971	336.086	162.216	168.588	297.641	402.915	167.581	172.381	173.331	178.958	289.484	176.878	-8191	255	
52689.219	1	1	0	0	0.017976	0.24764	0.17649	0.22104	0.14623	0.26043	0.19958	0.20819	0.13794	0.17649	0.1275	0.044814	0.059105	0.18382	0.31386	0.13466	-4.8104	-4.675	-4.3146	-5.1354	-4.1979	-4.6292	-5.2771	-4.2312	-5.0813	-4.8125	-4.3229	-5.3542	-4.4979	-4.6625	-5.0771	-4.3333	416.408	228.552	362.674	381.155	392.903	234.027	191.208	402.211	352.097	389.907	431.754	442.680	305.355	170.728	355.119	430.103	0.0025361	0.00076193	0.00013088	818.99	8.6345e-06	4.7353e-06	867.01	292.01	5.6241e-06	6.559e-06	407.17	173.41	114.5	49.345	9.9418e-06	87.055	0.0049134	0.0051194	0.0014219	911.39	5.5077e-05	5.5872e-05	963.53	326.83	5.4919e-05	5.5392e-05	462.97	192.38	132.46	56.043	5.4978e-05	96.293	437.945	233.705	331.338	162.879	333.934	217.538	162.288	168.369	204.829	438.057	167.342	172.313	173.009	178.781	348.617	176.552	-8191	255	
52689.316	1	1	0	0	0.37275	0.13664	0.11458	0.16687	0.12996	0.11897	0.26898	0.26543	0.091305	0.20946	0.12063	0.089536	0.19106	0.17855	0.093292	0.25228	-4.5896	-4.7833	-4.2604	-5.2312	-4.3604	-4.5958	-5.2854	-4.3208	-4.7583	-4.7812	-4.3146	-5.2188	-4.5375	-4.4271	-5.0667	-4.2833	466.474	416.615	253.908	449.345	368.851	472.745	189.312	448.982	271.648	174.656	369.551	270.478	249.794	449.920	237.155	419.771	0.0029147	0.00095997	0.00013242	818.6	5.0421e-06	1.3323e-05	863.73	292.83	1.7695e-05	9.4579e-06	405.01	174.17	114.33	49.434	8.5846e-06	86.309	0.0047906	0.0050276	0.0014014	911.07	5.3925e-05	5.5389e-05	961.81	327.19	5.4197e-05	5.5242e-05	462.58	192	132.17	56.1	5.5535e-05	95.997	415.869	261.714	418.957	163.121	184.893	230.391	162.551	168.605	226.393	298.858	167.396	172.373	173.209	178.890	318.585	176.484	-8191	255	
52689.414	1	1	0	0	0.12025	0.16234	0.10965	0.26763	0.13987	0.16885	0.063221	0.26477	0.10816	0.091671	0.1043	0.23316	0.1219	0.16126	0.1007	0.1955	-4.4875	-4.8771	-4.0771	-5.1854	-4.3875	-4.2271	-5.0729	-4.3375	-4.6083	-4.9062	-4.2583	-5.1562	-4.8042	-4.3604	-5.1125	-4.4021	216.340	247.617	383.060	151.751	347.290	484.509	428.637	439.548	477.462	255.286	435.146	474.656	279.920	200.875	434.098	428.075	0.0035248	0.00053369	0.00042723	818.35	1.7678e-05	4.6837e-06	866.62	293.53	2.1246e-05	7.167e-06	407.35	173.41	114.49	49.727	1.7503e-05	86.471	0.0048042	0.0050677	0.0014185	909.76	5.4202e-05	5.5393e-05	963.3	327.13	5.4565e-05	5.5355e-05	462.84	191.74	132.32	56.188	5.5233e-05	96.065	424.843	305.034	227.076	163.079	240.377	381.107	162.496	168.515	253.886	255.664	167.510	172.026	172.946	178.666	282.143	176.827	-8191	255	
52689.508	1	1	0	0	0.058743	0.087328	0.055838	0.061657	0.068808	0.070501	0.096661	0.086246	0.093328	0.05847	0.17489	0.20805	0.26174	0.1658	0.076723	0.24905	-4.3458	-4.8938	-4.1458	-5.0146	-4.5771	-4.3063	-5.1875	-4.5729	-4.6458	-5.1375	-4.2771	-4.9479	-4.6521	-4.4062	-5.1625	-4.7229	405.842	389.692	183.019	496.013	224.995	283.052	226.526	503.840	357.706	441.925	423.332	176.208	441.647	457.786	333.121	410.779	0.0032033	0.00056264	6.6133e-05	819.43	2.0647e-05	4.6149e-06	865.79	292.5	1.0313e-05	2.0193e-05	408.04	174.05	115.16	49.359	1.5552e-05	86.838	0.0047757	0.0050223	0.0014046	909.58	5.4187e-05	5.4942e-05	962.62	326.47	5.3803e-05	5.5458e-05	463.73	192.24	132.86	56.08	5.4474e-05	96.17	423.643	235.356	429.289	163.128	242.495	440.483	162.399	168.569	294.777	246.204	167.530	172.376	173.588	178.766	304.221	176.994	-8191	255	
52689.605	1	1	0	0	0.090303	0.17468	0.14309	0.41984	0.24219	0.12401	0.20996	0.20506	0.10459	0.11196	0.25056	0.17602	0.084736	0.13153	0.12418	0.099873	-4.3396	-4.9354	-4.0458	-4.9604	-4.8021	-4.2458	-5.2333	-4.5771	-4.4875	-5.1396	-4.2646	-4.8521	-5.0312	-4.2625	-5.0833	-4.8292	174.379	431.987	372.033	470.031	264.825	506.112	428.646	431.041	391.662	196.666	151.642	413.972	507.367	351.944	212.540	480.730	0.0027452	0.0008899	0.00026018	822.3	2.7171e-05	8.5991e-06	869.05	292.22	1.2332e-05	9.9122e-06	409.48	174.7	115.01	49.386	6.8033e-06	86.823	0.0047437	0.0050198	0.0014061	910.29	5.3746e-05	5.4796e-05	962.71	326.87	5.3359e-05	5.4733e-05	464.11	192.45	132.51	56.1	5.4393e-05	96.323	424.942	247.371	198.515	162.899	205.289	237.319	162.369	168.522	334.698	300.843	167.287	171.880	173.110	178.605	223.464	176.815	-8191	255	
52689.699	1	1	0	0	0.062428	0.09118	0.034671	0.27141	0.1215	0.090593	0.069545	0.10608	0.10386	0.20686	0.16392	0.10365	0.18583	0.18507	0.16543	0.27596	-4.1354	-5.1375	-4.3417	-4.75	-4.9646	-4.1104	-5.1438	-4.8417	-4.2729	-5.1979	-4.3313	-4.7646	-5.0646	-4.2312	-5.0125	-4.9688	318.853	451.763	235.144	418.038	246.797	280.592	384.809	351.274	336.451	415.871	153.007	509.604	172.864	444.730	244.738	459.861	0.0030188	0.001415	0.00027237	820.75	2.0098e-05	5.8728e-06	875.9	293.73	8.057e-06	5.2491e-06	411.86	174.51	115.08	49.605	1.6062e-05	86.604	0.0047147	0.0049954	0.0013917	910.78	5.3571e-05	5.4619e-05	965.17	326.89	5.3266e-05	5.4439e-05	464.2	192.46	132.7	56.124	5.4226e-05	96.208	422.792	176.979	274.711	162.922	224.962	464.072	162.449	168.586	504.390	346.879	167.533	171.914	173.271	178.407	274.337	176.647	-8191	255	
52689.797	1	1	0	0	0.14615	0.18042	0.096076	0.052865	0.14845	0.19769	0.059059	0.016671	0.13253	0.13362	0.063447	0.18982	0.17632	0.3016	0.13596	0.2193	-4.0896	-5.1771	-4.3792	-4.5458	-5.1708	-4.1833	-5.1083	-4.8729	-4.3604	-5.0687	-4.6875	-4.6458	-5.2354	-4.4146	-4.8187	-5.1312	208.992	208.014	366.442	181.642	272.173	179.407	340.557	444.595	277.801	164.677	272.726	400.439	329.645	445.252	207.189	449.300	0.0035081	0.0012843	0.00024742	821.65	5.4115e-06	1.0985e-05	866.65	292.5	1.7862e-05	3.2276e-05	408.46	172.96	115.48	49.25	1.0195e-05	86.471	0.0047308	0.0050079	0.0013876	910.95	5.326e-05	5.4556e-05	961.95	326.38	5.3369e-05	5.4614e-05	463.62	191.59	132.82	56.016	5.5223e-05	95.985	426.388	293.246	196.264	162.739	215.384	327.016	162.378	168.597	256.217	306.009	167.658	172.143	173.347	178.709	191.137	176.632	-8191	255	
52689.914	1	1	0	0	0.025687	0.13692	0.25992	0.090772	0.17246	0.15446	0.13858	0.046363	0.2489	0.10957	0.075606	0.34547	0.036241	0.24126	0.17158	0.21656	-4.175	-5.275	-4.4125	-4.5667	-5.0646	-4.1333	-5.0458	-5.0875	-4.1042	-5.0604	-4.6354	-4.4708	-5.2625	-4.4958	-4.6167	-5.1104	376.118	412.049	487.256	283.899	217.048	416.914	434.821	356.139	392.195	224.212	440.249	485.927	450.734	507.536	325.560	443.651	0.002758	0.00065117	0.00018535	820.47	1.8502e-05	7.9051e-06	870.55	292.89	1.0579e-05	1.5716e-05	409.36	172.97	115.25	49.324	1.0281e-05	86.293	0.0048156	0.0051046	0.0014146	911.83	5.4793e-05	5.5677e-05	962.78	326.76	5.4286e-05	5.5624e-05	464.27	191.64	132.78	56.07	5.5515e-05	96.075	426.330	243.332	288.383	162.796	230.083	266.940	162.500	168.918	306.506	424.010	167.540	172.046	173.244	178.786	302.760	176.935	-8191	255	
52690.012	1	1	0	0	0.074933	0.063282	0.1103	0.23448	0.31217	0.17595	0.26177	0.10803	0.21204	0.073776	0.13885	0.11934	0.16986	0.31458	0.19949	0.18565	-3.9688	-5.0542	-4.5687	-4.4458	-5.2146	-4.2937	-4.7333	-5.0938	-4.1937	-5.0167	-4.9417	-4.4042	-5.1687	-4.6333	-4.525	-5.3812	236.721	254.972	352.202	488.276	211.072	449.806	437.761	503.284	460.500	262.328	427.467	489.712	404.322	467.801	419.652	402.287	0.0031882	0.00046209	0.0004092	818.96	1.3871e-05	1.0053e-05	866.05	293.17	1.3742e-05	4.0912e-06	409.91	173.5	114.55	49.653	1.4265e-05	86.944	0.004811	0.0050992	0.0014203	911.48	5.4684e-05	5.5743e-05	963.88	327.33	5.384e-05	5.5253e-05	464.62	192.28	132.4	56.09	5.4197e-05	96.287	427.035	282.125	185.094	162.888	307.897	273.808	162.448	168.856	219.905	444.853	167.559	172.170	173.183	178.895	300.949	176.803	-8191	255	
#DATA ENDS
