BOXY.EXE: ISS Imagent and Oximeter Data Acquisition Program Version 0.80
Ascii Record File

#ACQ INFORMATION
2  Detector Channels 
16  External MUX Channels 
1  Auxiliary Channels 
5000  Waveform (CCF) Frequency (Hz)
1  Waveforms Skipped 
30  Waveforms Averaged 
1  Cycles Averaged 
16  Acquisitions per Waveform 
10.0806  Updata Rate (Hz) 

#FILE INFORMATION
TRUE -- External MUX Channel results are PARSED.
FALSE -- AC DC and Phase are NOT grouped.
TRUE -- Companion Program Settings File CREATED.
FALSE -- AC data not excluded
FALSE -- DC data not excluded
FALSE -- Phase data not excluded
FALSE -- Auxillary Chn. data not excluded
Tab delimiters

#CALIBRATION STATE
TRUE -- Waveform Calibration Values APPLIED.


#AUX CALIBRATION VALUES
Val Type	aux-1	

Term	1.0000e+00	
Factor	0.0000e+00	


#WF CALIBRATION VALUES
A = Detector Channel
Val Type	A-AC1	A-AC2	A-AC3	A-AC4	A-AC5	A-AC6	A-AC7	A-AC8	A-AC9	A-AC10	A-AC11	A-AC12	A-AC13	A-AC14	A-AC15	A-AC16	A-DC1	A-DC2	A-DC3	A-DC4	A-DC5	A-DC6	A-DC7	A-DC8	A-DC9	A-DC10	A-DC11	A-DC12	A-DC13	A-DC14	A-DC15	A-DC16	A-Ph1	A-Ph2	A-Ph3	A-Ph4	A-Ph5	A-Ph6	A-Ph7	A-Ph8	A-Ph9	A-Ph10	A-Ph11	A-Ph12	A-Ph13	A-Ph14	A-Ph15	A-Ph16	

Term	0.00000e+00	0.00000e+00	0.00000e+00	0.00000e+00	0.00000e+00	0.00000e+00	0.00000e+00	0.00000e+00	0.00000e+00	0.00000e+00	0.00000e+00	0.00000e+00	0.00000e+00	0.00000e+00	0.00000e+00	0.00000e+00	0.00000e+00	0.00000e+00	0.00000e+00	0.00000e+00	0.00000e+00	0.00000e+00	0.00000e+00	0.00000e+00	0.00000e+00	0.00000e+00	0.00000e+00	0.00000e+00	0.00000e+00	0.00000e+00	0.00000e+00	0.00000e+00	0.00000e+00	0.00000e+00	0.00000e+00	0.00000e+00	0.00000e+00	0.00000e+00	0.00000e+00	0.00000e+00	0.00000e+00	0.00000e+00	0.00000e+00	0.00000e+00	0.00000e+00	0.00000e+00	0.00000e+00	0.00000e+00	
Factor	1.00000e+00	1.00000e+00	1.00000e+00	1.00000e+00	1.00000e+00	1.00000e+00	1.00000e+00	1.00000e+00	1.00000e+00	1.00000e+00	1.00000e+00	1.00000e+00	1.00000e+00	1.00000e+00	1.00000e+00	1.00000e+00	1.00000e+00	1.00000e+00	1.00000e+00	1.00000e+00	1.00000e+00	1.00000e+00	1.00000e+00	1.00000e+00	1.00000e+00	1.00000e+00	1.00000e+00	1.00000e+00	1.00000e+00	1.00000e+00	1.00000e+00	1.00000e+00	X	X	X	X	X	X	X	X	X	X	X	X	X	X	X	X	

B = Detector Channel
Val Type	B-AC1	B-AC2	B-AC3	B-AC4	B-AC5	B-AC6	B-AC7	B-AC8	B-AC9	B-AC10	B-AC11	B-AC12	B-AC13	B-AC14	B-AC15	B-AC16	B-DC1	B-DC2	B-DC3	B-DC4	B-DC5	B-DC6	B-DC7	B-DC8	B-DC9	B-DC10	B-DC11	B-DC12	B-DC13	B-DC14	B-DC15	B-DC16	B-Ph1	B-Ph2	B-Ph3	B-Ph4	B-Ph5	B-Ph6	B-Ph7	B-Ph8	B-Ph9	B-Ph10	B-Ph11	B-Ph12	B-Ph13	B-Ph14	B-Ph15	B-Ph16	

Term	0.00000e+00	0.00000e+00	0.00000e+00	0.00000e+00	0.00000e+00	0.00000e+00	0.00000e+00	0.00000e+00	0.00000e+00	0.00000e+00	0.00000e+00	0.00000e+00	0.00000e+00	0.00000e+00	0.00000e+00	0.00000e+00	0.00000e+00	0.00000e+00	0.00000e+00	0.00000e+00	0.00000e+00	0.00000e+00	0.00000e+00	0.00000e+00	0.00000e+00	0.00000e+00	0.00000e+00	0.00000e+00	0.00000e+00	0.00000e+00	0.00000e+00	0.00000e+00	-2.52595e+02	-1.26487e+02	-1.31810e+02	-1.83580e+02	-9.53217e+01	-7.04341e+01	-1.58163e+02	-1.62015e+02	-9.38048e+01	-7.07157e+01	-1.70649e+02	-1.71149e+02	-1.78736e+02	-1.76810e+02	-6.95905e+01	-1.49929e+02	
Factor	6.57577e-05	1.42588e-04	3.98813e-05	1.59387e-01	2.26321e-06	1.63867e-06	1.78960e-01	5.86508e-02	1.89516e-06	1.75252e-06	9.77644e-02	3.36656e-02	3.08182e-02	1.06301e-02	1.65800e-06	1.51188e-02	3.52109e-06	3.79331e-06	1.05871e-06	7.47961e-02	4.09069e-08	4.16821e-08	7.88279e-02	2.75229e-02	4.08750e-08	4.15652e-08	4.44068e-02	1.52238e-02	1.45320e-02	5.00993e-03	4.13229e-08	6.90354e-03	X	X	X	X	X	X	X	X	X	X	X	X	X	X	X	X	



#DISTANCE SETTINGS
A = Detector Channel
A-1	A-2	A-3	A-4	A-5	A-6	A-7	A-8	A-9	A-10	A-11	A-12	A-13	A-14	A-15	A-16	

2.5000e+00	3.0000e+00	2.5000e+00	3.0000e+00	2.0000e+00	3.0000e+00	1.5000e+00	3.0000e+00	3.0000e+00	3.0000e+00	3.0000e+00	3.0000e+00	3.0000e+00	3.0000e+00	1.5000e+00	3.0000e+00	

B = Detector Channel
B-1	B-2	B-3	B-4	B-5	B-6	B-7	B-8	B-9	B-10	B-11	B-12	B-13	B-14	B-15	B-16	

1.0000e+01	1.0000e+01	1.0000e+01	1.4400e+00	1.0000e+01	1.0000e+01	1.5100e+00	1.9400e+00	1.0000e+01	1.0000e+01	1.9900e+00	2.4900e+00	2.4100e+00	2.9000e+00	1.0000e+01	2.9800e+00	




#DATA BEGINS
time	group	step	mark	flag	A-AC1	A-AC2	A-AC3	A-AC4	A-AC5	A-AC6	A-AC7	A-AC8	A-AC9	A-AC10	A-AC11	A-AC12	A-AC13	A-AC14	A-AC15	A-AC16	A-DC1	A-DC2	A-DC3	A-DC4	A-DC5	A-DC6	A-DC7	A-DC8	A-DC9	A-DC10	A-DC11	A-DC12	A-DC13	A-DC14	A-DC15	A-DC16	A-Ph1	A-Ph2	A-Ph3	A-Ph4	A-Ph5	A-Ph6	A-Ph7	A-Ph8	A-Ph9	A-Ph10	A-Ph11	A-Ph12	A-Ph13	A-Ph14	A-Ph15	A-Ph16	B-AC1	B-AC2	B-AC3	B-AC4	B-AC5	B-AC6	B-AC7	B-AC8	B-AC9	B-AC10	B-AC11	B-AC12	B-AC13	B-AC14	B-AC15	B-AC16	B-DC1	B-DC2	B-DC3	B-DC4	B-DC5	B-DC6	B-DC7	B-DC8	B-DC9	B-DC10	B-DC11	B-DC12	B-DC13	B-DC14	B-DC15	B-DC16	B-Ph1	B-Ph2	B-Ph3	B-Ph4	B-Ph5	B-Ph6	B-Ph7	B-Ph8	B-Ph9	B-Ph10	B-Ph11	B-Ph12	B-Ph13	B-Ph14	B-Ph15	B-Ph16	aux-1	digaux	

52343.617	1	1	0	768	0.092572	0.14752	0.15897	0.17342	0.10679	0.13376	0.14238	0.06147	0.26038	0.17638	0.043208	0.015965	0.2728	0.20182	0.091253	0.28497	-4.625	-4.6208	-4.0979	-5.1438	-4.2792	-4.425	-5.1146	-4.1542	-4.8292	-4.7083	-4.2125	-5.0667	-4.35	-4.4083	-5.0854	-4.3208	244.840	377.027	418.684	121.801	163.656	403.592	391.179	171.422	206.274	114.756	198.935	328.652	83.604	138.673	326.230	375.361	0.000811	0.00018701	9.3988e-05	1002.1	4.5882e-06	3.3168e-06	1104.7	206.73	3.9444e-06	1.8214e-06	261.87	75.037	58.07	16.678	2.9507e-06	23.525	5.8347e-05	2.9864e-05	9.1248e-06	994.13	4.2509e-07	3.3667e-07	1090.6	205.05	3.6362e-07	3.0992e-07	259.28	74.179	57.519	16.798	3.3971e-07	23.678	406.788	168.533	166.674	92.323	199.029	248.892	92.376	99.880	211.303	190.729	99.642	106.301	107.022	114.138	252.628	112.942	-8191	255	
52343.711	1	1	0	0	0.13287	0.10558	0.072445	0.27337	0.15889	0.11681	0.091914	0.11169	0.18373	0.083907	0.099717	0.044124	0.22951	0.19476	0.12195	0.24199	-4.4646	-4.8479	-4.1583	-5.2417	-4.4604	-4.3104	-5.2375	-4.2271	-4.7021	-4.9521	-4.3167	-4.9521	-4.4437	-4.2562	-5.2021	-4.2354	314.706	211.036	274.400	388.436	420.009	248.143	293.177	366.364	179.901	309.878	123.505	290.155	102.489	123.023	429.462	394.015	0.00079463	0.00035378	5.9937e-05	1005.5	5.6139e-06	2.9149e-06	1106.2	206.69	4.9212e-06	2.383e-06	260.58	74.14	58.399	16.786	2.5539e-06	23.443	5.5773e-05	2.9793e-05	8.8072e-06	994.64	3.7856e-07	3.4613e-07	1092.7	205.24	3.706e-07	2.8178e-07	259.27	73.992	57.718	16.795	3.3299e-07	23.639	410.361	170.811	185.248	92.193	204.267	236.926	92.399	99.873	205.601	226.980	99.703	106.587	107.317	114.200	199.078	113.327	-8191	255	
52343.809	1	1	0	0	0.043262	0.027732	0.10004	0.087373	0.0343	0.045989	0.27069	0.076219	0.082294	0.10531	0.20171	0.1536	0.093905	0.18104	0.1407	0.07053	-4.2562	-4.7583	-3.9896	-5.0021	-4.6146	-4.2792	-5.1062	-4.3083	-4.6042	-4.9979	-4.1208	-4.9229	-4.6833	-4.1375	-4.9542	-4.2375	307.171	308.192	423.928	254.496	83.847	253.041	400.488	381.204	101.708	340.494	377.767	199.212	292.264	380.105	283.043	277.312	0.00079018	0.00019782	0.00010679	1008.3	5.1408e-06	3.5126e-06	1106.4	206.87	4.8269e-06	2.4412e-06	261.86	75.09	58.166	16.57	3.5956e-06	23.379	5.7262e-05	2.826e-05	8.9682e-06	995.71	4.0864e-07	3.3693e-07	1092.2	204.62	3.6345e-07	3.1122e-07	259.56	74.185	57.618	16.761	3.1517e-07	23.699	408.269	152.522	184.509	92.384	215.339	230.308	92.365	100.127	226.599	217.698	99.865	106.679	106.966	114.438	232.522	113.385	-8191	255	
52343.906	1	1	0	0	0.034136	0.13466	0.12733	0.22058	0.036081	0.019958	0.088908	0.16262	0.046072	0.0964	0.055774	0.12745	0.12914	0.11967	0.031563	0.11692	-4.2333	-4.9271	-4.0479	-4.8521	-4.6813	-4.1375	-5.1958	-4.4667	-4.3625	-5.1208	-4.1937	-4.6687	-4.7688	-4.2396	-4.8979	-4.5292	280.765	135.093	106.504	374.178	99.114	153.887	262.846	134.249	147.198	303.071	182.129	221.778	373.916	221.357	336.921	90.042	0.00088086	0.00010145	6.4159e-05	1006	5.146e-06	2.1999e-06	1107.5	207.03	3.8955e-06	2.4958e-06	261.26	74.925	58.277	16.663	2.5814e-06	23.441	5.9727e-05	2.679e-05	9.1115e-06	994.78	4.083e-07	3.1739e-07	1093.4	205.27	3.7605e-07	2.9624e-07	259.55	74.239	57.785	16.768	3.1956e-07	23.652	409.620	184.029	157.698	92.551	201.856	211.086	92.682	100.456	213.446	212.928	99.971	106.382	106.819	113.888	218.942	113.854	-8191	255	
52344.000	1	1	0	0	0.28627	0.27802	0.28991	0.12437	0.16014	0.20645	0.21769	0.18526	0.11711	0.10022	0.27758	0.14614	0.1931	0.32834	0.16591	0.063424	-4.0667	-4.9896	-4.0417	-4.7146	-4.8958	-3.9854	-5.2188	-4.6333	-4.1979	-5.0625	-4.2729	-4.5229	-4.7458	-4.1292	-4.9042	-4.5583	143.005	403.735	239.828	84.939	104.723	420.712	183.472	378.667	154.884	306.038	128.352	106.798	118.040	189.677	88.061	261.982	0.00085271	0.00024866	9.2688e-05	1004.4	6.9234e-06	2.9393e-06	1105.8	207.29	4.9969e-06	3.669e-06	262.98	75.936	58.483	16.72	1.6644e-06	23.377	5.944e-05	3.0465e-05	8.4234e-06	993.56	4.0967e-07	3.3163e-07	1092	205.34	3.9598e-07	3.1823e-07	259.77	74.292	57.778	16.819	3.1095e-07	23.728	409.267	168.441	189.383	92.347	195.030	238.602	92.443	100.241	202.649	230.516	99.818	106.454	107.282	113.814	230.153	114.050	-8191	255	
52344.098	1	1	0	0	0.12302	0.091413	0.093489	0.23341	0.15174	0.090393	0.12463	0.34611	0.23693	0.11021	0.14844	0.13127	0.090698	0.11102	0.33288	0.13925	-3.9125	-5.0229	-4.2583	-4.8333	-5.0521	-4.1833	-5.0604	-4.7312	-4.0854	-5.0021	-4.4313	-4.3729	-4.8854	-4.0979	-4.8771	-4.7646	350.051	138.774	402.843	434.541	299.816	179.174	263.508	406.304	355.733	378.806	213.715	380.132	311.681	166.936	127.821	98.624	0.00085221	0.00027471	6.0269e-05	1007	4.4604e-06	2.3688e-06	1104	206.68	2.8246e-06	2.0539e-06	261.51	75.25	58.563	16.668	2.1839e-06	23.515	6.2962e-05	2.747e-05	8.5734e-06	996.24	4.095e-07	3.3927e-07	1092.4	205.17	3.7963e-07	3.0602e-07	259.93	74.155	57.756	16.79	2.9951e-07	23.708	412.110	156.894	141.776	92.278	200.545	231.925	92.593	100.180	202.008	226.496	99.916	106.841	107.169	114.462	245.443	113.610	-8191	255	
52344.219	1	1	0	0	0.22832	0.16008	0.17397	0.18615	0.088645	0.096128	0.33476	0.21785	0.1776	0.17211	0.20841	0.075656	0.049534	0.036006	0.18537	0.23634	-3.8083	-4.9708	-4.2625	-4.5125	-4.9042	-4.2146	-4.9896	-5.0167	-4.1021	-4.9396	-4.5521	-4.3438	-5.0813	-4.2875	-4.4042	-4.8708	370.294	238.904	211.993	412.737	253.200	341.974	391.391	385.266	266.357	300.519	93.474	298.215	151.063	117.205	323.667	82.360	0.00083287	0.00024454	8.5781e-05	1007.2	6.4797e-06	3.4496e-06	1111.7	205.7	2.8256e-06	2.5271e-06	262.74	74.673	58.749	16.701	3.9849e-06	23.52	6.1949e-05	2.8798e-05	7.9867e-06	997.45	4.0847e-07	3.2269e-07	1093.8	205.1	4.257e-07	3.0628e-07	259.97	74.299	57.737	16.786	3.224e-07	23.774	403.425	193.632	168.037	92.185	195.778	254.596	92.296	100.061	205.650	210.481	99.615	106.590	106.997	114.364	240.962	113.116	-8191	255	
52344.312	1	1	0	0	0.18535	0.097896	0.1243	0.30215	0.051558	0.080928	0.03329	0.088832	0.22633	0.13522	0.14889	0.23984	0.095943	0.082216	0.054607	0.059766	-3.5792	-5.0062	-4.6854	-4.4604	-5.0771	-4.2688	-4.5792	-4.9479	-4.1271	-4.8375	-4.6167	-4.35	-5.0604	-4.2292	-4.3521	-5.0417	438.730	174.095	93.451	383.752	407.498	282.330	322.296	353.383	403.178	416.898	168.093	433.622	355.440	302.013	210.782	313.547	0.0007985	0.00029553	6.5535e-05	1009	6.936e-06	2.9465e-06	1108.7	206.96	3.7156e-06	3.6821e-06	261.36	75.113	58.739	16.573	2.0342e-06	23.55	6.3343e-05	3.071e-05	8.1874e-06	997.22	4.1137e-07	3.3988e-07	1096.1	205.54	4.0977e-07	2.8645e-07	259.87	74.25	57.906	16.796	3.435e-07	23.809	403.081	177.019	159.191	92.337	217.113	203.881	92.458	100.403	224.159	243.416	99.980	106.728	106.844	114.116	247.428	113.218	-8191	255	
52344.406	1	1	0	0	0.16426	0.15254	0.2977	0.20535	0.16024	0.15989	0.1246	0.017669	0.24801	0.13548	0.014143	0.056496	0.29673	0.1048	0.088941	0.18992	-3.525	-4.7167	-4.5771	-4.3812	-4.8854	-4.4313	-4.6292	-5.0604	-4.0396	-4.7292	-4.8125	-4.0729	-4.9583	-4.5646	-4.2896	-5.0229	171.217	302.881	127.523	393.492	116.495	271.792	397.667	269.676	202.919	182.094	147.344	332.448	318.843	409.594	214.356	280.698	0.0008013	0.0001687	5.7433e-05	1004.9	5.8507e-06	3.0933e-06	1107.6	207.67	5.9793e-06	2.8078e-06	260.23	75.038	58.726	16.778	2.9174e-06	23.61	6.1597e-05	2.8244e-05	8.7653e-06	997.14	4.2492e-07	2.923e-07	1096.1	205.93	4.1897e-07	3.0247e-07	259.4	74.225	57.832	16.854	3.7767e-07	23.829	408.811	178.350	141.768	92.289	204.338	241.570	92.137	100.333	201.595	218.955	99.979	106.737	107.120	114.330	254.744	113.406	-8191	255	
52344.508	1	1	0	0	0.093336	0.14857	0.31149	0.13856	0.17734	0.26683	0.11732	0.1071	0.20643	0.16559	0.23316	0.044606	0.15957	0.15766	0.3082	0.15715	-3.9042	-4.6958	-4.7917	-4.3438	-4.8792	-4.5167	-4.4563	-5.1417	-4.1104	-4.4292	-4.9833	-4.0896	-4.9021	-4.6083	-4.1167	-5.1104	240.853	324.344	425.393	98.056	143.235	127.850	273.356	436.454	416.832	279.366	406.357	238.201	124.883	94.188	213.236	263.627	0.0007587	0.00026669	3.4011e-05	1009.3	5.1218e-06	1.8559e-06	1108	208	3.515e-06	1.7314e-06	262.31	74.891	58.384	16.704	3.2564e-06	23.468	5.7797e-05	2.8805e-05	7.4573e-06	998.65	3.8112e-07	2.8847e-07	1096	205.77	3.9512e-07	3.1304e-07	260.69	74.242	57.834	16.851	3.5176e-07	23.701	405.533	148.750	140.409	92.494	205.471	242.788	92.430	100.164	228.949	214.766	99.740	106.748	107.127	114.810	219.299	113.264	-8191	255	
52344.602	1	1	0	0	0.13164	0.076351	0.27483	0.07322	0.051079	0.12612	0.35506	0.14127	0.19379	0.34601	0.26973	0.10291	0.16219	0.21822	0.1053	0.1454	-3.9896	-4.5958	-5.0958	-4.2729	-4.9854	-4.5396	-4.2875	-5.2354	-4.2271	-4.5792	-5.0813	-4.2021	-4.8125	-4.7583	-4.1021	-5.0396	324.746	313.780	178.953	360.944	301.979	261.443	405.857	110.206	196.130	265.496	145.929	147.714	365.763	201.078	280.288	194.315	0.00079754	0.00029135	8.8743e-05	1009.4	6.0306e-06	3.2291e-06	1109.8	207.45	3.8417e-06	2.27e-06	262.84	74.782	58.271	16.795	2.5938e-06	23.49	5.6176e-05	3.0963e-05	8.4234e-06	998.7	3.9381e-07	3.1513e-07	1097	205.86	3.4531e-07	3.2611e-07	260.41	74.319	57.7	16.879	3.7173e-07	23.713	410.500	168.325	178.016	92.205	203.394	239.978	92.447	99.979	201.742	218.341	99.908	106.638	106.708	113.974	224.660	113.298	-8191	255	
52344.695	1	1	0	0	0.01603	0.14442	0.074997	0.21445	0.18829	0.080404	0.33879	0.23378	0.070493	0.14583	0.020644	0.29603	0.18252	0.15949	0.22708	0.037747	-4.2167	-4.3	-4.8875	-4.2083	-4.7042	-4.7646	-4.2667	-4.9396	-4.5333	-4.3333	-5.1604	-4.1562	-4.675	-4.9062	-4.0042	-4.9875	185.066	317.395	321.745	351.134	356.854	206.872	366.667	396.850	384.481	288.191	283.958	428.016	393.315	432.489	93.738	272.785	0.00077108	0.00023925	4.964e-05	1009.8	3.9753e-06	3.6367e-06	1110.4	208.06	4.7465e-06	4.4123e-06	262.76	74.927	58.151	16.77	2.6196e-06	23.692	5.6631e-05	3.0963e-05	7.9712e-06	998.31	3.8981e-07	3.0628e-07	1096.2	205.64	3.6575e-07	3.1105e-07	260.62	74.314	57.697	16.907	3.6769e-07	23.815	405.372	161.676	154.876	92.538	205.922	238.823	92.310	100.039	198.528	204.575	99.604	106.533	107.344	114.372	234.745	113.427	-8191	255	
52344.816	1	1	0	0	0.09941	0.044257	0.061536	0.24698	0.22432	0.11275	0.36054	0.083987	0.080427	0.1592	0.13707	0.042121	0.16789	0.23259	0.06875	0.071482	-4.1708	-4.2063	-4.9854	-4.3333	-4.5292	-4.9292	-4.2083	-5.1104	-4.5563	-4.2312	-5.1833	-4.3562	-4.525	-4.8313	-4.0312	-4.6687	101.065	349.567	362.371	361.780	346.971	161.165	350.314	326.287	172.586	120.675	256.827	402.082	366.263	96.063	198.887	253.803	0.00079662	0.00030281	6.6668e-05	1010.2	5.0909e-06	3.9876e-06	1106.8	206.79	3.5467e-06	1.1539e-06	264.22	75.089	58.314	16.916	3.1152e-06	23.656	5.5736e-05	3.1674e-05	7.4816e-06	1000.6	4.0702e-07	2.8101e-07	1096.8	205.46	3.8167e-07	3.0628e-07	261.11	74.576	57.824	16.989	3.3885e-07	23.818	409.887	166.117	169.364	92.245	214.347	252.534	92.405	100.034	229.076	285.150	99.550	106.503	106.579	114.477	245.405	113.092	-8191	255	
52344.914	1	1	0	0	0.13541	0.13318	0.24587	0.16791	0.22047	0.11781	0.16508	0.11621	0.057132	0.074941	0.12578	0.062129	0.049988	0.17959	0.036912	0.18711	-4.4812	-4.1104	-5.0229	-4.3479	-4.3417	-5.0563	-4.3333	-4.8771	-4.8292	-4.1625	-5.0938	-4.45	-4.3	-5.0708	-4.1083	-4.5687	195.847	335.830	324.479	109.937	117.518	276.911	92.520	429.113	289.031	395.485	376.753	315.302	254.534	93.596	354.574	86.508	0.00077705	0.00013987	4.2545e-05	1010.4	6.9264e-06	2.5869e-06	1110.5	206.48	2.746e-06	4.0935e-06	261.44	75.438	58.551	16.846	3.3683e-06	23.783	5.6022e-05	3.1595e-05	7.3691e-06	999.09	4.193e-07	2.7884e-07	1097.4	205.52	3.4335e-07	3.3105e-07	260.64	74.498	57.899	16.985	3.224e-07	23.892	409.200	174.356	168.060	92.266	217.189	225.240	92.246	100.347	188.096	231.816	99.352	106.856	107.267	114.393	238.064	113.390	-8191	255	
52345.008	1	1	0	0	0.21414	0.16035	0.044238	0.27128	0.18706	0.077848	0.038306	0.097998	0.10873	0.11413	0.061161	0.2695	0.26622	0.21244	0.14821	0.18374	-4.5417	-4.0687	-4.7458	-4.6292	-4.3	-5.0792	-4.3896	-4.5437	-4.7833	-4.0958	-4.9604	-4.8187	-4.1125	-5.0917	-4.1396	-4.4208	431.348	350.091	201.198	413.340	423.276	439.380	361.697	173.760	152.869	333.145	174.909	110.297	409.694	107.332	432.738	277.047	0.0008301	0.00024641	2.1268e-05	1005.4	6.1904e-06	1.765e-06	1115.4	208.08	4.1848e-06	3.2628e-06	262.38	75.532	58.611	16.956	2.6149e-06	23.917	5.669e-05	3.0323e-05	7.3779e-06	997.89	4.2552e-07	2.956e-07	1099.3	205.65	3.6745e-07	3.2585e-07	260.89	74.462	58.004	17.038	3.1405e-07	23.975	402.962	180.556	167.888	92.395	203.963	256.073	92.466	99.960	212.128	246.075	99.782	107.019	107.096	114.082	234.945	113.111	-8191	255	
52345.105	1	1	0	0	0.03376	0.14253	0.12768	0.29355	0.16366	0.13799	0.18904	0.3198	0.23024	0.041591	0.098888	0.13924	0.21806	0.068983	0.057663	0.12863	-4.5938	-3.7438	-4.7667	-4.6792	-4.0583	-5.1896	-4.4083	-4.5312	-4.6833	-4.1312	-4.8729	-4.7333	-4	-4.9521	-4.2146	-4.3438	377.924	201.703	131.334	403.993	274.995	206.140	125.962	346.837	254.259	199.056	441.127	170.128	346.947	179.567	201.238	256.005	0.00083198	0.0001583	7.5175e-05	1008.9	5.7392e-06	2.9602e-06	1117.4	208.15	4.1851e-06	3.5357e-06	264.53	75.562	58.899	16.937	2.1726e-06	23.759	5.5993e-05	3.0939e-05	7.0956e-06	998.45	4.3182e-07	3.0497e-07	1098.6	205.92	3.3824e-07	3.1616e-07	261.85	74.773	58.019	17.136	3.3213e-07	24.034	408.727	179.704	162.857	92.399	199.291	221.178	92.386	100.012	221.895	234.362	99.294	106.627	107.011	114.217	245.310	113.696	-8191	255	
52345.176	1	1	0	0	0.20435	0.15134	0.26321	0.18465	0.016558	0.1083	0.2454	0.1911	0.09665	0.10505	0.15473	0.29405	0.18818	0.086745	0.09621	0.19246	-4.7375	-3.9854	-4.7083	-4.9563	-4.0417	-4.9333	-4.5646	-4.2771	-5.0125	-4.2167	-4.6833	-4.9667	-4.1146	-5.0542	-4.5229	-4.3229	223.620	214.915	134.796	412.037	95.310	313.615	369.213	361.177	263.315	219.613	280.638	384.538	437.601	363.604	126.295	427.126	0.00079206	0.00031921	6.7781e-05	1012.5	6.1784e-06	1.4895e-06	1111.7	206.48	4.1424e-06	2.0666e-06	263.12	75.479	58.677	17.019	1.7281e-06	23.905	5.6814e-05	2.8995e-05	7.347e-06	999.94	4.1342e-07	2.8309e-07	1097.3	205.6	3.4233e-07	2.9918e-07	261.26	74.688	58.133	17.192	3.3928e-07	24.113	407.775	156.770	152.363	92.087	217.705	231.365	92.386	100.000	218.228	226.303	99.635	106.681	106.812	114.700	249.000	113.347	-8191	255	
52345.297	1	1	0	0	0.01506	0.26164	0.079415	0.2576	0.093498	0.15493	0.11534	0.10233	0.095179	0.040045	0.093249	0.17273	0.083825	0.11312	0.030616	0.10741	-4.8792	-4.2125	-4.4688	-5.1	-3.9042	-4.8667	-4.6813	-4.2042	-5.0437	-4.1729	-4.6792	-5.025	-4.0771	-4.8917	-4.7167	-4.125	297.921	400.095	313.548	285.842	192.962	296.571	348.256	371.712	155.296	388.887	401.364	122.057	99.470	287.568	174.688	323.173	0.00075466	0.00029163	8.4206e-05	1008.7	4.2914e-06	2.5929e-06	1108.5	207.17	4.5571e-06	3.3529e-06	264.18	75.073	58.733	17.064	3.8752e-06	24.006	5.7056e-05	2.7004e-05	8.2183e-06	997.3	4.4009e-07	2.7258e-07	1095.9	205.47	3.6277e-07	3.0879e-07	261.84	74.603	57.935	17.247	3.4324e-07	24.232	407.574	174.143	167.689	92.319	189.417	226.511	92.468	100.058	213.014	234.929	99.715	106.311	107.121	114.545	227.692	112.966	-8191	255	
52345.395	1	1	0	0	0.13363	0.069554	0.092396	0.22374	0.21671	0.23634	0.22214	0.070558	0.098103	0.21853	0.15004	0.19282	0.2178	0.13031	0.15919	0.13702	-4.8063	-4.2625	-4.3562	-5.075	-3.9271	-4.7812	-4.9333	-4.0771	-4.975	-4.3979	-4.3646	-5.0104	-4.1	-4.8375	-4.8917	-4.1562	373.632	111.441	144.422	432.021	170.506	123.525	380.887	375.428	390.194	145.020	142.440	179.500	151.086	129.133	82.203	128.785	0.00077438	0.00022791	6.5883e-05	1010.6	5.5093e-06	1.2609e-06	1107.6	207.67	4.364e-06	2.4714e-06	263.62	75.353	59.028	17.223	2.2904e-06	24.178	5.7607e-05	2.6585e-05	8.8777e-06	997.77	4.2083e-07	3.0254e-07	1097	205.68	3.31e-07	2.7918e-07	262.07	74.755	58.124	17.331	3.0527e-07	24.303	407.341	166.450	155.130	92.366	212.563	226.484	92.204	100.089	202.977	245.988	99.247	106.537	106.745	114.265	225.504	114.039	-8191	255	
52345.488	1	1	0	0	0.25434	0.18238	0.14989	0.18814	0.11167	0.097392	0.14579	0.22336	0.26673	0.2871	0.11415	0.09158	0.011378	0.16486	0.066464	0.25981	-4.7375	-4.575	-4.1771	-5.2354	-4.1625	-4.4563	-4.9458	-4.1521	-4.9375	-4.6521	-4.1854	-5.1271	-4.15	-4.5104	-4.7333	-4.0458	440.705	318.208	316.515	357.430	273.297	231.975	347.810	432.875	281.244	357.377	328.883	220.714	205.714	396.649	330.117	373.055	0.000816	0.0001611	5.1816e-05	1013.4	4.6399e-06	3.422e-06	1110.6	206.82	3.5466e-06	3.1644e-06	265.84	76.244	59.414	17.253	2.6731e-06	24.249	5.677e-05	2.6917e-05	8.1874e-06	1001.1	3.9952e-07	2.9924e-07	1099.5	205.74	3.2998e-07	2.9087e-07	262.93	74.942	58.27	17.388	3.4066e-07	24.39	407.154	179.177	162.415	92.369	225.763	241.050	92.521	100.019	220.087	220.430	99.796	106.599	106.530	114.171	229.060	113.219	-8191	255	
52345.586	1	1	0	0	0.11463	0.23857	0.16802	0.080577	0.18055	0.10944	0.22585	0.12097	0.21198	0.10125	0.094841	0.13545	0.22206	0.31273	0.10928	0.091613	-4.6438	-4.525	-4.2271	-5.1729	-4.3167	-4.625	-4.9812	-4.0625	-4.8417	-4.7646	-4.2479	-5.0771	-4.3562	-4.2312	-4.9979	-4.0146	439.827	106.260	187.574	322.042	242.917	242.163	154.145	94.478	320.700	255.895	380.698	398.539	371.301	412.713	307.423	434.860	0.00086792	0.00023652	6.1932e-05	1007.8	5.4756e-06	3.5883e-06	1114.3	209.21	4.8165e-06	2.6764e-06	264.91	75.864	58.801	17.221	2.7428e-06	24.345	5.8465e-05	3.0599e-05	8.988e-06	1000.9	4.3983e-07	3.2911e-07	1100.2	206.99	3.3926e-07	3.107e-07	262.79	75.096	58.406	17.431	3.3377e-07	24.561	406.867	181.138	157.623	92.495	190.449	236.043	92.569	100.345	200.839	232.560	99.663	106.567	106.997	114.248	255.470	113.500	-8191	255	
52345.703	1	1	0	0	0.069756	0.17801	0.089952	0.14073	0.10445	0.092553	0.086403	0.050555	0.060876	0.11735	0.072255	0.087487	0.10494	0.14124	0.23275	0.13124	-4.3625	-4.6917	-4.0583	-5.0062	-4.3083	-4.2063	-5.1479	-4.0479	-4.6667	-4.7708	-4.1917	-5.1	-4.5125	-4.1646	-5.0417	-4.2604	290.256	410.998	230.377	289.251	325.215	241.235	309.204	278.498	229.028	335.088	96.355	192.592	300.160	165.186	115.054	334.706	0.00077181	0.00012951	8.8798e-05	1016.2	5.5656e-06	1.9691e-06	1120.6	208.46	4.7868e-06	2.0086e-06	264.86	76.271	59.133	17.341	1.7346e-06	24.372	5.5024e-05	3.056e-05	8.5822e-06	1002.9	4.2995e-07	3.3806e-07	1102.9	206.96	3.8533e-07	2.8871e-07	263.94	75.118	58.563	17.498	3.1535e-07	24.598	406.869	172.482	172.900	92.398	188.053	261.405	92.420	100.004	227.853	252.569	99.770	106.510	107.125	114.039	226.166	113.055	-8191	255	
52345.777	1	1	0	0	0.1759	0.14378	0.15743	0.13667	0.19944	0.12369	0.27083	0.096494	0.18735	0.11149	0.16673	0.29905	0.29802	0.096676	0.21029	0.14929	-4.3812	-4.7792	-3.9583	-4.9	-4.4583	-4.1875	-5.1708	-4.2875	-4.4104	-4.8104	-4.0354	-4.8604	-4.6937	-4.1854	-5.0146	-4.3646	137.643	375.105	229.220	420.841	87.015	314.310	399.814	331.909	253.362	282.875	360.105	364.202	313.427	190.827	322.685	362.523	0.00083944	0.00017974	6.9606e-05	1016.4	3.5531e-06	1.7688e-06	1118.3	208.59	3.9375e-06	2.097e-06	266.55	76.387	59.008	17.463	3.1506e-06	24.469	5.9998e-05	3.1603e-05	8.3925e-06	1005.4	4.0106e-07	3.3589e-07	1103.9	207.27	3.6302e-07	2.9546e-07	264.95	75.448	58.638	17.522	3.0622e-07	24.586	406.366	174.176	177.750	92.220	204.518	236.725	92.398	100.224	201.222	217.507	99.601	106.589	107.061	114.188	220.433	113.427	-8191	255	
52345.898	1	1	0	0	0.16888	0.10496	0.21185	0.20453	0.15194	0.041052	0.18539	0.1596	0.21201	0.0086504	0.018641	0.2681	0.19832	0.0408	0.070505	0.28307	-4.0687	-4.9833	-4.0833	-4.8958	-4.6417	-4.1813	-5.2146	-4.3729	-4.3313	-5.0062	-4.2333	-4.8083	-4.9333	-4.0104	-5.0333	-4.5437	225.118	434.380	295.761	360.215	108.669	309.311	320.133	388.022	218.143	203.599	322.567	430.375	402.287	215.759	199.492	434.012	0.00072746	0.00024766	6.5532e-05	1017.1	6.6596e-06	2.9151e-06	1117.4	208.99	4.1174e-06	1.4547e-06	267.63	76.516	59.287	17.432	3.3178e-06	24.554	5.9206e-05	3.0425e-05	8.1234e-06	1006.1	4.0438e-07	3.5569e-07	1106	207.21	3.9163e-07	2.8541e-07	265.71	75.643	58.717	17.579	3.2387e-07	24.704	411.163	198.563	168.591	92.276	205.105	256.759	92.229	100.277	195.895	262.698	99.918	106.531	107.058	114.157	235.519	113.237	-8191	255	
52345.992	1	1	0	0	0.13057	0.17453	0.16109	0.28973	0.13482	0.14155	0.0572	0.19193	0.04026	0.18303	0.02672	0.13551	0.084999	0.29872	0.12126	0.32864	-3.9688	-4.9479	-4.0604	-4.8396	-4.9167	-3.9938	-4.9625	-4.6312	-4.2292	-5.0833	-4.1542	-4.5958	-5	-4.1604	-4.9521	-4.7271	85.951	177.246	114.950	410.542	336.228	385.994	382.755	103.111	379.694	92.868	347.199	288.617	116.150	439.569	218.289	125.597	0.00087892	0.00032019	5.3725e-05	1018.2	6.3462e-06	2.613e-06	1124.2	210.3	3.006e-06	3.9921e-06	269.64	77.072	59.721	17.706	3.0273e-06	24.72	6.4605e-05	2.9706e-05	8.1124e-06	1008.5	4.1648e-07	3.5907e-07	1109.5	208.87	4.0134e-07	3.0784e-07	267.91	76.273	59.253	17.807	3.5443e-07	24.952	409.267	185.257	177.077	92.047	202.037	218.478	92.463	100.157	206.265	240.611	99.408	106.673	106.837	114.268	239.579	112.978	-8191	255	
52346.090	1	1	0	0	0.1027	0.090757	0.19916	0.16172	0.14523	0.17848	0.34513	0.16451	0.21807	0.16222	0.25655	0.12238	0.03237	0.0079739	0.16465	0.23023	-3.8937	-5.1021	-4.1896	-4.4167	-5.1333	-4.1167	-4.9771	-4.8083	-4.0563	-5.1375	-4.4542	-4.3958	-5.0813	-4.0646	-4.6396	-4.8271	337.752	252.996	109.261	84.051	179.203	409.602	405.407	82.389	101.775	204.086	98.173	384.017	354.266	129.262	320.251	347.497	0.00087132	0.00023367	5.5016e-05	1029.3	6.5814e-06	2.0151e-06	1130.3	213.8	5.0214e-06	2.8442e-06	271.82	77.877	60.02	17.817	1.9822e-06	24.845	6.5551e-05	2.6458e-05	8.7211e-06	1016.6	4.6992e-07	3.3962e-07	1118.1	211.18	4.188e-07	2.9988e-07	271.02	76.928	59.847	17.882	3.577e-07	25.029	410.360	184.029	171.834	92.310	201.567	250.286	92.317	100.051	215.321	246.903	99.618	106.281	107.044	113.697	223.206	113.145	-8191	255	
52346.188	1	1	0	0	0.07911	0.058517	0.19612	0.19436	0.31056	0.15566	0.071128	0.057663	0.18808	0.020769	0.15557	0.068611	0.12572	0.2375	0.06988	0.21789	-3.8833	-4.8979	-4.4208	-4.4833	-4.9896	-4.1562	-4.8438	-4.8521	-4.1146	-5.0437	-4.5437	-4.2833	-5.2896	-4.3063	-4.6458	-4.9062	268.115	323.000	212.918	369.214	343.161	385.270	436.795	122.190	156.647	194.770	179.795	317.010	114.341	417.963	421.047	329.541	0.00084426	0.00028604	4.8977e-05	1030.6	4.8737e-06	3.1012e-06	1130.8	213.57	4.0254e-06	2.7591e-06	274.14	77.704	60.985	17.714	2.8076e-06	24.68	6.3387e-05	2.905e-05	8.8777e-06	1017.2	4.4367e-07	3.0749e-07	1118.7	211.71	4.297e-07	2.9243e-07	271.38	76.943	59.956	17.875	3.8189e-07	24.969	407.678	144.403	215.177	92.356	211.079	221.784	92.345	100.176	212.250	244.551	99.677	106.685	106.844	114.041	223.119	113.338	-8191	255	
52346.309	1	1	0	0	0.20378	0.075188	0.2012	0.11847	0.096736	0.17365	0.22606	0.27077	0.082545	0.056637	0.10091	0.2175	0.17198	0.16866	0.10576	0.081132	-3.6958	-4.8979	-4.5854	-4.3938	-4.9667	-4.1813	-4.6417	-5.0396	-3.9208	-4.9646	-4.8229	-4.1396	-4.9625	-4.3854	-4.4604	-5.1729	273.675	313.586	124.515	349.424	98.950	353.204	296.315	379.183	372.182	130.335	144.687	365.766	396.396	164.006	283.673	148.384	0.00073741	0.00029765	8.4235e-05	1027.1	4.4936e-06	1.5291e-06	1130.8	215.33	4.4457e-06	3.805e-06	274.47	78.033	60.524	17.761	2.4171e-06	24.958	6.0643e-05	2.8553e-05	8.3947e-06	1017.3	4.141e-07	3.4466e-07	1119.1	212.82	4.2067e-07	3.191e-07	271.86	77.105	59.896	17.885	3.5564e-07	25.032	410.065	172.170	178.443	92.490	201.181	263.613	92.410	100.304	194.921	218.161	99.891	106.442	106.338	113.668	217.756	113.184	-8191	255	
52346.402	1	1	0	0	0.078717	0.085488	0.07663	0.19505	0.18268	0.24332	0.036092	0.077646	0.35418	0.084632	0.17299	0.018584	0.12412	0.072792	0.095031	0.063202	-3.8229	-4.5604	-4.6687	-4.2688	-5.0479	-4.3396	-4.5188	-5.0938	-4.1083	-4.8229	-4.8187	-4.1417	-5.2375	-4.4917	-4.3375	-5.1208	159.272	366.234	175.594	365.994	367.947	261.108	152.101	409.765	121.765	195.944	413.630	246.370	407.081	258.609	310.604	285.608	0.00084252	0.0003354	4.4234e-05	1027.5	6.7025e-06	2.6099e-06	1133.8	215.8	4.2204e-06	2.7008e-06	275.3	78.031	60.619	17.664	3.3998e-06	24.653	6.0115e-05	3.0923e-05	8.5491e-06	1018.5	4.0106e-07	3.4023e-07	1120	212.97	4.1377e-07	3.4846e-07	272.88	77.145	59.859	17.826	3.8887e-07	25.01	408.438	177.862	165.677	92.214	208.006	252.088	92.495	100.198	203.283	248.179	99.749	106.216	106.719	113.802	223.137	113.244	-8191	255	
52346.473	1	1	0	0	0.17462	0.093616	0.33468	0.22332	0.10083	0.19794	0.067779	0.32141	0.11457	0.089365	0.13201	0.13737	0.23045	0.042306	0.18857	0.17815	-3.7104	-4.6458	-4.8771	-4.2604	-4.9854	-4.5062	-4.3833	-5.1354	-4.3146	-4.5229	-4.7917	-4.0104	-4.8917	-4.5396	-4.1104	-5.1042	138.141	173.609	160.224	84.949	140.970	321.679	241.284	405.824	115.913	115.385	373.679	352.860	333.496	342.901	280.913	142.410	0.00087139	0.00023615	8.7706e-05	1035.5	5.7945e-06	4.6933e-06	1135.1	214.84	3.5119e-06	3.8213e-06	275.01	77.804	60.678	17.772	2.6163e-06	24.811	6.035e-05	3.4037e-05	8.5954e-06	1019.3	4.0873e-07	3.5994e-07	1120.6	213.07	4.0109e-07	3.6058e-07	273.11	77.115	60.03	17.939	4.0083e-07	25.11	408.366	186.420	151.616	92.346	197.140	231.895	92.110	99.987	234.029	242.321	99.615	106.598	106.512	113.917	212.268	113.227	-8191	255	
52346.594	1	1	0	0	0.11769	0.18757	0.10796	0.19663	0.2787	0.063011	0.25236	0.21682	0.080972	0.15709	0.16808	0.29157	0.15005	0.08763	0.083345	0.1248	-3.8688	-4.3646	-4.9604	-4.1333	-4.6729	-4.7021	-4.3375	-5.1917	-4.0771	-4.4792	-5.0979	-4.0271	-4.7625	-4.7125	-4.1792	-5.2188	124.532	166.529	254.505	418.284	362.944	274.950	86.018	315.682	206.403	143.098	370.219	422.497	292.506	373.387	224.172	242.104	0.00077978	0.00021515	5.4882e-05	1028.3	4.4025e-06	3.1991e-06	1133.4	216.01	3.3212e-06	2.5548e-06	276	77.499	60.825	17.74	4.0639e-06	25.043	6.1524e-05	3.2101e-05	9.0873e-06	1017.3	4.1964e-07	3.2269e-07	1122.1	213.85	4.2306e-07	3.5711e-07	273.47	77.101	60.045	17.95	3.905e-07	25.06	407.910	168.838	171.376	92.236	215.213	250.718	92.257	100.223	225.750	239.504	99.652	106.405	106.743	113.978	239.132	113.372	-8191	255	
52346.688	1	1	0	0	0.21627	0.11856	0.11096	0.1379	0.21791	0.093462	0.29776	0.18955	0.087497	0.12987	0.035125	0.22423	0.018721	0.12188	0.0095524	0.10199	-4.2042	-4.2438	-4.9625	-4.2937	-4.7167	-4.8625	-4.3167	-5.0542	-4.5292	-4.2583	-5.1104	-4.3063	-4.5354	-4.9354	-4.0417	-5.0708	220.579	382.431	312.268	368.232	322.520	122.979	363.974	370.890	256.206	370.228	293.326	389.925	144.081	325.765	295.779	143.713	0.0008028	0.00025889	6.7302e-05	1031.9	5.352e-06	4.0506e-06	1134.7	216.68	2.844e-06	2.9148e-06	276.14	78.261	60.494	17.851	3.197e-06	24.557	6.2536e-05	3.4582e-05	8.3506e-06	1021.6	4.3915e-07	3.5022e-07	1120	214.52	4.0458e-07	3.5391e-07	273.82	77.252	60.036	17.953	3.602e-07	24.982	409.061	158.621	154.571	92.482	200.764	230.606	92.404	100.092	215.856	238.862	99.638	106.497	106.651	113.465	223.336	113.308	-8191	255	
52346.785	1	1	0	0	0.022477	0.22738	0.063912	0.0425	0.17827	0.23815	0.21151	0.069168	0.18763	0.084415	0.23111	0.13667	0.057735	0.06247	0.21959	0.34944	-4.2521	-4.1312	-4.9917	-4.3583	-4.5042	-4.9229	-4.1146	-4.8896	-4.6104	-4.2812	-5.1604	-4.2562	-4.5292	-4.9563	-3.9833	-4.6958	405.358	212.948	101.175	100.684	109.008	373.222	369.047	152.887	271.162	265.347	124.762	376.596	135.133	441.339	260.448	388.496	0.0008131	0.00028387	9.5104e-05	1029.8	4.9631e-06	4.0559e-06	1137.4	216.39	4.6797e-06	2.7324e-06	276.91	78.189	60.494	17.83	2.5055e-06	24.822	6.2089e-05	3.2543e-05	7.561e-06	1020.1	4.3208e-07	3.3155e-07	1121.2	214.3	4.2306e-07	3.5521e-07	273.96	77.193	60.017	17.931	3.4789e-07	25.017	409.513	188.261	159.777	92.456	202.351	228.927	92.432	100.086	230.799	218.215	99.288	106.253	106.601	113.974	234.840	113.076	-8191	255	
52346.883	1	1	0	0	0.074374	0.098663	0.039384	0.24401	0.20104	0.1909	0.32734	0.1176	0.22838	0.11855	0.19347	0.19454	0.15932	0.24093	0.30179	0.26956	-4.3313	-3.9667	-5.0833	-4.4771	-4.2333	-4.8667	-4.0188	-4.6396	-4.7542	-4.0167	-5.0583	-4.4083	-4.3083	-4.9542	-3.9917	-4.5208	81.930	142.034	198.261	121.769	243.892	382.732	413.922	430.340	103.538	231.296	395.996	355.967	215.927	382.540	292.661	293.166	0.00091009	0.00018763	6.852e-05	1027.8	5.1845e-06	2.5704e-06	1132.9	215.77	4.7891e-06	3.8149e-06	278.21	77.775	60.599	17.763	3.4127e-06	24.864	6.3952e-05	3.4282e-05	7.5941e-06	1017.8	4.4699e-07	3.1392e-07	1120.3	213.9	3.8857e-07	3.6222e-07	274.16	77.135	60.052	17.88	3.6338e-07	25.111	407.291	186.914	165.613	92.381	217.305	200.180	92.370	99.879	200.529	249.597	99.437	106.703	106.351	113.758	247.286	112.848	-8191	255	
52347.004	1	1	0	0	0.1508	0.33644	0.16998	0.29537	0.032807	0.098814	0.31438	0.21204	0.21828	0.232	0.11645	0.28063	0.16183	0.15412	0.11025	0.34381	-4.4521	-4.0729	-4.7438	-4.5792	-4.2375	-5.0188	-4.2896	-4.4646	-4.8875	-3.8604	-4.9437	-4.6271	-4.2021	-5.0312	-4.1375	-4.5042	332.816	117.422	331.243	440.708	274.274	333.921	375.145	387.420	157.065	403.426	278.054	356.412	441.324	125.350	323.283	85.432	0.00086445	0.00020091	5.1806e-05	1030.8	4.9298e-06	2.7827e-06	1135.1	216.39	3.491e-06	1.5422e-06	275.63	77.524	60.337	17.824	3.275e-06	24.96	6.1773e-05	3.4614e-05	8.4498e-06	1020.1	4.3941e-07	3.114e-07	1121.7	213.85	3.7699e-07	3.3218e-07	273.77	77.107	60.005	17.878	3.7871e-07	25.074	405.390	148.404	168.010	92.392	204.774	228.241	92.415	99.869	186.687	277.971	99.598	106.673	106.946	114.046	246.661	113.607	-8191	255	
52347.074	1	1	0	0	0.20136	0.091239	0.24734	0.030389	0.070753	0.081816	0.32439	0.17309	0.1325	0.070325	0.070438	0.14081	0.15915	0.168	0.19417	0.12875	-4.4563	-3.825	-4.9125	-4.7333	-3.9708	-5.2104	-4.4563	-4.3521	-4.9229	-3.9604	-4.7937	-4.5208	-4.1813	-5.0188	-4.4229	-4.4271	363.406	96.625	189.757	107.108	203.291	127.360	347.758	426.035	127.657	214.835	221.723	361.916	267.114	100.309	241.260	384.375	0.00088204	0.00025508	6.9439e-05	1028.1	4.7582e-06	3.4855e-06	1133	214.32	3.5014e-06	2.5468e-06	275.91	77.448	60.015	17.669	2.0464e-06	24.834	6.1333e-05	2.939e-05	8.033e-06	1019.3	4.441e-07	2.9586e-07	1119.9	213.07	3.8065e-07	2.9892e-07	273.59	76.984	59.762	17.855	3.4556e-07	25.012	406.381	170.438	168.642	92.279	213.696	238.908	92.596	99.758	184.194	217.282	99.278	106.775	106.419	113.964	220.462	112.860	-8191	255	
52347.172	1	1	0	0	0.20361	0.17469	0.029771	0.31063	0.061685	0.0022103	0.10721	0.19986	0.14987	0.15552	0.22226	0.01066	0.13763	0.13945	0.10815	0.11544	-4.6417	-3.9833	-4.5854	-4.8938	-3.85	-4.8354	-4.5208	-4.2083	-4.9583	-4.1375	-4.5854	-4.8938	-4.0917	-4.925	-4.5437	-4.1792	300.207	341.816	162.553	412.401	432.494	81.566	309.339	130.981	121.584	297.927	431.929	319.828	131.095	359.638	326.769	92.397	0.00082412	0.00026328	5.8223e-05	1026.8	5.1104e-06	1.9578e-06	1129.1	214.46	4.476e-06	2.1809e-06	273.56	77.792	60.602	17.67	2.6026e-06	24.626	5.7893e-05	3.0544e-05	8.3109e-06	1018.4	4.7205e-07	2.7649e-07	1119.3	213.4	3.6277e-07	3.1061e-07	273.79	77.013	59.807	17.846	3.6106e-07	24.985	408.285	190.017	185.145	92.539	192.144	241.641	92.396	99.486	228.350	211.660	99.778	106.049	106.737	114.026	225.560	113.017	-8191	255	
52347.266	1	1	0	0	0.072387	0.046815	0.24754	0.3245	0.16472	0.10909	0.2655	0.12981	0.15908	0.14389	0.029339	0.043919	0.14052	0.15559	0.10438	0.154	-4.6542	-4.175	-4.4208	-4.9958	-4.0042	-4.8229	-4.6917	-4.2375	-5.0229	-4.2875	-4.3063	-4.9938	-3.9583	-4.7583	-4.4708	-4.1	320.932	183.992	369.185	363.080	407.544	344.808	369.932	338.892	261.076	124.344	345.381	119.444	378.302	224.018	96.354	426.124	0.00081219	0.00029049	4.8841e-05	1030	5.9886e-06	3.1752e-06	1140.3	214.65	4.3803e-06	2.5557e-06	274.62	77.787	60.92	17.628	2.018e-06	24.811	5.9286e-05	3.007e-05	8.3374e-06	1018.2	4.0327e-07	3.0289e-07	1119.4	213.45	3.6438e-07	3.404e-07	272.29	77.076	59.944	17.86	3.4341e-07	24.961	411.061	183.967	172.085	92.307	211.987	234.559	92.341	99.986	198.069	237.705	99.586	106.722	106.679	113.695	225.856	113.120	-8191	255	
52347.387	1	1	0	0	0.14229	0.14907	0.31812	0.32282	0.14482	0.17935	0.09028	0.12536	0.036306	0.23087	0.17007	0.16321	0.25543	0.2942	0.17269	0.174	-4.7229	-4.1937	-4.2688	-5.1729	-3.9958	-4.4771	-4.7521	-4.0563	-4.7021	-4.3438	-4.2917	-5.0792	-3.9646	-4.6958	-4.8042	-4.1062	171.482	397.724	117.226	403.823	101.946	230.808	95.925	337.210	98.313	258.111	439.773	319.531	85.234	142.029	400.825	340.002	0.00083597	0.00021891	8.7568e-05	1024.4	4.821e-06	2.027e-06	1128.9	214.83	4.0905e-06	2.6577e-06	275.9	77.737	60.223	17.743	4.0644e-06	24.922	5.6895e-05	3.2267e-05	8.6836e-06	1016.5	4.1469e-07	3.3285e-07	1116.5	213.05	3.4812e-07	3.0776e-07	272.73	76.779	59.726	17.805	3.5632e-07	24.972	408.759	178.004	167.881	92.394	211.435	239.775	92.589	99.782	215.736	243.439	99.383	106.179	106.853	114.026	215.096	113.356	-8191	255	
52347.480	1	1	0	0	0.18276	0.024094	0.15217	0.27801	0.077806	0.22438	0.12813	0.058354	0.14793	0.024008	0.084979	0.13782	0.29835	0.20664	0.12809	0.13761	-4.6062	-4.4646	-4.0563	-4.95	-4.2	-4.6146	-4.9042	-3.8833	-4.8938	-4.5938	-4.225	-5.125	-4.05	-4.2583	-4.8583	-4.0354	333.532	400.020	284.371	322.559	187.294	205.705	416.192	274.237	146.489	185.505	435.606	88.159	108.199	97.219	355.569	271.134	0.00084799	0.00021809	0.0001046	1025.3	5.2193e-06	1.7049e-06	1131.1	214.41	1.8365e-06	3.7896e-06	274.85	77.716	60.308	17.65	1.7825e-06	24.61	5.8201e-05	3.1421e-05	9.6431e-06	1015.9	4.2109e-07	3.2269e-07	1117.1	212.95	3.8525e-07	3.3434e-07	272.83	76.726	59.644	17.811	3.2843e-07	24.85	406.951	171.479	156.503	92.384	198.212	245.755	92.236	99.907	189.079	231.101	99.691	106.577	107.098	113.875	259.875	113.243	-8191	255	
52347.578	1	1	0	0	0.10751	0.22684	0.17247	0.12488	0.13066	0.065179	0.36646	0.087718	0.027469	0.15848	0.24146	0.039961	0.16369	0.19491	0.21172	0.14558	-4.4542	-4.4313	-4.025	-5.0542	-4.225	-4.35	-5.1687	-3.9708	-4.6958	-4.5792	-4.0667	-5.0875	-4.2917	-4.2167	-4.8396	-4.0312	349.793	437.072	417.527	418.311	96.792	173.024	382.867	312.585	254.116	441.553	399.490	363.392	396.030	350.531	260.440	271.713	0.00087359	0.00030056	6.6009e-05	1028.8	5.7081e-06	2.5445e-06	1132.9	214.82	4.2241e-06	2.3185e-06	273.67	77.432	60.308	17.638	1.8834e-06	24.615	6.1194e-05	2.8742e-05	8.2712e-06	1016.4	4.3336e-07	3.2469e-07	1116.5	212.91	3.884e-07	3.378e-07	272.41	76.695	59.612	17.751	3.0665e-07	24.836	404.670	181.065	164.077	92.222	212.010	234.327	92.253	99.954	205.639	218.574	99.682	106.698	107.007	113.799	207.537	113.284	-8191	255	
52347.676	1	1	0	0	0.065714	0.13108	0.11771	0.17874	0.15185	0.18023	0.10653	0.21193	0.205	0.11058	0.10915	0.33091	0.27277	0.099273	0.1109	0.14485	-4.2396	-4.6229	-4.0083	-5.1	-4.4458	-4.2354	-5.1687	-4.2208	-4.5542	-4.7083	-4.15	-4.8979	-4.4896	-4.0042	-5.0042	-4.1833	400.954	94.031	372.100	315.142	429.915	247.587	389.214	341.423	421.613	275.875	362.619	383.635	432.007	101.834	92.613	406.414	0.00084026	0.00024799	8.0469e-05	1027	4.6047e-06	1.6161e-06	1127.2	214.3	4.725e-06	3.6681e-06	273.48	77.624	60.471	17.625	2.5862e-06	24.743	6.0064e-05	3.0931e-05	8.9307e-06	1017.4	4.0327e-07	3.4431e-07	1115.8	212.33	4.1003e-07	3.1945e-07	271.9	76.673	59.582	17.787	2.9606e-07	24.928	407.678	190.479	185.340	92.434	227.116	225.669	92.369	99.938	190.368	229.722	99.752	106.748	106.858	113.808	238.952	113.300	-8191	255	
52347.770	1	1	0	0	0.19889	0.13999	0.13058	0.24685	0.17879	0.11369	0.27998	0.029185	0.12331	0.19219	0.14214	0.17509	0.064237	0.30705	0.2384	0.38439	-4.1208	-4.7583	-3.9813	-5.1167	-4.4417	-4.1667	-5.0292	-4.3042	-4.3708	-4.9563	-4.0667	-4.9354	-4.6833	-4.0771	-4.8667	-4.2688	321.742	423.346	213.293	401.722	99.741	138.752	372.341	123.516	352.605	263.183	403.746	371.218	260.238	411.001	237.188	382.164	0.00080225	0.00018936	7.3697e-05	1027.4	6.0004e-06	1.4103e-06	1131.1	213.7	3.1032e-06	2.7491e-06	273.84	76.637	60.348	17.676	3.7835e-06	24.572	6.0438e-05	2.8157e-05	7.711e-06	1016.9	4.4716e-07	3.4865e-07	1116.5	212.34	4.0398e-07	3.036e-07	272.07	76.47	59.716	17.803	3.4272e-07	24.845	404.655	198.303	192.578	92.196	206.843	221.221	92.347	99.815	227.862	245.697	99.219	106.314	106.604	113.648	245.300	113.466	-8191	255	
52347.867	1	1	0	0	0.16594	0.34244	0.056582	0.18509	0.28784	0.20698	0.14119	0.080256	0.12644	0.048569	0.17716	0.029573	0.11307	0.18834	0.23867	0.18101	-4.1167	-4.7125	-4.1417	-4.7333	-4.6	-4.275	-5.1771	-4.4042	-4.25	-4.9854	-4.0854	-4.7042	-4.9625	-3.9375	-4.9	-4.5	366.665	257.010	427.062	354.167	103.839	298.649	368.685	290.096	174.569	238.703	297.468	224.176	91.133	141.834	306.704	350.861	0.00086314	0.00034879	4.6486e-05	1020.9	6.5965e-06	2.3297e-06	1132.3	213.93	3.422e-06	2.7056e-06	273.47	78.018	60.07	17.615	4.1028e-06	24.506	6.4011e-05	2.7667e-05	8.602e-06	1015.3	4.2714e-07	3.2903e-07	1118.3	212.51	3.9478e-07	3.1659e-07	271.77	76.796	59.518	17.753	3.3231e-07	24.821	406.892	188.083	180.493	92.249	203.056	245.392	92.200	99.858	202.984	219.127	99.744	106.236	106.835	114.022	250.758	113.299	-8191	255	
52347.988	1	1	0	0	0.084937	0.084001	0.07536	0.24239	0.12808	0.18217	0.1045	0.18438	0.10618	0.13009	0.16006	0.06919	0.15921	0.03057	0.19654	0.14863	-3.9125	-5.0125	-4.0479	-4.6333	-4.7375	-3.9917	-4.9229	-4.5146	-4.0917	-4.9667	-4.2917	-4.4979	-4.8292	-4.0854	-4.8229	-4.6125	97.820	384.459	407.825	332.189	414.188	377.246	363.497	377.907	299.114	184.398	432.924	425.531	91.676	374.241	294.385	374.364	0.00084484	0.00022667	6.7177e-05	1027	5.3251e-06	2.8237e-06	1132.5	214.2	3.5963e-06	3.9311e-06	272.76	77.613	60.511	17.532	3.6883e-06	24.612	6.0599e-05	2.7936e-05	8.6042e-06	1015.5	4.1239e-07	3.0906e-07	1117.8	212.41	4.2272e-07	2.739e-07	271.66	76.689	59.538	17.732	3.6605e-07	24.937	409.627	180.102	166.643	92.318	209.216	223.323	92.173	100.137	216.082	239.875	99.607	106.435	107.005	113.731	212.360	113.524	-8191	255	
52348.082	1	1	0	0	0.096113	0.22431	0.17549	0.16884	0.077219	0.24334	0.077708	0.1684	0.084155	0.15516	0.035456	0.19988	0.14992	0.061474	0.16166	0.23431	-3.6833	-5.0396	-4.3688	-4.3958	-4.9917	-4.1396	-4.8125	-4.8625	-4.1792	-5.0062	-4.4563	-4.2958	-4.9542	-4.225	-4.7292	-4.7104	357.683	274.560	322.085	342.326	96.620	312.416	356.841	388.847	186.753	429.559	284.050	432.510	233.946	374.783	285.015	387.934	0.00083207	0.00030821	6.3222e-05	1025.8	6.3921e-06	2.8389e-06	1134.8	215.12	5.8643e-06	4.0981e-06	275.44	77.573	59.965	17.624	3.8544e-06	24.737	6.1795e-05	2.6277e-05	8.9196e-06	1015.2	4.3046e-07	3.279e-07	1117.9	212.78	4.0475e-07	2.9312e-07	272.48	76.71	59.539	17.794	3.899e-07	24.911	413.789	162.159	175.354	92.239	199.498	218.035	92.296	100.315	200.107	212.975	99.545	106.233	106.833	113.706	216.594	113.020	-8191	255	
52348.180	1	1	0	0	0.2069	0.13178	0.31624	0.052253	0.14536	0.158	0.2236	0.25167	0.12746	0.19344	0.1087	0.11302	0.06225	0.1497	0.10655	0.11802	-3.7833	-4.8562	-4.2792	-4.3812	-4.9979	-4.2125	-4.8583	-4.9	-3.8688	-4.8021	-4.5583	-4.0958	-5.0792	-4.2375	-4.425	-4.9396	403.295	421.261	138.846	359.969	412.035	97.020	435.082	397.369	286.708	155.502	288.762	356.161	332.703	355.459	379.313	89.414	0.00084367	0.00022232	5.1672e-05	1023.2	6.3874e-06	2.1662e-06	1130.4	214.15	4.9286e-06	3.6477e-06	275.06	76.866	60.553	17.625	1.8675e-06	24.616	6.1949e-05	2.8695e-05	8.5623e-06	1015.3	3.7617e-07	3.378e-07	1116.1	212.77	4.1812e-07	3.0784e-07	272.59	76.624	59.783	17.756	3.1827e-07	24.831	410.129	170.444	162.373	92.395	180.514	224.161	92.431	100.229	211.201	233.790	99.747	106.630	106.993	114.682	255.007	113.410	-8191	255	
52348.301	1	1	0	0	0.12008	0.14351	0.12169	0.2275	0.16813	0.26808	0.097254	0.24605	0.053566	0.20924	0.23006	0.26049	0.21474	0.16423	0.15282	0.095299	-3.75	-4.7812	-4.6083	-4.2	-5.0729	-4.3208	-4.7292	-5.025	-3.9958	-4.7521	-4.5271	-4.2729	-4.8854	-4.35	-4.3146	-4.9208	230.572	129.590	175.932	363.354	322.250	325.764	338.100	440.196	82.492	380.422	429.405	438.112	354.860	377.326	275.436	261.938	0.00089058	0.00028689	6.3894e-05	1024.4	4.5154e-06	2.5415e-06	1129.6	213.39	4.9083e-06	3.6479e-06	274.14	77.384	60.371	17.736	1.6078e-06	24.829	5.9785e-05	3.237e-05	8.5491e-06	1015.7	3.7677e-07	3.2434e-07	1117.2	212.29	3.895e-07	3.3495e-07	272.54	76.771	59.748	17.786	3.7294e-07	24.853	410.580	170.923	150.310	92.213	204.395	249.377	92.219	99.943	198.030	232.539	99.389	106.408	106.687	114.294	256.074	113.433	-8191	255	
52348.371	1	1	0	0	0.18007	0.26332	0.19573	0.19699	0.21186	0.10242	0.16177	0.13903	0.19456	0.17372	0.18368	0.13492	0.14823	0.14368	0.2612	0.13211	-3.8021	-4.7208	-4.725	-4.175	-4.8771	-4.2688	-4.5	-5.0375	-4.0583	-4.6125	-4.8854	-3.9083	-5.0458	-4.3833	-4.1062	-4.9521	368.484	287.634	129.133	437.459	163.420	420.711	353.462	337.459	166.541	325.300	378.777	90.539	82.427	270.132	129.249	413.904	0.00080764	0.00038058	7.0081e-05	1024.5	5.7889e-06	2.3536e-06	1127	214.82	3.3994e-06	2.2234e-06	274.34	77.439	59.908	17.805	1.5428e-06	24.674	6.0864e-05	3.2622e-05	7.8234e-06	1015.7	3.9756e-07	3.4422e-07	1117.7	212.92	4.3157e-07	3.2395e-07	272.47	76.584	59.63	17.822	3.7165e-07	24.888	407.914	167.796	177.796	92.381	214.673	226.517	92.386	100.079	242.260	234.033	99.582	106.189	107.155	114.338	247.268	112.655	-8191	255	
52348.465	1	1	0	0	0.11782	0.10256	0.081338	0.31559	0.082176	0.17782	0.077408	0.23176	0.088196	0.29265	0.32944	0.13746	0.20801	0.10194	0.21686	0.1341	-3.9271	-4.4938	-4.75	-4.1583	-5.0563	-4.5042	-4.2458	-5.1833	-4.0417	-4.4792	-4.9938	-4.0958	-4.9313	-4.6167	-4.0521	-5.0625	335.802	318.420	376.521	423.127	371.277	362.490	96.454	430.424	288.974	193.343	96.228	87.919	144.724	384.320	395.185	374.433	0.00084602	0.00022862	4.5531e-05	1027	6.2009e-06	2.8693e-06	1130	214.06	2.5966e-06	2.7576e-06	273.76	76.918	60.527	17.575	1.8588e-06	24.803	6.3578e-05	3.4314e-05	8.505e-06	1016.5	4.2603e-07	3.4778e-07	1119.1	212.81	4.0935e-07	3.6118e-07	272.15	76.431	59.85	17.749	3.6829e-07	24.975	408.392	133.960	204.409	92.030	208.550	225.987	92.608	99.975	210.476	246.538	99.666	106.665	106.640	114.258	252.078	113.031	-8191	255	
52348.562	1	1	0	0	0.18622	0.23092	0.12943	0.2449	0.076103	0.19996	0.16658	0.096111	0.20756	0.14212	0.12714	0.20827	0.15236	0.067525	0.21841	0.26619	-4.0167	-4.4208	-4.9229	-4.225	-4.7438	-4.7438	-4.2625	-5.025	-4.1667	-4.2521	-5.1854	-4.05	-4.6687	-4.9271	-4.0958	-5.0062	159.892	82.828	228.078	366.491	201.500	436.757	365.701	379.188	266.080	91.925	389.638	387.056	392.049	419.756	429.403	347.573	0.00093266	0.00023807	7.7797e-05	1028.3	4.9239e-06	1.5155e-06	1129.5	214.01	4.2156e-06	2.8869e-06	275.32	77.5	60.583	17.68	1.4722e-06	24.696	6.4348e-05	3.0054e-05	8.2491e-06	1016	4.1981e-07	3.2173e-07	1117.2	212.68	4.2825e-07	3.3599e-07	272.45	76.547	59.83	17.788	3.6984e-07	24.93	409.918	166.798	173.779	92.430	194.136	222.096	92.523	99.843	209.657	220.827	99.581	106.371	106.472	114.097	244.691	113.500	-8191	255	
52348.684	1	1	0	0	0.11224	0.28784	0.21536	0.37494	0.18199	0.25695	0.26772	0.15095	0.23561	0.2097	0.28364	0.07146	0.16827	0.089543	0.065783	0.34254	-4.0604	-4.3521	-4.825	-4.1229	-4.6292	-4.6396	-4.3812	-5.0833	-4.2771	-4.2375	-5.1146	-4.1458	-4.5146	-4.8562	-3.6854	-4.8	185.442	423.690	232.294	408.464	182.769	233.832	371.709	380.535	347.925	440.431	230.817	334.721	306.475	355.180	283.424	409.999	0.00082047	0.0002918	3.8396e-05	1028.6	4.1505e-06	2.2195e-06	1134.9	214.9	2.8092e-06	2.6147e-06	275.66	77.546	60.333	17.541	2.8647e-06	24.662	6.4113e-05	3.2717e-05	7.4e-06	1016.8	4.3489e-07	3.2147e-07	1117.3	212.78	4.2553e-07	3.5989e-07	272.86	76.669	59.663	17.748	3.5736e-07	24.905	405.664	171.211	211.303	92.512	205.077	227.855	92.527	99.769	229.309	218.262	99.581	106.916	106.779	114.521	230.241	113.507	-8191	255	
52348.777	1	1	0	0	0.10448	0.13632	0.06923	0.13509	0.073179	0.11277	0.25304	0.20234	0.105	0.075254	0.20614	0.22683	0.16445	0.048425	0.21681	0.15542	-4.1	-4.0729	-4.8396	-4.275	-4.3333	-4.9354	-4.0292	-4.8458	-4.7542	-4.0625	-4.9604	-4.3667	-4.4187	-4.8417	-4.0938	-4.5917	213.274	178.623	260.975	413.543	384.895	426.630	231.446	91.158	110.285	224.279	362.279	221.668	89.928	91.866	204.536	89.781	0.00088271	0.00020463	7.7416e-05	1026.5	4.5559e-06	3.4702e-06	1128	214.77	4.8433e-06	2.4419e-06	273.74	77.643	60.47	17.582	3.1863e-06	24.523	6.316e-05	3.3737e-05	7.6955e-06	1017.3	4.4682e-07	2.9108e-07	1115.3	212.61	4.0705e-07	3.3339e-07	271.63	76.677	59.579	17.755	3.769e-07	24.852	406.289	179.070	153.169	92.270	207.474	235.339	92.333	100.104	215.080	230.452	100.126	106.537	106.967	114.267	253.985	113.364	-8191	255	
52348.875	1	1	0	0	0.20587	0.16422	0.1592	0.17395	0.075108	0.17388	0.083356	0.25167	0.14116	0.15825	0.22583	0.22087	0.34731	0.16948	0.04723	0.113	-4.5146	-3.9896	-4.9417	-4.4833	-4.3688	-4.9271	-4.2875	-4.8604	-4.8042	-4.1813	-4.975	-4.4958	-4.2104	-5.0583	-4.0604	-4.7417	171.768	341.069	405.888	407.212	305.306	125.986	426.343	412.021	230.633	339.622	384.497	213.184	148.639	414.068	248.406	183.688	0.00080231	0.00024581	3.7431e-05	1026.5	6.0134e-06	2.2443e-06	1129.6	214.65	4.2807e-06	1.5745e-06	273.84	77.338	60.73	17.504	4.1586e-06	24.465	6.0563e-05	3.1192e-05	7.8301e-06	1016.7	4.3694e-07	2.9065e-07	1116.8	212.64	3.8959e-07	3.4542e-07	272.41	76.74	59.808	17.73	4.0341e-07	24.814	409.441	157.498	165.755	92.357	202.608	242.530	92.462	99.872	220.885	232.601	99.901	106.329	106.724	114.051	222.058	113.145	-8191	255	
52348.945	1	1	0	0	0.11712	0.045954	0.23869	0.17027	0.067902	0.076271	0.22805	0.12293	0.10355	0.17485	0.0656	0.1539	0.27407	0.1189	0.057858	0.22203	-4.4313	-4.0104	-4.9333	-4.5208	-4.2125	-4.9917	-4.2	-4.5021	-4.8792	-3.9542	-4.9167	-4.4792	-4.0104	-5.0312	-4.1708	-4.5062	265.778	287.834	198.627	112.125	426.608	252.386	411.093	433.035	386.597	385.616	399.044	370.996	314.296	165.705	100.022	366.772	0.00079422	0.00018094	6.8366e-05	1025.6	5.535e-06	1.886e-06	1131.3	213.87	4.7595e-06	2.1096e-06	275.39	77.29	60.848	17.503	2.7302e-06	24.648	5.8758e-05	3.1382e-05	8.5491e-06	1016.1	4.5722e-07	3.1392e-07	1116.8	212.64	3.7367e-07	3.3962e-07	272.56	76.704	59.727	17.754	4.0746e-07	24.904	408.603	152.759	169.955	92.454	201.967	198.606	92.535	99.842	196.402	251.082	99.593	106.607	106.997	113.986	237.875	113.214	-8191	255	
52349.066	1	1	0	0	0.23089	0.035997	0.13392	0.41915	0.1333	0.11356	0.29737	0.10824	0.21585	0.25005	0.099502	0.0086552	0.14231	0.091374	0.12289	0.13406	-4.6917	-3.9437	-4.7729	-4.675	-3.9333	-4.9521	-4.2646	-4.4437	-5.0229	-3.8979	-4.8812	-4.8292	-4.0563	-4.9271	-4.375	-4.4688	129.355	227.363	317.037	370.341	169.102	106.395	346.122	363.032	389.356	131.103	202.428	278.372	358.979	318.444	166.798	424.474	0.00082923	0.00033731	2.3808e-05	1033.2	5.125e-06	3.6139e-06	1129.7	214.99	4.7874e-06	2.3465e-06	274.79	76.991	60.162	17.692	2.7941e-06	24.451	5.6492e-05	3.2235e-05	8.6814e-06	1018.6	4.3157e-07	3.3832e-07	1117.8	213	3.723e-07	3.5997e-07	272.26	76.613	59.486	17.746	3.9842e-07	24.845	410.954	176.946	136.305	92.283	196.163	222.073	92.408	100.002	217.685	221.578	100.033	106.278	106.503	113.926	218.883	113.419	-8191	255	
52349.164	1	1	0	0	0.093617	0.11929	0.025656	0.1685	0.324	0.1061	0.31894	0.14112	0.1549	0.21861	0.16568	0.2659	0.22951	0.067581	0.1667	0.14445	-4.7542	-4.1042	-4.4708	-4.8396	-4.0771	-4.9354	-4.5458	-4.2604	-4.8333	-4.1438	-4.5563	-4.7625	-3.9896	-5.0896	-4.4833	-4.2354	152.884	242.610	321.401	343.433	401.095	428.582	96.651	258.325	217.135	218.186	214.738	351.690	394.041	382.144	256.675	289.276	0.00076289	0.00019536	8.1204e-05	1029.2	6.0749e-06	2.4568e-06	1137.5	213.75	3.9855e-06	2.9839e-06	274.19	77.631	60.23	17.677	3.1202e-06	24.787	5.6624e-05	3.331e-05	8.6836e-06	1017.7	4.4597e-07	3.3389e-07	1119.3	212.48	3.6975e-07	3.5893e-07	272.18	76.635	59.619	17.778	3.7139e-07	24.948	409.489	188.031	164.547	92.401	212.652	256.845	92.473	100.124	211.059	215.499	99.396	106.440	106.420	113.714	241.107	112.932	-8191	255	
52349.258	1	1	0	0	0.12714	0.1337	0.080408	0.1676	0.11455	0.2265	0.26972	0.23368	0.1979	0.06713	0.13962	0.17295	0.073689	0.29609	0.16984	0.17234	-4.7729	-4.1604	-4.5208	-5.0854	-3.9479	-4.9292	-4.7167	-4.2438	-4.8458	-4.2438	-4.3604	-4.9542	-4.0125	-4.5833	-4.5437	-4.0979	130.066	199.294	202.129	340.950	441.725	269.918	311.210	179.716	186.536	408.456	342.357	123.480	132.573	140.688	332.057	90.637	0.0008218	0.00026545	4.215e-05	1032	4.8806e-06	2.4882e-06	1139.7	213.93	5.1287e-06	1.6305e-06	274.81	77.861	60.81	17.541	4.4811e-06	24.511	5.8832e-05	3.3184e-05	9.7159e-06	1017.4	4.4537e-07	3.3797e-07	1119.3	212.56	4.0832e-07	3.6439e-07	272.6	76.588	59.631	17.723	3.992e-07	24.87	410.812	177.935	207.472	92.155	205.598	232.918	92.573	99.781	211.108	222.169	99.465	106.777	106.635	114.287	212.815	112.989	-8191	255	
52349.379	1	1	0	0	0.077699	0.024271	0.22383	0.19214	0.25555	0.06329	0.018461	0.23795	0.085416	0.25933	0.099122	0.062736	0.26237	0.028796	0.094846	0.16858	-4.7188	-4.2354	-4.3125	-5.0646	-4.0813	-4.6958	-4.8333	-4.0208	-4.8938	-4.3458	-4.2854	-4.9021	-3.9	-4.6271	-4.7063	-3.9354	407.267	99.861	392.356	416.935	162.960	284.628	402.505	392.477	125.573	223.754	142.377	85.582	93.369	373.639	87.590	336.176	0.00086073	0.00027435	7.4242e-05	1028.8	5.1093e-06	3.4166e-06	1132.3	215.45	3.5356e-06	2.3512e-06	274.46	77.114	60.067	17.691	3.0645e-06	24.67	5.9572e-05	3.41e-05	9.5924e-06	1018.4	4.7929e-07	3.8808e-07	1117.4	212.34	4.1471e-07	3.7391e-07	272.39	76.733	59.52	17.822	3.6373e-07	24.854	411.271	176.666	181.163	92.177	190.394	217.794	92.434	100.065	198.465	241.852	99.345	106.490	106.949	114.191	230.299	112.748	-8191	255	
52349.473	1	1	0	0	0.10734	0.15017	0.1806	0.031969	0.22956	0.15005	0.1819	0.11773	0.10479	0.083936	0.32884	0.38625	0.20608	0.28023	0.071203	0.34135	-4.6292	-4.4979	-4.1708	-5.2125	-4.1542	-4.4542	-5.0062	-4.0208	-4.8562	-4.6458	-4.1792	-4.9688	-4.4104	-4.4313	-4.8896	-4.0208	418.877	287.206	83.091	117.483	295.157	195.407	372.760	84.965	167.284	254.411	429.927	121.018	404.580	425.116	128.146	192.223	0.00075009	0.00017632	6.544e-05	1027.7	4.6934e-06	2.1997e-06	1124.3	215.15	2.9657e-06	3.209e-06	274.5	77.399	60.033	17.753	1.7931e-06	24.818	6.1714e-05	3.4195e-05	8.9638e-06	1016.6	4.4418e-07	3.5777e-07	1116.6	212.63	4.039e-07	3.1278e-07	272.48	76.543	59.575	17.833	3.3661e-07	24.888	407.433	238.105	150.186	92.186	214.985	216.289	92.594	100.140	204.068	223.847	99.432	106.323	106.873	113.939	231.294	112.797	-8191	255	
52349.570	1	1	0	0	0.1636	0.18879	0.12292	0.13704	0.26187	0.114	0.080428	0.15719	0.065783	0.15471	0.087867	0.097208	0.062655	0.1086	0.17963	0.049455	-4.5208	-4.5917	-3.9646	-4.9521	-4.35	-4.3229	-5.2042	-4.1021	-4.8208	-4.8417	-4.1333	-5.0188	-4.2979	-4.35	-4.8313	-4.0854	363.935	320.080	374.269	420.757	353.646	418.976	415.945	109.620	117.803	355.606	176.785	244.453	150.293	309.135	383.609	180.114	0.00075452	0.00021829	6.7464e-05	1025.6	4.9454e-06	4.1737e-06	1130.9	214.13	3.9674e-06	3.6888e-06	273.09	76.829	60.16	17.493	4.2568e-06	24.587	6.0533e-05	3.4859e-05	9.0586e-06	1017.8	4.6208e-07	3.7705e-07	1116.7	212.14	4.2408e-07	3.4837e-07	271.82	76.483	59.616	17.735	3.6063e-07	24.86	405.501	168.937	207.875	92.311	194.436	249.430	92.498	100.034	230.509	250.743	99.553	106.551	106.944	114.149	216.829	112.985	-8191	255	
52349.668	1	1	0	0	0.021327	0.097499	0.25819	0.18026	0.05594	0.17494	0.20452	0.14088	0.20171	0.15733	0.18729	0.10482	0.041636	0.13968	0.14456	0.029621	-4.3021	-4.5375	-4.0875	-5.0833	-4.2792	-4.0687	-5.225	-4.0271	-4.4583	-4.8208	-4.075	-4.9146	-4.5312	-4.1667	-5.0583	-4.3	248.702	247.340	340.000	188.170	356.695	423.373	321.795	158.098	185.780	233.777	353.723	414.743	269.489	424.033	177.780	404.978	0.00082523	0.00018261	7.229e-05	1029.6	4.1638e-06	3.0062e-06	1128.1	213.64	4.7867e-06	2.5868e-06	273.33	77.382	60.372	17.827	2.2876e-06	24.744	6.4817e-05	3.1824e-05	8.9042e-06	1016.7	4.7478e-07	3.6628e-07	1116.8	212.02	4.3515e-07	3.3157e-07	271.83	76.523	59.721	17.768	3.6743e-07	24.856	405.262	167.261	188.631	92.281	212.570	232.319	92.445	100.099	216.544	202.791	99.556	106.153	106.840	113.572	258.262	113.304	-8191	255	
52349.762	1	1	0	0	0.21572	0.11012	0.10125	0.22841	0.1766	0.27973	0.051322	0.26006	0.049196	0.13153	0.072855	0.084927	0.14347	0.27694	0.15365	0.099489	-4.1937	-4.8729	-4.0729	-4.9833	-4.4604	-4.2667	-5.0521	-4.2146	-4.4146	-4.9187	-4.0479	-4.7167	-4.6854	-4.0854	-4.8958	-4.325	298.412	287.518	190.526	408.466	160.364	403.146	236.154	89.211	98.947	234.701	369.491	254.891	223.551	213.304	157.104	162.952	0.00078371	0.00033448	6.5766e-05	1022.7	4.8113e-06	2.6235e-06	1128	212.75	3.9476e-06	2.5102e-06	273.82	77.571	60.135	17.455	2.415e-06	24.64	6.2433e-05	2.9532e-05	9.1159e-06	1016.6	4.5338e-07	3.2964e-07	1116.4	211.81	4.4954e-07	3.0533e-07	271.63	76.501	59.542	17.704	3.6399e-07	24.884	410.251	157.591	173.615	92.141	197.018	255.306	92.473	99.899	218.228	242.223	99.661	106.628	106.797	113.763	220.437	113.396	-8191	255	
52349.859	1	1	0	0	0.018278	0.0086323	0.21724	0.020394	0.17564	0.12132	0.1613	0.15794	0.30087	0.008179	0.17902	0.02798	0.21199	0.28608	0.062918	0.03565	-4.0646	-4.9854	-3.9188	-4.8792	-4.6771	-4.0354	-4.9896	-4.6167	-4.2208	-4.9313	-4.2208	-4.6937	-4.8187	-3.9708	-4.9437	-4.5771	368.707	245.493	431.725	179.469	382.571	379.705	350.999	382.947	92.336	336.208	393.283	92.038	292.889	301.084	134.317	374.254	0.00083509	0.00016895	7.1171e-05	1027.6	5.3755e-06	2.538e-06	1127.7	213.85	4.4198e-06	2.0122e-06	274.62	77.673	60.058	17.642	3.728e-06	24.709	6.448e-05	2.9777e-05	9.8659e-06	1015.7	4.2645e-07	3.5161e-07	1117.1	212.19	4.1343e-07	3.0836e-07	272.18	76.529	59.506	17.787	3.9791e-07	24.869	409.088	170.630	164.357	92.316	206.631	227.793	92.440	99.913	225.322	245.632	99.571	106.403	106.894	113.953	221.587	112.907	-8191	255	
52349.980	1	1	0	0	0.034302	0.14641	0.14201	0.18788	0.17591	0.18819	0.15602	0.12383	0.23882	0.17721	0.035421	0.15542	0.14687	0.18702	0.08223	0.25856	-3.8625	-5.0917	-4.1875	-4.7	-4.8208	-4.0375	-5.0667	-4.5938	-3.95	-4.8354	-4.3271	-4.375	-4.8917	-3.9625	-4.9979	-4.7854	218.463	316.250	281.481	225.576	409.460	249.431	395.285	394.622	266.173	418.818	331.247	405.519	160.712	403.496	97.704	355.983	0.00086158	0.0002836	8.1118e-05	1026.2	4.1172e-06	1.915e-06	1131.3	215.58	4.0493e-06	2.8495e-06	273.78	77.349	60.147	17.39	3.3322e-06	24.572	6.2521e-05	2.7825e-05	1.0792e-05	1016	4.2654e-07	3.7358e-07	1116.1	212.29	3.9998e-07	3.0975e-07	271.76	76.319	59.51	17.727	3.8999e-07	24.851	409.667	181.028	176.326	92.277	193.029	229.592	92.195	99.937	217.692	224.793	99.262	106.164	106.954	113.782	238.829	112.835	-8191	255	
52350.074	1	1	0	0	0.12801	0.105	0.11752	0.20863	0.057562	0.13423	0.12015	0.29037	0.10515	0.07896	0.11593	0.12993	0.15207	0.17798	0.23823	0.18025	-3.8729	-5.1583	-4.2021	-4.6208	-4.9333	-3.9979	-4.825	-4.4854	-3.9771	-4.8958	-4.4271	-4.2875	-4.9104	-3.9688	-4.6312	-4.7917	321.283	376.438	145.431	425.154	91.369	417.394	260.604	393.703	286.324	137.351	414.786	418.417	420.581	394.500	378.429	385.672	0.00086062	0.00024837	6.0034e-05	1026.9	5.1758e-06	2.3822e-06	1127.6	213.65	2.9689e-06	2.3996e-06	272.88	77.243	60.713	17.688	3.6512e-06	24.747	6.214e-05	3.1982e-05	9.7071e-06	1016	4.2398e-07	3.747e-07	1115.9	211.77	4.2178e-07	3.3183e-07	271.28	76.51	59.725	17.725	4.1349e-07	24.866	405.861	180.475	177.203	92.295	221.998	205.163	92.325	99.814	217.253	228.823	99.630	106.207	107.297	113.592	228.183	113.359	-8191	255	
52350.172	1	1	0	0	0.21365	0.14491	0.25575	0.27228	0.098741	0.17367	0.16092	0.053408	0.089531	0.047149	0.040714	0.19491	0.073027	0.123	0.1531	0.21639	-3.5583	-4.8958	-4.1083	-4.2188	-4.9875	-4.0979	-4.5896	-4.9292	-4.0188	-5.0583	-4.35	-4.1354	-5.0354	-4.3396	-4.4521	-4.8042	299.884	131.033	158.165	391.613	440.052	377.311	371.675	335.692	347.774	139.776	283.982	408.691	406.528	388.898	253.053	143.584	0.00085501	0.00016464	6.7343e-05	1026.5	6.3447e-06	2.7508e-06	1129.2	212.66	3.6929e-06	2.3333e-06	272.66	76.817	59.787	17.506	1.8585e-06	24.798	6.3908e-05	3.3666e-05	9.1424e-06	1017.3	4.3643e-07	3.6055e-07	1116.4	211.53	4.1088e-07	3.391e-07	271.35	76.541	59.464	17.768	4.0738e-07	24.878	411.946	182.475	182.610	92.298	219.469	246.643	92.152	100.167	209.075	208.577	99.571	106.527	106.821	113.873	232.835	113.067	-8191	255	
52350.242	1	1	0	0	0.069006	0.24874	0.1006	0.21558	0.1602	0.15997	0.10523	0.18976	0.2238	0.155	0.1498	0.10298	0.068945	0.13559	0.18842	0.064173	-3.4896	-4.7333	-4.5708	-4.1833	-4.9479	-4.1813	-4.5208	-4.9458	-3.9917	-4.7042	-4.5896	-4.0604	-4.9563	-4.2396	-4.2417	-4.9437	417.920	167.620	439.287	348.840	278.412	140.277	123.791	407.361	429.747	346.831	359.893	110.328	394.949	240.465	292.891	380.339	0.00086115	0.00023374	4.8245e-05	1029.9	5.7924e-06	3.2453e-06	1127.4	214.18	3.0545e-06	2.8024e-06	272.55	77.161	60.671	17.693	1.9748e-06	24.805	6.4172e-05	3.3357e-05	8.9086e-06	1016.2	4.5202e-07	3.8513e-07	1116.4	211.44	4.2868e-07	3.3122e-07	271.15	76.585	59.705	17.808	3.8448e-07	24.897	404.576	179.823	178.633	92.057	223.357	243.788	92.098	99.817	195.478	234.039	99.494	106.014	106.778	113.503	218.400	112.870	-8191	255	
52350.363	1	1	0	0	0.23175	0.22547	0.13913	0.07195	0.02172	0.23289	0.18895	0.29227	0.13618	0.18305	0.041672	0.23681	0.14531	0.27382	0.050735	0.15016	-3.5812	-4.7625	-4.5521	-4.0125	-4.9146	-4.4	-4.375	-5.1021	-3.9354	-4.5188	-4.9688	-3.9771	-4.9604	-4.3792	-4.1792	-4.9958	143.687	133.622	360.412	395.951	266.984	426.161	413.895	351.483	441.491	306.401	442.013	332.416	110.986	355.352	222.417	360.473	0.00087329	0.00024449	7.4619e-05	1029.2	5.4698e-06	2.2279e-06	1127.1	212.83	4.4681e-06	3.2381e-06	273.9	77.293	60.386	17.557	2.6105e-06	24.519	6.4781e-05	3.252e-05	8.9461e-06	1015.4	4.5296e-07	3.7193e-07	1116.5	211.41	4.0509e-07	3.5027e-07	270.99	76.409	59.628	17.694	4.0298e-07	24.89	405.839	187.250	183.251	92.453	220.123	223.851	92.281	100.260	238.691	223.921	99.837	106.435	106.996	114.055	234.240	113.214	-8191	255	
52350.461	1	1	0	0	0.06376	0.080272	0.22861	0.30819	0.18935	0.26676	0.0483	0.099832	0.2891	0.11658	0.091403	0.28952	0.098516	0.24146	0.092061	0.13796	-3.9021	-4.5292	-4.6417	-4.1917	-4.8146	-4.5667	-4.1687	-4.9875	-4.1542	-4.3542	-4.9208	-3.9021	-4.7917	-4.6687	-4.1583	-4.9646	136.703	175.679	114.513	436.960	375.695	93.672	218.670	226.548	126.038	223.623	179.342	99.213	195.224	97.834	346.737	205.176	0.00086413	0.00013651	7.1365e-05	1027.1	7.2695e-06	2.231e-06	1127.8	214.05	4.3798e-06	2.9529e-06	274.15	76.936	60.277	17.429	4.4786e-06	24.639	6.3226e-05	3.1974e-05	8.0903e-06	1016.6	4.6319e-07	3.4613e-07	1116.8	211.83	4.2808e-07	3.5079e-07	271.45	76.508	59.584	17.691	3.6726e-07	24.842	410.011	123.413	167.138	92.328	206.658	234.389	92.205	100.130	218.196	247.471	99.883	106.445	106.606	113.682	254.590	113.444	-8191	255	
52350.555	1	1	0	0	0.14578	0.19865	0.064075	0.2995	0.089722	0.075662	0.096975	0.15445	0.01737	0.17094	0.12269	0.075579	0.12827	0.049989	0.073697	0.20596	-4.0542	-4.3521	-4.8438	-4.2708	-4.7	-4.7188	-4.2021	-4.9646	-4.3979	-4.3021	-5.0938	-4.0396	-4.7333	-4.7333	-3.9583	-4.925	93.671	299.602	349.274	111.551	353.372	409.161	383.469	95.353	199.208	278.935	98.035	87.668	435.186	406.688	296.023	343.316	0.00088483	0.00021038	6.2424e-05	1027.1	5.59e-06	2.5299e-06	1128	213.46	3.8076e-06	2.2211e-06	272.32	77.203	60.208	17.64	4.1356e-06	24.618	6.6886e-05	3.3689e-05	7.9558e-06	1016.5	4.6199e-07	3.2651e-07	1114.8	211.8	4.5337e-07	3.4785e-07	271.52	76.309	59.491	17.795	3.583e-07	24.805	406.183	161.036	145.444	92.181	218.872	240.067	92.329	100.079	207.243	245.716	100.189	106.811	106.905	113.892	217.441	113.410	-8191	255	
52350.652	1	1	0	0	0.19548	0.14726	0.11065	0.32155	0.14228	0.14142	0.19498	0.15771	0.1337	0.094025	0.10499	0.017924	0.089238	0.038774	0.05074	0.086736	-4.1125	-4.0917	-4.9625	-4.2688	-4.5354	-4.8771	-4.1375	-5.1458	-4.3146	-4.1125	-5.0896	-4.1333	-4.7375	-4.9292	-4.0312	-4.9396	108.684	85.356	366.662	359.364	176.999	141.933	312.358	290.119	346.827	333.565	382.623	202.675	328.700	173.686	347.172	352.000	0.00080779	0.00022245	8.0408e-05	1025.7	2.7532e-06	1.5011e-06	1128.6	212.73	4.8563e-06	2.5909e-06	273.77	77.323	60.159	17.623	2.3804e-06	24.659	6.1326e-05	3.3523e-05	8.6682e-06	1016	4.3029e-07	3.1565e-07	1115.9	211.42	4.3106e-07	3.3945e-07	271.51	76.517	59.584	17.769	3.9739e-07	24.88	406.558	165.083	152.951	92.218	214.957	218.860	92.170	99.756	203.324	232.415	99.710	106.512	106.765	113.969	256.678	113.203	-8191	255	
52350.746	1	1	0	0	0.10867	0.3265	0.1285	0.15711	0.29344	0.10125	0.23059	0.26256	0.17576	0.029335	0.21545	0.12134	0.16701	0.15215	0.26204	0.15381	-4.2354	-4.1188	-5.0292	-4.3083	-4.3167	-4.9271	-4.1292	-4.75	-4.6188	-4.0563	-5.075	-4.2417	-4.3542	-4.9313	-4.0813	-4.6917	225.726	169.707	274.403	413.016	390.516	154.011	392.776	426.730	149.215	195.773	392.329	380.124	191.307	131.424	97.784	307.869	0.00083748	0.00017967	5.4689e-05	1024	4.528e-06	2.2692e-06	1130	213.69	6.0527e-06	3.4831e-06	273.87	76.815	60.139	17.726	3.1056e-06	24.544	6.2595e-05	3.2796e-05	8.9792e-06	1014.6	4.562e-07	2.8926e-07	1115.8	211.62	4.3813e-07	3.3148e-07	271.6	76.227	59.422	17.758	4.1771e-07	24.852	409.088	177.395	197.720	92.480	204.169	213.341	92.280	99.862	207.164	216.601	99.585	106.551	106.839	114.022	228.814	113.243	-8191	255	
52350.844	1	1	0	0	0.10887	0.076405	0.1336	0.084915	0.2003	0.32749	0.13502	0.10903	0.095783	0.046887	0.056794	0.14893	0.20044	0.24226	0.037671	0.11208	-4.2667	-3.9979	-4.7646	-4.3187	-4.2542	-5.0083	-4.1417	-4.8562	-4.875	-4.0146	-5.0875	-4.5	-4.1479	-5.1188	-4.0833	-4.6896	347.943	126.573	341.812	295.087	380.034	118.185	434.820	364.500	233.874	370.452	90.745	342.602	371.200	350.932	378.598	287.807	0.00078883	0.00033054	7.5504e-05	1029.2	3.4008e-06	2.6179e-06	1126.2	213.85	3.6088e-06	2.9338e-06	271.6	77.563	59.525	17.596	3.0978e-06	24.589	6.0027e-05	3.2741e-05	8.9174e-06	1015.8	4.285e-07	3.061e-07	1115.7	211.99	3.7809e-07	3.3469e-07	270.81	76.422	59.531	17.737	3.775e-07	24.804	408.132	158.942	154.897	92.453	239.470	226.444	92.711	100.221	206.890	225.263	99.628	106.641	106.501	113.881	237.889	113.317	-8191	255	
52350.938	1	1	0	0	0.1689	0.031397	0.17698	0.12953	0.1151	0.24461	0.28842	0.17414	0.1719	0.14406	0.18376	0.11173	0.067379	0.18663	0.19133	0.19917	-4.6021	-4.075	-4.8042	-4.6875	-3.9417	-5.0292	-4.1	-4.5604	-4.8021	-3.9562	-4.9229	-4.3646	-4.2208	-5.0104	-4.2333	-4.4167	367.304	109.189	306.881	393.306	161.275	440.768	418.105	402.734	188.601	288.914	291.786	373.279	268.033	189.419	282.956	95.277	0.00085259	0.00018442	6.8443e-05	1024.2	4.2595e-06	2.2297e-06	1130.6	212.66	3.4541e-06	1.5859e-06	273.16	77.308	59.912	17.606	3.823e-06	24.527	5.9609e-05	3.4021e-05	9.3497e-06	1015.4	4.2339e-07	3.338e-07	1115.8	211.53	3.9223e-07	3.6976e-07	271.19	76.573	59.455	17.811	4.0496e-07	24.9	406.096	150.995	173.295	92.461	207.935	254.688	92.340	100.004	188.435	260.737	99.673	106.690	106.646	114.000	219.264	113.134	-8191	255	
52351.059	1	1	0	0	0.17929	0.1288	0.14364	0.11648	0.21281	0.17275	0.30504	0.25359	0.040146	0.10421	0.12303	0.13262	0.046344	0.083762	0.16552	0.22443	-4.4583	-3.7812	-4.6312	-4.6625	-4.0375	-4.8875	-4.4771	-4.3604	-4.975	-3.8708	-4.7146	-4.7458	-3.9313	-5.0792	-4.2271	-4.15	384.687	254.891	296.090	383.140	211.035	269.329	375.931	401.211	404.970	372.660	326.898	253.711	273.970	344.002	218.208	386.008	0.00081554	0.00019447	7.1045e-05	1024.5	6.48e-06	2.6973e-06	1126.9	213.93	4.4994e-06	1.1735e-06	271.85	77.404	60.25	17.426	3.5368e-06	24.609	6.0475e-05	3.9956e-05	9.1667e-06	1015.3	4.5083e-07	3.2599e-07	1114.7	211.97	3.9112e-07	3.5928e-07	271.35	76.482	59.495	17.678	3.8379e-07	24.844	410.043	174.863	177.246	92.368	194.712	201.079	92.375	100.190	216.947	235.790	99.734	106.165	107.046	113.594	231.144	113.322	-8191	255	
52351.156	1	1	0	0	0.17995	0.19158	0.20255	0.20622	0.048944	0.16007	0.23011	0.086646	0.16568	0.19176	0.12544	0.23249	0.092589	0.31697	0.25915	0.11233	-4.55	-3.9417	-4.5958	-4.9062	-3.8937	-4.8208	-4.6687	-4.1854	-5.0354	-4.0417	-4.5625	-4.6375	-3.9667	-4.7354	-4.3625	-4.1917	257.289	145.899	121.521	97.505	311.256	341.102	183.562	308.931	198.640	315.296	360.131	84.114	293.609	407.495	302.223	337.722	0.00085939	0.00031444	5.0797e-05	1027.6	6.4595e-06	2.3286e-06	1131.6	213.44	4.8943e-06	3.6779e-06	273.39	77.256	59.525	17.614	3.7535e-06	24.681	6.0497e-05	3.2362e-05	9.0123e-06	1015.6	4.804e-07	3.6967e-07	1117.4	211.67	4.0194e-07	3.8907e-07	272.2	76.53	59.393	17.764	3.8559e-07	24.784	409.802	155.162	159.267	92.376	216.252	220.860	92.289	99.996	203.420	224.289	99.442	106.167	106.923	113.946	229.673	113.321	-8191	255	
52351.254	1	1	0	0	0.16884	0.047652	0.074345	0.21036	0.18323	0.17016	0.36832	0.049675	0.15604	0.21156	0.18092	0.13337	0.0532	0.065967	0.18712	0.09573	-4.6479	-4.0125	-4.4667	-5.125	-4.0708	-4.8271	-4.6542	-4.1271	-4.9792	-4.2375	-4.4292	-4.9396	-3.9125	-4.8438	-4.6458	-4.1687	287.652	138.675	334.865	369.770	341.439	382.158	429.370	385.543	239.667	416.587	311.641	411.664	368.797	392.857	102.347	97.312	0.00077998	0.00030826	8.5006e-05	1027.9	5.3765e-06	1.2725e-06	1128.9	214.05	4.257e-06	3.2744e-06	272.93	77.592	59.881	17.647	3.061e-06	24.611	6.2624e-05	3.546e-05	9.8968e-06	1015.5	4.7674e-07	3.5239e-07	1115.7	211.68	4.182e-07	3.5608e-07	271.43	76.602	59.443	17.78	3.4892e-07	24.9	404.388	163.302	173.276	92.161	196.593	253.899	92.554	100.067	196.610	213.519	99.621	106.522	107.070	114.044	221.975	113.012	-8191	255	
52351.348	1	1	0	0	0.14506	0.16515	0.14696	0.13362	0.26215	0.27011	0.29295	0.098775	0.1405	0.22448	0.21734	0.1263	0.045875	0.16298	0.1116	0.24919	-4.7146	-4.1333	-4.1875	-4.9375	-3.9604	-4.7479	-4.8333	-4.1396	-4.9979	-4.2979	-4.2521	-5.1	-4.0479	-4.6917	-4.5708	-3.9667	299.691	324.917	295.920	273.028	167.761	356.393	366.549	302.295	272.351	108.209	93.673	390.782	339.361	115.942	112.445	360.292	0.00083584	0.00024547	4.8687e-05	1030.3	6.2335e-06	2.1629e-06	1128.5	212.31	4.2665e-06	2.5114e-06	272.74	77.024	59.868	17.624	2.7993e-06	24.587	6.3497e-05	3.3278e-05	8.9064e-06	1018.2	4.7818e-07	3.4205e-07	1115.3	211.47	4.1318e-07	3.4681e-07	271.41	76.52	59.43	17.786	3.4737e-07	24.809	410.399	164.745	163.967	92.579	207.558	252.616	92.570	100.079	217.109	263.179	99.320	106.271	106.975	114.077	213.061	112.589	-8191	255	
52351.469	1	1	0	0	0.20456	0.036421	0.11313	0.1433	0.14289	0.1341	0.31073	0.10333	0.082953	0.17169	0.096528	0.26973	0.20943	0.13274	0.14342	0.078565	-4.6417	-4.4958	-4.2	-5.2833	-4.0792	-4.4667	-5.0958	-3.9625	-4.8917	-4.5792	-4.2854	-4.9958	-4.225	-4.3458	-4.825	-4.0437	303.296	134.274	199.778	95.814	392.617	223.298	375.578	428.934	263.343	177.384	90.279	299.428	325.803	307.707	117.180	245.306	0.00084087	0.00014676	4.0812e-05	1025.6	6.7649e-06	2.3432e-06	1133.6	214.27	3.173e-06	1.7169e-06	273.21	77.254	60.043	17.555	2.9714e-06	24.588	6.2837e-05	3.4116e-05	8.6395e-06	1016.5	4.7929e-07	3.5595e-07	1116.1	211.87	4.2237e-07	3.2265e-07	271	76.413	59.537	17.712	3.6149e-07	24.844	406.443	179.355	181.524	92.465	202.917	206.837	91.980	99.443	197.748	221.618	99.653	106.552	106.746	114.148	238.592	113.366	-8191	255	
52351.539	1	1	0	0	0.22875	0.295	0.12444	0.092601	0.14508	0.10357	0.03973	0.089664	0.090863	0.13468	0.092699	0.12449	0.23731	0.18433	0.13418	0.18223	-4.5208	-4.7583	-4.1167	-5.1875	-4.2854	-4.4583	-5.15	-4.2896	-4.6771	-4.7937	-4.2667	-4.9479	-4.3125	-4.3333	-5.0312	-4.0271	137.577	115.795	431.597	105.807	189.042	212.581	431.798	401.300	302.346	331.476	196.255	178.545	398.571	125.533	94.437	262.073	0.00083277	0.0001862	6.725e-05	1028	4.5751e-06	2.4586e-06	1130.8	212.76	5.2704e-06	2.1874e-06	272.38	77.575	60.38	17.834	2.7826e-06	24.76	6.4047e-05	2.86e-05	9.5438e-06	1016.4	4.4461e-07	3.2295e-07	1116.9	211.33	4.4094e-07	3.3451e-07	270.54	76.495	59.577	17.758	3.8611e-07	24.892	412.281	205.417	194.401	92.086	235.525	244.370	92.629	100.303	218.691	245.197	99.761	106.480	106.459	113.038	198.262	112.706	-8191	255	
52351.660	1	1	0	0	0.19269	0.048559	0.20945	0.21659	0.045097	0.22414	0.37958	0.077478	0.2092	0.10597	0.19983	0.22608	0.11123	0.081354	0.15622	0.24152	-4.3125	-4.6729	-3.8208	-5.1146	-4.3792	-4.125	-5.1167	-3.9833	-4.3083	-4.7917	-4.2063	-4.6896	-4.3646	-4.2	-5.0875	-4.2542	283.238	162.952	353.450	106.942	151.990	273.015	417.193	206.369	411.356	316.799	432.020	239.517	331.524	134.415	89.542	244.301	0.00083735	0.00029576	6.2854e-05	1028.2	8.0408e-06	3.0057e-06	1131.1	213.67	4.6071e-06	1.868e-06	273.43	76.887	60.469	17.565	2.4452e-06	24.501	6.3592e-05	2.9548e-05	9.4137e-06	1016.7	4.6293e-07	3.3945e-07	1116.7	211.64	4.113e-07	3.2516e-07	271.43	76.48	59.595	17.719	3.9911e-07	24.795	408.187	160.873	165.791	92.560	222.173	237.487	92.290	99.663	222.451	251.968	99.504	106.628	106.840	113.784	240.242	113.464	-8191	255	
52351.758	1	1	0	0	0.10912	0.13268	0.29186	0.078088	0.12702	0.10864	0.14992	0.30136	0.15551	0.16938	0.21413	0.22555	0.27129	0.18787	0.15658	0.18313	-4.2146	-4.8271	-3.8958	-4.7271	-4.5563	-4.0479	-5.1	-4.175	-4.2417	-4.9542	-4.1375	-4.7792	-4.7021	-4.0292	-4.8354	-4.3021	364.728	196.971	178.847	151.834	208.816	319.204	347.296	431.709	366.724	218.132	150.066	359.816	292.341	407.145	234.780	326.299	0.00087425	0.00020196	8.4043e-05	1027.2	3.0929e-06	3.1744e-06	1127.8	213.67	5.0344e-06	2.7963e-06	273.15	77.383	59.97	17.541	2.362e-06	24.688	6.1825e-05	3.0528e-05	1.0133e-05	1015.7	4.2194e-07	3.5273e-07	1116.2	211.64	4.0935e-07	3.2949e-07	270.98	76.464	59.413	17.703	3.6588e-07	24.835	409.947	169.885	174.351	92.312	209.465	223.124	92.429	99.930	207.187	222.775	99.618	106.683	107.217	114.087	227.878	113.178	-8191	255	
52351.852	1	1	0	0	0.21922	0.15006	0.39891	0.1305	0.086146	0.16032	0.1682	0.11239	0.15225	0.14397	0.16008	0.1059	0.15004	0.13079	0.067528	0.23534	-3.9104	-4.8708	-4.0667	-4.7229	-4.675	-3.8354	-5.0021	-4.3833	-4.2625	-4.9771	-3.9458	-4.7896	-4.6771	-4.1312	-5.0667	-4.3979	191.721	182.667	423.717	419.493	217.257	185.013	391.726	436.045	116.780	242.416	266.222	394.747	276.923	83.164	112.236	382.190	0.00086815	0.00015507	8.1979e-05	1026.1	5.1269e-06	3.7246e-06	1131.8	213.88	3.7427e-06	2.5183e-06	271.36	76.662	60.414	17.613	3.1283e-06	24.726	6.17e-05	3.1982e-05	9.9828e-06	1015.1	3.9279e-07	3.7905e-07	1117.4	211.6	4.0858e-07	3.4534e-07	270.46	76.379	59.574	17.781	3.8809e-07	24.822	409.583	162.547	157.931	92.407	199.911	224.767	92.322	100.045	215.586	224.173	99.460	106.568	107.088	114.045	228.911	113.368	-8191	255	
52351.949	1	1	0	0	0.12349	0.25457	0.067102	0.30512	0.094292	0.07921	0.10912	0.16381	0.18434	0.062833	0.13967	0.12543	0.065686	0.23399	0.20945	0.21294	-3.8271	-4.9521	-4.1167	-4.6208	-4.9563	-4.0312	-4.9333	-4.6937	-4.0437	-5.0521	-4.3333	-4.4938	-5.0229	-4.0312	-4.8542	-4.8688	384.933	266.795	345.793	376.614	101.776	241.497	322.947	434.216	335.733	285.779	424.872	345.954	121.033	399.372	143.654	388.702	0.00082073	0.00025627	6.6638e-05	1029.7	3.156e-06	1.5058e-06	1129.4	212.21	4.8575e-06	2.1745e-06	272.41	77.354	60.24	17.587	3.703e-06	24.518	6.0908e-05	3.2852e-05	9.6938e-06	1017	4.037e-07	3.681e-07	1116.4	211.42	4.1582e-07	3.2845e-07	270.76	76.577	59.556	17.724	3.7879e-07	24.774	410.983	186.355	150.318	92.167	194.280	256.355	92.221	100.005	217.964	210.702	99.530	106.478	106.494	113.482	219.886	112.787	-8191	255	
52352.070	1	1	0	0	0.094735	0.14147	0.089404	0.16468	0.083217	0.18767	0.12405	0.33115	0.11212	0.10635	0.17706	0.18111	0.27581	0.14986	0.02432	0.047829	-3.8229	-4.9938	-4.2396	-4.3938	-4.8187	-4.1667	-4.85	-4.8812	-3.9854	-5.1	-4.4542	-4.3854	-5.0229	-3.975	-4.6917	-4.6792	346.151	375.955	125.951	354.688	399.601	412.616	330.714	430.102	157.972	256.409	103.562	422.036	321.885	110.839	252.888	339.004	0.00083882	0.00039908	7.534e-05	1026.2	4.5367e-06	3.6315e-06	1135.9	213.84	2.3681e-06	1.2955e-06	271.8	76.846	60.176	17.679	3.4215e-06	24.518	6.5463e-05	3.3697e-05	9.0189e-06	1016.3	4.3089e-07	3.7036e-07	1117.8	211.8	4.2059e-07	3.3122e-07	270.19	76.367	59.487	17.728	3.8155e-07	24.807	409.739	161.016	173.015	92.472	216.742	207.915	92.316	99.976	204.960	254.650	99.125	106.382	107.246	113.884	218.740	113.278	-8191	255	
52352.141	1	1	0	0	0.18148	0.09018	0.047368	0.11154	0.19948	0.045018	0.085671	0.18493	0.11522	0.064449	0.10316	0.11357	0.053458	0.20207	0.16416	0.022077	-3.575	-4.9458	-4.2396	-4.4042	-4.9833	-3.9896	-4.6729	-4.7646	-4.0292	-4.8979	-4.6604	-4.1146	-5.0813	-4.1667	-4.425	-4.9792	199.612	404.475	198.622	363.508	305.207	263.272	332.357	398.606	403.293	159.107	104.529	107.296	324.622	376.748	283.672	436.432	0.00090038	0.0003498	7.0495e-05	1031.7	5.3375e-06	2.4885e-06	1133.4	212.51	3.7197e-06	3.0655e-06	271.57	77.153	60.265	17.734	3.7974e-06	24.521	6.7488e-05	3.1492e-05	9.2615e-06	1018.1	4.7e-07	3.7453e-07	1117.1	211.69	4.4945e-07	3.4439e-07	271.17	76.247	59.533	17.779	3.9902e-07	24.858	407.549	173.884	174.880	92.252	200.356	216.648	92.331	99.873	200.678	241.296	99.263	106.469	106.986	114.013	235.315	112.909	-8191	255	
52352.234	1	1	0	0	0.13923	0.082785	0.21666	0.31717	0.14049	0.11009	0.20739	0.27403	0.11976	0.09428	0.1664	0.24239	0.096921	0.092797	0.098536	0.22364	-3.8417	-4.8375	-4.5	-4.2271	-5.0042	-4.1208	-4.5604	-4.9771	-3.8312	-4.8333	-4.6875	-4.1083	-5.1146	-4.2896	-4.2812	-5.0771	317.966	99.136	210.479	370.612	101.668	114.932	347.062	355.736	105.821	293.884	103.303	389.222	301.045	238.149	153.710	118.062	0.00088237	0.00017303	7.6296e-05	1025.1	8.8826e-06	2.4313e-06	1134	214.15	3.3459e-06	1.4552e-06	275.88	77.136	59.643	17.528	3.6987e-06	24.478	6.5331e-05	3.5112e-05	8.1212e-06	1017.1	4.4742e-07	3.6932e-07	1117.9	211.72	4.2868e-07	3.6396e-07	271.85	76.438	59.336	17.764	3.8551e-07	24.872	410.180	169.541	168.055	92.288	208.311	210.742	92.314	100.114	204.073	259.426	99.398	106.387	106.584	114.037	246.777	113.771	-8191	255	
52352.332	1	1	0	0	0.06158	0.15821	0.15405	0.13691	0.18679	0.034859	0.2496	0.036282	0.033725	0.16153	0.11709	0.12343	0.074622	0.12122	0.15212	0.15635	-3.8646	-4.7562	-4.7708	-4.2042	-5	-4.4542	-4.4771	-5.0417	-4.25	-4.6271	-5.0417	-4.0833	-4.9396	-4.525	-4.2021	-5.0292	440.499	294.980	430.653	423.459	439.571	424.397	373.698	395.258	87.290	90.855	439.343	227.516	359.832	318.480	107.858	112.181	0.00082654	0.00018717	5.8009e-05	1026.9	5.98e-06	3.5383e-06	1128.3	212.85	4.5677e-06	2.6089e-06	272.65	76.767	60.4	17.585	3.6854e-06	24.53	6.4348e-05	3.1334e-05	8.1785e-06	1015.2	4.3157e-07	3.4275e-07	1115.3	211.6	4.3123e-07	3.1494e-07	271.7	76.359	59.389	17.737	3.7681e-07	24.81	405.611	215.095	153.834	92.246	192.894	245.242	92.189	100.134	222.445	224.868	100.030	106.313	107.478	114.097	224.842	113.165	-8191	255	
52352.430	1	1	0	0	0.069262	0.059188	0.11517	0.36308	0.12194	0.10788	0.12908	0.18058	0.06584	0.14301	0.23889	0.1453	0.19071	0.11397	0.086119	0.068456	-3.8417	-4.5833	-4.6937	-4.1104	-4.8063	-4.4667	-4.3583	-5.0875	-4.0437	-4.4542	-4.9375	-4.0771	-4.7042	-4.5	-3.8854	-5.0437	127.600	196.465	244.653	427.798	124.494	152.922	411.377	386.294	361.635	211.080	89.290	83.915	393.266	242.123	334.132	317.299	0.00078351	0.00020228	6.5382e-05	1027	6.5593e-06	1.0211e-06	1126.1	212.92	3.1567e-06	2.5935e-06	272.38	76.722	60.363	17.527	3.0337e-06	24.767	6.3827e-05	3.0813e-05	8.1896e-06	1015.3	4.5296e-07	3.0567e-07	1115.3	211.81	4.2144e-07	3.2655e-07	270.92	76.388	59.455	17.705	4.0204e-07	24.893	409.388	173.999	160.000	92.446	191.302	210.357	92.163	99.974	211.902	256.226	99.674	106.575	106.804	113.785	244.195	113.039	-8191	255	
52352.547	1	1	0	0	0.31971	0.085763	0.079785	0.058971	0.17878	0.067463	0.28642	0.17272	0.10788	0.10167	0.084721	0.20835	0.07099	0.06152	0.083155	0.090402	-3.9542	-4.3125	-4.9896	-4.0958	-4.6521	-4.6438	-4.2792	-5.05	-4.1479	-4.075	-4.9229	-4.1083	-4.6396	-4.6771	-3.9333	-5.0021	227.263	100.057	402.376	427.453	414.236	413.367	387.712	322.914	349.015	206.800	416.629	159.642	199.132	213.586	189.431	176.383	0.00086018	0.00018145	7.3003e-05	1026.1	5.4364e-06	8.3061e-07	1132.2	212.62	3.5654e-06	3.823e-06	274.61	76.987	59.94	17.653	3.2525e-06	24.779	6.2294e-05	3.1484e-05	8.9307e-06	1015.4	4.204e-07	3.0992e-07	1115.9	211.35	4.251e-07	3.2785e-07	271	76.445	59.295	17.697	4.1237e-07	24.879	409.224	161.155	168.376	92.306	195.030	222.043	92.459	100.151	207.625	220.500	99.502	106.776	106.942	113.695	229.417	113.425	-8191	255	
52352.645	1	1	0	0	0.074618	0.17535	0.084156	0.21114	0.17031	0.14555	0.10351	0.15306	0.034132	0.068985	0.010638	0.16736	0.22018	0.15141	0.12108	0.22924	-3.9479	-4.0563	-4.9771	-4.1271	-4.55	-4.6458	-3.9562	-4.9333	-4.4375	-4.1375	-5.0333	-4.1396	-4.5563	-4.8396	-3.8521	-4.8313	305.311	341.562	218.478	395.795	250.441	101.366	360.912	110.077	136.910	348.225	241.565	281.228	335.510	393.515	87.935	349.092	0.00089403	0.0002706	8.7293e-05	1024.3	4.927e-06	4.2784e-06	1130.7	213.72	3.5437e-06	3.4818e-06	274.11	76.868	60.159	17.438	3.277e-06	24.668	6.1678e-05	3.1066e-05	9.8482e-06	1013.8	4.4205e-07	3.4414e-07	1114.3	211.44	3.8559e-07	3.8119e-07	271.23	76.176	59.544	17.721	4.1667e-07	24.832	411.378	138.614	193.571	92.092	208.177	232.716	92.349	100.141	197.299	201.829	99.990	106.441	106.705	114.049	204.371	113.162	-8191	255	
52352.738	1	1	0	0	0.22819	0.24245	0.14067	0.12092	0.045774	0.21689	0.11254	0.12162	0.19599	0.086016	0.088515	0.16158	0.10053	0.018975	0.28389	0.30612	-4.1729	-4.0687	-4.7792	-4.3958	-4.2083	-4.7479	-4.25	-4.7708	-4.6729	-4.075	-4.9292	-4.2771	-4.1479	-4.95	-3.9688	-4.6083	394.926	213.508	100.340	409.253	149.354	174.691	229.505	398.951	155.337	268.828	295.875	349.607	426.730	370.935	360.957	388.723	0.00080377	0.0002937	7.1016e-05	1030.2	5.156e-06	3.2316e-06	1127.3	213.37	4.0358e-06	3.2307e-06	272.39	76.881	60.577	17.505	3.8526e-06	24.591	6.1568e-05	3.3515e-05	9.2946e-06	1015.5	4.6182e-07	3.3346e-07	1115.5	211.19	3.838e-07	4.018e-07	270.47	76.197	59.557	17.7	4.2477e-07	24.833	408.408	161.052	155.729	92.314	199.784	242.431	92.269	100.009	224.650	217.440	99.829	106.404	106.422	114.912	247.181	113.225	-8191	255	
52352.836	1	1	0	0	0.18348	0.10629	0.13517	0.12441	0.11443	0.086558	0.28957	0.16609	0.087135	0.1175	0.10071	0.24345	0.10455	0.068657	0.18029	0.27254	-4.4125	-3.9813	-4.7292	-4.4958	-4.2937	-5.0271	-4.1583	-4.6708	-4.6292	-4.0021	-4.8625	-4.5792	-4.1417	-4.8896	-4.0604	-4.6479	116.553	381.007	416.504	368.345	271.512	93.400	347.660	237.472	210.957	387.947	387.175	335.348	351.561	303.486	361.261	380.796	0.00074381	0.00030292	0.00010569	1022.1	5.2489e-06	2.8936e-06	1127.9	214.3	3.0141e-06	3.5238e-06	270.6	77.355	59.927	17.606	3.3059e-06	24.623	5.9433e-05	3.6424e-05	9.0873e-06	1012.9	4.4018e-07	3.4058e-07	1113.5	211.86	4.1956e-07	3.9825e-07	270.3	76.37	59.515	17.733	4.0479e-07	24.855	408.484	177.935	168.462	92.425	185.956	230.975	92.357	99.862	222.676	226.292	99.651	106.262	106.557	114.103	234.270	113.394	-8191	255	
52352.934	1	1	0	0	0.10794	0.23545	0.11493	0.11642	0.060558	0.15039	0.096514	0.024745	0.22987	0.053839	0.070051	0.089264	0.10024	0.13802	0.20526	0.074427	-4.5792	-3.9437	-4.8458	-4.625	-3.9792	-4.9229	-4.125	-4.6042	-4.9521	-3.9229	-4.7063	-4.5229	-4.1271	-4.9979	-4.1667	-4.4062	178.175	432.360	82.467	367.048	356.247	266.896	130.823	396.275	196.533	234.007	353.233	421.997	372.805	350.535	298.448	324.322	0.00086386	0.00037318	4.4339e-05	1024.4	6.4409e-06	2.726e-06	1130.2	212.07	4.4401e-06	2.469e-06	274.53	76.871	60.369	17.537	3.0366e-06	24.524	5.9998e-05	3.6068e-05	9.2681e-06	1014.2	4.5415e-07	3.3962e-07	1114.7	211.22	4.1522e-07	3.6179e-07	271.38	76.269	59.552	17.734	3.7569e-07	24.818	411.874	162.992	156.584	92.528	205.122	258.195	92.330	99.895	232.379	271.662	99.688	106.270	106.988	114.216	223.390	113.093	-8191	255	
52353.027	1	1	0	0	0.067209	0.17282	0.097448	0.36699	0.20835	0.1626	0.30636	0.11334	0.2739	0.10816	0.11227	0.1868	0.11044	0.11874	0.021901	0.14713	-4.6104	-3.9813	-4.8396	-4.7667	-3.9437	-5.0375	-4.4	-4.4042	-4.8229	-4.1396	-4.6458	-4.7875	-3.9708	-4.9854	-4.3063	-4.2188	120.155	156.731	339.322	370.730	301.760	150.325	329.138	408.190	275.024	400.195	385.223	267.851	268.818	351.118	425.964	237.453	0.00085156	0.00029799	5.2202e-05	1025.7	6.2353e-06	1.6961e-06	1126.2	212.81	4.0509e-06	1.4889e-06	273.89	77.099	60.003	17.522	2.0935e-06	24.638	6.1773e-05	3.5934e-05	8.7388e-06	1015.5	4.5279e-07	3.1895e-07	1114.5	211.27	4.1411e-07	3.7859e-07	271.17	76.33	59.443	17.697	3.5211e-07	24.825	407.665	183.314	162.788	92.325	208.721	267.039	92.494	99.972	220.791	234.107	99.537	106.769	106.482	113.755	190.804	112.972	-8191	255	
52353.148	1	1	0	0	0.042824	0.06285	0.12711	0.22149	0.081519	0.10349	0.11846	0.16287	0.0315	0.22266	0.27227	0.048953	0.065706	0.041787	0.29936	0.14206	-4.7875	-4.0021	-4.5938	-4.8438	-3.9917	-4.9708	-4.5229	-4.2667	-4.9583	-4.0521	-4.5646	-4.9167	-4.0396	-4.7562	-4.6729	-4.2854	282.348	265.455	100.518	417.202	152.048	113.018	376.960	390.263	105.953	295.207	386.103	269.928	161.695	330.834	173.809	425.013	0.00085728	0.00024604	8.4655e-05	1026.7	2.9372e-06	2.5633e-06	1129.2	212.2	4.5611e-06	3.1334e-06	270.8	76.316	60.306	17.583	2.5342e-06	24.4	6.2404e-05	3.6194e-05	8.4432e-06	1015.8	4.3174e-07	3.5126e-07	1114.9	211.29	3.8516e-07	3.5547e-07	270.33	76.407	59.453	17.733	3.4143e-07	24.819	404.164	164.016	168.078	92.449	196.003	233.472	92.496	100.238	209.209	227.611	99.295	106.716	106.858	114.014	217.181	113.068	-8191	255	
52353.246	1	1	0	0	0.12901	0.15933	0.19817	0.15004	0.0903	0.11698	0.1706	0.15212	0.13478	0.14347	0.080204	0.14999	0.13498	0.16858	0.061082	0.083909	-4.6562	-4.2063	-4.4271	-5.1271	-3.925	-4.8063	-4.625	-4.1625	-5.0583	-4.0896	-4.4146	-4.9896	-3.9958	-4.5792	-4.5875	-3.9104	402.652	293.602	87.165	353.963	405.933	237.082	435.331	84.495	389.773	178.198	189.439	401.678	382.595	129.059	330.759	296.273	0.00085548	0.00016174	5.6918e-05	1025.8	4.174e-06	2.9679e-06	1127.4	213.08	3.5942e-06	3.8052e-06	272.97	77.048	59.87	17.639	3.0994e-06	24.599	6.1186e-05	3.2773e-05	8.6329e-06	1016.8	4.5134e-07	3.6289e-07	1114	211.4	3.964e-07	3.3399e-07	270.64	76.29	59.365	17.73	3.3738e-07	24.791	410.988	149.512	146.127	92.440	213.338	209.517	92.309	99.917	210.344	207.168	99.368	106.340	106.863	113.742	236.583	113.433	-8191	255	
52353.340	1	1	0	0	0.18315	0.12102	0.0087912	0.088034	0.13182	0.19147	0.19955	0.28554	0.22397	0.008504	0.049203	0.11694	0.12641	0.075422	0.26985	0.10514	-4.5813	-4.1375	-4.0667	-4.9563	-3.9604	-4.5104	-4.8167	-4.0396	-4.9542	-4.4729	-4.2	-5.0083	-4.1958	-4.3313	-4.6396	-4.0854	254.942	169.391	165.715	255.015	428.646	172.296	361.512	331.409	253.525	124.907	260.688	123.832	82.452	97.440	326.045	171.413	0.00084058	0.00022834	4.7424e-05	1026	4.8496e-06	2.7115e-06	1129.1	212.71	3.0093e-06	3.6716e-06	271.36	76.57	60.18	17.585	3.6185e-06	24.68	6.0548e-05	3.1682e-05	9.3453e-06	1016.1	4.6651e-07	3.3563e-07	1114.9	210.65	4.2808e-07	3.6222e-07	270.55	76.199	59.535	17.711	3.4987e-07	24.834	405.656	169.975	168.447	92.083	190.734	215.988	92.377	100.149	214.994	227.253	99.258	106.507	106.622	113.796	215.438	113.138	-8191	255	
52353.438	1	1	0	0	0.21353	0.12904	0.16853	0.12076	0.12223	0.13981	0.24182	0.12977	0.26684	0.1942	0.24198	0.13041	0.040069	0.15988	0.20594	0.2173	-4.5125	-4.5271	-4.0188	-5.0917	-3.9917	-4.3354	-4.9354	-4.0021	-4.8271	-4.6083	-4.1771	-5.0938	-4.2271	-4.1917	-4.8583	-3.9958	401.957	326.601	392.615	87.985	250.740	91.312	409.865	319.537	393.323	378.833	116.910	387.874	246.345	166.875	295.504	411.513	0.00086018	0.00021571	7.4862e-05	1026.3	7.2095e-06	3.5222e-06	1128.6	213.14	3.9814e-06	1.5677e-06	270.97	76.827	60.456	17.511	3.0003e-06	24.592	6.481e-05	3.0022e-05	9.224e-06	1015.6	4.7137e-07	3.477e-07	1116.1	211.34	4.1837e-07	3.1243e-07	270.14	76.263	59.581	17.743	3.6734e-07	24.828	407.145	168.629	168.944	92.422	212.306	237.785	92.579	99.924	212.158	209.931	99.492	106.386	106.741	113.964	243.086	112.597	-8191	255	
#DATA ENDS
