BOXY.EXE: ISS Imagent and Oximeter Data Acquisition Program Version 0.80
Ascii Record File

#ACQ INFORMATION
2  Detector Channels 
16  External MUX Channels 
1  Auxiliary Channels 
5000  Waveform (CCF) Frequency (Hz)
1  Waveforms Skipped 
30  Waveforms Averaged 
1  Cycles Averaged 
16  Acquisitions per Waveform 
10.0806  Updata Rate (Hz) 

#FILE INFORMATION
TRUE -- External MUX Channel results are PARSED.
FALSE -- AC DC and Phase are NOT grouped.
TRUE -- Companion Program Settings File CREATED.
FALSE -- AC data not excluded
FALSE -- DC data not excluded
FALSE -- Phase data not excluded
FALSE -- Auxillary Chn. data not excluded
Tab delimiters

#CALIBRATION STATE
TRUE -- Waveform Calibration Values APPLIED.


#AUX CALIBRATION VALUES
Val Type	aux-1	

Term	1.0000e+00	
Factor	0.0000e+00	


#WF CALIBRATION VALUES
A = Detector Channel
Val Type	A-AC1	A-AC2	A-AC3	A-AC4	A-AC5	A-AC6	A-AC7	A-AC8	A-AC9	A-AC10	A-AC11	A-AC12	A-AC13	A-AC14	A-AC15	A-AC16	A-DC1	A-DC2	A-DC3	A-DC4	A-DC5	A-DC6	A-DC7	A-DC8	A-DC9	A-DC10	A-DC11	A-DC12	A-DC13	A-DC14	A-DC15	A-DC16	A-Ph1	A-Ph2	A-Ph3	A-Ph4	A-Ph5	A-Ph6	A-Ph7	A-Ph8	A-Ph9	A-Ph10	A-Ph11	A-Ph12	A-Ph13	A-Ph14	A-Ph15	A-Ph16	

Term	0.00000e+00	0.00000e+00	0.00000e+00	0.00000e+00	0.00000e+00	0.00000e+00	0.00000e+00	0.00000e+00	0.00000e+00	0.00000e+00	0.00000e+00	0.00000e+00	0.00000e+00	0.00000e+00	0.00000e+00	0.00000e+00	0.00000e+00	0.00000e+00	0.00000e+00	0.00000e+00	0.00000e+00	0.00000e+00	0.00000e+00	0.00000e+00	0.00000e+00	0.00000e+00	0.00000e+00	0.00000e+00	0.00000e+00	0.00000e+00	0.00000e+00	0.00000e+00	0.00000e+00	0.00000e+00	0.00000e+00	0.00000e+00	0.00000e+00	0.00000e+00	0.00000e+00	0.00000e+00	0.00000e+00	0.00000e+00	0.00000e+00	0.00000e+00	0.00000e+00	0.00000e+00	0.00000e+00	0.00000e+00	
Factor	1.00000e+00	1.00000e+00	1.00000e+00	1.00000e+00	1.00000e+00	1.00000e+00	1.00000e+00	1.00000e+00	1.00000e+00	1.00000e+00	1.00000e+00	1.00000e+00	1.00000e+00	1.00000e+00	1.00000e+00	1.00000e+00	1.00000e+00	1.00000e+00	1.00000e+00	1.00000e+00	1.00000e+00	1.00000e+00	1.00000e+00	1.00000e+00	1.00000e+00	1.00000e+00	1.00000e+00	1.00000e+00	1.00000e+00	1.00000e+00	1.00000e+00	1.00000e+00	X	X	X	X	X	X	X	X	X	X	X	X	X	X	X	X	

B = Detector Channel
Val Type	B-AC1	B-AC2	B-AC3	B-AC4	B-AC5	B-AC6	B-AC7	B-AC8	B-AC9	B-AC10	B-AC11	B-AC12	B-AC13	B-AC14	B-AC15	B-AC16	B-DC1	B-DC2	B-DC3	B-DC4	B-DC5	B-DC6	B-DC7	B-DC8	B-DC9	B-DC10	B-DC11	B-DC12	B-DC13	B-DC14	B-DC15	B-DC16	B-Ph1	B-Ph2	B-Ph3	B-Ph4	B-Ph5	B-Ph6	B-Ph7	B-Ph8	B-Ph9	B-Ph10	B-Ph11	B-Ph12	B-Ph13	B-Ph14	B-Ph15	B-Ph16	

Term	0.00000e+00	0.00000e+00	0.00000e+00	0.00000e+00	0.00000e+00	0.00000e+00	0.00000e+00	0.00000e+00	0.00000e+00	0.00000e+00	0.00000e+00	0.00000e+00	0.00000e+00	0.00000e+00	0.00000e+00	0.00000e+00	0.00000e+00	0.00000e+00	0.00000e+00	0.00000e+00	0.00000e+00	0.00000e+00	0.00000e+00	0.00000e+00	0.00000e+00	0.00000e+00	0.00000e+00	0.00000e+00	0.00000e+00	0.00000e+00	0.00000e+00	0.00000e+00	-1.54582e+01	-1.31826e+02	-1.18987e+02	-1.83770e+02	-1.30688e+02	-8.11710e+01	-1.58254e+02	-1.62015e+02	4.03488e+00	-7.49322e+01	-1.70683e+02	-1.70651e+02	-1.78365e+02	-1.76938e+02	-7.39507e+01	-1.49895e+02	
Factor	3.55145e-05	9.56148e-05	2.78179e-05	1.65747e-01	1.12877e-06	1.04670e-06	1.79515e-01	5.89105e-02	1.19376e-06	1.16421e-06	9.76336e-02	3.40614e-02	3.16364e-02	1.08962e-02	1.16736e-06	1.55437e-02	9.88457e-07	1.01235e-06	2.82120e-07	8.20202e-02	1.10315e-08	1.10754e-08	8.33426e-02	2.89522e-02	1.10356e-08	1.10748e-08	4.58140e-02	1.59180e-02	1.53075e-02	5.26684e-03	1.10529e-08	7.23307e-03	X	X	X	X	X	X	X	X	X	X	X	X	X	X	X	X	



#DISTANCE SETTINGS
A = Detector Channel
A-1	A-2	A-3	A-4	A-5	A-6	A-7	A-8	A-9	A-10	A-11	A-12	A-13	A-14	A-15	A-16	

2.5000e+00	3.0000e+00	2.5000e+00	3.0000e+00	2.0000e+00	3.0000e+00	1.5000e+00	3.0000e+00	3.0000e+00	3.0000e+00	3.0000e+00	3.0000e+00	3.0000e+00	3.0000e+00	1.5000e+00	3.0000e+00	

B = Detector Channel
B-1	B-2	B-3	B-4	B-5	B-6	B-7	B-8	B-9	B-10	B-11	B-12	B-13	B-14	B-15	B-16	

1.0000e+01	1.0000e+01	1.0000e+01	1.4400e+00	1.0000e+01	1.0000e+01	1.5100e+00	1.9400e+00	1.0000e+01	1.0000e+01	1.9900e+00	2.4900e+00	2.4100e+00	2.9000e+00	1.0000e+01	2.9800e+00	




#DATA BEGINS
time	group	step	mark	flag	A-AC1	A-AC2	A-AC3	A-AC4	A-AC5	A-AC6	A-AC7	A-AC8	A-AC9	A-AC10	A-AC11	A-AC12	A-AC13	A-AC14	A-AC15	A-AC16	A-DC1	A-DC2	A-DC3	A-DC4	A-DC5	A-DC6	A-DC7	A-DC8	A-DC9	A-DC10	A-DC11	A-DC12	A-DC13	A-DC14	A-DC15	A-DC16	A-Ph1	A-Ph2	A-Ph3	A-Ph4	A-Ph5	A-Ph6	A-Ph7	A-Ph8	A-Ph9	A-Ph10	A-Ph11	A-Ph12	A-Ph13	A-Ph14	A-Ph15	A-Ph16	B-AC1	B-AC2	B-AC3	B-AC4	B-AC5	B-AC6	B-AC7	B-AC8	B-AC9	B-AC10	B-AC11	B-AC12	B-AC13	B-AC14	B-AC15	B-AC16	B-DC1	B-DC2	B-DC3	B-DC4	B-DC5	B-DC6	B-DC7	B-DC8	B-DC9	B-DC10	B-DC11	B-DC12	B-DC13	B-DC14	B-DC15	B-DC16	B-Ph1	B-Ph2	B-Ph3	B-Ph4	B-Ph5	B-Ph6	B-Ph7	B-Ph8	B-Ph9	B-Ph10	B-Ph11	B-Ph12	B-Ph13	B-Ph14	B-Ph15	B-Ph16	aux-1	digaux	

14101.934	1	1	0	256	0.24561	0.10145	0.11899	0.31728	0.054766	0.17607	0.050581	0.21161	0.043619	0.10765	0.11552	0.31705	0.11995	0.21589	0.2004	0.093861	-1.9375	-2.8854	-2.4625	-2.7938	-2.8042	-2.4958	-2.9813	-2.7021	-2.3563	-3.0208	-2.6729	-2.6437	-2.8792	-2.2938	-2.6417	-2.6417	270.809	237.681	250.553	275.311	165.563	-13.708	14.280	267.472	63.209	148.901	281.609	249.033	316.417	299.227	325.198	48.280	0.00024984	0.00046981	6.7119e-05	1039.3	4.2126e-06	1.0864e-06	1140.1	216.32	1.7933e-06	6.4365e-06	275.33	78.217	60.948	17.856	2.0044e-06	25.494	0.0003129	0.00035576	0.00010332	1010	3.4678e-06	3.9736e-06	1106.2	213.51	3.5998e-06	4.1029e-06	272.24	78.299	61.476	18.857	4.1576e-06	26.154	240.201	181.463	12.166	-14.357	40.695	85.100	-14.116	-6.294	155.696	133.656	-7.443	0.492	0.791	7.513	63.358	6.710	-8191	255	
14102.030	1	1	0	0	0.14175	0.14442	0.21147	0.28061	0.23557	0.21497	0.15397	0.26737	0.14571	0.049699	0.36372	0.16835	0.066216	0.23337	0.078416	0.2653	-1.7687	-2.95	-2.5312	-2.5979	-3.1312	-2.2708	-3.0521	-2.95	-2.3771	-2.9229	-2.4333	-2.5333	-2.9125	-2.3417	-2.8	-2.7229	296.411	83.734	4.273	328.524	254.615	148.595	328.537	85.578	-8.570	176.061	284.876	82.730	157.618	225.316	154.004	-0.079	0.00019108	0.00031002	8.0374e-05	1049.8	8.6193e-06	3.8903e-06	1154	217.03	7.1047e-06	2.4492e-06	277.12	78.135	61.42	18.183	8.0786e-06	25.415	0.00034823	0.00040065	0.00010637	1018.3	3.834e-06	4.496e-06	1115.2	214.87	3.9012e-06	4.4302e-06	273.94	78.572	61.965	19.021	3.9452e-06	26.156	203.456	262.253	46.802	-14.224	114.136	147.126	-14.043	-6.388	241.332	162.945	-7.105	0.390	0.346	7.163	16.030	6.706	-8191	255	
14102.150	1	1	0	0	0.11334	0.037999	0.074818	0.26025	0.015074	0.21273	0.27378	0.035903	0.10439	0.17937	0.059125	0.13282	0.1666	0.099441	0.11181	0.22668	-1.9271	-2.7625	-2.5208	-2.4292	-3.0875	-2.4208	-2.7125	-2.8917	-2.3208	-2.8688	-2.7771	-2.4125	-3.0229	-2.2958	-2.5187	-2.9813	24.346	327.278	-10.155	291.986	199.430	242.165	289.013	236.108	53.296	331.668	176.945	283.234	196.404	212.093	173.689	257.087	0.00034877	0.00028133	7.6046e-05	1049	6.8412e-06	8.2196e-06	1152.8	216.86	2.6292e-06	2.3855e-06	278.03	78.273	61.207	18.12	2.1523e-06	25.546	0.00035784	0.00040037	0.00010207	1019.9	4.1321e-06	4.499e-06	1118.4	215.45	4.3875e-06	4.693e-06	275.73	79.234	63.25	19.292	4.3335e-06	26.454	256.253	20.609	258.665	-14.360	90.708	70.813	-14.085	-6.672	292.429	157.533	-7.337	0.278	0.659	7.417	73.356	6.564	-8191	255	
14102.245	1	1	0	0	0.16011	0.13447	0.057985	0.21301	0.16183	0.15444	0.33217	0.31427	0.17145	0.21096	0.14134	0.057412	0.18179	0.30595	0.2066	0.022101	-1.775	-2.6792	-2.7104	-2.4437	-2.9604	-2.3354	-2.7354	-2.9292	-2.3312	-2.875	-2.9313	-2.2958	-2.9313	-2.5187	-2.4896	-3.0292	68.469	304.689	171.837	308.796	291.307	275.700	296.476	321.965	76.184	182.757	-16.490	262.320	301.058	67.546	20.110	313.162	0.00043027	0.00049048	3.4434e-05	1053.5	3.7769e-06	1.2725e-06	1157.1	219.32	2.7599e-06	5.9757e-06	279.64	78.668	61.597	18.246	1.9525e-06	25.739	0.00042186	0.00042904	0.000109	1027.4	4.5957e-06	4.513e-06	1121.4	216.57	4.5659e-06	4.3481e-06	275.68	79.209	63.202	19.046	3.9759e-06	26.391	271.459	5.231	202.484	-14.289	168.809	48.926	-14.366	-6.417	16.623	21.255	-6.881	0.663	1.051	7.106	215.010	6.278	-8191	255	
14102.341	1	1	0	0	0.171	0.069638	0.23651	0.27301	0.091359	0.31019	0.096794	0.19338	0.17136	0.086027	0.049426	0.10857	0.20038	0.41559	0.14957	0.088189	-2.1146	-2.6875	-2.8438	-2.4375	-2.9146	-2.5875	-2.5354	-2.925	-2.4583	-2.8438	-2.8958	-2.1813	-2.8625	-2.5854	-2.3187	-3.025	169.195	276.260	322.606	233.992	-16.728	303.975	243.694	274.976	144.261	320.088	306.045	308.217	210.925	264.102	311.162	161.036	0.0002484	0.00031878	8.7268e-05	1054	3.7603e-06	2.2591e-06	1154.1	218.51	3.6549e-06	1.8902e-06	278.55	78.993	61.276	17.906	2.0554e-06	25.398	0.00041276	0.00038388	0.00010001	1026	4.5114e-06	4.086e-06	1116.6	216.29	4.4412e-06	4.0383e-06	273.21	79.103	62.568	18.711	3.7382e-06	26.272	261.340	96.779	249.671	-14.342	61.394	135.571	-14.121	-6.285	91.499	197.702	-6.909	0.573	0.509	7.613	258.629	6.997	-8191	255	
14102.437	1	1	0	0	0.15659	0.07479	0.32344	0.2739	0.14762	0.11209	0.1069	0.078982	0.10278	0.12365	0.22473	0.36477	0.13964	0.10689	0.087472	0.33492	-1.9188	-2.4604	-2.8667	-2.3271	-2.9333	-2.7354	-2.6417	-3.0812	-2.3688	-2.65	-3.0354	-2.475	-2.9625	-2.6729	-2.4167	-2.9917	311.053	178.439	137.420	316.627	51.759	213.643	139.567	251.428	107.861	142.397	305.136	176.224	220.292	53.506	56.286	103.580	0.00020713	0.00027813	6.5097e-05	1042.1	8.6528e-06	1.7909e-06	1151.5	217.72	5.4305e-06	2.1507e-06	279.05	78.131	60.997	17.976	3.1782e-06	25.57	0.00039496	0.00036626	9.547e-05	1019.2	4.4889e-06	4.1121e-06	1112.2	217.01	4.4638e-06	4.0728e-06	274.87	79.471	62.742	18.8	3.9185e-06	26.631	257.008	34.753	67.603	-13.962	331.205	33.341	-14.119	-6.314	229.630	65.818	-7.425	0.358	1.050	7.620	5.843	6.524	-8191	255	
14102.533	1	1	0	0	0.2041	0.18655	0.156	0.3673	0.091972	0.089068	0.064564	0.21394	0.12691	0.17947	0.20529	0.099706	0.1708	0.076854	0.021664	0.11407	-2.0917	-2.5542	-2.8875	-2.3583	-2.6208	-2.6917	-2.2896	-2.9396	-2.5479	-2.4188	-2.9229	-2.4667	-2.7104	-2.7792	-2.3583	-2.9292	231.886	190.269	148.859	313.350	96.471	39.182	157.543	-9.711	123.432	105.603	-0.245	325.802	272.549	9.966	331.616	165.069	3.5433e-05	0.00041618	0.00010825	1047.7	6.6823e-06	8.2081e-06	1147.8	217.62	6.0687e-06	4.0167e-06	277.56	78.881	61.329	18.148	1.851e-06	25.367	0.000393	0.00036698	9.9038e-05	1023.6	4.2902e-06	3.9013e-06	1112.4	217.14	4.2159e-06	3.9392e-06	274.3	79.698	62.323	18.724	4.002e-06	26.68	280.243	36.578	-2.039	-14.203	17.127	76.033	-14.055	-6.683	140.320	94.470	-7.203	0.130	1.052	7.179	152.778	6.657	-8191	255	
14102.629	1	1	0	0	0.19542	0.1875	0.083767	0.16375	0.037214	0.25812	0.22106	0.059406	0.13529	0.3151	0.029477	0.14387	0.098535	0.098229	0.23433	0.09139	-2.0667	-2.3646	-2.8688	-2.5187	-2.7562	-2.9458	-2.3812	-3.0583	-2.4708	-2.2625	-2.9771	-2.2875	-2.65	-2.9583	-2.1521	-2.7271	118.315	-20.613	319.187	-2.099	79.923	228.158	246.335	165.260	270.962	135.062	256.212	15.421	167.431	292.069	152.829	91.951	5.8117e-05	0.00027518	7.4928e-05	1046.7	6.0134e-06	4.2397e-06	1143.7	217.25	3.5906e-06	4.5327e-06	277.1	78.026	60.931	17.936	5.6803e-06	25.434	0.0003689	0.00035053	0.00010169	1021.1	4.0081e-06	3.7603e-06	1109.2	216.14	3.9262e-06	3.7041e-06	273.5	79.088	61.487	18.616	4.1153e-06	26.368	304.352	232.884	121.020	-14.291	77.591	179.792	-14.416	-6.178	270.248	88.888	-7.245	0.325	0.486	6.724	177.626	6.946	-8191	255	
14102.750	1	1	0	0	0.18576	0.023359	0.12011	0.17465	0.28907	0.31086	0.36148	0.33376	0.39714	0.13126	0.25094	0.264	0.15904	0.13529	0.18674	0.025537	-2.2729	-2.3292	-3.075	-2.5583	-2.6521	-2.8479	-2.5021	-2.9125	-2.8104	-2.6979	-2.9042	-2.4729	-2.5062	-3.0958	-2.3375	-2.8396	121.385	299.847	49.979	294.977	2.203	32.240	220.388	294.056	330.002	71.283	98.394	323.291	-5.223	220.205	210.462	66.006	0.00014803	0.00045957	0.00019125	1043.5	4.1152e-06	3.7331e-06	1144.2	218.09	1.6004e-06	4.2841e-06	277.44	77.83	60.721	18.158	2.9913e-06	25.405	0.00034957	0.00033495	0.00010458	1015.9	3.8556e-06	3.6346e-06	1110.4	216.05	3.7649e-06	3.644e-06	274.03	78.746	61.543	18.562	4.1831e-06	26.216	226.811	98.274	103.765	-14.239	332.588	276.141	-14.318	-6.659	165.162	145.429	-7.343	0.179	0.651	7.535	196.473	6.595	-8191	255	
14102.846	1	1	0	0	0.15517	0.30236	0.24013	0.32613	0.054554	0.15605	0.18778	0.30542	0.17454	0.34105	0.080034	0.27304	0.057849	0.054732	0.025844	0.043066	-2.3	-2.2042	-2.9271	-2.5604	-2.3271	-2.9938	-2.575	-2.7562	-2.7896	-2.4458	-2.8792	-2.5	-2.4604	-3.0625	-2.2375	-2.5958	48.533	158.504	184.208	294.440	-22.276	193.682	222.739	184.329	134.596	245.997	290.115	-3.176	160.649	14.806	152.059	188.823	0.00013798	0.00052505	0.00016118	1041.6	1.1035e-06	3.5227e-06	1139.3	215.86	3.3306e-06	3.2615e-06	277.27	78.211	60.732	18	6.948e-06	25.65	0.00033152	0.00033772	0.00010689	1012.9	3.667e-06	3.6915e-06	1107.1	214.28	3.5843e-06	3.7009e-06	274.38	78.553	61.221	18.642	4.1801e-06	26.163	292.132	89.430	47.622	-14.568	186.238	200.639	-14.527	-6.397	185.978	132.521	-6.920	0.228	0.602	7.541	93.258	6.493	-8191	255	
14102.942	1	1	0	0	0.21375	0.16945	0.21685	0.060003	0.096145	0.18737	0.29761	0.036281	0.31366	0.15409	0.30213	0.17475	0.064801	0.071645	0.25693	0.23915	-2.4125	-2.1375	-2.7562	-2.825	-2.3229	-2.8854	-2.1333	-2.6458	-2.9542	-2.1417	-2.8104	-2.6583	-2.3208	-2.9688	-2.3896	-2.4313	169.905	55.615	141.641	331.023	328.610	65.876	223.908	198.433	27.130	314.894	233.558	320.118	307.564	-19.614	181.155	273.809	0.00027975	0.00066624	0.0001012	1040.1	2.0948e-06	3.4577e-06	1139.8	215.59	2.9626e-06	3.5752e-06	275.51	77.665	61.383	17.931	2.5397e-06	25.4	0.00032348	0.00035536	0.00010643	1009.1	3.5765e-06	3.9588e-06	1104.1	214.07	3.5301e-06	4.0653e-06	272.99	78.09	61.364	18.699	4.1301e-06	26.024	238.010	107.118	78.597	-14.224	314.008	75.741	-14.480	-6.643	160.591	211.170	-7.457	0.185	0.413	7.749	69.688	6.447	-8191	255	
14103.014	1	1	0	0	0.16566	0.22067	0.10659	0.23603	0.16972	0.26287	0.27689	0.12899	0.23796	0.18438	0.15187	0.073716	0.19688	0.019373	0.064298	0.21148	-2.4542	-2.0187	-2.8104	-2.7396	-2.25	-2.9188	-2.6021	-2.275	-2.9604	-2.1937	-2.8042	-2.7167	-2.2083	-2.9979	-2.6	-2.375	118.906	-9.029	8.748	334.453	170.044	329.654	309.655	326.833	165.632	181.246	146.447	99.935	-18.734	183.146	56.597	53.209	0.00016506	0.00041479	1.3562e-05	1036.4	4.6254e-06	3.4278e-06	1132	216.14	4.6097e-06	2.2761e-06	275.61	78.143	61.086	18.072	6.988e-06	25.539	0.00032705	0.00038145	0.00010632	1007.4	3.6313e-06	4.226e-06	1098.9	213.72	3.6672e-06	4.3046e-06	272.76	78.184	61.388	18.896	4.0162e-06	26.13	232.722	28.084	55.562	-14.341	23.292	56.612	-14.089	-6.722	97.838	150.251	-7.025	0.362	0.562	7.292	116.665	6.525	-8191	255	
14103.135	1	1	0	0	0.17777	0.18152	0.17546	0.1343	0.069941	0.14352	0.16815	0.032661	0.2332	0.21685	0.077675	0.16258	0.052123	0.3498	0.030365	0.25593	-2.5125	-2.3854	-2.6479	-2.9167	-2.3229	-2.8	-2.7229	-2.4854	-2.9313	-2.3521	-2.7104	-2.8646	-2.2333	-2.8229	-2.6104	-2.4542	-21.179	171.356	247.949	256.026	-1.820	26.233	149.971	50.889	252.664	311.644	160.538	10.547	327.350	298.097	215.869	187.482	0.00046623	0.0002107	0.00012025	1038.9	2.0125e-06	4.5565e-06	1133	216.47	6.4089e-06	3.0886e-06	275.7	77.42	60.989	17.835	5.3896e-06	25.612	0.00034805	0.00040655	0.00010295	1007.7	3.9576e-06	4.3987e-06	1099.4	213.83	3.969e-06	4.4103e-06	272.95	78.106	61.842	18.827	3.9522e-06	26.091	242.204	241.755	-16.045	-14.198	200.084	51.020	-14.085	-6.648	248.757	183.243	-7.429	0.301	0.682	7.617	124.706	6.536	-8191	255	
14103.231	1	1	0	0	0.076385	0.24763	0.12803	0.21183	0.18685	0.045121	0.45476	0.2089	0.18487	0.17699	0.25328	0.13656	0.14024	0.14561	0.21224	0.24622	-2.6875	-2.3896	-2.4792	-2.9125	-2.1771	-2.7917	-2.7646	-2.3187	-3.0167	-2.4417	-2.6	-2.975	-2.2042	-2.775	-2.7146	-2.4542	157.198	74.146	115.707	266.637	71.874	233.433	262.727	287.961	263.431	201.227	296.172	238.302	312.886	-22.730	98.668	329.308	9.9116e-05	0.00034564	9.9248e-05	1035.5	1.7985e-06	1.6466e-06	1140.6	216.61	3.9925e-06	2.8239e-06	276.29	78.21	60.748	17.958	3.5736e-06	25.309	0.00038019	0.00040487	0.00010236	1008.5	4.2445e-06	4.3462e-06	1103	214.06	4.3195e-06	4.3423e-06	272.85	78.335	62.215	18.846	3.9031e-06	26.055	269.089	49.104	15.821	-14.299	121.065	77.911	-13.862	-6.666	241.758	209.211	-7.182	-0.229	0.938	7.345	113.253	6.740	-8191	255	
14103.325	1	1	0	0	0.27326	0.24604	0.48226	0.22638	0.093697	0.30158	0.16788	0.13895	0.092976	0.20967	0.12968	0.037956	0.092194	0.26664	0.14124	0.27834	-2.5521	-2.4292	-2.3854	-3.0167	-2.3167	-2.7542	-3.2042	-2.4542	-3.0417	-2.2229	-2.5583	-2.9417	-2.2687	-2.7208	-2.7292	-2.3688	34.818	0.582	157.757	313.598	15.500	211.666	221.517	117.987	166.947	254.478	285.487	166.839	0.568	194.037	323.494	58.714	0.0004073	0.0003532	5.2277e-05	1037.3	3.3367e-06	2.0347e-06	1139.6	216.4	2.0668e-06	1.7438e-06	277.33	78.05	60.7	17.863	2.6078e-06	25.457	0.00040275	0.0003894	9.9786e-05	1010.3	4.4546e-06	4.1992e-06	1101.3	214.63	4.5343e-06	4.2055e-06	273.39	78.573	62.487	18.807	3.9184e-06	26.292	268.278	46.356	38.917	-14.352	24.486	195.733	-14.163	-6.527	-7.276	-0.179	-6.846	0.234	0.587	7.409	31.356	6.718	-8191	255	
14103.421	1	1	0	0	0.14353	0.093161	0.14403	0.17521	0.21103	0.2142	0.24473	0.084021	0.22547	0.19808	0.18246	0.15947	0.03055	0.25884	0.098821	0.15829	-2.5917	-2.4958	-2.5583	-3.0146	-2.5021	-2.7229	-3.1604	-2.4896	-2.8521	-2.7021	-2.6208	-3.125	-2.3333	-2.6479	-2.9792	-2.2958	61.441	97.250	32.515	18.780	-22.289	216.083	282.984	328.313	224.885	53.105	267.424	208.820	218.102	22.935	318.764	274.280	0.00024978	0.00031744	3.684e-05	1036.7	3.1455e-06	2.1543e-06	1137.7	217.06	4.816e-06	5.0324e-06	278.11	77.778	61.413	18.022	3.3915e-06	25.451	0.00041627	0.00038739	0.00010035	1014.1	4.6008e-06	4.2251e-06	1102.1	215.76	4.5993e-06	4.1976e-06	273.39	79.243	62.744	18.804	3.932e-06	26.625	239.143	75.077	94.716	-14.160	84.177	24.410	-14.270	-6.505	210.396	156.544	-6.851	0.784	0.824	7.264	-10.208	7.107	-8191	255	
14103.542	1	1	0	0	0.2723	0.067066	0.11811	0.1668	0.050911	0.15096	0.36258	0.15161	0.33673	0.095621	0.22581	0.080829	0.17186	0.1701	0.12728	0.16187	-2.6104	-2.6646	-2.4708	-3.2146	-2.4708	-2.5729	-3.1333	-2.4021	-2.7146	-2.725	-2.4979	-3.0625	-2.4688	-2.6292	-3.0812	-2.3854	149.819	326.826	268.113	285.364	15.232	166.927	229.231	236.652	21.669	118.610	20.280	52.834	155.340	271.371	8.592	246.626	2.1663e-05	0.00013054	8.0301e-05	1042	2.8698e-06	2.5614e-06	1143.1	218.07	5.1178e-06	2.4147e-06	278.07	77.691	60.91	18.024	4.5532e-06	25.266	0.00040988	0.00037545	0.00010002	1019.1	4.472e-06	4.1203e-06	1106.4	217.02	4.449e-06	4.0689e-06	273.48	79.477	62.416	18.788	4.0153e-06	26.601	253.627	331.671	119.172	-13.970	94.384	52.058	-13.921	-6.509	184.622	106.423	-6.801	0.236	0.593	7.628	126.862	6.641	-8191	255	
14103.614	1	1	0	0	0.203	0.16045	0.17018	0.30236	0.13597	0.032843	0.17968	0.30807	0.20923	0.085635	0.10267	0.076605	0.27241	0.15612	0.14709	0.22867	-2.2104	-2.7812	-2.3563	-3.0271	-2.6583	-2.4042	-3.1479	-2.3208	-2.6833	-2.8375	-2.3104	-2.9	-2.7083	-2.3646	-2.7958	-2.3208	284.485	256.385	8.848	282.645	149.758	29.458	230.065	252.838	25.393	227.149	-24.038	264.309	1.294	93.580	194.863	332.870	9.173e-05	0.00028975	0.00010028	1041.9	5.4931e-06	3.9185e-06	1140	217.88	9.577e-06	1.2648e-06	277.7	78.348	61.502	18.019	6.795e-06	25.813	0.00039285	0.00036569	0.00010315	1021	4.3013e-06	4.0284e-06	1107.5	217.44	4.2795e-06	3.9894e-06	274.56	79.715	62.409	18.739	4.2772e-06	26.753	292.767	93.246	168.492	-14.142	281.850	65.204	-13.857	-6.649	178.280	132.296	-6.408	0.439	0.615	6.919	121.504	6.690	-8191	255	
14103.710	1	1	0	0	0.11376	0.076319	0.18453	0.023931	0.11002	0.31419	0.29268	0.18023	0.096931	0.34914	0.21837	0.12369	0.15322	0.26904	0.16896	0.29889	-2.225	-2.8583	-2.2146	-3.0292	-2.4688	-2.3583	-3.1729	-2.3229	-2.3792	-2.8312	-2.4625	-2.7896	-2.7458	-2.3792	-2.9604	-2.3854	251.548	217.794	259.060	231.638	14.808	34.970	-12.437	-24.263	278.747	283.000	252.724	309.272	314.364	228.355	-9.926	318.184	7.5908e-05	0.0004553	6.9015e-05	1043.3	7.9516e-06	1.2353e-06	1145.4	217.57	2.4785e-06	1.9175e-06	276.64	78.317	61.423	17.946	1.1316e-06	25.513	0.00037867	0.00035739	0.00011093	1021.2	4.1995e-06	3.9489e-06	1111.3	217.08	4.1775e-06	3.9431e-06	275.9	79.685	62.037	18.733	4.5369e-06	26.64	230.573	63.006	144.663	-14.149	132.827	63.497	-13.792	-6.454	257.193	46.148	-6.739	0.269	1.064	7.560	172.578	6.524	-8191	255	
14103.830	1	1	0	0	0.40208	0.050389	0.072111	0.25341	0.20566	0.075404	0.14452	0.053711	0.12828	0.27894	0.036931	0.070684	0.057425	0.1009	0.1016	0.30607	-2.0729	-3.0417	-2.3229	-3.1375	-2.6813	-2.4479	-3.2271	-2.5917	-2.55	-2.9479	-2.5146	-2.8833	-2.925	-2.3229	-3.0812	-2.6458	173.303	199.227	158.549	274.049	62.174	71.841	289.591	45.356	16.441	3.882	331.026	179.611	300.257	31.351	-23.269	2.364	0.00025437	0.00041586	6.0006e-05	1047.2	2.7667e-06	1.2855e-06	1141.7	218.27	6.7341e-06	1.3876e-06	278.4	77.966	61.05	18.011	3.9366e-06	25.376	0.00037474	0.00036292	0.00011687	1021	4.0859e-06	3.996e-06	1113.2	216.82	4.0901e-06	4.0303e-06	277.11	79.229	62.051	18.857	4.7052e-06	26.485	275.555	41.021	39.560	-14.248	37.898	328.699	-13.966	-6.584	224.973	248.184	-6.964	0.171	0.721	7.326	-15.781	6.696	-8191	255	
14103.927	1	1	0	0	0.29297	0.13751	0.14365	0.35568	0.059951	0.22612	0.34338	0.32172	0.1082	0.17972	0.15161	0.17277	0.079795	0.01123	0.21332	0.071431	-2.1458	-2.8375	-2.2917	-2.6979	-2.8187	-2.3312	-3.2417	-2.7333	-2.4396	-2.8875	-2.3292	-2.6021	-2.675	-2.2354	-2.8688	-2.8042	327.162	333.444	-4.236	273.234	321.418	160.854	286.007	275.653	222.631	153.870	271.410	310.028	41.281	243.149	126.037	257.170	0.00018276	0.00052963	6.6442e-05	1046.4	1.3562e-06	2.6045e-06	1149.8	217.7	3.9727e-06	7.28e-06	276.55	77.855	60.752	18.252	5.3172e-06	25.483	0.00037023	0.00038407	0.00012025	1020	3.9971e-06	4.2975e-06	1117.4	216.67	4.0594e-06	4.363e-06	276.86	79.213	62.074	19.075	4.7179e-06	26.494	156.936	77.540	246.292	-14.240	6.783	28.374	-14.234	-6.722	-2.211	152.639	-7.212	0.165	0.356	7.290	49.008	6.486	-8191	255	
14104.023	1	1	0	0	0.09099	0.11222	0.15839	0.29767	0.026268	0.15873	0.29929	0.072219	0.10266	0.18511	0.091954	0.23273	0.25373	0.1354	0.1225	0.17506	-1.9479	-3.1771	-2.3146	-2.8979	-3.0104	-2.3792	-2.9417	-2.9062	-2.3104	-2.9771	-2.5042	-2.4062	-2.8	-2.4562	-2.7854	-2.7083	189.865	77.714	234.365	-11.001	301.922	241.883	273.705	136.244	291.671	146.411	-11.688	258.850	111.080	231.526	290.732	91.512	0.00011968	0.00040148	0.00013223	1049.6	2.1865e-06	4.917e-06	1148.9	218.01	3.3712e-06	4.4479e-06	279.42	78.474	61.232	17.999	3.9109e-06	25.666	0.00036742	0.00041461	0.00011789	1022.1	4.0358e-06	4.6788e-06	1120.4	216.96	4.153e-06	4.6867e-06	277.99	79.495	62.506	19.245	4.7036e-06	26.652	257.934	133.886	22.542	-14.584	41.517	108.810	-14.241	-6.510	142.177	76.882	-7.127	-0.054	0.302	6.890	82.907	6.613	-8191	255	
14104.119	1	1	0	0	0.27633	0.18358	0.043528	0.36918	0.10882	0.2031	0.21871	0.23778	0.1706	0.018041	0.20183	0.064922	0.15098	0.1277	0.22865	0.2494	-1.9125	-2.9229	-2.3917	-2.6437	-2.9938	-2.5292	-2.725	-3.0146	-2.3604	-3.0042	-2.6229	-2.5354	-3.1188	-2.3083	-2.6479	-2.975	139.497	167.815	119.077	-6.550	300.420	161.411	278.737	222.828	261.793	229.851	-9.412	42.437	13.547	62.599	88.231	18.757	0.00040626	0.00030045	0.00016226	1056	2.8111e-06	6.7672e-06	1152.7	219.2	2.62e-06	4.7081e-06	279.23	78.411	61.543	18.202	1.7418e-06	25.864	0.00038958	0.00045823	0.00011976	1028.5	4.4009e-06	5.0677e-06	1125.1	218.27	4.5281e-06	5.1134e-06	278.1	79.961	63.222	19.445	4.6256e-06	26.742	257.478	126.675	83.532	-14.437	171.160	59.365	-14.165	-6.795	191.052	49.440	-7.022	0.227	0.605	7.724	16.334	6.942	-8191	255	
14104.239	1	1	0	0	0.1048	0.082045	0.13787	0.14613	0.14493	0.27575	0.32607	0.14777	0.14478	0.13985	0.072787	0.13772	0.10525	0.24392	0.12439	0.24567	-1.8583	-2.8812	-2.5479	-2.4833	-2.9396	-2.5542	-3	-2.9083	-2.3354	-2.8708	-2.6479	-2.3271	-3.0938	-2.4042	-2.5229	-2.9292	36.549	-6.619	59.973	14.090	60.992	151.624	314.317	241.444	268.054	95.250	267.086	176.130	45.893	-13.180	315.714	325.540	0.00018967	0.00019404	0.00017642	1059.1	5.3585e-06	2.3069e-06	1160.1	219.59	1.6054e-06	9.1292e-06	280.13	79.491	61.516	18.201	2.1678e-06	25.859	0.00042536	0.00047279	0.00012061	1035	4.9067e-06	5.3269e-06	1130.9	219.49	5.1196e-06	5.4147e-06	280.9	80.781	64.48	19.7	4.9269e-06	27.007	253.980	22.347	-5.232	-14.576	51.204	293.291	-14.317	-6.477	273.405	32.975	-6.956	-0.079	0.873	7.436	292.027	6.661	-8191	255	
14104.309	1	1	0	0	0.34544	0.12714	0.094272	0.14553	0.17251	0.23337	0.2578	0.083796	0.23587	0.23217	0.057033	0.33148	0.086291	0.14366	0.13751	0.19321	-1.8604	-2.9021	-2.7375	-2.5062	-2.8479	-2.6021	-2.5833	-3.0667	-2.2542	-2.6417	-2.8854	-2.4104	-3.0229	-2.5271	-2.6188	-3.0187	154.409	232.786	300.661	254.069	211.215	156.271	265.156	191.810	141.500	112.571	145.171	300.741	150.167	292.604	237.041	16.619	0.00024794	5.867e-05	0.00010471	1068	2.6517e-06	3.5985e-06	1171.5	222.01	2.2798e-06	1.6045e-06	280.63	79.523	62.019	18.206	4.4919e-06	25.798	0.00047794	0.00047975	0.00012269	1044	5.3041e-06	5.1672e-06	1138.9	221.33	5.3175e-06	5.1226e-06	280.62	80.914	64.843	19.596	4.7768e-06	27.154	272.800	141.267	-10.985	-14.515	72.305	55.891	-14.118	-6.427	59.871	156.102	-7.391	-0.025	0.610	7.364	111.640	6.784	-8191	255	
14104.430	1	1	0	0	0.30846	0.27324	0.22046	0.29391	0.10746	0.11073	0.20653	0.1639	0.2087	0.024508	0.34282	0.19624	0.043575	0.1555	0.090809	0.095816	-1.8937	-2.7854	-2.8417	-2.4271	-2.975	-2.6229	-2.7083	-3.05	-2.3292	-2.6562	-2.9479	-2.3875	-2.9521	-2.6417	-2.5021	-3.0604	157.842	277.985	144.388	274.107	128.136	161.208	-2.472	-23.045	145.265	170.982	318.231	292.116	-18.864	154.821	126.446	140.143	0.00023154	0.0002504	0.00011695	1066.6	3.2349e-06	3.0771e-06	1168.4	221.8	4.3594e-06	3.4741e-06	282.94	79.837	62.151	18.439	2.0284e-06	25.897	0.00050803	0.00047538	0.00012253	1047.6	5.6268e-06	5.1709e-06	1139.8	222.53	5.6484e-06	5.1528e-06	281.8	81.772	65.288	19.586	4.6882e-06	27.422	247.960	75.199	117.800	-14.518	123.013	305.553	-14.501	-6.477	182.337	46.122	-7.116	0.481	0.317	6.735	238.447	6.460	-8191	255	
14104.526	1	1	0	0	0.1359	0.26988	0.13245	0.27525	0.090659	0.07474	0.036446	0.16639	0.23337	0.19818	0.30062	0.25294	0.12953	0.10335	0.29256	0.13319	-2.275	-2.6646	-2.9271	-2.2792	-2.9521	-2.7771	-2.5875	-3.0854	-2.5125	-2.5896	-2.9437	-2.3104	-2.9271	-2.725	-2.5458	-3.0583	243.559	197.972	8.145	29.612	50.295	-2.577	206.591	246.909	293.730	322.705	85.516	-22.032	325.968	41.433	270.851	47.144	0.00013329	0.00060984	6.642e-05	1074.1	5.3473e-06	2.2724e-06	1172.6	222.56	2.7307e-06	1.7076e-06	283.8	79.607	62.316	18.271	4.2682e-06	26.05	0.00048827	0.0004516	0.00011681	1052.7	5.3492e-06	4.7792e-06	1139	223.55	5.1534e-06	4.7436e-06	281.02	81.687	64.512	19.281	4.3602e-06	27.295	231.817	33.214	147.213	-14.424	65.458	151.865	-14.115	-6.174	161.840	84.563	-6.998	0.050	0.533	7.407	180.265	6.519	-8191	255	
14104.622	1	1	0	0	0.4693	0.17637	0.038342	0.23477	0.43031	0.40354	0.20662	0.03283	0.15791	0.154	0.23098	0.061265	0.087529	0.1111	0.21409	0.20459	-1.9979	-2.5479	-2.9542	-2.2542	-2.5812	-2.7771	-2.8187	-3.0292	-2.3688	-2.5771	-3.1396	-2.2875	-2.75	-2.8187	-2.3812	-2.825	22.076	41.479	94.439	269.625	150.162	217.445	334.824	283.035	286.990	97.731	294.250	69.391	126.377	228.659	154.382	48.779	0.00017915	0.00037623	8.2271e-05	1063.5	1.7622e-06	6.519e-06	1165.2	221.12	1.132e-06	7.8439e-06	283.68	79.219	62.274	18.289	5.6202e-06	25.983	0.00043421	0.00040916	0.00011021	1044.3	4.8035e-06	4.4089e-06	1131.2	222.52	4.8108e-06	4.5196e-06	280.77	81.529	64.187	19.33	4.6995e-06	27.48	218.505	-7.948	168.077	-14.439	81.120	19.912	-14.058	-6.364	164.556	17.956	-6.863	-0.027	0.661	7.605	114.467	6.599	-8191	255	
14104.718	1	1	0	0	0.20628	0.050843	0.18846	0.10526	0.12322	0.11963	0.055056	0.071303	0.0968	0.27729	0.043528	0.14329	0.1103	0.089723	0.15307	0.074393	-2.2687	-2.5146	-2.9896	-2.5354	-2.7042	-2.9	-2.3458	-3.1604	-2.5875	-2.4479	-3.0583	-2.4104	-2.6292	-2.8312	-2.25	-2.9146	37.169	185.882	162.404	231.111	289.109	8.288	319.772	331.025	40.506	298.445	53.827	293.667	263.359	334.532	0.091	-6.623	0.00030214	0.00040801	0.00012442	1064.6	7.5918e-06	2.5751e-06	1167.7	221.29	5.2358e-06	6.05e-06	281.59	79.295	61.512	18.323	1.8166e-06	25.813	0.00043738	0.00041778	0.00012237	1046.1	4.8539e-06	4.5194e-06	1136.7	222.91	4.7614e-06	4.452e-06	280.88	81.44	63.554	19.084	4.8266e-06	27.084	223.252	50.562	-22.284	-14.051	143.473	272.659	-13.895	-6.464	112.311	98.679	-7.190	0.352	0.687	7.200	225.277	6.786	-8191	255	
14104.839	1	1	0	0	0.1135	0.0791	0.068862	0.11231	0.1206	0.28248	0.18516	0.1753	0.14671	0.16192	0.33576	0.15952	0.16798	0.1949	0.14195	0.2038	-2.3521	-2.2625	-2.9729	-2.6583	-2.5896	-3.075	-2.6125	-2.925	-2.6729	-2.2896	-3.1521	-2.4542	-2.7542	-3.0396	-2.4271	-2.8208	13.639	248.428	301.708	53.554	211.674	304.048	285.372	279.442	7.609	209.246	293.529	164.234	207.298	46.875	271.305	308.208	0.00023754	5.6974e-05	0.00010198	1060.4	5.002e-06	9.5887e-07	1157.9	220.81	4.7515e-06	3.7543e-06	279.4	78.482	61.349	18.125	3.2146e-06	25.632	0.00039819	0.00038327	0.00012095	1036.4	4.2735e-06	4.0412e-06	1125.1	219.47	4.1522e-06	3.9529e-06	278.05	79.592	62.282	18.838	4.5488e-06	26.534	227.095	12.187	224.198	-14.115	88.477	175.401	-14.072	-6.107	193.932	98.214	-6.886	0.110	0.886	7.409	80.201	6.556	-8191	255	
14104.911	1	1	0	0	0.17524	0.21161	0.088655	0.27473	0.20647	0.33778	0.070566	0.30582	0.19292	0.12762	0.13133	0.13849	0.14053	0.067722	0.15214	0.1046	-2.4688	-2.225	-2.9021	-2.7479	-2.4042	-2.9229	-2.4875	-2.9125	-2.9688	-2.3271	-3.0146	-2.6729	-2.4833	-3.0542	-2.4833	-2.6542	-7.009	253.078	302.024	325.414	131.184	214.854	296.832	285.558	78.824	178.215	263.009	327.487	247.447	293.022	2.498	286.585	0.00025294	0.00040435	9.5393e-05	1048.2	4.8331e-06	3.737e-06	1144.8	217.93	1.638e-06	7.2524e-06	279.3	78.228	60.94	17.81	4.6541e-06	25.593	0.00035818	0.0003572	0.00011554	1022.8	3.9226e-06	3.9462e-06	1115.8	216.79	3.8038e-06	4.0082e-06	277.13	78.955	61.877	18.721	4.3905e-06	26.281	222.638	136.833	82.313	-14.147	94.100	203.706	-14.173	-6.475	-19.190	149.020	-7.090	0.498	0.778	7.335	17.435	6.994	-8191	255	
14105.007	1	1	0	0	0.26875	0.23505	0.16159	0.15846	0.059494	0.14648	0.26399	0.20334	0.22989	0.2158	0.23888	0.25404	0.18917	0.30662	0.10982	0.13049	-2.525	-2.2646	-2.8833	-2.8521	-2.3146	-3.0583	-2.7188	-2.7313	-3.0417	-2.2917	-2.9167	-2.7	-2.3063	-2.8563	-2.5062	-2.5854	193.929	248.974	74.073	291.799	74.912	171.897	280.379	314.247	295.492	292.138	-10.968	331.680	-10.038	42.072	-8.382	282.081	0.00036567	0.00046872	0.0001537	1047.1	5.9904e-06	1.1727e-06	1145.2	217.74	2.6524e-06	6.3218e-06	277.24	78.247	61.227	17.967	2.5086e-06	25.398	0.00034104	0.00037555	0.00011254	1018	3.7975e-06	4.1636e-06	1111.7	216.1	3.7703e-06	4.2541e-06	275.41	78.747	61.599	18.896	4.2659e-06	26.197	245.883	119.939	20.526	-14.450	133.414	121.224	-14.095	-6.467	280.665	218.398	-6.563	0.771	0.620	7.340	106.512	6.662	-8191	255	
14105.103	1	1	0	0	0.1755	0.073802	0.10398	0.23596	0.23911	0.1481	0.018603	0.3831	0.11006	0.27778	0.12807	0.10805	0.20488	0.18383	0.05556	0.029619	-2.4458	-2.1833	-2.8438	-2.7021	-2.4083	-2.9354	-2.5146	-2.4333	-2.9	-2.2875	-2.7625	-2.8771	-2.4042	-2.8563	-2.7083	-2.6479	280.645	12.040	60.661	257.145	183.648	9.301	19.574	294.938	100.504	130.418	280.325	141.281	126.531	319.026	140.508	281.645	8.176e-05	0.00051377	0.00013539	1046.9	6.0463e-06	2.3971e-06	1141.3	218.05	1.8578e-06	1.5749e-06	278.26	77.784	61.024	17.987	7.5424e-06	25.477	0.00033718	0.00039227	0.00010933	1016.4	3.8244e-06	4.3677e-06	1110.5	215.73	3.8146e-06	4.4695e-06	274.95	78.543	61.642	18.919	4.0842e-06	26.135	220.041	95.791	82.917	-14.239	146.523	198.117	-14.154	-6.506	287.202	184.566	-7.218	0.365	0.767	7.669	104.324	6.400	-8191	255	
14105.222	1	1	0	0	0.015186	0.26814	0.07933	0.16237	0.14756	0.26645	0.10336	0.30368	0.17858	0.14769	0.19966	0.37865	0.24336	0.17007	0.012282	0.072503	-2.5896	-2.2188	-2.9292	-2.9313	-2.2708	-2.9833	-2.7938	-2.4333	-3.0854	-2.3979	-2.6021	-2.7896	-2.3396	-2.8771	-2.5938	-2.375	-24.245	326.123	-16.175	322.181	177.880	33.924	14.410	120.054	136.832	262.551	273.085	262.516	327.263	230.305	334.809	116.201	0.0002843	0.00026397	8.7691e-05	1041.6	1.1888e-06	2.9723e-06	1136.7	216.59	5.3255e-06	3.3776e-06	277.28	77.77	60.988	17.885	4.3455e-06	25.391	0.00035257	0.0004063	0.00010338	1012.5	3.9388e-06	4.3693e-06	1103.4	214.12	3.9072e-06	4.3051e-06	272.7	78.046	61.709	18.839	3.8795e-06	25.935	264.038	15.269	55.546	-14.481	55.471	155.203	-13.965	-6.572	262.200	125.838	-7.095	0.447	0.968	7.911	-12.491	6.899	-8191	255	
14105.318	1	1	0	0	0.084069	0.24798	0.1988	0.21542	0.28531	0.082103	0.13975	0.18816	0.1788	0.16168	0.11079	0.077168	0.15509	0.1052	0.16842	0.10585	-2.55	-2.4229	-2.5396	-2.925	-2.2938	-2.7208	-2.8563	-2.3792	-3.0604	-2.5792	-2.6458	-3.0146	-2.425	-2.775	-2.9562	-2.5354	18.947	330.689	103.579	-22.089	260.350	314.744	301.465	200.477	111.355	223.442	311.604	25.391	243.136	277.000	259.083	273.475	0.00032755	0.00013373	0.00011956	1039.3	2.7845e-06	4.8509e-06	1140.9	215.67	2.7172e-06	4.2245e-06	274.6	78.163	60.363	17.886	2.3406e-06	25.277	0.00037103	0.0003965	0.00010054	1009.8	4.24e-06	4.2949e-06	1102.3	213.84	4.2814e-06	4.3268e-06	272.15	78.179	62.22	18.821	3.8891e-06	25.943	265.676	23.757	0.804	-14.203	125.316	4.144	-14.112	-6.517	278.535	107.336	-7.309	0.648	0.676	7.177	99.652	6.502	-8191	255	
14105.414	1	1	0	0	0.064646	0.15343	0.18501	0.048918	0.14885	0.16349	0.18245	0.060437	0.13831	0.19369	0.15624	0.12649	0.11803	0.071729	0.17334	0.19545	-2.5479	-2.35	-2.4771	-3.1	-2.2542	-2.7354	-2.9104	-2.3833	-3.0604	-2.4729	-2.7396	-3.0667	-2.5	-2.6896	-2.9458	-2.4396	179.875	215.458	249.142	116.288	119.625	98.395	249.807	211.104	304.356	42.228	312.653	257.258	204.952	135.874	122.641	288.213	0.00015847	0.00039011	9.7604e-05	1040.2	6.5698e-06	9.8535e-07	1140.3	216.51	3.5814e-06	3.6426e-06	276.15	77.917	60.297	17.93	3.3233e-06	25.331	0.00040031	0.00038314	9.9429e-05	1010.3	4.3941e-06	4.1752e-06	1101.8	214.44	4.4479e-06	4.1344e-06	272.35	78.442	62.235	18.738	3.8472e-06	26.161	241.810	331.217	4.970	-14.334	256.426	331.543	-14.062	-6.492	126.243	204.748	-7.065	0.557	0.840	7.694	241.208	6.741	-8191	255	
14105.510	1	1	0	0	0.044522	0.40862	0.22211	0.19021	0.15109	0.29672	0.28947	0.059576	0.23792	0.31597	0.067073	0.052457	0.20312	0.08653	0.20997	0.085252	-2.6	-2.6604	-2.5396	-3.0771	-2.3396	-2.7458	-3.2542	-2.4021	-3.0042	-2.5708	-2.5687	-3.0438	-2.3083	-2.475	-2.8542	-2.3875	3.372	86.460	125.264	268.710	81.913	-19.391	220.585	305.475	126.209	34.555	54.743	276.250	191.246	144.747	69.475	194.253	0.0001876	0.00031396	0.00014267	1043.5	3.0987e-06	2.0784e-06	1143.9	216.38	2.0735e-06	4.8828e-06	275.41	77.596	60.483	17.982	3.9897e-06	25.225	0.00040924	0.00037579	9.7876e-05	1013.8	4.5237e-06	4.0713e-06	1102.6	215.21	4.4267e-06	4.0546e-06	272.06	78.609	62.155	18.634	3.6349e-06	26.316	207.812	121.238	59.443	-14.192	32.098	9.988	-14.249	-6.276	0.624	95.432	-7.086	0.646	0.474	7.339	146.919	6.642	-8191	255	
14105.607	1	1	0	0	0.053092	0.27298	0.35938	0.28052	0.13102	0.3249	0.22349	0.086792	0.25767	0.053506	0.091835	0.046585	0.12505	0.12523	0.31132	0.30251	-2.4667	-2.5854	-2.3792	-3.1458	-2.6312	-2.6646	-3.0812	-2.1375	-2.8771	-2.8542	-2.4	-3.0792	-2.4375	-2.5875	-2.8542	-2.4458	284.547	206.731	88.016	297.634	177.644	80.577	219.128	255.871	156.475	92.214	97.410	27.247	270.038	302.089	268.788	195.114	1.8712e-05	0.00023458	8.688e-05	1036.9	2.8281e-06	2.1719e-06	1134.6	216.59	1.473e-06	1.2563e-06	276.81	77.376	60.73	17.932	7.4818e-06	25.319	0.00038141	0.00035317	9.3208e-05	1012.8	4.2287e-06	3.8216e-06	1100	215.87	4.1532e-06	3.8235e-06	272.09	78.875	61.938	18.619	3.7594e-06	26.379	114.445	4.959	92.152	-14.123	335.100	67.387	-14.290	-6.277	6.423	76.296	-7.293	0.383	0.335	7.472	97.101	7.081	-8191	255	
14105.703	1	1	0	0	0.13204	0.067894	0.21379	0.14634	0.15654	0.25897	0.071412	0.19726	0.13635	0.16007	0.051051	0.037456	0.19631	0.099079	0.28428	0.1077	-2.4521	-2.8167	-2.2375	-3.2146	-2.5438	-2.4688	-3.1146	-2.1771	-2.6604	-2.9917	-2.4437	-2.9771	-2.6167	-2.5292	-2.9854	-2.6292	289.818	283.406	-23.876	302.009	317.397	-7.391	82.559	298.796	199.273	183.473	97.367	189.728	46.719	198.368	287.609	232.745	0.00019556	4.0193e-05	7.6786e-05	1039.8	2.2009e-06	4.6305e-06	1141	216.37	5.4816e-06	3.6492e-06	276.06	78.1	60.822	17.88	3.2206e-06	25.4	0.0003677	0.00034311	9.7447e-05	1015.2	4.0185e-06	3.7882e-06	1103	216.11	4.0157e-06	3.7121e-06	272.97	79.074	61.768	18.552	4.0432e-06	26.446	331.635	310.196	63.821	-14.138	45.688	114.879	-14.209	-6.450	153.553	195.012	-7.256	0.338	0.676	7.537	174.071	7.030	-8191	255	
14105.799	1	1	0	0	0.030075	0.086738	0.18608	0.18596	0.19561	0.052304	0.11815	0.32873	0.1199	0.20092	0.1647	0.080599	0.093622	0.098156	0.14253	0.0577	-2.2792	-3.0104	-2.2208	-2.9354	-2.6667	-2.3875	-3.2	-2.5563	-2.5896	-2.9333	-2.3396	-2.9771	-2.8604	-2.3417	-2.9604	-2.7375	246.551	118.795	148.649	327.255	266.097	21.295	48.277	233.319	145.647	288.602	271.576	282.185	184.072	221.041	286.617	108.061	0.00031292	0.00026965	0.0001318	1039	4.24e-06	4.2238e-06	1136.9	215.9	5.0204e-06	2.9436e-06	277.29	78.165	60.719	17.871	2.1257e-06	25.437	0.00036046	0.00033886	0.00010602	1015	3.9318e-06	3.767e-06	1104.9	215.41	3.9651e-06	3.7622e-06	273.99	79.026	61.658	18.577	4.3652e-06	26.373	266.983	76.092	136.987	-14.154	140.393	138.387	-13.941	-6.413	80.410	103.552	-7.003	0.278	0.856	7.208	133.295	6.864	-8191	255	
14105.919	1	1	0	0	0.12488	0.26804	0.1168	0.11184	0.37094	0.24169	0.11583	0.15832	0.18408	0.063398	0.26077	0.12766	0.053613	0.068988	0.093683	0.23036	-2.0708	-2.7521	-2.2521	-2.8958	-2.7104	-2.3688	-3.0354	-2.5958	-2.3458	-2.9104	-2.3792	-2.7479	-2.7042	-2.3958	-3.0396	-2.4271	105.297	91.655	144.652	266.040	263.845	234.328	307.787	332.316	92.154	288.133	123.009	330.524	251.431	137.993	304.092	321.491	9.0153e-05	0.00013848	0.00016662	1041.8	3.2831e-06	1.7357e-06	1135.9	217.15	1.4275e-06	1.9748e-06	275.6	77.314	60.707	17.94	5.072e-06	25.34	0.00035755	0.00034549	0.00011194	1013.9	3.8713e-06	3.7997e-06	1107.4	215.09	3.8147e-06	3.7938e-06	274.83	78.617	61.612	18.668	4.452e-06	26.209	238.098	123.599	200.742	-14.243	160.976	178.286	-14.072	-6.596	157.785	178.981	-7.164	0.280	0.530	7.522	163.025	6.827	-8191	255	
14106.016	1	1	0	0	0.2858	0.15284	0.17001	0.33012	0.23967	0.084206	0.053381	0.092635	0.041316	0.08008	0.21095	0.23374	0.15961	0.15177	0.32253	0.061114	-1.9583	-2.9979	-2.1958	-2.6146	-2.8937	-2.2292	-3.0458	-2.7042	-2.3979	-3.0938	-2.4021	-2.65	-2.7208	-2.1583	-2.8937	-2.6854	190.082	230.847	55.939	253.473	259.873	297.033	231.705	185.183	266.460	316.849	170.296	236.184	328.531	330.573	107.461	8.426	0.00017048	0.00022287	4.5913e-05	1040.7	3.8686e-06	5.9659e-06	1142	217.29	1.888e-06	4.0967e-06	276.91	77.916	60.393	18.051	1.8847e-06	25.565	0.00034794	0.00036556	0.00011491	1014.2	3.7784e-06	4.0469e-06	1110.3	215.41	3.7975e-06	4.0624e-06	274.65	78.504	61.313	18.799	4.4226e-06	26.212	232.645	69.706	-6.129	-14.236	-9.774	200.371	-14.242	-6.686	180.781	112.546	-7.379	0.000	0.383	7.395	37.516	6.556	-8191	255	
14106.112	1	1	0	0	0.16958	0.24948	0.11692	0.15894	0.14724	0.017434	0.22802	0.23766	0.16233	0.28789	0.18966	0.29434	0.19662	0.11774	0.18474	0.043685	-1.9396	-2.8625	-2.3021	-2.7229	-2.8396	-2.325	-2.8208	-2.6417	-2.2208	-2.8333	-2.3729	-2.6312	-2.9333	-2.0854	-2.7833	-2.5875	242.701	110.903	207.861	240.621	-6.278	294.632	296.410	268.646	76.106	260.059	98.143	248.901	72.434	26.982	-8.654	26.594	0.00017031	0.00019864	0.00011979	1041.6	6.0414e-06	2.1874e-06	1144.8	216.41	1.8109e-06	2.1881e-06	276.94	78.078	60.508	17.968	3.8554e-06	25.373	0.0003478	0.00038983	0.00011175	1013.2	3.7586e-06	4.3366e-06	1109	215.06	3.7845e-06	4.3648e-06	274.32	78.461	61.391	18.904	4.2455e-06	26.188	230.130	103.912	23.054	-14.541	84.323	210.316	-14.412	-6.290	315.442	127.161	-6.722	0.178	0.611	7.572	88.551	6.787	-8191	255	
14106.208	1	1	0	0	0.10509	0.27665	0.32451	0.17307	0.14002	0.15462	0.18743	0.059713	0.056549	0.13939	0.15507	0.20977	0.20328	0.12447	0.060551	0.11024	-1.8625	-2.7479	-2.3667	-2.65	-3.0667	-2.4042	-2.8167	-2.9625	-2.3	-2.975	-2.6312	-2.675	-3.05	-2.5208	-2.5833	-2.7833	313.000	-6.369	241.014	-8.874	192.952	17.870	-7.610	185.199	185.323	5.543	83.150	-1.867	308.169	45.233	134.736	210.855	0.00022279	0.00043054	9.82e-05	1044.8	4.0189e-06	3.8144e-06	1146.2	216.21	1.1735e-06	2.526e-06	276.53	77.697	60.787	17.898	5.012e-06	25.517	0.00034946	0.00040947	0.0001066	1014.3	3.9059e-06	4.5231e-06	1110	214.35	4.0222e-06	4.5198e-06	273.45	78.366	62.09	18.968	4.1844e-06	26.123	250.220	116.632	75.770	-14.394	102.612	192.124	-14.154	-6.424	163.069	50.817	-7.003	0.185	0.790	7.275	86.330	6.149	-8191	255	
14106.302	1	1	0	0	0.22483	0.24739	0.32844	0.074753	0.22428	0.16548	0.045087	0.077529	0.055399	0.20023	0.11415	0.19013	0.091929	0.25823	0.29	0.22932	-1.8687	-2.9771	-2.425	-2.6271	-3.075	-2.3583	-2.8521	-2.8729	-2.2625	-2.8396	-2.9271	-2.3312	-3.1396	-2.3917	-2.5375	-3.0542	162.437	50.372	144.875	27.729	127.434	-17.677	317.837	38.648	27.035	146.513	332.537	281.012	131.643	63.713	174.422	305.785	0.00023984	0.0005235	0.00013447	1044.7	3.3396e-06	3.4934e-06	1142.1	216.6	9.8189e-07	6.8126e-06	276.23	77.972	61.435	17.931	3.7372e-06	25.609	0.00037714	0.0004181	0.00010506	1015	4.2549e-06	4.5641e-06	1107.7	214.85	4.3596e-06	4.595e-06	274.34	78.309	62.557	18.943	4.0972e-06	26.15	274.342	87.319	-1.658	-14.433	137.893	52.589	-14.256	-6.104	87.352	89.162	-7.090	0.093	0.612	7.541	124.574	6.203	-8191	255	
14106.398	1	1	0	0	0.099546	0.12318	0.2167	0.31126	0.2184	0.26932	0.080168	0.13885	0.16965	0.26088	0.12649	0.27233	0.11398	0.1056	0.021901	0.13902	-1.9625	-2.7812	-2.6646	-2.3167	-3.1312	-2.4854	-2.6458	-3.0938	-2.3479	-2.7062	-2.6375	-2.3542	-2.9125	-2.4604	-2.3187	-2.9417	308.637	67.515	126.937	299.475	144.666	124.184	43.202	169.732	27.502	194.004	247.671	316.924	-22.968	239.034	331.315	246.429	0.00023949	0.00029701	2.3862e-05	1040.3	7.446e-06	3.0969e-06	1141.5	217.73	7.5444e-07	4.0185e-06	277.59	78.563	61.078	18.071	2.4233e-06	25.501	0.0004035	0.00040805	0.00010323	1014.5	4.5454e-06	4.4207e-06	1107.5	215.25	4.5751e-06	4.4067e-06	274.04	78.86	62.801	18.917	4.1317e-06	26.344	255.976	2.904	154.534	-14.380	108.923	16.501	-14.103	-6.424	263.413	206.546	-7.152	0.308	1.035	7.179	136.606	6.805	-8191	255	
14106.519	1	1	0	0	0.03992	0.081731	0.25147	0.068474	0.1436	0.20845	0.093018	0.062745	0.19233	0.30219	0.11754	0.086714	0.30606	0.56375	0.093751	0.39381	-1.9833	-2.7396	-2.7417	-2.3458	-2.8979	-2.5938	-2.4729	-3.0187	-2.4813	-2.6604	-2.8604	-2.1708	-2.8542	-2.5021	-2.4021	-2.9688	73.208	255.711	-7.205	278.210	141.619	-3.443	286.367	173.448	-24.147	13.612	92.890	-23.599	320.991	18.816	152.518	222.397	0.00012559	0.00029148	0.00015905	1044.8	7.1856e-06	2.6692e-06	1148.3	217.27	5.8162e-06	1.3875e-06	277.69	78.09	61.012	18.126	2.0502e-06	25.381	0.0004302	0.00040174	0.00010379	1018.1	4.7813e-06	4.3496e-06	1110	215.97	4.728e-06	4.3069e-06	273.55	79.216	62.799	18.906	3.9222e-06	26.358	234.003	104.880	101.851	-14.541	56.554	152.647	-14.046	-6.454	139.734	131.143	-7.365	0.357	0.985	7.142	26.317	6.228	-8191	255	
14106.615	1	1	0	0	0.19682	0.14089	0.11316	0.28237	0.1576	0.13464	0.1873	0.19275	0.074137	0.091489	0.25082	0.19089	0.24128	0.048202	0.21214	0.05293	-1.8729	-2.7	-2.7979	-2.2938	-3.0708	-2.7	-2.5417	-3.1562	-2.3208	-2.6229	-2.9521	-2.3333	-2.7687	-2.7	-2.2938	-3.0938	106.650	31.999	235.114	303.869	217.645	50.893	-2.055	289.474	51.020	220.192	304.612	-20.574	294.791	145.029	24.656	-4.919	7.8972e-05	0.00034107	9.6092e-05	1049.7	4.0529e-06	1.8365e-06	1144.9	217.63	2.3984e-06	2.4806e-06	276.45	78.235	61.192	18.031	9.7718e-06	25.427	0.00041321	0.00038328	9.8733e-05	1022.7	4.5041e-06	4.1107e-06	1111	217.14	4.5033e-06	4.1102e-06	273.26	79.505	62.589	18.76	3.9734e-06	26.615	243.651	106.806	151.315	-14.352	26.491	265.008	-14.059	-6.360	232.141	59.584	-7.299	0.298	0.561	7.183	295.129	6.660	-8191	255	
14106.711	1	1	0	0	0.094375	0.080952	0.093032	0.37886	0.20873	0.11715	0.28842	0.18001	0.13421	0.15573	0.23298	0.23721	0.13067	0.14259	0.11163	0.094792	-2.1729	-2.5208	-2.9521	-2.5875	-2.8958	-2.8688	-2.4771	-2.9292	-2.5146	-2.3917	-3.0938	-2.25	-2.5896	-2.8812	-2.2729	-2.8875	66.076	-0.284	150.653	309.786	-17.142	181.430	262.394	244.233	139.045	233.686	289.006	-24.272	281.710	269.056	288.286	9.064	0.0002831	0.00013869	0.00011347	1043.8	3.5879e-06	1.0482e-07	1145.3	219.17	1.6707e-06	3.46e-06	277.78	77.749	60.888	17.994	7.6796e-06	25.554	0.00040511	0.00037839	0.00010115	1021.4	4.4254e-06	4.0233e-06	1109.3	218.05	4.3352e-06	4.0407e-06	274.34	79.686	62.38	18.711	4.1995e-06	26.703	235.498	203.891	222.767	-14.464	34.472	181.187	-14.190	-6.458	99.794	290.203	-7.164	0.191	0.817	7.665	192.516	6.996	-8191	255	
14106.783	1	1	0	0	0.081477	0.25794	0.060603	0.28882	0.083446	0.03857	0.21099	0.13069	0.1175	0.19743	0.26924	0.11436	0.14228	0.090571	0.16854	0.32775	-1.9896	-2.3208	-2.8958	-2.575	-2.7146	-2.9188	-2.4125	-2.8292	-2.3917	-2.3812	-3.1292	-2.5458	-2.7479	-2.9375	-2.3771	-2.8521	247.916	165.470	154.407	-8.734	220.147	42.594	279.174	72.988	149.902	205.607	40.497	246.705	324.549	46.884	59.417	293.421	0.00017561	0.00010982	9.9237e-05	1044.9	2.3289e-06	3.9879e-06	1142.3	217.76	8.6927e-06	2.3946e-06	276.34	77.966	61.032	18.069	2.6252e-06	25.517	0.00038794	0.00037105	0.00010827	1023.3	4.3028e-06	4.0597e-06	1111.8	217.92	4.3067e-06	4.0485e-06	276	79.564	62.382	18.757	4.5861e-06	26.679	151.936	254.015	94.336	-14.111	-13.012	82.796	-14.143	-6.445	229.170	184.912	-6.809	0.442	0.648	7.256	284.038	6.585	-8191	255	
14106.879	1	1	0	0	0.14931	0.17922	0.34566	0.25806	0.21213	0.0090311	0.13906	0.32357	0.19016	0.13117	0.13238	0.05307	0.31468	0.10054	0.18222	0.32366	-2.1667	-2.4167	-2.8396	-2.3542	-2.4104	-2.9813	-2.5792	-2.7542	-2.5812	-2.3979	-2.9688	-2.5771	-2.3833	-3.0042	-2.2396	-2.7958	-23.168	167.715	145.129	233.540	321.136	182.709	277.272	-16.422	6.079	218.388	172.825	26.879	281.441	78.306	54.495	217.184	0.00025396	0.00043313	0.00017694	1043.1	5.9422e-06	3.6201e-06	1146.1	217.58	4.6463e-06	5.2039e-06	277.48	78.112	61.203	17.963	5.9707e-06	25.481	0.00038462	0.00036674	0.00011653	1019.8	4.2249e-06	4.0127e-06	1114.8	217.6	4.1742e-06	4.0733e-06	277.38	79.453	62.246	18.798	4.731e-06	26.518	255.125	111.342	72.457	-13.961	133.710	82.854	-14.065	-6.627	328.845	175.918	-6.978	0.195	0.316	8.121	31.167	7.054	-8191	255	
14107.000	1	1	0	0	0.21552	0.21297	0.14756	0.1571	0.088544	0.20276	0.051256	0.22784	0.012406	0.12705	0.12594	0.10617	0.089454	0.15049	0.066371	0.19901	-2.3667	-2.35	-2.8708	-2.6875	-2.4188	-2.8937	-2.4229	-2.7583	-2.6229	-2.4333	-3.1292	-2.6896	-2.625	-2.8833	-2.3771	-2.7021	111.964	12.570	278.822	6.560	39.352	5.500	47.397	232.512	51.367	61.152	-24.216	195.400	124.937	241.287	50.580	273.169	0.00010453	9.5087e-05	0.00011766	1047	2.2823e-06	3.9181e-06	1143.3	218.46	2.1596e-06	1.2611e-06	278.67	78.381	61.598	18.091	3.4707e-06	25.543	0.00036945	0.00037218	0.00011966	1020.4	4.1026e-06	4.1458e-06	1115.3	216.84	3.9941e-06	4.2367e-06	277.66	79.124	62.117	18.944	4.7434e-06	26.519	212.869	50.366	77.789	-14.171	7.685	193.051	-13.913	-6.461	190.708	132.931	-7.078	0.357	0.809	7.722	267.416	7.354	-8191	255	
14107.096	1	1	0	0	0.33936	0.12529	0.14222	0.30993	0.15442	0.19863	0.20992	0.037049	0.099407	0.19288	0.088283	0.3681	0.088688	0.097921	0.31783	0.13854	-2.5354	-2.1458	-2.9146	-2.5396	-2.3542	-2.9167	-2.7021	-2.6813	-2.9021	-2.5312	-2.6688	-2.6958	-2.25	-3.0396	-2.2333	-2.6917	202.569	46.222	253.723	296.697	66.997	290.935	291.685	197.311	92.327	323.419	148.246	280.319	34.710	20.329	211.901	-18.054	0.00022649	0.00023351	0.00010422	1046.6	4.5109e-06	5.2237e-06	1143.5	217.92	5.8629e-06	8.9872e-06	276.94	77.873	61.381	18.123	5.0286e-06	25.442	0.00036841	0.00040209	0.00012175	1021.4	4.0678e-06	4.4782e-06	1116.6	216.88	4.009e-06	4.5747e-06	276.72	79.006	62.198	19.052	4.6015e-06	26.394	299.491	207.542	92.458	-14.155	12.621	207.288	-13.966	-6.618	66.186	329.424	-7.149	0.638	0.493	7.737	94.239	6.721	-8191	255	
14107.192	1	1	0	0	0.16357	0.051003	0.1031	0.12816	0.019253	0.20766	0.18288	0.24755	0.18333	0.26934	0.22076	0.14362	0.043912	0.10555	0.086637	0.17971	-2.4583	-2.3208	-2.6417	-2.7583	-2.4146	-3.1604	-2.6271	-2.7479	-2.9708	-2.3208	-2.8937	-2.7062	-2.3375	-3.0625	-2.5417	-2.4292	230.258	324.501	41.138	304.638	34.333	65.425	220.659	253.298	226.974	98.550	-23.053	263.397	6.333	119.306	137.495	260.518	0.00023544	9.2056e-05	4.9031e-05	1050.4	1.419e-06	4.3566e-06	1147.7	217.52	2.1067e-06	3.6067e-06	278.97	77.789	60.613	18.025	4.7999e-06	25.412	0.00036433	0.00041972	0.00011496	1020.8	4.004e-06	4.5743e-06	1113.3	215.78	4.0132e-06	4.6358e-06	275.76	78.75	62.067	19.084	4.3065e-06	26.242	226.204	308.712	333.144	-14.030	71.797	223.876	-13.913	-6.489	13.011	4.858	-6.952	0.493	0.435	7.864	99.559	6.619	-8191	255	
14107.311	1	1	0	0	0.1411	0.14273	0.21859	0.0887	0.034252	0.26467	0.24668	0.36031	0.061616	0.25026	0.23271	0.18878	0.2462	0.099681	0.076829	0.1144	-2.5625	-2.2812	-2.7396	-2.9604	-2.2812	-2.8229	-2.6375	-2.4354	-3.075	-2.3396	-2.5646	-2.8229	-2.1229	-2.7583	-2.6312	-2.4167	263.730	27.312	205.958	-10.600	56.071	6.566	238.417	301.754	223.011	-15.864	-15.134	143.041	111.159	231.261	243.149	130.785	0.00027513	0.00052293	8.881e-05	1047.4	6.0582e-06	1.9605e-06	1149.8	216.66	1.4086e-06	6.061e-06	277.28	78.148	61.548	18.031	5.6539e-06	25.485	0.00037125	0.00042984	0.0001096	1018.8	4.1758e-06	4.7037e-06	1112.6	215.49	4.2337e-06	4.6176e-06	274.15	78.647	62.618	19.01	4.1593e-06	26.141	253.706	53.278	62.163	-14.284	90.199	238.167	-14.088	-6.734	321.308	117.505	-7.372	0.389	0.609	7.392	317.173	6.691	-8191	255	
14107.407	1	1	0	0	0.068623	0.090359	0.11551	0.085365	0.037116	0.10611	0.2719	0.19247	0.13237	0.031238	0.10643	0.3133	0.026479	0.27018	0.11954	0.17152	-2.5833	-2.2792	-2.5875	-3.0563	-2.2271	-2.9521	-2.9333	-2.4437	-2.8979	-2.6437	-2.7729	-2.8396	-2.1708	-2.7396	-2.7542	-2.3646	235.001	203.330	114.159	-16.073	71.729	18.687	267.563	275.351	147.812	188.108	130.859	310.990	73.288	268.462	55.049	19.843	0.00024281	0.00032301	0.0001494	1047	5.3152e-06	3.4613e-06	1140.2	219.1	8.1139e-06	7.469e-06	276.51	78.45	61.274	17.964	3.5192e-06	25.443	0.00039608	0.00042186	0.00010653	1018.2	4.4647e-06	4.5896e-06	1109.8	215.81	4.5532e-06	4.5292e-06	274.91	78.628	62.896	19.006	4.1164e-06	26.218	256.291	59.928	115.679	-14.095	170.636	12.552	-14.194	-6.400	262.881	89.237	-7.211	0.355	0.950	7.561	195.092	7.080	-8191	255	
14107.481	1	1	0	0	0.15339	0.10202	0.12489	0.17485	0.078605	0.16092	0.065785	0.15159	0.14778	0.26883	0.24106	0.096469	0.1966	0.075166	0.15785	0.13974	-2.5042	-2.5	-2.5333	-3.0187	-2.3375	-2.7271	-3.1375	-2.3458	-3.1229	-2.5854	-2.5333	-3	-2.3771	-2.6792	-2.8021	-2.4188	33.497	310.356	181.386	185.122	146.178	-9.536	263.958	19.828	84.898	91.727	-11.561	218.873	24.848	48.641	275.348	203.314	0.00019974	0.00049307	4.0898e-05	1044.2	2.9378e-06	7.9118e-06	1143.1	217.1	3.2431e-06	3.0539e-06	276.25	78.205	60.603	18.026	3.3148e-06	25.317	0.00042194	0.00039889	0.00010289	1018	4.5569e-06	4.2897e-06	1109	215.56	4.551e-06	4.1657e-06	272.81	78.815	62.454	18.771	3.8943e-06	26.264	268.230	1.818	18.067	-14.188	317.105	89.432	-14.389	-6.497	250.255	-16.993	-7.068	0.584	1.167	6.918	89.532	6.641	-8191	255	
14107.599	1	1	0	0	0.11546	0.30838	0.25463	0.033455	0.16851	0.17174	0.10547	0.071824	0.10404	0.17572	0.05243	0.15397	0.40394	0.068473	0.29125	0.20228	-2.5563	-2.6229	-2.5542	-3.1292	-2.5292	-2.8625	-3.0563	-2.275	-2.7646	-2.5021	-2.3604	-2.9813	-2.3292	-2.4813	-2.9771	-2.1542	94.354	308.630	166.106	103.848	220.375	310.182	103.281	225.639	87.715	225.012	297.770	10.971	313.021	290.534	35.354	313.089	0.00015102	0.00020203	6.3509e-05	1042.9	8.2919e-06	2.655e-06	1139.5	217.76	5.5522e-06	3.7186e-06	276	77.586	60.523	17.859	1.2812e-06	25.574	0.00041886	0.00038654	0.00010139	1017.2	4.6532e-06	4.25e-06	1104.5	216.45	4.6112e-06	4.1636e-06	272.22	78.976	62.345	18.699	3.8135e-06	26.361	223.400	301.261	214.265	-14.048	58.927	113.987	-13.802	-6.543	263.481	32.866	-7.398	0.645	0.871	6.955	17.806	6.974	-8191	255	
14107.696	1	1	0	0	0.19538	0.18569	0.075674	0.16943	0.15057	0.12549	0.18695	0.052676	0.03226	0.15023	0.13606	0.20927	0.34275	0.20502	0.20749	0.09951	-2.3917	-2.5604	-2.225	-2.925	-2.2875	-2.3896	-2.9583	-2.3146	-2.7062	-2.7854	-2.3271	-2.925	-2.4604	-2.4208	-2.7979	-2.3	43.705	230.517	94.055	20.246	16.325	224.267	302.969	153.695	185.531	51.625	141.687	16.288	-12.049	275.888	234.086	326.064	0.00023981	0.00063263	0.00014755	1037.2	2.872e-06	9.3663e-07	1140.1	215.93	4.97e-06	4.6547e-06	276.33	77.836	60.433	17.829	1.3929e-06	25.426	0.00039367	0.00035677	9.6158e-05	1015	4.253e-06	3.9604e-06	1101.4	215.74	4.296e-06	4.0024e-06	271.57	79.261	62.06	18.725	3.998e-06	26.534	261.092	80.853	242.017	-14.061	19.451	75.800	-13.752	-6.561	103.236	96.384	-7.061	0.616	0.633	7.601	127.490	7.267	-8191	255	
14107.792	1	1	0	0	0.27381	0.19374	0.12564	0.12838	0.17057	0.029957	0.15168	0.04447	0.098773	0.21792	0.11672	0.19673	0.13627	0.11267	0.26583	0.20858	-2.3958	-2.6375	-2.2125	-2.9625	-2.5229	-2.5687	-3.0333	-2.4521	-2.6521	-2.8354	-2.5271	-2.9042	-2.5438	-2.6063	-3.0375	-2.2208	195.465	83.280	224.849	278.611	-23.148	132.473	265.122	328.114	56.549	21.558	316.248	309.758	240.339	-2.984	329.731	269.385	0.00019968	0.00029218	0.00018224	1035.4	3.6957e-06	5.5408e-06	1135.2	216.41	4.4361e-06	2.9714e-06	275.23	77.832	60.663	17.835	8.6699e-06	25.39	0.0003954	0.00036504	0.00010399	1015.2	4.318e-06	4.0649e-06	1103	216.16	4.2562e-06	3.9344e-06	272.72	79.256	61.869	18.581	4.1942e-06	26.459	172.208	245.371	141.709	-14.122	64.539	129.893	-13.915	-6.332	117.198	105.486	-7.120	0.763	0.835	7.384	192.371	6.729	-8191	255	
14107.912	1	1	0	0	0.19992	0.15313	0.23134	0.18621	0.12691	0.34094	0.15472	0.38744	0.13093	0.1769	0.2306	0.19107	0.22314	0.28251	0.16455	0.047922	-2.2188	-2.7812	-2.2146	-3.0583	-2.6875	-2.3417	-3.1167	-2.6167	-2.4146	-2.8521	-2.2021	-2.7896	-2.7271	-2.2958	-2.8104	-2.4292	26.109	86.334	165.277	287.907	244.909	80.891	224.462	-21.487	303.911	150.328	185.078	30.085	2.012	-4.487	1.723	46.003	0.00012815	0.00027146	4.358e-05	1039.6	3.5104e-06	2.6113e-06	1131.1	216.39	3.9693e-06	3.3809e-06	274.71	77.842	60.602	17.779	6.91e-06	25.267	0.00037289	0.00034867	0.00010793	1015.3	3.9872e-06	3.7333e-06	1102	215.61	3.9436e-06	3.7118e-06	273.54	78.755	61.408	18.503	4.419e-06	26.296	257.925	60.836	183.051	-14.418	64.840	2.699	-14.058	-6.482	278.673	141.843	-6.933	0.570	0.856	7.587	115.605	6.775	-8191	255	
14108.009	1	1	0	0	0.27168	0.22296	0.39102	0.056415	0.11686	0.088861	0.13798	0.1381	0.11494	0.19458	0.030239	0.089839	0.14379	0.15249	0.14004	0.17828	-2.1562	-2.7375	-2.2542	-2.6771	-2.4958	-2.2458	-2.9375	-2.4979	-2.5271	-2.8229	-2.2458	-2.6521	-2.6708	-2.125	-2.8667	-2.3667	301.181	230.424	119.730	22.918	83.801	156.615	18.523	258.494	331.493	247.028	329.734	268.339	274.396	309.182	98.138	221.804	0.0001912	0.00051986	4.12e-05	1034.2	1.5353e-06	3.0194e-06	1137.3	216.01	2.445e-06	6.8553e-06	275.74	77.555	59.992	17.624	3.3398e-06	25.15	0.00036439	0.00035501	0.00011627	1012	4.035e-06	3.9919e-06	1106.1	215.74	4.1121e-06	4.0683e-06	274.73	78.761	61.52	18.651	4.6784e-06	26.246	250.942	151.521	303.716	-14.184	112.859	138.181	-14.117	-6.535	151.311	200.463	-7.472	0.314	0.352	7.657	256.571	6.645	-8191	255	
14108.080	1	1	0	0	0.26914	0.19468	0.15181	0.18141	0.01551	0.13392	0.12292	0.13335	0.11637	0.058955	0.22114	0.21508	0.07419	0.36005	0.20837	0.14113	-1.9792	-2.8271	-2.0646	-2.7542	-2.8521	-2.2062	-2.7271	-2.6208	-2.3854	-2.8812	-2.3792	-2.5333	-2.8417	-2.2146	-2.6979	-2.6875	107.178	84.509	72.810	10.665	170.414	321.426	56.277	304.914	39.892	332.540	308.990	191.943	291.727	264.693	104.558	268.608	0.00019949	0.00043594	8.0581e-05	1031	2.381e-06	5.6034e-06	1133.3	216.04	2.8466e-06	6.9474e-06	273.79	77.81	60.746	17.894	9.5864e-06	25.121	0.00036254	0.00037614	0.00011911	1010.1	3.945e-06	4.2149e-06	1104.6	215.35	4.0036e-06	4.4251e-06	274.55	78.777	61.766	18.886	4.8845e-06	26.22	295.447	49.260	289.853	-14.364	194.671	174.730	-14.025	-6.416	224.308	244.578	-7.047	0.191	0.385	7.679	39.494	6.793	-8191	255	
14108.201	1	1	0	0	0.18156	0.055083	0.12377	0.38387	0.082118	0.15388	0.10699	0.18028	0.063508	0.19587	0.40118	0.2624	0.22983	0.083927	0.32554	0.29993	-1.9229	-2.9562	-2.4833	-2.5563	-2.9813	-2.0292	-3.0292	-2.5563	-2.2938	-2.9729	-2.5438	-2.4875	-2.7229	-2.2458	-2.8104	-2.7917	248.947	141.512	7.189	299.505	199.529	243.145	0.854	306.409	234.365	166.593	254.285	160.679	37.872	302.785	209.656	229.752	0.00033713	0.00048731	7.2437e-05	1035.2	5.3876e-06	5.0973e-06	1134.8	216.48	4.3503e-06	5.7585e-06	275.07	77.956	61.016	17.752	2.735e-06	25.251	0.00038088	0.00043017	0.00012417	1012.5	4.1561e-06	4.8655e-06	1105.6	215.6	4.2685e-06	4.8756e-06	274.11	78.791	61.941	19.022	4.7333e-06	26.225	245.412	130.568	-6.239	-14.218	75.976	167.703	-14.211	-6.244	169.615	201.715	-7.361	0.240	0.689	7.395	301.907	6.637	-8191	255	
14108.295	1	1	0	0	0.18627	0.29901	0.13503	0.078974	0.21283	0.27077	0.35438	0.23534	0.21542	0.20427	0.03334	0.14279	0.33039	0.11689	0.15787	0.14694	-1.7875	-2.8354	-2.4583	-2.5208	-2.8479	-2.2042	-2.8438	-2.7729	-2.2771	-2.8271	-2.4646	-2.3521	-2.9167	-2.2917	-2.6167	-2.8583	91.002	85.611	238.672	-0.448	86.024	-7.221	257.521	48.202	76.329	288.136	324.647	246.607	244.489	229.283	46.330	133.985	0.00025941	0.00032195	5.5879e-05	1035.3	2.9715e-06	1.9647e-06	1140.4	216.14	1.9866e-06	3.7538e-06	274.83	77.57	60.302	17.674	2.2705e-06	25.194	0.00039152	0.00045342	0.00011947	1013.7	4.3578e-06	5.0064e-06	1107.5	215.37	4.4508e-06	5.0174e-06	273.8	78.606	62.328	19.004	4.5197e-06	26.105	250.333	265.193	116.404	-14.295	210.938	221.728	-14.034	-6.347	286.144	191.524	-7.253	0.195	0.768	7.242	52.650	6.974	-8191	255	
14108.391	1	1	0	0	0.16048	0.23784	0.38411	0.089546	0.13642	0.12956	0.045951	0.30801	0.11925	0.094697	0.29874	0.16025	0.10779	0.025343	0.090347	0.029573	-1.8167	-2.5771	-2.5979	-2.5375	-2.7458	-2.4958	-2.5708	-2.8187	-2.175	-3.0354	-2.6437	-2.5208	-2.8563	-2.3187	-2.6167	-2.7917	-8.472	34.750	277.441	283.278	203.117	140.006	265.657	311.810	173.805	157.938	305.254	268.079	264.815	-3.448	0.511	299.697	0.0002466	0.0004976	0.00017338	1036	3.6732e-06	5.6082e-06	1138.3	216.55	5.0812e-06	4.6391e-06	275.6	77.793	60.448	17.747	1.4074e-06	25.02	0.00040682	0.00045033	0.0001144	1013.1	4.5379e-06	4.8622e-06	1105.2	215.2	4.5248e-06	4.7543e-06	272.66	78.393	62.349	18.863	4.199e-06	26.037	247.821	8.995	61.662	-14.317	99.058	91.091	-14.046	-6.301	330.636	25.390	-7.222	0.311	0.859	7.147	112.300	6.545	-8191	255	
14108.488	1	1	0	0	0.25276	0.10474	0.12447	0.14994	0.15498	0.093084	0.19781	0.073666	0.29552	0.22015	0.024179	0.2857	0.27283	0.063581	0.2129	0.10187	-1.8125	-2.6896	-2.6604	-2.4458	-3.1229	-2.3688	-2.5021	-3.0604	-2.2583	-2.7729	-2.9292	-2.3625	-2.9417	-2.5625	-2.2667	-2.7833	17.628	34.802	287.811	305.974	167.975	312.886	326.896	138.440	80.292	-1.415	282.315	-8.429	247.972	50.492	322.213	51.171	0.00021949	0.00033772	6.6114e-05	1039.9	2.7139e-06	5.0475e-06	1136.6	217.04	8.9437e-06	8.5291e-06	275.16	78.235	61.033	17.851	3.3713e-06	25.195	0.0004155	0.00041574	0.00010631	1011.3	4.6401e-06	4.5531e-06	1103.4	215.11	4.693e-06	4.5197e-06	272.54	78.598	62.804	18.818	4.1578e-06	26.14	209.697	-8.692	125.949	-14.455	59.803	79.932	-14.150	-6.521	220.205	69.285	-6.757	0.517	0.978	7.876	219.419	6.839	-8191	255	
14108.584	1	1	0	0	0.18265	0.11781	0.076158	0.28738	0.17205	0.19983	0.076792	0.24945	0.14686	0.11975	0.11437	0.01103	0.059965	0.11234	0.069756	0.085951	-1.8292	-2.7667	-2.8063	-2.3458	-2.825	-2.5083	-2.5583	-2.9854	-2.425	-2.7646	-2.7938	-2.4208	-3.025	-2.5542	-2.2604	-3.1188	204.406	326.397	311.651	334.283	77.887	193.827	237.327	318.354	236.316	85.239	202.320	123.898	251.674	278.737	0.250	86.002	0.00025874	0.00052755	0.00011831	1040.7	2.7381e-06	3.5468e-06	1135.2	217.7	2.3177e-06	6.318e-06	276.24	77.683	60.746	17.918	3.2969e-06	25.322	0.00043455	0.0004082	0.000105	1015	4.8228e-06	4.3868e-06	1103.2	216.01	4.7971e-06	4.3283e-06	272.22	78.841	62.701	18.79	4.0388e-06	26.356	290.760	84.617	-18.138	-14.403	-20.452	184.931	-14.037	-6.792	223.366	67.317	-6.956	-0.187	0.754	7.219	302.809	7.140	-8191	255	
14108.704	1	1	0	0	0.11659	0.073338	0.29956	0.099249	0.054409	0.051435	0.10803	0.064928	0.1213	0.14761	0.12843	0.28623	0.098416	0.17603	0.09877	0.25188	-1.8	-2.6354	-2.8292	-2.6292	-2.6854	-2.8417	-2.6042	-3.1271	-2.3833	-2.5271	-2.9979	-2.1125	-2.7354	-2.6729	-2.0875	-2.8792	29.305	302.597	229.321	180.521	141.605	118.257	-20.820	51.949	152.708	66.870	4.362	129.006	181.025	10.987	-12.618	-6.994	0.00023528	0.00066506	4.9977e-05	1046	4.5246e-06	1.8905e-06	1135.2	216.72	5.9722e-06	4.6077e-06	275.52	78.025	60.377	17.806	2.5337e-06	25.184	0.00042809	0.00038924	0.00010154	1018	4.632e-06	4.2135e-06	1104.9	216.87	4.6121e-06	4.2793e-06	271.76	79.245	62.43	18.681	4.048e-06	26.497	296.638	294.515	115.777	-14.348	76.123	281.460	-14.157	-6.393	141.830	24.296	-6.903	0.173	0.545	7.097	253.413	6.590	-8191	255	
14108.776	1	1	0	0	0.35607	0.27774	0.3542	0.15728	0.11995	0.084096	0.089945	0.22019	0.19694	0.0167	0.29374	0.29079	0.15484	0.094719	0.18649	0.10103	-2.1104	-2.3104	-2.825	-2.4667	-2.6167	-2.7229	-2.5521	-2.9813	-2.7167	-2.3208	-3.1521	-2.4625	-2.6375	-2.8542	-2.1104	-3.1208	218.634	-18.172	89.038	55.384	71.338	88.872	1.745	272.642	18.712	333.431	318.655	142.555	16.551	8.512	96.829	35.945	0.00026926	4.636e-05	5.0706e-05	1040.8	4.1211e-06	5.0009e-06	1136.4	216.79	2.4225e-06	3.6982e-06	275.52	77.897	60.684	17.799	4.8931e-06	25.19	0.00040841	0.00038203	0.00010391	1019.1	4.4921e-06	4.1501e-06	1103.7	217.32	4.4295e-06	4.1489e-06	272.82	79.64	62.089	18.624	4.1784e-06	26.537	228.255	277.741	-0.793	-14.078	34.031	84.759	-13.928	-6.395	43.137	58.018	-6.593	0.414	0.403	7.584	222.793	6.547	-8191	255	
14108.872	1	1	0	0	0.12498	0.17888	0.20662	0.2887	0.1418	0.069598	0.39138	0.24645	0.16368	0.11775	0.26275	0.067933	0.11884	0.067822	0.037728	0.12128	-2.2979	-2.1375	-2.9604	-2.5729	-2.6729	-2.8521	-2.3771	-2.8937	-2.5708	-2.5125	-2.8792	-2.425	-2.4958	-2.9271	-2.3229	-2.9042	198.672	228.157	150.900	260.684	334.825	6.961	253.166	283.627	210.258	263.905	286.091	153.329	293.337	185.101	228.503	175.895	0.00027531	0.00020856	0.00017108	1037.7	3.1988e-06	5.4386e-06	1136	216.24	6.7224e-06	4.1887e-06	274.99	77.26	60.227	17.885	6.7261e-06	25.352	0.00038441	0.00036918	0.0001062	1016.6	4.2554e-06	3.965e-06	1104.6	216.61	4.2153e-06	4.0204e-06	272.96	78.932	61.767	18.596	4.5145e-06	26.534	224.025	126.256	135.179	-14.358	56.393	70.212	-14.093	-6.445	283.964	217.203	-6.829	0.221	0.277	7.057	200.758	6.561	-8191	255	
14108.993	1	1	0	0	0.22047	0.18969	0.21069	0.18199	0.32666	0.10368	0.082325	0.31174	0.26704	0.18548	0.50795	0.24386	0.26236	0.23734	0.33214	0.10094	-2.3396	-2.2417	-2.8667	-2.6021	-2.5021	-2.8229	-2.2646	-2.8417	-2.7125	-2.3479	-3.0021	-2.5125	-2.3312	-2.8917	-2.1896	-2.725	319.314	57.730	266.536	-11.424	122.693	154.786	283.653	14.694	258.152	284.535	282.452	130.941	262.811	14.730	180.834	-10.004	0.00018235	0.00033808	0.00019259	1039.8	1.9424e-06	4.9909e-06	1137.5	216.48	3.0432e-06	2.5424e-06	273.6	77.378	60.666	17.945	6.5551e-06	25.11	0.00038108	0.00036877	0.00011607	1016.6	4.1956e-06	4.0317e-06	1107.7	216.71	4.2051e-06	4.0842e-06	274.57	79.002	61.952	18.65	4.7822e-06	26.32	245.769	73.653	106.239	-14.214	62.982	151.097	-14.114	-6.614	4.792	156.842	-6.934	0.198	0.600	7.351	116.162	6.251	-8191	255	
14109.089	1	1	0	0	0.11378	0.25191	0.10058	0.34939	0.24924	0.021217	0.31208	0.041811	0.27503	0.18065	0.2148	0.13613	0.16256	0.18243	0.29913	0.024157	-2.4646	-2.2333	-2.8104	-2.6583	-2.3896	-3.1021	-2.4521	-2.6875	-2.7438	-2.2875	-2.7417	-2.5687	-2.5167	-2.9958	-2.3063	-2.6875	53.831	313.622	25.484	10.591	163.823	124.415	257.110	77.570	19.319	192.866	93.293	245.200	149.595	212.523	57.841	290.723	0.00023758	0.00039906	0.00015851	1041.5	3.0994e-06	4.9783e-06	1138.3	217.84	3.6475e-06	3.1736e-06	276.08	77.839	60.558	17.866	2.038e-06	25.234	0.00037468	0.00038664	0.0001238	1017.9	4.2125e-06	4.268e-06	1110.2	216.74	4.2224e-06	4.4029e-06	276.35	79.018	61.879	18.82	4.97e-06	26.369	247.652	157.258	177.574	-14.202	47.634	131.572	-14.265	-6.444	235.583	173.164	-7.277	0.155	0.632	7.615	-2.883	6.688	-8191	255	
14109.185	1	1	0	0	0.099834	0.17675	0.035306	0.3053	0.22657	0.29687	0.17377	0.17078	0.14023	0.23335	0.17324	0.01993	0.2294	0.048209	0.19681	0.13083	-2.3875	-2.1229	-2.8	-2.7917	-2.3042	-3.0146	-2.6792	-2.5958	-2.8542	-2.4313	-2.9437	-2.5667	-2.3146	-2.9333	-2.3438	-2.2938	131.393	329.821	29.479	299.216	220.273	205.106	295.827	249.262	259.999	263.561	296.848	69.794	288.176	45.125	283.470	128.909	0.00023774	0.00033322	5.6661e-05	1037.9	3.0777e-06	4.6284e-06	1133.9	216.7	1.4255e-06	1.3279e-06	276.39	77.668	60.699	17.903	7.813e-06	25.163	0.00037953	0.00042143	0.00012671	1015.7	4.2314e-06	4.7349e-06	1109.3	216.81	4.2233e-06	4.8045e-06	276.24	79.014	61.92	19.023	4.856e-06	26.279	274.515	33.742	228.752	-14.016	133.471	190.019	-14.131	-6.727	240.241	160.216	-7.021	0.204	0.628	7.815	77.475	6.840	-8191	255	
14109.281	1	1	0	0	0.075605	0.052198	0.097872	0.1639	0.16666	0.35163	0.49596	0.14601	0.09	0.1327	0.022137	0.079821	0.23371	0.12141	0.16716	0.11807	-2.3521	-2.3688	-2.5458	-2.8042	-2.3896	-2.8875	-2.6625	-2.4437	-2.7562	-2.3021	-2.825	-2.7792	-2.275	-2.975	-2.525	-2.4521	330.247	290.886	20.861	165.543	255.834	62.577	314.504	295.806	150.245	311.624	41.037	127.680	282.554	39.565	81.447	86.274	0.00020328	0.00033381	0.00018141	1045.9	4.0003e-06	3.0115e-06	1141.6	218.17	5.3083e-06	3.7522e-06	276.23	77.69	60.739	17.857	3.6733e-06	25.293	0.00038401	0.00044687	0.00012282	1017.2	4.2451e-06	4.9574e-06	1110.4	216.73	4.3197e-06	5.0329e-06	274.62	78.948	62.383	19.188	4.7523e-06	26.352	269.888	204.075	34.985	-14.498	152.493	175.614	-14.146	-6.656	170.759	136.684	-7.320	0.257	1.039	7.178	93.045	6.203	-8191	255	
14109.376	1	1	0	0	0.1882	0.21595	0.064644	0.2274	0.084622	0.052598	0.13852	0.31339	0.23743	0.13772	0.10068	0.21239	0.094201	0.10763	0.10421	0.1487	-2.4458	-2.3542	-2.4833	-2.8917	-2.4042	-2.9542	-2.6937	-2.3542	-2.9667	-2.55	-2.7833	-2.8208	-2.2542	-2.8479	-2.5917	-2.3354	228.570	243.717	291.312	258.509	151.887	24.761	173.932	293.206	255.066	147.807	60.410	260.436	59.844	25.858	33.587	238.809	0.00017794	0.00021377	0.0001426	1043.1	5.7819e-06	4.6445e-06	1140.2	217.31	6.6709e-06	2.0233e-06	274.54	78.389	60.531	17.947	3.3522e-06	25.405	0.0004094	0.00047547	0.00012126	1019.3	4.6467e-06	5.2124e-06	1112.1	216.78	4.6661e-06	5.2023e-06	275.17	79.264	62.975	19.263	4.6369e-06	26.341	243.212	170.128	68.823	-14.398	83.118	61.778	-14.180	-6.436	279.166	48.620	-7.510	0.361	0.570	7.150	50.320	6.546	-8191	255	
14109.472	1	1	0	0	0.24314	0.081922	0.1308	0.1201	0.19165	0.12316	0.25098	0.32842	0.078574	0.14346	0.21064	0.1975	0.047591	0.19728	0.29892	0.1065	-2.6625	-2.2125	-2.4542	-3.0271	-2.2396	-2.9688	-2.8563	-2.3438	-2.9458	-2.4104	-2.6104	-2.8187	-2.2271	-2.6312	-2.5583	-2.3604	172.833	103.787	58.745	277.476	18.213	-3.661	237.640	325.868	83.966	270.541	290.932	312.768	246.290	176.581	64.486	71.322	0.00019222	0.00061305	0.000169	1048.9	4.9988e-06	2.9975e-06	1143.1	217.4	5.0041e-06	3.1777e-06	277	77.725	60.811	17.971	8.4215e-06	25.363	0.00043941	0.00046515	0.00011825	1020.2	4.9391e-06	5.0382e-06	1113.2	216.77	5.0196e-06	5.0597e-06	275.7	79.053	63.384	19.18	4.6292e-06	26.474	268.307	-11.978	329.989	-14.322	111.339	35.857	-14.131	-6.716	275.158	128.236	-7.327	-0.086	0.319	7.404	115.927	6.476	-8191	255	
14109.592	1	1	0	0	0.24721	0.063204	0.29505	0.049659	0.1089	0.049782	0.22069	0.22192	0.042123	0.050398	0.045166	0.19513	0.28458	0.046151	0.21345	0.19509	-2.4333	-2.2021	-2.3688	-2.8354	-2.3063	-2.8	-2.7521	-2.3146	-2.9396	-2.6104	-2.4437	-2.9188	-2.225	-2.6229	-2.5667	-2.25	227.857	28.437	45.466	317.299	238.520	117.733	251.682	244.814	118.741	328.961	78.051	246.255	76.998	201.108	230.577	275.198	0.00020414	0.00058493	0.00010386	1049.6	4.1822e-06	4.8672e-06	1144.4	217.83	3.2634e-06	8.0535e-06	278.44	78.116	60.795	18.117	4.3298e-06	25.171	0.00047383	0.00045498	0.00011742	1025.6	5.2514e-06	4.9686e-06	1116.4	217.73	5.3119e-06	4.9094e-06	275.78	79.555	63.658	19.193	4.5147e-06	26.573	236.375	46.707	3.964	-14.418	123.910	43.493	-14.146	-6.625	2.124	25.858	-7.011	0.407	0.438	7.420	157.828	6.758	-8191	255	
14109.689	1	1	0	0	0.12878	0.31679	0.13051	0.35062	0.055245	0.2843	0.27811	0.13379	0.17247	0.077618	0.19773	0.34665	0.22307	0.29643	0.19453	0.37078	-2.4167	-2.5021	-2.0875	-2.9417	-2.2875	-2.5667	-2.9062	-2.1021	-2.9896	-2.6854	-2.5333	-3.1	-2.5292	-2.4292	-2.8	-2.1937	-1.831	131.288	-2.879	291.258	258.756	146.507	254.338	282.944	191.474	257.603	235.563	304.404	154.148	32.611	153.559	-11.723	0.00028692	0.00024657	5.5799e-05	1051.1	8.0929e-06	2.9121e-06	1154.2	217.25	3.227e-06	4.6129e-06	276.34	78.375	61.173	17.953	5.0218e-06	25.272	0.00048228	0.00044457	0.0001164	1028.4	5.3818e-06	4.8966e-06	1117.4	219.29	5.3935e-06	4.8967e-06	275.96	80.461	63.879	19.173	4.5618e-06	27.011	215.217	148.209	145.269	-14.211	91.189	167.190	-14.267	-6.277	134.214	122.209	-6.897	0.930	0.614	7.425	160.061	6.690	-8191	255	
14109.785	1	1	0	0	0.19494	0.19477	0.26655	0.19924	0.16374	0.14082	0.26553	0.28977	0.088787	0.11829	0.10338	0.18972	0.16835	0.25586	0.26519	0.091329	-2.2125	-2.375	-2.3208	-2.8521	-2.4229	-2.5292	-3.0146	-2.4042	-2.7479	-2.8688	-2.3542	-2.9708	-2.5271	-2.2854	-3.0125	-2.3542	287.312	86.659	73.609	316.283	331.909	246.933	314.327	7.696	296.984	79.629	118.360	160.479	283.807	124.872	62.615	141.031	0.0003219	0.00056513	6.6167e-05	1049.3	2.7184e-06	3.1883e-06	1153.7	218.59	2.7648e-06	5.754e-07	276.72	78.279	61.106	17.797	1.3041e-06	25.316	0.00048078	0.00043866	0.00011724	1032.8	5.1916e-06	4.7859e-06	1121.1	220.04	5.0601e-06	4.708e-06	276.01	80.797	63.439	19.046	4.6159e-06	27.044	234.060	-8.067	89.568	-14.210	306.538	110.896	-14.159	-6.434	271.442	294.086	-7.131	0.468	0.216	7.173	91.103	6.771	-8191	255	
14109.881	1	1	0	0	0.15609	0.089849	0.055807	0.13725	0.17495	0.339	0.17515	0.28277	0.13937	0.14705	0.31174	0.15562	0.091108	0.14006	0.20052	0.14568	-2.4021	-2.8375	-2.0812	-3.0687	-2.5896	-2.4042	-2.9958	-2.3688	-2.6063	-2.8167	-2.1042	-2.8063	-2.5396	-2.6312	-2.9875	-2.4792	-10.613	146.940	318.422	-22.486	73.019	119.544	272.962	260.034	28.615	80.010	262.349	258.980	127.555	96.569	263.625	124.089	0.00042716	0.0006987	4.7261e-05	1050.3	5.7319e-06	3.0585e-06	1154.4	218.4	4.7432e-06	4.8158e-06	276.11	79.04	61.523	17.934	9.8842e-06	25.279	0.00045759	0.00042541	0.00012031	1036.4	4.9904e-06	4.6922e-06	1123.6	220.72	4.9683e-06	4.5874e-06	277.68	81.171	63.328	19.039	4.9211e-06	27.079	272.602	15.530	-10.260	-14.399	7.946	67.102	-14.114	-6.516	236.283	88.093	-6.921	0.244	0.412	7.823	185.826	6.445	-8191	255	
14109.977	1	1	0	0	0.12377	0.26312	0.10285	0.27579	0.17571	0.3437	0.10013	0.13264	0.2342	0.19966	0.085493	0.27407	0.21898	0.28781	0.10043	0.061155	-2.2625	-2.9146	-2.2396	-2.9604	-2.4813	-2.2562	-3.0667	-2.5	-2.625	-2.8812	-2.5208	-2.9771	-2.7979	-2.3729	-2.8417	-2.5792	59.087	317.213	55.160	304.612	-17.133	236.855	276.889	100.431	138.518	62.842	78.532	2.010	299.642	78.368	-16.544	252.303	0.0001895	0.00017776	3.9019e-05	1057.2	3.6359e-06	2.908e-06	1156.3	217.9	2.6049e-06	2.5623e-06	278.4	78.302	61.28	18.156	8.1849e-06	25.535	0.00043981	0.00041503	0.00012847	1037.1	4.8172e-06	4.5527e-06	1126.8	220.16	4.7595e-06	4.5038e-06	278.61	80.69	63.19	19.029	5.2311e-06	27.001	179.426	204.708	153.649	-14.573	14.314	39.218	-14.239	-6.526	139.396	85.706	-7.151	0.286	0.547	7.132	146.149	6.522	-8191	255	
14110.073	1	1	0	0	0.1512	0.18162	0.040843	0.12886	0.12385	0.14607	0.033641	0.18913	0.094863	0.12745	0.089899	0.28135	0.20501	0.07695	0.13444	0.081902	-2.1063	-2.7729	-2.4229	-2.8354	-2.675	-2.2229	-2.9083	-2.5229	-2.5083	-2.9792	-2.4333	-2.7771	-2.6063	-2.3958	-2.95	-2.675	60.344	135.476	65.391	2.359	1.767	309.524	-2.115	-14.603	269.507	86.242	268.755	293.413	334.244	107.628	280.807	51.428	0.00014493	0.00042842	5.2733e-05	1059.4	2.4159e-06	2.3717e-06	1152.5	218.88	5.228e-06	7.3105e-06	278.53	78.05	61.574	17.934	4.6699e-06	25.408	0.00042651	0.00041156	0.00013362	1035.5	4.6594e-06	4.5324e-06	1127.8	219.21	4.5977e-06	4.566e-06	279.38	80.293	62.899	19.102	5.2618e-06	26.721	257.732	151.732	75.473	-14.594	76.188	319.290	-14.298	-6.801	212.142	185.610	-7.379	-0.119	0.416	7.288	159.354	6.495	-8191	255	
14110.169	1	1	0	0	0.1223	0.072545	0.18819	0.19449	0.22046	0.099422	0.15725	0.072916	0.021318	0.14307	0.034218	0.19994	0.17076	0.083119	0.18732	0.11511	-1.8937	-2.9437	-2.2021	-2.8021	-2.7104	-2.2792	-2.9042	-2.4437	-2.1896	-2.8563	-2.5833	-2.6125	-2.8646	-2.2646	-2.8187	-2.6458	103.635	214.486	217.595	201.506	229.050	25.657	252.403	58.661	58.172	139.695	141.915	302.943	63.707	207.846	112.608	10.424	0.00010868	0.00031455	9.529e-05	1052.4	3.1504e-06	3.1092e-06	1151.6	218.66	4.4003e-06	5.6972e-06	277.58	78.599	61.194	18.118	5.9101e-07	25.441	0.0004115	0.0004257	0.00013266	1032.1	4.4712e-06	4.6967e-06	1126.7	218.55	4.4392e-06	4.7441e-06	279.08	80.038	62.643	19.159	5.0669e-06	26.568	208.978	107.814	251.685	-14.507	38.432	148.250	-14.288	-6.880	86.497	251.594	-7.426	0.373	0.339	7.401	297.197	6.925	-8191	255	
14110.265	1	1	0	0	0.1306	0.16105	0.095066	0.2858	0.10825	0.1933	0.19101	0.18057	0.17826	0.10921	0.25319	0.23387	0.021043	0.16086	0.094563	0.12545	-1.925	-2.7188	-2.4396	-2.5979	-2.7771	-2.1063	-2.9979	-2.7042	-2.4104	-2.8167	-2.3625	-2.4354	-2.8583	-2.2083	-2.7833	-2.5021	269.017	180.116	248.585	274.959	-16.867	218.138	217.891	18.289	83.024	134.430	303.572	279.462	200.480	300.477	160.485	6.903	0.00019096	0.00013462	0.00010614	1054	7.5658e-06	5.7149e-06	1155	218.13	2.5473e-06	8.0555e-06	279.58	78.254	61.01	18.108	5.123e-06	25.412	0.0003909	0.0004467	0.00012799	1029.6	4.2705e-06	4.9276e-06	1123.8	218.4	4.2997e-06	4.9794e-06	278.22	79.769	62.519	19.273	4.8345e-06	26.461	264.903	294.862	10.101	-14.502	143.232	185.799	-14.478	-6.776	163.758	112.185	-7.210	0.316	0.848	7.243	-4.405	6.699	-8191	255	
14110.384	1	1	0	0	0.10509	0.26808	0.081527	0.2166	0.1949	0.35504	0.13956	0.16557	0.17713	0.1881	0.27365	0.26558	0.26263	0.15069	0.27192	0.071681	-1.7646	-2.7771	-2.4104	-2.4854	-2.9333	-2.2167	-2.7729	-2.8312	-2.0958	-2.7542	-2.4021	-2.4521	-2.9688	-2.275	-2.5146	-2.7625	52.836	33.182	34.006	272.534	224.644	-2.404	65.217	288.140	210.590	122.171	238.360	309.084	248.638	33.391	71.458	170.506	0.00035123	0.00022904	6.036e-05	1057.1	6.2027e-07	1.0093e-06	1150.3	219.12	3.4055e-06	5.0171e-06	277.86	78.307	61.53	18.013	4.7579e-06	25.317	0.0003972	0.00046381	0.00012133	1029.1	4.4014e-06	5.1014e-06	1122	218.45	4.4914e-06	5.126e-06	277.05	79.534	62.997	19.319	4.6723e-06	26.423	271.572	19.056	261.165	-14.407	79.406	111.357	-14.322	-6.747	235.541	116.994	-7.062	0.374	0.647	7.273	139.345	6.519	-8191	255	
14110.480	1	1	0	0	0.011161	0.23615	0.23931	0.42676	0.085003	0.15619	0.26357	0.24619	0.091374	0.10207	0.13722	0.14488	0.073709	0.020324	0.13203	0.14129	-1.6792	-2.8146	-2.4792	-2.5438	-2.8771	-2.3458	-2.7396	-2.9125	-2.175	-2.7708	-2.825	-2.4792	-3.0062	-2.4667	-2.5125	-2.9396	51.714	60.162	198.892	315.804	6.541	266.335	-16.666	329.248	18.832	148.254	84.598	71.891	207.508	98.853	252.994	35.431	0.00036287	0.00045802	0.00016323	1050.4	6.5977e-07	9.4609e-06	1157.2	220.05	1.9614e-06	6.4797e-07	278.84	78.568	61.346	18.026	2.4731e-06	25.368	0.00042461	0.00047695	0.00011834	1026.8	4.6938e-06	5.119e-06	1123.5	218.03	4.7963e-06	5.0247e-06	276.86	79.382	63.266	19.194	4.5023e-06	26.371	251.350	310.439	47.199	-14.333	102.991	22.190	-14.607	-6.655	299.732	313.038	-6.845	0.281	0.307	6.979	97.372	6.732	-8191	255	
14110.577	1	1	0	0	0.1028	0.14019	0.11863	0.067214	0.12483	0.16888	0.2414	0.14714	0.10331	0.092221	0.19703	0.097128	0.18392	0.19753	0.12626	0.028712	-1.7167	-2.7021	-2.7	-2.4417	-2.7771	-2.3125	-2.3125	-2.7708	-2.1937	-2.6646	-2.7521	-2.3	-2.9375	-2.4854	-2.3479	-2.9562	282.971	320.299	142.965	-12.488	213.154	113.392	39.222	21.807	-9.000	145.188	292.594	329.460	288.799	331.331	200.539	143.092	0.00038233	0.00053343	9.5436e-05	1052.9	6.433e-06	6.3022e-06	1148.5	219.36	7.5458e-06	7.2459e-06	278.07	78.36	61.209	17.919	5.0258e-06	25.628	0.00044231	0.00044811	0.00011323	1026.3	4.9507e-06	4.8354e-06	1118.2	218.09	5.0138e-06	4.8067e-06	275.68	79.364	63.528	19.099	4.3919e-06	26.519	257.723	-6.931	123.359	-14.500	117.372	32.807	-14.240	-6.664	263.478	75.569	-7.484	-0.072	0.654	7.132	313.492	6.580	-8191	255	
14110.673	1	1	0	0	0.32111	0.29818	0.095445	0.01248	0.18519	0.2861	0.27375	0.23179	0.084188	0.29937	0.14386	0.17008	0.22476	0.33808	0.073763	0.12934	-1.8438	-2.5583	-2.7333	-2.3396	-2.8208	-2.5646	-2.4354	-2.9021	-2.3896	-2.5292	-2.725	-2.1729	-2.8521	-2.5167	-2.2833	-2.95	12.083	251.317	273.774	175.600	153.436	324.242	296.358	223.777	268.006	173.926	191.636	263.654	79.978	50.153	318.597	-5.936	0.00027828	0.00035841	7.8281e-05	1046.3	2.8624e-06	4.4144e-06	1151.1	218.28	7.1337e-06	3.2669e-06	277.17	78.019	61.32	18.014	3.9664e-06	25.376	0.00045815	0.0004301	0.00011156	1025.2	5.0656e-06	4.6396e-06	1117.7	218.66	5.0799e-06	4.6182e-06	274.93	79.593	63.73	18.968	4.2804e-06	26.694	277.599	50.467	109.231	-14.584	54.293	57.376	-14.286	-6.515	143.250	52.405	-7.335	0.096	0.162	6.775	29.533	6.491	-8191	255	
14110.767	1	1	0	0	0.039487	0.3488	0.23372	0.35638	0.12181	0.067879	0.26465	0.13169	0.12008	0.3069	0.080006	0.3447	0.20031	0.14811	0.18455	0.14104	-2.0167	-2.4021	-2.7354	-2.4229	-2.8375	-2.5146	-2.5667	-3.0833	-2.2687	-2.6562	-2.825	-2.2	-2.6104	-2.7167	-2.4437	-2.8542	92.521	290.947	111.404	286.398	68.720	143.215	227.865	63.493	168.320	234.016	60.258	278.300	298.284	92.757	32.264	69.743	0.00019462	0.00028902	0.00015019	1054.4	1.9315e-06	2.4855e-06	1151	218.77	6.047e-06	1.7291e-06	276.65	78.309	61.212	17.889	6.0931e-06	25.41	0.00045417	0.00042119	0.00010989	1031.5	4.9858e-06	4.5126e-06	1118	219.57	4.9402e-06	4.4722e-06	274.57	80.142	63.328	18.942	4.2826e-06	26.763	231.049	301.598	40.433	-14.387	304.447	133.485	-14.548	-6.475	251.631	165.653	-7.329	0.072	0.427	7.073	194.729	6.406	-8191	255	
14110.863	1	1	0	0	0.24069	0.11659	0.30328	0.1019	0.13889	0.24236	0.12849	0.16617	0.20415	0.18898	0.20724	0.1385	0.25468	0.10028	0.13072	0.29899	-1.9042	-2.4208	-2.8354	-2.2708	-2.8312	-2.6813	-2.4521	-2.9354	-2.5104	-2.35	-2.75	-2.1917	-2.6979	-2.7458	-2.2479	-2.7417	168.394	250.313	61.021	236.312	225.984	111.223	-6.174	297.314	289.705	127.980	23.767	297.070	328.844	-12.805	110.247	303.892	7.299e-05	0.00030976	5.6087e-05	1052.4	3.4284e-06	4.4348e-06	1148.6	217.62	3.8253e-06	2.4765e-06	279.32	78.336	61.371	17.953	4.2606e-06	25.336	0.00043444	0.00040594	0.00010915	1031.8	4.7908e-06	4.403e-06	1118.4	219.91	4.698e-06	4.3816e-06	277.02	80.517	63.117	18.888	4.4655e-06	26.939	214.099	24.250	329.428	-14.604	277.264	73.768	-14.236	-6.832	117.551	34.464	-6.984	0.178	0.115	7.125	207.245	6.216	-8191	255	
14110.960	1	1	0	0	0.1904	0.12975	0.16632	0.2933	0.092401	0.12834	0.047112	0.19083	0.1358	0.11987	0.18108	0.24918	0.028222	0.17012	0.31691	0.1386	-2.1125	-2.1042	-2.95	-2.4042	-2.6063	-2.8583	-2.3708	-3.1479	-2.5271	-2.3854	-2.925	-2.3833	-2.2708	-2.8542	-2.2958	-2.6854	181.352	189.425	33.885	5.017	295.371	47.397	171.755	17.407	117.849	211.384	288.934	96.780	280.283	172.914	104.062	221.769	0.00010919	0.00022696	0.00010913	1052.7	1.2778e-06	6.5261e-06	1149.2	219.03	4.9889e-06	2.4628e-06	278.84	78.604	61.388	18.033	4.5564e-06	25.53	0.00041633	0.00039674	0.00011591	1032.9	4.5743e-06	4.2838e-06	1120.2	219.93	4.498e-06	4.2774e-06	276.98	80.355	62.99	18.877	4.785e-06	26.929	91.555	15.688	85.761	-14.310	44.543	50.469	-14.382	-6.806	25.591	150.280	-7.481	0.155	0.648	7.059	141.173	6.596	-8191	255	
14111.080	1	1	0	0	0.29015	0.071271	0.13921	0.12298	0.15851	0.10225	0.3549	0.28594	0.24627	0.24023	0.077815	0.11165	0.042198	0.037549	0.081093	0.079561	-2.2271	-2.3438	-2.9271	-2.6229	-2.4313	-2.7042	-2.4938	-2.7417	-2.5896	-2.3	-2.9292	-2.5479	-2.3979	-2.7917	-2.2479	-2.8021	124.171	9.209	51.009	291.410	196.624	27.090	267.368	274.094	107.923	-7.391	303.979	324.476	319.995	112.352	22.765	321.500	0.00022006	0.0004868	8.8499e-05	1048.9	4.0609e-06	1.8541e-06	1149.5	219.36	4.5291e-06	6.2895e-06	277.91	78.327	61.438	17.903	4.4956e-06	25.59	0.00040921	0.00039325	0.00012309	1030.1	4.4443e-06	4.2486e-06	1122.2	219.75	4.4214e-06	4.3006e-06	278.11	80.045	62.779	18.882	4.9583e-06	26.708	220.227	300.498	62.415	-14.585	8.775	167.679	-14.415	-6.429	218.669	111.096	-7.045	0.140	0.586	7.481	95.837	6.623	-8191	255	
14111.176	1	1	0	0	0.29528	0.073301	0.073547	0.12255	0.17239	0.18286	0.27434	0.10349	0.071502	0.027258	0.19281	0.0853	0.14593	0.20733	0.11462	0.26688	-2.2583	-2.2917	-2.8021	-2.6583	-2.3583	-2.9417	-2.3146	-2.8063	-2.9146	-2.2979	-2.9125	-2.7	-2.3042	-2.9396	-2.2479	-2.8	148.333	88.817	289.248	240.949	145.130	208.725	300.903	225.245	229.423	79.578	181.771	275.228	327.358	217.363	33.037	218.108	0.00036636	0.00037875	0.00011374	1054	2.8054e-06	2.434e-06	1151	219.58	5.2598e-06	2.6631e-06	276.93	78.462	61.172	17.828	1.4408e-06	25.605	0.00039384	0.00040038	0.00012708	1029	4.3497e-06	4.4328e-06	1124.9	219.01	4.3145e-06	4.5073e-06	278.51	79.739	62.576	19.021	5.0719e-06	26.697	242.385	265.705	38.193	-14.472	294.626	178.350	-14.321	-6.584	185.434	225.628	-7.523	0.322	0.400	7.471	333.462	6.516	-8191	255	
14111.272	1	1	0	0	0.32613	0.24944	0.21689	0.30856	0.17806	0.16648	0.23792	0.29295	0.17122	0.10496	0.15075	0.3066	0.27545	0.31593	0.07454	0.27814	-2.3229	-2.0792	-2.9562	-2.5917	-2.3417	-2.9021	-2.4271	-2.5187	-2.8312	-2.1813	-2.7104	-2.6729	-2.3146	-2.975	-2.4458	-2.5187	111.566	151.037	-8.518	296.249	292.997	264.225	263.018	330.452	116.769	182.928	315.207	310.983	274.401	299.021	229.038	168.876	0.00021513	0.00039666	0.00012777	1052.8	4.0704e-06	1.627e-06	1152.8	219.45	5.2035e-06	4.0619e-06	279.44	78.129	61.217	18.052	5.8388e-06	25.423	0.00038361	0.00042403	0.00012839	1028.9	4.2992e-06	4.6788e-06	1124.3	218.81	4.1706e-06	4.7622e-06	278.71	79.43	62.539	19.186	4.8893e-06	26.513	201.769	88.602	129.686	-14.780	39.060	223.302	-14.278	-6.841	140.534	259.238	-7.312	0.591	0.311	7.727	75.826	6.181	-8191	255	
14111.369	1	1	0	0	0.2373	0.21258	0.10952	0.057834	0.051132	0.15296	0.19035	0.078575	0.13068	0.10757	0.22254	0.17085	0.086287	0.133	0.051926	0.29228	-2.5687	-2.0958	-2.6125	-2.6833	-2.2854	-3.0521	-2.6875	-2.3896	-2.8937	-2.4167	-3.0563	-2.85	-2.2458	-2.775	-2.55	-2.4854	46.611	51.299	207.484	318.931	19.704	223.662	240.668	21.437	89.920	248.250	25.684	83.736	327.220	-2.853	19.206	267.539	4.7038e-05	0.00021411	7.8078e-05	1053.6	7.74e-06	2.1068e-06	1150.7	219.13	3.1558e-06	7.3268e-06	278.4	78.552	61.495	17.948	2.9063e-06	25.435	0.00037835	0.000447	0.00012281	1029.7	4.2291e-06	4.9469e-06	1122.6	218.12	4.2408e-06	4.9837e-06	277.44	79.502	62.792	19.305	4.6333e-06	26.442	223.124	249.820	45.864	-14.546	120.624	130.740	-14.381	-6.860	219.194	146.396	-7.339	0.317	0.522	6.944	246.691	5.980	-8191	255	
14111.465	1	1	0	0	0.17496	0.24657	0.28843	0.18981	0.16793	0.23712	0.13644	0.31456	0.39435	0.17289	0.15172	0.15902	0.046493	0.12606	0.23308	0.19298	-2.5208	-2.05	-2.5	-2.8708	-2.1146	-2.7667	-2.5667	-2.2958	-2.9417	-2.3417	-2.4771	-2.7875	-2.0917	-2.7896	-2.5729	-2.3646	96.810	15.293	41.398	278.186	181.557	293.062	309.086	265.751	78.873	44.691	148.359	294.984	74.446	12.228	-11.514	102.919	0.00020122	0.00048299	6.6683e-05	1053.8	3.6576e-06	2.6724e-06	1151.7	219.25	3.4666e-06	3.7295e-06	278.92	78.484	61.292	18.022	6.6134e-07	25.624	0.00039787	0.00046264	0.00011808	1026.9	4.4553e-06	5.0451e-06	1119.7	218.11	4.516e-06	5.0151e-06	276.66	79.434	63.113	19.244	4.4805e-06	26.495	251.785	95.220	242.311	-14.371	124.615	-10.732	-14.276	-6.783	263.501	49.232	-7.151	0.514	0.686	7.557	46.574	6.606	-8191	255	
14111.561	1	1	0	0	0.24178	0.29545	0.17523	0.25245	0.18584	0.22596	0.33415	0.305	0.21359	0.159	0.21534	0.27423	0.20589	0.077283	0.068087	0.2495	-2.5042	-2.2313	-2.6042	-2.9771	-2.1833	-2.7542	-2.7208	-2.4479	-2.9521	-2.4375	-2.5292	-2.6271	-2.2333	-2.8354	-2.6771	-2.2458	56.455	283.936	82.199	1.780	143.277	291.974	312.101	-3.662	58.737	226.288	324.915	-5.493	320.905	51.085	150.841	270.145	0.00040256	0.00031789	9.4859e-05	1059.7	3.2054e-06	5.1723e-06	1153.8	219.28	6.7874e-06	3.2462e-06	278.09	78.502	60.998	17.951	4.2086e-06	25.583	0.00042442	0.00045285	0.00011488	1028	4.8059e-06	4.9424e-06	1120.4	217.67	4.8302e-06	4.8212e-06	275.71	79.162	63.418	19.149	4.3841e-06	26.49	226.215	253.296	-1.138	-14.442	182.505	22.961	-14.412	-6.903	256.835	131.166	-7.222	-0.135	0.607	7.006	242.409	6.725	-8191	255	
14111.682	1	1	0	0	0.10444	0.1452	0.14201	0.40328	0.14803	0.050879	0.097961	0.099061	0.14262	0.18803	0.29764	0.13033	0.18341	0.22898	0.23095	0.36454	-2.45	-2.2167	-2.3917	-2.9042	-2.2583	-2.6896	-2.8208	-2.2979	-2.8583	-2.3646	-2.4417	-2.8854	-2.4208	-2.6	-2.7333	-2.0958	-22.517	51.568	51.094	245.058	155.174	116.081	-3.821	243.809	192.992	171.199	11.336	169.478	193.209	196.172	327.435	31.670	0.00036189	0.00038117	0.00013031	1055.1	3.5962e-06	2.7007e-06	1155.3	218.76	5.3818e-06	8.7868e-06	277.8	78.678	61.334	18.084	2.7356e-06	25.347	0.00044533	0.00043147	0.00011127	1029.2	5.0045e-06	4.6927e-06	1120.3	218.02	4.9826e-06	4.6589e-06	275.93	79.512	63.625	19.055	4.2379e-06	26.546	237.009	305.133	78.784	-14.465	157.920	275.589	-14.287	-6.989	71.956	110.379	-7.217	0.186	0.342	7.066	175.921	6.337	-8191	255	
14111.776	1	1	0	0	0.095754	0.25575	0.20733	0.19264	0.19451	0.18683	0.2861	0.13431	0.30544	0.11116	0.064561	0.10619	0.16351	0.078167	0.15234	0.23156	-2.5521	-2.5438	-2.3083	-3.0917	-2.3729	-2.5812	-2.9271	-2.4	-2.775	-2.5521	-2.4458	-2.8792	-2.3438	-2.3458	-2.7875	-2.2042	147.393	158.453	284.789	-24.098	113.895	140.897	311.670	282.994	193.179	221.252	178.790	161.531	159.502	61.404	57.985	202.259	0.00014571	0.00028473	0.00022351	1056.2	3.9059e-06	3.9787e-06	1149.5	219.63	6.1753e-06	7.547e-06	277.94	78.171	61.238	18.102	4.391e-06	25.477	0.00045266	0.00041037	0.0001084	1031.7	4.9549e-06	4.4864e-06	1118	219.07	4.9197e-06	4.461e-06	275.6	79.821	63.366	19.052	4.1262e-06	26.764	266.936	330.674	63.841	-14.435	121.545	111.897	-14.246	-6.806	331.819	23.979	-7.444	0.342	0.466	6.979	58.491	6.191	-8191	255	
#DATA ENDS
