BOXY.EXE: ISS Imagent and Oximeter Data Acquisition Program Version 0.80
Ascii Record File

#ACQ INFORMATION
2  Detector Channels 
16  External MUX Channels 
1  Auxiliary Channels 
5000  Waveform (CCF) Frequency (Hz)
1  Waveforms Skipped 
30  Waveforms Averaged 
1  Cycles Averaged 
16  Acquisitions per Waveform 
10.0806  Updata Rate (Hz) 

#FILE INFORMATION
TRUE -- External MUX Channel results are PARSED.
FALSE -- AC DC and Phase are NOT grouped.
TRUE -- Companion Program Settings File CREATED.
FALSE -- AC data not excluded
FALSE -- DC data not excluded
FALSE -- Phase data not excluded
FALSE -- Auxillary Chn. data not excluded
Tab delimiters

#CALIBRATION STATE
TRUE -- Waveform Calibration Values APPLIED.


#AUX CALIBRATION VALUES
Val Type	aux-1	

Term	1.0000e+00	
Factor	0.0000e+00	


#WF CALIBRATION VALUES
A = Detector Channel
Val Type	A-AC1	A-AC2	A-AC3	A-AC4	A-AC5	A-AC6	A-AC7	A-AC8	A-AC9	A-AC10	A-AC11	A-AC12	A-AC13	A-AC14	A-AC15	A-AC16	A-DC1	A-DC2	A-DC3	A-DC4	A-DC5	A-DC6	A-DC7	A-DC8	A-DC9	A-DC10	A-DC11	A-DC12	A-DC13	A-DC14	A-DC15	A-DC16	A-Ph1	A-Ph2	A-Ph3	A-Ph4	A-Ph5	A-Ph6	A-Ph7	A-Ph8	A-Ph9	A-Ph10	A-Ph11	A-Ph12	A-Ph13	A-Ph14	A-Ph15	A-Ph16	

Term	0.00000e+00	0.00000e+00	0.00000e+00	0.00000e+00	0.00000e+00	0.00000e+00	0.00000e+00	0.00000e+00	0.00000e+00	0.00000e+00	0.00000e+00	0.00000e+00	0.00000e+00	0.00000e+00	0.00000e+00	0.00000e+00	0.00000e+00	0.00000e+00	0.00000e+00	0.00000e+00	0.00000e+00	0.00000e+00	0.00000e+00	0.00000e+00	0.00000e+00	0.00000e+00	0.00000e+00	0.00000e+00	0.00000e+00	0.00000e+00	0.00000e+00	0.00000e+00	0.00000e+00	0.00000e+00	0.00000e+00	0.00000e+00	0.00000e+00	0.00000e+00	0.00000e+00	0.00000e+00	0.00000e+00	0.00000e+00	0.00000e+00	0.00000e+00	0.00000e+00	0.00000e+00	0.00000e+00	0.00000e+00	
Factor	1.00000e+00	1.00000e+00	1.00000e+00	1.00000e+00	1.00000e+00	1.00000e+00	1.00000e+00	1.00000e+00	1.00000e+00	1.00000e+00	1.00000e+00	1.00000e+00	1.00000e+00	1.00000e+00	1.00000e+00	1.00000e+00	1.00000e+00	1.00000e+00	1.00000e+00	1.00000e+00	1.00000e+00	1.00000e+00	1.00000e+00	1.00000e+00	1.00000e+00	1.00000e+00	1.00000e+00	1.00000e+00	1.00000e+00	1.00000e+00	1.00000e+00	1.00000e+00	X	X	X	X	X	X	X	X	X	X	X	X	X	X	X	X	

B = Detector Channel
Val Type	B-AC1	B-AC2	B-AC3	B-AC4	B-AC5	B-AC6	B-AC7	B-AC8	B-AC9	B-AC10	B-AC11	B-AC12	B-AC13	B-AC14	B-AC15	B-AC16	B-DC1	B-DC2	B-DC3	B-DC4	B-DC5	B-DC6	B-DC7	B-DC8	B-DC9	B-DC10	B-DC11	B-DC12	B-DC13	B-DC14	B-DC15	B-DC16	B-Ph1	B-Ph2	B-Ph3	B-Ph4	B-Ph5	B-Ph6	B-Ph7	B-Ph8	B-Ph9	B-Ph10	B-Ph11	B-Ph12	B-Ph13	B-Ph14	B-Ph15	B-Ph16	

Term	0.00000e+00	0.00000e+00	0.00000e+00	0.00000e+00	0.00000e+00	0.00000e+00	0.00000e+00	0.00000e+00	0.00000e+00	0.00000e+00	0.00000e+00	0.00000e+00	0.00000e+00	0.00000e+00	0.00000e+00	0.00000e+00	0.00000e+00	0.00000e+00	0.00000e+00	0.00000e+00	0.00000e+00	0.00000e+00	0.00000e+00	0.00000e+00	0.00000e+00	0.00000e+00	0.00000e+00	0.00000e+00	0.00000e+00	0.00000e+00	0.00000e+00	0.00000e+00	5.06194e+01	-1.29438e+02	-1.31290e+02	-1.83563e+02	-6.55746e+01	-6.95186e+01	-1.58231e+02	-1.62015e+02	-5.78124e+01	-7.32865e+01	-1.70600e+02	-1.70833e+02	-1.78671e+02	-1.76838e+02	-6.47668e+01	-1.49876e+02	
Factor	6.06753e-05	1.77433e-04	4.50731e-05	1.61896e-01	2.38399e-06	1.84020e-06	1.81550e-01	5.88728e-02	2.84769e-06	1.77999e-06	1.01125e-01	3.33508e-02	3.05324e-02	1.05122e-02	2.09870e-06	1.49555e-02	1.12874e-05	1.48015e-05	4.16755e-06	7.72785e-02	1.51997e-07	1.66052e-07	8.13358e-02	2.81645e-02	1.53049e-07	1.66029e-07	4.70097e-02	1.54312e-02	1.47354e-02	5.07175e-03	1.59162e-07	7.00736e-03	X	X	X	X	X	X	X	X	X	X	X	X	X	X	X	X	



#DISTANCE SETTINGS
A = Detector Channel
A-1	A-2	A-3	A-4	A-5	A-6	A-7	A-8	A-9	A-10	A-11	A-12	A-13	A-14	A-15	A-16	

2.5000e+00	3.0000e+00	2.5000e+00	3.0000e+00	2.0000e+00	3.0000e+00	1.5000e+00	3.0000e+00	3.0000e+00	3.0000e+00	3.0000e+00	3.0000e+00	3.0000e+00	3.0000e+00	1.5000e+00	3.0000e+00	

B = Detector Channel
B-1	B-2	B-3	B-4	B-5	B-6	B-7	B-8	B-9	B-10	B-11	B-12	B-13	B-14	B-15	B-16	

1.0000e+01	1.0000e+01	1.0000e+01	1.4400e+00	1.0000e+01	1.0000e+01	1.5100e+00	1.9400e+00	1.0000e+01	1.0000e+01	1.9900e+00	2.4900e+00	2.4100e+00	2.9000e+00	1.0000e+01	2.9800e+00	




#DATA BEGINS
time	group	step	mark	flag	A-AC1	A-AC2	A-AC3	A-AC4	A-AC5	A-AC6	A-AC7	A-AC8	A-AC9	A-AC10	A-AC11	A-AC12	A-AC13	A-AC14	A-AC15	A-AC16	A-DC1	A-DC2	A-DC3	A-DC4	A-DC5	A-DC6	A-DC7	A-DC8	A-DC9	A-DC10	A-DC11	A-DC12	A-DC13	A-DC14	A-DC15	A-DC16	A-Ph1	A-Ph2	A-Ph3	A-Ph4	A-Ph5	A-Ph6	A-Ph7	A-Ph8	A-Ph9	A-Ph10	A-Ph11	A-Ph12	A-Ph13	A-Ph14	A-Ph15	A-Ph16	B-AC1	B-AC2	B-AC3	B-AC4	B-AC5	B-AC6	B-AC7	B-AC8	B-AC9	B-AC10	B-AC11	B-AC12	B-AC13	B-AC14	B-AC15	B-AC16	B-DC1	B-DC2	B-DC3	B-DC4	B-DC5	B-DC6	B-DC7	B-DC8	B-DC9	B-DC10	B-DC11	B-DC12	B-DC13	B-DC14	B-DC15	B-DC16	B-Ph1	B-Ph2	B-Ph3	B-Ph4	B-Ph5	B-Ph6	B-Ph7	B-Ph8	B-Ph9	B-Ph10	B-Ph11	B-Ph12	B-Ph13	B-Ph14	B-Ph15	B-Ph16	aux-1	digaux	

46598.801	1	1	0	768	0.035688	0.04425	0.12433	0.2085	0.30498	0.17459	0.30282	0.26873	0.16516	0.047664	0.15823	0.245	0.18335	0.024362	0.081232	0.19947	-3.6604	-4.9271	-4.0667	-4.2188	-4.8417	-3.8875	-4.6937	-4.5958	-3.8812	-4.9688	-4.3604	-4.2396	-4.9417	-4.125	-4.4417	-4.7521	127.458	193.890	-53.828	202.837	-47.711	-62.939	193.862	195.771	20.366	-52.142	78.878	177.275	246.602	258.012	177.362	167.903	0.0015098	0.00021213	0.0002189	504.94	1.0219e-05	7.8305e-06	705.69	226.82	5.1814e-06	7.8545e-06	358.05	189.05	111.78	60.076	6.8254e-06	114.13	0.0013837	0.001432	0.00040326	500.17	1.4678e-05	1.5995e-05	699.03	225.88	1.4985e-05	1.5939e-05	356.74	188.43	112.4	60.545	1.5688e-05	114.66	8.192	-24.091	-13.818	-87.875	59.303	47.227	-88.481	-82.856	-12.988	30.950	-83.922	-78.817	-77.919	-72.716	39.702	-74.588	-8191	255	
46598.898	1	1	0	0	0.13124	0.15232	0.089464	0.22291	0.26358	0.032667	0.072835	0.14017	0.023267	0.18201	0.28574	0.14082	0.28956	0.060244	0.087381	0.18167	-3.7021	-4.675	-4.2271	-4.2188	-4.8625	-3.825	-4.5292	-4.8479	-3.9333	-4.7188	-4.6333	-4.4125	-4.9167	-4.0708	-4.2958	-4.8812	62.816	224.801	63.207	186.229	12.394	86.588	-29.438	201.776	192.980	217.369	-79.523	139.707	218.553	-51.618	249.450	247.208	0.0014505	0.00057965	0.00017877	504.28	8.4438e-06	7.5936e-06	707.3	227.21	7.9092e-06	9.0212e-06	359.86	188.82	111.56	59.814	6.0746e-06	113.75	0.0013887	0.0014332	0.00040687	500.3	1.4521e-05	1.5988e-05	700.36	226.16	1.4981e-05	1.5796e-05	358.3	188.61	112.34	60.406	1.5807e-05	114.48	13.800	-22.233	-24.993	-88.187	71.234	39.975	-88.669	-82.690	49.350	31.969	-84.039	-78.794	-77.926	-72.541	60.942	-74.390	-8191	255	
46598.992	1	1	0	0	0.0074822	0.17753	0.11248	0.1303	0.22483	0.062804	0.1439	0.20893	0.17853	0.16837	0.35819	0.1591	0.28888	0.38186	0.23612	0.12532	-3.5958	-4.8271	-4.2	-4.1562	-4.8146	-4.0687	-4.2667	-4.8458	-3.7562	-4.8458	-4.5583	-4.3063	-4.9708	-4.0542	-4.3104	-4.9771	76.671	203.993	85.983	197.839	26.441	-85.496	163.069	242.902	195.162	248.014	170.658	224.995	160.554	250.592	24.232	80.576	0.0014972	0.00077734	0.00025282	503.81	6.4913e-06	2.3324e-06	709.03	226.88	1.1197e-05	4.5574e-06	357.28	188.15	111.37	59.279	2.9108e-06	113.18	0.0013831	0.001444	0.00040406	501.43	1.4793e-05	1.6077e-05	700.92	226.14	1.4885e-05	1.5764e-05	356.81	187.72	112.07	60.054	1.5365e-05	114.05	11.298	-34.655	-20.273	-88.080	41.396	40.373	-88.606	-82.618	26.736	25.838	-83.785	-78.676	-77.979	-72.497	35.794	-74.488	-8191	255	
46599.090	1	1	0	0	0.090928	0.12773	0.13633	0.19328	0.26571	0.21822	0.2698	0.15163	0.079244	0.10766	0.30441	0.19045	0.11655	0.16464	0.07429	0.12411	-3.6021	-4.675	-4.4229	-3.9917	-4.8208	-3.975	-4.2792	-4.8292	-3.8042	-4.5521	-4.6708	-3.9771	-4.8667	-4.3688	-4.0896	-4.9625	-85.776	-47.985	250.302	-99.410	-80.797	223.087	-47.164	15.590	75.429	160.032	-4.458	186.714	-45.732	228.341	248.114	162.654	0.0014331	0.00072169	0.00020185	502.8	7.5449e-06	6.685e-06	707.18	225.95	8.604e-06	5.1149e-06	357.44	187.88	110.94	59.369	7.6711e-06	113.31	0.001388	0.0014247	0.00040153	499.65	1.4993e-05	1.5829e-05	699.3	226.15	1.5025e-05	1.5973e-05	356.46	187.58	112.18	60.022	1.5405e-05	113.98	9.723	-6.096	-9.624	-87.861	34.713	72.576	-88.631	-82.580	58.713	53.915	-83.918	-78.764	-77.947	-72.425	70.632	-74.489	-8191	255	
46599.184	1	1	0	0	0.13903	0.087018	0.094306	0.029733	0.13352	0.1077	0.093608	0.2626	0.18565	0.15205	0.34124	0.21349	0.28956	0.14473	0.10046	0.23705	-3.6958	-4.5646	-4.6375	-3.9646	-4.6979	-4.3792	-4.2417	-5.0188	-3.8208	-4.5396	-4.8313	-3.8875	-4.9167	-4.5708	-3.9396	-5.1708	201.290	258.167	68.592	222.786	-34.263	122.478	241.070	225.803	76.967	206.534	195.551	-85.076	220.224	124.951	-83.194	234.187	0.0014552	0.00071552	0.00014068	504.44	8.9681e-06	5.8165e-06	704.8	227.05	7.819e-06	9.0155e-06	356.36	187.81	111.27	59.399	5.3597e-06	113.39	0.0014015	0.0014221	0.00040253	500.2	1.4602e-05	1.582e-05	698.27	226.07	1.5027e-05	1.599e-05	356.29	187.5	111.92	59.873	1.5548e-05	113.98	11.735	-8.500	-14.854	-88.170	61.446	65.607	-88.614	-82.758	55.530	34.525	-83.670	-78.852	-77.918	-72.486	56.195	-74.432	-8191	255	
46599.281	1	1	0	0	0.081217	0.0862	0.12497	0.19079	0.070607	0.026205	0.25672	0.25514	0.060785	0.057011	0.21455	0.081311	0.075265	0.18576	0.16059	0.1876	-3.7729	-4.3438	-4.7854	-3.9042	-4.6312	-4.4604	-4.025	-4.8833	-4.1792	-4.3104	-5.0104	-3.9938	-4.6771	-4.8313	-4.0708	-4.9583	91.245	-5.406	-4.031	149.893	-73.151	-91.615	181.932	-64.939	112.892	240.091	136.370	228.030	250.269	225.109	258.052	216.121	0.0013955	0.00043835	0.00012739	503.59	6.5688e-06	2.9751e-06	706.29	226.34	1.3057e-05	6.5543e-06	358.35	188.36	111.08	59.37	7.2937e-06	113.48	0.0014059	0.0014324	0.00039806	499.89	1.4896e-05	1.5845e-05	699.25	225.99	1.5097e-05	1.5879e-05	356.96	187.65	111.9	59.931	1.5453e-05	114.07	9.984	-14.937	-40.310	-87.964	61.465	97.749	-88.518	-82.789	36.603	43.757	-83.875	-78.895	-77.996	-72.388	60.265	-74.330	-8191	255	
46599.402	1	1	0	0	0.18429	0.056686	0.12593	0.27678	0.11541	0.085364	0.14546	0.32326	0.14966	0.13137	0.11342	0.025676	0.12657	0.12425	0.17079	0.25513	-4.0167	-4.2729	-4.8354	-4.0083	-4.5708	-4.6	-4.0312	-5.05	-4.3125	-4.1771	-4.9771	-4.1146	-4.5792	-4.7625	-3.9917	-5.0583	-18.757	69.249	193.676	221.655	48.179	51.342	237.479	177.174	-95.226	47.617	188.103	235.204	-65.643	191.619	232.193	157.352	0.0014313	0.0006624	0.00020388	504.23	6.0817e-06	7.907e-06	708.58	227.2	8.4423e-06	7.0047e-06	358.62	187.98	111.54	59.32	3.0405e-06	113.22	0.0013885	0.0014214	0.0004055	500.18	1.4774e-05	1.5978e-05	700.78	226.37	1.5122e-05	1.5756e-05	357.83	187.7	112.11	59.954	1.5748e-05	113.93	13.157	4.201	0.504	-87.976	61.403	37.700	-88.333	-82.670	27.176	32.217	-83.857	-78.771	-77.819	-72.511	34.306	-74.373	-8191	255	
46599.496	1	1	0	0	0.12246	0.064822	0.18808	0.12775	0.060319	0.035471	0.34681	0.24391	0.18218	0.077668	0.12459	0.072758	0.25263	0.199	0.051436	0.078312	-4.0979	-4.0188	-4.9875	-4.2125	-4.3688	-4.7104	-3.9104	-4.9021	-4.5687	-3.9062	-5.0083	-4.2729	-4.3896	-4.8667	-3.9708	-4.7917	140.890	-5.738	182.128	142.576	253.912	89.370	208.207	244.861	216.793	200.850	-42.817	205.826	191.935	236.417	193.591	107.204	0.0014082	0.00066249	0.00011904	503.64	5.5212e-06	4.4348e-06	708.17	226.47	1.0448e-05	6.4126e-06	357.59	188.31	111.07	59.516	3.373e-06	112.98	0.0013861	0.0014416	0.00039481	499.89	1.4792e-05	1.588e-05	700.57	226.26	1.5046e-05	1.5803e-05	356.69	187.47	111.88	60.095	1.5662e-05	113.82	9.763	-21.444	5.668	-88.046	-3.342	30.118	-88.566	-82.536	47.208	44.398	-83.983	-78.790	-77.878	-72.383	34.200	-74.477	-8191	255	
46599.594	1	1	0	0	0.18131	0.092949	0.14948	0.23095	0.089417	0.10953	0.18978	0.20444	0.0070026	0.11781	0.26931	0.23764	0.10648	0.17505	0.39498	0.16083	-4.1875	-3.9083	-4.8083	-3.9875	-4.3187	-4.7708	-3.9708	-4.5687	-4.4938	-3.9313	-4.9333	-4.2333	-4.1479	-4.8479	-3.9021	-4.6104	7.044	230.177	-21.142	-44.851	224.930	255.367	89.436	239.517	-69.113	198.847	193.155	-50.293	251.344	192.637	-58.815	182.328	0.0014794	0.0010302	0.00017239	506.2	1.0208e-05	5.4849e-06	705.78	226.3	6.8589e-06	5.8561e-06	358.9	187.95	111.19	59.567	6.294e-06	113.06	0.0013583	0.0014253	0.00039817	500.06	1.4698e-05	1.5929e-05	699.58	225.9	1.4777e-05	1.5842e-05	356.99	187.49	111.93	60.047	1.5579e-05	113.84	10.028	-7.759	-2.197	-88.079	60.133	17.671	-88.682	-82.774	-17.362	31.161	-83.881	-78.685	-77.858	-72.543	16.479	-74.402	-8191	255	
46599.691	1	1	0	0	0.093135	0.20204	0.13592	0.017378	0.1681	0.068521	0.22858	0.17938	0.17904	0.11355	0.09995	0.18024	0.080318	0.22519	0.16889	0.17603	-4.35	-3.8146	-4.8208	-4.1021	-4.025	-4.7958	-4.1	-4.5604	-4.5583	-3.7313	-4.9417	-4.3646	-4.1354	-5.1333	-4.0333	-4.5229	13.287	180.987	16.014	149.021	171.576	227.157	190.109	124.429	142.900	230.404	246.427	155.560	-60.884	243.821	111.921	178.392	0.001496	0.00060211	0.00016052	505.26	1.1305e-05	3.9865e-06	708.38	226.91	6.5446e-06	5.5733e-06	358.7	187.45	111.18	59.363	1.1137e-05	113.24	0.0013582	0.0014095	0.00039854	501.53	1.4542e-05	1.6001e-05	701.49	226.13	1.4895e-05	1.5862e-05	357.5	187.2	111.83	60.02	1.5578e-05	113.96	8.840	-17.593	7.799	-87.635	54.533	48.759	-88.545	-82.899	42.118	5.207	-83.912	-78.786	-78.048	-72.622	44.186	-74.626	-8191	255	
46599.785	1	1	0	0	0.22992	0.13544	0.14314	0.21525	0.23117	0.22661	0.16121	0.064015	0.03487	0.2277	0.15831	0.067387	0.061742	0.18003	0.11267	0.35066	-4.3	-3.8396	-4.7271	-4.4354	-3.8854	-4.8292	-4.1708	-4.3396	-4.8667	-3.9083	-4.5229	-4.5771	-3.9125	-5.0146	-4.1438	-4.3792	19.740	-47.244	215.016	-44.549	-98.324	-45.932	168.213	216.660	-78.208	126.161	230.385	-77.068	-40.393	-92.224	18.773	205.791	0.0016278	0.00069055	0.00016171	503.4	7.6046e-06	7.3048e-06	709.96	226.78	7.1006e-06	5.2717e-06	360.19	186.87	110.73	58.985	4.0181e-06	112.35	0.0013822	0.001429	0.00039947	500.55	1.4584e-05	1.5877e-05	700.88	226.07	1.4752e-05	1.5741e-05	357.59	186.32	111.45	59.391	1.5311e-05	112.92	7.261	-11.919	-16.766	-87.967	33.515	43.572	-88.123	-82.803	84.988	37.642	-83.837	-78.818	-77.914	-72.538	58.776	-74.444	-8191	255	
46599.883	1	1	0	0	0.043078	0.099025	0.11118	0.092771	0.18453	0.1298	0.24265	0.25323	0.17149	0.12728	0.082912	0.18287	0.23178	0.14412	0.21451	0.36045	-4.5208	-3.8167	-4.6667	-4.5375	-3.8688	-4.8688	-4.2979	-4.1375	-4.7583	-3.7812	-4.5833	-4.6604	-3.9333	-4.9292	-4.2833	-4.1708	83.668	29.205	201.764	81.620	-43.526	238.799	64.652	198.386	88.290	-42.072	206.147	163.643	233.161	97.609	-60.689	204.668	0.0014678	0.00073918	0.00017262	504.29	5.8355e-06	8.2325e-06	706.97	226.41	9.9232e-06	7.8113e-06	356.31	186.04	110.26	58.863	5.703e-06	111.96	0.001352	0.001384	0.00039178	500.3	1.4471e-05	1.5458e-05	699.65	225.36	1.4645e-05	1.5743e-05	355.58	185.82	111.12	59.42	1.5326e-05	112.62	8.296	6.901	-10.513	-87.820	84.397	56.815	-88.542	-82.951	28.963	36.756	-83.764	-78.677	-78.069	-72.555	20.437	-74.454	-8191	255	
46599.977	1	1	0	0	0.198	0.044417	0.086172	0.33024	0.23487	0.1206	0.13506	0.097209	0.14086	0.17359	0.29649	0.12449	0.13203	0.11356	0.089761	0.2442	-4.6062	-4.1438	-4.5021	-4.4875	-3.875	-4.8083	-4.4583	-4.1667	-5.0167	-4.0854	-4.4771	-4.8938	-3.7958	-4.8938	-4.3875	-4.1667	66.282	-82.176	-4.075	-68.642	138.343	47.054	163.787	62.518	215.018	-10.198	-59.807	-17.602	-9.409	97.502	13.067	198.238	0.0014544	0.00075924	0.00017117	503.68	6.0636e-06	6.2711e-06	705.44	226.29	8.4533e-06	8.8399e-06	356.66	185.43	110.48	58.499	7.4349e-06	111.32	0.0013748	0.0014009	0.00039	499.99	1.4346e-05	1.5708e-05	698.54	225.3	1.4737e-05	1.5577e-05	355.47	185.14	110.89	59.011	1.5357e-05	112	11.328	-11.832	-14.589	-88.196	-7.892	62.340	-88.517	-82.930	18.836	41.881	-84.001	-78.534	-78.186	-72.580	42.883	-74.425	-8191	255	
46600.098	1	1	0	0	0.087236	0.21104	0.26889	0.29203	0.12845	0.056013	0.15816	0.078802	0.11465	0.14697	0.099739	0.25818	0.080606	0.117	0.080248	0.20392	-4.4604	-4.0125	-4.2542	-4.8958	-3.8458	-4.5979	-4.6104	-3.8875	-4.975	-4.1771	-4.2812	-4.8583	-3.9667	-4.6354	-4.5437	-4.1854	45.542	28.229	-98.205	63.399	200.967	-70.382	32.743	164.988	-69.971	160.629	0.840	202.347	60.983	247.619	-99.483	233.606	0.0013807	0.00073123	0.00010187	503.98	6.6696e-06	6.0523e-06	708.56	225.54	1.255e-05	4.6796e-06	355.76	185.82	110.68	58.572	4.2156e-06	111.66	0.001368	0.0013777	0.00039375	499.24	1.4689e-05	1.5755e-05	698.64	224.7	1.4504e-05	1.5634e-05	354.86	185.19	110.84	59.133	1.5143e-05	112.43	12.676	-24.592	-28.771	-87.975	52.787	69.314	-88.554	-82.527	65.250	22.530	-83.698	-78.665	-77.840	-72.508	46.455	-74.522	-8191	255	
46600.195	1	1	0	0	0.14272	0.16401	0.034602	0.046081	0.03911	0.16259	0.14631	0.28125	0.20311	0.12278	0.16548	0.063356	0.20868	0.29792	0.094406	0.10952	-4.5	-4.2021	-4.1813	-4.8104	-3.8417	-4.4646	-4.7417	-3.8083	-4.9104	-4.3021	-4.0729	-4.9167	-4.1167	-4.2521	-4.7167	-4.1667	7.005	-78.609	69.549	-100.246	-43.069	255.773	218.127	167.478	96.471	256.079	191.112	176.125	215.211	216.849	239.482	173.398	0.0014008	0.0005426	0.00019429	503.31	5.0548e-06	7.4268e-06	707.26	226.19	7.9084e-06	4.9032e-06	357.04	186.63	110.99	58.924	7.0248e-06	112.08	0.0013586	0.0013979	0.00039615	499.79	1.4662e-05	1.5838e-05	699.2	225.54	1.4993e-05	1.5939e-05	355.52	186.39	111.55	59.411	1.547e-05	112.6	9.782	-11.858	-29.751	-87.972	76.028	48.652	-88.619	-82.783	45.424	21.262	-83.968	-78.580	-77.747	-72.685	29.451	-74.427	-8191	255	
46600.289	1	1	0	0	0.12016	0.21212	0.095386	0.18114	0.3598	0.14381	0.094649	0.1619	0.19198	0.1043	0.12423	0.15099	0.37551	0.21295	0.015207	0.14111	-4.4604	-4.2688	-3.9625	-4.8063	-3.8583	-4.3458	-4.7208	-3.7625	-4.8	-4.6188	-4.0833	-4.8229	-4.1729	-4.2833	-4.7083	-4.0021	246.231	156.187	135.973	153.140	258.467	164.188	-50.764	228.869	98.835	82.057	209.900	201.836	216.946	214.604	-66.966	196.733	0.0015294	0.00047629	0.00026191	502.59	5.0337e-06	5.6716e-06	704.01	225.27	1.2226e-05	5.6697e-06	353.6	185.31	110.22	58.219	6.8936e-06	110.75	0.0013839	0.001439	0.0003997	499.1	1.4799e-05	1.604e-05	694.9	224.7	1.5207e-05	1.6143e-05	353.65	184.88	110.87	58.716	1.5709e-05	111.23	8.923	-29.041	-26.981	-88.194	38.358	48.412	-88.480	-82.754	48.514	7.080	-83.836	-78.737	-78.017	-72.453	67.132	-74.507	-8191	255	
46600.363	1	1	0	0	0.22604	0.11843	0.1129	0.12661	0.10897	0.065904	0.22354	0.084574	0.23535	0.28417	0.12511	0.12559	0.28124	0.22067	0.11393	0.19535	-4.45	-4.425	-3.8812	-5.0646	-4.1521	-4.1562	-4.8917	-3.9729	-4.5146	-4.625	-4.0208	-4.7854	-4.2167	-4.2979	-4.8833	-4.1042	44.470	48.015	184.267	-8.809	23.798	-30.392	130.614	-33.629	-4.532	46.185	-83.683	37.373	175.273	-93.935	-65.917	145.463	0.0015076	0.00039309	0.00018202	502.2	6.624e-06	5.1444e-06	702.9	225.89	1.2505e-05	5.0189e-06	354.92	184.7	110.11	58.239	9.3712e-06	110.82	0.0013768	0.001439	0.00040637	498.44	1.4923e-05	1.613e-05	695.91	224.82	1.5011e-05	1.5951e-05	354.22	184.36	110.9	58.728	1.5475e-05	111.25	12.160	-32.177	-12.856	-88.112	47.727	66.989	-88.396	-82.752	80.258	48.848	-83.762	-78.420	-78.010	-72.388	38.564	-74.460	-8191	255	
46600.480	1	1	0	0	0.23526	0.1711	0.078524	0.13201	0.15029	0.12997	0.23054	0.055236	0.055832	0.099374	0.11706	0.21541	0.15792	0.30108	0.14286	0.22498	-4.1396	-4.5667	-3.7729	-4.8187	-4.3854	-4.1979	-5.0875	-4.0146	-4.5687	-4.6521	-3.8708	-4.9229	-4.3958	-4.0667	-4.9354	-4.2479	-72.985	16.949	177.461	184.568	254.075	110.438	158.999	-2.741	16.003	-35.432	172.143	219.541	68.292	232.941	-78.720	170.748	0.0013526	0.00049003	0.00018089	505.78	8.2011e-06	5.4484e-06	704.8	226.61	1.0236e-05	6.5057e-06	357.19	185.33	110.64	58.797	4.5301e-06	111.54	0.0013571	0.0014236	0.00040204	500.21	1.4741e-05	1.5952e-05	697.56	225.42	1.5016e-05	1.5739e-05	355.01	184.97	111.03	59.285	1.5701e-05	112.24	13.231	-9.967	-8.386	-88.025	28.163	60.596	-88.597	-82.822	41.047	19.772	-83.917	-78.683	-78.007	-72.518	20.352	-74.540	-8191	255	
46600.578	1	1	0	0	0.055123	0.070165	0.060033	0.1656	0.27538	0.15827	0.089699	0.060445	0.025142	0.034605	0.18457	0.40123	0.094649	0.29832	0.036611	0.42687	-4.1937	-4.7854	-3.9771	-4.6937	-4.4271	-3.9354	-4.9604	-4.1813	-4.2937	-4.7188	-3.9292	-4.7188	-4.5938	-4.0521	-4.8792	-4.1271	142.959	92.014	43.742	187.934	255.060	192.130	-80.861	55.776	180.287	148.051	158.822	160.462	-14.013	258.498	-42.750	181.742	0.0015494	0.00095715	0.00020457	504.5	6.4202e-06	3.5317e-06	706.88	226.03	1.1347e-05	6.7294e-06	356.62	186.09	110.53	58.822	8.4279e-06	112.25	0.0013816	0.0014253	0.00040319	499.19	1.4635e-05	1.5833e-05	698.39	225.32	1.5019e-05	1.607e-05	355.1	186.04	111.07	59.326	1.5711e-05	112.66	13.074	-29.924	-3.095	-87.981	34.966	67.341	-88.430	-82.740	58.190	50.157	-83.807	-78.518	-77.890	-72.677	40.361	-74.414	-8191	255	
46600.676	1	1	0	0	0.12023	0.23394	0.31126	0.27929	0.040743	0.3892	0.18676	0.044542	0.13666	0.24323	0.1038	0.25336	0.071779	0.15579	0.094354	0.27792	-3.9271	-4.775	-3.9896	-4.6021	-4.5125	-3.7104	-4.8771	-4.3667	-4.175	-4.8542	-3.9208	-4.6083	-4.8146	-3.8667	-4.7104	-4.3792	207.470	74.888	154.004	26.733	-56.525	85.075	217.235	238.455	178.242	-43.032	136.935	222.964	187.934	-99.440	178.285	222.976	0.0014533	0.00071616	0.00019445	503.21	6.528e-06	7.2545e-06	706.26	225.46	8.8429e-06	8.271e-06	354.52	185.29	110.19	58.308	6.2459e-06	110.84	0.001383	0.0014383	0.00040657	498.87	1.4767e-05	1.5995e-05	697.77	224.74	1.4976e-05	1.5694e-05	353.55	184.55	110.62	58.793	1.5432e-05	111.39	11.477	7.644	-10.886	-88.033	51.138	34.767	-88.652	-82.780	32.603	49.233	-83.753	-78.807	-77.982	-72.424	66.916	-74.303	-8191	255	
46600.797	1	1	0	0	0.14265	0.080941	0.17039	0.05091	0.092755	0.010047	0.2401	0.074259	0.14636	0.11916	0.10376	0.14828	0.10947	0.095982	0.21092	0.28457	-3.8187	-4.8542	-3.9375	-4.3729	-4.6729	-3.9979	-4.8521	-4.3917	-4.0125	-4.9437	-4.0771	-4.3646	-4.9313	-4.0188	-4.5417	-4.5333	166.887	96.228	-16.048	107.040	57.813	-0.164	199.634	144.094	124.026	51.581	244.515	204.568	151.171	237.578	186.201	95.182	0.0014118	0.00066773	0.00018735	498.82	7.7437e-06	5.7327e-06	701.45	224.52	6.8956e-06	5.4507e-06	353.6	183.87	109.7	58.266	8.3262e-06	110.57	0.0013712	0.0014168	0.00039347	495.96	1.4341e-05	1.5917e-05	692.83	223.39	1.4836e-05	1.5866e-05	351.96	183.65	110.16	58.699	1.5518e-05	111.21	14.372	-25.423	-1.343	-87.899	-1.151	48.788	-88.322	-82.615	27.916	40.235	-83.933	-78.803	-77.871	-72.500	69.452	-74.436	-8191	255	
46600.891	1	1	0	0	0.18124	0.072339	0.087041	0.099341	0.092552	0.067892	0.072711	0.023717	0.096909	0.1896	0.18701	0.15058	0.043185	0.21647	0.15885	0.11222	-3.6542	-4.8063	-4.1188	-4.2333	-4.8583	-3.9688	-4.6375	-4.6813	-3.8958	-4.8646	-4.1875	-4.1875	-4.9354	-3.9646	-4.4167	-4.6333	91.193	203.038	130.292	195.338	166.976	187.821	-36.789	-48.542	150.220	82.881	172.991	195.140	248.877	0.173	63.451	239.993	0.0014255	0.00078118	0.00018028	499.15	4.9873e-06	5.5881e-06	700.4	223.14	7.6117e-06	7.1045e-06	352.64	185.35	109.58	58.521	5.2884e-06	110.68	0.0013526	0.0014082	0.00039619	493.83	1.4378e-05	1.5735e-05	690.78	222.67	1.4819e-05	1.5653e-05	350.99	184.71	110.17	58.881	1.5254e-05	111.48	12.813	-28.009	-18.085	-88.237	53.460	32.112	-88.441	-82.624	-2.378	36.565	-83.824	-78.689	-77.829	-72.513	21.920	-74.484	-8191	255	
46600.965	1	1	0	0	0.2185	0.16175	0.23036	0.087435	0.086624	0.14692	0.2072	0.2369	0.14139	0.13317	0.23288	0.037396	0.11707	0.27986	0.034995	0.25411	-3.4458	-4.9271	-4.1417	-4.3104	-4.7063	-3.9562	-4.5354	-4.7188	-3.9146	-4.5958	-4.6229	-4.0771	-4.9187	-3.9604	-4.3354	-4.9854	218.974	-54.823	94.071	-74.819	129.558	93.284	177.610	146.757	-6.372	86.370	-51.006	204.432	202.445	-98.868	35.449	147.476	0.0014518	0.0005327	0.00013131	498.64	9.0227e-06	5.2497e-06	696.29	223.37	8.2676e-06	3.5487e-06	350.52	183.72	109.28	57.992	5.7541e-06	110.59	0.0013535	0.0013865	0.00039161	492.54	1.4396e-05	1.5513e-05	688.95	222.16	1.4397e-05	1.5362e-05	350.41	183.65	109.91	58.532	1.5076e-05	110.97	10.927	3.719	0.455	-88.035	71.035	44.504	-88.497	-82.705	25.232	43.723	-83.754	-78.816	-77.911	-72.566	55.576	-74.355	-8191	255	
46601.082	1	1	0	0	0.26903	0.15858	0.21302	0.035974	0.12895	0.15535	0.1369	0.079831	0.15537	0.15222	0.18046	0.19817	0.096005	0.31757	0.30173	0.16948	-3.4458	-4.6188	-4.4854	-4.1729	-4.9	-4.1542	-4.4333	-4.8875	-3.7583	-4.7042	-4.4917	-4.0229	-4.9187	-4.2396	-4.1292	-4.7979	256.626	-43.265	122.414	242.023	199.658	81.290	187.307	231.907	204.036	136.804	237.865	215.178	-57.365	209.376	83.784	196.714	0.0014107	0.00073498	0.00013394	498.3	9.1535e-06	6.5598e-06	694.03	223.16	7.4427e-06	7.4792e-06	353.22	183.99	109.16	58.112	5.571e-06	109.76	0.0013495	0.001372	0.0003866	492.48	1.3942e-05	1.5267e-05	689.27	222.32	1.4482e-05	1.5293e-05	351.02	183.05	109.83	58.464	1.4846e-05	110.38	6.187	-20.909	-18.084	-87.859	70.305	52.929	-88.578	-82.588	48.669	14.281	-84.066	-78.776	-78.080	-72.632	66.548	-74.305	-8191	255	
46601.180	1	1	0	0	0.10182	0.11578	0.13037	0.25634	0.074299	0.15752	0.10617	0.049868	0.084381	0.026373	0.094603	0.18873	0.28325	0.28132	0.03865	0.10418	-3.5271	-4.5229	-4.4896	-3.8667	-4.8438	-4.2604	-4.2438	-4.8688	-3.7354	-4.5646	-4.6896	-4.0458	-4.8125	-4.225	-4.1188	-4.9396	33.877	183.919	134.559	211.647	-48.020	-11.108	-38.367	-95.491	127.856	-27.646	191.029	232.551	247.929	-86.959	108.118	201.136	0.0014098	0.00068707	9.3509e-05	497.18	7.4461e-06	4.2491e-06	696.84	222.91	1.2305e-05	3.5082e-06	353.47	181.6	108.57	57.451	4.265e-06	108.44	0.0013223	0.0013512	0.0003823	493.08	1.3996e-05	1.4988e-05	689.42	221.67	1.4013e-05	1.5028e-05	350.32	181.06	109.12	57.877	1.4825e-05	109.24	12.764	-24.282	0.784	-88.187	49.559	53.591	-88.327	-82.784	47.772	80.887	-83.764	-78.740	-77.709	-72.512	59.506	-74.210	-8191	255	
46601.273	1	1	0	0	0.17904	0.025846	0.1377	0.32396	0.098027	0.18782	0.21866	0.11039	0.13165	0.28659	0.15961	0.044042	0.16587	0.21859	0.10323	0.24613	-3.6583	-4.3271	-4.5646	-3.8979	-4.7979	-4.3021	-4.2021	-4.7625	-4.0188	-4.3729	-4.6604	-3.8354	-4.7646	-4.4812	-3.8438	-5.0708	-35.640	165.269	34.943	-14.664	223.327	257.230	213.163	218.028	39.984	26.460	187.042	125.967	-99.955	235.232	228.657	135.914	0.001378	0.00048544	0.00018038	496.3	4.7304e-06	6.7797e-06	694.84	221.89	9.6298e-06	4.0307e-06	352.01	180.7	107.97	57.077	6.397e-06	107.66	0.0013169	0.0013394	0.00038221	491.99	1.3834e-05	1.5087e-05	689.2	221.24	1.4117e-05	1.5092e-05	349.37	180.28	108.66	57.584	1.4619e-05	108.75	11.167	-14.261	-21.359	-88.135	77.513	43.939	-88.646	-82.729	42.062	50.413	-83.756	-78.697	-77.974	-72.317	48.466	-74.168	-8191	255	
46601.395	1	1	0	0	0.23808	0.16846	0.23787	0.19224	0.17246	0.25615	0.34373	0.13317	0.1528	0.067317	0.13806	0.35112	0.099884	0.35438	0.061455	0.19918	-3.7229	-4.1292	-4.5604	-3.8417	-4.7292	-4.5583	-3.9313	-4.9062	-4.2208	-4.2875	-4.9	-4.025	-4.5729	-4.6	-3.8729	-4.9229	37.829	145.526	80.258	227.632	149.671	-100.279	184.531	-57.799	164.149	118.762	-82.577	204.192	9.696	252.562	-95.897	129.190	0.0013628	0.00094877	0.00017116	496.36	6.9129e-06	5.3034e-06	692.96	220.44	1.2547e-05	5.8465e-06	348.39	179.92	107.73	57.091	5.4656e-06	108.01	0.0012927	0.0013572	0.00038129	491.89	1.3828e-05	1.5095e-05	687.87	220.67	1.4049e-05	1.5004e-05	348.12	180.08	108.65	57.542	1.4713e-05	108.87	15.079	-10.672	-30.208	-88.232	63.132	42.982	-88.223	-82.700	43.907	34.827	-83.496	-78.470	-77.730	-72.327	40.864	-74.294	-8191	255	
46601.492	1	1	0	0	0.054942	0.12169	0.17917	0.24471	0.069248	0.19193	0.17099	0.091435	0.09435	0.17535	0.10073	0.2523	0.069677	0.25645	0.23149	0.12962	-3.8083	-3.9708	-4.7333	-3.7875	-4.3208	-4.5667	-3.8958	-4.7333	-4.2458	-4.0563	-4.8688	-3.9458	-4.5146	-4.6438	-3.7896	-4.8208	243.767	-2.933	75.168	186.348	239.334	88.578	59.966	123.832	231.980	146.262	253.419	-53.710	127.884	227.453	72.411	184.326	0.0013949	0.00073347	0.00019294	494.01	8.9741e-06	4.1274e-06	699.7	221.28	9.8481e-06	4.4239e-06	348.89	181.18	107.8	57.212	5.1315e-06	108.36	0.0013216	0.0013592	0.00038014	492.79	1.4073e-05	1.5257e-05	691.59	221.35	1.418e-05	1.5174e-05	349.06	180.83	108.67	57.809	1.4802e-05	109.26	12.640	-13.533	-45.490	-88.052	39.724	58.004	-88.491	-82.672	41.254	45.025	-83.691	-78.561	-77.809	-72.369	74.389	-74.293	-8191	255	
46601.586	1	1	0	0	0.15775	0.1183	0.22751	0.2407	0.20693	0.10968	0.22781	0.13409	0.22285	0.3569	0.29054	0.17768	0.13179	0.22718	0.12587	0.21506	-4.0771	-3.9354	-4.8375	-4.1312	-4.2667	-4.6854	-4.0292	-4.7896	-4.425	-3.9042	-4.9792	-4.0375	-4.2667	-4.8896	-3.7083	-4.7792	81.122	245.976	156.865	154.965	221.319	78.535	175.715	166.744	34.483	226.463	109.469	220.392	121.436	201.363	74.701	207.247	0.0014073	0.0006938	0.00013129	497.88	8.0056e-06	9.2964e-06	698.11	222.74	1.0731e-05	6.3658e-06	351.67	180.16	107.94	56.969	3.1703e-06	107.7	0.0013171	0.0013401	0.00038475	494.45	1.4238e-05	1.5051e-05	691.93	221.97	1.4325e-05	1.5193e-05	349.46	179.92	108.68	57.453	1.4963e-05	108.34	10.676	-22.373	-10.575	-88.178	54.673	44.656	-88.360	-82.667	50.257	25.523	-83.887	-78.618	-77.637	-72.405	48.820	-74.372	-8191	255	
46601.660	1	1	0	0	0.25927	0.15751	0.2789	0.25231	0.043348	0.075223	0.15925	0.042129	0.21976	0.082521	0.077646	0.2156	0.26852	0.27578	0.087587	0.15032	-4.2167	-4.0542	-4.9563	-4.1146	-4.0958	-4.7021	-4.0771	-4.8417	-4.5479	-3.875	-5.0146	-4.4458	-4.1333	-5.0167	-3.9333	-4.7458	84.238	136.833	-10.971	221.753	-87.525	104.201	-100.141	183.616	204.211	98.924	223.159	-25.281	126.323	195.943	90.154	218.977	0.0013763	0.00057347	0.00011381	497.92	9.0953e-06	6.5003e-06	697.93	222.03	6.8516e-06	1.0669e-05	348.62	180.53	107.55	57.124	4.6784e-06	107.8	0.0013275	0.0013528	0.000388	494.04	1.4048e-05	1.5235e-05	691.43	221.5	1.4463e-05	1.5559e-05	348.48	180.04	108.68	57.644	1.5169e-05	108.65	8.944	-6.645	20.528	-87.981	68.739	38.431	-88.634	-82.989	58.262	67.495	-83.670	-78.525	-77.871	-72.544	61.846	-74.213	-8191	255	
46601.777	1	1	0	0	0.32509	0.11321	0.2196	0.053043	0.046814	0.28271	0.19736	0.16207	0.11243	0.18803	0.42168	0.14204	0.17544	0.32696	0.073684	0.23749	-4.4271	-3.8729	-4.7542	-4.2562	-3.9313	-4.7	-4.075	-4.3542	-4.6042	-3.6833	-4.8646	-4.4938	-4.0583	-4.825	-4.075	-4.5417	112.166	-10.176	108.761	-3.906	247.624	185.130	116.993	120.071	5.501	246.833	225.055	190.038	230.673	205.843	229.839	227.172	0.0014132	0.00050746	0.00014451	499.81	1.0969e-05	7.6423e-06	702.66	222.23	6.4238e-06	3.0413e-06	350.09	180.9	108.03	57.322	3.236e-06	108.05	0.0013348	0.0013888	0.00038928	495.19	1.4291e-05	1.5589e-05	692.52	221.73	1.4541e-05	1.5391e-05	349.58	180.29	108.87	57.682	1.5194e-05	108.77	8.276	17.835	-41.364	-88.027	37.939	77.318	-88.230	-82.808	32.530	48.224	-83.866	-78.662	-77.855	-72.449	84.077	-74.327	-8191	255	
46601.875	1	1	0	0	0.20638	0.08183	0.14309	0.14062	0.12484	0.17343	0.18154	0.21337	0.047178	0.16535	0.13869	0.023437	0.043091	0.099632	0.15102	0.01111	-4.75	-3.9417	-4.6708	-4.6271	-3.5875	-4.8083	-4.0875	-4.2396	-4.7937	-3.8708	-4.6792	-4.6979	-3.9333	-4.9417	-4.1146	-4.2458	164.469	-41.789	4.230	127.765	182.664	174.597	135.647	215.491	90.144	231.010	70.887	128.710	178.418	-87.378	176.424	43.653	0.0012853	0.00075586	0.00018218	498.92	1.0873e-05	4.307e-06	701.05	222.77	1.0564e-05	6.4695e-06	349.39	181.26	108.41	57.148	7.5379e-06	108.47	0.0013513	0.0014003	0.00039351	495.67	1.4546e-05	1.5737e-05	693.45	222.22	1.4709e-05	1.5934e-05	349.55	180.53	108.91	57.756	1.5557e-05	108.88	11.583	-2.773	-18.198	-87.878	48.586	68.720	-88.364	-82.824	73.672	45.160	-83.809	-78.548	-77.762	-72.252	53.285	-74.444	-8191	255	
46601.969	1	1	0	0	0.14702	0.046445	0.062148	0.095824	0.07916	0.22786	0.092362	0.074695	0.28002	0.1024	0.23826	0.37269	0.18498	0.25782	0.16177	0.16912	-4.5479	-4.025	-4.4604	-4.525	-3.8021	-4.8438	-4.3375	-3.9604	-4.7604	-3.8083	-4.45	-4.7958	-3.85	-4.8604	-4.3021	-4.1854	49.907	101.247	213.113	226.498	-90.237	-33.437	105.690	16.420	187.009	226.448	-36.650	188.774	167.683	-83.716	-1.846	178.592	0.0014742	0.00081766	0.00018248	499.05	6.3266e-06	3.1508e-06	703.15	222.87	1.2482e-05	4.2252e-06	351.62	181.32	108.08	57.327	7.2522e-06	107.96	0.001356	0.0014091	0.00039733	495.54	1.4381e-05	1.5595e-05	693.32	222.2	1.4843e-05	1.5734e-05	350.32	180.42	108.85	57.738	1.5499e-05	108.44	13.590	-17.815	-26.197	-88.214	44.192	50.704	-88.670	-82.991	51.518	34.269	-83.867	-78.619	-78.076	-72.277	30.276	-74.442	-8191	255	
46602.066	1	1	0	0	0.30995	0.34014	0.079073	0.15796	0.035509	0.094353	0.092667	0.25528	0.18721	0.21593	0.12803	0.16049	0.22216	0.08779	0.16622	0.15007	-4.5896	-3.9542	-4.2625	-4.8042	-3.7792	-4.6542	-4.3417	-4.0083	-4.6979	-4.0938	-4.45	-4.9042	-4.0521	-4.6854	-4.5167	-4.0875	65.758	234.195	-98.991	198.936	170.686	-86.268	234.388	56.831	240.378	202.657	-2.279	181.563	-14.171	10.213	-7.068	214.198	0.0014261	0.00079643	0.00013338	500.58	1.0691e-05	5.7222e-06	699.24	222.9	1.0118e-05	4.6977e-06	351.89	180.44	107.94	57.04	8.6163e-06	108.21	0.0013505	0.0013999	0.0004003	495.86	1.451e-05	1.5724e-05	693.36	222.34	1.4688e-05	1.5943e-05	350.04	180.09	108.82	57.645	1.5476e-05	108.55	10.528	-10.532	-17.193	-87.911	60.098	57.355	-88.587	-82.802	34.658	45.695	-84.009	-78.605	-77.982	-72.427	56.022	-74.229	-8191	255	
46602.188	1	1	0	0	0.11296	0.1856	0.18561	0.038659	0.10844	0.075418	0.18719	0.21513	0.041416	0.081026	0.028957	0.10684	0.049916	0.13419	0.119	0.26917	-4.4417	-3.9021	-4.0729	-4.7104	-3.8729	-4.4583	-4.6104	-3.8833	-4.9229	-4.0896	-4.2792	-4.9333	-3.9979	-4.6271	-4.5979	-4.0542	220.642	237.365	73.450	149.274	39.862	95.822	126.143	171.636	190.895	82.633	150.812	207.497	-14.281	-50.978	-93.010	148.400	0.0014414	0.00062736	0.00014289	499.61	7.1613e-06	6.1191e-06	700.96	222.96	6.4181e-06	4.1045e-06	351.48	181.23	108.28	57.231	8.9363e-07	108.06	0.0013654	0.0013955	0.00040052	496.2	1.4699e-05	1.5796e-05	693.78	222.19	1.47e-05	1.5698e-05	350.11	180.45	108.91	57.653	1.5354e-05	108.67	11.351	-11.109	3.945	-88.171	59.208	49.429	-88.474	-82.561	98.980	50.247	-83.981	-78.658	-77.892	-72.513	-53.616	-74.384	-8191	255	
46602.258	1	1	0	0	0.22134	0.10003	0.057642	0.35215	0.20888	0.15507	0.11013	0.24529	0.13232	0.15017	0.1206	0.16697	0.10096	0.22873	0.18338	0.15903	-4.3375	-4.2937	-3.9708	-4.7812	-3.925	-4.4417	-4.8375	-3.9167	-4.6417	-4.3083	-4.1687	-4.9792	-4.0833	-4.575	-4.6292	-3.9229	150.880	244.052	43.560	-91.747	-83.976	92.486	202.560	194.154	15.365	104.722	237.896	235.055	44.232	210.885	-23.510	202.079	0.0014389	0.00068631	0.00018897	502.36	1.023e-06	4.6956e-06	703.8	224.61	1.23e-05	4.3516e-06	351.32	180.62	108.39	57.295	7.0384e-06	108.11	0.0013724	0.0014334	0.00039795	497.62	1.4786e-05	1.5803e-05	695	222.84	1.4747e-05	1.588e-05	350.58	180.37	109.09	57.753	1.5723e-05	108.76	13.029	-34.298	-1.358	-87.993	-10.706	52.184	-88.270	-82.716	55.869	56.387	-83.843	-78.578	-77.949	-72.531	57.077	-74.308	-8191	255	
46602.355	1	1	0	0	0.12474	0.25582	0.023164	0.20677	0.0076773	0.26066	0.23105	0.46011	0.028042	0.057104	0.19227	0.091101	0.37311	0.049578	0.0877	0.25626	-4.3646	-4.275	-3.8479	-4.8875	-4.1583	-4.2562	-4.8729	-3.8396	-4.5813	-4.5792	-4.0667	-4.9708	-4.2042	-4.4229	-4.7937	-4.0021	92.654	117.998	50.574	190.491	-34.315	218.071	192.482	181.178	-8.557	-62.954	134.409	218.724	36.095	-59.719	257.345	206.652	0.001449	0.00074372	0.00013961	501.58	7.0474e-06	6.7072e-06	704.81	223.95	8.9934e-06	8.9115e-06	351.89	181	108.47	57.31	5.1933e-06	107.85	0.00136	0.0014435	0.00040027	496.64	1.5088e-05	1.5936e-05	694.72	222.98	1.504e-05	1.6044e-05	350.47	180.58	108.99	57.831	1.5871e-05	108.58	9.547	-19.028	-44.513	-88.197	42.337	24.953	-88.306	-82.778	58.243	39.637	-83.846	-78.672	-77.743	-72.375	39.696	-74.402	-8191	255	
46602.477	1	1	0	0	0.24948	0.054784	0.23496	0.33547	0.27503	0.028191	0.2696	0.29182	0.008963	0.20324	0.15979	0.13513	0.11321	0.28094	0.15298	0.29448	-4.3438	-4.5917	-3.8667	-4.8542	-4.0083	-4.1125	-4.9479	-4.0229	-4.5792	-4.6562	-3.8812	-4.9875	-4.3729	-4.15	-4.6417	-4.1312	220.863	139.774	-14.282	-85.588	2.389	221.316	-56.929	187.182	111.695	153.160	194.924	166.381	-82.966	249.514	-83.718	-90.619	0.0014755	0.00074575	0.00016812	500.96	6.67e-06	5.6032e-06	704.04	224.7	1.1963e-05	5.5213e-06	350.63	181.63	108.88	57.506	6.5115e-06	107.97	0.0013784	0.0014349	0.00040956	497.57	1.4967e-05	1.6018e-05	696.32	222.99	1.5261e-05	1.6261e-05	350.11	180.99	109.25	57.89	1.5814e-05	108.66	13.680	-8.303	-5.772	-88.225	43.568	38.270	-88.351	-82.647	40.327	18.995	-83.692	-78.587	-77.877	-72.444	64.280	-74.552	-8191	255	
46602.570	1	1	0	0	0.13811	0.24929	0.05547	0.1748	0.048275	0.16489	0.15492	0.19815	0.080068	0.24286	0.075084	0.52565	0.21543	0.16714	0.15908	0.23774	-4.2083	-4.6438	-3.7771	-4.7292	-4.4417	-3.9354	-4.9833	-4.0687	-4.2896	-4.8583	-3.8979	-4.7667	-4.5542	-4.1604	-4.8667	-4.2583	108.013	34.834	60.673	184.675	17.599	84.409	170.961	135.816	-66.829	137.201	77.873	203.465	182.763	-84.472	-16.266	244.037	0.0014379	0.00073277	0.00015346	501.58	8.7042e-06	4.0641e-06	702.47	223.66	7.6809e-06	5.5673e-06	349.64	180.99	108.18	57.054	1.2908e-06	107.53	0.0014005	0.0014573	0.00041739	497.86	1.4982e-05	1.6461e-05	694.41	222.6	1.5344e-05	1.6303e-05	349.12	179.89	108.82	57.614	1.5816e-05	108.17	11.317	-12.639	0.303	-88.121	71.825	65.413	-88.212	-82.617	73.533	23.849	-83.776	-78.686	-77.785	-72.535	110.094	-74.410	-8191	255	
46602.668	1	1	0	0	0.25246	0.23992	0.026423	0.15628	0.14907	0.16163	0.24647	0.15191	0.33989	0.24763	0.036575	0.25841	0.24485	0.20924	0.17487	0.098976	-4.1312	-4.7708	-3.9813	-4.7562	-4.5188	-4.0604	-5.0729	-4.3875	-4.3167	-4.7729	-3.9958	-4.7812	-4.7625	-3.9479	-4.9083	-4.3375	137.468	-45.939	206.173	62.780	146.418	-93.006	224.787	209.856	191.367	-100.001	65.213	231.311	220.592	-99.468	149.399	222.694	0.00139	0.00074944	0.00015225	499.47	1.061e-05	3.8492e-06	700.98	223.72	3.904e-06	8.7579e-06	351.23	181.01	108.53	57.314	5.3645e-06	107.62	0.0014037	0.001448	0.00041697	496.81	1.5282e-05	1.6371e-05	693.7	222.96	1.5396e-05	1.6835e-05	350.82	180.31	109.03	57.553	1.6174e-05	108.27	8.446	-18.745	17.121	-88.164	72.835	70.210	-88.549	-82.724	81.317	34.738	-83.689	-78.516	-77.823	-72.529	26.936	-74.397	-8191	255	
46602.766	1	1	0	0	0.086929	0.069997	0.047987	0.077701	0.063466	0.15375	0.16002	0.2037	0.14387	0.04163	0.27911	0.11966	0.013809	0.12733	0.25603	0.12377	-3.7229	-4.7292	-3.9917	-4.5229	-4.7438	-3.9292	-4.7063	-4.2729	-3.9521	-4.7937	-3.9437	-4.6458	-4.8646	-3.9792	-4.6729	-4.6354	-22.929	159.817	146.785	-53.830	30.756	-60.894	-98.285	67.381	16.324	9.513	-54.336	197.841	-57.825	251.126	13.161	164.663	0.0014273	0.00047069	0.00016738	503.81	6.1471e-06	6.1112e-06	706.03	224	1.0205e-05	4.0608e-06	350.69	180.58	109.11	57.106	7.2211e-06	107.6	0.0013985	0.0014642	0.00041318	498.56	1.5032e-05	1.6455e-05	697.39	223	1.5552e-05	1.6398e-05	350.47	180.11	109.24	57.576	1.5996e-05	108.33	10.331	-4.288	-37.781	-88.014	98.429	34.164	-88.518	-82.425	45.675	39.385	-83.780	-78.690	-77.727	-72.482	52.022	-74.276	-8191	255	
46602.859	1	1	0	0	0.10377	0.037766	0.13213	0.24989	0.19645	0.16475	0.12484	0.19643	0.16261	0.14393	0.072655	0.28463	0.079985	0.095734	0.090718	0.18371	-3.6896	-4.8917	-3.9437	-4.3625	-4.6917	-3.7896	-4.7792	-4.6396	-3.85	-4.8792	-4.2188	-4.1167	-4.8167	-4.0167	-4.7	-4.7125	72.986	178.276	88.509	165.511	-52.140	235.427	184.290	52.410	155.979	256.530	-14.612	247.926	195.346	-47.041	189.107	227.043	0.0013993	0.0008715	0.00018456	503.6	5.702e-06	7.6065e-06	707.48	223.98	8.0776e-06	7.3597e-06	352.14	180.18	108.32	56.719	4.9092e-06	107.05	0.0014014	0.0014524	0.00041405	498.19	1.5024e-05	1.6174e-05	697.84	223.4	1.5132e-05	1.6083e-05	350.15	178.98	108.67	57.079	1.5786e-05	107.39	10.121	-27.911	2.776	-88.241	51.811	48.220	-88.576	-82.862	64.508	51.372	-83.899	-78.678	-77.682	-72.442	7.711	-74.204	-8191	255	
46602.953	1	1	0	0	0.076185	0.25599	0.22235	0.19627	0.072135	0.17129	0.15629	0.13665	0.084044	0.19707	0.022491	0.12799	0.064896	0.10037	0.096505	0.18656	-3.6333	-4.9396	-4.2417	-4.1646	-4.8125	-3.9146	-4.6521	-4.6646	-3.7875	-4.8208	-4.2583	-4.2625	-4.9229	-4.025	-4.4083	-4.6937	90.456	228.555	-26.343	-50.256	91.946	-91.350	124.963	-88.344	160.061	-43.763	155.773	-81.456	-35.724	173.807	247.696	247.705	0.0013194	0.00087569	7.2976e-05	504.52	7.9964e-06	8.7658e-06	703.41	224.8	7.891e-06	1.0802e-05	352.72	180.35	108.5	57.091	6.704e-06	107.58	0.0013719	0.0014575	0.00040731	498.85	1.4897e-05	1.6193e-05	697.25	223.14	1.5011e-05	1.6168e-05	350	179.51	108.89	57.317	1.601e-05	108	5.673	-15.045	-38.346	-88.269	38.262	45.171	-88.790	-82.558	36.504	64.388	-83.810	-78.737	-77.667	-72.251	29.160	-74.257	-8191	255	
46603.074	1	1	0	0	0.12562	0.18264	0.15952	0.13566	0.082441	0.20517	0.11162	0.20363	0.25181	0.18769	0.01312	0.24286	0.17641	0.10873	0.20062	0.15862	-3.6271	-4.775	-4.3292	-3.9896	-4.9167	-4.0396	-4.4292	-4.8167	-3.7104	-4.6813	-4.5396	-4.1083	-4.9229	-4.1354	-4.2292	-4.9125	230.466	98.253	-73.172	232.962	110.238	62.767	257.043	204.380	181.577	99.528	-43.909	172.012	56.338	23.918	-21.262	239.353	0.0014259	0.00063325	0.00014696	503.62	6.8293e-06	4.63e-06	709.28	224.14	6.8894e-06	8.4402e-06	350.37	180.31	108.59	57.085	6.793e-06	107.24	0.0013859	0.0014736	0.00041108	499.29	1.5028e-05	1.6398e-05	698.25	223.01	1.5194e-05	1.6397e-05	350.16	179.54	108.99	57.42	1.6294e-05	108.05	11.075	8.026	-3.576	-88.287	49.846	9.761	-88.487	-82.825	51.261	42.874	-83.745	-78.606	-77.909	-72.410	70.328	-74.284	-8191	255	
46603.172	1	1	0	0	0.14638	0.16181	0.069055	0.21697	0.25746	0.10889	0.25252	0.17287	0.27822	0.31798	0.076947	0.23991	0.13267	0.14403	0.2288	0.28322	-3.55	-4.6125	-4.4375	-4.0687	-4.8125	-4.1229	-4.3042	-4.8667	-3.9521	-4.6229	-4.5271	-4.05	-4.7833	-4.2521	-4.2271	-4.9958	221.601	-98.237	0.095	245.878	29.312	-60.849	-31.994	240.918	-40.315	157.219	200.702	184.990	154.187	169.291	243.739	214.897	0.0013097	0.0007121	0.00010592	504.86	4.3133e-06	5.5164e-06	706.8	224.97	4.2658e-06	5.3704e-06	352.69	179.89	108.44	56.675	3.1253e-06	107.02	0.0014063	0.0014752	0.0004159	499.99	1.5174e-05	1.6459e-05	698.04	223.19	1.5422e-05	1.6365e-05	350.28	179.19	108.87	57.063	1.6279e-05	107.54	11.413	-27.293	-7.067	-88.026	76.186	69.333	-88.449	-82.493	74.200	29.063	-83.714	-78.687	-77.763	-72.453	99.155	-74.309	-8191	255	
46603.266	1	1	0	0	0.18852	0.17438	0.055553	0.20145	0.15255	0.20416	0.32533	0.16492	0.10195	0.05924	0.14129	0.093096	0.086331	0.1712	0.095863	0.088939	-3.6437	-4.575	-4.6271	-3.7292	-4.7604	-4.325	-4.1667	-4.9271	-3.8854	-4.4	-4.6708	-3.9646	-4.8812	-4.4042	-3.8563	-5.0208	159.288	92.685	142.489	123.318	179.681	62.932	200.560	138.537	145.768	110.613	184.930	159.170	87.206	242.565	204.710	228.667	0.0013157	0.00054873	0.00019357	502.6	4.4343e-06	7.8087e-06	705.37	222.79	9.1901e-06	7.7367e-06	349.59	178.85	108.16	56.403	6.1187e-06	106.67	0.0013942	0.0014637	0.00041511	499.46	1.5127e-05	1.643e-05	697.25	222.39	1.5499e-05	1.6493e-05	348.46	178.41	108.55	56.835	1.6084e-05	107.15	11.151	7.286	-27.354	-88.000	61.284	64.098	-88.767	-82.709	23.382	12.595	-83.909	-78.665	-78.043	-72.576	55.280	-74.435	-8191	255	
46603.363	1	1	0	0	0.22683	0.2115	0.15683	0.16413	0.16548	0.082897	0.15926	0.16691	0.21802	0.093825	0.076927	0.062374	0.12184	0.23323	0.10504	0.37268	-3.7854	-4.1604	-4.6	-3.8688	-4.7292	-4.3771	-4.0896	-5.0229	-4.0125	-4.2417	-4.7937	-4.0958	-4.7562	-4.7521	-3.8833	-4.9875	185.133	79.011	48.728	64.549	-69.720	134.555	-29.662	162.808	230.528	-84.006	-76.725	-51.668	19.511	227.077	-39.478	225.022	0.0013256	0.00067643	8.4012e-05	503.15	6.088e-06	7.8985e-06	706.22	224.49	1.0299e-05	4.6923e-06	349.28	179.22	108.11	56.568	9.5049e-06	106.74	0.0014072	0.0014871	0.0004175	498.56	1.5169e-05	1.6504e-05	695.67	222.63	1.5377e-05	1.6493e-05	348.68	178.5	108.69	56.96	1.6079e-05	107.35	13.480	3.924	-11.280	-87.998	51.367	44.143	-88.506	-82.828	31.735	58.272	-83.755	-78.582	-77.766	-72.412	57.260	-74.248	-8191	255	
46603.484	1	1	0	0	0.17828	0.10561	0.31585	0.10928	0.19671	0.12858	0.20686	0.025507	0.303	0.16045	0.17967	0.049684	0.070095	0.15245	0.063357	0.064868	-3.8458	-4.1292	-4.8646	-3.8063	-4.5062	-4.5875	-4.0292	-4.8979	-4.2729	-4.1854	-4.8313	-4.0687	-4.5354	-4.7333	-3.7292	-4.8958	-2.728	161.342	201.428	76.892	25.759	57.972	144.941	-1.201	-6.612	-79.864	151.842	118.135	-39.627	183.339	191.589	-78.101	0.0014032	0.00046594	0.00014779	503.98	6.8219e-06	7.8789e-06	703.9	223.7	6.3021e-06	6.6979e-06	350.42	179.91	108.62	56.58	9.4445e-06	107.29	0.0014094	0.0014903	0.00041756	498.55	1.5439e-05	1.6486e-05	695.89	222.77	1.5614e-05	1.6484e-05	349.01	179.18	109.08	57.089	1.6296e-05	107.76	11.935	1.131	-10.239	-88.404	27.778	39.241	-88.758	-82.720	25.202	44.036	-83.838	-78.617	-78.044	-72.327	56.707	-74.244	-8191	255	
46603.555	1	1	0	0	0.086801	0.098633	0.18388	0.082874	0.073181	0.12885	0.30747	0.24433	0.2646	0.062156	0.022817	0.019723	0.44105	0.17682	0.14463	0.20985	-4.0188	-3.9208	-4.8229	-4.0563	-4.3458	-4.6312	-3.9979	-4.9271	-4.2	-4.0479	-4.9896	-3.9979	-4.6125	-4.9604	-4.0229	-4.9771	144.360	65.964	30.556	-53.364	-84.186	152.520	134.549	-73.019	69.631	46.316	14.485	201.103	186.933	255.864	253.675	216.073	0.0012521	0.00039746	0.00018803	502.83	8.3959e-06	7.9657e-06	704.41	223.94	8.7306e-06	6.118e-06	349.35	179.29	108.87	56.694	7.2894e-06	106.94	0.0013949	0.0014978	0.00042047	498.23	1.5292e-05	1.6373e-05	696.01	222.78	1.5324e-05	1.6668e-05	348.46	178.77	108.86	57.014	1.614e-05	107.48	7.484	-13.434	-21.788	-88.126	58.716	49.082	-88.719	-82.614	40.316	40.807	-83.667	-78.442	-77.859	-72.675	72.664	-74.293	-8191	255	
46603.652	1	1	0	0	0.033725	0.126	0.11957	0.092696	0.15568	0.38112	0.055394	0.056883	0.15585	0.14552	0.073278	0.084295	0.26234	0.28783	0.20526	0.228	-3.975	-3.9396	-4.8625	-4.1687	-4.3229	-4.8167	-3.8688	-4.6104	-4.45	-4.0062	-4.8917	-4.3271	-4.2271	-4.8104	-3.7562	-4.675	100.481	14.119	126.689	230.127	231.200	254.507	-82.311	179.178	258.009	79.654	169.521	102.506	222.617	-95.344	-37.117	-79.694	0.0013854	0.00084171	0.00016306	502.9	8.1597e-06	1.6457e-06	704.88	223.25	2.1815e-06	5.128e-06	348.1	178.29	107.91	56.332	6.2379e-06	106.57	0.0013956	0.0014772	0.00041863	498.49	1.5177e-05	1.637e-05	694.67	222.29	1.5467e-05	1.6283e-05	346.82	177.98	108.49	56.901	1.6158e-05	107.06	11.809	-8.111	-10.587	-88.126	73.562	61.027	-88.429	-82.839	27.220	30.438	-83.539	-78.678	-77.757	-72.256	45.369	-74.211	-8191	255	
46603.746	1	1	0	0	0.14765	0.1043	0.15052	0.077286	0.30673	0.22341	0.13735	0.24047	0.16946	0.080851	0.14786	0.21101	0.20656	0.29915	0.085039	0.1536	-4.35	-3.7687	-4.8271	-4.3292	-4.1729	-4.9146	-4.0875	-4.5062	-4.8292	-3.8958	-4.8646	-4.3271	-4.0062	-4.9938	-3.8729	-4.5104	49.404	-42.231	186.410	-97.422	0.896	-49.785	147.433	120.729	55.310	118.530	-51.682	242.906	-46.608	228.988	243.060	213.591	0.0014197	0.0004869	0.00020729	502.68	6.0703e-06	7.2798e-06	702.45	222.61	3.7808e-06	5.7382e-06	346.74	178.93	107.35	56.511	7.2602e-06	106.77	0.0013853	0.0014571	0.00041734	496.6	1.5009e-05	1.6294e-05	692.83	221.44	1.5397e-05	1.6145e-05	346.11	177.98	108.07	56.907	1.6164e-05	107.19	11.409	11.148	-25.716	-88.246	20.124	42.404	-88.467	-82.624	-11.242	49.855	-83.707	-78.453	-78.004	-72.291	21.922	-74.427	-8191	255	
46603.867	1	1	0	0	0.10348	0.077336	0.023566	0.13696	0.058154	0.073921	0.054368	0.062652	0.085889	0.14932	0.10311	0.059532	0.038008	0.22193	0.042897	0.12234	-4.4646	-3.8271	-4.7188	-4.4583	-4.0167	-4.8604	-3.9667	-4.4667	-4.5917	-4.0083	-4.6292	-4.6208	-3.8438	-5.0208	-4.0437	-4.3854	224.221	24.883	72.996	69.033	124.658	30.429	171.728	51.066	200.999	44.221	95.777	248.048	-21.896	-89.941	29.067	211.495	0.0012172	0.00065315	0.00016872	500.64	1.0125e-05	7.5452e-06	699.92	222.36	6.3393e-06	6.1501e-06	348.09	179.12	107.69	56.517	3.8228e-06	107	0.0013797	0.0014794	0.00040996	495.76	1.5069e-05	1.6017e-05	690.5	221.29	1.5169e-05	1.6301e-05	346.43	178.18	108.21	56.992	1.5684e-05	107.23	10.247	-5.477	-7.001	-88.116	40.455	31.565	-88.577	-82.917	70.990	23.909	-83.732	-78.593	-77.848	-72.205	69.748	-74.380	-8191	255	
46603.965	1	1	0	0	0.15835	0.12919	0.25937	0.10309	0.10515	0.19194	0.13572	0.24587	0.19187	0.10337	0.24231	0.11159	0.12748	0.21031	0.30704	0.2493	-4.5062	-3.9375	-4.5167	-4.5042	-3.7979	-4.9604	-4.3854	-4.1917	-4.7958	-3.8417	-4.775	-4.6021	-3.9083	-4.925	-4.1813	-4.2396	131.957	27.516	232.029	219.980	217.378	26.947	-31.191	190.912	-65.779	65.021	-91.474	223.084	250.244	191.950	59.610	205.627	0.0013294	0.0004679	0.00012618	499.13	7.5154e-06	7.6837e-06	697.89	221.94	9.8134e-06	2.6852e-06	347.42	179.28	107.44	56.529	3.513e-06	106.92	0.0013685	0.0014307	0.00040326	494.34	1.4676e-05	1.6048e-05	689.18	220.52	1.507e-05	1.6091e-05	345.41	178.51	108.09	56.98	1.5712e-05	107.43	13.273	-25.474	-30.653	-88.081	78.365	73.075	-88.552	-82.907	11.269	9.624	-83.784	-78.556	-77.936	-72.501	31.716	-74.286	-8191	255	
46604.059	1	1	0	0	0.019727	0.11566	0.26674	0.1905	0.092418	0.28277	0.095156	0.18885	0.16826	0.087162	0.086718	0.19696	0.2478	0.19409	0.13467	0.031963	-4.5563	-3.8292	-4.3771	-4.7167	-3.7479	-4.8625	-4.5333	-4.0833	-4.7708	-3.8208	-4.4896	-4.8854	-3.8146	-4.9104	-4.3667	-4.1292	35.521	163.422	71.707	-99.400	178.843	195.291	81.239	188.929	193.515	46.206	198.986	217.420	-61.038	-34.569	16.499	258.203	0.00148	0.00061387	0.00018288	498.01	9.9164e-06	6.9558e-06	697.03	222.6	1.2124e-05	4.4066e-06	346.1	178.53	107.37	56.539	8.1255e-06	106.35	0.0013456	0.0014241	0.00040423	493.66	1.4864e-05	1.5987e-05	688.54	220.69	1.4535e-05	1.5903e-05	345.04	178	107.75	56.877	1.5616e-05	106.93	12.911	0.215	-22.165	-87.826	38.294	45.466	-88.260	-82.750	42.906	19.099	-83.815	-78.476	-78.004	-72.314	48.996	-74.175	-8191	255	
46604.156	1	1	0	0	0.16074	0.081929	0.045562	0.26934	0.033217	0.084106	0.24327	0.26717	0.226	0.19122	0.20216	0.051925	0.058339	0.21396	0.19503	0.10244	-4.7208	-4.0917	-4.3438	-4.8917	-3.7625	-4.7083	-4.6771	-4.1937	-4.6771	-4.1479	-4.3396	-4.8146	-4.0792	-4.7354	-4.4583	-4.0729	105.249	-19.891	40.388	137.734	58.180	195.509	-92.686	239.975	-28.272	134.978	232.833	184.729	80.534	230.508	131.244	134.601	0.00141	0.00045833	0.0001601	498.81	1.0667e-05	6.8776e-06	694.41	220.89	1.0521e-05	7.9422e-06	346.64	178.62	106.7	56.365	5.2406e-06	106.2	0.0013558	0.0014146	0.00040354	493.45	1.4581e-05	1.574e-05	687.12	220.17	1.4704e-05	1.5725e-05	344.58	177.4	107.63	56.781	1.5372e-05	106.87	6.862	-4.811	-6.236	-88.375	29.826	61.933	-88.345	-82.850	29.517	46.200	-83.988	-78.597	-77.861	-72.685	46.745	-74.324	-8191	255	
46604.250	1	1	0	0	0.15504	0.11469	0.039914	0.025941	0.12942	0.15218	0.3426	0.10258	0.15374	0.26127	0.092397	0.17857	0.077244	0.1738	0.19402	0.26815	-4.6771	-4.1042	-3.9646	-4.75	-3.8021	-4.2958	-4.5167	-3.975	-4.825	-4.2771	-4.1729	-4.9146	-4.0917	-4.3292	-4.6687	-4.1937	49.655	-17.420	56.776	27.543	138.688	133.350	187.619	146.496	20.865	64.023	202.163	-69.705	-41.438	197.212	61.688	209.433	0.001412	0.00073102	0.00022131	500.28	7.3721e-06	7.0481e-06	698.65	220.27	1.002e-05	6.4704e-06	345.45	177.75	107.14	56.451	7.2451e-06	106.42	0.0013416	0.0014103	0.00039692	494.58	1.4651e-05	1.5661e-05	688.34	219.77	1.4612e-05	1.5587e-05	344.4	177.41	107.61	56.813	1.5014e-05	106.87	13.738	-0.441	-24.648	-87.929	42.558	41.103	-88.608	-82.679	79.524	42.081	-83.922	-78.728	-77.950	-72.484	52.214	-74.243	-8191	255	
46604.348	1	1	0	0	0.29645	0.092266	0.21798	0.04709	0.11068	0.078713	0.077506	0.073769	0.27901	0.17097	0.014986	0.13875	0.28241	0.20141	0.16333	0.14735	-4.5208	-4.2312	-3.9625	-4.9417	-3.8917	-4.2771	-4.7688	-3.8354	-4.675	-4.3958	-4.0125	-4.9021	-3.9854	-4.4708	-4.8042	-4.1646	-20.412	45.588	-89.652	-28.311	161.066	-97.588	32.463	154.357	78.667	28.940	-81.149	210.903	52.078	175.777	-35.763	29.076	0.0013747	0.0004989	0.00012838	498.7	5.5444e-06	8.5443e-06	697.52	221.22	7.6056e-06	5.6648e-06	344.54	177.31	107.07	56.185	7.612e-06	106.05	0.0013599	0.0014249	0.00039617	493.65	1.4678e-05	1.5669e-05	687.99	219.45	1.478e-05	1.5418e-05	344.22	177.03	107.53	56.609	1.5306e-05	106.75	14.284	-25.082	-13.298	-88.046	75.406	57.377	-88.519	-82.606	59.180	13.897	-83.781	-78.545	-77.683	-72.374	53.715	-74.248	-8191	255	
46604.445	1	1	0	0	0.31227	0.016416	0.18907	0.17083	0.1558	0.11124	0.11349	0.11815	0.17604	0.15613	0.17287	0.031023	0.28856	0.22392	0.20699	0.20735	-4.1896	-4.2604	-3.9458	-4.8375	-4.0458	-4.2188	-4.8542	-3.8646	-4.7125	-4.6146	-3.9625	-4.8875	-4.3438	-4.2917	-4.8479	-4.0437	160.595	-61.398	29.885	183.790	7.089	226.013	41.752	-5.462	-84.274	219.235	240.714	103.851	-74.104	212.790	-30.509	170.329	0.0012742	0.00053168	0.00015792	496.28	9.4019e-06	5.0971e-06	696.21	220.45	8.6045e-06	3.8188e-06	345.26	177.29	107.12	56.147	6.1767e-06	105.91	0.0013579	0.0014146	0.00039238	493.17	1.4562e-05	1.5777e-05	688.19	219.37	1.4679e-05	1.574e-05	343.78	176.98	107.21	56.385	1.5017e-05	106.31	8.691	-39.057	-26.793	-88.108	55.746	41.682	-88.501	-82.774	44.583	44.429	-83.790	-78.387	-77.700	-72.355	24.838	-74.270	-8191	255	
46604.562	1	1	0	0	0.083638	0.39082	0.19079	0.071883	0.18926	0.28513	0.15628	0.20562	0.14632	0.2288	0.044878	0.079382	0.17179	0.16321	0.25641	0.28438	-4.2063	-4.5625	-4.0854	-4.7396	-4.2083	-4.1583	-4.9104	-3.9208	-4.4125	-4.7146	-3.8792	-4.8729	-4.5896	-4.1625	-4.775	-4.1937	67.774	119.663	13.217	128.305	-0.631	134.347	205.512	207.337	118.693	-99.890	53.401	-61.752	244.555	-77.513	258.235	240.635	0.0013768	0.00060017	0.00016874	499.5	7.3622e-06	4.9591e-06	696.73	220.82	1.0969e-05	5.2664e-06	344.67	176.8	106.38	55.82	4.7011e-06	105.01	0.0013534	0.0014041	0.00039094	493.71	1.4429e-05	1.578e-05	687.16	219.19	1.4673e-05	1.5408e-05	343.56	175.81	106.94	56.047	1.5438e-05	105.49	12.029	-32.303	-2.074	-88.167	76.134	48.926	-88.339	-82.514	35.794	11.247	-83.841	-78.689	-77.770	-72.363	32.306	-74.234	-8191	255	
46604.660	1	1	0	0	0.15533	0.12752	0.094163	0.13704	0.036245	0.12259	0.29269	0.097074	0.19284	0.14496	0.12148	0.14696	0.3543	0.31883	0.13611	0.13103	-4.0271	-4.7188	-3.8229	-4.7792	-4.4021	-3.9854	-4.9667	-4.0687	-4.2729	-4.6417	-3.9229	-4.6979	-4.4521	-3.9667	-4.8792	-4.1542	76.152	-10.245	-81.341	215.423	158.304	76.180	196.496	231.674	224.015	-15.253	157.318	206.138	215.935	173.411	248.118	131.551	0.0013168	0.00078695	0.00012782	497.39	6.796e-06	8.0786e-06	696.65	220.34	8.3419e-06	3.6377e-06	344.19	176.43	106.69	55.947	4.5078e-06	105.32	0.0013514	0.0013944	0.00039362	492.53	1.4371e-05	1.5615e-05	687.38	219.03	1.4651e-05	1.5792e-05	343.42	176.03	106.99	56.226	1.5364e-05	105.88	8.517	-7.605	-6.583	-88.215	37.673	41.931	-88.603	-82.896	78.075	54.286	-83.977	-78.703	-78.051	-72.602	55.617	-74.287	-8191	255	
46604.758	1	1	0	0	0.050567	0.083158	0.09132	0.18063	0.12397	0.26038	0.087321	0.099179	0.040633	0.11444	0.13238	0.15289	0.20292	0.28399	0.063893	0.27404	-3.8292	-4.6604	-3.75	-4.6729	-4.6125	-3.8646	-4.975	-4.2812	-3.9292	-4.8375	-3.8604	-4.5021	-4.6125	-3.8083	-4.6792	-4.3875	80.601	74.048	116.621	257.414	161.460	-8.525	196.038	44.871	99.195	-51.194	141.784	-97.001	247.965	207.673	148.715	177.735	0.0013493	0.00072647	0.00023952	498.66	8.0841e-06	7.6499e-06	697.32	220.56	6.8205e-06	3.9451e-06	344.66	176.95	106.62	55.781	6.9127e-06	105.66	0.0013245	0.001406	0.000398	493.57	1.4626e-05	1.5542e-05	688.12	219.43	1.4847e-05	1.5592e-05	343.65	176.23	107.21	56.237	1.5354e-05	106.07	7.715	-1.168	-25.716	-88.203	47.021	58.873	-88.499	-82.743	56.222	50.716	-83.995	-78.823	-77.800	-72.615	26.216	-74.357	-8191	255	
46604.852	1	1	0	0	0.16021	0.20862	0.168	0.065448	0.14353	0.024915	0.20552	0.20375	0.15191	0.11635	0.12799	0.25156	0.15297	0.23176	0.099942	0.32815	-3.8125	-4.7833	-3.8937	-4.4938	-4.8063	-3.9375	-4.8396	-4.4354	-4.125	-4.9437	-4.0354	-4.4208	-4.65	-4.0729	-4.6188	-4.6271	87.562	-41.554	209.679	-31.547	-70.159	25.479	233.236	176.857	-16.224	-82.044	135.019	-83.944	233.000	220.993	238.611	224.416	0.001465	0.0005535	0.0001874	497.5	7.5338e-06	4.6669e-06	694.52	220.35	7.3658e-06	4.802e-06	345.99	176.7	107.28	55.852	8.0202e-06	105.44	0.0013448	0.0014164	0.000401	492.77	1.4673e-05	1.5906e-05	687.46	219.39	1.4893e-05	1.5798e-05	344.21	176.19	107.39	56.304	1.5617e-05	106.05	15.334	3.514	-30.743	-88.261	62.986	60.661	-88.708	-82.683	42.507	32.456	-83.887	-78.800	-77.930	-72.555	33.531	-74.251	-8191	255	
46604.945	1	1	0	0	0.22876	0.09696	0.091947	0.19603	0.09824	0.078201	0.038909	0.20042	0.034701	0.14605	0.10636	0.47822	0.28938	0.1788	0.18294	0.23144	-3.6375	-4.8083	-4.0312	-4.2646	-4.7375	-3.6937	-4.7333	-4.4979	-3.8792	-4.9646	-4.2083	-4.2458	-4.9292	-3.8667	-4.4396	-4.7146	231.147	-5.593	1.573	-95.927	-96.987	198.282	92.474	179.134	23.487	188.205	-96.875	-67.291	199.662	250.257	-31.832	201.993	0.0014152	0.00033687	0.0002687	498.98	6.5436e-06	8.3309e-06	698.55	220.05	1.0613e-05	4.4702e-06	345.45	176.24	106.69	56.006	5.3255e-06	105.8	0.0013566	0.0014314	0.00040447	492.94	1.461e-05	1.6037e-05	688.42	219.28	1.4911e-05	1.589e-05	343.69	176	107.22	56.385	1.5679e-05	106.23	9.468	-53.342	-30.883	-88.324	5.354	62.890	-88.568	-82.869	44.090	89.455	-84.018	-78.689	-77.790	-72.613	11.347	-74.414	-8191	255	
46605.043	1	1	0	0	0.20894	0.14063	0.19328	0.10115	0.088123	0.083276	0.16887	0.18892	0.057436	0.19699	0.078136	0.19812	0.12904	0.2025	0.27096	0.20096	-3.3937	-4.8104	-4.1687	-4.1687	-4.7917	-3.8333	-4.3229	-4.7354	-3.825	-4.8063	-4.4812	-4.2	-5.0292	-4.0917	-4.3313	-4.6396	-3.743	-0.371	199.853	-44.733	165.243	-80.519	223.833	228.599	15.414	60.174	22.855	161.524	242.759	244.981	125.246	179.251	0.0013654	0.00051228	0.00015538	498.33	4.8099e-06	5.7279e-06	692.53	220.07	4.4181e-06	5.1616e-06	345.39	177.41	107.3	56.108	5.2716e-06	105.87	0.0013653	0.0014424	0.00040012	492.87	1.464e-05	1.6103e-05	687.45	219.46	1.4834e-05	1.5966e-05	343.37	176.53	107.45	56.501	1.5643e-05	106.38	9.787	21.881	-23.567	-88.182	30.537	41.696	-88.615	-82.688	29.658	39.446	-83.837	-78.716	-78.218	-72.506	39.130	-74.321	-8191	255	
46605.141	1	1	0	0	0.072949	0.13944	0.13327	0.13526	0.22872	0.25282	0.052696	0.012922	0.14378	0.087545	0.25598	0.15211	0.10349	0.27198	0.17055	0.34799	-3.4521	-4.7	-4.4292	-4.2792	-4.8979	-4.0854	-4.3354	-4.7708	-3.8146	-4.6625	-4.5229	-4.1125	-4.8292	-4.0813	-4.2167	-4.8521	-33.305	-40.009	181.006	-58.305	6.881	-79.574	83.529	-10.440	146.281	107.789	-67.199	238.447	-36.997	212.515	59.374	113.100	0.0013339	0.00075284	0.00016821	499.38	7.7808e-06	6.2521e-06	696.77	219.89	8.7732e-06	6.9108e-06	344.13	177.08	106.98	55.9	5.7056e-06	105.9	0.0013662	0.0014354	0.00039883	492.93	1.4561e-05	1.5785e-05	687.85	219.42	1.4991e-05	1.5852e-05	344.16	176.56	107.34	56.34	1.5474e-05	106.4	11.505	-20.720	-4.303	-88.305	58.748	31.372	-88.848	-82.689	59.631	39.342	-84.164	-78.801	-78.143	-72.565	58.143	-74.193	-8191	255	
46605.262	1	1	0	0	0.21131	0.18944	0.15605	0.27518	0.14687	0.052344	0.11226	0.13358	0.10479	0.14771	0.13916	0.23124	0.22446	0.2003	0.22345	0.18323	-3.5167	-4.6104	-4.3146	-3.8937	-4.7771	-4.1229	-4.2583	-4.8042	-3.9562	-4.4833	-4.6708	-3.9833	-4.7188	-4.275	-4.0667	-4.9896	78.424	-91.440	224.779	94.971	50.357	85.794	59.683	-57.786	211.073	130.029	-100.084	242.611	-71.147	202.400	-67.486	76.383	0.0014	0.00082602	0.00015054	498.57	4.8341e-06	6.4815e-06	696.24	221.57	5.4162e-06	6.5369e-06	346.45	177.06	107.31	55.874	6.085e-06	106.08	0.0013737	0.0014545	0.00039973	494.11	1.4815e-05	1.6045e-05	688.43	220.04	1.494e-05	1.6055e-05	344.92	176.75	107.52	56.37	1.5779e-05	106.52	10.196	-11.006	-11.786	-88.455	45.891	45.059	-88.447	-82.890	117.325	38.270	-83.744	-78.421	-77.903	-72.409	72.255	-74.255	-8191	255	
46605.355	1	1	0	0	0.025763	0.015136	0.093925	0.079863	0.11808	0.31871	0.066605	0.0443	0.22197	0.05491	0.076112	0.10171	0.057792	0.084214	0.14482	0.25959	-3.6167	-4.4417	-4.6125	-3.9625	-4.8562	-4.3125	-4.0312	-4.8646	-4.0312	-4.3417	-4.9292	-4.0771	-4.9083	-4.4146	-3.9792	-5.0479	15.392	11.511	-25.926	255.177	75.927	170.051	-65.484	43.551	106.567	242.599	-96.416	232.639	179.632	-67.506	175.333	206.107	0.0013768	0.00085196	0.00013366	497.63	8.3546e-06	5.6058e-06	698	221.43	6.3649e-06	6.6868e-06	345.04	177.48	106.98	55.995	7.1175e-06	105.79	0.0013694	0.001441	0.00040121	493.54	1.4928e-05	1.6139e-05	689.25	219.94	1.5187e-05	1.5977e-05	344.01	176.53	107.34	56.364	1.5657e-05	106.16	9.376	-3.677	-7.423	-88.350	43.815	63.395	-88.521	-82.714	34.074	25.423	-83.974	-78.497	-77.977	-72.292	99.110	-74.323	-8191	255	
46605.430	1	1	0	0	0.025622	0.15639	0.12576	0.25729	0.15238	0.21437	0.14022	0.086006	0.20806	0.071479	0.15744	0.056993	0.18185	0.24379	0.17392	0.37153	-3.7708	-4.1875	-4.8646	-3.9375	-4.6	-4.3896	-3.9604	-4.85	-3.9813	-4.2229	-4.7229	-3.9333	-4.5771	-4.6354	-3.8604	-5.1333	121.862	61.899	231.182	-95.321	-75.910	-93.676	245.908	11.830	-38.001	62.036	133.054	23.238	224.243	256.410	-48.380	214.876	0.0013286	0.000455	0.00015043	499.83	7.5554e-06	9.5421e-06	697.49	220.37	1.3312e-05	5.9538e-06	345.21	176.59	107.01	55.968	8.454e-06	105.53	0.0013669	0.0014341	0.00039946	494	1.4929e-05	1.5845e-05	688.76	219.7	1.5062e-05	1.5971e-05	343.23	175.86	107.25	56.238	1.5601e-05	106.05	10.356	-20.317	-1.382	-88.256	45.431	39.436	-88.702	-82.605	86.242	56.973	-83.975	-78.786	-78.095	-72.311	51.554	-74.421	-8191	255	
46605.523	1	1	0	0	0.045404	0.1599	0.052994	0.076395	0.16186	0.049332	0.058571	0.23833	0.17085	0.072835	0.15814	0.13089	0.18785	0.14079	0.024757	0.29116	-3.8937	-4.1125	-4.7438	-3.9542	-4.3542	-4.7271	-4.025	-4.8458	-4.2521	-4.0854	-4.9417	-4.0521	-4.425	-4.8229	-3.8042	-4.95	95.893	183.489	-77.956	-27.487	-89.283	-78.034	181.214	-100.301	253.520	248.408	231.441	206.842	208.751	-65.060	66.065	196.291	0.0012479	0.00049192	0.0001611	498.31	2.8713e-06	5.8564e-06	699.4	221.68	1.1965e-05	4.2753e-06	344.38	176.66	106.93	55.89	5.8311e-06	105.93	0.0013599	0.0014147	0.0004016	493.2	1.4849e-05	1.5785e-05	688.44	219.78	1.5045e-05	1.5954e-05	343.61	176.22	107.41	56.199	1.5735e-05	106.24	6.038	-29.848	-16.977	-88.335	89.504	53.883	-88.699	-82.731	38.477	55.208	-83.963	-78.682	-78.068	-72.490	49.327	-74.326	-8191	255	
46605.645	1	1	0	0	0.13581	0.19953	0.21982	0.1485	0.10279	0.16316	0.075875	0.18517	0.16814	0.088545	0.2154	0.20466	0.11644	0.19258	0.068154	0.1837	-4.0583	-4.0083	-4.9021	-3.85	-4.2792	-4.6729	-3.8917	-4.6438	-4.3583	-3.9979	-4.9333	-3.9688	-4.3083	-4.9375	-3.8396	-4.7229	-10.862	-64.968	137.712	146.396	-20.530	143.329	209.403	203.555	254.967	219.395	47.504	-90.776	217.257	-95.237	238.941	132.847	0.0013438	0.00074138	0.00019152	500.24	1.3885e-05	7.517e-06	695.2	220.94	9.991e-06	6.3139e-06	346.89	177.31	106.62	55.762	9.5023e-06	105.85	0.0013773	0.0014463	0.00040397	494.4	1.5098e-05	1.6024e-05	688.42	219.78	1.5075e-05	1.6112e-05	344.92	176.52	107.22	56.276	1.5628e-05	106.43	9.044	14.647	-3.402	-88.316	47.067	56.585	-88.624	-82.649	45.674	57.677	-83.871	-78.728	-78.043	-72.570	39.718	-74.447	-8191	255	
46605.742	1	1	0	0	0.080207	0.21849	0.09192	0.056719	0.14695	0.15712	0.14033	0.16967	0.071192	0.26401	0.073167	0.11124	0.2611	0.28065	0.12849	0.20815	-4.0896	-4.0042	-4.9187	-4.2312	-4.1521	-4.7562	-4.0354	-4.6396	-4.6125	-3.8125	-4.7292	-4.3583	-4.2562	-4.8812	-3.7188	-4.5667	100.028	210.607	-57.991	4.539	-94.190	71.272	-62.692	-4.447	-40.492	207.241	136.637	65.689	-77.548	200.097	15.722	-70.938	0.0015461	0.0006818	0.00014742	497.94	8.4883e-06	9.5589e-06	697.8	220.62	8.5185e-06	4.1374e-06	346.46	176.57	107.07	55.723	5.2843e-06	105.28	0.0013872	0.001462	0.00040554	493.19	1.501e-05	1.5732e-05	688.29	219.55	1.5218e-05	1.6011e-05	344.06	176	107.19	56.159	1.5828e-05	105.95	9.993	-40.196	7.607	-88.401	35.769	50.044	-88.729	-82.788	39.900	56.964	-83.955	-78.473	-78.049	-72.382	55.298	-74.233	-8191	255	
46605.836	1	1	0	0	0.10757	0.10588	0.20727	0.1976	0.12601	0.20933	0.10596	0.16512	0.11876	0.061551	0.14231	0.17729	0.053746	0.32249	0.061908	0.18788	-4.4187	-3.7938	-4.8125	-4.275	-4.0208	-4.8646	-4.025	-4.4313	-4.775	-3.7896	-4.7937	-4.4896	-3.8125	-5.0083	-4.0188	-4.5	96.964	93.090	120.705	70.276	10.720	-28.133	168.693	168.513	151.355	25.897	246.997	173.703	2.977	255.516	247.140	198.715	0.0013454	0.00099378	0.00015284	498.65	9.4711e-06	8.2761e-06	693.92	220.45	7.9887e-06	5.1628e-06	344.2	176.29	106.95	55.851	5.8352e-06	105.19	0.0013903	0.0014494	0.00040989	492.74	1.4903e-05	1.6186e-05	687.06	219.7	1.5012e-05	1.617e-05	342.82	175.85	107.17	56.166	1.5796e-05	105.76	14.152	-23.149	-33.272	-88.005	49.277	44.105	-88.365	-82.637	56.683	48.817	-83.524	-78.424	-77.676	-72.160	38.060	-74.098	-8191	255	
46605.957	1	1	0	0	0.044178	0.13715	0.17149	0.12296	0.085364	0.15826	0.26764	0.085293	0.18001	0.046609	0.11997	0.21175	0.071072	0.054181	0.24748	0.10022	-4.3521	-3.6917	-4.6708	-4.4458	-3.925	-4.7833	-4.2833	-4.2583	-4.5833	-3.8083	-4.7396	-4.4479	-4.0208	-4.8833	-3.9021	-4.3917	-93.349	202.693	75.243	14.857	157.756	-95.173	116.511	-89.599	-2.375	209.731	-97.343	188.290	-70.842	-95.664	-93.146	212.807	0.0014094	0.00081925	0.00014542	497.37	1.0537e-05	3.3866e-06	694.74	220.29	6.2761e-06	5.2441e-06	344.52	176.59	106.28	55.733	7.2879e-06	105.33	0.0013806	0.0014597	0.00040984	491.95	1.4939e-05	1.6296e-05	686.11	219.25	1.4987e-05	1.6398e-05	343.64	176.01	107.01	56.15	1.5655e-05	105.89	10.469	-20.561	-24.776	-87.946	49.129	66.385	-88.497	-82.724	76.417	42.516	-83.863	-78.539	-77.863	-72.253	58.445	-74.321	-8191	255	
46606.027	1	1	0	0	0.19138	0.166	0.21105	0.13827	0.041477	0.25163	0.090977	0.15506	0.0791	0.18957	0.23882	0.28559	0.14248	0.13386	0.17405	0.24683	-4.5021	-3.9958	-4.5125	-4.7271	-3.9708	-4.8646	-4.3458	-4.0042	-4.8417	-3.9792	-4.6104	-4.7021	-3.9792	-4.8812	-4.15	-4.2292	-53.142	181.461	247.516	-51.794	-96.120	173.220	193.535	-63.463	100.955	222.274	-55.602	206.432	18.208	147.406	143.684	184.588	0.0013792	0.00061712	0.0001281	496.97	6.6148e-06	4.9433e-06	697.61	220.47	6.5678e-06	7.1405e-06	345.06	177.07	106.87	55.87	5.5792e-06	105.65	0.0013818	0.0014691	0.0004086	492.06	1.5016e-05	1.6035e-05	688.24	219.6	1.5097e-05	1.6233e-05	343.95	176.49	107.23	56.228	1.5688e-05	106.13	15.426	-41.688	5.331	-87.659	60.532	20.981	-88.393	-82.716	72.830	37.550	-83.566	-78.347	-77.666	-72.363	46.260	-74.192	-8191	255	
46606.125	1	1	0	0	0.11644	0.24367	0.037894	0.063529	0.14323	0.17962	0.20246	0.064626	0.080905	0.16489	0.38586	0.16334	0.097943	0.29604	0.15655	0.23466	-4.6687	-3.9833	-4.2271	-4.5938	-3.9125	-4.7292	-4.4187	-4.1396	-4.7792	-3.9917	-4.4458	-4.8583	-3.7354	-4.8063	-4.4646	-4.0188	224.626	58.861	230.792	-89.639	204.838	243.355	-60.180	99.882	87.862	27.854	217.559	258.895	256.130	247.476	177.916	177.604	0.0013923	0.00060277	0.00016413	498.59	8.4734e-06	9.6202e-06	693.94	220.82	9.161e-06	4.5832e-06	345.67	177	106.85	55.783	6.9767e-06	105.53	0.0013792	0.0014598	0.0004087	492.76	1.4771e-05	1.6221e-05	688.17	219.68	1.5196e-05	1.6097e-05	344.3	176.57	107.51	56.338	1.5766e-05	106.24	10.072	-16.895	-10.218	-88.128	57.935	55.214	-88.285	-82.549	53.893	23.925	-83.589	-78.274	-77.768	-72.396	58.912	-74.052	-8191	255	
46606.242	1	1	0	0	0.15335	0.19618	0.052439	0.082653	0.12761	0.10984	0.19046	0.21535	0.13918	0.041805	0.12687	0.17997	0.035026	0.2652	0.066298	0.0828	-4.6542	-4.025	-4.2188	-4.8042	-3.7938	-4.5354	-4.7167	-4.0479	-4.7583	-4.1708	-4.3333	-5.0146	-4.0292	-4.875	-4.5792	-4.0312	24.906	79.254	-16.645	103.295	118.655	-17.329	-100.565	240.283	243.729	160.515	-91.797	257.125	-94.640	-96.334	159.597	-33.100	0.0013246	0.00073872	0.0001738	497.18	7.6162e-06	6.8407e-06	692.61	219.6	1.0857e-05	8.0395e-06	343.93	175.29	105.93	55.383	3.8998e-06	104.95	0.0013694	0.0014354	0.00041058	492.67	1.5029e-05	1.619e-05	687.38	219.6	1.5045e-05	1.6233e-05	344.26	176.12	107.09	56.244	1.562e-05	106.01	13.850	-34.280	-21.634	-87.997	80.436	41.865	-88.074	-82.596	51.613	49.764	-83.519	-78.277	-77.509	-72.142	64.684	-73.843	-8191	255	
46606.340	1	1	0	0	0.25858	0.10594	0.2262	0.12347	0.041264	0.01205	0.14091	0.18821	0.066223	0.030356	0.21972	0.043314	0.13891	0.22962	0.15663	0.08827	-4.7063	-4.225	-4.2271	-4.9208	-3.9313	-4.4958	-4.6312	-3.9208	-4.85	-4.1479	-4.1375	-5.0625	-4.0604	-4.5437	-4.6333	-3.9604	114.858	-38.066	69.236	161.641	136.485	216.868	244.058	115.495	55.385	231.182	-74.725	137.134	38.914	184.939	126.158	216.306	0.0014543	0.00061087	0.00020534	496.06	6.4562e-06	4.0226e-06	692.78	219.52	6.1762e-06	5.8383e-06	344.01	175.48	106.11	55.522	2.3026e-06	105.17	0.0013692	0.0014456	0.00040311	492.67	1.4876e-05	1.5996e-05	686.45	219.35	1.5016e-05	1.6063e-05	343.66	176.13	107.1	56.197	1.5862e-05	106.03	9.621	-39.797	-20.563	-87.850	60.953	9.167	-88.267	-82.502	47.168	57.881	-83.524	-78.539	-77.693	-72.239	106.176	-74.016	-8191	255	
46606.438	1	1	0	0	0.073307	0.065107	0.17205	0.10461	0.16474	0.21598	0.088267	0.17113	0.1165	0.18082	0.094565	0.093893	0.22137	0.11645	0.36482	0.22853	-4.2646	-4.4604	-3.9333	-4.7771	-4.0083	-4.35	-4.8979	-3.9229	-4.5021	-4.4167	-4.1062	-4.8042	-4.175	-4.4771	-4.6979	-3.8896	189.782	174.859	-30.095	150.639	29.056	-32.693	87.274	186.930	101.199	135.632	100.142	17.909	-39.958	203.755	107.407	120.188	0.001342	0.000658	0.00012878	495.71	8.2404e-06	4.1162e-06	692.99	219	1.0315e-05	5.4474e-06	342.68	176.14	106.32	55.458	5.9618e-06	104.98	0.001357	0.0014433	0.00040304	492.2	1.4845e-05	1.5889e-05	686.97	219.02	1.4836e-05	1.5815e-05	343.39	176.3	107.08	56.176	1.538e-05	105.99	7.578	-29.144	-37.379	-88.045	39.019	3.834	-88.466	-82.445	52.695	44.482	-83.535	-78.290	-77.484	-72.116	35.294	-73.987	-8191	255	
46606.559	1	1	0	0	0.10899	0.12478	0.07442	0.10892	0.26562	0.11772	0.029027	0.25525	0.12221	0.053801	0.11071	0.20374	0.12979	0.19562	0.060879	0.084556	-4.5375	-4.5271	-3.9354	-5.0771	-4.0188	-4.0813	-4.8854	-3.8583	-4.5583	-4.6479	-3.9437	-4.7854	-4.325	-4.2354	-4.8688	-4.0708	41.952	14.165	-29.371	237.262	212.689	224.944	79.450	132.048	-2.618	102.763	176.740	216.377	194.708	-81.205	159.505	188.045	0.0012924	0.00085832	0.00017959	497.13	7.9226e-06	5.1935e-06	695.4	220.14	7.7948e-06	4.1211e-06	344.42	177.17	106.5	55.686	1.7258e-06	105.41	0.0013731	0.0014315	0.00040349	492.41	1.4963e-05	1.5824e-05	687.25	219.59	1.4896e-05	1.5754e-05	344.35	176.81	107.15	56.164	1.5568e-05	106.18	13.168	-23.836	-26.771	-87.915	33.022	30.362	-88.286	-82.644	70.026	62.417	-83.426	-78.487	-77.872	-72.336	-2.111	-73.975	-8191	255	
46606.652	1	1	0	0	0.13267	0.10421	0.22226	0.24445	0.11014	0.26666	0.14311	0.082664	0.10437	0.032047	0.011244	0.18905	0.19546	0.15375	0.08112	0.19417	-4.1125	-4.5792	-3.8417	-4.8292	-4.3833	-4.0021	-5.0396	-4.1562	-4.2833	-4.7854	-3.9021	-4.9708	-4.4292	-3.9667	-4.8521	-4.2146	-38.542	85.832	6.170	219.795	-95.439	-53.561	222.212	202.724	-21.306	-75.974	222.953	227.991	-33.137	243.322	-34.702	166.615	0.0012954	0.00069366	0.00017583	495.64	1.0115e-05	4.188e-06	691.91	219.79	7.341e-06	5.6201e-06	342.91	176.16	106.41	55.36	5.8791e-06	104.85	0.0013652	0.0014184	0.00040501	491.58	1.4772e-05	1.5891e-05	686.45	219.07	1.4613e-05	1.5873e-05	343.08	176.24	107.1	56.052	1.544e-05	105.79	11.464	-10.846	-19.130	-87.876	33.548	38.011	-88.342	-82.530	57.570	14.753	-83.781	-78.201	-77.761	-72.217	41.106	-74.113	-8191	255	
46606.727	1	1	0	0	0.21787	0.35761	0.091727	0.22352	0.12839	0.11965	0.23409	0.24912	0.102	0.020584	0.23153	0.16118	0.038321	0.23367	0.16375	0.17371	-3.9625	-4.7646	-3.7667	-4.6562	-4.6312	-3.9417	-4.9083	-4.1833	-4.1708	-4.7771	-4.0271	-4.8125	-4.6521	-4.05	-4.7188	-4.3646	165.552	69.775	28.884	-91.951	120.832	104.906	-54.959	205.255	12.911	100.104	56.901	242.609	172.436	251.019	-48.683	248.083	0.001382	0.00062565	0.00021282	492.24	3.4681e-06	3.7762e-06	690.85	218.25	5.1145e-06	5.0369e-06	340.72	176.04	105.97	55.427	6.4415e-06	104.73	0.0013598	0.0013911	0.000399	490.42	1.4615e-05	1.5729e-05	684.79	218.32	1.4489e-05	1.5733e-05	341.9	176.08	106.75	55.973	1.5503e-05	105.66	8.659	-10.272	-13.224	-87.838	43.757	65.631	-88.428	-82.513	65.592	16.464	-83.456	-78.409	-77.568	-72.276	39.393	-74.132	-8191	255	
46606.820	1	1	0	0	0.20993	0.071164	0.047219	0.15804	0.13029	0.11442	0.21451	0.28555	0.13321	0.12549	0.073475	0.13425	0.080535	0.14212	0.10617	0.21843	-3.8229	-4.8646	-3.8833	-4.5563	-4.65	-3.8896	-4.9271	-4.3271	-4.1104	-4.7979	-3.9646	-4.3958	-4.6438	-3.8229	-4.7167	-4.55	166.290	65.347	5.078	222.983	51.362	-65.730	175.803	-69.244	256.659	6.220	256.682	123.114	231.684	138.076	150.656	186.071	0.0013263	0.0004251	0.00015216	493.84	8.2512e-06	6.8911e-06	689.01	219.05	7.5707e-06	6.7064e-06	343.02	175.89	106.17	55.428	9.6709e-06	104.98	0.0013396	0.0013922	0.00039995	489.82	1.4257e-05	1.5801e-05	684.56	217.89	1.4653e-05	1.5529e-05	341.49	176.02	106.85	55.976	1.53e-05	105.77	9.240	-45.350	-34.751	-88.101	37.569	48.477	-88.250	-82.443	22.573	35.117	-83.522	-78.503	-77.512	-72.283	43.297	-73.969	-8191	255	
46606.941	1	1	0	0	0.25939	0.13934	0.11361	0.064747	0.1554	0.18254	0.12077	0.10094	0.1141	0.14625	0.25851	0.081224	0.10761	0.21271	0.14676	0.34087	-3.6	-4.8333	-3.95	-4.4688	-4.7	-3.9083	-4.8667	-4.5042	-3.8708	-4.8625	-4.1979	-4.3938	-4.8396	-3.9167	-4.6708	-4.7354	241.099	139.318	204.612	-52.531	-2.109	67.774	32.064	-87.202	-73.728	234.513	247.029	227.749	-90.456	-97.908	7.367	186.323	0.0012648	0.00022456	0.00020195	490.35	9.6768e-06	7.0695e-06	690.26	218.8	6.4853e-06	4.6461e-06	341.76	176.04	105.21	55.347	3.9514e-06	104.48	0.001345	0.0013893	0.00039385	488.06	1.4293e-05	1.5759e-05	682.76	217.56	1.4458e-05	1.558e-05	341.5	175.74	106.26	55.877	1.5246e-05	105.58	11.037	44.496	12.826	-88.001	81.235	72.941	-88.392	-82.283	62.314	64.100	-83.555	-78.422	-77.403	-72.264	50.874	-73.994	-8191	255	
46607.035	1	1	0	0	0.13879	0.08166	0.3899	0.18335	0.084221	0.24636	0.045148	0.2994	0.38213	0.13	0.012279	0.2158	0.070619	0.14127	0.28225	0.15277	-3.575	-4.9333	-4.0396	-4.2708	-4.7521	-3.9167	-4.8042	-4.6333	-4.0542	-4.8521	-4.3958	-4.1792	-4.9104	-4.0667	-4.4354	-4.8146	211.205	213.559	70.561	254.945	136.673	253.006	-52.060	232.206	65.478	30.991	-91.529	203.319	237.771	209.408	239.476	179.120	0.0013336	0.0004347	0.00018718	491.65	8.9519e-06	6.1808e-06	689.74	217.59	1.0204e-05	5.8878e-06	341.16	175.04	105.67	55.215	7.855e-06	104.38	0.0013346	0.001409	0.00039196	487.3	1.4309e-05	1.5785e-05	681.96	217.2	1.4442e-05	1.5381e-05	340.62	174.93	106.18	55.648	1.509e-05	105.01	10.182	-17.851	-39.367	-88.028	63.225	69.524	-88.342	-82.608	58.846	41.997	-83.721	-78.682	-77.588	-72.254	34.446	-74.130	-8191	255	
46607.133	1	1	0	0	0.10496	0.19347	0.090102	0.14426	0.071859	0.10621	0.1245	0.031247	0.13891	0.22131	0.10248	0.19648	0.080848	0.09582	0.028418	0.021602	-3.5875	-4.7188	-4.0687	-4.1146	-4.8396	-3.9771	-4.525	-4.6458	-3.8604	-4.8354	-4.4625	-4.0542	-4.8083	-4.2729	-4.2667	-5.0437	34.281	103.758	130.743	20.482	206.235	-13.933	105.211	-28.623	93.919	-18.240	179.939	-76.895	-18.142	197.195	153.001	77.107	0.0013098	0.00072017	0.00017776	490.42	6.1049e-06	2.8524e-06	690.15	217.25	8.7417e-06	5.4031e-06	341.65	174.78	105.83	54.962	5.9825e-06	104.23	0.0013236	0.0014003	0.00039118	486.63	1.4223e-05	1.5507e-05	680.81	216.36	1.4649e-05	1.5455e-05	340.54	174.5	105.98	55.491	1.4992e-05	104.79	8.903	-5.679	-2.539	-88.094	79.650	32.684	-88.648	-82.567	53.405	3.654	-83.614	-78.653	-77.899	-72.314	22.103	-74.023	-8191	255	
46607.227	1	1	0	0	0.089939	0.11262	0.47413	0.1352	0.18895	0.049789	0.20209	0.14686	0.10909	0.033458	0.16663	0.15682	0.10051	0.17238	0.16462	0.082521	-3.4021	-4.6667	-4.3438	-3.9938	-4.7125	-4.1083	-4.2292	-4.7562	-3.8312	-4.5229	-4.5958	-4.1438	-4.9417	-4.1896	-4.2542	-5.125	-60.852	241.040	56.405	24.992	-20.654	-72.127	147.931	89.396	24.974	17.192	44.396	193.299	-87.151	251.800	167.245	-49.814	0.0013306	0.00065467	0.00013261	490.69	7.5553e-06	6.7161e-06	687.62	218.35	8.6551e-06	4.4092e-06	341.39	175.51	105.29	55.094	8.2858e-06	104.02	0.0013145	0.0013869	0.00038552	486.42	1.4379e-05	1.5377e-05	680.63	216.82	1.4602e-05	1.5511e-05	340.24	174.65	105.71	55.472	1.4917e-05	104.91	12.106	-3.214	-35.550	-88.139	58.559	66.490	-88.464	-82.668	67.198	10.315	-83.677	-78.534	-77.934	-72.292	63.972	-74.112	-8191	255	
46607.324	1	1	0	0	0.085456	0.14088	0.20691	0.094811	0.10486	0.073142	0.16597	0.077172	0.081983	0.16527	0.23037	0.18375	0.25846	0.11793	0.16751	0.1546	-3.6896	-4.5312	-4.5542	-3.9396	-4.9083	-4.1792	-4.1479	-5.0312	-3.8042	-4.5333	-4.85	-3.9979	-4.7646	-4.4646	-4.1188	-5.0312	-65.047	6.007	212.424	54.334	-2.614	6.536	237.433	39.262	30.101	66.007	210.575	247.449	228.031	177.487	199.787	202.079	0.0012632	0.00089753	0.00013599	492.69	6.7327e-06	6.9769e-06	688.24	217.19	1.0654e-05	6.7495e-06	342.64	175.21	105.68	55.281	4.4936e-06	104.29	0.0013443	0.0013797	0.00039176	486.96	1.4343e-05	1.5564e-05	681.99	216.51	1.4465e-05	1.5487e-05	340.69	174.95	106.13	55.616	1.5174e-05	105.2	12.162	-5.889	-29.925	-88.107	50.993	43.006	-88.526	-82.597	61.965	64.976	-83.667	-78.640	-77.757	-72.234	39.570	-74.076	-8191	255	
46607.422	1	1	0	0	0.19229	0.15218	0.018139	0.16405	0.13723	0.1579	0.070476	0.087998	0.21324	0.16384	0.045537	0.18952	0.086646	0.3989	0.10469	0.18637	-3.5396	-4.2646	-4.7438	-4.025	-4.6104	-4.4625	-4.1833	-4.8562	-4.0437	-4.2104	-4.9333	-3.9813	-4.6208	-4.4104	-3.9479	-5.0333	-34.298	-8.871	54.446	-96.643	189.648	-56.277	-97.393	96.620	164.644	14.565	-73.891	145.529	-48.809	212.258	185.056	178.007	0.0013721	0.00082448	8.9679e-05	490.92	7.7134e-06	8.6195e-06	688.97	218.41	7.7193e-06	7.3299e-06	341.84	175.01	105.96	54.809	5.4982e-06	104.31	0.0013466	0.0013942	0.00039435	486.75	1.4679e-05	1.5817e-05	681.14	216.94	1.4781e-05	1.5903e-05	340.74	174.5	105.99	55.423	1.5492e-05	104.82	13.393	-1.016	-57.068	-88.167	33.358	43.601	-88.643	-82.528	45.429	35.816	-83.851	-78.591	-77.917	-72.234	55.822	-74.098	-8191	255	
46607.516	1	1	0	0	0.22417	0.14004	0.036616	0.05666	0.089441	0.2581	0.19698	0.063114	0.16162	0.15975	0.11909	0.36333	0.19324	0.19509	0.21592	0.2861	-3.7042	-4.2937	-4.8063	-4.1417	-4.5896	-4.4729	-4.1625	-4.9167	-4.1104	-4.2604	-4.9625	-3.8542	-4.6542	-4.6729	-3.8625	-4.8854	56.330	146.628	-61.636	38.605	-70.761	-60.127	136.284	30.454	29.295	-34.392	154.739	194.728	141.461	246.482	198.516	180.311	0.001371	0.0007951	0.00016676	491.83	6.9193e-06	3.8423e-06	687.86	217.55	4.6838e-06	7.6864e-06	341.62	175.31	105.41	55.175	6.7728e-06	104.03	0.001349	0.0014086	0.00039278	486.44	1.4499e-05	1.5488e-05	680.19	216.45	1.4641e-05	1.5629e-05	340.46	174.29	105.65	55.38	1.5298e-05	104.59	12.146	-18.599	1.613	-88.256	45.235	27.408	-88.658	-82.516	92.080	30.652	-83.628	-78.648	-77.701	-72.279	4.188	-74.219	-8191	255	
46607.637	1	1	0	0	0.10813	0.1701	0.044357	0.16997	0.061625	0.15977	0.16129	0.20703	0.22819	0.18235	0.27099	0.10179	0.30544	0.040768	0.18392	0.17722	-3.8854	-4.0292	-5.0042	-4.0979	-4.5146	-4.5687	-3.9604	-4.8667	-4.3208	-3.9229	-4.9271	-4.0083	-4.5813	-4.925	-3.7	-4.9708	251.990	208.187	122.443	-57.180	145.493	-99.938	-5.786	220.472	82.815	244.270	-87.760	-55.205	238.173	249.782	225.410	153.336	0.0013391	0.00076966	0.00013838	489.6	6.2263e-06	5.2635e-06	688.87	218.06	5.6657e-06	3.3381e-06	343.45	174.79	105.15	54.909	4.374e-06	104.02	0.0013483	0.0014057	0.00039973	486.49	1.4315e-05	1.5678e-05	681.04	217.07	1.4668e-05	1.5502e-05	341.08	174.41	105.53	55.238	1.5468e-05	104.57	8.618	-17.125	-4.837	-88.348	78.423	3.496	-88.515	-82.870	61.600	62.987	-83.717	-78.606	-77.890	-72.400	-1.845	-74.083	-8191	255	
46607.730	1	1	0	0	0.13939	0.13871	0.24466	0.15554	0.12824	0.042485	0.28896	0.11518	0.20728	0.018953	0.13939	0.27455	0.10818	0.13394	0.11413	0.20723	-4.1188	-4.0833	-4.7312	-4.0333	-4.2021	-4.7	-3.9313	-4.8417	-4.4583	-3.9437	-4.9062	-4.2417	-4.3771	-5.0021	-3.8708	-4.9167	144.105	-38.525	227.342	196.830	97.916	3.463	139.416	-86.287	189.334	19.684	69.062	194.927	80.274	-9.795	85.250	244.016	0.0013553	0.00071622	0.00023067	490.71	9.9034e-06	7.1394e-06	688.78	218.14	5.6081e-06	4.9416e-06	343.1	175	105.37	54.701	4.6045e-06	104.27	0.0013417	0.0013938	0.00039111	485.99	1.4294e-05	1.555e-05	680.45	216.84	1.4484e-05	1.5663e-05	341.47	174.37	105.71	55.226	1.5108e-05	104.81	12.784	-9.216	6.499	-88.134	50.835	46.648	-88.510	-82.578	40.549	62.294	-83.753	-78.420	-77.961	-72.233	21.938	-74.103	-8191	255	
46607.828	1	1	0	0	0.13899	0.1253	0.058248	0.05835	0.28507	0.083981	0.22706	0.071372	0.032383	0.08191	0.17449	0.3142	0.056058	0.22132	0.052736	0.020845	-4.2479	-3.8896	-4.8104	-4.2542	-4.3063	-4.8021	-4.0813	-4.7125	-4.5792	-3.7062	-4.9021	-4.4167	-4.0354	-4.9125	-4.0271	-4.6771	220.247	85.796	-66.368	242.584	59.831	240.239	250.112	225.876	152.888	-79.378	208.287	-81.329	-48.903	178.307	104.911	211.218	0.0012571	0.0008931	0.0001792	490.59	6.8655e-06	6.7327e-06	692.23	217.95	7.9232e-06	7.2243e-06	343.34	174.51	105.11	54.969	7.0633e-06	104.01	0.0013378	0.0013907	0.00038825	486.07	1.4333e-05	1.5419e-05	682.57	217.09	1.4541e-05	1.5336e-05	342.26	174.16	105.68	55.235	1.5137e-05	104.68	12.228	-7.398	-5.887	-87.772	32.275	50.220	-88.746	-82.618	34.166	47.391	-83.751	-78.232	-77.807	-72.302	76.657	-74.323	-8191	255	
46607.926	1	1	0	0	0.16348	0.17549	0.013598	0.16419	0.15239	0.11023	0.0655	0.19213	0.16345	0.097118	0.075324	0.10405	0.085482	0.08887	0.19634	0.11424	-4.4187	-3.8812	-4.7708	-4.3333	-4.15	-4.7979	-4.0146	-4.5271	-4.6542	-3.8667	-4.7875	-4.5437	-4.0583	-4.9208	-4.1167	-4.3479	219.192	93.701	-78.029	-48.060	114.124	189.862	-59.514	202.341	44.730	-43.076	27.809	229.696	-13.512	44.085	222.706	214.118	0.0013106	0.00059887	0.0002115	491.08	7.1036e-06	8.4882e-06	687.72	218.65	7.5617e-06	5.5362e-06	343.47	174.39	105.09	54.809	5.6216e-06	104.03	0.0013192	0.0013936	0.00038736	486.72	1.4173e-05	1.5654e-05	681.7	217.17	1.4517e-05	1.5774e-05	341.6	173.98	105.55	55.155	1.5519e-05	104.48	11.266	14.816	0.684	-88.147	52.993	61.983	-88.353	-82.742	65.643	66.749	-83.867	-78.574	-78.025	-72.277	36.578	-74.090	-8191	255	
46608.020	1	1	0	0	0.13443	0.1636	0.30832	0.21924	0.19396	0.071529	0.10104	0.081401	0.035771	0.18121	0.15956	0.15939	0.22827	0.26574	0.13813	0.21602	-4.4458	-3.7104	-4.7625	-4.6	-3.9271	-4.9458	-4.2812	-4.3271	-5.0417	-3.9208	-4.8271	-4.5687	-4.1813	-4.8938	-4.0292	-4.2979	-20.435	-35.378	-67.057	84.212	128.408	-45.043	-60.640	171.367	218.633	227.921	248.221	182.657	105.461	195.309	182.415	-56.127	0.0012663	0.00074044	0.00016034	491.2	7.3216e-06	6.2656e-06	688.7	218.32	9.5978e-06	4.6155e-06	344.2	174.96	105.19	54.674	6.6175e-06	103.97	0.0013427	0.0013969	0.00039281	486.71	1.4459e-05	1.5525e-05	681.66	216.88	1.4852e-05	1.5873e-05	341.94	174.18	105.72	55.134	1.5453e-05	104.55	11.337	-12.181	-32.186	-88.093	82.231	25.249	-88.250	-82.819	45.478	41.058	-83.799	-78.448	-77.740	-72.281	41.496	-74.258	-8191	255	
46608.117	1	1	0	0	0.013173	0.16166	0.17304	0.07437	0.13291	0.14373	0.29887	0.18003	0.12074	0.024075	0.12816	0.12021	0.20578	0.17359	0.13348	0.24038	-4.6021	-3.9396	-4.4563	-4.7771	-3.8563	-4.7667	-4.3396	-4.25	-4.9187	-4.0646	-4.5396	-4.7562	-4.0542	-4.9917	-4.4708	-4.1792	60.968	70.913	-47.808	82.143	50.013	-33.536	139.186	152.724	112.654	-73.640	174.940	259.133	83.846	-68.912	106.312	200.917	0.0013402	0.0007402	0.00016404	491.43	6.0157e-06	6.1949e-06	690.07	218.51	3.6013e-06	5.1592e-06	343.61	175.47	105.41	54.844	8.9229e-06	104.41	0.0013511	0.0014171	0.00039876	486.64	1.4532e-05	1.575e-05	682.26	217.35	1.4631e-05	1.5883e-05	342.32	174.66	105.79	55.258	1.551e-05	104.86	10.943	-43.126	-22.231	-88.060	54.574	43.084	-88.474	-82.501	23.595	20.812	-83.756	-78.371	-77.922	-72.139	37.095	-74.193	-8191	255	
46608.238	1	1	0	0	0.21183	0.080257	0.2712	0.16525	0.098454	0.13969	0.15905	0.29717	0.11758	0.080479	0.074651	0.09096	0.076495	0.24371	0.19929	0.2054	-4.6687	-4.0104	-4.2917	-4.7771	-4.0104	-4.8167	-4.5292	-3.8896	-4.8333	-4.0708	-4.3708	-4.9375	-3.9062	-4.7917	-4.4896	-4.0854	-77.979	108.431	254.427	207.904	-72.548	71.330	120.024	250.342	33.517	20.691	-5.379	240.042	169.915	256.466	228.844	-99.595	0.0014461	0.00058792	0.00016334	493.5	6.8652e-06	6.3142e-06	689.94	220.13	4.1122e-06	7.1366e-06	345.19	175.18	105.56	55.084	6.9562e-06	104.19	0.0013656	0.0014428	0.00039821	487.8	1.4908e-05	1.599e-05	683.59	217.64	1.5135e-05	1.6269e-05	342.88	174.73	105.85	55.409	1.5751e-05	104.88	8.391	-7.709	-6.004	-87.940	35.491	52.943	-88.498	-82.675	31.676	36.873	-83.869	-78.428	-77.773	-72.238	23.192	-74.292	-8191	255	
46608.332	1	1	0	0	0.076196	0.056863	0.10159	0.19113	0.10665	0.18762	0.080011	0.042454	0.04839	0.054179	0.012084	0.099195	0.227	0.14933	0.11428	0.10434	-4.5146	-4.1417	-4.3229	-4.9229	-4.0042	-4.5646	-4.5292	-4.0271	-4.8792	-4.2667	-4.4146	-4.9729	-4.0104	-4.6771	-4.6646	-3.8937	203.799	-10.882	73.806	-79.858	24.836	-13.364	-67.784	187.305	32.112	259.031	-29.447	-97.451	250.863	-74.072	141.560	226.402	0.0012965	0.00068217	0.00012993	491.79	8.3323e-06	6.7636e-06	692.48	219.01	1.1768e-05	4.6802e-06	343.05	175.6	105.84	55.078	1.0297e-05	104.74	0.0013857	0.0014708	0.00040944	487.69	1.4981e-05	1.6205e-05	683.47	217.72	1.5375e-05	1.6307e-05	341.87	175.2	106.03	55.491	1.6095e-05	105.02	12.727	-20.216	-17.881	-87.841	49.672	7.324	-88.371	-82.722	38.370	16.233	-83.779	-78.465	-78.000	-72.555	30.983	-74.237	-8191	255	
46608.430	1	1	0	0	0.24964	0.20984	0.21604	0.096343	0.20507	0.2035	0.074787	0.084976	0.047606	0.2397	0.14698	0.068093	0.18202	0.11758	0.23065	0.080929	-4.6333	-4.2708	-4.1208	-4.95	-3.9271	-4.5104	-4.5792	-3.8771	-4.7708	-4.3958	-4.0583	-4.9333	-4	-4.5188	-4.8167	-4.0979	-86.663	193.503	25.179	246.863	254.763	234.198	-93.100	229.316	-57.118	163.313	-91.632	103.051	181.118	210.660	127.465	146.443	0.0014478	0.00040499	8.1979e-05	492.51	4.9978e-06	5.7533e-06	694.89	218.03	9.1477e-06	6.7663e-06	344.94	175.96	105.79	55.359	5.6001e-06	104.76	0.0013948	0.0014597	0.00041431	487.84	1.5505e-05	1.6387e-05	683.82	217.64	1.5769e-05	1.6686e-05	343.18	175.51	106.27	55.633	1.6521e-05	105.12	16.042	-28.998	-4.523	-88.036	56.826	22.515	-88.418	-82.612	60.021	50.574	-83.924	-78.428	-77.901	-72.401	18.200	-74.227	-8191	255	
46608.527	1	1	0	0	0.029928	0.11673	0.23424	0.13293	0.15772	0.06207	0.16017	0.25847	0.19756	0.10127	0.32342	0.40995	0.14314	0.22855	0.20346	0.17889	-4.4146	-4.4271	-3.9979	-4.9875	-4.0479	-4.3625	-4.925	-4.1146	-4.5917	-4.4271	-4.0625	-4.8979	-4.0583	-4.3125	-4.9083	-4.0479	27.312	-14.695	-25.338	-75.633	246.538	-68.186	108.506	154.373	185.370	82.019	-47.690	193.370	12.563	228.500	80.300	237.364	0.001252	0.00059065	0.00013701	490.2	9.9096e-06	5.6717e-06	691.59	218.65	6.5608e-06	5.6392e-06	343.54	175.95	105.67	55.122	8.3787e-06	104.91	0.001431	0.0015294	0.00042939	486.96	1.5823e-05	1.73e-05	684.61	217.74	1.6435e-05	1.7305e-05	343.56	175.57	106.21	55.56	1.7122e-05	105.31	10.407	-6.920	-18.839	-88.221	69.317	69.733	-88.463	-82.544	82.016	31.150	-83.684	-78.317	-78.054	-72.386	62.414	-74.326	-8191	255	
46608.598	1	1	0	0	0.13857	0.039601	0.3511	0.25036	0.074243	0.11944	0.12495	0.28491	0.1786	0.13815	0.12259	0.063782	0.15792	0.17322	0.11152	0.079766	-4.2729	-4.5292	-3.9	-4.9271	-4.1958	-4.1646	-4.7688	-4.1062	-4.4	-4.6396	-3.925	-4.9062	-4.3208	-4.2083	-4.8063	-3.9708	164.378	-99.847	28.094	-50.948	186.480	222.778	171.044	-69.136	209.344	-46.097	83.449	-40.150	224.110	-73.880	59.227	-92.870	0.0012797	0.00082937	0.00021959	491.68	8.1328e-06	7.702e-06	694	218.39	1.0552e-05	3.8909e-06	344.86	176.12	105.35	55.077	7.3997e-06	104.58	0.0014635	0.001558	0.00044569	487.98	1.6259e-05	1.7698e-05	685.8	217.76	1.6616e-05	1.7637e-05	343.21	175.71	106.16	55.491	1.7233e-05	105.4	10.603	-9.168	-16.164	-88.256	67.928	41.148	-88.396	-82.784	51.808	16.047	-83.950	-78.516	-77.685	-72.524	31.051	-74.090	-8191	255	
#DATA ENDS
