BOXY.EXE: ISS Imagent and Oximeter Data Acquisition Program Version 0.80
Ascii Record File

#ACQ INFORMATION
2  Detector Channels 
16  External MUX Channels 
1  Auxiliary Channels 
5000  Waveform (CCF) Frequency (Hz)
1  Waveforms Skipped 
30  Waveforms Averaged 
1  Cycles Averaged 
16  Acquisitions per Waveform 
10.0806  Updata Rate (Hz) 

#FILE INFORMATION
TRUE -- External MUX Channel results are PARSED.
FALSE -- AC DC and Phase are NOT grouped.
TRUE -- Companion Program Settings File CREATED.
FALSE -- AC data not excluded
FALSE -- DC data not excluded
FALSE -- Phase data not excluded
FALSE -- Auxillary Chn. data not excluded
Tab delimiters

#CALIBRATION STATE
TRUE -- Waveform Calibration Values APPLIED.


#AUX CALIBRATION VALUES
Val Type	aux-1	

Term	1.0000e+00	
Factor	0.0000e+00	


#WF CALIBRATION VALUES
A = Detector Channel
Val Type	A-AC1	A-AC2	A-AC3	A-AC4	A-AC5	A-AC6	A-AC7	A-AC8	A-AC9	A-AC10	A-AC11	A-AC12	A-AC13	A-AC14	A-AC15	A-AC16	A-DC1	A-DC2	A-DC3	A-DC4	A-DC5	A-DC6	A-DC7	A-DC8	A-DC9	A-DC10	A-DC11	A-DC12	A-DC13	A-DC14	A-DC15	A-DC16	A-Ph1	A-Ph2	A-Ph3	A-Ph4	A-Ph5	A-Ph6	A-Ph7	A-Ph8	A-Ph9	A-Ph10	A-Ph11	A-Ph12	A-Ph13	A-Ph14	A-Ph15	A-Ph16	

Term	0.00000e+00	0.00000e+00	0.00000e+00	0.00000e+00	0.00000e+00	0.00000e+00	0.00000e+00	0.00000e+00	0.00000e+00	0.00000e+00	0.00000e+00	0.00000e+00	0.00000e+00	0.00000e+00	0.00000e+00	0.00000e+00	0.00000e+00	0.00000e+00	0.00000e+00	0.00000e+00	0.00000e+00	0.00000e+00	0.00000e+00	0.00000e+00	0.00000e+00	0.00000e+00	0.00000e+00	0.00000e+00	0.00000e+00	0.00000e+00	0.00000e+00	0.00000e+00	0.00000e+00	0.00000e+00	0.00000e+00	0.00000e+00	0.00000e+00	0.00000e+00	0.00000e+00	0.00000e+00	0.00000e+00	0.00000e+00	0.00000e+00	0.00000e+00	0.00000e+00	0.00000e+00	0.00000e+00	0.00000e+00	
Factor	1.00000e+00	1.00000e+00	1.00000e+00	1.00000e+00	1.00000e+00	1.00000e+00	1.00000e+00	1.00000e+00	1.00000e+00	1.00000e+00	1.00000e+00	1.00000e+00	1.00000e+00	1.00000e+00	1.00000e+00	1.00000e+00	1.00000e+00	1.00000e+00	1.00000e+00	1.00000e+00	1.00000e+00	1.00000e+00	1.00000e+00	1.00000e+00	1.00000e+00	1.00000e+00	1.00000e+00	1.00000e+00	1.00000e+00	1.00000e+00	1.00000e+00	1.00000e+00	X	X	X	X	X	X	X	X	X	X	X	X	X	X	X	X	

B = Detector Channel
Val Type	B-AC1	B-AC2	B-AC3	B-AC4	B-AC5	B-AC6	B-AC7	B-AC8	B-AC9	B-AC10	B-AC11	B-AC12	B-AC13	B-AC14	B-AC15	B-AC16	B-DC1	B-DC2	B-DC3	B-DC4	B-DC5	B-DC6	B-DC7	B-DC8	B-DC9	B-DC10	B-DC11	B-DC12	B-DC13	B-DC14	B-DC15	B-DC16	B-Ph1	B-Ph2	B-Ph3	B-Ph4	B-Ph5	B-Ph6	B-Ph7	B-Ph8	B-Ph9	B-Ph10	B-Ph11	B-Ph12	B-Ph13	B-Ph14	B-Ph15	B-Ph16	

Term	0.00000e+00	0.00000e+00	0.00000e+00	0.00000e+00	0.00000e+00	0.00000e+00	0.00000e+00	0.00000e+00	0.00000e+00	0.00000e+00	0.00000e+00	0.00000e+00	0.00000e+00	0.00000e+00	0.00000e+00	0.00000e+00	0.00000e+00	0.00000e+00	0.00000e+00	0.00000e+00	0.00000e+00	0.00000e+00	0.00000e+00	0.00000e+00	0.00000e+00	0.00000e+00	0.00000e+00	0.00000e+00	0.00000e+00	0.00000e+00	0.00000e+00	0.00000e+00	-2.90631e+01	-1.25552e+02	-1.34417e+02	-1.83772e+02	-7.20645e+01	-6.10955e+01	-1.58193e+02	-1.62015e+02	-3.23909e+01	-1.01832e+02	-1.70609e+02	-1.70696e+02	-1.78180e+02	-1.76850e+02	-4.40641e+01	-1.49933e+02	
Factor	3.20294e-05	1.37736e-04	3.60325e-05	1.67790e-01	1.23194e-06	1.40486e-06	1.82739e-01	6.01972e-02	1.41033e-06	1.15288e-06	1.00393e-01	3.50361e-02	3.11072e-02	1.11864e-02	1.47115e-06	1.60536e-02	1.28001e-06	1.31859e-06	3.66219e-07	8.30035e-02	1.44006e-08	1.44477e-08	8.47747e-02	2.96083e-02	1.44213e-08	1.44501e-08	4.73672e-02	1.64815e-02	1.52180e-02	5.44559e-03	1.43905e-08	7.51965e-03	X	X	X	X	X	X	X	X	X	X	X	X	X	X	X	X	



#DISTANCE SETTINGS
A = Detector Channel
A-1	A-2	A-3	A-4	A-5	A-6	A-7	A-8	A-9	A-10	A-11	A-12	A-13	A-14	A-15	A-16	

2.5000e+00	3.0000e+00	2.5000e+00	3.0000e+00	2.0000e+00	3.0000e+00	1.5000e+00	3.0000e+00	3.0000e+00	3.0000e+00	3.0000e+00	3.0000e+00	3.0000e+00	3.0000e+00	1.5000e+00	3.0000e+00	

B = Detector Channel
B-1	B-2	B-3	B-4	B-5	B-6	B-7	B-8	B-9	B-10	B-11	B-12	B-13	B-14	B-15	B-16	

1.0000e+01	1.0000e+01	1.0000e+01	1.4400e+00	1.0000e+01	1.0000e+01	1.5100e+00	1.9400e+00	1.0000e+01	1.0000e+01	1.9900e+00	2.4900e+00	2.4100e+00	2.9000e+00	1.0000e+01	2.9800e+00	




#DATA BEGINS
time	group	step	mark	flag	A-AC1	A-AC2	A-AC3	A-AC4	A-AC5	A-AC6	A-AC7	A-AC8	A-AC9	A-AC10	A-AC11	A-AC12	A-AC13	A-AC14	A-AC15	A-AC16	A-DC1	A-DC2	A-DC3	A-DC4	A-DC5	A-DC6	A-DC7	A-DC8	A-DC9	A-DC10	A-DC11	A-DC12	A-DC13	A-DC14	A-DC15	A-DC16	A-Ph1	A-Ph2	A-Ph3	A-Ph4	A-Ph5	A-Ph6	A-Ph7	A-Ph8	A-Ph9	A-Ph10	A-Ph11	A-Ph12	A-Ph13	A-Ph14	A-Ph15	A-Ph16	B-AC1	B-AC2	B-AC3	B-AC4	B-AC5	B-AC6	B-AC7	B-AC8	B-AC9	B-AC10	B-AC11	B-AC12	B-AC13	B-AC14	B-AC15	B-AC16	B-DC1	B-DC2	B-DC3	B-DC4	B-DC5	B-DC6	B-DC7	B-DC8	B-DC9	B-DC10	B-DC11	B-DC12	B-DC13	B-DC14	B-DC15	B-DC16	B-Ph1	B-Ph2	B-Ph3	B-Ph4	B-Ph5	B-Ph6	B-Ph7	B-Ph8	B-Ph9	B-Ph10	B-Ph11	B-Ph12	B-Ph13	B-Ph14	B-Ph15	B-Ph16	aux-1	digaux	

11105.779	1	1	0	768	0.03472	0.30782	0.22691	0.11678	0.075397	0.034631	0.32225	0.038736	0.10487	0.20461	0.2326	0.13695	0.2095	0.19638	0.10499	0.17484	-2.6521	-2.7396	-2.6958	-3.375	-2.4437	-3.0646	-2.8771	-2.8646	-3.3104	-2.7375	-2.7354	-3.1708	-2.6229	-3.0563	-2.8583	-2.5187	335.254	298.208	217.010	391.030	281.787	413.829	401.975	377.371	364.786	153.014	433.802	316.732	424.947	395.896	373.122	325.918	0.00067599	0.0003223	8.2734e-05	1250.9	1.0245e-05	6.382e-06	1271.3	351.34	4.6654e-06	2.128e-06	406.45	138.21	119.03	40.991	2.7498e-06	51.391	0.00038389	0.00039563	0.00010399	1255.7	4.1419e-06	4.2997e-06	1271.8	351.81	4.1684e-06	4.2589e-06	407.06	137.61	118.56	41.394	3.9904e-06	51.417	261.629	140.282	431.389	92.718	230.178	238.381	92.715	97.795	251.596	226.170	96.991	101.935	102.216	106.497	187.656	105.568	-8191	255	
11105.875	1	1	0	0	0.232	0.065853	0.191	0.18187	0.22827	0.092565	0.25236	0.20616	0.16478	0.177	0.1419	0.10005	0.14746	0.1877	0.10408	0.30656	-2.8812	-2.7812	-2.6708	-3.3333	-2.5167	-2.8604	-3.0646	-2.4562	-3.1813	-2.65	-2.7438	-3.1958	-2.6771	-3.0479	-3.075	-2.6771	322.734	343.323	416.544	378.419	275.454	323.012	384.922	431.284	86.847	169.070	367.849	338.039	107.304	363.639	247.452	329.886	0.00078759	0.00021725	4.0225e-05	1251.5	7.9516e-06	5.303e-06	1271.3	351.01	2.7921e-06	2.0123e-06	405.9	138.17	118.84	40.957	3.976e-06	51.345	0.00039451	0.0003832	9.9047e-05	1256.2	4.2934e-06	4.1456e-06	1271.6	352.33	4.3364e-06	4.1363e-06	406.51	137.61	118.4	41.27	3.8946e-06	51.453	267.302	245.621	222.516	92.848	248.251	279.217	92.720	97.631	285.263	190.917	97.039	101.764	102.442	106.738	206.267	105.346	-8191	255	
11105.971	1	1	0	0	0.12744	0.32938	0.05005	0.11486	0.15665	0.089138	0.33558	0.26532	0.26163	0.24521	0.23973	0.17872	0.15129	0.12571	0.10846	0.092343	-2.7708	-2.7	-2.5438	-3.3083	-2.4688	-2.8396	-3.3042	-2.5667	-3.0646	-2.7021	-2.7021	-3.0792	-2.5479	-2.7458	-3.0687	-2.5792	160.100	127.554	419.605	118.361	151.141	189.249	380.215	338.936	99.453	245.983	419.343	164.754	390.269	395.917	242.188	160.627	0.00074688	0.00043942	2.2272e-05	1249.9	4.0367e-06	4.9956e-07	1266.5	349.8	5.446e-06	4.1793e-06	406.5	138.3	117.38	40.936	4.56e-06	51.391	0.00040653	0.00037657	9.7494e-05	1253.3	4.3495e-06	4.1349e-06	1266.7	350.76	4.2798e-06	4.0634e-06	405.16	137.52	117.87	41.146	3.8409e-06	51.397	270.924	204.839	238.044	92.848	187.087	273.379	92.662	97.793	283.472	254.439	96.821	101.890	102.076	106.387	337.406	105.525	-8191	255	
11106.067	1	1	0	0	0.12555	0.20556	0.14392	0.26282	0.1401	0.19693	0.08012	0.089333	0.018692	0.059421	0.20402	0.34745	0.054595	0.18742	0.086888	0.096529	-2.4896	-2.7604	-2.3833	-3.2604	-2.725	-2.5917	-3.3583	-2.7104	-3.05	-2.8708	-2.4958	-3.0708	-2.6417	-2.7854	-3.0187	-2.5708	339.180	224.120	171.572	80.297	375.368	212.827	429.563	364.191	437.469	257.662	385.003	378.979	348.283	342.312	235.312	174.684	0.00072811	0.00072397	0.00010825	1242.1	4.0666e-06	3.0683e-06	1265	349.07	2.6291e-06	3.2046e-06	404.65	137.1	118.35	40.555	1.0369e-05	51.229	0.00039998	0.00036868	9.6637e-05	1251.2	4.2853e-06	4.0619e-06	1263.9	350.88	4.3023e-06	3.9915e-06	403.78	137.22	117.79	41.008	3.8966e-06	51.449	270.590	187.460	172.928	92.939	257.574	147.435	92.788	97.597	306.542	242.966	96.759	101.860	102.345	106.416	241.747	105.439	-8191	255	
11106.162	1	1	0	0	0.13206	0.18351	0.13443	0.28354	0.13288	0.16043	0.07364	0.079474	0.14389	0.084517	0.14041	0.0031914	0.12794	0.21257	0.040204	0.1419	-2.6437	-3.0083	-2.4688	-3.3271	-2.8	-2.7729	-3.3021	-2.7521	-2.8542	-2.9833	-2.6375	-3.1792	-2.8479	-2.6688	-3.3542	-2.5792	438.557	150.423	87.645	348.210	82.573	227.549	224.141	370.224	84.125	240.652	290.854	137.862	232.721	419.584	178.059	387.755	0.00069837	0.00032309	0.00021971	1242.7	6.8846e-06	5.087e-06	1263.7	348.87	9.0182e-07	1.9828e-06	404.62	137.37	117.5	40.842	6.9523e-06	51.12	0.00039213	0.00036209	9.9834e-05	1250.1	4.1732e-06	3.8951e-06	1262.7	350.51	4.1462e-06	3.882e-06	403.79	137.28	117.35	40.923	4.0493e-06	51.348	266.158	170.598	144.599	92.718	215.761	311.916	92.642	97.661	225.444	186.200	97.060	101.866	102.242	106.516	230.450	105.414	-8191	255	
11106.259	1	1	0	0	0.070023	0.19016	0.22752	0.12059	0.051803	0.10596	0.29903	0.2928	0.085129	0.18937	0.077283	0.19742	0.18372	0.086173	0.080383	0.15537	-2.6312	-3.1146	-2.4125	-3.0292	-2.7854	-2.5479	-3.2417	-2.8438	-2.8812	-3.1229	-2.4792	-3.2083	-3.0375	-2.6188	-3.05	-2.6146	211.483	367.039	268.252	355.494	183.976	410.768	345.337	363.802	299.097	252.009	358.656	362.029	105.743	393.845	223.062	94.767	0.0005905	0.00030451	0.00012124	1237.5	2.494e-06	4.9831e-06	1261.9	348.56	4.523e-06	5.1214e-06	402.27	137.06	117.47	40.748	4.7337e-06	50.962	0.0003826	0.00034472	0.00010446	1246.3	4.1249e-06	3.8063e-06	1261.6	349.49	4.1063e-06	3.8187e-06	403.84	136.88	117.13	40.861	4.2642e-06	51.228	268.960	192.557	129.966	92.808	307.470	273.931	92.889	97.761	253.223	242.576	96.798	101.703	102.158	106.179	238.996	105.460	-8191	255	
11106.378	1	1	0	0	0.12479	0.0771	0.095257	0.091831	0.025	0.27571	0.19876	0.2497	0.24591	0.071907	0.057046	0.17814	0.33669	0.048107	0.23082	0.13122	-2.1708	-3.2146	-2.55	-3.0979	-3.1104	-2.5375	-3.3083	-2.7146	-2.5062	-3.2687	-2.4583	-3.0042	-3.0438	-2.4604	-3.0938	-2.8479	305.504	240.172	144.263	410.630	350.392	307.643	360.343	353.072	283.396	292.252	418.754	392.566	391.367	115.138	253.627	259.979	0.00068386	0.00059344	0.00010012	1240.9	5.3303e-06	6.7552e-06	1264.7	347.46	6.5343e-06	5.9246e-06	403.52	136.63	117.39	40.636	7.75e-06	50.823	0.00038043	0.00035273	0.00010986	1246.1	4.0137e-06	3.9179e-06	1261.2	349.11	3.9934e-06	3.9465e-06	403.24	136.36	116.66	40.855	4.3809e-06	51.014	266.899	140.768	141.485	92.888	294.137	214.432	92.656	97.938	258.214	216.130	96.668	101.808	102.258	106.202	264.604	105.633	-8191	255	
11106.474	1	1	0	0	0.079706	0.094883	0.057419	0.12299	0.21185	0.10661	0.28476	0.28619	0.064455	0.25955	0.21003	0.0061599	0.33207	0.21253	0.18487	0.17402	-2.3542	-3.0708	-2.4188	-3.1208	-3.175	-2.5417	-3.2208	-2.9208	-2.5062	-3.2208	-2.7875	-2.8917	-3.0917	-2.3333	-3.1437	-3.0187	245.939	179.335	133.296	330.508	347.223	141.631	402.439	410.849	412.353	260.705	328.066	126.230	89.763	83.060	392.140	405.046	0.00069983	0.00097748	8.0628e-05	1237.4	4.5861e-06	4.1299e-06	1254	346.62	8.2902e-06	7.4823e-06	398.34	135.81	116.23	40.038	5.0996e-06	50.292	0.00036983	0.00037283	0.00011241	1242.5	3.9642e-06	4.2316e-06	1255.7	347.79	4.0173e-06	4.2577e-06	401.8	135.81	116.27	40.622	4.4639e-06	50.744	271.958	150.721	252.078	92.949	218.237	233.801	92.727	97.743	239.328	218.539	96.951	101.860	102.426	106.721	220.140	105.531	-8191	255	
11106.571	1	1	0	0	0.072441	0.20218	0.23097	0.096513	0.13169	0.05251	0.099812	0.15389	0.22909	0.017326	0.089338	0.11801	0.209	0.12548	0.12113	0.38905	-2.1271	-3.2375	-2.5833	-2.7708	-3.0271	-2.5708	-3.2583	-3.0687	-2.4271	-3.0667	-2.6896	-2.8	-3.1604	-2.7521	-2.9375	-3.1063	165.974	136.727	104.036	426.355	285.444	193.254	240.519	377.174	163.080	152.161	348.891	439.382	374.722	179.511	216.316	418.094	0.00076871	0.00054497	1.6748e-05	1227.6	8.18e-06	7.635e-06	1246	344.79	2.2362e-06	3.3404e-06	399.82	134.62	115.53	39.978	6.6832e-06	50.253	0.00037923	0.00040741	0.00011527	1235.5	4.054e-06	4.5438e-06	1250.8	346.7	4.1711e-06	4.6467e-06	401.19	135.29	115.77	40.68	4.6484e-06	50.581	269.196	128.179	402.193	92.892	215.872	221.947	92.842	97.847	243.976	248.512	97.065	101.866	102.411	106.862	218.920	105.806	-8191	255	
11106.667	1	1	0	0	0.14471	0.20255	0.11684	0.26636	0.094023	0.14669	0.26971	0.37502	0.018211	0.057624	0.24841	0.032144	0.14786	0.14869	0.039818	0.10039	-1.9917	-3.0208	-2.7562	-2.6896	-3.15	-2.5438	-3.0625	-3.0187	-2.3604	-3.2292	-2.8438	-2.5125	-3.3292	-2.6208	-2.7917	-3.0812	153.792	188.377	395.956	381.100	183.403	97.224	94.143	369.941	275.323	307.461	411.803	259.285	410.740	354.329	169.542	434.989	0.00072558	0.00071292	6.2231e-05	1223.5	6.108e-06	6.8689e-06	1242.9	343.52	8.6061e-06	3.6957e-06	396.58	134.14	115.05	39.7	3.1489e-06	50.133	0.00041407	0.00044757	0.00011959	1236.2	4.5495e-06	4.963e-06	1251.1	346.58	4.5857e-06	4.996e-06	400.25	135.01	115.92	40.591	4.7137e-06	50.431	266.333	187.743	147.436	92.807	228.251	233.376	93.007	97.921	248.406	185.214	97.291	101.833	102.663	106.739	291.234	105.670	-8191	255	
11106.763	1	1	0	0	0.080991	0.052266	0.0931	0.19436	0.085006	0.11836	0.17161	0.060333	0.097888	0.12968	0.34798	0.088431	0.22002	0.04029	0.17423	0.24761	-2.1208	-2.9813	-2.7854	-2.7167	-3.1146	-2.7125	-2.6625	-3.1646	-2.3271	-2.8438	-2.9333	-2.4771	-3.2229	-2.7792	-2.7083	-3.2396	328.505	316.037	180.995	320.446	329.595	131.056	352.722	258.481	349.108	247.135	420.479	426.974	352.323	408.185	90.048	90.808	0.00066682	0.00018551	0.00011526	1227.5	2.8843e-06	3.8646e-06	1248.4	345.25	1.0021e-05	2.4432e-06	398.14	134.66	115.44	39.988	6.0185e-06	50.093	0.00043985	0.00045156	0.00011868	1235.4	4.8054e-06	4.9369e-06	1253.1	346.79	4.9268e-06	4.9288e-06	400.63	135.18	116.65	40.663	4.7123e-06	50.537	269.985	191.451	131.483	92.886	224.150	200.482	92.815	97.912	262.376	146.470	97.025	101.700	102.220	106.770	198.967	105.364	-8191	255	
11106.859	1	1	0	0	0.19782	0.11158	0.031713	0.11985	0.14969	0.19768	0.35502	0.30104	0.21821	0.048615	0.079941	0.15145	0.18205	0.094218	0.088683	0.11334	-2.1542	-2.8937	-2.8271	-2.8333	-3.0938	-2.8563	-2.7479	-3.1771	-2.5312	-2.7979	-2.9708	-2.6958	-3.1708	-2.8208	-2.4417	-3.3812	388.748	278.686	135.029	431.087	81.151	181.192	349.505	410.785	409.154	355.436	218.295	90.281	384.045	413.101	318.537	139.156	0.00067809	0.0004089	9.6348e-05	1226.1	2.0063e-06	2.6973e-06	1249.5	345.97	6.2061e-06	1.7072e-06	396.74	135.05	115.34	39.822	5.1238e-06	49.975	0.00047232	0.00045767	0.00012011	1241.8	5.2031e-06	4.9998e-06	1256.8	347.77	5.2498e-06	4.9504e-06	401.09	135.56	116.58	40.549	4.6304e-06	50.676	262.266	129.741	143.536	92.985	148.941	312.018	92.709	97.748	288.525	297.682	97.021	101.734	102.229	106.314	180.292	105.675	-8191	255	
11106.980	1	1	0	0	0.091788	0.13272	0.14969	0.2448	0.17661	0.19864	0.054928	0.086858	0.19128	0.28498	0.19459	0.11813	0.13821	0.095267	0.021189	0.074049	-2.0354	-2.7333	-2.9854	-2.6083	-3.1667	-2.7687	-2.7208	-3.3167	-2.6646	-2.7271	-3.2354	-2.5667	-3.2062	-2.8625	-2.5729	-3.0896	205.680	382.533	271.554	411.239	298.189	308.324	438.028	414.986	229.814	261.884	386.512	289.661	305.318	99.766	181.539	279.975	0.0007307	0.00013444	5.7239e-05	1230	5.7385e-06	1.6087e-06	1250.8	344.99	9.1825e-06	3.665e-06	400.67	135.05	115.68	39.903	5.6596e-06	50.199	0.00048484	0.00045248	0.00011691	1247.1	5.2005e-06	4.8997e-06	1257.5	348.81	5.15e-06	4.8801e-06	401.09	135.82	116.83	40.557	4.5936e-06	50.903	273.236	129.759	154.059	93.066	336.561	276.877	92.869	97.828	264.910	218.504	97.038	101.715	102.634	106.930	247.655	105.591	-8191	255	
11107.074	1	1	0	0	0.14093	0.24295	0.11742	0.20588	0.12133	0.10679	0.33543	0.16349	0.088293	0.14622	0.23425	0.26223	0.17717	0.093406	0.088929	0.20339	-2.2271	-2.6375	-3.1021	-2.5042	-2.8958	-2.8771	-2.7042	-3.2438	-2.6604	-2.75	-3.3646	-2.5479	-2.9708	-3.1271	-2.5333	-3.1271	312.627	165.598	438.253	117.220	198.492	379.307	396.370	112.337	275.815	428.656	232.068	139.289	387.828	150.767	204.636	417.432	0.00075771	0.00044471	0.00010388	1232.9	4.4338e-06	1.2209e-06	1250	344.89	3.5863e-06	2.7791e-06	400.32	134.61	115.41	39.794	8.6334e-06	49.926	0.00047501	0.00044418	0.00011587	1249	5.1216e-06	4.8017e-06	1258.7	349.44	5.0751e-06	4.7761e-06	402.13	136.17	116.79	40.523	4.6915e-06	50.968	263.850	208.226	130.874	92.875	219.725	260.538	92.712	97.526	234.250	140.061	96.885	101.975	102.459	107.042	250.005	105.391	-8191	255	
11107.170	1	1	0	0	0.3235	0.30504	0.12875	0.10077	0.064735	0.11386	0.41754	0.21141	0.24184	0.26761	0.12756	0.15073	0.28958	0.24245	0.40052	0.082923	-2.2396	-2.4792	-3.0667	-2.6771	-2.7792	-3.0396	-2.7	-2.9188	-2.8458	-2.7458	-3.3729	-2.5729	-2.7792	-3.1542	-2.3896	-2.9958	231.570	307.148	179.229	401.657	134.763	357.441	361.199	427.607	176.614	338.934	302.048	419.490	331.074	399.925	334.564	273.284	0.00067366	0.00044982	0.00020979	1236.5	6.4218e-06	2.7845e-06	1254.8	344.09	2.6325e-06	3.0215e-06	398.06	134.73	115.27	40.138	6.0364e-06	50.15	0.0004668	0.00043437	0.00012099	1250.8	5.0126e-06	4.7365e-06	1261.6	349.23	5.0798e-06	4.7323e-06	402.48	136.16	116.41	40.52	5.0272e-06	50.993	278.427	155.875	136.401	93.062	214.215	202.136	92.670	97.777	274.871	224.537	97.048	101.823	102.207	106.497	250.866	105.531	-8191	255	
11107.266	1	1	0	0	0.28349	0.084236	0.043045	0.11148	0.25355	0.2338	0.22531	0.12166	0.18664	0.045027	0.092343	0.10302	0.19108	0.14449	0.087302	0.23622	-2.625	-2.65	-3.2146	-2.8667	-2.7604	-3.0687	-2.75	-3.0833	-2.8104	-2.6146	-3.2854	-2.6771	-2.6208	-3.0771	-2.3729	-3.0708	182.282	364.327	321.038	269.813	136.834	98.747	376.981	369.350	429.611	188.819	103.788	96.322	327.954	379.794	375.916	420.381	0.000777	0.00030064	0.00017945	1231	3.8619e-06	3.5474e-06	1259.3	345.45	8.016e-06	8.4794e-06	396.16	134.3	115.25	39.927	6.4995e-06	50	0.00046052	0.00043001	0.00012956	1252	5.0164e-06	4.6146e-06	1264.9	349.57	4.9337e-06	4.6309e-06	403.41	136	116.42	40.638	5.2191e-06	50.926	265.630	140.148	159.983	92.868	168.403	228.893	92.689	97.898	246.280	193.140	97.180	101.902	102.592	106.584	279.709	105.453	-8191	255	
11107.340	1	1	0	0	0.12759	0.088484	0.073737	0.082738	0.2315	0.21118	0.040767	0.2001	0.21094	0.15039	0.12184	0.11333	0.098445	0.076503	0.27018	0.17874	-2.3625	-2.475	-3.0583	-2.8	-2.5292	-3.0375	-2.4958	-2.9396	-3.225	-2.6521	-3.15	-2.8458	-2.7313	-3.2646	-2.5625	-2.8417	159.666	372.031	164.672	93.544	305.128	250.966	137.262	355.539	341.717	155.083	182.630	221.825	80.441	424.610	197.657	376.444	0.00061153	0.0011336	0.00012363	1235.3	4.7918e-06	6.5837e-06	1247.4	344.33	3.3533e-06	4.0538e-06	399.34	133.73	115.38	40.123	4.6364e-06	50.705	0.00044465	0.00042841	0.00013196	1251	4.7997e-06	4.6737e-06	1263.9	349.42	4.7543e-06	4.7608e-06	404.12	135.66	116.36	40.631	5.2971e-06	50.943	266.648	159.915	154.247	93.010	262.235	221.850	92.881	98.001	271.130	140.801	97.006	101.898	102.278	106.472	207.225	105.192	-8191	255	
11107.459	1	1	0	0	0.26352	0.10478	0.12142	0.1217	0.053337	0.15681	0.058979	0.28637	0.25393	0.10903	0.1353	0.17178	0.15165	0.041283	0.092319	0.21129	-2.6042	-2.3667	-2.9375	-3	-2.4625	-3.2229	-2.7396	-2.8063	-3.0917	-2.5312	-3.1917	-3.1104	-2.6312	-3.25	-2.6354	-3.0208	357.139	175.278	152.660	365.886	278.982	155.551	407.268	317.924	240.542	403.159	350.544	309.122	90.647	157.027	101.446	400.890	0.00064465	0.00059803	8.0436e-05	1248.5	3.649e-06	1.3182e-06	1264.3	347.88	4.2349e-06	5.2652e-06	398.09	134.12	115.51	39.807	5.9077e-06	49.831	0.00043939	0.00045858	0.00013546	1254.9	4.7374e-06	5.0741e-06	1268.6	350.08	4.723e-06	5.1572e-06	403.89	135.8	116.4	40.684	5.239e-06	50.803	268.504	222.838	222.526	92.670	238.086	289.236	92.484	97.184	273.299	222.292	96.783	102.012	102.434	106.753	248.563	105.539	-8191	255	
11107.555	1	1	0	0	0.097839	0.14562	0.18306	0.2174	0.24613	0.31219	0.25857	0.18825	0.30866	0.22794	0.16351	0.3036	0.32699	0.22307	0.15595	0.035835	-2.725	-2.5563	-2.9292	-2.9938	-2.5104	-3.1854	-2.8021	-2.775	-3.1667	-2.6521	-2.8292	-3.0146	-2.5687	-3.1604	-2.7917	-2.65	230.966	174.089	329.951	386.272	363.357	247.464	303.127	81.499	384.588	296.664	182.170	404.327	335.299	396.885	403.523	141.777	0.00079754	0.00075293	0.00018115	1236.9	4.9257e-06	1.1149e-05	1260.8	347.06	6.3615e-06	3.6685e-06	398.71	134.45	115.42	39.893	6.8807e-06	49.789	0.00043566	0.0004749	0.00013229	1253	4.7112e-06	5.2526e-06	1268	349.67	4.6592e-06	5.2881e-06	403.06	135.59	116.29	40.762	5.0643e-06	50.647	268.828	146.453	141.182	93.063	241.798	252.257	92.674	97.675	257.965	225.036	97.133	102.042	102.430	106.750	236.604	105.539	-8191	255	
11107.651	1	1	0	0	0.34123	0.17094	0.20067	0.042083	0.10044	0.23717	0.17252	0.18493	0.19681	0.15041	0.26006	0.15017	0.099663	0.3056	0.059182	0.16781	-2.7333	-2.3583	-2.8458	-3.025	-2.5375	-3.2333	-2.85	-2.7313	-3.1396	-2.6042	-2.9083	-3.0875	-2.5854	-3.1333	-2.7396	-2.625	171.076	278.128	306.746	109.118	386.005	183.309	207.124	412.746	228.992	167.775	393.910	324.197	327.042	409.479	153.491	336.768	0.00070434	0.00069399	3.9059e-05	1239.9	8.5765e-06	5.9214e-06	1256.8	345.78	5.4531e-06	5.6471e-06	399.47	134.84	116.05	39.722	5.1002e-06	50.18	0.00043959	0.00048182	0.00012596	1252.9	4.8411e-06	5.2525e-06	1265.7	348.99	4.949e-06	5.2787e-06	403.3	135.5	116.85	40.704	4.9828e-06	50.611	274.519	150.102	118.195	92.811	249.171	267.376	92.843	97.592	269.270	195.938	96.831	101.923	102.310	106.639	288.899	105.331	-8191	255	
11107.772	1	1	0	0	0.13253	0.33555	0.16685	0.30913	0.13336	0.16969	0.38463	0.097635	0.25876	0.10435	0.24452	0.15427	0.12579	0.059238	0.14445	0.059661	-2.8937	-2.6	-2.7188	-3.175	-2.6229	-2.7812	-2.9854	-2.5958	-3.2521	-2.7667	-2.8563	-3.1729	-2.5521	-2.9542	-2.9396	-2.5333	359.116	317.876	99.798	413.267	225.025	221.445	408.101	354.200	206.292	173.909	312.718	203.316	308.742	370.174	224.855	250.744	0.00077583	0.0008569	9.4507e-05	1241.9	9.7801e-06	1.3285e-06	1258.2	345.26	6.5842e-06	5.9638e-06	398.42	135.06	115.11	39.734	6.7194e-06	49.556	0.00047123	0.00047952	0.00012502	1252	5.1621e-06	5.1805e-06	1266.1	348.62	5.1791e-06	5.1952e-06	403.1	135.59	116.78	40.683	4.779e-06	50.532	265.518	187.645	159.587	92.912	202.973	361.620	92.663	97.825	250.840	170.291	97.253	102.186	102.292	106.669	197.705	105.645	-8191	255	
11107.868	1	1	0	0	0.061796	0.18982	0.25022	0.35593	0.24692	0.13805	0.10607	0.18486	0.20915	0.23649	0.15903	0.088718	0.30664	0.23013	0.26115	0.18518	-2.7021	-2.8604	-2.5417	-3.2771	-2.3792	-2.8479	-3.1271	-2.6083	-3.1167	-2.8833	-2.7438	-3.1917	-2.6021	-2.8479	-2.8042	-2.6375	112.075	368.919	414.571	377.409	128.809	245.675	329.563	98.315	211.308	417.886	256.191	102.195	428.992	366.614	400.233	84.783	0.00064342	0.00029325	9.3295e-05	1233.5	6.495e-06	4.5006e-06	1253.3	344.73	1.0208e-05	3.8483e-06	397.1	134.14	115.24	39.827	5.8529e-06	50.008	0.00048082	0.00046041	0.00012011	1249.7	5.2254e-06	4.9714e-06	1263.1	348.65	5.1915e-06	4.9117e-06	401.54	135.54	116.77	40.563	4.512e-06	50.657	260.593	115.164	148.705	93.032	190.219	193.272	92.746	97.973	266.451	153.796	97.047	101.840	102.552	106.724	315.823	105.423	-8191	255	
11107.939	1	1	0	0	0.15393	0.048633	0.23708	0.23122	0.13223	0.19361	0.049606	0.20514	0.16071	0.4004	0.13318	0.022888	0.19974	0.073006	0.05337	0.37461	-2.6667	-2.6729	-2.7125	-3.3063	-2.6646	-2.6979	-3.2292	-2.5521	-2.9375	-2.8896	-2.6333	-3.3	-2.6083	-2.7562	-2.9917	-2.5458	339.631	148.387	181.071	380.132	202.241	371.330	154.393	403.720	359.740	303.198	97.070	192.600	365.965	85.679	418.007	391.670	0.00071846	0.0005641	9.0392e-05	1233.1	5.1798e-06	2.9825e-06	1254.7	344.4	7.4168e-06	3.5844e-06	396.89	134.39	115.66	39.789	5.0101e-06	49.841	0.00047141	0.00043766	0.00011487	1249.2	5.0259e-06	4.7585e-06	1261.6	348.93	5.0011e-06	4.7038e-06	400.75	135.66	116.68	40.472	4.3492e-06	50.751	267.043	169.023	207.661	92.839	160.849	394.933	92.841	97.734	266.844	218.702	96.998	101.802	102.259	106.274	310.580	105.276	-8191	255	
11108.060	1	1	0	0	0.14433	0.20451	0.20585	0.29317	0.22103	0.1815	0.15084	0.085679	0.18739	0.28866	0.12043	0.12988	0.18645	0.048964	0.20688	0.19205	-2.6271	-2.8479	-2.5375	-3.1688	-2.6375	-2.5542	-3.3354	-2.6917	-2.8812	-3.0375	-2.7042	-3.1708	-2.8771	-2.6521	-3.2021	-2.5146	187.507	244.965	161.965	381.483	259.131	217.683	222.964	416.754	162.632	160.631	123.411	426.134	267.009	402.836	220.444	146.166	0.00062262	0.00036962	0.00016615	1236	5.7233e-06	2.9442e-06	1251.9	344.27	6.0844e-06	5.0279e-06	396.4	135.06	116.04	39.832	9.2085e-06	49.932	0.00045464	0.00042344	0.00011259	1250.6	4.8653e-06	4.58e-06	1260.3	349.11	4.8553e-06	4.5778e-06	400.55	136.1	116.6	40.544	4.5567e-06	50.753	273.404	135.237	171.173	92.815	218.962	254.745	92.709	97.650	279.210	199.234	97.000	101.785	102.357	106.639	213.774	105.383	-8191	255	
11108.154	1	1	0	0	0.16682	0.16354	0.19766	0.16939	0.096034	0.11611	0.33576	0.21284	0.078994	0.17202	0.27186	0.14835	0.39203	0.14616	0.17895	0.046175	-2.4083	-3.0292	-2.5396	-3.1312	-2.7375	-2.7812	-3.2687	-2.6146	-2.6979	-3.1063	-2.6333	-3.0667	-2.8833	-2.6312	-3.0021	-2.7104	286.344	203.374	196.157	332.955	266.388	386.930	404.544	359.156	276.376	422.625	129.171	407.987	83.481	389.694	279.302	428.130	0.00075645	0.00023506	0.00011746	1233.8	5.0562e-06	2.4645e-06	1261.1	345.06	6.2882e-06	4.4204e-06	398.19	135.09	115.94	39.9	7.0664e-06	50.092	0.00044327	0.00040938	0.00011672	1251.6	4.7992e-06	4.4359e-06	1264	349.62	4.7572e-06	4.416e-06	402.4	136.25	116.6	40.507	4.7825e-06	50.946	261.626	159.632	129.261	92.860	228.509	282.947	92.693	97.477	314.203	178.496	97.225	101.804	102.286	106.650	259.263	105.642	-8191	255	
11108.251	1	1	0	0	0.21778	0.11492	0.18608	0.48596	0.030851	0.13678	0.10348	0.16601	0.32933	0.10662	0.29648	0.21166	0.091296	0.21442	0.23911	0.29357	-2.3896	-3.0875	-2.5646	-3.2167	-3.0375	-2.7188	-3.2292	-2.9104	-2.6167	-3.1688	-2.6188	-2.8958	-3.0646	-2.6	-3.1688	-2.8146	396.336	426.210	156.066	407.520	333.470	186.546	212.714	429.604	92.648	102.109	357.069	392.642	434.915	417.895	253.252	438.003	0.00072871	0.00059668	0.00021509	1240.9	6.1745e-06	2.2234e-06	1256.8	345.03	5.6154e-06	2.9663e-06	400.26	134.74	115.61	39.996	5.8539e-06	49.882	0.00043672	0.00039378	0.00012128	1254.9	4.5849e-06	4.335e-06	1265.5	349.91	4.5779e-06	4.3189e-06	403.19	136	116.59	40.569	4.8042e-06	50.822	273.206	129.501	144.828	92.899	206.837	282.109	92.779	97.843	288.259	163.282	96.832	101.631	102.532	106.644	286.561	105.487	-8191	255	
11108.371	1	1	0	0	0.19788	0.18775	0.071431	0.22719	0.11002	0.072733	0.15948	0.027884	0.16324	0.25479	0.28457	0.097233	0.13043	0.21711	0.079074	0.32784	-2.2604	-3.1083	-2.5187	-2.9604	-2.9688	-2.4104	-3.0708	-2.9333	-2.5875	-3.15	-2.6562	-2.85	-2.9688	-2.4792	-3.05	-2.9188	143.443	366.104	346.830	90.884	326.387	397.145	355.957	426.957	302.919	254.957	391.446	344.982	241.490	150.459	353.228	146.260	0.00064391	0.00055651	0.00015644	1234.8	4.1348e-06	8.9467e-06	1254.8	346.67	2.0974e-06	1.0984e-05	398.25	134.46	115.83	39.894	4.3194e-06	50.072	0.00041644	0.00040287	0.00012454	1252.5	4.408e-06	4.4245e-06	1265.9	349.23	4.4116e-06	4.4628e-06	402.93	135.81	116.5	40.653	4.8857e-06	50.67	262.441	147.530	171.772	92.889	210.152	239.557	92.798	97.670	359.443	191.076	96.905	101.780	102.431	106.577	273.535	105.689	-8191	255	
11108.467	1	1	0	0	0.22413	0.10484	0.16983	0.31252	0.014681	0.067455	0.23441	0.23694	0.11197	0.24043	0.19838	0.1737	0.21023	0.17454	0.21727	0.04724	-2.2875	-2.9479	-2.4979	-2.9771	-2.9896	-2.4062	-3.1792	-2.9375	-2.5854	-3.125	-2.5792	-2.7417	-3.3104	-2.6146	-2.9583	-2.9521	374.254	185.194	329.395	433.258	129.667	419.105	359.762	349.311	258.917	342.771	245.645	425.906	83.609	411.577	285.721	382.058	0.00067139	0.0012917	0.00024114	1237	6.6165e-06	9.7402e-06	1254.9	345.84	3.2369e-06	1.6312e-06	398.1	134.67	115.43	39.771	2.395e-06	49.992	0.0004047	0.00042432	0.00012387	1253.1	4.3321e-06	4.6941e-06	1264.8	349.33	4.3234e-06	4.7608e-06	402.71	135.71	116.18	40.639	4.8065e-06	50.646	267.099	148.057	190.213	92.941	218.942	219.027	92.770	97.852	221.031	203.895	97.204	101.960	102.417	106.741	130.972	105.577	-8191	255	
11108.564	1	1	0	0	0.12004	0.21652	0.092646	0.37129	0.14778	0.13984	0.016218	0.16851	0.25134	0.30942	0.22262	0.079789	0.13289	0.19149	0.15137	0.11138	-2.1042	-3.1458	-2.6521	-2.9	-3.1292	-2.5083	-3.0271	-3.2521	-2.6042	-3.1604	-2.7875	-2.6958	-3.0917	-2.5146	-2.8063	-3.1708	284.061	299.240	137.009	394.838	167.673	298.160	100.818	434.721	371.027	166.631	335.983	148.584	388.474	109.476	136.521	185.051	0.00075132	0.0010141	0.00018671	1237.9	4.887e-06	4.0791e-06	1254.7	343.88	5.6234e-06	4.3903e-06	396.34	134.97	115.19	39.786	8.0699e-06	49.832	0.00040563	0.00044097	0.00012082	1253.4	4.351e-06	4.897e-06	1265	348.65	4.4082e-06	4.9146e-06	402.03	135.74	116.42	40.733	4.6767e-06	50.54	271.995	147.281	133.226	92.707	224.226	106.055	92.985	98.105	273.669	213.532	97.094	101.822	102.549	106.938	278.918	105.888	-8191	255	
11108.635	1	1	0	0	0.076278	0.14828	0.21774	0.11315	0.15637	0.14631	0.27338	0.28012	0.17116	0.11193	0.2916	0.16651	0.13561	0.25415	0.067324	0.17739	-2.0958	-2.8875	-2.6875	-2.6458	-3.1854	-2.575	-2.9458	-3.1562	-2.5083	-2.9333	-2.9854	-2.6458	-3.2083	-2.8354	-2.6167	-3.1646	174.615	205.883	410.915	393.766	110.728	93.304	384.580	414.244	81.322	102.681	422.469	400.079	387.594	156.879	172.849	380.002	0.00071303	0.0008448	0.00011307	1236.4	9.3566e-06	6.3421e-06	1257.4	344.23	9.4243e-06	3.5285e-06	398.26	134.73	116.06	39.782	4.2616e-06	50.288	0.00042038	0.00045131	0.00011916	1251.3	4.5925e-06	4.9189e-06	1267	348.22	4.6972e-06	4.9452e-06	402.47	135.44	117.02	40.749	4.6232e-06	50.644	279.352	157.556	212.982	92.918	237.118	234.823	92.883	98.003	256.562	264.693	97.012	101.702	102.501	106.562	242.855	105.601	-8191	255	
11108.756	1	1	0	0	0.16589	0.082464	0.033328	0.42892	0.27901	0.24875	0.39845	0.085323	0.1902	0.16549	0.076403	0.22858	0.047614	0.1331	0.20267	0.06617	-1.9396	-3.0062	-2.8896	-2.8771	-3.3604	-2.7708	-2.7708	-3.2354	-2.5625	-3.0167	-3.0708	-2.4917	-3.075	-2.8583	-2.7438	-3.3083	181.772	94.077	242.945	428.847	431.927	266.747	369.724	362.900	104.312	178.425	380.831	397.400	314.312	173.214	321.355	124.185	0.00065555	0.00018683	0.00012484	1240.7	6.9414e-06	4.4696e-06	1262	346.52	5.1801e-06	1.8414e-06	398.87	134.26	115.66	39.963	6.1318e-06	50.095	0.00044592	0.00044935	0.00011829	1252.8	4.8626e-06	4.8968e-06	1267.1	348.94	4.9011e-06	4.8433e-06	402.1	135.57	117.17	40.762	4.5676e-06	50.667	271.550	202.878	120.964	92.751	210.977	149.365	92.658	98.071	277.814	161.681	97.346	101.876	102.580	106.713	210.912	105.515	-8191	255	
11108.852	1	1	0	0	0.23433	0.10602	0.057457	0.28149	0.17486	0.12917	0.31187	0.046335	0.11729	0.24349	0.14678	0.019456	0.19521	0.21618	0.34214	0.29018	-2.0875	-2.7917	-3.05	-2.6521	-3.0792	-2.6833	-2.8521	-3.1708	-2.3667	-2.7396	-3.0938	-2.6083	-3.275	-2.8333	-2.5729	-3.2208	182.406	233.006	409.575	436.348	174.464	167.350	415.604	362.351	238.145	96.620	394.690	152.002	156.051	166.822	402.159	204.232	0.0007394	0.00043067	7.58e-05	1238.6	5.4946e-06	2.6413e-06	1257.7	345.87	2.8421e-06	5.0785e-06	400.8	134.98	115.74	39.887	8.1651e-06	49.995	0.00046134	0.00043936	0.0001141	1253.8	5.0073e-06	4.7443e-06	1266.5	349.63	5.0514e-06	4.7152e-06	402.36	135.92	117.3	40.686	4.394e-06	50.778	267.996	123.065	215.619	92.814	199.754	263.584	92.756	97.760	403.693	151.135	97.107	101.985	102.469	106.707	265.488	105.695	-8191	255	
11108.948	1	1	0	0	0.0039358	0.25334	0.17006	0.21396	0.0058149	0.15329	0.21834	0.047184	0.17954	0.14882	0.045513	0.0646	0.11619	0.058598	0.22311	0.15247	-2.4188	-2.6917	-3.0646	-2.6375	-3.1354	-2.7375	-2.6875	-3.2146	-2.6792	-2.6708	-3.2521	-2.3708	-3.0021	-2.9458	-2.5417	-3.1958	285.997	355.721	395.925	429.486	151.512	198.598	349.222	112.481	121.839	150.546	335.918	276.199	362.906	271.191	237.226	201.758	0.00070837	0.00039316	9.4651e-05	1243.6	4.2166e-06	1.6766e-06	1260.4	347.56	5.8875e-06	3.38e-06	399.35	134.81	116.4	39.83	5.4484e-06	49.937	0.00046035	0.00042717	0.00010988	1256.1	4.9478e-06	4.6637e-06	1265.7	350.69	4.932e-06	4.6557e-06	402.16	136.42	117.38	40.617	4.4234e-06	50.973	267.297	203.917	422.954	92.963	212.588	306.825	92.630	97.700	265.616	228.671	97.071	101.826	102.496	106.950	365.317	105.475	-8191	255	
11109.043	1	1	0	0	0.19336	0.33062	0.022245	0.10597	0.071822	0.31799	0.38127	0.092971	0.10941	0.17751	0.059676	0.10905	0.27849	0.26012	0.22167	0.16297	-2.2625	-2.5042	-3.1667	-2.7833	-3.05	-2.9521	-2.6271	-3.2958	-2.7375	-2.6625	-3.3187	-2.5792	-2.8292	-3.1562	-2.4125	-3.1646	278.226	181.894	312.885	309.817	400.712	177.711	364.510	238.153	420.593	262.059	324.500	232.872	384.513	380.621	99.554	394.654	0.00072612	0.00040333	0.00024807	1246.8	6.2542e-06	5.165e-06	1262.8	348.28	5.619e-06	1.7324e-06	400.36	135.61	116.37	40.158	9.2332e-06	50.482	0.00045128	0.00042244	0.00011224	1259.6	4.839e-06	4.5452e-06	1268.7	351.5	4.8559e-06	4.5128e-06	403.81	136.73	117.45	40.728	4.6076e-06	51.186	274.510	298.909	211.826	92.933	256.393	242.774	92.754	97.658	332.989	277.812	97.044	101.653	102.388	106.749	238.973	105.445	-8191	255	
11109.163	1	1	0	0	0.21363	0.10111	0.1092	0.17045	0.13944	0.13061	0.43938	0.10603	0.13735	0.26971	0.073771	0.21716	0.10625	0.027435	0.29409	0.056864	-2.4917	-2.6	-3.1312	-2.6458	-2.8937	-3.1312	-2.7125	-3.1833	-2.8063	-2.4333	-3.1396	-2.8271	-2.8229	-3.1979	-2.4938	-3.1292	331.066	163.118	165.903	273.846	430.483	265.708	371.800	100.469	363.915	331.503	401.835	370.937	125.477	211.415	254.427	331.260	0.0006854	0.00029475	0.00015842	1243.7	5.1475e-06	3.7326e-06	1262.2	346.97	5.5377e-06	3.3103e-06	400.56	135.37	116.35	40.006	5.9337e-06	50.258	0.00043703	0.00040725	0.00011676	1259	4.6729e-06	4.3764e-06	1271	350.8	4.7086e-06	4.3735e-06	404.38	136.5	117.27	40.583	4.7213e-06	50.99	265.219	227.344	169.388	92.856	260.397	105.347	92.727	97.692	272.499	198.611	97.047	101.782	102.403	106.678	261.331	105.543	-8191	255	
11109.235	1	1	0	0	0.18904	0.136	0.24472	0.12574	0.037721	0.095541	0.23183	0.12567	0.11004	0.19724	0.14656	0.22682	0.040115	0.11855	0.20277	0.23807	-2.5896	-2.3708	-3.1083	-2.8896	-2.7125	-3.0687	-2.6708	-2.9938	-2.9896	-2.7687	-3.3771	-2.6354	-2.6937	-3.2062	-2.6896	-3.0354	83.470	191.102	253.884	390.868	108.174	80.226	413.775	228.568	378.062	263.594	314.432	434.457	87.053	214.413	101.368	347.338	0.00061225	0.00042849	6.9777e-05	1245.3	3.7406e-06	2.4817e-06	1260.2	347.92	2.8816e-06	1.1361e-06	399.75	135.71	116.08	40.085	4.6819e-06	50.107	0.000423	0.00039349	0.00012065	1258.1	4.5452e-06	4.2813e-06	1271	351.17	4.5024e-06	4.3257e-06	404.27	136.48	116.88	40.615	4.8605e-06	50.896	273.396	164.171	103.385	92.978	177.428	239.337	92.770	97.857	227.297	151.335	97.255	101.901	102.409	106.396	253.838	105.451	-8191	255	
11109.331	1	1	0	0	0.11663	0.12498	0.071613	0.25498	0.24965	0.0652	0.4866	0.11408	0.15179	0.2251	0.21368	0.19092	0.16541	0.058069	0.24243	0.18356	-2.7333	-2.6604	-3.0333	-2.9521	-2.5542	-3.2896	-2.8021	-3.0083	-3.0479	-2.4729	-3.225	-2.8979	-2.6875	-3.2875	-2.6833	-2.8792	120.512	363.815	191.620	426.112	128.605	200.028	401.454	417.168	315.479	163.491	353.581	204.747	424.229	141.987	276.518	373.843	0.00059591	0.00054196	0.00015222	1244.5	1.9682e-06	3.2425e-06	1259.8	345.57	2.5922e-06	4.8783e-06	400.68	135.17	116.19	40.114	3.4718e-06	50.462	0.00040965	0.00039729	0.0001232	1255.9	4.359e-06	4.3936e-06	1270.9	349.87	4.2855e-06	4.4867e-06	404.77	136.26	116.68	40.745	4.8009e-06	50.977	267.391	193.267	184.946	92.852	321.576	276.282	92.972	97.801	290.688	199.872	97.060	101.826	102.491	106.747	158.492	105.398	-8191	255	
11109.452	1	1	0	0	0.34149	0.29244	0.30298	0.11694	0.01573	0.19584	0.42056	0.35356	0.070806	0.15883	0.14947	0.18373	0.16042	0.30151	0.15299	0.12523	-2.8312	-2.3708	-3.0125	-3.0896	-2.5479	-2.9813	-2.6188	-2.7979	-3.0187	-2.35	-3.25	-2.9583	-2.5354	-3.1542	-2.6813	-2.9292	164.343	95.483	377.299	308.941	396.119	92.726	402.414	404.879	437.331	84.018	427.587	430.616	277.841	369.060	331.260	401.492	0.00067858	2.4752e-05	5.5395e-05	1241.3	5.7853e-06	2.0842e-06	1260.5	346.68	7.4145e-06	7.4142e-06	400.1	135.36	117.06	39.886	8.4081e-06	50.244	0.00039298	0.00042103	0.00012164	1256.6	4.2326e-06	4.6366e-06	1270	350.35	4.2256e-06	4.7225e-06	404.18	136.08	116.95	40.768	4.6887e-06	50.833	265.469	348.145	230.293	93.000	203.983	101.928	92.606	97.602	281.350	137.319	96.859	101.668	102.325	106.941	264.280	105.468	-8191	255	
11109.548	1	1	0	0	0.23336	0.20754	0.25817	0.11899	0.061273	0.043816	0.22813	0.30914	0.1427	0.080085	0.17962	0.23198	0.1131	0.2398	0.17485	0.19449	-2.7021	-2.5479	-2.8667	-3.0479	-2.3	-3.1437	-3.0708	-2.7167	-3.175	-2.5354	-2.9583	-3.0229	-2.6396	-3.2375	-2.9583	-2.4979	397.524	388.720	121.531	397.062	400.113	148.081	91.173	380.213	123.579	199.579	212.789	379.328	280.353	112.345	194.084	358.293	0.00075473	0.00014602	5.3775e-05	1237.5	7.4076e-06	3.7794e-06	1262.8	347.01	1.0086e-05	5.001e-06	400.64	135.56	116.5	40.043	7.1095e-06	50.197	0.00039745	0.00043852	0.00011759	1254.5	4.3274e-06	4.7579e-06	1269.6	349.92	4.2895e-06	4.8012e-06	403.73	136.06	116.97	40.841	4.5613e-06	50.722	266.382	141.940	437.648	93.236	228.561	250.456	92.874	97.879	275.507	167.351	97.200	101.872	102.344	106.619	273.037	105.596	-8191	255	
11109.644	1	1	0	0	0.27572	0.20927	0.058676	0.36528	0.0962	0.3865	0.10579	0.018994	0.045184	0.12937	0.19951	0.17423	0.29337	0.17915	0.18135	0.13543	-2.85	-2.675	-3.0229	-3.0333	-2.3521	-3.1437	-2.9229	-2.9583	-3.0875	-2.55	-2.9	-3.2438	-2.7438	-3.1854	-3.0833	-2.775	425.747	291.628	279.214	435.817	205.991	395.630	108.563	227.803	333.787	194.191	339.849	375.093	378.889	159.997	398.859	432.728	0.00082124	0.00031062	5.9246e-05	1245	5.4977e-06	7.2104e-06	1260.8	347.37	9.0857e-06	3.4613e-06	401.59	134.96	116.53	40.006	5.0988e-06	50.07	0.00041097	0.00044246	0.00011516	1254.9	4.5181e-06	4.7714e-06	1269.3	349.55	4.5681e-06	4.7643e-06	403.89	135.8	117.15	40.863	4.5188e-06	50.651	259.269	153.984	104.000	92.885	242.576	214.220	92.798	98.074	255.864	281.046	96.905	101.773	102.423	106.814	297.202	105.651	-8191	255	
11109.740	1	1	0	0	0.35875	0.16188	0.024153	0.072203	0.11415	0.087748	0.48541	0.11794	0.036274	0.042674	0.40708	0.089253	0.18191	0.18998	0.22532	0.22573	-2.7313	-2.6271	-2.6375	-3.2188	-2.3708	-3.1646	-3.0667	-2.6646	-3.1625	-2.7896	-2.8521	-3.3146	-2.6333	-3.0062	-3.0187	-2.6271	194.354	293.790	351.603	94.928	127.564	130.194	419.915	86.553	128.206	338.614	342.950	169.177	412.427	379.588	383.015	421.147	0.00068835	0.00050246	0.00011699	1242.4	9.4424e-06	6.9526e-06	1261.8	346.34	7.7931e-06	1.6167e-06	400.62	135.81	116.04	40.003	1.8157e-06	50.155	0.00043674	0.00043224	0.00011426	1255.6	4.7742e-06	4.7455e-06	1268.2	349.63	4.8077e-06	4.7414e-06	403.47	136.27	117.49	40.785	4.4102e-06	50.738	272.864	220.126	123.069	93.008	211.631	307.363	92.810	97.758	231.957	293.497	96.999	101.903	102.395	106.353	221.145	105.687	-8191	255	
11109.836	1	1	0	0	0.20899	0.11847	0.11032	0.12517	0.20041	0.2106	0.18687	0.1719	0.29481	0.10648	0.2189	0.041021	0.051664	0.4087	0.16518	0.22653	-2.6625	-2.6063	-2.5229	-3.2542	-2.5896	-2.6312	-3.1562	-2.5729	-3.0646	-2.7333	-2.8208	-3.2188	-2.4646	-2.7708	-3.0354	-2.4375	269.786	404.472	315.319	390.965	101.743	392.776	395.389	350.320	149.329	437.779	420.366	311.237	298.468	109.921	407.528	308.284	0.00065331	0.00051236	4.0299e-05	1245.8	2.8292e-06	2.9992e-06	1266.3	348.74	5.5096e-06	2.1135e-06	399.78	135.54	116.64	40.063	7.396e-06	50.523	0.00045085	0.00042659	0.00011082	1256.2	4.8705e-06	4.6646e-06	1269.5	350.93	4.8666e-06	4.6014e-06	403.08	136.48	117.52	40.746	4.2777e-06	51.014	276.909	170.281	85.790	92.957	170.482	300.600	92.670	97.724	259.129	322.478	97.011	101.682	102.484	106.598	211.731	105.462	-8191	255	
11109.932	1	1	0	0	0.12344	0.20996	0.12505	0.17791	0.16974	0.1129	0.24938	0.12089	0.10351	0.10027	0.20757	0.1173	0.27189	0.11653	0.073252	0.30249	-2.4875	-2.8979	-2.3542	-3.2375	-2.6375	-2.6396	-3.3396	-2.6729	-3.1125	-2.9792	-2.6167	-3.3021	-2.7104	-2.9292	-3.1958	-2.7583	316.592	412.576	407.248	84.854	96.564	436.850	334.456	283.561	311.338	392.219	276.452	422.637	349.830	405.051	320.153	310.383	0.00057262	0.00067733	0.0001493	1243.7	4.3872e-06	2.37e-06	1267.2	347.19	8.475e-06	3.4168e-06	401.52	135.01	116.73	40.064	8.4954e-06	50.192	0.00044981	0.00042304	0.00010873	1258.4	4.8562e-06	4.5689e-06	1269.7	351.4	4.8246e-06	4.5489e-06	403.87	136.66	117.37	40.764	4.2986e-06	50.989	270.433	174.086	186.627	92.934	230.392	265.284	92.811	97.703	281.863	162.299	96.824	101.713	102.292	106.579	242.241	105.538	-8191	255	
11110.053	1	1	0	0	0.38169	0.036557	0.13716	0.29296	0.11167	0.2195	0.3079	0.30603	0.24866	0.12423	0.22646	0.22228	0.055253	0.28551	0.31111	0.20402	-2.5812	-2.9292	-2.4542	-3.2646	-2.925	-2.6583	-3.1271	-2.6458	-3.0146	-3.2833	-2.85	-3.1396	-2.8667	-2.8	-3.3417	-2.5708	405.843	86.695	361.921	386.329	272.618	199.515	403.914	83.020	105.176	303.409	341.680	396.046	321.324	363.420	245.718	131.813	0.00074099	0.0005569	0.00022774	1242.2	3.096e-06	1.0358e-06	1263.6	346.84	8.952e-06	3.5328e-06	401.45	135.34	116.08	39.994	5.772e-06	50.516	0.00044127	0.000404	0.00011113	1258.6	4.7151e-06	4.3855e-06	1271.6	351.37	4.6719e-06	4.3679e-06	404.43	136.81	117.19	40.641	4.3971e-06	51.133	270.369	221.219	177.509	92.933	231.250	417.763	92.794	97.920	241.696	184.364	96.902	101.675	102.440	106.702	251.168	105.469	-8191	255	
11110.149	1	1	0	0	0.22876	0.091023	0.31438	0.13765	0.12489	0.26857	0.32942	0.13938	0.10587	0.22568	0.20098	0.12765	0.13607	0.036769	0.054142	0.18415	-2.4688	-3.0708	-2.5687	-3.2292	-2.8167	-2.6437	-3.4188	-2.9	-2.8229	-3.0938	-2.7396	-3.2	-2.825	-2.6604	-3.3	-2.9292	186.595	226.829	189.305	439.410	422.897	323.290	415.980	425.051	382.365	275.455	379.762	353.236	96.771	369.533	415.659	401.025	0.00068791	0.00042042	0.0002591	1243.4	6.3283e-06	1.3824e-06	1262.4	347.98	9.7509e-06	1.2401e-07	400.97	135.09	116.92	40.033	8.5269e-06	50.301	0.00042498	0.00039374	0.00011594	1261.5	4.5702e-06	4.2613e-06	1270.2	351.19	4.5066e-06	4.1921e-06	405.16	136.76	117.25	40.651	4.6505e-06	51.063	274.918	185.201	185.008	92.883	214.273	194.240	92.799	97.736	289.128	180.921	97.208	101.782	102.382	106.377	262.739	105.750	-8191	255	
11110.244	1	1	0	0	0.18368	0.32742	0.048532	0.28853	0.058022	0.12276	0.28965	0.16096	0.28523	0.095844	0.17886	0.34799	0.178	0.21394	0.19139	0.15223	-2.3854	-3.0563	-2.4313	-3.0792	-2.8729	-2.5542	-3.1875	-2.7354	-2.8063	-3.0229	-2.7396	-2.95	-3.0917	-2.6333	-3.1875	-2.6292	254.548	236.583	107.672	331.788	97.035	154.538	354.327	326.461	360.855	366.410	83.396	331.449	365.155	362.026	315.985	272.011	0.00058869	0.0005363	0.00025302	1243.4	3.328e-06	2.1828e-06	1267.5	349.22	2.0687e-06	3.7973e-06	402.01	135.76	116.33	40.119	7.8319e-06	50.33	0.00041193	0.00038355	0.0001211	1258.5	4.4212e-06	4.2251e-06	1271.8	351.29	4.4034e-06	4.2592e-06	405.37	136.63	117.03	40.701	4.7771e-06	50.934	261.337	186.317	118.605	92.802	209.240	219.362	92.764	97.392	276.515	202.425	96.694	101.860	102.309	106.393	260.587	105.322	-8191	255	
11110.340	1	1	0	0	0.058981	0.20476	0.10381	0.35082	0.12009	0.26864	0.37266	0.093691	0.12069	0.17132	0.16134	0.38795	0.14472	0.07705	0.10353	0.071775	-2.2729	-3.1437	-2.5625	-2.9729	-2.9146	-2.5208	-3.1958	-2.8937	-2.5333	-3.0875	-2.6896	-2.9354	-3.1292	-2.4458	-3.0396	-2.8292	415.652	304.254	233.176	410.391	358.043	438.974	387.587	172.085	292.225	270.318	407.283	398.950	352.121	280.870	293.042	120.966	0.00066695	0.00088454	0.0001858	1243.1	5.0912e-06	5.517e-06	1261.2	348.94	3.2717e-06	5.2527e-06	402.3	135.87	116.48	40.106	4.3839e-06	50.574	0.00040318	0.00039521	0.0001212	1258.3	4.2786e-06	4.3726e-06	1272.3	351.42	4.2179e-06	4.4588e-06	405.79	136.67	117.04	40.747	4.7137e-06	50.902	274.227	179.258	166.514	92.882	242.394	281.548	92.648	97.827	246.721	172.524	97.044	101.563	102.511	106.389	269.962	105.423	-8191	255	
11110.460	1	1	0	0	0.31705	0.19841	0.083714	0.10733	0.24488	0.20519	0.15011	0.19373	0.079619	0.18738	0.039997	0.071999	0.09172	0.090623	0.069582	0.20832	-2.1521	-2.9396	-2.4062	-2.8021	-3.0625	-2.6063	-3.2146	-3.0187	-2.675	-3.1917	-2.6937	-2.6646	-3.1542	-2.6396	-2.9354	-2.8792	183.152	384.336	365.042	227.112	398.253	106.092	132.466	164.707	374.575	389.954	429.425	287.503	402.722	270.295	199.788	409.141	0.00072797	0.00041129	0.00011045	1247.4	8.1954e-06	9.4244e-06	1267.6	348.94	7.5452e-06	3.3725e-06	403.45	135.86	116.76	40.268	6.5168e-06	50.416	0.00039236	0.00041928	0.00011985	1259.3	4.1856e-06	4.6599e-06	1272.6	350.95	4.2099e-06	4.6723e-06	406.12	136.33	117.09	40.921	4.6461e-06	50.87	274.574	118.852	246.147	92.695	253.094	245.894	92.571	97.703	263.274	171.306	96.806	101.593	102.358	106.363	234.011	105.534	-8191	255	
11110.532	1	1	0	0	0.07404	0.15365	0.30713	0.36137	0.18695	0.12229	0.28512	0.16872	0.11258	0.19038	0.10623	0.24916	0.20149	0.10381	0.2268	0.15649	-2.0146	-3.0292	-2.7333	-2.7271	-2.9729	-2.5604	-2.9729	-3.0604	-2.4938	-3.1292	-2.8167	-2.8208	-3.1188	-2.4562	-2.8458	-2.9125	92.345	307.415	120.890	398.180	162.801	89.053	253.370	395.173	261.723	313.744	219.111	430.520	126.740	342.242	223.364	85.299	0.00072296	0.000399	9.3288e-05	1246.5	4.7487e-06	5.3702e-06	1267.4	348.3	5.1919e-06	3.1263e-06	401.67	135.82	117.09	40.112	4.51e-06	50.629	0.00039655	0.00043677	0.00011702	1258.9	4.2899e-06	4.7975e-06	1275.7	351.09	4.3639e-06	4.8274e-06	404.84	136.49	117.67	40.936	4.535e-06	50.878	263.134	131.422	176.145	92.866	240.710	227.615	92.844	97.780	256.157	166.309	97.305	101.915	102.261	106.625	270.125	105.569	-8191	255	
11110.628	1	1	0	0	0.11416	0.21872	0.094312	0.1659	0.14156	0.23278	0.21383	0.13532	0.035601	0.088906	0.16126	0.36724	0.25457	0.331	0.20749	0.14097	-2.0729	-3.1208	-2.9104	-2.7167	-3.0792	-2.55	-2.9896	-3.2062	-2.325	-2.7104	-3.1229	-2.6125	-3.2104	-2.6896	-2.7812	-3.1604	309.848	373.380	235.134	435.391	231.906	133.140	410.986	332.894	113.119	190.822	387.255	429.199	384.214	361.522	190.479	103.142	0.00074836	0.0004711	0.00013765	1247.8	5.0615e-06	4.6477e-06	1266.3	349.24	9.4064e-06	2.7053e-06	403.37	135.81	116.99	40.345	6.0579e-06	50.548	0.00041544	0.00043867	0.00011484	1259.1	4.5606e-06	4.7752e-06	1272.3	350.85	4.652e-06	4.7476e-06	405.49	136.38	117.74	40.955	4.4341e-06	50.864	263.840	128.607	140.329	92.853	234.579	201.391	92.720	97.865	259.369	186.288	96.965	101.982	102.326	106.585	259.440	105.529	-8191	255	
11110.724	1	1	0	0	0.15138	0.13689	0.06361	0.28317	0.15532	0.24001	0.16125	0.29197	0.16653	0.088174	0.1197	0.29522	0.22077	0.21388	0.18359	0.065752	-2.0042	-2.8271	-2.8875	-2.6958	-2.9625	-2.3896	-2.7479	-3.0687	-2.3063	-2.7604	-3.0292	-2.6917	-3.0146	-2.8187	-2.5187	-3.0417	128.353	282.288	129.682	365.215	192.189	160.790	413.204	342.113	344.202	82.745	123.702	401.185	426.065	415.515	372.728	416.602	0.00082249	0.00028952	9.1974e-05	1247.1	5.6567e-06	5.0829e-06	1270	347.13	7.3766e-06	3.6277e-06	400.96	136.28	116.65	40.206	6.0054e-06	50.268	0.00044185	0.00042695	0.00011315	1260.1	4.7493e-06	4.6672e-06	1273.8	350.75	4.8041e-06	4.6734e-06	404.87	136.62	117.91	40.912	4.296e-06	50.878	271.951	188.609	191.962	92.690	214.462	202.748	92.646	97.891	251.923	211.701	97.033	101.861	102.458	106.734	245.258	105.888	-8191	255	
11110.845	1	1	0	0	0.061323	0.17777	0.20173	0.36509	0.33269	0.10754	0.15687	0.25298	0.10625	0.10091	0.22464	0.11932	0.28567	0.16213	0.15762	0.15122	-1.8896	-2.8312	-2.975	-2.4062	-2.95	-2.7229	-2.6667	-3.2375	-2.5104	-2.6875	-2.9583	-2.4313	-3.1042	-2.9938	-2.4958	-3.2021	395.168	246.220	121.315	327.159	374.941	359.760	423.411	399.991	244.819	107.464	92.607	352.611	365.784	123.509	382.501	378.903	0.00074064	0.00015999	7.5006e-05	1247.9	4.5494e-06	3.3835e-06	1264.8	348.52	5.8768e-06	1.9202e-06	404.11	135.69	117.49	40.084	2.9436e-06	50.367	0.00045283	0.00042111	0.00010961	1261.3	4.7782e-06	4.5206e-06	1272.1	351.93	4.7936e-06	4.5322e-06	404.58	136.81	118.07	40.796	4.2008e-06	51.086	265.698	132.467	385.997	92.955	271.666	139.280	92.774	97.710	372.922	167.668	96.826	101.782	102.587	106.740	238.702	105.545	-8191	255	
11110.939	1	1	0	0	0.11299	0.35634	0.18395	0.21004	0.046487	0.16185	0.33016	0.16085	0.07831	0.1194	0.17138	0.24801	0.13179	0.048458	0.05238	0.21818	-2.2042	-2.4625	-2.9458	-2.4813	-2.8187	-2.8771	-2.4792	-3.1125	-2.7208	-2.7458	-3.0896	-2.5479	-2.9521	-2.8646	-2.3542	-3.0604	84.168	244.891	196.699	398.655	145.473	103.704	387.186	384.387	374.385	172.317	342.180	102.999	87.244	410.747	383.672	413.938	0.00068186	0.00074657	7.7922e-05	1248.8	8.736e-06	3.1884e-06	1267	349	4.3539e-06	3.1849e-06	404.31	136.08	116.91	40.068	2.057e-06	50.794	0.00043965	0.00041147	0.00010666	1262.6	4.7275e-06	4.4331e-06	1272.4	352.6	4.6699e-06	4.4376e-06	405.37	137.13	117.76	40.794	4.2595e-06	51.103	271.522	177.069	149.323	92.797	230.393	220.802	92.533	97.771	297.463	279.742	96.879	101.399	102.313	106.664	196.917	105.532	-8191	255	
11111.035	1	1	0	0	0.089093	0.065538	0.1305	0.37632	0.43048	0.069716	0.10298	0.11214	0.14439	0.010679	0.15208	0.11347	0.19147	0.24773	0.21467	0.41915	-2.2812	-2.525	-2.9646	-2.6542	-2.7229	-2.9521	-2.6083	-3	-2.7667	-2.6667	-3.175	-2.6188	-2.7167	-2.9375	-2.4479	-3.0917	186.011	320.965	124.373	370.857	236.880	262.361	359.157	399.600	389.520	205.960	379.429	383.091	353.656	154.582	402.148	323.462	0.0006837	0.00043445	0.00014072	1249.1	3.9273e-06	4.3679e-06	1269.1	349.06	3.1866e-06	4.8963e-06	404.77	136.33	117.53	40.373	7.9846e-06	51.092	0.00042828	0.00039718	0.00010846	1263.5	4.5771e-06	4.2855e-06	1274.1	352.57	4.5215e-06	4.2567e-06	405.04	137.23	117.76	40.803	4.4131e-06	51.298	262.222	143.549	145.119	92.881	272.254	304.330	92.671	97.914	245.366	205.576	96.953	101.629	102.252	106.482	292.179	105.298	-8191	255	
11111.133	1	1	0	0	0.22502	0.19064	0.12955	0.32904	0.17293	0.11583	0.32933	0.082132	0.27554	0.20442	0.12138	0.27666	0.20269	0.25488	0.11862	0.10874	-2.4021	-2.4479	-3.0167	-2.5729	-2.6188	-3.025	-2.6437	-3.1188	-2.7354	-2.5354	-3.1104	-2.6063	-2.7562	-2.9917	-2.3792	-2.9625	299.126	392.672	265.957	378.978	84.217	112.949	320.658	432.097	211.869	271.488	332.280	408.322	420.715	434.493	345.176	291.630	0.00064427	0.00065216	0.00017718	1262.6	7.4921e-06	2.698e-06	1280.3	351.88	4.0081e-06	9.4594e-07	405.07	137.26	118.27	40.624	7.5245e-06	50.804	0.00041397	0.00038343	0.000113	1265	4.4552e-06	4.1224e-06	1275.2	352.71	4.3855e-06	4.1135e-06	406.08	137.19	117.84	40.761	4.6093e-06	51.122	268.558	164.043	149.905	92.301	276.501	161.557	92.501	97.351	237.779	329.605	96.561	101.396	102.018	106.208	270.421	105.454	-8191	255	
11111.228	1	1	0	0	0.079488	0.10104	0.1135	0.36567	0.17686	0.22369	0.080036	0.1952	0.15135	0.039682	0.11544	0.2013	0.03596	0.371	0.00016149	0.10735	-2.4854	-2.375	-3.1104	-2.5792	-2.6688	-3.0458	-2.6604	-3.0833	-2.8667	-2.4708	-3.1771	-2.6979	-2.5667	-3.0833	-2.3708	-3.0938	202.074	294.313	180.339	416.698	232.328	335.014	205.685	351.969	173.352	142.364	350.307	389.903	86.954	83.180	180.000	353.041	0.00070811	0.00051877	0.0001837	1247.5	2.3194e-06	5.4846e-06	1265.7	347.85	5.8829e-06	2.3361e-06	401.39	136.06	116.74	40.356	5.6102e-06	50.301	0.00040572	0.00038571	0.0001174	1261.9	4.303e-06	4.1823e-06	1275	352.04	4.279e-06	4.1765e-06	406.18	136.78	117.45	40.803	4.6697e-06	51.055	267.945	159.534	164.169	92.952	230.117	271.382	92.835	97.887	260.338	252.338	97.071	102.116	102.219	106.738	249.942	105.739	-8191	255	
11111.324	1	1	0	0	0.059379	0.18122	0.058142	0.14775	0.11462	0.12245	0.15062	0.29601	0.08187	0.15081	0.15083	0.20382	0.17577	0.10194	0.16689	0.31531	-2.5271	-2.3625	-2.9792	-3.1146	-2.4542	-3.0958	-2.6458	-2.7917	-2.9	-2.1542	-3.025	-2.7208	-2.5417	-3.1625	-2.5687	-2.75	104.802	348.830	438.213	372.257	337.908	153.062	91.427	350.250	229.246	346.176	367.143	337.561	405.918	167.951	342.028	305.965	0.00066029	0.00043799	5.8042e-05	1247.8	6.7332e-06	3.8885e-06	1269	349.56	6.2994e-06	3.8922e-06	404.46	136.18	116.82	40.014	7.8881e-06	50.738	0.00039182	0.00039547	0.00011926	1263.2	4.1739e-06	4.3337e-06	1275.7	352.7	4.1194e-06	4.4183e-06	406.58	136.96	117.22	40.937	4.6097e-06	51.054	268.281	197.150	227.138	92.927	238.138	236.417	92.865	97.791	255.491	132.094	96.668	101.891	102.561	106.489	238.527	105.397	-8191	255	
11111.420	1	1	0	0	0.16463	0.19562	0.28111	0.23393	0.17614	0.19648	0.54792	0.32423	0.021394	0.086649	0.18599	0.23027	0.087802	0.12989	0.17294	0.30774	-2.6125	-2.3125	-2.9604	-3.0292	-2.4437	-3.1063	-2.7729	-2.6917	-3.1271	-2.2896	-3.0458	-3.1271	-2.6229	-3.025	-2.575	-2.6167	338.049	141.987	347.700	400.765	333.956	149.317	367.445	323.518	369.538	194.147	134.826	372.399	229.654	432.143	295.796	307.780	0.00065152	0.00076525	6.9554e-05	1248.5	6.757e-06	9.5428e-06	1263.8	348.36	5.1129e-06	4.1765e-06	403.57	136.51	117.33	40.343	2.9459e-06	50.391	0.00038062	0.0004153	0.0001166	1262.3	4.126e-06	4.5563e-06	1275.3	351.81	4.1184e-06	4.5972e-06	406.65	136.78	117.43	41.038	4.5175e-06	50.988	270.269	161.962	147.000	93.105	242.055	231.865	92.878	97.787	283.330	248.965	96.724	101.807	102.394	106.695	227.285	105.295	-8191	255	
11111.541	1	1	0	0	0.097872	0.069723	0.1182	0.30908	0.14375	0.15082	0.30027	0.062819	0.18521	0.17832	0.34943	0.24957	0.19985	0.35628	0.21936	0.12379	-2.675	-2.4521	-2.7896	-3.0062	-2.3458	-3.0312	-2.6167	-2.6208	-3.0292	-2.5438	-2.8604	-2.9417	-2.4125	-2.9313	-2.7687	-2.4562	137.802	396.083	224.099	87.357	328.245	190.029	338.473	405.788	185.091	294.215	360.455	225.010	410.327	427.291	411.546	313.507	0.00072174	0.00083414	8.3719e-05	1248.5	5.8793e-06	7.0415e-06	1267.2	348.15	5.9863e-06	4.9351e-06	404.66	136.37	117.31	40.191	3.7648e-06	50.308	0.00038857	0.00042879	0.00011403	1262.2	4.2916e-06	4.6955e-06	1276.2	351.54	4.3422e-06	4.6882e-06	406.2	136.76	117.72	41.001	4.4526e-06	50.957	284.013	164.568	206.894	93.060	261.294	284.608	92.901	97.576	222.529	161.766	97.181	102.019	102.328	106.751	244.632	105.478	-8191	255	
11111.637	1	1	0	0	0.20706	0.29124	0.081449	0.3553	0.18057	0.30462	0.27087	0.11462	0.13893	0.10997	0.22347	0.075649	0.13738	0.13481	0.24587	0.046027	-2.7104	-2.3521	-2.7125	-3.2292	-2.3854	-3.1146	-2.9146	-2.4708	-3.2125	-2.6646	-2.8375	-3.2208	-2.5458	-2.9875	-2.7771	-2.6104	164.688	228.767	304.668	80.511	435.619	94.959	421.703	231.513	360.150	223.037	406.670	114.013	424.239	137.893	344.875	334.661	0.00075576	0.00060738	0.00017948	1250.3	6.3801e-06	1.2588e-06	1271.8	349.13	6.0641e-06	6.3107e-06	404.37	136.37	117.14	40.298	5.1397e-06	50.368	0.00041368	0.00042736	0.00011213	1262	4.5235e-06	4.6166e-06	1277.1	352.12	4.5268e-06	4.5358e-06	405.8	136.7	118.06	41.018	4.226e-06	50.84	267.070	148.700	157.033	92.981	235.652	266.261	92.814	97.720	301.118	206.056	97.027	101.913	102.329	106.442	260.954	105.611	-8191	255	
11111.733	1	1	0	0	0.084149	0.02738	0.051271	0.28286	0.17151	0.32606	0.21075	0.14884	0.039261	0.15519	0.14054	0.16706	0.1859	0.04379	0.069341	0.2231	-2.6958	-2.6458	-2.6167	-3.0687	-2.5521	-3.0208	-3.1229	-2.5333	-3.0917	-2.7438	-2.7	-3.0708	-2.6396	-2.8542	-2.9854	-2.5396	120.969	138.379	309.086	400.275	313.507	437.490	428.103	141.313	312.993	361.153	354.903	424.978	422.650	301.892	216.010	282.279	0.00067335	7.1864e-05	0.00012201	1251.8	7.2106e-06	3.3025e-06	1267.3	350.22	6.2944e-06	9.4885e-07	403.7	136.51	117.29	40.208	5.3443e-06	50.559	0.00042675	0.00041408	0.00010861	1262.6	4.6654e-06	4.4585e-06	1275.7	352.16	4.608e-06	4.488e-06	405.75	136.75	118.12	40.992	4.1808e-06	51	265.301	411.181	231.956	92.839	255.539	197.912	92.742	97.811	271.719	376.950	96.961	101.826	102.420	106.646	222.733	105.463	-8191	255	
11111.829	1	1	0	0	0.19277	0.17401	0.022902	0.13453	0.1461	0.23725	0.43963	0.16457	0.39946	0.27875	0.08118	0.077074	0.25706	0.091255	0.16589	0.15782	-2.6771	-2.5854	-2.6583	-3.3208	-2.4542	-2.6521	-3.0458	-2.6417	-2.9042	-2.8083	-2.6562	-3.2708	-2.6667	-2.8563	-2.9313	-2.3458	96.928	311.380	190.273	347.022	195.105	195.578	386.124	347.986	386.888	415.742	136.126	405.109	89.721	99.170	235.023	249.203	0.00057931	0.00044469	0.00010445	1248.3	5.1294e-06	5.5573e-06	1269.3	348.52	8.1301e-06	6.336e-06	402.45	136.11	117.14	40.319	7.2071e-06	50.548	0.00043205	0.00040241	0.00010446	1262.2	4.6464e-06	4.3551e-06	1274.9	352.62	4.6561e-06	4.4083e-06	404.75	137.17	118.12	40.939	4.0395e-06	51.056	270.812	153.082	231.037	92.991	258.257	258.433	92.919	97.685	281.310	186.856	97.047	102.087	102.517	106.556	316.038	105.500	-8191	255	
11111.925	1	1	0	0	0.11911	0.30204	0.14932	0.12384	0.25138	0.2441	0.39386	0.21954	0.12134	0.20147	0.22617	0.11995	0.15853	0.13797	0.056149	0.13719	-2.5771	-2.9208	-2.3688	-3.2958	-2.7021	-2.8	-3.1896	-2.7562	-3.0375	-3.0042	-2.4875	-3.0062	-2.6208	-2.6688	-3.0667	-2.6042	197.675	120.081	336.487	415.504	434.565	151.464	420.320	361.916	140.720	214.081	339.813	237.242	138.169	384.449	151.349	358.509	0.00067083	0.00042968	9.5999e-05	1254.6	2.0872e-06	6.0465e-06	1269.6	348.65	2.8724e-06	1.3554e-06	403.31	136.22	117.29	40.429	3.9873e-06	50.727	0.00042487	0.00039381	0.00010339	1267	4.5409e-06	4.259e-06	1274.7	352.58	4.5135e-06	4.2329e-06	404.5	137.33	117.97	40.866	4.1027e-06	51.219	273.381	159.650	206.267	92.740	164.398	273.418	92.873	97.494	299.391	377.375	97.097	101.842	102.439	106.563	257.278	105.478	-8191	255	
11112.021	1	1	0	0	0.11268	0.16056	0.076903	0.20309	0.17812	0.191	0.13698	0.30671	0.10386	0.030581	0.27354	0.3229	0.22896	0.21436	0.05384	0.06244	-2.4396	-2.7562	-2.3479	-3.1354	-2.6021	-2.35	-3.3083	-2.6542	-2.6917	-2.9604	-2.4542	-2.9688	-2.7708	-2.6021	-3.1271	-2.7208	206.227	278.288	396.098	401.825	150.727	311.046	105.271	387.941	178.837	330.832	382.472	339.260	96.054	418.780	323.282	230.099	0.00073971	0.00070668	8.0167e-05	1250	1.9373e-06	4.3879e-06	1268.4	350.56	4.803e-06	2.334e-07	405.35	136.29	116.87	40.443	8.6978e-06	50.474	0.00040681	0.00037477	0.0001057	1265.5	4.3253e-06	4.0779e-06	1276	353.71	4.3754e-06	4.061e-06	406.17	137.32	117.78	40.932	4.2848e-06	51.161	269.863	123.703	142.696	92.739	301.477	252.025	92.844	97.691	276.841	121.044	96.904	101.841	102.446	106.441	250.116	105.447	-8191	255	
11112.140	1	1	0	0	0.1696	0.18203	0.32966	0.16499	0.17117	0.22558	0.19075	0.10671	0.32716	0.25072	0.19274	0.21474	0.18968	0.24368	0.14481	0.36177	-2.4521	-2.9917	-2.5208	-3.0625	-2.6875	-2.4104	-3.4292	-2.6854	-2.4667	-2.9146	-2.3063	-2.9979	-2.7729	-2.4729	-3.0271	-2.6292	249.797	412.619	260.163	89.414	168.124	155.025	327.611	195.327	406.271	113.228	340.140	378.299	317.833	105.349	365.226	92.922	0.00069863	0.0003077	0.00011257	1253.9	5.0591e-06	3.73e-06	1270	351.66	3.7825e-06	2.5453e-06	404.18	136.6	117.27	40.44	9.115e-06	50.476	0.0004041	0.00036481	0.00011059	1266.7	4.2912e-06	4.0034e-06	1276.2	353.61	4.2921e-06	3.9727e-06	407.13	137.24	117.75	40.906	4.448e-06	51.088	264.391	147.821	206.573	92.700	259.488	264.695	92.792	97.769	304.407	153.969	96.995	102.021	102.539	106.515	241.579	105.653	-8191	255	
11112.236	1	1	0	0	0.011013	0.049849	0.056475	0.19957	0.37013	0.16005	0.13177	0.15834	0.19357	0.20864	0.23442	0.17374	0.1571	0.3019	0.034493	0.15776	-2.0938	-3.0271	-2.3208	-3.1542	-2.8958	-2.5021	-3.2667	-2.6708	-2.4417	-3.0021	-2.3917	-2.65	-2.9167	-2.525	-2.9708	-2.7917	386.141	234.434	160.929	435.891	120.421	340.123	365.608	126.916	377.875	362.513	366.795	384.375	151.963	167.821	269.665	389.407	0.00071328	0.00062131	8.1472e-05	1254.3	4.0965e-06	8.6218e-06	1272.1	350.97	3.7532e-06	5.5901e-06	404.58	136.25	117.99	40.546	4.4398e-06	50.632	0.000393	0.00036827	0.00011407	1265.8	4.1085e-06	4.0491e-06	1279.3	352.73	4.0636e-06	4.0856e-06	407.08	137.02	117.8	40.994	4.4721e-06	51.005	264.848	176.260	173.404	92.754	207.315	225.179	92.797	97.725	260.746	155.146	96.922	101.538	102.478	106.415	214.203	105.304	-8191	255	
11112.333	1	1	0	0	0.10168	0.23477	0.065552	0.096741	0.080516	0.2381	0.13516	0.10685	0.30936	0.1803	0.37951	0.13499	0.079366	0.25324	0.16413	0.13414	-2.1583	-3.0479	-2.3792	-2.7542	-2.9646	-2.4062	-3.1479	-2.7292	-2.4875	-3.15	-2.5625	-2.7438	-3.0438	-2.4833	-2.7687	-2.7125	256.475	387.122	329.903	127.597	131.437	87.554	98.586	138.494	150.974	242.894	372.536	369.489	223.160	392.568	120.390	89.090	0.00068786	0.00054763	8.2568e-05	1255.4	2.9495e-06	7.058e-06	1274.3	349.39	7.238e-06	4.9675e-06	403.83	136.21	117.22	40.23	2.6362e-06	50.547	0.00037593	0.00038186	0.00011438	1264.9	3.957e-06	4.1998e-06	1277.8	352.2	3.943e-06	4.2687e-06	406.92	136.81	117.48	40.907	4.4751e-06	51.029	277.092	148.581	161.609	92.879	243.133	231.022	92.774	97.614	292.898	183.626	97.158	101.688	102.601	106.581	321.511	105.585	-8191	255	
11112.404	1	1	0	0	0.13272	0.17906	0.10782	0.29824	0.16483	0.10173	0.19035	0.06119	0.2067	0.15346	0.17478	0.054018	0.12487	0.083981	0.069334	0.2175	-2.0479	-3.0833	-2.35	-2.8542	-3.0667	-2.5062	-3.0667	-2.95	-2.4688	-2.9833	-2.8625	-2.5375	-3.1396	-2.5125	-2.8083	-2.9313	255.222	340.223	130.353	335.576	296.408	118.142	352.408	172.774	169.103	312.528	170.036	384.402	105.575	126.939	134.817	351.146	0.00072395	0.00042315	0.00020274	1252.2	7.0018e-06	7.793e-06	1268.7	349.67	4.5136e-06	3.0108e-06	402.72	136.6	117.02	40.293	8.7999e-06	50.815	0.00037424	0.00040138	0.00011387	1264.3	4.0115e-06	4.522e-06	1278.3	352.52	4.0663e-06	4.5552e-06	405.67	136.72	117.4	41.016	4.4488e-06	50.917	268.415	182.790	193.166	92.874	229.600	257.832	92.880	97.658	277.563	193.640	96.818	101.782	102.540	106.676	250.486	105.117	-8191	255	
11112.525	1	1	0	0	0.15789	0.26222	0.15926	0.15285	0.22653	0.12902	0.056913	0.04916	0.11647	0.065319	0.076761	0.25249	0.22494	0.22539	0.21874	0.13148	-2.0271	-2.9875	-2.5229	-2.6521	-2.9188	-2.5458	-2.7458	-3.1146	-2.3458	-3.0938	-2.7542	-2.6021	-3.2875	-2.6625	-2.7313	-3.1646	227.968	328.313	420.539	415.841	187.290	83.252	404.741	338.425	267.500	437.025	383.446	369.007	80.313	339.507	262.638	340.114	0.00069775	1.0392e-05	9.7632e-05	1258.9	3.0572e-06	4.817e-06	1276.5	350.25	1.1827e-05	4.8868e-06	408.06	137.22	117.94	40.604	3.4243e-06	51.094	0.00038931	0.00042288	0.00011306	1267.2	4.2825e-06	4.6998e-06	1280.5	352.52	4.3886e-06	4.6695e-06	407.07	136.84	117.95	41.078	4.4423e-06	51.009	265.005	117.737	226.013	92.484	222.396	359.362	92.507	97.403	272.548	365.922	96.849	101.857	102.240	106.505	294.392	105.582	-8191	255	
11112.621	1	1	0	0	0.030998	0.26009	0.14452	0.28728	0.03283	0.064103	0.28416	0.31057	0.079133	0.15177	0.24427	0.10541	0.20622	0.21921	0.23464	0.19836	-2.0312	-2.9083	-2.9458	-2.5792	-3.0458	-2.525	-2.9688	-3.1333	-2.3646	-2.8396	-2.9938	-2.6104	-3.1229	-2.4958	-2.7667	-3.075	121.132	355.759	407.387	393.495	238.693	338.020	414.692	405.448	413.638	81.575	404.135	100.564	198.077	173.135	243.314	111.799	0.00075485	0.00040367	0.0001632	1261.7	1.2435e-06	3.7648e-06	1282	351.39	6.7422e-06	2.4034e-06	404.41	137.1	117.2	40.325	4.5412e-06	50.728	0.00041913	0.00042732	0.00011298	1268.5	4.5463e-06	4.6621e-06	1282.2	353.01	4.6579e-06	4.6482e-06	406.49	136.97	118.07	41.018	4.3218e-06	50.901	262.133	156.654	182.661	92.625	279.129	195.730	92.568	97.616	277.541	191.734	96.931	101.642	102.176	106.318	268.349	105.683	-8191	255	
11112.717	1	1	0	0	0.16786	0.11785	0.20761	0.32975	0.033249	0.060486	0.24431	0.12269	0.12124	0.22759	0.11498	0.025429	0.11198	0.1861	0.15317	0.041655	-2.0667	-2.825	-2.8354	-2.5938	-3.0979	-2.6021	-2.7021	-3.1229	-2.5854	-2.6667	-3.1104	-2.5896	-2.8937	-2.7521	-2.45	-3.0708	433.962	108.792	320.146	389.396	439.207	393.995	323.681	412.990	374.385	141.877	237.451	404.280	310.972	324.601	262.017	125.094	0.00074928	0.00045	0.00020283	1257.7	2.8959e-06	6.8063e-06	1279.8	352.83	5.6686e-06	4.5333e-06	405.6	136.61	117.6	40.354	3.0339e-06	50.833	0.00043499	0.00041761	0.00010812	1267	4.7011e-06	4.5034e-06	1280.7	353.41	4.6704e-06	4.4627e-06	405.91	136.99	118.23	40.933	4.1175e-06	51.066	267.250	132.572	194.925	92.780	185.751	203.205	92.501	97.591	278.456	240.427	97.158	101.787	102.449	106.445	273.580	105.587	-8191	255	
11112.813	1	1	0	0	0.077626	0.22788	0.15483	0.20836	0.14251	0.21749	0.23632	0.34825	0.026065	0.20687	0.14241	0.3532	0.040749	0.077807	0.17278	0.083407	-2.0208	-2.5438	-2.8792	-2.5667	-2.9437	-2.7812	-2.5146	-3.0396	-2.4896	-2.7125	-3.1417	-2.2896	-3.0167	-2.9104	-2.4479	-3.1417	335.611	238.934	87.981	384.603	83.848	133.976	412.566	344.384	254.556	154.691	329.942	416.415	403.745	379.109	428.272	368.756	0.00074751	0.00043223	0.00014435	1259.5	4.2966e-06	6.1721e-06	1279	352.6	8.4477e-06	2.9274e-06	406.53	136.83	117.52	40.464	4.8204e-06	50.905	0.00042962	0.00039606	0.00010297	1268	4.5826e-06	4.2768e-06	1279.5	353.7	4.535e-06	4.2453e-06	405.87	137.27	118.06	40.934	3.9368e-06	51.187	271.625	117.900	149.627	92.672	267.360	211.362	92.483	97.630	244.186	147.646	96.994	101.829	102.561	106.744	266.406	105.335	-8191	255	
11112.934	1	1	0	0	0.2143	0.060716	0.093703	0.35817	0.094569	0.28953	0.40025	0.09365	0.31891	0.30483	0.33518	0.075429	0.14389	0.27512	0.050731	0.3033	-2.3083	-2.6396	-2.9625	-2.6729	-2.9604	-2.9021	-2.5333	-2.9625	-2.6688	-2.5938	-3.1312	-2.6708	-3.0542	-3.0542	-2.3375	-3.0875	180.278	234.229	357.418	424.495	343.842	202.551	362.294	375.833	259.853	269.200	404.754	402.813	144.375	83.209	247.351	393.616	0.00070294	0.00036617	7.9704e-05	1264.2	6.1353e-06	3.2643e-06	1276.4	352.42	5.9228e-06	2.7306e-06	406.61	137	117.29	40.517	8.3544e-06	50.815	0.00040818	0.00037888	9.9219e-05	1269	4.3085e-06	4.0751e-06	1278.6	354.26	4.3717e-06	4.1073e-06	405.75	137.4	117.99	41.003	4.0425e-06	51.302	266.223	157.986	225.512	92.730	277.065	205.831	92.582	97.634	241.418	179.368	96.869	101.654	102.188	106.678	225.955	105.563	-8191	255	
11113.006	1	1	0	0	0.094798	0.19794	0.23883	0.21479	0.09309	0.18772	0.16248	0.21725	0.16934	0.078358	0.10798	0.029013	0.15546	0.29855	0.013094	0.16766	-2.2438	-2.4062	-2.8958	-2.6375	-2.7104	-2.9292	-2.5979	-3.0833	-2.8271	-2.5667	-3.3312	-2.7104	-2.9146	-3.2062	-2.4125	-3.1229	436.084	185.688	131.124	416.583	228.126	126.894	332.760	121.816	397.837	344.480	349.656	396.847	431.279	416.909	196.321	96.932	0.00069506	0.00045616	9.8953e-05	1262	4.2382e-06	4.8486e-06	1272.7	351.31	6.1789e-06	4.2515e-06	404.25	136.48	117.57	40.253	5.0992e-06	50.447	0.00039964	0.00036645	0.00010312	1269.7	4.3074e-06	4.0153e-06	1278.7	354.04	4.2845e-06	3.9921e-06	406.33	137.21	117.98	40.846	4.3249e-06	51.12	271.399	189.930	206.655	92.932	222.057	268.327	92.723	97.619	353.209	270.933	96.746	101.657	102.343	106.442	278.002	105.512	-8191	255	
11113.102	1	1	0	0	0.10361	0.036851	0.2626	0.13857	0.093388	0.18515	0.36727	0.32209	0.20831	0.31222	0.092027	0.21165	0.092188	0.21554	0.063136	0.040501	-2.4354	-2.3271	-3.1792	-2.6	-2.6542	-3.1583	-2.6188	-3.1292	-2.9354	-2.5792	-3.375	-2.675	-2.5354	-3.0104	-2.4938	-2.9	139.767	248.224	121.861	384.371	220.688	123.603	400.851	113.491	233.629	96.474	238.869	323.719	373.936	433.495	181.112	118.361	0.00065193	0.00042598	0.00013648	1254.1	2.3534e-06	4.3599e-06	1269.5	349.55	6.6779e-06	5.1672e-06	405.79	136.88	117.88	40.401	5.6819e-06	50.545	0.00039805	0.00036597	0.0001111	1266.9	4.216e-06	3.9737e-06	1278.3	353.6	4.1933e-06	3.9327e-06	407.03	137.28	117.86	40.889	4.5008e-06	51.09	272.974	198.103	168.840	92.940	302.953	279.327	92.617	97.638	239.724	218.763	97.075	101.767	102.244	106.539	292.934	105.514	-8191	255	
11113.221	1	1	0	0	0.056369	0.16243	0.25677	0.20421	0.058296	0.14477	0.24393	0.24753	0.082256	0.030525	0.14409	0.13263	0.17504	0.174	0.1974	0.036886	-2.4375	-2.375	-2.9875	-2.8167	-2.8292	-3.0646	-2.5687	-2.9458	-3.1042	-2.4417	-3.0479	-2.8125	-2.7313	-3.1896	-2.6854	-2.7333	222.555	138.114	320.562	385.132	265.614	234.865	328.915	335.525	364.843	417.154	153.717	161.767	95.288	104.252	110.683	313.181	0.00066608	9.9831e-05	0.00027997	1250.7	2.7457e-06	3.3803e-07	1269.4	349.74	6.6395e-06	4.3048e-06	403.06	135.89	117.07	40.207	5.4803e-06	50.756	0.00038302	0.00036768	0.0001143	1266.7	4.0917e-06	4.0205e-06	1278.3	352.77	4.038e-06	4.115e-06	407.07	136.93	117.45	40.885	4.4889e-06	51.032	269.047	129.653	134.447	92.864	195.745	381.312	92.764	97.808	265.409	137.046	97.028	102.104	102.477	106.631	280.953	105.526	-8191	255	
11113.317	1	1	0	0	0.20264	0.082606	0.22226	0.2128	0.31088	0.30061	0.14467	0.28419	0.18981	0.13738	0.19426	0.082585	0.39492	0.17518	0.08793	0.095384	-2.6833	-2.2583	-3.0417	-2.9271	-2.6292	-3.2146	-2.6333	-2.9688	-2.875	-2.6	-3.2417	-2.9708	-2.5833	-3.2438	-2.7313	-2.9125	266.379	107.076	106.539	352.528	365.185	308.742	151.477	383.460	399.212	398.097	382.336	407.421	405.327	231.552	218.700	382.809	0.00074698	0.00045411	6.2942e-05	1255.6	8.9657e-06	1.0018e-05	1271.4	349.44	3.8781e-06	2.4242e-06	402.44	137.02	117.66	40.484	3.0508e-06	50.714	0.00037293	0.00039089	0.00011432	1266.1	3.9873e-06	4.3357e-06	1278	352.68	3.9903e-06	4.4017e-06	406.44	136.88	117.44	40.98	4.4571e-06	51.001	266.415	119.258	150.356	92.981	221.537	235.560	92.774	97.800	293.271	175.818	96.821	101.624	102.220	106.384	192.430	105.466	-8191	255	
11113.413	1	1	0	0	0.27476	0.3069	0.24674	0.11628	0.096924	0.28502	0.27691	0.46819	0.14815	0.11513	0.2302	0.26458	0.27733	0.34043	0.14761	0.1986	-2.6917	-2.5208	-2.9938	-2.9979	-2.6125	-3.2771	-2.9562	-2.85	-3.0104	-2.5687	-3.0979	-2.9938	-2.6104	-3.0812	-2.6042	-2.4771	264.150	306.599	387.204	357.112	319.445	401.770	336.720	425.770	436.748	135.610	359.545	397.689	421.705	368.506	100.627	323.047	0.0006611	0.00082373	0.00014204	1251.5	6.5529e-06	4.0624e-06	1275.7	348.58	7.6945e-06	4.1039e-06	403.01	136.55	117.72	40.231	5.9114e-06	50.753	0.00037215	0.00040883	0.00011152	1265.4	4.0375e-06	4.5181e-06	1279	352.2	4.0212e-06	4.5287e-06	406.32	136.73	117.62	40.993	4.3192e-06	50.891	263.545	196.201	104.436	93.056	230.349	276.466	92.641	97.756	228.869	219.231	97.091	101.777	102.271	106.508	292.605	105.547	-8191	255	
11113.534	1	1	0	0	0.22849	0.45003	0.31996	0.067762	0.058519	0.1282	0.18119	0.12362	0.13141	0.18276	0.27811	0.15408	0.22968	0.14433	0.068812	0.12064	-2.7083	-2.6083	-2.8083	-3.125	-2.5312	-3.1542	-2.95	-2.7458	-3.1146	-2.4562	-2.95	-3.0438	-2.5062	-3.1604	-2.8833	-2.6417	330.407	379.073	275.777	214.087	333.780	253.968	368.444	432.912	320.854	171.933	325.875	91.647	417.934	406.217	238.846	199.589	0.00072128	0.00023052	5.1819e-05	1253.5	5.9221e-06	3.9363e-06	1270.9	351.17	7.9907e-06	1.6194e-06	403.96	136.55	117.31	40.266	4.3342e-06	50.353	0.0003831	0.00041653	0.00010891	1265.1	4.1911e-06	4.4991e-06	1279.1	352.56	4.2221e-06	4.5307e-06	406.3	136.74	117.81	41.045	4.2547e-06	50.726	261.885	168.984	198.398	93.016	216.552	228.532	92.844	97.798	254.593	205.256	97.009	101.640	102.511	106.767	264.967	105.317	-8191	255	
11113.630	1	1	0	0	0.11201	0.07975	0.162	0.21334	0.23684	0.12233	0.32556	0.26547	0.22635	0.36271	0.13864	0.099351	0.097907	0.16292	0.042108	0.17579	-2.8	-2.7042	-2.775	-3.325	-2.6542	-3.1354	-3.2521	-2.6979	-3.2917	-2.7146	-2.6792	-3.2083	-2.6562	-3	-3.0021	-2.5083	298.171	406.428	127.827	422.868	130.116	93.205	371.285	309.249	413.160	149.012	84.776	402.853	349.442	281.635	245.827	176.695	0.00073034	0.00032056	0.00014854	1255.5	6.4428e-06	3.7726e-06	1272.1	351.38	6.6323e-06	9.7211e-07	405.13	136.89	117.99	40.459	6.1622e-06	50.632	0.00040248	0.00040077	0.00010656	1264.9	4.4128e-06	4.4095e-06	1279.8	352.77	4.4621e-06	4.3974e-06	406.72	136.7	117.91	40.992	4.0951e-06	50.802	268.488	244.346	116.479	93.083	209.783	205.897	92.926	97.675	241.560	90.767	96.842	101.738	102.075	106.405	259.895	105.615	-8191	255	
11113.701	1	1	0	0	0.11852	0.18097	0.16355	0.24158	0.13418	0.1476	0.301	0.08237	0.067371	0.12593	0.039875	0.23598	0.47364	0.19865	0.19391	0.17626	-2.7083	-2.5354	-2.5958	-3.1688	-2.4375	-2.8354	-3.3042	-2.5854	-3.0979	-2.7	-2.5896	-3.2542	-2.6208	-2.8812	-3.0646	-2.3771	187.758	171.585	116.219	88.033	289.921	120.562	404.080	263.327	96.234	231.383	117.522	178.223	87.442	289.633	100.686	421.474	0.000775	0.00063052	2.0403e-05	1262.9	5.3051e-06	7.5782e-06	1276.9	349.97	6.4195e-06	3.4215e-06	404.36	136.5	117.74	40.357	5.2518e-06	50.776	0.00041902	0.00039623	0.00010281	1267.9	4.4962e-06	4.2883e-06	1278.9	352.42	4.4933e-06	4.2656e-06	405.49	136.79	118.01	40.909	3.9261e-06	51.034	276.778	165.285	411.073	92.821	169.499	261.786	92.746	97.596	260.206	281.762	96.923	101.829	102.241	106.548	264.689	105.547	-8191	255	
11113.798	1	1	0	0	0.29455	0.10999	0.032304	0.050998	0.14234	0.16782	0.080845	0.16607	0.13652	0.22126	0.28702	0.13541	0.094729	0.2198	0.19543	0.081661	-2.6917	-2.8042	-2.6042	-3.1875	-2.3688	-2.6104	-3.0958	-2.6583	-2.9417	-2.7917	-2.7292	-3.0604	-2.6917	-2.8583	-3.0479	-2.45	114.272	397.363	321.518	402.095	91.563	199.182	369.969	300.620	372.440	154.863	394.911	393.081	153.301	414.410	152.141	150.200	0.00072181	0.00027348	5.0138e-05	1253.3	3.9579e-06	7.6718e-07	1278.7	351.25	9.173e-06	3.4128e-06	403.96	136.91	117.07	40.302	6.4973e-06	50.309	0.00041778	0.00038594	9.9927e-05	1266.2	4.4818e-06	4.1938e-06	1279	353.44	4.4314e-06	4.1573e-06	405.57	137.12	117.9	40.911	3.9615e-06	51.044	274.542	408.322	191.550	93.003	215.723	234.561	92.965	97.692	286.434	289.297	97.005	101.775	102.329	106.349	235.810	105.860	-8191	255	
11113.918	1	1	0	0	0.07162	0.11126	0.073818	0.1398	0.11192	0.20357	0.17882	0.16528	0.18901	0.27934	0.30396	0.28502	0.15539	0.1921	0.18635	0.041004	-2.475	-2.9021	-2.5354	-3.2188	-2.5021	-2.8396	-3.3104	-2.675	-2.8854	-3.0375	-2.5438	-3.0708	-2.9229	-2.7229	-3.1667	-2.5792	353.086	274.969	432.913	386.708	185.126	395.709	304.549	107.179	331.196	258.209	326.737	385.971	389.160	338.797	252.328	106.593	0.00072335	6.3885e-05	0.00026595	1257.1	5.8454e-06	4.4744e-06	1278.7	350.48	6.0833e-06	3.1031e-06	402.95	135.82	117.15	40.4	1.3015e-05	50.585	0.00040637	0.00037604	0.00010153	1270.5	4.3313e-06	4.0999e-06	1279.2	353.5	4.3036e-06	4.0469e-06	405.37	137.12	117.92	40.87	4.107e-06	51.085	265.600	365.617	148.780	93.026	222.532	327.244	92.750	97.883	226.681	204.233	97.018	101.859	102.332	106.649	267.891	105.103	-8191	255	
11114.013	1	1	0	0	0.34648	0.008476	0.077203	0.18241	0.28587	0.19693	0.15645	0.094365	0.34357	0.062087	0.28439	0.16052	0.07008	0.081718	0.092759	0.1438	-2.3333	-2.8729	-2.4958	-3.2	-2.7792	-2.625	-3.4771	-2.7208	-2.7604	-3.0521	-2.4333	-3.2375	-2.9146	-2.6479	-3.2083	-2.6875	201.515	396.890	341.208	99.259	196.672	211.930	413.385	399.541	326.732	143.192	128.542	146.989	282.558	321.861	372.723	308.645	0.00079122	0.00043193	0.00021489	1252.9	6.7333e-06	2.7379e-06	1275	350.17	7.8087e-06	3.7447e-06	404.3	136.63	117.25	40.237	9.5318e-06	50.578	0.00039958	0.00036337	0.00010584	1266.7	4.2829e-06	3.9379e-06	1278	353.22	4.223e-06	3.9174e-06	405.75	137.37	117.68	40.789	4.2888e-06	51.12	266.290	430.728	140.217	92.903	163.258	291.457	92.944	98.029	283.095	201.631	97.132	101.838	102.420	106.540	275.215	105.572	-8191	255	
11114.109	1	1	0	0	0.10025	0.16451	0.12169	0.271	0.13966	0.13123	0.28313	0.083183	0.11952	0.085521	0.16159	0.1871	0.2002	0.0917	0.048348	0.30014	-2.4042	-3.0583	-2.4313	-3.2583	-2.8875	-2.5062	-3.2687	-2.7083	-2.7229	-3.1896	-2.575	-3.1917	-2.9417	-2.6833	-3.3312	-2.7146	107.233	215.226	371.964	367.861	375.938	93.808	397.972	310.838	290.384	325.012	390.981	408.050	391.795	365.570	220.868	167.199	0.00067976	0.00023236	7.4806e-05	1259.9	3.7603e-06	6.5268e-06	1277.2	351.19	7.6014e-06	1.8311e-07	404.78	136.53	118.32	40.572	8.2913e-06	50.618	0.00038699	0.00035527	0.00011122	1268.8	4.1408e-06	3.9174e-06	1280.8	353.56	4.0852e-06	3.9463e-06	406.52	137.2	117.69	40.903	4.3987e-06	51.024	263.650	165.391	152.918	92.564	213.924	279.090	92.541	97.610	270.688	407.828	96.529	101.583	102.241	106.353	262.546	105.477	-8191	255	
11114.205	1	1	0	0	0.24135	0.18926	0.1836	0.38772	0.18341	0.11271	0.11923	0.10692	0.28141	0.03068	0.15715	0.31112	0.2351	0.15754	0.18063	0.30921	-2.1771	-3.0583	-2.3646	-3.0729	-3.0625	-2.5271	-3.3271	-2.7854	-2.7333	-3.2771	-2.5729	-2.7812	-3.0604	-2.5708	-3.0687	-2.9458	303.138	229.809	412.416	380.263	378.593	416.974	390.126	381.025	301.017	428.985	170.594	374.576	334.672	360.953	94.249	295.070	0.00067186	0.00050169	0.0002363	1258.9	2.9729e-06	7.3955e-06	1275.1	350.5	5.4811e-06	8.1331e-06	403.08	137.17	117.16	40.477	4.5976e-06	50.739	0.00037476	0.00036325	0.00011228	1266.8	3.9192e-06	3.9691e-06	1279	352.69	3.9405e-06	4.066e-06	406.59	137.01	117.27	40.903	4.3138e-06	50.996	265.871	163.463	165.332	92.650	208.624	247.276	92.725	97.730	290.937	218.698	96.825	101.580	102.441	106.649	211.892	105.569	-8191	255	
11114.301	1	1	0	0	0.10712	0.18554	0.10525	0.26247	0.044498	0.15795	0.15712	0.13181	0.23076	0.20518	0.1231	0.14704	0.27949	0.34296	0.24441	0.023945	-2.1396	-3.325	-2.4792	-2.8896	-2.8958	-2.3854	-3.1083	-3.0125	-2.5354	-2.9042	-2.6167	-2.7083	-3.1271	-2.4854	-3	-3.1083	297.958	340.375	345.845	351.535	377.496	245.880	314.522	399.562	405.363	330.807	109.369	89.316	435.797	409.671	273.087	268.692	0.0007341	0.00052707	0.00016306	1250.9	1.3467e-06	4.7562e-06	1270.1	350.74	3.3757e-06	5.0411e-06	404.05	136.61	117.73	40.365	8.7888e-06	50.541	0.00036109	0.00037769	0.00010902	1263.6	3.8193e-06	4.1769e-06	1279	352.96	3.8229e-06	4.2108e-06	406.39	136.69	117.59	40.945	4.1814e-06	50.906	265.518	208.990	197.158	92.547	186.214	249.156	92.802	97.639	239.031	178.968	96.792	101.943	102.456	106.578	264.175	105.594	-8191	255	
11114.397	1	1	0	0	0.15225	0.11378	0.25303	0.34011	0.12015	0.19495	0.16997	0.20496	0.21221	0.075774	0.2226	0.10461	0.088729	0.2383	0.15823	0.23691	-2.1625	-3.2021	-2.6625	-2.8604	-3.2625	-2.5042	-2.9417	-3.0104	-2.4833	-3.0792	-2.9042	-2.55	-3.1042	-2.575	-2.8063	-3.1333	406.774	89.507	404.514	377.768	134.663	338.725	391.650	409.475	225.793	332.112	413.039	88.337	376.400	133.498	432.173	87.498	0.00071744	0.00034799	0.00013366	1251.9	4.0993e-06	6.5829e-06	1274.7	349.78	5.5434e-06	4.4792e-06	404.73	137.03	117.81	40.572	5.8925e-06	50.817	0.0003632	0.0003905	0.00010635	1263.2	3.8632e-06	4.3352e-06	1277.2	352.36	3.9462e-06	4.3746e-06	405.3	136.76	117.5	41.098	4.1476e-06	50.897	272.251	217.267	166.648	92.809	218.675	229.700	92.641	97.870	246.078	180.062	97.066	101.690	102.402	106.263	344.754	105.520	-8191	255	
11114.493	1	1	0	0	0.25848	0.095372	0.16527	0.35079	0.12318	0.26215	0.18223	0.22806	0.15744	0.075785	0.23323	0.11347	0.031336	0.18542	0.15891	0.24622	-2.075	-3.0021	-2.6479	-2.7562	-3.2583	-2.5563	-2.9688	-3.0208	-2.5417	-3.1646	-3.0396	-2.6104	-3.2021	-2.6375	-2.6542	-2.9979	324.736	376.321	247.622	431.715	332.543	84.210	225.124	429.377	388.151	395.462	407.611	425.961	116.390	174.585	245.065	166.272	0.00062241	0.00077597	9.4018e-05	1261.5	7.7329e-06	1.483e-06	1272.6	352.65	3.9422e-06	1.4239e-06	405.11	136.97	117.75	40.533	1.72e-06	50.685	0.0003786	0.00039424	0.00010475	1263.9	4.1241e-06	4.3598e-06	1275.8	352.61	4.1794e-06	4.2783e-06	405.61	136.54	117.81	40.973	4.0471e-06	50.757	263.751	208.501	261.136	92.663	211.263	163.196	92.613	97.679	260.517	272.573	96.927	101.700	102.129	106.341	353.499	105.243	-8191	255	
11114.614	1	1	0	0	0.1472	0.23914	0.13243	0.23153	0.099081	0.056411	0.1261	0.1597	0.074532	0.22122	0.16581	0.1626	0.081767	0.092886	0.13965	0.12002	-2.1479	-2.9208	-2.95	-2.8479	-3.2042	-2.7354	-3.0312	-3.1562	-2.375	-2.8312	-3.0292	-2.6271	-3.2521	-2.8792	-2.65	-3.1958	95.595	281.335	430.905	96.544	194.999	349.740	383.972	413.997	134.746	397.120	227.691	426.221	255.453	372.100	203.205	165.069	0.00069421	0.00051439	7.8297e-05	1255.3	4.5802e-06	5.0149e-06	1276.7	351.17	6.2233e-06	5.426e-06	404.39	136.38	117.16	40.464	5.0995e-06	50.539	0.00039543	0.00039054	0.00010268	1263.5	4.2464e-06	4.2461e-06	1277.2	352.46	4.3045e-06	4.2167e-06	405.96	136.57	117.98	40.973	3.9519e-06	50.871	266.235	181.851	151.049	92.885	218.509	256.949	92.564	97.683	260.330	185.418	96.953	101.664	102.322	106.605	256.530	105.586	-8191	255	
11114.710	1	1	0	0	0.0831	0.10366	0.24293	0.15457	0.15028	0.22601	0.30746	0.1399	0.12511	0.24797	0.26959	0.44917	0.15051	0.15749	0.20159	0.24709	-2.2188	-2.8583	-2.8812	-2.6833	-3.0917	-2.8688	-2.8167	-3.1813	-2.6208	-2.8667	-3.075	-2.5271	-3.0417	-3.0917	-2.6646	-3.3646	117.021	225.933	426.200	420.018	295.723	207.867	385.594	102.301	170.769	415.711	417.512	411.829	248.114	373.262	89.142	422.882	0.00079143	0.00033025	8.0998e-05	1258.7	1.4733e-06	1.9572e-06	1275.2	351.71	3.968e-06	3.2309e-06	403.77	136.6	117.37	40.426	2.7179e-06	50.992	0.00040781	0.00038315	9.8704e-05	1264.2	4.3611e-06	4.1617e-06	1275.9	352.8	4.4432e-06	4.1252e-06	405.33	136.89	118	40.932	3.8592e-06	51.021	272.711	376.444	138.825	92.734	252.113	429.071	92.671	97.706	282.063	240.995	97.141	101.848	102.264	106.611	261.939	105.148	-8191	255	
11114.806	1	1	0	0	0.12492	0.19527	0.086799	0.14457	0.33315	0.25241	0.14421	0.37243	0.25194	0.04061	0.15197	0.33188	0.17605	0.21337	0.28825	0.1851	-2.2562	-2.7812	-3.05	-2.6875	-3.2542	-2.975	-2.6854	-3.2396	-2.6125	-2.6833	-3.2104	-2.4729	-3.0521	-2.9708	-2.575	-3.2313	221.463	213.711	170.881	82.513	220.881	169.219	355.512	420.124	204.166	434.711	345.159	211.516	328.430	414.545	162.139	435.033	0.00058963	0.0003636	7.236e-05	1254.4	3.9162e-06	2.507e-06	1277.9	350.4	5.2864e-06	2.4503e-06	403.08	136.13	117.87	40.412	6.4248e-06	50.884	0.00040527	0.00037333	9.7327e-05	1265.5	4.305e-06	4.0868e-06	1276.6	353.04	4.3091e-06	4.0345e-06	404.87	136.95	117.81	40.82	3.8738e-06	51.161	272.635	169.286	165.160	92.727	273.308	272.724	92.768	97.888	232.806	403.660	96.888	101.872	102.471	106.466	282.570	105.486	-8191	255	
11114.902	1	1	0	0	0.14507	0.16733	0.010969	0.18793	0.22226	0.2723	0.23449	0.02424	0.076918	0.093863	0.22791	0.094829	0.026727	0.099879	0.23763	0.046655	-2.3521	-2.6021	-3.225	-2.5979	-2.9437	-3.0625	-2.5563	-3.2083	-2.8917	-2.5833	-3.2896	-2.6854	-3.0708	-3.1167	-2.3271	-3.1417	256.859	290.626	433.506	404.617	425.602	175.063	410.061	244.438	363.879	409.561	127.659	102.769	212.079	429.076	151.455	373.348	0.00067006	0.00021116	0.00011181	1258.5	4.6384e-06	2.9228e-06	1281.3	352.24	6.464e-06	1.105e-06	405.83	136.96	117.24	40.447	5.0814e-06	51.074	0.00039047	0.0003612	9.8585e-05	1266.9	4.1695e-06	3.8998e-06	1276.8	353.97	4.1847e-06	3.8986e-06	405.76	137.31	117.68	40.83	4.0306e-06	51.196	262.909	252.475	150.539	92.729	236.105	322.252	92.705	97.697	250.869	300.575	96.881	101.587	102.528	106.582	246.895	105.678	-8191	255	
11114.999	1	1	0	0	0.2068	0.10896	0.16332	0.26494	0.1145	0.23306	0.32299	0.061843	0.068996	0.094128	0.28101	0.15972	0.056569	0.12776	0.23295	0.20758	-2.2771	-2.5979	-3.2521	-2.5792	-2.675	-3.1083	-2.8917	-3.1562	-2.9604	-2.6667	-3.2875	-2.6604	-2.8063	-3.0563	-2.5771	-3.1708	148.928	322.739	433.796	395.448	172.259	90.406	380.693	427.834	193.751	239.014	350.445	382.151	427.970	407.658	316.060	426.303	0.00058564	0.00046447	0.00013912	1264.3	1.8555e-06	1.8561e-06	1273	349.97	4.9802e-06	1.061e-06	403.64	136.66	117.74	40.484	5.8175e-06	50.812	0.00038441	0.00035282	0.00010341	1267.7	4.1094e-06	3.8219e-06	1279.5	353.71	4.1518e-06	3.7951e-06	406.53	136.99	117.57	40.792	4.2324e-06	51.05	272.191	143.238	132.051	92.634	289.619	97.560	92.737	97.644	258.423	204.439	97.024	101.894	102.168	106.674	259.323	105.393	-8191	255	
11115.095	1	1	0	0	0.18436	0.043237	0.073633	0.31722	0.11909	0.34738	0.10114	0.12814	0.32934	0.11717	0.14034	0.139	0.13989	0.24581	0.18542	0.28285	-2.5667	-2.5125	-3.2583	-2.8271	-2.7167	-3.2083	-2.725	-3.0687	-3.0104	-2.5854	-3.2917	-2.9271	-2.5833	-3.2625	-2.5146	-2.8875	414.432	320.738	87.821	92.736	405.364	203.215	423.309	395.140	96.866	304.046	312.670	123.545	361.082	90.228	92.382	312.177	0.00057727	0.00051946	0.0001534	1256.9	4.6407e-06	7.2118e-06	1282.6	350.99	4.1456e-06	4.7032e-06	406.29	137.3	118.01	40.664	6.069e-06	50.847	0.00037956	0.00034821	0.00010875	1265.8	4.0315e-06	3.868e-06	1280.6	353.08	3.9742e-06	3.8876e-06	407.77	137.07	117.85	40.932	4.3961e-06	51.09	272.617	139.545	152.811	92.674	235.783	220.813	92.487	97.772	278.041	168.163	97.191	101.720	102.331	106.511	202.297	105.369	-8191	255	
11115.214	1	1	0	0	0.16199	0.25702	0.21141	0.35956	0.075913	0.3276	0.42589	0.081402	0.15937	0.10628	0.073989	0.22622	0.17584	0.15766	0.044707	0.21118	-2.6354	-2.4833	-3.1146	-2.7021	-2.5833	-3.1875	-2.6937	-2.9104	-3.1333	-2.4792	-3.0271	-2.7104	-2.55	-3.2729	-2.4625	-2.6771	255.476	244.087	179.103	430.067	114.896	87.133	335.959	423.745	337.611	295.491	83.412	351.475	92.243	175.354	297.821	390.573	0.00071953	0.00078364	0.00019794	1258.4	1.2616e-06	2.6464e-06	1273	352.93	5.5508e-06	2.2617e-06	404.75	137.54	118.48	40.532	3.7445e-06	50.553	0.00036569	0.00036129	0.00010961	1266.6	3.8611e-06	4.0194e-06	1279.7	354.2	3.8192e-06	4.0407e-06	406.92	137.24	117.88	41.034	4.2732e-06	51.035	268.940	187.044	171.502	92.768	436.591	226.348	92.726	97.666	326.881	210.722	97.119	101.820	102.281	106.449	295.745	105.399	-8191	255	
11115.310	1	1	0	0	0.091469	0.12022	0.13771	0.30171	0.076792	0.208	0.069935	0.24643	0.10866	0.078384	0.12699	0.10305	0.19822	0.25085	0.12807	0.18878	-2.7896	-2.2521	-3.0312	-2.8563	-2.6417	-3.2271	-2.825	-2.8521	-3.1083	-2.4354	-3.1667	-2.9875	-2.5417	-3.2542	-2.5646	-2.7708	280.868	390.644	347.431	376.400	217.079	105.814	143.210	418.966	109.129	98.441	104.274	141.446	396.321	421.230	147.601	112.884	0.00073028	0.00026262	7.7367e-05	1258.8	3.1443e-06	6.5026e-06	1283.1	354.9	9.4189e-06	4.421e-06	405.81	136.67	117.21	40.437	6.9713e-06	51.057	0.00035228	0.00037951	0.00010748	1267	3.8283e-06	4.1818e-06	1281.5	354.6	3.7891e-06	4.212e-06	407.13	136.94	117.65	41.065	4.1671e-06	51.091	261.430	336.293	212.379	92.929	256.679	222.462	92.418	97.529	243.388	177.591	97.057	101.987	102.383	106.642	253.408	105.177	-8191	255	
11115.406	1	1	0	0	0.28821	0.25138	0.072698	0.18494	0.071634	0.10797	0.31412	0.47194	0.20646	0.10296	0.31715	0.20243	0.30835	0.13161	0.19067	0.1458	-2.8333	-2.4	-2.7313	-3.0958	-2.4917	-3.075	-3.0062	-2.6688	-3.1688	-2.6312	-2.9396	-3.0958	-2.5792	-3.1792	-2.7979	-2.6854	380.838	236.578	370.711	387.559	84.144	326.982	412.330	431.930	191.720	379.045	379.027	400.337	410.365	169.763	121.103	359.876	0.00072396	0.0003517	0.00015156	1259.2	4.9401e-06	4.5508e-06	1283.4	351.8	9.3162e-06	6.7741e-07	406.66	137.51	117.96	40.267	4.3893e-06	50.786	0.00036459	0.00039652	0.00010592	1267.9	3.9567e-06	4.3416e-06	1281.4	353.6	3.9857e-06	4.3571e-06	407.57	136.87	117.63	41.095	4.168e-06	50.882	270.849	191.841	208.465	93.058	219.210	331.261	92.636	97.552	294.778	213.655	96.747	101.658	102.221	106.534	311.008	105.161	-8191	255	
11115.502	1	1	0	0	0.34646	0.12129	0.15822	0.15795	0.13969	0.15631	0.10064	0.38397	0.18414	0.24147	0.3515	0.2433	0.11846	0.22694	0.1784	0.10246	-2.7146	-2.525	-2.7687	-3.0625	-2.6437	-2.9854	-3.0312	-2.5771	-3.0354	-2.6146	-2.8187	-3.125	-2.5708	-2.9917	-2.8438	-2.6646	166.714	387.500	80.088	404.500	413.068	261.301	395.024	353.883	348.248	405.153	81.395	420.315	101.984	361.236	228.405	322.550	0.00070343	0.00050085	9.083e-05	1257.4	8.5816e-06	1.9519e-06	1282.6	351.94	8.9769e-06	3.5315e-06	406.53	137.04	117.72	40.575	4.3681e-07	50.819	0.00038413	0.00039804	0.00010497	1266.6	4.1774e-06	4.3241e-06	1279.7	352.89	4.1945e-06	4.2566e-06	407	136.9	118.04	41.081	4.0053e-06	50.851	273.818	215.210	139.231	92.817	214.212	144.183	92.688	97.423	272.616	93.156	96.819	101.634	102.269	106.215	185.168	105.207	-8191	255	
11115.598	1	1	0	0	0.25792	0.11461	0.018866	0.097662	0.2027	0.1321	0.19296	0.17998	0.21033	0.093617	0.059088	0.26161	0.32341	0.2294	0.099318	0.28435	-2.6396	-2.5354	-2.6542	-3.1604	-2.5687	-3.0667	-3.2583	-2.5896	-3.1042	-2.8396	-2.6229	-3.1188	-2.5125	-2.6375	-2.8396	-2.55	346.733	436.737	368.052	364.514	124.337	419.591	319.924	410.446	217.632	262.132	400.843	391.929	435.099	354.617	266.800	323.566	0.00078854	0.00057896	7.4446e-05	1259.3	6.8421e-06	5.1311e-06	1281.4	352.4	5.8612e-06	4.1285e-06	403.73	136.63	117.44	40.617	2.442e-06	50.755	0.00039604	0.00038378	0.00010135	1264.5	4.2913e-06	4.1561e-06	1278.9	353.48	4.329e-06	4.1498e-06	406.19	136.86	117.93	41.06	3.8511e-06	50.94	274.948	144.871	113.627	92.786	202.158	184.071	92.829	97.511	281.206	189.149	96.917	101.918	102.536	106.442	179.631	105.342	-8191	255	
#DATA ENDS
