BOXY.EXE: ISS Imagent and Oximeter Data Acquisition Program Version 0.80
Ascii Record File

#ACQ INFORMATION
2  Detector Channels 
16  External MUX Channels 
1  Auxiliary Channels 
5000  Waveform (CCF) Frequency (Hz)
1  Waveforms Skipped 
30  Waveforms Averaged 
1  Cycles Averaged 
16  Acquisitions per Waveform 
10.0806  Updata Rate (Hz) 

#FILE INFORMATION
TRUE -- External MUX Channel results are PARSED.
FALSE -- AC DC and Phase are NOT grouped.
TRUE -- Companion Program Settings File CREATED.
FALSE -- AC data not excluded
FALSE -- DC data not excluded
FALSE -- Phase data not excluded
FALSE -- Auxillary Chn. data not excluded
Tab delimiters

#CALIBRATION STATE
TRUE -- Waveform Calibration Values APPLIED.


#AUX CALIBRATION VALUES
Val Type	aux-1	

Term	1.0000e+00	
Factor	0.0000e+00	


#WF CALIBRATION VALUES
A = Detector Channel
Val Type	A-AC1	A-AC2	A-AC3	A-AC4	A-AC5	A-AC6	A-AC7	A-AC8	A-AC9	A-AC10	A-AC11	A-AC12	A-AC13	A-AC14	A-AC15	A-AC16	A-DC1	A-DC2	A-DC3	A-DC4	A-DC5	A-DC6	A-DC7	A-DC8	A-DC9	A-DC10	A-DC11	A-DC12	A-DC13	A-DC14	A-DC15	A-DC16	A-Ph1	A-Ph2	A-Ph3	A-Ph4	A-Ph5	A-Ph6	A-Ph7	A-Ph8	A-Ph9	A-Ph10	A-Ph11	A-Ph12	A-Ph13	A-Ph14	A-Ph15	A-Ph16	

Term	0.00000e+00	0.00000e+00	0.00000e+00	0.00000e+00	0.00000e+00	0.00000e+00	0.00000e+00	0.00000e+00	0.00000e+00	0.00000e+00	0.00000e+00	0.00000e+00	0.00000e+00	0.00000e+00	0.00000e+00	0.00000e+00	0.00000e+00	0.00000e+00	0.00000e+00	0.00000e+00	0.00000e+00	0.00000e+00	0.00000e+00	0.00000e+00	0.00000e+00	0.00000e+00	0.00000e+00	0.00000e+00	0.00000e+00	0.00000e+00	0.00000e+00	0.00000e+00	0.00000e+00	0.00000e+00	0.00000e+00	0.00000e+00	0.00000e+00	0.00000e+00	0.00000e+00	0.00000e+00	0.00000e+00	0.00000e+00	0.00000e+00	0.00000e+00	0.00000e+00	0.00000e+00	0.00000e+00	0.00000e+00	
Factor	1.00000e+00	1.00000e+00	1.00000e+00	1.00000e+00	1.00000e+00	1.00000e+00	1.00000e+00	1.00000e+00	1.00000e+00	1.00000e+00	1.00000e+00	1.00000e+00	1.00000e+00	1.00000e+00	1.00000e+00	1.00000e+00	1.00000e+00	1.00000e+00	1.00000e+00	1.00000e+00	1.00000e+00	1.00000e+00	1.00000e+00	1.00000e+00	1.00000e+00	1.00000e+00	1.00000e+00	1.00000e+00	1.00000e+00	1.00000e+00	1.00000e+00	1.00000e+00	X	X	X	X	X	X	X	X	X	X	X	X	X	X	X	X	

B = Detector Channel
Val Type	B-AC1	B-AC2	B-AC3	B-AC4	B-AC5	B-AC6	B-AC7	B-AC8	B-AC9	B-AC10	B-AC11	B-AC12	B-AC13	B-AC14	B-AC15	B-AC16	B-DC1	B-DC2	B-DC3	B-DC4	B-DC5	B-DC6	B-DC7	B-DC8	B-DC9	B-DC10	B-DC11	B-DC12	B-DC13	B-DC14	B-DC15	B-DC16	B-Ph1	B-Ph2	B-Ph3	B-Ph4	B-Ph5	B-Ph6	B-Ph7	B-Ph8	B-Ph9	B-Ph10	B-Ph11	B-Ph12	B-Ph13	B-Ph14	B-Ph15	B-Ph16	

Term	0.00000e+00	0.00000e+00	0.00000e+00	0.00000e+00	0.00000e+00	0.00000e+00	0.00000e+00	0.00000e+00	0.00000e+00	0.00000e+00	0.00000e+00	0.00000e+00	0.00000e+00	0.00000e+00	0.00000e+00	0.00000e+00	0.00000e+00	0.00000e+00	0.00000e+00	0.00000e+00	0.00000e+00	0.00000e+00	0.00000e+00	0.00000e+00	0.00000e+00	0.00000e+00	0.00000e+00	0.00000e+00	0.00000e+00	0.00000e+00	0.00000e+00	0.00000e+00	-1.70766e+02	-1.55360e+02	-1.36989e+02	-1.83556e+02	-7.39167e+01	-1.11136e+02	-1.57958e+02	-1.62015e+02	-8.77219e+01	-9.53084e+01	-1.70441e+02	-1.71054e+02	-1.79201e+02	-1.76666e+02	-9.97883e+01	-1.49357e+02	
Factor	2.98084e-05	1.06056e-04	3.44200e-05	1.51934e-01	8.83417e-07	1.01984e-06	1.64616e-01	5.40301e-02	8.79708e-07	1.14181e-06	8.93439e-02	3.10184e-02	2.90158e-02	9.72131e-03	1.45861e-06	1.37752e-02	7.84505e-07	7.99803e-07	2.22624e-07	7.65306e-02	8.71945e-09	8.76617e-09	7.79789e-02	2.70018e-02	8.73877e-09	8.78194e-09	4.25643e-02	1.47342e-02	1.42478e-02	4.76412e-03	8.78011e-09	6.51403e-03	X	X	X	X	X	X	X	X	X	X	X	X	X	X	X	X	



#DISTANCE SETTINGS
A = Detector Channel
A-1	A-2	A-3	A-4	A-5	A-6	A-7	A-8	A-9	A-10	A-11	A-12	A-13	A-14	A-15	A-16	

2.5000e+00	3.0000e+00	2.5000e+00	3.0000e+00	2.0000e+00	3.0000e+00	1.5000e+00	3.0000e+00	3.0000e+00	3.0000e+00	3.0000e+00	3.0000e+00	3.0000e+00	3.0000e+00	1.5000e+00	3.0000e+00	

B = Detector Channel
B-1	B-2	B-3	B-4	B-5	B-6	B-7	B-8	B-9	B-10	B-11	B-12	B-13	B-14	B-15	B-16	

1.0000e+01	1.0000e+01	1.0000e+01	1.4400e+00	1.0000e+01	1.0000e+01	1.5100e+00	1.9400e+00	1.0000e+01	1.0000e+01	1.9900e+00	2.4900e+00	2.4100e+00	2.9000e+00	1.0000e+01	2.9800e+00	




#DATA BEGINS
time	group	step	mark	flag	A-AC1	A-AC2	A-AC3	A-AC4	A-AC5	A-AC6	A-AC7	A-AC8	A-AC9	A-AC10	A-AC11	A-AC12	A-AC13	A-AC14	A-AC15	A-AC16	A-DC1	A-DC2	A-DC3	A-DC4	A-DC5	A-DC6	A-DC7	A-DC8	A-DC9	A-DC10	A-DC11	A-DC12	A-DC13	A-DC14	A-DC15	A-DC16	A-Ph1	A-Ph2	A-Ph3	A-Ph4	A-Ph5	A-Ph6	A-Ph7	A-Ph8	A-Ph9	A-Ph10	A-Ph11	A-Ph12	A-Ph13	A-Ph14	A-Ph15	A-Ph16	B-AC1	B-AC2	B-AC3	B-AC4	B-AC5	B-AC6	B-AC7	B-AC8	B-AC9	B-AC10	B-AC11	B-AC12	B-AC13	B-AC14	B-AC15	B-AC16	B-DC1	B-DC2	B-DC3	B-DC4	B-DC5	B-DC6	B-DC7	B-DC8	B-DC9	B-DC10	B-DC11	B-DC12	B-DC13	B-DC14	B-DC15	B-DC16	B-Ph1	B-Ph2	B-Ph3	B-Ph4	B-Ph5	B-Ph6	B-Ph7	B-Ph8	B-Ph9	B-Ph10	B-Ph11	B-Ph12	B-Ph13	B-Ph14	B-Ph15	B-Ph16	aux-1	digaux	

23967.471	1	1	0	512	0.1739	0.26995	0.20881	0.2574	0.1687	0.15521	0.30737	0.25414	0.23565	0.15386	0.12705	0.29531	0.05449	0.101	0.12118	0.16851	-3.2104	-4.3125	-4.0188	-3.7146	-4.5021	-3.7042	-4.1417	-4.5125	-3.5292	-4.1479	-4.0708	-3.6167	-4.4917	-3.7708	-3.8854	-4.8208	403.507	155.564	387.507	150.624	173.225	233.937	353.538	132.890	340.430	323.706	344.827	431.032	404.734	103.832	273.512	445.091	0.0014482	0.00041007	0.00015134	729.33	3.5785e-06	2.9846e-06	1186.8	257.5	4.1042e-06	4.5391e-06	480.3	196.33	91.302	42.151	7.2541e-06	104.34	6.2362e-05	3.1999e-05	8.3442e-06	670.78	3.9036e-07	3.5105e-07	1093.8	235.29	3.9727e-07	3.4319e-07	433.99	176.26	80.726	37.757	3.4153e-07	93.45	133.760	157.541	200.849	108.868	247.016	215.595	108.734	113.838	250.947	217.468	114.006	118.451	118.610	123.908	202.182	122.937	-8191	255	
23967.566	1	1	0	0	0.32908	0.043754	0.18241	0.21505	0.14206	0.18501	0.28771	0.16171	0.10782	0.12651	0.25879	0.25099	0.021516	0.22181	0.016938	0.24337	-3.1375	-4.2167	-4.1625	-3.6562	-4.525	-3.8271	-3.9833	-4.6729	-3.6312	-4.3021	-4.3938	-3.6854	-4.4646	-4.0437	-3.7062	-4.6979	402.789	339.910	355.228	371.165	453.246	253.179	415.457	372.309	433.297	305.943	382.010	365.468	100.769	112.287	188.036	445.340	0.0014644	0.0005133	0.00011691	733.2	4.1084e-06	2.4139e-06	1196.8	258.45	2.7339e-06	5.0372e-06	485.47	197.05	91.058	42.05	4.8942e-06	104.73	6.0659e-05	3.1284e-05	8.2404e-06	675.04	3.9732e-07	3.4489e-07	1101.7	235.88	3.9801e-07	3.4003e-07	436.93	176.55	80.969	37.82	3.4385e-07	94.007	134.622	148.862	194.669	109.191	226.488	156.499	109.006	114.121	208.280	208.067	114.344	118.605	118.771	124.146	208.772	123.109	-8191	255	
23967.662	1	1	0	0	0.14813	0.15118	0.087981	0.20518	0.024536	0.11601	0.25714	0.24006	0.10349	0.11285	0.20251	0.20004	0.1329	0.13268	0.07739	0.14521	-3.125	-3.925	-4.2937	-3.5792	-4.5	-4.0521	-3.7729	-4.6583	-3.4604	-3.9583	-4.5854	-3.6208	-4.6354	-4.2	-3.5563	-4.6458	293.973	253.125	334.900	400.425	282.535	417.287	382.969	100.246	120.736	256.774	392.887	432.474	224.816	396.218	439.495	338.790	0.0014629	0.00059859	0.0001645	738.83	4.7879e-06	3.8243e-06	1208.6	260.1	3.5091e-06	5.7722e-06	487.34	197	91.455	42.077	8.5131e-06	105.02	6.1605e-05	3.2425e-05	8.2909e-06	678.16	3.9239e-07	3.2855e-07	1111.6	237.14	4.0592e-07	3.4228e-07	439.35	177.83	81.531	37.85	3.7537e-07	94.417	135.716	162.697	193.292	108.710	211.751	211.050	109.215	114.123	224.214	239.982	113.482	118.309	118.111	123.681	218.853	122.696	-8191	255	
23967.760	1	1	0	0	0.21825	0.069468	0.089878	0.17648	0.10984	0.20632	0.20819	0.19042	0.19025	0.0095235	0.12852	0.37935	0.1705	0.25318	0.093364	0.23429	-3.3312	-3.9396	-4.3146	-3.5875	-4.1312	-4.0292	-3.7812	-4.5542	-3.6583	-3.8625	-4.5604	-3.6021	-4.3792	-4.2812	-3.45	-4.7354	110.678	285.462	312.489	185.373	151.362	401.462	348.407	434.915	387.218	360.357	160.575	422.782	390.935	379.135	275.839	408.393	0.0014708	0.00022673	0.0002152	740.88	2.9101e-06	3.4823e-06	1207	259.3	3.5343e-06	4.0677e-06	488.72	196.63	91.243	41.846	8.7245e-06	104	6.05e-05	3.1734e-05	8.8938e-06	682.33	3.7519e-07	3.3821e-07	1112.1	237.56	3.817e-07	3.4143e-07	439.37	176.82	81.156	37.65	3.9697e-07	93.325	132.335	163.459	186.014	108.096	244.954	208.650	108.119	113.036	226.884	216.815	113.527	117.915	117.749	123.327	203.339	122.173	-8191	255	
23967.879	1	1	0	0	0.16975	0.10797	0.22687	0.32457	0.21076	0.0085019	0.34807	0.28695	0.25014	0.097623	0.0064745	0.21602	0.17132	0.19268	0.13621	0.11124	-3.4396	-3.6979	-4.4354	-3.6729	-4.1521	-4.225	-3.4813	-4.5583	-3.7396	-3.7438	-4.6813	-3.7708	-4.1708	-4.3958	-3.35	-4.5	135.655	276.328	362.779	388.975	389.195	454.148	364.304	351.600	179.206	342.251	403.904	396.476	106.079	438.698	412.584	428.311	0.0014781	0.00059923	0.00022541	735.77	4.3059e-06	2.4764e-06	1196.5	257.68	2.4008e-06	3.1957e-06	485.58	195.09	91.303	41.545	7.4725e-06	103.73	6.0951e-05	3.1561e-05	9.5404e-06	679.87	3.5979e-07	3.248e-07	1102.3	235.68	3.6796e-07	3.0927e-07	436.75	176.01	80.632	37.405	4.1095e-07	93.026	132.050	153.465	170.906	108.278	225.199	203.172	107.964	113.082	233.539	209.005	113.587	117.885	118.114	123.197	203.766	122.641	-8191	255	
23967.977	1	1	0	0	0.35172	0.09781	0.15025	0.24474	0.29986	0.13377	0.33357	0.053832	0.23462	0.17257	0.17819	0.040209	0.22974	0.17109	0.087486	0.27949	-3.5542	-3.65	-4.55	-3.7104	-3.9938	-4.4417	-3.4271	-4.3313	-4.0771	-3.5125	-4.5646	-3.7792	-3.9979	-4.4625	-3.3854	-4.4646	124.637	217.596	252.263	362.306	344.362	288.185	352.363	359.786	170.142	178.401	445.203	359.037	318.671	372.090	136.699	418.680	0.0014533	0.00061747	0.00016396	731.75	3.336e-06	5.2559e-06	1188.1	258.29	4.1849e-06	3.3904e-06	482.32	195.3	90.626	41.01	6.9551e-06	103.12	5.8843e-05	3.0906e-05	1.0194e-05	674.62	3.5775e-07	3.2506e-07	1096.7	235.39	3.5101e-07	3.4879e-07	434.88	175.88	80.389	37.14	4.0954e-07	92.501	133.871	146.811	154.485	108.160	242.130	200.225	108.303	113.526	220.638	233.737	113.462	118.306	117.773	123.368	199.497	122.871	-8191	255	
23968.072	1	1	0	0	0.14145	0.18763	0.16799	0.16792	0.1959	0.10621	0.20854	0.26924	0.1899	0.091228	0.21472	0.1171	0.16674	0.30096	0.035659	0.13881	-3.7375	-3.6667	-4.5062	-3.8396	-3.8521	-4.4688	-3.4542	-4.2646	-4.1917	-3.5167	-4.5563	-3.9667	-3.8354	-4.5333	-3.3958	-4.3083	124.488	268.857	390.523	378.676	231.121	434.677	242.241	382.637	244.368	163.332	434.226	327.480	406.484	102.099	430.598	373.850	0.0015007	0.00054867	7.0362e-05	725.51	4.9414e-06	4.5299e-06	1184.1	255.2	3.5498e-06	2.7123e-06	479.39	195.2	89.607	41.185	7.1833e-06	102.69	5.7561e-05	3.319e-05	1.0019e-05	668.65	3.4674e-07	3.4886e-07	1089.2	233.25	3.316e-07	3.7082e-07	433.65	175.56	79.562	36.965	3.8715e-07	91.907	132.340	166.439	175.809	108.467	251.421	179.953	108.424	113.223	222.561	238.240	113.593	118.388	118.322	123.836	210.316	122.565	-8191	255	
23968.168	1	1	0	0	0.042259	0.045529	0.11875	0.17557	0.11315	0.15906	0.1378	0.17787	0.078238	0.10325	0.31722	0.075952	0.091305	0.025469	0.22861	0.30229	-3.95	-3.4625	-4.5104	-3.9167	-3.6937	-4.4187	-3.6917	-4.0521	-4.4313	-3.4188	-4.4458	-4.2438	-3.7708	-4.5188	-3.775	-4.0687	110.998	255.518	338.967	445.764	450.705	378.353	352.707	417.597	102.250	156.863	431.843	339.893	117.574	227.544	177.451	420.005	0.0014427	0.00039481	0.00010058	715.54	3.526e-06	5.1661e-06	1168.5	251.16	3.2183e-06	4.8477e-06	475.18	192.26	88.73	40.181	5.3666e-06	100.56	5.6319e-05	3.337e-05	9.1619e-06	658.88	3.2712e-07	3.6334e-07	1075	230.08	3.2625e-07	3.5689e-07	427.59	172.91	78.41	36.22	3.5175e-07	90.358	132.141	185.774	174.371	108.341	249.973	216.181	108.410	113.393	240.279	212.030	113.695	118.059	117.863	123.835	233.086	122.580	-8191	255	
23968.287	1	1	0	0	0.10903	0.037208	0.11796	0.088563	0.17077	0.088373	0.34007	0.1723	0.18831	0.26145	0.07623	0.3941	0.14068	0.05026	0.15646	0.068588	-3.9646	-3.3417	-4.3271	-4.2021	-3.5125	-4.6062	-3.9875	-3.8979	-4.4542	-3.5104	-4.45	-4.2208	-3.6625	-4.5917	-3.8042	-3.9313	127.105	99.516	213.109	384.803	176.745	261.463	392.279	115.104	323.402	267.395	397.412	367.348	340.593	335.021	255.386	118.234	0.0014372	0.00054274	0.00022098	708.13	4.5378e-06	4.0891e-06	1153.1	250.09	3.5223e-06	3.8794e-06	470.15	189.66	86.817	39.441	8.1733e-06	99.286	5.6643e-05	3.4831e-05	8.7978e-06	653.02	3.4333e-07	3.6889e-07	1063.4	227.89	3.4238e-07	3.6328e-07	423.87	171.36	77.399	35.587	3.3644e-07	88.966	135.923	169.613	187.136	108.348	222.584	202.288	108.331	113.392	207.974	202.435	113.746	118.230	118.269	123.739	224.963	122.754	-8191	255	
23968.357	1	1	0	0	0.079319	0.060094	0.20834	0.11808	0.2058	0.035268	0.18457	0.19224	0.19676	0.16681	0.17109	0.18903	0.083025	0.16497	0.12148	0.21869	-4.2958	-3.5042	-4.1458	-4.2042	-3.5417	-4.5208	-3.9708	-3.8438	-4.5625	-3.4021	-4.3812	-4.3854	-3.3917	-4.525	-3.8958	-3.8854	334.125	449.472	412.459	133.453	392.939	147.584	393.796	325.502	196.153	298.622	329.094	404.701	297.066	440.598	411.323	370.663	0.0013434	0.00040183	0.00016815	697.58	4.1857e-06	2.6481e-06	1134.4	244.79	2.7079e-06	5.9552e-06	465.3	189.82	85.938	38.919	5.1024e-06	98.184	5.5146e-05	3.3112e-05	7.9366e-06	641.02	3.4149e-07	3.4393e-07	1047	223.93	3.4606e-07	3.545e-07	419.38	170.09	76.36	35.075	3.2753e-07	88.199	136.005	153.078	147.239	108.286	241.543	183.734	108.550	113.429	224.529	195.403	113.492	118.245	117.978	123.335	227.147	122.626	-8191	255	
23968.455	1	1	0	0	0.2298	0.17849	0.070959	0.20678	0.10942	0.10959	0.25311	0.1384	0.056472	0.21279	0.24916	0.15189	0.058212	0.17143	0.21332	0.18051	-4.1979	-3.6542	-4.0062	-4.3583	-3.4854	-4.5563	-4.0708	-3.7292	-4.6271	-3.5521	-4.1167	-4.6125	-3.4688	-4.325	-3.9375	-3.6562	399.124	122.728	307.894	141.582	379.873	102.000	353.769	368.300	279.299	145.208	399.703	391.100	134.034	432.767	350.827	435.952	0.0014062	0.00034392	0.00013784	692.27	3.0232e-06	5.1934e-06	1137.7	246.61	5.0662e-06	5.3966e-06	467.71	188.82	86.645	39.003	4.9758e-06	98.434	5.7705e-05	3.1237e-05	8.0701e-06	638.88	3.4996e-07	3.432e-07	1047.1	224.69	3.6406e-07	3.2905e-07	420.8	170.3	76.474	35.029	3.0253e-07	88.027	134.383	161.915	164.714	108.381	241.942	224.443	108.400	113.074	236.713	224.631	113.222	118.162	117.843	123.531	217.918	122.979	-8191	255	
23968.551	1	1	0	0	0.1004	0.17257	0.13501	0.1562	0.1963	0.14958	0.30149	0.16202	0.062976	0.10592	0.22392	0.21615	0.21951	0.065574	0.1058	0.21391	-4.3104	-3.6729	-4.025	-4.4958	-3.6229	-4.2604	-4.2479	-3.625	-4.5479	-3.8625	-4.1188	-4.8458	-3.6167	-4.2083	-4.1646	-3.7625	385.921	241.163	334.872	387.512	399.568	243.441	368.706	383.569	170.360	171.035	421.003	319.335	111.247	393.391	421.019	382.645	0.0014446	0.00034824	0.00014003	694.67	5.2764e-06	3.3081e-06	1137.3	244.96	5.3503e-06	4.601e-06	465.88	188.2	86.035	38.752	4.7337e-06	97.503	5.8782e-05	2.9953e-05	7.3345e-06	638.32	3.7432e-07	3.1001e-07	1045.1	223.66	3.6694e-07	3.1487e-07	418.73	169.11	76.184	34.909	3.013e-07	87.522	136.161	174.053	178.141	108.585	244.278	194.639	108.426	113.245	204.359	230.101	113.562	118.103	118.133	123.461	212.542	122.628	-8191	255	
23968.646	1	1	0	0	0.078272	0.16865	0.1076	0.20865	0.20411	0.063004	0.17854	0.1299	0.15941	0.11579	0.17435	0.015148	0.14904	0.16152	0.11954	0.036183	-4.2125	-3.7583	-3.8812	-4.5042	-3.4458	-4.1208	-4.3917	-3.6125	-4.3187	-3.875	-3.8688	-4.5833	-3.7438	-4.0417	-4.325	-3.7	358.161	358.066	276.736	359.898	349.419	310.459	366.877	356.117	112.729	191.530	383.620	163.100	455.260	411.644	113.002	233.975	0.0013576	0.00025009	0.00010294	692.61	3.7861e-06	4.8024e-06	1133.2	244.13	2.5554e-06	2.2483e-06	463.63	188.59	85.249	38.24	5.7218e-06	97.274	5.6288e-05	2.8633e-05	7.4639e-06	636.51	3.5054e-07	3.0952e-07	1044.3	223.6	3.48e-07	3.1425e-07	417.82	169.11	75.791	34.588	3.0343e-07	87.256	133.058	162.088	165.189	108.402	217.648	199.172	108.778	113.387	203.858	199.531	113.680	118.589	118.636	123.521	205.707	122.954	-8191	255	
23968.768	1	1	0	0	0.2516	0.24853	0.27263	0.21644	0.18741	0.20315	0.067394	0.12285	0.10229	0.18739	0.15563	0.21975	0.19003	0.099286	0.15789	0.18094	-4.2479	-3.9771	-3.6937	-4.7146	-3.55	-3.8208	-4.5521	-3.2792	-4.3583	-3.9125	-3.6458	-4.6167	-3.5812	-3.8875	-4.4792	-3.8667	176.265	153.432	113.821	378.352	174.457	335.166	433.409	397.216	167.691	424.746	385.473	403.979	167.462	179.849	253.985	381.403	0.0014121	0.00034973	0.00011728	693.07	3.572e-06	4.2464e-06	1137.7	245.39	2.6367e-06	3.0977e-06	462.05	187.4	85.25	38.32	5.2023e-06	96.842	5.521e-05	2.7463e-05	7.7663e-06	638.17	3.4075e-07	3.0181e-07	1048	223.6	3.2516e-07	3.0157e-07	417.68	168.69	75.77	34.526	3.3419e-07	86.852	132.064	169.752	164.254	108.662	227.571	196.111	108.959	113.524	219.467	216.478	113.907	118.493	118.844	123.840	215.688	123.133	-8191	255	
23968.863	1	1	0	0	0.12336	0.045331	0.18077	0.065111	0.18834	0.094839	0.074858	0.11325	0.18509	0.045892	0.058464	0.10921	0.10906	0.086787	0.29591	0.39847	-4.0833	-4.0687	-3.4646	-4.6125	-3.7104	-3.8	-4.7438	-3.6583	-4.2083	-4.2438	-3.6229	-4.4771	-4.0229	-3.8563	-4.4938	-3.6708	377.541	343.117	454.647	179.588	272.415	360.703	385.144	388.243	328.089	342.979	397.407	412.706	268.135	244.311	232.072	444.891	0.0013463	0.00043962	0.00014612	697.76	4.1261e-06	3.5993e-06	1142.3	246.26	3.0072e-06	4.4596e-06	468.45	188.63	85.62	38.974	6.2083e-06	98.526	5.47e-05	2.771e-05	8.3693e-06	639.99	3.4258e-07	3.0386e-07	1051.3	225.22	3.2727e-07	3.0365e-07	421.86	169.89	76.042	34.936	3.5649e-07	88.152	136.659	156.313	180.524	108.781	246.264	207.522	109.013	113.728	219.837	215.273	113.853	118.834	118.786	123.981	199.533	123.095	-8191	255	
23968.961	1	1	0	0	0.14846	0.070566	0.052023	0.38043	0.265	0.16321	0.26998	0.12461	0.13441	0.13696	0.21477	0.071283	0.16421	0.066449	0.19033	0.19357	-3.7708	-4.1146	-3.5208	-4.5146	-3.8542	-3.5479	-4.7708	-3.6167	-4.0729	-4.2708	-3.6646	-4.5396	-3.9813	-3.7542	-4.5563	-3.9729	387.978	256.081	145.150	373.819	411.194	141.523	441.867	299.150	352.508	431.652	359.844	265.182	176.272	178.013	254.529	374.112	0.0014056	0.00037501	0.00012884	696.72	3.684e-06	2.5138e-06	1137.3	247.29	2.4413e-06	4.6591e-06	470.46	189.24	86.369	39.395	6.1449e-06	99.192	5.5437e-05	2.8193e-05	9.4254e-06	642.24	3.2558e-07	3.181e-07	1051.5	225.76	3.3781e-07	3.0343e-07	422.25	170.59	76.597	35.314	3.8186e-07	88.862	134.202	141.689	180.776	108.850	246.334	221.248	108.378	113.695	226.383	212.591	113.639	118.520	118.566	124.140	195.348	122.936	-8191	255	
23969.057	1	1	0	0	0.080133	0.064139	0.24289	0.22619	0.073955	0.112	0.13774	0.16971	0.11461	0.098042	0.24763	0.096246	0.10767	0.15505	0.20441	0.40561	-3.6958	-4.4146	-3.4708	-4.3792	-4.25	-3.6437	-4.5729	-3.6896	-3.9292	-4.4271	-3.6271	-4.4875	-4.2312	-3.5854	-4.5813	-3.9792	416.126	114.888	295.461	422.457	260.561	207.976	352.981	349.698	310.862	147.163	104.952	359.466	437.182	234.064	314.525	411.223	0.001382	0.00042918	0.0001705	699.15	2.9942e-06	4.8156e-06	1153.1	248.75	4.4325e-06	2.3788e-06	471.66	190.47	86.121	39.026	4.6476e-06	98.958	5.5064e-05	2.9504e-05	9.8952e-06	644.99	3.2711e-07	3.3198e-07	1058.7	226.23	3.3744e-07	3.2855e-07	423.04	170.32	76.537	35.182	3.9971e-07	88.639	135.808	165.992	176.024	108.442	257.210	205.877	108.366	113.307	224.376	194.850	113.796	118.310	118.312	123.684	195.893	122.968	-8191	255	
23969.152	1	1	0	0	0.34162	0.092868	0.1044	0.10958	0.17439	0.21077	0.26331	0.2143	0.088195	0.08342	0.14967	0.17858	0.063873	0.49529	0.11434	0.21653	-3.5021	-4.6937	-3.5375	-4.3667	-4.1979	-3.3958	-4.6729	-3.8292	-3.7958	-4.7063	-3.7188	-4.3917	-4.3458	-3.7167	-4.4333	-4.1479	190.087	148.560	237.689	411.355	364.980	126.004	408.206	404.270	355.660	157.578	448.358	434.919	319.562	395.108	118.989	378.089	0.0013884	0.00038239	0.00013995	702.97	4.3495e-06	4.4468e-06	1156	249.77	2.9761e-06	4.0773e-06	473.67	190.53	87.594	39.564	2.9825e-06	100.04	5.6702e-05	3.1836e-05	9.9137e-06	647.7	3.3959e-07	3.6847e-07	1061	227.97	3.4769e-07	3.6699e-07	426.79	171.89	77.44	35.744	3.9013e-07	89.961	131.890	167.525	174.437	108.254	244.858	232.403	108.468	113.203	214.969	252.617	113.613	118.719	118.567	124.390	167.182	123.366	-8191	255	
23969.248	1	1	0	0	0.16559	0.1454	0.16611	0.17524	0.10177	0.24721	0.24052	0.12946	0.15751	0.1119	0.067492	0.18409	0.036578	0.27785	0.085535	0.11196	-3.2833	-4.3646	-3.5896	-4.1229	-4.4896	-3.5458	-4.4896	-4.0354	-3.6083	-4.4146	-3.7167	-4.0458	-4.4771	-3.5667	-4.4542	-4.2167	218.067	422.253	399.869	403.864	114.788	104.479	358.412	413.119	322.135	110.671	425.290	399.701	235.901	148.429	399.984	336.558	0.0013642	0.00050628	0.00011639	712.64	3.3029e-06	2.3543e-06	1162.6	249.99	3.7805e-06	2.9791e-06	476.9	193.55	88.466	40.383	5.6965e-06	101.37	5.7303e-05	3.7896e-05	1.0369e-05	654.96	3.3906e-07	4.1232e-07	1066.9	229.36	3.5933e-07	4.1266e-07	430.02	173.57	78.092	36.33	3.789e-07	90.683	134.179	162.869	152.483	108.253	232.393	205.255	108.627	113.426	229.368	203.729	113.512	118.546	118.872	123.909	218.191	123.310	-8191	255	
23969.369	1	1	0	0	0.10327	0.091532	0.22476	0.14749	0.1725	0.0071848	0.21634	0.098409	0.19267	0.025697	0.33425	0.12433	0.12774	0.077555	0.2105	0.056833	-3.2625	-4.65	-3.7146	-3.9375	-4.2167	-3.4229	-4.4208	-4.2479	-3.3479	-4.5125	-3.9146	-3.8958	-4.4646	-3.4542	-4.2125	-4.2667	412.045	360.320	148.361	405.211	140.480	452.857	304.400	436.134	220.322	378.033	371.117	378.097	139.936	146.858	122.312	351.851	0.0014973	0.00044977	0.00016668	710.25	4.0536e-06	3.9479e-06	1164.8	251.84	2.5917e-06	5.0541e-06	479.66	194.77	88.089	40.474	5.3167e-06	101.99	6.0887e-05	3.7111e-05	9.7468e-06	655.43	3.6891e-07	4.1316e-07	1071.2	229.76	3.998e-07	3.9963e-07	432.21	174.6	78.519	36.55	3.8669e-07	91.522	134.377	144.131	188.560	108.577	250.210	228.163	108.817	113.664	213.458	206.899	113.562	118.578	118.736	124.113	237.765	123.255	-8191	255	
23969.463	1	1	0	0	0.25323	0.088315	0.32836	0.18846	0.25135	0.20615	0.20344	0.23998	0.20862	0.16322	0.17007	0.1559	0.10732	0.21648	0.10978	0.22218	-3.2792	-4.4313	-3.7438	-3.7646	-4.5729	-3.45	-4.3125	-4.2271	-3.4188	-4.4583	-4.0792	-3.8292	-4.6083	-3.7333	-3.9729	-4.4479	233.608	203.383	332.663	451.328	368.523	250.066	428.554	420.858	193.902	333.483	418.171	371.869	291.003	414.214	114.955	447.253	0.0014123	0.00049622	0.00014788	714.44	5.7732e-06	3.0921e-06	1165	252.64	4.6355e-06	4.8328e-06	481.09	194.97	88.897	40.779	4.3647e-06	102.38	6.3393e-05	3.6696e-05	9.1554e-06	658.27	3.953e-07	4.2492e-07	1076	230.56	4.318e-07	3.9888e-07	432.93	175.29	78.709	36.69	3.5966e-07	92.092	132.112	153.012	160.365	108.554	241.846	199.521	108.959	113.964	222.304	218.049	114.005	118.677	118.467	124.019	198.957	123.625	-8191	255	
23969.559	1	1	0	0	0.099102	0.16433	0.093662	0.2226	0.11009	0.054841	0.24234	0.14534	0.29092	0.24541	0.26417	0.22768	0.2084	0.18068	0.32634	0.11503	-3.1208	-4.3646	-3.9479	-3.7417	-4.5208	-3.6813	-4.3063	-4.3792	-3.4292	-4.3458	-4.0875	-3.7687	-4.5542	-3.6729	-3.8146	-4.7063	229.383	128.511	416.854	116.033	421.445	340.590	380.017	99.953	104.210	191.977	424.814	410.895	415.868	357.706	118.219	118.648	0.0014308	0.00036388	0.0001303	714.18	2.1545e-06	6.7382e-06	1168.1	253.72	4.2774e-06	4.0034e-06	482.42	195.23	88.389	40.594	7.4732e-06	102.38	6.43e-05	3.5708e-05	9.1693e-06	658.24	4.1056e-07	3.8573e-07	1075.5	231.55	4.3013e-07	3.9835e-07	434.77	175.4	78.583	36.599	3.7508e-07	91.7	133.073	167.471	174.532	108.752	267.888	194.107	109.114	113.801	224.558	227.914	114.090	118.909	118.557	124.048	210.448	123.474	-8191	255	
23969.656	1	1	0	0	0.085857	0.12524	0.19461	0.056055	0.14495	0.13117	0.219	0.033801	0.18803	0.096679	0.18428	0.078942	0.099407	0.19576	0.056035	0.27715	-3.1521	-4.25	-4.2271	-3.3896	-4.3313	-3.7708	-4.0604	-4.4688	-3.2833	-4.0979	-4.2833	-3.5667	-4.5021	-3.7375	-3.7583	-4.8146	229.234	189.356	187.567	404.696	97.966	200.248	401.479	444.779	245.963	113.735	116.069	424.230	417.913	432.913	251.797	415.486	0.0014789	0.00048643	0.00012242	714.22	3.2363e-06	3.3162e-06	1162.5	251.61	2.3913e-06	6.6226e-06	479.55	194.69	87.96	40.654	5.0951e-06	101.15	6.59e-05	3.4783e-05	8.8247e-06	657.38	4.2446e-07	3.8454e-07	1070.2	229.97	4.2372e-07	3.7495e-07	431.88	174.54	78.223	36.538	3.6319e-07	91.113	134.988	177.762	156.993	108.781	220.605	200.659	108.366	113.444	228.111	209.919	113.971	118.400	118.375	123.829	219.559	123.225	-8191	255	
23969.752	1	1	0	0	0.10964	0.21163	0.11343	0.086106	0.12581	0.27046	0.066348	0.22669	0.14823	0.21226	0.12495	0.27709	0.18258	0.25664	0.18412	0.33482	-3.1792	-4.1354	-4.2917	-3.5104	-4.5792	-3.9958	-3.8479	-4.6146	-3.4896	-4.1083	-4.4521	-3.4292	-4.3729	-4.0146	-3.6083	-4.6708	214.940	270.422	155.069	432.826	314.128	336.192	102.636	395.312	202.555	275.994	106.663	96.701	392.920	378.139	448.468	340.673	0.0014536	0.00031001	0.00019959	713.36	3.0883e-06	4.6047e-06	1163.1	253.93	3.0524e-06	6.1256e-06	481.72	194.63	87.83	40.47	5.7822e-06	102.18	6.3945e-05	3.3823e-05	8.9685e-06	656.76	4.0798e-07	3.625e-07	1068.5	231.26	4.1486e-07	3.5752e-07	433.53	175.1	78.23	36.536	3.9236e-07	91.499	135.366	169.535	177.545	108.302	237.475	161.548	108.470	113.585	228.006	218.589	113.983	118.543	118.414	123.988	228.362	123.386	-8191	255	
23969.848	1	1	0	0	0.15342	0.034304	0.22121	0.15332	0.36434	0.14202	0.10793	0.19359	0.069855	0.058036	0.15689	0.39594	0.11286	0.32488	0.17323	0.42397	-3.3229	-4.0396	-4.3667	-3.5875	-4.3167	-4.05	-3.5938	-4.5729	-3.65	-3.7792	-4.4833	-3.5542	-4.3958	-4.1542	-3.3792	-4.6083	389.264	234.464	416.366	448.728	190.344	141.425	122.303	378.852	371.259	247.318	300.314	436.201	290.869	451.676	211.239	381.948	0.0014041	0.00042171	0.00015296	708.62	3.8983e-06	2.7915e-06	1162.1	254.88	4.9096e-06	5.2622e-06	483.32	195.04	88.865	40.744	6.7581e-06	102.59	6.127e-05	3.4382e-05	9.3748e-06	656.9	3.991e-07	3.6323e-07	1071.1	231.74	4.0512e-07	3.639e-07	435.25	175.57	78.753	36.792	4.1398e-07	92.178	133.740	156.522	162.560	108.322	237.914	199.984	108.595	113.662	237.162	209.055	113.823	118.516	118.346	123.764	215.291	123.485	-8191	255	
23969.969	1	1	0	0	0.22932	0.010797	0.12815	0.058538	0.20594	0.094367	0.088529	0.20675	0.1086	0.17762	0.17808	0.17843	0.16041	0.09812	0.056224	0.11352	-3.5958	-3.7375	-4.5083	-3.5146	-4.1687	-4.1667	-3.6729	-4.5146	-3.8417	-3.8042	-4.775	-3.7438	-4.1458	-4.275	-3.3854	-4.5979	105.775	417.113	373.746	111.119	174.228	325.930	267.563	411.460	379.970	294.797	349.107	411.610	439.948	437.770	375.273	439.624	0.001498	0.00047416	0.00017218	717.63	3.78e-06	3.799e-06	1166	252.51	1.258e-06	5.6461e-06	483.1	194.9	88.392	40.861	6.5003e-06	102.99	6.0904e-05	3.1827e-05	1.0029e-05	660.2	3.8823e-07	3.4811e-07	1075.1	231.95	3.9363e-07	3.6368e-07	436.42	176.13	78.882	36.864	4.3939e-07	92.148	134.058	176.159	181.028	108.798	249.516	220.967	108.699	113.881	222.695	213.752	114.086	118.666	118.292	124.076	207.669	123.507	-8191	255	
23970.064	1	1	0	0	0.10951	0.18881	0.12751	0.13472	0.21045	0.19534	0.20128	0.20544	0.093712	0.19842	0.07516	0.11847	0.21106	0.14737	0.098577	0.15756	-3.6771	-3.6604	-4.375	-3.6104	-4.1104	-4.4021	-3.6375	-4.5292	-4.1021	-3.4042	-4.5625	-3.7104	-3.9917	-4.4479	-3.4417	-4.5167	403.846	137.768	392.940	437.435	298.552	180.507	240.410	376.902	146.857	279.377	350.056	374.279	264.460	142.997	376.558	415.217	0.0015533	0.00041929	0.00015571	716.5	5.8844e-06	3.986e-06	1165.5	253.26	4.2963e-06	3.5525e-06	482.56	194.79	88.391	40.526	8.8873e-06	101.93	6.2827e-05	3.4537e-05	1.0887e-05	658.85	3.8004e-07	3.5587e-07	1072.8	231.8	3.7588e-07	3.7896e-07	434.19	175.51	78.592	36.703	4.4153e-07	91.451	135.800	145.409	165.387	108.612	249.094	223.298	108.797	113.760	203.924	189.172	113.795	118.613	118.606	124.526	212.228	123.087	-8191	255	
23970.160	1	1	0	0	0.23954	0.089274	0.058532	0.2291	0.13975	0.14919	0.1675	0.15343	0.25294	0.16533	0.15778	0.19202	0.11444	0.28923	0.14734	0.21253	-3.825	-3.3479	-4.3938	-3.6604	-3.7438	-4.5687	-3.7938	-4.2417	-4.2146	-3.4833	-4.65	-4.0271	-3.7687	-4.6646	-3.5021	-4.3	121.006	242.204	242.188	398.855	319.200	429.330	374.151	423.037	198.187	95.436	119.432	419.576	293.384	390.776	308.754	379.373	0.0014596	0.0003362	0.00012559	714.82	2.1074e-06	4.719e-06	1168.6	253.61	2.8997e-06	4.0902e-06	482.45	194.69	88.492	40.89	2.795e-06	102.09	5.879e-05	3.556e-05	1.0765e-05	659.02	3.7686e-07	3.8169e-07	1075.6	231.01	3.6235e-07	4.0135e-07	434.86	175.53	78.535	36.821	4.2814e-07	91.585	133.735	143.880	173.677	108.538	251.971	183.087	108.633	113.275	242.086	226.068	113.726	118.140	118.152	123.822	210.063	122.834	-8191	255	
23970.232	1	1	0	0	0.096252	0.14192	0.066877	0.057825	0.087032	0.24834	0.24148	0.04401	0.04046	0.14119	0.090696	0.38606	0.046021	0.20458	0.038221	0.23638	-3.8458	-3.5021	-4.4542	-4.1125	-3.6646	-4.6333	-3.6792	-4.2125	-4.2396	-3.3833	-4.5563	-4.0833	-3.6979	-4.6542	-3.6271	-4.2042	423.057	230.057	240.113	300.171	308.291	444.795	363.815	145.793	305.819	429.122	349.445	447.504	135.699	284.929	436.869	417.926	0.0014379	0.00038878	0.00013161	718.32	4.5007e-06	5.7238e-06	1167.3	253.54	3.505e-06	3.1685e-06	488.14	195.38	88.924	40.756	7.3482e-06	102.37	5.9451e-05	3.8617e-05	1.0848e-05	659.6	3.8095e-07	4.2293e-07	1076.4	231.91	3.7584e-07	4.1361e-07	438.1	176.36	79.184	36.876	4.2545e-07	92.211	133.225	151.533	191.023	107.977	236.435	195.541	108.363	113.144	213.576	190.738	113.811	118.548	118.115	123.810	208.282	123.202	-8191	255	
23970.354	1	1	0	0	0.28046	0.090158	0.054839	0.16703	0.075327	0.12414	0.11036	0.086379	0.04525	0.11988	0.24233	0.10597	0.09687	0.11518	0.26949	0.14437	-4.1521	-3.5917	-4.3625	-4.1042	-3.6333	-4.5625	-3.8312	-4.0458	-4.2521	-3.5979	-4.3667	-4.0917	-3.6937	-4.5208	-3.5979	-4.0542	440.316	121.968	374.269	145.771	245.985	355.086	221.642	401.599	450.252	199.577	359.770	165.386	312.604	103.890	231.137	387.597	0.0014661	0.0004488	0.00014289	718.61	4.4465e-06	3.0254e-06	1175.5	256.23	4.1418e-06	4.5248e-06	485.55	196.35	88.808	41.043	6.7254e-06	102.66	6.0069e-05	3.9975e-05	1.0036e-05	662.3	3.9089e-07	4.1906e-07	1079.7	233.84	3.777e-07	4.3498e-07	437.92	176.96	79.032	36.986	3.9728e-07	92.078	134.624	164.057	178.052	109.099	227.898	217.497	108.699	113.704	220.319	205.512	114.098	118.455	118.816	124.427	191.096	123.638	-8191	255	
23970.447	1	1	0	0	0.1737	0.0693	0.07017	0.11962	0.19329	0.11852	0.13656	0.20574	0.12454	0.22169	0.067896	0.33935	0.15781	0.20714	0.19796	0.12167	-4.3042	-3.4188	-4.1958	-4.1562	-3.4	-4.5042	-3.9583	-3.9333	-4.3729	-3.4521	-4.2521	-4.2583	-3.4437	-4.525	-3.7708	-3.8979	218.656	102.038	294.226	384.039	293.580	170.296	404.236	452.328	383.573	404.761	413.704	411.642	115.257	420.327	135.605	411.284	0.0014432	0.00053071	0.00018729	719.74	3.3128e-06	2.6665e-06	1170.6	254.77	4.0524e-06	2.613e-06	486.74	196.26	89.279	40.807	6.0346e-06	101.63	6.2298e-05	4.0125e-05	9.9439e-06	662.72	3.9741e-07	4.1818e-07	1077.3	232.73	4.2046e-07	4.2689e-07	436.71	176.21	79.045	36.818	3.8536e-07	91.43	134.869	163.017	172.807	108.775	221.058	187.632	108.998	113.510	216.397	214.430	114.133	119.161	118.860	124.437	203.354	123.717	-8191	255	
23970.545	1	1	0	0	0.036475	0.23658	0.080796	0.1228	0.18958	0.23684	0.28149	0.36026	0.11715	0.098962	0.25769	0.10293	0.14781	0.14912	0.14579	0.10574	-4.2375	-3.3396	-4.0146	-4.4042	-3.4146	-4.4688	-3.8812	-3.5979	-4.5229	-3.5479	-4.1167	-4.4771	-3.4771	-4.2771	-4.0062	-3.7729	443.238	276.635	203.172	280.980	170.763	427.384	383.942	384.802	437.252	380.394	374.308	391.014	381.508	103.582	157.364	382.045	0.0014247	0.00049206	0.00014656	718.6	3.9835e-06	5.0225e-06	1174.8	254.41	5.1452e-06	6.1353e-06	487.74	196.9	89.325	41.071	7.1799e-06	102.68	6.4035e-05	3.8955e-05	9.6665e-06	663.45	4.5016e-07	4.0533e-07	1080.6	233.11	4.4746e-07	4.1983e-07	438.46	176.98	79.451	37.206	3.9002e-07	92.25	134.994	135.452	227.943	108.633	246.452	197.962	108.665	113.777	236.924	234.585	113.938	118.755	118.858	124.387	214.552	123.494	-8191	255	
23970.641	1	1	0	0	0.16762	0.14586	0.19266	0.16012	0.30842	0.24971	0.27274	0.18977	0.13967	0.10308	0.042753	0.337	0.16682	0.13376	0.15592	0.2277	-4.1958	-3.7188	-3.7729	-4.5667	-3.3208	-4.3562	-4.0833	-3.5333	-4.4292	-3.6792	-4.1458	-4.5479	-3.5708	-4.2833	-4.0896	-3.3833	97.177	135.164	247.570	415.159	123.738	298.590	440.295	342.374	162.209	400.352	395.041	96.435	284.232	390.768	180.808	379.140	0.0014412	0.00030406	8.4275e-05	727.81	3.7828e-06	2.2019e-06	1177.5	256.61	3.7297e-06	4.1386e-06	489.12	198.23	89.39	41.58	7.0478e-06	103.85	6.809e-05	3.8044e-05	9.6021e-06	667.85	4.7161e-07	4.0072e-07	1081.2	234.43	4.6547e-07	4.0068e-07	440.28	177.64	79.665	37.434	3.731e-07	92.992	133.578	144.655	191.588	108.764	265.618	199.753	108.836	113.859	211.132	215.933	113.998	119.123	119.032	124.462	195.464	123.327	-8191	255	
23970.760	1	1	0	0	0.12306	0.17184	0.16332	0.14502	0.11374	0.27964	0.35756	0.39531	0.20085	0.12964	0.15279	0.26273	0.077013	0.0415	0.32126	0.17258	-4.2125	-3.7104	-3.8333	-4.5458	-3.3979	-4	-4.3292	-3.4771	-4.4104	-3.8479	-3.7104	-4.6708	-3.5417	-4.225	-4.2	-3.7438	441.580	187.054	292.526	328.344	215.971	441.556	406.590	147.302	410.328	434.835	154.948	395.646	273.494	433.390	185.382	436.389	0.0014185	0.00040648	0.00023693	723.65	3.8429e-06	3.5423e-06	1175	255.53	4.2549e-06	2.4468e-06	488.1	197.66	89.218	41.442	5.9298e-06	102.9	6.694e-05	3.6373e-05	9.7194e-06	667.52	4.6785e-07	3.8115e-07	1083.2	233.95	4.5982e-07	3.9971e-07	440.2	177.56	79.503	37.458	3.785e-07	92.507	132.299	178.562	153.474	108.692	216.357	173.096	108.668	113.486	224.672	237.888	113.537	118.288	117.911	123.948	216.627	122.994	-8191	255	
23970.832	1	1	0	0	0.085431	0.12813	0.09194	0.11373	0.22754	0.1601	0.10782	0.099236	0.15006	0.13239	0.1395	0.044471	0.1146	0.12013	0.18998	0.25541	-4.0833	-3.9146	-3.6667	-4.6937	-3.6208	-4.1042	-4.5563	-3.5042	-4.3938	-4.0437	-3.8396	-4.6083	-3.6437	-3.8625	-4.2771	-3.4625	273.420	112.518	329.473	318.719	378.347	259.549	423.203	378.698	403.583	170.561	115.562	391.866	385.980	352.763	446.591	395.710	0.0014663	0.00042521	0.00015752	725.4	5.4388e-06	3.6895e-06	1172.3	255.25	3.8066e-06	6.012e-06	487.3	196.72	89.17	41.528	8.0598e-06	102.99	6.5972e-05	3.6268e-05	9.7092e-06	666.89	4.3753e-07	3.9165e-07	1078.7	233.49	4.3563e-07	3.8862e-07	439.45	177.05	79.316	37.521	4.0275e-07	92.521	134.819	159.890	182.157	108.310	237.029	214.790	108.489	113.541	213.952	210.153	113.719	118.531	118.182	123.853	210.619	123.031	-8191	255	
23970.928	1	1	0	0	0.098091	0.19152	0.095517	0.17978	0.052686	0.063219	0.12934	0.14344	0.22008	0.084732	0.42648	0.090129	0.20805	0.18983	0.13092	0.25149	-3.8021	-4.2146	-3.5187	-4.5417	-3.6292	-3.7271	-4.6729	-3.5042	-4.2042	-4.2792	-3.6667	-4.7937	-3.8208	-3.7917	-4.5146	-3.6271	214.150	240.436	309.035	417.264	244.761	127.199	346.229	111.078	203.710	126.314	415.010	256.345	452.140	116.178	434.590	332.414	0.0014404	0.00045721	0.00014527	721.78	4.5315e-06	1.3238e-06	1173.9	255.43	3.2237e-06	3.8681e-06	487.77	197.39	89.681	41.747	5.3272e-06	104.17	6.3243e-05	3.4831e-05	1.0692e-05	667.02	4.3261e-07	3.8538e-07	1080.6	233.72	4.1649e-07	3.8443e-07	439.93	177.84	79.57	37.808	4.4168e-07	93.433	133.900	164.373	160.959	108.737	243.636	155.835	108.383	113.343	246.163	218.908	113.540	118.611	118.638	124.137	209.763	123.352	-8191	255	
23971.049	1	1	0	0	0.096608	0.15717	0.072476	0.11531	0.14021	0.057813	0.15143	0.10852	0.23824	0.055263	0.10773	0.064721	0.2828	0.10238	0.17	0.22748	-3.8896	-4.1042	-3.2812	-4.5354	-3.8208	-3.5708	-4.7583	-3.5375	-4.0604	-4.2833	-3.5083	-4.5396	-3.9958	-3.8771	-4.5333	-3.5563	407.402	346.660	180.577	447.093	222.474	270.131	380.548	369.402	450.977	96.320	424.857	361.645	98.177	263.178	187.928	426.828	0.0014951	0.00051191	0.00018026	725.07	3.0672e-06	2.9345e-06	1175.3	256.49	2.5943e-06	4.5113e-06	491.18	198.52	89.385	42.096	5.6074e-06	104.41	6.4298e-05	3.5136e-05	1.1096e-05	667.24	4.1181e-07	3.861e-07	1085.7	234.92	4.0897e-07	3.8531e-07	443.39	178.42	79.584	38.038	4.7372e-07	93.866	133.680	174.532	185.619	108.589	234.941	221.701	108.743	113.536	236.208	233.289	114.095	118.450	118.595	123.981	213.728	123.217	-8191	255	
23971.145	1	1	0	0	0.21546	0.11856	0.18493	0.1973	0.10134	0.28986	0.21142	0.15826	0.046064	0.057709	0.098196	0.1561	0.20582	0.12972	0.027069	0.26036	-3.7708	-4.3208	-3.3854	-4.3938	-3.7875	-3.6792	-4.6667	-3.7188	-3.7167	-4.3208	-3.675	-4.3958	-4.0188	-3.4833	-4.525	-3.8042	362.119	386.573	358.342	418.679	186.016	370.673	111.879	444.871	251.217	269.987	424.511	437.502	433.545	378.936	299.629	364.191	0.0014466	0.00054787	0.00010983	726.84	4.5584e-06	4.0274e-06	1170.1	255.45	3.6348e-06	4.3936e-06	488.61	199.18	88.93	42.239	5.7998e-06	103.88	6.3658e-05	3.7048e-05	1.1815e-05	670.2	4.0211e-07	4.0074e-07	1085	234.42	4.1358e-07	4.0763e-07	441.95	178.37	79.18	37.912	4.7211e-07	93.435	132.511	173.117	189.092	108.370	244.624	219.348	108.560	113.456	226.458	230.640	113.834	118.968	119.115	124.250	208.228	123.335	-8191	255	
23971.240	1	1	0	0	0.22168	0.16942	0.22574	0.18829	0.12182	0.22664	0.12405	0.27975	0.094655	0.14953	0.082759	0.37545	0.20827	0.17151	0.16456	0.18646	-3.4979	-4.5375	-3.4375	-4.325	-4.2	-3.2625	-4.5958	-3.8521	-3.8563	-4.5938	-3.6958	-4.2875	-4.1188	-3.3625	-4.3	-4.0938	265.988	433.039	367.242	455.879	239.227	215.596	333.339	380.618	277.244	141.468	366.496	370.494	305.615	111.030	227.019	349.791	0.0014214	0.0005327	0.000122	725.73	4.1979e-06	3.6403e-06	1174.4	255.13	4.0626e-06	5.5659e-06	490.89	196.31	89.138	42.006	6.2511e-06	104.41	6.1409e-05	3.8441e-05	1.1972e-05	667.54	3.8816e-07	4.3805e-07	1080.7	233.98	4.0488e-07	4.3132e-07	441.87	177.23	79.295	38.077	4.6555e-07	93.666	136.684	190.127	199.702	108.701	232.212	175.247	108.675	114.153	224.359	208.948	113.854	118.544	119.066	123.747	212.760	123.351	-8191	255	
23971.359	1	1	0	0	0.064774	0.2076	0.087246	0.12037	0.13145	0.20249	0.12767	0.17126	0.16443	0.21181	0.30351	0.1569	0.10286	0.089483	0.053679	0.073878	-3.2562	-4.4625	-3.5417	-4.0042	-4.2	-3.3937	-4.5125	-3.9938	-3.5875	-4.6208	-3.7729	-4.1479	-4.3542	-3.5146	-4.2937	-4.1	424.025	290.865	117.560	431.238	175.944	147.756	411.960	403.612	111.094	181.477	141.029	176.874	331.078	372.069	383.102	208.710	0.0015007	0.00051653	0.00011747	727.34	2.5557e-06	3.5936e-06	1167.5	255.63	5.0677e-06	4.8462e-06	492.97	197.3	89.552	42.391	7.891e-06	104.9	6.2422e-05	4.069e-05	1.1187e-05	669.77	4.0952e-07	4.6203e-07	1077.6	234.18	4.1109e-07	4.4969e-07	443.08	177.89	79.234	38.229	4.3815e-07	94.153	133.436	143.398	181.882	108.542	243.063	229.048	108.788	113.942	246.904	209.449	113.891	118.794	118.917	124.203	227.998	123.279	-8191	255	
23971.455	1	1	0	0	0.25495	0.038913	0.16371	0.23925	0.26634	0.079304	0.067302	0.035942	0.085106	0.21692	0.19582	0.23041	0.14112	0.2952	0.10724	0.38958	-3.3167	-4.5437	-3.6708	-4.0917	-4.5437	-3.4688	-4.4833	-4.2833	-3.5167	-4.4854	-3.9458	-3.7833	-4.5062	-3.5375	-4.125	-4.2729	253.698	161.686	343.422	424.929	298.240	452.735	347.895	148.379	311.618	165.362	441.897	181.042	421.360	448.881	248.875	393.448	0.0014279	0.000441	0.00018147	729.31	3.0014e-06	3.0056e-06	1177.1	256.1	4.0768e-06	2.8286e-06	493.24	199.25	89.233	42.755	3.6592e-06	105.41	6.4346e-05	4.1798e-05	1.0877e-05	669.09	4.076e-07	4.8187e-07	1082.1	234.36	4.5088e-07	4.4444e-07	444.54	178.67	79.309	38.389	4.3308e-07	94.661	131.052	185.807	177.842	108.475	238.645	211.442	108.856	113.769	231.057	244.054	114.215	118.519	118.582	124.187	199.794	123.329	-8191	255	
23971.527	1	1	0	0	0.2751	0.32273	0.14186	0.12051	0.1537	0.024701	0.19793	0.090555	0.065386	0.078037	0.10923	0.2693	0.021857	0.091365	0.098005	0.083934	-3.2292	-4.4354	-3.7833	-3.8229	-4.4979	-3.5583	-4.2438	-4.2875	-3.3792	-4.2208	-4.0979	-3.7875	-4.5208	-3.5917	-3.8917	-4.2792	135.433	214.000	239.634	139.071	226.969	398.956	426.350	155.453	164.072	296.861	224.181	381.193	381.381	365.096	393.759	421.947	0.0015015	0.00031758	0.00013289	724.27	4.475e-06	2.7402e-06	1165.7	255.73	3.7499e-06	4.1889e-06	490.5	197.6	88.862	42.345	5.8159e-06	104.37	6.6771e-05	4.0593e-05	1.0578e-05	667.54	4.3512e-07	4.4857e-07	1076.9	234.14	4.7628e-07	4.4437e-07	441.92	177.5	78.96	38.154	4.144e-07	93.827	136.924	172.672	169.760	108.397	241.058	214.280	108.482	114.023	226.913	212.969	114.398	118.624	118.422	124.249	205.518	123.208	-8191	255	
23971.623	1	1	0	0	0.16135	0.045412	0.31631	0.22313	0.10426	0.094628	0.28245	0.23407	0.051438	0.13181	0.29015	0.11215	0.20823	0.1601	0.22049	0.21732	-2.9729	-4.3271	-3.9208	-3.825	-4.5563	-3.6292	-3.9562	-4.4896	-3.4271	-4.2854	-4.1021	-3.7167	-4.4812	-3.5917	-3.9938	-4.5208	300.087	175.971	267.831	302.677	246.081	356.674	130.802	395.121	425.777	251.590	395.518	427.523	106.232	419.772	165.578	355.927	0.0014485	0.00047719	0.00014337	721.89	3.8527e-06	2.6249e-06	1164.7	254.3	3.313e-06	3.745e-06	487.51	196.79	88.396	42.463	6.2722e-06	104.14	6.9674e-05	3.8507e-05	1.0418e-05	665.43	4.5281e-07	4.1396e-07	1073.3	232.69	4.5991e-07	4.0668e-07	440.05	176.89	78.83	38.17	3.9029e-07	93.876	131.801	164.098	191.589	108.642	260.490	215.997	108.945	113.975	234.007	245.386	114.124	118.818	118.731	124.374	241.836	123.501	-8191	255	
23971.744	1	1	0	0	0.010377	0.17717	0.045865	0.21828	0.025773	0.18518	0.15702	0.25026	0.026493	0.085078	0.27072	0.23639	0.16085	0.36801	0.062431	0.15806	-3.3625	-4.2812	-4.2208	-3.6729	-4.5125	-3.7396	-4.0062	-4.5687	-3.4813	-4.1875	-4.2063	-3.6479	-4.4521	-3.9542	-3.6292	-4.7312	378.099	176.642	309.847	412.637	257.411	109.943	326.178	454.538	204.948	275.865	428.168	319.159	363.644	409.167	148.556	375.188	0.0014615	0.00038698	0.00012244	722.06	3.7429e-06	3.4822e-06	1162.5	253.02	4.5109e-06	4.4372e-06	490.54	196.36	88.412	42.338	4.8848e-06	104.87	6.9857e-05	3.7381e-05	9.7435e-06	665.04	4.6658e-07	4.1652e-07	1073.1	232.45	4.6743e-07	4.0313e-07	442.06	177.24	78.675	38.12	4.0046e-07	94.09	135.176	140.104	157.108	108.696	254.789	195.623	108.738	114.183	237.560	220.315	114.155	118.785	118.704	123.941	227.443	123.619	-8191	255	
23971.842	1	1	0	0	0.17219	0.12527	0.2143	0.21742	0.084767	0.26215	0.22239	0.25115	0.11558	0.044751	0.26131	0.19749	0.1616	0.065008	0.091945	0.16391	-3.1708	-4.1521	-4.3354	-3.5312	-4.4688	-3.8917	-3.8333	-4.6	-3.4708	-3.8729	-4.425	-3.7396	-4.3771	-3.9646	-3.5938	-4.6875	249.072	406.759	144.276	344.092	447.160	96.869	364.060	128.614	164.899	313.632	311.209	402.663	448.270	122.384	370.865	137.807	0.001502	0.00034789	0.00015067	722.49	3.4625e-06	3.8564e-06	1170.6	254.07	4.8323e-06	5.4134e-06	492.99	198.25	89.047	42.43	4.9246e-06	104.59	6.9045e-05	3.6609e-05	1.0194e-05	665.37	4.6387e-07	3.989e-07	1075.9	233.32	4.4875e-07	4.079e-07	442.9	177.93	79.016	38.181	4.0721e-07	94.131	131.517	118.896	209.199	108.273	257.527	201.079	108.747	114.035	235.394	232.330	114.417	118.787	118.634	124.361	216.058	123.851	-8191	255	
23971.938	1	1	0	0	0.035487	0.16676	0.13884	0.13679	0.053087	0.1054	0.073949	0.14234	0.034428	0.14503	0.21192	0.24192	0.21697	0.036356	0.061481	0.16168	-3.3042	-3.9146	-4.3063	-3.2562	-4.2479	-4.1125	-3.8604	-4.4563	-3.6979	-3.8312	-4.5625	-3.4792	-4.2438	-4.1583	-3.5042	-4.6896	316.674	343.659	410.748	106.743	191.810	152.688	400.162	349.414	394.731	168.853	418.109	438.986	427.826	435.932	417.308	369.397	0.0015747	0.00040972	0.0001482	719.67	5.2353e-06	3.9068e-06	1160.3	253.94	4.721e-06	3.5567e-06	488.8	196.63	88.241	42.019	5.9394e-06	104.04	6.7463e-05	3.6838e-05	9.757e-06	665.86	4.2177e-07	3.8942e-07	1070.7	232.68	4.3556e-07	3.8615e-07	440.39	176.69	78.342	37.92	4.3558e-07	93.357	132.395	178.714	173.798	108.785	229.690	201.581	109.231	113.906	226.715	230.311	114.179	119.335	118.944	124.614	229.349	123.850	-8191	255	
23972.033	1	1	0	0	0.10502	0.041237	0.22007	0.087045	0.21618	0.15372	0.049036	0.15857	0.031063	0.17905	0.26839	0.024739	0.13228	0.27827	0.12184	0.11748	-3.4437	-3.7375	-4.5604	-3.5875	-4.2396	-4.1271	-3.5521	-4.5729	-3.8021	-3.6208	-4.5271	-3.7479	-4.1021	-4.2562	-3.3583	-4.6312	258.409	276.596	393.875	447.816	296.751	314.882	212.736	443.516	204.907	361.750	406.011	420.818	428.619	397.284	113.109	414.736	0.0014559	0.00045593	0.00012432	721.04	4.2928e-06	4.3351e-06	1159.8	255.46	2.4127e-06	3.6541e-06	487.18	195.99	88.81	42.378	4.6553e-06	104.28	6.4333e-05	3.5048e-05	1.0706e-05	664.69	4.2011e-07	3.791e-07	1070.5	232.61	4.2623e-07	3.8167e-07	440.41	176.57	78.707	37.935	4.6302e-07	93.792	133.851	160.760	167.217	108.749	239.550	218.165	109.239	114.354	214.160	210.923	114.495	118.784	118.810	124.454	208.654	123.825	-8191	255	
23972.129	1	1	0	0	0.090763	0.029141	0.12892	0.25546	0.26212	0.236	0.078602	0.33307	0.13089	0.070689	0.25311	0.10859	0.19521	0.077806	0.14582	0.24134	-3.4875	-3.5729	-4.4625	-3.6417	-4.0208	-4.2083	-3.5375	-4.4896	-4.0521	-3.4146	-4.5729	-3.7875	-3.9229	-4.3792	-3.4062	-4.4458	119.119	171.440	455.849	306.869	117.476	119.840	404.069	379.315	443.189	210.870	450.488	141.728	261.059	350.706	332.668	139.444	0.0014885	0.00030138	0.00013546	721.25	4.5255e-06	4.0671e-06	1168.5	253.22	4.4066e-06	4.9296e-06	488.37	197.34	88.417	42.032	7.6302e-06	105.03	6.3774e-05	3.6818e-05	1.1254e-05	664.23	4.0745e-07	3.7545e-07	1073.5	232.46	4.0974e-07	3.9235e-07	441.72	177.65	78.52	37.979	4.7409e-07	94.088	133.333	155.864	166.635	108.896	232.005	201.052	109.095	114.369	211.538	203.881	114.395	119.240	119.290	124.668	221.126	123.672	-8191	255	
23972.225	1	1	0	0	0.19786	0.2248	0.19006	0.36878	0.21557	0.10953	0.018811	0.17263	0.085878	0.0061336	0.059725	0.46608	0.10316	0.24405	0.1316	0.22543	-3.6688	-3.5333	-4.425	-3.5771	-3.6979	-4.3979	-3.6437	-4.45	-4.1208	-3.4813	-4.5958	-3.8375	-3.8167	-4.6125	-3.5	-4.35	428.221	216.781	331.830	352.338	286.504	204.110	302.655	444.898	243.239	453.623	257.642	399.910	179.916	121.469	449.707	442.124	0.0014811	0.00044196	0.00013933	727.1	4.3639e-06	5.5143e-06	1165.6	255.37	4.1402e-06	4.807e-06	490.53	198.08	88.657	42.141	6.0761e-06	104.98	6.3491e-05	3.7874e-05	1.16e-05	667.48	4.0146e-07	4.1329e-07	1076.6	233.27	3.9705e-07	4.2316e-07	443.59	177.89	78.767	38.112	4.7301e-07	94.257	132.110	168.408	171.097	109.208	231.064	217.272	109.005	114.136	229.615	224.650	114.296	118.978	119.200	124.505	197.916	123.581	-8191	255	
23972.322	1	1	0	0	0.14235	0.12481	0.19436	0.13739	0.025624	0.095029	0.40085	0.099652	0.21129	0.20974	0.18405	0.10545	0.17573	0.17179	0.1247	0.24386	-3.925	-3.4021	-4.425	-3.8917	-3.7083	-4.5479	-3.7083	-4.3562	-4.2271	-3.3875	-4.7104	-3.8812	-3.8625	-4.5958	-3.6688	-4.3021	219.463	235.413	194.774	127.370	109.484	298.948	407.370	164.557	266.374	144.823	399.443	328.246	102.090	452.357	106.046	423.068	0.0014636	0.000393	9.2887e-05	724.33	2.8286e-06	3.2254e-06	1167.1	254.52	4.1439e-06	3.8774e-06	488.88	196.23	88.128	42.433	6.6532e-06	104.56	6.2724e-05	4.0392e-05	1.1583e-05	666.86	3.9386e-07	4.3635e-07	1076.1	233.19	3.9996e-07	4.5304e-07	441.14	176.92	78.492	38.114	4.5371e-07	93.809	135.524	164.550	176.016	108.778	223.581	192.166	109.001	113.982	236.379	213.285	114.161	118.778	118.812	124.231	184.797	123.314	-8191	255	
23972.441	1	1	0	0	0.20145	0.18248	0.0873	0.20088	0.1828	0.085334	0.043577	0.14008	0.069853	0.26632	0.12655	0.10277	0.18034	0.087732	0.12329	0.12053	-4.0125	-3.5354	-4.3167	-4.0625	-3.6229	-4.5813	-3.8771	-3.9875	-4.35	-3.4521	-4.5229	-3.9854	-3.6771	-4.5938	-3.6937	-4.0375	260.261	256.518	405.459	429.195	251.615	99.279	351.475	346.133	227.784	140.929	111.658	424.361	119.488	393.274	251.561	328.263	0.0014932	0.00036964	0.00016162	722.41	4.3972e-06	3.7553e-06	1162.4	254.71	3.8314e-06	3.4721e-06	494.53	197.23	87.098	42.386	8.4145e-06	104.41	6.3148e-05	4.1698e-05	1.1441e-05	665.05	4.2142e-07	4.533e-07	1072.8	232.74	4.1185e-07	4.7238e-07	443.46	177.24	78.174	38.146	4.3229e-07	93.866	135.208	170.208	142.335	108.154	230.131	185.375	108.397	113.524	202.800	232.533	113.753	118.542	118.700	123.981	222.674	123.118	-8191	255	
23972.537	1	1	0	0	0.11736	0.22591	0.06538	0.27114	0.12661	0.083721	0.35154	0.045008	0.096145	0.11385	0.046328	0.24488	0.056486	0.13936	0.0618	0.19158	-3.9396	-3.4167	-4.2271	-4.1979	-3.4271	-4.5208	-4.0083	-3.8229	-4.5	-3.4604	-4.3396	-4.3063	-3.5438	-4.5396	-3.9313	-3.9708	302.371	160.940	318.986	381.958	146.204	228.885	427.453	360.770	253.166	386.297	178.450	372.348	443.738	445.045	111.832	352.942	0.0014929	0.000381	0.00013271	723.91	5.3072e-06	3.3861e-06	1173.7	255.48	2.9496e-06	6.705e-06	490.34	197.46	88.984	42.433	7.4765e-06	105.66	6.482e-05	4.3789e-05	1.0481e-05	665.94	4.3908e-07	4.514e-07	1078.2	233.09	4.2176e-07	4.5919e-07	443.82	178.08	79.047	38.356	4.3672e-07	94.803	133.481	148.185	169.207	108.263	237.247	216.259	108.739	113.678	199.829	200.210	113.990	118.908	119.029	124.121	191.064	123.806	-8191	255	
23972.633	1	1	0	0	0.16988	0.054339	0.22325	0.15999	0.12511	0.1271	0.052557	0.15882	0.042856	0.14186	0.27596	0.075931	0.038711	0.15767	0.063827	0.18023	-4.2729	-3.6021	-4.2479	-4.3708	-3.6208	-4.4958	-4.0125	-3.8333	-4.5083	-3.6854	-4.2271	-4.4042	-3.3125	-4.5125	-4.1417	-3.8146	401.721	127.289	373.973	347.068	425.343	219.231	399.548	121.788	160.957	200.916	443.608	142.583	382.072	212.632	182.926	433.766	0.0015286	0.00033166	0.00010468	727.59	3.1928e-06	2.2944e-06	1169.8	255.53	2.9485e-06	3.5416e-06	493.28	198.47	88.668	42.438	5.661e-06	105.44	6.8146e-05	4.14e-05	1.0521e-05	667.27	4.7832e-07	4.4013e-07	1078.9	233.77	4.6283e-07	4.363e-07	444.38	178.32	79.089	38.331	4.1759e-07	94.657	133.979	140.505	175.890	108.769	259.215	211.837	109.021	113.903	242.312	207.319	114.298	119.030	118.722	124.566	207.994	123.558	-8191	255	
23972.729	1	1	0	0	0.17048	0.16153	0.16531	0.13482	0.11605	0.080752	0.13858	0.21673	0.17269	0.098185	0.36661	0.2786	0.11646	0.14236	0.061633	0.28517	-4.3875	-3.5875	-3.95	-4.4958	-3.5125	-4.3104	-4.2708	-3.5854	-4.5	-3.8729	-3.9938	-4.3854	-3.5458	-4.2396	-4.1417	-3.7229	444.408	321.330	335.755	167.785	286.673	267.433	107.591	372.263	169.272	155.120	402.710	385.915	382.275	221.630	223.061	424.091	0.0015559	0.0006303	0.000157	724.32	2.8526e-06	3.2492e-06	1170	253.96	3.9155e-06	5.0649e-06	491.42	196.35	88.559	42.523	7.5323e-06	104.94	7.0754e-05	4.0092e-05	1.0183e-05	666.59	4.8865e-07	4.331e-07	1076.2	232.86	4.81e-07	4.2523e-07	442.43	177.05	78.744	38.156	3.9708e-07	94.19	135.317	150.211	190.305	108.891	221.156	190.195	108.990	114.465	218.764	244.191	114.356	119.101	119.058	123.963	218.949	123.817	-8191	255	
23972.824	1	1	0	0	0.13294	0.09243	0.21779	0.27782	0.062127	0.20782	0.30255	0.18961	0.068895	0.13231	0.26385	0.098124	0.10646	0.1554	0.30992	0.31528	-4.25	-3.7313	-3.9271	-4.5521	-3.5375	-4.1354	-4.2875	-3.6854	-4.6167	-3.9813	-3.8521	-4.6708	-3.5104	-4.1958	-4.0687	-3.7083	223.152	147.752	161.583	445.894	421.586	300.088	432.801	431.140	241.784	268.556	417.539	450.093	226.525	412.913	371.221	398.502	0.0014932	0.00058182	0.00013033	723.15	5.3908e-06	2.8998e-06	1167.6	255.76	3.4745e-06	4.7623e-06	489.7	197.39	88.623	42.159	5.8895e-06	105.23	6.8772e-05	3.7547e-05	1.009e-05	665.98	4.8277e-07	4.0693e-07	1075.2	233.23	4.7978e-07	4.1731e-07	442.66	177.73	78.691	38.123	3.9767e-07	94.394	133.173	174.741	192.671	109.186	223.698	193.836	108.709	113.618	239.981	218.186	113.879	118.705	118.302	123.947	216.126	123.272	-8191	255	
23972.922	1	1	0	0	0.25975	0.17251	0.17138	0.2423	0.15277	0.14763	0.1493	0.19293	0.11633	0.15704	0.22356	0.23389	0.1551	0.18311	0.18743	0.21683	-4.2271	-4.0312	-3.6833	-4.5167	-3.4833	-3.9875	-4.5625	-3.5708	-4.3271	-4.0125	-3.7146	-4.6146	-3.5583	-3.9354	-4.2792	-3.4938	203.804	417.763	250.488	124.339	253.121	408.847	340.485	376.899	413.701	404.159	122.003	455.135	395.733	418.741	197.569	427.714	0.0014822	0.00036412	0.0001386	727.31	1.8718e-06	4.6361e-06	1165.4	256.41	4.459e-06	3.6191e-06	496.68	198.34	89.06	42.271	3.4279e-06	105.86	6.9054e-05	3.7569e-05	1.0295e-05	670.39	4.5688e-07	4.1661e-07	1078.5	233.99	4.6021e-07	4.011e-07	445.6	178.64	79.028	38.287	4.217e-07	94.994	134.278	184.204	180.454	108.977	240.968	196.790	108.630	113.660	223.159	242.157	114.042	118.653	118.553	123.756	206.504	123.188	-8191	255	
23973.043	1	1	0	0	0.064407	0.085983	0.19585	0.38605	0.059357	0.19367	0.2374	0.23424	0.28155	0.17226	0.1348	0.28626	0.24827	0.18828	0.10468	0.081063	-3.9208	-4.0104	-3.5854	-4.7854	-3.7417	-3.9188	-4.5917	-3.3958	-4.2875	-4.1292	-3.5354	-4.6562	-3.7021	-4.0375	-4.4667	-3.5708	215.573	100.518	308.482	434.031	275.840	377.133	405.734	348.790	389.440	223.309	377.633	363.860	444.654	449.408	113.410	97.437	0.0014979	0.00040511	0.00018505	725.34	3.9276e-06	3.6868e-06	1170.6	256.05	2.2662e-06	3.5794e-06	491.45	198.08	88.668	42.37	7.0958e-06	105.19	6.6539e-05	3.7694e-05	1.0898e-05	669.44	4.5704e-07	3.9851e-07	1082.8	234.25	4.4635e-07	3.9114e-07	444.18	178.59	78.694	38.207	4.526e-07	94.495	133.905	140.657	179.158	108.139	250.534	196.962	108.967	113.538	214.237	213.976	113.522	118.860	118.527	124.053	207.192	123.295	-8191	255	
23973.139	1	1	0	0	0.19586	0.15895	0.16412	0.18913	0.048986	0.16474	0.23155	0.1499	0.19136	0.11008	0.22532	0.11566	0.20769	0.14733	0.025231	0.14101	-3.8792	-4.2167	-3.4313	-4.4854	-3.7292	-3.7687	-4.5271	-3.7292	-4.2104	-4.2229	-3.5292	-4.4229	-4.0271	-3.6688	-4.525	-3.5979	208.385	259.957	382.677	385.287	155.459	281.258	437.727	384.003	369.618	438.377	437.262	424.726	96.567	271.200	309.112	443.724	0.0014752	0.00050784	0.00015013	728.21	3.7196e-06	4.9509e-06	1167.7	256.26	3.9553e-06	4.078e-06	491.45	197.17	88.217	42.231	4.6726e-06	104.34	6.5907e-05	3.5876e-05	1.182e-05	670.19	4.4298e-07	3.9119e-07	1078.7	234.04	4.2534e-07	3.8225e-07	443.31	177.6	78.572	38.066	4.725e-07	94.021	134.206	144.954	178.310	108.644	250.578	218.373	108.773	113.933	220.347	207.786	113.814	118.604	118.644	124.473	173.842	123.375	-8191	255	
23973.234	1	1	0	0	0.11247	0.11179	0.072063	0.060144	0.021049	0.18566	0.068966	0.1868	0.081916	0.076633	0.1625	0.31563	0.057094	0.12556	0.22765	0.26139	-3.4854	-4.1292	-3.3937	-4.5792	-3.8937	-3.5896	-4.8667	-3.5708	-3.8271	-4.3938	-3.6083	-4.4917	-4.0729	-3.7083	-4.5271	-3.7708	125.941	145.909	347.077	182.374	291.924	187.136	400.525	387.738	259.803	186.384	455.275	411.980	165.456	380.976	227.480	335.886	0.0014714	0.00041243	0.00017038	728.37	2.1647e-06	3.2126e-06	1177	256.47	3.9298e-06	5.8157e-06	493.57	198.2	88.487	42.495	5.1436e-06	105.41	6.5058e-05	3.6756e-05	1.2102e-05	668.9	4.2144e-07	4.1501e-07	1081.6	234.37	4.1726e-07	4.0741e-07	445.4	178.48	78.916	38.228	4.7868e-07	94.656	133.343	159.010	175.055	108.965	250.839	213.229	108.870	114.184	244.551	202.648	114.117	118.724	118.730	124.018	233.140	123.318	-8191	255	
23973.328	1	1	0	0	0.1446	0.13483	0.20745	0.28532	0.074348	0.10707	0.27595	0.068855	0.20917	0.042928	0.17077	0.19783	0.1779	0.44505	0.14707	0.14289	-3.6312	-4.4667	-3.3646	-4.3396	-4.2021	-3.5438	-4.7208	-3.9292	-3.7062	-4.5792	-3.6646	-4.175	-4.2958	-3.6042	-4.5042	-3.8542	394.370	330.834	243.537	103.381	402.991	292.886	398.730	134.154	126.748	314.526	390.345	392.502	108.614	424.682	230.601	422.826	0.0014735	0.00057094	0.00018604	725.82	3.7308e-06	3.532e-06	1178	257.16	3.6869e-06	3.0322e-06	494.15	198.01	89.004	42.465	6.0634e-06	105.63	6.1848e-05	3.9405e-05	1.2191e-05	669.63	3.9668e-07	4.4406e-07	1084.9	234.79	4.0335e-07	4.4953e-07	446.38	178.92	79.239	38.282	4.7599e-07	95.004	134.124	135.012	156.342	108.459	228.900	210.270	108.736	113.909	214.184	222.383	114.159	118.706	118.845	124.173	193.604	123.435	-8191	255	
23973.426	1	1	0	0	0.037728	0.11389	0.014264	0.29146	0.057419	0.25971	0.14304	0.29953	0.13865	0.12838	0.21503	0.21249	0.24967	0.061869	0.06436	0.33249	-3.2979	-4.475	-3.4604	-4.0979	-4.2458	-3.4708	-4.5396	-3.8021	-3.5771	-4.4375	-3.6396	-4.1271	-4.3896	-3.4042	-4.3146	-4.1521	127.221	231.233	182.068	380.153	137.459	402.759	398.274	400.413	303.603	385.867	97.884	145.388	119.567	387.691	385.309	404.530	0.0016248	0.00031586	9.6806e-05	724.44	4.1044e-06	4.2527e-06	1173.9	256.44	4.9465e-06	3.2499e-06	493.73	198.37	89.227	42.212	4.5915e-06	104.89	6.5706e-05	4.2233e-05	1.1717e-05	670.55	4.0495e-07	4.8088e-07	1081.3	234.17	4.2359e-07	4.5673e-07	444.72	178.48	78.819	38.095	4.5947e-07	94.162	137.311	162.276	207.615	108.791	236.537	199.863	108.867	113.785	221.570	177.953	114.070	118.884	118.959	124.279	233.015	123.311	-8191	255	
23973.521	1	1	0	0	0.13852	0.12712	0.10192	0.087408	0.043108	0.26291	0.15758	0.32762	0.063206	0.023075	0.13011	0.038115	0.1913	0.1866	0.19455	0.14425	-3.1667	-4.3375	-3.7438	-4	-4.3896	-3.4229	-4.3667	-4.2125	-3.3729	-4.5021	-3.8917	-3.9729	-4.5375	-3.6542	-4.2333	-4.2875	222.440	262.175	376.171	282.577	429.324	430.186	102.324	387.263	328.610	134.554	397.679	443.113	121.668	440.206	98.468	421.228	0.0014528	0.00032624	0.00016125	727.33	3.5187e-06	1.9161e-06	1170.9	255.29	4.6658e-06	5.3846e-06	492.01	197.88	88.046	42.1	5.6228e-06	104.92	6.5063e-05	4.3828e-05	1.1083e-05	668.95	4.3239e-07	4.7732e-07	1080.7	233.95	4.4426e-07	4.8092e-07	444.24	177.81	78.643	38.103	4.3714e-07	94.123	135.044	177.230	168.941	108.574	251.032	253.157	108.904	114.048	219.668	208.413	114.147	118.684	119.151	124.291	211.776	123.457	-8191	255	
23973.617	1	1	0	0	0.09608	0.1155	0.16703	0.084847	0.22855	0.19614	0.23214	0.090246	0.18897	0.090346	0.27834	0.23417	0.095251	0.31575	0.31141	0.26786	-3.2104	-4.3667	-3.7896	-3.8	-4.2417	-3.5125	-4.2438	-4.2104	-3.4437	-4.3333	-3.9917	-3.7375	-4.4771	-3.7042	-4.1542	-4.2479	364.431	228.755	353.521	152.175	343.662	340.924	363.104	438.123	131.231	393.430	424.707	339.448	431.356	97.853	152.994	380.121	0.001493	0.00062212	0.00013473	726.57	4.7641e-06	3.3249e-06	1171.2	255.55	4.0182e-06	3.9799e-06	494.76	197.63	88.141	42.111	8.1315e-06	104.85	6.9476e-05	4.2241e-05	1.0746e-05	667.42	4.5425e-07	4.714e-07	1079.9	233.69	4.885e-07	4.5553e-07	444.58	177.96	78.769	38.112	4.4321e-07	94.288	132.842	155.176	194.765	108.515	234.253	197.369	108.899	113.784	218.013	210.959	114.061	118.527	119.022	124.334	216.172	123.407	-8191	255	
23973.713	1	1	0	0	0.14491	0.19524	0.2522	0.12578	0.15227	0.12623	0.16877	0.19761	0.12628	0.24271	0.20976	0.062611	0.19137	0.29124	0.057638	0.24177	-3.0979	-4.3333	-3.8688	-3.6688	-4.6167	-3.4354	-3.9813	-4.4292	-3.4062	-4.2562	-4.0667	-3.7188	-4.6229	-3.7938	-4.0104	-4.4771	261.914	292.725	179.104	434.431	309.235	294.915	289.949	100.999	301.657	108.634	420.860	411.023	434.513	393.343	132.518	419.537	0.001436	0.00040733	0.00017023	729.52	6.3208e-06	3.2279e-06	1177.3	255.78	3.1418e-06	4.6984e-06	497.02	198.03	88.754	42.322	5.7615e-06	105.34	6.9486e-05	4.1113e-05	1.0585e-05	670.04	4.852e-07	4.4439e-07	1083.8	233.82	4.9727e-07	4.4157e-07	446.47	178.74	79.004	38.081	4.0857e-07	94.515	132.642	131.971	166.430	108.773	254.544	175.651	108.959	113.890	216.956	227.235	114.073	118.836	118.967	124.240	235.044	123.662	-8191	255	
23973.834	1	1	0	0	0.18161	0.11575	0.14626	0.24427	0.13261	0.16127	0.086022	0.1096	0.15327	0.31867	0.22731	0.23201	0.13611	0.30064	0.059194	0.16252	-3.1875	-4.2104	-4.1208	-3.5396	-4.6312	-3.7375	-3.9417	-4.6687	-3.4792	-4.1937	-4.1396	-3.5271	-4.4896	-3.9375	-3.7104	-4.5437	405.295	294.308	431.268	371.570	376.633	177.409	406.027	352.216	242.905	194.979	407.715	416.741	166.205	432.633	186.882	382.605	0.0014668	0.00044004	0.00018532	726.65	4.0161e-06	3.8995e-06	1173.4	255.13	3.4359e-06	5.2806e-06	491.63	196.89	88.531	42.15	6.3078e-06	104.48	7.0032e-05	4.0107e-05	9.9977e-06	669.87	4.6687e-07	4.2151e-07	1080	233.58	4.7391e-07	4.1079e-07	443.36	177.41	78.578	37.9	3.8923e-07	93.8	134.396	173.951	183.068	108.827	217.149	193.611	108.929	114.012	243.025	193.362	114.337	119.057	118.925	124.585	213.141	123.743	-8191	255	
23973.930	1	1	0	0	0.18468	0.045027	0.24928	0.070467	0.099007	0.15015	0.1188	0.17607	0.03108	0.16603	0.087914	0.26802	0.25344	0.14483	0.17732	0.063799	-3.3396	-4.1438	-4.3167	-3.4083	-4.3104	-3.9521	-3.7646	-4.5271	-3.3646	-4.1896	-4.4646	-3.5187	-4.375	-3.9042	-3.7479	-4.7	334.810	231.347	155.596	408.494	298.090	308.594	435.969	382.158	255.425	190.046	392.732	214.466	103.217	405.920	256.751	287.351	0.0013983	0.00032484	8.6821e-05	725.84	3.8897e-06	5.208e-06	1168.9	255.84	4.9162e-06	5.9343e-06	492.95	197.01	88.865	42.13	3.8818e-06	104.47	6.9324e-05	3.7586e-05	9.7598e-06	669.22	4.6395e-07	3.9771e-07	1077	233.52	4.6033e-07	4.1486e-07	443.26	177.21	78.59	37.933	3.9668e-07	94.116	135.096	158.962	150.916	109.073	227.410	227.247	109.275	114.156	220.867	224.921	114.278	118.866	118.626	124.329	181.929	123.775	-8191	255	
23974.002	1	1	0	0	0.12048	0.084864	0.20052	0.050832	0.15138	0.14027	0.30756	0.089642	0.1596	0.14812	0.31874	0.14963	0.052638	0.29778	0.30544	0.13584	-3.1	-3.8875	-4.2604	-3.4771	-4.35	-3.9688	-3.6562	-4.5437	-3.6	-3.8729	-4.4167	-3.6625	-4.25	-4.2521	-3.4313	-4.525	200.547	203.824	345.696	249.960	215.998	384.944	435.107	402.197	421.976	147.346	358.509	409.868	450.270	130.415	262.550	379.659	0.0015098	0.00050459	0.00018085	726.35	5.0123e-06	4.5643e-06	1174.3	255.53	3.5521e-06	4.6153e-06	493.41	197.45	88.468	41.993	4.2738e-06	105.09	6.6495e-05	3.7024e-05	9.8344e-06	669.43	4.3706e-07	3.8991e-07	1079.8	233.78	4.2833e-07	3.8253e-07	444.47	178.07	78.427	38.015	4.2227e-07	94.457	136.319	138.231	196.335	108.771	234.525	208.066	109.145	114.246	231.559	188.224	114.351	118.380	118.057	123.411	226.970	123.154	-8191	255	
23974.121	1	1	0	0	0.22407	0.027709	0.098634	0.052931	0.19466	0.11364	0.097825	0.05838	0.17746	0.057423	0.14756	0.13968	0.1239	0.080788	0.23631	0.11769	-3.1646	-3.5917	-4.3021	-3.7396	-4.2	-4.125	-3.6229	-4.5021	-3.6771	-3.6979	-4.4667	-3.5729	-4.1333	-4.1083	-3.3937	-4.4917	364.151	350.830	129.642	170.786	204.953	277.449	454.602	431.371	383.451	288.205	437.471	327.651	262.155	288.323	448.036	244.238	0.0015237	0.00049017	0.00011357	728.87	2.7808e-06	3.2833e-06	1169.2	255.77	5.0896e-06	3.1128e-06	498.1	198.16	88.922	41.991	5.3659e-06	105	6.4459e-05	3.6179e-05	1.0272e-05	670.7	4.1319e-07	3.7424e-07	1081.2	233.97	4.1986e-07	3.8339e-07	447.03	178.36	78.726	37.982	4.4682e-07	94.524	135.723	165.631	165.770	108.236	244.378	177.493	108.338	113.461	227.829	212.548	113.769	118.769	118.155	123.900	214.109	123.106	-8191	255	
23974.219	1	1	0	0	0.15332	0.072669	0.056227	0.17924	0.058416	0.098261	0.084073	0.28837	0.17278	0.1927	0.19633	0.11327	0.23328	0.084449	0.086276	0.099347	-3.4875	-3.7562	-4.2625	-3.4292	-4.0708	-4.1646	-3.6333	-4.4667	-4.0188	-3.525	-4.5563	-3.7729	-3.9104	-4.3458	-3.3458	-4.525	404.913	268.363	146.659	376.361	214.235	362.453	157.648	349.486	303.039	232.168	204.996	453.026	198.886	203.209	273.857	437.565	0.0014919	0.00039709	0.00012546	726.88	4.5194e-06	3.3239e-06	1169.4	254.6	3.9829e-06	4.7233e-06	492.1	196.94	88.121	42.12	5.4669e-06	104.34	6.3502e-05	3.5278e-05	1.1517e-05	670.45	4.0556e-07	3.7877e-07	1079.8	233.61	3.9954e-07	4.0413e-07	444.76	177.49	78.294	37.896	4.7844e-07	93.862	133.170	105.924	193.124	108.356	237.368	228.066	108.691	113.651	210.389	220.100	113.998	118.445	118.748	124.447	214.930	123.473	-8191	255	
23974.314	1	1	0	0	0.2137	0.21073	0.13127	0.18264	0.063014	0.21369	0.081712	0.2725	0.056154	0.071291	0.15999	0.26206	0.28383	0.16759	0.14719	0.1594	-3.6896	-3.4708	-4.4938	-3.6708	-3.675	-4.3542	-3.5458	-4.3187	-4.0979	-3.5604	-4.5813	-3.8896	-3.8625	-4.4563	-3.4333	-4.4271	246.207	369.783	416.478	399.570	271.848	455.246	361.583	431.679	175.305	207.588	408.722	95.825	159.152	172.407	441.289	182.856	0.0014083	0.00056286	0.00017068	725.27	3.9112e-06	2.28e-06	1169.7	255.56	2.8737e-06	4.5226e-06	490.68	198.18	88.552	42.012	6.6431e-06	104.7	6.1481e-05	3.6751e-05	1.1572e-05	669.46	3.9163e-07	4.0056e-07	1078.1	233.42	3.9197e-07	4.0756e-07	442.95	177.54	78.408	37.978	4.6994e-07	94.205	135.421	154.106	172.159	108.450	229.387	191.503	109.035	113.754	217.542	199.756	113.942	118.780	118.706	124.227	214.129	123.392	-8191	255	
23974.410	1	1	0	0	0.22217	0.17953	0.040751	0.2751	0.028768	0.13958	0.18264	0.25985	0.19424	0.03895	0.089803	0.041863	0.11445	0.22764	0.19394	0.15726	-3.8333	-3.4458	-4.475	-3.8271	-3.7	-4.4417	-3.7396	-4.2375	-4.2292	-3.4146	-4.3729	-4.0062	-3.7938	-4.4667	-3.4813	-4.1583	182.982	405.202	387.043	114.170	272.196	199.236	415.511	428.018	357.259	388.723	422.078	433.839	130.887	144.270	207.366	385.831	0.0015268	0.00044275	0.00011025	726.97	4.9447e-06	2.3986e-06	1167.7	255.06	5.0358e-06	3.9331e-06	491.26	197.83	88.493	42.236	6.6165e-06	105.34	6.3602e-05	3.8516e-05	1.1333e-05	670.02	3.9579e-07	4.252e-07	1079	233.79	3.9982e-07	4.4069e-07	444.7	178.06	78.378	38.157	4.5402e-07	94.786	133.479	173.008	179.969	108.880	236.052	196.764	108.956	113.688	230.231	256.216	113.878	118.762	118.462	124.163	234.056	122.914	-8191	255	
23974.529	1	1	0	0	0.218	0.13421	0.10954	0.16225	0.15084	0.054477	0.14535	0.012695	0.15374	0.20686	0.2228	0.18287	0.14109	0.067417	0.049152	0.22519	-4.0979	-3.3646	-4.3292	-4.1083	-3.5312	-4.4146	-3.7958	-4.0188	-4.3375	-3.3354	-4.5083	-4.1833	-3.5125	-4.4458	-3.7479	-3.9667	107.439	243.204	118.148	232.016	371.443	107.998	422.326	446.324	393.423	180.708	120.523	99.473	213.146	112.729	393.685	434.825	0.0014794	0.00043384	0.00013641	729.43	3.0356e-06	4.7541e-06	1172.4	255.66	4.5303e-06	5.0761e-06	495.08	198.14	88.531	42.303	4.0577e-06	105.5	6.2471e-05	4.3156e-05	1.0954e-05	670.36	4.0088e-07	4.4001e-07	1082.5	233.9	4.0244e-07	4.5125e-07	445.74	178.35	78.523	38.213	4.2615e-07	94.88	134.297	130.627	206.355	108.455	221.522	204.147	108.599	113.530	206.239	216.624	113.934	118.277	118.298	124.100	223.703	122.920	-8191	255	
23974.627	1	1	0	0	0.13963	0.12352	0.089295	0.22694	0.16533	0.15549	0.21628	0.36561	0.11575	0.10608	0.19729	0.27271	0.1277	0.13867	0.30021	0.04822	-4	-3.4188	-4.2458	-4.1229	-3.5833	-4.5563	-3.8563	-3.9958	-4.4771	-3.4229	-4.2438	-4.1813	-3.4729	-4.625	-3.6188	-3.9083	183.947	334.939	107.821	430.856	441.229	372.151	424.914	400.400	376.388	422.041	416.652	153.078	375.539	412.122	323.970	340.488	0.001556	0.00046038	0.00012133	728.6	3.3523e-06	3.5509e-06	1160.9	254.27	5.9207e-06	5.1907e-06	489.1	196.4	88.047	41.91	7.4859e-06	104.47	6.4328e-05	4.3663e-05	1.0338e-05	669.22	4.2825e-07	4.5197e-07	1074.3	232.53	4.3404e-07	4.4905e-07	441.87	176.79	78.11	37.92	4.0592e-07	93.949	133.741	189.704	198.299	108.496	221.449	215.256	108.617	113.316	218.606	218.855	113.861	118.553	118.448	124.053	207.833	123.324	-8191	255	
23974.723	1	1	0	0	0.13992	0.036946	0.081885	0.23467	0.051671	0.18982	0.45223	0.09029	0.054482	0.22528	0.068893	0.03319	0.14729	0.15122	0.097705	0.15605	-4.2146	-3.4208	-4.0396	-4.3938	-3.4333	-4.45	-3.8708	-3.7104	-4.3729	-3.2333	-4.0437	-4.3438	-3.2625	-4.3104	-3.8542	-3.7667	365.213	359.072	425.163	422.145	344.010	229.075	395.622	118.810	382.317	309.438	103.154	389.946	353.652	328.831	434.989	411.743	0.0014548	0.00050215	0.00015866	726.6	3.4105e-06	3.7082e-06	1169.5	254.29	4.8376e-06	3.1478e-06	492.51	196.65	87.224	41.725	5.6803e-06	104.33	6.7657e-05	4.0827e-05	1.0226e-05	667.82	4.5301e-07	4.3002e-07	1075.6	231.93	4.3725e-07	4.3255e-07	442.19	176.63	77.716	37.705	3.9218e-07	93.616	133.742	147.435	189.050	108.370	251.436	203.447	108.741	113.485	203.190	246.522	113.700	118.468	118.185	123.647	214.554	123.167	-8191	255	
23974.818	1	1	0	0	0.15011	0.051154	0.12513	0.20078	0.076833	0.12611	0.05441	0.3372	0.186	0.11893	0.1839	0.1154	0.11981	0.14769	0.10261	0.16105	-4.2063	-3.4458	-3.8563	-4.4042	-3.3187	-4.2396	-4.3521	-3.6333	-4.4125	-3.6271	-3.9083	-4.3562	-3.4417	-4.225	-4.0979	-3.6104	188.967	378.373	128.074	390.735	225.929	225.373	121.628	330.984	114.996	158.883	413.230	124.768	101.940	415.675	390.525	403.510	0.0015049	0.00034104	0.00011269	724.18	3.7771e-06	3.4129e-06	1164.6	253.85	4.3703e-06	5.8843e-06	491.63	196.19	87.311	41.886	5.5808e-06	104.44	6.7976e-05	3.8649e-05	1.0109e-05	668.41	4.5853e-07	4.149e-07	1076.4	232.48	4.6792e-07	4.0241e-07	442.7	176.61	77.738	37.767	3.7811e-07	94.057	134.555	157.992	178.985	108.835	219.403	197.994	108.780	113.631	238.841	224.277	113.741	118.639	118.510	123.951	219.969	123.224	-8191	255	
23974.914	1	1	0	0	0.27981	0.17141	0.22042	0.19268	0.13557	0.081085	0.27628	0.21943	0.13471	0.15296	0.10667	0.14469	0.040115	0.076129	0.080013	0.14331	-4.3938	-3.8333	-3.7292	-4.5437	-3.4354	-4.4125	-4.3208	-3.55	-4.4104	-3.7729	-3.7854	-4.5229	-3.6292	-4.2542	-4.1937	-3.525	116.143	384.252	101.673	98.342	268.658	233.254	426.409	415.617	233.649	422.929	422.634	353.997	427.479	195.332	142.197	345.371	0.0014412	0.00036447	7.9609e-05	726.34	3.3705e-06	4.0346e-06	1165.3	254.01	4.6549e-06	5.5557e-06	492.12	196.73	88.175	42.005	7.8669e-06	104.57	6.7028e-05	3.7669e-05	9.8664e-06	668.74	4.5988e-07	3.94e-07	1076.2	232.56	4.6021e-07	3.9025e-07	443.07	177.17	77.959	37.76	3.7952e-07	94.05	133.446	162.498	196.181	108.300	238.148	203.696	108.443	113.309	255.151	254.093	113.603	118.606	118.130	123.963	213.585	122.851	-8191	255	
23975.010	1	1	0	0	0.15577	0.17939	0.19746	0.053429	0.04146	0.11173	0.4125	0.094716	0.13182	0.080043	0.40977	0.27195	0.18805	0.083366	0.23939	0.053166	-4.0729	-3.9688	-3.6729	-4.4396	-3.6229	-4.125	-4.3854	-3.5271	-4.2937	-3.8333	-3.6146	-4.4146	-3.5021	-3.9562	-4.4417	-3.3563	337.234	114.152	348.184	177.374	151.059	323.282	433.516	98.127	202.413	178.053	348.891	139.123	390.320	333.286	320.987	392.422	0.0014465	0.00027721	9.4632e-05	723.11	3.1326e-06	3.6853e-06	1164.1	252.08	3.7021e-06	4.3158e-06	486.35	195.05	87.433	41.941	5.797e-06	104.41	6.5725e-05	3.5236e-05	9.282e-06	666.28	4.2785e-07	3.7963e-07	1073.1	230.71	4.1052e-07	3.6057e-07	439.72	175.82	77.488	37.641	3.8047e-07	93.731	135.893	151.403	166.285	108.389	240.100	221.472	108.339	113.210	216.844	221.954	113.635	118.264	117.960	123.387	219.306	122.773	-8191	255	
23975.131	1	1	0	0	0.32555	0.06714	0.3178	0.23052	0.092307	0.073261	0.13214	0.18424	0.13734	0.23107	0.10353	0.11979	0.20139	0.078374	0.095179	0.4101	-3.8917	-3.9146	-3.4167	-4.5021	-3.5375	-3.7958	-4.5792	-3.4521	-4.0792	-4.1833	-3.5563	-4.4167	-3.7375	-3.8854	-4.3146	-3.6125	244.541	179.059	303.512	356.410	429.583	393.509	357.599	427.807	128.354	106.661	380.424	285.756	125.183	229.245	297.693	331.664	0.0013725	0.00053432	0.0001265	721.78	6.1828e-06	2.5417e-06	1165.2	253.15	4.4334e-06	3.8534e-06	486.63	195.78	87.036	41.777	7.2858e-06	103.56	6.2278e-05	3.4307e-05	1.0016e-05	667.15	3.9392e-07	3.581e-07	1073.8	230.78	4.0033e-07	3.5486e-07	440.23	176.17	77.047	37.432	3.9584e-07	93.23	132.839	154.378	163.930	108.356	230.542	181.659	108.273	113.501	224.824	209.203	113.489	118.362	118.391	123.626	202.614	122.773	-8191	255	
23975.225	1	1	0	0	0.13474	0.21096	0.050235	0.19662	0.26645	0.1915	0.24997	0.17598	0.15886	0.092113	0.20656	0.13894	0.1965	0.27511	0.16776	0.23945	-3.7354	-4.0354	-3.3646	-4.4333	-3.5604	-3.6542	-4.5854	-3.4771	-4.0021	-3.9167	-3.5479	-4.4625	-3.8083	-3.7188	-4.4667	-3.5333	415.723	380.526	189.276	395.774	183.656	205.325	450.435	416.216	200.611	388.782	403.801	397.292	149.221	377.092	100.275	371.465	0.0014503	0.00033296	0.00012635	721.64	4.9334e-06	4.0012e-06	1164.3	252.92	2.745e-06	2.7884e-06	490.13	196.39	87.007	41.894	6.9676e-06	104.89	6.1755e-05	3.214e-05	1.0324e-05	665.85	3.8068e-07	3.494e-07	1074.8	231.37	3.862e-07	3.3688e-07	442.15	176.84	77.22	37.638	4.0932e-07	94.055	134.572	181.887	159.940	108.381	243.007	208.602	108.591	113.743	226.925	249.798	113.651	118.319	118.405	123.923	198.300	123.232	-8191	255	
23975.299	1	1	0	0	0.28029	0.14598	0.11756	0.21538	0.12269	0.24358	0.19287	0.067253	0.067999	0.061683	0.12234	0.22126	0.20942	0.24138	0.10981	0.26261	-3.6125	-4.2958	-3.2479	-4.3604	-3.8708	-3.3812	-4.6417	-3.5563	-3.8125	-4.3292	-3.4583	-4.2333	-4.0354	-3.5583	-4.5146	-3.7354	184.564	128.919	177.068	444.167	234.118	194.032	374.404	118.209	436.860	162.112	151.709	184.176	172.075	106.593	363.713	402.878	0.0014952	0.00057418	0.0001133	722.08	3.7476e-06	4.7763e-06	1168.4	253.1	3.4607e-06	5.0455e-06	489.99	195.42	86.645	41.712	7.3738e-06	104.91	6.016e-05	3.1452e-05	1.0876e-05	665.53	3.6211e-07	3.5039e-07	1077.2	231.26	3.6412e-07	3.4509e-07	441.11	176.18	77.393	37.712	4.1307e-07	94.052	136.620	158.390	189.305	108.779	246.315	194.005	108.668	114.018	193.053	218.333	113.893	118.698	118.679	124.112	226.787	123.099	-8191	255	
23975.395	1	1	0	0	0.045657	0.12348	0.12298	0.12716	0.21689	0.30965	0.19765	0.16168	0.064876	0.054049	0.26168	0.39733	0.1568	0.20305	0.11335	0.19193	-3.4375	-4.2417	-3.5	-4.2958	-4.1729	-3.5083	-4.6687	-3.8146	-3.7687	-4.5271	-3.55	-4.1625	-4.2021	-3.6542	-4.2625	-3.8563	373.700	122.390	220.388	111.114	222.102	263.991	248.561	381.860	425.261	216.955	447.612	405.637	358.915	439.952	387.852	391.785	0.0014784	0.00039504	0.00013683	724.31	2.9207e-06	3.193e-06	1160.2	252.77	3.7219e-06	5.0907e-06	490.01	196.16	86.916	41.568	3.3432e-06	104.33	5.8457e-05	3.2559e-05	9.9884e-06	665.57	3.4427e-07	3.6608e-07	1068.5	231.09	3.4584e-07	3.4917e-07	441.31	176.02	77.045	37.656	3.9551e-07	93.682	134.252	148.922	181.495	108.236	226.742	172.828	108.846	113.823	223.196	215.270	113.605	118.235	118.408	123.957	207.914	123.278	-8191	255	
23975.514	1	1	0	0	0.26695	0.11236	0.31348	0.17142	0.017608	0.044923	0.13156	0.068815	0.19827	0.068287	0.068384	0.10826	0.17753	0.13661	0.042895	0.16114	-3.3979	-4.4479	-3.4688	-4.0229	-4.1354	-3.4	-4.5792	-3.8917	-3.6583	-4.3812	-3.6417	-4.2604	-4.425	-3.4625	-4.4	-4.15	336.659	414.071	138.578	260.209	425.696	221.499	337.703	129.815	341.866	301.503	142.146	347.906	408.462	189.641	351.302	350.962	0.0014852	0.00048869	8.0077e-05	721.54	4.6459e-06	3.6216e-06	1169.2	253.59	4.8812e-06	4.6775e-06	491.55	196.38	86.435	42.008	4.2687e-06	105.1	5.7988e-05	3.424e-05	9.391e-06	663.23	3.2493e-07	3.7702e-07	1073.7	231.23	3.3284e-07	3.7433e-07	441.69	176.39	77.113	37.857	3.7403e-07	94.582	135.890	171.315	157.323	108.569	221.107	195.385	108.895	113.684	239.380	238.566	114.004	118.819	118.829	124.324	201.814	123.517	-8191	255	
23975.609	1	1	0	0	0.051708	0.027409	0.26712	0.21147	0.12181	0.1683	0.10922	0.074851	0.17601	0.051326	0.14514	0.12954	0.16996	0.26659	0.17614	0.11855	-3.2729	-4.4417	-3.7646	-4.0938	-4.25	-3.3104	-4.4292	-4.1521	-3.4125	-4.3979	-3.6229	-3.8563	-4.3854	-3.5208	-4.1104	-4.2917	231.362	392.322	356.955	367.385	163.774	333.627	360.522	133.434	351.733	177.160	404.184	427.062	349.342	396.371	134.103	448.116	0.0015373	0.00052622	0.00012834	719.12	3.1822e-06	4.2299e-06	1166	253.85	3.8079e-06	5.1089e-06	490.32	195.98	87.786	42.199	6.4916e-06	106.08	5.7535e-05	3.3453e-05	8.6814e-06	663.15	3.2832e-07	3.596e-07	1074.2	231.45	3.4773e-07	3.6401e-07	442.03	176.97	77.641	38.024	3.3716e-07	95.254	135.075	166.090	168.663	108.233	224.077	206.200	108.517	113.409	235.861	206.320	113.563	118.122	118.201	123.731	198.921	122.922	-8191	255	
23975.705	1	1	0	0	0.048868	0.14389	0.17027	0.070753	0.090795	0.20165	0.21832	0.078288	0.10476	0.076894	0.099585	0.30024	0.058264	0.18105	0.093283	0.10796	-3.2062	-4.4875	-3.7229	-3.7583	-4.4604	-3.5083	-4.1583	-4.3708	-3.4583	-4.4042	-3.8187	-3.8146	-4.6375	-3.5563	-3.9896	-4.2229	106.842	394.102	141.852	344.607	185.190	157.081	361.932	156.046	225.881	215.531	303.269	430.053	172.950	431.956	151.411	327.809	0.0014797	0.00036194	0.0001975	721.52	4.2659e-06	2.3891e-06	1165.6	252.63	4.148e-06	3.4948e-06	489.3	196.7	86.989	42.333	7.5778e-06	105.12	5.8462e-05	3.316e-05	8.3967e-06	663.04	3.3559e-07	3.4128e-07	1070.4	230.98	3.5499e-07	3.4482e-07	442	176.96	77.545	38.012	3.3035e-07	94.642	134.607	143.114	173.622	108.161	241.438	222.601	108.329	113.609	217.213	228.287	113.508	118.247	118.534	123.584	209.617	122.841	-8191	255	
23975.803	1	1	0	0	0.13187	0.099221	0.065578	0.14924	0.031457	0.15697	0.33671	0.058047	0.047854	0.042721	0.16041	0.34539	0.10806	0.13263	0.044943	0.12204	-2.9104	-4.1021	-3.7021	-3.8042	-4.375	-3.4354	-3.8854	-4.3896	-3.4896	-4.3333	-4.0521	-3.6792	-4.4604	-3.5417	-3.8854	-4.6292	228.116	130.785	251.743	399.065	422.436	238.601	418.260	135.247	443.788	336.521	308.051	373.935	424.540	126.421	422.589	394.582	0.0014536	0.00045098	0.00014122	717.84	3.7644e-06	5.3785e-06	1158.2	251.35	3.6291e-06	5.4807e-06	488.58	194.92	87.437	41.983	4.9372e-06	104.92	5.8089e-05	3.0079e-05	7.796e-06	659.71	3.5188e-07	3.3233e-07	1064.8	229.9	3.681e-07	3.352e-07	439.24	175.69	77.432	37.826	3.2377e-07	94.095	133.330	164.464	188.334	107.945	228.912	222.739	108.144	113.410	223.670	226.754	113.332	118.201	118.081	123.962	203.719	122.720	-8191	255	
23975.924	1	1	0	0	0.18666	0.2037	0.20227	0.20816	0.2765	0.13993	0.062208	0.16697	0.030957	0.20069	0.20367	0.18331	0.028488	0.060002	0.15757	0.27268	-3.2104	-4.1271	-4.0771	-3.5396	-4.4062	-3.5792	-3.9104	-4.5667	-3.3917	-4.1188	-4.2229	-3.6458	-4.3792	-3.6646	-3.8333	-4.5083	340.200	201.961	215.258	105.918	370.801	226.202	403.992	341.681	246.408	414.773	133.978	342.881	216.062	208.564	268.860	413.575	0.0014771	0.00053117	0.00019485	712.35	3.1583e-06	1.9623e-06	1154.4	250.83	3.5191e-06	4.8779e-06	486.03	196.31	87.563	42.206	5.7686e-06	105.17	5.8287e-05	3.0926e-05	7.7302e-06	657.85	3.4823e-07	3.3229e-07	1066.2	230.08	3.5181e-07	3.1178e-07	441.03	176.55	77.599	37.877	3.0577e-07	94.608	134.279	160.237	170.328	108.062	238.592	185.166	108.282	113.065	241.627	219.647	113.044	117.873	118.461	123.331	200.667	122.817	-8191	255	
23975.994	1	1	0	0	0.036273	0.076756	0.060377	0.12459	0.10575	0.081603	0.14991	0.14835	0.15576	0.16512	0.20626	0.22723	0.20504	0.28202	0.12795	0.18545	-3.1833	-4.15	-4.2396	-3.4854	-4.5062	-3.9229	-3.8688	-4.6083	-3.5396	-4.1062	-4.2729	-3.5917	-4.4042	-3.8875	-3.6333	-4.7146	102.376	408.613	375.534	168.801	434.553	209.643	324.536	362.579	97.291	332.158	137.986	403.416	129.605	412.852	186.244	420.382	0.0014526	0.0003437	0.00014325	719.32	3.8976e-06	3.5531e-06	1166.1	253.1	3.4821e-06	3.3359e-06	491.77	196.45	87.522	42.355	6.3181e-06	106.47	6.0915e-05	2.8898e-05	7.5794e-06	660.61	3.5123e-07	3.2165e-07	1070.1	230.77	3.5325e-07	3.182e-07	442.38	177.35	77.783	38.151	3.2185e-07	95.531	129.098	132.583	180.790	107.647	244.294	200.928	108.138	113.212	211.310	222.507	113.396	117.984	118.011	123.232	218.702	122.798	-8191	255	
23976.092	1	1	0	0	0.025249	0.067105	0.25703	0.094007	0.067022	0.16718	0.32797	0.14618	0.064995	0.143	0.11714	0.10092	0.22773	0.026183	0.057412	0.20171	-3.1562	-3.8604	-4.3229	-3.5792	-4.2104	-3.9854	-3.7438	-4.5542	-3.6229	-3.8375	-4.4167	-3.4729	-4.2958	-4.1271	-3.4708	-4.5125	246.224	192.406	300.318	362.625	234.616	415.809	366.264	364.446	364.606	190.072	448.946	317.192	345.697	194.866	305.598	377.941	0.0014167	0.00050963	7.3494e-05	716.73	4.4883e-06	3.3339e-06	1157.7	252.85	3.7291e-06	4.2446e-06	490.44	196.38	87.094	42.089	8.3625e-06	105.03	5.6834e-05	2.8601e-05	7.7529e-06	663.41	3.3866e-07	3.0017e-07	1070	231.18	3.3306e-07	3.0203e-07	442.39	176.73	77.547	37.967	3.2025e-07	94.583	134.683	143.067	179.884	108.142	238.708	184.957	108.012	113.343	191.454	207.100	113.398	118.167	118.302	123.387	208.316	122.725	-8191	255	
23976.211	1	1	0	0	0.31955	0.091973	0.19152	0.28838	0.18071	0.069888	0.26207	0.23865	0.099398	0.13321	0.13261	0.25163	0.1016	0.27457	0.041074	0.28554	-3.2188	-3.8375	-4.425	-3.4167	-4.025	-4.1458	-3.7479	-4.5271	-3.4375	-3.6542	-4.5771	-3.6333	-4.1979	-4.1229	-3.3104	-4.5083	343.326	201.706	208.433	413.861	231.288	231.666	368.767	121.954	408.802	301.805	400.314	387.380	299.245	100.621	293.357	372.780	0.0014731	0.0002727	0.0001387	717.56	4.7127e-06	4.3016e-06	1161.3	253.33	3.7785e-06	6.3322e-06	488.87	195.71	87.239	42.32	8.6434e-06	105.58	5.6099e-05	2.6895e-05	8.2492e-06	660.99	3.2335e-07	2.9469e-07	1068.5	231.02	3.3921e-07	2.9538e-07	440.93	176.39	77.477	38.108	3.5656e-07	94.947	134.042	182.786	174.038	108.054	242.484	211.633	108.111	113.369	207.821	216.149	113.268	118.210	117.874	123.573	217.428	122.747	-8191	255	
23976.307	1	1	0	0	0.26677	0.11463	0.18165	0.1944	0.2036	0.27079	0.32666	0.14044	0.10384	0.26638	0.21184	0.3033	0.12868	0.22013	0.14598	0.27876	-3.5208	-3.5979	-4.6188	-3.6104	-3.8063	-4.2729	-3.5021	-4.2542	-3.8646	-3.6688	-4.6917	-3.7729	-3.975	-4.3646	-3.2562	-4.4042	169.265	132.505	101.855	108.208	242.915	220.890	418.148	215.061	125.590	376.607	125.401	443.673	379.052	141.390	218.292	402.871	0.0015083	0.00043152	0.00014784	720.57	2.944e-06	3.7561e-06	1167.1	254.88	3.6203e-06	5.7564e-06	490.17	196.59	87.28	42.494	8.2788e-06	106.72	5.7094e-05	2.822e-05	8.4903e-06	663.27	3.1993e-07	3.0342e-07	1072.8	231.65	3.3306e-07	3.1633e-07	442.29	177.3	77.613	38.294	3.7749e-07	95.533	133.924	152.074	173.267	108.203	231.433	186.646	108.258	113.414	231.842	222.188	113.365	118.169	118.352	123.576	198.879	122.704	-8191	255	
23976.404	1	1	0	0	0.15629	0.12004	0.1027	0.20231	0.14374	0.11916	0.32939	0.12288	0.10783	0.15276	0.074538	0.10834	0.16204	0.30565	0.14612	0.19358	-3.7125	-3.5812	-4.3979	-3.8312	-3.8375	-4.3333	-3.4875	-4.3583	-3.9854	-3.3521	-4.5437	-3.7896	-3.9	-4.4458	-3.2667	-4.2375	447.363	330.899	399.499	404.191	245.621	224.551	372.659	395.778	159.228	151.095	334.718	363.036	106.215	382.621	282.504	434.917	0.001556	0.00061201	7.7818e-05	725.07	4.4081e-06	4.083e-06	1166.6	252.68	3.3786e-06	4.9468e-06	492.86	196.66	88.175	42.633	5.9288e-06	106.91	5.7818e-05	2.9743e-05	9.296e-06	665.03	3.1761e-07	3.1693e-07	1073.6	231.59	3.1673e-07	3.2563e-07	444.88	177.71	78.008	38.394	3.6851e-07	95.854	134.709	155.996	192.244	107.952	234.310	224.332	108.581	113.318	211.152	234.522	113.370	118.233	118.270	123.658	214.688	122.770	-8191	255	
23976.523	1	1	0	0	0.026641	0.17983	0.17841	0.09201	0.23558	0.1498	0.17383	0.20432	0.19351	0.18659	0.078305	0.23283	0.1356	0.29373	0.090259	0.2009	-3.8729	-3.3667	-4.3208	-3.8438	-3.6625	-4.5104	-3.6437	-4.2542	-4.1792	-3.5333	-4.4458	-3.8042	-3.6167	-4.5125	-3.6437	-4.1771	109.792	148.510	361.876	134.745	214.170	404.733	291.936	376.413	440.386	159.029	132.383	428.248	450.211	102.663	364.262	370.842	0.0015031	0.00018312	0.000151	724.05	3.3922e-06	5.8209e-06	1165.8	254.09	4.9437e-06	2.9201e-06	489.26	196.03	87.757	42.587	5.8922e-06	105.5	5.5549e-05	3.2162e-05	8.8976e-06	663.71	3.3183e-07	3.4031e-07	1075	231.66	3.2672e-07	3.48e-07	441.43	176.66	77.572	38.237	3.5673e-07	94.831	132.128	169.401	178.026	108.571	235.661	192.260	108.375	113.267	245.572	206.680	113.497	118.135	118.211	123.655	215.526	122.877	-8191	255	
23976.594	1	1	0	0	0.034889	0.21854	0.089621	0.10121	0.20674	0.10674	0.27669	0.11695	0.061453	0.1326	0.024026	0.10618	0.078417	0.18804	0.046836	0.20313	-3.8458	-3.3583	-4.3979	-3.8438	-3.7396	-4.5167	-3.8187	-4.05	-4.2167	-3.325	-4.2917	-4.1354	-3.6729	-4.6146	-3.5542	-4.0833	258.210	181.639	301.522	365.287	379.493	256.708	368.765	429.435	365.192	183.243	366.639	347.061	263.111	438.181	379.151	388.718	0.0015114	0.00025329	0.00013744	720.81	2.9543e-06	3.8133e-06	1157	252.14	3.0736e-06	4.5505e-06	490.14	195.14	87.734	42.22	6.0603e-06	105.76	5.5035e-05	3.3418e-05	8.6369e-06	661.9	2.9072e-07	3.5435e-07	1069.7	230.49	3.0045e-07	3.349e-07	440.88	175.86	77.469	38.076	3.082e-07	94.672	132.592	153.239	173.008	108.204	236.790	187.239	108.468	113.606	223.984	217.593	113.593	118.002	118.452	123.479	208.323	122.629	-8191	255	
23976.689	1	1	0	0	0.053508	0.18125	0.049666	0.20254	0.13615	0.11171	0.21928	0.13566	0.17005	0.18675	0.2637	0.26094	0.20367	0.26038	0.23267	0.024026	-4.0875	-3.3333	-4.5083	-4.1312	-3.5958	-4.55	-3.7979	-3.8729	-4.3521	-3.5083	-4.2479	-4.0958	-3.5104	-4.5687	-3.8125	-3.7854	144.187	104.983	432.926	413.132	330.685	219.498	363.755	450.712	154.828	364.374	397.851	388.854	435.222	343.791	432.718	378.761	0.0014906	0.00038205	0.00013144	715.94	2.6134e-06	3.8925e-06	1157.1	251.74	3.7969e-06	2.6468e-06	486.82	196.23	86.922	42.381	4.9233e-06	105.89	5.3283e-05	3.0794e-05	7.4709e-06	660.04	3.0066e-07	3.1233e-07	1067.4	230.45	2.8778e-07	3.0184e-07	440.17	176.28	77.335	38.131	2.8726e-07	94.931	134.851	165.601	176.574	108.021	230.989	196.906	108.571	113.355	219.038	222.308	113.584	118.365	117.842	123.623	228.546	122.829	-8191	255	
23976.811	1	1	0	0	0.13915	0.23916	0.070655	0.12639	0.073359	0.14257	0.35614	0.066751	0.09898	0.068495	0.1727	0.21702	0.36877	0.23578	0.27495	0.04288	-4.2708	-3.6312	-3.9792	-4.3646	-3.2146	-4.4271	-4.05	-3.85	-4.4896	-3.4833	-4.2063	-4.2875	-3.5896	-4.3812	-3.8583	-3.7792	426.671	114.649	328.729	375.372	356.228	137.280	391.666	367.872	424.044	154.147	302.167	115.262	417.299	350.238	253.865	449.201	0.0014113	0.00040081	0.00015968	716.94	3.841e-06	3.1473e-06	1162.1	253.57	4.4607e-06	4.4256e-06	492.16	196.17	87.7	42.434	5.7542e-06	105.67	5.297e-05	2.7415e-05	7.0057e-06	660.6	3.0814e-07	2.8653e-07	1070.1	230.91	3.0901e-07	2.9513e-07	442.66	177.09	77.822	38.166	2.887e-07	94.971	131.684	158.241	163.516	108.241	231.232	225.406	108.464	113.663	203.852	203.787	113.632	118.326	118.276	123.872	208.689	122.998	-8191	255	
23976.906	1	1	0	0	0.18973	0.072253	0.11612	0.25809	0.14513	0.19901	0.21097	0.23584	0.18503	0.25409	0.10559	0.066817	0.16954	0.16103	0.15676	0.14663	-4.2729	-3.4229	-4.025	-4.4417	-3.4333	-4.3125	-4.2167	-3.6458	-4.4313	-3.5667	-4.0417	-4.6833	-3.6083	-4.3854	-4.0396	-3.575	436.712	415.173	303.023	438.348	349.718	319.381	414.264	401.783	212.860	454.735	362.567	131.013	291.173	415.069	239.604	120.496	0.0015555	0.00044244	0.00012009	720.52	3.8655e-06	5.3293e-06	1160.5	252.1	4.5077e-06	3.416e-06	489.12	195.46	86.952	42.311	6.0729e-06	104.83	5.6983e-05	2.844e-05	7.1722e-06	663.22	3.2476e-07	2.9617e-07	1068.8	230.49	3.3393e-07	2.9549e-07	440.69	176.31	77.386	38.007	2.9668e-07	94.309	133.175	163.168	173.763	108.349	224.757	200.908	108.460	113.455	225.691	216.367	113.725	118.644	118.368	123.619	219.599	123.147	-8191	255	
23977.004	1	1	0	0	0.05959	0.14544	0.20907	0.043962	0.23283	0.072184	0.24189	0.29345	0.14148	0.18738	0.034553	0.172	0.25591	0.15953	0.25945	0.35953	-4.3646	-3.6521	-3.6688	-4.475	-3.3937	-4.1667	-4.2896	-3.5083	-4.4125	-3.8729	-3.7938	-4.5083	-3.5125	-4.0917	-4.0625	-3.5479	122.953	310.783	270.003	367.391	213.105	392.264	411.705	370.085	207.653	165.238	297.882	308.897	136.082	426.272	237.341	398.788	0.0014794	0.00032647	0.00014866	719.61	3.2286e-06	4.3229e-06	1156.4	251.42	3.5484e-06	4.0862e-06	488.68	194.37	86.724	42.187	5.9946e-06	105.28	5.5898e-05	2.6933e-05	7.3712e-06	661.3	3.3386e-07	2.9449e-07	1064.6	229.9	3.283e-07	2.8962e-07	439.73	175.63	77.128	37.902	2.7284e-07	94.367	131.544	174.852	193.645	108.352	255.470	224.365	108.861	113.866	236.956	239.627	114.031	118.582	118.688	124.065	191.363	122.974	-8191	255	
23977.100	1	1	0	0	0.096266	0.12477	0.096273	0.042276	0.011815	0.40512	0.10938	0.11168	0.070466	0.11173	0.38243	0.2143	0.2255	0.13277	0.19249	0.085034	-4.0292	-3.7687	-3.5062	-4.6792	-3.4229	-3.9833	-4.3104	-3.4417	-4.4583	-3.8146	-3.6063	-4.6625	-3.525	-3.9417	-4.2688	-3.5167	249.010	313.018	420.323	437.773	359.804	319.796	356.195	415.848	330.951	294.969	427.723	371.923	120.316	400.634	130.143	218.851	0.001518	0.00046558	0.00015939	716.81	4.3305e-06	4.2483e-06	1158.2	251.89	4.604e-06	4.0048e-06	488.63	196.22	87.515	42.19	5.9527e-06	105.33	5.6484e-05	2.6185e-05	6.9232e-06	660.28	3.2444e-07	2.7727e-07	1068.4	230.48	3.018e-07	2.8175e-07	439.91	176.65	77.539	38.072	2.9949e-07	94.66	133.989	152.713	156.434	108.299	229.446	201.964	108.831	113.707	206.300	183.213	113.756	118.729	118.446	123.971	207.621	123.040	-8191	255	
23977.172	1	1	0	0	0.028919	0.05661	0.18851	0.22368	0.24185	0.15772	0.1534	0.09027	0.18566	0.10862	0.075455	0.12582	0.077912	0.30655	0.088612	0.376	-3.9896	-4.0146	-3.3792	-4.4938	-3.5625	-3.8812	-4.5917	-3.5833	-4.1521	-4.0021	-3.6396	-4.5396	-3.7854	-3.6771	-4.4146	-3.6771	209.968	225.350	274.805	439.366	343.612	105.509	371.565	360.023	103.480	264.194	357.970	393.103	218.768	451.445	296.477	414.451	0.0014947	0.00061232	0.00016687	718.78	3.4989e-06	3.3203e-06	1162.3	252.74	3.7453e-06	2.9974e-06	488.63	196.29	87.881	42.382	5.3619e-06	105.5	5.5692e-05	2.5687e-05	7.5539e-06	663.6	3.0625e-07	2.7681e-07	1072.8	231.15	3.0781e-07	2.6973e-07	442.51	176.87	77.843	38.125	3.0068e-07	94.834	135.500	173.134	196.772	108.234	213.108	203.490	108.496	113.432	225.566	207.865	113.811	118.594	118.596	123.712	196.034	123.302	-8191	255	
23977.293	1	1	0	0	0.20508	0.14161	0.089055	0.098373	0.11525	0.12927	0.33253	0.14515	0.076936	0.27584	0.037325	0.15148	0.14519	0.23011	0.20028	0.059371	-4.0042	-4.0979	-3.5229	-4.4354	-3.6979	-3.5104	-4.6854	-3.6437	-4.0771	-4.1667	-3.625	-4.6813	-3.9667	-3.7021	-4.4396	-3.6479	244.407	172.125	322.488	449.880	427.064	269.424	412.454	392.683	233.965	115.228	205.554	403.780	398.543	432.090	286.763	397.034	0.0014379	0.00039043	0.00012542	720.04	4.1363e-06	3.8398e-06	1159.5	251.91	4.3341e-06	5.0484e-06	487.25	195.88	87.21	42.094	6.7191e-06	105.06	5.4211e-05	2.545e-05	7.732e-06	662.56	2.905e-07	2.6841e-07	1068.3	230.56	2.9339e-07	2.5016e-07	439.66	176.02	77.219	37.891	3.0761e-07	94.255	132.301	191.310	171.084	108.374	223.245	180.729	108.902	113.459	227.228	238.162	113.807	118.527	118.753	123.751	223.799	123.015	-8191	255	
#DATA ENDS
