BOXY.EXE: ISS Imagent and Oximeter Data Acquisition Program Version 0.80
Ascii Record File

#ACQ INFORMATION
2  Detector Channels 
16  External MUX Channels 
1  Auxiliary Channels 
5000  Waveform (CCF) Frequency (Hz)
1  Waveforms Skipped 
30  Waveforms Averaged 
1  Cycles Averaged 
16  Acquisitions per Waveform 
10.0806  Updata Rate (Hz) 

#FILE INFORMATION
TRUE -- External MUX Channel results are PARSED.
FALSE -- AC DC and Phase are NOT grouped.
TRUE -- Companion Program Settings File CREATED.
FALSE -- AC data not excluded
FALSE -- DC data not excluded
FALSE -- Phase data not excluded
FALSE -- Auxillary Chn. data not excluded
Tab delimiters

#CALIBRATION STATE
TRUE -- Waveform Calibration Values APPLIED.


#AUX CALIBRATION VALUES
Val Type	aux-1	

Term	1.0000e+00	
Factor	0.0000e+00	


#WF CALIBRATION VALUES
A = Detector Channel
Val Type	A-AC1	A-AC2	A-AC3	A-AC4	A-AC5	A-AC6	A-AC7	A-AC8	A-AC9	A-AC10	A-AC11	A-AC12	A-AC13	A-AC14	A-AC15	A-AC16	A-DC1	A-DC2	A-DC3	A-DC4	A-DC5	A-DC6	A-DC7	A-DC8	A-DC9	A-DC10	A-DC11	A-DC12	A-DC13	A-DC14	A-DC15	A-DC16	A-Ph1	A-Ph2	A-Ph3	A-Ph4	A-Ph5	A-Ph6	A-Ph7	A-Ph8	A-Ph9	A-Ph10	A-Ph11	A-Ph12	A-Ph13	A-Ph14	A-Ph15	A-Ph16	

Term	0.00000e+00	0.00000e+00	0.00000e+00	0.00000e+00	0.00000e+00	0.00000e+00	0.00000e+00	0.00000e+00	0.00000e+00	0.00000e+00	0.00000e+00	0.00000e+00	0.00000e+00	0.00000e+00	0.00000e+00	0.00000e+00	0.00000e+00	0.00000e+00	0.00000e+00	0.00000e+00	0.00000e+00	0.00000e+00	0.00000e+00	0.00000e+00	0.00000e+00	0.00000e+00	0.00000e+00	0.00000e+00	0.00000e+00	0.00000e+00	0.00000e+00	0.00000e+00	0.00000e+00	0.00000e+00	0.00000e+00	0.00000e+00	0.00000e+00	0.00000e+00	0.00000e+00	0.00000e+00	0.00000e+00	0.00000e+00	0.00000e+00	0.00000e+00	0.00000e+00	0.00000e+00	0.00000e+00	0.00000e+00	
Factor	1.00000e+00	1.00000e+00	1.00000e+00	1.00000e+00	1.00000e+00	1.00000e+00	1.00000e+00	1.00000e+00	1.00000e+00	1.00000e+00	1.00000e+00	1.00000e+00	1.00000e+00	1.00000e+00	1.00000e+00	1.00000e+00	1.00000e+00	1.00000e+00	1.00000e+00	1.00000e+00	1.00000e+00	1.00000e+00	1.00000e+00	1.00000e+00	1.00000e+00	1.00000e+00	1.00000e+00	1.00000e+00	1.00000e+00	1.00000e+00	1.00000e+00	1.00000e+00	X	X	X	X	X	X	X	X	X	X	X	X	X	X	X	X	

B = Detector Channel
Val Type	B-AC1	B-AC2	B-AC3	B-AC4	B-AC5	B-AC6	B-AC7	B-AC8	B-AC9	B-AC10	B-AC11	B-AC12	B-AC13	B-AC14	B-AC15	B-AC16	B-DC1	B-DC2	B-DC3	B-DC4	B-DC5	B-DC6	B-DC7	B-DC8	B-DC9	B-DC10	B-DC11	B-DC12	B-DC13	B-DC14	B-DC15	B-DC16	B-Ph1	B-Ph2	B-Ph3	B-Ph4	B-Ph5	B-Ph6	B-Ph7	B-Ph8	B-Ph9	B-Ph10	B-Ph11	B-Ph12	B-Ph13	B-Ph14	B-Ph15	B-Ph16	

Term	0.00000e+00	0.00000e+00	0.00000e+00	0.00000e+00	0.00000e+00	0.00000e+00	0.00000e+00	0.00000e+00	0.00000e+00	0.00000e+00	0.00000e+00	0.00000e+00	0.00000e+00	0.00000e+00	0.00000e+00	0.00000e+00	0.00000e+00	0.00000e+00	0.00000e+00	0.00000e+00	0.00000e+00	0.00000e+00	0.00000e+00	0.00000e+00	0.00000e+00	0.00000e+00	0.00000e+00	0.00000e+00	0.00000e+00	0.00000e+00	0.00000e+00	0.00000e+00	-1.54582e+01	-1.31826e+02	-1.18987e+02	-1.83770e+02	-1.30688e+02	-8.11710e+01	-1.58254e+02	-1.62015e+02	4.03488e+00	-7.49322e+01	-1.70683e+02	-1.70651e+02	-1.78365e+02	-1.76938e+02	-7.39507e+01	-1.49895e+02	
Factor	3.55145e-05	9.56148e-05	2.78179e-05	1.65747e-01	1.12877e-06	1.04670e-06	1.79515e-01	5.89105e-02	1.19376e-06	1.16421e-06	9.76336e-02	3.40614e-02	3.16364e-02	1.08962e-02	1.16736e-06	1.55437e-02	9.88457e-07	1.01235e-06	2.82120e-07	8.20202e-02	1.10315e-08	1.10754e-08	8.33426e-02	2.89522e-02	1.10356e-08	1.10748e-08	4.58140e-02	1.59180e-02	1.53075e-02	5.26684e-03	1.10529e-08	7.23307e-03	X	X	X	X	X	X	X	X	X	X	X	X	X	X	X	X	



#DISTANCE SETTINGS
A = Detector Channel
A-1	A-2	A-3	A-4	A-5	A-6	A-7	A-8	A-9	A-10	A-11	A-12	A-13	A-14	A-15	A-16	

2.5000e+00	3.0000e+00	2.5000e+00	3.0000e+00	2.0000e+00	3.0000e+00	1.5000e+00	3.0000e+00	3.0000e+00	3.0000e+00	3.0000e+00	3.0000e+00	3.0000e+00	3.0000e+00	1.5000e+00	3.0000e+00	

B = Detector Channel
B-1	B-2	B-3	B-4	B-5	B-6	B-7	B-8	B-9	B-10	B-11	B-12	B-13	B-14	B-15	B-16	

1.0000e+01	1.0000e+01	1.0000e+01	1.4400e+00	1.0000e+01	1.0000e+01	1.5100e+00	1.9400e+00	1.0000e+01	1.0000e+01	1.9900e+00	2.4900e+00	2.4100e+00	2.9000e+00	1.0000e+01	2.9800e+00	




#DATA BEGINS
time	group	step	mark	flag	A-AC1	A-AC2	A-AC3	A-AC4	A-AC5	A-AC6	A-AC7	A-AC8	A-AC9	A-AC10	A-AC11	A-AC12	A-AC13	A-AC14	A-AC15	A-AC16	A-DC1	A-DC2	A-DC3	A-DC4	A-DC5	A-DC6	A-DC7	A-DC8	A-DC9	A-DC10	A-DC11	A-DC12	A-DC13	A-DC14	A-DC15	A-DC16	A-Ph1	A-Ph2	A-Ph3	A-Ph4	A-Ph5	A-Ph6	A-Ph7	A-Ph8	A-Ph9	A-Ph10	A-Ph11	A-Ph12	A-Ph13	A-Ph14	A-Ph15	A-Ph16	B-AC1	B-AC2	B-AC3	B-AC4	B-AC5	B-AC6	B-AC7	B-AC8	B-AC9	B-AC10	B-AC11	B-AC12	B-AC13	B-AC14	B-AC15	B-AC16	B-DC1	B-DC2	B-DC3	B-DC4	B-DC5	B-DC6	B-DC7	B-DC8	B-DC9	B-DC10	B-DC11	B-DC12	B-DC13	B-DC14	B-DC15	B-DC16	B-Ph1	B-Ph2	B-Ph3	B-Ph4	B-Ph5	B-Ph6	B-Ph7	B-Ph8	B-Ph9	B-Ph10	B-Ph11	B-Ph12	B-Ph13	B-Ph14	B-Ph15	B-Ph16	aux-1	digaux	

14012.911	1	1	0	256	0.069747	0.13805	0.097579	0.037047	0.18979	0.25246	0.18113	0.090972	0.17035	0.17875	0.10234	0.063115	0.067262	0.17422	0.11534	0.097778	-2.3167	-2.7146	-2.2625	-3.1167	-2.4479	-2.3937	-3.1208	-2.4604	-2.6042	-3.1	-2.2771	-2.825	-2.6042	-2.4771	-2.9521	-2.5396	186.261	-11.135	254.076	97.736	191.008	109.398	259.697	58.430	120.245	138.760	34.269	297.185	92.621	313.079	247.097	173.744	9.9538e-05	0.00011074	8.1415e-05	1027.8	6.2084e-06	9.2982e-07	1133.1	211.81	3.4569e-06	8.5271e-06	268.08	76.161	59.592	17.201	6.4197e-06	24.233	0.00036312	0.00034636	0.00010205	1018.9	4.0055e-06	3.7807e-06	1112.2	213.79	4.0236e-06	3.778e-06	269.61	78.403	61.173	18.034	4.322e-06	25.681	241.165	93.203	118.706	-13.404	-1.722	209.928	-13.190	-5.526	280.719	46.117	-6.181	1.196	2.055	7.877	109.590	7.521	-8191	255	
14013.030	1	1	0	0	0.10909	0.15125	0.14585	0.099766	0.20725	0.25735	0.11064	0.095358	0.11935	0.14847	0.12914	0.1819	0.22427	0.15443	0.12631	0.19002	-2.0292	-2.9625	-2.2854	-2.8979	-2.675	-2.4271	-3.0958	-2.4271	-2.5667	-2.8917	-2.1583	-2.8583	-2.75	-2.1333	-2.7896	-2.4792	82.053	0.823	264.380	232.080	131.943	121.871	13.798	224.795	33.520	90.918	73.524	273.456	-9.837	4.453	4.350	54.061	0.00016652	0.00032341	0.00014136	1038.7	4.7719e-06	3.0646e-06	1138.7	211.89	1.2804e-06	5.7744e-06	270.34	76.273	59.181	17.3	3.0983e-06	24.306	0.00036492	0.00035182	0.00011328	1023.3	4.0459e-06	3.9179e-06	1119	213.91	4.0101e-06	3.8849e-06	271.81	78.241	61.025	18.107	4.4394e-06	25.538	218.461	45.743	152.821	-13.420	327.586	169.211	-13.200	-5.508	196.218	122.555	-5.994	1.107	1.626	8.152	168.288	7.403	-8191	255	
14013.126	1	1	0	0	0.091168	0.39182	0.13379	0.055448	0.03719	0.1896	0.093203	0.17271	0.21627	0.16559	0.37046	0.28731	0.17864	0.31596	0.18506	0.17441	-2.0583	-2.9646	-2.275	-2.9479	-2.7792	-2.2938	-3.0396	-2.6437	-2.2188	-3.125	-2.2979	-2.6021	-3.0062	-2.3458	-2.8646	-2.6271	41.105	311.857	242.803	162.089	268.164	110.229	268.149	299.323	292.050	323.944	-23.367	285.931	250.200	7.269	84.401	71.993	4.3474e-05	0.00032937	3.6352e-05	1037.1	6.1489e-06	2.2398e-06	1140.5	210.69	3.8994e-06	2.2207e-06	269.72	75.76	58.771	17.055	2.4023e-06	24.365	0.00035183	0.0003528	0.00011306	1021.7	3.7961e-06	3.8649e-06	1118.9	212.89	3.7647e-06	3.9053e-06	271.1	77.614	60.455	18.088	4.3951e-06	25.405	192.640	168.667	17.463	-13.322	118.031	80.036	-13.131	-5.590	231.632	274.468	-5.879	1.196	2.005	8.100	161.024	7.405	-8191	255	
14013.222	1	1	0	0	0.051142	0.24651	0.38108	0.35941	0.31382	0.12399	0.11636	0.28139	0.11985	0.24492	0.096749	0.33709	0.21022	0.04458	0.08119	0.28862	-1.9042	-2.9625	-2.4938	-2.6312	-2.8604	-2.2646	-2.8688	-2.6458	-2.3271	-2.9396	-2.5167	-2.7271	-2.8104	-2.1917	-2.6437	-2.6958	293.494	71.565	219.057	248.396	237.351	6.076	233.143	288.564	39.210	17.621	321.493	-11.147	13.484	149.551	202.328	286.213	0.00018149	0.00081765	3.1224e-05	1034.5	3.109e-06	1.0639e-06	1131.6	212.2	1.8544e-06	2.0812e-06	267.22	76.705	59.302	16.971	3.4744e-06	24.233	0.00033525	0.00037488	0.00011109	1019.4	3.7007e-06	4.2161e-06	1115.7	212.87	3.7672e-06	4.2704e-06	270.66	77.749	60.724	18.227	4.2398e-06	25.326	230.268	111.633	50.285	-13.294	120.550	216.274	-13.287	-5.391	53.042	215.630	-5.937	1.392	1.954	8.040	60.062	7.491	-8191	255	
14013.343	1	1	0	0	0.073719	0.18405	0.25869	0.093032	0.13106	0.25108	0.17958	0.20614	0.14224	0.29935	0.13022	0.09663	0.23191	0.21334	0.12395	0.25588	-1.7437	-3.0687	-2.3354	-2.4917	-2.8063	-2.2438	-3.0146	-2.8312	-2.3563	-2.9708	-2.6937	-2.4375	-2.8604	-2.3958	-2.5938	-2.8667	201.788	171.356	221.311	74.764	205.419	130.905	290.544	-15.729	334.971	-21.494	237.623	326.702	234.107	-15.232	-0.741	336.450	0.00033343	0.0001395	6.3182e-05	1032.5	4.4122e-06	1.8526e-06	1135.6	212.37	3.7051e-06	8.2343e-06	269.03	75.877	59.69	16.948	2.7145e-06	24.195	0.00033676	0.00039212	0.00010784	1015.6	3.8052e-06	4.4343e-06	1114	212.51	3.8742e-06	4.4937e-06	269.97	77.465	61.113	18.328	4.2393e-06	25.304	253.154	101.267	66.024	-13.607	160.202	117.596	-13.323	-5.466	217.354	175.006	-5.780	0.811	1.801	8.247	80.861	7.570	-8191	255	
14013.439	1	1	0	0	0.078265	0.096582	0.13517	0.14043	0.10135	0.012636	0.21486	0.068082	0.11531	0.25226	0.10496	0.15395	0.21438	0.16145	0.229	0.22002	-1.7271	-2.8375	-2.575	-2.3917	-3.0625	-2.4437	-2.675	-2.9375	-2.3104	-2.9604	-2.7479	-2.4125	-3.0479	-2.4083	-2.6688	-2.8854	277.068	167.692	0.397	12.257	6.110	332.350	316.349	70.338	-6.594	145.338	270.584	-8.535	-12.152	254.465	25.937	152.557	0.00025967	0.00039926	4.3275e-05	1030.1	1.4616e-06	5.1101e-06	1137.4	211.21	7.5283e-06	2.9806e-06	269.48	76.524	59.58	17.113	2.5499e-06	24.249	0.0003761	0.00042811	0.00010896	1017	4.2704e-06	4.7611e-06	1115.9	213	4.4228e-06	4.7825e-06	271.01	77.952	62.101	18.487	4.2383e-06	25.345	266.268	78.190	44.816	-13.317	65.866	258.458	-13.300	-5.582	124.481	95.126	-6.409	1.398	1.670	7.796	57.328	7.583	-8191	255	
14013.510	1	1	0	0	0.085172	0.10409	0.16164	0.27456	0.16863	0.23804	0.44668	0.23738	0.10972	0.27787	0.23052	0.058452	0.32447	0.2216	0.044199	0.12797	-1.8292	-2.7271	-2.4771	-2.5396	-2.8521	-2.5625	-2.7021	-2.8396	-2.2646	-3.0062	-2.7917	-2.1917	-3.0167	-2.5167	-2.2146	-2.925	-1.191	218.599	188.224	285.049	80.793	294.217	263.722	258.859	223.851	-8.261	154.155	252.520	223.348	-19.746	78.084	296.541	0.00047077	4.3638e-05	0.00011223	1033.9	7.2814e-06	2.6317e-06	1141.1	212.82	3.7115e-07	1.836e-06	270.63	76.104	59.473	17.071	2.007e-06	24.087	0.0003985	0.00040949	0.00010238	1018.2	4.3276e-06	4.2666e-06	1115.1	213.08	4.2944e-06	4.2067e-06	269.49	77.382	61.815	18.142	3.8991e-06	25.289	227.162	27.366	27.677	-13.445	153.243	8.573	-13.283	-5.265	189.846	103.924	-5.851	1.057	2.108	8.211	58.974	7.843	-8191	255	
14013.631	1	1	0	0	0.044446	0.12775	0.1125	0.34016	0.1904	0.080705	0.20755	0.22937	0.10737	0.21567	0.22733	0.050138	0.15365	0.091011	0.059247	0.040207	-1.9167	-2.6833	-2.875	-2.4792	-3.0167	-2.4562	-2.6792	-2.9833	-2.2875	-2.9313	-2.9083	-2.2771	-2.9875	-2.5812	-2.1354	-2.8312	297.285	268.683	310.353	-5.374	234.842	271.599	206.484	225.312	151.293	64.604	210.262	121.053	233.194	154.177	-1.245	-18.437	0.00019789	0.00036954	8.4267e-05	1033.8	1.0975e-06	5.248e-06	1135.9	212.31	6.6536e-06	5.084e-06	270.03	76.472	59.792	17.205	8.17e-07	24.431	0.00040818	0.00038787	0.00010023	1018.4	4.6224e-06	4.3294e-06	1115.2	213.84	4.8116e-06	4.3789e-06	269.97	78.43	62.687	18.344	4.1243e-06	25.765	305.771	30.445	207.898	-13.595	-14.309	29.778	-13.419	-5.467	17.917	59.186	-5.909	1.683	1.311	8.232	302.248	7.352	-8191	255	
14013.725	1	1	0	0	0.25761	0.18477	0.2598	0.23856	0.22219	0.2085	0.36163	0.2468	0.15885	0.23336	0.10818	0.15758	0.2089	0.45998	0.17041	0.11335	-1.9021	-2.6104	-2.8708	-2.4458	-2.9604	-2.85	-2.375	-3.0667	-2.5104	-2.3271	-2.9042	-2.4229	-2.8292	-2.8917	-2.3417	-2.9146	48.851	45.718	313.968	320.910	30.579	85.805	297.290	327.823	129.022	204.589	113.957	191.251	331.656	234.757	321.606	309.833	0.00013261	9.8687e-05	0.00010985	1038.5	5.7406e-06	4.7594e-06	1142.7	213.92	7.81e-06	1.2102e-06	271.37	76.445	59.489	17.257	3.0559e-06	24.505	0.00043782	0.00040273	0.00010484	1028.6	4.7615e-06	4.2823e-06	1119.8	216.3	4.6557e-06	4.2437e-06	270.52	78.662	62	18.206	3.9529e-06	25.893	256.989	142.159	72.039	-13.640	112.585	59.111	-13.216	-5.544	54.067	-3.602	-5.940	1.453	1.214	7.964	184.259	7.660	-8191	255	
14013.822	1	1	0	0	0.28912	0.18077	0.029904	0.28031	0.096279	0.1036	0.17298	0.18945	0.083408	0.13855	0.070808	0.34078	0.28821	0.16632	0.085437	0.074111	-2.1021	-2.3833	-3.0771	-2.3042	-2.7521	-2.825	-2.4875	-3.0417	-2.3	-2.5708	-2.9917	-2.3396	-2.6167	-2.4813	-2.4604	-2.9417	237.056	264.735	323.000	280.055	46.339	251.476	150.020	221.150	87.167	69.340	217.149	280.174	336.132	-9.180	158.993	223.729	9.1034e-05	0.00023404	0.00011278	1038.8	3.9987e-06	2.1299e-06	1140.6	212.73	1.3779e-06	2.8262e-06	272.56	76.048	59.602	17.085	1.3834e-06	24.292	0.00040126	0.00037514	0.00010114	1027.7	4.4222e-06	4.1194e-06	1120.9	215.97	4.3606e-06	4.068e-06	271.6	78.731	61.701	18.113	4.0726e-06	25.805	257.143	-13.234	152.912	-13.307	61.220	11.189	-13.373	-5.437	126.370	58.022	-6.042	1.292	1.434	8.562	212.149	7.566	-8191	255	
14013.918	1	1	0	0	0.10067	0.072459	0.16793	0.2844	0.067828	0.14327	0.33724	0.17204	0.32129	0.081619	0.079162	0.083811	0.23635	0.10841	0.057818	0.25683	-2.3104	-2.4167	-2.9771	-2.4021	-2.5125	-2.8583	-2.5125	-3.0062	-2.7021	-2.4104	-3.0396	-2.4896	-2.6625	-2.8708	-2.1729	-3.0146	291.327	57.262	23.180	242.755	71.651	4.655	278.168	316.651	110.889	48.364	-3.879	327.819	223.661	18.582	157.098	218.818	0.00020003	0.00017921	8.2608e-05	1039.2	2.3362e-06	5.5345e-06	1143.8	213.11	3.4447e-06	5.5093e-06	271.44	76.221	59.171	17.208	4.7867e-06	24.302	0.00038589	0.00036709	0.00010492	1028.7	4.1974e-06	3.9787e-06	1121.9	216.11	4.183e-06	3.9864e-06	272.59	78.788	61.704	18.195	4.4986e-06	25.812	268.884	327.602	182.305	-13.336	210.349	196.721	-13.296	-5.651	80.756	243.822	-5.928	1.213	1.488	8.390	157.184	7.741	-8191	255	
14014.038	1	1	0	0	0.14177	0.22736	0.1609	0.30372	0.14407	0.10605	0.42549	0.097196	0.11602	0.22962	0.28044	0.28291	0.20347	0.057839	0.1956	0.15485	-2.1625	-2.4708	-3.1042	-2.5667	-2.5146	-3.0062	-2.4938	-2.9729	-2.8417	-2.3292	-3.0208	-2.5833	-2.625	-2.9646	-2.325	-2.7708	94.581	286.249	-1.696	307.625	-22.532	144.849	268.441	54.545	241.213	136.409	311.296	305.245	103.198	134.009	143.129	306.279	0.00018243	0.00038387	8.6837e-05	1039	6.2482e-06	3.9461e-06	1142.8	214.13	3.4671e-06	9.0257e-06	269.96	76.258	59.561	17.153	5.2079e-06	24.375	0.00038652	0.0003711	0.0001175	1030	4.2971e-06	4.076e-06	1126.4	216.47	4.243e-06	4.1647e-06	274.07	79.131	61.818	18.311	4.8813e-06	25.9	229.421	32.725	184.471	-13.358	61.576	190.283	-13.206	-5.561	189.118	169.308	-6.136	1.179	1.563	8.144	193.494	7.955	-8191	255	
14014.110	1	1	0	0	0.11824	0.26952	0.19236	0.18319	0.17586	0.12792	0.36792	0.15358	0.23559	0.087994	0.21057	0.20484	0.37154	0.1732	0.14094	0.16169	-2.2687	-2.325	-3.1604	-2.65	-2.4125	-2.7958	-2.6167	-2.6292	-2.9021	-2.3167	-2.8646	-2.6229	-2.3854	-3.0979	-2.4417	-2.6833	68.541	187.210	292.659	39.778	300.616	46.630	253.187	219.129	22.955	291.988	330.282	62.022	299.515	319.549	51.111	61.317	0.00024577	0.00039538	6.9757e-05	1043.2	2.1694e-06	3.0333e-06	1151	213.42	1.2508e-06	2.1639e-06	270.55	77.184	59.904	17.258	1.8852e-06	24.522	0.00038613	0.00039489	0.00012735	1033.4	4.284e-06	4.3562e-06	1132.6	216.48	4.2744e-06	4.3925e-06	275.67	79.288	62.025	18.455	4.9765e-06	25.897	204.800	121.818	174.530	-13.283	91.972	126.525	-13.320	-5.667	100.505	246.483	-6.242	1.138	1.353	8.277	307.370	7.737	-8191	255	
14014.206	1	1	0	0	0.080148	0.099631	0.15332	0.2975	0.28769	0.094675	0.26585	0.27372	0.11464	0.24288	0.1939	0.14385	0.24317	0.040269	0.14733	0.1622	-2.4646	-2.3875	-2.8104	-2.8542	-2.425	-2.9854	-2.7104	-2.5521	-2.7333	-2.1729	-2.9333	-2.7479	-2.3187	-2.8604	-2.5083	-2.4979	247.633	92.347	18.322	-21.569	147.239	317.831	229.640	333.168	124.409	-0.322	301.799	335.051	-7.829	139.057	330.458	9.510	8.3378e-05	0.00050436	6.2119e-05	1039.5	2.9326e-06	2.591e-06	1146.8	214.2	1.7582e-06	1.8751e-06	271.34	76.456	59.978	17.188	7.18e-06	24.629	0.00038077	0.00042275	0.00012732	1034.7	4.2214e-06	4.6721e-06	1133.5	216.71	4.1984e-06	4.8299e-06	276.1	78.935	62.165	18.672	4.8073e-06	25.811	250.112	101.793	256.702	-13.340	213.121	123.791	-13.258	-5.635	25.399	63.013	-6.249	1.743	1.574	8.527	41.953	7.276	-8191	255	
14014.302	1	1	0	0	0.099754	0.16102	0.17043	0.29482	0.32297	0.35782	0.33733	0.16053	0.22084	0.1679	0.23492	0.14187	0.21218	0.30164	0.10865	0.051185	-2.625	-2.1813	-2.5208	-2.9479	-2.2	-2.9979	-2.6542	-2.3583	-2.975	-2.2687	-2.9792	-2.8896	-2.4313	-2.9688	-2.5125	-2.5687	20.505	231.877	198.360	294.341	274.466	265.639	270.374	278.085	302.482	218.474	219.533	184.680	227.739	-18.645	24.403	247.244	0.00032474	0.00013903	6.9372e-05	1041.5	3.0458e-06	7.6644e-06	1147	214.35	3.6416e-06	7.6268e-06	273.4	76.323	59.466	17.219	8.5084e-07	24.21	0.00037914	0.00044592	0.00012057	1034.2	4.2569e-06	4.9127e-06	1133.2	216.49	4.2189e-06	4.9251e-06	275.18	78.781	62.118	18.69	4.4806e-06	25.59	222.597	9.545	310.285	-13.564	159.209	198.043	-13.097	-5.676	3.981	173.399	-6.259	1.442	1.893	8.452	22.442	7.606	-8191	255	
14014.423	1	1	0	0	0.16101	0.21057	0.078837	0.36807	0.31225	0.10123	0.25891	0.30527	0.19317	0.060676	0.0674	0.091614	0.11377	0.15162	0.26833	0.19654	-2.5479	-2.3104	-2.7542	-2.9188	-2.3146	-2.8812	-2.5729	-2.4146	-2.8917	-2.2542	-2.5229	-2.9833	-2.2771	-2.8479	-2.6021	-2.425	173.102	257.147	189.535	11.270	1.808	226.967	252.664	323.105	256.648	301.119	-13.360	318.476	318.498	-0.244	45.031	302.317	0.00033211	0.00029006	0.00013805	1045	5.76e-06	5.3269e-06	1148.6	214.53	5.585e-06	1.5487e-06	271.79	76.367	59.837	17.208	6.3114e-06	24.271	0.00039161	0.00044743	0.00011434	1033.5	4.3761e-06	4.883e-06	1130.9	215.78	4.4991e-06	4.9032e-06	274.11	78.475	62.44	18.668	4.3331e-06	25.501	245.864	66.029	297.568	-13.134	114.843	74.427	-13.099	-5.645	328.421	332.109	-6.143	1.805	1.597	7.948	122.124	7.589	-8191	255	
14014.519	1	1	0	0	0.25183	0.24349	0.22807	0.21866	0.084636	0.28243	0.31316	0.066169	0.11194	0.203	0.20903	0.24109	0.33451	0.058108	0.45999	0.27323	-2.6729	-2.2687	-2.4875	-2.975	-2.3229	-2.9021	-2.7979	-2.4125	-2.95	-2.6458	-2.6417	-2.9521	-2.3083	-2.7708	-2.7625	-2.3479	90.088	323.168	143.379	299.620	315.344	280.410	291.904	240.210	-19.627	1.708	279.670	271.162	75.337	119.298	153.003	242.798	0.00011565	0.00029038	4.6931e-05	1045.5	2.3768e-06	2.89e-06	1146.8	213.91	7.042e-07	4.6379e-06	270.61	75.993	59.743	17.181	3.2875e-06	24.435	0.00041911	0.00043636	0.00011091	1032.9	4.7258e-06	4.7668e-06	1130.2	215.89	4.81e-06	4.7934e-06	273.87	78.613	62.903	18.564	4.2609e-06	25.651	266.524	-4.254	67.361	-13.375	67.972	51.437	-13.306	-5.427	-10.951	99.160	-6.099	1.369	1.634	8.304	251.317	7.378	-8191	255	
14014.613	1	1	0	0	0.071884	0.073767	0.14006	0.11524	0.036399	0.086604	0.12511	0.24169	0.097512	0.12964	0.33561	0.19126	0.37469	0.12125	0.2016	0.081867	-2.4875	-2.4813	-2.3333	-2.8063	-2.4792	-2.7375	-2.925	-2.3438	-2.8625	-2.5521	-2.3583	-2.9583	-2.2646	-2.7042	-2.9042	-2.2604	284.760	17.861	164.187	177.253	9.814	163.552	315.606	11.036	105.626	87.631	306.725	109.457	25.226	48.360	17.989	163.002	0.00015085	0.00034811	4.4505e-05	1046.5	2.8108e-06	2.0078e-06	1151.7	214.18	1.249e-06	7.3721e-06	270.99	76.125	60.05	17.136	4.7317e-06	24.166	0.00044167	0.00041927	0.00010804	1035.1	4.8934e-06	4.5554e-06	1131.8	216.55	4.8704e-06	4.4482e-06	273.19	78.951	62.914	18.411	4.0724e-06	25.662	257.821	284.073	39.040	-13.271	60.286	55.321	-13.055	-5.626	112.426	36.578	-6.014	1.597	1.154	8.178	141.866	7.867	-8191	255	
14014.711	1	1	0	0	0.12295	0.21262	0.23416	0.27221	0.14007	0.096568	0.27167	0.17317	0.052898	0.050017	0.092678	0.048306	0.25751	0.074879	0.23838	0.26324	-2.3854	-2.4542	-2.3438	-3.0062	-2.3583	-2.5875	-2.9833	-2.2917	-2.875	-2.5771	-2.4167	-2.9396	-2.3021	-2.5563	-2.9813	-2.3	39.975	20.140	-9.456	323.503	322.908	299.931	244.430	-3.571	264.369	77.348	123.958	202.066	329.682	304.409	238.038	187.995	0.00028094	0.00017983	0.0001332	1043.3	2.6176e-06	4.1242e-06	1141.6	213.52	4.1149e-06	4.3528e-07	272.46	76.344	59.489	17.362	2.5232e-06	24.209	0.00043153	0.00039709	0.00010349	1033.7	4.701e-06	4.2696e-06	1127.3	217.22	4.6434e-06	4.1908e-06	272.76	79.253	62.402	18.329	3.9435e-06	25.815	294.856	43.518	18.011	-13.454	137.213	331.668	-13.093	-5.328	159.226	257.259	-5.898	1.615	1.473	8.248	255.665	7.510	-8191	255	
14014.806	1	1	0	0	0.19096	0.024579	0.060748	0.10403	0.071031	0.087049	0.24822	0.098425	0.20707	0.14373	0.33516	0.10036	0.19583	0.22297	0.10662	0.32505	-2.4792	-2.7104	-2.2958	-2.9313	-2.4083	-2.3396	-3.1708	-2.3083	-2.7208	-2.7958	-2.3979	-3.0312	-2.5958	-2.5375	-3.025	-2.4479	332.563	275.291	-17.045	255.146	203.667	113.052	267.737	305.694	309.533	47.851	313.870	169.373	-13.703	-5.207	161.809	324.273	0.00015703	8.4398e-05	0.00014833	1044	2.879e-06	2.1531e-06	1149.8	213.35	9.2391e-07	6.0564e-06	273.44	76.366	60.029	17.114	5.5365e-06	24.463	0.0004125	0.00037553	0.00010243	1037.9	4.4262e-06	4.0997e-06	1128.2	216.76	4.42e-06	4.0775e-06	273.64	79.386	62.257	18.274	4.1063e-06	25.964	298.016	324.915	129.484	-13.321	127.012	5.335	-13.209	-5.624	8.381	69.717	-5.941	1.101	1.652	8.132	182.550	7.515	-8191	255	
14014.902	1	1	0	0	0.010178	0.19693	0.49051	0.19418	0.16351	0.19073	0.2646	0.098934	0.23507	0.10487	0.21419	0.17821	0.22571	0.12454	0.25418	0.090963	-2.2687	-2.7292	-2.2271	-3.1625	-2.5271	-2.4479	-3.2854	-2.3812	-2.5646	-2.8708	-2.3812	-2.875	-2.7146	-2.4583	-3.0854	-2.5479	130.793	116.036	106.150	6.177	254.746	226.847	294.188	286.957	63.081	245.929	335.054	64.120	230.476	72.991	84.067	230.546	0.0001764	0.00018127	5.7329e-05	1047.7	1.5301e-06	4.2202e-06	1151.8	214.4	5.2159e-06	5.9548e-06	271.88	76.905	60.49	17.241	1.8609e-06	24.448	0.00039328	0.00036499	0.00010716	1040	4.2706e-06	3.9922e-06	1130.5	217.52	4.2457e-06	3.9565e-06	273.74	79.461	62.023	18.2	4.3221e-06	25.877	334.050	26.427	136.326	-13.545	2.575	27.740	-13.259	-5.684	195.189	61.217	-6.436	1.196	1.411	8.295	178.530	7.439	-8191	255	
14015.023	1	1	0	0	0.041038	0.29635	0.06015	0.24354	0.10529	0.31116	0.48101	0.084618	0.43816	0.24102	0.301	0.13392	0.14819	0.19451	0.11589	0.37023	-2.3187	-3.0438	-2.1312	-2.9333	-2.725	-2.45	-2.8542	-2.4	-2.4437	-2.8979	-2.4521	-2.7583	-2.7604	-2.3375	-2.8958	-2.5646	100.295	318.851	-8.916	301.672	61.592	238.320	227.356	307.541	266.019	106.596	285.849	26.893	-21.613	-4.160	8.049	306.723	0.00022488	0.00045382	9.4189e-05	1048.8	1.6523e-06	7.2951e-06	1150	213.04	3.1018e-06	3.7223e-06	272.84	77.002	59.63	17.063	3.8877e-06	24.262	0.00037735	0.00035925	0.00011417	1038.5	4.2012e-06	3.9601e-06	1136.2	216.67	4.1721e-06	3.9606e-06	274.67	79.192	61.868	18.231	4.6209e-06	25.743	215.711	7.376	123.743	-13.339	65.169	131.783	-12.955	-5.497	55.593	194.846	-6.162	1.372	1.594	8.374	106.700	7.903	-8191	255	
14015.119	1	1	0	0	0.17072	0.24172	0.11114	0.32851	0.26415	0.0862	0.067854	0.067155	0.24076	0.24366	0.057946	0.24983	0.053286	0.16378	0.062198	0.17714	-1.9292	-2.9792	-2.2562	-2.5583	-2.7938	-2.2375	-3.1417	-2.7042	-2.4792	-3.0583	-2.4813	-2.5563	-2.8917	-2.325	-2.8771	-2.5	63.918	306.073	89.016	304.646	51.526	298.075	96.507	313.017	258.046	172.105	309.199	198.609	132.797	81.117	88.659	129.150	0.00015432	0.00033834	3.7577e-05	1049.8	4.4482e-06	1.8091e-06	1149.2	213.66	4.3705e-06	2.857e-07	272.86	76.091	59.815	17.129	6.7505e-06	24.41	0.00036732	0.00036953	0.00012029	1037.9	4.0249e-06	4.0955e-06	1135.8	215.93	4.0507e-06	4.1511e-06	275.84	78.849	61.742	18.34	4.7479e-06	25.78	264.586	96.006	80.589	-13.453	320.232	45.346	-12.900	-5.357	198.919	16.869	-6.138	1.298	1.693	8.662	133.940	7.461	-8191	255	
14015.215	1	1	0	0	0.088534	0.20908	0.1137	0.24075	0.031983	0.05688	0.28443	0.28348	0.13385	0.17045	0.225	0.14622	0.0094166	0.2163	0.054758	0.20389	-2.1083	-3.0708	-2.2208	-2.5729	-2.8604	-2.1917	-3.0104	-2.7333	-2.3771	-3.0146	-2.2771	-2.5104	-3.0062	-2.4375	-2.7958	-2.7625	16.304	48.009	55.598	323.702	232.108	167.892	286.435	269.758	258.645	260.809	165.509	333.966	203.449	266.527	279.458	313.245	0.00020225	0.00043512	2.0106e-05	1049.8	2.3566e-06	1.4162e-06	1154.4	214.97	3.741e-06	3.667e-06	273.78	76.494	59.586	17.405	5.2734e-06	24.352	0.00036993	0.00039811	0.00012046	1036.5	4.0342e-06	4.4578e-06	1137.9	216.58	4e-06	4.5205e-06	276.01	78.746	61.673	18.557	4.6527e-06	25.643	230.998	106.450	-11.118	-13.539	-11.066	139.397	-13.354	-5.472	288.700	185.108	-6.013	0.781	1.646	8.517	59.219	7.827	-8191	255	
14015.311	1	1	0	0	0.12602	0.4048	0.18243	0.20441	0.10653	0.23301	0.072643	0.18244	0.11126	0.26159	0.16784	0.17802	0.020536	0.23444	0.42035	0.25479	-1.8438	-2.9688	-2.4792	-2.4667	-2.8792	-2.3396	-2.9062	-2.7417	-2.1958	-2.8583	-2.6188	-2.6208	-2.9375	-2.3458	-2.8458	-2.9583	274.945	152.068	267.025	3.381	293.746	-7.551	-22.323	265.222	79.985	176.319	278.559	277.369	223.414	25.416	158.076	229.350	0.00015592	5.9976e-05	7.4387e-05	1050.8	3.3445e-06	5.9995e-06	1149.2	215.28	4.8287e-06	6.1459e-06	273.66	76.537	59.654	17.103	4.2421e-07	24.499	0.00036719	0.00042442	0.00011642	1037	3.995e-06	4.6928e-06	1133.9	216.47	4.0363e-06	4.6451e-06	274.58	78.613	61.749	18.531	4.3356e-06	25.63	269.647	277.808	77.897	-13.523	33.845	200.840	-13.047	-5.481	290.609	161.023	-6.202	1.193	1.935	8.220	289.426	8.125	-8191	255	
14015.407	1	1	0	0	0.1512	0.20861	0.26593	0.33625	0.2236	0.11055	0.21349	0.14456	0.26274	0.27818	0.10067	0.13764	0.15565	0.10936	0.044946	0.13648	-1.9354	-2.8229	-2.3563	-2.5312	-2.7875	-2.4083	-2.7104	-2.8146	-2.3167	-2.9479	-2.6583	-2.2667	-3.0208	-2.4062	-2.7104	-3.0354	266.153	168.953	204.603	-0.871	289.951	253.095	294.323	269.147	239.710	236.055	303.222	305.475	60.004	75.329	117.220	281.088	0.00020434	9.8421e-05	0.00012412	1045.2	5.068e-06	4.7905e-06	1152.4	214.29	7.208e-06	6.8414e-06	271.35	76.459	59.816	17.286	2.9852e-06	24.373	0.00037355	0.00042874	0.00010894	1034.8	4.1626e-06	4.7186e-06	1131.8	215.96	4.2375e-06	4.6233e-06	273.59	78.333	62.155	18.529	4.1608e-06	25.547	263.200	94.799	8.803	-13.331	159.414	80.905	-13.195	-5.593	283.278	121.047	-5.613	1.091	1.773	8.495	50.126	7.727	-8191	255	
14015.503	1	1	0	0	0.31736	0.23933	0.17518	0.055258	0.12664	0.1497	0.26244	0.24044	0.15726	0.085813	0.058619	0.22909	0.044867	0.25125	0.093244	0.17512	-1.7667	-2.7458	-2.5771	-2.575	-2.9375	-2.3708	-2.6583	-2.7938	-2.225	-2.7812	-2.6604	-2.25	-2.9771	-2.3208	-2.5958	-2.7146	-19.167	-0.365	261.893	54.487	272.559	306.696	286.419	-20.859	77.421	310.981	50.533	201.855	118.452	317.755	49.650	314.836	0.00016575	0.00022592	0.00016983	1050	4.427e-06	2.3934e-06	1149	213.11	2.2869e-06	3.8129e-06	271.68	76.719	60.099	17.31	1.5567e-06	24.434	0.0003962	0.00041751	0.00010438	1035.2	4.4374e-06	4.5529e-06	1131	215.59	4.5491e-06	4.4973e-06	272.93	78.303	62.485	18.474	4.14e-06	25.577	245.046	84.203	78.436	-13.461	93.099	159.853	-13.118	-5.221	238.422	319.860	-5.911	1.152	1.380	8.139	242.992	7.767	-8191	255	
14015.599	1	1	0	0	0.21952	0.13851	0.12694	0.16422	0.098951	0.12616	0.32777	0.26795	0.033716	0.05532	0.081795	0.049557	0.23136	0.19829	0.19226	0.076231	-1.7979	-2.6521	-2.5938	-2.2792	-2.9583	-2.2375	-2.4	-3.0812	-2.3458	-2.7	-2.6937	-2.0521	-2.7521	-2.4375	-2.2417	-2.8187	29.861	203.445	105.215	21.229	48.680	230.325	267.393	250.432	299.441	216.719	154.208	271.032	275.735	188.867	68.827	7.629	0.00010739	0.00027079	4.4016e-05	1043.9	3.5537e-06	2.1833e-06	1144.7	214.61	3.1209e-06	7.8584e-06	274.72	76.397	60.147	17.215	5.1044e-06	24.537	0.00041775	0.00040061	0.00010215	1033.4	4.6162e-06	4.3003e-06	1129.6	216.44	4.6276e-06	4.2912e-06	272.6	78.605	62.831	18.357	3.9772e-06	25.854	250.087	307.481	46.668	-13.425	89.436	86.973	-13.262	-5.499	306.122	95.564	-6.221	1.338	1.869	7.999	43.487	7.572	-8191	255	
14015.718	1	1	0	0	0.13743	0.14207	0.14667	0.28813	0.2472	0.41628	0.19607	0.26369	0.060315	0.086673	0.094681	0.54237	0.22591	0.21864	0.16871	0.14535	-1.975	-2.3563	-2.7938	-2.1333	-2.7542	-2.4667	-2.4833	-3.0438	-2.2354	-2.5375	-2.9	-2.1937	-2.7146	-2.6521	-2.2812	-2.8979	272.703	289.409	135.313	221.627	172.439	99.312	262.590	194.642	-7.212	208.783	316.492	288.911	-17.624	102.740	170.281	271.842	0.00014151	0.00055626	0.00010241	1050.5	6.7929e-06	3.0261e-06	1156.2	216.05	4.6203e-06	6.436e-06	273.45	77.115	60.033	17.199	4.549e-06	24.512	0.00041666	0.00038318	9.8695e-05	1035.6	4.5228e-06	4.1616e-06	1130.1	217.1	4.5089e-06	4.0969e-06	272.65	79.152	62.351	18.287	3.8483e-06	25.923	263.366	66.565	48.391	-13.414	41.873	153.987	-13.473	-5.557	204.198	209.820	-5.781	1.306	1.543	8.247	207.187	7.601	-8191	255	
14015.814	1	1	0	0	0.098537	0.18588	0.13269	0.21905	0.13368	0.20358	0.14474	0.1704	0.044865	0.19196	0.15704	0.10412	0.19485	0.14391	0.10385	0.17213	-1.7708	-2.2458	-2.6479	-2.3083	-2.7708	-2.6562	-2.4313	-2.7146	-2.2062	-2.3333	-2.7729	-2.1646	-2.5771	-2.6979	-2.3958	-2.8604	334.791	182.137	220.170	225.553	258.787	291.206	203.379	203.963	323.200	297.903	307.118	227.380	330.625	250.532	216.480	42.650	0.00010335	0.00015146	7.5752e-05	1049.9	3.138e-06	5.8824e-06	1155	216.75	1.9596e-06	3.2893e-06	272.43	77.066	59.911	17.346	3.6004e-06	24.618	0.00039752	0.00037017	9.848e-05	1038.7	4.3527e-06	4.0552e-06	1130	217.8	4.2726e-06	3.9845e-06	272.9	79.427	62.189	18.242	3.9997e-06	26.107	262.547	53.145	51.183	-13.566	279.488	80.465	-13.377	-5.560	100.442	121.097	-6.062	1.342	1.593	8.254	173.872	7.698	-8191	255	
14015.911	1	1	0	0	0.2082	0.10926	0.17999	0.1712	0.036154	0.11854	0.33026	0.042038	0.098231	0.048102	0.041954	0.056931	0.2737	0.022705	0.22536	0.10316	-1.9417	-2.2354	-2.7917	-2.2854	-2.5021	-2.8063	-2.2542	-2.8375	-2.6104	-2.3083	-3.0417	-2.2729	-2.7229	-2.75	-2.2104	-2.975	320.857	177.971	32.701	254.544	315.780	19.555	292.776	100.400	114.440	200.258	309.263	309.123	39.833	9.943	71.647	10.171	0.00023018	0.00038671	0.00012095	1051.3	2.8261e-06	5.6123e-06	1148.8	214.95	4.8056e-06	2.7199e-06	273.43	76.766	60.004	17.293	4.7832e-06	24.396	0.00038628	0.00036056	0.00010366	1040.5	4.2693e-06	3.9269e-06	1131.9	217.82	4.202e-06	3.9687e-06	274.29	79.278	62.036	18.22	4.3055e-06	26.062	264.261	26.881	139.803	-13.548	24.130	38.367	-13.285	-5.531	158.561	144.032	-5.840	1.113	1.809	8.384	202.810	7.547	-8191	255	
14015.984	1	1	0	0	0.088769	0.14283	0.14232	0.29087	0.13115	0.10871	0.15393	0.32316	0.19971	0.13787	0.2557	0.12931	0.20113	0.16545	0.17275	0.11983	-2.1083	-2.3042	-2.7708	-2.3021	-2.4	-2.7042	-2.2188	-2.7562	-2.5875	-2.2479	-3.0333	-2.3479	-2.2313	-2.8667	-2.0208	-2.7646	64.064	77.642	57.785	310.498	273.167	320.023	234.586	305.749	61.178	-12.089	260.372	-11.574	-8.344	117.888	99.558	327.375	0.00014936	0.00027927	0.00011223	1048.7	1.6254e-06	8.264e-07	1157.1	216.22	1.1536e-06	3.2417e-06	274.24	77.173	60.135	17.133	1.2195e-06	24.651	0.00037694	0.00035848	0.00011207	1039.4	4.1242e-06	3.9252e-06	1136.1	217.86	4.1398e-06	3.9781e-06	275.58	79.4	62.164	18.3	4.6901e-06	26.029	237.304	75.126	102.814	-13.471	193.442	57.526	-13.287	-5.787	257.287	195.865	-6.117	1.253	1.251	8.254	178.293	7.213	-8191	255	
14016.103	1	1	0	0	0.20583	0.037071	0.061999	0.045673	0.24113	0.25057	0.10317	0.202	0.31747	0.19788	0.11814	0.38109	0.27826	0.2971	0.037478	0.24147	-2.0167	-2.1854	-2.7438	-2.5729	-2.4021	-2.9479	-2.375	-2.5667	-2.7292	-1.9833	-2.9354	-2.5708	-2.4042	-2.7458	-2.2438	-2.4813	135.981	90.829	7.620	175.652	171.669	126.863	272.885	301.090	46.232	276.314	284.098	310.764	287.532	216.487	36.390	-14.805	0.00015901	0.0003178	5.4512e-05	1054.7	1.9314e-06	3.9725e-06	1152.2	214.97	4.5151e-06	2.6586e-06	273.35	75.947	60.258	17.377	2.0752e-06	24.72	0.00037542	0.00037654	0.0001204	1042.2	4.165e-06	4.1529e-06	1138.1	217.14	4.1109e-06	4.238e-06	277.06	78.892	61.896	18.441	4.7438e-06	25.942	227.368	93.047	235.267	-13.355	61.990	176.483	-13.122	-5.548	96.941	159.632	-5.912	1.553	1.493	7.764	96.618	7.290	-8191	255	
14016.199	1	1	0	0	0.08167	0.19876	0.079195	0.14852	0.068578	0.084043	0.15699	0.1457	0.14733	0.099746	0.17782	0.16658	0.089317	0.072306	0.13422	0.3545	-2.4333	-2.2125	-2.8208	-2.6542	-2.1958	-2.9313	-2.25	-2.5667	-2.8521	-2.2	-2.8917	-2.6312	-2.325	-2.9229	-2.1854	-2.3937	41.086	52.767	280.380	202.835	150.274	158.676	322.481	228.346	288.392	141.238	217.796	322.454	74.230	46.200	100.614	-5.824	0.00019512	0.00032022	3.9869e-05	1049.4	4.3192e-06	2.3221e-06	1152.1	215.26	3.7528e-06	1.1038e-05	274.06	77.265	60.141	17.231	6.7541e-06	24.721	0.00036315	0.00039817	0.00012061	1038.9	4.0512e-06	4.385e-06	1138.6	217.23	3.9962e-06	4.4376e-06	276.76	78.864	61.717	18.53	4.4782e-06	25.843	225.566	140.405	56.651	-13.081	7.141	229.475	-13.165	-5.780	107.584	198.246	-6.196	1.210	1.638	8.049	57.075	7.601	-8191	255	
14016.295	1	1	0	0	0.16177	0.20511	0.22736	0.036759	0.10038	0.13209	0.2367	0.13378	0.20617	0.19947	0.18107	0.007314	0.046247	0.15762	0.09655	0.12929	-2.4896	-2.2917	-2.6875	-2.5312	-2.3875	-3.0771	-2.6104	-2.6542	-2.9083	-2.0687	-2.6583	-2.75	-2.3229	-2.8333	-2.5438	-2.475	215.941	300.369	225.204	-18.010	228.776	219.729	259.105	170.008	222.466	13.463	201.707	257.186	12.604	321.559	163.049	133.124	0.00011844	0.00042662	0.00011828	1049.2	3.4228e-06	2.2382e-06	1147.2	214.3	7.8434e-06	4.7289e-06	272.66	76.491	59.725	17.315	4.0347e-06	24.666	0.00035028	0.00040588	0.00011213	1036.4	3.8564e-06	4.4263e-06	1134.3	216.01	3.8687e-06	4.4806e-06	274.48	78.289	61.647	18.586	4.2267e-06	25.694	263.402	4.857	279.215	-13.017	26.014	-5.742	-13.321	-5.519	264.404	118.998	-5.830	1.245	1.632	8.481	71.707	7.466	-8191	255	
14016.391	1	1	0	0	0.27868	0.034565	0.2209	0.26241	0.056612	0.24699	0.27524	0.1508	0.12024	0.1476	0.35144	0.032919	0.11034	0.17955	0.071561	0.17076	-2.3646	-2.1688	-2.6208	-2.9333	-2.2208	-2.7979	-2.6375	-2.1813	-2.85	-2.4458	-2.6688	-2.8771	-2.2354	-2.7833	-2.4792	-2.4146	48.062	147.313	328.878	326.071	99.256	189.899	233.028	274.923	140.963	61.808	-20.182	181.291	301.785	150.971	38.424	53.352	0.00029256	0.00033093	9.5866e-05	1052.4	2.5612e-06	6.3799e-06	1151.3	213.86	5.6039e-07	4.4276e-06	271.5	76.014	59.885	17.232	2.6769e-06	24.749	0.00035895	0.00041444	0.00010548	1036.7	4.0675e-06	4.5589e-06	1132.1	215.67	4.0878e-06	4.4882e-06	274.01	78.123	62.227	18.578	4.0631e-06	25.754	225.432	-20.642	80.329	-13.082	201.193	159.241	-13.272	-5.704	243.394	139.013	-5.911	1.343	1.891	8.665	237.233	7.238	-8191	255	
14016.512	1	1	0	0	0.077088	0.090583	0.054069	0.11468	0.060978	0.19942	0.31434	0.096354	0.22019	0.049088	0.078574	0.15364	0.16729	0.19161	0.13845	0.14274	-2.6854	-2.2917	-2.4979	-2.9896	-2.1208	-2.6958	-2.8604	-2.1312	-2.9479	-2.3521	-2.7562	-3.0625	-2.2375	-2.6875	-2.7104	-2.4188	113.427	163.317	-20.026	128.390	221.404	140.084	238.778	247.221	-8.954	193.987	-6.964	324.125	248.564	320.824	160.206	-14.949	0.00020624	0.00048855	0.00026872	1049.6	4.4247e-06	2.9268e-06	1149.8	213.44	1.9303e-06	3.6837e-06	272.55	77.13	60.478	17.3	6.0383e-06	24.748	0.00038351	0.00040708	0.00010325	1035.1	4.309e-06	4.4415e-06	1133.4	215.28	4.4282e-06	4.3978e-06	274.02	78.579	62.715	18.508	4.0023e-06	25.883	229.650	-11.093	69.554	-13.066	102.424	54.084	-12.999	-5.765	286.762	236.626	-6.336	1.106	1.387	8.329	34.936	7.595	-8191	255	
14016.606	1	1	0	0	0.25776	0.092665	0.36875	0.41462	0.1024	0.11774	0.35449	0.28635	0.18684	0.11452	0.29224	0.042757	0.25156	0.14305	0.05057	0.14574	-2.5271	-2.6708	-2.3958	-2.8187	-2.2271	-2.7167	-3.0354	-2.3083	-2.6375	-2.575	-2.3979	-2.8	-2.0958	-2.7958	-2.7979	-2.2	49.675	151.594	224.682	318.326	324.409	197.833	271.928	332.846	163.115	0.124	231.276	228.732	21.412	14.573	148.027	-7.569	0.00028487	0.00062866	1.1678e-05	1053.1	3.5265e-06	4.535e-06	1154.4	215.16	3.0131e-06	9.6168e-06	274.01	77.529	59.794	17.317	5.4458e-06	24.645	0.00040833	0.000395	0.00010204	1038.2	4.6276e-06	4.2986e-06	1134.4	216.44	4.6318e-06	4.2206e-06	274.14	78.969	62.662	18.522	3.9138e-06	26.02	248.016	75.071	53.339	-13.091	102.524	105.202	-13.210	-5.627	235.229	151.350	-6.426	1.009	1.974	8.096	170.560	7.702	-8191	255	
14016.704	1	1	0	0	0.16479	0.057362	0.26966	0.25046	0.070835	0.09868	0.19533	0.10935	0.10431	0.15107	0.2138	0.025391	0.059754	0.10297	0.17336	0.13328	-2.4042	-2.5458	-2.2354	-2.9688	-2.1604	-2.7417	-2.9	-2.2292	-2.8646	-2.6292	-2.3583	-2.7875	-2.4729	-2.3917	-2.6979	-2.0917	-1.125	40.098	29.784	243.958	133.043	315.008	251.944	284.664	279.776	322.057	320.971	293.319	239.642	68.302	64.765	1.436	7.3212e-05	0.00042269	9.5316e-05	1050.8	3.6905e-06	8.9192e-07	1156.5	215.78	8.7921e-06	4.1962e-06	274.42	76.712	60.615	17.544	7.1476e-06	24.702	0.00042127	0.00038154	0.00010056	1040.4	4.6441e-06	4.1807e-06	1135.5	217.45	4.5915e-06	4.1724e-06	274.63	79.39	62.982	18.591	3.9187e-06	26.256	315.655	77.137	71.028	-13.381	188.781	-21.145	-13.229	-5.783	219.565	156.245	-6.152	1.198	1.379	8.283	98.337	7.573	-8191	255	
14016.799	1	1	0	0	0.11815	0.059198	0.22919	0.1114	0.37718	0.11597	0.20534	0.2469	0.2172	0.27038	0.47849	0.14711	0.16731	0.33864	0.28669	0.18271	-2.2375	-2.5687	-2.0438	-3.0646	-2.4208	-2.4792	-2.9625	-2.1771	-2.5833	-2.6896	-2.1333	-2.8792	-2.4313	-2.1896	-2.8854	-2.0354	31.525	61.493	203.886	178.243	138.523	12.984	316.765	283.355	47.331	170.807	305.353	137.091	69.001	280.405	187.310	160.564	0.00021562	0.00016594	0.00015865	1058.1	1.9048e-06	3.3678e-06	1158.8	215.04	2.7132e-06	7.3998e-06	275.41	77.219	60.192	17.555	1.0665e-06	24.7	0.00041014	0.00038174	0.00010207	1046.2	4.5388e-06	4.127e-06	1137.7	218.45	4.429e-06	4.0808e-06	274.97	79.652	62.584	18.531	4.0531e-06	26.339	210.533	225.445	63.176	-13.203	-21.327	25.393	-13.236	-5.759	169.995	31.686	-5.941	1.554	1.533	8.217	118.593	7.560	-8191	255	
14016.895	1	1	0	0	0.1414	0.13382	0.075957	0.059598	0.11136	0.065856	0.15505	0.030236	0.15697	0.027612	0.050695	0.32055	0.008029	0.22679	0.068121	0.35887	-2.1708	-2.6292	-2.0125	-2.9271	-2.5479	-2.4146	-3.25	-2.3812	-2.5417	-2.7042	-2.2188	-2.8167	-2.5271	-2.2938	-2.7875	-2.3563	113.665	318.251	201.222	270.151	255.399	59.950	270.394	279.010	48.936	167.548	248.532	214.049	145.019	272.419	90.789	12.603	3.0498e-05	0.00024464	8.6408e-05	1054.5	3.5561e-06	2.0465e-06	1156.8	214.67	1.1191e-05	4.1196e-06	274.05	77.479	60.897	17.566	1.1802e-06	24.659	0.00038775	0.00036481	0.00010477	1046.1	4.245e-06	3.9953e-06	1137.9	218.24	4.2336e-06	3.9147e-06	276.04	79.827	62.473	18.45	4.3274e-06	26.31	191.781	-10.299	92.142	-13.545	145.478	131.919	-13.004	-5.831	210.525	122.466	-6.269	1.232	1.673	8.025	197.495	7.196	-8191	255	
14016.991	1	1	0	0	0.23609	0.1243	0.26515	0.18784	0.017223	0.25419	0.41012	0.16188	0.2726	0.16486	0.32134	0.35878	0.19452	0.084306	0.26747	0.2177	-2.1646	-2.9083	-2.2667	-2.8917	-2.5271	-2.1917	-3.0896	-2.5542	-2.4729	-2.7583	-2.3583	-2.8187	-2.6	-2.3875	-2.9292	-2.3333	329.513	74.684	135.572	240.575	321.420	241.176	310.681	273.188	129.646	285.613	-10.738	-10.001	56.958	131.609	252.329	314.975	0.00014222	0.00026673	6.077e-05	1059	6.0526e-06	3.1991e-06	1164.6	216.41	2.1395e-06	6.4664e-06	274.49	77.568	60.252	17.575	2.4436e-06	24.919	0.00037501	0.00035798	0.00011177	1046.9	4.1217e-06	3.9412e-06	1144.5	218.38	4.1333e-06	3.8808e-06	277.3	79.781	62.148	18.503	4.5142e-06	26.141	261.875	125.250	32.038	-13.489	326.178	148.909	-13.122	-5.668	4.360	143.047	-6.210	1.065	1.265	7.974	200.559	7.602	-8191	255	
14017.112	1	1	0	0	0.10419	0.2849	0.32278	0.16277	0.22885	0.093508	0.21105	0.15493	0.22327	0.18156	0.13543	0.10808	0.045717	0.066053	0.076386	0.0527	-2.1396	-2.775	-2.2458	-2.6458	-2.5042	-2.1354	-2.9354	-2.4917	-2.2646	-2.7875	-2.3042	-2.6354	-2.7458	-2.075	-2.8958	-2.525	143.186	78.649	86.812	207.054	217.596	298.682	326.180	145.478	301.349	-16.627	315.555	263.193	303.192	273.746	34.061	70.404	0.00013048	0.00024429	0.00011505	1063.9	3.413e-06	1.2119e-06	1165.6	217.34	7.3632e-06	2.6834e-06	275.48	77.789	60.865	17.66	7.0809e-06	24.815	0.00036478	0.00035979	0.00011644	1046.2	3.9953e-06	4.0049e-06	1144.3	217.44	4.0163e-06	4.0923e-06	277.98	79.434	62.093	18.608	4.6464e-06	26.068	292.631	136.213	189.536	-13.727	206.754	239.879	-13.397	-5.567	120.931	167.741	-6.406	0.686	1.711	7.775	165.486	7.132	-8191	255	
14017.208	1	1	0	0	0.085278	0.1347	0.22253	0.29931	0.081701	0.12124	0.45943	0.15826	0.098962	0.085711	0.097975	0.088297	0.061434	0.076908	0.26462	0.21265	-1.9854	-2.9667	-2.1688	-2.6708	-2.8729	-2.2146	-2.8917	-2.6042	-2.4313	-2.9208	-2.3458	-2.5583	-2.7875	-2.175	-2.7042	-2.7083	154.517	320.524	39.305	282.072	44.045	114.303	313.617	5.388	268.278	106.419	248.145	72.411	245.701	288.290	215.629	321.089	0.00023985	0.00014988	7.3052e-05	1059.5	7.1744e-06	2.9389e-06	1166.9	217.06	3.1835e-06	6.5911e-06	278.31	77.597	60.412	17.557	6.4526e-06	24.888	0.00036038	0.00038446	0.00011857	1044	3.9092e-06	4.2793e-06	1144.6	217.5	3.9027e-06	4.3468e-06	278.25	79.05	62.118	18.74	4.4287e-06	25.991	241.747	58.831	237.526	-13.526	141.475	74.200	-13.190	-5.636	219.445	191.219	-6.522	1.400	1.611	8.338	36.214	7.458	-8191	255	
14017.279	1	1	0	0	0.020791	0.29045	0.094929	0.10818	0.15786	0.24973	0.23571	0.15733	0.090938	0.25837	0.1709	0.071284	0.31683	0.093494	0.099659	0.17042	-1.9167	-2.7729	-2.2333	-2.4458	-2.9458	-2.0604	-2.7708	-2.6667	-2.2438	-2.9583	-2.3104	-2.3667	-2.8208	-2.1167	-2.7021	-2.6021	-20.131	71.085	4.599	324.804	116.069	74.779	-21.277	248.941	153.804	87.612	225.875	197.984	-11.575	259.601	131.005	310.495	0.00022544	0.00037929	6.8691e-05	1058.5	2.9381e-06	4.4735e-06	1163.8	216.94	2.3693e-06	6.7574e-06	277.05	77.962	60.733	17.505	2.6808e-06	24.757	0.00035188	0.00040561	0.00011275	1042.2	3.8574e-06	4.477e-06	1141.9	217.36	3.906e-06	4.5271e-06	277	79.197	62.104	18.797	4.2851e-06	25.831	235.298	89.487	79.230	-13.621	110.982	89.904	-13.431	-5.658	46.185	225.346	-6.285	1.096	1.339	8.115	230.413	7.330	-8191	255	
14017.376	1	1	0	0	0.11976	0.1906	0.088687	0.25099	0.27421	0.033049	0.22335	0.26702	0.21407	0.15984	0.12441	0.16417	0.32891	0.26002	0.19255	0.10384	-1.9208	-2.9313	-2.3729	-2.4604	-2.8583	-2.2021	-2.575	-2.6333	-2.1937	-2.7667	-2.6292	-2.2271	-2.9854	-2.1771	-2.4437	-2.8958	240.578	147.225	304.686	-2.988	-10.731	318.028	288.388	322.802	298.045	38.336	237.541	214.061	280.082	31.616	233.860	165.576	0.00016045	0.00039494	9.2406e-05	1058.2	1.6571e-06	4.9674e-07	1165.7	216.76	1.0991e-06	2.4846e-06	276.19	77.61	60.776	17.532	5.8243e-06	24.842	0.00036606	0.00042374	0.00010777	1042.5	4.0501e-06	4.5792e-06	1140.3	217.21	4.1402e-06	4.5897e-06	276.06	78.826	62.532	18.833	4.1637e-06	25.852	273.750	44.005	118.185	-13.673	302.070	178.070	-13.434	-5.666	150.578	27.414	-6.001	1.104	1.454	8.370	145.335	7.637	-8191	255	
14017.496	1	1	0	0	0.19427	0.33322	0.047862	0.050981	0.1173	0.10245	0.065332	0.1842	0.20917	0.26419	0.22615	0.30028	0.1382	0.29786	0.19311	0.10444	-1.8917	-2.675	-2.5312	-2.5979	-2.8667	-2.2125	-2.6542	-2.8667	-2.1708	-2.6333	-2.6688	-2.1437	-2.8208	-2.1771	-2.3271	-2.7104	229.488	321.865	-17.991	152.271	72.216	211.999	261.343	199.178	209.498	219.743	297.573	13.644	152.643	285.734	163.282	3.100	0.00038605	4.1631e-05	0.00011051	1063.5	6.1907e-06	4.6443e-06	1161	215.85	3.5004e-06	1.0548e-06	276.58	77.469	60.972	17.658	5.3252e-06	24.995	0.00038718	0.00041127	0.00010388	1042.9	4.3451e-06	4.4537e-06	1139.3	216.74	4.3682e-06	4.3989e-06	275.75	78.652	62.937	18.758	4.0348e-06	25.913	253.211	174.650	46.958	-13.458	102.222	65.671	-13.468	-5.670	255.123	10.879	-6.125	0.953	1.619	7.768	-2.466	7.624	-8191	255	
14017.592	1	1	0	0	0.078625	0.12461	0.24413	0.20739	0.14753	0.14047	0.38416	0.12431	0.18659	0.16952	0.052952	0.31514	0.18104	0.13121	0.26749	0.089085	-1.7042	-2.7708	-2.4333	-2.4771	-2.7979	-2.2292	-2.5667	-3.1292	-2.2083	-2.6604	-2.8063	-2.2562	-2.9042	-2.3292	-2.3333	-3.1208	199.687	216.141	-0.477	5.545	25.887	6.661	325.080	4.360	325.674	272.221	80.474	238.190	125.523	23.407	322.581	278.679	0.00021159	0.00031628	7.8967e-05	1060.7	5.8994e-06	4.2309e-06	1162.1	216.3	8.2223e-06	8.3431e-07	276.03	77.563	60.391	17.798	3.8891e-06	24.814	0.00041139	0.00039976	0.00010172	1042.6	4.5732e-06	4.2873e-06	1139.4	216.88	4.5804e-06	4.2365e-06	275.25	79.09	62.926	18.691	3.8925e-06	25.961	204.629	325.779	96.427	-13.577	129.140	281.126	-13.305	-5.726	164.333	174.094	-6.659	1.098	1.518	8.247	60.784	7.606	-8191	255	
14017.687	1	1	0	0	0.23184	0.13471	0.10058	0.084136	0.09566	0.23229	0.26884	0.26103	0.22114	0.31519	0.21974	0.15677	0.20548	0.058231	0.061682	0.22883	-1.8542	-2.7292	-2.6417	-2.3479	-2.7562	-2.675	-2.5646	-3.0792	-2.5875	-2.6833	-2.7646	-2.3083	-2.8292	-2.75	-2.4	-2.975	139.372	15.374	-11.683	310.827	254.613	324.123	245.850	262.829	211.300	145.784	299.405	255.863	323.884	79.357	62.374	265.176	2.8103e-05	0.0005276	6.1822e-05	1064.6	3.688e-06	2.688e-06	1161.3	217.11	4.5963e-06	3.4245e-06	276.06	77.192	60.597	17.599	4.6548e-06	24.837	0.00041472	0.00037877	9.7476e-05	1045.3	4.4674e-06	4.0589e-06	1136.4	217.4	4.4529e-06	4.0571e-06	274.64	79.216	62.899	18.538	3.8498e-06	26.159	206.297	44.982	-3.106	-13.715	25.636	146.718	-13.459	-5.774	196.079	196.945	-6.305	1.468	1.657	7.919	194.704	7.844	-8191	255	
14017.785	1	1	0	0	0.15214	0.25745	0.27837	0.057493	0.17102	0.20572	0.19926	0.27596	0.11469	0.092793	0.15883	0.32738	0.10271	0.10065	0.075951	0.13817	-1.8792	-2.5229	-2.8354	-2.3354	-2.7188	-2.6021	-2.1792	-3.0208	-2.4625	-2.5875	-2.8396	-2.1063	-2.5583	-2.6042	-2.2938	-2.8354	39.320	80.393	51.580	-23.167	241.074	180.662	297.355	296.055	224.027	115.534	151.838	302.287	47.756	137.081	175.204	143.719	0.00011384	0.00035186	1.2428e-05	1062.3	1.8632e-06	3.7445e-06	1164.3	216.78	6.4175e-06	2.8048e-07	275.49	77.59	60.81	17.571	8.0756e-07	24.745	0.00039726	0.0003668	9.6511e-05	1046.1	4.344e-06	3.9288e-06	1135.9	218.14	4.2278e-06	3.9449e-06	274.81	79.721	62.513	18.55	3.8963e-06	26.224	245.498	82.751	26.905	-13.642	62.918	43.091	-13.443	-5.696	201.594	149.152	-6.158	0.870	1.216	8.343	170.826	7.755	-8191	255	
14017.879	1	1	0	0	0.22258	0.17545	0.17732	0.12103	0.15724	0.17772	0.10775	0.28003	0.070356	0.060208	0.2766	0.19496	0.2904	0.10488	0.16151	0.12487	-2.0062	-2.4396	-2.8542	-2.5021	-2.6604	-2.9375	-2.4208	-3.0687	-2.525	-2.3479	-3.1083	-2.3604	-2.5938	-2.7875	-2.1146	-2.8042	239.420	164.322	-2.205	270.819	248.286	310.941	254.089	265.501	107.395	317.555	275.695	329.328	7.517	299.334	330.528	292.447	9.9055e-05	0.0001353	0.00020988	1056.6	3.6583e-06	1.2897e-06	1164.4	217.18	6.8096e-06	5.8404e-06	276.65	77.267	60.872	17.639	2.8217e-06	24.785	0.00037973	0.00035571	0.00010036	1044.5	4.1612e-06	3.8622e-06	1139	218.48	4.1109e-06	3.8826e-06	276.22	79.615	62.394	18.507	4.1806e-06	26.264	307.729	126.645	176.613	-13.650	305.698	23.085	-13.269	-6.082	185.851	35.493	-6.072	0.962	1.168	8.757	218.295	7.640	-8191	255	
14017.975	1	1	0	0	0.20416	0.13206	0.21687	0.15056	0.1414	0.11939	0.045059	0.1751	0.20954	0.39703	0.11261	0.17895	0.17869	0.20673	0.11517	0.14935	-2.15	-2.225	-2.8354	-2.4	-2.5396	-2.9521	-2.3021	-2.8583	-2.5687	-2.1604	-2.8271	-2.4396	-2.3583	-2.8667	-2.2062	-2.7458	132.635	330.521	321.253	-8.336	196.505	142.763	296.229	48.671	129.892	329.152	-20.532	283.113	74.114	137.764	270.694	291.520	0.00028004	0.00034024	0.00013362	1062.4	1.4588e-06	4.977e-06	1166.3	216.83	4.3765e-06	2.3095e-06	277.55	77.593	60.672	17.727	1.8525e-06	24.851	0.00036676	0.00035045	0.00010925	1048.1	4.1198e-06	3.8159e-06	1142.9	218.18	4.0234e-06	3.8756e-06	278.08	79.628	62.367	18.54	4.5074e-06	26.143	282.041	34.432	194.048	-13.401	-15.429	124.099	-13.510	-5.616	221.644	127.933	-6.348	0.839	1.239	7.795	214.791	7.823	-8191	255	
14018.071	1	1	0	0	0.32115	0.26874	0.078329	0.22059	0.074235	0.12058	0.092469	0.04664	0.44134	0.095885	0.08247	0.23106	0.2218	0.13157	0.20454	0.12139	-2.2479	-2.0875	-2.8271	-2.575	-2.4917	-3.0146	-2.2521	-2.5833	-2.7458	-2.1708	-3.1125	-2.3917	-2.3604	-2.9333	-2.4042	-2.6833	248.827	193.009	57.653	31.771	126.657	-17.087	135.634	266.158	125.915	23.772	231.599	166.370	43.195	300.815	292.242	239.761	0.00029269	0.00026295	0.00015724	1059.4	4.5607e-06	1.832e-06	1170	216.75	3.546e-06	2.4386e-06	277.02	77.643	60.403	17.71	2.6321e-06	24.989	0.0003653	0.00035797	0.00011538	1046	4.002e-06	3.9382e-06	1145	217.72	3.9603e-06	4.0524e-06	278.83	79.342	62.044	18.661	4.627e-06	26.136	243.296	199.781	88.049	-13.562	59.973	189.663	-13.274	-5.800	227.052	296.552	-6.306	1.257	1.564	8.098	88.725	7.117	-8191	255	
14018.192	1	1	0	0	0.17854	0.050266	0.29522	0.20145	0.18493	0.077297	0.21609	0.1156	0.20149	0.21401	0.18209	0.10188	0.1588	0.037958	0.3164	0.23596	-2.1937	-2.3167	-2.5417	-2.7292	-2.3479	-2.9271	-2.4542	-2.55	-2.7229	-2.1979	-2.7229	-2.6604	-2.2042	-2.8	-2.3	-2.3875	67.969	162.530	291.087	286.696	59.458	103.551	324.065	-21.491	316.440	255.090	16.821	228.759	-15.623	326.386	260.269	241.826	4.9907e-05	1.3795e-05	4.1893e-05	1059.8	5.9408e-06	6.4302e-06	1164.6	217	4.397e-06	3.0806e-06	277.55	77.321	60.704	17.707	1.4428e-06	24.685	0.00035777	0.00038379	0.00011803	1043.1	3.9505e-06	4.2432e-06	1144.7	217.7	3.8894e-06	4.3709e-06	279.16	79.027	62.211	18.828	4.4819e-06	25.981	240.260	308.329	48.206	-13.509	33.521	136.180	-13.335	-5.890	248.926	160.296	-6.528	0.823	1.596	7.905	242.735	7.489	-8191	255	
14018.288	1	1	0	0	0.1864	0.1454	0.04942	0.16682	0.093202	0.15096	0.34926	0.14772	0.043797	0.16813	0.16034	0.10714	0.38488	0.15351	0.3269	0.20122	-2.4792	-2.0458	-2.65	-2.8771	-2.2062	-2.9813	-2.4938	-2.4437	-2.8208	-1.9625	-2.6729	-2.7375	-2.1937	-2.8042	-2.4542	-2.4125	195.668	112.896	155.456	331.665	266.879	38.816	286.111	227.601	36.347	3.228	48.725	265.348	100.626	124.289	99.647	144.423	8.7377e-05	0.00011998	5.6546e-05	1060.9	2.3256e-06	4.3756e-06	1167.4	216.26	2.4447e-06	3.1583e-06	277.27	77.744	60.427	17.674	3.8692e-06	25.073	0.0003516	0.00040999	0.00011318	1044.8	3.936e-06	4.5163e-06	1143.4	216.93	3.8731e-06	4.5355e-06	276.99	78.948	62.091	18.872	4.2769e-06	25.909	244.820	295.214	14.613	-13.597	130.690	130.672	-13.443	-5.946	261.010	175.029	-6.216	1.166	1.777	8.218	124.236	7.305	-8191	255	
14018.384	1	1	0	0	0.22085	0.094452	0.36279	0.36078	0.16694	0.10903	0.1984	0.11075	0.15052	0.18043	0.17728	0.10248	0.066158	0.20376	0.2185	0.068592	-2.4917	-2.2313	-2.4229	-2.6417	-2.1396	-2.7646	-2.5021	-2.4479	-2.925	-2.2938	-2.6208	-2.9021	-2.2542	-2.8979	-2.525	-2.3708	7.837	232.351	196.123	286.078	15.907	109.348	107.833	283.629	109.705	121.745	309.582	118.733	24.329	328.289	169.595	-19.813	0.00030029	0.00033437	0.00010383	1059	1.7692e-06	2.4135e-06	1159.8	216.87	2.7788e-06	2.0078e-06	277.76	77.778	60.421	17.675	2.8281e-06	24.833	0.00035935	0.00042107	0.00010864	1041.7	4.0808e-06	4.5916e-06	1140.4	217	4.1263e-06	4.6095e-06	276.94	78.872	62.546	18.958	4.1929e-06	25.845	238.690	178.477	311.869	-13.541	321.389	232.824	-13.296	-5.628	295.165	77.428	-6.281	1.076	1.712	8.371	112.867	7.917	-8191	255	
14018.505	1	1	0	0	0.22668	0.035687	0.035209	0.24392	0.066529	0.076632	0.29335	0.16776	0.3113	0.14588	0.28947	0.068339	0.059683	0.084237	0.30085	0.18411	-2.6104	-2.3896	-2.4042	-2.6896	-2.4125	-2.6937	-2.6292	-2.4188	-3.0146	-2.3917	-2.5979	-2.9958	-2.2271	-2.7938	-2.6667	-2.2521	243.600	332.042	94.757	-3.603	303.485	296.530	268.222	-12.010	286.821	-13.423	290.037	132.089	183.498	212.569	247.648	136.220	0.00020572	0.00016829	9.4364e-05	1061.8	6.578e-06	5.5899e-07	1167.4	217.56	4.8354e-06	4.2717e-06	275.83	77.714	60.806	17.633	5.2144e-06	24.961	0.00038772	0.00042212	0.00010727	1043.3	4.3869e-06	4.5317e-06	1141.7	217.02	4.4392e-06	4.5223e-06	276.15	79.01	63.029	18.83	4.0792e-06	25.865	239.536	308.081	45.433	-13.530	140.127	185.933	-13.307	-5.459	14.663	72.552	-6.450	1.007	1.528	8.266	109.196	7.192	-8191	255	
14018.577	1	1	0	0	0.20051	0.19431	0.23937	0.13392	0.21053	0.15535	0.20244	0.27479	0.32423	0.22102	0.15797	0.046572	0.27967	0.29892	0.062528	0.08296	-2.5438	-2.3771	-2.4104	-2.9688	-2.2396	-2.7313	-2.9062	-2.2438	-2.9042	-2.4333	-2.6437	-2.9	-2.3917	-2.7062	-2.7729	-2.1771	207.429	154.467	265.117	-16.094	109.805	326.008	241.670	290.289	331.509	79.682	125.228	211.305	-5.116	326.452	143.025	168.087	0.00034202	0.00036216	7.5989e-05	1061.5	8.5836e-06	2.4186e-06	1162.8	216.92	1.2295e-06	5.5687e-06	275.35	77.877	60.857	17.625	8.3416e-07	24.683	0.00041458	0.00040371	0.00010366	1043.2	4.6138e-06	4.3705e-06	1140.6	217.43	4.6169e-06	4.2587e-06	275.53	78.998	63.182	18.729	3.921e-06	25.994	247.055	302.969	114.631	-13.371	115.909	136.888	-13.572	-5.990	144.520	274.812	-5.901	1.044	1.307	7.939	296.151	7.710	-8191	255	
14018.673	1	1	0	0	0.039307	0.080656	0.095074	0.27482	0.27575	0.30915	0.2371	0.15639	0.14148	0.43164	0.097855	0.3325	0.11096	0.14286	0.16835	0.21489	-2.2146	-2.5312	-2.2042	-3.0021	-2.3083	-2.5708	-3.0146	-2.2271	-2.8	-2.7083	-2.3646	-2.9542	-2.3667	-2.45	-2.9104	-2.1625	24.602	182.410	141.021	319.850	287.023	322.636	294.784	282.350	149.589	217.393	-17.421	115.232	40.099	44.709	127.572	255.349	0.00015007	0.00025288	3.8344e-05	1057.9	1.6219e-06	3.0185e-06	1162.6	216.18	4.9561e-06	2.2379e-06	277.27	77.374	60.821	17.663	1.2646e-06	24.809	0.00041055	0.00038033	0.0001001	1043.4	4.6051e-06	4.1809e-06	1138.5	217.82	4.5723e-06	4.1771e-06	276.11	79.55	63.008	18.711	3.921e-06	26.216	287.086	332.286	201.895	-13.393	-1.899	74.549	-13.156	-5.619	140.921	135.151	-6.335	1.185	1.709	7.984	120.567	7.395	-8191	255	
14018.792	1	1	0	0	0.14257	0.046248	0.01795	0.24704	0.17389	0.039739	0.21338	0.096308	0.29609	0.14335	0.071516	0.24641	0.19998	0.19157	0.13299	0.16718	-2.3125	-2.5708	-2.2458	-2.825	-2.4042	-2.4437	-2.9604	-2.1146	-2.6479	-2.7875	-2.4229	-3.0708	-2.3812	-2.3146	-2.8	-2.275	-7.122	315.432	109.301	154.476	51.531	40.597	264.529	99.700	309.425	62.241	9.809	281.422	220.923	-9.713	217.303	311.197	5.0708e-05	0.00042951	7.4522e-05	1061.1	1.7032e-06	3.9403e-06	1161.9	216.1	1.6844e-06	4.6746e-06	277.48	77.012	60.612	17.738	2.2561e-06	24.921	0.00041318	0.00037374	0.00010085	1048.2	4.4909e-06	4.0967e-06	1139.5	218.04	4.3973e-06	4.0367e-06	276.11	79.923	62.79	18.647	3.915e-06	26.337	220.259	35.700	41.554	-13.407	303.346	68.669	-13.372	-5.509	207.088	52.662	-6.520	1.027	1.046	8.259	218.310	7.548	-8191	255	
14018.888	1	1	0	0	0.21856	0.049993	0.11158	0.25312	0.22803	0.18609	0.10173	0.19448	0.20261	0.10036	0.095027	0.31927	0.065462	0.1039	0.35905	0.23635	-2.2333	-2.6813	-2.3167	-2.9188	-2.4396	-2.4708	-3.0583	-2.2708	-2.6354	-2.8333	-2.4833	-2.9958	-2.5896	-2.3396	-3.0625	-2.4146	331.705	-15.863	-10.589	-7.323	158.710	0.949	2.580	284.034	14.687	241.278	251.860	336.050	240.624	316.218	199.340	193.509	0.00012167	0.00040659	9.0808e-05	1060.7	4.7984e-06	2.1795e-06	1162.9	215.33	3.6637e-06	6.9972e-06	275.96	77.347	60.803	17.705	5.4897e-06	24.675	0.00038604	0.00036116	0.0001029	1049.5	4.2104e-06	3.9338e-06	1141.6	218.22	4.2023e-06	3.9101e-06	277.02	79.897	62.581	18.618	4.2574e-06	26.307	301.745	237.077	149.243	-13.354	313.814	38.065	-13.277	-5.784	135.738	121.480	-6.226	1.019	1.666	7.759	138.015	7.653	-8191	255	
14018.984	1	1	0	0	0.095536	0.074313	0.27682	0.1534	0.043449	0.080038	0.38946	0.18514	0.10716	0.019355	0.1426	0.12895	0.13118	0.16269	0.26092	0.15482	-2.0208	-2.7208	-2.1625	-2.9437	-2.6	-2.3292	-3.1063	-2.4375	-2.4271	-2.8563	-2.2062	-2.7083	-2.6542	-2.0312	-2.8667	-2.3104	26.507	330.645	1.656	62.160	116.676	12.018	268.701	258.546	269.857	210.124	311.188	124.917	41.505	32.850	306.571	286.075	0.00015994	0.00047185	2.738e-05	1059.3	3.3231e-06	1.8277e-06	1155.3	216.27	3.607e-06	4.6929e-06	276.26	77.447	60.186	17.559	1.9998e-06	24.937	0.00038234	0.00035892	0.00011194	1048.9	4.1549e-06	3.9743e-06	1143.3	218.69	4.1348e-06	3.9423e-06	278.65	79.823	62.434	18.639	4.6561e-06	26.201	250.409	50.325	63.967	-13.248	61.317	137.148	-13.345	-5.569	200.848	247.730	-6.041	1.133	1.384	8.252	317.855	6.978	-8191	255	
14019.080	1	1	0	0	0.17472	0.10848	0.19266	0.12117	0.092234	0.38549	0.059858	0.12236	0.075429	0.068287	0.020676	0.17851	0.24801	0.26653	0.16909	0.27284	-2.0917	-2.7042	-2.3979	-2.8438	-2.5646	-2.1979	-3.0958	-2.4604	-2.3833	-2.8625	-2.3896	-2.7125	-2.725	-2.2458	-2.7188	-2.45	180.325	103.906	25.173	-20.606	173.629	115.511	39.582	280.412	70.697	327.671	93.402	208.811	89.502	1.655	316.709	279.650	0.00018839	0.00033778	5.7623e-05	1061.5	3.3152e-06	3.1732e-06	1161.4	216.57	7.0528e-06	5.8998e-06	275.13	77.698	60.344	17.54	6.5317e-06	24.725	0.00037377	0.00036333	0.00011917	1049.9	4.1233e-06	4.0832e-06	1146.7	218.28	4.1089e-06	4.0767e-06	279.06	79.493	62.353	18.694	4.7816e-06	26.11	234.241	167.136	7.990	-13.555	41.254	119.406	-13.156	-5.482	284.397	184.607	-5.968	1.034	1.380	8.327	268.119	7.451	-8191	255	
14019.152	1	1	0	0	0.06943	0.11702	0.20591	0.12853	0.16478	0.24771	0.30765	0.30196	0.063462	0.19748	0.066594	0.13389	0.14123	0.15694	0.15635	0.10266	-1.925	-3.0062	-2.2521	-2.8146	-2.7833	-2.1708	-3.1042	-2.5583	-2.1521	-2.7958	-2.4875	-2.6104	-2.925	-2.3083	-2.7271	-2.6562	177.608	288.959	334.428	-6.709	231.606	23.530	266.775	153.056	78.686	-16.213	305.805	163.885	141.635	214.358	230.610	305.995	0.00017579	0.0002611	9.1585e-05	1064.2	1.6875e-06	4.5652e-06	1165.7	215.69	3.5926e-06	3.2616e-06	275.79	77.57	60.001	17.674	5.2875e-06	24.722	0.00036933	0.00038955	0.00012129	1049.4	3.9998e-06	4.3221e-06	1147.9	217.93	4.0191e-06	4.4344e-06	279.05	79.419	62.128	18.913	4.6804e-06	26.088	231.858	160.488	313.268	-13.476	18.242	177.992	-13.143	-5.552	119.157	157.540	-6.451	1.509	1.724	8.224	112.160	7.699	-8191	255	
14019.272	1	1	0	0	0.15676	0.13905	0.10693	0.19557	0.19296	0.366	0.34723	0.18593	0.1771	0.10447	0.1894	0.16341	0.28475	0.18456	0.12072	0.06659	-1.7687	-2.7917	-2.2313	-2.4458	-3.0187	-2.2146	-2.7917	-2.6583	-2.2333	-2.8083	-2.4562	-2.2958	-2.8583	-2.3542	-2.7583	-2.6937	73.296	279.135	148.349	308.333	327.341	25.696	266.823	327.927	160.749	109.833	-18.101	144.424	333.531	106.722	6.344	16.141	0.00028382	0.00032541	0.00010788	1066.7	2.0799e-06	3.48e-06	1162.4	216.38	2.4737e-06	1.4234e-06	275.5	77.768	60.709	17.728	5.8531e-06	24.729	0.00036752	0.00041987	0.00011984	1048.9	4.0365e-06	4.6762e-06	1147.5	217.73	4.1173e-06	4.7378e-06	278.6	79.392	62.536	19.037	4.5763e-06	26.081	255.553	89.097	6.945	-13.451	328.360	139.935	-13.343	-5.644	23.831	209.301	-6.022	1.297	1.565	8.630	88.660	7.566	-8191	255	
14019.369	1	1	0	0	0.11551	0.24628	0.11834	0.19866	0.090266	0.22942	0.24868	0.43526	0.21777	0.10594	0.15019	0.17287	0.19423	0.0577	0.040282	0.17494	-1.8542	-2.7604	-2.4333	-2.3042	-2.9188	-2.3375	-2.7979	-2.8604	-2.3208	-2.8833	-2.5062	-2.4146	-3.0729	-2.2604	-2.6042	-2.9458	60.574	153.233	65.612	139.272	161.071	120.560	301.123	286.442	146.977	77.109	213.172	48.573	314.479	117.542	2.929	267.910	0.00035807	0.00031201	0.0001543	1060.1	4.7574e-06	6.8618e-06	1161.7	214.87	6.0533e-06	2.7117e-06	278.33	77.374	60.489	17.694	2.765e-06	24.775	0.00037991	0.00044817	0.0001154	1047.3	4.242e-06	4.9111e-06	1148.5	217.42	4.4222e-06	4.9465e-06	279.3	79.542	63.047	19.187	4.544e-06	26.112	263.927	144.892	31.567	-13.324	134.889	151.439	-13.469	-5.405	266.706	42.434	-5.973	1.604	1.514	8.314	270.140	7.330	-8191	255	
14019.465	1	1	0	0	0.21851	0.10085	0.26266	0.25091	0.11447	0.13126	0.14994	0.078354	0.15611	0.35523	0.22717	0.31228	0.11222	0.22625	0.050095	0.1502	-1.8062	-2.6417	-2.425	-2.5	-2.7479	-2.4417	-2.7875	-3.0125	-2.2354	-2.7271	-2.6854	-2.3375	-2.8896	-2.4417	-2.575	-2.9417	333.443	118.176	189.165	-2.970	160.546	86.616	313.891	293.119	111.113	20.289	224.258	195.859	68.781	127.179	319.069	227.648	0.00035366	0.00052538	0.00010384	1057.7	2.9575e-06	4.3194e-07	1160	215.28	5.1392e-06	3.8749e-06	274.52	77.166	60.694	17.676	4.5518e-06	24.775	0.00042218	0.00045331	0.00011495	1049.7	4.6921e-06	4.939e-06	1149.2	218.22	4.7516e-06	4.8669e-06	278.33	79.478	63.514	19.075	4.4391e-06	26.174	269.695	23.046	79.856	-13.555	210.814	190.396	-13.161	-5.522	306.671	54.825	-5.935	1.368	1.690	8.075	125.709	7.950	-8191	255	
14019.584	1	1	0	0	0.19862	0.034701	0.13757	0.32687	0.075907	0.10496	0.15059	0.10233	0.17758	0.20175	0.3817	0.16565	0.14897	0.17851	0.11435	0.059303	-1.9208	-2.6604	-2.4771	-2.3229	-2.9562	-2.3187	-2.5896	-2.9292	-2.3187	-2.5875	-2.7208	-2.2812	-2.8333	-2.5167	-2.4562	-2.8208	155.842	33.554	309.828	289.332	304.183	60.617	311.961	149.817	112.502	257.202	23.177	2.481	319.249	-4.318	193.431	128.783	0.00018236	0.00045613	0.00013244	1060.6	2.5863e-06	3.979e-06	1163.3	215.7	1.204e-05	5.6341e-06	276.15	77.841	60.674	17.631	5.0504e-06	24.809	0.00044306	0.00043576	0.00011181	1053.8	4.9201e-06	4.7465e-06	1150.2	218.59	4.9493e-06	4.7364e-06	278.71	80.022	64.157	19.015	4.3942e-06	26.325	240.046	65.752	25.089	-13.398	68.158	72.571	-13.084	-5.535	262.379	83.538	-5.984	0.871	1.506	7.859	37.363	7.824	-8191	255	
14019.680	1	1	0	0	0.2246	0.19133	0.10156	0.12619	0.15957	0.1942	0.17099	0.14088	0.12317	0.1154	0.12172	0.14222	0.29332	0.027119	0.35166	0.1562	-1.8854	-2.6458	-2.8187	-2.2896	-2.9479	-2.6125	-2.325	-2.9333	-2.3646	-2.5	-2.9625	-2.2875	-2.8563	-2.425	-2.1604	-2.8271	258.482	259.806	262.309	215.553	260.064	305.984	261.376	266.099	202.374	99.891	288.203	300.028	289.877	182.408	77.867	295.195	0.00018512	0.00019021	0.00016673	1067.2	4.6839e-06	2.2113e-06	1166.6	217.2	3.0639e-06	1.7986e-06	277.71	77.272	61.183	17.749	2.2281e-06	24.794	0.00045968	0.00042219	0.00010883	1058.3	5.0294e-06	4.5522e-06	1151.2	220.32	5.0191e-06	4.5257e-06	278.63	80.442	64.113	18.925	4.2966e-06	26.564	239.444	50.984	51.853	-13.364	179.229	93.931	-13.157	-5.504	294.755	100.859	-6.127	0.981	1.544	8.491	226.965	7.611	-8191	255	
14019.776	1	1	0	0	0.11789	0.21239	0.14391	0.079295	0.19581	0.22029	0.32075	0.15956	0.14157	0.15691	0.087109	0.18784	0.20729	0.15789	0.069862	0.12549	-1.9083	-2.4271	-2.7604	-2.425	-2.7542	-2.7542	-2.5438	-2.9271	-2.2208	-2.3854	-2.8542	-2.1417	-2.7521	-2.6562	-2.2708	-2.975	173.375	303.257	309.345	238.036	-4.264	16.744	217.194	277.418	318.780	167.910	-21.565	37.356	158.460	300.186	150.841	176.784	0.00011833	0.00032092	8.6949e-05	1067.6	1.5066e-06	4.8282e-06	1173.5	218.63	4.2125e-07	5.4088e-06	276.32	77.577	61.292	17.745	2.9163e-06	24.973	0.00044771	0.0004102	0.00010779	1062.8	4.9132e-06	4.4899e-06	1154.8	221.54	4.8539e-06	4.4715e-06	279.15	80.921	63.799	18.917	4.3178e-06	26.755	280.968	47.257	273.855	-13.264	26.630	49.210	-13.408	-5.788	33.280	82.943	-6.375	1.334	1.600	7.771	206.839	8.113	-8191	255	
14019.872	1	1	0	0	0.071479	0.08368	0.033289	0.21299	0.38776	0.23622	0.29125	0.16232	0.17856	0.20878	0.057861	0.15594	0.10774	0.16763	0.15775	0.16128	-1.9979	-2.4104	-2.7208	-2.5062	-2.5021	-2.7687	-2.2229	-2.9042	-2.4104	-2.3063	-2.8125	-2.325	-2.5271	-2.6979	-2.1021	-2.7354	308.154	-19.853	105.745	325.180	204.781	314.804	262.423	-20.517	258.013	322.846	222.075	206.552	279.497	89.488	85.697	179.268	0.00016547	0.00013793	0.00011291	1071	4.9212e-06	4.4416e-06	1173.1	216.93	2.2176e-06	2.6067e-06	279.75	78.281	60.713	17.701	4.5221e-06	25.021	0.0004306	0.00040504	0.00011266	1066.3	4.7042e-06	4.3824e-06	1157.8	221.49	4.6324e-06	4.4109e-06	281	81.228	63.66	18.886	4.6472e-06	26.833	243.128	122.977	146.551	-13.516	75.271	52.091	-13.120	-5.628	115.713	67.748	-6.173	0.776	1.104	7.785	125.672	7.546	-8191	255	
14019.968	1	1	0	0	0.17469	0.28492	0.18954	0.47509	0.23253	0.38636	0.21731	0.13667	0.10162	0.11959	0.1958	0.19925	0.10753	0.049338	0.32944	0.098984	-1.9312	-2.1625	-2.9458	-2.4938	-2.4958	-2.8854	-2.3521	-2.8542	-2.575	-2.4313	-2.9979	-2.5208	-2.6458	-2.8771	-2.1396	-2.7396	135.393	282.196	306.362	296.864	294.747	151.535	62.659	300.763	218.394	318.342	283.789	282.565	43.000	256.233	2.864	-13.043	9.7525e-05	0.00057607	5.6335e-05	1071.4	2.0178e-06	3.2039e-06	1172.4	216.42	5.5283e-06	3.6862e-06	277.44	77.496	60.9	17.683	4.5307e-06	25.048	0.00041646	0.00039696	0.00012116	1067.4	4.6005e-06	4.2665e-06	1161.9	221.44	4.5588e-06	4.3023e-06	282.48	80.837	63.637	18.86	4.9591e-06	26.739	214.803	97.081	277.589	-13.520	109.326	195.310	-13.101	-5.764	251.746	309.446	-5.988	1.054	1.454	8.531	253.777	7.463	-8191	255	
14020.064	1	1	0	0	0.19294	0.22638	0.43875	0.096226	0.020738	0.11349	0.05004	0.38226	0.21129	0.24437	0.18224	0.094382	0.041559	0.29152	0.058337	0.40118	-2.1042	-2.3729	-2.7708	-2.6396	-2.45	-2.9125	-2.3646	-2.7833	-2.6708	-2.2729	-2.9271	-2.4146	-2.4854	-2.9688	-2.3521	-2.825	106.993	236.585	58.492	244.309	84.902	163.877	295.627	267.615	262.962	41.930	286.406	-9.289	175.176	263.293	170.777	174.899	0.00016562	0.00017331	6.2188e-05	1073	1.3481e-06	1.9179e-06	1178.5	217.27	4.1029e-06	2.7994e-06	280.21	78.208	61.205	17.821	5.2566e-06	25.239	0.00040675	0.00039378	0.00012819	1065.4	4.4967e-06	4.3384e-06	1164.2	221.33	4.4079e-06	4.4492e-06	283.52	80.81	63.406	19.064	5.1145e-06	26.685	244.535	262.382	323.826	-13.371	66.040	135.001	-13.381	-5.608	204.577	85.807	-6.244	0.901	1.878	7.895	162.600	7.499	-8191	255	
14020.185	1	1	0	0	0.31616	0.23248	0.23108	0.081364	0.12823	0.0064797	0.086509	0.1405	0.20994	0.14745	0.10053	0.30498	0.11236	0.16374	0.13674	0.11193	-2.275	-2.2812	-2.9083	-2.525	-2.4083	-2.7771	-2.4771	-2.6188	-2.7208	-2.1167	-2.8104	-2.6958	-2.5167	-3.0354	-2.2521	-2.4729	169.019	288.168	114.810	248.102	8.138	183.777	100.528	210.614	205.316	185.383	47.590	312.443	219.708	14.272	61.731	246.902	0.00022223	0.00039618	4.0163e-05	1077	5.0727e-06	2.3826e-06	1181.3	218.5	3.9848e-06	6.8079e-06	279.49	78.321	60.647	17.615	7.8647e-06	24.948	0.0003969	0.00041898	0.0001311	1065.5	4.4613e-06	4.7298e-06	1169.4	221.78	4.4546e-06	4.9245e-06	284.68	80.697	63.487	19.258	5.2239e-06	26.597	286.363	116.682	278.479	-13.579	312.645	81.767	-13.217	-5.437	147.981	180.310	-6.274	1.423	1.557	8.761	73.959	7.555	-8191	255	
14020.281	1	1	0	0	0.27753	0.058074	0.17251	0.068506	0.10502	0.083481	0.12461	0.11414	0.17359	0.13805	0.1834	0.24543	0.20325	0.25172	0.14253	0.26357	-2.6104	-2.1	-2.7	-2.8375	-2.3812	-2.8771	-2.3917	-2.5104	-2.8104	-2.2771	-2.7542	-2.7167	-2.2729	-2.8042	-2.3812	-2.5125	104.730	174.136	314.090	194.504	181.242	158.836	28.494	333.246	299.504	291.562	318.621	133.201	211.770	250.869	325.214	27.214	0.0002069	0.00071801	0.00010306	1075.6	8.2998e-06	6.3653e-06	1174.2	218.33	3.5002e-06	1.5782e-06	276.38	77.701	60.78	17.909	3.7006e-06	25.051	0.00040465	0.0004665	0.0001325	1069.2	4.4904e-06	5.1079e-06	1167.2	221.74	4.54e-06	5.3254e-06	284.14	80.835	63.651	19.518	5.1046e-06	26.677	281.002	139.246	129.244	-13.419	75.639	231.952	-13.163	-5.743	-3.747	163.623	-6.115	1.693	1.598	8.469	101.735	7.423	-8191	255	
14020.377	1	1	0	0	0.23284	0.25642	0.33724	0.12225	0.25201	0.22489	0.24652	0.15372	0.17315	0.12355	0.10982	0.28373	0.2384	0.31194	0.31381	0.36639	-2.5396	-2.3312	-2.45	-2.8438	-2.3083	-2.875	-2.675	-2.4604	-3.0667	-2.4333	-2.8167	-2.7604	-2.0812	-2.8688	-2.4792	-2.35	192.659	65.485	234.663	164.324	139.682	254.185	-8.844	-11.595	291.685	120.866	295.923	332.689	238.245	305.576	-9.717	329.525	0.00025723	0.00022906	9.7672e-05	1081.6	6.7634e-06	1.8206e-06	1179.7	219.09	2.2295e-06	8.6413e-06	280.44	78.577	61.648	17.939	4.7817e-06	25.264	0.00042357	0.00049709	0.00013008	1073.2	4.7457e-06	5.4608e-06	1170.6	222.52	4.8685e-06	5.4738e-06	284.79	80.963	64.421	19.526	4.933e-06	26.682	235.648	128.901	262.868	-13.364	116.013	64.780	-13.161	-5.693	235.972	30.234	-6.103	1.458	1.289	8.092	183.414	6.932	-8191	255	
14020.473	1	1	0	0	0.17374	0.096974	0.15981	0.25708	0.1032	0.045002	0.28318	0.054605	0.24457	0.15703	0.132	0.076104	0.10488	0.28408	0.25888	0.092204	-2.5042	-2.3167	-2.6229	-3.075	-2.3312	-2.8	-2.6937	-2.4667	-2.7812	-2.2792	-2.5104	-2.8271	-2.1208	-2.8625	-2.6729	-2.3729	164.698	231.215	287.261	278.585	94.790	84.345	266.912	146.937	197.331	3.491	296.312	274.800	176.576	4.523	222.691	295.503	0.0003182	0.00041229	0.00016966	1090.9	6.6188e-06	7.6448e-06	1190.7	219.97	3.2786e-06	6.1922e-06	281.8	78.496	61.855	17.884	4.365e-06	25.1	0.00045618	0.00050065	0.0001283	1076	5.1828e-06	5.5225e-06	1174.2	222.86	5.2577e-06	5.4563e-06	284.98	81.204	65.118	19.597	4.9255e-06	26.787	255.354	49.286	43.307	-13.367	68.637	93.196	-13.199	-5.853	285.443	40.358	-6.573	1.199	1.325	7.995	100.486	7.638	-8191	255	
14020.570	1	1	0	0	0.14881	0.10996	0.1327	0.19458	0.048598	0.13374	0.32221	0.16199	0.30917	0.094524	0.22753	0.12387	0.23426	0.15284	0.13742	0.24404	-2.4375	-2.3708	-2.3729	-2.95	-2.4688	-2.7958	-2.7958	-2.3771	-2.7958	-2.5563	-2.6208	-3.0792	-2.2875	-2.6	-2.7229	-2.2417	140.805	240.956	195.583	2.915	165.339	253.351	250.828	23.671	231.098	135.951	1.212	-9.547	-1.865	319.140	218.985	63.418	0.00013437	0.00029615	4.2997e-05	1088.2	1.881e-06	3.4175e-06	1197	219.59	4.9331e-07	2.6152e-06	282.4	79.179	61.35	18.023	2.8912e-06	24.947	0.00048677	0.00048927	0.00012418	1077.3	5.4857e-06	5.2524e-06	1176.9	222.67	5.4545e-06	5.1376e-06	284.89	81.264	65.352	19.406	4.6871e-06	26.804	268.771	170.267	174.595	-13.508	45.197	84.868	-13.609	-5.636	180.513	77.896	-6.664	1.509	1.479	8.301	1.963	7.642	-8191	255	
14020.664	1	1	0	0	0.065107	0.083606	0.30044	0.24209	0.092483	0.086183	0.10857	0.16873	0.11616	0.14555	0.12305	0.16622	0.20247	0.25089	0.15633	0.14942	-2.325	-2.4583	-2.3271	-2.8958	-2.3187	-2.5187	-2.8063	-2.25	-2.725	-2.6333	-2.3083	-2.9896	-2.4188	-2.6458	-2.7729	-2.2854	102.588	96.114	286.914	327.749	10.122	166.254	201.604	63.328	272.225	106.245	236.014	334.337	39.607	232.085	88.924	234.345	0.00024543	0.00042654	0.00021635	1089.5	9.0834e-06	2.4662e-06	1192.3	220.71	3.4914e-06	2.4108e-06	281.54	78.561	61.646	17.853	3.3195e-06	25.203	0.00049681	0.00046039	0.00012076	1078.4	5.5309e-06	5.0318e-06	1175	223.91	5.5536e-06	5.0064e-06	283.73	81.885	65.369	19.368	4.6445e-06	27.004	238.609	167.202	15.393	-13.284	-2.301	178.808	-13.656	-5.530	-2.291	33.694	-6.462	1.146	1.575	8.021	280.973	7.438	-8191	255	
14020.762	1	1	0	0	0.16795	0.1056	0.089422	0.30211	0.16628	0.13378	0.20961	0.2677	0.1337	0.29392	0.079357	0.22048	0.14415	0.17498	0.13752	0.12551	-2.2458	-2.6146	-2.275	-3.0792	-2.4562	-2.4896	-2.9313	-2.1292	-2.6437	-2.7208	-2.4708	-3.0771	-2.5542	-2.3771	-2.8396	-2.1875	-8.009	-9.558	236.698	62.289	175.118	141.878	303.339	235.500	95.491	66.983	170.877	272.193	62.550	255.265	269.677	155.073	0.00010131	0.00070889	6.5124e-05	1083	5.6827e-06	6.9234e-07	1191.8	219.5	4.6851e-06	3.193e-06	280.85	78.394	61.228	17.799	1.1171e-06	25.299	0.00048846	0.00044694	0.00011908	1080.1	5.3445e-06	4.9066e-06	1174.5	224.75	5.3552e-06	4.8689e-06	284.71	82.348	65.107	19.289	4.8055e-06	27.309	212.197	336.018	67.511	-13.540	6.495	14.000	-13.196	-5.744	29.891	230.759	-6.402	1.162	1.157	7.768	282.995	7.735	-8191	255	
14020.858	1	1	0	0	0.12924	0.37128	0.19494	0.17423	0.14335	0.18714	0.084337	0.062329	0.089753	0.039129	0.2383	0.089647	0.1317	0.16649	0.099971	0.1788	-2.4271	-2.475	-2.0583	-2.8625	-2.3208	-2.3896	-3.0083	-2.35	-2.4792	-2.7771	-2.2646	-2.8312	-2.425	-2.4167	-2.8625	-2.2958	105.598	103.315	97.329	292.966	86.016	158.770	307.918	57.509	74.049	111.559	13.881	68.867	19.405	318.634	267.689	135.811	8.7017e-05	0.00019051	0.00010445	1091.1	4.9325e-06	2.8128e-06	1193.2	221.25	5.446e-06	2.0224e-06	281.19	78.218	61.493	17.931	5.3966e-06	25.284	0.00047487	0.00043898	0.00012336	1084.8	5.123e-06	4.8237e-06	1175.3	225.22	5.1053e-06	4.6847e-06	285.2	82.384	64.75	19.206	4.9967e-06	27.311	295.803	-8.319	146.558	-13.657	107.408	109.806	-13.256	-5.705	92.625	316.368	-6.419	1.206	1.806	7.964	149.411	7.301	-8191	255	
14020.977	1	1	0	0	0.16089	0.13554	0.099075	0.43567	0.055469	0.18541	0.25764	0.35441	0.30668	0.13908	0.06972	0.066496	0.28042	0.12172	0.14041	0.19095	-2.2208	-2.9042	-2.2687	-2.9938	-2.6271	-2.4437	-2.8854	-2.4562	-2.6417	-2.9375	-2.4688	-2.775	-2.5375	-2.1479	-2.8729	-2.4417	109.464	93.549	176.908	318.706	22.590	162.635	257.649	300.179	311.514	47.371	275.597	119.268	105.019	124.848	287.321	4.251	0.00013025	0.00019461	8.4148e-05	1088.5	7.7337e-06	1.2321e-06	1190.9	219.41	4.1768e-06	3.3629e-06	279.65	78.891	61.009	17.815	3.6637e-06	24.931	0.00045143	0.00042428	0.0001291	1083	4.931e-06	4.6797e-06	1179.3	224.77	4.9635e-06	4.6745e-06	286.09	82.277	64.415	19.221	5.3342e-06	27.141	241.568	3.627	124.060	-13.461	-4.269	203.671	-13.492	-5.464	266.132	224.569	-6.582	1.199	1.332	7.916	83.071	7.552	-8191	255	
14021.049	1	1	0	0	0.28508	0.068432	0.30921	0.32707	0.17945	0.111	0.11492	0.24565	0.25513	0.24842	0.18118	0.26934	0.16348	0.3237	0.23409	0.21015	-2.1917	-2.8667	-2.2521	-2.9833	-2.7812	-2.2896	-2.875	-2.5854	-2.425	-2.8563	-2.4479	-2.7917	-2.7083	-2.3646	-2.9292	-2.5104	239.076	58.406	4.098	307.452	68.210	29.055	272.786	270.026	249.653	68.943	214.506	212.549	251.389	3.461	44.711	128.696	0.00015987	0.00096827	2.9465e-05	1085.9	3.0174e-06	2.1402e-06	1188.8	218.63	2.5026e-06	4.1018e-06	279	78.208	61.74	17.739	6.9028e-06	25.303	0.00044647	0.00042769	0.00013836	1080.2	4.895e-06	4.7914e-06	1177.8	223.8	4.8698e-06	4.8287e-06	287.12	81.863	64.5	19.289	5.6283e-06	27.092	251.541	102.972	143.942	-13.523	233.126	320.952	-13.421	-5.736	319.914	154.330	-5.947	1.008	1.444	8.317	-4.469	7.753	-8191	255	
14021.145	1	1	0	0	0.2101	0.45966	0.15215	0.097071	0.207	0.26516	0.078	0.10934	0.092933	0.085953	0.035809	0.12241	0.10784	0.27124	0.2017	0.21681	-2.0812	-2.7958	-2.3521	-2.7229	-2.7938	-2.1625	-2.9938	-2.7542	-2.4896	-2.9813	-2.4938	-2.6833	-2.8521	-2.1813	-2.9	-2.5479	38.421	267.640	154.186	259.905	246.099	4.963	-3.867	293.705	238.401	184.300	241.837	335.568	295.773	189.124	132.574	304.648	0.00013091	0.00021043	0.00011974	1083.9	1.0435e-06	9.0036e-06	1189.5	219.71	6.836e-06	4.193e-06	281.12	78.526	61.437	18.017	3.1062e-06	25.21	0.00043828	0.00045357	0.00014363	1078.1	4.7929e-06	5.0261e-06	1179.9	223.57	4.7787e-06	5.0838e-06	288.05	81.737	64.14	19.491	5.4107e-06	26.877	303.364	123.489	12.557	-13.542	138.305	136.638	-13.004	-5.391	255.718	146.328	-6.537	0.875	1.841	8.599	63.156	7.489	-8191	255	
14021.265	1	1	0	0	0.1329	0.26312	0.30223	0.23231	0.14973	0.11865	0.37548	0.069117	0.16245	0.16244	0.28756	0.033777	0.15897	0.1691	0.095225	0.14756	-1.95	-2.8125	-2.3167	-2.6646	-2.8187	-2.3042	-2.9646	-2.6437	-2.4083	-2.9292	-2.4	-2.6021	-2.8854	-2.4	-2.7646	-2.6937	35.147	293.620	6.428	250.505	75.410	32.725	322.378	283.123	330.099	44.588	278.769	325.638	190.329	7.065	222.848	239.563	0.00021629	0.00020974	0.00014293	1085.8	4.6306e-06	1.8789e-06	1188.6	220.03	3.6947e-06	1.9591e-06	280.84	78.644	61.81	18.117	2.16e-06	25.15	0.00042141	0.00047597	0.00013849	1077.8	4.6378e-06	5.2868e-06	1179.1	223.18	4.6685e-06	5.328e-06	285.87	81.51	64.338	19.609	5.1858e-06	26.807	201.536	282.055	37.333	-13.505	36.032	224.031	-13.183	-5.428	303.905	90.900	-6.401	0.885	1.407	8.100	166.961	7.418	-8191	255	
14021.361	1	1	0	0	0.062338	0.30185	0.088062	0.20835	0.19037	0.13553	0.2456	0.15949	0.12324	0.37129	0.12148	0.26371	0.13885	0.23216	0.12652	0.2139	-1.9417	-2.8917	-2.4437	-2.5021	-2.9667	-2.2667	-2.7875	-2.8479	-2.3229	-2.975	-2.5083	-2.4771	-2.9437	-2.5	-2.6104	-2.8146	158.657	130.706	290.211	21.843	172.145	18.926	297.649	38.432	87.426	244.174	19.275	146.961	260.753	254.742	189.539	85.436	0.00024392	0.00029454	9.7123e-05	1084.1	6.2543e-07	4.4824e-06	1193.5	219.32	6.3679e-06	7.7116e-06	280.83	79.069	61.312	18.119	2.6933e-06	25.096	0.00042467	0.00049771	0.00013015	1075.6	4.7355e-06	5.429e-06	1176.2	222.55	4.7826e-06	5.4632e-06	285.47	81.063	64.436	19.637	4.9517e-06	26.645	232.300	21.261	-12.841	-13.639	175.329	306.417	-13.574	-5.601	266.723	97.531	-6.294	1.293	1.457	7.762	70.782	7.715	-8191	255	
14021.458	1	1	0	0	0.21542	0.059686	0.20295	0.2169	0.079618	0.21181	0.21094	0.12813	0.27802	0.28004	0.18708	0.13157	0.1089	0.13678	0.18192	0.24708	-1.7979	-2.8271	-2.4604	-2.3937	-3.0625	-2.5854	-2.7729	-2.9188	-2.4667	-2.8542	-2.8083	-2.4688	-2.9542	-2.3854	-2.5229	-2.8229	214.991	-4.677	152.525	313.072	271.078	283.966	245.569	312.397	267.370	188.346	223.844	90.026	257.701	318.886	81.381	295.811	0.00028419	0.00026782	0.00014976	1090.9	5.5951e-06	2.447e-06	1191.4	219.5	4.0283e-06	2.7335e-06	281.6	78.947	61.686	18.02	1.3264e-06	25.236	0.00044864	0.00049842	0.00012438	1076.1	5.0354e-06	5.3611e-06	1175.4	222.59	5.1478e-06	5.3376e-06	284.88	81.209	65.07	19.602	4.8818e-06	26.679	223.847	-5.017	274.747	-13.503	163.417	91.238	-13.325	-5.781	-18.681	324.124	-6.285	0.812	1.374	8.541	311.722	7.540	-8191	255	
14021.554	1	1	0	0	0.11575	0.11846	0.17717	0.20017	0.023029	0.26149	0.14973	0.27041	0.15942	0.41336	0.1235	0.31833	0.13567	0.26697	0.20725	0.17027	-1.7563	-2.775	-2.7417	-2.325	-2.7417	-2.3021	-2.6583	-2.9521	-2.1979	-2.7188	-2.7875	-2.1063	-2.8667	-2.5	-2.2479	-3.0646	-18.115	54.249	268.571	275.084	107.876	131.252	256.908	269.698	309.943	103.136	285.274	-2.435	315.586	209.724	98.349	57.804	0.00036335	0.00027181	8.4391e-05	1090.4	8.5368e-06	3.8961e-06	1194	220.04	2.3157e-06	2.4645e-06	281.14	78.653	61.643	17.883	2.2134e-06	25.02	0.0004854	0.00048711	0.00012337	1077.1	5.3793e-06	5.2697e-06	1175.6	222.86	5.4671e-06	5.2127e-06	284.97	81.473	65.32	19.389	4.7425e-06	26.814	256.723	74.578	8.751	-13.526	109.370	13.908	-13.397	-5.561	-16.246	104.880	-6.126	0.987	1.585	7.857	248.331	7.400	-8191	255	
14021.673	1	1	0	0	0.084485	0.20461	0.19919	0.30136	0.072149	0.32938	0.28928	0.26567	0.11926	0.26912	0.063203	0.36977	0.054634	0.18708	0.16617	0.16778	-1.825	-2.6917	-2.8063	-2.2938	-2.8875	-2.5667	-2.5958	-2.9437	-2.35	-2.8521	-2.9521	-2.2542	-2.7771	-2.6854	-2.4021	-3.0458	15.168	92.296	95.380	332.559	1.094	269.267	266.778	242.899	56.897	120.333	15.234	286.764	161.270	166.862	32.643	202.495	0.00038771	0.00085973	0.00011932	1092.9	6.1214e-06	6.2167e-06	1197.6	221.61	5.636e-06	3.8701e-06	282.19	78.963	61.509	17.831	5.6997e-06	25.174	0.0004935	0.00045845	0.00011888	1079	5.4774e-06	4.9588e-06	1175.1	223.99	5.3944e-06	4.9394e-06	284.31	81.937	65.442	19.358	4.6899e-06	27.081	263.091	119.594	66.395	-13.549	83.186	113.742	-13.265	-5.726	248.065	144.050	-6.195	0.923	1.478	8.311	101.411	7.840	-8191	255	
14021.746	1	1	0	0	0.19444	0.1301	0.16333	0.14402	0.16947	0.28676	0.1685	0.20117	0.16697	0.27353	0.057049	0.16764	0.049733	0.098841	0.096477	0.23977	-1.8687	-2.4667	-2.7375	-2.3646	-2.8042	-2.6417	-2.4542	-2.9604	-2.3292	-2.4979	-2.9708	-2.2896	-2.7667	-2.6562	-2.2542	-2.8125	103.917	270.708	17.188	54.959	-9.536	62.391	314.264	288.881	72.630	62.561	215.870	81.537	316.839	9.216	236.647	163.119	0.00024105	0.00062566	8.0201e-05	1091.4	3.4589e-06	1.9744e-06	1195.7	220.35	6.2803e-06	5.2078e-06	283.66	79.728	62.044	18.028	3.2841e-06	25.489	0.00049204	0.00045413	0.00012001	1083.1	5.4437e-06	4.9175e-06	1176.3	225.02	5.3754e-06	4.9533e-06	285.06	82.544	65.163	19.401	4.6956e-06	27.382	234.128	161.827	112.086	-13.511	51.222	20.590	-13.632	-5.726	137.773	19.474	-5.982	0.844	1.637	7.982	244.986	7.523	-8191	255	
14021.865	1	1	0	0	0.17894	0.033795	0.14608	0.24101	0.11953	0.10046	0.25016	0.16564	0.13902	0.069885	0.28732	0.20169	0.15152	0.20842	0.00223	0.12835	-1.8521	-2.3854	-2.725	-2.4167	-2.5896	-2.6958	-2.2979	-2.8854	-2.3458	-2.3438	-2.7792	-2.2812	-2.6875	-2.6979	-1.9875	-2.9792	183.843	283.422	120.867	333.741	142.658	302.398	13.827	281.057	114.685	178.944	19.420	226.992	65.339	248.870	180.000	257.082	0.00016173	0.00032118	0.00010115	1096.4	6.8236e-06	5.1412e-06	1201.4	221.04	1.2093e-06	5.9184e-06	283.62	78.984	62.244	18.057	4.5964e-06	25.453	0.00047899	0.00044639	0.00012249	1087.2	5.1947e-06	4.8734e-06	1180.9	225.66	5.1856e-06	4.8593e-06	287.05	82.87	65.149	19.374	5.1115e-06	27.461	180.198	277.555	44.013	-13.566	-6.095	49.040	-13.276	-5.801	144.976	79.317	-6.305	0.751	0.843	7.626	136.568	7.049	-8191	255	
14021.961	1	1	0	0	0.22482	0.22408	0.15413	0.18232	0.089662	0.059509	0.35328	0.082985	0.28484	0.33114	0.10899	0.12948	0.16385	0.28101	0.27248	0.16	-2.2729	-2.2771	-3.0417	-2.2917	-2.4521	-2.7062	-2.3667	-2.7771	-2.5875	-2.4313	-3.0104	-2.4375	-2.4771	-2.8354	-2.3125	-2.75	68.354	154.903	299.784	245.365	289.806	0.887	241.931	0.374	150.083	58.686	6.366	40.215	312.789	79.127	109.758	264.299	5.6366e-05	0.00018201	4.4605e-05	1092	5.5216e-06	3.3903e-06	1196.5	221.66	2.9085e-06	6.2333e-06	283.85	80.119	62.178	18.147	3.0114e-06	25.471	0.00045548	0.00043839	0.00013125	1087	5.0245e-06	4.7393e-06	1182.1	226.22	5.0619e-06	4.7935e-06	287.92	82.824	65.114	19.347	5.4471e-06	27.394	256.329	193.205	28.245	-13.638	64.559	205.374	-13.454	-5.506	60.253	140.008	-6.651	1.251	1.264	7.995	118.863	7.304	-8191	255	
14022.057	1	1	0	0	0.029362	0.23227	0.11435	0.15735	0.33621	0.25985	0.47215	0.092344	0.29127	0.25977	0.23973	0.064468	0.090294	0.20957	0.15225	0.21617	-2.1312	-2.275	-2.7958	-2.425	-2.35	-2.875	-2.4146	-2.9583	-2.6896	-2.4021	-2.9	-2.4229	-2.2812	-2.8688	-2.2521	-2.6813	39.564	227.801	-2.660	214.267	187.059	18.938	329.122	252.121	174.831	332.632	279.141	178.977	273.052	-11.762	224.148	106.053	0.00024825	0.00029241	0.00011336	1099.2	6.5773e-06	4.5838e-06	1199.4	221.68	6.2123e-06	9.6709e-06	283.4	79.25	62.115	18.116	1.997e-06	25.266	0.00045259	0.00044042	0.00014142	1089.2	5.042e-06	4.8308e-06	1187.5	225.81	4.9461e-06	4.8984e-06	289.87	82.434	65.016	19.45	5.7018e-06	27.296	276.866	81.888	114.590	-13.675	-1.397	201.181	-13.349	-5.910	3.156	162.831	-6.248	1.089	0.996	7.908	229.271	7.242	-8191	255	
14022.153	1	1	0	0	0.10609	0.13432	0.089083	0.27535	0.22655	0.1088	0.30949	0.15241	0.11126	0.14115	0.20932	0.16161	0.10789	0.20287	0.15698	0.075999	-2.3958	-2.1917	-2.9437	-2.5646	-2.3563	-2.9083	-2.2812	-2.5542	-2.7062	-1.9396	-2.7271	-2.6312	-2.4417	-2.9854	-2.4062	-2.4938	39.710	329.045	52.661	262.569	276.724	325.885	311.093	271.623	297.001	193.519	216.023	6.599	203.096	199.441	141.947	281.814	0.00018676	0.00035693	0.00019322	1101.3	1.626e-06	1.6727e-06	1202.8	222.22	1.1482e-06	2.0772e-06	285.03	79.047	62.175	18.109	7.1356e-06	25.235	0.00044665	0.00046232	0.00014692	1089.3	4.9533e-06	5.1514e-06	1190.5	226.36	4.8771e-06	5.2564e-06	290.96	82.507	64.949	19.672	5.6987e-06	27.158	241.133	150.596	90.105	-13.765	84.549	203.935	-13.277	-5.820	107.775	137.874	-6.578	1.118	1.037	8.167	50.784	7.318	-8191	255	
14022.274	1	1	0	0	0.18397	0.065461	0.053582	0.27352	0.25001	0.1287	0.18274	0.1712	0.12845	0.18472	0.15888	0.16509	0.18877	0.087312	0.094115	0.25905	-2.2667	-2.1542	-2.7542	-2.8458	-2.4542	-3.1854	-2.6125	-2.6854	-2.7979	-2.1229	-2.8604	-2.7854	-2.1937	-2.8729	-2.2396	-2.2792	170.657	303.987	335.425	295.992	2.014	289.402	190.058	320.480	260.276	77.981	177.085	333.963	172.139	12.204	229.686	-13.861	0.00011819	0.00067944	4.1373e-05	1101.1	2.2261e-06	3.5915e-06	1202.4	221.97	7.83e-06	3.3628e-06	285.94	79.254	61.932	18.118	2.117e-06	25.577	0.00044048	0.00049508	0.00014551	1088.4	4.8751e-06	5.4594e-06	1190.8	225.54	4.799e-06	5.6004e-06	291.28	82.298	64.994	19.858	5.5197e-06	27.185	-11.466	80.082	329.815	-13.677	34.314	122.062	-13.246	-5.798	278.460	48.751	-5.963	1.272	0.996	7.879	319.694	7.405	-8191	255	
14022.346	1	1	0	0	0.40377	0.2565	0.34383	0.26404	0.18471	0.19517	0.020353	0.3078	0.25309	0.27315	0.094724	0.33104	0.17583	0.15639	0.21259	0.20584	-2.3354	-2.3146	-2.5042	-2.8125	-2.2313	-2.8604	-2.5271	-2.5208	-2.7708	-2.1937	-2.6375	-2.8604	-2.1854	-2.8583	-2.5042	-2.4208	290.927	157.885	141.528	177.842	116.850	299.160	168.033	273.170	47.829	135.040	246.399	295.180	-13.300	228.769	228.059	315.095	0.00022012	0.00024049	1.6982e-05	1100.4	8.8364e-06	1.2807e-06	1208.6	223.84	5.632e-06	3.6066e-06	286.22	79.927	62.38	18.219	1.1647e-06	25.404	0.00044686	0.0005261	0.00014031	1087.9	5.0455e-06	5.7929e-06	1191	225.78	5.0165e-06	5.7669e-06	290.01	82.194	65.273	19.925	5.2277e-06	27.01	237.543	210.048	64.651	-13.673	107.035	101.672	-13.470	-6.205	299.768	63.370	-5.964	0.922	0.945	7.913	113.374	7.346	-8191	255	
14022.442	1	1	0	0	0.094599	0.080154	0.072751	0.22065	0.17388	0.11387	0.1201	0.21706	0.24586	0.069067	0.091193	0.16387	0.27761	0.12326	0.1302	0.18497	-2.4792	-2.2667	-2.6063	-2.9688	-2.1479	-2.8	-2.8771	-2.3104	-2.8021	-2.3625	-2.5708	-2.7854	-2.2229	-2.7292	-2.6708	-2.3458	116.984	-19.549	21.808	317.107	237.593	257.217	275.183	220.142	-3.517	63.661	276.353	5.751	-10.438	274.414	68.166	206.250	0.00017611	0.00031969	0.00010012	1105.6	3.8795e-06	4.8511e-06	1206.6	223.53	1.7248e-06	2.7656e-06	287.54	79.737	61.98	18.053	5.05e-06	25.554	0.00047174	0.00052661	0.00013339	1090.1	5.2955e-06	5.7538e-06	1189.9	225.71	5.3462e-06	5.6399e-06	289.34	81.876	65.78	19.798	5.0535e-06	27.03	235.930	306.980	10.449	-13.484	23.179	118.336	-13.518	-5.977	241.749	127.718	-6.323	1.340	1.227	8.013	146.029	7.422	-8191	255	
14022.538	1	1	0	0	0.15	0.27539	0.14442	0.098484	0.082855	0.30811	0.34194	0.11093	0.21739	0.063474	0.15336	0.15921	0.088638	0.33422	0.22902	0.23438	-2.5521	-2.35	-2.3458	-3.0125	-2.1667	-2.6667	-2.8333	-2.1271	-3.1	-2.5625	-2.3792	-2.7479	-2.1979	-2.7562	-2.7521	-2.2708	146.287	164.270	98.538	47.242	43.198	112.592	313.270	-13.777	100.326	263.251	326.605	15.283	89.451	267.075	80.829	37.032	0.00020369	0.00030429	0.00017006	1106.3	2.422e-06	2.6863e-06	1215	221.89	1.0927e-05	8.7047e-06	286.55	79.509	62.085	18.227	3.1217e-06	25.259	0.00049855	0.00050905	0.00013018	1089.2	5.6023e-06	5.5013e-06	1189.5	225.32	5.7181e-06	5.4431e-06	288.93	82.205	66.288	19.79	4.9611e-06	27.089	195.166	4.949	32.343	-13.775	130.645	211.506	-13.336	-5.878	268.696	75.695	-6.511	0.591	1.021	7.918	84.658	7.180	-8191	255	
14022.657	1	1	0	0	0.13816	0.021828	0.061989	0.21795	0.078647	0.17184	0.13749	0.13276	0.17172	0.16247	0.16093	0.028715	0.15298	0.074405	0.16445	0.24362	-2.4708	-2.4292	-2.2917	-2.9875	-2.2708	-2.6688	-2.8625	-2.275	-2.8292	-2.625	-2.4354	-2.7708	-2.3688	-2.6083	-2.7104	-2.2479	219.223	275.850	195.478	308.424	-19.120	117.469	153.350	220.396	113.096	250.126	36.171	20.121	151.994	130.128	23.116	77.548	0.00018196	0.00072709	9.1221e-05	1099.6	1.1299e-06	2.3163e-06	1206.7	224.79	1.175e-06	3.0293e-06	284.85	79.502	62.491	18.139	4.6567e-06	25.237	0.00052109	0.00048858	0.0001263	1089.1	5.7225e-06	5.2522e-06	1186.7	226.79	5.7024e-06	5.1902e-06	289.11	82.668	66.363	19.644	4.8433e-06	27.341	231.633	312.369	154.587	-13.540	111.474	46.328	-13.512	-5.690	37.936	138.036	-6.502	0.546	1.410	7.975	100.552	7.530	-8191	255	
14022.753	1	1	0	0	0.12095	0.043378	0.25445	0.36191	0.30233	0.024295	0.15514	0.15096	0.083047	0.033965	0.14192	0.13005	0.21727	0.32227	0.11266	0.088409	-2.4	-2.5458	-2.4396	-3.1063	-2.3833	-2.5917	-2.9938	-2.5292	-2.6417	-2.6562	-2.2979	-2.8167	-2.3688	-2.3917	-2.9646	-2.2146	89.081	312.578	122.078	309.356	280.092	215.821	166.470	280.484	254.385	155.347	109.648	198.299	297.215	272.384	190.036	283.940	0.0002267	0.00036376	0.0002039	1100.4	8.0647e-07	2.155e-06	1208.2	223.35	1.8234e-06	3.3459e-06	285.89	79.573	62.687	18.316	4.9701e-06	25.299	0.00051169	0.00047038	0.00012413	1093.3	5.5573e-06	5.0834e-06	1185.4	226.97	5.4946e-06	4.984e-06	288.55	83.027	65.889	19.567	4.7953e-06	27.431	274.889	112.871	-7.707	-13.506	100.192	87.062	-13.364	-5.946	146.915	-4.212	-6.696	1.029	1.755	7.626	173.319	7.360	-8191	255	
#DATA ENDS
