BOXY.EXE: ISS Imagent and Oximeter Data Acquisition Program Version 0.80
Ascii Record File

#ACQ INFORMATION
2  Detector Channels 
16  External MUX Channels 
1  Auxiliary Channels 
5000  Waveform (CCF) Frequency (Hz)
1  Waveforms Skipped 
30  Waveforms Averaged 
1  Cycles Averaged 
16  Acquisitions per Waveform 
10.0806  Updata Rate (Hz) 

#FILE INFORMATION
TRUE -- External MUX Channel results are PARSED.
FALSE -- AC DC and Phase are NOT grouped.
TRUE -- Companion Program Settings File CREATED.
FALSE -- AC data not excluded
FALSE -- DC data not excluded
FALSE -- Phase data not excluded
FALSE -- Auxillary Chn. data not excluded
Tab delimiters

#CALIBRATION STATE
TRUE -- Waveform Calibration Values APPLIED.


#AUX CALIBRATION VALUES
Val Type	aux-1	

Term	1.0000e+00	
Factor	0.0000e+00	


#WF CALIBRATION VALUES
A = Detector Channel
Val Type	A-AC1	A-AC2	A-AC3	A-AC4	A-AC5	A-AC6	A-AC7	A-AC8	A-AC9	A-AC10	A-AC11	A-AC12	A-AC13	A-AC14	A-AC15	A-AC16	A-DC1	A-DC2	A-DC3	A-DC4	A-DC5	A-DC6	A-DC7	A-DC8	A-DC9	A-DC10	A-DC11	A-DC12	A-DC13	A-DC14	A-DC15	A-DC16	A-Ph1	A-Ph2	A-Ph3	A-Ph4	A-Ph5	A-Ph6	A-Ph7	A-Ph8	A-Ph9	A-Ph10	A-Ph11	A-Ph12	A-Ph13	A-Ph14	A-Ph15	A-Ph16	

Term	0.00000e+00	0.00000e+00	0.00000e+00	0.00000e+00	0.00000e+00	0.00000e+00	0.00000e+00	0.00000e+00	0.00000e+00	0.00000e+00	0.00000e+00	0.00000e+00	0.00000e+00	0.00000e+00	0.00000e+00	0.00000e+00	0.00000e+00	0.00000e+00	0.00000e+00	0.00000e+00	0.00000e+00	0.00000e+00	0.00000e+00	0.00000e+00	0.00000e+00	0.00000e+00	0.00000e+00	0.00000e+00	0.00000e+00	0.00000e+00	0.00000e+00	0.00000e+00	0.00000e+00	0.00000e+00	0.00000e+00	0.00000e+00	0.00000e+00	0.00000e+00	0.00000e+00	0.00000e+00	0.00000e+00	0.00000e+00	0.00000e+00	0.00000e+00	0.00000e+00	0.00000e+00	0.00000e+00	0.00000e+00	
Factor	1.00000e+00	1.00000e+00	1.00000e+00	1.00000e+00	1.00000e+00	1.00000e+00	1.00000e+00	1.00000e+00	1.00000e+00	1.00000e+00	1.00000e+00	1.00000e+00	1.00000e+00	1.00000e+00	1.00000e+00	1.00000e+00	1.00000e+00	1.00000e+00	1.00000e+00	1.00000e+00	1.00000e+00	1.00000e+00	1.00000e+00	1.00000e+00	1.00000e+00	1.00000e+00	1.00000e+00	1.00000e+00	1.00000e+00	1.00000e+00	1.00000e+00	1.00000e+00	X	X	X	X	X	X	X	X	X	X	X	X	X	X	X	X	

B = Detector Channel
Val Type	B-AC1	B-AC2	B-AC3	B-AC4	B-AC5	B-AC6	B-AC7	B-AC8	B-AC9	B-AC10	B-AC11	B-AC12	B-AC13	B-AC14	B-AC15	B-AC16	B-DC1	B-DC2	B-DC3	B-DC4	B-DC5	B-DC6	B-DC7	B-DC8	B-DC9	B-DC10	B-DC11	B-DC12	B-DC13	B-DC14	B-DC15	B-DC16	B-Ph1	B-Ph2	B-Ph3	B-Ph4	B-Ph5	B-Ph6	B-Ph7	B-Ph8	B-Ph9	B-Ph10	B-Ph11	B-Ph12	B-Ph13	B-Ph14	B-Ph15	B-Ph16	

Term	0.00000e+00	0.00000e+00	0.00000e+00	0.00000e+00	0.00000e+00	0.00000e+00	0.00000e+00	0.00000e+00	0.00000e+00	0.00000e+00	0.00000e+00	0.00000e+00	0.00000e+00	0.00000e+00	0.00000e+00	0.00000e+00	0.00000e+00	0.00000e+00	0.00000e+00	0.00000e+00	0.00000e+00	0.00000e+00	0.00000e+00	0.00000e+00	0.00000e+00	0.00000e+00	0.00000e+00	0.00000e+00	0.00000e+00	0.00000e+00	0.00000e+00	0.00000e+00	-1.54582e+01	-1.31826e+02	-1.18987e+02	-1.83770e+02	-1.30688e+02	-8.11710e+01	-1.58254e+02	-1.62015e+02	4.03488e+00	-7.49322e+01	-1.70683e+02	-1.70651e+02	-1.78365e+02	-1.76938e+02	-7.39507e+01	-1.49895e+02	
Factor	3.55145e-05	9.56148e-05	2.78179e-05	1.65747e-01	1.12877e-06	1.04670e-06	1.79515e-01	5.89105e-02	1.19376e-06	1.16421e-06	9.76336e-02	3.40614e-02	3.16364e-02	1.08962e-02	1.16736e-06	1.55437e-02	9.88457e-07	1.01235e-06	2.82120e-07	8.20202e-02	1.10315e-08	1.10754e-08	8.33426e-02	2.89522e-02	1.10356e-08	1.10748e-08	4.58140e-02	1.59180e-02	1.53075e-02	5.26684e-03	1.10529e-08	7.23307e-03	X	X	X	X	X	X	X	X	X	X	X	X	X	X	X	X	



#DISTANCE SETTINGS
A = Detector Channel
A-1	A-2	A-3	A-4	A-5	A-6	A-7	A-8	A-9	A-10	A-11	A-12	A-13	A-14	A-15	A-16	

2.5000e+00	3.0000e+00	2.5000e+00	3.0000e+00	2.0000e+00	3.0000e+00	1.5000e+00	3.0000e+00	3.0000e+00	3.0000e+00	3.0000e+00	3.0000e+00	3.0000e+00	3.0000e+00	1.5000e+00	3.0000e+00	

B = Detector Channel
B-1	B-2	B-3	B-4	B-5	B-6	B-7	B-8	B-9	B-10	B-11	B-12	B-13	B-14	B-15	B-16	

1.0000e+01	1.0000e+01	1.0000e+01	1.4400e+00	1.0000e+01	1.0000e+01	1.5100e+00	1.9400e+00	1.0000e+01	1.0000e+01	1.9900e+00	2.4900e+00	2.4100e+00	2.9000e+00	1.0000e+01	2.9800e+00	




#DATA BEGINS
time	group	step	mark	flag	A-AC1	A-AC2	A-AC3	A-AC4	A-AC5	A-AC6	A-AC7	A-AC8	A-AC9	A-AC10	A-AC11	A-AC12	A-AC13	A-AC14	A-AC15	A-AC16	A-DC1	A-DC2	A-DC3	A-DC4	A-DC5	A-DC6	A-DC7	A-DC8	A-DC9	A-DC10	A-DC11	A-DC12	A-DC13	A-DC14	A-DC15	A-DC16	A-Ph1	A-Ph2	A-Ph3	A-Ph4	A-Ph5	A-Ph6	A-Ph7	A-Ph8	A-Ph9	A-Ph10	A-Ph11	A-Ph12	A-Ph13	A-Ph14	A-Ph15	A-Ph16	B-AC1	B-AC2	B-AC3	B-AC4	B-AC5	B-AC6	B-AC7	B-AC8	B-AC9	B-AC10	B-AC11	B-AC12	B-AC13	B-AC14	B-AC15	B-AC16	B-DC1	B-DC2	B-DC3	B-DC4	B-DC5	B-DC6	B-DC7	B-DC8	B-DC9	B-DC10	B-DC11	B-DC12	B-DC13	B-DC14	B-DC15	B-DC16	B-Ph1	B-Ph2	B-Ph3	B-Ph4	B-Ph5	B-Ph6	B-Ph7	B-Ph8	B-Ph9	B-Ph10	B-Ph11	B-Ph12	B-Ph13	B-Ph14	B-Ph15	B-Ph16	aux-1	digaux	

18207.615	1	1	0	256	0.24013	0.16048	0.17912	0.33161	0.040386	0.16179	0.097564	0.11546	0.25825	0.086412	0.11649	0.47339	0.35376	0.12568	0.062966	0.21218	-2.0938	-3.225	-2.3563	-2.7062	-3.0583	-2.45	-3.1771	-2.8563	-2.6292	-3.1562	-2.6792	-2.6417	-3.0563	-2.6333	-2.8667	-3.1042	302.995	-33.494	49.786	-30.713	250.914	57.862	-34.526	122.993	77.697	26.271	-5.980	223.165	255.034	239.931	257.470	6.481	0.00037816	0.0003678	7.1081e-05	790.37	5.1541e-06	2.6287e-06	836.52	279.37	1.7166e-06	3.4139e-06	387.31	164.72	107.04	41.529	4.3809e-06	80.756	6.5619e-05	5.9396e-05	1.6416e-05	772.46	5.6746e-07	6.6616e-07	813.9	271.28	6.0546e-07	6.5452e-07	369.83	157.57	101.81	40.016	6.229e-07	76.945	265.555	78.507	54.802	-26.278	87.646	109.672	-26.763	-20.333	163.441	136.403	-22.268	-16.612	-15.247	-10.728	126.741	-12.607	-8191	255	
18207.711	1	1	0	0	0.20378	0.11543	0.17426	0.082464	0.27983	0.21481	0.29308	0.43507	0.088195	0.1283	0.0068994	0.18985	0.39525	0.068512	0.12747	0.082069	-1.9083	-2.9146	-2.6375	-2.5646	-3.2562	-2.5	-2.8917	-2.7792	-2.5167	-3.0583	-2.7958	-2.6583	-2.9646	-2.4875	-2.5729	-2.9583	127.290	-35.013	58.297	219.790	84.962	-22.639	278.756	-27.721	189.625	-32.453	270.076	288.427	-38.524	47.066	105.708	200.082	0.00046468	0.00028098	8.8305e-05	803.55	3.5857e-06	4.6887e-06	847.44	286.85	2.9133e-06	2.8909e-06	398.35	169.61	110.58	43.123	4.7403e-06	83.945	6.8753e-05	6.2836e-05	1.5792e-05	779.02	6.0335e-07	6.7251e-07	823.43	276.96	6.5377e-07	6.7522e-07	380.39	162.83	105.21	41.368	6.2621e-07	79.477	263.496	61.053	35.135	-26.376	71.430	78.791	-26.931	-20.671	182.377	99.040	-21.780	-16.828	-15.324	-10.499	93.285	-12.766	-8191	255	
18207.832	1	1	0	0	0.12211	0.16642	0.15596	0.19758	0.25457	0.16509	0.15189	0.16865	0.20208	0.052567	0.16583	0.17254	0.1893	0.17212	0.15248	0.14451	-1.9229	-2.9667	-2.6146	-2.75	-3.1125	-2.3708	-3.0083	-3.0312	-2.4854	-2.9125	-2.9354	-2.5812	-3.3125	-2.575	-2.725	-3.1083	313.003	69.960	198.019	261.295	194.955	311.498	282.005	-5.958	224.173	71.434	305.510	256.576	44.463	-4.080	290.238	183.971	0.00054835	0.0003545	8.3233e-05	813.51	2.1767e-06	3.5184e-06	870.5	292.38	3.995e-06	4.795e-06	409.82	174.6	112.09	43.351	3.8572e-06	83.73	7.3846e-05	6.0944e-05	1.5619e-05	793.33	6.6867e-07	6.5324e-07	847.4	283.13	6.6234e-07	6.5867e-07	389.63	166.6	106.98	41.693	6.0544e-07	79.512	265.805	68.001	56.517	-26.425	73.945	111.618	-26.878	-20.183	183.190	74.519	-22.094	-16.680	-14.886	-10.397	103.979	-12.636	-8191	255	
18207.904	1	1	0	0	0.19332	0.27658	0.071778	0.4153	0.12165	0.21233	0.091221	0.11528	0.18798	0.0832	0.048376	0.041477	0.2468	0.12072	0.29022	0.047985	-2	-2.9396	-2.6208	-2.4562	-3.0521	-2.4896	-2.6188	-3.2083	-2.4146	-2.7625	-3.0187	-2.4646	-3.0979	-2.6333	-2.6479	-3.1083	23.060	234.511	116.131	276.171	173.037	244.700	172.367	271.622	121.822	83.636	77.585	89.928	316.422	271.852	166.280	117.374	0.00052391	0.00039826	0.00011645	797.43	3.9524e-06	3.2217e-06	837.11	287.38	2.5931e-06	3.378e-06	396.09	170.24	110.96	43.262	3.8491e-06	83.002	7.5137e-05	5.7348e-05	1.4312e-05	776.97	6.7129e-07	6.1125e-07	819.21	277.17	6.9019e-07	6.2047e-07	377.82	162.54	105.56	41.33	5.6201e-07	78.822	256.126	53.557	55.140	-26.413	79.885	96.821	-26.635	-20.088	195.191	83.833	-22.158	-16.824	-15.209	-10.137	112.036	-12.712	-8191	255	
18208.023	1	1	0	0	0.27747	0.066115	0.33295	0.13902	0.065933	0.31007	0.064919	0.30377	0.019052	0.21307	0.051769	0.35447	0.14143	0.03111	0.040404	0.19652	-2.1021	-2.7146	-2.7917	-2.4917	-2.9875	-2.55	-2.7083	-2.9729	-2.3812	-2.8479	-3.0333	-2.5125	-3.2375	-2.7979	-2.5083	-3.3354	253.406	311.485	63.584	252.859	208.612	289.021	147.046	236.726	274.024	27.876	266.100	292.548	313.761	206.926	89.361	251.645	0.00041773	0.00045177	7.4964e-05	795.46	5.7807e-06	3.3912e-06	854.03	290.1	2.9309e-06	4.1585e-06	407.52	174.24	113.55	44.27	3.5488e-06	85.788	7.2672e-05	5.5072e-05	1.3598e-05	771.72	6.6334e-07	5.9013e-07	827.87	281.64	6.7014e-07	5.8196e-07	388.15	166.85	108.15	42.376	5.7516e-07	81.311	261.528	48.522	65.298	-26.251	72.544	84.092	-26.597	-20.297	207.630	107.992	-21.822	-16.466	-15.202	-10.585	126.241	-12.963	-8191	255	
18208.119	1	1	0	0	0.098252	0.28318	0.24698	0.1007	0.093362	0.29964	0.35977	0.17934	0.1589	0.13826	0.21111	0.18379	0.36325	0.10378	0.043539	0.051464	-1.9	-2.6562	-2.8688	-2.6333	-2.9313	-2.8396	-2.6083	-3.2917	-2.4688	-2.8604	-3.1813	-2.5146	-3.1063	-2.9354	-2.4875	-3.2146	148.667	17.846	282.908	313.435	268.094	128.797	233.934	306.002	21.463	269.417	292.479	251.070	-27.400	313.463	2.021	261.489	0.00049347	0.00041052	0.00010292	811.21	3.2588e-06	2.0634e-06	868.29	295.28	2.8786e-06	4.74e-06	415.71	177.16	114.61	45.187	4.6072e-06	87.479	7.342e-05	5.4844e-05	1.3872e-05	787.94	6.5732e-07	5.8545e-07	844.35	285.72	6.637e-07	5.8097e-07	395.37	170.17	109.62	43.341	6.0514e-07	83.177	253.684	34.432	69.740	-26.289	43.357	113.281	-26.698	-20.327	162.615	95.907	-21.992	-16.249	-14.821	-10.236	112.230	-12.460	-8191	255	
18208.217	1	1	0	0	0.257	0.1043	0.26472	0.32144	0.039955	0.1181	0.15219	0.065592	0.15976	0.19299	0.1022	0.17678	0.14269	0.21093	0.11456	0.051481	-2.1542	-2.5	-3.3354	-2.4729	-2.9958	-2.975	-2.8042	-3.2146	-2.7417	-2.6479	-3.3604	-2.5667	-2.9229	-3.1521	-2.4437	-3.2729	151.435	104.258	306.120	-17.468	-13.613	181.634	38.150	243.244	29.190	140.626	27.861	227.430	-12.738	216.693	-19.135	10.009	0.00052283	0.00047334	0.00011128	816.94	3.8767e-06	2.4762e-06	864.6	292.73	2.8438e-06	6.6335e-06	403.6	173.61	111.94	44.218	3.156e-06	84.647	7.3747e-05	5.4895e-05	1.5353e-05	798.07	6.2999e-07	5.8374e-07	842.49	284.65	6.3328e-07	5.8713e-07	385.43	166.4	107.49	42.474	6.3694e-07	80.405	265.424	65.976	42.195	-26.530	76.962	76.660	-26.858	-20.303	169.181	104.488	-21.957	-16.363	-15.521	-10.506	109.524	-12.930	-8191	255	
18208.311	1	1	0	0	0.054657	0.068786	0.23429	0.057988	0.16791	0.12978	0.18899	0.19674	0.14629	0.24433	0.16303	0.1431	0.14541	0.05082	0.15213	0.2617	-2.2333	-2.5875	-2.9854	-2.6208	-2.875	-3.0333	-2.6208	-3.2313	-2.8896	-2.4917	-3.3708	-2.4729	-2.7687	-3.1146	-2.5458	-3.2604	298.942	306.402	75.101	305.726	-10.676	268.239	277.366	279.023	141.402	25.209	223.259	272.006	-5.050	305.634	-4.058	-19.298	0.00045538	0.00031924	0.00013874	796.68	5.3955e-06	4.3643e-06	839.61	284.38	2.4714e-06	4.5959e-06	397.18	170.08	111.64	43.837	3.5208e-06	84.212	6.9948e-05	5.2265e-05	1.5979e-05	777.87	6.0786e-07	5.5239e-07	818.39	277.54	6.1197e-07	5.6874e-07	379.81	163.82	106.33	42.118	6.7139e-07	80.255	258.199	40.184	65.725	-26.370	48.787	84.085	-26.740	-20.418	171.969	117.421	-21.815	-16.486	-15.047	-10.581	96.141	-12.753	-8191	255	
18208.432	1	1	0	0	0.14413	0.28384	0.06793	0.059041	0.15943	0.11302	0.24403	0.36437	0.25624	0.10652	0.046007	0.046299	0.15371	0.1835	0.12246	0.16465	-2.5208	-2.5667	-3.2333	-2.7646	-2.6625	-2.975	-2.5708	-3.2208	-2.8667	-2.6125	-3.2792	-2.6417	-2.85	-3.1479	-2.5062	-3.2167	291.677	310.478	100.796	304.276	126.111	77.131	214.315	278.990	253.610	128.261	41.984	219.679	304.416	270.154	123.355	197.545	0.0004639	0.00020179	0.00014328	794.29	3.1721e-06	3.1752e-06	853.63	289.73	4.1509e-06	4.6391e-06	405.3	174.77	113.61	44.691	3.4898e-06	87.807	6.8422e-05	5.4026e-05	1.6938e-05	778.58	6.1335e-07	5.5672e-07	828.22	281.04	6.0636e-07	5.767e-07	387.72	167.99	108.39	42.922	6.8316e-07	82.941	270.390	53.810	46.355	-26.054	60.001	99.164	-26.736	-20.186	207.821	102.015	-21.827	-16.490	-15.074	-10.260	161.602	-12.861	-8191	255	
18208.504	1	1	0	0	0.10203	0.082896	0.10223	0.22007	0.1088	0.073085	0.15714	0.19146	0.14254	0.077317	0.098337	0.045637	0.23624	0.13149	0.03067	0.24139	-2.4708	-2.4208	-3.1646	-2.6813	-2.7125	-3.2854	-2.6937	-3.0687	-3.0375	-2.3958	-3.2	-2.9146	-2.6604	-3.3396	-2.5479	-3.0521	219.864	237.740	279.817	2.223	23.743	166.001	206.851	295.646	135.850	216.683	14.945	254.104	-23.546	-1.548	-12.293	263.386	0.00050979	0.00020078	0.00011456	817.55	3.2592e-06	3.1521e-06	878.63	299.64	3.6371e-06	5.9312e-06	424.42	183.7	117.22	45.847	2.3148e-06	90.312	6.6311e-05	5.523e-05	1.6965e-05	794.07	5.764e-07	5.8289e-07	859.11	290.05	5.6677e-07	5.9624e-07	406.25	175.78	111.76	44.083	6.6656e-07	85.427	262.598	61.315	24.767	-26.241	59.356	123.285	-27.056	-20.457	188.586	121.749	-21.840	-16.557	-15.152	-10.609	124.860	-12.778	-8191	255	
18208.600	1	1	0	0	0.2532	0.27197	0.10487	0.10578	0.21565	0.16442	0.31878	0.34298	0.14276	0.29686	0.25066	0.30205	0.16793	0.027731	0.13625	0.25146	-2.5979	-2.3083	-2.9417	-2.8958	-2.5938	-3.1521	-2.6437	-2.8021	-3.0604	-2.475	-3.1354	-2.8646	-2.6521	-3.1708	-2.4271	-2.9521	286.668	301.826	244.522	286.237	-19.229	262.887	268.963	318.245	-36.179	320.544	291.880	-23.093	284.772	-34.192	161.794	-8.823	0.0004715	0.00031136	0.00015121	812.14	2.2151e-06	3.3563e-06	861.53	293.85	4.3249e-06	6.5526e-06	409.65	178.08	114.14	44.94	2.095e-06	86.991	6.5181e-05	5.7588e-05	1.6925e-05	790.48	5.7513e-07	6.169e-07	840.15	284.3	5.6769e-07	6.5117e-07	390.19	169.68	108.77	43.104	6.6271e-07	82.432	264.646	47.580	44.985	-26.184	66.004	99.154	-26.894	-20.275	216.255	133.978	-21.954	-16.830	-15.263	-10.510	89.502	-12.887	-8191	255	
18208.695	1	1	0	0	0.11669	0.03278	0.25165	0.14374	0.12198	0.044438	0.054737	0.2574	0.14763	0.2316	0.18488	0.27884	0.17432	0.12637	0.17303	0.25602	-2.6813	-2.1896	-2.9771	-2.9896	-2.4417	-3.0917	-2.6646	-2.7188	-3.1937	-2.55	-2.9313	-2.9458	-2.6312	-3.2687	-2.6354	-2.7875	217.742	114.512	157.259	204.302	260.170	146.379	92.219	179.145	84.958	30.932	305.965	20.857	317.256	280.191	173.145	247.296	0.0005005	0.00031735	0.00010232	798.17	4.4087e-06	4.5756e-06	854.33	291.02	3.5907e-06	5.0135e-06	413.18	179.01	116.2	45.753	3.1701e-06	88.453	6.5543e-05	6.1819e-05	1.6384e-05	777.68	5.9522e-07	6.8584e-07	830.32	282.68	6.0312e-07	6.9381e-07	392.12	170.98	110.3	43.877	6.6607e-07	84.004	262.024	66.128	46.323	-26.575	67.403	133.091	-27.227	-20.576	209.360	134.941	-22.350	-16.803	-15.345	-10.357	106.456	-12.925	-8191	255	
18208.814	1	1	0	0	0.14489	0.21431	0.067459	0.37225	0.24943	0.25271	0.22603	0.029064	0.20025	0.092215	0.026353	0.17448	0.12008	0.19866	0.19876	0.26854	-2.7479	-2.3604	-2.9208	-3.0708	-2.5958	-3.0146	-2.8208	-2.5708	-3.2625	-2.6104	-3.0271	-3.1604	-2.5812	-3.2125	-2.7958	-2.9167	85.774	308.063	23.761	275.973	238.280	264.096	276.164	181.977	216.679	82.576	210.812	-25.691	-33.702	-29.918	39.571	275.122	0.00041289	0.00036953	0.00014801	805.24	8.2819e-07	3.2456e-06	872.41	297.46	2.7426e-06	3.8359e-06	418.6	183.88	118.06	46.747	4.3101e-06	91.543	7.3304e-05	6.683e-05	1.6686e-05	784.02	6.6748e-07	7.1376e-07	846.87	288.04	6.9311e-07	7.1455e-07	400.21	175.68	112.94	44.924	6.8882e-07	86.698	277.436	58.267	63.205	-25.829	76.135	116.903	-26.676	-20.253	237.851	79.301	-22.322	-16.664	-15.244	-10.371	126.218	-12.808	-8191	255	
18208.910	1	1	0	0	0.091225	0.085687	0.18622	0.17031	0.052858	0.071173	0.10586	0.072006	0.016681	0.29672	0.088342	0.33566	0.091242	0.039877	0.06643	0.059358	-2.7167	-2.4271	-2.8208	-3.1917	-2.4917	-3.1146	-2.9333	-2.6875	-3.0375	-2.7479	-2.7875	-3.3646	-2.5375	-2.9792	-2.8896	-3.0646	264.462	57.157	-21.967	-12.928	89.438	-17.288	299.781	232.156	278.896	154.688	292.507	310.626	148.865	-30.696	313.600	33.197	0.0005511	0.00035526	0.00011371	825.64	4.0227e-06	3.6528e-06	910.46	306.59	1.9934e-06	3.9985e-06	431.64	186.3	119.67	47.119	5.6679e-06	90.855	8.2211e-05	6.6474e-05	1.6987e-05	802.76	7.5888e-07	7.118e-07	881.46	296.65	7.7698e-07	7.1608e-07	411.11	178.85	114.04	45.241	6.4765e-07	86.118	258.751	51.937	64.986	-26.244	67.363	74.203	-26.632	-20.168	182.380	114.784	-22.056	-16.735	-15.032	-10.551	100.173	-12.701	-8191	255	
18209.008	1	1	0	0	0.05757	0.23418	0.26962	0.28146	0.022947	0.22738	0.12568	0.26759	0.28369	0.091496	0.36962	0.24715	0.11838	0.0324	0.12354	0.20465	-2.7417	-2.7104	-2.6625	-3.2271	-2.425	-3.0292	-3.1562	-2.5438	-3.0771	-2.8854	-2.6813	-3.1229	-2.5354	-2.9562	-3.1083	-2.5271	162.996	-37.670	308.157	258.536	216.047	152.011	196.339	232.239	56.681	66.086	273.290	259.291	-0.238	221.500	94.034	249.763	0.00045568	0.00035913	0.00011558	798.16	2.7968e-06	4.33e-06	859.45	292.72	2.499e-06	4.4904e-06	410.85	180.39	116.94	46.052	4.9243e-06	89.675	8.3877e-05	6.4e-05	1.6184e-05	776.24	7.5929e-07	6.99e-07	834.99	284.22	7.7504e-07	6.9187e-07	392.43	172.9	111.19	44.246	6.2112e-07	84.523	258.408	30.424	43.867	-25.639	50.284	106.184	-26.711	-20.043	181.470	86.561	-22.104	-16.556	-15.220	-10.123	133.398	-12.613	-8191	255	
18209.104	1	1	0	0	0.22598	0.058536	0.1251	0.14267	0.16469	0.11534	0.30963	0.23034	0.1326	0.21776	0.31563	0.17393	0.20483	0.060251	0.1498	0.059991	-2.7604	-2.6375	-2.7438	-3.2729	-2.6021	-2.9083	-3.1229	-2.675	-3.0542	-2.7562	-2.5708	-3.2313	-2.575	-2.8667	-2.9542	-2.5354	70.008	128.429	240.112	72.393	276.612	66.931	307.527	293.397	293.597	104.890	269.304	292.889	309.932	317.664	229.841	24.099	0.00050989	0.00027819	7.9578e-05	793.79	6.9295e-06	3.7946e-06	861.53	294.56	5.7593e-06	4.2678e-06	416.14	183.54	117.77	46.608	5.6649e-06	90.466	8.1723e-05	6.0526e-05	1.559e-05	771.01	7.3994e-07	6.5583e-07	837.66	285.75	7.6709e-07	6.4432e-07	397.36	174.95	112.4	44.673	6.3628e-07	85.687	267.159	12.585	62.488	-25.901	69.723	95.490	-26.451	-20.137	185.031	117.422	-21.818	-16.730	-15.102	-10.984	112.346	-12.810	-8191	255	
18209.199	1	1	0	0	0.085999	0.07641	0.031785	0.23072	0.092777	0.11656	0.23657	0.18634	0.055412	0.047986	0.1231	0.31479	0.20754	0.18473	0.074839	0.10841	-2.6646	-2.7188	-2.5271	-3.0521	-2.6208	-2.7917	-3.2	-2.6229	-2.9521	-2.9646	-2.5708	-3.2062	-2.6542	-2.8104	-3.125	-2.5771	298.860	18.775	-26.272	260.084	251.482	4.506	277.278	303.975	206.312	281.569	215.133	282.177	15.179	33.602	240.780	59.546	0.00055536	0.00046744	8.4309e-05	803.55	3.8789e-06	3.4966e-06	870.38	295.62	4.5451e-06	2.827e-06	420.16	184.5	119.38	46.895	2.9195e-06	91.678	8.2165e-05	6.2382e-05	1.6884e-05	776.97	7.2259e-07	6.5933e-07	844.75	287.12	7.2984e-07	6.4638e-07	401.91	177.09	113.69	45.072	6.5594e-07	87.045	261.957	50.090	54.121	-26.153	34.584	48.780	-26.787	-20.318	202.327	114.999	-22.088	-16.284	-15.077	-10.416	125.681	-13.017	-8191	255	
18209.295	1	1	0	0	0.30932	0.079951	0.20564	0.099096	0.18172	0.049243	0.23761	0.2171	0.27177	0.18039	0.13403	0.32425	0.14064	0.19188	0.13822	0.22384	-2.5167	-3.0271	-2.4	-3.2687	-2.475	-2.5083	-3.0917	-2.5083	-2.9437	-2.9458	-2.5667	-3.1708	-2.8479	-2.7333	-2.9667	-2.6188	93.085	129.684	-18.404	271.798	248.841	258.601	-22.211	295.326	239.228	64.256	40.285	266.279	139.444	-18.752	72.945	282.352	0.00043716	0.00022778	0.00012898	802.48	4.5219e-06	3.278e-06	860.74	292.13	4.1151e-06	4.8234e-06	409.08	180	116.43	45.665	3.3806e-06	88.292	8.037e-05	6.0176e-05	1.7364e-05	780.62	6.8701e-07	6.2735e-07	836.92	284.3	7.2499e-07	6.207e-07	389.96	172.33	110.53	43.875	7.0607e-07	83.433	261.803	51.540	100.335	-26.039	62.710	75.583	-26.446	-20.275	197.990	107.835	-22.033	-16.777	-15.138	-10.884	113.942	-12.998	-8191	255	
18209.391	1	1	0	0	0.084417	0.093706	0.18506	0.079645	0.2149	0.057256	0.17744	0.19098	0.31379	0.035524	0.14992	0.27455	0.11248	0.14074	0.20558	0.034443	-2.2896	-2.8354	-2.5292	-3.2042	-2.7458	-2.5604	-3.1375	-2.5938	-2.6479	-3.1688	-2.6667	-3.2438	-2.9479	-2.5375	-3.2104	-2.7062	146.534	169.653	112.059	82.619	85.034	86.077	-15.712	158.630	-7.826	296.236	236.791	241.634	17.764	243.562	64.075	224.605	0.00046643	0.00035332	0.00011095	782.34	3.5757e-06	3.7259e-06	837.7	288.31	9.6437e-07	3.296e-06	400.97	176.61	114.99	45.524	3.2282e-06	88.04	7.4791e-05	5.7023e-05	1.7884e-05	759.79	6.6373e-07	6.2922e-07	814.52	278.71	6.6998e-07	6.2291e-07	383.79	169.59	109.7	43.65	7.3449e-07	83.458	268.161	72.796	58.067	-26.145	53.821	56.327	-26.552	-20.561	253.847	120.424	-21.824	-16.938	-15.156	-10.746	131.157	-12.883	-8191	255	
18209.512	1	1	0	0	0.062452	0.23946	0.16502	0.30835	0.099417	0.33966	0.26005	0.20075	0.20257	0.18599	0.13961	0.133	0.028356	0.034157	0.23187	0.064357	-2.4042	-2.9396	-2.5354	-3.1188	-2.9	-2.4833	-3.2687	-2.8312	-2.6312	-2.9917	-2.6542	-3.1021	-2.9437	-2.6167	-3.1188	-2.9604	224.184	-14.139	155.474	270.656	172.747	235.672	260.078	4.130	185.460	248.954	250.293	297.327	314.981	67.285	81.768	258.287	0.00042177	0.00042204	0.00013987	783.21	3.6861e-06	4.9412e-06	842.57	289.61	2.4796e-06	2.354e-06	409.39	179.53	116.01	46.075	3.5805e-06	89.618	7.5652e-05	5.8278e-05	1.8857e-05	761.1	6.6212e-07	6.4953e-07	818.97	279.98	6.6867e-07	6.4063e-07	389.44	171.89	110.71	44.073	7.4869e-07	84.608	263.107	54.333	52.819	-26.386	54.078	94.012	-26.728	-20.067	165.845	109.884	-22.100	-16.599	-15.177	-10.762	122.064	-12.930	-8191	255	
18209.607	1	1	0	0	0.13033	0.14958	0.070053	0.10688	0.24595	0.091608	0.11138	0.29091	0.073875	0.11778	0.03696	0.12605	0.19126	0.043499	0.20744	0.15064	-2.3563	-2.9979	-2.5417	-3.0042	-3	-2.5354	-3.325	-2.8354	-2.6854	-3.1896	-2.5729	-2.9375	-2.9562	-2.5896	-3.25	-2.8208	-0.720	290.425	257.423	266.100	162.575	182.366	186.699	-25.422	172.275	33.375	175.121	20.474	80.054	30.656	234.053	8.101	0.00049339	0.00029056	9.9681e-05	793.21	3.7122e-06	2.1269e-06	864.91	293.49	2.7536e-06	4.1006e-06	417.79	182.88	117.73	46.109	3.4221e-06	90.314	7.3243e-05	6.0743e-05	1.9373e-05	768.88	6.2259e-07	6.9667e-07	839.84	284.55	6.4701e-07	6.8938e-07	398.23	175.12	112.13	44.308	7.4968e-07	84.871	267.004	63.856	68.365	-26.363	54.017	114.796	-26.648	-20.333	211.923	124.144	-21.959	-16.738	-15.079	-10.496	80.431	-12.845	-8191	255	
18209.703	1	1	0	0	0.20323	0.20124	0.081327	0.1919	0.21337	0.19291	0.13712	0.30585	0.23053	0.21967	0.15844	0.15116	0.1726	0.24772	0.14161	0.23002	-2.2042	-2.9521	-2.6354	-2.7833	-3.1104	-2.5479	-3.1333	-2.9708	-2.5771	-3.3646	-2.6208	-2.8937	-3.0958	-2.6083	-3.05	-3.1729	67.338	97.794	154.948	283.267	244.161	194.073	318.269	257.948	24.903	30.377	259.856	309.601	276.855	233.911	-33.111	270.327	0.00048225	0.00036954	8.8889e-05	780.98	2.7196e-06	1.8927e-06	833.74	285.75	4.0348e-06	2.9713e-06	403	175.96	114.25	44.815	4.8946e-06	87.046	7.3183e-05	6.6645e-05	1.8482e-05	758.5	6.2781e-07	7.0636e-07	810.85	276.91	6.4002e-07	7.2242e-07	382.15	167.94	108.72	43.206	7.1457e-07	82.146	263.347	21.404	63.506	-26.585	41.711	87.573	-26.935	-20.089	208.598	91.844	-22.011	-16.992	-15.015	-10.858	114.384	-12.924	-8191	255	
18209.799	1	1	0	0	0.16862	0.21422	0.20962	0.25345	0.2253	0.12744	0.46713	0.11755	0.11587	0.13402	0.15278	0.098418	0.12144	0.13086	0.22515	0.15337	-2.1937	-3.1708	-2.6354	-2.6479	-3.0521	-2.4271	-3.025	-2.9813	-2.2438	-3.3083	-2.7313	-2.7354	-3.0667	-2.6479	-2.8438	-3.2104	27.437	320.675	269.328	269.529	201.034	40.698	272.628	7.092	94.640	285.795	317.913	-5.659	291.004	245.802	318.461	236.984	0.00039365	0.0002606	5.4404e-05	771.24	4.0113e-06	4.8246e-06	830.8	286.12	1.6199e-06	3.3452e-06	398.6	175.88	113.37	44.951	2.8322e-06	87.138	7.1323e-05	6.9074e-05	1.7722e-05	749.9	6.3895e-07	7.232e-07	803.48	275.88	6.6926e-07	7.3463e-07	379.97	167.67	108.34	43.125	6.8111e-07	82.452	253.512	75.515	97.765	-26.493	64.760	91.086	-26.928	-20.360	224.750	115.568	-22.134	-16.889	-15.251	-10.816	93.800	-13.192	-8191	255	
18209.895	1	1	0	0	0.27909	0.27623	0.1602	0.18549	0.081382	0.47526	0.15501	0.15718	0.071351	0.19026	0.22568	0.31085	0.17452	0.23335	0.029881	0.21626	-2.15	-2.9521	-2.6437	-2.7083	-3.1063	-2.6688	-2.8792	-3.1625	-2.6813	-3.3021	-2.7438	-2.7083	-3.2104	-2.6167	-2.8937	-3.2938	291.533	159.073	43.242	303.198	215.051	173.252	-37.134	99.196	309.461	161.702	234.262	264.306	270.842	-16.389	221.244	255.213	0.00057323	0.00042597	0.00014023	773.66	3.5106e-06	2.9264e-06	837.95	287.2	4.092e-06	4.2276e-06	404.28	177.42	115.18	45.536	1.2285e-06	89.219	7.4495e-05	6.6092e-05	1.6267e-05	752.43	6.6851e-07	7.1912e-07	812.57	276.94	7.1757e-07	7.2115e-07	385.29	170.15	109.63	43.6	6.3605e-07	84.204	270.905	52.507	52.691	-26.370	94.689	85.658	-26.729	-20.102	211.347	114.520	-22.174	-16.753	-14.884	-10.660	52.897	-12.961	-8191	255	
18209.990	1	1	0	0	0.054656	0.11029	0.1136	0.12926	0.37211	0.045101	0.25147	0.18791	0.2076	0.15676	0.32002	0.077824	0.25822	0.31421	0.10032	0.17577	-2.0521	-2.9854	-2.725	-2.7625	-3.1646	-2.6042	-2.8812	-3.0771	-2.4375	-2.8896	-2.9708	-2.5312	-3.275	-2.8563	-2.6396	-3.3375	96.592	298.765	105.387	206.499	-33.040	48.873	200.090	280.386	93.861	277.025	296.801	-31.532	6.241	291.074	91.623	188.057	0.00048801	0.00035098	0.00010249	782.95	6.1518e-06	6.0448e-06	849.92	290.04	2.953e-06	4.575e-06	401.91	177.59	114.47	44.917	2.3308e-06	87.244	7.9229e-05	6.4287e-05	1.5842e-05	762.08	7.1693e-07	6.7862e-07	824.23	279.76	7.3683e-07	6.6703e-07	385.22	169.11	108.6	43.089	6.2453e-07	82.289	265.626	35.944	55.910	-26.488	68.962	87.889	-26.458	-20.372	165.604	85.290	-22.170	-16.790	-15.159	-10.586	93.144	-12.986	-8191	255	
18210.111	1	1	0	0	0.27043	0.16479	0.18597	0.28236	0.4377	0.052279	0.1259	0.11909	0.1198	0.10682	0.25044	0.19392	0.0865	0.089706	0.065494	0.18524	-2.2062	-3.0167	-2.8937	-2.4875	-3.2687	-2.7042	-2.7562	-3.1792	-2.4729	-2.8292	-3.0271	-2.7646	-3.0792	-2.8375	-2.5604	-3.2167	69.044	31.817	19.055	247.828	147.659	292.086	123.810	8.964	-14.690	39.642	256.749	293.446	55.337	301.541	182.787	156.031	0.00051894	0.00032288	0.00011046	771.59	4.4792e-06	3.6232e-06	817.34	278.32	1.718e-06	1.126e-06	390.24	171.35	111.39	44.546	5.6157e-06	85.258	8.031e-05	5.8719e-05	1.5317e-05	747.23	7.1512e-07	6.1081e-07	795.48	271.61	7.1495e-07	6.1684e-07	373	164.35	106.26	42.538	6.0491e-07	81.062	264.583	46.069	79.480	-26.315	39.805	104.829	-26.779	-20.195	208.665	121.937	-21.910	-16.668	-15.130	-10.564	96.776	-12.960	-8191	255	
18210.207	1	1	0	0	0.20818	0.093198	0.17575	0.29518	0.24701	0.18846	0.27206	0.02317	0.20877	0.13009	0.13041	0.49762	0.028398	0.15453	0.058915	0.17825	-1.9708	-2.775	-2.9333	-2.3854	-3.1854	-2.7208	-2.6208	-3.1854	-2.5917	-2.9021	-3.1167	-2.5708	-3.2042	-3.025	-2.8125	-3.3	184.356	76.823	141.512	-7.455	187.627	299.896	253.469	101.843	254.914	76.300	180.518	231.650	264.207	203.686	197.076	290.708	0.00051952	0.00053367	0.00010507	768.61	2.2843e-06	2.673e-06	813.82	280.7	3.3797e-06	3.9046e-06	391.39	171.57	111.11	44.172	6.2153e-06	85.999	7.7524e-05	5.7761e-05	1.4447e-05	746.91	6.8784e-07	6.2774e-07	795.05	272.3	6.9924e-07	6.1287e-07	374.52	165.4	106.4	42.512	6.0795e-07	81.776	262.797	38.892	73.868	-26.205	65.880	133.471	-26.687	-20.115	181.639	97.477	-21.863	-16.649	-15.044	-10.510	121.961	-13.011	-8191	255	
18210.305	1	1	0	0	0.22627	0.24089	0.069682	0.13619	0.20207	0.1064	0.064233	0.14283	0.31244	0.092749	0.061911	0.29435	0.33098	0.094129	0.24295	0.13978	-2.3521	-2.7854	-2.8646	-2.7896	-2.9958	-3.0458	-2.7083	-3.2438	-2.6708	-2.6833	-3.2083	-2.7208	-3.1021	-3.0708	-2.7146	-3.2833	315.505	274.844	69.576	70.074	147.700	162.808	229.513	-3.195	-13.274	216.636	-25.269	248.102	25.540	-16.160	87.823	13.581	0.00042923	0.00041792	0.00014724	772.44	3.0156e-06	5.2725e-06	829.84	282.34	4.4637e-06	5.218e-06	398.23	174.25	112.66	44.51	4.0238e-06	87.46	7.5191e-05	5.7915e-05	1.4847e-05	750.42	6.4426e-07	6.0947e-07	805.52	274.08	6.8359e-07	6.0568e-07	379.59	167.24	107.43	42.779	6.3734e-07	82.857	263.348	38.877	53.299	-26.346	64.007	99.502	-26.746	-20.216	168.818	88.058	-21.563	-16.702	-15.522	-10.371	104.749	-12.761	-8191	255	
18210.400	1	1	0	0	0.31376	0.067223	0.11726	0.095283	0.083771	0.11393	0.13717	0.28712	0.10047	0.071696	0.20637	0.1637	0.24993	0.24254	0.043915	0.28852	-2.3812	-2.6417	-3.1708	-2.4417	-2.9979	-2.8896	-2.5833	-3.1958	-2.7458	-2.7604	-3.2812	-2.5021	-2.8583	-3.1708	-2.3625	-3.4	210.981	167.282	15.642	224.819	-3.245	234.131	282.286	190.045	23.071	-0.446	4.829	293.558	295.375	4.662	230.565	-25.716	0.0004683	0.00024861	9.2735e-05	776.46	2.2998e-06	4.493e-06	824.98	279.57	3.898e-06	5.8309e-06	390.21	170.67	110.58	43.722	4.7759e-06	85.271	7.1993e-05	5.4292e-05	1.5499e-05	754.76	6.3105e-07	5.8178e-07	800.48	272.13	6.3089e-07	5.7926e-07	372.49	163.93	105.35	41.956	6.5831e-07	80.871	257.944	21.325	72.448	-26.312	32.951	94.795	-26.935	-20.286	195.800	122.390	-21.871	-16.716	-15.285	-10.613	153.673	-12.889	-8191	255	
18210.496	1	1	0	0	0.21544	0.028587	0.19263	0.13848	0.21048	0.08741	0.15733	0.19604	0.10816	0.20835	0.03896	0.051713	0.18326	0.16263	0.12338	0.18973	-2.4437	-2.5396	-3.1958	-2.7479	-3.0396	-3.1562	-2.5979	-3.0958	-2.725	-2.7333	-3.1937	-2.7938	-2.9646	-3.3042	-2.4813	-3.1354	205.935	239.059	252.818	279.593	296.038	257.141	278.034	286.769	-10.049	243.960	70.609	-2.856	278.321	241.163	44.829	206.855	0.00047646	0.00033543	6.0135e-05	761.78	3.8187e-06	2.632e-06	805.63	275.53	4.423e-06	2.7239e-06	388.39	170.13	109.97	43.276	2.2347e-06	85.344	6.9073e-05	5.1552e-05	1.5912e-05	740.48	5.869e-07	5.3374e-07	784.99	268.58	5.793e-07	5.4862e-07	370.34	163.03	104.81	41.687	6.608e-07	80.832	260.610	28.199	87.353	-26.379	95.702	80.398	-26.798	-20.268	178.223	152.749	-21.675	-16.839	-15.213	-10.649	152.177	-12.912	-8191	255	
18210.592	1	1	0	0	0.24355	0.30086	0.082234	0.20811	0.055979	0.18952	0.24285	0.049209	0.064762	0.064276	0.19501	0.079349	0.33282	0.11847	0.19495	0.27357	-2.3917	-2.6292	-3.1271	-2.7792	-2.6458	-3.1521	-2.5958	-3.1437	-2.8854	-2.6625	-3.3563	-2.7875	-2.7479	-3.2479	-2.5104	-2.9813	134.582	316.706	151.789	273.843	128.765	273.469	303.233	294.752	294.893	275.123	231.578	221.243	60.410	159.083	26.404	289.369	0.00044156	0.00045483	9.962e-05	762.39	3.9468e-06	2.8406e-06	818.72	278.14	4.077e-06	4.9785e-06	393.39	171.35	109.92	43.26	2.2507e-06	85.886	6.6258e-05	5.1501e-05	1.6826e-05	741.37	5.8279e-07	5.7124e-07	794.61	269.37	5.7158e-07	5.668e-07	375.26	164.28	104.65	41.685	6.6071e-07	81.37	258.028	64.714	84.449	-26.053	44.343	86.153	-26.845	-20.411	215.925	96.810	-22.215	-16.890	-15.502	-10.921	116.870	-12.941	-8191	255	
18210.688	1	1	0	0	0.075931	0.079375	0.13779	0.28456	0.082575	0.27186	0.2064	0.15578	0.15926	0.23898	0.22696	0.011985	0.15371	0.16174	0.051591	0.10925	-2.4417	-2.3688	-3.0896	-2.9521	-2.6979	-3.175	-2.6417	-2.8229	-3.1542	-2.4646	-3.1229	-2.9313	-2.6979	-3.2687	-2.7188	-3.0187	13.610	242.314	-34.732	313.558	2.050	148.546	172.250	259.437	36.662	103.687	-12.416	303.446	180.577	32.329	39.274	186.054	0.00046644	0.00040026	0.0001111	762.2	4.3174e-06	3.2999e-06	824.78	279.67	2.1642e-06	4.9663e-06	395.17	172.72	110.44	43.632	4.7357e-06	85.293	6.4557e-05	5.5488e-05	1.6923e-05	745.18	5.6428e-07	6.1256e-07	804.08	271.93	5.6344e-07	6.2986e-07	376.77	165.18	105	41.86	6.6372e-07	80.892	270.436	37.851	68.790	-26.135	51.230	91.249	-26.560	-20.202	234.889	97.117	-21.767	-16.813	-15.269	-10.907	88.544	-12.976	-8191	255	
18210.785	1	1	0	0	0.16019	0.076243	0.30797	0.42694	0.17866	0.044194	0.19034	0.21791	0.14716	0.16519	0.034535	0.087561	0.29976	0.22961	0.14309	0.16792	-2.6271	-2.4104	-3.0354	-2.9125	-2.6375	-3.3438	-2.5687	-2.7708	-2.9396	-2.6354	-3.1125	-2.925	-2.8	-3.2562	-2.7333	-2.7917	77.638	99.995	192.334	290.433	83.054	240.458	284.283	7.584	-33.842	270.799	119.555	306.453	-37.647	280.015	38.440	309.620	0.00048584	0.00036047	5.3515e-05	763.8	3.5563e-06	5.3271e-06	810.08	273.98	4.1664e-06	4.0777e-06	381.78	166.64	107.27	42.671	4.0174e-06	83.197	6.6729e-05	5.8999e-05	1.6478e-05	739.77	5.8784e-07	6.3619e-07	784.41	265.78	5.7075e-07	6.6973e-07	365.03	160.18	102.4	41.076	6.1965e-07	78.947	261.988	41.843	40.976	-26.419	75.492	108.835	-26.850	-20.399	186.744	116.573	-21.877	-16.462	-15.172	-10.441	97.938	-12.955	-8191	255	
18210.902	1	1	0	0	0.12227	0.15305	0.12138	0.16919	0.18892	0.24253	0.1469	0.10119	0.37461	0.14957	0.090646	0.2124	0.1183	0.18251	0.04721	0.29145	-2.6979	-2.375	-3.05	-2.9771	-2.6312	-3.1312	-2.9542	-2.8958	-3.2708	-2.6063	-2.9437	-3.0104	-2.6458	-3.1937	-2.8396	-2.8146	218.749	27.435	115.822	271.502	48.946	32.259	142.797	111.786	296.329	154.809	277.790	294.130	19.129	300.142	164.931	241.940	0.00047569	0.00031222	5.5147e-05	748.36	3.002e-06	4.2028e-06	804.14	272.32	3.1706e-06	4.2977e-06	382.48	167.76	107.15	42.871	3.4259e-06	84.099	6.5374e-05	6.1334e-05	1.5398e-05	730.78	5.8033e-07	6.4489e-07	778.95	264.05	6.1252e-07	6.5288e-07	365.21	160.3	102.23	41.022	6.1442e-07	79.394	264.620	47.547	45.349	-26.085	58.621	83.204	-26.374	-20.188	244.504	95.281	-21.989	-16.406	-15.460	-10.504	114.216	-12.733	-8191	255	
18211.000	1	1	0	0	0.19446	0.26952	0.16612	0.098681	0.22195	0.30346	0.30929	0.17546	0.089507	0.22848	0.092596	0.25782	0.12095	0.18103	0.034805	0.040251	-2.85	-2.4125	-2.8312	-3.1271	-2.4458	-3.2188	-3.0083	-2.8583	-3.1646	-2.7458	-2.7917	-3.1896	-2.4313	-3.2979	-2.8688	-2.8354	312.629	29.512	220.435	1.746	132.402	62.442	242.646	307.323	-27.957	8.932	110.855	214.843	289.282	256.725	211.832	295.188	0.00052747	0.0003962	3.0949e-05	749.4	3.483e-06	3.0769e-06	803.8	274.83	3.2264e-06	3.6736e-06	384.25	168.96	107.63	42.956	2.898e-06	85.296	7.0298e-05	5.978e-05	1.4806e-05	732.47	6.3063e-07	6.6049e-07	783.04	266.13	6.2742e-07	6.3542e-07	368.61	161.73	103.06	41.284	5.7309e-07	80.634	262.946	25.507	99.209	-26.242	63.772	106.311	-26.682	-20.146	194.366	67.206	-21.697	-16.687	-15.086	-10.652	72.457	-12.810	-8191	255	
18211.070	1	1	0	0	0.10906	0.088151	0.13914	0.19822	0.19043	0.20525	0.19852	0.17171	0.17233	0.19084	0.19916	0.20746	0.15767	0.043405	0.038109	0.39927	-2.7313	-2.6437	-2.7542	-3.2625	-2.6875	-3.1562	-3.0979	-2.6521	-3.2083	-2.6479	-2.6562	-3.0542	-2.7375	-3.1229	-2.9125	-2.6958	93.783	63.515	74.111	278.639	130.502	167.292	214.319	313.952	268.034	151.521	136.577	-9.535	259.387	24.046	4.891	-36.737	0.00047459	0.00039986	0.00015047	761.1	5.9133e-06	3.2151e-06	817.67	276.65	2.882e-06	3.4719e-06	389.31	167.89	107.59	42.522	4.5291e-06	83.834	7.3014e-05	5.7192e-05	1.4788e-05	741.43	6.6591e-07	6.0536e-07	796.43	268.09	6.6147e-07	6.0584e-07	369.4	161.62	102.86	40.952	5.6441e-07	79.452	261.499	69.663	61.482	-25.944	49.640	105.107	-26.772	-20.367	229.484	84.248	-22.073	-16.480	-15.066	-10.799	86.566	-12.842	-8191	255	
18211.191	1	1	0	0	0.1925	0.082343	0.22655	0.057194	0.12148	0.29215	0.1334	0.21169	0.1526	0.10992	0.1701	0.1718	0.13599	0.070071	0.07931	0.062105	-2.5875	-2.4792	-2.7438	-3.3354	-2.6042	-2.9542	-3.2292	-2.6021	-3.125	-2.8375	-2.7646	-3.1396	-2.6292	-2.9875	-2.925	-2.6729	254.432	321.132	290.225	80.206	159.381	218.820	1.117	204.492	302.596	202.418	209.987	112.008	278.052	-23.570	265.192	40.556	0.00050987	0.0004483	9.1742e-05	751.91	4.7617e-06	2.6669e-06	789.95	269.94	4.1683e-06	4.3435e-06	374.36	164.06	105.31	42.029	2.9725e-06	82.569	7.2847e-05	5.3716e-05	1.3873e-05	729.7	6.567e-07	5.8063e-07	771.56	261.49	6.5434e-07	5.76e-07	358.99	157.81	101.01	40.406	5.3929e-07	78.354	266.650	31.573	68.790	-26.201	48.059	77.397	-26.509	-20.242	231.843	121.564	-21.776	-16.653	-14.978	-10.798	84.581	-12.861	-8191	255	
18211.287	1	1	0	0	0.22748	0.23554	0.071209	0.28021	0.024716	0.091886	0.079155	0.12399	0.12282	0.29236	0.26876	0.14518	0.024426	0.15961	0.11883	0.48327	-2.5354	-2.7229	-2.5104	-3.0354	-2.575	-2.7917	-3.1292	-2.3521	-2.9479	-2.8729	-2.6396	-3.2854	-2.5146	-2.7229	-2.9896	-2.6333	99.422	184.054	309.857	-19.041	296.534	321.637	141.622	59.164	25.995	74.257	273.820	212.534	86.881	273.048	310.659	270.701	0.00044304	0.00018875	8.5695e-05	746.5	4.9945e-06	3.5978e-06	792.24	268.43	3.8208e-06	2.7422e-06	377.28	165.76	106.34	41.984	2.2318e-06	83.196	7.2654e-05	5.3208e-05	1.4256e-05	727.45	6.4435e-07	5.7599e-07	772.6	260.99	6.371e-07	5.5482e-07	360.34	158.55	101.06	40.389	5.6489e-07	78.944	257.013	6.703	57.348	-25.921	81.788	111.492	-26.715	-20.137	176.441	72.675	-22.374	-16.916	-15.293	-10.470	170.027	-12.916	-8191	255	
18211.385	1	1	0	0	0.10111	0.1452	0.11006	0.054589	0.21943	0.050401	0.031669	0.083253	0.19787	0.13748	0.025375	0.18099	0.28071	0.13674	0.045953	0.07927	-2.625	-2.9292	-2.375	-3.1708	-2.8208	-2.7229	-3.2354	-2.5687	-2.9729	-3.0333	-2.7062	-3.3854	-2.725	-2.8187	-3.3	-2.6375	291.357	87.842	252.389	-38.231	205.045	2.912	142.436	-18.461	119.092	33.407	91.130	281.810	230.728	304.284	224.715	297.968	0.00041662	0.00035831	8.5595e-05	749.9	4.4046e-06	1.2464e-06	798.62	271.81	4.3858e-06	4.3932e-06	385.78	167.2	107.58	42.716	4.186e-06	84.77	7.0057e-05	5.1109e-05	1.4466e-05	729.22	6.0967e-07	5.6198e-07	778.53	263.8	6.2689e-07	5.4488e-07	366.1	160.9	102.42	40.894	6.0121e-07	80.146	260.381	40.003	83.486	-26.325	36.410	115.265	-26.821	-20.283	210.208	87.776	-22.194	-16.662	-14.917	-10.653	105.405	-13.145	-8191	255	
18211.506	1	1	0	0	0.14922	0.27596	0.11045	0.10847	0.13383	0.23214	0.054685	0.095697	0.21928	0.12094	0.29204	0.22785	0.26743	0.12734	0.023471	0.17968	-2.4688	-3	-2.4375	-3.2146	-2.6979	-2.5854	-3.2958	-2.6	-3.0417	-3.0438	-2.5021	-3.1604	-2.7687	-2.5292	-3.2417	-2.7083	18.065	36.028	216.995	270.325	22.900	204.257	260.737	-13.436	18.425	279.911	255.134	273.211	11.203	228.553	273.343	299.517	0.00048204	0.00039969	7.0972e-05	751.47	3.0179e-06	4.0675e-06	798.54	270.72	4.188e-06	4.6243e-06	380.57	166.52	106.43	41.885	2.0996e-06	82.676	7.0269e-05	5.0917e-05	1.5576e-05	729.65	5.9805e-07	5.5728e-07	775.4	261.97	5.8627e-07	5.347e-07	361.17	159.2	100.97	40.263	6.1627e-07	78.489	257.658	43.183	35.066	-26.367	66.898	106.550	-26.710	-20.225	182.803	111.349	-22.500	-16.680	-15.381	-11.039	122.672	-12.929	-8191	255	
18211.602	1	1	0	0	0.16243	0.16709	0.082508	0.060557	0.23739	0.21704	0.23524	0.24743	0.03539	0.11832	0.21991	0.15423	0.18751	0.15806	0.32543	0.26516	-2.2917	-3	-2.3812	-2.9167	-2.7771	-2.4875	-3.2708	-2.7333	-2.7729	-3.1521	-2.4938	-3.075	-2.9542	-2.4979	-3.1	-2.6771	-8.761	62.862	183.377	18.053	20.216	181.362	314.999	274.712	120.768	297.951	17.115	46.434	300.226	148.222	12.447	274.315	0.00042276	0.00026041	9.7217e-05	736.58	3.0831e-06	1.6293e-06	790.42	268.58	1.8491e-06	2.2177e-06	377.37	165.59	105.79	42.006	2.5841e-06	83.498	6.6334e-05	4.6811e-05	1.5655e-05	717.82	5.6334e-07	5.2504e-07	767.35	259.53	5.7385e-07	5.3196e-07	359.85	158.55	100.42	40.235	6.1887e-07	78.683	256.903	73.166	53.274	-26.237	48.564	124.765	-26.753	-20.555	204.598	134.575	-22.075	-16.919	-15.362	-10.963	121.551	-13.146	-8191	255	
18211.674	1	1	0	0	0.29543	0.088471	0.2799	0.081731	0.14799	0.01676	0.10797	0.32142	0.10243	0.056945	0.17083	0.2661	0.19679	0.11435	0.061926	0.24165	-2.3146	-3.1375	-2.3729	-2.9833	-2.95	-2.5438	-3.3229	-2.6958	-2.65	-3.2917	-2.7083	-2.9	-2.7854	-2.5104	-2.9979	-2.9917	316.001	319.437	87.096	3.192	143.334	139.852	310.884	140.906	26.156	303.441	248.624	304.392	239.418	38.073	41.433	126.578	0.00046796	0.00045072	0.00015746	746.6	3.0556e-06	3.8001e-06	797.15	269.2	3.1521e-06	2.1816e-06	379.76	166.44	106.22	42.292	4.1744e-06	83.476	6.4215e-05	5.0187e-05	1.6224e-05	722.02	5.4029e-07	5.8074e-07	774.94	261.53	5.5645e-07	5.6357e-07	362.82	159.34	101.14	40.411	6.4887e-07	79.107	260.726	80.747	44.949	-26.714	84.217	109.648	-27.018	-20.618	180.943	101.733	-22.064	-17.026	-15.313	-10.871	75.235	-12.793	-8191	255	
18211.793	1	1	0	0	0.16452	0.14634	0.063856	0.23371	0.2276	0.13643	0.079999	0.16609	0.14549	0.14991	0.17273	0.38161	0.13454	0.072798	0.10054	0.14752	-2.2917	-3.2292	-2.4646	-3.075	-2.9813	-2.45	-3.0438	-2.8458	-2.6063	-3.0958	-2.5458	-3.0167	-3.0208	-2.3187	-2.9813	-3.0229	-27.111	295.318	6.926	173.689	53.950	14.913	-28.437	233.331	152.233	-11.309	235.407	230.690	297.167	-0.884	170.606	-22.581	0.00050492	0.00040815	0.00016593	748.85	2.3024e-06	2.7084e-06	801.42	273.02	5.2192e-06	3.3012e-06	385.71	168.18	106.55	42.239	3.0722e-06	83.189	6.4903e-05	5.4606e-05	1.6118e-05	728.74	5.396e-07	6.0804e-07	782.32	263.78	5.61e-07	6.0092e-07	367.4	160.83	101.52	40.543	6.2617e-07	78.868	263.687	71.494	74.023	-26.221	78.111	85.170	-26.732	-20.272	175.141	109.736	-22.019	-16.697	-14.935	-10.931	122.007	-12.804	-8191	255	
18211.889	1	1	0	0	0.053398	0.35345	0.30931	0.25433	0.0044081	0.271	0.21496	0.13139	0.36852	0.15192	0.026818	0.43077	0.071203	0.23014	0.085359	0.095596	-2.1396	-3.1854	-2.4417	-2.6646	-3.0708	-2.3958	-3.0333	-2.8167	-2.5104	-3.1688	-2.7792	-2.6292	-3.0854	-2.5708	-3.075	-2.95	299.685	288.083	94.904	285.593	304.008	-1.786	146.489	42.787	233.400	16.980	-13.123	306.606	248.883	253.447	11.753	241.457	0.00047303	0.0001884	8.9935e-05	739.76	3.605e-06	3.6705e-06	786.5	267.65	3.4931e-06	4.2313e-06	373.92	163.36	104.43	41.533	3.2601e-06	81.876	6.4252e-05	5.8301e-05	1.5468e-05	718.52	5.5047e-07	6.3074e-07	764.97	258.38	5.6052e-07	6.3752e-07	357.07	156.76	99.635	39.907	6.0307e-07	77.468	256.656	60.844	90.727	-26.542	47.850	82.866	-26.711	-20.022	212.597	143.150	-21.940	-16.578	-15.160	-10.821	91.470	-12.840	-8191	255	
18211.984	1	1	0	0	0.029226	0.08043	0.13127	0.16636	0.17149	0.13322	0.22574	0.16562	0.28163	0.18621	0.14145	0.3659	0.25623	0.21238	0.13261	0.16795	-2.0229	-2.9667	-2.55	-2.6958	-3.1521	-2.5542	-3.1208	-3.0938	-2.4354	-3.025	-2.7167	-2.75	-3.1646	-2.4458	-2.7646	-3.1646	167.114	93.634	118.139	181.386	110.551	308.728	177.576	280.458	115.593	63.516	271.533	299.908	-15.378	55.807	-25.238	232.576	0.00041696	0.00030895	9.0043e-05	735.62	4.4089e-06	6.0894e-06	787.38	266.74	5.6522e-06	3.046e-06	373.62	164.81	104.81	41.793	2.3313e-06	82.958	6.6949e-05	5.9432e-05	1.4864e-05	714	5.7017e-07	6.4159e-07	764.17	258.62	6.0671e-07	6.2561e-07	358.06	157.59	100.21	40.025	5.9713e-07	78.316	267.110	41.273	57.557	-26.428	72.664	106.196	-26.561	-20.309	200.897	113.330	-21.975	-16.891	-15.196	-10.586	111.343	-12.787	-8191	255	
18212.080	1	1	0	0	0.20763	0.12896	0.24109	0.27427	0.031473	0.2032	0.1646	0.35081	0.095986	0.21856	0.15723	0.034861	0.19063	0.12888	0.069559	0.13145	-2.0083	-3.0354	-2.7604	-2.8792	-3.2667	-2.6417	-2.9583	-2.9542	-2.45	-3.1146	-2.9437	-2.3958	-3.1833	-2.8229	-2.8792	-3.0458	254.507	5.125	245.049	268.491	63.514	144.314	148.355	288.292	72.442	138.131	236.529	-12.759	-31.829	260.777	160.493	153.155	0.00042087	0.0003849	0.00010321	735.48	3.5712e-06	3.1898e-06	795.48	269.4	4.4985e-06	5.412e-06	382.99	166.88	107.23	42.08	4.3244e-06	83.916	7.0806e-05	5.8617e-05	1.4657e-05	715.6	6.3332e-07	6.3917e-07	769.42	260.16	6.6027e-07	6.2446e-07	364.09	159.61	101.68	40.42	5.8308e-07	79.612	265.952	32.762	77.903	-26.433	50.155	58.773	-26.813	-20.591	191.543	119.983	-22.236	-16.819	-15.147	-10.807	135.232	-12.924	-8191	255	
18212.201	1	1	0	0	0.22798	0.17174	0.16366	0.18389	0.18831	0.04542	0.2698	0.2085	0.27956	0.050078	0.087451	0.068788	0.13486	0.13024	0.10425	0.18172	-2.1625	-2.9583	-2.8438	-2.6396	-3.1354	-2.6583	-2.7833	-3.1625	-2.325	-2.7896	-3.0458	-2.5438	-3.2667	-2.6792	-2.7333	-3.2729	83.279	216.718	145.761	252.340	302.705	285.293	282.254	-22.501	195.570	89.417	268.835	319.553	255.155	-20.291	138.099	181.608	0.00042218	0.00021237	0.00010387	746.11	3.2778e-06	4.1355e-06	805.17	270.82	3.4088e-06	3.5449e-06	379.14	167.29	106.13	41.987	4.966e-06	82.988	7.4091e-05	5.7268e-05	1.4505e-05	724.83	6.533e-07	6.0555e-07	780.13	262.14	6.7715e-07	6.0383e-07	362.73	159.77	101.25	40.337	5.7e-07	78.489	263.827	36.703	51.149	-26.490	34.150	117.082	-26.710	-20.238	169.714	109.012	-21.976	-17.067	-15.341	-10.721	102.570	-12.761	-8191	255	
18212.297	1	1	0	0	0.12433	0.15885	0.17843	0.33097	0.064741	0.1167	0.10912	0.040141	0.14563	0.061306	0.094336	0.14169	0.17573	0.053558	0.16015	0.17957	-2.0979	-2.6833	-2.9417	-2.4125	-3.2708	-2.75	-2.7604	-3.2083	-2.6354	-3.0438	-3.1375	-2.4354	-3.1646	-2.8042	-2.5375	-3.2375	131.844	220.020	294.413	317.696	288.079	259.866	87.829	255.328	216.252	255.640	-14.501	188.404	-17.765	191.945	36.105	294.431	0.00051815	0.00031217	0.00013516	729.69	2.5043e-06	2.7398e-06	784.24	266.2	2.0329e-06	4.4604e-06	376.1	164.44	105.58	41.705	3.7634e-06	82.775	7.2054e-05	5.3524e-05	1.3477e-05	710.78	6.4902e-07	5.696e-07	760.74	258.37	6.5379e-07	5.7425e-07	358.5	157.88	100.66	40.047	5.5805e-07	78.287	267.748	22.965	59.412	-26.609	67.826	89.395	-26.742	-20.348	197.810	57.214	-22.047	-16.591	-15.371	-11.004	108.730	-12.817	-8191	255	
18212.367	1	1	0	0	0.14521	0.17998	0.42943	0.18987	0.039798	0.1081	0.072636	0.15259	0.15015	0.17298	0.29972	0.25372	0.15176	0.12187	0.35419	0.22453	-2.1917	-2.7771	-3.0687	-2.5646	-3.1625	-2.8417	-2.6708	-3.3021	-2.6688	-2.725	-3.0563	-2.5792	-2.9042	-3.0479	-2.6292	-3.4292	-32.164	94.652	-25.810	-11.598	114.323	187.161	-11.629	278.222	98.627	141.780	-30.998	245.177	146.429	130.562	202.524	305.505	0.00037633	0.0004104	6.6323e-05	729.42	4.2212e-06	3.5791e-06	790.25	268.36	3.7247e-06	3.6363e-06	383.28	167.68	106.72	42.064	4.9203e-06	83.681	7.1377e-05	5.1736e-05	1.325e-05	710.95	6.3645e-07	5.42e-07	766.66	260.19	6.1793e-07	5.6708e-07	363.93	160.39	101.8	40.371	5.564e-07	79.338	261.651	37.294	71.761	-26.066	70.138	156.133	-26.724	-20.543	193.484	92.261	-22.125	-16.894	-15.310	-10.774	118.451	-13.172	-8191	255	
18212.465	1	1	0	0	0.2547	0.057516	0.061673	0.32148	0.066929	0.19688	0.17275	0.11279	0.12378	0.35298	0.069044	0.24319	0.13661	0.27815	0.065729	0.38978	-2.3729	-2.6854	-3.0542	-2.6042	-2.9917	-2.9896	-2.4979	-3.3396	-2.9458	-2.8375	-3.2208	-2.6688	-3.0833	-2.8187	-2.4437	-3.1437	122.030	72.364	277.981	300.967	159.352	115.622	295.291	137.784	128.446	246.015	302.537	280.482	-34.590	-11.840	321.058	-31.033	0.00040372	0.00047399	5.8497e-05	735.08	2.6086e-06	2.8e-06	796.96	272.27	4.4802e-06	3.817e-06	383.77	169.62	107.91	42.277	5.63e-06	84.55	7.0075e-05	5.2484e-05	1.3906e-05	715.66	6.125e-07	5.2756e-07	776.75	263	5.9753e-07	5.4857e-07	368.5	162.39	102.62	40.713	6.1551e-07	80.297	263.060	45.660	95.791	-26.444	78.677	103.756	-26.624	-19.774	211.339	111.167	-21.768	-16.751	-15.091	-10.529	105.699	-12.635	-8191	255	
18212.586	1	1	0	0	0.29637	0.15159	0.1715	0.1665	0.22933	0.24689	0.2117	0.050482	0.11215	0.51823	0.1711	0.19833	0.17262	0.22244	0.14223	0.13578	-2.2083	-2.4771	-3.0229	-2.4729	-2.9646	-3.0229	-2.6229	-3.0604	-2.6854	-2.5354	-3.1396	-2.5958	-2.6917	-3.1917	-2.4333	-3.1854	213.958	208.574	143.168	200.602	-22.753	238.170	288.926	155.100	254.028	226.313	278.016	295.964	304.022	4.644	184.052	158.947	0.00049729	0.00047725	9.7042e-05	738.17	4.9703e-06	1.8174e-06	788.1	266.79	2.943e-06	4.1807e-06	375.31	164.24	104.74	41.56	3.8882e-06	81.875	6.7584e-05	5.101e-05	1.5014e-05	716.8	5.9844e-07	5.2844e-07	767.54	259.78	5.7652e-07	5.3787e-07	360.44	158.2	100.33	39.872	6.52e-07	77.773	260.405	48.381	56.824	-25.964	23.572	93.358	-26.686	-20.504	194.050	101.173	-21.684	-16.425	-14.944	-10.585	131.115	-13.117	-8191	255	
18212.682	1	1	0	0	0.27065	0.103	0.021886	0.17464	0.35179	0.083097	0.15429	0.11928	0.22629	0.081418	0.18386	0.23626	0.25783	0.27423	0.094278	0.1852	-2.5729	-2.5771	-3.0958	-2.6396	-2.9	-3.1521	-2.4292	-2.9688	-2.9	-2.6604	-3.2938	-2.6396	-2.7229	-3.1292	-2.6729	-3.0583	81.542	60.946	70.707	-4.228	289.664	121.672	81.833	-31.000	-6.671	172.865	242.605	292.594	318.671	286.784	-1.397	230.765	0.0005333	0.00020967	9.5442e-05	727.64	3.8103e-06	4.6646e-06	775.8	265.21	3.7175e-06	2.9534e-06	372.93	163.62	105.1	41.33	4.6485e-06	82.195	6.4307e-05	5.0759e-05	1.6075e-05	707.34	5.5631e-07	5.2532e-07	757.97	257.15	5.538e-07	5.4686e-07	357.48	157.52	99.913	39.786	6.4033e-07	77.978	261.650	50.691	89.293	-26.090	48.516	87.806	-26.538	-20.271	195.291	62.902	-22.222	-16.568	-15.569	-10.636	109.945	-12.861	-8191	255	
18212.775	1	1	0	0	0.23197	0.32547	0.027178	0.1419	0.11318	0.13641	0.07006	0.047689	0.17843	0.15482	0.29942	0.18532	0.026804	0.21344	0.21928	0.19336	-2.5667	-2.4625	-2.9875	-2.7021	-2.6437	-3.1042	-2.5625	-2.8979	-2.9958	-2.3646	-3	-2.7521	-2.5958	-3.15	-2.5521	-3.0792	250.806	118.732	120.198	304.426	209.167	120.052	36.533	184.916	95.212	33.950	271.709	288.895	272.069	156.252	218.801	118.421	0.0004476	0.00045524	6.6589e-05	729.05	2.9275e-06	1.8908e-06	784.98	267.25	2.8593e-06	3.5707e-06	377.41	165.23	105.19	41.428	4.4811e-06	82.557	6.4241e-05	5.202e-05	1.6348e-05	710.99	5.4542e-07	5.5137e-07	767.09	258.91	5.4415e-07	5.7794e-07	360.39	158.42	100.35	39.919	6.4044e-07	78.493	263.740	42.462	80.030	-25.888	62.028	120.171	-26.499	-20.281	214.873	115.204	-21.994	-17.054	-15.018	-10.311	102.818	-12.946	-8191	255	
18212.873	1	1	0	0	0.12447	0.50498	0.089411	0.29384	0.010054	0.022158	0.11325	0.21259	0.052919	0.19043	0.32118	0.020941	0.19461	0.094081	0.44719	0.16345	-2.6479	-2.2229	-3.1396	-2.8667	-2.6417	-3.1792	-2.5917	-2.75	-3.1979	-2.6083	-3.1646	-2.8771	-2.5312	-3.2833	-2.5	-2.8146	319.050	246.564	17.751	-30.373	9.565	198.718	220.540	321.038	10.835	9.020	295.811	-2.615	193.144	178.949	26.534	218.668	0.00043686	0.00024669	9.4041e-05	738.07	4.469e-06	2.4533e-06	797.06	270.14	2.8534e-06	2.1327e-06	383.52	165.75	105.73	41.305	2.5626e-06	82.314	6.0817e-05	5.4884e-05	1.5937e-05	717.78	5.476e-07	6.0153e-07	775.94	261.25	5.1957e-07	6.0602e-07	365.13	159.08	100.07	39.726	6.1051e-07	77.972	256.526	54.909	74.796	-25.772	79.150	83.501	-26.642	-20.322	142.752	105.650	-22.200	-16.832	-15.266	-10.728	104.109	-13.264	-8191	255	
18212.969	1	1	0	0	0.25158	0.16176	0.17319	0.044114	0.28462	0.051098	0.26655	0.28464	0.28894	0.075684	0.10422	0.15511	0.34571	0.12548	0.1079	0.26334	-2.6458	-2.2583	-2.9688	-2.9958	-2.4813	-3.3625	-2.7479	-2.8292	-3.0604	-2.475	-3.1042	-2.9583	-2.4521	-3.0792	-2.6292	-2.7396	101.032	129.988	262.005	9.835	178.219	304.507	58.504	-34.272	247.746	178.938	257.931	305.439	237.782	261.935	-6.295	209.425	0.0004283	0.000404	2.116e-05	724.4	2.9451e-06	3.074e-06	772.34	262.57	2.9607e-06	3.7187e-06	366.83	160.3	101.42	40.085	2.9385e-06	80.075	6.1688e-05	5.7295e-05	1.4656e-05	707.73	5.6366e-07	6.0675e-07	753.53	254.19	5.5049e-07	6.1103e-07	350.82	153.8	96.823	38.711	5.6238e-07	75.721	261.491	59.838	43.292	-26.180	64.599	109.842	-26.762	-20.437	231.666	142.084	-22.113	-16.635	-15.630	-11.057	116.750	-12.642	-8191	255	
18213.064	1	1	0	0	0.065363	0.30199	0.17994	0.20834	0.12476	0.17511	0.11266	0.38133	0.31129	0.27549	0.23307	0.041339	0.060069	0.26133	0.19806	0.05889	-2.5708	-2.4917	-2.8396	-3.0625	-2.3937	-3.1396	-2.7812	-2.7062	-3.1417	-2.5729	-2.8708	-3.1792	-2.5062	-3.1125	-2.7042	-2.5604	131.824	-31.047	167.351	306.179	58.655	313.799	134.521	257.653	129.636	70.471	252.286	47.442	220.858	316.204	14.625	-10.896	0.00045711	0.00031801	0.00014007	718.69	1.8174e-06	2.2031e-06	771.87	261.8	1.9279e-06	4.0895e-06	370.13	159.77	101.56	39.817	2.523e-06	80.326	6.2435e-05	5.6977e-05	1.407e-05	702.22	5.6989e-07	5.8919e-07	750.67	252.9	5.7137e-07	6.0217e-07	351.56	153.08	96.39	38.419	5.2236e-07	75.946	268.793	37.626	74.058	-26.464	79.019	119.951	-26.717	-20.770	258.297	79.010	-21.907	-16.827	-15.428	-10.877	127.129	-12.898	-8191	255	
18213.186	1	1	0	0	0.21716	0.3199	0.15738	0.12918	0.2366	0.19457	0.23768	0.26993	0.13228	0.25759	0.28891	0.24891	0.44112	0.14747	0.02633	0.12927	-2.6937	-2.5125	-2.7667	-3.1437	-2.6063	-3.1208	-2.8979	-2.4875	-3.0062	-2.6771	-2.7687	-2.9958	-2.6271	-3.1229	-2.875	-2.4667	267.145	87.386	113.639	282.869	30.976	270.792	312.773	274.996	190.382	126.265	-9.497	228.450	45.079	-25.039	212.381	295.635	0.00047949	0.00035512	7.2938e-05	722.46	3.0511e-06	1.9928e-06	780.3	260.07	3.5254e-06	1.5219e-06	368.22	160.15	100.6	39.633	3.1214e-06	81.162	6.3712e-05	5.333e-05	1.3729e-05	704.73	5.8984e-07	5.6473e-07	756.33	252.21	5.8261e-07	5.6269e-07	352.23	153.85	96.072	38.372	5.0967e-07	76.841	266.598	49.473	25.378	-26.373	36.844	112.577	-26.535	-20.281	178.619	107.930	-22.535	-16.924	-15.433	-10.730	103.245	-13.129	-8191	255	
18213.281	1	1	0	0	0.1497	0.29338	0.22339	0.045146	0.15198	0.27477	0.30418	0.040047	0.098624	0.16784	0.17564	0.098232	0.12121	0.09626	0.14931	0.19536	-2.9708	-2.7021	-2.6667	-3.2521	-2.6833	-3.0271	-2.9229	-2.55	-3.2687	-2.6979	-2.7271	-3.175	-2.5792	-3.0229	-3.1083	-2.6146	52.767	210.763	199.797	274.313	189.379	239.364	-16.541	-2.898	38.187	183.798	227.399	57.292	-9.383	28.795	50.266	304.296	0.00044593	0.0003218	0.00010052	735.41	2.9239e-06	3.2439e-06	787.69	261.65	2.7414e-06	2.7435e-06	368.06	158.48	99.258	39.29	3.6131e-06	79.092	6.5938e-05	4.9196e-05	1.308e-05	714.56	5.7957e-07	5.2165e-07	764.98	252.49	5.7404e-07	5.1006e-07	350.94	152.26	94.932	37.813	4.6995e-07	75.076	255.074	33.060	71.507	-26.400	64.725	85.642	-26.645	-20.359	211.719	96.330	-22.556	-16.920	-15.225	-11.058	102.526	-13.130	-8191	255	
18213.377	1	1	0	0	0.16402	0.34156	0.18508	0.012362	0.072123	0.011842	0.1602	0.1656	0.036712	0.075566	0.13246	0.17391	0.12673	0.14308	0.13957	0.27372	-2.6771	-2.8125	-2.5896	-3.2812	-2.5146	-2.9708	-3.0604	-2.475	-2.9521	-2.8583	-2.8708	-3.275	-2.475	-2.9896	-3.15	-2.55	118.947	72.320	73.093	273.014	-1.212	231.708	284.293	-21.663	248.641	202.473	-30.807	-27.444	14.536	278.384	2.890	-10.249	0.00043544	0.00036725	4.9155e-05	719.96	3.0864e-06	3.2501e-06	766.81	254.64	1.9802e-06	4.7111e-06	362.74	157.01	98.4	39.19	2.8613e-06	78.349	6.4727e-05	4.7119e-05	1.2342e-05	700.66	5.681e-07	5.0453e-07	746.37	247.2	5.6208e-07	4.7414e-07	344.54	149.85	93.38	37.499	4.744e-07	74.469	265.651	58.675	120.945	-26.399	22.143	129.663	-26.496	-20.900	245.277	86.847	-22.374	-16.576	-15.220	-11.070	97.662	-13.069	-8191	255	
18213.473	1	1	0	0	0.13361	0.13753	0.17186	0.026461	0.054722	0.19619	0.20534	0.13357	0.1571	0.15344	0.19695	0.22101	0.1884	0.19785	0.23942	0.10892	-2.4542	-2.7292	-2.6	-3.1125	-2.6604	-2.8563	-3.0062	-2.4125	-3.2042	-2.7104	-2.3979	-3.1833	-2.7583	-2.8312	-3.0542	-2.6104	-37.626	279.139	64.596	261.594	92.400	308.713	158.799	12.119	46.593	305.975	212.459	305.302	306.222	246.975	122.415	301.445	0.00046362	0.00014254	0.00012103	721.09	3.4979e-06	2.7156e-06	775.67	256.27	3.8849e-06	3.116e-06	361.33	157	98.528	39.043	1.6979e-06	78.993	6.3593e-05	4.5086e-05	1.249e-05	703.44	5.538e-07	4.9436e-07	751.37	248.1	5.5245e-07	4.9407e-07	345.33	150.34	93.706	37.573	5.2503e-07	74.933	262.545	26.899	57.820	-26.605	64.762	111.150	-26.821	-20.641	201.998	85.402	-22.421	-16.949	-15.189	-11.279	117.224	-12.910	-8191	255	
18213.594	1	1	0	0	0.19385	0.22178	0.20301	0.1642	0.098134	0.27941	0.11272	0.11665	0.2339	0.027148	0.064589	0.039146	0.068549	0.30261	0.13171	0.1523	-2.5438	-2.8833	-2.3833	-3.2708	-2.6104	-2.6667	-3.1208	-2.4917	-2.9896	-2.9521	-2.4813	-3.3521	-2.7625	-2.6792	-3.2146	-2.7687	305.581	57.608	26.546	-17.835	-20.797	290.066	242.727	187.204	2.511	242.486	302.768	132.072	94.336	316.435	310.022	223.463	0.00038984	0.00020588	3.1484e-05	731.02	4.1057e-06	3.5894e-06	773.13	256.86	4.667e-06	2.0286e-06	365.27	158.61	99.559	39.522	3.6235e-06	80.017	6.2242e-05	4.5153e-05	1.3258e-05	707.2	5.271e-07	4.8942e-07	755.14	249.55	5.6105e-07	4.872e-07	348.76	152.03	94.737	37.876	5.6662e-07	75.739	269.094	36.688	80.919	-26.289	47.182	91.813	-26.777	-20.393	171.843	104.201	-22.464	-16.792	-15.504	-11.074	129.889	-13.078	-8191	255	
18213.666	1	1	0	0	0.20816	0.13984	0.14674	0.16459	0.13347	0.015726	0.11759	0.159	0.38135	0.16753	0.097143	0.14694	0.16262	0.21383	0.12258	0.3742	-2.5146	-2.9688	-2.4021	-3.1604	-2.7792	-2.625	-3.2667	-2.5833	-2.7604	-2.975	-2.7313	-3	-2.7979	-2.6396	-3.1875	-2.8125	197.078	127.741	181.600	216.870	-11.243	67.363	208.542	308.099	123.407	-8.194	319.478	86.101	300.416	-10.834	273.214	256.763	0.00047704	0.0004823	7.3874e-05	729.19	4.6347e-06	1.8665e-06	768.9	255.89	3.7515e-06	4.549e-06	357.85	155.23	98.301	38.984	4.3581e-06	78.017	6.4305e-05	4.5242e-05	1.4359e-05	706.84	5.3558e-07	4.9288e-07	746.78	247.75	5.378e-07	4.8983e-07	341.5	148.97	93.474	37.357	5.9004e-07	74.001	260.796	50.033	68.295	-26.322	34.796	65.065	-26.733	-20.517	166.206	98.943	-22.255	-16.689	-15.321	-11.192	88.545	-13.004	-8191	255	
18213.762	1	1	0	0	0.31999	0.14692	0.32662	0.1136	0.067465	0.11812	0.3503	0.18542	0.26643	0.04621	0.065284	0.16825	0.16163	0.033291	0.22574	0.077688	-2.4229	-3.1	-2.3917	-3.2833	-3.0271	-2.5667	-3.3604	-2.8771	-2.7271	-3.0979	-2.5708	-3.1292	-3.1771	-2.575	-3.125	-2.7667	-27.153	-30.782	188.931	233.805	227.083	253.794	207.362	-21.081	309.866	36.106	28.837	281.167	190.656	118.985	-36.436	259.997	0.0003741	0.00029367	5.4108e-05	710.99	3.9473e-06	3.6457e-06	760.23	252.96	4.0083e-06	2.9621e-06	358.16	154.77	97.429	38.845	3.8098e-06	78.451	6.2015e-05	4.5893e-05	1.4931e-05	694.68	5.1228e-07	5.0146e-07	739.07	245.67	5.1764e-07	5.0404e-07	340.95	148.24	92.905	37.346	5.8677e-07	74.088	262.258	57.112	79.288	-26.721	43.005	104.709	-26.908	-20.834	199.867	84.326	-22.374	-16.855	-15.060	-11.277	101.001	-12.766	-8191	255	
18213.855	1	1	0	0	0.10615	0.16821	0.081216	0.037499	0.16843	0.080642	0.2596	0.15472	0.22627	0.21404	0.13788	0.38559	0.036127	0.034243	0.10468	0.11163	-2.2125	-3.0875	-2.6771	-2.8333	-2.9292	-2.4354	-3.1229	-2.8208	-2.5896	-3.2354	-2.7604	-2.9167	-3.25	-2.4896	-3.2458	-2.9833	127.917	262.299	-37.013	277.703	207.329	40.999	260.850	81.680	49.704	215.385	141.936	212.786	67.339	10.105	149.644	291.284	0.00042712	0.00029294	5.9076e-05	713.1	3.2546e-06	3.0518e-06	767.55	254.85	2.6518e-06	4.3867e-06	359.05	156.38	97.771	38.964	2.2135e-06	78.516	5.7693e-05	4.8701e-05	1.4536e-05	695.76	4.8925e-07	5.48e-07	743.49	245.92	5.1966e-07	5.4795e-07	342.67	149.41	93.172	37.474	5.8288e-07	74.594	266.516	65.824	91.734	-26.707	51.106	90.621	-27.189	-20.628	197.899	98.752	-22.345	-16.979	-15.161	-11.001	101.796	-12.956	-8191	255	
18213.977	1	1	0	0	0.082405	0.045997	0.1952	0.12837	0.12845	0.05387	0.12262	0.14166	0.20494	0.13413	0.1627	0.25148	0.071942	0.29741	0.10535	0.19351	-2.2667	-3.1417	-2.55	-2.8271	-2.9104	-2.4062	-3.1083	-2.7146	-2.5729	-3.1792	-2.7042	-2.9313	-3.2313	-2.4958	-3.0604	-2.9417	290.775	9.988	46.339	245.957	287.582	194.056	120.259	50.325	316.707	174.916	216.040	-28.201	36.056	21.412	248.126	242.777	0.00044805	0.00027776	0.0001235	717.46	1.4343e-06	2.0011e-06	775.84	256.08	3.4513e-06	4.3648e-06	364.02	157.66	98.08	39.114	4.1124e-06	78.573	5.8799e-05	5.1639e-05	1.4834e-05	699.39	5.1653e-07	5.7491e-07	752.01	248.92	5.2005e-07	5.7531e-07	345.98	150.78	93.663	37.539	5.709e-07	74.396	268.577	68.091	60.363	-26.586	48.269	101.688	-26.722	-20.436	174.757	77.658	-22.174	-17.085	-14.886	-10.858	118.227	-12.994	-8191	255	
18214.072	1	1	0	0	0.14322	0.14017	0.29866	0.12228	0.024712	0.29722	0.41945	0.27588	0.20752	0.10509	0.22996	0.056795	0.30434	0.23259	0.13427	0.13944	-2.1	-3.2271	-2.4875	-2.7687	-3.0042	-2.4333	-3.0646	-3.0812	-2.525	-3.2271	-2.7583	-2.95	-3.1542	-2.5542	-2.8792	-3.075	12.388	195.849	19.664	317.228	274.576	281.369	253.535	291.371	254.007	207.249	23.311	253.389	276.584	308.860	4.514	117.751	0.00045557	0.00038816	9.904e-05	712.53	4.0161e-06	3.157e-06	756.96	252.73	1.5843e-06	2.6376e-06	353.3	153.6	97.097	38.625	3.4021e-06	77.384	6.0998e-05	5.2767e-05	1.3668e-05	692.66	5.1097e-07	5.7864e-07	736.68	244.02	5.5367e-07	5.6855e-07	338.76	147.28	92.194	36.931	5.3443e-07	73.173	264.432	39.037	58.288	-26.334	63.410	107.060	-26.811	-20.398	207.524	82.223	-22.152	-16.855	-15.148	-10.946	118.071	-12.827	-8191	255	
18214.170	1	1	0	0	0.19097	0.11141	0.072903	0.048471	0.036431	0.026733	0.29072	0.074423	0.01455	0.079939	0.08435	0.29895	0.22384	0.18793	0.16338	0.066484	-2.0667	-3.1208	-2.6583	-2.7062	-2.975	-2.4437	-2.8937	-3.0917	-2.3937	-3.1375	-2.8542	-2.7083	-3.2625	-2.5854	-2.6333	-3.2271	34.456	313.872	24.692	221.386	170.368	-22.798	288.786	252.340	319.224	223.018	191.732	270.812	-17.614	-35.741	218.571	30.253	0.00044869	0.00031345	6.8418e-05	713.45	2.8854e-06	2.3613e-06	757.31	250.58	3.2763e-06	2.9245e-06	355.73	154.15	96.914	38.655	3.8445e-06	78.221	6.404e-05	5.3012e-05	1.3638e-05	691.17	5.4801e-07	5.6681e-07	735.54	243.59	5.9047e-07	5.5595e-07	338.46	147.51	92.63	37.211	5.2858e-07	73.893	260.703	56.670	44.696	-26.402	45.689	90.499	-26.910	-20.310	203.087	101.653	-22.119	-16.807	-15.092	-10.394	103.995	-13.071	-8191	255	
18214.266	1	1	0	0	0.14887	0.044656	0.14712	0.35494	0.26272	0.16249	0.17516	0.12859	0.30856	0.19133	0.096633	0.08238	0.15206	0.10583	0.061219	0.10409	-2.0396	-3.1021	-2.9167	-2.6625	-3.2875	-2.5542	-2.7792	-3.0542	-2.4667	-3.0083	-2.9688	-2.6667	-3.1708	-2.7313	-2.5479	-3.3167	169.892	304.328	184.531	36.299	290.055	302.878	308.656	320.045	-18.681	58.465	194.157	313.148	312.486	192.784	234.006	204.190	0.00044763	0.00037184	9.5589e-05	713.25	1.9154e-06	2.4602e-06	763.21	253.59	3.9155e-06	2.4388e-06	359.1	155.58	97.921	38.897	4.1164e-06	78.842	6.5638e-05	5.271e-05	1.2672e-05	693.55	5.9269e-07	5.6106e-07	741.1	245.3	6.2328e-07	5.6092e-07	341.92	149.12	93.326	37.45	5.2582e-07	74.658	256.744	48.937	46.923	-26.539	21.518	105.795	-26.815	-20.478	176.219	88.072	-22.243	-16.587	-15.047	-10.842	140.742	-12.859	-8191	255	
18214.361	1	1	0	0	0.067202	0.26319	0.1495	0.25591	0.15103	0.043533	0.16114	0.074873	0.13303	0.19713	0.22491	0.25013	0.048407	0.13411	0.040095	0.11323	-2.0812	-2.8688	-2.675	-2.5375	-3.0312	-2.5479	-2.6646	-3.1521	-2.3854	-3.0854	-2.9958	-2.3833	-3.1667	-2.7479	-2.7	-3.0875	129.945	295.137	223.062	296.558	199.266	-35.474	304.325	136.320	89.176	29.377	245.327	-35.328	15.498	180.285	74.186	-32.988	0.00042137	0.00034392	7.7248e-05	718.22	1.9983e-06	3.0875e-06	768.45	252.96	3.7636e-06	3.6164e-06	355.86	154.53	97.546	38.511	1.8014e-06	77.688	6.9338e-05	5.0276e-05	1.3009e-05	697.01	6.1344e-07	5.4251e-07	743.34	245.51	6.2857e-07	5.3274e-07	338.75	147.73	92.7	36.937	5.1704e-07	73.573	262.794	67.154	84.043	-26.611	70.434	106.214	-26.800	-20.452	142.129	84.346	-22.574	-17.063	-15.289	-10.911	112.783	-13.186	-8191	255	
18214.457	1	1	0	0	0.17893	0.33696	0.075021	0.14381	0.28774	0.19376	0.18394	0.17031	0.21012	0.37807	0.17585	0.043263	0.18142	0.47735	0.16771	0.20416	-2.0646	-2.7083	-2.8896	-2.3396	-3.2188	-2.7417	-2.575	-3.3917	-2.4792	-2.8146	-3.0771	-2.5229	-3.0625	-2.8271	-2.4979	-3.2479	302.012	258.624	130.881	148.577	20.572	236.841	239.843	245.472	245.130	318.684	289.455	150.309	180.124	279.636	64.938	275.616	0.0004437	0.00030527	0.00011621	706.52	4.3141e-06	2.8289e-06	755.55	251.97	3.5768e-06	5.5312e-06	353.58	153.6	97.096	38.464	2.6529e-06	77.027	6.6521e-05	4.83e-05	1.2782e-05	686.36	6.0163e-07	5.1761e-07	730.33	243.02	5.9312e-07	5.2197e-07	336.22	146.85	92.084	36.862	5.2582e-07	73.16	265.951	60.355	55.596	-26.605	38.211	93.614	-26.818	-20.561	158.904	117.823	-22.367	-16.902	-15.237	-10.760	160.134	-12.943	-8191	255	
18214.555	1	1	0	0	0.22106	0.21334	0.019376	0.1327	0.20354	0.064295	0.27721	0.075927	0.067542	0.2827	0.071134	0.20231	0.052344	0.15604	0.14136	0.18682	-2.2188	-2.5854	-3.0833	-2.3458	-2.9021	-2.6708	-2.6375	-3.2604	-2.8438	-2.7104	-3.1375	-2.7146	-2.9104	-2.9396	-2.3354	-3.1979	11.137	71.455	189.612	317.168	297.756	72.567	314.675	216.430	7.685	160.789	320.390	208.652	175.284	-9.111	194.583	-33.921	0.00037379	0.00023573	0.00013645	709.12	2.5352e-06	2.7833e-06	754.34	250.65	3.5652e-06	2.9485e-06	355.08	153.43	97.079	38.575	2.5747e-06	77.966	6.5238e-05	4.8348e-05	1.2831e-05	687.35	5.8143e-07	5.0848e-07	731.81	243.38	5.6397e-07	5.1235e-07	337.98	147.28	92.523	36.921	5.5702e-07	73.67	259.344	70.096	75.798	-26.594	89.904	114.805	-27.212	-20.469	184.013	71.884	-22.295	-16.568	-14.888	-10.617	100.635	-13.285	-8191	255	
18214.674	1	1	0	0	0.089809	0.17134	0.19446	0.14976	0.15306	0.28944	0.2363	0.11942	0.09439	0.13942	0.12667	0.16842	0.15531	0.056515	0.15375	0.16333	-2.3187	-2.4375	-2.8042	-2.6042	-2.8417	-2.8708	-2.6375	-3.2792	-2.7562	-2.6063	-3.2667	-2.5417	-2.8042	-2.95	-2.525	-3.1125	258.556	18.621	68.625	250.818	-14.573	87.209	286.214	250.980	96.738	267.875	72.644	48.774	313.698	155.081	99.460	229.403	0.00046221	0.00035146	8.8142e-05	707.7	2.9013e-06	1.5958e-06	755.59	251.21	3.2335e-06	3.0446e-06	356.69	155.14	97.144	38.538	3.0519e-06	78.328	6.4003e-05	4.834e-05	1.4363e-05	688.74	5.6162e-07	4.9749e-07	736.4	244.28	5.7153e-07	5.2617e-07	340.95	148.76	92.847	37.23	6.106e-07	74.249	260.435	45.630	59.671	-26.453	68.230	52.892	-27.004	-20.472	193.253	148.263	-22.155	-16.895	-15.085	-10.888	68.960	-12.751	-8191	255	
18214.770	1	1	0	0	0.19039	0.16043	0.12765	0.072996	0.021351	0.082167	0.11145	0.067781	0.12086	0.17049	0.13173	0.055591	0.16001	0.2384	0.28811	0.12845	-2.4562	-2.475	-3.0271	-2.5708	-2.7708	-2.9854	-2.4021	-3.1854	-2.8146	-2.4125	-3.1854	-2.5583	-2.7875	-3.1021	-2.375	-3.1833	255.659	61.563	110.141	163.181	63.673	33.671	293.914	37.595	300.670	32.394	11.800	79.610	-34.074	-14.220	319.165	49.707	0.0005216	0.00029245	9.0698e-05	705.89	4.436e-06	2.2722e-06	747.11	249.67	2.4792e-06	3.9997e-06	350.17	151.72	95.821	38.03	4.3283e-06	76.413	6.419e-05	4.8386e-05	1.515e-05	687.46	5.6143e-07	5.1249e-07	729.22	241.82	5.373e-07	5.1269e-07	334.12	145.66	91.414	36.517	6.2502e-07	72.251	266.695	81.825	47.932	-26.395	59.265	88.880	-26.868	-20.582	195.794	104.724	-21.982	-16.794	-15.279	-10.881	104.276	-13.083	-8191	255	
18214.867	1	1	0	0	0.057753	0.20841	0.16515	0.34074	0.12165	0.25232	0.14337	0.092196	0.048274	0.26158	0.119	0.20274	0.27326	0.10233	0.16864	0.36977	-2.3896	-2.4104	-2.9792	-2.6833	-2.675	-3.1979	-2.4562	-3.0417	-2.9083	-2.5604	-3.2625	-2.7458	-2.6167	-3.0854	-2.6063	-3.0417	26.949	17.448	218.607	28.152	132.751	295.833	170.765	292.815	260.349	81.196	231.721	94.155	294.207	118.218	-25.724	301.676	0.00045699	0.00028817	5.1213e-05	700.85	1.8424e-06	3.3312e-06	738.13	246.95	2.9986e-06	1.7054e-06	348.29	151.71	95.345	38.178	1.9679e-06	76.467	6.1641e-05	5.136e-05	1.5896e-05	679.69	5.4413e-07	5.4161e-07	722.1	239.72	5.3463e-07	5.5201e-07	331.78	144.98	90.906	36.527	6.1601e-07	72.459	256.322	42.333	110.698	-26.453	83.601	86.568	-26.903	-20.463	280.201	73.917	-22.327	-16.659	-15.297	-10.632	93.159	-12.994	-8191	255	
18214.961	1	1	0	0	0.087362	0.12772	0.13646	0.11238	0.15589	0.17398	0.14374	0.056645	0.26466	0.092896	0.21907	0.16258	0.22088	0.16183	0.18625	0.17729	-2.8146	-2.4354	-3.0292	-2.7812	-2.5958	-3.25	-2.4813	-2.9562	-3.0563	-2.5667	-3.2833	-2.8479	-2.5208	-3.1937	-2.5125	-2.9	182.424	200.117	37.671	319.616	313.782	121.374	193.648	20.267	239.485	31.705	295.317	289.354	-16.752	311.203	271.632	151.160	0.00047515	0.00034983	0.00011198	699.6	2.9166e-06	3.0795e-06	746.04	248.96	2.729e-06	4.2084e-06	351.37	154.14	96.057	38.424	4.3453e-06	77.934	5.8426e-05	5.3334e-05	1.5619e-05	682.07	5.3698e-07	5.6891e-07	727.61	241.56	5.2787e-07	5.9472e-07	336.2	147.16	91.931	36.99	6.0616e-07	73.874	263.056	49.453	61.606	-26.459	66.253	51.296	-26.644	-20.658	209.808	86.883	-22.316	-16.951	-15.299	-11.140	101.078	-12.879	-8191	255	
18215.057	1	1	0	0	0.097306	0.10343	0.288	0.14616	0.023195	0.17452	0.052291	0.17823	0.055592	0.27766	0.33088	0.20026	0.13392	0.086667	0.11558	0.047278	-2.5312	-2.4979	-3.1229	-2.7062	-2.5729	-3.1292	-2.7875	-2.7792	-3.1312	-2.4292	-3.0146	-2.8875	-2.4771	-3.1896	-2.7458	-2.7979	200.198	-18.255	112.279	180.497	167.346	234.336	287.849	288.733	155.960	213.811	-22.920	-29.991	-5.104	197.305	176.856	126.516	0.0004481	0.00027435	6.1353e-05	708.38	5.5065e-06	3.511e-06	759.68	252.55	4.1468e-06	4.4303e-06	357.39	155.29	97.741	38.717	3.1989e-06	77.856	6.0117e-05	5.4524e-05	1.4636e-05	688.32	5.5158e-07	6.1173e-07	740.14	245.05	5.4072e-07	6.1592e-07	341.38	149.18	92.957	37.196	5.8292e-07	73.798	257.857	68.392	59.385	-26.308	44.432	99.307	-26.579	-20.402	192.019	93.086	-22.568	-16.603	-14.916	-10.841	103.072	-12.537	-8191	255	
18215.152	1	1	0	0	0.1367	0.065145	0.23227	0.16332	0.15086	0.3884	0.2347	0.30546	0.044029	0.15942	0.23484	0.12808	0.036512	0.086309	0.11259	0.13013	-2.6854	-2.4333	-2.8937	-2.75	-2.3438	-3.1125	-2.7604	-2.6646	-3.2958	-2.7313	-3.0438	-2.9813	-2.4958	-3.1333	-2.8229	-2.7396	223.167	127.545	-22.406	-19.925	87.246	316.099	272.877	259.778	46.605	312.355	288.992	-17.618	-11.154	271.489	160.687	272.357	0.00051444	0.00029718	8.4776e-05	699.98	4.488e-06	3.7376e-06	744.65	249.7	2.147e-06	3.0948e-06	350.84	152.6	95.864	38.08	2.6772e-06	76.654	6.3234e-05	5.6745e-05	1.457e-05	682.17	5.7088e-07	6.1965e-07	725.24	241.4	5.9305e-07	6.1903e-07	334.89	146.31	91.926	36.615	5.6941e-07	72.419	258.786	20.056	51.095	-26.162	79.204	92.434	-26.714	-20.437	192.796	88.675	-22.337	-16.686	-15.417	-10.902	119.376	-13.211	-8191	255	
18215.273	1	1	0	0	0.073538	0.14045	0.064963	0.16914	0.026813	0.14185	0.36456	0.29509	0.15756	0.23343	0.085119	0.35167	0.13505	0.051142	0.17832	0.18314	-2.7083	-2.625	-2.7979	-3.1333	-2.3292	-3.0792	-2.9146	-2.4729	-3.0146	-2.6417	-2.9	-3.0646	-2.5396	-3.0583	-2.8854	-2.6521	241.865	175.203	3.082	-18.344	160.894	313.112	220.107	76.233	67.830	116.857	92.427	288.979	253.134	236.150	270.995	261.858	0.0004474	0.00019503	9.8047e-05	696.12	4.6205e-06	3.1919e-06	745.06	249.53	1.9321e-06	3.3788e-06	349.8	153.98	97.083	38.385	1.9703e-06	77.106	6.6328e-05	5.6354e-05	1.4702e-05	678.44	6.2397e-07	6.2661e-07	724.11	241.71	6.1068e-07	6.1059e-07	335.43	147.19	92.257	36.95	5.5013e-07	73.157	266.365	55.826	40.481	-26.256	76.412	90.289	-26.714	-20.505	293.428	140.718	-22.309	-16.661	-15.232	-10.685	56.421	-13.049	-8191	255	
18215.369	1	1	0	0	0.26563	0.31949	0.20974	0.23655	0.14977	0.13869	0.01655	0.1002	0.14379	0.20534	0.12373	0.19494	0.14011	0.27375	0.11277	0.21382	-2.7771	-2.7	-2.65	-3.1688	-2.5729	-2.9271	-2.9875	-2.5979	-3.225	-2.5917	-2.7562	-3.1604	-2.8271	-2.9792	-2.9854	-2.675	14.268	265.503	268.364	215.809	230.835	190.459	67.265	238.460	297.384	284.162	15.987	302.774	299.432	287.781	-18.790	270.085	0.00051101	0.00023373	0.00010349	697.24	3.5664e-06	1.7727e-06	750.69	251.11	3.3277e-06	2.1262e-06	356.57	155.81	97.889	38.969	3.8883e-06	78.969	7.1389e-05	5.41e-05	1.4151e-05	679.28	6.6697e-07	6.0063e-07	730.63	243.56	6.6494e-07	6.0395e-07	341.82	149.64	93.715	37.507	5.7756e-07	74.69	265.111	0.433	84.640	-26.407	83.182	89.919	-26.659	-20.616	211.478	92.798	-22.234	-16.602	-15.039	-10.685	103.476	-12.946	-8191	255	
18215.467	1	1	0	0	0.15278	0.30178	0.057785	0.13128	0.14069	0.34768	0.17025	0.33036	0.09271	0.11627	0.087309	0.15876	0.24378	0.24717	0.20955	0.15233	-2.6208	-2.6625	-2.7229	-3.1792	-2.4583	-2.8771	-3.0687	-2.4062	-3.0812	-2.975	-2.7833	-3.2604	-2.5604	-2.7062	-3.0708	-2.5042	-16.055	282.479	-14.069	49.330	100.336	-16.478	224.424	260.778	40.349	48.466	245.602	198.649	311.493	-33.494	114.815	288.311	0.00036938	0.00044016	9.432e-05	697.4	3.1115e-06	3.6954e-06	752.67	253.86	4.9834e-06	2.9491e-06	355.8	156.69	98.148	39.114	2.5039e-06	77.58	7.5357e-05	5.5534e-05	1.4505e-05	684.26	7.0301e-07	6.0947e-07	734.43	245.82	6.6221e-07	6.0978e-07	340.52	149.77	94.105	37.586	5.6694e-07	73.671	267.744	34.856	73.758	-26.215	99.556	74.456	-26.869	-20.434	165.428	63.084	-22.424	-16.911	-15.106	-10.770	66.628	-13.363	-8191	255	
18215.537	1	1	0	0	0.13141	0.24407	0.1219	0.16346	0.21639	0.21007	0.35872	0.25619	0.35086	0.21836	0.14586	0.29117	0.16295	0.055921	0.1571	0.23689	-2.4875	-2.7687	-2.4146	-3.3458	-2.4375	-2.6854	-2.9271	-2.6271	-3.0563	-2.9229	-2.6625	-3.1646	-2.6792	-2.8542	-3.1146	-2.4938	-25.606	268.189	100.206	-0.114	250.083	137.485	-26.015	314.971	-12.835	120.394	-14.001	-32.806	-2.252	286.896	73.914	285.563	0.000449	0.000321	6.8577e-05	697.64	2.3255e-06	3.935e-06	745.25	251.86	5.0853e-06	1.5867e-06	356.61	156.29	98.824	38.719	3.5016e-06	77.667	7.1577e-05	5.3195e-05	1.4451e-05	678.11	6.4675e-07	5.8563e-07	723.24	244.19	6.6703e-07	5.6749e-07	340.68	149.48	94.516	37.35	5.9301e-07	73.799	259.965	64.976	61.815	-26.581	66.270	117.546	-26.859	-20.221	187.048	128.496	-22.159	-16.978	-15.289	-10.648	124.935	-12.906	-8191	255	
18215.658	1	1	0	0	0.11924	0.28744	0.28892	0.26664	0.10548	0.16355	0.21064	0.22926	0.17867	0.092452	0.098303	0.35812	0.04319	0.13288	0.17663	0.12721	-2.4646	-2.8792	-2.5312	-3.2042	-2.6729	-2.6875	-2.9917	-2.6354	-2.8563	-2.9458	-2.5146	-3.2708	-2.6604	-2.6854	-3.1021	-2.8104	301.860	-20.164	239.102	196.408	241.493	316.137	206.097	-1.459	215.635	254.728	294.444	302.674	14.538	276.943	274.813	28.266	0.00042572	0.00025729	0.00011733	698.22	5.1954e-06	4.9188e-06	749.87	254.6	5.0859e-06	2.0516e-06	356.27	157.51	99.144	39.292	5.4959e-06	78.35	6.9907e-05	5.4279e-05	1.5393e-05	680.92	6.3399e-07	5.8065e-07	731.46	246.51	6.3784e-07	5.7951e-07	342.85	150.81	95.194	37.872	6.5875e-07	74.558	268.796	62.356	65.056	-26.272	29.553	90.026	-26.862	-20.408	207.618	120.056	-22.234	-16.571	-14.855	-10.518	115.264	-12.690	-8191	255	
18215.754	1	1	0	0	0.27132	0.15329	0.076395	0.33695	0.36005	0.06438	0.079045	0.20855	0.13137	0.056816	0.21354	0.32502	0.18984	0.12587	0.13928	0.25098	-2.375	-2.8375	-2.4646	-3.1979	-2.7625	-2.5146	-3.1208	-2.5542	-2.7417	-3.0979	-2.5208	-3.1521	-2.9625	-2.5333	-3.2583	-2.6146	270.619	21.262	320.228	47.406	80.839	235.682	189.989	266.246	241.851	-16.709	205.769	214.356	307.197	179.951	205.732	266.411	0.00044846	0.0002468	4.7523e-05	697.21	4.4065e-06	2.4879e-06	753.41	254.92	2.7197e-06	5.3456e-06	359.44	159.1	101.09	39.785	1.781e-06	79.106	7.2577e-05	5.3222e-05	1.7386e-05	682.7	6.6651e-07	6.0326e-07	735.85	247.64	6.5706e-07	5.9114e-07	345.34	152.45	96.195	38.169	7.1765e-07	75.124	268.623	17.879	38.898	-25.945	60.083	83.936	-26.591	-20.129	176.722	88.760	-22.096	-16.650	-14.979	-10.717	127.538	-13.015	-8191	255	
18215.850	1	1	0	0	0.36385	0.20191	0.37548	0.19051	0.19429	0.043785	0.25156	0.30801	0.14529	0.13644	0.12855	0.13901	0.092529	0.15581	0.12219	0.18162	-2.2917	-2.9437	-2.2604	-3.1146	-2.9188	-2.5708	-3.2104	-2.6958	-2.5792	-3.1271	-2.5271	-3.0021	-3.0667	-2.6083	-3.1437	-2.7812	235.691	69.242	132.120	313.683	186.209	100.595	-33.475	274.541	61.569	30.335	285.735	241.844	241.063	178.684	282.663	235.984	0.00052795	0.00032108	9.9526e-05	695.74	4.3653e-06	3.1975e-06	746.82	252.14	4.4271e-06	2.4188e-06	357.75	156.46	99.123	39.084	4.7982e-06	77.237	7.1694e-05	5.6049e-05	1.855e-05	680.7	6.4291e-07	6.2823e-07	729.26	245.97	6.5637e-07	6.0415e-07	342.05	149.76	95.003	37.589	7.4676e-07	73.374	260.557	80.589	67.007	-26.244	56.150	141.296	-26.590	-20.315	204.829	98.868	-21.993	-16.715	-15.175	-11.048	113.574	-12.903	-8191	255	
18215.947	1	1	0	0	0.10169	0.20436	0.17713	0.19678	0.13609	0.12527	0.26606	0.3644	0.17141	0.33179	0.30436	0.44105	0.04588	0.17665	0.038677	0.21943	-2.4104	-3.0958	-2.45	-3.1063	-2.9958	-2.6292	-3.2417	-2.875	-2.6479	-3.175	-2.6521	-2.9208	-2.9896	-2.5042	-3.3146	-2.7812	57.835	259.316	60.942	283.359	-32.590	80.768	277.792	-27.981	40.419	129.835	317.143	245.056	36.648	71.220	111.025	312.519	0.00036111	0.00048791	6.4974e-05	692.16	3.224e-06	3.1821e-06	746.27	253.13	3.4536e-06	3.357e-06	360.26	157.57	99.713	39.242	3.1663e-06	78.075	6.828e-05	5.6401e-05	1.8186e-05	675.79	5.8812e-07	6.2779e-07	725.53	246.33	6.2213e-07	6.4351e-07	343.74	150.72	95.529	37.832	7.0292e-07	74.167	271.737	46.510	64.521	-26.252	33.230	108.052	-26.418	-20.190	214.051	95.974	-22.238	-16.619	-14.792	-10.696	107.785	-12.728	-8191	255	
18216.066	1	1	0	0	0.15948	0.12984	0.27691	0.016444	0.20414	0.11849	0.095413	0.24146	0.036568	0.025068	0.2389	0.12294	0.088691	0.095697	0.12263	0.074571	-2.1875	-3.0604	-2.4	-2.9188	-3.1333	-2.5729	-3.0583	-2.8	-2.6104	-3.0646	-2.6312	-2.7438	-3.0271	-2.5583	-2.975	-2.9688	30.957	136.431	53.350	156.232	138.784	-15.365	194.832	132.629	99.712	20.854	35.129	44.208	294.979	156.305	238.920	70.756	0.00045966	0.00015677	8.2383e-05	695.62	1.5738e-06	3.7666e-06	754.21	254.08	3.2048e-06	1.8814e-06	359.89	157.9	100.85	39.513	2.3628e-06	79.482	6.6972e-05	5.9683e-05	1.7464e-05	680.58	5.997e-07	6.92e-07	734.29	247.1	5.9321e-07	6.7965e-07	345.03	151.83	96.087	38.221	6.7001e-07	75.37	256.547	46.477	27.477	-26.396	58.357	99.421	-26.852	-20.142	196.275	111.130	-22.015	-16.882	-15.051	-10.825	132.794	-12.725	-8191	255	
18216.137	1	1	0	0	0.093048	0.096779	0.080771	0.11785	0.22567	0.32953	0.10869	0.26597	0.13315	0.20981	0.06408	0.089753	0.20775	0.17859	0.216	0.07858	-2.1729	-3.175	-2.7125	-2.6792	-3.0417	-2.4771	-3.0333	-3.0792	-2.425	-3.1167	-2.6646	-2.7646	-3.0604	-2.5812	-2.9708	-2.9833	313.777	222.216	278.442	205.083	298.460	-21.012	111.348	271.698	0.947	58.267	-13.011	291.711	57.162	317.774	216.071	264.961	0.00040521	0.00034864	0.00013118	703.86	2.3492e-06	1.6685e-06	768.19	258.25	1.6837e-06	2.8896e-06	366.55	159.47	101.59	39.802	4.7234e-06	79.405	6.856e-05	6.4531e-05	1.6849e-05	688.35	6.2482e-07	7.0772e-07	746.09	250.12	6.3193e-07	7.1107e-07	349.09	152.89	96.68	38.4	6.7287e-07	75.141	272.216	43.091	53.932	-26.589	96.876	104.742	-26.649	-20.369	195.009	149.582	-22.086	-16.422	-15.059	-11.183	115.428	-12.581	-8191	255	
18216.234	1	1	0	0	0.1374	0.1181	0.10916	0.14082	0.23606	0.15746	0.16928	0.090006	0.24619	0.11254	0.12844	0.23928	0.23141	0.010634	0.19743	0.26021	-1.9646	-3.0146	-2.9229	-2.9313	-3.0646	-2.6021	-2.9979	-3.1021	-2.5708	-2.9938	-2.8229	-2.6646	-3.2167	-2.7333	-2.8375	-3.0625	58.546	190.100	196.910	279.550	44.634	269.509	254.624	290.019	180.465	34.803	218.841	266.989	273.525	297.968	282.896	-27.523	0.00049624	0.00026618	8.359e-05	701.58	3.6463e-06	2.8236e-06	749.62	253.7	1.7393e-06	6.0666e-06	356.61	155.97	99.848	39.185	3.995e-06	77.926	7.1167e-05	6.481e-05	1.627e-05	681.71	6.4491e-07	6.9189e-07	728.86	246.27	6.7768e-07	6.9259e-07	340.63	149.69	95.33	37.77	6.3236e-07	73.809	257.710	67.861	58.754	-26.653	64.872	67.151	-26.637	-20.232	202.228	91.288	-22.044	-16.795	-15.170	-10.844	108.489	-12.967	-8191	255	
18216.354	1	1	0	0	0.15321	0.042254	0.1658	0.27489	0.26771	0.20237	0.12491	0.19878	0.064417	0.15021	0.13431	0.2283	0.087062	0.19119	0.16706	0.038102	-2.0542	-3.0625	-2.6604	-2.6875	-3.1708	-2.6375	-2.8458	-3.125	-2.4375	-3.05	-2.85	-2.6312	-3.1792	-2.675	-2.7354	-3.2917	225.481	100.763	148.276	227.940	67.320	19.728	242.764	282.968	241.164	251.663	120.929	275.116	19.720	8.468	210.196	240.447	0.00048183	0.00039603	0.00011193	700.54	2.901e-06	3.6122e-06	745.59	253.95	4.7763e-06	3.1768e-06	357.9	157.91	100.79	39.573	1.6314e-06	78.754	7.4736e-05	6.183e-05	1.5529e-05	681.77	6.8676e-07	6.5439e-07	729.21	247.05	6.8975e-07	6.5381e-07	344.12	151.16	96.065	38.137	6.115e-07	74.729	270.452	43.216	67.826	-26.346	69.844	102.129	-26.802	-20.130	200.808	113.248	-22.276	-16.704	-15.151	-11.025	118.000	-12.856	-8191	255	
18216.449	1	1	0	0	0.19434	0.097887	0.055554	0.24243	0.15138	0.071749	0.031964	0.1449	0.17687	0.042836	0.092703	0.16136	0.26373	0.1425	0.18545	0.36297	-2.0333	-2.9292	-2.7896	-2.5812	-3.2104	-2.6708	-2.7458	-3.1625	-2.4271	-3.0438	-3.1854	-2.575	-3.0167	-2.7667	-2.6813	-3.2958	-2.044	309.279	27.191	246.173	153.244	117.538	318.997	120.962	306.526	289.861	-32.007	197.261	11.627	-22.606	219.572	321.056	0.00047971	0.00031929	6.2033e-05	703.88	2.5397e-06	2.4737e-06	760.37	256.93	9.4764e-07	3.935e-06	365.27	159.72	101.15	40.108	2.9892e-06	80.307	7.7779e-05	5.9493e-05	1.514e-05	686.23	7.2819e-07	6.4463e-07	740.35	249.63	7.0152e-07	6.3071e-07	348.41	153.16	96.983	38.62	6.0259e-07	76.275	259.605	62.706	66.561	-26.172	40.919	79.396	-26.445	-20.476	186.031	74.828	-22.171	-16.840	-15.073	-10.513	110.628	-12.811	-8191	255	
18216.547	1	1	0	0	0.21736	0.28876	0.08248	0.10109	0.076144	0.055637	0.29223	0.33934	0.26433	0.27163	0.047517	0.074511	0.4272	0.33044	0.27281	0.035732	-2.1625	-2.8417	-2.9667	-2.4896	-3.1375	-2.7812	-2.6958	-3.1562	-2.6979	-2.8417	-3.0667	-2.6042	-3.2896	-2.8396	-2.5375	-3.1625	132.929	65.271	166.387	237.710	79.588	232.944	298.593	-27.948	59.584	271.987	320.885	-2.702	298.300	245.518	211.081	-20.588	0.00039264	0.00022966	0.00014045	710.36	5.1879e-06	3.6409e-06	763.28	257.7	1.521e-06	4.1317e-06	362.03	157.77	100.67	39.758	1.9648e-06	78.762	7.8327e-05	5.816e-05	1.4664e-05	691.94	7.1576e-07	6.3035e-07	743.1	250.29	7.2348e-07	6.3103e-07	344.75	151.84	96.495	38.291	6.1355e-07	74.559	257.037	65.955	45.565	-26.465	20.469	104.554	-26.960	-20.318	128.496	73.763	-21.762	-16.744	-15.306	-10.866	80.164	-13.242	-8191	255	
18216.668	1	1	0	0	0.18551	0.05435	0.038113	0.26684	0.047573	0.14824	0.099592	0.18278	0.11991	0.14567	0.2532	0.40829	0.045682	0.24395	0.16377	0.2242	-2.0667	-2.7042	-2.9896	-2.5354	-3.1042	-2.8667	-2.6604	-3.075	-2.5312	-2.7083	-3.1667	-2.6396	-2.9313	-3.0042	-2.4813	-3.3104	198.060	201.968	-0.470	249.533	66.423	179.809	198.405	146.277	161.632	221.134	243.565	-13.699	261.285	256.235	188.076	69.170	0.00036382	0.00036303	0.0001235	699.57	1.9299e-06	3.9168e-06	745.22	253.85	3.2007e-06	2.4042e-06	356.27	156.2	100.67	39.389	2.1047e-06	77.965	7.7003e-05	5.6979e-05	1.5652e-05	683.04	7.1174e-07	6.1152e-07	725.72	246.86	6.8851e-07	6.2796e-07	340.61	149.8	95.841	37.823	6.4293e-07	73.942	266.664	56.802	48.920	-26.348	27.827	137.699	-26.623	-20.051	168.552	125.211	-22.087	-16.892	-15.335	-10.556	58.506	-13.220	-8191	255	
18216.762	1	1	0	0	0.15853	0.06855	0.099661	0.16157	0.043085	0.22029	0.15058	0.054057	0.17075	0.1803	0.34317	0.039172	0.14315	0.1896	0.29441	0.25669	-2.3187	-2.5687	-3.0167	-2.4583	-2.8833	-2.9271	-2.5167	-3.3125	-2.6958	-2.5521	-3.2	-2.725	-2.8771	-3.0896	-2.4938	-3.2042	108.504	55.754	36.733	310.671	237.089	83.704	237.116	134.633	4.919	9.033	301.769	110.337	259.987	-23.896	107.429	242.510	0.00044677	0.00035009	0.00011802	701.48	3.0496e-06	3.1165e-06	752.3	255.7	3.0371e-06	2.3646e-06	360.82	158.05	101.23	39.851	1.4408e-06	79.113	7.3304e-05	5.6601e-05	1.614e-05	683.17	6.8301e-07	6.0421e-07	730.57	247.88	6.6595e-07	6.2233e-07	343.9	151.56	96.616	38.212	7.2037e-07	74.979	265.530	37.133	75.369	-26.464	43.468	96.439	-26.710	-20.742	181.678	78.836	-22.114	-16.511	-15.301	-10.375	82.922	-12.833	-8191	255	
18216.836	1	1	0	0	0.23981	0.13998	0.099726	0.1426	0.17987	0.17327	0.1028	0.12539	0.43457	0.16959	0.23904	0.14876	0.1377	0.2935	0.16942	0.085152	-2.5125	-2.5604	-3.0604	-2.4813	-2.7458	-3.0917	-2.4458	-3.0187	-2.7313	-2.4292	-3.2042	-2.45	-2.8937	-2.9938	-2.2708	-2.8979	20.056	-11.383	13.002	10.269	-32.645	167.287	275.943	190.155	13.767	176.056	228.728	309.109	237.371	246.796	17.540	288.684	0.00045692	0.00031011	8.3217e-05	705.8	3.4554e-06	2.7648e-06	761.98	260.1	1.3047e-06	2.5881e-06	367.67	162.16	102.84	40.666	3.1674e-06	80.775	7.2114e-05	5.665e-05	1.7092e-05	687.58	6.6249e-07	6.163e-07	742.8	251.49	6.3218e-07	6.174e-07	351.6	155.07	98.157	39.07	7.2707e-07	76.696	268.712	93.070	90.137	-26.283	37.683	83.103	-26.492	-20.424	174.495	63.440	-22.053	-16.643	-15.205	-10.595	134.015	-12.789	-8191	255	
18216.953	1	1	0	0	0.20259	0.23252	0.097784	0.10104	0.33113	0.073249	0.12008	0.095672	0.15207	0.14517	0.16668	0.10161	0.16371	0.13001	0.13318	0.087848	-2.3958	-2.4792	-3.0167	-2.8229	-2.8042	-3.15	-2.575	-2.9313	-3.075	-2.4104	-3.1396	-2.6021	-2.6604	-3.1188	-2.4188	-3.0646	33.515	50.412	176.592	291.367	-14.484	-33.684	223.653	250.936	231.698	184.424	209.476	-29.095	234.612	257.475	-28.259	134.616	0.00050172	0.00035752	9.204e-05	707.01	4.7003e-06	1.6106e-06	753.35	257.58	4.8595e-06	2.0565e-06	361.56	158.07	101.95	39.613	3.1373e-06	78.572	7.0776e-05	5.7795e-05	1.8708e-05	689.91	6.4056e-07	6.1092e-07	735.68	250.13	6.3979e-07	6.2633e-07	345.71	151.96	96.823	38.236	7.4462e-07	74.505	262.294	39.222	65.968	-26.382	53.694	84.818	-26.792	-20.538	186.273	125.797	-22.041	-16.621	-15.316	-10.270	86.087	-13.089	-8191	255	
18217.051	1	1	0	0	0.16982	0.19943	0.40636	0.23721	0.33188	0.051836	0.25383	0.10758	0.085266	0.10268	0.28137	0.21907	0.089138	0.2461	0.095292	0.23308	-2.6875	-2.5146	-3.0938	-2.5271	-2.4125	-3.0979	-2.4875	-2.9208	-3.0917	-2.5583	-3.2167	-2.7792	-2.7	-3.1917	-2.5229	-2.9646	248.512	3.983	56.443	146.027	-33.471	178.130	270.003	-4.259	46.843	-12.587	-35.585	262.732	-18.441	276.819	173.814	276.857	0.00043809	0.00041968	0.00012991	704.76	2.5303e-06	9.4817e-07	748.43	256.72	2.0637e-06	3.1973e-06	361.86	158.45	102.29	40.13	3.8663e-06	78.766	6.9225e-05	5.9115e-05	1.8364e-05	682.69	6.2158e-07	6.5523e-07	729.49	248.8	6.2147e-07	6.9875e-07	346.03	151.84	97.258	38.456	7.2115e-07	74.775	270.032	41.485	29.724	-26.575	51.939	128.799	-26.769	-20.475	241.080	98.487	-22.205	-16.776	-15.075	-10.509	137.239	-13.031	-8191	255	
18217.146	1	1	0	0	0.10489	0.15158	0.1666	0.36403	0.13459	0.22729	0.0042026	0.22426	0.068469	0.15861	0.18554	0.23902	0.23029	0.27797	0.083565	0.12813	-2.7708	-2.3104	-3.1396	-2.7604	-2.3042	-3.1271	-2.5792	-2.625	-3.0333	-2.4417	-2.9146	-2.9021	-2.6417	-3.2208	-2.3937	-2.9188	42.862	233.673	180.689	-28.317	305.203	123.188	-16.439	239.561	129.387	15.739	6.943	318.665	280.073	281.568	159.012	257.685	0.00043252	0.00036468	0.00013852	706.17	7.0568e-07	2.5466e-06	758.53	259.03	4.5975e-06	4.8985e-06	365.13	159.92	102.17	40.135	2.3125e-06	80.618	6.8772e-05	6.699e-05	1.8132e-05	686.37	6.3941e-07	7.3718e-07	737.08	250.91	6.423e-07	7.4847e-07	349.34	153.7	98.005	38.805	7.2919e-07	76.155	267.737	27.004	62.250	-25.896	100.711	105.310	-26.792	-20.587	206.908	87.431	-22.144	-16.663	-15.134	-10.400	109.949	-12.769	-8191	255	
18217.242	1	1	0	0	0.012749	0.33602	0.092461	0.15704	0.1064	0.27457	0.27431	0.2371	0.24306	0.16802	0.066281	0.13366	0.10735	0.1742	0.15557	0.23557	-2.625	-2.4271	-3.0167	-3.0646	-2.3208	-3.1	-2.8042	-2.7417	-2.9604	-2.4417	-3.0729	-3.0479	-2.5187	-3.0604	-2.7146	-2.6917	121.545	182.647	220.765	271.828	68.292	206.885	238.583	306.295	279.967	-28.120	55.671	239.937	27.094	307.258	33.110	305.834	0.00046541	0.00035757	7.8161e-05	707.31	4.4326e-06	5.5084e-06	763.09	260.61	3.1634e-06	5.1099e-06	365.36	160.46	103.23	40.273	1.5148e-06	79.995	7.397e-05	7.275e-05	1.8012e-05	690.22	6.9407e-07	7.813e-07	747.56	252.81	7.0589e-07	7.805e-07	351.24	154.29	98.083	38.843	7.1328e-07	75.755	255.047	71.483	43.424	-25.967	61.576	110.939	-26.628	-20.470	192.584	81.559	-21.871	-16.477	-15.149	-10.703	134.325	-12.819	-8191	255	
18217.338	1	1	0	0	0.2101	0.10703	0.22344	0.21818	0.25749	0.22879	0.12125	0.16984	0.12338	0.12576	0.12735	0.13289	0.18749	0.189	0.086709	0.1183	-2.7708	-2.5646	-2.6625	-3.0021	-2.5	-3.125	-2.9062	-2.7313	-2.9875	-2.4333	-2.8688	-3.0062	-2.3479	-3.2542	-2.7396	-2.5104	92.830	55.491	61.684	53.752	169.584	108.161	8.493	299.838	-7.953	243.433	-25.825	317.961	267.157	306.712	44.682	165.825	0.00045383	0.00042312	8.5098e-05	702.62	2.9047e-06	3.2094e-06	744.96	255.51	2.8054e-06	5.3745e-06	359.95	157.32	100.49	39.159	9.1453e-07	77.376	7.919e-05	6.9926e-05	1.7438e-05	682.97	7.5161e-07	7.6339e-07	728.56	248.15	7.5444e-07	7.5705e-07	344.82	150.99	96.398	37.925	6.818e-07	73.73	262.422	82.822	48.699	-26.469	16.424	117.623	-26.958	-20.189	226.426	81.388	-22.165	-16.737	-14.782	-10.548	13.180	-12.943	-8191	255	
18217.436	1	1	0	0	0.14752	0.33127	0.12727	0.14265	0.15352	0.1723	0.064582	0.26925	0.031052	0.10484	0.17282	0.28156	0.16409	0.025851	0.20964	0.45617	-2.8542	-2.5	-2.525	-3.1125	-2.5458	-2.9875	-3.0458	-2.6396	-2.8812	-2.5938	-2.6958	-3.1417	-2.3854	-3.0125	-2.8458	-2.6292	-20.549	-23.762	282.524	56.714	84.712	-24.313	-16.747	272.693	22.591	143.945	273.129	316.435	220.609	96.963	79.002	264.919	0.00039565	0.0002538	0.00010194	700.14	3.9308e-06	2.2713e-06	752.46	257.56	2.7007e-06	6.1708e-06	362.91	158.95	102.29	39.671	2.3214e-06	79.366	8.2983e-05	6.7412e-05	1.7453e-05	678.24	7.6899e-07	7.2865e-07	731.01	249.42	7.7318e-07	7.1712e-07	346.55	152.84	97.664	38.248	6.6713e-07	74.903	271.510	62.512	51.444	-26.094	59.218	76.596	-26.334	-20.086	192.114	75.645	-21.992	-16.591	-15.406	-10.870	90.108	-13.212	-8191	255	
#DATA ENDS
