BOXY.EXE: ISS Imagent and Oximeter Data Acquisition Program Version 0.80
Ascii Record File

#ACQ INFORMATION
2  Detector Channels 
16  External MUX Channels 
1  Auxiliary Channels 
5000  Waveform (CCF) Frequency (Hz)
1  Waveforms Skipped 
30  Waveforms Averaged 
1  Cycles Averaged 
16  Acquisitions per Waveform 
10.0806  Updata Rate (Hz) 

#FILE INFORMATION
TRUE -- External MUX Channel results are PARSED.
FALSE -- AC DC and Phase are NOT grouped.
TRUE -- Companion Program Settings File CREATED.
FALSE -- AC data not excluded
FALSE -- DC data not excluded
FALSE -- Phase data not excluded
FALSE -- Auxillary Chn. data not excluded
Tab delimiters

#CALIBRATION STATE
TRUE -- Waveform Calibration Values APPLIED.


#AUX CALIBRATION VALUES
Val Type	aux-1	

Term	1.0000e+00	
Factor	0.0000e+00	


#WF CALIBRATION VALUES
A = Detector Channel
Val Type	A-AC1	A-AC2	A-AC3	A-AC4	A-AC5	A-AC6	A-AC7	A-AC8	A-AC9	A-AC10	A-AC11	A-AC12	A-AC13	A-AC14	A-AC15	A-AC16	A-DC1	A-DC2	A-DC3	A-DC4	A-DC5	A-DC6	A-DC7	A-DC8	A-DC9	A-DC10	A-DC11	A-DC12	A-DC13	A-DC14	A-DC15	A-DC16	A-Ph1	A-Ph2	A-Ph3	A-Ph4	A-Ph5	A-Ph6	A-Ph7	A-Ph8	A-Ph9	A-Ph10	A-Ph11	A-Ph12	A-Ph13	A-Ph14	A-Ph15	A-Ph16	

Term	0.00000e+00	0.00000e+00	0.00000e+00	0.00000e+00	0.00000e+00	0.00000e+00	0.00000e+00	0.00000e+00	0.00000e+00	0.00000e+00	0.00000e+00	0.00000e+00	0.00000e+00	0.00000e+00	0.00000e+00	0.00000e+00	0.00000e+00	0.00000e+00	0.00000e+00	0.00000e+00	0.00000e+00	0.00000e+00	0.00000e+00	0.00000e+00	0.00000e+00	0.00000e+00	0.00000e+00	0.00000e+00	0.00000e+00	0.00000e+00	0.00000e+00	0.00000e+00	0.00000e+00	0.00000e+00	0.00000e+00	0.00000e+00	0.00000e+00	0.00000e+00	0.00000e+00	0.00000e+00	0.00000e+00	0.00000e+00	0.00000e+00	0.00000e+00	0.00000e+00	0.00000e+00	0.00000e+00	0.00000e+00	
Factor	1.00000e+00	1.00000e+00	1.00000e+00	1.00000e+00	1.00000e+00	1.00000e+00	1.00000e+00	1.00000e+00	1.00000e+00	1.00000e+00	1.00000e+00	1.00000e+00	1.00000e+00	1.00000e+00	1.00000e+00	1.00000e+00	1.00000e+00	1.00000e+00	1.00000e+00	1.00000e+00	1.00000e+00	1.00000e+00	1.00000e+00	1.00000e+00	1.00000e+00	1.00000e+00	1.00000e+00	1.00000e+00	1.00000e+00	1.00000e+00	1.00000e+00	1.00000e+00	X	X	X	X	X	X	X	X	X	X	X	X	X	X	X	X	

B = Detector Channel
Val Type	B-AC1	B-AC2	B-AC3	B-AC4	B-AC5	B-AC6	B-AC7	B-AC8	B-AC9	B-AC10	B-AC11	B-AC12	B-AC13	B-AC14	B-AC15	B-AC16	B-DC1	B-DC2	B-DC3	B-DC4	B-DC5	B-DC6	B-DC7	B-DC8	B-DC9	B-DC10	B-DC11	B-DC12	B-DC13	B-DC14	B-DC15	B-DC16	B-Ph1	B-Ph2	B-Ph3	B-Ph4	B-Ph5	B-Ph6	B-Ph7	B-Ph8	B-Ph9	B-Ph10	B-Ph11	B-Ph12	B-Ph13	B-Ph14	B-Ph15	B-Ph16	

Term	0.00000e+00	0.00000e+00	0.00000e+00	0.00000e+00	0.00000e+00	0.00000e+00	0.00000e+00	0.00000e+00	0.00000e+00	0.00000e+00	0.00000e+00	0.00000e+00	0.00000e+00	0.00000e+00	0.00000e+00	0.00000e+00	0.00000e+00	0.00000e+00	0.00000e+00	0.00000e+00	0.00000e+00	0.00000e+00	0.00000e+00	0.00000e+00	0.00000e+00	0.00000e+00	0.00000e+00	0.00000e+00	0.00000e+00	0.00000e+00	0.00000e+00	0.00000e+00	-1.54582e+01	-1.31826e+02	-1.18987e+02	-1.83770e+02	-1.30688e+02	-8.11710e+01	-1.58254e+02	-1.62015e+02	4.03488e+00	-7.49322e+01	-1.70683e+02	-1.70651e+02	-1.78365e+02	-1.76938e+02	-7.39507e+01	-1.49895e+02	
Factor	3.55145e-05	9.56148e-05	2.78179e-05	1.65747e-01	1.12877e-06	1.04670e-06	1.79515e-01	5.89105e-02	1.19376e-06	1.16421e-06	9.76336e-02	3.40614e-02	3.16364e-02	1.08962e-02	1.16736e-06	1.55437e-02	9.88457e-07	1.01235e-06	2.82120e-07	8.20202e-02	1.10315e-08	1.10754e-08	8.33426e-02	2.89522e-02	1.10356e-08	1.10748e-08	4.58140e-02	1.59180e-02	1.53075e-02	5.26684e-03	1.10529e-08	7.23307e-03	X	X	X	X	X	X	X	X	X	X	X	X	X	X	X	X	



#DISTANCE SETTINGS
A = Detector Channel
A-1	A-2	A-3	A-4	A-5	A-6	A-7	A-8	A-9	A-10	A-11	A-12	A-13	A-14	A-15	A-16	

2.5000e+00	3.0000e+00	2.5000e+00	3.0000e+00	2.0000e+00	3.0000e+00	1.5000e+00	3.0000e+00	3.0000e+00	3.0000e+00	3.0000e+00	3.0000e+00	3.0000e+00	3.0000e+00	1.5000e+00	3.0000e+00	

B = Detector Channel
B-1	B-2	B-3	B-4	B-5	B-6	B-7	B-8	B-9	B-10	B-11	B-12	B-13	B-14	B-15	B-16	

1.0000e+01	1.0000e+01	1.0000e+01	1.4400e+00	1.0000e+01	1.0000e+01	1.5100e+00	1.9400e+00	1.0000e+01	1.0000e+01	1.9900e+00	2.4900e+00	2.4100e+00	2.9000e+00	1.0000e+01	2.9800e+00	




#DATA BEGINS
time	group	step	mark	flag	A-AC1	A-AC2	A-AC3	A-AC4	A-AC5	A-AC6	A-AC7	A-AC8	A-AC9	A-AC10	A-AC11	A-AC12	A-AC13	A-AC14	A-AC15	A-AC16	A-DC1	A-DC2	A-DC3	A-DC4	A-DC5	A-DC6	A-DC7	A-DC8	A-DC9	A-DC10	A-DC11	A-DC12	A-DC13	A-DC14	A-DC15	A-DC16	A-Ph1	A-Ph2	A-Ph3	A-Ph4	A-Ph5	A-Ph6	A-Ph7	A-Ph8	A-Ph9	A-Ph10	A-Ph11	A-Ph12	A-Ph13	A-Ph14	A-Ph15	A-Ph16	B-AC1	B-AC2	B-AC3	B-AC4	B-AC5	B-AC6	B-AC7	B-AC8	B-AC9	B-AC10	B-AC11	B-AC12	B-AC13	B-AC14	B-AC15	B-AC16	B-DC1	B-DC2	B-DC3	B-DC4	B-DC5	B-DC6	B-DC7	B-DC8	B-DC9	B-DC10	B-DC11	B-DC12	B-DC13	B-DC14	B-DC15	B-DC16	B-Ph1	B-Ph2	B-Ph3	B-Ph4	B-Ph5	B-Ph6	B-Ph7	B-Ph8	B-Ph9	B-Ph10	B-Ph11	B-Ph12	B-Ph13	B-Ph14	B-Ph15	B-Ph16	aux-1	digaux	

14056.294	1	1	0	256	0.095968	0.16721	0.13678	0.4442	0.096182	0.18162	0.16934	0.2146	0.13722	0.13724	0.2739	0.14462	0.17628	0.089287	0.20772	0.073944	-2.8667	-2.2958	-2.7875	-3.1125	-2.6479	-3.2417	-2.8063	-2.6667	-3.0458	-2.3979	-3.0292	-2.9792	-2.6188	-3	-2.6021	-2.7229	186.092	91.283	4.732	305.755	329.701	152.186	256.573	91.095	233.578	211.833	41.949	58.576	214.438	74.500	293.712	6.946	0.00012671	0.00036916	5.7071e-05	996.63	3.9336e-06	1.9532e-06	1079.9	203.57	9.7968e-07	1.491e-06	259.19	73.268	57.058	16.746	7.7641e-06	23.268	0.00026949	0.00030968	8.6844e-05	973.06	2.9614e-06	3.3819e-06	1060.1	203.29	2.9328e-06	3.4133e-06	255.89	73.784	57.736	17.571	3.238e-06	23.961	260.068	201.837	-13.270	-13.162	245.098	30.975	-13.195	-5.347	239.783	53.614	-5.611	1.336	1.741	8.796	102.844	7.700	-8191	255	
14056.390	1	1	0	0	0.16932	0.22402	0.075163	0.16625	0.40217	0.15622	0.16273	0.015051	0.090233	0.2365	0.093514	0.085978	0.20715	0.06073	0.13958	0.12696	-2.8042	-2.5604	-2.7687	-3.1917	-2.5312	-3.025	-2.7708	-2.7333	-2.9833	-2.4688	-2.9625	-2.9854	-2.4167	-2.9313	-2.7958	-2.7	46.657	111.809	155.592	199.747	56.388	234.175	332.175	301.815	290.272	259.297	41.642	215.629	178.941	-19.833	47.506	305.198	0.0002192	0.0001756	4.8422e-05	995.52	6.6165e-07	1.0642e-06	1084.9	203.59	5.9415e-06	3.2587e-06	257.28	72.956	57.281	16.895	6.0728e-06	23.364	0.00026723	0.00031267	8.1061e-05	972.58	3.0209e-06	3.4223e-06	1059.1	202.81	3.0436e-06	3.3968e-06	254.77	73.354	57.95	17.631	3.0868e-06	23.95	270.103	13.174	153.317	-13.213	251.671	325.593	-13.158	-5.168	199.747	298.751	-6.057	1.283	1.796	8.890	82.061	7.944	-8191	255	
14056.510	1	1	0	0	0.21222	0.050784	0.1873	0.051699	0.16197	0.10838	0.14705	0.15312	0.079146	0.059819	0.10676	0.1149	0.075517	0.017771	0.20068	0.20186	-2.8125	-2.5812	-2.8688	-3.0604	-2.2292	-3.1708	-3.0479	-2.5396	-3.2562	-2.5375	-2.8229	-3.2458	-2.4958	-2.8854	-2.9458	-2.6	212.142	327.040	163.305	54.065	162.830	213.333	279.152	317.107	304.808	57.884	281.277	247.322	229.755	80.779	237.716	320.717	0.0002847	0.00025568	2.6395e-05	993.92	2.0185e-06	2.4359e-06	1081.4	204.7	3.1783e-06	3.4849e-06	257.84	73.333	57.215	16.905	2.7182e-06	23.501	0.0002865	0.00031022	7.7968e-05	971.87	3.2083e-06	3.3498e-06	1057	202.61	3.2449e-06	3.3137e-06	254.59	73.663	58.279	17.576	3.0367e-06	23.96	259.172	105.665	82.810	-13.136	242.644	330.756	-13.019	-5.546	262.136	108.874	-6.142	1.785	2.015	8.197	264.826	7.748	-8191	255	
14056.605	1	1	0	0	0.17761	0.28587	0.38808	0.28708	0.1091	0.13025	0.13159	0.33826	0.04211	0.11123	0.059148	0.049853	0.19527	0.11505	0.12811	0.12683	-2.7062	-2.6417	-2.5479	-3.2292	-2.5104	-2.9917	-3.1458	-2.6479	-3.1292	-2.5938	-2.8521	-3.2438	-2.6396	-2.8667	-3.1813	-2.65	29.010	304.327	58.584	294.960	303.032	159.546	330.773	315.109	266.244	136.122	165.803	86.863	181.793	218.307	252.409	57.254	9.653e-05	0.00020672	3.0577e-05	996.12	2.8632e-06	1.5267e-06	1083.1	203.67	6.1487e-08	4.6864e-06	259.23	73.863	57.191	16.872	2.7547e-06	23.469	0.00030817	0.00029888	7.6643e-05	972.91	3.4126e-06	3.2463e-06	1058.6	202.57	3.4298e-06	3.1926e-06	254.49	73.917	58.519	17.5	2.9668e-06	24.018	252.102	-22.909	-0.529	-13.127	27.057	126.290	-13.073	-5.488	210.541	86.707	-6.059	1.326	1.950	8.526	224.902	7.315	-8191	255	
14056.678	1	1	0	0	0.21867	0.10278	0.24505	0.071928	0.34016	0.056166	0.21168	0.13812	0.086433	0.10151	0.15952	0.29311	0.13044	0.097944	0.19757	0.1775	-2.6021	-2.8833	-2.5812	-3.2812	-2.6542	-2.7271	-3.2	-2.3896	-3.0083	-2.8667	-2.5875	-3.0917	-2.5875	-2.7417	-3.0771	-2.475	20.886	302.560	4.503	284.197	156.693	165.710	209.074	242.311	59.301	167.364	227.384	280.712	298.296	29.453	53.201	324.852	0.00018555	0.00034972	5.0315e-05	1011.5	1.6385e-06	6.2686e-06	1099.3	208.5	3.2613e-06	2.041e-06	261.98	74.623	57.952	17.181	5.307e-06	23.809	0.00031031	0.00028719	7.4307e-05	976.41	3.4535e-06	3.1138e-06	1061.5	204.24	3.376e-06	3.0776e-06	255.02	74.286	58.582	17.501	2.8993e-06	24.258	218.627	91.248	25.502	-13.500	257.195	36.752	-13.737	-6.044	162.683	274.000	-6.579	0.689	0.999	7.960	137.825	6.821	-8191	255	
14056.774	1	1	0	0	0.11054	0.11546	0.35727	0.24491	0.20169	0.34694	0.37585	0.35208	0.34108	0.10011	0.11145	0.17027	0.1314	0.19846	0.41097	0.17161	-2.5792	-2.9146	-2.6292	-3.15	-2.6312	-2.7396	-3.3083	-2.4479	-3.0563	-2.8438	-2.6083	-3.1042	-2.5938	-2.5625	-3.0396	-2.7	88.548	281.857	50.250	-8.490	72.342	116.874	258.118	223.224	34.126	335.835	292.354	80.053	10.832	39.367	42.531	321.636	0.00019632	0.00045303	1.3009e-05	1012.1	2.4442e-06	2.7562e-06	1103.7	208.2	5.2811e-06	1.2686e-06	261.87	74.999	58.546	17.241	1.3246e-06	23.788	0.00030177	0.00027647	7.3143e-05	978.48	3.3078e-06	3.0142e-06	1061.2	204.82	3.2564e-06	3.003e-06	254.67	74.626	58.391	17.489	2.908e-06	24.344	220.216	316.435	136.058	-13.687	137.192	312.341	-13.549	-6.095	108.753	62.663	-6.621	0.828	1.176	7.803	290.782	7.304	-8191	255	
14056.893	1	1	0	0	0.20391	0.17461	0.23407	0.20475	0.086756	0.29366	0.35634	0.099464	0.08174	0.11638	0.14061	0.079539	0.26631	0.28501	0.093007	0.08684	-2.4979	-2.9417	-2.2	-3.0229	-2.5833	-2.4396	-3.2125	-2.5833	-2.7896	-3.0479	-2.6312	-3.1562	-2.6083	-2.6354	-3.1729	-2.5896	-21.140	189.865	180.484	323.859	239.069	276.196	274.447	236.226	144.571	133.150	183.247	192.980	290.098	19.096	158.942	95.181	0.00017569	0.0002603	7.5214e-05	1010.7	3.2827e-06	8.4248e-07	1100	206.72	4.6379e-06	2.2411e-06	262.93	75.018	58.75	17.201	5.7974e-06	23.934	0.00028855	0.00026765	7.5277e-05	978.01	3.1581e-06	2.9299e-06	1061.3	204.31	3.1021e-06	2.894e-06	255.68	74.714	58.288	17.457	3.0673e-06	24.359	277.199	244.326	200.223	-13.844	111.581	210.483	-13.719	-5.973	247.277	153.772	-6.545	0.982	1.310	7.879	182.855	7.144	-8191	255	
14056.989	1	1	0	0	0.17469	0.063468	0.17202	0.10702	0.10894	0.052071	0.12366	0.15404	0.068499	0.1023	0.18041	0.30794	0.21518	0.25619	0.10158	0.2917	-2.5167	-3.0563	-2.4	-2.9792	-2.6917	-2.7271	-3.2896	-2.6	-2.8563	-3.1875	-2.6312	-3.0625	-2.7562	-2.6396	-3.2812	-2.7583	208.261	53.230	247.249	285.080	113.151	15.543	225.564	304.368	140.933	127.050	261.873	327.768	11.181	232.549	278.747	146.440	0.00019301	0.00036954	5.976e-05	1009.3	1.2794e-06	1.4183e-06	1100.9	207.47	2.1187e-06	5.2483e-06	258.37	74.611	58.196	17.23	5.1477e-06	23.857	0.00027484	0.00025834	8.0407e-05	977.73	3.0267e-06	2.8104e-06	1064.6	204.23	3.0178e-06	2.869e-06	255.41	74.371	57.892	17.42	3.2932e-06	24.261	237.309	44.800	-20.239	-13.640	295.566	275.317	-13.356	-5.912	221.463	143.582	-6.206	0.812	1.586	8.275	64.516	7.225	-8191	255	
14057.086	1	1	0	0	0.18167	0.13773	0.24524	0.36299	0.1772	0.16537	0.23898	0.067863	0.10084	0.067632	0.18495	0.12542	0.1174	0.2605	0.06399	0.19769	-2.2083	-3.2542	-2.5792	-3.1562	-2.8438	-2.4625	-3.2271	-2.7042	-2.6437	-3.2458	-2.6021	-2.9542	-2.9938	-2.4417	-3.2	-2.6292	333.129	16.763	54.056	-24.035	123.830	242.733	227.913	300.566	122.776	290.340	59.608	281.762	334.026	318.697	49.379	291.272	0.0001581	8.3866e-05	9.0309e-05	1013.2	3.4858e-06	3.1073e-06	1101.3	207.73	3.1715e-06	2.5299e-06	262.62	74.113	58.347	17.195	2.6211e-06	23.878	0.00027185	0.00025868	8.4856e-05	977.96	2.9291e-06	2.9129e-06	1065.1	204.05	2.9367e-06	2.9124e-06	256.72	73.997	57.889	17.471	3.3842e-06	24.18	251.497	297.088	59.770	-13.655	110.072	74.128	-13.260	-6.201	230.507	55.795	-6.278	0.823	1.285	8.100	145.206	7.343	-8191	255	
14057.182	1	1	0	0	0.13688	0.048799	0.17481	0.21503	0.054681	0.2392	0.12551	0.2635	0.056377	0.065038	0.22254	0.21806	0.13637	0.12021	0.13549	0.10052	-2.1771	-2.9521	-2.5146	-2.8146	-3.0687	-2.4667	-3.1813	-2.8042	-2.7083	-3.1208	-2.5458	-2.7188	-2.9771	-2.2812	-2.9792	-2.75	249.038	224.344	39.085	271.898	258.404	325.983	289.287	299.792	158.225	131.819	300.852	126.346	259.741	196.976	101.147	26.610	0.0001611	0.00026661	1.4238e-05	1010.5	1.7896e-06	1.7726e-06	1101.2	206.16	4.8067e-06	6.6879e-06	261.95	74.338	58.329	17.213	4.9159e-06	23.872	0.00026448	0.00027314	8.5891e-05	975.02	2.8454e-06	3.0604e-06	1064.7	203.27	2.8156e-06	3.0711e-06	256.5	73.883	57.81	17.566	3.2947e-06	24.073	214.303	92.684	227.653	-13.595	270.996	-11.605	-13.433	-6.061	16.509	158.406	-6.762	0.636	1.384	8.188	51.714	7.430	-8191	255	
14057.278	1	1	0	0	0.23421	0.23694	0.13163	0.28338	0.091941	0.26099	0.19323	0.040637	0.096389	0.14544	0.23266	0.030651	0.095578	0.12789	0.14228	0.17901	-2.1375	-2.9542	-2.5438	-2.7354	-3.0479	-2.3229	-3.05	-2.8896	-2.5083	-3.125	-2.6125	-2.4917	-3.0375	-2.2333	-2.8271	-2.9417	77.697	233.204	-11.275	-20.026	295.956	-11.017	295.217	80.429	72.133	312.896	265.673	20.816	152.774	103.654	19.332	241.547	0.00028059	0.00046278	0.00014305	1010.9	7.0651e-07	7.7456e-07	1106.2	208.36	3.0974e-06	4.6349e-06	262.2	74.504	58.512	17.159	2.523e-06	24.005	0.00025764	0.00029267	8.4107e-05	975.63	2.8452e-06	3.2373e-06	1063.5	203.3	2.8409e-06	3.2791e-06	256.05	73.847	57.923	17.644	3.1786e-06	24.087	201.896	126.645	-14.853	-13.954	309.872	297.290	-13.508	-5.816	268.737	191.011	-6.440	0.939	1.487	7.849	272.920	7.729	-8191	255	
14057.374	1	1	0	0	0.05635	0.09176	0.042675	0.29564	0.27152	0.27475	0.34955	0.11831	0.18487	0.18132	0.20529	0.31088	0.19802	0.15147	0.14617	0.13793	-2.4	-3.0896	-2.6458	-2.7812	-3.0312	-2.5396	-2.9458	-2.9458	-2.4437	-3.1229	-2.8354	-2.5375	-3.1542	-2.5667	-2.9125	-3.0146	271.323	45.673	307.004	294.360	84.062	83.326	252.558	255.192	192.306	122.147	333.181	277.540	43.527	-0.608	138.274	335.530	0.00030551	0.00051867	9.1614e-05	1009.5	3.9512e-06	2.9198e-06	1101.9	207.03	3.3847e-06	1.9747e-06	264.32	74.514	58.336	17.244	5.6571e-06	24.067	0.00026322	0.00030476	7.909e-05	974.26	2.9545e-06	3.3847e-06	1062.6	203.05	2.9775e-06	3.3451e-06	256.4	73.763	58.139	17.707	3.0533e-06	24.112	269.349	69.406	8.426	-14.121	85.517	42.710	-13.833	-6.314	23.452	76.567	-6.824	0.163	1.142	7.402	41.487	6.260	-8191	255	
14057.470	1	1	0	0	0.056029	0.045131	0.20195	0.16368	0.055994	0.25472	0.27056	0.24242	0.22079	0.16285	0.12425	0.22575	0.1336	0.26231	0.10614	0.12036	-1.9104	-3.0729	-2.7167	-2.6937	-3.0792	-2.6479	-2.8979	-3.0563	-2.5542	-2.9667	-2.8438	-2.6083	-3.0375	-2.7354	-2.7021	-3.0583	223.159	122.784	183.315	-23.478	48.698	107.863	277.165	203.553	263.638	329.664	186.802	215.607	-9.079	31.340	244.422	252.361	0.00012824	0.00019855	9.2251e-05	1011.1	5.4764e-06	2.0324e-06	1098.6	208.07	4.815e-06	5.5776e-06	262.39	74.299	58.098	17.084	5.4102e-06	23.991	0.00028422	0.00031038	7.7759e-05	975.97	3.2086e-06	3.3842e-06	1060.7	203.48	3.2768e-06	3.3363e-06	256.24	73.81	58.491	17.643	3.0007e-06	24.032	247.064	106.244	-8.691	-14.752	147.052	137.923	-14.610	-6.972	239.099	134.059	-7.366	-0.131	0.095	6.402	159.738	6.358	-8191	255	
14057.591	1	1	0	0	0.060481	0.26933	0.023244	0.22681	0.059104	0.33872	0.1385	0.073597	0.088718	0.21728	0.27542	0.088612	0.13057	0.2675	0.18185	0.11194	-2.1688	-3.0375	-2.8333	-2.6688	-3.1396	-2.6417	-2.9688	-3.2	-2.5062	-2.7938	-2.8937	-2.4167	-3.075	-2.6396	-2.5542	-2.9479	-7.444	204.612	313.971	327.952	146.732	262.387	289.066	332.380	153.884	301.214	107.748	41.982	49.421	268.203	19.751	276.600	0.00014806	0.00063146	0.00019727	1008.3	1.6859e-06	1.0817e-06	1106.1	208.16	4.1683e-06	2.5708e-06	259.34	74.806	58.375	17.196	3.1582e-06	24.221	0.00030331	0.00029785	7.6185e-05	974.26	3.3775e-06	3.2466e-06	1063.7	203.8	3.3697e-06	3.1832e-06	255.08	74.028	58.829	17.596	2.9621e-06	24.251	219.775	67.186	65.928	-14.916	28.806	1.978	-14.793	-6.876	219.607	158.190	-7.396	-0.503	0.239	6.798	42.144	5.871	-8191	255	
14057.685	1	1	0	0	0.17231	0.14193	0.21588	0.21586	0.033518	0.16721	0.10251	0.020988	0.12793	0.28707	0.31016	0.22026	0.08809	0.21065	0.13589	0.26058	-2.1208	-2.8604	-2.9396	-2.4437	-2.9417	-2.7583	-2.8875	-3.1917	-2.3354	-2.6667	-3.0417	-2.2521	-3.1312	-2.9417	-2.5083	-3.1354	60.236	107.134	31.427	283.642	43.271	193.226	262.593	86.563	31.435	172.619	309.271	176.705	15.635	54.182	327.811	265.384	0.0001398	0.0005178	9.6336e-05	1012.3	1.7202e-06	3.4193e-07	1103.3	207.7	3.358e-06	4.4704e-06	264.25	74.961	58.308	17.35	2.5893e-06	24.01	0.00030881	0.00028719	7.4507e-05	978.17	3.4265e-06	3.1001e-06	1062.4	204.39	3.4304e-06	3.1049e-06	255.95	74.463	58.775	17.594	2.9108e-06	24.371	205.535	46.963	129.172	-14.978	86.776	185.365	-14.721	-7.067	18.219	65.670	-7.299	-0.109	0.085	6.822	17.546	6.053	-8191	255	
14057.781	1	1	0	0	0.205	0.14476	0.12348	0.34797	0.22284	0.21391	0.13669	0.14104	0.16247	0.22037	0.10414	0.14491	0.1442	0.30403	0.24037	0.20398	-2.2292	-2.6063	-3.0021	-2.4875	-2.9604	-2.8458	-2.3688	-3.1354	-2.4333	-2.7917	-2.9542	-2.5312	-2.8542	-2.7354	-2.3	-3.1458	256.896	314.465	205.586	332.215	280.907	68.919	334.376	285.268	155.266	212.510	320.548	213.652	323.378	253.386	240.222	218.860	0.00020998	0.00013654	3.7635e-05	1013.2	2.5266e-06	3.3245e-06	1105.2	207.29	1.9502e-06	8.4698e-07	263.67	75.04	58.314	17.265	3.839e-06	24.087	0.00030781	0.00027914	7.4399e-05	980.69	3.3553e-06	3.0847e-06	1064.6	205.15	3.3251e-06	3.0708e-06	256.04	74.889	58.738	17.573	2.9835e-06	24.485	239.469	298.240	216.596	-15.122	75.332	40.067	-14.735	-6.845	42.044	116.899	-7.195	-0.163	-0.166	7.185	50.758	6.146	-8191	255	
14057.879	1	1	0	0	0.1662	0.19172	0.28436	0.16128	0.22633	0.095095	0.1057	0.40377	0.017731	0.096454	0.099018	0.10476	0.085904	0.13347	0.24272	0.20688	-2.1875	-2.4167	-2.8688	-2.7458	-2.7167	-2.9229	-2.5563	-3.0542	-2.7354	-2.6917	-2.9729	-2.4896	-2.6854	-2.95	-2.4521	-3.0083	184.195	138.711	90.992	269.994	286.630	220.761	290.099	-10.968	67.916	231.926	302.530	36.836	-21.458	4.027	18.219	51.223	4.0375e-05	0.00050359	6.7546e-05	1012.4	8.0664e-06	2.8648e-06	1105.6	207.84	4.5491e-06	3.5817e-06	262.95	75.205	58.742	17.318	3.0616e-06	24.104	0.00029618	0.00027773	7.6776e-05	983.24	3.2365e-06	3.0011e-06	1067.5	205.55	3.165e-06	2.9902e-06	256.68	75.031	58.619	17.626	3.2061e-06	24.624	315.015	46.477	173.186	-14.870	13.667	12.516	-15.033	-7.174	194.952	260.279	-7.602	-0.448	-0.045	6.867	134.429	6.317	-8191	255	
14057.974	1	1	0	0	0.17119	0.26416	0.17164	0.61992	0.20496	0.19042	0.1739	0.19082	0.039061	0.10448	0.062043	0.30073	0.20052	0.098628	0.24148	0.182	-2.4271	-2.5396	-3.1188	-2.5125	-2.5292	-3.1292	-2.4167	-3.0854	-2.7479	-2.6583	-2.9521	-2.5812	-2.6042	-3.1396	-2.325	-2.8896	0.960	112.975	-20.791	313.893	155.034	16.121	289.994	274.862	328.560	124.857	315.002	274.414	309.056	283.803	205.443	204.487	0.00013336	0.00035906	4.0873e-05	1013.1	1.3053e-06	1.8808e-06	1108.4	208.75	1.9544e-06	4.3193e-06	264.45	74.99	58.496	17.276	1.3047e-06	24.001	0.0002876	0.00027302	8.3081e-05	985.1	3.1638e-06	2.9621e-06	1070.2	205.74	3.1449e-06	2.9768e-06	258.15	74.994	58.611	17.587	3.4019e-06	24.595	256.997	122.348	81.095	-14.880	28.931	39.288	-14.652	-7.221	283.567	199.221	-7.547	-0.625	-0.047	6.804	185.759	5.712	-8191	255	
14058.070	1	1	0	0	0.068636	0.089488	0.11732	0.24024	0.17661	0.11016	0.4032	0.069716	0.20663	0.034728	0.21228	0.30093	0.041868	0.042415	0.16869	0.013494	-2.45	-2.3167	-3.075	-2.7271	-2.5187	-3.0542	-2.7042	-2.7812	-2.9042	-2.3375	-3.1875	-2.6729	-2.5583	-3.0479	-2.2646	-2.8229	269.388	123.782	304.126	260.295	329.771	-3.377	304.667	196.201	123.937	97.227	319.673	-23.557	291.906	31.886	71.675	210.383	0.00010926	0.00023524	0.00013445	1017	2.4987e-06	3.9713e-06	1107.8	208.17	2.0796e-06	2.4302e-06	263.01	75.149	58.323	17.323	1.9877e-06	24.113	0.00028123	0.00027304	8.7029e-05	984.55	3.1086e-06	2.9897e-06	1071.9	205.23	3.0393e-06	3.0399e-06	258.97	74.831	58.561	17.653	3.5377e-06	24.48	281.465	110.188	188.233	-15.012	22.103	160.495	-14.569	-6.971	125.430	159.056	-7.553	-0.183	-0.137	6.720	24.591	6.544	-8191	255	
14058.191	1	1	0	0	0.11953	0.28576	0.13465	0.19747	0.042501	0.19968	0.19798	0.32615	0.24558	0.10232	0.22142	0.23254	0.37378	0.37524	0.21323	0.17279	-2.5021	-2.4104	-3.0938	-2.75	-2.6354	-2.9083	-2.4917	-2.8521	-2.9792	-2.475	-3.2354	-2.6854	-2.4375	-3.0625	-2.6063	-2.6792	203.675	244.065	64.973	315.180	86.298	2.446	298.353	249.832	112.554	-21.572	273.091	244.066	238.246	231.433	198.842	244.238	0.00011928	0.000151	0.00010591	1012.2	4.8983e-06	2.0531e-06	1108.1	208.67	8.9077e-06	4.9083e-06	263.33	74.839	58.995	17.29	6.1283e-06	24.257	0.00027549	0.00028594	8.9978e-05	982.95	3.0076e-06	3.1664e-06	1072.6	205.38	2.9679e-06	3.2306e-06	258.85	74.497	58.457	17.8	3.4745e-06	24.453	237.174	67.453	165.038	-15.092	206.795	108.967	-15.013	-7.071	176.664	224.046	-7.982	-0.255	0.138	7.090	62.771	6.221	-8191	255	
14058.285	1	1	0	0	0.062307	0.17028	0.034087	0.23742	0.27599	0.29192	0.10469	0.20661	0.14816	0.27873	0.2214	0.078084	0.21385	0.24308	0.19315	0.043505	-2.4104	-2.4104	-2.9688	-2.9729	-2.4813	-3.1875	-2.7833	-2.6083	-3.1042	-2.3917	-3.0458	-2.9833	-2.4604	-2.9708	-2.7875	-2.6375	333.296	281.551	112.457	293.303	322.663	321.625	186.633	328.322	97.252	69.371	37.296	31.338	244.918	237.142	204.626	-23.357	0.00020414	0.00026901	0.00014431	1017.7	1.0042e-06	2.9364e-06	1109.3	209.48	2.9684e-06	5.6849e-06	264.55	75.147	58.508	17.433	2.3122e-06	23.946	0.00026829	0.00030689	8.7456e-05	983.65	2.9675e-06	3.3772e-06	1072.3	205.7	2.9664e-06	3.4049e-06	259.3	74.742	58.587	17.892	3.2771e-06	24.381	248.471	79.923	17.346	-15.052	177.724	184.999	-14.691	-7.250	-12.974	268.801	-7.787	-0.123	-0.111	6.756	213.234	5.872	-8191	255	
14058.381	1	1	0	0	0.17604	0.23244	0.14369	0.38381	0.2328	0.067481	0.18921	0.27733	0.055249	0.067288	0.11063	0.15637	0.15573	0.22652	0.083463	0.25084	-2.7854	-2.2667	-2.9188	-2.9958	-2.5146	-3.1167	-2.7646	-2.3896	-3.0625	-2.3812	-2.8458	-3.1125	-2.4375	-3.0021	-2.6854	-2.4938	165.737	242.959	334.045	296.267	49.676	29.575	127.359	161.388	109.758	-0.411	18.808	302.686	289.146	268.170	224.386	270.677	0.00018213	0.00015905	2.33e-05	1016.6	4.978e-06	4.9697e-06	1115.2	210.22	6.0776e-06	3.371e-06	263.44	75.14	59.283	17.374	4.9968e-06	23.932	0.00027416	0.00031693	8.2407e-05	983.77	3.0622e-06	3.4863e-06	1071.4	205.27	3.0837e-06	3.5249e-06	258.36	74.509	58.867	17.929	3.2054e-06	24.301	238.975	326.845	42.512	-14.957	186.255	86.404	-14.921	-7.080	205.328	126.742	-7.792	-0.392	-0.255	6.404	101.322	6.143	-8191	255	
14058.477	1	1	0	0	0.26162	0.19583	0.18195	0.12864	0.053294	0.17315	0.1346	0.2512	0.19631	0.23397	0.17764	0.069845	0.21434	0.29728	0.44721	0.14613	-2.8521	-2.5979	-2.5458	-3.1667	-2.1813	-2.9771	-2.8833	-2.5333	-3.2125	-2.4833	-2.6375	-3.1813	-2.3187	-2.8479	-2.8521	-2.4146	310.314	87.855	292.556	103.873	178.820	142.067	322.999	317.792	51.633	102.044	23.973	224.021	308.005	293.141	22.071	135.643	0.00026993	0.0005507	3.2042e-05	1010.1	5.1951e-06	4.5353e-06	1104.3	208.78	3.0854e-06	4.9856e-06	265.18	75.565	59.016	17.408	3.2134e-06	24.079	0.00029581	0.00032556	8.2511e-05	982.03	3.3645e-06	3.6025e-06	1071.2	205.55	3.5226e-06	3.6561e-06	259.78	75.076	59.565	18.009	3.3424e-06	24.523	227.735	-13.682	96.051	-14.978	143.775	107.808	-14.870	-7.199	295.938	71.096	-7.740	-0.598	-0.085	6.853	115.787	5.837	-8191	255	
14058.573	1	1	0	0	0.15088	0.22014	0.15507	0.21199	0.087407	0.12545	0.26401	0.12145	0.19968	0.14332	0.28641	0.13771	0.29509	0.26377	0.19265	0.15154	-2.8104	-2.6146	-2.7083	-3.1875	-2.4729	-2.7979	-2.875	-2.4938	-3.0312	-2.7	-2.7062	-3.1146	-2.3396	-2.8333	-2.9208	-2.5458	315.479	113.685	282.090	255.189	283.951	143.890	248.420	74.883	273.909	208.491	44.201	314.960	-11.590	294.118	150.205	263.555	0.00011974	0.00027315	4.6217e-05	1019.5	4.2206e-06	6.5271e-06	1110.6	209.16	2.9222e-06	7.7407e-06	265.52	75.326	58.969	17.275	9.5699e-07	23.822	0.00033027	0.00032845	8.2977e-05	986.27	3.576e-06	3.4674e-06	1072.3	206.12	3.576e-06	3.4115e-06	259.06	74.833	59.616	17.91	3.1649e-06	24.479	231.730	100.030	297.366	-14.860	103.491	42.692	-14.875	-7.582	219.426	111.558	-7.608	-0.342	-0.338	6.492	303.863	5.860	-8191	255	
14058.670	1	1	0	0	0.34409	0.21877	0.17938	0.15787	0.15667	0.16866	0.23508	0.13307	0.092117	0.25506	0.28302	0.099939	0.060533	0.099979	0.18552	0.1926	-2.5958	-2.5667	-2.6167	-3.1042	-2.55	-2.7896	-3.025	-2.4917	-2.9646	-2.5979	-2.4062	-3.2167	-2.4	-2.7687	-2.9437	-2.4375	137.407	291.515	210.684	239.565	329.155	23.281	326.205	333.885	296.870	78.246	315.685	202.188	68.472	272.509	221.999	102.140	0.00026676	0.00040813	5.9932e-05	1021.4	5.0181e-06	5.6588e-06	1117.5	209.59	2.5006e-06	2.2592e-06	265.42	76.141	59.161	17.405	9.8882e-06	24.469	0.00033839	0.00031247	8.14e-05	990.59	3.7603e-06	3.4155e-06	1078.5	207.32	3.7319e-06	3.3905e-06	259.6	75.902	60.079	17.95	3.1467e-06	24.926	266.568	62.819	324.213	-14.824	147.523	164.430	-14.791	-7.321	145.986	69.985	-8.022	-0.160	-0.258	6.391	149.917	6.070	-8191	255	
14058.766	1	1	0	0	0.27269	0.19237	0.15675	0.13529	0.16764	0.1443	0.072737	0.14196	0.22615	0.14111	0.23764	0.21826	0.16436	0.18337	0.1321	0.17043	-2.6125	-2.6688	-2.4167	-3.2104	-2.3688	-2.8812	-3.1917	-2.6063	-2.9583	-2.7667	-2.4833	-3.0979	-2.4208	-2.7333	-3.2354	-2.5438	241.791	11.294	55.689	329.688	24.387	291.676	257.385	261.361	266.592	62.990	265.442	198.479	334.479	152.774	-2.315	-19.677	0.00014604	0.0001872	2.8194e-05	1031	1.4232e-06	3.7953e-06	1126.8	209.51	3.1617e-06	6.5577e-06	266.38	76.239	59.769	17.563	2.5553e-06	24.553	0.00033213	0.00030822	8.1351e-05	1000.6	3.7306e-06	3.4149e-06	1086.7	208.9	3.7937e-06	3.5155e-06	262.33	76.844	60.702	18.202	3.6024e-06	25.529	206.263	-7.002	177.915	-15.070	64.433	66.377	-14.705	-7.144	85.265	188.788	-7.902	-0.383	-0.486	6.185	68.581	5.777	-8191	255	
14058.862	1	1	0	0	0.092876	0.13795	0.13709	0.3736	0.15825	0.14203	0.39868	0.27189	0.10284	0.072322	0.10243	0.10297	0.32272	0.20096	0.037667	0.20785	-2.4396	-2.7188	-2.5417	-2.9562	-2.5792	-2.7042	-3.1979	-2.6271	-2.8688	-3.0604	-2.4729	-3.1771	-2.6708	-2.5208	-3.0125	-2.6021	120.144	51.155	38.327	2.325	159.844	319.573	249.071	322.089	23.146	131.773	155.811	71.054	-11.621	267.030	280.217	284.057	0.00011348	0.00020144	1.3458e-05	1046.2	1.4862e-06	4.2972e-07	1143.8	213.74	3.1112e-06	3.2415e-06	270.04	77.017	60.039	17.964	3.5534e-06	24.639	0.00036588	0.00034395	9.5817e-05	1020.3	4.111e-06	3.8239e-06	1105.9	213.9	4.1488e-06	3.8784e-06	268.66	78.751	61.708	18.593	4.2535e-06	26.074	232.952	304.178	52.811	-14.924	295.158	211.326	-14.948	-7.451	170.886	309.356	-7.854	-0.350	-0.428	6.310	139.574	5.646	-8191	255	
14058.981	1	1	0	0	0.091216	0.29881	0.21858	0.28479	0.1393	0.042759	0.26008	0.1043	0.070427	0.14564	0.042093	0.14829	0.064313	0.14346	0.16179	0.19917	-2.4542	-3.0396	-2.4542	-3.1521	-2.8833	-2.5958	-3.3146	-2.4917	-2.8729	-3.2021	-2.4875	-3.025	-2.8146	-2.6458	-3.1917	-2.6458	334.055	266.081	301.430	299.943	257.156	71.062	237.005	268.427	321.428	287.812	171.806	323.275	253.758	232.673	110.404	158.679	0.00011127	0.00052114	6.0717e-05	1055.8	2.1098e-06	6.0031e-06	1151.6	215.88	2.0236e-06	3.6576e-06	273.81	77.233	60.599	17.988	2.5155e-06	25.007	0.00039477	0.0003703	0.00011227	1035.8	4.3079e-06	4.0473e-06	1121.9	216.28	4.1983e-06	3.8929e-06	272.8	79.052	61.928	18.668	4.4629e-06	25.987	218.186	50.245	193.237	-15.226	43.846	105.326	-14.887	-7.621	79.091	116.613	-8.375	-0.575	-0.473	6.100	223.448	5.529	-8191	255	
14059.077	1	1	0	0	0.1154	0.039858	0.079056	0.46686	0.15128	0.12128	0.31797	0.13146	0.040456	0.099382	0.17441	0.11839	0.053541	0.15602	0.14032	0.10256	-2.275	-2.8896	-2.375	-3.1437	-2.8833	-2.4938	-3.3	-2.6167	-2.7333	-3.1958	-2.6271	-3.0229	-2.9	-2.5396	-2.8729	-2.5542	-5.864	218.524	108.864	300.332	-25.260	81.489	246.280	60.741	154.424	318.184	225.916	-22.593	141.324	3.138	121.603	17.602	0.00010351	0.00016087	2.716e-05	1064.2	4.9342e-06	2.2225e-06	1158.4	217.29	4.1312e-06	3.062e-06	275.28	77.306	60.628	18.063	2.5334e-07	24.871	0.00036432	0.00035326	0.00011341	1038.9	4.0112e-06	3.9012e-06	1128.5	216.64	4.0726e-06	3.9871e-06	275.04	78.949	62.138	18.876	4.8229e-06	26.064	303.910	64.125	136.877	-15.179	11.664	150.839	-14.857	-7.578	227.663	169.124	-7.825	-0.642	-0.224	6.417	14.717	5.537	-8191	255	
14059.150	1	1	0	0	0.082663	0.082713	0.12261	0.042916	0.10357	0.37221	0.22092	0.10778	0.21529	0.11664	0.27907	0.20566	0.13124	0.089135	0.015053	0.11598	-2.0729	-2.975	-2.4604	-2.8458	-2.8854	-2.5521	-3.2771	-2.8771	-2.4062	-3.2667	-2.6729	-2.525	-2.9771	-2.6333	-2.9896	-2.7479	242.311	-11.567	82.217	126.342	272.820	156.326	276.172	-20.559	305.029	93.812	279.914	303.155	18.435	188.192	325.598	229.271	0.0001	0.00046249	0.00012618	1068.2	3.1431e-06	4.0027e-06	1164.3	218.05	2.517e-06	8.7074e-06	276.3	78.242	61.178	18.117	4.2009e-06	24.898	0.00037727	0.00039399	0.00012648	1043.7	4.1829e-06	4.4476e-06	1135.2	217.49	4.1456e-06	4.4794e-06	277.08	79.447	62.456	19.075	4.8173e-06	26.084	229.601	73.708	19.041	-15.242	188.682	198.765	-14.981	-7.339	14.192	178.180	-7.862	-0.906	-0.113	5.837	43.857	5.500	-8191	255	
14059.271	1	1	0	0	0.081305	0.1732	0.17819	0.077448	0.16168	0.071267	0.056343	0.070195	0.31605	0.074474	0.079994	0.27942	0.10311	0.23691	0.084863	0.12056	-2.0979	-3.1542	-2.5146	-2.7125	-3.0167	-2.4813	-3.05	-2.9104	-2.5	-3.1312	-2.6937	-2.7292	-3.0604	-2.3229	-2.9167	-2.875	106.572	23.638	246.291	308.105	287.075	304.039	126.837	208.030	211.067	119.394	243.784	83.088	75.625	96.872	116.984	168.969	0.00022342	0.00051588	0.00012265	1070	2.7126e-06	5.9803e-06	1166.6	220.31	2.8985e-06	4.731e-06	278.61	78.063	61.027	18.153	3.7857e-06	25.195	0.00037332	0.00041583	0.00012082	1043.8	4.0683e-06	4.6532e-06	1136.7	217.83	4.0952e-06	4.6622e-06	276.46	79.111	62.444	19.167	4.4633e-06	25.993	225.831	97.429	35.529	-15.263	76.794	62.845	-15.102	-7.354	31.210	149.531	-8.033	-0.500	-0.634	6.355	-8.450	5.962	-8191	255	
14059.365	1	1	0	0	0.15805	0.030484	0.07963	0.18472	0.16408	0.083041	0.076209	0.022671	0.11871	0.24912	0.15237	0.10011	0.080745	0.20956	0.18375	0.15762	-1.9167	-2.9792	-2.5833	-2.8187	-3	-2.3375	-3.075	-3.1292	-2.4062	-3.0687	-2.8708	-2.5333	-2.9292	-2.5146	-2.7458	-3.0729	271.338	115.794	146.825	284.727	203.587	311.093	220.778	239.124	265.875	-20.998	332.310	305.484	268.072	260.675	154.327	-13.859	0.00021834	0.00024676	5.867e-05	1071.4	2.9818e-06	4.5028e-06	1165.3	218.9	3.6777e-06	1.4191e-06	277.24	78.576	61.18	18.174	4.6876e-06	25.136	0.00036659	0.00042322	0.00011066	1043.8	3.988e-06	4.6341e-06	1134.2	217.11	4.081e-06	4.6412e-06	275.48	78.994	62.806	19.191	4.1665e-06	25.91	235.139	110.549	90.514	-15.244	84.500	133.268	-15.199	-7.221	273.804	260.268	-8.152	-0.692	-0.187	6.106	70.741	5.638	-8191	255	
14059.461	1	1	0	0	0.08407	0.28184	0.19282	0.48135	0.20764	0.10649	0.23954	0.13607	0.26867	0.25836	0.18759	0.20094	0.26276	0.31872	0.097064	0.12393	-2.1771	-2.9583	-2.8729	-2.7083	-3.2792	-2.5083	-2.8625	-3.1292	-2.4542	-2.9125	-2.9083	-2.7313	-3.3417	-2.6708	-2.7208	-2.9771	-21.723	267.474	172.164	252.861	242.089	175.600	262.615	27.237	331.909	271.988	266.004	192.309	293.801	217.135	300.539	13.013	0.000205	0.00015502	0.00012907	1078.2	3.2925e-06	5.867e-06	1173.3	220	6.0981e-06	2.8632e-06	278.38	78.515	61.511	18.252	5.4281e-06	25.076	0.00038261	0.00042034	0.00010634	1046.4	4.2513e-06	4.5309e-06	1137.2	217.21	4.3361e-06	4.4652e-06	275.04	78.869	62.944	19.12	4.0552e-06	25.828	234.164	258.372	29.945	-15.385	163.197	70.205	-15.215	-7.197	283.704	140.038	-7.831	-0.769	-0.267	6.138	117.105	5.642	-8191	255	
14059.582	1	1	0	0	0.18039	0.15451	0.16277	0.03423	0.33369	0.22411	0.27642	0.18006	0.081023	0.088078	0.18538	0.24326	0.22734	0.023303	0.16042	0.023756	-2.1146	-2.9396	-2.7083	-2.7021	-3.1271	-2.55	-2.6979	-3.1479	-2.5896	-2.7438	-2.9688	-2.4167	-3.1	-2.6937	-2.5479	-3.2146	223.406	164.299	-23.264	301.919	281.256	57.683	235.969	312.242	67.346	265.515	-19.157	96.354	293.414	175.796	299.799	311.095	0.00024559	0.00019198	0.00010496	1075.8	1.9447e-06	5.5161e-07	1169.6	219.14	7.9991e-07	6.0998e-06	278.04	78.545	61.762	18.139	2.5784e-06	25.095	0.00039701	0.0004005	0.00010118	1044.6	4.4187e-06	4.3223e-06	1134.7	217.14	4.5231e-06	4.3022e-06	274.36	79.059	63.343	18.973	4.0514e-06	25.894	250.044	-7.221	69.015	-15.132	106.702	219.748	-14.990	-7.430	87.061	44.721	-7.829	-0.575	0.052	7.252	12.437	5.926	-8191	255	
14059.678	1	1	0	0	0.1115	0.22416	0.065416	0.18202	0.01521	0.22211	0.22387	0.13609	0.058444	0.21492	0.19082	0.19812	0.14355	0.053656	0.065021	0.21035	-2.0646	-2.6979	-3.0479	-2.4521	-3.2875	-2.6833	-2.5646	-3	-2.4646	-2.7812	-2.9604	-2.5542	-2.9833	-2.6937	-2.3438	-3.1042	147.603	218.571	284.654	270.801	7.633	287.416	211.935	265.823	93.683	318.127	291.753	308.340	125.372	36.197	9.137	248.049	0.00013413	0.00072165	0.00011044	1071.7	3.4569e-06	2.8484e-06	1172	218.99	6.6453e-06	6.4388e-06	280.01	78.003	61.53	18.082	5.3707e-06	25.206	0.00042385	0.00039213	0.00010209	1044.8	4.6901e-06	4.2972e-06	1134.2	218.16	4.6885e-06	4.2064e-06	274.46	79.395	63.255	18.894	3.9083e-06	26.101	237.429	-7.196	5.215	-15.346	33.978	181.675	-15.235	-7.384	229.418	207.604	-7.877	-0.794	-0.127	6.648	122.382	5.511	-8191	255	
14059.774	1	1	0	0	0.31824	0.35969	0.10159	0.090005	0.12458	0.20916	0.34111	0.21172	0.10208	0.13436	0.24979	0.19494	0.12082	0.19455	0.18694	0.070558	-1.9854	-2.6917	-2.7854	-2.4125	-3.0167	-3.0542	-2.7562	-3.3646	-2.6292	-2.6813	-2.9146	-2.5604	-2.8646	-2.8458	-2.5458	-3.0917	327.863	108.849	118.945	94.065	-3.474	32.362	-16.353	327.259	270.014	322.650	56.637	-18.166	126.120	199.491	-15.083	155.415	6.7694e-05	0.00041918	0.00017878	1073.8	5.5562e-06	1.0686e-06	1170.9	219.24	4.6339e-06	3.873e-06	279.04	78.306	61.503	18.197	2.7237e-06	25.091	0.00040975	0.00037257	9.8906e-05	1047.2	4.4196e-06	4.0029e-06	1131.8	218.49	4.2749e-06	3.8989e-06	274.12	79.567	62.786	18.782	3.6525e-06	26.002	269.704	207.867	64.368	-15.264	81.401	92.784	-15.259	-6.989	127.380	87.309	-7.756	-0.380	-0.432	6.300	55.391	5.616	-8191	255	
14059.871	1	1	0	0	0.041615	0.19079	0.11914	0.24124	0.23485	0.20832	0.26919	0.099451	0.021426	0.038896	0.13466	0.26975	0.14635	0.28173	0.1892	0.1758	-2.3021	-2.7521	-3.1271	-2.3292	-2.9521	-2.9125	-2.4333	-3.2271	-2.7062	-2.5146	-3.2792	-2.5771	-2.7729	-2.85	-2.5271	-2.9938	168.979	18.191	119.342	319.208	113.016	175.978	285.828	280.262	-9.951	52.603	103.740	287.705	199.227	2.247	231.985	244.611	7.8164e-05	0.00028051	1.9798e-05	1070	2.5887e-06	2.0157e-06	1165.9	219.28	4.6603e-06	1.1991e-06	278.15	78.593	61.463	18.142	2.9934e-06	25.147	0.00036411	0.00033904	9.1363e-05	1043.5	3.8855e-06	3.5936e-06	1128	217.91	3.7589e-06	3.5255e-06	272.75	79.204	62.089	18.588	3.6578e-06	25.931	246.811	53.797	60.123	-15.267	64.019	95.172	-15.243	-7.455	68.723	265.213	-7.671	-0.286	0.218	6.650	247.185	5.438	-8191	255	
14059.967	1	1	0	0	0.090274	0.11034	0.13053	0.28425	0.16679	0.11741	0.27778	0.16058	0.077442	0.14316	0.18183	0.15054	0.21615	0.29289	0.031886	0.06822	-2.2604	-2.2208	-3.0354	-2.625	-2.5646	-2.9958	-2.5563	-3.2104	-2.825	-2.575	-3.1458	-2.6771	-2.6771	-3.0333	-2.5458	-2.9771	37.848	205.634	127.132	296.241	86.429	140.690	57.723	267.802	111.842	284.001	137.432	325.649	-2.797	262.847	49.664	268.274	0.00014243	0.00016682	0.00014503	1068.1	1.1461e-06	5.0789e-06	1163.9	218.31	2.3039e-06	4.8316e-06	278.89	78.4	61.621	18.16	7.0153e-06	25.142	0.00033601	0.00031652	9.5268e-05	1040.8	3.7363e-06	3.4946e-06	1128.8	217.3	3.7472e-06	3.5394e-06	275.46	79.184	62.208	18.638	4.1271e-06	25.993	210.159	66.650	94.727	-15.256	122.236	91.339	-15.079	-7.233	-24.919	92.145	-7.889	-0.605	-0.423	6.494	135.792	5.957	-8191	255	
14060.063	1	1	0	0	0.053915	0.040637	0.071172	0.19486	0.2255	0.30569	0.17723	0.35304	0.13835	0.14494	0.11875	0.32588	0.2025	0.22606	0.092198	0.16325	-2.4896	-2.4688	-2.975	-2.7271	-2.5729	-3.0563	-2.5917	-2.9854	-2.9625	-2.4771	-3.0625	-2.5375	-2.5438	-3.2479	-2.4417	-3.0312	72.106	298.219	18.623	246.991	177.468	215.354	175.538	302.535	122.335	126.886	4.878	29.738	202.294	215.645	-16.501	-17.731	0.00015954	0.00013226	1.8606e-05	1066	4.842e-06	2.8119e-06	1165.3	219.51	2.3555e-06	2.8684e-06	279.59	78.174	61.04	18.279	8.1557e-06	24.866	0.00034624	0.00033081	0.00010679	1042.4	3.7641e-06	3.6214e-06	1131.7	217.58	3.6802e-06	3.6509e-06	276.39	78.752	61.874	18.708	4.2501e-06	25.836	239.603	62.194	233.160	-15.078	194.151	145.303	-14.958	-7.392	174.337	172.089	-8.099	-0.462	-0.548	6.938	129.174	5.485	-8191	255	
14060.157	1	1	0	0	0.08562	0.13051	0.22191	0.14186	0.23018	0.16691	0.14468	0.30945	0.15548	0.2076	0.074926	0.14588	0.14251	0.1949	0.26305	0.16895	-2.7208	-2.2687	-2.9604	-2.8312	-2.6104	-3.0375	-2.5854	-2.7625	-2.9417	-2.4583	-3.1083	-2.6958	-2.6208	-2.9979	-2.5542	-2.7646	26.958	304.700	294.182	305.234	34.489	224.407	-24.152	102.761	166.916	324.235	4.165	244.434	260.465	225.210	308.994	52.476	0.00013635	0.00024867	0.00023457	1066.5	5.8491e-06	3.788e-06	1164.5	219.22	6.6379e-06	3.7335e-06	280.26	78.783	61.445	18.093	2.3983e-06	24.932	0.00033107	0.00034216	0.00010875	1039.8	3.6397e-06	3.7844e-06	1131.1	217.31	3.5964e-06	3.8784e-06	276.32	78.816	61.925	18.824	4.1564e-06	25.692	264.583	151.067	36.506	-15.138	37.369	164.465	-14.933	-7.321	275.238	157.710	-8.038	-0.513	-0.388	6.458	125.163	5.824	-8191	255	
14060.278	1	1	0	0	0.16925	0.25377	0.28036	0.0073974	0.17254	0.10426	0.42061	0.30565	0.18193	0.25305	0.29477	0.27124	0.27542	0.10398	0.084729	0.18809	-2.4833	-2.4562	-2.9333	-2.8688	-2.5708	-3.1458	-2.7771	-2.7333	-3.1	-2.2979	-2.9958	-2.8458	-2.6417	-3.2083	-2.5104	-2.5583	63.356	44.599	133.001	41.557	65.524	102.294	301.785	264.860	295.774	227.500	217.147	281.382	294.999	279.302	144.931	166.540	0.00012499	0.00078818	0.00014089	1070	1.2131e-06	2.8433e-06	1169.6	220.64	5.1623e-06	6.4785e-06	278.26	78.214	61.404	18.113	2.8383e-06	25.116	0.00032197	0.00036313	0.0001055	1040.1	3.5737e-06	4.0652e-06	1132	217.05	3.5512e-06	4.1389e-06	275.81	78.464	62.105	18.913	4.0132e-06	25.709	232.356	64.980	108.631	-14.931	-24.062	175.625	-15.016	-7.350	214.948	129.020	-7.939	-0.222	-0.481	6.724	-14.037	5.706	-8191	255	
14060.374	1	1	0	0	0.16384	0.13533	0.1361	0.02566	0.14568	0.20283	0.2039	0.1745	0.23492	0.051489	0.13561	0.055587	0.25004	0.033399	0.096787	0.20448	-2.625	-2.4021	-2.7583	-3.2104	-2.3812	-3.0438	-2.8917	-2.5396	-2.9958	-2.4396	-2.8708	-2.85	-2.3271	-3.1146	-2.6583	-2.55	24.781	247.999	174.031	196.172	209.545	176.546	325.002	74.663	300.366	71.427	243.489	-24.701	127.318	107.088	123.861	62.882	0.00017498	0.00030374	0.00012372	1071.9	4.6586e-06	1.3409e-06	1169.4	218.28	5.9538e-06	6.2686e-06	280.04	78.57	61.336	18.053	3.664e-06	25.275	0.00032746	0.00038928	0.0001026	1041.3	3.7361e-06	4.3278e-06	1133.7	216.7	3.7378e-06	4.3304e-06	275.88	78.735	62.256	19.06	3.9347e-06	25.731	262.827	81.050	-12.307	-15.043	132.407	115.631	-15.019	-7.136	251.128	108.455	-8.271	-0.326	0.005	6.645	155.051	5.575	-8191	255	
14060.446	1	1	0	0	0.261	0.12476	0.11969	0.26663	0.0783	0.21251	0.084402	0.16012	0.034945	0.21074	0.27395	0.18048	0.092229	0.10924	0.25951	0.23515	-2.7271	-2.4833	-2.6979	-3.1875	-2.3896	-2.9938	-2.9	-2.5521	-3.1729	-2.4625	-2.8583	-3.0479	-2.5	-2.8729	-2.8063	-2.475	59.943	230.221	121.871	288.807	224.431	133.004	233.178	67.648	177.109	277.822	202.320	-9.941	322.428	144.980	-5.030	96.582	0.00020374	0.00051068	0.00010816	1072.8	6.9211e-06	3.1898e-06	1169.5	219.33	9.8694e-07	3.5607e-06	279.47	78.752	61.905	18.23	2.0051e-06	24.968	0.00035891	0.00040244	0.00010098	1043.3	4.0724e-06	4.3818e-06	1132.8	216.89	4.1362e-06	4.3491e-06	275.81	78.966	62.955	19.091	3.8976e-06	25.738	248.678	-20.616	179.466	-15.140	115.687	38.868	-14.920	-7.496	161.781	126.038	-7.914	-0.645	-0.036	6.562	92.156	5.755	-8191	255	
14060.542	1	1	0	0	0.095435	0.087132	0.17122	0.072197	0.29052	0.29551	0.15946	0.067052	0.18274	0.076388	0.25684	0.1113	0.084713	0.12028	0.071839	0.06589	-2.7708	-2.3958	-2.7521	-3.2146	-2.3167	-2.825	-3.0708	-2.425	-3.0979	-2.5729	-2.6208	-3.1708	-2.3021	-3.0396	-2.7229	-2.4875	208.679	179.881	-12.532	226.088	50.039	22.070	258.376	215.604	296.980	177.666	312.998	26.213	298.254	121.517	201.130	122.747	0.00030191	0.00012718	6.1805e-05	1070.8	2.1709e-06	2.4756e-06	1173.3	220.06	6.7629e-06	1.2721e-06	279.82	78.686	62.028	18.127	2.9603e-06	25.093	0.00038676	0.00038916	9.9654e-05	1043.5	4.3203e-06	4.1839e-06	1135.2	217.7	4.3557e-06	4.1465e-06	275.79	78.986	63.236	18.948	3.7945e-06	25.848	249.443	79.910	76.562	-15.175	116.028	60.088	-14.799	-7.542	152.310	234.411	-7.945	-0.318	-0.084	6.285	85.083	6.155	-8191	255	
14060.662	1	1	0	0	0.22525	0.044484	0.10725	0.081493	0.15137	0.28195	0.20336	0.29609	0.052261	0.24054	0.088644	0.1645	0.23868	0.19359	0.19801	0.32748	-2.6604	-2.6417	-2.4854	-3.1625	-2.5021	-2.9083	-3.1208	-2.5312	-2.9771	-2.6813	-2.6813	-3.0021	-2.3375	-2.7313	-2.925	-2.6437	60.757	23.042	89.537	89.988	152.177	322.864	294.756	318.586	174.905	313.924	148.597	229.830	32.459	3.729	197.906	308.280	0.00015661	0.00032898	8.712e-05	1077.3	3.2684e-06	4.3987e-06	1170.2	219.33	3.2788e-06	3.4984e-06	280.43	79.204	61.133	18.105	4.5695e-06	25.136	0.00039814	0.0003733	9.6643e-05	1045.8	4.4542e-06	4.0403e-06	1131.9	217.79	4.4516e-06	3.9915e-06	276	79.656	63.129	18.845	3.7049e-06	25.988	221.026	34.239	84.073	-15.250	115.194	94.756	-14.906	-7.378	334.328	224.244	-8.064	-0.480	0.155	6.333	129.663	5.783	-8191	255	
14060.759	1	1	0	0	0.13747	0.086721	0.16883	0.14309	0.17328	0.056192	0.14027	0.28954	0.10544	0.12566	0.20653	0.30963	0.16152	0.15393	0.093397	0.29911	-2.425	-2.7417	-2.2917	-3.0271	-2.7229	-2.675	-3.2104	-2.4521	-3.0187	-2.7792	-2.4875	-3.1208	-2.6271	-2.5062	-2.9688	-2.4688	176.915	243.052	50.130	28.335	92.265	254.258	282.196	277.739	303.683	314.663	257.337	72.786	-9.957	245.183	119.985	141.865	0.00015711	0.00054507	4.6975e-05	1076.9	1.7201e-06	5.4123e-06	1173.9	219.91	3.7472e-06	1.8085e-06	281.05	78.693	61.587	18.181	5.1905e-06	25.144	0.00039525	0.00036081	9.4584e-05	1047.3	4.3033e-06	3.9179e-06	1134.6	219.02	4.2148e-06	3.8615e-06	276.22	79.619	63.015	18.852	3.6823e-06	26.121	239.273	54.946	222.585	-14.989	10.839	45.983	-14.743	-7.190	254.587	-20.941	-7.845	-0.397	-0.264	6.903	220.256	5.816	-8191	255	
14060.855	1	1	0	0	0.10411	0.11662	0.097421	0.3655	0.08647	0.12304	0.41147	0.14608	0.0011245	0.34545	0.11881	0.062327	0.085519	0.22727	0.14665	0.20029	-2.5458	-2.8979	-2.3396	-3.1958	-2.6188	-2.6542	-3.2479	-2.4375	-2.8708	-2.8312	-2.5438	-3.1521	-2.7729	-2.5333	-3.1375	-2.5958	138.819	199.915	67.952	253.413	119.420	65.911	301.767	311.165	180.000	254.701	272.309	285.792	84.719	203.681	148.555	104.606	0.00015155	0.00042651	4.472e-05	1082.2	4.6523e-06	5.2626e-06	1175.5	220.54	3.6878e-06	9.5258e-07	280.01	79.125	62.167	18.102	9.3548e-06	25.017	0.00037233	0.00034692	9.6395e-05	1051.3	4.0308e-06	3.754e-06	1135.3	219.5	4.0391e-06	3.7484e-06	276.22	80.053	62.821	18.74	3.8612e-06	26.166	240.707	65.109	129.665	-15.202	48.869	137.909	-15.077	-7.479	305.490	140.592	-8.075	-0.481	-0.385	5.978	136.980	6.160	-8191	255	
14060.951	1	1	0	0	0.12294	0.033714	0.24306	0.2377	0.16356	0.16358	0.1553	0.084224	0.16278	0.17813	0.16961	0.13365	0.24818	0.18044	0.16208	0.18808	-2.6083	-3.0667	-2.4729	-3.1896	-2.6979	-2.6	-3.4167	-2.6146	-2.775	-3.0208	-2.5125	-3.0521	-3.0062	-2.6854	-3.1	-2.6458	171.397	72.682	193.023	18.732	49.751	152.222	330.200	192.221	233.780	281.070	-24.035	14.145	307.335	172.001	137.146	106.133	0.00014059	0.00047395	5.5572e-05	1076.2	2.9137e-06	2.074e-06	1174	219.72	3.9458e-06	1.7487e-06	281.1	78.697	61.707	18.201	3.4851e-07	24.824	0.00035732	0.0003361	0.00010148	1049.7	3.9297e-06	3.6863e-06	1138.6	219.3	3.9334e-06	3.6657e-06	277.61	79.767	62.511	18.75	4.1839e-06	25.981	-3.526	92.951	221.280	-15.061	97.188	216.821	-14.830	-7.300	230.763	165.037	-8.025	-0.355	-0.077	6.441	57.309	5.833	-8191	255	
14061.072	1	1	0	0	0.0049181	0.07704	0.20187	0.07703	0.056015	0.14294	0.11351	0.16953	0.23377	0.033342	0.2208	0.40343	0.10468	0.021403	0.11564	0.085769	-2.3646	-2.8708	-2.3604	-2.9583	-3.0417	-2.4437	-3.2667	-2.7458	-2.5646	-3.0187	-2.5625	-3.0542	-2.8979	-2.5542	-3.0542	-2.6229	198.007	277.752	34.988	178.752	54.293	195.295	311.558	274.067	157.960	289.943	239.927	274.293	192.799	-19.952	109.047	269.520	0.0001952	3.9385e-05	0.00010434	1080.5	8.7258e-06	4.1505e-06	1172.9	221.22	2.0204e-06	3.4677e-06	282.23	79.149	61.468	18.257	4.5323e-06	25.056	0.00034711	0.00033279	0.00010683	1048.9	3.7795e-06	3.7052e-06	1138.3	219.19	3.8054e-06	3.7082e-06	279.16	79.739	62.311	18.826	4.3277e-06	25.956	238.281	170.469	210.775	-15.344	-4.753	185.590	-15.006	-7.413	123.243	164.021	-7.974	-0.457	-0.541	6.657	210.909	6.319	-8191	255	
14061.143	1	1	0	0	0.15218	0.16706	0.24169	0.11304	0.11109	0.28495	0.33055	0.058921	0.058528	0.31026	0.22923	0.17181	0.14108	0.054494	0.09951	0.089259	-2.0521	-3.0667	-2.575	-3.0062	-3.0563	-2.3646	-3.0854	-2.8896	-2.6083	-3.1667	-2.5854	-2.8	-2.9833	-2.3375	-3.0646	-2.8521	-0.077	178.629	41.940	44.807	159.992	39.094	259.871	288.095	53.959	272.048	212.553	211.333	198.464	205.945	327.520	8.839	0.00017347	0.00043423	8.2233e-05	1076	2.8014e-06	3.1524e-06	1173.5	220.47	4.1679e-06	3.6111e-06	281.37	78.772	62.059	18.117	3.3085e-06	25.283	0.00033701	0.00034679	0.00011099	1046.8	3.7036e-06	3.8622e-06	1139.3	218.64	3.6723e-06	3.9047e-06	278.75	79.362	62.334	18.938	4.2685e-06	25.805	317.994	124.624	3.636	-15.123	-22.816	147.915	-14.962	-7.559	319.509	193.565	-8.083	-0.235	-0.240	6.899	85.108	5.804	-8191	255	
14061.262	1	1	0	0	0.19743	0.29029	0.096495	0.10747	0.34697	0.25964	0.41804	0.15439	0.10106	0.031496	0.22589	0.37921	0.14452	0.31803	0.19142	0.13325	-2.0146	-3.1312	-2.3667	-2.7208	-3.0625	-2.2542	-3.2125	-2.8208	-2.3646	-3.0312	-2.6729	-2.5875	-3.1083	-2.4083	-2.8792	-2.85	224.247	260.317	330.611	266.565	178.094	234.703	285.090	323.422	248.789	139.577	164.408	327.839	48.882	333.628	169.421	70.050	0.00019529	0.0002632	6.7128e-05	1078.4	2.1581e-06	3.3241e-06	1173.5	221.32	2.1286e-06	5.5791e-06	282	78.507	62.391	18.264	5.941e-06	25.189	0.00032899	0.00037072	0.00010744	1046.3	3.6583e-06	4.1199e-06	1139	218.88	3.6305e-06	4.1875e-06	278.92	79.207	62.494	19.112	4.1167e-06	25.79	256.020	311.522	291.357	-15.245	123.813	162.641	-14.784	-7.266	180.140	222.407	-8.184	-0.506	-0.056	6.642	54.311	6.058	-8191	255	
14061.358	1	1	0	0	0.19035	0.11019	0.072415	0.027655	0.34303	0.2234	0.23832	0.19686	0.16842	0.17975	0.14597	0.17112	0.16813	0.097399	0.15546	0.059213	-2.0125	-3.1333	-2.7042	-2.6354	-3.0479	-2.6667	-3.0583	-2.9396	-2.3583	-3.0687	-2.6813	-2.6042	-3.2188	-2.4604	-2.8208	-2.975	-19.925	-17.846	172.935	253.253	262.435	317.755	278.047	230.166	101.603	39.335	319.319	193.616	253.506	58.854	171.319	256.332	0.00015946	0.0002072	0.0001052	1075.7	6.9696e-06	2.7162e-06	1178.4	222.22	3.6987e-06	1.3019e-06	281.4	78.881	61.744	18.272	7.3907e-06	25.133	0.00033407	0.00039351	0.00010357	1046.6	3.744e-06	4.3058e-06	1140.2	218.94	3.8076e-06	4.3337e-06	278.54	79.288	62.594	19.135	4.0076e-06	25.795	230.673	300.420	298.649	-15.139	81.531	86.644	-15.006	-7.320	313.027	157.072	-7.835	-0.353	-0.132	6.577	41.748	6.004	-8191	255	
14061.454	1	1	0	0	0.17083	0.18821	0.19408	0.29645	0.080355	0.14331	0.27315	0.097369	0.078376	0.29446	0.33836	0.037108	0.32186	0.22765	0.12198	0.10366	-2	-3.0438	-2.5625	-2.5687	-3.0354	-2.5375	-2.9042	-3.0792	-2.3646	-3.0958	-2.9875	-2.6625	-3.0542	-2.6542	-2.875	-3.0646	252.063	287.462	76.159	311.202	329.846	39.210	12.848	278.482	312.087	37.505	-7.537	286.753	289.744	93.542	244.078	152.636	0.00024616	0.00051985	6.2201e-05	1074.4	6.0448e-06	7.2377e-07	1176.2	222.48	1.0648e-06	3.8041e-06	283.31	79.279	61.978	18.158	3.9512e-06	25.193	0.00035864	0.00039795	9.9464e-05	1047.3	4.0154e-06	4.3458e-06	1138.6	219.04	4.0877e-06	4.3357e-06	278.69	79.107	63.29	19.073	3.9094e-06	25.705	238.754	84.256	12.078	-15.124	124.957	41.713	-14.938	-7.437	328.807	99.181	-7.577	-0.725	-0.412	6.560	72.440	6.026	-8191	255	
14061.551	1	1	0	0	0.24764	0.044947	0.15592	0.21526	0.23828	0.19238	0.17674	0.45743	0.23818	0.11675	0.073729	0.21999	0.16333	0.085953	0.14888	0.084042	-1.8062	-3.0292	-2.6771	-2.625	-3.0083	-2.5667	-2.7646	-3.0792	-2.4458	-2.9521	-3.0542	-2.4792	-3.1063	-2.7438	-2.5812	-3.1604	204.293	126.245	243.438	231.276	12.678	3.739	289.962	-3.716	242.310	309.162	322.816	279.316	130.833	271.558	27.901	260.517	0.00033639	0.00043045	0.00013375	1081.8	3.9571e-06	1.7675e-06	1175.5	221.84	5.6408e-06	1.5625e-06	284	79.064	62.08	18.27	2.4125e-06	25.097	0.00038619	0.00038857	9.8984e-05	1048.4	4.3123e-06	4.187e-06	1139.3	219.56	4.3444e-06	4.162e-06	278.91	79.237	63.637	19	3.8293e-06	25.848	249.952	300.501	97.661	-15.211	99.069	121.801	-14.831	-7.092	-11.342	107.003	-7.854	-0.697	-0.182	6.625	285.141	6.187	-8191	255	
14061.671	1	1	0	0	0.24574	0.32045	0.18354	0.15424	0.063756	0.23609	0.15251	0.086173	0.13789	0.14339	0.17019	0.14002	0.14475	0.036486	0.22353	0.14663	-1.8563	-2.8458	-2.9708	-2.575	-3.2	-2.6729	-2.7042	-3.2083	-2.7104	-2.7167	-3.0292	-2.4813	-2.925	-2.8021	-2.5896	-3.1813	238.703	-16.275	27.904	-7.521	22.316	158.125	310.480	135.659	185.552	47.592	188.614	270.290	312.405	252.960	140.426	230.332	0.00021069	0.00034511	4.2239e-05	1079.2	2.3864e-06	1.4191e-06	1180.8	222.41	2.5481e-06	1.5105e-06	282.16	79.485	62.945	18.325	2.3829e-06	25.246	0.00040073	0.00037264	9.5102e-05	1049.1	4.3893e-06	3.9581e-06	1138.7	220.53	4.3648e-06	3.973e-06	277.83	79.907	63.76	18.955	3.662e-06	26.097	229.559	4.932	229.579	-15.283	125.683	124.606	-14.884	-7.482	267.881	39.453	-7.869	-0.852	-0.396	6.290	187.352	5.732	-8191	255	
14061.743	1	1	0	0	0.083294	0.19954	0.061477	0.29869	0.29248	0.24339	0.12775	0.066993	0.096667	0.088761	0.13526	0.1808	0.098128	0.22998	0.10338	0.18008	-2.2229	-2.6542	-3.2062	-2.5104	-3.0208	-3.0375	-2.65	-3.1958	-2.6312	-2.7542	-3.1333	-2.6875	-2.8083	-2.8458	-2.6063	-3.1104	-20.914	162.287	280.765	290.103	45.050	65.225	241.483	289.644	221.363	179.097	220.606	259.853	78.543	88.182	285.335	240.089	2.9741e-05	0.00012282	0.00010739	1080.7	2.439e-06	8.9081e-07	1174.9	223.75	2.3003e-06	3.5541e-06	284.05	79.697	62.405	18.291	2.5573e-06	25.159	0.00038538	0.00035566	9.3929e-05	1050.9	4.2318e-06	3.843e-06	1139.2	221.56	4.1982e-06	3.8347e-06	278.55	80.181	63.381	18.921	3.6839e-06	26.111	208.441	204.801	62.187	-15.118	166.063	77.860	-15.304	-7.376	325.221	181.683	-7.958	-0.352	-0.134	6.239	143.054	5.795	-8191	255	
14061.839	1	1	0	0	0.26718	0.20401	0.23764	0.13087	0.26708	0.2522	0.3145	0.24559	0.18714	0.17693	0.14001	0.15585	0.11607	0.088418	0.165	0.14062	-2.1854	-2.7583	-2.9458	-2.5417	-2.9062	-2.7458	-2.7188	-3.1688	-2.8333	-2.7396	-3.0812	-2.7542	-2.8312	-2.9729	-2.3771	-3.0979	113.563	40.996	314.826	272.023	269.992	6.729	296.341	242.288	269.424	248.114	176.325	323.939	33.879	316.170	120.636	327.434	0.00020263	0.00017911	6.946e-05	1081.1	3.8901e-06	9.472e-07	1177.4	223.65	3.5976e-06	3.2702e-07	282.53	78.878	61.775	18.304	4.7237e-06	25.037	0.00036998	0.00034591	9.3635e-05	1054	4.0508e-06	3.7593e-06	1140.8	222.3	3.9939e-06	3.7441e-06	279.26	80.264	63.18	18.886	3.9251e-06	26.16	258.446	149.785	108.611	-15.065	53.342	31.326	-14.874	-7.288	186.528	84.618	-7.750	-0.823	-0.191	6.496	222.303	6.208	-8191	255	
14061.960	1	1	0	0	0.14294	0.20801	0.22058	0.24212	0.18772	0.18206	0.20763	0.26369	0.14976	0.062973	0.086417	0.19087	0.17687	0.13002	0.068043	0.013033	-2.1562	-2.475	-3.2687	-2.8229	-2.7417	-3.0625	-2.4125	-3.1188	-2.8896	-2.4646	-3.2708	-2.6146	-2.8521	-3.0875	-2.425	-3.0396	125.224	283.240	230.051	296.370	40.752	325.437	292.940	314.777	-22.082	58.962	24.996	266.152	245.063	314.969	246.052	110.068	0.0001808	0.00050029	9.8876e-05	1081.8	3.777e-06	1.8025e-06	1179.2	221.85	1.7848e-06	3.9676e-06	284.34	79.638	62.22	18.341	3.2654e-06	25.275	0.0003588	0.00033805	0.000101	1056.1	3.9125e-06	3.6935e-06	1142.4	221.88	3.8893e-06	3.6733e-06	281.52	80.489	63.036	18.885	4.1715e-06	26.167	231.897	-2.701	54.072	-15.057	21.086	103.784	-14.953	-7.269	21.889	122.262	-7.717	-0.944	-0.115	6.459	192.320	5.682	-8191	255	
14062.056	1	1	0	0	0.28749	0.08002	0.29897	0.25528	0.23806	0.059153	0.17908	0.12785	0.15973	0.12942	0.18028	0.13091	0.093271	0.047566	0.10367	0.062883	-2.4625	-2.4437	-2.9938	-2.925	-2.5167	-3.0771	-2.6271	-3.0458	-2.8312	-2.4542	-3.1792	-2.625	-2.7438	-3.175	-2.4354	-2.9625	268.859	184.206	330.678	-12.539	12.975	65.885	322.265	322.275	39.945	231.103	297.584	55.409	153.575	293.446	164.845	11.614	0.0001209	0.00022931	0.00017701	1080.3	4.3821e-06	5.8464e-06	1177.9	223.47	4.1538e-06	8.3358e-07	282.9	79.364	62.61	18.306	1.4507e-06	25.287	0.00034618	0.00033678	0.00010777	1053.9	3.7865e-06	3.7319e-06	1145.4	221.62	3.793e-06	3.7624e-06	282.04	80.01	62.904	18.905	4.3501e-06	26.059	198.168	109.817	11.434	-14.932	90.245	183.414	-14.963	-7.572	259.455	183.265	-7.913	-0.321	-0.069	6.479	300.077	6.049	-8191	255	
14062.150	1	1	0	0	0.12513	0.138	0.053994	0.099571	0.18406	0.079481	0.30058	0.14983	0.12346	0.066838	0.30379	0.30925	0.087204	0.039833	0.10225	0.2585	-2.5604	-2.3896	-3.0896	-2.9229	-2.7354	-3.1729	-2.5375	-3.0062	-3.0375	-2.4188	-3.2542	-2.85	-2.5312	-3.0458	-2.7958	-2.7438	78.655	283.124	147.365	303.099	298.483	312.842	274.814	74.726	151.211	268.038	252.195	43.891	-6.432	182.210	227.243	25.861	8.9843e-05	0.00052965	8.8813e-05	1081.8	1.1709e-06	1.0352e-06	1178.1	223.4	1.3398e-06	3.5949e-06	282.7	79.601	62.518	18.197	1.119e-06	24.924	0.00033744	0.00035181	0.00011075	1053.4	3.7308e-06	3.8583e-06	1145.8	220.95	3.6796e-06	3.9106e-06	281.15	79.78	62.792	18.955	4.2522e-06	25.874	175.660	127.989	151.827	-15.163	222.762	-22.442	-14.679	-7.377	228.174	148.558	-8.318	-0.553	-0.606	6.823	44.032	5.350	-8191	255	
14062.246	1	1	0	0	0.22283	0.19079	0.083991	0.27712	0.077744	0.11462	0.14828	0.14682	0.21189	0.2806	0.30382	0.28019	0.21267	0.058563	0.059011	0.21549	-2.7583	-2.2646	-3.175	-2.8833	-2.5312	-3.2812	-2.6937	-2.85	-2.9521	-2.6188	-2.9833	-2.9292	-2.5729	-3.2104	-2.7313	-2.7958	-3.561	66.379	80.396	29.963	85.305	94.207	261.210	271.998	238.517	95.733	296.989	-3.040	272.892	187.889	283.394	138.674	0.00023395	0.00045213	4.2769e-05	1081.5	4.8852e-06	1.9956e-06	1178	223.54	6.3687e-07	5.0494e-06	283.76	79.485	62.287	18.345	1.0521e-05	25.268	0.00032766	0.00037057	0.00010793	1051.3	3.6578e-06	4.1137e-06	1143.3	221.17	3.6248e-06	4.2047e-06	280.85	79.701	62.744	19.161	4.0907e-06	25.851	235.429	130.722	289.352	-15.073	187.435	109.638	-14.883	-7.262	78.436	201.687	-7.861	-0.592	0.011	7.014	74.777	6.414	-8191	255	
14062.342	1	1	0	0	0.1869	0.038097	0.078438	0.27369	0.20184	0.18286	0.23514	0.12788	0.16795	0.030942	0.33419	0.30031	0.050065	0.35309	0.24435	0.097011	-2.7292	-2.4917	-2.7604	-3.0396	-2.2208	-3.1104	-2.7042	-2.6	-3.175	-2.5417	-2.7812	-2.9771	-2.3833	-3.0792	-2.7562	-2.6375	298.642	263.144	45.127	307.210	-0.013	171.138	289.010	266.943	144.924	199.341	275.623	14.643	317.773	299.208	46.080	18.839	0.00028083	0.00038094	7.428e-05	1082.8	3.8974e-06	3.5372e-06	1178.4	222.66	1.2949e-06	1.4311e-06	285.97	78.909	62.592	18.308	2.3939e-06	25.043	0.00033481	0.00039006	0.0001031	1051.2	3.6972e-06	4.2781e-06	1142.7	220.3	3.7276e-06	4.2631e-06	280.09	79.316	63.096	19.201	3.9435e-06	25.799	207.952	17.661	-25.055	-15.069	86.379	119.020	-14.700	-7.299	298.493	107.057	-7.666	-0.377	0.180	6.321	88.422	5.777	-8191	255	
14062.439	1	1	0	0	0.18206	0.18742	0.16514	0.19576	0.29629	0.065291	0.10424	0.17376	0.049741	0.14234	0.097843	0.13751	0.076268	0.15456	0.22082	0.091771	-2.8458	-2.5625	-2.8958	-3.1667	-2.6771	-3.0438	-2.9417	-2.4375	-3.1542	-2.7542	-2.7771	-3.075	-2.6354	-3.0292	-3.0563	-2.5563	290.287	218.009	273.440	310.872	57.458	95.338	282.210	290.604	102.355	-4.921	296.657	318.785	252.148	313.555	195.922	299.896	0.00021601	0.00017097	0.00016639	1082.7	3.6353e-06	8.6119e-06	1177.9	222.65	7.8364e-06	3.7561e-06	284.94	79.507	62.43	18.212	1.7822e-06	25.243	0.00035096	0.00039414	9.939e-05	1051.1	3.9556e-06	4.2881e-06	1140.7	220.19	4.0083e-06	4.2477e-06	280.15	79.357	63.293	19.111	3.7946e-06	25.755	278.833	164.490	-10.382	-14.988	-16.730	80.257	-14.860	-7.376	253.488	63.971	-7.963	-0.511	-0.069	6.013	-0.846	5.927	-8191	255	
14062.535	1	1	0	0	0.075456	0.24554	0.134	0.18696	0.1021	0.10458	0.25282	0.16232	0.22284	0.051798	0.072744	0.16559	0.23434	0.16809	0.30637	0.067051	-2.6583	-2.6708	-2.5417	-3.2	-2.3375	-3.1125	-3.0375	-2.7146	-3.0375	-2.6562	-2.5938	-3.2125	-2.4458	-2.8375	-2.7313	-2.5083	-3.370	227.496	207.485	257.231	294.780	163.369	269.745	142.214	124.758	77.072	238.964	10.769	334.097	308.934	144.302	47.722	0.00023266	0.00039305	0.00011452	1080.9	1.8919e-06	1.6211e-06	1181.4	222.29	2.8592e-06	2.8883e-07	283.95	78.739	62.427	18.278	4.3112e-06	25.287	0.00037455	0.00037796	9.6917e-05	1051.9	4.2065e-06	4.0765e-06	1142.3	220.88	4.1924e-06	4.0467e-06	280.1	79.337	63.672	19.06	3.7264e-06	25.924	231.991	123.792	61.065	-14.944	215.402	75.681	-14.822	-7.381	255.286	268.039	-7.808	-0.430	-0.195	6.405	87.277	5.584	-8191	255	
14062.631	1	1	0	0	0.086981	0.23838	0.080658	0.13593	0.207	0.034429	0.29098	0.29831	0.063882	0.17402	0.12584	0.11837	0.075768	0.097981	0.12175	0.14056	-2.7354	-2.7438	-2.6021	-3.1146	-2.5396	-2.8333	-3.0729	-2.5875	-3.1271	-2.6083	-2.65	-3.125	-2.5667	-2.6688	-2.9167	-2.5208	267.467	298.840	83.638	257.997	311.654	47.364	4.783	-18.366	113.803	305.131	1.118	108.773	5.556	54.117	199.988	213.936	0.00010558	0.00043561	4.4615e-05	1082	8.6987e-06	2.2152e-06	1176	222.72	1.6832e-06	2.7963e-06	285.09	79.497	62.191	18.458	3.4925e-06	24.921	0.00038893	0.00035987	9.4928e-05	1053.6	4.3122e-06	3.9725e-06	1141.3	221.29	4.2942e-06	3.8903e-06	279.37	79.958	63.562	19.036	3.5724e-06	26.005	243.865	35.215	297.880	-14.962	81.526	212.000	-14.721	-7.437	227.279	129.009	-8.052	-0.017	-0.153	6.118	221.921	6.000	-8191	255	
14062.752	1	1	0	0	0.05699	0.29207	0.12395	0.14451	0.2062	0.12981	0.27037	0.066429	0.22486	0.1526	0.26751	0.26319	0.22334	0.20089	0.010155	0.22452	-2.625	-2.6458	-2.5979	-3.2333	-2.4333	-2.7917	-3.1521	-2.6229	-2.9479	-2.8438	-2.4958	-3.1312	-2.7271	-2.7062	-3	-2.4125	265.811	293.820	224.699	295.149	162.861	276.778	239.481	25.104	-15.098	271.509	280.656	22.380	-14.161	114.052	17.580	225.556	7.6691e-05	0.00012021	5.8364e-05	1085.6	3.6028e-06	2.0974e-06	1184.8	225.11	2.3484e-06	2.2842e-06	284.35	79.144	62.841	18.258	2.662e-06	25.233	0.0003788	0.00035053	9.2498e-05	1055.9	4.1603e-06	3.8119e-06	1141.9	222.61	4.1035e-06	3.763e-06	278.96	80.149	63.503	18.919	3.6244e-06	26.165	188.161	176.440	262.339	-15.029	95.238	35.522	-14.943	-7.150	90.075	-3.207	-7.915	-0.684	-0.041	6.629	138.265	5.578	-8191	255	
14062.848	1	1	0	0	0.068588	0.049932	0.31135	0.2905	0.254	0.099982	0.070849	0.13867	0.084933	0.1257	0.22719	0.17054	0.14383	0.18985	0.047724	0.095521	-2.6312	-2.8729	-2.5833	-3.0833	-2.6562	-2.6063	-3.1625	-2.5563	-2.7896	-2.8	-2.4354	-2.925	-2.8646	-2.4938	-3.1542	-2.3729	217.611	154.874	322.032	232.465	93.816	3.346	71.796	269.224	-10.402	188.024	192.913	175.194	0.704	25.675	-11.336	290.474	9.0558e-05	0.00042817	9.4181e-06	1084.7	5.6543e-06	5.3488e-06	1181.1	224.3	3.8532e-06	2.6392e-06	285.27	79.216	62.076	18.278	4.6572e-06	25.018	0.0003676	0.00033926	9.4379e-05	1057.6	3.9918e-06	3.7296e-06	1143.2	222.68	3.9648e-06	3.6501e-06	279.97	80.368	62.901	18.86	3.8009e-06	26.147	159.203	99.467	17.467	-14.833	-17.379	108.501	-14.948	-7.476	108.929	166.830	-7.954	-0.561	-0.334	6.712	188.724	5.791	-8191	255	
14062.944	1	1	0	0	0.14511	0.30803	0.11044	0.056727	0.090813	0.24179	0.22157	0.16217	0.21096	0.089854	0.24987	0.15214	0.32456	0.17583	0.11422	0.082289	-2.2875	-3.0417	-2.4479	-3.0812	-2.6104	-2.4688	-3.3667	-2.6	-2.8375	-2.9917	-2.5667	-3.0854	-2.8667	-2.5896	-3.2792	-2.4833	61.546	99.238	210.776	-19.347	155.805	112.243	278.686	270.783	269.615	39.228	306.467	305.846	27.072	303.613	13.234	323.728	6.5465e-05	0.00038319	9.5065e-05	1090.1	1.1212e-06	5.4373e-06	1183.6	223.31	5.048e-06	2.4889e-06	283.51	79.457	62.453	18.14	8.8978e-07	25.304	0.00035428	0.00033075	9.8967e-05	1057.1	3.8845e-06	3.6158e-06	1143.5	222.16	3.8437e-06	3.5815e-06	280.82	80.247	62.956	18.813	4.0744e-06	26.131	170.161	78.047	63.040	-14.923	27.788	28.720	-14.707	-7.223	118.641	275.064	-7.630	-0.552	0.153	6.451	228.426	5.944	-8191	255	
14063.040	1	1	0	0	0.25154	0.16517	0.085199	0.22311	0.20144	0.1968	0.21127	0.074868	0.068884	0.2266	0.31829	0.14684	0.21556	0.14106	0.14571	0.15257	-2.2917	-2.9042	-2.4146	-2.9938	-2.8292	-2.4521	-3.1354	-2.6708	-2.5333	-3.2208	-2.5333	-2.825	-2.9271	-2.5187	-3.1104	-2.7479	325.412	327.057	326.496	269.214	183.849	115.990	312.183	243.437	109.423	127.194	305.041	85.886	318.456	319.568	149.339	39.792	0.00010226	0.00016799	0.00017927	1088.4	1.9584e-06	2.9735e-06	1182.2	223.88	6.7711e-06	3.4285e-06	285.55	79.523	62.191	18.117	3.8922e-06	25.133	0.0003437	0.00033183	0.00010621	1056.3	3.7859e-06	3.6703e-06	1146.7	222.07	3.7928e-06	3.6333e-06	282.35	80.266	62.723	18.87	4.2608e-06	26.016	223.636	325.439	77.874	-14.819	172.947	121.108	-15.013	-7.461	141.069	180.152	-7.692	-0.501	-0.143	7.202	267.621	5.918	-8191	255	
14063.136	1	1	0	0	0.19954	0.27689	0.19483	0.43714	0.216	0.22217	0.28447	0.16486	0.033362	0.21601	0.10317	0.042946	0.1088	0.27325	0.090067	0.25722	-2.0917	-3.0021	-2.4771	-2.9667	-3.0521	-2.5896	-3.3271	-2.9208	-2.55	-3.1146	-2.5479	-2.9292	-2.8688	-2.3896	-2.9625	-2.925	294.193	241.046	274.827	322.541	206.197	94.992	274.116	295.210	108.125	172.151	15.424	167.072	186.917	318.269	249.661	307.875	0.00030225	0.00015008	0.00019556	1086.4	1.2585e-06	5.1335e-07	1184.1	223.99	4.5229e-06	8.8999e-06	285.14	79.623	61.983	18.356	5.0325e-06	25.274	0.00033475	0.00034371	0.00010974	1056.3	3.6489e-06	3.8296e-06	1149.4	221.86	3.6584e-06	3.8766e-06	282.71	79.916	62.644	19.006	4.2737e-06	25.942	231.033	63.493	131.795	-15.058	32.221	104.423	-14.716	-6.961	87.884	144.045	-7.831	-0.110	0.346	6.378	127.532	6.155	-8191	255	
14063.231	1	1	0	0	0.20287	0.14166	0.037067	0.094825	0.28332	0.01821	0.0744	0.087828	0.12472	0.1087	0.19117	0.13266	0.18401	0.056402	0.084914	0.12061	-2.1646	-2.9875	-2.4062	-2.8854	-3.1437	-2.3958	-3.1021	-2.6917	-2.3979	-3.0687	-2.8521	-2.6771	-3.0854	-2.5062	-2.875	-2.9583	196.364	105.439	102.512	16.667	295.918	193.731	248.939	239.648	234.403	113.378	-11.279	72.492	282.709	27.901	187.468	299.028	0.000145	0.00031232	7.824e-05	1085.4	5.9318e-06	2.8444e-06	1180.9	224.37	3.9367e-07	3.1633e-06	284.73	80.028	62.468	18.368	1.5912e-06	25.294	0.00032956	0.00036806	0.00010793	1055.6	3.6178e-06	4.0972e-06	1147.1	221.5	3.6679e-06	4.1641e-06	281.69	80.07	62.773	19.165	4.0757e-06	25.866	232.984	109.292	50.849	-15.090	301.017	175.689	-14.412	-6.868	213.679	151.971	-7.545	-0.245	0.076	6.801	33.545	6.215	-8191	255	
14063.351	1	1	0	0	0.25568	0.403	0.11595	0.10113	0.044795	0.14139	0.25146	0.15792	0.08047	0.12289	0.16726	0.39495	0.31487	0.080032	0.27041	0.15641	-2.0729	-3.0458	-2.6104	-2.7229	-3.1208	-2.3958	-3.1312	-2.9167	-2.6104	-3.1937	-2.8583	-2.5729	-3.0042	-2.5354	-2.7792	-2.925	97.673	54.826	11.919	233.361	239.180	295.177	319.024	266.944	262.785	165.107	-9.272	225.735	334.192	285.913	42.586	259.840	0.00022616	0.00024452	8.6028e-05	1085.7	2.1053e-06	2.6112e-06	1181.1	223.32	5.7225e-06	4.1202e-06	283.56	79.69	62.137	18.222	7.9359e-06	25.392	0.00033449	0.00039125	0.00010334	1054.7	3.6966e-06	4.2746e-06	1146.1	221.32	3.7511e-06	4.3173e-06	280.64	79.834	63.084	19.123	3.9463e-06	25.821	250.701	77.775	273.261	-14.712	60.181	156.497	-14.605	-7.342	179.657	64.611	-7.569	-0.281	0.126	6.420	64.286	6.334	-8191	255	
14063.447	1	1	0	0	0.097485	0.052321	0.18962	0.25213	0.13205	0.24238	0.20279	0.26068	0.37467	0.12482	0.1615	0.20067	0.1108	0.2244	0.43977	0.034312	-2.25	-3.0333	-2.6854	-2.8063	-3.2687	-2.675	-2.9021	-3.1854	-2.5187	-3.1333	-2.9042	-2.6042	-3.2	-2.5812	-2.6562	-3.0542	18.677	222.585	43.627	282.317	187.370	120.125	156.742	253.786	115.915	43.454	313.876	324.986	134.246	149.246	328.133	86.538	0.00026908	0.00075959	4.1828e-05	1084.5	5.0246e-06	3.5794e-06	1181.4	224.19	6.3669e-06	2.9739e-06	286.11	79.283	62.375	18.254	3.595e-06	25.362	0.0003522	0.00039436	9.9107e-05	1053.4	3.964e-06	4.2888e-06	1143.9	221.6	4.0486e-06	4.2905e-06	280.78	79.553	63.377	19.126	3.8866e-06	25.922	263.217	38.686	316.820	-14.902	160.636	61.348	-14.864	-6.744	277.200	66.728	-7.390	-0.153	0.293	6.517	27.442	6.255	-8191	255	
14063.543	1	1	0	0	0.17762	0.26658	0.085324	0.24361	0.027648	0.12411	0.30897	0.16086	0.12058	0.1057	0.11954	0.24756	0.09593	0.24168	0.18945	0.17436	-2.0687	-2.9979	-2.8708	-2.6146	-2.9521	-2.6667	-2.8333	-3.0479	-2.4562	-3.0687	-2.9313	-2.6042	-3.0875	-2.7771	-2.6271	-3.0125	249.072	316.068	222.521	33.201	104.348	235.789	270.305	276.723	0.249	99.064	274.513	303.330	164.816	11.910	317.972	-2.138	0.00033993	0.0001166	2.7113e-05	1088.3	3.0806e-06	3.8259e-06	1184.2	224.38	4.9259e-06	2.3797e-06	285.61	79.38	62.359	18.236	4.8278e-06	25.286	0.00038189	0.00038285	9.8099e-05	1054.3	4.2199e-06	4.149e-06	1145.8	221.62	4.3385e-06	4.1257e-06	280.88	79.611	63.873	19.048	3.8516e-06	26.005	294.082	288.064	82.277	-14.700	31.354	114.644	-14.448	-7.282	259.447	59.938	-7.260	0.099	0.107	7.169	84.507	6.467	-8191	255	
14063.615	1	1	0	0	0.18659	0.12496	0.38086	0.15779	0.13145	0.38519	0.21175	0.13096	0.17457	0.048425	0.35865	0.046409	0.18146	0.3223	0.097819	0.041893	-2.0479	-2.9479	-2.8104	-2.5708	-2.9479	-2.7021	-2.5917	-3.0563	-2.5729	-2.7875	-3.1292	-2.3667	-3.0729	-2.8667	-2.3271	-3.1104	111.833	137.929	256.865	-1.878	57.329	76.201	290.067	-1.581	115.010	-17.387	332.825	38.859	198.201	17.415	94.152	105.626	0.00035937	0.00059603	7.2754e-05	1086.1	7.4542e-06	6.4222e-06	1183.5	225.05	5.4634e-06	3.7658e-06	285.44	79.849	62.105	18.359	1.0207e-05	25.155	0.00040179	0.00037015	9.6625e-05	1056.8	4.4411e-06	4.0346e-06	1143.8	222.27	4.4146e-06	4.0198e-06	280.07	80.091	63.794	19.036	3.7041e-06	26.092	267.300	24.391	11.349	-14.680	39.320	115.545	-14.818	-6.936	178.397	56.527	-7.661	-0.059	0.422	6.668	149.361	6.200	-8191	255	
14063.736	1	1	0	0	0.1654	0.12673	0.2545	0.14167	0.14801	0.067998	0.021421	0.14038	0.36634	0.22691	0.12987	0.26257	0.31171	0.32615	0.23935	0.26698	-2.4021	-2.8	-3.0792	-2.3812	-2.9417	-2.8896	-2.6542	-3.2271	-2.5542	-2.8229	-2.9417	-2.4854	-2.8104	-2.9646	-2.4542	-3.1729	162.195	54.131	293.153	-6.771	229.354	191.974	31.152	64.435	49.419	57.323	300.633	269.865	302.296	291.036	-7.094	269.173	9.698e-05	0.0001383	2.628e-05	1088	5.2902e-06	2.4863e-06	1183.8	224.56	2.9496e-06	1.4479e-06	286.33	79.565	62.547	18.076	2.7768e-06	25.081	0.00039275	0.00036071	9.2992e-05	1059.6	4.2834e-06	3.9035e-06	1144.7	223.31	4.2245e-06	3.8558e-06	280.1	80.387	63.844	18.906	3.6724e-06	26.218	254.728	92.147	235.061	-14.698	58.127	218.352	-14.749	-6.970	81.519	114.044	-7.276	-0.276	0.165	6.605	207.071	6.066	-8191	255	
14063.832	1	1	0	0	0.16459	0.19703	0.022683	0.2646	0.02395	0.044869	0.26014	0.16391	0.25933	0.21872	0.10393	0.25072	0.18262	0.15424	0.051835	0.18073	-2.1792	-2.5583	-3.0146	-2.7333	-2.9729	-3.0875	-2.6458	-3.2167	-2.4771	-2.5125	-3.0479	-2.3563	-2.9458	-3.1167	-2.425	-3.0687	38.100	226.493	101.465	292.716	9.144	20.054	310.849	202.580	196.197	239.518	57.076	208.121	245.607	272.990	261.981	241.748	0.00024828	0.00026951	3.6396e-05	1088	2.043e-06	2.3642e-06	1185.3	225.56	4.7424e-06	3.2675e-06	286.58	79.578	62.435	18.328	5.6424e-06	25.301	0.0003715	0.00034949	9.428e-05	1060.1	4.0573e-06	3.74e-06	1145.7	223.82	3.9808e-06	3.6927e-06	280.36	80.557	63.367	18.93	3.8199e-06	26.305	220.073	59.275	127.424	-14.591	150.279	262.526	-14.637	-7.016	117.464	154.042	-7.553	-0.162	-0.235	6.841	200.030	6.344	-8191	255	
14063.928	1	1	0	0	0.079951	0.069189	0.25197	0.078369	0.12519	0.1179	0.16163	0.10359	0.038293	0.18971	0.18433	0.28876	0.11778	0.19715	0.12717	0.0092561	-2.3042	-2.6437	-3.0271	-2.6667	-2.8083	-3.0896	-2.3625	-3.2167	-2.6937	-2.5708	-3.1146	-2.5604	-2.9625	-2.9771	-2.3833	-2.9313	123.785	184.876	-16.745	294.727	334.058	305.433	247.875	322.365	188.231	271.598	284.801	310.288	-17.988	0.004	27.220	142.128	0.00024996	0.00039255	8.9106e-05	1084.4	4.3041e-06	2.2958e-06	1184.7	225.65	1.7321e-06	5.6492e-06	284.84	79.88	62.44	18.48	3.3311e-06	25.304	0.00035199	0.0003365	9.958e-05	1059	3.8673e-06	3.6352e-06	1146	223.6	3.8921e-06	3.6682e-06	281.27	80.54	63.143	18.922	4.1728e-06	26.204	224.519	89.124	136.784	-14.601	59.048	200.987	-14.477	-6.926	249.931	102.150	-7.351	-0.362	0.305	7.073	248.196	6.425	-8191	255	
14064.024	1	1	0	0	0.12832	0.096084	0.19863	0.31399	0.3439	0.018342	0.05384	0.30097	0.047908	0.23208	0.2392	0.21758	0.039316	0.22965	0.25177	0.20327	-2.5542	-2.4708	-3.2188	-2.7604	-2.6458	-3.2062	-2.5438	-2.8937	-2.8688	-2.4583	-3.2146	-2.75	-2.6729	-2.9	-2.4729	-2.7542	274.671	59.058	157.567	-15.866	181.904	273.932	206.969	331.100	221.299	301.888	49.306	245.943	275.730	5.131	230.134	-6.563	0.00015974	0.00043735	0.0001227	1086.2	2.667e-06	4.1219e-06	1185.4	224.15	6.6905e-06	1.1972e-06	284.06	79.886	62.471	18.374	1.2661e-06	25.217	0.00034885	0.00033623	0.00010708	1058.7	3.8199e-06	3.6784e-06	1148.4	222.84	3.7675e-06	3.7174e-06	282.38	80.486	63.178	18.899	4.3384e-06	26.07	299.426	80.218	31.251	-14.664	45.031	166.242	-14.541	-6.891	303.495	310.565	-7.388	-0.263	0.440	7.048	56.772	6.189	-8191	255	
14064.143	1	1	0	0	0.16888	0.12605	0.086939	0.33892	0.13901	0.052458	0.41713	0.18936	0.097875	0.22635	0.074675	0.29245	0.045645	0.18963	0.21658	0.13568	-2.4229	-2.5271	-3.1417	-2.9	-2.5271	-3.2	-2.6958	-2.7438	-3.0062	-2.3271	-2.9771	-2.8771	-2.3812	-3.0542	-2.6875	-2.7646	9.853	42.625	148.189	327.086	75.329	173.206	249.875	268.174	269.657	302.266	-18.510	245.593	-3.978	200.465	333.336	-14.801	0.00025343	0.00031815	0.00021289	1089.9	1.8376e-06	2.1804e-06	1186.8	224.95	1.8471e-06	3.9352e-06	286.31	79.897	62.672	18.285	5.7295e-06	25.175	0.00034076	0.0003454	0.00010966	1058.7	3.7045e-06	3.8358e-06	1150	222.57	3.6346e-06	3.8599e-06	282.92	79.872	62.83	18.981	4.2299e-06	25.89	201.859	197.846	105.202	-14.484	120.125	61.190	-14.460	-6.748	324.876	255.065	-7.241	0.025	0.173	6.830	99.761	6.233	-8191	255	
14064.239	1	1	0	0	0.19123	0.10735	0.15315	0.12825	0.11249	0.15698	0.1028	0.24584	0.1135	0.29741	0.10877	0.086435	0.12448	0.18769	0.16887	0.0041357	-2.5917	-2.3812	-3.0312	-2.8208	-2.4688	-3.1083	-2.5479	-2.6708	-3.1604	-2.375	-3.1979	-2.925	-2.5604	-3.05	-2.7562	-2.4875	47.583	269.407	-24.037	82.536	107.110	202.381	244.496	26.867	140.690	23.265	-8.039	25.504	188.634	331.675	46.422	64.855	9.3451e-05	0.00051575	0.00016337	1088	2.9733e-06	4.5928e-06	1186.3	224.76	4.2688e-06	4.6199e-07	286.25	79.016	62.541	18.384	4.5715e-06	25.179	0.000326	0.00036591	0.00010648	1055.4	3.5947e-06	4.0435e-06	1148.8	222.23	3.5714e-06	4.1053e-06	282.01	79.689	63.04	19.103	4.0648e-06	25.871	254.284	91.665	44.012	-14.538	102.894	160.993	-14.368	-6.533	242.369	228.158	-7.470	0.035	0.176	7.201	17.134	6.541	-8191	255	
14064.313	1	1	0	0	0.1371	0.15136	0.21268	0.17046	0.14896	0.052996	0.29945	0.24343	0.10887	0.22222	0.064954	0.15098	0.34325	0.23334	0.05196	0.2231	-2.7875	-2.3083	-2.8833	-2.9646	-2.2667	-2.9125	-2.7292	-2.6854	-2.9271	-2.4375	-2.8104	-3.0792	-2.3771	-3.0271	-2.5917	-2.5771	208.590	72.012	60.528	318.975	110.987	308.389	303.240	260.769	56.578	104.997	271.542	184.467	237.854	-22.011	312.490	324.679	0.00027161	0.00021118	6.1682e-05	1086.9	5.2094e-07	5.0735e-06	1184.1	224.24	5.2035e-06	4.7939e-06	286.7	79.849	62.382	18.354	5.5778e-07	25.304	0.00032845	0.00038745	0.00010314	1055	3.6909e-06	4.2725e-06	1146.6	221.75	3.7308e-06	4.3115e-06	281.79	79.709	63.219	19.227	3.9276e-06	25.789	246.773	147.912	62.329	-14.432	303.835	191.263	-14.358	-7.012	325.200	97.593	-7.505	-0.133	0.647	7.157	308.334	6.244	-8191	255	
14064.432	1	1	0	0	0.077979	0.12679	0.25497	0.1588	0.01325	0.19996	0.10493	0.060428	0.12703	0.2477	0.19637	0.12757	0.11074	0.10992	0.17051	0.21693	-2.5896	-2.4688	-2.8	-3.1792	-2.4354	-3.1021	-2.7854	-2.5125	-3.2292	-2.3958	-2.7812	-3.0521	-2.4729	-2.875	-2.8438	-2.4625	296.602	177.913	20.936	197.947	150.076	222.406	313.752	18.241	132.334	9.730	279.472	-8.396	294.000	60.956	87.911	308.896	0.00034992	0.00066073	7.2479e-05	1088.1	2.0759e-06	3.1549e-06	1183.9	225.87	2.1571e-06	9.3752e-07	287.54	79.642	62.527	18.348	1.6928e-06	25.29	0.00035127	0.00039224	9.9307e-05	1054.4	3.9358e-06	4.251e-06	1144.9	221.82	3.9599e-06	4.2404e-06	281.44	79.58	63.471	19.154	3.8053e-06	25.811	268.594	61.831	323.948	-14.496	46.258	201.598	-14.082	-6.686	272.385	122.615	-7.512	0.447	0.154	6.912	152.612	5.925	-8191	255	
14064.528	1	1	0	0	0.076441	0.16074	0.26859	0.24	0.14305	0.18059	0.2507	0.19241	0.17291	0.025998	0.20487	0.11719	0.12896	0.28255	0.18998	0.35308	-2.7792	-2.625	-2.5833	-3.2062	-2.45	-3.0312	-3.0646	-2.5208	-3.0062	-2.7625	-2.7375	-3.1583	-2.5604	-2.9021	-2.8271	-2.3312	-4.652	310.334	41.916	255.776	330.224	212.354	191.029	159.760	112.070	142.076	49.465	-11.507	90.510	273.789	240.678	329.161	0.00025218	0.0002815	0.00010045	1088.5	9.4301e-06	6.5802e-06	1186	225.11	5.1619e-06	3.7859e-06	286.29	79.555	62.532	18.35	3.9394e-06	25.13	0.00037356	0.00037805	9.6271e-05	1054.3	4.2106e-06	4.089e-06	1146.7	221.93	4.1847e-06	4.0042e-06	280.55	79.544	63.706	19.031	3.631e-06	25.719	245.752	-5.413	0.434	-14.375	101.440	36.606	-14.395	-6.759	264.509	64.273	-7.175	0.177	0.184	6.939	88.029	6.037	-8191	255	
14064.624	1	1	0	0	0.053706	0.18865	0.15512	0.33622	0.3806	0.29072	0.14289	0.095943	0.11921	0.19505	0.26591	0.125	0.037759	0.072963	0.26563	0.11427	-2.4271	-2.6833	-2.5958	-3.1333	-2.2104	-2.6333	-2.9771	-2.4583	-3.1646	-2.5812	-2.45	-3.1063	-2.3854	-2.6646	-3.0479	-2.4854	86.302	150.779	93.395	292.191	171.130	25.798	279.804	134.404	161.303	288.751	97.871	118.962	-7.623	149.631	3.451	40.581	0.00015487	0.00013735	0.00015024	1085	2.5483e-06	4.9992e-06	1184.2	225.2	5.1535e-06	1.9412e-06	285.75	80.177	62.649	18.435	5.2567e-06	25.367	0.00038246	0.00035526	9.2868e-05	1054.4	4.2179e-06	3.8888e-06	1144.5	222.41	4.2186e-06	3.8677e-06	280.32	80.136	63.706	18.979	3.56e-06	26.045	271.350	258.216	16.458	-14.840	24.271	144.335	-14.395	-7.107	157.191	150.583	-8.072	0.063	0.383	6.968	177.904	6.597	-8191	255	
14064.744	1	1	0	0	0.0092038	0.14771	0.15877	0.2845	0.16858	0.13448	0.1017	0.05276	0.14173	0.15404	0.090391	0.064298	0.15998	0.073438	0.12926	0.064083	-2.6583	-2.7146	-2.5604	-3.2583	-2.5375	-2.8271	-3.2521	-2.3729	-3.0687	-2.8021	-2.5	-2.9146	-2.5208	-2.7583	-3.0021	-2.4458	275.108	140.258	147.473	319.932	37.625	283.007	160.610	87.261	241.746	127.470	82.773	144.026	164.193	197.835	95.804	77.602	0.00031585	0.00019899	0.00010821	1089.7	3.4668e-06	2.8639e-06	1181.9	224.94	1.9692e-06	1.1568e-06	284.54	79.744	62.952	18.246	3.8975e-06	25.332	0.00037932	0.00034546	9.2029e-05	1058.6	4.0958e-06	3.7856e-06	1144.5	223	4.0981e-06	3.7468e-06	279.63	80.409	63.615	18.914	3.5975e-06	26.19	248.375	185.206	64.081	-14.652	-24.179	145.283	-14.298	-6.987	204.816	78.733	-7.471	0.482	0.135	6.911	285.835	6.572	-8191	255	
14064.841	1	1	0	0	0.26471	0.10579	0.067021	0.19211	0.23564	0.17059	0.52004	0.21384	0.22889	0.071376	0.039054	0.19198	0.11936	0.12913	0.11735	0.30644	-2.4833	-2.8063	-2.2542	-3.3354	-2.4792	-2.6063	-3.3312	-2.4896	-2.9729	-2.95	-2.6229	-3.0792	-2.7958	-2.5729	-3.1188	-2.6875	140.717	-12.522	262.591	189.702	126.365	166.662	-4.330	-20.708	327.586	92.189	194.705	-24.772	42.489	299.632	238.739	117.547	0.00011829	0.00034858	8.5984e-05	1090	3.3454e-06	4.9116e-06	1188.8	224.47	5.0147e-06	1.7801e-06	286.12	79.984	62.534	18.301	7.7361e-06	25.318	0.00036985	0.00034054	9.2591e-05	1059	4.0274e-06	3.7191e-06	1144.3	223.79	3.9631e-06	3.624e-06	280.98	80.588	63.333	18.928	3.7814e-06	26.16	183.444	41.324	152.421	-14.824	43.796	111.953	-14.390	-7.083	179.959	117.030	-7.484	0.433	0.585	6.962	170.376	5.884	-8191	255	
14064.912	1	1	0	0	0.038165	0.082909	0.24565	0.36669	0.19695	0.15038	0.099574	0.45063	0.21175	0.15574	0.16868	0.2246	0.10567	0.26851	0.13748	0.18364	-2.3812	-2.8812	-2.3333	-3.3104	-2.8521	-2.6083	-3.2125	-2.5792	-2.5438	-3.0292	-2.5667	-2.9688	-2.7979	-2.5292	-3.0812	-2.5521	144.265	37.163	264.557	243.850	131.412	47.340	303.352	305.571	78.154	102.176	213.467	315.573	109.533	312.762	232.060	103.908	0.00016733	0.00027386	0.0001205	1090.8	1.6527e-06	3.479e-06	1187	224.05	5.7424e-06	4.6885e-07	286.31	79.055	62.633	18.385	3.1587e-06	25.097	0.00035361	0.00033112	9.8952e-05	1060.8	3.8605e-06	3.6622e-06	1149.6	223.01	3.87e-06	3.6247e-06	281.77	80.486	63.236	18.92	4.1048e-06	26.167	219.202	72.423	89.753	-14.613	78.724	80.543	-14.458	-6.800	316.663	162.495	-7.639	-0.396	-0.046	6.973	196.302	6.186	-8191	255	
14065.033	1	1	0	0	0.10012	0.12598	0.28881	0.21049	0.19032	0.088985	0.15288	0.3383	0.12332	0.066459	0.2281	0.30913	0.077615	0.0022217	0.30901	0.044114	-2.0417	-2.8937	-2.3812	-3.1521	-2.7792	-2.475	-3.2479	-2.6042	-2.5417	-3.2146	-2.55	-2.9833	-2.8083	-2.2771	-3.1875	-2.6604	266.983	258.590	148.207	273.231	294.844	75.881	294.814	323.507	249.042	176.902	45.224	4.880	158.727	180.000	132.577	287.718	0.00018234	0.00021616	0.00015759	1087	5.5787e-06	1.5834e-06	1185.3	225.88	3.0617e-06	1.9568e-06	286.57	80.046	62.573	18.199	1.1269e-06	25.114	0.0003501	0.00033018	0.00010704	1059.3	3.8076e-06	3.6661e-06	1150.6	223.63	3.8057e-06	3.7011e-06	283.6	80.377	63.171	18.876	4.3134e-06	25.996	241.586	108.841	134.733	-14.697	29.514	83.630	-14.453	-6.940	125.696	288.251	-7.580	-0.444	0.550	6.599	275.443	5.824	-8191	255	
14065.127	1	1	0	0	0.24928	0.18603	0.21012	0.34201	0.14678	0.18734	0.12597	0.21499	0.2117	0.16231	0.024143	0.25958	0.16056	0.15028	0.28829	0.14221	-2.3812	-3.0958	-2.5667	-3.0104	-3.1063	-2.4083	-3.225	-2.7646	-2.6979	-3.0438	-2.6583	-3.1	-3.0417	-2.425	-2.9604	-2.7562	45.480	73.238	37.607	291.078	272.704	210.631	257.187	16.714	253.409	101.860	78.754	248.068	281.303	308.244	35.733	295.494	0.00012988	0.00028234	9.4154e-05	1088.1	1.1793e-06	5.546e-06	1185.3	225.94	5.0565e-07	4.6574e-06	285.22	79.523	62.277	18.159	1.5545e-06	25.246	0.00034131	0.00034492	0.00011008	1057.8	3.698e-06	3.831e-06	1151.2	223.27	3.7027e-06	3.9109e-06	283.22	80.012	63.011	18.989	4.32e-06	25.954	273.640	34.432	119.701	-14.648	146.294	159.421	-14.445	-6.876	10.773	186.742	-7.295	-0.091	0.578	7.018	210.756	6.676	-8191	255	
14065.223	1	1	0	0	0.20577	0.16818	0.11442	0.24578	0.16269	0.091935	0.1614	0.049947	0.10162	0.10837	0.13907	0.11689	0.32162	0.023215	0.073975	0.14939	-2.1708	-3.0708	-2.6958	-2.8396	-2.9917	-2.3833	-3.0604	-2.8146	-2.4062	-3.1854	-2.5604	-2.7125	-3.0854	-2.5667	-2.9458	-3.0604	-20.346	227.770	227.175	315.731	-18.206	40.302	305.928	182.841	305.593	321.024	-9.597	-21.441	297.774	287.698	118.281	134.073	0.0002673	0.00024598	3.697e-05	1085.9	6.9267e-06	3.2233e-06	1187.2	225.96	4.5588e-06	1.2765e-06	286.32	79.933	62.618	18.203	3.647e-06	25.009	0.00032978	0.00037154	0.00010889	1056.8	3.6342e-06	4.1398e-06	1150.2	222.52	3.6322e-06	4.1312e-06	282.85	80.105	62.85	19.134	4.174e-06	25.884	198.985	146.375	249.494	-14.705	70.805	199.714	-14.442	-6.750	222.100	216.690	-7.564	-0.314	0.902	7.547	133.694	6.326	-8191	255	
14065.320	1	1	0	0	0.15679	0.15502	0.18727	0.243	0.15035	0.14389	0.1411	0.16983	0.13113	0.13062	0.27054	0.40575	0.10505	0.21291	0.037365	0.15643	-2.0604	-3.0021	-2.6688	-2.8354	-3.1917	-2.4854	-2.9667	-3.1437	-2.2958	-3.1792	-2.7625	-2.5583	-3.1396	-2.6188	-2.8104	-2.9625	205.682	66.562	122.337	56.150	293.718	132.995	189.285	319.783	-0.554	183.554	234.206	23.056	302.935	211.778	225.261	266.539	0.00011265	0.00013896	6.2155e-05	1088.6	4.4647e-06	5.9747e-06	1186.3	226.1	5.9858e-06	6.7167e-06	286.19	79.362	62.573	18.354	4.4749e-06	25.275	0.00033714	0.00039419	0.00010487	1056.2	3.7314e-06	4.335e-06	1148.4	222.79	3.7779e-06	4.3249e-06	281.92	79.835	63.155	19.232	3.9901e-06	25.857	284.676	216.115	69.903	-14.332	125.464	263.194	-14.500	-6.566	265.164	150.046	-7.345	0.232	0.481	7.686	45.378	6.594	-8191	255	
14065.440	1	1	0	0	0.10875	0.1921	0.14875	0.22981	0.09113	0.13093	0.14512	0.20502	0.19527	0.32536	0.34165	0.048137	0.24785	0.071804	0.14251	0.11373	-2.0104	-2.9917	-2.725	-2.6771	-3.0292	-2.5354	-3.0312	-3.2438	-2.3583	-3.1188	-2.8083	-2.5687	-3.1083	-2.5438	-2.6104	-3.175	15.610	67.681	241.956	306.551	270.398	178.112	194.218	44.745	283.702	36.937	263.572	104.549	325.904	41.055	46.016	296.080	0.00027676	0.0005876	5.9322e-05	1087.8	1.1609e-05	6.3511e-06	1188.2	225.49	3.0332e-06	6.6514e-06	287.36	80.088	63.052	18.382	2.8462e-06	25.209	0.00035426	0.00039355	0.00010069	1056.1	3.9657e-06	4.3075e-06	1148.4	222.23	4.0419e-06	4.254e-06	282.07	79.753	63.813	19.222	3.8798e-06	25.849	244.390	78.817	238.800	-14.563	124.806	102.024	-14.297	-6.743	287.131	15.947	-6.818	-0.181	0.365	6.921	232.452	6.591	-8191	255	
14065.512	1	1	0	0	0.082212	0.16013	0.22158	0.18663	0.20705	0.21477	0.24776	0.072237	0.1738	0.14501	0.23421	0.30665	0.11552	0.10213	0.11598	0.20082	-2.1646	-3.0271	-3.0125	-2.5396	-3.0563	-2.4542	-2.6917	-3.275	-2.25	-2.8604	-2.8354	-2.2938	-3.175	-2.6917	-2.7104	-3.1312	115.053	194.974	-5.582	331.033	220.384	304.178	299.628	329.369	47.237	27.349	233.805	-9.917	165.123	156.187	275.260	137.061	0.00035784	0.00033987	4.932e-05	1091.5	1.4787e-06	2.6666e-06	1187.2	225.89	5.6205e-06	2.5389e-06	287.32	79.981	62.462	18.38	3.5407e-06	25.366	0.00037649	0.00038152	9.637e-05	1057	4.2175e-06	4.1229e-06	1147	222.87	4.246e-06	4.1116e-06	281.59	79.831	63.868	19.106	3.7364e-06	25.847	275.541	93.761	58.332	-14.372	193.739	35.168	-14.040	-6.422	294.015	40.199	-6.994	0.147	0.480	7.061	297.941	6.996	-8191	255	
14065.608	1	1	0	0	0.19344	0.038613	0.20267	0.076863	0.085572	0.20834	0.57942	0.13111	0.33548	0.16417	0.20222	0.15761	0.20906	0.25598	0.18596	0.36246	-2.1271	-2.9708	-2.9042	-2.5125	-3.2313	-2.8042	-2.9479	-3.1375	-2.4583	-2.8937	-3.0021	-2.5667	-2.8396	-2.7354	-2.4146	-3.0604	12.720	273.192	214.126	206.678	160.626	35.971	295.260	264.433	241.656	181.928	256.878	245.078	237.549	281.119	128.546	304.928	0.00030803	0.00056002	0.00010029	1093.8	7.7062e-06	3.0608e-06	1190	226.07	6.5694e-06	1.4773e-06	285.38	79.649	62.507	18.372	4.2822e-06	25.178	0.0003895	0.00036747	9.5732e-05	1058.2	4.3491e-06	4.0138e-06	1147.8	223.35	4.3147e-06	3.9437e-06	280.61	80.19	64.047	19.021	3.6383e-06	26.014	232.636	-13.265	90.672	-14.508	84.816	133.954	-14.278	-6.273	263.228	217.239	-7.125	0.299	0.616	6.745	24.089	6.749	-8191	255	
14065.704	1	1	0	0	0.12856	0.16285	0.22785	0.07851	0.18574	0.051734	0.25023	0.13516	0.27748	0.015865	0.060563	0.13616	0.30498	0.13967	0.34665	0.096373	-2.1792	-2.7229	-3.0521	-2.4729	-3.0208	-2.8104	-2.5979	-3.2042	-2.6146	-2.6979	-3.1021	-2.4979	-3.1146	-3.0187	-2.4125	-3.2396	134.493	91.800	283.009	149.715	69.140	197.547	294.404	275.146	278.770	291.249	241.452	56.451	277.421	-15.551	192.095	186.777	0.0002149	0.00024371	8.3611e-05	1085.2	4.5965e-06	3.9883e-06	1186.3	227.05	2.8792e-06	1.3321e-06	288.12	79.943	62.29	18.379	1.9992e-06	25.188	0.00038533	0.00035643	9.2739e-05	1059.9	4.2775e-06	3.8625e-06	1145.6	224.23	4.2295e-06	3.8262e-06	281.34	80.685	63.869	18.964	3.6543e-06	26.271	272.567	-18.084	-23.170	-14.395	134.040	136.992	-14.344	-6.603	243.405	-12.035	-7.064	-0.054	0.775	7.454	269.129	6.434	-8191	255	
14065.825	1	1	0	0	0.27513	0.020637	0.026424	0.15348	0.23676	0.15943	0.23874	0.25619	0.059209	0.26225	0.27125	0.038544	0.30486	0.09995	0.062166	0.086003	-2.3229	-2.6188	-3.1646	-2.6854	-2.9938	-2.9437	-2.6708	-3.0729	-2.9625	-2.8854	-3.0938	-2.4792	-2.9646	-2.9729	-2.3917	-3.0458	314.609	171.495	131.675	243.390	147.320	69.467	311.899	222.015	38.073	309.352	331.474	246.583	15.942	20.099	134.291	271.386	0.00012666	0.00016728	0.00010226	1090.9	3.128e-06	4.6663e-06	1188.8	225.2	7.6628e-06	1.8211e-06	287.37	79.405	62.915	18.283	5.6229e-07	25.405	0.00037766	0.00034681	9.5097e-05	1062.5	4.1108e-06	3.7727e-06	1149.6	224.35	4.0316e-06	3.7548e-06	281.94	80.7	63.586	18.951	3.8863e-06	26.289	209.018	55.884	48.256	-14.186	40.804	88.922	-14.248	-6.418	157.357	109.862	-7.090	0.074	0.457	7.224	15.593	6.174	-8191	255	
14065.921	1	1	0	0	0.19009	0.21559	0.10134	0.2477	0.1535	0.14913	0.28216	0.11202	0.17576	0.13266	0.19073	0.052858	0.12322	0.22552	0.15606	0.30286	-2.2479	-2.5104	-3.1875	-2.7188	-2.9875	-3.1125	-2.6104	-3.225	-2.8271	-2.5667	-3.1396	-2.5917	-2.6417	-3.0646	-2.4167	-2.8771	291.984	161.626	14.328	329.334	291.659	134.532	265.502	-8.466	168.511	-12.687	-13.815	219.635	148.582	177.056	212.257	-12.514	0.00033921	9.5249e-05	9.8433e-05	1093.6	5.0451e-06	2.3984e-06	1187.1	226.01	1.8985e-06	3.8609e-06	287.83	80.29	62.938	18.381	6.2254e-06	25.294	0.00035812	0.00033876	0.00010001	1064	3.9362e-06	3.6355e-06	1150.6	224.39	3.8645e-06	3.654e-06	283.32	80.867	63.371	18.935	4.1134e-06	26.307	283.758	3.296	109.567	-14.196	75.029	28.885	-14.192	-6.634	213.737	255.721	-6.853	0.002	0.546	7.218	173.256	6.920	-8191	255	
14066.017	1	1	0	0	0.031575	0.18468	0.20662	0.099079	0.16512	0.016464	0.36892	0.14737	0.02073	0.13784	0.12178	0.13796	0.25111	0.16074	0.13987	0.2484	-2.4896	-2.4021	-3.1937	-2.5979	-2.4833	-3.2125	-2.7167	-2.8208	-2.9896	-2.4396	-3.2562	-2.8854	-2.6354	-3.2792	-2.6104	-3.0833	270.064	208.084	274.120	66.916	292.707	128.718	305.361	102.119	320.613	149.530	-12.074	220.528	281.674	54.607	266.425	245.764	0.00021974	5.589e-05	5.6428e-05	1091.4	1.9936e-06	6.1305e-06	1190.3	226.33	5.4436e-06	6.8277e-06	286.44	79.763	62.93	18.231	8.2589e-06	25.168	0.00034913	0.00033938	0.00010785	1061.7	3.869e-06	3.6607e-06	1153.7	224.53	3.814e-06	3.6877e-06	283.58	80.535	63.254	18.92	4.3725e-06	26.138	273.600	197.269	117.588	-14.260	68.889	112.297	-14.085	-6.491	173.000	256.472	-6.838	0.267	0.392	7.865	199.363	6.309	-8191	255	
14066.113	1	1	0	0	0.067476	0.2211	0.23204	0.14755	0.08879	0.071856	0.44238	0.019613	0.11166	0.35718	0.17064	0.20001	0.23876	0.017597	0.039322	0.14095	-2.7208	-2.3729	-3.1521	-2.7667	-2.6125	-2.8958	-2.7646	-2.8937	-2.9562	-2.4688	-3.3187	-2.8958	-2.625	-3.0917	-2.4729	-2.8917	4.248	124.919	92.255	298.099	277.355	150.542	272.244	221.807	212.023	38.459	280.659	18.064	253.698	253.487	54.270	197.897	0.00021312	0.00026802	0.00015067	1092.8	5.3299e-06	2.7094e-06	1190.7	225.9	2.8541e-06	5.5515e-06	285.49	79.975	62.796	18.338	3.7939e-06	25.331	0.00034132	0.00034994	0.00011028	1060	3.7424e-06	3.8392e-06	1154.2	224.31	3.7104e-06	3.9269e-06	283.83	80.376	63.089	19.087	4.3423e-06	26.073	282.035	236.134	51.907	-14.370	-12.175	186.533	-14.234	-6.681	295.837	102.234	-7.197	0.090	0.622	7.545	137.103	6.653	-8191	255	
#DATA ENDS
