BOXY.EXE: ISS Imagent and Oximeter Data Acquisition Program Version 0.80
Ascii Record File

#ACQ INFORMATION
2  Detector Channels 
16  External MUX Channels 
1  Auxiliary Channels 
5000  Waveform (CCF) Frequency (Hz)
1  Waveforms Skipped 
30  Waveforms Averaged 
1  Cycles Averaged 
16  Acquisitions per Waveform 
10.0806  Updata Rate (Hz) 

#FILE INFORMATION
TRUE -- External MUX Channel results are PARSED.
FALSE -- AC DC and Phase are NOT grouped.
TRUE -- Companion Program Settings File CREATED.
FALSE -- AC data not excluded
FALSE -- DC data not excluded
FALSE -- Phase data not excluded
FALSE -- Auxillary Chn. data not excluded
Tab delimiters

#CALIBRATION STATE
TRUE -- Waveform Calibration Values APPLIED.


#AUX CALIBRATION VALUES
Val Type	aux-1	

Term	1.0000e+00	
Factor	0.0000e+00	


#WF CALIBRATION VALUES
A = Detector Channel
Val Type	A-AC1	A-AC2	A-AC3	A-AC4	A-AC5	A-AC6	A-AC7	A-AC8	A-AC9	A-AC10	A-AC11	A-AC12	A-AC13	A-AC14	A-AC15	A-AC16	A-DC1	A-DC2	A-DC3	A-DC4	A-DC5	A-DC6	A-DC7	A-DC8	A-DC9	A-DC10	A-DC11	A-DC12	A-DC13	A-DC14	A-DC15	A-DC16	A-Ph1	A-Ph2	A-Ph3	A-Ph4	A-Ph5	A-Ph6	A-Ph7	A-Ph8	A-Ph9	A-Ph10	A-Ph11	A-Ph12	A-Ph13	A-Ph14	A-Ph15	A-Ph16	

Term	0.00000e+00	0.00000e+00	0.00000e+00	0.00000e+00	0.00000e+00	0.00000e+00	0.00000e+00	0.00000e+00	0.00000e+00	0.00000e+00	0.00000e+00	0.00000e+00	0.00000e+00	0.00000e+00	0.00000e+00	0.00000e+00	0.00000e+00	0.00000e+00	0.00000e+00	0.00000e+00	0.00000e+00	0.00000e+00	0.00000e+00	0.00000e+00	0.00000e+00	0.00000e+00	0.00000e+00	0.00000e+00	0.00000e+00	0.00000e+00	0.00000e+00	0.00000e+00	0.00000e+00	0.00000e+00	0.00000e+00	0.00000e+00	0.00000e+00	0.00000e+00	0.00000e+00	0.00000e+00	0.00000e+00	0.00000e+00	0.00000e+00	0.00000e+00	0.00000e+00	0.00000e+00	0.00000e+00	0.00000e+00	
Factor	1.00000e+00	1.00000e+00	1.00000e+00	1.00000e+00	1.00000e+00	1.00000e+00	1.00000e+00	1.00000e+00	1.00000e+00	1.00000e+00	1.00000e+00	1.00000e+00	1.00000e+00	1.00000e+00	1.00000e+00	1.00000e+00	1.00000e+00	1.00000e+00	1.00000e+00	1.00000e+00	1.00000e+00	1.00000e+00	1.00000e+00	1.00000e+00	1.00000e+00	1.00000e+00	1.00000e+00	1.00000e+00	1.00000e+00	1.00000e+00	1.00000e+00	1.00000e+00	X	X	X	X	X	X	X	X	X	X	X	X	X	X	X	X	

B = Detector Channel
Val Type	B-AC1	B-AC2	B-AC3	B-AC4	B-AC5	B-AC6	B-AC7	B-AC8	B-AC9	B-AC10	B-AC11	B-AC12	B-AC13	B-AC14	B-AC15	B-AC16	B-DC1	B-DC2	B-DC3	B-DC4	B-DC5	B-DC6	B-DC7	B-DC8	B-DC9	B-DC10	B-DC11	B-DC12	B-DC13	B-DC14	B-DC15	B-DC16	B-Ph1	B-Ph2	B-Ph3	B-Ph4	B-Ph5	B-Ph6	B-Ph7	B-Ph8	B-Ph9	B-Ph10	B-Ph11	B-Ph12	B-Ph13	B-Ph14	B-Ph15	B-Ph16	

Term	0.00000e+00	0.00000e+00	0.00000e+00	0.00000e+00	0.00000e+00	0.00000e+00	0.00000e+00	0.00000e+00	0.00000e+00	0.00000e+00	0.00000e+00	0.00000e+00	0.00000e+00	0.00000e+00	0.00000e+00	0.00000e+00	0.00000e+00	0.00000e+00	0.00000e+00	0.00000e+00	0.00000e+00	0.00000e+00	0.00000e+00	0.00000e+00	0.00000e+00	0.00000e+00	0.00000e+00	0.00000e+00	0.00000e+00	0.00000e+00	0.00000e+00	0.00000e+00	-1.70766e+02	-1.55360e+02	-1.36989e+02	-1.83556e+02	-7.39167e+01	-1.11136e+02	-1.57958e+02	-1.62015e+02	-8.77219e+01	-9.53084e+01	-1.70441e+02	-1.71054e+02	-1.79201e+02	-1.76666e+02	-9.97883e+01	-1.49357e+02	
Factor	2.98084e-05	1.06056e-04	3.44200e-05	1.51934e-01	8.83417e-07	1.01984e-06	1.64616e-01	5.40301e-02	8.79708e-07	1.14181e-06	8.93439e-02	3.10184e-02	2.90158e-02	9.72131e-03	1.45861e-06	1.37752e-02	7.84505e-07	7.99803e-07	2.22624e-07	7.65306e-02	8.71945e-09	8.76617e-09	7.79789e-02	2.70018e-02	8.73877e-09	8.78194e-09	4.25643e-02	1.47342e-02	1.42478e-02	4.76412e-03	8.78011e-09	6.51403e-03	X	X	X	X	X	X	X	X	X	X	X	X	X	X	X	X	



#DISTANCE SETTINGS
A = Detector Channel
A-1	A-2	A-3	A-4	A-5	A-6	A-7	A-8	A-9	A-10	A-11	A-12	A-13	A-14	A-15	A-16	

2.5000e+00	3.0000e+00	2.5000e+00	3.0000e+00	2.0000e+00	3.0000e+00	1.5000e+00	3.0000e+00	3.0000e+00	3.0000e+00	3.0000e+00	3.0000e+00	3.0000e+00	3.0000e+00	1.5000e+00	3.0000e+00	

B = Detector Channel
B-1	B-2	B-3	B-4	B-5	B-6	B-7	B-8	B-9	B-10	B-11	B-12	B-13	B-14	B-15	B-16	

1.0000e+01	1.0000e+01	1.0000e+01	1.4400e+00	1.0000e+01	1.0000e+01	1.5100e+00	1.9400e+00	1.0000e+01	1.0000e+01	1.9900e+00	2.4900e+00	2.4100e+00	2.9000e+00	1.0000e+01	2.9800e+00	




#DATA BEGINS
time	group	step	mark	flag	A-AC1	A-AC2	A-AC3	A-AC4	A-AC5	A-AC6	A-AC7	A-AC8	A-AC9	A-AC10	A-AC11	A-AC12	A-AC13	A-AC14	A-AC15	A-AC16	A-DC1	A-DC2	A-DC3	A-DC4	A-DC5	A-DC6	A-DC7	A-DC8	A-DC9	A-DC10	A-DC11	A-DC12	A-DC13	A-DC14	A-DC15	A-DC16	A-Ph1	A-Ph2	A-Ph3	A-Ph4	A-Ph5	A-Ph6	A-Ph7	A-Ph8	A-Ph9	A-Ph10	A-Ph11	A-Ph12	A-Ph13	A-Ph14	A-Ph15	A-Ph16	B-AC1	B-AC2	B-AC3	B-AC4	B-AC5	B-AC6	B-AC7	B-AC8	B-AC9	B-AC10	B-AC11	B-AC12	B-AC13	B-AC14	B-AC15	B-AC16	B-DC1	B-DC2	B-DC3	B-DC4	B-DC5	B-DC6	B-DC7	B-DC8	B-DC9	B-DC10	B-DC11	B-DC12	B-DC13	B-DC14	B-DC15	B-DC16	B-Ph1	B-Ph2	B-Ph3	B-Ph4	B-Ph5	B-Ph6	B-Ph7	B-Ph8	B-Ph9	B-Ph10	B-Ph11	B-Ph12	B-Ph13	B-Ph14	B-Ph15	B-Ph16	aux-1	digaux	

23144.277	1	1	0	256	0.10227	0.27206	0.27426	0.29653	0.14381	0.059173	0.18939	0.10057	0.2198	0.14714	0.041699	0.044518	0.099543	0.21195	0.10255	0.087275	-3.6625	-4.5458	-4.5021	-4.1417	-4.9146	-4.0958	-4.4417	-4.9208	-3.8063	-4.5125	-4.7	-3.9313	-4.8438	-4.2771	-4.1937	-4.9375	18.707	216.722	171.790	289.099	260.053	206.951	-14.207	176.461	155.036	252.034	105.000	24.750	264.343	3.867	207.203	107.503	0.00013469	0.0010817	0.00018123	1247.5	6.6995e-06	4.3702e-06	1348.4	267.05	3.0293e-06	4.0627e-06	336.67	91.234	72.977	20.829	1.2259e-05	28.395	0.000621	0.00060738	0.00014513	1227.5	5.8809e-06	5.5758e-06	1321.8	267.02	5.321e-06	5.0706e-06	331.8	93.175	75.984	22.152	4.6857e-06	29.932	96.352	307.567	136.556	-6.526	159.118	-15.522	-6.888	0.689	118.297	-15.341	0.184	6.771	7.181	14.667	4.050	14.286	-8191	255	
23144.373	1	1	0	0	0.18563	0.088966	0.016755	0.20945	0.074085	0.090659	0.027606	0.10814	0.089707	0.12567	0.12115	0.20843	0.12299	0.19865	0.16442	0.20808	-3.6292	-4.5437	-4.6292	-4.0583	-4.7271	-4.25	-4.3187	-5.0312	-4.0146	-4.3854	-4.7646	-4.0167	-4.9104	-4.4062	-4.0938	-4.9354	140.375	89.144	251.039	329.314	150.903	103.839	123.221	-4.548	289.896	244.108	243.671	262.966	299.602	13.713	154.912	104.841	0.00014934	8.3469e-05	6.8994e-05	1253.3	9.1717e-07	2.854e-06	1350	268.06	7.5752e-06	1.6543e-06	336.39	92.523	73.714	20.959	5.3832e-06	28.647	0.00050549	0.00048093	0.00012666	1232.4	6.0742e-06	5.623e-06	1328	271.18	6.3175e-06	5.7492e-06	337.16	95.757	78.267	22.624	5.3193e-06	30.784	98.793	13.650	316.760	-6.681	53.415	133.440	-6.800	0.480	170.630	280.652	0.324	6.749	6.890	14.453	17.493	14.111	-8191	255	
23144.471	1	1	0	0	0.24612	0.093972	0.21346	0.10824	0.085214	0.20306	0.2191	0.20672	0.1861	0.058749	0.19175	0.096004	0.38691	0.07439	0.24681	0.16062	-3.8667	-4.3792	-4.7979	-4.1104	-4.7375	-4.4771	-4.2354	-5.0958	-4.1687	-4.2812	-4.7729	-3.8646	-4.6958	-4.5896	-4.0167	-4.9062	128.209	231.558	98.542	289.849	-9.655	265.568	327.882	-5.568	84.893	87.645	337.201	306.590	302.270	127.861	48.710	89.914	0.00028243	8.294e-05	0.00021225	1256	3.0915e-06	1.2361e-05	1356	267.8	4.9605e-06	4.5666e-06	334.72	91.608	73.05	20.759	5.7098e-06	28.415	0.00055545	0.00050444	0.00013036	1236.5	6.0531e-06	5.4664e-06	1329.6	271.52	6.1514e-06	5.6642e-06	336.41	96.37	77.696	22.535	5.592e-06	31.226	60.307	334.021	86.189	-6.784	217.374	45.351	-6.863	0.482	-2.443	123.797	0.407	6.730	7.434	14.628	207.566	13.937	-8191	255	
23144.566	1	1	0	0	0.084473	0.16629	0.2387	0.097559	0.095004	0.015799	0.2496	0.25871	0.097187	0.18699	0.19881	0.19371	0.26919	0.15062	0.022712	0.079687	-4.0021	-4.05	-4.9021	-4.0625	-4.4688	-4.6979	-4.1771	-4.9792	-4.2812	-4.2021	-4.9958	-4.1792	-4.6208	-4.7646	-4.0167	-4.9875	23.255	-15.961	54.566	295.306	260.569	292.782	278.199	306.809	147.569	304.240	257.832	226.132	154.072	320.710	108.797	215.656	0.00020252	0.00048666	9.4537e-05	1250.8	1.0901e-06	5.5947e-06	1345.1	266.65	4.1049e-06	2.1389e-06	334.44	91.396	72.655	20.969	1.6724e-05	28.159	0.00056803	0.00053428	0.00014361	1240.2	6.3224e-06	5.8626e-06	1328.5	273.49	6.6139e-06	6.381e-06	341.45	98.684	79.137	23.244	7.3216e-06	32.687	67.191	4.990	60.039	-6.695	64.348	4.258	-6.480	0.720	25.324	225.482	0.613	6.871	7.102	14.391	147.045	13.619	-8191	255	
23144.662	1	1	0	0	0.12615	0.26304	0.26457	0.16551	0.11804	0.12387	0.1276	0.16811	0.18219	0.14378	0.27557	0.23177	0.16509	0.1184	0.10731	0.0056858	-3.9292	-4.1104	-4.9833	-4.2688	-4.55	-4.8479	-4.0104	-4.9708	-4.5333	-3.9813	-5.1417	-4.1229	-4.3396	-4.8938	-3.8375	-4.85	24.767	338.478	43.367	302.991	131.811	83.552	277.148	329.558	254.929	301.698	275.964	249.890	244.880	82.643	245.096	262.185	8.4335e-05	0.00052411	0.00029963	1261.4	5.4156e-06	6.8843e-06	1356.8	268.51	6.7229e-06	3.9309e-06	336.22	91.633	73.105	20.855	1.0942e-05	28.187	0.00070739	0.00068745	0.00020203	1270.7	8.0731e-06	7.5555e-06	1362.9	282.02	8.023e-06	7.6328e-06	351.43	100.15	80.067	23.233	7.92e-06	32.195	59.065	-0.155	118.388	-6.365	89.026	0.294	-6.537	0.399	309.179	71.801	0.217	6.785	7.112	14.323	266.810	13.992	-8191	255	
23144.758	1	1	0	0	0.019316	0.11612	0.073753	0.20695	0.1338	0.10304	0.18733	0.16584	0.085491	0.089177	0.15565	0.058563	0.2744	0.10757	0.054906	0.039494	-4.2063	-4.0687	-4.9812	-4.2833	-4.2146	-4.8	-4.1833	-4.7438	-4.4583	-3.9396	-4.9604	-4.2271	-4.0583	-4.7958	-3.8854	-4.6521	305.717	299.091	159.696	34.099	40.935	27.742	292.542	12.187	69.751	95.904	323.064	19.527	252.154	-2.149	216.436	277.545	0.00032037	0.00012258	9.3774e-05	1260.9	7.4719e-06	2.7711e-06	1353.8	266.17	4.3236e-06	1.2879e-06	331.03	89.325	71.092	20.039	7.1977e-06	27.782	0.0006429	0.00060125	0.00018819	1255.2	6.5065e-06	6.0381e-06	1345.9	271.25	5.8379e-06	5.6536e-06	338.22	93.638	74.4	21.53	5.9438e-06	29.766	119.831	46.456	111.372	-6.574	127.844	117.956	-6.643	0.509	11.717	22.553	0.370	6.927	7.170	14.961	137.673	14.215	-8191	255	
23144.877	1	1	0	0	0.14046	0.10488	0.31398	0.23652	0.11509	0.23761	0.12353	0.25025	0.16171	0.060091	0.12647	0.19966	0.23164	0.2121	0.2868	0.21752	-4.5646	-3.9562	-4.9812	-4.4313	-4.2167	-4.7583	-4.0437	-4.4875	-4.8208	-3.8521	-4.8646	-4.4437	-4.1375	-4.9854	-3.9729	-4.3646	90.953	249.477	53.825	282.271	178.323	94.171	208.125	284.635	34.251	185.525	218.562	225.531	257.471	50.854	144.882	254.827	0.00017361	0.00076801	0.00028803	1241.1	1.7679e-06	7.4891e-06	1340	261.23	1.4831e-06	5.1886e-06	328.19	89.425	71.166	19.851	9.8815e-06	27.694	0.0004415	0.00045003	0.00014201	1219.4	4.7222e-06	4.832e-06	1320.9	262.79	4.7993e-06	5.1183e-06	332.85	92.199	73.672	21.624	6.2058e-06	29.943	117.314	97.845	111.383	-6.485	13.829	189.546	-6.486	0.582	298.546	168.470	0.225	7.308	7.533	14.972	119.997	14.370	-8191	255	
23144.973	1	1	0	0	0.051602	0.13959	0.087343	0.20135	0.22565	0.12515	0.21671	0.14967	0.092164	0.23949	0.27422	0.091428	0.067058	0.13707	0.17796	0.11248	-4.5604	-3.9125	-4.7812	-4.7146	-4.0792	-4.9792	-4.4083	-4.3896	-4.9062	-3.8708	-4.8167	-4.5458	-4.0604	-5.0813	-4.2333	-4.2271	309.076	263.155	237.679	276.858	99.805	21.629	247.093	309.147	186.304	196.977	333.981	164.214	252.540	43.394	136.887	228.325	0.00018735	0.00026974	0.00027045	1255.5	1.3031e-06	1.1327e-05	1353.6	266.53	5.5933e-07	1.659e-06	332.78	89.761	71.406	20.197	1.3909e-05	28.055	0.00048918	0.00055642	0.00016806	1237.8	5.7851e-06	6.5679e-06	1344.5	270.45	6.0758e-06	7.1375e-06	344.11	95.392	76.908	23.064	7.8252e-06	31.383	86.244	337.857	-14.628	-6.406	342.706	143.223	-6.344	0.842	74.086	109.539	0.454	7.557	7.451	14.397	25.629	14.340	-8191	255	
23145.068	1	1	0	0	0.07639	0.019959	0.28155	0.37985	0.11341	0.22674	0.29014	0.26103	0.11924	0.1411	0.074937	0.12626	0.049509	0.039286	0.088542	0.083765	-4.5083	-3.8583	-4.6771	-4.8958	-3.9417	-4.875	-4.5521	-4.3896	-4.8083	-4.0729	-4.6125	-4.8604	-4.0521	-4.8521	-4.4042	-4.1354	283.334	234.579	102.197	297.983	320.795	26.086	315.045	281.339	266.206	197.497	247.171	205.691	287.925	220.694	-1.299	196.166	0.00013909	0.00056657	0.00024576	1268.7	6.7492e-07	7.4448e-06	1379.9	271.53	7.6703e-06	1.0138e-06	340.78	93.591	74.312	21.172	1.309e-05	28.809	0.00063396	0.00077156	0.00021663	1270	7.936e-06	9.5827e-06	1386.1	283.8	9.0243e-06	1.0988e-05	367.52	103.83	85.729	26.436	1.1317e-05	34.819	72.492	90.966	22.491	-6.391	104.677	54.686	-6.550	0.470	99.947	74.573	0.210	6.912	7.661	14.405	28.819	13.381	-8191	255	
23145.166	1	1	0	0	0.22121	0.12724	0.25793	0.19357	0.11434	0.17282	0.18062	0.063202	0.087208	0.05334	0.10549	0.10982	0.20517	0.065677	0.2757	0.072492	-4.6458	-3.8229	-4.4146	-4.8292	-3.8354	-4.8562	-4.5771	-4.0083	-4.8271	-4.1354	-4.4313	-4.7812	-3.8563	-4.8688	-4.4729	-4.0417	19.955	303.564	156.002	20.046	221.863	131.237	286.441	114.285	179.426	194.044	202.772	72.069	228.930	313.404	171.829	306.871	0.00063132	0.00052279	0.00026447	1293.3	1.0089e-05	7.0303e-06	1392.4	276.66	4.9833e-06	7.574e-06	340.41	92.643	73.406	20.933	1.0214e-05	28.255	0.0010047	0.0011781	0.00030051	1321.6	1.1566e-05	1.2955e-05	1421.5	293.5	1.1196e-05	1.2005e-05	367.34	102.4	84.983	25.176	9.2019e-06	32.478	109.704	53.153	287.781	-6.430	198.969	333.253	-6.296	0.424	201.915	25.848	0.316	7.376	7.427	14.459	199.108	13.922	-8191	255	
23145.262	1	1	0	0	0.15666	0.1386	0.17478	0.23031	0.10016	0.016064	0.28581	0.19748	0.15583	0.11322	0.14179	0.019186	0.20549	0.17781	0.12179	0.30259	-4.5687	-4.0729	-4.2438	-4.9854	-3.7812	-4.6917	-4.8229	-4.2625	-4.7792	-4.1333	-4.2312	-4.7708	-4.0333	-4.5708	-4.7146	-4.1729	29.447	124.140	3.970	271.554	4.440	83.396	303.244	8.439	167.653	-1.165	274.373	35.764	323.323	262.564	88.807	281.483	0.00031901	0.00027059	0.00021184	1265.4	1.3282e-05	6.7487e-06	1353.8	262.46	1.0708e-06	5.3316e-06	327.37	88.642	69.793	19.85	4.2212e-06	27.39	0.00082949	0.00084177	0.0002044	1261.4	8.1176e-06	7.902e-06	1345.2	268.58	7.2852e-06	7.0226e-06	334.85	92.684	76.246	22.103	6.0729e-06	29.831	113.045	53.276	48.220	-6.405	187.632	79.288	-6.590	0.536	312.276	86.722	0.482	7.162	8.003	14.308	274.857	14.470	-8191	255	
23145.357	1	1	0	0	0.034219	0.13612	0.10718	0.34421	0.23203	0.14335	0.093878	0.21249	0.14737	0.054245	0.090679	0.107	0.073101	0.31884	0.19667	0.10246	-4.5458	-4.2688	-4.0708	-4.8812	-3.8979	-4.4	-4.9125	-3.9021	-4.8104	-4.3646	-4.2521	-4.9521	-4.0458	-4.4062	-4.7562	-3.9	243.972	170.260	215.021	308.301	224.027	269.418	283.925	341.741	231.083	53.156	14.067	148.871	174.234	289.120	45.116	67.085	0.00018975	0.0004551	0.00014905	1245	5.9383e-06	6.2979e-06	1339.6	260.93	5.6748e-06	3.715e-06	328.04	88.741	70.833	20.097	5.7454e-06	27.608	0.00064192	0.00061424	0.00016279	1232.1	7.6496e-06	7.2466e-06	1333.6	269.16	8.2799e-06	7.6362e-06	339.26	95.934	79.715	23.059	7.5307e-06	31.723	70.858	25.236	38.859	-6.680	165.015	47.094	-6.535	0.748	131.228	225.919	0.486	7.560	7.046	14.541	333.109	14.152	-8191	255	
23145.479	1	1	0	0	0.2442	0.27888	0.084711	0.10633	0.13035	0.25278	0.13074	0.20949	0.092134	0.26965	0.32308	0.26935	0.15983	0.074234	0.11538	0.20238	-4.4021	-4.3104	-4.0938	-5.2438	-3.9917	-4.3271	-4.9938	-3.9375	-4.5667	-4.4313	-4.0958	-5.0125	-4.2875	-4.2979	-4.8146	-3.9375	213.435	159.087	224.112	314.376	118.104	-9.997	193.169	306.841	142.282	60.276	263.376	50.941	264.252	27.610	306.741	259.169	5.8208e-05	0.00027048	8.8998e-05	1244.5	5.5557e-06	7.5178e-06	1344.1	262.57	4.0312e-06	6.5922e-06	328.86	89.253	70.489	19.987	6.716e-06	27.794	0.00081718	0.00074579	0.00019558	1253.2	9.0328e-06	8.2046e-06	1340	274.23	8.8523e-06	7.9794e-06	341.97	97.78	79.624	23.012	7.6599e-06	32.41	126.065	5.360	329.721	-6.685	247.129	120.994	-6.683	0.574	6.321	145.420	0.391	7.478	7.341	14.437	256.208	14.359	-8191	255	
23145.574	1	1	0	0	0.10361	0.26355	0.2101	0.28154	0.084252	0.11089	0.23894	0.064875	0.12043	0.13225	0.15678	0.053635	0.1571	0.20241	0.16171	0.018046	-4.4625	-4.6333	-3.7792	-5.0896	-4.1458	-3.9917	-5.1104	-3.7938	-4.5104	-4.5938	-3.925	-4.7771	-4.4604	-4.25	-4.9667	-4.075	100.963	-3.301	296.160	29.693	274.951	307.900	291.592	28.570	252.323	-15.658	340.191	263.677	142.560	320.333	41.444	341.445	0.00017625	0.00052749	7.914e-05	1244	1.3588e-06	3.4336e-06	1347.6	263.44	5.8662e-06	1.7571e-06	329.72	89.441	71.472	20.144	1.6956e-05	27.54	0.00080526	0.00075382	0.00020519	1260.8	9.1989e-06	8.5476e-06	1352.7	279.36	9.3091e-06	8.5126e-06	347.57	100.18	80.452	23.276	8.3886e-06	32.788	71.219	-0.072	176.906	-6.811	88.569	117.923	-6.486	0.528	23.668	273.940	0.366	6.770	7.610	14.566	209.595	13.878	-8191	255	
23145.670	1	1	0	0	0.11348	0.10148	0.037996	0.40128	0.18367	0.28569	0.15416	0.046289	0.31025	0.2549	0.16577	0.072382	0.084031	0.26633	0.11877	0.10353	-4.2063	-4.7479	-3.9708	-5.0188	-4.3146	-4.175	-5.1229	-4.0771	-4.4521	-4.8771	-3.9542	-4.7375	-4.5583	-4.1458	-4.8583	-4.2021	72.248	312.637	131.564	235.340	322.785	328.510	299.497	3.538	185.150	175.753	60.131	173.129	277.960	310.517	324.433	313.942	0.0001603	0.00047168	0.0004939	1247.3	1.4586e-06	6.257e-06	1348.8	264.23	1.2391e-06	1.7794e-06	327.55	88.939	70.807	20.087	2.8622e-06	27.489	0.00077933	0.00071814	0.00020629	1260.8	7.921e-06	7.4357e-06	1346.1	275.31	7.6757e-06	7.0777e-06	342.91	97.251	77.514	22.415	7.8535e-06	31.653	179.223	38.527	101.824	-6.399	50.406	57.324	-6.560	0.526	198.666	225.666	0.550	6.818	7.640	14.329	210.677	14.006	-8191	255	
23145.742	1	1	0	0	0.023616	0.13932	0.05875	0.34671	0.096614	0.13116	0.31349	0.30094	0.17646	0.20204	0.17238	0.1902	0.06935	0.1164	0.095753	0.046439	-4.0312	-4.7583	-3.9625	-4.9625	-4.4333	-4.0896	-5.1312	-4.1937	-4.2646	-4.9146	-4.1292	-4.7188	-4.65	-4.0625	-4.8771	-4.3583	74.076	36.901	151.127	308.250	247.346	142.037	311.288	267.590	30.902	104.793	282.639	341.664	18.831	323.272	323.257	288.143	0.00022761	0.00052909	0.00027757	1249.8	4.0798e-06	6.2112e-06	1348.4	262.89	7.5868e-06	8.538e-06	327.51	88.709	70.47	19.871	2.2158e-06	27.452	0.00067611	0.00063636	0.00020408	1253.1	7.4528e-06	7.2232e-06	1352.7	273.3	7.5344e-06	7.1877e-06	345.27	96.742	77.176	22.512	8.4098e-06	31.439	171.747	311.133	93.022	-6.635	136.231	122.462	-6.581	0.490	7.233	95.505	0.319	7.213	7.369	14.590	198.245	14.097	-8191	255	
23145.861	1	1	0	0	0.10974	0.11785	0.09693	0.027094	0.11091	0.16146	0.20635	0.34846	0.20622	0.14011	0.11915	0.094379	0.10203	0.14721	0.25689	0.20469	-4.0479	-4.8208	-3.9292	-4.8479	-4.5271	-3.9521	-5.0687	-4.4875	-4.225	-4.9958	-4.2833	-4.5396	-4.6792	-4.0792	-4.5938	-4.3875	66.482	-2.254	-15.624	340.151	47.777	99.200	270.547	285.848	64.353	136.654	-10.443	282.549	-16.323	18.043	105.694	25.966	7.0491e-05	0.00032586	0.00030411	1242.1	2.3363e-06	7.3103e-06	1338.8	259.66	7.1491e-06	6.5344e-06	325.44	88.013	70.158	19.706	3.1436e-06	27.321	0.00066144	0.00065156	0.00021103	1241.4	6.9755e-06	7.092e-06	1343.4	268.7	6.865e-06	6.9961e-06	341.53	94.422	75.449	22.137	7.731e-06	30.388	5.823	160.765	123.503	-6.987	235.226	105.478	-6.558	0.646	46.685	180.085	0.267	7.242	7.486	15.109	25.497	13.890	-8191	255	
23145.957	1	1	0	0	0.2967	0.022563	0.11215	0.13882	0.013255	0.28682	0.24284	0.28314	0.070426	0.096136	0.03603	0.037172	0.08014	0.18739	0.1591	0.049152	-3.7562	-4.7562	-4.0563	-4.5646	-4.7229	-3.8729	-5.1854	-4.5687	-4.0938	-4.8333	-4.2708	-4.3729	-4.8708	-3.8604	-4.675	-4.6312	315.558	220.442	152.097	318.967	247.201	306.998	314.594	318.819	266.335	316.717	317.694	244.076	43.447	286.966	290.657	296.204	0.00019722	0.00071157	9.7764e-06	1236.6	5.4533e-06	6.0928e-06	1329.4	259.7	3.1993e-06	8.8482e-06	325.35	88.285	70.089	19.632	4.9677e-06	27.502	0.00057487	0.00061787	0.0001878	1228.5	6.0466e-06	6.7488e-06	1327.4	263.81	6.0538e-06	6.7754e-06	335.12	93.072	74.301	22.194	7.1446e-06	30.234	138.003	138.055	262.036	-6.675	138.656	175.641	-6.578	0.740	159.383	178.460	0.519	7.335	7.538	14.856	34.460	14.158	-8191	255	
23146.055	1	1	0	0	0.012547	0.14365	0.050407	0.27364	0.082204	0.10913	0.25656	0.33679	0.097049	0.19821	0.1464	0.18793	0.13938	0.23975	0.16404	0.23898	-3.6729	-4.8104	-4.1271	-4.45	-4.8146	-3.9104	-4.9	-4.6729	-3.8312	-4.8708	-4.3875	-4.2042	-4.7833	-4.0229	-4.4437	-4.7625	220.497	8.785	99.698	313.747	86.797	118.265	267.978	266.515	274.680	47.799	254.352	283.009	287.335	41.440	48.371	311.222	0.00045808	0.00068534	6.8898e-05	1245.2	8.8705e-07	2.3234e-06	1337	259.07	4.8329e-07	7.2731e-06	324.39	88.354	70.232	19.614	1.1798e-06	27.161	0.0005633	0.00066593	0.00018371	1231.4	6.3448e-06	7.4966e-06	1334.2	265.94	6.6238e-06	7.7524e-06	337.55	93.786	75.865	22.739	7.3755e-06	30.414	62.225	134.272	83.563	-6.673	227.138	254.887	-6.827	0.531	337.415	156.840	0.506	6.974	7.503	14.591	257.861	14.032	-8191	255	
23146.150	1	1	0	0	0.066445	0.0932	0.081769	0.16668	0.090091	0.20344	0.23604	0.26065	0.24317	0.12013	0.28329	0.10344	0.23201	0.10402	0.27892	0.10808	-3.625	-4.7688	-4.2771	-4.2625	-5.0125	-4.0729	-4.7042	-5.0479	-3.8458	-4.7854	-4.5604	-4.0667	-4.9333	-4.1167	-4.3292	-4.8479	3.122	154.844	183.131	257.430	329.175	-5.424	268.180	257.959	208.346	151.652	295.983	188.258	261.331	70.862	336.432	304.583	0.00041475	0.00092311	0.00020866	1239.1	1.0323e-05	4.3688e-06	1346.9	261.14	1.1012e-05	5.7227e-06	327.85	88.226	70.759	19.766	7.6377e-06	27.597	0.00062787	0.00074397	0.00018953	1237.6	7.3742e-06	8.5427e-06	1345.1	269.48	7.8091e-06	8.7417e-06	342.34	95.169	78.55	23.326	7.943e-06	31.051	111.185	155.097	315.070	-6.754	172.342	295.883	-6.778	0.612	185.827	279.882	0.469	6.824	7.491	14.217	283.073	14.466	-8191	255	
23146.270	1	1	0	0	0.17581	0.22941	0.083161	0.24287	0.045102	0.2217	0.26667	0.081135	0.2322	0.065889	0.2637	0.4768	0.17058	0.051185	0.053889	0.012072	-3.5792	-4.7792	-4.5167	-4.2583	-4.8979	-4.1417	-4.4083	-4.9729	-3.925	-4.55	-4.5833	-3.9062	-4.9792	-4.1521	-4.2146	-4.9625	257.006	280.451	35.082	295.943	307.836	65.709	-15.241	137.551	118.331	22.178	104.437	255.250	288.456	35.729	146.821	170.788	0.00032754	0.00039695	0.00016932	1246.9	9.6224e-06	5.656e-06	1347.9	260.82	4.7635e-06	1.1209e-05	325.95	88.174	70.256	19.781	8.4721e-06	27.252	0.00074386	0.00079106	0.00019805	1243.3	8.2342e-06	8.4906e-06	1344.6	269.35	8.4379e-06	8.4467e-06	340.12	95.107	78.875	22.964	7.5736e-06	30.93	78.421	6.224	188.158	-6.871	248.900	110.396	-6.799	0.345	174.406	334.021	0.347	7.228	7.088	14.224	300.605	14.519	-8191	255	
23146.342	1	1	0	0	0.070262	0.21128	0.20133	0.43472	0.1745	0.079926	0.20444	0.2293	0.060997	0.084201	0.25312	0.27661	0.022283	0.24804	0.17607	0.16144	-3.6833	-4.5062	-4.5854	-4.1479	-4.8167	-4.0542	-4.2125	-4.8896	-4.0854	-4.4458	-4.6875	-3.9896	-4.6625	-4.5979	-4.175	-5.0062	29.455	269.707	242.898	329.758	-15.871	271.161	314.461	219.680	79.486	63.696	104.232	62.853	188.600	318.815	293.319	51.211	0.00039284	0.00045256	3.8238e-05	1241.8	1.2044e-06	4.4852e-06	1347.1	260.35	3.0246e-06	3.4826e-06	326.03	87.386	70.079	19.641	8.0605e-07	27.092	0.00076656	0.00073652	0.00018565	1239.2	8.2699e-06	7.6256e-06	1335.8	267.55	7.8936e-06	7.2548e-06	333.56	93.613	77.084	22.048	6.2952e-06	30.127	101.220	32.668	294.510	-7.022	105.449	49.346	-7.087	0.379	107.171	58.734	-0.061	6.871	7.064	14.568	27.644	14.077	-8191	255	
23146.438	1	1	0	0	0.29138	0.23334	0.25014	0.36013	0.19323	0.22126	0.054319	0.45864	0.27663	0.15136	0.19577	0.10841	0.090506	0.20866	0.25204	0.19695	-3.7354	-4.5083	-4.7396	-4.0396	-4.9083	-4.3792	-4.225	-4.9354	-4.0771	-4.375	-5.0687	-4.1604	-4.6417	-4.3958	-4.0083	-5.1208	267.240	253.865	251.553	264.717	252.942	168.072	-3.922	228.423	254.385	312.428	10.196	166.606	206.086	283.268	295.725	97.220	3.3086e-05	0.00057181	8.0151e-05	1232.7	9.0188e-06	5.9405e-06	1330	258.3	4.1101e-06	2.5854e-06	322.62	87.437	69.073	19.588	6.3139e-06	26.973	0.00065442	0.0005888	0.00015241	1224.9	7.0025e-06	6.2673e-06	1314.8	263.66	6.7788e-06	6.1399e-06	326.98	92.623	74.774	21.468	5.5984e-06	29.78	207.873	25.712	-8.831	-6.942	61.763	125.531	-6.915	0.612	300.530	324.275	-0.052	6.483	7.307	13.841	209.417	13.812	-8191	255	
23146.559	1	1	0	0	0.053818	0.14256	0.116	0.33447	0.21529	0.14533	0.40518	0.18748	0.053461	0.072759	0.13443	0.042577	0.15543	0.12933	0.1035	0.28456	-3.7875	-4.275	-4.7438	-3.9188	-4.7083	-4.6021	-4.1875	-4.975	-4.1417	-4.2708	-4.9313	-4.1583	-4.5979	-4.8354	-3.8167	-4.9979	5.892	270.044	16.399	295.435	310.820	162.806	273.951	326.846	205.098	-3.276	101.140	286.954	305.439	242.793	319.078	312.966	0.00028683	0.00029677	0.00014099	1227.6	1.4611e-06	2.5631e-06	1324.1	255.43	4.5713e-06	3.8972e-06	321.11	86.616	69.147	19.529	3.6647e-06	26.951	0.00057496	0.00053566	0.00013994	1219.7	6.213e-06	5.639e-06	1306.3	261.17	5.8908e-06	5.4952e-06	323.17	91.765	73.416	21.067	5.4151e-06	29.769	27.864	314.964	39.465	-7.019	1.945	236.018	-7.093	0.585	4.785	131.173	0.266	7.270	7.399	14.727	159.865	14.403	-8191	255	
23146.654	1	1	0	0	0.10106	0.096027	0.096489	0.20086	0.10671	0.13775	0.14066	0.21811	0.070998	0.13858	0.27532	0.10807	0.13086	0.036466	0.077217	0.10117	-4.0083	-4.3521	-4.9271	-4.3187	-4.4292	-4.6979	-4.2063	-4.8604	-4.2917	-4.0958	-5.0125	-3.8937	-4.5437	-4.7854	-4.0729	-4.6896	16.592	280.862	134.205	293.539	321.857	140.244	222.073	316.709	325.463	64.328	267.043	74.340	309.283	252.094	282.173	310.177	0.00012909	0.00039375	0.00016372	1228.7	3.4899e-06	6.2714e-06	1325.6	255.84	1.7871e-06	3.9461e-06	321.83	87.108	68.934	19.661	1.6409e-05	26.756	0.00052354	0.00049764	0.00014095	1218.4	5.8382e-06	5.4151e-06	1306.1	261.64	5.7944e-06	5.4455e-06	326.05	92.095	73.026	21.11	5.9521e-06	29.748	92.466	27.410	157.380	-6.652	90.139	87.520	-6.808	0.799	128.518	-3.096	0.840	7.350	7.611	14.660	154.350	14.102	-8191	255	
23146.752	1	1	0	0	0.1632	0.12184	0.13022	0.12536	0.30111	0.18734	0.26547	0.16305	0.054991	0.11713	0.030393	0.47026	0.099786	0.051987	0.17112	0.16193	-4.2458	-3.9542	-5.0104	-4.2292	-4.2854	-4.7937	-4.1958	-4.7042	-4.4812	-4.1208	-5.0188	-4.1208	-4.2812	-4.8313	-3.7771	-4.6458	340.384	182.908	93.773	312.130	292.260	114.518	342.089	263.344	229.722	192.355	255.221	315.468	304.222	255.682	300.787	285.682	0.00010578	0.0006179	0.00012876	1227.1	6.2283e-06	5.632e-06	1325.3	254.87	3.5645e-06	5.8701e-06	323.72	87.007	68.829	19.544	1.5612e-05	27.041	0.00050993	0.00048931	0.00015234	1217.3	5.6642e-06	5.3359e-06	1313.7	260.84	5.5789e-06	5.3959e-06	328.38	91.487	73.044	21.063	6.2572e-06	29.508	37.857	76.551	-9.769	-6.952	19.920	202.566	-6.846	0.499	162.195	104.004	0.341	7.167	7.332	15.083	149.430	14.056	-8191	255	
23146.869	1	1	0	0	0.086258	0.14861	0.01732	0.13379	0.025929	0.14515	0.18641	0.14624	0.28461	0.094705	0.13187	0.24653	0.099632	0.14735	0.11577	0.12951	-4.0958	-3.875	-4.7937	-4.3021	-4.1458	-4.9229	-4.2792	-4.625	-4.5646	-3.8854	-5.0729	-4.3562	-4.1625	-4.8375	-4.0833	-4.2562	174.625	147.846	3.798	307.638	189.052	15.433	283.572	299.901	124.056	130.659	35.100	20.786	223.321	90.754	171.507	224.052	0.00021444	0.00034509	3.5401e-05	1224.8	1.9017e-06	7.3455e-06	1327.3	257.15	2.1984e-06	2.5977e-06	320.67	86.965	70.18	19.517	6.9197e-06	27.05	0.00049521	0.00048818	0.00015841	1213.4	5.3774e-06	5.3168e-06	1311.8	260.19	5.2998e-06	5.3975e-06	328.21	90.81	72.897	21.216	6.1699e-06	29.203	33.830	40.163	312.743	-6.742	183.962	189.264	-6.513	0.764	164.738	198.363	0.688	6.821	7.522	15.022	144.188	14.207	-8191	255	
23146.967	1	1	0	0	0.10966	0.071801	0.095739	0.36442	0.12798	0.19223	0.17936	0.12042	0.12953	0.077942	0.07219	0.23322	0.1595	0.022082	0.18807	0.19006	-4.5813	-3.9646	-4.6937	-4.5	-4.3187	-4.7937	-4.2625	-4.4437	-4.8083	-3.8604	-4.8667	-4.4604	-3.9792	-4.9917	-4.1479	-4.4021	198.003	247.229	143.784	296.658	109.797	104.133	220.782	-7.774	109.208	178.986	318.252	197.783	272.794	90.875	177.209	294.246	0.00024005	0.00035587	0.00010257	1231.3	1.895e-06	8.1308e-06	1327.4	255.87	9.2191e-07	2.5496e-06	322.4	87.192	69.2	19.487	1.0725e-05	26.97	0.00046536	0.00049952	0.00015445	1209.2	5.1223e-06	5.4812e-06	1310.5	258.2	4.967e-06	5.6077e-06	326.57	90.154	72	21.27	5.6846e-06	28.829	85.994	112.059	80.580	-6.529	78.096	89.901	-6.705	0.539	172.949	221.135	0.478	7.156	6.961	14.606	7.342	13.943	-8191	255	
23147.037	1	1	0	0	0.11357	0.30721	0.22784	0.19931	0.17908	0.18873	0.20672	0.068248	0.086754	0.091528	0.14465	0.03842	0.035582	0.06941	0.24098	0.071883	-4.5354	-3.9229	-4.7729	-4.6979	-3.975	-4.9333	-4.35	-4.1958	-4.8167	-3.8438	-4.7167	-4.7354	-4.0854	-4.925	-4.3542	-4.2833	202.061	2.719	193.122	279.865	25.096	287.422	255.209	105.868	119.511	139.753	140.031	284.831	50.082	322.955	193.763	206.371	0.00022323	0.00064616	0.00021081	1232.8	3.57e-06	6.1467e-06	1325.8	257.7	1.6415e-06	6.6714e-06	323.84	87.379	69.697	19.595	1.0666e-05	27.102	0.00043482	0.00050822	0.00014222	1209.2	4.8841e-06	5.7388e-06	1310.1	259.06	5.0707e-06	6.0991e-06	327.89	90.585	73.023	21.812	5.9741e-06	29.314	47.029	86.274	301.647	-6.827	97.304	12.032	-6.735	0.350	139.253	34.645	0.174	6.900	7.340	14.511	324.623	13.832	-8191	255	
23147.158	1	1	0	0	0.071814	0.15981	0.10783	0.1743	0.12521	0.043087	0.35056	0.37926	0.057771	0.0091173	0.17857	0.18191	0.11895	0.086598	0.082704	0.12308	-4.6125	-3.7708	-4.4125	-4.9542	-3.9229	-4.9021	-4.5083	-4.0938	-4.9458	-4.1813	-4.6	-4.8833	-3.9896	-4.8667	-4.4062	-4.1542	152.925	302.566	296.486	281.491	213.826	223.175	282.118	297.056	319.305	200.271	288.275	18.228	283.327	37.434	166.657	129.395	0.00031103	0.00045424	2.459e-05	1232.1	4.5243e-06	2.5504e-06	1335.1	257.28	5.7634e-06	2.4462e-06	324.4	88.181	69.699	19.74	5.1009e-06	27.155	0.00050532	0.00058567	0.00015076	1215.7	5.5735e-06	6.3838e-06	1315.2	260	5.4719e-06	6.2301e-06	327.09	90.452	73.23	21.691	5.3935e-06	28.95	67.874	31.091	275.696	-6.827	140.718	175.602	-6.698	0.526	171.647	251.326	-0.165	6.884	7.459	14.485	187.529	14.048	-8191	255	
23147.256	1	1	0	0	0.13391	0.12141	0.28755	0.30736	0.18642	0.29376	0.27298	0.17401	0.20104	0.21926	0.075381	0.085532	0.020917	0.10772	0.052812	0.094522	-4.7125	-4.0563	-4.4708	-5.0354	-3.8396	-4.6	-4.7479	-4.1813	-4.9083	-4.075	-4.3792	-4.9521	-3.8729	-4.6208	-4.5083	-4	276.449	238.579	141.870	1.609	215.608	290.710	292.567	-9.361	323.573	2.610	14.829	142.182	262.671	128.322	330.010	144.997	0.00041984	0.00037626	9.2566e-05	1227.5	2.3899e-06	1.1595e-06	1327	257.67	4.9967e-06	3.4275e-06	320.73	87.025	69.46	19.707	4.8671e-07	26.995	0.00050692	0.00054283	0.00013618	1210	5.6172e-06	5.8302e-06	1306	258.39	5.6128e-06	5.6419e-06	323.52	89.435	72.895	21.224	4.8669e-06	28.552	134.446	-12.618	92.922	-6.568	237.927	193.950	-6.616	0.383	148.951	109.418	0.575	7.152	7.204	13.932	27.722	13.767	-8191	255	
23147.352	1	1	0	0	0.1514	0.13375	0.26315	0.10866	0.19719	0.015926	0.17393	0.14619	0.19948	0.21867	0.16618	0.12787	0.15551	0.1714	0.20116	0.20661	-4.7875	-4.2375	-4.1562	-5.1354	-3.9458	-4.5687	-4.9313	-3.9271	-4.8812	-4.2167	-4.2667	-5.0104	-4.0625	-4.4521	-4.6521	-4.0229	45.537	25.337	116.855	265.331	143.990	300.336	324.812	68.500	112.935	99.537	64.687	148.343	310.475	324.111	178.849	294.350	0.00033355	0.00016237	0.00012616	1230.6	5.2094e-06	1.2945e-06	1330.8	255.75	5.4098e-06	4.2402e-06	321.69	87.639	69.027	19.691	2.5883e-06	26.935	0.00048675	0.00046713	0.0001211	1204.7	5.3586e-06	5.0853e-06	1304.1	256.29	5.4078e-06	5.0125e-06	320.7	89.603	72.932	21.074	4.8157e-06	28.749	111.856	225.172	10.728	-6.593	144.122	331.105	-6.821	1.029	191.619	336.885	0.086	7.190	7.701	14.366	334.638	14.645	-8191	255	
23147.447	1	1	0	0	0.066373	0.28497	0.18503	0.22865	0.10254	0.11094	0.23799	0.1644	0.080403	0.004409	0.17814	0.1278	0.20441	0.20875	0.020522	0.14645	-4.4833	-4.3938	-4.0312	-4.9792	-4.0229	-4.425	-4.9479	-4.2146	-4.9458	-4.4021	-4.2396	-4.9104	-4.0854	-4.6062	-4.9563	-3.9479	245.606	174.710	217.295	44.580	-3.039	242.765	248.921	-5.927	117.454	271.178	164.474	-11.872	5.791	39.950	295.193	336.436	0.00011842	0.00078067	0.00019853	1236.8	3.0666e-06	2.2985e-06	1328.2	257.07	4.7714e-06	3.6574e-06	322.48	86.914	69.388	19.545	4.5426e-06	26.932	0.00051568	0.00046987	0.00012339	1211.9	5.7398e-06	5.2352e-06	1302.3	258.39	5.7472e-06	5.1007e-06	322.22	90.452	73.236	21.069	4.6744e-06	29.007	91.924	31.751	0.328	-6.492	326.664	329.761	-6.228	0.745	133.306	-10.557	0.784	7.436	7.371	15.218	132.907	14.338	-8191	255	
23147.543	1	1	0	0	0.068492	0.2083	0.17878	0.36421	0.087756	0.2436	0.080584	0.42098	0.052089	0.095854	0.28522	0.13367	0.16393	0.098206	0.14996	0.21483	-4.5125	-4.6208	-3.9417	-5.1562	-4.2042	-4.1375	-5.0521	-3.8875	-4.6833	-4.6083	-4.0938	-4.9708	-4.2625	-4.1687	-4.9458	-4	185.516	98.725	72.592	310.514	146.569	72.052	213.150	299.960	188.622	97.989	326.901	222.340	71.663	310.625	93.819	275.219	0.00019668	0.00028292	0.0002066	1232.2	3.3347e-06	2.4266e-06	1327.7	255.81	4.2126e-06	2.2875e-06	319.82	87.547	69.515	19.605	1.1076e-05	26.972	0.00049552	0.00044614	0.00011855	1210.5	5.2898e-06	4.845e-06	1300.1	258.77	5.2043e-06	4.7352e-06	320.16	90.638	72.334	20.865	4.5829e-06	29.052	30.899	101.635	114.278	-6.829	82.309	126.456	-6.627	1.023	77.350	35.181	0.528	6.933	7.604	14.627	163.066	14.561	-8191	255	
23147.639	1	1	0	0	0.29682	0.2639	0.12356	0.16187	0.09835	0.095581	0.088002	0.1458	0.13492	0.15212	0.17994	0.26129	0.10778	0.04829	0.044532	0.061063	-4.4229	-4.7958	-3.8896	-4.9167	-4.3417	-4.3	-5.0333	-4.3042	-4.4167	-4.7521	-4.15	-4.9042	-4.4021	-4.1813	-4.9667	-4.1583	148.500	323.059	256.988	201.917	239.300	80.778	94.505	120.769	138.682	27.175	0.660	135.752	200.257	23.867	104.560	169.465	0.00013344	0.00031088	0.00018104	1227.4	4.2431e-07	4.7164e-06	1329.9	255.57	2.528e-06	4.224e-06	321.56	86.499	68.841	19.606	4.5255e-06	26.694	0.00044671	0.00041083	0.0001153	1206.8	4.5952e-06	4.2496e-06	1297.6	256.17	4.2949e-06	3.937e-06	317.49	88.88	70.195	20.386	4.1114e-06	28.285	56.508	304.509	247.798	-6.642	273.885	54.343	-6.376	0.732	65.437	37.461	0.247	7.211	7.408	14.730	172.468	14.338	-8191	255	
23147.734	1	1	0	0	0.20783	0.23232	0.09424	0.30689	0.045725	0.13436	0.21909	0.11957	0.1064	0.11065	0.19052	0.10365	0.2109	0.16634	0.19731	0.10849	-4.0646	-4.95	-3.9604	-4.925	-4.4479	-4.05	-5.1104	-4.2375	-4.5083	-4.8542	-3.9062	-4.7625	-4.5625	-4.0938	-4.8583	-4.4333	158.382	111.608	152.888	337.244	215.697	136.473	321.103	277.887	72.266	92.084	310.668	257.143	73.868	136.826	201.997	151.366	0.00013613	4.2075e-05	0.00030719	1230.1	2.3176e-06	6.6827e-06	1326.4	256.89	2.3656e-06	3.2281e-06	320.97	87.683	69.346	19.849	9.5742e-06	27.059	0.00036991	0.00034747	0.00010859	1202.8	4.1628e-06	3.988e-06	1297.5	256.67	4.4053e-06	4.1518e-06	320.86	89.972	71.464	20.836	5.0753e-06	28.884	113.819	112.342	115.602	-6.630	292.407	130.982	-6.142	0.663	199.296	55.412	0.247	7.175	7.743	14.829	121.841	14.425	-8191	255	
23147.832	1	1	0	0	0.17558	0.087243	0.19468	0.37307	0.08511	0.32297	0.32238	0.21164	0.34035	0.07384	0.10583	0.16152	0.19906	0.24914	0.030347	0.12827	-4.0042	-4.8583	-4.0437	-4.7688	-4.7583	-4.1188	-5.2125	-4.4917	-4.3146	-4.9208	-4.0687	-4.6583	-4.6937	-4.0833	-4.8667	-4.425	58.112	-1.003	215.332	273.631	179.740	41.215	282.575	270.783	229.515	121.797	316.567	248.771	80.081	245.484	305.248	204.143	0.00022129	0.00030311	0.00022842	1232	2.566e-06	3.9005e-06	1332.2	257.59	6.9147e-06	2.5621e-06	322.8	87.88	70.275	19.739	2.2534e-06	27.32	0.00042096	0.00041144	0.00013429	1208.7	4.6887e-06	4.6664e-06	1311.3	259.23	4.8073e-06	4.8253e-06	327.35	90.909	72.442	21.259	5.8903e-06	29.216	91.833	2.091	87.975	-6.712	150.194	102.563	-6.508	0.785	97.701	112.492	0.551	7.308	7.489	14.708	282.763	14.363	-8191	255	
23147.949	1	1	0	0	0.097191	0.011666	0.15996	0.10141	0.10658	0.24765	0.22751	0.1336	0.05508	0.1933	0.32064	0.1207	0.10505	0.16701	0.19589	0.11152	-3.7042	-4.9812	-4.1813	-4.6417	-4.7896	-4.025	-5.0583	-4.6354	-4.1958	-4.8667	-4.1542	-4.4792	-4.9104	-3.8271	-4.7812	-4.6208	9.168	112.273	80.321	225.121	162.698	85.773	317.182	268.255	333.309	66.856	228.165	252.985	159.862	73.388	206.816	311.257	0.00018718	0.00067814	0.00015869	1236.9	5.6553e-06	5.7776e-06	1336.9	261.14	4.8792e-06	6.6971e-06	323.54	88.514	70.186	20.128	5.1951e-06	27.286	0.00046065	0.00048651	0.00015217	1217	5.0196e-06	5.4922e-06	1319.9	263.05	5.1417e-06	5.579e-06	330.75	91.999	73.31	21.858	6.0885e-06	29.438	111.278	156.907	173.822	-6.711	142.783	193.817	-6.464	0.551	20.745	221.545	0.282	6.869	6.961	13.897	90.316	13.851	-8191	255	
23148.047	1	1	0	0	0.1771	0.10473	0.063722	0.21209	0.22581	0.099854	0.095303	0.045284	0.044966	0.066942	0.035526	0.11362	0.076058	0.075801	0.098531	0.19854	-3.6646	-4.9104	-4.1062	-4.4354	-4.7604	-3.9833	-4.8792	-4.7208	-3.9333	-4.9979	-4.3646	-4.4938	-4.8438	-3.9542	-4.5458	-4.5417	129.630	333.722	337.675	17.769	13.454	157.871	49.191	244.272	-2.035	204.908	124.787	49.448	115.168	79.975	110.872	63.831	0.00013184	0.00078225	0.0004046	1241.9	3.4686e-06	5.7114e-06	1337.1	261.3	1.1025e-06	7.7599e-06	325.5	88.722	70.402	20.208	1.25e-05	27.186	0.00046847	0.0005345	0.00015303	1221.7	5.144e-06	5.9769e-06	1320.4	263.01	5.2036e-06	6.0171e-06	330.8	91.781	73.481	22.086	5.8347e-06	29.478	159.629	43.214	-13.353	-7.047	109.949	114.843	-6.985	0.395	243.355	58.812	0.332	6.930	7.247	14.831	100.770	13.949	-8191	255	
23148.143	1	1	0	0	0.09229	0.095147	0.17914	0.25898	0.041991	0.16661	0.22964	0.14612	0.09063	0.15909	0.068839	0.29696	0.086266	0.11144	0.12316	0.19892	-3.6583	-4.7854	-4.2083	-4.4583	-4.9854	-4.0729	-4.7542	-4.8667	-3.9542	-4.8146	-4.4646	-4.2271	-4.8771	-4.0875	-4.5	-4.8271	176.107	127.355	8.350	273.333	98.616	278.317	267.915	5.703	69.530	176.879	210.208	334.354	264.192	177.232	337.610	219.280	6.0584e-05	0.00066448	0.00017542	1235.6	6.6189e-06	7.2097e-06	1337.3	258.86	8.9284e-06	2.3715e-06	326.55	89.184	70.793	20.139	3.3165e-06	27.501	0.00047962	0.00056568	0.00014771	1219	5.3893e-06	6.2922e-06	1320.5	261.77	5.5903e-06	6.413e-06	330.02	92.116	74.406	22.275	5.8124e-06	29.509	113.401	62.673	-0.309	-6.787	133.366	52.130	-6.978	0.391	162.182	323.714	0.067	6.731	7.210	14.284	2.935	13.698	-8191	255	
23148.238	1	1	0	0	0.2055	0.2756	0.053694	0.23885	0.13441	0.34629	0.2657	0.37316	0.044894	0.11685	0.12771	0.058633	0.28644	0.20139	0.094965	0.21168	-3.5729	-4.7667	-4.4479	-4.1813	-4.9479	-4.0708	-4.5625	-4.8958	-4.025	-4.6708	-4.525	-4.1083	-4.9042	-4.3938	-4.2958	-4.8292	26.715	42.006	211.442	340.457	78.790	76.329	255.783	329.603	278.921	93.042	30.599	283.214	-12.070	9.423	341.071	330.051	0.00038381	0.00040886	0.00015524	1239.1	3.6088e-07	5.7284e-06	1340.9	261.22	1.4807e-06	3.104e-06	324.51	87.917	70.598	20.097	7.4023e-06	27.405	0.00052465	0.00058156	0.00014591	1223.2	5.959e-06	6.4158e-06	1324.5	263.09	6.1977e-06	6.3889e-06	329.89	91.988	75.82	22.342	5.7947e-06	29.725	100.256	-17.482	60.387	-6.697	267.964	22.103	-6.919	0.428	241.938	-8.481	0.081	6.340	6.869	13.593	1.336	13.949	-8191	255	
23148.336	1	1	0	0	0.072226	0.20762	0.025991	0.17903	0.047736	0.19549	0.2756	0.19781	0.041128	0.062145	0.10524	0.13173	0.11382	0.1286	0.11253	0.014657	-3.6083	-4.6479	-4.4854	-3.875	-4.9771	-4.2562	-4.3833	-5.1417	-3.9167	-4.6667	-4.7125	-4.1292	-4.95	-4.2812	-4.2604	-4.9292	109.750	268.430	112.735	-4.159	51.864	241.345	242.375	-9.138	65.017	187.064	305.202	204.395	13.821	333.578	325.778	123.664	0.000323	0.00056935	0.00028765	1243.5	3.5369e-06	6.6727e-06	1341.2	262.37	6.6245e-06	7.897e-06	325.99	89.222	71.103	20.209	3.0931e-06	27.936	0.00058368	0.00058243	0.00014629	1225.8	6.5419e-06	6.3409e-06	1325.6	265.12	6.648e-06	6.3164e-06	331.92	93.226	76.663	22.374	5.8133e-06	30.18	87.093	29.506	58.415	-7.020	238.206	17.851	-6.892	0.049	196.964	336.675	0.315	6.616	7.134	13.550	71.707	13.354	-8191	255	
23148.432	1	1	0	0	0.047163	0.1356	0.12724	0.2539	0.24273	0.15167	0.22093	0.15552	0.088502	0.1454	0.21603	0.10712	0.21873	0.26435	0.062935	0.15171	-3.875	-4.525	-4.8479	-4.2	-4.8271	-4.5292	-4.175	-5.05	-3.9354	-4.3917	-4.9	-3.8208	-4.85	-4.5563	-4.0625	-5.0563	246.876	28.950	108.892	324.512	-16.273	82.820	122.386	299.317	23.250	37.103	335.591	114.301	302.729	18.068	259.984	202.997	0.000316	0.00057614	8.1037e-05	1243.5	5.6662e-06	9.082e-06	1347.4	262.49	4.7355e-06	5.5655e-06	327.54	89.156	71.009	20.401	3.9835e-06	27.822	0.00061535	0.00056807	0.00014528	1232	6.7876e-06	6.1193e-06	1328.8	266.59	6.7259e-06	6.0956e-06	331.7	93.812	76.67	22.295	5.7556e-06	30.526	72.923	338.342	61.777	-6.850	185.386	126.029	-6.923	0.454	118.710	8.813	0.329	6.818	6.956	14.126	56.913	13.469	-8191	255	
23148.553	1	1	0	0	0.1309	0.14516	0.14704	0.033422	0.062966	0.0533	0.10485	0.11146	0.12467	0.13393	0.032702	0.21557	0.16695	0.21987	0.21298	0.18265	-3.8396	-4.2646	-4.8771	-4.175	-4.6062	-4.4333	-4.2417	-4.8854	-4.1562	-4.2604	-4.925	-3.9208	-4.725	-4.7438	-3.9708	-4.9583	83.375	45.741	251.530	134.342	111.098	141.924	286.209	-5.697	216.347	221.859	149.989	276.248	281.377	247.237	239.276	261.816	8.7003e-05	0.00039756	5.7974e-05	1245.1	1.5039e-06	5.3838e-06	1346.4	263.72	3.6997e-06	4.9498e-07	328.62	89.548	71.117	20.384	9.8837e-06	27.853	0.00061112	0.00056162	0.00014556	1237.6	6.7906e-06	6.1596e-06	1328.9	269.5	6.7281e-06	6.2136e-06	332.92	95.257	76.778	22.362	5.9245e-06	30.959	-14.504	-7.284	55.841	-6.750	151.860	137.081	-6.825	0.405	167.569	40.810	-0.013	6.755	6.873	14.272	131.175	13.601	-8191	255	
23148.648	1	1	0	0	0.2375	0.098563	0.28602	0.33545	0.10921	0.14125	0.084871	0.13011	0.15006	0.073509	0.14143	0.045217	0.18962	0.1523	0.10353	0.17021	-3.9271	-4.2229	-4.9313	-4.1708	-4.6146	-4.8771	-4.0896	-4.9292	-4.3375	-4.1438	-5.0729	-4.1708	-4.5625	-4.8	-3.9771	-4.8375	177.218	-12.606	134.383	309.242	87.652	234.127	289.488	315.924	220.625	214.286	160.993	140.110	221.687	338.609	94.854	-2.800	0.00011914	0.00089486	0.00018382	1248	3.2193e-06	7.9979e-06	1344.7	262.5	6.0705e-06	2.202e-06	329.13	89.76	72.145	20.441	1.4258e-05	27.885	0.00059574	0.00055486	0.00015081	1243.4	6.5079e-06	5.9912e-06	1331.8	270.79	6.4461e-06	6.0654e-06	335.23	95.806	76.647	22.372	6.3876e-06	31.213	25.653	-13.644	146.802	-6.737	201.596	49.118	-7.221	0.359	24.443	18.218	0.475	6.690	6.883	14.135	161.773	14.206	-8191	255	
23148.742	1	1	0	0	0.075216	0.11966	0.073741	0.078341	0.22446	0.19805	0.16292	0.095553	0.054085	0.21866	0.087105	0.087051	0.16537	0.27038	0.23364	0.13618	-4.2333	-4.0542	-4.975	-4.3104	-4.475	-4.7917	-4.1188	-4.6958	-4.4604	-4.1979	-5.0563	-4.125	-4.3104	-4.8958	-3.8917	-4.75	-7.174	43.312	147.450	39.650	148.438	112.400	217.157	253.238	81.760	78.174	268.884	303.072	259.919	27.792	105.031	108.657	0.00027474	0.00020597	0.00022321	1242.3	1.4017e-06	2.4078e-06	1348.5	261.9	6.1398e-06	3.5175e-06	329.61	89.31	71.711	20.492	9.9791e-06	27.768	0.00057331	0.00054369	0.00016431	1242.4	6.3243e-06	5.9084e-06	1338.1	269.86	6.2311e-06	5.9612e-06	337.39	95.373	76.324	22.316	6.7562e-06	30.955	73.848	34.701	40.028	-6.947	26.004	106.743	-6.775	0.208	40.739	138.394	0.501	6.551	7.186	13.886	130.078	13.678	-8191	255	
23148.840	1	1	0	0	0.12484	0.15996	0.061791	0.22142	0.099441	0.16662	0.38474	0.051985	0.22581	0.17354	0.066212	0.20815	0.25108	0.16881	0.18251	0.31747	-4.2771	-4.1208	-4.6792	-4.3	-4.2771	-4.9313	-4.0167	-4.7229	-4.5083	-4.0563	-5.1042	-4.2042	-4.1937	-4.8896	-3.8937	-4.6312	97.624	250.829	81.536	333.967	193.734	67.631	258.887	50.475	325.086	128.603	303.532	199.280	41.226	310.817	221.380	247.631	0.00014756	0.00033968	0.0001817	1245.6	2.8775e-06	5.3947e-06	1346.6	264.24	4.1825e-06	6.3938e-06	330.08	89.067	71.116	20.492	6.1571e-06	27.825	0.00056217	0.00054098	0.00017395	1239.2	6.1836e-06	5.8689e-06	1342.1	269.58	6.0803e-06	5.995e-06	339.67	94.664	75.983	22.398	7.0187e-06	30.718	92.005	167.782	225.621	-6.969	1.258	177.982	-6.913	0.032	-17.093	87.126	0.156	6.676	6.787	14.326	116.414	13.712	-8191	255	
23148.936	1	1	0	0	0.25647	0.19504	0.27955	0.17715	0.29671	0.033414	0.078236	0.084178	0.060514	0.13734	0.25999	0.14886	0.12437	0.11297	0.11772	0.15192	-4.5563	-3.8333	-4.8479	-4.35	-4.1396	-4.8958	-4.1708	-4.625	-4.5917	-3.9333	-4.8688	-4.5208	-4.2042	-4.9146	-4.1292	-4.425	35.483	20.749	51.208	306.450	110.335	78.112	267.039	331.288	3.260	335.292	330.283	8.794	46.770	181.297	179.281	264.782	0.00031355	0.00030762	0.00012711	1252.9	5.0319e-06	4.9103e-06	1351.3	263.47	3.07e-06	5.9061e-06	329.76	89.183	71.78	20.428	5.6127e-06	27.998	0.00054238	0.00056054	0.0001799	1240.6	5.9691e-06	6.2243e-06	1343.8	269.07	5.8959e-06	6.3679e-06	339.43	94.681	76	22.699	7.1446e-06	30.81	87.471	-1.309	102.540	-7.014	103.571	201.546	-7.054	-0.144	340.317	135.163	-0.023	6.476	6.341	14.088	-0.685	13.412	-8191	255	
23149.031	1	1	0	0	0.13051	0.1156	0.13091	0.24514	0.15691	0.077996	0.18001	0.14907	0.097799	0.073689	0.32421	0.14246	0.050227	0.095068	0.034072	0.13241	-4.45	-3.9396	-4.8354	-4.5521	-3.9688	-4.9979	-4.3875	-4.5354	-4.6813	-4.0021	-4.9042	-4.7021	-4.1771	-5.0292	-4.1167	-4.3688	254.369	259.447	134.007	1.935	224.367	273.856	291.449	322.507	165.391	145.385	281.239	11.400	176.957	48.602	88.682	293.345	8.2815e-05	0.00076797	0.00031137	1252.1	1.7021e-06	2.8653e-06	1354.7	264.13	8.0587e-06	2.5964e-06	330.34	90.637	72.088	20.551	1.4346e-05	28.044	0.00054113	0.00061839	0.00018167	1245	6.0754e-06	6.9221e-06	1347.4	269.79	6.0298e-06	7.0594e-06	340.86	95.3	76.625	23.095	6.9855e-06	30.764	120.969	145.415	36.935	-7.152	268.349	92.678	-6.868	-0.089	194.491	150.397	-0.072	6.450	7.197	13.855	27.232	13.208	-8191	255	
23149.127	1	1	0	0	0.055205	0.14497	0.1158	0.19239	0.10766	0.39115	0.21353	0.19592	0.035768	0.13535	0.1588	0.12531	0.14152	0.16639	0.16061	0.097787	-4.6333	-4.0833	-4.6292	-4.6979	-3.8688	-4.8896	-4.5687	-4.3042	-4.8708	-4.0479	-4.6375	-4.7917	-4.0958	-4.9229	-4.325	-4.1104	251.996	35.246	296.238	289.901	236.046	166.053	284.980	34.172	320.932	270.661	303.102	331.404	107.025	309.783	20.058	43.378	0.00038434	0.00019812	7.5152e-05	1254.3	3.5069e-06	2.6907e-06	1355.1	265.92	2.3693e-06	6.8452e-06	328.52	90.509	71.803	20.749	4.275e-06	28.19	0.00055643	0.00066085	0.00017576	1243.4	6.2627e-06	7.2893e-06	1346.6	270.29	6.2668e-06	7.3597e-06	338.93	94.765	76.993	23.291	6.532e-06	30.616	85.706	227.642	78.290	-6.848	274.362	52.071	-7.003	0.385	274.371	314.897	0.130	6.441	7.074	13.537	248.809	13.299	-8191	255	
23149.248	1	1	0	0	0.14034	0.04577	0.12118	0.17908	0.20027	0.1073	0.18038	0.13463	0.053647	0.020778	0.0091398	0.17558	0.031174	0.076338	0.12669	0.12561	-4.6	-4.2104	-4.4042	-4.9417	-3.8917	-4.9062	-4.6833	-4.2438	-4.9771	-4.1062	-4.6083	-4.9771	-4.0229	-4.8208	-4.6188	-4.0312	86.313	35.988	197.153	327.062	259.456	106.548	293.775	265.462	259.708	57.552	123.673	164.982	323.662	284.661	229.363	285.518	0.00026935	0.0010579	0.00017169	1256.2	8.9912e-06	8.3235e-06	1355.8	263.93	3.4699e-06	4.1102e-06	327.82	89.493	71.816	20.549	6.1812e-06	27.91	0.00058138	0.0006566	0.00016566	1241.4	6.5028e-06	7.1483e-06	1341.5	268.58	6.5305e-06	6.9905e-06	336.29	93.883	77.16	22.948	6.1385e-06	30.299	82.814	-5.684	-14.560	-6.705	194.843	23.705	-6.774	0.117	202.845	29.178	0.115	6.889	7.316	14.064	5.744	13.646	-8191	255	
23149.344	1	1	0	0	0.23822	0.090452	0.18694	0.27218	0.09644	0.095432	0.16155	0.14948	0.22159	0.13735	0.051432	0.11086	0.13359	0.1603	0.080886	0.3134	-4.7479	-4.125	-4.125	-4.9313	-3.9646	-4.6417	-4.8938	-3.9458	-4.9729	-4.2708	-4.3375	-4.95	-3.9	-4.5979	-4.8604	-3.9208	194.287	200.067	21.122	320.330	329.392	174.043	315.507	232.011	69.585	39.387	223.518	320.897	174.074	269.068	249.254	297.269	0.00036654	0.00052929	0.00025591	1257.2	5.0582e-06	5.2296e-06	1354.4	265.57	7.4689e-06	1.0666e-05	331.24	89.959	71.946	20.562	9.6967e-06	28.116	0.00060229	0.00061417	0.00015497	1238.5	6.6727e-06	6.6168e-06	1337.7	267.97	6.7238e-06	6.5835e-06	336	94.154	77.594	22.865	6.099e-06	30.61	61.229	72.128	326.337	-6.676	236.893	266.111	-6.805	0.313	158.577	42.442	0.010	6.900	7.244	13.642	82.383	14.017	-8191	255	
23149.439	1	1	0	0	0.057476	0.1807	0.17247	0.17537	0.085183	0.093827	0.19689	0.32066	0.19747	0.25378	0.21174	0.092249	0.14565	0.1182	0.21048	0.32943	-4.6146	-4.1687	-4.0833	-5.1104	-3.9854	-4.5771	-4.8542	-4.0396	-4.7604	-4.4583	-4.2438	-4.8708	-4.075	-4.4812	-4.8167	-4.0104	247.270	67.630	329.832	322.289	171.308	276.972	259.278	338.182	155.035	155.197	319.672	218.280	-6.183	45.959	215.067	293.965	0.00035421	0.00079673	0.00019076	1255.9	5.3978e-06	1.8522e-06	1352	265.46	5.1995e-06	6.8989e-06	329.8	90.123	71.77	20.59	6.9485e-06	28.02	0.00064408	0.00060186	0.00015661	1242.3	7.1688e-06	6.5653e-06	1337.6	269.86	7.1556e-06	6.4875e-06	335.22	95.197	77.983	22.713	5.893e-06	30.87	120.670	323.294	230.579	-6.519	15.486	169.662	-6.411	0.297	217.345	4.809	0.137	6.732	7.634	13.931	41.631	13.583	-8191	255	
23149.512	1	1	0	0	0.18813	0.28166	0.35828	0.21965	0.21743	0.044268	0.13067	0.30144	0.17249	0.13778	0.083575	0.19593	0.33099	0.14026	0.18818	0.11387	-4.6479	-4.3938	-4.0521	-5.0062	-4.0188	-4.4167	-4.9792	-4.0625	-4.6792	-4.4958	-4.1896	-5.0083	-4.2333	-4.3354	-4.9854	-3.8792	79.623	19.510	65.967	304.628	24.127	180.034	254.841	305.494	334.187	106.706	315.940	171.069	290.882	82.082	-13.383	143.453	5.2984e-05	2.3264e-05	0.00027217	1256.6	5.8375e-06	3.1218e-06	1358.4	265.31	5.1224e-06	7.1534e-06	331.07	90.718	71.541	20.59	7.5936e-06	27.865	0.00063651	0.00057574	0.00015123	1246.3	6.8982e-06	6.2982e-06	1338.7	270.83	6.8528e-06	6.1432e-06	335.36	95.834	77.484	22.638	5.9557e-06	31.073	83.216	-8.768	12.066	-6.693	74.520	-15.764	-6.694	0.317	185.682	27.978	0.213	6.922	6.988	14.036	128.481	13.684	-8191	255	
23149.633	1	1	0	0	0.11061	0.2319	0.21952	0.12394	0.11057	0.17334	0.22484	0.10218	0.25423	0.056832	0.17134	0.12189	0.12303	0.14392	0.3157	0.14164	-4.4875	-4.5333	-4.0042	-5.0312	-4.2104	-4.1792	-5.0604	-3.9146	-4.6833	-4.7354	-3.9667	-4.9917	-4.4854	-4.2125	-4.7708	-4.1042	324.658	-4.998	39.005	229.675	-15.524	37.460	269.669	155.299	70.913	231.177	213.137	236.564	164.452	239.538	196.444	219.934	0.0002489	0.00032071	1.4863e-05	1256.2	3.9157e-06	4.4434e-06	1353.6	264.77	2.8277e-06	8.7473e-06	330.37	90.469	71.643	20.622	4.5029e-06	27.945	0.00061653	0.00056427	0.00015387	1250.6	6.7026e-06	6.2455e-06	1340.2	272.5	6.7412e-06	6.2221e-06	336.75	96.471	77.158	22.572	6.2616e-06	31.305	66.870	21.548	76.526	-7.067	122.199	30.663	-7.029	0.099	47.863	274.236	-0.281	6.684	6.713	13.472	184.828	13.329	-8191	255	
23149.729	1	1	0	0	0.12822	0.094459	0.077018	0.16852	0.14139	0.12483	0.24969	0.24578	0.34006	0.16942	0.31129	0.16078	0.062023	0.13435	0.21224	0.017959	-4.1667	-4.6854	-3.8688	-5.0104	-4.3354	-4.0312	-5.3375	-4.2	-4.3604	-4.8562	-4.1583	-4.7542	-4.4125	-4.1188	-5.1062	-4.2479	264.934	280.351	0.741	285.964	6.787	171.647	296.846	286.314	-9.339	64.115	207.111	239.495	132.611	140.363	-17.066	299.531	0.00021922	0.0010317	0.00026449	1263.1	2.7274e-06	3.3306e-06	1355.4	265.27	3.5621e-06	4.0658e-06	329.54	90.082	71.668	20.562	1.8564e-05	27.915	0.00058734	0.0005517	0.00016188	1254.2	6.2791e-06	5.9146e-06	1341.7	271.81	6.2151e-06	5.827e-06	336.77	95.545	76.323	22.323	6.4871e-06	31.019	114.054	8.085	143.328	-7.064	273.379	55.505	-6.681	0.400	49.766	177.621	0.273	7.456	6.867	14.053	152.243	13.296	-8191	255	
23149.824	1	1	0	0	0.18496	0.16971	0.14294	0.20716	0.29561	0.21137	0.20145	0.22985	0.30248	0.22009	0.15755	0.099283	0.17398	0.081816	0.10177	0.16195	-4.1062	-4.8396	-3.85	-4.7646	-4.7542	-4.0542	-5.25	-4.2354	-4.2021	-4.8229	-4.0792	-4.8271	-4.6917	-4.0521	-4.8812	-4.2063	22.314	102.108	199.367	-2.425	154.805	316.202	279.640	259.637	106.171	326.960	305.371	264.544	268.370	286.973	297.115	168.739	6.5435e-05	0.00045413	0.0002024	1258.4	3.4673e-06	1.7144e-06	1356.5	262.97	1.3751e-06	9.1883e-06	328.89	90.464	71.298	20.399	4.0809e-06	27.794	0.00055026	0.00052222	0.00016736	1246.1	5.9748e-06	5.7216e-06	1345.9	269.17	5.9715e-06	5.6854e-06	338.03	95.095	75.56	22.25	6.68e-06	30.534	76.891	124.265	107.520	-6.855	96.198	118.516	-7.042	0.306	324.177	150.095	-0.483	6.188	6.765	14.276	188.578	14.164	-8191	255	
23149.922	1	1	0	0	0.24509	0.08626	0.18482	0.26546	0.053467	0.074799	0.29031	0.14563	0.14755	0.25055	0.18508	0.16203	0.13743	0.12136	0.056985	0.15432	-3.8167	-4.7375	-3.8063	-4.7917	-4.7583	-4.025	-4.9646	-4.45	-4.1125	-4.8583	-4.1833	-4.5229	-4.6583	-4.0354	-4.8229	-4.4646	276.151	86.462	289.223	330.147	113.537	130.759	300.093	279.775	282.168	70.263	326.707	325.176	173.416	49.540	34.712	328.818	0.00011972	0.0006078	0.00024322	1250.2	1.8127e-06	9.9436e-06	1353.4	263.7	1.6988e-06	7.5991e-06	330.36	89.764	71.538	20.446	3.7291e-06	27.759	0.00052283	0.00052711	0.00017177	1242.2	5.7056e-06	5.8541e-06	1343.7	268.02	5.6992e-06	5.9123e-06	337.95	94.091	75.121	22.342	6.613e-06	30.269	41.882	31.519	2.786	-7.157	207.153	111.375	-7.003	0.379	18.426	89.064	-0.359	6.646	6.882	14.370	13.512	13.293	-8191	255	
23150.039	1	1	0	0	0.10349	0.0309	0.1072	0.34511	0.33911	0.18179	0.28008	0.073102	0.047837	0.21723	0.11671	0.13676	0.087229	0.18614	0.13387	0.029181	-3.7854	-4.9812	-4.0146	-4.6146	-4.9062	-3.8854	-4.9458	-4.7333	-4.0917	-5.0167	-4.4271	-4.6021	-4.8667	-3.9833	-4.5479	-4.6583	147.957	59.139	230.709	272.370	36.982	132.686	248.970	287.468	257.280	80.343	333.609	284.214	1.470	338.781	253.039	139.048	0.00014335	0.00053287	0.00016629	1246.2	1.9611e-06	4.6687e-06	1345.6	262.65	6.1164e-07	5.9155e-06	327.02	89.359	70.75	20.387	1.4612e-05	27.819	0.00050156	0.00054712	0.00016413	1234.5	5.3833e-06	6.0481e-06	1335.9	265.31	5.385e-06	6.1413e-06	334.32	93.217	74.417	22.344	6.1669e-06	29.961	104.234	140.388	21.592	-7.029	274.114	125.731	-6.914	0.278	220.021	130.264	0.426	6.910	7.055	14.257	2.418	13.378	-8191	255	
23150.137	1	1	0	0	0.10933	0.26358	0.15924	0.18453	0.049508	0.16889	0.38228	0.21756	0.016838	0.073454	0.2721	0.1999	0.11406	0.073774	0.24795	0.048717	-3.6458	-4.9458	-4.1896	-4.4854	-4.8917	-3.975	-4.8479	-4.8	-3.9875	-4.8271	-4.3875	-4.3021	-4.9771	-4.1104	-4.6	-4.7583	281.842	219.516	161.088	209.531	243.460	236.617	301.600	280.125	110.128	63.983	-17.505	99.778	335.828	273.418	239.471	33.944	0.00016657	0.0006667	0.00014701	1246.3	5.0451e-06	2.8478e-06	1348.4	262.42	3.4145e-06	1.1516e-05	327.95	88.942	71.256	20.421	6.2864e-06	27.859	0.00048682	0.00057284	0.00015452	1228.4	5.3472e-06	6.3051e-06	1331.9	264.76	5.4599e-06	6.3854e-06	333.28	92.719	74.692	22.398	5.9015e-06	29.856	78.547	63.253	8.656	-7.041	228.820	119.663	-6.774	0.353	72.271	189.073	-0.220	6.099	6.922	14.215	124.993	13.769	-8191	255	
23150.232	1	1	0	0	0.30722	0.26711	0.13519	0.14331	0.11114	0.19315	0.36207	0.13191	0.22511	0.27901	0.14261	0.11062	0.10772	0.18921	0.089088	0.06796	-3.7188	-4.9229	-4.4458	-4.3063	-4.8771	-3.9417	-4.5958	-4.9271	-3.9562	-4.8875	-4.4896	-4.175	-5.0604	-4.1958	-4.4313	-4.9062	43.059	67.840	193.283	319.466	294.562	24.778	218.380	132.498	55.457	0.171	78.531	326.886	214.677	28.365	80.840	315.390	0.00013395	0.00051484	0.00011706	1251.1	9.1244e-06	4.632e-06	1348.6	262.51	6.931e-06	1.1908e-05	327.48	89.796	71.263	20.368	1.9796e-06	27.712	0.00051108	0.00058915	0.00014717	1229.6	5.7236e-06	6.381e-06	1330.5	264.52	5.8366e-06	6.3914e-06	331.36	92.662	75.441	22.396	5.7285e-06	29.781	124.828	59.804	-13.181	-6.812	196.110	294.149	-6.845	0.479	161.322	47.709	0.314	7.072	7.328	13.991	97.953	13.930	-8191	255	
23150.328	1	1	0	0	0.11419	0.072155	0.13108	0.067889	0.12089	0.18946	0.13556	0.15695	0.29789	0.15725	0.24474	0.10968	0.041118	0.15446	0.23472	0.10307	-3.5812	-4.7375	-4.4542	-4.1729	-4.8229	-4.2292	-4.6583	-5.0146	-4.0188	-4.6062	-4.7229	-4.2083	-4.9646	-4.2875	-4.1292	-5.0646	58.576	157.381	246.235	247.007	305.739	19.051	311.977	194.073	237.598	232.070	295.925	47.251	193.538	79.854	235.348	58.503	0.00038679	0.00028016	8.6414e-05	1250.6	8.7116e-06	6.7403e-06	1352.7	262.47	4.8638e-06	1.1763e-05	327.11	88.988	71.428	20.452	5.0789e-06	27.514	0.00054597	0.00057313	0.00014426	1228.2	6.0677e-06	6.1794e-06	1327.6	264.02	6.173e-06	6.1147e-06	330.59	92.182	75.889	22.238	5.5807e-06	29.684	109.915	20.786	-5.424	-6.844	203.577	83.859	-6.951	0.353	127.537	92.857	0.223	6.855	7.429	14.649	46.920	13.871	-8191	255	
23150.424	1	1	0	0	0.20044	0.11633	0.1522	0.23593	0.15866	0.15704	0.29084	0.11608	0.2774	0.12616	0.098109	0.058393	0.05541	0.088151	0.26789	0.12749	-3.7125	-4.7896	-4.7104	-4.0271	-4.8583	-4.2583	-4.4333	-5.1062	-3.9604	-4.6667	-4.7333	-4.1833	-4.8688	-4.3083	-4.1479	-5.0708	296.472	262.244	-8.264	296.929	82.594	174.059	253.756	110.330	318.104	40.529	163.802	91.675	-11.378	195.117	112.682	-4.262	0.00019305	0.00034457	0.00021432	1248.5	3.6784e-06	5.9424e-06	1345.2	261.02	3.5471e-06	2.1544e-06	327.37	89.097	70.759	20.087	9.8875e-06	27.511	0.00057043	0.00054347	0.00013949	1226.4	6.2846e-06	5.8097e-06	1324.7	264.14	6.2739e-06	5.7432e-06	328.23	92.528	75.702	21.94	5.3313e-06	29.838	63.689	-9.294	-12.307	-6.888	118.928	22.524	-6.659	0.160	129.074	121.693	0.197	6.910	6.818	14.096	207.223	14.119	-8191	255	
23150.520	1	1	0	0	0.094791	0.077935	0.096759	0.11776	0.18684	0.20073	0.13473	0.20635	0.18834	0.033327	0.19689	0.23262	0.14801	0.095838	0.15768	0.089556	-3.825	-4.5312	-4.6083	-4.2063	-4.7583	-4.375	-4.2979	-5.0854	-4.0333	-4.475	-4.8708	-4.0687	-4.7188	-4.6375	-4.0437	-5.0542	102.514	148.955	7.975	251.002	217.825	181.630	29.244	270.135	189.013	317.546	238.039	317.361	273.373	337.724	1.824	236.771	7.3117e-05	0.00043559	0.00021898	1243.8	3.2001e-06	6.0795e-06	1342.4	261.4	6.2896e-06	8.7449e-06	327	89.027	70.79	20.35	1.1224e-05	27.618	0.00056318	0.00051843	0.00013371	1228.3	6.1912e-06	5.6064e-06	1322.8	264.87	6.0886e-06	5.5137e-06	328.31	93.137	75.125	21.884	5.1174e-06	30.016	97.653	280.398	102.098	-6.967	168.803	326.036	-6.878	0.159	52.555	21.676	0.178	6.915	7.005	14.168	136.715	13.833	-8191	255	
23150.641	1	1	0	0	0.10119	0.11809	0.042101	0.081457	0.23736	0.093334	0.032876	0.14485	0.17206	0.086503	0.0321	0.25973	0.047369	0.18384	0.16037	0.11815	-3.85	-4.4104	-4.9	-4.1042	-4.6833	-4.5958	-4.3313	-4.875	-4.1396	-4.2708	-4.9167	-4.0396	-4.6208	-4.6438	-3.8187	-4.9271	21.545	257.815	222.478	41.566	22.194	40.931	85.949	295.259	124.757	220.748	100.497	10.684	193.961	-1.637	10.713	200.268	0.00013298	0.000669	0.00022182	1244	1.8384e-06	4.8653e-06	1344	260.83	1.4695e-06	7.2384e-06	326.94	88.801	70.679	20.106	7.7415e-06	27.692	0.00052668	0.00048473	0.00012814	1228.6	5.69e-06	5.1926e-06	1319.2	264.68	5.5331e-06	5.1746e-06	327.09	92.87	74.245	21.567	5.1621e-06	30.101	150.197	37.091	123.045	-7.038	48.388	135.094	-7.066	0.561	145.130	76.560	0.265	6.901	6.816	14.159	80.799	13.538	-8191	255	
23150.734	1	1	0	0	0.22572	0.26165	0.051907	0.10513	0.12016	0.12484	0.12888	0.1062	0.27561	0.040555	0.1045	0.076923	0.094222	0.12799	0.11431	0.058227	-4.0146	-4.1125	-4.8542	-4.2917	-4.4667	-4.8146	-4.1604	-5.0479	-4.3333	-4.0333	-5.05	-4.1771	-4.5271	-4.7937	-3.7708	-4.7375	132.455	316.235	278.040	221.947	256.506	110.827	326.896	314.223	142.261	134.947	108.009	70.531	274.881	14.533	190.810	228.681	0.00037196	0.00048249	4.1304e-05	1246.7	6.8913e-06	2.936e-06	1347.4	261.16	6.2115e-06	5.4565e-06	325.67	89.228	70.692	20.185	8.4164e-06	27.566	0.00049633	0.00046457	0.0001327	1231.6	5.449e-06	5.0677e-06	1323	265.5	5.4017e-06	5.0766e-06	329.1	93.385	74.062	21.65	5.6628e-06	30.073	94.628	6.214	262.571	-7.138	27.919	21.882	-6.973	0.229	225.724	11.378	0.370	7.103	7.001	14.579	211.874	14.100	-8191	255	
23150.809	1	1	0	0	0.098363	0.13374	0.2327	0.22472	0.095479	0.1274	0.36293	0.17948	0.15276	0.11655	0.093212	0.10567	0.082584	0.28986	0.10959	0.16888	-4.0604	-3.9167	-5.0042	-4.2604	-4.2667	-4.7854	-4.2771	-4.8333	-4.5417	-4.1062	-4.9458	-4.3208	-4.3479	-4.9042	-4.0542	-4.6667	278.314	124.801	35.951	-4.297	156.405	10.433	225.767	294.384	278.264	299.818	175.849	84.994	-14.710	327.829	144.001	271.009	0.00013988	0.00091242	0.00014905	1241.9	4.0877e-06	8.1248e-06	1342.4	261.85	5.5654e-06	5.3859e-06	325.45	88.83	71.003	20.131	7.7519e-06	27.611	0.0004899	0.00046642	0.00014541	1230.4	5.3715e-06	5.0527e-06	1326.2	265.05	5.3097e-06	5.0389e-06	331.13	92.752	73.895	21.592	5.9197e-06	29.822	104.750	14.493	119.549	-6.739	171.921	180.227	-6.916	0.410	178.813	104.824	0.700	7.134	7.069	14.352	198.110	14.131	-8191	255	
23150.902	1	1	0	0	0.15333	0.10447	0.031198	0.18939	0.11767	0.089893	0.3186	0.027613	0.27503	0.053371	0.19323	0.17598	0.18151	0.15214	0.1251	0.21098	-4.3042	-4.0667	-4.9417	-4.4625	-4.1687	-4.9542	-4.0875	-4.6958	-4.6438	-4.1062	-4.9	-4.4292	-4.1312	-4.8833	-3.9792	-4.5687	224.233	300.571	143.319	313.112	165.074	276.922	281.378	275.340	37.899	101.342	225.092	300.014	-17.203	0.924	163.298	304.561	3.4084e-05	0.00068791	0.00014901	1242.1	4.5128e-06	2.2864e-06	1341.6	260.37	4.9364e-07	1.3464e-06	327.99	89.054	70.522	20.306	2.6336e-06	27.538	0.00046768	0.0004668	0.00015044	1225.5	5.223e-06	5.1616e-06	1327.4	263.55	5.1597e-06	5.3129e-06	332.45	92.34	73.592	21.852	6.1731e-06	29.707	138.641	76.147	148.237	-6.630	104.095	174.046	-6.902	0.254	-6.958	301.918	0.555	6.850	7.437	14.836	1.852	13.667	-8191	255	
23151.023	1	1	0	0	0.1001	0.092714	0.20788	0.10202	0.21644	0.058981	0.17624	0.13102	0.12433	0.031357	0.18328	0.13156	0.1941	0.0585	0.074054	0.20276	-4.5833	-3.8375	-5.0229	-4.5729	-4.0521	-5.1229	-4.4187	-4.4333	-4.9208	-3.8854	-4.7917	-4.5917	-4.125	-5.0479	-4.2438	-4.4042	9.640	76.107	12.155	331.330	322.477	208.010	262.074	270.984	148.726	147.843	313.427	341.792	277.142	174.400	16.706	324.901	0.00013988	0.00046999	0.00040396	1243.1	1.6941e-06	4.1361e-06	1343.8	261.87	3.0838e-06	7.4655e-06	327.17	89.057	70.619	20.268	2.543e-06	27.488	0.00046931	0.00050921	0.00015715	1225.1	5.265e-06	5.7541e-06	1329.9	264.35	5.2519e-06	5.8597e-06	333.28	92.384	73.983	22.148	6.1202e-06	29.754	44.073	182.572	300.500	-6.606	44.996	180.276	-6.637	0.575	34.002	146.824	0.326	7.100	7.364	14.589	121.292	13.712	-8191	255	
23151.119	1	1	0	0	0.20631	0.19008	0.1608	0.20367	0.13871	0.031605	0.092929	0.19578	0.15346	0.20336	0.13214	0.035402	0.18357	0.036941	0.10026	0.018848	-4.5417	-3.9813	-4.4771	-4.6708	-4.0271	-4.9271	-4.3875	-4.3333	-4.9125	-3.8854	-4.8396	-4.5771	-3.8563	-4.9271	-4.2271	-4.3	204.377	193.071	-1.436	277.782	245.571	144.136	25.288	299.621	188.926	146.912	302.631	15.058	281.664	157.730	155.740	30.990	0.00017831	0.00035375	0.00023537	1245	2.7403e-06	2.8217e-06	1350	262.27	2.403e-06	7.9236e-06	325.64	89.287	71.159	20.408	6.8046e-06	27.277	0.00046776	0.00054789	0.00015178	1223.6	5.1984e-06	6.044e-06	1327.1	263.67	5.2171e-06	6.2295e-06	331.89	92.397	74.213	22.39	5.9055e-06	29.628	98.089	57.660	3.609	-6.735	193.924	157.750	-6.524	0.460	227.461	142.671	0.355	6.973	7.067	13.935	166.696	13.668	-8191	255	
23151.217	1	1	0	0	0.097675	0.085908	0.063484	0.23001	0.16689	0.14723	0.23171	0.36934	0.15371	0.30887	0.19205	0.12284	0.19296	0.12093	0.21008	0.16747	-4.5542	-3.9667	-4.5771	-4.7792	-3.9958	-4.8125	-4.4625	-4.2333	-4.8521	-4.0521	-4.5708	-4.8667	-4.0708	-4.95	-4.5312	-4.2979	177.313	81.261	74.774	304.807	185.777	210.506	324.338	18.061	161.358	55.972	337.424	251.219	271.835	318.866	-1.008	139.598	0.00019208	0.00093323	0.00012257	1242.7	7.8425e-06	5.1367e-06	1346.4	260.97	1.8645e-06	1.0644e-05	325.98	88.932	70.402	20.141	1.039e-06	27.583	0.0004946	0.00058141	0.0001473	1223.1	5.4908e-06	6.3133e-06	1323.5	262.74	5.5223e-06	6.2327e-06	329.86	91.793	74.367	22.261	5.5678e-06	29.545	92.369	51.494	312.711	-6.689	189.152	101.687	-6.572	0.024	194.065	85.593	0.101	6.813	7.212	14.043	278.906	14.115	-8191	255	
23151.312	1	1	0	0	0.15489	0.1193	0.14744	0.39367	0.2147	0.21892	0.16214	0.1465	0.23085	0.18991	0.038376	0.28355	0.11936	0.11656	0.18639	0.099493	-4.6312	-4.1167	-4.2854	-4.9667	-3.8542	-4.6771	-4.7438	-3.9708	-4.9	-4.2	-4.4229	-4.9208	-4.15	-4.6979	-4.5417	-4.0208	91.776	189.814	275.654	285.156	261.179	275.988	293.190	231.106	293.118	85.292	274.354	294.991	225.396	270.354	182.335	25.300	0.00038806	0.00029187	0.00021892	1243.6	8.1321e-07	3.0331e-06	1343.7	259.87	5.6802e-06	3.7683e-06	326.33	88.257	70.279	20.303	5.3057e-06	27.322	0.00051632	0.00056192	0.00014036	1221.8	5.7752e-06	6.0706e-06	1322.5	262.15	5.8765e-06	5.9577e-06	329.31	91.642	74.959	22.197	5.3495e-06	29.381	129.207	41.982	74.553	-6.610	185.982	48.373	-6.574	0.456	143.696	161.780	0.087	7.078	7.159	14.292	309.270	14.270	-8191	255	
23151.408	1	1	0	0	0.1924	0.15914	0.28177	0.23357	0.18333	0.10895	0.087251	0.13521	0.22418	0.21322	0.045873	0.061714	0.19668	0.25763	0.099849	0.17636	-4.6458	-4.1583	-4.2688	-5.0667	-3.9271	-4.6917	-4.8521	-4.1937	-4.7271	-4.2146	-4.2229	-4.9979	-4.2375	-4.6958	-4.8313	-4.0771	309.060	154.978	234.706	334.973	80.402	168.089	277.966	341.228	254.760	57.092	292.892	180.921	311.547	296.493	9.279	256.725	0.00049918	0.00017992	0.0002733	1249.3	1.866e-06	3.7048e-06	1342.7	260.3	7.806e-06	3.9035e-06	325.71	88.541	70.485	20.219	4.9021e-06	27.666	0.00054397	0.00052779	0.00013464	1223.9	6.0151e-06	5.6768e-06	1319.9	262.46	6.0454e-06	5.6266e-06	328	92.052	75.363	21.923	5.1988e-06	29.733	115.058	232.748	336.981	-6.848	81.720	71.551	-6.971	-0.110	222.833	116.330	0.079	7.270	7.050	13.763	36.100	14.338	-8191	255	
23151.506	1	1	0	0	0.13841	0.19092	0.14118	0.14461	0.071928	0.16484	0.19942	0.18587	0.19621	0.0044254	0.12331	0.22505	0.12466	0.20927	0.1267	0.26681	-4.6042	-4.4812	-4.0229	-5.1854	-4.0813	-4.4021	-5.0354	-4.2667	-4.6792	-4.4208	-4.1979	-4.8688	-4.1875	-4.475	-4.8875	-3.85	-13.481	243.894	65.646	293.509	13.730	224.875	242.412	326.898	270.127	19.439	286.672	234.783	304.447	262.809	205.375	310.566	0.00010976	0.00056692	7.2147e-05	1243	2.8247e-06	6.2069e-06	1344.9	261.63	2.8289e-06	4.9753e-06	326.21	88.796	70.527	20.196	1.2301e-05	27.681	0.00055795	0.00050658	0.00013367	1226.1	6.0478e-06	5.4721e-06	1320.8	264.2	5.982e-06	5.3908e-06	327.37	92.369	74.902	21.792	5.0431e-06	29.878	121.064	1.118	68.295	-6.697	302.889	116.892	-6.547	0.711	252.311	108.776	0.248	6.940	7.436	14.253	15.729	13.787	-8191	255	
23151.602	1	1	0	0	0.16842	0.068411	0.17933	0.041689	0.036957	0.094712	0.42755	0.21177	0.1722	0.067686	0.1736	0.039452	0.1682	0.34502	0.29772	0.19769	-4.3625	-4.3938	-4.1417	-5.0813	-4.0146	-4.3146	-5.0938	-4.0208	-4.7042	-4.6042	-4.0062	-4.9542	-4.1979	-4.0896	-4.8833	-3.9854	185.965	191.919	180.845	49.008	189.575	172.910	274.591	276.116	245.785	3.853	225.732	79.415	80.839	310.060	269.701	227.047	0.0001719	0.00078024	0.00017981	1245	9.5201e-06	2.93e-06	1339.7	260.15	6.3625e-06	3.4593e-06	325.46	89.278	70.521	20.221	2.7382e-06	27.587	0.00053677	0.00048709	0.0001299	1230.7	5.8881e-06	5.4542e-06	1319.5	265.24	5.9492e-06	5.4845e-06	328.54	93.718	75.032	21.955	5.3467e-06	30.396	58.908	328.426	41.922	-6.903	187.405	60.510	-6.777	0.224	34.329	130.256	0.292	6.696	7.314	14.533	103.752	14.452	-8191	255	
23151.721	1	1	0	0	0.026718	0.25793	0.23116	0.26065	0.13935	0.016144	0.069821	0.37313	0.23123	0.072712	0.22074	0.18393	0.078484	0.012715	0.063765	0.19012	-4.3542	-4.7083	-3.9792	-4.9604	-4.0687	-4.2104	-4.9167	-4.0604	-4.5542	-4.7042	-4.0521	-4.8958	-4.475	-4.0813	-5.0813	-4.2458	203.226	222.093	325.023	336.774	100.898	74.543	268.866	304.274	118.594	119.540	322.735	304.222	214.413	8.822	158.947	295.189	0.00032419	0.00013544	0.00015569	1247.4	4.8975e-06	1.0729e-05	1342.6	261.49	4.54e-06	7.2647e-06	327.18	89.232	71.212	20.334	8.7924e-06	27.681	0.00052881	0.00049289	0.00013682	1234.6	5.6537e-06	5.3228e-06	1323.3	265.81	5.5866e-06	5.1908e-06	329.79	93.482	74.41	21.796	5.5503e-06	30.213	67.188	308.855	126.564	-6.661	154.298	0.551	-6.642	0.642	39.307	233.670	0.531	7.183	7.099	14.769	150.870	13.862	-8191	255	
23151.816	1	1	0	0	0.038454	0.1431	0.19979	0.48818	0.24125	0.053452	0.16237	0.34203	0.15162	0.15042	0.13581	0.11025	0.050153	0.23797	0.055592	0.051081	-4.2292	-4.7375	-3.7021	-4.875	-4.4271	-4.0792	-5.1125	-4.1729	-4.2625	-4.7458	-4.0083	-4.6729	-4.5958	-3.9646	-4.7854	-4.2958	119.268	130.918	293.480	316.408	108.830	124.386	5.920	280.026	142.409	7.656	325.646	333.438	295.712	182.046	330.971	48.399	0.00010001	0.00060999	6.4242e-05	1246.1	3.6376e-07	1.5615e-06	1350.8	262.47	2.0939e-06	5.5393e-06	327.56	89.217	70.716	20.347	6.7408e-06	27.612	0.00050292	0.00047285	0.00014578	1234.2	5.5369e-06	5.2641e-06	1331.3	266.38	5.5603e-06	5.2504e-06	333.34	93.567	74.521	21.905	6.1785e-06	30.282	18.396	341.385	240.778	-6.529	58.156	162.001	-6.553	0.613	285.849	148.467	0.639	6.954	7.386	14.584	153.931	14.055	-8191	255	
23151.914	1	1	0	0	0.12998	0.064465	0.1823	0.11824	0.14578	0.045989	0.19224	0.15103	0.16239	0.042053	0.083859	0.097813	0.040296	0.18842	0.21596	0.097408	-4.0875	-4.7979	-3.9104	-4.8583	-4.6625	-4.0188	-5.1354	-4.4271	-4.3146	-4.8521	-4.0854	-4.6917	-4.6625	-4.0375	-4.725	-4.3104	-4.564	201.338	2.366	-12.147	211.999	15.403	304.554	208.291	4.534	-11.924	215.840	316.908	139.990	168.109	30.985	17.144	0.00022786	0.0005537	0.00015598	1250.4	1.6529e-06	3.0343e-06	1343.6	261.83	5.5526e-06	1.1614e-05	328.49	89.2	71.041	20.273	6.714e-06	27.841	0.00050544	0.0004869	0.00015957	1235.3	5.4766e-06	5.3742e-06	1333.1	265.88	5.5298e-06	5.4838e-06	335.17	93.299	74.474	21.988	6.3984e-06	29.951	90.186	38.945	92.204	-6.642	49.840	93.532	-6.505	0.627	46.552	140.896	0.476	6.967	7.606	14.760	165.913	13.760	-8191	255	
23152.033	1	1	0	0	0.29053	0.24591	0.075466	0.064757	0.20069	0.054535	0.084032	0.2187	0.14042	0.092394	0.1173	0.062454	0.040215	0.11222	0.22909	0.17296	-3.8354	-4.8313	-4.0208	-4.725	-4.7104	-3.9396	-4.8417	-4.5854	-4.0938	-4.8688	-4.0979	-4.4437	-4.8417	-4.0479	-4.6667	-4.3833	221.957	160.856	238.507	50.117	31.323	252.760	195.213	247.256	297.205	14.987	267.878	299.854	20.236	90.322	131.380	225.421	0.00015615	0.00066182	0.00017412	1248.5	1.6919e-06	5.9566e-06	1353.1	261.78	5.3058e-06	1.0255e-05	327.41	88.72	70.949	20.394	1.1427e-05	27.774	0.00049575	0.00051271	0.00016295	1232	5.3736e-06	5.7009e-06	1336.5	264.93	5.2931e-06	5.7462e-06	333.97	92.636	74.09	22.183	6.2227e-06	29.774	101.069	192.658	79.989	-6.558	100.409	179.652	-6.433	0.757	18.733	147.091	0.183	7.541	7.073	14.991	20.502	14.178	-8191	255	
23152.104	1	1	0	0	0.049795	0.037493	0.20205	0.43955	0.13477	0.28097	0.30308	0.081293	0.10554	0.19922	0.20665	0.19221	0.19951	0.23741	0.13299	0.17202	-3.7708	-4.8458	-4.1604	-4.4729	-4.8562	-4.0625	-4.8083	-4.6542	-3.8708	-4.95	-4.2083	-4.225	-4.8417	-4.0396	-4.4583	-4.6854	78.146	30.646	336.151	326.126	54.006	154.203	328.770	325.623	220.432	211.876	295.985	288.790	259.912	314.472	246.567	35.472	0.00020682	0.00012691	6.7447e-05	1248.1	4.278e-06	5.7324e-06	1354.8	262.13	5.3807e-07	1.454e-06	326.41	89.206	71.07	20.436	2.4623e-06	27.802	0.0004762	0.00053839	0.0001561	1230.5	5.241e-06	6.057e-06	1334.1	264.88	5.3308e-06	6.1518e-06	333.25	92.832	74.454	22.456	6.0658e-06	29.855	88.479	140.534	147.987	-6.686	254.707	177.245	-6.401	0.530	194.760	50.490	0.792	6.600	7.542	14.094	214.650	13.698	-8191	255	
23152.199	1	1	0	0	0.20613	0.28027	0.08569	0.17222	0.16237	0.08213	0.42551	0.16293	0.23753	0.00087501	0.18581	0.10236	0.06956	0.16799	0.12251	0.20546	-3.7438	-4.8021	-4.25	-4.0667	-4.8604	-3.9354	-4.4938	-4.575	-3.8542	-5.0833	-4.5021	-4.35	-4.9875	-4.0229	-4.4	-5.0729	56.661	39.778	213.153	323.015	-7.966	-13.379	316.968	21.577	216.028	180.000	281.014	50.405	63.462	263.129	153.912	-12.757	0.00026368	0.00073949	4.5426e-05	1253.8	4.8865e-06	2.8362e-06	1353.9	263.01	2.027e-06	1.0726e-05	328.39	89.803	71.862	20.429	7.2684e-06	27.653	0.00049415	0.00058354	0.00015231	1235.5	5.5513e-06	6.5364e-06	1335	265.54	5.7511e-06	6.5956e-06	333.77	93.09	75.586	22.731	6.0182e-06	29.907	117.643	117.442	311.977	-6.697	84.626	68.113	-6.445	0.652	159.154	103.254	0.205	7.146	7.340	14.489	16.560	13.781	-8191	255	
23152.320	1	1	0	0	0.22215	0.10816	0.14685	0.15441	0.024648	0.24963	0.19344	0.05783	0.052507	0.094786	0.10642	0.094985	0.067693	0.31795	0.31016	0.12511	-3.6167	-4.75	-4.4667	-4.3854	-5.025	-4.175	-4.4646	-4.8313	-3.9479	-4.7583	-4.5813	-4.1208	-4.8729	-4.2875	-4.1042	-5.0312	57.745	321.862	35.841	304.070	257.473	243.030	304.603	-6.298	-3.334	173.411	-8.612	251.337	274.654	218.276	221.742	162.843	0.00046298	0.00041047	0.00016204	1257.4	5.7218e-06	5.7148e-06	1354	263.37	4.1511e-06	6.4698e-06	328.72	89.416	71.444	20.532	9.8567e-06	27.62	0.00054641	0.00060934	0.00015211	1236.1	6.1208e-06	6.5714e-06	1334.9	265.96	6.2445e-06	6.5702e-06	333.89	92.963	76.317	22.615	5.9373e-06	30.03	115.715	62.294	16.333	-6.655	185.170	52.396	-6.728	0.400	188.858	-1.561	0.162	6.603	6.952	13.760	123.407	13.724	-8191	255	
23152.418	1	1	0	0	0.091582	0.10509	0.2056	0.18546	0.22626	0.15424	0.15788	0.25377	0.14776	0.1374	0.039411	0.15774	0.21817	0.10787	0.25964	0.10675	-3.725	-4.7146	-4.5646	-4.1104	-4.8229	-4.2521	-4.4583	-4.8708	-3.9146	-4.5375	-4.7812	-3.9229	-4.9354	-4.2375	-4.1625	-4.8771	136.413	-8.558	269.312	287.759	157.241	138.432	236.505	237.810	91.515	242.335	305.653	11.931	-6.959	231.252	151.762	151.889	0.0003913	0.00097791	4.7892e-05	1251.7	6.2623e-06	3.4567e-06	1356.6	263.97	3.5625e-06	4.7827e-06	329.34	89.064	71.725	20.316	5.3812e-06	27.808	0.00058537	0.00058399	0.00014743	1235.9	6.436e-06	6.2454e-06	1335.7	265.78	6.4734e-06	6.1455e-06	332.26	92.813	76.511	22.317	5.5185e-06	29.97	95.196	307.471	319.358	-7.111	196.603	300.683	-6.862	0.557	131.360	204.287	0.409	6.969	7.431	14.395	25.390	14.237	-8191	255	
23152.514	1	1	0	0	0.1995	0.2071	0.03608	0.23128	0.12305	0.11412	0.303	0.082724	0.076697	0.034273	0.131	0.13748	0.12528	0.25359	0.079568	0.1759	-3.6625	-4.4792	-4.6729	-4.1792	-4.7917	-4.3542	-4.125	-4.9229	-3.9854	-4.4604	-4.7417	-4.0125	-4.8292	-4.6583	-4.0229	-4.9021	218.764	0.410	229.957	278.949	0.429	87.647	314.452	321.493	29.105	152.487	5.906	141.094	316.223	71.008	51.417	300.826	0.00028188	0.00081616	0.00022286	1254.4	6.7638e-06	4.3188e-06	1355.8	264.12	5.8569e-06	6.6454e-06	330.17	89.954	71.25	20.47	9.9887e-06	27.445	0.0005865	0.00053974	0.00013959	1237.3	6.4553e-06	5.8845e-06	1333.1	267.1	6.4475e-06	5.8244e-06	332.18	93.827	76.279	22.146	5.3226e-06	30.138	112.408	148.105	-0.628	-6.569	117.932	284.583	-6.657	0.734	180.595	327.305	0.509	7.127	7.237	14.208	28.825	13.781	-8191	255	
23152.609	1	1	0	0	0.40152	0.045099	0.10379	0.20299	0.08338	0.16008	0.26279	0.094453	0.1913	0.19978	0.13233	0.1903	0.23844	0.22439	0.075702	0.38755	-3.8708	-4.425	-4.8667	-4.1813	-4.7292	-4.5271	-4.2646	-4.9938	-4.1625	-4.3229	-5.0729	-4.0687	-4.8208	-4.6375	-3.8875	-4.9479	52.312	114.840	176.418	262.642	323.078	85.252	310.478	209.059	211.070	152.948	236.119	-11.503	316.339	251.889	116.075	308.145	0.00030836	0.00028187	0.00015725	1250.7	3.7696e-06	5.1657e-06	1347	262.72	6.8398e-06	7.5875e-07	328.08	88.752	71.12	20.258	5.6549e-06	27.64	0.00055273	0.0005103	0.00013415	1235.3	6.0609e-06	5.5474e-06	1326.6	267.08	6.0092e-06	5.5229e-06	329.83	93.568	75.351	21.924	5.2686e-06	30.3	73.552	47.701	109.734	-6.730	80.850	88.531	-6.486	0.545	182.687	61.779	0.637	6.918	7.351	14.458	96.954	14.020	-8191	255	
23152.705	1	1	0	0	0.068379	0.11259	0.22086	0.25554	0.098461	0.26474	0.24475	0.14665	0.20208	0.28581	0.13877	0.14095	0.14701	0.12463	0.19398	0.10645	-3.9271	-4.3125	-4.8833	-4.1687	-4.3542	-4.7458	-4.1625	-4.8417	-4.2875	-4.0292	-4.9375	-4.2188	-4.6146	-4.8375	-3.8896	-5.1229	337.498	100.386	51.012	295.423	310.672	287.416	233.264	273.743	188.832	216.871	240.378	331.034	236.006	-5.571	301.608	5.435	0.0001882	0.00053556	0.00018447	1251.3	4.5498e-06	6.8054e-06	1354	263.52	2.9519e-06	3.6609e-06	326.34	89.102	71.3	20.601	8.1189e-06	27.866	0.00053267	0.00049564	0.0001352	1240.2	5.7997e-06	5.3406e-06	1329.3	267.8	5.7727e-06	5.3393e-06	330.37	93.925	75.018	21.9	5.5892e-06	30.467	136.779	23.677	66.531	-6.882	22.325	334.121	-6.852	0.591	155.580	96.334	0.433	6.834	7.184	14.194	176.374	13.729	-8191	255	
23152.803	1	1	0	0	0.035846	0.1405	0.22098	0.17387	0.17503	0.049445	0.10964	0.14163	0.063787	0.080175	0.12203	0.23573	0.076957	0.20356	0.12154	0.24974	-4.2438	-4.1375	-5.0083	-4.3042	-4.5	-4.7708	-4.125	-4.9021	-4.4583	-3.9	-5.0479	-4.1937	-4.4604	-4.8187	-4.0021	-4.8375	177.415	110.889	186.872	325.898	135.687	83.864	77.830	190.186	-0.705	274.371	329.656	0.787	137.716	77.986	252.637	287.960	0.00016703	0.00038118	0.00024098	1252	7.4447e-06	3.7957e-06	1351.7	262.46	1.3239e-06	9.6919e-06	330.13	89.807	71.868	20.443	4.1161e-06	27.792	0.00050307	0.00048037	0.00014317	1240.2	5.5926e-06	5.2536e-06	1335.6	268.02	5.6001e-06	5.2505e-06	334.48	94.192	75.314	21.98	6.1389e-06	30.447	29.424	304.837	68.762	-6.815	341.231	139.245	-6.635	0.364	279.249	100.695	0.139	6.619	6.605	14.688	110.792	13.155	-8191	255	
23152.896	1	1	0	0	0.14837	0.092424	0.067021	0.27143	0.12719	0.098633	0.074564	0.06807	0.18244	0.059174	0.40553	0.083635	0.13251	0.15819	0.15389	0.079323	-4.3979	-4.1417	-4.8208	-4.2	-4.2333	-4.7771	-4.2375	-4.7812	-4.6	-3.8917	-4.9521	-4.2958	-4.2833	-4.9167	-3.8875	-4.6917	205.252	34.237	162.774	6.871	108.747	331.950	163.100	209.550	154.904	52.720	45.320	-0.139	340.845	79.924	95.304	54.432	0.00019997	4.1672e-05	0.00023369	1252.9	3.8627e-06	6.6211e-06	1353.6	264.96	4.0829e-06	1.0676e-05	329.32	89.958	71.778	20.544	6.2836e-06	27.75	0.00051131	0.0005002	0.00016065	1242.3	5.7363e-06	5.4973e-06	1343.9	268.82	5.7143e-06	5.5199e-06	336.99	93.902	75.218	22.132	6.4232e-06	30.264	90.895	175.743	129.661	-6.615	89.159	146.494	-6.619	0.329	78.858	130.796	0.510	7.041	7.394	13.985	64.979	13.422	-8191	255	
23152.994	1	1	0	0	0.18166	0.24411	0.29798	0.20304	0.03953	0.24998	0.2643	0.25217	0.14685	0.29829	0.24013	0.089906	0.11336	0.093337	0.15985	0.084445	-4.4021	-4	-4.9333	-4.5312	-4.2458	-4.9229	-4.1729	-4.725	-4.6354	-3.8625	-5	-4.7063	-4.0417	-4.8833	-4.175	-4.5938	340.624	146.215	168.857	52.330	159.111	183.436	270.962	291.911	198.226	16.144	93.409	65.689	276.876	176.396	194.673	155.139	0.00013387	0.00075979	0.00020511	1259.4	4.0277e-06	7.6356e-06	1353.6	263.97	3.2667e-06	1.4512e-05	329.91	89.543	71.282	20.317	6.6035e-06	27.82	0.00049113	0.00050106	0.00016202	1239.8	5.3914e-06	5.5814e-06	1343.4	267.1	5.3729e-06	5.7522e-06	337.15	93.323	74.877	22.308	6.3688e-06	30.152	44.518	69.988	49.882	-6.618	182.225	129.290	-7.028	0.256	222.179	172.610	-0.047	6.642	7.190	14.076	114.390	13.675	-8191	255	
23153.113	1	1	0	0	0.16532	0.29705	0.088638	0.26364	0.34082	0.30101	0.010714	0.092018	0.17574	0.26467	0.1254	0.070372	0.21831	0.094305	0.1362	0.24972	-4.6521	-3.9792	-4.8562	-4.7083	-4.0229	-4.8167	-4.3604	-4.4458	-4.9271	-3.975	-4.8479	-4.7792	-4.2771	-4.9396	-4.2896	-4.2917	234.901	218.962	140.313	317.884	102.882	111.250	274.310	116.726	301.995	326.061	286.334	15.033	76.225	247.460	78.134	283.051	0.00014642	0.00025318	0.00010677	1252	7.1172e-06	6.4665e-06	1358.3	263.71	2.4648e-06	1.1434e-05	330.08	88.982	71.729	20.572	7.744e-06	28.003	0.00048759	0.00054681	0.00016026	1236.7	5.282e-06	6.0108e-06	1339.8	266.49	5.2895e-06	6.1298e-06	335.4	93.1	74.661	22.516	6.1472e-06	30.042	-1.160	290.442	-2.909	-7.195	138.830	170.234	-7.181	0.051	196.990	164.347	-0.079	6.678	6.960	13.801	28.733	13.908	-8191	255	
23153.209	1	1	0	0	0.11701	0.077845	0.036272	0.21755	0.15413	0.1994	0.24661	0.3286	0.17694	0.19972	0.19429	0.23213	0.28637	0.080246	0.10521	0.25168	-4.5333	-4.0062	-4.6854	-4.7479	-3.9562	-4.9042	-4.3667	-4.3	-4.8896	-4.0583	-4.7812	-4.5708	-4.0687	-4.7958	-4.2792	-4.1792	285.701	72.888	26.754	-14.731	124.720	78.221	317.085	231.171	282.442	127.468	194.564	165.592	61.700	214.089	214.480	155.419	0.0002205	0.00055423	0.00018247	1251.1	5.1231e-06	5.8813e-06	1357.4	264	9.6242e-06	4.4685e-06	327.12	89.592	71.349	20.498	1.1616e-06	27.81	0.00048562	0.00058077	0.0001558	1235.6	5.5089e-06	6.4554e-06	1338.7	266.11	5.6031e-06	6.5744e-06	333.73	93.063	75.39	22.671	6.0502e-06	30.015	125.776	128.662	23.700	-7.173	148.963	102.849	-7.050	-0.209	249.885	196.323	-0.566	6.594	7.260	13.907	-16.850	13.705	-8191	255	
23153.305	1	1	0	0	0.20383	0.11747	0.09576	0.2255	0.032133	0.0051383	0.073927	0.24372	0.055164	0.16913	0.19066	0.25847	0.029978	0.23687	0.097558	0.20605	-4.5125	-4.0542	-4.3458	-5.0687	-3.8396	-4.9458	-4.6312	-4.2104	-4.95	-4.0208	-4.3521	-4.8938	-4.0563	-4.75	-4.5042	-4.0979	119.276	135.871	202.978	283.623	28.038	288.578	329.274	321.777	212.341	240.580	300.313	328.564	177.317	233.624	222.558	-9.930	0.00028717	0.00088795	0.00018146	1252.7	6.9288e-06	5.1448e-06	1354.2	261.76	4.2269e-06	4.5363e-06	330	89.196	71.238	20.457	4.9176e-06	27.823	0.00052695	0.00060957	0.00015118	1232.8	5.9645e-06	6.5666e-06	1334.4	265.3	6.057e-06	6.5466e-06	333.14	92.938	75.918	22.643	5.8715e-06	29.931	85.957	25.190	-11.517	-6.890	171.606	60.852	-6.849	0.254	162.550	-9.271	0.022	6.774	7.362	13.905	128.343	13.891	-8191	255	
23153.400	1	1	0	0	0.061246	0.26256	0.060412	0.3147	0.28642	0.19732	0.18034	0.23118	0.28383	0.33289	0.054492	0.20127	0.047435	0.12277	0.052992	0.12024	-4.6333	-4.1792	-4.3104	-5.0062	-3.9729	-4.6354	-4.7708	-4.0771	-4.9125	-4.0021	-4.5625	-4.9563	-4.1083	-4.6292	-4.6042	-4.0229	50.259	250.523	-2.088	295.781	109.114	259.364	333.585	245.897	225.296	90.954	217.409	271.225	322.688	151.478	185.798	219.082	0.00031271	0.0004919	0.00016053	1252.8	2.3523e-06	4.3806e-06	1349.5	263.26	5.5871e-06	3.4013e-06	326.6	89.926	71.449	20.388	7.9189e-06	27.698	0.00056583	0.00058377	0.00014855	1233.6	6.2915e-06	6.3135e-06	1330.7	265.52	6.3837e-06	6.2555e-06	332.1	93.005	76.754	22.544	5.784e-06	30.095	109.228	23.527	254.636	-6.985	135.808	47.932	-6.920	0.441	148.609	140.778	0.093	7.152	7.018	13.943	108.541	13.898	-8191	255	
23153.496	1	1	0	0	0.035226	0.055528	0.056648	0.35272	0.05715	0.046271	0.0448	0.33658	0.13606	0.2188	0.078825	0.16122	0.16703	0.15091	0.13576	0.18469	-4.7479	-4.2521	-4.1292	-5.0396	-4.0646	-4.6	-4.9854	-4.0479	-4.8875	-4.4333	-4.2417	-4.8875	-4.1375	-4.5021	-4.5854	-4.0542	66.820	255.288	150.935	278.822	5.696	107.318	125.042	294.916	37.045	304.403	130.658	311.734	73.263	16.963	279.859	221.336	0.00039131	0.00095238	0.00014705	1250.2	4.2711e-06	1.0568e-05	1353.3	263.84	8.8121e-06	8.6312e-06	328.93	89.904	71.586	20.645	3.7669e-06	27.911	0.00059962	0.0005674	0.00014647	1235.8	6.593e-06	6.1026e-06	1332.9	266.56	6.5514e-06	5.9675e-06	331.48	93.742	76.614	22.353	5.5357e-06	30.371	79.872	339.496	177.232	-6.832	184.931	95.195	-6.730	0.127	111.851	-4.118	-0.075	6.634	7.130	14.084	100.158	13.683	-8191	255	
23153.594	1	1	0	0	0.11286	0.11728	0.13334	0.28468	0.13191	0.32363	0.22922	0.14798	0.1884	0.20009	0.11518	0.075986	0.032247	0.091444	0.093881	0.22863	-4.4333	-4.3	-4.0875	-4.9875	-4.1687	-4.2937	-4.8604	-4.0833	-4.7583	-4.4417	-4.2271	-5.0167	-4.2646	-4.3146	-4.8521	-4.0958	125.023	55.366	310.897	292.983	46.265	92.715	300.817	88.412	207.892	5.717	226.089	27.103	6.645	285.025	142.025	44.331	0.00018348	0.00022899	0.00011942	1252.7	5.6787e-06	7.2121e-06	1353.5	263.32	4.5143e-06	9.6117e-06	326.36	89.862	71.566	20.5	5.6421e-06	27.715	0.00058793	0.00053888	0.00014235	1241.7	6.6075e-06	6.0509e-06	1334.5	269.45	6.7567e-06	6.098e-06	332.5	94.979	77.031	22.481	5.7324e-06	30.853	125.537	-13.725	216.171	-6.871	71.351	32.969	-6.825	0.050	132.746	49.379	0.273	6.538	6.814	13.700	155.910	13.418	-8191	255	
23153.715	1	1	0	0	0.11099	0.14474	0.067657	0.28863	0.086746	0.013752	0.33333	0.13345	0.15421	0.040948	0.11442	0.17208	0.17813	0.14671	0.085881	0.16901	-4.4375	-4.75	-4.0146	-5.0437	-4.2688	-4.2937	-4.9833	-4.2146	-4.5854	-4.7458	-4.1292	-5.1292	-4.2354	-4.1646	-4.9979	-4.1271	43.765	216.533	159.210	305.797	212.276	280.664	240.687	259.224	132.792	274.045	307.836	290.645	-9.470	50.150	182.115	99.821	0.00024506	0.0005503	0.00015505	1257.3	5.4343e-06	4.1773e-06	1352.5	264.64	5.7554e-06	5.5147e-06	328.81	90.331	71.35	20.645	3.5697e-06	27.89	0.00059535	0.00055377	0.00014815	1250.9	6.4971e-06	6.06e-06	1336.4	271.16	6.5806e-06	6.0071e-06	335.2	95.961	76.68	22.552	6.1121e-06	31.173	55.237	30.242	280.142	-6.793	69.996	142.865	-6.844	0.063	296.605	22.321	-0.115	7.000	7.175	13.818	292.921	13.251	-8191	255	
23153.809	1	1	0	0	0.36722	0.22555	0.040711	0.23819	0.22359	0.12248	0.13975	0.14453	0.14845	0.17938	0.022999	0.024575	0.13243	0.10591	0.11063	0.16632	-4.1521	-4.6188	-3.95	-5.1208	-4.225	-4.1167	-5.0958	-4.1771	-4.5104	-4.6625	-4.0542	-4.8187	-4.5125	-4.0542	-4.9333	-4.1562	238.912	97.246	93.128	283.221	238.163	278.259	316.834	293.086	155.654	332.616	239.888	318.798	124.801	212.753	340.268	292.458	0.00021513	0.00046788	0.0001308	1251	3.7653e-06	2.9162e-06	1355.9	264.37	5.3728e-06	6.0282e-06	329.35	89.727	71.63	20.5	1.3492e-05	27.763	0.00058201	0.00054666	0.00015854	1251	6.3362e-06	6.0871e-06	1344.5	272.04	6.4717e-06	6.0654e-06	338.24	96.215	76.85	22.562	6.8013e-06	31.28	111.402	7.699	129.522	-6.729	151.808	212.331	-6.883	0.189	36.788	268.492	0.137	6.755	6.982	13.983	178.940	13.571	-8191	255	
23153.904	1	1	0	0	0.16448	0.06969	0.21199	0.17671	0.19508	0.10855	0.25017	0.067929	0.16845	0.30834	0.11083	0.31918	0.13719	0.22742	0.18865	0.085548	-3.9583	-4.725	-4.0521	-4.8396	-4.5771	-4.0229	-5.0646	-4.1375	-4.3396	-4.8146	-4.1188	-4.6625	-4.7667	-4.1125	-4.8354	-4.2104	28.339	288.768	277.732	315.833	175.135	206.484	279.672	206.622	272.108	264.597	250.791	289.613	13.653	265.859	172.591	-0.906	0.00020208	0.000892	0.00022994	1258	4.6142e-06	4.3228e-06	1353.3	265	6.6219e-06	1.2038e-05	330.63	90.126	71.501	20.639	4.2002e-06	27.868	0.00058147	0.00055445	0.00017479	1251.8	6.3017e-06	6.0328e-06	1347.9	271.25	6.2694e-06	5.9253e-06	340.9	95.506	76.281	22.472	6.9814e-06	30.78	57.722	339.062	132.441	-6.636	87.957	339.331	-6.648	0.481	172.630	159.246	0.295	7.008	7.016	13.594	297.452	14.146	-8191	255	
23154.002	1	1	0	0	0.18214	0.27193	0.078331	0.29321	0.20221	0.21467	0.25033	0.1638	0.17501	0.12825	0.23561	0.32439	0.11987	0.16231	0.1479	0.16264	-3.8396	-4.8146	-3.8937	-4.6438	-4.7167	-3.9958	-5.0396	-4.4229	-4.0708	-4.9396	-4.025	-4.5625	-4.7208	-3.9771	-4.8979	-4.425	244.197	261.362	206.787	319.406	296.024	-15.199	310.764	320.629	51.751	114.478	218.671	280.559	185.307	13.964	244.122	252.041	0.00016764	0.00072307	0.00031948	1257.8	2.5712e-06	5.8737e-06	1356	263.66	1.6145e-06	8.3873e-06	329.14	89.836	72.075	20.449	4.7393e-06	27.847	0.00055218	0.00054388	0.00017815	1247.8	6.0223e-06	6.1145e-06	1350.1	269.66	5.9925e-06	6.1109e-06	340.08	94.75	76.041	22.571	7.1172e-06	30.661	21.218	25.944	128.668	-6.555	34.223	116.103	-6.419	0.420	-9.613	126.723	0.128	7.272	7.139	14.182	77.054	13.824	-8191	255	
23154.098	1	1	0	0	0.12464	0.117	0.21729	0.070793	0.18252	0.2116	0.098895	0.064468	0.28625	0.24009	0.060502	0.1394	0.23244	0.1775	0.16745	0.089431	-3.9083	-4.9187	-4.0604	-4.6771	-4.8562	-4.0813	-4.9542	-4.55	-3.9542	-5.0458	-4.2354	-4.4271	-4.8812	-3.9729	-4.5917	-4.6042	207.804	132.304	229.188	226.159	267.280	9.762	295.712	329.790	232.424	313.631	56.213	312.815	271.040	122.731	1.951	269.720	0.00025741	0.00072567	9.1215e-05	1263.1	3.6013e-06	5.7423e-06	1361.6	266.14	2.5863e-06	9.4114e-06	329.77	89.851	71.886	20.578	8.0188e-06	28.106	0.00054118	0.00058813	0.00018095	1248.2	5.9095e-06	6.6114e-06	1351.6	269.77	6.0007e-06	6.7656e-06	340.43	94.762	76.101	22.894	6.9783e-06	30.702	145.840	128.873	274.827	-6.739	342.450	137.897	-6.591	0.710	204.927	191.856	0.453	7.191	7.468	14.246	113.129	14.090	-8191	255	
#DATA ENDS
