BOXY.EXE: ISS Imagent and Oximeter Data Acquisition Program Version 0.80
Ascii Record File

#ACQ INFORMATION
2  Detector Channels 
16  External MUX Channels 
1  Auxiliary Channels 
5000  Waveform (CCF) Frequency (Hz)
1  Waveforms Skipped 
30  Waveforms Averaged 
1  Cycles Averaged 
16  Acquisitions per Waveform 
10.0806  Updata Rate (Hz) 

#FILE INFORMATION
TRUE -- External MUX Channel results are PARSED.
FALSE -- AC DC and Phase are NOT grouped.
TRUE -- Companion Program Settings File CREATED.
FALSE -- AC data not excluded
FALSE -- DC data not excluded
FALSE -- Phase data not excluded
FALSE -- Auxillary Chn. data not excluded
Tab delimiters

#CALIBRATION STATE
TRUE -- Waveform Calibration Values APPLIED.


#AUX CALIBRATION VALUES
Val Type	aux-1	

Term	1.0000e+00	
Factor	0.0000e+00	


#WF CALIBRATION VALUES
A = Detector Channel
Val Type	A-AC1	A-AC2	A-AC3	A-AC4	A-AC5	A-AC6	A-AC7	A-AC8	A-AC9	A-AC10	A-AC11	A-AC12	A-AC13	A-AC14	A-AC15	A-AC16	A-DC1	A-DC2	A-DC3	A-DC4	A-DC5	A-DC6	A-DC7	A-DC8	A-DC9	A-DC10	A-DC11	A-DC12	A-DC13	A-DC14	A-DC15	A-DC16	A-Ph1	A-Ph2	A-Ph3	A-Ph4	A-Ph5	A-Ph6	A-Ph7	A-Ph8	A-Ph9	A-Ph10	A-Ph11	A-Ph12	A-Ph13	A-Ph14	A-Ph15	A-Ph16	

Term	0.00000e+00	0.00000e+00	0.00000e+00	0.00000e+00	0.00000e+00	0.00000e+00	0.00000e+00	0.00000e+00	0.00000e+00	0.00000e+00	0.00000e+00	0.00000e+00	0.00000e+00	0.00000e+00	0.00000e+00	0.00000e+00	0.00000e+00	0.00000e+00	0.00000e+00	0.00000e+00	0.00000e+00	0.00000e+00	0.00000e+00	0.00000e+00	0.00000e+00	0.00000e+00	0.00000e+00	0.00000e+00	0.00000e+00	0.00000e+00	0.00000e+00	0.00000e+00	0.00000e+00	0.00000e+00	0.00000e+00	0.00000e+00	0.00000e+00	0.00000e+00	0.00000e+00	0.00000e+00	0.00000e+00	0.00000e+00	0.00000e+00	0.00000e+00	0.00000e+00	0.00000e+00	0.00000e+00	0.00000e+00	
Factor	1.00000e+00	1.00000e+00	1.00000e+00	1.00000e+00	1.00000e+00	1.00000e+00	1.00000e+00	1.00000e+00	1.00000e+00	1.00000e+00	1.00000e+00	1.00000e+00	1.00000e+00	1.00000e+00	1.00000e+00	1.00000e+00	1.00000e+00	1.00000e+00	1.00000e+00	1.00000e+00	1.00000e+00	1.00000e+00	1.00000e+00	1.00000e+00	1.00000e+00	1.00000e+00	1.00000e+00	1.00000e+00	1.00000e+00	1.00000e+00	1.00000e+00	1.00000e+00	X	X	X	X	X	X	X	X	X	X	X	X	X	X	X	X	

B = Detector Channel
Val Type	B-AC1	B-AC2	B-AC3	B-AC4	B-AC5	B-AC6	B-AC7	B-AC8	B-AC9	B-AC10	B-AC11	B-AC12	B-AC13	B-AC14	B-AC15	B-AC16	B-DC1	B-DC2	B-DC3	B-DC4	B-DC5	B-DC6	B-DC7	B-DC8	B-DC9	B-DC10	B-DC11	B-DC12	B-DC13	B-DC14	B-DC15	B-DC16	B-Ph1	B-Ph2	B-Ph3	B-Ph4	B-Ph5	B-Ph6	B-Ph7	B-Ph8	B-Ph9	B-Ph10	B-Ph11	B-Ph12	B-Ph13	B-Ph14	B-Ph15	B-Ph16	

Term	0.00000e+00	0.00000e+00	0.00000e+00	0.00000e+00	0.00000e+00	0.00000e+00	0.00000e+00	0.00000e+00	0.00000e+00	0.00000e+00	0.00000e+00	0.00000e+00	0.00000e+00	0.00000e+00	0.00000e+00	0.00000e+00	0.00000e+00	0.00000e+00	0.00000e+00	0.00000e+00	0.00000e+00	0.00000e+00	0.00000e+00	0.00000e+00	0.00000e+00	0.00000e+00	0.00000e+00	0.00000e+00	0.00000e+00	0.00000e+00	0.00000e+00	0.00000e+00	-1.70766e+02	-1.55360e+02	-1.36989e+02	-1.83556e+02	-7.39167e+01	-1.11136e+02	-1.57958e+02	-1.62015e+02	-8.77219e+01	-9.53084e+01	-1.70441e+02	-1.71054e+02	-1.79201e+02	-1.76666e+02	-9.97883e+01	-1.49357e+02	
Factor	2.98084e-05	1.06056e-04	3.44200e-05	1.51934e-01	8.83417e-07	1.01984e-06	1.64616e-01	5.40301e-02	8.79708e-07	1.14181e-06	8.93439e-02	3.10184e-02	2.90158e-02	9.72131e-03	1.45861e-06	1.37752e-02	7.84505e-07	7.99803e-07	2.22624e-07	7.65306e-02	8.71945e-09	8.76617e-09	7.79789e-02	2.70018e-02	8.73877e-09	8.78194e-09	4.25643e-02	1.47342e-02	1.42478e-02	4.76412e-03	8.78011e-09	6.51403e-03	X	X	X	X	X	X	X	X	X	X	X	X	X	X	X	X	



#DISTANCE SETTINGS
A = Detector Channel
A-1	A-2	A-3	A-4	A-5	A-6	A-7	A-8	A-9	A-10	A-11	A-12	A-13	A-14	A-15	A-16	

2.5000e+00	3.0000e+00	2.5000e+00	3.0000e+00	2.0000e+00	3.0000e+00	1.5000e+00	3.0000e+00	3.0000e+00	3.0000e+00	3.0000e+00	3.0000e+00	3.0000e+00	3.0000e+00	1.5000e+00	3.0000e+00	

B = Detector Channel
B-1	B-2	B-3	B-4	B-5	B-6	B-7	B-8	B-9	B-10	B-11	B-12	B-13	B-14	B-15	B-16	

1.0000e+01	1.0000e+01	1.0000e+01	1.4400e+00	1.0000e+01	1.0000e+01	1.5100e+00	1.9400e+00	1.0000e+01	1.0000e+01	1.9900e+00	2.4900e+00	2.4100e+00	2.9000e+00	1.0000e+01	2.9800e+00	




#DATA BEGINS
time	group	step	mark	flag	A-AC1	A-AC2	A-AC3	A-AC4	A-AC5	A-AC6	A-AC7	A-AC8	A-AC9	A-AC10	A-AC11	A-AC12	A-AC13	A-AC14	A-AC15	A-AC16	A-DC1	A-DC2	A-DC3	A-DC4	A-DC5	A-DC6	A-DC7	A-DC8	A-DC9	A-DC10	A-DC11	A-DC12	A-DC13	A-DC14	A-DC15	A-DC16	A-Ph1	A-Ph2	A-Ph3	A-Ph4	A-Ph5	A-Ph6	A-Ph7	A-Ph8	A-Ph9	A-Ph10	A-Ph11	A-Ph12	A-Ph13	A-Ph14	A-Ph15	A-Ph16	B-AC1	B-AC2	B-AC3	B-AC4	B-AC5	B-AC6	B-AC7	B-AC8	B-AC9	B-AC10	B-AC11	B-AC12	B-AC13	B-AC14	B-AC15	B-AC16	B-DC1	B-DC2	B-DC3	B-DC4	B-DC5	B-DC6	B-DC7	B-DC8	B-DC9	B-DC10	B-DC11	B-DC12	B-DC13	B-DC14	B-DC15	B-DC16	B-Ph1	B-Ph2	B-Ph3	B-Ph4	B-Ph5	B-Ph6	B-Ph7	B-Ph8	B-Ph9	B-Ph10	B-Ph11	B-Ph12	B-Ph13	B-Ph14	B-Ph15	B-Ph16	aux-1	digaux	

23121.949	1	1	0	768	0.15272	0.14117	0.057037	0.044997	0.12066	0.17171	0.094823	0.17402	0.11253	0.09216	0.098796	0.21108	0.2652	0.095523	0.16736	0.11423	-3.8292	-4.825	-4.7521	-4.1875	-5.0604	-4.3812	-4.5375	-5.1708	-4.1792	-4.5771	-4.9812	-4.1729	-5.0875	-4.6521	-4.2063	-5.0875	194.853	43.471	-8.857	307.883	148.707	174.110	283.780	267.821	-20.840	18.390	227.104	272.450	335.905	183.137	16.394	144.409	0.00041527	0.00031996	0.00017419	1366.3	1.2773e-05	8.7522e-06	1366.1	369.29	5.709e-06	1.1506e-05	422.19	139.52	121.7	42.085	3.4758e-06	51.958	0.00059468	0.000581	0.00014963	1379.4	6.5812e-06	6.2818e-06	1379.9	373.66	6.6265e-06	6.2465e-06	427.18	143.04	125.51	43.146	5.8313e-06	53.197	98.785	114.682	40.170	-8.633	158.819	26.756	-8.948	-4.033	124.766	73.479	-4.850	-0.483	-0.028	4.808	299.156	3.852	-8191	255	
23122.047	1	1	0	0	0.22086	0.13169	0.19533	0.19856	0.039489	0.034009	0.18193	0.22646	0.027872	0.14072	0.17847	0.22717	0.24495	0.17742	0.24084	0.22796	-3.8292	-4.5979	-4.7188	-4.2854	-4.9833	-4.4458	-4.4313	-5.0833	-4.2	-4.5271	-5.0771	-4.2146	-4.7917	-4.7083	-4.3042	-5.0833	307.735	170.179	-1.678	29.421	207.246	10.414	235.569	311.354	237.627	265.505	98.468	214.687	315.757	237.652	139.555	58.734	0.00019553	0.00077548	0.00015566	1367.9	7.3289e-06	6.7154e-06	1366.2	368.22	5.2477e-06	1.0095e-06	421.49	140.55	121.88	42.091	8.1632e-06	51.814	0.00060031	0.00056064	0.00014542	1383	6.5721e-06	6.103e-06	1378.8	374.97	6.5378e-06	6.0761e-06	426.04	143.88	125.56	43.016	5.6762e-06	53.484	76.859	331.724	38.282	-9.227	170.776	72.004	-9.329	-4.412	90.577	215.590	-4.516	-0.173	0.383	4.821	227.967	4.313	-8191	255	
23122.143	1	1	0	0	0.056097	0.17127	0.12826	0.44428	0.02035	0.21837	0.17174	0.17948	0.2038	0.38246	0.15045	0.086496	0.30138	0.18618	0.034175	0.074886	-4.0854	-4.3917	-4.9	-4.225	-4.8333	-4.5938	-4.4187	-5.1396	-4.2083	-4.3521	-5.0062	-4.0875	-4.6771	-4.9313	-4.2021	-5.0813	-8.203	318.573	223.626	318.447	107.315	105.344	244.107	297.807	186.125	218.193	-3.243	331.541	286.183	276.104	56.600	-1.037	0.00031993	0.00013216	0.00020337	1371.9	6.8688e-06	6.685e-06	1367.7	368.23	2.7972e-06	1.3455e-06	422.37	139.71	121.98	42.092	2.8155e-06	52.108	0.00058905	0.00054777	0.00014206	1387.9	6.3748e-06	5.9172e-06	1379	376.21	6.2861e-06	5.9207e-06	426.58	144.17	125.08	42.905	5.7009e-06	53.669	84.942	107.634	66.323	-8.544	82.210	63.855	-8.737	-4.062	32.175	27.839	-4.352	0.109	0.177	5.062	165.802	4.375	-8191	255	
23122.238	1	1	0	0	0.14288	0.13971	0.21369	0.25535	0.071888	0.06298	0.1239	0.23479	0.28385	0.24011	0.095508	0.032512	0.084451	0.093499	0.10028	0.1894	-4.2146	-4.1146	-5.0792	-4.3979	-4.7312	-4.7958	-4.3313	-5.1333	-4.4354	-4.3104	-5.1125	-4.2312	-4.6458	-4.9625	-4.025	-4.9042	-16.097	177.083	120.565	272.811	8.830	-1.422	249.619	261.548	161.915	18.561	318.501	274.534	270.569	209.742	253.709	253.407	0.00023031	0.00038556	0.00022176	1372.6	2.1793e-06	5.2866e-06	1370.6	370.53	3.1105e-06	9.9597e-06	420.09	139.49	122.32	42.067	6.5796e-06	52.065	0.00056143	0.00052838	0.00014667	1390.1	6.111e-06	5.7208e-06	1383	376.8	6.0433e-06	5.6956e-06	426.79	143.94	124.78	42.819	6.049e-06	53.667	106.611	201.013	71.577	-8.628	112.255	72.490	-8.851	-4.013	125.963	54.731	-4.350	0.030	0.367	5.093	181.285	4.292	-8191	255	
23122.332	1	1	0	0	0.23129	0.1488	0.22492	0.14423	0.13947	0.12485	0.11144	0.17808	0.11242	0.010338	0.21018	0.15804	0.39242	0.041425	0.070058	0.041525	-4.3396	-4.1062	-5.0021	-4.5687	-4.2562	-4.9958	-4.1417	-5.0437	-4.65	-4.1542	-5.025	-4.3438	-4.4208	-4.9417	-4.0687	-4.7854	159.027	50.944	227.738	312.739	2.747	-12.265	231.260	323.978	218.942	62.297	269.224	325.785	326.734	198.012	102.525	219.680	0.00023923	0.00029205	0.00026036	1371	1.1311e-06	4.0665e-06	1365.7	367.88	5.5432e-06	7.6437e-06	421.03	140.82	121.67	41.93	1.0844e-05	51.973	0.00054669	0.00051546	0.00015494	1387.1	6.0013e-06	5.5762e-06	1384.3	375.98	5.9325e-06	5.6516e-06	429.15	143.98	124.43	42.782	6.4225e-06	53.471	130.295	222.123	113.256	-8.470	121.539	77.211	-8.634	-3.935	172.746	114.986	-4.366	-0.195	0.230	5.064	168.637	4.320	-8191	255	
23122.430	1	1	0	0	0.094515	0.059475	0.097649	0.055212	0.162	0.1691	0.20121	0.28705	0.059403	0.084772	0.26326	0.12945	0.11991	0.26207	0.12192	0.16134	-4.2646	-3.9792	-5.0667	-4.4521	-4.3375	-5.1771	-4.2979	-4.8625	-4.7667	-4.0542	-5.0312	-4.5854	-4.2667	-5.0125	-4.0938	-4.6792	30.208	100.173	243.270	137.858	49.022	196.092	307.300	198.466	275.277	160.509	283.829	-17.627	-16.214	286.748	194.928	296.736	0.00042127	0.00021497	0.00016819	1368.9	2.2153e-06	3.4905e-06	1364.6	368.95	3.6819e-06	2.9822e-06	422.23	140	121.95	42.088	4.2552e-06	52.19	0.00053435	0.0005196	0.00016399	1385.1	5.8361e-06	5.6864e-06	1386.6	375.05	5.7994e-06	5.7781e-06	430.89	143.55	124.44	42.87	6.5516e-06	53.327	121.770	13.752	38.788	-8.719	-14.569	164.610	-8.878	-3.913	70.379	85.608	-4.516	0.193	0.301	5.030	147.304	4.097	-8191	255	
23122.549	1	1	0	0	0.060045	0.049826	0.018319	0.18455	0.12233	0.21287	0.32005	0.20589	0.09545	0.087273	0.032048	0.14223	0.060302	0.2278	0.25655	0.32191	-4.5083	-4.2042	-4.8208	-4.6417	-4.1854	-5.0333	-4.3583	-4.7292	-4.8604	-3.8187	-4.8333	-4.5188	-4.325	-5.0646	-4.1792	-4.6854	250.385	35.364	292.804	277.835	235.871	43.062	10.425	249.394	78.528	40.556	257.677	196.072	40.850	0.238	331.647	282.406	0.0003514	0.00072864	0.00014948	1368.8	2.1883e-06	5.3278e-06	1364.9	367.58	3.5423e-06	5.8703e-06	420.49	140.11	121.32	41.882	9.9565e-06	51.981	0.00051961	0.00054529	0.00016723	1382.7	5.7083e-06	6.0245e-06	1384.8	374.12	5.6766e-06	6.1801e-06	430.07	143.28	123.79	43.085	6.5117e-06	53.22	99.400	87.710	139.184	-8.543	101.098	142.670	-8.972	-4.449	0.740	174.779	-4.998	-0.624	-0.152	4.346	121.389	3.886	-8191	255	
23122.645	1	1	0	0	0.092813	0.089065	0.18243	0.14003	0.20379	0.043245	0.052735	0.20216	0.022208	0.11299	0.094461	0.081395	0.069403	0.1193	0.10675	0.37808	-4.3625	-3.9313	-4.9667	-4.8958	-4.0708	-4.9125	-4.4208	-4.5958	-4.8708	-3.9021	-4.8354	-4.8083	-4.2104	-4.9875	-4.2688	-4.3167	2.119	168.750	187.493	212.958	151.611	265.357	297.239	308.357	166.274	40.440	238.317	243.152	333.799	328.926	3.681	262.236	0.0002895	0.00062877	0.00016289	1371.7	3.3944e-06	6.4972e-06	1364.7	367.8	5.582e-06	7.4742e-06	420.95	140.29	121.87	41.895	5.9212e-06	51.786	0.00050899	0.00058128	0.00016476	1383.8	5.6591e-06	6.3846e-06	1384	374.17	5.6378e-06	6.5657e-06	429.04	143.21	124.12	43.326	6.3894e-06	53.148	104.182	82.927	25.527	-9.002	133.424	145.111	-9.053	-4.268	106.624	150.642	-4.913	-0.522	-0.038	4.673	117.956	3.842	-8191	255	
23122.742	1	1	0	0	0.26613	0.17717	0.1227	0.35291	0.12773	0.031249	0.20988	0.27716	0.15488	0.055877	0.21959	0.10938	0.31393	0.20402	0.10193	0.11511	-4.6438	-4.0417	-4.6188	-4.9	-3.9021	-4.9563	-4.6312	-4.2708	-5.0375	-4.0854	-4.4792	-4.7625	-3.9729	-4.9917	-4.5292	-4.1813	25.868	184.531	2.875	314.314	-21.659	24.261	276.168	321.731	45.966	37.570	252.487	43.022	275.251	301.419	133.457	128.576	0.00039692	0.00088395	0.00017926	1372.2	5.6075e-06	4.2636e-06	1360.5	367.66	7.8547e-06	2.2344e-06	421.48	139.51	121.63	41.97	1.0131e-05	51.993	0.00052732	0.000613	0.00016196	1382.8	5.9096e-06	6.7119e-06	1383.1	373.64	5.9809e-06	6.7164e-06	428.97	142.66	124.47	43.339	6.2378e-06	53.001	101.022	31.178	130.962	-8.797	178.595	296.947	-9.142	-4.357	154.674	72.531	-4.630	-0.480	0.239	4.713	102.929	3.815	-8191	255	
23122.838	1	1	0	0	0.16888	0.16619	0.112	0.19093	0.21571	0.11729	0.074144	0.096676	0.050217	0.025367	0.13961	0.1094	0.05763	0.11485	0.090983	0.014255	-4.8438	-4.0604	-4.5604	-5.1083	-3.8479	-4.6417	-4.7896	-4.2208	-4.8854	-4.1646	-4.5833	-4.9854	-4.1792	-4.7854	-4.675	-4.1396	202.136	131.162	214.258	304.777	156.392	85.371	-15.574	145.267	210.033	92.819	261.356	241.336	75.011	184.292	189.205	170.522	0.00049216	0.00039303	5.9163e-05	1369.5	4.772e-06	6.5754e-06	1370.6	368.28	4.548e-06	4.7571e-06	420.21	140.16	122.13	42.083	3.0218e-06	51.822	0.00056228	0.00061419	0.00015655	1381.2	6.2739e-06	6.681e-06	1383.7	372.99	6.3426e-06	6.6258e-06	427.61	142.75	125.43	43.258	6.0527e-06	52.882	108.436	43.563	156.715	-9.008	153.474	24.016	-9.111	-4.327	102.960	70.949	-4.842	-0.471	0.229	4.639	32.933	3.969	-8191	255	
23122.934	1	1	0	0	0.16919	0.16792	0.13106	0.2988	0.17324	0.058692	0.16727	0.11227	0.099994	0.085271	0.22217	0.042036	0.22343	0.15178	0.15566	0.024121	-4.7229	-4.1646	-4.25	-5.0542	-3.9667	-4.7896	-4.8875	-4.2479	-4.9812	-4.3187	-4.4604	-5.1229	-4.1083	-4.6771	-4.6854	-4.0771	286.919	159.891	177.697	324.181	276.310	202.521	230.891	86.486	150.169	177.813	27.779	143.849	251.772	-8.324	42.626	240.169	0.00051487	0.00037862	9.7207e-05	1371	4.5896e-06	4.9355e-06	1362.2	367.83	9.6603e-06	5.509e-06	420.85	140.28	121.36	42.248	8.2901e-06	51.78	0.00059127	0.00059051	0.00015338	1380.5	6.5666e-06	6.4192e-06	1378.7	373.21	6.5788e-06	6.345e-06	427.22	142.8	125.42	43.241	5.8376e-06	53.011	89.022	86.125	11.032	-8.717	149.304	63.923	-8.860	-4.172	136.171	26.772	-4.856	-0.116	0.402	5.002	56.100	3.943	-8191	255	
23123.029	1	1	0	0	0.13419	0.081284	0.23202	0.19039	0.25776	0.03168	0.17762	0.12009	0.037033	0.059928	0.052265	0.069975	0.28042	0.083635	0.35923	0.14766	-4.7271	-4.3792	-4.1562	-5.1625	-4.0437	-4.6208	-5.0083	-4.25	-4.925	-4.3521	-4.1771	-5.0188	-4.0938	-4.5292	-4.8812	-4.2021	83.749	332.268	311.546	326.277	333.582	302.902	296.214	322.719	50.154	115.750	5.173	176.483	280.576	326.401	331.553	304.784	0.00026217	0.00031856	0.00013015	1369.1	4.0094e-06	1.5099e-06	1366.2	369.41	9.5256e-06	5.5467e-06	422.37	140.36	121.65	42.071	5.6485e-06	51.684	0.00060344	0.00056344	0.00014729	1383.6	6.6004e-06	6.1341e-06	1379.6	374.52	6.6251e-06	6.0667e-06	426.68	143.55	125.59	43.07	5.7226e-06	53.394	96.752	39.304	29.704	-8.488	206.364	1.537	-8.642	-3.910	118.141	76.206	-4.377	0.196	0.507	5.518	34.926	4.648	-8191	255	
23123.150	1	1	0	0	0.087892	0.066303	0.095105	0.36711	0.093211	0.11724	0.30613	0.3164	0.24002	0.097297	0.099899	0.10002	0.24158	0.10297	0.068734	0.25888	-4.6875	-4.6896	-4.1208	-5.1146	-4.0542	-4.4042	-5.1229	-4.0375	-4.8417	-4.6375	-4.2479	-5.1396	-4.4187	-4.2646	-4.9979	-4.1333	327.950	226.905	160.667	316.356	321.778	176.788	292.467	274.009	283.953	181.599	239.461	316.907	-13.873	37.611	116.175	252.096	0.00015173	0.0003751	0.00019942	1372.9	3.093e-06	4.7972e-06	1368.7	368.24	3.4888e-06	1.5968e-06	420.94	140.63	122.11	42.125	4.2963e-06	51.729	0.00059674	0.00054914	0.00014496	1389.3	6.4993e-06	6.0597e-06	1379.5	375.35	6.5159e-06	6.0693e-06	427.3	144.62	125.64	43.137	5.8743e-06	53.777	117.357	11.372	77.558	-8.173	151.246	50.973	-8.524	-3.653	34.020	4.086	-4.005	-0.181	0.602	5.153	33.545	4.536	-8191	255	
23123.244	1	1	0	0	0.10038	0.35277	0.12426	0.32254	0.19542	0.061643	0.2052	0.2722	0.14351	0.14662	0.10058	0.15864	0.050909	0.11503	0.10132	0.056526	-4.4354	-4.7792	-4.1021	-5.1625	-4.1438	-4.2708	-5.0813	-4.0729	-4.5292	-4.8458	-4.2479	-5.0271	-4.475	-4.2833	-4.9854	-4.2208	143.760	168.851	280.444	291.558	327.131	275.010	203.611	256.841	165.885	86.656	199.475	277.496	41.217	4.652	301.063	178.413	0.00027403	0.0006387	0.00013966	1383.7	1.1488e-06	8.7426e-06	1370.7	369.54	2.242e-06	4.4319e-06	422.78	140.99	122.81	42.109	7.5238e-06	52.041	0.00059928	0.00055912	0.00015333	1401.6	6.5036e-06	6.1743e-06	1390	378.29	6.5647e-06	6.1776e-06	430.48	145.8	126.36	43.262	6.5164e-06	54.313	96.923	26.225	3.618	-8.331	240.180	121.594	-8.486	-3.799	80.583	102.964	-4.067	-0.127	0.717	5.075	167.319	4.433	-8191	255	
23123.342	1	1	0	0	0.052315	0.047026	0.1836	0.21405	0.13329	0.22877	0.23754	0.26745	0.056029	0.15227	0.12006	0.17254	0.14133	0.24784	0.22614	0.12533	-4.1375	-4.7417	-3.9208	-5.0792	-4.4896	-4.1354	-5.2875	-4.3729	-4.2604	-4.8917	-4.1625	-4.9812	-4.7021	-4.1937	-5.0479	-4.4167	287.733	126.288	-10.532	322.352	16.061	78.745	271.432	326.047	245.106	49.705	247.513	267.944	33.709	299.570	-17.838	316.564	0.00029404	0.00047432	9.1223e-05	1388.4	4.5674e-06	4.4867e-06	1386.1	370.63	4.7746e-06	5.7579e-06	424.84	141.2	122.1	42.43	1.0811e-05	52.136	0.00060683	0.00057046	0.00016952	1411.7	6.6305e-06	6.2268e-06	1406.9	379.45	6.5569e-06	6.2091e-06	434.56	146.03	125.96	43.423	6.8947e-06	54.214	88.979	47.829	117.012	-8.257	145.495	109.203	-8.488	-3.762	80.101	103.926	-4.593	0.031	0.162	4.941	157.520	4.532	-8191	255	
23123.438	1	1	0	0	0.043926	0.16618	0.14095	0.35249	0.044692	0.054057	0.24662	0.27754	0.28807	0.13968	0.47772	0.1344	0.1728	0.25431	0.067142	0.073228	-4.0708	-4.8479	-3.9521	-4.9417	-4.5458	-3.8271	-5.2833	-4.4667	-4.2312	-4.8417	-4.0083	-4.5979	-4.7646	-4.0437	-4.9667	-4.3562	173.538	106.704	29.490	325.004	126.535	153.716	315.336	-17.485	324.421	19.199	299.000	33.012	283.560	297.435	203.154	304.223	0.00028223	0.00075584	0.00013933	1392.7	4.8861e-06	5.15e-06	1385.2	369.2	2.6054e-06	1.0452e-05	425.83	141.72	123.61	42.569	3.0591e-06	52.212	0.00059161	0.00055916	0.00017737	1410.5	6.3743e-06	6.1496e-06	1408.2	377.92	6.3923e-06	6.2037e-06	437.18	146.07	126.32	43.521	7.1685e-06	54.055	100.099	42.228	117.487	-8.733	89.731	102.099	-8.667	-3.880	248.826	148.445	-4.344	-0.207	0.042	4.828	137.491	4.225	-8191	255	
23123.512	1	1	0	0	0.01844	0.073949	0.35041	0.19004	0.058791	0.18053	0.40085	0.1184	0.22022	0.026641	0.1079	0.19512	0.29786	0.24092	0.12191	0.080963	-3.8833	-4.9667	-4.0312	-4.8021	-4.7312	-4.0188	-5.1146	-4.5062	-4.1687	-4.9771	-4.2896	-4.4583	-4.8292	-4.1062	-4.775	-4.4833	142.841	81.099	228.171	315.311	108.265	86.098	282.228	304.909	31.240	228.972	31.587	181.641	-4.794	233.842	194.808	50.350	0.00015015	0.00033716	0.00019528	1392.3	1.9757e-06	8.2232e-06	1385.8	370.21	5.737e-06	9.6562e-06	425.21	141.45	123.67	42.415	2.0393e-07	52.287	0.00057253	0.00057482	0.00018243	1408.5	6.2405e-06	6.4426e-06	1412.4	377.92	6.2303e-06	6.5525e-06	437.08	145.71	126.01	43.717	7.1182e-06	54.044	99.983	266.446	85.854	-8.643	278.651	97.703	-8.691	-4.034	125.748	189.108	-4.578	-0.436	0.226	5.097	1.596	4.181	-8191	255	
23123.631	1	1	0	0	0.084972	0.19832	0.13576	0.1861	0.1011	0.019696	0.17834	0.17037	0.047822	0.099316	0.086279	0.21521	0.15683	0.17252	0.046278	0.099008	-3.9188	-4.9187	-4.1833	-4.5417	-4.7792	-3.9062	-5.1479	-4.7396	-4.0021	-5.0563	-4.4125	-4.4375	-4.8917	-3.8896	-4.7208	-4.6146	33.697	176.598	108.813	305.834	201.632	133.930	310.204	270.143	102.600	133.553	69.879	293.696	204.756	207.376	-10.008	323.382	0.00049581	0.00079391	0.00032077	1395	4.7124e-06	6.7031e-06	1390.4	370.78	4.7249e-06	5.7421e-06	424.47	141.29	122.86	42.398	8.9198e-06	52.314	0.00056127	0.0006129	0.00017985	1408.6	6.0589e-06	6.8486e-06	1413.4	377.91	6.1439e-06	6.8965e-06	436.38	145.38	125.84	43.944	6.8732e-06	53.871	104.404	91.666	41.685	-8.662	197.000	130.792	-9.324	-4.395	39.577	188.539	-5.108	-0.642	0.026	4.465	113.270	3.812	-8191	255	
23123.727	1	1	0	0	0.22323	0.1747	0.19666	0.35664	0.25015	0.1822	0.032229	0.11588	0.090995	0.15553	0.18201	0.26087	0.17552	0.072889	0.14782	0.24747	-3.6979	-4.9583	-4.2333	-4.3646	-4.9417	-4.075	-4.7917	-4.8917	-3.975	-4.9458	-4.5188	-4.2604	-5.1104	-4.1625	-4.4979	-4.9208	22.018	95.816	89.817	290.766	274.294	103.083	132.519	276.509	23.891	258.337	15.325	219.983	286.403	14.771	54.643	-13.805	0.00030736	0.001172	0.00013212	1392.6	4.575e-06	3.335e-06	1390.3	370.73	7.5422e-06	3.5647e-06	425.57	141.5	123.53	42.636	1.1755e-06	52.29	0.00055733	0.00063411	0.00017136	1407.5	6.085e-06	7.0835e-06	1411.1	377.3	6.2398e-06	7.149e-06	435.8	145.23	126.66	44.205	6.7124e-06	53.867	106.581	156.061	11.116	-9.106	197.765	55.328	-9.078	-4.328	138.312	86.921	-4.748	-0.598	0.149	4.884	55.245	3.877	-8191	255	
23123.822	1	1	0	0	0.12684	0.17949	0.17056	0.29685	0.022155	0.10796	0.49734	0.27062	0.18167	0.051036	0.2245	0.18671	0.14546	0.087245	0.051528	0.16745	-3.5854	-4.9375	-4.4583	-4.1958	-5.0979	-4.1021	-4.7375	-4.9688	-4.0312	-4.8229	-4.5833	-4.1646	-4.9208	-4.2979	-4.4021	-5.0813	48.956	282.891	153.609	315.686	316.860	314.980	272.491	2.361	261.810	234.919	28.280	333.392	292.432	253.265	195.486	157.665	0.00048411	0.00026767	7.4902e-05	1392.3	5.9053e-06	1.8734e-06	1390.5	373.02	3.5221e-06	6.6506e-06	425.19	141.87	123.58	42.596	9.1703e-06	52.196	0.00059263	0.00065532	0.00016885	1409.2	6.5764e-06	7.2011e-06	1412.9	377.71	6.7043e-06	7.1678e-06	435.17	145.09	127.41	44.172	6.6374e-06	53.811	114.148	301.041	305.767	-8.958	204.745	24.286	-9.034	-4.260	135.587	133.895	-4.650	-0.622	0.211	4.701	3.577	3.828	-8191	255	
23123.943	1	1	0	0	0.097399	0.12633	0.1026	0.17631	0.10168	0.044775	0.096497	0.19003	0.11277	0.036459	0.13004	0.11023	0.12456	0.18705	0.11762	0.019552	-3.7896	-4.7312	-4.5521	-4.2	-4.8604	-4.2188	-4.5792	-5.0729	-3.85	-4.8313	-4.8479	-4.3354	-5.1042	-4.4104	-4.4563	-4.9812	197.431	-21.390	34.961	311.469	171.277	11.698	78.754	261.551	9.570	170.395	183.099	322.823	44.921	271.583	96.400	247.394	0.00025083	0.00020995	0.0002497	1390.8	6.6605e-06	1.0387e-05	1388.7	370.9	4.4684e-06	2.8872e-06	426.05	142.05	123.95	42.616	2.2362e-06	52.555	0.00062373	0.00064138	0.00016527	1407.7	6.9215e-06	6.9815e-06	1409.6	377.39	7.0461e-06	6.9233e-06	435.1	145.12	127.92	44.006	6.4059e-06	53.927	112.347	57.129	13.535	-8.947	193.152	4.350	-9.122	-4.142	115.945	73.366	-5.028	-0.432	0.003	4.598	67.475	4.053	-8191	255	
23124.039	1	1	0	0	0.11955	0.062726	0.23704	0.1514	0.064709	0.0059109	0.34943	0.27759	0.13441	0.12636	0.22353	0.30375	0.18229	0.23521	0.21401	0.11356	-3.8271	-4.6646	-4.6521	-4.3208	-4.85	-4.4375	-4.4083	-5.1438	-4.1625	-4.5896	-4.8354	-4.1792	-4.9271	-4.3646	-4.1667	-5.1562	288.097	77.318	214.132	332.297	274.177	20.502	253.208	296.247	115.751	220.014	279.814	263.740	184.358	45.743	112.755	215.719	0.00029349	0.0005945	0.0002983	1391.8	2.6526e-06	3.6756e-06	1383.2	371.39	5.3486e-06	6.2463e-06	427.7	142.12	123.74	42.665	5.2937e-06	52.371	0.00064668	0.0006199	0.00015937	1410	7.1339e-06	6.6944e-06	1407.8	378.71	7.1604e-06	6.6616e-06	433.87	145.98	128.2	43.928	6.2254e-06	54.283	82.616	-4.083	94.007	-8.771	212.057	100.460	-9.154	-4.180	107.404	136.853	-4.783	-0.782	-0.027	4.764	163.848	3.841	-8191	255	
23124.109	1	1	0	0	0.056023	0.036258	0.075662	0.28683	0.15043	0.014918	0.043944	0.21205	0.23316	0.061534	0.14674	0.14372	0.097224	0.21188	0.046448	0.18723	-3.7	-4.5208	-4.7958	-4.2208	-4.6687	-4.5146	-4.3688	-4.9458	-4.2583	-4.4354	-4.9187	-4.0167	-4.7708	-4.7333	-4.1292	-4.9771	255.142	207.823	255.196	292.861	-3.506	191.031	296.335	227.560	105.307	133.034	230.480	15.502	271.199	27.891	298.036	235.577	0.00025721	0.00057139	0.00020464	1395.9	8.6049e-06	2.0317e-06	1385.5	372.36	4.0795e-06	1.1259e-06	426.92	142.2	123.73	42.678	2.8176e-06	52.583	0.00064936	0.00060739	0.0001569	1414.3	7.0744e-06	6.5579e-06	1405.6	380.58	7.0237e-06	6.587e-06	433.84	146.68	128.06	43.879	6.1703e-06	54.607	99.334	39.459	4.387	-8.912	102.531	184.967	-9.067	-4.311	57.302	76.158	-5.230	-0.508	-0.322	4.547	138.552	3.943	-8191	255	
23124.230	1	1	0	0	0.25576	0.12807	0.088915	0.21371	0.072996	0.20085	0.29537	0.17469	0.24031	0.14266	0.19967	0.17836	0.10682	0.41817	0.12657	0.079005	-4.0542	-4.3125	-4.9417	-4.25	-4.7021	-4.8063	-4.3167	-5.0708	-4.5021	-4.1562	-5.1667	-4.2312	-4.7208	-4.9021	-3.8854	-5.0813	74.032	34.748	258.111	273.890	135.145	149.874	285.397	283.684	243.889	234.386	312.157	317.557	2.980	311.083	309.100	204.371	0.00043722	0.00065862	0.00011631	1395.3	4.894e-06	2.5566e-06	1388.4	373.48	1.3423e-06	5.0479e-06	428.05	142.09	123.66	42.744	6.2635e-06	52.634	0.00062989	0.00059139	0.00015628	1417.3	6.8692e-06	6.4221e-06	1408.9	381.64	6.7849e-06	6.4511e-06	434.48	147.17	127.78	43.785	6.4204e-06	54.791	110.355	-13.402	44.572	-9.032	56.706	233.557	-9.066	-4.386	7.736	27.435	-4.855	-0.382	0.089	4.694	170.813	3.590	-8191	255	
23124.326	1	1	0	0	0.30053	0.21271	0.18757	0.11604	0.10165	0.28344	0.14843	0.041267	0.1395	0.08863	0.20738	0.18167	0.12078	0.15653	0.33826	0.15813	-4.2271	-4.0979	-4.9833	-4.3	-4.4563	-4.7625	-4.3042	-4.9229	-4.5521	-4.1208	-5.0521	-4.2917	-4.6687	-4.975	-4.0188	-4.9958	50.312	66.668	117.299	275.486	171.801	34.961	-0.328	299.206	49.677	158.561	307.804	36.532	186.856	223.731	238.794	180.775	0.00026448	0.00066329	0.00015158	1388.1	3.9847e-06	4.7394e-06	1393.1	372.35	2.6652e-06	3.3671e-06	426.44	142.62	124.18	42.675	1.076e-05	52.787	0.0006099	0.0005763	0.0001645	1419	6.6556e-06	6.232e-06	1415.4	381.52	6.6162e-06	6.1989e-06	436.5	147.07	127.36	43.684	6.7613e-06	54.781	125.592	288.603	97.508	-8.965	170.890	23.354	-9.231	-4.213	114.361	127.425	-4.534	-0.259	0.041	4.779	177.779	4.031	-8191	255	
23124.422	1	1	0	0	0.0092495	0.28358	0.059227	0.26387	0.098624	0.21042	0.13106	0.26763	0.12198	0.2036	0.10529	0.081509	0.1347	0.27604	0.12554	0.10486	-4.1833	-4.15	-4.9833	-4.5458	-4.4333	-5.1625	-4.1417	-4.8	-4.5625	-4.0833	-5.0333	-4.3354	-4.45	-4.9146	-3.9292	-4.8958	177.543	173.894	70.151	323.111	207.449	173.448	209.216	270.422	154.225	133.829	200.220	102.228	330.223	294.875	178.836	264.454	0.00033934	0.00025706	0.00034914	1401.3	2.2166e-06	4.2373e-06	1395	372.95	3.8376e-06	3.7001e-06	425.86	142.31	124.11	42.658	1.5556e-05	52.496	0.00058861	0.00055839	0.0001734	1420	6.4685e-06	6.0622e-06	1418	381.28	6.456e-06	6.1688e-06	438.6	146.63	127.31	43.748	7.1411e-06	54.54	98.886	307.696	107.980	-9.018	45.011	66.468	-8.986	-4.221	70.921	131.927	-4.487	-0.184	0.062	4.897	154.321	4.328	-8191	255	
23124.543	1	1	0	0	0.13852	0.15001	0.088208	0.28712	0.093498	0.039352	0.32936	0.29308	0.15665	0.18482	0.22942	0.26087	0.048014	0.15597	0.080446	0.1047	-4.4042	-3.9625	-4.9167	-4.4708	-4.1625	-5.0896	-4.2146	-4.7625	-4.7063	-3.9583	-5.0417	-4.5146	-4.2604	-5.0208	-4.0292	-4.6083	304.485	302.358	-20.717	309.608	150.316	201.996	317.567	282.813	302.495	95.129	9.420	312.458	313.363	-11.348	229.580	-8.757	0.00013527	0.00050401	0.0002584	1399.3	4.2861e-06	9.2332e-06	1391.4	373.23	5.2359e-06	7.2172e-06	428.07	142.25	124.39	42.891	4.6487e-06	52.763	0.00057729	0.00056724	0.00018206	1419.4	6.334e-06	6.3002e-06	1421.3	380.87	6.304e-06	6.5047e-06	441	146.38	127.27	44.044	7.3123e-06	54.592	86.025	142.113	113.775	-8.664	55.993	66.054	-8.771	-3.877	23.145	113.839	-4.698	-0.370	-0.305	4.840	89.062	3.786	-8191	255	
23124.639	1	1	0	0	0.17094	0.10554	0.079012	0.26306	0.09336	0.1057	0.12349	0.086193	0.14839	0.25844	0.1431	0.084736	0.38905	0.101	0.13684	0.43173	-4.3833	-4.0188	-4.9542	-4.7792	-4.2854	-4.8229	-4.3292	-4.7312	-4.9021	-3.9062	-4.9146	-4.7979	-4.2	-5.0521	-4.3063	-4.4229	98.295	265.141	10.142	270.332	311.634	175.721	333.536	183.691	47.361	210.441	302.607	308.960	324.282	314.260	126.064	299.946	0.0002497	0.0010208	0.00025527	1399.3	3.947e-06	6.738e-06	1396.5	374.17	4.3825e-06	2.1261e-06	429.34	141.9	124.17	42.919	1.2284e-05	52.671	0.00057447	0.00061383	0.00018602	1420.9	6.2962e-06	6.8326e-06	1421.8	381.46	6.2148e-06	6.9517e-06	441.11	146.5	127.09	44.353	7.1565e-06	54.465	131.317	58.457	65.882	-8.730	199.734	97.036	-8.718	-4.201	187.397	135.025	-4.709	-0.375	0.134	4.841	70.806	3.864	-8191	255	
23124.734	1	1	0	0	0.13071	0.17911	0.17551	0.015617	0.24296	0.14447	0.24158	0.38222	0.13269	0.16828	0.30659	0.17635	0.2791	0.20607	0.073105	0.0145	-4.4854	-3.9771	-4.6625	-4.8458	-4.0417	-5.0042	-4.4771	-4.4417	-4.8583	-4.0271	-4.8708	-4.7792	-4.2208	-4.9604	-4.3125	-4.2375	266.638	215.093	34.491	70.688	261.003	80.588	237.172	279.399	5.699	87.961	243.347	230.941	220.792	241.024	199.779	86.688	0.00045758	0.00016131	0.00021359	1403.8	5.5944e-06	5.0921e-06	1404.7	373.85	4.9964e-06	2.5395e-06	428.57	142.65	124.17	42.728	8.4341e-06	52.669	0.00056946	0.00065221	0.00017999	1422.7	6.325e-06	7.2142e-06	1425.4	382.38	6.3195e-06	7.3657e-06	440.58	146.34	127.59	44.572	6.9991e-06	54.368	102.398	127.982	329.320	-8.776	266.222	129.676	-8.988	-4.222	27.808	4.220	-4.549	-0.422	-0.025	4.878	93.573	4.182	-8191	255	
23124.807	1	1	0	0	0.13083	0.24627	0.13021	0.22021	0.14466	0.038205	0.052955	0.098148	0.14493	0.30667	0.11094	0.083684	0.073076	0.30945	0.062279	0.0372	-4.6167	-4.0458	-4.5625	-4.9458	-4.0271	-4.8646	-4.5458	-4.2458	-4.9167	-4.1354	-4.5833	-4.9208	-4.0146	-4.9708	-4.5479	-4.2417	267.581	110.370	184.912	311.005	336.738	-18.561	300.479	289.106	142.357	-3.604	237.380	277.518	51.755	287.007	189.165	245.323	0.00049279	0.00046405	0.00021708	1406.6	3.5083e-06	2.4379e-06	1401	375.43	8.25e-06	1.1469e-05	429.47	142.19	124.68	42.831	8.7998e-06	52.815	0.00059414	0.00067272	0.00017569	1421.8	6.6255e-06	7.3995e-06	1423.2	381.65	6.7227e-06	7.4052e-06	440.24	146.29	128.34	44.585	6.8357e-06	54.226	107.657	-3.632	68.129	-8.763	122.915	303.417	-8.853	-4.299	152.463	79.245	-4.569	-0.334	0.208	4.740	122.698	4.212	-8191	255	
23124.928	1	1	0	0	0.14422	0.22989	0.11329	0.25853	0.073754	0.11365	0.30379	0.22365	0.19677	0.028552	0.057152	0.29356	0.13465	0.06061	0.058051	0.21161	-4.7146	-4.1583	-4.5417	-5.0896	-3.9333	-4.7458	-4.9521	-4.1813	-4.9729	-4.1125	-4.6083	-4.95	-4.0375	-4.7875	-4.6271	-4.2042	242.243	139.767	208.128	321.953	132.417	213.848	305.037	290.373	319.118	195.517	309.938	267.448	254.419	1.469	300.700	336.765	0.00051085	9.1837e-05	0.00017154	1408.9	8.3316e-06	8.9582e-06	1405.8	374.77	5.6546e-06	5.4105e-06	429.97	142.41	124.73	42.874	1.8593e-06	52.973	0.00063633	0.00067426	0.00017276	1422.5	7.1022e-06	7.3104e-06	1425.5	381.06	7.2373e-06	7.2718e-06	440.4	146.35	129.18	44.581	6.7482e-06	54.396	96.106	229.586	33.372	-8.856	152.859	76.795	-9.057	-4.242	112.882	166.422	-4.589	-0.333	0.171	4.602	320.738	3.915	-8191	255	
23125.023	1	1	0	0	0.022611	0.22892	0.13888	0.21311	0.25173	0.068886	0.15049	0.19699	0.050482	0.23243	0.30434	0.13313	0.21045	0.052883	0.097641	0.1704	-4.5604	-4.2833	-4.3833	-5.0917	-3.9292	-4.7708	-4.9688	-4.0813	-4.8125	-4.4812	-4.3521	-5.0667	-3.9771	-4.6312	-4.7958	-4.0542	261.063	66.644	204.148	13.421	233.310	145.200	305.045	285.107	126.621	8.721	261.272	10.524	257.246	18.810	20.790	289.353	0.00033538	0.00050923	0.00018012	1405.9	3.3305e-06	7.4906e-06	1401.3	374.73	4.3259e-06	5.9198e-06	430.06	143.68	124.37	42.957	2.7084e-06	52.659	0.00067062	0.00065624	0.00016954	1424.3	7.4118e-06	7.1096e-06	1420.4	382.01	7.4694e-06	6.9643e-06	439.18	147.05	129.35	44.416	6.3893e-06	54.469	102.663	297.809	63.083	-8.817	180.011	43.980	-8.847	-4.387	119.544	315.039	-5.010	-0.470	0.038	4.725	321.381	4.039	-8191	255	
23125.119	1	1	0	0	0.17751	0.17699	0.31249	0.04253	0.18706	0.17049	0.44817	0.10072	0.24023	0.062808	0.34242	0.19333	0.13709	0.31148	0.12027	0.20798	-4.5667	-4.4	-4.0687	-5.1167	-4.2292	-4.5917	-4.9979	-4.125	-4.8479	-4.5521	-4.2208	-5.0292	-4.2229	-4.5271	-4.8604	-3.9229	34.942	56.240	6.075	8.992	238.971	307.575	289.074	244.076	147.553	293.029	306.023	277.387	27.962	316.466	113.179	235.364	0.0004708	0.00079576	0.00010927	1408.3	5.022e-06	3.0724e-06	1405.1	373.97	1.2322e-06	6.7845e-06	430.87	142.08	125.14	42.669	7.1628e-06	52.546	0.00066503	0.00061703	0.00016079	1427.6	7.2916e-06	6.76e-06	1419.4	383.02	7.2918e-06	6.8201e-06	438.26	147.69	129.33	44.265	6.4955e-06	54.981	95.714	290.795	-20.315	-8.541	225.399	-5.134	-8.761	-3.960	230.750	80.420	-4.636	-0.197	0.136	4.752	155.471	4.234	-8191	255	
23125.215	1	1	0	0	0.26138	0.15834	0.12994	0.39555	0.078855	0.20007	0.19993	0.29413	0.12435	0.089112	0.09396	0.12097	0.18703	0.011698	0.22824	0.24099	-4.5708	-4.5396	-4.1813	-5.0563	-4.1833	-4.3271	-5.0167	-4.3438	-4.6146	-4.6167	-4.2292	-4.9583	-4.3583	-4.4458	-4.9729	-4.125	297.149	103.137	256.269	-5.458	49.449	96.294	281.988	304.740	307.399	183.371	213.258	261.523	269.975	287.842	138.071	278.434	0.00029854	0.00041119	0.0001323	1405.4	6.7896e-06	3.7477e-06	1404.5	375.19	4.8853e-06	6.1125e-06	430.68	142.92	125.56	43.048	4.6861e-06	52.935	0.00068157	0.00063476	0.00016848	1433.7	7.5113e-06	7.0217e-06	1424.6	386.78	7.4392e-06	6.9173e-06	439.86	148.7	129.41	44.312	6.5351e-06	55.271	65.920	79.671	52.078	-8.639	77.574	154.556	-8.857	-3.965	65.129	81.274	-4.592	-0.303	-0.016	4.838	146.385	4.400	-8191	255	
23125.334	1	1	0	0	0.19196	0.17069	0.060142	0.34601	0.16683	0.091778	0.2702	0.2447	0.097122	0.13806	0.18019	0.16804	0.11803	0.16737	0.1967	0.031357	-4.425	-4.6104	-3.9396	-5.1708	-4.3021	-4.2083	-5.0458	-4.0375	-4.4875	-4.7271	-4.2979	-4.75	-4.4854	-4.1667	-4.9625	-4.3083	173.594	66.683	270.994	269.843	178.516	51.732	262.019	232.415	146.760	189.554	209.576	250.960	17.051	-20.746	103.235	213.888	0.00037058	0.00075336	7.7216e-05	1410.6	6.5648e-06	7.4858e-06	1404.1	374.77	4.7596e-06	4.6097e-06	430.85	142.62	124.3	42.843	4.8855e-06	52.95	0.00063875	0.00059638	0.00016603	1437.3	6.7612e-06	6.3552e-06	1424.6	384.34	6.7008e-06	6.2393e-06	439.27	147.78	127.85	43.944	6.6901e-06	54.903	92.193	29.720	62.741	-8.732	118.789	69.070	-8.598	-4.052	86.371	323.396	-4.503	-0.159	0.557	4.902	166.387	3.851	-8191	255	
23125.406	1	1	0	0	0.15671	0.067739	0.35766	0.27098	0.20623	0.13384	0.23602	0.34384	0.13179	0.19588	0.11383	0.043256	0.18796	0.081362	0.22026	0.13381	-4.2063	-4.6833	-3.9792	-4.9625	-4.4979	-4.15	-5.1687	-4.2833	-4.3583	-4.8875	-4.0396	-4.7458	-4.5354	-4.1208	-4.9583	-4.3625	133.829	105.813	-5.847	330.466	64.837	156.979	302.246	294.289	327.464	159.058	232.628	88.393	229.805	-5.519	305.266	262.695	0.00029765	0.00013228	0.0002259	1406.9	3.8745e-06	7.2862e-06	1403.2	374.4	4.4296e-06	7.2278e-06	429.83	142.29	124.62	42.652	4.3346e-06	52.632	0.00060912	0.00057365	0.00017654	1429.9	6.7514e-06	6.4023e-06	1426.5	384.21	6.876e-06	6.4739e-06	441.9	148.02	128.5	44.065	7.4752e-06	55.053	105.777	333.461	95.515	-8.715	144.506	18.275	-8.994	-4.440	110.554	33.823	-4.744	-0.361	0.136	4.817	153.031	4.064	-8191	255	
23125.502	1	1	0	0	0.12449	0.21587	0.074684	0.2684	0.10144	0.18856	0.12692	0.15787	0.1109	0.07546	0.12672	0.24445	0.16011	0.20838	0.10778	0.1442	-3.9958	-4.8042	-3.9833	-4.7417	-4.4833	-4.1625	-5.2125	-4.4688	-4.1896	-4.8083	-4.2188	-4.8292	-4.8375	-4.1438	-4.9417	-4.3958	297.166	315.729	264.389	312.136	192.855	231.041	249.493	287.816	117.287	140.319	57.351	9.915	-17.524	39.662	187.515	-18.475	0.00027836	0.00019565	0.00025363	1403.8	1.9465e-06	5.0137e-06	1404	375.38	5.7565e-06	1.4951e-06	428.27	143.02	124.31	42.8	1.1328e-05	53.081	0.0006236	0.00059764	0.0001919	1431.2	6.7414e-06	6.6369e-06	1431.9	384.45	6.7339e-06	6.6663e-06	442.81	147.77	127.73	44.212	7.605e-06	54.876	56.444	326.720	139.675	-8.887	209.572	76.839	-8.914	-4.248	97.206	54.109	-4.513	-0.187	0.443	4.812	117.091	4.403	-8191	255	
23125.623	1	1	0	0	0.20918	0.07655	0.12768	0.17343	0.053892	0.22941	0.27299	0.16015	0.17976	0.1405	0.076931	0.24096	0.24415	0.157	0.12027	0.020685	-3.7583	-4.7875	-4.1062	-4.7021	-4.7583	-3.9042	-4.9896	-4.5437	-4.0458	-5.0208	-4.1104	-4.4958	-4.9	-3.9938	-4.6312	-4.6708	20.681	26.811	40.903	330.171	32.964	299.552	287.323	255.385	160.609	101.243	263.273	251.026	5.421	260.414	133.140	166.859	0.00021153	0.00033623	0.00018543	1403.4	5.9518e-06	6.451e-06	1402.4	374.63	3.3304e-06	9.0844e-06	428.47	142.67	124.85	42.748	7.2656e-06	52.869	0.00060616	0.00062513	0.00019493	1428.4	6.571e-06	7.0199e-06	1431.5	383.25	6.5993e-06	7.1365e-06	443.62	147.59	127.97	44.478	7.5454e-06	54.736	91.386	114.014	33.906	-8.431	168.615	113.988	-9.202	-4.150	26.779	134.954	-4.529	-0.190	0.674	5.210	74.414	4.471	-8191	255	
23125.719	1	1	0	0	0.13448	0.1386	0.20164	0.24167	0.10265	0.19117	0.22126	0.14283	0.15896	0.27967	0.19297	0.1056	0.20824	0.31196	0.086767	0.19386	-3.7104	-4.9604	-4.2417	-4.6188	-4.8688	-3.9917	-4.9042	-4.6813	-3.9646	-5.0604	-4.425	-4.4708	-5.0917	-4.1792	-4.7292	-4.6771	56.424	258.056	135.184	310.813	321.948	109.728	271.607	46.261	247.480	150.644	254.391	-21.858	290.377	289.125	329.936	-2.648	0.00021093	0.001006	0.00011352	1406.7	3.4535e-06	6.7492e-06	1404.2	374.88	3.7546e-06	7.147e-06	431.96	142.38	124.12	42.683	5.134e-06	52.7	0.0005906	0.00066163	0.00018831	1429	6.3401e-06	7.2115e-06	1429.7	382.15	6.3212e-06	7.224e-06	441.17	146.57	127.48	44.48	7.1702e-06	54.48	100.781	66.815	13.107	-8.393	148.331	114.878	-9.155	-4.441	140.982	145.530	-5.037	-0.454	0.032	4.523	330.718	4.136	-8191	255	
23125.814	1	1	0	0	0.20909	0.30526	0.11936	0.24192	0.090068	0.12851	0.11752	0.15846	0.23086	0.24871	0.26629	0.13927	0.052707	0.060392	0.14212	0.13543	-3.8333	-4.9375	-4.2937	-4.4083	-4.9083	-3.9042	-4.8	-4.75	-4.0417	-4.9187	-4.4479	-4.1604	-4.8562	-4.2167	-4.4146	-4.875	185.212	314.917	21.533	10.992	249.943	-7.189	291.020	5.883	34.315	-2.166	-12.859	-3.676	253.259	218.726	190.433	187.052	0.0003914	0.00041917	7.2801e-05	1407.4	8.183e-06	2.5437e-06	1410.9	375.04	6.3329e-06	3.3444e-06	429.98	143.19	124.69	42.976	2.2057e-06	52.985	0.00059645	0.00068624	0.00018263	1426.1	6.655e-06	7.7013e-06	1431.6	383.05	6.9316e-06	7.7774e-06	441.07	146.87	128.65	44.81	7.0928e-06	54.489	112.433	75.257	23.504	-8.944	186.266	203.194	-9.198	-4.443	157.846	167.488	-4.811	-0.430	-0.039	4.345	241.035	3.997	-8191	255	
23125.910	1	1	0	0	0.2975	0.16402	0.1769	0.18053	0.23064	0.19797	0.10263	0.082867	0.11527	0.11811	0.11071	0.15876	0.34736	0.15629	0.13111	0.19222	-3.625	-4.7333	-4.3729	-4.3875	-4.8354	-4.2125	-4.7479	-4.9854	-3.9708	-4.6417	-4.5417	-4.1312	-5.0917	-4.4229	-4.3167	-5.0062	185.698	282.067	153.642	23.306	324.947	335.641	252.071	233.896	-17.304	310.675	-18.489	23.109	45.575	109.765	144.865	258.670	0.00046325	0.00030393	0.00013371	1409.4	2.1082e-06	6.7161e-06	1407.5	374.95	1.1162e-05	6.1767e-06	429.97	142.56	124.97	42.979	1.9941e-06	52.732	0.00064098	0.00069053	0.00017724	1426.6	7.0138e-06	7.5255e-06	1429.2	381.66	7.2008e-06	7.4569e-06	440.97	146.54	129.13	44.59	6.9407e-06	54.357	123.993	-9.356	70.579	-9.051	336.608	78.976	-9.115	-4.296	170.271	73.281	-4.927	-0.525	0.563	4.738	92.676	3.942	-8191	255	
23126.008	1	1	0	0	0.09741	0.24317	0.03057	0.1811	0.25786	0.03567	0.19903	0.13329	0.29889	0.10298	0.081181	0.2478	0.20141	0.052002	0.070283	0.32621	-3.6083	-4.7542	-4.5125	-4.0792	-4.7729	-4.2542	-4.525	-5.0146	-3.9646	-4.7396	-4.9125	-4.0437	-5.1021	-4.4125	-4.2063	-5.0458	50.254	139.609	62.972	243.088	92.638	255.465	243.386	258.698	179.596	152.980	237.460	-12.159	308.556	246.436	62.413	241.033	0.00033271	0.00041755	0.00034893	1411.3	4.1949e-06	4.1892e-06	1402.7	375.26	5.7197e-06	6.6916e-06	429.88	141.97	124.97	42.812	4.0829e-06	52.724	0.00067325	0.00067405	0.00017337	1426.5	7.489e-06	7.3408e-06	1424.1	382.3	7.5277e-06	7.2964e-06	439.67	146.63	129.66	44.403	6.7572e-06	54.604	99.276	36.560	79.812	-8.932	175.448	78.869	-9.352	-4.196	95.718	6.226	-4.963	-0.294	0.319	4.615	266.256	4.027	-8191	255	
23126.104	1	1	0	0	0.065924	0.018948	0.25835	0.15731	0.093172	0.16703	0.37461	0.067716	0.068347	0.034895	0.19788	0.21871	0.11642	0.27621	0.20296	0.15896	-3.8521	-4.5021	-4.8313	-4.0938	-4.8667	-4.3854	-4.3208	-5.2021	-4.0167	-4.4833	-5.0479	-4.0062	-4.9021	-4.6625	-4.2792	-5.1333	184.085	186.706	114.090	-10.512	80.461	-8.627	241.472	167.686	104.546	233.833	19.137	260.843	263.575	61.362	226.119	318.522	0.00039481	0.00059137	4.0795e-05	1408.4	6.8373e-06	7.4038e-06	1404.3	374.36	1.0995e-06	5.3041e-06	429.99	142.79	124.65	42.847	1.7018e-05	52.559	0.00069235	0.00064846	0.00016802	1429.4	7.5265e-06	7.005e-06	1425.2	383.33	7.4774e-06	6.9533e-06	438.38	147.43	129.53	44.278	6.3932e-06	54.716	99.907	25.544	337.646	-9.034	123.015	77.592	-8.945	-4.013	334.980	181.277	-4.644	-0.653	-0.234	4.729	80.419	4.445	-8191	255	
23126.225	1	1	0	0	0.012166	0.16937	0.10853	0.087086	0.058888	0.13197	0.20694	0.16103	0.15333	0.064483	0.20923	0.0629	0.16948	0.070469	0.053516	0.037117	-3.925	-4.3625	-4.7896	-4.0542	-4.7729	-4.5813	-4.325	-5.1604	-4.2104	-4.3375	-5.1625	-4.0917	-4.7542	-4.5167	-3.9021	-5.0563	134.433	115.188	199.412	52.497	163.286	82.682	256.934	47.552	308.392	15.828	288.839	32.760	282.506	265.652	0.340	-19.289	0.00018625	0.00086987	4.0256e-05	1405.4	5.2452e-06	4.7359e-06	1399.6	374.06	5.7952e-06	4.7964e-06	429.74	143.04	123.62	42.682	6.4085e-06	52.796	0.00066166	0.00061871	0.00016057	1431.3	7.2444e-06	6.7476e-06	1420.1	383.97	7.2774e-06	6.8271e-06	437.7	148.03	128.8	44.175	6.4937e-06	55.119	112.274	49.498	128.067	-8.969	109.030	160.741	-9.039	-4.262	20.639	98.344	-4.884	-0.703	-0.379	4.140	145.766	3.546	-8191	255	
23126.318	1	1	0	0	0.042427	0.065737	0.29789	0.30549	0.058744	0.15637	0.15781	0.12468	0.23026	0.12933	0.30325	0.10184	0.20648	0.17213	0.08762	0.16768	-3.9417	-4.2583	-4.8208	-4.2646	-4.6917	-4.775	-4.2708	-4.9167	-4.2083	-3.9813	-5.0604	-4.1229	-4.5083	-4.8625	-4.0125	-4.875	299.427	18.743	-3.318	320.086	161.177	62.589	327.104	-13.067	299.289	118.457	315.026	152.048	-2.960	-13.100	154.032	284.394	0.00025605	0.00079664	0.00010686	1404.6	3.4588e-06	3.2815e-06	1397.8	374.35	3.1993e-06	2.7006e-06	429.25	141.82	124.94	42.709	1.0527e-05	52.44	0.00065643	0.00061878	0.00016683	1432.5	7.114e-06	6.6448e-06	1421	385.54	6.99e-06	6.639e-06	438.45	147.92	128.67	44.032	6.8148e-06	55.182	101.973	289.038	284.707	-9.241	198.199	136.064	-9.198	-4.550	164.225	73.805	-4.834	-0.751	-0.043	4.622	169.290	3.947	-8191	255	
23126.414	1	1	0	0	0.112	0.23895	0.16755	0.11687	0.012716	0.06872	0.20688	0.32064	0.14851	0.082404	0.1433	0.25378	0.072504	0.045205	0.1556	0.16229	-4.0333	-3.9062	-4.8417	-4.2	-4.425	-4.7042	-4.0167	-4.9333	-4.3562	-3.7854	-4.9333	-4.2	-4.4187	-4.7688	-3.8146	-4.7208	-14.950	61.476	63.966	311.690	290.064	-10.689	284.729	293.627	86.329	293.913	13.132	313.678	57.248	289.742	326.091	311.158	0.00012436	0.0008273	0.00019494	1404.6	5.492e-06	2.191e-06	1399.2	374.78	4.4433e-06	3.3701e-06	428.4	142.19	124.27	42.723	7.441e-06	52.846	0.00062852	0.00059587	0.00017539	1433.5	6.8721e-06	6.4582e-06	1423.8	384.65	6.7879e-06	6.3923e-06	440.25	147.78	128.1	43.907	7.1275e-06	54.925	70.737	-4.638	59.785	-9.141	122.581	224.078	-9.297	-4.385	208.468	88.498	-4.679	-0.375	0.197	4.520	172.052	3.906	-8191	255	
23126.512	1	1	0	0	0.34848	0.13902	0.11361	0.34997	0.24162	0.2197	0.14876	0.085432	0.10698	0.085568	0.028756	0.65301	0.18713	0.015128	0.19809	0.18352	-4.2896	-3.9917	-4.8958	-4.3729	-4.1687	-4.7708	-4.15	-4.7646	-4.6667	-3.875	-4.8292	-4.2875	-4.2979	-4.8896	-3.7958	-4.4896	85.026	296.905	-0.491	271.023	320.683	293.969	222.385	221.248	235.652	41.364	2.834	234.951	303.477	289.776	296.107	218.873	0.00041495	0.00031139	0.00019554	1405.2	2.0192e-06	5.9752e-06	1399	374.54	1.4375e-06	1.7547e-06	430.72	142.79	124.9	42.918	7.6519e-06	52.983	0.00060319	0.00057964	0.00018181	1428.4	6.5881e-06	6.2938e-06	1425.2	383.62	6.5762e-06	6.3441e-06	441.82	147.03	127.84	43.989	7.2626e-06	54.711	90.499	243.500	58.838	-8.984	33.352	144.142	-8.901	-4.087	-8.284	94.983	-4.717	-0.217	0.368	5.171	103.355	4.012	-8191	255	
23126.631	1	1	0	0	0.18937	0.19108	0.092031	0.10234	0.32517	0.11533	0.16797	0.19643	0.16108	0.20507	0.14905	0.2157	0.03941	0.12368	0.18065	0.064142	-4.3833	-3.9583	-4.7562	-4.5583	-3.9938	-4.925	-4.2229	-4.6708	-4.7104	-3.8583	-4.9271	-4.5021	-3.9667	-4.9	-3.9958	-4.4062	67.621	219.524	89.004	-11.175	23.239	306.158	298.450	295.142	49.364	8.409	-6.600	337.449	241.764	-17.636	39.389	259.530	0.00024864	0.00062031	0.00015125	1406.9	2.3423e-06	6.9447e-06	1396.4	373.59	4.3765e-06	4.2355e-06	427.73	142.37	124.12	42.916	7.9775e-06	52.881	0.00057395	0.00058433	0.00018394	1426.8	6.2925e-06	6.4212e-06	1426.3	382.04	6.2144e-06	6.5885e-06	442.05	146.58	127.24	44.159	7.2113e-06	54.644	89.466	90.746	58.427	-8.731	174.196	172.162	-9.050	-4.313	108.981	49.679	-4.746	-0.307	0.133	4.767	123.691	3.957	-8191	255	
23126.703	1	1	0	0	0.20007	0.23672	0.050475	0.20352	0.26669	0.074582	0.18915	0.17016	0.26137	0.098047	0.34745	0.17146	0.065499	0.11438	0.16868	0.34534	-4.475	-3.9208	-4.7771	-4.6292	-4.0458	-4.8083	-4.3021	-4.4125	-4.6729	-3.8833	-4.7958	-4.6021	-4.1937	-5.1917	-4.1042	-4.2708	213.229	237.666	171.075	286.599	198.584	74.723	241.785	278.958	174.939	9.936	300.922	-9.021	80.398	331.773	63.962	262.744	0.0003571	0.00062766	0.00034891	1404.2	5.0704e-06	6.5683e-06	1400.4	373.18	4.0915e-06	5.1126e-06	429.48	142.23	123.33	42.816	2.1689e-06	52.615	0.00055894	0.00061902	0.00018098	1424	6.1316e-06	6.812e-06	1425.1	381.35	6.0771e-06	6.9694e-06	440.7	146.25	126.87	44.298	6.9316e-06	54.34	89.381	101.589	60.713	-8.664	95.593	161.154	-8.804	-4.195	182.115	149.707	-4.592	-0.247	0.171	4.959	293.389	3.894	-8191	255	
23126.799	1	1	0	0	0.0084443	0.086803	0.13013	0.26303	0.10114	0.33532	0.22363	0.050832	0.35064	0.096459	0.17275	0.20505	0.0666	0.23289	0.084724	0.17266	-4.55	-3.9167	-4.575	-4.8292	-4.0437	-4.7854	-4.4042	-4.2729	-4.8438	-4.0229	-4.6458	-4.7729	-4.0979	-4.9646	-4.3792	-4.2375	226.301	-14.468	128.115	311.877	184.698	326.314	228.133	134.355	283.463	125.577	235.969	254.849	32.095	337.366	329.954	3.541	0.00043742	0.00050159	0.00024818	1408.1	5.5912e-06	4.4833e-07	1404.4	374.04	2.7716e-06	6.3691e-06	427.93	142.76	124.34	42.803	7.5728e-06	52.773	0.00056097	0.00064526	0.00017364	1421	6.2326e-06	7.142e-06	1422.8	380.64	6.2475e-06	7.1504e-06	438.59	145.9	127.32	44.389	6.6748e-06	54.217	96.737	71.341	-5.890	-8.915	184.085	-0.372	-9.064	-4.197	192.630	20.938	-4.842	-0.089	0.252	4.778	97.301	3.810	-8191	255	
23126.895	1	1	0	0	0.10911	0.18539	0.21908	0.1366	0.10182	0.17168	0.2013	0.37007	0.11206	0.071233	0.23663	0.056158	0.11959	0.089001	0.18391	0.16757	-4.7229	-4.1312	-4.5396	-4.9646	-3.9188	-4.7646	-4.6708	-4.3417	-4.7688	-4.0312	-4.4812	-4.9417	-3.9562	-4.7937	-4.3854	-4.0104	155.994	19.211	298.606	280.477	274.681	162.145	258.799	271.791	248.334	125.556	257.368	197.517	295.545	283.977	188.547	246.608	0.00033204	0.00062911	9.8046e-05	1402.4	6.6841e-06	8.9026e-06	1403.6	374.98	3.5673e-06	6.0175e-06	431.14	142.47	124.42	42.836	9.0242e-06	52.899	0.00058327	0.00065346	0.00016807	1419	6.512e-06	7.1314e-06	1420.1	380.27	6.6567e-06	7.1304e-06	438.97	145.52	127.91	44.397	6.5526e-06	54.199	115.707	101.906	26.658	-8.583	215.657	108.809	-9.011	-4.139	127.992	153.079	-4.942	-0.458	0.154	4.855	167.609	3.906	-8191	255	
23126.990	1	1	0	0	0.17964	0.046329	0.11397	0.14631	0.19136	0.090301	0.21368	0.24144	0.12601	0.16956	0.13419	0.24189	0.015675	0.39303	0.2318	0.071182	-4.4521	-4.2104	-4.1937	-5.1354	-4.1146	-4.7542	-4.8833	-4.1813	-4.8333	-4.0146	-4.2625	-4.8917	-4.1521	-4.8125	-4.7104	-4.0563	80.517	229.321	180.604	289.586	142.986	261.047	267.049	303.345	165.682	109.644	169.488	314.832	323.005	264.529	160.892	285.754	0.00048651	0.00025216	4.5217e-05	1405.1	4.8301e-06	4.4754e-06	1403.8	375.83	8.1307e-07	2.7513e-06	429.58	142.26	124.74	43.092	2.5265e-06	52.57	0.00062123	0.00064176	0.00016467	1419.2	6.9457e-06	6.9688e-06	1419.1	380.71	6.9864e-06	6.8916e-06	437.69	145.71	128.83	44.27	6.3495e-06	54.219	92.550	18.636	44.935	-8.952	168.239	279.805	-8.901	-4.241	71.139	56.699	-4.877	-0.441	0.207	4.774	281.446	4.177	-8191	255	
23127.111	1	1	0	0	0.15968	0.062666	0.036346	0.35154	0.088713	0.081052	0.098378	0.20618	0.1243	0.17295	0.034291	0.27888	0.20347	0.17747	0.1025	0.14224	-4.5729	-4.3417	-4.2375	-5.1792	-4.0229	-4.5625	-5.0521	-4.1562	-4.7958	-4.4646	-4.2312	-5.1542	-4.2042	-4.5271	-4.7375	-4.1542	285.089	40.607	235.037	281.837	205.328	155.131	256.370	329.350	234.753	331.351	127.743	-14.563	299.362	13.574	167.281	150.119	0.00035385	0.0002337	0.00019911	1401.6	5.4718e-06	1.0452e-05	1397.9	375.07	6.4756e-06	5.6666e-06	430.16	142.67	123.76	42.84	1.5077e-05	52.756	0.00064355	0.00061766	0.00016044	1419.6	7.1559e-06	6.7084e-06	1416.6	381.64	7.1896e-06	6.6669e-06	436.75	146.46	128.69	44.134	6.2011e-06	54.491	84.674	7.876	23.670	-8.787	135.845	45.980	-9.057	-4.364	118.931	102.138	-4.925	-0.270	0.033	4.826	110.689	4.085	-8191	255	
23127.207	1	1	0	0	0.056963	0.12335	0.093502	0.23614	0.17892	0.21394	0.12821	0.20977	0.16416	0.13649	0.13372	0.19326	0.13584	0.20575	0.18496	0.17501	-4.675	-4.425	-4.0062	-4.9833	-4.1146	-4.3125	-5.0708	-4.1021	-4.6917	-4.4583	-4.1125	-4.9187	-4.3104	-4.3021	-4.8604	-3.9958	315.548	315.443	136.910	326.387	73.508	272.155	28.312	-8.809	44.502	37.098	275.987	38.687	275.734	271.294	124.516	260.991	0.00042095	0.0005521	0.00039806	1401.6	4.731e-06	3.6294e-06	1398	374.56	5.5278e-06	7.3139e-06	428.03	141.7	123.84	42.713	6.2678e-06	52.438	0.00065245	0.00060457	0.0001583	1423.6	7.1205e-06	6.5803e-06	1414.1	382.14	7.0569e-06	6.5458e-06	435.49	147.07	128.37	43.984	6.1373e-06	54.688	98.783	-9.382	40.215	-8.656	139.117	171.266	-8.714	-4.341	118.155	58.891	-4.564	-0.311	-0.327	4.672	324.540	4.203	-8191	255	
23127.305	1	1	0	0	0.12748	0.086156	0.10786	0.22111	0.075602	0.052088	0.25186	0.2923	0.19036	0.11489	0.12557	0.27798	0.076744	0.31289	0.13181	0.24019	-4.3812	-4.6188	-4.0292	-5.0083	-4.2417	-4.3313	-5.1583	-4.0833	-4.5188	-4.7479	-4.0375	-4.9208	-4.2833	-4.2271	-4.8438	-4.0292	197.826	39.439	284.198	302.631	183.683	183.220	286.376	318.786	203.672	162.814	246.648	311.034	45.911	323.111	101.324	48.330	0.00039284	0.00068	0.000107	1405.9	7.8158e-06	2.3851e-06	1397.9	374.78	8.859e-06	3.9665e-06	427.72	142.46	123.69	42.717	1.1118e-05	52.758	0.00062965	0.00058713	0.00015807	1427.7	6.8436e-06	6.4229e-06	1414.7	383.68	6.8288e-06	6.3608e-06	436.83	147.52	127.76	43.904	6.4076e-06	54.819	103.066	44.548	322.181	-8.845	34.364	141.108	-8.793	-4.194	102.156	121.489	-4.775	-0.354	0.020	4.834	154.100	4.085	-8191	255	
23127.400	1	1	0	0	0.17589	0.17659	0.30059	0.22861	0.11177	0.24481	0.26697	0.28648	0.095225	0.36342	0.19342	0.16312	0.051688	0.27117	0.24957	0.28465	-4.2604	-4.5729	-3.8521	-5.0271	-4.3042	-4.0417	-5.0354	-4.1896	-4.4146	-4.8333	-4.0292	-4.9271	-4.6188	-4.2146	-4.8604	-4.2438	142.987	299.706	298.233	260.213	233.720	148.474	268.573	261.249	260.735	139.406	-1.265	-6.651	336.216	-8.572	147.161	-4.908	0.00043077	0.00071591	0.00023171	1402.5	6.0741e-06	3.6762e-06	1401	373.99	2.8955e-06	6.8236e-06	429.98	142.3	123.99	42.832	9.3327e-06	52.902	0.00061018	0.00056894	0.0001657	1427.4	6.607e-06	6.2442e-06	1418.3	383.4	6.621e-06	6.166e-06	438.64	147.42	127.55	43.839	6.7351e-06	54.862	99.023	-20.217	166.448	-8.748	142.326	82.431	-8.784	-4.191	201.055	-4.209	-4.785	-0.406	0.271	4.915	153.926	4.269	-8191	255	
23127.494	1	1	0	0	0.20239	0.30092	0.15902	0.30761	0.191	0.083811	0.11237	0.21703	0.1796	0.19179	0.17713	0.037303	0.16722	0.16019	0.11768	0.067628	-4.0458	-4.8896	-4.1917	-4.8625	-4.5188	-4.025	-5.15	-4.1833	-4.2354	-4.7958	-4.1104	-4.5625	-4.5917	-4.2125	-4.8646	-4.3083	32.069	34.168	230.165	331.082	288.168	98.210	-7.803	269.902	240.969	-8.599	304.886	103.079	206.502	275.274	149.753	75.255	0.00030413	0.00066617	0.0001188	1402.3	5.5867e-06	5.768e-06	1399.5	372.94	1.8953e-06	5.4022e-06	427.78	143.1	124.06	42.807	1.1395e-05	52.456	0.00059475	0.00055785	0.00017537	1424.8	6.4619e-06	6.1861e-06	1421.6	382.18	6.4692e-06	6.1708e-06	440.33	147.16	127.32	43.936	7.1238e-06	54.486	89.500	-0.326	64.947	-8.702	79.904	148.429	-8.947	-4.181	40.652	131.092	-4.373	-0.488	0.341	4.874	202.639	4.051	-8191	255	
23127.592	1	1	0	0	0.10344	0.10076	0.14648	0.2402	0.19931	0.081172	0.21027	0.20758	0.21497	0.0062067	0.084423	0.40478	0.10226	0.067922	0.10382	0.032575	-3.8312	-4.8021	-3.9771	-4.8	-4.6792	-3.9958	-5.1667	-4.45	-4.1062	-4.875	-4.2188	-4.5708	-4.7312	-3.9208	-4.7958	-4.4333	205.165	136.045	55.383	220.438	147.518	209.422	275.296	248.977	236.665	260.014	317.477	334.832	238.656	165.620	83.260	127.926	8.0536e-05	0.00076039	0.00020257	1406.1	3.0223e-06	2.9032e-06	1401.3	374.71	1.3442e-06	1.0709e-05	426.01	142.26	124.47	42.822	1.392e-06	52.697	0.00057795	0.00057229	0.00018424	1424.2	6.286e-06	6.3611e-06	1424	382.36	6.2681e-06	6.4125e-06	440.79	146.67	127.17	44.071	7.2594e-06	54.424	83.241	89.861	148.370	-8.749	128.533	54.810	-8.663	-4.066	207.100	157.469	-4.787	-0.292	0.415	4.383	9.755	4.305	-8191	255	
23127.713	1	1	0	0	0.22814	0.099597	0.055478	0.25444	0.31449	0.065378	0.073635	0.16582	0.21628	0.047378	0.14899	0.23384	0.32971	0.038373	0.26067	0.045208	-3.7896	-4.8938	-4.1146	-4.5854	-4.7271	-3.8604	-4.9313	-4.5333	-4.1083	-4.9563	-4.2688	-4.4833	-4.975	-3.9917	-4.625	-4.5938	125.361	-5.757	46.043	331.325	1.304	30.798	66.596	257.482	6.730	272.096	305.491	272.549	280.615	337.217	224.155	229.811	0.00030164	0.00068558	0.00026286	1405.4	6.9285e-06	6.5319e-06	1398.8	373.78	9.7321e-06	8.5598e-06	429.23	142.46	124.65	42.901	2.7434e-07	52.549	0.00056957	0.00060643	0.00018424	1423.4	6.2192e-06	6.8461e-06	1422.9	381.69	6.2535e-06	6.9368e-06	441.45	146.55	127.35	44.371	7.0877e-06	54.284	79.248	122.526	21.236	-8.619	182.496	162.210	-8.638	-3.825	155.579	199.721	-4.549	-0.313	0.470	5.139	337.830	4.023	-8191	255	
23127.809	1	1	0	0	0.26589	0.16559	0.083614	0.19818	0.20695	0.074976	0.27788	0.18958	0.069557	0.19105	0.17702	0.16467	0.067934	0.13544	0.18285	0.12329	-3.6458	-4.9667	-4.2375	-4.4187	-4.8333	-3.7792	-4.7917	-4.7562	-3.9188	-4.8417	-4.4062	-4.225	-4.9437	-4.0583	-4.3979	-4.8625	196.808	290.939	68.104	325.780	165.310	193.085	252.871	207.306	13.262	160.245	42.421	317.635	337.838	265.274	278.727	58.805	0.00040697	0.00088099	0.00015847	1400.9	2.8339e-06	8.4328e-06	1398.2	373.38	4.5735e-06	6.8955e-06	431.43	142.77	124.43	42.979	4.6021e-06	52.678	0.0005683	0.00065319	0.00018005	1420.2	6.2652e-06	7.219e-06	1423.8	381.33	6.3334e-06	7.3069e-06	440.78	146.44	127.52	44.536	6.9252e-06	54.271	88.550	67.578	23.071	-8.698	99.488	69.465	-8.774	-4.107	157.321	157.482	-4.942	-0.785	-0.121	4.721	22.317	3.683	-8191	255	
23127.904	1	1	0	0	0.18932	0.078235	0.23231	0.37153	0.16043	0.13513	0.17451	0.21817	0.19333	0.19953	0.16572	0.085668	0.057581	0.15172	0.028426	0.14775	-3.6813	-4.7604	-4.3708	-4.2229	-4.7354	-4.0479	-4.6833	-4.9313	-3.9437	-4.8938	-4.4938	-4.1229	-4.9021	-4.2479	-4.2937	-4.9458	327.119	95.415	302.827	314.886	229.172	3.092	-1.045	311.926	70.525	107.771	86.188	238.688	273.783	192.318	298.839	277.404	0.00044942	0.00049418	0.00017772	1411.7	3.3611e-06	1.0299e-05	1398.8	372.83	3.6521e-06	7.6052e-06	430.45	142.08	124.72	42.797	3.3693e-06	52.645	0.00059112	0.00067122	0.00017332	1423.3	6.5802e-06	7.3103e-06	1423.5	380.68	6.6788e-06	7.3575e-06	439.85	145.98	128.25	44.448	6.7223e-06	54.079	99.570	3.524	12.772	-8.866	147.451	58.159	-9.016	-4.106	222.890	15.671	-4.686	-0.771	0.508	4.618	59.508	3.819	-8191	255	
23128.000	1	1	0	0	0.10993	0.32924	0.10304	0.25032	0.12544	0.20998	0.16585	0.13642	0.15942	0.25553	0.18221	0.094356	0.13674	0.044458	0.20386	0.1902	-3.7208	-4.9208	-4.5167	-4.3	-4.9979	-4.1354	-4.6146	-5.1896	-4.0021	-4.7937	-4.6062	-4.2292	-5.0687	-4.1521	-4.2063	-4.9292	208.914	304.703	-7.709	306.499	59.741	129.624	309.765	325.409	60.968	246.879	13.799	44.246	317.294	235.198	30.698	240.850	0.00037636	0.0001942	0.00019378	1409.5	6.3616e-06	4.7081e-06	1405	374.58	6.3276e-06	6.4474e-06	428.68	142.26	124.17	42.724	5.709e-06	52.739	0.00062233	0.00065626	0.00016752	1421.2	6.9206e-06	7.1097e-06	1421.2	380.74	7.0527e-06	7.0707e-06	438.14	145.76	128.57	44.264	6.5084e-06	54.12	127.546	137.684	16.533	-8.956	167.854	-3.084	-9.027	-4.096	164.954	97.112	-4.490	-0.127	0.363	4.536	39.994	3.573	-8191	255	
23128.096	1	1	0	0	0.12604	0.07817	0.22636	0.31689	0.17658	0.16425	0.24478	0.27546	0.041787	0.12074	0.26148	0.040317	0.0088941	0.048254	0.086842	0.28717	-3.6354	-4.575	-4.5813	-4.2063	-4.8271	-4.3063	-4.3854	-4.9625	-3.9125	-4.5896	-4.8958	-4.1125	-5.0646	-4.4563	-3.9271	-5.1604	165.196	303.180	247.875	294.414	137.971	208.682	241.203	276.125	285.968	329.963	291.430	282.177	238.427	37.790	-11.461	181.096	0.0004058	0.00044136	0.00016513	1406.6	5.1558e-06	6.5278e-06	1404.4	374.61	4.1053e-06	8.4698e-06	429.6	142.67	124.73	42.785	6.5034e-06	52.69	0.00065177	0.00062885	0.00016206	1421	7.1523e-06	6.7987e-06	1420.3	381.35	7.2319e-06	6.7991e-06	437.49	146.51	128.88	44.138	6.296e-06	54.391	96.940	274.554	1.207	-9.153	188.038	47.894	-9.419	-4.651	141.830	64.149	-4.869	-0.756	-0.045	4.570	18.679	3.831	-8191	255	
23128.191	1	1	0	0	0.33684	0.18023	0.18355	0.107	0.22207	0.22986	0.28798	0.32492	0.036755	0.18827	0.14231	0.18265	0.098148	0.24293	0.25443	0.12746	-3.8146	-4.5104	-4.7312	-4.0646	-4.7521	-4.3562	-4.3521	-5.1042	-4.0458	-4.4792	-4.9	-4.0521	-4.6083	-4.6104	-3.9354	-5.0667	2.473	8.676	-17.628	304.421	196.695	286.953	302.404	307.485	41.357	88.629	270.763	-1.604	-5.333	10.207	45.684	329.289	0.00011505	0.00073575	0.00012777	1401.8	2.6513e-06	5.1918e-06	1397.6	375.01	6.9884e-06	9.6537e-06	429.3	142.37	124.68	43.01	8.1924e-06	52.6	0.00065252	0.00060859	0.00015722	1423	7.1405e-06	6.623e-06	1416	382.06	7.0771e-06	6.5725e-06	436.16	147.16	128.66	44.057	6.1689e-06	54.67	87.754	-5.205	40.405	-8.944	115.469	116.991	-9.099	-4.459	59.897	28.568	-4.771	-0.344	-0.015	4.501	99.151	3.940	-8191	255	
23128.311	1	1	0	0	0.014027	0.2316	0.23842	0.15486	0.10151	0.13709	0.44184	0.21928	0.10823	0.17932	0.07132	0.18948	0.4002	0.29885	0.16894	0.10978	-3.8917	-4.2229	-4.9042	-4.0854	-4.6333	-4.7375	-4.3542	-4.9875	-4.2396	-4.2167	-5.0229	-4.0417	-4.8125	-4.7167	-4.0312	-4.9521	225.060	-12.021	210.609	257.524	110.464	176.681	305.103	279.210	222.586	-19.859	311.295	273.817	10.795	138.881	12.981	113.641	0.00022226	0.00078686	0.00016361	1401.9	2.6349e-06	1.1294e-05	1399.6	374.14	1.2725e-06	8.85e-06	428.63	142.38	124.73	42.807	3.6648e-06	52.745	0.00063765	0.0005974	0.00015538	1426.2	6.8693e-06	6.4185e-06	1417.5	383.13	6.8514e-06	6.3733e-06	436.58	147.47	128.27	43.986	6.2521e-06	54.86	121.557	54.787	97.250	-9.033	105.582	75.450	-9.117	-4.317	317.911	37.435	-4.509	-0.723	0.162	4.606	149.405	4.065	-8191	255	
23128.408	1	1	0	0	0.04417	0.073701	0.1966	0.21479	0.06788	0.075068	0.19964	0.20976	0.10862	0.15609	0.22131	0.23565	0.1607	0.19375	0.16038	0.16023	-4.1125	-3.9583	-4.9354	-4.0167	-4.4646	-4.6458	-4.2812	-4.9083	-4.4146	-4.1458	-5.0729	-4.1375	-4.4396	-4.8	-3.9	-4.9688	314.374	-5.785	229.970	1.308	95.311	-0.126	275.688	210.297	-0.213	333.549	-8.752	311.495	-17.828	7.486	110.805	123.072	0.00024913	0.0011073	0.00015683	1408.6	3.9816e-06	5.1193e-06	1398.1	374.04	6.1746e-06	5.4577e-06	429.18	142.39	124.06	43.019	9.0761e-06	52.933	0.00061143	0.00057493	0.00016035	1430	6.6541e-06	6.1794e-06	1420.4	383.82	6.5637e-06	6.1718e-06	438.46	147.4	127.81	43.811	6.5479e-06	54.77	91.255	-9.844	201.717	-8.880	57.427	144.412	-9.158	-4.368	126.426	75.663	-4.944	-0.553	0.457	4.890	160.985	3.976	-8191	255	
23128.504	1	1	0	0	0.10389	0.068419	0.090434	0.12259	0.12111	0.13093	0.29086	0.31207	0.15368	0.13154	0.2649	0.062818	0.18475	0.093105	0.29409	0.13788	-4.125	-4.1062	-4.8917	-4.5021	-4.3646	-4.9354	-4.3042	-4.9062	-4.5896	-4.0333	-5.1458	-4.3333	-4.4542	-4.9083	-4	-4.7875	46.167	307.726	229.560	-7.009	27.088	57.257	295.165	324.621	131.880	97.684	271.349	-21.113	211.408	327.405	63.772	276.151	0.00021152	0.00037302	8.5542e-05	1409.5	3.464e-06	9.1739e-06	1398.4	374.47	4.9174e-06	8.0585e-06	430.1	142.21	123.55	42.918	1.3661e-05	52.756	0.00058625	0.00055633	0.0001684	1429.4	6.402e-06	6.0032e-06	1423.4	383.24	6.3591e-06	6.0183e-06	439.89	146.84	127.26	43.858	6.9211e-06	54.645	66.555	4.357	88.688	-8.821	124.277	109.143	-8.796	-4.102	94.103	64.913	-4.429	-0.233	0.112	5.085	174.571	4.071	-8191	255	
23128.574	1	1	0	0	0.085495	0.17919	0.18128	0.39042	0.2315	0.049298	0.089172	0.053033	0.19475	0.10137	0.1402	0.21388	0.23856	0.21818	0.11016	0.081437	-4.2917	-4.0479	-4.9604	-4.5646	-4.2917	-4.8313	-4.1208	-4.6854	-4.5146	-4.0458	-5.0229	-4.4417	-4.1521	-5.025	-4.1521	-4.6396	144.004	183.853	227.120	326.319	8.578	203.180	302.727	22.330	288.132	74.112	259.808	10.526	-16.717	-4.000	173.033	221.022	0.00018101	0.00033869	0.00020172	1406.3	7.1996e-06	5.564e-06	1399.2	374.36	3.2824e-06	8.4185e-06	428.47	142.34	123.79	42.767	2.5276e-06	52.561	0.00056848	0.00055162	0.0001774	1425.8	6.2244e-06	6.0916e-06	1425.2	382.09	6.1809e-06	6.2347e-06	441.02	146.44	127.07	43.844	7.0712e-06	54.423	96.808	32.551	125.333	-8.659	76.844	95.468	-8.724	-3.879	133.105	157.688	-5.125	-0.586	0.164	4.815	42.584	3.870	-8191	255	
23128.695	1	1	0	0	0.17699	0.21686	0.07106	0.23372	0.19052	0.18259	0.30181	0.16478	0.10014	0.25398	0.20465	0.35371	0.095331	0.11107	0.21132	0.15175	-4.3271	-4.0104	-4.8562	-4.7083	-4.2708	-4.9646	-4.375	-4.5958	-4.8146	-3.8792	-4.95	-4.4563	-4.3083	-5.0083	-4.1521	-4.4292	274.154	151.032	15.950	301.218	229.737	102.942	237.372	251.143	17.655	179.775	288.818	5.330	328.402	139.169	-20.247	269.217	0.00027347	0.00076219	2.7146e-05	1408.2	2.4713e-06	5.8379e-06	1400.2	373.79	4.1129e-06	4.3094e-06	429.51	142.78	124.06	42.857	1.3718e-05	52.642	0.00055486	0.00058009	0.00017937	1423	6.0446e-06	6.3968e-06	1424.9	381.71	5.9676e-06	6.5384e-06	440.37	146.07	126.67	44.103	6.8841e-06	54.266	87.267	43.694	323.813	-8.838	87.077	125.086	-9.063	-4.229	33.500	106.954	-4.801	-0.335	0.244	4.644	28.440	3.734	-8191	255	
23128.793	1	1	0	0	0.16383	0.16109	0.13726	0.36921	0.090008	0.085886	0.27235	0.27448	0.24353	0.14054	0.018439	0.25018	0.1219	0.25338	0.147	0.24147	-4.4917	-3.8521	-4.6833	-4.9292	-3.9625	-4.975	-4.5792	-4.4938	-4.8271	-4.05	-4.8667	-4.6583	-3.9625	-4.9729	-4.3167	-4.3271	18.362	164.806	61.765	-9.312	330.735	79.210	296.309	236.488	169.621	165.740	159.410	19.835	80.894	310.049	251.858	235.358	0.00031844	0.0010754	0.00011549	1406.2	5.963e-06	1.421e-06	1400.5	374.29	1.3998e-06	3.2706e-06	429.79	142.58	124.43	42.935	1.1659e-05	52.653	0.00054178	0.00060967	0.00017297	1420.2	5.9637e-06	6.7308e-06	1422.2	380.81	5.9048e-06	6.8265e-06	438.92	145.85	126.68	44.24	6.5798e-06	54.042	95.178	61.404	33.332	-8.998	105.743	170.099	-9.157	-4.312	81.878	167.610	-4.659	-0.564	0.038	4.623	79.625	4.079	-8191	255	
23128.889	1	1	0	0	0.074259	0.11394	0.1581	0.1192	0.057172	0.228	0.12486	0.14564	0.069947	0.33349	0.010195	0.027037	0.014214	0.33432	0.12167	0.10164	-4.5958	-3.9521	-4.4458	-4.9375	-4.0083	-4.9875	-4.5708	-4.2812	-4.8646	-4.0542	-4.5563	-4.8208	-4.0938	-5.0083	-4.4167	-4.1771	298.767	322.061	118.278	244.967	263.865	-22.005	293.422	274.424	247.292	89.786	18.402	161.980	-10.475	290.671	245.344	61.298	0.00034951	0.00028856	8.4663e-05	1408.5	4.2383e-06	3.3843e-06	1396.4	375.04	2.2869e-06	5.1101e-06	428.88	142.71	124.67	42.846	1.24e-05	52.605	0.00054992	0.00063025	0.00016654	1420.6	6.0605e-06	6.9607e-06	1417.8	379.96	6.1842e-06	6.923e-06	437.62	145.21	127.27	44.225	6.3725e-06	53.936	124.817	23.831	36.085	-8.843	165.846	56.180	-9.037	-4.300	135.376	100.926	-4.652	-0.265	0.026	4.826	58.103	4.031	-8191	255	
23128.984	1	1	0	0	0.082405	0.17402	0.075813	0.19426	0.1731	0.13572	0.31115	0.15225	0.23206	0.12049	0.21791	0.2285	0.23994	0.22106	0.081258	0.366	-4.5188	-4.1958	-4.475	-5.0375	-4.0542	-4.7479	-4.6854	-4.2229	-4.9875	-4.1708	-4.5125	-4.9229	-4.0479	-4.7688	-4.6667	-4.0917	247.482	71.279	213.226	254.154	285.513	62.469	36.820	252.193	117.651	142.673	253.837	331.506	337.694	318.291	236.486	248.919	0.00046396	0.00064254	0.00013107	1409.5	4.8861e-06	3.2424e-06	1405.2	374.64	6.4696e-06	6.856e-06	428.74	143.16	124.49	42.76	1.3109e-05	52.447	0.00057937	0.00062638	0.000161	1420	6.4511e-06	6.7882e-06	1417.2	379.22	6.5263e-06	6.7431e-06	436.46	145.49	127.96	44.161	6.2008e-06	53.832	108.037	321.544	5.683	-8.616	135.899	330.487	-8.954	-4.246	159.272	109.310	-4.430	-0.206	0.605	5.108	73.937	4.133	-8191	255	
23129.104	1	1	0	0	0.20785	0.29494	0.058213	0.3219	0.13787	0.3525	0.080446	0.24086	0.01741	0.089625	0.23322	0.072402	0.14284	0.16438	0.085196	0.12623	-4.6542	-4.2	-4.2458	-4.8958	-3.9104	-4.5208	-4.7229	-3.9625	-4.8875	-4.2708	-4.4125	-4.8562	-3.8854	-4.6542	-4.7188	-3.9875	275.282	44.969	33.653	328.058	249.097	77.866	336.390	299.851	185.843	236.572	237.066	262.770	-5.789	315.029	142.126	-3.914	0.00033189	0.00067365	0.00028191	1402.7	9.5498e-06	5.5399e-06	1398.2	374.36	5.0559e-06	8.7455e-06	428.2	142.9	124.09	42.739	1.2009e-05	52.761	0.00060872	0.00060399	0.00015664	1416.5	6.7266e-06	6.4978e-06	1412.9	379.35	6.7912e-06	6.4909e-06	435.43	145.53	128.13	43.968	6.0108e-06	54.048	102.428	53.258	69.254	-8.995	193.798	312.811	-9.187	-4.336	171.980	67.025	-4.649	-0.600	0.024	4.788	85.954	3.964	-8191	255	
23129.178	1	1	0	0	0.040206	0.028769	0.1759	0.30814	0.14637	0.034388	0.24969	0.14303	0.088067	0.043379	0.18354	0.12457	0.26731	0.14681	0.12543	0.19546	-4.5792	-4.3958	-4.2104	-5.2083	-4.0292	-4.4917	-5.0958	-4.0563	-4.7688	-4.3958	-4.0604	-4.9833	-3.9792	-4.4646	-4.8625	-3.9875	85.565	17.525	110.311	276.935	279.095	191.850	254.533	292.210	320.831	87.023	83.354	245.380	328.659	0.581	38.130	205.758	0.00034308	0.00099803	0.00015467	1402.2	3.7818e-06	2.798e-06	1399.6	373.08	2.073e-06	1.5896e-06	427.58	142.2	124.39	42.674	4.0561e-06	52.571	0.00062078	0.00057393	0.00015182	1418.3	6.7806e-06	6.3366e-06	1412.5	379.99	6.7825e-06	6.3161e-06	434.32	146.22	127.86	43.883	5.8769e-06	54.254	92.466	74.905	38.205	-8.936	188.698	40.393	-8.984	-4.143	177.280	62.981	-4.803	-0.271	0.325	4.566	125.757	3.929	-8191	255	
23129.273	1	1	0	0	0.14635	0.28298	0.083761	0.3339	0.21301	0.11238	0.24108	0.35535	0.10884	0.16949	0.23345	0.16861	0.064153	0.1187	0.14649	0.24332	-4.3271	-4.525	-4.0875	-5.1604	-4.2333	-4.2771	-5.0563	-4.0854	-4.675	-4.6542	-4.1375	-4.9354	-4.425	-4.3417	-4.8271	-4.1	129.987	174.760	40.933	271.425	115.437	233.932	278.893	268.083	-20.454	103.136	278.567	300.980	245.834	233.535	2.269	258.739	0.00021471	0.00061001	0.00019578	1400.4	5.2482e-06	9.2942e-06	1404.3	375.08	4.5644e-06	5.84e-06	427.57	142.44	124.01	42.825	8.5072e-06	52.621	0.00061079	0.00056827	0.00015015	1420.8	6.687e-06	6.2056e-06	1412.6	382.11	6.5794e-06	6.167e-06	434.09	146.61	127.57	43.815	5.9548e-06	54.476	105.611	8.469	25.161	-8.800	32.960	74.737	-8.944	-4.135	168.947	126.101	-4.741	-0.426	0.121	4.741	194.318	3.962	-8191	255	
23129.393	1	1	0	0	0.1256	0.24648	0.096712	0.28279	0.14367	0.16402	0.030892	0.19869	0.24052	0.18224	0.080538	0.11364	0.34837	0.00091883	0.084433	0.007045	-4.1333	-4.5542	-4.0333	-4.9771	-4.0958	-4.1813	-5.1646	-4.1729	-4.425	-4.7333	-4.0083	-4.9208	-4.4437	-4.1062	-4.8	-4.175	28.151	0.309	314.605	283.286	218.418	84.987	250.200	258.878	180.477	170.698	219.627	318.220	304.396	180.000	301.726	22.020	0.00022734	0.00029406	0.00014705	1401.3	2.1195e-06	5.1381e-06	1399.7	374.41	5.2617e-06	7.8211e-06	429.18	141.97	124.25	42.692	1.1085e-05	52.64	0.00058913	0.00055351	0.00015187	1422.1	6.4192e-06	6.0256e-06	1413.9	382.22	6.3947e-06	5.9948e-06	436.77	146.71	127.22	43.675	6.3212e-06	54.602	109.936	312.866	131.890	-8.880	45.189	90.189	-8.948	-4.390	208.121	68.943	-5.207	-0.735	-0.152	4.227	131.575	3.603	-8191	255	
23129.488	1	1	0	0	0.029132	0.23395	0.14931	0.41682	0.13687	0.19792	0.16755	0.1809	0.10848	0.17073	0.10213	0.26473	0.18667	0.083228	0.079255	0.11904	-4.1354	-4.7875	-3.9146	-4.9729	-4.3354	-3.9854	-5.1875	-4.3063	-4.6312	-4.7979	-3.9188	-4.7562	-4.7104	-4.1583	-4.8292	-4.1062	95.819	75.960	-18.086	-18.172	129.527	19.876	238.303	296.650	9.040	213.098	191.462	328.574	268.064	323.734	-10.070	254.204	0.00033595	0.00074315	6.8218e-05	1404.5	3.5252e-06	4.3643e-06	1401.2	375.61	3.6487e-06	3.6188e-06	429.5	141.96	124.13	42.801	9.8477e-06	52.419	0.00057757	0.0005404	0.00016245	1425.8	6.3182e-06	5.9233e-06	1418.7	382.89	6.3529e-06	5.8967e-06	438.69	146.92	127.22	43.755	6.7736e-06	54.415	64.382	40.168	58.428	-9.124	166.801	288.285	-9.274	-4.818	85.456	100.844	-5.099	-0.766	-0.079	4.259	154.897	3.468	-8191	255	
23129.584	1	1	0	0	0.098435	0.22758	0.059308	0.23395	0.10265	0.12432	0.19538	0.13682	0.183	0.072073	0.099148	0.23916	0.16306	0.15919	0.28968	0.16218	-3.925	-4.7771	-3.9813	-5.0354	-4.6208	-4.0729	-5.1458	-4.3417	-4.1646	-4.9167	-4.0125	-4.7146	-4.7479	-4.1875	-4.7542	-4.3521	206.740	119.838	213.881	333.997	14.545	185.972	-8.917	286.284	281.451	207.116	243.902	311.110	-17.984	74.128	46.719	335.762	0.00026309	0.00050148	0.00011055	1406.2	3.5597e-06	1.96e-06	1402.1	373.23	2.1058e-06	3.4081e-06	427.72	142.77	123.81	42.788	8.8183e-06	52.627	0.00057536	0.00055252	0.00017645	1424.8	6.2663e-06	6.1456e-06	1424.1	381.92	6.2848e-06	6.1238e-06	440.26	146.6	127.1	43.778	7.1248e-06	54.37	98.524	26.520	8.990	-8.995	174.889	78.654	-9.029	-4.544	85.679	116.594	-4.827	-0.560	0.078	4.460	81.510	4.099	-8191	255	
23129.705	1	1	0	0	0.081991	0.12261	0.22008	0.35329	0.23402	0.04682	0.16379	0.18809	0.14035	0.087996	0.091158	0.17116	0.053586	0.054648	0.04673	0.16235	-3.7917	-4.95	-3.9813	-4.6708	-4.7646	-3.8896	-5.0979	-4.3688	-4.0104	-4.6646	-4.1896	-4.6021	-4.8875	-4.0312	-4.6625	-4.4688	105.794	214.113	-14.303	7.531	130.531	332.545	254.741	287.444	219.190	44.593	289.167	237.099	-2.404	58.875	54.372	335.457	0.00037824	0.00051738	4.2125e-05	1403.6	3.8986e-06	6.1803e-06	1400.9	372.93	5.2787e-06	1.0401e-05	430.5	142.04	123.89	42.528	8.3278e-06	52.577	0.00057044	0.0005753	0.0001816	1424.5	6.1849e-06	6.4865e-06	1426.7	381.19	6.2269e-06	6.5973e-06	441.8	146.58	126.77	44.077	7.1906e-06	54.467	84.238	68.898	225.350	-9.233	92.664	156.174	-9.089	-4.535	60.767	141.449	-5.208	-0.640	-0.127	4.458	40.962	3.591	-8191	255	
23129.801	1	1	0	0	0.29372	0.11694	0.18303	0.28068	0.10987	0.20431	0.053526	0.082709	0.15332	0.13917	0.21716	0.3526	0.15503	0.18833	0.19761	0.090568	-3.7833	-4.9396	-4.0333	-4.5875	-4.9979	-4.0167	-4.8854	-4.6271	-3.9833	-5.0229	-4.3417	-4.4187	-4.9021	-4.0479	-4.4896	-4.7937	15.775	7.693	217.045	289.940	33.390	275.506	300.051	300.392	241.885	87.074	290.608	307.860	12.270	335.030	37.135	187.935	0.0004029	0.00025599	0.00015607	1409.7	3.7298e-06	5.8203e-06	1404.1	373.66	1.747e-06	9.2358e-07	430.01	142.25	124.09	42.938	7.1678e-06	52.638	0.00056288	0.00062603	0.00018054	1426.1	6.15e-06	6.9871e-06	1426.5	381.42	6.2176e-06	7.0508e-06	440.87	146.57	127.14	44.479	7.0354e-06	54.334	78.677	60.098	66.736	-9.215	-1.029	104.887	-9.459	-4.555	126.955	298.867	-4.794	-0.736	0.150	4.578	52.001	3.936	-8191	255	
23129.871	1	1	0	0	0.13165	0.051452	0.19773	0.23	0.1371	0.1285	0.029073	0.22168	0.22632	0.049601	0.096574	0.22139	0.082614	0.16033	0.053586	0.10074	-3.7229	-4.8667	-4.2229	-4.3146	-4.8583	-3.9562	-4.7167	-4.7583	-3.9917	-4.8	-4.4625	-4.4396	-5.0646	-4.0771	-4.3083	-4.9708	88.728	283.759	206.964	252.454	234.491	161.359	308.649	267.914	224.895	76.512	53.986	248.648	50.162	-4.537	-12.602	220.431	0.00037544	0.00064009	7.9472e-05	1413.6	5.3614e-06	5.7218e-06	1401	374.68	5.7671e-06	7.0481e-06	427.39	143.16	124.48	43.001	2.8768e-06	52.652	0.0005766	0.00066199	0.00017658	1426.8	6.286e-06	7.2706e-06	1426.1	381.39	6.4e-06	7.2539e-06	439.02	146.32	127.93	44.55	6.7896e-06	54.196	95.946	150.519	108.124	-8.797	224.376	81.458	-8.831	-3.987	161.222	87.427	-4.514	-0.145	0.340	4.869	0.954	4.409	-8191	255	
23129.969	1	1	0	0	0.053471	0.1032	0.13776	0.23441	0.1237	0.12931	0.36011	0.33104	0.14308	0.21165	0.019179	0.16555	0.072586	0.061728	0.051921	0.15205	-3.6729	-4.7958	-4.2792	-4.1542	-4.9917	-3.8917	-4.6521	-4.8792	-3.9083	-4.6896	-4.5854	-4.2042	-4.8771	-4.2479	-4.4021	-4.9542	249.213	189.320	52.329	-21.844	111.925	119.854	275.428	235.680	-8.984	69.553	174.963	278.177	156.182	259.724	39.562	19.685	0.00044446	0.00079994	0.00016055	1408.2	7.8006e-06	4.0518e-06	1403.5	374.78	9.042e-06	5.1129e-06	430.04	142.84	123.83	42.804	2.9026e-06	52.88	0.00060798	0.00067068	0.00017254	1425.2	6.7827e-06	7.3386e-06	1424.5	381.25	6.9074e-06	7.3111e-06	439.66	146.4	128.48	44.463	6.7657e-06	54.217	111.643	16.022	334.382	-9.348	178.228	130.937	-8.964	-4.252	172.357	38.010	-4.516	-0.527	0.705	5.154	269.128	4.147	-8191	255	
23130.090	1	1	0	0	0.18472	0.027429	0.12063	0.11158	0.05357	0.19937	0.31882	0.036852	0.21418	0.076962	0.16466	0.24474	0.43861	0.10784	0.098108	0.12621	-3.6792	-4.8208	-4.475	-4.0813	-4.9812	-4.1708	-4.4625	-5.0271	-3.9667	-4.5083	-4.8125	-4.1375	-5.0375	-4.3604	-4.2521	-5.0208	50.707	93.658	116.049	289.247	18.677	161.932	295.261	286.692	154.293	88.928	264.624	334.840	310.258	322.886	185.356	309.479	0.00049107	0.000362	0.00022495	1409	1.232e-05	5.5531e-06	1410.2	373.64	2.8506e-06	1.2014e-05	428.71	142.4	124.48	42.855	1.309e-05	52.374	0.00064733	0.00065933	0.00016891	1424	7.1987e-06	7.1711e-06	1424.7	381.01	7.3232e-06	7.1215e-06	439.1	146.52	129.36	44.34	6.6525e-06	54.302	94.342	-15.538	56.666	-8.608	139.931	35.064	-8.737	-3.811	75.364	9.847	-4.314	-0.039	0.575	4.923	40.945	3.654	-8191	255	
23130.186	1	1	0	0	0.23224	0.29681	0.24165	0.30172	0.041764	0.023841	0.13816	0.2103	0.059264	0.29755	0.10471	0.14438	0.1026	0.15222	0.094804	0.15155	-3.7125	-4.5667	-4.7188	-4.2271	-4.8604	-4.3729	-4.3292	-5.0813	-3.9396	-4.5563	-4.9125	-4.1583	-4.8812	-4.5667	-4.1062	-5.0458	314.673	326.434	302.432	313.320	2.789	184.453	210.759	319.353	82.799	111.876	189.257	288.944	-3.881	258.432	196.584	334.895	0.00027952	0.00051887	0.00013408	1407.5	5.9556e-06	3.4428e-06	1399.5	374.04	2.3645e-06	2.3335e-06	430.85	142.5	124.29	42.633	9.7805e-06	52.513	0.00068139	0.00064328	0.00016744	1430.3	7.483e-06	7.0056e-06	1424.1	382.41	7.4956e-06	7.015e-06	438.58	146.96	129.59	44.343	6.5429e-06	54.857	97.686	273.777	70.502	-9.541	110.798	90.799	-9.787	-4.967	213.276	247.601	-5.444	-1.267	-0.403	4.258	89.050	3.578	-8191	255	
23130.279	1	1	0	0	0.014478	0.088282	0.11224	0.11767	0.04724	0.012059	0.17581	0.11285	0.060082	0.21671	0.21931	0.1712	0.19479	0.10437	0.072669	0.16613	-3.8667	-4.3562	-4.7708	-4.1312	-4.6021	-4.4125	-4.1646	-5.1917	-4.2833	-4.3104	-4.8146	-4.0062	-4.75	-4.7146	-3.9958	-4.9771	293.179	110.825	111.240	-17.846	325.372	209.945	287.847	2.608	166.035	324.694	276.454	66.891	300.734	308.241	225.251	100.508	0.00019884	0.0006249	6.5082e-05	1411.3	4.8915e-06	6.2933e-06	1407.3	373.83	3.7613e-06	9.529e-06	428.11	142.24	124.15	42.887	2.8405e-06	52.791	0.00068458	0.00064083	0.00016675	1435.1	7.5398e-06	6.9797e-06	1425.7	384.51	7.4611e-06	6.9169e-06	437.79	148.08	129.12	44.284	6.5981e-06	55.237	82.705	27.587	-10.339	-9.518	162.354	112.227	-9.615	-4.634	139.338	115.587	-5.441	-1.239	-0.468	3.847	101.383	3.241	-8191	255	
23130.377	1	1	0	0	0.17002	0.10185	0.33586	0.40165	0.11548	0.12672	0.32796	0.40143	0.10477	0.10149	0.1794	0.23839	0.13161	0.073831	0.11108	0.17792	-3.8917	-4.2937	-4.8792	-4.1354	-4.5479	-4.7604	-4.1792	-5.0396	-4.2188	-4.1333	-4.9083	-4.1604	-4.4833	-4.8542	-3.9521	-4.9958	88.697	82.574	16.039	308.403	173.371	313.753	280.325	293.042	137.295	25.747	286.450	334.586	94.869	297.526	280.796	-12.203	0.00057102	0.00065891	0.00017889	1413.9	1.0486e-05	5.4871e-06	1403.3	374.49	7.9274e-06	5.9638e-06	430.01	142.32	124.07	42.587	3.6069e-06	52.896	0.00066401	0.00062955	0.00016716	1439.5	7.2095e-06	6.7843e-06	1426.3	385.74	7.2456e-06	6.7637e-06	440.48	148.44	128.86	44.139	6.924e-06	55.326	88.259	44.158	55.288	-9.474	131.099	26.129	-9.720	-4.828	85.633	177.042	-5.193	-0.867	-0.272	4.309	150.297	3.404	-8191	255	
23130.473	1	1	0	0	0.14615	0.12635	0.10255	0.1112	0.11106	0.095389	0.18479	0.15204	0.16128	0.11403	0.15604	0.26904	0.089622	0.30667	0.063151	0.18405	-4.0437	-4.1708	-5.0417	-4.3729	-4.3938	-4.65	-4.1	-4.7979	-4.3958	-4.0792	-4.9125	-4.2438	-4.4167	-4.7937	-3.6437	-4.7812	138.951	132.776	262.191	257.177	152.264	122.613	282.292	252.423	78.582	158.728	35.699	1.757	193.824	14.536	198.012	296.166	0.00024106	0.0008925	8.3805e-05	1413.1	1.5944e-06	1.5508e-06	1403.9	374.79	7.7263e-06	8.5501e-06	430.01	142.54	124.35	42.885	1.2311e-05	52.777	0.00065068	0.00061779	0.00017966	1441	7.267e-06	6.7754e-06	1433.4	386.33	7.2592e-06	6.8302e-06	443.35	148.86	129.02	44.317	7.6364e-06	55.526	92.566	2.341	44.888	-9.488	76.322	34.407	-9.521	-4.779	141.434	58.492	-4.890	-0.567	-0.541	4.324	152.258	3.466	-8191	255	
23130.568	1	1	0	0	0.14213	0.076804	0.14328	0.39307	0.14014	0.1726	0.11459	0.24073	0.21469	0.059272	0.098336	0.018586	0.15273	0.094526	0.36331	0.40914	-4.2521	-3.9771	-5.0271	-4.3208	-4.2792	-4.7917	-4.0813	-4.8875	-4.6604	-3.9208	-4.9667	-4.2104	-4.2833	-4.9333	-4.0563	-4.9	88.786	243.007	13.169	279.243	102.546	30.607	273.153	301.720	297.612	324.718	14.471	149.064	241.451	24.301	291.812	302.012	0.0002035	0.00066574	0.00026431	1404.3	2.7899e-06	3.5081e-06	1402.5	375.15	2.1554e-06	3.5049e-06	429.38	142.61	124.65	42.746	6.629e-06	52.716	0.00065781	0.00062718	0.00019612	1439.6	7.2307e-06	6.8742e-06	1437.7	386.3	7.1978e-06	6.9302e-06	445.85	148.45	128.89	44.317	7.9985e-06	55.232	153.142	1.753	244.296	-9.288	62.001	-6.177	-9.458	-4.581	101.445	202.368	-5.338	-0.907	-0.556	4.241	168.914	3.297	-8191	255	
23130.664	1	1	0	0	0.19745	0.11906	0.10633	0.042712	0.26199	0.030109	0.24431	0.22579	0.18818	0.1471	0.12589	0.1583	0.043647	0.060612	0.10469	0.14807	-4.5354	-4.0125	-4.9396	-4.5083	-4.3271	-4.7479	-4.2458	-4.7312	-4.6146	-3.8792	-4.9354	-4.4125	-4.1479	-5.0542	-4.0229	-4.4167	-6.671	47.403	297.832	80.008	71.261	117.815	294.353	285.301	108.072	144.961	227.653	296.724	100.028	183.679	36.125	324.330	0.00037853	0.00034408	0.00025944	1412.9	7.0849e-06	9.0059e-06	1406.1	375.24	8.0643e-06	1.0067e-05	430.99	142.41	124.7	42.921	2.0796e-06	52.657	0.00064283	0.00064989	0.00020478	1440.1	6.9989e-06	7.1219e-06	1441.2	385.52	6.9772e-06	7.2474e-06	447.06	148.2	128.65	44.567	8.022e-06	55.06	100.543	54.709	95.158	-9.451	64.598	149.598	-9.490	-4.875	17.809	192.191	-5.090	-0.828	-0.655	4.460	202.801	3.323	-8191	255	
23130.785	1	1	0	0	0.23957	0.12132	0.1051	0.26469	0.11747	0.096843	0.17468	0.10345	0.15251	0.0554	0.1088	0.072707	0.10243	0.16559	0.08422	0.15158	-4.4292	-3.9333	-4.7063	-4.7	-3.9458	-4.9083	-4.4167	-4.4958	-4.7771	-3.9042	-4.8896	-4.4979	-4.1854	-5.0771	-4.0646	-4.3	108.839	138.531	177.514	308.662	140.634	-3.545	225.482	84.531	-7.851	88.599	223.349	252.305	203.250	326.424	-22.466	278.981	0.00027385	0.00091131	0.00021457	1411.9	6.6113e-06	8.0521e-06	1404.6	373.86	4.9022e-06	6.4989e-06	429.36	142.82	124.08	42.828	5.1678e-06	52.627	0.00061756	0.00067839	0.00020224	1437	6.7811e-06	7.5144e-06	1437.1	384.32	6.7516e-06	7.634e-06	444.64	147.8	128.17	44.735	7.7201e-06	54.802	82.383	131.896	73.020	-9.066	65.010	104.416	-9.301	-4.728	115.831	106.644	-5.228	-1.220	-0.762	4.133	56.709	3.500	-8191	255	
23130.881	1	1	0	0	0.12788	0.06116	0.27496	0.30969	0.13227	0.087962	0.086222	0.27172	0.074427	0.13966	0.13535	0.28571	0.042228	0.1238	0.21772	0.060275	-4.6208	-4.0792	-4.5563	-4.8104	-3.9979	-4.9229	-4.3208	-4.3063	-4.8208	-3.9104	-4.6583	-4.6854	-3.95	-5.0146	-4.1854	-4.2	60.160	28.610	183.376	315.441	26.686	236.834	310.039	238.461	71.860	158.835	303.404	250.454	309.014	311.272	137.885	207.027	0.00041172	0.0010264	0.00013928	1408.5	7.2356e-06	7.8087e-06	1406.3	376.19	4.7906e-06	5.4259e-06	430.22	142.04	124.37	42.827	7.8743e-06	53.099	0.00061906	0.00071262	0.00019398	1434.1	6.8822e-06	7.876e-06	1435.1	383.9	6.8719e-06	7.9055e-06	443.22	147.09	128.54	44.849	7.3712e-06	54.776	109.564	122.691	-4.117	-9.088	181.158	125.449	-9.396	-4.732	103.999	100.663	-5.513	-1.007	-0.382	4.336	162.540	3.630	-8191	255	
23130.977	1	1	0	0	0.074881	0.17552	0.13687	0.13609	0.14692	0.068555	0.28264	0.20001	0.28456	0.1092	0.014825	0.10351	0.071899	0.12085	0.070006	0.15353	-4.5396	-4.0563	-4.4708	-4.8292	-3.7938	-4.8438	-4.5979	-4.2833	-4.8708	-3.925	-4.6208	-4.7583	-4.0104	-4.8125	-4.3729	-4.2208	162.676	321.643	51.751	208.807	177.641	-4.648	213.438	-12.700	34.584	279.005	57.006	241.952	336.121	-11.627	181.846	216.645	0.00045931	0.00072045	9.6783e-05	1411.3	9.674e-06	1.1397e-06	1408.2	374.07	5.5945e-06	5.3643e-06	429.44	141.38	124.36	42.812	1.565e-05	52.605	0.00063764	0.00072107	0.00018618	1432.1	7.0835e-06	7.832e-06	1433	382.3	7.1026e-06	7.7476e-06	441.52	146.35	128.94	44.66	7.0755e-06	54.462	103.695	131.595	39.634	-9.236	211.119	328.162	-9.414	-4.717	213.911	148.390	-5.246	-0.905	-0.119	4.463	124.912	3.690	-8191	255	
23131.074	1	1	0	0	0.18872	0.15748	0.1791	0.12301	0.053083	0.1898	0.28504	0.11889	0.090293	0.1401	0.052792	0.20828	0.067642	0.29597	0.065686	0.097088	-4.6813	-4.1271	-4.2667	-5.1146	-3.8312	-4.7854	-4.7937	-4.1125	-4.8146	-4.0854	-4.3333	-4.9604	-4.075	-4.6125	-4.5604	-4.1333	185.522	134.798	80.342	314.098	141.413	245.932	301.567	292.268	265.710	129.252	28.600	214.758	238.731	254.103	245.306	21.407	0.0003064	0.00027098	0.00013655	1409.4	5.8036e-06	2.65e-06	1405.5	373.93	5.3514e-06	4.1059e-06	428.28	142.73	124.24	42.924	9.394e-06	52.579	0.0006649	0.0006888	0.00017757	1428.9	7.4086e-06	7.5392e-06	1429.6	381.68	7.503e-06	7.534e-06	440.38	146.6	129.47	44.562	6.8707e-06	54.46	115.886	322.182	15.110	-9.347	205.523	55.737	-9.206	-4.569	137.477	60.762	-5.068	-0.610	-0.207	4.369	155.999	3.488	-8191	255	
23131.170	1	1	0	0	0.13987	0.073768	0.20971	0.31035	0.15058	0.069141	0.43276	0.16765	0.093887	0.087398	0.056956	0.29317	0.12137	0.071085	0.14585	0.24922	-4.5271	-4.1438	-4.1771	-5.0062	-4.0125	-4.4938	-4.8396	-4.1833	-4.7542	-4.3896	-4.1375	-5.0563	-4.1729	-4.4125	-4.7583	-4.075	189.469	180.852	46.621	-19.463	214.508	235.917	274.918	239.886	268.778	18.943	26.619	241.950	248.753	-6.937	261.006	287.471	0.00032016	0.00016108	0.0002049	1407.6	3.3895e-06	6.2614e-06	1407	373.03	2.8237e-06	2.8405e-06	427.88	142.5	123.33	42.732	6.0134e-06	52.722	0.00069627	0.00067079	0.00017485	1428.6	7.651e-06	7.3317e-06	1426.8	382.37	7.7546e-06	7.2274e-06	438.49	147.16	129.41	44.325	6.7179e-06	54.758	97.321	-6.528	43.318	-9.056	192.071	46.142	-9.059	-4.608	163.565	85.591	-4.913	-0.642	-0.291	4.718	62.221	3.373	-8191	255	
23131.266	1	1	0	0	0.068308	0.10996	0.178	0.29512	0.10998	0.13954	0.14638	0.1386	0.094286	0.21814	0.21183	0.17506	0.20356	0.26177	0.050899	0.10407	-4.4375	-4.4292	-4.1104	-5.0646	-4.1208	-4.3604	-5.0271	-4.1979	-4.8271	-4.6104	-4.2354	-5.0938	-4.2937	-4.3562	-4.8875	-4.0396	187.907	310.184	-7.619	300.990	209.046	197.611	281.350	54.979	48.155	184.476	-13.822	323.183	105.967	4.266	100.085	333.865	0.00025799	0.00071131	0.000163	1409.3	7.3017e-06	4.69e-06	1407	372.51	3.4089e-06	1.0361e-05	428.07	142.54	124.21	42.849	2.45e-06	52.301	0.00070205	0.00065048	0.00017091	1435	7.6478e-06	7.1161e-06	1424.5	383.81	7.6302e-06	7.0905e-06	438.13	147.73	129.19	44.298	6.6616e-06	55.041	120.468	13.846	-6.935	-9.071	119.107	-1.154	-9.092	-4.400	-9.252	70.372	-5.193	-0.730	-0.505	4.140	11.075	3.379	-8191	255	
23131.385	1	1	0	0	0.023657	0.13304	0.091224	0.091792	0.15899	0.10691	0.31457	0.1427	0.052262	0.19848	0.21847	0.23275	0.065725	0.31369	0.060527	0.15601	-4.3042	-4.5833	-4.025	-5.05	-4.1667	-4.1813	-5.0062	-4.075	-4.5271	-4.5771	-4.0229	-4.9167	-4.4958	-4.0333	-4.7937	-4.0188	242.394	34.122	78.537	246.499	-14.551	139.042	244.456	320.105	334.724	85.825	304.338	286.469	-0.703	311.050	204.431	221.538	0.00031903	0.00069845	0.00026751	1411.7	5.3727e-06	5.8097e-06	1404.7	374.39	3.1781e-06	3.0367e-06	425.54	142.48	124.17	42.82	8.0486e-06	52.635	0.00068434	0.00063636	0.00017069	1439.1	7.4027e-06	7.0103e-06	1426.9	385.14	7.4069e-06	6.8989e-06	438.24	148.6	128.82	44.171	6.8573e-06	55.242	76.228	-7.405	141.702	-9.194	55.999	68.971	-9.223	-4.378	148.010	13.884	-4.833	-0.383	0.136	4.454	110.127	3.968	-8191	255	
23131.480	1	1	0	0	0.34665	0.27668	0.053043	0.20868	0.17128	0.14684	0.18719	0.064548	0.23306	0.18963	0.10435	0.21217	0.22142	0.1476	0.22247	0.35607	-4.1625	-4.6854	-4.0375	-4.9167	-4.3063	-4.1146	-5.0854	-4.0729	-4.4604	-4.8208	-4.1375	-5.0021	-4.4854	-4.2542	-5.0083	-4.1667	316.111	166.360	189.851	-5.113	302.715	301.893	328.482	31.075	137.705	160.207	71.831	292.891	117.899	-17.433	103.172	274.999	0.00026467	0.00051992	0.00018877	1410.1	2.6833e-06	4.1374e-06	1409.1	374.46	4.7643e-06	5.0597e-06	427.78	141.98	124.5	42.766	1.1543e-05	52.603	0.00066172	0.00062443	0.00017735	1441	7.2385e-06	6.9136e-06	1431.5	385.46	7.2703e-06	6.8227e-06	441.82	148.57	128.68	44.152	7.4085e-06	55.298	54.529	303.295	197.706	-8.665	23.348	311.414	-8.954	-4.380	53.923	97.127	-4.665	-0.483	0.203	4.709	145.070	4.221	-8191	255	
23131.576	1	1	0	0	0.13363	0.0578	0.2013	0.077031	0.062963	0.26009	0.38137	0.19659	0.08454	0.10134	0.057824	0.28643	0.18574	0.18383	0.13912	0.12653	-4.1896	-4.7458	-4.0333	-4.8771	-4.4	-4.0625	-5.0687	-4.3521	-4.3417	-4.8187	-4.1687	-4.6625	-4.7375	-4.0687	-4.8	-4.3292	276.304	197.343	121.522	9.034	240.227	100.565	251.004	296.373	198.767	324.415	182.276	285.359	91.737	277.459	249.984	322.973	0.00019187	0.00050782	0.00041207	1412.5	2.3732e-06	5.7747e-06	1405.9	373.19	5.0788e-06	4.0485e-06	428.42	142.66	123.68	42.498	1.0039e-05	52.624	0.00064778	0.00061091	0.000191	1441.1	7.0236e-06	6.7419e-06	1435.2	384.19	7.0797e-06	6.6329e-06	442.41	148.15	128.21	43.968	7.6987e-06	54.982	44.826	207.260	50.917	-8.646	189.285	111.369	-8.656	-3.921	-18.508	-1.597	-4.674	-0.294	0.033	4.900	130.335	4.221	-8191	255	
23131.674	1	1	0	0	0.10081	0.06269	0.11845	0.070972	0.32678	0.35405	0.080311	0.04232	0.031294	0.15923	0.060954	0.13059	0.19794	0.20655	0.27035	0.085843	-3.8187	-4.7958	-3.9146	-4.6125	-4.6417	-3.8896	-5.1	-4.4563	-4.0625	-4.9187	-4.1979	-4.4917	-4.8229	-3.9604	-4.7042	-4.5479	292.379	37.905	170.937	71.935	261.453	193.499	268.652	276.028	-3.974	21.163	155.103	313.817	267.550	318.281	255.316	176.801	0.00028297	0.00029331	5.1467e-05	1407.3	2.2237e-06	1.8891e-06	1405.8	373.63	4.3507e-06	8.2009e-06	427.84	141.71	123.88	42.829	1.3514e-05	52.485	0.00063331	0.00061761	0.00019685	1435.7	6.8793e-06	6.8064e-06	1435.6	383.54	6.8386e-06	6.9169e-06	443.42	147.48	127.8	44.32	7.76e-06	54.707	102.148	2.516	217.847	-9.107	88.071	206.700	-9.113	-4.427	86.643	212.504	-4.980	-0.609	-0.300	4.658	169.643	3.721	-8191	255	
23131.770	1	1	0	0	0.092001	0.12328	0.057021	0.35226	0.085796	0.095577	0.27601	0.11841	0.072017	0.27008	0.20417	0.3455	0.11682	0.18256	0.12764	0.1671	-3.9208	-4.9167	-4.1021	-4.7396	-4.8208	-3.8812	-4.9125	-4.5396	-4.0687	-4.7833	-4.2354	-4.3938	-4.9125	-4.0875	-4.6875	-4.575	337.426	45.336	180.228	291.295	173.292	255.780	283.166	315.263	47.371	177.716	324.267	291.408	274.585	41.069	315.533	279.421	0.00045618	0.00079847	0.00028434	1408.5	2.9475e-06	5.1451e-06	1403.4	371.59	4.8253e-06	1.096e-05	428.04	142.43	124.1	42.789	1.6015e-05	52.723	0.00060885	0.00064953	0.00019749	1435.2	6.6382e-06	7.2676e-06	1434.9	382.76	6.6611e-06	7.3892e-06	443.29	147.18	127.66	44.519	7.692e-06	54.746	97.364	59.117	328.873	-9.139	263.268	130.760	-9.221	-4.276	84.880	142.578	-4.632	-0.529	0.156	4.762	86.873	4.018	-8191	255	
#DATA ENDS
