BOXY.EXE: ISS Imagent and Oximeter Data Acquisition Program Version 0.80
Ascii Record File

#ACQ INFORMATION
2  Detector Channels 
16  External MUX Channels 
1  Auxiliary Channels 
5000  Waveform (CCF) Frequency (Hz)
1  Waveforms Skipped 
30  Waveforms Averaged 
1  Cycles Averaged 
16  Acquisitions per Waveform 
10.0806  Updata Rate (Hz) 

#FILE INFORMATION
TRUE -- External MUX Channel results are PARSED.
FALSE -- AC DC and Phase are NOT grouped.
TRUE -- Companion Program Settings File CREATED.
FALSE -- AC data not excluded
FALSE -- DC data not excluded
FALSE -- Phase data not excluded
FALSE -- Auxillary Chn. data not excluded
Tab delimiters

#CALIBRATION STATE
TRUE -- Waveform Calibration Values APPLIED.


#AUX CALIBRATION VALUES
Val Type	aux-1	

Term	1.0000e+00	
Factor	0.0000e+00	


#WF CALIBRATION VALUES
A = Detector Channel
Val Type	A-AC1	A-AC2	A-AC3	A-AC4	A-AC5	A-AC6	A-AC7	A-AC8	A-AC9	A-AC10	A-AC11	A-AC12	A-AC13	A-AC14	A-AC15	A-AC16	A-DC1	A-DC2	A-DC3	A-DC4	A-DC5	A-DC6	A-DC7	A-DC8	A-DC9	A-DC10	A-DC11	A-DC12	A-DC13	A-DC14	A-DC15	A-DC16	A-Ph1	A-Ph2	A-Ph3	A-Ph4	A-Ph5	A-Ph6	A-Ph7	A-Ph8	A-Ph9	A-Ph10	A-Ph11	A-Ph12	A-Ph13	A-Ph14	A-Ph15	A-Ph16	

Term	0.00000e+00	0.00000e+00	0.00000e+00	0.00000e+00	0.00000e+00	0.00000e+00	0.00000e+00	0.00000e+00	0.00000e+00	0.00000e+00	0.00000e+00	0.00000e+00	0.00000e+00	0.00000e+00	0.00000e+00	0.00000e+00	0.00000e+00	0.00000e+00	0.00000e+00	0.00000e+00	0.00000e+00	0.00000e+00	0.00000e+00	0.00000e+00	0.00000e+00	0.00000e+00	0.00000e+00	0.00000e+00	0.00000e+00	0.00000e+00	0.00000e+00	0.00000e+00	0.00000e+00	0.00000e+00	0.00000e+00	0.00000e+00	0.00000e+00	0.00000e+00	0.00000e+00	0.00000e+00	0.00000e+00	0.00000e+00	0.00000e+00	0.00000e+00	0.00000e+00	0.00000e+00	0.00000e+00	0.00000e+00	
Factor	1.00000e+00	1.00000e+00	1.00000e+00	1.00000e+00	1.00000e+00	1.00000e+00	1.00000e+00	1.00000e+00	1.00000e+00	1.00000e+00	1.00000e+00	1.00000e+00	1.00000e+00	1.00000e+00	1.00000e+00	1.00000e+00	1.00000e+00	1.00000e+00	1.00000e+00	1.00000e+00	1.00000e+00	1.00000e+00	1.00000e+00	1.00000e+00	1.00000e+00	1.00000e+00	1.00000e+00	1.00000e+00	1.00000e+00	1.00000e+00	1.00000e+00	1.00000e+00	X	X	X	X	X	X	X	X	X	X	X	X	X	X	X	X	

B = Detector Channel
Val Type	B-AC1	B-AC2	B-AC3	B-AC4	B-AC5	B-AC6	B-AC7	B-AC8	B-AC9	B-AC10	B-AC11	B-AC12	B-AC13	B-AC14	B-AC15	B-AC16	B-DC1	B-DC2	B-DC3	B-DC4	B-DC5	B-DC6	B-DC7	B-DC8	B-DC9	B-DC10	B-DC11	B-DC12	B-DC13	B-DC14	B-DC15	B-DC16	B-Ph1	B-Ph2	B-Ph3	B-Ph4	B-Ph5	B-Ph6	B-Ph7	B-Ph8	B-Ph9	B-Ph10	B-Ph11	B-Ph12	B-Ph13	B-Ph14	B-Ph15	B-Ph16	

Term	0.00000e+00	0.00000e+00	0.00000e+00	0.00000e+00	0.00000e+00	0.00000e+00	0.00000e+00	0.00000e+00	0.00000e+00	0.00000e+00	0.00000e+00	0.00000e+00	0.00000e+00	0.00000e+00	0.00000e+00	0.00000e+00	0.00000e+00	0.00000e+00	0.00000e+00	0.00000e+00	0.00000e+00	0.00000e+00	0.00000e+00	0.00000e+00	0.00000e+00	0.00000e+00	0.00000e+00	0.00000e+00	0.00000e+00	0.00000e+00	0.00000e+00	0.00000e+00	-1.54582e+01	-1.31826e+02	-1.18987e+02	-1.83770e+02	-1.30688e+02	-8.11710e+01	-1.58254e+02	-1.62015e+02	4.03488e+00	-7.49322e+01	-1.70683e+02	-1.70651e+02	-1.78365e+02	-1.76938e+02	-7.39507e+01	-1.49895e+02	
Factor	3.55145e-05	9.56148e-05	2.78179e-05	1.65747e-01	1.12877e-06	1.04670e-06	1.79515e-01	5.89105e-02	1.19376e-06	1.16421e-06	9.76336e-02	3.40614e-02	3.16364e-02	1.08962e-02	1.16736e-06	1.55437e-02	9.88457e-07	1.01235e-06	2.82120e-07	8.20202e-02	1.10315e-08	1.10754e-08	8.33426e-02	2.89522e-02	1.10356e-08	1.10748e-08	4.58140e-02	1.59180e-02	1.53075e-02	5.26684e-03	1.10529e-08	7.23307e-03	X	X	X	X	X	X	X	X	X	X	X	X	X	X	X	X	



#DISTANCE SETTINGS
A = Detector Channel
A-1	A-2	A-3	A-4	A-5	A-6	A-7	A-8	A-9	A-10	A-11	A-12	A-13	A-14	A-15	A-16	

2.5000e+00	3.0000e+00	2.5000e+00	3.0000e+00	2.0000e+00	3.0000e+00	1.5000e+00	3.0000e+00	3.0000e+00	3.0000e+00	3.0000e+00	3.0000e+00	3.0000e+00	3.0000e+00	1.5000e+00	3.0000e+00	

B = Detector Channel
B-1	B-2	B-3	B-4	B-5	B-6	B-7	B-8	B-9	B-10	B-11	B-12	B-13	B-14	B-15	B-16	

1.0000e+01	1.0000e+01	1.0000e+01	1.4400e+00	1.0000e+01	1.0000e+01	1.5100e+00	1.9400e+00	1.0000e+01	1.0000e+01	1.9900e+00	2.4900e+00	2.4100e+00	2.9000e+00	1.0000e+01	2.9800e+00	




#DATA BEGINS
time	group	step	mark	flag	A-AC1	A-AC2	A-AC3	A-AC4	A-AC5	A-AC6	A-AC7	A-AC8	A-AC9	A-AC10	A-AC11	A-AC12	A-AC13	A-AC14	A-AC15	A-AC16	A-DC1	A-DC2	A-DC3	A-DC4	A-DC5	A-DC6	A-DC7	A-DC8	A-DC9	A-DC10	A-DC11	A-DC12	A-DC13	A-DC14	A-DC15	A-DC16	A-Ph1	A-Ph2	A-Ph3	A-Ph4	A-Ph5	A-Ph6	A-Ph7	A-Ph8	A-Ph9	A-Ph10	A-Ph11	A-Ph12	A-Ph13	A-Ph14	A-Ph15	A-Ph16	B-AC1	B-AC2	B-AC3	B-AC4	B-AC5	B-AC6	B-AC7	B-AC8	B-AC9	B-AC10	B-AC11	B-AC12	B-AC13	B-AC14	B-AC15	B-AC16	B-DC1	B-DC2	B-DC3	B-DC4	B-DC5	B-DC6	B-DC7	B-DC8	B-DC9	B-DC10	B-DC11	B-DC12	B-DC13	B-DC14	B-DC15	B-DC16	B-Ph1	B-Ph2	B-Ph3	B-Ph4	B-Ph5	B-Ph6	B-Ph7	B-Ph8	B-Ph9	B-Ph10	B-Ph11	B-Ph12	B-Ph13	B-Ph14	B-Ph15	B-Ph16	aux-1	digaux	

18137.471	1	1	0	256	0.17145	0.36208	0.090726	0.13973	0.11378	0.15869	0.21563	0.26363	0.0099064	0.19238	0.084466	0.13344	0.11315	0.17712	0.18818	0.26405	-2.4375	-2.3042	-3.0062	-2.4688	-2.6333	-2.9604	-2.5187	-2.7896	-2.8708	-2.4292	-3.0292	-2.65	-2.6188	-3.0667	-2.3396	-2.7833	-10.358	15.757	-69.425	-40.416	197.045	114.735	172.222	-60.262	237.239	-63.894	39.455	113.287	106.071	20.915	126.550	244.619	0.00047741	0.0017202	0.00014794	281.65	1.0477e-05	7.3074e-06	290.32	89.073	8.0476e-06	1.3579e-05	117.9	43.3	29.094	11.483	1.576e-05	20.318	0.0030773	0.0031895	0.0010009	571.63	3.5741e-05	3.701e-05	616.93	196.41	3.6938e-05	3.9156e-05	299.45	102.62	82.369	31.513	4.4006e-05	48.125	47.157	156.284	35.380	-88.954	-47.818	201.580	-89.418	-83.470	103.195	197.937	-85.098	-79.793	-78.145	-73.467	11.210	-75.993	-8191	255	
18137.566	1	1	0	0	0.13112	0.09329	0.0833	0.2301	0.10854	0.29543	0.16235	0.29073	0.25401	0.31081	0.14108	0.20796	0.081254	0.2251	0.28921	0.15419	-2.4083	-2.2854	-2.7854	-2.6312	-2.3708	-3.0958	-2.4938	-2.7687	-2.9562	-2.3063	-3.0521	-2.6208	-2.3458	-3.0458	-2.4625	-2.6625	-29.346	-63.971	113.603	201.619	-53.561	-32.725	237.335	176.781	255.800	119.588	96.241	252.470	79.556	132.259	173.601	193.444	0.00025033	0.002394	0.00025865	275.02	1.0343e-05	1.6703e-05	287.68	88.14	1.3555e-05	2.7325e-05	117.52	42.814	28.356	11.469	1.7281e-05	20.115	0.0035236	0.0039555	0.0011711	609.25	4.0463e-05	4.4539e-05	645.01	204.44	4.0295e-05	4.505e-05	310.52	106.4	86.169	34.02	4.6015e-05	48.963	101.718	183.192	28.426	-88.920	-6.937	198.855	-89.938	-82.984	69.124	227.448	-85.042	-79.472	-79.236	-73.649	58.209	-75.874	-8191	255	
18137.662	1	1	0	0	0.22279	0.25369	0.21569	0.063936	0.16193	0.16163	0.066224	0.14439	0.057067	0.15616	0.10567	0.10261	0.11601	0.21367	0.11392	0.043578	-2.475	-2.2542	-2.8396	-2.8187	-2.4708	-2.9792	-2.575	-2.4562	-2.8542	-2.3438	-2.8667	-2.7729	-2.2854	-3.0042	-2.5396	-2.4771	66.092	30.268	-90.694	73.922	-80.815	-54.642	90.892	1.906	141.135	15.358	232.660	141.204	93.442	-74.853	21.086	129.453	0.00045512	0.00052203	0.00036978	275.96	1.161e-05	2.7806e-06	285.86	87.967	6.6768e-06	4.3274e-06	116.14	42.714	27.728	11.591	1.4094e-05	19.859	0.0037116	0.0042718	0.0011696	605.48	4.1328e-05	4.6981e-05	641.08	203.45	4.1839e-05	4.7293e-05	308.53	105.89	88.857	34.964	4.5871e-05	48.836	-60.558	43.996	0.334	-88.912	59.990	124.967	-89.746	-83.610	-30.080	233.339	-85.459	-80.029	-78.668	-73.421	42.727	-75.462	-8191	255	
18137.760	1	1	0	0	0.079956	0.21071	0.15152	0.18457	0.23567	0.17255	0.15733	0.10032	0.3875	0.045346	0.27439	0.17091	0.23424	0.21739	0.11823	0.19763	-2.6729	-2.4479	-2.8292	-2.8292	-2.3646	-2.9229	-2.6104	-2.3875	-2.9375	-2.4729	-2.8063	-2.85	-2.3646	-2.9417	-2.8021	-2.5125	148.454	-71.363	-73.297	-5.934	94.563	-44.650	162.696	75.714	47.340	64.287	-100.111	12.156	19.125	13.102	-36.524	33.085	0.00075762	0.00051313	4.0934e-05	274.65	1.9166e-05	1.277e-05	284.58	87.611	1.4457e-05	8.0829e-06	116.79	42.577	27.424	11.559	7.3681e-06	19.978	0.0039763	0.0044877	0.0011828	607.21	4.4507e-05	4.8446e-05	638	200.68	4.378e-05	4.6783e-05	301.83	102.95	90.209	34.138	4.3462e-05	47.248	-82.995	-28.602	-3.573	-89.246	191.911	100.328	-89.633	-83.715	-59.152	11.039	-85.808	-78.957	-79.009	-73.241	10.631	-76.320	-8191	255	
18137.855	1	1	0	0	0.097955	0.36196	0.11456	0.1791	0.34416	0.091095	0.20654	0.11051	0.081167	0.11951	0.34831	0.38493	0.30528	0.26373	0.16605	0.082594	-2.8688	-2.4729	-2.3833	-2.95	-2.2917	-2.8312	-2.6417	-2.5146	-3.1312	-2.5687	-2.6562	-2.9521	-2.2958	-2.9792	-2.7354	-2.3563	15.100	-67.773	77.871	246.584	-95.710	67.099	173.189	-40.521	1.101	15.818	87.045	189.993	130.192	223.608	-19.391	229.134	0.00089012	0.0015418	0.00014981	271.13	2.4077e-05	1.6858e-05	285.83	85.722	2.0115e-05	1.4322e-05	115.01	41.765	27.758	11.719	1.7183e-05	19.55	0.003995	0.004214	0.0011199	591.73	4.5612e-05	4.7115e-05	633.02	201.02	4.7604e-05	4.8058e-05	306.89	106.3	97.269	35.286	4.5971e-05	49.621	-63.138	-30.815	-37.355	-89.060	148.505	7.071	-89.061	-83.558	-88.397	43.110	-85.080	-80.271	-78.673	-73.597	35.198	-76.592	-8191	255	
18137.975	1	1	0	0	0.24112	0.10805	0.11589	0.18849	0.119	0.066104	0.13293	0.15213	0.16667	0.17398	0.18174	0.094928	0.058344	0.1039	0.2465	0.25584	-2.6292	-2.4729	-2.4771	-3.1333	-2.3354	-2.9125	-2.7458	-2.4562	-2.9083	-2.6167	-2.5625	-3.0687	-2.45	-2.7083	-2.95	-2.5542	62.436	18.548	72.282	233.001	155.919	-60.568	-94.678	122.087	-99.903	101.746	232.303	165.694	40.278	178.931	-85.016	113.381	0.00062745	0.0014293	0.00029618	271.09	6.5832e-06	1.0227e-05	282.06	84.767	1.8358e-05	1.9117e-05	113.52	40.769	27.667	11.501	7.3417e-06	19.301	0.0045107	0.004483	0.0011895	626.02	5.1298e-05	5.0105e-05	650.45	212.86	5.2568e-05	5.0676e-05	316.54	114.27	104.61	36.776	4.9335e-05	54.212	-70.917	-53.775	9.143	-89.317	108.610	-7.881	-89.588	-82.848	-86.038	31.633	-84.613	-79.984	-78.105	-73.539	161.367	-77.053	-8191	255	
18138.070	1	1	0	0	0.27109	0.30793	0.19062	0.15682	0.26939	0.11853	0.20607	0.076107	0.19456	0.063453	0.067884	0.10884	0.074231	0.29829	0.07796	0.2763	-2.7146	-2.5375	-2.4646	-3.1	-2.4625	-2.7833	-2.8542	-2.3875	-2.9708	-2.7188	-2.4271	-3.0271	-2.55	-2.625	-3.0458	-2.4167	-76.800	-6.091	46.147	124.621	93.118	-32.089	152.894	51.076	7.492	81.539	98.914	89.958	101.297	-79.492	21.354	37.777	0.00024458	0.0012659	0.0003208	267.54	8.0662e-06	1.2848e-05	279.3	84.599	1.2738e-05	1.2527e-05	112.64	40.755	28.031	11.589	2.2099e-06	19.159	0.0051132	0.0049682	0.0013218	697.86	5.9682e-05	5.7507e-05	704.34	244.05	6.3313e-05	6.0423e-05	355.17	134.72	120.52	42.048	5.9787e-05	63.782	42.275	-45.202	-43.091	-88.598	12.662	1.112	-89.475	-83.629	110.496	-39.813	-85.369	-79.983	-78.854	-72.769	103.885	-75.738	-8191	255	
18138.168	1	1	0	0	0.31771	0.14801	0.24969	0.13339	0.15037	0.19015	0.1673	0.19806	0.26442	0.10557	0.1032	0.24145	0.076152	0.13028	0.11095	0.2382	-2.6937	-2.6896	-2.3229	-2.9938	-2.3354	-2.8688	-3.025	-2.2958	-2.6292	-2.6625	-2.3979	-3.0708	-2.6146	-2.575	-3.0833	-2.5208	-12.124	29.853	-96.167	-94.706	-91.506	8.332	82.169	-5.657	114.870	155.573	148.541	-7.678	-99.276	-48.654	200.448	-91.504	0.00040948	0.00027002	0.00068853	267.51	3.1833e-05	1.2766e-05	277.62	84.06	1.3093e-05	1.5824e-05	109.86	40.882	28.517	11.623	1.9052e-05	19.241	0.0060973	0.005882	0.0015545	789.87	6.6982e-05	6.3913e-05	752.52	268.06	6.7455e-05	6.3857e-05	373.14	144.29	123.56	42.744	6.3328e-05	66.713	49.111	191.349	238.726	-89.210	-82.663	16.444	-89.933	-83.642	91.804	28.123	-85.366	-79.355	-78.937	-72.872	211.698	-76.529	-8191	255	
18138.238	1	1	0	0	0.14338	0.15609	0.1554	0.0043338	0.35173	0.24544	0.1529	0.092459	0.20242	0.22471	0.17103	0.1726	0.04156	0.12649	0.085319	0.11811	-2.4938	-2.6188	-2.4396	-3.2375	-2.3521	-2.4625	-2.9646	-2.2708	-2.925	-2.8937	-2.2958	-3.0062	-2.6937	-2.5604	-3.0458	-2.5354	2.409	225.731	-9.968	184.736	-70.972	2.472	29.746	-30.303	-67.512	194.201	137.288	154.423	237.586	219.989	-3.837	186.127	0.00044132	0.0026501	0.00048681	270.87	9.2753e-06	1.9528e-05	275.68	84.383	1.5718e-05	1.6896e-05	108.18	41.208	28.099	11.621	2.2502e-05	19.693	0.0061184	0.0058728	0.001627	817.82	6.7435e-05	6.3937e-05	781.34	275.72	6.7141e-05	6.2745e-05	382.89	144.28	119.56	41.269	6.4628e-05	65.639	81.728	-24.793	155.346	-88.360	-36.970	7.308	-89.313	-82.937	47.044	13.082	-85.666	-79.509	-78.339	-73.406	188.322	-75.547	-8191	255	
18138.359	1	1	0	0	0.16717	0.10719	0.14923	0.11751	0.10992	0.1433	0.057016	0.19402	0.33044	0.27132	0.13396	0.12204	0.1354	0.23148	0.22619	0.18959	-2.2938	-2.8417	-2.3354	-3.0125	-2.5771	-2.7583	-3.0542	-2.5	-2.8896	-2.9313	-2.4062	-2.9354	-2.6792	-2.5542	-3.0396	-2.5708	-26.585	208.403	55.252	157.594	203.843	-97.482	20.000	89.323	15.104	176.460	199.626	189.181	-84.323	1.649	133.957	80.084	0.00029812	0.00082319	0.00042364	274.84	9.2864e-06	1.5612e-05	274.37	84.897	2.1058e-05	1.2192e-05	110.01	42.159	28.283	11.508	1.7515e-05	19.768	0.005841	0.0055688	0.0016609	798.58	6.4055e-05	6.0283e-05	785.69	264.75	6.2776e-05	5.8782e-05	383.74	138.31	114.67	39.949	6.5363e-05	63.423	110.976	-7.589	137.145	-88.862	-43.821	55.780	-89.619	-82.845	128.656	118.781	-85.337	-79.850	-78.122	-73.690	160.333	-75.102	-8191	255	
18138.455	1	1	0	0	0.030643	0.20501	0.15645	0.19751	0.2296	0.18348	0.11683	0.27189	0.16349	0.12174	0.16211	0.077042	0.26782	0.043335	0.12736	0.23274	-2.2583	-2.9979	-2.3563	-2.8958	-2.6625	-2.4167	-3.2188	-2.5458	-2.5979	-2.9854	-2.3521	-2.8479	-2.8646	-2.4229	-2.8875	-2.6021	39.979	143.432	18.730	205.119	-4.389	27.597	208.132	146.016	81.203	-65.246	168.479	-64.669	153.545	245.321	-36.009	86.748	0.00022049	0.00014893	0.00049447	272.6	8.4602e-06	1.7817e-05	277.23	85.089	5.811e-06	3.1374e-05	113.28	42.511	28.39	11.394	3.1016e-06	20.435	0.0055429	0.0053789	0.0016803	775.32	6.0746e-05	5.8967e-05	799.46	260.19	6.1317e-05	6.0041e-05	395.79	137.79	113.35	41.07	6.7526e-05	62.501	49.708	-84.659	177.544	-88.610	-33.295	221.331	-89.900	-82.710	192.261	208.452	-84.641	-80.237	-78.011	-72.638	252.263	-75.636	-8191	255	
18138.551	1	1	0	0	0.16066	0.22291	0.07368	0.085829	0.15256	0.27037	0.16334	0.042583	0.11853	0.22779	0.11345	0.36573	0.25836	0.036246	0.33704	0.17807	-2.2188	-2.9771	-2.4542	-2.8771	-2.75	-2.5312	-3.0542	-2.7833	-2.5542	-2.9792	-2.4896	-2.7208	-2.8312	-2.5563	-2.9146	-2.7833	241.486	104.604	15.556	167.893	-35.831	-68.761	-47.601	48.195	157.814	200.943	-45.435	134.625	2.721	187.581	-49.199	227.084	0.00056462	0.0024918	0.00015198	276.98	2.7209e-05	1.7043e-05	287.01	87.565	1.1249e-05	3.9991e-05	113.14	43.36	28.861	11.485	1.6739e-05	20.419	0.0053772	0.0055744	0.001712	763.07	5.8085e-05	5.9456e-05	789.93	249.06	5.6705e-05	5.9553e-05	381.75	130.27	105.82	40.425	6.2585e-05	59.041	76.633	143.230	47.050	-88.752	-39.061	185.000	-89.237	-82.871	110.486	215.014	-84.626	-79.633	-78.402	-74.025	3.101	-75.568	-8191	255	
18138.646	1	1	0	0	0.23963	0.042255	0.23951	0.066382	0.1254	0.21993	0.18556	0.1225	0.09503	0.20544	0.22878	0.1642	0.1341	0.11869	0.17502	0.20276	-1.9625	-3.1417	-2.425	-2.6917	-2.7479	-2.4625	-2.8479	-2.5938	-2.5958	-3.05	-2.3521	-2.5875	-2.8812	-2.2938	-2.9188	-2.85	128.818	-4.102	-4.571	210.661	199.144	43.140	-91.979	204.232	-59.689	191.569	61.916	37.519	-33.425	208.875	-30.174	155.220	0.0003318	0.00298	0.00025453	276.14	1.9484e-06	1.3324e-05	283.74	86.341	1.9073e-05	2.8624e-05	115.04	42.726	27.829	11.551	1.113e-05	20.516	0.0048693	0.0053914	0.0015398	709.26	5.2097e-05	5.7545e-05	743.62	234.72	5.1945e-05	5.8579e-05	362.81	124.52	102.72	40.743	5.9353e-05	57.011	56.973	122.717	215.684	-88.330	192.477	214.251	-89.660	-83.114	19.134	229.720	-84.870	-79.066	-78.373	-73.482	14.948	-75.420	-8191	255	
18138.766	1	1	0	0	0.12079	0.061686	0.14595	0.26586	0.06673	0.242	0.15077	0.1721	0.23136	0.28237	0.26217	0.13636	0.19835	0.16871	0.063873	0.28285	-2.0625	-2.9	-2.2	-2.5292	-2.9854	-2.4271	-2.8563	-2.8229	-2.4562	-2.9104	-2.6562	-2.4417	-3.0521	-2.3854	-2.6875	-2.8292	-73.089	-59.522	-30.414	-71.694	-88.589	-22.137	187.269	137.841	62.207	50.612	197.692	206.125	10.902	190.430	130.251	201.969	0.00034632	0.0017889	0.00060179	277.46	1.7617e-05	7.7251e-06	287.28	88.12	2.2111e-05	1.7582e-05	116.29	42.778	27.995	11.797	2.2387e-05	20.962	0.0047526	0.0054586	0.0014641	688.92	5.1448e-05	5.7285e-05	712.94	223.2	4.9249e-05	5.4728e-05	331.99	114.25	96.758	37.885	5.0861e-05	52.243	-51.629	164.587	-17.341	-89.026	202.105	242.410	-89.458	-83.272	256.691	112.214	-84.626	-80.151	-78.374	-72.772	29.176	-74.794	-8191	255	
18138.861	1	1	0	0	0.15998	0.17265	0.19288	0.32333	0.16623	0.026353	0.32588	0.025097	0.19636	0.18397	0.10032	0.30731	0.29767	0.20202	0.094716	0.14722	-2.0062	-2.8604	-2.5333	-2.4813	-2.9458	-2.2958	-2.7146	-2.8708	-2.2083	-3.0687	-2.6042	-2.5	-3.1562	-2.575	-2.9021	-2.8104	-98.044	217.323	50.896	-88.322	-53.186	-25.132	220.576	96.443	-10.999	-38.950	219.657	98.017	190.032	-50.617	179.592	143.479	0.00066838	0.00068819	0.00049408	280.19	3.2297e-05	1.2712e-05	285.95	87.592	2.9207e-05	3.3689e-06	116.84	43.732	28.48	12.307	1.5354e-05	20.548	0.0043754	0.0049146	0.0012853	644.68	4.9659e-05	5.3385e-05	682.09	213.64	4.9544e-05	5.2078e-05	321.77	110.25	97.849	36.583	4.7081e-05	50.283	-90.973	15.187	-7.601	-88.235	147.456	48.754	-89.574	-83.025	-63.547	109.287	-85.220	-79.409	-78.168	-73.064	59.356	-75.049	-8191	255	
18138.936	1	1	0	0	0.33807	0.071503	0.10935	0.14553	0.094094	0.23531	0.17269	0.13258	0.20702	0.18255	0.2311	0.13571	0.26921	0.10409	0.075941	0.26306	-2.1021	-2.9729	-2.6312	-2.5917	-3.0687	-2.6667	-2.7833	-3.0875	-2.2292	-2.9	-2.8042	-2.5417	-3.0771	-2.5542	-2.6125	-3.0687	101.787	245.878	-41.559	169.508	28.673	171.432	111.672	-96.121	48.422	-83.306	-90.375	21.783	32.500	241.408	139.805	211.649	0.0010568	0.0012459	0.00014114	276.93	2.5358e-05	1.8082e-05	292.48	86.963	9.009e-06	1.9705e-05	118.65	44.044	28.981	12.425	7.6706e-06	20.963	0.0043119	0.0044987	0.0011731	616.38	4.856e-05	4.8868e-05	657.14	207.67	4.9296e-05	4.9377e-05	314.19	110.04	99.937	35.875	4.5769e-05	50.862	-99.007	-65.614	-26.314	-89.261	144.703	61.362	-89.275	-82.792	-67.177	27.548	-84.650	-79.783	-78.143	-72.886	-53.428	-75.651	-8191	255	
18139.055	1	1	0	0	0.097419	0.28981	0.061918	0.13934	0.25629	0.46056	0.24225	0.27639	0.090816	0.18638	0.064108	0.021096	0.1836	0.12942	0.2483	0.10757	-2.1	-2.7313	-2.8542	-2.475	-2.9896	-2.5458	-2.5646	-2.9875	-2.3896	-2.8167	-2.9229	-2.5	-2.9396	-2.7083	-2.6312	-3	94.843	-73.390	33.456	8.953	117.673	10.251	-58.186	232.431	109.784	-75.788	-53.050	-48.505	-81.589	218.567	199.290	-93.628	0.00059986	0.0019732	0.00038514	277.36	5.536e-06	1.6222e-06	291.57	86.827	1.6694e-05	1.86e-05	117.84	43.308	29.483	12.362	1.6655e-05	21.038	0.0044501	0.0044022	0.0011418	621.97	4.9345e-05	4.7097e-05	641.57	210.63	4.9595e-05	4.7395e-05	305.41	111.69	99.966	35.236	4.4034e-05	52.285	-75.959	-37.879	-20.164	-88.876	-35.210	107.068	-88.956	-82.986	-58.467	-8.976	-84.694	-79.722	-77.601	-73.391	2.146	-75.589	-8191	255	
18139.150	1	1	0	0	0.32014	0.12765	0.1362	0.26433	0.12232	0.17393	0.19716	0.078526	0.25579	0.1783	0.24743	0.089499	0.14561	0.19774	0.12521	0.20325	-2.1312	-2.8396	-2.9062	-2.3896	-3.025	-2.6854	-2.6146	-3.2333	-2.5563	-2.6458	-3.0396	-2.3438	-3.0667	-2.8063	-2.5438	-3.3146	20.428	-64.772	50.845	256.630	138.495	108.871	100.125	-62.014	154.146	-27.469	-68.149	82.425	179.330	184.126	215.572	118.029	0.00066502	0.00088954	0.00046412	279.41	1.3543e-05	2.3395e-06	292.81	88.05	6.9855e-07	2.0425e-05	120.03	43.146	29.916	12.406	2.252e-06	20.884	0.004449	0.0043281	0.0011276	650.12	5.1035e-05	4.858e-05	654.28	225.6	5.2587e-05	5.0236e-05	318.84	121.83	105.46	37.103	4.8232e-05	57.405	253.969	-17.543	-22.173	-88.609	-33.373	44.146	-89.529	-83.269	-84.700	17.479	-84.838	-79.498	-78.481	-73.242	249.078	-76.214	-8191	255	
18139.246	1	1	0	0	0.18933	0.076634	0.13024	0.085961	0.24859	0.12773	0.24312	0.11508	0.11658	0.18533	0.2854	0.13507	0.093778	0.21109	0.33505	0.31711	-2.25	-2.6083	-2.9688	-2.4542	-2.7938	-2.9167	-2.525	-2.9208	-2.4604	-2.6917	-3.0479	-2.4417	-2.8812	-2.9083	-2.5167	-2.9917	121.505	-60.077	98.231	-36.563	34.202	-33.909	-24.982	-9.107	17.780	162.871	44.351	212.161	132.288	-26.694	-2.180	-6.044	0.00028538	0.00030671	0.00034636	276.43	1.196e-05	5.5227e-06	288.62	88.47	2.0339e-05	1.7974e-05	115.74	43.984	29.682	12.547	3.7597e-06	21.509	0.0048589	0.004706	0.0012426	703.52	5.4584e-05	5.1618e-05	684.42	241.8	5.511e-05	5.255e-05	334.78	129.1	107.6	37.648	5.1337e-05	60.061	27.249	-87.846	233.606	-88.254	185.820	-22.404	-89.535	-82.840	141.755	68.467	-84.426	-79.943	-78.317	-72.856	222.264	-75.681	-8191	255	
18139.344	1	1	0	0	0.24089	0.16762	0.13008	0.063908	0.35199	0.23559	0.30407	0.094248	0.1072	0.18344	0.085034	0.24881	0.061489	0.11504	0.076958	0.045312	-2.3458	-2.7604	-3.0667	-2.4271	-2.8688	-2.8688	-2.2792	-3.0917	-2.5917	-2.6167	-3.1125	-2.4958	-2.7729	-2.9125	-2.3458	-3.0229	102.757	68.391	-32.691	-81.522	-7.760	103.626	-93.689	31.045	216.371	248.768	209.623	131.938	72.716	-37.668	218.786	-95.894	0.00015552	0.0013931	0.00044923	279.55	2.2872e-05	4.8855e-06	288.17	88.023	1.2155e-05	1.2217e-05	115.78	44.442	29.545	12.538	3.64e-05	21.253	0.004918	0.0047352	0.001324	722.01	5.4505e-05	5.0937e-05	702.45	244.15	5.3476e-05	5.0286e-05	340.85	127.38	104.53	36.57	5.3001e-05	58.972	148.670	-48.486	159.289	-88.581	6.016	53.013	-89.309	-83.066	138.639	47.339	-84.609	-79.630	-77.510	-73.554	231.616	-75.226	-8191	255	
18139.465	1	1	0	0	0.32537	0.19686	0.13098	0.11417	0.17624	0.079714	0.23937	0.15735	0.15523	0.18624	0.061735	0.19198	0.047307	0.043346	0.22726	0.34853	-2.1333	-2.5	-3.0875	-2.3312	-2.6458	-2.9688	-2.3333	-3.0563	-2.7062	-2.6667	-3.275	-2.5042	-2.7188	-2.8708	-2.5375	-2.8604	120.935	-70.205	98.303	164.662	108.459	41.910	68.124	17.682	174.942	141.456	3.109	55.211	214.037	43.343	-11.910	7.506	0.00053054	0.00051873	0.00064002	277.66	6.6515e-06	1.1789e-05	286.66	89.302	1.5753e-05	1.9043e-05	116.37	44.692	30.011	12.271	2.5232e-05	21.439	0.0047228	0.0045431	0.0013709	708.2	5.2671e-05	4.9269e-05	717.18	241.29	5.2785e-05	4.9699e-05	352.76	126.77	103.46	36.714	5.5826e-05	58.422	-24.306	12.631	138.507	-88.665	-21.344	195.032	-89.914	-82.652	92.461	16.940	-84.338	-78.997	-78.328	-73.161	196.188	-76.148	-8191	255	
18139.535	1	1	0	0	0.2672	0.12084	0.079963	0.032741	0.2056	0.2357	0.24297	0.08171	0.22109	0.027979	0.19179	0.15084	0.070039	0.19529	0.068315	0.1786	-2.3854	-2.2229	-3.0312	-2.4646	-2.6333	-3.0583	-2.4583	-2.9625	-2.6229	-2.4688	-3.1729	-2.4854	-2.6104	-3.1437	-2.6542	-2.7333	139.846	42.806	-15.328	-42.573	-83.143	-85.397	223.152	231.907	-1.286	100.373	173.564	161.565	45.348	194.455	170.811	109.647	0.0004458	0.00077222	0.00030743	280.7	4.2722e-06	2.2169e-05	287.14	90.158	1.7477e-05	1.9596e-05	117.89	44.533	29.601	12.09	2.5495e-06	21.538	0.0046401	0.004588	0.0014292	699.77	5.1151e-05	4.9794e-05	727.12	234.32	5.0229e-05	4.9662e-05	354.37	122.67	99.713	36.768	5.5143e-05	56.472	59.102	177.688	157.096	-88.302	-50.167	203.757	-89.314	-82.621	29.243	203.828	-84.566	-78.728	-77.738	-72.919	-42.541	-76.111	-8191	255	
18139.656	1	1	0	0	0.13155	0.072648	0.056401	0.24651	0.087133	0.14919	0.24272	0.26028	0.18232	0.18741	0.18468	0.16389	0.19362	0.052203	0.11206	0.15788	-2.7021	-2.3854	-3.1521	-2.7917	-2.5896	-3.2062	-2.4354	-2.9938	-2.8708	-2.3625	-3.2208	-2.7	-2.4625	-3.0604	-2.4417	-2.7292	239.733	-93.427	143.462	139.947	-75.922	110.610	106.222	127.963	239.303	42.639	-38.230	102.041	133.720	249.175	85.042	-74.537	0.0001979	0.00068632	0.0003185	278.05	2.2013e-05	1.0092e-05	293.36	88.33	1.5035e-05	1.881e-05	119.66	45.294	29.907	12.04	4.2706e-06	21.539	0.0043717	0.0045619	0.0013935	671.85	4.7655e-05	4.9642e-05	709.85	224.18	4.5833e-05	4.8545e-05	336.58	115.52	92.222	35.641	4.916e-05	52.444	37.101	163.291	5.133	-88.869	-13.630	222.166	-88.509	-82.388	134.021	195.242	-84.477	-79.120	-78.153	-72.861	68.963	-75.560	-8191	255	
18139.752	1	1	0	0	0.19263	0.28664	0.086892	0.10631	0.164	0.11088	0.19663	0.039714	0.13949	0.060306	0.067152	0.098135	0.19996	0.013834	0.17133	0.17265	-2.5083	-2.3375	-2.9667	-2.7229	-2.4271	-3.0438	-2.5021	-2.6188	-3.0833	-2.3521	-2.8854	-2.7083	-2.4333	-2.9958	-2.6458	-2.7396	118.784	62.202	-99.880	104.837	13.377	-46.632	26.048	248.915	179.793	212.760	209.583	15.989	215.641	175.359	-15.287	105.428	0.00028602	0.0022448	0.00032425	276.87	2.7177e-06	1.2396e-05	290.3	88.774	1.6784e-05	6.2399e-06	118.27	44.628	29.509	12.198	8.0491e-06	21.36	0.0038224	0.0042957	0.0012274	625.18	4.2047e-05	4.6654e-05	657.77	208.07	4.1083e-05	4.6126e-05	313.26	108.21	87.729	35.107	4.5409e-05	50.167	-3.274	151.428	-11.872	-88.037	257.332	202.717	-88.855	-82.339	-86.034	173.355	-84.337	-78.857	-77.200	-72.633	31.133	-75.571	-8191	255	
18139.848	1	1	0	0	0.17364	0.12657	0.080077	0.14604	0.16519	0.23453	0.17567	0.096576	0.14701	0.25562	0.26604	0.11831	0.16745	0.20911	0.087221	0.22913	-2.5938	-2.1125	-2.9437	-2.775	-2.3375	-3.0271	-2.5167	-2.7771	-3.15	-2.3604	-2.9875	-2.9771	-2.3771	-3.0042	-2.7083	-2.5208	100.652	-87.427	191.117	229.680	258.548	212.069	190.993	220.711	-9.365	-1.696	130.105	22.326	185.729	2.176	-4.521	95.139	0.00057746	0.0013467	0.00023436	276.39	1.4464e-05	4.5716e-06	287.94	87.569	2.7003e-05	1.5324e-05	120	44.166	29.153	12.25	1.2832e-05	21.232	0.003719	0.0042517	0.0011449	601.24	4.0964e-05	4.6007e-05	634.86	200.31	4.1037e-05	4.5854e-05	302.86	104.32	87.587	34.399	4.2395e-05	47.907	-92.225	117.764	61.247	-88.629	142.364	209.794	-88.545	-82.974	258.869	44.083	-84.549	-79.296	-77.918	-72.544	47.539	-75.672	-8191	255	
18139.943	1	1	0	0	0.19544	0.17364	0.14185	0.17948	0.24201	0.15743	0.046726	0.10936	0.11133	0.26901	0.056031	0.1815	0.14024	0.19033	0.043888	0.061374	-2.7	-2.3542	-2.925	-2.9208	-2.2917	-3.0625	-2.5812	-2.5146	-3.0792	-2.4521	-2.8375	-2.8604	-2.2062	-3.0208	-2.7104	-2.5083	148.984	257.327	237.054	-58.014	-1.127	84.689	192.661	169.651	50.090	-32.946	164.836	148.521	75.031	-48.315	-43.646	10.739	0.00082295	0.0010784	0.00016257	277.54	2.1326e-05	7.4312e-06	286.59	87.577	2.7884e-05	1.2152e-05	121.17	44.478	29.257	12.396	9.749e-06	21.32	0.0037059	0.0040914	0.0010772	584.08	4.2007e-05	4.5131e-05	626.35	197.5	4.2905e-05	4.5039e-05	299.56	103.39	90.622	34.08	4.1589e-05	47.486	-73.419	253.002	-79.916	-88.210	148.805	90.799	-88.405	-82.427	-71.527	-28.124	-84.223	-79.316	-77.677	-72.492	36.226	-74.858	-8191	255	
18140.062	1	1	0	0	0.21788	0.15926	0.28407	0.11474	0.0090347	0.26199	0.093566	0.21556	0.22913	0.18672	0.36061	0.094699	0.2614	0.12664	0.13118	0.060007	-2.7458	-2.3854	-2.5646	-2.9458	-2.4104	-2.8583	-2.6375	-2.4813	-3.1146	-2.6771	-2.6792	-3.0271	-2.2521	-2.925	-2.7417	-2.5104	-50.971	237.242	-26.704	157.206	-1.342	-39.768	56.614	136.887	127.840	256.422	209.552	136.433	187.228	130.125	173.788	68.871	0.00058401	0.00081453	6.4953e-05	274.88	1.5285e-05	2.4921e-06	291.69	87.978	7.099e-06	9.6769e-06	120.93	44.466	29.226	12.429	1.1504e-05	21.289	0.0038679	0.0039478	0.0010255	570.9	4.1641e-05	4.1176e-05	595.72	188.47	4.0551e-05	3.9444e-05	277.81	98.181	86.232	31.262	3.5971e-05	45.29	223.323	-91.967	14.865	-88.396	192.543	42.491	-89.100	-83.316	-25.544	10.147	-84.997	-79.506	-77.439	-73.183	62.903	-74.536	-8191	255	
18140.135	1	1	0	0	0.12028	0.16111	0.14319	0.03072	0.081175	0.077441	0.23575	0.096764	0.21027	0.18031	0.092464	0.16137	0.079716	0.16129	0.068227	0.17208	-2.5958	-2.5375	-2.3646	-2.8542	-2.15	-2.925	-2.9021	-2.3021	-2.9229	-2.4292	-2.5396	-3.0583	-2.5167	-2.7625	-2.8646	-2.4208	-46.409	79.397	-8.365	51.491	243.260	199.370	103.580	200.165	138.624	-61.013	132.599	200.686	250.682	-85.489	17.820	254.619	9.0855e-05	0.0011965	0.00029517	270.87	1.8135e-05	1.3235e-06	289.25	85.898	1.5883e-05	5.6862e-06	118.15	44.045	29.27	12.335	1.3775e-05	20.872	0.0035704	0.0034472	0.00090147	550.94	3.8624e-05	3.6767e-05	560.31	183.03	3.8006e-05	3.5467e-05	259.92	96.016	81.925	29.348	3.2503e-05	44.698	32.231	14.803	-49.091	-87.988	104.943	117.951	-88.598	-82.960	-27.515	-25.179	-84.227	-79.659	-77.666	-72.545	134.985	-76.005	-8191	255	
18140.230	1	1	0	0	0.15829	0.26717	0.043116	0.067366	0.11755	0.069427	0.12314	0.081562	0.085315	0.13431	0.18689	0.15011	0.23479	0.42837	0.12134	0.21056	-2.6854	-2.6688	-2.4833	-3.2958	-2.5938	-2.6979	-2.9292	-2.4021	-2.9479	-2.7521	-2.5646	-3.0354	-2.575	-2.8042	-3.0646	-2.4729	111.232	156.663	212.452	139.459	73.757	-6.943	72.787	-44.352	26.870	-92.503	141.491	220.302	-73.171	249.523	16.173	161.839	0.00027402	0.0019416	0.00010648	271.58	8.3273e-06	8.146e-06	286.84	86.993	1.01e-05	1.0123e-05	119.38	44.203	29.866	12.128	6.3098e-06	20.969	0.0033392	0.0032048	0.00084006	555.43	3.7327e-05	3.5435e-05	554.29	188.25	3.7594e-05	3.5428e-05	261.86	100.76	83.439	30.065	3.4581e-05	47.401	-0.558	12.484	-2.332	-88.247	9.885	25.964	-88.966	-83.440	95.786	-51.027	-85.192	-79.100	-77.045	-72.984	160.085	-74.499	-8191	255	
18140.326	1	1	0	0	0.15565	0.10159	0.070086	0.21642	0.31553	0.15621	0.27987	0.13969	0.26623	0.25279	0.079292	0.10508	0.23136	0.1354	0.34611	0.072287	-2.6104	-2.725	-2.475	-2.9958	-2.4792	-2.7667	-3.0208	-2.3479	-2.7333	-2.8438	-2.4833	-3.2396	-2.5583	-2.5042	-2.9813	-2.5021	-86.218	-68.971	134.546	247.965	37.020	-90.222	233.059	222.998	54.813	-84.422	26.972	213.937	203.172	181.848	88.953	181.166	0.00026905	0.00064386	0.00030754	273.02	7.6088e-06	9.0305e-06	285.54	87.062	1.2015e-05	1.6192e-05	117.27	43.833	29.481	12.136	1.509e-05	20.934	0.0035204	0.0033726	0.00090182	589.21	3.9142e-05	3.715e-05	575.75	198.43	3.9341e-05	3.7009e-05	273.44	105.31	84.013	30.054	3.6623e-05	48.416	94.056	74.975	136.860	-88.220	26.609	26.072	-88.629	-82.722	131.919	42.811	-84.548	-79.194	-77.535	-73.113	212.326	-75.267	-8191	255	
18140.445	1	1	0	0	0.1097	0.25795	0.11832	0.064341	0.18594	0.059232	0.049235	0.13852	0.15334	0.051897	0.18036	0.10512	0.22437	0.10917	0.32735	0.1155	-2.475	-2.7875	-2.2188	-3.1521	-2.5708	-2.5771	-2.8729	-2.4333	-2.8792	-2.9396	-2.4333	-2.9667	-2.6937	-2.4708	-3.1583	-2.5042	129.934	-88.782	220.199	221.267	-20.144	-87.658	50.123	-92.068	89.250	-89.322	228.307	259.480	97.480	193.635	32.537	113.462	0.0003041	0.00038448	0.000341	274.41	1.1588e-05	1.3575e-05	287.35	88.033	8.3075e-06	1.1165e-05	115.93	43.985	28.978	12.066	1.5467e-05	20.908	0.0034512	0.0032881	0.00094336	594.67	3.8459e-05	3.634e-05	592.77	200.31	3.8761e-05	3.6376e-05	282.57	105.88	83.907	30.063	3.9554e-05	48.7	105.301	-10.725	140.933	-88.340	8.416	16.041	-89.502	-82.082	95.832	16.109	-84.238	-78.260	-77.348	-72.373	216.825	-74.777	-8191	255	
18140.543	1	1	0	0	0.2037	0.074275	0.19622	0.14604	0.17048	0.24406	0.22611	0.13029	0.10431	0.20719	0.022735	0.039	0.19981	0.18906	0.15626	0.016803	-2.2812	-2.9458	-2.3708	-2.9396	-2.8042	-2.4562	-3.1125	-2.2812	-2.6562	-2.9083	-2.5083	-2.9417	-2.9375	-2.5646	-3.1312	-2.6792	-85.527	-41.735	-6.641	78.712	49.698	195.753	181.498	-14.718	25.044	215.345	3.276	181.637	40.594	96.058	100.342	246.072	0.00021813	0.00055367	0.0006602	272.62	7.563e-06	7.562e-06	285.18	87.034	2.5199e-05	7.5262e-06	114.84	43.778	29.332	11.938	6.2726e-06	20.735	0.0034994	0.003324	0.0010203	595.06	3.8524e-05	3.6471e-05	610.27	199.94	3.9115e-05	3.7085e-05	294.27	105.97	84.535	30.528	4.2901e-05	48.837	-27.691	257.730	124.079	-88.396	-70.837	43.480	-89.514	-82.312	64.284	191.141	-85.015	-79.511	-78.217	-72.827	165.131	-75.563	-8191	255	
18140.639	1	1	0	0	0.28933	0.063477	0.30147	0.082266	0.15293	0.14976	0.19103	0.2063	0.10559	0.19623	0.24798	0.29355	0.19919	0.10366	0.15315	0.21555	-2.3438	-3.075	-2.3792	-3.0187	-2.8833	-2.6021	-3.1271	-2.5104	-2.5375	-3.0542	-2.475	-3.05	-2.6937	-2.3458	-3.0771	-2.5646	-57.647	177.917	55.752	48.391	71.103	233.629	-38.696	221.312	4.761	210.728	226.902	-87.884	229.116	184.568	224.747	47.625	0.00011461	0.0014072	0.00026583	273.95	1.6782e-05	1.0522e-05	284.22	86.26	4.8646e-06	6.5998e-06	115.76	43.681	29.139	11.792	6.0476e-06	20.386	0.0035509	0.0035116	0.0011064	601.45	3.9262e-05	3.9106e-05	632.98	200.61	3.9505e-05	3.972e-05	303.82	105.87	84.433	31.573	4.4521e-05	48.453	57.059	165.394	121.472	-88.910	-16.084	224.927	-89.029	-82.758	98.781	165.259	-84.895	-79.004	-78.090	-72.842	-10.338	-75.343	-8191	255	
18140.734	1	1	0	0	0.096246	0.21721	0.19884	0.094372	0.23113	0.087162	0.2484	0.28243	0.20559	0.12333	0.08816	0.12414	0.073243	0.028715	0.11743	0.080152	-2.1875	-3	-2.5521	-2.7521	-3.0146	-2.4292	-3.0521	-2.6521	-2.4458	-3.1521	-2.4104	-2.7354	-2.85	-2.4437	-2.8479	-2.9313	162.911	114.540	-99.280	-90.290	88.909	-34.846	-26.824	226.518	-23.796	250.088	-81.248	-47.122	-83.221	41.695	-47.449	53.663	0.00013244	0.00085086	0.00025876	271.68	1.1925e-05	1.6821e-05	284.77	86.973	1.21e-05	2.6845e-05	117.16	43.266	28.814	11.863	9.0834e-06	20.746	0.0034878	0.0036862	0.0011105	589.9	3.7728e-05	4.0107e-05	623.92	195.03	3.7233e-05	4.0401e-05	295.62	102.38	80.551	31.658	4.1589e-05	46.675	57.352	182.654	11.839	-88.772	-56.951	214.817	-89.450	-82.752	148.714	186.938	-84.917	-79.503	-77.840	-73.163	117.563	-75.539	-8191	255	
18140.830	1	1	0	0	0.33647	0.1598	0.28847	0.18092	0.17335	0.14455	0.15916	0.29003	0.10993	0.060128	0.32037	0.20913	0.1827	0.20808	0.35778	0.26488	-2.0521	-3.0375	-2.4292	-2.7438	-2.8708	-2.3375	-3.0687	-2.6896	-2.3604	-2.9458	-2.2896	-2.5146	-2.9771	-2.2687	-2.6771	-2.8354	-61.628	98.151	258.841	210.070	138.199	166.650	-10.189	-74.665	220.660	61.427	208.669	204.552	205.172	234.670	134.288	256.328	0.00038826	0.0010558	0.000122	271.29	5.3181e-06	1.8051e-05	283.57	85.932	7.5135e-06	1.5403e-05	115.67	43.216	28.365	11.772	9.5643e-06	20.477	0.0032487	0.0036727	0.0010313	570.99	3.5672e-05	4.0228e-05	604.21	188.32	3.558e-05	4.0145e-05	281.77	97.672	77.959	31.152	3.8044e-05	44.356	-33.539	134.512	44.683	-88.524	217.949	217.506	-88.971	-82.683	70.110	195.463	-84.748	-79.345	-77.700	-73.655	36.522	-75.152	-8191	255	
18140.928	1	1	0	0	0.051667	0.17535	0.18429	0.034235	0.19924	0.18557	0.41609	0.062445	0.1459	0.15053	0.16156	0.3424	0.44407	0.048245	0.11904	0.20473	-1.8708	-3.0792	-2.5646	-2.6417	-3.0021	-2.4708	-2.9437	-2.7354	-2.5917	-2.9938	-2.8625	-2.5854	-3	-2.3438	-2.7	-2.9229	199.517	-66.275	128.648	-28.559	84.032	148.605	-67.167	-40.355	-17.514	114.722	63.548	-62.185	-44.132	76.175	92.289	-56.045	0.00081452	0.001166	0.00012391	268.64	2.0023e-05	1.0994e-05	284.1	85.431	9.0155e-06	1.6983e-05	115.52	42.979	28.093	11.749	1.3984e-05	20.65	0.0031186	0.0035848	0.00094957	543.89	3.4709e-05	3.9045e-05	580.22	180.72	3.5368e-05	3.9654e-05	273.41	94.818	79.502	30.932	3.651e-05	43.245	-77.447	154.015	-41.662	-88.299	195.656	210.905	-88.662	-82.711	-89.642	59.234	-84.436	-79.466	-77.998	-73.239	-0.674	-75.539	-8191	255	
18141.023	1	1	0	0	0.33681	0.078243	0.1349	0.23472	0.18355	0.40306	0.24078	0.13067	0.087656	0.17765	0.12694	0.25574	0.25491	0.18386	0.097271	0.077712	-2.0938	-3.0417	-2.5604	-2.3937	-3.0104	-2.3146	-2.7333	-2.825	-2.375	-3.05	-2.7146	-2.4375	-3.1479	-2.4813	-2.8083	-2.8125	-32.265	250.814	-99.613	-3.335	178.370	96.900	243.457	93.049	65.100	192.966	142.835	233.502	228.915	78.688	81.799	-24.525	0.00078838	0.00076661	7.383e-05	269.82	1.8713e-05	6.5327e-06	284.19	86.185	8.4119e-06	1.5014e-05	115.23	42.861	27.958	11.886	7.5044e-06	20.48	0.0031958	0.0034946	0.00090434	530.68	3.5339e-05	3.7098e-05	564.12	175.22	3.5791e-05	3.7323e-05	265.12	92.304	80.166	29.998	3.5148e-05	42.851	-97.518	116.694	45.648	-88.555	136.514	15.670	-88.521	-82.289	-49.575	54.227	-84.444	-79.142	-76.979	-73.473	-10.809	-74.771	-8191	255	
18141.145	1	1	0	0	0.10109	0.083172	0.35246	0.17044	0.050789	0.16226	0.23211	0.12873	0.19358	0.21759	0.13773	0.2912	0.18489	0.084263	0.045227	0.090101	-2.1813	-2.9521	-2.625	-2.4521	-3.0563	-2.3917	-2.7313	-3.025	-2.4271	-2.8667	-2.8333	-2.5083	-2.9646	-2.7	-2.4854	-3.0646	-67.015	126.114	91.558	199.092	-91.746	-15.891	137.045	-2.827	152.167	25.810	-24.928	177.062	46.431	205.769	251.844	251.919	0.00033408	0.00031116	0.00054483	266.73	1.9497e-07	9.8038e-06	286.68	86.141	1.1379e-06	1.1218e-05	116.38	43.391	28.651	11.912	1.7311e-05	20.556	0.0033437	0.0034617	0.00090678	539.52	3.8601e-05	3.8122e-05	575.86	181.75	3.9073e-05	3.817e-05	268.39	95.795	84.23	30.208	3.5147e-05	44.337	-88.174	21.669	-9.389	-87.819	234.327	2.604	-88.660	-83.026	20.981	21.442	-84.410	-79.177	-77.774	-72.871	16.555	-75.746	-8191	255	
18141.238	1	1	0	0	0.18847	0.093263	0.20773	0.14492	0.13397	0.33595	0.10211	0.19505	0.26655	0.065414	0.25401	0.12621	0.15794	0.13391	0.11615	0.067254	-2.1833	-2.8812	-2.6646	-2.4583	-3.0563	-2.5792	-2.5083	-3.175	-2.475	-2.7271	-2.9104	-2.4042	-3.1917	-2.6229	-2.2396	-3.0167	73.052	49.542	78.945	222.951	-20.576	140.664	-100.222	-14.580	-45.735	-37.438	159.650	115.049	-68.061	210.496	-5.779	114.218	0.00039746	0.00074662	0.00045094	272.12	2.5032e-06	9.8345e-06	287.51	85.255	9.4373e-06	6.2993e-06	116.68	42.856	29.361	11.814	1.4529e-05	20.421	0.0034825	0.0033917	0.00087927	547.79	3.8843e-05	3.6769e-05	564.22	185.13	3.9442e-05	3.7607e-05	266.3	99.266	86.121	30.548	3.5828e-05	46.579	182.576	-100.116	-23.985	-88.411	51.638	48.789	-89.974	-83.102	26.122	64.032	-85.347	-79.240	-77.512	-72.966	33.785	-75.394	-8191	255	
18141.336	1	1	0	0	0.041047	0.19095	0.25473	0.10588	0.098195	0.21843	0.18205	0.13621	0.2522	0.16284	0.19633	0.10043	0.18674	0.22765	0.14188	0.41286	-2.0104	-2.7	-2.8771	-2.2375	-3.0771	-2.9	-2.5042	-3.1021	-2.7438	-2.8667	-2.9875	-2.2979	-2.9667	-2.7354	-2.6	-3.1813	176.792	138.261	252.519	-68.654	178.231	111.416	176.019	211.705	160.763	50.384	216.373	46.083	132.820	73.417	-43.659	155.427	0.00031709	0.00095716	0.00013638	267.86	8.2882e-06	5.7092e-06	282.67	85.749	8.9317e-06	1.0519e-05	116.36	43.189	29.138	11.935	1.1865e-05	20.602	0.0036326	0.0034943	0.00090547	575.14	4.0125e-05	3.7452e-05	565.82	192.44	3.8902e-05	3.6681e-05	262.08	100.26	82.673	29.407	3.4161e-05	46.604	64.658	15.605	76.422	-88.695	-13.710	53.951	-89.695	-83.018	104.383	29.758	-84.528	-79.199	-77.884	-73.202	257.034	-75.503	-8191	255	
18141.430	1	1	0	0	0.12858	0.1323	0.12616	0.053726	0.15375	0.28228	0.13785	0.18407	0.086221	0.23746	0.17028	0.096508	0.12876	0.15748	0.1567	0.054258	-2.2708	-2.5708	-3.1229	-2.3375	-3.075	-2.875	-2.3979	-3.1188	-2.7646	-2.5104	-3.0604	-2.3792	-2.825	-2.725	-2.3479	-3.1437	-22.040	-90.730	-22.650	118.977	207.916	171.565	2.451	124.126	-100.742	150.667	97.399	204.243	-84.742	180.404	3.252	160.032	0.00042721	0.00098461	0.000244	268.65	8.5864e-06	1.3849e-05	287.23	85.704	1.9263e-05	1.5309e-05	116	44.083	29.142	12.11	9.3212e-06	21.155	0.0033785	0.0032574	0.00087112	573.43	3.7369e-05	3.4978e-05	561.68	192.2	3.6579e-05	3.4735e-05	264.47	101.3	81.009	28.921	3.49e-05	46.995	-44.147	-84.884	123.083	-88.418	-40.185	43.466	-89.535	-82.825	95.028	24.529	-85.339	-79.177	-76.938	-72.453	220.058	-75.674	-8191	255	
18141.527	1	1	0	0	0.043362	0.096501	0.32183	0.31365	0.11655	0.26112	0.10196	0.088811	0.16031	0.13264	0.32624	0.18634	0.096352	0.068612	0.13092	0.19282	-2.1188	-2.45	-2.9417	-2.3979	-2.7917	-2.7958	-2.4583	-2.9604	-2.675	-2.5021	-2.9771	-2.4813	-2.6896	-2.7521	-2.3375	-2.9542	67.612	209.925	184.781	-94.229	179.813	74.011	69.163	-64.673	157.098	-76.974	214.744	191.204	12.648	109.831	79.652	-93.027	0.00056452	0.0011494	0.00029668	273.16	7.9042e-06	1.1327e-05	289.52	88.007	1.1169e-05	1.0419e-05	118.56	45.364	29.541	12.188	2.3541e-05	21.423	0.0032262	0.0030872	0.00088796	569.27	3.5547e-05	3.3193e-05	574.22	191.97	3.5468e-05	3.367e-05	274.9	101.98	80.398	28.809	3.6977e-05	47.154	36.198	7.768	172.395	-88.713	3.760	79.131	-89.986	-82.755	86.544	26.911	-85.318	-79.519	-78.285	-73.010	174.773	-75.141	-8191	255	
18141.623	1	1	0	0	0.35846	0.2454	0.13304	0.11064	0.14258	0.089116	0.027773	0.078508	0.25537	0.16531	0.13128	0.23847	0.0897	0.15618	0.10164	0.11492	-2.2687	-2.575	-3.2188	-2.4479	-2.5917	-2.9562	-2.3646	-3.1833	-2.7417	-2.3729	-2.8646	-2.5396	-2.6125	-3.0062	-2.3708	-2.9396	43.844	194.483	-73.718	225.232	256.442	-36.126	57.807	104.894	225.070	40.207	192.212	175.528	-92.366	167.791	-28.019	187.378	0.00036355	0.00055214	0.00053085	277.42	1.0879e-05	2.3562e-06	288.63	88.342	1.7845e-05	1.1302e-05	118.5	45.131	29.688	12.091	1.5663e-05	21.139	0.0032064	0.0030878	0.00095659	573.08	3.5775e-05	3.3818e-05	593.95	192.3	3.5063e-05	3.3693e-05	280.49	100.14	78.859	28.746	3.7852e-05	46.013	-33.503	119.922	170.459	-88.801	-18.102	71.667	-89.296	-83.151	102.355	-55.000	-85.296	-79.454	-78.060	-73.470	193.285	-75.312	-8191	255	
18141.742	1	1	0	0	0.079229	0.26974	0.28912	0.16725	0.045979	0.25021	0.19779	0.28697	0.074162	0.13981	0.17256	0.037885	0.15697	0.062399	0.10569	0.086893	-2.4	-2.4042	-3.0229	-2.6979	-2.6104	-2.9813	-2.4	-2.9521	-2.7875	-2.3729	-3.0104	-2.6417	-2.4729	-3.1937	-2.6188	-2.9354	2.870	-54.573	-7.671	-86.766	19.823	45.038	105.102	212.199	247.162	137.041	243.320	200.014	205.205	8.925	68.681	-5.001	0.00022063	0.0012488	0.00014051	279.03	1.3355e-05	1.6663e-05	288.63	88.542	4.0081e-06	1.3879e-05	119.74	45.045	29.838	12.296	1.1731e-05	21.56	0.0030676	0.0030585	0.00096103	555.63	3.3379e-05	3.3231e-05	589.93	185.17	3.2799e-05	3.3361e-05	278.99	96.801	75.752	28.989	3.6927e-05	44.838	29.381	163.640	239.479	-88.562	-77.986	184.062	-89.594	-83.412	63.889	191.453	-84.526	-79.120	-77.803	-73.075	80.635	-75.292	-8191	255	
18141.840	1	1	0	0	0.19077	0.061183	0.1996	0.038656	0.091385	0.15359	0.059005	0.35996	0.084778	0.05436	0.15281	0.072172	0.023987	0.17539	0.19419	0.22361	-2.4729	-2.4375	-3.0938	-2.6854	-2.6396	-3.1188	-2.6417	-3.1	-3	-2.4313	-3.0563	-2.8208	-2.5042	-3.1104	-2.6937	-2.6333	228.344	-47.409	-87.480	168.943	-50.393	43.923	130.745	-85.668	10.868	58.237	238.300	128.646	94.774	115.337	-10.865	-42.867	0.0002042	0.001698	8.6874e-05	279.08	4.8254e-06	2.0965e-05	298.11	89.378	1.0575e-05	1.2267e-05	122.15	45.567	30.262	12.337	3.5502e-06	21.86	0.0028777	0.0030989	0.00092974	543.14	3.139e-05	3.4e-05	581.08	181.15	3.066e-05	3.3874e-05	272.21	94.629	73.535	29.378	3.4904e-05	43.838	254.836	158.377	181.789	-88.766	49.255	215.280	-89.447	-82.516	126.602	220.214	-84.782	-79.573	-77.989	-72.708	33.584	-75.223	-8191	255	
18141.936	1	1	0	0	0.14305	0.14548	0.15698	0.088749	0.2041	0.2106	0.17189	0.076416	0.12135	0.10552	0.009347	0.068215	0.11497	0.28141	0.17864	0.10171	-2.5417	-2.3688	-2.7708	-2.8604	-2.6562	-3.15	-2.4437	-2.8021	-3.0833	-2.4542	-3.0521	-2.7875	-2.4042	-3.0146	-2.7958	-2.7354	-67.644	16.031	224.143	51.278	-42.078	94.215	-67.636	224.951	-44.041	74.359	93.678	-66.749	258.150	100.343	-42.410	180.309	0.00021348	0.0015538	0.00038168	280.64	1.0598e-05	9.6999e-06	300.42	90.649	9.1596e-06	9.5375e-06	124.25	45.944	29.733	12.458	8.1037e-06	21.778	0.0027461	0.0031595	0.00088173	533.65	3.0806e-05	3.5259e-05	575.81	179.98	3.0945e-05	3.5441e-05	270.54	93.982	74.733	30.098	3.3999e-05	43.22	2.631	145.322	-60.851	-88.563	158.583	210.771	-89.274	-83.602	2.212	205.807	-84.987	-78.377	-77.501	-72.940	84.931	-75.416	-8191	255	
18142.031	1	1	0	0	0.12404	0.22993	0.051781	0.1654	0.086498	0.27281	0.060241	0.102	0.25195	0.2151	0.36411	0.054192	0.12673	0.052042	0.016705	0.17341	-2.8354	-2.3083	-2.9896	-2.8021	-2.5	-3.1521	-2.8271	-2.5271	-3.1896	-2.4313	-2.9271	-2.9854	-2.3917	-3.0625	-2.625	-2.7417	32.276	141.830	2.525	227.823	50.733	52.835	-68.744	-4.512	-88.779	19.247	257.789	101.450	51.975	93.020	-64.018	10.043	0.0005013	0.00051566	0.00025124	280.1	1.0137e-05	6.6373e-06	297.32	89.371	1.8169e-05	4.3241e-06	123.45	45.29	29.789	12.662	9.3264e-06	21.97	0.0028419	0.0032738	0.00086155	525.21	3.1791e-05	3.596e-05	563.87	175.99	3.2346e-05	3.5727e-05	265.11	92.092	76.704	30.11	3.2932e-05	42.769	-95.292	179.602	16.521	-88.557	215.045	-18.862	-89.319	-82.579	-98.785	68.599	-84.393	-79.041	-78.220	-72.713	90.482	-75.197	-8191	255	
18142.104	1	1	0	0	0.20981	0.28262	0.2501	0.3215	0.077632	0.089689	0.19305	0.010704	0.086354	0.14327	0.12604	0.020125	0.31605	0.36036	0.13461	0.061188	-2.9271	-2.375	-2.7188	-2.9979	-2.4688	-2.9125	-2.6437	-2.5875	-3.15	-2.525	-2.9604	-2.8479	-2.4042	-3.0229	-2.8396	-2.4833	41.441	45.155	240.681	236.988	172.260	-51.491	61.623	-58.115	80.247	241.585	138.882	167.917	206.156	117.170	194.348	-5.283	0.00062664	0.0010007	0.00029836	280.05	1.7062e-05	1.2395e-05	296.95	89.914	1.346e-05	7.7076e-06	121.9	45.919	29.972	12.736	1.3611e-05	22.048	0.0029882	0.0032445	0.00083721	520.92	3.3835e-05	3.5406e-05	560.62	176.24	3.4551e-05	3.5462e-05	265.11	93.526	80.833	30.251	3.3313e-05	43.763	258.499	38.878	-1.695	-88.274	146.753	38.801	-88.948	-82.762	-68.692	-51.450	-84.481	-78.869	-78.189	-73.166	-68.107	-75.248	-8191	255	
18142.225	1	1	0	0	0.13473	0.22683	0.11114	0.19442	0.22878	0.10383	0.036738	0.091892	0.085461	0.08672	0.16311	0.082515	0.34181	0.20598	0.10889	0.072628	-2.9021	-2.6021	-2.7062	-3.0542	-2.5646	-3.0021	-2.7562	-2.5917	-3.1292	-2.6042	-2.7521	-3.1104	-2.4146	-2.95	-3.0625	-2.3979	125.631	-80.369	153.279	239.628	95.661	-60.270	152.682	223.756	213.362	-22.154	221.103	20.228	190.797	170.678	131.796	-13.106	0.00020721	0.0010168	0.00027618	276.83	7.0145e-06	1.2016e-05	297.68	89.723	6.8672e-06	1.5584e-05	125.29	46.399	30.237	12.685	7.545e-06	22.069	0.0032556	0.0032687	0.00085447	534.81	3.6656e-05	3.5703e-05	564.72	180.19	3.6284e-05	3.4452e-05	263.37	95.121	81.933	29.543	3.1855e-05	44.388	6.915	-59.555	-13.020	-88.236	188.433	12.108	-88.449	-82.576	3.330	38.369	-84.342	-78.903	-76.434	-72.589	76.744	-74.712	-8191	255	
18142.318	1	1	0	0	0.23601	0.4049	0.080375	0.21218	0.46965	0.3215	0.16701	0.15388	0.13637	0.073669	0.25141	0.19267	0.24862	0.1482	0.060238	0.17402	-2.8083	-2.5458	-2.6542	-3.0708	-2.425	-2.9083	-3.1271	-2.3646	-2.9562	-2.6937	-2.6396	-3.1604	-2.4042	-2.9062	-3.2375	-2.4104	-28.258	121.136	-71.781	44.716	-3.120	155.773	-100.178	248.288	-100.651	236.978	54.658	-49.432	-79.928	238.854	74.426	210.651	0.00019925	0.000445	0.00015109	278.91	1.2609e-05	1.214e-05	301.29	90.595	5.771e-06	1.1914e-05	123.8	46.066	30.831	12.742	7.0075e-06	22.068	0.0032469	0.0030779	0.00081102	541.9	3.6092e-05	3.3779e-05	555.96	183.06	3.5786e-05	3.2983e-05	258.65	97.376	81.363	29.137	3.0775e-05	45.225	138.205	-7.417	-35.719	-88.130	-10.594	158.036	-88.929	-83.005	66.810	19.258	-83.751	-78.617	-77.607	-73.428	-36.597	-75.486	-8191	255	
18142.416	1	1	0	0	0.33034	0.23882	0.10927	0.25393	0.14701	0.12696	0.31909	0.22521	0.10232	0.36006	0.24626	0.41427	0.076767	0.22779	0.23419	0.35009	-2.6958	-2.6292	-2.4188	-3.1375	-2.4896	-2.7979	-3.1625	-2.5021	-3.0521	-2.7667	-2.5146	-3.0375	-2.5083	-2.6188	-2.8375	-2.4062	57.827	-22.212	-25.184	119.670	69.891	210.434	233.499	171.900	258.483	99.208	132.989	254.270	-72.926	184.382	-89.189	224.010	0.00042629	0.0008979	0.0002402	276.84	5.0843e-06	7.148e-06	296.5	89.986	1.1352e-05	1.1216e-05	122.93	46.156	30.844	12.753	7.1493e-06	22.033	0.0031607	0.0029586	0.00077641	547.68	3.4324e-05	3.2061e-05	543.36	185.88	3.4352e-05	3.1828e-05	256.08	99.033	78.942	28.508	3.0827e-05	46.397	90.332	-39.291	256.358	-88.009	-36.124	88.709	-89.090	-83.128	128.059	24.543	-83.505	-78.868	-77.297	-72.798	196.317	-75.226	-8191	255	
18142.535	1	1	0	0	0.11562	0.09012	0.10824	0.23865	0.15728	0.12952	0.13071	0.18848	0.11131	0.088695	0.12709	0.1326	0.1176	0.15599	0.16741	0.14739	-2.575	-2.9062	-2.2229	-2.9188	-2.4688	-2.6833	-3.2271	-2.4313	-2.9188	-2.7771	-2.5271	-3.1854	-2.6333	-2.6958	-3.1042	-2.6354	149.698	140.927	22.297	252.156	170.093	-77.356	23.506	-0.699	40.511	16.502	206.082	236.327	69.721	247.576	79.512	102.398	0.00050862	0.0011973	0.00025478	280.75	1.3132e-05	1.486e-05	299.21	92.995	1.4012e-05	1.4492e-05	125.43	47.342	31.371	12.943	2.768e-05	22.572	0.0030831	0.0029191	0.00080437	565.2	3.3801e-05	3.1753e-05	556.17	190.07	3.3044e-05	3.0514e-05	260.23	99.848	76.332	27.635	3.0912e-05	45.727	95.677	-22.680	178.626	-88.091	-71.399	0.340	-89.086	-83.458	141.913	20.290	-84.723	-78.736	-77.434	-72.790	197.584	-75.044	-8191	255	
18142.631	1	1	0	0	0.10882	0.2025	0.19713	0.091538	0.14578	0.1993	0.09874	0.16207	0.18922	0.099365	0.13023	0.066738	0.30477	0.20093	0.19277	0.24863	-2.4917	-2.8125	-2.4271	-3.1104	-2.7292	-2.6396	-3.0542	-2.4292	-2.7188	-2.9354	-2.3833	-3.1271	-2.8208	-2.6604	-3.0146	-2.4125	215.840	-20.554	223.600	83.209	-11.543	209.950	-83.741	214.060	220.372	36.179	25.996	117.087	174.598	-46.111	113.221	166.635	0.00014496	0.00088837	0.00039525	282.38	9.0374e-06	1.4083e-05	302.54	93.921	1.6169e-06	5.2742e-06	126.25	47.992	31.504	13.092	1.6736e-05	23.031	0.0028133	0.0026716	0.00080262	554.34	3.0926e-05	2.9352e-05	561.09	185.83	3.0297e-05	2.8084e-05	260.53	95.939	71.931	26.423	3.0132e-05	43.494	98.586	-68.525	175.285	-88.415	-77.616	27.016	-88.890	-82.907	179.496	-25.505	-84.226	-78.993	-77.218	-72.519	220.993	-75.016	-8191	255	
18142.703	1	1	0	0	0.21415	0.27805	0.10269	0.11293	0.25686	0.019465	0.21544	0.17832	0.28217	0.24743	0.22301	0.21651	0.21058	0.13754	0.18469	0.11899	-2.4062	-2.9771	-2.2854	-3.1833	-2.8167	-2.4458	-3.1	-2.5667	-2.5187	-2.9625	-2.5479	-2.8063	-2.6354	-2.4208	-3.0833	-2.5563	226.131	216.450	-63.686	78.134	157.525	16.632	-44.418	208.091	-36.835	26.577	100.890	-46.143	-48.598	85.934	-30.308	224.088	0.00012048	0.00026124	0.00037021	283.49	6.4512e-06	1.1413e-05	302.91	92.21	6.5423e-06	6.6756e-06	125.95	46.709	30.978	12.781	3.6956e-06	22.415	0.0024995	0.0023971	0.00076011	519.6	2.6989e-05	2.6089e-05	546.3	172.78	2.6441e-05	2.5426e-05	251.76	89.105	66.538	25.126	2.8058e-05	40.393	-74.646	238.236	182.226	-88.532	-44.481	150.722	-88.758	-82.759	112.998	201.951	-84.492	-78.683	-76.779	-72.492	129.859	-74.774	-8191	255	
18142.824	1	1	0	0	0.19568	0.087502	0.1467	0.19887	0.27865	0.25133	0.10302	0.21107	0.052168	0.019165	0.13776	0.1387	0.17217	0.094859	0.1289	0.29879	-2.2562	-2.9479	-2.2958	-2.6458	-2.6896	-2.5875	-3.0062	-2.5333	-2.5479	-3.075	-2.5375	-2.775	-2.8833	-2.4396	-2.9104	-2.6729	225.367	252.169	220.849	162.727	-56.736	81.552	136.873	46.275	-41.612	93.037	50.444	162.254	-84.134	-95.550	51.470	33.205	0.00015503	0.0017921	8.0626e-05	279.72	1.7015e-05	1.134e-05	301.2	92.086	7.1958e-06	1.4886e-05	127.41	46.873	30.793	12.663	1.9817e-06	22.357	0.0021914	0.0022299	0.00070785	486.92	2.374e-05	2.45e-05	526.59	162.06	2.3594e-05	2.4415e-05	243.29	84.824	63.774	25.118	2.693e-05	39.332	154.754	167.333	7.196	-88.045	-35.227	200.063	-88.619	-81.850	117.821	183.940	-84.104	-78.871	-77.353	-72.509	227.799	-74.733	-8191	255	
18142.920	1	1	0	0	0.085145	0.11511	0.14811	0.1334	0.16508	0.2021	0.18951	0.25305	0.20227	0.19017	0.092513	0.015042	0.11283	0.1048	0.031864	0.048113	-2.1437	-2.9667	-2.4708	-2.8729	-3.15	-2.4083	-2.9604	-2.5917	-2.4562	-3.0958	-2.4229	-2.6125	-3.0417	-2.4313	-2.8979	-2.7562	239.275	192.377	125.871	219.007	-56.282	-20.442	213.430	258.932	-64.381	135.115	158.674	-51.311	-43.527	-23.362	83.288	122.699	0.00021131	0.00090434	0.00026062	281.68	4.5641e-06	1.8189e-05	306.73	92.502	8.7034e-06	1.4313e-05	129.54	47.539	30.65	12.589	9.0953e-06	22.588	0.0020771	0.0023083	0.00068981	481.51	2.2971e-05	2.5848e-05	527.22	161.63	2.3234e-05	2.6135e-05	243.4	84.831	64.252	25.988	2.6583e-05	39.235	-97.911	142.028	-47.982	-88.116	-4.102	151.598	-88.939	-82.366	150.440	210.124	-84.434	-79.229	-76.815	-73.060	68.406	-74.641	-8191	255	
18143.016	1	1	0	0	0.029099	0.19855	0.19613	0.19572	0.29107	0.22403	0.27654	0.37655	0.32092	0.16102	0.16235	0.36765	0.34887	0.070097	0.13625	0.1036	-1.9875	-2.9833	-2.5417	-2.7313	-2.9813	-2.3146	-2.8458	-2.7375	-2.4	-2.975	-2.7146	-2.5792	-3.0021	-2.5438	-2.9083	-3.0042	191.599	167.842	184.501	142.792	242.142	98.148	216.528	217.171	181.665	163.084	118.976	126.963	-97.928	153.864	-88.897	1.839	0.0002692	0.0011514	0.00025145	283.52	1.4711e-05	7.8903e-06	309.16	94.467	8.04e-06	1.0676e-05	129.45	48.218	30.714	12.69	1.5693e-05	22.713	0.0021132	0.0024745	0.00067682	481.78	2.3659e-05	2.7624e-05	527.08	162.76	2.426e-05	2.7888e-05	242.45	85.148	66.239	26.806	2.6359e-05	39.304	-55.326	173.803	-37.802	-87.939	211.015	131.765	-88.261	-82.104	-41.531	236.107	-84.084	-79.062	-77.007	-72.849	15.593	-74.757	-8191	255	
18143.137	1	1	0	0	0.11944	0.020946	0.20033	0.14071	0.0040659	0.1298	0.14369	0.093545	0.12728	0.23627	0.19843	0.23621	0.2951	0.04995	0.13524	0.071544	-1.9937	-3.1042	-2.4083	-2.7375	-3.0896	-2.5875	-2.75	-2.9688	-2.3729	-3.1125	-2.5021	-2.6729	-3.0917	-2.525	-2.7875	-2.9833	84.063	21.791	227.256	-35.319	91.298	-22.923	135.465	157.952	158.685	3.516	184.808	157.058	220.504	104.458	168.529	63.055	0.0005189	0.00047753	0.00013885	281.55	1.2661e-05	1.9875e-06	306.46	93.982	1.5911e-05	8.0855e-06	128.76	46.658	30.262	12.614	7.342e-06	22.193	0.0022485	0.0025921	0.00066171	478.48	2.5059e-05	2.8157e-05	515.87	159.78	2.5374e-05	2.7763e-05	235.6	83.226	67.497	26.32	2.5421e-05	38.398	-96.806	19.457	-58.106	-88.556	131.709	91.164	-89.593	-82.692	-94.009	76.666	-84.395	-79.285	-77.992	-72.795	132.083	-75.148	-8191	255	
18143.230	1	1	0	0	0.31854	0.040006	0.20053	0.091227	0.28007	0.035208	0.084781	0.10451	0.056258	0.21342	0.27742	0.14442	0.1846	0.14711	0.12769	0.056631	-1.8729	-2.9042	-2.6854	-2.475	-3.1396	-2.4479	-2.7812	-3.0229	-2.4688	-3.0167	-2.8458	-2.3667	-3.0375	-2.3729	-2.7938	-3.0083	77.847	87.477	243.307	136.641	-45.281	-30.654	-42.033	212.493	204.221	151.808	-73.137	-82.322	-31.115	59.198	62.979	168.114	0.00044675	0.00028461	0.00010174	281.62	1.7698e-05	2.3912e-05	305.79	92.247	2.4069e-05	1.0211e-05	125.48	46.839	30.47	12.793	1.8366e-05	22.047	0.0023747	0.0025505	0.0006433	473.05	2.6762e-05	2.7506e-05	509.58	158.98	2.705e-05	2.713e-05	233.13	83.1	69.33	25.689	2.4298e-05	38.1	-75.599	136.920	32.999	-88.530	148.747	6.253	-89.329	-82.970	-92.210	86.865	-83.982	-79.335	-78.023	-73.452	68.600	-75.617	-8191	255	
18143.305	1	1	0	0	0.22585	0.18741	0.12	0.094395	0.22622	0.30334	0.28029	0.052843	0.27205	0.19617	0.087053	0.21995	0.18353	0.27829	0.079618	0.1899	-2.1063	-2.8229	-2.7292	-2.5458	-3.0375	-2.5875	-2.6271	-2.8854	-2.4917	-2.9396	-3.0167	-2.3604	-3.0104	-2.5271	-2.5479	-3.0125	251.059	190.397	5.532	152.122	-32.063	9.068	-20.613	203.068	192.463	-31.526	-31.341	154.711	230.994	226.915	84.457	161.076	0.00025213	0.0010689	0.00025789	281.9	4.134e-06	1.4442e-05	307.25	92.316	1.6893e-05	7.6299e-06	128.21	47.386	31.324	12.802	6.9136e-06	22.45	0.0024004	0.0023473	0.00060004	470.3	2.6639e-05	2.5297e-05	498.75	158.37	2.678e-05	2.4946e-05	226.58	82.894	68.6	24.727	2.277e-05	38.729	-38.959	-9.782	-68.041	-88.403	208.194	52.344	-89.047	-83.236	0.536	42.118	-85.186	-79.097	-77.808	-73.031	-16.353	-75.066	-8191	255	
18143.424	1	1	0	0	0.02803	0.18523	0.13853	0.16785	0.17831	0.27387	0.093203	0.32001	0.15636	0.014787	0.085829	0.045952	0.081235	0.11708	0.089236	0.12609	-2.0833	-2.8812	-2.9417	-2.4417	-3.0812	-2.7687	-2.4146	-2.9646	-2.3958	-2.6729	-3.1875	-2.6021	-2.9896	-2.6688	-2.5271	-3.0979	192.967	-75.088	31.819	-20.100	8.492	85.448	-87.272	255.110	194.818	128.419	46.339	207.306	74.048	-92.840	-8.444	177.649	0.00028308	0.00050409	0.00015372	282.08	5.1334e-06	1.1223e-05	310.47	92.221	1.6403e-05	1.3594e-05	128.88	47.255	30.741	12.75	5.3129e-07	22.08	0.0023867	0.0022423	0.00058103	480.03	2.6488e-05	2.4108e-05	496.37	161.32	2.609e-05	2.3877e-05	224.61	84.949	67.447	24.249	2.1923e-05	38.996	-39.410	-65.322	205.931	-88.797	140.464	78.546	-88.977	-82.784	178.596	70.054	-84.996	-79.238	-77.365	-72.688	107.256	-75.135	-8191	255	
18143.520	1	1	0	0	0.15485	0.17808	0.044105	0.10867	0.1237	0.15059	0.17826	0.20981	0.24886	0.066789	0.068116	0.10161	0.29883	0.065405	0.13166	0.23098	-2.025	-2.7229	-2.9562	-2.2333	-2.9771	-2.9146	-2.4333	-3.1375	-2.5625	-2.6958	-2.9292	-2.3146	-2.8563	-2.6375	-2.3354	-3.1104	116.154	-19.039	27.633	253.440	160.485	-56.027	78.870	226.536	-24.385	-94.266	146.385	33.255	96.046	4.424	-34.050	217.966	0.00014078	0.00081559	4.7064e-05	276.75	6.2947e-06	8.899e-06	303.75	91.165	1.2103e-05	8.8865e-06	124.87	46.353	30.424	12.631	1.5795e-05	22.173	0.0022341	0.0020797	0.0005431	475.32	2.4219e-05	2.2221e-05	479.86	160.37	2.4098e-05	2.2315e-05	218.62	84.144	64.467	23.46	2.1506e-05	38.982	31.520	-40.889	-20.481	-88.613	13.418	2.685	-89.192	-82.477	110.995	102.595	-84.364	-78.845	-77.784	-72.545	257.984	-75.208	-8191	255	
18143.615	1	1	0	0	0.12856	0.12175	0.11743	0.21315	0.19977	0.12554	0.30294	0.25308	0.21019	0.2438	0.13369	0.14847	0.16613	0.12492	0.16679	0.065106	-2.1896	-2.7812	-2.9479	-2.4062	-2.7021	-2.9042	-2.3604	-3.2354	-2.7208	-2.5167	-2.9729	-2.3875	-2.7771	-2.9333	-2.2521	-2.8292	65.840	122.311	-3.306	98.049	188.138	220.246	97.936	-52.081	152.035	151.190	171.734	-96.293	201.262	-30.886	-83.250	214.383	0.00021919	0.00041186	5.8308e-05	278.44	7.0921e-06	1.0401e-05	300.8	91.317	8.54e-06	9.1355e-06	124.32	46.586	30.453	12.682	3.6116e-06	22.35	0.0020931	0.0019911	0.00054897	477.7	2.2981e-05	2.1338e-05	483.63	160.8	2.2498e-05	2.1217e-05	220.54	83.555	62.488	22.939	2.2141e-05	38.872	47.667	22.976	153.706	-88.495	80.775	43.416	-89.281	-82.722	108.557	40.891	-84.614	-78.740	-78.161	-72.903	122.713	-75.173	-8191	255	
18143.713	1	1	0	0	0.27958	0.045466	0.0602	0.088459	0.11316	0.059827	0.30067	0.11612	0.10626	0.34928	0.17756	0.10682	0.13116	0.16867	0.18245	0.14381	-2.3521	-2.5146	-3.0167	-2.4979	-2.8167	-2.9896	-2.4292	-3.1292	-2.6042	-2.5667	-3.0771	-2.6208	-2.7646	-3.0646	-2.3333	-2.8354	-84.890	63.635	36.447	257.587	54.671	175.487	-90.065	202.485	186.085	-12.472	202.288	99.688	220.396	-74.162	201.545	232.774	0.00010964	0.00060226	0.00031947	280.36	9.0094e-06	1.2336e-06	300.86	92.669	1.3807e-05	8.5475e-06	126.24	47.222	30.575	12.622	9.2372e-06	22.557	0.0019832	0.0019178	0.00057462	476.66	2.2241e-05	2.0917e-05	497.58	160.97	2.2117e-05	2.122e-05	229.89	84.313	62.572	23.08	2.3668e-05	38.685	77.046	36.454	173.987	-88.072	-39.523	-53.540	-88.567	-82.513	107.486	72.456	-84.511	-78.833	-77.076	-72.720	232.689	-74.479	-8191	255	
18143.832	1	1	0	0	0.26085	0.097336	0.12927	0.22485	0.21916	0.16596	0.080743	0.14251	0.30542	0.2024	0.077808	0.16251	0.098414	0.14676	0.17012	0.19091	-2.2979	-2.4062	-2.8583	-2.6333	-2.6625	-2.9521	-2.4021	-3.1063	-2.7625	-2.4667	-3.1417	-2.5542	-2.5208	-3.05	-2.4375	-2.8854	150.201	-16.410	74.183	3.228	-29.531	-18.930	215.083	96.718	-29.687	-16.022	58.282	13.321	-26.715	168.646	51.851	-45.787	0.00019674	0.00058142	0.00030496	282.79	1.3919e-05	3.3762e-06	303.06	92.456	1.7282e-05	8.545e-06	126.6	47.005	30.53	12.324	8.9882e-06	22.31	0.0019402	0.0019068	0.00060473	471.97	2.1514e-05	2.0738e-05	505.28	157.96	2.1137e-05	2.1048e-05	231.6	82.094	61.289	23.207	2.4749e-05	38.006	19.290	59.926	171.410	-87.807	-80.371	226.592	-88.810	-82.170	132.522	172.397	-83.947	-78.170	-76.596	-71.859	159.116	-74.604	-8191	255	
18143.930	1	1	0	0	0.32848	0.32583	0.15757	0.13782	0.34294	0.081221	0.21658	0.084264	0.19194	0.041679	0.22629	0.076533	0.15241	0.084087	0.11807	0.019869	-2.5271	-2.5312	-3.0646	-2.4958	-2.4896	-3.2229	-2.6437	-2.8354	-2.7146	-2.3542	-3.1167	-2.7625	-2.4875	-3.1917	-2.5687	-2.7771	10.476	-29.815	-60.395	198.061	-29.464	237.554	21.839	62.780	47.014	-13.889	86.800	257.279	163.031	174.295	47.030	247.549	0.00044181	0.00073675	8.6446e-05	278.28	3.1404e-06	7.1771e-06	298.54	91.393	9.1272e-06	1.0161e-05	124.5	46.673	30.582	12.344	1.0476e-05	22.147	0.0019294	0.0020279	0.00064541	467.5	2.1854e-05	2.2531e-05	508.43	156.4	2.1375e-05	2.2839e-05	233.2	80.8	61.011	23.901	2.4943e-05	37.605	61.706	236.396	47.493	-88.252	238.108	176.414	-88.341	-82.413	175.844	184.480	-84.601	-78.887	-77.908	-73.202	-17.137	-74.758	-8191	255	
18144.000	1	1	0	0	0.12505	0.2317	0.25983	0.11389	0.18749	0.013725	0.26418	0.084298	0.17933	0.13649	0.19539	0.33472	0.16809	0.021373	0.22074	0.1262	-2.6292	-2.2708	-2.8521	-2.7396	-2.55	-3.0938	-2.5292	-2.825	-3.0042	-2.2958	-2.9792	-2.8187	-2.5146	-2.9292	-2.5375	-2.9062	100.862	114.815	-88.184	216.427	246.921	-90.137	-43.417	76.470	211.043	203.126	124.814	197.731	243.367	-90.132	32.741	191.485	0.00047442	0.00094115	0.00014634	280.6	8.9453e-06	1.5691e-05	305.54	91.069	5.3251e-06	1.0071e-05	127.69	47.084	30.263	12.51	1.5416e-05	22.277	0.0019178	0.002186	0.00064606	464.66	2.1796e-05	2.4547e-05	509.67	156.61	2.1878e-05	2.5264e-05	236.3	82.15	62.427	25.289	2.5326e-05	38.172	8.973	91.290	23.907	-88.886	15.413	204.607	-89.131	-82.725	220.638	257.791	-84.284	-78.868	-77.439	-72.824	31.613	-74.753	-8191	255	
18144.096	1	1	0	0	0.15582	0.12227	0.075566	0.19567	0.29253	0.14636	0.12655	0.24949	0.16505	0.070548	0.31147	0.31871	0.26733	0.22605	0.010399	0.27299	-2.6	-2.4604	-3.0021	-2.7917	-2.5458	-2.9625	-2.6354	-2.7167	-3.0187	-2.3375	-2.775	-2.9354	-2.3333	-3.0938	-2.8708	-2.5938	168.492	-9.743	-60.020	2.164	217.660	-95.046	103.482	258.470	-76.531	-13.735	-51.754	-0.494	163.267	-90.086	21.330	242.230	0.00024353	0.00062889	0.00020055	281.48	1.8931e-06	8.0143e-06	306.09	91.156	1.3368e-05	8.4312e-06	127.33	47.037	30.329	12.684	9.2618e-06	22.458	0.0020087	0.0023897	0.00064039	466.37	2.2579e-05	2.613e-05	506.14	156.34	2.2571e-05	2.6241e-05	232.62	81.425	63.921	25.797	2.4189e-05	37.882	-68.939	119.607	-1.251	-88.347	-99.620	246.873	-89.230	-82.306	-68.911	219.184	-84.302	-79.354	-77.770	-72.625	40.851	-74.783	-8191	255	
18144.217	1	1	0	0	0.20379	0.041754	0.19481	0.21921	0.18815	0.2023	0.16035	0.060633	0.13443	0.060546	0.073118	0.069658	0.11027	0.019782	0.072454	0.13812	-2.6063	-2.275	-2.8229	-2.9062	-2.5375	-3.0521	-2.8292	-2.4854	-3.0979	-2.5521	-2.8583	-2.95	-2.4062	-3.1458	-2.6583	-2.4854	11.773	-17.564	234.540	230.733	248.483	32.505	76.930	72.497	-48.313	27.000	151.901	112.230	46.055	19.582	223.903	217.110	0.00064918	0.00014504	0.00033376	280.73	1.6596e-05	1.7309e-06	302.76	91.356	2.3473e-05	4.9229e-06	124.08	46.718	30.004	12.657	6.5762e-06	22.207	0.0020916	0.0024186	0.00061279	461.03	2.3644e-05	2.6185e-05	496.7	154.13	2.3807e-05	2.5981e-05	227.83	80.417	65.076	25.264	2.2895e-05	37.035	-82.230	78.353	-36.592	-87.908	156.038	-55.563	-88.894	-82.743	-100.172	138.554	-83.939	-78.356	-77.907	-72.334	114.781	-74.422	-8191	255	
18144.312	1	1	0	0	0.23641	0.093073	0.063838	0.22981	0.07717	0.15166	0.095645	0.14439	0.21272	0.17138	0.13176	0.10325	0.35255	0.34275	0.021106	0.098863	-2.7812	-2.475	-2.8104	-2.9833	-2.2812	-3.1354	-2.6229	-2.5854	-2.9958	-2.5583	-2.6312	-2.9771	-2.4146	-2.9562	-2.8333	-2.6521	156.041	11.524	127.988	245.341	26.203	203.501	42.786	251.264	194.338	-89.028	-52.762	227.414	-93.368	202.456	47.908	131.586	0.00062536	0.00092984	0.00013528	274.68	7.6401e-06	8.4289e-06	299.01	90.431	9.7521e-06	1.1969e-05	124.83	46.254	29.855	12.686	1.9424e-05	22.174	0.0021561	0.0022677	0.00057423	448.83	2.4024e-05	2.4405e-05	484.46	151.11	2.4372e-05	2.4045e-05	221.09	79.141	65.441	24.391	2.1656e-05	37.002	-96.763	-19.347	61.769	-87.874	163.939	10.798	-88.438	-82.559	-63.803	93.307	-83.943	-78.575	-76.791	-72.747	47.429	-74.724	-8191	255	
18144.408	1	1	0	0	0.094987	0.13907	0.40297	0.077384	0.071952	0.1987	0.096715	0.11761	0.22007	0.3385	0.19293	0.2554	0.24687	0.17501	0.090752	0.18143	-2.8833	-2.55	-2.475	-3.0312	-2.3917	-2.8833	-3.0021	-2.3479	-3.0875	-2.5917	-2.6937	-3.0271	-2.45	-2.9083	-2.8563	-2.5708	-7.931	123.634	40.564	145.548	99.019	171.513	227.608	255.431	127.737	47.565	246.993	152.252	-55.837	104.354	80.910	-40.834	0.0002529	0.00099669	0.0003464	277.09	1.0097e-05	1.1426e-05	302.28	90.811	1.0126e-05	1.1569e-05	127.92	47.247	30.502	12.823	1.3854e-05	22.496	0.0022123	0.00214	0.00055276	454.11	2.4736e-05	2.3184e-05	481.18	153.68	2.4881e-05	2.282e-05	220.29	81.033	66.394	23.975	2.0925e-05	37.977	2.387	-23.214	-19.599	-87.916	88.759	39.923	-88.553	-82.742	-5.399	31.546	-84.696	-79.323	-77.392	-72.912	59.912	-75.957	-8191	255	
18144.504	1	1	0	0	0.15434	0.2336	0.089253	0.18891	0.06701	0.099731	0.13664	0.11185	0.30914	0.1893	0.076333	0.31565	0.069569	0.080548	0.3112	0.30491	-2.5729	-2.4625	-2.5292	-3.0146	-2.4646	-2.8937	-2.9604	-2.4813	-2.9062	-2.5938	-2.5438	-3.0187	-2.5208	-2.8792	-2.8812	-2.5083	138.459	83.327	91.847	150.218	19.621	17.195	187.840	199.034	29.562	135.031	-60.086	237.737	199.640	-89.587	65.509	180.483	0.00016391	0.0012576	5.5161e-05	280.23	3.0156e-06	5.7732e-06	308.39	92.921	5.5069e-06	9.307e-06	130.74	48.166	31.588	12.928	5.6854e-07	22.748	0.0022374	0.0020468	0.00054015	467.44	2.4582e-05	2.2321e-05	482.51	158.42	2.4439e-05	2.1848e-05	220.5	83.525	65.228	23.639	2.0269e-05	38.749	60.393	-36.732	-36.062	-88.186	-35.241	104.227	-88.657	-82.647	69.933	56.785	-84.019	-78.980	-78.313	-72.954	-81.005	-75.294	-8191	255	
18144.600	1	1	0	0	0.072227	0.13446	0.28716	0.098621	0.0055276	0.10789	0.099093	0.20811	0.24852	0.18134	0.13999	0.056036	0.19611	0.15432	0.10476	0.17483	-2.5583	-2.7875	-2.5708	-2.9958	-2.6167	-2.6562	-2.9813	-2.5583	-2.7812	-2.7896	-2.4646	-3.0354	-2.5583	-2.4667	-3	-2.55	-96.592	249.277	253.646	-43.915	14.646	215.779	92.150	125.323	-63.305	49.632	160.848	241.209	-4.492	174.360	-92.775	141.378	0.00023184	0.00076723	0.00013313	280.61	8.0039e-06	3.745e-06	304.36	92.564	1.8311e-05	8.7344e-06	127.19	47.795	31.056	12.759	7.3702e-06	22.326	0.0020997	0.0019267	0.00051573	468.96	2.2708e-05	2.0858e-05	473.82	157.79	2.2284e-05	2.0279e-05	215.38	83.169	62.593	23.076	2.0801e-05	39.148	87.338	-46.764	87.311	-88.721	-48.723	253.088	-88.979	-83.254	79.897	77.574	-84.701	-79.190	-77.101	-73.070	257.922	-74.858	-8191	255	
18144.695	1	1	0	0	0.18902	0.31163	0.058877	0.31647	0.0029028	0.13884	0.23876	0.052365	0.12976	0.048925	0.19127	0.063413	0.14558	0.11343	0.2051	0.19073	-2.4938	-2.8333	-2.3917	-2.8417	-2.5604	-2.6417	-3.1458	-2.4167	-2.8979	-2.9313	-2.4479	-3.075	-2.7	-2.7	-3.0812	-2.4833	168.781	84.362	246.885	153.860	205.168	232.450	95.847	203.817	-78.014	-15.459	104.517	145.113	144.030	-10.814	178.552	-17.285	0.00039206	0.00012805	0.00026678	278.79	1.0922e-05	1.8158e-06	303.89	91.81	1.115e-05	4.7128e-06	126.59	47.746	30.949	12.781	9.6673e-06	22.633	0.0020538	0.0019506	0.00055439	479.98	2.2521e-05	2.1221e-05	485.27	160.42	2.209e-05	2.0375e-05	221.82	84.038	61.415	22.768	2.1579e-05	38.671	53.350	229.482	144.321	-88.438	-30.167	-38.216	-89.376	-82.910	129.432	253.492	-84.881	-79.178	-77.894	-72.401	218.399	-75.106	-8191	255	
18144.816	1	1	0	0	0.19865	0.22307	0.085448	0.035231	0.43976	0.10216	0.014304	0.094765	0.29112	0.1425	0.22759	0.11272	0.10436	0.17688	0.099414	0.18569	-2.5438	-2.9333	-2.4083	-3.0104	-2.5792	-2.5208	-3.1479	-2.6542	-2.7958	-2.8	-2.425	-2.95	-2.6188	-2.4354	-3.0875	-2.4979	-59.947	86.776	100.368	-84.641	155.220	243.410	91.346	21.697	212.631	-17.030	-77.273	58.655	252.661	225.121	221.297	217.994	0.00019402	0.00073801	0.00030008	287.25	1.8558e-06	8.2058e-06	307.9	93.561	8.1541e-06	2.3949e-06	129.01	48.576	31.11	12.773	7.1777e-06	23.085	0.0019031	0.0018239	0.0005631	471.62	2.1023e-05	2.0122e-05	495.53	158.88	2.126e-05	2.0044e-05	229.99	83.696	61.08	22.946	2.3124e-05	38.427	27.636	103.887	147.622	-88.484	18.309	255.949	-88.615	-82.996	69.197	181.014	-84.300	-79.041	-77.574	-72.553	192.944	-74.758	-8191	255	
18144.912	1	1	0	0	0.17859	0.22158	0.21098	0.15707	0.30256	0.21686	0.060282	0.1026	0.11719	0.16019	0.16166	0.27479	0.26768	0.10712	0.19023	0.080975	-2.4167	-2.8521	-2.2146	-2.8	-2.6521	-2.3667	-2.9104	-2.5771	-2.6979	-2.9833	-2.4938	-2.8979	-2.9688	-2.5021	-3.1375	-2.6958	-38.570	176.532	258.727	-94.950	49.712	239.292	117.619	-75.556	-72.607	257.159	-74.672	234.356	-25.999	-9.734	152.243	206.244	0.00010236	0.00025671	0.00020764	285.15	7.6265e-06	7.46e-06	311.67	94.554	9.2745e-06	2.1469e-06	129.48	48.625	31.374	12.592	4.989e-06	22.627	0.0018769	0.0018417	0.00059953	467.37	2.033e-05	2.0101e-05	504.19	155.86	1.9916e-05	1.9577e-05	230.13	80.976	59.091	22.732	2.2984e-05	37.133	191.546	241.778	185.608	-88.088	-52.405	158.125	-88.822	-82.910	62.096	-31.290	-84.583	-78.598	-78.353	-73.022	220.675	-74.827	-8191	255	
18145.010	1	1	0	0	0.086578	0.032877	0.29865	0.09592	0.028594	0.36602	0.23534	0.021792	0.16871	0.10695	0.294	0.16295	0.29905	0.10573	0.19691	0.20802	-2.1271	-3.0563	-2.4437	-2.8208	-2.7417	-2.4167	-3.05	-2.6854	-2.6771	-3.0625	-2.5229	-2.85	-2.9875	-2.3583	-3.0312	-2.6896	157.370	196.620	-83.946	-21.727	92.195	178.146	-17.155	229.980	-77.778	205.033	36.940	28.537	247.245	197.806	166.367	164.503	0.00021595	0.0010459	0.00011474	282.87	4.5665e-06	8.8224e-06	309.21	93.537	7.0704e-06	9.2497e-06	129.24	47.512	30.758	12.391	1.0734e-05	22.643	0.0017753	0.0018569	0.0005896	453.03	1.9347e-05	2.0616e-05	498.18	151.54	1.919e-05	2.0764e-05	226.64	78.827	57.922	23.062	2.2574e-05	36.218	-1.463	121.925	-24.462	-88.377	17.539	198.329	-89.218	-82.646	99.874	236.318	-84.472	-79.204	-77.680	-72.769	36.844	-75.125	-8191	255	
18145.105	1	1	0	0	0.37706	0.23531	0.20948	0.096552	0.0045432	0.14299	0.097386	0.076006	0.24717	0.34576	0.15135	0.099106	0.10137	0.18757	0.15667	0.028964	-2.15	-3.0479	-2.5771	-2.7	-3.0812	-2.5479	-2.95	-2.6979	-2.4708	-2.9708	-2.4979	-2.6542	-3.15	-2.3167	-3.0167	-2.8125	78.552	246.351	130.077	70.766	-85.156	192.163	61.024	178.693	-30.113	6.794	-55.041	194.950	228.998	-37.345	166.335	79.828	0.00024728	0.00062869	0.00018623	282.41	2.0022e-06	1.3967e-05	309.38	93.444	9.1161e-06	3.4882e-06	129.36	47.467	30.489	12.57	9.0631e-06	22.436	0.0017177	0.0019523	0.00056605	444.61	1.862e-05	2.1574e-05	491.17	149.19	1.9063e-05	2.1873e-05	222.97	77.98	57.801	23.57	2.1261e-05	35.725	-47.155	111.676	-10.357	-88.186	140.002	199.681	-88.788	-83.149	138.473	145.891	-84.699	-78.977	-77.963	-73.077	38.032	-74.751	-8191	255	
18145.227	1	1	0	0	0.26281	0.18832	0.19623	0.1803	0.30525	0.42671	0.23175	0.13131	0.21296	0.22668	0.14505	0.17269	0.10956	0.10987	0.17404	0.01969	-2.0312	-2.9667	-2.4979	-2.675	-3.0875	-2.45	-2.9	-2.9208	-2.4479	-3.1229	-2.6542	-2.6562	-2.975	-2.425	-2.8542	-2.6854	-64.091	16.897	63.992	224.464	-47.740	83.621	163.498	69.071	-4.106	36.578	-19.374	-54.543	219.150	259.092	143.092	111.439	0.0004681	0.00055155	0.00038954	283.88	7.893e-06	4.5124e-06	312.78	93.834	4.4143e-06	8.1457e-06	132.45	48.036	31.048	12.672	8.5421e-06	22.823	0.0016895	0.0019958	0.00052821	439.42	1.8735e-05	2.2132e-05	482.53	147.6	1.9077e-05	2.2009e-05	217.96	76.568	58.201	23.311	1.9155e-05	34.89	-57.935	167.512	-9.470	-88.436	140.769	251.501	-88.611	-82.568	-77.207	-72.693	-83.989	-78.545	-77.830	-73.096	60.341	-75.244	-8191	255	
18145.297	1	1	0	0	0.041906	0.095463	0.17799	0.25216	0.061207	0.24374	0.37809	0.15632	0.19663	0.15604	0.12836	0.085331	0.19276	0.075276	0.12633	0.18043	-2.0292	-3.0542	-2.6208	-2.4896	-3	-2.5146	-2.6521	-3.0125	-2.2188	-3.0187	-2.6604	-2.5292	-3.0187	-2.4604	-2.6125	-3.1667	100.310	52.625	227.232	213.417	-55.902	225.149	212.151	-99.483	49.329	94.321	217.696	-44.333	209.359	255.738	33.387	192.652	0.00052553	0.00020645	0.00012643	284.65	7.0684e-06	6.6522e-06	313.61	94.208	1.9229e-05	6.0688e-06	130.51	48.161	30.759	12.756	9.5934e-06	22.572	0.0016677	0.0018985	0.00047238	429.69	1.8486e-05	2.0434e-05	470.65	143.66	1.8967e-05	2.0433e-05	210.66	75.023	58.839	22.796	1.8441e-05	34.594	-60.020	112.202	253.681	-88.327	163.777	89.121	-88.929	-83.000	-44.536	55.207	-84.335	-78.738	-77.537	-72.361	-9.074	-74.991	-8191	255	
18145.393	1	1	0	0	0.1185	0.10348	0.15483	0.15652	0.12803	0.15252	0.12806	0.16002	0.10802	0.17944	0.21506	0.078813	0.18314	0.19449	0.091509	0.10514	-1.8896	-2.8729	-2.6021	-2.3979	-3.0479	-2.3187	-2.6583	-2.9354	-2.3625	-3.025	-2.7313	-2.5167	-3.0563	-2.5833	-2.6021	-2.9083	237.271	11.913	189.692	213.744	17.453	99.777	237.743	96.079	63.424	1.611	248.700	8.479	-40.690	143.880	-31.560	-49.913	0.00032824	0.00046829	0.00018986	280.71	1.2224e-05	7.7489e-06	307.51	92.386	9.8493e-06	1.5882e-05	126.66	47.124	30.758	12.602	1.0059e-05	22.086	0.0017786	0.001867	0.00046678	426.95	2.0149e-05	2.0074e-05	462.58	143.14	2.0281e-05	1.972e-05	206.26	74.361	59.691	22.004	1.749e-05	34.115	253.743	-68.302	-30.840	-88.297	94.398	-24.905	-89.040	-82.276	249.013	35.306	-84.470	-78.904	-77.257	-72.579	-10.480	-74.801	-8191	255	
18145.488	1	1	0	0	0.23772	0.15657	0.1155	0.10536	0.060424	0.10371	0.20105	0.17358	0.042499	0.183	0.15807	0.20573	0.048124	0.18861	0.22299	0.10344	-1.9438	-2.8354	-2.7375	-2.2854	-3.0062	-2.6854	-2.7562	-2.975	-2.5354	-2.7354	-2.9042	-2.4313	-3.1646	-2.7042	-2.6333	-3.1167	-29.469	165.284	-9.652	162.057	-37.838	74.281	209.551	176.776	51.356	-43.422	104.498	186.382	-76.248	130.738	-18.150	-99.216	0.00038032	0.00083033	0.00010525	277.55	9.0997e-06	1.2693e-05	307.53	92.185	2.1905e-06	1.0906e-05	129.83	47.474	30.566	12.369	6.8674e-06	22.232	0.0017907	0.0017086	0.00043637	425.1	2.0043e-05	1.8451e-05	453.59	143.59	1.9867e-05	1.8008e-05	201.82	74.554	58.501	21.15	1.6071e-05	34.34	-35.942	-78.105	23.342	-88.226	119.128	41.395	-89.091	-82.216	217.034	-11.627	-84.089	-79.155	-77.662	-72.524	130.896	-74.683	-8191	255	
18145.609	1	1	0	0	0.088432	0.2052	0.27108	0.20966	0.14627	0.30733	0.19537	0.31303	0.36692	0.1906	0.091142	0.19022	0.19276	0.34207	0.13502	0.11846	-2.1979	-2.8667	-2.8021	-2.3833	-3.0333	-2.6042	-2.4396	-3.0833	-2.4833	-2.7229	-2.9875	-2.3187	-2.9188	-2.5062	-2.4146	-3.1292	47.969	113.237	140.317	245.258	-90.006	154.496	2.312	35.057	182.929	192.492	142.270	134.521	197.625	219.177	25.718	-74.574	0.00014047	0.00048223	5.6194e-05	280.52	5.7671e-06	8.0962e-06	314.62	93.322	8.3526e-06	6.9328e-06	130.88	48.281	31.587	12.644	5.9678e-06	22.805	0.0016888	0.0015493	0.00040064	427.76	1.8665e-05	1.666e-05	451.28	145.37	1.8449e-05	1.6802e-05	201.67	76.519	57.77	20.99	1.5684e-05	35.341	14.785	222.607	96.345	-88.166	-62.432	-19.389	-88.468	-82.563	90.786	-74.865	-84.415	-78.484	-77.141	-72.808	-65.099	-74.735	-8191	255	
18145.705	1	1	0	0	0.15128	0.05139	0.14147	0.16974	0.037853	0.055912	0.15899	0.27958	0.19268	0.15507	0.042093	0.093787	0.16605	0.1483	0.30706	0.099339	-2.0938	-2.6562	-2.9375	-2.2854	-2.9354	-3.0021	-2.5146	-3.0104	-2.675	-2.5896	-2.9604	-2.15	-2.9	-2.8958	-2.5917	-3.1917	8.349	199.434	41.410	28.276	70.047	27.835	-82.743	215.004	234.791	2.387	139.941	-28.862	60.134	-37.272	259.056	222.622	0.00022085	0.00080066	0.00014381	284.04	1.1155e-05	7.4741e-06	315.53	93.381	8.4463e-06	5.8435e-06	130.38	47.649	30.954	12.618	7.3992e-06	22.188	0.0015989	0.0014851	0.00039387	435.47	1.7614e-05	1.5971e-05	452.34	147.83	1.7767e-05	1.6654e-05	203.66	77.952	57.465	21.102	1.7414e-05	36.217	-22.537	33.770	174.655	-87.521	-12.176	36.118	-89.153	-82.568	120.318	-79.853	-84.069	-78.529	-77.943	-72.194	154.253	-74.383	-8191	255	
18145.801	1	1	0	0	0.1038	0.13117	0.40064	0.24901	0.11624	0.081431	0.1822	0.087346	0.34395	0.35251	0.066097	0.072616	0.11467	0.14837	0.23167	0.34243	-2.0833	-2.4917	-3.0479	-2.4437	-2.8708	-2.9083	-2.5979	-3.0458	-2.4896	-2.6562	-3.0917	-2.4	-2.7687	-2.9583	-2.375	-3.0167	-40.940	221.132	-5.014	109.383	-29.456	82.798	118.445	23.860	-82.528	-86.355	-26.320	161.392	-92.396	-44.112	-89.052	-98.758	0.00029896	0.00048018	7.9893e-05	276.94	6.1113e-06	1.0637e-05	304.77	92.817	2.2299e-06	8.8647e-06	127.24	47.559	30.862	12.529	1.2016e-05	22.584	0.0016631	0.0016039	0.00045704	448.09	1.8941e-05	1.7644e-05	465.52	152.71	1.8912e-05	1.7902e-05	212.57	79.567	57.6	21.216	1.8947e-05	36.43	40.086	-18.942	201.454	-87.985	251.164	-6.966	-89.243	-82.061	188.724	-0.179	-84.982	-78.737	-78.090	-73.272	227.238	-75.334	-8191	255	
18145.896	1	1	0	0	0.12968	0.22994	0.30736	0.11044	0.11805	0.026588	0.23189	0.25668	0.11662	0.12555	0.13412	0.14435	0.048139	0.11215	0.2681	0.12432	-2.1458	-2.5563	-3.025	-2.5146	-2.6042	-3.0083	-2.5229	-3.1271	-2.7521	-2.5604	-2.8208	-2.4292	-2.5979	-2.8854	-2.6229	-3.1229	142.120	149.116	-77.669	4.791	178.940	67.373	-70.735	187.402	130.254	14.713	200.464	57.343	-35.366	106.823	154.703	-95.254	0.00042473	0.00017257	0.00030054	281.25	3.4304e-06	2.1969e-06	306.5	92.92	8.255e-06	1.7101e-06	130.08	48.098	31.177	12.469	5.5789e-06	22.572	0.0016169	0.001566	0.00048302	443.78	1.8011e-05	1.7057e-05	473.32	150.41	1.8081e-05	1.7475e-05	217.81	78.597	57.488	21.344	2.0196e-05	36.348	-80.861	15.354	143.695	-87.691	-99.189	78.394	-88.872	-82.383	196.616	241.077	-84.229	-78.798	-77.384	-72.725	182.942	-74.320	-8191	255	
18145.992	1	1	0	0	0.11414	0.13918	0.084039	0.099996	0.090954	0.042998	0.18735	0.09616	0.14932	0.12878	0.10941	0.18456	0.11709	0.062147	0.13972	0.1078	-2.3896	-2.4	-2.9167	-2.4437	-2.6729	-3.0917	-2.4771	-2.9	-2.7542	-2.35	-3.0021	-2.5396	-2.7042	-2.9042	-2.4	-2.9938	207.610	30.422	105.386	86.819	165.104	-28.387	191.445	-38.216	238.431	213.298	223.102	-32.313	-72.803	189.323	-96.267	107.626	0.00015421	0.00027496	0.00039927	284.55	2.525e-06	8.6823e-06	314.52	94.425	5.9672e-06	3.7463e-06	131.11	49.495	31.468	12.525	5.4966e-06	22.98	0.0016033	0.0016027	0.00051412	442.13	1.7725e-05	1.7417e-05	484.61	148.32	1.689e-05	1.7024e-05	217.68	76.404	54.917	21.019	1.8775e-05	34.798	23.556	204.966	112.326	-88.300	-73.582	30.120	-88.950	-82.595	96.769	126.830	-85.050	-78.872	-76.827	-73.043	58.527	-74.436	-8191	255	
18146.090	1	1	0	0	0.23613	0.10827	0.15218	0.11276	0.057441	0.098607	0.19757	0.22547	0.13965	0.054393	0.22819	0.13107	0.065446	0.072517	0.315	0.21689	-2.5917	-2.4479	-2.9708	-2.5062	-2.5667	-3.0292	-2.4521	-3.075	-2.8875	-2.3667	-2.95	-2.6417	-2.5208	-3.0854	-2.5604	-2.7083	164.536	41.614	199.294	-61.046	1.743	199.838	178.612	241.970	203.648	-58.851	204.204	-9.825	159.162	106.323	22.312	-28.990	0.00014218	0.00065068	2.9782e-05	283.22	6.5745e-06	1.0413e-05	311.89	92.735	7.1119e-06	1.0496e-05	128.81	47.402	30.332	12.352	1.6e-05	22.453	0.0014006	0.0015035	0.00047119	421.01	1.5666e-05	1.6567e-05	468.17	140.98	1.5331e-05	1.6901e-05	209.54	73.006	52.826	21.075	1.7952e-05	33.744	-16.811	106.635	21.348	-87.798	75.602	167.883	-88.655	-82.459	99.154	219.811	-83.465	-78.714	-78.017	-72.630	40.001	-74.682	-8191	255	
18146.186	1	1	0	0	0.024339	0.14351	0.27027	0.15609	0.045226	0.051652	0.11902	0.23314	0.20819	0.17373	0.39739	0.25953	0.040667	0.091694	0.23059	0.1255	-2.5521	-2.4542	-2.9583	-2.6146	-2.525	-3.2188	-2.5938	-2.6229	-3.0375	-2.5917	-2.9104	-2.9021	-2.5021	-3.0479	-2.45	-2.6792	142.376	117.127	16.062	-34.481	78.754	187.388	106.033	-21.029	155.315	70.108	209.585	143.635	-45.775	103.600	138.085	43.373	5.4955e-05	0.00094636	0.00034092	276.41	3.3854e-06	8.9792e-06	307.23	92.107	4.9131e-06	6.8246e-06	128.95	47.814	30.382	12.403	9.7188e-06	22.668	0.0013653	0.0015834	0.00045548	412.04	1.5377e-05	1.7641e-05	456.86	138.79	1.5233e-05	1.782e-05	206.28	72.411	53.074	21.644	1.7572e-05	33.898	105.827	116.947	-6.027	-88.259	112.809	217.339	-88.472	-82.670	-28.333	200.774	-84.852	-78.625	-77.763	-72.228	39.329	-74.723	-8191	255	
18146.307	1	1	0	0	0.14555	0.066736	0.026516	0.098567	0.22097	0.22474	0.16919	0.022783	0.1544	0.13975	0.06775	0.12042	0.06055	0.055348	0.019396	0.086049	-2.4583	-2.3937	-3.0458	-2.8021	-2.5271	-3.1396	-2.5792	-2.5458	-3.1229	-2.6312	-2.9625	-2.9979	-2.2521	-3.2271	-2.7083	-2.6188	-47.837	155.468	-22.653	24.301	-56.687	1.789	158.190	145.222	111.875	218.056	120.536	173.762	-74.353	96.822	-61.970	133.186	0.00022472	5.1392e-05	0.00032958	281.16	3.2759e-06	2.9282e-06	309.35	92.269	9.6999e-06	8.0513e-06	129.61	48.262	30.354	12.548	6.6665e-06	22.564	0.001445	0.0017349	0.00046388	419.74	1.7075e-05	1.9903e-05	467.37	142.76	1.7646e-05	2.0397e-05	212.67	74.937	57.044	22.859	1.8473e-05	34.685	-98.088	180.458	10.764	-88.397	128.816	-97.671	-88.577	-82.144	249.911	7.239	-83.765	-79.119	-77.170	-72.390	57.277	-74.345	-8191	255	
18146.400	1	1	0	0	0.084106	0.069701	0.12988	0.15232	0.13775	0.12243	0.15021	0.072343	0.19011	0.084071	0.35573	0.14149	0.3803	0.1743	0.29727	0.19159	-2.7396	-2.4354	-2.7687	-2.9354	-2.5896	-3.2458	-2.7313	-2.6417	-3.0333	-2.4562	-2.6875	-3.0312	-2.3458	-2.9208	-2.6458	-2.5938	247.543	118.848	231.661	216.364	128.494	-84.350	218.999	233.903	34.833	146.800	247.749	256.491	198.552	240.294	193.269	102.517	0.00045948	0.00050792	0.00011411	281.46	3.5487e-06	1.0764e-05	313.54	93.902	9.2745e-06	6.9434e-06	132.78	48.298	30.37	12.565	4.3875e-06	22.739	0.0016231	0.0018333	0.00046267	422.49	1.8284e-05	1.9853e-05	466.8	142.43	1.8503e-05	1.9662e-05	210.48	74.431	58.374	22.544	1.8072e-05	34.77	-80.703	-64.499	-36.230	-87.976	175.500	52.405	-88.491	-83.092	-100.313	46.892	-84.586	-79.295	-77.240	-72.586	-22.928	-74.995	-8191	255	
18146.496	1	1	0	0	0.070484	0.16099	0.15311	0.21796	0.18996	0.28804	0.26291	0.076719	0.080102	0.19393	0.097094	0.051212	0.17064	0.23567	0.020917	0.14064	-2.6063	-2.3646	-2.4688	-2.9667	-2.3542	-2.7792	-2.9146	-2.5625	-2.9333	-2.525	-2.75	-2.9188	-2.4562	-2.9437	-2.8271	-2.5062	159.177	-14.088	-73.069	234.442	-18.329	112.848	21.932	223.806	214.375	7.528	204.999	-91.265	-48.023	51.415	94.982	-68.030	0.00049045	0.00014984	0.00016813	279.08	1.2572e-05	9.9414e-06	305.24	91.598	9.5257e-06	9.8865e-06	128.43	46.949	29.891	12.341	6.112e-07	21.963	0.0017888	0.0018539	0.0004732	426.9	2.041e-05	2.0158e-05	461.04	142.66	2.0104e-05	1.9196e-05	205.39	73.487	58.622	21.626	1.6829e-05	33.855	-90.740	-98.851	-47.582	-87.902	143.106	15.797	-89.004	-82.334	-85.252	-26.412	-84.348	-78.318	-77.915	-72.513	-92.252	-74.565	-8191	255	
18146.594	1	1	0	0	0.14456	0.099201	0.081708	0.11327	0.16117	0.27779	0.20071	0.1607	0.15555	0.30479	0.13328	0.078703	0.31026	0.12615	0.3103	0.21104	-2.6312	-2.3896	-2.5479	-3.0438	-2.2604	-2.8812	-2.775	-2.4188	-3.0604	-2.5771	-2.5604	-3.0312	-2.5292	-2.8146	-2.8875	-2.4313	133.117	-71.973	-60.994	199.344	57.133	-90.009	16.362	125.074	63.218	138.715	97.495	-87.770	186.369	-2.520	86.687	48.342	0.00045509	0.00034544	6.4406e-05	272.51	3.181e-06	5.9419e-06	304.91	91.214	5.6572e-06	7.4362e-06	128.02	46.961	29.862	12.393	7.3848e-06	22.167	0.0017416	0.001639	0.00042547	418.18	1.944e-05	1.8016e-05	448.68	142.38	1.9871e-05	1.7993e-05	202.9	75.226	59.362	21.638	1.707e-05	35.323	-73.130	-48.755	-93.184	-87.887	238.978	51.639	-88.678	-82.785	134.774	-30.734	-84.488	-78.686	-77.308	-72.842	82.357	-75.061	-8191	255	
18146.689	1	1	0	0	0.10978	0.14324	0.11369	0.20921	0.043396	0.13465	0.15296	0.22443	0.067275	0.10203	0.039815	0.31186	0.17941	0.17434	0.26054	0.21913	-2.6646	-2.5438	-2.6458	-3.0646	-2.55	-2.7687	-2.8854	-2.4083	-3.0458	-2.4792	-2.4104	-2.9854	-2.3604	-2.6354	-3.0083	-2.4229	-27.395	202.572	13.087	212.744	107.625	240.515	110.355	243.596	86.196	-26.817	242.182	169.119	-20.620	-15.040	163.937	97.597	0.00017389	0.00044532	3.1627e-05	277.99	8.2982e-06	8.6652e-06	308.04	92.128	6.7269e-06	8.9974e-06	130.26	47.784	30.953	12.555	5.9111e-06	22.339	0.0018226	0.0016691	0.00044109	436.48	2.0227e-05	1.8334e-05	454.88	148.19	2.007e-05	1.8122e-05	205.97	78.132	59.484	21.637	1.7153e-05	36.33	28.453	-57.261	124.758	-87.645	0.024	-56.903	-88.960	-83.064	110.506	86.735	-84.910	-79.345	-77.785	-72.915	24.827	-74.928	-8191	255	
18146.785	1	1	0	0	0.15973	0.23928	0.11985	0.17539	0.11308	0.17838	0.13006	0.037866	0.11883	0.13081	0.24657	0.16057	0.18608	0.046863	0.27691	0.30462	-2.5604	-2.6229	-2.3875	-3.0833	-2.4104	-2.6042	-3.0625	-2.3146	-2.8667	-2.8354	-2.4042	-3.0563	-2.5042	-2.5708	-2.9833	-2.3854	-75.550	13.324	-39.290	206.977	-42.891	191.220	53.070	187.555	244.791	-40.841	191.846	207.037	163.641	179.360	180.774	73.983	0.00014423	0.00078759	9.7799e-06	278.15	1.2469e-05	6.1229e-06	312.85	92.814	1.1999e-05	2.2902e-06	129.72	47.894	30.929	12.511	1.1418e-05	22.443	0.0017617	0.0016127	0.00043808	443.46	1.889e-05	1.7449e-05	458.29	150.29	1.8788e-05	1.7162e-05	206.09	78.606	56.87	21.091	1.7021e-05	35.983	87.804	-77.633	-98.607	-88.288	-38.731	-48.719	-89.289	-83.029	108.743	168.251	-84.608	-78.705	-77.513	-72.709	-84.339	-74.868	-8191	255	
18146.906	1	1	0	0	0.19892	0.13194	0.19886	0.16615	0.043663	0.093521	0.17582	0.26165	0.17346	0.31987	0.056161	0.14567	0.19525	0.03066	0.051962	0.26802	-2.3458	-2.9313	-2.4875	-3.1437	-2.65	-2.5375	-3.15	-2.3667	-2.8667	-2.9979	-2.6	-3.2458	-2.7146	-2.6063	-3.0896	-2.5396	138.993	205.419	-37.417	118.575	-58.363	122.012	93.876	-36.189	30.435	-70.000	114.862	216.627	76.723	-28.238	44.110	155.510	1.5035e-05	0.00045633	0.0001883	278.11	4.539e-06	5.3591e-06	304.34	91.533	2.8329e-06	3.1093e-06	127.01	47	30.295	12.454	1.5383e-05	22.511	0.001601	0.0014952	0.0004354	435.95	1.7252e-05	1.6175e-05	450.79	145.5	1.7083e-05	1.5747e-05	202.72	76.016	54.279	20.323	1.7131e-05	35.07	127.150	205.962	194.171	-88.051	18.874	56.158	-88.593	-82.722	-67.256	100.486	-84.653	-78.774	-77.753	-73.120	192.515	-75.393	-8191	255	
18147.002	1	1	0	0	0.0096692	0.15121	0.13297	0.25084	0.19399	0.094435	0.12444	0.19084	0.17275	0.080904	0.16587	0.20972	0.22505	0.092702	0.21928	0.29715	-2.2167	-2.8312	-2.3167	-3.0187	-2.5854	-2.4771	-3.0458	-2.4021	-2.7229	-2.8979	-2.4125	-2.9625	-2.7583	-2.4833	-3.0354	-2.4521	183.420	27.596	-96.835	251.538	-30.828	-22.699	-54.266	224.208	135.883	183.693	-97.565	-12.240	86.773	22.776	83.721	89.892	0.00037541	0.00022859	0.0002582	278.98	9.0995e-06	3.619e-06	307.76	92.178	9.1774e-06	8.8037e-06	127.53	47.899	30.554	12.471	4.4977e-06	22.929	0.0014935	0.0014091	0.00045093	429.29	1.6373e-05	1.5768e-05	459.81	143.87	1.6543e-05	1.5865e-05	209.68	75.922	54.223	20.669	1.8761e-05	35.201	-40.402	99.993	162.498	-88.327	-28.330	102.274	-88.928	-82.423	104.430	139.593	-83.802	-78.799	-77.583	-72.491	160.381	-75.031	-8191	255	
18147.098	1	1	0	0	0.24326	0.19125	0.15732	0.060861	0.15763	0.065543	0.27153	0.21143	0.11605	0.099729	0.10941	0.21447	0.1788	0.20014	0.096413	0.011322	-2.5292	-2.9104	-2.2646	-2.7646	-2.7667	-2.5646	-3.0125	-2.575	-2.5354	-3.0104	-2.2896	-2.8833	-2.7188	-2.3458	-3.0854	-2.6875	-84.068	39.537	258.764	81.352	237.065	250.377	-9.747	-94.936	111.790	-21.184	-10.996	-12.865	-19.303	237.878	188.389	42.749	0.00013558	0.00058545	0.0003108	281.64	2.9226e-06	6.9521e-06	310.71	92.956	6.8223e-06	8.1112e-06	129.71	48.411	31.001	12.617	4.1719e-06	23.046	0.0015061	0.001486	0.00048523	429.92	1.6502e-05	1.6623e-05	474.91	144.01	1.6535e-05	1.6758e-05	215.72	76.059	54.478	21.38	1.9589e-05	35.157	249.811	41.690	133.780	-88.030	0.318	187.190	-89.018	-83.053	112.546	-78.174	-84.336	-78.808	-78.040	-72.879	203.868	-75.216	-8191	255	
18147.170	1	1	0	0	0.086381	0.028479	0.23524	0.15394	0.016996	0.27312	0.26579	0.19592	0.32389	0.092755	0.13168	0.083274	0.31393	0.10023	0.24404	0.083434	-2.2896	-2.95	-2.2792	-2.8917	-2.7833	-2.4437	-2.9375	-2.7292	-2.4729	-3.1188	-2.3438	-2.6958	-2.8438	-2.3667	-3.0021	-2.725	51.586	-89.956	102.587	124.820	35.699	-26.927	137.676	-61.131	-70.042	239.773	151.500	-89.746	229.317	-43.619	235.680	108.644	0.00016865	0.00027	0.00015821	283.62	1.0304e-06	1.3946e-05	314.3	94.068	9.9795e-07	1.1429e-05	130.16	48.472	30.625	12.535	3.7805e-06	22.754	0.0014835	0.0015905	0.00049667	428.57	1.6194e-05	1.7805e-05	477.7	143.36	1.6475e-05	1.817e-05	215.29	75.207	54.126	21.906	1.9416e-05	34.594	-55.126	192.221	125.759	-88.512	-44.225	207.441	-89.041	-82.989	-100.120	183.898	-84.109	-78.807	-78.163	-73.078	-2.768	-75.097	-8191	255	
18147.289	1	1	0	0	0.29723	0.10196	0.021141	0.14986	0.19161	0.075096	0.07013	0.19647	0.233	0.22089	0.26265	0.12154	0.24316	0.14252	0.14895	0.15142	-2.1333	-2.9729	-2.175	-2.8083	-2.8646	-2.3667	-3.0062	-2.6875	-2.3396	-3.2042	-2.4938	-2.6354	-2.9271	-2.3937	-3	-2.7646	-41.944	229.663	219.322	203.686	177.210	41.704	175.492	96.383	-3.471	175.683	251.212	241.533	-5.262	107.929	120.289	251.073	0.00014925	0.00091827	0.00025067	279.55	4.9397e-06	2.8027e-06	308.85	91.151	3.7303e-06	8.9731e-06	128.7	47.755	30.348	12.563	1.8979e-05	22.417	0.0014888	0.0017281	0.00049021	423.39	1.6664e-05	1.9526e-05	470.68	142.16	1.7234e-05	2.0107e-05	213.53	75.617	55.877	22.915	1.9984e-05	35.157	-27.075	102.839	-52.124	-88.320	109.535	139.898	-89.197	-82.591	-23.298	204.959	-84.096	-79.071	-77.627	-72.472	-18.058	-74.951	-8191	255	
#DATA ENDS
