BOXY.EXE: ISS Imagent and Oximeter Data Acquisition Program Version 0.80
Ascii Record File

#ACQ INFORMATION
2  Detector Channels 
16  External MUX Channels 
1  Auxiliary Channels 
5000  Waveform (CCF) Frequency (Hz)
1  Waveforms Skipped 
30  Waveforms Averaged 
1  Cycles Averaged 
16  Acquisitions per Waveform 
10.0806  Updata Rate (Hz) 

#FILE INFORMATION
TRUE -- External MUX Channel results are PARSED.
FALSE -- AC DC and Phase are NOT grouped.
TRUE -- Companion Program Settings File CREATED.
FALSE -- AC data not excluded
FALSE -- DC data not excluded
FALSE -- Phase data not excluded
FALSE -- Auxillary Chn. data not excluded
Tab delimiters

#CALIBRATION STATE
TRUE -- Waveform Calibration Values APPLIED.


#AUX CALIBRATION VALUES
Val Type	aux-1	

Term	1.0000e+00	
Factor	0.0000e+00	


#WF CALIBRATION VALUES
A = Detector Channel
Val Type	A-AC1	A-AC2	A-AC3	A-AC4	A-AC5	A-AC6	A-AC7	A-AC8	A-AC9	A-AC10	A-AC11	A-AC12	A-AC13	A-AC14	A-AC15	A-AC16	A-DC1	A-DC2	A-DC3	A-DC4	A-DC5	A-DC6	A-DC7	A-DC8	A-DC9	A-DC10	A-DC11	A-DC12	A-DC13	A-DC14	A-DC15	A-DC16	A-Ph1	A-Ph2	A-Ph3	A-Ph4	A-Ph5	A-Ph6	A-Ph7	A-Ph8	A-Ph9	A-Ph10	A-Ph11	A-Ph12	A-Ph13	A-Ph14	A-Ph15	A-Ph16	

Term	0.00000e+00	0.00000e+00	0.00000e+00	0.00000e+00	0.00000e+00	0.00000e+00	0.00000e+00	0.00000e+00	0.00000e+00	0.00000e+00	0.00000e+00	0.00000e+00	0.00000e+00	0.00000e+00	0.00000e+00	0.00000e+00	0.00000e+00	0.00000e+00	0.00000e+00	0.00000e+00	0.00000e+00	0.00000e+00	0.00000e+00	0.00000e+00	0.00000e+00	0.00000e+00	0.00000e+00	0.00000e+00	0.00000e+00	0.00000e+00	0.00000e+00	0.00000e+00	0.00000e+00	0.00000e+00	0.00000e+00	0.00000e+00	0.00000e+00	0.00000e+00	0.00000e+00	0.00000e+00	0.00000e+00	0.00000e+00	0.00000e+00	0.00000e+00	0.00000e+00	0.00000e+00	0.00000e+00	0.00000e+00	
Factor	1.00000e+00	1.00000e+00	1.00000e+00	1.00000e+00	1.00000e+00	1.00000e+00	1.00000e+00	1.00000e+00	1.00000e+00	1.00000e+00	1.00000e+00	1.00000e+00	1.00000e+00	1.00000e+00	1.00000e+00	1.00000e+00	1.00000e+00	1.00000e+00	1.00000e+00	1.00000e+00	1.00000e+00	1.00000e+00	1.00000e+00	1.00000e+00	1.00000e+00	1.00000e+00	1.00000e+00	1.00000e+00	1.00000e+00	1.00000e+00	1.00000e+00	1.00000e+00	X	X	X	X	X	X	X	X	X	X	X	X	X	X	X	X	

B = Detector Channel
Val Type	B-AC1	B-AC2	B-AC3	B-AC4	B-AC5	B-AC6	B-AC7	B-AC8	B-AC9	B-AC10	B-AC11	B-AC12	B-AC13	B-AC14	B-AC15	B-AC16	B-DC1	B-DC2	B-DC3	B-DC4	B-DC5	B-DC6	B-DC7	B-DC8	B-DC9	B-DC10	B-DC11	B-DC12	B-DC13	B-DC14	B-DC15	B-DC16	B-Ph1	B-Ph2	B-Ph3	B-Ph4	B-Ph5	B-Ph6	B-Ph7	B-Ph8	B-Ph9	B-Ph10	B-Ph11	B-Ph12	B-Ph13	B-Ph14	B-Ph15	B-Ph16	

Term	0.00000e+00	0.00000e+00	0.00000e+00	0.00000e+00	0.00000e+00	0.00000e+00	0.00000e+00	0.00000e+00	0.00000e+00	0.00000e+00	0.00000e+00	0.00000e+00	0.00000e+00	0.00000e+00	0.00000e+00	0.00000e+00	0.00000e+00	0.00000e+00	0.00000e+00	0.00000e+00	0.00000e+00	0.00000e+00	0.00000e+00	0.00000e+00	0.00000e+00	0.00000e+00	0.00000e+00	0.00000e+00	0.00000e+00	0.00000e+00	0.00000e+00	0.00000e+00	-1.70766e+02	-1.55360e+02	-1.36989e+02	-1.83556e+02	-7.39167e+01	-1.11136e+02	-1.57958e+02	-1.62015e+02	-8.77219e+01	-9.53084e+01	-1.70441e+02	-1.71054e+02	-1.79201e+02	-1.76666e+02	-9.97883e+01	-1.49357e+02	
Factor	2.98084e-05	1.06056e-04	3.44200e-05	1.51934e-01	8.83417e-07	1.01984e-06	1.64616e-01	5.40301e-02	8.79708e-07	1.14181e-06	8.93439e-02	3.10184e-02	2.90158e-02	9.72131e-03	1.45861e-06	1.37752e-02	7.84505e-07	7.99803e-07	2.22624e-07	7.65306e-02	8.71945e-09	8.76617e-09	7.79789e-02	2.70018e-02	8.73877e-09	8.78194e-09	4.25643e-02	1.47342e-02	1.42478e-02	4.76412e-03	8.78011e-09	6.51403e-03	X	X	X	X	X	X	X	X	X	X	X	X	X	X	X	X	



#DISTANCE SETTINGS
A = Detector Channel
A-1	A-2	A-3	A-4	A-5	A-6	A-7	A-8	A-9	A-10	A-11	A-12	A-13	A-14	A-15	A-16	

2.5000e+00	3.0000e+00	2.5000e+00	3.0000e+00	2.0000e+00	3.0000e+00	1.5000e+00	3.0000e+00	3.0000e+00	3.0000e+00	3.0000e+00	3.0000e+00	3.0000e+00	3.0000e+00	1.5000e+00	3.0000e+00	

B = Detector Channel
B-1	B-2	B-3	B-4	B-5	B-6	B-7	B-8	B-9	B-10	B-11	B-12	B-13	B-14	B-15	B-16	

1.0000e+01	1.0000e+01	1.0000e+01	1.4400e+00	1.0000e+01	1.0000e+01	1.5100e+00	1.9400e+00	1.0000e+01	1.0000e+01	1.9900e+00	2.4900e+00	2.4100e+00	2.9000e+00	1.0000e+01	2.9800e+00	




#DATA BEGINS
time	group	step	mark	flag	A-AC1	A-AC2	A-AC3	A-AC4	A-AC5	A-AC6	A-AC7	A-AC8	A-AC9	A-AC10	A-AC11	A-AC12	A-AC13	A-AC14	A-AC15	A-AC16	A-DC1	A-DC2	A-DC3	A-DC4	A-DC5	A-DC6	A-DC7	A-DC8	A-DC9	A-DC10	A-DC11	A-DC12	A-DC13	A-DC14	A-DC15	A-DC16	A-Ph1	A-Ph2	A-Ph3	A-Ph4	A-Ph5	A-Ph6	A-Ph7	A-Ph8	A-Ph9	A-Ph10	A-Ph11	A-Ph12	A-Ph13	A-Ph14	A-Ph15	A-Ph16	B-AC1	B-AC2	B-AC3	B-AC4	B-AC5	B-AC6	B-AC7	B-AC8	B-AC9	B-AC10	B-AC11	B-AC12	B-AC13	B-AC14	B-AC15	B-AC16	B-DC1	B-DC2	B-DC3	B-DC4	B-DC5	B-DC6	B-DC7	B-DC8	B-DC9	B-DC10	B-DC11	B-DC12	B-DC13	B-DC14	B-DC15	B-DC16	B-Ph1	B-Ph2	B-Ph3	B-Ph4	B-Ph5	B-Ph6	B-Ph7	B-Ph8	B-Ph9	B-Ph10	B-Ph11	B-Ph12	B-Ph13	B-Ph14	B-Ph15	B-Ph16	aux-1	digaux	

23187.973	1	1	0	256	0.087572	0.049532	0.048233	0.31674	0.03996	0.22405	0.35979	0.2483	0.28851	0.27881	0.13068	0.10949	0.10978	0.093034	0.074685	0.22579	-4.3792	-3.8896	-4.7438	-4.7646	-3.8604	-4.8896	-4.4938	-4.3083	-4.7146	-3.9042	-4.6396	-4.8979	-3.9625	-4.7958	-4.2646	-4.0958	195.347	71.796	271.577	388.647	369.754	276.746	380.625	415.248	67.182	390.067	365.226	400.461	414.084	157.960	347.873	99.189	0.0004428	0.00062888	0.00015688	1237.6	5.0562e-06	3.5906e-06	1327	262.27	2.8465e-06	4.2144e-06	324.44	89.551	72.278	20.854	4.4273e-06	28.04	0.00014067	0.00015759	4.2889e-05	1188	1.5403e-06	1.7476e-06	1274	251.65	1.5244e-06	1.7552e-06	308.98	86.005	69.086	20.465	1.6548e-06	27.421	127.380	148.432	163.769	71.819	224.405	91.018	71.915	79.259	181.983	153.339	78.814	85.633	85.756	93.268	68.871	92.563	-8191	255	
23188.070	1	1	0	0	0.23879	0.1599	0.12714	0.29707	0.10949	0.11293	0.14496	0.23315	0.15907	0.073436	0.31323	0.15098	0.36865	0.14091	0.11537	0.23425	-4.5062	-3.9917	-4.5437	-5.0083	-3.7875	-4.775	-4.6542	-4.0625	-4.8792	-3.9813	-4.4479	-4.8417	-3.8583	-4.6917	-4.4563	-4.0938	332.088	138.656	264.124	63.662	184.857	346.961	285.193	366.841	180.269	375.558	360.000	307.701	376.042	399.442	275.648	398.359	0.00041588	0.00038561	9.4355e-05	1230.2	3.7584e-06	3.5794e-06	1323.5	259.21	3.7153e-06	5.4789e-06	322.2	88.115	71.207	20.435	4.059e-06	27.826	0.00014588	0.00015889	3.9475e-05	1179.7	1.5213e-06	1.6389e-06	1268.5	249.73	1.4771e-06	1.6011e-06	305.62	84.595	67.698	19.936	1.39e-06	26.909	128.189	93.482	151.167	71.721	216.816	107.584	71.986	79.255	199.886	165.067	79.245	85.799	86.133	92.621	118.081	92.723	-8191	255	
23188.188	1	1	0	0	0.19228	0.099119	0.079432	0.25166	0.08891	0.31696	0.214	0.084509	0.052317	0.12249	0.19806	0.20655	0.16966	0.072412	0.22655	0.044136	-4.6771	-4.1271	-4.4083	-4.9917	-3.8146	-4.6625	-4.6917	-4.0312	-4.8979	-4.1333	-4.3292	-4.8479	-3.9938	-4.7312	-4.6083	-4.1604	382.922	394.298	147.305	336.914	287.171	202.164	373.897	112.069	179.956	348.476	232.459	341.303	357.712	115.385	285.493	259.326	0.00040552	0.00037177	0.00012549	1233.8	2.5586e-06	1.7159e-06	1323	257.92	1.2597e-06	1.9938e-06	322.29	88.07	70.01	20.319	1.9731e-06	27.669	0.00013599	0.00013526	3.5824e-05	1182.8	1.5016e-06	1.4649e-06	1266.6	248.36	1.4987e-06	1.4548e-06	304.69	84.046	67.072	19.709	1.3e-06	26.637	128.100	98.761	140.800	72.036	186.032	160.133	71.811	79.512	183.697	200.409	78.931	85.612	85.959	93.668	183.992	92.804	-8191	255	
23188.285	1	1	0	0	0.21133	0.20399	0.1357	0.11038	0.15415	0.21921	0.058109	0.18072	0.057153	0.1836	0.23574	0.22403	0.27355	0.10312	0.11927	0.09817	-4.5521	-4.2188	-4.1271	-4.9229	-3.9708	-4.5458	-4.8625	-3.9625	-4.7833	-4.225	-4.0875	-5.0188	-4.1	-4.45	-4.6312	-4.0917	260.651	171.203	156.205	358.323	127.417	172.685	200.396	63.219	152.617	227.478	354.888	86.307	326.137	63.912	165.960	344.400	0.00044124	4.8645e-05	0.00014401	1223.1	3.5606e-06	7.2529e-07	1312.5	255.09	2.5325e-06	3.902e-06	314.74	87.184	69.734	20.08	1.1783e-06	27.428	0.00013645	0.00012222	3.197e-05	1170.3	1.3723e-06	1.2713e-06	1254.3	244.54	1.3247e-06	1.2022e-06	298.83	82.947	66.146	19.378	1.0885e-06	26.335	117.884	229.807	152.107	71.730	236.486	180.551	71.866	79.180	207.846	171.775	79.073	85.964	86.460	92.931	147.305	92.303	-8191	255	
23188.381	1	1	0	0	0.10942	0.34724	0.18914	0.24253	0.19971	0.031849	0.27731	0.25121	0.065149	0.12614	0.21458	0.10818	0.14146	0.10644	0.12065	0.061993	-4.5813	-4.2854	-4.2312	-5.1062	-3.9396	-4.4458	-4.975	-3.9667	-4.7917	-4.5521	-4.0417	-4.9354	-4.1229	-4.3313	-4.6396	-3.9688	127.587	248.109	342.357	316.072	141.257	390.239	415.450	102.900	83.151	135.201	210.614	126.013	329.384	375.745	139.522	266.139	0.00044608	0.0001224	9.0061e-05	1211	2.0322e-06	3.7926e-06	1297.8	253.62	1.1917e-06	2.7658e-06	313.08	85.671	68.938	19.871	2.8393e-06	27.141	0.00012187	0.0001082	2.805e-05	1161.5	1.2821e-06	1.1527e-06	1242.6	242.51	1.2461e-06	1.1265e-06	295.9	82.239	65.394	19.185	1.0708e-06	26.211	125.017	72.502	152.170	71.945	251.731	201.679	72.205	79.602	227.804	66.680	78.885	86.043	86.595	93.309	221.556	93.340	-8191	255	
23188.477	1	1	0	0	0.22453	0.14719	0.12404	0.19209	0.17264	0.15975	0.30623	0.20775	0.20197	0.014692	0.13991	0.24499	0.027287	0.1596	0.22925	0.16617	-4.3604	-4.4958	-3.9521	-5.0958	-4.2958	-4.1667	-4.9042	-3.9938	-4.5938	-4.6417	-3.9958	-4.9646	-4.4375	-4.0792	-4.9604	-3.9521	221.721	245.099	413.305	365.968	206.130	393.792	390.568	351.229	307.518	275.178	73.792	358.386	389.064	371.244	180.182	313.749	0.00036891	7.3255e-05	0.00014281	1210.5	2.8224e-06	2.3813e-06	1291.8	251.5	1.5216e-06	3.8958e-06	311.97	86.107	68.582	19.889	3.6438e-06	27.238	0.00011566	0.00010181	2.7102e-05	1155.3	1.2167e-06	1.1155e-06	1238.1	241.51	1.2118e-06	1.0721e-06	294.75	82.184	65.22	19.091	1.0979e-06	26.205	121.795	105.229	168.629	72.099	171.528	242.360	72.044	79.417	133.810	206.889	78.942	85.928	86.270	93.595	133.791	92.667	-8191	255	
23188.572	1	1	0	0	0.18397	0.139	0.058513	0.11898	0.20126	0.20468	0.068105	0.13273	0.1405	0.20921	0.088724	0.15981	0.15783	0.11493	0.11785	0.090735	-4.1917	-4.6875	-3.9208	-4.9	-4.4146	-4.0458	-5.1292	-4.1312	-4.4479	-4.8	-3.9979	-4.8875	-4.4042	-3.9688	-4.7604	-4.1625	195.384	355.542	288.832	378.348	143.946	213.014	126.284	262.157	351.363	272.782	399.190	350.353	339.135	241.196	138.385	361.061	0.00044752	6.9896e-05	1.6651e-05	1206	9.7559e-07	4.2744e-07	1293.8	251.47	2.8757e-06	1.5562e-06	311.79	86.283	69.121	19.735	1.1411e-06	27.254	0.0001108	9.7631e-05	2.8553e-05	1153.5	1.1727e-06	1.086e-06	1239.1	240.46	1.1601e-06	1.0752e-06	295.66	82.199	65.205	19.105	1.2055e-06	26.14	130.440	99.528	136.902	72.221	223.827	166.316	71.919	79.443	227.690	233.788	79.220	85.962	86.110	93.568	325.345	92.952	-8191	255	
23188.670	1	1	0	0	0.033194	0.12949	0.18259	0.14859	0.093007	0.24346	0.15649	0.068729	0.23505	0.26864	0.17133	0.23465	0.20626	0.096484	0.23864	0.080286	-4.0854	-4.8229	-3.8375	-4.9542	-4.4354	-4.0729	-5.0917	-4.2208	-4.2646	-4.7896	-4.0188	-4.6708	-4.6521	-3.9896	-4.8375	-4.125	183.851	303.895	90.030	353.234	403.156	380.847	351.738	376.988	150.557	252.008	388.842	400.662	96.976	328.136	346.975	247.775	0.00036117	9.9978e-05	4.7182e-05	1204.6	1.9781e-06	2.419e-06	1295.2	250.72	4.9394e-06	1.7072e-06	312.51	85.753	68.655	19.859	3.7662e-06	27.153	0.00011132	0.0001002	3.1004e-05	1155.5	1.185e-06	1.1171e-06	1240.4	241.06	1.1886e-06	1.129e-06	297.08	82.241	65.382	19.14	1.3189e-06	26.259	120.071	192.558	212.093	72.030	194.005	178.959	71.780	79.500	199.294	140.702	79.227	85.880	86.209	93.680	113.081	92.856	-8191	255	
23188.766	1	1	0	0	0.061522	0.16406	0.108	0.21447	0.14273	0.11898	0.086557	0.13845	0.094876	0.10827	0.13128	0.1951	0.25453	0.20324	0.11153	0.23684	-3.9437	-4.7333	-4.0167	-4.7479	-4.6646	-4.0521	-4.975	-4.2792	-4.1646	-4.9104	-4.0833	-4.5813	-4.7312	-3.9729	-4.9917	-4.4667	87.376	304.777	288.383	364.620	111.631	296.106	406.936	73.581	401.555	119.210	367.828	373.026	386.157	363.904	255.482	262.913	0.00032973	0.00018012	6.6139e-05	1207.5	1.4331e-06	2.7792e-06	1295	251.99	3.0579e-06	5.2499e-06	311.24	86.128	68.955	19.759	5.8294e-06	27.203	0.00011405	0.00010672	3.4337e-05	1155.3	1.2044e-06	1.2004e-06	1242.2	241.45	1.2084e-06	1.2053e-06	296.37	82.221	65.41	19.191	1.3655e-06	26.245	116.223	149.578	176.003	71.898	83.675	138.032	72.010	79.435	205.898	120.480	78.939	85.841	86.264	93.436	199.848	93.134	-8191	255	
23188.885	1	1	0	0	0.093918	0.1392	0.22038	0.25267	0.33143	0.21758	0.23062	0.11003	0.21151	0.12487	0.15483	0.073942	0.098324	0.15731	0.14679	0.21139	-3.8854	-4.8458	-4.05	-4.5083	-4.5896	-4.2667	-4.9771	-4.5229	-4.0042	-4.8896	-4.2792	-4.4833	-4.7688	-3.8083	-4.5687	-4.5729	169.410	131.689	78.441	68.492	177.707	88.968	327.221	297.684	99.628	112.031	241.494	66.862	287.807	367.157	132.783	269.977	0.00035068	0.00049435	7.5025e-05	1203.9	2.2756e-06	3.8969e-06	1297.3	251.2	3.2533e-06	3.3903e-06	313.65	85.923	69.034	19.877	5.8141e-06	27.298	0.00010978	0.00010941	3.3853e-05	1154.9	1.1549e-06	1.2384e-06	1243.1	241.27	1.1711e-06	1.2771e-06	296.94	82.372	65.333	19.329	1.3528e-06	26.196	129.049	120.664	157.431	72.111	249.052	177.368	71.698	79.487	189.240	211.455	79.236	86.123	86.113	93.405	243.866	93.002	-8191	255	
23188.980	1	1	0	0	0.038486	0.26409	0.10874	0.40129	0.10793	0.048725	0.11347	0.13286	0.14678	0.25496	0.13729	0.09451	0.045008	0.16135	0.22205	0.1319	-3.5958	-4.8417	-4.0563	-4.3875	-4.9271	-3.9437	-4.7792	-4.6896	-3.8896	-4.8667	-4.3562	-4.1667	-4.8646	-4	-4.5375	-4.6687	153.733	359.602	149.824	378.822	338.330	287.006	394.645	87.547	343.944	365.332	414.253	267.124	211.565	157.296	133.658	291.634	0.00040954	0.00045979	7.6588e-05	1214.1	2.6951e-06	2.4816e-06	1301.4	253.22	3.647e-06	5.1057e-06	314.76	86.664	69.342	19.959	2.9988e-06	27.288	0.00011241	0.00012202	3.3813e-05	1161.6	1.1965e-06	1.341e-06	1247.3	242.39	1.2057e-06	1.3739e-06	297.95	82.864	65.757	19.461	1.3206e-06	26.308	107.210	412.195	132.013	71.902	185.085	135.359	71.838	79.622	180.718	196.347	79.071	86.064	86.312	93.441	239.553	92.869	-8191	255	
23189.076	1	1	0	0	0.092959	0.2117	0.19371	0.31753	0.083424	0.19599	0.11349	0.33081	0.12993	0.082804	0.049715	0.14227	0.16861	0.23	0.1757	0.10829	-3.4771	-4.8042	-4.2	-4.2604	-4.6562	-3.8542	-4.575	-4.7417	-3.85	-4.7708	-4.5896	-4.0167	-5.0563	-4.1104	-4.4125	-4.9167	265.463	275.476	82.702	390.868	284.240	330.279	314.454	399.994	356.058	399.018	78.112	291.509	408.525	85.511	385.533	412.248	0.00042408	0.00029174	9.6556e-05	1219.9	4.0913e-06	3.4925e-06	1305	254.25	3.4601e-06	1.4097e-06	316	86.897	69.625	20.091	3.9459e-06	27.737	0.00011609	0.0001294	3.2409e-05	1165	1.2637e-06	1.3955e-06	1250.7	244	1.3079e-06	1.4476e-06	299.2	83.03	66.492	19.646	1.3465e-06	26.601	111.040	288.261	170.094	72.225	198.955	180.127	71.922	79.276	188.813	349.220	78.730	85.719	86.187	93.179	202.938	92.648	-8191	255	
23189.174	1	1	0	0	0.24639	0.12538	0.049987	0.099807	0.32943	0.12324	0.49877	0.18222	0.16506	0.080248	0.13358	0.22472	0.11267	0.064971	0.19176	0.25599	-3.6688	-4.6667	-4.4125	-4.2708	-4.7792	-4.0542	-4.4521	-4.8792	-3.8646	-4.675	-4.5	-4.0083	-4.8521	-3.9813	-4.1875	-4.9104	301.983	272.960	213.098	421.078	174.127	120.501	334.479	220.432	185.351	117.961	372.927	393.413	169.678	109.085	199.552	106.130	0.00051025	0.00013453	9.4882e-05	1221.8	5.4129e-06	1.2229e-06	1316.9	255.53	1.585e-06	1.5426e-06	318.33	87.417	69.857	20.367	6.1958e-06	27.665	0.0001302	0.00013375	3.3873e-05	1171.9	1.3989e-06	1.4634e-06	1258.5	245.57	1.393e-06	1.3913e-06	301.39	83.467	67.095	19.718	1.2774e-06	26.692	129.495	395.739	123.504	71.776	160.104	282.519	71.857	79.171	255.765	143.963	79.279	85.566	85.753	93.540	144.252	92.807	-8191	255	
23189.270	1	1	0	0	0.18504	0.042122	0.10423	0.078228	0.23544	0.12396	0.14836	0.17191	0.077787	0.16485	0.11125	0.14898	0.11046	0.084765	0.32857	0.18711	-3.6271	-4.5396	-4.5813	-4.0333	-4.8396	-4.0833	-4.3292	-4.9979	-3.9771	-4.4563	-4.8021	-3.8396	-4.9812	-4.4333	-4.075	-5.1396	155.981	173.839	192.268	127.461	280.253	209.937	353.587	347.467	288.149	263.213	357.100	125.264	247.611	346.777	416.349	307.279	0.00039875	0.00031858	7.7002e-05	1230	1.9312e-06	3.6531e-06	1319.1	257.14	3.6945e-06	2.0602e-06	321.48	88.24	70.938	20.578	2.575e-06	28.145	0.00013284	0.00012369	3.1677e-05	1177.8	1.3975e-06	1.3435e-06	1263.8	246.89	1.4437e-06	1.3627e-06	303.34	84.481	67.834	20.025	1.3077e-06	27.17	124.617	87.896	91.751	71.756	204.847	174.638	71.920	79.229	179.307	160.870	79.199	85.935	85.402	92.875	127.844	92.263	-8191	255	
23189.365	1	1	0	0	0.1663	0.05324	0.19021	0.12087	0.084507	0.10872	0.24806	0.1645	0.27631	0.19319	0.069462	0.16739	0.075319	0.12096	0.054075	0.33067	-3.775	-4.4729	-4.6333	-4.0312	-4.7375	-4.2479	-4.4625	-4.9563	-4.0896	-4.4333	-4.9917	-3.8729	-4.85	-4.5083	-4.1792	-4.9521	106.391	144.817	200.424	356.868	370.837	379.637	327.010	352.324	107.155	375.828	378.322	411.219	330.873	315.654	200.427	338.160	0.00040368	0.00035477	9.1789e-05	1241.3	2.5545e-06	2.0926e-06	1336.7	261.18	1.5568e-06	3.1988e-06	322.84	89.716	72.041	21.025	5.4288e-06	28.457	0.00014527	0.00012946	3.3308e-05	1189.6	1.557e-06	1.4287e-06	1279.9	251.41	1.576e-06	1.4366e-06	306.91	85.977	69.013	20.408	1.386e-06	27.583	115.859	198.410	176.424	71.913	266.491	126.412	71.855	79.241	219.851	84.728	78.680	85.681	85.796	92.930	178.307	92.807	-8191	255	
23189.486	1	1	0	0	0.16998	0.29558	0.144	0.056129	0.0068244	0.050693	0.35912	0.056895	0.24266	0.037388	0.061095	0.17453	0.10836	0.11901	0.1234	0.11603	-3.875	-4.2583	-4.8354	-3.9708	-4.5188	-4.4646	-4.2146	-5.0667	-4.1208	-4.1792	-4.8333	-4.0167	-4.6771	-4.7833	-4.1417	-4.9313	278.702	242.516	198.400	379.601	162.917	343.466	379.448	407.287	279.978	262.424	363.656	112.196	317.035	310.578	409.156	136.955	0.00028349	0.00044369	6.4744e-05	1247.5	2.6543e-06	1.567e-06	1346.5	265.15	1.0833e-06	3.7107e-06	326.04	90.361	72.928	21.273	3.6056e-06	28.858	0.00014902	0.00013425	3.4969e-05	1198.8	1.5835e-06	1.4675e-06	1288.6	254.81	1.5969e-06	1.4853e-06	309.88	86.868	69.686	20.699	1.4582e-06	28.074	128.709	94.217	131.146	71.918	259.281	345.892	71.921	79.338	295.883	126.187	79.271	85.256	85.658	93.119	159.432	92.096	-8191	255	
23189.582	1	1	0	0	0.12093	0.044752	0.054516	0.092381	0.14	0.37814	0.12276	0.29569	0.089902	0.21815	0.11733	0.055445	0.17228	0.20813	0.12519	0.037718	-3.9042	-4.1167	-4.9792	-4.325	-4.4396	-4.5896	-4.1917	-4.9271	-4.4125	-4.2104	-5.1604	-4.1083	-4.4125	-4.7354	-3.8542	-4.8375	258.874	214.198	403.867	152.731	294.662	238.572	414.384	307.775	189.716	408.515	70.742	106.610	87.475	411.978	288.663	159.592	0.00028192	0.00024188	0.00012303	1252.3	4.2154e-06	5.3766e-07	1350.6	263.22	2.4106e-06	4.1322e-06	325.58	90.632	72.337	21.12	5.0879e-06	28.65	0.00015046	0.00013613	3.7179e-05	1200.8	1.581e-06	1.4524e-06	1288.3	254.48	1.5389e-06	1.424e-06	309.63	87.079	69.374	20.628	1.5184e-06	27.949	133.528	66.058	89.213	71.942	200.307	99.175	71.972	78.897	190.868	215.945	79.365	85.711	85.482	93.010	179.817	92.393	-8191	255	
23189.676	1	1	0	0	0.16948	0.21794	0.2658	0.058644	0.032727	0.10451	0.36594	0.12157	0.19191	0.13854	0.13102	0.13401	0.0635	0.15334	0.15951	0.1096	-4.1813	-4.1438	-5.0167	-4.2688	-4.3583	-4.6542	-4.1896	-4.7375	-4.5188	-4.1292	-4.9667	-4.2646	-4.2125	-4.7917	-3.9146	-4.6458	396.522	354.626	397.650	68.445	198.415	299.341	340.507	318.829	253.804	120.351	220.808	281.393	214.841	89.706	99.284	246.058	0.00037389	0.000125	0.00018522	1246.9	3.4457e-06	2.6846e-06	1338.1	264.01	3.5715e-06	1.9308e-06	324.95	90.519	73.194	21.401	4.0955e-06	28.765	0.0001413	0.00012563	3.7986e-05	1199.2	1.491e-06	1.3635e-06	1284.2	254.19	1.4795e-06	1.3785e-06	310.26	86.892	69.61	20.677	1.5476e-06	27.922	118.949	263.114	169.651	72.026	227.291	160.518	71.849	79.107	220.694	166.595	79.038	85.475	85.879	93.142	155.251	92.355	-8191	255	
23189.771	1	1	0	0	0.21043	0.059708	0.20766	0.2942	0.11235	0.1454	0.13012	0.144	0.01657	0.16653	0.12177	0.13324	0.19736	0.042762	0.3381	0.1627	-4.3542	-3.9708	-5.0271	-4.4042	-4.1937	-4.8438	-4.2438	-4.7375	-4.6396	-4.125	-4.8479	-4.4062	-4.0437	-4.8458	-4.0938	-4.4854	357.136	372.102	168.605	398.714	419.091	405.546	309.064	70.809	196.376	372.038	297.271	356.323	298.985	305.563	411.314	283.628	0.00044065	0.00031404	0.00016553	1253.9	2.9848e-06	2.0958e-06	1335.4	262.5	2.1105e-06	3.842e-06	325.19	89.923	72.542	21.111	5.127e-06	28.77	0.00013433	0.00012564	3.9566e-05	1199.2	1.4221e-06	1.3534e-06	1285.1	253.63	1.4093e-06	1.3763e-06	309.86	86.697	69.192	20.603	1.5769e-06	27.904	100.761	138.430	164.604	71.974	186.552	255.541	71.912	79.483	200.876	211.776	78.940	85.687	86.076	93.010	173.967	92.399	-8191	255	
23189.846	1	1	0	0	0.096745	0.055676	0.36037	0.17928	0.13326	0.20208	0.20718	0.21696	0.14985	0.073988	0.1161	0.16741	0.015917	0.17965	0.025518	0.060249	-4.3771	-4.0146	-4.8187	-4.3271	-4.1083	-4.8063	-4.15	-4.4062	-4.6271	-3.8167	-4.8875	-4.4104	-4.2521	-4.9104	-3.9396	-4.4104	252.876	346.659	418.699	65.303	348.192	235.652	337.807	355.437	270.488	197.238	326.116	338.590	98.871	369.645	100.562	229.940	0.00040059	2.7796e-05	7.0931e-05	1246.9	2.9786e-06	1.4587e-06	1338.6	263.78	1.6884e-06	1.8477e-06	325.54	90.198	72.47	21.358	3.6875e-06	28.625	0.00012869	0.00012827	3.9908e-05	1194.3	1.3778e-06	1.3913e-06	1285	253.73	1.3484e-06	1.4226e-06	309.94	86.507	69.11	20.677	1.5375e-06	27.702	115.680	73.930	139.642	72.145	218.607	131.239	71.978	79.157	211.117	123.000	79.382	85.938	86.063	92.681	161.975	92.583	-8191	255	
23189.965	1	1	0	0	0.19735	0.25407	0.060797	0.14782	0.12922	0.074057	0.048313	0.034208	0.037892	0.18741	0.28416	0.3689	0.10314	0.15148	0.27327	0.057884	-4.4396	-4.0208	-4.7146	-4.6021	-4.0167	-4.95	-4.25	-4.5271	-4.8146	-3.9958	-4.6875	-4.7708	-4.0521	-5.0271	-4.3583	-4.1687	154.008	139.533	362.495	369.255	153.993	238.562	73.032	360.438	210.782	242.585	388.855	92.577	332.640	101.194	113.969	209.608	0.0003603	0.00035847	0.0001196	1244.2	2.6604e-06	2.9557e-06	1335.5	261.74	3.4839e-06	1.9216e-06	322.85	89.575	72.269	21.117	1.8401e-06	28.671	0.00012187	0.00013142	3.7989e-05	1192.3	1.3022e-06	1.438e-06	1281.1	252.02	1.2968e-06	1.4664e-06	307.85	86.224	68.987	20.627	1.4523e-06	27.698	120.682	121.841	118.771	72.118	209.779	120.308	71.947	79.405	149.862	102.434	79.400	86.017	85.730	93.126	128.966	92.580	-8191	255	
23190.061	1	1	0	0	0.067224	0.14348	0.014162	0.080435	0.1265	0.2594	0.14409	0.16773	0.094318	0.26404	0.11759	0.16434	0.2229	0.35072	0.046614	0.23353	-4.6042	-4.0146	-4.5667	-4.7521	-3.8875	-4.7	-4.4333	-4.1833	-4.7896	-3.9437	-4.6646	-4.8083	-3.7938	-4.9375	-4.3167	-4.2792	82.931	351.590	272.070	105.657	227.283	338.451	335.547	345.066	254.097	212.435	93.730	385.196	146.772	73.815	145.081	364.685	0.000457	0.0005697	5.1912e-05	1243.8	6.1545e-06	1.3223e-06	1332.4	261.91	5.3275e-06	5.1804e-06	323.58	90.037	72.16	21.204	9.6037e-07	28.612	0.00012388	0.00013639	3.5354e-05	1191.3	1.3155e-06	1.4779e-06	1278.6	251.46	1.3273e-06	1.4709e-06	307.33	85.907	68.725	20.647	1.3687e-06	27.596	130.620	152.644	86.373	72.016	192.524	334.420	72.128	79.115	167.940	132.210	78.878	85.861	85.443	92.814	203.892	92.545	-8191	255	
23190.156	1	1	0	0	0.12482	0.26835	0.19567	0.22006	0.19899	0.04959	0.12318	0.14934	0.20809	0.070246	0.28361	0.062062	0.10239	0.010729	0.053428	0.17912	-4.525	-4.0333	-4.4646	-4.625	-4.0021	-4.8438	-4.5542	-4.0354	-4.95	-4.1708	-4.3708	-4.9167	-3.8688	-4.6333	-4.4146	-4.1271	105.822	253.161	152.089	394.075	363.422	241.661	348.424	350.663	337.130	310.435	284.069	99.513	172.574	413.814	241.171	416.423	0.00037044	0.00023659	4.9033e-05	1245.7	5.6666e-06	1.924e-06	1332.1	261.55	3.5306e-06	5.2463e-06	323.74	90.569	72.244	21.149	4.5635e-06	28.638	0.00012871	0.00013437	3.4412e-05	1190.7	1.3809e-06	1.4888e-06	1277.1	251.07	1.416e-06	1.4721e-06	307.05	86.186	69.021	20.642	1.3681e-06	27.656	122.678	165.456	224.586	72.108	222.963	107.400	71.908	79.361	211.981	228.220	79.197	85.765	85.967	93.391	232.933	92.901	-8191	255	
23190.277	1	1	0	0	0.17204	0.10917	0.22181	0.24781	0.068088	0.22327	0.063455	0.086081	0.16369	0.16869	0.23781	0.14198	0.17333	0.29787	0.1781	0.16453	-4.55	-4.1771	-4.2188	-4.9708	-3.7729	-4.6042	-4.9	-4.0458	-4.8812	-4.3083	-4.2208	-4.9667	-3.9979	-4.6312	-4.6	-4.025	295.657	64.930	69.742	318.730	185.308	191.935	415.768	351.867	169.159	204.354	355.293	137.136	66.242	357.240	102.426	63.565	0.00038572	0.00034328	6.2899e-05	1246.2	2.7131e-06	4.9985e-06	1336.9	263.95	1.5199e-06	1.7746e-06	324.01	90.173	72.321	21.258	3.113e-06	28.425	0.00013424	0.00013105	3.376e-05	1191.7	1.4724e-06	1.419e-06	1279	252.06	1.4848e-06	1.4171e-06	307.45	86.323	69.371	20.549	1.2933e-06	27.667	120.947	194.269	99.929	72.121	248.596	193.801	72.360	79.510	172.043	134.908	79.201	85.810	86.317	92.968	110.152	92.944	-8191	255	
23190.373	1	1	0	0	0.16812	0.16998	0.038834	0.33478	0.17577	0.097134	0.13522	0.26372	0.23368	0.19654	0.15551	0.067097	0.12635	0.052928	0.37774	0.21015	-4.6021	-4.375	-3.9792	-5.1167	-4.0729	-4.3854	-5.0646	-3.9729	-4.6854	-4.2708	-4.3438	-4.7542	-4.2438	-4.5708	-4.825	-4.0521	92.979	261.225	84.726	82.516	62.653	346.444	418.713	372.895	310.876	400.960	287.592	290.841	75.523	246.464	316.236	89.632	0.00034997	0.00029256	8.701e-05	1242.4	2.7424e-06	4.8368e-06	1334.4	261.01	3.0006e-06	9.08e-07	323.45	90.401	72.05	21.084	4.284e-06	28.664	0.00014202	0.00012818	3.3007e-05	1191.2	1.5231e-06	1.4114e-06	1280.7	252.09	1.5211e-06	1.3919e-06	307.75	86.45	69.263	20.626	1.3024e-06	27.765	134.352	350.304	149.657	72.235	225.649	161.895	72.269	79.577	182.902	390.502	79.135	85.923	86.242	92.760	186.043	93.000	-8191	255	
23190.445	1	1	0	0	0.21805	0.026198	0.098807	0.22791	0.10983	0.2067	0.26892	0.016921	0.099821	0.23785	0.27959	0.21951	0.11571	0.10838	0.25009	0.15958	-4.5354	-4.4292	-4.0625	-5.1375	-3.9771	-4.2104	-5.1146	-3.9771	-4.7	-4.5167	-4.0062	-5.0396	-4.2604	-4.3021	-4.6687	-3.9375	157.135	259.965	261.491	384.481	164.176	277.990	365.878	414.600	131.430	97.017	227.484	418.627	420.866	420.359	69.526	396.751	0.00031825	0.00029355	4.9056e-05	1239.7	2.003e-06	8.9791e-07	1333.3	261.47	1.3758e-06	7.2169e-06	320.75	90.002	71.853	21.309	2.9931e-06	28.845	0.00014152	0.00012636	3.3061e-05	1192.6	1.512e-06	1.3655e-06	1279.9	252.5	1.4896e-06	1.3557e-06	306.54	86.515	69.161	20.661	1.3274e-06	27.9	122.835	116.394	154.178	72.269	220.514	211.576	72.299	79.819	130.176	184.592	79.238	85.723	86.091	92.814	166.077	92.525	-8191	255	
23190.566	1	1	0	0	0.060191	0.046339	0.27788	0.26294	0.16293	0.050089	0.2738	0.29528	0.19221	0.25085	0.21342	0.032233	0.11209	0.095594	0.2126	0.046316	-4.2188	-4.5229	-3.9437	-4.9167	-4.2083	-4.2104	-5.1271	-4.0229	-4.5271	-4.7146	-3.9979	-5.0125	-4.5021	-4.2333	-4.85	-4.0833	302.877	92.919	75.266	338.975	178.752	156.760	398.745	394.993	348.623	399.097	69.587	355.054	325.258	73.020	281.007	226.893	0.00029871	0.00036464	0.00015999	1237	4.3196e-06	4.1703e-06	1332	261.76	3.4332e-06	9.1594e-07	322.13	90.235	72.123	21.162	6.6586e-06	28.634	0.00013936	0.00012459	3.3466e-05	1193.4	1.4593e-06	1.3449e-06	1279.7	252.6	1.449e-06	1.3276e-06	307.2	86.754	69.079	20.593	1.3395e-06	27.822	125.115	167.398	112.859	72.372	211.030	157.774	72.048	79.566	162.544	130.507	78.916	85.808	86.290	93.089	156.785	93.112	-8191	255	
23190.662	1	1	0	0	0.08876	0.21144	0.26479	0.12427	0.051213	0.024753	0.22536	0.2795	0.031785	0.3911	0.19615	0.1157	0.098663	0.1259	0.39529	0.41406	-4.1167	-4.5896	-3.9688	-4.9187	-4.3271	-3.9	-5.0667	-4.2625	-4.3042	-4.8292	-3.8833	-4.75	-4.5958	-4.0604	-4.8167	-4.2708	259.893	328.029	176.073	323.852	264.469	326.794	79.183	391.680	265.109	135.325	337.035	310.085	68.508	420.414	152.214	338.435	0.00035155	0.00026649	4.9885e-05	1236.6	1.3198e-06	2.9366e-06	1332.2	261.58	2.9522e-06	4.0809e-06	322.33	89.959	72.641	21.132	5.8053e-06	28.703	0.00013125	0.00011607	3.4997e-05	1192.7	1.3595e-06	1.2907e-06	1279.8	252.72	1.3759e-06	1.258e-06	307.06	86.625	68.999	20.559	1.4243e-06	27.845	118.169	85.089	191.850	72.365	148.091	149.052	72.236	79.236	245.987	250.472	79.211	85.932	86.011	92.838	165.456	92.970	-8191	255	
23190.758	1	1	0	0	0.22883	0.1906	0.14848	0.19502	0.11661	0.14632	0.34977	0.12436	0.10533	0.20469	0.13452	0.12622	0.11	0.045682	0.18179	0.051787	-4.0167	-4.8104	-3.9604	-4.9104	-4.5042	-3.9813	-4.9958	-4.1229	-4.2667	-4.875	-3.9854	-4.7229	-4.5208	-3.9146	-4.7729	-4.4313	360.876	357.765	80.024	378.158	421.230	324.942	376.779	313.858	313.371	135.082	306.953	354.284	190.041	135.410	223.570	374.103	0.00044402	0.00024299	0.00012514	1239.2	2.6426e-06	3.5446e-06	1335.4	260.7	4.1919e-06	3.3265e-06	323.21	90.174	72.705	21.005	4.047e-06	28.538	0.00013064	0.00011507	3.7342e-05	1192.4	1.3642e-06	1.2817e-06	1280.6	252.08	1.3557e-06	1.2723e-06	307.99	86.497	69.068	20.49	1.494e-06	27.795	129.220	118.195	175.949	72.222	162.338	226.135	72.023	79.530	279.243	179.991	79.195	85.805	86.187	92.809	189.090	92.488	-8191	255	
23190.877	1	1	0	0	0.18104	0.094816	0.069019	0.12003	0.058757	0.034798	0.11552	0.27999	0.25577	0.069807	0.0059565	0.31201	0.21486	0.26937	0.19287	0.10152	-4.0125	-4.7854	-3.9208	-4.6333	-4.7021	-3.8771	-4.8771	-4.2271	-4.075	-4.8021	-4.125	-4.6958	-4.6062	-4.0917	-4.7771	-4.4917	347.978	126.435	389.718	285.302	318.844	157.258	64.548	385.733	339.436	102.889	272.431	382.906	331.655	413.432	261.636	74.066	0.00042835	0.00032039	7.1748e-05	1239.7	3.0502e-06	4.7067e-06	1336.9	262.19	1.5786e-06	6.0582e-06	322.64	90.836	71.878	21.399	2.6388e-06	28.609	0.00012364	0.00011764	3.8069e-05	1191.5	1.2941e-06	1.3076e-06	1280.9	252.04	1.2579e-06	1.2947e-06	307.82	86.451	68.578	20.65	1.4663e-06	27.614	118.709	188.634	142.418	72.060	236.418	161.094	72.153	79.629	160.992	183.364	79.239	86.022	86.381	92.817	307.846	93.085	-8191	255	
23190.973	1	1	0	0	0.17843	0.092825	0.06458	0.13787	0.080924	0.20674	0.1843	0.4029	0.12019	0.10926	0.24669	0.17342	0.24522	0.16987	0.14739	0.3032	-3.875	-4.7812	-4.1042	-4.4271	-4.7125	-3.8708	-4.9521	-4.5042	-4.0625	-4.8958	-4.2958	-4.3042	-4.8521	-3.8542	-4.6792	-4.6458	383.536	88.350	349.870	243.062	134.895	139.197	324.957	345.452	217.803	75.633	408.249	173.166	138.999	81.464	261.795	377.397	0.00035378	0.00056312	0.00011819	1232.8	2.0143e-06	5.3998e-06	1325.6	260.08	3.396e-06	7.6289e-06	320.42	89.13	72.317	21.135	1.6435e-06	28.371	0.00011845	0.00012072	3.6445e-05	1188.7	1.2313e-06	1.36e-06	1277.4	250.82	1.2137e-06	1.3585e-06	305.89	85.845	68.653	20.476	1.3766e-06	27.517	116.254	115.433	202.604	72.056	185.811	146.166	72.292	79.751	208.982	213.556	79.395	86.082	86.064	92.955	217.399	92.815	-8191	255	
23191.045	1	1	0	0	0.022543	0.036474	0.070211	0.11173	0.018071	0.12553	0.30099	0.065235	0.13371	0.069619	0.24687	0.1309	0.039636	0.14361	0.16598	0.16356	-3.8354	-4.7063	-4.2063	-4.3854	-4.6833	-4.0062	-4.85	-4.6687	-3.8667	-4.6604	-4.1917	-4.1375	-4.7562	-3.9688	-4.2917	-4.7479	124.864	337.128	397.530	365.513	373.681	349.720	362.801	416.361	174.198	259.341	266.758	348.316	258.402	104.746	301.404	199.679	0.00035686	0.00036059	0.00011263	1237.4	1.0016e-06	1.037e-06	1326.4	261.52	3.9785e-06	3.2406e-06	321.33	89.566	71.864	20.78	3.5069e-06	28.307	0.00011553	0.00012852	3.504e-05	1187.6	1.2301e-06	1.4121e-06	1276	250.84	1.2657e-06	1.4056e-06	306.14	85.843	68.458	20.452	1.3225e-06	27.486	122.860	146.529	157.421	72.431	188.826	356.100	72.176	79.792	226.897	201.589	79.316	85.665	86.019	93.342	222.578	92.744	-8191	255	
23191.141	1	1	0	0	0.011162	0.13326	0.076204	0.15341	0.12336	0.095841	0.24628	0.19424	0.17262	0.20059	0.23735	0.21313	0.20926	0.2377	0.1355	0.26412	-3.5583	-4.8333	-4.3646	-4.275	-4.6292	-4.0979	-4.5687	-4.7104	-3.7708	-4.7125	-4.525	-4.0563	-4.9437	-4.0792	-4.3	-4.85	212.124	230.773	268.373	79.478	87.893	187.517	312.934	318.256	319.847	293.687	380.181	358.665	373.735	385.956	216.853	345.247	0.00039386	0.00014181	7.8938e-05	1234	3.1857e-06	2.8496e-06	1334.3	261.13	3.6359e-06	6.0766e-06	321.59	89.867	71.475	20.924	2.438e-06	28.352	0.00012151	0.00013101	3.3528e-05	1185.7	1.3021e-06	1.4258e-06	1277.5	250.47	1.3371e-06	1.4324e-06	305.91	85.396	68.432	20.384	1.312e-06	27.354	125.198	66.588	125.675	72.262	223.621	186.424	71.958	79.602	102.085	217.314	79.367	85.723	86.229	93.154	105.070	92.750	-8191	255	
23191.262	1	1	0	0	0.2106	0.085048	0.22041	0.30362	0.048992	0.080023	0.23085	0.19523	0.13809	0.16252	0.27533	0.18848	0.15271	0.13438	0.090583	0.072223	-3.4375	-4.7063	-4.5	-4.1062	-4.825	-4.0938	-4.3125	-4.8438	-3.8646	-4.4708	-4.6354	-3.9896	-4.8625	-4.1708	-4.2875	-4.8375	168.481	84.227	396.361	373.055	327.788	316.238	322.400	68.168	389.304	283.805	105.295	404.566	311.538	413.637	187.217	244.375	0.0003502	0.00020289	6.8249e-05	1241.3	4.3627e-06	1.646e-06	1327.6	260.21	3.8049e-06	2.402e-06	320.3	89.356	71.776	20.98	6.6449e-06	28.25	0.00012686	0.00012661	3.2568e-05	1185.2	1.3806e-06	1.3979e-06	1271.8	249.39	1.4025e-06	1.366e-06	304.63	85.447	68.504	20.308	1.2866e-06	27.302	118.611	150.223	260.047	72.079	213.009	78.454	72.181	79.603	198.734	199.615	79.494	85.863	86.277	93.206	234.413	92.809	-8191	255	
23191.357	1	1	0	0	0.12212	0.096786	0.26902	0.090443	0.2368	0.12671	0.16904	0.11122	0.19005	0.057682	0.17864	0.42992	0.069392	0.22831	0.016115	0.11028	-3.6188	-4.4521	-4.7125	-4.2104	-4.7396	-4.2354	-4.2438	-4.8021	-4.0375	-4.5167	-4.8021	-3.9313	-4.7083	-4.425	-4.0771	-4.9542	86.522	402.257	399.432	68.512	390.396	358.984	408.270	269.393	250.864	372.193	394.569	321.310	77.101	377.266	226.070	178.531	0.0003827	0.00014254	5.7247e-05	1238.2	5.4865e-06	2.5777e-06	1328.8	261.01	1.0487e-06	3.0559e-06	320.5	89.286	71.803	20.837	4.2911e-06	28.282	0.0001341	0.00012414	3.2043e-05	1186.2	1.457e-06	1.3363e-06	1272.4	250.19	1.4653e-06	1.334e-06	304.72	85.279	68.469	20.229	1.2294e-06	27.365	122.235	288.312	121.162	72.007	222.458	155.361	72.015	79.575	180.507	224.566	79.347	85.464	86.223	93.101	118.010	92.828	-8191	255	
23191.453	1	1	0	0	0.18688	0.19423	0.13445	0.24214	0.16455	0.19863	0.11494	0.18457	0.13749	0.15787	0.25363	0.11788	0.15417	0.1615	0.32992	0.086031	-3.5625	-4.2979	-4.6958	-4.1083	-4.7896	-4.2792	-4.2479	-4.9812	-3.9021	-4.3542	-4.8979	-4.1104	-4.7292	-4.4333	-3.9146	-4.9375	196.488	192.113	166.960	87.345	115.359	405.187	353.372	305.991	172.180	187.520	262.849	168.896	79.121	413.820	244.833	66.790	0.0004186	0.00026614	6.5442e-05	1233.2	6.4821e-07	2.6673e-06	1322.5	259.59	1.4938e-06	1.2777e-06	319.44	89.45	71.263	20.804	4.2007e-06	28.275	0.00013509	0.00011926	3.0918e-05	1182.6	1.4265e-06	1.2893e-06	1268	248.98	1.3798e-06	1.2587e-06	302.42	85.028	67.823	20.146	1.1682e-06	27.304	127.061	101.318	126.759	72.233	250.741	182.218	71.873	79.788	115.645	293.392	79.226	85.959	85.748	93.138	153.622	92.711	-8191	255	
23191.551	1	1	0	0	0.084936	0.12814	0.30902	0.010446	0.077299	0.041243	0.30597	0.086256	0.05459	0.12601	0.090783	0.075048	0.10309	0.26545	0.14123	0.12534	-3.7583	-4.2312	-4.6271	-4.1083	-4.5479	-4.6771	-4.1104	-4.9625	-4.0563	-4.1042	-4.7937	-3.8792	-4.6188	-4.7354	-3.9104	-4.8125	181.528	238.158	327.293	234.622	150.639	276.602	371.337	248.320	398.685	269.426	85.963	187.521	159.116	105.528	388.108	395.604	0.00039969	0.00039665	0.00015513	1231.5	1.0315e-06	5.7772e-07	1323.6	259.01	2.9251e-06	1.0912e-06	318.41	88.338	71.151	20.694	6.7288e-06	28.008	0.00012471	0.00011061	2.8822e-05	1179.5	1.3017e-06	1.1737e-06	1265.7	248.01	1.2365e-06	1.152e-06	301.24	84.616	67.447	19.976	1.1604e-06	27.084	115.633	156.304	129.950	72.250	212.708	221.100	72.088	79.492	228.918	303.729	79.159	86.023	85.801	92.924	168.714	92.567	-8191	255	
23191.670	1	1	0	0	0.12643	0.12655	0.12273	0.25566	0.079442	0.22819	0.11278	0.11862	0.14395	0.0061641	0.10538	0.13062	0.16065	0.055761	0.19584	0.2018	-4.025	-4.1896	-4.9104	-4.1521	-4.3792	-4.7229	-4.2562	-5	-4.2771	-4.1458	-5.0604	-4.1396	-4.3583	-4.75	-3.9229	-4.8438	290.400	385.351	321.177	410.943	383.723	314.289	384.425	271.086	175.540	67.182	90.467	398.226	98.078	330.404	207.280	370.539	0.00031642	0.00014797	8.7229e-06	1227.2	1.5203e-06	2.6983e-06	1320.5	256.03	1.5806e-06	2.1775e-06	316.92	88.544	71.076	20.539	6.9489e-06	27.972	0.00011418	0.00010295	2.9116e-05	1174.5	1.2063e-06	1.0996e-06	1260.8	246.81	1.1837e-06	1.1066e-06	300.97	84.315	67.11	19.845	1.2332e-06	27.106	128.757	194.803	141.055	72.170	242.175	179.661	71.947	79.770	168.024	232.199	79.257	86.039	86.149	93.531	173.630	93.426	-8191	255	
23191.742	1	1	0	0	0.12358	0.095452	0.095564	0.22781	0.23406	0.040773	0.1555	0.060039	0.1531	0.058125	0.14173	0.12015	0.10733	0.12508	0.22129	0.24121	-4.1542	-3.9188	-4.8208	-4.1979	-4.2146	-4.8167	-4.0729	-4.7604	-4.6458	-3.9625	-5.0271	-4.3271	-4.2604	-4.9833	-3.8604	-4.6646	180.308	199.664	101.524	403.018	94.004	257.154	362.828	353.905	419.811	175.771	105.486	250.496	377.031	64.368	418.063	385.436	0.0003741	0.00026603	0.00020803	1224	4.0244e-06	1.8218e-06	1319	257.02	2.4157e-06	2.6967e-06	316.9	88.221	71.198	20.66	3.8673e-06	28.001	0.00011197	0.00010261	3.1809e-05	1171.6	1.213e-06	1.1198e-06	1260.5	246.75	1.1835e-06	1.1469e-06	301.65	84.337	67.387	19.865	1.3398e-06	27.039	131.100	104.896	146.536	72.329	189.946	215.530	71.950	79.867	258.756	203.599	79.332	86.118	86.128	93.218	189.999	92.657	-8191	255	
23191.840	1	1	0	0	0.15417	0.30707	0.16623	0.30596	0.16999	0.25276	0.34299	0.12894	0.18416	0.088518	0.14605	0.073255	0.097064	0.39771	0.090733	0.11031	-4.1687	-4.0729	-4.9229	-4.5104	-4.1312	-4.9333	-4.2375	-4.6021	-4.6167	-4.025	-4.8521	-4.4125	-4.0146	-4.7562	-3.9292	-4.4042	147.663	208.600	311.398	362.854	270.686	379.844	382.548	69.938	134.844	160.247	410.138	282.866	195.423	381.243	310.621	194.960	0.00035209	0.00016363	0.0001525	1223.4	3.891e-06	2.2395e-06	1319	257.45	1.7294e-06	7.2589e-06	315.69	88.693	70.586	20.447	6.1819e-06	28.007	0.00011303	0.00010416	3.3929e-05	1171.7	1.2011e-06	1.1566e-06	1261.7	246.32	1.1592e-06	1.183e-06	301.05	84.333	66.918	19.8	1.3675e-06	26.943	114.987	99.536	163.850	72.074	256.814	218.210	72.057	79.261	133.904	169.637	79.186	86.057	86.224	93.638	169.279	92.568	-8191	255	
23191.957	1	1	0	0	0.038904	0.14515	0.31951	0.17564	0.26119	0.16563	0.2855	0.34511	0.2219	0.12422	0.15664	0.28485	0.23379	0.14491	0.3095	0.073851	-4.3396	-3.7417	-4.8792	-4.7479	-4.0271	-4.9417	-4.1354	-4.5625	-4.9229	-3.9646	-4.8146	-4.5312	-4.0479	-5.025	-4.0833	-4.3729	342.901	317.995	121.782	332.952	282.625	202.094	405.552	383.645	215.399	375.636	398.444	343.692	401.997	354.408	125.076	406.268	0.00039489	0.00041661	0.00010624	1222.1	3.6523e-06	4.0219e-06	1318.5	255.56	3.8492e-06	3.9164e-06	316.65	88.783	70.855	20.47	3.1622e-06	27.983	0.00011057	0.0001108	3.3694e-05	1169.4	1.1588e-06	1.2282e-06	1260.3	245.99	1.1454e-06	1.2447e-06	301.56	84.239	66.837	19.866	1.3423e-06	27.027	117.922	402.707	140.647	72.123	218.133	138.170	71.923	79.458	207.677	210.462	79.380	85.827	86.330	93.128	155.121	92.646	-8191	255	
23192.055	1	1	0	0	0.27407	0.13054	0.18235	0.17767	0.049409	0.19852	0.36161	0.057697	0.15641	0.087909	0.13793	0.1878	0.29149	0.20666	0.24536	0.11401	-4.3979	-3.8	-4.7354	-4.6333	-4.0521	-4.8208	-4.2771	-4.4313	-4.8375	-3.7875	-4.5208	-4.7396	-4.0792	-4.8333	-4.0771	-4.1562	400.740	330.344	133.511	69.700	146.589	140.085	347.024	404.569	293.014	255.795	316.370	140.645	97.863	124.625	357.968	319.757	0.00044131	0.0002682	3.5917e-05	1225.6	3.439e-06	2.8369e-06	1318.8	255.84	1.9854e-06	2.2541e-06	318.63	88.918	71.176	20.519	6.4348e-06	27.979	0.00010968	0.00011926	3.312e-05	1173.9	1.1664e-06	1.3004e-06	1261.8	245.88	1.1477e-06	1.3162e-06	301.71	84.181	67.098	19.952	1.2673e-06	26.887	121.764	413.305	258.503	72.305	225.295	185.181	72.149	79.355	176.397	163.765	78.874	85.965	86.091	93.035	256.880	92.848	-8191	255	
23192.150	1	1	0	0	0.16381	0.050006	0.10992	0.10547	0.20443	0.15679	0.15619	0.24743	0.12035	0.12952	0.1156	0.27849	0.35426	0.021817	0.044618	0.21085	-4.4792	-4.0083	-4.3917	-4.825	-3.9229	-4.8854	-4.3979	-4.2833	-4.825	-4.0979	-4.4521	-4.8042	-4.0375	-4.6875	-4.3083	-4.1562	419.953	336.381	343.124	337.395	127.222	399.277	372.079	387.021	97.605	353.030	196.954	305.237	358.572	62.491	109.198	367.460	0.00044505	0.00024201	0.00010865	1225.3	3.1044e-06	2.1114e-06	1317.8	256.97	2.4875e-06	1.427e-06	318.99	88.094	70.72	20.548	3.0008e-06	28.09	0.00011192	0.00012263	3.1725e-05	1173.8	1.2193e-06	1.354e-06	1262.8	246.51	1.233e-06	1.367e-06	301.62	83.949	67.085	19.96	1.2579e-06	26.987	122.079	91.234	144.515	72.178	215.860	211.166	72.022	79.257	217.481	196.132	79.081	85.652	85.893	93.170	224.783	92.794	-8191	255	
23192.246	1	1	0	0	0.22085	0.19975	0.16555	0.083869	0.1705	0.065311	0.11082	0.25617	0.085894	0.077584	0.1158	0.024668	0.17898	0.08485	0.13205	0.14912	-4.6042	-4.05	-4.2458	-4.9125	-3.9604	-4.7458	-4.6562	-4.1083	-4.9271	-4.0375	-4.3458	-4.7333	-4.1333	-4.6042	-4.6354	-4.0104	245.832	394.842	68.517	172.145	342.575	267.930	348.657	387.981	256.512	256.032	77.499	231.374	311.173	171.211	282.655	335.349	0.00039734	0.00036167	4.7295e-05	1231.9	3.2559e-06	9.7624e-07	1322.3	255.97	2.5914e-06	1.5528e-06	317.48	88.066	70.637	20.708	4.9904e-06	28.073	0.00012119	0.0001231	3.1674e-05	1176.2	1.2986e-06	1.3489e-06	1261.6	245.71	1.293e-06	1.3316e-06	301.21	83.862	67.254	19.957	1.208e-06	26.938	119.394	146.127	214.608	72.133	253.006	296.118	72.079	79.633	217.624	176.149	79.370	86.165	86.139	93.218	129.457	92.800	-8191	255	
23192.342	1	1	0	0	0.24939	0.087977	0.081463	0.087474	0.13047	0.1401	0.1651	0.096788	0.16254	0.084289	0.10324	0.12164	0.18279	0.21119	0.20137	0.26725	-4.5104	-4.0625	-4.2583	-5.0625	-3.7458	-4.5958	-5.0042	-3.9896	-4.8104	-4.1875	-4.275	-4.9792	-4.0437	-4.6604	-4.625	-3.975	401.465	154.624	234.615	416.051	267.239	161.392	374.805	326.314	274.628	104.434	377.799	353.973	142.764	381.302	356.125	320.365	0.00040755	0.0003042	4.8807e-05	1228.5	4.5934e-06	1.8431e-06	1321.5	257.37	3.6072e-06	7.444e-06	318.2	88.697	70.603	20.712	1.4576e-06	28.196	0.00012725	0.00011972	3.0888e-05	1175.1	1.3855e-06	1.2954e-06	1260.8	246.22	1.3732e-06	1.2952e-06	300.96	84.109	67.351	19.99	1.1875e-06	27.04	107.389	120.295	199.250	72.032	176.392	170.663	71.988	79.453	188.965	172.086	79.202	86.144	85.970	93.402	291.262	92.862	-8191	255	
23192.438	1	1	0	0	0.14339	0.37804	0.11935	0.27406	0.14379	0.14269	0.10375	0.067142	0.1091	0.17472	0.13377	0.24812	0.029058	0.34842	0.091402	0.13495	-4.6042	-4.3292	-3.9813	-4.9292	-3.9375	-4.3917	-4.7833	-4.0312	-4.6729	-4.5458	-4.1646	-4.9437	-4.0312	-4.4313	-4.7583	-3.9813	381.782	397.737	137.064	389.307	162.558	323.276	400.424	301.736	320.200	75.774	364.690	319.408	369.516	74.282	90.287	340.091	0.00032121	0.00023512	8.5336e-05	1228.4	1.3682e-06	3.649e-06	1320.1	257.99	1.4121e-06	7.3012e-07	318.11	88.298	71.067	20.627	3.3191e-06	28.213	0.00012992	0.00011442	3.0403e-05	1176.4	1.4078e-06	1.2684e-06	1262.5	247.17	1.3696e-06	1.2606e-06	301.47	84.258	67.5	19.954	1.1505e-06	27.073	122.743	68.076	188.265	71.997	224.577	179.766	72.160	79.220	188.442	241.515	79.284	85.923	86.017	93.310	196.851	93.078	-8191	255	
23192.559	1	1	0	0	0.16117	0.20336	0.12307	0.22244	0.028501	0.16418	0.11518	0.086526	0.065103	0.042847	0.14825	0.1915	0.3321	0.19962	0.03141	0.14614	-4.4688	-4.4854	-3.9458	-5.0979	-4.1083	-4.1917	-4.9292	-4.0563	-4.6458	-4.6708	-4.1125	-4.9375	-4.2562	-4.2688	-4.9667	-4.0708	174.384	222.503	137.920	357.913	162.241	354.702	326.817	110.607	105.522	371.875	95.159	230.826	355.378	77.081	194.582	255.818	0.00032146	0.00017486	0.00017945	1230.8	2.8051e-06	3.6273e-07	1319.5	257.52	1.9909e-06	3.1937e-06	317.39	88.418	70.981	20.505	6.8931e-06	27.91	0.00012648	0.00011087	2.9525e-05	1177.1	1.3424e-06	1.2418e-06	1261.4	247.38	1.3239e-06	1.2121e-06	300.51	84.448	67.32	19.874	1.2005e-06	27.119	124.620	416.394	91.206	71.983	223.672	253.222	72.354	79.577	276.467	89.096	79.068	85.669	86.193	93.349	171.456	92.895	-8191	255	
23192.654	1	1	0	0	0.1114	0.17756	0.29036	0.2314	0.11737	0.25275	0.33845	0.2195	0.074971	0.076269	0.43984	0.055194	0.11396	0.032473	0.035529	0.46641	-4.3063	-4.6625	-3.9292	-5.0354	-4.0687	-4.1083	-5.0021	-4.1813	-4.2229	-4.5667	-4.0458	-4.7833	-4.3458	-4.1687	-4.7521	-4.1458	301.735	151.175	325.900	317.602	115.876	299.803	371.693	327.533	243.751	324.532	351.794	315.541	65.368	420.762	85.193	111.589	0.00034581	0.00027294	6.3224e-05	1228.4	2.3379e-06	1.0168e-06	1319.2	256.47	3.6453e-06	7.3891e-07	317.72	88.259	70.303	20.405	6.3238e-06	28.19	0.00012292	0.00010799	2.9985e-05	1178.3	1.2683e-06	1.1698e-06	1263.4	247.08	1.2598e-06	1.16e-06	300.93	84.3	66.951	19.843	1.2561e-06	27.117	118.588	69.141	156.776	72.111	175.909	393.520	72.213	79.401	230.521	267.164	79.156	85.671	86.439	93.508	194.542	92.982	-8191	255	
23192.750	1	1	0	0	0.14831	0.064495	0.23308	0.30882	0.10674	0.17762	0.18212	0.11295	0.18549	0.045366	0.10934	0.16376	0.055298	0.20961	0.19453	0.044101	-3.9875	-4.7188	-3.85	-4.9583	-4.2792	-4.0458	-5.0625	-4.0146	-4.2833	-4.8167	-4.0396	-4.9104	-4.5312	-4.025	-4.9625	-4.2458	130.366	320.114	254.667	397.005	413.580	379.948	394.340	353.543	151.680	79.137	136.067	386.444	317.223	124.163	75.009	389.928	0.00034683	0.00013613	0.00012561	1228.2	1.4721e-06	3.7907e-06	1320.6	256.23	4.8728e-06	2.2229e-06	316.48	88.326	71.284	20.639	7.8553e-06	27.885	0.00011957	0.00010464	3.1786e-05	1177.7	1.2391e-06	1.1503e-06	1264.3	246.86	1.2411e-06	1.1445e-06	301.63	84.403	67.216	19.895	1.3263e-06	27.033	114.653	192.300	125.496	72.152	263.798	203.326	72.084	79.318	240.444	416.436	79.055	86.142	86.009	93.656	190.145	92.859	-8191	255	
23192.846	1	1	0	0	0.31691	0.10139	0.13552	0.13505	0.060751	0.1043	0.22613	0.068889	0.03196	0.15288	0.10326	0.1006	0.15249	0.027622	0.18527	0.20639	-3.9333	-4.8125	-4.0687	-4.8271	-4.6208	-3.8417	-5.0729	-4.2208	-4.3604	-4.8187	-4.0521	-4.5604	-4.7646	-3.8833	-4.8958	-4.3083	315.996	234.941	241.012	367.018	186.586	191.865	129.609	257.771	220.061	375.361	164.267	328.786	320.584	281.334	204.003	251.406	0.00041314	0.00046648	0.00022269	1225	2.6539e-06	6.6816e-07	1319.3	255.55	2.6229e-06	1.8853e-06	320.32	88.525	70.375	20.485	2.613e-06	28.022	0.00011468	0.00010416	3.29e-05	1176	1.1829e-06	1.1586e-06	1263.8	246.32	1.2005e-06	1.1536e-06	301.84	84.453	67.142	19.868	1.3648e-06	26.987	124.308	111.667	159.720	72.050	235.333	63.612	71.845	79.462	216.305	172.102	79.404	85.742	86.191	93.182	193.561	92.876	-8191	255	
23192.967	1	1	0	0	0.13248	0.20961	0.038262	0.18171	0.061466	0.20602	0.16379	0.037191	0.16041	0.24284	0.19414	0.076253	0.10959	0.17948	0.060939	0.18165	-3.7833	-4.8646	-3.9042	-4.4729	-4.6333	-3.8021	-4.7958	-4.525	-4.0479	-4.7521	-4.1417	-4.4271	-4.7729	-4.0646	-4.7396	-4.5813	210.134	333.301	107.852	367.409	340.602	118.148	394.381	415.598	303.097	176.461	118.355	197.331	223.950	108.839	385.528	257.287	0.00038742	0.00020869	3.3706e-05	1228.6	1.7676e-06	3.0857e-06	1320.9	257.83	2.4688e-06	2.819e-06	317.66	87.898	70.759	20.622	2.0916e-06	27.957	0.00011305	0.00010934	3.4485e-05	1176.9	1.1717e-06	1.2143e-06	1266.2	247.14	1.1514e-06	1.228e-06	302.26	84.288	67.022	19.931	1.3323e-06	26.95	120.262	112.433	100.771	71.974	243.619	147.087	71.790	79.802	157.086	232.491	79.240	85.953	85.924	93.504	275.445	92.942	-8191	255	
23193.037	1	1	0	0	0.087012	0.13114	0.12455	0.22179	0.067229	0.3206	0.23485	0.15805	0.2117	0.19355	0.14025	0.053614	0.097268	0.14885	0.1908	0.04431	-3.8354	-4.7896	-4.1146	-4.4833	-4.825	-3.8563	-4.8292	-4.6917	-3.8229	-4.9271	-4.2333	-4.4229	-4.8583	-3.9667	-4.6042	-4.7396	318.144	101.809	385.158	95.333	213.895	219.300	417.085	64.346	170.572	420.299	374.620	165.723	350.700	94.335	92.862	395.042	0.00042665	0.00044007	5.4415e-05	1231.5	4.3599e-06	4.4184e-06	1322.3	257.6	3.8628e-06	2.4324e-06	316.51	87.613	70.545	20.438	5.2826e-06	28.023	0.00010863	0.00011651	3.3592e-05	1177.9	1.156e-06	1.3058e-06	1265.8	246.64	1.1634e-06	1.3184e-06	301.74	84.102	67.003	19.966	1.3088e-06	26.953	129.017	149.791	88.034	72.133	203.570	128.281	71.754	79.145	199.117	248.354	78.929	85.811	86.139	92.896	177.496	92.870	-8191	255	
23193.135	1	1	0	0	0.037738	0.19673	0.06916	0.14904	0.1893	0.12657	0.43379	0.28698	0.05694	0.32921	0.13166	0.1594	0.1879	0.18044	0.17408	0.16589	-3.7333	-4.6833	-4.2479	-4.2771	-4.8875	-3.8042	-4.6687	-4.7708	-3.8771	-4.6917	-4.375	-4.0167	-4.9375	-4.0563	-4.325	-4.6958	106.882	63.752	282.654	374.597	250.780	111.971	372.636	72.243	242.245	178.940	367.731	262.809	416.820	66.972	397.815	362.358	0.00042035	0.00029193	2.1859e-05	1230.5	4.6159e-06	3.8009e-06	1323.4	256.91	4.1819e-06	2.8087e-06	317.84	88.559	70.633	20.606	3.4491e-06	28.17	0.00011399	0.0001235	3.3006e-05	1174.9	1.1931e-06	1.3588e-06	1264	246.39	1.2283e-06	1.3595e-06	301.84	84.069	67.142	20.003	1.2601e-06	26.974	131.803	394.693	168.882	71.978	212.337	154.652	71.869	79.284	220.571	224.433	79.073	85.907	86.349	93.727	149.853	92.559	-8191	255	
23193.230	1	1	0	0	0.066977	0.22642	0.20152	0.19869	0.21896	0.11175	0.19173	0.029502	0.22216	0.08312	0.26815	0.14005	0.13329	0.27371	0.088977	0.073452	-3.5958	-4.775	-4.2375	-4.0542	-4.8458	-4.0229	-4.5542	-4.6937	-3.8688	-4.8938	-4.6062	-4.0125	-4.9271	-4.0813	-4.2292	-4.8667	81.800	376.019	151.746	387.678	199.379	219.723	317.200	136.578	115.248	153.116	379.569	208.107	296.273	358.901	67.256	410.472	0.00044621	0.00025543	2.3822e-05	1233.8	3.5173e-06	1.5322e-06	1319.9	257.37	1.8296e-06	1.88e-06	318.38	87.756	70.322	20.566	4.4874e-06	28.02	0.00011743	0.00012389	3.193e-05	1177.6	1.281e-06	1.3494e-06	1262.8	246.29	1.3075e-06	1.3575e-06	301.32	84.101	67.145	19.945	1.2762e-06	26.922	112.312	147.552	109.231	71.854	203.983	225.643	71.893	79.648	217.483	66.828	78.936	85.631	86.390	93.144	180.282	93.172	-8191	255	
23193.352	1	1	0	0	0.10264	0.0092381	0.16686	0.13257	0.095419	0.105	0.14854	0.26341	0.17146	0.15632	0.2135	0.21408	0.067362	0.20291	0.23907	0.20177	-3.5729	-4.6292	-4.4688	-4.1958	-4.8125	-3.9833	-4.3104	-4.9854	-3.8438	-4.4479	-4.7167	-4.0437	-4.8313	-4.2854	-4.0375	-4.9417	138.599	420.699	392.401	156.170	185.292	201.537	385.897	355.003	369.328	357.732	143.211	383.551	376.481	398.376	155.411	370.913	0.00046574	0.00021401	0.00010426	1228.2	1.9705e-06	1.8669e-06	1319.7	257.25	2.8041e-06	9.1622e-07	318.15	88.077	70.67	20.69	3.2387e-06	27.919	0.0001259	0.00012377	3.1218e-05	1175.1	1.3838e-06	1.3265e-06	1263.8	246.54	1.3867e-06	1.3096e-06	301.61	83.987	67.433	19.974	1.2223e-06	27.018	125.596	80.843	84.779	72.259	203.874	168.399	72.110	79.525	139.174	113.690	79.015	85.341	86.415	93.107	146.631	92.537	-8191	255	
23193.447	1	1	0	0	0.069722	0.07667	0.13212	0.22514	0.10405	0.06675	0.23281	0.11773	0.10026	0.13088	0.17087	0.24043	0.17695	0.11492	0.29424	0.14367	-3.7646	-4.4271	-4.7063	-4.0021	-4.7146	-4.2854	-4.2125	-4.9	-3.8771	-4.3313	-4.7854	-3.9813	-4.6438	-4.4333	-3.8583	-4.8187	413.111	375.296	277.111	340.836	324.069	379.852	341.986	387.422	161.620	390.486	98.499	350.382	414.926	76.246	201.580	120.560	0.00030557	0.00011735	0.00017668	1227.3	3.366e-06	2.3975e-06	1320.4	257.92	2.232e-06	4.0379e-06	318.85	88.219	70.517	20.576	3.9687e-06	27.951	0.0001336	0.00011867	3.0449e-05	1174.7	1.4137e-06	1.2787e-06	1262.6	247.16	1.4197e-06	1.2736e-06	301.32	84.325	67.363	19.925	1.1882e-06	26.998	129.097	396.187	176.873	72.046	246.645	418.225	71.879	79.809	243.766	239.382	79.275	85.649	86.424	93.700	184.348	92.743	-8191	255	
23193.543	1	1	0	0	0.24321	0.18068	0.24778	0.22043	0.13678	0.26058	0.23055	0.16864	0.15075	0.1014	0.20953	0.14565	0.20532	0.24785	0.15805	0.10837	-3.6896	-4.3271	-4.7958	-4.0312	-4.5854	-4.5167	-4.1229	-4.8375	-4.0917	-4.3854	-4.7812	-3.8854	-4.7333	-4.5021	-3.8875	-4.8875	207.410	211.844	229.123	383.287	368.265	162.178	244.634	195.201	416.769	336.381	418.707	87.729	411.641	398.275	371.349	331.450	0.00030905	0.00013837	0.00010237	1226.7	3.1632e-06	3.0042e-06	1318.2	258.39	3.4657e-06	6.6009e-06	317.92	87.9	71.193	20.638	1.6135e-06	27.827	0.00013107	0.00011555	3.0238e-05	1177.6	1.3721e-06	1.2785e-06	1263	247.62	1.3749e-06	1.2621e-06	301.24	84.16	67.472	19.912	1.2195e-06	27.07	117.364	88.303	143.459	72.158	292.223	186.915	71.736	79.554	129.900	179.548	79.121	85.941	85.990	93.651	146.112	92.929	-8191	255	
23193.639	1	1	0	0	0.14216	0.19743	0.13538	0.13232	0.28023	0.093115	0.18496	0.067145	0.15041	0.021913	0.14046	0.034097	0.0368	0.088574	0.065699	0.16157	-3.8646	-4.1646	-4.7417	-4.0687	-4.6417	-4.6375	-4.0833	-4.9542	-4.2583	-4.1438	-4.9229	-4.025	-4.5521	-4.7396	-3.7438	-4.7125	407.785	398.275	368.671	304.975	114.103	213.032	345.876	243.051	110.018	360.966	319.564	395.971	190.636	164.487	173.154	147.080	0.00038945	0.0001999	0.00016586	1228.1	2.9335e-06	9.325e-07	1319.8	257.57	2.2998e-06	2.7142e-06	316.67	88.283	70.358	20.644	9.8644e-06	28.125	0.00012992	0.00011562	3.1641e-05	1178.2	1.363e-06	1.2511e-06	1262.7	247.42	1.3434e-06	1.2563e-06	301.19	84.513	67.175	19.948	1.2797e-06	27.074	123.290	158.158	188.439	72.040	254.711	132.731	72.051	79.400	242.763	319.879	79.358	86.055	86.172	93.286	185.846	92.826	-8191	255	
23193.734	1	1	0	0	0.153	0.13761	0.20185	0.2607	0.18605	0.16868	0.30831	0.065292	0.033787	0.137	0.14323	0.059188	0.17206	0.050969	0.16954	0.19619	-3.9938	-3.9146	-4.8833	-4.1375	-4.3292	-4.5417	-4.0583	-4.7854	-4.1917	-3.8979	-5.0542	-4.0083	-4.2771	-4.7646	-3.8208	-4.5917	316.053	378.792	380.531	387.249	266.600	327.937	338.323	235.580	259.714	420.736	338.665	90.949	356.256	84.696	250.704	146.322	0.00041192	0.00035552	0.00016983	1232	1.1826e-06	3.0323e-06	1319.9	257	7.5669e-07	1.9354e-06	319.09	88.172	70.564	20.616	3.8825e-06	27.917	0.0001226	0.00011169	3.2222e-05	1180.2	1.2989e-06	1.2086e-06	1263.6	247.28	1.2983e-06	1.1769e-06	302.09	84.588	67.206	19.88	1.34e-06	27.069	112.461	62.126	120.144	72.252	213.702	406.494	71.820	79.398	83.631	130.663	79.218	85.766	86.275	93.299	146.988	92.689	-8191	255	
23193.830	1	1	0	0	0.050809	0.12278	0.15433	0.087053	0.13643	0.15847	0.29563	0.2682	0.11164	0.092976	0.1567	0.14098	0.0095399	0.052003	0.089847	0.20535	-4.15	-3.9021	-4.7417	-4.3229	-4.125	-4.6979	-3.9	-4.7229	-4.5	-3.9333	-4.8938	-4.2125	-4.2229	-4.9167	-3.875	-4.5042	411.632	398.266	93.072	362.484	299.498	384.839	381.866	407.065	168.928	333.418	327.203	340.044	293.910	407.731	86.165	92.454	0.00036899	0.0003424	0.00013773	1224.9	5.3185e-07	2.313e-06	1318.7	258.29	4.4145e-06	3.4481e-06	316.71	88.419	70.392	20.422	5.0623e-06	27.749	0.00011734	0.00010791	3.3796e-05	1176.1	1.2737e-06	1.194e-06	1263.7	247.38	1.2713e-06	1.2172e-06	301.39	84.354	67.054	19.786	1.4387e-06	26.952	133.887	123.032	152.130	71.964	248.542	98.076	71.962	79.510	182.200	245.138	78.938	85.877	85.912	93.226	148.073	92.443	-8191	255	
23193.928	1	1	0	0	0.051817	0.13521	0.17643	0.066637	0.14586	0.16058	0.25023	0.18762	0.03867	0.11101	0.066449	0.074015	0.10454	0.31307	0.095023	0.25631	-4.4104	-3.9396	-4.7792	-4.5208	-4.05	-4.8562	-4.0208	-4.6542	-4.6708	-3.7667	-4.9792	-4.4021	-4.1208	-4.7438	-3.9333	-4.325	152.813	130.910	187.412	123.156	391.398	391.578	317.069	323.826	401.487	89.897	399.756	238.860	283.385	316.448	74.253	73.074	0.00041708	8.0965e-05	0.00014057	1229.1	2.3718e-06	1.3119e-06	1316.3	256.77	2.3394e-06	7.9034e-06	316.92	87.744	70.559	20.551	1.8918e-06	28.027	0.00011614	0.00011137	3.5118e-05	1176.5	1.2425e-06	1.2262e-06	1262.6	246.61	1.2176e-06	1.2663e-06	301.16	83.926	66.961	19.821	1.381e-06	26.963	117.464	175.500	131.780	72.169	213.526	252.452	72.001	79.550	182.578	137.921	78.934	85.940	85.687	92.970	183.676	93.015	-8191	255	
23194.047	1	1	0	0	0.20645	0.17407	0.15575	0.028206	0.0714	0.12909	0.37824	0.27349	0.10508	0.23321	0.30144	0.28109	0.1983	0.22463	0.10258	0.14727	-4.4437	-3.9313	-4.6521	-4.5521	-3.9292	-4.8021	-4.2417	-4.4729	-4.5437	-3.7854	-4.9062	-4.5437	-4.175	-4.9583	-4.1188	-4.1062	180.109	251.279	116.504	377.134	194.802	101.377	332.027	396.388	264.423	339.213	366.256	391.552	375.999	84.296	65.054	192.233	0.0004203	0.00028695	4.1751e-05	1225.8	2.8264e-06	5.5895e-06	1315.6	256.88	5.1162e-06	5.042e-06	317.18	88.142	69.913	20.439	1.9151e-06	27.813	0.0001135	0.00011637	3.4302e-05	1173.1	1.1513e-06	1.2653e-06	1260.3	245.98	1.1348e-06	1.2679e-06	301.27	83.853	66.387	19.821	1.2751e-06	26.868	127.144	148.373	304.164	72.204	169.093	171.129	72.167	79.605	210.944	233.259	79.518	85.794	86.275	93.556	210.865	93.010	-8191	255	
23194.143	1	1	0	0	0.045064	0.10378	0.12132	0.2635	0.068621	0.15345	0.27212	0.15456	0.032498	0.16809	0.27139	0.22033	0.14747	0.33297	0.070266	0.18711	-4.5979	-3.8667	-4.4792	-4.7	-3.9792	-4.8583	-4.4729	-4.1042	-4.8917	-3.9021	-4.45	-4.5021	-4.0333	-4.9042	-4.2875	-4.0375	286.311	406.356	278.738	324.998	88.590	246.131	364.068	328.269	125.729	77.196	313.485	351.155	376.344	79.643	76.336	235.412	0.00042593	0.00033069	3.6365e-05	1228	2.747e-06	2.751e-06	1317.7	257.32	2.7203e-06	1.5733e-06	318.13	87.906	70.85	20.478	2.4392e-06	28.122	0.00010635	0.00011644	3.1638e-05	1175.1	1.1545e-06	1.3021e-06	1262.8	246.45	1.151e-06	1.3175e-06	301.35	84.047	67.024	19.914	1.2231e-06	26.983	117.032	74.562	315.106	72.268	207.437	142.361	72.114	79.058	206.882	133.730	79.097	86.138	86.247	93.435	101.005	92.820	-8191	255	
23194.238	1	1	0	0	0.18143	0.17147	0.11533	0.47686	0.21086	0.15057	0.070707	0.20068	0.12863	0.059568	0.15834	0.13364	0.077737	0.20192	0.10462	0.031744	-4.5417	-4.1229	-4.3938	-4.8125	-3.9896	-4.7208	-4.3562	-4.1708	-4.8688	-4.0083	-4.4979	-4.9938	-3.9729	-4.7708	-4.5646	-4.1771	290.606	284.535	276.190	378.250	374.098	271.569	239.253	147.544	80.446	386.878	177.106	269.384	284.083	160.985	160.143	333.216	0.00039433	0.00036131	1.355e-05	1232.3	3.5855e-06	5.1241e-06	1326	256.75	4.1771e-06	4.4869e-06	317.76	88.777	69.985	20.519	8.0994e-06	27.958	0.00011058	0.00011905	3.0382e-05	1177	1.2081e-06	1.3044e-06	1264.5	246.07	1.237e-06	1.3353e-06	301.45	84.067	67.031	19.929	1.2338e-06	26.909	119.838	290.987	384.785	72.341	220.347	134.744	72.291	79.584	177.110	367.713	78.956	85.862	86.144	93.077	220.211	92.442	-8191	255	
23194.336	1	1	0	0	0.033996	0.1103	0.11282	0.32362	0.06119	0.12969	0.065727	0.11181	0.10014	0.20296	0.1268	0.15317	0.20614	0.23232	0.068105	0.17208	-4.5958	-4.1021	-4.3271	-4.9958	-3.8479	-4.5875	-4.8375	-4.0708	-4.8333	-4.2271	-4.3021	-4.8187	-3.8604	-4.6875	-4.6312	-3.9375	250.276	301.722	108.848	415.135	401.126	356.814	292.110	276.923	260.515	77.439	353.606	377.507	269.712	108.939	318.739	421.017	0.00036358	0.00029627	0.00011546	1220	2.9707e-06	2.5709e-06	1321.9	255.13	4.0292e-06	3.4108e-06	316.52	88.425	70.068	20.515	3.8846e-06	27.738	0.00012376	0.00012067	3.1434e-05	1173.9	1.3149e-06	1.3027e-06	1262	246	1.3075e-06	1.2972e-06	300.44	83.865	66.987	19.859	1.1284e-06	26.826	116.011	110.878	143.428	72.265	196.685	116.206	72.576	79.753	152.188	174.354	79.464	86.490	85.994	93.640	251.971	92.986	-8191	255	
23194.432	1	1	0	0	0.26059	0.10767	0.18076	0.17704	0.11301	0.13346	0.23165	0.25593	0.097907	0.23972	0.36863	0.1895	0.094774	0.15714	0.07972	0.24118	-4.6479	-4.2167	-4.1188	-5	-3.8229	-4.4229	-4.8271	-4.1062	-4.825	-4.2542	-4.1833	-4.95	-4.0583	-4.3458	-4.65	-3.8688	315.447	343.015	127.826	309.248	193.227	382.064	393.278	370.344	290.927	92.492	371.853	227.121	162.638	320.044	226.196	293.399	0.00034101	0.00024955	0.00021499	1228.3	1.5599e-06	2.378e-06	1317.5	255.27	2.62e-06	5.1306e-06	315.04	87.981	70.38	20.43	2.73e-06	27.853	0.00012135	0.00010934	2.7678e-05	1172.5	1.2958e-06	1.159e-06	1258.6	244.96	1.2855e-06	1.206e-06	299.36	83.888	66.829	19.845	1.125e-06	26.864	132.173	100.635	178.391	72.530	208.863	207.151	72.113	79.615	197.531	256.164	79.335	86.292	86.323	93.121	196.920	92.704	-8191	255	
23194.527	1	1	0	0	0.1774	0.15516	0.17878	0.16993	0.20639	0.20927	0.21211	0.051329	0.26282	0.091034	0.4145	0.1571	0.018775	0.18864	0.15167	0.21906	-4.3938	-4.3021	-3.9062	-4.9542	-4.0083	-4.3458	-4.775	-3.9875	-4.6229	-4.5083	-4.0729	-4.8313	-4.25	-4.4167	-4.7833	-3.9271	209.316	169.491	233.090	345.141	332.599	294.264	343.862	381.226	244.571	121.873	61.609	414.838	245.040	107.460	218.067	79.279	0.00031756	0.00015438	3.5551e-05	1228.5	1.7656e-06	1.8951e-06	1320.6	254.98	3.138e-06	2.1743e-06	318.26	87.526	69.921	20.376	7.2568e-06	27.794	0.00012498	0.00011039	2.854e-05	1174.7	1.3117e-06	1.1932e-06	1260.8	245.14	1.2872e-06	1.1939e-06	300.02	83.892	66.775	19.804	1.1222e-06	26.869	117.832	206.477	330.219	72.372	245.777	168.804	72.263	79.552	195.485	188.034	79.363	85.801	86.094	93.307	193.083	92.733	-8191	255	
23194.648	1	1	0	0	0.25152	0.097463	0.10252	0.26242	0.022628	0.1324	0.16192	0.10814	0.08948	0.13691	0.19904	0.21502	0.16037	0.022364	0.11821	0.031648	-4.3792	-4.4146	-3.85	-4.9125	-4.1312	-4.3917	-4.8812	-4.0312	-4.3521	-4.5604	-4.1458	-4.8667	-4.2479	-4.1208	-4.8125	-4.0188	253.334	266.547	402.853	361.969	260.859	248.675	335.940	312.992	401.260	318.461	351.513	121.450	334.331	336.985	83.272	319.578	0.00030625	0.00022449	9.7782e-05	1223.4	1.5612e-06	2.8076e-06	1313.7	255.58	1.1265e-06	5.0472e-06	317.55	87.749	70.372	20.355	2.1869e-06	27.712	0.00011952	0.00010783	2.9421e-05	1172.8	1.2953e-06	1.1969e-06	1257.2	245.57	1.2815e-06	1.1781e-06	299.66	83.879	66.739	19.69	1.187e-06	26.93	125.466	113.062	142.621	72.215	182.977	172.944	72.181	79.510	178.716	253.907	78.947	85.724	86.665	93.003	275.647	93.002	-8191	255	
23194.742	1	1	0	0	0.074094	0.20324	0.21789	0.34308	0.19855	0.17998	0.10562	0.20282	0.24068	0.13275	0.058699	0.20786	0.30484	0.052423	0.068336	0.097809	-4.1917	-4.5375	-3.8812	-4.9229	-4.4563	-3.9313	-5.0542	-4.0938	-4.3646	-4.6813	-3.9229	-4.8146	-4.4	-4.125	-4.9542	-4.1167	247.837	319.649	360.005	322.885	296.383	209.401	400.026	363.412	193.986	273.325	357.601	376.374	292.310	215.050	70.498	77.662	0.00042277	0.00029431	0.00014341	1218.6	3.6957e-06	1.2012e-06	1310.8	254.81	2.0063e-06	2.768e-06	316.89	88.056	70.3	20.302	6.705e-06	27.897	0.000119	0.00010421	2.9812e-05	1170.9	1.2353e-06	1.1525e-06	1256.6	244.95	1.2213e-06	1.1249e-06	299.84	84	66.594	19.663	1.2385e-06	26.834	125.988	116.278	103.992	72.171	225.818	205.147	72.212	79.633	145.710	184.873	79.344	86.126	86.392	93.395	238.363	92.685	-8191	255	
23194.840	1	1	0	0	0.26398	0.14854	0.16342	0.24711	0.085038	0.11968	0.18237	0.18392	0.13533	0.27404	0.06296	0.03703	0.12072	0.30504	0.10435	0.36217	-3.8625	-4.8979	-3.8896	-4.7438	-4.4771	-3.8875	-4.9917	-4.175	-4.0917	-4.8354	-3.9896	-4.7021	-4.4625	-4.1229	-4.7562	-4.2667	355.369	125.881	302.414	368.842	213.427	111.294	320.334	94.372	122.383	367.016	320.177	404.183	191.216	399.801	323.451	341.634	0.00040947	0.00035611	5.8221e-05	1226.8	2.4232e-06	2.8635e-06	1304.1	255.28	4.877e-06	1.9107e-06	316.23	87.493	70.066	20.287	5.0476e-06	27.693	0.0001146	9.9547e-05	3.2002e-05	1172.9	1.196e-06	1.0871e-06	1252.9	245.07	1.1803e-06	1.0998e-06	299.14	83.549	66.404	19.62	1.2462e-06	26.739	123.694	89.490	188.037	72.237	176.705	191.914	72.294	79.656	218.358	292.099	79.473	86.071	86.229	93.476	89.060	92.274	-8191	255	
23194.912	1	1	0	0	0.10134	0.058545	0.21244	0.39852	0.23041	0.23633	0.17227	0.33219	0.088811	0.15392	0.14528	0.32838	0.18136	0.054581	0.15528	0.27577	-3.9583	-4.9542	-3.9021	-4.6562	-4.6271	-4.2	-4.9313	-4.3542	-4.1479	-4.7271	-4.1375	-4.6146	-4.7417	-4.0021	-4.8479	-4.3	179.635	141.427	149.828	366.002	360.695	322.489	412.636	86.853	224.733	301.955	77.078	333.885	162.393	337.143	98.214	75.557	0.00033165	0.00014617	6.5728e-05	1219.5	3.8898e-06	2.4209e-06	1306.8	254.38	7.0941e-07	2.7506e-06	315.11	87.457	70.101	20.353	3.3488e-06	27.8	0.00010554	9.8487e-05	3.1701e-05	1166.2	1.1096e-06	1.1083e-06	1253.6	243.8	1.1443e-06	1.14e-06	298.94	83.368	66.215	19.666	1.3032e-06	26.713	119.605	214.655	186.615	72.224	193.529	169.185	72.231	79.671	125.853	172.752	79.321	85.877	86.359	93.537	160.661	92.526	-8191	255	
23195.031	1	1	0	0	0.14501	0.097269	0.19977	0.17732	0.055546	0.084449	0.19842	0.20701	0.18438	0.15262	0.20127	0.084559	0.11482	0.12764	0.057562	0.1068	-3.8167	-4.7375	-3.9354	-4.4646	-4.5708	-3.8708	-4.9083	-4.5729	-4.0604	-4.9021	-4.2958	-4.5188	-4.7396	-3.8688	-4.7812	-4.5729	63.620	265.342	392.231	375.849	268.077	264.010	334.653	363.600	70.273	303.232	102.164	153.076	271.776	318.122	262.309	176.317	0.00028198	0.0002076	8.4265e-05	1217.4	1.8418e-06	1.9583e-06	1304.5	254.4	4.5551e-06	4.4935e-06	313.59	88.06	69.383	20.34	2.1686e-06	27.664	0.00010845	0.00010972	3.3327e-05	1163.9	1.1297e-06	1.2027e-06	1250.3	243.72	1.1171e-06	1.2282e-06	298.52	83.503	66.062	19.648	1.2666e-06	26.636	126.145	105.957	145.662	72.366	189.452	231.014	72.385	79.640	167.717	172.366	79.987	86.265	86.450	93.545	261.984	93.206	-8191	255	
23195.127	1	1	0	0	0.27231	0.074687	0.24727	0.12897	0.074154	0.14137	0.12008	0.20014	0.24585	0.13577	0.22491	0.062042	0.12207	0.063401	0.25247	0.19589	-3.5792	-4.7833	-3.9667	-4.3708	-4.8625	-4.0312	-4.6542	-4.6396	-3.8333	-4.9667	-4.1542	-4.1958	-4.7917	-4.0312	-4.5437	-4.7521	384.181	126.020	187.450	148.164	376.399	285.195	246.426	321.882	333.057	207.721	389.608	394.566	409.854	320.425	292.797	419.220	0.00035294	0.00027765	2.6807e-05	1214.3	3.9859e-06	1.1738e-06	1310.9	253.04	2.7197e-06	4.1019e-07	315.06	87.009	69.807	20.285	1.2611e-06	27.628	0.0001053	0.00011332	3.1853e-05	1165.3	1.1179e-06	1.2976e-06	1252.2	243.56	1.1361e-06	1.2864e-06	298.36	83.088	66.151	19.653	1.2264e-06	26.612	120.621	396.735	321.993	72.337	197.021	82.386	72.413	80.097	233.962	191.740	79.385	86.121	86.504	93.437	216.547	93.458	-8191	255	
23195.223	1	1	0	0	0.013006	0.046741	0.063161	0.11024	0.23992	0.21283	0.22836	0.12777	0.049603	0.13795	0.17927	0.16631	0.073595	0.08274	0.15934	0.026148	-3.6542	-4.7542	-4.3125	-4.1646	-4.8313	-4.1521	-4.5292	-4.8146	-3.9125	-4.8875	-4.4417	-4.15	-4.9563	-4.025	-4.4146	-4.8313	395.058	363.046	340.483	391.873	258.825	374.503	343.679	372.034	208.838	267.713	267.958	79.392	290.111	68.605	241.060	159.714	0.00046452	0.00025948	9.9544e-05	1210.2	3.1257e-06	2.3523e-06	1304.6	253.03	3.761e-06	3.2707e-06	313.73	86.423	69.965	20.404	3.3764e-06	27.649	0.0001084	0.00011766	3.1009e-05	1163.2	1.164e-06	1.2812e-06	1251.4	242.88	1.1732e-06	1.2797e-06	297.88	82.84	66.269	19.662	1.1801e-06	26.583	130.634	149.333	92.781	72.413	210.976	192.305	72.174	79.696	214.465	79.197	79.408	86.049	86.430	93.679	221.261	93.075	-8191	255	
23195.318	1	1	0	0	0.039912	0.24169	0.25358	0.1477	0.015091	0.22482	0.28932	0.22321	0.21141	0.14914	0.14119	0.10652	0.23076	0.11422	0.082252	0.14587	-3.6542	-4.6229	-4.4125	-4.1813	-4.7854	-4.0521	-4.4062	-4.7979	-3.8688	-4.6562	-4.6896	-4.0104	-4.9854	-4.3208	-4.2667	-4.9521	266.254	165.300	392.482	191.421	301.661	404.844	366.234	74.629	204.458	350.508	410.270	108.824	288.537	267.363	304.528	307.778	0.00035694	0.00042737	3.9429e-05	1211.7	3.4933e-06	2.6822e-06	1309.6	253.39	3.0685e-06	1.6915e-06	314.81	87.018	69.813	20.35	2.2992e-06	27.584	0.0001162	0.00011505	2.9373e-05	1160.9	1.2183e-06	1.2629e-06	1250.5	243.5	1.2492e-06	1.2506e-06	297.8	82.909	66.345	19.679	1.1604e-06	26.528	132.760	104.839	164.070	72.338	235.755	238.661	72.245	79.684	243.798	297.432	79.704	85.842	86.574	93.407	94.833	93.065	-8191	255	
23195.439	1	1	0	0	0.2279	0.13072	0.0095409	0.30554	0.21753	0.12612	0.23421	0.19892	0.15661	0.061195	0.26219	0.073524	0.083441	0.097549	0.030988	0.06373	-3.5583	-4.5938	-4.6312	-4.1	-4.7521	-4.0896	-4.3021	-5.0083	-4.0125	-4.5479	-4.8104	-3.9229	-4.8396	-4.4542	-4.0188	-4.9479	335.846	75.417	296.723	73.609	198.091	347.473	375.112	334.066	148.228	234.043	372.531	363.445	415.200	317.412	202.822	380.021	0.00040632	0.0002072	0.00013997	1216	2.388e-06	3.4021e-06	1306	253.5	4.9532e-06	2.2982e-06	313.44	87.455	69.842	20.285	2.2537e-06	27.699	0.0001204	0.00011182	2.8911e-05	1161.7	1.2828e-06	1.2084e-06	1249.2	243.19	1.2982e-06	1.2148e-06	297.64	83.229	66.449	19.609	1.1493e-06	26.691	128.451	65.243	163.442	72.290	181.884	149.384	72.088	79.652	203.367	371.179	79.342	85.817	86.534	93.553	128.348	92.880	-8191	255	
23195.512	1	1	0	0	0.1094	0.18129	0.077524	0.38893	0.28424	0.16902	0.14939	0.13221	0.094807	0.088903	0.22323	0.1604	0.24331	0.033393	0.13854	0.11135	-3.6521	-4.4542	-4.7979	-4.0958	-4.7771	-4.3562	-4.3375	-5.1562	-4.0687	-4.3354	-4.6979	-4.0021	-4.7208	-4.4479	-3.9479	-4.9792	252.683	137.683	181.358	385.452	414.610	62.178	344.699	396.515	300.866	217.569	375.597	111.840	418.482	245.797	289.901	357.532	0.00034399	0.00049049	1.1431e-05	1215.7	1.0028e-06	3.0486e-06	1300.9	252.21	2.0801e-06	3.4465e-06	313.84	87.05	69.489	20.255	1.0817e-06	27.38	0.00012275	0.0001091	2.7908e-05	1164.4	1.2979e-06	1.1923e-06	1246.2	242.86	1.2798e-06	1.1638e-06	297.5	83.192	66.344	19.624	1.1064e-06	26.65	112.739	132.164	157.334	71.752	139.986	147.996	71.827	79.499	123.775	235.547	79.194	85.632	86.282	93.350	388.667	92.981	-8191	255	
23195.607	1	1	0	0	0.20786	0.14336	0.24558	0.12805	0.19076	0.081586	0.12975	0.14956	0.27965	0.071856	0.27433	0.14011	0.20405	0.11569	0.076427	0.10852	-3.7104	-4.35	-4.8729	-4.0396	-4.6625	-4.7875	-4.2625	-5.1167	-4.0938	-4.0875	-4.9583	-4.0167	-4.4563	-4.6208	-4.075	-4.8375	186.318	374.358	293.594	77.846	378.569	204.201	414.629	233.028	202.418	408.400	394.387	338.288	241.231	179.447	374.070	66.862	0.00038398	0.00024873	8.2013e-05	1217.6	3.3783e-06	4.3039e-06	1302.4	253.85	2.0646e-06	1.3201e-06	313.64	87.257	70.14	20.286	1.2534e-06	27.735	0.00012042	0.00010433	2.7803e-05	1164.3	1.2538e-06	1.1218e-06	1250	243.77	1.218e-06	1.1219e-06	297.77	83.117	66.347	19.586	1.1059e-06	26.743	124.258	127.813	149.802	72.227	189.794	179.818	71.989	79.289	145.138	192.741	79.441	86.363	86.492	93.464	216.203	93.264	-8191	255	
23195.729	1	1	0	0	0.23185	0.20228	0.18436	0.44341	0.20972	0.17415	0.19032	0.12737	0.20559	0.15755	0.14947	0.20219	0.12235	0.038259	0.040463	0.20501	-4.2292	-4.1604	-4.8938	-4.1521	-4.5563	-4.6083	-4.025	-4.8708	-4.3417	-4.0729	-5.0917	-4.2	-4.5687	-4.6583	-3.8854	-4.7979	80.278	318.036	219.574	414.662	369.176	119.306	388.584	332.536	232.641	161.182	408.662	304.166	416.370	242.022	405.578	401.314	0.00034229	0.0003033	6.8148e-05	1213.1	2.099e-06	1.5277e-06	1302.3	254.09	1.7051e-06	1.3323e-06	315.15	87.423	70.104	20.386	9.0195e-06	27.831	0.00011524	0.00010139	2.808e-05	1163.3	1.2055e-06	1.0846e-06	1247.6	243.72	1.175e-06	1.092e-06	297.86	83.22	66.386	19.557	1.1852e-06	26.798	107.092	86.506	88.594	72.053	252.854	76.941	72.043	79.560	186.495	112.230	79.721	85.871	85.991	93.459	178.987	92.866	-8191	255	
23195.822	1	1	0	0	0.20023	0.1451	0.069797	0.22668	0.084176	0.13211	0.11674	0.24856	0.099894	0.27334	0.21824	0.31496	0.14279	0.11602	0.18072	0.084636	-4.0875	-4.075	-4.8	-4.2333	-4.3917	-4.6583	-4.0708	-4.6896	-4.575	-3.8854	-5.0375	-4.1292	-4.1896	-4.8771	-3.9417	-4.5521	141.782	270.493	380.747	325.183	152.637	403.087	63.581	94.671	147.208	386.437	367.799	315.246	338.171	97.884	358.158	225.783	0.00038248	0.00033516	0.00015189	1214.9	4.0353e-06	1.6502e-06	1301.8	254.47	1.0092e-06	3.0976e-06	314.8	87.311	69.291	20.244	6.0944e-06	27.869	0.00011024	9.8143e-05	2.9598e-05	1165.3	1.1549e-06	1.0461e-06	1248.9	243.93	1.1543e-06	1.0485e-06	297.67	83.144	65.956	19.53	1.2165e-06	26.696	120.679	110.835	114.628	72.056	197.623	183.817	71.954	79.537	195.379	203.091	79.165	85.842	86.275	93.445	183.716	92.732	-8191	255	
23195.922	1	1	0	0	0.13814	0.18771	0.34041	0.092232	0.17475	0.098951	0.17041	0.17743	0.21903	0.088173	0.072796	0.22726	0.033998	0.11604	0.085593	0.12076	-4.2188	-3.8896	-4.8167	-4.3771	-4.2021	-4.7583	-4.0729	-4.7063	-4.4187	-3.7896	-4.8688	-4.4354	-4.1333	-4.9125	-4.0167	-4.5979	75.587	352.366	342.264	374.162	184.100	283.154	381.673	114.418	300.888	194.502	374.892	110.016	313.505	407.507	110.565	205.723	0.00037557	0.00032418	9.8198e-05	1212.9	1.6791e-06	4.9919e-06	1300.9	252.71	3.6621e-06	6.342e-07	314.66	87.391	69.94	20.277	3.7027e-06	27.831	0.0001066	9.7504e-05	3.1404e-05	1159.8	1.1207e-06	1.0508e-06	1247.9	242.39	1.1017e-06	1.0823e-06	297.48	83.071	65.98	19.507	1.2377e-06	26.589	122.096	138.570	168.932	72.104	173.860	192.253	71.976	79.500	232.853	113.219	79.033	85.978	86.349	93.619	187.132	92.828	-8191	255	
23196.039	1	1	0	0	0.032101	0.11396	0.14956	0.22716	0.16129	0.087926	0.38527	0.084702	0.18328	0.1907	0.13294	0.27218	0.20888	0.16911	0.30711	0.20518	-4.375	-4.1167	-4.8396	-4.5958	-4.175	-4.8583	-4.15	-4.4563	-4.7292	-3.8375	-4.875	-4.4646	-4.0625	-4.9021	-3.8979	-4.425	407.551	103.441	208.005	392.160	202.125	389.558	392.042	70.792	66.900	117.555	319.290	410.432	96.852	348.874	405.357	137.189	0.00030799	0.00022996	9.8074e-05	1206.9	1.6126e-06	8.4689e-07	1299.6	252	3.7106e-06	3.243e-06	313.41	86.463	69.453	20.161	2.5535e-06	27.653	0.00010081	0.00010046	3.0465e-05	1156.8	1.075e-06	1.1129e-06	1244.2	241.9	1.0541e-06	1.1316e-06	296.91	82.574	65.674	19.557	1.2092e-06	26.528	120.879	128.272	146.623	72.206	226.677	251.122	71.967	79.480	224.483	185.415	79.424	86.087	86.106	93.640	176.760	92.747	-8191	255	
23196.137	1	1	0	0	0.12919	0.088996	0.17593	0.25066	0.065678	0.26297	0.23634	0.31301	0.086059	0.13407	0.046543	0.21403	0.094592	0.08338	0.11651	0.32442	-4.4708	-3.7021	-4.6062	-4.7438	-3.9271	-4.9125	-4.4333	-4.3354	-4.7063	-3.8292	-4.6708	-4.5396	-3.8104	-4.8667	-4.1333	-4.1958	260.761	376.877	112.497	349.620	362.964	300.463	356.888	403.103	228.465	200.101	299.825	386.763	142.009	205.941	341.740	388.641	0.00035351	0.0003092	5.3266e-05	1209.5	3.1976e-06	1.1168e-06	1298.9	252.88	1.1727e-06	3.5979e-06	312.16	86.834	69.409	20.206	5.0215e-06	27.523	9.9005e-05	0.00010733	3.0308e-05	1156.2	1.0486e-06	1.17e-06	1241.9	241.7	1.0502e-06	1.2157e-06	296.06	82.636	65.697	19.532	1.1794e-06	26.469	119.914	105.481	168.130	72.158	214.337	189.096	72.017	79.875	167.060	159.846	79.499	86.239	86.249	93.616	151.987	92.762	-8191	255	
23196.207	1	1	0	0	0.021142	0.26316	0.11446	0.21244	0.22386	0.26224	0.11619	0.21209	0.21166	0.15077	0.25392	0.26059	0.21304	0.27849	0.14678	0.14184	-4.5896	-3.7896	-4.45	-4.7188	-3.7375	-4.7417	-4.35	-4.1417	-4.6271	-3.9021	-4.5333	-4.8646	-3.7979	-4.8167	-4.4417	-4.0563	282.980	68.340	202.901	401.697	362.279	282.227	324.419	341.638	98.925	352.702	77.554	410.474	265.013	404.711	92.989	255.404	0.00040153	0.00021857	7.1391e-05	1211.1	3.2555e-06	1.7265e-06	1298.4	253.01	3.6883e-06	2.8855e-06	312.15	86.735	69.961	20.197	2.3894e-06	27.607	0.00010123	0.00011156	2.889e-05	1156.9	1.0751e-06	1.2024e-06	1242.1	242.18	1.0632e-06	1.2058e-06	295.84	82.68	65.767	19.494	1.0954e-06	26.52	117.426	171.167	86.703	72.284	212.070	174.898	72.241	79.640	212.354	180.948	79.434	86.338	86.007	93.411	225.139	92.980	-8191	255	
23196.328	1	1	0	0	0.22046	0.27466	0.16255	0.3176	0.24032	0.20806	0.22203	0.10563	0.19391	0.12312	0.17481	0.25906	0.11436	0.31034	0.096494	0.23601	-4.6854	-3.875	-4.35	-4.8625	-3.825	-4.5646	-4.7937	-4.1375	-4.8542	-4.1604	-4.4271	-4.8229	-3.9042	-4.7792	-4.5813	-3.9083	301.797	143.776	101.191	393.569	217.940	401.201	391.511	69.273	221.618	70.606	324.631	417.629	150.924	373.158	130.943	212.851	0.00038303	0.00017345	1.7721e-05	1210.6	2.5248e-06	3.5857e-06	1299.5	251.65	3.5217e-06	2.7721e-06	311.15	86.241	69.362	20.216	2.6053e-06	27.567	0.0001061	0.00010846	2.7469e-05	1153.4	1.1298e-06	1.1654e-06	1239.9	241.27	1.1326e-06	1.1444e-06	295.53	82.284	65.857	19.48	1.0632e-06	26.381	127.117	328.398	393.274	72.341	202.482	167.452	72.289	79.401	168.227	379.060	79.145	86.328	86.072	92.966	159.467	93.021	-8191	255	
23196.424	1	1	0	0	0.046193	0.13424	0.11822	0.16119	0.099016	0.099371	0.2915	0.19497	0.23327	0.018283	0.26026	0.11465	0.12072	0.10895	0.079866	0.11077	-4.6229	-4.0729	-4.1958	-4.9146	-3.8354	-4.5229	-4.7625	-4.1417	-4.9833	-4.3229	-4.2125	-4.9375	-4.0604	-4.5938	-4.8229	-4.1042	247.002	77.252	358.778	391.223	101.480	190.741	367.319	210.566	403.635	67.388	210.773	253.336	283.871	123.846	183.777	142.585	0.00036269	0.00022656	6.8602e-05	1203.6	3.7603e-06	1.038e-06	1299.5	250.93	3.2437e-06	9.1723e-07	311.54	86.693	69.281	20.163	1.0262e-06	27.406	0.00010994	0.00010358	2.6553e-05	1151.8	1.1682e-06	1.1197e-06	1240.5	240.59	1.1619e-06	1.1172e-06	295.33	82.444	65.694	19.449	1.0037e-06	26.349	121.015	135.845	116.951	72.077	204.234	118.721	72.223	79.318	204.664	384.179	79.159	85.895	86.082	93.097	221.278	93.116	-8191	255	
23196.520	1	1	0	0	0.1122	0.045705	0.2645	0.055491	0.15757	0.173	0.15003	0.28355	0.068348	0.045164	0.31084	0.14428	0.18238	0.16894	0.14502	0.23237	-4.5083	-4.3896	-4.0563	-4.9187	-3.9	-4.5208	-4.8875	-4.0646	-4.8688	-4.5479	-4.0583	-5.0583	-4.1125	-4.35	-4.8063	-4.0229	295.663	126.129	413.867	308.550	418.962	270.609	402.297	369.526	332.792	221.414	328.632	256.428	319.688	407.651	85.081	277.903	0.00041494	0.00026202	0.0001002	1207.9	3.0269e-06	2.3671e-06	1296.5	251.71	4.0428e-06	1.4931e-06	312.19	86.664	68.968	20.115	3.2212e-06	27.229	0.00010939	9.9096e-05	2.5501e-05	1152.8	1.1847e-06	1.0605e-06	1238.8	241.36	1.1774e-06	1.0771e-06	295.34	82.457	65.595	19.404	1.0083e-06	26.428	119.058	173.986	108.186	72.187	195.020	257.604	72.032	79.310	216.494	206.379	79.440	86.211	86.702	93.402	85.336	92.654	-8191	255	
23196.615	1	1	0	0	0.19962	0.19331	0.27104	0.31062	0.21248	0.083065	0.038906	0.13567	0.079547	0.091065	0.10395	0.18434	0.32366	0.20649	0.12977	0.27232	-4.4625	-4.5417	-3.925	-5.0917	-4.1	-4.2	-4.7417	-3.8833	-4.6062	-4.4313	-4.1604	-4.8938	-4.2188	-4.1729	-4.85	-4.0563	226.779	165.205	238.700	401.531	416.936	266.199	262.011	223.793	341.289	298.415	305.252	282.686	408.003	88.530	145.556	355.670	0.00029634	0.00020112	8.4249e-05	1205.4	3.8826e-06	3.5315e-06	1300.7	251.62	2.3238e-06	3.1173e-06	313.47	86.977	69.485	20.168	5.0232e-06	27.309	0.00011307	9.698e-05	2.5532e-05	1154.6	1.1601e-06	1.0495e-06	1239.2	240.97	1.1305e-06	1.0509e-06	294.99	82.625	65.77	19.422	9.9837e-07	26.402	114.007	68.495	69.581	72.113	188.377	234.864	72.134	79.415	216.302	188.938	79.620	85.958	86.269	93.469	206.161	92.666	-8191	255	
23196.734	1	1	0	0	0.074552	0.052838	0.26325	0.23045	0.16509	0.08228	0.24175	0.22248	0.060302	0.046752	0.090205	0.2053	0.04266	0.019378	0.12879	0.091785	-4.4625	-4.7063	-3.975	-5.1021	-4.1854	-4.0729	-5.0312	-4.2229	-4.5979	-4.6458	-3.9458	-4.8667	-4.4333	-4.2396	-4.825	-4.05	162.195	185.531	226.861	126.266	126.774	148.537	390.202	327.613	146.468	149.196	134.454	77.854	262.114	255.225	183.758	406.716	0.00033592	0.00021959	7.6893e-05	1206.2	1.367e-06	3.0042e-06	1299.4	251.69	1.126e-06	5.9098e-06	310.81	86.201	68.909	20.158	4.9882e-06	27.552	0.00010381	9.398e-05	2.569e-05	1154.5	1.0934e-06	1.0444e-06	1238.6	241.33	1.1048e-06	1.0174e-06	294.69	82.599	65.482	19.342	1.0441e-06	26.427	114.932	108.756	158.205	72.163	226.305	170.751	72.326	79.511	174.910	160.811	79.226	85.699	86.043	93.451	199.517	92.656	-8191	255	
23196.809	1	1	0	0	0.048308	0.21744	0.022925	0.23666	0.099599	0.02038	0.12789	0.11971	0.086083	0.076753	0.015817	0.23268	0.02299	0.10746	0.13052	0.047973	-4.0229	-4.8292	-3.9875	-4.7979	-4.4375	-4.0354	-5.0479	-4.0938	-4.3021	-4.7042	-3.9	-4.6958	-4.5208	-4.1729	-4.8292	-4.1562	178.312	261.613	306.101	375.381	281.056	229.703	344.298	77.664	297.130	285.628	63.720	299.688	292.779	374.867	111.378	81.231	0.0003511	0.00010984	0.00013086	1203.4	2.5723e-06	2.535e-06	1295.3	250.46	1.7336e-06	8.9009e-07	310.99	86.647	68.304	20.063	2.4694e-06	27.613	0.00010331	9.1786e-05	2.7801e-05	1150.7	1.0722e-06	9.851e-07	1235	240.25	1.0604e-06	9.6691e-07	294.44	82.235	65.112	19.275	1.1275e-06	26.468	124.317	105.491	185.420	72.078	236.126	163.319	72.132	79.480	235.046	118.834	79.131	86.047	86.602	93.693	107.501	93.130	-8191	255	
23196.902	1	1	0	0	0.15364	0.20625	0.16397	0.24843	0.15092	0.097313	0.3222	0.16861	0.11959	0.15449	0.20875	0.20671	0.23708	0.20312	0.25475	0.16885	-4.0771	-4.8521	-3.9062	-4.6813	-4.4354	-4.1021	-4.9042	-4.1875	-4.1417	-4.775	-4.0542	-4.6667	-4.7708	-3.9167	-4.725	-4.2729	317.077	70.756	122.553	383.621	157.416	275.414	380.636	353.601	72.959	301.029	387.607	323.876	342.607	311.574	302.958	367.071	0.0002653	0.00028181	5.0831e-05	1200.5	3.4393e-06	1.3951e-06	1286	250.79	2.7317e-06	2.3396e-06	309.81	86.062	69.158	20.159	5.6403e-06	27.261	9.9928e-05	8.9705e-05	2.8232e-05	1148.6	1.0427e-06	1.006e-06	1232.6	240.14	1.0329e-06	9.8349e-07	294.74	82.181	65.462	19.358	1.1609e-06	26.38	112.854	156.193	173.412	72.194	201.937	216.179	71.996	79.814	194.188	200.345	79.388	85.784	86.611	93.308	196.908	93.174	-8191	255	
23197.002	1	1	0	0	0.32544	0.12482	0.10229	0.13449	0.20715	0.21133	0.3621	0.020641	0.17342	0.035011	0.044131	0.08015	0.1953	0.071073	0.17422	0.16011	-3.6771	-4.8042	-4.0729	-4.7875	-4.6958	-3.9875	-4.8792	-4.3917	-4.1188	-4.9396	-4.1062	-4.4083	-4.7271	-3.8688	-4.5188	-4.4792	260.194	232.837	355.418	69.501	323.890	224.048	347.512	412.853	345.583	393.173	250.435	337.318	313.417	321.674	365.530	110.543	0.00037806	0.00023936	8.7699e-05	1201.8	2.1431e-06	4.8841e-06	1290.2	250.19	2.8115e-06	3.1049e-06	310.59	86.198	68.74	20.196	3.0414e-06	27.601	9.7339e-05	9.3089e-05	2.9164e-05	1149.6	1.0095e-06	1.0159e-06	1235.5	240.11	1.0156e-06	1.0318e-06	294.36	82.049	65.169	19.363	1.1509e-06	26.407	127.312	119.854	108.130	72.257	294.312	173.063	72.099	79.825	229.943	216.285	78.954	85.874	86.352	93.553	152.208	92.968	-8191	255	
23197.119	1	1	0	0	0.12623	0.12375	0.15832	0.058656	0.09242	0.16742	0.083162	0.090566	0.082006	0.18352	0.17649	0.37571	0.19934	0.026799	0.14693	0.047643	-3.8333	-4.7375	-3.9729	-4.4021	-4.7417	-3.9021	-4.8896	-4.6208	-3.8729	-4.85	-4.1604	-4.3187	-4.8688	-4	-4.6687	-4.5792	312.588	65.759	344.620	130.024	297.712	175.874	364.389	283.630	303.538	318.210	327.722	94.431	100.406	308.816	408.046	420.280	0.00037561	0.00019579	0.00016811	1198.2	1.5778e-06	1.9775e-06	1291.9	250.7	3.1517e-06	1.7231e-06	310.2	86.421	69.01	19.949	4.2929e-06	27.349	9.3745e-05	9.8514e-05	2.9082e-05	1148.9	9.9474e-07	1.1197e-06	1235.1	240.06	9.8448e-07	1.0882e-06	294.25	82.199	65.143	19.284	1.0869e-06	26.205	118.787	160.730	114.093	72.155	169.321	148.582	72.298	79.630	159.802	328.949	79.093	86.189	86.684	93.408	179.858	93.114	-8191	255	
23197.217	1	1	0	0	0.17117	0.19034	0.21972	0.20796	0.035363	0.23843	0.32348	0.11979	0.071538	0.12357	0.27764	0.085774	0.085449	0.26674	0.14253	0.030726	-3.7854	-4.8646	-4.3187	-4.4604	-4.775	-3.9938	-4.7063	-4.6771	-3.9104	-4.9062	-4.4812	-4.0479	-4.7562	-3.925	-4.4271	-4.6958	367.727	406.888	198.484	384.440	165.858	223.777	321.346	153.038	319.001	88.307	342.065	113.997	116.498	344.863	110.979	281.901	0.00037184	0.00020775	4.1334e-05	1203.9	2.0506e-06	9.2218e-07	1289.3	250.05	1.9279e-06	3.8827e-06	311.3	86.018	68.1	20.129	2.7942e-06	27.467	9.3936e-05	0.0001008	2.7364e-05	1146	1.0051e-06	1.1425e-06	1231.5	239.68	1.0044e-06	1.141e-06	294.11	81.822	64.902	19.375	1.065e-06	26.263	133.711	178.486	186.075	72.375	222.365	264.048	72.065	79.817	205.442	147.664	79.552	85.577	86.539	93.862	226.611	93.230	-8191	255	
23197.312	1	1	0	0	0.18855	0.15195	0.14414	0.17443	0.1174	0.040418	0.4127	0.16872	0.12541	0.22891	0.12279	0.093997	0.095692	0.14786	0.026186	0.16379	-3.7208	-4.8042	-4.2854	-4.1833	-4.8354	-3.9875	-4.6208	-4.8896	-3.7958	-4.7354	-4.5042	-4.075	-5	-4.1333	-4.3958	-4.7875	102.664	110.883	100.256	398.894	197.946	174.516	354.277	317.754	79.401	203.421	330.854	374.794	409.631	70.419	163.253	399.225	0.00043185	0.00022443	2.6724e-05	1198.3	3.7715e-06	7.524e-07	1284.4	250.69	4.4248e-06	9.3313e-07	311.03	85.997	68.76	20.201	2.4375e-06	27.504	0.00010039	0.00010297	2.6289e-05	1146.6	1.0574e-06	1.1506e-06	1232.1	239.45	1.0835e-06	1.1284e-06	293.21	82.137	65.373	19.383	1.0553e-06	26.314	122.097	209.681	240.239	72.246	197.921	99.876	72.034	79.720	171.925	234.771	79.064	86.304	86.934	93.541	205.665	93.238	-8191	255	
23197.408	1	1	0	0	0.19115	0.11787	0.11949	0.17503	0.051616	0.19456	0.081322	0.16873	0.12001	0.081396	0.24263	0.02356	0.024903	0.15633	0.16299	0.11259	-3.6333	-4.7667	-4.3938	-4.2542	-4.8063	-4.3042	-4.5646	-4.9104	-4.0437	-4.6229	-4.6646	-4.0354	-5.0146	-4.2042	-4.0813	-4.9021	228.815	332.607	83.708	376.083	373.279	164.704	257.569	75.125	129.798	204.687	370.132	297.082	403.177	194.829	224.329	205.287	0.00037575	3.3351e-05	0.0001007	1197.1	3.9435e-06	1.3299e-06	1288.7	250.35	2.6685e-06	2.3701e-06	311.69	86.151	68.911	20.077	8.7063e-06	27.472	0.00010714	0.00010352	2.6441e-05	1145.9	1.1248e-06	1.1131e-06	1233.4	239.48	1.1651e-06	1.106e-06	294.67	81.983	65.519	19.324	1.0436e-06	26.412	123.607	266.948	119.676	72.521	181.077	304.630	72.240	79.582	183.069	117.117	79.280	86.040	86.790	94.071	167.241	92.919	-8191	255	
23197.506	1	1	0	0	0.038287	0.2059	0.12699	0.43925	0.072666	0.28321	0.22165	0.25281	0.19814	0.18079	0.084858	0.2743	0.071225	0.17964	0.095016	0.058674	-3.6271	-4.5021	-4.7188	-4.0958	-4.8583	-4.3	-4.375	-4.9104	-3.9562	-4.4708	-4.7979	-3.8563	-4.7896	-4.7396	-4.2042	-4.9437	365.490	307.324	66.176	399.696	408.805	233.706	328.959	372.547	282.111	272.244	70.337	378.376	378.629	84.344	217.819	152.918	0.00036565	0.00024242	6.9427e-05	1197.6	4.6446e-06	2.6283e-06	1292.1	249.59	3.023e-06	1.3038e-06	311.3	86.276	68.658	20.121	1.8805e-06	27.308	0.00011258	9.9402e-05	2.6095e-05	1144.6	1.2056e-06	1.0669e-06	1232.9	239.34	1.1907e-06	1.0706e-06	293.59	82.035	65.384	19.315	1.0285e-06	26.329	121.107	93.093	171.704	72.315	202.614	142.973	72.170	79.580	192.777	173.143	79.232	86.052	86.546	93.660	240.595	92.907	-8191	255	
23197.602	1	1	0	0	0.098339	0.29162	0.12454	0.053201	0.10433	0.16498	0.17335	0.19035	0.14919	0.017108	0.23103	0.21684	0.20329	0.14102	0.078489	0.18977	-3.8979	-4.2708	-4.7167	-4.1854	-4.8375	-4.4896	-4.1208	-4.9104	-4.0354	-4.3187	-5.0062	-4.1583	-4.7021	-4.6667	-3.9271	-4.95	167.989	321.916	317.395	120.221	123.992	363.180	66.603	402.141	120.499	390.420	63.068	165.142	382.149	322.069	91.617	70.779	0.00042437	0.000361	7.7375e-05	1200.8	1.1819e-06	4.6104e-06	1289.1	251.23	7.7112e-07	4.0553e-06	310.89	86.516	68.807	19.908	3.5677e-06	27.388	0.00011177	9.7784e-05	2.5288e-05	1147.2	1.1788e-06	1.0621e-06	1231	240.44	1.1703e-06	1.0686e-06	293.76	82.313	65.359	19.282	1.0066e-06	26.319	128.626	149.557	153.311	72.030	185.117	145.900	72.068	79.928	301.802	221.958	79.810	86.369	86.164	93.683	72.271	92.685	-8191	255	
23197.721	1	1	0	0	0.075042	0.12604	0.1425	0.18701	0.25203	0.24803	0.23123	0.30017	0.11385	0.053151	0.093121	0.15483	0.1663	0.27246	0.11538	0.13936	-4.0458	-4.1417	-4.8917	-4.0104	-4.7083	-4.7229	-3.8833	-5	-4.2021	-4.1792	-4.9437	-4.125	-4.6188	-4.5771	-3.8563	-4.6958	398.729	199.811	280.602	358.262	271.325	215.083	345.360	376.324	279.994	206.529	92.395	82.563	300.386	396.195	368.104	203.951	0.00031384	0.00017556	4.5723e-05	1193.9	2.9414e-06	2.8862e-06	1283.9	249.85	3.4397e-06	3.3812e-06	311.33	85.991	68.529	20.024	2.1424e-06	27.404	0.00010611	9.3499e-05	2.5296e-05	1144.5	1.1379e-06	1.0373e-06	1230.6	239.92	1.1085e-06	1.0356e-06	293.81	82.255	65.12	19.294	1.0731e-06	26.403	125.692	160.263	80.476	72.255	224.821	165.909	72.208	79.535	212.378	151.512	79.300	85.913	86.197	93.774	177.320	93.168	-8191	255	
23197.816	1	1	0	0	0.057018	0.16627	0.11848	0.054255	0.067921	0.05218	0.23294	0.25341	0.14613	0.12671	0.23909	0.26039	0.048663	0.3511	0.14113	0.076284	-4.0646	-4.1438	-4.8604	-4.2104	-4.5062	-4.7917	-4.1646	-4.9979	-4.4583	-4.0396	-5.0042	-4.0979	-4.4958	-4.8938	-3.7792	-4.7917	182.338	99.013	216.389	79.814	314.375	178.854	357.105	348.020	82.426	90.185	358.422	381.992	170.665	304.986	295.371	139.076	0.00033025	0.00035642	0.00012829	1191	1.4375e-06	1.3885e-06	1288.8	250.26	1.5773e-06	2.8004e-06	310.74	86.397	68.48	19.993	4.9331e-06	27.328	0.00010463	9.2722e-05	2.6389e-05	1144.7	1.0902e-06	1.0215e-06	1231.4	239.91	1.0717e-06	1.0095e-06	293.69	82.374	65.07	19.301	1.1319e-06	26.419	112.537	106.051	150.039	72.371	247.397	152.755	72.223	79.916	193.883	268.210	79.436	86.345	86.484	93.583	150.456	93.026	-8191	255	
#DATA ENDS
