BOXY.EXE: ISS Imagent and Oximeter Data Acquisition Program Version 0.80
Ascii Record File

#ACQ INFORMATION
2  Detector Channels 
16  External MUX Channels 
1  Auxiliary Channels 
5000  Waveform (CCF) Frequency (Hz)
1  Waveforms Skipped 
30  Waveforms Averaged 
1  Cycles Averaged 
16  Acquisitions per Waveform 
10.0806  Updata Rate (Hz) 

#FILE INFORMATION
TRUE -- External MUX Channel results are PARSED.
FALSE -- AC DC and Phase are NOT grouped.
TRUE -- Companion Program Settings File CREATED.
FALSE -- AC data not excluded
FALSE -- DC data not excluded
FALSE -- Phase data not excluded
FALSE -- Auxillary Chn. data not excluded
Tab delimiters

#CALIBRATION STATE
TRUE -- Waveform Calibration Values APPLIED.


#AUX CALIBRATION VALUES
Val Type	aux-1	

Term	1.0000e+00	
Factor	0.0000e+00	


#WF CALIBRATION VALUES
A = Detector Channel
Val Type	A-AC1	A-AC2	A-AC3	A-AC4	A-AC5	A-AC6	A-AC7	A-AC8	A-AC9	A-AC10	A-AC11	A-AC12	A-AC13	A-AC14	A-AC15	A-AC16	A-DC1	A-DC2	A-DC3	A-DC4	A-DC5	A-DC6	A-DC7	A-DC8	A-DC9	A-DC10	A-DC11	A-DC12	A-DC13	A-DC14	A-DC15	A-DC16	A-Ph1	A-Ph2	A-Ph3	A-Ph4	A-Ph5	A-Ph6	A-Ph7	A-Ph8	A-Ph9	A-Ph10	A-Ph11	A-Ph12	A-Ph13	A-Ph14	A-Ph15	A-Ph16	

Term	0.00000e+00	0.00000e+00	0.00000e+00	0.00000e+00	0.00000e+00	0.00000e+00	0.00000e+00	0.00000e+00	0.00000e+00	0.00000e+00	0.00000e+00	0.00000e+00	0.00000e+00	0.00000e+00	0.00000e+00	0.00000e+00	0.00000e+00	0.00000e+00	0.00000e+00	0.00000e+00	0.00000e+00	0.00000e+00	0.00000e+00	0.00000e+00	0.00000e+00	0.00000e+00	0.00000e+00	0.00000e+00	0.00000e+00	0.00000e+00	0.00000e+00	0.00000e+00	0.00000e+00	0.00000e+00	0.00000e+00	0.00000e+00	0.00000e+00	0.00000e+00	0.00000e+00	0.00000e+00	0.00000e+00	0.00000e+00	0.00000e+00	0.00000e+00	0.00000e+00	0.00000e+00	0.00000e+00	0.00000e+00	
Factor	1.00000e+00	1.00000e+00	1.00000e+00	1.00000e+00	1.00000e+00	1.00000e+00	1.00000e+00	1.00000e+00	1.00000e+00	1.00000e+00	1.00000e+00	1.00000e+00	1.00000e+00	1.00000e+00	1.00000e+00	1.00000e+00	1.00000e+00	1.00000e+00	1.00000e+00	1.00000e+00	1.00000e+00	1.00000e+00	1.00000e+00	1.00000e+00	1.00000e+00	1.00000e+00	1.00000e+00	1.00000e+00	1.00000e+00	1.00000e+00	1.00000e+00	1.00000e+00	X	X	X	X	X	X	X	X	X	X	X	X	X	X	X	X	

B = Detector Channel
Val Type	B-AC1	B-AC2	B-AC3	B-AC4	B-AC5	B-AC6	B-AC7	B-AC8	B-AC9	B-AC10	B-AC11	B-AC12	B-AC13	B-AC14	B-AC15	B-AC16	B-DC1	B-DC2	B-DC3	B-DC4	B-DC5	B-DC6	B-DC7	B-DC8	B-DC9	B-DC10	B-DC11	B-DC12	B-DC13	B-DC14	B-DC15	B-DC16	B-Ph1	B-Ph2	B-Ph3	B-Ph4	B-Ph5	B-Ph6	B-Ph7	B-Ph8	B-Ph9	B-Ph10	B-Ph11	B-Ph12	B-Ph13	B-Ph14	B-Ph15	B-Ph16	

Term	0.00000e+00	0.00000e+00	0.00000e+00	0.00000e+00	0.00000e+00	0.00000e+00	0.00000e+00	0.00000e+00	0.00000e+00	0.00000e+00	0.00000e+00	0.00000e+00	0.00000e+00	0.00000e+00	0.00000e+00	0.00000e+00	0.00000e+00	0.00000e+00	0.00000e+00	0.00000e+00	0.00000e+00	0.00000e+00	0.00000e+00	0.00000e+00	0.00000e+00	0.00000e+00	0.00000e+00	0.00000e+00	0.00000e+00	0.00000e+00	0.00000e+00	0.00000e+00	-1.54582e+01	-1.31826e+02	-1.18987e+02	-1.83770e+02	-1.30688e+02	-8.11710e+01	-1.58254e+02	-1.62015e+02	4.03488e+00	-7.49322e+01	-1.70683e+02	-1.70651e+02	-1.78365e+02	-1.76938e+02	-7.39507e+01	-1.49895e+02	
Factor	3.55145e-05	9.56148e-05	2.78179e-05	1.65747e-01	1.12877e-06	1.04670e-06	1.79515e-01	5.89105e-02	1.19376e-06	1.16421e-06	9.76336e-02	3.40614e-02	3.16364e-02	1.08962e-02	1.16736e-06	1.55437e-02	9.88457e-07	1.01235e-06	2.82120e-07	8.20202e-02	1.10315e-08	1.10754e-08	8.33426e-02	2.89522e-02	1.10356e-08	1.10748e-08	4.58140e-02	1.59180e-02	1.53075e-02	5.26684e-03	1.10529e-08	7.23307e-03	X	X	X	X	X	X	X	X	X	X	X	X	X	X	X	X	



#DISTANCE SETTINGS
A = Detector Channel
A-1	A-2	A-3	A-4	A-5	A-6	A-7	A-8	A-9	A-10	A-11	A-12	A-13	A-14	A-15	A-16	

2.5000e+00	3.0000e+00	2.5000e+00	3.0000e+00	2.0000e+00	3.0000e+00	1.5000e+00	3.0000e+00	3.0000e+00	3.0000e+00	3.0000e+00	3.0000e+00	3.0000e+00	3.0000e+00	1.5000e+00	3.0000e+00	

B = Detector Channel
B-1	B-2	B-3	B-4	B-5	B-6	B-7	B-8	B-9	B-10	B-11	B-12	B-13	B-14	B-15	B-16	

1.0000e+01	1.0000e+01	1.0000e+01	1.4400e+00	1.0000e+01	1.0000e+01	1.5100e+00	1.9400e+00	1.0000e+01	1.0000e+01	1.9900e+00	2.4900e+00	2.4100e+00	2.9000e+00	1.0000e+01	2.9800e+00	




#DATA BEGINS
time	group	step	mark	flag	A-AC1	A-AC2	A-AC3	A-AC4	A-AC5	A-AC6	A-AC7	A-AC8	A-AC9	A-AC10	A-AC11	A-AC12	A-AC13	A-AC14	A-AC15	A-AC16	A-DC1	A-DC2	A-DC3	A-DC4	A-DC5	A-DC6	A-DC7	A-DC8	A-DC9	A-DC10	A-DC11	A-DC12	A-DC13	A-DC14	A-DC15	A-DC16	A-Ph1	A-Ph2	A-Ph3	A-Ph4	A-Ph5	A-Ph6	A-Ph7	A-Ph8	A-Ph9	A-Ph10	A-Ph11	A-Ph12	A-Ph13	A-Ph14	A-Ph15	A-Ph16	B-AC1	B-AC2	B-AC3	B-AC4	B-AC5	B-AC6	B-AC7	B-AC8	B-AC9	B-AC10	B-AC11	B-AC12	B-AC13	B-AC14	B-AC15	B-AC16	B-DC1	B-DC2	B-DC3	B-DC4	B-DC5	B-DC6	B-DC7	B-DC8	B-DC9	B-DC10	B-DC11	B-DC12	B-DC13	B-DC14	B-DC15	B-DC16	B-Ph1	B-Ph2	B-Ph3	B-Ph4	B-Ph5	B-Ph6	B-Ph7	B-Ph8	B-Ph9	B-Ph10	B-Ph11	B-Ph12	B-Ph13	B-Ph14	B-Ph15	B-Ph16	aux-1	digaux	

17026.578	1	1	0	768	0.16921	0.16369	0.12263	0.28565	0.13756	0.043063	0.41936	0.38624	0.17547	0.092686	0.21458	0.22847	0.17825	0.2186	0.30991	0.22956	-2.625	-2.6208	-2.4833	-3.1417	-2.4021	-3.0083	-2.7833	-2.6167	-3.0563	-2.6646	-2.825	-3.1208	-2.55	-2.9917	-2.7729	-2.5438	194.079	98.723	71.813	336.456	32.516	127.207	321.748	301.520	312.633	165.319	303.916	307.867	268.833	36.805	45.032	288.191	0.0012479	0.00012762	5.8674e-05	1178.3	5.9714e-06	6.0783e-06	1475.8	418.52	6.852e-06	6.6544e-06	618.52	256.67	159.46	70.983	2.3263e-06	121.61	0.00030803	0.00028268	7.1431e-05	1055.7	3.2558e-06	2.9972e-06	1312.4	372.12	3.2012e-06	2.9713e-06	543.65	224.8	140.79	62.676	2.6041e-06	105.59	267.111	42.243	50.881	27.168	69.620	173.120	26.492	32.405	230.734	164.009	31.090	36.193	37.521	42.835	194.630	39.762	-8191	255	
17026.676	1	1	0	0	0.054522	0.2414	0.23154	0.12093	0.044007	0.21187	0.16368	0.38445	0.26002	0.088284	0.17547	0.3076	0.12658	0.20541	0.2109	0.18513	-2.7729	-2.5646	-2.5604	-3.1667	-2.4146	-2.7333	-3.0333	-2.5729	-2.8875	-2.7812	-2.6312	-3.1083	-2.5563	-2.9667	-2.9458	-2.5375	112.175	283.377	227.907	292.648	246.681	169.321	321.259	269.246	186.259	250.073	348.905	343.921	89.231	352.406	159.134	318.006	0.001094	0.00034154	0.00010117	1171.5	6.134e-06	4.6281e-06	1457.2	412.14	4.361e-06	4.5015e-06	611.9	250.79	157.68	70.008	7.698e-06	119.74	0.00030677	0.00025091	6.4312e-05	1050.3	3.0772e-06	2.6793e-06	1296.6	367.18	2.9948e-06	2.6189e-06	536.77	220.58	138.77	61.796	2.41e-06	104.18	266.864	89.100	118.923	26.809	75.046	113.741	26.141	32.004	255.900	178.913	30.835	36.154	37.712	42.308	178.257	39.839	-8191	255	
17026.771	1	1	0	0	0.32196	0.041931	0.2423	0.18809	0.38198	0.019184	0.081775	0.33974	0.11038	0.089061	0.411	0.18707	0.046809	0.13186	0.34799	0.28282	-2.5833	-2.6417	-2.3063	-3.2479	-2.5896	-2.9417	-3.0854	-2.425	-3.0083	-2.8104	-2.7104	-3.1792	-2.5729	-2.8833	-2.9688	-2.6688	302.386	130.114	320.824	340.904	203.970	85.412	345.804	272.589	174.726	256.855	297.355	349.072	161.026	369.370	31.850	298.578	0.0010139	0.00072659	0.00020401	1173.8	6.9166e-06	5.5808e-06	1469.1	412.01	5.5399e-06	3.9359e-06	613.96	254.51	158.54	70.632	1.1258e-05	120.61	0.00028675	0.00023612	6.1422e-05	1055.1	2.9797e-06	2.5741e-06	1304.8	368.89	2.9008e-06	2.5727e-06	537.6	222.43	139.45	62.248	2.5774e-06	105.42	267.074	93.486	142.417	26.788	70.331	198.353	26.217	32.347	202.110	265.293	30.807	36.043	37.725	42.300	142.354	39.641	-8191	255	
17026.867	1	1	0	0	0.13425	0.091637	0.28849	0.20366	0.10725	0.098127	0.13358	0.11904	0.38616	0.015766	0.21165	0.25786	0.30903	0.17739	0.16508	0.25428	-2.4625	-2.8146	-2.3625	-3.0667	-2.5396	-2.6125	-3.1937	-2.5708	-2.675	-2.8729	-2.4688	-3.0125	-2.7938	-2.7479	-2.9625	-2.5958	274.999	345.912	160.025	303.603	271.078	105.817	29.627	61.043	363.210	238.496	39.213	270.860	341.070	349.047	334.531	271.013	0.00097905	0.00028425	0.00016552	1173	2.3539e-06	5.0265e-06	1466.8	416.66	2.7053e-06	3.0048e-06	620.37	255.25	160.09	71.867	1.3622e-05	122.27	0.00027877	0.00023828	6.5992e-05	1056.6	2.8484e-06	2.6319e-06	1306.6	372.36	2.857e-06	2.5983e-06	543.48	225.01	141.2	63.174	2.9186e-06	106.85	259.396	88.351	90.697	26.874	64.576	120.974	26.172	32.273	242.043	234.880	31.203	36.036	37.779	42.386	177.391	39.690	-8191	255	
17026.965	1	1	0	0	0.062454	0.053227	0.20891	0.12514	0.11789	0.18053	0.24313	0.18131	0.034795	0.13378	0.2521	0.45449	0.12424	0.21235	0.21763	0.15088	-2.6021	-2.9708	-2.3333	-3.0333	-2.7271	-2.5563	-3.2875	-2.6542	-2.6458	-2.8854	-2.5333	-3.0458	-2.8083	-2.5438	-3.025	-2.6688	187.365	258.713	271.006	232.903	281.866	251.676	326.090	246.190	281.126	38.489	32.128	337.734	22.402	324.591	182.598	317.442	0.00096068	0.00063284	0.00012525	1177	7.729e-06	7.505e-06	1463.6	416.43	5.4007e-06	1.2125e-06	614.87	253.5	159.43	71.219	8.8311e-06	120.97	0.00028439	0.00024507	7.5932e-05	1055.7	2.9269e-06	2.6867e-06	1302.1	372.21	2.8865e-06	2.6359e-06	541.17	222.61	140.25	62.759	3.2339e-06	105.73	263.986	133.190	172.678	26.847	38.899	162.268	26.269	32.544	234.832	243.326	31.008	36.191	37.970	42.146	220.856	39.702	-8191	255	
17027.061	1	1	0	0	0.23346	0.087058	0.12535	0.12239	0.1055	0.20362	0.33298	0.26044	0.13865	0.14444	0.29639	0.11594	0.10791	0.24862	0.11188	0.27103	-2.2979	-2.8833	-2.45	-2.9979	-2.8396	-2.3937	-3.3146	-2.6063	-2.5771	-3.1458	-2.5271	-3.225	-2.9646	-2.6063	-3.1354	-2.6646	260.734	50.941	321.877	71.276	328.769	61.416	328.440	298.274	178.108	141.255	104.457	324.093	298.441	32.525	333.202	345.610	0.0011089	0.00067748	0.00015241	1151.6	6.2926e-06	3.0304e-06	1434.3	410.48	6.6215e-06	1.905e-06	604.13	251.65	156.62	70.576	9.707e-06	120.44	0.00028372	0.00025031	8.4449e-05	1039.8	2.8231e-06	2.7117e-06	1285.8	366.75	2.8126e-06	2.7186e-06	534.72	220.31	138.25	62.253	3.2386e-06	104.97	254.414	120.059	169.766	26.816	134.245	119.505	26.209	32.268	267.201	344.383	30.957	35.856	38.418	42.344	198.610	39.567	-8191	255	
17027.180	1	1	0	0	0.028978	0.14013	0.19192	0.11352	0.022447	0.17972	0.21431	0.037352	0.2779	0.059013	0.27798	0.10916	0.28239	0.21419	0.16668	0.22353	-2.1354	-2.8292	-2.2833	-2.9375	-3.0167	-2.4792	-3.1833	-2.7062	-2.6646	-3.075	-2.7	-2.8438	-3.0292	-2.45	-2.8688	-2.7771	224.854	210.398	326.985	231.768	58.655	86.592	252.878	62.377	344.744	366.766	327.221	337.656	363.035	365.625	73.808	352.532	0.00098461	0.00047237	0.00019729	1151.3	4.8867e-06	3.802e-06	1432.7	407.43	3.4273e-06	8.2698e-06	605.89	250.72	158.59	70.808	7.4005e-06	121.94	0.00025814	0.00024576	8.0498e-05	1031.8	2.5309e-06	2.7533e-06	1279.2	364.08	2.4966e-06	2.7483e-06	535.2	220.46	138.49	62.648	3.0417e-06	105.66	261.014	92.877	112.094	26.720	105.061	164.264	26.020	32.637	96.690	139.385	30.829	35.918	37.798	42.150	171.997	39.845	-8191	255	
17027.275	1	1	0	0	0.039383	0.1417	0.11402	0.2291	0.22312	0.13024	0.44066	0.057052	0.29439	0.20607	0.16919	0.26373	0.13576	0.34302	0.12916	0.14891	-2.1271	-2.8792	-2.3438	-2.7875	-3.05	-2.425	-3.1771	-2.6333	-2.4292	-3.075	-2.7771	-2.7646	-2.8479	-2.4271	-3.0167	-2.9833	75.011	289.424	343.490	18.280	231.881	54.323	330.740	139.529	257.177	207.294	27.755	323.901	301.539	368.680	170.380	325.890	0.0011012	0.00035499	0.00016208	1151.7	5.3937e-06	7.7686e-06	1442	410.68	2.2752e-06	4.1451e-06	613.62	256.06	159.07	71.79	6.3875e-06	122.59	0.00024038	0.00025758	7.6064e-05	1029.9	2.4261e-06	2.8846e-06	1287	365.92	2.501e-06	3.0336e-06	540.1	223.66	139.69	63.322	2.9859e-06	106.66	262.773	123.362	41.277	26.767	115.736	139.279	26.380	32.429	142.783	137.775	31.231	35.935	37.926	42.503	211.588	39.975	-8191	255	
17027.371	1	1	0	0	0.22825	0.23341	0.085615	0.33133	0.062749	0.10065	0.35318	0.14864	0.078355	0.10412	0.28916	0.063789	0.20384	0.30418	0.16324	0.33802	-1.9292	-2.8375	-2.5479	-2.7708	-3.0479	-2.5458	-3.0042	-2.9062	-2.2521	-3.1729	-2.6813	-2.6479	-3.0896	-2.5083	-2.7854	-2.975	121.014	339.283	295.685	345.204	354.292	112.293	308.038	263.860	140.165	185.459	322.693	272.765	246.215	17.681	288.358	323.898	0.0011046	0.00088854	9.1287e-05	1159.4	9.3307e-06	6.5568e-06	1443.3	411.58	8.872e-06	4.1309e-06	611.44	251.06	157.77	70.965	7.3377e-06	121.06	0.00025908	0.00029004	7.4829e-05	1035.2	2.6369e-06	3.1875e-06	1287.2	366.59	2.7678e-06	3.2465e-06	537.52	220.82	139.24	62.961	2.911e-06	105.29	269.813	132.417	18.528	26.635	150.509	138.879	25.904	32.353	232.341	165.244	31.031	36.107	37.822	42.623	170.392	39.747	-8191	255	
17027.467	1	1	0	0	0.079068	0.050515	0.094026	0.18494	0.11187	0.1999	0.32116	0.186	0.2737	0.24004	0.14215	0.084736	0.14039	0.11997	0.27666	0.13671	-1.9458	-3.0875	-2.6042	-2.4792	-3	-2.5458	-2.9583	-3.1125	-2.3292	-3.0563	-2.7521	-2.6542	-3.2083	-2.7313	-2.6958	-2.975	341.508	80.908	31.144	42.244	66.220	354.606	312.544	40.670	262.361	152.249	24.731	345.146	352.334	49.765	353.190	272.946	0.0012598	0.00056738	0.00023744	1153.2	7.6474e-06	1.079e-05	1446.4	415.39	7.8099e-06	3.0603e-06	612.79	251.71	158.98	70.524	7.245e-06	120.7	0.00028339	0.00030388	7.362e-05	1032.8	3.003e-06	3.3046e-06	1284.5	369	3.0615e-06	3.2816e-06	538.8	221.16	140.04	62.665	2.8706e-06	104.94	256.276	98.272	78.078	26.935	87.588	137.258	26.026	32.248	243.054	131.117	30.998	35.979	37.987	42.588	211.866	39.945	-8191	255	
17027.562	1	1	0	0	0.018192	0.11197	0.11939	0.15852	0.14202	0.020916	0.39641	0.23393	0.23432	0.097266	0.28854	0.41719	0.28673	0.28369	0.18138	0.071046	-2.0667	-2.9479	-2.7812	-2.4458	-3.0021	-2.5521	-2.8958	-3.1792	-2.2521	-2.7938	-3.0583	-2.4917	-3.1542	-2.6583	-2.5083	-3.075	217.874	279.120	68.201	357.133	137.623	137.254	328.473	336.228	295.658	201.096	231.072	335.608	371.260	344.579	341.261	289.434	0.0012172	0.0007015	0.00017242	1154.3	2.9947e-06	5.5096e-06	1445.9	410.85	4.7716e-06	4.2759e-06	612.71	253.26	159.14	71.086	6.7371e-06	121.18	0.00031021	0.00029183	7.2337e-05	1035.1	3.2598e-06	3.1212e-06	1282.2	367.52	3.3692e-06	3.0612e-06	538.77	221.91	140.36	62.836	2.8062e-06	105.54	260.103	126.092	125.190	26.706	97.161	92.868	25.958	32.605	297.159	154.608	31.227	35.967	37.906	42.537	183.456	39.772	-8191	255	
17027.658	1	1	0	0	0.11267	0.13687	0.14429	0.28174	0.10754	0.22855	0.28184	0.050534	0.20472	0.09799	0.50318	0.22317	0.041139	0.33445	0.21767	0.14667	-1.9729	-2.8104	-2.7938	-2.5438	-3.0187	-2.5979	-2.75	-3.2583	-2.4896	-2.8167	-3.0792	-2.5563	-3.1562	-2.7438	-2.4938	-3.1271	139.038	337.687	120.250	343.712	169.105	193.669	337.036	350.146	158.288	209.748	317.928	308.119	347.868	312.944	170.617	358.337	0.0011881	0.00028393	0.00015756	1155	5.2219e-06	2.3442e-06	1457.1	414.24	6.7813e-06	1.1569e-05	614.82	255.29	159.17	70.797	7.4513e-06	121.05	0.00032712	0.00027474	7.0126e-05	1036.6	3.3495e-06	2.9006e-06	1292.8	369.44	3.3057e-06	2.8691e-06	538.72	223.31	140.75	62.492	2.6114e-06	105.39	260.434	316.925	64.889	26.919	117.623	365.069	26.119	32.345	255.257	160.405	31.376	36.148	37.748	42.592	157.563	39.718	-8191	255	
17027.779	1	1	0	0	0.33285	0.10835	0.052575	0.27083	0.24014	0.18283	0.29498	0.269	0.081382	0.09458	0.23816	0.026124	0.079502	0.054436	0.027396	0.34979	-2.1583	-2.7396	-3	-2.2896	-3.0187	-2.7729	-2.5708	-3.2708	-2.6167	-2.7812	-3.1604	-2.4417	-3.0083	-2.8792	-2.6146	-3.2542	300.972	65.121	210.476	348.450	340.763	328.233	346.665	280.465	237.682	318.866	36.488	228.179	55.861	36.680	317.142	290.161	0.00098209	0.00077935	0.00019734	1151.1	4.699e-06	6.1059e-07	1430.2	410.73	1.0874e-06	6.8043e-06	608.57	249.31	158.05	69.884	6.607e-06	119.8	0.00031153	0.00025622	6.6612e-05	1035.1	3.2194e-06	2.8154e-06	1272.1	366.44	3.1257e-06	2.725e-06	533.16	219.27	138.58	61.727	2.6361e-06	104.04	260.712	107.106	135.003	26.863	167.542	108.717	25.857	32.495	374.216	145.611	30.815	36.025	37.585	42.636	195.901	39.642	-8191	255	
17027.877	1	1	0	0	0.37884	0.048478	0.10632	0.12641	0.20989	0.13595	0.24564	0.23242	0.18799	0.24333	0.1901	0.36838	0.24733	0.1554	0.11184	0.28877	-2.1521	-2.4354	-2.9146	-2.7313	-2.7687	-2.9771	-2.6625	-3.1917	-2.5708	-2.5208	-3.2167	-2.4854	-2.7979	-3.0146	-2.4875	-3.2125	303.832	82.080	131.349	201.859	349.185	340.105	316.328	298.461	120.224	62.306	330.729	342.608	362.239	286.369	141.648	253.232	0.00095488	0.00033876	0.00019271	1146.4	9.5498e-06	6.4722e-06	1423.7	409.44	1.7574e-06	7.4874e-06	607.62	250.63	156.87	70.24	5.6953e-06	120.32	0.00029477	0.00024808	6.8452e-05	1029.1	3.0029e-06	2.7212e-06	1267	366.37	2.9755e-06	2.6999e-06	532.33	220.44	138.49	62.145	2.8058e-06	105.12	260.084	84.857	134.041	26.640	107.277	124.847	25.824	32.433	213.754	146.972	31.078	35.961	37.855	42.598	121.635	39.511	-8191	255	
17027.973	1	1	0	0	0.044737	0.033835	0.315	0.16762	0.095469	0.13313	0.27966	0.26935	0.21843	0.12024	0.050515	0.31937	0.26895	0.3635	0.015896	0.37426	-2.2313	-2.4042	-2.95	-2.4771	-2.6562	-2.8312	-2.5187	-3.2771	-2.675	-2.3937	-3.0396	-2.575	-2.6729	-2.9167	-2.2521	-3.1396	262.989	101.415	139.406	328.905	81.944	347.228	330.400	291.973	47.987	50.759	292.005	351.703	323.413	343.049	361.382	369.381	0.0010304	0.00030601	0.00028121	1137.5	4.8906e-06	9.7804e-06	1419.5	410.37	8.5526e-06	1.0073e-05	607.01	251.94	158.43	70.907	7.8667e-06	121.49	0.00028643	0.00024609	7.4784e-05	1024.9	2.9141e-06	2.6694e-06	1265.2	366.58	2.908e-06	2.6806e-06	535.31	221.82	139.24	62.487	3.116e-06	106.14	257.143	67.481	110.655	26.798	128.562	161.092	26.039	32.137	217.527	171.405	30.827	35.883	37.789	42.656	172.280	39.777	-8191	255	
17028.068	1	1	0	0	0.048633	0.11391	0.1276	0.28603	0.23759	0.19196	0.16036	0.1803	0.20185	0.03126	0.32732	0.11145	0.052809	0.37583	0.09788	0.14772	-2.4271	-2.4688	-2.9917	-2.6917	-2.6292	-2.9188	-2.5354	-3.1979	-2.6729	-2.4771	-3.1854	-2.5875	-2.7	-3.0812	-2.4021	-3.0229	187.824	249.120	30.516	321.479	357.755	259.825	304.706	304.692	361.225	53.822	374.104	249.469	128.361	299.170	344.814	265.409	0.00095272	0.00055736	0.0002406	1146.1	4.3635e-06	3.51e-07	1425.5	408.75	7.4205e-06	7.9928e-06	605.34	249.44	156.39	70.364	1.0267e-05	120.26	0.00027375	0.0002393	7.9335e-05	1028.6	2.7513e-06	2.6133e-06	1272.1	365.52	2.7646e-06	2.6054e-06	533.84	219.7	137.42	61.913	3.2234e-06	104.73	260.332	69.424	150.605	26.751	75.478	357.494	26.127	32.218	257.763	191.081	31.200	35.894	37.928	42.692	198.566	39.506	-8191	255	
17028.141	1	1	0	0	0.18347	0.15378	0.3408	0.29989	0.32368	0.16277	0.39299	0.19552	0.37565	0.19357	0.36526	0.29548	0.41557	0.19583	0.16943	0.042653	-2.5438	-2.4771	-3.0229	-2.7417	-2.6229	-3.025	-2.5667	-3.1312	-2.8792	-2.3229	-3.1396	-2.7583	-2.6229	-3.1979	-2.5375	-3.1188	112.880	275.111	41.704	337.622	84.232	223.027	312.095	369.805	139.467	321.605	14.320	346.616	352.471	218.644	138.737	320.196	0.0009258	0.00091395	3.9881e-05	1140.6	9.267e-06	8.4529e-06	1431.3	408.02	6.4193e-06	4.1536e-06	606.48	249.13	156.08	69.961	7.3192e-06	120.03	0.00025874	0.00024766	8.1857e-05	1024	2.6232e-06	2.6939e-06	1275.9	363.46	2.5965e-06	2.8112e-06	533.99	218.57	137.12	61.572	3.1773e-06	104	252.993	98.173	22.493	26.746	133.289	203.495	26.004	32.274	287.222	192.589	31.204	35.914	37.704	42.313	191.198	39.867	-8191	255	
17028.260	1	1	0	0	0.26933	0.078164	0.066308	0.11241	0.25748	0.30204	0.38536	0.11771	0.13459	0.17661	0.27039	0.2747	0.12363	0.13668	0.030476	0.29603	-2.6354	-2.3125	-2.7833	-2.7792	-2.3438	-2.9792	-2.6521	-2.7208	-2.9729	-2.4917	-2.9604	-2.7646	-2.4521	-3.1562	-2.6063	-2.9271	368.148	186.103	52.101	245.024	92.399	277.479	327.465	341.009	133.249	32.637	304.172	359.773	89.542	266.895	282.815	251.986	0.0010895	0.00022457	0.00016798	1153.2	4.0143e-06	5.9431e-06	1426.3	407.66	7.5071e-06	9.5073e-06	606.38	250.86	157.82	70.444	8.3769e-06	119.94	0.00024841	0.00026689	8.059e-05	1033.2	2.5521e-06	2.9825e-06	1281.7	364.43	2.5702e-06	3.0205e-06	535.29	220.07	138.3	62.325	3.0927e-06	104.52	262.771	98.255	122.206	26.508	66.671	127.828	26.100	32.310	309.590	138.184	31.213	36.030	37.982	42.633	133.392	39.793	-8191	255	
17028.355	1	1	0	0	0.22454	0.021283	0.18156	0.19927	0.24918	0.19946	0.47664	0.2347	0.25257	0.33844	0.15527	0.33283	0.028092	0.14392	0.098791	0.34333	-2.6354	-2.4729	-2.8563	-3.075	-2.475	-3.075	-2.7979	-2.6604	-3.0729	-2.3688	-2.9688	-3.0042	-2.4271	-3.1604	-2.5062	-2.8208	164.820	334.438	84.369	341.181	77.874	285.613	316.300	346.569	314.972	334.414	34.898	314.162	69.621	362.477	66.929	309.383	0.0011665	0.00099268	6.6816e-05	1145.6	6.9025e-06	8.0732e-06	1438.9	406.45	6.9579e-06	2.1812e-06	606.98	251.58	157.22	70.461	2.5928e-06	121.02	0.00025915	0.00029029	7.6934e-05	1026	2.6628e-06	3.2291e-06	1278.6	363.34	2.7406e-06	3.2638e-06	535.1	220.86	138.71	62.584	2.9389e-06	105.35	249.208	141.049	94.308	26.813	86.747	117.597	26.109	32.184	230.084	201.480	30.851	36.208	37.929	42.367	76.610	40.001	-8191	255	
17028.451	1	1	0	0	0.17002	0.042625	0.15353	0.16184	0.20374	0.14256	0.20732	0.10799	0.0037639	0.044484	0.15683	0.15622	0.14621	0.18104	0.17053	0.027453	-2.625	-2.4333	-2.8458	-2.9	-2.4292	-3.0646	-2.8625	-2.525	-3.1896	-2.6937	-2.7958	-3.0646	-2.4437	-3.1542	-2.7229	-2.6437	221.337	215.415	65.272	318.259	26.653	189.710	333.415	322.835	360.641	231.953	303.282	338.862	367.806	33.079	162.418	360.418	0.0011434	0.00020742	0.0001506	1141.4	4.9967e-06	6.9643e-06	1404.3	407.04	8.116e-06	6.1486e-06	598.75	248.68	156.62	69.701	5.5194e-06	119.16	0.00028161	0.00030132	7.2882e-05	1019.4	2.9025e-06	3.1909e-06	1254.9	361.12	2.8859e-06	3.1192e-06	528.3	217.85	137.67	61.803	2.7517e-06	103.14	247.025	132.199	70.702	27.005	113.533	148.024	26.045	32.416	272.716	127.147	31.051	36.074	37.888	42.117	144.350	39.844	-8191	255	
17028.572	1	1	0	0	0.21422	0.19348	0.042909	0.28167	0.12513	0.13904	0.2567	0.39225	0.11956	0.24667	0.37675	0.31198	0.19423	0.094684	0.16071	0.17788	-2.675	-2.4854	-2.7	-3.1937	-2.3417	-2.9229	-2.8958	-2.7104	-3.0604	-2.5583	-2.8521	-3.1729	-2.4792	-3.0563	-2.875	-2.5812	96.695	21.757	320.696	23.777	307.222	280.989	316.748	329.097	299.794	191.707	374.282	328.789	341.661	302.810	216.297	287.987	0.0011116	0.00028109	0.0001423	1120.4	1.0322e-05	9.89e-07	1377.5	399.1	8.2376e-06	5.8248e-06	589.01	244.63	152.64	68.983	1.0165e-05	118.24	0.00028796	0.00027731	6.7189e-05	1001.5	2.9744e-06	2.902e-06	1228.9	355.68	2.9678e-06	2.7955e-06	517.43	214.77	135.06	60.938	2.4909e-06	102.42	262.182	94.076	125.728	26.946	110.578	185.274	26.276	32.334	242.583	94.348	31.008	35.967	37.920	42.644	168.534	39.557	-8191	255	
17028.668	1	1	0	0	0.032913	0.1956	0.1468	0.28132	0.22246	0.057152	0.19162	0.17466	0.2856	0.17561	0.11355	0.175	0.14694	0.37335	0.059351	0.39409	-2.6854	-2.5292	-2.7271	-3.2	-2.3354	-2.9104	-3.0771	-2.5	-2.9292	-2.7729	-2.5812	-3.1813	-2.5604	-2.9062	-3.0125	-2.5354	46.672	157.347	205.776	347.855	288.585	175.110	313.514	239.597	111.318	360.234	278.715	281.016	331.332	288.117	81.004	338.347	0.0010678	0.00029456	8.357e-05	1110.1	6.2131e-06	7.3631e-06	1365.1	394.04	8.8014e-06	2.1011e-06	588.98	245.88	153.37	68.885	8.2854e-06	118.55	0.00029103	0.00024613	6.2795e-05	995.46	2.9319e-06	2.6012e-06	1215.8	351.7	2.9102e-06	2.5715e-06	518.14	215.3	135.08	60.766	2.3431e-06	103.2	256.835	179.564	85.677	26.453	107.342	94.076	26.054	32.438	232.036	77.728	30.855	36.280	37.583	42.208	129.281	39.945	-8191	255	
17028.740	1	1	0	0	0.18396	0.19837	0.12221	0.18477	0.22841	0.19335	0.18152	0.39164	0.20955	0.12919	0.39842	0.31194	0.33477	0.40512	0.091508	0.08295	-2.4813	-2.7042	-2.5917	-3.0479	-2.4521	-2.7771	-3.175	-2.5292	-2.9562	-2.9167	-2.6375	-3.1021	-2.8208	-2.8958	-3.0917	-2.4083	371.786	161.666	326.646	332.096	297.525	180.812	345.809	357.584	86.162	272.367	31.039	36.128	303.136	311.505	363.804	234.543	0.001121	0.0003861	0.00011716	1106.7	8.5947e-06	4.2557e-06	1370.3	396.47	1.6894e-06	6.0727e-06	591.05	245.44	152.73	69.081	3.1045e-07	118.84	0.00028408	0.00022523	5.9238e-05	995.4	2.8246e-06	2.4977e-06	1218.1	353.32	2.7817e-06	2.4248e-06	518.02	215.92	134.81	60.85	2.3186e-06	103.29	261.277	89.868	177.078	26.678	143.771	215.575	25.984	32.490	219.272	158.143	30.852	36.276	37.805	42.462	374.094	39.390	-8191	255	
17028.859	1	1	0	0	0.21257	0.21122	0.13032	0.070334	0.11001	0.15598	0.26664	0.21478	0.034264	0.11685	0.18025	0.2452	0.42684	0.20199	0.17215	0.16642	-2.5042	-2.7958	-2.3771	-3.1813	-2.5458	-2.6833	-3.1542	-2.6583	-2.9562	-2.675	-2.5479	-3.4062	-2.7729	-2.6271	-2.9729	-2.5125	270.442	289.352	333.683	320.713	44.349	350.163	351.649	275.152	149.164	305.512	316.312	309.486	15.683	358.817	258.788	52.892	0.00093123	0.00066741	0.00011548	1108.2	7.2494e-06	4.4918e-06	1363	390.92	8.7154e-06	5.1541e-06	586.16	243.65	152.17	68.361	1.2147e-05	117.63	0.00026775	0.00021952	5.9316e-05	991.44	2.6391e-06	2.4064e-06	1209.7	350.56	2.6128e-06	2.3523e-06	513.27	213.91	133.7	60.16	2.4461e-06	102.36	266.483	97.042	101.723	26.676	75.265	126.343	25.867	32.149	232.311	206.393	30.887	36.230	37.728	42.221	151.861	39.999	-8191	255	
17028.957	1	1	0	0	0.13204	0.24245	0.14593	0.251	0.079834	0.13007	0.22051	0.18042	0.19147	0.19007	0.33438	0.20106	0.10048	0.31366	0.2434	0.26416	-2.3021	-2.6646	-2.4521	-3.0917	-2.7646	-2.5104	-3.1875	-2.475	-2.85	-2.9979	-2.4854	-3.2771	-2.7417	-2.5271	-3.1167	-2.8229	38.053	103.553	346.624	332.309	158.446	230.233	213.239	311.537	75.999	102.304	332.776	301.920	331.925	291.120	81.542	296.353	0.0011048	0.00032422	0.0001781	1106.6	2.4577e-06	3.6303e-06	1367	393.99	7.6953e-06	9.5941e-06	590.53	245.06	153.53	68.572	4.786e-06	118.56	0.00024994	0.00021371	6.4342e-05	991.5	2.5377e-06	2.2938e-06	1217.6	352.83	2.5493e-06	2.3127e-06	518.23	215.69	134.88	60.589	2.727e-06	103.13	256.473	95.713	128.843	26.570	109.009	227.700	26.181	32.481	197.919	180.366	30.749	36.169	37.426	42.354	189.626	39.527	-8191	255	
17029.053	1	1	0	0	0.25757	0.087852	0.040359	0.08957	0.057774	0.17594	0.22271	0.082374	0.084544	0.1714	0.1574	0.1078	0.095835	0.21537	0.25622	0.098406	-2.4146	-2.9083	-2.2854	-3.0938	-2.7354	-2.5979	-3.2208	-2.6729	-2.5875	-2.9417	-2.525	-3.0167	-2.9583	-2.6271	-3.1021	-2.7792	146.337	115.508	370.149	275.048	283.345	309.785	291.058	114.794	211.258	99.776	362.303	38.147	153.647	32.358	239.330	225.126	0.00090539	0.00077979	0.00018729	1109	3.2902e-06	3.6317e-06	1387.2	397.1	5.2983e-06	8.8788e-06	598.61	247.22	153.63	68.914	5.4309e-06	119.1	0.00025233	0.00021715	7.3522e-05	997.88	2.55e-06	2.3904e-06	1236.7	355.86	2.5478e-06	2.3982e-06	525.5	216.91	135.33	60.901	2.9871e-06	103.66	263.939	124.297	165.013	26.612	74.434	204.199	26.249	32.448	263.668	174.726	30.796	36.274	37.598	42.383	139.484	39.737	-8191	255	
17029.174	1	1	0	0	0.14616	0.20307	0.20084	0.1546	0.11926	0.25509	0.050836	0.10491	0.27128	0.29408	0.099919	0.37099	0.25078	0.27681	0.12233	0.25625	-2.2667	-2.9208	-2.3208	-2.9	-2.7792	-2.5479	-3.1042	-2.7208	-2.8021	-3.1146	-2.5771	-2.9396	-2.9229	-2.5167	-2.9146	-2.8646	174.489	182.874	104.405	360.915	250.511	72.615	224.473	43.681	84.255	103.526	249.676	345.514	358.607	69.861	244.018	302.188	0.0011218	0.00071277	0.00015569	1122.1	5.6308e-06	2.1123e-06	1380.1	397.06	6.624e-06	7.9489e-06	591.2	245.34	152.45	68.701	6.3758e-06	117.58	0.00024676	0.00022732	7.6225e-05	1004.4	2.408e-06	2.4693e-06	1238.2	354.73	2.3696e-06	2.4826e-06	520.62	215.02	133.75	60.374	2.8403e-06	101.82	256.869	61.665	152.651	27.028	61.639	148.164	26.194	32.488	261.409	181.837	30.939	35.989	37.955	42.543	109.641	39.819	-8191	255	
17029.268	1	1	0	0	0.010264	0.33845	0.057029	0.18956	0.17666	0.23248	0.15207	0.10165	0.065723	0.2392	0.17164	0.056408	0.32873	0.034553	0.14846	0.22454	-2.1542	-3.1396	-2.3875	-2.9521	-2.8458	-2.475	-3.0312	-2.975	-2.625	-3.0958	-2.7542	-2.6937	-3.0812	-2.4729	-2.9188	-3.0583	72.389	352.649	283.179	26.702	344.658	305.176	285.396	40.704	173.503	278.520	371.970	152.425	326.061	331.400	99.964	307.313	0.00088725	0.00059807	0.00018298	1110.7	5.7308e-06	3.6473e-06	1367.6	391.09	1.1374e-05	4.1993e-06	583.36	240.76	151.6	67.114	1.2505e-05	116.23	0.00022589	0.00023191	7.0182e-05	990.57	2.2478e-06	2.5789e-06	1220.5	349.64	2.2601e-06	2.6526e-06	513.42	212.02	132.4	59.548	2.7156e-06	100.65	259.921	53.630	98.404	26.482	95.611	125.213	25.847	32.204	286.048	185.624	31.027	35.936	37.985	42.276	168.463	39.855	-8191	255	
17029.363	1	1	0	0	0.09726	0.11023	0.067681	0.035118	0.035193	0.076421	0.20203	0.23225	0.24935	0.21267	0.13494	0.18857	0.12415	0.10058	0.060855	0.33513	-1.95	-2.9	-2.4771	-2.7417	-3.0646	-2.5646	-3.0438	-2.7812	-2.4792	-2.9437	-2.7083	-2.7	-3.0187	-2.3104	-2.6979	-3.0687	135.411	81.970	179.241	343.640	216.768	243.747	43.014	257.677	85.375	81.102	290.259	360.107	289.067	51.524	313.623	315.182	0.0010294	0.00028574	0.00012251	1104.1	8.3706e-06	6.1284e-06	1365.5	393.68	7.5573e-06	1.6242e-06	584.92	242.72	151.29	68.314	1.3109e-06	117.19	0.00022916	0.00025677	6.8098e-05	990.28	2.3293e-06	2.8386e-06	1220.9	350.92	2.3897e-06	2.8534e-06	514.78	212.37	133.13	60.199	2.5654e-06	101.52	258.219	122.823	122.830	26.632	103.939	136.646	25.882	32.140	263.152	144.447	30.981	35.811	38.007	42.158	180.378	39.724	-8191	255	
17029.436	1	1	0	0	0.17506	0.3188	0.11794	0.22813	0.04249	0.20639	0.25118	0.30756	0.15386	0.25223	0.13511	0.099927	0.16059	0.12769	0.17643	0.13679	-2.0187	-2.9708	-2.5479	-2.6729	-3.0062	-2.3958	-2.9188	-2.9521	-2.275	-2.8458	-2.8396	-2.6042	-3.2021	-2.4625	-2.8667	-3.0604	90.313	116.305	102.531	300.028	210.675	88.598	283.560	339.710	118.088	50.273	33.403	77.196	317.155	83.895	58.851	233.276	0.0011556	0.00019034	0.00014893	1111.2	8.2753e-06	3.9377e-06	1373.9	393.25	6.9547e-06	7.8605e-06	589.12	246.24	152.03	68.479	7.362e-06	118.6	0.00024524	0.00026233	6.4198e-05	991.6	2.506e-06	2.8522e-06	1224.6	351.15	2.5485e-06	2.8162e-06	517.7	214.93	134.08	60.496	2.4679e-06	102.64	257.595	364.732	45.861	26.733	123.596	134.310	25.884	32.421	272.156	159.394	31.139	36.087	37.985	42.405	139.562	39.832	-8191	255	
17029.557	1	1	0	0	0.095407	0.041554	0.080726	0.32087	0.05569	0.089287	0.44568	0.087306	0.080902	0.10172	0.24	0.30847	0.2746	0.22093	0.244	0.17699	-2.0354	-2.9604	-2.5917	-2.4896	-3.0854	-2.4958	-2.8292	-2.9771	-2.4417	-2.7875	-2.9562	-2.5229	-3.0542	-2.6521	-2.725	-3.1417	358.027	343.936	144.703	360.828	204.584	343.381	350.869	248.064	371.917	99.013	49.408	364.267	315.616	339.142	292.637	285.115	0.0011894	0.00041042	0.00015788	1110.1	9.5082e-06	6.4464e-06	1366.2	396.19	4.5553e-06	2.2143e-06	590.47	243.8	153.04	68.607	4.6667e-06	117.65	0.00025988	0.00025381	6.2879e-05	990.7	2.7702e-06	2.7658e-06	1218.7	352.19	2.8155e-06	2.676e-06	516.84	213.79	134.31	60.496	2.42e-06	102.26	262.608	132.626	67.467	26.634	162.032	97.813	25.872	32.586	266.511	167.304	31.149	35.946	37.719	42.628	163.629	39.816	-8191	255	
17029.652	1	1	0	0	0.048798	0.066075	0.076961	0.1095	0.26314	0.22551	0.092898	0.16535	0.063353	0.16437	0.29317	0.1455	0.37338	0.29972	0.15218	0.040215	-1.9979	-2.7042	-2.8083	-2.4521	-2.9562	-2.5708	-2.8063	-3.2875	-2.5083	-2.9542	-3.0062	-2.5687	-3.1417	-2.8292	-2.4896	-3.0417	107.615	216.088	26.690	282.750	81.142	119.029	365.005	356.660	334.692	290.617	27.995	214.302	18.923	36.326	312.080	295.334	0.0010699	0.00045245	0.00015794	1105.6	4.3294e-06	2.8378e-06	1368.8	394.2	8.4673e-06	2.7288e-06	587.64	242.92	152.24	67.989	6.8881e-06	117.46	0.00028227	0.00024241	5.9761e-05	989.45	2.9704e-06	2.6526e-06	1219.4	351.93	2.9526e-06	2.5589e-06	515.36	213.52	134.1	60.139	2.3666e-06	102.04	257.593	88.853	90.521	26.661	112.671	102.393	25.922	32.571	251.504	183.509	30.984	35.859	37.970	42.389	192.741	40.097	-8191	255	
17029.748	1	1	0	0	0.21092	0.12311	0.21881	0.078059	0.088625	0.17339	0.28249	0.42969	0.10385	0.12243	0.21065	0.097824	0.20371	0.20259	0.25537	0.27189	-1.8979	-2.7146	-2.8979	-2.5062	-3.0021	-2.7354	-2.5521	-3.1229	-2.4583	-2.675	-3.2021	-2.6542	-3.0062	-2.8667	-2.6354	-3.0354	283.730	335.705	233.695	24.021	304.739	149.553	357.260	314.765	348.148	284.741	334.213	65.859	195.447	340.778	221.214	50.846	0.00098364	0.00035282	0.00022741	1114.4	9.2066e-06	5.1876e-06	1386	398.82	5.0235e-06	8.3502e-06	594.06	245.26	154.26	69.07	8.6665e-06	119.05	0.00028517	0.00023141	6.0482e-05	996.01	2.9596e-06	2.6108e-06	1232.2	355.78	3.0377e-06	2.6132e-06	521	216.07	135.67	60.775	2.4822e-06	103.27	252.254	72.866	80.426	26.801	82.460	125.042	25.846	32.496	215.366	163.551	31.266	36.081	37.803	42.342	131.061	39.944	-8191	255	
17029.846	1	1	0	0	0.2441	0.16082	0.2042	0.12493	0.10268	0.18827	0.17326	0.21407	0.19695	0.15443	0.083059	0.28355	0.0086376	0.30668	0.05144	0.1451	-2.2521	-2.6083	-2.9313	-2.5292	-2.9729	-2.8396	-2.5958	-3.2062	-2.7958	-2.6417	-3.2604	-2.5292	-2.975	-2.8708	-2.5229	-3.0646	224.857	75.400	81.498	361.657	132.938	182.749	285.549	75.136	53.892	257.837	344.477	327.224	307.550	41.104	59.031	360.143	0.0009803	0.00062026	0.00012754	1124.6	3.5359e-06	9.5075e-06	1411.9	403.3	7.1753e-06	5.3562e-06	603.46	249.83	155.93	69.731	8.3127e-06	119.9	0.00029008	0.00024535	6.4697e-05	1013.8	2.9464e-06	2.6734e-06	1258.1	360.67	2.9524e-06	2.6416e-06	529.77	219.88	137.03	61.421	2.7064e-06	104.48	249.338	79.880	101.404	26.709	109.462	148.135	26.102	32.365	219.303	154.596	31.438	36.177	37.702	42.551	202.530	40.047	-8191	255	
17029.965	1	1	0	0	0.35298	0.077496	0.094951	0.18664	0.098342	0.15511	0.39734	0.18186	0.071742	0.27333	0.15317	0.38979	0.29942	0.12756	0.11954	0.3604	-2.1917	-2.4604	-2.9396	-2.3917	-2.8688	-2.8083	-2.5167	-3.0354	-2.7125	-2.4542	-3.0083	-2.625	-2.9437	-2.9437	-2.4562	-3.0729	90.274	14.705	166.276	156.763	39.192	373.840	286.995	362.484	301.714	42.355	310.480	338.665	352.087	42.145	121.893	330.391	0.0008737	8.466e-05	0.0002799	1128.1	5.1764e-06	5.2716e-06	1421.9	402.91	6.5745e-06	9.6145e-06	596.26	245.31	153.44	68.728	9.1854e-06	117.91	0.00027426	0.00023391	6.9113e-05	1018.3	2.7441e-06	2.4919e-06	1261.3	359.5	2.6719e-06	2.4867e-06	525.58	216.43	135.68	60.587	2.8809e-06	102.75	247.178	43.528	162.842	26.781	107.681	62.345	26.114	32.517	218.444	180.440	31.105	36.022	37.913	42.609	163.784	39.530	-8191	255	
17030.037	1	1	0	0	0.060427	0.11037	0.32864	0.23258	0.22951	0.24782	0.20019	0.16511	0.081747	0.14056	0.28523	0.009459	0.19577	0.11406	0.21313	0.18426	-2.4146	-2.5792	-3.0042	-2.5812	-2.675	-2.8979	-2.6813	-3.0854	-2.8083	-2.2687	-3.2729	-2.7396	-2.7917	-3.0625	-2.5625	-3.0875	254.795	91.063	118.584	373.523	187.206	236.884	346.182	293.823	86.399	298.904	340.225	232.810	18.907	172.676	181.523	316.985	0.00108	0.0002878	0.00016399	1123.2	4.0698e-06	6.0081e-06	1410.5	396.37	1.3826e-06	1.9422e-06	597.22	244.53	152.86	68.329	1.9089e-06	116.84	0.0002625	0.00022744	7.3918e-05	1013.1	2.6393e-06	2.4661e-06	1255.2	356.19	2.623e-06	2.4365e-06	523.95	215.11	134.53	60.247	2.9813e-06	101.67	264.864	71.296	141.846	27.027	100.526	111.785	25.787	32.176	241.762	138.141	31.065	35.863	37.419	42.436	126.876	39.562	-8191	255	
17030.133	1	1	0	0	0.24284	0.14485	0.20058	0.12312	0.15158	0.19916	0.15923	0.30562	0.16687	0.23435	0.054773	0.40421	0.23992	0.36581	0.03497	0.12438	-2.4979	-2.3292	-3.0938	-2.8375	-2.6063	-3.05	-2.4521	-3.0396	-2.7292	-2.4396	-3.1354	-2.775	-2.625	-3.0812	-2.3958	-2.9667	100.132	370.563	312.885	58.110	184.126	276.634	283.439	322.174	123.753	138.066	351.041	321.963	346.147	347.000	309.396	135.395	0.0010847	0.00052141	0.00021502	1128.7	6.1691e-06	5.5561e-06	1398.1	399.35	4.8077e-06	1.1189e-05	595.07	246.09	152.81	68.62	8.1756e-06	118.04	0.00024859	0.0002286	7.5825e-05	1009.5	2.511e-06	2.5075e-06	1252.1	355.79	2.4872e-06	2.5698e-06	524.04	215.66	134.48	60.42	3.0516e-06	102.54	265.461	130.945	107.340	26.579	65.227	128.635	25.934	32.262	234.639	148.253	31.020	36.236	37.615	42.183	190.798	39.677	-8191	255	
17030.254	1	1	0	0	0.097493	0.11429	0.18932	0.25699	0.37745	0.097348	0.13845	0.076601	0.31732	0.15231	0.26161	0.26336	0.15004	0.20899	0.22827	0.19736	-2.4896	-2.3375	-3.0062	-2.9188	-2.4167	-3.1479	-2.6854	-2.8333	-2.9896	-2.3042	-3.0438	-2.7208	-2.6021	-3.0438	-2.3583	-2.8104	54.022	137.747	184.953	304.788	316.074	324.579	226.031	278.235	348.617	339.919	299.563	345.789	292.270	56.656	207.626	369.678	0.0010042	0.00053168	0.00014661	1125	5.1581e-06	7.2358e-06	1395.4	398.48	7.5828e-06	6.8712e-06	592.81	245.65	152.97	68.375	2.6361e-06	117.23	0.00023899	0.00024459	7.5263e-05	1008.8	2.3804e-06	2.6859e-06	1246.5	354.57	2.3497e-06	2.739e-06	521.62	215.54	133.66	60.237	2.7801e-06	102.04	264.651	94.052	81.800	26.545	92.997	147.527	26.030	32.187	281.737	130.352	30.957	35.955	37.694	42.371	177.474	39.601	-8191	255	
17030.348	1	1	0	0	0.19375	0.089278	0.030674	0.13548	0.23093	0.1498	0.47574	0.21325	0.18609	0.1981	0.10273	0.23846	0.13047	0.17747	0.19093	0.19867	-2.5687	-2.2958	-3.0271	-2.9875	-2.4125	-3.0146	-2.6937	-2.5104	-2.8937	-2.3333	-3.0146	-2.975	-2.3937	-2.9604	-2.6083	-2.8042	179.167	40.674	102.837	321.621	158.863	105.103	290.888	282.810	215.726	264.636	25.144	365.124	312.225	214.429	125.406	136.863	0.001001	0.00059493	3.5664e-05	1117.8	7.7451e-06	4.2411e-06	1381.5	394.49	6.2545e-06	4.5367e-06	586.85	240.37	149.58	67.256	3.227e-06	115.18	0.00023532	0.00025474	7.017e-05	1000.4	2.393e-06	2.8331e-06	1233.3	350.75	2.4267e-06	2.8893e-06	515.78	211.06	131.66	59.515	2.6158e-06	99.888	261.638	136.447	366.774	26.869	76.848	130.200	25.838	32.149	306.242	171.016	30.837	35.822	37.815	42.425	100.128	39.521	-8191	255	
17030.443	1	1	0	0	0.17468	0.32755	0.39855	0.13824	0.060888	0.08801	0.049379	0.35316	0.12598	0.10058	0.20773	0.29288	0.24492	0.078217	0.16748	0.15601	-2.6021	-2.4396	-2.7021	-2.9917	-2.3958	-3.0104	-2.7625	-2.3771	-3.0042	-2.3521	-2.7354	-3.1271	-2.3063	-3.0146	-2.7	-2.7	47.406	111.754	356.085	18.997	136.387	42.378	318.227	314.154	293.509	296.605	319.751	333.646	33.539	35.893	159.558	345.991	0.00092675	0.0004754	8.0478e-05	1115.3	8.1792e-06	5.9005e-06	1391	392.89	7.2421e-06	3.4724e-06	588.84	241.22	151.55	67.586	5.7012e-06	115.92	0.00024666	0.00027161	6.7866e-05	998.94	2.5356e-06	3.0045e-06	1236.6	350.6	2.636e-06	2.9758e-06	516.85	211.96	133.26	59.65	2.5963e-06	100.49	260.649	127.110	160.566	26.867	123.053	173.761	26.126	32.008	275.736	180.358	30.761	36.093	37.404	42.574	159.093	39.640	-8191	255	
17030.539	1	1	0	0	0.042883	0.13126	0.13291	0.26404	0.19341	0.31997	0.21069	0.1131	0.17825	0.33138	0.1445	0.18581	0.15495	0.33434	0.19128	0.31513	-2.7333	-2.3917	-2.7687	-3.2687	-2.2375	-2.9979	-2.8417	-2.4792	-2.9583	-2.6	-2.7792	-3.1	-2.4729	-2.9667	-2.9562	-2.5812	122.400	248.436	254.147	354.399	331.907	151.985	346.860	306.848	55.852	120.701	286.174	316.299	349.546	23.101	28.357	322.927	0.0011347	0.00045639	0.00015376	1116.7	1.0822e-05	3.3834e-06	1394	394.95	1.8309e-06	5.6736e-06	588.32	245.6	152.26	67.619	5.4519e-06	117.31	0.00027459	0.00026956	6.6314e-05	1001.5	2.8572e-06	2.91e-06	1236.6	352.55	2.9114e-06	2.8486e-06	516.39	214.17	134.13	59.759	2.5281e-06	101.62	265.798	66.717	78.157	26.802	100.407	132.335	25.946	32.139	276.988	183.061	30.911	36.294	37.491	42.304	171.720	39.563	-8191	255	
17030.637	1	1	0	0	0.078076	0.36844	0.1855	0.14308	0.26932	0.26855	0.41234	0.071601	0.069816	0.4151	0.099911	0.31076	0.11458	0.22581	0.18481	0.085341	-2.5812	-2.5187	-2.6312	-3.1292	-2.3812	-2.8854	-2.9292	-2.6479	-3.0042	-2.5563	-2.8146	-3.2812	-2.7667	-2.85	-3.0604	-2.475	361.490	298.701	70.266	326.972	358.774	255.973	280.330	186.461	338.717	64.105	310.757	327.088	162.805	327.592	288.756	294.867	0.0010719	0.00019358	9.2019e-05	1118.7	1.1037e-05	2.6982e-06	1388.2	394.77	5.7028e-06	3.7713e-06	585.49	243.6	150.51	67.498	7.1597e-06	115.95	0.0002822	0.00024766	6.2166e-05	1000.4	2.9428e-06	2.6047e-06	1236.6	351.54	2.9043e-06	2.5229e-06	514.66	213.23	133.07	59.602	2.296e-06	101.02	263.017	114.656	103.267	26.858	82.021	174.128	26.043	32.139	241.076	149.740	31.073	36.134	37.797	42.279	223.434	39.685	-8191	255	
17030.732	1	1	0	0	0.2679	0.27106	0.26136	0.12678	0.1226	0.077461	0.088723	0.25527	0.083521	0.067021	0.22219	0.30002	0.2415	0.083314	0.23128	0.15035	-2.6917	-2.6125	-2.4188	-3.3354	-2.5104	-2.7625	-2.9958	-2.5229	-2.9896	-2.8688	-2.7479	-3.1917	-2.6771	-2.9021	-2.8312	-2.5104	110.455	277.559	114.043	323.023	148.662	137.591	74.918	262.261	109.176	214.699	349.953	25.637	321.981	57.646	298.114	354.248	0.00089152	0.000613	0.00016703	1113	3.2808e-06	4.0043e-06	1381.1	393.25	6.3531e-06	3.1164e-06	583.83	241.27	149.59	67.005	6.9794e-06	115.59	0.00027695	0.00022339	5.7845e-05	998.62	2.8559e-06	2.4275e-06	1229.7	349.47	2.7792e-06	2.3954e-06	511.29	211.52	132.03	58.998	2.2156e-06	100.43	259.292	75.501	125.216	26.796	46.378	180.629	25.956	32.045	231.552	121.727	30.543	35.902	37.858	42.182	162.149	39.390	-8191	255	
17030.854	1	1	0	0	0.30214	0.13161	0.17221	0.29803	0.25738	0.26756	0.2967	0.44476	0.057862	0.23575	0.086646	0.26336	0.099455	0.24197	0.10348	0.22926	-2.4333	-2.5979	-2.3688	-3.2042	-2.6104	-2.6625	-3.3458	-2.4208	-3.1375	-2.9875	-2.525	-3.2729	-2.6208	-2.7417	-3.0167	-2.6688	115.705	114.180	161.838	23.329	101.525	48.365	366.552	303.987	15.945	333.006	138.005	363.785	308.946	313.478	244.967	257.754	0.001037	0.00022168	0.00017188	1124.4	4.9192e-06	4.8951e-06	1397.2	394.14	7.9994e-06	7.0438e-06	591.76	245.61	152	67.83	1.2289e-05	117.07	0.00026318	0.00021581	5.7529e-05	1006.4	2.7173e-06	2.3896e-06	1241.7	352.62	2.68e-06	2.3677e-06	517.86	215.05	133.64	59.803	2.4521e-06	101.99	266.241	123.946	105.548	26.774	109.028	143.020	26.035	32.207	220.879	143.286	31.083	36.013	37.422	42.268	204.761	39.351	-8191	255	
17030.949	1	1	0	0	0.27005	0.075043	0.075179	0.1923	0.20709	0.13795	0.30012	0.30995	0.066157	0.17944	0.020918	0.070717	0.1092	0.26837	0.17957	0.09432	-2.6021	-2.7542	-2.4104	-3.2458	-2.5875	-2.6271	-3.2792	-2.6083	-2.8833	-3.0646	-2.4875	-3.1333	-2.6979	-2.8208	-3.0146	-2.6708	31.855	280.200	135.417	362.678	248.818	346.661	297.333	328.617	211.194	153.627	299.730	368.428	330.188	309.795	192.292	224.683	0.0010469	0.00049184	0.00023497	1136.1	6.9152e-06	6.7429e-06	1408.5	399.24	6.2766e-06	4.9956e-06	592.66	246.98	152.33	68.457	6.6339e-06	119.05	0.00025612	0.00021725	6.459e-05	1018	2.67e-06	2.428e-06	1251.7	356.13	2.6658e-06	2.438e-06	521.61	217.33	134.85	60.527	2.7723e-06	103.5	263.073	102.138	155.498	26.717	75.409	186.871	25.875	32.250	250.834	218.240	31.033	36.271	37.857	42.177	186.982	39.784	-8191	255	
17031.047	1	1	0	0	0.022806	0.14371	0.3106	0.13845	0.20577	0.073646	0.1339	0.33929	0.14204	0.13116	0.19938	0.24674	0.096226	0.026482	0.092794	0.17093	-2.3688	-2.8979	-2.4854	-3.075	-2.6188	-2.475	-3.1625	-2.5896	-2.775	-3.0396	-2.6646	-3.1958	-2.8229	-2.5667	-2.9458	-2.6896	365.700	75.749	247.969	352.961	14.463	247.289	271.983	309.654	85.939	48.676	44.141	226.666	369.274	217.053	260.174	276.142	0.001147	0.00053633	0.00023321	1129.9	1.1355e-05	4.4431e-06	1393.8	394.77	7.605e-06	6.2982e-06	587.92	243.69	152.99	67.879	1.2586e-05	116.7	0.00026252	0.00022549	7.1892e-05	1012.4	2.6191e-06	2.4256e-06	1243	354.59	2.5871e-06	2.4159e-06	518.78	214.32	134.01	59.85	2.9911e-06	101.67	264.448	171.321	105.338	26.569	110.970	128.728	26.238	32.129	262.167	160.687	30.830	35.934	37.745	42.128	156.193	39.804	-8191	255	
17031.141	1	1	0	0	0.12549	0.1329	0.27664	0.1486	0.23934	0.11233	0.05738	0.034889	0.21469	0.11518	0.029586	0.24816	0.26933	0.21613	0.12316	0.29702	-2.1813	-3.0521	-2.4083	-3.0667	-2.6667	-2.3958	-3.3542	-2.6146	-2.725	-3.2208	-2.6271	-3.0563	-2.9708	-2.625	-3.2646	-2.7438	55.322	105.325	210.827	29.936	38.323	136.295	330.320	267.339	250.847	72.239	105.237	299.243	233.343	298.038	173.370	294.891	0.0010537	0.00086737	0.00017332	1116.9	4.2517e-06	6.1232e-06	1378.1	392.87	6.3463e-06	6.1608e-06	579.93	239.92	150.55	66.547	2.0651e-06	115.76	0.00025131	0.00022302	7.6137e-05	1000.4	2.4786e-06	2.4227e-06	1230.2	350.27	2.4392e-06	2.4566e-06	512.85	211.17	131.91	58.937	2.9521e-06	100.47	259.289	112.555	64.734	26.608	134.243	164.708	25.819	32.101	217.203	192.705	30.935	35.723	37.952	42.446	104.215	39.653	-8191	255	
17031.262	1	1	0	0	0.033853	0.21606	0.081208	0.13791	0.050333	0.25497	0.069369	0.039891	0.22273	0.19373	0.18819	0.51335	0.21049	0.16163	0.31106	0.2507	-2.3083	-3.0229	-2.5375	-2.9167	-3.0583	-2.3187	-3.2104	-2.7292	-2.3708	-2.9646	-2.55	-2.9146	-3.1521	-2.525	-2.8729	-2.9229	178.057	58.534	151.261	326.885	301.310	29.639	266.270	304.480	107.097	272.456	21.788	299.844	18.612	79.555	291.217	289.829	0.0011014	0.00039926	0.00019053	1118.6	8.0412e-06	6.335e-06	1376.6	391.07	5.6802e-06	8.3281e-06	583.63	240.69	150.2	67.314	5.3851e-06	116.62	0.00023656	0.00023637	7.404e-05	1000.3	2.3569e-06	2.5907e-06	1230.7	349.1	2.3965e-06	2.7381e-06	514.96	211.48	131.88	59.388	2.9348e-06	101.31	267.317	129.008	71.911	26.442	137.493	169.472	26.148	32.227	273.079	114.867	31.014	35.396	37.529	42.206	171.591	39.696	-8191	255	
17031.332	1	1	0	0	0.20386	0.25308	0.3372	0.12749	0.22437	0.1408	0.18006	0.14882	0.18231	0.016827	0.20256	0.25579	0.055374	0.16634	0.11214	0.13598	-2.2104	-3.0167	-2.5292	-2.8271	-2.9333	-2.4417	-3.1312	-2.9646	-2.5375	-3.0125	-2.8812	-2.8146	-3.0687	-2.5479	-2.8563	-2.9667	348.868	26.303	302.196	292.758	72.387	57.969	312.973	118.034	308.338	198.559	290.069	362.441	243.085	346.668	352.759	330.450	0.00099966	0.00047578	0.00031192	1110.6	8.3511e-06	5.507e-06	1375.5	393.83	2.9968e-06	8.9905e-06	584.94	243.11	151.38	68.015	8.8127e-06	116.82	0.00024177	0.00026442	7.4961e-05	997.64	2.4934e-06	2.9867e-06	1230.6	351.68	2.5223e-06	3.0475e-06	516.84	213.49	133.14	60.068	2.8538e-06	101.89	258.488	110.117	125.126	26.852	121.297	151.149	25.898	32.219	209.091	196.168	30.991	35.698	37.843	42.244	176.042	39.731	-8191	255	
17031.428	1	1	0	0	0.24235	0.20577	0.14579	0.22549	0.23562	0.3286	0.35498	0.082256	0.14549	0.18532	0.13111	0.2259	0.21883	0.24303	0.17677	0.22962	-2.0146	-3.1312	-2.4271	-2.7229	-3.1646	-2.3896	-2.9708	-3.0708	-2.5042	-2.9938	-2.8104	-2.7458	-3.1063	-2.5042	-2.8604	-3.1188	276.089	98.344	314.821	329.104	101.952	311.893	343.235	14.340	227.310	308.359	32.761	271.916	49.309	306.189	285.249	369.198	0.00094392	0.00076735	4.1346e-05	1111.5	1.9053e-06	6.0932e-06	1378.4	394.63	1.7519e-06	8.1708e-06	583.12	240.61	150.73	67.342	6.4395e-06	115.78	0.00025535	0.00028964	7.2341e-05	996.59	2.7193e-06	3.2598e-06	1229.1	351.1	2.8105e-06	3.2309e-06	513.38	211.25	132.87	59.735	2.8345e-06	100.65	269.838	101.942	95.697	26.584	80.587	161.621	26.315	32.153	316.348	131.682	30.888	35.796	37.970	42.521	208.967	39.747	-8191	255	
17031.525	1	1	0	0	0.085711	0.089741	0.2349	0.20606	0.11477	0.17356	0.34032	0.2191	0.050784	0.10443	0.18281	0.25043	0.36237	0.11065	0.17925	0.27012	-1.9937	-2.8812	-2.5208	-2.7062	-3.0167	-2.5687	-2.7958	-3.1875	-2.3479	-2.9938	-2.8854	-2.4458	-3.3063	-2.8271	-2.6104	-3.2146	107.099	42.031	88.061	305.615	227.400	88.968	282.774	350.286	225.202	175.338	355.394	364.621	334.326	335.774	77.769	305.301	0.001254	0.00054033	4.5736e-05	1109.3	6.849e-06	1.002e-05	1374.2	393.48	8.2895e-06	7.378e-06	579.63	241.17	149.56	67.374	1.0866e-05	115.56	0.00028825	0.00029197	7.0143e-05	993.15	3.0257e-06	3.1362e-06	1222.6	349.48	3.0836e-06	3.1298e-06	511.63	211.82	132.87	59.586	2.8241e-06	100.74	264.316	60.557	212.695	26.747	115.810	155.606	25.605	32.106	253.699	135.146	30.707	36.033	37.687	42.342	171.860	39.587	-8191	255	
17031.621	1	1	0	0	0.12851	0.23359	0.037681	0.22708	0.16105	0.22527	0.37009	0.39115	0.051382	0.056008	0.10829	0.14505	0.15312	0.12775	0.17121	0.19487	-2.0042	-2.7646	-2.7583	-2.5687	-2.9917	-2.5125	-2.8167	-3.1896	-2.6208	-2.9792	-3.0938	-2.5771	-3.1208	-2.8	-2.5333	-3.2958	312.647	310.171	22.196	28.678	86.868	169.181	359.122	325.722	178.760	336.166	46.580	332.422	61.493	262.899	268.255	270.261	0.001042	0.00086321	7.9799e-05	1112.1	1.1552e-05	9.1447e-06	1378.4	391.62	8.5449e-06	3.7933e-06	587.42	243.02	151.91	67.782	6.6917e-06	117.78	0.0003107	0.00028226	7.0766e-05	996.06	3.2514e-06	3.0426e-06	1231.2	350.21	3.2631e-06	2.9417e-06	515.82	213.52	134.3	59.983	2.7451e-06	102.19	253.413	57.708	32.884	26.819	100.078	101.665	26.063	32.389	306.502	299.364	31.055	36.071	37.832	42.391	159.735	39.789	-8191	255	
17031.740	1	1	0	0	0.27819	0.12271	0.14707	0.22811	0.20519	0.27013	0.31683	0.090413	0.14717	0.2186	0.31836	0.081412	0.10882	0.1528	0.12832	0.16086	-2.0354	-2.5896	-2.7521	-2.5521	-3.0771	-2.6979	-2.7479	-3.1417	-2.3208	-2.7042	-3.1542	-2.5542	-3.1083	-2.8917	-2.5146	-3.1333	54.578	354.523	197.322	312.156	215.643	329.134	256.411	281.383	86.058	172.870	295.556	363.890	52.127	37.086	91.465	319.731	0.00095871	0.0002579	0.00020735	1115.5	5.385e-06	2.7379e-06	1396.8	397.07	5.2934e-06	4.6527e-06	590.45	245.21	153.65	67.899	8.7066e-06	117.63	0.00032201	0.00027331	7.168e-05	1004.8	3.4245e-06	3.0246e-06	1245.4	355.38	3.4334e-06	3.0005e-06	520.51	216.19	135.92	60.367	2.8714e-06	102.93	258.185	52.880	105.109	26.656	111.998	303.028	26.049	32.360	193.389	142.368	31.023	36.230	37.652	42.333	174.169	40.081	-8191	255	
17031.838	1	1	0	0	0.095865	0.23935	0.068971	0.15484	0.069961	0.18619	0.4425	0.35091	0.019108	0.028892	0.24916	0.21168	0.13118	0.24105	0.37271	0.34072	-1.9688	-2.6792	-2.9521	-2.5917	-2.9104	-2.8292	-2.6375	-3.2146	-2.6375	-2.6146	-3.0542	-2.7125	-2.9938	-2.8521	-2.4375	-3.1083	183.220	312.778	324.012	323.639	308.113	118.387	294.079	336.926	228.640	326.637	360.425	332.366	323.950	21.302	224.112	243.130	0.0011493	9.9352e-05	0.00021615	1116.6	1.0841e-05	6.7095e-06	1387.8	396.14	5.0928e-06	6.7666e-06	584.5	241.27	152.04	67.265	1.1996e-05	115.89	0.00033157	0.00027824	7.2925e-05	1007.4	3.4116e-06	2.9813e-06	1237.9	354.66	3.4187e-06	3.0039e-06	516.1	213.24	134.33	59.749	3.1076e-06	101.51	260.219	92.300	110.073	26.514	101.852	106.201	26.008	32.067	239.395	102.303	30.991	35.784	37.640	42.360	187.266	39.642	-8191	255	
17031.934	1	1	0	0	0.053038	0.088892	0.24372	0.27846	0.30447	0.13573	0.15134	0.26769	0.10101	0.088083	0.14949	0.2316	0.078267	0.064029	0.22604	0.29577	-2.2729	-2.6896	-2.9437	-2.4604	-2.8042	-2.8146	-2.4813	-3.0958	-2.5854	-2.4917	-3.3021	-2.425	-2.6604	-3.0417	-2.3917	-2.9813	339.750	166.035	155.086	362.726	270.401	283.068	365.899	285.120	221.874	95.735	291.899	353.188	87.902	100.065	341.781	340.395	0.00095924	0.00086754	3.2429e-05	1110.7	4.5925e-06	3.8144e-06	1377	394.85	2.8384e-06	9.8012e-07	588.18	240.38	151.43	67.161	7.5807e-06	115.68	0.00032637	0.00028484	8.1337e-05	1005.2	3.4265e-06	3.1318e-06	1230.4	354.1	3.3665e-06	3.1063e-06	517.52	213.17	133.94	59.673	3.4029e-06	101.4	257.484	68.399	102.944	26.693	103.858	163.470	25.976	32.177	279.113	19.937	30.984	35.952	37.785	42.311	131.676	39.941	-8191	255	
17032.029	1	1	0	0	0.26608	0.20208	0.13577	0.3129	0.17691	0.044077	0.10117	0.086388	0.21272	0.14219	0.17694	0.17988	0.18688	0.078922	0.096343	0.32122	-2.3542	-2.5333	-3.0354	-2.5	-2.6146	-3.075	-2.4521	-3.0312	-2.8146	-2.5438	-3.1146	-2.5563	-2.7812	-3.1021	-2.4958	-3.15	118.404	261.437	254.747	260.602	106.487	58.368	212.350	234.773	233.221	79.154	332.595	349.520	47.755	329.913	238.237	29.292	0.0010034	0.00038756	0.00030467	1111.4	1.5931e-06	7.7807e-06	1373.6	392.95	4.0364e-06	5.8169e-06	581.91	243.19	151.62	67.694	8.1556e-06	117.69	0.00031301	0.00028033	8.9093e-05	1003.1	3.3285e-06	3.0357e-06	1230.3	353.37	3.2746e-06	3.0412e-06	516.59	214.22	133.76	59.976	3.6249e-06	102.36	254.069	90.801	154.734	26.578	370.479	166.809	25.870	32.296	254.509	171.009	31.098	35.929	37.877	42.540	177.092	39.614	-8191	255	
17032.127	1	1	0	0	0.17045	0.094478	0.13151	0.20858	0.39915	0.2715	0.12751	0.25199	0.36688	0.13648	0.17903	0.13723	0.11277	0.2115	0.25695	0.41245	-2.4542	-2.4313	-2.9521	-2.7104	-2.6979	-2.975	-2.6396	-3.1063	-2.9375	-2.5333	-3.2562	-2.7896	-2.7229	-3.1083	-2.5167	-3.1188	147.399	303.532	289.495	297.012	220.033	370.263	271.016	305.244	222.103	303.845	357.304	73.681	20.400	32.221	222.555	294.907	0.0010384	0.00053006	0.00020017	1109	3.5535e-06	8.7608e-06	1378.1	395.37	4.6805e-06	4.4944e-06	586.55	242.08	151.12	67.831	3.2336e-06	116.14	0.0003053	0.00027631	9.3269e-05	1001.5	3.1075e-06	3.0333e-06	1237.7	354.21	3.0709e-06	3.1453e-06	518.8	213.37	133.48	59.798	3.7792e-06	101.39	257.629	104.092	94.924	26.773	54.508	175.521	25.890	32.743	250.578	185.722	31.183	36.066	37.651	42.306	228.738	39.727	-8191	255	
17032.223	1	1	0	0	0.24242	0.088192	0.17431	0.23984	0.15645	0.10891	0.10365	0.1071	0.28768	0.10491	0.38759	0.10459	0.092879	0.08372	0.16129	0.27542	-2.6771	-2.35	-2.975	-2.8063	-2.5458	-3.0521	-2.5167	-2.8229	-2.9	-2.3125	-3.2708	-2.9375	-2.6021	-3.2708	-2.4875	-2.8667	107.278	36.687	67.083	49.392	30.524	180.946	352.984	314.137	40.815	343.194	326.585	325.836	327.383	21.216	57.581	336.261	0.00094926	0.00064536	0.00012428	1098.4	2.3441e-06	1.0285e-05	1364.5	391.03	1.1302e-05	1.0512e-05	577.26	237.5	149.96	66.73	1.4485e-06	113.95	0.00029754	0.00030278	9.796e-05	993.65	3.1029e-06	3.4329e-06	1221.8	350.36	3.1858e-06	3.5393e-06	513.81	210.63	132.15	59.559	3.9026e-06	99.783	266.759	85.722	65.511	26.757	297.105	166.214	26.054	32.237	267.978	162.007	31.174	36.042	37.804	42.360	351.048	39.683	-8191	255	
17032.342	1	1	0	0	0.22779	0.20542	0.20693	0.18146	0.21829	0.085218	0.28127	0.16827	0.28925	0.097352	0.25987	0.11511	0.13498	0.22161	0.058609	0.27177	-2.6708	-2.4021	-2.8854	-2.7875	-2.5083	-3.0833	-2.7354	-2.8417	-3.0854	-2.4625	-3.0438	-3.0312	-2.4313	-3.1458	-2.7	-2.7667	181.670	210.582	21.003	45.010	311.136	49.622	352.201	235.933	105.563	30.853	367.351	331.983	321.386	305.845	224.277	283.143	0.0010121	0.00096644	0.00018473	1106.1	8.0075e-06	2.3522e-06	1358.7	393.48	8.2907e-06	1.0135e-05	582.49	239.52	150.16	67.167	6.0812e-06	114.96	0.00031508	0.00035477	0.00010136	996.64	3.3233e-06	3.9532e-06	1223.4	352.82	3.4645e-06	4.2019e-06	515.72	211.09	133.48	60.102	4.1819e-06	100.67	266.486	132.436	45.078	26.839	90.253	161.063	25.883	32.433	203.485	143.160	31.030	36.110	37.689	42.338	271.569	39.640	-8191	255	
17032.438	1	1	0	0	0.35787	0.22616	0.1588	0.38013	0.051362	0.14758	0.18384	0.19017	0.11779	0.22131	0.24015	0.50479	0.27775	0.21787	0.1783	0.17479	-2.7292	-2.2729	-2.9271	-3.1104	-2.5333	-3.1458	-2.8104	-2.7271	-3.1021	-2.4437	-2.8875	-3.1521	-2.5354	-3.2521	-2.4562	-2.6542	140.054	69.589	110.024	330.675	198.928	358.045	201.076	359.388	23.273	324.186	59.367	315.301	28.921	297.144	55.379	328.928	0.0010975	0.00079672	0.00010079	1105.4	8.8039e-06	6.3976e-06	1348.2	392.41	1.3755e-05	8.0749e-06	578.85	239.3	150.78	67.706	1.5311e-06	116.61	0.00036497	0.00042924	0.0001114	996.8	4.1424e-06	5.0505e-06	1218.2	354.26	4.4942e-06	5.3012e-06	517.58	212.88	135.82	61.224	4.9e-06	102.47	259.975	112.243	33.857	26.648	174.833	128.751	26.119	32.539	225.236	151.855	30.714	36.185	37.923	42.424	344.841	39.626	-8191	255	
17032.533	1	1	0	0	0.086447	0.033899	0.25927	0.25631	0.18967	0.20228	0.16069	0.28824	0.26418	0.094397	0.2125	0.3499	0.1586	0.21582	0.10914	0.11601	-2.6021	-2.5896	-2.7667	-3.1229	-2.2771	-3.2625	-2.9375	-2.8167	-3.2333	-2.5812	-2.7896	-3.1271	-2.5083	-3.1521	-2.8896	-2.6729	232.630	158.044	27.940	373.522	349.510	257.681	359.700	274.100	250.432	360.099	98.059	370.767	82.759	353.861	86.282	123.546	0.0011741	0.00028024	0.00034312	1105.6	8.1532e-06	5.274e-06	1351.2	394.36	6.9777e-06	7.0081e-06	579.34	239.66	151.87	68.06	1.2787e-05	115.43	0.00048453	0.00052922	0.00013005	1007.2	5.4492e-06	5.982e-06	1224.7	358.14	5.6904e-06	5.9764e-06	521.43	213.79	137.75	61.478	5.4162e-06	102.16	258.144	51.441	46.271	26.878	100.208	126.758	26.098	32.547	320.198	185.360	31.054	35.811	38.053	42.273	196.067	39.777	-8191	255	
17032.629	1	1	0	0	0.10474	0.18954	0.1078	0.097902	0.17539	0.17626	0.084822	0.16372	0.15589	0.24738	0.11713	0.10145	0.24803	0.28001	0.20399	0.11524	-2.875	-2.5438	-2.6042	-3.1479	-2.4437	-2.8958	-3.0354	-2.5354	-3.1125	-2.6312	-2.6854	-3.1229	-2.5292	-2.9062	-2.8771	-2.7562	41.856	212.948	166.257	306.416	195.894	198.243	372.035	304.713	270.457	289.483	304.019	343.391	57.578	347.908	155.539	27.499	0.0011865	0.00030915	8.8547e-05	1098.3	9.1873e-06	1.0706e-05	1343.6	394.78	5.7326e-06	1.2304e-05	575.7	239.63	151.04	68.104	2.6469e-06	115.08	0.00058395	0.00056143	0.00014143	1005.3	6.6344e-06	6.3151e-06	1226	359.81	6.8819e-06	6.3833e-06	521.44	214.34	138.9	61.425	5.57e-06	102.03	251.059	199.733	36.771	26.838	80.057	64.915	26.288	32.709	348.580	52.772	30.795	36.246	37.774	42.488	119.732	39.599	-8191	255	
17032.727	1	1	0	0	0.16563	0.081305	0.23817	0.35915	0.028827	0.13331	0.2608	0.12322	0.060054	0.13019	0.13994	0.19102	0.2158	0.24125	0.23495	0.30539	-2.7229	-2.4958	-2.5938	-3.1896	-2.6354	-2.8271	-2.9042	-2.6437	-2.9938	-2.6146	-2.5625	-3.15	-2.5729	-2.8458	-2.9708	-2.5417	174.534	100.545	113.741	252.569	204.441	224.326	307.742	318.602	39.837	162.033	23.688	50.087	31.398	363.785	86.928	322.062	0.00093315	0.00069713	0.00014245	1107.4	3.6844e-06	7.0119e-06	1360.6	397.21	5.3322e-06	9.2662e-06	578.45	240.74	152.05	68.013	1.3756e-06	116.04	0.00060905	0.00053124	0.00013471	1013.2	6.2855e-06	5.5924e-06	1230.1	361.28	6.1724e-06	5.3468e-06	520.69	215.54	137.91	61.198	4.7192e-06	102.86	260.103	103.747	27.581	26.596	181.501	120.757	26.351	32.329	213.920	152.700	31.079	36.041	37.825	42.235	367.352	39.549	-8191	255	
17032.822	1	1	0	0	0.26264	0.092409	0.16049	0.25131	0.12771	0.16568	0.35794	0.16788	0.2215	0.070561	0.10746	0.19741	0.070498	0.12658	0.10649	0.17509	-2.6833	-2.8146	-2.5104	-3.15	-2.5167	-2.5312	-3.2021	-2.5563	-2.9938	-2.6604	-2.6125	-3.1854	-2.5563	-2.6937	-2.9354	-2.5187	168.604	14.752	162.234	309.988	129.927	350.869	303.766	369.726	51.524	97.160	121.731	274.193	245.839	291.581	152.716	359.908	0.0010385	0.00033008	6.0183e-05	1107	9.4956e-06	7.302e-06	1358.5	396.63	4.7263e-06	8.7956e-06	583.71	242.68	152.15	68.632	1.38e-05	117.58	0.00053395	0.00045841	0.00012008	1013.9	5.7406e-06	5.0575e-06	1229.3	361.92	5.7048e-06	5.0809e-06	522.46	217.38	137.88	61.53	4.773e-06	104.48	254.208	107.267	15.990	27.270	360.472	63.197	26.162	32.339	252.692	172.932	30.956	36.078	37.650	42.334	136.321	39.647	-8191	255	
17032.941	1	1	0	0	0.049724	0.1012	0.19925	0.11057	0.3188	0.039324	0.17566	0.20665	0.13184	0.086043	0.15016	0.15195	0.20708	0.1202	0.27363	0.32615	-2.3875	-2.7792	-2.4792	-3.0604	-2.6625	-2.6708	-3.2188	-2.5563	-2.7562	-2.8937	-2.6104	-3.0042	-2.6229	-2.6229	-2.9417	-2.3833	171.384	356.900	43.211	217.124	186.455	158.506	303.836	272.248	44.112	153.829	260.260	16.343	293.696	94.408	74.880	306.032	0.00097166	0.00056338	0.00015905	1105.1	1.3998e-05	7.3045e-06	1345.2	393.34	9.5272e-06	6.8054e-06	574.75	239.01	151.06	67.68	6.8017e-06	115.69	0.00050648	0.00045159	0.00012727	1014.5	5.4391e-06	5.0436e-06	1223.2	360.58	5.6057e-06	5.1874e-06	519.05	215.43	136.79	60.882	5.728e-06	103.15	260.512	154.243	89.443	26.702	135.612	125.896	26.283	32.565	160.648	118.653	30.866	35.999	37.769	42.359	154.093	39.970	-8191	255	
17033.039	1	1	0	0	0.077905	0.16444	0.12033	0.27048	0.079022	0.20793	0.31561	0.40597	0.19168	0.13483	0.055953	0.48811	0.28083	0.35439	0.19545	0.056921	-2.4021	-2.8937	-2.4375	-3.1	-2.7521	-2.5625	-3.3771	-2.7396	-2.6	-2.9938	-2.35	-3.1125	-2.9313	-2.3708	-3.0896	-2.4854	273.068	197.032	68.727	366.817	345.913	303.084	334.658	337.845	18.187	362.124	64.780	344.903	110.453	346.188	322.256	69.249	0.0009183	0.00042947	4.3529e-05	1096.6	2.1895e-06	7.6419e-06	1343.8	389.92	9.957e-06	9.2216e-06	576.61	237.39	150.65	67.693	5.6167e-06	115.4	0.00053056	0.00048148	0.0001495	1012.2	5.6755e-06	5.3934e-06	1224	359.72	5.8809e-06	5.4661e-06	522.53	214.56	137.16	60.989	6.7382e-06	102.86	256.957	97.430	318.811	26.778	64.311	237.522	26.234	32.304	170.746	118.129	31.002	36.253	38.004	42.382	161.324	39.830	-8191	255	
17033.135	1	1	0	0	0.094949	0.049454	0.31289	0.19197	0.11459	0.25634	0.36432	0.34814	0.37792	0.42072	0.53232	0.14474	0.23313	0.33092	0.035751	0.096398	-2.3583	-3.0438	-2.2979	-3.0125	-2.8146	-2.3458	-3.1917	-2.675	-2.4979	-2.9333	-2.4229	-3.075	-2.9271	-2.6188	-3.1958	-2.8208	153.592	301.534	62.987	76.560	143.678	268.918	328.524	283.343	282.038	98.988	333.135	250.892	324.889	35.412	138.633	107.987	0.00081502	0.0011897	0.00023347	1097	7.9287e-06	5.2621e-06	1334.7	393.1	1.4886e-05	1.1848e-05	572.76	238.14	149.81	67.157	4.7691e-06	114.99	0.00057739	0.00054295	0.00018404	1014.8	6.3126e-06	6.0866e-06	1225.9	359.93	6.1409e-06	6.1554e-06	522.5	214.26	136.64	61.18	7.236e-06	102.68	264.943	69.141	98.191	26.827	83.585	128.044	26.196	32.114	287.578	187.376	31.135	36.065	37.841	42.239	182.378	39.746	-8191	255	
17033.205	1	1	0	0	0.07539	0.28411	0.17762	0.35385	0.30506	0.26781	0.25031	0.025789	0.049119	0.23673	0.10203	0.16511	0.14055	0.36975	0.15522	0.080563	-2.4104	-2.9958	-2.4458	-2.8021	-2.9875	-2.3229	-3.1375	-2.5583	-2.4938	-3.2125	-2.6229	-2.8604	-3.1167	-2.5667	-2.8479	-2.8792	367.676	157.283	209.432	283.873	124.243	374.406	19.261	164.160	288.174	254.614	199.926	330.040	21.874	32.145	338.259	358.973	0.0010744	0.00087368	0.00016669	1089.9	1.0805e-05	7.6265e-06	1331.5	391.78	3.3297e-06	1.2955e-05	577.46	237.04	150.16	67.45	1.4309e-05	114.7	0.00055288	0.00056467	0.00018589	1007.8	5.896e-06	6.3257e-06	1222.8	359.07	5.9038e-06	6.6045e-06	526.57	214.13	137.11	61.66	7.9072e-06	102.8	269.431	142.373	150.279	26.662	57.689	149.292	25.963	32.530	112.827	228.735	30.970	36.010	38.105	42.632	100.161	39.546	-8191	255	
17033.303	1	1	0	0	0.10609	0.20721	0.080485	0.30754	0.088897	0.25329	0.14294	0.20055	0.089956	0.12655	0.084601	0.078043	0.16707	0.050296	0.049317	0.23273	-2.1146	-3.0938	-2.4396	-2.8375	-3.0604	-2.4333	-3.1063	-2.9708	-2.2792	-3.1937	-2.6417	-2.7	-3.1	-2.3896	-3.0042	-3.0896	283.900	353.332	53.430	325.078	299.259	42.590	365.945	27.118	204.579	36.871	63.523	230.740	20.396	75.459	281.751	355.950	0.001008	0.00093568	0.00010356	1091.3	5.4008e-06	8.9366e-06	1311	384.97	1.1187e-05	5.013e-06	563.55	232.61	147.14	65.787	6.2569e-06	112.14	0.00062327	0.00072287	0.00021179	1008.3	6.9081e-06	8.1867e-06	1212.9	356.73	6.9626e-06	8.3379e-06	517.88	210.81	135.64	61.04	7.9851e-06	100.31	250.838	170.333	320.682	26.481	80.278	167.985	25.864	32.630	290.869	169.544	30.682	35.923	37.880	42.288	93.493	39.540	-8191	255	
17033.422	1	1	0	0	0.2306	0.17655	0.10379	0.39381	0.20881	0.13975	0.25162	0.15114	0.14774	0.077227	0.20549	0.19163	0.41218	0.15848	0.23957	0.12273	-2.1271	-2.9979	-2.5	-2.6292	-3.0521	-2.3021	-2.9396	-3.0458	-2.3417	-3.1312	-2.7833	-2.7062	-3.1958	-2.5729	-2.7208	-3.0979	200.101	329.487	159.829	343.836	346.759	172.247	341.951	50.098	75.755	320.625	266.172	312.827	367.061	52.642	140.657	315.301	0.00097139	0.00053009	0.00016754	1072.3	1.4302e-05	8.4435e-06	1306.1	382.59	1.4672e-06	8.0851e-06	564.21	233.16	148.12	66.149	8.0098e-06	112.24	0.00063595	0.00075452	0.00019201	995.26	6.6926e-06	8.0811e-06	1198	351.83	6.7083e-06	7.8429e-06	512.83	209.47	135.27	60.783	6.8839e-06	100.09	263.349	113.562	56.890	26.562	128.700	152.611	26.020	32.500	165.530	117.414	30.890	35.869	37.946	42.328	197.065	39.506	-8191	255	
17033.518	1	1	0	0	0.12047	0.098842	0.40053	0.33841	0.1605	0.3055	0.27401	0.37185	0.22273	0.15475	0.1257	0.21309	0.10465	0.16251	0.17138	0.62866	-2.0333	-2.9354	-2.7375	-2.5458	-2.975	-2.45	-2.8542	-3.0833	-2.2812	-3.0729	-2.9583	-2.5417	-3.1896	-2.7458	-2.6146	-3.1521	170.827	59.505	33.554	303.417	20.258	77.134	16.166	315.071	363.268	225.390	214.641	355.011	342.127	310.367	168.042	361.570	0.0010587	0.0002821	0.00020156	1078.2	7.7113e-06	5.5966e-06	1310	383.76	7.7532e-06	8.8705e-06	565.04	234.69	147.02	66.192	8.931e-06	113.73	0.00064024	0.0007185	0.00017477	995.14	7.2205e-06	7.9195e-06	1198	353.13	7.321e-06	7.6988e-06	514.12	210.51	136.49	61.014	6.573e-06	101.11	260.066	82.594	71.150	26.670	131.983	116.092	26.057	32.481	227.572	19.940	31.174	35.989	37.933	42.367	162.568	39.598	-8191	255	
17033.613	1	1	0	0	0.29289	0.17745	0.28905	0.2257	0.037082	0.13641	0.23221	0.31188	0.35714	0.10158	0.12065	0.23101	0.13504	0.10086	0.10048	0.13026	-2.1188	-2.8354	-2.7271	-2.4437	-2.9313	-2.55	-2.8208	-3.1146	-2.6063	-2.9396	-3.1042	-2.6104	-3.1625	-2.6521	-2.5458	-3.15	335.351	87.621	93.895	311.780	209.932	131.661	330.634	301.540	319.567	236.185	355.774	341.320	28.371	241.831	231.545	341.690	0.0013072	0.00049814	0.00019129	1080.7	3.6147e-06	3.4745e-06	1318	385.62	9.5276e-06	1.5289e-05	568.44	235.26	148.06	67.101	3.095e-06	113.1	0.00068683	0.00067411	0.00016626	994.38	7.547e-06	7.3161e-06	1205.1	355.29	7.708e-06	7.2296e-06	516.65	211.97	137.92	61.214	6.5149e-06	101.27	265.840	95.185	61.965	26.471	98.410	115.880	25.986	32.686	256.656	91.645	31.166	36.102	37.625	42.529	212.682	39.788	-8191	255	
17033.734	1	1	0	0	0.19987	0.27777	0.1833	0.16049	0.17347	0.13892	0.30069	0.15571	0.30276	0.21233	0.064685	0.21034	0.17623	0.18516	0.19882	0.19891	-1.9604	-2.8375	-2.8146	-2.4292	-2.9437	-2.8458	-2.6875	-3.2104	-2.6021	-2.7708	-3.1437	-2.6	-3.0458	-2.7896	-2.4375	-3.2354	79.213	199.313	44.916	261.027	107.505	282.432	349.684	304.770	217.950	318.257	87.643	217.240	26.143	25.635	263.177	45.481	0.0010822	0.00053081	0.00022645	1075.7	7.9044e-06	1.8548e-06	1300.8	382.32	6.0197e-06	8.1725e-06	559.22	232.21	147.66	66.02	7.8327e-06	112.03	0.00074473	0.00067417	0.00017433	998.62	8.4791e-06	7.532e-06	1192	354.35	8.3126e-06	7.1739e-06	508.95	210.02	137.29	60.38	6.5329e-06	100.39	248.447	60.118	147.573	26.408	82.058	109.186	26.098	32.347	164.182	125.651	30.580	36.222	37.563	42.457	223.693	39.763	-8191	255	
17033.807	1	1	0	0	0.17328	0.24878	0.12	0.22909	0.099958	0.17029	0.23364	0.20596	0.17197	0.118	0.14441	0.25657	0.39577	0.038951	0.12221	0.13165	-2.1688	-2.7083	-3.0604	-2.5021	-3.0833	-2.8292	-2.6875	-3.3167	-2.5458	-2.7646	-3.1875	-2.5417	-2.9125	-2.8937	-2.4479	-3.3042	250.245	292.441	189.783	359.282	160.679	340.160	310.165	269.213	69.494	251.619	338.953	285.009	19.030	44.579	275.523	37.403	0.00093622	0.00044155	0.00015538	1073.2	6.9574e-06	9.8458e-06	1301.3	385.79	8.285e-06	8.7369e-06	563.38	232.71	147.59	66.272	1.3554e-05	111.66	0.00073318	0.00063077	0.00016453	998.37	7.8329e-06	6.9948e-06	1190.9	357.71	7.9254e-06	7.0874e-06	513.18	212.09	137.72	60.918	6.9532e-06	101.46	256.560	319.343	113.479	26.677	70.448	139.498	25.890	32.352	146.554	153.236	31.181	36.212	37.681	42.495	142.364	39.690	-8191	255	
17033.902	1	1	0	0	0.015351	0.10444	0.055129	0.28671	0.086469	0.075137	0.13257	0.16385	0.137	0.25656	0.076342	0.13501	0.31178	0.10165	0.17912	0.37809	-2.1125	-2.4583	-3.0104	-2.5021	-2.8375	-2.9542	-2.5417	-3.1042	-2.6104	-2.6521	-3.0687	-2.6479	-2.9604	-3.0146	-2.3354	-2.7979	250.907	85.016	84.181	363.729	187.877	240.403	271.153	291.734	290.036	263.828	371.738	21.856	298.544	202.702	15.185	291.579	0.00076587	0.00044062	0.00018586	1072	5.4858e-06	3.7465e-06	1303.8	384.03	4.4889e-06	1.0368e-05	563.48	233.21	147.19	67.009	1.0512e-05	112.62	0.00073298	0.00065935	0.00018227	1008.5	7.9619e-06	7.2491e-06	1198.2	359.12	7.8053e-06	7.0567e-06	515.37	213.12	136.57	60.866	7.233e-06	101.62	260.209	368.557	125.103	26.829	47.784	364.545	26.014	32.355	234.150	139.131	30.956	36.412	37.708	42.421	221.213	39.705	-8191	255	
17034.023	1	1	0	0	0.15617	0.26138	0.20912	0.093694	0.11554	0.22348	0.22411	0.23391	0.15261	0.040079	0.23958	0.17287	0.35067	0.21759	0.14374	0.19867	-2.4771	-2.4917	-3.0146	-2.5104	-2.7792	-2.8812	-2.3229	-3.125	-2.4437	-2.6354	-3.1813	-2.5667	-2.7542	-3.0458	-2.3937	-3.0687	273.253	203.400	61.079	342.843	163.633	30.465	282.454	335.694	194.373	318.109	293.054	347.357	360.570	295.633	349.074	321.654	0.00089635	0.00020708	0.00042683	1083.4	7.3127e-06	1.4725e-05	1306.1	384.98	9.1791e-06	6.0985e-06	566.88	232.57	147.17	65.757	1.3361e-05	111.27	0.00064937	0.0005963	0.00018021	1006.6	6.7508e-06	6.1784e-06	1198.2	356.65	6.6411e-06	6.257e-06	515.5	211.34	135.26	60.002	7.5087e-06	100.27	265.096	91.979	146.278	26.696	104.305	84.162	26.005	32.657	185.143	156.399	31.466	35.821	37.735	42.534	174.540	40.007	-8191	255	
17034.119	1	1	0	0	0.079987	0.33592	0.014675	0.28302	0.16011	0.26688	0.17822	0.095558	0.037686	0.28838	0.17692	0.16675	0.12699	0.20262	0.19969	0.39563	-2.2417	-2.4271	-3.1979	-2.6562	-2.6958	-3.0021	-2.5292	-2.9021	-2.8333	-2.4229	-3.1396	-2.6583	-2.55	-3.2604	-2.5521	-3.175	103.507	223.783	53.108	75.909	283.873	256.544	218.338	323.405	138.819	300.461	343.183	322.811	25.210	37.267	127.464	342.497	0.00098775	7.3008e-05	0.0002808	1074	5.004e-06	2.1811e-06	1305.4	380.82	8.748e-06	7.0637e-06	554.88	228.82	145.61	65.27	1.3903e-05	109.44	0.0006197	0.00059035	0.00019331	997.08	6.7591e-06	6.5605e-06	1201	353.32	6.8061e-06	6.6683e-06	512.84	208.1	133.88	59.624	8.2384e-06	98.48	262.725	105.181	72.454	26.620	169.429	217.771	26.002	32.496	191.363	165.196	31.068	36.285	37.456	42.247	140.968	39.472	-8191	255	
17034.213	1	1	0	0	0.02482	0.15808	0.095099	0.15626	0.13156	0.23222	0.31142	0.18427	0.36945	0.23475	0.33306	0.39963	0.16011	0.2632	0.057102	0.17085	-2.4688	-2.2958	-2.9854	-2.65	-2.6604	-3.0583	-2.5729	-2.8979	-2.7	-2.575	-3.2375	-2.9062	-2.65	-3.1479	-2.4271	-3.1167	270.891	341.465	197.420	287.494	275.324	35.780	45.956	326.272	80.412	298.546	324.965	266.196	290.939	369.271	180.763	359.969	0.0010465	0.0014297	0.00030623	1068.2	4.4332e-06	7.2989e-06	1295.4	381.82	7.6093e-06	1.2343e-05	560.85	229.21	145.04	65.171	3.6159e-07	109.25	0.0006306	0.00065054	0.00021216	996.05	6.8445e-06	7.2305e-06	1201.8	353.38	6.7445e-06	7.3685e-06	514.52	207.58	133.71	59.947	8.2115e-06	98.249	260.709	126.026	141.104	26.566	215.754	125.454	26.099	32.134	225.696	184.505	31.402	36.145	37.713	42.497	137.637	39.553	-8191	255	
17034.334	1	1	0	0	0.067486	0.1444	0.22019	0.062039	0.23006	0.12746	0.08098	0.34704	0.10578	0.1959	0.27439	0.17212	0.20277	0.22688	0.23258	0.20934	-2.5146	-2.3667	-2.9437	-2.7646	-2.5083	-3.0833	-2.5667	-2.8063	-2.9188	-2.3625	-2.8563	-3.1229	-2.4667	-3.1854	-2.5667	-2.6375	50.774	237.525	197.110	322.317	336.701	263.694	14.656	365.420	82.825	83.428	300.042	297.104	17.315	307.273	113.883	249.991	0.0010263	0.00066949	0.000202	1062.6	7.6031e-06	1.701e-05	1295.6	380.67	8.6774e-06	1.1264e-05	555.49	228.33	145.44	65.043	2.8366e-06	110.21	0.00062106	0.00070658	0.00020702	991.24	6.5764e-06	7.7053e-06	1194.1	350.2	6.4261e-06	7.7973e-06	511.25	207.18	133.17	60.036	7.7594e-06	98.688	257.397	133.432	69.891	26.568	42.435	150.753	26.017	32.336	282.516	176.058	30.895	36.267	37.885	42.557	373.585	39.861	-8191	255	
17034.430	1	1	0	0	0.28482	0.12995	0.082428	0.11286	0.13472	0.08709	0.35417	0.043193	0.10039	0.22528	0.15493	0.059202	0.11864	0.022517	0.38514	0.4391	-2.8875	-2.4104	-2.9313	-2.8479	-2.4417	-2.8917	-2.7396	-2.6729	-3.1729	-2.5896	-2.9208	-2.9083	-2.5667	-3.1979	-2.6813	-2.6813	135.741	359.603	312.153	327.948	240.272	201.092	355.089	71.554	40.389	210.029	197.387	41.932	286.564	299.227	370.271	359.534	0.0011394	0.0012649	0.00022913	1067.5	2.8813e-06	6.2381e-06	1289.7	378.89	8.5472e-06	6.7328e-06	552.36	226.47	143.68	64.979	9.7908e-06	108.46	0.00064119	0.00076779	0.00020077	992.86	7.0766e-06	8.5282e-06	1189	349.51	6.9822e-06	8.2536e-06	506.73	204.81	132.92	59.928	7.3772e-06	97.1	250.093	164.482	127.214	26.936	68.085	151.810	26.098	32.305	295.021	114.932	30.849	36.055	37.925	42.482	180.271	39.714	-8191	255	
17034.502	1	1	0	0	0.084931	0.19936	0.091923	0.1766	0.096185	0.14797	0.27306	0.20117	0.089784	0.036805	0.13393	0.23818	0.47585	0.13525	0.17833	0.24024	-2.8083	-2.4375	-2.7792	-2.8542	-2.4396	-3.0729	-2.6688	-2.8146	-3.0187	-2.5854	-2.8542	-3.2021	-2.7479	-3.0167	-2.7542	-2.5187	145.351	166.240	242.536	338.808	209.753	155.827	322.397	61.055	130.208	190.602	276.995	310.769	301.579	371.422	139.195	275.376	0.0012323	0.00056337	3.3027e-05	1062.3	1.5237e-05	9.1325e-06	1288.3	379.54	4.6556e-06	1.1002e-05	553.03	226.21	143.15	64.39	2.7364e-06	107.52	0.00067433	0.00075612	0.0001859	983.31	7.4492e-06	8.0855e-06	1182.1	348.65	7.4373e-06	7.9412e-06	505.72	204.68	133.49	59.596	7.0811e-06	96.941	261.806	137.828	124.860	26.758	90.621	64.362	25.893	32.423	214.881	61.376	31.133	36.021	37.768	42.202	65.262	39.585	-8191	255	
17034.598	1	1	0	0	0.087802	0.051073	0.1125	0.15936	0.16348	0.15585	0.28465	0.088961	0.27452	0.26977	0.18056	0.14651	0.21644	0.31288	0.14734	0.3657	-2.8354	-2.6937	-2.6188	-3.0875	-2.5438	-3.0729	-2.9271	-2.7042	-3.1667	-2.7167	-2.7458	-3.225	-2.4104	-2.9792	-2.875	-2.55	86.221	34.430	334.520	353.470	360.639	98.038	352.301	216.953	58.203	343.545	370.889	328.370	27.307	365.918	221.771	374.279	0.00089137	0.00057227	0.00013326	1065.5	1.3461e-05	7.0626e-06	1294.2	381.19	7.5534e-06	1.1766e-05	558.61	228.02	144.97	64.908	5.8624e-06	109.85	0.00072272	0.00071644	0.00017745	984.64	7.8524e-06	7.5493e-06	1182	351.21	7.7881e-06	7.2996e-06	506.32	205.81	135.1	59.666	6.3737e-06	98.036	266.757	32.318	72.047	26.861	143.875	154.430	25.941	32.452	143.226	137.580	30.931	36.077	38.108	42.379	277.923	39.822	-8191	255	
17034.719	1	1	0	0	0.11254	0.24949	0.16303	0.061568	0.14325	0.12899	0.27889	0.10028	0.33354	0.12149	0.27942	0.087227	0.19972	0.41746	0.13382	0.26496	-2.8583	-2.6875	-2.4667	-3.1729	-2.6063	-2.9292	-3.1167	-2.7583	-2.9938	-2.6708	-2.6833	-3.1354	-2.5812	-2.65	-2.95	-2.5958	348.130	191.108	196.871	349.977	252.351	191.079	328.276	27.262	315.251	351.043	310.046	66.764	290.417	334.732	286.470	353.676	0.00093162	0.00040284	0.00023383	1068.9	1.0643e-05	1.0082e-05	1298.3	388.15	8.495e-06	4.6487e-06	563.57	229.82	146.56	65.87	8.6416e-06	112.02	0.00071736	0.00064654	0.00016641	989.38	7.8599e-06	6.9569e-06	1186.4	355.54	7.9537e-06	7.0827e-06	511.69	209.02	136.74	60.176	6.4627e-06	100.01	252.393	78.795	357.086	26.705	125.712	163.187	26.337	32.510	201.270	147.067	30.988	36.142	37.700	42.472	191.254	39.689	-8191	255	
17034.814	1	1	0	0	0.20442	0.31201	0.15112	0.012201	0.17285	0.24954	0.24881	0.20982	0.074344	0.096752	0.29392	0.34329	0.34005	0.039077	0.19413	0.18372	-2.5312	-2.5583	-2.4667	-3.2812	-2.6646	-2.8646	-3.0021	-2.3771	-3.0229	-2.6646	-2.4542	-3.1688	-2.6396	-2.6937	-3.1542	-2.4938	166.898	269.674	114.341	147.260	75.572	365.616	303.437	340.086	36.021	332.029	339.583	41.625	370.226	118.250	107.974	328.875	0.0012829	0.00060313	0.00013423	1075.5	6.2109e-06	4.6994e-06	1291.7	385.01	5.4367e-06	7.8976e-06	562.67	229.88	146.21	65.745	6.4037e-06	110.14	0.00073269	0.00063733	0.00016295	998.13	7.671e-06	6.7897e-06	1184.8	356.4	7.6207e-06	6.6703e-06	509.21	208.57	135.46	59.729	6.2576e-06	98.78	267.126	131.408	59.659	26.609	135.100	201.703	26.249	32.554	106.295	98.607	30.737	36.184	37.469	42.587	279.474	39.972	-8191	255	
17034.910	1	1	0	0	0.067088	0.26439	0.18141	0.16628	0.21038	0.11071	0.16213	0.16983	0.079499	0.27093	0.50313	0.24157	0.37135	0.25153	0.30157	0.15874	-2.5021	-2.6188	-2.4542	-3.1771	-2.5396	-2.5771	-3.1229	-2.5417	-2.9708	-2.8979	-2.5312	-3.2042	-2.6688	-2.7646	-3.0062	-2.55	83.267	23.711	188.797	329.027	236.423	300.638	336.576	49.652	313.550	68.216	354.887	314.951	38.617	279.894	279.354	266.253	0.00076725	0.00065565	0.00030171	1071.8	1.2383e-05	1.4324e-05	1294.7	383.84	6.4638e-06	8.4524e-07	563.22	229.06	145.74	65.351	1.306e-05	109.59	0.00066042	0.00058716	0.00016304	998.34	7.0235e-06	6.371e-06	1182.5	355.32	6.9195e-06	6.2893e-06	509.23	208.61	134.12	59.341	6.6224e-06	98.929	249.948	76.555	138.005	26.804	66.042	173.127	26.166	32.400	131.222	29.141	31.199	36.360	37.879	42.537	176.553	39.773	-8191	255	
17035.008	1	1	0	0	0.18555	0.15551	0.067406	0.19699	0.15181	0.35158	0.21563	0.26179	0.097501	0.11688	0.16462	0.082689	0.2246	0.39331	0.17108	0.099518	-2.3104	-2.8479	-2.3396	-3.1417	-2.5812	-2.6521	-3.0583	-2.6229	-2.7125	-2.9417	-2.4354	-3.0375	-2.9688	-2.5792	-2.9646	-2.575	216.593	141.834	57.296	318.712	49.169	69.166	343.320	335.769	369.268	205.741	250.048	123.010	46.975	368.171	266.116	307.727	0.00097424	0.0006462	0.00016629	1075.4	1.3891e-05	4.2529e-06	1303.4	385.51	4.3516e-06	5.1295e-06	562.67	229.34	146.37	65.447	8.979e-06	110.62	0.00063547	0.000576	0.00017659	1001.9	6.8429e-06	6.3991e-06	1194.6	357.05	7.0422e-06	6.529e-06	515.21	209.53	135.19	59.794	8.013e-06	99.687	246.290	343.947	170.320	26.838	81.936	237.162	25.904	32.250	256.410	101.456	30.965	35.939	38.127	42.290	174.761	39.574	-8191	255	
17035.104	1	1	0	0	0.12118	0.17666	0.30379	0.35137	0.033823	0.035263	0.33885	0.20256	0.091093	0.012704	0.14562	0.14176	0.22002	0.27991	0.15331	0.25975	-2.2313	-2.75	-2.3417	-2.9833	-2.7292	-2.5917	-3.1146	-2.6479	-2.5521	-3.0979	-2.3708	-2.9688	-2.9167	-2.5396	-3.1521	-2.7938	369.039	300.011	57.142	334.250	281.921	291.184	284.912	50.159	370.335	217.360	308.344	331.441	51.489	367.355	369.712	185.386	0.00082988	0.00054857	0.00014691	1074.5	7.4272e-06	1.4124e-05	1296.5	386.23	1.0708e-05	6.7035e-06	563.59	231.46	145.48	65.142	2.9624e-06	110.32	0.00067837	0.00063922	0.00021286	1005.6	7.3153e-06	7.1317e-06	1204.1	357.49	7.1426e-06	6.8603e-06	516.82	209.65	133.98	59.741	7.8573e-06	99.096	264.434	110.865	40.751	26.609	75.436	195.171	26.140	32.530	222.106	143.125	30.808	36.101	37.724	42.103	239.128	39.856	-8191	255	
17035.199	1	1	0	0	0.091345	0.14904	0.20271	0.14867	0.26601	0.11783	0.22344	0.064506	0.2532	0.13425	0.38231	0.16144	0.064342	0.028836	0.11922	0.050127	-2.2146	-2.9958	-2.4042	-2.8917	-2.9167	-2.2896	-2.8854	-2.6896	-2.3979	-3.2	-2.6396	-2.8646	-2.7854	-2.4229	-2.9854	-2.9104	361.117	44.890	349.792	289.312	177.758	152.012	374.288	374.195	368.880	347.330	27.153	318.341	79.109	267.793	262.602	44.495	0.0009533	0.0008144	0.00016405	1064.7	3.1831e-06	1.9959e-05	1295.7	380.51	5.5235e-06	8.018e-06	556.9	227.38	144.51	64.705	4.6362e-06	108.49	0.00059525	0.00059979	0.00019639	988.38	6.2838e-06	6.5998e-06	1187.2	350.5	6.1221e-06	6.5878e-06	509.23	205.14	132.13	59.122	7.429e-06	96.85	242.022	151.269	96.620	26.534	186.665	134.601	26.150	32.443	208.888	162.017	31.073	35.907	38.062	42.289	269.380	39.760	-8191	255	
17035.295	1	1	0	0	0.3355	0.13957	0.081906	0.1867	0.13382	0.17003	0.143	0.14723	0.053853	0.091076	0.2074	0.14441	0.045824	0.23946	0.09236	0.29579	-2.0479	-2.9354	-2.2417	-2.8812	-2.8708	-2.3646	-3.2104	-2.9208	-2.6479	-3.0542	-2.6667	-2.8229	-2.9083	-2.3979	-2.7917	-2.9271	36.824	163.644	50.859	201.876	88.664	147.135	321.128	293.943	343.653	281.442	277.901	313.687	371.199	302.057	248.413	347.543	0.00079991	0.0007236	0.00011254	1065.1	8.7305e-06	1.019e-05	1283.9	381.51	6.6924e-06	2.8762e-06	554.81	226.33	144.89	64.729	1.6987e-05	108.94	0.00056467	0.00064328	0.00019627	987.19	6.3758e-06	7.5698e-06	1184.7	351.83	6.5517e-06	7.8266e-06	509.76	205.11	133.26	59.671	7.7009e-06	97.05	288.185	63.067	90.470	26.633	68.610	201.559	25.931	32.313	64.734	179.411	31.373	35.909	38.055	42.418	94.029	39.785	-8191	255	
17035.414	1	1	0	0	0.086971	0.11699	0.10544	0.18237	0.13217	0.043962	0.081198	0.10425	0.19303	0.02447	0.106	0.25483	0.062867	0.29997	0.23407	0.14984	-2.1729	-3.0354	-2.5187	-2.675	-2.875	-2.3771	-2.8854	-3.0104	-2.3354	-3.0167	-2.5958	-2.5563	-3.0167	-2.4938	-2.8688	-3.0458	84.574	49.582	258.252	279.126	208.527	62.460	136.169	334.546	302.971	367.039	354.048	288.665	177.504	47.122	372.525	321.152	0.0011305	0.0010157	0.00014378	1070.6	5.9182e-06	7.7627e-06	1284	381.14	6.4168e-06	4.4242e-06	551.34	226.31	145.88	65.055	5.7341e-06	108.63	0.00060811	0.00071913	0.00018654	990.46	6.4982e-06	7.8456e-06	1182	351.29	6.7714e-06	8.1104e-06	505.86	204.84	134.15	59.773	6.7829e-06	97.002	255.538	117.097	369.867	26.360	134.147	119.780	25.975	32.633	277.526	210.478	30.860	36.238	37.512	42.288	119.727	39.752	-8191	255	
17035.510	1	1	0	0	0.18156	0.089476	0.24847	0.28877	0.054043	0.13423	0.039976	0.20662	0.13142	0.28654	0.18982	0.15095	0.10619	0.070943	0.22904	0.14913	-2.1229	-2.8021	-2.6312	-2.6542	-2.9646	-2.4042	-2.8667	-2.9667	-2.3187	-2.9792	-2.85	-2.4333	-3.0458	-2.6271	-2.6396	-3.1604	50.106	170.263	125.411	351.925	201.164	132.671	125.703	30.744	180.811	216.907	213.326	338.029	123.247	296.109	151.883	299.831	0.0012505	0.00034083	0.0002354	1068.3	9.0128e-06	9.633e-06	1288.6	382.96	1.8556e-05	1.1394e-05	558.36	228.48	144.21	64.403	5.9116e-06	108.54	0.0006028	0.00067002	0.00015997	983.38	6.2075e-06	6.8527e-06	1175.1	348.43	6.062e-06	6.4778e-06	502.29	203.96	132.03	58.468	5.184e-06	95.795	269.057	317.770	19.479	26.281	173.280	50.617	25.855	32.304	255.596	115.967	30.984	35.982	38.078	42.289	126.120	39.799	-8191	255	
17035.607	1	1	0	0	0.16754	0.22931	0.1798	0.033897	0.030957	0.10614	0.12561	0.27113	0.099429	0.088008	0.10705	0.19968	0.30928	0.26071	0.16523	0.32478	-1.9042	-2.9396	-2.7021	-2.4938	-2.8979	-2.6042	-2.7958	-3.0479	-2.4292	-2.7812	-2.8833	-2.4229	-2.9458	-2.5354	-2.5167	-3.1646	357.995	352.821	62.489	100.512	257.539	183.663	201.337	359.114	89.235	61.122	196.906	276.028	334.300	46.419	204.164	357.107	0.00078937	0.00019637	0.0002198	1061.2	8.3945e-06	5.4252e-06	1287.6	375.39	1.2215e-05	9.7984e-06	549.91	225.89	143.94	64.425	4.1946e-06	107.71	0.00051445	0.00050335	0.00012219	966.1	5.2647e-06	5.1655e-06	1158.7	341.39	5.1254e-06	4.8492e-06	492.29	200.78	129.92	57.707	4.1772e-06	94.723	244.138	166.101	61.151	26.467	129.562	115.573	25.630	32.504	294.215	175.837	31.086	35.993	38.211	42.362	142.258	39.634	-8191	255	
17035.703	1	1	0	0	0.11886	0.1394	0.072982	0.058193	0.11112	0.057376	0.053736	0.10573	0.37254	0.020685	0.50792	0.079778	0.33908	0.04486	0.1326	0.16821	-1.8521	-2.85	-2.9625	-2.4583	-3.0312	-2.3958	-2.6667	-3.0417	-2.2333	-2.6437	-3.0687	-2.5292	-2.8312	-2.775	-2.4	-3.1625	104.959	259.802	152.147	278.789	333.804	129.048	225.006	96.225	68.174	262.351	16.096	164.668	284.317	368.446	83.386	311.285	0.0011173	0.00054758	0.00013266	1069.8	7.3431e-06	2.5276e-06	1294.1	383.24	8.2743e-06	6.6886e-06	564.65	229.59	146.11	64.673	4.4922e-06	108.16	0.00047948	0.00042786	0.00011012	969.67	5.2443e-06	4.7937e-06	1168	347.61	5.5051e-06	4.9336e-06	504.67	205.17	133.6	58.474	5.1537e-06	96.576	263.602	332.473	118.737	26.663	35.984	130.988	25.854	32.441	242.929	205.025	31.088	35.998	37.898	42.925	134.180	40.007	-8191	255	
17035.799	1	1	0	0	0.028107	0.1149	0.13919	0.32076	0.045892	0.032464	0.25238	0.18019	0.068069	0.22232	0.39032	0.28138	0.16955	0.25302	0.25639	0.027974	-2.1375	-2.6208	-2.8833	-2.4	-2.9813	-2.7167	-2.7167	-3.1958	-2.4688	-2.6	-3.0625	-2.5271	-2.9354	-2.7146	-2.5229	-3.1021	175.347	370.240	102.945	332.925	331.722	256.413	292.285	289.131	271.679	148.809	328.345	327.958	271.021	344.418	308.696	60.926	0.00081725	0.00063799	0.00012245	1077.7	2.0922e-06	4.2599e-06	1340.6	394.6	8.4929e-06	7.6945e-06	577.07	234.29	149.85	65.732	9.7783e-06	110.02	0.00063091	0.0005784	0.00015569	1001.6	8.024e-06	7.3668e-06	1224.6	368.24	9.1928e-06	8.3304e-06	531.52	215.61	142.18	61.164	8.8359e-06	101.4	256.111	70.664	139.658	26.657	93.405	241.233	26.136	32.745	208.788	250.308	31.094	36.164	37.789	42.632	200.934	40.137	-8191	255	
17035.895	1	1	0	0	0.12278	0.109	0.19604	0.11977	0.1754	0.2249	0.19014	0.094891	0.16691	0.14779	0.12194	0.12878	0.096405	0.24069	0.12561	0.089674	-2.0646	-2.5479	-2.8458	-2.3979	-2.7896	-2.7375	-2.5104	-3.1875	-2.6479	-2.5417	-2.9292	-2.5062	-2.9	-2.9813	-2.4437	-3.05	208.012	48.838	93.530	214.773	298.793	95.248	340.344	336.627	41.412	78.455	270.095	197.360	30.789	350.346	303.252	247.124	0.00098281	0.00066485	0.00014171	1109	1.5848e-05	9.057e-06	1366.6	401.16	1.0621e-05	8.41e-06	585.02	235.42	149.6	66.012	6.2292e-06	110.43	0.00094796	0.00085617	0.00023399	1056.2	1.0583e-05	9.5e-06	1274.3	381.33	1.0299e-05	9.3166e-06	543.26	218.51	142.42	61.236	9.2968e-06	101.43	258.199	145.867	105.340	26.723	309.834	365.927	26.294	32.558	131.901	257.039	31.372	35.938	38.053	42.979	176.832	39.748	-8191	255	
17036.016	1	1	0	0	0.17562	0.21121	0.30802	0.34716	0.096627	0.17713	0.25665	0.37779	0.047705	0.14329	0.11356	0.072052	0.27127	0.11985	0.24786	0.25049	-2.2271	-2.5417	-3.0229	-2.4688	-2.6917	-2.8604	-2.5333	-2.9521	-2.8604	-2.6271	-2.9646	-2.4771	-2.8458	-3.0687	-2.2958	-3.0812	334.516	330.701	208.489	352.031	338.660	161.246	32.277	348.458	92.782	223.372	369.000	331.821	23.218	321.537	131.994	311.866	0.00085649	0.00045293	0.00014363	1104.3	3.7287e-06	7.2793e-06	1357.1	400.26	4.1068e-06	1.3937e-05	578.61	234.11	150.47	66.11	2.9133e-05	109.52	0.0008889	0.00082199	0.00024638	1054.1	9.6675e-06	9.0119e-06	1263.7	379.29	9.7455e-06	9.2366e-06	542.24	217.45	142.25	61.547	1.0553e-05	100.96	247.836	254.122	101.996	26.880	304.462	54.881	26.340	32.440	54.642	374.147	31.586	36.155	37.931	42.798	170.891	39.815	-8191	255	
17036.111	1	1	0	0	0.23915	0.32608	0.12862	0.1807	0.27343	0.28315	0.16676	0.30183	0.22494	0.24604	0.19298	0.18807	0.15779	0.27305	0.30003	0.15917	-2.2396	-2.4521	-2.9917	-2.6104	-2.5604	-2.9292	-2.4813	-3.0875	-2.6958	-2.5104	-2.8812	-2.6063	-2.6083	-3.1625	-2.6063	-3.0625	55.081	288.639	276.708	339.084	288.264	204.352	254.888	333.680	181.136	45.938	213.142	43.548	32.751	41.709	328.089	359.143	0.0010664	0.00023645	0.00015541	1101.8	6.1437e-06	5.016e-06	1341.1	399.54	7.8967e-06	5.0477e-06	576.01	233.39	150.1	66.182	1.1712e-05	110.87	0.00087617	0.00083302	0.0002718	1049	9.5069e-06	8.9587e-06	1255.4	377.29	9.0923e-06	8.8945e-06	541.29	215.29	141	61.455	1.0517e-05	100.69	255.771	80.142	78.042	26.816	232.101	217.382	26.256	32.650	290.276	185.286	31.133	36.202	37.866	42.835	162.801	39.697	-8191	255	
17036.205	1	1	0	0	0.10239	0.25542	0.13415	0.23628	0.19089	0.16762	0.21192	0.05764	0.1715	0.25451	0.13074	0.21719	0.14064	0.20902	0.32243	0.3238	-2.4062	-2.4354	-2.9583	-2.6542	-2.575	-2.9854	-2.4604	-2.9896	-2.7167	-2.3937	-2.95	-2.9167	-2.5604	-3.2333	-2.3104	-2.8708	144.824	338.835	79.306	57.329	187.517	270.027	364.273	304.652	158.321	292.169	324.843	323.489	364.709	317.746	150.610	315.726	0.00088098	0.00072294	0.00017152	1097.3	9.1046e-06	1.2722e-05	1329.8	395.04	1.0164e-05	9.8057e-06	571.42	231.43	148.68	66.363	6.5616e-06	109.34	0.00080305	0.00081095	0.00026915	1036.9	8.6989e-06	8.8495e-06	1241.4	369.66	8.5301e-06	9.1804e-06	536.06	213.47	139.7	61.75	1.0572e-05	99.661	255.327	109.586	130.575	26.720	323.359	217.346	26.100	32.280	208.262	217.206	31.160	36.335	38.133	42.952	106.180	39.939	-8191	255	
17036.303	1	1	0	0	0.17551	0.071492	0.047047	0.15146	0.10145	0.39009	0.20166	0.21167	0.040284	0.12786	0.0803	0.29768	0.13215	0.10475	0.21483	0.30684	-2.4833	-2.3625	-2.9792	-2.8063	-2.5979	-3.1833	-2.5542	-2.8729	-3.0312	-2.4625	-3.0208	-2.7271	-2.3979	-3.0417	-2.4313	-2.625	48.958	169.472	181.297	57.682	234.128	88.847	343.127	311.477	333.472	320.775	370.145	29.401	326.777	337.056	358.910	342.758	0.00061773	0.0014059	0.00015342	1083.1	1.5792e-06	1.4752e-05	1308.6	386.26	5.1507e-06	8.8619e-06	556.77	227.38	145.56	64.406	1.3618e-06	106.5	0.00077925	0.00085295	0.00025426	1018.9	7.7389e-06	8.8348e-06	1214.4	357.9	7.3787e-06	8.7051e-06	515.64	206.91	134.35	59.63	8.1325e-06	95.728	261.528	170.439	182.335	26.671	267.445	149.751	26.180	32.455	239.034	206.161	31.256	36.080	37.707	42.791	229.517	39.604	-8191	255	
17036.398	1	1	0	0	0.12632	0.29239	0.41269	0.38983	0.13799	0.21296	0.18661	0.46942	0.04493	0.092744	0.3079	0.27027	0.028736	0.25745	0.54499	0.29167	-2.5375	-2.2458	-2.8646	-2.8271	-2.2875	-2.9771	-2.8667	-2.6104	-2.7833	-2.3729	-2.95	-2.8229	-2.5521	-3.1708	-2.6271	-2.6437	66.438	110.542	45.096	15.551	44.773	79.103	339.312	217.976	111.122	170.912	320.422	308.697	97.808	352.481	78.155	309.650	0.00102	0.00065272	0.00021493	1078.5	1.2529e-05	5.8413e-06	1288.8	377.18	7.6299e-06	3.4043e-06	546.17	223.41	144.44	63.834	7.6266e-06	105.34	0.00061865	0.00073433	0.00018747	991.8	6.0597e-06	7.1582e-06	1180	345.11	5.5931e-06	6.654e-06	496.33	200.94	130.69	58.219	6.0418e-06	93.824	267.288	114.261	90.405	26.876	126.702	124.994	25.768	32.320	322.440	168.954	31.110	36.239	37.875	42.340	187.185	39.603	-8191	255	
#DATA ENDS
