BOXY.EXE: ISS Imagent and Oximeter Data Acquisition Program Version 0.80
Ascii Record File

#ACQ INFORMATION
2  Detector Channels 
16  External MUX Channels 
1  Auxiliary Channels 
5000  Waveform (CCF) Frequency (Hz)
1  Waveforms Skipped 
30  Waveforms Averaged 
1  Cycles Averaged 
16  Acquisitions per Waveform 
10.0806  Updata Rate (Hz) 

#FILE INFORMATION
TRUE -- External MUX Channel results are PARSED.
FALSE -- AC DC and Phase are NOT grouped.
TRUE -- Companion Program Settings File CREATED.
FALSE -- AC data not excluded
FALSE -- DC data not excluded
FALSE -- Phase data not excluded
FALSE -- Auxillary Chn. data not excluded
Tab delimiters

#CALIBRATION STATE
TRUE -- Waveform Calibration Values APPLIED.


#AUX CALIBRATION VALUES
Val Type	aux-1	

Term	1.0000e+00	
Factor	0.0000e+00	


#WF CALIBRATION VALUES
A = Detector Channel
Val Type	A-AC1	A-AC2	A-AC3	A-AC4	A-AC5	A-AC6	A-AC7	A-AC8	A-AC9	A-AC10	A-AC11	A-AC12	A-AC13	A-AC14	A-AC15	A-AC16	A-DC1	A-DC2	A-DC3	A-DC4	A-DC5	A-DC6	A-DC7	A-DC8	A-DC9	A-DC10	A-DC11	A-DC12	A-DC13	A-DC14	A-DC15	A-DC16	A-Ph1	A-Ph2	A-Ph3	A-Ph4	A-Ph5	A-Ph6	A-Ph7	A-Ph8	A-Ph9	A-Ph10	A-Ph11	A-Ph12	A-Ph13	A-Ph14	A-Ph15	A-Ph16	

Term	0.00000e+00	0.00000e+00	0.00000e+00	0.00000e+00	0.00000e+00	0.00000e+00	0.00000e+00	0.00000e+00	0.00000e+00	0.00000e+00	0.00000e+00	0.00000e+00	0.00000e+00	0.00000e+00	0.00000e+00	0.00000e+00	0.00000e+00	0.00000e+00	0.00000e+00	0.00000e+00	0.00000e+00	0.00000e+00	0.00000e+00	0.00000e+00	0.00000e+00	0.00000e+00	0.00000e+00	0.00000e+00	0.00000e+00	0.00000e+00	0.00000e+00	0.00000e+00	0.00000e+00	0.00000e+00	0.00000e+00	0.00000e+00	0.00000e+00	0.00000e+00	0.00000e+00	0.00000e+00	0.00000e+00	0.00000e+00	0.00000e+00	0.00000e+00	0.00000e+00	0.00000e+00	0.00000e+00	0.00000e+00	
Factor	1.00000e+00	1.00000e+00	1.00000e+00	1.00000e+00	1.00000e+00	1.00000e+00	1.00000e+00	1.00000e+00	1.00000e+00	1.00000e+00	1.00000e+00	1.00000e+00	1.00000e+00	1.00000e+00	1.00000e+00	1.00000e+00	1.00000e+00	1.00000e+00	1.00000e+00	1.00000e+00	1.00000e+00	1.00000e+00	1.00000e+00	1.00000e+00	1.00000e+00	1.00000e+00	1.00000e+00	1.00000e+00	1.00000e+00	1.00000e+00	1.00000e+00	1.00000e+00	X	X	X	X	X	X	X	X	X	X	X	X	X	X	X	X	

B = Detector Channel
Val Type	B-AC1	B-AC2	B-AC3	B-AC4	B-AC5	B-AC6	B-AC7	B-AC8	B-AC9	B-AC10	B-AC11	B-AC12	B-AC13	B-AC14	B-AC15	B-AC16	B-DC1	B-DC2	B-DC3	B-DC4	B-DC5	B-DC6	B-DC7	B-DC8	B-DC9	B-DC10	B-DC11	B-DC12	B-DC13	B-DC14	B-DC15	B-DC16	B-Ph1	B-Ph2	B-Ph3	B-Ph4	B-Ph5	B-Ph6	B-Ph7	B-Ph8	B-Ph9	B-Ph10	B-Ph11	B-Ph12	B-Ph13	B-Ph14	B-Ph15	B-Ph16	

Term	0.00000e+00	0.00000e+00	0.00000e+00	0.00000e+00	0.00000e+00	0.00000e+00	0.00000e+00	0.00000e+00	0.00000e+00	0.00000e+00	0.00000e+00	0.00000e+00	0.00000e+00	0.00000e+00	0.00000e+00	0.00000e+00	0.00000e+00	0.00000e+00	0.00000e+00	0.00000e+00	0.00000e+00	0.00000e+00	0.00000e+00	0.00000e+00	0.00000e+00	0.00000e+00	0.00000e+00	0.00000e+00	0.00000e+00	0.00000e+00	0.00000e+00	0.00000e+00	5.06194e+01	-1.29438e+02	-1.31290e+02	-1.83563e+02	-6.55746e+01	-6.95186e+01	-1.58231e+02	-1.62015e+02	-5.78124e+01	-7.32865e+01	-1.70600e+02	-1.70833e+02	-1.78671e+02	-1.76838e+02	-6.47668e+01	-1.49876e+02	
Factor	6.06753e-05	1.77433e-04	4.50731e-05	1.61896e-01	2.38399e-06	1.84020e-06	1.81550e-01	5.88728e-02	2.84769e-06	1.77999e-06	1.01125e-01	3.33508e-02	3.05324e-02	1.05122e-02	2.09870e-06	1.49555e-02	1.12874e-05	1.48015e-05	4.16755e-06	7.72785e-02	1.51997e-07	1.66052e-07	8.13358e-02	2.81645e-02	1.53049e-07	1.66029e-07	4.70097e-02	1.54312e-02	1.47354e-02	5.07175e-03	1.59162e-07	7.00736e-03	X	X	X	X	X	X	X	X	X	X	X	X	X	X	X	X	



#DISTANCE SETTINGS
A = Detector Channel
A-1	A-2	A-3	A-4	A-5	A-6	A-7	A-8	A-9	A-10	A-11	A-12	A-13	A-14	A-15	A-16	

2.5000e+00	3.0000e+00	2.5000e+00	3.0000e+00	2.0000e+00	3.0000e+00	1.5000e+00	3.0000e+00	3.0000e+00	3.0000e+00	3.0000e+00	3.0000e+00	3.0000e+00	3.0000e+00	1.5000e+00	3.0000e+00	

B = Detector Channel
B-1	B-2	B-3	B-4	B-5	B-6	B-7	B-8	B-9	B-10	B-11	B-12	B-13	B-14	B-15	B-16	

1.0000e+01	1.0000e+01	1.0000e+01	1.4400e+00	1.0000e+01	1.0000e+01	1.5100e+00	1.9400e+00	1.0000e+01	1.0000e+01	1.9900e+00	2.4900e+00	2.4100e+00	2.9000e+00	1.0000e+01	2.9800e+00	




#DATA BEGINS
time	group	step	mark	flag	A-AC1	A-AC2	A-AC3	A-AC4	A-AC5	A-AC6	A-AC7	A-AC8	A-AC9	A-AC10	A-AC11	A-AC12	A-AC13	A-AC14	A-AC15	A-AC16	A-DC1	A-DC2	A-DC3	A-DC4	A-DC5	A-DC6	A-DC7	A-DC8	A-DC9	A-DC10	A-DC11	A-DC12	A-DC13	A-DC14	A-DC15	A-DC16	A-Ph1	A-Ph2	A-Ph3	A-Ph4	A-Ph5	A-Ph6	A-Ph7	A-Ph8	A-Ph9	A-Ph10	A-Ph11	A-Ph12	A-Ph13	A-Ph14	A-Ph15	A-Ph16	B-AC1	B-AC2	B-AC3	B-AC4	B-AC5	B-AC6	B-AC7	B-AC8	B-AC9	B-AC10	B-AC11	B-AC12	B-AC13	B-AC14	B-AC15	B-AC16	B-DC1	B-DC2	B-DC3	B-DC4	B-DC5	B-DC6	B-DC7	B-DC8	B-DC9	B-DC10	B-DC11	B-DC12	B-DC13	B-DC14	B-DC15	B-DC16	B-Ph1	B-Ph2	B-Ph3	B-Ph4	B-Ph5	B-Ph6	B-Ph7	B-Ph8	B-Ph9	B-Ph10	B-Ph11	B-Ph12	B-Ph13	B-Ph14	B-Ph15	B-Ph16	aux-1	digaux	

46663.180	1	1	0	768	0.039572	0.091073	0.10889	0.17862	0.10585	0.16341	0.20831	0.38841	0.098625	0.14553	0.21364	0.18656	0.063803	0.2741	0.22242	0.23995	-4.4896	-3.8375	-4.4667	-4.6062	-3.8312	-4.9771	-4.2188	-4.1833	-4.6917	-3.8854	-4.5125	-4.825	-3.8333	-4.9896	-4.3854	-4.1875	18.013	324.959	169.823	310.012	-0.985	0.446	-17.155	184.184	77.763	58.152	266.204	45.699	122.297	327.159	46.889	277.995	0.0011691	0.00084587	0.00019442	488.08	6.5651e-06	5.3178e-06	674.66	215.91	8.7672e-06	6.9316e-06	344.26	174.83	102.33	53.589	5.7384e-06	96.337	0.0012508	0.0013332	0.00036942	482.36	1.3791e-05	1.4861e-05	667.32	215.3	1.3634e-05	1.4774e-05	343.25	174.73	102.72	53.943	1.4423e-05	97.153	-32.083	53.871	62.904	-20.300	116.781	131.316	-20.409	-14.720	110.306	96.826	-15.335	-10.395	-9.610	-4.157	162.681	-6.037	-8191	255	
46663.277	1	1	0	0	0.25639	0.14635	0.17677	0.20401	0.13401	0.091182	0.066652	0.26188	0.061939	0.17315	0.28288	0.092468	0.1351	0.20954	0.23734	0.23296	-4.4313	-3.8438	-4.1937	-4.6167	-3.9437	-4.725	-4.3333	-4.0188	-4.85	-3.9896	-4.2958	-4.9125	-3.9313	-4.85	-4.4062	-4.0479	33.353	-17.537	167.887	31.496	157.983	4.899	-3.481	325.658	60.530	55.110	0.980	272.451	145.273	296.979	-28.093	258.056	0.0011736	0.00031117	0.00020127	484.36	9.9276e-06	5.5191e-06	668.94	215.79	9.2314e-06	4.4594e-06	341.71	174.64	102.18	53.333	6.7502e-06	96.032	0.0012623	0.0013187	0.00037319	480.61	1.3582e-05	1.4823e-05	663.97	214.57	1.3932e-05	1.4561e-05	341.67	174.05	102.47	53.83	1.4393e-05	96.924	323.282	53.172	37.031	-20.127	103.711	120.644	-20.248	-14.869	118.380	97.946	-15.366	-10.296	-9.282	-4.199	158.779	-6.326	-8191	255	
46663.371	1	1	0	0	0.29324	0.15853	0.11201	0.0724	0.14966	0.090658	0.30978	0.15772	0.24845	0.13844	0.30707	0.29551	0.077295	0.057733	0.18349	0.21867	-4.5208	-4.1062	-4.1271	-4.8812	-3.7062	-4.7312	-4.55	-3.8125	-4.8229	-3.9771	-4.2271	-4.8271	-3.8896	-4.6792	-4.5229	-4.0979	132.952	-29.837	-20.907	294.985	224.786	-21.154	282.561	253.544	199.296	173.973	311.972	308.393	253.475	-29.862	239.191	241.709	0.0011655	0.00037294	9.6284e-05	483.39	7.7947e-06	4.5033e-06	671.78	215.4	3.722e-06	6.1733e-06	341.59	174.96	102.25	53.206	5.756e-06	96.276	0.0012426	0.0013213	0.0003703	479.67	1.3462e-05	1.4591e-05	664.36	214.5	1.3441e-05	1.4443e-05	342.14	174.43	102.47	53.715	1.4232e-05	96.639	-29.642	60.597	9.055	-20.231	137.783	150.720	-20.231	-14.916	82.849	127.541	-15.692	-10.404	-9.459	-4.307	133.563	-6.230	-8191	255	
46663.469	1	1	0	0	0.14592	0.08342	0.10436	0.095252	0.12053	0.096838	0.28074	0.11361	0.21365	0.069463	0.3254	0.10175	0.025847	0.061315	0.17735	0.26475	-4.5458	-4.0458	-4.1458	-4.8167	-3.8646	-4.3208	-4.6396	-3.8875	-4.725	-4.2354	-4.0979	-4.875	-3.8854	-4.5646	-4.5667	-4.1229	326.307	288.601	261.266	122.367	50.393	56.294	278.492	194.486	206.531	81.849	311.248	-22.964	136.130	-7.014	276.794	248.278	0.0011567	0.00064651	0.00020626	483.99	1.0809e-05	3.2857e-06	671.4	215.54	9.1948e-06	5.8221e-06	343.48	174.25	101.99	53.201	4.8475e-06	96.031	0.001233	0.0012924	0.00036624	479.5	1.354e-05	1.4525e-05	662.89	214.58	1.3728e-05	1.4408e-05	342.38	174.14	102.35	53.679	1.441e-05	96.783	-29.997	45.585	69.288	-20.131	124.354	123.330	-20.162	-14.882	158.304	104.854	-15.582	-10.422	-9.648	-4.336	141.875	-6.239	-8191	255	
46663.566	1	1	0	0	0.081077	0.12782	0.12496	0.13233	0.36465	0.05174	0.10655	0.0328	0.22628	0.054358	0.095223	0.15518	0.17196	0.19567	0.18535	0.095127	-4.4021	-4.2542	-3.9688	-4.8146	-3.8896	-4.2792	-4.775	-3.9917	-4.6125	-4.4042	-3.925	-4.8396	-4.2771	-4.4938	-4.8313	-3.9875	228.840	304.023	-2.880	252.401	176.827	88.190	197.535	153.363	93.821	142.372	301.035	303.131	150.919	-30.505	165.074	-28.916	0.0011238	0.00050513	0.00012165	484.07	9.6899e-06	5.4403e-06	670.44	214.97	6.6909e-06	5.8766e-06	344.64	174.14	101.73	53.257	6.1505e-06	95.791	0.0012384	0.0012977	0.00036596	479.61	1.3508e-05	1.4446e-05	663.87	214.05	1.3433e-05	1.4473e-05	343.1	173.89	102.14	53.517	1.4246e-05	96.422	325.379	36.533	56.685	-20.370	137.226	90.276	-20.151	-14.724	155.492	95.221	-15.493	-9.985	-9.484	-4.241	155.080	-6.318	-8191	255	
46663.660	1	1	0	0	0.070712	0.3158	0.20485	0.26744	0.15207	0.19441	0.18897	0.20546	0.17268	0.23667	0.045946	0.18202	0.14979	0.0028883	0.045701	0.11734	-4.3271	-4.4042	-3.9667	-4.8313	-3.9354	-4.0542	-4.8771	-3.6958	-4.3896	-4.45	-3.8771	-4.7979	-4.2729	-4.3125	-4.7479	-4.1354	109.283	112.945	-21.785	294.503	199.741	142.001	244.028	211.017	203.502	106.800	126.767	2.346	293.656	97.787	214.226	269.666	0.0011593	0.0005915	0.00014165	483.95	9.2013e-06	5.7323e-06	671.97	214.82	7.4206e-06	7.2389e-06	342.23	174.33	101.69	53.002	8.5122e-06	95.107	0.0012411	0.0012961	0.00036812	479.08	1.3483e-05	1.4346e-05	661.92	213.83	1.3603e-05	1.4164e-05	341.57	173.39	102.03	53.349	1.4131e-05	95.878	323.531	31.389	55.783	-20.124	121.953	117.426	-20.106	-14.693	144.692	118.062	-15.517	-10.337	-9.533	-4.383	113.703	-6.290	-8191	255	
46663.781	1	1	0	0	0.055859	0.16266	0.18961	0.12468	0.14022	0.23083	0.018129	0.15336	0.095453	0.18897	0.10752	0.2099	0.1002	0.031822	0.16419	0.43982	-4.0896	-4.6521	-3.7687	-4.7979	-4.2063	-3.9562	-4.9313	-3.9437	-4.1333	-4.5979	-3.8875	-4.8792	-4.5729	-4.1292	-4.8125	-4.2021	204.820	32.725	298.718	282.032	221.519	170.320	202.136	255.779	235.708	-6.733	200.141	304.376	-0.778	-19.512	7.705	261.955	0.00125	0.00025327	0.00013228	482.5	6.0538e-06	6.3546e-06	665.46	214.14	8.6123e-06	7.7739e-06	340.89	172.81	100.89	52.59	3.9968e-06	94.699	0.0012305	0.0013027	0.00036455	478.13	1.3622e-05	1.4687e-05	660.27	212.83	1.3823e-05	1.4705e-05	340.14	172.37	101.23	52.996	1.4442e-05	95.445	326.138	51.844	92.731	-19.984	132.214	101.578	-20.192	-14.481	142.161	109.031	-15.549	-10.240	-9.550	-4.086	164.653	-6.229	-8191	255	
46663.879	1	1	0	0	0.021205	0.18058	0.17709	0.085783	0.038168	0.14602	0.071148	0.1285	0.15904	0.10536	0.090151	0.28407	0.31777	0.1885	0.096346	0.088997	-3.9667	-4.6292	-3.8854	-4.7958	-4.6229	-3.8625	-4.9458	-4.1229	-4.3542	-4.875	-3.8937	-4.6521	-4.5542	-4.0542	-4.8812	-4.4125	33.109	59.585	262.512	124.445	64.764	176.812	229.235	226.151	174.780	257.239	32.905	288.352	282.582	310.075	112.701	202.212	0.0011427	0.00053342	0.00019673	482.53	9.358e-06	7.4203e-06	668.43	212.96	7.5674e-06	6.5491e-06	339.91	172.86	100.94	52.577	5.8261e-06	95	0.0012647	0.0013269	0.00038119	478.04	1.3714e-05	1.4997e-05	659.73	212.05	1.4039e-05	1.4642e-05	339.8	172.55	101.46	52.983	1.4585e-05	95.725	323.753	35.757	58.133	-20.095	109.210	121.316	-20.041	-14.584	140.749	106.494	-15.412	-10.353	-9.466	-4.188	130.205	-6.128	-8191	255	
46663.973	1	1	0	0	0.032586	0.098784	0.10657	0.06257	0.20612	0.42788	0.18	0.31335	0.20474	0.070435	0.11937	0.23171	0.16294	0.21462	0.19048	0.24675	-3.7917	-4.7375	-3.825	-4.7458	-4.5687	-3.9271	-4.9792	-4.2688	-4.0062	-4.8292	-4.025	-4.6	-4.8063	-4.0042	-4.7917	-4.4688	133.104	142.471	54.634	218.829	129.598	240.342	219.162	223.137	263.107	133.907	251.164	284.923	273.605	-31.300	-27.020	275.882	0.0011334	0.00060179	0.00016434	483.98	1.0331e-05	5.4633e-06	667.65	214.31	1.0052e-05	7.6957e-06	342.71	173.74	101.45	52.719	6.2807e-06	94.873	0.0012467	0.0013481	0.00037433	478.44	1.3883e-05	1.5e-05	660.8	213.03	1.3903e-05	1.4892e-05	341.04	173.02	101.72	53.099	1.4644e-05	95.739	-30.575	54.444	71.464	-20.369	131.783	126.568	-20.113	-14.667	143.521	81.651	-15.391	-10.402	-9.435	-4.300	116.953	-6.171	-8191	255	
46664.070	1	1	0	0	0.07148	0.24775	0.21036	0.17708	0.056887	0.070869	0.075217	0.067341	0.09272	0.21848	0.27331	0.23132	0.14129	0.20057	0.15589	0.12479	-3.9	-4.7375	-3.8104	-4.4021	-4.7083	-4	-4.8479	-4.4979	-4.125	-4.8917	-3.9542	-4.1813	-4.7354	-3.8833	-4.6604	-4.5708	204.512	77.820	278.448	256.041	127.075	20.100	58.153	314.623	251.191	11.986	229.096	242.203	257.806	289.414	322.194	283.958	0.0011511	0.00068778	0.00016792	480.92	8.4592e-06	2.8152e-06	668.24	213.51	1.3159e-05	5.8568e-06	338.21	171.34	101.09	52.759	8.7062e-06	94.645	0.0012648	0.001337	0.00037923	477.48	1.4026e-05	1.5133e-05	659.89	212.18	1.4313e-05	1.5155e-05	338.43	171.59	101.3	53.095	1.4772e-05	95.497	-32.115	52.413	40.385	-20.304	136.364	110.181	-20.271	-14.715	164.389	119.967	-15.514	-10.337	-9.287	-4.214	137.147	-6.278	-8191	255	
46664.164	1	1	0	0	0.17427	0.3419	0.10297	0.041508	0.27041	0.17355	0.16062	0.20132	0.42282	0.27024	0.14045	0.2382	0.15356	0.13128	0.21176	0.26586	-3.5938	-4.6729	-4.0312	-4.2625	-4.7146	-3.9208	-4.5958	-4.4042	-3.9792	-4.9271	-4.25	-4.2396	-4.8375	-3.9792	-4.4479	-4.8521	238.650	239.057	310.602	128.434	154.451	117.538	-31.046	302.769	141.185	250.196	283.819	303.562	182.878	216.685	38.003	261.992	0.0011175	0.00061075	0.00019349	479.74	8.3295e-06	5.2888e-06	663.93	212.52	6.2202e-06	6.7071e-06	338.34	172.36	100.79	52.723	7.7649e-06	95.28	0.0012945	0.001367	0.00038234	477.18	1.4244e-05	1.5199e-05	658.07	211.59	1.4253e-05	1.5302e-05	337.95	171.72	101.11	53.071	1.4735e-05	95.655	319.874	37.528	70.380	-20.236	150.496	126.349	-20.232	-14.332	153.857	117.531	-15.578	-10.400	-9.374	-4.218	131.965	-6.236	-8191	255	
46664.262	1	1	0	0	0.24555	0.052806	0.0689	0.18481	0.15425	0.10135	0.20078	0.17289	0.11302	0.13335	0.22809	0.11332	0.20434	0.068075	0.13997	0.21021	-3.5083	-4.8125	-4.0917	-4.0875	-4.8417	-3.775	-4.4896	-4.7708	-3.8375	-4.6125	-4.3083	-4.3104	-4.8187	-4.1583	-4.3521	-4.9	37.531	82.709	107.574	232.419	310.480	326.743	250.616	240.348	31.050	96.610	200.782	10.593	247.403	232.974	290.352	314.830	0.0011554	0.00061595	9.379e-05	483.94	6.6456e-06	5.1587e-06	669.43	214.16	6.3051e-06	5.7096e-06	339.65	171.53	100.89	52.663	6.708e-06	95.173	0.00126	0.0013572	0.00038169	478.55	1.393e-05	1.4946e-05	660.65	212.51	1.4212e-05	1.5105e-05	338.84	171.71	101.3	53.089	1.4816e-05	95.669	-32.592	91.432	41.694	-20.181	118.948	143.011	-20.246	-14.655	139.224	108.425	-15.358	-10.655	-9.535	-4.394	134.399	-6.066	-8191	255	
46664.383	1	1	0	0	0.13949	0.058043	0.14582	0.22348	0.29976	0.15274	0.24548	0.18833	0.18274	0.10994	0.24218	0.16384	0.037274	0.19426	0.093603	0.193	-3.4646	-4.7542	-4.4375	-3.9708	-4.7125	-3.8812	-4.35	-4.9396	-3.7021	-4.6375	-4.6271	-3.9021	-4.8458	-4.0333	-4.2625	-4.8187	182.565	63.263	188.761	271.417	87.383	-27.800	241.163	81.357	228.300	190.273	286.352	155.092	151.284	50.871	108.812	253.306	0.0010984	0.00070434	0.00015752	484.12	9.7177e-06	6.3826e-06	667.16	213.07	1.0088e-05	7.0466e-06	338.33	172.35	101.34	52.711	6.747e-06	95.265	0.0012735	0.0013606	0.00038018	479.3	1.3771e-05	1.5189e-05	660.15	212.51	1.4251e-05	1.5128e-05	338.91	172	101.33	53.139	1.4744e-05	95.826	324.287	63.130	59.489	-20.181	128.918	143.057	-20.250	-14.771	112.020	144.318	-15.222	-10.362	-9.291	-4.149	155.639	-6.063	-8191	255	
46664.477	1	1	0	0	0.23397	0.13922	0.1716	0.066176	0.21382	0.10607	0.19097	0.23183	0.055712	0.22053	0.13083	0.012181	0.14293	0.14663	0.14219	0.3272	-3.5438	-4.4667	-4.4167	-3.8688	-4.8208	-4.0896	-4.4167	-4.8375	-3.8646	-4.4688	-4.7771	-4.0229	-4.8625	-4.1354	-4.0958	-5.0167	289.987	-25.703	167.193	298.185	-23.042	214.876	273.707	257.272	306.504	307.826	148.547	260.640	51.617	318.053	181.471	262.614	0.001132	0.0009558	0.0001294	482.67	7.4888e-06	7.656e-06	666.74	212.7	6.7344e-06	4.1509e-06	339.06	172.3	101.37	52.604	5.1513e-06	94.559	0.0012905	0.0013817	0.00038561	478.99	1.4262e-05	1.5258e-05	659.22	212.63	1.4333e-05	1.5318e-05	338.54	171.68	101.44	53.047	1.4865e-05	95.407	-31.013	62.378	60.050	-20.198	122.210	136.845	-20.502	-14.500	154.050	134.069	-15.391	-10.463	-9.412	-4.204	137.749	-6.169	-8191	255	
46664.570	1	1	0	0	0.20487	0.18539	0.060527	0.074124	0.27348	0.07614	0.18224	0.35999	0.25571	0.12856	0.11292	0.061082	0.25779	0.16584	0.048137	0.058879	-3.6479	-4.3958	-4.7042	-3.8417	-4.725	-4.1687	-4.2708	-4.8333	-3.9813	-4.2729	-4.5479	-3.8063	-4.7375	-4.3833	-4.0354	-5.0146	167.524	187.090	-10.582	260.178	71.212	245.675	309.242	255.557	111.931	206.561	7.458	293.318	248.953	-1.694	309.839	306.731	0.0011668	0.00054315	0.0001258	481.32	7.0868e-06	7.9515e-06	666.27	213.73	9.2807e-06	6.8547e-06	338.97	172.62	101.05	52.611	8.0844e-06	94.888	0.0012717	0.0013822	0.0003763	478.3	1.4151e-05	1.5216e-05	659.22	212.92	1.4306e-05	1.5323e-05	338.25	171.83	101.2	53.012	1.4897e-05	95.453	324.886	61.874	57.613	-20.312	134.807	111.925	-20.126	-14.743	126.128	121.027	-15.322	-10.437	-9.319	-4.207	117.715	-6.124	-8191	255	
46664.668	1	1	0	0	0.12865	0.050858	0.061078	0.37636	0.17618	0.23018	0.062998	0.024391	0.11067	0.22994	0.18484	0.28567	0.087129	0.11602	0.079974	0.13696	-3.9604	-4.2708	-4.425	-3.8875	-4.5958	-4.4187	-4.0479	-4.85	-3.9542	-4.2396	-4.6958	-3.8375	-4.7271	-4.4521	-3.9	-4.9146	-30.934	235.936	1.368	251.153	177.968	168.309	143.205	224.111	-5.506	91.251	219.559	305.316	263.154	303.409	12.546	290.547	0.0012561	0.00054346	0.00019875	481.56	2.2505e-06	6.6103e-06	666.47	213.89	6.4488e-06	7.1798e-06	339.35	172.37	101.04	52.79	8.5917e-06	95.235	0.0012944	0.0013734	0.00038275	478.36	1.3836e-05	1.5358e-05	659.13	212.91	1.4336e-05	1.5201e-05	338.96	171.95	101.35	53.106	1.4853e-05	95.738	325.463	86.319	57.041	-20.207	153.650	97.912	-20.300	-14.655	119.387	114.051	-15.483	-10.336	-9.371	-4.237	106.039	-6.135	-8191	255	
46664.742	1	1	0	0	0.11988	0.13817	0.2512	0.16514	0.26336	0.070204	0.15146	0.13427	0.12601	0.16496	0.13927	0.3676	0.18112	0.1241	0.13843	0.13329	-3.7854	-4.0208	-4.8146	-3.8833	-4.4187	-4.4812	-4.0125	-4.9062	-4.0979	-4.0042	-4.9271	-4.0563	-4.5042	-4.7	-3.6271	-4.825	95.670	253.149	213.130	-20.035	107.945	207.956	310.776	260.533	294.730	187.284	238.749	267.703	195.548	306.173	-13.814	272.376	0.0011884	0.00075893	0.0001441	485.26	9.7665e-06	4.7288e-06	670.85	214	5.0745e-06	4.6978e-06	339.05	172.57	101.29	53.001	4.4029e-06	95.805	0.0012865	0.0013583	0.00037964	479.55	1.4087e-05	1.5052e-05	660.64	212.84	1.4192e-05	1.5032e-05	338.33	172.28	101.59	53.46	1.4844e-05	96.375	-30.521	81.379	65.522	-20.110	137.475	109.661	-20.207	-14.648	112.923	117.999	-15.453	-10.314	-9.476	-4.128	100.296	-6.294	-8191	255	
46664.859	1	1	0	0	0.048981	0.15755	0.10021	0.11372	0.15707	0.12136	0.12303	0.16324	0.06161	0.1202	0.053776	0.21031	0.30786	0.26883	0.22216	0.15868	-3.9188	-3.9813	-4.8875	-3.9938	-4.3708	-4.7146	-3.9	-4.7708	-4.3125	-3.9708	-5.0125	-4.1208	-4.3292	-4.8292	-3.8208	-4.7479	-8.016	63.741	182.482	313.217	315.498	186.242	152.946	262.532	171.005	200.432	181.974	-19.789	-17.207	315.312	211.612	283.389	0.0010912	0.00064184	0.00017073	483.93	7.1831e-06	3.8311e-06	667.86	215.08	1.1689e-05	3.1341e-06	338.56	173.25	101.18	53.093	8.0088e-06	95.315	0.0012749	0.0013633	0.00037992	479.97	1.42e-05	1.5143e-05	660.46	213.57	1.4317e-05	1.5225e-05	338.9	172.32	101.6	53.459	1.4931e-05	96.086	-28.402	45.692	59.902	-20.500	127.973	128.370	-20.143	-14.704	143.171	99.050	-15.214	-10.263	-9.677	-4.231	146.760	-6.333	-8191	255	
46664.957	1	1	0	0	0.18109	0.18332	0.19231	0.089537	0.19138	0.26225	0.10449	0.16717	0.16162	0.12365	0.10813	0.072339	0.19133	0.19733	0.22119	0.39065	-3.9562	-3.9292	-4.9479	-4.1312	-4.2083	-4.6458	-4.0208	-4.6625	-4.6583	-3.9229	-4.7833	-4.2083	-4.0958	-4.9313	-3.8417	-4.7542	157.377	-29.111	131.424	212.456	304.719	120.955	123.374	267.738	173.694	86.364	-14.497	9.037	304.851	299.552	123.953	293.030	0.0010484	0.00059847	0.00015063	485.79	7.1173e-06	2.9737e-06	668.88	214.95	7.8005e-06	6.8944e-06	340.91	172.73	101.35	52.969	4.6694e-06	94.983	0.001257	0.0013517	0.00037933	480.59	1.3799e-05	1.5056e-05	660.39	213.47	1.4031e-05	1.5047e-05	338.86	171.98	101.61	53.33	1.4633e-05	95.817	-32.147	32.593	42.179	-20.262	126.928	81.088	-20.271	-14.604	130.374	103.843	-15.442	-10.503	-9.474	-4.191	128.883	-6.397	-8191	255	
46665.055	1	1	0	0	0.11156	0.1155	0.16169	0.061926	0.13807	0.12779	0.2353	0.24039	0.071895	0.066328	0.092001	0.084585	0.17406	0.30894	0.2958	0.05247	-4.2021	-3.8438	-4.8812	-4.3292	-4.2042	-4.9479	-4.0042	-4.3896	-4.5813	-3.7167	-4.9313	-4.2875	-4.0625	-4.9833	-3.9792	-4.4292	325.540	257.320	311.173	189.863	258.314	281.124	315.122	-32.344	241.494	9.526	300.459	272.147	295.469	305.741	122.767	196.270	0.0011394	0.00089829	0.00011389	484.89	5.7031e-06	5.3552e-06	668.4	214.9	9.498e-06	4.1449e-06	340.16	172.19	101.26	53.024	5.5447e-06	95.61	0.0012569	0.0013506	0.00037731	479.77	1.3781e-05	1.4902e-05	659.13	213.44	1.4052e-05	1.5017e-05	338.7	172.02	101.67	53.448	1.4559e-05	96.18	-29.171	59.381	58.495	-20.369	96.382	147.335	-20.296	-14.698	140.495	91.821	-15.519	-10.326	-9.287	-4.088	89.030	-6.294	-8191	255	
46665.148	1	1	0	0	0.3343	0.18172	0.12262	0.23014	0.034127	0.1026	0.15974	0.22108	0.19421	0.12925	0.2731	0.09536	0.11967	0.2559	0.13238	0.16546	-4.3729	-3.6833	-4.7146	-4.4458	-3.9208	-4.8729	-4.1271	-4.4417	-4.65	-3.9083	-4.6458	-4.7458	-3.9854	-4.8438	-4.075	-4.2083	83.513	318.656	27.383	304.849	3.207	116.517	251.651	-15.648	82.647	120.563	-20.302	242.287	258.493	6.795	-4.457	250.983	0.00099965	0.00060238	0.00017844	485.57	9.0998e-06	3.8727e-06	668.76	214.78	3.3408e-06	4.9465e-06	339.77	173.42	101.61	53.065	6.4302e-06	95.822	0.0012675	0.0013439	0.00037947	480.44	1.3886e-05	1.4902e-05	661.04	213.62	1.3852e-05	1.4928e-05	339.14	172.75	101.81	53.585	1.4548e-05	96.561	322.638	38.638	77.782	-20.662	111.850	146.136	-20.080	-14.571	182.643	75.895	-15.419	-10.230	-9.571	-4.013	126.231	-6.287	-8191	255	
46665.270	1	1	0	0	0.15613	0.015805	0.088203	0.21244	0.067634	0.068811	0.023026	0.27026	0.30243	0.165	0.077705	0.14117	0.17508	0.25885	0.21978	0.11536	-4.4208	-3.9062	-4.5	-4.5083	-3.7792	-4.925	-4.2083	-4.1708	-4.6062	-3.9125	-4.4688	-4.5687	-3.8688	-4.9688	-4.1667	-4.1292	146.379	161.548	272.647	292.309	265.240	266.906	17.064	295.367	92.183	323.515	219.452	218.020	2.187	-21.140	110.733	267.832	0.0011474	0.00057814	0.00011985	485.39	8.0414e-06	2.8029e-06	669.92	215.07	9.8343e-06	5.8729e-06	339.65	173.13	101.19	53.329	8.3296e-06	95.84	0.0012535	0.001327	0.00036997	480.42	1.3777e-05	1.4969e-05	660.95	213.55	1.403e-05	1.4891e-05	339.81	172.9	101.81	53.687	1.4673e-05	96.525	-31.917	59.506	48.476	-20.049	108.413	135.070	-20.241	-14.807	152.036	90.077	-15.474	-10.314	-9.375	-4.061	133.012	-6.241	-8191	255	
46665.344	1	1	0	0	0.28767	0.15864	0.17251	0.12645	0.056385	0.037083	0.30438	0.066021	0.087028	0.14088	0.22141	0.16125	0.13209	0.19021	0.047789	0.24552	-4.5917	-3.8688	-4.3979	-4.625	-3.825	-4.7854	-4.3063	-4.1583	-4.75	-4	-4.4083	-4.8729	-3.9167	-4.8083	-4.4604	-4.0667	172.984	103.551	311.334	194.663	220.792	267.894	-21.946	294.534	125.039	183.287	-32.197	262.797	283.744	294.663	203.484	246.078	0.00113	0.00042061	0.00023162	485.45	8.2914e-06	5.9311e-06	667.51	213.77	9.2648e-06	3.3434e-06	339.77	172.35	101.23	53.269	6.0811e-06	95.549	0.0012573	0.0013369	0.00037803	479.29	1.3672e-05	1.4663e-05	659.05	213.3	1.3987e-05	1.4724e-05	338.6	172.15	101.59	53.627	1.4203e-05	96.25	-32.349	70.398	56.936	-20.222	123.493	120.897	-20.303	-14.744	125.643	148.258	-15.388	-10.472	-9.616	-4.384	140.142	-6.190	-8191	255	
46665.461	1	1	0	0	0.13147	0.2336	0.20281	0.23904	0.099816	0.1158	0.12094	0.029132	0.040048	0.19981	0.24965	0.32761	0.14908	0.2115	0.23173	0.18441	-4.5771	-3.9604	-4.2708	-4.7729	-3.8271	-4.6354	-4.5625	-4.0479	-4.8396	-4.1479	-4.3979	-4.9854	-3.9938	-4.6146	-4.4708	-4.0271	52.787	136.018	159.353	275.311	33.785	70.794	119.663	212.502	123.074	89.077	298.525	253.702	323.884	-32.270	-9.952	284.872	0.0011352	0.00071667	0.00013755	483.24	6.1653e-06	6.853e-06	669.08	214.54	6.0398e-06	4.2283e-06	338.98	172.77	101.09	53.041	6.0053e-06	95.363	0.001247	0.0013069	0.00036971	477.67	1.3543e-05	1.4587e-05	658.02	213.12	1.4078e-05	1.4759e-05	338.17	172.11	101.47	53.552	1.4403e-05	96.152	325.235	64.448	66.719	-20.225	108.546	73.440	-20.264	-14.714	120.280	112.857	-15.428	-10.337	-9.591	-4.279	100.943	-6.307	-8191	255	
46665.559	1	1	0	0	0.23468	0.098593	0.42838	0.069671	0.13224	0.047283	0.16084	0.12019	0.14524	0.23114	0.27063	0.17228	0.1651	0.15487	0.09575	0.33031	-4.6042	-3.9813	-4.0896	-4.8521	-3.7646	-4.5646	-4.5542	-3.9667	-4.7854	-4.1708	-4.1375	-4.9125	-4.1604	-4.4938	-4.4458	-3.8958	17.670	55.688	253.239	-4.200	304.978	183.408	246.185	286.598	12.939	34.036	246.301	-3.144	93.579	24.722	270.311	283.651	0.0011554	0.00076664	0.00013108	483.29	6.4333e-06	4.8623e-06	664.52	213.45	6.6912e-06	7.8572e-06	337.42	172.14	101.35	52.969	6.0368e-06	95.463	0.0012382	0.0013148	0.00037182	477.65	1.3453e-05	1.4662e-05	656.63	212.52	1.3684e-05	1.461e-05	337.92	172.11	101.35	53.411	1.4286e-05	96.137	323.666	68.918	20.972	-20.026	128.316	106.356	-20.138	-14.731	143.458	115.740	-15.436	-10.294	-9.463	-4.113	122.550	-6.167	-8191	255	
46665.652	1	1	0	0	0.11165	0.17976	0.13712	0.11459	0.20385	0.02663	0.11508	0.11224	0.24563	0.12368	0.11284	0.048123	0.13734	0.20155	0.084936	0.14413	-4.4708	-4.3271	-4.1625	-4.7583	-3.8896	-4.4292	-4.6875	-3.7208	-4.6646	-4.2271	-4.0771	-4.8604	-3.9792	-4.4313	-4.7604	-4.1625	274.835	3.002	29.043	280.139	85.851	-7.627	212.941	268.197	170.588	309.204	229.256	298.631	260.456	314.446	200.725	283.479	0.0010554	0.00065624	0.00013073	479.96	7.0818e-06	4.9421e-06	664.74	212.96	7.0545e-06	5.1831e-06	339.03	172.31	100.27	52.996	8.1766e-06	95.577	0.0012437	0.0013198	0.00036918	476.62	1.3552e-05	1.4614e-05	656.77	212.16	1.3453e-05	1.4616e-05	338.37	172.02	101.02	53.427	1.4281e-05	96.155	320.857	46.215	76.384	-19.965	110.961	123.040	-20.137	-14.486	146.949	123.599	-15.769	-10.285	-9.343	-4.345	135.564	-6.349	-8191	255	
46665.750	1	1	0	0	0.13595	0.30369	0.18586	0.10898	0.066978	0.1194	0.16496	0.10778	0.038663	0.13005	0.2309	0.16306	0.1751	0.21967	0.17762	0.25151	-4.4375	-4.3688	-3.8667	-4.9792	-3.9208	-4.2479	-4.8396	-3.8563	-4.6583	-4.4083	-4.1729	-4.8875	-3.9625	-4.2771	-4.6937	-3.9083	127.936	62.150	263.838	109.595	-22.892	106.846	136.175	82.289	157.041	285.310	-28.731	232.826	-1.241	293.418	81.765	273.710	0.0011378	0.00031968	0.00018863	481.73	7.2276e-06	6.2845e-06	665.16	213.39	1.0153e-05	3.4594e-06	337.65	171.63	100.19	52.897	5.9337e-06	95.14	0.0012161	0.0013	0.00035999	476.55	1.3532e-05	1.4566e-05	655.92	212.07	1.3822e-05	1.4479e-05	337.18	171.54	100.89	53.348	1.434e-05	95.662	-27.972	57.092	55.304	-20.338	108.748	123.314	-20.153	-14.707	153.012	99.330	-15.588	-10.386	-9.467	-4.258	144.167	-6.174	-8191	255	
46665.871	1	1	0	0	0.15475	0.34297	0.10324	0.037693	0.091874	0.13038	0.22642	0.17588	0.16585	0.14833	0.35449	0.2794	0.22452	0.29303	0.26297	0.2295	-4.225	-4.6083	-3.8958	-4.8125	-4.0437	-3.9125	-4.7479	-3.8958	-4.4854	-4.6708	-3.925	-4.9042	-4.2042	-4.05	-4.825	-4.0292	146.137	59.765	138.167	210.471	188.366	89.453	266.284	298.782	203.890	188.396	292.725	323.086	324.297	236.785	215.988	284.421	0.0011486	0.00063544	0.00015035	482.46	6.0959e-06	6.6547e-06	663.34	212.85	4.9158e-06	5.3432e-06	339.33	172.23	100.55	52.632	7.4139e-06	94.614	0.0012427	0.0012931	0.00036774	476.39	1.3562e-05	1.4539e-05	655.02	211.75	1.371e-05	1.4306e-05	337.58	171.75	100.9	53.107	1.3967e-05	95.324	323.305	66.476	72.551	-20.041	137.594	114.355	-19.973	-14.662	180.617	110.334	-15.504	-10.424	-9.435	-4.217	136.789	-6.158	-8191	255	
46665.965	1	1	0	0	0.14193	0.097313	0.119	0.2017	0.27758	0.16915	0.27485	0.18911	0.078884	0.13194	0.080247	0.051368	0.12509	0.058507	0.245	0.16897	-4.1146	-4.5917	-3.7917	-4.6917	-4.3938	-4.0646	-4.9	-4.1021	-4.1771	-4.6896	-3.9083	-4.7875	-4.4792	-4.0604	-4.8979	-4.3208	321.726	-30.903	192.011	58.691	190.169	-25.864	137.179	266.475	108.784	224.160	72.736	-4.118	247.901	316.148	28.699	282.428	0.0011357	0.00061471	8.6689e-05	479.81	8.3539e-06	3.4795e-06	667.03	212.48	3.7057e-06	4.4028e-06	339.21	172.11	100.51	52.691	6.6711e-06	94.778	0.0012284	0.0013084	0.00036891	475.62	1.345e-05	1.4553e-05	655.26	211.77	1.3501e-05	1.4377e-05	337.74	171.74	100.79	53.067	1.4139e-05	95.428	-31.136	62.729	66.101	-20.383	120.532	94.724	-20.329	-14.457	157.203	110.277	-15.544	-10.436	-9.327	-4.288	159.555	-6.215	-8191	255	
46666.062	1	1	0	0	0.21881	0.1143	0.071307	0.21364	0.11659	0.092584	0.421	0.18179	0.14602	0.15871	0.17758	0.095059	0.12593	0.25905	0.19514	0.021724	-4.0542	-4.7063	-3.7333	-4.6333	-4.4688	-3.7854	-4.9292	-4.0917	-4.2396	-4.7208	-3.825	-4.7479	-4.5625	-3.8646	-4.6937	-4.3583	-21.459	211.821	125.995	222.645	172.093	293.905	150.000	290.160	-23.688	295.610	309.697	23.027	-7.458	-13.255	182.206	273.247	0.0010915	0.00063779	4.6885e-05	480.89	7.4596e-06	7.5605e-06	664.5	212.61	7.7955e-06	3.5951e-06	338.74	172.71	100.84	52.523	7.182e-06	94.624	0.0012241	0.0012892	0.00036863	476.19	1.3412e-05	1.4605e-05	656.58	212.02	1.3553e-05	1.4216e-05	337.93	172.06	101.07	53.078	1.426e-05	95.425	-32.295	25.391	30.478	-20.021	124.634	103.353	-20.267	-14.668	138.859	92.113	-15.559	-10.301	-9.381	-4.218	131.839	-6.049	-8191	255	
46666.156	1	1	0	0	0.041143	0.036905	0.297	0.15824	0.13231	0.15556	0.087533	0.16311	0.11531	0.0092935	0.15691	0.14637	0.3089	0.15746	0.36412	0.17169	-3.6708	-4.8646	-3.6708	-4.4833	-4.6583	-3.7812	-4.8625	-4.3167	-3.8646	-4.7854	-3.9417	-4.4125	-4.7812	-4.0604	-4.7104	-4.4854	324.929	-31.777	-6.902	280.570	227.077	147.376	276.215	-16.640	31.376	285.588	197.584	-31.272	303.923	318.186	278.348	139.270	0.0011891	0.00045102	0.00014484	479.94	4.0044e-06	8.4815e-06	663.16	213.63	1.1709e-05	3.435e-06	338.81	171.47	100.66	52.572	6.1153e-06	94.367	0.001234	0.0013046	0.00036871	476.27	1.3346e-05	1.4247e-05	655.37	212.16	1.3531e-05	1.4278e-05	338.07	171.32	100.9	52.979	1.443e-05	95.135	-29.843	84.749	55.485	-20.383	115.428	90.469	-20.096	-14.496	149.539	120.524	-15.583	-10.414	-9.433	-4.352	134.884	-6.266	-8191	255	
46666.254	1	1	0	0	0.056765	0.038982	0.041225	0.086106	0.25172	0.036365	0.07029	0.13678	0.20568	0.19413	0.16294	0.2236	0.086796	0.10105	0.21651	0.2051	-3.6437	-4.7979	-4.0813	-4.3167	-4.6146	-3.7229	-4.7979	-4.5062	-3.7896	-4.7458	-4.0979	-4.4812	-4.7604	-4.0042	-4.6667	-4.5729	185.710	-0.944	224.002	140.440	200.632	-11.420	265.114	160.932	174.522	313.324	205.350	306.179	14.416	92.609	139.049	321.007	0.001152	0.00062006	0.00013449	483.15	9.1626e-06	7.8411e-06	665.92	212.72	9.1694e-06	5.4633e-06	338.2	171.11	100.29	52.494	7.3222e-06	93.865	0.0012253	0.0012895	0.00036059	476.73	1.3335e-05	1.4463e-05	657.04	212.04	1.3502e-05	1.4472e-05	337.34	171.17	100.75	52.904	1.4077e-05	94.763	-32.064	50.954	14.887	-20.358	100.896	118.512	-20.269	-14.512	157.181	122.046	-15.458	-10.663	-9.304	-4.264	128.718	-6.017	-8191	255	
46666.352	1	1	0	0	0.23804	0.19754	0.10882	0.38074	0.076925	0.080422	0.12505	0.20069	0.099641	0.24008	0.28879	0.15896	0.18588	0.11007	0.25017	0.15742	-3.5458	-4.8854	-4.0938	-4.2417	-4.8417	-3.7667	-4.6813	-4.5542	-3.9396	-4.6271	-4.3375	-4.1479	-4.8771	-3.9479	-4.4792	-4.7708	279.861	218.110	276.065	190.205	232.400	282.431	31.141	305.816	78.588	60.365	224.288	293.866	297.301	-21.933	190.427	296.315	0.0011666	0.0006708	0.0001396	481.28	7.9406e-06	7.3122e-06	663.65	212.49	6.357e-06	4.96e-06	337.69	171.94	100.3	52.285	6.9572e-06	94.168	0.0012319	0.0012766	0.00036761	476.48	1.3347e-05	1.4548e-05	656.28	212	1.3499e-05	1.4521e-05	337.42	171.31	100.79	52.756	1.4157e-05	94.825	324.188	52.577	26.828	-20.463	139.224	78.594	-20.257	-14.595	139.054	109.422	-15.316	-10.616	-9.147	-4.069	145.908	-6.229	-8191	255	
46666.445	1	1	0	0	0.058639	0.20482	0.013512	0.24594	0.12365	0.20138	0.039577	0.16723	0.065144	0.13872	0.24143	0.16237	0.18005	0.2083	0.097166	0.048201	-3.4292	-4.6042	-4.3104	-4.1125	-4.7979	-3.7771	-4.3479	-4.7354	-3.7833	-4.6625	-4.4833	-4.1521	-4.9	-4.0542	-4.3125	-4.9021	38.870	274.556	51.972	12.970	320.029	93.280	-12.415	-16.081	-31.059	52.245	-5.636	288.675	190.403	35.298	204.910	7.543	0.0011389	0.00044793	0.00016735	482.82	1.0446e-05	9.0657e-06	665.58	213.24	7.5507e-06	1.9862e-06	338.3	171.83	100.58	52.298	4.5335e-06	94.398	0.0012282	0.0013104	0.00037313	477.25	1.3491e-05	1.4714e-05	658.27	212.28	1.3811e-05	1.4624e-05	338.05	171.79	100.98	52.721	1.4189e-05	94.896	323.669	60.146	46.456	-20.115	129.551	114.431	-20.334	-14.513	122.633	64.646	-15.515	-10.494	-9.287	-4.142	119.177	-6.239	-8191	255	
46666.566	1	1	0	0	0.18028	0.19085	0.19417	0.052864	0.10601	0.24061	0.17688	0.048671	0.093784	0.2214	0.032727	0.28763	0.16466	0.17236	0.2272	0.38448	-3.65	-4.6979	-4.3167	-3.9042	-4.7708	-4.2667	-4.4229	-4.8313	-3.9188	-4.6271	-4.6438	-3.9958	-4.8208	-4.3708	-4.1333	-4.8812	79.279	70.965	103.520	-22.240	158.724	117.346	-18.456	257.849	128.247	180.523	154.680	278.631	-16.601	21.482	153.132	223.979	0.0011741	0.00048373	0.00011613	480.11	6.581e-06	6.7179e-06	668.64	212.93	8.0635e-06	7.0629e-06	338.32	172.02	100.35	52.129	5.3393e-06	93.857	0.001237	0.0013049	0.0003608	478.05	1.344e-05	1.4491e-05	659.3	212.36	1.3768e-05	1.4479e-05	338.1	171.64	100.99	52.589	1.4089e-05	94.528	-30.618	40.253	47.280	-20.208	114.938	122.377	-20.191	-14.685	131.095	85.309	-15.210	-10.216	-9.287	-4.120	152.697	-6.116	-8191	255	
46666.641	1	1	0	0	0.077593	0.057992	0.059806	0.092259	0.25107	0.13001	0.14453	0.14148	0.088992	0.085128	0.31446	0.22738	0.035955	0.30878	0.12065	0.21038	-3.5729	-4.6062	-4.6458	-3.9	-4.7271	-4.0458	-4.0917	-4.8521	-4.0437	-4.4417	-4.6875	-4.0271	-4.7875	-4.3583	-4.1458	-4.95	61.699	194.320	164.540	184.172	273.783	165.222	213.153	227.023	113.746	107.510	215.811	277.898	153.264	256.988	271.255	244.138	0.0011175	0.00065124	0.00018949	479.71	1.1503e-05	1.8248e-06	666.23	213.78	4.0073e-06	5.6339e-06	337.29	171.31	100.03	51.894	4.7504e-06	93.289	0.001229	0.0012986	0.00036377	476.88	1.3577e-05	1.4481e-05	657.51	212.55	1.3731e-05	1.4538e-05	337.46	171.11	100.75	52.362	1.4278e-05	94.029	324.374	79.218	63.457	-20.177	127.464	77.031	-20.426	-14.656	145.681	106.227	-15.482	-10.401	-9.390	-4.131	143.979	-6.112	-8191	255	
46666.734	1	1	0	0	0.13577	0.29389	0.094626	0.23313	0.22779	0.1704	0.15039	0.10126	0.11956	0.19971	0.033717	0.025526	0.23976	0.29154	0.1312	0.2286	-3.5729	-4.3187	-4.6042	-3.8438	-4.6208	-4.3042	-4.0542	-4.7792	-3.9021	-4.2708	-4.7104	-4.0021	-4.7312	-4.4	-3.8979	-5.1208	306.332	169.195	216.508	77.727	317.829	59.690	14.774	293.910	118.858	134.886	83.098	244.527	270.002	185.289	45.434	168.934	0.0010885	0.00047952	0.00017479	479.95	8.701e-06	3.4116e-06	665.59	213.22	8.2006e-06	4.669e-06	337.4	170.81	100.15	51.981	5.787e-06	93.28	0.0012276	0.0012937	0.00036742	476.76	1.3325e-05	1.4534e-05	658.08	212.01	1.3619e-05	1.4503e-05	337.34	170.83	100.74	52.292	1.4103e-05	94.01	-30.898	47.981	76.082	-20.526	126.974	139.784	-20.142	-14.508	124.218	73.862	-15.412	-10.237	-9.511	-4.262	109.798	-6.153	-8191	255	
46666.832	1	1	0	0	0.054232	0.001224	0.091096	0.19724	0.18127	0.17053	0.27096	0.076607	0.158	0.13318	0.093031	0.051663	0.055471	0.079942	0.051611	0.13007	-3.7417	-4.3562	-4.7625	-3.7812	-4.4833	-4.3833	-3.9667	-4.8729	-4.1625	-4.0167	-4.875	-4.0271	-4.5354	-4.6188	-3.6958	-4.9062	45.958	180.000	275.850	273.669	250.562	69.114	244.294	-13.041	70.350	122.109	207.485	292.548	167.657	300.693	199.028	280.244	0.0011498	0.00064973	0.00018347	482.2	1.0361e-05	6.971e-06	666.01	213.24	4.3539e-06	4.2809e-06	340.32	172.06	100.09	51.837	3.7067e-06	93.404	0.0012208	0.0013049	0.00036048	478.66	1.3591e-05	1.4366e-05	659.27	212.34	1.3587e-05	1.4346e-05	338.65	171.37	100.91	52.324	1.4102e-05	94.192	327.412	42.716	64.094	-20.277	136.258	98.935	-19.999	-14.412	155.149	99.341	-15.243	-10.237	-9.341	-4.221	119.558	-6.137	-8191	255	
46666.949	1	1	0	0	0.25745	0.12124	0.10393	0.27057	0.16517	0.0398	0.050589	0.089561	0.066377	0.089819	0.14161	0.22999	0.17037	0.27362	0.09485	0.15537	-3.9458	-3.9958	-4.6604	-4	-4.4313	-4.5604	-3.9771	-4.8	-4.25	-4.0083	-4.925	-4.0854	-4.4938	-4.7208	-3.6417	-4.8208	154.978	133.674	195.693	273.406	200.129	81.334	239.066	238.214	134.380	286.639	289.688	24.598	-29.055	283.449	110.654	285.142	0.00119	0.00079262	0.00018826	482.89	6.2281e-06	2.1997e-06	667.67	213.25	9.6929e-06	4.824e-06	339.53	170.91	100.5	51.717	6.5676e-06	93.593	0.0012377	0.0012951	0.00036338	478.32	1.3531e-05	1.4401e-05	660.2	212.37	1.3566e-05	1.4422e-05	338.57	171.01	100.89	52.329	1.4189e-05	94.178	-32.056	58.303	56.101	-20.338	104.110	116.670	-20.145	-14.608	136.789	106.287	-15.631	-10.309	-9.480	-4.220	127.985	-6.103	-8191	255	
46667.047	1	1	0	0	0.17444	0.23668	0.10997	0.057728	0.072884	0.016468	0.15644	0.12611	0.11899	0.0057684	0.092848	0.16635	0.1623	0.21441	0.20644	0.1542	-4.0021	-3.8604	-4.8187	-3.9958	-4.3375	-4.8125	-3.8479	-4.7792	-4.4292	-3.9021	-4.8979	-4.1062	-4.2312	-4.8521	-3.7104	-4.7875	316.202	34.617	51.930	160.410	128.536	298.779	10.387	95.702	293.713	174.030	172.452	4.321	303.045	-21.251	140.712	-18.292	0.001166	0.00071083	0.00016783	483.88	7.4888e-06	8.3179e-06	664.13	213.25	6.453e-06	5.0388e-06	338.18	170.88	99.887	51.793	7.3309e-06	93.145	0.0012303	0.0012917	0.00036333	479.88	1.3568e-05	1.4241e-05	658.82	212.64	1.3421e-05	1.4716e-05	337.92	170.84	100.69	52.265	1.4386e-05	93.874	-29.946	43.232	54.073	-20.250	91.100	124.157	-20.378	-14.516	156.063	109.954	-15.490	-10.383	-9.503	-4.235	144.342	-6.182	-8191	255	
46667.141	1	1	0	0	0.025756	0.32691	0.10446	0.20014	0.17737	0.17651	0.048765	0.094661	0.16933	0.036575	0.16973	0.26261	0.093497	0.18983	0.13559	0.21217	-4.1333	-3.9417	-4.7583	-4.0729	-4.1292	-4.775	-3.9208	-4.4229	-4.5417	-3.775	-5.0312	-4.4396	-4.0104	-4.8875	-3.8583	-4.5917	174.208	61.443	238.845	224.487	-16.125	278.756	1.459	253.910	46.488	241.512	282.579	226.232	311.717	271.964	313.466	227.263	0.0010803	0.00062437	0.000133	483.51	8.4566e-06	5.4376e-06	665.12	213.59	5.7945e-06	4.6371e-06	338.96	171.51	100.39	51.859	5.7837e-06	93.305	0.0012232	0.0013001	0.0003636	479.05	1.3545e-05	1.4441e-05	658.81	212.41	1.3479e-05	1.4522e-05	338.41	171.02	100.68	52.367	1.4241e-05	93.999	326.078	74.817	58.690	-20.132	105.255	124.422	-20.150	-14.594	121.279	114.856	-15.465	-10.192	-9.198	-4.061	129.701	-6.122	-8191	255	
46667.238	1	1	0	0	0.13263	0.16178	0.036891	0.057626	0.12939	0.2075	0.2089	0.22924	0.10621	0.21493	0.10327	0.32976	0.10057	0.22853	0.050279	0.36887	-4.3271	-3.7896	-4.7875	-4.2792	-3.8312	-4.9625	-4.175	-4.2875	-4.5833	-3.7667	-4.6521	-4.4313	-4.0563	-4.8562	-3.9167	-4.4271	-6.720	262.084	301.255	201.648	120.501	108.969	222.366	267.492	84.406	177.275	27.673	284.787	30.113	243.089	130.178	313.371	0.0012209	0.00069846	0.00018357	481.27	8.4843e-06	5.6895e-06	668	213.11	8.4507e-06	6.6522e-06	337	171.05	100.03	51.708	5.1499e-06	93.383	0.0012321	0.0012962	0.00036704	478.35	1.3512e-05	1.4366e-05	659.99	212.17	1.3593e-05	1.4421e-05	338.2	171.14	100.77	52.245	1.4342e-05	94.038	-31.759	46.327	23.212	-20.367	125.256	125.433	-19.975	-14.537	153.558	113.511	-15.546	-10.222	-9.439	-3.929	130.465	-6.063	-8191	255	
46667.336	1	1	0	0	0.10172	0.081301	0.19714	0.067764	0.067403	0.13785	0.27578	0.11315	0.17666	0.19779	0.19888	0.30617	0.29048	0.25581	0.13782	0.25267	-4.4458	-3.7188	-4.7604	-4.4521	-3.8604	-4.8333	-4.2271	-4.2583	-4.6354	-3.8729	-4.6542	-4.4854	-4.0417	-4.9854	-4.0729	-4.1354	125.815	326.258	162.711	145.126	68.998	148.146	242.896	-19.644	313.435	276.051	263.831	232.098	195.183	280.672	249.301	251.090	0.0012162	0.00057303	0.00020199	482.28	5.9025e-06	5.7361e-06	669.77	213.12	1.0166e-05	5.4527e-06	338.97	171.38	100.32	51.643	6.048e-06	93.049	0.0012295	0.0013052	0.00036779	479.51	1.3474e-05	1.4476e-05	661.2	212.49	1.3443e-05	1.4509e-05	338.49	171.31	100.77	52.176	1.4322e-05	93.896	-30.741	75.807	40.981	-20.240	135.201	64.480	-19.977	-14.641	144.190	124.068	-15.471	-10.302	-9.367	-3.973	131.300	-5.681	-8191	255	
46667.430	1	1	0	0	0.082658	0.12835	0.24303	0.31606	0.18632	0.053395	0.067036	0.11893	0.081456	0.057131	0.12388	0.2077	0.076641	0.14927	0.045355	0.10386	-4.5125	-3.7521	-4.5729	-4.6375	-3.8917	-4.7333	-4.2438	-4.1	-4.7604	-3.8312	-4.5563	-4.6625	-3.8479	-4.8792	-4.2021	-4.1729	24.915	175.697	-30.168	316.733	125.420	179.016	305.551	201.344	-14.045	188.671	30.832	94.474	9.561	215.571	230.025	250.950	0.00099946	0.00062822	0.00011027	481.44	5.1742e-06	5.6324e-06	665.84	213	9.1826e-06	4.4766e-06	337.72	170.5	100.17	51.717	8.5347e-06	93.316	0.0012213	0.001316	0.00037021	479.27	1.3393e-05	1.4733e-05	659.52	212.44	1.3603e-05	1.4597e-05	337.99	170.63	100.61	52.251	1.4215e-05	93.786	-30.534	40.127	50.071	-19.861	119.389	97.794	-20.017	-14.424	107.622	156.470	-15.248	-10.301	-9.464	-4.127	147.942	-6.238	-8191	255	
46667.551	1	1	0	0	0.20995	0.12021	0.2622	0.1274	0.28879	0.20528	0.23206	0.34736	0.062535	0.13352	0.12986	0.23428	0.10718	0.27148	0.069872	0.10988	-4.6583	-4.1125	-4.2708	-4.7937	-3.7792	-4.7812	-4.4917	-4.0188	-4.7146	-4.0312	-4.4187	-4.8396	-4.0312	-4.8292	-4.3313	-4.1354	46.811	264.489	223.294	281.340	48.342	189.484	91.128	293.382	-15.143	109.530	5.568	304.913	40.744	171.886	193.166	284.500	0.0010955	0.00056299	0.00013089	483.93	1.0234e-05	4.0669e-06	666.94	213.01	4.9637e-06	4.7167e-06	338.51	171.25	100.57	51.574	4.8989e-06	92.913	0.0012175	0.0012954	0.00036974	479.8	1.3388e-05	1.4427e-05	659.75	212.42	1.3601e-05	1.4525e-05	337.93	171.01	100.68	52.19	1.4176e-05	93.753	-30.473	92.246	39.594	-20.176	144.830	96.538	-20.031	-14.471	80.677	82.849	-15.491	-10.237	-9.348	-4.072	128.283	-6.239	-8191	255	
46667.645	1	1	0	0	0.13668	0.091156	0.269	0.10051	0.0095909	0.046434	0.14305	0.11782	0.24307	0.078385	0.15289	0.059567	0.1215	0.093013	0.13197	0.17158	-4.6333	-4.1042	-4.15	-4.8438	-3.7625	-4.6792	-4.5521	-4.1104	-4.7667	-4.0917	-4.1312	-4.8917	-3.8417	-4.6146	-4.5583	-3.9708	-25.869	29.395	-14.264	184.993	-24.268	69.244	139.375	133.350	107.528	170.245	-24.099	187.772	165.969	80.597	100.804	217.719	0.0012178	0.00052947	0.00016992	486.87	5.4742e-06	7.3078e-06	668.04	213.62	3.9068e-06	6.9371e-06	339.21	171.41	100.19	51.748	6.7575e-06	93.37	0.0012153	0.0012962	0.00036634	481.36	1.3326e-05	1.4657e-05	660.54	212.51	1.3705e-05	1.4436e-05	338.54	171.21	100.69	52.322	1.4342e-05	94.019	326.558	16.189	59.234	-20.144	103.350	137.696	-20.258	-14.670	167.671	122.428	-15.407	-10.286	-9.223	-4.005	131.967	-6.108	-8191	255	
46667.742	1	1	0	0	0.15923	0.21737	0.16567	0.20705	0.088176	0.23719	0.097873	0.11518	0.015552	0.12053	0.10138	0.2961	0.080711	0.14326	0.083529	0.27671	-4.5375	-4.1604	-4.0917	-4.6604	-3.7833	-4.4688	-4.6708	-3.8875	-4.6792	-4.2917	-4.125	-4.9042	-4.1	-4.3833	-4.6646	-3.9083	311.715	119.001	198.217	295.653	210.919	-29.901	255.779	298.414	279.799	201.959	280.517	308.299	-30.394	297.881	290.155	277.426	0.0011448	0.0007046	0.00011715	484.25	5.9753e-06	7.2103e-06	667.34	213.93	1.0119e-05	4.044e-06	338.3	171.61	100.63	51.994	8.1208e-06	93.511	0.0012383	0.00131	0.00037454	481.42	1.3788e-05	1.5e-05	661.58	213.01	1.3979e-05	1.4638e-05	339.28	171.69	101.02	52.535	1.461e-05	94.315	327.204	32.881	68.556	-20.232	111.293	105.626	-20.188	-14.503	120.268	133.344	-15.649	-10.274	-9.572	-4.166	133.888	-6.243	-8191	255	
46667.863	1	1	0	0	0.31424	0.14633	0.16071	0.05107	0.17568	0.16217	0.20028	0.0096022	0.21419	0.0268	0.10873	0.16527	0.15474	0.38582	0.073101	0.070715	-4.3542	-4.3583	-4.0042	-4.8708	-3.9	-4.2083	-4.8313	-3.7896	-4.4708	-4.5146	-4.0437	-4.8917	-4.0896	-4.1583	-4.8833	-4.0667	269.289	47.860	294.313	86.592	113.062	42.967	299.419	298.277	248.557	217.837	56.843	225.374	8.128	290.314	240.554	298.494	0.0011477	0.00053859	0.00015249	486.42	1.1038e-05	7.384e-06	672.54	214.01	8.9874e-06	7.0156e-06	339.21	171.48	100.47	52.133	7.593e-06	93.342	0.0012857	0.0013547	0.0003745	482.87	1.4123e-05	1.5081e-05	662.76	212.86	1.4123e-05	1.5099e-05	339.07	171.6	100.85	52.52	1.4833e-05	94.107	327.266	91.432	41.657	-20.270	120.031	136.871	-20.251	-14.584	128.676	134.144	-15.589	-10.212	-9.155	-4.047	122.661	-6.080	-8191	255	
46667.934	1	1	0	0	0.089053	0.22896	0.070726	0.16162	0.10109	0.13	0.15112	0.052504	0.12653	0.052845	0.11464	0.22587	0.22719	0.26849	0.21706	0.038087	-4.1542	-4.5083	-3.8583	-4.6979	-4.2	-4.0917	-4.8104	-3.9146	-4.5521	-4.6604	-3.9792	-4.8271	-4.2667	-4.2792	-5.0062	-4.0604	307.086	258.514	-28.658	248.900	121.526	30.473	221.672	320.385	196.652	82.100	113.481	308.397	304.578	287.554	7.168	324.035	0.0010967	0.00054542	0.00014446	486.04	5.4427e-06	6.6154e-06	666.54	213.62	5.7822e-06	5.4505e-06	338.67	171.28	100.5	51.878	2.9942e-06	93.194	0.0012745	0.0013476	0.00038503	481.99	1.3969e-05	1.51e-05	660.72	212.79	1.4106e-05	1.5069e-05	338.9	171.17	101.12	52.465	1.4544e-05	93.875	-31.439	54.774	46.849	-20.222	131.626	113.410	-19.961	-14.650	108.472	115.267	-15.272	-10.373	-9.558	-4.130	126.010	-6.060	-8191	255	
46668.031	1	1	0	0	0.072563	0.1434	0.25176	0.033911	0.16987	0.030884	0.11248	0.36372	0.047466	0.098264	0.2413	0.24421	0.043596	0.15201	0.083149	0.19409	-4.1396	-4.6687	-3.9229	-4.5292	-4.2167	-4.0458	-4.7896	-4.0375	-4.4146	-4.6604	-3.8396	-4.8	-4.3562	-3.9979	-4.675	-4.075	299.832	99.423	71.609	173.727	62.182	312.248	232.154	321.721	89.362	152.968	274.956	327.508	320.738	212.396	14.688	240.668	0.0011039	0.00077286	0.00013134	486.36	7.2441e-06	4.7953e-06	669.85	213.15	8.9276e-06	4.1621e-06	341.73	171.77	100.27	51.97	6.7757e-06	92.934	0.001246	0.0013183	0.00036989	481.59	1.3658e-05	1.4686e-05	661.46	212.59	1.3586e-05	1.444e-05	339.49	171.5	100.87	52.294	1.4015e-05	93.649	-31.750	50.265	59.257	-19.896	115.252	131.451	-19.770	-14.387	132.956	109.266	-15.453	-10.218	-9.567	-4.197	123.435	-6.110	-8191	255	
46668.129	1	1	0	0	0.13762	0.085776	0.10899	0.18331	0.055123	0.15622	0.15754	0.10706	0.095868	0.086429	0.14771	0.10888	0.18087	0.1273	0.17251	0.12059	-3.9479	-4.625	-3.775	-4.6458	-4.4062	-3.8729	-4.9313	-4.1354	-4.1917	-4.6333	-4.0333	-4.45	-4.4104	-4.0833	-4.775	-4.2604	253.178	53.924	79.333	28.757	45.731	241.802	71.587	231.272	39.557	44.973	279.112	-32.020	268.917	36.956	203.153	210.167	0.0011405	0.00049594	0.00021889	484.18	7.462e-06	7.9368e-06	669.62	213.71	7.9531e-06	8.3274e-06	339.84	172.42	100.4	51.953	6.8077e-06	93.493	0.0012156	0.0012746	0.00036284	480.83	1.3081e-05	1.4224e-05	662.34	212.69	1.3308e-05	1.4004e-05	339.53	171.71	100.86	52.403	1.3753e-05	94.108	324.944	72.023	63.690	-20.376	135.710	104.782	-20.203	-14.597	158.242	117.354	-15.376	-10.268	-9.319	-4.089	153.713	-6.013	-8191	255	
46668.246	1	1	0	0	0.068745	0.19877	0.092727	0.15301	0.2151	0.25242	0.052696	0.11568	0.14588	0.22593	0.18059	0.2881	0.11925	0.21792	0.2486	0.11117	-3.8271	-4.6521	-3.8146	-4.55	-4.5625	-3.8625	-4.825	-4.1271	-3.9	-4.9062	-4.0167	-4.5458	-4.6479	-3.8875	-4.8771	-4.5104	117.412	-5.203	98.811	-23.734	181.090	291.040	27.325	-30.362	87.640	56.541	12.600	281.433	303.213	277.649	191.251	320.549	0.0011856	0.00061256	0.0001064	488.91	7.3965e-06	5.4944e-06	671.21	213.84	7.2462e-06	5.5724e-06	339.36	171.58	100.73	51.919	5.6625e-06	93.402	0.0012068	0.001269	0.00035301	482.02	1.3035e-05	1.4059e-05	663.08	212.93	1.3198e-05	1.4327e-05	339.04	171.57	101	52.346	1.3861e-05	93.843	-27.259	64.053	53.089	-20.153	124.488	129.970	-20.239	-14.772	158.707	126.392	-15.409	-10.494	-9.438	-4.110	121.795	-6.106	-8191	255	
46668.344	1	1	0	0	0.20911	0.12388	0.078418	0.11999	0.16036	0.12526	0.061432	0.060382	0.019559	0.12238	0.038802	0.17306	0.050736	0.27127	0.07668	0.18097	-3.8458	-4.7063	-3.7979	-4.4187	-4.5062	-3.7938	-4.9292	-4.3375	-4.0333	-4.725	-4.0167	-4.2312	-4.8688	-3.8979	-4.5979	-4.5458	175.718	-7.828	12.211	189.474	132.300	136.424	238.729	219.642	144.353	295.692	50.232	173.504	35.034	299.243	236.141	148.543	0.0010628	0.00067011	0.00016657	485.74	6.8842e-06	5.5092e-06	667.44	213.86	4.7206e-06	4.6435e-06	338.96	171.72	100.37	51.609	7.6069e-06	93.199	0.0011853	0.001255	0.00035864	481.87	1.2876e-05	1.41e-05	660.8	213.12	1.3103e-05	1.4115e-05	338.49	171.07	100.82	52.194	1.3658e-05	93.626	-32.318	51.473	68.044	-20.345	127.757	114.078	-20.346	-14.473	146.069	104.824	-15.481	-10.526	-9.425	-4.174	110.889	-6.129	-8191	255	
46668.438	1	1	0	0	0.15551	0.15666	0.14063	0.17428	0.020336	0.141	0.20695	0.057524	0.076587	0.30217	0.076812	0.11068	0.064142	0.10616	0.13831	0.22337	-3.5542	-4.7375	-4.0417	-4.2104	-4.8167	-3.8563	-4.6333	-4.5604	-3.9813	-4.8187	-4.3458	-4.175	-4.7896	-3.8542	-4.5417	-4.7729	196.481	239.412	8.507	302.713	280.000	74.963	256.974	201.954	34.433	132.400	156.105	236.369	303.960	299.516	303.943	249.564	0.0010886	0.00064025	0.00016507	486.95	5.5454e-06	2.4874e-06	672.75	214.27	1.0593e-05	6.5882e-06	340.71	171.64	100.56	51.718	5.118e-06	92.944	0.0011927	0.001284	0.0003584	481.74	1.3155e-05	1.4131e-05	661.64	212.77	1.3384e-05	1.4179e-05	339.32	171.22	100.95	52.239	1.368e-05	93.548	326.130	44.653	50.295	-20.216	112.289	121.996	-20.135	-14.344	134.871	111.516	-15.347	-10.453	-9.269	-4.114	110.028	-6.067	-8191	255	
46668.512	1	1	0	0	0.1669	0.087316	0.042493	0.22395	0.10549	0.11529	0.10293	0.23216	0.25165	0.15441	0.19331	0.14234	0.15547	0.17529	0.16791	0.2958	-3.5333	-4.8625	-4.1333	-4.1729	-4.7958	-3.95	-4.5542	-4.7458	-3.8417	-4.7688	-4.3562	-4.2562	-4.9042	-4.0646	-4.3583	-4.8333	310.024	13.386	78.881	-10.995	232.134	267.580	323.680	245.697	108.825	46.327	239.061	-23.249	30.396	212.988	95.696	297.917	0.0011917	0.00066014	0.00015083	485.49	6.6921e-06	4.7994e-06	669.73	213.64	7.3801e-06	4.8719e-06	339.54	171.77	100.06	51.895	5.3186e-06	92.932	0.0011958	0.0012646	0.00035835	481.82	1.3004e-05	1.4149e-05	661.89	212.72	1.3095e-05	1.4099e-05	339.16	171.41	100.89	52.298	1.3953e-05	93.755	326.965	46.867	63.373	-20.068	108.557	105.770	-20.179	-14.381	126.342	119.123	-15.443	-10.471	-9.331	-4.151	149.639	-6.093	-8191	255	
46668.633	1	1	0	0	0.13559	0.15959	0.043297	0.082618	0.16171	0.074779	0.24513	0.11851	0.13749	0.023612	0.10703	0.20597	0.032553	0.040222	0.073992	0.095699	-3.6917	-4.6292	-4.3021	-4.0188	-4.8875	-3.9771	-4.4271	-4.8146	-3.9396	-4.7875	-4.3833	-4.0687	-4.9021	-4.0354	-3.9875	-4.9313	317.377	223.833	233.354	233.768	12.747	108.774	177.395	248.474	1.423	48.350	22.959	286.508	129.629	-23.690	240.738	165.569	0.0010509	0.00075898	0.0001625	487.47	9.9141e-06	4.1907e-06	670.57	214.29	1.0175e-05	5.468e-06	341.01	171.37	100.64	51.709	4.8192e-06	92.986	0.0012025	0.0012806	0.00036885	483.6	1.3446e-05	1.4483e-05	662.91	213.37	1.3595e-05	1.4537e-05	339.72	171.32	101.11	52.375	1.4111e-05	93.802	326.385	45.158	37.774	-20.533	130.951	86.250	-20.178	-14.444	150.704	118.971	-15.352	-10.230	-9.317	-4.020	135.487	-5.987	-8191	255	
46668.727	1	1	0	0	0.048876	0.22748	0.33194	0.10128	0.14782	0.13968	0.21241	0.048047	0.092974	0.030606	0.20481	0.17597	0.067036	0.12888	0.15232	0.1066	-3.5354	-4.6854	-4.375	-4.1	-4.8833	-4.1771	-4.1708	-4.9667	-3.9396	-4.6062	-4.7271	-3.9958	-4.8521	-4.3667	-3.9479	-4.9083	232.369	31.033	278.853	158.136	297.264	95.857	194.576	-12.598	296.832	127.173	241.347	279.884	39.443	235.814	287.791	242.716	0.0010906	0.0004928	0.00013753	488.05	7.7e-06	5.0757e-06	668.33	213.35	5.4135e-06	7.1878e-06	339.54	171.49	100.28	51.692	6.1397e-06	93.063	0.0012303	0.0012872	0.00035883	483.36	1.3502e-05	1.4587e-05	660.9	213.09	1.365e-05	1.4364e-05	339.3	171.1	101.03	52.262	1.3942e-05	93.5	-31.843	49.134	57.153	-20.341	162.036	124.019	-20.076	-14.691	143.267	105.628	-15.496	-10.258	-9.278	-3.797	90.491	-6.066	-8191	255	
46668.824	1	1	0	0	0.038315	0.096079	0.15355	0.24074	0.16163	0.095508	0.038412	0.34907	0.11115	0.022394	0.11966	0.16202	0.40875	0.1039	0.15137	0.18427	-3.6521	-4.3083	-4.7	-3.8896	-4.6208	-4.3604	-3.9958	-4.85	-3.9938	-4.4396	-4.7271	-3.8854	-4.6062	-4.5167	-3.9625	-4.9792	130.675	133.581	232.653	306.594	-29.238	171.779	325.491	324.589	85.578	142.084	60.579	-11.987	-20.510	76.982	268.351	177.971	0.0010928	0.00060943	0.00015424	486.93	4.2468e-06	8.9311e-06	671.55	214.08	9.8893e-06	5.2679e-06	340.1	171.51	101.12	51.551	4.7352e-06	92.382	0.0012369	0.0013085	0.00036212	482.35	1.3516e-05	1.4477e-05	662.81	213.43	1.3751e-05	1.4506e-05	340	171.29	101.1	52.194	1.4273e-05	93.301	327.469	90.512	28.746	-20.321	117.370	125.621	-20.405	-14.332	146.145	105.301	-15.462	-10.317	-9.372	-3.933	147.192	-6.106	-8191	255	
46668.941	1	1	0	0	0.096513	0.13658	0.11566	0.19992	0.01711	0.26101	0.12223	0.21271	0.22226	0.071181	0.17249	0.27258	0.10744	0.090737	0.17082	0.054851	-3.6167	-4.05	-4.6583	-3.7125	-4.6833	-4.3187	-4.0792	-4.9083	-4.0396	-4.2271	-4.8938	-4.0542	-4.6417	-4.5417	-3.9375	-4.9646	117.169	205.497	276.215	-20.878	179.389	165.543	73.356	203.280	128.193	23.489	171.834	13.484	234.017	61.448	148.093	180.188	0.0011969	0.00084071	0.00014114	486.24	6.8124e-06	1.7538e-06	670.09	214.66	8.209e-06	6.8178e-06	341.38	171.91	100.49	51.472	7.6043e-06	92.832	0.0012349	0.0013182	0.00036442	483.29	1.3746e-05	1.4447e-05	663.16	213.58	1.3864e-05	1.5033e-05	341.07	171.4	101.18	52.044	1.4666e-05	93.341	326.519	50.264	42.070	-20.467	70.152	175.274	-20.464	-14.638	118.758	110.745	-15.328	-10.385	-9.649	-3.858	153.284	-6.137	-8191	255	
46669.039	1	1	0	0	0.21144	0.13982	0.060099	0.1804	0.15064	0.20329	0.12893	0.049009	0.16781	0.24648	0.16515	0.29369	0.12861	0.031334	0.26232	0.32176	-3.7833	-3.975	-4.7917	-3.8167	-4.3333	-4.6188	-4.0104	-4.8875	-4.1375	-4.0917	-4.9021	-4.0771	-4.5229	-4.7167	-3.775	-4.9313	195.976	257.319	280.338	314.804	40.969	239.648	145.823	-10.303	-27.659	267.561	-4.861	292.335	-21.515	310.661	112.328	258.030	0.001163	0.00084954	8.6866e-05	486.55	9.8682e-06	3.5381e-06	672.93	214.19	8.3962e-06	4.7457e-06	341.75	171.52	100.01	51.357	6.7631e-06	92.177	0.0012499	0.0013345	0.00037714	483.59	1.3942e-05	1.5117e-05	665.17	213.05	1.4143e-05	1.5224e-05	341.85	171.47	100.87	51.828	1.5027e-05	92.878	326.683	42.462	56.172	-20.214	119.917	123.750	-20.235	-14.568	123.086	108.581	-15.574	-10.048	-9.572	-4.025	146.441	-5.989	-8191	255	
46669.137	1	1	0	0	0.13107	0.37581	0.12298	0.045165	0.19478	0.16773	0.32095	0.068577	0.08074	0.19698	0.18259	0.076079	0.10643	0.26043	0.1588	0.067974	-3.8354	-4.0021	-4.7292	-4.0625	-4.2771	-4.5125	-3.7062	-4.7292	-4.3104	-3.9667	-5.0771	-4.075	-4.3708	-4.7042	-3.7729	-4.8229	46.920	168.626	326.153	108.342	203.541	7.426	163.571	284.736	127.926	276.085	285.820	214.915	73.932	289.857	272.231	186.980	0.0010089	0.00070836	0.00013531	487.89	8.8075e-06	3.9726e-06	670.48	212.98	6.4031e-06	8.871e-06	340.91	170.84	100.08	51.141	9.5086e-06	91.78	0.0012913	0.0013622	0.00038573	484.18	1.4304e-05	1.525e-05	664.57	212.96	1.4374e-05	1.5336e-05	340.63	170.85	100.77	51.696	1.4989e-05	92.533	327.437	47.273	48.131	-20.245	118.908	155.251	-20.077	-14.566	156.188	89.903	-15.633	-10.221	-9.466	-4.017	121.962	-6.303	-8191	255	
46669.230	1	1	0	0	0.095197	0.011126	0.23816	0.31154	0.17144	0.26061	0.11453	0.42226	0.18526	0.037947	0.10916	0.076288	0.098606	0.32356	0.07615	0.11773	-4.2021	-3.9042	-4.8229	-4.0979	-4.2021	-4.7229	-3.8917	-4.5938	-4.4688	-3.8646	-4.8417	-4.0729	-4.1375	-4.9021	-4	-4.5917	23.609	298.640	137.974	249.249	86.910	202.545	153.126	306.976	40.642	196.860	96.829	290.509	23.731	287.006	319.219	250.748	0.0010787	0.00032505	0.00015321	487.24	1.0657e-05	5.5999e-06	670.25	212.14	1.0772e-05	5.5612e-06	341.11	170.39	99.849	51.336	5.5048e-06	91.602	0.0012789	0.0013922	0.00039079	484.08	1.42e-05	1.5491e-05	663.72	212.36	1.4453e-05	1.5505e-05	340.49	170.38	100.71	51.673	1.5284e-05	92.559	326.986	56.828	69.152	-20.327	131.820	122.496	-20.326	-14.454	144.873	113.143	-15.126	-10.230	-9.302	-4.047	119.826	-6.106	-8191	255	
46669.328	1	1	0	0	0.097334	0.028954	0.10458	0.015349	0.14853	0.072472	0.18708	0.023265	0.1605	0.12709	0.20828	0.18308	0.23021	0.16158	0.023438	0.32253	-4.1813	-3.6937	-4.7125	-4.3292	-4.0938	-4.8083	-4.0458	-4.3604	-4.5042	-3.8812	-4.7479	-4.3938	-3.8438	-4.7917	-3.8271	-4.4208	9.051	259.841	268.850	2.171	-23.237	162.368	233.857	236.728	75.447	253.391	290.871	162.800	259.615	317.601	32.423	292.683	0.0011299	0.00069734	0.00018685	487.16	8.2719e-06	5.2743e-06	670.66	212.7	4.026e-06	5.3391e-06	340.44	170.36	100.07	51.098	5.3381e-06	91.947	0.0012818	0.0013896	0.00039358	483.68	1.4478e-05	1.5785e-05	663.93	212.39	1.4497e-05	1.5747e-05	340.14	170.29	100.69	51.755	1.5671e-05	92.726	327.453	64.413	39.784	-20.187	119.111	123.539	-20.051	-14.488	185.107	119.260	-15.175	-10.105	-9.350	-3.814	128.545	-6.009	-8191	255	
46669.426	1	1	0	0	0.21011	0.080864	0.3267	0.14013	0.28684	0.31852	0.012761	0.099441	0.17782	0.020682	0.18603	0.12978	0.29082	0.29112	0.18251	0.074508	-4.2688	-3.8479	-4.7042	-4.6021	-3.9833	-4.8313	-3.9729	-4.4542	-4.7104	-3.7812	-4.5667	-4.6146	-3.9854	-4.8458	-4.0354	-4.1708	82.815	51.866	14.395	316.607	312.371	180.046	145.822	272.682	136.821	5.935	240.658	317.788	308.545	236.960	166.133	201.988	0.0011404	0.00050407	0.00012526	488	6.842e-06	4.0979e-06	668.7	212.15	6.0695e-06	4.4242e-06	342.12	170.46	99.77	51.289	7.4498e-06	92.178	0.0012973	0.001425	0.00040089	484.3	1.4639e-05	1.5836e-05	663.76	212.42	1.4818e-05	1.5956e-05	340.6	170.7	100.73	51.758	1.5536e-05	92.81	-31.948	67.103	57.961	-20.220	93.114	75.593	-20.289	-14.439	148.500	99.532	-15.349	-10.348	-9.444	-4.014	117.029	-6.146	-8191	255	
46669.543	1	1	0	0	0.23702	0.097164	0.078862	0.23423	0.1154	0.081539	0.034114	0.18843	0.16596	0.14667	0.19003	0.15623	0.27193	0.14178	0.22301	0.17675	-4.4104	-3.7271	-4.5792	-4.6479	-3.7542	-4.8042	-4.2375	-4.1104	-4.85	-3.8792	-4.4354	-4.6687	-3.7854	-4.8125	-4.1625	-4.2479	24.442	132.045	296.783	307.819	27.996	-10.912	193.067	299.012	-8.174	-2.302	280.511	179.181	-13.188	16.614	222.561	282.403	0.0011219	0.00044384	0.00013054	488.96	6.5119e-06	8.3586e-06	671.11	213.09	8.6632e-06	5.2022e-06	339.23	170.25	100.48	51.212	4.4472e-06	91.656	0.0013226	0.0014283	0.00040405	484.2	1.4703e-05	1.5846e-05	664.03	212.52	1.4735e-05	1.5746e-05	339.96	170.65	100.73	51.786	1.5453e-05	92.448	-31.010	76.320	53.572	-20.269	102.504	98.402	-20.202	-14.513	116.818	133.659	-15.385	-10.248	-9.294	-3.901	124.257	-5.996	-8191	255	
46669.641	1	1	0	0	0.12132	0.27688	0.26675	0.13266	0.19036	0.097584	0.036787	0.23947	0.079353	0.084776	0.085683	0.32018	0.066526	0.014858	0.098361	0.11418	-4.5542	-3.9021	-4.4437	-4.6854	-3.7812	-4.7333	-4.2271	-3.9479	-4.8063	-3.9333	-4.3187	-4.8479	-4.0917	-4.7937	-4.4563	-4.0437	55.780	168.159	44.095	-17.353	185.784	42.358	225.139	266.228	182.247	216.823	-14.382	234.300	43.941	124.438	221.498	206.194	0.0010483	0.00068042	0.00016393	486.44	6.7693e-06	6.4266e-06	669.61	213.01	5.9445e-06	5.9842e-06	339.79	170.24	99.893	51.283	6.6565e-06	91.486	0.0013104	0.0014349	0.00040172	483.97	1.4768e-05	1.5847e-05	662.96	212.47	1.4792e-05	1.5999e-05	339.88	170.35	100.62	51.707	1.5305e-05	92.371	-28.420	41.496	62.205	-19.935	147.321	124.695	-20.336	-14.709	181.457	113.359	-15.366	-10.079	-9.508	-4.132	130.486	-6.099	-8191	255	
46669.734	1	1	0	0	0.20325	0.12527	0.12347	0.15591	0.098525	0.064197	0.30175	0.11649	0.14999	0.014764	0.18332	0.19154	0.15388	0.35438	0.14172	0.27496	-4.5458	-3.8833	-4.1667	-4.825	-3.7875	-4.6188	-4.6562	-4.0479	-4.875	-3.9896	-4.2792	-4.8375	-3.9292	-4.825	-4.625	-3.9354	201.247	240.249	247.012	-27.611	2.922	110.831	246.609	197.583	173.273	101.644	256.183	295.932	42.673	304.767	174.740	237.976	0.0011911	0.00045574	0.00016391	489.95	1.0136e-05	4.844e-06	669.3	213.13	8.874e-06	6.2514e-06	339.97	170.37	99.956	51.23	5.142e-06	91.808	0.0013245	0.0014312	0.00039678	484.69	1.4786e-05	1.6161e-05	662.03	212.14	1.5108e-05	1.6021e-05	339.82	170.53	100.65	51.821	1.5519e-05	92.813	-29.363	35.491	72.874	-20.263	130.183	131.183	-19.888	-14.706	131.677	136.864	-15.559	-10.005	-9.345	-4.210	111.433	-6.200	-8191	255	
46669.809	1	1	0	0	0.12834	0.097805	0.036451	0.18344	0.13277	0.13533	0.17667	0.088263	0.056558	0.13434	0.21285	0.29752	0.19329	0.19757	0.12876	0.17092	-4.5917	-4.1271	-4.0437	-4.8521	-3.8438	-4.525	-4.65	-3.8667	-4.7458	-4.2375	-4.2521	-4.8646	-3.9167	-4.3771	-4.5354	-3.9104	201.562	185.126	15.499	89.518	298.143	-14.126	25.593	19.038	295.539	161.497	220.069	296.080	34.946	-7.781	268.069	296.854	0.00096747	0.00065733	0.00016345	486.04	9.0213e-06	7.504e-06	669.25	212.56	8.6152e-06	6.6728e-06	339.43	170.57	99.798	51.198	7.1531e-06	91.957	0.0013121	0.0014238	0.00040081	483.01	1.464e-05	1.5852e-05	661.44	212.09	1.4895e-05	1.5729e-05	339.52	170.7	100.61	51.863	1.5396e-05	92.921	324.402	63.218	30.634	-20.093	96.923	113.041	-20.021	-14.339	134.783	104.012	-15.243	-10.289	-9.226	-4.066	130.618	-6.114	-8191	255	
46669.902	1	1	0	0	0.049551	0.07422	0.077315	0.044281	0.13348	0.2563	0.073127	0.15884	0.29177	0.086497	0.20731	0.067405	0.21145	0.33692	0.12219	0.059774	-4.3562	-4.0375	-3.9625	-4.8958	-3.9875	-4.2854	-4.8313	-3.9333	-4.6021	-4.3479	-3.9333	-4.8562	-3.9813	-4.4688	-4.7333	-4.0708	172.105	327.207	152.666	184.802	93.134	258.438	38.654	293.330	-18.640	240.651	290.053	240.755	-1.974	291.110	278.851	0.509	0.0010655	0.00065722	0.00013999	487	7.0512e-06	5.0352e-06	667.54	211.84	6.3986e-06	6.2721e-06	337.96	170.63	99.716	51.356	9.5212e-06	92.063	0.0013174	0.0014087	0.00040156	482.82	1.4752e-05	1.566e-05	661.61	211.97	1.4433e-05	1.5676e-05	339.12	170.5	100.58	51.822	1.5325e-05	92.684	-30.878	68.473	30.078	-20.330	117.105	78.952	-20.085	-14.265	147.063	101.111	-15.258	-10.354	-9.318	-4.008	139.887	-6.119	-8191	255	
46670.023	1	1	0	0	0.18403	0.24014	0.083614	0.22789	0.16571	0.087978	0.14779	0.11435	0.16499	0.14052	0.13784	0.18645	0.14303	0.05867	0.27189	0.2885	-4.4771	-4.4229	-3.7917	-4.7875	-4.1188	-4.3125	-4.925	-3.8521	-4.6062	-4.5917	-3.9188	-5.0021	-4.2229	-4.1125	-4.7125	-4.0354	137.968	16.118	-3.576	284.004	233.549	47.747	5.427	192.736	88.064	45.140	-7.267	258.708	6.412	238.423	24.722	290.717	0.001104	0.0009058	0.00019072	482.67	6.7858e-06	4.7244e-06	664.32	211.76	5.7407e-06	2.2984e-06	338.14	170.04	99.982	51.361	2.2563e-06	91.891	0.001302	0.0014044	0.000393	481.5	1.4581e-05	1.5823e-05	658.06	211.17	1.4682e-05	1.5907e-05	337.78	169.9	100.39	51.914	1.5247e-05	92.761	322.394	60.338	47.420	-20.053	106.443	110.054	-19.870	-14.485	133.914	161.967	-15.466	-10.441	-9.201	-3.894	105.057	-6.103	-8191	255	
46670.117	1	1	0	0	0.11978	0.098986	0.29986	0.1496	0.061878	0.051489	0.18893	0.31166	0.18639	0.21388	0.10645	0.12312	0.071514	0.42559	0.31059	0.11654	-4.1854	-4.6646	-3.8042	-4.8521	-4.1229	-3.9437	-4.9125	-3.9375	-4.2146	-4.6125	-3.8854	-4.8146	-4.5062	-3.9729	-4.8083	-4.1479	7.885	103.231	310.700	300.565	82.096	159.037	48.989	279.285	280.557	312.799	227.614	281.331	157.668	283.401	282.442	244.989	0.001096	0.00063643	0.00013014	483.44	6.8544e-06	9.4758e-06	663.7	212.26	1.2885e-05	6.6918e-06	338.12	170.39	99.639	51.69	4.279e-06	91.709	0.0012954	0.0013902	0.00038994	480.22	1.4279e-05	1.5525e-05	657.21	211.23	1.4675e-05	1.5569e-05	337.45	170.05	100.22	52.108	1.517e-05	92.888	327.273	55.803	35.923	-19.902	120.496	91.774	-20.510	-14.451	131.721	112.419	-15.426	-10.356	-9.320	-4.038	163.308	-6.130	-8191	255	
46670.215	1	1	0	0	0.021264	0.029004	0.18477	0.066764	0.12782	0.15102	0.17151	0.056958	0.25412	0.059813	0.13394	0.058627	0.28147	0.18044	0.1626	0.31338	-4.0333	-4.6417	-3.7354	-4.7375	-4.3187	-3.9417	-5.0417	-4.1	-4.1854	-4.7625	-3.8792	-4.6813	-4.525	-4	-4.7625	-4.0958	-8.115	36.656	226.745	-22.586	-13.456	270.318	-19.881	44.309	-26.411	248.154	9.413	320.431	182.676	193.107	201.584	262.264	0.0010521	0.00078548	0.00010028	481.42	2.9254e-06	5.4217e-06	659.44	210.92	1.0613e-05	8.2639e-06	336.26	169.77	99.106	51.515	6.3973e-06	91.91	0.0012874	0.0013928	0.00039621	479.37	1.434e-05	1.5788e-05	654.3	210.63	1.4781e-05	1.5456e-05	336.81	169.77	100.05	52.038	1.5339e-05	92.899	-28.274	56.527	60.872	-20.016	154.913	107.972	-20.091	-14.454	141.521	84.909	-15.527	-10.419	-9.373	-4.128	120.654	-5.962	-8191	255	
46670.312	1	1	0	0	0.16647	0.058536	0.23415	0.18511	0.14807	0.18192	0.063018	0.27026	0.093727	0.060692	0.11062	0.21926	0.18205	0.10806	0.14507	0.31301	-3.8187	-4.8646	-3.8104	-4.5458	-4.4437	-3.9521	-4.9417	-4.1813	-3.8688	-4.6958	-3.9437	-4.5646	-4.6229	-4.0167	-4.7542	-4.2229	197.024	18.618	254.999	64.177	222.728	164.605	259.710	240.012	5.991	220.253	236.155	291.385	-15.256	-11.034	259.774	244.119	0.0010699	0.00038534	0.00012009	483.26	5.9419e-06	5.7907e-06	664.23	211.07	1.1734e-05	4.7671e-06	337.17	170.57	99.763	51.798	8.8726e-06	92.052	0.0012878	0.0013812	0.00039325	479.7	1.4306e-05	1.5573e-05	655.89	210.34	1.4558e-05	1.5377e-05	336.68	170.07	100.24	52.186	1.5034e-05	92.977	-32.439	32.827	72.986	-19.996	136.828	131.008	-20.123	-14.478	149.238	116.334	-15.199	-10.313	-9.092	-4.002	149.428	-6.106	-8191	255	
46670.406	1	1	0	0	0.028292	0.21625	0.24753	0.13755	0.14803	0.12752	0.10888	0.10345	0.13547	0.024175	0.05297	0.30845	0.32412	0.1506	0.10722	0.19767	-3.8063	-4.8313	-3.8792	-4.4146	-4.6042	-3.9146	-4.9333	-4.3521	-4.0938	-4.6708	-3.9833	-4.4042	-4.8313	-3.9417	-4.5896	-4.5021	203.946	59.351	-13.667	268.664	298.453	-5.206	314.428	291.209	155.957	285.635	-0.093	314.972	248.439	-24.582	17.113	197.574	0.0011496	0.00049555	0.0002262	482.11	1.1851e-05	5.451e-06	661.03	211.28	9.437e-06	4.4392e-06	335.09	168.95	99.116	51.341	5.8285e-06	91.365	0.0012773	0.0013787	0.00039502	478.81	1.4146e-05	1.5531e-05	654.03	210.3	1.4509e-05	1.5529e-05	335.8	169.25	99.812	51.85	1.5127e-05	92.242	-28.950	70.113	43.953	-20.084	133.522	122.038	-20.318	-14.374	137.778	106.502	-15.341	-10.288	-9.473	-4.028	156.094	-6.014	-8191	255	
46670.504	1	1	0	0	0.21016	0.19003	0.056363	0.18758	0.03453	0.32545	0.14732	0.15695	0.052244	0.13579	0.067287	0.082568	0.15872	0.15096	0.16742	0.26203	-3.7896	-4.8792	-4.1417	-4.3063	-4.7021	-3.8271	-4.7417	-4.4958	-4.0062	-5.0229	-4.0563	-4.3354	-4.6875	-3.9	-4.4854	-4.8479	275.067	-31.804	125.673	92.159	26.483	277.239	-8.998	313.506	218.114	180.775	0.070	-13.953	267.341	188.646	261.698	285.210	0.0011522	0.00052202	0.00015717	481.21	6.9745e-06	6.7535e-06	657.57	209.91	9.1171e-06	5.0443e-06	336.08	169.43	99.148	51.252	6.8953e-06	91.262	0.0012858	0.0013873	0.00038747	477.92	1.4346e-05	1.549e-05	652.97	209.72	1.4579e-05	1.5493e-05	335.7	169.07	99.742	51.729	1.5332e-05	92.073	-30.674	61.387	52.633	-20.026	120.723	116.082	-20.366	-14.429	135.409	105.858	-15.332	-10.179	-9.175	-4.179	126.076	-6.034	-8191	255	
46670.625	1	1	0	0	0.071365	0.10052	0.094294	0.17375	0.1573	0.084867	0.20689	0.47824	0.12517	0.14638	0.15431	0.030044	0.035013	0.20851	0.065326	0.18516	-3.4167	-4.7083	-4.1354	-4.0396	-4.6458	-4.0708	-4.5563	-4.7312	-3.8583	-4.8875	-4.3063	-4.0875	-4.8542	-3.95	-4.4208	-4.8271	110.808	79.012	184.509	258.658	249.856	124.325	224.542	263.983	135.459	80.344	168.357	170.959	206.633	319.937	260.450	196.042	0.0010934	0.00040431	0.0001403	479.75	5.4447e-06	6.2577e-06	658.34	210.36	7.4535e-06	6.1813e-06	333.77	168.95	98.869	51.16	8.1675e-06	91.062	0.0012906	0.0013923	0.00039279	477.56	1.4537e-05	1.5547e-05	652.55	209.95	1.4695e-05	1.5626e-05	335.04	168.78	99.506	51.595	1.5146e-05	91.911	321.429	74.727	32.985	-20.160	93.920	139.570	-20.071	-14.341	123.262	102.729	-15.341	-10.413	-9.366	-3.925	140.157	-6.022	-8191	255	
46670.723	1	1	0	0	0.159	0.044189	0.084689	0.02246	0.24534	0.24377	0.14139	0.086321	0.053566	0.090058	0.29903	0.16636	0.18638	0.20685	0.094683	0.20185	-3.5563	-4.7792	-4.2646	-3.9625	-4.7917	-3.8042	-4.3938	-4.825	-3.7458	-4.7167	-4.3375	-3.975	-4.8771	-4.1687	-4.2354	-4.9	66.461	300.598	166.278	-11.309	-31.421	114.425	163.338	194.369	21.779	108.186	307.830	287.774	284.298	-17.169	21.199	254.675	0.0010881	0.00091629	0.00015533	483.34	5.6126e-06	6.4249e-06	660.65	210.54	6.4463e-06	6.7846e-06	334.93	168.57	98.978	51.088	4.797e-06	90.962	0.0012978	0.0014267	0.0003973	477.66	1.4573e-05	1.5755e-05	652.8	209.71	1.4874e-05	1.5805e-05	335.08	168.55	99.56	51.525	1.5717e-05	91.95	-31.247	49.195	60.558	-20.310	122.015	113.424	-20.068	-14.565	161.643	93.191	-15.224	-10.204	-9.322	-3.836	109.768	-6.028	-8191	255	
46670.816	1	1	0	0	0.09964	0.13756	0.13289	0.075516	0.082018	0.099481	0.26923	0.06824	0.24502	0.29982	0.034718	0.26457	0.042901	0.18855	0.23511	0.21057	-3.5563	-4.7	-4.6625	-4.0458	-4.9021	-4.1125	-4.3479	-4.7833	-3.8396	-4.3208	-4.6375	-3.95	-4.8292	-4.4167	-3.9813	-5.0542	200.971	20.912	26.547	282.628	-1.093	254.461	235.930	165.909	228.420	242.154	58.991	276.869	131.742	257.525	33.332	297.961	0.0010869	0.00059551	8.7263e-05	481.01	1.177e-05	7.8038e-06	658.47	209.57	8.9958e-06	9.5264e-06	333.35	168.63	98.413	50.869	8.6535e-06	90.389	0.0013156	0.0014271	0.00040446	476.33	1.4562e-05	1.5858e-05	652.91	209.61	1.5037e-05	1.5864e-05	334.02	168.53	99.42	51.415	1.5412e-05	91.545	324.267	67.067	55.709	-20.182	128.696	133.671	-20.018	-14.458	127.947	120.352	-15.465	-10.402	-9.284	-3.947	125.606	-5.945	-8191	255	
46670.910	1	1	0	0	0.27521	0.1226	0.046267	0.098697	0.11166	0.019608	0.20556	0.094965	0.073705	0.082181	0.040343	0.092773	0.18325	0.08347	0.16793	0.26235	-3.6417	-4.5667	-4.6312	-4	-4.7729	-4.2854	-4.1292	-4.8354	-3.9688	-4.5146	-4.8854	-3.9958	-4.7792	-4.3583	-3.6937	-5.0708	275.895	0.903	104.567	112.725	-1.577	231.707	251.601	261.876	119.537	112.911	14.241	189.030	324.011	251.605	6.697	306.893	0.0011413	0.00058885	0.00017599	481.45	8.1835e-06	5.0528e-06	656	209.77	1.3739e-05	6.0207e-06	332.36	167.71	98.454	50.625	7.4052e-06	90.733	0.0013153	0.001417	0.00039531	477.32	1.4685e-05	1.5613e-05	650.51	209.43	1.4865e-05	1.582e-05	333.82	168.13	99.368	51.289	1.5347e-05	91.499	327.281	46.703	80.566	-20.095	140.298	118.872	-20.062	-14.165	131.886	110.541	-15.316	-10.276	-9.108	-4.055	157.859	-5.863	-8191	255	
46671.031	1	1	0	0	0.23125	0.27647	0.19202	0.2142	0.24741	0.11197	0.22889	0.10296	0.3157	0.068133	0.342	0.16113	0.05774	0.27587	0.16887	0.23812	-3.7417	-4.3146	-4.7021	-3.8542	-4.6917	-4.5042	-4.1625	-4.85	-4.1438	-4.1271	-4.9375	-3.9042	-4.7292	-4.4812	-3.8542	-5.0104	177.531	289.014	160.303	-4.775	141.122	95.400	-0.525	-2.373	100.323	180.516	-31.314	240.990	78.034	-21.264	226.980	326.066	0.0010316	0.00050936	0.00021864	478.54	7.2563e-06	6.1373e-06	657.01	208.73	8.7559e-06	5.1735e-06	333.43	167.73	98.629	50.604	8.0732e-06	90.526	0.0013131	0.0014274	0.0004008	476.17	1.4773e-05	1.6254e-05	651.2	208.93	1.4783e-05	1.5848e-05	334.51	168.08	99.467	51.264	1.5542e-05	91.564	-28.523	86.279	75.778	-20.240	122.613	104.753	-19.904	-14.396	122.262	91.858	-15.161	-10.196	-9.187	-3.780	162.049	-5.845	-8191	255	
46671.105	1	1	0	0	0.23685	0.14472	0.15919	0.29681	0.22207	0.18212	0.12771	0.22752	0.10212	0.13962	0.19827	0.19574	0.21395	0.08234	0.081583	0.16433	-3.7521	-4.1104	-4.7229	-3.9146	-4.3896	-4.5563	-4.0229	-4.8354	-4.1708	-4.1021	-4.9521	-3.9833	-4.3625	-4.6792	-3.8167	-4.9417	218.870	95.511	82.043	246.033	233.120	279.764	228.411	295.200	89.010	-27.555	240.475	281.763	-12.793	151.590	117.138	288.929	0.0010119	0.00049699	0.0001869	477.85	6.0672e-06	8.9004e-06	655.91	209.65	1.1612e-05	7.3486e-06	331.79	167.98	98.485	50.721	5.3305e-06	90.486	0.0013059	0.001432	0.0004032	476.17	1.4952e-05	1.6083e-05	651.52	209.19	1.5194e-05	1.611e-05	333.99	168.44	99.607	51.238	1.583e-05	91.536	-29.871	85.351	54.849	-20.140	135.019	105.882	-19.876	-14.430	149.324	116.675	-15.155	-10.152	-9.032	-3.846	167.355	-5.850	-8191	255	
46671.223	1	1	0	0	0.2072	0.31806	0.18307	0.24077	0.06952	0.22903	0.027414	0.24351	0.2162	0.036923	0.21082	0.18539	0.13598	0.13933	0.15569	0.22974	-4.0437	-4.0521	-4.8979	-3.9021	-4.4146	-4.6312	-3.8625	-4.6438	-4.4437	-4.1042	-4.9146	-4.0229	-4.4354	-4.9313	-3.8458	-4.7021	196.249	139.739	319.011	-11.047	321.224	174.990	248.428	292.138	1.249	199.710	229.707	-7.360	248.849	-27.187	280.521	272.292	0.0011312	0.00068763	0.00018243	477.06	3.5136e-06	5.663e-06	654.54	209.41	4.9204e-06	5.04e-06	331.88	167.69	98.602	50.388	5.2062e-06	89.927	0.0013263	0.0014344	0.00040465	476.39	1.5085e-05	1.6205e-05	651.78	209.66	1.4978e-05	1.5957e-05	334.22	168.15	99.538	51.125	1.5735e-05	91.197	325.795	45.861	64.599	-19.919	150.640	94.352	-20.112	-14.280	161.115	74.576	-15.206	-10.117	-9.330	-3.832	145.668	-6.000	-8191	255	
46671.320	1	1	0	0	0.14579	0.20271	0.022281	0.083366	0.086655	0.28821	0.20033	0.28166	0.12492	0.07054	0.12375	0.079906	0.075869	0.049394	0.094965	0.15209	-4.0854	-3.975	-4.8125	-4.1875	-4.2771	-4.8688	-4.0625	-4.5687	-4.5646	-3.8125	-4.7146	-4.2146	-4.1979	-4.925	-3.8771	-4.5687	202.170	264.746	122.878	188.040	41.130	88.739	227.449	324.368	123.945	73.084	222.681	111.446	183.249	73.734	326.067	243.037	0.0010978	0.0004656	0.00023851	479.2	7.1332e-06	5.1133e-06	651.1	208.31	3.0923e-06	3.3375e-06	332.31	167.21	98.209	50.332	6.9165e-06	89.97	0.0013258	0.00143	0.00040491	476.72	1.486e-05	1.6068e-05	649.42	208.83	1.4802e-05	1.6056e-05	333.35	167.81	99.225	51.095	1.5747e-05	91.027	326.192	81.809	52.199	-20.191	128.775	96.321	-20.075	-14.150	151.078	68.773	-14.959	-10.085	-9.267	-3.710	127.876	-5.904	-8191	255	
46671.418	1	1	0	0	0.094233	0.062741	0.17262	0.24243	0.11457	0.13565	0.13454	0.18589	0.17914	0.26327	0.093139	0.23885	0.16895	0.24934	0.14357	0.16808	-4.1813	-3.9708	-4.8375	-4.3646	-4.1854	-4.7875	-4.0333	-4.3875	-4.6583	-3.7542	-4.875	-4.3521	-4.025	-4.8833	-4.0021	-4.3521	-0.063	208.894	300.401	318.138	255.076	98.902	191.842	298.891	254.059	143.634	293.206	-17.966	240.819	265.060	-8.521	280.760	0.00094011	0.00061703	0.00012083	477.36	5.9746e-06	6.8324e-06	653.14	209.36	6.5728e-06	5.9503e-06	332.93	167.4	98.436	50.349	5.6975e-06	89.63	0.0013092	0.0014269	0.0004078	476.12	1.4899e-05	1.629e-05	650.59	208.94	1.5063e-05	1.6244e-05	334.17	167.99	99.323	51.055	1.5445e-05	90.82	-31.831	43.696	58.308	-20.107	102.594	109.734	-20.086	-14.417	103.592	131.824	-14.937	-9.958	-9.155	-3.813	148.934	-5.908	-8191	255	
46671.512	1	1	0	0	0.014423	0.11538	0.069992	0.027912	0.04073	0.11218	0.26132	0.067005	0.061022	0.071344	0.25405	0.1492	0.23286	0.22924	0.18136	0.18348	-4.2229	-3.7542	-4.7125	-4.3375	-4.0083	-4.8063	-3.8792	-4.2438	-4.6125	-3.7917	-4.6521	-4.5583	-4.0396	-5.0083	-4.0667	-4.3	281.927	264.834	309.842	219.162	96.248	108.547	85.958	197.630	195.279	55.646	301.000	234.949	309.433	285.840	263.471	269.749	0.001061	0.00074749	0.00015775	476.43	5.2266e-06	9.1056e-06	654.81	208.61	4.4125e-06	3.6155e-06	333.41	168.37	98.148	50.429	4.3877e-06	89.812	0.0013313	0.0014404	0.00040518	475.44	1.4919e-05	1.6007e-05	650.7	209.03	1.4926e-05	1.5965e-05	334.51	168.38	99.522	51.097	1.5953e-05	91.138	325.168	53.498	45.670	-19.943	144.693	100.094	-19.812	-14.391	69.798	122.733	-15.281	-9.948	-9.363	-3.660	120.309	-6.080	-8191	255	
46671.633	1	1	0	0	0.055889	0.10377	0.23325	0.1602	0.028393	0.08128	0.11851	0.13693	0.07945	0.10724	0.25462	0.049956	0.26415	0.23923	0.037496	0.09952	-4.4625	-3.9604	-4.5813	-4.5854	-3.9292	-4.8542	-4.2	-4.2667	-4.8104	-3.8792	-4.5792	-4.6271	-3.9875	-4.8688	-4.1542	-4.2917	21.679	291.793	239.603	320.537	191.529	170.229	101.974	325.151	155.551	297.544	248.273	158.448	319.235	232.292	76.788	317.498	0.0012114	0.00074914	4.4323e-05	477.28	4.8992e-06	7.1647e-06	653.99	209.29	4.9695e-06	4.9539e-06	334.16	168.19	98.777	50.596	5.5345e-06	90.138	0.0013248	0.0014789	0.00040481	476.41	1.4887e-05	1.5968e-05	650.19	209.52	1.4968e-05	1.6143e-05	335.42	168.81	99.606	51.364	1.5712e-05	91.454	-28.317	36.805	60.303	-19.969	139.105	118.899	-19.956	-14.428	123.221	91.922	-15.124	-10.045	-9.376	-3.848	102.934	-5.914	-8191	255	
46671.703	1	1	0	0	0.131	0.048709	0.27962	0.041818	0.12447	0.18094	0.16292	0.11556	0.020258	0.17784	0.10885	0.12688	0.11948	0.092333	0.10179	0.10795	-4.6479	-3.8375	-4.6646	-4.6521	-3.8542	-4.8854	-4.3812	-4.1521	-4.9021	-3.8937	-4.5375	-4.8167	-3.9667	-4.7604	-4.3063	-4.1167	132.625	171.077	104.976	213.034	314.672	159.254	216.159	199.759	29.453	197.168	209.592	302.168	155.081	261.050	0.162	6.574	0.0011395	0.00081328	0.00012492	477.87	6.2257e-06	7.6422e-06	656.5	208.48	1.0057e-05	7.2e-06	331.26	168.3	98.618	50.481	6.2695e-06	90.041	0.0013178	0.0014478	0.00041099	476.56	1.5143e-05	1.6068e-05	650.35	209.05	1.5194e-05	1.617e-05	334.16	168.38	99.477	51.223	1.591e-05	91.154	323.869	73.758	25.719	-19.840	132.139	132.211	-19.840	-14.361	138.912	88.574	-15.119	-10.244	-9.208	-3.772	109.273	-5.986	-8191	255	
46671.801	1	1	0	0	0.1451	0.096197	0.020686	0.13441	0.20531	0.10332	0.06559	0.1979	0.046803	0.10837	0.16964	0.11685	0.11988	0.28886	0.1316	0.26843	-4.4938	-3.9875	-4.3125	-4.775	-3.9188	-4.5687	-4.625	-4	-4.9667	-4.0833	-4.2875	-4.8917	-3.9708	-4.6937	-4.625	-4.0687	54.055	325.209	77.862	290.369	29.306	116.933	298.547	199.194	183.337	215.822	43.160	54.177	211.889	319.409	84.816	297.833	0.0010403	0.00041359	0.00012916	478.59	1.057e-05	3.1469e-06	651.71	208.32	7.3815e-06	5.2052e-06	333.01	167.32	98.587	50.4	6.1976e-06	89.988	0.0013291	0.0014421	0.00041431	476.64	1.5043e-05	1.6257e-05	649.34	209.04	1.5001e-05	1.6379e-05	334.29	167.99	99.428	51.241	1.5917e-05	91.167	327.318	91.082	46.732	-20.036	152.861	141.110	-19.735	-14.281	137.559	118.314	-15.385	-10.052	-9.059	-3.764	106.014	-5.856	-8191	255	
46671.895	1	1	0	0	0.053941	0.064372	0.13569	0.096723	0.20701	0.28249	0.027436	0.11203	0.17384	0.23358	0.37093	0.34956	0.20869	0.16781	0.27124	0.20326	-4.6	-4.1229	-4.1146	-4.8958	-3.95	-4.6396	-4.5896	-4.0354	-4.8229	-4.2542	-4.2417	-4.9854	-4.0333	-4.4521	-4.7771	-4.0521	206.981	185.957	282.179	119.259	75.099	-8.104	312.932	264.108	-18.762	111.378	173.231	-12.438	6.017	142.953	15.446	-31.148	0.0010708	0.00072703	0.00018325	478.68	9.2406e-06	4.4419e-06	655.26	209.06	4.8476e-06	3.4703e-06	334.11	167.38	98.316	50.543	7.3263e-06	90.189	0.0013538	0.0014747	0.00041372	476.96	1.532e-05	1.6453e-05	650.8	209.4	1.5241e-05	1.6463e-05	335.2	168.28	99.494	51.328	1.6039e-05	91.304	322.439	56.333	81.293	-19.891	148.412	111.577	-20.063	-14.276	154.798	117.578	-15.175	-10.109	-9.404	-3.795	124.121	-5.815	-8191	255	
46671.992	1	1	0	0	0.25088	0.23313	0.12733	0.11429	0.27947	0.14353	0.23663	0.23921	0.066274	0.18561	0.12358	0.23865	0.16452	0.12476	0.020511	0.32797	-4.4333	-4.4146	-4.1417	-5.0292	-4.0188	-4.2708	-4.975	-3.8958	-4.6083	-4.2625	-4.1375	-5.0583	-4.05	-4.375	-4.7354	-4.0292	187.181	204.071	202.229	294.050	110.838	233.195	226.446	271.373	216.081	58.593	73.818	263.980	264.958	280.508	140.594	214.808	0.0011105	0.00077074	0.00016478	478.81	7.8461e-06	4.4906e-06	657.39	207.46	8.4345e-06	7.2073e-06	333.65	167.74	98.277	50.44	6.8573e-06	89.654	0.0013576	0.0014547	0.00041054	477.56	1.5303e-05	1.652e-05	651.06	209.27	1.5368e-05	1.623e-05	335.01	168.48	99.345	51.135	1.585e-05	91.084	-31.138	59.512	55.069	-19.880	113.046	106.170	-19.862	-14.324	152.996	105.926	-15.210	-10.129	-8.870	-3.807	131.743	-5.783	-8191	255	
46672.113	1	1	0	0	0.089059	0.059929	0.18615	0.22495	0.042596	0.15632	0.19012	0.038393	0.02492	0.10789	0.10698	0.091546	0.26334	0.18602	0.097339	0.29752	-4.3729	-4.3375	-3.9042	-4.9854	-4.125	-4.3479	-4.8854	-3.9062	-4.5479	-4.4771	-4.0375	-4.7562	-4.4062	-4.1646	-4.9042	-4.0854	111.881	215.403	111.711	277.844	123.685	41.367	86.461	310.495	90.995	69.338	127.765	-5.699	167.712	47.825	50.444	230.921	0.0010383	0.00060716	0.00015568	476.38	5.5314e-06	7.5008e-06	653.08	208.07	9.9899e-06	5.8412e-06	332.23	167.55	98.405	50.497	8.1268e-06	89.669	0.0013466	0.001475	0.00040934	476.66	1.4975e-05	1.6122e-05	649.71	208.98	1.5459e-05	1.6309e-05	334.06	168.22	99.547	51.193	1.5516e-05	90.967	320.544	82.611	40.873	-19.966	127.068	93.304	-20.157	-14.038	124.075	113.460	-15.149	-10.063	-9.101	-3.673	148.021	-5.898	-8191	255	
46672.211	1	1	0	0	0.24193	0.065053	0.10677	0.31135	0.12837	0.29127	0.1068	0.27091	0.080723	0.16084	0.28661	0.019708	0.11804	0.28162	0.19899	0.09538	-4.2208	-4.7312	-3.9354	-4.8313	-4.0792	-4.0813	-4.9271	-4.0771	-4.5375	-4.8042	-3.8792	-4.8396	-4.2896	-4.3375	-4.9938	-4.2333	138.078	32.224	137.021	263.936	120.039	1.482	322.233	252.931	87.510	321.640	311.890	232.245	81.929	295.633	62.785	310.534	0.0011339	0.00076346	0.00018339	477.56	2.9864e-06	5.4254e-06	652.41	208.86	7.1189e-06	4.3587e-06	332.91	167.31	98.289	50.351	5.5825e-06	89.773	0.0013425	0.0014485	0.00040324	477.24	1.5045e-05	1.6022e-05	650.52	209.47	1.5083e-05	1.6107e-05	334.14	168.07	99.423	51.115	1.5824e-05	90.882	326.558	46.759	73.702	-19.900	157.471	95.878	-19.780	-14.226	112.716	121.671	-15.110	-9.887	-8.970	-3.613	160.985	-5.843	-8191	255	
46672.305	1	1	0	0	0.056493	0.15586	0.1619	0.20876	0.25251	0.2958	0.24652	0.13672	0.2926	0.28247	0.14284	0.13987	0.10226	0.063155	0.10679	0.127	-4.1979	-4.7875	-3.8917	-4.9208	-4.3313	-3.9437	-5.0042	-4.2	-4.2708	-4.7354	-3.8979	-4.8479	-4.4625	-4.2146	-4.7937	-4.3458	118.088	-2.801	186.866	91.710	177.018	52.163	278.226	294.734	287.775	302.872	216.839	324.798	3.342	282.758	26.929	207.334	0.0010973	0.00083532	5.5296e-05	479.82	6.7066e-06	7.6014e-06	653.08	208.5	6.5601e-06	5.9649e-06	331.95	167.51	98.506	50.249	6.5244e-06	89.998	0.0013366	0.0014513	0.00040954	477.56	1.496e-05	1.6341e-05	649.9	209.32	1.5066e-05	1.6071e-05	334.37	168.37	99.618	51.069	1.5664e-05	91.14	-30.181	76.737	65.291	-19.916	139.229	104.908	-19.940	-14.274	110.335	112.545	-15.468	-10.203	-9.133	-3.647	102.440	-5.941	-8191	255	
46672.402	1	1	0	0	0.14258	0.029628	0.071379	0.066682	0.18672	0.12691	0.11874	0.25241	0.10302	0.22109	0.31869	0.24008	0.14405	0.18021	0.11494	0.22872	-3.9062	-4.7792	-3.8896	-4.5938	-4.5979	-3.7812	-4.8646	-4.2396	-4.0979	-4.8167	-3.925	-4.6813	-4.6396	-4.0167	-4.7542	-4.3375	5.158	38.550	204.605	311.013	159.155	148.517	254.350	-29.010	206.147	315.740	298.382	266.086	-13.577	245.301	88.472	318.473	0.0010977	0.00049191	0.00010313	478.02	8.4566e-06	7.1152e-06	657.37	208.75	6.8093e-06	5.5591e-06	333.11	168.07	98.132	50.186	3.31e-06	89.862	0.0013308	0.0014466	0.00041165	477.15	1.5157e-05	1.6079e-05	652.81	209.69	1.5051e-05	1.6343e-05	334.65	168.77	99.448	51.05	1.58e-05	91.135	324.957	39.935	49.132	-20.102	164.056	118.718	-19.705	-14.092	128.266	128.164	-15.186	-10.082	-8.895	-3.937	139.038	-5.956	-8191	255	
46672.496	1	1	0	0	0.25818	0.020249	0.24143	0.1929	0.20851	0.080828	0.04178	0.23042	0.1728	0.10502	0.27928	0.21922	0.20842	0.18724	0.20913	0.076449	-3.6688	-4.8063	-3.8854	-4.3167	-4.6292	-3.8333	-4.8667	-4.5062	-4.0333	-4.8333	-4.2146	-4.6167	-4.7937	-4.1104	-4.7833	-4.6146	285.678	162.524	295.386	192.120	-31.599	100.386	279.110	171.079	232.985	0.139	46.547	229.066	315.691	234.908	273.676	280.264	0.0010326	0.00065456	0.00014622	478.22	8.3277e-06	5.4852e-06	653.08	207.9	9.438e-06	5.4448e-06	331.53	167.71	98.156	50.058	6.4383e-06	89.424	0.0013353	0.0014472	0.00040568	477.24	1.5016e-05	1.6201e-05	651.26	209.16	1.5022e-05	1.6104e-05	333.96	168.37	99.562	50.828	1.5825e-05	90.676	325.910	103.306	70.196	-20.185	111.528	94.825	-20.083	-14.238	129.369	93.608	-15.209	-10.138	-8.932	-3.598	120.690	-5.811	-8191	255	
46672.594	1	1	0	0	0.19385	0.048671	0.08182	0.060019	0.20482	0.16162	0.12476	0.13089	0.12173	0.11319	0.075078	0.14235	0.15649	0.12404	0.20841	0.27976	-3.6458	-4.9979	-3.9229	-4.1729	-4.8208	-3.8104	-4.7438	-4.4333	-3.7208	-4.9646	-4.1375	-4.2542	-4.9229	-3.95	-4.5458	-4.5854	186.239	-25.873	-11.893	232.526	212.760	8.542	-7.689	306.941	183.766	92.572	252.527	-24.225	293.302	29.368	227.297	262.328	0.0010625	0.00057521	0.00014694	477.26	7.4393e-06	5.2721e-06	652.38	208.16	1.2417e-05	5.4699e-06	331.79	166.87	98.484	50.302	7.1291e-06	89.381	0.0013442	0.0014277	0.00040237	476.64	1.4824e-05	1.6075e-05	649.67	209.04	1.5003e-05	1.5958e-05	333.57	168.17	99.704	50.9	1.5821e-05	90.651	324.133	47.214	41.660	-20.098	126.411	99.472	-19.651	-14.387	146.367	107.188	-15.032	-10.131	-8.932	-3.951	132.141	-5.828	-8191	255	
46672.715	1	1	0	0	0.092828	0.039737	0.20223	0.17706	0.14972	0.057988	0.18035	0.04544	0.16197	0.23413	0.18216	0.20925	0.34437	0.10535	0.10516	0.091252	-3.7979	-4.875	-4.1354	-4.2333	-4.7333	-3.7687	-4.6667	-4.5917	-3.8646	-4.7521	-4.275	-4.2812	-4.8354	-4.0729	-4.3729	-4.8438	117.694	-14.124	82.226	242.502	241.009	116.673	316.967	226.353	190.612	290.291	314.750	318.707	-5.419	2.507	218.255	200.338	0.0010189	0.00047346	0.00017384	476.36	6.4064e-06	3.3845e-06	653.47	208.44	5.839e-06	4.879e-06	330.92	167.38	98.414	50.11	7.5165e-06	89.468	0.0013335	0.0014353	0.00040554	476.84	1.4604e-05	1.6122e-05	650.84	209.33	1.5027e-05	1.6118e-05	333.38	168.24	99.699	51.064	1.5464e-05	91.021	-29.398	54.405	63.521	-19.995	97.910	108.970	-19.853	-14.167	155.293	128.380	-15.003	-10.139	-8.982	-3.607	125.305	-5.736	-8191	255	
46672.809	1	1	0	0	0.19805	0.10317	0.064818	0.050263	0.053988	0.28154	0.15682	0.073501	0.18116	0.23654	0.26815	0.046527	0.25405	0.083817	0.061431	0.17314	-3.575	-4.85	-4.4479	-4.0417	-5.0854	-3.9729	-4.5125	-4.7708	-4.0042	-4.6729	-4.7229	-4.0875	-4.9417	-4.0667	-4.2542	-4.9479	81.728	199.774	243.301	324.907	291.417	106.490	254.009	310.765	19.797	27.382	304.858	245.087	244.340	291.565	136.489	260.647	0.0011217	0.00065325	0.00014879	477.02	4.3095e-06	5.8279e-06	650.99	208.42	5.9541e-06	6.2321e-06	332.97	167.85	98.378	50.59	6.8982e-06	90.384	0.0013206	0.0014369	0.00040956	476.5	1.4522e-05	1.5973e-05	649.88	209.09	1.4934e-05	1.6163e-05	334.02	168.67	99.482	51.195	1.5545e-05	91.332	327.379	70.460	36.046	-20.167	172.849	111.284	-20.184	-14.132	118.057	113.746	-15.144	-10.183	-9.070	-3.890	135.222	-5.879	-8191	255	
46672.902	1	1	0	0	0.25814	0.15185	0.16058	0.13131	0.057685	0.18517	0.15948	0.14152	0.14139	0.10872	0.07651	0.18127	0.040717	0.19471	0.099839	0.36317	-3.4	-4.7	-4.4542	-4.0292	-4.7188	-4.1188	-4.3771	-4.8479	-3.9458	-4.6375	-4.6646	-4.0896	-4.9812	-4.1271	-4.0333	-4.7562	12.834	110.263	128.969	20.080	258.107	33.954	184.614	20.487	218.740	239.680	-14.377	292.875	-17.823	-18.345	234.831	253.125	0.0010589	0.00082455	0.00016686	477.87	7.0816e-06	6.4281e-06	655.17	208.69	1.0008e-05	7.187e-06	331.58	167.26	98.314	50.595	4.5208e-06	89.91	0.0013224	0.0014319	0.00040195	476.41	1.4894e-05	1.5874e-05	650.15	208.95	1.513e-05	1.5981e-05	333.26	168.24	99.344	51.223	1.5373e-05	91.108	-29.480	69.935	45.674	-20.155	141.183	117.165	-20.108	-14.298	168.156	106.070	-15.360	-10.295	-9.146	-3.700	141.556	-6.129	-8191	255	
46673.000	1	1	0	0	0.075236	0.12171	0.086273	0.11032	0.08204	0.19222	0.23275	0.17376	0.040473	0.086884	0.12761	0.084266	0.0901	0.094495	0.20954	0.16414	-3.4562	-4.4729	-4.5917	-3.9	-4.5938	-4.0771	-4.0375	-4.8271	-3.9479	-4.3521	-4.7729	-3.9146	-4.7021	-4.4167	-4	-4.9833	278.911	128.438	295.263	271.282	202.919	-1.963	296.247	285.326	99.738	60.128	240.055	166.701	133.203	-29.339	309.676	243.967	0.0010934	0.00075229	0.00014441	477.4	7.3372e-06	6.8572e-06	653.61	207.88	4.167e-06	4.4244e-06	331.9	167.51	98.083	50.128	6.6682e-06	89.556	0.0013207	0.0014129	0.00039874	475.41	1.465e-05	1.5898e-05	648.03	208.45	1.4849e-05	1.6005e-05	332.2	167.68	99.198	50.979	1.5391e-05	90.643	326.857	50.043	68.702	-19.784	172.435	129.031	-20.122	-14.214	129.168	106.389	-15.243	-10.230	-9.175	-3.950	133.552	-5.967	-8191	255	
#DATA ENDS
