BOXY.EXE: ISS Imagent and Oximeter Data Acquisition Program Version 0.80
Ascii Record File

#ACQ INFORMATION
2  Detector Channels 
16  External MUX Channels 
1  Auxiliary Channels 
5000  Waveform (CCF) Frequency (Hz)
1  Waveforms Skipped 
30  Waveforms Averaged 
1  Cycles Averaged 
16  Acquisitions per Waveform 
10.0806  Updata Rate (Hz) 

#FILE INFORMATION
TRUE -- External MUX Channel results are PARSED.
FALSE -- AC DC and Phase are NOT grouped.
TRUE -- Companion Program Settings File CREATED.
FALSE -- AC data not excluded
FALSE -- DC data not excluded
FALSE -- Phase data not excluded
FALSE -- Auxillary Chn. data not excluded
Tab delimiters

#CALIBRATION STATE
TRUE -- Waveform Calibration Values APPLIED.


#AUX CALIBRATION VALUES
Val Type	aux-1	

Term	1.0000e+00	
Factor	0.0000e+00	


#WF CALIBRATION VALUES
A = Detector Channel
Val Type	A-AC1	A-AC2	A-AC3	A-AC4	A-AC5	A-AC6	A-AC7	A-AC8	A-AC9	A-AC10	A-AC11	A-AC12	A-AC13	A-AC14	A-AC15	A-AC16	A-DC1	A-DC2	A-DC3	A-DC4	A-DC5	A-DC6	A-DC7	A-DC8	A-DC9	A-DC10	A-DC11	A-DC12	A-DC13	A-DC14	A-DC15	A-DC16	A-Ph1	A-Ph2	A-Ph3	A-Ph4	A-Ph5	A-Ph6	A-Ph7	A-Ph8	A-Ph9	A-Ph10	A-Ph11	A-Ph12	A-Ph13	A-Ph14	A-Ph15	A-Ph16	

Term	0.00000e+00	0.00000e+00	0.00000e+00	0.00000e+00	0.00000e+00	0.00000e+00	0.00000e+00	0.00000e+00	0.00000e+00	0.00000e+00	0.00000e+00	0.00000e+00	0.00000e+00	0.00000e+00	0.00000e+00	0.00000e+00	0.00000e+00	0.00000e+00	0.00000e+00	0.00000e+00	0.00000e+00	0.00000e+00	0.00000e+00	0.00000e+00	0.00000e+00	0.00000e+00	0.00000e+00	0.00000e+00	0.00000e+00	0.00000e+00	0.00000e+00	0.00000e+00	0.00000e+00	0.00000e+00	0.00000e+00	0.00000e+00	0.00000e+00	0.00000e+00	0.00000e+00	0.00000e+00	0.00000e+00	0.00000e+00	0.00000e+00	0.00000e+00	0.00000e+00	0.00000e+00	0.00000e+00	0.00000e+00	
Factor	1.00000e+00	1.00000e+00	1.00000e+00	1.00000e+00	1.00000e+00	1.00000e+00	1.00000e+00	1.00000e+00	1.00000e+00	1.00000e+00	1.00000e+00	1.00000e+00	1.00000e+00	1.00000e+00	1.00000e+00	1.00000e+00	1.00000e+00	1.00000e+00	1.00000e+00	1.00000e+00	1.00000e+00	1.00000e+00	1.00000e+00	1.00000e+00	1.00000e+00	1.00000e+00	1.00000e+00	1.00000e+00	1.00000e+00	1.00000e+00	1.00000e+00	1.00000e+00	X	X	X	X	X	X	X	X	X	X	X	X	X	X	X	X	

B = Detector Channel
Val Type	B-AC1	B-AC2	B-AC3	B-AC4	B-AC5	B-AC6	B-AC7	B-AC8	B-AC9	B-AC10	B-AC11	B-AC12	B-AC13	B-AC14	B-AC15	B-AC16	B-DC1	B-DC2	B-DC3	B-DC4	B-DC5	B-DC6	B-DC7	B-DC8	B-DC9	B-DC10	B-DC11	B-DC12	B-DC13	B-DC14	B-DC15	B-DC16	B-Ph1	B-Ph2	B-Ph3	B-Ph4	B-Ph5	B-Ph6	B-Ph7	B-Ph8	B-Ph9	B-Ph10	B-Ph11	B-Ph12	B-Ph13	B-Ph14	B-Ph15	B-Ph16	

Term	0.00000e+00	0.00000e+00	0.00000e+00	0.00000e+00	0.00000e+00	0.00000e+00	0.00000e+00	0.00000e+00	0.00000e+00	0.00000e+00	0.00000e+00	0.00000e+00	0.00000e+00	0.00000e+00	0.00000e+00	0.00000e+00	0.00000e+00	0.00000e+00	0.00000e+00	0.00000e+00	0.00000e+00	0.00000e+00	0.00000e+00	0.00000e+00	0.00000e+00	0.00000e+00	0.00000e+00	0.00000e+00	0.00000e+00	0.00000e+00	0.00000e+00	0.00000e+00	-1.54582e+01	-1.31826e+02	-1.18987e+02	-1.83770e+02	-1.30688e+02	-8.11710e+01	-1.58254e+02	-1.62015e+02	4.03488e+00	-7.49322e+01	-1.70683e+02	-1.70651e+02	-1.78365e+02	-1.76938e+02	-7.39507e+01	-1.49895e+02	
Factor	3.55145e-05	9.56148e-05	2.78179e-05	1.65747e-01	1.12877e-06	1.04670e-06	1.79515e-01	5.89105e-02	1.19376e-06	1.16421e-06	9.76336e-02	3.40614e-02	3.16364e-02	1.08962e-02	1.16736e-06	1.55437e-02	9.88457e-07	1.01235e-06	2.82120e-07	8.20202e-02	1.10315e-08	1.10754e-08	8.33426e-02	2.89522e-02	1.10356e-08	1.10748e-08	4.58140e-02	1.59180e-02	1.53075e-02	5.26684e-03	1.10529e-08	7.23307e-03	X	X	X	X	X	X	X	X	X	X	X	X	X	X	X	X	



#DISTANCE SETTINGS
A = Detector Channel
A-1	A-2	A-3	A-4	A-5	A-6	A-7	A-8	A-9	A-10	A-11	A-12	A-13	A-14	A-15	A-16	

2.5000e+00	3.0000e+00	2.5000e+00	3.0000e+00	2.0000e+00	3.0000e+00	1.5000e+00	3.0000e+00	3.0000e+00	3.0000e+00	3.0000e+00	3.0000e+00	3.0000e+00	3.0000e+00	1.5000e+00	3.0000e+00	

B = Detector Channel
B-1	B-2	B-3	B-4	B-5	B-6	B-7	B-8	B-9	B-10	B-11	B-12	B-13	B-14	B-15	B-16	

1.0000e+01	1.0000e+01	1.0000e+01	1.4400e+00	1.0000e+01	1.0000e+01	1.5100e+00	1.9400e+00	1.0000e+01	1.0000e+01	1.9900e+00	2.4900e+00	2.4100e+00	2.9000e+00	1.0000e+01	2.9800e+00	




#DATA BEGINS
time	group	step	mark	flag	A-AC1	A-AC2	A-AC3	A-AC4	A-AC5	A-AC6	A-AC7	A-AC8	A-AC9	A-AC10	A-AC11	A-AC12	A-AC13	A-AC14	A-AC15	A-AC16	A-DC1	A-DC2	A-DC3	A-DC4	A-DC5	A-DC6	A-DC7	A-DC8	A-DC9	A-DC10	A-DC11	A-DC12	A-DC13	A-DC14	A-DC15	A-DC16	A-Ph1	A-Ph2	A-Ph3	A-Ph4	A-Ph5	A-Ph6	A-Ph7	A-Ph8	A-Ph9	A-Ph10	A-Ph11	A-Ph12	A-Ph13	A-Ph14	A-Ph15	A-Ph16	B-AC1	B-AC2	B-AC3	B-AC4	B-AC5	B-AC6	B-AC7	B-AC8	B-AC9	B-AC10	B-AC11	B-AC12	B-AC13	B-AC14	B-AC15	B-AC16	B-DC1	B-DC2	B-DC3	B-DC4	B-DC5	B-DC6	B-DC7	B-DC8	B-DC9	B-DC10	B-DC11	B-DC12	B-DC13	B-DC14	B-DC15	B-DC16	B-Ph1	B-Ph2	B-Ph3	B-Ph4	B-Ph5	B-Ph6	B-Ph7	B-Ph8	B-Ph9	B-Ph10	B-Ph11	B-Ph12	B-Ph13	B-Ph14	B-Ph15	B-Ph16	aux-1	digaux	

13988.420	1	1	0	768	0.2698	0.091461	0.1123	0.24072	0.12761	0.28431	0.20935	0.30789	0.20028	0.045892	0.33931	0.062822	0.2653	0.24805	0.33852	0.21405	-2.5229	-2.4896	-2.2833	-3.1771	-2.3	-2.7542	-3.0021	-2.5979	-2.9854	-2.5854	-2.45	-3.1854	-2.3604	-2.7333	-2.825	-2.5229	55.807	83.560	63.480	-8.450	46.311	301.863	256.707	259.360	254.336	162.648	287.522	288.488	44.582	-26.187	5.196	47.932	0.00034311	0.00043115	0.0001441	1359	4.2475e-06	4.495e-06	1367	364.95	1.712e-06	8.2542e-06	417.01	139.63	121.17	41.976	5.1631e-06	51.919	0.00059093	0.00058864	0.00015348	1377.9	6.5947e-06	6.4019e-06	1380	372.39	6.6999e-06	6.3765e-06	425.88	143.13	125.35	43.138	5.9323e-06	53.253	261.013	27.082	76.829	-15.970	140.808	58.614	-15.829	-11.139	-4.113	89.492	-11.967	-6.909	-6.552	-2.371	124.885	-3.276	-8191	255	
13988.517	1	1	0	0	0.12803	0.23985	0.067027	0.16904	0.33826	0.31064	0.22192	0.13634	0.17444	0.1338	0.26421	0.1055	0.25037	0.18843	0.17858	0.30998	-2.3771	-2.6208	-2.2667	-3.2062	-2.2604	-2.5812	-3.1042	-2.2896	-2.8375	-2.6708	-2.5229	-3.0167	-2.4646	-2.7104	-2.825	-2.3958	234.097	82.912	96.101	320.375	92.828	39.833	279.115	301.504	-2.009	306.751	0.719	-26.330	17.809	-2.102	-18.565	240.017	0.0004092	0.00043086	5.8591e-05	1356.4	7.0621e-07	4.4378e-06	1358.4	364.61	1.9838e-06	9.9204e-06	418.13	139.64	121.44	41.972	7.5408e-07	51.586	0.00061514	0.0005781	0.00015102	1380.5	6.7417e-06	6.349e-06	1376.6	373.28	6.6666e-06	6.2816e-06	425.35	143.67	125.39	43.137	5.815e-06	53.447	281.801	34.521	59.657	-15.817	-2.694	106.089	-16.028	-10.982	-13.412	88.975	-11.676	-6.843	-6.399	-2.238	228.298	-2.964	-8191	255	
13988.613	1	1	0	0	0.12211	0.31656	0.24648	0.21069	0.087479	0.10754	0.34217	0.14464	0.068746	0.050094	0.17671	0.28289	0.40658	0.20392	0.20633	0.055108	-2.5375	-2.5563	-2.4	-3.0187	-2.5458	-2.6708	-3.1792	-2.5	-2.7479	-2.8479	-2.5833	-3.0792	-2.5083	-2.5771	-2.9958	-2.3208	330.595	78.176	283.022	195.884	300.449	164.733	265.010	289.600	307.859	27.124	18.227	176.253	-13.878	246.532	125.826	212.121	0.00032157	0.00033369	0.00010376	1358.1	3.7609e-07	5.802e-06	1357.8	366.27	7.7433e-06	7.927e-06	417.85	139.89	121.73	41.8	2.6203e-06	51.92	0.00060034	0.00056384	0.0001484	1384	6.5259e-06	6.0907e-06	1376.4	374.63	6.4278e-06	6.0433e-06	425.26	144.17	125.09	43.03	5.8352e-06	53.619	235.801	95.079	98.967	-15.902	74.763	19.037	-15.803	-10.942	177.106	38.875	-11.813	-6.600	-6.232	-2.514	172.226	-3.215	-8191	255	
13988.709	1	1	0	0	0.12127	0.079381	0.17442	0.21417	0.024414	0.10123	0.33592	0.21412	0.090624	0.080695	0.17888	0.16002	0.1134	0.32146	0.12547	0.09993	-2.2687	-2.7896	-2.1604	-3.1125	-2.4813	-2.2708	-3.05	-2.5	-2.7229	-2.9542	-2.3417	-3.0229	-2.6167	-2.5833	-3.0083	-2.3875	77.968	22.059	161.932	-6.465	15.358	-1.927	284.466	252.636	138.639	119.402	267.071	25.974	21.398	323.858	274.132	239.970	0.00020421	0.00064957	0.00012442	1356.9	1.6962e-06	2.8065e-06	1357.2	364.01	3.331e-06	2.2648e-06	416.25	139.44	121.94	41.779	7.0171e-06	51.551	0.00057669	0.00054133	0.00015054	1383.3	6.2731e-06	5.917e-06	1376.8	373.75	6.2598e-06	5.8772e-06	425.5	144.11	124.96	42.922	6.1691e-06	53.513	294.714	52.664	158.036	-15.859	298.162	103.428	-15.789	-10.835	12.863	126.929	-11.940	-6.797	-6.403	-2.435	155.303	-3.171	-8191	255	
13988.805	1	1	0	0	0.11876	0.15153	0.078559	0.19023	0.16081	0.044196	0.058079	0.29713	0.14682	0.2949	0.15551	0.26171	0.075976	0.10948	0.23071	0.15117	-2.2354	-2.8917	-2.2875	-2.8771	-2.6167	-2.3146	-3.0854	-2.4167	-2.7208	-2.7896	-2.5104	-2.7896	-2.8958	-2.425	-3.0042	-2.65	115.761	90.069	241.250	268.301	172.015	278.787	279.083	253.946	318.537	76.038	287.078	291.934	236.936	148.865	290.612	140.641	0.00023464	0.00056461	5.1601e-05	1354	3.9071e-06	3.1063e-06	1358.5	364.55	3.1154e-06	3.9124e-06	417.3	139.58	121.3	41.523	5.7557e-06	51.66	0.00056617	0.00052943	0.0001603	1382.9	6.1248e-06	5.7447e-06	1380.3	373.71	6.1282e-06	5.725e-06	427.06	143.82	124.33	42.805	6.4631e-06	53.359	262.912	70.791	22.872	-15.968	311.023	77.980	-15.930	-11.118	0.156	99.610	-11.621	-6.932	-6.136	-2.563	159.587	-3.204	-8191	255	
13988.901	1	1	0	0	0.29786	0.19289	0.050078	0.13396	0.16489	0.18285	0.26521	0.083511	0.19025	0.20525	0.036439	0.083239	0.06216	0.10131	0.19316	0.18523	-2.2	-2.8833	-2.4979	-2.9688	-2.8667	-2.5104	-3.2708	-2.5458	-2.3833	-3.0146	-2.3021	-2.8875	-2.7521	-2.2896	-2.9146	-2.6604	289.989	1.961	139.091	321.203	276.600	153.459	237.361	226.361	222.433	132.788	-11.616	328.764	72.289	252.969	206.927	-14.914	0.00028535	0.00016625	5.235e-05	1358.6	2.466e-06	4.0224e-06	1361.5	364.48	7.0481e-06	2.1579e-06	416.91	140.27	121.48	41.767	5.8671e-06	52.027	0.00054963	0.00052644	0.00016681	1381.4	5.9474e-06	5.7553e-06	1380.5	372.78	5.8525e-06	5.7903e-06	427.41	143.63	124.31	42.877	6.5926e-06	53.367	237.856	107.555	83.049	-15.798	123.708	135.380	-16.015	-11.137	194.328	183.357	-11.943	-6.707	-6.575	-2.655	94.248	-3.272	-8191	255	
13989.022	1	1	0	0	0.084986	0.09616	0.19845	0.22988	0.079977	0.20887	0.17645	0.079158	0.35981	0.27162	0.13956	0.1026	0.11151	0.18506	0.16861	0.19413	-2.0104	-2.9833	-2.3771	-2.8583	-2.7562	-2.2646	-3.1167	-2.5875	-2.3958	-2.9542	-2.6021	-2.5979	-2.7917	-2.2625	-2.8354	-2.7146	159.028	154.341	77.772	305.071	288.862	318.517	255.985	251.002	141.175	120.387	226.049	128.397	86.509	136.747	84.974	252.975	0.00025373	0.00047409	0.00014857	1360.3	1.851e-06	7.0482e-06	1359.3	364.71	9.6398e-06	5.1335e-06	415.3	139.65	121.35	41.791	3.4573e-06	51.639	0.00052817	0.00054325	0.00016766	1380.8	5.738e-06	6.0701e-06	1380.8	372.28	5.7237e-06	6.1887e-06	427.05	143.47	124.12	43.102	6.5879e-06	53.236	253.088	106.974	85.720	-15.947	282.380	180.518	-15.860	-11.063	154.712	165.029	-11.631	-7.033	-6.245	-2.675	122.846	-3.213	-8191	255	
13989.116	1	1	0	0	0.040298	0.15114	0.086076	0.18214	0.05189	0.24482	0.41743	0.32014	0.19174	0.13947	0.27413	0.083329	0.24782	0.10206	0.17844	0.10414	-2.0438	-2.9854	-2.4437	-2.7979	-2.8854	-2.3875	-3.05	-2.775	-2.1688	-2.9521	-2.7229	-2.6646	-3.0917	-2.4583	-2.7042	-2.8271	190.490	64.211	179.213	296.382	-20.501	204.154	256.915	328.328	179.229	75.354	303.437	89.820	-25.911	294.995	-24.300	96.748	0.00033561	0.00032241	9.3526e-05	1353.5	5.4598e-06	5.1453e-06	1357.5	364.98	3.859e-06	6.559e-06	416.18	140.24	121.15	41.618	5.7542e-06	51.634	0.00052478	0.00058752	0.0001679	1379.2	5.818e-06	6.5619e-06	1380.4	372.31	5.9166e-06	6.6991e-06	427.05	143.43	124.19	43.343	6.5898e-06	53.162	249.259	113.941	108.305	-15.749	68.382	146.300	-15.906	-10.990	279.469	123.620	-11.830	-6.810	-6.248	-2.524	120.913	-3.143	-8191	255	
13989.212	1	1	0	0	0.10033	0.099828	0.035088	0.30617	0.10455	0.083813	0.052359	0.19267	0.10872	0.1224	0.20852	0.13169	0.18414	0.043698	0.056142	0.10877	-2.1021	-2.8854	-2.4917	-2.6333	-3.0354	-2.3042	-3.0187	-2.8937	-2.2375	-2.9021	-2.6729	-2.4167	-3.1562	-2.3583	-2.775	-2.8854	39.711	29.576	95.625	325.936	232.848	39.960	290.404	209.494	276.391	4.510	66.659	239.767	235.820	313.838	145.595	126.581	0.0004132	0.00021965	0.00011612	1350.8	2.0737e-06	3.0767e-06	1355	365.02	1.094e-05	3.5022e-06	416.58	139.79	121.2	41.666	5.9455e-06	51.643	0.00055722	0.0006342	0.0001677	1376.2	6.2271e-06	7.0107e-06	1380.2	372.47	6.3912e-06	7.0681e-06	427.19	143.14	124.76	43.393	6.5864e-06	53.127	259.871	140.808	42.134	-16.079	40.068	134.355	-15.934	-10.865	239.952	77.772	-11.793	-6.625	-6.169	-2.500	155.995	-3.127	-8191	255	
13989.308	1	1	0	0	0.11387	0.044007	0.067617	0.31954	0.44781	0.16511	0.11685	0.1971	0.062563	0.057991	0.067941	0.29143	0.20184	0.14575	0.19592	0.19116	-1.8729	-2.8146	-2.6458	-2.5146	-2.9042	-2.4625	-2.6229	-2.9437	-2.3438	-2.9271	-2.7313	-2.35	-2.9958	-2.4562	-2.4417	-2.8417	28.426	312.763	-24.038	-22.742	248.478	299.533	108.375	139.553	182.817	-23.291	242.065	269.187	260.496	151.981	35.309	282.156	0.00031255	0.00021274	7.3066e-05	1351.2	8.3397e-06	3.322e-06	1351.6	363.42	1.0698e-05	1.4119e-06	416.83	139.76	121.83	41.698	8.0551e-06	51.334	0.00060015	0.00064563	0.00016704	1376	6.6241e-06	7.0169e-06	1378.4	371.91	6.8015e-06	6.9782e-06	426.33	143.02	125.41	43.29	6.5087e-06	53.024	238.942	264.635	123.587	-15.888	161.614	6.648	-15.956	-11.058	288.890	187.780	-11.535	-6.905	-6.148	-2.386	90.196	-3.207	-8191	255	
13989.405	1	1	0	0	0.22496	0.17779	0.14143	0.15403	0.062739	0.097524	0.30774	0.18208	0.14367	0.26402	0.24194	0.11131	0.16311	0.10655	0.12927	0.10097	-1.7188	-2.6333	-2.5812	-2.4854	-3.0229	-2.4437	-2.5479	-3.0792	-2.4208	-2.6729	-2.9083	-2.2708	-3.0312	-2.6542	-2.5187	-2.9208	285.355	288.123	152.107	-17.476	-3.450	119.527	250.874	226.233	275.360	96.400	318.544	137.007	-3.719	132.452	190.193	289.075	0.00031177	0.00024529	0.00021852	1351.4	4.764e-06	5.6952e-06	1354.9	364.83	5.5452e-06	8.5043e-06	415.26	139.21	121.71	41.601	1.0461e-05	51.663	0.0006344	0.00063268	0.00016513	1377	7.0039e-06	6.8673e-06	1378.1	372.44	7.0821e-06	6.8011e-06	425.52	142.83	125.75	43.12	6.2947e-06	53.134	257.288	-17.009	50.591	-15.972	63.972	51.742	-15.952	-10.772	261.773	99.108	-11.614	-6.853	-6.568	-2.199	112.534	-3.110	-8191	255	
13989.501	1	1	0	0	0.19689	0.084403	0.18717	0.35883	0.027368	0.18484	0.18694	0.12878	0.068739	0.25613	0.18682	0.21195	0.33286	0.22687	0.14682	0.040789	-1.8646	-2.6917	-2.8	-2.4271	-2.7375	-2.5854	-2.6396	-2.9521	-2.4833	-2.6063	-2.9875	-2.5354	-2.8729	-2.8479	-2.2313	-3.0438	63.969	-4.485	206.107	283.337	300.364	284.334	241.570	171.853	57.151	199.515	-15.375	272.142	321.835	69.072	-21.949	-22.631	0.00027833	0.0004565	0.00017286	1350.8	1.3561e-06	6.4039e-06	1354.9	364.49	6.7096e-06	4.1922e-06	414.79	138.33	120	41.291	6.8286e-06	51.247	0.00064125	0.00060675	0.00015804	1380	7.0253e-06	6.6029e-06	1376.1	372.92	6.9685e-06	6.5234e-06	424.56	143.34	125.25	43.002	6.0966e-06	53.428	240.022	322.770	99.113	-15.814	319.509	42.676	-15.920	-10.844	72.016	112.077	-11.382	-6.585	-6.094	-2.237	97.276	-2.816	-8191	255	
13989.597	1	1	0	0	0.19376	0.10703	0.084111	0.26881	0.11228	0.10219	0.067436	0.45004	0.11915	0.085116	0.51722	0.039698	0.40649	0.12767	0.014704	0.055424	-2.0292	-2.6208	-2.725	-2.4188	-2.7729	-2.7938	-2.3667	-3.1021	-2.5729	-2.4333	-2.9542	-2.275	-2.8479	-2.9167	-2.4104	-2.9417	53.647	-4.687	-20.669	-0.349	77.447	-7.236	175.509	307.658	183.986	154.340	267.819	326.812	279.456	86.845	164.715	277.903	0.0002586	0.00040076	0.00012773	1344.9	3.1637e-06	2.3415e-06	1347.9	363.19	3.8385e-06	8.5344e-07	413.34	138.11	120.08	41.409	5.5634e-06	51.367	0.00062998	0.00059267	0.00015401	1380.9	6.8473e-06	6.4303e-06	1375.2	373.7	6.8194e-06	6.398e-06	424.64	143.9	125.16	43.035	6.1703e-06	53.642	250.182	67.338	78.506	-15.950	52.397	68.002	-15.696	-10.597	185.637	55.915	-11.616	-6.535	-6.048	-2.117	233.340	-3.177	-8191	255	
13989.718	1	1	0	0	0.16663	0.20789	0.082777	0.35442	0.018358	0.19213	0.33957	0.32918	0.12806	0.12661	0.39394	0.33891	0.14271	0.04781	0.3202	0.19961	-1.9125	-2.4583	-2.8646	-2.4229	-2.5979	-2.6229	-2.525	-2.9	-2.6	-2.3458	-3.05	-2.4437	-2.8063	-2.8771	-2.1833	-2.9167	12.717	180.796	188.264	282.651	-20.190	-5.517	273.368	-4.915	114.204	78.662	268.878	283.305	290.264	272.724	57.663	237.338	0.00030984	0.00044754	6.4804e-05	1345.8	2.3874e-06	4.836e-06	1351.7	363.23	4.7641e-06	4.4853e-06	414.65	138.28	120.42	41.315	6.9913e-06	51.383	0.00061518	0.00058199	0.00015844	1382.1	6.7503e-06	6.2874e-06	1375.6	374.69	6.577e-06	6.2406e-06	426.28	144.08	124.83	42.829	6.4828e-06	53.631	247.347	-13.147	126.444	-15.697	14.298	67.994	-15.535	-10.950	163.467	98.139	-11.295	-6.725	-6.358	-1.998	194.219	-2.998	-8191	255	
13989.814	1	1	0	0	0.3807	0.18878	0.27271	0.32831	0.29727	0.20949	0.21627	0.24193	0.033832	0.10779	0.19868	0.31131	0.13006	0.020636	0.14438	0.25794	-2.1042	-2.3667	-2.9042	-2.4896	-2.5938	-3.0583	-2.4646	-2.9667	-2.5687	-2.3667	-3.0271	-2.3646	-2.5833	-2.9083	-2.1083	-2.825	291.977	15.581	265.261	313.281	260.825	218.433	173.242	-20.971	185.921	128.416	-7.674	238.042	260.824	207.967	38.538	312.113	0.00030442	0.00027888	0.00010937	1341.2	3.6942e-06	4.9501e-06	1347.3	361.87	9.6712e-06	6.5418e-06	413.82	138.21	120.79	41.383	3.4512e-06	51.109	0.00059638	0.0005587	0.00016704	1379.6	6.501e-06	6.0465e-06	1379.7	373.86	6.4213e-06	6.064e-06	426.84	143.8	124.61	42.843	6.7459e-06	53.517	268.227	43.865	87.357	-15.735	63.656	91.248	-15.601	-10.876	214.117	99.914	-11.484	-6.668	-6.346	-2.068	168.480	-2.974	-8191	255	
13989.910	1	1	0	0	0.10425	0.37565	0.087996	0.22879	0.10896	0.13572	0.13193	0.27399	0.12998	0.03492	0.26035	0.23143	0.11929	0.254	0.17251	0.18835	-2.3771	-2.3333	-2.9437	-2.4729	-2.4667	-2.8563	-2.3646	-2.6813	-2.6125	-2.4458	-3.1354	-2.4146	-2.5979	-2.9313	-2.3229	-2.7604	3.177	-26.997	256.755	-20.749	-27.420	146.547	-22.660	158.913	274.009	217.573	251.047	19.993	-1.442	2.265	101.639	261.544	0.00039337	0.00019334	7.4117e-05	1349.6	5.5108e-06	2.0384e-06	1352	362.41	4.5413e-06	8.9671e-07	413.46	138.8	120.37	41.401	5.1588e-06	51.466	0.00057708	0.00055289	0.00017435	1381.1	6.2872e-06	6.0488e-06	1382	373.12	6.264e-06	6.171e-06	428.21	143.46	124.3	42.927	6.9855e-06	53.358	280.933	81.962	154.405	-15.720	20.410	134.554	-15.718	-11.049	185.002	86.498	-11.514	-6.653	-6.210	-2.011	45.121	-3.093	-8191	255	
13989.982	1	1	0	0	0.29447	0.22345	0.12199	0.3033	0.070089	0.20453	0.32317	0.20067	0.18126	0.14863	0.17548	0.042749	0.19937	0.13071	0.12729	0.15297	-2.2083	-2.1479	-2.6167	-2.7229	-2.4437	-3.0375	-2.4479	-2.6188	-2.525	-2.2458	-2.9875	-2.6271	-2.3542	-2.8979	-2.2354	-2.5062	90.023	18.823	101.712	312.099	67.673	7.416	-9.044	136.786	39.238	49.658	-16.273	178.616	-11.599	84.921	34.424	228.450	0.00032454	0.00045665	0.00017871	1347	4.3709e-06	3.9164e-06	1346.1	361.81	4.3107e-06	8.136e-06	415.59	139.08	120.72	41.334	3.9934e-06	51.67	0.00056159	0.00057669	0.00017881	1378	6.1274e-06	6.3547e-06	1379.7	372.5	6.0293e-06	6.4579e-06	428.26	143.36	124.13	43.068	6.8872e-06	53.32	247.592	71.138	15.320	-15.647	322.368	243.310	-15.670	-10.862	175.666	147.123	-11.781	-6.558	-6.259	-2.073	48.327	-2.988	-8191	255	
13990.100	1	1	0	0	0.31218	0.099786	0.13671	0.10318	0.14017	0.19496	0.08999	0.12578	0.16612	0.22429	0.25052	0.36084	0.16497	0.26667	0.18196	0.024157	-2.5396	-2.2812	-2.6688	-2.7271	-2.2375	-2.8104	-2.4833	-2.7125	-2.8146	-2.3063	-2.85	-2.7917	-2.2979	-2.9562	-2.4875	-2.5479	154.400	175.221	263.904	258.854	307.211	239.329	24.528	328.768	31.844	28.558	288.493	268.885	2.687	233.485	298.280	31.794	0.00037744	0.00029735	0.00020733	1350	4.9661e-06	4.1042e-06	1351.8	361.19	7.0785e-06	4.8269e-06	415.15	138.87	121.2	41.637	6.8528e-06	51.493	0.00054573	0.00061083	0.00017401	1379	6.0307e-06	6.7032e-06	1380.5	371.89	5.9963e-06	6.8235e-06	427.03	143.21	124.28	43.331	6.6768e-06	53.154	253.692	74.868	-2.439	-15.678	68.352	174.440	-15.913	-10.975	218.845	159.604	-11.902	-6.513	-6.337	-2.036	137.054	-3.124	-8191	255	
13990.197	1	1	0	0	0.25301	0.10689	0.089315	0.31452	0.22387	0.24814	0.32738	0.12649	0.096244	0.10641	0.22997	0.22906	0.19836	0.094314	0.056331	0.1557	-2.4958	-2.1479	-2.7729	-2.9542	-2.3083	-2.9896	-2.7667	-2.6063	-2.7771	-2.225	-2.7708	-2.9042	-2.3521	-3.0062	-2.4271	-2.5167	160.265	9.370	8.958	322.964	218.172	277.747	288.300	234.649	83.409	260.157	209.725	-19.723	24.777	151.037	310.065	139.425	0.000455	0.00039862	0.00011753	1345.1	6.8034e-06	3.1814e-06	1354.3	361.23	7.8731e-06	2.1295e-06	414.29	138.24	120.68	41.376	4.106e-06	51.369	0.00054998	0.00062795	0.00016771	1375.7	6.037e-06	6.8605e-06	1379.5	371.63	6.1701e-06	6.9106e-06	426.31	142.62	124.58	43.287	6.4372e-06	53.084	260.152	112.512	58.683	-15.756	95.452	225.660	-15.668	-10.997	169.740	181.353	-11.457	-6.406	-6.219	-2.327	69.657	-3.143	-8191	255	
13990.294	1	1	0	0	0.035867	0.22821	0.17381	0.11777	0.041944	0.29494	0.10056	0.28507	0.17077	0.072624	0.073219	0.13158	0.15271	0.2489	0.046074	0.19365	-2.5312	-2.125	-2.4479	-2.9771	-2.2104	-2.6917	-2.8187	-2.4271	-2.8146	-2.3646	-2.6604	-3.0062	-2.4604	-2.9708	-2.7417	-2.3187	89.086	5.219	326.442	1.108	87.155	321.710	209.372	287.179	-19.822	217.389	238.235	312.765	-28.875	79.972	31.537	280.437	0.00029176	0.000351	0.00022392	1349	4.7807e-06	6.5002e-06	1353	363.4	7.9939e-06	6.5496e-06	417.48	139.23	121.73	41.511	4.0157e-06	51.584	0.00057947	0.00062923	0.00016508	1375.7	6.4751e-06	6.8916e-06	1377.5	371.51	6.5208e-06	6.8094e-06	426.07	142.74	125.09	43.248	6.2916e-06	53.084	248.279	197.673	24.685	-15.561	86.029	27.030	-15.655	-11.059	259.842	139.733	-11.807	-6.802	-6.300	-2.319	186.393	-2.878	-8191	255	
13990.413	1	1	0	0	0.02444	0.10645	0.14027	0.047515	0.17797	0.024973	0.26446	0.17527	0.030352	0.16705	0.18794	0.3265	0.14931	0.25428	0.1794	0.30898	-2.4271	-2.4229	-2.2458	-2.9021	-2.2667	-2.8875	-2.7542	-2.3312	-2.7021	-2.4042	-2.5292	-2.6688	-2.2938	-2.6208	-2.7646	-2.2354	14.375	46.053	267.533	12.580	231.559	85.680	-15.624	15.237	213.719	16.555	273.864	38.142	314.529	283.804	46.637	202.367	0.0004919	0.00023372	0.00014999	1353.5	7.9059e-06	3.535e-06	1353.2	363.63	2.4691e-06	9.3006e-06	417.8	139.19	120.93	41.857	6.3096e-06	51.276	0.00060927	0.00061501	0.00016137	1376.2	6.7559e-06	6.6924e-06	1375.3	371.92	6.8171e-06	6.6235e-06	425.49	143.03	125.15	43.199	6.073e-06	53.065	261.377	318.254	108.018	-15.831	138.751	78.481	-15.849	-11.089	241.470	75.702	-11.854	-6.588	-6.209	-2.417	137.956	-3.377	-8191	255	
13990.509	1	1	0	0	0.065185	0.34765	0.21433	0.26534	0.27524	0.1361	0.39943	0.27909	0.19641	0.39983	0.26019	0.029161	0.10826	0.14842	0.084753	0.22374	-2.3896	-2.3063	-2.2229	-2.9833	-2.3229	-2.6813	-2.9896	-2.3958	-2.9542	-2.6875	-2.1437	-3.0312	-2.4938	-2.7042	-2.65	-2.5604	106.335	12.500	322.256	254.663	310.959	185.870	235.377	285.241	209.755	32.442	322.408	293.609	274.334	-17.320	224.452	326.805	0.0002831	0.00040743	0.00029657	1352.9	3.8536e-06	2.0838e-06	1355.2	363.93	1.8418e-06	8.8785e-06	416.8	139	121.17	41.59	1.1044e-06	51.361	0.00062518	0.00059153	0.00015444	1377.4	6.8453e-06	6.3932e-06	1373.2	372.4	6.8131e-06	6.357e-06	424.2	143.33	125.35	43.076	5.914e-06	53.303	225.682	32.683	38.281	-15.696	68.796	82.595	-15.823	-10.952	-13.070	71.941	-11.778	-6.826	-6.400	-2.329	151.085	-3.122	-8191	255	
13990.581	1	1	0	0	0.084517	0.092397	0.27882	0.12198	0.14396	0.071733	0.12721	0.072841	0.19003	0.12707	0.21317	0.16197	0.067953	0.056769	0.10819	0.11933	-2.4854	-2.4583	-2.2938	-3.1542	-2.3833	-2.5167	-2.9042	-2.4354	-2.6625	-2.5021	-2.4292	-2.9	-2.5563	-2.525	-2.9354	-2.325	50.408	188.162	172.424	217.849	194.989	323.429	330.505	328.453	205.473	140.210	285.520	17.996	249.260	163.560	151.065	271.270	0.00029756	0.00038678	9.4315e-05	1350.7	5.9034e-06	5.4099e-07	1352.5	363.44	5.7596e-06	2.1785e-06	413.77	139.2	121.16	41.532	7.6479e-06	51.59	0.00061706	0.00057509	0.00014987	1379.7	6.6884e-06	6.2598e-06	1372.2	372.81	6.6293e-06	6.1901e-06	422.91	143.66	125.07	42.954	5.887e-06	53.561	238.268	32.981	20.546	-15.551	257.325	298.602	-15.767	-10.940	130.064	49.304	-11.861	-6.945	-6.320	-2.481	194.787	-3.154	-8191	255	
13990.702	1	1	0	0	0.1348	0.20573	0.11217	0.151	0.13592	0.15753	0.038387	0.44816	0.086292	0.057707	0.29442	0.337	0.087065	0.073086	0.304	0.29494	-2.2583	-2.6688	-2.1146	-3.2021	-2.3375	-2.3979	-3.0354	-2.5542	-2.825	-2.8854	-2.5271	-2.9646	-2.6479	-2.4104	-2.7729	-2.5	212.341	222.416	47.455	125.488	253.899	262.058	201.817	229.428	106.029	216.524	-23.334	312.509	112.872	311.885	70.423	325.224	0.00036231	0.00014078	9.3843e-05	1351.8	7.0899e-06	5.8413e-06	1353.7	363.76	2.2468e-06	1.2691e-06	414.07	139.08	120.92	41.454	6.422e-06	51.278	0.00059496	0.00055434	0.00015175	1382.9	6.4832e-06	6.0821e-06	1373.9	373.65	6.419e-06	6.0057e-06	423.99	143.96	124.74	42.795	6.1599e-06	53.472	264.613	86.497	80.271	-15.640	112.613	70.479	-15.741	-11.092	224.927	119.598	-11.745	-6.812	-6.345	-2.321	155.222	-3.027	-8191	255	
13990.798	1	1	0	0	0.16447	0.06874	0.15735	0.18908	0.03706	0.14911	0.22278	0.45167	0.045803	0.044883	0.28932	0.14059	0.16384	0.24486	0.26864	0.056904	-2.2271	-2.6229	-2.2	-3.0792	-2.6958	-2.425	-3.0354	-2.4583	-2.5312	-2.7479	-2.3354	-2.9146	-2.7042	-2.4875	-3.0667	-2.4375	-27.063	149.940	172.859	317.016	-12.150	320.751	255.356	239.447	258.414	197.390	60.482	-27.096	25.238	269.213	14.135	49.737	0.0002672	0.00044115	0.00024245	1353.7	3.2263e-06	7.8482e-06	1354.6	363.94	7.0864e-06	7.8003e-06	416.19	139.61	121.35	41.728	6.857e-06	51.601	0.00057173	0.00053771	0.00016015	1383.4	6.2845e-06	5.8876e-06	1377.6	373.89	6.1885e-06	5.7991e-06	425.46	143.94	124.54	42.901	6.5252e-06	53.434	290.593	75.482	156.922	-15.644	110.277	57.355	-16.013	-10.967	188.574	114.180	-11.975	-6.752	-6.358	-2.526	144.906	-2.963	-8191	255	
13990.894	1	1	0	0	0.12032	0.22934	0.21888	0.12318	0.15878	0.29823	0.25615	0.15669	0.047216	0.12886	0.36204	0.24572	0.23026	0.049847	0.053162	0.24096	-2.1146	-2.7417	-2.3042	-2.9979	-2.6396	-2.3667	-3.2479	-2.5563	-2.4896	-2.9458	-2.3042	-2.9458	-2.9083	-2.4417	-3.0563	-2.5667	226.198	220.599	99.138	294.592	129.756	137.413	322.813	326.776	165.589	31.521	318.612	-15.757	107.517	51.417	207.413	289.725	0.00026429	0.00063013	1.7051e-05	1354.2	6.2987e-06	1.7217e-06	1353.7	363.89	3.5081e-06	7.5081e-06	416.16	139.46	121.08	41.438	4.4331e-06	51.289	0.00056485	0.00053354	0.00016926	1381.5	6.0444e-06	5.8297e-06	1380.8	372.52	6.0371e-06	5.8459e-06	426.74	143.51	124.15	42.823	6.7386e-06	53.189	249.241	66.258	256.243	-15.904	104.993	111.149	-15.848	-11.069	198.059	71.479	-11.723	-6.990	-6.317	-2.496	81.768	-3.370	-8191	255	
13991.015	1	1	0	0	0.23786	0.086614	0.11915	0.20252	0.079031	0.18733	0.2535	0.28952	0.33169	0.037233	0.22217	0.099157	0.32531	0.061823	0.12419	0.27872	-1.9396	-2.7292	-2.1875	-2.9542	-2.8417	-2.2438	-3.0104	-2.5854	-2.2542	-2.8563	-2.4062	-2.65	-2.8542	-2.1646	-2.9771	-2.6667	324.244	-17.585	78.993	172.768	138.034	-22.911	274.592	312.117	90.152	76.188	247.922	61.659	13.689	285.378	80.835	-22.837	0.00023724	0.00060799	5.4577e-05	1353.5	7.4871e-06	5.7582e-06	1359.7	363.94	4.9102e-06	5.0024e-06	415.5	138.94	121.37	41.734	5.2399e-06	51.619	0.0005538	0.00056003	0.0001761	1378.3	6.0818e-06	6.3023e-06	1382.7	372.69	6.1919e-06	6.502e-06	427.94	143.36	124.42	43.161	7.0865e-06	53.347	234.048	79.897	37.015	-15.801	74.675	326.406	-16.033	-11.154	211.605	213.521	-11.769	-6.839	-6.359	-2.470	69.674	-3.226	-8191	255	
13991.109	1	1	0	0	0.32338	0.1835	0.26457	0.34825	0.1181	0.30887	0.11384	0.21346	0.062694	0.21836	0.26755	0.098115	0.09259	0.1754	0.26796	0.36388	-2.0708	-2.9125	-2.2812	-2.7479	-2.9396	-2.1208	-3.0729	-2.7229	-2.2854	-3.1562	-2.5979	-2.7167	-2.8292	-2.5208	-2.7146	-3.0042	76.886	186.092	69.645	298.134	52.234	137.285	281.075	217.432	26.493	126.367	248.442	211.901	-22.545	291.364	49.878	-11.077	0.0001704	0.00052069	0.00021344	1354.9	2.7811e-06	1.2652e-06	1361.6	365.1	3.4079e-06	6.4209e-06	417.38	139.68	121.41	41.732	3.5856e-06	51.822	0.00055899	0.00061431	0.00017782	1380.2	6.0723e-06	6.7564e-06	1385	372.76	6.0418e-06	6.7894e-06	428.42	143.55	124.33	43.342	6.7754e-06	53.276	233.233	118.529	47.305	-15.908	144.856	215.419	-15.650	-10.866	278.925	200.544	-12.020	-7.012	-6.387	-2.327	53.105	-3.362	-8191	255	
13991.205	1	1	0	0	0.18844	0.09633	0.22876	0.2919	0.13171	0.14919	0.17502	0.13089	0.078681	0.13034	0.09753	0.21341	0.21755	0.13609	0.06532	0.16259	-1.7521	-2.8771	-2.1354	-2.6917	-2.9021	-2.4021	-2.6937	-2.9521	-2.5812	-2.9229	-2.7583	-2.5479	-3.1771	-2.3375	-2.5792	-2.9083	18.385	113.438	130.654	267.447	148.898	259.813	239.834	252.940	281.737	44.027	296.890	297.928	317.418	286.496	248.756	283.049	0.00061777	0.00067602	0.0001614	1359.5	2.2085e-06	1.2868e-06	1350.5	364.93	2.7826e-06	1.7301e-06	417.69	139.97	121.75	41.646	4.3079e-06	51.828	0.00056509	0.00064546	0.00017452	1380.2	6.2362e-06	7.0991e-06	1378.9	372.2	6.2936e-06	7.1111e-06	426.72	143.05	124.59	43.375	6.4927e-06	53.207	252.877	68.396	118.347	-16.057	99.025	271.714	-16.011	-11.251	200.826	-16.933	-12.023	-7.064	-6.396	-2.486	194.646	-3.504	-8191	255	
13991.277	1	1	0	0	0.21119	0.039531	0.32938	0.22357	0.038617	0.047823	0.2755	0.094287	0.19908	0.14538	0.17414	0.11572	0.075799	0.16931	0.13059	0.42023	-1.8813	-2.8104	-2.5667	-2.2854	-2.7417	-2.15	-2.775	-3.0708	-2.25	-2.8708	-2.7458	-2.5042	-2.9917	-2.3646	-2.4042	-2.9396	184.356	127.343	136.721	-24.471	159.563	222.389	217.597	264.752	207.787	60.836	322.268	-25.934	170.251	278.688	118.381	223.477	0.00048271	0.0005123	0.00024162	1360.1	5.5977e-06	2.6549e-06	1364.9	365.17	4.7728e-06	4.2034e-06	415.08	139.58	121.7	41.84	3.9209e-06	51.633	0.00056971	0.00062572	0.00016068	1377.6	6.2849e-06	6.7232e-06	1379.9	371.52	6.3511e-06	6.6962e-06	424.83	142.72	124.84	43.278	6.2649e-06	52.89	255.485	49.262	60.287	-15.974	78.238	142.158	-15.972	-10.882	227.276	87.089	-11.702	-7.098	-6.453	-2.363	169.576	-2.995	-8191	255	
13991.398	1	1	0	0	0.17071	0.030976	0.20981	0.36172	0.12575	0.063873	0.35719	0.15249	0.27741	0.049021	0.38866	0.025501	0.24297	0.062607	0.21328	0.14313	-1.8583	-2.7833	-2.4646	-2.375	-2.9437	-2.4833	-2.65	-2.9	-2.2375	-2.7333	-2.7812	-2.3979	-2.9292	-2.3458	-2.2271	-2.8625	165.755	41.558	94.158	313.785	24.018	13.770	238.692	196.982	181.969	164.842	298.906	-2.810	40.550	302.120	159.416	311.859	0.00052309	0.00072017	0.00014087	1353.7	5.7229e-06	2.0734e-06	1360.8	365.55	4.1586e-06	6.4162e-06	416.21	139.69	121.36	41.652	1.0028e-05	51.707	0.00060568	0.00061316	0.00015929	1373.4	6.7464e-06	6.6896e-06	1374.6	371.72	6.832e-06	6.6417e-06	425.4	143.18	125.48	43.216	6.1795e-06	53.197	232.832	64.438	86.205	-15.952	72.589	57.077	-16.123	-10.934	187.770	72.612	-12.039	-7.237	-6.393	-2.307	150.607	-3.272	-8191	255	
13991.494	1	1	0	0	0.17873	0.18651	0.18847	0.3322	0.10105	0.33085	0.29033	0.11875	0.10906	0.12098	0.1859	0.08098	0.083339	0.23401	0.064326	0.26016	-1.6708	-2.6167	-2.8438	-2.3312	-2.8958	-2.425	-2.4896	-2.9917	-2.4479	-2.4854	-2.9313	-2.2479	-3.0417	-2.6542	-2.4	-3.0125	54.584	108.063	28.152	277.313	270.171	271.408	192.834	2.904	5.838	111.599	102.068	42.101	-21.625	321.737	221.544	242.967	0.00028279	0.00033212	6.8153e-05	1359.3	1.8767e-06	7.4326e-06	1364.5	366.07	1.9386e-06	3.9023e-06	420.19	140.56	121.96	41.973	7.6155e-06	51.778	0.00062859	0.00059609	0.00015512	1380.6	6.8254e-06	6.3843e-06	1379.2	373.3	6.7279e-06	6.2847e-06	425.47	143.72	125.73	43.13	5.7189e-06	53.258	255.257	29.269	56.167	-16.094	324.289	109.724	-16.107	-11.080	308.544	3.033	-11.710	-7.151	-6.611	-2.134	129.056	-3.321	-8191	255	
13991.590	1	1	0	0	0.076389	0.27896	0.12397	0.13406	0.19268	0.16373	0.25695	0.12859	0.3117	0.25627	0.39879	0.14454	0.12186	0.34869	0.14827	0.2762	-2.0375	-2.4479	-2.7667	-2.4521	-2.8271	-2.7438	-2.5333	-3.0958	-2.3417	-2.6708	-3.025	-2.4583	-2.8167	-2.7479	-2.3812	-3.0729	18.209	216.000	46.961	242.074	255.776	220.065	261.644	182.178	208.981	-20.561	270.848	35.281	116.691	296.583	308.889	-18.505	0.00029613	0.00028136	0.00010638	1360.9	9.7877e-06	6.8779e-06	1364.3	366.63	4.7961e-06	6.7859e-06	418.6	141.22	122.18	42.023	4.6901e-06	51.782	0.00058787	0.00055368	0.00014254	1380.6	6.4009e-06	5.9738e-06	1376.8	373.9	6.3457e-06	5.9527e-06	423.46	144.19	125.28	43.067	5.5723e-06	53.493	231.077	311.358	92.405	-15.899	33.328	39.176	-15.956	-10.922	95.630	22.543	-12.069	-7.009	-6.510	-2.693	133.751	-2.937	-8191	255	
13991.686	1	1	0	0	0.1874	0.032635	0.19681	0.25868	0.10398	0.1472	0.29001	0.049117	0.064635	0.14796	0.098087	0.1197	0.2401	0.16961	0.18414	0.033889	-1.9854	-2.4917	-2.725	-2.4437	-2.6083	-2.5667	-2.4	-3.1042	-2.3417	-2.4333	-2.9042	-2.3812	-2.6437	-2.7313	-2.3271	-3.0312	-23.273	39.746	81.962	-14.409	28.021	108.838	253.402	35.795	149.189	35.986	246.948	327.833	-11.190	126.961	137.280	330.782	0.00036125	0.00019406	0.00014563	1357.8	7.4789e-06	8.6548e-07	1362.3	367.12	7.6007e-07	3.7605e-06	418.07	140.98	122.27	41.655	4.2106e-07	51.937	0.00056792	0.00053565	0.00014365	1383	6.2323e-06	5.7564e-06	1375.8	374.68	6.1804e-06	5.7632e-06	424.36	144.31	124.88	42.884	5.8413e-06	53.594	223.676	93.946	77.355	-15.901	2.128	229.585	-16.085	-11.016	57.185	96.980	-11.744	-7.055	-6.320	-2.487	79.503	-3.033	-8191	255	
13991.807	1	1	0	0	0.16329	0.11673	0.06492	0.38154	0.091177	0.15205	0.1065	0.2308	0.13612	0.024594	0.01631	0.058449	0.17558	0.094248	0.10163	0.22075	-2.1708	-2.2188	-2.9708	-2.5292	-2.5625	-2.9146	-2.5833	-2.9292	-2.5229	-2.4083	-3.1167	-2.4583	-2.5729	-2.9042	-2.0958	-2.8583	147.063	306.194	316.982	304.657	23.374	188.171	266.475	281.556	30.492	235.077	117.655	108.753	265.576	299.677	204.094	-16.199	0.00032739	0.00053628	0.00019811	1351.9	1.7624e-06	2.939e-06	1357.5	365.07	3.7615e-06	3.7634e-06	417.32	140.49	122.28	42.039	5.4736e-06	52.005	0.00054498	0.00051856	0.00015006	1376.1	5.9298e-06	5.5686e-06	1374	372.83	5.8967e-06	5.5437e-06	424.93	144.15	124.71	42.9	6.0718e-06	53.5	236.791	65.429	129.286	-16.016	330.640	-27.138	-15.865	-11.261	123.080	61.297	-11.640	-6.973	-6.572	-2.168	157.092	-3.129	-8191	255	
13991.878	1	1	0	0	0.29662	0.17387	0.11278	0.16271	0.16283	0.23111	0.41045	0.19441	0.18367	0.040771	0.035731	0.21883	0.15045	0.2335	0.22246	0.11485	-2.1979	-2.3167	-2.8667	-2.4313	-2.325	-3.0125	-2.4146	-2.5625	-2.8271	-2.1813	-3.0292	-2.5146	-2.55	-2.9	-2.2146	-2.9583	120.421	-18.745	245.137	64.819	173.840	62.554	288.627	7.695	190.554	321.608	118.696	281.275	126.234	249.112	116.295	226.314	0.00028077	0.00035663	9.7115e-05	1356.1	7.5021e-06	4.3086e-06	1356	364.21	1.6291e-06	4.5389e-06	418.06	139.75	121.99	42.084	1.733e-06	51.452	0.00053067	0.00050541	0.00015645	1379.1	5.7415e-06	5.4161e-06	1376.9	372.26	5.6232e-06	5.4219e-06	425.59	143.45	124.05	42.907	6.221e-06	53.128	223.594	91.873	106.033	-15.731	45.724	132.994	-15.943	-11.084	73.503	108.008	-11.691	-6.779	-6.323	-2.293	230.360	-3.196	-8191	255	
13991.974	1	1	0	0	0.22614	0.050311	0.16672	0.43941	0.063228	0.25838	0.2224	0.25623	0.18972	0.16297	0.14593	0.1313	0.042599	0.13316	0.24716	0.24975	-2.2667	-2.1833	-3.0208	-2.6646	-2.3542	-3.1708	-2.5062	-2.9562	-2.6688	-2.3104	-2.9896	-2.7646	-2.2562	-3.0625	-2.4208	-2.5792	-8.287	318.516	295.565	277.702	-28.058	135.568	234.421	270.374	123.749	140.349	311.724	149.314	184.489	-4.128	83.933	201.912	0.00034474	0.00038552	0.00011909	1352.9	8.8567e-06	5.3296e-06	1353.5	364.44	5.7633e-06	7.1293e-06	416.87	139.5	121.75	41.75	2.5878e-06	51.917	0.00050529	0.00050641	0.00016006	1372.4	5.5362e-06	5.6691e-06	1374.8	371.28	5.5193e-06	5.7661e-06	425.56	143.29	124.04	43.016	6.2874e-06	53.127	267.322	27.318	33.854	-15.742	7.572	132.093	-15.835	-11.015	241.876	133.895	-11.783	-6.790	-6.289	-2.015	37.399	-3.248	-8191	255	
13992.095	1	1	0	0	0.27404	0.16619	0.1553	0.37204	0.22677	0.11185	0.19227	0.24748	0.178	0.12174	0.22093	0.21447	0.2382	0.19146	0.078784	0.23575	-2.5687	-2.2146	-2.7542	-2.9583	-2.5271	-2.9313	-2.4521	-2.4854	-2.7229	-2.2188	-2.8646	-2.6937	-2.2042	-2.9938	-2.4646	-2.4854	293.429	222.060	269.999	268.545	242.194	314.144	227.062	268.979	76.717	210.013	327.810	155.262	254.370	295.497	230.501	231.944	0.00028083	0.00031852	0.00013452	1352.1	1.7354e-06	2.4859e-06	1357.4	365.16	6.6506e-06	2.949e-06	416.31	139.83	120.77	41.918	2.252e-06	51.663	0.00049924	0.00054249	0.00015936	1373.7	5.4275e-06	5.9968e-06	1376.9	371.82	5.4068e-06	6.0496e-06	425.68	142.86	123.6	43.21	6.0521e-06	53.024	237.044	82.579	116.640	-15.855	81.478	196.952	-15.975	-10.827	226.625	151.287	-11.673	-6.549	-6.376	-2.417	323.620	-2.969	-8191	255	
13992.189	1	1	0	0	0.13409	0.12505	0.24003	0.098379	0.2557	0.11555	0.18029	0.21528	0.19691	0.22954	0.21642	0.13493	0.1395	0.083378	0.17536	0.11283	-2.5938	-2.2	-2.6354	-3.0187	-2.1729	-2.7792	-2.6417	-2.4917	-2.9646	-2.2646	-2.8354	-2.8312	-2.2875	-2.8979	-2.6063	-2.3396	-17.748	213.070	164.576	265.346	177.529	81.314	227.051	257.745	195.137	279.345	295.317	103.283	270.676	82.513	115.978	46.735	0.00043314	0.00089027	9.0203e-05	1350.9	5.3773e-06	4.3822e-06	1361.4	364.97	5.2173e-06	3.2729e-06	417.21	141.05	122.11	41.945	3.0971e-06	52.125	0.0004941	0.00056378	0.00015327	1372	5.4337e-06	6.2224e-06	1375.8	370.98	5.4785e-06	6.1832e-06	425.24	143	124.17	43.294	5.795e-06	52.985	232.938	85.427	18.267	-15.856	94.145	159.484	-15.837	-11.113	237.889	117.939	-11.720	-6.837	-6.331	-2.179	104.393	-3.476	-8191	255	
13992.286	1	1	0	0	0.10936	0.26005	0.29723	0.31272	0.17942	0.051678	0.33324	0.50126	0.10775	0.17453	0.10003	0.19827	0.079076	0.15087	0.16881	0.17914	-2.5271	-2.0917	-2.4562	-3.0104	-2.2188	-2.7521	-2.5604	-2.5312	-2.9167	-2.3271	-2.6667	-2.8438	-2.1854	-2.8021	-2.5625	-2.7208	94.018	213.966	-8.922	307.670	134.229	217.959	238.300	304.634	162.440	205.310	150.896	55.334	48.190	295.329	280.277	124.946	0.00054756	0.00061224	0.00010855	1355.5	4.8126e-06	3.8208e-06	1355.8	364.52	3.7975e-06	2.0698e-06	418	140.42	122.28	42.035	5.5575e-06	52.35	0.00050747	0.00056755	0.00014717	1372.6	5.6899e-06	6.1827e-06	1374.5	370.72	5.776e-06	6.162e-06	424.25	142.68	124.65	43.166	5.7065e-06	52.986	250.669	23.378	96.321	-15.656	131.375	118.140	-15.852	-11.077	267.738	-4.805	-11.755	-6.987	-6.461	-2.238	169.952	-3.297	-8191	255	
13992.382	1	1	0	0	0.2535	0.13753	0.2007	0.37161	0.08835	0.1081	0.12469	0.2569	0.16639	0.11955	0.16337	0.1827	0.19758	0.1885	0.30144	0.20745	-2.6333	-2.2438	-2.5479	-3.1625	-2.2812	-2.7812	-2.8563	-2.3688	-2.7479	-2.6417	-2.5021	-2.9833	-2.225	-2.8021	-2.6813	-2.3625	67.843	154.320	102.644	276.305	266.826	287.799	316.416	306.215	33.904	132.887	300.410	275.186	-25.286	13.234	193.148	257.530	0.00056811	0.00022072	0.00015231	1357.4	8.3387e-06	6.6611e-06	1358.3	365.01	2.9506e-06	9.0767e-06	418.56	139.82	121.64	41.758	7.4849e-06	52.026	0.00054511	0.00056127	0.00014745	1373.5	6.135e-06	6.1825e-06	1374.5	371.02	6.2465e-06	6.141e-06	424.69	142.67	125.14	43.131	5.7234e-06	53.022	265.687	70.642	60.591	-15.920	110.677	42.745	-16.017	-11.054	234.637	65.229	-11.882	-7.028	-6.190	-2.518	65.218	-2.921	-8191	255	
13992.478	1	1	0	0	0.20226	0.12704	0.26004	0.3492	0.18777	0.10484	0.053583	0.28131	0.031757	0.11401	0.11999	0.075902	0.18262	0.11401	0.21973	0.20249	-2.6208	-2.45	-2.2458	-3.0812	-2.0729	-2.6688	-3.0438	-2.2875	-2.7792	-2.5812	-2.4875	-3.2687	-2.3729	-2.7771	-2.8812	-2.3771	187.842	0.410	157.457	-7.415	176.032	-12.417	257.488	256.118	106.597	326.126	280.619	18.252	26.418	249.539	77.540	312.726	0.00030761	0.00037274	0.00013594	1355.5	3.0764e-06	9.1097e-06	1354.5	363.1	2.8114e-06	9.5128e-06	417.19	140.02	121.86	41.862	3.07e-06	52.003	0.00058154	0.00055417	0.00014558	1373.5	6.4279e-06	6.0645e-06	1371.5	371.13	6.3984e-06	6.0289e-06	422.85	143.32	125.32	43.095	5.5159e-06	53.246	240.874	163.192	-0.407	-15.906	69.426	68.024	-15.646	-11.083	296.078	155.304	-11.814	-6.859	-6.393	-2.671	59.153	-3.406	-8191	255	
13992.574	1	1	0	0	0.072208	0.18999	0.21516	0.4	0.22105	0.1476	0.26489	0.11346	0.10664	0.14252	0.14545	0.35687	0.30835	0.2655	0.099652	0.30509	-2.4437	-2.5167	-2.25	-3	-2.3625	-2.6042	-2.7812	-2.5792	-2.6375	-2.5458	-2.3375	-3.0771	-2.3688	-2.6042	-2.7854	-2.4104	216.585	238.359	260.162	238.551	277.928	112.767	252.193	180.068	287.917	206.909	235.323	-14.206	-26.315	-5.648	44.930	155.867	0.00037962	0.0004945	6.2991e-05	1360	5.8739e-06	3.8915e-06	1363.1	364.53	7.4582e-06	7.6196e-06	417.38	140.95	121.99	42.086	5.5505e-06	52.005	0.00057539	0.00053845	0.0001406	1379.5	6.2624e-06	5.8259e-06	1374.4	372.5	6.1381e-06	5.6592e-06	423.27	144.02	124.92	43.097	5.285e-06	53.389	248.001	46.702	73.074	-15.984	94.591	66.141	-15.780	-10.906	184.650	83.101	-12.006	-6.867	-6.355	-2.248	199.497	-3.268	-8191	255	
13992.695	1	1	0	0	0.20195	0.23107	0.21855	0.35658	0.16819	0.10279	0.077977	0.22812	0.16917	0.22762	0.13857	0.14521	0.052023	0.39178	0.083879	0.26574	-2.2917	-2.5479	-2.1896	-3.0938	-2.3271	-2.4708	-3.2146	-2.2417	-2.6042	-2.8875	-2.3187	-3.075	-2.7438	-2.4229	-2.8646	-2.4646	67.146	169.058	5.289	303.039	-9.703	123.551	271.212	255.207	179.724	0.787	283.639	17.361	324.256	306.598	207.316	15.245	0.00028292	0.00011495	0.00011431	1358.9	2.3943e-06	5.1258e-06	1361.9	366.16	1.7239e-06	5.8314e-06	417.51	141	122.34	42.047	5.4499e-06	52.093	0.00054385	0.00050448	0.00013587	1380.6	5.8998e-06	5.5002e-06	1373.3	373.17	5.8207e-06	5.4297e-06	423.51	144.38	124.81	42.958	5.4611e-06	53.469	221.314	279.645	36.318	-15.842	-13.261	37.685	-15.945	-10.925	80.899	96.742	-11.656	-6.757	-6.449	-2.597	101.462	-3.243	-8191	255	
13992.791	1	1	0	0	0.12768	0.03218	0.19492	0.33999	0.044404	0.10613	0.10762	0.079179	0.19423	0.19195	0.10326	0.21682	0.28987	0.091736	0.14826	0.19031	-2.1792	-2.7354	-2.2354	-3.0979	-2.4896	-2.4813	-3.1312	-2.3625	-2.4875	-2.9167	-2.4562	-3.0563	-2.75	-2.4062	-2.7542	-2.4313	101.832	126.464	296.375	284.313	150.331	117.393	287.252	190.359	263.504	323.816	69.879	317.074	108.307	-10.497	265.051	274.393	0.0001893	0.0002985	0.00025785	1358.6	6.1049e-06	2.1068e-06	1353.4	364.99	4.273e-06	2.2153e-06	416.12	139.98	121.77	41.958	5.8551e-06	51.637	0.00052322	0.00049033	0.00014189	1379.7	5.7267e-06	5.3724e-06	1373.3	373.08	5.7055e-06	5.309e-06	424.1	144.02	124.51	42.906	5.883e-06	53.3	230.007	150.654	126.627	-15.788	-20.219	57.018	-15.763	-10.890	273.175	127.577	-11.762	-6.901	-6.321	-2.647	173.273	-2.999	-8191	255	
13992.887	1	1	0	0	0.21274	0.066471	0.2014	0.13561	0.089507	0.14451	0.26603	0.27094	0.14411	0.22747	0.26553	0.029155	0.23377	0.26492	0.21365	0.14791	-2.3167	-3.125	-2.3458	-3.0875	-2.6375	-2.2979	-3.0812	-2.5167	-2.4667	-3.0125	-2.4917	-3	-2.9021	-2.1646	-3.1375	-2.6833	323.912	-1.712	74.682	278.868	3.368	255.255	278.022	310.112	105.436	261.835	56.957	72.694	219.874	292.348	-23.502	182.634	0.00041362	0.00027602	3.576e-05	1351.8	3.7115e-06	4.2177e-06	1359.1	364.22	6.3638e-06	6.6966e-06	416.76	140.89	122.25	41.883	3.7687e-06	52.023	0.00051986	0.00048374	0.00015199	1376.5	5.6232e-06	5.3954e-06	1377.2	372.53	5.6251e-06	5.3313e-06	425.13	144	124.56	42.932	6.1163e-06	53.272	267.372	24.033	134.318	-15.952	2.979	111.482	-15.871	-11.019	234.996	148.371	-11.592	-6.781	-6.211	-2.770	25.456	-2.867	-8191	255	
13992.983	1	1	0	0	0.064297	0.18974	0.14668	0.53	0.046019	0.17358	0.17144	0.23999	0.1661	0.12748	0.17014	0.13153	0.10632	0.19452	0.11996	0.30056	-2.1167	-2.9062	-2.2375	-2.7229	-2.8917	-2.3312	-3.0792	-2.5979	-2.5	-3.0104	-2.3187	-2.7562	-2.8771	-2.2875	-2.85	-2.7104	228.253	48.557	155.531	-24.789	36.098	23.316	236.327	305.153	156.254	11.894	149.506	313.855	228.811	282.418	274.414	292.673	0.00041765	0.00061099	0.000148	1354.6	4.2737e-06	7.2522e-06	1358.2	365.33	8.1598e-07	5.556e-06	416.06	141.01	122.7	41.988	5.1306e-06	51.805	0.00050356	0.00049523	0.00015703	1376.5	5.4042e-06	5.4538e-06	1380.4	372.65	5.4023e-06	5.55e-06	425.89	143.91	124.42	43.08	6.0992e-06	53.209	254.916	27.268	11.148	-15.762	80.464	122.422	-15.858	-10.994	211.222	193.354	-11.723	-6.783	-6.342	-2.321	57.238	-2.950	-8191	255	
13993.102	1	1	0	0	0.31526	0.073835	0.030561	0.29796	0.13911	0.17914	0.19292	0.19815	0.086396	0.11669	0.061873	0.21906	0.11093	0.098858	0.10229	0.13472	-1.975	-2.9021	-2.475	-2.6437	-2.8292	-2.1333	-3.0271	-2.6854	-2.3521	-2.9417	-2.4875	-2.4667	-3.0104	-2.3708	-2.7521	-2.725	-10.855	69.273	288.948	257.149	119.045	41.006	283.336	202.237	234.576	198.119	324.387	223.968	301.342	123.984	318.354	-25.969	0.00032169	0.00021839	7.3948e-05	1352.7	4.7669e-06	3.5231e-06	1357.2	364.81	4.8987e-06	8.6846e-06	416.46	141.06	122.01	41.933	7.1072e-06	52.318	0.00048335	0.00051809	0.00015452	1375.8	5.1945e-06	5.7794e-06	1379.7	371.73	5.2505e-06	5.8234e-06	425.85	143.67	124.16	43.252	5.9729e-06	53.203	242.043	147.763	29.251	-15.786	24.093	284.898	-15.837	-10.911	224.052	157.655	-11.769	-7.037	-6.329	-2.299	47.955	-3.168	-8191	255	
13993.174	1	1	0	0	0.2231	0.13899	0.029359	0.40075	0.10866	0.24344	0.21545	0.14167	0.097025	0.21311	0.097591	0.068838	0.05059	0.24222	0.13503	0.21035	-1.9042	-3.0083	-2.2792	-2.6708	-2.8396	-2.2792	-3.0438	-2.9833	-2.2542	-3.0583	-2.5646	-2.4208	-2.9125	-2.4396	-2.5938	-2.7646	76.538	52.437	330.014	284.662	-2.892	182.620	277.123	330.425	93.734	298.383	117.130	-14.122	327.016	32.522	129.700	263.403	0.00019279	0.00070081	0.00011143	1355.1	7.472e-06	4.7214e-06	1358.3	362.93	1.0902e-05	2.6998e-06	417.11	140.88	122.1	41.909	5.8402e-06	51.925	0.00048623	0.00055683	0.00015268	1376	5.3978e-06	6.1403e-06	1377.1	370.97	5.435e-06	6.211e-06	425.79	143.87	124.72	43.397	5.9039e-06	53.154	250.030	38.461	55.203	-15.896	74.368	117.891	-15.975	-10.819	281.845	56.773	-11.829	-6.908	-6.211	-2.390	109.646	-3.337	-8191	255	
13993.270	1	1	0	0	0.10328	0.29387	0.065499	0.073251	0.055875	0.031819	0.26938	0.18703	0.1821	0.14077	0.15017	0.18035	0.20888	0.084443	0.2452	0.077908	-2.0521	-2.7625	-2.65	-2.5396	-3	-2.4208	-2.9021	-2.8917	-2.4146	-2.9604	-2.6937	-2.6229	-2.9833	-2.5042	-2.6146	-2.9417	264.755	312.730	261.792	259.247	137.284	108.182	299.779	322.079	6.855	291.068	285.620	258.655	232.786	37.429	84.431	219.261	0.00054414	4.1991e-05	7.6469e-05	1353.6	3.3212e-06	5.8565e-06	1357.6	363.23	6.984e-06	4.0886e-06	419.14	140.56	122.29	41.877	9.2906e-06	52.106	0.00051881	0.00057493	0.00014901	1373.4	5.6732e-06	6.2282e-06	1377.8	370.92	5.7608e-06	6.1769e-06	425.14	143.41	125.26	43.334	5.7221e-06	53.065	255.134	69.750	37.237	-15.919	55.583	93.841	-15.781	-10.886	280.772	49.024	-11.594	-6.856	-6.045	-2.439	90.317	-3.007	-8191	255	
13993.366	1	1	0	0	0.057429	0.16729	0.26009	0.18953	0.085348	0.088112	0.11091	0.17977	0.23803	0.11068	0.094909	0.14455	0.12632	0.39598	0.21228	0.15081	-1.9542	-2.7354	-2.5146	-2.4833	-2.7583	-2.4313	-2.775	-3.0854	-2.1542	-2.7521	-2.7854	-2.3	-3.0333	-2.6583	-2.4083	-2.8917	-8.626	38.489	81.610	264.830	32.342	97.739	293.914	259.659	76.228	219.733	97.810	307.426	99.646	319.310	64.594	13.821	0.00055534	0.0006829	0.00010175	1352.9	5.8215e-06	2.6322e-06	1359.3	363.33	5.6342e-06	5.5272e-06	416.5	140.6	121.4	41.899	3.757e-06	51.489	0.0005402	0.00055953	0.00014489	1373.6	6.0032e-06	6.0593e-06	1376.3	370.73	6.085e-06	6.0468e-06	424.38	143.41	125.29	43.264	5.6037e-06	52.93	264.659	97.045	53.616	-15.759	163.121	29.324	-15.675	-11.045	286.811	120.370	-11.666	-6.838	-6.231	-2.252	101.982	-2.937	-8191	255	
13993.487	1	1	0	0	0.2094	0.14451	0.10993	0.2597	0.17614	0.19381	0.37331	0.17184	0.11293	0.11624	0.070787	0.1795	0.32148	0.18392	0.13042	0.22066	-1.8312	-2.6396	-2.7687	-2.5167	-2.8708	-2.5542	-2.5354	-3.0646	-2.3625	-2.6771	-2.9604	-2.4625	-3.0833	-2.6875	-2.225	-2.8917	166.146	-24.616	129.536	308.386	87.173	206.534	272.695	312.023	128.368	55.336	183.032	-0.679	-8.301	228.605	163.347	233.727	0.00023418	0.0001243	5.5738e-05	1350.4	2.4764e-06	3.8554e-06	1360.9	363.63	5.9881e-07	4.6581e-06	415.91	140.26	122.63	42.045	3.1718e-06	52.15	0.00056128	0.00054177	0.00014067	1372.3	6.1442e-06	5.8128e-06	1374.3	371.2	6.1419e-06	5.7894e-06	423.05	143.67	125.59	43.177	5.3765e-06	53.278	266.179	145.276	19.652	-15.802	67.617	41.542	-15.959	-10.948	306.153	173.463	-11.613	-6.610	-6.205	-2.152	81.715	-3.217	-8191	255	
13993.583	1	1	0	0	0.02702	0.096839	0.20062	0.19005	0.30358	0.14922	0.086312	0.42244	0.12396	0.11467	0.072991	0.21587	0.34416	0.13114	0.18452	0.04267	-1.9438	-2.5854	-2.7667	-2.4125	-2.7875	-2.675	-2.5271	-3.0687	-2.1792	-2.675	-3.0521	-2.2875	-2.7938	-2.7229	-2.3812	-3.025	62.336	155.522	215.431	303.150	70.452	196.740	181.174	245.128	94.647	135.759	87.296	-19.279	315.525	298.119	38.323	198.935	0.00034664	0.00068414	9.4598e-05	1350	3.6073e-06	2.5203e-06	1356.5	365.56	1.5455e-06	4.0043e-06	417.4	141.32	122.87	42.269	4.2082e-06	52.226	0.00055608	0.00051471	0.00013257	1373.6	5.9019e-06	5.4995e-06	1372.5	371.94	5.8147e-06	5.3865e-06	421.35	144.01	125.41	43.131	5.1046e-06	53.502	247.143	44.476	56.285	-15.943	6.130	168.988	-15.806	-10.939	322.720	93.497	-11.977	-6.928	-6.389	-2.242	72.267	-3.103	-8191	255	
13993.679	1	1	0	0	0.3003	0.30913	0.13332	0.37018	0.18677	0.15896	0.041662	0.19747	0.15142	0.091164	0.20728	0.13219	0.31139	0.2828	0.10399	0.13682	-2.1	-2.3958	-2.8896	-2.5854	-2.6937	-2.7854	-2.3854	-2.9062	-2.6458	-2.4354	-2.9417	-2.3979	-2.6458	-2.8542	-2.2062	-2.9167	66.108	71.594	127.377	294.824	94.731	152.838	235.084	252.959	30.325	279.351	245.732	220.197	274.554	-13.019	-5.763	208.698	0.00037381	0.00043677	0.00014538	1353.5	5.7117e-06	1.5225e-06	1358.4	365.92	4.3551e-06	2.4195e-06	420.14	140.93	123.09	41.919	3.8261e-06	52.4	0.00052119	0.00048528	0.00012859	1375.3	5.6632e-06	5.2549e-06	1370.6	372.79	5.5985e-06	5.3077e-06	422.35	144.23	125.04	42.953	5.2959e-06	53.484	226.450	52.513	110.408	-16.036	4.524	33.413	-16.055	-11.012	41.310	136.853	-11.849	-7.121	-6.593	-2.349	137.846	-3.260	-8191	255	
13993.775	1	1	0	0	0.14379	0.12645	0.12469	0.21575	0.05067	0.032747	0.31369	0.14497	0.17497	0.16846	0.35039	0.37398	0.060606	0.16701	0.19389	0.19441	-2.3063	-2.3229	-2.7833	-2.3125	-2.7042	-2.7833	-2.3104	-2.9896	-2.6042	-2.4417	-3.0771	-2.3896	-2.5542	-3.0521	-2.2625	-2.9396	277.219	50.717	39.616	295.765	-13.744	121.227	288.593	322.476	290.197	1.079	291.597	288.716	272.304	32.133	12.414	186.013	0.00022261	0.00052452	0.00021077	1355	3.7701e-06	1.8942e-06	1357.8	366.45	1.8414e-06	3.5706e-06	418.81	141.59	122.26	42.116	7.8406e-06	51.882	0.00050891	0.00047902	0.00013578	1374.7	5.5592e-06	5.1929e-06	1370	372.63	5.5327e-06	5.2094e-06	423.24	144.19	124.62	42.914	5.6587e-06	53.386	245.250	3.078	130.788	-15.814	117.095	79.550	-15.966	-11.238	186.974	59.012	-11.641	-7.113	-6.447	-2.394	196.274	-3.138	-8191	255	
13993.871	1	1	0	0	0.20199	0.060699	0.14131	0.31215	0.027547	0.10757	0.39857	0.17242	0.16368	0.1973	0.20214	0.18361	0.14913	0.35507	0.11495	0.17959	-2.0417	-2.0812	-2.9188	-2.6958	-2.4875	-2.8375	-2.1437	-3.1	-2.6667	-2.4188	-2.9688	-2.4354	-2.5896	-3.0271	-2.2687	-2.8604	117.181	238.445	89.827	306.778	216.727	183.310	271.925	282.464	73.819	102.386	267.026	198.821	63.095	326.218	193.304	-17.282	0.00029214	0.00036354	0.00016054	1356.6	4.7613e-06	9.2067e-07	1359.1	366.38	6.569e-06	5.6343e-06	417.87	141.18	122.63	42.281	3.2841e-06	52.135	0.00050344	0.00047474	0.00014605	1374.1	5.5352e-06	5.1477e-06	1373.7	371.93	5.4392e-06	5.1946e-06	424.78	143.87	124.55	42.893	5.8726e-06	53.285	268.468	44.445	139.024	-15.996	69.142	316.545	-15.971	-11.045	142.669	114.077	-11.771	-6.991	-6.579	-2.491	193.866	-3.642	-8191	255	
13993.967	1	1	0	0	0.40464	0.10767	0.061094	0.2236	0.092801	0.32493	0.30895	0.36426	0.29024	0.18897	0.35362	0.25164	0.25917	0.20611	0.10269	0.12141	-2.3167	-2.3167	-2.8917	-2.7646	-2.3646	-2.9479	-2.5083	-2.8917	-2.9021	-2.3646	-2.9229	-2.7812	-2.475	-3.125	-2.2729	-2.7354	0.469	255.068	204.615	256.838	296.078	79.226	268.993	311.040	114.275	6.158	-25.317	-6.578	233.415	272.648	322.528	250.914	0.0001399	0.00058514	0.00013428	1353.3	1.5209e-06	4.0916e-06	1356.7	364.51	3.6825e-06	4.4784e-06	416.64	141.27	122.69	42.234	5.767e-06	52.165	0.00048841	0.00047995	0.00015052	1371.2	5.3471e-06	5.2421e-06	1373.5	371.56	5.2625e-06	5.3575e-06	424.7	143.58	124.31	43.108	5.9526e-06	53.277	250.359	54.807	67.591	-15.881	293.016	117.542	-15.906	-11.100	137.195	125.886	-11.729	-6.973	-6.566	-2.117	157.629	-3.321	-8191	255	
13994.064	1	1	0	0	0.044356	0.10385	0.35203	0.26121	0.19766	0.26323	0.28194	0.11922	0.1331	0.12975	0.26257	0.10149	0.28964	0.18495	0.31081	0.21577	-2.4771	-2.1146	-3.0312	-2.9292	-2.3646	-3.1437	-2.4417	-2.6729	-2.9792	-2.3312	-2.9646	-2.7708	-2.3146	-3.0375	-2.3917	-2.6646	200.861	189.440	52.174	37.267	41.523	223.224	-26.634	253.105	-8.457	55.511	103.603	294.727	306.150	129.967	289.311	278.503	0.00018626	0.00057619	0.00015207	1357.3	7.0911e-06	2.8959e-06	1357.6	366.04	5.8551e-06	4.782e-06	417.98	141.48	123.3	42.133	1.6606e-06	52.096	0.0004695	0.00050378	0.00015211	1373	5.1947e-06	5.5698e-06	1374.4	371.36	5.1436e-06	5.6901e-06	425.3	143.84	124.5	43.282	5.8563e-06	53.186	222.920	138.648	148.120	-15.911	6.610	132.756	-15.767	-11.120	205.875	179.441	-11.656	-6.896	-6.566	-2.167	281.980	-3.602	-8191	255	
13994.182	1	1	0	0	0.077765	0.058733	0.13066	0.090798	0.14622	0.40532	0.45777	0.31891	0.048458	0.18083	0.23677	0.1074	0.07846	0.10136	0.14072	0.082359	-2.4042	-2.3771	-2.8438	-3.0667	-2.3458	-3.15	-2.7438	-2.7521	-2.9771	-2.3021	-2.7292	-2.9854	-2.5125	-3.0833	-2.4729	-2.4604	88.260	233.578	4.529	294.157	66.877	45.595	287.095	248.778	163.495	255.316	38.025	38.300	324.232	97.842	20.576	75.234	0.00032822	0.00049064	0.00015684	1355.5	4.6501e-06	2.1865e-06	1365.1	365.05	4.0548e-06	4.9211e-06	416.59	141.18	122.94	42.402	5.8838e-06	52.151	0.00046967	0.00053416	0.00014867	1370.8	5.2073e-06	5.8847e-06	1375.5	370.94	5.2304e-06	5.9257e-06	423.89	143.53	124.53	43.387	5.6682e-06	53.039	256.452	45.883	92.791	-15.891	186.532	48.831	-16.067	-11.036	306.896	137.284	-11.783	-6.926	-6.395	-2.156	66.832	-3.477	-8191	255	
13994.279	1	1	0	0	0.1452	0.1734	0.0915	0.22337	0.1707	0.22915	0.33205	0.085659	0.11387	0.28167	0.17197	0.18822	0.44016	0.23027	0.25076	0.22684	-2.4667	-2.1083	-2.7167	-3.1771	-2.2	-2.9083	-2.7083	-2.3812	-2.9208	-2.2417	-2.6542	-2.9	-2.1417	-3	-2.5208	-2.3771	44.191	79.358	21.656	302.665	278.262	329.949	265.466	-17.017	311.642	4.208	264.557	233.636	214.295	288.740	256.420	-13.765	0.00047472	0.000265	6.7927e-05	1350.9	3.0955e-06	5.0821e-06	1361	365.23	7.4731e-06	6.2192e-06	417.64	141.53	123.14	42.446	2.741e-06	52.289	0.00048445	0.00054923	0.000142	1369.9	5.3965e-06	5.9714e-06	1373.5	370.57	5.4074e-06	5.902e-06	424.04	143.55	124.91	43.518	5.4571e-06	53.049	253.302	157.702	51.890	-15.869	107.915	137.760	-15.802	-11.210	270.805	57.588	-11.744	-6.760	-6.425	-2.401	229.027	-3.002	-8191	255	
13994.375	1	1	0	0	0.10962	0.39739	0.11333	0.15881	0.39592	0.10548	0.12225	0.073285	0.097356	0.17761	0.19577	0.037682	0.096858	0.23589	0.13397	0.26647	-2.6292	-2.2979	-2.5646	-2.9625	-2.2833	-2.8896	-2.9167	-2.4646	-2.95	-2.3979	-2.4479	-2.9646	-2.4688	-2.8271	-2.7146	-2.4417	97.949	100.990	143.200	247.082	317.923	16.874	276.544	106.390	226.735	79.156	255.260	113.898	165.745	254.386	1.397	180.395	0.00034254	0.00043135	9.7612e-05	1353.8	5.668e-06	6.2986e-06	1358.6	364.6	4.8532e-06	5.9284e-06	417.76	141.07	123.24	42.171	3.7788e-06	52.322	0.00050502	0.00053368	0.00013812	1370	5.6179e-06	5.7656e-06	1373	370.49	5.6873e-06	5.7686e-06	424.11	143.41	125.6	43.355	5.296e-06	53.156	243.798	9.733	34.553	-15.832	128.650	82.494	-15.842	-10.885	160.196	168.899	-11.797	-6.685	-6.402	-2.455	114.410	-3.098	-8191	255	
13994.471	1	1	0	0	0.22171	0.13658	0.14166	0.25053	0.15388	0.26274	0.28547	0.11256	0.037682	0.090835	0.15536	0.13566	0.21928	0.05975	0.25193	0.36198	-2.5479	-2.4417	-2.5375	-3.0396	-2.2167	-2.7792	-2.7583	-2.5458	-2.9458	-2.4542	-2.4333	-2.9979	-2.45	-2.7062	-2.8187	-2.3229	294.895	142.742	215.402	321.579	81.279	315.746	307.312	227.195	56.803	-2.299	302.081	317.463	270.643	227.685	282.274	255.197	0.00034723	0.00049517	0.00013211	1351.3	3.8469e-06	2.4521e-06	1357.9	365.1	9.4684e-06	7.2344e-06	418.83	141.81	123.45	42.29	2.9569e-06	52.542	0.00053012	0.00051664	0.00013517	1370	5.8304e-06	5.5961e-06	1371	371.31	5.8481e-06	5.4995e-06	422.51	144.03	125.8	43.288	5.0547e-06	53.37	253.444	6.883	18.550	-15.865	55.566	61.541	-15.779	-11.183	190.767	63.008	-12.151	-6.808	-6.684	-2.303	164.370	-3.499	-8191	255	
13994.567	1	1	0	0	0.21776	0.048634	0.036854	0.28556	0.28245	0.15714	0.31817	0.36394	0.25447	0.1756	0.24494	0.29149	0.1586	0.15875	0.10264	0.20363	-2.3833	-2.4729	-2.225	-2.9437	-2.3396	-2.65	-2.8542	-2.3583	-2.9333	-2.675	-2.3792	-3	-2.3979	-2.5542	-2.875	-2.1625	309.600	110.116	183.215	265.165	98.907	-2.730	218.077	281.420	306.149	261.331	278.400	237.261	229.277	290.254	322.630	132.858	0.00028694	0.00034119	0.00015724	1353.3	3.519e-06	2.8349e-06	1364.5	366.63	2.387e-06	3.6141e-06	417.72	141.2	122.9	42.252	4.9812e-06	52.13	0.00052793	0.0004935	0.00012884	1373	5.7427e-06	5.3942e-06	1372.4	372.3	5.7124e-06	5.3148e-06	421.82	144.19	125.47	43.232	4.9762e-06	53.422	249.241	80.624	46.169	-15.944	66.332	89.170	-15.960	-11.081	165.069	61.245	-11.704	-7.040	-6.306	-2.246	79.154	-3.590	-8191	255	
13994.663	1	1	0	0	0.25101	0.066638	0.15951	0.28583	0.27731	0.28874	0.34888	0.063137	0.080018	0.058679	0.076958	0.25759	0.14727	0.060014	0.278	0.22891	-2.3125	-2.6292	-2.2271	-3.0917	-2.4875	-2.5333	-3.2313	-2.525	-2.6688	-2.775	-2.3583	-2.9646	-2.6854	-2.4667	-2.8312	-2.3917	259.957	330.372	267.350	-22.996	167.674	22.671	273.356	283.586	207.173	225.284	139.045	-7.134	-4.660	-13.289	275.847	-10.953	0.00039147	0.00049969	8.8028e-05	1355.7	3.0088e-06	5.596e-06	1360.9	365.71	2.629e-06	1.9797e-06	418.84	141.17	123.1	42.23	3.1845e-06	52.42	0.00051513	0.00048121	0.00012715	1374.4	5.5614e-06	5.2246e-06	1370.5	371.91	5.5196e-06	5.1562e-06	421.93	144.33	125.29	43.075	5.1018e-06	53.557	240.080	37.250	228.807	-15.892	125.481	-13.118	-16.007	-11.119	251.773	79.865	-12.081	-7.025	-6.343	-2.199	115.172	-3.625	-8191	255	
13994.784	1	1	0	0	0.22132	0.16021	0.061456	0.29293	0.10062	0.27016	0.42609	0.14055	0.0099423	0.21603	0.1596	0.17075	0.29871	0.24482	0.10982	0.17989	-2.4062	-2.5333	-2.2875	-3.2562	-2.6083	-2.4354	-3.0938	-2.3833	-2.7083	-2.9188	-2.3937	-2.9	-2.6896	-2.4604	-3.0104	-2.5104	163.556	197.402	219.520	-28.862	64.823	110.214	273.311	306.513	46.621	36.163	312.378	255.471	235.252	239.784	-16.287	289.400	0.00040398	0.00067491	0.0001263	1357.4	1.8448e-06	8.4812e-06	1360.5	365.52	3.754e-06	4.9494e-06	416.69	141.12	123.28	42.524	5.2741e-06	52.363	0.00050448	0.00047282	0.00013394	1376.4	5.4689e-06	5.1505e-06	1371.2	372.78	5.5072e-06	5.1039e-06	422.21	144.41	124.81	43.08	5.4881e-06	53.51	246.365	57.982	50.372	-16.209	102.582	155.988	-15.999	-11.075	98.242	23.213	-11.886	-7.020	-6.288	-2.658	148.647	-3.509	-8191	255	
13994.880	1	1	0	0	0.045148	0.068246	0.19094	0.12616	0.021349	0.24	0.29623	0.25718	0.17133	0.13326	0.21187	0.18869	0.14721	0.099673	0.29014	0.1561	-2.15	-2.7042	-2.1771	-3.0687	-2.5854	-2.2938	-3.1167	-2.5354	-2.4854	-2.7979	-2.3396	-2.9208	-2.675	-2.3021	-2.85	-2.4313	131.253	215.938	227.050	291.344	81.641	153.258	278.470	267.706	306.955	18.169	2.867	316.535	-24.378	128.706	118.956	211.274	0.00032654	0.00037368	2.7144e-05	1360.1	1.8099e-06	3.9767e-06	1365.3	366.65	3.7985e-06	7.9659e-06	419.49	141.72	123.83	42.525	3.7837e-06	52.482	0.00049534	0.00046109	0.00014339	1376	5.3537e-06	5.0771e-06	1375.6	372.43	5.4132e-06	5.0277e-06	424.93	144.42	124.88	43.112	5.7181e-06	53.424	264.688	30.300	145.625	-16.035	143.635	125.827	-16.007	-11.077	206.014	124.234	-11.866	-7.160	-6.397	-2.564	136.780	-3.451	-8191	255	
13994.974	1	1	0	0	0.11356	0.28878	0.2068	0.1973	0.090097	0.18851	0.34574	0.20538	0.059842	0.31021	0.15165	0.12868	0.090297	0.18868	0.15215	0.19084	-1.9229	-2.9646	-2.2208	-2.7333	-2.925	-2.2062	-3.1125	-2.6833	-2.4146	-2.8458	-2.2271	-2.7875	-2.9667	-2.3521	-2.9437	-2.5167	298.486	293.721	99.089	277.696	248.980	207.325	263.664	186.216	216.044	43.529	274.909	171.619	218.942	-26.319	124.707	54.389	0.00011698	0.00024526	0.00011179	1360.9	4.416e-06	1.2608e-06	1364.2	367.81	1.477e-06	4.9278e-06	421.05	141.97	123.4	42.36	7.5562e-06	52.52	0.0004853	0.00046711	0.00014648	1375.2	5.2298e-06	5.1447e-06	1378.6	372.66	5.2303e-06	5.2432e-06	425.53	144.15	124.43	43.168	5.9445e-06	53.422	232.413	131.700	81.629	-16.128	34.804	146.850	-16.045	-11.017	243.443	207.472	-11.928	-7.193	-6.444	-2.738	142.298	-3.085	-8191	255	
13995.048	1	1	0	0	0.17868	0.1649	0.1249	0.14757	0.21336	0.17988	0.24195	0.3408	0.076738	0.14333	0.22795	0.045948	0.29469	0.036481	0.2054	0.36075	-1.9354	-2.9062	-2.2729	-2.8375	-2.7833	-2.325	-2.8979	-2.6292	-2.3438	-2.9854	-2.6479	-2.5729	-2.9667	-2.3646	-2.7729	-2.8	105.034	186.563	57.099	-16.967	119.692	-24.214	291.150	272.881	159.752	-25.537	240.659	62.021	300.358	267.828	306.412	305.787	0.00046293	0.00071277	0.00024741	1362.6	3.5234e-06	3.8056e-06	1367.3	369.15	1.1489e-06	4.9143e-06	418.08	142.2	123.15	42.552	8.1765e-06	52.723	0.00047917	0.00049823	0.00015255	1375.5	5.1524e-06	5.5135e-06	1377.7	372.28	5.1519e-06	5.5973e-06	425.29	144.25	124.41	43.373	5.8479e-06	53.314	263.400	70.814	23.755	-16.088	16.334	90.680	-15.991	-11.035	171.588	227.791	-11.833	-7.351	-6.440	-2.530	110.666	-2.917	-8191	255	
13995.144	1	1	0	0	0.094878	0.034345	0.11597	0.3619	0.29516	0.11624	0.24196	0.28463	0.19378	0.1543	0.28019	0.24773	0.14443	0.20625	0.10528	0.17838	-1.8167	-2.9104	-2.3354	-2.7479	-2.7562	-2.1958	-2.8729	-2.8792	-2.3125	-2.8792	-2.475	-2.4333	-2.9229	-2.4104	-2.5583	-2.7438	17.175	238.486	37.999	269.127	6.506	306.651	263.935	213.708	96.375	133.646	241.714	285.704	26.777	-16.295	39.334	216.852	0.00034881	0.00039716	0.00011401	1363.4	4.4365e-07	6.7795e-06	1372.1	367.98	3.6645e-06	8.4407e-06	419.33	142.52	123.89	42.494	4.294e-06	52.699	0.00046863	0.00052896	0.00014769	1374.5	5.0888e-06	5.8189e-06	1378.4	371.52	5.1441e-06	5.8425e-06	424.27	143.81	124.68	43.447	5.5913e-06	53.244	260.330	21.218	17.340	-16.064	100.759	194.922	-16.375	-11.242	179.896	121.541	-12.128	-7.284	-6.510	-2.766	158.204	-3.382	-8191	255	
13995.263	1	1	0	0	0.057479	0.058715	0.13035	0.25002	0.079654	0.11464	0.20365	0.045954	0.075732	0.13133	0.073643	0.23974	0.18903	0.27835	0.18747	0.2782	-2.0042	-2.9646	-2.2292	-2.5375	-2.8958	-2.4562	-2.9396	-2.9458	-2.2667	-2.8583	-2.6646	-2.4229	-3.0042	-2.3875	-2.375	-2.9667	112.415	6.010	-14.856	295.811	284.716	129.554	327.294	301.888	22.232	73.616	10.126	320.459	319.574	283.174	47.882	85.401	0.00044756	0.00029374	0.00011343	1364.5	6.6672e-06	1.0465e-06	1367.2	368.81	2.4415e-06	8.354e-06	421.23	142.64	124.12	42.563	4.6442e-06	52.679	0.00047134	0.00053135	0.00014066	1372.6	5.2122e-06	5.8238e-06	1373.6	371.24	5.2818e-06	5.7575e-06	423.79	143.62	125.15	43.498	5.3687e-06	53.095	238.935	34.217	33.613	-16.192	122.290	326.530	-16.106	-11.118	236.120	114.587	-12.106	-7.430	-6.510	-2.534	85.602	-3.577	-8191	255	
13995.359	1	1	0	0	0.21319	0.14417	0.068606	0.17121	0.090308	0.078071	0.41145	0.17143	0.1559	0.027327	0.050569	0.092905	0.35369	0.19269	0.080354	0.065722	-1.8021	-2.8917	-2.5604	-2.4542	-2.8312	-2.3896	-2.825	-3.0229	-2.2917	-2.8354	-2.7146	-2.4521	-2.9208	-2.4437	-2.4542	-2.9188	89.193	217.672	103.971	315.089	12.988	260.201	238.011	322.566	267.301	258.507	95.211	311.054	265.695	310.560	29.177	94.389	0.0004565	0.00031262	8.2287e-05	1360.6	5.9603e-06	6.0142e-06	1361.9	367.04	2.005e-06	4.5322e-06	420.19	142.28	123.3	42.597	2.923e-06	52.658	0.00049591	0.00052526	0.00013583	1369.9	5.468e-06	5.6788e-06	1372.9	369.98	5.5026e-06	5.6361e-06	422.64	143.34	125.16	43.392	5.2531e-06	53.115	269.579	25.378	105.580	-16.260	91.887	76.564	-16.064	-11.138	206.590	141.879	-11.925	-7.216	-6.336	-2.618	80.011	-3.082	-8191	255	
13995.455	1	1	0	0	0.045172	0.37536	0.097295	0.077724	0.35313	0.31777	0.28634	0.14367	0.024107	0.23381	0.19459	0.19353	0.1252	0.19954	0.27034	0.16974	-1.8396	-2.5729	-2.6188	-2.5167	-2.6562	-2.4979	-2.3812	-2.9833	-2.125	-2.8187	-2.7479	-2.1917	-2.8563	-2.4562	-2.3	-2.9958	112.856	95.542	259.746	128.663	91.605	205.106	300.095	269.035	289.023	69.021	279.564	222.071	26.137	30.906	84.721	-1.709	0.00032615	0.00024037	0.0002302	1361.1	5.717e-06	3.7326e-06	1370.7	366.8	6.4968e-06	2.5725e-06	419.44	142.32	123.77	42.437	4.1207e-06	52.152	0.00051792	0.00051164	0.00013268	1369.7	5.7749e-06	5.511e-06	1371.8	370.33	5.7587e-06	5.5023e-06	422.24	143.67	125.52	43.237	5.1287e-06	53.041	253.465	73.832	31.233	-16.299	51.268	100.709	-16.075	-11.261	163.254	46.381	-11.772	-7.045	-6.429	-2.505	130.072	-3.298	-8191	255	
13995.576	1	1	0	0	0.13606	0.14703	0.28761	0.43708	0.056859	0.19518	0.14699	0.29968	0.14218	0.25402	0.367	0.24037	0.25822	0.29828	0.20017	0.057485	-1.8521	-2.7146	-2.6479	-2.3396	-2.775	-2.5062	-2.4833	-3.1792	-2.3583	-2.6	-3.0479	-2.3688	-2.8354	-2.7042	-2.3083	-2.9271	55.215	92.241	268.288	283.557	310.732	243.303	270.886	318.180	53.850	28.558	217.946	324.254	287.110	229.357	73.777	226.379	0.00036252	0.00051556	4.6917e-05	1361.6	7.1482e-06	6.1131e-06	1366.8	367.01	2.4968e-06	3.4483e-06	419.81	142.62	124.1	42.48	5.0072e-06	52.751	0.00053143	0.00049961	0.00012965	1370.6	5.8326e-06	5.4236e-06	1371.2	371.14	5.7484e-06	5.378e-06	421.88	144.23	125.77	43.21	4.9947e-06	53.487	275.086	127.336	18.494	-16.104	32.086	79.903	-16.187	-11.311	132.423	195.424	-12.057	-7.299	-6.692	-2.694	127.434	-3.368	-8191	255	
13995.647	1	1	0	0	0.16935	0.061179	0.15976	0.20941	0.051293	0.26374	0.28889	0.28575	0.14939	0.23484	0.18544	0.094227	0.19715	0.17449	0.056313	0.091354	-1.9917	-2.5	-2.7792	-2.2313	-2.8333	-2.7354	-2.4896	-3.1417	-2.4354	-2.4417	-3.1167	-2.3688	-2.8104	-2.7958	-2.3042	-2.8958	6.957	134.872	118.307	313.223	20.672	83.215	267.828	286.827	156.357	-0.756	238.387	70.125	-19.120	285.204	140.811	55.852	0.00036478	0.00051736	0.00015834	1368.2	3.1929e-06	2.1085e-06	1368	368.28	5.9028e-06	2.4243e-06	421.16	142.6	123.94	42.465	1.2462e-05	52.78	0.00051198	0.00048027	0.00012612	1376.4	5.63e-06	5.1358e-06	1369.7	372.58	5.5324e-06	5.2024e-06	421.59	144.41	125.31	43.105	5.039e-06	53.532	246.705	39.406	75.809	-16.125	64.560	73.165	-16.121	-11.281	164.981	226.581	-12.098	-7.426	-6.546	-2.542	150.121	-3.277	-8191	255	
13995.744	1	1	0	0	0.19254	0.07021	0.11972	0.12761	0.1278	0.17326	0.1681	0.10469	0.09827	0.071735	0.080593	0.13569	0.18276	0.17678	0.12985	0.22217	-1.9458	-2.3	-2.7625	-2.3792	-2.7417	-2.6125	-2.3729	-2.8917	-2.4729	-2.5	-2.9417	-2.325	-2.7604	-2.8104	-2.2875	-3.0375	306.243	315.091	42.263	-8.963	173.352	160.685	302.666	56.748	269.060	195.410	203.570	152.884	-0.367	-24.397	17.223	247.977	0.00034017	0.00029139	7.5291e-05	1362.9	2.5725e-06	1.1771e-06	1365	367.69	3.6832e-06	8.023e-06	420.51	141.54	123.35	42.38	3.8677e-06	52.424	0.00050023	0.00046837	0.00012969	1373.8	5.4968e-06	5.1218e-06	1369.7	372.15	5.4138e-06	5.0866e-06	422.41	143.89	124.63	42.902	5.4102e-06	53.439	238.605	-3.024	123.729	-15.938	280.898	299.805	-16.076	-11.111	156.263	102.014	-12.199	-6.949	-6.346	-2.483	163.441	-3.352	-8191	255	
13995.864	1	1	0	0	0.10414	0.17791	0.025812	0.43069	0.2351	0.12993	0.23202	0.3978	0.16478	0.18573	0.40274	0.044454	0.39488	0.20048	0.15965	0.33148	-2.1979	-2.4167	-2.9083	-2.4625	-2.675	-2.8167	-2.35	-2.9146	-2.5479	-2.2708	-3.0542	-2.5625	-2.4854	-2.9562	-2.1854	-3.0687	20.780	228.101	290.646	293.571	12.624	215.459	272.304	252.648	52.832	192.005	292.835	242.182	300.303	-26.607	104.856	295.506	0.00015927	0.00043601	5.62e-05	1357.1	4.0702e-06	3.3507e-06	1358.1	365.56	3.3463e-06	2.5575e-06	418.36	141.56	122.91	42.213	8.3692e-06	52.217	0.00049157	0.00046289	0.00013847	1370.9	5.3709e-06	5.0297e-06	1367	370.53	5.3693e-06	5.1068e-06	422.85	143.49	123.9	42.741	5.7307e-06	53.223	240.363	6.203	145.397	-16.158	72.674	99.372	-16.060	-11.357	93.571	102.211	-12.170	-7.062	-7.023	-2.643	163.257	-3.263	-8191	255	
13995.960	1	1	0	0	0.12941	0.096485	0.14468	0.40461	0.06391	0.1069	0.29065	0.21326	0.087941	0.042556	0.10385	0.11892	0.67558	0.33761	0.22918	0.07232	-2.3021	-2.2104	-2.6188	-2.5625	-2.475	-2.9167	-2.3792	-2.7687	-2.6104	-2.3042	-2.9396	-2.475	-2.4458	-2.925	-2.2042	-2.6333	102.925	157.331	75.840	-13.439	-27.697	155.484	212.330	13.204	-11.035	69.602	32.770	290.442	329.465	-24.868	13.520	148.940	0.00030424	0.0005033	4.8652e-05	1356	1.9537e-06	7.1015e-06	1356.2	366.14	5.0245e-06	3.7136e-06	415.85	140.95	122.44	42.059	1.4854e-06	52.325	0.00048281	0.0004631	0.00014573	1367.4	5.2249e-06	5.0603e-06	1367.9	370	5.1652e-06	5.0827e-06	421.78	142.88	123.34	42.632	5.7268e-06	52.849	256.898	46.242	172.970	-16.135	87.378	137.083	-16.301	-11.232	133.151	139.469	-11.973	-6.868	-6.926	-2.646	118.275	-3.392	-8191	255	
13996.056	1	1	0	0	0.24815	0.36328	0.25144	0.21441	0.23541	0.19304	0.04995	0.08156	0.051402	0.27968	0.12619	0.084592	0.2139	0.11019	0.066077	0.26331	-2.3917	-2.0854	-2.7812	-2.7896	-2.2875	-2.9646	-2.4417	-2.8542	-2.9208	-2.2208	-2.9833	-2.5042	-2.2896	-2.8563	-2.2896	-2.7438	219.060	160.092	179.722	314.773	37.072	-17.128	237.719	135.330	274.264	91.570	269.707	315.579	249.064	321.643	11.842	261.597	0.00034241	0.00026888	0.0001382	1357.1	2.5767e-06	4.8749e-06	1360.2	364.99	4.4996e-06	6.9002e-06	416.27	140.41	121.98	42.226	4.9729e-06	52.061	0.00045754	0.00047058	0.00014514	1366	4.9437e-06	5.1671e-06	1366.2	368.7	4.8713e-06	5.2695e-06	421.47	142.25	122.83	42.826	5.5412e-06	52.668	231.878	40.710	62.708	-16.023	64.653	147.946	-16.201	-11.094	153.236	146.385	-12.127	-7.187	-6.758	-2.602	124.966	-3.264	-8191	255	
13996.175	1	1	0	0	0.17437	0.099866	0.071607	0.26875	0.083176	0.093475	0.17839	0.33217	0.37284	0.12406	0.11375	0.07143	0.28785	0.09098	0.31558	0.26902	-2.7167	-2.2354	-2.825	-2.9125	-2.4313	-2.7146	-2.5125	-2.4083	-2.9354	-2.1458	-2.7042	-2.6604	-2.2458	-3.1729	-2.1958	-2.4729	189.273	17.318	124.284	287.817	150.697	262.365	239.314	309.832	225.583	-24.312	287.963	218.825	312.017	306.830	124.944	280.490	0.00058259	0.00030646	0.0001874	1352.2	4.0889e-06	7.06e-06	1358.6	364.54	3.7267e-06	3.6557e-06	417.33	141.04	122.27	42.073	3.7701e-06	52.15	0.00044475	0.00049602	0.00014141	1361.4	4.8875e-06	5.4676e-06	1365.5	367.91	4.8796e-06	5.5365e-06	420.72	142.15	122.93	42.881	5.402e-06	52.691	236.284	173.890	46.616	-16.049	112.166	167.266	-16.124	-11.145	192.094	119.381	-12.052	-7.076	-6.532	-2.507	162.373	-3.265	-8191	255	
13996.272	1	1	0	0	0.23584	0.15316	0.10133	0.19676	0.24847	0.04669	0.11614	0.3665	0.1443	0.020141	0.16227	0.24518	0.080557	0.16604	0.27137	0.14169	-2.3125	-2.1854	-2.6188	-3.0292	-2.2104	-2.9042	-2.6458	-2.5167	-2.8146	-2.4354	-2.9542	-2.9229	-2.2354	-2.8333	-2.5812	-2.5896	112.008	34.339	259.626	308.428	26.156	160.281	249.019	306.853	108.658	103.431	236.178	52.195	-22.925	256.188	187.761	318.269	0.00042378	0.00018147	0.00013612	1354.5	5.1091e-06	3.6324e-06	1355.6	365.63	5.5781e-06	1.9241e-06	417.27	140.9	121.91	42.107	1.4086e-06	52.113	0.00045001	0.00051366	0.00013784	1360.5	5.0187e-06	5.6288e-06	1362	367.47	5.0532e-06	5.6372e-06	420.06	142.02	123.01	42.869	5.2095e-06	52.591	262.525	101.275	26.890	-16.109	82.707	175.831	-16.403	-11.375	273.259	316.414	-12.118	-6.928	-6.497	-2.305	12.976	-3.326	-8191	255	
13996.343	1	1	0	0	0.069152	0.5128	0.060217	0.32366	0.031864	0.015539	0.27072	0.21317	0.29331	0.2197	0.16504	0.13519	0.0039601	0.22019	0.24692	0.10914	-2.4771	-2.2	-2.4542	-2.9854	-2.1583	-2.9854	-2.6125	-2.4604	-2.8146	-2.2354	-2.6396	-2.9354	-2.3854	-2.7479	-2.6104	-2.3937	68.844	230.637	49.888	277.223	145.368	76.731	286.325	228.823	81.580	160.341	244.076	11.041	78.091	314.133	184.020	240.359	0.00037827	0.00047382	0.00010559	1357.3	4.2551e-06	4.2927e-06	1354	365.65	7.124e-06	1.9953e-06	420.12	140.84	122.31	42.114	1.8625e-06	52.409	0.00047552	0.00051446	0.0001332	1362.3	5.2686e-06	5.5745e-06	1362.5	368.03	5.3604e-06	5.541e-06	420.34	141.94	123.7	42.882	5.1688e-06	52.633	238.049	42.969	21.726	-15.977	130.228	146.280	-16.137	-11.187	199.620	184.542	-11.928	-7.089	-6.594	-2.484	107.547	-3.506	-8191	255	
13996.439	1	1	0	0	0.16635	0.08607	0.15473	0.39097	0.39381	0.10189	0.31623	0.24714	0.12232	0.10936	0.25486	0.21107	0.046991	0.18573	0.10894	0.25773	-2.5667	-2.3854	-2.3792	-3.0583	-2.2875	-2.5896	-2.9375	-2.325	-2.9104	-2.5708	-2.5583	-3.0979	-2.4792	-2.7458	-2.6979	-2.2958	-8.692	233.085	-15.696	267.674	260.255	8.241	223.442	12.256	15.876	171.377	324.889	3.645	105.186	271.733	271.010	82.703	0.00039823	0.00036744	0.00010053	1354.1	3.7286e-06	5.1511e-06	1360	365.03	3.5213e-06	2.9562e-06	418.71	141.34	122.26	42.006	4.5472e-06	52.066	0.00050622	0.00050324	0.000131	1361.8	5.6328e-06	5.4856e-06	1363	367.61	5.6627e-06	5.3916e-06	419.77	142.21	123.94	42.745	5.0307e-06	52.707	257.173	14.255	5.839	-15.932	61.441	30.924	-16.137	-11.289	231.922	17.626	-12.060	-7.340	-6.713	-2.557	84.958	-3.647	-8191	255	
13996.560	1	1	0	0	0.19744	0.19868	0.1887	0.2867	0.23358	0.19843	0.067666	0.23127	0.2729	0.14922	0.12822	0.17615	0.27919	0.2422	0.089185	0.1597	-2.4813	-2.4104	-2.2979	-2.9833	-2.4583	-2.7042	-2.9896	-2.3667	-2.6042	-2.4917	-2.4417	-3.1292	-2.3167	-2.65	-2.8021	-2.0958	-25.955	178.919	285.050	284.720	0.208	274.641	141.046	283.552	96.456	59.978	307.657	-0.278	-3.648	255.369	97.267	330.505	0.00022667	0.0003663	0.00016045	1362.8	3.1052e-06	3.6301e-06	1359.1	365.2	2.5462e-06	5.8832e-06	416.57	141.01	122.27	42.14	4.4454e-06	51.979	0.00051894	0.00049328	0.00012967	1365.8	5.708e-06	5.365e-06	1361.4	368.51	5.7068e-06	5.3168e-06	419.29	142.61	124.19	42.798	4.8968e-06	52.892	269.011	88.283	132.203	-15.982	9.499	99.404	-16.335	-11.300	92.925	78.129	-12.082	-7.112	-6.309	-2.784	-15.082	-3.320	-8191	255	
13996.656	1	1	0	0	0.25553	0.10784	0.023072	0.30266	0.30084	0.097963	0.30425	0.072074	0.30703	0.16513	0.048968	0.14584	0.226	0.23007	0.053066	0.15615	-2.3917	-2.5875	-2.0771	-3.0563	-2.2521	-2.4792	-2.8958	-2.3271	-2.7333	-2.4354	-2.225	-2.9521	-2.4917	-2.425	-2.9354	-2.2938	322.874	230.765	207.818	316.766	118.206	245.013	318.234	99.984	20.696	78.701	270.475	4.466	0.486	172.477	-7.467	280.961	0.00024249	0.00051718	9.9932e-05	1359.3	6.8815e-06	7.558e-06	1363.3	365.97	1.7742e-06	3.8351e-06	418.98	141.52	122.46	42.278	1.4929e-06	52.409	0.00050987	0.00047944	0.00012515	1368.1	5.5627e-06	5.1687e-06	1363.5	369.71	5.4546e-06	5.1452e-06	418.7	142.97	123.89	42.699	4.9527e-06	53.061	257.210	70.631	47.152	-16.156	107.309	97.809	-16.020	-11.217	87.124	146.641	-12.057	-7.150	-6.728	-2.538	109.317	-3.336	-8191	255	
13996.752	1	1	0	0	0.16422	0.16297	0.17899	0.17243	0.22388	0.29206	0.15068	0.20293	0.2628	0.10046	0.12506	0.23177	0.14638	0.24523	0.070092	0.093034	-2.2042	-2.7729	-2.1354	-2.9813	-2.3104	-2.2646	-3.0875	-2.4167	-2.6479	-2.7625	-2.4604	-2.8729	-2.6208	-2.4833	-3.0062	-2.4333	-2.146	41.400	204.377	320.172	269.632	-28.951	321.331	247.716	-24.860	117.857	195.475	251.561	-18.398	-12.663	47.229	-13.947	0.00041043	0.00061098	0.00016393	1359.7	2.9769e-06	3.814e-06	1363.1	366.33	2.7861e-06	7.0946e-06	419.65	140.67	122.74	42.129	2.3426e-06	52.058	0.00049256	0.00046184	0.00012712	1370.6	5.3665e-06	4.9934e-06	1364.3	369.69	5.3187e-06	4.9501e-06	420.16	143.07	123.47	42.606	5.1153e-06	53.028	252.552	1.191	100.227	-16.118	-7.968	15.255	-16.117	-11.195	318.367	59.799	-12.097	-7.062	-6.793	-2.660	69.889	-3.160	-8191	255	
13996.848	1	1	0	0	0.16365	0.13103	0.26932	0.29462	0.12214	0.01064	0.14562	0.23429	0.14806	0.37677	0.20453	0.092933	0.36292	0.14398	0.22739	0.10521	-2.1625	-2.8	-2.1646	-3.0083	-2.5542	-2.425	-2.925	-2.4042	-2.5792	-2.9396	-2.1146	-2.7917	-2.6292	-2.3521	-2.8688	-2.3479	9.258	16.274	324.046	302.694	323.387	-21.229	245.002	266.131	241.834	116.968	188.101	297.053	311.177	255.478	220.825	57.307	0.0003185	0.00046335	6.3862e-05	1358.8	6.2769e-06	2.8591e-06	1363.6	366.2	7.9767e-07	7.5441e-06	418.56	141.89	122.5	42.259	5.5451e-06	52.389	0.0004751	0.0004454	0.00013354	1368.3	5.1921e-06	4.9068e-06	1365.9	369.29	5.2006e-06	4.8162e-06	420.46	143.17	123.46	42.618	5.4039e-06	52.998	258.852	23.492	74.515	-16.162	70.191	75.956	-16.092	-11.492	32.404	140.158	-11.747	-7.088	-6.657	-2.647	168.957	-3.465	-8191	255	
13996.945	1	1	0	0	0.2712	0.23771	0.2423	0.27412	0.36979	0.07053	0.19714	0.077548	0.31968	0.21421	0.15987	0.27394	0.21525	0.15847	0.13006	0.30849	-1.9813	-2.7958	-2.1813	-2.7667	-2.625	-2.3063	-3.0583	-2.5667	-2.3854	-2.8771	-2.5021	-2.8708	-2.7271	-2.3458	-2.7729	-2.5833	-15.953	-6.904	47.022	23.236	10.839	0.795	-19.453	185.770	-22.559	206.107	44.113	242.032	230.323	212.208	38.506	-2.016	0.00043894	0.00018753	0.00022201	1358.1	2.3326e-06	4.0673e-06	1357.5	364.1	1.674e-06	5.4569e-06	420.65	141.22	122.73	42.272	3.1016e-06	52.493	0.00046511	0.00044157	0.00013916	1366.7	5.0754e-06	4.8986e-06	1366	368.33	5.0304e-06	4.8739e-06	421.92	142.78	123.25	42.609	5.6127e-06	52.943	273.021	242.681	83.974	-16.011	5.627	192.032	-16.153	-11.536	288.248	132.450	-12.114	-7.218	-6.720	-2.519	104.274	-3.268	-8191	255	
13997.041	1	1	0	0	0.076301	0.1632	0.070913	0.29507	0.036211	0.053518	0.13562	0.23054	0.29569	0.27892	0.020776	0.11264	0.21721	0.25211	0.16139	0.25116	-1.8417	-3.0125	-2.1292	-2.9562	-2.9771	-2.4771	-2.9333	-2.5583	-2.2438	-2.85	-2.4104	-2.7604	-2.8146	-2.3271	-2.7562	-2.6146	315.533	107.748	275.333	294.365	149.298	205.301	-24.873	300.059	124.959	302.005	33.791	12.437	12.286	273.175	-22.805	-27.494	0.00032045	0.00049217	8.0328e-05	1356.4	1.2724e-06	6.7086e-06	1358.2	364.45	1.0327e-05	2.7215e-06	418.29	141.17	122.1	42.378	6.9064e-06	52.439	0.00045349	0.00045641	0.0001413	1364.5	4.902e-06	5.0742e-06	1366.7	367.77	4.8708e-06	5.121e-06	421.23	142.37	122.64	42.807	5.4403e-06	52.743	257.403	177.618	124.841	-16.105	111.477	160.562	-16.221	-11.021	126.542	173.872	-12.355	-7.279	-6.545	-2.641	73.994	-3.175	-8191	255	
13997.137	1	1	0	0	0.1943	0.20311	0.12469	0.25562	0.27889	0.16888	0.075027	0.074015	0.088427	0.14537	0.33123	0.12334	0.14529	0.074178	0.18511	0.047863	-1.9521	-2.6958	-2.275	-2.5458	-2.5792	-2.2792	-2.8875	-2.6646	-2.2708	-2.8438	-2.4188	-2.3625	-2.8812	-2.2896	-2.7938	-2.5708	114.431	0.333	102.648	251.005	35.359	62.909	164.645	37.072	148.885	122.005	307.687	257.524	178.790	195.461	276.522	327.410	0.00039871	0.00080403	0.00011729	1350.4	1.8968e-06	5.2466e-06	1357.3	363.22	3.6739e-06	2.9497e-06	416.9	141.46	122.41	42.084	4.0407e-06	52.17	0.00043328	0.00047298	0.00013731	1358.8	4.6943e-06	5.3334e-06	1363.1	366.85	4.7469e-06	5.363e-06	419.21	142.12	122.9	42.805	5.3211e-06	52.516	226.395	141.526	22.318	-16.233	-18.642	96.199	-16.277	-11.231	256.981	145.926	-12.020	-7.322	-6.411	-2.310	144.997	-3.389	-8191	255	
13997.256	1	1	0	0	0.14737	0.26425	0.30017	0.19322	0.17509	0.11149	0.26545	0.38946	0.056711	0.089765	0.061166	0.10919	0.2459	0.0075185	0.2937	0.096986	-1.7354	-2.8021	-2.4354	-2.45	-2.7625	-2.1813	-2.8583	-2.825	-2.2208	-2.8667	-2.6312	-2.3521	-3.2458	-2.4625	-2.5875	-2.7438	211.622	219.580	105.293	317.613	12.216	42.842	301.035	-14.162	96.089	8.716	315.257	175.966	309.081	173.945	297.196	83.949	0.00049207	0.00058569	0.00013627	1351.9	6.2172e-06	4.0415e-06	1361.2	364.17	4.5641e-06	1.6299e-06	416.71	141.22	122.21	42.25	5.4838e-06	52.243	0.0004425	0.00050006	0.00013331	1360.4	4.7935e-06	5.4565e-06	1362.1	366.89	4.938e-06	5.5568e-06	418.87	141.87	123.02	42.842	5.1634e-06	52.449	241.197	93.999	45.707	-16.079	112.947	185.930	-15.988	-11.248	186.458	171.642	-12.021	-7.228	-6.608	-2.641	94.219	-3.255	-8191	255	
13997.352	1	1	0	0	0.082148	0.13472	0.30244	0.28	0.07297	0.10689	0.16949	0.14445	0.12416	0.13842	0.2635	0.30425	0.12944	0.011823	0.14599	0.35043	-1.9021	-2.7146	-2.4854	-2.4313	-2.8708	-2.3917	-2.7542	-2.7521	-2.2354	-2.8854	-2.6521	-2.2625	-2.9021	-2.4125	-2.5896	-2.9208	93.181	-16.903	205.075	253.169	175.632	188.936	239.067	329.015	139.204	308.408	265.454	2.695	237.069	316.416	41.050	199.867	0.00041265	0.0003625	0.00011634	1356.3	1.2733e-06	3.7453e-06	1356.6	364.86	6.2919e-06	6.118e-06	416.28	141.7	122.97	42.173	3.1947e-06	52.308	0.00046251	0.00049912	0.00012926	1359.7	5.0908e-06	5.4203e-06	1360.2	366.34	5.1995e-06	5.427e-06	418.89	141.9	123.8	42.846	5.0328e-06	52.505	238.739	78.461	55.624	-16.279	-19.653	115.972	-16.180	-11.294	267.903	128.754	-12.061	-7.260	-6.520	-2.696	30.874	-3.297	-8191	255	
13997.448	1	1	0	0	0.16326	0.063018	0.19749	0.35696	0.12991	0.29007	0.31493	0.33693	0.097795	0.13227	0.26687	0.17312	0.02321	0.58016	0.1541	0.10666	-1.7771	-2.6292	-2.5729	-2.4417	-2.8542	-2.3375	-2.5708	-2.9125	-2.0875	-2.7833	-2.6479	-2.4458	-3.0979	-2.4896	-2.4146	-2.9771	56.253	73.397	47.350	-13.616	30.152	287.739	291.465	281.696	323.900	147.041	237.916	291.753	68.357	293.222	260.104	263.554	0.00045122	0.00053161	0.00015445	1356.9	4.9043e-06	2.1745e-06	1359.4	363.53	6.8884e-06	3.794e-06	416.99	141.03	123.23	42.329	6.8779e-06	52.333	0.00048373	0.00048547	0.00012607	1359.6	5.3522e-06	5.2574e-06	1360.9	366.25	5.412e-06	5.2383e-06	418.36	141.97	124.18	42.743	4.906e-06	52.685	240.125	-17.254	14.163	-16.197	101.785	107.217	-16.128	-11.427	106.222	131.009	-12.018	-7.300	-6.724	-2.391	113.485	-3.108	-8191	255	
13997.544	1	1	0	0	0.15582	0.080426	0.10732	0.091332	0.083951	0.1471	0.16188	0.060487	0.17662	0.22496	0.28654	0.06795	0.24115	0.26715	0.12201	0.13782	-1.8813	-2.6188	-2.7687	-2.5062	-2.8979	-2.5417	-2.5687	-3.1417	-2.2958	-2.5625	-2.7562	-2.5208	-3.1312	-2.6854	-2.2792	-2.85	63.818	32.748	77.943	269.174	328.308	125.186	186.507	307.984	91.423	142.774	310.903	287.222	285.519	-26.442	263.219	246.681	0.00027375	0.00042733	0.0001753	1353.8	4.5339e-07	5.807e-06	1357.5	365.35	3.621e-06	5.2888e-06	420.91	142.54	123.57	42.429	4.0215e-06	52.436	0.00049931	0.00047185	0.0001236	1360.1	5.4828e-06	5.141e-06	1362.5	368.5	5.4916e-06	5.1583e-06	419.41	143.07	124.53	42.927	4.7985e-06	53.041	247.001	9.033	31.989	-16.221	21.564	93.237	-16.264	-10.986	183.051	8.092	-11.850	-7.265	-6.743	-2.524	137.298	-3.140	-8191	255	
13997.640	1	1	0	0	0.24323	0.055727	0.16729	0.27599	0.37873	0.32653	0.26705	0.080192	0.20902	0.17315	0.090138	0.19196	0.085815	0.38512	0.048876	0.15558	-1.975	-2.3937	-2.8063	-2.4333	-2.7417	-2.7854	-2.4708	-3.1583	-2.4021	-2.5104	-2.9375	-2.2979	-2.8521	-2.7271	-2.4	-3.1583	197.707	45.555	221.740	224.633	53.986	282.694	286.828	316.847	75.527	143.941	30.359	62.816	203.162	304.035	141.608	206.891	0.00024837	0.00013047	9.012e-05	1362.4	5.463e-06	5.3457e-06	1362.5	366.03	4.5689e-06	3.8326e-06	419.28	142.84	123.25	42.484	7.5098e-06	52.521	0.00050069	0.00046836	0.00012064	1367.3	5.4241e-06	5.0501e-06	1363.5	369.79	5.3565e-06	5.0274e-06	418.84	143.97	124.56	42.936	4.8193e-06	53.269	284.316	104.438	49.838	-16.129	63.907	118.343	-16.214	-11.336	250.709	25.169	-11.841	-7.049	-6.773	-2.424	160.187	-3.652	-8191	255	
13997.736	1	1	0	0	0.09242	0.029588	0.029536	0.15586	0.34354	0.19093	0.1029	0.37917	0.10157	0.18229	0.032475	0.34303	0.15735	0.10299	0.32695	0.1948	-1.7146	-2.4854	-2.8125	-2.4313	-2.8042	-2.7313	-2.3479	-3.0771	-2.5771	-2.2521	-2.7896	-2.3417	-2.7	-2.6021	-2.2	-3.0312	120.358	311.635	260.341	310.481	272.952	122.761	275.475	305.073	275.479	311.944	153.859	265.650	217.181	36.866	113.912	213.626	0.0002682	0.00022036	0.00012026	1356.9	9.4772e-07	5.5656e-06	1358.6	366.59	4.1823e-06	2.3017e-06	418.77	142.15	123.57	42.449	9.4448e-06	52.595	0.00048647	0.00045734	0.00012359	1369.9	5.3378e-06	4.9898e-06	1363.6	370.52	5.2888e-06	4.991e-06	420.04	143.91	124.3	42.79	5.0678e-06	53.3	238.124	71.984	27.371	-16.304	283.812	86.865	-16.033	-11.349	204.447	92.313	-11.923	-7.301	-6.579	-2.647	175.066	-3.482	-8191	255	
13997.857	1	1	0	0	0.14161	0.031732	0.23877	0.58474	0.18757	0.091279	0.12015	0.2057	0.043966	0.057183	0.083781	0.071309	0.16922	0.39138	0.14456	0.23984	-1.9771	-2.1729	-2.6188	-2.4479	-2.3937	-2.9021	-2.6	-2.9292	-2.7375	-2.5292	-3.0938	-2.4813	-2.5312	-3.075	-2.1917	-2.9542	168.354	19.821	115.294	293.414	282.258	147.148	251.574	263.215	4.706	21.725	278.184	138.782	258.793	13.155	310.992	23.258	0.00030693	0.00052378	4.9082e-05	1362.2	5.181e-06	3.6134e-07	1365.1	366.02	4.9604e-06	7.1395e-06	420.82	141.76	122.76	42.379	2.0853e-06	52.725	0.00047614	0.0004518	0.00013227	1370.3	5.1995e-06	4.853e-06	1367.1	370.33	5.1638e-06	4.888e-06	422.15	143.52	124	42.741	5.4622e-06	53.187	235.420	23.539	78.646	-16.096	117.373	131.107	-16.333	-11.185	214.166	146.596	-12.041	-7.115	-6.587	-2.938	216.852	-3.559	-8191	255	
13997.953	1	1	0	0	0.23804	0.29628	0.15688	0.1182	0.12858	0.13217	0.20042	0.29294	0.013314	0.095004	0.11601	0.043117	0.11818	0.1285	0.18838	0.19803	-2.2042	-2.2438	-2.8354	-2.575	-2.4646	-2.8708	-2.6229	-2.8667	-2.6167	-2.3854	-2.9333	-2.3833	-2.6396	-2.8854	-2.2188	-2.7167	262.780	-2.065	22.967	8.257	2.956	216.481	304.928	294.721	203.081	255.477	183.312	110.346	250.623	84.086	177.518	311.045	0.00040806	0.0006442	0.0001447	1360	3.4967e-06	2.7082e-06	1362.9	366.52	3.4712e-06	2.8249e-06	417.62	141.89	122.68	42.304	3.1411e-06	52.454	0.00047002	0.00044706	0.00014008	1368	5.0904e-06	4.8824e-06	1368.1	369.76	5.0353e-06	4.8603e-06	421.69	143.27	123.62	42.803	5.5674e-06	53.053	252.493	60.862	127.641	-16.087	46.558	76.522	-16.418	-11.552	279.085	108.737	-11.981	-7.354	-6.612	-2.628	115.134	-3.355	-8191	255	
13998.048	1	1	0	0	0.1886	0.10372	0.11568	0.24569	0.30982	0.15383	0.13269	0.16417	0.017537	0.098404	0.17266	0.052425	0.27504	0.1033	0.18501	0.34645	-2.2146	-2.1396	-2.6667	-2.6583	-2.4417	-2.9	-2.3042	-2.6917	-2.8125	-2.0438	-2.9333	-2.7313	-2.6896	-2.8812	-2.2375	-2.6188	9.103	-26.694	168.856	304.734	249.385	-24.908	246.278	-22.547	274.019	23.415	1.447	210.105	13.782	123.578	124.237	262.894	0.00027685	0.00044094	4.9858e-05	1363.7	5.3321e-06	5.1838e-06	1362.1	366.49	1.5611e-06	5.9945e-06	418.24	141.85	123.64	42.546	4.1207e-06	52.578	0.00045466	0.00045685	0.00014337	1367.3	4.959e-06	5.0497e-06	1368.5	369.45	4.8205e-06	5.0678e-06	421.88	142.95	123.57	42.962	5.3947e-06	52.881	225.512	91.165	65.891	-16.237	20.902	139.724	-16.140	-11.301	177.943	123.593	-11.987	-7.017	-6.567	-2.543	103.879	-3.635	-8191	255	
13998.144	1	1	0	0	0.11181	0.14652	0.33494	0.23763	0.17339	0.33471	0.29519	0.2599	0.083795	0.13508	0.069585	0.1208	0.33392	0.15521	0.29198	0.25457	-2.475	-2.0438	-2.8333	-2.6562	-2.2562	-2.8604	-2.4417	-2.5333	-2.7687	-2.15	-2.95	-2.8354	-2.4896	-2.9062	-2.2333	-2.4188	120.147	133.326	27.439	274.190	225.713	153.537	300.439	314.576	66.623	184.357	291.157	-26.616	317.752	-7.657	17.491	289.792	0.00015159	0.00053664	0.00018117	1358.4	4.9274e-06	4.6088e-06	1363	366.91	3.4729e-06	9.3559e-06	418.29	142.66	123.25	42.579	7.6392e-06	52.816	0.0004287	0.0004671	0.00013622	1363.3	4.6775e-06	5.1161e-06	1365.1	369.13	4.6054e-06	5.1724e-06	420.67	142.79	123.38	43.121	5.1118e-06	52.796	211.014	101.253	77.056	-16.113	59.766	172.951	-16.174	-11.452	245.032	115.303	-12.206	-6.894	-6.607	-2.747	119.776	-3.250	-8191	255	
13998.240	1	1	0	0	0.13245	0.1603	0.10201	0.22537	0.034228	0.22553	0.16342	0.15245	0.1203	0.16481	0.10194	0.1478	0.096611	0.077653	0.17848	0.054985	-2.5438	-2.0521	-2.7729	-2.8208	-2.275	-2.9313	-2.6479	-2.3563	-2.8854	-2.3646	-2.6813	-2.9437	-2.4	-3.0875	-2.5917	-2.3375	80.944	61.387	-19.419	251.720	148.041	285.362	276.813	121.389	146.299	232.737	289.594	275.430	263.678	310.620	321.675	292.974	0.00031036	0.00037181	9.5543e-05	1358.5	8.0663e-06	1.9986e-06	1365.6	367.27	6.3841e-06	1.3626e-06	421.54	142.48	122.99	42.614	4.9398e-06	52.456	0.00041879	0.00047807	0.00012962	1361.9	4.6285e-06	5.1908e-06	1365.3	368.28	4.6122e-06	5.2377e-06	420.15	142.6	123.52	43.073	4.8646e-06	52.576	246.769	93.508	44.965	-16.160	110.654	101.005	-16.030	-11.342	197.247	107.394	-11.770	-7.109	-6.516	-2.808	152.946	-3.707	-8191	255	
#DATA ENDS
